Fp1,Fp2,F3,F4,C3,C4,P3,P4,O1,O2,F7,F8,T7,T8,P7,P8,Fz,Cz,Pz
-141.7016,-182.8916,-39.8934,-117.3867,43.8507,-47.2223,38.1750,-14.1302,51.2976,16.6048,-34.8696,-73.3047,22.6304,-67.9632,17.0692,-59.9271,-76.6795,-0.4575,37.8137
155.7703,207.1588,32.3980,121.5024,-87.9794,16.1461,-114.9708,1.7654,-58.8234,-88.3747,22.6622,91.1639,-34.3449,122.8825,-56.8131,65.2518,62.8702,-43.1785,-96.9749
298.7016,415.5926,76.7774,258.7158,-111.7102,84.0926,-116.0401,32.7633,-83.8658,-98.3995,68.4673,190.0067,-50.3758,219.0490,-72.6757,149.8967,142.9834,-58.4817,-123.4972
277.1393,341.8435,88.6092,221.6745,-33.4462,106.0708,14.0604,59.2546,22.6386,-68.0501,56.4502,185.3599,-29.1124,195.9495,15.0826,134.5503,151.2497,-30.5187,-37.7522
252.1091,249.2351,75.5394,199.8265,13.4582,138.3955,79.9085,95.2434,77.5785,-90.3429,30.7496,196.5481,-13.0712,217.8540,87.4131,90.2320,170.1053,35.2591,32.6462
209.8428,220.3221,49.6925,239.6176,29.0318,194.1560,77.9705,132.2676,34.6736,-105.9324,45.5732,222.1060,9.7097,263.5010,89.8845,73.0967,197.4886,105.0074,45.2600
160.4240,202.0940,53.6975,236.1222,62.7425,194.9507,97.6067,131.3120,19.0674,-63.4880,81.7262,191.7601,49.9778,226.9107,98.7350,78.3014,195.8882,115.5303,33.9985
216.3606,237.9937,87.9413,186.7899,70.7013,127.7907,108.1559,89.7475,48.3055,-36.9927,104.5137,148.8875,66.9893,178.1956,122.2343,92.3466,186.6816,46.7780,16.4509
302.0748,296.4234,101.3657,152.2743,41.1267,62.1206,86.9147,47.8096,48.9348,-60.9616,104.2265,146.8258,35.7753,181.6928,97.5781,102.7913,194.4109,-16.0320,2.1164
281.3803,304.3810,105.5514,174.9243,29.4457,39.2643,62.4584,28.9618,1.6072,-83.4622,85.8031,171.2234,-14.1565,175.5924,38.1731,99.6909,224.7560,4.6224,-19.7801
256.8057,331.1749,156.3644,275.8472,29.5173,55.6115,-0.1993,9.4153,-82.1153,-103.2363,91.5698,214.4407,-37.3865,160.8617,-10.7217,75.9644,279.1411,42.2650,-76.6670
331.5995,392.4076,234.1283,360.5913,9.7975,79.2708,-101.8507,-35.1051,-161.3195,-149.1091,152.3804,243.8916,-18.4761,183.6757,-49.3361,31.7834,316.1496,15.8952,-134.7626
390.1097,392.3447,276.2650,316.4583,0.3826,73.2581,-139.9622,-65.0965,-167.2737,-177.6112,210.3592,209.9928,15.9273,196.2446,-60.3110,8.6214,297.4688,-0.4066,-131.9035
361.4422,379.4637,273.9167,234.6401,18.6695,50.1477,-90.4490,-37.9874,-109.7583,-152.3353,217.3243,157.2769,48.7968,157.8709,-10.0879,40.2036,263.4529,56.5729,-97.2425
332.4991,425.4580,254.9435,233.0117,26.0808,27.3069,-48.9356,-18.1403,-61.8012,-134.8725,224.3634,137.9606,99.6265,102.9972,70.0212,62.1005,247.3433,69.1861,-108.0607
333.8571,411.2204,230.5894,219.6004,-3.4525,-28.6364,-64.0699,-76.4416,-41.0216,-174.6885,248.0036,103.3243,145.4347,52.3624,111.9288,9.9908,208.8177,-37.7412,-157.3661
318.1360,297.0063,188.5007,126.6317,-58.0494,-97.3321,-100.1599,-130.8493,-35.8199,-207.8803,215.7717,51.2207,123.1350,25.1113,90.9353,-48.8208,140.6073,-131.0455,-169.2700
295.4241,245.4656,128.0884,73.7852,-101.8246,-92.3914,-102.8552,-85.0519,-47.1419,-170.7112,131.3301,62.3248,68.2017,48.6707,45.2464,-36.3736,105.3894,-116.3239,-107.2374
306.0369,299.5934,96.6273,114.5796,-94.1388,-33.4369,-38.5482,-13.5523,-35.1763,-115.1197,91.4160,116.1148,83.7782,78.3786,49.2671,7.0812,128.0864,-74.7023,-12.0812
340.8366,340.4733,126.4672,165.8091,-41.3577,-9.1107,52.4732,-6.9482,24.4841,-106.0570,118.0386,133.2543,159.6604,64.4524,125.2342,22.4801,169.5419,-46.3440,48.1385
361.3660,338.3986,162.1217,212.2028,9.3980,14.3183,93.6698,-6.7721,59.9092,-106.1063,155.1942,141.4550,210.1221,51.8362,186.2160,6.3881,199.0419,24.2572,55.4620
355.0404,342.1368,160.2418,285.1347,41.0741,102.9728,89.1195,48.1697,19.0771,-63.6590,184.0354,183.2471,222.5958,78.8754,156.1564,-28.6636,217.8105,108.0264,51.3774
345.3541,355.6022,169.2408,334.4100,60.2868,190.2271,83.6857,109.9049,-40.5835,-7.8239,212.4659,217.2924,207.0905,109.7444,82.4731,-42.6196,227.3871,119.8046,57.0057
337.4486,355.8355,199.6484,311.0087,55.7622,201.4349,67.2528,131.8916,-64.8350,19.1976,227.7579,217.7775,144.9337,119.5163,36.2946,0.3533,208.9477,75.2650,44.4581
299.7289,321.1320,182.1865,250.5392,30.6111,173.8713,38.9350,122.7260,-69.4515,19.8599,217.3009,196.9088,80.3130,111.8622,17.9674,46.5397,152.2921,42.8674,8.6904
240.1234,269.1000,116.1270,203.3891,15.1441,147.1668,40.8483,100.6763,-70.6959,7.5591,179.6143,149.6497,81.4163,88.2509,22.8618,39.8784,95.2785,31.4478,-13.8026
212.6776,263.1728,67.3956,178.5028,16.0750,106.9115,63.7228,88.5735,-60.9430,-4.4355,126.4637,95.6136,113.0635,62.8592,59.0596,27.0263,76.3075,13.4462,-15.8475
227.4516,290.9458,46.3212,161.7202,12.3459,58.1604,57.1892,88.6063,-41.2713,-11.6426,89.2806,72.6870,108.2265,39.0324,85.9562,40.9299,74.6674,-20.6452,-28.9652
253.6223,265.2015,40.4409,142.9114,-1.3808,29.7904,24.7674,66.2250,-22.2690,-39.5625,79.7193,64.7466,78.3990,11.3589,63.4751,38.7995,69.9121,-53.6749,-50.2949
269.2518,187.4612,55.5892,117.0163,-5.7888,27.3463,6.4893,31.4711,-14.5294,-83.2431,73.3472,46.8108,54.3680,17.5440,26.9993,27.4725,79.3406,-56.8036,-34.3787
246.1346,126.5264,59.4029,77.7847,12.7442,36.0004,15.2849,42.3163,-20.9624,-80.9255,62.4009,37.8013,40.1870,66.5118,21.4405,54.1128,87.6157,-23.5319,20.4083
188.5836,105.9528,29.4670,52.8980,30.2029,46.1357,28.0567,84.4215,-29.1942,-32.3703,57.1906,48.8596,40.2536,80.8741,30.6242,88.7766,70.8040,26.0216,47.3625
169.9275,147.2050,14.3239,99.2572,8.9160,65.1451,11.2156,88.9791,-33.4329,-18.8766,42.4254,77.2614,37.9969,43.9903,32.6159,79.4381,76.4662,74.1875,17.6637
216.6026,253.4388,38.7257,196.2229,-32.0452,99.8799,-20.8241,64.3119,-39.8538,-49.0162,15.9639,130.3159,14.0576,41.4548,49.4137,35.0896,132.7155,107.9961,-4.6885
259.8461,339.0145,73.5079,253.3904,-33.6408,139.6522,-6.3990,72.4344,-33.5256,-44.8375,26.3355,183.5961,7.2621,85.2751,92.9020,-16.8166,172.9257,127.5875,21.0232
266.8317,355.2433,117.4111,262.6374,7.8007,181.5190,53.5065,117.3292,2.1247,4.9618,97.4193,196.4207,47.5868,107.7585,119.6100,-42.9448,166.8887,156.9699,39.1586
263.9689,355.4003,161.8746,270.0864,47.5791,221.9407,86.2529,149.0530,37.5769,29.2417,178.0241,177.2964,88.4542,101.7380,93.5871,-14.1057,165.5366,191.7936,12.4609
244.6410,346.7692,152.6361,249.7176,68.6544,221.0172,74.9694,136.0946,39.1955,0.9814,207.5081,153.0939,98.3978,89.1555,53.4156,26.1519,165.6825,198.8736,-17.2598
194.9477,302.2817,88.3074,197.4539,66.2308,173.9736,54.2283,101.6605,25.3908,-24.1197,172.6931,132.9068,94.6033,69.4823,46.0409,27.5415,117.3413,202.7262,-36.1000
134.6650,270.9585,28.1583,189.3643,22.0027,155.2443,10.9261,93.6170,15.5172,-0.6877,100.4614,131.0573,59.9185,75.7484,39.1384,39.3590,47.0634,233.4040,-73.7296
79.0848,270.3611,-4.7504,208.4355,-43.0789,173.6324,-62.2231,102.2846,-11.1901,21.5125,43.8742,133.4731,-11.6988,118.5295,-2.8814,87.2546,15.3747,214.3094,-103.9528
55.2062,239.6063,-11.5533,154.6837,-73.1755,131.5489,-97.3919,63.3959,-48.5393,-31.6190,47.2274,88.9904,-38.5046,119.6421,-20.7965,84.5282,12.5768,92.7175,-89.7710
92.7053,189.8084,3.4658,53.5518,-61.4950,21.3714,-58.5005,-17.9798,-50.1826,-116.8708,87.2520,10.6890,24.3765,51.1386,37.5052,12.8109,-7.5815,-23.3408,-77.6241
137.1956,174.2268,-6.0858,1.1341,-53.3578,-45.1097,-16.0227,-58.7035,-24.7652,-138.9102,87.7523,-21.9904,88.3818,6.8053,100.8451,-27.3550,-52.3396,-43.8423,-104.1711
117.5889,162.8651,-60.0434,-5.9201,-69.9155,-32.0611,-34.3161,-42.1090,-30.3629,-123.1903,17.2896,12.3988,68.3291,43.5276,86.8864,-16.6785,-85.5129,-32.1449,-115.7925
80.5661,135.4506,-95.9509,-3.4646,-89.4173,2.6676,-79.0387,-26.4706,-64.6092,-133.4364,-68.8544,67.9231,-8.1900,106.8429,30.2096,-20.9858,-77.6839,-38.7930,-84.2220
93.8556,135.5890,-85.1463,9.4011,-95.8618,34.8384,-96.5281,-16.4784,-83.9543,-119.5679,-103.1848,109.3914,-78.1265,136.1023,-9.3226,-26.1601,-51.2419,-25.2197,-62.5176
121.6258,148.9417,-68.3679,12.6522,-102.5204,66.9533,-106.8317,20.5886,-96.4540,-46.5810,-83.5282,119.8847,-118.8662,123.0205,-50.5170,9.4904,-41.6290,6.7632,-75.3772
121.2420,122.2718,-45.1299,0.6216,-116.1100,83.3524,-140.1291,52.6095,-109.6282,1.3364,-50.9336,97.6471,-129.7050,83.7250,-108.4737,45.7072,-34.7239,16.0399,-89.7194
113.4059,77.8520,6.2416,11.4884,-111.9948,72.5389,-147.7017,30.0680,-72.0135,-11.7815,-23.9501,64.7792,-107.2922,34.9434,-123.7768,46.0169,-9.8792,13.4879,-88.0765
110.5380,70.2836,50.6275,41.6437,-75.4419,35.3097,-89.4325,-22.5429,18.2181,-18.2884,5.6353,38.7643,-59.4164,-7.0924,-68.2698,33.9072,17.6640,20.4334,-74.5675
115.5440,116.4283,68.7006,70.2041,-27.4517,1.9592,-33.3569,-53.7971,70.1839,0.3882,37.1104,34.7215,-20.7367,-15.9619,-22.0270,23.5614,55.2616,30.1022,-59.7275
153.4729,201.9185,97.6917,130.1212,18.5191,21.9250,-40.8505,-61.4797,41.8440,8.7501,69.2759,69.6710,-12.3409,15.4514,-50.6261,15.8907,123.3767,52.6060,-73.5724
214.1506,276.2555,146.9666,208.6159,64.7661,64.3973,-69.4838,-73.7025,-12.8399,8.4876,119.3667,101.3940,6.5253,33.7896,-96.2892,19.1925,177.0358,91.1281,-120.5297
252.4135,294.2273,191.1249,217.5708,86.6452,43.7616,-90.0074,-105.5300,-53.5361,4.0049,179.6534,62.7165,66.8887,-1.8026,-86.8777,19.1144,168.4786,101.4094,-156.9129
269.6627,278.0857,220.7892,156.4441,57.7091,-16.5589,-132.9581,-151.8681,-86.4287,-19.3252,194.5339,-9.6856,104.5985,-43.4210,-55.4394,12.3228,135.0587,53.0353,-177.7686
291.0798,256.8354,221.4411,114.2427,-2.1261,-35.7380,-182.3549,-197.2830,-116.0168,-56.5633,143.0789,-31.8425,62.5668,-55.4043,-55.5100,25.2432,112.3134,-30.7553,-227.4809
284.3442,215.3958,173.8454,97.7907,-68.1019,-43.2842,-204.2848,-228.1010,-138.1902,-102.0492,81.8989,-21.4895,-3.6562,-80.2999,-69.8390,27.7785,64.0835,-114.7774,-287.0012
201.6964,162.3300,95.4661,46.3819,-147.4034,-82.3077,-227.8769,-230.2397,-140.9438,-143.3501,46.9660,-30.4070,-39.3959,-112.0104,-80.8728,-29.0091,-28.6568,-168.6563,-289.7180
78.1784,127.0798,17.6257,-31.4935,-231.6857,-91.6495,-262.2484,-193.4403,-115.4359,-140.3609,7.9653,-38.0125,-72.7097,-83.8642,-105.9982,-75.1347,-116.9451,-175.7865,-253.6956
4.4759,97.2763,-44.1272,-78.8305,-281.5444,-54.8752,-274.3196,-154.3561,-99.1165,-107.5804,-42.5228,-31.2611,-110.7112,-30.2993,-130.9376,-22.5208,-146.6252,-170.0788,-253.7869
8.6954,69.5649,-76.4372,-80.7594,-285.5374,-54.3624,-292.1123,-179.7879,-137.5168,-117.4553,-79.3602,-37.1197,-130.8096,-41.6719,-137.0470,64.3980,-112.7589,-200.1873,-290.8226
34.5371,76.1198,-83.4807,-58.3649,-281.1043,-98.1660,-345.8783,-247.4770,-199.2920,-164.0010,-118.8075,-38.6981,-169.1530,-79.7170,-160.2391,92.7663,-64.4315,-245.1400,-311.2070
36.3124,96.6239,-90.7567,-28.7314,-296.5923,-118.1363,-372.0175,-254.0067,-222.5937,-185.4351,-170.0087,-15.6111,-240.5334,-62.5187,-206.4282,84.6322,-48.9750,-243.2959,-302.2437
23.0271,78.5867,-96.5043,3.9830,-303.7290,-114.9453,-331.4698,-195.3358,-201.3597,-187.3862,-185.1229,-12.5491,-269.2466,-37.8306,-208.6911,70.1237,-39.0235,-190.5206,-273.9608
16.0216,53.7523,-79.3657,52.9459,-262.2339,-112.0649,-272.4543,-159.4887,-156.5417,-181.5821,-168.6139,-39.7983,-237.0132,-61.7676,-156.1848,42.8907,18.0576,-130.5160,-212.1392
33.0363,94.2902,-50.8189,131.7156,-194.2823,-73.1041,-214.3818,-134.2416,-109.1560,-139.7508,-189.6712,-29.6491,-225.5044,-63.1252,-123.9837,40.8523,98.0982,-87.0311,-126.4247
84.1266,178.8273,-31.4767,204.5415,-154.2654,-5.0926,-157.7655,-72.8058,-98.9972,-102.8698,-224.1464,26.6872,-246.7902,-9.5357,-135.1179,71.6678,143.7364,-77.4123,-85.3066
142.0369,218.1218,-7.9562,199.9964,-144.3850,5.8238,-151.0053,-65.8384,-130.0545,-132.1087,-178.8434,52.1444,-236.3906,0.9203,-144.2585,63.2182,152.6618,-121.6664,-125.8672
173.8215,186.7986,37.2704,119.4545,-130.6963,-51.2096,-182.0813,-154.7611,-135.0009,-164.8356,-68.9398,28.6048,-194.9635,-48.4856,-141.0592,23.4889,143.0136,-177.7706,-172.7760
187.7105,142.7720,86.5730,53.5998,-103.7854,-81.5166,-156.3088,-176.1890,-75.1798,-126.3471,10.9961,21.5480,-158.9985,-42.5514,-136.2287,39.8655,110.9158,-174.0167,-135.3234
183.1694,124.4409,97.0124,35.2555,-74.1605,-53.3062,-68.9206,-66.8859,2.5416,-67.8521,21.4273,53.8352,-121.8073,26.8635,-106.5428,82.1416,60.3962,-133.4137,-45.9131
131.7219,104.0435,47.6308,3.4815,-57.2837,-30.9118,-3.4360,4.2947,56.6423,-38.3312,-21.5316,77.1555,-86.1613,55.5868,-47.9384,62.9705,11.1576,-120.1755,7.6805
55.5990,59.1364,-14.1059,-38.7162,-53.3283,-20.5245,33.1603,-2.8889,102.8688,4.8330,-60.7197,72.8244,-66.8756,59.2616,-2.5379,28.5711,-11.9780,-95.9182,36.2895
21.5574,17.7280,-9.4106,-14.7945,-15.0012,35.2651,85.0990,61.4610,153.0921,77.3236,-17.2627,84.0343,-34.1218,115.0902,10.4478,56.9346,19.3127,-16.8275,98.1442
53.6259,9.3835,68.3130,58.4302,72.9776,103.4494,131.0156,175.7535,183.4097,130.8679,87.9652,125.5598,23.2759,163.0193,10.1428,108.9040,95.6441,28.9004,160.2696
124.1145,29.0085,145.3908,94.2829,117.4550,93.1916,130.5692,180.0097,178.9453,141.7234,140.9800,140.7147,54.7693,131.8157,4.3225,127.9022,161.0601,-25.2207,159.1096
178.1368,48.8612,171.0113,89.1357,70.4933,21.9375,101.4658,95.7980,164.8360,117.4217,120.0598,97.9539,44.7845,92.6762,-5.6729,116.6443,193.0609,-93.4869,123.3951
172.0245,52.1296,165.1446,94.6843,32.2143,-23.6852,76.9075,37.2123,169.2404,63.7368,99.4856,63.3504,29.2217,103.8177,-3.9127,82.2217,223.6869,-97.2630,108.9807
164.5207,89.9858,167.0813,135.0762,49.0158,-21.7245,49.1877,1.1413,174.8352,9.7462,97.7712,103.6036,7.6612,119.5505,5.2202,48.9994,262.3751,-60.3124,97.8414
261.7340,235.3472,181.8240,213.5360,31.7243,12.3138,-5.7765,-23.4898,146.7794,-0.9415,94.0117,173.2426,-35.6831,118.9595,-10.3661,56.9832,277.7002,-11.4857,59.1053
420.4648,416.6428,182.5871,279.9680,-33.3710,65.5894,-64.0005,4.8620,100.9468,28.4015,94.2254,183.6168,-74.0583,118.9405,-49.9536,81.6772,251.6093,23.2595,26.7598
499.6728,465.3488,159.4496,252.5893,-65.1357,94.6331,-62.4142,62.6309,90.8140,56.5134,87.6150,135.6284,-85.8619,107.4843,-67.2879,88.6129,198.9528,1.7469,43.5046
486.8056,382.4494,137.8282,161.1391,-71.7856,79.6481,-5.6650,100.1705,124.1669,79.4951,63.5899,92.5575,-83.0322,89.6338,-40.8216,126.7759,143.7444,-49.1165,85.6145
452.0518,314.0291,121.0464,106.4656,-106.1834,64.3131,20.8860,126.2277,148.4461,124.8726,49.7085,64.3089,-71.9635,82.8826,0.2611,206.9046,88.5811,-65.3051,100.2033
389.0874,278.4825,72.0978,82.8753,-140.3466,67.0454,-0.7369,147.0545,133.1136,170.4394,37.7141,24.1055,-57.2024,70.0872,32.6996,219.9262,21.5499,-51.8546,90.4232
289.3842,207.0476,-5.6915,51.2758,-138.4734,80.2873,11.4885,164.1134,113.3057,167.6944,-5.1340,3.9676,-49.5928,68.1252,60.4698,128.2567,-28.7131,-20.5014,106.0960
211.0779,146.1753,-54.4840,61.5763,-109.2026,127.9636,83.8638,204.7169,123.6312,140.0168,-37.8759,46.5802,-36.8632,110.8540,78.1294,54.0543,-14.3019,40.7616,153.5236
175.2654,147.7058,-63.6559,114.6970,-61.5600,174.2380,154.2342,241.3360,145.2874,141.4780,-24.7920,95.4371,-9.9363,136.5538,75.8142,72.3131,27.8240,77.3584,189.9624
152.3486,146.8795,-84.6660,122.9624,-25.8173,129.3549,197.0591,222.1120,162.4464,157.3494,-25.0303,75.2501,-2.9604,97.4543,65.6649,115.2777,19.4305,54.7775,209.3760
140.2892,125.9624,-122.5236,97.3459,-34.8786,38.8331,229.2629,191.2978,200.4333,158.0127,-65.7039,29.2482,-41.6019,72.3259,49.3330,124.3650,-9.2636,49.1140,236.7127
142.0399,151.6255,-117.3933,116.7279,-57.0554,17.3800,233.4075,190.1378,260.7661,159.6794,-87.9885,27.7637,-98.6596,82.8081,4.9075,109.7403,19.8250,64.3771,249.7912
138.3456,198.1872,-53.4739,151.4151,-62.9825,27.0764,196.7012,162.5894,306.2225,158.5435,-75.6503,35.1208,-138.7398,46.1084,-52.3343,75.4743,73.4764,14.1143,216.0839
125.4268,188.5146,11.0455,148.7509,-70.4079,1.2906,155.7358,116.2104,323.9909,141.2542,-54.2313,11.5975,-149.8387,-1.5707,-73.3629,38.2045,88.8682,-30.5180,172.5206
117.5797,148.4941,50.1427,146.3873,-50.0075,8.1645,132.9762,136.0812,311.9958,151.2443,-0.8891,5.6979,-125.1173,33.4730,-58.0184,51.1503,110.5454,46.8772,170.5905
136.8071,124.2841,110.2201,150.9147,38.1513,59.6762,112.6409,177.1515,262.2529,195.5348,91.6190,32.8229,-64.0779,79.6532,-39.0623,105.1782,183.9822,125.6165,194.7919
196.1028,98.5069,199.6881,114.6902,129.9130,56.4301,95.3764,145.2137,219.9701,191.6970,157.3709,43.2648,7.6235,64.3383,-10.5650,119.9999,248.1244,87.5801,200.5886
246.6420,92.6981,247.1154,82.3590,158.8118,32.8076,90.8451,119.9192,218.5829,118.6903,154.8210,53.5323,46.4118,81.8071,23.9296,82.0111,250.5504,77.8752,174.4466
226.3427,149.4547,226.5766,136.1358,160.3440,102.9472,75.5348,189.3941,174.3085,53.1614,121.6647,103.1920,36.9475,152.1395,12.8756,49.9254,227.8839,180.2416,129.8503
170.6451,201.3310,197.5224,224.5206,165.3644,195.0416,34.3542,238.6098,47.1175,34.5749,104.7846,128.6317,22.9838,141.7181,-34.7594,36.9666,215.9842,233.6061,90.2527
141.8895,166.2856,182.9723,243.7181,160.3042,177.1081,5.1591,170.9709,-26.6237,61.0027,106.4165,84.7906,48.4322,51.4634,-30.8565,25.7625,210.2108,184.2357,72.7908
119.3883,111.5806,156.9790,217.4142,161.4833,108.7093,16.6138,97.4891,20.4593,132.9823,102.0784,56.9790,83.2173,24.7589,29.1089,27.9689,213.1265,167.3788,66.0229
85.1190,137.1733,139.5775,229.2563,172.5016,105.0441,30.0066,103.3192,52.4318,195.3751,83.3602,85.0129,79.0367,62.3883,51.3746,35.1493,216.6154,190.9487,40.4585
70.9556,199.0865,151.0837,258.2924,150.9855,134.0779,6.1521,101.7294,6.0387,190.3327,67.5176,83.6555,53.3507,57.1919,25.2861,28.2838,186.1100,155.7482,-6.6661
66.5283,203.2913,149.2559,232.5672,103.9985,120.6929,-14.8831,57.5663,-9.1908,164.0855,65.1343,39.4357,39.3681,30.2521,32.0034,44.4457,135.4174,96.0737,-27.1165
53.8151,162.1449,123.2638,171.7863,85.5100,84.7184,29.6267,67.2720,46.8988,161.5843,71.7463,38.8642,33.0238,64.5694,80.6919,94.9308,121.3965,84.7150,24.2328
62.4478,128.1331,106.1380,129.6154,89.4110,69.2453,114.1182,126.8022,94.9031,135.5550,76.3836,71.5510,40.1213,117.4495,115.5408,107.2235,118.9116,75.6987,94.4310
53.6615,76.0354,65.9627,70.8139,65.4166,45.5204,144.0808,105.0763,92.8646,68.3936,51.4798,46.9136,73.5758,97.4217,137.3478,62.2850,42.4027,23.4133,73.1928
-46.4379,-28.4386,-25.1789,-45.2630,8.3676,-25.9920,89.3107,-2.2129,57.5218,10.8632,-1.6377,-24.9774,104.4868,26.6009,170.0066,27.1310,-81.7821,-33.2620,-31.0059
-144.4537,-120.2162,-83.4226,-146.2917,-41.4583,-96.2509,21.0917,-59.9087,24.1991,-14.6806,-14.5659,-59.4955,107.8898,-4.0692,182.1216,21.7273,-137.0089,-67.0836,-94.6447
-100.6557,-112.5955,-59.5874,-150.2516,-62.2570,-92.3009,-12.3464,-36.7111,23.5449,-12.9007,31.9027,-37.1838,101.6999,32.0448,142.3193,35.0569,-112.0582,-95.2039,-91.0282
3.8225,-35.3110,-36.5535,-92.6407,-82.2508,-56.4550,-52.7327,-25.2253,12.5258,-4.9565,47.2207,-4.3635,90.9824,81.2552,69.2334,81.4236,-90.3777,-132.3841,-102.9585
24.2450,15.1677,-54.9500,-51.8519,-126.5816,-84.9266,-121.0147,-66.3487,-72.1577,-56.2726,0.7876,0.0809,64.3288,81.7577,-11.5106,106.7699,-79.2387,-181.8538,-135.1668
10.0752,25.4202,-57.6601,-40.3913,-166.0692,-154.1481,-166.1676,-131.7043,-178.1757,-165.8618,-26.0410,-19.4220,39.7853,31.9545,-80.8216,44.5241,-41.6834,-222.6714,-145.3112
40.5680,52.6168,-51.2055,-22.4087,-187.7476,-160.7923,-190.9522,-187.3652,-226.1649,-207.1025,-26.8161,-25.3426,28.3156,2.8047,-114.2744,-9.0654,-33.5402,-212.4443,-187.3973
41.9343,95.2123,-94.1850,21.1100,-237.8123,-88.1659,-264.5912,-185.5173,-245.1094,-128.0983,-73.4986,-8.5431,5.7747,52.4306,-119.7688,56.0733,-116.6946,-157.2959,-295.7197
-29.8066,94.1330,-149.5749,59.2889,-310.5432,-1.9657,-357.2167,-117.7434,-269.4455,-50.5658,-134.7664,-6.6292,-29.8940,146.0775,-137.6917,146.2679,-205.3019,-125.3577,-359.2057
-68.9140,43.9108,-132.2841,43.4356,-328.9087,49.7334,-359.0305,-67.9206,-271.9144,-72.4520,-120.6834,-27.0730,-44.7385,223.5762,-171.5379,150.2160,-171.7654,-152.7760,-294.7898
-10.1631,-1.0002,-48.6299,-20.0279,-281.9840,56.0332,-276.0023,-86.8574,-254.2701,-143.3755,-48.0415,-35.5987,-16.9029,285.1626,-180.7253,132.1188,-53.4878,-198.9530,-181.6119
58.3472,-15.1699,11.2052,-74.3048,-225.8857,43.2461,-204.2144,-103.7993,-221.4224,-161.6571,-4.9577,-29.5551,42.5690,346.1911,-147.7400,171.9792,-5.1613,-206.1767,-119.0598
36.4283,-20.7567,-24.7094,-89.0541,-184.8392,61.0906,-166.2054,-62.9243,-135.2422,-86.9552,-31.7511,-22.6754,92.0643,400.5527,-99.6671,250.4068,-71.1005,-162.6403,-115.8026
-57.5158,-38.1482,-130.3360,-80.7273,-175.0994,99.0114,-148.0282,-24.5340,-27.8068,18.0689,-95.1669,-7.1298,95.0292,446.3333,-74.1531,327.8948,-144.0440,-114.3080,-146.1257
-124.6493,-61.8016,-203.7800,-85.5639,-210.1042,82.3313,-174.8809,-61.3535,-0.8582,49.7889,-134.2786,-4.3661,70.8035,456.8704,-88.8792,361.2568,-151.0345,-114.5971,-187.5612
-107.4471,-66.2221,-202.4461,-125.4458,-240.3750,7.0438,-232.8038,-148.5284,-61.4239,-5.2564,-141.8541,-42.4788,53.0208,400.6508,-125.8538,325.9160,-134.8260,-151.6264,-220.7235
-54.4504,-37.7095,-190.0146,-157.0769,-228.9951,-34.2291,-264.9061,-199.9418,-126.3436,-76.4444,-163.0351,-74.3467,31.2196,334.7431,-149.1172,281.8918,-135.1735,-168.2253,-246.1200
-46.5977,-10.1794,-205.4904,-119.3960,-215.9368,-5.1284,-267.3478,-183.7702,-150.3455,-124.2511,-184.1606,-58.2866,11.0796,321.1767,-146.9789,281.6625,-137.2131,-150.6055,-262.7371
-84.4459,-18.4618,-205.1093,-54.9784,-209.1742,22.8393,-258.5187,-155.7807,-136.3422,-138.0767,-144.6007,-41.6458,38.0061,307.6058,-130.1524,290.0193,-137.4224,-124.9593,-250.2542
-104.6284,-27.1565,-162.3167,-44.8990,-171.6004,4.9606,-228.4859,-149.8651,-107.0655,-106.5887,-61.9926,-48.8994,104.2765,269.6633,-99.0537,300.0849,-131.6069,-101.6029,-209.5333
-75.1697,1.0292,-105.8048,-63.5711,-128.6851,-18.1790,-194.3321,-126.7353,-93.7726,-68.6158,-3.2321,-44.2333,153.0672,276.1886,-55.2951,347.2262,-91.1484,-94.6280,-165.2085
-15.0279,18.8754,-69.4876,-61.9005,-117.0705,-18.2544,-180.3143,-83.2838,-89.2145,-60.8104,10.0535,-40.0996,163.8989,301.0493,-23.3461,390.9063,-39.0210,-115.7097,-125.3101
41.6142,-2.1025,-71.3095,-61.3644,-108.1016,-13.1356,-156.8108,-66.2642,-66.0211,-36.5438,-16.1497,-51.3209,138.5110,271.1715,-21.8328,382.5571,-29.9465,-117.5592,-96.2408
66.0692,6.6243,-87.9755,-51.2589,-88.4263,-3.5728,-117.4957,-59.8665,-39.7189,14.2125,-45.0598,-23.9358,92.8297,256.7361,-36.0618,358.2179,-33.4739,-73.4276,-96.7994
56.2200,59.9391,-65.7879,-1.5686,-78.0111,12.7278,-113.7589,-34.2050,-29.2591,2.2072,-14.0179,33.0316,87.7752,304.5268,-38.1939,335.7681,0.2168,-64.2101,-119.5421
29.4897,64.3337,-23.4820,25.6696,-67.6900,-0.1403,-145.4859,-36.5939,-20.7882,-77.5470,46.5336,42.1206,135.6008,319.1100,-15.1469,296.8314,21.2003,-124.2097,-142.8362
-17.6429,12.8005,-37.8744,0.1573,-58.2340,-51.9104,-164.5514,-80.4396,-24.2009,-115.6915,39.9333,32.8648,150.6789,291.5144,21.4523,276.2349,-7.2534,-145.5360,-176.1639
-76.1354,12.5477,-79.1154,5.1605,-63.7310,-96.8615,-173.1042,-104.0322,-68.9670,-104.4815,-11.6599,56.0538,105.2638,271.1631,39.3363,276.2486,-10.5292,-91.8244,-222.3492
-69.3031,79.0238,-38.6995,45.5466,-43.2661,-116.1376,-188.4596,-112.9543,-147.5297,-135.5502,-19.6780,37.1377,66.7668,186.5285,13.3875,219.9047,59.7269,-69.1612,-241.7851
45.4224,138.4306,67.8609,51.2835,26.3469,-118.1937,-197.3307,-148.6113,-232.4272,-193.0060,-1.0475,-20.1326,41.0712,80.0630,-43.8638,131.7160,150.3199,-84.1917,-216.9089
164.6187,180.2815,126.6089,72.9889,83.1901,-82.9628,-203.4269,-163.8733,-289.2200,-191.1392,-4.2217,22.1367,-10.7642,128.0644,-88.8846,131.8661,206.5530,-37.7749,-184.3116
166.9355,190.3321,110.4064,143.7053,98.4953,-33.0445,-200.8928,-133.9382,-273.4252,-156.4384,-21.4433,101.8272,-54.3796,187.1639,-84.9843,192.1124,203.0567,31.5198,-163.0389
75.4957,92.1948,63.9114,121.7631,110.2773,-55.7138,-141.7439,-128.5872,-199.8152,-169.4014,-66.7327,3.5480,-60.6279,-21.4616,-37.1789,170.7995,125.6109,18.2545,-125.3670
-17.2494,-80.2863,-2.0646,-39.2574,115.2737,-152.7526,-37.0060,-154.0138,-142.8605,-212.2124,-142.3226,-210.8523,-71.0775,-311.8746,12.1438,65.8435,18.1284,-28.8115,-61.0753
-77.2829,-187.1294,-78.2270,-172.2293,96.5191,-229.9550,30.1056,-146.9585,-117.9532,-220.7328,-173.0695,-307.6937,-95.8270,-375.6448,35.1066,-8.7149,-51.1559,-25.0719,-3.5424
-120.3804,-218.8039,-133.9793,-204.4741,88.0891,-260.0687,44.8128,-122.0754,-79.2901,-194.3970,-140.1190,-291.0184,-104.7394,-356.8505,49.1402,-11.4998,-89.7296,-14.0021,25.9660
-177.5169,-257.7901,-178.8746,-222.7063,96.0965,-271.0042,62.2584,-110.8926,-23.9177,-163.4507,-122.3141,-260.9628,-106.0686,-421.7421,74.4754,23.5368,-142.0678,-40.4588,45.5229
-257.7362,-271.8092,-238.6241,-242.1509,80.7116,-247.5930,83.6906,-73.8612,12.3079,-139.8081,-131.8552,-163.4714,-109.5214,-396.0696,96.4325,56.0558,-201.5986,-68.1968,60.3861
-297.1256,-215.2468,-288.6342,-235.6638,39.6655,-209.6879,65.9448,-16.3055,6.4764,-139.3964,-113.4671,-20.5501,-100.5857,-256.6980,95.9941,42.8563,-247.0188,-86.9499,36.4245
-245.3059,-172.6334,-300.7009,-248.8804,-8.8724,-229.6573,2.6342,-5.5877,-44.6214,-158.5987,-79.4035,-3.3535,-99.9219,-238.3175,73.8661,-10.0826,-287.6669,-117.8127,-30.8187
-182.1878,-196.6829,-292.3204,-281.0595,-60.4707,-277.8817,-72.1062,-28.0615,-96.0784,-145.6641,-70.7595,-94.9599,-134.7400,-336.1351,33.3912,-27.0038,-316.7329,-137.1310,-78.0207
-190.4862,-216.5597,-272.0978,-260.2697,-80.1565,-254.3243,-108.1873,-18.8460,-86.1770,-94.6975,-74.0044,-108.1019,-176.7435,-361.6327,-11.8174,2.5239,-287.9250,-114.1684,-65.0040
-206.8535,-192.5186,-218.9807,-190.6369,-34.1261,-172.9539,-79.3710,5.7937,-54.1339,-90.8965,-66.8096,-39.0036,-192.6993,-326.8647,-29.8485,-15.0404,-181.3601,-60.5841,-36.6685
-159.5124,-146.6877,-140.1332,-125.1187,43.7971,-114.7860,-26.0496,-4.1336,-94.1914,-161.5534,-49.3106,-14.8577,-190.6817,-326.6169,-17.7840,-89.1522,-55.5458,-1.0972,-34.9616
-95.7880,-75.5519,-69.7555,-59.8411,107.5253,-78.6761,-2.5096,-26.2279,-178.5344,-204.5512,-21.7858,-25.6937,-185.1402,-342.6745,-14.1779,-100.5185,19.3399,51.9267,-31.7830
-62.1197,5.4663,-16.0421,11.0182,153.9214,-34.0214,-0.8415,-6.7848,-199.7293,-152.9992,9.2945,-8.2136,-175.4604,-353.1132,-29.8784,-19.5902,59.7932,100.2645,0.2330
-41.5162,42.1492,27.0229,56.6956,184.3930,-3.3451,11.1991,41.2660,-159.2906,-75.6476,28.7991,3.1371,-156.6490,-360.8210,-34.2695,40.5175,115.0336,144.5524,34.9104
-37.8791,31.0814,45.0863,76.9710,192.2168,1.0756,32.1417,48.8465,-146.9521,-58.6999,19.0306,-13.3238,-138.3679,-343.3298,-25.9504,23.6423,153.3705,166.9355,42.6147
-61.1203,2.2202,26.4854,97.0148,182.2368,13.7324,44.8604,-0.1174,-181.2336,-97.8957,-33.7648,-10.2687,-151.9339,-316.1461,-31.3299,-22.1204,124.7545,170.1588,28.3172
-90.6893,-46.3913,-21.3201,103.3910,157.0112,47.2805,37.6100,-37.7127,-202.0323,-123.4456,-103.1123,9.6040,-201.0578,-312.3325,-40.1142,-62.8097,57.1084,190.9241,11.4679
-144.1580,-103.9465,-96.4564,57.7076,111.4512,64.7817,7.2706,-25.9817,-188.2216,-86.0227,-139.4729,-6.7740,-239.6291,-306.9714,-32.3641,-75.5351,-22.5618,217.3656,-2.4236
-245.6663,-133.3743,-190.6145,-28.3886,44.2890,48.2206,-33.8770,-5.2932,-187.9802,-27.8019,-148.7193,-46.0967,-246.9280,-272.9154,-34.4642,-31.8183,-120.5004,196.6432,-33.6660
-325.5751,-119.3877,-258.1490,-60.2258,-35.6592,46.6638,-77.0190,5.8623,-225.9778,-29.2880,-168.2821,-39.2940,-251.3795,-214.0249,-66.4268,19.9173,-174.5543,151.1288,-94.9092
-314.5641,-56.4141,-253.8592,37.5699,-96.8030,97.0102,-123.9516,28.0417,-250.2777,-81.5686,-189.2079,23.6135,-268.1721,-135.7919,-97.3312,5.9808,-115.9901,133.3457,-148.5792
-255.9531,35.6683,-183.7305,181.7983,-116.2660,134.1095,-164.9147,37.2254,-222.6836,-118.7550,-189.2859,69.7190,-301.7078,-79.8638,-115.3245,-41.0198,-11.7336,101.4666,-161.3270
-198.5943,84.3149,-87.4460,223.3042,-131.1738,86.3832,-199.6343,1.8976,-199.4505,-139.4794,-174.8478,45.1053,-356.4362,-94.0197,-152.2278,-57.4841,37.4132,8.3821,-177.1397
-131.8122,73.2374,-11.9593,170.6457,-178.9267,4.0923,-250.6200,-47.0349,-237.7243,-163.7521,-150.1615,-14.7660,-389.3804,-145.5617,-201.6350,-63.2280,30.5587,-79.3154,-241.8154
-86.4373,75.8579,-0.0875,142.9976,-218.6169,-34.8527,-303.0289,-79.9356,-290.1601,-163.2875,-122.7119,-53.5335,-360.3956,-182.0467,-219.6695,-85.3844,-6.6231,-84.5438,-304.2067
-109.2054,94.6813,-41.2276,154.7065,-202.0854,-38.0036,-306.3632,-100.1347,-286.8226,-136.6154,-105.0247,-67.0696,-312.2377,-193.9363,-217.0192,-101.6018,-50.9204,-25.3511,-291.9246
-147.0066,67.9699,-62.6669,141.3953,-149.6465,-16.4406,-261.4183,-85.8385,-248.3231,-119.7572,-77.5333,-59.1515,-286.2901,-161.6524,-240.3731,-100.7803,-39.0311,39.7234,-220.4505
-132.4878,30.3653,-30.6519,106.9102,-97.8141,39.1106,-212.2529,-31.1974,-233.4004,-101.8392,-38.1780,-24.9218,-261.0759,-99.4143,-277.3705,-92.8689,25.5965,68.0921,-154.7483
-104.0568,25.0459,1.7807,82.2786,-65.3016,64.3904,-173.7168,-6.1194,-237.8391,-68.8725,-38.5274,-12.5989,-237.9178,-96.5941,-277.3192,-92.2068,39.1534,48.8810,-127.9690
-111.4108,-17.8928,-9.5654,49.3743,-70.0161,8.1901,-140.5885,-50.0907,-215.2825,-54.5371,-77.9163,-61.8265,-236.5794,-160.0291,-238.0353,-118.5987,-15.7577,24.4671,-128.0165
-128.9803,-105.1264,-41.3015,1.7222,-98.0124,-41.6136,-107.9116,-89.0770,-162.0051,-51.0006,-88.1215,-94.9691,-226.2559,-181.1488,-201.4935,-151.3347,-47.8078,46.8446,-118.9386
-130.4574,-115.9731,-57.1104,-24.9135,-102.8854,-6.5718,-59.9043,-60.6222,-121.9990,-16.7847,-57.3234,-38.3029,-190.3401,-141.2783,-188.7911,-159.9212,-37.1450,105.0614,-81.8549
-115.3164,-42.1167,-41.3051,-16.2906,-69.7427,51.1155,-0.1335,-21.8435,-107.8176,13.7493,-16.0736,27.8374,-159.0390,-123.3733,-175.4453,-202.4118,-21.7360,147.3923,-36.9863
-66.8676,-8.7693,7.9659,6.4543,-17.4792,73.5754,51.8452,-40.2554,-65.6182,2.6082,37.0769,12.4219,-129.3625,-137.1102,-122.0097,-317.5071,16.7543,152.6877,2.0703
0.8688,-27.7640,64.3236,36.0897,34.0537,93.6040,113.0384,-62.9221,42.5960,17.3468,78.9570,-27.1577,-85.1061,-137.2027,-27.6804,-383.0516,82.2367,152.8004,50.7661
23.6248,3.4535,93.2838,91.4470,56.9226,130.8533,191.1802,0.9993,160.2279,112.0033,75.7273,-12.5821,-45.1082,-121.2321,60.1170,-304.9687,118.7629,188.7083,105.5954
-6.7562,94.2100,105.1038,171.9345,44.3975,167.2583,238.3939,120.2443,208.8761,213.1613,75.4454,28.9259,-3.5427,-92.2080,110.5879,-197.6893,120.5816,235.8993,147.3921
-23.3846,154.5985,130.3702,225.1062,39.9885,188.6734,250.2999,184.6192,205.9858,229.5688,112.9294,54.6778,51.0773,-41.9395,143.9375,-180.2761,135.9239,221.0975,185.4168
-2.7264,144.7309,155.8827,200.0311,62.8624,169.3739,279.8217,174.7179,216.5846,176.3047,116.1705,72.2609,67.4197,14.8285,173.0216,-195.5560,161.8969,141.7341,219.5318
13.7738,103.9240,143.1131,123.0128,66.1573,110.1851,296.4962,161.7795,226.9930,145.5249,50.0457,86.6000,22.6616,68.5033,174.0298,-158.0585,156.8509,71.7148,211.3055
6.4091,62.2385,88.2712,57.8165,23.7128,69.4573,227.4028,175.2538,186.8407,191.7260,-17.6490,89.2799,-23.9208,113.3388,140.3334,-90.7235,111.4911,33.2853,157.0945
-2.6599,9.0045,27.1074,10.9311,-29.9761,54.4970,125.1857,181.2484,128.6138,248.8162,-53.7134,81.5765,-48.3322,115.5841,94.9331,-59.6564,49.3102,-18.7614,106.9615
14.4510,-44.2240,-4.2183,-49.9985,-66.0588,0.8408,79.4929,148.2728,102.2167,206.5518,-82.4309,62.5761,-79.5615,75.2302,39.1858,-81.9814,2.0005,-102.0395,79.4030
55.8264,-56.7822,-7.8109,-122.5834,-93.8114,-81.3577,43.7608,75.2880,64.8403,82.5151,-105.1331,34.7943,-119.7944,51.5631,-40.9797,-107.7402,-25.8821,-188.0066,42.1894
56.8904,-40.6874,-29.2795,-185.0843,-138.0076,-117.3821,-58.4945,-0.5307,-14.6212,8.0297,-127.2120,8.9524,-170.4771,59.1204,-124.0360,-89.2289,-80.5261,-235.1870,-24.6231
-36.8751,-44.9409,-102.7479,-237.9659,-210.2427,-113.3151,-180.1364,-33.6970,-65.1235,30.9602,-169.4962,-21.4934,-234.1811,48.0800,-169.4449,-61.9310,-181.8568,-219.8702,-100.3932
-141.0565,-64.9391,-191.4344,-281.2578,-277.0139,-114.4352,-237.4084,-36.6687,-59.8175,59.9415,-202.9987,-57.9818,-259.3044,8.4651,-167.1240,-87.9166,-252.7151,-183.2235,-134.2939
-129.6249,-82.4019,-224.4765,-298.0374,-285.7717,-104.0599,-225.9474,-53.7779,-78.6211,13.0357,-181.6769,-69.1885,-212.5142,-20.1989,-131.9741,-156.1569,-225.0720,-190.5312,-88.6007
-53.0818,-119.5717,-195.5923,-286.6788,-243.8903,-77.0273,-188.2279,-81.3197,-135.7038,-78.4335,-122.4295,-52.1881,-135.8564,-28.3964,-84.4970,-216.5643,-158.9182,-223.2328,-6.1336
-46.8056,-159.3921,-166.0501,-266.8488,-204.5022,-77.8222,-155.8591,-94.7547,-146.8711,-130.4217,-72.1823,-48.3298,-60.0381,-39.7366,-54.0172,-241.8606,-145.6348,-214.5382,24.5208
-79.4494,-145.9629,-153.9728,-240.5998,-175.6269,-96.2049,-130.0667,-99.5368,-97.4142,-120.7237,-41.2451,-51.3689,2.2401,-57.0719,-54.2841,-228.2080,-162.7357,-159.2844,-3.5768
-35.9669,-95.5891,-105.4310,-194.1905,-127.5334,-76.9067,-89.9579,-101.7750,-54.9756,-107.0072,-8.8566,-22.0589,11.9431,-56.8132,-60.2677,-210.4205,-131.8307,-95.4078,-17.7078
49.3875,-62.1966,-11.6848,-146.3241,-66.7950,-38.3006,-46.7713,-101.9491,-52.0256,-131.8149,36.7358,4.4156,-13.7979,-33.7246,-55.1370,-232.1877,-54.6801,-49.5520,3.4497
76.3826,-42.5567,59.3141,-126.4773,-21.3761,-35.1779,-45.5966,-107.3625,-77.0373,-165.0787,84.7608,-20.3636,0.7714,-21.6961,-59.5186,-267.9352,8.6901,-28.1982,14.1656
67.8078,-16.9974,92.5061,-102.6942,17.5730,-39.6561,-67.8957,-99.0620,-94.2646,-163.2290,132.8853,-44.6069,62.4414,-42.0439,-68.8423,-269.2098,42.6015,4.7050,5.0148
91.0255,15.0505,143.7641,-29.2056,74.8964,8.3155,-32.9972,-59.7461,-50.5288,-130.9177,196.1069,-16.5267,133.2321,-56.0852,-39.6754,-250.3130,72.8283,73.3033,13.3305
132.4964,58.6687,208.0121,53.2262,139.7200,77.6416,58.6554,-29.0904,36.5923,-112.2406,255.6681,16.1583,207.0521,-21.8958,22.8026,-236.0716,111.7325,110.3957,40.8080
170.0625,106.6217,235.1651,91.0810,183.0483,97.1071,116.5608,-31.3215,74.1494,-142.0638,268.0428,28.8128,250.5802,34.9242,62.6985,-220.6752,165.2151,83.8251,49.7835
228.6302,160.5123,251.4555,128.6569,207.2516,91.3932,118.5832,-24.5025,48.3429,-186.6401,245.0204,76.5632,230.7300,68.0047,71.9274,-209.3696,239.3043,94.0186,39.1618
299.5208,244.8586,296.3930,204.5734,231.1021,133.1114,127.8383,2.5390,46.6133,-165.2210,230.4268,151.6395,207.2668,82.7035,87.8626,-196.4102,304.1152,163.1672,48.6429
322.6770,306.8401,315.0621,250.6047,237.5665,189.5787,154.8136,14.2633,105.7067,-69.9047,217.3447,173.5408,220.9446,105.2952,111.9910,-155.4104,304.7016,158.5872,82.3173
272.2543,257.0872,252.4546,212.6592,195.1879,172.5184,159.0217,22.6360,179.9934,23.0372,181.3225,141.2760,208.4478,127.8093,119.3631,-107.4363,227.5192,70.3098,106.2773
182.5867,159.1215,151.2072,131.0293,127.1110,105.7452,159.7400,58.6201,234.7574,84.4361,132.3019,114.1981,151.4669,129.9882,110.9606,-84.9869,124.4424,43.0879,127.5395
101.8779,128.8381,79.8789,49.7126,89.1404,73.6852,197.3766,100.9598,268.6594,141.4570,79.0349,84.4228,112.3077,114.1477,106.5807,-59.4876,63.7028,76.3413,177.8642
64.7023,113.5011,60.9050,-14.5529,81.5168,62.1981,230.4207,118.7862,282.0358,170.6557,24.3051,20.9882,92.0744,86.9669,116.8023,-18.1405,58.4690,40.3451,221.1819
78.1769,40.4442,70.2587,-43.9361,57.7544,19.2987,196.4106,101.4335,265.4279,137.4079,-9.0552,-41.5545,50.7341,51.4161,124.3849,4.6903,55.5832,-46.1093,196.4305
112.2063,-10.1223,56.8691,-50.9714,16.4629,-16.4374,127.9023,54.7425,221.1178,94.2384,-10.7815,-59.0357,11.3396,32.9355,104.2032,24.6438,18.8434,-56.6551,138.0395
130.3518,14.6566,12.9058,-53.8547,4.3405,6.4271,113.1734,33.5374,200.7226,104.0203,3.5806,-35.3996,11.1073,52.2008,89.6237,71.7682,-21.2873,15.4931,126.1912
128.5381,47.4359,-2.1327,-30.4593,28.7764,50.9449,166.0467,77.8486,243.5097,132.1899,22.3646,2.2526,37.0911,72.6464,129.9232,93.6716,-39.4723,71.4721,150.1142
125.5787,57.4023,31.1406,6.0734,46.4397,61.9757,198.7249,118.1388,272.1560,113.4978,33.8244,20.2551,56.1341,57.0392,160.0251,48.2242,-46.4190,59.1843,146.0228
130.9374,64.8625,65.1953,4.9566,45.8130,45.4344,150.0741,93.8430,203.2033,67.5918,33.5768,6.8726,51.1820,45.3786,92.6919,-1.2578,-21.0969,22.8422,125.4569
130.4536,62.1159,92.0058,0.1526,66.0291,40.1738,94.4860,70.1600,114.8744,70.1209,42.3441,3.1936,42.0343,77.3298,13.6109,15.7096,58.0297,30.1069,145.3392
101.4467,51.4347,128.0434,43.9076,118.0161,58.8935,125.4285,90.3041,112.0027,124.0029,63.3315,34.0703,61.6427,107.7447,41.4987,71.9224,125.4148,64.7613,189.1893
57.0164,43.0744,136.8872,74.2730,155.7231,64.1916,180.1192,88.8793,146.4723,145.4054,80.0269,55.6214,94.1361,96.5324,105.0527,80.6294,117.3352,55.1336,189.9855
51.8844,25.9957,108.9009,51.4930,145.5604,26.7425,146.5509,48.8550,146.3313,111.1328,110.0090,44.1139,102.3490,73.4286,104.4335,17.3357,81.8327,15.8519,148.0504
97.6236,24.1586,102.7672,54.1300,105.4737,-4.4086,69.5792,37.0007,132.4501,98.5045,151.5095,33.6910,90.5722,51.4076,86.4949,-27.0278,71.7392,19.7334,121.0251
122.4772,63.7107,120.8397,96.0805,62.0663,15.7563,50.3387,61.1899,110.0065,122.4000,140.3086,29.7207,67.9322,12.9232,82.2123,7.4258,51.3711,48.0873,112.9939
78.2879,92.3680,102.6973,93.8338,23.0573,24.5876,64.7630,70.7374,66.9750,105.2818,74.0594,9.7627,33.9471,-15.3196,49.0550,25.5456,1.6551,38.3005,83.9035
7.4552,59.7380,50.8083,44.5885,-1.5490,-32.0129,67.5097,54.2035,65.1669,50.8467,35.8410,-16.4793,22.4012,-12.0453,30.7101,-38.8457,-35.8667,10.5006,47.3604
-49.6635,-22.7383,5.2775,-6.5379,-1.6544,-84.9296,98.9815,29.1426,130.4307,40.2247,34.9398,-48.6893,50.1568,-21.3787,88.5052,-73.5253,-63.1026,5.4342,42.8806
-104.1783,-134.4222,-44.3062,-73.4063,3.5507,-74.2594,156.8263,14.4956,170.1878,70.5041,13.0039,-98.1132,76.2887,-51.4078,153.8238,-7.1080,-120.7700,8.3826,52.0552
-146.6993,-214.0406,-106.9652,-133.1001,-16.8824,-39.8864,158.9025,41.2340,136.8989,96.6079,-20.0161,-112.1765,82.6264,-32.8128,160.5183,56.9808,-183.4205,8.0836,45.9562
-145.0687,-181.3437,-145.4742,-121.0616,-53.3370,-9.1388,88.5069,107.0261,100.2166,135.3033,-29.6242,-52.3144,81.5941,43.8517,140.3088,54.5446,-191.0255,8.5907,39.1618
-112.5761,-90.1659,-138.5759,-73.3735,-66.1817,22.8372,11.7070,149.1121,103.6868,178.2920,-31.2323,-2.0720,60.5835,91.3757,107.7069,41.2983,-154.4562,-11.5042,28.4216
-84.8461,-55.9071,-106.8475,-60.0070,-48.7878,17.8836,-20.1614,128.9698,124.7294,170.2633,-24.4411,-26.5268,36.7108,75.0774,71.3667,36.4349,-123.7588,-51.2538,-5.1666
-64.6855,-59.8155,-73.7853,-48.9570,-23.7701,-27.2477,10.4729,98.2119,157.9517,142.0162,5.8092,-44.4471,58.9585,69.7736,93.8786,28.2681,-90.7798,-56.6049,-14.2783
-42.0030,-45.4694,-42.7338,3.4470,11.6996,-23.5705,83.8127,131.4061,200.7377,166.5956,26.8728,13.6922,99.4143,128.5005,160.9235,59.6219,-11.7659,4.7486,52.4980
-15.7460,-37.6847,4.9597,73.8099,66.3092,64.6048,137.8749,219.8582,214.7257,201.1673,22.7330,85.0405,99.6895,193.1228,163.1586,135.1505,105.4873,97.8865,138.9610
12.6182,-21.4386,85.6366,145.0016,112.4807,155.1265,137.8733,278.5000,181.4709,162.6055,37.0569,105.0695,82.5033,191.7374,87.1508,172.0526,210.7665,163.3598,166.0636
31.2202,49.7995,176.8884,212.5919,135.9394,185.7476,107.7193,265.4012,133.6904,84.2791,83.4433,95.6641,82.3751,154.8175,24.0429,133.1080,276.9835,176.2756,151.7263
28.3977,119.1959,230.2279,251.4455,164.3051,178.3488,79.4063,228.8440,105.1338,50.4886,121.9290,89.3100,93.6981,148.3107,24.2012,82.3242,296.7556,167.8673,143.3447
11.2971,120.5213,214.2291,253.8962,192.5252,164.9683,77.8762,204.2346,97.4825,67.0297,127.8929,89.5664,130.5372,154.1249,85.2508,70.3056,259.0775,169.2776,132.6941
-10.1911,82.3317,140.4020,219.7808,175.6675,145.7527,105.0383,163.5497,98.7631,86.7579,105.1912,94.4652,178.2841,129.6999,163.5863,61.2489,182.2299,147.4223,106.1899
-18.2260,33.0542,67.6208,136.7300,117.0766,105.3934,107.9069,109.4450,101.8654,90.6206,69.3686,91.8517,158.4061,110.0548,166.8343,19.7915,115.2515,71.9651,86.2456
18.3466,-14.1267,48.1584,44.3359,60.1075,50.8769,58.3089,95.8702,94.9574,93.5417,41.6241,64.9243,68.0039,128.3934,79.3630,-2.5963,76.3284,-0.4590,85.0362
75.6159,-18.3415,55.4843,0.3793,15.4968,27.3392,15.2018,119.6488,56.7911,101.5701,23.8581,18.7702,3.9355,129.1069,12.6583,32.6360,42.0709,-18.2223,79.1704
75.3435,3.7491,31.1435,-28.6607,-22.7779,43.1885,7.2907,116.7344,-8.5387,96.1701,5.2702,-26.1657,4.8442,68.2735,26.6925,46.7893,-5.5672,-27.6845,49.1806
19.9569,-10.7214,-14.6733,-88.1236,-49.1980,28.1358,-12.5116,76.6701,-48.9792,69.2411,-3.6925,-52.8013,31.4893,3.0548,59.0808,-14.1059,-59.0563,-66.3154,14.5450
-5.4392,-44.2864,-34.2338,-126.4760,-67.7929,-44.0974,-35.7712,48.0513,-21.7350,46.3499,7.6408,-53.6003,60.9490,0.0718,65.9045,-65.4889,-94.4901,-85.0838,8.3029
3.6127,-49.7074,-32.5143,-112.7385,-83.3391,-96.6494,-12.0595,43.4998,37.1825,51.2604,19.6282,-44.6987,84.7925,29.8882,64.0116,-56.3011,-105.4417,-70.6526,20.2148
-21.6894,-45.5394,-50.1245,-112.7744,-98.8504,-98.3798,11.8236,32.7256,49.8879,70.1942,9.3842,-60.3590,89.8842,12.8299,56.3512,-52.7289,-126.3001,-91.9513,3.0274
-66.5279,-46.8730,-86.6719,-144.9053,-132.4064,-110.7100,-32.5612,10.9160,-0.9935,66.9982,-11.7795,-101.1672,76.8670,-54.6240,32.8728,-70.5760,-157.2406,-145.9109,-47.0745
-56.9655,-29.4072,-83.2070,-132.0332,-157.9806,-133.7658,-81.2305,3.0770,-51.8099,22.0736,3.6455,-110.4518,59.1891,-81.2523,6.6724,-63.7809,-117.7117,-131.3425,-67.1237
4.6164,11.4061,1.9925,-48.0919,-100.1631,-99.2832,-32.4154,14.7380,-45.8961,-37.5477,81.3002,-45.1595,73.4949,-24.5500,8.5445,-50.6549,7.6725,-43.2646,-18.0076
61.0478,60.5704,107.8487,42.3658,16.0960,-22.3034,81.6515,31.7203,-2.3229,-55.1631,159.2950,53.2485,145.8048,38.1942,53.1814,-50.2568,97.8133,-2.3240,50.9644
93.1222,101.1413,142.2749,101.9060,65.3838,26.2982,141.5029,55.6773,25.4799,-17.8122,164.2068,116.8291,209.0481,56.6328,95.9750,-39.2229,100.0118,-38.2776,73.5359
109.1353,116.8861,132.5862,155.8381,36.4122,49.3562,107.3000,90.8605,21.4893,18.6208,133.9716,144.9935,184.1064,80.9795,76.4336,-54.7568,111.9181,-47.1370,61.7472
106.4130,119.8029,162.8689,203.0407,35.6078,73.3525,56.3934,111.2811,7.9507,9.7065,136.8216,160.2897,126.6564,111.4741,27.2270,-119.1637,163.0064,2.7243,69.3172
95.3148,118.4427,207.5515,184.9603,78.1437,67.3390,57.6450,92.1498,10.7330,-17.7889,146.0756,137.1609,121.6177,77.5882,29.6859,-135.6307,159.7042,26.5875,92.1083
113.2951,86.7681,197.7320,81.1224,92.4357,23.2387,77.3114,56.5397,36.2337,-13.8019,127.1125,78.1158,136.3038,16.2920,73.9241,-74.0534,83.1529,-7.7989,82.9205
166.8984,41.8501,151.9746,-31.7299,62.1681,-5.1706,56.7795,43.9416,54.8438,24.0998,110.9472,57.9697,130.1120,34.2375,96.6138,-49.5336,3.1346,-51.7337,38.6924
194.3488,38.3309,97.3862,-73.1169,3.0899,-4.5076,11.4578,52.5448,31.3131,47.3148,97.3649,97.3832,132.0867,99.9900,92.1446,-89.3087,-62.9827,-86.1273,-6.2494
149.8017,55.9257,9.9973,-56.0711,-79.2828,-17.5392,-17.3371,47.5126,-17.6912,18.9305,47.3180,128.8798,129.8092,106.9829,77.2933,-103.6378,-123.9379,-119.4690,-37.3979
85.2032,44.1259,-87.9530,-42.7541,-138.6837,-48.9494,-33.3693,12.6458,-54.0861,-29.5980,-21.7670,129.4229,78.1301,69.9806,44.4627,-87.8267,-150.2278,-136.3516,-47.7726
68.1854,15.0058,-125.3101,-59.4938,-129.5636,-68.6262,-51.5320,-22.0003,-79.7939,-34.5394,-60.7842,123.9751,9.9293,57.7812,1.5881,-90.1784,-133.4035,-131.5172,-24.9157
86.9978,-17.4892,-82.2036,-86.4581,-86.4377,-76.6852,-57.8144,-12.6060,-86.4133,9.5745,-48.4060,89.5860,-15.9905,47.1574,-28.1165,-88.4998,-98.8342,-127.4478,11.2933
110.1667,-48.5497,-2.2963,-94.0334,-67.2786,-81.3223,-36.3630,32.6430,-30.3124,50.7536,5.2600,15.7580,-10.3475,-2.4224,-39.1323,-61.8417,-63.8002,-128.2091,16.6847
128.2025,-35.4883,40.3627,-80.6612,-85.9262,-69.5186,-9.2710,59.5383,49.7933,69.2944,29.7016,-34.7669,-21.0910,-49.7467,-43.0187,-29.2819,-63.2319,-106.0433,-25.0863
98.2489,7.8607,-8.2951,-71.6321,-131.3757,-47.1852,-24.3937,51.3267,40.7371,90.7077,-44.7917,-38.6977,-71.8196,-48.8858,-64.6396,6.0497,-128.4168,-44.3981,-90.6048
-4.7144,1.6571,-95.9197,-74.4971,-171.5113,-44.6252,-74.7063,35.5549,-43.4318,100.8794,-146.8623,-51.5510,-132.5807,-29.0739,-105.2221,21.4924,-199.4626,17.0016,-128.4870
-91.9543,-35.0088,-112.0357,-74.7399,-155.6089,-67.5005,-75.6949,11.9656,-69.4826,40.7878,-150.8870,-89.4705,-136.7615,-37.8515,-110.9657,-19.9483,-174.0164,18.0058,-94.3574
-62.4400,-21.7044,-39.2010,-62.4215,-67.0739,-85.7370,-0.7938,-31.0945,-32.8423,-77.3831,-64.1145,-105.0515,-66.0004,-64.7816,-61.8823,-77.6094,-43.1015,-8.9810,-18.8885
56.0437,25.1564,68.4767,-10.6619,58.7416,-61.5406,52.3779,-63.4926,-59.9479,-153.3998,46.9508,-69.3572,26.8846,-64.6530,-22.1064,-96.8311,108.2630,35.2360,12.1810
166.2534,67.6528,184.3989,102.2381,169.1239,11.3203,21.7778,-74.4523,-159.0526,-159.8816,165.5719,6.0406,100.9154,-32.4862,-16.2558,-112.4011,201.0766,128.8323,-26.3549
210.4732,115.0481,271.4101,209.0644,223.3862,78.6747,-31.9307,-108.0929,-212.9349,-183.5559,240.3175,82.2048,147.3797,-9.5713,3.4555,-146.7013,218.4896,147.8838,-81.7299
182.7960,122.9227,280.9318,214.4267,220.1511,82.3211,-55.3108,-159.6856,-192.2638,-236.6388,212.4827,107.8277,154.7206,-14.3893,30.5031,-141.1160,196.3227,89.1123,-106.2798
122.5159,44.6120,234.7583,132.6797,187.2604,44.6277,-61.2653,-157.6557,-154.8470,-218.4100,141.8452,69.3353,129.3198,-23.5560,17.8146,-83.0564,164.7057,39.6694,-82.7317
82.2375,-52.3816,169.0735,38.7070,126.9655,23.3346,-60.6066,-92.2811,-100.9497,-124.0030,94.5637,7.8464,88.3212,-26.1433,-21.5216,-37.3467,111.8938,-6.3116,-24.5450
63.8151,-97.8391,73.1460,-30.2467,33.5663,25.3400,-58.3854,-25.9201,-14.6087,-60.9217,30.3504,-25.6633,28.0231,-30.0561,-61.3194,-27.3073,42.3071,-64.1087,10.1608
41.2616,-105.1431,-13.9252,-38.8340,-46.3968,38.0170,-62.8674,11.6714,52.9855,-46.7519,-48.1262,-9.3366,-28.8463,-21.6491,-96.5120,-25.8891,6.9455,-66.1930,-16.1957
25.9289,-85.2093,-20.0533,15.5964,-69.2312,53.4594,-59.5766,10.6760,73.4044,-27.4802,-60.6072,23.9983,-41.5620,3.8473,-91.6560,-25.0026,12.6595,-33.4999,-63.0222
33.7471,-54.1518,12.1666,28.9105,-70.0658,25.6763,-53.1589,-54.7459,81.3166,-26.6951,-30.6227,8.4144,-46.4025,-0.8796,-44.6313,-20.4500,-5.3504,-82.0108,-87.4481
39.8022,-67.4224,-5.5202,-62.8928,-94.8576,-64.2600,-76.8452,-142.3137,61.8630,-69.7513,-55.1894,-56.1639,-99.2485,-58.9345,-34.7604,1.2552,-64.2874,-181.1436,-97.2454
21.6953,-114.5136,-50.7747,-155.7111,-120.5410,-127.8452,-111.8706,-151.2038,-28.9974,-100.2007,-120.6917,-90.8391,-157.8511,-99.4495,-86.9925,24.2546,-101.4872,-188.4854,-91.3269
-12.8699,-119.4082,-74.9870,-157.9630,-104.5988,-94.2511,-113.6425,-79.6957,-130.3574,-94.2373,-151.0679,-66.2799,-169.4385,-66.2634,-132.9601,22.2851,-96.3473,-90.6024,-52.5561
-58.6197,-80.0506,-107.4375,-122.8640,-49.7411,-19.3792,-91.9338,-17.8906,-151.0252,-81.9374,-143.4410,-35.2427,-161.2751,-24.8944,-143.3946,4.2643,-96.4508,24.4350,3.9478
-107.5964,-51.0972,-156.7980,-102.7150,12.0398,35.0708,-56.1037,13.5692,-115.8631,-47.9504,-127.5068,-28.5552,-146.3951,-47.6059,-131.1688,-9.9780,-104.6704,111.2469,54.1518
-120.6552,-39.8265,-164.8723,-74.2373,58.4091,77.2594,7.0806,48.4696,-79.3913,21.1872,-105.0199,-32.7929,-102.4442,-84.2874,-84.5606,-17.7296,-74.1440,147.6986,90.5427
-74.1306,-36.1099,-117.4277,-38.7716,85.9146,92.5410,55.5886,61.5893,-27.4432,74.3972,-80.7370,-38.3522,-57.6751,-67.6279,-23.2721,-14.9241,-23.4566,122.7021,97.9886
-23.7007,-57.7447,-74.2895,-34.6622,90.1467,50.3229,46.6176,28.2622,27.6074,85.1249,-65.8659,-37.7400,-42.8984,-36.3139,5.1531,4.1587,-24.5529,76.8652,71.7596
-41.4618,-103.8139,-73.4298,-64.3516,59.1102,-5.3606,20.3206,-2.2778,31.6527,81.9470,-59.5574,-35.8992,-32.8605,-43.4071,13.7302,35.4430,-72.3796,49.9051,37.5661
-95.0585,-131.4340,-87.1089,-88.7571,8.8194,-16.1945,6.2716,-4.7668,7.6942,77.4194,-64.8232,-62.0668,-29.1457,-65.8375,23.6382,73.6426,-88.4045,38.7017,5.3675
-92.9960,-104.3971,-80.2413,-70.8630,-16.3606,1.0766,-20.8415,-22.9020,10.2980,68.6924,-81.6558,-107.2175,-63.4475,-79.3945,1.9968,97.8852,-51.4824,39.1784,-37.0350
-39.5644,-38.8999,-62.6495,-20.1813,-14.5678,10.9016,-53.3961,-63.7081,7.7351,52.1093,-89.1716,-114.3304,-104.1100,-92.7562,-44.7267,74.3863,-17.8347,42.8948,-75.1957
-13.4138,18.8000,-56.1563,11.7034,-33.9897,8.7794,-71.9899,-83.3796,-37.0594,7.3517,-76.0071,-73.3376,-104.7570,-90.9686,-54.7678,22.2328,-21.8384,21.2710,-86.9681
-25.5554,53.0514,-50.2498,8.6033,-80.5800,-13.3762,-91.0816,-80.8702,-79.9244,-51.8386,-56.4198,-34.9603,-83.3423,-72.7972,-22.5912,-2.0182,-46.4374,-19.4984,-87.8001
-40.5177,74.3544,-39.8482,8.6845,-99.0670,-52.9015,-90.5108,-84.6360,-87.7083,-68.1465,-37.7547,-27.4562,-53.5987,-91.1988,12.9049,-12.1517,-74.7917,-24.5198,-96.9428
-68.2380,75.0709,-53.2315,27.5420,-64.0308,-59.9263,-39.2166,-78.8081,-79.0474,-35.9322,-20.4483,-35.3477,-0.4637,-142.6989,49.6745,-46.9314,-102.2080,40.3417,-94.2822
-110.1166,50.6526,-89.0974,44.2711,-7.7374,-0.2739,27.1549,-36.4658,-46.0185,-1.2846,-18.3477,-33.4430,45.3899,-133.2401,94.7238,-50.1325,-112.0574,139.9174,-51.7483
-113.5308,21.1552,-101.4990,45.6828,44.7443,73.2839,85.5636,13.2569,28.6448,20.2330,-28.6764,-10.7771,50.1644,-44.7980,133.6365,18.2372,-90.6279,196.3587,12.4452
-62.0936,-0.7162,-83.6047,25.0406,88.4777,84.8028,150.7917,17.8812,95.7150,29.5864,-28.9767,11.5300,50.2387,19.5759,158.3097,63.6766,-60.6248,180.2346,42.3144
-13.8787,-9.2200,-77.4326,-7.2608,100.5757,44.5592,172.5869,-19.2386,93.0774,20.4335,-37.4768,7.2280,64.0725,12.5346,160.4323,34.2181,-58.4926,152.0453,22.5806
-18.7356,-6.6006,-86.9328,-14.3152,74.3100,26.2061,118.2702,-38.8564,40.9260,6.8661,-83.2604,-4.7772,42.8825,0.0201,129.4738,17.1886,-68.7564,159.0937,11.0811
-52.5868,-22.2551,-62.0199,8.7522,67.0610,55.9217,85.9955,-13.9531,4.1113,-7.7139,-109.9272,12.4819,-13.2312,24.3944,81.7422,38.9548,-26.9875,170.8949,42.3414
-39.0232,-38.6138,23.9262,41.2586,118.8258,97.8875,124.6582,5.7084,-8.5937,-40.1288,-49.3389,59.4412,-39.6919,54.0236,39.1063,31.7268,83.6791,168.9833,58.6314
46.0033,23.7157,126.7791,105.8955,164.0378,125.2008,126.7888,-25.6586,-41.4539,-65.4347,38.0908,111.2410,-30.4508,61.5060,1.8300,12.1854,192.6117,161.7676,9.0656
119.8671,136.5225,180.4827,197.6570,133.4504,126.4683,45.9105,-81.2720,-98.5357,-60.3328,66.1952,138.6543,-23.2825,51.7796,-26.3567,23.1360,234.2472,112.1498,-60.7573
131.4939,168.7860,182.3180,220.3359,76.7405,81.1069,-21.6691,-123.3878,-126.8863,-68.8732,79.6373,118.1049,-4.6368,30.0714,-39.4901,12.4218,218.2293,12.0939,-84.8456
148.3977,116.3716,181.5308,139.8213,67.9247,1.0333,-20.9214,-156.0675,-106.1609,-103.3871,130.4071,65.2749,35.4143,-7.7264,-48.2060,-25.2921,177.4785,-62.4159,-61.4578
184.3195,69.9363,179.7210,52.3514,79.8471,-57.2260,12.4022,-173.7396,-70.2234,-101.0164,145.2274,20.8889,46.4958,-57.2155,-57.4749,-8.7147,115.6135,-94.2232,-22.0498
145.4323,18.4852,128.1058,3.3441,53.0797,-69.1639,45.8923,-149.0710,-31.3726,-46.8960,73.1307,-7.7435,8.4974,-85.2318,-72.4040,40.6952,30.3735,-145.2107,16.1912
46.5697,-65.8155,26.1591,-65.6058,-10.1175,-70.5622,59.7234,-98.6428,20.6879,12.6176,-13.6238,-31.7941,-36.5699,-58.6731,-114.4813,35.2661,-61.0716,-198.8030,50.2245
2.8777,-126.7114,-69.4068,-158.1211,-71.7030,-90.0821,46.5832,-72.1750,61.9634,56.7969,-56.6572,-42.0292,-62.6059,-9.9962,-161.7350,4.1021,-128.1631,-185.8213,78.1975
-4.9667,-148.5312,-112.7556,-197.7807,-85.5368,-98.6482,41.7330,-67.0322,69.3116,74.5249,-65.2770,-35.6301,-53.6826,2.8621,-142.5326,11.7489,-139.4488,-102.4621,90.7326
-61.8623,-154.5070,-85.6728,-149.5774,-18.9658,-45.3643,72.2579,-33.0403,69.6503,62.6763,-31.5485,-23.2987,18.7234,2.5119,-49.6027,32.1884,-89.1514,24.4980,79.6286
-120.7715,-117.7815,-7.7365,-58.7381,78.3616,48.4689,99.6689,26.0090,84.8381,61.7310,39.5804,-4.7352,115.3753,30.2725,43.6376,31.8520,-18.0528,138.3211,51.6024
-120.9710,-61.6769,52.2925,0.4756,103.6163,75.1452,66.1736,29.6011,87.0928,70.5853,78.7919,6.8902,142.3228,29.1988,93.3467,14.4170,20.9519,135.3440,10.1079
-112.6703,-61.3135,51.1794,-2.4377,42.6808,-6.6228,-26.0337,-54.7999,49.7793,26.8519,49.9919,-10.4411,94.0091,-39.5657,103.1828,-24.4562,19.0323,32.7774,-49.7616
-126.0552,-83.3728,28.3111,-18.7869,-16.6709,-86.8350,-101.8625,-130.3208,-9.1275,-46.3535,6.9094,-31.2593,45.6600,-80.0957,79.1101,-65.1394,9.4550,-8.0524,-99.6313
-127.5490,-63.6383,28.5429,0.6561,-18.3521,-78.4216,-93.3001,-103.3523,-43.4726,-64.9781,1.1914,-22.4003,22.5679,-40.9646,52.0091,-67.0439,16.0943,45.5059,-87.8458
-115.4972,-41.8490,32.8094,32.5802,10.2134,-38.9181,-22.1107,-26.5381,-16.6952,-43.8967,23.2611,-11.9303,10.3947,-22.5666,59.4195,-38.9140,28.7146,69.4937,-19.1837
-97.0559,-39.8757,5.4549,44.3707,23.8257,-24.0428,46.1981,7.2597,64.3403,-29.3389,38.9686,-21.2111,18.8950,-59.7945,73.8740,-7.2770,25.1568,38.8519,45.4682
-60.8221,-25.6870,-47.1212,36.7219,10.0167,-7.7244,91.5705,14.1343,161.3365,4.4697,28.2168,-15.6312,33.5652,-49.1785,52.1020,28.3415,-7.4443,13.9478,83.9192
-40.8944,-36.6386,-90.4890,-3.3121,-18.3091,6.7827,120.0105,41.4420,251.4399,52.1461,-8.2665,3.6354,5.5085,22.1328,22.8868,52.9139,-67.3466,-20.5566,127.9258
-74.9570,-104.0400,-119.9699,-77.4993,-54.0946,-11.5629,127.8762,65.4271,321.8625,69.8123,-67.4076,-14.1410,-61.8917,46.4661,24.9122,52.1885,-129.8493,-76.8832,174.8030
-123.3714,-164.7158,-176.6613,-135.4859,-103.8367,-39.9403,119.4784,57.3505,335.9495,92.2189,-151.6879,-61.3493,-117.6614,5.7403,27.5746,50.2804,-164.7651,-107.0610,171.5685
-137.2466,-185.1486,-263.9428,-149.6500,-156.0327,-62.5066,88.1301,30.2292,268.1548,147.1317,-233.8302,-81.5830,-149.4499,-22.5090,-11.8986,48.0018,-173.1543,-114.8782,109.4979
-119.5823,-180.9005,-294.5744,-144.4807,-173.2708,-103.3826,20.5001,-3.3233,156.9511,158.2684,-254.5151,-64.8854,-174.6194,-10.5516,-85.5968,21.7310,-159.0743,-127.3906,49.2410
-77.2719,-126.4593,-202.3012,-113.1304,-132.4921,-136.4673,-39.4212,-24.6035,69.0075,98.4039,-190.6212,-27.8502,-179.4520,21.1342,-155.2857,5.4237,-89.7157,-99.3219,23.1481
-20.1097,-25.5806,-44.7662,-29.3155,-48.1167,-111.1434,-38.3753,-9.6848,28.9998,52.8123,-82.1423,28.2360,-140.9613,52.9683,-178.0025,36.6232,29.4126,-6.9944,2.9315
8.1972,48.4421,73.9152,59.6092,40.6965,-54.7427,-4.9257,17.9729,22.1888,51.4052,16.8608,69.4200,-73.7662,59.6432,-133.5478,62.7655,107.5692,77.0080,-12.7612
-15.5438,54.6050,112.3944,75.0554,97.8330,-22.6392,22.5323,27.1469,36.7864,41.6777,79.8771,47.8052,-7.1511,43.6854,-60.6263,27.7234,104.8261,93.8348,14.7235
-51.1145,-2.6315,100.7066,24.8085,126.3358,-16.4913,54.7296,45.8968,64.6632,20.9723,117.5324,-0.1664,47.0065,40.9430,-15.3291,-21.3020,97.5391,70.7963,77.5737
-56.9106,-91.5476,94.1384,-14.4118,154.6549,-16.5797,74.7368,95.1233,87.3423,29.9429,148.8282,2.9563,76.6146,56.0756,4.5030,-1.1682,115.6482,54.9657,128.1592
-46.9472,-130.8326,101.8982,-15.4326,174.6523,-11.0808,64.7492,135.1729,97.9003,62.6236,154.8912,43.9683,75.8268,75.9922,30.6103,81.7623,90.6879,40.4631,152.6034
-44.3812,-92.4812,77.8708,-25.1820,157.0666,4.5860,78.1196,131.8981,103.5292,71.2681,117.6160,57.0000,81.8916,107.5977,59.3273,129.9815,25.7979,-10.8124,149.3451
-20.2691,-52.3912,30.3760,-61.5629,121.0127,11.6109,125.5513,83.5739,85.8238,21.7510,86.8077,46.2376,126.3350,124.6478,79.2946,96.6097,8.7962,-78.5575,100.2594
52.1178,-34.1224,36.9090,-71.3382,105.4609,-0.2597,128.4119,3.1564,26.3885,-63.6571,107.4849,50.4028,165.3588,87.9012,101.6628,63.8172,41.0135,-89.2279,29.8629
120.3559,6.9143,95.8722,-32.8374,106.0356,-2.6756,81.7633,-56.1886,-32.6308,-115.5692,133.8241,58.7545,155.3717,42.4917,115.8647,90.5985,50.4274,-45.6883,-1.4100
132.1119,52.0951,122.5219,0.9624,103.1324,9.4727,52.6228,-46.0901,-53.6210,-108.2317,118.8888,55.6561,129.2546,43.6056,91.6558,103.9336,37.3977,-27.4506,2.8387
129.2121,79.1914,102.8729,2.8514,88.2864,-6.7831,18.9012,-14.6497,-80.1409,-100.5523,91.4540,54.0757,103.6481,38.4032,41.0268,65.6246,46.4960,-55.6949,-18.3830
152.2584,119.0491,85.2094,1.7759,41.5041,-66.0825,-68.7465,-36.6140,-146.8689,-138.4845,72.2351,44.0072,42.4936,-21.5861,-4.2981,47.0411,63.6016,-98.6408,-80.2325
165.0360,154.6046,76.3666,14.7358,-39.7194,-127.3456,-160.4453,-92.0836,-217.2222,-183.0016,43.4498,17.2351,-28.2474,-70.5856,-54.2266,48.5179,50.5838,-140.5063,-147.4293
150.9359,166.6838,70.2759,52.1937,-112.6681,-144.5508,-208.9170,-116.9407,-270.1643,-167.5282,22.6034,18.2779,-45.5140,-56.7604,-117.3181,13.2193,10.5109,-144.0434,-204.8850
126.8772,201.4262,73.9218,123.0674,-152.0337,-107.2151,-245.5339,-92.7514,-300.2414,-74.3693,38.4861,61.5561,-34.8382,-27.7410,-152.4295,7.5552,-32.1465,-92.3801,-251.9893
71.0632,227.5906,69.1215,171.7110,-178.8186,-60.0992,-273.8369,-37.1512,-257.1680,44.8318,64.3125,82.4353,-38.8494,-17.7584,-134.7408,91.2075,-56.4648,-70.6393,-256.8944
4.3763,165.2799,56.3021,132.8975,-194.9986,-66.4052,-247.0504,6.8814,-152.0355,106.2639,69.9762,51.7457,-27.1177,-3.8200,-100.3616,149.2481,-46.4131,-125.8779,-192.0385
15.8735,78.4935,67.9801,39.6480,-169.0879,-119.5552,-167.8084,-9.2199,-98.6969,74.6689,72.2385,13.3331,6.0463,7.4014,-79.5821,107.8653,-17.2756,-166.5802,-99.6454
71.2487,40.9496,72.1170,-51.0186,-102.0450,-148.7500,-94.4876,-63.8602,-118.7509,-7.0680,77.4663,-18.0201,24.7949,-12.1648,-57.1989,63.4053,-21.1698,-138.6386,-50.8740
23.8572,-13.2973,6.9024,-131.0969,-43.4631,-115.1581,-62.0941,-78.6513,-111.6293,-81.2202,55.7014,-52.4748,44.6675,-29.9536,-19.0866,49.3382,-75.7024,-89.2158,-51.8574
-113.9072,-68.6068,-86.1957,-157.3400,-32.7649,-41.7137,-57.0753,-38.3761,-65.2618,-121.3779,2.5370,-54.1445,69.4688,3.5110,20.1367,-4.8908,-116.9751,-31.2643,-63.9760
-179.9301,-1.4743,-120.7563,-83.1363,-58.0635,18.4510,-62.7307,-7.9385,-59.8129,-118.7937,-36.3871,-4.7316,46.3569,57.8332,39.9734,-58.9893,-86.4905,25.6542,-84.6843
-130.6443,127.5689,-88.8412,16.0883,-80.2686,18.2520,-90.8211,-28.3597,-101.2725,-82.2750,-21.1270,38.1632,-1.4104,69.6534,35.7149,-21.5153,-20.3814,19.7554,-124.7558
-58.0368,148.2547,-20.7208,46.8618,-76.7481,-28.4934,-138.6755,-76.4808,-139.5305,-42.1870,32.2669,31.6639,7.8614,42.1000,20.7375,51.5314,23.6680,-26.4318,-163.4748
-18.3161,80.9014,56.0425,38.2184,-48.5166,-58.5175,-165.1483,-116.8151,-156.7670,-19.8971,67.8664,1.9758,51.1890,9.9907,8.0046,58.6344,52.6234,-21.4041,-193.7974
-11.8651,47.6434,86.3143,37.0169,-12.6286,-50.2779,-164.5312,-137.1069,-154.6248,-14.8863,51.1488,-23.6553,58.0335,-26.1885,-7.6752,17.5098,71.9362,12.1168,-226.8623
-29.6230,64.4408,46.8400,33.3499,-3.4307,-26.8394,-178.1256,-137.4505,-150.4790,-22.1578,3.5412,-46.9107,34.4866,-60.9464,-31.5399,-11.3701,45.7905,-0.3261,-234.7174
-38.5604,89.3854,-4.7616,36.0887,-40.7029,-1.3828,-194.8082,-119.1311,-154.0843,-29.1699,-34.1311,-60.9013,-3.6957,-72.3762,-48.3969,-22.9223,-18.2583,-40.7169,-195.5197
-12.4437,82.5965,-31.6023,35.9324,-97.2755,-4.1231,-171.2779,-92.5571,-114.1201,-15.0158,-59.6960,-52.2874,-60.0628,-76.7453,-43.2470,-33.6992,-76.0225,-83.2724,-152.1965
12.1602,3.9699,-69.1843,-34.2472,-143.3408,-65.0830,-139.9685,-76.8854,-10.3933,16.5674,-100.4822,-35.6274,-96.6570,-87.4207,-26.3398,-45.4903,-133.8129,-143.8106,-133.9272
-13.3343,-122.4280,-129.7618,-164.7780,-184.3850,-136.3059,-152.1102,-91.9327,60.6610,28.7840,-147.7237,-48.1536,-96.1966,-74.9268,-23.6022,-48.8205,-200.3986,-199.9309,-120.4898
-57.8877,-221.2772,-172.3559,-261.0441,-219.2938,-168.1388,-183.2711,-160.2243,36.0075,0.5397,-158.5851,-101.8287,-102.2523,-60.5705,-45.3379,-38.2268,-235.2517,-230.7649,-123.1396
-49.0519,-263.2813,-182.8189,-304.3796,-233.4990,-197.9500,-198.6972,-276.0295,-18.0800,-44.2955,-141.9568,-156.3758,-122.3260,-97.4779,-67.7530,-32.2608,-236.4983,-255.1848,-162.6418
-0.5098,-259.7736,-188.6368,-321.2285,-239.7932,-233.5104,-199.3190,-371.2302,-48.4116,-82.9684,-155.3208,-167.2507,-128.7890,-128.0479,-67.6075,-50.5801,-238.7502,-252.1166,-195.3826
1.8741,-222.8592,-197.9740,-280.3956,-247.0911,-214.9571,-180.3019,-399.7633,-78.7994,-134.6040,-190.9749,-144.8463,-133.0963,-86.2965,-68.5474,-82.4352,-212.0704,-201.0529,-187.4312
-43.6096,-175.8214,-187.2568,-192.5732,-229.5606,-163.9045,-157.5400,-419.5191,-121.8917,-210.5745,-177.9799,-123.2276,-140.2474,-57.4872,-96.1405,-117.7563,-128.8999,-159.8016,-169.7876
-53.9962,-131.1738,-143.1946,-132.6280,-180.6563,-145.3819,-168.3095,-465.8479,-164.0991,-261.4280,-106.9158,-98.2830,-122.0188,-89.8302,-112.8096,-151.6696,-50.4711,-146.5110,-149.0889
-25.1420,-78.2973,-76.3620,-82.9839,-117.2053,-108.5457,-178.0202,-452.4844,-186.3694,-235.5743,-25.9345,-48.6585,-73.5978,-71.8038,-78.8212,-140.1255,-5.7981,-86.8542,-94.6074
-22.7385,-21.2339,4.1013,22.8043,-27.6080,10.5346,-115.2734,-339.1006,-156.5088,-155.5497,55.9851,11.2748,3.9509,7.9083,-19.5058,-60.2874,62.1643,33.2537,-17.7284
-37.9213,27.3069,88.6078,135.2592,87.4262,147.6910,0.2325,-220.6567,-80.5816,-77.2759,131.3660,47.0518,112.1437,20.1844,40.8615,5.3856,155.0040,138.6933,53.2703
-21.2721,66.1426,140.5441,174.9251,172.3784,229.0642,97.7554,-153.6006,-11.9000,-21.8256,138.8079,57.7625,190.7784,-8.5354,111.7601,-20.5971,203.2948,181.8482,118.3586
9.5086,85.8190,124.5932,163.0382,191.3790,259.1852,159.9867,-112.5806,40.3756,8.1335,64.2005,77.1563,176.5974,45.5459,165.8754,-82.0627,187.8459,161.3013,161.4912
14.0027,82.5351,61.6014,138.5892,167.9283,245.5933,197.1772,-112.9406,100.9167,6.7298,-6.2283,112.1630,111.4624,117.7313,163.1787,-93.0205,134.5923,108.7713,155.5584
-7.3422,74.0426,5.9988,102.3788,128.0827,198.7722,205.8139,-155.4566,143.8365,-12.8635,-15.1946,117.0519,68.8679,85.5861,133.3019,-66.3730,64.6375,86.7135,119.0882
-28.3849,65.1076,-15.8349,72.5287,85.1907,154.5518,190.2720,-164.5406,138.6167,-21.7877,-5.7818,68.0620,51.4816,4.7377,118.9104,-51.7242,16.9535,102.1884,95.3069
-13.3626,57.1623,-9.7671,65.1453,58.1820,112.7384,174.1356,-127.4794,117.5584,6.2611,-21.0773,16.6974,31.4619,-25.3759,107.5777,-54.8818,15.8746,100.8372,111.2034
38.4445,73.6144,10.9973,71.7880,51.0446,64.3234,190.8035,-100.5075,124.0052,91.6390,-34.8182,9.5953,3.6216,-9.0484,92.7846,-50.4859,30.6072,88.6005,164.1585
69.6905,114.3630,36.7675,103.0154,52.6432,44.9501,237.9592,-70.3540,155.6741,204.7951,-12.9015,18.4847,-11.5730,15.7295,92.5300,-1.5819,45.1661,104.8472,195.9291
60.8776,151.8149,69.1026,152.6654,61.3771,42.6978,245.9823,-34.1532,170.9863,243.4803,24.9071,7.2182,10.1018,13.3470,94.2014,85.8094,80.4953,109.8205,146.8872
51.4253,169.4541,102.1694,157.3262,74.1687,-12.9538,185.3928,-76.4436,134.3600,152.1106,34.2396,-10.8618,41.1861,-37.5013,87.6072,114.7620,113.7305,57.6360,65.6615
16.5154,119.2021,96.0278,81.5680,73.2480,-104.1523,136.3353,-188.1422,75.7713,21.6174,2.9079,-24.0064,27.5052,-95.6530,97.1395,25.2088,88.7729,-22.0119,41.8872
-105.8004,-55.9148,15.6638,-43.3865,40.3216,-149.2722,127.5440,-246.2522,54.8363,-36.7056,-50.3505,-48.0762,-13.5436,-122.0096,109.8779,-80.3984,0.5323,-102.0375,57.0330
-274.2445,-281.1245,-113.3212,-175.9498,-22.2498,-147.7740,76.8939,-230.8605,59.7974,-35.7631,-107.6778,-78.1215,-35.9725,-129.4920,78.6663,-90.7991,-107.0881,-173.9865,51.2057
-401.7917,-403.1627,-228.4920,-264.9976,-75.2815,-133.4220,-7.7674,-203.7411,48.0360,-26.8335,-146.9785,-83.5081,-51.6006,-97.6521,21.2176,-51.1722,-186.2346,-198.5502,51.2448
-470.2932,-406.5938,-287.6647,-275.8591,-82.7092,-97.2598,-24.0466,-160.3247,38.1786,8.0725,-144.5697,-62.4355,-59.3512,-5.6591,-4.3737,-39.0931,-210.5634,-170.3586,90.0885
-484.2572,-391.1307,-289.4952,-258.3499,-75.9944,-56.0765,6.6548,-108.0132,44.7728,66.0605,-123.6760,-49.3896,-34.0492,63.7117,-2.6848,-43.0046,-195.1878,-142.2728,117.4993
-444.3494,-385.6132,-262.8007,-257.8127,-96.5608,-45.9274,-5.3685,-108.6123,29.3803,57.3195,-140.6031,-59.6209,-27.6891,48.6201,-15.2717,-56.9713,-160.4799,-124.6688,92.9016
-387.2180,-352.0837,-225.8907,-223.5133,-102.7140,-46.6506,-31.0907,-155.2166,-10.8344,-61.5615,-188.5999,-67.4224,-79.1139,20.4462,-35.5831,-115.1379,-86.1055,-85.4183,49.1837
-337.3752,-286.2135,-159.8905,-135.4663,-48.6719,-34.6454,-20.5427,-195.1811,-36.6671,-203.4880,-191.9617,-52.3045,-98.9894,25.5763,-25.8650,-201.4102,28.4548,-28.2424,16.9787
-273.9016,-204.0705,-57.8406,-56.0427,18.5470,-19.5798,-13.0289,-222.4648,-46.8358,-278.4226,-121.4822,-26.1028,-41.7352,5.5378,11.3153,-271.3174,117.5085,27.6393,-15.3984
-191.4398,-119.0113,34.7963,-0.6613,42.8490,6.4793,-29.5060,-227.6690,-63.4359,-293.9045,-40.0825,-8.5827,-5.6231,-58.6994,25.0679,-318.7398,135.3882,60.6736,-52.2075
-113.6826,-74.4211,73.7048,28.2145,31.7340,18.3876,-49.1299,-197.6044,-86.0725,-273.9920,-14.1672,-21.6849,-34.8506,-112.2298,-14.2672,-328.2996,103.2188,22.8350,-61.0866
-67.5477,-111.6019,62.4421,-32.8408,5.5435,-54.9447,-68.0718,-165.7081,-84.6212,-192.0789,-39.0167,-79.5220,-59.1543,-126.3181,-65.3353,-263.4041,46.8377,-73.8842,-4.0777
-70.9779,-188.2200,29.5758,-148.1660,-12.1065,-166.1570,-41.4568,-132.8964,-5.9814,-49.6256,-65.6183,-137.5451,-48.8677,-116.3061,-73.7471,-155.7050,-8.8969,-120.5690,108.4998
-85.9746,-210.7836,12.2639,-177.9368,12.0727,-176.9102,72.8642,-65.1634,135.6929,68.2383,-58.6112,-131.6831,-22.6005,-107.4651,-48.1752,-101.0037,-16.7183,-78.5099,205.2555
-53.8569,-165.7053,37.4117,-135.6526,56.6963,-105.1753,171.5659,-5.3799,208.1761,90.1804,-18.1858,-89.6192,18.2399,-101.8679,-25.0657,-133.2027,24.0114,-42.6570,221.2930
-17.6723,-132.3788,70.4790,-143.6316,58.5508,-75.5253,136.0772,6.2526,142.1292,50.7927,21.1253,-76.5287,49.0933,-62.4046,-6.5424,-172.8109,37.9984,-69.8008,163.9743
-54.4225,-152.4836,38.0656,-186.0456,4.1072,-81.3127,31.0364,21.5275,41.3121,20.0109,12.7635,-74.3050,43.3926,3.9550,13.8235,-136.4263,-23.5858,-112.7641,84.5970
-120.1030,-189.5696,-63.5335,-202.7706,-74.9449,-67.9224,-34.4186,38.3773,-9.6440,2.4163,-43.1973,-63.3669,29.0172,11.4145,21.0619,-61.8101,-118.9107,-134.4474,19.5062
-141.4648,-209.9498,-148.8418,-225.8151,-143.6626,-83.7659,-64.2742,-2.7263,-31.6780,-24.2542,-87.3582,-91.6494,17.0978,-51.9601,10.1564,-47.3127,-175.9975,-139.2136,-15.9035
-135.7364,-200.8578,-160.2276,-239.7235,-165.5458,-142.4782,-69.4354,-44.8342,-6.8035,-41.0113,-95.1896,-139.5300,-26.2012,-86.2348,-1.7511,-86.5335,-172.5767,-133.5451,-19.7375
-118.4620,-166.0373,-145.6240,-198.3617,-149.3519,-171.0772,-33.2736,-25.3124,90.5295,-32.2634,-119.0055,-127.7026,-91.4252,-69.1192,-5.5200,-102.6638,-153.8781,-139.1515,-12.9413
-81.7247,-156.9153,-179.5191,-176.3223,-154.2623,-174.2217,-2.7092,-24.6348,175.0932,-22.3092,-179.6116,-96.1949,-138.0135,-77.6677,-11.4416,-110.4808,-170.0490,-162.8568,-21.8938
-68.8638,-187.6902,-245.3717,-213.4457,-181.2433,-198.5728,-13.1644,-64.5060,179.5940,-12.9840,-221.8515,-125.1195,-166.8873,-118.5070,-30.2913,-154.8230,-200.4161,-151.7238,-44.8853
-88.4796,-169.0046,-265.2065,-204.6187,-173.4708,-198.6472,-13.7425,-48.3720,153.2909,20.7741,-224.0809,-161.8818,-185.7521,-142.4016,-54.6463,-178.0181,-192.3152,-82.5912,-63.3873
-72.7709,-81.8458,-226.5916,-138.1615,-136.7790,-149.6428,6.7065,-9.7239,118.4485,49.0794,-222.7661,-152.1536,-182.7085,-155.0435,-71.9892,-146.1671,-152.8101,-26.5025,-77.1815
-21.6580,-36.3141,-182.9285,-118.5676,-111.3901,-121.0305,-11.8907,-49.3223,36.8270,14.2341,-216.1447,-147.0946,-168.3391,-169.8185,-94.0412,-144.4705,-118.3560,-23.4815,-92.9188
5.6546,-34.7925,-147.1542,-115.4442,-75.9444,-118.9818,-58.4825,-85.5329,-57.0307,-58.0466,-171.9010,-149.3346,-159.5585,-166.3757,-134.0102,-191.3180,-84.3004,-9.7750,-89.8896
22.8609,24.5418,-95.9955,-43.6681,-7.2019,-77.4123,-59.2111,-10.8825,-84.6846,-83.4300,-103.7441,-108.1176,-143.9996,-142.4975,-163.4208,-183.6144,-46.4790,52.0841,-45.1259
56.4167,88.5266,-42.1627,24.6901,56.5010,-13.5841,-14.1268,98.6190,-50.5610,-41.0665,-46.6098,-66.3411,-109.2769,-105.6364,-149.2577,-106.6565,-35.0420,102.8202,11.5982
74.6549,45.4105,-10.2788,10.7606,74.4717,14.3180,11.2295,151.8042,-18.9422,12.7150,-13.8313,-72.3071,-64.9430,-59.9269,-107.6437,-53.3333,-55.7283,93.6765,21.9275
70.1950,-34.4657,-2.6090,-23.3235,42.9673,21.4929,-13.8445,163.3164,-25.9663,27.0146,-12.4869,-72.6567,-34.3633,-37.5574,-70.6597,-44.3766,-79.5655,48.5672,-18.0020
55.6668,-57.3728,-21.2281,-23.2593,-5.7724,34.1058,-57.7740,150.5130,-59.0350,4.2750,-28.9284,-45.3004,-37.7361,-43.2472,-45.4501,-36.5467,-89.0451,9.5791,-48.0916
11.3751,-70.6391,-44.0476,-11.2168,-6.8253,45.7677,-61.4630,138.5632,-75.7168,-7.6051,-18.4509,-33.5272,-44.3055,-19.6295,-21.6465,-23.0811,-74.6902,1.2861,-24.4337
-44.7379,-96.1438,-23.5984,4.6148,58.0467,69.3140,-7.5773,181.8150,-44.9720,36.5071,31.9609,-20.1324,11.9272,40.5507,25.0419,1.2768,-39.9780,20.2619,27.4523
-62.1823,-84.7087,21.5382,24.1950,113.3631,98.8010,41.1941,248.3836,10.2994,115.1326,76.3764,23.3743,111.2829,77.2057,96.8286,52.7471,-18.9365,19.0930,48.7905
-45.7386,-52.6348,30.1044,30.9845,107.8528,81.8143,27.5187,245.7878,31.4965,152.5630,72.8691,48.4412,146.7429,85.8207,129.6103,101.8489,-10.6723,-41.4858,20.4809
-2.4983,-32.2369,22.1034,31.4681,81.1512,24.1261,-20.3175,180.8650,-5.5224,123.9369,32.3649,33.0981,92.0796,95.7455,79.7916,115.4375,26.2279,-116.4775,-19.6873
73.3571,1.3874,32.0354,35.2622,53.2748,3.9254,-63.2131,142.4355,-62.5820,102.4883,1.1343,24.2241,37.0490,90.4919,12.0801,114.2394,44.4085,-123.3253,-41.8716
97.5137,48.3711,2.5211,31.4408,-6.5459,43.2499,-116.7482,176.7728,-99.8294,154.7031,8.0411,35.2894,33.1582,81.9082,-15.2658,118.7450,-43.8579,-55.8494,-67.3426
11.2975,86.8590,-70.7207,27.2452,-73.2762,87.1371,-177.0393,246.8501,-123.6284,229.1117,31.4643,47.3617,38.9827,110.4889,-43.1865,112.7351,-150.5997,11.2246,-109.0632
-49.5182,120.8233,-64.8085,33.0572,-77.6347,92.4919,-194.3926,251.9398,-135.4116,214.3300,38.9053,59.4027,15.3346,122.5768,-96.6425,85.0686,-107.5334,14.3762,-125.9587
33.3249,119.2719,44.3573,26.2631,-25.6639,49.3717,-164.8444,134.2555,-110.4784,86.9995,35.2100,52.6991,-31.2377,55.7835,-137.6555,48.5807,40.9141,-41.5694,-91.8301
146.7167,53.6325,122.9444,-2.9285,14.1691,-24.2228,-136.6082,-5.5136,-74.5502,-59.9182,34.5582,11.2429,-78.1579,-10.9651,-168.2792,27.4103,127.4654,-93.1231,-44.3494
162.1530,-4.3378,126.9371,-22.4384,30.3971,-67.1654,-115.6918,-29.2832,-78.2370,-132.3939,41.7595,-23.1526,-93.1045,-4.1327,-207.6706,38.0238,144.6994,-74.1042,-20.4561
126.4696,3.5828,144.2343,-1.6147,78.2617,-34.4096,-69.2954,32.9341,-87.9131,-132.0829,82.3461,-20.0967,-46.7355,6.3447,-210.1572,61.3613,176.4732,7.7847,-14.8097
112.6256,21.3497,194.8678,58.6872,170.9503,33.9618,-9.8391,59.6149,-61.3787,-121.3399,166.2604,-3.1003,40.7514,-17.9904,-150.9244,68.2600,217.1471,70.6659,-16.6725
118.5429,13.1182,227.5392,125.0669,245.1645,78.9187,17.0709,42.2571,-54.6893,-114.0496,237.5977,36.0082,107.3530,6.3834,-84.1881,77.6475,242.3031,70.7564,-14.0832
137.6640,12.7277,238.3712,155.9942,260.4838,113.9407,12.8357,66.9521,-92.8578,-62.0322,247.3260,126.2702,127.9372,104.5083,-31.4743,122.3537,260.1998,63.3300,19.6489
157.9306,5.0613,231.3606,146.2740,255.3977,175.4297,26.4814,165.1194,-93.2235,27.0009,222.8640,212.1748,142.5459,194.5506,49.9727,174.7512,237.4881,103.9890,82.8724
142.7699,-43.8031,184.9182,118.8192,266.4512,239.1957,85.8972,280.0333,-20.3273,72.3431,205.0705,213.5343,189.5286,232.7974,167.3989,182.9285,165.4267,164.7286,134.3740
94.3693,-76.0667,125.9958,94.8543,272.6104,259.7776,164.6928,347.8665,71.9244,77.5169,191.2115,162.5840,249.3850,234.8704,275.4015,154.9364,125.8406,198.7440,154.2029
55.5220,-22.7080,104.6564,102.5409,252.9054,238.6780,209.6755,357.8083,142.2581,130.3486,169.2550,143.8992,269.2014,208.9922,329.0726,143.3506,146.5434,198.2037,154.8840
41.0782,72.7578,108.0181,140.5830,219.9438,199.7812,191.9990,327.3050,152.1414,201.7389,144.8748,154.8237,223.7411,175.3214,307.8096,163.2743,153.4531,164.3642,139.9000
32.7636,122.2997,102.3177,154.9739,184.5712,161.0305,136.9788,271.0380,83.3676,180.0354,128.3699,147.5956,151.2679,170.1444,244.3622,172.5123,130.4033,123.0694,107.9004
19.8934,127.6209,95.4197,149.8645,151.7483,153.6093,89.4553,216.6724,19.6005,91.2113,123.1437,138.0056,117.9939,184.4698,202.7749,139.2049,132.1699,136.0007,61.2515
16.8212,156.2618,102.6706,200.9329,134.0548,182.2877,50.2017,174.0799,16.3481,21.3543,127.5962,154.6828,130.5753,161.6772,177.7721,90.7820,159.2450,189.7995,-11.2910
50.9921,215.4856,126.4129,283.0528,129.5985,183.8587,-8.9715,102.5216,-9.6179,-58.6550,147.7837,159.7093,127.7275,71.9298,111.8545,67.1667,185.6502,184.2195,-95.3620
123.0007,254.6169,170.1431,300.3744,125.2452,133.5637,-64.0209,18.2202,-76.3328,-144.2748,182.3189,132.9884,81.0150,-26.9344,29.8274,70.8059,223.9943,122.3000,-118.3379
195.9511,276.5502,214.2478,285.1902,127.6632,116.7483,-51.2516,29.5620,-67.8452,-121.0521,190.9984,136.4423,27.9159,-31.7155,7.6103,95.8569,263.2262,113.5716,-45.9945
241.9402,310.4991,211.4618,302.2301,136.9395,169.3489,18.4421,132.3688,20.7318,-15.7038,137.4318,188.0839,-12.5451,60.4328,18.2329,141.2214,252.3709,137.1612,42.7684
255.1940,310.6699,141.1186,275.6241,113.0140,187.5850,53.9386,172.0781,74.6785,9.7675,46.3428,205.6530,-64.0405,122.5140,-23.6804,178.3385,179.2478,74.9819,66.0537
227.2085,234.7222,40.0361,159.6003,36.5024,117.7055,20.8874,113.2338,81.1228,-35.9341,-39.9162,160.4922,-126.6450,90.8559,-95.4831,181.6158,85.7013,-33.2109,44.7720
166.5934,142.1693,-27.5269,60.0288,-34.4854,46.2048,-23.0782,74.6192,83.6859,-31.5237,-96.9603,122.2075,-167.3826,53.7302,-106.7387,171.2599,20.2091,-69.9133,27.7624
109.7772,93.1504,-28.9440,24.1943,-44.1704,17.5556,-46.5755,77.0427,58.7541,-6.2262,-90.0056,109.2098,-169.4682,70.1982,-60.8794,165.8594,-0.7473,-71.9352,10.6181
78.4711,76.2877,4.4893,-16.7428,-24.9366,-17.5380,-66.3615,56.0272,21.0419,-24.9178,-22.1719,77.9170,-143.7440,81.3674,-29.9141,157.6772,-6.2779,-97.6803,-7.7944
76.9460,87.6351,27.2448,-52.7109,-17.0702,-40.6318,-48.3624,52.8611,42.8476,-20.4825,29.5511,47.2146,-106.9087,51.9530,-18.6913,156.3783,-17.8769,-58.8369,14.7006
110.5036,133.8423,38.9353,-8.2630,22.0516,22.0130,57.9694,126.0577,113.8039,42.6318,37.3747,64.5680,-62.1821,20.8377,18.2780,160.1172,-3.7575,80.5757,89.8068
147.7007,177.4044,49.0463,97.2914,121.2206,138.5363,192.4393,208.5239,177.2526,91.1778,61.8580,110.9417,-0.9704,14.1006,75.5642,120.0227,44.9484,194.1935,162.7596
133.3881,191.1848,44.2595,189.2356,209.1226,213.7890,248.8249,232.1924,236.0880,105.3041,111.3056,152.4902,67.4209,34.7007,114.3041,35.5362,72.3493,229.3027,191.6666
79.9040,196.6713,39.1972,239.8662,238.8432,240.6627,241.0698,236.2364,292.7201,124.6194,142.0885,185.7527,119.3486,75.8428,133.5050,-9.6926,66.1789,273.0406,199.8990
50.3746,208.2482,72.4748,254.3789,268.1442,271.5284,262.2515,269.6339,318.9831,138.6073,171.9995,195.4199,161.7663,98.2206,157.1317,17.6019,84.2996,339.5689,225.0713
60.3347,222.1965,133.2149,251.2095,323.4472,311.2066,328.7392,318.4243,327.8795,132.9147,215.4948,178.8904,212.1571,86.0680,190.5785,60.7186,133.9306,357.4455,268.7267
93.8998,240.0335,176.6884,252.1444,343.4548,327.7444,381.0758,342.4715,338.1556,132.8660,220.7042,177.1289,239.9346,86.5309,214.8954,92.2661,163.2587,327.3852,302.9843
150.9536,253.8944,182.3297,244.2088,307.5330,305.0213,374.8888,313.7749,309.8449,129.4840,180.2031,196.6497,204.4344,112.9720,199.7616,127.8495,161.5106,279.3722,289.0902
199.4644,245.4151,145.2587,199.5536,254.1772,241.0561,299.8185,235.7493,223.7027,83.6741,136.2326,188.6994,124.2569,114.1609,138.1320,141.4081,148.2983,185.0663,210.9901
185.4891,198.0688,84.6386,129.9263,185.7296,148.2490,178.1331,144.3209,134.3773,11.1727,78.6318,141.9980,47.2686,79.2830,66.1203,101.0531,120.4060,64.3620,112.6448
124.9091,113.3222,53.7700,72.9013,102.2736,66.6048,69.5361,81.6987,83.8419,-25.9982,7.6345,91.3443,-3.2755,46.0916,13.4905,49.5101,86.4494,17.4950,53.8978
72.3804,41.8931,60.0876,48.0372,53.7910,26.9088,18.3837,64.9705,63.3340,-1.8024,-13.3111,49.6797,-22.6423,18.5086,-21.6646,48.1212,75.1083,53.1497,31.2422
30.8894,26.3665,51.1609,39.2487,49.7372,5.5512,8.0649,58.3305,68.0572,38.8616,16.9562,13.2775,-13.3669,-19.4466,-24.0905,80.1749,76.2021,61.1667,2.9915
-7.1045,11.1477,24.0546,3.9468,28.3572,-38.4841,-2.7381,-2.5101,89.1471,32.2650,29.2756,-19.0305,9.7482,-64.9574,17.3806,78.7839,48.0781,-0.4510,-41.0748
-20.4290,-54.5704,11.9168,-69.9340,-30.6102,-97.1452,-35.0284,-112.2558,79.9734,-19.9696,18.9740,-57.3583,23.8610,-118.3035,43.0551,26.5870,-14.4794,-62.3392,-88.8992
-25.8794,-96.6334,-15.8147,-122.1216,-80.9405,-125.9835,-79.6121,-177.0283,25.0232,-57.2338,19.4083,-84.9737,13.6861,-166.2417,6.9740,-30.5744,-69.8622,-80.2448,-124.8949
-62.1863,-59.2617,-81.4138,-91.8886,-99.0738,-101.3121,-97.5647,-140.3996,-12.8633,-56.0135,14.7853,-57.4885,-1.9783,-162.5728,-21.8262,-64.2521,-80.1124,-63.6135,-121.2374
-106.2257,-20.8372,-119.6205,-8.1485,-97.0225,-36.5277,-60.9576,-52.4979,1.3752,-54.2493,-2.3741,4.9811,13.7257,-102.2949,16.3591,-91.4035,-49.2089,-17.4563,-81.8834
-125.8153,-41.6581,-93.1923,51.0171,-76.3806,27.5829,-6.1333,9.5352,12.4265,-79.5684,-1.3857,27.7402,43.7427,-53.8838,50.0406,-117.5734,-10.1146,34.4937,-61.3776
-142.4595,-72.2835,-43.0744,65.4679,-39.5339,49.4259,7.4992,21.0027,-15.3681,-114.3783,22.5080,7.2092,34.9581,-58.4619,12.4823,-125.8122,20.6864,58.2650,-78.4776
-147.8851,-55.2046,20.7946,84.1276,-5.3003,40.8985,-18.9751,10.6537,-49.2447,-129.8506,53.4749,-0.8262,4.2202,-76.1730,-39.1444,-120.0230,58.7252,82.7801,-91.7058
-90.9270,17.5274,111.2265,129.2900,20.4010,54.0650,-41.0999,11.3081,-78.8563,-124.6842,83.5630,8.2985,4.3182,-74.4794,-49.6007,-119.6883,112.7309,136.9413,-86.7824
5.3549,105.9110,178.6722,154.9855,40.9766,81.8420,-42.0196,10.1543,-119.0486,-122.3922,86.9790,7.8405,8.5069,-85.3039,-61.3098,-133.8145,150.6647,153.4147,-85.7149
67.1341,140.3368,177.3527,132.7832,32.5658,55.5210,-34.8312,-19.4565,-145.7731,-128.2647,48.8552,-4.0118,-23.3044,-132.1423,-102.6952,-158.9129,130.5984,84.0524,-88.4510
92.0491,110.4646,138.5580,93.8521,-21.3313,-34.0623,-28.5682,-56.1839,-147.2825,-120.2605,13.0680,-39.2508,-41.7371,-175.3858,-121.4979,-166.1206,64.5285,6.9149,-87.8428
110.0039,70.0857,104.5741,50.1752,-67.1176,-111.3082,-22.6771,-67.5322,-154.4654,-94.6986,25.6241,-103.2254,-2.8810,-176.3706,-88.8247,-130.5235,14.6426,-6.8498,-84.2946
103.2389,31.1606,83.2219,-7.4761,-38.1359,-120.2024,-5.8751,-53.6675,-151.5430,-64.8403,72.2368,-139.5990,56.8543,-146.9177,-46.2255,-88.6348,9.5436,16.9039,-58.8493
65.5910,-6.1938,73.2918,-31.8043,41.4503,-72.6762,39.8589,-5.7319,-90.8973,-21.4634,106.1138,-109.7152,109.4036,-100.1185,-14.5860,-66.5457,16.6961,54.0977,-6.2386
34.5964,3.1813,62.0861,9.1372,95.6441,-11.2755,101.7319,77.3695,-4.4169,37.4188,90.8045,-65.3601,150.3035,-38.8609,24.6343,-12.0347,13.6557,94.6568,40.4562
21.8481,35.3846,26.7707,38.1386,95.2102,23.5772,125.4767,131.7277,34.8458,81.2594,22.6801,-52.6308,134.6616,-5.1362,46.1612,61.3666,5.7032,80.9186,66.7489
6.9144,2.9734,-35.8453,-6.3994,45.2563,16.4145,84.8979,112.0547,16.1870,100.6209,-64.6206,-55.3514,43.0030,-30.5540,8.8207,40.5369,-26.7461,-3.9609,78.2090
-12.1358,-69.3869,-105.1239,-74.5370,-41.3986,-16.4678,28.4408,72.8328,-22.7779,114.8140,-137.1553,-71.8494,-51.5457,-61.6094,-44.1669,-39.5446,-96.6127,-78.2324,58.1599
-23.6388,-95.3616,-144.6785,-125.7205,-111.0836,-50.1162,9.3586,69.6729,-42.9769,123.7860,-182.5947,-111.0360,-83.3826,-45.1791,-45.5197,-10.6253,-152.0266,-92.6646,18.6065
-19.8275,-80.6834,-125.8166,-167.7248,-111.2358,-59.3602,17.9172,85.2820,-30.1535,120.0137,-185.4627,-129.7403,-72.8074,-18.2025,-20.1267,88.2982,-140.7635,-82.6842,16.4282
3.6374,-45.3729,-75.0907,-161.9577,-65.5143,-24.7530,27.8040,93.3833,-19.5803,105.2312,-138.3987,-97.2435,-62.2808,-25.6826,-25.4660,65.5818,-80.2002,-63.4679,51.4068
34.0517,27.8828,-45.1272,-77.4233,-23.8525,33.4865,37.9851,90.2921,-44.8169,73.9073,-74.9763,-58.2003,-63.2011,-51.0253,-59.1792,-48.2979,-14.2999,-22.1864,62.7216
53.2577,94.0504,-29.5246,18.8291,-0.5501,65.5992,34.7946,77.1178,-75.2122,40.6681,-34.1118,-53.0337,-69.9097,-70.4286,-94.3994,-77.5356,29.9787,6.4726,36.2918
63.1584,101.4167,8.1220,58.8080,-5.5217,50.4854,4.7576,61.6352,-72.4717,34.8911,-18.8242,-65.1520,-72.2631,-81.8428,-100.8417,-28.0489,43.2553,-22.6493,1.8118
64.9263,88.5041,52.0069,52.7747,-38.4089,0.8561,-12.4042,35.7955,-41.1983,34.1415,-18.5209,-72.1498,-64.0182,-88.8286,-39.2461,-5.3889,44.2686,-86.4032,-29.9675
51.0834,84.6025,70.4066,27.1090,-62.3146,-59.3488,15.8546,-13.3434,5.5749,10.7885,-20.8773,-64.3021,-45.2158,-99.3301,62.8603,-5.5190,54.2836,-116.9806,-50.6319
35.7883,72.4120,77.9104,3.6845,-60.0357,-89.5536,50.5033,-42.1529,40.0623,4.5302,-2.2077,-32.8818,-10.6511,-96.9040,118.4693,1.2585,61.0322,-84.6184,-46.3044
37.8794,68.8035,101.2138,5.7950,-48.1861,-73.4114,63.9305,-12.7230,30.0834,21.2664,38.5500,1.0004,37.8102,-50.8166,121.7977,-6.9749,57.5457,-33.7355,-26.7781
48.3787,72.1568,129.7991,10.7533,-26.8473,-59.9259,77.3781,14.9772,13.7599,-1.4646,56.0270,-2.1765,74.4336,3.9547,131.5748,-18.3383,54.3769,-17.7748,-11.5571
48.8537,41.6118,118.4334,-10.5509,-14.3916,-74.2867,64.9312,1.6111,36.3979,-34.8605,14.9215,-30.8714,75.5728,8.9409,130.1174,7.3817,28.0493,-15.0299,-16.5738
21.9478,20.1051,40.4984,-13.6022,-58.1613,-56.2539,-22.4810,18.1093,38.8724,13.3954,-52.0626,-29.8401,46.1826,-3.1305,73.9029,64.6613,-32.9765,15.6077,-57.9150
-31.2296,74.2983,-43.1403,39.1179,-131.9585,10.0427,-136.0368,75.0957,-30.2271,90.8859,-78.7759,10.0537,11.4186,12.4803,4.4553,111.3117,-60.3027,25.4677,-119.5595
-41.2848,135.2826,-34.9368,86.2109,-158.1356,21.8370,-193.8760,57.4278,-107.2601,70.0517,-45.2340,32.3904,0.1879,3.8860,-29.4130,100.9792,-7.2257,-57.8615,-157.7045
56.9978,110.0419,52.9301,63.2007,-139.8068,-82.8750,-206.3963,-65.0988,-145.6317,-31.2290,9.6459,-1.5307,20.7746,-60.5077,-44.4729,21.7945,62.0570,-190.5711,-161.4113
182.3141,36.9798,115.5508,-0.0328,-121.2133,-214.2454,-209.8260,-174.2910,-177.2975,-111.8593,52.4518,-62.8202,48.8896,-113.9032,-60.2593,-69.9579,78.9588,-256.7711,-150.3676
203.0975,-1.8963,113.0950,-37.7993,-95.3548,-257.5939,-189.4842,-196.8038,-195.9722,-152.2537,85.6158,-104.6449,66.4195,-119.8272,-75.8422,-115.4709,57.8614,-216.3996,-133.9422
142.4442,20.7260,82.2555,-25.5926,-62.5373,-207.3936,-142.7381,-170.6692,-164.2781,-168.5596,102.7629,-111.8103,78.2652,-109.5710,-91.9202,-114.4721,35.5178,-126.8463,-111.4849
97.9980,77.4118,44.6312,10.9826,-47.0668,-132.9408,-89.5619,-126.1324,-93.3096,-134.8083,80.9571,-90.6515,69.8755,-90.4801,-91.5222,-76.7157,21.5666,-55.4361,-65.0004
61.4501,80.1055,14.6043,19.9679,-27.3283,-89.4096,-16.0569,-56.2272,3.7653,-45.2035,39.6361,-62.4521,28.4971,-64.0253,-56.4788,-18.8157,9.5535,-19.2771,21.8532
2.2719,-21.6112,17.7825,-17.1345,18.5634,-79.1020,79.5482,13.3829,111.2674,30.8825,35.4004,-54.5143,9.0452,-57.7997,0.4630,1.5333,-6.5624,10.0695,92.6394
-10.6770,-115.0802,48.3738,-45.8046,59.2150,-59.3807,137.6238,38.0980,145.8122,17.9298,79.8239,-54.1266,63.1003,-56.6169,64.1042,-31.7468,-11.1112,64.7815,71.6034
81.3796,-65.2019,82.9819,-6.3560,80.6785,4.8979,117.3813,29.0018,58.7949,-58.3779,124.4563,-26.7862,128.3644,-20.1199,113.6849,-58.0993,12.1279,142.5898,-0.1620
222.6421,75.7217,119.0844,78.5375,100.7063,87.9458,57.8915,33.1005,-54.6650,-97.8437,133.1223,4.8079,122.1601,27.9723,107.4679,-54.3314,39.2324,204.1849,-29.7967
322.3384,164.4923,153.0986,137.5644,117.0624,132.9259,17.1604,49.4051,-89.2815,-76.9635,119.9048,4.6532,87.1216,46.2271,60.2115,-43.9383,55.8878,214.3806,-19.7394
349.0359,174.8013,175.2362,151.7043,133.9079,134.6640,10.0406,52.2813,-64.4092,-56.1056,116.6085,13.7778,108.4304,54.9969,49.1545,-14.0492,96.3978,195.2074,-5.4048
331.8658,178.2675,189.1492,165.6848,160.4954,144.5440,23.2083,72.1800,-35.9377,-29.4123,137.7829,66.8991,165.5040,85.5487,80.0504,32.1217,160.4770,203.2524,34.3505
313.8246,206.2002,194.8164,203.3676,163.4600,190.1104,49.8051,137.9085,-1.2615,46.9420,178.4946,111.9117,187.5127,126.2792,88.0917,45.7615,192.2594,236.0524,96.6521
306.7376,227.4885,192.3430,228.1432,127.5847,236.1071,83.9070,186.9106,46.4570,108.1113,224.5536,118.7517,174.4655,151.4056,74.3345,37.5375,176.3522,228.6487,124.6792
298.9115,225.1809,193.6153,198.1897,91.2663,223.6498,99.1981,154.6571,74.5350,79.0747,254.5944,115.5699,166.5925,136.7041,83.1894,52.1946,132.7908,156.3529,103.6366
283.5260,213.7824,171.6353,114.3704,46.5758,125.0761,78.6060,79.3674,67.0611,32.1226,238.4816,83.0757,157.5003,67.2764,95.9140,56.9183,48.2028,58.8052,74.3910
243.0669,180.4931,76.0820,10.2443,-47.0041,-12.7067,54.5118,29.5305,59.8694,52.3765,155.2888,3.2005,107.9404,-17.8108,77.2976,17.6823,-72.3355,-20.4438,67.7882
161.6039,100.1001,-52.7738,-70.5167,-141.2243,-87.5315,60.1732,25.1680,90.5943,92.1341,27.7893,-45.8260,18.9728,-39.5135,53.1194,-18.0973,-163.7643,-48.5253,89.6280
75.1535,9.2152,-113.8648,-105.2705,-161.2475,-60.8575,72.7489,63.3108,160.9544,97.9658,-77.4475,-20.2365,-51.1427,16.4331,63.5240,-21.1540,-186.5452,-21.2470,131.1691
27.0246,-38.8534,-99.1322,-114.8035,-129.5287,-12.1969,69.1297,123.1281,253.5474,111.0784,-109.1109,5.9448,-56.4035,71.7384,100.3714,-15.5772,-166.9179,2.8540,174.7228
1.7584,-49.1428,-75.2180,-115.2003,-102.3986,-6.4667,74.1427,162.8022,323.7644,159.3558,-78.6975,0.2818,-24.4301,78.3260,121.1876,1.2796,-134.0922,-19.6641,202.5839
-8.9184,-26.1816,-52.0767,-78.6400,-85.7097,-4.5115,93.9670,163.6316,304.8952,194.3278,-25.7073,16.9639,-3.1409,80.4123,104.3839,35.1124,-88.2071,-38.2151,192.9641
25.8747,40.3531,-5.4916,-2.8237,-64.9570,29.1784,91.2312,132.3382,202.1256,177.5906,31.8359,52.8867,22.7430,98.5095,77.9475,51.4819,-26.7240,4.6161,142.8519
74.0039,94.0551,36.3263,57.0366,-21.3703,70.3317,74.0052,84.6064,111.6646,144.8428,76.7652,57.8367,88.8831,83.1437,76.8365,41.8569,30.2935,97.8089,101.5681
55.8453,82.3601,35.9985,82.5522,61.0848,119.6805,106.1484,68.7431,84.0233,150.8087,79.4143,48.0954,167.8685,47.5394,101.3664,39.4058,54.4306,209.0967,108.7485
-21.3671,53.3992,9.5082,107.8463,147.6033,186.3374,182.4485,115.8123,77.6659,182.1746,47.5081,60.5761,206.0682,70.2047,142.5747,57.0709,49.6791,287.9383,121.7882
-94.1256,34.8788,-18.0229,120.4613,177.9766,211.0449,202.5821,162.3901,64.3272,181.1842,23.0997,70.8215,194.9724,121.1444,187.3643,86.3343,38.1930,268.8237,89.6982
-140.0381,-14.1968,-48.2703,83.4482,153.2677,153.4667,132.6900,138.2783,54.1464,148.3819,13.1838,41.2523,157.3149,94.9445,198.5620,114.4118,16.8980,180.2071,41.5179
-135.6289,-59.8389,-66.1900,33.4908,123.4069,74.6346,71.0141,77.7217,40.2415,129.5939,0.1943,-14.5802,115.6231,13.2123,162.7613,121.5900,-7.9822,124.9783,22.3782
-63.9049,-49.1357,-45.3070,15.8670,98.9063,25.7782,62.8697,42.3867,6.4796,116.7976,-5.9620,-52.7510,83.5191,-22.6620,111.3406,115.5467,-12.2319,100.4477,7.2486
-0.4727,-58.8817,-22.8343,-11.0018,40.3338,-20.0558,11.9792,26.1194,-48.5827,78.6069,-6.2093,-61.5777,47.6356,-18.6767,54.5778,119.1840,-30.3430,21.7888,-52.0167
-8.9088,-132.9863,-60.0807,-78.7362,-56.0951,-72.0396,-105.9538,-4.3066,-95.5181,37.8563,-33.9193,-74.0875,-13.7225,-39.5993,-10.3883,101.8734,-95.2176,-91.1777,-127.8081
-21.8572,-158.3967,-115.8158,-122.0474,-121.4967,-95.8300,-158.7518,-52.2808,-71.3148,12.2318,-83.5313,-93.7616,-86.6582,-70.2327,-51.5671,31.6472,-120.9619,-150.6413,-132.2142
-1.4351,-98.7086,-108.1490,-100.2683,-117.6177,-93.2871,-104.8026,-80.2990,14.2531,-22.4512,-113.6804,-74.2782,-143.9794,-57.6733,-67.9110,-29.3803,-57.6900,-163.5188,-47.3449
-28.3582,-71.8530,-82.6654,-87.3306,-109.8740,-102.6624,-60.4359,-46.9577,44.0678,-45.8178,-124.8093,-28.8415,-176.5475,-11.5822,-102.0443,-15.2151,-36.5458,-195.8487,37.0179
-102.4235,-108.2558,-126.7944,-144.4357,-146.8413,-139.9445,-58.4049,8.5889,-4.6858,-11.3653,-134.6318,-39.7742,-170.3954,5.0829,-128.8158,28.9585,-129.5371,-245.2141,57.6672
-124.7096,-127.1055,-180.5600,-212.9016,-167.0634,-184.6058,-27.4264,1.3023,-19.4543,36.2314,-128.9526,-104.9921,-125.4516,-34.2975,-94.1650,38.8089,-191.7145,-251.8503,42.6345
-111.6793,-114.7687,-140.5330,-212.6522,-124.4409,-194.3857,14.9128,-47.2666,4.7748,20.8667,-105.9156,-128.2760,-86.0548,-65.8907,-46.7688,32.8380,-127.4878,-194.9347,16.1533
-121.4457,-82.2206,-43.0727,-151.8414,-72.0038,-147.2048,8.8581,-51.5480,-22.2827,-21.9785,-78.5847,-80.2950,-69.7901,-27.6209,-57.3407,38.5704,-32.9766,-123.6661,-24.5660
-57.7705,17.0802,32.0587,-77.7239,-49.9801,-81.9790,-19.2031,-38.7206,-61.5652,-19.6003,-25.0004,-18.9585,-34.9003,29.8569,-94.4333,29.0720,20.1028,-85.6087,-55.1651
149.7391,169.8457,91.6183,0.0732,-29.3270,-43.4356,-31.8135,-75.0263,-48.0074,-9.3488,60.5328,21.8683,21.1141,40.3523,-100.6783,-14.3740,71.5076,-54.1962,-62.1846
359.4321,281.7248,150.6542,91.7284,16.4935,-3.5024,-19.9432,-96.8824,-49.5418,-53.2611,124.0490,53.2136,50.7028,42.5804,-70.1663,-63.2905,139.9583,22.9684,-53.5188
447.2701,329.3841,183.1989,187.7754,85.7683,84.1395,47.2523,-16.9105,-89.8755,-86.2333,143.2132,90.3923,60.1129,78.1637,-17.5641,-85.0582,194.9099,134.9503,5.5907
467.5657,361.6376,190.4863,255.7078,159.2553,188.8593,156.2854,124.7488,-84.2187,-10.1621,157.5956,132.2976,89.8137,117.7407,28.9548,-71.0942,213.9204,226.3827,125.1789
462.8541,367.6214,195.0097,252.2363,200.1029,237.2989,235.3678,243.5946,-26.8751,124.4658,177.7402,142.0585,128.5185,150.9843,50.2236,-32.4921,192.7014,258.6528,216.4647
399.5183,292.4420,190.1538,166.0883,194.3169,206.0186,268.5401,302.0216,25.6190,182.9033,184.9115,86.7407,149.6905,171.0279,71.6821,3.7644,146.5560,223.9702,224.3475
309.9130,157.5085,164.0665,60.9187,159.1155,138.3050,260.9221,285.2514,54.2219,144.9844,188.6118,12.7607,153.0982,126.8742,90.2537,21.2478,92.7629,155.1109,193.3469
255.3025,59.5057,123.6355,17.8952,93.3148,91.4419,171.3898,212.6968,16.0738,100.6963,182.7362,-7.1478,128.0918,45.8639,48.4134,39.5105,34.1572,96.0572,141.2469
216.2455,43.7247,74.1805,30.1777,-0.8135,75.2369,32.4205,137.5087,-92.3698,87.0131,124.9163,10.4050,67.7082,23.5602,-43.3458,77.1618,-8.7044,36.0183,59.7534
159.3554,47.4651,10.3113,23.8778,-83.8381,53.3624,-54.5432,80.3559,-157.3169,68.0668,16.7677,1.6097,-0.1991,33.0963,-107.0022,115.3873,-22.3370,-39.1761,-0.6537
82.8410,12.8262,-72.1574,-20.0963,-143.6195,22.2857,-97.0313,42.7402,-143.6767,58.1942,-89.5393,-25.2967,-57.5800,1.3748,-130.4217,137.4670,-52.9834,-66.7235,-14.9232
-26.7043,-17.6932,-152.8638,-46.8690,-207.9826,23.8223,-153.1912,45.7029,-135.6709,113.7969,-160.8358,-21.9846,-108.2840,-13.0889,-149.6575,151.1456,-126.0269,-24.5001,-29.4670
-145.3591,-8.5699,-192.9098,-38.7118,-273.6560,35.7549,-188.5416,57.8134,-114.4464,181.6527,-182.1620,-7.9891,-137.4408,20.5101,-171.6706,147.4844,-189.7386,-27.3843,-58.9786
-204.0964,-30.9933,-197.8076,-53.6065,-328.0149,-27.0555,-188.3568,2.0649,-38.1509,136.2340,-152.3257,-31.4359,-135.5382,2.9468,-205.7910,127.3745,-224.8373,-133.7336,-91.6748
-219.9339,-123.5063,-219.0325,-112.0647,-386.4369,-139.3062,-209.7333,-89.6228,-4.8522,30.5367,-123.0151,-59.2859,-126.9868,-58.1932,-244.6662,155.5796,-263.5182,-212.9035,-136.9139
-274.2665,-190.2731,-262.2505,-148.2237,-426.8114,-167.7705,-232.5336,-101.9214,-31.7137,61.3814,-141.1710,-38.3438,-123.1784,-42.6795,-230.6378,257.9246,-284.7197,-171.2339,-160.2810
-345.4664,-176.0338,-285.1941,-139.4937,-401.6387,-105.5457,-197.4606,-44.3152,-5.1339,198.4105,-161.5146,-19.8235,-106.0493,14.5219,-172.3939,332.3093,-260.6243,-112.2878,-127.2834
-351.3709,-162.3118,-280.3067,-154.9356,-343.3436,-82.8139,-150.4399,-27.5815,34.3378,198.6055,-129.4631,-68.2757,-69.7829,5.0086,-161.8723,319.7937,-238.8154,-128.6419,-107.8601
-309.2902,-181.3702,-266.5155,-205.2785,-327.2322,-116.6140,-152.6124,-54.9757,-1.7158,67.5693,-89.5465,-124.5487,-29.0314,-17.3691,-190.7919,331.0174,-251.1783,-151.3536,-150.1162
-297.7673,-169.5042,-258.9851,-218.8711,-355.9880,-109.7237,-172.2858,-48.2153,-0.4132,49.9081,-101.9772,-121.5469,-2.0409,23.6960,-165.0729,440.7696,-267.3544,-128.6669,-174.0052
-340.3290,-165.3202,-292.5349,-209.4590,-380.2490,-74.2654,-162.9556,-13.6343,91.5883,147.1421,-144.7787,-104.9140,0.8621,75.1885,-108.3798,551.0792,-280.2431,-130.7352,-133.1784
-406.1403,-268.7661,-369.8402,-249.9578,-378.6671,-81.7332,-122.6869,5.7811,119.1726,163.6677,-182.1265,-108.3390,-8.8560,109.5657,-111.5749,593.3879,-306.5006,-172.1345,-87.3652
-449.4587,-401.5389,-418.7294,-296.4111,-367.9398,-84.6425,-81.2804,29.4840,61.5439,120.5354,-220.9549,-96.0270,-18.5889,162.8748,-146.2279,628.1996,-335.8795,-163.6224,-68.4790
-452.4688,-415.9357,-412.3203,-271.8868,-372.5830,-35.1859,-78.5274,50.9281,54.9458,129.0726,-260.2180,-82.4360,-43.9701,202.8828,-137.3541,667.4540,-354.5751,-116.5532,-64.1497
-460.5097,-364.0358,-419.4646,-224.0694,-393.2354,-2.8119,-104.3254,16.1806,75.9904,120.8379,-295.1573,-98.5947,-97.9888,202.4851,-111.9223,659.1011,-354.0386,-136.6610,-85.9257
-512.4427,-360.5775,-462.6216,-197.2350,-415.5657,-0.0382,-126.0168,-33.9381,33.6791,72.3708,-357.1259,-93.1257,-166.0568,227.4404,-129.8941,647.1575,-330.9593,-184.1250,-143.5146
-576.7288,-347.0015,-484.8499,-135.2636,-449.4535,54.6334,-188.8400,-8.8384,-30.4507,99.7169,-444.8720,-42.7427,-233.9050,290.2191,-183.5870,693.5746,-319.0982,-132.7164,-233.1558
-627.9458,-258.7630,-467.3233,-46.3389,-494.1588,128.9960,-320.8159,41.8019,-95.1215,158.8747,-481.7876,-12.2638,-283.9023,316.2923,-240.8527,723.0390,-338.4460,-43.6922,-336.8500
-670.5833,-198.1710,-433.1302,-30.8634,-497.6316,116.5906,-417.5851,6.0695,-199.3569,96.6610,-433.8189,-23.3332,-286.2135,302.1298,-294.3107,660.5495,-344.9527,-72.8032,-388.8280
-658.8714,-234.9624,-391.2838,-97.0921,-447.4177,43.1684,-424.2026,-92.0969,-300.0964,-45.3956,-375.4316,-49.5192,-253.6180,285.3040,-346.1566,568.9997,-327.2080,-182.4339,-369.2720
-561.0869,-271.6374,-360.8580,-152.4621,-417.4083,-8.6210,-445.1782,-168.9352,-372.1586,-147.8696,-368.4375,-90.2541,-242.1615,233.1586,-400.1488,497.5381,-333.1672,-220.3611,-384.7979
-456.6042,-220.6063,-355.4107,-131.6723,-431.5436,-32.8005,-519.7073,-215.8805,-478.4939,-214.3395,-376.1813,-101.3700,-260.5368,156.8050,-454.1112,403.0725,-343.0575,-160.2805,-479.5925
-400.5968,-113.8437,-337.8850,-18.3299,-407.7710,-14.4780,-546.7736,-223.9240,-593.1676,-250.4259,-339.5323,-22.7723,-258.5772,161.8712,-479.0927,304.2803,-286.9462,-72.6514,-523.0231
-333.4382,-11.5915,-278.3479,144.8525,-302.6438,73.3100,-496.4063,-156.8754,-630.4673,-222.6261,-255.1229,78.6329,-208.9951,251.6297,-448.7611,282.4999,-182.6097,2.5247,-447.7351
-251.5967,64.4779,-203.6363,261.3380,-184.9951,166.7095,-444.8469,-57.7185,-630.6108,-155.4728,-165.7264,114.4916,-140.4171,306.9664,-396.7991,316.0193,-103.5220,63.9331,-374.1518
-245.4485,123.9861,-149.1144,306.7758,-137.2962,204.5715,-429.8894,-7.4649,-654.2971,-81.9295,-121.1071,130.2194,-106.8779,304.3655,-384.8888,312.7905,-77.0079,122.6172,-391.9600
-300.6875,173.1090,-131.2737,342.0666,-167.1792,214.2633,-435.5187,-4.9391,-648.2083,-33.8113,-141.0945,165.6756,-136.8853,311.5851,-413.3449,253.0925,-94.1074,159.9019,-435.7829
-308.9153,183.6175,-151.4580,359.9534,-218.4120,191.4717,-434.5232,-10.3032,-578.5123,-79.5787,-200.9297,166.4253,-196.9007,314.8596,-432.5778,164.7216,-126.8346,122.6384,-419.6856
-263.8613,148.1980,-180.5794,315.2144,-243.0514,104.7982,-400.5856,-21.7750,-496.4328,-182.1943,-259.8457,128.2045,-241.0766,268.4789,-428.1433,56.7879,-137.5181,37.3365,-354.1077
-234.6004,128.1888,-190.6384,268.0183,-253.5743,22.9322,-358.2709,-49.9042,-445.7961,-214.4424,-298.3434,102.4928,-281.9527,213.7755,-423.7419,-55.5656,-131.3225,15.4696,-322.0013
-228.9983,156.3332,-195.0613,285.6105,-277.1444,11.9584,-362.9551,-93.2331,-449.6186,-209.0785,-324.2181,93.5041,-340.7749,201.4699,-430.5147,-148.0328,-135.6605,69.2721,-365.3251
-226.7159,181.8791,-207.3026,310.5009,-295.3966,12.5300,-398.7711,-128.7086,-492.7319,-258.2021,-342.6205,100.9913,-378.7369,210.4276,-443.0975,-206.4433,-139.7634,105.6224,-408.2149
-227.2724,174.9177,-211.7798,278.9854,-281.4558,-25.1075,-400.4545,-117.5532,-488.3573,-266.9658,-326.4961,121.3925,-353.0062,193.8478,-440.7356,-229.5642,-136.8720,104.4529,-368.5307
-209.6032,159.5540,-199.8250,221.7538,-241.5376,-68.8053,-355.1254,-85.0690,-403.7651,-178.7230,-256.3235,94.3314,-278.8025,124.5692,-390.7646,-260.2313,-146.9905,99.5850,-298.3737
-156.1849,150.7845,-174.4345,187.0213,-193.0204,-105.1859,-301.3014,-105.1711,-328.3914,-143.1134,-180.7427,27.2304,-201.4243,35.4321,-307.6493,-340.6954,-150.5942,79.7968,-288.1091
-92.9250,167.5535,-134.5390,193.8677,-156.9513,-123.2715,-277.6896,-143.1375,-309.7782,-196.8490,-155.3947,28.7460,-160.6226,14.2785,-257.1541,-409.4767,-113.5960,58.6874,-317.3876
-40.6591,217.1473,-88.1995,226.4063,-144.7032,-89.3631,-292.1409,-105.2473,-297.4699,-210.1317,-148.0301,89.3563,-162.7924,59.0419,-255.8287,-407.1964,-64.3493,74.5520,-319.3856
-4.7620,232.6674,-44.0033,218.9773,-117.7786,-50.7224,-301.8531,-46.5906,-278.4628,-203.3193,-106.0572,92.4228,-159.6015,52.0486,-252.8192,-415.3184,-40.8022,89.7696,-290.3701
-10.7688,178.3806,0.3727,151.3144,-37.9003,-73.1730,-264.8813,-66.3237,-271.7103,-258.1349,-50.8312,61.6965,-107.7862,-15.5866,-216.8393,-465.8100,-24.9902,69.3023,-259.8077
-55.5461,141.7946,33.6774,110.5703,51.4041,-94.4951,-206.4621,-92.9459,-241.9277,-275.8607,-15.2093,88.4245,-43.7033,-24.2458,-153.6001,-426.9114,4.5873,52.0501,-229.1715
-77.5957,160.1132,43.3600,127.1102,94.9151,-70.3630,-162.0463,-50.8073,-162.6138,-192.8696,8.2917,112.1399,-32.0939,9.2077,-80.6847,-295.8600,34.8824,25.1333,-170.4120
-47.8583,134.5913,44.3483,95.3932,121.6611,-98.6689,-105.9517,-35.2075,-58.4027,-133.9442,14.1857,50.8373,-65.4363,-38.5009,-29.9785,-250.0212,50.9461,-56.1057,-71.4288
-14.9025,33.9381,40.3913,-17.3399,171.8675,-192.1311,-14.0825,-92.7871,48.3137,-159.3698,-9.4164,-24.8985,-78.5431,-121.5151,-3.3211,-281.2170,46.4047,-116.5771,11.6508
-30.7532,-54.3251,10.3426,-95.8139,213.0960,-216.1139,63.4813,-120.1501,115.4468,-204.3738,-44.3335,-37.7744,-52.9586,-121.7469,38.3798,-229.0026,17.2620,-91.1779,2.8673
-90.6996,-107.0280,-32.4005,-96.5247,210.5086,-176.9684,60.9872,-109.5331,88.1717,-266.4637,-83.8189,-33.1813,-45.2564,-105.9834,81.3944,-146.5794,-19.4519,-78.1858,-69.6237
-137.8011,-159.8298,-46.2014,-100.7825,199.2080,-210.0819,2.3985,-154.4118,15.0409,-355.5021,-122.2196,-59.0331,-80.5113,-169.4757,77.0664,-170.9257,-21.8515,-129.7638,-93.7005
-118.8230,-174.3256,-28.7209,-114.3292,224.4094,-271.4030,-18.1725,-204.7200,-3.3955,-399.6579,-111.5776,-70.3936,-95.8482,-218.4857,60.2361,-223.0860,29.4228,-132.5316,-38.3608
-63.3391,-113.0753,-12.9897,-67.3008,263.4628,-224.5494,16.5379,-157.5823,0.2403,-383.4409,-52.0906,-19.8840,-63.9632,-166.2525,77.3281,-205.7544,82.9711,-58.1936,10.2461
-51.5615,-49.5172,-21.7550,-6.3122,262.6642,-136.6579,23.2396,-87.1727,-59.2959,-369.6927,-27.2315,41.1115,-52.4834,-108.7946,78.3171,-181.3342,72.9446,-31.2611,1.8023
-85.2131,-66.7986,-47.0768,-35.2518,229.1790,-131.9111,-8.7330,-89.4034,-109.5057,-333.2990,-49.1918,31.4830,-77.3283,-120.4473,41.3778,-161.2003,30.3182,-71.4486,4.3988
-94.7859,-139.1945,-49.1219,-103.8946,219.7986,-136.1755,3.0975,-88.6458,-39.4007,-211.4160,-40.9418,-18.6134,-73.5232,-120.7596,29.9437,-88.3661,36.0671,-72.6493,75.7139
-61.3006,-184.7524,-5.7949,-97.4938,240.7462,-66.8772,44.7425,-27.9632,67.5174,-89.2843,3.4413,-22.8237,-50.7396,-72.6086,36.9606,-33.5421,73.8943,-38.3058,141.9254
-18.7874,-168.6291,39.1270,-54.5415,241.9419,-24.7619,33.5161,-6.8886,65.2125,-94.2271,36.0412,-2.9416,-60.2146,-69.4467,4.2744,-75.4111,72.2726,-57.3990,112.8768
8.6934,-113.5496,42.9435,-57.1716,210.3531,-60.4846,2.4570,-65.7730,-4.2947,-161.7013,61.5064,-15.7828,-56.9754,-127.0712,-23.0286,-130.8950,43.7488,-93.2140,36.5959
0.7628,-52.5286,29.5688,-44.0014,177.5496,-48.0468,7.5420,-93.7961,-15.5457,-136.0918,72.9864,-8.2787,-8.4349,-128.2948,8.8593,-124.3210,33.7476,-50.3638,-0.1651
-38.5386,-17.3856,21.0467,32.5795,147.1287,38.0212,-8.0798,-51.8637,6.4104,-29.0574,34.5719,43.6974,14.4681,-58.1752,38.5186,-100.8479,21.7201,14.6307,-18.7031
-56.3042,-36.3970,-2.7133,57.0360,99.6222,44.0003,-62.4685,-33.8535,-31.7287,46.7021,-8.2502,33.2177,3.5817,-48.8977,28.4073,-90.4735,-19.0012,-14.5972,-51.0523
-45.9777,-90.0213,-34.3433,-32.1973,48.7345,-59.5000,-80.4899,-65.2439,-89.7725,89.1251,11.3287,-58.9351,33.2709,-128.6758,39.7313,-85.9040,-70.0455,-92.7983,-48.5992
-74.7855,-126.8395,-40.3428,-118.8592,28.0981,-128.1113,-67.3536,-79.7163,-70.4485,127.3584,50.2798,-107.7986,72.5210,-186.5037,89.8140,-122.1883,-109.8414,-111.6182,-7.1136
-135.1869,-151.6988,-34.8146,-145.8006,34.9632,-128.8185,-76.2891,-84.7742,3.4168,101.1417,46.4382,-99.2171,39.3624,-202.6739,120.3998,-206.7161,-127.0166,-107.7121,1.4027
-134.7973,-188.3809,-54.9180,-190.2532,28.6288,-151.0291,-72.1504,-129.2782,45.0318,19.6960,25.2144,-126.1055,-24.5273,-242.0325,104.6334,-269.0703,-126.2754,-150.3191,-21.8067
-73.4023,-181.2678,-88.7376,-243.8821,-5.5597,-179.8933,-32.9900,-164.4362,43.6649,7.9650,28.0172,-154.2481,-42.4862,-266.2798,67.1288,-277.8409,-130.7741,-175.9931,-7.7700
-32.2159,-92.9853,-92.2053,-218.7653,-26.1586,-145.6131,-6.8310,-130.4642,41.8025,76.6903,60.2301,-101.6518,-26.4173,-208.9582,48.5627,-283.9734,-127.1444,-128.1678,42.7424
-9.3002,-11.8469,-51.1023,-151.1630,-9.8745,-87.0948,9.8765,-84.1718,55.1893,117.6836,102.0065,-29.0326,-13.6393,-131.2663,72.0311,-307.6591,-87.0873,-72.8750,75.2662
40.0647,-13.5056,0.9702,-139.2156,-4.5259,-63.9624,31.0971,-96.0068,68.3143,109.4887,97.6088,-18.0122,-30.2783,-116.7335,96.1989,-310.5441,-52.6960,-57.0995,64.6817
77.6570,-62.3188,22.9050,-170.4315,-39.1706,-63.7072,0.5146,-146.1665,53.7219,67.1222,26.3533,-39.8190,-94.9485,-152.0999,66.8933,-299.6490,-56.0051,-51.3712,13.3884
62.9189,-117.6568,23.0577,-186.2419,-55.5042,-76.8668,-69.1099,-198.5495,6.2278,-47.3192,-25.7731,-53.4430,-160.7424,-189.5157,20.4552,-329.2301,-29.1348,-43.9080,-44.5554
48.9624,-147.8511,46.8279,-170.7207,-9.8179,-85.6478,-78.4686,-235.9748,-31.0747,-175.5332,5.6578,-44.6925,-163.0401,-186.5456,18.8943,-380.4635,54.0537,-18.1018,-57.8598
80.7275,-83.9883,102.1994,-102.2046,44.6491,-26.4104,-37.4459,-220.2676,-37.3397,-192.2121,54.9743,8.8641,-133.9634,-121.9816,33.4365,-380.5682,109.7564,56.8296,-38.6596
117.8869,46.2747,149.5728,7.4797,48.6396,74.8003,-31.3074,-152.0060,-56.3073,-137.2093,56.4070,62.8885,-132.0101,-66.7783,16.9336,-352.6381,108.5061,104.9258,-34.9690
122.8494,86.5315,160.7195,52.0048,24.3488,89.9496,-44.5439,-104.1628,-85.8388,-116.9470,38.7559,28.6888,-137.0513,-110.4406,-0.8421,-376.4861,99.5401,25.6737,-24.2163
107.8356,-1.1309,136.4257,-12.7736,19.1401,20.8102,-34.1680,-97.7563,-54.3416,-76.7868,31.5255,-51.7530,-125.2277,-194.9958,12.8278,-415.1984,85.1986,-77.6066,28.1382
76.4894,-68.0022,89.9764,-56.8488,31.5960,11.1172,-33.4956,-66.0303,17.6192,48.1709,21.2522,-50.2277,-123.3308,-197.4132,28.5107,-379.6729,59.2495,-28.2728,73.4057
29.6081,-31.2434,50.6453,12.8291,39.0647,86.3381,-48.6555,2.8115,22.9309,154.9524,4.9382,23.3544,-136.8269,-134.5004,21.5798,-314.5945,60.7046,108.7342,78.9193
13.8272,24.4870,45.6827,84.6688,48.4767,124.4148,-22.0487,35.3005,-18.7812,150.5677,-10.9162,47.4483,-138.0252,-116.3090,19.0620,-318.3569,81.3520,129.0060,97.5779
58.3897,15.5080,58.0577,37.7329,64.3186,67.8406,55.1299,6.9909,19.5525,104.0994,-31.4395,-6.7561,-122.0599,-166.4960,48.8521,-360.2219,69.7588,18.2209,143.5568
102.0322,-41.2913,43.1243,-72.5696,50.3444,-33.8039,123.7918,-29.3134,134.0625,116.0477,-55.9318,-70.6207,-107.9944,-219.9087,94.7730,-352.0538,27.8577,-82.8074,154.9307
80.2556,-96.9690,-2.2253,-159.4393,-3.0717,-136.8136,137.8998,-51.1804,199.3188,178.7609,-74.9074,-111.6983,-112.4674,-243.3747,123.8717,-312.9351,-18.8248,-139.4575,120.4987
23.2252,-140.2591,-32.0078,-247.1221,-36.3290,-227.3191,107.3076,-91.9854,182.5690,206.9145,-77.2018,-150.3651,-134.9920,-268.4254,132.1051,-332.7850,-64.5199,-214.6286,93.1195
-12.2399,-180.1538,-26.3572,-350.3034,-23.5390,-289.5447,82.5820,-156.8254,154.1457,155.7228,-53.3145,-193.0364,-151.4084,-313.4117,139.5801,-431.8401,-91.5205,-289.4052,92.6797
-20.1638,-199.6397,-18.7718,-400.7758,-14.3413,-312.5173,94.0749,-198.7274,143.7613,74.4261,-17.6610,-216.4296,-142.6991,-341.2887,157.5970,-533.2437,-95.2058,-294.7705,110.1186
-1.9887,-180.8599,-23.9184,-382.7067,-19.7657,-298.6717,119.8558,-198.6853,134.5772,9.4774,1.7487,-203.5139,-120.4172,-330.6973,182.5022,-562.2040,-95.7488,-248.8137,144.2367
48.3386,-156.1284,-12.6739,-359.9033,-1.7473,-259.5320,142.7932,-197.3895,135.6212,-68.2270,9.6245,-170.5414,-104.9169,-317.0802,198.4509,-533.0923,-78.8635,-203.5659,173.2981
97.1911,-158.6665,15.3831,-339.5318,28.5628,-211.0607,177.6250,-209.1892,155.0218,-160.6276,28.3568,-145.1205,-105.3781,-314.1380,179.7788,-511.8017,-30.6380,-143.6212,180.6922
110.9180,-162.3324,30.8835,-288.6803,58.8889,-167.2288,226.8500,-183.0401,166.3199,-192.0562,53.3273,-130.0241,-108.3424,-291.9873,132.3193,-519.3022,7.5543,-54.6969,208.4955
112.2901,-135.5622,43.1335,-244.4328,132.1650,-135.9250,288.1076,-93.0058,172.8241,-129.1510,67.1730,-115.0576,-75.3789,-257.2355,114.0888,-515.0109,15.1781,26.4752,284.8511
116.0293,-85.5982,54.8609,-236.3009,225.5052,-104.8278,364.8655,19.3456,224.8858,-19.8740,54.1789,-101.2190,-9.5698,-237.4576,159.4642,-456.1357,11.6926,85.9902,351.3405
88.9988,-30.6008,8.1283,-207.8895,236.9621,-49.2202,409.0921,107.9178,312.4708,82.4493,-6.3760,-88.9333,7.4125,-213.3014,220.0177,-355.6154,-15.8770,113.6122,352.9658
36.1908,-0.5338,-96.0465,-147.2904,161.5274,6.8174,358.8769,140.5498,342.6294,126.9073,-95.4049,-74.2757,-67.6178,-170.2201,229.5870,-284.0312,-57.9418,53.8417,316.7666
26.0976,-14.7713,-136.4711,-128.3529,97.6199,-0.2236,260.1747,97.7218,286.8128,74.2245,-132.0894,-59.6523,-155.8369,-137.0888,186.2992,-282.3765,-37.2136,-71.7680,285.9105
85.6204,-25.4173,-47.1145,-150.2355,96.7138,-53.1949,218.2969,31.1540,227.1788,-34.4153,-67.8002,-42.8911,-166.5642,-117.4468,140.5405,-297.4220,61.9669,-130.1352,273.2505
150.0772,10.5673,86.0508,-130.5289,153.9804,-56.6894,249.5643,33.9066,205.4669,-108.3134,44.4910,-22.6217,-98.2441,-89.0330,132.2799,-268.8687,166.8000,-77.2766,291.9214
156.1244,49.0639,178.3706,-59.9779,257.7738,7.7156,301.6483,112.4425,177.0896,-111.8672,131.0891,-14.6241,4.3269,-60.6932,158.5635,-215.5376,253.6965,-0.7164,342.8923
146.9753,67.8485,250.3843,15.4562,368.0200,72.7497,354.8975,194.5874,136.3796,-73.4282,192.6457,-16.0408,102.2463,-38.8305,198.3651,-169.8068,346.1227,52.7831,393.8036
226.1490,116.6685,338.8132,93.6000,442.9446,115.4446,408.8221,236.5847,126.1356,-27.5712,265.6065,5.0311,175.1871,-8.1041,245.0092,-122.7886,423.3066,85.7785,419.8824
386.2437,172.8806,417.1216,162.2641,478.9545,153.2194,439.5943,234.7058,143.8049,23.8576,335.4775,42.1024,232.3842,17.1319,291.6323,-64.5423,454.9351,84.5036,420.2121
482.6618,157.8279,433.8387,177.9992,476.4364,184.2351,431.6329,217.5709,170.3894,104.2756,358.5584,58.6184,288.6136,20.5691,330.2414,6.4652,445.2597,93.5563,393.1460
444.6886,111.4527,391.3458,169.5823,447.2375,222.0273,408.7380,242.2250,222.1311,188.6598,348.9419,71.1996,337.1078,29.3772,388.4315,83.2038,415.6693,169.6853,344.4997
370.8470,122.4893,358.5440,208.2747,435.4792,270.6570,401.8153,280.9897,286.7863,192.6575,354.4459,108.5768,364.8973,49.2918,480.7952,133.4713,406.7435,235.4807,286.0012
343.2741,155.5378,375.5163,272.9795,442.3696,268.7389,394.8990,214.3212,307.8322,105.0485,358.0326,131.9951,356.3251,48.5181,525.9060,162.0539,432.6198,206.0803,211.8655
330.5149,143.1747,389.1729,288.8504,415.3074,196.0896,339.4379,56.4604,271.3398,24.7940,311.4426,112.0538,299.8694,41.7819,441.9564,226.4835,432.5228,151.3464,135.3011
313.8515,116.7159,347.2485,246.1634,348.6145,136.4730,244.0824,-22.9885,223.3743,11.0880,240.9515,89.5521,225.9890,66.0826,293.3129,312.7690,372.7019,133.4583,109.4456
312.1238,111.7587,281.2645,173.1158,278.3851,120.6502,184.9481,8.8912,209.3124,26.1248,201.5233,77.9226,174.3103,90.2156,203.9963,341.9439,309.2896,94.1720,142.5770
292.9829,93.2514,228.1398,80.1219,209.8647,80.2375,183.9017,11.6743,236.5034,33.7059,171.6699,36.3562,123.3635,67.9535,189.4008,328.5085,262.4254,20.6172,167.5566
224.9075,40.4200,165.1497,-6.4162,142.6267,11.8580,171.7499,-43.7679,267.8050,38.0865,101.1031,-26.1268,44.1772,28.4213,184.4931,352.2447,185.9096,-18.9920,149.5081
146.3478,-19.8940,73.6314,-54.0043,89.9673,-14.7390,119.0786,-43.1749,268.2015,54.5826,8.7427,-53.8973,-17.9251,23.7758,159.8994,419.1382,91.7807,-20.3645,136.6119
87.7403,-73.1833,-17.3324,-79.4811,53.2043,6.0116,94.4843,41.6550,264.8672,94.6671,-38.3125,-40.1432,-0.0612,49.9400,139.9904,488.5712,33.6136,-25.3971,175.3275
43.1028,-117.9195,-67.0448,-104.7620,50.6651,35.7688,151.8781,125.9920,299.2837,135.1213,-3.0213,-19.0759,95.6903,72.8305,157.7657,529.3796,10.8106,-30.6703,244.5748
32.5759,-129.6664,-53.3378,-97.3415,105.5786,64.7466,252.0469,156.3782,350.7119,131.6987,83.1434,-5.1401,207.3729,81.1963,208.2763,512.7610,14.9786,-24.0062,286.2943
64.7610,-95.0652,15.8129,-38.8815,179.8307,80.9326,322.5012,141.5564,368.4029,96.4601,150.6669,7.5808,258.5726,84.8082,242.6662,466.2295,65.3609,-7.4886,274.5665
95.3062,-52.6810,103.2087,15.3860,231.1992,84.5611,336.6016,110.4807,318.5365,79.0898,178.0351,27.9895,233.3152,92.3288,230.8566,452.9657,139.3351,32.7103,242.4717
108.1405,-42.3712,170.3898,21.3099,278.2459,117.3835,318.1480,97.5016,195.9233,84.0203,202.2760,61.2038,204.1956,108.9084,196.2228,452.3275,179.1285,95.6146,226.9679
121.6140,-48.8502,192.7334,13.4149,311.3782,175.9400,297.7315,119.7946,71.0125,96.2665,221.9835,100.4194,217.4861,137.0326,172.4984,427.3156,163.0997,147.3639,222.8171
102.0234,-46.9573,163.7338,32.8490,281.1080,198.7522,286.9397,162.8813,48.1809,125.7120,201.1240,134.8325,226.9844,165.4873,179.4946,431.1253,112.9882,166.5769,225.3638
27.8670,-43.7654,124.9663,68.3042,219.2985,185.3351,288.5567,196.2030,108.5718,164.1417,177.4966,155.1259,213.9015,174.8457,216.9986,465.1855,80.9300,157.0132,247.2752
-12.4861,-35.2574,143.3584,97.2038,202.6983,178.3560,300.3008,190.9314,141.5363,181.4820,213.5699,147.6643,231.2272,161.9949,242.7491,432.8617,112.9207,136.1860,266.8612
45.8974,-13.3010,207.8168,109.5873,226.5736,167.5357,309.4268,152.4319,138.1192,181.1369,259.5411,114.7808,279.6397,143.1820,222.1166,352.4872,171.2533,139.8509,256.6906
109.6349,-19.4482,220.3927,95.1558,246.6251,156.9378,311.7166,135.0264,162.2132,192.1778,223.3363,86.5316,293.6648,140.5344,191.3134,341.7118,175.3453,188.0527,247.9860
75.2714,-70.7787,138.6657,67.3053,247.6437,195.9926,312.3081,170.2083,194.1625,220.7704,124.3225,82.0671,253.3458,168.0650,186.9567,380.2558,135.1757,241.5437,264.7373
-4.5524,-88.5109,44.7890,60.8658,209.9074,244.7781,291.5403,206.9853,182.0887,236.6728,48.5117,86.7591,192.3131,200.3361,182.5116,360.4954,122.9857,234.1974,264.6291
-27.7169,-30.5353,27.6110,71.6648,129.2247,204.4941,229.5525,186.7038,144.1113,203.8326,24.2452,75.8334,140.7945,182.6456,159.3468,283.8219,147.8736,149.5842,231.5949
-0.1219,21.7470,70.6191,68.3184,57.9368,106.4201,165.2748,132.5754,112.6423,143.4607,23.1065,40.6622,112.8235,119.9542,126.2015,209.6469,174.5534,52.5741,217.8455
16.5164,14.6314,102.1532,61.5321,36.8866,57.4061,148.5887,103.5979,86.7106,124.7329,15.3185,7.8914,91.5278,84.5252,63.8001,153.3645,192.9159,24.0462,240.5637
17.9390,5.8792,98.7250,73.3736,47.6514,55.5819,153.8892,103.3200,54.9937,149.4619,-7.6069,16.0141,47.3556,91.0998,-23.8348,126.1139,195.9560,60.4071,249.5967
33.7376,41.4333,89.5928,79.8998,58.1471,46.0673,122.7440,90.3808,-11.5193,144.8586,-27.2099,45.8529,0.4543,81.2208,-73.9216,136.4609,174.1485,93.0093,210.3480
62.5777,92.0222,94.9497,62.7530,45.0190,30.6375,52.8632,45.5551,-128.4927,96.4108,-22.3554,39.7844,-8.5552,48.7294,-74.1966,146.2519,145.3873,90.4864,133.2866
89.0512,113.3869,105.1510,39.9729,-0.9179,0.0307,-13.6658,-18.3545,-238.6341,54.3879,1.3561,1.8680,11.3085,39.3305,-79.6642,117.3038,123.6993,62.0077,46.5012
110.0401,88.7234,110.1803,9.5363,-44.2743,-68.2860,-38.8218,-75.3176,-270.0514,33.4869,37.6453,-21.5178,46.5692,49.6634,-91.4181,67.7364,102.1972,24.6617,-9.0270
125.0623,51.2630,125.2924,-32.4738,-27.2296,-107.4834,-3.3659,-78.2474,-216.7323,30.3595,105.6759,-29.3578,121.1369,52.1743,-63.0460,35.8209,95.1921,34.1515,-1.5655
146.5003,59.4606,173.6204,-39.2637,60.4905,-46.2939,73.3398,3.1391,-111.5298,62.6393,205.6513,-31.3538,227.2450,51.4491,8.1908,25.0132,111.8529,127.7278,43.6504
193.4142,103.3674,231.8384,6.8256,157.0239,44.5282,135.9588,107.4172,2.8444,119.7555,283.5967,-12.3316,312.0052,40.5651,104.4509,18.8350,100.6933,224.8380,61.6914
240.3494,117.6574,228.0206,39.5962,177.6840,64.5388,151.9152,141.5302,85.0665,175.5576,283.3779,6.7318,350.3086,4.5955,213.4961,23.1364,20.7228,234.3391,33.7105
243.5199,107.7053,136.1247,29.0163,106.1993,43.9761,137.5011,120.5545,139.8223,231.6309,208.0982,0.3589,339.8757,-17.8533,284.3196,36.8048,-73.8847,189.4201,10.5558
230.6114,136.2903,21.6995,28.5618,12.6096,47.7555,111.3139,114.2060,187.7655,261.2873,101.9802,11.6992,262.9802,10.7423,261.5067,17.0213,-111.8909,141.4399,19.8385
263.6946,201.4495,-48.7921,44.0851,-57.6050,45.6229,66.1210,95.5441,195.8020,214.7541,1.1035,53.4028,129.9534,44.6926,159.1469,-40.6844,-108.0997,73.5022,12.6533
346.6945,258.6577,-65.7524,18.2021,-128.2410,-5.2758,-1.9931,11.5144,141.6661,124.6100,-66.2852,50.7272,1.5079,25.1602,31.2156,-69.2073,-109.6729,1.5459,-43.1337
476.9919,326.9013,-26.9634,-29.4006,-194.7115,-62.0468,-72.5352,-75.0055,75.7327,69.6921,-70.4329,3.1518,-77.0522,-18.4189,-82.2001,-54.7933,-105.2448,-27.9173,-103.1382
686.5023,463.0643,59.5390,-16.8649,-223.2248,-67.2027,-125.7653,-85.7526,27.5268,57.6638,-19.9991,13.2548,-109.5959,-9.4787,-155.5136,-48.4119,-65.4091,-46.9893,-139.1511
931.5506,650.3860,131.6819,43.5484,-241.6168,-43.0927,-171.7587,-71.8276,-21.7748,53.9043,28.9087,82.9685,-108.5464,58.7859,-185.4886,-40.8982,-18.7802,-107.9795,-181.7841
1091.3580,789.9028,138.5255,62.2417,-281.9206,-52.9633,-231.9178,-121.5211,-53.1170,41.8242,42.3740,102.0188,-78.8810,97.0038,-195.2388,-14.9354,-8.4831,-177.4084,-237.8552
1138.2539,825.6605,109.8148,32.6932,-308.1395,-101.1456,-300.9990,-222.2822,-54.2685,3.5134,34.0018,52.1876,-50.4080,38.0840,-204.4608,-23.8785,-13.0660,-194.3429,-284.3343
1150.0043,815.6705,92.9549,33.5565,-305.5352,-126.7927,-351.9749,-300.2715,-82.4891,-55.4329,12.5775,18.3148,-66.6353,-52.0737,-217.0813,-64.0549,10.4288,-150.8260,-322.4636
1157.4365,818.3231,90.8760,85.4092,-301.1214,-96.1660,-359.7930,-314.8400,-141.8735,-86.4000,-18.4172,32.2745,-112.6144,-61.0251,-224.9135,-72.8295,41.9023,-77.9860,-337.2910
1121.5031,791.0474,89.4866,126.6315,-274.3921,-43.8879,-306.1852,-273.3756,-142.4697,-81.5850,-27.2206,56.8484,-111.8475,3.7492,-202.7621,-84.2947,36.8248,-14.3901,-291.4670
1003.1298,681.4839,78.6538,117.7119,-205.9993,-7.3730,-204.3310,-207.1369,-70.0606,-89.1891,1.5869,63.7404,-36.1167,42.4528,-133.9666,-128.5502,9.6858,24.5503,-213.4660
778.4839,512.8409,58.7145,76.7500,-137.0626,20.6084,-107.7215,-147.1543,-10.8931,-119.4390,36.9958,48.1428,54.4967,22.4403,-40.9589,-121.6985,9.1701,60.4386,-157.6154
480.1476,324.5639,59.4830,38.0015,-66.3258,60.2009,-34.0253,-100.1751,15.0395,-145.2588,69.5660,24.9885,119.5613,1.5812,44.6089,-70.1762,51.1766,110.4514,-93.1061
212.2155,141.9473,102.4836,31.5056,50.3043,112.2871,58.2824,-48.4297,54.1718,-158.4013,125.3260,21.9085,184.5092,21.1981,117.6545,-80.4651,111.0892,159.7440,15.9693
23.2072,-7.0681,145.2485,48.6798,168.3098,151.4058,155.3866,10.3612,90.9443,-141.3450,185.8611,32.6052,249.2525,54.2429,180.1880,-101.5523,138.0961,185.0845,102.3185
-150.3539,-134.6168,127.6025,23.4780,212.9442,137.9797,178.5621,35.1612,83.1932,-73.3252,193.8925,16.9787,267.2444,50.5003,216.8728,-36.2042,93.2982,180.3219,99.7374
-347.0559,-267.4780,59.0819,-57.1681,209.2487,80.7746,137.6415,-1.5375,52.2557,5.3371,145.7986,-23.8202,232.5406,5.5584,206.8498,27.5453,19.4373,172.3654,43.5266
-515.9817,-359.3662,13.0405,-89.3956,206.3934,52.9470,121.2713,-50.9079,31.6800,40.4985,100.4084,-41.2876,189.6088,-27.4117,152.8933,18.0464,7.4083,187.1049,-6.1740
-606.2819,-372.4823,39.0713,-30.4186,199.7446,75.2384,131.4107,-60.4141,17.1681,42.7182,101.3033,-28.0141,164.1130,-12.2371,91.4229,6.8839,60.5703,180.0484,-26.8984
-608.2593,-382.3560,102.3480,1.0867,191.7936,71.4919,116.0010,-58.7072,18.4934,34.9430,130.9255,-31.5914,150.5132,14.3335,56.1040,-5.9602,99.5899,99.6733,-8.5240
-543.0239,-441.4810,132.8936,-52.1385,189.9689,16.9300,105.7960,-65.7378,64.4836,15.2534,137.1915,-60.8220,143.8725,5.9658,45.4152,-51.7790,105.4229,14.8104,44.4639
-470.1750,-468.3129,122.1197,-71.1721,169.0443,-5.4708,144.5630,-20.4109,135.4617,12.6505,100.3674,-60.7334,145.9768,-14.6837,52.6105,-35.4219,121.1121,20.2180,103.3983
-441.2383,-402.8968,103.0244,2.2249,123.8303,40.9536,181.9055,83.7751,177.6649,52.8344,54.5122,-6.8489,152.7385,1.4750,81.2606,47.8941,133.2180,68.6800,136.7573
-461.9951,-315.9447,58.5931,63.7994,64.9425,93.1617,147.2758,139.3112,183.7190,90.7330,16.8556,52.3611,137.8474,48.1718,97.9766,43.2291,88.5898,71.3143,114.5294
-538.2859,-281.0657,-37.0604,64.9455,-36.9112,111.5327,32.7453,105.9723,187.7836,102.4297,-47.3285,71.5152,61.6675,82.7582,46.4096,-34.5787,1.2852,48.5056,32.6601
-652.6506,-284.5013,-120.9638,72.5266,-177.6874,103.2716,-110.2658,70.9239,202.6893,137.2288,-134.9428,54.4906,-65.3835,88.6069,-57.8010,-23.4968,-53.1888,28.8867,-39.5906
-705.3174,-306.0083,-106.3809,83.1794,-266.4659,50.1039,-187.2027,61.8760,220.3769,170.7539,-159.7960,8.6366,-151.2128,61.9120,-127.8931,36.0944,-25.2542,-40.9736,-21.1593
-631.7210,-366.7092,-3.9895,19.7479,-245.4163,-53.6478,-143.9461,6.4196,244.7520,97.7865,-68.4726,-71.2935,-114.0371,-11.0654,-118.1860,-4.6838,61.4168,-166.9743,60.0996
-514.4987,-444.2264,100.9384,-91.6636,-158.3458,-140.0067,-43.4819,-80.0494,277.3641,-43.2195,66.1636,-151.3286,10.2336,-93.1590,-62.9456,-98.6739,130.2368,-236.5855,109.7970
-449.9753,-441.9883,138.5727,-133.4940,-67.3195,-135.5823,38.7605,-75.6697,295.6552,-88.0620,131.8199,-159.3885,115.5465,-91.3872,-5.2252,-119.8667,132.2159,-166.7102,113.6633
-429.9911,-335.8770,101.3620,-73.4445,2.8388,-49.7687,111.6297,35.3879,276.0905,-31.0882,116.9369,-77.6632,167.4160,-0.5126,51.4712,-98.8284,103.0814,-26.1271,128.2189
-424.8501,-247.7138,51.3294,5.6404,60.5889,47.3099,175.3621,124.8993,225.2383,-10.0876,106.6969,16.2968,217.8977,62.6851,116.5568,-131.1777,99.5939,65.7519,159.2000
-429.5991,-257.1733,48.4375,39.5722,126.8850,108.0630,191.5188,138.2563,181.9415,-30.5407,142.5605,46.2120,282.4390,51.9113,179.8657,-195.0178,107.0923,98.9151,165.8709
-432.8553,-299.6313,51.9560,31.1745,174.2403,135.7243,180.3512,155.4824,182.6674,1.0815,153.3359,22.8024,307.2858,51.2245,223.6050,-191.1149,57.3134,121.6922,145.8187
-452.5453,-345.9157,-23.3167,-29.8829,142.4467,129.9642,178.7737,191.9167,205.4650,46.2471,78.4252,-14.8654,273.0602,82.6342,241.9484,-117.0277,-82.2660,99.8057,114.7728
-511.5312,-430.6369,-154.9003,-153.4238,57.5805,74.2439,155.8999,158.1499,180.7034,2.5704,-16.2878,-60.0135,219.9339,73.7643,228.1319,-88.0426,-247.8727,9.3550,57.9991
-544.3381,-468.1014,-227.0090,-242.4373,11.6745,14.4769,102.3415,62.3875,88.2527,-103.4164,-41.6335,-84.3583,168.3731,42.4490,171.2818,-145.2087,-316.9361,-28.7742,-20.1710
-483.2066,-360.7698,-191.9012,-181.5236,18.9628,30.6466,72.8967,17.6602,-9.1540,-180.2385,-19.0373,-44.0744,119.4514,66.3920,91.7889,-186.1765,-250.5829,64.1399,-71.9180
-389.2787,-222.9259,-115.4609,-39.3994,35.3858,86.7229,80.8961,34.8240,-52.0238,-206.4394,-8.1255,16.4331,94.5471,97.4530,45.3895,-156.2521,-152.3548,160.0988,-76.4983
-341.2305,-183.7593,-66.6327,23.6686,60.7629,78.5387,97.8324,37.1862,-41.2441,-206.8575,-9.2851,16.1467,84.2150,52.4248,62.9822,-121.8480,-109.9103,152.5631,-53.8979
-314.0431,-170.5448,-47.8415,4.9766,94.0886,29.7124,122.0429,28.6392,-5.1642,-202.3154,-20.1705,-15.3930,41.5290,-2.0638,107.6079,-117.9439,-86.5210,115.0369,-10.6805
-278.7670,-124.3560,-40.1311,-3.0389,92.5671,28.4517,138.5541,48.2330,31.2857,-196.4683,-57.1804,-12.2133,-18.4878,18.7347,109.3507,-115.1530,-53.8166,99.5179,45.1183
-256.4035,-117.9369,-43.4854,-7.8340,49.0495,37.2819,116.5599,62.9692,51.9425,-168.6726,-83.7762,-11.8292,-31.4143,41.0306,46.1664,-111.3009,-60.3926,50.3305,72.0180
-231.2058,-139.2551,-53.1650,-40.7037,-0.9552,-16.2227,69.5082,32.2827,48.7869,-135.4013,-58.5749,-51.3537,-4.7775,-18.8843,-23.5284,-117.3177,-92.7613,-39.4161,35.0613
-176.9582,-95.9399,-49.8645,-39.9768,-42.5436,-79.1180,2.1795,-36.4076,0.1058,-172.0032,-23.8931,-63.5792,3.4703,-89.1834,-44.3834,-128.1987,-66.2750,-110.9354,-62.5771
