Fp1,Fp2,F3,F4,C3,C4,P3,P4,O1,O2,F7,F8,T7,T8,P7,P8,Fz,Cz,Pz
-155.3243,-242.7208,-38.5348,-156.5512,-16.5456,-169.6677,49.2297,-236.1055,-6.2099,-279.1287,-178.0547,-105.5666,-46.8696,-105.6745,9.2333,-129.1012,19.8494,-208.8015,58.6145
-263.7922,-279.4167,-150.5176,-260.1779,-104.8993,-292.9451,-29.7189,-417.4557,-121.4243,-373.5973,-224.7424,-159.1264,-88.6740,-156.0008,-3.2078,-222.2270,-126.4694,-283.6687,-48.0319
-423.7099,-334.1700,-308.7803,-420.3094,-218.3261,-435.5106,-74.9318,-578.4576,-41.0994,-379.7801,-323.9605,-185.4656,-193.5815,-198.8507,-47.1787,-281.5756,-304.6137,-379.4173,-126.8981
-517.6328,-376.5141,-390.7661,-474.6400,-261.0373,-462.9013,-47.2588,-546.5854,211.6052,-253.0618,-356.5700,-153.9460,-220.9953,-178.8511,-103.1138,-214.0985,-316.7902,-355.6943,-59.5420
-479.9890,-368.1262,-348.3692,-376.5319,-226.5122,-370.1784,-29.3087,-370.8200,260.0159,-123.3629,-288.2116,-121.5828,-141.5566,-134.1000,-119.1842,-115.1850,-252.3390,-267.4733,-2.1361
-425.4950,-396.3898,-300.9056,-304.3765,-210.9015,-293.5053,-85.6754,-195.5764,7.6005,-13.5877,-258.2448,-147.0931,-142.4762,-140.4171,-109.1290,-89.3805,-278.7006,-249.9214,-59.8672
-447.9225,-539.8315,-320.5563,-356.9317,-229.4322,-280.6765,-130.9373,-53.7170,-124.7632,140.0486,-291.9833,-204.7374,-234.4969,-179.8926,-116.3102,-91.1789,-316.2086,-226.9120,-62.0493
-464.4820,-674.0065,-316.4552,-395.0125,-190.7176,-230.0023,-65.1392,80.1235,46.7159,238.2544,-251.3438,-217.3293,-213.6266,-169.2488,-109.9444,-56.3904,-278.0423,-81.2419,50.2793
-427.7506,-658.3289,-249.8505,-322.2145,-91.2214,-101.2614,40.1871,197.6494,114.2384,172.6199,-145.2166,-163.5684,-98.9211,-103.5524,-68.9559,-0.2177,-257.2343,84.3127,95.8175
-412.7264,-553.6994,-205.6311,-224.2440,-34.9130,16.4384,61.9276,298.9214,-94.4822,71.2674,-107.9878,-96.8843,-74.6486,-56.9617,-64.1524,48.8229,-273.6481,147.0948,61.8806
-406.7359,-469.2463,-195.8708,-157.8229,-40.5877,76.5989,55.3624,400.2735,-142.2653,102.6707,-114.3596,-46.4604,-103.5994,-43.6398,-104.3634,80.1206,-236.1500,163.2333,123.0858
-341.7598,-410.6235,-163.7109,-99.7490,-33.5445,110.7106,137.0674,473.2875,135.6985,231.2720,-68.0520,-0.8856,-75.8667,-13.5543,-90.5439,88.2272,-178.6106,180.4983,246.4339
-287.6858,-373.3771,-142.3019,-84.3042,-16.0641,107.1034,224.4371,467.6551,302.9217,318.5107,-19.4488,13.0485,-58.1648,20.4139,-34.7112,82.2426,-195.9213,143.0965,252.8022
-313.1634,-378.0678,-176.3280,-131.5484,-51.1563,53.8189,169.4922,405.6877,164.9869,309.3822,-35.4960,-22.5826,-84.1680,9.6780,-55.6361,75.7990,-253.1318,68.3824,168.0625
-335.2302,-395.3845,-206.5668,-149.0615,-115.5252,33.5386,38.8249,373.8039,-3.6103,264.7615,-60.6741,-40.9120,-73.5625,-11.3013,-118.8050,73.8685,-269.0471,52.9134,133.5809
-301.4688,-364.3298,-186.2988,-83.9676,-133.1107,97.8093,-17.5396,395.6278,-88.4188,255.5153,-39.6359,-2.3338,-43.7590,4.8398,-93.5653,77.3433,-233.1444,103.8621,134.3900
-262.6471,-255.8500,-152.0028,6.5995,-95.1961,172.4138,-8.7369,410.3539,-152.1169,260.9663,9.5337,36.6338,-47.6400,22.8709,-16.1294,85.6915,-165.3769,170.3848,93.9041
-220.0072,-94.2633,-120.6537,104.9545,-36.1107,217.1117,4.7349,407.2468,-123.1711,247.2279,57.3119,59.6945,-29.0100,34.2531,0.6137,114.0869,-90.8434,258.7239,53.3017
-153.3743,43.6295,-70.7790,224.8316,27.2381,284.6206,34.1723,432.1342,-39.0576,257.9917,86.4290,110.9043,24.8939,94.3649,-23.5176,175.1718,-35.0313,357.9223,65.4619
-104.3569,92.9138,-7.4376,292.6447,78.6518,353.8392,64.1072,452.1291,-61.3416,304.0014,109.9097,158.1026,44.0458,169.8028,-31.9305,223.6023,13.0797,397.6277,90.7310
-74.4640,79.1913,54.6758,271.7786,114.6320,358.7454,70.5111,421.6999,-91.3094,331.8511,167.1357,147.4586,52.2382,171.5275,-31.8945,218.9660,68.6068,400.9801,110.7360
-33.5106,77.5373,104.3080,273.0308,158.4188,372.6795,104.9241,426.4259,-7.2628,354.2879,231.5659,136.1597,105.0823,142.0286,-10.9490,218.9169,92.6714,482.6340,162.7735
-38.6531,113.8563,103.0235,341.3974,193.8667,476.8293,173.3568,522.2587,28.8104,390.9124,224.6760,178.9521,147.9330,170.6594,37.2807,265.4605,44.7560,612.3383,225.6939
-114.7850,146.0043,39.2683,349.3922,175.7693,549.2112,210.0136,582.9789,39.7290,392.8740,167.8498,204.4407,142.3068,208.7829,54.4243,284.7028,-35.0107,626.2176,257.5548
-140.9864,133.7874,-17.5166,252.8078,135.6049,473.1836,237.0779,523.4786,260.1594,400.4966,156.0867,157.2275,138.0752,185.5069,35.1511,238.2222,-68.0509,510.3394,286.5009
-59.6500,116.6196,-19.4842,179.4923,130.2028,360.4176,281.7150,438.5879,442.0098,477.7231,177.4067,111.9916,131.2998,153.4131,44.5766,195.1375,-53.8235,399.9094,301.0219
6.7493,156.4670,-21.7159,170.5857,124.3712,319.3654,249.6613,394.4027,199.5287,491.5474,147.1285,131.0925,79.3596,160.4342,75.4156,180.4706,-59.8508,334.8135,234.2801
-12.6316,202.5179,-53.1379,132.7208,97.1050,278.7710,151.0908,358.0093,-105.8615,367.6094,97.0115,160.3389,42.9877,163.2093,83.3686,157.9169,-77.2135,283.2625,147.9907
-21.5036,175.9570,-28.1836,75.2216,122.8726,206.9692,133.5728,325.6075,-36.3967,293.7510,133.9258,151.7780,96.9309,146.0102,82.0699,137.0557,-30.7966,267.3256,126.1876
35.3896,147.7796,69.9338,89.3655,175.1811,178.7482,126.2474,286.9045,3.1925,301.4985,224.9846,139.8475,162.5505,140.0166,60.9554,130.9387,32.7344,256.3846,48.8916
64.4732,192.1358,84.6688,129.0974,102.0122,172.1531,-45.2046,216.8053,-288.1527,208.3299,224.1882,131.7250,118.8718,128.1677,-4.4758,119.1202,-4.6633,178.6573,-136.7418
9.7306,207.8643,-45.3199,101.6153,-63.2779,126.5640,-210.7142,202.9140,-349.5618,132.4720,130.5049,88.1902,17.6646,90.5816,-44.0365,118.0878,-83.1499,120.3735,-199.5110
-30.9952,147.8230,-128.9428,73.8420,-107.2582,117.2759,-136.2663,305.1446,26.4858,296.4067,103.5548,49.8603,5.6918,74.1501,-17.5637,138.7672,-60.5059,193.4906,-75.1565
15.9210,155.0313,-49.8135,133.5546,-22.8472,188.9048,-8.8447,370.2752,190.8793,485.4591,178.2384,87.0510,72.5918,101.1052,-7.8928,131.9250,3.9817,282.9809,-34.0042
63.8396,261.8167,27.6663,201.9505,-5.1435,222.9182,-44.6980,306.5570,14.7297,476.6276,209.7398,139.8686,81.0908,123.4696,-24.8066,104.4572,-18.1262,250.0051,-119.3856
42.0692,311.9443,-17.5451,186.2019,-83.8413,166.4080,-78.2979,273.6584,59.1594,470.6392,146.4948,121.6674,19.8104,124.3602,5.0552,133.6397,-63.0514,163.6269,-91.1297
30.1148,269.9645,-70.4414,131.0798,-135.6039,115.4508,-5.0001,334.5716,235.6611,529.9301,90.5149,83.4642,-9.5775,124.9012,22.3897,198.7211,-39.3380,109.2596,8.8970
75.0691,243.6892,-57.1529,100.2232,-147.6507,109.0325,-4.9656,340.9625,82.4314,429.5649,82.4045,85.1383,-4.9563,110.2220,-46.2940,202.3891,-22.4554,87.4805,-31.0140
93.0454,252.8055,-56.0549,97.5624,-163.4915,121.7005,-85.9982,294.9476,-99.3252,282.7596,78.8231,88.8130,-26.2488,90.5709,-91.3786,162.9428,-69.4533,136.8062,-109.0871
59.8703,254.5483,-79.9369,125.4311,-150.4103,172.4179,-79.4573,328.5183,23.8626,353.3695,80.5428,89.4457,-50.3074,127.4590,-44.8786,178.8507,-97.1779,229.5566,-76.3910
57.7949,252.1621,-60.1585,166.4866,-99.4290,225.7385,-47.1309,371.2766,44.5588,452.4353,101.0444,118.1579,-42.1102,186.0904,-15.9865,229.2771,-51.5665,231.9131,-60.7711
101.2964,253.8718,5.4067,184.8996,-45.1172,201.6491,-93.1384,308.9129,-141.8478,373.3139,129.6986,135.8360,-16.2101,162.5511,-33.0605,203.7616,27.9630,187.4060,-117.5119
140.9715,274.9742,85.8959,212.6500,30.0729,166.2359,-92.5475,249.0220,-87.9340,333.9382,182.1833,126.1201,29.9580,103.7983,-15.2837,120.8016,106.6025,259.8890,-113.8036
177.8455,330.1969,160.9609,277.8744,115.2153,217.3183,-15.7832,274.2875,88.8206,419.4650,243.2016,135.7384,78.0233,124.1945,10.9078,116.5394,156.9983,363.1209,-71.7151
212.8832,353.3910,183.0526,296.1479,131.7385,261.0970,-11.0228,277.7234,52.1269,407.6782,246.0679,134.7586,72.6456,159.1891,7.1409,185.0674,143.8737,330.2580,-88.2813
211.3574,298.3881,151.2130,228.0155,101.6282,207.3364,-38.9252,230.5452,114.7148,332.6962,213.6337,86.3842,48.9624,113.5146,47.1138,176.2272,76.6586,271.5714,-95.9634
172.7079,256.1040,120.2903,178.5636,105.6669,158.6553,-2.8512,228.0295,321.2753,384.4817,216.9259,76.1438,68.7560,81.5019,117.4445,99.2717,-21.2506,304.1793,-83.7114
101.3927,268.4835,51.3953,171.9469,71.1789,168.4190,-47.1588,253.5793,115.0818,444.0093,197.5802,125.7718,62.1189,135.1320,95.9152,105.3182,-158.7367,287.7133,-159.8916
-14.4918,230.0089,-110.8244,96.6909,-73.1680,137.3024,-207.2694,228.8958,-286.8478,382.5663,100.2535,119.3097,-3.1508,163.3435,11.3122,161.7655,-291.9116,166.4092,-246.6103
-98.9580,130.6837,-233.6674,-25.0081,-160.1927,69.7292,-225.6754,182.2768,-155.5774,354.1592,49.3601,58.6709,5.6396,116.4445,6.2936,134.6194,-312.1535,123.0762,-189.2928
-45.1076,116.2217,-173.9835,-34.2135,-52.1933,84.4706,-67.2631,161.9240,198.5769,411.3165,130.5062,63.0894,110.4173,97.2170,81.2960,95.3706,-212.2831,221.1838,-86.3491
87.4926,232.1743,-39.9212,82.6871,81.3872,176.4164,-10.1010,160.4473,114.8788,396.8076,220.9692,125.0575,148.5930,140.7897,123.5910,148.5082,-117.8739,312.8554,-93.2243
148.1803,363.4353,2.9354,196.3740,61.7216,250.2248,-105.5344,178.8298,-113.3358,301.4708,220.6516,168.2262,91.5731,182.7629,92.9282,192.3592,-95.5638,319.0295,-152.5711
133.0134,415.4692,-8.5512,247.8201,-9.6387,280.9366,-154.3433,204.5634,-96.0227,245.1434,195.1117,189.2871,64.9401,195.0598,41.3034,161.4040,-81.9441,295.7856,-176.5159
155.5055,389.2342,31.6886,256.5256,11.0716,275.0901,-119.1362,193.0901,-43.5632,231.0461,216.6124,172.5855,91.9092,176.6359,23.4795,146.0501,-23.2402,284.0866,-177.1034
259.6685,338.5790,118.4122,239.7725,72.0358,229.9717,-90.4105,148.5799,6.2339,207.9100,277.5163,106.2815,126.1630,132.8691,29.9386,139.7207,56.9555,259.8554,-147.3804
394.6670,330.3705,197.4106,227.5247,78.2392,180.3586,-78.7589,107.4461,152.5647,175.7552,340.7190,81.7990,162.1766,114.7908,15.7854,84.2174,130.2800,200.3142,-89.7698
498.2376,393.1482,251.6283,247.0444,53.5611,159.8576,-83.1014,77.4510,132.5946,154.5729,366.0597,148.2819,157.8813,154.3001,-3.4974,81.8287,196.0341,156.6715,-72.0128
544.1531,476.0140,295.1883,282.4196,69.2903,162.0182,-101.8867,77.5420,-62.7279,172.6251,357.4689,208.9065,98.1484,206.4142,22.5423,180.8937,245.4232,199.6240,-97.4892
541.0739,479.1036,337.6068,300.7657,130.6532,181.2580,-78.0147,111.3859,-50.9559,215.7292,366.8120,197.1713,91.8765,217.6273,73.7752,219.9343,247.7648,271.4520,-103.4375
492.0334,374.4546,335.1767,276.4149,160.5691,195.7611,-31.2828,112.4012,86.9123,220.9676,381.1553,160.5134,166.0017,179.5057,98.6482,144.8013,177.8829,244.9584,-105.4305
391.2176,279.4730,233.4571,207.4682,92.9234,153.0016,-62.9824,62.6330,9.7715,201.7006,330.8705,142.0913,185.0450,130.2140,91.3820,103.1444,69.0974,132.9265,-144.5314
289.1558,283.3533,99.5264,139.7768,-12.5150,57.2211,-145.9418,29.0733,-130.6243,192.8512,248.7019,129.0074,135.2878,116.8651,66.4881,119.2615,17.2303,48.2544,-180.8943
268.7870,282.9134,75.5411,107.4083,-35.7396,-21.7964,-166.9063,-4.3689,-103.2931,119.9360,241.5759,84.9504,153.0176,104.1664,62.5939,69.0324,63.9881,24.5687,-186.2958
315.9227,203.4936,155.6052,80.7805,13.0475,-53.6772,-148.4460,-97.6339,-61.4080,-16.5203,295.0161,2.6265,213.4349,24.1389,112.4052,-40.6330,118.2188,27.7842,-201.6969
327.6399,173.6511,179.8627,49.0706,8.8531,-67.3544,-193.2864,-179.0580,-130.4481,-67.9816,281.2597,-54.0213,155.9665,-61.3546,128.2388,-95.6550,87.3755,14.2870,-242.7334
274.6736,239.3645,87.3526,45.5716,-81.4857,-100.4605,-291.6143,-182.6402,-232.6402,-45.7292,162.7975,-43.4127,-0.3051,-62.6423,22.9686,-95.8954,13.5454,-57.6377,-280.7670
232.1999,254.1855,-4.8361,51.5830,-160.3586,-169.3057,-339.3427,-189.1709,-287.8868,-88.7539,50.3577,-32.9578,-80.6357,-51.9741,-78.1325,-121.2803,-20.9309,-134.0288,-293.1339
239.0083,213.9701,-11.1857,28.5418,-159.6897,-224.0446,-281.8031,-217.2395,-222.0573,-120.2577,39.1706,-61.8003,-42.3244,-94.6645,-54.2157,-160.3638,-23.5809,-102.4932,-252.2236
251.7512,249.1928,10.4020,13.6180,-113.3889,-184.7549,-173.7721,-165.5034,-73.2442,-26.6691,87.7467,-60.5080,-5.0696,-93.7832,-35.8778,-133.4537,-34.5892,-7.1809,-155.3181
249.6039,303.3890,7.0404,43.3879,-76.0992,-79.9323,-107.6226,-57.9509,-21.4775,48.0395,117.7059,-2.1790,-24.8097,-9.3627,-115.0425,-41.5126,-34.7839,24.4236,-80.8898
265.0154,288.8739,24.7031,95.6449,-50.2759,-10.2253,-103.5291,-7.6632,-84.2726,4.4374,146.1583,65.2267,-13.4832,62.4753,-143.9778,38.4959,13.1588,45.0772,-95.9753
296.9700,331.4200,91.3275,175.4266,-5.5996,33.8758,-121.1810,14.4021,-161.1237,-21.6316,213.4825,133.2360,75.4533,101.3687,-63.9217,86.3703,91.5485,160.5464,-148.0771
307.6749,475.4323,157.5816,284.8777,57.1485,122.0339,-142.3932,76.2289,-283.3570,25.1811,271.7308,196.8632,136.3619,150.3746,-17.8759,134.9382,148.6945,279.5945,-154.1841
307.6213,530.8862,197.7265,336.5763,100.0930,211.9514,-152.3480,128.7235,-384.6121,73.8764,272.8426,210.9645,103.4310,179.0385,-42.0200,171.9228,166.1052,290.6206,-115.0361
324.6024,429.9138,224.8323,279.7234,115.2687,226.8946,-119.3423,144.9902,-282.9230,132.0347,263.1902,182.7457,82.8038,173.2023,-37.6244,177.4257,155.6976,260.7656,-75.6889
314.9112,317.0049,209.2289,195.5267,126.9587,186.5573,-73.7839,165.7554,-120.7267,172.7866,277.4110,158.1026,135.3664,164.9081,2.3714,169.2726,107.9161,242.5507,-68.4490
236.0514,264.0249,126.4918,141.5713,112.9345,121.0973,-87.2715,151.8043,-159.3609,103.7707,258.4427,136.5293,144.5807,125.5520,16.5084,130.2831,22.9657,159.4495,-102.0719
149.0455,235.3977,40.4912,90.1870,39.2213,27.3970,-138.8224,56.3762,-249.4497,0.2150,173.8748,121.9303,57.1633,55.3630,-1.4636,51.5982,-30.0543,21.5671,-130.1967
122.8852,221.5208,18.9059,62.3565,-28.0465,-34.2744,-140.8571,-23.7723,-150.7404,-10.9608,98.9085,135.2189,-0.3634,50.0373,-13.8505,22.1027,-2.1357,-21.4114,-97.9182
125.6516,217.2585,39.9939,99.6195,-5.4456,-5.9504,-92.0275,-6.6015,-0.7538,-0.7387,105.4156,130.6137,40.3464,103.0432,19.2712,65.9066,35.6991,60.8648,-56.6565
106.0815,205.5977,49.6190,135.3237,45.1993,30.2458,-73.6258,15.0902,-14.8319,-41.3361,146.7992,60.5680,90.8480,84.1040,70.3261,50.7680,7.4938,105.3538,-89.2248
75.8440,189.6038,29.0467,94.4139,19.3073,-20.2213,-105.3322,-42.0393,-129.0343,-46.5267,131.9581,-18.7249,85.0081,-14.7480,39.7453,-52.8517,-42.6888,25.7316,-137.1175
63.0554,171.1998,-1.7967,35.2762,-41.6671,-92.0766,-114.0512,-94.8554,-139.1213,12.3611,73.2349,-37.1685,43.5158,-73.3982,-59.6871,-100.4765,-43.5501,-49.0161,-102.5489
80.4734,166.8069,4.6161,48.2400,-44.5351,-85.3950,-71.6397,-63.8841,9.7125,62.5910,61.4239,-7.5336,-3.3511,-52.5849,-80.6552,-60.0293,1.1468,-3.3886,-51.3367
121.8336,204.7006,61.8311,120.1113,-13.4395,-27.5423,-68.2554,-15.0673,92.7511,83.8228,107.5441,25.9237,-22.2887,-11.3131,-12.7275,-36.8331,47.5561,88.6680,-96.6785
136.6823,243.7321,101.1376,177.4704,-16.3692,11.0529,-167.1070,-26.9606,-121.0111,58.4481,134.6532,32.7909,1.5608,2.6583,-5.3647,-43.2483,52.7886,115.4868,-194.1132
100.1222,220.7497,72.3934,169.5169,-49.0694,14.9122,-278.7240,-81.1477,-444.8634,-50.6718,120.5666,-0.1411,12.4127,-15.8753,-81.3860,-38.9242,16.3039,73.7266,-235.7927
100.1454,174.4505,38.1381,99.8034,-71.8348,-15.9366,-290.1797,-140.2599,-491.4881,-163.8468,119.0517,-40.9436,-22.5780,-36.8544,-115.4963,-47.4491,12.3525,11.5132,-214.2262
204.6198,187.0861,66.4955,44.5446,-55.3931,-61.2817,-222.4718,-181.4242,-269.5556,-159.6373,152.9782,-29.2384,-21.3004,-22.8312,-62.4901,-52.7523,76.5797,-16.2914,-181.8074
308.2962,262.4963,110.5843,78.1329,-4.8207,-59.4577,-174.8972,-154.5727,-116.7806,-65.5152,182.5691,42.3813,66.9865,24.4403,3.5452,-3.6078,114.7736,18.8669,-168.7432
286.2534,316.5473,82.3230,134.3638,6.5982,-10.1876,-198.8095,-56.5226,-149.1903,6.9555,160.7838,98.0667,130.5697,67.3668,12.3046,51.1078,52.4844,37.4596,-167.6454
181.6670,247.6412,-21.4570,71.0350,-65.7674,-0.6642,-243.9319,11.5073,-158.5933,19.9483,88.9247,66.6846,65.2354,72.9135,-22.0943,52.0824,-53.4686,-33.8036,-141.9400
88.8355,86.3595,-122.9654,-87.0227,-127.0327,-41.1355,-207.0183,-11.9148,-14.3635,13.3305,24.8666,-7.9865,-41.4945,45.8205,-18.3617,44.4218,-134.4142,-78.3418,-93.1451
14.3855,10.3486,-157.6469,-151.4968,-90.2060,-28.4344,-93.6597,-50.6900,101.0182,39.4120,7.0965,-20.2700,-47.6661,26.9208,41.4804,54.1178,-168.0961,25.2607,-75.8352
-35.0736,58.5575,-131.2164,-59.9087,-27.0637,67.8400,-38.6287,-25.5277,38.9964,100.0672,7.1783,29.3145,24.5506,31.2921,66.6057,43.2937,-126.5354,160.6155,-74.1853
-10.9485,62.9602,-81.3746,45.3421,-10.8510,148.4487,-67.3279,31.1522,22.1333,123.9101,11.9510,48.6157,54.7833,31.7526,23.4787,32.5180,-31.9108,179.0252,-18.2658
68.9745,-4.3696,-21.6651,61.2633,5.2277,142.2685,-65.3894,37.2695,166.3853,54.3146,45.1238,20.1733,24.6987,29.0565,-16.3374,54.2271,27.6484,132.3592,38.2522
125.6909,-2.5986,38.6134,45.9174,43.4694,92.3675,-39.3279,-29.1578,95.4112,-50.1119,75.2605,-5.4600,4.6235,32.6508,-40.0548,44.3847,37.7951,123.0279,6.7002
142.0319,55.7160,79.9846,83.3099,64.6966,84.1677,-66.6170,-77.1600,-274.5859,-60.9467,69.5476,-13.5806,7.7358,8.2426,-87.2111,-25.0294,72.6109,165.5140,-9.1060
175.1167,79.9185,128.0836,174.9818,96.5591,145.1456,-49.0618,3.9999,-346.3257,56.9757,94.5714,5.3283,1.6646,-22.6287,-116.0900,-42.6522,158.6601,232.6147,125.2145
261.3380,111.6335,226.9216,243.6114,179.1168,203.8577,106.0107,160.0647,45.0657,178.6524,178.7554,60.5292,7.9459,20.4468,-73.0337,44.9867,249.0008,256.1161,303.3152
349.0282,150.5847,318.7147,202.0617,248.8844,177.6932,253.0450,226.8725,279.8768,202.2578,218.3906,96.1409,60.8251,89.5277,7.7115,111.9457,272.2504,191.8477,343.4001
332.0605,127.3368,283.6589,92.8843,232.5840,109.8295,252.6913,198.7887,178.1369,210.7956,167.0058,83.8151,117.1507,81.6647,67.7237,82.7448,172.6948,133.6041,248.7227
195.6779,122.2976,129.3948,77.9583,140.6782,113.9489,159.8349,211.1334,187.2712,279.2135,107.2667,102.4177,109.2080,74.0602,72.5126,76.5608,9.7676,156.5704,120.3464
82.5135,197.0831,1.1245,173.4885,18.0415,176.4120,43.8407,262.5812,302.7401,287.5975,83.4907,169.4722,46.7653,151.6481,26.4577,155.1159,-58.9851,146.7489,3.9716
101.6420,206.2745,-18.0603,186.8263,-81.2564,155.3860,-76.3408,210.1480,159.8736,140.0970,76.3306,165.2355,-2.8704,173.8600,-8.7349,162.5744,-4.0459,7.9729,-96.2153
163.2013,104.7869,4.4929,46.5812,-118.2365,4.8130,-162.1339,22.4216,-136.0603,-50.2696,78.2497,46.8104,-12.3256,45.4763,-18.7028,16.1266,34.5322,-144.6666,-183.2197
138.4010,56.8145,-17.1729,-62.8988,-125.7578,-118.6995,-208.0183,-140.1847,-258.3195,-128.7514,53.7229,-53.3889,-21.4051,-63.4606,-72.5388,-97.9144,-0.9502,-149.8894,-230.4866
57.3531,109.8581,-62.9815,-10.9171,-136.8574,-50.5931,-214.3930,-107.2941,-177.4276,-45.4001,-18.7369,-22.5930,-58.2202,-17.9326,-137.2008,-31.0773,-17.1966,-5.7493,-176.3438
21.1933,157.9100,-66.3511,87.8424,-114.7448,121.7940,-141.5394,64.9055,-28.8762,104.2878,-59.4577,66.5548,-85.5386,66.0242,-95.9844,75.6396,14.8973,116.7308,-57.0035
31.7186,133.4457,-48.1704,71.0007,-75.6343,144.0592,-61.7603,117.9609,14.1593,97.8776,-35.2488,46.2777,-80.7106,35.0914,-11.3804,35.0980,-0.0555,49.6460,-21.8101
-1.9075,12.1480,-96.2652,-52.1692,-107.3498,-14.2196,-103.2390,-28.1167,-108.7583,-84.8143,-53.9838,-103.1763,-97.7533,-92.6063,-38.0586,-104.3096,-101.4999,-107.6970,-85.6013
-130.2876,-137.5503,-207.2189,-129.8107,-174.4666,-95.5620,-162.1430,-126.7399,-127.5008,-118.1799,-146.3644,-192.2863,-156.3993,-168.4045,-125.4917,-158.8973,-198.3657,-94.5769,-87.4737
-271.1960,-166.3774,-265.4644,-79.6599,-147.9056,5.0680,-69.5973,-45.5845,93.3346,81.1084,-188.2089,-109.4063,-170.2533,-103.9821,-139.1708,-70.9465,-207.4030,53.4737,6.6583
-302.5279,-112.2987,-216.8218,-17.9804,-46.6793,75.8115,46.9870,12.0124,171.5327,132.9828,-131.5569,-7.0168,-96.9183,-10.8401,-110.1742,18.0880,-165.3103,73.1094,44.4636
-247.7100,-127.0317,-146.5043,-60.8969,0.7625,9.0391,4.3061,-50.5207,-66.2704,-38.0527,-69.8876,-21.2533,-34.2040,-28.3906,-110.3122,-20.3806,-156.9877,3.4297,-27.9916
-224.9940,-132.0087,-141.4617,-100.5245,-28.8678,-23.6854,-96.3108,-47.2433,-218.5764,-32.8491,-69.3667,-48.9497,-64.4307,-74.0594,-110.8076,-82.4039,-194.2711,57.7017,-105.0971
-231.1396,-38.9105,-177.1516,-30.1597,-76.4206,39.4413,-118.9429,57.9404,-124.5153,173.9967,-107.1683,1.1114,-129.3191,-18.4906,-92.8535,-14.5331,-224.0255,110.8057,-126.5011
-180.5740,-30.8911,-177.8120,-7.2550,-110.4506,15.9159,-118.8960,58.0304,-57.3803,182.0810,-120.7230,27.3755,-129.5811,42.5047,-76.8404,71.1614,-209.9782,-42.5617,-117.3282
-91.8810,-159.2741,-121.6890,-161.7546,-109.9863,-153.5298,-132.9370,-96.6280,-52.7967,-43.2096,-66.0724,-39.1724,-58.5181,-15.5338,-49.0403,-9.1092,-163.8404,-228.4084,-101.0712
-38.3263,-188.6490,-65.4663,-312.0311,-84.6502,-289.8814,-121.3263,-240.0303,-11.1238,-209.4378,4.7018,-108.7865,-8.5676,-105.6759,-19.2925,-148.7672,-133.4355,-240.8060,-110.1573
-30.5086,-91.6405,-76.8251,-286.8445,-103.3859,-284.1521,-125.9284,-276.1081,-61.7412,-244.7020,-4.9032,-111.2917,-60.6584,-115.1547,-42.8582,-153.3833,-148.6128,-191.9593,-162.9973
-53.6987,-49.8318,-135.4586,-186.6429,-172.9148,-206.5534,-180.5903,-228.2809,-148.4363,-196.1355,-71.5405,-80.5178,-159.9503,-79.2168,-104.1283,-79.7456,-159.3974,-166.0839,-191.0443
-75.6807,-22.9591,-146.9981,-109.2470,-196.6157,-119.6699,-198.7426,-138.4800,-34.9068,-49.0816,-91.9626,-53.5516,-179.6076,-61.2476,-131.2173,-60.6766,-110.5104,-69.7459,-133.8167
-43.3694,83.0888,-90.6905,-10.6655,-146.7699,-33.6990,-142.1036,-66.4283,85.2791,86.9695,-67.9975,-34.5713,-125.4648,-66.4359,-133.3219,-75.3272,-51.0423,42.1765,-56.2150
13.0787,140.8999,-52.5213,77.9109,-109.9283,6.9949,-96.3751,-53.4181,-52.7984,74.5447,-71.9967,-34.1112,-113.6219,-75.4739,-168.3667,-73.3244,-33.9100,20.8744,-31.2288
20.7850,85.6366,-61.3269,75.4294,-119.7917,-16.4924,-106.6262,-63.5163,-192.9384,-26.3518,-89.4585,-59.8255,-149.7384,-64.7735,-215.1814,-58.5969,-11.5108,-63.9074,-34.1784
19.5498,31.4846,-47.1480,36.6111,-127.9646,-37.8822,-142.8193,-56.9230,-195.5459,-118.6679,-59.9370,-93.0467,-147.6194,-51.2797,-216.3208,-39.5546,21.7872,-77.6646,-54.4604
56.6968,8.3988,-9.3619,27.5717,-124.6371,-27.4034,-191.6598,-57.6480,-340.2035,-181.5980,-4.1302,-111.3706,-113.7059,-85.7191,-183.1623,-58.7924,-14.7304,-60.6590,-114.2758
58.7586,-6.4405,-20.8430,11.8037,-117.6657,-32.4376,-209.9855,-76.7355,-465.6165,-158.7664,14.9764,-106.5936,-92.0438,-136.7318,-143.6682,-123.1869,-79.8379,-58.1998,-137.6167
15.8632,40.1783,-45.9714,13.2490,-61.7372,-30.9379,-113.3836,-56.1376,-162.5606,-45.0508,0.3415,-62.0720,-38.7058,-107.6603,-72.9855,-105.1683,-35.6928,-14.6547,-43.9373
31.6378,117.5548,3.5621,104.6335,46.2984,54.9321,53.8196,39.1791,175.6051,35.7704,-2.9584,35.1647,68.1374,0.9389,25.5749,44.2269,81.7250,62.9752,67.3763
77.6629,122.0683,65.3766,208.8428,110.6826,174.8835,121.4354,137.3556,27.8024,29.8872,0.6432,132.5706,145.9751,91.4810,76.7378,149.7885,115.8897,106.8339,68.9378
33.5381,82.7506,32.8230,201.0556,82.6340,201.9945,50.4847,144.0656,-163.8672,1.0791,-24.7192,143.7102,141.1952,107.7709,47.1769,112.4664,59.3868,103.0273,14.0339
-53.7123,53.4123,-38.3786,111.6355,26.9319,134.5178,-32.9304,68.6736,5.8632,-37.2049,-66.5867,72.7714,86.9802,66.9674,-7.2065,64.4029,7.0497,41.7932,-5.8439
-73.5417,-28.3087,-62.6442,20.1550,-15.2497,55.8792,-73.3107,-5.0286,49.0411,-94.5118,-90.3866,9.6520,12.6993,13.9260,-36.6319,79.0119,-31.9032,-69.3975,-14.4922
-66.0788,-145.5353,-88.7068,-53.9355,-69.9939,3.1287,-106.6174,-25.8085,-227.7295,-105.0123,-106.6304,-1.2347,-68.3507,-11.8440,-39.9332,68.6324,-81.8201,-115.3068,-37.6699
-97.7141,-150.3860,-151.2635,-68.0619,-124.6028,-6.3718,-110.2915,-3.4394,-285.6616,-34.7865,-136.2720,15.9779,-127.3363,-11.8759,-43.8753,8.4095,-113.3931,-39.6141,-53.8916
-129.6198,-29.6478,-180.6703,-3.7095,-142.9145,19.7717,-78.3853,8.6002,-76.0579,33.8571,-169.5089,39.2891,-158.9614,-11.7312,-95.9063,-32.3957,-110.5454,13.7907,-86.7548
-117.1242,69.7723,-158.0706,48.1238,-153.2343,10.3509,-105.2998,-36.8527,-58.2918,24.5706,-194.1641,57.9863,-182.1990,-6.0176,-188.9741,-30.1816,-94.7373,-36.6290,-160.3248
-63.7551,95.3651,-136.2874,46.2012,-180.6561,-42.7884,-201.2343,-98.4646,-159.8824,-16.1199,-192.9552,62.4686,-192.9984,14.2929,-220.8846,-7.8975,-69.4054,-61.6161,-218.7070
7.5967,113.9631,-112.3691,67.1795,-179.5295,-47.4956,-236.3259,-103.4384,-74.4507,-6.9318,-143.7079,53.4255,-184.6764,18.5837,-155.3989,6.0338,-28.4697,-14.0212,-209.4346
53.5521,127.5511,-64.2544,105.8401,-134.4314,-5.5280,-177.5652,-91.8527,43.5309,8.1704,-78.2353,23.1931,-170.9742,-11.6170,-106.3728,-14.0820,20.4486,-19.0842,-155.8471
63.1247,77.8562,-19.2706,72.7847,-99.4526,-11.6489,-132.7508,-131.6310,10.7873,-58.0258,-47.1585,-31.9035,-150.4486,-46.1993,-137.8632,-43.2198,75.5453,-82.5490,-108.4543
77.1332,-9.2417,16.3228,0.6395,-87.6533,-45.5192,-138.6226,-150.4561,-65.5033,-114.9661,-28.7778,-72.0777,-114.8244,-56.2889,-162.6641,-31.9685,117.1748,-76.7517,-94.4264
77.3349,-54.1085,48.5410,-19.6498,-65.3574,-26.4125,-134.1337,-66.6093,-123.2273,-19.9175,-0.6666,-64.7672,-85.6259,-45.8029,-122.0890,-2.0075,87.5688,-0.7608,-92.8934
2.3044,-61.4970,31.0625,-14.3711,-41.6149,14.0664,-92.9942,37.0610,-148.1844,122.1806,-8.5944,-42.2686,-76.7385,-35.3650,-68.6484,-8.8037,-10.2904,55.9885,-49.4983
-89.3256,-84.9824,-26.0248,-25.8072,-26.1937,25.0142,-20.8182,60.7425,-73.5444,130.3911,-41.3959,-39.3825,-59.1073,-40.8146,-36.8486,-42.5435,-54.5614,94.6705,45.3309
-79.4806,-106.6813,-13.3728,-10.4333,24.8934,39.8993,84.9447,45.6103,37.2347,84.5568,-10.6270,-41.8727,-6.9162,-48.4784,8.1799,-48.2644,24.1104,143.5277,138.6915
-3.4160,-89.9359,68.2009,36.3098,108.6922,81.3416,183.6848,60.1858,79.8824,116.9350,73.2064,-29.5874,62.8715,-29.8740,81.6731,1.1814,100.2375,175.7619,184.1805
10.0431,-68.7681,72.7254,53.7453,139.7240,127.4682,202.3823,89.4985,78.2446,115.2990,111.7728,-0.7474,108.4071,4.2266,126.0278,67.3126,45.6877,180.6831,167.6343
-36.1834,-59.9409,-21.4742,48.0731,93.7024,162.2195,142.3934,103.0952,60.0409,-2.4216,98.6996,37.5816,102.8579,22.8496,84.7373,77.4533,-56.7049,177.3206,112.4925
-36.4858,-7.2338,-69.7923,73.6147,51.0400,161.3312,94.7804,122.5483,65.8186,-40.1292,97.4798,65.9767,71.7702,38.1702,13.2975,41.1980,-80.8596,169.5461,80.2973
10.0897,84.3499,-31.7595,108.6744,53.7985,117.8049,113.2207,168.9423,153.6032,117.6873,108.4318,67.2324,63.4539,64.9120,15.9102,49.2516,-74.1905,153.4379,82.6445
5.4659,113.4791,-21.1486,82.2602,51.3812,77.0032,140.6839,189.9382,213.2206,239.2484,92.1925,41.2807,62.4648,63.8651,65.9725,92.5056,-109.4780,111.4327,63.0835
-48.6949,62.6229,-77.9591,-3.5832,9.3050,53.5914,118.3005,131.2444,178.0890,136.7939,49.5735,3.3278,16.6485,22.6225,59.8921,75.2200,-120.7195,28.2470,27.6661
-43.5983,44.2611,-114.8929,-61.8340,-39.8527,13.6410,75.1036,59.4808,200.5256,-7.3415,16.7645,-7.8361,-44.3378,6.6863,15.5770,30.2060,-57.8188,-50.4866,16.8638
27.1920,98.1750,-89.5939,-44.6500,-67.4828,-30.7429,30.8267,49.0146,193.6396,3.5691,14.8174,26.2612,-47.6768,37.4686,7.9287,50.8257,2.3787,-77.9872,-29.9862
48.3163,117.7339,-64.9672,-17.6469,-88.4075,-50.4478,-47.1748,19.8242,-74.4347,38.2980,15.3657,46.3041,-12.0019,42.0296,13.1019,78.5617,2.1335,-86.2536,-138.1952
-2.0113,55.9004,-85.2164,-37.1653,-108.8376,-58.8539,-116.6728,-74.4251,-289.5211,-36.6304,-7.9129,11.1793,0.4120,2.9246,1.4073,42.8045,-18.8541,-84.9471,-170.5121
-19.8382,18.8671,-95.7258,-39.8897,-89.6986,-42.5994,-87.8442,-87.6715,-69.1659,-59.0436,-9.3717,-10.1986,3.2200,0.1005,15.3022,28.3954,-8.8250,-21.9887,-75.2696
36.2959,57.5370,-28.8450,20.3513,-4.0003,16.5842,-5.7468,24.5094,205.6734,73.9535,48.6973,22.9275,31.7727,43.5556,55.7024,70.7886,48.8334,68.4975,-6.7245
105.5557,78.0578,85.2448,68.6799,100.0131,54.9979,14.2980,71.2806,99.4904,155.0317,111.0218,42.7710,67.5691,51.9028,73.7452,64.0887,131.0640,98.0475,-39.7996
142.4554,56.2153,163.6945,76.5277,154.9838,46.8966,-11.5803,-6.3397,-126.5215,47.3977,137.2969,36.3529,96.6245,30.5345,66.4735,9.5060,189.0006,106.3958,-72.8213
150.7041,80.5990,197.5791,123.7940,171.2030,80.7247,3.9093,-41.3321,-149.5575,-93.9897,166.5850,65.9095,133.3806,59.4836,55.0886,29.1726,221.0320,166.6410,-51.6956
156.2958,121.2655,242.5849,197.2688,199.9252,158.6716,58.0736,4.7678,-11.8570,-130.5958,208.5619,93.5988,171.6629,103.3911,59.1103,99.8231,267.3721,204.9384,-14.3252
187.6002,65.8794,303.9605,184.6921,232.9047,154.4182,89.0464,9.8666,153.3720,-93.4229,234.9264,42.3872,199.2885,63.4047,106.0696,90.8782,307.5045,144.2949,21.0414
225.5369,-14.9831,327.6383,107.2778,230.0825,68.2734,73.1037,-25.8625,127.4861,-27.9868,253.0437,-13.8595,212.0914,-5.7495,156.3592,31.8252,290.3289,72.8403,47.3047
215.8382,33.0054,290.8752,95.7929,200.7111,49.7185,49.5688,2.3381,-128.2853,34.3829,250.6383,39.1204,184.3923,32.9496,125.1352,65.3995,236.2082,88.4930,60.5450
164.1183,152.4729,225.1202,147.5797,168.8735,124.2726,71.7543,98.0934,-162.0058,44.4624,195.1764,144.9591,121.7048,143.5129,49.2439,175.7538,178.0411,129.0289,73.3637
121.4204,165.7689,161.6834,129.0050,121.9542,147.2523,104.7207,157.4015,138.0399,0.6016,137.9215,160.8334,92.9637,161.2153,48.8288,191.4904,89.3162,83.9448,52.5945
73.0090,51.5549,93.4803,-1.7308,55.8663,50.8737,58.7214,107.3972,150.2165,-45.6092,126.0183,71.9940,105.8025,65.9718,119.0907,70.8594,-37.1743,-22.9777,-35.1721
-33.7821,-58.8246,-8.4209,-125.0233,-4.0745,-50.4844,-28.7107,14.7388,-211.4249,-30.8869,89.0873,-4.5844,83.9372,0.5441,151.1194,-15.8314,-144.5905,-67.8033,-106.5358
-149.5868,-58.3805,-123.8861,-133.2873,-44.8180,-53.6650,-31.2013,5.3963,-248.0870,57.3490,8.7034,-5.4266,38.9348,22.4240,118.7215,27.4925,-174.0817,-26.9267,-73.8675
-136.2934,33.5196,-159.6279,-87.3090,-58.0759,-30.8759,36.9740,47.8481,65.7140,88.9661,1.5583,-5.0940,58.8138,33.5895,100.2442,65.9021,-112.1182,-12.3569,-0.8451
35.6739,113.4988,-80.9206,-94.5148,-33.1109,-74.2724,62.1593,14.9612,91.6040,-37.6866,89.7970,-57.6041,114.1043,-18.2885,140.4873,4.1668,-19.5548,-47.4764,18.4504
213.4616,157.3535,-3.4531,-94.5650,-4.5501,-93.8351,42.7778,-36.6383,-122.5945,-126.3815,148.4004,-72.7284,111.6514,-46.0065,174.5821,-35.3781,7.1806,-3.0072,4.8226
280.1522,250.3521,-14.4948,25.2906,-12.6234,19.7250,52.1258,39.7289,-89.4393,34.2835,137.2130,18.3761,85.1570,20.6806,136.3755,43.6291,-19.2863,142.3120,21.2027
312.2332,383.2354,-17.5809,175.7903,-15.0505,162.4665,99.0606,190.2788,116.6236,263.6453,131.1450,118.3967,108.6277,125.9906,87.4338,158.4800,11.5511,232.8412,79.2323
373.5631,420.5410,67.1743,201.9477,31.4439,195.4320,147.0718,279.8187,213.9363,317.5515,143.5925,133.3515,130.8806,183.0421,105.5561,224.5701,94.8440,214.3660,139.1918
362.3081,346.2318,127.3754,161.2301,64.6996,183.0830,160.9330,319.9210,239.2795,296.6865,123.0993,121.9090,79.6623,182.7912,131.5587,240.6075,116.2173,200.0163,144.1036
249.0535,292.9661,82.0129,191.4602,32.1812,225.4468,120.3093,355.2722,225.6483,335.7489,74.7028,156.5759,6.0397,177.0285,101.6906,217.4714,84.6164,227.7106,91.2918
191.5505,306.0384,51.9660,257.5277,-4.0084,256.5095,61.3129,349.5837,139.3563,333.2313,58.8831,193.2368,-2.2723,189.3371,71.8526,185.2464,111.4423,212.4018,51.8220
252.5452,314.5851,122.9770,250.0893,10.6474,184.1118,47.6152,275.7903,103.6441,228.3423,97.7149,156.9772,49.1647,169.5009,74.5548,159.1304,192.4564,121.4501,65.5403
308.3699,299.6261,192.7159,178.3689,40.1711,55.3502,78.8472,159.2693,154.4887,128.0008,142.5237,61.7483,92.8101,82.3075,71.9552,87.7354,233.3008,21.3186,86.3774
297.7255,300.3769,184.7591,132.0728,51.4449,-12.3639,92.0103,66.1032,116.6710,101.6847,147.7234,1.2229,95.9760,7.0925,66.9615,-7.4618,217.9479,-12.7435,65.6265
272.3520,300.7893,161.1916,149.1222,51.5889,23.4086,39.8437,60.5241,-61.4940,97.2021,130.6487,25.0840,73.9329,22.6775,54.3651,-9.2389,198.3866,23.2038,15.0800
257.0205,241.5715,167.4195,170.5811,46.2958,83.5568,-47.2278,87.1684,-243.6227,15.6532,115.1139,59.9167,42.8461,57.8242,0.2789,48.6243,204.9130,62.2060,-12.1485
258.9540,139.3166,183.7842,135.0294,59.1457,88.7627,-63.7763,49.3194,-313.8373,-128.8240,94.7243,27.9565,23.5782,24.7401,-28.8406,18.7024,236.4048,87.5699,38.2571
273.5091,97.3769,204.5047,98.7802,117.8909,97.6404,52.6621,29.6347,-190.6279,-134.2941,89.9404,-19.9332,57.4564,-19.8383,32.2301,-52.3881,264.7262,169.2841,168.2824
234.6656,144.1810,212.2047,135.0442,180.4457,185.0909,216.1099,143.9820,102.8195,65.6446,116.7311,-6.4005,128.9569,-5.9969,88.9629,-20.1314,246.0771,283.1361,298.5576
131.2189,166.9229,166.5663,165.8758,177.0605,262.8698,287.0266,271.6349,306.4986,199.9921,111.7543,38.3245,139.7084,30.7991,81.4454,67.2360,173.0313,294.9404,329.0126
57.8902,98.9302,88.2612,105.1249,114.3102,232.8834,234.0484,259.3145,237.2175,134.9420,38.1892,49.6038,62.0793,53.6531,89.5215,94.3056,91.0200,216.5815,248.4929
32.7236,23.5665,37.1295,39.9029,55.1596,172.0030,148.7457,183.6963,129.5499,111.2508,-23.9230,23.8873,-1.9224,58.2947,113.4428,73.9443,56.9604,193.4889,167.8753
-5.3536,7.5447,25.2003,54.1151,47.8464,165.4223,144.8526,160.3747,236.2131,216.5721,-19.2937,-8.2736,5.3057,24.0364,95.1631,39.3754,99.6865,225.5727,194.0264
-13.7111,18.2742,52.9287,84.5627,108.2052,167.6581,237.6538,165.0135,376.3453,256.1053,13.0016,-18.3787,42.6238,-17.6867,98.6098,0.5559,196.4884,213.5930,283.2626
65.8209,35.1419,137.8705,91.6881,205.4984,147.4245,322.2659,155.9166,338.7723,226.5967,65.6476,0.7706,108.0476,2.6398,158.5867,5.8029,283.6473,180.1519,316.5712
147.9982,63.8405,235.0489,115.0739,271.8891,136.3672,318.6073,130.2562,259.2329,229.7857,151.9902,24.8302,209.4202,49.8672,184.0002,44.1480,308.2143,173.9808,271.9944
148.6294,82.9393,246.9050,138.3008,261.5972,124.3994,250.0491,86.3673,182.6515,138.5622,196.0726,40.3423,250.1087,50.7219,160.7602,44.9650,250.9574,148.7684,189.4340
95.4444,80.2599,147.2054,118.0318,174.4433,92.2458,143.1960,62.3688,-54.5318,-59.5099,132.4631,50.4127,164.8573,37.7364,142.4917,37.6499,118.1506,91.1920,82.5132
13.4159,58.4767,13.0649,60.0649,54.5627,56.7122,30.4594,90.1353,-249.6635,-87.7888,34.7115,31.7463,60.6070,40.0692,108.2054,66.0785,-30.6836,41.6090,10.6348
-74.4261,19.7146,-57.9423,-24.3315,-9.1839,6.0173,8.8198,108.9075,-56.3707,69.4100,5.6221,-15.1232,50.3988,11.4017,69.9423,49.7117,-94.7800,-10.8538,43.3392
-87.9332,6.1873,-38.5531,-93.0504,21.7718,-61.4499,77.6524,64.9588,240.5629,101.5593,39.6889,-28.4960,91.6330,-23.9359,76.6950,-28.8823,-50.1277,-61.3520,101.1980
-20.8746,34.9651,4.9064,-79.7127,60.5363,-83.6549,91.4148,7.4546,193.7175,-21.4322,66.4196,5.2480,97.7308,4.9755,60.7425,-42.0416,9.1739,-61.8838,77.8867
19.3912,21.9850,11.8135,-44.4274,39.9883,-62.4390,35.3067,-12.5920,23.6214,-64.7354,50.6290,24.6049,63.5557,49.1617,-16.0688,18.6409,7.4609,-59.3705,40.8165
-6.3861,-62.9345,9.6328,-102.1175,18.1325,-87.2614,31.9644,-19.2748,33.9556,-45.1860,12.1280,12.5239,18.6417,27.7498,-40.1922,14.2739,-28.5548,-127.7796,57.4892
-42.0690,-113.8465,12.8558,-184.9396,15.1287,-149.0355,43.5863,-38.9823,12.3538,-107.7950,-25.9591,-3.9908,-25.9090,-19.0719,9.4207,-56.2206,-59.9182,-184.7266,37.5928
-73.9404,-89.3219,-34.9380,-163.0478,-37.2405,-151.0037,-31.5954,-47.0631,-106.1273,-142.1503,-65.3841,-26.2774,-47.9687,-24.2070,27.6824,-63.8314,-88.9935,-139.3859,-47.8997
-111.0665,-68.7246,-109.6524,-95.6573,-99.6351,-114.2481,-96.9336,-30.5365,-51.0060,-45.4524,-88.0448,-44.7961,-19.7430,-4.4514,22.1827,-10.7074,-98.1598,-100.2742,-86.6910
-114.1289,-86.0758,-98.9800,-98.8281,-64.0897,-142.2358,-66.2516,-47.8494,63.6153,-17.0054,-60.9834,-42.9983,27.3258,-11.4634,36.4694,-16.4491,-58.3468,-180.8613,-63.4209
-70.2789,-115.2950,-21.6553,-140.7184,12.5021,-215.8059,-53.6914,-132.8962,-62.6993,-149.0720,-20.6184,-51.7524,26.5106,-58.6922,16.3040,-94.8804,-2.9057,-259.4350,-72.1811
-28.4059,-124.5695,-0.4125,-127.0884,16.1853,-215.4327,-101.7137,-189.2003,-221.3822,-165.7759,-31.7024,-67.8996,-5.6584,-90.9999,-22.3397,-136.1716,16.4558,-168.9244,-108.4524
-15.8154,-71.1110,-18.5816,-40.4154,6.4582,-118.0345,-90.6545,-147.8591,-109.5004,22.9395,-58.6704,-35.1854,11.3587,-49.9114,0.7591,-89.2060,17.4349,6.1085,-96.2698
-22.0779,-6.8475,23.8979,35.5792,69.1745,-35.6533,-12.3373,-116.4632,105.4642,60.6568,-26.6151,11.1422,67.5585,10.6623,42.5923,-25.9044,36.6151,54.3179,-32.1422
-42.6460,-60.7037,91.7486,5.4126,133.3821,-41.9225,27.1669,-152.6251,179.3063,-173.0542,31.9136,-2.6142,81.8184,9.4812,47.6260,-4.0798,51.8316,-18.2126,33.4655
-65.8826,-173.6986,89.2054,-66.4490,122.5893,-60.5389,22.1636,-128.6358,127.4858,-289.9175,33.1007,-14.5569,54.2355,1.7848,53.5638,10.2056,34.0993,-27.7733,59.1063
-69.0928,-163.8248,30.9658,-22.2849,72.6785,-4.1661,25.1353,-17.6934,34.8882,-120.3221,-20.9882,46.4536,32.4972,56.9409,40.6370,42.5847,6.2594,47.9409,45.1418
-55.8252,-77.3624,-12.3393,94.7832,31.1049,76.4925,38.6983,46.2439,-13.7830,37.8261,-57.2327,103.0153,12.3530,103.2555,-22.1014,67.4635,-4.4599,72.0732,47.2051
-47.3670,-80.8726,-18.6362,104.9112,15.5353,95.1465,61.7621,58.9228,17.9356,35.4581,-34.7854,88.0568,-3.2931,75.4998,-41.5055,73.4876,-11.4770,21.6222,81.0878
-55.7403,-149.2478,-16.7606,11.3902,26.9481,50.8240,80.3002,75.3899,15.7331,-13.4486,-0.5884,38.6546,3.1051,10.6443,13.1201,38.8001,-44.9461,-49.0980,70.6286
-93.2488,-192.4558,-54.9430,-68.7176,16.9997,-34.2889,45.3010,8.0256,-53.5908,-100.3486,-32.8615,-22.9629,-15.3688,-64.0972,23.4632,-65.5620,-113.0321,-149.7212,0.5373
-147.5789,-204.0829,-127.1817,-108.2744,-42.0080,-121.8001,-22.3331,-118.9508,-39.4420,-180.2883,-113.4994,-66.7248,-77.3465,-109.4324,-45.3332,-143.4968,-170.0000,-216.0534,-31.3654
-149.1530,-149.5410,-143.3210,-84.0517,-81.4755,-119.8375,-38.4012,-102.8066,35.1953,-86.2298,-140.8085,-27.4814,-102.2312,-56.1869,-118.8832,-73.0190,-138.7283,-140.5072,1.4339
-61.4625,-46.6747,-65.0873,3.9393,-54.8547,-37.4715,-6.9404,14.4719,-12.8825,61.0853,-96.3547,29.4403,-75.1668,14.8041,-160.1058,27.6001,-25.8312,-34.6736,24.9785
20.9468,-38.7412,12.5318,17.8460,-15.7789,-21.6991,6.2002,6.8448,-98.1626,9.4844,-60.6615,-26.9902,-72.0444,-46.2725,-133.1797,-28.7776,40.6788,-53.9429,31.3025
-15.6919,-124.3927,6.7313,-84.2662,-8.8322,-83.9410,9.7428,-57.2318,7.2135,-68.3511,-68.1092,-120.4705,-81.7843,-147.9870,-41.9174,-135.3969,-16.8549,-92.5264,64.5802
-133.0569,-147.0564,-47.9069,-137.2679,-26.5506,-82.5330,37.4627,3.0227,236.8487,77.7989,-92.7286,-93.7823,-62.0493,-104.4383,-21.0633,-90.7764,-100.4314,-57.5202,106.6206
-204.6026,-127.1839,-88.3953,-108.5161,-56.4935,-28.2313,58.6102,69.0807,359.3749,225.5642,-122.1695,-9.9575,-68.3660,10.1292,-107.7517,26.4636,-98.7048,-71.4894,127.7741
-203.6241,-172.3757,-102.3390,-123.0599,-70.4655,-30.7895,49.5154,8.9204,307.1681,139.8289,-142.6666,-4.4459,-107.6563,26.5172,-131.4413,46.3719,-66.6711,-128.8383,134.5795
-205.9144,-212.7223,-110.7122,-145.2663,-57.7916,-39.9333,37.6882,-46.9413,133.8947,-3.5829,-138.6273,-45.2675,-92.1748,-24.9918,-56.9897,6.1143,-102.1136,-94.5352,115.8698
-241.7130,-211.4413,-128.3774,-110.3497,-64.0021,-4.3247,30.4148,-36.6911,-68.5584,-70.4930,-126.3012,-69.9679,-41.0567,-58.8033,-46.1688,-9.2350,-152.8670,-66.4273,76.8894
-253.9735,-279.7716,-125.1688,-128.8504,-79.7670,-26.8675,21.5192,-75.9239,-136.7189,-157.6306,-105.2440,-94.3993,-35.7029,-83.9233,-89.1683,-28.8697,-107.2060,-148.5766,79.8393
-198.0249,-355.1324,-56.3022,-187.8333,-20.9964,-95.5480,52.5780,-129.3947,21.4272,-201.5647,-48.5413,-88.6958,-30.8092,-84.7661,-43.7811,-51.6681,13.1604,-137.6834,139.0881
-105.2600,-242.7880,47.2356,-97.0306,92.3909,-48.1492,143.2506,-49.5735,257.4802,-47.0231,15.0560,-12.4190,18.2608,-28.2397,29.1568,-11.3446,99.8689,54.0374,182.3927
-25.9181,-21.6145,110.2346,88.6817,145.9622,72.2366,208.8906,100.5489,329.1338,174.9173,33.8092,51.8661,35.2072,24.6654,-0.9187,69.2532,121.0303,152.3893,165.3148
36.6861,59.1117,126.4855,119.6451,127.0159,59.9203,167.5152,132.3141,194.6702,225.8798,28.4344,17.3655,4.8480,13.4932,-60.6354,96.2000,116.9133,26.1634,112.4347
88.9678,-14.8100,132.4887,3.0012,103.6917,-67.2495,80.2793,42.4879,59.0616,141.0304,36.2871,-55.0160,7.4007,-21.3804,-39.4890,57.3677,107.2566,-105.8470,69.1136
94.9259,-74.7336,125.7309,-54.7215,92.4324,-110.6340,72.5070,-2.7970,88.6044,118.9789,40.3211,-68.5662,32.5539,-33.5946,12.6888,19.2090,88.1480,-89.0253,75.2939
32.0160,-57.0294,95.1789,-11.1232,84.2225,-31.3789,143.4854,63.7044,160.0568,182.3312,27.7930,-35.6195,20.2991,-32.5611,18.7786,11.6992,57.5959,-12.7575,114.3613
-45.0725,-27.8706,51.7710,9.1808,77.5352,33.1840,175.6853,124.3333,74.6038,169.0928,18.9556,-21.8734,6.1049,-25.5127,0.0664,13.0194,11.3946,1.8195,116.9487
-69.3297,-51.7886,3.6410,-59.9956,60.7494,15.7870,138.5971,99.6757,-48.9754,44.3721,21.2450,-31.3314,35.6370,-1.5667,15.1061,23.0420,-38.9632,-38.7814,88.7720
-48.8458,-113.4640,-28.7780,-131.0183,50.7980,8.8449,129.9269,92.1470,40.2778,-5.0070,26.3378,-11.2859,74.4830,36.9698,73.2693,67.6539,-64.3894,-30.2802,98.0158
-37.1034,-140.7504,-22.1226,-88.2057,64.4662,90.0948,167.6169,156.9825,202.6492,77.7658,20.4278,49.8331,83.3202,74.2762,110.6989,126.8533,-62.8129,44.7505,108.6046
-59.4912,-112.8713,-7.7420,10.1566,56.2720,162.6878,141.2635,155.4591,102.9667,78.4715,-15.5490,94.5822,51.8155,96.0130,73.1956,141.8506,-59.0380,60.0207,45.4993
-100.6035,-77.9064,-24.7535,21.1029,15.5371,120.9898,44.7542,48.5871,-136.8617,-59.0360,-63.9695,95.2373,-11.2907,98.7029,18.1620,109.9426,-62.3178,6.5524,-20.4297
-132.8369,-51.8182,-40.3283,-14.7666,9.9703,69.3985,16.2270,23.1558,-136.5643,-93.7442,-70.2736,93.7772,-42.5204,87.0115,27.6370,87.0444,-68.0789,31.4044,7.8391
-141.7339,-30.1000,-18.6563,10.2297,43.2977,114.6767,82.5963,122.3906,27.6074,16.4773,-24.5280,101.7065,12.3709,64.2868,68.9245,88.9005,-70.4270,96.3792,70.7599
-129.9942,-50.3486,6.7347,21.8355,53.8167,126.3354,120.7122,141.2211,28.0529,24.8570,17.9350,81.1974,84.6219,44.1284,71.8902,79.9837,-60.9669,35.8099,75.5484
-110.6437,-100.4264,-0.6011,-36.9139,37.2335,13.1033,83.6287,26.9696,-61.2088,-82.2852,5.8838,47.7958,72.8731,49.8229,42.9231,57.6959,-59.1497,-64.5760,33.0925
-113.2977,-92.7133,-37.8334,-41.4446,2.6039,-59.4638,34.6481,-32.7671,-15.3407,-68.6141,-57.4480,45.0703,3.1362,69.5695,12.3069,54.2053,-101.9747,-35.7270,-14.7966
-162.5934,-32.0785,-95.5792,27.2879,-60.5616,-2.0477,13.2356,22.0766,56.3342,50.9141,-115.3869,38.7307,-38.2341,51.5046,-6.4742,50.7086,-162.0108,32.4058,-45.0614
-213.4404,-12.0443,-140.7532,28.8518,-99.7328,36.5777,19.6583,49.1224,29.3250,54.6429,-111.7726,-7.0465,-45.5925,-16.4921,-2.8196,-7.3033,-155.0298,21.0598,-42.3559
-171.3574,-12.6896,-112.5693,-9.5677,-69.0024,9.2696,34.6825,-5.3421,20.3540,-42.2460,-59.5448,-20.8260,-47.3144,-61.4884,-9.1777,-79.4599,-52.0098,14.0988,-24.2271
-25.6500,54.6621,-9.7760,55.5895,-17.8867,42.2966,21.5242,-39.7364,27.1207,-54.5774,-14.9476,47.6990,-27.1674,-17.7535,-56.1027,-50.0424,84.8565,67.4572,-12.9441
115.7636,136.0294,81.5340,165.6744,16.2192,120.7650,-9.9904,-14.7692,-77.4644,7.1817,1.0015,97.2258,6.3104,52.9703,-76.6898,54.3688,162.1920,97.9053,-9.4232
163.0078,115.7781,93.8326,162.3520,31.6596,101.7681,-25.2004,-30.5451,-179.6977,-16.5166,0.9629,32.4381,-5.7929,30.9574,-30.1205,58.0815,136.7796,52.8714,-38.7267
141.3976,32.8950,63.5180,64.2666,5.2440,-0.2353,-43.8838,-142.4434,-115.7501,-135.1163,5.1210,-63.0377,-50.3070,-58.5988,-11.0063,-58.1475,83.7340,-28.1022,-93.8694
131.8671,5.8529,79.2331,1.2453,-1.0268,-46.9485,-55.3956,-235.7097,-14.5406,-190.4591,43.2622,-63.8431,-34.4592,-71.1330,-45.2599,-106.8390,113.6957,-61.1438,-88.5601
159.0525,33.3830,150.0115,11.6667,99.2502,-16.7575,-5.3103,-207.5863,-44.7485,-119.2589,98.0355,-3.6448,37.7622,-1.9579,-15.3787,-43.0104,174.8798,-17.3067,-34.8222
152.7954,23.6268,164.0932,17.1623,163.9792,-16.6994,26.7708,-163.1821,-123.7311,-76.7216,79.1715,6.4613,40.1355,4.2048,66.4056,-39.0383,108.8399,-25.2780,-73.0289
46.4414,-56.1593,41.4520,-57.7656,21.4751,-109.8745,-70.4464,-229.3841,-100.5198,-192.9869,-40.0874,-41.3289,-68.3592,-77.5455,42.4648,-144.2108,-65.9517,-186.4898,-193.7175
-91.7479,-146.5082,-118.6725,-170.8064,-168.2556,-231.9747,-182.7848,-305.7990,-7.1612,-318.7619,-144.2227,-86.5163,-166.0365,-129.5843,-77.3234,-207.3386,-165.1220,-341.3492,-235.2680
-128.9421,-171.7587,-160.5835,-212.4351,-188.7277,-273.6575,-169.8032,-243.2319,-13.0947,-235.8042,-136.7256,-116.6993,-153.9807,-111.1185,-130.2834,-154.2270,-131.5203,-306.2442,-174.3661
-71.8742,-130.1994,-93.6833,-163.5311,-122.9296,-204.2281,-109.2180,-102.1590,-123.8105,-23.4865,-75.8691,-136.6823,-86.6765,-72.2454,-79.2514,-63.3013,-71.1945,-161.2781,-92.4889
-40.6368,-99.8976,-43.5141,-95.0175,-91.9680,-91.0505,-60.6867,-15.9013,-85.8625,77.8613,-59.6795,-119.2216,-56.9060,-39.9211,-12.2582,-14.2679,-36.7431,-62.0603,-3.2543
-49.6575,-115.6223,-36.2478,-44.5973,-53.5064,-22.5862,17.8740,5.7319,129.2791,48.0537,-75.0495,-59.6625,-59.0622,-28.6993,5.7941,-28.6821,11.7009,-32.9285,39.1372
-17.6098,-102.2172,-3.6660,-3.1719,-19.6910,-27.9137,28.7308,2.3871,121.5550,17.6614,-57.3049,5.1733,-50.8367,-31.1785,-39.9571,-64.7896,77.3295,-43.5074,-45.1225
33.2879,-17.8000,45.1025,29.0263,-49.9159,-51.0436,-100.2694,-10.2045,-188.6756,-7.9224,-29.1544,40.8015,-54.6705,3.7914,-93.7254,-43.1037,107.5588,-51.9192,-147.7601
8.5670,30.7620,36.5670,23.6935,-78.2270,-42.8922,-180.4978,-21.2981,-297.1718,-67.8846,-57.2314,12.7653,-85.0994,46.0132,-81.2603,13.7812,79.3643,-45.5645,-127.5262
-70.1166,-69.5949,-17.7923,-61.3948,-58.7857,-71.4934,-125.2745,-67.2553,-65.0302,-109.5189,-106.4854,-92.3909,-83.0440,-18.8452,-49.6499,-24.6799,29.4339,-114.7603,-70.0024
-102.8086,-260.9844,-42.0220,-202.9832,-60.3564,-201.3756,-116.3599,-175.6324,53.4854,-120.8448,-88.3365,-199.3006,-40.0955,-161.3314,-65.1926,-159.8306,0.5343,-268.6167,-76.3673
-73.6485,-377.0844,-23.6515,-284.0170,-81.3124,-309.1263,-166.8128,-234.3157,-37.8285,-146.7026,-26.8952,-211.2028,-34.9597,-215.1067,-43.6296,-221.2880,-6.8523,-313.5993,-70.0800
-37.5507,-335.1644,-8.2683,-252.4794,-60.5837,-249.1174,-114.0991,-147.7822,-32.0592,-142.0397,-14.9504,-153.6856,-63.2474,-156.0968,52.9674,-150.6000,-17.4254,-179.3926,-20.6076
-37.7974,-209.1686,-29.7127,-197.9482,-37.9229,-111.6129,-32.4266,-44.9615,31.2193,-73.1690,-55.5194,-123.4895,-45.1824,-117.6082,73.7925,-93.3057,-52.0225,-60.3518,-13.0020
-97.3274,-121.3385,-93.5374,-179.4182,-57.7236,-60.4822,-56.2479,-56.4312,0.2024,-33.0872,-90.8499,-132.8666,-11.2933,-144.8759,-21.8506,-133.7143,-115.6582,-53.1731,-39.8768
-175.6374,-100.9908,-150.6974,-161.1999,-64.1058,-72.8991,-66.8087,-88.7328,24.9270,-52.4603,-102.1537,-132.1065,-35.4847,-159.6541,-61.6518,-174.8167,-168.4691,-57.3531,-37.4323
-171.7271,-101.0644,-132.9342,-148.9263,-36.4637,-70.0146,1.1666,-72.9772,73.6543,-60.8492,-95.5835,-123.8025,-77.5385,-134.1997,-2.0502,-159.7017,-162.3925,-62.4304,-41.2168
-93.5791,-106.8278,-88.1444,-177.5716,-40.3801,-85.0696,-3.6123,-112.1270,-91.1149,-87.7032,-90.8946,-137.4137,-96.1071,-129.2772,7.4801,-173.9644,-144.9729,-119.9279,-86.4971
-79.3454,-115.6415,-128.3986,-201.7876,-88.5951,-125.9448,-89.9796,-194.9825,-297.6901,-165.0973,-117.1902,-143.9368,-120.3043,-155.2771,-71.3976,-229.2740,-191.2226,-143.7572,-115.9541
-146.2183,-84.6226,-208.4883,-168.4843,-109.9355,-115.3986,-103.5333,-169.2793,-255.7997,-183.1303,-141.6657,-98.4244,-117.5976,-129.1562,-123.6151,-199.0395,-236.8335,-76.5877,-92.7281
-157.9670,-31.7148,-194.6209,-113.1637,-68.6404,-64.9114,-49.2772,-76.8468,-114.4294,-136.2153,-101.7031,-36.8926,-46.5232,-38.0611,-81.3024,-80.9940,-185.0609,-41.4903,-49.9580
-94.3672,-49.3791,-114.2620,-84.7843,-13.1700,-65.6304,-24.3873,-80.9262,-41.2292,-154.2083,-28.6862,-27.8864,16.6665,1.0743,21.2433,-35.2633,-97.1644,-95.4918,-20.9606
-58.3058,-104.3767,-66.7056,-59.6509,10.2127,-87.8447,-14.9384,-116.4052,41.9875,-164.2698,9.7973,-42.1751,27.3404,-38.6776,98.1253,-72.8110,-52.7425,-98.6900,-18.0916
-41.7722,-50.6500,-19.6751,15.5215,25.0495,-29.5851,-1.1931,-34.6493,64.0117,-30.9766,32.8046,-0.5623,50.9964,-30.4877,90.0430,-41.6665,-0.1631,6.9828,-33.0237
23.3484,84.5308,64.8856,120.6315,58.9524,65.5279,-9.4694,79.7647,-29.6236,88.2252,72.1061,64.1581,85.8067,40.1864,52.8004,52.1053,78.9239,68.7952,-29.0474
93.7682,121.8528,116.0183,161.9415,83.3560,78.3769,-1.8023,98.4895,7.7294,50.2363,100.3666,60.1143,75.2562,47.4874,69.6324,73.1880,111.0095,15.2203,9.4637
119.0084,57.1611,113.5442,126.3015,82.4473,39.9053,48.0767,90.7531,178.3649,10.5177,103.0066,11.7308,49.6676,-1.4451,96.6095,37.6437,107.9593,-12.5548,40.6733
141.5324,50.0014,123.8284,119.2977,82.8360,45.5766,57.1183,116.1209,124.9281,32.7315,80.8222,-1.3933,28.6834,-10.4446,55.5085,29.8713,138.5189,40.7081,24.0637
181.0009,120.0769,155.2206,159.8351,83.8838,48.8078,-11.0529,90.8866,-111.6343,-12.6880,21.0609,2.0685,-23.9022,-18.3980,-16.9336,12.1568,179.4133,43.2260,-18.2001
205.3984,150.1232,178.0405,146.1633,79.0705,-10.0822,-54.3773,7.8107,-138.1992,-63.1901,-28.5100,-21.9753,-56.0222,-70.1479,-53.3801,-35.4356,194.5334,-8.9835,-30.4600
209.0140,122.8899,195.2601,93.2968,101.6919,-29.3036,-8.6871,-19.6416,49.5517,4.6860,-0.2418,-39.4071,-9.1186,-84.5974,-53.5896,-34.7086,203.9384,27.4155,4.5446
186.5309,114.0892,184.4668,107.5680,135.7915,46.8947,50.4046,24.4877,197.8339,66.3577,47.7399,-19.0150,26.8650,-39.5926,-36.7102,10.3867,190.4422,94.0886,42.6845
131.0097,120.0783,120.6861,129.1677,105.5219,67.4551,41.7704,44.9043,256.6468,47.8656,24.4395,11.1608,-17.4332,-3.7552,-21.6813,19.8873,127.2903,19.1949,25.8135
87.9484,73.3001,49.7658,30.6289,16.0782,-49.7032,-23.6445,5.1573,196.5845,71.6385,-21.3715,24.3181,-65.3601,25.2111,-28.1471,8.2595,51.4471,-102.3564,-58.4268
70.4664,-13.4532,-1.4729,-115.2719,-62.7895,-150.4579,-107.9315,-47.9121,-31.7516,95.0637,-20.1816,17.7585,-70.7253,57.0365,-30.6730,25.4666,-28.6553,-86.7504,-162.9973
6.7964,-53.0747,-76.8953,-156.5517,-128.7533,-126.2106,-192.3542,-72.1334,-228.1804,-21.6308,-22.4744,5.1216,-77.4520,41.0660,-2.2955,43.6557,-141.1735,-33.9049,-222.8069
-103.2333,-35.0098,-168.9810,-112.5864,-193.9863,-80.1498,-238.1635,-81.8424,-206.9793,-165.4192,-63.2114,13.6430,-94.8156,3.3403,12.1483,34.7975,-229.5992,-107.8080,-215.6119
-151.7544,-47.0000,-207.9809,-103.3417,-207.2382,-108.6945,-205.1081,-124.5158,-95.8842,-175.2181,-79.2620,37.8674,-97.0164,12.8584,-19.1260,15.5499,-228.9360,-218.0180,-171.4703
-113.3839,-101.3981,-188.5407,-153.4885,-157.6121,-157.7551,-126.2153,-171.9649,-8.3421,-95.2491,-51.8538,43.7821,-78.5157,36.4240,-40.2512,-2.3325,-196.7262,-215.1222,-121.8825
-75.7311,-92.8521,-160.0502,-179.7553,-113.7715,-143.5559,-74.9966,-119.1634,95.0099,11.8873,-38.6129,39.2638,-51.4713,36.8387,-18.2340,1.9464,-190.8655,-126.9533,-77.8668
-71.5398,-11.5539,-127.7765,-129.2236,-96.9355,-71.8117,-60.4178,8.3536,131.5983,113.0801,-43.2148,42.4061,-48.7876,42.7032,-6.8413,37.0059,-160.4369,-56.4282,-40.0436
-49.0965,6.3768,-63.0166,-64.1094,-55.3163,-17.0891,-30.7001,44.2158,43.8541,120.7605,-21.0326,25.8791,-67.3488,30.7770,-31.6441,38.2085,-72.9677,-39.2113,16.7117
9.9240,-55.9058,26.8103,-45.5139,19.2551,-11.0451,39.0853,-13.4818,30.9874,65.2611,10.5789,-7.0680,-40.6245,-20.9876,-41.4950,-28.0000,10.4590,-24.3286,109.2095
55.7775,-34.7855,89.7730,-12.5019,65.6803,14.6685,115.2545,7.6700,155.9611,67.6375,1.8288,-3.0844,14.6588,-30.6355,-17.9811,-64.8350,43.9043,54.1761,175.6389
58.6209,112.0693,103.3358,83.2775,59.1320,102.6435,141.5211,99.7004,146.3889,69.3601,-26.7937,32.1105,-4.7245,30.8724,-12.4925,-4.3383,66.8593,152.3186,153.6275
75.5714,228.3326,131.1139,165.2204,60.9933,170.1014,103.9484,90.9546,-59.9512,-18.2811,-4.7925,46.1734,-53.3529,70.3801,-39.2605,66.1455,141.5119,163.8972,96.0805
163.8920,243.9480,224.0345,192.6907,119.4572,152.3237,60.5610,-4.1773,-140.1857,-79.8240,84.5387,40.8051,12.4022,53.9447,-41.1716,55.9354,251.9949,106.2288,67.3815
251.9069,236.2782,298.8976,214.4434,177.8421,106.2648,52.9534,-41.5844,-2.9117,-51.7763,163.8331,41.1444,134.1256,29.3982,-0.8165,-2.4710,293.6707,65.2554,32.6511
225.4837,208.6499,251.4848,208.1196,157.4135,78.8378,31.3276,-32.6212,40.1425,-52.1677,139.4704,44.2875,133.0634,10.8092,24.0147,-35.9932,208.6948,30.5133,-24.6778
112.3056,111.5861,127.7152,132.9897,77.9830,50.9354,-32.0110,-44.1150,-108.3883,-97.8182,30.9806,49.6970,28.4464,10.9964,16.7668,-14.5379,82.4288,-12.5466,-50.3153
24.3941,17.5351,39.8821,69.4720,15.9422,31.3237,-55.9228,-24.5728,-165.8324,-96.2159,-32.5614,50.1165,-14.4641,47.1383,33.4830,40.3972,21.7052,-5.4440,-43.0028
-13.8469,1.4981,6.2182,62.9870,2.1830,27.9322,-1.4320,42.3566,-45.0854,-59.5312,-2.8185,22.4364,40.9946,62.2993,81.9000,62.8571,12.3311,28.1544,-37.8236
-43.3158,-12.6280,-24.3283,17.8963,10.9680,-11.9048,43.2269,61.1510,18.5805,-26.7996,11.2215,-21.9452,80.0856,9.0036,96.4393,12.8098,-23.6251,-8.9428,-13.4962
-79.2711,-78.0158,-86.0981,-100.3757,-4.6541,-102.7264,35.8655,7.1577,-15.0498,15.1181,-53.2314,-55.9470,33.5988,-55.5572,59.4070,-57.1072,-109.3281,-92.6646,24.8365
-124.7175,-116.3304,-171.5744,-201.5041,-65.2502,-178.3593,41.0838,-42.2661,42.8893,32.2949,-106.4383,-81.5661,-25.1865,-76.0978,33.3379,-78.2996,-202.2746,-129.0197,12.4961
-175.8418,-108.9776,-232.4833,-240.0905,-129.0115,-199.6979,53.5938,-58.6537,136.0146,3.0062,-99.6134,-89.8711,-19.5885,-69.0564,54.7188,-63.0020,-250.1776,-123.1529,-47.7290
-206.3561,-126.0861,-238.2292,-238.2345,-147.9517,-187.1183,-5.6804,-82.0220,58.0214,-25.0375,-98.9221,-73.6193,-3.1677,-57.1029,72.7175,-61.7563,-244.9621,-117.3870,-97.8998
-206.1511,-143.3665,-228.6619,-210.0476,-134.5431,-166.9567,-93.8316,-132.7367,-64.1404,-51.2292,-108.2270,-76.7874,-22.7431,-53.8509,22.8830,-86.4498,-226.1135,-95.2615,-124.9418
-188.3135,-103.1472,-233.9312,-173.8861,-116.6663,-153.7772,-89.5349,-168.5318,43.9397,-67.7371,-70.3778,-102.1204,-0.2378,-60.6172,-57.7987,-102.3450,-217.8941,-44.7279,-120.1696
-158.9834,-61.8006,-213.6188,-136.3213,-98.2966,-134.5123,-25.6267,-129.2888,245.0815,-3.3452,-29.9742,-73.1053,73.5976,-39.9006,-56.4305,-66.4039,-203.0395,-4.1152,-88.3332
-138.2960,-63.1776,-157.0879,-89.0748,-94.7045,-93.1419,-49.9658,-66.6241,128.1370,44.2965,-57.1050,3.2447,64.6453,8.1884,28.5634,-4.8086,-175.0100,-26.0691,-116.3275
-146.9992,-65.7607,-123.8402,-76.3887,-114.7447,-78.1491,-168.9846,-118.7425,-311.7510,-103.9961,-103.0455,23.9046,-42.0998,10.4956,49.2679,-12.4801,-147.3248,-118.5596,-215.2463
-144.0282,-85.0555,-123.1383,-121.2194,-123.6409,-122.5506,-224.5181,-239.2499,-538.8590,-262.9802,-103.9740,-16.0451,-101.4937,-38.4905,-40.9713,-84.1600,-105.7828,-188.0700,-216.3533
-80.3041,-140.5592,-90.9420,-127.4552,-94.8536,-133.0759,-130.4474,-204.1761,-210.9891,-114.3436,-78.3100,-33.4900,-71.9815,-49.5494,-83.5769,-79.1764,-30.6058,-127.1078,-58.8985
3.9981,-131.7191,-19.1445,-47.3900,-49.7665,-47.7467,5.5785,-21.8499,246.9331,152.4436,-50.6731,-23.4829,-32.3774,-12.1002,1.6784,18.3839,38.5014,2.9073,58.6277
36.7153,-37.1306,17.7279,9.5900,-25.4066,17.5525,29.3229,45.6058,229.4119,121.1374,-36.0294,-30.1417,-13.0124,-6.2480,62.5263,40.4653,38.3940,47.9696,12.5089
12.8656,-12.3464,-17.6211,-11.2069,-44.6844,-20.6375,-60.0920,-47.2780,-125.6542,-122.1426,-61.2158,-44.5828,-14.0129,-32.5724,-2.7542,-40.4806,-17.5523,10.5268,-56.9985
-25.4687,-95.7075,-69.6699,-38.5496,-81.0321,-61.7516,-113.0271,-88.4718,-220.9567,-196.3281,-92.2718,-43.3391,-37.0545,-21.1851,-62.5728,-54.4387,-49.4305,2.2385,-17.6043
-40.8865,-144.1043,-69.7969,-65.1745,-61.5778,-36.9673,-31.2761,-25.2194,31.5190,-64.3683,-60.9657,-30.9414,-31.9545,15.9879,-8.5291,22.1452,-26.4631,32.3018,73.9662
-20.9336,-116.4910,-22.2021,-114.0223,19.0118,-13.0870,98.1707,12.3683,218.0826,49.7824,0.5737,-17.6247,25.1803,12.6345,53.7459,41.2449,3.8539,58.7906,118.1763
1.8518,-78.9970,8.1625,-94.7756,65.5644,-4.0711,130.7657,-8.5644,155.6046,58.6334,4.2669,-14.7599,63.7477,-17.2892,20.7171,-6.8836,8.0489,98.0351,100.5108
-14.9665,-26.3063,-16.2092,24.4734,39.6999,41.5588,73.8321,-39.8149,45.9659,8.7623,-38.8854,-20.9951,41.8306,-14.5039,-24.9748,-21.3321,3.7333,131.2374,72.9220
-47.8588,41.9642,-49.0407,99.6544,17.3870,86.0421,57.8650,-61.1573,88.4029,-40.9252,-41.9233,-9.9403,10.9306,14.2902,13.5295,-12.4361,8.0306,104.3935,87.9622
-37.5628,75.2830,-25.4119,78.5735,39.0573,83.8699,109.7128,-33.4040,217.5485,-25.1309,15.6983,22.8846,16.1692,32.3274,78.0764,-14.0116,23.8682,63.2657,116.8333
4.6296,95.8139,27.6143,93.5425,48.2990,90.4056,104.6098,39.3462,184.2837,45.7453,57.5266,42.2404,34.9248,37.4494,76.5354,9.5071,46.5883,58.6779,72.4643
12.1130,123.8769,26.7158,156.8996,6.0992,101.5762,-2.8732,44.1817,-49.8999,57.4892,27.0154,24.8808,14.8810,16.5162,23.5407,18.8136,48.7779,7.5706,-28.0440
-17.2199,82.5622,-13.6799,120.9329,-36.0057,21.6851,-68.7075,-43.5421,-177.5407,-20.0632,-17.3718,-17.0666,-38.6396,-40.4996,-18.7788,-48.7145,28.9684,-104.4461,-45.5941
-19.6198,-18.4266,8.4878,6.1511,-0.0059,-81.4672,8.7628,-69.4488,-58.6965,-45.7897,2.4566,-46.4336,-33.5066,-60.2195,-25.7254,-85.5986,45.1922,-87.1796,65.5337
12.0357,-43.3775,96.3795,2.4092,103.9058,-10.8707,118.6622,48.9912,63.1902,81.3632,49.4318,-20.8322,57.9502,15.0265,-5.2653,15.1635,105.3288,134.3728,176.4717
24.5883,26.7231,142.9947,123.1340,173.1391,191.0509,137.0030,190.1814,79.4011,240.2243,60.1662,46.1225,114.1618,96.4842,17.0813,125.7503,131.0267,323.7001,185.2971
23.3562,72.7822,122.1371,175.8842,163.4338,258.8836,115.7933,214.4650,112.1425,236.3333,64.7564,69.9661,75.1591,85.1415,23.4794,94.2278,105.6761,274.3327,145.0587
48.2586,21.6253,103.9913,61.6418,141.2977,119.1078,133.5250,116.7274,111.7396,85.9610,82.2861,0.4778,41.0797,12.2286,31.4104,-17.2620,80.5412,92.0337,127.6418
53.0570,-109.1266,88.9791,-114.1431,124.7594,-33.6153,140.4628,-0.1309,25.3542,-1.6172,59.4194,-103.0052,46.6209,-65.3781,43.9705,-86.0782,27.3775,-4.5799,104.4574
-22.7840,-208.0138,16.2415,-179.6239,46.0448,-45.4455,74.1784,-16.5573,13.1331,51.3391,-3.5985,-132.5106,14.8830,-113.0168,18.4710,-82.8429,-88.4224,50.4088,35.2568
-117.6163,-136.9575,-88.6713,-60.1634,-73.4224,61.5154,-25.1682,92.1965,44.3699,102.1516,-48.6959,-41.7337,-40.3807,-60.4373,-40.6479,-4.4941,-169.3840,161.7646,-36.6199
-146.2221,25.9904,-137.5157,119.8926,-119.2189,180.3227,-81.2858,221.2344,-58.4004,90.9771,-64.5495,86.0232,-47.4546,71.1180,-50.5682,113.9027,-145.3389,200.8237,-47.0716
-133.4894,43.5647,-116.4156,156.1821,-69.8947,203.0482,-54.8076,258.1474,-113.2902,132.7293,-51.5749,104.3954,-21.0160,107.9295,13.9002,152.9792,-104.4418,151.2850,5.3288
-121.2866,-67.6332,-79.8949,61.0583,-1.2979,124.6962,39.0207,203.8852,67.5594,223.4101,-0.7766,2.8707,15.9253,2.6962,60.9591,73.3747,-95.3926,120.4458,74.8112
-80.9475,-72.7512,-41.9968,46.2673,49.5808,71.7751,117.0851,138.0184,182.8936,213.7583,40.0631,-52.1618,68.0989,-56.2647,18.8658,16.5582,-30.5875,146.9618,112.5702
1.4975,40.1804,31.7194,162.5676,89.8627,119.1669,103.6803,117.2116,40.7217,127.3595,42.0332,30.5436,82.2706,31.0600,-53.1170,79.9315,111.2794,153.1220,101.3536
85.7914,102.2957,132.4158,250.9638,115.9209,194.2720,42.4213,141.1626,-41.8385,126.1530,66.3870,123.4280,38.8463,122.1411,-46.6189,149.9904,220.5906,149.6155,81.2818
140.0504,104.5601,192.6060,245.1591,123.8202,232.1038,27.1752,175.9493,63.0882,181.2197,125.2368,97.9864,21.4723,94.9248,33.1373,104.9828,232.2294,211.3681,97.4301
154.7065,111.2347,185.3844,206.9632,118.1015,239.3811,56.8440,178.3599,56.1011,145.2911,144.2051,17.8610,43.2216,18.3446,64.7318,16.2128,194.7790,256.4203,133.3176
139.8462,84.2577,164.5068,155.6543,110.7719,216.8962,90.5668,141.5010,-93.6397,58.5148,119.9369,7.0064,31.6702,6.8713,7.9279,9.2918,182.0269,193.9103,171.2459
142.4089,43.4725,176.3416,122.9117,123.4705,196.7279,149.2449,134.5206,-78.4538,62.2109,110.8797,70.9997,20.4200,62.7936,-23.5849,69.0164,213.2893,148.0375,229.2113
182.3970,96.7981,195.9137,180.0857,140.4793,229.2535,212.2639,202.5173,69.3126,136.0374,108.7961,135.1050,68.4583,107.8313,26.3712,101.5228,222.1852,185.0006,255.0489
189.6698,202.8949,166.2896,253.9723,100.2944,236.0539,176.6936,242.0672,25.6996,155.4005,79.9337,155.4910,87.3912,107.6613,61.8930,82.5591,129.4135,133.4745,171.9711
108.0821,199.6262,72.8691,191.0650,2.4039,117.8126,67.8741,158.2856,-124.0662,93.7570,40.2364,134.6842,21.6773,98.7686,46.2416,57.7827,-18.9104,-36.3210,72.6329
10.1592,78.4301,-19.9437,37.4851,-67.1109,-19.9722,48.0918,70.1270,-16.5143,30.3286,16.8548,90.7111,-10.3834,96.5273,65.7060,61.8063,-98.5039,-115.7987,83.5114
-13.0453,-11.9306,-46.6269,-42.9730,-76.9093,-48.6494,101.4714,101.1404,206.3231,27.2754,17.4402,49.8895,41.4055,74.8416,121.7638,81.4318,-107.7767,-87.2381,95.8434
-10.1085,-3.9466,-57.1791,-43.2045,-92.0536,-49.9518,47.5896,137.1216,105.6493,61.7197,23.0318,42.5165,57.9026,44.7253,111.9652,79.3516,-152.7686,-117.8729,-17.9427
-70.2340,33.6019,-128.7220,-40.2734,-135.8836,-92.8638,-84.4074,74.3139,-169.3565,76.1462,-3.3627,78.9753,1.2722,46.3710,23.6789,51.5871,-236.6355,-167.0627,-119.2215
-137.6678,49.8326,-192.4519,-21.4815,-151.1577,-80.3771,-104.2414,30.1875,-159.3809,67.6192,-43.7593,123.4195,-29.9268,74.0233,-50.3204,37.7560,-255.6341,-110.2859,-76.4569
-113.8190,52.9834,-152.6951,14.1436,-113.8955,-7.4893,-27.0776,71.8075,29.8492,61.0606,-35.0202,106.5360,-15.0436,80.3680,-43.9282,47.5499,-195.9809,-41.2982,4.0561
-66.1086,12.7447,-91.7013,-20.2804,-64.7518,-10.3595,9.3267,81.4418,56.4692,23.8468,2.4896,3.7099,-20.6632,28.7011,20.8436,33.2592,-160.4866,-67.4536,38.5322
-110.8993,-96.4372,-131.0455,-143.6704,-48.5104,-97.4790,2.7696,14.3783,-13.8321,-74.3240,-17.6143,-106.6990,-53.7378,-61.2581,42.7115,-28.9746,-204.8512,-119.4213,52.2093
-191.3776,-182.2111,-227.7697,-244.9515,-90.1959,-155.7115,-29.3028,-43.8370,-60.7031,-153.9183,-93.8980,-128.7766,-88.1020,-106.5797,-40.6236,-94.1769,-275.2920,-135.3082,4.5354
-202.8755,-166.5695,-276.4160,-242.0797,-161.7461,-151.7537,-108.1952,-57.6201,-128.6500,-114.7635,-140.1406,-80.1840,-126.0945,-68.4804,-124.5378,-107.3012,-307.0489,-119.0016,-90.2428
-195.7775,-144.1449,-259.4380,-189.5897,-185.5310,-123.1341,-151.0898,-48.9262,-128.6707,-5.6201,-126.6630,-55.7161,-153.5810,-28.2398,-99.5642,-67.9980,-308.5213,-77.2079,-106.7878
-247.5194,-202.8485,-233.2020,-192.6853,-168.5904,-121.7350,-122.7000,-48.1301,-69.1510,18.7761,-118.7080,-88.8004,-160.8228,-53.0189,-64.0910,-36.5062,-325.4787,-90.3119,-89.4897
-296.1204,-249.2805,-255.4560,-260.9664,-200.8008,-195.4251,-143.4612,-97.1896,-136.6474,-81.6464,-158.6295,-131.0394,-172.3279,-92.6595,-120.6173,-66.9298,-338.5877,-198.1703,-157.7616
-247.2835,-185.3947,-280.9814,-293.7334,-232.8709,-278.8604,-186.3445,-167.5441,-172.6706,-166.7868,-168.1848,-130.7735,-160.9536,-97.5390,-149.0437,-128.2791,-265.2872,-246.3745,-190.8341
-111.2672,-62.5498,-188.2135,-233.7976,-131.8293,-261.3589,-107.4290,-193.0640,15.9412,-144.3413,-72.4012,-85.4206,-82.4824,-89.4068,-54.8478,-154.8278,-113.9707,-181.0845,-103.3606
25.9005,23.8139,-23.7829,-160.2722,9.1610,-220.3395,-21.8332,-221.8601,115.9100,-129.3364,29.5969,-47.6966,-17.0056,-81.7098,30.8771,-152.3218,-16.0740,-205.3119,-72.3116
97.4525,31.4216,23.3100,-148.1973,4.1816,-278.1118,-76.2312,-289.2412,39.9312,-208.1717,20.7325,-56.2677,-45.3336,-60.9721,12.7670,-141.0666,-8.5866,-338.3774,-112.3387
127.2085,-6.8873,-12.0041,-142.2421,-56.0672,-315.2645,-97.4594,-271.3335,147.5878,-229.5896,-12.7805,-60.0607,-68.9489,-23.3013,-18.9880,-78.9593,38.2127,-331.6438,-30.5271
180.5671,0.4894,68.2091,-83.8382,5.1867,-209.3560,12.7624,-148.8735,226.6299,-96.6431,28.3620,-13.4931,-2.9621,18.6101,-10.6217,14.1269,170.8235,-192.1236,89.0189
231.6516,67.4055,205.3232,-28.9833,101.3774,-112.9771,53.0982,-115.8748,-135.1101,-18.8769,56.1538,17.6330,47.2299,23.9311,-24.2815,17.3459,260.8406,-164.1254,51.4253
207.2361,102.5074,198.5252,-18.5656,95.8099,-133.3507,-15.1905,-203.3683,-440.0819,-149.1407,10.2763,-2.3759,2.5960,-15.6236,-79.1331,-64.9405,241.8913,-212.0466,-15.5473
140.8743,101.3267,97.9871,4.8196,48.8196,-116.0000,-22.0564,-204.3960,-204.0490,-272.6417,-24.2392,10.5406,-58.0757,-16.0129,-117.3584,-70.9459,190.5673,-135.0937,27.2347
108.0946,127.7942,67.0856,45.1969,31.7183,-13.6255,27.0445,-79.8435,109.8835,-183.6883,-15.3270,57.7075,-68.2327,43.4815,-85.8068,19.1208,155.7963,-2.5689,63.8652
95.8196,118.7205,94.1765,13.3026,29.8821,-7.5511,58.8103,-17.3960,179.4461,-34.7080,2.9878,18.4103,-30.2744,33.1193,12.1364,34.4599,128.1382,14.2168,60.1366
81.9267,20.6694,102.0233,-82.3979,48.5291,-114.2004,97.3489,-81.0500,228.4334,-25.7225,39.6430,-89.1894,33.7132,-76.5869,80.8176,-69.7786,121.5117,-38.4172,95.3683
93.9665,-33.4468,90.4295,-117.1927,66.8513,-137.2862,87.6683,-137.0624,195.7021,-80.2198,64.8033,-115.9022,47.9142,-129.2827,25.6104,-138.6386,138.6957,-40.0702,113.8380
126.5632,36.1699,92.8746,-60.4639,44.3398,-46.5662,14.5995,-91.2203,51.6954,-55.0146,36.7893,-57.3591,-17.4852,-75.0825,-76.9449,-94.1486,157.7726,9.1405,93.1678
156.3946,115.7725,138.0566,1.2015,36.3455,-1.2671,31.3547,-2.8932,117.9280,12.6197,24.1539,-26.1586,-47.9745,-28.0629,-82.1751,-31.7400,180.4814,42.1805,117.5137
185.8215,133.5090,183.4750,24.3153,62.8855,-47.3983,99.3583,21.7913,207.5249,28.5562,45.9789,-41.2293,-6.9269,-29.0781,-26.2733,-32.3560,182.0226,5.5717,119.3447
177.3773,114.1678,121.7788,13.2180,17.7851,-95.5390,12.3246,-21.6411,-65.3556,6.7581,-1.9038,-67.0882,-22.4413,-49.0196,-39.4775,-70.9202,107.5573,-85.7385,14.0140
98.2712,47.6690,-16.9227,-40.5685,-89.7791,-106.0588,-127.4388,-44.8209,-279.7209,10.5988,-89.6444,-104.8561,-92.4342,-96.3697,-103.7914,-99.9992,-0.4405,-143.4583,-69.2530
22.7244,-38.1010,-72.8046,-96.1392,-122.3329,-101.5484,-116.7273,-22.6477,-82.2446,47.6067,-86.2664,-132.1253,-86.3959,-136.3777,-122.2149,-99.2518,-39.3300,-130.5363,-63.9743
11.4965,-61.8451,-36.3641,-78.1934,-95.4996,-87.4661,-73.3277,-21.8954,47.7480,68.3859,-45.6612,-110.9739,-56.1796,-112.0027,-95.1259,-66.6944,-13.0553,-99.3493,-69.5718
12.3232,-35.9151,-20.9729,0.8258,-104.3046,-50.5699,-97.7702,-54.6751,-49.7148,30.9940,-72.1325,-54.4854,-114.6663,-61.0593,-71.8655,-21.8468,18.8076,-57.8633,-60.9884
7.1526,6.7970,-17.3449,80.5886,-98.6405,26.7980,-58.4753,-46.9251,26.2532,-28.0345,-94.0971,16.7223,-163.9048,-16.3422,-63.9828,18.6269,67.7515,38.6985,23.5872
49.0524,105.2251,33.1812,156.7878,-21.9591,142.5056,32.5401,30.4051,150.7361,-16.8840,-46.3526,99.3826,-100.8094,61.8626,-61.5148,67.3592,144.1621,158.1369,75.0552
113.4916,202.9473,95.6717,215.1829,72.6265,228.5473,53.8198,106.5150,20.4490,62.7396,23.9885,159.9213,-6.3473,143.4313,-39.6000,119.5184,198.4443,210.4020,53.6999
133.5806,184.3971,144.4651,205.8105,152.1348,212.1942,69.0566,106.7441,-59.2400,88.2083,99.2278,168.6165,50.4780,153.9134,9.1742,134.9609,207.9703,173.4532,63.0559
130.2135,130.9306,186.9990,165.5192,196.7049,135.9726,110.8370,58.1797,88.8606,27.1922,153.4157,152.9458,75.2618,127.4140,29.9491,117.1399,193.3068,109.4215,74.2615
144.3882,179.0547,184.0871,176.6035,158.3392,93.3270,68.5124,43.0276,124.4476,-0.8321,122.3150,146.4042,48.6866,120.1384,-2.4208,111.4818,163.3947,79.5826,3.0896
151.6912,233.0645,133.5301,193.0598,82.2080,68.9919,-19.5171,45.6001,-7.9830,24.3816,63.7272,138.1918,11.0452,100.9520,-16.1174,99.7142,125.6561,67.6067,-77.8952
120.4986,150.2746,97.6625,110.4746,51.7891,-9.2063,-40.9643,-26.2757,-55.4362,-25.5410,71.6762,96.1797,40.1926,47.4076,19.2890,29.2828,84.4093,7.2930,-113.7673
55.7002,0.6095,69.8460,-36.0084,24.2675,-115.9335,-59.7093,-150.7362,-54.2379,-138.9767,78.7334,11.5387,68.4231,-17.1094,32.4927,-64.1947,24.9933,-91.8156,-158.1133
-7.6941,-82.7679,8.6210,-123.5266,-49.5133,-170.1442,-128.7761,-206.1735,-103.5298,-150.1325,26.3340,-70.0609,14.3760,-76.7404,2.6973,-104.6044,-36.5953,-130.8517,-190.1680
-23.9641,-93.4679,-44.2321,-129.3394,-99.1400,-157.5478,-156.4091,-167.7344,-74.7347,-51.9421,2.4689,-92.5286,-21.2909,-98.6851,-12.1015,-92.3706,-59.2697,-71.9478,-151.3182
-7.7971,-94.9217,-48.8880,-132.0173,-75.4061,-110.8245,-98.9135,-107.4954,34.9196,7.7943,24.8806,-73.7385,29.6953,-65.6097,-7.9153,-66.5486,-53.0775,18.4408,-76.2472
-28.3607,-116.8123,-38.6336,-162.4482,-13.0655,-49.2675,0.9794,-58.4233,34.6243,0.2348,5.1519,-62.5513,58.6292,-37.9381,-22.3818,-35.0297,-40.6349,91.9222,0.5701
-70.7190,-124.0093,-22.8961,-146.2703,59.7986,25.6824,93.2509,-7.8558,-75.0437,0.4243,-34.9977,-37.8074,27.8022,-37.8140,-40.9391,9.3880,11.3370,164.6086,80.9394
-38.0940,-64.8010,27.7156,-18.6685,125.8164,134.7497,114.3534,54.9353,-96.7044,17.6338,-12.0801,39.9411,39.4334,11.0272,-34.4966,78.2060,106.6672,256.3242,122.5551
61.9525,42.8601,95.2821,158.8688,171.5983,280.4193,70.3268,126.5202,-2.3284,41.8570,41.8166,138.8800,104.8096,116.1555,-9.8708,166.3370,163.1468,356.1539,100.3835
105.8430,136.8500,128.8075,274.9077,206.9807,391.8763,55.9639,180.5876,48.4817,114.2074,57.3391,208.8725,130.4061,191.7057,22.8835,224.5435,140.0004,416.3928,69.4751
64.8508,192.8802,120.6199,314.3418,218.9635,412.1465,99.4742,210.6674,82.4827,243.3101,49.2371,243.2904,94.7545,225.9524,60.3877,236.1759,117.2173,385.1429,90.0604
62.3186,205.9360,119.5794,325.8372,200.0688,385.6431,168.5514,241.1941,267.4456,347.4433,64.2693,249.4541,62.6122,252.0256,94.8612,248.0810,173.6842,281.3807,162.6983
165.6584,183.1190,163.1297,313.4542,197.7837,343.0324,236.9101,236.4553,403.2217,314.1022,105.5422,227.4830,84.4757,226.9724,122.8321,237.3893,256.2695,171.4779,202.2666
250.0281,168.5522,192.6171,259.0367,188.2702,233.9236,208.3358,143.8921,142.5641,134.9989,123.1845,175.4323,128.4789,132.9322,130.3267,134.1930,231.4427,66.0714,113.4337
170.4819,147.5885,108.3125,166.6817,67.1387,75.0605,48.2093,45.3870,-225.3811,-19.6108,67.8315,96.9639,100.4146,60.3370,94.7021,21.6399,63.2058,-49.0050,-23.1757
-9.7616,30.5686,-60.0871,38.7630,-121.8372,-24.6735,-61.6307,48.6478,-157.2049,-4.2814,-27.0808,24.4553,-12.7593,58.6838,29.7841,35.0847,-114.9988,-124.7392,-36.6023
-102.9100,-140.6243,-159.1976,-95.9672,-213.7767,-47.2496,-33.1221,86.6986,125.7964,61.9137,-71.8101,-9.9026,-91.4606,58.9583,-20.4812,94.0794,-158.5013,-124.3154,25.8989
-57.7094,-183.3226,-115.9562,-156.1565,-179.0326,-72.2986,-27.2585,45.8081,81.2873,4.4169,-37.4378,-27.9027,-65.9083,13.4694,-29.7561,46.9086,-85.6338,-98.4962,9.7305
13.7759,-66.6965,-15.2284,-104.5186,-90.8196,-95.5728,-60.8106,-25.8836,-128.1882,-80.2690,23.7481,-46.0251,-3.0122,-25.1817,0.2806,-39.0704,-17.6441,-71.1833,-13.4942
23.8918,42.3561,36.8297,-0.2221,24.0544,-30.0411,25.0418,-2.7655,-75.6779,-8.4386,55.2896,-16.4283,41.5755,-2.1300,37.7177,-19.2442,-7.4033,11.8365,80.2487
-8.9685,56.4063,40.7603,92.2325,126.4348,117.0763,160.7589,127.1184,110.7364,163.4376,49.4839,70.5291,75.5657,56.6444,40.7106,68.8237,-9.8997,128.8863,171.1474
-26.8377,44.8788,69.4667,147.5223,167.1833,214.0664,168.4824,232.6975,137.0621,253.7132,43.7939,125.8196,93.9554,86.0780,21.4372,98.4649,22.4686,161.2028,125.4436
2.1118,58.3066,136.2482,149.9229,176.5489,180.3355,101.6299,194.9804,66.2855,193.5135,66.3851,91.9608,102.1715,61.1482,27.2179,47.6372,82.0751,97.0529,32.9529
63.4581,78.1286,175.3203,122.7824,174.2810,102.0434,54.2991,79.8501,28.0169,25.7336,100.3033,26.9518,125.3525,17.3975,53.2009,-4.4379,133.6107,53.0892,-5.6278
118.1042,103.5594,170.4405,127.6282,124.9111,96.5321,-4.2463,41.9513,-17.3047,-126.0685,124.7322,16.0720,138.2081,9.5344,67.4285,15.3819,156.9073,64.7314,-18.1187
133.6138,140.6288,165.7658,168.2623,64.8226,135.9497,-32.2719,80.8057,-75.2168,-109.7513,127.4752,74.2065,115.9766,48.5545,72.9850,79.7156,142.2903,72.2186,-15.2012
90.6562,142.6465,138.7700,183.0178,50.0419,132.5998,27.7760,100.7468,-82.3168,54.2516,77.2666,132.5145,93.9094,77.3653,65.0615,85.7612,83.2309,79.4361,16.5684
13.6773,83.4154,50.2436,147.0460,20.7865,100.4953,55.7947,103.5029,-85.8331,149.1845,-14.6656,109.0094,63.7215,41.7823,23.1905,16.4229,14.1590,105.4391,14.8531
-16.7236,39.4088,-21.5725,91.6431,-64.5047,79.5864,-39.2192,96.7732,-171.2448,58.1335,-65.3133,16.9548,-19.9627,-24.0789,-24.3581,-35.0958,-1.0790,85.8747,-54.2618
28.6928,66.4679,3.4480,52.6734,-110.0089,47.7273,-131.7552,31.7988,-229.5460,-89.8323,-44.0655,-45.0165,-84.8024,-48.6744,-33.8106,-34.3195,41.0088,23.3038,-94.1369
70.3373,91.5894,61.5616,66.6647,-52.1696,30.7105,-105.7433,-27.2864,-103.3413,-128.1573,-8.6803,-22.4532,-31.4355,-25.7433,-13.5337,-21.4256,79.0196,49.1716,-32.9827
58.5322,80.9353,69.4037,150.1563,35.2793,98.8765,-22.4469,31.2875,63.3196,-45.0416,8.6249,56.6672,59.9188,16.2820,6.1487,14.1377,84.0770,177.6262,42.7449
43.7191,124.6981,48.0658,242.0808,76.7413,203.6931,21.6969,133.7879,37.8498,52.6151,8.7214,140.3751,56.1814,72.9847,7.3100,77.6739,78.1890,242.0669,33.6416
55.7566,203.6433,43.9238,251.2531,79.0586,234.5001,21.1886,144.6856,-59.7974,71.5632,-18.2987,172.4801,-11.8422,117.1726,-8.6107,94.8726,75.8653,172.8271,-20.7614
67.6666,177.6497,55.9927,178.0919,59.8233,193.0240,13.7710,90.7976,-38.0862,31.1944,-45.6725,133.2526,-52.8686,107.8284,-11.4568,56.9322,71.7224,76.2556,-48.4451
64.8080,96.1201,46.0818,103.4949,-1.4947,135.7529,-4.1636,60.2864,-30.8824,30.4474,-51.2663,90.2539,-73.1950,81.2163,-2.5751,63.4964,46.5923,19.8874,-69.2390
26.8565,114.9406,-30.0564,59.8124,-103.9640,71.9886,-58.2169,61.9033,-131.7861,85.0945,-94.4978,97.7899,-109.1799,92.1686,-37.4476,125.8854,-21.1660,-22.8836,-108.9777
-59.8608,148.1905,-145.0455,9.3467,-177.0598,13.2981,-111.3685,56.7190,-174.3179,86.1767,-186.3015,95.7565,-150.3248,95.7108,-102.9299,139.4754,-100.7842,-60.9349,-134.4034
-127.8124,52.1832,-200.1831,-54.6102,-176.9851,-29.7733,-112.9250,2.7934,-154.6204,-13.1715,-221.0255,34.6801,-175.0543,36.0070,-115.8229,70.6914,-126.8978,-89.0197,-147.5728
-127.0800,-52.1773,-178.3561,-92.9728,-172.6370,-81.1507,-113.7033,-84.8769,-213.9947,-107.3227,-176.2401,-19.7167,-173.3916,-34.5964,-87.7648,-16.3384,-112.8080,-110.7815,-187.3590
-134.1461,-45.0896,-165.8686,-99.6182,-206.2019,-111.1465,-161.4396,-112.9915,-237.2001,-113.0764,-147.2123,-18.9023,-146.6372,-47.6723,-82.1422,-62.6597,-127.5318,-85.0857,-212.3969
-188.9336,-40.7897,-172.7221,-88.7176,-180.3370,-53.3145,-160.5747,-52.8005,-78.6927,-76.3780,-131.1226,-10.0679,-104.3735,-17.4584,-58.6159,-33.8986,-147.6968,16.7258,-149.8359
-192.5945,-83.6361,-117.9292,-38.2261,-40.8244,38.0416,-45.9101,2.1398,96.2116,-46.8111,-51.4542,-15.9773,-40.6045,15.7334,23.0441,47.0337,-91.5394,108.4886,-47.9780
-110.4583,-50.8661,-15.0167,47.7807,89.9034,52.9139,45.6896,-3.2428,83.7459,-16.3362,43.3649,-2.5875,35.9689,32.5035,84.1351,78.1156,4.5806,95.2599,-27.7586
-54.4141,36.9952,19.0609,94.1990,90.4789,17.3778,-12.7912,-29.6925,-71.9463,-2.9997,49.2068,20.5380,57.6551,22.3446,58.1271,21.7467,16.1705,18.4248,-101.4088
-83.1547,33.1519,-46.2071,67.4054,-11.7465,12.8731,-120.8583,-49.0624,-163.3644,-34.0145,-19.5907,14.6094,-7.3079,0.9893,-21.4310,-24.3196,-61.7536,-36.5993,-152.9426
-130.1105,-57.0671,-108.6728,22.9509,-113.5537,16.1252,-123.5170,-61.2148,-64.5391,-70.5124,-74.2397,-6.7985,-67.6168,-0.1603,-81.1210,-4.6128,-101.8080,-63.2693,-104.5386
-137.4503,-122.9570,-99.8346,-9.6505,-135.1208,-11.5690,-49.2736,-57.8496,40.2227,-65.4263,-67.1523,-17.9195,-42.7069,10.5202,-53.5191,18.0324,-64.2511,-66.7959,-27.6963
-111.3161,-122.8368,-82.4282,-49.5785,-90.4065,-37.1487,-27.0412,-42.1409,-83.3139,-32.1083,-19.9425,-38.5581,9.2035,-4.0215,33.2540,6.0891,-65.4753,-39.7849,-38.5725
-79.7709,-72.2189,-124.3442,-86.2406,-88.4850,-65.5581,-81.3346,-40.4043,-230.3745,-12.7416,2.9838,-87.1796,4.5478,-52.8355,42.6533,-26.8508,-156.2107,-53.7818,-131.8916
-57.9953,-23.8270,-163.5357,-115.9614,-163.3804,-150.5153,-136.2564,-82.5594,-123.8060,-41.3881,-14.5072,-141.7831,-33.9156,-109.6806,-36.4850,-87.4533,-206.3653,-156.4701,-200.7425
-23.6216,-34.2547,-104.1235,-168.7934,-184.0988,-242.7385,-137.0332,-146.9565,25.3663,-89.5643,5.2635,-170.0781,-27.5542,-137.7066,-40.5481,-147.5040,-130.3164,-204.5294,-177.0469
42.1490,-54.0736,16.4644,-204.7775,-62.7304,-222.4290,-68.3617,-139.8362,38.1232,-43.5049,99.8749,-152.2148,55.7936,-117.1419,57.9576,-143.9956,-37.3260,-75.8458,-80.0772
95.0512,-2.2305,84.6464,-145.6473,92.5427,-108.4007,49.6280,-40.3891,138.0047,119.3043,176.6280,-90.0592,157.4159,-65.0902,107.4639,-94.3121,-21.6535,66.2717,16.8050
96.6428,58.4760,82.3008,-44.4900,139.2543,-43.7579,118.7652,26.0590,281.6362,211.9483,158.0788,-23.1327,169.6317,-13.2667,72.2502,-52.0326,-16.2650,35.6831,43.5211
83.8308,30.8379,75.5337,-21.0231,78.3729,-61.9440,62.4158,9.4672,164.1596,103.4354,99.6215,1.3244,82.9845,20.5908,41.4516,-8.0355,30.0075,-51.5510,20.0814
84.1109,-28.2103,81.7068,-58.5101,13.0105,-61.5493,-22.4771,15.4424,-32.6172,-55.9504,79.2579,-12.4416,28.2894,28.1340,38.2550,31.0941,60.4118,-26.2283,32.2882
73.4010,-20.6367,64.8835,-59.6779,6.0018,-15.2527,-12.2971,55.9560,-11.9910,-75.5361,82.3478,-15.0320,61.1418,23.2310,44.8690,25.7638,60.1329,34.4577,78.7305
60.2961,33.1388,30.8282,-15.1587,11.0593,7.6095,18.2773,34.8317,-6.5457,10.0454,55.4720,20.6112,59.6242,41.3138,45.6137,12.0952,78.6927,22.2508,76.7279
70.2559,69.0032,21.4562,33.1861,-32.1894,15.1265,-44.1699,-14.5918,-158.1619,58.9425,-4.4070,61.9836,-27.9658,69.6158,-2.1741,30.7629,103.0109,7.3610,29.4698
67.8966,76.3244,30.8594,79.7113,-77.3911,70.6012,-121.6148,-0.0473,-152.6796,29.8967,-57.0539,56.2089,-74.9472,50.3729,-77.5347,27.7011,89.1664,50.4835,15.7099
28.3449,72.9351,21.5276,122.2165,-60.2094,137.6586,-105.9344,43.3034,48.0225,-5.1768,-79.3867,5.5381,-43.7743,-3.7196,-102.1006,-10.0678,62.3507,87.1483,45.2920
1.0335,68.0354,5.4857,146.2314,-28.6570,152.4013,-47.2441,62.2553,124.2867,16.3613,-86.8018,-22.3532,-55.9518,-19.0742,-98.3854,-10.8594,62.7961,86.9210,74.6836
12.1630,59.7889,18.3151,161.1596,-28.0737,161.2526,-6.7947,81.7359,61.5336,51.9064,-94.7536,15.9029,-110.7284,9.7698,-116.7998,20.0138,80.6591,110.1751,98.2747
22.6734,58.6547,46.8747,183.9836,6.9739,210.4608,53.9015,115.2040,57.0747,46.3099,-88.5312,74.5435,-75.3960,33.9137,-95.7806,24.0627,95.5469,181.6222,124.8454
12.5945,93.1238,61.2659,205.5017,101.1690,233.5112,135.3288,154.8087,90.2261,61.3235,-51.2459,82.5386,31.0855,42.5662,-13.0097,21.9798,94.3760,240.0497,136.3014
0.3312,140.3064,67.3492,200.7107,164.5459,185.0854,163.2092,195.7122,86.2687,136.7056,2.5002,42.5977,80.5272,44.3779,42.0964,45.7053,67.8324,222.5257,118.0338
8.4216,121.7806,86.3616,157.3149,163.0565,127.3038,133.2973,206.3762,92.4932,163.9481,46.8854,26.2147,86.7375,48.7080,57.8814,82.3248,49.9779,147.1271,88.8264
63.2084,47.0459,134.1384,99.9588,165.8709,101.2342,119.8048,179.8433,123.7783,98.1993,83.6700,73.2620,128.7401,80.8866,95.2178,130.5848,88.1271,89.0414,78.2975
148.6849,18.9226,194.4455,68.4534,192.1555,72.7167,126.2633,140.4968,104.4931,33.1368,128.3198,127.0925,172.1976,113.5947,126.4533,150.8063,139.7030,78.5541,66.7246
175.6746,40.0914,190.7521,54.0379,179.8425,31.0963,70.1105,59.6692,-53.8950,-44.2442,160.8058,110.1640,165.5965,75.7027,100.1152,76.2981,109.8267,73.5509,-3.9410
103.5802,21.9574,91.3815,19.7596,103.2241,5.5235,-53.5649,-56.3460,-301.4635,-183.9860,140.9143,46.7521,137.4738,6.2230,38.7531,-22.1519,14.1914,44.2101,-98.6589
26.4062,-15.9782,8.1987,-9.4783,21.0208,3.6452,-113.7636,-85.8701,-365.2803,-217.7907,85.8279,27.4297,117.0655,15.2975,-15.0765,-18.1907,-21.8642,22.4781,-87.9247
38.2728,9.9999,34.2964,25.4322,12.0471,24.6197,-30.9851,-0.0270,-125.1244,-41.9180,61.4798,67.3243,107.1350,77.7247,-14.3720,42.5214,44.6751,49.1990,21.2410
97.7966,69.3673,91.5844,106.6081,76.9498,69.3136,75.1972,52.7789,66.8452,77.3872,71.8431,102.3533,100.1318,87.6778,56.1307,53.0876,108.4408,98.5091,51.1726
100.3792,81.0350,87.1028,149.0723,121.3537,95.6575,56.6103,0.0292,-59.9491,-60.2370,49.5503,95.3282,55.1132,52.5433,92.3717,32.5196,85.1857,89.4673,-38.4237
26.9912,47.8834,47.0177,110.5594,86.6724,63.8331,-30.6653,-55.6724,-177.1978,-213.1872,-16.1369,58.8879,-29.0010,35.4154,8.4823,21.5980,26.6190,16.1058,-76.3496
-35.9348,17.3658,7.3485,41.4964,31.1533,26.0937,-39.2349,-20.9594,25.7935,-133.6550,-56.3665,24.7849,-68.5208,34.0732,-86.7600,15.5689,2.8575,-6.1479,-11.8553
-30.7471,18.5154,-34.7547,29.8043,4.9716,52.1394,5.8266,73.0054,234.9469,42.1744,-48.4375,24.8952,-42.0805,34.9851,-67.9930,37.0824,-10.1662,70.0636,-4.0828
-19.7253,36.7041,-59.0120,80.9150,-26.7640,94.5984,-24.0487,109.8543,103.0245,100.7314,-38.5272,36.6798,-18.8675,36.5990,5.9688,67.9180,-48.5729,112.3782,-99.6742
-60.9180,-11.4945,-59.6889,72.8899,-67.6934,46.5063,-107.7074,11.0068,-134.3984,47.7665,-34.0050,-14.5519,3.7284,1.9459,38.4417,21.0822,-80.7672,11.9338,-152.0923
-90.3726,-167.6724,-69.0400,-81.8154,-69.1113,-104.7601,-135.7871,-159.9406,-147.4926,-49.9222,-5.0510,-132.8626,54.7626,-83.1149,42.2754,-95.3089,-83.4823,-161.1872,-121.6370
-65.4046,-310.8032,-91.6892,-272.8795,-57.1147,-260.8716,-131.2781,-288.1322,-59.2166,-179.4605,17.0968,-219.5694,60.0743,-159.5005,45.6500,-175.6835,-94.7054,-280.8586,-136.3050
-73.5092,-317.0476,-121.2622,-321.7102,-97.1289,-311.8397,-166.5199,-331.8686,-94.2608,-267.2108,-24.7964,-202.3227,-10.3360,-168.5583,18.5057,-179.5817,-138.7684,-285.7161,-219.9604
-152.4729,-244.0858,-166.7121,-222.3452,-157.7917,-237.7693,-199.7839,-276.0562,-178.4545,-226.3271,-101.8505,-111.6075,-60.6085,-111.9965,-59.3800,-134.8782,-184.1533,-204.4016,-252.5945
-203.0909,-201.6720,-193.0808,-126.1064,-173.5869,-147.6273,-196.7501,-156.5211,-182.8188,-138.7666,-135.5671,-43.2230,-68.0768,-52.4396,-133.8709,-82.9124,-193.6455,-161.6123,-200.4811
-173.0853,-194.9568,-160.9429,-134.0770,-155.0291,-160.4100,-203.9536,-118.4125,-145.1816,-146.1160,-108.8918,-70.6624,-89.3594,-64.7537,-125.1000,-75.9668,-154.0063,-229.3563,-133.5915
-108.4128,-185.2711,-111.8614,-197.7272,-125.6329,-230.3634,-187.9214,-196.4973,-96.8853,-196.1351,-62.3260,-136.2863,-91.3525,-118.6931,-55.9831,-96.5356,-79.2662,-286.2115,-69.6134
-31.7861,-148.3135,-92.6922,-206.1524,-85.3694,-214.5032,-86.0654,-214.5800,-12.9182,-153.2435,-39.8632,-104.3075,-56.5238,-94.8464,-45.8773,-62.4790,-22.7714,-217.9454,-1.7107
36.6152,-75.6255,-90.1436,-129.5413,-69.5905,-107.2472,2.1490,-110.9986,72.2459,-63.9954,-71.1360,11.3314,-74.4004,4.9560,-116.8284,1.7081,-23.5671,-115.6306,35.2429
51.8664,-12.5626,-86.7032,-49.4566,-85.9668,-37.5385,-4.7162,-35.9322,137.9817,-47.5823,-125.8912,56.3843,-128.2091,41.7460,-152.4796,-12.4082,-26.0092,-83.9840,54.0356
48.6514,-0.8408,-52.8311,-33.1916,-50.7670,-50.4781,20.7020,-47.9163,204.6189,-77.3183,-113.3196,7.0934,-89.2927,-18.4881,-96.2023,-96.2693,48.6349,-78.3997,102.9667
86.5552,8.3286,41.4878,-43.3422,58.8801,-65.4608,133.7286,-76.9943,197.0243,-87.5450,-24.4542,-21.0909,7.6906,-67.7076,-16.6237,-143.3393,152.3739,-50.4900,139.0737
106.9372,45.8641,119.6772,-23.9398,131.0535,-33.6146,175.0744,-96.1671,65.2606,-89.5560,23.1603,-1.3744,25.9611,-51.4627,19.8721,-105.0471,166.4375,-22.5858,113.7781
59.4790,43.9494,93.4340,2.2815,118.2404,1.7325,108.7092,-77.8395,-36.2800,-80.4328,-13.4505,15.2257,-2.0991,-9.2557,7.0615,-19.8632,96.3729,-6.0757,98.1107
28.9584,-19.3209,39.5769,-19.7684,104.9398,-10.3242,83.5679,-14.6076,-5.8312,-60.9807,-32.3354,26.8174,21.7749,13.2597,-15.1677,20.2268,43.2052,-10.0745,125.9536
46.1958,-73.1929,33.6344,-90.7546,108.6776,-65.7088,101.6239,-20.8643,36.9998,-82.5401,-7.9950,29.0142,44.5957,-13.7221,10.3231,-40.8913,4.6520,-48.3264,100.9896
7.8217,-92.0249,-16.3291,-150.5119,54.2487,-121.2261,52.0952,-129.3237,76.2267,-104.0464,-37.7636,-0.6551,-7.0773,-73.4337,71.0291,-113.4738,-87.7860,-84.6570,7.8501
-92.3479,-96.4391,-134.8676,-147.4506,-41.5065,-141.0827,-21.5180,-173.8529,207.1651,-29.1621,-111.0838,-22.2940,-67.1737,-94.8749,85.2324,-86.7566,-177.9285,-92.6160,-41.7760
-129.5181,-73.4276,-184.4290,-110.0390,-93.5779,-128.1188,-41.9690,-95.5733,231.6266,59.7708,-124.0494,-2.0887,-71.6708,-62.2088,32.7716,-24.8663,-171.7037,-108.6825,-30.4294
-96.6892,-29.0349,-158.6170,-103.3682,-113.1772,-104.2874,-59.4542,-27.1199,-50.3187,37.7883,-117.3298,12.1231,-83.2873,-42.4190,-26.8051,-32.3881,-141.2585,-124.8310,-18.6916
-114.2762,1.7507,-197.2500,-106.5024,-151.2080,-63.6576,-73.2164,6.2724,-252.6805,2.8084,-186.1800,-0.8062,-147.8861,-53.8910,-49.7187,-59.3170,-188.4420,-72.1610,27.5487
-184.7313,37.7138,-273.7350,-46.2951,-172.7544,8.2765,-5.4965,81.2853,2.8128,56.5070,-243.7347,1.0446,-185.8210,-44.4030,-33.5514,-35.0235,-225.7029,20.9477,118.1311
-173.0762,108.4596,-239.8506,40.1968,-137.1901,57.9178,69.7549,135.7228,268.6325,80.7387,-177.6118,11.0370,-145.5374,-15.3371,-17.0037,-9.4142,-138.6739,30.0344,129.6942
-27.6533,199.3477,-112.9486,54.2511,-78.0003,11.4361,23.1523,80.8150,68.8089,17.7861,-66.9718,-6.1299,-101.9130,-21.6956,-50.7928,-26.2788,3.1564,-49.5665,44.2170
159.0852,340.0747,-12.3219,43.0270,-18.4632,-61.0678,-53.3952,10.5108,-168.1393,6.4206,-0.0079,-5.5190,-88.7872,-43.5370,-99.1311,-34.0668,98.5332,-58.5742,15.3124
303.4547,585.4767,54.6843,138.7978,49.8647,-5.2071,-13.7459,39.1463,-28.4453,69.1510,72.2195,80.2321,-38.3877,7.2237,-84.4340,13.1259,168.8400,71.3637,56.8929
405.9930,850.9909,133.7463,303.9578,93.9519,137.6513,52.7379,93.1124,73.4113,66.3673,156.5454,209.5030,34.8245,126.5538,-31.1617,85.7406,236.9103,180.8961,25.5106
479.4532,960.9191,204.7447,369.2260,89.4686,164.3108,20.5651,53.1260,-87.3722,-0.4244,187.4294,262.6424,49.3871,191.8253,11.0961,127.2955,267.4822,136.3340,-57.6232
512.4091,883.4147,237.2045,308.4285,83.1646,63.6164,-21.6551,-38.6318,-75.9975,-18.9097,194.6383,201.6080,50.0177,150.8669,64.7292,120.1681,262.6496,42.5065,-62.8235
496.8449,753.5776,233.3980,253.5084,83.8652,13.5152,5.5563,-74.7447,110.6967,-22.0965,223.7460,123.1572,100.5993,97.3338,95.3514,91.3553,241.3044,26.2857,-38.5288
426.3951,667.1527,185.1365,255.2861,29.9298,39.6104,8.0770,-61.2256,21.4555,-85.0879,208.3070,111.1232,113.6831,93.0869,38.6761,67.3569,186.1514,30.8600,-70.6242
309.4925,582.0320,97.4973,232.0392,-50.8367,29.7604,-29.5790,-46.0580,-191.1170,-121.9995,129.3866,123.3586,40.2727,89.3527,-10.2417,56.5084,116.1893,-0.2906,-68.8764
196.1106,437.0126,33.4503,147.2785,-52.4978,-3.1652,9.7166,-8.1979,-119.2764,-53.6571,77.6942,101.5465,-11.5278,66.0731,43.7765,61.6880,83.2645,-0.9876,16.2629
116.9526,270.7097,41.1161,70.1637,8.8787,13.1395,101.3051,53.0884,95.9435,30.2628,68.8602,72.2695,3.7933,59.0578,86.5719,69.2777,78.6866,47.7497,66.4075
48.5376,162.5031,85.7750,55.7927,36.6273,46.2293,121.1874,85.2357,243.0163,65.7127,59.4091,59.9669,18.8306,59.4289,37.5226,65.3634,79.3819,85.9649,38.1319
3.2062,113.4891,123.0427,80.6381,44.7815,56.5613,90.9147,85.3178,285.8479,105.2210,82.1772,34.5040,21.4919,39.4742,1.9555,65.5960,108.4247,101.3041,3.2949
14.7615,63.2712,154.5809,88.7040,85.0146,51.9407,69.8664,59.1029,23.2045,111.2066,133.9321,-18.9470,29.5044,-1.8992,11.2473,56.8537,143.1727,88.2787,-41.0329
7.4019,-26.9759,155.1548,33.0845,101.4259,1.8670,12.7189,-38.3485,-392.6991,-22.7700,116.6836,-86.9379,21.9127,-76.9326,-10.7916,-14.7236,102.6361,10.8206,-120.3569
-112.9207,-166.1694,69.7369,-88.9748,36.3343,-99.0605,-80.4195,-173.8772,-390.1545,-220.7714,25.2698,-150.9836,7.0941,-157.4294,-31.8738,-110.7392,-14.4578,-90.2741,-182.4973
-264.1229,-330.0996,-58.2698,-203.9042,-60.2813,-168.1721,-135.2430,-240.1673,-96.8481,-309.8521,-45.2588,-179.4488,-6.2815,-155.1977,-3.7308,-116.2338,-111.4530,-130.6150,-200.5171
-303.0002,-440.0813,-99.5827,-231.1385,-114.3698,-171.9984,-133.1985,-242.0049,-62.3457,-284.7015,-68.3786,-174.7200,-42.7331,-90.1044,10.7490,-51.8328,-117.3408,-117.1694,-185.2023
-244.3721,-437.6212,-32.6347,-192.6635,-102.9016,-167.0636,-79.3721,-253.3153,-77.0486,-241.2679,-56.8270,-183.5526,-59.6232,-90.9034,4.3951,-50.8360,-59.3166,-104.2973,-134.2888
-198.5487,-373.5930,14.1787,-169.0163,-60.9834,-169.2302,-13.4947,-263.7953,76.9038,-209.4703,-12.1615,-195.6631,-16.5616,-155.8793,31.1745,-115.1438,-40.4150,-103.1135,-118.0552
-215.4066,-347.2527,-44.3834,-176.0148,-64.4943,-151.3835,-60.5981,-240.5195,-84.1992,-186.9636,-0.3910,-164.3517,-7.2305,-169.5683,34.4401,-132.0912,-121.2708,-105.1755,-199.3721
-269.2657,-394.5900,-135.6653,-184.8554,-121.6808,-126.9687,-197.3120,-191.2661,-461.8919,-159.9973,-62.9016,-133.0201,-74.6111,-135.8216,-31.1674,-96.2694,-215.4178,-103.9345,-250.5589
-300.1419,-475.6557,-156.8053,-203.1685,-138.7154,-120.2366,-205.1151,-125.9368,-332.1151,-97.4811,-110.8870,-164.4840,-99.1421,-138.0921,-68.1837,-95.7822,-221.4904,-95.2267,-161.6358
-285.7326,-520.0016,-128.9262,-232.3145,-93.4485,-121.5302,-89.4272,-81.1047,78.9202,-30.9167,-101.1788,-210.5397,-56.2980,-163.2461,-38.4411,-126.9940,-202.4291,-85.3133,-68.3195
-288.4586,-491.2117,-145.5533,-232.2048,-78.3914,-111.1012,-78.1579,-83.3612,75.1417,-17.9459,-113.4104,-206.0156,-65.4537,-154.7204,-29.7260,-109.3916,-248.6647,-71.6755,-74.6468
-345.0979,-442.3618,-210.1767,-211.7419,-105.0677,-85.2221,-135.3440,-76.1917,-147.8253,-41.0344,-150.9978,-172.6090,-122.6930,-125.4356,-49.1300,-58.2891,-298.3718,-58.8018,-64.2271
-388.4272,-449.0656,-234.5128,-230.2681,-94.4336,-60.5000,-62.2079,-28.9283,-196.8539,-58.9962,-139.7277,-143.7993,-118.5524,-116.7787,-35.0235,-64.6964,-283.2411,-65.5033,28.1516
-378.3174,-481.3399,-196.0249,-259.5329,-57.1916,-37.4416,69.2263,30.4341,-144.3405,-12.7022,-104.6208,-112.4782,-62.2518,-117.9628,-14.4366,-93.3568,-260.2310,-52.2807,126.7993
-366.2454,-447.2179,-172.5211,-210.3607,-57.7581,17.2137,111.4525,145.2679,46.2127,183.9060,-108.4842,-69.9704,-42.9541,-72.7059,-22.5258,-16.9632,-270.4923,20.6749,205.1404
-378.3903,-354.2842,-206.8085,-114.9677,-81.8387,83.6665,120.0594,313.1913,305.9234,423.7109,-138.3342,-28.4355,-80.4974,13.6060,-13.7573,113.8380,-278.8083,57.8116,252.6553
-390.3986,-299.1105,-255.9657,-86.0129,-102.2522,82.5106,119.0166,367.9719,266.1777,442.0442,-171.5709,-22.1585,-121.5923,31.4683,16.9174,117.6217,-277.5614,-11.7246,207.1248
-391.3898,-306.5029,-275.3538,-109.8943,-135.3116,30.9528,41.9530,267.4821,116.9130,267.8792,-189.8176,-63.4247,-109.4963,-51.7752,3.9688,16.7047,-265.5630,-64.2134,103.3003
-367.2822,-309.5836,-253.9788,-90.7930,-156.4037,25.8770,-32.2737,183.3594,269.3524,174.5719,-158.4373,-92.0926,-64.1980,-97.3622,-50.2295,-12.2958,-200.7612,-27.5771,60.3462
-305.9648,-275.5604,-188.2749,-42.2893,-113.1310,54.7458,1.5494,161.7719,341.3532,182.7489,-108.4552,-60.5083,-61.6310,-40.4406,-63.4511,31.6477,-95.8032,-12.7620,89.1605
-235.5753,-229.7619,-95.3414,-30.1342,-27.0180,49.8431,71.5221,123.0997,38.6456,166.9464,-92.3251,-17.8629,-88.7033,-1.5739,-7.9211,36.7041,-25.2208,-30.3528,114.3897
-170.5172,-180.6464,-22.2858,-23.1052,34.4868,48.4890,97.8327,116.2226,-88.6127,183.4640,-68.0046,-9.0844,-64.1469,-25.0006,48.1491,24.3032,-1.0740,27.4565,114.4570
-97.8555,-127.7850,-0.6735,20.8573,48.7282,91.4415,108.8879,178.9200,146.4032,231.6642,-16.7406,-8.5229,-8.9818,-12.7873,40.8216,52.4758,10.6175,103.9962,114.2249
-56.6512,-105.9776,-24.5189,39.8043,27.2845,117.6770,106.0607,207.3256,228.3903,178.9468,-25.0692,-12.6304,-3.6587,31.5787,-7.8267,76.4599,-14.3602,66.2538,114.3466
-91.0074,-146.3822,-78.4104,-32.0410,-32.7222,75.3927,52.4386,167.8808,60.7505,96.5036,-95.8519,-49.0777,-40.2008,10.4843,-32.7420,55.0699,-105.9987,-50.5778,85.0051
-149.4831,-233.9784,-134.3537,-156.0143,-114.2379,-16.9933,-9.1734,121.0886,-39.9529,112.4575,-116.3644,-100.5265,-56.0197,-61.2620,-6.4770,3.8562,-195.3285,-131.1505,41.8850
-165.6709,-313.1071,-136.3556,-233.6312,-133.2451,-99.5969,22.9729,80.0531,-0.2606,126.9106,-68.1457,-130.0744,-14.1257,-99.2083,53.8478,-49.4767,-180.9846,-112.7720,70.0416
-153.0731,-306.0502,-69.8275,-197.4893,-41.2102,-93.0732,142.6014,64.2572,121.5362,95.5803,-25.9991,-126.5054,59.5442,-90.9578,102.5766,-53.2195,-87.5133,-8.9140,144.0260
-140.8838,-208.8510,-20.7556,-94.7807,43.6047,-29.6230,164.3114,71.6282,178.9414,108.1180,-9.9133,-108.3597,62.3562,-77.2575,79.0938,-6.2526,-56.9502,40.9507,77.7373
-129.7762,-155.9483,-58.8417,-70.7510,-15.4352,-70.1358,-20.2574,3.7690,2.8343,83.4220,-7.9557,-128.0055,-34.0380,-95.9507,-11.0547,-14.8396,-141.0818,-62.1271,-141.2101
-128.6095,-215.1958,-114.6086,-154.0113,-132.1529,-203.3743,-200.2625,-123.2446,-159.2864,-20.8920,-17.4551,-180.4229,-87.4344,-138.9023,-65.6561,-95.9309,-217.5417,-150.5485,-263.5587
-145.5102,-226.2383,-105.5374,-166.0608,-141.7918,-200.7487,-164.7539,-137.2479,-43.2121,12.3489,-12.8023,-152.3675,-28.2673,-132.9337,-29.3699,-103.9922,-197.1414,-56.7013,-201.1398
-166.0803,-94.0830,-83.7579,-21.3455,-85.3082,-33.3180,-61.6729,-27.6795,65.4186,200.0161,8.6428,-30.4017,27.9834,-55.1186,29.7969,-7.4712,-152.9032,69.9389,-121.0878
-174.5666,-14.0240,-111.2094,84.1648,-89.1558,59.9466,-70.8760,54.9712,23.6003,266.3964,11.9330,14.9900,37.9781,-1.2368,53.1134,42.5609,-150.9096,47.1965,-87.5388
-167.3217,-113.4634,-138.2022,-5.0740,-136.5141,-7.4065,-99.9376,70.4915,96.7371,184.4959,1.9948,-70.0217,55.7278,-26.4962,49.3811,-3.1053,-159.8018,-46.3560,-63.4269
-155.9520,-201.8855,-133.4922,-151.9454,-176.3703,-91.8922,-103.9419,49.2056,129.3458,132.7483,-6.3098,-125.9537,32.7923,-61.3070,12.1580,-39.5829,-176.6481,-93.2770,-106.0979
-158.3895,-143.8429,-148.4847,-193.4896,-228.9147,-119.3392,-183.4423,-6.6748,-173.1553,82.3101,-40.9832,-91.2461,-56.6798,-60.1585,-56.6062,-29.7333,-217.8679,-108.7800,-195.3188
-161.8407,-87.7863,-177.4931,-176.8241,-257.6012,-123.3003,-251.3947,-46.3136,-433.0326,-20.0464,-82.4223,-68.3910,-99.2134,-58.5901,-97.6158,-26.7640,-216.5073,-102.5716,-180.8158
-131.9465,-134.7672,-146.3709,-177.8608,-180.3790,-104.9887,-149.1467,-41.1116,-284.4536,-62.4697,-57.7369,-82.8433,-67.8645,-68.5135,-85.6249,-43.0931,-128.2507,-46.2912,-64.1839
-71.3990,-176.8114,-52.0273,-160.8158,-32.1423,-59.8785,21.9165,-53.1048,-1.0283,-38.4880,15.6736,-84.7125,-44.4853,-68.1651,-54.0218,-57.6821,-27.0676,38.7836,32.0734
-18.6893,-159.0827,36.7696,-111.9873,77.1675,-12.4042,104.2505,-86.1889,148.9093,-54.9305,44.5494,-84.3582,-18.9005,-60.7417,-7.9031,-68.8542,29.7638,104.0554,102.0742
-0.6574,-155.4028,76.4403,-80.5254,109.1749,33.4972,124.4341,-83.6477,158.6096,-85.0832,11.6863,-85.2218,22.0824,-54.2117,40.0463,-66.5353,67.2153,128.1938,163.4439
-6.8595,-160.1693,75.1786,-55.4117,97.2911,83.3579,131.3909,-56.5511,53.9590,-47.3757,-13.9835,-42.4799,15.9616,-33.1020,33.7033,-28.0675,97.9780,132.1043,164.0186
12.4846,-78.0349,80.3406,17.2088,88.5614,127.6454,126.2193,-24.4961,41.7722,39.0207,18.4066,36.9530,2.9805,21.2673,-3.2386,30.8909,123.4749,157.6619,116.1925
81.9880,75.9154,121.9106,112.7191,105.5910,158.7071,125.6454,13.4652,214.6113,96.0139,79.7101,95.0890,58.6505,103.0147,17.0952,56.5968,164.6175,186.6732,65.2662
135.5961,166.2992,149.7600,159.6678,114.5757,161.0716,92.9777,12.5762,219.3194,49.3212,91.9348,101.1173,99.6054,162.1961,64.5652,29.2167,198.1567,145.6321,-5.9679
117.9306,146.8515,121.2061,152.2100,75.5889,122.2333,-7.1359,-24.7620,-35.0363,-66.9067,47.8443,63.3547,61.6256,145.8681,45.8978,-7.6064,187.3174,45.2028,-75.8005
93.1864,116.8710,97.9411,137.1459,20.8153,74.2463,-92.4228,-32.2398,-172.0354,-98.3345,39.1956,23.4544,30.6070,84.0269,-12.1149,-17.3365,169.6317,-10.6176,-92.7692
120.7580,123.4911,123.5474,127.3417,10.4301,50.8386,-110.5608,-33.9442,-184.5752,-32.8479,87.6492,15.8611,31.2282,53.1732,-34.1876,-23.5351,174.1357,7.7701,-88.7840
142.2132,84.5269,126.1948,88.1183,42.3759,24.2908,-108.6964,-72.3733,-264.9359,-43.9166,90.5721,5.4021,6.2211,48.0314,-18.5040,-56.0872,150.4584,11.1712,-76.7679
110.9431,-15.7553,65.4411,1.2436,64.0458,-35.8808,-69.1421,-84.2650,-164.0858,-140.8378,22.3599,-41.8547,-14.9228,13.7124,19.5537,-94.3191,89.9976,-48.6568,-8.0626
83.4095,-54.2898,16.1460,-81.1605,51.7658,-89.2021,30.5534,-51.8302,152.8747,-135.1970,-12.0643,-70.1207,3.7234,-22.2440,53.3012,-98.4162,62.0250,-81.6402,67.4763
112.1268,23.5252,30.8094,-80.9675,46.5744,-83.2791,95.0318,-36.3237,220.1916,7.0976,22.5063,-38.2767,19.8935,-4.9132,23.2128,-69.8075,82.1588,-9.0738,77.3648
173.5522,115.7704,72.8177,-8.4130,91.0207,-44.0950,110.1518,-22.0047,70.7382,124.9345,54.7513,-2.8312,28.7356,22.9624,-36.4850,-53.1731,105.9779,70.1096,100.9549
210.3190,140.6852,103.9225,42.2019,151.2397,-31.1013,183.2633,16.8986,161.3520,128.8068,63.4690,7.1210,51.7143,16.4196,-19.4400,-58.4330,125.3464,41.8192,183.3170
195.8934,150.5216,124.0219,49.4213,166.3246,-26.0115,254.3074,42.6944,320.8642,82.2160,77.6487,49.7380,50.1704,42.4306,25.6867,-19.5070,144.5955,6.3733,187.7597
179.3243,218.3561,141.7521,89.9617,139.3594,27.2910,162.3287,65.4169,130.3730,58.9031,78.1295,134.8344,8.1370,131.6431,-26.0226,84.4171,145.5400,75.9723,60.2728
210.1394,284.6075,158.2896,157.8655,107.0935,86.6491,-4.3676,84.4181,-142.7338,28.3622,45.7717,176.5633,-21.7617,176.9433,-92.1741,151.2333,141.3696,126.7044,-35.8191
221.7124,218.7917,160.7500,143.7913,89.1229,71.6957,-24.4470,37.6016,-54.9438,-49.7063,22.2774,131.7639,-3.2167,132.4826,-24.0146,129.1144,154.3363,61.9746,7.2867
142.8192,61.5885,138.7429,46.2921,96.5844,23.5270,77.9999,-15.5734,202.8753,-88.3358,30.0856,64.8528,49.7022,92.9836,81.9205,99.1355,145.6421,16.3003,76.6012
57.8093,8.7934,109.7986,-13.8622,101.1529,12.0982,94.9763,9.6164,183.0181,-39.8181,26.7697,30.7936,77.9489,73.2937,54.9967,69.2803,82.0632,39.8119,30.8922
50.4284,69.6571,86.4152,-10.5392,46.9616,-12.8823,-23.8649,-8.3349,-100.1973,-43.8946,-15.1122,-1.6311,23.0933,-6.2792,-42.5323,-35.3997,7.3257,3.6822,-93.6446
34.1705,62.3529,41.0993,-11.2863,-38.6362,-73.1715,-129.5592,-113.7256,-255.3357,-119.8174,-74.5883,-48.7945,-71.0642,-87.9838,-71.0359,-125.2961,-43.4365,-51.1534,-156.7846
-61.9622,1.4545,-37.6429,1.9375,-75.4816,-50.7090,-131.8358,-89.4064,-150.7046,-53.3864,-131.5455,-51.1684,-115.3838,-51.7115,-67.2879,-53.3488,-90.5330,39.3169,-133.3866
-145.0325,37.6211,-95.7506,69.5757,-72.8867,80.2544,-116.1056,87.8257,-58.3152,136.0442,-166.1627,-5.7502,-119.5441,31.2435,-112.7875,72.8917,-124.1371,179.1477,-123.1487
-145.4197,68.2999,-89.2404,103.5481,-84.8473,147.0429,-170.1339,136.8618,-98.3601,139.4130,-149.5757,-14.8285,-123.3193,17.8379,-156.3172,60.3480,-115.7793,140.8019,-157.8780
-132.9036,-67.7356,-69.9002,27.3556,-113.4672,56.5395,-252.9465,-10.4688,-100.9208,-68.1916,-107.8455,-98.1053,-118.1616,-61.3041,-143.4925,-38.4242,-116.9712,-36.1649,-190.1915
-167.8172,-212.9538,-117.1058,-61.9230,-165.8404,-58.1163,-297.3445,-135.7549,-87.6402,-175.5960,-110.6730,-135.5860,-137.6589,-99.1145,-132.9937,-75.7139,-188.0210,-134.4804,-228.7707
-221.0170,-188.4910,-211.5495,-58.2550,-242.6017,-65.9019,-292.9995,-137.0845,-179.8141,-73.0600,-147.8116,-82.3517,-202.6803,-87.0056,-155.4012,-64.3145,-271.9448,-101.1165,-279.8231
-257.8555,-118.6717,-266.9076,-20.3069,-274.5468,-20.2951,-256.2442,-97.7398,-224.3885,26.3832,-148.1995,-38.4100,-219.5919,-70.2573,-146.3679,-71.9046,-293.0518,-64.2051,-287.2682
-279.0378,-124.7821,-266.6770,-38.2996,-247.7635,-41.3788,-242.5925,-108.1916,-199.6925,-60.1550,-126.1246,-60.3471,-159.0887,-70.8947,-108.0349,-84.7729,-292.4706,-107.4718,-277.3315
-294.1505,-134.0430,-268.2087,-82.7650,-249.6340,-126.0628,-295.8633,-174.7204,-351.9557,-237.5369,-139.2655,-94.0875,-127.1170,-81.4216,-122.7946,-74.1137,-329.3496,-171.3919,-321.7188
-307.2825,-132.2549,-289.8227,-94.9370,-278.4999,-162.6145,-328.6522,-188.2893,-492.4123,-239.2975,-151.3219,-93.0763,-126.6910,-73.4934,-161.8932,-46.2534,-364.1028,-175.1525,-333.3763
-302.1716,-175.8015,-287.8934,-95.3755,-250.5513,-115.4575,-251.5336,-84.9725,-234.5035,-34.5499,-106.9966,-61.1986,-67.3144,-45.6444,-121.3614,-22.6087,-343.3228,-139.6740,-217.8693
-251.0527,-204.3086,-233.2444,-121.3382,-188.8622,-76.3835,-161.6625,-5.5651,61.0774,66.9328,-45.1441,-19.9501,7.6841,-33.0089,-30.0325,-24.5972,-287.5648,-118.1646,-105.3105
-172.8048,-167.2007,-157.2208,-151.5696,-149.6602,-91.3910,-151.9271,-46.4816,-108.4264,-42.3085,-12.2560,-1.8462,19.7369,-33.4321,25.3601,-36.6350,-238.9723,-96.5540,-103.7667
-128.8493,-141.3970,-117.0647,-149.6223,-96.9047,-89.7626,-120.8582,-62.1113,-322.4157,-66.4963,8.1673,-14.0810,21.6280,-13.9992,73.6819,-9.6683,-204.9217,-53.7669,-78.9517
-119.4239,-154.3665,-111.2083,-123.8177,-25.9014,-41.9783,-3.7862,33.3486,-65.4068,83.0382,28.2329,-17.0065,56.4598,12.7154,134.0104,52.7321,-165.2570,-22.5695,50.6415
-72.8139,-148.4843,-72.7345,-107.9293,10.0784,-16.6487,82.9390,99.7772,258.4508,128.9810,38.9463,5.1305,80.0299,16.6527,118.0199,77.7695,-104.8744,-29.3763,139.5377
9.7944,-136.7620,0.2423,-111.4380,27.1104,-37.5888,67.8993,59.2617,174.7615,28.0745,38.0578,23.0924,78.0427,7.7487,25.4867,32.7130,-57.6479,-55.1633,102.2181
24.4932,-154.5549,9.6769,-116.9004,36.1007,-46.2083,7.1436,6.6705,-61.1929,12.0862,8.1985,35.7143,59.4130,12.6886,-15.3793,-10.7824,-83.6164,-73.1618,28.2757
-55.0909,-158.0791,-72.5317,-121.5398,-27.5093,-26.8874,-63.1977,-4.6748,-149.2431,68.2695,-52.5647,52.2118,15.9557,42.7060,22.0681,20.8639,-163.9983,-89.7002,-26.5184
-116.3142,-139.8372,-143.7274,-148.3899,-127.7326,-37.2085,-116.8382,-29.3826,-176.5839,8.5267,-84.4419,29.4857,-9.5494,68.0879,44.7790,69.3525,-193.3705,-130.6987,-66.1666
-80.3236,-163.2314,-123.0114,-187.8082,-118.4835,-91.3477,-81.6532,-91.3346,-128.9884,-117.5760,-46.1046,-37.9920,33.0025,36.9736,30.6707,29.2151,-114.1333,-155.6008,-43.4706
8.5899,-190.2826,-25.5112,-169.9038,6.9234,-106.5860,46.2532,-116.4801,112.5008,-121.1513,15.6093,-50.2617,91.3855,-12.0637,30.7077,-42.7538,14.6072,-71.9746,51.9123
71.8501,-106.8952,79.4224,-59.9461,104.2787,-19.9381,158.4117,-43.4875,324.2703,-3.5251,37.3932,38.0797,83.1524,29.8789,52.8363,-0.1651,98.3063,71.7840,120.8964
64.3708,36.7612,104.7165,63.2876,107.9530,94.3165,172.0247,46.4303,218.1042,58.8678,11.1779,120.5882,22.3232,136.7243,68.8861,119.9138,108.0355,98.4245,104.5585
6.6513,63.6360,48.3892,103.1153,74.8384,112.0658,122.7272,37.7196,-8.4770,-12.7524,-25.7918,111.5550,-8.0744,166.3728,69.4174,152.3076,91.6348,-1.6289,66.6544
-18.2784,-31.4082,20.7722,69.1159,53.9672,38.1773,103.7418,-23.1036,27.2036,-80.3379,-31.7947,55.5398,25.5736,108.5712,68.8701,89.9908,92.8941,-60.2258,70.8614
8.5259,-72.7546,44.1021,36.1057,38.1639,-10.7276,137.2706,-30.5164,241.9706,-30.8287,-10.1402,9.7836,60.4072,75.2895,77.9674,51.2981,89.9730,-37.2869,95.9201
1.9383,-3.1650,15.1546,30.6792,10.4826,8.1842,138.1162,-13.6037,242.3058,14.9519,1.6917,-17.9714,47.5099,91.4930,73.6268,50.1651,53.5604,-37.5974,88.2774
-43.0288,52.7108,-53.3706,14.6671,-17.9282,6.7783,56.5387,-38.7684,-0.0368,-50.9966,3.5129,-23.2883,50.0856,98.1370,42.0886,22.4353,10.0126,-94.8950,34.6397
-25.2900,24.7575,-54.2841,-40.8983,-27.2256,-84.7730,-22.6956,-81.5215,-119.4472,-102.4889,18.5429,-21.4687,113.9580,74.5054,32.5233,-25.7306,-12.4271,-162.9723,-17.4096
42.5026,-21.4406,-21.2101,-97.7152,-24.9554,-194.3662,-20.4535,-92.9862,19.7831,-34.8693,34.3054,-39.2428,160.4987,49.0983,66.7416,-38.8636,-25.0564,-193.5043,-15.4305
49.5049,-36.9563,-33.1828,-103.0193,-27.2015,-206.4366,15.1398,-48.3663,141.0135,55.1102,35.8180,-52.9928,142.4164,51.9653,72.0890,-6.9421,-33.6003,-162.9849,17.0394
7.0980,-52.3524,-47.2108,-89.6326,-36.1709,-145.7277,11.1541,24.7013,59.1920,70.5010,27.5445,-49.8053,114.6639,58.4480,18.1832,14.0269,-31.2021,-131.7990,13.1693
4.6010,-80.3691,-36.0424,-112.3806,-57.2079,-129.1861,-28.4774,22.2725,-58.6157,17.4727,5.8381,-76.6736,88.8640,9.0013,-20.3268,-27.7458,-22.1672,-156.3174,-32.1499
38.8030,-67.4435,-36.7381,-108.6809,-82.5123,-150.7720,-64.7468,-74.1687,-53.6616,-61.3141,-7.9594,-116.1771,41.7340,-56.7489,-16.9573,-87.0005,-7.5352,-146.6582,-77.0120
57.3090,15.7001,-28.3246,-9.1504,-88.2349,-111.2844,-83.5951,-121.6459,-26.6383,-89.0896,12.2099,-85.0897,8.4615,-31.8392,-24.4097,-76.0742,-0.7343,-49.9574,-113.3856
46.3818,94.6421,-7.0308,84.5762,-88.8839,-36.7119,-99.8154,-68.0220,-66.8752,-26.2550,17.3516,-10.5079,0.6936,50.0631,-30.6024,-18.0786,-25.3793,-1.7004,-134.6538
26.9777,91.0315,-24.2315,64.8828,-96.0271,-29.9836,-107.1253,-32.2558,-51.2028,48.3738,-10.8546,15.2250,0.6912,67.2026,19.5412,-12.0854,-34.4535,-50.7996,-97.1814
49.6872,62.8299,-25.5708,23.9048,-51.2609,-60.0896,-55.6034,-57.0499,73.6797,54.3049,25.1973,9.1883,53.9711,33.6209,80.5884,-65.1391,43.0154,-51.9196,-9.6594
123.4295,108.2180,55.4792,73.7193,50.2321,-27.4729,44.7963,-78.2138,108.6908,-2.2148,125.7967,21.5800,149.0456,34.0659,65.8064,-96.0764,145.1868,30.3907,41.3745
158.1195,182.5355,109.9905,153.6070,98.7579,45.7399,88.9705,-80.9231,-32.7424,-75.4328,145.2829,28.5941,163.1850,59.2209,13.4798,-66.7967,160.8495,77.9702,29.3861
116.1194,175.6873,68.1765,166.4864,72.1309,62.8154,57.1611,-67.1066,-105.7356,-94.7254,85.5706,23.7256,93.8486,67.8086,27.3704,-20.5381,123.0318,56.0266,26.1415
94.1170,91.2640,48.3053,103.8323,70.4649,0.5032,48.7046,-32.8242,22.4546,-46.0839,81.1748,27.9545,61.0211,56.8906,79.9954,-13.5963,110.5248,3.2521,55.9034
124.7320,7.4091,87.7628,0.8855,94.6297,-74.5197,60.5119,-28.3409,114.9230,-39.4987,113.3149,20.1327,60.9122,36.1475,60.9552,-31.1228,96.2942,-58.1824,55.9088
117.4722,-38.0736,85.7155,-74.5093,72.4272,-83.4577,4.0859,-60.9504,32.3151,-108.9373,104.5696,12.2731,28.3834,35.8127,-3.8706,-10.5693,58.4254,-82.9749,9.5998
59.1555,-48.2196,42.9136,-67.7362,37.2789,-24.1611,-67.5045,-60.6109,-36.2348,-131.5953,97.3194,50.8489,-1.6989,61.3461,-15.9034,30.4872,42.7038,-58.9125,-19.0184
30.6556,-40.8649,23.7881,-26.2206,34.2844,34.6078,-42.3596,-25.0398,12.3344,-81.6169,92.8714,90.7114,-12.5545,58.6934,-17.7891,21.1441,50.3648,-32.5457,11.5559
47.8205,-24.5865,16.4620,-2.8457,28.6485,73.1892,50.1527,11.4157,90.2383,-34.4901,40.0622,80.6303,-40.3981,35.9820,-67.4998,-3.5171,51.7933,6.4893,78.4586
60.7629,18.6190,12.4420,43.1985,19.1161,127.6488,116.3487,71.9048,190.0905,40.4367,0.6378,83.2690,-63.1208,59.2970,-80.1798,23.9861,48.2153,67.3540,116.7120
31.0391,71.7666,7.3176,110.1394,12.0828,167.5397,95.8027,124.2995,251.5932,138.2455,0.0574,117.0170,-74.7629,80.7204,-43.2803,41.1921,26.9628,73.4066,69.0469
-14.6307,74.1836,-19.2650,115.5588,-11.9502,140.5684,6.5743,95.4309,114.7538,123.6690,-11.3820,99.8981,-72.2839,26.3631,-21.1143,-6.6286,48.6116,38.6546,31.3967
91.3092,37.7039,79.9185,71.8238,102.6680,98.7397,83.2188,36.7977,8.2906,10.0218,145.4106,47.1621,122.6718,-22.4056,171.8639,-31.2416,319.7726,71.8082,254.8292
513.3578,31.6184,511.7418,65.6298,566.8053,101.8036,553.2077,18.8011,385.1884,-53.4371,667.7416,41.2604,629.6852,9.7226,708.4065,20.1489,871.1329,123.1034,768.1406
1086.2330,44.4749,1102.3226,89.1566,1171.2573,105.6654,1136.3955,-2.1456,1038.2286,-67.4985,1246.0588,51.8325,1155.4788,49.3844,1232.8497,74.8815,1344.6678,84.6017,1189.2108
1417.8203,34.4189,1411.8262,97.7459,1450.8112,84.6980,1333.9916,-25.3679,1315.3851,-70.8369,1422.9740,45.9728,1343.1533,51.0371,1329.3177,92.2275,1435.6455,57.3403,1231.5262
1387.1315,47.7071,1341.7635,125.4638,1371.7498,106.9996,1208.4625,27.6592,1193.1616,9.2676,1278.7428,94.2927,1274.5272,60.9108,1192.9280,99.3446,1282.8344,172.0237,1105.1667
1226.1578,129.2937,1179.7019,204.6631,1283.7308,203.9420,1164.6215,136.9637,1113.1270,132.4880,1155.2168,189.6395,1210.6646,84.3312,1157.2328,112.2638,1157.4474,339.3128,1078.1270
1127.5536,221.6746,1101.9174,285.4688,1286.2208,300.8195,1189.2708,216.9798,1076.9365,144.6939,1092.0363,209.8394,1152.7443,92.6152,1118.1364,136.5974,1093.3694,401.1557,1060.5131
1080.2568,246.4785,1034.2147,295.2619,1212.5955,309.3516,1064.6783,243.3866,887.0689,69.3681,984.9616,132.2479,1003.5603,74.4732,946.8427,144.8218,1014.3976,334.2953,945.8447
1026.4098,205.1176,918.6588,236.4563,1060.4579,237.0117,920.8401,231.8909,740.3569,52.4357,857.6035,61.9460,836.5212,22.2161,795.9786,90.7082,918.7377,246.1047,868.1946
935.9166,173.5109,807.4102,207.3920,952.5461,195.8620,921.9515,227.1277,786.7083,107.3174,742.6445,67.2470,744.2520,-12.5387,733.1065,33.6031,819.3176,254.2495,869.1425
794.7365,209.7784,725.4968,261.4019,867.9854,249.9269,904.6953,263.1221,750.4003,139.5147,631.7169,123.8735,672.0596,40.1277,664.6219,65.6345,701.6968,316.5927,790.1864
638.9147,271.2957,625.9049,289.7133,734.4858,287.5685,741.4496,266.1206,506.1750,106.9353,537.4379,160.6730,558.9497,104.9136,579.1689,111.1739,564.3308,273.5005,604.5384
518.2292,286.3949,488.4074,198.8453,587.6330,191.8871,562.2797,173.4896,360.7057,69.2850,436.3044,126.2171,447.0207,65.2866,487.0559,59.7356,416.7451,126.8816,451.7886
419.4362,257.1740,357.5360,78.4783,472.2711,47.8593,462.1785,71.7150,465.0442,85.2925,307.8578,52.0140,363.0657,-15.9546,370.6869,-11.9198,282.1352,24.8154,375.7385
314.8183,189.7305,260.7422,11.5169,362.9783,-17.1795,384.3580,19.4246,529.1052,80.4487,219.9093,2.7302,269.8437,-32.5082,287.6642,-4.4945,187.0289,-23.6285,304.5065
221.7523,64.0682,171.1066,-63.5308,237.5933,-47.9523,267.7520,-40.6609,323.2604,-20.6042,192.7308,-19.8131,178.1605,-26.4045,244.6529,17.5853,97.9998,-99.1285,193.1573
145.3545,-51.6390,74.6842,-163.3023,114.1540,-115.7477,121.0701,-91.5677,49.7731,-99.2912,139.0825,-34.7220,133.7508,-45.3909,157.2473,-13.1752,-23.5445,-151.3162,78.3593
72.4974,-60.5883,9.9707,-189.9145,36.7552,-139.6841,45.8319,-62.1196,-1.1425,-52.1755,58.5734,-14.2524,112.4433,-33.0084,77.3407,-38.2489,-92.7665,-93.5371,56.3432
44.6751,13.4259,21.7230,-97.5046,53.3928,-28.7184,123.1567,12.9600,91.7434,17.6460,49.3575,53.3191,86.8113,31.5419,94.6218,2.5668,-21.6504,40.8023,141.6178
91.4569,111.0689,88.4432,56.0187,128.9073,138.1850,214.1375,84.1838,67.0864,46.9044,93.8966,113.0314,82.9187,81.7021,90.9707,70.0666,80.6235,145.6427,187.5694
133.7910,207.9010,118.3868,163.8477,143.4988,197.9398,145.7356,143.4128,-38.6738,80.1337,83.1147,112.2640,70.1262,74.1849,-18.3405,81.5191,81.0243,134.6277,123.2878
116.2482,235.4134,83.5506,139.4488,84.6762,111.9175,45.7717,126.8368,2.9616,54.7566,23.8653,66.4298,4.7191,34.0138,-84.2670,23.6752,68.6483,46.0914,85.1268
111.8541,177.6319,86.9041,45.3966,81.9965,13.5705,100.9596,26.9941,144.6908,-45.1750,10.2603,35.7641,-32.6094,8.6969,-40.6372,-19.1283,143.4618,36.5915,123.2735
141.3711,152.0020,154.3854,35.9295,149.0153,29.0878,174.5508,-16.9817,135.4826,-42.7829,36.3243,54.9672,0.6573,20.7540,-28.1732,8.6852,177.5902,132.0098,94.9721
99.8231,195.6721,137.1350,108.9722,138.4906,116.7389,73.9908,43.7670,-41.3802,76.0019,7.7916,92.9874,-17.0296,54.5303,-103.1438,57.4011,74.4414,177.9093,-29.9636
-13.0548,224.7520,8.6692,151.9825,30.4198,158.9101,-96.3592,86.2252,-170.0603,99.4240,-80.4080,96.4092,-113.6289,76.8141,-185.6955,80.2528,-17.3168,139.5254,-121.9954
-59.1144,242.3037,-40.4504,170.8817,-27.8524,134.4344,-164.7492,57.7582,-149.7343,17.4747,-123.8039,60.4462,-148.9704,55.6668,-232.9043,78.9342,10.9677,132.9566,-135.6482
-25.7578,260.3025,29.6167,203.7694,7.9962,107.3825,-139.9331,31.2485,-94.3145,2.2201,-84.7692,27.1193,-100.3768,-5.0113,-231.4228,41.6360,39.1753,173.6742,-97.0994
-42.5931,194.0401,33.1774,192.7432,42.8848,122.3653,-78.7677,54.6106,-132.5407,62.4931,-53.2915,25.1855,-73.7546,-37.0637,-178.4034,-7.5905,-39.2985,203.6245,-13.0681
-138.3963,84.8667,-78.8651,121.8125,23.7658,161.5783,-16.5604,115.8848,-228.7631,108.0082,-98.0723,30.6955,-94.3858,-7.1006,-145.1993,-7.9012,-174.7903,211.7458,44.3502
-222.6801,65.4032,-179.2294,41.2484,-38.4332,159.1231,-13.8573,159.4026,-232.1255,106.1862,-184.1945,-3.6395,-148.4577,0.6915,-190.6273,-2.2520,-286.3560,172.7275,17.4547
-249.5799,66.1499,-220.8847,-38.9646,-109.0978,92.3521,-51.3102,134.3745,-88.4234,53.1456,-247.8016,-65.8667,-224.3191,-55.7942,-251.3285,-55.8706,-319.1100,104.2668,2.0063
-244.8313,-7.5130,-225.8069,-77.2611,-124.1912,46.2416,-36.9231,104.2465,67.4588,38.5340,-253.5311,-81.3608,-241.8760,-78.3803,-248.2791,-78.8098,-266.7082,101.4359,49.7920
-246.2282,-34.5115,-195.8621,-21.8738,-89.6198,69.8308,-10.4978,154.4270,64.9873,162.6121,-213.8118,-38.0839,-192.4171,-37.8645,-217.7574,-12.4029,-225.2041,119.0399,44.3524
-268.2742,25.6014,-179.0525,23.4025,-107.0074,63.7429,-76.1096,205.2123,-96.8672,282.6857,-193.4878,-17.7289,-195.1742,-39.0203,-236.4523,10.1306,-265.6444,30.3626,-44.0543
-283.5999,31.7146,-212.9042,-31.9766,-186.5778,-24.3919,-166.6296,153.8296,-236.6115,220.7080,-230.0071,-41.0744,-254.8026,-81.6608,-283.0085,-56.3711,-305.8531,-66.4461,-104.4995
-272.9006,15.7721,-241.0054,-45.9474,-234.1575,-70.8929,-178.4852,83.1506,-213.1184,109.4264,-283.1227,-21.4319,-277.4034,-50.9651,-285.5929,-55.5383,-269.7543,-31.2118,-132.6336
-263.0674,120.5956,-234.0453,82.8529,-250.1420,-6.8521,-186.9549,96.6211,-103.1410,113.0169,-318.2286,65.8165,-296.7389,41.8739,-271.9283,49.8210,-200.6816,17.7990,-192.1007
-246.3243,259.0977,-218.5828,203.0775,-284.8430,57.9900,-256.2482,130.9623,-68.1017,117.4315,-338.0368,127.8038,-347.4470,84.3116,-308.7827,113.5195,-121.7918,-18.7858,-236.2277
-176.6109,283.2382,-171.8030,209.1241,-290.9727,58.9236,-292.3631,96.7530,-173.2451,18.2258,-330.6659,118.1620,-349.6649,64.7165,-336.6861,90.6277,-23.7171,-21.1791,-235.3375
-98.2001,243.4424,-102.2210,188.4826,-251.3661,64.8863,-266.2924,23.9145,-388.6400,-82.4955,-304.0465,92.7746,-316.8787,49.6665,-286.0141,66.3642,24.8682,41.5394,-252.0678
-97.1949,218.1381,-95.0454,179.6495,-242.2006,98.2172,-256.6700,-8.4757,-538.3359,-107.7139,-292.1826,74.5500,-314.8247,51.2727,-245.5750,70.3654,-11.0391,61.3757,-259.7379
-130.6347,197.2588,-129.9448,136.7509,-244.3226,108.2431,-235.6293,25.6869,-398.9150,-90.6962,-268.1395,28.8291,-272.0209,31.9877,-280.5288,66.8510,-41.5459,59.0335,-192.0753
-106.4467,192.0632,-105.9529,93.6023,-182.8528,98.9207,-169.0148,71.0219,-145.2518,-63.2659,-204.6457,-18.9430,-186.7873,-14.0876,-294.3185,33.4452,-29.7992,92.3952,-151.7050
-60.1305,201.1406,-58.6083,91.1727,-133.3553,89.0208,-184.7470,40.3084,-205.5457,-63.4965,-171.5324,-10.1280,-204.5278,-38.3448,-246.6555,-18.7456,-46.6279,76.4113,-241.5672
-74.7529,152.7809,-71.5451,66.7482,-184.3509,35.9229,-311.8302,-71.6011,-453.0865,-124.3452,-201.6445,18.5533,-287.3418,-13.7197,-223.2096,-46.7479,-99.4394,-28.1945,-335.8831
-136.2381,29.8057,-101.6309,-12.3391,-250.6612,-57.1842,-367.4113,-165.9133,-424.3579,-201.3935,-221.6961,-3.0577,-279.4931,2.7531,-239.0817,-35.9182,-134.4548,-108.4655,-310.1656
-178.1205,-77.2052,-107.0454,-64.7054,-259.9796,-101.4425,-324.8585,-183.6832,-282.0616,-246.8985,-216.0300,-50.5374,-249.7287,-43.1120,-251.9514,-47.1132,-150.4962,-114.3930,-262.4369
-165.8094,-94.0205,-128.7997,-50.9406,-274.1361,-92.6257,-343.9200,-193.5024,-393.4811,-291.0056,-224.7426,-79.0178,-296.0424,-109.7276,-275.3766,-115.2200,-153.3219,-136.2996,-288.3855
-127.4057,-48.3008,-170.6989,-46.6474,-321.4872,-132.7492,-400.9370,-253.9397,-470.9933,-340.4669,-237.1080,-97.8665,-328.7098,-127.6892,-315.5324,-164.8102,-162.6737,-215.7894,-345.5918
-188.9986,-11.8145,-256.1691,-75.7767,-411.5197,-208.7653,-429.0547,-279.6056,-347.9039,-309.3000,-332.1969,-84.6177,-389.7543,-79.8404,-403.1490,-116.3864,-318.7525,-250.8630,-485.2552
-486.9948,7.6500,-514.2278,-49.1825,-656.6256,-182.2553,-632.4149,-184.1407,-555.6927,-149.4359,-664.3788,-7.6405,-675.8600,5.0311,-647.2258,-6.3183,-716.4359,-155.0528,-835.4057
-938.9553,53.4599,-932.3021,44.3607,-1048.1807,-54.2658,-1077.4535,-59.0021,-1135.3425,41.3643,-1098.4468,68.5057,-1075.7506,65.6368,-990.3182,66.7290,-1139.5564,-18.0029,-1237.5692
-1235.4955,102.0506,-1215.6658,89.0188,-1298.2183,15.0142,-1356.3875,-21.2358,-1332.8479,135.8070,-1270.7874,89.9588,-1243.3876,69.4375,-1152.6771,75.6279,-1262.6367,17.2656,-1330.3304
-1189.7501,89.7972,-1159.8463,51.5567,-1223.9095,-23.2459,-1208.4825,-22.1536,-1018.8277,122.9750,-1132.8846,100.5828,-1133.8048,63.7678,-1058.5348,76.7190,-1086.5830,-33.5297,-1101.6987
-964.6021,41.4050,-943.1487,13.3643,-1028.3385,-66.1424,-967.0189,-3.0463,-825.9133,49.5480,-969.8033,94.0150,-987.0178,67.1474,-944.7149,84.9265,-890.3545,-67.6154,-913.6836
-816.5775,21.1443,-823.3317,-1.0674,-937.9539,-65.5434,-943.7482,-19.2590,-889.1920,-59.7231,-898.1503,23.1021,-903.6835,27.8304,-920.7578,53.1716,-808.8885,-62.3816,-914.2700
-767.3810,27.9833,-785.9359,-7.0914,-890.0820,-62.9244,-964.4142,-69.7286,-875.7102,-138.8165,-809.9172,-34.7368,-823.3663,-23.9951,-862.0668,3.5083,-747.4884,-44.3610,-906.1055
-703.0853,37.6173,-712.9869,11.3064,-797.8429,-87.4082,-860.3427,-94.0135,-809.4196,-119.1019,-702.7929,-17.4057,-767.4167,-15.7135,-752.7012,-5.4550,-661.8170,-55.8204,-815.3287
-623.0859,37.8658,-646.3672,12.4219,-756.9220,-142.7547,-800.0143,-134.5077,-832.5346,-57.4695,-665.8987,-29.0520,-784.3821,-17.0520,-705.3002,-31.6543,-622.9536,-143.5202,-780.3619
-584.4355,21.1396,-650.9396,-46.8887,-800.6620,-197.5195,-860.9079,-204.0623,-801.0353,-32.1763,-670.7967,-100.6528,-783.0936,-95.5535,-698.4702,-128.7587,-629.1190,-228.5556,-799.7703
-568.2967,15.3462,-654.9709,-79.3508,-801.6471,-188.3501,-848.2327,-198.0289,-654.9825,-23.9630,-646.2161,-109.3830,-687.7436,-139.0432,-640.5452,-182.4073,-612.2219,-190.2281,-755.5515
-554.4600,23.8718,-611.2349,-43.2051,-730.7933,-130.8669,-716.7418,-151.9051,-565.6700,-52.5534,-614.7048,-64.3795,-614.0847,-91.1790,-578.8455,-125.2490,-579.7726,-126.5758,-678.9476
-555.1569,-23.2591,-577.2285,-48.9116,-688.2151,-112.9329,-652.0583,-204.5860,-589.1263,-166.9098,-601.1302,-87.7385,-642.1187,-80.4121,-580.8988,-89.9263,-558.1284,-170.2623,-639.6039
-541.6414,-115.1781,-560.5814,-105.6521,-666.5033,-128.3870,-670.2562,-266.9497,-619.4826,-252.0598,-562.5391,-144.0842,-640.1744,-140.9957,-570.9958,-140.3044,-523.7744,-188.0664,-586.3945
-514.2503,-140.0315,-529.5897,-106.5391,-584.5271,-103.8391,-610.6539,-183.9026,-585.0665,-177.5047,-494.3026,-137.2446,-540.4953,-155.4397,-490.8477,-161.0079,-496.2452,-68.1279,-496.7679
-525.9005,-106.0753,-501.9384,-85.5171,-458.8103,-53.7051,-453.6340,-46.7906,-444.9752,-28.3510,-424.8608,-101.1648,-438.3714,-110.7700,-393.8335,-110.8245,-477.0846,38.8320,-374.7518
-476.8239,-103.4097,-400.7494,-107.5659,-283.2029,-17.4447,-227.5536,37.2910,-146.6366,77.0559,-258.2549,-77.2728,-273.3203,-82.8415,-220.8208,-59.2591,-301.6969,53.9646,-92.5852
-158.7452,-99.9395,-61.4367,-87.6557,57.6394,31.6238,163.4293,122.2965,278.6883,135.8426,131.5651,-37.2931,110.5279,-54.5690,176.2158,-7.0907,139.3759,79.3235,393.7357
362.2292,-48.5552,439.6980,1.2921,535.7333,96.7315,662.4271,196.6068,680.5557,137.8467,606.8612,24.2455,564.7557,15.9098,659.0524,71.1678,623.1924,123.2465,822.9410
747.4333,6.8676,789.1215,71.5789,889.0775,150.9374,968.8101,214.7044,922.8071,110.0266,864.2672,100.2510,795.9090,96.1344,883.3206,139.9017,852.5986,147.1772,963.0125
834.0062,67.7218,849.8473,126.8160,944.4601,201.8234,962.3743,255.1332,964.2780,147.2509,845.3964,172.7634,790.6022,145.1203,807.3859,176.0352,830.1047,174.9173,902.6072
759.1106,131.6511,759.0706,163.2812,812.7276,204.3038,827.0067,297.1896,810.9960,191.5014,742.9508,163.5720,705.6937,138.4966,671.9985,165.1943,734.8099,132.3222,799.8132
677.0516,97.2669,664.0358,76.2070,689.5224,80.7004,710.8761,189.9565,593.8248,117.3426,666.1494,59.6793,620.1708,65.2826,578.2004,75.0193,649.6734,-30.2186,684.5021
629.1711,-3.0358,612.2866,-64.0985,638.8069,-79.5783,633.9473,4.3979,574.5068,21.5503,603.7547,-9.8883,581.1129,-7.3262,504.6809,-27.6735,580.1198,-130.9167,585.9598
610.9842,25.1809,591.2679,-45.9648,605.2969,-109.2372,601.0189,-50.8039,725.8226,11.4127,565.2070,29.6141,572.3901,13.7452,487.2517,-13.4980,538.3465,-75.2344,533.6556
591.2391,170.1315,549.7533,85.1554,533.8732,-35.2754,551.6028,0.0211,640.9969,-24.8921,519.3461,100.0899,479.5194,91.6674,482.6728,81.2533,509.3301,-27.6054,469.9101
539.1664,224.6708,474.5125,118.8139,440.5063,12.9885,424.1779,21.6081,253.4360,-111.4765,408.1220,112.8316,319.6028,98.8873,389.4593,95.2254,454.8577,-32.6290,365.0862
473.2193,155.5478,413.0354,53.9343,373.5187,24.6144,312.8045,10.5398,19.1894,-112.3849,310.6706,49.3001,257.3847,11.4893,275.1603,6.4581,376.0790,15.8989,284.7576
416.8804,80.8909,370.8099,4.7228,332.3293,29.0176,300.5904,-6.8070,112.9571,-65.7497,321.6194,-39.3790,293.5279,-63.8721,239.1070,-58.9746,312.6762,57.2324,263.5989
355.7892,34.5873,313.5170,-20.3439,272.0915,14.3997,290.3744,-16.4938,260.4048,-82.9934,335.7818,-60.0167,272.7664,-53.5023,209.9319,-37.4410,280.1481,11.1244,260.5588
288.9646,-1.9007,258.9324,-41.6975,184.1128,0.2375,212.1150,19.9608,313.8152,-92.8099,244.2326,-18.1215,178.0819,-10.6240,144.4491,0.8717,249.6102,-28.6159,230.7580
