Fp1,Fp2,F3,F4,C3,C4,P3,P4,O1,O2,F7,F8,T7,T8,P7,P8,Fz,Cz,Pz
15.2510,54.1139,21.1852,-24.8486,4.0293,-4.1566,8.4754,-0.3440,14.8089,49.2313,3.5654,-8.2852,13.5745,-20.5974,9.6083,-6.3028,-23.8910,11.1920,21.0314
29.6807,72.2488,16.0568,54.0705,143.3740,15.5924,115.7268,31.4508,71.2463,170.1822,5.8335,50.7598,65.9119,-21.8210,49.4650,17.7907,-10.5378,27.5288,56.3971
2.8681,50.8340,23.0670,106.8351,237.4524,31.4791,169.3421,53.0704,113.5959,225.0766,-26.7856,55.9775,91.1747,9.5245,32.4563,47.9386,32.0668,16.6524,67.9801
-28.5225,39.7646,85.4255,75.5215,218.3333,26.2126,152.8059,39.6635,148.5850,161.6300,-51.8634,39.8889,95.5035,50.1572,4.5501,44.6576,86.6705,-6.1679,52.6768
-11.0909,77.9516,151.3761,45.3123,206.3654,15.0979,173.5156,17.2902,175.6223,121.5442,-25.0950,67.0258,111.5842,47.0647,39.0114,37.3424,117.3463,5.0856,58.9541
53.3069,89.5002,168.8599,91.1909,262.7920,39.5331,237.3097,48.3624,179.9247,179.1709,20.6253,84.3617,141.8321,30.0485,94.9689,75.3509,130.9287,50.0255,113.4558
94.1916,35.2211,146.0518,155.0177,297.2600,85.9400,264.5890,134.1510,174.0006,229.8775,35.0857,38.7764,173.6918,44.7030,116.3671,112.9016,138.5592,88.7531,163.2747
69.6532,10.3058,88.9997,172.0319,266.0053,97.6799,235.1861,191.7613,156.8493,210.3921,39.9777,-3.9999,185.5210,66.6029,109.4144,90.5050,120.0033,94.2484,145.4813
23.3044,25.2587,31.7548,152.3310,218.2896,78.5224,158.4173,167.8933,96.8550,167.2795,75.0016,7.5022,153.0134,79.7803,70.7215,54.3916,85.6569,64.6287,86.1007
-0.1259,-13.3202,31.1928,109.2032,176.5478,66.9438,64.9549,110.4762,12.3396,121.5574,109.8826,33.8015,103.3929,92.9484,14.2194,55.4212,65.7967,33.4124,47.0863
0.9265,-37.6090,48.2194,53.0013,139.2692,56.1133,39.2434,89.0214,-21.9919,77.6544,94.2338,42.5831,94.2151,72.1781,6.5692,50.0881,39.3966,56.3946,32.5406
24.5646,41.1003,25.9148,19.7368,126.8973,44.4932,102.3785,103.7025,35.7348,67.9849,46.7824,31.0212,120.9227,18.3347,55.3931,6.0657,-2.2499,126.6549,37.8460
49.6634,66.0789,27.9941,23.2558,142.0836,53.2821,174.6392,109.6878,150.0484,75.2077,25.4620,3.9733,133.5114,11.4826,99.1244,-35.1625,-4.0670,156.5848,77.8096
46.0541,-27.5891,79.7875,47.3533,154.2308,53.8722,211.6353,92.2715,221.9611,61.4636,46.2166,6.5102,115.1126,53.0393,117.7784,-44.4878,33.0550,110.1282,103.8825
31.0023,-17.1244,74.7770,77.8380,136.9554,24.3157,207.7287,83.8784,173.8788,68.5685,75.6878,54.2647,78.0115,49.6003,109.1905,-21.1510,24.9695,62.2565,59.4783
9.4448,94.7058,-1.9160,79.4487,94.0585,13.2316,143.7457,111.3184,68.2895,130.0056,80.6135,60.5357,45.5190,5.1529,58.3243,44.9517,-43.6431,60.8301,10.9420
-40.8198,25.3581,-38.2902,22.7898,67.3082,18.6418,74.9671,148.5170,38.7367,182.1543,68.0179,-16.2773,52.5764,2.3321,11.5650,117.8306,-94.6490,48.8179,40.5494
-44.2828,-157.6891,-8.5451,-46.3647,95.1241,-28.5811,95.1657,144.3173,91.3221,171.7001,74.7587,-77.5267,95.1214,28.7905,17.4301,117.9929,-79.6864,-7.1784,104.2898
65.7750,-131.9117,36.7868,-69.2804,151.9165,-95.4979,172.5147,92.2893,131.9048,113.4110,102.7084,-59.3720,119.3081,36.2474,28.4227,54.6802,-11.6633,-41.0677,143.9454
144.6892,32.2572,81.6317,-51.4532,185.0995,-80.0759,214.1703,43.9127,134.5800,31.9544,104.1344,-19.5505,105.8068,58.1024,15.3417,23.8048,72.0276,-3.5688,172.3102
78.4589,47.6498,105.6197,-4.4671,195.1530,8.6591,211.3890,43.8819,122.5402,-23.2919,75.4845,5.9674,89.9728,107.9083,27.4887,43.6479,122.9133,65.5512,176.3221
32.2412,-42.9948,109.5445,67.7665,211.6001,89.4025,185.5601,71.7355,97.2316,0.2509,82.8514,38.1925,89.4679,121.4527,60.2853,42.2545,119.5518,115.8604,120.9527
117.3785,-35.3652,138.6647,117.2047,219.9332,121.9150,138.0133,64.5237,81.6099,39.0153,133.4239,60.6206,84.5181,85.2212,69.6414,5.5258,85.4504,127.7046,29.2357
163.5780,62.5776,146.5894,118.8911,173.8712,86.3536,87.4632,-3.6523,89.6995,-14.2618,146.5274,46.3602,58.9271,55.1575,78.7015,-9.4239,44.7673,80.3339,-61.0480
75.8910,112.7413,51.0383,108.6746,78.8838,-4.5140,44.9173,-82.2194,69.8684,-104.1302,104.9945,21.0089,25.7821,38.9639,90.4066,8.9104,5.5315,-19.6247,-118.9241
-5.3387,50.1680,-56.2352,76.0907,15.3000,-74.7219,12.3536,-97.3041,10.1362,-92.6193,71.9094,8.2563,14.3253,6.1608,51.4218,17.4246,-30.0171,-105.2691,-96.8231
-5.9596,-73.8253,-50.2221,-7.6026,24.3101,-77.0701,11.8485,-32.9024,-16.7041,-3.8446,45.1066,-10.9404,21.4236,-27.6510,-4.4313,3.6212,-63.4068,-121.7334,-18.6027
6.4461,-158.6218,4.3316,-62.9096,28.1020,-43.5598,25.2217,51.7654,8.5242,32.8519,-6.1812,-45.5876,9.6612,-32.2951,0.6405,-4.6103,-68.1885,-95.9297,16.5945
12.9394,-156.4933,16.6126,-19.8637,-31.4246,-19.7437,7.2221,79.0439,22.4842,6.9882,-10.8837,-61.6494,-20.7808,-15.8011,24.6750,7.6785,-9.7173,-90.8840,-5.2303
43.7859,-73.5751,13.0469,42.5315,-79.6795,-30.2506,-18.9842,30.0025,-9.4911,-8.9073,76.9392,-25.5855,-36.0142,5.7052,-0.4039,27.0977,64.0283,-117.4274,-27.5583
83.7498,39.7680,8.8472,59.1054,-61.8901,-55.8729,-31.8554,-36.0856,-69.3097,-20.0034,138.7117,41.1268,-38.9792,25.5492,-35.2179,29.7885,73.9247,-116.9143,-56.1164
92.0524,53.8887,0.7564,80.1140,-36.0548,-32.6471,-64.2606,-56.1831,-110.1505,-54.8201,87.8750,81.1843,-35.7132,30.6286,-38.6223,0.2564,49.9699,-44.6080,-87.0302
59.0238,-52.0816,32.6876,104.3833,-18.5519,38.1800,-75.6739,-32.1350,-82.1011,-63.9111,24.5158,72.4131,-4.7055,22.7871,-33.1649,-45.7650,64.2099,48.6459,-55.6023
32.4868,-79.2893,89.0839,72.3621,36.0070,77.4584,-5.6985,8.5580,-10.4345,-21.5166,30.6105,30.4142,23.6044,26.4048,-19.5063,-65.0217,96.6589,80.6997,26.0035
49.3273,1.8140,97.4754,34.9039,86.2220,82.3546,64.5361,63.2896,35.3398,5.7280,42.1462,-31.7299,3.3094,44.4972,10.3977,-37.1127,104.6926,57.0671,88.8403
48.4621,-44.6686,69.5719,65.0573,69.5407,102.7977,71.0619,115.4185,68.1808,-5.4994,22.5106,-73.6678,-13.5071,57.8516,22.9457,6.5096,94.9868,33.2319,140.2455
-8.9260,-171.8886,44.3920,90.8146,35.4167,98.6804,92.7733,121.1808,113.7993,4.0758,18.9698,-35.5582,15.8712,65.1205,15.2197,25.1590,64.4194,18.7831,178.1940
-29.0735,-96.0315,3.6216,40.1532,38.5277,41.3352,129.8143,81.2657,102.9909,33.9089,28.0586,50.7178,21.6413,62.6695,29.0020,16.0693,15.8498,11.1868,137.4165
22.3762,67.4558,-40.3345,-11.2380,47.6370,13.1965,86.8175,44.6819,24.7431,26.1719,17.6294,83.2700,-10.9045,24.9334,55.4745,-0.6447,-5.3708,21.9441,45.9276
32.7359,32.5626,-60.8187,-0.4547,30.8657,36.1877,12.4497,30.4868,-0.0079,-2.4744,20.5445,53.5513,6.1939,-34.0636,55.4299,-13.7611,0.9478,15.0837,4.0265
-25.3870,-67.7753,-99.3802,12.3712,-12.6759,24.0638,4.7766,27.1824,60.1391,4.1240,51.8374,32.8902,58.2907,-55.5388,48.1956,-16.2043,-15.6073,-45.0363,7.9658
-63.2336,-40.8923,-162.3482,-8.5732,-67.0250,-29.3056,15.3383,38.1091,93.0435,36.0483,52.0322,36.1680,48.4284,-31.9948,61.1859,-1.5287,-44.4464,-98.4291,4.1579
-70.4299,-19.5404,-181.6721,-10.1304,-87.4738,-48.9828,-8.5845,51.3692,52.2603,41.2273,2.7600,48.6491,-3.2268,-1.2689,59.7714,13.9997,-46.9725,-87.2404,-9.5575
-70.0986,-72.6617,-153.9350,20.9182,-82.5933,-28.4728,-43.7690,24.7379,-15.0970,-20.5063,-31.2363,80.8092,-28.6274,45.2029,20.1286,2.8930,-52.6124,-66.1081,-53.7888
-36.8431,-104.8656,-127.1510,20.0639,-127.9687,-14.7047,-110.0917,-42.9801,-89.3045,-133.3927,-7.2155,98.0978,-48.4347,109.6887,-17.7945,-25.9597,-98.8684,-91.2962,-137.1891
-11.0458,-143.0307,-102.2367,-45.0708,-194.7704,-37.1175,-196.9306,-95.4960,-151.3246,-193.3522,43.2724,48.6047,-71.4820,112.0497,-30.4895,-39.6406,-159.3271,-125.0605,-173.3770
-45.8352,-175.3142,-89.2325,-119.6199,-172.5494,-97.4123,-199.9152,-102.0627,-150.8482,-137.6891,62.1988,-20.2561,-45.8946,18.4425,-43.5717,-43.6122,-180.6425,-123.1447,-125.5494
-62.1007,-83.7826,-104.6120,-123.1247,-85.0648,-143.9288,-114.0362,-91.3752,-88.8314,-70.6037,32.4909,-31.5641,19.4281,-71.5474,-53.3481,-67.6012,-129.7773,-88.9256,-91.5783
2.0469,23.4009,-87.5100,-45.6936,-21.6033,-123.0130,-51.3853,-96.1402,-27.9817,-90.9820,2.3536,-6.7471,56.9798,-90.2717,-23.3108,-98.4660,-38.7947,-34.1528,-116.2732
68.6132,-23.3196,-9.2793,24.2004,35.1406,-78.3487,-33.9557,-113.3786,-12.7319,-137.5034,10.4457,3.3471,53.2605,-86.8904,33.2663,-96.6395,0.6958,15.5854,-132.0903
80.6421,-104.0527,39.6163,10.0934,90.1940,-71.6343,-15.3665,-122.8455,-32.6847,-151.9618,19.8791,5.1794,47.1920,-80.1184,66.9752,-59.7697,-32.7911,24.4178,-117.9351
51.9812,-118.8154,21.1615,-36.6070,79.2711,-68.5727,-13.1471,-119.2569,-49.2917,-170.3221,2.4891,4.3328,57.6403,-32.8033,65.7251,-19.5332,-50.9769,3.9890,-107.7883
-15.6774,-170.2909,14.5609,-19.7694,37.2220,-32.7682,-47.0589,-113.2542,-57.4379,-186.2628,0.0004,-18.0813,63.8423,18.8250,38.8238,-6.7943,-11.3088,-4.9244,-98.6176
-67.4710,-200.3715,48.8751,47.0077,46.5367,-10.9820,-84.2908,-107.7699,-89.2013,-161.0824,22.0945,-47.0876,46.3277,12.9335,-11.8372,-29.5824,33.5870,-3.5061,-91.1505
-14.1609,-80.1284,75.0826,75.8358,65.2936,-38.7289,-105.9212,-100.7763,-125.6674,-123.1289,24.1738,-51.8716,28.8631,-19.3580,-60.9578,-49.6274,52.2656,-17.7126,-110.2872
91.0044,25.9003,74.7826,33.8911,33.9723,-85.4376,-127.8373,-106.5975,-118.5276,-99.1664,22.8958,-45.2477,34.5609,-42.6700,-81.1198,-24.8020,49.9199,-50.1965,-136.7140
116.0168,-35.4148,54.2158,-40.3825,-14.7218,-122.9692,-168.4871,-134.5693,-111.5990,-84.6828,59.9592,-51.8860,28.8766,-93.2258,-90.8575,4.8731,29.3484,-91.3038,-136.5190
62.2115,-101.4006,20.7907,-79.4372,-55.5132,-153.3820,-207.7446,-159.4408,-154.4565,-104.3789,87.4055,-51.1654,-9.3882,-151.5634,-102.5186,-25.7290,30.4107,-122.0768,-122.9274
23.7730,-67.6037,10.8171,-35.8056,-81.2527,-160.8147,-181.1856,-152.4453,-163.1330,-144.8186,62.0356,-13.5741,-35.5718,-121.3954,-83.1926,-79.3940,85.9844,-106.0083,-105.2975
34.3385,-64.6459,35.5436,44.5543,-67.0370,-100.6234,-97.6934,-118.1194,-89.0579,-143.6936,40.4142,33.1685,-34.9485,-12.6852,-32.4433,-83.7823,133.8832,-42.2010,-67.0783
59.3018,-120.5748,43.1633,71.5045,-52.2991,18.6908,-74.0118,-81.4613,-51.6597,-130.6949,49.7188,38.5290,-43.8149,48.1497,-3.3585,-62.4325,117.5584,4.4927,-29.6697
60.2101,-110.8390,12.8569,57.8815,-84.2410,90.3903,-129.2652,-70.8181,-102.5242,-170.4952,40.3395,12.6677,-51.8240,26.1131,-13.9881,-64.1415,92.1538,-9.9249,-32.9365
47.2023,-16.0989,-8.6614,66.9386,-88.7390,46.6664,-140.5161,-100.3444,-120.7928,-205.4853,24.7073,4.7283,-31.1948,4.2073,-34.3488,-72.5361,106.4716,-44.6802,-57.8958
60.3867,67.5676,0.3333,63.8565,-13.9593,-30.4113,-86.2532,-139.7648,-65.7028,-170.7744,54.7433,21.4466,-14.3338,2.3378,-49.0326,-73.9941,117.0697,-54.2682,-58.2515
77.9576,70.8965,10.3484,13.9196,45.6464,-60.5874,-62.6160,-143.5239,-31.3352,-118.0318,87.6391,42.3235,-26.5356,-37.1325,-57.1358,-79.8179,97.5145,-58.3103,-37.6984
55.1839,2.4090,6.1618,-6.8048,28.3616,-83.1876,-69.8375,-119.1542,-34.1819,-97.8538,76.1607,66.9623,-43.5934,-96.2875,-53.6303,-73.3036,84.3830,-76.4052,-33.1798
47.2441,-50.6812,-2.6469,31.6722,-21.2692,-111.8312,-58.4269,-106.5885,-26.0960,-109.7189,78.2678,80.6133,-56.4863,-100.0874,-49.7955,-57.3951,86.6432,-78.4568,-58.1336
107.3682,-11.5390,-15.0937,57.1912,-81.4845,-83.3302,-65.2977,-107.1849,-34.8540,-152.9259,108.8262,52.9074,-65.1961,-60.4488,-59.0928,-70.0647,78.0180,-46.3776,-94.5672
148.3648,72.6504,-27.2780,69.6714,-122.9485,-5.2734,-97.1427,-95.9749,-81.8451,-175.9965,75.3785,9.9214,-50.8074,-34.5278,-65.0845,-82.5694,72.3699,-8.9581,-109.4078
103.5155,104.4430,-16.7854,114.3750,-76.4975,52.9051,-83.4142,-72.0449,-105.5527,-119.8162,-15.0100,6.9024,-29.6348,-5.2386,-53.1238,-39.6804,104.1771,0.2284,-78.5619
58.3919,73.7368,20.2910,136.4147,7.3762,67.5382,-43.1006,-54.8367,-82.8619,-55.3788,-30.3544,32.9583,-39.8606,45.5781,-41.0003,8.7237,150.9239,-30.9288,-25.9322
70.0960,21.5894,47.7875,97.4539,-0.9225,30.0010,-59.8058,-59.0921,-62.8424,-68.9000,32.9555,39.1738,-62.4513,61.8051,-34.8685,-0.8300,155.9042,-78.4500,-8.1583
65.9747,-43.0058,38.9748,60.8573,-66.9378,-45.6239,-95.5220,-75.0914,-49.6322,-87.7935,38.8977,15.1259,-55.2521,35.6517,-6.0531,-15.5876,114.1541,-85.5209,-24.2194
6.4022,-104.7973,9.3114,30.8294,-59.4195,-74.4327,-58.0266,-61.5064,-3.1532,-21.9700,-29.0888,-26.7833,-27.5610,37.0037,42.7932,15.4386,68.0869,-45.1931,-5.3194
-47.7633,-106.0350,-23.2680,-27.7974,2.1034,-29.4671,11.0343,2.3248,58.4766,68.9936,-59.3950,-69.3062,-18.0836,48.1154,51.2333,43.6537,39.8934,-25.3746,59.5009
-54.6217,-21.6794,-52.2769,-34.5302,8.5574,1.2849,12.3879,65.4669,72.3900,82.3993,-28.4389,-77.1542,-42.2841,-10.5707,1.0394,33.7809,33.7829,-42.3419,89.1471
-36.1815,80.3606,-52.0026,52.5962,-40.9148,-10.0234,-30.0063,67.2721,25.2554,10.0137,-1.3420,-42.4996,-73.4438,-83.4483,-33.7150,15.1558,62.0028,-36.6145,52.7589
-11.2504,111.0540,-11.8432,103.7422,-68.7569,-9.1896,-31.8735,23.0344,-31.7979,-72.8202,3.8986,-10.5091,-71.9285,-59.5866,-11.0130,3.3338,104.8248,-11.2571,18.7805
23.0299,64.1835,15.9163,62.6123,-48.1533,0.7106,-5.5468,-5.9450,-46.8185,-84.9435,-5.1493,-4.0196,-48.6245,11.6136,6.5829,-6.5020,104.3648,-15.6602,23.4714
40.1241,5.3945,-18.9761,37.0661,-16.8624,6.5605,0.2200,11.8798,-14.4674,-20.4442,-40.1084,8.7617,-43.3086,26.9044,-19.7931,-5.8226,41.8100,-21.9937,33.2550
-10.0396,-19.5512,-90.6416,46.2876,-9.1968,38.7001,18.0633,61.9994,33.5964,53.2578,-77.5312,40.6766,-41.0988,23.3917,-35.6954,9.4459,-38.1650,-1.3740,47.1268
-107.0238,-28.2326,-137.8213,5.9754,-15.7277,63.6791,67.8413,102.7485,62.7441,86.2849,-78.4251,50.9984,-11.4993,56.0379,-10.5627,35.1056,-86.0338,-11.7188,86.8332
-153.6625,-54.9822,-129.4863,-68.1882,-29.2683,25.4026,66.1438,98.9391,48.2589,78.0002,-58.0089,1.9844,16.8519,55.4156,15.3619,59.6136,-91.8919,-69.2821,103.6555
-116.9998,-82.1518,-82.7639,-109.8151,-82.9524,-29.2703,-32.6046,63.7726,-17.8208,48.6764,-46.9569,-80.2288,15.1125,-23.5315,15.4727,50.6057,-91.3234,-95.9354,37.2594
-71.2546,-62.0506,-52.2755,-114.9305,-162.5540,-42.8194,-133.6679,46.7975,-93.4821,34.2202,-53.0508,-113.1726,-4.9891,-92.2220,-5.6237,2.7692,-119.4857,-51.8560,-57.5318
-67.8271,-12.1308,-68.5685,-83.1376,-161.6250,-20.8227,-121.2778,73.1591,-88.2090,51.9907,-88.9656,-57.8029,-36.1143,-79.6252,-32.1076,-27.9983,-147.2662,33.8330,-55.4527
-87.3935,-2.3778,-92.0400,-39.4397,-41.7600,49.3512,18.4663,121.6516,28.7571,71.2164,-135.3718,7.0788,-54.0573,-26.0833,-23.5826,-7.1692,-133.0166,121.5025,70.9429
-114.2149,-43.6580,-84.3971,-62.4144,71.3183,148.9772,173.1189,151.2804,138.4485,65.2886,-127.2525,-2.9966,-20.8815,25.2123,21.1059,28.7332,-105.1531,158.6916,192.5922
-138.6536,-86.8992,-60.7966,-112.7687,70.4084,176.8349,175.5453,132.7986,99.8368,37.4285,-68.5685,-36.6376,23.5274,76.0503,25.1686,44.5096,-79.5362,131.2004,171.1046
-126.1645,-90.0782,-16.6363,-46.4799,18.8540,118.9745,20.8096,79.0381,-36.7802,-1.9504,-37.5623,-6.8767,18.9094,100.2138,-28.0400,45.0760,-4.0266,108.8788,46.0306
-60.4898,-20.8950,74.3673,96.0857,20.7162,79.4726,-75.6976,42.2055,-89.9088,-18.3580,-35.3581,47.7045,11.6824,63.0143,-46.1808,40.4018,100.6195,126.4007,-15.1667
31.3504,87.8252,159.4213,133.0558,69.5313,84.1135,-4.6904,50.6185,-20.5213,7.2284,2.7945,50.5444,52.8939,5.3389,-2.2127,34.1120,134.6062,131.5928,36.2847
106.9978,107.1526,158.7586,75.9961,105.9735,85.9587,79.0602,70.6138,38.8208,14.5818,61.3178,28.6289,85.9045,-3.8327,27.9945,25.3672,114.6493,113.7148,83.7275
125.4727,15.9862,106.2523,73.0051,111.0224,94.7185,73.2031,63.8481,28.8694,-25.3323,73.6306,37.2220,69.3596,36.5840,21.8085,10.2771,133.8426,107.9393,66.2398
77.8261,-14.3914,83.0618,113.8528,85.0635,112.5207,62.8673,43.6712,22.5828,-33.7567,39.0508,64.6381,42.9140,87.7742,11.2113,2.3298,158.5314,95.5293,49.5701
13.3512,78.1670,76.7401,108.0118,30.6247,102.2033,67.9968,39.0498,37.5236,8.4402,3.8608,89.6552,25.1554,124.5628,-11.2850,13.4346,114.8849,68.4540,55.1876
-10.7563,141.5089,46.8335,95.2688,-12.3707,94.1539,24.6973,45.8276,9.7311,14.7229,-0.5054,111.7396,3.6905,123.2636,-37.1810,19.2202,56.3521,87.0164,25.6402
8.8913,116.2704,22.3113,134.8453,0.3529,135.2074,-20.2462,48.2004,-43.4535,-19.4972,21.3054,109.7090,-17.1740,87.5927,-15.9578,4.2160,43.3225,159.4004,-34.8888
25.5386,88.6896,18.2978,160.0658,40.7925,176.9612,1.8739,48.3136,-29.6686,-24.4169,15.1935,70.8275,-42.5153,69.7271,38.0554,-3.1098,30.2832,204.9274,-61.2045
-13.6170,53.3728,-13.8203,101.0310,42.6159,165.1715,42.2164,48.9758,51.6116,-9.1440,-55.8721,21.8929,-72.1856,78.7368,59.7044,8.7397,-16.4722,175.6180,-42.5873
-102.0371,-25.0341,-74.8813,6.3397,-1.3015,118.9399,54.5266,44.8099,100.2369,-0.9869,-125.6435,-16.3858,-79.5927,58.1301,51.6445,14.6622,-67.6478,99.0596,-17.6202
-160.7370,-63.6609,-99.9388,-42.3667,-47.0259,55.7405,56.0389,40.3750,68.1772,27.9612,-114.4934,-33.4264,-74.5012,13.1649,56.0494,10.9238,-115.4720,18.2076,-6.7154
-143.8333,-28.5682,-91.4041,-44.1502,-83.1352,-21.9095,35.7243,40.4837,14.1214,63.3624,-61.3924,-13.0875,-90.8423,7.9497,62.4465,14.3954,-166.9309,-51.5945,-8.5721
-95.9932,-8.7346,-114.3122,-53.4208,-129.7830,-72.9993,-13.5714,34.6429,4.3823,60.8760,-46.8642,14.6838,-111.7994,33.1859,38.2159,26.8161,-184.8261,-109.6462,-7.9829
-54.5042,-22.3809,-145.4207,-71.5157,-152.4984,-52.9386,-35.0471,23.1519,27.4759,47.3900,-61.9920,4.1367,-114.9297,49.7630,-8.4645,45.0271,-120.5604,-111.2140,11.2587
-12.3137,-13.6666,-90.6815,-32.6413,-68.4289,34.2528,0.5072,24.3230,29.3155,50.0699,-55.2865,-4.2882,-109.3136,82.8900,-39.5760,57.9706,11.8449,0.8525,29.6875
0.8878,-2.3208,39.9492,62.4085,97.6591,140.6652,39.4423,36.2490,0.5828,24.3559,-32.6497,30.6155,-78.4169,123.0539,-30.0845,42.3032,114.4688,154.4971,19.7321
-48.5487,-23.0028,122.2793,97.4931,175.3208,193.8881,29.2568,39.3017,-17.5221,-44.3039,-36.3178,32.3957,-19.2319,94.8845,2.4650,10.3969,92.6796,199.9258,4.2679
-105.3337,-38.1548,86.9796,17.1754,91.6877,150.7064,-15.0169,33.5055,-9.8833,-89.3846,-67.0662,-35.0785,7.6983,15.1316,18.8070,5.1584,-16.3155,134.5758,12.3520
-107.7561,-26.4727,-15.6166,-71.2328,-7.2259,51.0342,-43.6458,27.2723,-7.5331,-59.4718,-82.2478,-55.0681,-19.0883,-20.6816,14.4111,24.2904,-88.9083,65.0983,19.4544
-97.3935,-17.1972,-114.9456,-72.2263,-30.8154,-28.1983,-47.7473,21.9466,-22.8162,18.6435,-72.4122,15.4807,-60.7819,-11.4678,9.8695,34.4591,-89.6800,9.7089,4.2481
-129.3712,-16.0761,-180.3218,-33.2879,-80.8598,-52.1021,-61.9695,34.8975,-29.0390,85.5362,-80.0837,45.1036,-117.8564,-12.5464,-2.5239,43.3836,-64.8633,-38.8074,-2.1623
-166.0960,-11.7826,-177.9746,-18.9446,-167.0356,-29.1797,-74.5941,77.4682,-10.9539,117.9633,-108.7566,-17.7867,-176.3483,-5.9176,-32.5694,70.4593,-14.9526,-26.3925,23.0611
-156.1125,-21.9495,-85.5059,-11.6268,-147.9346,15.3268,-36.2670,110.8143,17.1096,124.2184,-99.5886,-60.6441,-157.3534,32.0044,-49.0140,93.4252,58.9643,18.0748,49.6220
-126.9319,-58.8064,14.9060,2.2533,-55.0686,40.5019,14.3209,91.2822,29.1493,91.6438,-43.6260,-32.8787,-69.4657,52.1849,-32.7060,89.6390,76.4359,-8.5417,33.1202
-121.7497,-92.9570,-6.9370,-11.4066,-68.1706,7.0171,-19.5181,29.2458,-10.7514,14.7827,-9.1345,-4.9345,-22.2478,20.7647,-19.9775,70.5893,-5.2813,-83.5152,-42.1749
-128.1496,-91.8455,-133.1148,-58.6051,-178.3896,-73.3435,-137.5952,-38.5918,-116.7232,-48.2863,-30.4373,-8.9860,-37.9397,-20.8194,-41.0699,43.7564,-113.3932,-114.2565,-150.5225
-137.8908,-58.4623,-230.5720,-95.4498,-253.7969,-122.6938,-255.9419,-77.9262,-228.8934,-45.1108,-79.6104,-8.4677,-70.0094,-22.6384,-72.4370,3.2170,-184.2945,-108.5107,-234.7507
-187.6703,-11.9255,-287.2270,-85.0040,-289.2249,-81.8926,-317.2462,-63.7353,-262.3220,-6.5921,-136.3316,12.5637,-129.2297,13.3533,-81.6479,-28.9627,-217.9907,-97.2477,-246.8948
-268.9690,25.5745,-364.8917,-25.7196,-307.1790,0.6874,-306.0972,-26.8247,-217.3056,9.8658,-186.6754,33.7762,-201.5402,51.4850,-75.7382,-13.3578,-181.0539,-65.3504,-188.5621
-292.8017,14.7466,-365.9741,50.8604,-260.4464,40.9476,-251.1546,-36.1872,-169.4024,-13.9750,-188.9933,37.2500,-215.1636,72.1260,-85.9910,38.7964,-33.8632,-43.6317,-111.9985
-206.8390,-49.5450,-169.0599,87.2926,-171.0777,39.0484,-214.9831,-85.6897,-160.8936,-55.4879,-113.8486,28.0076,-184.1195,79.9779,-120.1983,66.2906,136.6458,-67.9954,-77.4906
-61.2552,-85.1915,94.0409,43.1374,-109.5285,27.3220,-204.7724,-105.9676,-169.4992,-74.3617,3.9141,21.7473,-175.1600,72.4584,-147.2639,46.9033,187.6578,-84.8084,-92.8149
56.8712,-34.8125,198.2216,-48.2742,-70.6104,-11.6015,-175.8455,-98.7056,-161.7964,-77.8566,81.4768,15.8262,-162.4476,47.3960,-143.2598,18.3666,115.5175,-61.0785,-108.7132
83.0514,22.0817,110.1994,-100.2199,-50.4623,-72.8391,-132.9958,-114.4283,-125.2649,-112.7794,66.0292,0.8869,-106.3653,22.4494,-122.5212,-0.0875,16.2439,-55.1088,-91.0954
12.8652,-9.0869,-81.7674,-85.6617,-75.6469,-103.9576,-93.9259,-128.2829,-69.8683,-143.7798,-5.3537,-14.0831,-54.2765,-2.1372,-90.2840,-15.8111,-97.5676,-86.3620,-56.4445
-81.7803,-101.5852,-292.3750,-90.1310,-98.7232,-107.8900,-24.5868,-91.5894,-18.8048,-95.3360,-67.0382,-30.8128,-40.6191,-41.1745,-25.2068,-7.3818,-254.4499,-105.7849,-27.9580
-148.8129,-173.7719,-409.3504,-174.4991,-75.9384,-127.6632,64.7759,-43.8645,21.3383,-13.3137,-123.7720,-64.1967,-44.4441,-67.7972,46.1342,29.4161,-372.7889,-105.9238,-15.4279
-225.9543,-173.8203,-373.1349,-239.2952,-65.6955,-144.6790,96.9578,-40.9201,61.1435,20.0581,-197.4149,-90.4749,-69.1513,-55.5003,52.2385,36.8886,-340.5410,-107.4299,-24.9246
-314.0457,-99.4066,-252.3162,-160.4265,-88.4609,-119.7310,62.9169,-56.2870,77.8117,21.7767,-229.3960,-76.7350,-116.0750,-40.6243,-2.2130,-3.3212,-167.1512,-89.0823,-40.8680
-300.8289,-21.1644,-103.2719,5.5555,-80.1411,-67.3578,18.3558,-52.1045,25.1656,-2.2137,-162.2791,-47.5000,-138.7183,-49.3222,-39.3477,-30.7199,57.2197,-40.6965,-44.1432
-128.3248,-3.5994,66.5682,114.8463,-53.4356,-24.8793,-30.7737,-52.3509,-67.7558,-73.4718,-51.4199,-35.7127,-123.3049,-52.5856,-46.9227,-24.6752,226.2937,-9.7089,-58.0086
90.0961,-4.9190,159.5472,134.4679,-81.3016,-29.4577,-88.8882,-77.0856,-96.3030,-107.9111,13.4792,-27.0274,-108.1347,-41.1004,-65.4338,-18.2021,221.5303,-35.0397,-99.6743
196.0544,16.6481,74.2989,85.2600,-139.9351,-101.5525,-100.4676,-92.6859,-32.3080,-42.7134,20.7812,-11.8025,-91.5302,-37.1844,-64.9967,-1.5689,29.6260,-95.3817,-119.5885
138.9277,10.6239,-102.0899,-52.1780,-149.0085,-190.1853,-34.2329,-71.9822,31.6833,23.8816,2.7416,-12.0898,-44.3651,-51.8753,-5.3739,37.1810,-192.8660,-139.6365,-77.4174
-13.3817,-46.3032,-218.2642,-218.8265,-98.8876,-221.3260,54.5732,-33.7286,47.0661,31.3810,-35.0009,-39.3223,6.7865,-89.1658,50.2773,46.7610,-314.0012,-133.5511,-15.1074
-165.0762,-111.9933,-263.2673,-259.8638,-34.6651,-197.7118,113.3367,-1.3720,80.8384,39.4391,-104.0170,-79.3731,19.4045,-117.5950,47.2068,2.4048,-335.9502,-79.9893,18.8911
-269.1495,-154.0631,-274.7918,-140.2933,20.3819,-147.3164,160.9827,21.5951,160.1483,42.5634,-187.1749,-96.5084,9.8891,-80.3069,48.6420,-48.4667,-244.6813,-7.5273,37.7107
-290.1175,-112.3285,-195.0076,21.4874,75.4525,-61.5719,212.5975,31.9751,196.8430,-3.7920,-227.5722,-54.2850,13.6547,-12.1953,92.1580,-73.9953,-3.8073,57.4015,58.8663
-168.4881,52.5063,26.5400,160.1865,125.5510,30.6823,209.9358,30.3927,134.2296,-54.6463,-176.8224,29.8945,29.4488,4.0720,98.6878,-78.6939,279.1042,99.9224,63.4343
69.7393,212.4836,278.7828,285.2125,139.1912,68.3673,123.6569,35.6902,42.5928,-72.6795,-48.4215,102.6271,44.3420,3.1267,37.7240,-67.0151,427.9484,112.0755,52.1625
273.0672,233.5054,373.8167,339.0992,124.7170,64.8481,54.1913,56.4824,21.3234,-71.3334,93.1665,146.3837,59.7086,41.3785,-0.4568,-58.6839,400.6236,101.5655,64.4970
335.0563,188.7377,275.6773,258.8748,130.3187,70.9523,83.4712,68.0707,77.3031,-37.2746,176.8068,153.9135,75.9252,58.7771,27.2959,-61.8783,259.6266,92.2459,94.3443
280.6469,161.7576,126.5011,119.8089,143.9364,80.9510,122.6626,50.7710,117.9738,8.2481,165.4015,101.6430,90.4393,33.5562,54.9781,-37.5042,73.0426,95.7383,70.1934
171.5490,103.0055,39.2638,46.7365,124.8034,80.0425,83.4507,26.9664,70.7537,10.0940,96.9743,23.9835,109.9815,34.3362,43.0131,13.5787,-70.7482,101.4225,-12.1492
66.3489,35.8981,14.1907,54.5360,113.4946,88.7004,44.9974,30.7813,2.0313,7.6444,47.7767,-11.8950,136.5474,35.9544,20.3911,17.4030,-104.6912,109.5251,-50.2326
11.3275,45.0351,44.5264,83.8359,147.4678,112.3301,76.1675,58.5871,17.5715,40.6778,25.0836,-22.7670,151.2908,-15.7111,3.2775,-37.6079,-53.0612,141.1138,-9.4112
-1.8072,68.1775,130.9384,113.9672,174.7659,142.2791,102.3437,76.2631,72.8028,33.7260,-8.5420,-47.4248,140.0664,-39.4099,-5.2032,-73.8080,39.0891,196.1476,27.2055
33.4555,43.5560,237.1593,163.8875,184.6662,187.1208,81.0592,73.2408,66.8790,-24.1513,-15.7018,-38.2128,122.7930,15.1076,18.8939,-64.2106,160.8498,239.9291,40.2030
164.0900,76.8311,334.2131,225.8486,229.2103,233.9308,79.4816,77.5364,44.9255,-24.7073,53.1626,31.6366,122.5778,62.3158,65.3716,-40.6447,257.3509,240.9246,80.6892
311.5939,204.1647,377.3145,246.4951,261.4515,232.6892,111.3355,93.1874,77.0795,36.2776,128.8367,82.0665,121.0752,73.9056,74.3127,1.7817,231.7193,179.0400,100.1509
309.9546,272.6322,278.3333,182.1073,190.2048,153.1901,103.0455,68.9891,89.0020,55.8795,130.5923,62.3524,91.9549,89.8868,32.0235,59.6415,80.8863,44.8017,34.0797
187.3141,193.4566,80.5392,59.2247,62.5065,26.2483,35.4923,-9.8181,26.7428,23.4236,102.2055,27.6576,52.8447,81.0155,-7.1763,70.8058,-72.5159,-100.7551,-35.2486
111.3586,55.2234,-15.0696,-42.5906,-10.4299,-61.6719,-25.8909,-58.2765,-27.6055,14.2111,92.2189,26.1901,26.2857,40.3348,-19.5347,22.4655,-111.8119,-130.7629,-35.2253
100.8910,-27.1100,48.1340,-50.7623,-8.7779,-32.0974,-38.5637,-10.5817,-35.8728,58.0299,60.5346,39.3855,-0.4753,30.6621,-28.8308,-11.8181,-21.6948,-10.3385,-33.9716
92.9475,-10.8060,143.5867,65.7641,28.9169,88.6013,-34.1382,68.9732,-45.1540,103.0607,10.9990,46.4889,-18.0383,39.0132,-26.5024,-4.0410,145.4477,136.7620,-59.2762
119.9039,67.1043,246.8011,250.5332,75.1628,189.9280,-38.6595,97.2349,-38.2843,85.4132,19.4120,56.2837,16.4814,15.9511,14.8601,-0.9687,311.8269,200.7460,-40.7875
187.2068,123.9331,387.4238,349.5320,117.5296,213.7489,-6.9102,106.7283,17.3338,48.1577,78.1187,68.7984,87.8448,-0.3928,65.5009,-8.0144,373.0742,204.4148,18.4897
214.8464,126.6416,441.3502,265.5642,161.4964,185.3556,82.7361,157.9516,71.1368,95.5741,108.9806,62.1922,133.9929,16.3683,75.4425,11.9226,271.5009,188.9232,60.3694
192.4520,112.9720,326.3613,97.0653,207.4516,132.2199,155.5970,214.0275,101.9186,190.3259,110.5825,39.9830,156.3042,25.3898,61.2221,44.6952,97.0582,136.3488,96.5510
162.7193,95.7371,173.6734,-6.2284,229.9790,74.0762,174.0655,213.7611,151.1880,208.2176,115.9856,41.7806,189.6469,26.1776,77.5207,57.4940,-9.7436,60.7471,136.1180
112.9206,37.4848,93.6185,-33.4771,210.3867,48.3752,189.0796,175.6951,188.1416,161.6375,93.8693,65.8314,206.1126,41.0925,123.6977,68.2138,-32.1352,25.7877,129.5783
50.8984,-58.7071,68.7474,-30.2655,154.1562,69.3003,183.0212,137.7072,143.0602,114.4202,36.6474,59.5375,170.8744,51.3005,136.9293,83.4472,-14.0732,36.4553,71.5029
34.7785,-111.5087,97.7601,11.2833,91.3240,107.6457,102.2636,89.5385,45.0197,38.2103,10.0466,30.0668,112.9243,56.4482,83.8772,64.4681,55.8723,35.9071,14.5315
60.3474,-62.5143,152.4387,66.9418,71.1376,130.0785,26.4509,34.3234,-24.7939,-40.4058,27.8028,40.3383,65.5828,74.1461,17.4207,26.1354,139.2420,8.2566,-10.5562
79.3323,23.5176,128.3331,68.9173,91.6215,119.1515,26.4591,16.9411,-36.2786,-17.4985,42.5150,75.9401,37.6558,85.1495,1.5628,39.0914,122.1487,-17.8658,0.5754
83.0821,39.3306,26.7491,24.9154,91.9481,78.9112,15.2413,43.1083,-8.7662,72.5378,64.0694,67.5608,46.2259,78.5441,20.8626,91.1762,14.2215,-39.5097,33.6359
58.6797,-13.5146,-40.5312,-16.7026,72.7182,35.2171,-29.7974,61.2294,12.5097,96.5959,107.2008,22.2607,81.2181,65.2625,29.5898,95.2808,-59.4293,-71.1253,49.9162
-12.9912,-58.5918,-59.5403,-63.6526,75.4060,-2.6878,-8.0044,38.7597,3.1965,39.5779,106.9763,-3.9811,94.0072,38.2100,25.4687,45.9498,-79.5088,-105.3169,32.0888
-79.6329,-75.5945,-86.2502,-115.1014,55.4700,-47.2085,33.7873,-15.4509,0.5258,-19.6129,50.0752,-0.2983,76.9650,11.8835,10.6953,20.0442,-106.6174,-128.5679,-6.0217
-79.7247,-94.9453,-108.6970,-131.0208,-20.7901,-77.3030,-28.1068,-75.6788,16.5094,-43.9009,27.8023,7.8656,64.6338,11.1666,-17.9635,37.6920,-128.4814,-130.1638,-60.1559
-46.4231,-133.1447,-110.9395,-121.6483,-75.7964,-59.9125,-113.5391,-100.3491,-10.6245,-56.9164,55.9546,-13.7624,57.5888,-0.0506,-20.4173,50.7651,-124.4591,-100.4047,-115.7020
-36.7244,-177.2610,-113.6482,-123.5062,-86.1001,-32.1040,-109.4999,-73.8473,-78.3217,-88.8112,59.9509,-73.4519,32.7299,-38.9853,13.4045,38.5709,-124.6303,-78.3407,-131.3493
-39.4719,-175.8503,-98.4262,-130.1016,-117.0225,-61.4797,-90.4296,-51.9206,-90.2105,-113.5005,46.2778,-102.2532,-11.5017,-44.3567,5.9885,20.4339,-123.8618,-135.3447,-91.3798
-25.9252,-99.5918,-52.6343,-146.1248,-137.7103,-132.9104,-97.1014,-75.4132,-31.1731,-87.0506,54.8421,-44.3299,-63.2230,-11.1760,-58.3077,5.8185,-98.5343,-230.7755,-16.0498
-1.3206,-20.7183,-23.7931,-174.7114,-80.9957,-156.2391,-38.4144,-84.1125,22.5706,-43.9295,41.3850,19.7871,-97.0124,-6.7214,-85.9418,-9.9404,-59.0441,-205.9042,68.1155
28.2681,-6.9034,-18.0074,-142.4364,-1.0445,-74.8874,65.6098,-19.9999,54.8350,-20.5711,2.6829,0.7797,-82.5679,-22.7448,-63.3677,-24.5484,8.4075,-24.8146,124.3109
65.8459,-14.4962,16.9106,-25.3629,47.4421,65.1685,91.2975,65.7600,76.6770,23.2008,24.5300,-40.2453,-32.6855,-6.4776,-62.0943,-29.6838,97.8248,134.9624,129.9595
93.5923,-16.8550,67.5013,47.4450,82.4209,148.4887,41.7234,102.9168,46.7227,71.4784,94.8759,-26.5535,7.3820,24.5041,-62.6587,-19.6998,108.8227,137.4563,109.6074
90.1501,-59.8543,72.2767,-2.3054,77.9888,115.8536,10.6351,102.9061,-17.2898,63.2896,112.5492,-11.1553,20.6164,33.8407,-25.0104,4.4563,18.5838,61.4164,90.2585
72.1282,-113.7626,45.7982,-72.5400,28.6869,43.3911,22.0260,106.4772,-22.7379,64.0245,83.6418,-47.4791,23.7547,25.2521,-10.2930,30.9796,-30.4967,31.9798,71.6190
73.7595,-96.9174,48.1892,-75.1699,31.5719,30.2518,38.2484,117.3966,12.1985,127.1778,75.0699,-76.3813,38.7087,15.7181,-32.3148,44.9834,8.5870,51.2327,52.9713
96.6608,-31.4002,70.3605,-54.1226,98.4623,57.0957,25.4586,117.1633,-16.9537,139.0461,69.0716,-41.2099,65.4473,29.1809,-11.9303,48.4864,2.6647,61.3986,22.9185
115.2841,11.1938,53.7059,-65.7289,107.3126,50.4431,-10.2125,90.3334,-77.9019,65.1664,38.9878,14.5518,70.8931,64.3019,32.4416,51.6964,-85.1023,37.6460,-32.3130
113.6830,10.4051,1.0319,-104.7417,34.6223,6.3667,-22.5936,34.5858,-54.1124,29.3185,23.4984,24.2801,52.4242,68.7421,21.0387,40.4680,-137.0785,-14.4850,-77.9622
93.3328,-35.9431,-14.6806,-135.1623,-16.0205,-45.1524,0.4893,-32.5029,24.8308,35.6732,40.7030,-9.2154,66.9931,24.5407,-8.6347,-0.6963,-114.9355,-68.6895,-81.6888
66.3975,-97.2316,28.1297,-127.7687,-4.5896,-99.4531,15.0091,-82.3161,39.1028,2.2466,60.3424,-42.5579,110.8463,-20.6308,-3.6822,-35.8803,-92.1316,-91.2445,-78.3431
45.9973,-107.7296,51.0539,-99.7135,13.2875,-132.2236,2.6559,-86.3398,-13.5394,-22.8341,56.2172,-69.1856,97.3844,-38.6082,-5.3155,-21.6890,-103.4638,-76.6778,-81.6354
33.0981,-79.2889,12.8631,-84.3094,-8.5721,-102.0732,-9.1632,-32.2700,-41.9182,3.8723,21.4197,-105.1572,34.1479,-26.4338,-5.5690,16.3882,-120.3490,-41.3241,-45.8614
31.5321,-73.3914,-7.7782,-63.5078,-41.5458,-30.9872,5.9278,43.3621,-12.5430,19.4288,-11.0064,-119.7104,22.8751,16.8126,53.9826,35.2612,-103.9280,0.5644,12.0171
53.3046,-65.8208,40.8563,-21.5343,-17.9100,13.1655,44.6679,71.7676,20.4758,14.2503,5.5236,-75.0827,60.6990,44.9800,108.2080,41.6089,-42.7827,24.8460,12.4839
73.8873,-18.5700,83.6308,3.9465,42.1695,8.5015,47.1993,34.1991,-5.0915,12.5573,30.5590,-18.7886,66.9061,16.6025,59.9067,33.5431,12.5982,16.5852,-46.4470
50.7235,21.8529,59.5514,8.3644,42.1856,-19.4260,-27.9097,-15.3403,-64.3485,-15.5241,-3.6713,-18.8258,47.5575,-25.2360,-28.5576,-15.1275,7.2270,6.5204,-100.5117
16.8872,36.1862,19.0473,31.5185,-9.0869,-49.3778,-89.4076,-31.1698,-69.2475,-47.9911,-24.0876,-38.2515,42.9064,-41.6105,-56.0111,-67.8574,-24.9333,15.3779,-131.8967
42.0075,69.6900,12.6504,65.9012,-33.5100,-65.9460,-69.7144,-29.2339,-36.9530,-44.0057,75.9137,-6.2114,37.6007,-52.5130,-51.1190,-64.6618,-19.3908,5.0406,-161.0835
95.5998,105.8009,22.9875,88.9071,-59.5037,-55.6199,-88.9923,-38.1109,-81.6737,-54.3282,205.1451,37.4534,26.0378,-54.5623,-71.6344,-38.0911,16.5588,-33.5505,-183.3787
89.2973,86.2827,36.0901,115.0670,-110.0866,-25.7924,-192.0100,-41.8753,-167.3021,-73.4490,198.8047,12.9616,22.1200,-40.0808,-96.9585,-43.1883,48.3152,-36.2559,-172.4646
27.2809,35.9228,62.7607,138.2792,-94.2234,6.9287,-200.6379,-9.9602,-133.8516,-11.4482,89.9914,-44.3930,8.8261,-43.3047,-98.4891,-44.2809,85.3927,16.5242,-120.7859
-9.3892,20.7283,92.0143,147.3500,-15.1627,35.2138,-83.7172,38.0498,-13.6799,79.6456,29.8006,-47.3822,-14.3359,-51.5434,-85.1257,0.3830,143.7253,54.5099,-65.1233
19.1544,39.4986,92.9900,165.7632,0.5868,43.5463,-45.8320,47.2682,11.0446,74.7173,46.2192,-6.8641,-22.1718,-16.1014,-66.5877,46.3444,190.2301,30.6122,-55.2765
76.7488,53.8428,47.0308,167.9547,-49.7578,15.0502,-118.3021,3.1267,-67.5610,6.7139,67.0533,18.3325,-31.3125,27.7272,-56.4347,39.4795,171.4646,-27.6636,-89.0157
93.0914,59.7849,-24.1832,106.8884,-79.7884,-24.3262,-149.8314,-51.7707,-126.8118,-39.0526,69.3130,25.4812,-58.1607,24.0063,-71.9262,-8.2726,100.8553,-68.8174,-116.3372
41.6205,53.0195,-53.5771,39.2072,-95.6106,-26.4024,-138.8243,-69.9233,-147.0789,-59.8148,64.3549,10.6656,-66.0295,0.0295,-87.2353,-45.3536,62.9455,-56.7794,-103.2231
-23.6906,-3.8435,-19.2101,9.9220,-115.6724,-0.3898,-146.9732,-45.6302,-150.4322,-54.9356,30.8050,-47.2610,-50.1755,-12.9135,-60.8961,-33.8439,68.7398,-18.1588,-63.1391
-60.9955,-93.3575,-18.8415,-54.0598,-122.4128,-8.3500,-124.9914,-26.4815,-105.0575,-38.9728,-35.8711,-88.5130,-61.3385,-25.7314,-19.8457,5.4825,13.7876,-33.3694,-43.0128
-102.0700,-130.7350,-124.6253,-143.2151,-149.2997,-67.9388,-73.4966,-58.6550,-20.8103,-63.1695,-80.9880,-55.4585,-98.7357,-31.6729,-19.6544,11.4944,-109.7991,-98.7304,-61.0014
-148.1035,-120.3374,-225.7559,-131.8819,-187.3438,-122.9373,-51.4486,-104.9783,41.5924,-93.2245,-65.6907,-28.6589,-108.3352,-25.6859,-43.2710,-26.4088,-143.8449,-114.3428,-59.9586
-134.2352,-131.3003,-189.2448,-43.8751,-145.5003,-127.9458,-24.5714,-94.7100,48.8150,-62.2069,-28.6094,-53.9503,-89.5578,-31.3423,-47.0989,-57.5525,-41.3949,-75.1945,-1.3416
-62.5325,-101.3187,-81.3086,-17.9314,-54.4337,-99.7578,12.5769,-43.6986,-1.6168,-13.8842,-30.5760,-29.1557,-90.4202,-46.0610,-46.8194,-54.3092,29.9325,-62.1021,52.3375
-24.6541,21.0129,-48.4842,-47.6160,-36.4174,-59.1649,-5.5048,1.0199,-49.1600,12.7887,-76.9869,28.0643,-107.5505,-35.4361,-52.9437,-25.1268,-19.0203,-39.2126,61.2294
-63.4097,63.3208,-94.5146,-48.7552,-62.8656,6.8397,-9.9542,60.6450,1.1216,56.5315,-117.5121,-36.1192,-83.0097,16.0752,-21.3493,18.2337,-71.6886,58.1764,74.1842
-118.2913,-38.2968,-128.7089,-25.4049,-40.8567,77.2539,86.3904,118.8561,98.9440,78.7627,-106.8081,-124.5519,-7.6890,77.4605,49.7625,41.0703,-50.0325,118.7534,80.2748
-99.9136,-21.1812,-122.1164,8.0510,-7.9807,73.5952,153.2525,79.2070,95.9356,9.9683,-59.5614,21.6138,54.4870,82.7610,93.3942,10.4763,-27.5374,37.4118,17.0232
14.4253,204.1069,-105.0570,68.9040,-10.2523,-18.0909,90.5667,-34.3392,23.9430,-66.4387,-32.2668,334.0428,69.1911,26.5447,81.0913,-36.2478,-50.0410,-66.0129,-49.8331
141.1135,378.5873,-90.3452,134.8452,1.5679,-90.3423,43.8167,-71.3481,39.8436,-47.6430,-51.1580,537.8005,61.8195,5.2691,50.2521,-40.7876,-52.4445,-63.7126,-15.5891
191.1207,459.1758,-62.1963,173.0798,43.5707,-72.5776,110.1486,-23.5682,138.9532,-4.8260,-99.2564,613.6066,36.3774,46.8104,41.6064,-18.4494,7.9052,-27.0054,65.3828
198.2262,656.8521,-13.9548,178.8926,70.8038,-38.5866,186.5805,-15.3124,204.9899,-30.7583,-158.4152,694.3227,-8.9882,48.8836,70.7703,-18.9570,75.3381,-44.5919,103.6840
243.0594,892.6379,27.3583,170.6758,71.1045,-57.0844,214.8967,-39.1500,221.1142,-61.3161,-204.4137,775.3215,-24.4131,3.9773,112.9287,-39.5278,97.0721,-69.8057,136.5565
310.1133,926.7466,38.7536,210.8717,57.6289,-69.0742,241.0092,8.1347,235.6105,-5.5031,-204.7708,811.1401,3.7487,28.9353,124.9836,-36.5038,110.9604,-36.0131,200.7533
336.5238,817.2222,52.3410,312.9638,41.0857,-15.8724,259.7935,103.3343,251.6569,83.4244,-174.6979,793.5307,15.5747,112.5066,118.3012,6.9989,165.7905,46.7151,237.6085
306.4295,712.7185,103.8301,359.2846,44.9289,49.8926,232.7549,142.9837,232.3932,95.0494,-166.3904,683.7043,6.7522,128.7182,127.0281,50.1727,220.5597,118.1579,208.5776
228.9072,595.7149,152.4099,301.2791,73.3193,64.6313,176.5117,107.8519,159.7932,40.9462,-189.8579,521.9918,24.4716,69.3286,125.0587,44.7692,212.7722,122.5006,154.1839
136.6565,494.4454,139.6729,256.1932,97.6129,44.3003,138.4928,54.6637,96.2853,18.0885,-218.4841,436.6708,47.1164,21.6244,94.5521,16.4494,163.6508,74.7288,129.8026
99.1909,469.1658,91.1517,245.0045,106.8067,30.6973,145.6527,38.3227,117.1125,42.0736,-226.8963,408.0546,45.7119,19.1190,80.2209,29.8036,127.7107,42.8653,153.4560
127.1876,408.4043,69.6425,162.5045,107.2047,32.3250,171.7116,64.6006,158.5874,56.9039,-186.7278,318.4236,48.9563,36.9800,81.3383,65.3187,105.8481,31.7290,186.4011
125.5941,241.9116,67.8674,51.6736,80.2118,26.1505,160.6086,75.4521,118.9877,50.4333,-127.0068,210.8226,41.7750,30.3508,52.3932,44.5348,66.4070,-8.5108,173.3275
24.0556,108.4628,30.0192,25.6091,5.3220,-6.6024,114.8054,36.1970,64.2008,33.4354,-146.8717,178.1896,-6.4557,-11.7766,24.7515,-16.5644,-5.6223,-59.6511,125.6369
-117.0271,75.3450,-44.4614,27.5612,-84.4821,-33.5310,86.8992,10.0578,87.3418,2.5543,-235.4688,155.5105,-35.5058,-20.5765,42.1279,-19.0428,-89.6246,-62.2839,100.5248
-176.8046,48.3204,-99.2570,-16.7556,-122.3981,-11.4491,80.6352,49.2130,111.9182,-5.7957,-246.1209,76.7380,-19.1490,39.7040,57.9161,47.5194,-139.6111,-32.1362,97.0069
-116.9152,12.8032,-123.8878,-53.1771,-104.1351,13.4775,58.7724,93.7735,59.7188,41.7745,-163.5101,12.1335,-37.0606,84.2661,38.5124,84.1537,-151.4239,-32.8679,62.3210
-34.9314,10.1692,-158.4964,-66.2993,-105.6294,-32.8660,17.4096,77.9741,4.5021,88.3179,-125.7675,5.4085,-90.7613,49.7117,15.6459,45.4311,-172.1667,-80.9965,6.2096
-45.7154,-36.7401,-178.8279,-98.3217,-143.5656,-99.4498,-1.8845,38.4471,28.4832,74.8781,-143.5898,-8.8625,-95.2105,-17.3394,-8.1070,-1.0516,-184.7100,-132.8674,20.9641
-127.1771,-179.6632,-124.8817,-116.6834,-125.1341,-81.2972,54.0335,43.5501,112.9430,43.3005,-126.3262,-71.9796,-64.3104,-61.9084,-39.6804,0.2753,-120.3555,-128.3880,131.7097
-174.7932,-279.8822,-59.1913,-100.0994,-30.9032,-1.8070,161.5597,91.7737,180.8258,55.5320,-110.2837,-133.3427,-55.8178,-64.6078,-41.8210,18.2414,-33.9248,-61.6818,204.7519
-171.2190,-219.8057,-89.8534,-105.8827,20.3112,38.0985,192.5091,121.7982,161.9975,92.6587,-144.8395,-136.0421,-43.3228,-26.4872,-9.4056,14.7602,-50.6960,-11.1880,131.8120
-172.3973,-119.3812,-156.4166,-138.6180,-19.5082,20.2951,99.8374,91.0465,78.6801,82.4214,-146.3410,-107.5485,-14.8081,6.3270,19.8128,2.5957,-132.5170,-32.3949,8.1245
-185.7252,-134.3337,-140.2893,-142.6578,-63.0523,-2.4428,4.7921,25.3158,14.1329,1.8739,-95.2854,-115.4943,-16.1272,-5.5479,35.1546,-0.2046,-146.2991,-64.0854,-49.2815
-188.7473,-198.9396,-97.1703,-107.6098,-72.2272,2.6412,-34.5866,-18.7242,-37.0915,-67.5371,-97.0313,-143.7685,-39.7182,-36.1641,22.4607,4.8029,-102.1782,-34.7739,-86.3430
-191.4430,-189.5732,-119.5597,-51.1705,-86.7408,28.7826,-88.5341,-25.0423,-108.5447,-47.6535,-142.5478,-129.7530,-45.1869,-57.5082,-34.4185,14.2087,-82.5327,22.6833,-129.8523
-189.1724,-156.3478,-136.1542,0.6146,-93.9798,47.0190,-126.5901,-20.0871,-127.6964,8.7153,-116.6678,-107.3091,-45.5131,-63.1127,-79.1896,15.6000,-67.2347,54.0300,-100.9179
-146.1188,-163.6979,-79.2933,0.1283,-61.2707,45.0897,-75.2244,-25.3060,-78.5885,17.6860,-30.6187,-133.5238,-61.3091,-35.9796,-67.3552,2.7748,-24.2873,70.1326,-45.7123
-77.6753,-151.5723,-28.6796,-43.9148,-25.0273,48.7485,-42.8731,-37.4289,-91.3835,1.4111,14.1839,-150.7205,-73.4790,1.0660,-61.9991,4.7282,0.2245,82.4289,-91.7086
-51.7478,-134.8809,-27.9209,-59.2141,-23.6989,66.2568,-120.3076,-35.1627,-179.0246,1.3034,2.9777,-117.9469,-59.2835,-1.3987,-97.2260,29.8069,-1.3349,71.0815,-157.2775
-83.6586,-204.1921,-5.4624,-28.3048,-34.8202,72.1586,-164.0569,-4.2356,-187.9182,-0.6975,-16.1792,-117.3800,-27.8148,-21.8771,-101.3130,30.6648,24.7893,55.8847,-93.8042
-119.0731,-262.0895,47.7987,8.8889,-31.1147,79.8209,-80.3205,35.9700,-87.9733,-1.3999,-23.0421,-173.9669,-21.8290,-24.3366,-51.0781,2.1374,72.1673,86.7602,10.6211
-122.2472,-161.3093,58.1129,31.9401,-14.9655,121.4713,-8.4842,60.1537,-5.3886,28.5200,-23.8158,-194.4696,-55.9805,-33.1479,-17.8709,7.5749,91.8043,150.2317,12.9035
-99.6210,-29.9998,28.5035,30.5565,5.8311,158.0689,-38.5969,71.7593,-11.9286,68.5571,-22.2109,-152.3799,-69.9548,-39.7030,-34.2855,48.4900,88.6543,177.7594,-39.4628
-58.1718,-61.7043,24.5011,10.1326,21.5028,134.7106,-85.1557,69.4510,-82.9149,74.6592,0.3391,-104.7653,-34.1760,-4.1787,-60.5237,51.7326,82.3437,144.7532,-67.8174
-20.7978,-175.5901,40.3678,7.1275,19.5861,83.6222,-90.6842,42.9775,-137.6840,44.9791,50.0349,-72.0409,-14.5241,31.8278,-56.8852,10.7559,59.0694,96.7545,-81.4435
-35.5746,-197.5050,25.5539,15.5531,7.7935,68.7652,-76.7262,29.1516,-88.1244,28.5946,68.3977,-67.3868,-30.4942,25.1464,-20.3282,-8.5485,29.1106,80.1805,-67.8860
-92.6583,-139.4308,-8.6651,-11.9598,8.2764,88.7893,-51.7666,61.4640,14.7022,63.3814,23.9171,-107.0371,-19.2432,22.3071,14.8385,8.2208,25.9440,79.5358,-20.1242
-110.3488,-120.9025,-18.7650,-65.2714,14.4799,92.1679,-33.0596,77.7067,16.1379,84.9352,-1.6464,-141.3555,9.3167,35.8056,16.1350,18.3671,29.3273,46.4550,-3.9946
-73.6631,-196.4976,-18.2193,-103.4952,-4.9306,51.6236,-46.6836,23.9640,-71.7862,16.5641,27.0888,-148.7602,-2.0411,14.5284,3.0801,9.8564,-7.1698,-4.8110,-34.3688
-77.2289,-302.2627,-49.3587,-125.6532,-41.3092,9.2126,-64.5947,-23.7141,-85.3115,-50.1395,9.6671,-195.4619,-16.2720,-22.1938,13.3741,5.9073,-69.0306,-6.5027,-44.6491
-159.0812,-314.8239,-101.4165,-130.2460,-48.0513,15.5901,-59.4148,-7.4751,-18.6382,-10.6327,-70.7458,-244.6468,14.7636,-16.1723,36.4699,7.1988,-105.6835,18.1950,-33.8042
-214.4068,-215.8247,-126.2342,-113.7375,-24.5824,19.1005,-71.9359,-21.1847,-26.7252,21.1027,-95.7393,-148.6237,41.7089,10.8306,25.2195,-9.9819,-100.2755,-37.4335,-52.9081
-162.1640,-127.7477,-101.5381,-103.3680,-7.3816,-59.8016,-121.9223,-126.1698,-118.5875,-56.7586,-72.4469,62.3743,21.7300,13.5375,-35.1201,-43.8869,-56.4419,-153.8687,-74.2076
-88.7207,-121.5959,-39.3627,-95.6691,16.2061,-150.6984,-135.6317,-212.2648,-123.7525,-127.7134,-122.7315,192.6564,-10.0075,12.2876,-83.9797,-65.8462,18.2052,-189.5301,-42.5256
-111.2459,-146.6118,16.7079,-70.2513,65.5805,-131.9475,-59.0553,-195.2965,-1.7862,-129.4070,-211.2815,193.0574,-17.9940,41.3435,-55.5708,-70.4844,75.8217,-133.4084,8.7258
-183.9576,-168.2784,7.9067,-76.1830,89.2853,-57.2051,21.7173,-156.5674,57.8947,-148.8910,-216.6873,155.6905,-10.3473,70.4120,-0.2229,-67.0193,62.8294,-105.2710,15.9508
-188.3836,-193.4043,-51.4439,-128.9653,58.0217,-53.2199,-11.8944,-171.1927,-43.5223,-167.4855,-170.6344,101.7382,-14.0825,41.6609,-15.5308,-42.0501,19.6238,-124.5523,-5.4334
-134.9934,-193.3759,-58.6634,-129.9339,33.5136,-99.7223,-111.8304,-192.5753,-134.7359,-123.8558,-143.0860,32.2933,-37.4032,-20.5432,-65.1819,-10.4604,40.9935,-128.4738,-0.4723
-97.9819,-146.3552,22.6210,-60.2355,42.9728,-112.5752,-130.8862,-178.3097,-92.6532,-97.6757,-86.0101,11.8592,-48.9219,-33.8430,-53.5604,-32.0807,115.5519,-119.0970,15.8086
-66.4839,-95.1847,96.2519,-32.8899,30.9473,-92.4959,-76.4664,-158.9825,-52.6539,-122.5294,2.6650,41.0080,-32.6653,-12.0264,-16.7609,-96.0788,133.4835,-97.7966,-18.8592
-39.1217,-79.1139,89.0678,-50.8365,-6.5316,-61.5246,-71.3423,-152.0733,-99.4436,-115.4636,10.7502,48.5058,-24.5614,-23.5630,-31.3421,-114.1738,78.3886,-29.2710,-80.7839
-72.7266,-68.6519,44.4032,-6.7742,-1.7410,-15.7842,-88.7753,-138.1551,-102.1686,-95.0659,-69.4495,34.8331,-34.0595,-24.4989,-61.7956,-74.9830,55.3552,38.0050,-66.9069
-109.0838,-42.1161,23.3346,68.6570,50.9281,15.2851,-17.2037,-117.1881,-18.7230,-121.1369,-105.0401,26.5342,-27.6606,26.3712,-60.0841,-44.6200,93.9840,27.4556,30.8954
-40.6543,-80.5177,30.3178,49.0390,75.0314,-4.6066,75.0815,-103.8879,24.6856,-131.5682,-50.4058,-19.9049,-15.7538,27.3271,-47.4338,-34.9236,97.9759,-23.0203,99.5647
29.3834,-238.0831,40.9994,-66.8045,27.6402,-60.8203,57.9170,-92.1905,14.9786,-93.8382,3.6996,-109.6256,-27.1987,-49.7448,-32.9340,-25.5873,28.2757,-58.9214,94.9683
-49.5896,-351.2421,31.9768,-182.7803,-43.5355,-123.2744,3.3518,-68.3742,46.6446,-64.7615,5.7659,-157.8458,-36.4509,-77.4141,-10.9123,-30.5419,-41.4429,-101.0316,93.4028
-163.9002,-247.0849,3.0169,-237.9570,-66.0477,-169.3904,28.8329,-39.9402,94.0742,-37.0909,5.7003,-132.7726,-20.8493,-49.1922,-4.2058,-49.7215,-74.0452,-134.6521,116.0011
-143.8978,-86.8699,-20.3243,-221.4212,-38.5441,-171.4966,55.3789,-35.7880,77.9908,4.2444,45.3708,-97.1668,0.9248,-72.3105,-13.6526,-72.2476,-105.9708,-117.1352,87.3254
-56.7902,-125.2785,-31.2208,-175.8202,-19.4965,-136.1687,-4.9524,-67.8979,36.1005,5.4205,87.2384,-103.1817,23.0339,-112.7799,-12.6969,-111.9460,-142.8667,-91.1386,8.7611
-27.0729,-264.0809,-47.5549,-172.6604,-20.4898,-112.9361,-41.5135,-98.0975,46.1022,-18.4509,80.2117,-147.9747,44.3528,-103.3469,2.3878,-138.1389,-156.8183,-93.6984,-17.7658
-47.0071,-266.0452,-62.4936,-206.9569,0.9719,-115.1152,34.2864,-92.7788,88.9381,-17.4866,50.7854,-185.1083,46.4510,-98.5345,30.5223,-94.0108,-144.2869,-67.3323,24.0491
-73.0047,-171.1701,-50.3437,-206.2773,42.3150,-95.7818,100.2555,-91.3739,84.0734,-55.6795,60.1435,-168.6481,38.9263,-94.8012,64.2523,-27.0475,-104.1363,5.8094,44.5145
-67.4347,-132.7477,-9.6505,-161.6488,69.3515,-28.3856,62.2114,-130.5524,21.1234,-158.0474,92.8148,-139.1167,47.0533,-27.2714,63.8457,-21.5352,-40.0859,60.5909,27.0022
-5.7253,-152.3127,43.6692,-121.1579,100.6489,46.4669,28.2128,-150.4615,-19.4752,-188.6583,94.6198,-169.1738,62.2671,25.0614,24.7976,-44.1529,-1.4271,83.8154,28.8704
42.8365,-187.8248,88.4459,-84.2514,150.6118,76.2053,68.1444,-93.7712,-13.3661,-91.8291,87.5570,-210.3188,67.6883,-20.2843,-0.9512,-31.3992,-16.9363,115.3637,30.1077
21.3083,-206.6697,99.0891,-24.5727,159.9219,68.5688,77.3319,-16.2239,-24.0120,-8.2547,117.0733,-172.7155,58.4490,-62.8484,-2.2600,-13.8189,-28.4960,151.5851,-11.4476
19.7364,-130.7933,88.0026,40.9758,106.4895,79.8985,23.6184,14.2495,-31.3066,-25.5192,152.8914,-102.6863,37.5461,-27.0006,-8.8355,-26.9666,17.2044,171.2316,-35.2412
96.8456,11.0798,105.9101,83.3169,78.7240,132.6360,22.0638,20.0921,27.1173,-48.5854,163.3013,-83.3985,37.5715,15.8297,-14.9829,-31.9997,87.9712,179.5678,1.6722
156.0205,51.4249,146.7315,90.1383,126.2045,183.7144,78.0112,35.6574,60.2514,1.8386,177.1886,-91.9754,74.2121,29.9058,-3.2910,10.1217,128.3261,177.7257,29.0368
135.7970,-45.6166,139.2321,55.8636,162.7864,187.4958,84.5517,44.8030,2.5598,46.4279,194.5589,-100.4537,93.5630,40.2766,28.0970,66.9094,121.1454,158.0014,17.3537
84.6465,-130.0588,82.1347,17.2505,115.0535,145.4209,58.1044,33.4132,4.3255,0.5095,181.3653,-124.4829,69.4784,23.8035,76.8434,61.8963,88.7496,117.4086,10.9446
41.4632,-101.9660,64.1052,35.6796,37.3836,81.3589,55.4951,4.3473,97.8217,-68.7022,165.7956,-124.0202,54.6688,-28.0165,100.5089,-18.5527,77.0864,53.0194,-22.4815
37.0902,11.7734,98.2085,82.2098,0.2044,10.5375,10.2513,-48.6602,63.7671,-78.1475,188.8649,-59.6585,62.6223,-65.7924,57.4827,-79.1055,90.4290,-14.5385,-120.6031
95.5155,130.0085,81.4313,66.8815,-10.8085,-53.4414,-84.5027,-112.0165,-106.6904,-76.0728,218.5433,11.0508,52.8400,-73.4253,0.8824,-56.1360,63.1164,-46.3506,-188.1152
144.6758,153.8560,-23.8239,6.9805,-31.5407,-90.7977,-112.9394,-139.6256,-162.3256,-97.2957,225.5910,38.9276,27.0572,-70.3159,-14.2225,-13.3558,-28.9927,-52.4853,-161.1619
96.7120,55.6709,-118.5500,-13.1549,-69.6543,-98.5073,-94.8962,-112.2703,-93.0576,-76.2946,224.0937,41.3004,1.6758,-53.8823,-27.9526,-2.0866,-112.7066,-82.6144,-120.9657
-9.3711,-69.6309,-129.2392,-24.3420,-126.8347,-106.5708,-137.7024,-68.0609,-89.2959,-22.1162,198.5399,11.3543,-23.6705,-28.0682,-48.3751,5.9490,-140.6678,-134.0951,-101.4155
-74.6299,-132.9723,-96.7454,-111.3006,-177.0319,-136.2023,-168.0381,-52.5678,-118.9590,-22.0313,143.1683,-59.4279,-21.7533,-21.2505,-22.2188,4.7721,-152.4818,-154.7498,-50.1531
-51.5121,-141.4743,-76.8223,-237.4340,-168.4764,-160.9867,-97.2002,-65.9292,-66.5393,-52.7014,125.1051,-123.1840,5.4505,-43.0817,16.3583,-20.0621,-180.1337,-138.3159,-5.3272
39.8838,-131.3548,-82.9385,-302.4554,-111.6522,-161.9162,-45.6872,-80.8945,-23.4973,-44.1070,168.2804,-155.8094,0.5943,-71.4565,4.3282,-18.4107,-207.3208,-139.1917,-33.2202
108.4095,-127.6056,-116.5179,-280.0300,-77.4859,-174.3236,-96.0282,-95.7680,-79.1075,-26.2525,194.4428,-173.1894,-25.0748,-81.3041,-14.8935,2.3736,-217.1555,-178.7830,-75.7782
76.5354,-152.5218,-147.8299,-210.2039,-85.8833,-210.3359,-139.0708,-117.9452,-137.4017,-27.1891,165.6278,-164.5906,-14.8939,-71.7267,-10.4943,-29.1158,-203.4485,-199.7307,-69.1355
2.9554,-193.2596,-118.0983,-157.6952,-94.3958,-217.8270,-120.8879,-119.1146,-119.3250,-17.1760,132.4268,-142.1853,-1.4095,-62.2677,-34.7987,-72.9814,-166.5705,-163.9450,-53.6013
-3.1789,-197.0400,-30.6598,-171.8178,-79.7060,-186.4703,-112.8876,-98.4643,-87.8271,-20.6983,127.1259,-148.6131,-22.2291,-65.4416,-78.0759,-57.9896,-128.5753,-135.6225,-69.9078
56.4246,-130.3855,33.2603,-217.5302,-61.5518,-176.6316,-141.7188,-125.8320,-113.3699,-77.2464,138.2646,-156.9584,-34.1103,-85.0807,-78.5701,-47.1891,-118.4957,-168.0234,-108.6393
105.9873,-33.8497,19.8305,-220.6311,-72.3736,-195.3986,-176.1158,-197.7433,-152.7585,-130.5882,141.7878,-140.4463,-32.7810,-112.6038,-53.7374,-78.3889,-131.3685,-187.8095,-139.8820
106.3312,-6.4968,-34.3339,-176.1969,-102.2120,-184.8225,-171.2355,-190.3716,-110.8846,-110.8642,105.7422,-156.1507,-48.0260,-102.7322,-37.6698,-68.9502,-112.1455,-127.7433,-108.6647
71.7067,-80.3397,-42.0184,-113.3673,-82.8591,-141.9766,-88.4427,-90.9976,-11.8705,-46.6798,45.4782,-181.7029,-37.2899,-35.0318,-7.0186,-23.5189,-14.0023,-55.3603,-15.2139
37.8515,-141.0930,39.9775,-38.1957,-3.7526,-103.2452,3.1585,-45.6254,18.4556,-14.1501,27.5085,-115.9556,13.1802,19.3716,38.8331,-29.7902,110.5484,-25.9671,38.7925
20.8919,-88.4207,142.9469,22.1882,42.3529,-47.4374,0.3580,-70.9442,-15.7429,-21.0385,54.6594,-36.5121,38.0355,14.3766,65.3645,-52.3320,162.8848,21.2109,20.7485
20.8776,13.7471,166.3662,43.3738,35.9766,37.9361,-28.3100,-36.8590,-3.0631,-2.6343,70.3865,-79.1508,42.7918,12.1732,62.1461,-24.7191,154.6190,93.7922,19.7800
59.1394,76.6229,120.5121,54.3062,64.6041,70.0379,16.0417,25.7290,30.1288,33.0286,72.6725,-111.5635,67.5240,32.4305,31.2269,-4.3740,166.9187,87.5283,47.3534
125.3469,109.2408,89.0626,63.5802,112.4037,-4.8637,51.0379,-26.4012,7.1592,-20.5649,72.5268,36.0860,57.6637,6.6683,-4.6199,-35.9874,192.9191,-11.1736,33.3269
145.3148,111.7662,92.7552,48.3300,88.7518,-96.5430,14.3263,-138.0555,-3.9265,-143.9118,30.2494,219.1511,-2.0959,-46.7924,6.0907,-71.6454,193.3936,-86.7867,3.2226
95.7156,66.2757,98.8009,38.6878,37.2198,-112.4450,-7.7279,-156.9017,38.7413,-171.1606,-52.1177,249.8627,-18.3923,-35.8975,59.7064,-81.5419,187.7506,-94.6719,12.5995
17.4280,27.6498,89.5735,50.7914,33.3992,-98.5569,9.3024,-107.4852,61.2411,-86.3964,-123.4839,197.6633,17.4500,21.3249,98.8940,-55.3940,156.9590,-92.1991,30.1598
-83.7063,16.4278,56.1640,27.0474,29.3994,-119.0025,26.4845,-74.9485,79.4401,-22.5013,-176.3562,162.2365,26.9971,34.9106,116.6068,13.9866,66.5817,-94.4132,41.5054
-157.4264,-24.0967,8.6763,-17.2425,3.7432,-132.7052,70.7966,-37.0564,130.9056,6.2819,-189.6439,124.7327,21.2693,-3.8383,124.6896,53.1889,9.0291,-74.8845,68.7085
-95.9997,-37.8159,-15.4023,12.9459,13.4696,-99.4171,101.1649,7.9250,102.5030,37.4333,-112.7504,106.5581,34.8546,-34.2395,91.4882,6.3337,59.1548,-43.9397,75.1979
23.1812,60.3230,-9.4676,90.1728,37.2312,-60.3260,30.3689,4.8148,-25.5493,21.4980,-21.8330,133.5017,20.5257,-7.7656,29.4634,-25.6363,110.8870,-10.4949,50.4156
5.6546,118.8500,6.7464,99.4410,30.7354,-37.9446,-41.3424,-19.6079,-70.9292,-20.2796,-49.2010,127.6330,-26.5044,64.4402,6.5108,31.2018,94.5569,32.5160,53.0178
-96.1725,-1.1171,37.1763,39.2868,38.1716,-7.0561,5.1344,-20.2892,4.1678,-17.1114,-134.7403,64.0284,-33.1691,105.2510,25.1681,61.8983,94.7714,47.6135,64.2758
-104.5672,-98.7314,56.9144,-14.4742,66.1166,17.7432,69.3595,-45.7517,60.8523,-40.1330,-131.7373,27.0729,3.0456,68.8453,47.2308,-12.3792,115.1727,8.9003,40.9415
-68.4066,-15.4454,5.0239,-31.9753,53.3847,10.7125,83.4670,-98.4918,91.3659,-124.2148,-69.2710,26.4545,12.2224,9.9391,81.8474,-81.7534,67.1685,-17.4811,65.8111
-89.1482,43.7011,-88.2750,-10.8327,9.6748,8.2546,133.5761,-71.4584,144.7047,-115.3555,-52.5495,5.5883,-18.4690,-14.6190,118.2723,-58.0316,-5.3064,16.6014,174.8866
-94.2780,-32.2460,-115.5192,35.1671,-20.2286,39.4233,190.4040,55.6494,158.3095,34.9211,-71.7123,-14.9203,-38.2701,-11.2148,105.7271,4.2213,-6.7197,50.6145,236.3477
-55.5960,-39.6512,-57.5305,65.1601,-30.9225,71.4370,166.0215,168.6832,142.3036,168.3616,-77.7319,-5.7657,-15.7587,11.4740,68.7962,47.6132,33.3272,40.4842,204.1154
-52.1308,53.4159,16.6561,62.0619,2.9915,82.9549,140.3459,200.2882,186.6322,203.9080,-66.7607,-5.7446,28.5947,45.9359,75.3098,69.8257,63.3993,25.4103,182.1290
-51.1667,42.7618,65.8205,35.4642,75.0939,83.4435,160.8710,172.7308,214.4820,180.7991,-39.4732,-27.3254,49.2376,63.0642,97.1564,67.3500,81.3882,16.8806,172.2502
13.2988,-49.1367,78.5478,-3.7322,88.6846,62.0816,121.0066,105.2263,107.5467,110.6416,-8.3788,-40.2575,26.4410,59.8895,65.5809,50.4141,62.2261,-9.2388,102.3053
69.4205,-47.9910,57.1292,-12.7179,24.9153,14.0794,26.7973,17.0257,-34.6837,18.3215,4.1262,-40.4693,-9.2857,49.3337,1.7860,39.4514,21.2419,-20.0094,28.5071
63.1406,16.7235,50.9270,44.3390,-5.2156,-20.3179,0.7835,-46.8375,-64.6994,-38.6675,19.1279,-23.7651,-11.3163,23.5119,-31.1349,17.9768,45.6315,22.8248,29.1705
55.7740,66.8378,97.6808,125.2418,40.2151,3.3630,41.1589,-57.6944,-4.8154,-49.3336,55.0764,20.4221,26.3030,9.8889,-16.8893,-11.9749,122.9906,82.5612,65.6348
65.8778,129.7124,135.7113,174.2401,88.3960,85.0531,84.7498,-19.0754,65.7998,-23.2697,67.2917,58.0110,52.0613,53.0960,36.5845,0.5915,125.0106,114.9808,87.1725
42.4331,155.1912,75.7971,177.9921,74.9338,162.1142,124.5575,43.8003,118.8456,23.7671,24.2966,59.7105,24.9349,105.5611,106.6619,42.9651,20.1096,115.4629,81.2246
-14.2454,92.9026,-53.6634,126.0240,-11.0967,145.2508,129.3315,82.3278,137.5664,43.8657,-32.6855,44.1232,-12.4469,87.0833,133.5114,48.9608,-80.4230,71.9091,37.4458
-55.2247,54.0794,-125.1855,41.0319,-104.7278,32.2857,85.4887,69.8186,128.9269,37.7104,-51.1009,9.5909,-3.3034,18.5856,92.8235,48.6063,-92.7081,-14.9726,4.1021
-59.7021,69.1358,-92.9013,-12.1741,-113.4530,-62.6507,71.8782,47.1529,138.3087,59.4458,-22.1331,-52.3771,20.3358,-25.8073,59.5399,96.4641,-61.0064,-81.6864,45.5147
-54.4112,15.5177,-55.6097,-35.3487,-72.3217,-57.4249,115.9297,64.5813,178.0828,99.5756,22.2694,-90.5578,11.8936,-15.4344,93.2604,120.5019,-80.2126,-66.7408,102.6117
-72.8290,-79.0467,-83.7805,-71.8840,-82.0168,9.0995,140.3995,107.1504,193.6181,118.8453,40.7090,-79.8157,1.2651,29.1199,127.5157,71.3665,-149.4618,2.9898,82.0328
-99.9272,-91.0474,-118.9510,-89.1529,-106.4939,66.0563,110.7599,123.9987,137.5831,125.3437,23.4377,-77.0483,9.6639,44.2168,86.2249,44.3829,-169.0658,49.1196,24.7505
-99.4368,-55.9506,-112.2044,-51.3989,-69.7685,84.5155,62.9135,103.6552,55.5939,115.4907,-7.9633,-91.1269,3.6257,-3.9865,17.0447,67.1540,-106.8430,48.8588,16.5308
-74.4742,-18.4834,-84.9251,8.2524,-16.9222,75.0856,31.7082,89.8405,34.4491,88.4133,-20.6063,-55.8536,-11.5042,-35.9084,-3.7168,40.6241,-33.9412,57.7733,44.9419
-31.9088,62.0007,-34.0394,76.5439,11.7075,82.7565,39.5135,120.0192,59.3006,95.7960,17.9401,23.0887,-0.2484,18.3707,10.6284,-17.9044,19.7595,108.2944,58.0231
28.0279,116.6150,30.8629,143.6513,45.4820,137.3012,74.9939,171.4497,56.4193,141.4567,75.3969,63.3433,14.4910,80.4012,24.4675,3.7487,74.2093,155.5101,59.5586
55.5941,75.1244,42.5650,152.7352,72.4006,201.6373,106.0713,207.2740,61.5962,168.6940,59.7581,42.1630,-1.2503,67.5275,44.1903,75.4493,106.3436,169.9086,85.7772
31.1090,54.0201,15.9983,120.7668,83.1777,225.4967,135.5930,235.6722,127.1592,178.0397,-5.8534,13.7061,-23.2020,35.9474,63.1339,95.6729,99.1595,173.4557,131.0405
33.0654,114.3079,32.0916,125.6752,117.5958,201.7418,149.9170,259.4683,149.9466,187.3552,11.9046,22.6791,-19.7185,45.3841,60.4406,65.9270,80.5369,151.4833,136.2539
70.9784,148.6102,47.1081,137.0438,138.6076,146.2079,99.3765,243.8713,53.5159,176.0990,84.7672,52.9218,3.4873,49.2060,54.5306,24.1507,50.7829,83.3764,77.7210
37.8566,129.4951,-11.9844,105.8706,71.5190,96.8025,16.8008,197.2265,-39.9506,167.0750,56.4634,44.7745,18.0402,6.7056,59.4123,-5.8219,2.6978,34.2521,11.3664
-62.8258,93.4127,-77.5581,94.8219,-36.4637,96.6448,-15.1807,173.3547,-39.5880,188.0907,-32.9175,-19.0288,-6.7959,-38.6268,46.3727,18.5673,-34.9186,46.8703,-22.2438
-108.1373,10.2466,-108.8384,109.2109,-97.8192,119.9399,-7.6531,172.5206,-16.9060,198.1741,-41.8396,-76.3815,-60.2930,-36.8913,21.0872,80.6576,-67.0649,56.5489,-28.8488
-90.9007,-57.5262,-168.1596,57.6058,-101.0454,109.4923,8.2107,168.0239,5.1010,195.0430,-41.8160,-90.7792,-82.5553,-0.6717,35.8449,112.5608,-110.7768,42.2122,16.4770
-97.2707,-0.5413,-211.1648,-34.7234,-54.3582,88.1205,56.6624,180.4253,71.0380,214.4946,-128.8261,-103.2449,-49.2972,22.0955,78.4230,123.3277,-114.0145,57.4452,109.6525
-119.9171,76.5650,-144.8018,-69.6999,5.6299,100.4922,92.0245,205.7102,109.3548,206.2026,-150.5387,-131.8072,-8.4010,8.6022,71.1741,129.8347,-64.0228,70.0860,140.5879
-94.9126,43.5321,-46.7115,-55.7988,2.6964,112.9354,32.4315,189.8804,34.1093,140.5625,12.6479,-152.0064,-5.2942,-17.4605,4.1234,82.8201,-49.9441,27.3350,55.0790
-20.7521,8.7253,-13.6396,-20.1108,-38.0759,100.7718,-62.2562,147.6010,-72.0793,102.5510,197.7326,-176.1676,-30.6785,-15.5654,-52.7544,26.5568,-86.8858,13.2658,-45.7765
64.8365,70.4555,8.0085,55.8738,-9.1126,115.0217,-85.5857,142.4186,-99.9864,118.6925,256.9085,-212.7741,-40.7402,24.5726,-70.0187,63.8025,-80.9311,98.1290,-88.9918
150.8811,147.5255,55.6279,130.4530,78.2917,170.5340,-61.7872,151.4531,-82.6231,125.4356,286.4532,-215.8779,-9.9959,55.5254,-75.9122,117.6435,-13.2435,188.9182,-111.6056
252.3890,195.9152,87.9555,154.3471,124.0789,203.0669,-57.7449,119.5892,-89.4537,120.9803,389.5176,-182.2083,26.8528,23.1549,-70.5477,73.9668,46.5216,197.4307,-129.6650
341.2445,229.8650,102.0824,155.8058,109.4607,176.9691,-70.4733,74.7626,-105.4998,122.6294,481.3494,-176.0980,26.9545,-30.6563,-32.7643,35.2556,58.0422,155.9643,-126.1218
327.0521,198.9975,88.9013,138.8057,71.8915,125.7144,-70.4427,61.9540,-89.7496,104.6487,443.6587,-208.7604,16.3438,-10.4077,12.2854,98.3320,11.0745,109.6659,-113.3756
203.5798,114.3460,19.6315,81.7533,34.9664,92.8650,-39.4525,79.1460,-53.6462,91.9183,309.0121,-227.1773,31.5493,63.6560,24.6005,148.9821,-68.9816,82.4480,-87.8813
116.8680,89.4598,-34.7486,40.1001,30.6164,94.6749,3.1625,118.5582,-38.9981,117.5321,212.7210,-208.7847,49.8697,87.8851,10.0808,111.6056,-96.5810,105.9888,-45.9793
149.0302,139.2555,-1.7197,56.9356,61.9110,114.2962,-12.8086,143.1603,-60.9681,121.4052,219.0182,-167.9096,52.3196,62.2402,-11.9267,68.5902,-42.7034,157.0562,-50.8718
198.6048,163.6000,47.6771,86.2165,69.8666,122.0668,-106.3120,81.7699,-104.9087,53.7898,256.6835,-127.7215,45.4938,46.4736,-40.7947,49.1111,4.6449,168.7482,-135.5060
181.8061,116.8342,54.6550,102.5455,29.5132,113.5373,-191.8098,-43.5541,-157.3814,-42.2169,234.8894,-120.0360,13.9293,18.7996,-66.1428,10.4774,-9.7526,139.0323,-217.1344
139.9182,43.6023,70.1635,111.5745,2.7956,95.5786,-202.5893,-111.5603,-194.0287,-97.8261,163.7275,-143.7312,-23.3842,-32.1736,-74.6757,-22.2811,-36.5420,109.7110,-214.8397
114.5244,4.3735,95.8104,86.6329,37.1578,57.0261,-156.8263,-73.6733,-167.3276,-61.7929,113.5031,-157.1481,-2.0278,-43.2360,-71.3348,-12.8456,-35.5490,81.0754,-137.9353
106.3875,7.1710,75.2102,42.2536,80.2273,9.8103,-87.9425,19.8131,-71.1755,52.5330,98.0230,-152.6393,48.1398,-24.6272,-48.5902,12.9130,-27.4619,50.5147,-29.8301
105.8879,3.1386,27.2943,30.2489,54.1940,3.8737,-15.5496,135.6110,30.5368,156.7693,69.3204,-158.5909,33.7596,-48.7255,2.0830,34.0883,-39.9917,51.2138,69.7924
65.8249,-22.6126,-4.3396,21.6961,-15.7853,43.1047,48.0449,246.9865,96.9089,215.6903,17.9685,-172.3934,-13.8379,-77.9647,41.5936,51.9430,-81.0220,79.5454,125.3375
-33.7495,-34.0643,-28.7202,-24.2122,-40.8491,65.4391,99.2269,286.5305,146.9541,250.3009,-8.2079,-172.0941,-4.6159,-35.9447,34.9764,58.3226,-132.0519,76.8459,115.2181
-96.6172,-35.0459,-47.3041,-53.9000,-24.5569,45.1716,103.3900,223.8837,159.8980,208.5291,4.6090,-148.6943,28.3109,31.5377,8.5192,55.2412,-151.2905,29.6096,29.4186
-31.2683,-46.0213,-46.6459,-31.7198,-36.0398,19.3172,19.2531,108.0360,71.3552,72.8582,26.5916,-95.9335,15.9403,44.3526,-14.3541,45.1321,-122.0920,-1.7597,-98.6554
97.0881,-49.8800,-40.6760,-5.3569,-60.5858,0.3959,-94.1726,-0.8456,-73.6790,-31.2391,53.4474,-37.7927,-11.0883,2.9324,-36.3452,12.0983,-82.3053,8.6410,-174.5052
145.1669,-57.5875,-38.4030,-5.5771,-49.3093,-34.1630,-123.0711,-66.4218,-122.6835,-50.7392,74.7955,-28.0778,-3.7740,-63.4753,-26.9978,-33.5478,-75.7297,3.5927,-152.1667
70.0977,-86.1081,-35.0175,-37.3295,-32.9067,-77.3348,-61.0553,-76.2458,-37.9895,-70.8922,50.4304,-62.4745,29.1757,-123.2990,32.4181,-54.1881,-98.3952,-53.9964,-99.1199
-26.5997,-91.2268,-41.1454,-111.4343,-43.1545,-107.1049,2.7775,-59.3835,48.0988,-88.0041,10.1920,-83.6334,60.1527,-131.9209,81.7924,-44.9849,-122.5619,-118.0985,-78.7958
-36.4877,-77.1862,-56.3304,-180.3059,-55.9123,-128.0287,10.2358,-55.5852,40.0529,-45.8988,19.7349,-83.2447,60.5905,-94.8299,59.2525,-32.6389,-145.8378,-141.6296,-87.4357
9.5313,-102.9915,-56.6692,-174.4444,-63.4941,-138.5129,-40.9230,-70.3201,-31.8247,-17.6585,31.0432,-82.1600,23.9574,-69.5821,-27.0455,-36.0279,-163.8693,-131.6135,-117.6669
15.7464,-118.2143,-32.6600,-122.8739,-59.7775,-122.7269,-107.4446,-95.9601,-106.0584,-63.1889,-15.7092,-68.6781,-6.3587,-71.8389,-118.0323,-53.3371,-141.7911,-101.6899,-146.8213
-19.9559,-69.1013,-4.8019,-89.8202,-22.8222,-96.6464,-116.7350,-118.1910,-117.7348,-96.3838,-53.1570,-51.2083,-5.0736,-73.6167,-128.3064,-56.8419,-93.3627,-55.9712,-128.4098
-60.8975,-57.3901,-19.0020,-61.2259,-0.3046,-81.2433,-73.4700,-100.1969,-43.9500,-57.0455,-57.6065,-54.9348,-7.1768,-73.8269,-41.3183,-27.8315,-91.5810,-14.3791,-87.4369
-118.9102,-119.8561,-95.2959,-25.4905,-42.3431,-56.6424,-71.3954,-47.4714,3.0328,-7.0052,-104.8341,-45.9147,-26.2325,-82.3792,20.8633,-2.8584,-117.0488,5.0930,-83.6607
-154.4268,-132.3020,-154.1862,-41.8218,-72.5109,-20.4269,-106.4821,-33.1883,-55.1842,-13.8816,-146.5485,-5.5461,-32.0046,-75.3219,-11.4817,-14.3223,-71.7378,0.5830,-76.6300
-89.5842,-78.2397,-113.1106,-119.8908,-36.7894,-19.5886,-66.9621,-74.7382,-77.1062,-67.5527,-86.5144,4.6469,-23.8914,-34.9968,-25.2496,-24.2495,7.0599,-26.9041,-16.5092
5.8754,-48.6023,-44.2376,-164.2673,-30.2361,-65.5173,18.4935,-97.8472,23.2978,-95.5836,-22.8970,-13.9637,-23.5982,2.9229,28.5617,-3.3221,-2.3661,-56.9061,20.6942
-14.3210,-40.1706,-48.9216,-123.3045,-89.3525,-101.7587,11.1356,-75.2227,80.1684,-50.6406,-57.4998,14.7333,-23.7108,0.8342,32.6002,10.5610,-61.8305,-50.2425,-19.1959
-126.1211,-62.0781,-64.3884,-70.7783,-100.0967,-78.3693,-38.8785,-49.7515,30.2667,22.4549,-101.2707,37.2978,-12.8902,-13.8490,-18.9333,5.5792,-53.2998,-1.4940,-46.9501
-184.3126,-163.4981,-4.6373,-66.5816,-25.6552,-4.7120,9.2386,-25.7701,26.6518,62.4798,-108.8305,-48.0332,0.8672,4.1524,-11.2037,26.3149,8.8424,49.9170,-7.2241
-133.1149,-218.1119,66.6773,-60.3332,36.5163,48.1569,66.3583,-1.1143,60.5842,50.6989,-138.8001,-111.9343,12.1770,37.2552,18.5065,60.9674,66.2777,58.4202,20.4191
-21.6038,-83.1919,71.1285,-14.1310,46.4623,6.2008,3.7474,-35.4694,5.0120,-32.7828,-146.9856,39.7569,12.7497,38.5465,-16.4345,34.6123,119.0811,-1.0140,-8.8677
57.3691,96.3441,28.0722,9.8079,45.5400,-97.6420,-43.4585,-136.0546,-43.3577,-153.2441,-110.7191,295.6634,-9.7833,1.7725,-34.7992,-51.7357,126.4482,-101.2255,-29.5585
-1.5246,117.0979,-41.7448,-33.9238,33.9675,-154.5123,38.6982,-199.6271,27.8458,-197.0029,-172.2167,403.5604,-38.1639,-47.8565,15.5957,-107.1494,44.1419,-167.6156,-2.5759
-195.6312,14.9326,-129.3191,-98.5235,-11.7498,-147.6752,92.7205,-177.4353,85.6961,-156.4803,-356.4458,369.3265,-44.3626,-72.8107,29.1752,-96.0742,-43.3931,-167.4924,30.9609
-356.0712,-88.6106,-167.8520,-132.4024,-60.1956,-140.9413,24.0290,-142.2906,38.5463,-142.4946,-475.6399,361.2979,-41.9957,-40.5908,-21.9393,-74.4117,-37.5237,-145.9668,37.0041
-345.0781,-140.1231,-112.6823,-124.6584,-68.9420,-133.4024,-41.3240,-140.7513,-24.1032,-158.1798,-445.2201,390.9000,-57.6899,15.4734,-52.5245,-73.3755,22.5345,-146.1243,19.3576
-237.6867,-118.0035,-32.4152,-81.9176,-61.9016,-106.1545,-58.3319,-146.1285,-70.9634,-136.0639,-356.9821,366.0025,-77.2585,23.6353,-60.5959,-68.6299,51.1649,-169.1024,-17.1583
-188.9863,-69.7990,-16.7180,-47.1400,-88.9283,-110.2818,-92.6372,-159.3881,-124.6295,-117.5621,-292.2363,300.4695,-80.0911,-8.3226,-82.0063,-57.7553,34.8163,-200.0396,-65.0150
-206.6581,-74.7388,-57.4985,-62.2043,-136.5100,-156.1422,-120.0524,-202.2570,-142.1986,-144.4783,-281.0862,267.1572,-79.1911,-17.7041,-87.9215,-51.7763,12.5592,-209.1794,-101.4812
-182.9901,-94.6097,-80.7404,-86.5649,-152.6914,-170.8170,-116.1377,-240.6961,-123.1777,-160.6053,-288.3062,261.5551,-78.0932,4.2839,-78.6662,-24.8806,15.9482,-178.8658,-115.6015
-96.9336,-49.6885,-60.7219,-68.9843,-136.2497,-137.6258,-125.5105,-230.9067,-114.2150,-147.1105,-232.1283,233.4971,-57.2851,36.3038,-86.3552,23.9768,24.0524,-145.3169,-118.7497
-45.7393,10.5958,-49.0110,-43.2328,-120.9204,-104.8499,-121.1708,-186.9563,-98.5849,-132.2906,-161.8382,177.9854,-35.7701,61.7858,-84.1767,37.0871,-1.4271,-139.2279,-107.4301
-83.0073,-9.7836,-72.5391,-40.1837,-109.6190,-76.7220,-61.9808,-134.9021,-58.9424,-93.6464,-198.3499,130.5403,-55.1522,45.5900,-57.5304,6.0475,-26.8739,-128.9764,-55.8551
-143.4722,-87.4257,-74.7082,-36.5164,-90.8824,-42.5501,-4.1601,-76.1970,-13.8226,-24.9929,-263.8106,110.6547,-93.3288,1.9461,-50.8925,-4.2429,-0.0161,-96.8764,28.1907
-146.0329,-105.8156,-21.7691,-49.5354,-68.2209,-32.4692,27.3095,-28.9490,33.8181,21.6394,-223.4804,106.0055,-98.3572,1.5024,-65.9887,15.1890,38.2972,-88.7976,86.9089
-93.1691,-25.1006,20.3881,-100.5646,-51.7818,-61.2753,55.8294,-18.4882,51.4447,29.3416,-163.8867,101.9714,-81.4447,23.4225,-63.5305,8.5207,30.5071,-131.5654,84.9441
-47.2789,29.6441,-9.4845,-113.3516,-64.8054,-102.3977,36.8208,-22.2698,17.3483,23.5493,-179.9515,96.7567,-72.5319,3.3765,-42.6595,-17.7719,-6.2908,-179.0122,47.7467
-51.2508,-53.9137,-77.0190,-50.0414,-112.5965,-123.5663,-36.2960,-11.4116,-2.6820,10.9900,-181.7760,84.2840,-54.9616,4.7744,-13.5756,-10.1993,-55.8524,-172.3278,4.6476
-103.1576,-168.7894,-112.1233,-23.7244,-136.8276,-105.3845,-75.3713,-19.7243,-4.9725,-22.6251,-142.6307,55.5098,-29.6118,70.8562,15.4049,12.4379,-110.5140,-115.8260,-37.5147
-177.5633,-153.6135,-85.6590,-87.2759,-96.6949,-70.6664,-70.5759,-81.5682,-58.3704,-89.1588,-150.6963,23.9262,-37.4442,78.1057,10.7326,-5.5712,-101.0416,-73.7637,-57.8806
-211.6349,-44.2050,-27.4823,-116.1491,-48.0183,-75.5863,-73.3273,-153.2581,-91.4493,-154.8907,-167.5697,18.3466,-72.8299,-9.6648,-24.4633,-42.0440,-4.8933,-81.1975,-45.5396
-132.2260,42.2865,-4.9998,-52.4665,-39.5455,-115.3359,-63.0431,-176.6287,-31.5006,-154.8686,-112.0536,43.6661,-86.8250,-38.0706,-37.9581,-35.9048,65.0356,-86.0502,-38.0578
5.9939,75.4179,-36.5852,-0.4057,-31.4732,-109.6129,-32.3262,-151.6770,-4.0533,-107.0108,-55.2551,67.9047,-65.9286,36.4144,-29.0722,0.2091,45.5518,-28.8994,-51.4741
41.2747,54.2556,-43.7264,18.4825,14.6760,-22.6448,-15.0616,-99.3751,-49.7422,-83.9680,-57.6738,58.6088,-22.6245,86.8148,-35.7120,4.2968,37.6489,60.6656,-40.9071
-34.6567,12.9124,25.1587,92.7524,76.1130,78.0693,16.0107,-35.1582,-21.7411,-63.7410,-54.4422,28.6903,29.3648,65.4320,-42.1891,-26.6322,104.7664,101.1955,4.6845
-71.9346,26.5345,85.4204,162.7039,102.5742,100.7839,70.1432,16.7720,72.6922,0.7819,-35.1926,14.3099,50.9138,22.3037,-20.8600,-29.9374,136.8511,54.0206,40.5473
-67.1672,45.6802,36.2038,82.8876,44.7054,34.7875,83.0036,54.9261,99.5381,59.6287,-68.5115,3.2078,12.3031,-14.7324,4.6350,27.3407,35.4525,-37.0468,56.0141
-127.3357,-26.4489,-82.7279,-61.4678,-82.5565,-32.7414,48.8889,98.2518,71.4808,80.3700,-135.5052,-36.4558,-55.4519,-25.5389,7.2973,92.9608,-104.9207,-80.4790,58.8033
-176.6595,-65.9825,-147.8389,-59.3052,-166.1566,-29.7219,12.4387,119.1064,39.6022,96.9657,-153.7421,-58.2993,-102.4629,-15.4885,-8.0594,86.1681,-126.2973,-36.8072,31.1040
-98.2785,62.7856,-111.8201,57.7133,-127.4388,8.8993,-8.7634,78.7752,1.7667,89.6630,-109.9411,-6.1410,-107.5862,-33.2714,-25.5909,5.4344,-42.5683,35.4421,5.5140
-6.7458,164.1608,-48.9677,91.8256,-30.8279,27.0802,22.5601,14.9848,2.7757,28.1344,-55.1839,47.3278,-75.6089,-70.2109,-32.1354,-59.2450,-4.2264,74.2309,36.6038
-29.6206,35.5960,-54.8135,19.1633,19.4634,34.1352,90.1541,-21.8351,29.1118,-39.8114,-38.3539,11.2619,-40.2169,-76.9112,-29.8675,-52.4498,-60.9582,79.7212,64.0307
-84.3529,-123.4123,-117.7256,-39.7494,1.4233,36.5335,82.2979,-46.6102,4.6501,-76.3343,-63.4743,-50.1684,-36.5482,-65.7145,-25.6777,-20.7845,-119.0499,59.7254,15.0869
-89.0047,-61.7861,-135.3716,-44.8891,-43.1885,15.6945,16.2973,-63.1935,-14.3014,-83.5981,-80.5760,-45.0979,-54.6587,-47.6171,-9.4121,-10.1733,-115.2410,23.2566,-30.6123
-77.5322,82.3785,-78.7085,-20.7278,-71.9932,0.9093,21.9469,-36.2159,21.9986,-54.5845,-60.4436,-16.5795,-70.6832,-10.3411,10.7900,-8.9997,-78.5689,12.4286,0.6003
-51.8613,67.3552,-34.7473,23.2843,-73.2595,25.2435,65.4419,14.0782,26.5561,-14.8675,-43.9173,-21.9340,-80.7938,-14.5822,3.6098,-19.5317,-49.7321,30.5831,32.7851
2.0538,-29.2131,-45.2363,51.8272,-57.4477,45.6014,56.8659,27.4896,8.2461,4.7136,-49.6745,-28.9745,-70.0515,-86.5287,-20.2596,-42.7535,-46.2178,17.2109,12.8321
36.3795,5.1859,-48.3906,39.4290,-36.3465,20.1935,33.5920,5.4848,14.4619,27.3171,-31.6502,-10.8275,-35.8371,-108.7102,-37.6369,-28.5692,-58.0863,-27.3955,-14.2974
41.6794,145.6221,-15.2394,43.3698,-32.2414,-12.2766,-8.8969,-9.1469,-50.6953,33.2884,9.1368,23.9847,-25.8619,-33.8892,-76.2931,18.4828,-46.4065,-20.8431,-36.1805
64.0162,215.4611,17.4394,103.6568,-49.5929,2.0660,-83.9432,1.0090,-143.5378,-20.4548,13.6803,61.9113,-54.1467,21.3027,-128.9767,17.4016,0.4605,54.6641,-48.0814
95.6653,172.4471,49.8106,150.2735,-27.6063,54.1174,-68.5133,30.1185,-100.8246,-56.8686,-0.0192,47.9646,-59.1499,11.5104,-119.6718,-13.6345,46.2706,113.0609,-9.4556
103.5171,95.6271,101.8669,124.1115,52.9078,84.7264,8.9767,55.6392,-55.2936,-17.5630,36.1748,-30.5000,-21.4955,6.6833,-48.2011,16.5955,69.5053,91.6393,32.9782
103.4546,44.9983,136.8090,83.3611,76.1113,65.1025,-47.7779,59.3148,-131.3661,8.9883,81.3065,-41.2975,-1.6996,28.7465,3.6176,70.5405,74.7838,32.0084,2.4358
118.0690,63.4797,119.2945,95.7765,-10.2000,43.1669,-133.3923,64.5045,-92.4706,7.2705,44.4469,84.5255,-26.2672,68.7370,21.0535,64.2221,65.9644,13.5063,-28.4034
135.0345,139.4878,80.3277,122.4943,-59.0508,54.3429,-24.3982,87.1593,83.3809,58.8277,-29.2082,186.6472,-49.7347,116.4730,31.8808,39.7418,69.5249,35.9755,26.0984
123.9703,162.1277,62.5071,99.1961,19.5479,49.2427,110.3257,89.4512,80.1197,107.9732,-26.6534,142.8410,-27.9139,101.3521,19.3594,43.6382,110.3294,22.9924,87.9092
76.6182,103.4303,69.8594,60.9655,101.3183,2.5450,64.0923,57.8269,-48.9193,76.4997,31.9820,54.7918,27.8292,11.2355,-6.4484,34.7626,149.6170,-44.1900,77.3535
37.4817,90.1279,79.3517,81.4764,83.2160,-31.9636,-18.3169,31.3927,-34.5265,39.7117,43.8718,21.6359,56.6506,-32.0958,1.3806,12.1306,140.7064,-97.0675,30.3455
32.9114,135.9348,62.2619,131.5609,13.4081,-45.2161,-42.1342,14.4970,1.4911,32.7846,5.1551,19.7228,25.0232,9.5572,20.7593,13.1486,94.1007,-111.4526,-23.5820
13.4792,107.9598,14.9812,117.4068,-55.7147,-79.7783,-98.1450,-13.0661,-79.0133,4.2841,-15.5262,29.9541,-17.4070,25.9945,2.4559,21.5653,18.2227,-131.0878,-77.8703
-23.4263,33.9184,-39.4611,36.4212,-115.1147,-117.1807,-136.1876,-26.8506,-103.2590,-13.4084,-6.6877,38.6417,-28.7516,-19.1245,-28.9355,22.3723,-86.7142,-149.7180,-97.0806
-1.4784,60.6778,-86.9388,-16.3853,-139.8652,-123.9114,-89.1943,-13.8994,-39.9916,-3.1554,3.4972,12.5327,-45.7476,-59.8185,-35.7121,13.7717,-151.7773,-119.4832,-86.7691
55.8268,149.9909,-106.2958,12.4572,-123.1115,-121.1086,-53.4326,-5.4289,-28.2799,-15.2310,15.9371,-10.5611,-77.8047,-71.3775,-30.9175,-29.7664,-112.2826,-66.4976,-77.9329
53.2892,160.2196,-71.2691,63.3822,-94.3546,-117.4585,-47.9905,9.0631,-33.5927,12.2081,30.7222,9.1947,-70.4469,-57.2758,-28.7766,-63.8100,-42.6403,-65.1092,-36.9823
19.5855,85.4873,-34.8742,44.6626,-72.1236,-104.9770,-9.0818,69.1388,10.6621,127.8540,20.2508,4.8977,-33.2605,-22.6971,-25.5870,-11.5283,-61.3832,-105.0829,53.9728
15.2168,8.6617,-73.7404,-31.6348,-59.1037,-93.4477,30.6636,150.0126,84.5614,200.5427,-21.1382,-46.2313,-32.4701,-9.7790,-22.3435,57.9727,-142.2014,-84.8355,126.2591
-5.7370,-7.6593,-119.9369,-57.6309,-44.3433,-51.4406,62.7454,204.5573,171.9428,187.9725,-61.5551,-60.2087,-58.1070,-22.9347,-17.5271,52.9264,-163.8890,33.6065,133.6257
-49.3393,37.8802,-60.5350,-10.1305,-4.2044,40.5901,106.2824,228.8964,156.2469,194.5858,-79.7300,-43.0783,-58.1655,-6.6248,-9.8090,39.5323,-104.8001,135.6650,101.8502
-43.6273,52.5396,49.5775,11.5024,44.1305,82.7254,80.6695,209.0463,-18.9769,171.3289,-72.8529,-71.9187,-42.0566,26.3946,-6.1789,49.4036,-47.8652,107.3020,64.9665
6.0905,-5.8585,111.7350,-14.8458,52.1253,13.3119,-0.3398,123.1956,-113.6028,48.1313,-32.6208,-104.6441,-36.2111,14.1152,-13.0907,-2.5719,-15.8002,15.0530,50.3268
67.8814,-13.3544,163.7845,2.2224,38.2473,-47.4733,1.0562,29.9374,-25.6896,-20.9265,25.8838,-81.0792,-24.0330,-20.0489,-38.9312,-73.1056,53.3375,2.7279,67.2528
155.7523,76.3675,241.3938,75.6992,76.1036,0.6356,48.1753,20.6538,10.6476,42.1527,51.3854,-62.3248,16.6229,-14.0496,-70.9173,-39.4145,164.9802,82.5264,89.6127
208.4977,113.7681,294.2467,134.4344,175.6990,94.4642,44.0564,84.4517,-14.4029,90.9369,32.9508,-85.7612,81.8784,37.3478,-55.0994,37.6424,245.0763,161.2245,106.9730
161.8185,61.6288,326.0131,158.3080,267.6356,151.6442,78.5260,131.0858,90.8859,79.0944,22.2517,-101.7062,148.0480,109.6559,19.9038,33.4031,260.1429,182.0088,129.1085
118.5905,54.0638,366.0695,144.6497,301.9675,152.0633,182.0215,124.0429,213.1923,71.9933,35.2914,-106.1725,192.0001,158.2423,81.9173,-21.9798,242.2761,156.4297,135.3931
163.3118,87.8141,367.8249,89.2246,306.0794,107.9284,224.1550,102.6038,198.4160,36.6005,35.2824,-128.9395,220.8592,140.1328,102.5304,-35.9804,225.1409,137.9119,116.7966
205.5423,55.0381,333.3367,64.0330,324.0024,74.3775,193.1120,94.4930,152.4793,-29.8834,25.9054,-154.7925,245.8064,102.1420,125.8628,14.7407,230.4688,157.9511,104.9314
198.5104,-3.1523,335.7431,105.6579,326.9666,83.7974,158.0013,82.7496,113.3643,-47.9089,37.4875,-171.5999,240.6462,116.5609,130.7810,59.3395,254.7239,160.7644,107.4448
200.7391,-8.7255,334.6472,113.9551,266.6134,89.0101,113.7400,59.3798,66.1308,-39.2677,55.1454,-174.1283,200.2192,141.5833,72.3905,-6.5661,254.2043,102.9444,117.7824
190.3410,-9.1545,248.0284,51.0669,195.7222,73.5111,104.7122,49.8645,121.0236,-40.8448,66.6540,-137.9837,175.8950,119.8395,28.3301,-112.8344,209.6967,58.5373,145.6757
135.8775,-23.5034,148.2933,9.4603,188.3003,68.5365,159.9304,63.5084,199.1133,8.7129,87.3167,-93.6374,179.5528,106.0558,69.3704,-51.9371,152.2666,67.7671,153.6815
116.2467,14.9861,115.0931,-7.5304,184.3603,36.7326,151.0329,61.4674,111.0207,72.5094,87.8934,-97.1904,164.6075,138.1053,100.1055,119.2860,94.9007,36.8932,98.1563
151.1293,82.0452,82.8158,-58.2923,106.0919,-52.0081,41.2017,3.9425,-5.2885,28.1717,42.6706,-110.8290,140.3343,154.7597,49.4336,121.9900,42.4825,-63.6903,41.2633
157.0295,75.7527,28.5507,-76.3415,39.9823,-118.9076,-17.2922,-85.5282,19.0462,-74.9116,19.5148,-90.7846,161.5953,130.2859,26.7443,-34.4478,32.3480,-126.8691,50.3828
139.5327,5.5236,40.0994,-16.2104,89.1159,-123.7414,18.4895,-134.7258,65.3825,-111.2664,68.1177,-91.6801,209.6468,104.6374,93.1151,-105.8814,57.2607,-110.6346,77.0016
169.4220,-22.4839,110.7368,16.4248,162.3951,-124.6192,52.3890,-118.1275,76.3059,-109.4528,127.9046,-124.6489,222.0204,90.0308,117.2717,-70.7445,56.5070,-73.7052,69.5218
229.8111,30.4372,138.0469,-16.2922,122.2612,-121.4544,40.6323,-97.3535,69.8223,-142.1385,148.8305,-115.4373,199.5624,96.4466,28.8798,-52.9833,37.1753,-34.9475,48.6189
262.4733,106.8523,103.7768,-27.0971,21.0136,-70.6162,-19.8795,-120.7544,-51.3088,-186.9981,141.6879,-94.0904,183.1946,144.9141,-38.3612,-53.3371,47.0443,6.1967,32.5054
245.1626,135.3452,52.4176,-22.3214,-4.1031,-17.7782,-79.6940,-150.0173,-169.0433,-199.6604,106.8660,-173.5562,189.6316,175.2661,3.1249,-57.2809,56.0498,10.3929,35.9737
191.0196,92.0020,0.4331,-75.6468,36.8297,-24.9322,-36.7453,-151.6992,-48.8246,-172.0101,74.8293,-313.6858,219.4109,113.0095,53.3321,-88.3516,25.5484,-31.1380,71.3609
173.6074,52.4472,-22.0356,-142.3419,39.9088,-67.4074,62.9484,-158.5021,121.2477,-141.2344,107.4569,-338.0799,261.5407,30.9915,40.4523,-107.0028,-0.7941,-85.4266,86.0277
246.4212,133.4939,16.1618,-126.2968,-0.9835,-99.7582,74.6132,-180.4472,95.4766,-168.5846,163.4125,-196.4648,292.0397,43.4820,29.1165,-103.1587,13.2352,-136.2212,39.7505
311.8437,259.2511,67.7019,-31.5712,-23.4236,-112.0841,20.3684,-184.8015,41.6017,-226.9537,154.7452,-59.3559,317.6024,102.8627,44.7533,-114.7584,37.2189,-162.1682,-8.2975
257.7213,181.5404,65.8337,49.7066,-21.5667,-110.8600,-16.0700,-183.4134,32.9469,-220.6371,114.8345,-95.1443,364.1105,91.2913,27.9461,-92.5046,36.8612,-139.4282,-20.9808
156.1109,-59.5932,17.0946,33.8046,-13.2291,-114.4673,-59.1256,-204.6297,-83.3044,-176.0992,94.1349,-213.0679,390.7062,9.4074,-16.1730,-28.6244,2.5926,-104.0683,-39.1906
137.7984,-68.5294,-38.8104,-45.6897,-1.3362,-137.5979,-93.0941,-215.5220,-153.1883,-193.8648,49.9352,-192.1463,329.1045,-67.0453,-23.2738,-53.9159,-44.8339,-105.0723,-61.7944
205.3982,238.8376,-69.9255,-52.1412,-20.7572,-168.3014,-73.7256,-186.7560,-6.5228,-222.8801,12.3178,-77.6298,230.7735,-103.4441,7.8683,-153.1972,-51.0923,-121.8010,-60.0884
288.0634,438.4644,-40.4177,38.9372,-76.5462,-182.3724,-81.8572,-153.1428,64.4474,-154.2926,82.7902,-147.5145,215.1710,-110.4585,29.1253,-138.1676,-2.6716,-117.7799,-66.0327
326.1653,328.4899,36.1802,83.7524,-89.7693,-164.4300,-164.0107,-141.2306,-120.5111,-56.2894,188.8205,-419.0373,265.1399,-119.2727,19.8819,-29.9211,43.5524,-106.2934,-90.7234
287.5738,197.8434,81.4969,29.9981,-47.7413,-129.1220,-217.7116,-131.7712,-236.6073,-53.4051,171.9252,-576.3332,266.3979,-139.5209,8.4728,-22.5661,60.8277,-102.3638,-74.2907
223.9665,211.0217,80.9535,-1.0972,-40.0445,-112.4797,-178.9531,-109.3380,-68.5819,-105.2974,85.9086,-463.0273,225.5447,-120.0359,42.6084,-87.9201,80.7258,-82.5114,-0.0080
234.6989,217.6097,111.6770,42.7838,-62.0939,-103.6009,-92.4354,-81.7243,130.5732,-119.1637,86.5447,-258.5724,235.7539,-45.0147,88.9549,-52.6772,101.9974,-33.0658,59.8708
316.3872,183.6328,177.5241,80.6803,-32.1151,-61.1096,-50.1310,-68.8144,61.1491,-116.2647,151.1949,-135.5628,285.3643,-9.3547,39.0322,48.5319,85.4047,8.3050,33.4857
376.6525,219.9043,190.7007,83.3082,18.2112,-19.5472,-135.2341,-81.8823,-204.0795,-130.4752,169.8802,-74.9704,299.2088,-56.8835,-75.3418,51.8588,33.7164,1.0273,-58.2715
383.4783,305.8665,146.8584,93.9777,21.1716,-34.8378,-252.4809,-96.0695,-314.0770,-125.0408,148.2849,-13.2905,277.4967,-86.0378,-90.2820,-37.7667,-4.2248,-26.4809,-105.6470
367.8927,355.1116,124.6779,110.3886,7.1162,-58.4916,-204.0798,-92.2142,-148.1190,-104.3776,144.8362,57.6694,255.0634,-48.3861,-23.5718,-76.4698,3.3061,-14.2208,-61.7751
343.2301,349.4207,142.7898,109.5512,4.1922,-33.3069,-70.0841,-107.4280,-3.2097,-121.0982,155.0983,122.7823,236.0278,-28.7184,-31.6985,-17.8092,41.2870,29.6729,-31.6280
317.5730,292.3457,181.4501,111.9847,4.4049,-3.1029,-86.1206,-160.5823,-65.8197,-154.9402,145.0485,174.2429,218.4184,-54.7275,-80.8214,46.8920,79.2883,54.4600,-85.7656
303.2122,225.7425,229.3670,125.5516,28.1578,2.7798,-189.8117,-194.7810,-149.8820,-161.3420,108.1534,219.1085,186.4870,-68.2931,-78.8313,47.3210,104.5461,67.4141,-139.3125
279.3743,220.4605,215.1306,121.5092,43.0025,23.4291,-199.3505,-172.9147,-135.6300,-167.4357,71.0573,262.5747,125.2951,-70.4745,-124.1977,11.2458,99.9027,103.7430,-142.9029
229.9405,264.4330,94.3504,112.3659,-16.2270,56.4548,-161.3704,-130.3471,-84.4158,-178.9855,67.7209,297.2941,81.1358,-81.3136,-235.2898,-12.9007,50.9672,143.8699,-156.6938
202.3526,303.8083,-0.0181,148.0374,-75.0157,74.7884,-131.0434,-96.5302,6.9446,-147.6449,92.4463,333.8081,84.8340,-62.1401,-232.3667,-17.8383,16.5408,157.0618,-182.2260
240.4129,326.7562,54.3649,212.8970,-38.1111,111.1328,-67.0464,-66.9857,55.4480,-96.6640,101.0665,386.2535,64.0613,-15.9601,-141.0029,-20.5803,68.3729,162.3441,-180.1600
283.8050,306.0711,144.2126,233.4956,3.4083,183.6128,-69.5811,-37.7595,-109.3441,-75.4418,74.7390,418.5071,-17.2650,-3.9730,-180.9458,-25.9728,133.9176,180.7832,-181.5439
233.9972,237.3446,120.5358,193.7844,-41.1826,234.4458,-207.0751,1.5085,-332.7182,-34.9871,39.8154,393.0580,-72.3379,-26.4329,-299.2255,-5.7346,84.5613,195.4911,-175.2810
121.1916,207.5909,27.1257,143.5352,-87.5136,225.4453,-258.8933,64.8508,-287.3868,56.1006,24.6007,341.1362,-63.0545,-40.5337,-272.1873,49.3408,-31.9821,195.8540,-81.1915
79.5869,233.2575,-30.0530,113.7057,-69.8724,201.7642,-74.1265,143.1628,-7.3541,125.7339,29.1872,293.9022,-53.6993,-36.6287,-144.3649,76.1050,-64.9471,207.8249,52.4238
115.6317,204.0785,-27.9820,107.0328,-41.2594,223.1313,123.6978,207.7144,203.0312,142.4449,21.7762,236.0509,-56.8448,-8.6712,-106.0829,50.9308,-12.0213,248.3479,73.0296
82.0722,114.4710,-1.7922,125.9104,-39.7822,275.5449,90.8432,214.7568,168.2849,132.0842,-26.9481,198.3317,-48.2863,35.3988,-166.8763,58.8605,9.5123,275.4417,-37.2381
-41.9255,90.3233,-18.9156,157.7885,-64.2083,284.4246,-84.8928,138.0871,-34.6013,79.5248,-79.7733,245.7478,-71.0560,40.6353,-229.5217,103.5519,-26.8534,234.5545,-151.5895
-98.0184,156.8803,-89.6437,181.6667,-100.1995,230.0814,-171.3835,42.1733,-157.7775,20.1050,-69.4915,331.9556,-135.2990,-2.7326,-255.4063,69.3126,-43.1114,154.4257,-179.4633
-56.1233,216.2664,-102.1491,182.8250,-101.9582,180.4560,-139.9642,28.4619,-110.4033,52.7441,-24.9461,344.8719,-165.5587,-28.4572,-259.5233,-12.1343,-14.4191,115.5978,-150.6960
-60.0607,201.8896,-29.0977,138.6366,-79.0522,164.1630,-151.4861,85.1445,-114.2764,135.7690,-39.0705,289.9693,-160.1975,-21.2554,-273.0855,6.4606,-14.4331,121.9300,-155.2197
-124.1880,126.7059,-26.1490,64.0239,-106.3882,137.1111,-231.9842,123.1627,-222.7114,142.1457,-96.6393,245.6784,-192.1819,-28.1059,-280.7885,82.1730,-71.4980,114.6107,-195.4987
-121.7385,50.0555,-119.9664,40.7067,-152.7316,105.2953,-216.0703,124.7381,-169.4201,103.9600,-92.8951,206.5374,-228.9724,-42.7630,-216.7340,85.5262,-91.1157,90.3726,-163.7304
-51.4791,-0.2651,-130.0065,82.5835,-121.0096,114.0503,-88.8847,113.7910,6.4874,103.5232,-21.1654,140.9564,-191.0977,-28.0386,-105.3369,64.2788,-29.7004,76.7839,-64.0704
-22.3310,-69.2044,-48.4860,77.5815,-65.2928,133.0656,-49.3442,72.6900,-38.0588,79.3172,23.7904,87.9368,-138.8101,-5.5728,-67.2713,86.8450,-7.8421,48.1507,-61.4767
-67.4023,-143.5977,-64.3801,-11.8753,-97.1904,112.1915,-147.7892,5.7119,-236.7505,-4.6408,5.7737,75.1115,-166.2906,-12.0773,-132.1792,90.6965,-96.4228,-10.0836,-172.2119
-147.2899,-110.2339,-163.6525,-63.1378,-156.9851,79.8524,-212.9982,-28.6041,-245.5215,-44.7017,-26.4257,85.7142,-209.6772,-27.2341,-213.7699,54.1583,-174.0907,-39.3900,-207.5053
-196.6112,23.5107,-155.1553,-4.1253,-122.8007,74.6971,-162.3799,-13.4739,-103.8691,-10.7237,-28.9676,135.4177,-171.6924,-13.6319,-240.9509,21.6758,-145.1903,-10.0266,-127.9136
-157.3892,91.8194,-40.0562,79.6385,-30.0483,78.0740,-98.5514,-3.5247,-74.5606,-0.7408,3.6435,220.4916,-112.6916,12.1117,-191.8830,-20.0571,-83.9752,16.1486,-92.7191
-89.5948,34.7648,20.2481,92.5148,0.3429,66.1074,-114.6648,-35.4169,-159.7948,-34.9739,47.4553,259.7414,-129.5033,2.7135,-95.5211,-68.2398,-71.8031,-1.6636,-130.1056
-97.5330,-56.6867,-17.7523,37.7301,-40.3953,53.0494,-160.2322,-72.0420,-192.7893,-45.8442,70.4971,222.9675,-176.4991,-28.1346,-31.1264,-70.0423,-88.9226,-8.0325,-118.1798
-123.6814,-132.1219,-75.9565,-14.5709,-52.7128,72.8694,-125.4684,-55.6872,-119.7308,-38.0313,76.6951,169.6631,-169.1081,-15.9988,-25.4599,-39.3449,-80.0521,46.0375,-41.9425
-75.5640,-178.5782,-87.2294,-6.4266,5.0698,127.8613,-23.4656,5.3881,-20.1740,-51.0184,98.7773,118.2983,-131.5320,23.6919,-18.9343,-22.2820,-11.7899,107.0288,27.2569
-30.1800,-145.0312,-32.7705,39.0976,69.9530,155.1385,46.6801,50.7897,48.8895,-44.7094,143.9435,77.3121,-114.3664,3.1844,13.0821,-25.6044,81.8882,97.6414,89.8882
-44.0046,-46.5403,43.7627,58.3213,107.1624,107.4855,107.0169,64.7266,138.7521,13.2299,192.8856,123.2115,-97.6661,-63.4378,38.4150,-62.6255,115.1694,38.2882,152.4998
-34.9277,2.0676,72.7249,48.2355,152.8152,49.9209,213.1846,72.9382,237.5040,55.1611,225.0739,238.3840,-60.2180,-69.0974,58.8601,-101.2970,86.1443,13.6646,163.3149
-10.7250,-61.5898,58.4039,35.8509,202.7461,68.9939,264.3339,65.2495,209.0619,38.3068,224.4313,255.3172,-22.9473,-11.5248,94.2663,-54.2829,91.0252,52.5754,129.4693
-41.5592,-184.0563,70.5912,12.4325,218.6396,132.9643,209.3141,31.8833,98.6527,22.6618,212.3338,119.2774,7.7153,11.7055,129.8409,29.1931,161.7742,108.7907,130.4754
-36.5545,-275.8136,136.6799,-6.2730,225.1049,151.0273,189.2418,15.6094,120.1702,30.2160,245.0665,-10.1691,38.9481,-17.2504,154.1977,4.3103,237.3665,129.9450,174.3256
76.0214,-265.2720,211.9444,25.3228,255.9807,111.4151,256.3515,35.6809,241.2194,8.9288,325.5500,22.1000,57.7435,-37.8432,186.9549,-98.3953,273.8508,102.2162,201.4679
166.9631,-142.3164,237.9539,79.2140,290.1339,76.3127,315.0671,58.9364,277.3477,-19.3631,392.0259,196.8164,64.5099,-35.9836,244.6976,-142.0170,267.2648,58.8177,211.8095
163.8587,-19.1312,210.4379,82.0068,322.2410,80.2925,352.0720,77.4515,263.0190,8.2002,413.3473,328.4834,80.0940,-31.1660,311.0356,-114.3681,242.9888,48.4132,238.9901
147.2411,-44.3671,194.8740,29.7929,362.5485,90.8872,381.2892,97.8330,288.8120,47.0675,405.9106,256.9489,100.2301,-9.1906,351.8950,-63.5853,249.5051,64.1352,259.4972
127.5719,-186.3032,226.0015,-27.4167,371.6717,68.7556,371.7344,89.0680,320.6689,36.2564,389.5570,112.9374,114.1432,31.5902,372.6813,-17.6522,280.6746,40.8056,249.8744
80.3278,-247.7799,229.3766,-55.1090,324.6960,18.1204,378.4627,37.8879,363.9010,13.4101,390.1080,155.5060,138.6983,36.9408,413.3576,-28.8638,279.3838,-49.0870,245.8705
67.6314,-181.4410,156.4066,-55.4112,265.2593,-45.6130,414.4433,-16.3124,395.5826,2.2703,411.4185,307.1790,172.7086,-9.4627,454.0108,-78.2890,254.2059,-150.7159,265.9553
84.1437,-174.0196,104.7421,-71.0936,232.8354,-106.4901,353.2837,-36.3463,310.3202,-14.9684,406.9444,296.4323,180.1015,-19.4908,434.0760,-63.0666,252.0581,-195.5693,283.1897
51.3734,-306.1783,150.5395,-128.2815,231.4989,-119.6213,239.6730,-9.1286,201.7393,3.2439,362.0771,180.0260,155.8458,56.8240,376.4372,-4.2237,248.8465,-176.0843,295.6042
15.3680,-406.7286,197.7394,-185.8874,245.0730,-85.5012,257.9646,48.4864,241.8159,68.9357,327.5885,174.4351,132.6679,103.4330,344.4205,-12.3265,204.5665,-149.9365,314.3035
51.9086,-360.6931,155.5412,-221.0591,234.7053,-98.4268,338.6468,77.9010,319.2545,94.5352,322.3602,213.7334,115.2203,9.5022,334.1519,-59.7735,148.2338,-169.5983,321.4376
103.0601,-277.3758,107.0499,-264.4423,209.2601,-182.4134,345.4414,49.3936,313.7335,66.4225,319.8618,174.8190,88.6145,-131.1708,343.1590,-54.9002,136.8808,-203.9230,327.9788
108.5401,-284.7732,156.7177,-287.3306,241.3251,-219.0973,383.7771,9.1439,345.6814,64.7702,307.8628,155.5620,78.7121,-161.7387,398.6987,-16.2551,194.9650,-182.3467,372.2668
74.0360,-376.3870,257.0474,-230.0138,315.8979,-162.3358,473.8308,-11.1287,412.3513,73.7968,270.8900,222.1541,117.0990,-80.6767,452.5085,-1.9480,273.4588,-120.2214,411.7583
-6.2980,-450.0299,294.8463,-150.6258,329.9782,-116.5456,446.9192,-39.1371,367.1927,25.9212,216.0437,310.0601,159.9314,8.6708,438.7010,-27.6486,274.3057,-104.0830,363.2350
-79.7834,-414.4171,245.9079,-148.9664,290.6568,-129.5179,342.6829,-80.5514,279.4080,-41.4623,206.4770,399.2200,135.8811,29.4563,398.0471,-79.1989,196.4751,-142.0638,262.4263
-64.0808,-330.2284,182.1119,-199.1665,284.8322,-121.5838,315.0172,-87.5528,261.1104,-57.1996,217.6431,436.5374,68.7157,-30.1863,389.4168,-100.2177,152.9151,-136.5260,223.8161
-45.2725,-349.9936,168.4642,-215.3653,293.5449,-35.6912,309.5837,-17.2664,247.5712,-7.6996,127.3560,330.5989,49.1496,-93.7137,411.5795,-59.7806,171.9089,-37.4199,263.1552
-134.3878,-443.4914,183.0548,-187.9855,261.0334,77.7089,277.3019,104.6769,243.4940,85.4300,8.1581,185.1391,88.6249,-69.6361,455.4765,-24.3440,169.6327,57.6215,298.6318
-199.4603,-452.7824,161.1179,-169.6010,221.4193,106.2336,282.0931,169.8770,287.5782,150.9546,106.6949,130.6166,108.9322,-1.1622,464.7202,-41.1621,121.4913,24.5790,277.9578
-103.0930,-423.1897,99.9756,-198.6916,197.8432,8.2097,254.2732,105.1587,239.6731,121.6293,408.5048,22.0535,68.7964,-2.1481,359.5533,-72.6592,64.4131,-94.8956,207.7791
20.0176,-493.4877,48.0464,-247.8064,154.6652,-93.2323,136.9404,-2.6576,79.5705,49.9380,629.9513,-258.0620,4.7306,-71.2887,222.6873,-103.1118,14.1979,-135.4739,122.7967
30.2539,-569.8560,12.1762,-250.7989,109.8123,-79.4060,86.4200,-32.1754,27.6803,19.9810,671.1333,-518.3685,-42.3724,-128.2836,200.6409,-129.0453,-17.0868,-56.3745,62.0755
-1.4043,-512.7507,-40.1690,-215.2871,98.1415,-27.3742,135.2812,-0.8768,88.2899,21.2132,662.7255,-619.9742,-80.6325,-137.0819,217.9702,-102.1711,-64.0610,13.2709,6.3205
-29.2027,-425.1002,-125.2166,-212.8328,50.6665,-34.6386,82.3781,29.4627,35.1403,37.0368,651.1212,-689.2994,-151.6278,-92.3973,126.0359,-40.3949,-201.6042,4.9393,-117.2672
-114.4592,-436.7959,-234.2054,-232.9496,-97.6801,-42.0077,-94.7531,59.6516,-120.2735,83.7442,603.0421,-812.9332,-264.6130,-16.8891,-9.0061,-33.3353,-357.5850,-13.5783,-287.1942
-211.1518,-489.8227,-319.7414,-211.7255,-254.0710,-11.7174,-204.8341,71.8293,-197.5224,119.3492,567.2556,-928.6547,-357.6128,24.3591,-76.7988,-68.3854,-371.4840,-5.8009,-371.4439
-215.3601,-516.5220,-323.0109,-178.8528,-295.8833,-3.6071,-210.0108,44.6259,-215.0641,103.3158,573.1497,-1000.4698,-373.5594,17.1102,-118.8756,-60.6414,-298.1555,-0.0907,-345.5259
-190.9932,-546.4068,-276.9863,-190.0133,-255.3308,4.6653,-222.5930,38.9304,-269.1169,80.5539,541.5712,-1018.3739,-337.9920,19.5966,-161.8239,-20.3777,-306.4742,22.4793,-326.0447
-259.3019,-577.0125,-262.7416,-197.6635,-218.8821,74.7197,-244.5939,86.1139,-295.8334,81.8937,427.6804,-955.4827,-298.0378,50.7249,-162.2903,-9.9727,-351.4381,92.1000,-328.8538
-366.4059,-554.3874,-248.8489,-146.5329,-175.1742,144.7549,-196.6579,115.9211,-233.7798,77.9304,295.8117,-849.6304,-263.1241,84.5540,-154.4997,-34.1069,-308.6730,160.4359,-270.4639
-390.1405,-481.9077,-178.0851,-86.1422,-120.6581,141.0993,-125.4654,99.4468,-197.8418,54.2279,213.2655,-777.7775,-248.2623,113.9860,-185.5733,-63.4268,-242.2486,164.6708,-213.0004
-353.7284,-431.7114,-145.6338,-93.9669,-141.2272,84.5571,-168.5062,70.7874,-287.7491,10.0599,174.1981,-749.8539,-267.6483,115.8302,-204.7160,-64.5273,-260.2299,101.6124,-276.7543
-357.7821,-443.9587,-235.3333,-176.7923,-239.8825,-3.1970,-293.9544,21.9526,-382.2078,-43.3607,123.8779,-721.4502,-287.3925,56.9578,-178.5528,-20.3719,-335.7812,4.8959,-374.5425
-414.0736,-465.2920,-332.0914,-270.3000,-291.3330,-92.6014,-301.3626,-36.2541,-328.7512,-48.7477,25.4000,-662.8783,-282.3034,-23.5473,-149.2153,23.3910,-397.4590,-70.4185,-355.5133
-465.3313,-439.2830,-333.4159,-297.1132,-258.7176,-111.3345,-166.8031,-37.4080,-206.7082,9.7667,-84.3906,-594.2435,-280.5618,-51.9000,-141.2892,16.1508,-405.0959,-77.2602,-259.0205
-482.2841,-401.7435,-315.4439,-246.2324,-225.1128,-67.9154,-75.7605,5.6898,-153.5164,54.4953,-145.2157,-557.8985,-295.8065,-18.8285,-152.6094,-10.3355,-353.5500,-40.2500,-172.5324
-484.8144,-381.3637,-334.8154,-177.3102,-214.9219,-36.5061,-61.4015,20.4477,-114.3784,45.7037,-187.0583,-532.0275,-308.3178,23.6798,-174.3978,-13.7599,-293.7533,-14.1106,-77.1448
-511.7642,-327.1331,-342.2370,-130.7992,-200.6292,-2.1440,-12.6055,25.2919,-37.1977,27.0499,-287.5516,-459.0323,-310.9851,19.1823,-172.7448,-17.0232,-263.2066,6.8510,18.6638
-557.6396,-251.1568,-334.8055,-105.0487,-189.9799,59.2293,35.8744,70.6050,-29.6593,22.1186,-406.6812,-379.0511,-294.0477,-36.2960,-149.6990,-30.0466,-229.8541,41.6475,59.3524
-551.0109,-243.6567,-336.4841,-111.2379,-171.4566,69.4527,22.8429,121.7278,-98.0074,23.8078,-422.2048,-367.0392,-246.6257,-81.2305,-154.3816,-11.8908,-182.5705,60.6735,71.0166
-465.0184,-283.2285,-299.7729,-150.7816,-126.2236,5.5991,24.9003,131.0543,-101.5051,29.5650,-346.9863,-373.4467,-201.5950,-81.3893,-166.1210,39.4710,-154.9411,57.0575,88.3801
-380.2364,-275.7177,-215.3237,-174.9128,-97.9783,-38.3051,43.8609,109.9310,-56.1183,25.3784,-321.3185,-323.4493,-188.8316,-74.1604,-127.8256,66.8595,-148.5497,66.4327,71.5784
-354.9631,-239.2737,-169.4764,-159.4783,-103.1315,-31.7919,6.2912,97.1712,-79.7299,26.9308,-375.6638,-262.1853,-184.4377,-75.4253,-86.4492,43.7944,-157.6803,77.8368,31.1584
-353.8835,-229.2867,-196.6682,-152.9863,-95.3214,-21.6825,-11.9183,132.6364,-114.0886,79.8431,-409.2483,-240.7852,-178.6025,-72.6488,-107.5796,7.8772,-193.6355,59.6822,34.3197
-353.7715,-221.1774,-237.7602,-172.8892,-92.2143,-5.3151,39.6474,202.9457,-67.3627,140.9871,-397.2369,-223.2709,-195.5014,-91.4401,-143.5949,1.1390,-228.7925,45.0566,49.0594
-365.6452,-187.1080,-246.6171,-152.2432,-137.8664,16.0191,28.3298,214.6253,-28.3285,115.2988,-404.7950,-184.9011,-216.4305,-115.7012,-137.8648,26.7429,-237.9590,52.8166,-5.2915
-362.4132,-115.3853,-219.6023,-71.7352,-180.0104,-11.3007,-59.1849,122.6449,-74.4301,30.0117,-430.6476,-140.1849,-198.0995,-65.6828,-110.7381,59.9512,-245.8660,17.2079,-95.9132
-330.1824,-9.3478,-186.0083,-26.4171,-179.9367,-71.1135,-76.5292,7.6635,-121.3651,-20.0488,-429.2300,-94.5044,-153.5685,26.6860,-83.6167,70.9128,-242.8976,-81.4831,-130.0355
-320.1856,15.4473,-207.4330,-68.3178,-196.9474,-81.9806,-51.1681,-54.3138,-107.1990,-37.3719,-422.2751,-73.5856,-132.9001,33.7977,-70.7503,52.8688,-204.2239,-152.8246,-94.2017
-349.7438,-111.2052,-293.0380,-118.0442,-242.0392,-53.7940,-94.3047,-70.8817,-94.7378,-58.4422,-446.5659,-97.3832,-161.8055,-41.2092,-102.1331,44.2482,-192.2250,-145.1696,-51.6497
-353.7465,-175.4483,-354.1855,-115.1777,-249.2034,-62.3853,-136.2318,-60.4275,-134.7455,-52.5351,-474.6680,-107.3390,-222.5739,-87.6319,-153.5590,83.7459,-239.0338,-108.0806,-56.3600
-285.6679,-15.3520,-321.6813,-96.0851,-218.7475,-104.0342,-123.3884,-36.0340,-188.8073,-11.1104,-465.4030,-63.1398,-265.6214,-73.2777,-169.7861,140.9387,-244.2412,-87.9399,-94.4497
-196.2597,109.0496,-231.2684,-80.3649,-211.2728,-124.3027,-149.6349,-30.8402,-202.0179,4.0240,-423.8035,-30.5546,-264.5425,-33.5057,-161.9045,152.0466,-173.2824,-97.7061,-109.9393
-185.6519,-9.5472,-167.0037,-51.6898,-241.2278,-115.6254,-195.9121,-46.4023,-165.9802,-23.2529,-392.3372,-32.3212,-247.7000,-4.7339,-147.6285,108.9867,-141.4799,-136.9515,-90.8309
-263.3428,-91.0496,-188.5828,-24.5627,-276.1769,-84.8269,-146.8201,-43.0094,-113.0143,-31.6785,-404.7826,11.3849,-235.9706,-23.6962,-103.5436,52.3157,-180.2807,-149.3470,-74.4782
-297.6639,63.8980,-266.6492,1.1462,-283.9664,-24.8354,-73.6803,-16.3737,-84.6232,-9.9481,-430.4347,78.2489,-212.0547,-62.3000,-71.7564,16.8392,-178.4236,-76.6779,-71.2659
-207.2452,157.6792,-269.8633,32.2937,-257.6742,26.6048,-106.1371,-6.0407,-90.8452,-26.2640,-404.7272,38.5771,-174.4544,-46.8711,-114.4040,19.2855,-105.3062,15.7552,-63.4863
-98.8366,31.9634,-140.3802,2.0164,-214.3830,10.6181,-161.5566,-26.0734,-95.6658,-82.8368,-336.0426,-57.1423,-139.1838,-8.3420,-155.0385,43.3284,-58.2478,20.6652,-52.3625
-64.6794,13.6535,-25.4916,-93.5747,-160.4502,-54.5385,-124.7214,-47.2812,-76.3091,-85.2132,-285.5436,-2.6351,-103.3114,-22.2121,-105.6139,48.2421,-82.2612,-42.2142,-43.6399
-39.7368,228.9953,-51.0997,-95.4683,-99.5503,-94.7275,-69.7810,-48.4410,-69.5096,-23.1473,-258.5405,188.6586,-67.9891,-35.6808,-47.3869,33.4379,-111.7360,-85.4025,-37.7036
-0.6993,331.2366,-109.9192,36.6880,-64.9740,-76.4768,-74.0324,-45.9489,-100.8072,-3.3297,-245.3084,278.7221,-47.1817,15.3655,-61.0910,31.8914,-92.1302,-89.3131,-51.4362
-31.7968,185.1874,-88.8729,105.3589,-68.5982,-24.0920,-75.3426,-48.6957,-133.3441,-41.1654,-284.8999,200.0178,-38.6843,52.9321,-77.9160,43.1902,-60.6787,-78.8457,-89.1177
-111.1823,68.2998,-75.4847,28.7524,-77.0816,4.5029,-48.4689,-25.5285,-139.0246,-42.4101,-352.7417,105.3830,-38.1623,17.4658,-56.8051,60.2804,-75.9976,-77.3968,-110.4475
-122.5637,73.8264,-126.4292,-50.3878,-84.0108,-37.9296,-48.6122,28.1055,-116.6107,-6.1916,-336.3646,63.1264,-47.0502,-13.9591,-59.2964,97.6889,-119.0116,-104.8293,-77.1243
-73.0114,34.6400,-126.8350,-67.3930,-96.4582,-102.6795,-46.5106,60.8356,-51.9811,4.4889,-237.6782,37.8039,-50.4878,9.4512,-90.6814,125.5834,-125.3088,-129.5937,-7.0774
-51.3493,-1.3510,-45.4384,-62.0288,-76.6581,-86.4725,13.0873,65.9816,18.9587,31.4955,-197.8760,65.2570,-41.5125,33.5169,-98.0729,99.9137,-76.1078,-93.2783,47.5035
-49.9092,124.0933,-2.6683,-12.9130,-16.3825,-4.9035,65.2092,94.6407,25.8591,116.3001,-249.2667,154.8578,-31.2245,26.6909,-75.4605,70.3229,0.8692,-28.3949,64.0082
-15.5054,269.9092,-16.2374,45.8093,20.2389,28.8597,56.7689,127.2592,9.3015,164.0479,-278.6964,182.8007,-15.0733,23.6222,-28.4012,102.4603,61.9004,-15.7209,57.2914
19.2832,230.2004,-4.2553,5.6575,-3.4492,-0.4937,34.6251,95.0059,24.0534,109.4158,-261.0143,98.0540,-5.1954,42.6333,25.4084,147.1008,66.8271,-39.7498,24.8112
0.4427,121.2735,7.5591,-61.3716,-60.6751,-25.3671,-11.9585,25.4855,-28.9759,39.7025,-274.6531,36.8479,-42.4034,57.1127,6.8465,133.2112,38.3303,-45.7073,-39.8450
-20.8172,143.9896,-36.2953,7.7629,-112.8774,-45.7604,-113.0653,-7.1202,-174.3238,31.0841,-306.0319,98.6986,-97.2013,40.7493,-92.8330,89.4600,35.7624,-62.1959,-82.9201
28.9531,246.3071,-78.4129,133.4052,-130.4716,-88.1140,-164.2826,-14.1867,-216.8828,39.5338,-284.7983,196.9835,-87.1278,2.9495,-146.7503,65.5880,34.4198,-114.6370,-67.3236
78.5401,272.2791,-64.9364,134.0425,-120.7692,-116.1524,-116.8945,-29.8851,-108.0526,13.2080,-246.6714,208.9394,-27.2884,-27.2199,-109.7524,47.9355,-12.6509,-130.1038,-64.0873
27.5602,217.5737,-21.2840,62.4045,-116.2628,-96.3239,-103.2193,-34.0048,-58.3999,-22.2904,-249.1534,144.2459,0.3483,-37.9436,-83.6059,20.7314,-33.1351,-57.1668,-113.7936
-33.7025,192.7471,25.7199,64.9956,-103.2568,-51.4727,-154.0310,-31.7004,-129.7258,-26.5582,-249.5446,105.3293,-15.2621,-31.9434,-100.2557,15.0582,29.8819,25.2922,-137.7755
5.7536,229.9429,42.0377,110.7321,-68.7517,-26.3079,-157.2689,-68.2578,-176.3396,-19.0906,-226.4375,127.4613,-45.1069,-12.6436,-103.2874,46.2967,80.2085,18.8961,-117.2814
37.6919,225.6821,6.2980,110.4316,-58.3245,-51.0689,-133.0775,-127.2351,-159.9639,-41.9088,-238.1208,140.6008,-70.8688,-0.9133,-103.4140,70.2097,58.4586,-47.5943,-123.9980
-25.7211,135.6514,-9.1016,86.9554,-61.7217,-94.2123,-141.1541,-147.5354,-130.1577,-76.0530,-266.7960,110.4434,-52.9033,-16.0928,-119.9597,55.7681,30.7961,-71.3204,-135.0014
-53.0188,95.2575,25.5750,63.2085,-22.4453,-85.9192,-109.8358,-130.0347,-93.0914,-77.6368,-227.0957,90.1607,2.0440,-33.1457,-103.6578,38.1345,-2.2217,-38.1113,-104.3854
10.0367,167.1390,-7.6282,2.8644,-5.2546,-44.4611,-58.4353,-121.0043,-91.7072,-72.2764,-146.9319,93.7287,8.2481,-25.1728,-55.6257,32.5496,-76.7114,-24.9013,-108.7416
39.8046,198.9340,-118.6034,-39.9549,-75.1467,-47.4265,-93.3574,-129.0869,-128.3623,-103.1879,-122.3952,88.6217,-36.6368,-14.3919,-37.9695,-0.1379,-96.9036,-47.6216,-161.7222
34.0830,145.3131,-127.8493,45.8657,-112.4723,-67.0839,-118.5174,-131.3348,-86.1129,-136.1503,-148.6412,113.2306,-29.1089,-14.1740,-47.8917,-34.1609,-6.2727,-43.1591,-145.7875
77.1992,171.2903,-15.7912,189.6242,-40.0503,-29.5756,-36.3527,-116.5009,10.1071,-123.1489,-163.5700,206.7500,36.5804,2.8526,-50.9580,3.8321,52.1364,-6.6032,-78.8809
98.9161,281.0101,26.2649,206.2967,12.9208,25.2949,-12.5465,-84.8712,-24.8442,-78.8753,-155.0216,285.9383,62.4359,32.4867,-55.9454,63.9268,-20.6480,1.4019,-93.0159
32.8611,297.2840,-47.7557,108.8288,-29.0540,28.8282,-119.0880,-53.0358,-156.7390,-36.4100,-137.3455,268.3091,30.3888,34.8860,-60.7213,41.6905,-127.0574,-26.8923,-159.6038
-29.4314,232.7328,-114.5401,55.7897,-86.3517,-2.9112,-171.2468,-62.3144,-181.3949,-20.9552,-128.3658,205.5717,-2.9192,13.3587,-54.2602,-22.5288,-161.6177,-47.2408,-177.9318
-29.2397,224.7834,-128.5580,64.0630,-113.7687,-39.6311,-126.8944,-115.8727,-105.2010,-47.0253,-145.6604,178.4960,-16.5180,1.5786,-60.1327,-33.5953,-107.8242,-40.3713,-160.4832
3.1539,233.8479,-101.4156,65.0881,-107.7964,-62.9660,-103.6673,-135.1687,-55.4461,-72.1722,-164.1506,181.1399,-14.4104,-2.0579,-71.1618,-3.6285,2.8578,-13.2593,-116.9401
49.7779,171.2338,-29.8292,73.1513,-60.1441,-43.7165,-84.1327,-74.2245,-34.3202,-45.4600,-151.8418,160.3249,-9.3466,-14.2105,-55.1088,27.1044,65.8878,11.2086,-37.9918
62.6381,96.3003,13.3697,76.5502,-43.0631,-14.8071,-54.7952,-15.3609,-32.2345,-8.7906,-135.9206,97.9271,-36.1841,-27.2930,-52.4131,50.2908,-3.2884,-1.4580,-10.5126
12.0904,83.0594,-49.3103,15.5531,-107.6702,-39.0851,-98.0414,-34.0569,-71.4910,-18.4844,-137.6613,47.8175,-91.1776,-31.1134,-100.1400,40.1987,-111.8450,-39.6464,-62.5068
-16.0228,119.1462,-143.6611,-44.2974,-151.8485,-70.5112,-148.9874,-71.7746,-90.5091,-35.9974,-127.0143,72.9157,-115.4678,-27.7324,-132.2199,6.9960,-121.1595,-45.3252,-81.7921
3.7327,164.1995,-156.6988,2.3467,-120.9766,-31.6646,-125.2716,-62.7465,-78.7181,-24.3649,-106.7074,138.7181,-94.5229,-20.9236,-109.1768,-0.9139,-56.5454,-10.3594,-69.5726
-21.8731,175.5369,-105.4819,106.0490,-120.9288,29.3464,-154.8662,-43.6409,-135.9957,-24.7884,-112.2938,166.3426,-83.9652,-24.2012,-90.1143,-13.3157,-18.1767,11.7313,-128.8754
-53.4471,157.5726,-72.1269,170.6318,-182.6976,30.1652,-246.3161,-44.8169,-206.8457,-52.7309,-124.7997,163.1597,-110.2029,-49.1110,-92.0795,-63.3923,-22.2025,-5.1231,-183.0450
25.0647,160.4576,-81.4255,176.2195,-205.6716,-10.6528,-187.8944,-39.0445,-130.5075,-66.5387,-111.0381,164.5712,-125.8110,-63.9113,-72.3454,-67.4230,-30.6028,-35.2991,-113.2459
123.2327,153.7166,-93.7854,117.4476,-166.3353,-28.4695,-30.3714,-34.6837,-4.7520,-61.7117,-93.0754,142.2555,-84.9828,-21.3152,-45.2504,10.6312,-23.3129,-44.2951,-33.6367
93.9275,94.3434,-75.1902,36.9765,-121.5821,4.3300,-33.4855,-60.1580,-36.5151,-66.0650,-91.4064,103.2214,-20.5592,51.7869,-47.5620,56.0153,-15.4838,-18.6892,-68.7704
-5.6170,93.1004,-54.4445,43.1157,-73.3879,65.7315,-128.5334,-85.1876,-126.7562,-69.6887,-90.2978,126.0472,-6.5549,73.2698,-62.3415,9.3994,-30.3225,23.3100,-112.1986
-53.9272,213.6997,-60.0255,135.9556,-7.7452,107.9942,-88.2797,-75.9775,-70.6881,-45.4731,-83.5184,204.9713,-44.9134,41.9272,-68.2914,-43.3661,-36.9351,59.9904,-58.8163
-28.1747,277.2182,-44.4098,195.1921,38.5993,122.8586,1.7395,-49.4616,33.7772,3.2369,-72.1574,232.4191,-55.0559,42.0811,-63.1020,-30.1650,7.0032,99.2024,9.5718
35.7205,167.9212,11.2844,175.0117,43.5272,142.9051,-23.6485,-17.2620,-5.0358,45.6290,-55.0080,180.5942,1.5784,77.8251,-36.6410,23.6261,51.8556,145.9650,10.6046
60.9067,53.3532,29.8140,131.9945,44.2115,161.6128,-78.5436,25.0690,-110.0046,46.5058,-63.4558,144.8470,67.3915,61.4748,-3.0334,39.4893,45.3266,181.3404,-8.5222
7.6666,96.0389,-3.4091,138.2037,65.1392,155.3115,-67.0173,54.3477,-122.2301,1.9650,-117.5037,188.5057,78.4759,5.9609,-1.7337,-20.9378,47.7183,201.3412,7.5292
-31.7712,243.2566,2.9333,229.0543,61.9718,147.1725,-62.9914,49.0036,-89.4915,-43.3856,-148.7386,254.2823,36.8969,21.3417,-32.2876,-74.9762,95.9043,205.2817,29.3250
3.4999,351.1552,58.4991,313.5643,7.8469,145.1131,-98.8233,30.3090,-100.1730,-45.9611,-93.5748,254.9010,-8.5512,90.5521,-54.0585,-43.0660,116.8074,168.6776,19.1468
19.5672,311.0111,69.5640,256.5813,-28.1726,119.7033,-92.1844,29.6714,-80.4211,-11.4505,-31.9436,191.5633,-11.7981,90.7404,-42.6650,-5.3921,82.7786,106.2337,12.8230
-26.8521,152.2430,10.5313,128.8137,-5.5062,86.2173,-23.9899,46.4180,19.4815,26.7923,-69.4577,134.7281,25.9189,31.9254,-16.5473,-31.8762,44.0658,79.8287,45.1566
-35.4245,60.4548,-43.2936,103.8406,2.7592,74.9407,16.1152,56.9921,75.4342,48.6184,-127.8418,122.3324,58.7324,23.9257,-18.3258,-34.8077,15.8523,98.0625,59.1536
41.2318,114.9135,-12.1033,156.1643,-14.4946,77.6977,-12.2452,65.2460,21.4553,63.8514,-63.9860,138.0206,60.9858,67.5577,-43.9427,14.5993,22.7990,127.4396,19.4502
130.5054,157.8731,104.6158,176.3798,37.9006,117.6188,-21.5769,113.3491,-16.5494,96.6218,56.8556,147.7367,52.9772,97.2475,-30.5932,19.9172,111.2640,173.0471,15.0115
152.6840,104.9916,189.0419,180.5850,124.4506,210.2500,42.5943,195.6928,22.6848,135.9423,64.0886,116.7033,50.7568,110.4769,16.4203,-1.8416,201.7957,220.1997,90.9146
86.3975,93.6898,131.1453,175.0620,106.8887,254.0257,86.3915,230.4626,38.2253,138.6140,-18.8667,59.2507,46.8344,110.1086,10.3520,38.2675,167.1574,206.1177,144.9734
4.8124,182.7575,6.8665,118.9997,29.2508,175.4915,64.1929,190.7041,25.7656,112.8404,-54.2757,50.9654,39.3698,77.1064,-39.8087,86.1346,62.0981,141.5492,124.4922
22.4463,226.3640,-30.3271,72.8706,31.6484,76.2789,86.0004,146.6800,81.9515,111.0848,-36.8480,99.8000,30.2934,42.6734,-43.7383,69.0614,20.8816,100.4449,97.7880
116.8272,134.9684,23.8048,90.1881,72.5693,50.8325,157.2630,125.4472,143.1466,117.0146,-13.1826,108.3511,11.8279,33.5427,-24.6603,38.2320,33.5671,82.1801,76.5699
138.4121,19.3172,72.5638,108.7895,42.2810,59.7258,133.2112,93.1323,100.2428,79.4933,37.2865,50.2466,-16.4320,18.2012,-55.3612,23.8784,32.3737,59.4834,20.6969
55.1992,23.5833,70.5487,116.3456,-25.6635,73.3341,36.3673,74.3537,43.6402,47.6265,80.3135,13.0274,-43.1633,8.6058,-85.4960,3.3080,25.0223,67.6260,-27.3430
3.5840,128.1551,25.1830,142.7531,-60.6282,93.1580,14.6329,102.4049,52.9288,84.2683,51.7366,22.8492,-59.2791,46.1108,-54.4837,8.5987,19.1103,91.8625,-23.7789
62.2444,176.6106,-15.4545,110.0104,-66.6521,58.2981,42.4807,112.5066,43.5568,109.0791,24.4387,22.2991,-48.7280,71.9458,-14.1740,46.6434,-4.0094,43.0259,-1.5614
142.1146,93.4264,17.2946,-8.9978,-46.3032,-44.8810,58.8269,46.8467,37.6519,40.4079,74.2134,-1.2555,4.1499,22.8096,-4.1580,49.3528,-11.1306,-57.9319,30.3118
142.9038,-30.8632,99.4402,-73.4063,7.6880,-107.6156,120.9705,-36.3290,127.2250,-33.0901,111.1153,-27.1105,64.7620,-29.3615,-1.3046,12.4035,36.7912,-88.5305,71.3386
98.7541,-94.9809,127.0888,-22.5701,51.5326,-76.5877,151.2372,-59.8521,159.2943,-22.5380,69.3264,-49.5433,63.6140,-16.0920,-11.3834,-10.8379,92.8766,-38.0140,56.9142
86.5363,-63.7150,79.4815,36.0486,42.5662,-25.4518,9.4507,-28.7539,1.4918,6.3183,26.9929,-33.7639,7.1946,13.0892,-42.4780,-29.6253,86.7442,3.6395,-11.7924
81.1860,70.8559,22.6816,45.7557,13.6625,-1.6893,-137.2497,3.2513,-121.0958,-6.1440,24.5311,40.4333,-3.8804,14.7222,-64.9657,-59.0717,35.5613,21.5918,-34.9665
36.4387,208.2168,-5.6501,49.6946,26.3691,18.7107,-90.5129,-0.9295,-62.2343,-24.3101,27.9520,99.8926,70.8081,1.7110,-79.7204,-61.5670,14.4938,57.4164,-23.9185
12.2599,174.3982,6.1796,75.7221,75.3519,45.1005,-33.6278,-31.0565,-46.9298,-45.6375,46.3842,80.4542,133.8508,-18.9915,-101.3897,-32.6088,44.9535,99.3195,-83.0680
60.9501,7.7922,58.2320,116.9622,96.4732,67.9080,-130.6850,-51.0606,-166.0870,-90.4866,73.8924,28.9764,109.0946,-15.1892,-95.4811,-5.6756,87.6571,117.6752,-168.8323
105.7558,-56.3638,91.3670,138.9247,72.1338,89.0139,-187.1319,-46.8355,-203.2036,-109.3990,46.7355,4.1471,66.2032,45.1580,-48.4254,10.6663,117.8429,118.3924,-154.1915
68.7379,36.9711,39.2614,109.1654,47.8566,102.5057,-98.8200,-19.2755,-111.7199,-74.9248,-31.6395,-3.8659,81.5876,88.5779,-12.3428,5.8366,113.8315,103.7515,-62.0080
-11.4933,124.8295,-70.1454,71.0762,37.0905,97.4139,-47.4820,32.3743,-52.9313,-35.1050,-84.8461,-5.3186,99.9978,40.6296,-22.6276,-23.1430,38.8037,69.3506,2.4581
-63.5009,117.3979,-137.8797,81.7883,23.5889,80.7973,-84.6892,74.9975,-43.4311,-4.0865,-82.0107,10.6222,56.5069,-22.4182,-66.6945,-23.7282,-56.0333,44.3130,20.1046
-72.4247,43.4829,-96.3861,101.0007,32.7564,66.3813,-83.9357,65.2737,-25.6581,26.5328,-45.1470,21.9328,7.9432,-9.7466,-113.5285,21.8558,-53.6225,53.5228,13.4360
-64.9743,-40.6419,11.8529,66.5762,72.0176,55.0189,-49.9905,22.0384,-38.5681,13.6917,-12.0460,2.3138,18.4950,32.8068,-117.5931,38.2675,9.2065,61.3454,-19.9815
-61.2951,-48.4360,56.8491,-5.6517,75.2885,31.6776,-60.0264,-14.2983,-80.2843,-47.4677,-25.7725,-23.4186,43.4085,32.1745,-62.1252,-0.4759,-23.6513,20.9894,-66.5982
-54.2297,19.4970,-15.0919,-66.2748,11.5269,-16.4609,-86.5559,-46.7408,-83.1804,-93.7727,-79.9410,-30.7899,36.9036,-9.5270,5.1217,-21.6559,-139.7796,-44.4781,-95.1834
-48.1449,20.3040,-101.5623,-82.9750,-58.4478,-66.1387,-88.9188,-73.8010,-49.4964,-111.4662,-119.5487,-47.3463,37.9499,-58.6027,33.8908,-11.8452,-197.5319,-64.0606,-97.9589
-65.1065,-66.5027,-114.6691,-61.6228,-76.8232,-72.1674,-77.7644,-69.4352,-27.5265,-113.9169,-125.8146,-84.3489,59.5160,-76.2922,11.5775,-32.6844,-189.6183,-10.9135,-82.1354
-71.0390,-80.2265,-87.5102,-55.8814,-37.5728,-33.4694,-58.2909,-37.0124,-48.4817,-72.2031,-110.2704,-91.0858,41.8847,-45.4681,-52.4763,-69.1725,-176.5996,61.6732,-37.3783
-16.9448,-10.9437,-44.1589,-86.3172,39.2197,5.5964,-25.3967,5.5699,-97.4794,-7.3074,-66.0825,-43.7482,-20.1501,-14.6052,-106.2545,-60.9153,-119.6307,86.1808,61.8749
43.6375,-3.8887,32.2085,-96.2568,117.1366,27.8960,39.1832,56.9880,-72.3422,17.7449,-13.4522,5.4096,-51.9459,-27.1283,-88.6922,-38.9063,-5.0864,67.8049,195.2854
51.0299,-37.0470,92.2640,-57.3036,166.2578,53.4127,140.3676,101.8966,67.8173,31.1758,-1.7433,15.6722,-26.2028,-38.8345,-24.3560,-50.5542,75.6780,69.6105,268.2099
63.2100,-11.8074,91.2966,-11.9073,178.4283,79.6750,206.0532,126.0806,170.1139,70.1824,-13.2305,-2.5669,19.5779,3.5400,23.2583,-46.1022,77.3345,106.0047,236.8984
115.1879,-10.6096,86.1448,4.6516,150.3511,80.4162,186.1917,143.9118,142.4512,73.1596,21.9566,-45.6860,66.7488,64.7415,53.9145,12.0330,35.5195,115.3761,191.2469
132.9327,-96.7256,99.6714,-16.2742,99.4962,56.5837,150.5032,145.8007,101.4073,29.2294,91.7594,-103.5996,102.1858,65.8405,71.1594,60.5510,-17.1377,68.5933,182.4486
91.1112,-125.4568,74.6583,-51.5585,66.5049,31.6902,129.1235,101.0819,78.8886,17.5977,108.0310,-115.2067,90.3072,-6.1973,29.6880,49.4909,-29.5439,24.5979,124.6747
63.0356,-15.2860,51.0642,-30.2997,65.0448,12.2089,51.2468,29.9584,-27.4725,22.8437,77.9986,-43.4554,36.5868,-63.1664,-70.3389,-1.8339,51.5865,30.6471,3.0799
110.0133,101.2641,126.1938,58.6213,89.2348,-2.7547,-52.5010,-28.3089,-152.8063,-26.9223,122.7563,51.4379,-5.2387,-27.7435,-155.5289,-72.2574,179.0890,49.3871,-58.3457
227.7741,121.4859,234.2132,114.0437,139.4332,-5.4738,-63.4499,-73.1389,-141.1645,-90.4778,246.5447,86.9248,-9.8156,36.8892,-169.5672,-124.5411,247.9016,34.3419,-33.6391
322.4345,91.7289,243.7197,88.1725,179.0636,-6.9500,-3.6864,-106.3498,-37.6385,-110.7319,280.0971,57.7273,11.2688,25.4283,-114.7414,-106.2168,224.9619,2.5939,-31.6540
284.3059,77.0268,187.4498,45.9876,164.3566,-24.3319,9.6895,-127.0116,20.4556,-128.7161,177.8829,25.0917,41.1051,-26.0701,-41.1239,-56.2483,151.7897,-8.7026,-83.2827
165.7518,87.4696,155.7361,16.5207,125.0494,-30.3573,-37.2461,-156.4566,11.8885,-170.3180,109.6022,32.0451,52.4727,-28.3865,-5.9231,-60.0715,80.2683,-0.6816,-135.1324
98.2518,78.9990,129.8846,-17.6532,95.6311,0.4354,-79.0505,-192.3741,-25.1747,-206.2115,134.4004,53.1801,36.5508,-15.3497,2.6216,-97.5444,42.0622,0.6789,-176.1413
67.6190,3.2082,84.8572,-28.8352,54.1758,23.5075,-85.5655,-207.4703,-59.2633,-231.6821,123.2820,52.5411,29.2211,-43.4363,32.3812,-114.2134,31.1793,-12.8817,-199.4392
28.6908,-79.9508,54.6556,-11.6804,15.9295,7.5279,-81.5771,-200.2936,-73.3829,-236.1169,64.0852,50.8937,43.3751,-56.9115,48.1174,-133.2272,19.6602,-18.2892,-170.0490
41.9951,-61.9893,47.4686,-22.9984,28.5815,1.1352,-106.4143,-162.7435,-98.2435,-189.8444,71.3660,67.5551,39.8265,-10.5629,-16.7003,-146.3458,4.1441,4.7809,-102.0958
98.1399,21.4460,74.2904,-64.0765,72.7480,10.9881,-146.4459,-93.8677,-144.3573,-135.4908,136.8970,69.5859,12.3142,33.1840,-115.1548,-97.1555,11.1193,29.1742,-48.7755
122.5595,62.4209,165.2675,-77.7532,114.6707,-35.0529,-149.3804,-78.4038,-153.3036,-148.4991,180.6780,45.7595,8.1846,24.9265,-141.5804,-34.8872,46.6622,6.2274,-39.2964
152.7115,63.8703,240.9979,-69.3104,148.5814,-121.4309,-126.0447,-166.4351,-113.8100,-211.8311,193.8784,24.8558,46.8460,-4.2236,-79.3009,-42.5600,56.2927,-58.7850,-80.4699
188.6116,40.5964,183.8775,-86.5544,127.6839,-149.1369,-123.4947,-245.9724,-82.2030,-255.2628,165.7611,9.5758,93.9018,-25.6518,1.5827,-73.1902,-12.0895,-109.4638,-141.5651
123.7259,-54.1251,63.5435,-122.7784,39.4423,-130.8268,-130.7573,-233.7380,-71.8839,-254.3513,90.5180,1.5102,106.9823,-37.4854,35.1718,-70.6406,-94.9806,-112.1978,-158.3880
23.2823,-152.1698,26.9284,-136.8157,-14.9445,-144.0325,-125.9199,-196.1478,-68.0981,-218.5624,39.9770,17.9911,78.8305,-22.8430,18.4155,-83.3327,-82.0984,-74.2924,-118.5618
46.5531,-113.8233,53.9154,-115.1951,11.0972,-146.0065,-106.8954,-158.7478,-66.6617,-167.6127,49.1821,33.5764,49.2383,12.9041,3.4945,-127.7372,3.3028,-20.8195,-64.6557
130.4502,22.2371,66.6044,-64.4570,40.9724,-75.3927,-50.1658,-90.5177,-42.3280,-137.2536,83.5313,40.8289,48.5896,9.3821,8.6016,-148.2197,70.7823,1.8703,-15.8909
169.7234,120.6800,92.4114,12.9500,49.4091,-9.5005,11.3690,-63.1401,-12.5729,-140.1079,149.9615,87.2888,43.3151,-49.9935,-20.7433,-130.3899,131.5834,-33.3449,17.3567
210.4919,154.5992,151.9094,97.6495,75.0775,-17.6825,-8.8799,-117.4857,-43.2205,-144.5420,216.6906,120.9727,9.2516,-77.7800,-97.9024,-91.5422,196.8216,-71.5352,17.7373
225.1399,126.6658,198.5518,131.8231,103.2081,-37.6427,-62.3594,-142.4764,-95.2315,-132.9318,184.3945,50.0327,-1.7070,-21.7410,-136.1087,-40.9347,187.4408,-55.2037,12.9882
151.1527,28.0716,203.8052,73.2004,108.6287,-25.3904,-33.4708,-99.7327,-75.2514,-125.7968,106.2656,-19.9261,42.9520,42.0739,-73.3253,-5.7397,107.5764,-33.3823,36.7904
98.4585,-69.5157,143.2086,-32.7705,89.7155,-16.7264,31.4289,-64.0626,-9.7186,-112.0477,108.6548,3.2173,97.6506,59.3726,47.7378,21.6178,50.5839,-54.6614,74.5173
100.0185,-117.0815,9.4576,-100.0526,33.5430,1.0363,64.3568,-0.1066,60.3188,-38.4663,95.2448,-52.5138,135.4946,82.1216,155.8849,82.6074,2.4484,-54.0606,120.1709
20.8315,-136.2556,-95.7381,-101.7795,-17.0180,60.3499,123.9684,128.1682,151.6895,68.5268,-43.1845,-204.6016,169.5861,119.2652,207.9209,123.7248,-65.5423,-2.2296,163.6351
-69.2768,-53.9613,-67.2111,-49.5275,11.7048,96.5143,175.3960,168.7001,172.7871,82.2288,-129.3224,-111.7137,171.6714,112.7600,178.5899,65.2609,-36.5298,9.6271,149.0123
21.5871,187.6700,54.9699,66.1672,80.8207,57.6145,117.3654,48.8254,52.8153,-26.1010,-26.6405,286.6038,116.1239,92.0989,85.9289,-16.8580,149.6789,-25.1353,104.7257
219.6552,446.2264,187.7076,226.5321,130.6275,29.3336,76.6877,-49.5621,-7.4138,-113.8815,86.1992,598.2639,65.8885,122.5138,12.3426,-19.6180,357.8468,13.8996,149.3754
377.6244,651.3832,291.2628,349.9069,209.4117,86.9570,195.6409,-17.5603,141.9238,-96.3867,55.0135,699.0950,85.9462,154.5046,29.8549,0.4350,468.8832,117.8815,251.6633
508.5818,904.5981,313.7257,386.5626,309.3976,159.1852,312.3694,28.1918,287.2334,-59.7534,-44.0523,846.2858,140.4596,134.4017,111.4965,-22.4140,493.2229,143.2122,277.9677
569.6193,1095.3933,265.7736,385.1447,329.4633,160.6685,297.8206,17.9987,274.7844,-68.7146,-132.7417,1063.5076,169.5209,126.9371,177.2924,-32.5566,484.9133,85.0731,278.0266
510.1184,1021.9265,264.9203,408.1169,303.0530,122.7908,309.6681,17.2634,287.2849,-78.3561,-200.5029,1155.8352,179.6294,179.1804,213.7825,0.8462,513.1387,65.3498,354.8763
468.8882,862.3303,342.5508,438.0083,339.4697,117.8537,396.2431,49.0069,390.7779,-60.5346,-221.8092,1130.5790,190.5746,236.1279,255.7789,29.0208,596.6576,104.4412,398.6387
478.8526,842.3747,402.1948,425.6271,389.7994,156.0704,370.1748,69.3679,375.0689,-30.0592,-227.5350,1068.3899,181.8052,249.0277,272.8680,37.1320,637.2318,139.1688,308.9297
371.0375,795.1744,410.4496,382.7573,370.5755,184.5206,225.7466,57.7228,215.6095,6.0125,-269.9893,939.0490,147.2955,220.2396,217.0625,43.5012,578.7284,147.7081,218.8526
218.4374,625.7538,397.1506,348.0661,339.4806,147.6932,173.6032,20.0549,138.4171,18.0863,-279.3864,785.6995,128.2909,168.1888,152.6581,49.6432,508.5561,122.4260,236.7953
257.8900,545.9536,351.7812,305.1416,344.2343,65.1155,251.2764,-24.5841,193.9861,-17.7843,-199.8312,686.0051,143.0732,124.2774,168.1000,64.9481,471.9533,65.0778,277.5522
366.1551,541.2274,286.0570,230.7016,324.2682,20.6812,291.4928,-45.9420,221.4636,-52.7684,-147.2584,580.0719,148.4114,104.9433,215.7094,80.0167,404.1384,33.3552,270.0143
271.3059,409.2392,238.9971,167.2293,252.0802,42.1925,226.0193,-26.7697,177.6622,-38.4848,-196.1126,446.8124,112.4118,97.8477,207.1653,50.1315,301.0779,67.3892,254.7488
76.3429,245.9710,199.1839,149.6353,188.7403,78.6785,177.8737,37.4456,181.7499,11.9646,-227.9225,369.5697,67.7081,101.2897,174.3556,-5.0973,232.5450,124.3004,273.2909
19.8122,169.4008,169.3000,131.2402,183.2076,103.6792,253.4540,129.4553,284.9311,86.4244,-171.2657,298.8535,56.3466,100.4748,189.8772,-6.5683,195.3518,139.9363,318.4159
40.9958,38.1189,165.3552,53.5483,198.2410,109.7804,356.2453,182.4915,371.8061,162.3882,-132.1188,147.7835,65.0383,53.4717,237.0250,35.3249,114.9695,79.1907,336.0986
-26.3751,-110.1741,109.2932,-75.8267,151.8732,55.6570,332.4152,154.0754,330.3395,175.9906,-172.2155,41.3020,45.7910,-11.8760,263.0320,41.4724,-21.6599,-33.3766,283.2629
-141.5656,-85.5090,-27.5636,-188.8037,52.1255,-36.8804,254.1819,113.7227,255.7084,133.6972,-208.3061,74.1389,-13.8158,-12.3726,263.4140,17.4969,-114.8655,-91.4710,231.6136
-179.2613,-50.4168,-96.0940,-207.9110,8.9001,-61.0823,295.5959,143.1466,315.2425,130.5930,-189.0009,81.3484,-65.6347,38.2310,258.4137,20.5528,-85.4995,-31.0865,268.0555
-148.8652,-196.6109,-38.4666,-135.3443,46.3722,-7.0198,395.0199,210.9081,438.9688,188.2182,-161.9233,-40.0285,-62.1616,52.4512,259.4242,43.2634,-24.2810,62.5208,319.4224
-141.2176,-289.0376,-6.3473,-68.8582,73.8286,27.6322,391.0165,251.3816,440.3499,242.7281,-149.9802,-141.3970,-17.5073,13.8890,273.2567,60.6769,-55.9279,104.2124,289.4670
-160.9913,-178.7901,-53.6214,-65.9612,77.4873,33.6031,336.1467,269.4774,367.0094,280.0795,-120.0333,-135.4375,24.6687,-30.1247,290.4465,86.9225,-118.0293,125.4694,233.7660
-145.0589,-118.3532,-76.0280,-85.7505,108.6602,64.9775,325.9852,284.8162,356.2972,316.6775,-70.6227,-124.2921,44.6414,-36.3232,280.9315,113.6190,-107.5321,142.5600,202.8821
-113.4041,-220.2848,-62.8261,-108.8103,129.2730,82.9450,285.6823,274.8040,329.5038,317.5359,-44.0366,-159.9076,41.5322,12.1634,237.6105,111.3770,-93.0933,114.2875,144.2749
-138.4290,-310.0247,-70.2568,-161.5419,98.1972,44.5940,190.8164,228.3721,203.8600,259.2693,-49.7504,-191.4815,29.3862,61.0119,199.1461,99.1447,-140.2915,62.5145,71.9646
-188.0887,-317.9539,-82.0246,-213.8764,73.1021,14.5279,151.1629,181.3112,103.4942,195.4688,-43.6262,-213.6171,32.5165,30.0575,192.3964,102.0097,-174.9760,40.7178,60.5580
-189.7809,-281.7520,-98.4520,-207.1564,72.0366,38.2745,158.1134,171.7900,91.4389,188.7044,-14.1564,-246.7878,36.8001,-49.5949,188.3479,93.9408,-166.3530,42.0312,76.3831
-177.3876,-223.8131,-138.8922,-148.4381,32.8974,70.5702,112.1642,195.2512,73.4490,221.5558,-27.0843,-260.9619,6.4767,-80.8828,155.4637,63.8531,-151.3069,53.4149,50.9300
-190.2142,-229.4152,-144.5902,-83.8082,-41.9079,76.0455,47.6208,206.1561,41.3992,215.9696,-91.9390,-245.5618,-35.6909,-60.8425,103.9239,42.9065,-105.3254,67.4115,0.9352
-172.0791,-286.6937,-105.6068,-50.4801,-99.7743,47.8543,19.5182,165.0517,29.9204,152.2036,-73.7307,-255.0621,-51.3929,-52.7852,47.1644,32.5256,-49.4736,35.5938,-63.3360
-113.7442,-237.4449,-118.9497,-74.0614,-143.7988,-19.9493,-34.8140,93.9659,-24.3030,112.9606,89.4527,-327.3704,-65.6665,-73.0992,-5.2370,17.1699,-83.4169,-37.0512,-149.2204
-97.8768,-161.7281,-172.3328,-142.6966,-178.0438,-74.4304,-111.2900,62.8289,-93.9701,149.5641,215.0221,-427.7027,-88.0489,-93.1377,-14.2432,24.8675,-165.1183,-53.1053,-181.2492
