Fp1,Fp2,F3,F4,C3,C4,P3,P4,O1,O2,F7,F8,T7,T8,P7,P8,Fz,Cz,Pz
-107.5647,-106.1454,-189.4593,-93.4817,-95.4527,-63.8515,-51.2447,5.6426,15.3011,-16.0865,-67.2827,-39.2325,-37.7326,-15.8257,-29.2941,13.2837,-58.9676,-80.1961,-23.4651
-31.6563,-45.7646,-88.2765,-38.5703,-29.3275,-91.3144,-46.7131,-3.2195,18.0016,46.3189,22.3464,26.7754,30.2442,15.1940,13.5100,54.5097,70.0620,-81.0193,-35.8469
38.6132,2.8150,9.0220,-3.3658,49.1950,-113.9971,-30.4264,-64.7138,-30.1801,16.0910,46.1195,21.7029,12.4943,-55.4154,-16.9546,-29.6732,100.9576,-75.8368,-56.8371
22.1401,10.7111,1.7451,-0.7010,50.7480,-104.8790,-33.2840,-97.5798,-33.4570,-31.7482,3.2066,13.0153,-22.4699,-112.6113,-42.0390,-95.7770,65.7975,-39.1922,-72.2395
-11.9849,27.1474,-24.7720,25.1291,50.2095,-43.1062,-3.8492,-32.4288,21.3819,25.0052,-36.6455,38.4291,-13.1334,-80.4560,-35.2718,-66.8874,77.2467,17.5327,-46.6990
-3.8162,53.1114,4.8028,63.1546,107.3178,38.6000,59.9727,75.3433,16.2038,132.6205,-58.6309,35.8649,-24.8716,-37.7160,-55.8889,-56.4100,101.2241,53.4966,-5.8433
0.2120,36.3527,32.0452,63.8095,125.9643,92.9109,82.4618,154.8811,-24.4295,185.7869,-61.8017,-4.6956,-58.1356,-26.7805,-63.6876,-77.2265,85.4180,70.0858,22.0462
-39.2258,3.4250,6.7854,52.0704,57.8974,111.2773,58.9074,187.9363,18.4618,172.0803,-56.8875,-21.7467,-52.7788,-21.7251,-29.3891,-47.3242,61.6575,81.6281,70.9253
-76.4281,23.5541,-26.2472,72.1052,16.3484,101.8895,69.9422,158.0177,109.4044,119.7794,-75.2003,11.7457,-25.0438,-33.7492,-16.6871,-15.5312,47.8885,81.1362,133.8028
-57.6742,72.1761,-13.7192,101.5371,81.9590,78.5765,152.5552,84.2971,165.9398,69.4979,-88.2020,63.3021,12.1753,-61.5893,-0.6152,-39.1733,45.5020,72.9477,145.0236
-21.5833,83.4434,22.4805,98.1253,188.5520,64.0255,247.0942,31.2456,194.0353,49.2072,-58.7254,84.0530,77.6264,-65.9003,67.3256,-52.2427,64.9934,51.1670,117.8242
-38.0543,67.7942,33.1115,66.1848,251.3026,55.8530,275.7938,20.6217,189.1619,44.2389,-40.3540,69.1328,129.3828,-49.3257,109.7741,-36.2467,86.0671,7.6135,130.4960
-67.4870,58.4893,33.9651,50.9112,267.3412,43.7996,255.9565,61.0300,166.4849,85.4262,-68.9852,51.2474,135.1327,-35.1620,102.5810,-38.4219,97.7700,1.5292,190.6854
-34.1276,37.2607,56.6369,72.8544,264.8683,51.8868,258.8305,172.6574,190.2588,206.5851,-93.3085,19.2157,124.8484,-19.9054,107.3456,-18.2550,111.9183,65.3685,241.9150
17.1984,-2.6033,67.7188,85.8758,249.4634,85.0213,257.0761,266.8764,211.7958,281.9074,-85.1070,-32.2878,103.7680,-5.9649,89.3219,58.4324,111.4732,106.3940,250.5106
34.5290,-18.4227,65.7350,65.1384,233.7370,105.0776,200.8777,240.3408,158.7354,221.0398,-50.7797,-23.6804,76.9305,3.7953,36.9721,96.2845,116.0390,83.1857,234.9052
77.1372,4.4652,118.0627,69.9696,247.7329,106.7570,173.7957,183.2220,121.4588,173.9664,10.1480,48.3370,69.4792,11.3631,28.0511,28.4515,182.2899,82.1112,234.1019
144.7729,25.6546,191.6545,108.6454,269.8767,103.3402,195.7832,170.4239,117.9597,185.3696,58.7336,58.6360,44.8850,0.2620,13.1003,-56.6253,252.6800,100.8080,216.4573
132.4966,25.3688,165.1161,91.8318,228.1725,69.6083,102.6638,74.1402,8.2977,74.0201,63.6649,20.3807,-4.9394,-0.6610,-60.5914,-45.5381,225.3254,53.9624,97.5388
38.5840,30.9914,36.1324,22.1495,126.9066,14.0756,-89.7285,-87.6035,-135.5097,-77.0216,49.3047,60.7318,-3.4054,65.2048,-64.1454,39.9398,129.9548,-16.4561,-69.7300
-46.3364,50.5294,-103.2359,-3.8962,51.1637,-9.8837,-139.5921,-81.3295,-132.6661,-17.2908,-6.2446,99.3032,5.8057,110.2932,-9.3920,58.8546,22.8238,-43.7170,-128.2643
-99.5507,40.2897,-193.5188,-15.1818,-2.7465,-24.0928,-91.4029,32.4570,-139.0486,30.9884,-123.1311,-5.4553,-88.8496,-8.7660,-83.5677,-63.3148,-89.1366,-87.5315,-102.3659
-118.3485,-30.9016,-175.1809,-103.9665,-116.9843,-82.2732,-204.8461,-47.0533,-321.8977,-268.7832,-190.2760,-126.6405,-185.5445,-194.5665,-203.1020,-206.7022,-132.3462,-163.0333,-141.8299
-88.4112,-123.8808,-48.7362,-212.2860,-242.3032,-143.6872,-360.2473,-253.4477,-415.6624,-588.1900,-148.7985,-112.6597,-155.6989,-229.0236,-172.5569,-221.5842,-74.4730,-188.6082,-206.3073
-63.2625,-176.1741,39.5906,-247.3587,-236.6062,-165.1781,-270.6639,-278.3219,-234.3523,-457.2651,-121.8377,-65.2882,-116.9355,-138.6011,-109.9161,-142.3700,-45.8167,-177.6777,-163.9612
-73.1959,-177.5458,14.2907,-247.6118,-116.4513,-185.4336,-79.1820,-145.5392,-57.7747,-111.6148,-163.3605,-74.1476,-150.7472,-102.5349,-134.0695,-88.2832,-89.7277,-192.0970,-74.9605
-59.6463,-154.9291,-4.1149,-248.7912,-27.4454,-202.3156,-51.2234,-79.1059,-63.0812,-13.6480,-189.8660,-57.3534,-142.1648,-131.1102,-116.4056,-80.8245,-80.5737,-183.6818,-56.4696
-30.8896,-116.5589,39.4288,-205.5786,-13.7180,-160.4887,-89.9100,-98.0898,-73.1054,-119.1711,-194.7902,8.0300,-95.9948,-122.8454,-61.1235,-89.4055,-12.8371,-109.8943,-76.6065
-53.5845,-57.6615,50.6470,-122.0045,-23.6229,-83.6970,-67.1482,-112.4600,-38.1242,-159.0784,-209.2632,52.1832,-127.6813,-79.6697,-101.5268,-106.5791,2.3700,-37.6575,-80.4281
-91.2859,4.2948,15.6039,-54.8504,-37.1027,-35.7560,-75.5742,-93.6488,-63.6453,-82.3184,-200.2881,67.5079,-170.1122,-63.6743,-147.8603,-112.5810,-23.9404,-21.5702,-76.7756
-87.7589,30.4406,6.7152,-23.3797,-41.2722,-23.6859,-103.0867,-37.9137,-62.6321,18.6571,-182.7689,65.7741,-120.4163,-74.9008,-92.6454,-90.0938,-30.3021,-49.4928,-51.1886
-65.5878,-5.4834,31.1634,-41.9341,-10.6868,-50.5663,-37.6254,0.1624,36.5906,43.5374,-171.3616,28.9010,-61.6152,-85.3956,-50.0682,-67.3729,-26.0574,-98.7759,-2.2852
-17.1942,-71.3429,68.9538,-114.1403,32.1764,-120.0952,28.4951,-49.5990,52.9477,-27.7086,-96.8549,-12.4076,-64.8005,-103.2438,-75.5320,-78.7640,-10.1976,-135.9985,3.5186
64.0770,-88.5316,107.3410,-163.4643,48.2350,-167.3416,-26.6808,-119.8958,-86.9472,-85.6384,-6.4643,-14.2861,-66.6852,-141.0829,-77.2648,-125.8281,10.6447,-133.2781,-60.1075
90.0225,-38.9963,99.3825,-130.7841,31.3893,-140.5380,-114.3470,-128.5506,-188.4111,-97.4775,-23.8979,-1.0058,-36.7596,-174.2296,-50.6982,-180.5060,-10.9441,-110.0622,-136.4013
48.6730,3.0581,49.6241,-80.7489,-18.9859,-95.5565,-150.6608,-152.5515,-173.9940,-173.0753,-42.1442,1.6173,-10.2908,-175.4210,-50.3055,-198.3286,-43.1390,-95.7423,-180.7304
63.4283,6.0788,44.6010,-76.0631,-67.9110,-99.4793,-178.4175,-245.9561,-175.3315,-278.4250,73.6069,21.5400,2.7501,-155.8287,-66.1058,-170.4382,-20.7081,-95.5928,-191.2223
141.4901,27.7728,96.2210,-80.1187,-45.8611,-141.3316,-202.9332,-308.6469,-221.9626,-270.3571,155.9592,74.2739,-0.5646,-129.7099,-78.2933,-137.4418,5.0899,-110.2166,-179.2051
154.5242,75.1096,113.3263,-70.5049,8.3335,-183.7574,-200.5107,-283.5078,-226.9464,-214.6268,70.5340,119.9677,-27.8446,-87.0423,-75.6044,-112.5653,-23.3297,-130.0864,-165.4801
83.4403,81.4186,55.8849,-82.4521,-20.5112,-206.7812,-199.6845,-237.3458,-200.9486,-234.1776,-11.7984,115.2016,-55.6064,-39.8464,-66.7268,-83.3058,-59.2788,-140.2215,-164.1262
24.1749,54.3752,-9.7174,-101.4094,-95.5970,-203.9754,-202.9035,-221.4817,-209.5227,-252.6618,21.9668,85.3151,-62.0408,-26.6797,-106.1978,-83.5923,-66.6245,-143.6475,-174.0170
35.4290,75.5462,3.0434,-70.6982,-93.7370,-185.4158,-192.9466,-239.3629,-243.9856,-232.9644,71.4698,98.0458,-68.2699,-49.9448,-172.9367,-132.6676,-48.7351,-132.7211,-192.3875
107.6881,151.6340,91.1767,-3.1652,-51.6041,-161.1049,-202.7965,-283.4842,-277.8139,-282.8228,91.5782,146.1837,-101.9216,-73.2168,-170.5993,-167.8906,3.9299,-87.7982,-206.6996
171.0825,210.9023,145.5381,45.1353,-57.6734,-127.6910,-234.9216,-314.7724,-312.6305,-356.3541,107.6974,158.8475,-132.7948,-68.3010,-127.0498,-151.0549,53.4791,-31.8322,-209.0032
158.5926,221.5366,101.0027,74.3262,-56.9482,-89.5635,-236.7296,-296.0090,-322.7864,-300.0972,98.8703,143.8685,-89.8664,-33.5164,-122.3063,-121.0321,42.9964,-5.2153,-218.0274
110.5822,211.4592,29.9765,106.5354,-4.9096,-59.4147,-203.9201,-243.0287,-279.2283,-165.8445,77.5905,158.6835,16.7185,-3.4597,-97.1773,-95.4924,4.5953,-7.0737,-230.4262
92.5023,200.6295,2.7472,116.9018,21.4755,-44.1211,-167.0135,-194.4777,-224.1684,-101.0584,76.4578,173.2693,78.2860,-22.8648,-13.4922,-71.0044,-12.3822,-18.9663,-213.8182
86.7192,183.9636,7.4415,94.2573,2.2550,-48.4943,-141.9815,-178.7724,-227.2381,-105.6662,76.0994,146.4388,63.3938,-73.2799,28.0309,-80.4213,-12.6950,-19.9990,-189.5286
98.3708,175.4053,48.2601,88.5816,9.0184,-55.1253,-155.0518,-193.8804,-277.8576,-117.6793,86.2295,132.8884,55.9674,-87.9910,4.3657,-113.5311,14.4785,16.6249,-203.6262
161.1091,195.3370,124.2863,114.1452,42.4244,-24.5480,-188.7878,-194.0094,-290.4299,-121.5356,114.7651,153.4544,76.8664,-52.8478,7.8353,-99.3869,63.5314,66.6231,-224.9973
194.3026,191.0658,156.4847,110.5201,41.5658,30.6507,-178.6317,-159.3753,-230.1152,-114.9681,93.6879,132.4581,77.6063,-12.0272,51.4747,-47.7376,69.3462,70.5587,-207.3934
131.0367,95.6189,111.5183,64.5759,-1.2919,43.5986,-156.0944,-136.5914,-173.0080,-114.0134,41.1819,68.7611,73.0157,7.2399,80.1771,-35.5799,32.0611,40.1595,-179.7549
79.0927,-0.0785,65.7080,37.5986,-46.3503,6.2659,-191.1011,-142.3959,-186.5340,-128.1870,61.9784,64.0072,79.6414,14.8099,77.9644,-42.4299,17.0681,24.1750,-173.4213
106.3912,55.1192,56.9264,36.9756,-55.7831,-23.4621,-213.1396,-134.1475,-215.3477,-111.3652,106.6172,136.5375,58.7222,31.9030,59.8545,6.3234,11.0631,6.0986,-171.6170
124.5575,188.2699,52.3178,12.0424,-27.5372,-36.2041,-154.3627,-105.3748,-186.5240,-41.4931,85.5020,189.3068,29.2548,52.8574,59.2728,67.8671,-16.8204,-35.9949,-161.3730
116.7595,202.1802,53.2724,-27.0149,-7.2329,-63.6505,-109.6227,-81.1767,-149.8602,31.8102,85.8609,162.5897,35.8280,33.9571,80.3847,40.4371,-17.3469,-63.0764,-136.6810
139.8737,114.5626,74.5938,-30.3914,-14.8803,-78.5175,-130.4093,-49.5825,-172.8101,74.5575,135.4359,96.1653,33.0516,-23.5123,60.8858,-51.4461,21.0421,-51.3504,-91.3400
132.2610,81.5010,89.8659,-6.4232,-10.2897,-34.7187,-124.2195,-1.3004,-182.7294,85.9143,100.4294,59.5340,-3.3778,-36.3044,5.7069,-83.6684,36.1376,-25.6857,-48.6022
47.3473,109.9513,74.7074,9.8000,11.3182,25.6288,-60.8306,35.0311,-81.5533,62.6559,15.1987,79.6671,-3.1408,26.9294,19.7560,-15.8998,16.3462,-6.7027,-28.3889
-6.9440,125.7769,28.6771,16.2059,8.5170,25.1811,-2.9005,38.7579,54.5630,30.3601,38.3313,124.4692,47.8179,87.7997,102.3934,66.7928,-10.4362,-4.4696,-24.4629
17.6775,137.1717,-27.4979,18.2914,-1.7660,-21.9445,25.0813,10.7697,64.0701,22.2973,102.1005,148.0267,94.0156,99.8582,147.3290,92.1483,-40.9006,-18.5625,-51.7190
39.4445,150.6589,-43.2663,14.8404,26.9962,-42.7387,19.5773,-32.1128,-46.6722,26.0576,75.7256,143.7554,135.4323,95.7424,150.5377,82.0581,-53.8561,-24.6592,-108.2249
47.8881,129.7928,-4.3647,9.7382,65.1546,-34.2447,-5.8947,-55.1661,-101.4944,29.6505,46.6523,132.8454,170.7151,84.0263,161.5928,70.6181,-32.5429,-22.7187,-126.2216
80.4128,96.8999,31.6065,2.5770,53.0723,-51.0415,7.2137,-53.7780,-9.3131,47.2877,95.1753,126.7119,142.4925,54.2612,146.0211,45.5298,-14.6327,-44.8232,-86.8936
93.4109,107.9065,41.7397,3.7223,0.4631,-87.5425,43.6854,-58.1638,127.2431,75.6359,135.7776,124.8707,61.2662,34.6043,90.7237,16.8516,-11.9997,-72.5279,-62.4345
73.9039,148.8477,66.9717,33.4437,-40.6648,-88.5886,14.8960,-61.6705,188.3353,98.1528,129.5070,119.2103,8.3961,35.5544,62.8031,27.1181,11.1269,-52.6744,-70.3096
87.9190,156.2464,104.4219,64.9231,-51.7100,-54.6626,-50.4539,-48.2790,176.5927,82.6733,122.1799,95.9725,-0.5088,22.1511,78.4511,52.1617,47.2408,-0.6172,-69.9804
136.1548,110.1349,119.8736,54.6339,-43.7779,-27.2256,-54.8865,-60.2685,128.6446,-12.9956,122.0074,62.0964,2.8792,-17.8672,82.1574,27.9075,71.2788,26.9766,-82.1836
169.2666,69.1655,134.2498,32.6807,-12.7295,-13.5315,-25.6280,-116.6746,36.9160,-129.1861,147.0509,46.9193,21.2410,-55.7643,49.6045,-9.6410,95.8839,19.8380,-121.4229
182.4300,77.7477,158.6718,28.6089,36.6720,-20.7388,-32.6466,-158.0864,-67.9285,-136.3414,207.5764,52.6595,47.4908,-60.6096,13.5542,21.1248,96.2403,-17.7004,-124.4306
148.7804,69.7309,133.3002,-22.3375,48.6369,-82.5999,-49.8950,-156.7293,-93.8124,-62.1072,210.6188,49.2394,44.6207,-29.7115,18.6539,70.4977,19.3324,-95.6625,-74.6366
37.9389,-0.5457,39.4846,-133.8085,7.0906,-167.6184,-30.2081,-144.2874,-22.1790,-37.5387,112.4238,32.8503,16.8269,-0.4405,62.8927,37.0789,-86.9510,-165.8915,-29.9720
-64.7163,-33.8563,-41.8260,-178.9566,5.5697,-173.4589,23.0815,-118.7172,42.0725,-41.7478,33.4320,23.9916,9.8680,1.7451,88.0147,-23.6196,-121.6320,-146.3282,-1.6866
-77.1127,6.3398,-54.4932,-110.5688,78.1599,-87.2671,70.0492,-69.3487,18.7826,-4.7285,42.7965,13.3743,42.6561,9.6561,71.3238,3.9215,-89.1746,-67.6095,27.9051
-63.2277,-8.5561,-37.8520,-61.8047,109.9658,-23.2974,65.4413,-39.2544,-34.1030,3.4515,58.3897,-15.5148,98.2876,40.6098,64.6970,71.3506,-63.6510,-43.7268,44.9174
-80.3464,-89.0371,-34.6152,-100.9765,64.5461,-40.5165,37.8775,-44.6264,-20.7847,-35.5494,32.7528,-40.9663,152.5686,62.1720,91.8447,78.1845,-60.1579,-75.8813,67.1665
-86.7714,-96.1974,-29.5696,-129.0093,51.8214,-62.4379,56.2538,-25.7863,42.5349,5.9620,5.0369,-40.7588,176.2528,84.8929,108.0141,82.6383,-50.9567,-71.0371,124.6522
-82.0416,-51.1398,-7.3125,-96.6480,83.1474,-32.1540,78.8970,45.8572,62.2467,126.2818,3.9861,-23.2973,150.7497,138.0410,86.9116,156.8489,-35.9282,-36.3894,172.3487
-95.1791,-63.8791,14.8284,-74.9283,70.8482,4.5436,40.8319,118.2707,19.5925,176.7096,46.6440,0.1771,106.6435,171.2134,58.4102,207.2633,-25.3150,-33.9031,177.9210
-76.3717,-72.4965,32.6990,-75.2423,46.7744,26.5425,27.6755,166.2426,-2.8943,171.7460,121.1020,14.8457,95.8205,159.8128,60.8623,169.6746,-7.8606,-13.0326,199.6414
-11.8102,-11.2949,59.7954,-23.1950,79.0401,84.5850,108.1180,237.3667,52.8010,248.8031,149.1713,7.5827,111.5205,183.4543,92.9852,155.4093,25.2018,75.4381,248.3478
16.5950,39.7437,87.2362,78.8869,114.2168,164.1326,177.0733,324.7404,138.8819,349.5360,104.7261,13.2947,109.4776,244.0971,113.6526,216.3439,66.4539,134.2239,232.5617
12.6816,65.6459,110.4816,138.0918,113.4373,169.7568,161.2745,312.0448,161.3321,284.8043,80.4604,68.9528,95.5724,229.5392,98.5020,233.1491,116.5460,92.7821,129.1162
68.0541,125.4007,158.6791,116.7172,127.3856,91.9274,117.1320,159.4221,86.4866,74.6337,130.2547,132.5583,94.6184,145.5274,65.2143,157.2059,177.3555,32.8233,36.4149
161.2101,177.2168,228.7504,74.5420,160.3241,29.3450,67.7650,13.2708,-29.9027,-67.1601,190.8607,159.0176,90.4177,112.9062,31.9222,86.3142,222.2657,19.5070,12.9694
198.2339,192.6316,258.8554,74.5216,169.9952,32.4388,5.2636,-13.8727,-116.9648,-62.9634,201.5768,175.9641,89.5056,139.6554,17.3398,65.6139,225.7068,29.4369,12.8608
186.4687,237.7538,226.2271,121.5076,159.4351,65.0010,-26.4940,-2.1808,-153.6493,-31.7323,172.4197,198.3330,128.3866,150.7644,48.5478,55.8070,207.9349,61.4576,-3.3332
183.7990,303.0329,189.9608,184.7169,145.3734,96.5864,-13.0274,-28.5304,-136.1879,-38.4405,151.1525,203.2955,169.5253,147.2004,100.5437,45.7580,198.0978,117.5013,-13.1191
191.0946,325.9882,196.9082,228.0019,133.0045,123.2386,24.4549,-39.0649,-52.3505,-37.6939,172.6249,203.6745,152.3550,148.9675,123.8051,34.2028,189.2945,146.3685,0.9385
193.0602,320.7399,222.4792,222.5648,132.2835,135.6899,101.2831,-14.0643,65.0070,-38.4940,205.0877,204.6607,120.5637,128.6389,138.7976,11.1991,174.9293,127.9017,17.6259
192.6048,284.3083,226.9809,169.7775,127.9210,123.3148,183.0804,-13.7452,133.2335,-77.8614,197.0806,172.6256,129.9408,87.8520,162.3341,2.1752,170.0079,95.3561,25.6854
181.3649,201.7835,208.3201,112.7921,103.9930,83.0774,169.4494,-31.1962,111.5819,-93.3613,177.6307,138.0880,140.4721,60.0642,140.9798,12.4132,166.3979,60.1792,37.2507
143.6021,169.9204,177.0171,91.9466,85.7893,28.7840,73.9920,-14.5106,53.4957,-26.8238,185.1115,160.9482,123.3412,47.2633,87.4964,3.3125,131.9192,18.7453,48.8752
75.1464,223.3230,122.6000,87.3707,70.0344,-14.1278,19.6465,11.1991,51.1723,53.2065,175.8778,193.2690,107.7347,35.8412,82.7073,-11.3754,65.3652,-29.2362,49.2281
-3.1008,216.6367,47.6325,50.6982,14.5155,-54.0313,38.1868,-1.8999,132.4554,71.7916,139.1850,167.8637,84.4861,10.6706,99.5195,-1.3218,2.9485,-93.3803,49.9827
-43.8260,116.7341,-0.7791,-3.5020,-56.9946,-111.6800,68.4137,-30.2216,224.0995,69.2669,129.1660,122.1872,34.7330,-39.6877,70.2054,-10.2590,-28.9194,-140.1728,65.6756
-33.2470,75.9575,0.3067,-10.3725,-76.2314,-138.1877,100.6345,-21.4273,260.6216,117.5414,115.0490,95.6013,2.2586,-68.4797,45.2323,-38.9879,-38.3153,-110.5430,91.6079
-19.5391,106.1421,3.0405,27.7695,-43.6914,-79.8587,165.9503,26.5312,276.1795,177.2187,43.3508,68.0860,14.7954,-24.4644,74.8019,-5.5489,-42.9238,-38.7694,112.1329
-29.8559,72.5752,-14.3088,36.6643,-19.8796,1.2333,233.8597,57.9917,296.7534,122.8826,-1.5704,39.7836,37.7054,26.1577,108.9663,62.3727,-36.1074,-3.8234,107.4083
-39.6534,-10.1224,1.5839,4.6178,-39.4235,25.7869,235.1953,39.1216,267.9498,-27.9162,52.8980,20.7532,48.7298,2.0571,115.2900,60.9226,-3.8336,5.4294,83.8325
-45.3199,-23.6966,59.7369,-2.2203,-66.2183,26.9041,175.3381,22.3863,197.8974,-62.5603,119.3000,3.0590,50.9967,-35.1326,103.2498,31.5698,28.8854,22.5030,89.0135
-63.9586,16.1167,84.9244,23.9091,-46.1009,44.5269,131.1920,56.2989,183.1025,77.1298,119.2761,5.1597,40.5594,-8.6790,73.3007,54.0474,20.1577,18.4322,129.6906
-83.4034,11.9928,47.8642,20.2391,-13.2886,40.1322,129.9059,95.1946,229.7589,172.2029,81.1722,27.4545,28.6167,30.1620,62.0863,62.7282,-21.5440,-14.1587,141.2383
-94.5505,-39.8602,3.2727,-21.8336,-30.6132,1.9033,137.2631,101.6316,254.1487,143.8655,33.9029,20.5952,34.1259,25.9816,91.7890,14.5775,-53.2403,-41.5374,110.4049
-110.3091,-69.1625,-10.5548,-47.8100,-40.8740,-26.5138,146.3441,112.7135,234.2080,160.4925,3.0545,-7.9288,49.8853,8.9460,96.3523,-6.6110,-64.4376,-56.9657,99.4366
-122.8586,-53.2199,-1.3195,-32.7850,16.5288,-26.8459,163.0111,134.3981,207.5149,229.4948,21.1128,-8.5507,66.9500,11.1419,67.3082,21.7974,-70.7531,-47.3684,117.8561
-121.0580,-37.3648,16.0390,2.1465,56.7411,3.4763,179.5796,138.7547,222.0329,214.6742,48.2212,-11.2965,87.7396,44.7287,96.2469,46.5231,-72.0745,15.1180,134.9293
-120.9117,-53.8499,26.6513,23.2035,36.5835,62.1061,219.7031,155.1609,310.1800,187.7535,43.3407,-49.4131,102.3964,108.2246,160.6016,86.1852,-62.1804,86.7869,172.9989
-121.7161,-85.6555,32.5345,7.6359,44.4631,93.3923,267.0316,199.2697,383.4247,259.2615,50.9694,-73.2714,106.1429,143.0077,142.4474,157.0781,-46.7835,87.3861,233.8378
-102.5941,-109.3450,60.2295,-26.6799,79.0790,50.6081,225.8533,210.5527,307.2613,315.4285,72.8796,-68.1283,111.5358,113.0680,68.8695,186.5605,-27.7348,21.0190,254.2580
-75.2292,-104.4389,106.1025,-44.9592,65.7066,-17.1298,123.9929,168.4711,160.6838,266.5616,50.9894,-72.6648,114.1731,85.3757,50.0077,139.0444,-1.6777,-32.5621,228.7878
-61.0364,-48.6783,130.2202,-42.5033,44.2930,-36.5554,119.0665,128.7926,129.1303,204.8764,23.7580,-69.3078,100.5317,98.6106,72.0678,71.7658,21.6553,-7.0433,210.2437
-43.5180,30.6329,138.3861,-4.4628,52.5356,13.1055,195.7689,125.4614,186.3304,199.7372,52.3571,-55.3117,87.6878,108.7468,69.9579,46.2408,35.0963,96.8844,188.5890
-3.6696,64.5283,180.7809,92.8992,41.4697,117.6456,207.2762,149.4532,208.7954,231.6345,83.3232,-131.9336,96.7126,123.1322,54.2277,81.6860,56.5443,210.9828,133.6532
46.6778,33.4642,253.1238,183.3174,31.0105,222.0455,169.2169,171.7860,198.7932,253.5022,85.0010,-368.1438,108.6275,169.5148,48.6875,140.4352,96.5740,279.3886,75.2990
98.3918,-16.6527,302.8880,187.4900,54.1352,266.8454,150.9214,160.7264,148.9292,216.0967,116.4254,-682.0994,97.3256,196.3448,44.3655,164.1331,126.1709,323.3453,33.8017
152.9260,-20.9433,325.6586,187.0142,49.5908,287.4732,99.5155,144.6584,12.3553,179.1616,176.0764,-907.7660,83.3825,197.6898,39.4825,168.9379,115.8797,381.6033,-9.8216
182.2541,69.8380,348.1956,293.9957,30.2667,359.9036,21.5170,190.8168,-108.7602,264.6881,217.0575,-925.3891,105.2740,250.6810,38.9593,208.6677,75.6994,466.0747,-55.2425
149.7899,225.0710,354.9301,450.5908,67.0930,479.7364,7.7306,306.0457,-91.5801,431.7436,260.6111,-772.5081,144.1412,348.3804,38.0002,286.4072,33.6124,599.9646,-94.9250
95.2509,349.2924,343.2706,580.7841,92.5056,622.5049,31.0432,464.3801,-16.6186,571.4336,319.9763,-599.2968,144.2713,447.3421,30.1906,418.5898,22.6457,784.8423,-131.9411
110.7357,423.2894,376.1783,723.2820,65.7079,790.4496,31.2524,640.7090,-4.3729,692.9536,352.9901,-468.9440,115.1288,589.9124,15.5032,617.3427,75.9962,943.5295,-145.3990
186.7553,496.1350,464.0312,852.5145,91.9176,913.8302,39.8734,747.3836,-37.3800,762.6837,348.9686,-337.3946,116.5801,749.0986,14.0386,766.0936,169.1467,994.8250,-116.2123
210.6287,545.8765,512.1376,866.3554,144.5819,910.2047,45.9560,724.7842,-69.1267,695.9962,325.7722,-212.7059,141.0242,798.2758,44.3667,771.4159,224.4611,949.5444,-68.7651
166.3304,540.6450,487.6132,808.8335,94.8552,845.0816,2.4104,658.1093,-104.0355,588.0536,293.7643,-130.6870,127.6080,746.9077,67.1473,728.2698,230.4305,886.3160,-38.6752
153.1040,545.8028,478.6937,804.0806,23.5495,821.2205,-50.0723,612.8402,-151.0868,551.0257,277.4389,-54.9235,77.3340,698.2500,30.1347,694.7252,253.7462,862.8032,-41.9692
193.0230,600.4092,527.1785,838.5876,55.3272,811.7700,-75.4673,546.5599,-190.0305,508.3675,277.7921,38.4372,45.0974,649.3380,-27.0063,603.6732,313.7000,861.8570,-61.2774
234.1144,640.1103,579.4349,842.4146,105.1991,773.2728,-96.2421,490.3631,-180.8212,445.2212,263.9030,116.5562,45.7904,595.0446,-35.5534,517.2425,369.9812,834.2300,-47.1742
275.8820,620.7914,597.4022,814.4594,91.2947,735.6946,-110.1795,514.1680,-148.0759,468.7776,242.3692,174.9856,38.0786,587.8359,-34.1431,542.3394,396.3178,770.0692,4.9335
294.2702,554.3742,560.2198,736.7451,55.7481,685.2591,-120.6489,554.3718,-168.8127,549.6084,214.5636,207.6224,-16.1175,575.9509,-88.5279,566.7950,357.8866,670.0052,41.6688
210.5315,448.7340,438.7164,574.1528,7.7025,573.4194,-121.4784,561.4510,-178.1960,603.2101,144.2509,169.0824,-88.1784,489.1140,-137.5176,489.4095,223.5899,526.1696,64.5411
60.1837,333.5922,273.3315,391.1722,-53.9772,444.7647,-45.3018,590.6567,-43.1113,633.9203,71.7397,89.0481,-99.1750,402.5241,-91.0835,422.6030,63.8834,395.4110,101.0128
-40.4757,267.6564,149.4064,294.2866,-94.0253,368.7878,64.2837,591.8887,133.4866,589.8591,61.7091,78.3513,-35.7422,369.9081,0.3897,408.4695,-12.5111,342.7676,91.0693
-87.4405,278.8643,82.5492,293.4005,-123.0879,326.3181,68.3002,472.0564,180.7793,438.9118,52.4601,173.0947,24.2099,347.7530,44.2866,370.2646,-13.4030,324.8557,7.7583
-113.0654,342.4529,54.5219,320.0403,-128.3600,289.5838,40.3861,326.1175,189.9269,310.1101,9.7761,303.6851,43.1213,361.4084,60.0725,360.4416,-11.8526,305.9558,-49.2934
-80.1020,387.8308,68.6543,327.9969,-61.8953,279.3165,111.4466,249.2395,249.8619,245.9290,39.0376,393.7640,57.7993,424.2165,87.7441,411.8009,-19.0154,329.3387,-49.6560
-21.3601,373.0893,84.8451,333.2527,-7.7114,285.5999,131.5892,174.4482,222.5866,164.7779,131.4915,425.9129,75.4541,425.4283,93.7469,384.6455,-18.1072,352.8680,-72.6666
-29.6681,378.0364,53.5096,366.5385,-61.9752,278.4498,-5.6227,119.3795,86.1874,141.7268,132.3942,450.3562,71.9089,352.6490,64.9037,272.7917,-19.9079,317.1210,-98.1882
-72.8783,469.0513,15.5811,407.2823,-135.5062,283.4227,-111.0564,184.8250,-5.8124,243.6005,49.0094,510.6259,52.4503,328.5694,24.3183,245.6994,-25.8086,321.6859,-61.2882
-73.9986,534.2516,18.2480,417.1077,-164.6436,313.6904,-121.2684,279.0648,-49.4106,305.5132,18.5323,564.8898,22.9814,344.3402,-44.1284,299.3218,-19.0076,378.1233,-23.8627
-56.3817,475.9210,26.8707,401.8291,-216.5150,307.8547,-163.1138,268.7816,-88.2777,262.7995,43.9517,558.0059,-16.8540,310.1722,-120.2370,309.2528,-4.1849,340.9191,-34.1142
-36.7891,390.1285,25.2073,361.8663,-243.4384,266.0461,-168.6308,232.6168,-50.0755,262.0290,59.7896,509.9552,-34.8401,262.7076,-118.3706,288.8821,-12.2156,373.6414,-35.2539
3.0012,362.5652,45.9596,274.1974,-147.3335,314.5822,-58.0385,244.4831,6.0580,301.8999,68.1713,463.8208,-13.9944,244.0399,-57.7439,265.8112,-61.2057,790.5686,-32.3580
10.4629,352.0288,70.3890,183.2174,-27.0568,489.1782,-1.4724,221.5411,-53.9570,272.4418,66.9009,443.4897,8.6264,217.4540,-47.8667,197.5502,-113.6367,1309.0083,-69.8695
-32.3405,348.9158,64.9470,167.6174,3.0212,623.3461,-49.2012,161.0055,-112.1297,235.8235,51.0908,462.8616,9.8470,210.3578,-78.2595,138.3888,-104.9823,1382.2068,-92.8338
-26.4252,367.6632,74.3398,213.9522,7.2037,611.6013,-28.8024,181.0527,-30.5274,279.3470,53.9810,487.9437,7.5004,264.8473,-71.1317,169.0441,-33.7073,1144.1963,-67.0082
50.5420,355.8253,138.6466,260.8740,38.4338,573.0424,52.8087,282.6370,53.4819,339.9843,61.7988,466.7569,14.2417,318.5045,-44.1872,235.3641,43.9465,1060.0552,-52.2085
96.3398,304.1176,199.3217,286.9527,46.4400,593.6057,67.7424,343.5808,39.9895,341.5737,36.5605,424.8220,26.1300,332.1578,-21.1355,278.3773,97.1711,1072.2496,-48.2135
81.8813,271.4498,185.6073,273.7280,12.4846,573.4838,66.8886,322.7103,44.4019,296.7480,17.6568,421.4471,32.8693,354.1188,23.0437,320.4713,115.6936,946.4202,-10.8416
64.1162,268.9650,125.0597,231.5780,-26.7530,482.3626,111.3597,304.1387,104.7354,287.1938,45.1582,464.5014,35.0127,397.9259,55.6295,357.9046,93.4950,827.2428,24.6503
60.9645,299.2774,101.7200,249.9926,-29.3192,453.7321,123.3074,351.7252,129.8064,368.7901,89.8460,540.7749,57.7147,436.1516,45.8334,376.3780,74.9459,847.3474,35.7987
67.7032,382.9839,135.8867,357.6187,18.9720,509.8562,70.8962,407.6591,96.7272,442.6324,123.7029,623.9182,95.8698,452.7998,44.8020,396.1458,99.4571,852.6204,59.5081
84.6174,460.8409,166.1911,443.2226,63.9145,518.4166,3.6419,392.5598,37.0561,396.6265,127.8428,666.1530,96.3800,424.6740,50.7203,399.8942,118.5566,777.7159,69.2543
93.6846,477.8120,152.6348,442.1630,52.5445,462.9027,-58.3297,339.4352,-29.7519,312.4967,92.6678,676.6165,59.4017,371.3981,4.9556,372.3388,100.5496,720.1859,22.4449
102.9131,492.8866,123.9556,424.1524,15.7988,445.0812,-111.9463,309.9055,-78.7128,263.6316,77.2208,702.1746,40.8460,365.0310,-47.0888,364.7336,107.5061,678.3755,-25.5521
140.2957,521.6755,110.5537,428.3670,-6.6556,460.3308,-150.3965,276.7836,-111.0984,166.7276,119.4770,715.4434,37.7200,398.0432,-36.8722,376.3369,159.5947,607.6451,-27.3629
177.0600,488.8376,108.6328,400.9464,-4.2537,432.5538,-156.5502,213.8851,-140.6541,35.7861,146.6523,678.2830,25.0811,396.1678,-7.5735,337.2753,187.1898,536.5337,-19.3125
173.9951,417.9331,101.8865,322.1805,39.2858,371.7436,-102.3393,157.0106,-143.1366,-12.1868,123.6405,624.4764,34.5224,356.9385,6.2597,260.0929,160.2030,462.9980,-19.3665
148.3224,389.3167,64.6256,254.3006,83.0791,323.6917,-31.4431,118.2238,-107.8354,-6.6334,112.6712,555.9896,63.8809,312.8055,34.8627,202.8326,111.0774,372.5689,-10.6362
115.4763,365.2993,-2.8753,250.9957,63.1344,292.7958,-14.4067,95.7746,-55.4454,-10.9689,121.1319,441.9376,62.4813,267.3108,63.0202,154.9811,69.4750,324.8257,-2.2514
76.0492,291.6142,-41.2684,284.4789,27.6918,278.1560,-9.6002,108.4080,-1.5679,8.3461,106.2911,344.6333,45.4326,243.9588,58.2101,117.3982,62.3781,326.7427,-2.4584
56.4382,210.3741,-21.6402,279.8785,30.5410,257.7103,17.3115,114.2512,20.7904,19.9301,73.0178,328.6813,41.8180,234.7478,41.4803,123.9334,91.2738,270.5402,-5.3793
54.2422,147.0768,-3.2670,207.7153,21.8919,175.5516,6.5318,64.5380,18.2655,-15.2386,18.8036,328.8935,19.1862,165.1098,36.6369,127.8397,112.2934,120.9100,-9.5602
26.0769,72.0776,-23.5616,105.2662,11.2311,45.0783,3.4040,33.6303,70.8463,-8.5184,-60.5610,276.3404,-5.9647,52.2098,55.4104,71.0317,110.3921,-17.4646,11.4972
-20.6781,-13.6548,-48.1787,17.4428,55.4036,-46.5793,86.0828,80.9660,139.4646,55.2135,-99.4935,200.4874,23.4203,6.4238,90.3772,11.3792,109.2508,-80.6021,75.7506
-42.7749,-85.4818,-63.9036,-32.5161,77.8518,-86.5720,119.5085,116.9010,80.6278,81.1157,-76.7914,139.2269,57.0388,15.5800,78.3704,6.8055,95.7018,-127.3056,132.9482
-39.8718,-132.9151,-91.6563,-48.5532,24.6803,-138.3177,19.1540,84.9522,-29.3773,89.1099,-73.1693,102.7995,25.3793,-24.7186,14.4394,4.8418,50.1235,-205.7072,147.5479
-28.5995,-151.6848,-129.7013,-70.3773,-0.2969,-202.4600,-25.8927,49.3769,13.5152,117.3097,-107.9888,94.6491,-16.8844,-110.7656,5.8342,-42.8732,-0.5801,-279.0833,157.0874
-23.2861,-154.6791,-171.3285,-119.2181,17.6748,-237.1964,50.4279,21.7624,150.2321,89.5147,-129.8052,85.2063,-17.0963,-173.3790,58.5280,-102.7169,-35.3932,-321.2295,173.6614
-47.1954,-164.6168,-211.3356,-160.3405,-19.6335,-265.1982,68.2859,-46.2466,197.8145,6.8341,-146.6442,48.1365,-16.0912,-201.8641,58.0721,-137.4540,-50.9500,-361.3992,162.7394
-71.6391,-196.7054,-224.2771,-184.9925,-74.0705,-319.6574,12.9000,-132.2081,179.8998,-63.5407,-167.1640,-7.5595,-34.6414,-223.7282,19.2359,-160.2780,-36.5786,-407.3654,128.5774
-44.7228,-278.7529,-214.9476,-240.9272,-76.4897,-371.2472,13.1790,-198.6418,185.4036,-158.6243,-155.1021,-101.5951,-55.5990,-280.5491,23.2151,-206.4844,-27.0459,-444.5851,98.9402
-20.2486,-407.3980,-228.6159,-334.2526,-94.5304,-404.1158,37.8952,-257.3532,206.4624,-261.9054,-139.9809,-240.8808,-87.4615,-382.1804,17.4686,-276.2641,-77.9558,-498.8564,86.9779
-77.4685,-497.8230,-270.8243,-419.7346,-147.1045,-451.0548,38.3197,-297.2917,242.1345,-257.9642,-173.3388,-330.3719,-127.2155,-436.4179,-25.7700,-312.2212,-154.5513,-584.0095,115.2667
-154.7605,-500.5728,-315.7169,-485.6553,-171.6822,-511.6610,61.3503,-298.4901,270.2638,-194.2587,-207.9504,-311.8142,-159.4589,-384.4192,-23.3242,-285.1276,-187.8858,-654.2997,167.2267
-163.3740,-489.6578,-363.2958,-540.9037,-203.5236,-554.1397,54.8388,-290.4749,211.4076,-198.0305,-195.4025,-283.2556,-199.6551,-341.9291,-1.2947,-266.3451,-196.5134,-688.0922,165.7992
-146.7142,-527.8195,-401.8148,-572.3226,-266.0076,-580.3732,-40.0167,-288.7760,90.2505,-222.8725,-175.2167,-320.6208,-231.0915,-395.1850,-42.9405,-313.7528,-224.7840,-705.9127,103.0954
-167.3841,-576.1496,-407.5301,-577.3854,-263.8116,-590.7359,-108.5034,-275.4930,8.6929,-214.6098,-175.8710,-367.4432,-191.4536,-438.6758,-66.6089,-362.8326,-261.3107,-699.6343,53.4792
-199.6875,-594.6195,-412.3246,-567.0214,-189.3286,-560.6111,-90.0301,-274.4054,-43.3418,-256.5895,-178.2344,-390.2566,-93.2529,-401.3205,6.8957,-349.6070,-285.0515,-669.1630,21.2899
-212.2025,-592.9831,-443.6593,-533.8799,-140.6301,-509.7748,-91.0705,-315.2044,-122.2326,-367.1080,-173.7707,-422.7361,-22.5143,-369.0870,81.1936,-326.7942,-283.2888,-651.3074,-31.8819
-200.3740,-578.2202,-441.7953,-475.7664,-102.8500,-482.3032,-124.3202,-355.9223,-191.1920,-450.3265,-157.1440,-449.2905,-5.7398,-383.4540,93.0008,-349.4998,-237.7647,-632.7330,-54.5970
-150.0041,-549.5261,-365.8553,-416.2735,-9.1657,-460.1420,-84.6783,-346.7784,-181.5855,-455.0700,-120.3464,-435.5306,0.5927,-396.6973,100.6564,-376.6984,-166.7859,-577.3425,1.3633
-73.0492,-510.9112,-280.0877,-376.6773,84.3763,-413.9494,22.1937,-304.8598,-82.9871,-397.4280,-72.9441,-403.6338,20.4165,-405.4901,116.5922,-364.9717,-110.9380,-529.7989,67.3742
-4.7313,-453.4664,-237.4966,-357.5520,99.2179,-377.1906,97.8916,-276.3608,31.2023,-332.7965,-20.1777,-362.1213,35.0959,-409.4328,112.2801,-341.6582,-64.8349,-535.9598,86.5139
63.5466,-375.7969,-202.1604,-342.9374,65.2323,-380.1430,105.7803,-293.3011,58.4061,-339.2218,32.5056,-290.8397,24.2877,-371.6407,107.4836,-343.1705,-3.0868,-556.0958,97.3254
152.8685,-314.5387,-136.9641,-319.7240,49.2158,-399.5138,75.7832,-361.0241,11.7955,-427.6664,61.4145,-230.9302,2.4817,-326.8972,111.4789,-364.4614,67.6592,-551.6461,114.5445
231.2396,-306.6920,-58.1516,-295.7224,54.5922,-403.0368,44.6757,-437.1220,-12.3046,-529.8436,63.3307,-233.3195,-3.1397,-329.2642,108.0013,-376.3555,131.4496,-521.0257,103.7040
257.9387,-331.8113,7.3187,-272.0064,33.6179,-372.9547,22.6190,-461.1318,-14.3835,-576.8683,51.7184,-249.8146,-5.5376,-328.6353,105.6752,-357.2754,179.7736,-465.4292,83.4030
242.1765,-331.1162,47.7412,-233.5717,-17.8248,-324.9231,1.7903,-432.2737,-20.9289,-533.4014,22.9333,-223.2133,-27.0078,-299.9982,102.3787,-327.7558,207.4506,-431.9113,96.4755
227.0409,-293.7019,68.3536,-203.1060,-28.2425,-318.1583,-4.2924,-409.5487,17.5169,-447.4953,3.7087,-195.5972,-40.8281,-321.9313,83.0542,-336.1898,229.8007,-471.1425,119.9394
250.2473,-276.9012,96.3784,-224.3418,32.2307,-368.3105,10.9220,-431.0863,53.8576,-437.1152,39.3961,-209.6173,-24.5175,-391.9060,70.8768,-382.5645,261.7249,-529.1031,116.4173
301.3344,-305.7712,145.8253,-280.4216,94.9352,-413.8714,13.7178,-480.3542,-25.8805,-519.0100,93.1023,-229.7334,-5.7408,-422.5529,80.3239,-418.6581,280.8007,-542.2546,103.2258
325.2841,-317.1017,182.5038,-316.3993,118.5932,-429.6140,6.1218,-515.2924,-130.6148,-577.3398,103.0405,-228.1378,7.8040,-430.5042,85.6065,-431.5150,266.9203,-540.0484,104.6935
307.8892,-262.7180,174.8852,-310.9806,141.7714,-441.0443,44.0951,-494.3043,-96.9711,-535.0983,96.8702,-219.0546,44.2051,-461.6092,89.0772,-437.5669,237.5386,-534.3583,121.0478
289.2917,-203.9950,145.8726,-280.9833,184.0225,-433.5930,137.3472,-411.4689,34.9137,-405.3515,106.8151,-210.6950,99.1145,-462.7838,120.4674,-425.1231,202.2951,-503.6049,161.9472
268.1950,-230.3712,122.3047,-269.9418,225.6767,-398.0556,249.4425,-323.1175,181.1313,-257.4677,103.5039,-218.4506,154.3695,-424.3040,181.3308,-393.7979,151.7505,-490.9519,224.0460
213.7029,-320.1513,96.2983,-301.2939,257.7668,-374.6742,352.4204,-286.8498,325.2180,-210.9957,95.4984,-252.7135,213.9421,-415.3029,247.7974,-382.1653,108.3492,-510.1107,256.9693
163.3618,-363.8564,79.4916,-320.7405,266.3554,-360.4817,382.6159,-294.6962,347.9163,-301.4536,127.6833,-267.5045,250.7168,-419.7518,272.0780,-392.9807,111.5238,-491.4142,226.3199
171.6611,-330.6963,103.3699,-288.5413,231.8425,-328.4340,281.0805,-324.0186,169.8802,-407.1790,185.4890,-237.2743,221.2614,-389.6648,218.3884,-382.7078,148.2492,-446.2314,167.2629
209.1448,-302.8306,142.5838,-259.3782,174.0527,-314.9515,126.8909,-378.6136,-22.0893,-439.1577,221.7715,-215.6773,158.0202,-361.4399,149.2027,-342.4187,166.2997,-442.9939,126.0119
221.8778,-308.7695,144.3326,-248.6129,137.5426,-328.0114,51.7407,-431.6086,-55.5479,-426.6857,210.3476,-214.7972,128.4513,-346.3751,148.7342,-303.9524,155.9116,-440.0832,103.7253
207.7996,-285.7286,118.7944,-202.5423,132.1051,-308.7142,49.4043,-445.9250,-10.9496,-401.8892,152.6521,-190.5372,124.3238,-317.5805,170.2443,-288.1086,156.6023,-391.5618,86.7191
184.5198,-238.5890,106.2657,-153.1780,125.2643,-264.8471,46.9927,-446.0223,22.7373,-387.5688,99.5364,-173.6711,98.2298,-317.5398,139.4130,-288.2875,183.4629,-348.1142,78.3246
171.5874,-226.4713,111.6402,-147.8328,104.1871,-237.9310,65.7203,-439.5461,70.9644,-381.3618,82.4927,-199.4549,59.2079,-354.0659,110.0531,-277.7840,204.3997,-311.8113,85.7148
178.3755,-223.4032,119.7767,-124.9634,103.3294,-200.3682,136.5988,-369.4525,114.3912,-298.0177,40.2045,-202.6925,44.8690,-352.2768,135.5932,-252.7111,186.8451,-258.4975,108.7376
157.1693,-204.1762,102.7893,-92.1907,120.8678,-167.6399,184.9229,-252.2278,124.4497,-126.9240,-39.0704,-171.0940,49.5615,-325.7794,152.9384,-250.8493,126.2822,-265.6373,148.6897
66.6670,-231.5599,34.5520,-156.4404,92.6252,-212.6322,157.4604,-181.4505,160.4955,-9.9052,-59.0390,-188.6427,42.7628,-327.2491,118.6495,-264.0800,47.3731,-354.6903,212.0842
-33.1083,-306.2639,-53.9910,-265.6065,21.5544,-297.1891,121.7813,-160.8713,230.2069,1.4329,-31.4693,-243.1971,24.9620,-307.2929,78.4596,-230.2854,-12.3142,-415.6829,283.8748
-80.4982,-351.7394,-115.8455,-285.9760,-12.8388,-339.8044,115.2687,-140.9939,232.0484,-4.7024,-63.2937,-260.9448,25.7980,-265.6663,66.8992,-170.3304,-50.2252,-422.4956,307.0479
-112.4780,-373.3953,-161.4033,-257.5254,-4.1322,-351.2588,84.2649,-135.5215,145.2566,-1.3065,-104.5154,-263.8174,61.4040,-267.5851,81.5537,-152.5399,-94.3417,-416.9530,242.3629
-155.2215,-400.8794,-192.8050,-246.9940,10.0470,-322.1235,55.0834,-136.9423,89.7368,2.6712,-66.8607,-269.4923,113.2686,-242.4407,113.0128,-143.4124,-131.9709,-356.0820,131.5883
-173.6400,-402.1269,-183.0927,-215.7287,41.9839,-233.9756,100.8704,-108.2847,118.7772,23.0319,-52.8664,-245.5093,139.5829,-154.6731,127.3160,-120.7567,-137.4058,-267.3751,33.2044
-169.1002,-396.9224,-172.0016,-190.3210,52.6835,-193.5585,125.6351,-102.5625,118.3400,12.5625,-122.9039,-240.3303,107.3033,-163.2268,101.0451,-164.3888,-143.6988,-271.2950,-49.8441
-151.4302,-415.2245,-194.3750,-204.3647,-19.6850,-238.4670,19.9708,-153.7405,18.9618,-39.2767,-134.8226,-283.1990,33.7682,-252.7885,71.5215,-222.5378,-159.0358,-299.8070,-111.7512
-89.4547,-379.0659,-177.5664,-159.4900,-79.2938,-223.9164,-77.7305,-175.0838,-67.8750,-44.4639,-66.5628,-271.1648,-18.1675,-189.7097,71.2691,-123.7303,-121.9807,-218.1732,-124.3522
-24.4814,-277.0924,-105.5492,-50.3194,-31.8167,-146.5467,-44.4986,-162.3567,-74.1069,-35.2530,-89.1634,-187.5882,-12.4527,-21.2908,70.3050,53.9982,-50.4625,-148.6542,-124.7752
-39.9037,-229.1438,-78.9900,-16.8945,12.5825,-168.4846,-20.4920,-218.2543,-92.2505,-105.2624,-203.6286,-153.6174,18.7580,10.3351,42.1262,74.2642,-35.2186,-215.3428,-169.9179
-80.7160,-238.7808,-93.5995,-52.1739,-14.3097,-249.9641,-72.1602,-294.2889,-116.5650,-150.5857,-241.2099,-175.1618,26.2294,-48.0386,17.4336,-16.4187,-53.8510,-273.5506,-208.4291
-66.9382,-227.6509,-70.2401,-68.7622,-15.0164,-247.4687,-45.3610,-264.1233,-25.8010,-82.3833,-205.2136,-180.9781,0.9885,-54.1363,35.3010,-13.3912,-44.5957,-251.3273,-173.1169
-82.7851,-254.3884,-73.5057,-128.4654,-5.2859,-229.8793,46.9123,-185.9301,82.3014,-41.5532,-228.5781,-212.7759,-37.2847,-84.9758,76.1998,46.1236,-65.9169,-284.6280,-126.8088
-179.1057,-354.0512,-155.9354,-240.4457,-83.5482,-277.3830,13.8534,-165.9292,0.6486,-85.4452,-303.8671,-288.3614,-77.3191,-162.9198,75.1556,26.5106,-134.7683,-347.4854,-144.2490
-229.1589,-414.6872,-183.2213,-264.5290,-162.9376,-291.0412,-111.8687,-159.4466,-170.4981,-79.3007,-342.0233,-320.9438,-119.7458,-156.4854,16.1672,-13.9946,-138.1788,-296.4304,-170.6148
-197.7370,-424.0741,-101.8873,-212.7692,-139.2541,-246.2885,-153.8878,-123.6216,-202.2175,-13.9193,-352.5257,-315.9257,-157.3065,-73.1590,-35.3372,26.0331,-75.9554,-230.6055,-136.0330
-215.6940,-472.7608,-58.6359,-229.9140,-96.0632,-243.8815,-116.9028,-105.2953,-138.7300,0.5115,-380.3345,-353.9763,-175.0410,-19.3531,-39.6274,95.3873,-71.9553,-292.1609,-72.3421
-282.1645,-511.4007,-94.4477,-289.3955,-83.6871,-270.0143,-70.5490,-93.6343,-97.2812,-13.8561,-399.3383,-407.3919,-170.2305,2.2004,-36.0161,107.9467,-107.2043,-343.6901,-25.0988
-266.5015,-459.3986,-86.2916,-277.2388,-28.3149,-236.4734,18.2215,-23.1270,-5.4968,39.6129,-373.7971,-405.2756,-146.6731,22.4812,-40.4993,85.9581,-76.1673,-248.1198,17.6308
-190.0111,-375.9549,-14.2425,-211.0032,63.8098,-148.9978,145.0353,88.7125,157.0307,149.0968,-325.0326,-343.2430,-101.5885,68.0172,-12.0612,112.3856,-15.0602,-128.7289,53.1426
-170.2541,-307.2691,30.3385,-152.9431,112.2454,-56.5817,222.5262,154.9082,237.0646,188.1950,-282.1678,-239.5214,-51.6930,174.9648,50.3082,196.9524,-3.2829,-95.9791,32.0768
-193.2452,-225.9874,33.0255,-108.6465,102.6069,9.0757,204.3740,131.8307,172.9968,70.9978,-236.9168,-136.0118,-29.3749,272.5318,102.6907,239.8046,-6.9789,-78.9553,-50.7469
-185.9483,-154.2734,47.2134,-74.7563,62.8864,20.9697,110.8101,63.5558,58.5059,-80.5894,-185.3348,-90.0308,-25.8038,253.2385,128.5737,169.8781,21.7530,-44.9951,-111.4761
-164.6557,-120.4484,88.1411,-54.8997,28.1152,-9.9062,11.8596,17.5821,-40.8778,-87.7617,-157.6761,-81.7942,-12.3935,162.2271,121.1701,56.0647,61.2310,-62.2697,-87.0069
-169.3689,-95.4574,127.3483,-54.6312,33.5558,-44.8575,-8.8761,-1.8201,-107.7764,-14.4411,-165.1473,-58.4403,-11.0616,91.4989,64.8746,3.9410,77.0312,-116.8975,-28.8173
-192.1531,-67.3987,138.3894,-68.2436,58.8005,-57.7505,34.5272,-8.4164,-114.9310,3.1070,-170.9480,-34.9471,-45.1282,53.2728,-17.5090,22.7774,52.8944,-114.0365,-11.9697
-218.5134,-34.3893,130.8245,-47.2532,66.4253,-22.4511,60.1922,41.0830,-61.1454,42.4201,-150.3580,-22.4777,-70.7746,59.8270,-75.4430,51.8408,6.4970,-39.3246,-25.8049
-231.8217,27.2893,141.6703,28.5916,75.8838,51.9184,76.1139,146.2546,27.9032,144.9485,-119.5039,17.8581,-51.0342,92.7264,-80.8495,51.2967,-0.1695,41.8844,-32.4389
-194.3975,95.4121,193.6056,97.6004,100.4455,106.1563,133.0323,203.2491,120.9818,149.6900,-84.2991,80.5028,-16.2265,79.6025,-41.3345,40.7679,64.9849,95.4334,-38.4303
-105.4496,132.4177,280.8539,132.0977,112.5178,128.2145,180.7389,169.2155,157.3915,36.2932,-27.3255,119.3486,2.7131,44.0563,-17.7982,44.7080,153.9817,123.8584,-50.1532
-33.9452,171.9373,367.7368,170.7182,109.9739,143.7738,149.3566,123.5012,104.1436,-13.4320,45.1704,141.6038,10.1338,47.4680,-73.0379,29.7731,205.2468,127.7287,-52.1298
-24.7504,256.6027,404.3712,214.4615,111.1546,142.1364,84.6834,128.4110,37.0228,63.3396,99.6183,200.1449,17.6504,59.2020,-144.5052,5.5410,207.5432,143.9768,-44.4337
-26.8630,382.7748,398.7750,271.0836,124.2832,172.3549,76.9559,196.1871,39.1339,196.2413,120.9673,327.2699,43.2262,118.1970,-123.4507,90.0446,196.4333,246.2301,-35.8076
17.6292,540.6301,417.0251,405.1554,162.1275,328.7860,128.1575,316.9527,75.1689,322.0156,135.4616,497.7104,90.8008,302.4529,-70.3661,280.7567,221.0548,426.3350,-33.3295
91.1219,696.3538,473.4798,588.8148,213.9975,526.0369,169.6348,409.7399,88.3426,369.1518,186.3700,642.0392,125.0923,457.3448,-108.7193,372.5274,289.9717,560.8877,-50.7760
163.2249,786.9265,520.8759,687.3239,239.5362,583.8695,172.2183,399.6989,105.0116,327.2541,268.5677,718.9732,124.3336,416.6949,-181.3658,298.6414,347.1760,571.3583,-72.6315
219.2519,803.1034,528.3058,670.5562,220.6765,525.5494,157.0058,345.1421,124.6685,274.2461,303.0927,741.1342,108.8035,329.0589,-186.7516,224.9704,336.6489,520.3807,-65.5380
215.2908,795.1752,481.9500,638.7663,158.1497,480.8742,114.7277,325.2544,71.1649,226.3718,251.7306,725.8912,91.5207,336.5855,-177.6604,212.4366,281.4592,488.6002,-51.0671
160.2304,793.7982,404.8745,642.0231,78.5741,452.9696,37.6838,315.7750,-40.4668,171.5116,215.3031,697.5228,80.6282,330.1802,-192.4364,183.3192,258.8939,471.2675,-56.3097
170.0714,783.7624,384.5334,636.1116,60.0125,418.3033,-2.8193,296.5999,-84.9662,170.2033,290.0370,688.6583,101.9739,272.0279,-159.3885,160.1940,291.8964,451.1087,-37.7116
273.9442,739.6689,441.4486,594.2941,119.5741,420.9877,29.6388,313.6682,-43.5544,228.6371,394.4337,678.5925,141.3062,262.1894,-105.5376,179.2831,326.2226,457.9029,22.2120
345.8158,684.7327,480.5108,564.9202,165.7103,470.0333,47.6610,380.6556,-22.3957,286.0105,401.4841,634.9327,142.2755,283.4007,-137.6933,172.8161,346.0381,502.3617,66.7527
350.5027,666.4371,476.6608,586.6710,174.5002,534.7956,15.3326,448.3259,-50.1518,334.3037,347.7167,592.6840,110.8657,282.6770,-198.1337,136.2294,393.9303,537.9126,90.8032
375.8971,635.9705,484.1934,597.7166,205.8272,585.1568,11.7064,460.9286,-76.9783,337.8352,339.9626,565.2385,117.3068,292.7189,-160.6762,129.8943,435.6291,528.4327,134.1977
401.4380,517.6814,468.5396,541.6664,235.0833,574.2701,36.0423,410.8328,-100.6457,261.6104,369.6405,502.5421,172.6200,297.9165,-81.1404,131.7061,398.6942,497.3154,166.9787
360.4936,403.2961,400.5354,488.9523,222.8898,517.6155,23.0309,365.1302,-111.4548,233.4713,363.6897,418.5498,199.7562,268.6017,-81.6182,130.0782,343.6780,478.4904,172.7782
317.5088,400.8951,363.8834,484.6385,224.3382,495.6496,25.3856,383.1331,-55.4648,333.3838,304.2764,372.5482,149.6843,254.0731,-134.9281,165.9716,349.4498,459.7653,220.7109
309.6268,397.4491,360.5468,440.7942,252.9163,491.6972,110.0331,432.4789,49.7806,421.7546,217.4836,340.3019,81.1537,252.7396,-151.2800,191.9873,336.3950,417.7824,310.1803
254.9778,284.0416,293.5433,341.4042,267.8402,447.1440,209.5972,475.0367,135.2946,438.5054,139.3196,278.8427,76.7627,229.8407,-120.6053,165.0329,252.2545,377.5552,347.3104
162.0493,173.9270,205.0980,297.2975,301.4742,425.7122,261.6027,515.6339,197.0369,453.5359,101.9582,212.7159,123.1388,241.2164,-68.8661,166.0505,200.4793,376.1351,323.8383
125.0319,153.7834,195.0887,321.2638,357.8499,466.8376,289.5389,506.1362,237.7961,403.3297,95.8203,164.5198,151.7054,278.7612,-12.4905,193.0732,212.1634,394.3105,301.5502
133.2766,147.3552,210.0196,333.5312,356.5544,473.0974,291.7296,396.5793,217.2211,247.4571,83.3394,130.3271,145.1872,226.5905,11.1952,123.1062,211.4002,388.2939,280.0151
149.1488,116.9981,190.5071,326.8034,308.5338,415.0922,251.4700,265.6178,157.9938,122.6096,52.1781,100.2171,117.8504,110.2706,-16.6840,-5.6081,221.4666,349.7780,250.8274
192.1349,87.6655,180.5659,297.0708,273.2097,360.5199,194.2729,201.1738,131.8853,51.2182,3.6081,37.1156,71.3692,50.2876,-40.9612,-32.3804,265.0410,281.4944,245.4038
203.9963,38.6603,155.0854,199.4124,199.9203,290.3150,123.6819,164.0058,131.6441,-43.4319,-64.5772,-57.4143,28.1975,26.4064,-14.9290,31.3968,225.3678,177.0616,248.7323
102.6001,-42.5144,46.2268,73.2629,78.1072,169.7626,42.5820,110.1972,113.8773,-69.9764,-139.8663,-118.7551,12.4167,-13.3904,15.5879,56.8050,73.8037,60.4504,222.9912
-42.7547,-149.0897,-85.6777,-18.6255,16.8137,58.8206,24.5311,72.1772,103.0615,7.0286,-212.2959,-166.5653,3.9088,-39.8328,9.4085,19.8196,-56.4038,-30.7072,191.7048
-132.4936,-291.0920,-164.2724,-113.6765,26.9795,-22.1322,99.7909,54.5624,145.2038,11.3764,-269.7491,-281.4349,-11.4490,-84.0541,11.8459,-33.8273,-126.3346,-103.1379,180.0291
-178.9003,-418.8423,-220.5534,-232.9042,20.1616,-112.8989,172.2849,10.2575,218.6722,-95.0743,-279.5655,-415.5552,-17.7305,-201.0247,35.3182,-106.4639,-190.7704,-179.6981,172.9310
-199.5106,-470.9279,-268.6734,-323.5766,-0.6427,-193.5359,165.5705,-74.9942,224.1130,-177.2951,-274.7380,-482.4258,-14.5803,-325.8747,12.7877,-215.5726,-222.4504,-253.4655,172.2794
-191.4575,-500.1774,-277.5852,-384.1081,-0.7600,-247.8287,115.2325,-157.9440,86.8808,-221.3199,-346.2929,-525.3524,-9.6502,-389.0060,-44.6656,-311.6644,-207.0549,-318.6178,175.2373
-200.6848,-551.4831,-275.4505,-442.9228,-12.0444,-310.5727,74.4442,-191.6692,-97.1658,-262.8355,-440.8118,-583.6849,-23.0490,-413.2991,-51.6380,-316.3809,-209.4205,-377.4945,148.6469
-231.2863,-567.4279,-292.8376,-476.9760,-39.4000,-357.7024,48.8137,-197.1944,-155.0978,-276.1944,-408.3094,-605.0066,-94.4734,-419.9127,-30.4197,-265.0589,-228.6900,-407.7117,106.4729
-222.9123,-547.3081,-295.8838,-490.7038,-49.6183,-354.0080,16.9425,-235.5035,-118.0647,-295.0309,-302.4501,-587.5589,-179.9444,-423.1754,-58.8499,-286.4591,-237.3928,-405.9220,92.0414
-198.6370,-557.8843,-285.4160,-526.0777,-57.6409,-363.2661,-46.2252,-286.1971,-161.5940,-330.3938,-294.4203,-582.1675,-182.8965,-456.7421,-112.8009,-381.2137,-295.2639,-426.7952,75.5439
-230.1511,-582.9266,-310.9061,-556.4639,-94.9594,-427.1948,-130.6996,-288.7462,-270.7404,-302.4653,-357.1534,-588.3817,-156.7894,-499.9398,-154.4585,-426.2816,-399.5540,-494.9252,15.9661
-285.5871,-571.7180,-358.4386,-529.5554,-148.5409,-482.3941,-179.1604,-290.5937,-285.7579,-251.7564,-383.4833,-592.4417,-206.7266,-511.5575,-202.9724,-414.4200,-427.0945,-547.7249,-43.5206
-297.1239,-531.6288,-377.7605,-471.5321,-180.7088,-487.6371,-163.5422,-348.7634,-213.8925,-290.3382,-403.3448,-595.4713,-255.2898,-512.5423,-223.3150,-422.2626,-362.4221,-533.8306,-61.7408
-279.6600,-503.3271,-383.7249,-449.6721,-178.9039,-466.7990,-135.8198,-386.8383,-185.5577,-359.5299,-428.0089,-598.5610,-223.8053,-522.5118,-176.7598,-430.8436,-327.4748,-494.4644,-57.9098
-275.9531,-556.4809,-405.1871,-496.6686,-177.9164,-449.0277,-149.1080,-361.0258,-220.4195,-372.9562,-391.4555,-641.6050,-197.0916,-531.5849,-134.1626,-418.5995,-359.6484,-496.4145,-43.3303
-290.4631,-693.3265,-410.8920,-576.5983,-196.8481,-465.1646,-180.4530,-366.0419,-260.9606,-384.2422,-331.3725,-730.1276,-186.3347,-551.1749,-132.0860,-429.8600,-396.5785,-526.9401,-41.7303
-304.4334,-749.2969,-385.1783,-594.4258,-200.0564,-500.8438,-194.7701,-431.1726,-291.4678,-417.3934,-327.8180,-756.0487,-134.1028,-564.9959,-110.7554,-439.3668,-414.6836,-505.9228,-115.2952
-297.2658,-635.0740,-371.2780,-509.4145,-188.7838,-480.8873,-215.4236,-473.9731,-305.7206,-428.7579,-356.7609,-674.0635,-146.9729,-534.4611,-96.7384,-413.9250,-406.4879,-423.9806,-231.1346
-263.3806,-514.9505,-365.8501,-417.0670,-190.6160,-421.1907,-252.5363,-495.4415,-295.1856,-448.8642,-368.8760,-596.5280,-269.5419,-509.0529,-161.0954,-434.7263,-340.6318,-394.5101,-256.5831
-204.8389,-499.1814,-312.9515,-421.3642,-152.9946,-432.9705,-266.9271,-560.4916,-307.3164,-524.2880,-318.2375,-580.8804,-307.1889,-535.7252,-235.4152,-512.2792,-248.7579,-469.0721,-191.0055
-117.8878,-483.8016,-242.4735,-486.6370,-72.7837,-496.1550,-281.9072,-638.0565,-404.7701,-625.8156,-175.1434,-565.7638,-216.9951,-528.3615,-242.0568,-520.1400,-209.7236,-520.8211,-182.7920
-34.4596,-434.3119,-232.5303,-510.4670,-85.9584,-491.7960,-374.2745,-669.2554,-559.9152,-715.6115,-73.0276,-540.7455,-198.8763,-463.7113,-241.3064,-466.8645,-214.9941,-470.6463,-270.4959
-13.4050,-435.4727,-252.6600,-480.9615,-203.3260,-458.2169,-513.3528,-698.6115,-672.0365,-789.6758,-144.5121,-545.2990,-286.5644,-500.5158,-279.1856,-505.4189,-205.7461,-439.0125,-359.4665
-44.9274,-468.0957,-248.2991,-465.1628,-267.0551,-502.8573,-595.2094,-786.6271,-695.0684,-849.7900,-221.4262,-570.5005,-351.8858,-665.0278,-309.9681,-630.5082,-209.2887,-491.3205,-427.3858
-66.9522,-457.9448,-269.1998,-470.4167,-263.4102,-551.7380,-598.4953,-871.7919,-663.5630,-870.4901,-141.9345,-586.2430,-375.7271,-724.5673,-303.0038,-679.8264,-259.1785,-502.3181,-499.6430
-67.9055,-417.7928,-323.5993,-439.9615,-272.9375,-498.5825,-542.3608,-851.7888,-590.0422,-817.5223,-86.0838,-565.9288,-371.1140,-592.6340,-259.4303,-607.0091,-275.0963,-434.4288,-520.8835
-73.0279,-386.8680,-325.6470,-394.0272,-242.2360,-435.4476,-436.7988,-767.2465,-474.7274,-747.6456,-167.0458,-510.0918,-328.7906,-498.6300,-202.0134,-529.0967,-221.7358,-420.7108,-470.0005
-95.9843,-391.7312,-306.7961,-412.2591,-173.5564,-459.4704,-361.9278,-735.9622,-396.3427,-746.2527,-196.9812,-493.6031,-302.0124,-563.2662,-174.2891,-527.0088,-222.3941,-475.4187,-442.9170
-143.4145,-454.6133,-370.0095,-476.3117,-194.8637,-479.1215,-374.6698,-725.7021,-397.3188,-735.8528,-139.0486,-559.0358,-284.6964,-604.2685,-144.8840,-537.4651,-320.5312,-477.3730,-467.6011
-184.7639,-544.2432,-442.7423,-522.3560,-264.8169,-438.3825,-384.4402,-641.6518,-372.2244,-636.2748,-169.1483,-621.9549,-219.3526,-531.7543,-54.8542,-494.4885,-370.6225,-445.1467,-448.0153
-177.3052,-613.0925,-416.8188,-575.6252,-257.8854,-455.9670,-338.8912,-569.0377,-280.3853,-586.7612,-260.1099,-620.0465,-186.3733,-505.3638,15.7811,-465.3036,-318.7553,-487.1712,-373.5183
-162.7559,-658.0074,-380.7298,-648.1505,-240.9583,-565.9222,-325.2256,-612.5201,-247.0008,-650.2493,-279.4766,-597.4704,-234.7778,-568.6069,-14.7987,-504.5797,-292.6444,-562.5363,-343.9504
-196.8692,-672.4789,-418.0596,-675.0519,-265.3814,-623.4673,-343.7747,-664.7170,-274.3595,-649.5298,-283.2483,-581.9242,-235.7641,-573.3199,-50.4425,-531.6475,-333.6164,-575.8823,-369.5351
-228.7291,-659.7678,-438.8168,-667.8525,-223.1264,-581.5795,-290.2787,-633.6465,-201.1329,-560.9901,-312.0962,-570.2855,-181.9304,-518.3036,-25.7128,-517.6581,-348.6216,-560.8687,-370.2824
-212.2151,-674.0883,-396.4412,-700.0410,-129.6109,-557.6960,-187.4745,-608.0939,-49.2198,-536.0458,-257.7883,-587.1855,-202.6606,-530.9359,-16.9237,-541.0479,-324.0012,-577.0710,-332.8342
-196.7922,-725.4614,-372.9868,-752.1437,-120.0291,-594.3294,-137.5703,-610.3313,-3.9859,-515.4121,-132.4839,-624.7532,-234.5611,-580.7938,-16.5685,-568.6049,-324.1812,-605.5145,-292.8900
-208.6357,-761.2754,-399.0158,-785.4493,-181.2674,-630.2628,-147.8235,-560.0665,-72.0726,-404.1771,-124.2158,-645.7371,-170.0086,-581.7767,33.7765,-522.6116,-347.8760,-634.2739,-243.5546
-230.9290,-772.7173,-434.8716,-820.9152,-236.7356,-654.8227,-188.2709,-504.2692,-131.6021,-356.9987,-303.8910,-652.2659,-126.0995,-581.6522,45.1147,-499.0257,-355.4271,-669.1514,-179.4841
-271.2699,-757.7139,-460.7098,-824.1603,-287.8370,-672.0620,-237.5835,-528.1456,-165.6996,-443.5694,-470.1103,-632.2131,-194.2338,-603.5325,-34.1811,-572.8036,-344.1478,-663.5425,-142.5563
-290.2997,-673.4030,-454.6993,-737.9745,-305.1473,-633.0850,-232.9517,-576.0159,-175.9025,-497.6762,-381.7460,-554.8731,-273.3837,-583.1603,-76.8112,-620.5283,-327.0341,-583.4691,-156.8956
-230.4441,-543.4990,-411.0214,-614.8463,-249.2162,-535.5198,-149.2253,-580.4471,-104.7082,-469.1609,-133.2862,-465.0588,-281.5441,-535.2822,-43.2902,-570.8582,-311.5181,-478.5932,-187.4294
-167.2573,-446.3106,-383.7422,-527.3431,-180.6576,-448.7763,-58.6781,-551.4562,10.3635,-446.8762,-58.8759,-418.2714,-221.3618,-493.7788,-42.2361,-494.1883,-305.7163,-408.3475,-193.1494
-190.8583,-394.7189,-400.4493,-486.8026,-164.9932,-411.8105,-34.8453,-506.4973,41.6428,-440.4685,-184.5600,-383.3048,-134.7469,-398.0467,-70.4863,-401.4554,-313.4486,-389.3793,-182.5899
-230.0167,-368.3482,-418.0331,-507.0627,-193.7678,-415.6066,-88.2184,-483.1212,-31.8401,-441.6703,-222.9800,-327.5256,-113.6332,-255.5383,-36.5669,-287.0723,-324.1352,-415.3078,-187.6199
-216.7568,-346.9235,-411.3361,-551.3428,-243.0914,-431.9814,-166.9445,-496.4729,-101.1383,-446.2987,-144.0395,-269.4647,-174.7683,-189.8396,32.5679,-238.1794,-312.6424,-438.6256,-197.0231
-205.8069,-278.4696,-390.4756,-516.8091,-292.2523,-417.8327,-206.0011,-472.9822,-95.6841,-395.2978,-150.2140,-224.4910,-229.3327,-228.0912,47.4527,-282.6492,-277.1087,-399.3756,-182.2504
-204.7020,-171.8172,-349.7854,-415.8924,-324.5421,-368.7913,-233.0958,-402.5062,-81.6796,-313.8019,-207.8527,-205.5300,-253.8961,-268.4727,-6.0387,-332.8516,-253.8445,-318.0215,-178.8893
-158.9500,-114.0448,-287.5825,-355.8000,-322.5507,-321.1106,-293.4525,-368.9960,-145.6285,-281.9371,-184.7836,-207.2599,-255.9432,-236.4854,-80.1011,-318.8366,-240.2236,-253.0660,-225.5961
-101.4343,-104.0955,-226.3879,-329.1555,-246.8679,-262.4496,-291.6282,-335.7791,-219.0894,-237.2953,-141.3915,-181.7503,-202.1331,-144.6755,-118.8563,-234.6658,-192.3188,-196.3773,-256.4567
-85.6303,-76.2823,-184.6676,-274.8169,-125.1278,-169.4344,-175.1257,-231.3138,-180.9284,-133.6627,-122.7394,-127.9436,-155.9346,-79.8580,-105.5453,-158.6560,-137.6617,-131.3666,-203.4805
-75.7545,-45.7367,-159.6910,-219.9287,-70.0497,-99.1125,-98.5335,-159.9634,-99.0257,-88.3676,-87.5726,-93.2241,-178.5923,-105.3539,-77.0493,-194.3549,-116.2673,-91.2034,-121.4591
-22.0827,-21.9596,-119.9521,-180.6634,-84.3500,-87.6308,-125.4219,-181.7945,-107.9414,-123.0296,-69.5884,-55.2783,-168.6751,-131.1978,-69.6199,-261.8698,-54.8054,-70.7821,-68.1205
75.5232,44.4256,-42.7700,-118.2327,-77.7194,-73.8580,-125.5927,-170.7202,-143.4719,-122.1038,-46.6392,15.0154,-130.1123,-55.0422,-99.2876,-200.3589,69.9446,-34.5811,-13.5144
169.9736,123.5435,20.5736,-43.3775,-82.1310,-41.2899,-104.7834,-108.7217,-95.5817,-93.1963,51.4728,68.1549,-203.1359,30.6608,-158.7274,-98.4573,121.1587,-16.4221,32.0086
185.6484,153.5283,15.4698,8.7782,-130.3526,-51.8555,-155.4464,-109.9839,-38.6012,-99.6133,93.7752,101.0973,-274.8479,15.1119,-182.7068,-118.0042,67.5806,-38.7231,6.0273
130.3115,177.5358,-5.2881,44.3525,-109.9333,-84.1080,-190.1709,-147.1377,-72.0983,-102.6591,-5.1089,157.7724,-166.5107,-26.7942,-135.7605,-160.8239,49.9090,-26.6960,-67.9826
112.9794,233.0502,15.7290,69.3706,-19.7965,-45.0630,-172.1405,-148.5032,-175.2492,-105.3985,-25.4842,190.0373,-38.9054,-13.7626,-96.6983,-121.9806,74.1420,46.8583,-134.5972
145.9611,265.0558,18.5990,72.0421,-12.9781,48.9496,-233.7366,-168.4588,-305.2028,-166.9000,108.7592,164.7457,-32.2102,3.6454,-94.9363,-107.9243,22.5346,90.5756,-211.0329
122.0297,238.1213,-47.3532,29.0118,-75.4882,76.9173,-316.2920,-209.1472,-399.5548,-224.8201,162.3994,159.8109,-8.4458,-13.6857,-47.3776,-134.5781,-70.3122,49.6176,-282.6920
30.7304,167.8950,-121.6474,-79.2242,-91.4965,-5.8230,-251.0553,-182.2568,-368.9839,-175.6866,96.5789,181.0635,26.6229,-31.5774,12.4031,-87.5012,-115.8854,-32.9048,-277.0348
-50.7653,85.6154,-164.3336,-190.5308,-114.6804,-104.1754,-158.5414,-103.9449,-248.3099,-53.8322,67.7611,153.6813,-64.6523,-19.5422,-34.8350,-21.7011,-165.5713,-100.5493,-220.4233
-123.4151,47.4401,-216.1646,-217.9038,-210.0111,-124.8709,-197.1512,-54.3815,-151.1234,21.9150,30.7273,116.1183,-168.8134,14.2840,-112.4026,-42.5838,-251.0682,-122.0440,-201.8745
-203.3891,59.0837,-277.7683,-212.1785,-291.4836,-109.8031,-234.7336,-50.3666,-75.3542,-6.7948,-69.2224,137.5309,-159.5822,18.8914,-81.9585,-61.8206,-290.2947,-115.2196,-204.5571
-239.1265,56.4971,-296.1071,-250.5942,-300.0469,-137.0489,-173.6828,-74.4855,8.7564,-61.5029,-104.4081,176.2113,-134.2597,-15.6729,-25.4850,10.2049,-265.7671,-129.4357,-177.3864
-222.9818,53.0760,-280.4338,-263.3142,-263.2982,-158.9405,-117.5238,-70.9533,46.0608,-12.3807,-72.3615,198.5256,-114.2137,14.2785,-47.0876,102.9564,-256.3513,-141.3764,-155.7584
-215.2019,112.0311,-296.6356,-208.3555,-209.8882,-106.3556,-84.0873,12.4656,49.4916,116.4597,-79.8037,225.4960,-51.2722,134.0829,-64.9147,139.8512,-289.9859,-101.1181,-159.8650
-228.0942,182.2522,-344.4928,-178.8121,-186.4254,-53.8933,-23.5544,102.4228,102.6419,196.4065,-68.4368,248.9219,-49.0167,182.0909,-31.9508,121.9671,-310.6718,-69.6393,-134.3118
-224.4797,193.5969,-346.0937,-187.3280,-203.8738,-77.4582,9.1190,126.1443,167.0425,235.0642,3.4141,266.8599,-135.6977,103.3078,-41.5081,89.7137,-264.1713,-94.8921,-65.1165
-192.8981,189.3510,-278.6202,-157.3990,-198.1886,-96.5791,-7.9811,156.7917,155.0326,285.2909,28.6775,280.9970,-178.8262,45.6282,-119.4618,87.0683,-182.1099,-79.9183,-14.0498
-148.9209,208.6589,-214.3794,-105.3518,-167.8071,-29.4873,-18.2458,220.9931,106.5890,273.6268,6.5480,258.2531,-160.5970,52.8299,-172.4939,96.6085,-146.3108,28.1469,-18.9171
-103.5811,243.5968,-174.4872,-42.1333,-134.8345,93.7957,-3.0488,253.1043,104.7352,223.7610,16.9666,252.4937,-106.1837,71.2133,-128.4551,106.6343,-135.7514,163.9376,-37.0504
-47.1812,336.2686,-81.5827,113.2450,-5.6110,255.0887,78.2784,326.4261,157.8294,329.4415,29.6597,371.2752,40.0787,183.3790,-10.9004,214.2503,-58.0137,329.7093,5.6296
26.1611,514.9349,57.1062,343.0151,214.6853,451.5311,235.8095,513.9609,219.7561,563.4973,48.1594,574.2788,176.8980,410.5701,66.7898,420.6744,42.5699,533.2362,100.8465
74.3610,724.9176,109.2081,521.2417,301.8766,589.7881,296.6368,630.6450,224.4321,638.1321,132.0604,833.0090,140.7520,548.3472,24.1863,518.6461,58.7901,641.6180,135.8991
65.7213,923.7996,52.8081,611.7425,195.3263,595.6310,171.6134,533.0712,162.0965,486.2254,192.0762,1281.0725,51.0762,512.5045,-45.9704,450.3859,43.2637,596.8901,63.8842
56.7654,1085.7302,22.7714,644.5689,115.6571,539.3843,69.5582,386.1362,106.4854,347.2051,142.7898,1811.9685,78.3913,456.6630,-22.0840,415.6224,80.3217,528.6546,-12.6514
97.4916,1145.2518,62.7822,620.9982,140.6544,500.2460,102.6257,340.5636,79.6055,345.0749,108.7595,2003.8331,131.3170,433.2794,36.4506,459.7596,112.3030,493.6384,-23.9367
141.5389,1094.5834,82.0677,566.4211,114.7461,452.8958,100.4659,332.9805,49.8533,363.1244,185.5412,1788.8793,113.6514,367.2013,38.0719,426.0278,100.4718,435.2237,-17.7504
146.6786,1017.9032,59.5503,515.3598,7.0546,376.0217,15.4506,309.4779,68.3750,320.2296,284.5283,1565.0181,98.9065,294.9846,43.3582,322.8202,96.2214,376.6235,-13.4029
134.9704,954.7628,52.1936,459.9801,-54.4803,315.5354,-18.0168,282.4370,142.0007,266.3600,329.3527,1491.9264,122.5646,282.8423,97.1459,276.7755,87.7617,353.5014,3.5320
121.4397,875.8359,56.8644,412.8481,-54.1512,294.1808,-32.9319,230.1829,121.2621,220.7461,317.4467,1375.3549,132.3580,289.7083,100.6905,268.3679,47.6556,324.3304,-17.3233
115.7467,778.2659,50.0611,397.9330,-80.0127,278.1071,-129.5113,168.6167,-9.5590,153.4798,250.9430,1194.4636,103.9997,287.0515,6.3691,247.4264,41.3010,294.7834,-81.9722
141.0296,689.1610,57.3362,379.4076,-117.1846,246.1451,-192.6573,148.8423,-48.1600,100.3334,182.5821,1094.8354,57.2651,292.3390,-74.8894,249.7282,86.1277,292.2715,-86.2739
166.3052,624.8671,70.9986,330.7722,-81.5387,213.4277,-110.7230,138.4261,37.8087,96.7050,173.2906,1036.2390,40.5760,277.5640,-63.1163,249.4816,98.5138,262.4875,-6.7183
141.9479,581.0778,43.0771,284.7766,-7.8821,190.6507,-13.2060,108.9228,68.5154,86.6089,187.4097,906.0986,70.5719,225.8518,-33.1485,196.2649,63.6634,196.2556,58.3320
102.8508,524.0162,-3.1524,253.7618,-2.2237,176.1881,-23.1552,134.5631,25.9892,69.7445,170.4472,743.2465,86.2954,182.7769,-69.8118,169.0197,44.3534,173.3571,86.9744
96.0974,434.4146,-5.9593,225.4435,-37.2337,178.4522,-54.4558,237.7293,28.9762,140.6110,133.0028,622.5160,68.7029,173.7029,-125.9325,226.0599,55.5225,197.8562,132.5224
93.6206,360.7591,24.0206,211.3771,-0.9971,197.6438,-15.7496,314.5643,50.6529,258.2677,108.0608,552.2269,74.9274,189.3052,-118.6871,263.2634,82.2298,212.2027,172.0116
83.1945,352.8351,56.2522,219.4384,100.8598,211.1246,39.6694,310.4930,15.2753,284.2554,130.4724,526.3358,106.4194,225.1618,-69.3850,223.6686,124.0023,222.5085,165.8856
107.1999,384.6711,114.6627,256.2903,195.3867,225.9587,70.9708,297.8999,-15.7312,264.9699,198.1043,515.0779,147.7763,256.3441,-33.8550,220.0473,173.7880,260.2408,158.9664
165.3924,408.1051,203.4654,338.5769,278.1466,283.6361,126.9149,335.9572,26.1070,312.5842,235.5648,480.4361,227.6760,257.9096,-4.1684,305.9516,236.1257,326.3397,185.0380
209.9922,417.8085,271.6777,428.0840,336.4939,360.5905,188.9199,379.7286,83.8064,347.5583,223.2452,455.4211,277.8281,260.5514,17.0957,365.3803,310.1230,382.5009,199.0439
217.3263,419.1068,292.3126,452.6516,317.7166,369.0692,173.2311,369.6484,88.6832,294.8091,244.9948,470.5967,201.7432,299.1962,2.7003,332.7481,334.1132,357.6086,170.2157
187.2516,387.9666,268.1471,403.1676,246.1311,301.0733,133.3379,335.8744,91.9115,254.3849,294.1178,453.7378,115.2295,351.4401,12.5951,299.1101,265.9349,275.9767,136.2643
138.5096,311.4752,199.2513,314.4668,188.2589,240.3659,185.5909,343.0652,175.1361,275.7485,272.1997,361.7946,179.6891,375.3630,110.5067,325.5794,177.2747,249.3747,135.0533
111.0677,240.9952,135.5103,233.1055,147.4444,215.9870,249.8923,383.7948,254.3710,306.3581,209.6953,284.9277,307.0552,350.9791,194.5598,352.8618,150.2875,211.2045,143.5245
99.4808,230.4051,144.7993,227.9406,113.8016,178.5257,178.1842,416.9598,167.8218,357.6891,196.3849,277.6356,316.8027,291.4980,144.9165,345.5298,161.7633,3.7733,116.0022
48.1742,234.3553,180.8947,286.2413,96.4637,102.6939,47.5397,428.8480,-6.5074,402.7605,190.7552,260.8750,215.4090,243.6830,43.4186,342.4735,150.5170,-253.7139,65.5016
-36.7932,176.4201,149.5922,284.2846,89.1066,-2.5755,21.2225,382.7145,-32.3715,314.7744,160.6389,188.8191,164.7394,233.9093,40.5656,346.9932,111.4223,-393.6628,46.8100
-82.1907,84.0959,85.1860,193.5898,103.4732,-145.5058,87.5837,260.0193,82.7353,128.0409,193.5326,119.6088,270.0242,233.4971,142.1913,324.7125,77.5708,-590.9297,57.1003
-71.1552,25.8342,74.6904,122.6627,145.6248,-328.0903,157.5917,161.2673,150.4782,35.6348,280.7896,80.5276,416.4619,216.1116,251.9297,279.9620,69.1922,-965.0020,47.9724
-49.5968,-5.9598,100.7279,101.9914,158.5384,-499.8484,198.2087,159.8407,148.1473,56.2826,282.8987,42.8909,395.9760,185.8030,286.7708,225.3177,87.4637,-1219.5220,21.6727
-23.9195,-30.0513,125.9979,83.3268,127.7385,-580.0264,178.0333,159.2722,136.7531,57.3100,203.7564,11.8787,248.6705,145.8168,227.9506,163.2339,129.6452,-1146.7136,4.8985
29.2579,-16.5078,180.2983,98.0611,123.6715,-535.2169,97.6535,103.1104,87.1856,38.5844,194.8886,9.6765,209.0095,115.3426,152.0520,138.7405,182.1277,-949.6178,-17.9373
87.2666,36.1609,256.4959,173.2601,152.2765,-427.8596,32.5152,86.5011,24.0213,67.9476,275.1197,30.1006,293.2408,128.7282,149.3560,178.0766,222.5699,-822.3387,-48.7886
116.6287,84.4284,294.3288,228.7671,159.4652,-350.8703,8.9693,105.8181,17.7382,82.7404,323.6809,56.1551,318.3818,165.2566,185.9270,206.4403,253.4483,-740.9131,-46.6479
131.9459,103.6133,288.7797,223.9970,151.1541,-317.1098,-17.4033,44.2512,15.9335,23.3107,310.9096,54.7221,256.6553,173.9462,166.0543,171.0744,281.7604,-665.3240,-14.4210
148.9992,95.8029,270.1245,227.5208,137.3360,-269.4881,-34.1582,-43.7946,-20.8309,-11.4137,304.5844,9.4761,216.0557,170.3085,104.3333,145.1366,271.5233,-566.9994,-5.0610
151.2065,81.3212,242.1109,260.5652,98.6055,-188.8581,-9.5982,-21.5809,-12.3303,44.3245,302.9525,-12.5468,214.9025,183.0961,91.4927,175.9040,212.8582,-434.2884,-21.6358
137.4308,83.6149,217.4734,243.6341,56.0239,-137.0293,9.4259,34.7271,47.7365,68.8168,242.9588,34.0399,194.8309,162.0781,128.8951,179.8638,174.8470,-380.7357,-12.3141
115.7542,74.8135,198.2835,130.5104,11.7697,-190.1390,-8.0581,-20.5876,94.6639,-30.1382,135.5157,54.4994,123.4147,75.6764,134.1328,101.3215,168.9518,-481.1484,40.0537
64.2219,5.2451,135.3190,-24.8325,-62.7434,-330.7184,-11.7248,-144.3276,142.5641,-162.4833,68.6392,-21.7880,38.5339,-0.4678,91.3611,14.2985,104.1910,-591.0896,85.8982
-7.7686,-99.6018,30.3842,-145.5963,-110.1250,-427.2967,12.9861,-229.8864,166.9451,-248.1177,86.8813,-104.8917,26.9157,-16.4287,73.9543,-17.3759,-15.5954,-569.8990,61.1457
-38.2804,-170.5867,-25.4294,-202.2494,-90.3497,-390.0198,2.4930,-259.1582,87.2738,-291.4740,124.1834,-129.8297,85.0679,-34.4709,102.2646,-28.9314,-70.5070,-472.5717,-32.5656
-34.2547,-188.9896,-7.4215,-195.2575,-95.2952,-296.2442,-66.4568,-223.1169,-18.6405,-226.0200,73.9411,-158.4943,100.8785,-76.1772,101.7327,-40.4381,-50.5991,-386.4348,-107.2859
-68.2250,-173.3131,6.9272,-138.2437,-137.1942,-249.1223,-119.4402,-115.7039,-28.3652,-21.8868,-67.0050,-204.5190,49.4613,-54.1925,44.6280,-4.8471,-51.6126,-309.3474,-90.8807
-119.2842,-139.4816,-12.3781,-84.3264,-113.3166,-220.1237,-90.7025,-11.3914,-13.9394,119.7284,-171.1375,-199.1569,3.6857,40.8330,-2.9726,69.6537,-79.1027,-231.9591,-27.2278
-114.2284,-105.1894,-26.6677,-82.5377,-70.1625,-162.4262,-35.9010,7.9915,-56.3974,34.4312,-146.3762,-147.3762,-29.8507,87.8617,-9.5316,102.9358,-83.4433,-174.0777,-9.2883
-92.2340,-86.0827,-27.0290,-93.7857,-110.7012,-117.1355,-47.0635,-39.5489,-72.0292,-116.5183,-52.2919,-119.7369,-65.0446,60.7647,-5.6663,94.2809,-82.0534,-135.2294,-41.4916
-115.0661,-92.4547,-26.7375,-57.3897,-144.2968,-96.5902,-74.5046,-63.2170,-2.4521,-108.0005,9.4882,-129.0220,-54.3657,68.7248,8.3214,115.3118,-89.0389,-83.9325,-44.2885
-123.0403,-115.4922,-17.1027,-6.4166,-84.1194,-49.6289,1.0341,2.9831,102.0113,43.8745,13.9098,-132.1926,6.4434,118.7258,41.0318,154.4101,-66.7311,-11.0418,21.5445
-72.3878,-110.8571,2.3105,3.7492,-28.0123,12.6444,133.0711,128.1017,188.5414,201.8504,-21.7731,-105.2522,47.0421,125.3348,51.9595,170.9095,-20.0955,43.0003,111.5433
-43.7936,-62.0317,14.3119,3.2430,-37.7022,47.6869,172.5491,237.8050,216.3888,305.7668,-64.2958,-69.9371,16.0709,150.0190,21.7355,224.1857,0.0572,77.7977,181.3135
-68.8400,-13.5392,20.7225,47.3463,-47.1040,103.6662,132.8687,338.3131,198.8129,386.0616,-49.7013,-52.8353,-62.0962,292.4204,0.7831,335.2163,-3.4286,174.5033,237.3959
-50.7096,30.2146,44.4936,138.6366,-14.9827,231.4324,144.9852,455.2841,220.7478,466.1373,33.8810,-28.4135,-71.5107,427.6065,41.9618,393.4196,22.5641,335.3552,282.1752
49.4466,107.6773,99.1997,241.2441,44.7642,359.6304,207.1885,499.3547,260.8248,470.9519,89.3291,37.5926,51.1131,405.5949,137.3373,373.8320,89.9489,435.1906,287.3727
138.1791,178.8810,163.8661,305.7156,86.6584,402.5052,198.7919,401.4614,187.4044,342.0873,46.8894,106.3821,145.6973,337.0862,202.6443,380.6000,146.8301,440.9254,248.2991
154.9535,193.9208,197.0396,320.0562,55.1730,389.7076,79.8930,264.5530,8.8265,201.7731,-11.7659,130.6513,78.2855,362.8849,155.8652,399.9769,154.4776,455.4742,186.8131
157.1864,211.8012,196.4708,343.8386,-8.9363,390.6960,-66.4339,185.9420,-142.4169,171.1688,31.1523,134.7935,7.7229,398.8836,64.0444,335.8110,142.1941,507.0721,108.0809
201.8263,266.8313,204.3251,405.8163,-14.9327,412.1514,-141.8288,135.1892,-212.3131,183.1955,154.4984,137.5523,52.6331,352.0337,63.8782,244.0208,147.1783,544.1911,30.3785
259.8216,291.7052,231.5133,439.4130,21.2331,431.8639,-122.0705,113.5641,-193.1527,191.2781,244.7425,119.1515,66.9046,293.1004,113.1470,225.7187,155.7967,572.7528,2.2992
287.4459,277.5674,246.5299,413.1101,55.0229,440.9212,-66.9362,155.0677,-87.7772,243.8021,267.8428,101.1731,20.5623,281.0033,81.2049,246.9624,155.1220,593.7413,26.6220
289.7983,279.1462,241.5873,392.4832,100.8069,417.7509,-51.3073,183.5499,1.6320,271.2312,269.4876,109.2137,64.6501,285.2323,26.5476,262.6846,162.1611,564.8854,50.8349
283.7513,279.7391,238.2164,408.4425,122.0625,352.8664,-91.2292,141.4229,-18.6110,202.0865,256.5117,104.4957,152.6083,293.6373,65.5537,284.1209,173.7968,524.9882,55.5677
282.4344,257.9793,249.2823,413.8580,77.7530,308.7358,-149.4431,112.9809,-92.9522,154.6384,229.4985,78.9102,152.4661,304.6492,129.8940,284.4594,178.0903,545.5937,54.6233
310.4170,255.2134,272.2428,388.1335,42.9609,345.9636,-182.7989,128.5057,-130.1880,173.0527,245.7788,90.5488,138.8991,293.7292,135.6071,261.4427,186.1422,577.4408,34.9183
347.1275,261.1753,280.4157,355.2349,57.3761,405.0366,-172.6919,93.9896,-107.3094,118.6279,293.5651,132.5064,164.2531,268.1581,130.3363,260.8720,180.5225,546.3593,-12.3001
322.4267,223.3106,242.8719,320.7539,46.8199,390.9157,-142.0060,-1.2796,-54.7051,-7.7361,268.8975,133.2541,135.4170,244.0424,121.4000,230.7158,129.6495,495.0461,-60.3325
246.3556,170.7855,188.2719,282.8911,8.3020,332.0790,-128.4068,-62.4943,-51.7259,-57.7342,194.0037,94.6484,80.8514,206.9247,75.9122,124.5249,76.3431,487.3795,-92.3183
205.4199,157.3643,168.1394,267.2125,12.2062,321.9294,-115.9668,-41.5571,-103.4554,-0.1879,197.2879,71.7305,98.9011,177.4358,69.3687,78.5062,74.2078,514.5633,-102.5181
197.0718,163.7793,163.1379,291.9314,52.9846,374.6502,-46.5338,57.3175,-67.2642,118.9049,248.8352,62.1972,129.5505,194.4546,138.2197,164.4316,87.5076,557.0220,-71.3895
157.0476,154.0133,145.3454,327.1209,91.1337,439.6501,65.5784,190.4812,77.5690,243.7217,230.6265,38.8151,99.4139,218.2106,162.1404,219.3281,84.7031,598.8884,-11.2806
109.7079,130.4626,158.2769,328.9955,109.2784,462.5399,114.0864,247.5251,130.8047,257.3124,175.9440,24.6253,58.8365,195.2005,94.4686,167.4097,106.5088,589.1330,25.2948
104.7457,118.1906,207.7347,301.1006,93.9351,406.2043,64.2635,185.6178,49.3217,159.9041,159.9695,48.6752,65.8489,156.1565,49.9080,123.8187,155.1593,512.9227,26.8955
124.1228,139.8543,212.6670,281.8484,90.6887,317.7583,31.8988,122.7832,26.9799,130.7674,157.6181,83.3817,139.7720,142.3146,87.1435,109.4305,176.0030,454.9175,32.5236
165.0665,179.7027,161.4142,284.0648,144.9533,304.3323,91.0355,149.8134,97.3351,209.7252,160.5829,90.9435,229.3418,149.6244,145.7188,87.9236,168.1228,479.2090,51.6756
233.4864,201.3468,136.0645,288.3767,170.7432,352.8597,134.8870,190.9481,109.0636,240.8738,182.0009,86.5064,195.6123,168.5178,162.8231,126.5993,164.1231,513.5031,54.5138
258.0211,205.9880,146.1979,274.1649,100.8282,338.6320,74.5816,153.5939,59.9934,169.9162,176.9648,92.8804,43.5100,167.7561,117.3972,185.3942,151.8004,472.2992,33.4524
208.4100,200.0978,136.4138,237.0838,37.9666,264.9440,14.0951,79.8223,66.5158,84.4857,152.9363,82.1462,-23.0781,121.4760,52.3298,120.8769,128.6208,413.2579,21.2412
177.5120,168.0036,127.6655,208.4358,61.8448,262.4972,61.0441,74.3657,132.5253,53.6647,154.3990,32.9943,39.1099,102.0097,46.8386,34.3196,137.2101,429.6619,49.9580
203.8735,136.4258,166.2922,226.2085,114.2580,339.3720,147.7971,141.6446,187.4772,78.9065,115.6323,-11.0083,76.5619,172.7677,93.3177,107.0676,180.4203,483.5110,103.5279
219.5185,142.8257,209.4910,254.3775,150.2146,376.5017,186.6047,174.6906,201.5341,93.6193,23.5094,-5.0440,85.7029,232.5432,117.6024,207.2631,201.9233,490.9331,132.2874
204.2833,148.6952,196.4781,220.9257,169.7460,343.8954,202.7914,143.4180,187.1697,73.6301,14.4215,31.1594,135.8485,187.5644,110.2984,177.9579,169.9769,459.0309,133.1776
165.9099,118.5251,135.9687,145.9732,158.4246,312.4745,225.0918,167.9458,189.5604,137.4522,60.0299,43.8598,122.5787,140.1194,92.5737,164.9069,100.6278,427.3990,159.1962
65.8423,87.7119,60.7260,105.7539,137.3937,310.8673,241.7315,302.8934,240.1902,326.3354,-12.8462,7.2384,9.2877,191.9370,63.8599,258.6177,19.7788,404.7455,222.0211
-53.4925,71.1759,0.7335,106.4180,146.9525,320.7430,277.3862,438.1684,301.6484,480.3163,-109.5291,-39.3099,-17.0263,267.1319,66.7620,311.7487,-34.9037,405.4086,269.5286
-67.8180,49.8282,-3.8251,112.1420,171.6825,335.8419,338.5641,500.6357,320.9021,520.5172,-30.1920,-38.8700,102.3870,283.2485,123.5138,294.7228,-24.8854,419.4058,274.4990
5.3783,34.8429,37.7175,112.2233,177.2227,333.8491,343.3756,512.7203,286.6311,507.5722,101.3517,-21.3005,186.3101,264.0194,147.9812,301.2966,23.2923,388.2878,249.9185
24.9358,30.1218,51.5234,97.0022,145.9758,280.1314,250.1926,458.5706,217.2207,426.1216,102.9589,-51.3082,151.6016,224.3748,102.5849,271.3749,35.3211,313.2136,194.9895
-29.8206,20.5500,15.8608,67.5223,80.3492,204.5138,151.4215,346.8117,157.7091,297.2948,72.0389,-87.9827,96.7142,160.7868,72.8606,159.2302,5.3992,269.6844,120.8204
-61.9323,12.3930,-9.1586,48.1277,33.0512,167.5168,131.3680,281.6064,136.9893,258.5448,86.7360,-77.3377,78.0727,123.2153,78.5269,107.0166,-6.9659,258.0050,74.9456
-42.8920,-7.6441,-3.4724,27.8477,36.2524,141.6902,151.3686,279.1468,112.3785,280.8660,47.2339,-81.0912,71.1723,137.0348,59.6623,164.8752,3.6115,202.8982,67.3163
-22.9074,-44.4079,-8.5471,-12.2222,35.6109,64.6969,145.3766,233.7363,53.7059,216.9299,-34.6758,-113.3391,60.9539,151.5877,35.9030,198.7171,4.6505,115.9920,52.7451
-23.3151,-22.8202,-23.9963,-27.1077,8.4551,-7.2036,108.5906,136.6430,14.0471,113.0038,-43.4938,-77.8141,34.3187,140.2458,36.9854,158.6512,17.1150,92.2539,16.5978
-17.1204,59.9086,-10.7675,10.3609,-7.0638,29.8768,51.5587,73.1276,16.0000,55.6444,3.8010,-20.0516,-10.9903,119.7004,9.2638,101.2722,53.4940,157.0241,-16.9645
16.6124,62.4403,30.3353,51.7459,-26.8148,143.8366,-19.6429,63.1576,3.2960,1.6297,42.8117,-95.0244,-32.8016,88.6667,-48.3208,45.0650,66.4538,246.3187,-46.1735
56.6205,-28.5837,75.9166,75.0684,-48.5887,227.6518,-55.5975,103.7776,-30.0982,2.2951,81.4254,-231.3007,-11.8183,71.2783,-58.6302,31.3180,55.8001,306.2731,-68.2871
67.4462,-60.0985,113.8017,89.0123,7.7052,259.5161,0.7618,197.5122,-17.8359,134.0837,101.1540,-232.1703,13.8991,117.5753,-22.5891,114.6239,70.3731,320.9856,-47.1912
56.0905,-29.4023,127.4347,60.5503,122.3973,260.0957,126.0109,259.5823,61.4854,241.8981,68.8790,-144.2579,41.7724,182.5655,0.6134,210.7083,93.7623,290.4254,22.8700
59.9247,-52.0786,126.0146,3.3414,192.0881,227.2222,242.3646,218.7434,160.0016,200.1256,27.1798,-147.8361,103.8711,168.7658,15.3962,190.5492,103.4224,251.2680,93.1726
89.6347,-94.5314,154.1663,9.1300,232.5431,198.5086,303.3149,157.1875,221.4490,134.1935,19.4204,-235.9707,156.5006,97.4680,49.9707,79.5374,144.5213,264.0279,131.7296
133.3718,-87.2692,207.8541,82.7221,283.0281,221.0954,300.7097,152.1964,217.2699,113.9013,36.6921,-287.2667,139.8397,47.7367,85.8746,-19.9104,205.3203,324.7371,139.2135
182.9919,-75.4148,236.7952,134.8485,279.6715,257.9084,244.3089,139.5143,158.7934,60.7664,77.6287,-280.5701,106.7544,2.0250,84.4393,-73.8254,208.9425,358.2549,112.5155
215.5061,-66.6400,242.5246,142.1369,214.3884,258.5070,163.4892,73.9052,70.8731,-9.4122,129.7175,-271.2184,112.3981,-61.7654,29.5471,-81.3079,177.2242,330.7263,71.4103
197.4078,-36.1564,243.1541,123.3123,151.3410,234.3104,86.8732,23.8846,-31.8341,-43.7488,138.0097,-284.2741,95.9819,-77.5956,-40.2404,-41.7048,174.9548,273.7512,70.4940
133.8432,-54.0741,204.3844,58.9231,89.2010,188.6396,42.0479,30.9143,-94.3425,-78.4031,85.6678,-301.9539,31.3046,-39.6767,-58.1352,4.1534,163.5746,203.7913,122.7102
71.5201,-129.8924,130.9266,-24.2252,42.1763,117.1416,71.0479,50.5895,-27.9829,-94.7140,27.3047,-309.1019,-3.4503,-47.5857,-25.7251,1.5493,106.5318,136.1600,172.7151
41.3097,-152.7195,93.3694,-48.1439,53.9417,71.0229,156.3049,59.3796,144.3105,-22.3358,3.0838,-318.3801,-1.2292,-122.5368,-3.6709,-49.7729,55.6636,120.4194,180.4251
30.7913,-132.1833,95.3718,-22.0631,51.4184,77.6199,189.9512,89.1286,259.4254,93.2894,-10.9902,-331.0876,-26.6103,-181.3975,-2.4716,-94.3393,33.8210,147.1829,168.6020
22.0429,-170.4254,81.9449,-30.5206,-17.7413,80.8198,135.6997,139.5557,225.6146,156.5379,-53.0363,-327.7260,-49.3924,-195.6969,5.1732,-83.7794,14.3279,132.9413,170.7189
16.7698,-225.5263,53.4414,-94.9703,-43.9703,46.8073,93.8520,153.1874,142.6444,148.3035,-114.2107,-328.6790,-13.8263,-198.2564,14.2750,-36.1106,-8.0956,67.6843,179.5360
1.3208,-222.9046,19.9498,-156.5593,1.9210,6.9325,108.8266,110.0306,119.7038,85.2671,-151.3249,-370.6738,34.2638,-189.8203,21.3743,-7.1220,-42.8866,22.7894,163.9033
-51.0624,-224.8386,-35.5735,-164.2695,10.1861,-14.3485,105.6219,61.1953,107.4976,-2.4357,-148.3600,-455.6623,47.3384,-161.3742,38.5887,-6.3282,-84.4816,14.2863,119.2398
-105.0379,-279.6678,-69.4355,-132.3434,-4.5924,-9.8635,64.3590,37.1930,33.0081,-48.7448,-123.3684,-628.8879,43.2124,-125.5885,51.0164,-1.4165,-83.8360,17.6482,79.5075
-92.1643,-345.5864,-37.7283,-116.4169,32.9905,17.6909,45.2241,28.0848,-34.9747,-6.5103,-93.3524,-943.1127,37.1118,-87.2269,48.7959,14.8944,-67.9988,38.6254,71.1633
-50.9488,-406.7267,-14.9216,-134.7412,50.6662,34.5207,55.1928,46.3117,-13.3391,85.3648,-79.1127,-1250.0688,40.6296,-61.0549,47.6328,30.2233,-119.7102,56.9505,79.4088
-84.2661,-444.1671,-55.8230,-146.1137,-4.4338,27.0306,61.1297,82.2900,36.2352,123.2066,-95.2565,-1304.8584,53.8520,-75.3468,36.1844,41.2033,-178.3413,42.3023,71.6652
-165.5926,-401.1599,-79.1468,-115.8394,-39.7077,33.1699,64.2003,75.0590,31.7147,69.2975,-111.8223,-1120.1481,33.4744,-102.2068,5.7808,42.4636,-138.7188,47.6169,36.7473
-179.3309,-305.8754,-40.1547,-56.8660,-12.2299,59.0473,68.8461,34.6135,4.1737,23.4709,-96.0590,-915.6694,-9.3995,-83.2455,-2.5192,39.4619,-78.7574,106.7705,1.6267
-123.0383,-245.6829,-9.4999,-20.2381,4.1999,55.4718,59.3979,28.0473,-9.8868,35.2494,-64.2849,-793.8921,-5.4258,-42.8824,11.5346,46.7869,-90.2644,117.0150,6.7094
-73.0418,-226.9154,-10.6618,-57.3987,-46.3966,-0.5474,21.5121,14.8019,-33.8652,-16.0259,-33.3947,-734.6301,2.2352,-55.0258,-21.4861,39.5921,-89.0878,9.6066,47.6018
-33.2109,-230.7122,6.8998,-139.4613,-138.3310,-83.0035,-38.5179,-69.2648,-50.0541,-160.0870,-4.4377,-722.9375,-64.9830,-112.9811,-101.0677,-7.5033,-25.1276,-107.8199,77.0493
8.5412,-267.5919,46.3036,-168.8335,-180.2154,-153.3349,-60.0246,-143.1133,-7.8016,-228.4677,-14.3769,-696.3797,-123.7314,-150.8645,-140.4259,-46.6293,6.7603,-134.9421,84.5403
-0.9667,-285.5106,71.9191,-133.8628,-122.8726,-190.0815,8.8094,-134.3220,66.6347,-173.9007,-95.8145,-590.9427,-96.7172,-158.4685,-121.3321,-41.8011,-25.7516,-126.2117,99.7539
-71.2007,-237.9661,74.6898,-120.3805,-54.8750,-209.5900,84.1046,-115.5385,99.1470,-129.9914,-206.6431,-478.7644,-65.9451,-169.1678,-104.7334,-48.4776,-53.3906,-141.9068,114.7812
-112.7042,-196.5006,65.3459,-137.2122,-43.0108,-215.9134,66.5655,-124.9520,70.5072,-120.4577,-273.0883,-434.1667,-48.0743,-167.9208,-93.7707,-86.4445,-53.2622,-128.9150,103.5301
-76.3930,-172.5603,66.6472,-107.9658,-11.5947,-149.6433,41.6848,-100.0832,23.7797,-83.3554,-256.2327,-360.8734,36.4013,-101.6675,-40.1550,-67.4763,-44.4608,-29.8033,84.2571
-28.0168,-35.1337,88.7579,-8.3948,51.6071,13.6433,98.7085,-28.4594,-3.0074,-44.3278,-176.8078,-160.9374,117.9417,36.7864,26.9915,54.0411,-33.5915,131.4297,66.6642
-33.0558,210.5515,100.2924,145.5948,47.2035,199.8989,118.0596,71.2215,-30.7708,12.9110,-108.1901,84.7934,94.5812,203.7945,24.7760,208.1530,-30.1720,315.7826,21.3498
-64.1276,390.5770,97.8693,345.9731,10.3281,367.7484,26.6186,229.2059,-85.1023,184.2971,-86.1489,264.6826,67.6756,370.3427,-29.2004,338.2657,-22.0086,510.7335,-32.5475
-68.7982,493.9279,135.3395,542.0933,56.8403,549.4080,-18.6210,434.7176,-106.3472,437.9291,-65.5093,400.3351,127.7432,537.3708,-35.5146,471.9089,14.6993,689.8672,-34.0597
-57.9026,648.8022,205.1896,680.0110,126.2297,723.2190,47.5128,619.3657,-57.0962,642.9038,-38.9930,554.9885,160.1881,698.4513,-0.6950,637.9821,51.3310,818.3251,1.0353
-63.7577,815.4050,230.3012,776.9879,94.4086,831.5007,50.6181,749.5687,-49.0751,751.7755,-52.1527,710.5192,75.5664,824.1138,-31.4280,789.5419,59.8489,894.3657,-0.3147
-66.4561,877.6185,215.3129,840.0184,-3.9134,881.7983,-74.2817,802.5478,-134.0123,777.5051,-64.2617,808.0143,-44.1516,871.8596,-125.5791,838.2461,70.3151,925.2136,-41.9343
-40.3392,869.9271,231.2360,827.4722,-66.9163,881.4724,-151.6490,763.2814,-143.2005,746.5474,-11.1299,828.5644,-101.9884,817.7583,-168.8462,766.2126,86.7686,897.3852,-55.9879
-16.2899,843.5378,263.9682,756.4189,-66.0335,802.8214,-78.8863,703.2031,1.4873,717.5859,50.0609,792.7668,-88.8496,700.3080,-135.2476,656.1595,74.1199,818.0909,-6.6764
-20.8369,772.2360,247.3608,688.8013,-30.7819,688.7498,35.4229,690.0920,108.8839,706.7218,65.9520,729.1282,-53.4834,588.3311,-94.9823,565.7222,48.9125,732.0526,60.1855
-25.9680,693.1147,192.7773,623.6310,-8.7290,618.6607,79.6962,672.5365,74.4936,673.4555,87.0481,664.9567,-41.2060,494.0356,-69.6132,466.8812,42.2426,667.4539,74.8629
-13.5748,649.1368,160.1322,544.6038,-13.2816,578.6083,67.5351,601.4147,33.4498,619.8651,121.9392,621.2646,-29.0800,397.9236,-41.1927,366.6245,33.9744,618.0770,39.0191
-7.3544,579.7795,163.5813,491.8938,-8.4724,521.7475,46.0644,515.9538,31.6252,566.2551,125.1882,604.3154,18.7779,330.7896,-21.6097,331.7037,18.7315,577.6876,13.1724
-21.7902,491.3660,172.3686,487.5173,5.2580,469.7807,12.0514,432.9326,-39.6861,488.5663,113.7949,601.6602,50.0330,314.8257,-13.6976,338.2324,20.2808,540.7767,3.6919
-43.2860,476.9960,160.6545,484.2360,-10.1524,438.6320,-46.6985,325.4231,-162.2321,375.7464,96.8937,583.3741,14.0916,289.7256,-0.6119,280.3523,23.4924,487.2069,-34.7093
-42.7403,483.5577,138.1098,433.3108,-34.9172,384.7454,-96.0060,206.7513,-213.9187,248.2933,47.6748,530.9152,-34.2771,216.3720,-0.0738,159.5488,14.5199,412.2071,-87.4580
4.3231,405.1086,137.8750,347.8784,-33.6129,301.8098,-100.8288,120.4755,-193.9668,136.8412,15.7660,470.3631,-47.5376,156.9762,-36.6920,87.4424,29.9567,355.3573,-96.2827
62.3346,317.9927,166.2965,289.5235,-31.7479,258.1515,-83.0002,103.0331,-159.4540,110.2291,29.2168,437.2712,-56.2521,163.9752,-76.4266,101.2272,78.7580,352.4245,-54.0078
58.4746,306.4432,191.6732,285.6751,-34.6891,277.8188,-67.9542,154.6839,-94.4831,190.8852,-4.4401,424.4278,-64.8460,202.2260,-61.4708,130.2253,111.0920,361.2130,11.8009
6.5344,296.2725,189.8402,275.3946,1.4018,275.7266,-37.8681,185.6418,-11.1326,248.2084,-82.5040,407.6364,-43.7381,224.2385,0.1169,128.1673,96.1099,305.1207,73.5607
-16.0128,247.0389,157.4211,200.6867,50.0622,187.6443,-1.3258,99.3300,3.9962,160.2711,-72.0959,372.9369,-22.4540,220.8609,30.4593,118.1968,46.0386,200.2373,84.4950
-21.7401,203.0524,93.9067,105.6199,26.0443,83.0182,-13.5968,-50.9058,-61.5520,-1.9176,3.9573,301.1688,-46.4236,194.7541,-6.2885,117.3072,-15.8903,132.4208,27.4718
-74.5785,155.7081,17.3678,59.5786,-55.8523,47.5958,-73.5684,-140.5229,-116.6309,-105.9854,7.6963,208.7852,-82.5726,149.5608,-40.8677,100.4958,-62.9058,111.8872,-35.4800
-142.1982,109.5702,-32.1582,56.8324,-91.4101,53.9876,-107.7252,-156.0060,-115.7748,-147.2806,-39.7329,165.1611,-70.4955,90.1728,-17.4893,45.7477,-81.0472,92.5298,-49.2760
-156.1927,108.5445,-39.3170,50.6288,-66.5992,48.0640,-89.5396,-164.8724,-96.4125,-207.6892,-49.8916,174.8579,-26.9536,19.2981,9.4082,-35.9501,-85.0311,79.0248,-40.2592
-131.6073,92.9301,-30.0343,6.0392,-72.8071,23.4714,-73.6977,-202.8303,-81.5532,-314.5419,-43.3797,152.1391,-23.1279,-48.1084,-8.8176,-120.8180,-90.5399,61.3533,-53.0425
-112.5736,-0.1704,-28.7978,-81.6087,-127.9264,-42.9784,-91.7223,-258.3247,-64.7224,-396.5365,-39.3290,83.3229,-70.0484,-89.3592,-28.1688,-185.7553,-91.9883,-23.6171,-80.6711
-112.2994,-80.4463,-31.3002,-164.8560,-146.8436,-158.8946,-101.6049,-293.6371,-56.8872,-393.5822,-12.2214,45.2640,-104.4726,-103.4242,-21.0591,-211.4094,-77.3128,-147.0707,-86.4922
-137.3690,-89.4736,-23.0530,-190.3586,-110.6865,-248.4318,-78.6280,-300.8941,-75.9953,-366.2859,13.8684,44.2276,-101.5613,-109.3925,-24.8177,-209.9584,-48.9071,-202.0928,-69.9132
-165.7005,-98.8943,-3.6251,-167.5940,-85.8405,-264.7000,-81.2627,-329.4364,-133.3775,-387.1602,19.6373,26.3861,-101.7332,-121.4154,-52.3042,-225.0133,-26.7590,-186.9942,-77.4555
-150.3774,-114.3162,14.5316,-129.0805,-79.4782,-247.4961,-141.0741,-373.4870,-212.3570,-402.9509,28.6933,3.2647,-114.8835,-138.2456,-80.0357,-269.8069,-16.6104,-164.5456,-109.5576
-106.2503,-92.3097,23.1501,-95.0752,-59.0053,-215.2302,-157.3530,-346.2701,-214.1193,-353.7333,25.6995,4.1014,-114.4978,-149.4832,-92.3959,-301.7161,4.4863,-143.8695,-86.3471
-91.8939,-94.8078,18.0982,-116.5378,-55.3246,-186.6226,-50.9706,-255.4765,-64.0863,-288.0256,-4.4465,-2.2430,-107.2809,-155.0086,-78.4325,-282.1302,26.3533,-157.4614,7.7887
-109.0764,-159.4190,-11.2250,-219.2111,-91.4575,-225.6492,60.2658,-205.6599,104.4423,-239.0895,-26.4814,-35.0660,-107.4415,-162.5979,-54.3742,-228.9961,-2.0311,-237.1053,74.0702
-123.8722,-203.2746,-58.3973,-312.3575,-116.5802,-287.1710,44.8067,-196.2175,121.8287,-174.0701,-40.9132,-60.5970,-102.5342,-156.4060,-57.1692,-196.3436,-57.4921,-283.9686,74.2751
-124.4381,-193.2913,-80.1466,-306.9283,-97.3710,-243.8110,-8.1540,-157.6455,73.5323,-118.7148,-60.2558,-59.9071,-92.1108,-123.7966,-61.1252,-212.4752,-47.9197,-230.9603,68.8918
-102.0037,-178.4556,-55.3973,-258.0286,-60.7572,-152.9170,23.1217,-133.1455,100.6486,-142.3956,-37.0649,-48.2293,-79.4189,-112.1177,-19.5620,-251.8363,13.2791,-199.7820,60.4877
-74.8515,-165.3363,-38.5979,-253.0525,-47.6747,-172.6477,53.5015,-195.9523,115.4047,-222.2278,14.9979,-34.3835,-55.7099,-164.6707,16.7616,-283.4604,10.9016,-259.4594,17.5514
-107.4890,-154.2522,-83.5496,-278.6685,-84.9813,-261.2228,-13.2368,-298.4557,40.2204,-266.5732,2.0383,-21.1136,-49.6794,-229.0259,-13.6008,-308.3535,-69.9443,-303.3209,-11.2855
-195.6867,-186.6128,-153.5966,-305.7981,-142.9150,-294.3460,-85.2620,-361.2069,-13.1951,-257.3414,-54.7887,-29.2046,-89.7655,-237.3627,-61.0675,-315.5294,-130.4807,-300.7885,2.5369
-231.6228,-256.3965,-184.0112,-358.6782,-159.8335,-303.9704,-90.0040,-383.1245,-27.2188,-275.9571,-58.7568,-76.0260,-127.8558,-213.6472,-76.7986,-284.8927,-128.6794,-333.7517,1.0375
-175.2613,-299.6085,-177.3959,-418.9882,-154.6193,-341.2271,-106.2520,-392.2648,-106.0919,-361.6092,-43.5076,-126.2841,-134.4812,-205.7713,-99.4411,-257.4851,-100.4445,-379.4525,-24.6532
-117.0463,-282.8080,-163.6215,-407.8375,-168.0700,-348.5307,-152.4551,-391.4695,-182.0345,-419.7208,-83.2843,-121.4236,-163.6262,-204.8495,-141.9635,-278.8478,-65.8069,-359.6863,-30.3911
-116.2237,-236.4422,-138.2298,-322.9136,-137.2915,-301.1652,-132.6982,-368.1789,-132.3396,-371.1363,-126.3394,-81.4289,-204.3555,-198.9319,-153.3457,-304.5333,-33.2095,-301.6852,-39.7424
-127.9203,-219.6922,-104.8030,-260.1644,-32.5798,-250.6916,-42.9143,-317.1170,-34.6682,-290.5529,-106.4433,-82.8771,-162.7966,-209.4708,-116.2729,-304.8123,-27.1318,-260.4288,-79.5834
-108.7907,-237.2448,-95.7431,-255.5764,45.5113,-222.8892,32.1964,-262.4456,16.8138,-260.1885,-60.0196,-120.0794,-64.6660,-240.4539,-69.9206,-342.7690,-42.2078,-231.5517,-103.9004
-66.3657,-222.3313,-104.1415,-239.5366,69.3200,-211.5188,84.9057,-236.4257,54.2758,-250.5693,-42.1163,-125.6614,-39.7596,-263.8752,-58.6867,-416.0499,-31.4193,-202.2323,-98.3079
-6.4793,-175.8232,-79.3824,-185.7046,120.5249,-204.5103,144.1972,-227.7377,74.2357,-244.5770,-49.1003,-107.1661,-93.9571,-259.4842,-91.3589,-419.4598,30.1265,-169.9495,-92.0514
67.8375,-193.2177,-16.0454,-158.7250,181.6282,-183.3085,179.1270,-200.9991,56.9816,-255.0267,-47.4571,-109.2711,-124.0568,-232.9401,-126.2805,-347.4305,107.5152,-141.7961,-59.1888
110.8985,-273.6616,30.5530,-177.0446,179.3037,-157.2430,163.0634,-159.8300,57.0522,-227.8112,-34.2506,-115.5392,-114.3135,-208.6037,-130.9002,-305.9654,144.7542,-145.6013,10.2601
77.4548,-306.0714,25.8484,-179.7514,143.9940,-148.1750,117.0772,-138.8492,63.4289,-151.1719,-46.0875,-111.4636,-123.3148,-212.6236,-130.7616,-321.3370,128.0810,-178.1888,38.1308
17.7054,-267.8138,-9.1194,-153.5322,120.7070,-146.3459,71.8299,-146.7702,22.6777,-117.1725,-76.0329,-124.6169,-143.8256,-246.8027,-135.9952,-336.5910,92.0045,-197.8879,3.4034
29.9436,-225.5297,-41.5642,-150.2227,97.1924,-158.2052,61.5103,-161.5102,9.0518,-142.2278,-60.3436,-146.7558,-130.7670,-286.2602,-114.6153,-333.0897,63.6920,-203.6562,-9.4165
106.3389,-208.0332,-58.0876,-180.6573,75.2354,-213.4916,80.9651,-181.2579,62.5475,-168.8842,-5.9614,-150.8701,-106.0705,-312.3816,-84.3374,-332.7646,45.5202,-225.3161,16.7694
151.5874,-228.6088,-53.4579,-208.4834,52.9550,-277.1017,54.6417,-226.7162,60.4760,-212.0723,17.2420,-164.2681,-115.7338,-326.7974,-90.1897,-350.5623,48.4983,-254.7441,12.4900
147.1382,-296.3864,-29.2245,-220.4583,27.1734,-279.0256,-27.6112,-268.6011,-13.5134,-253.7468,15.9385,-212.7709,-138.2818,-319.4159,-106.6820,-363.8841,71.2169,-264.4402,-18.3934
138.9783,-359.0939,-14.3159,-224.9060,51.0429,-221.7995,-53.2177,-242.7639,-21.1282,-205.6258,14.5131,-260.2101,-132.7097,-264.0575,-98.3029,-321.5640,68.3369,-243.2119,-12.8503
110.2207,-371.8970,-45.6271,-223.4714,122.9980,-158.6164,13.9592,-169.3758,39.0595,-120.0827,-38.8388,-270.5030,-109.6492,-182.3740,-84.2079,-245.9514,22.9000,-201.1265,24.3820
34.9573,-365.5555,-109.8462,-220.0576,148.1329,-127.6472,75.5220,-115.0603,71.7729,-101.9718,-132.4614,-264.1468,-75.7908,-148.3912,-58.1994,-224.7556,-10.7335,-178.0957,58.0364
-30.3499,-368.7769,-155.6426,-221.0720,137.4481,-139.0413,99.8378,-50.6095,99.0929,-65.1280,-163.4743,-281.2097,-8.3599,-169.8661,8.3455,-227.9942,-10.3179,-195.0323,99.3338
-42.0110,-376.1642,-172.9046,-227.5829,177.9827,-158.0796,133.0017,53.9676,136.4128,55.8370,-137.9595,-312.7271,60.0114,-161.1495,72.5598,-153.1290,-25.0694,-212.9178,148.4879
-35.2508,-391.7637,-191.7284,-244.6727,210.3628,-149.4525,142.8977,98.1912,113.0824,111.8424,-146.0063,-303.8405,65.3050,-100.6326,80.1612,-61.5055,-63.1472,-217.4953,166.8419
-40.3399,-413.7647,-215.9695,-278.5792,152.1532,-157.3050,98.1550,37.4757,64.7321,46.1110,-174.8730,-255.5340,30.0849,-78.7501,63.4363,-76.5746,-82.5015,-255.0276,152.1826
-61.4558,-435.0953,-236.5259,-324.1770,81.3552,-231.7136,75.9814,-10.4216,95.7784,-2.4548,-178.3747,-248.0715,11.5851,-132.8224,68.7567,-145.2793,-101.1719,-325.6439,137.0995
-110.1709,-464.3683,-269.3627,-362.9218,49.9885,-319.2539,103.5074,-9.8916,159.3997,-17.4139,-192.8262,-301.4697,-8.5876,-193.7672,77.8031,-174.3367,-157.2292,-366.1021,116.3135
-157.4693,-474.8508,-307.2623,-358.6065,-4.9204,-340.2587,89.3289,-48.2692,143.8942,-83.9786,-234.8244,-336.2261,-50.0264,-221.2274,58.7077,-197.4309,-195.8078,-342.6025,70.0842
-137.9737,-420.8517,-294.8199,-282.1937,-55.5130,-288.6956,17.6439,-91.8199,66.1767,-127.4495,-250.4192,-313.1540,-64.7938,-235.1474,20.0585,-232.8544,-146.5310,-265.5278,23.3540
-52.2961,-339.2104,-207.4902,-169.9453,-5.2054,-198.5042,-13.2502,-57.2524,15.7397,-63.7344,-210.9448,-265.4137,-32.2814,-229.4816,-1.5756,-226.4078,-48.8041,-170.4894,9.9565
21.5606,-300.1370,-105.6785,-101.4868,100.5104,-106.4051,26.2805,-15.2262,40.1171,8.9115,-148.5034,-216.5566,7.0575,-183.7757,14.0791,-174.6718,6.5988,-110.8802,24.7541
15.3568,-294.9118,-77.6292,-98.3613,143.2079,-44.0723,70.4791,-16.0668,117.0380,25.5281,-122.9264,-187.5495,30.0978,-126.2416,37.7180,-114.9001,-9.8447,-98.1675,43.6824
-59.3748,-292.2710,-135.1178,-121.5506,123.2931,-20.7571,84.4863,24.8975,151.7774,56.8765,-155.9334,-194.1987,35.9825,-112.4546,33.4316,-79.4252,-54.0894,-105.5605,51.9238
-99.9600,-299.5848,-185.1590,-157.3244,119.0942,-46.1354,83.7815,87.5728,89.3655,91.2345,-173.2272,-198.7313,19.3319,-167.6533,18.2539,-112.5961,-58.9790,-141.9574,57.9661
-34.9160,-299.3282,-155.1971,-199.0295,140.0884,-118.8285,82.9181,54.3227,37.4609,42.9968,-117.6519,-178.2186,-2.0275,-257.9765,17.8968,-190.7691,-12.4820,-198.4449,89.0299
44.8492,-256.3153,-104.5220,-191.4137,125.9507,-166.5121,93.5223,-17.9199,112.1529,-27.2740,-72.0016,-169.8202,-2.7197,-313.7522,17.8865,-221.0887,20.6669,-201.8260,140.8891
31.1425,-197.9883,-107.0707,-117.9324,70.1871,-130.8465,124.0253,5.5809,236.3436,8.8220,-107.9613,-170.3617,7.4314,-306.6493,14.7837,-202.4708,8.8573,-149.0051,167.8164
-10.4721,-175.1201,-120.0311,-61.4770,42.1964,-80.3975,161.3421,86.3805,281.7893,122.2661,-157.2387,-140.7133,12.0713,-276.1081,31.9084,-186.5814,3.8350,-125.1806,157.4653
3.1719,-167.9111,-101.2316,-63.1450,45.7542,-81.6089,175.1861,124.4972,264.8608,188.2148,-162.3416,-98.7678,13.6322,-262.4542,60.4557,-144.9585,20.6678,-137.4512,136.6538
16.4947,-116.9170,-99.5292,-52.0840,0.3984,-87.3822,135.5101,111.2399,231.6808,163.7500,-148.3331,-61.9505,4.5334,-275.2208,66.5393,-96.9513,14.9446,-137.8720,94.3919
15.7792,-35.4168,-117.7009,-5.2515,-89.8705,-79.1128,38.9584,55.0197,150.3611,85.0944,-124.0690,-17.3826,-32.7355,-310.6302,36.6146,-141.5686,10.4574,-146.4574,11.5424
87.8567,-8.0454,-83.6575,9.0534,-139.8297,-101.0070,-67.6995,-20.0382,34.6788,8.4312,-105.3876,-4.2193,-94.8441,-327.8584,-27.9681,-221.3079,67.2701,-160.5534,-63.3048
203.3209,-41.7535,-2.5928,-2.4383,-139.3010,-108.3167,-128.6930,-37.6547,-45.6578,-9.1646,-125.7205,-34.6321,-153.9490,-268.3235,-104.7220,-189.3871,144.6714,-112.5242,-82.1725
242.7894,-38.0895,53.6962,28.5817,-116.9460,-39.5474,-145.5851,3.5204,-98.2899,24.6927,-135.1842,-22.4361,-180.2274,-158.3836,-144.9259,-103.9415,164.7047,-33.2276,-73.1175
207.3320,12.1916,64.2671,59.5811,-59.9372,17.6692,-143.8528,13.7654,-137.5345,31.3676,-91.7358,32.4330,-169.6441,-99.6029,-133.0162,-105.0982,130.9258,-32.2479,-68.5006
152.6292,-1.2547,31.1414,8.7067,1.5374,-28.1354,-104.7852,-17.1461,-89.8968,-9.7003,-79.1273,22.3767,-137.4834,-120.0270,-98.0009,-146.9790,71.3900,-99.0535,-56.5878
69.7964,-75.8933,-47.3382,-73.7604,3.8559,-102.7822,-23.7661,-26.7901,37.5360,-29.1445,-123.7342,-25.9452,-86.5717,-135.2206,-48.1752,-122.9681,-7.7377,-137.3275,-35.5013
-15.3810,-94.3853,-119.5815,-100.9806,-34.1785,-114.0679,19.7328,-15.0271,105.8346,8.1287,-120.4100,-5.8947,-33.4682,-83.7681,10.8312,-52.0724,-64.9895,-132.7135,-17.2716
-37.3764,-64.1751,-129.7832,-89.2689,-62.5880,-89.2076,-33.3503,-6.3073,74.3773,68.0607,-64.9193,32.3130,-32.7263,-22.5832,24.7066,-9.7577,-56.8860,-132.8315,4.0912
-17.7215,-77.5153,-101.8674,-82.1231,-84.4764,-78.1138,-123.4049,9.8092,16.2237,109.1460,-51.8122,1.9886,-92.1989,-40.2806,-29.9888,-31.7082,-19.3385,-152.7002,20.2504
-14.5598,-116.4830,-86.9626,-85.7157,-114.1861,-83.5337,-178.1875,14.9097,-64.5625,93.2318,-62.9671,-41.5284,-138.0066,-113.4439,-79.2505,-81.7301,-11.7873,-175.5449,3.8323
-22.1690,-127.0327,-93.9352,-104.9721,-161.6432,-101.1378,-201.7225,-20.9083,-158.2930,17.5893,-47.3385,-41.1885,-133.4763,-141.4115,-61.9607,-83.8823,-26.0123,-183.1219,-33.4422
-21.0675,-120.8577,-94.4981,-118.6442,-217.9242,-119.9720,-199.6136,-63.4393,-172.5636,-45.0191,-47.5168,-26.5004,-120.0761,-122.0045,-24.3364,-56.8557,-17.6342,-171.2041,-56.1859
-9.2482,-91.7669,-55.0813,-84.0933,-219.1173,-113.9685,-168.2930,-75.4499,-123.2228,-40.1739,-67.7417,-7.3292,-118.3348,-143.2758,-31.0462,-91.9938,15.9339,-145.3539,-73.8083
19.2714,-27.3778,4.4872,-24.3267,-155.4885,-79.5557,-152.9887,-75.3883,-117.9663,-8.0078,-54.8565,21.9919,-114.1493,-190.8098,-64.1122,-150.6085,35.0970,-101.6871,-115.5874
45.8246,20.3882,22.2133,8.0502,-121.8933,-42.4897,-163.4491,-74.0182,-124.1736,4.1665,-35.8745,34.1650,-114.2358,-165.4500,-73.1114,-127.7453,22.9344,-53.9329,-166.2331
45.5188,26.0157,5.2786,22.0649,-128.6009,-26.6716,-128.9571,-68.0941,-74.7038,-6.7107,-55.6197,24.2089,-119.8736,-93.2353,-60.3619,-78.2560,3.6229,-48.6790,-194.4057
28.5960,22.9807,3.0257,29.0313,-89.6099,-39.6498,-50.6520,-88.8247,-37.9378,-43.5265,-83.3704,8.3128,-101.4283,-92.4678,-47.5148,-99.9387,-17.8329,-88.1225,-206.6252
-6.2831,5.6387,-16.0221,0.8914,-35.7088,-74.7904,-14.4347,-146.0158,-27.6634,-99.7268,-98.5519,-15.2374,-39.7949,-158.3495,-13.7833,-136.8450,-59.6050,-117.3942,-219.4094
-57.7110,-34.1618,-75.3467,-47.4618,-44.6233,-121.7665,-16.7631,-190.9019,33.4709,-151.5305,-105.2949,-28.8906,40.1216,-190.8960,41.8927,-126.6944,-92.0564,-128.7409,-223.7443
-60.6050,-46.0090,-89.8552,-67.5576,-58.4822,-168.5542,-3.0952,-199.4195,73.0468,-181.7651,-79.9493,-12.9873,75.1447,-175.0079,47.1572,-124.9788,-72.3593,-151.0117,-215.3307
-1.0678,-22.9201,-29.7174,-58.9917,-21.7762,-188.8928,-7.4540,-189.9957,-5.0562,-154.1044,-41.3545,0.6747,38.0822,-159.5958,-17.1077,-152.8638,-35.2263,-156.1447,-204.7176
15.0629,-20.0311,10.7328,-45.3488,5.8883,-170.2672,-50.7749,-160.8719,-69.7092,-60.1538,-49.8670,-10.5734,4.6446,-144.0073,-44.7093,-147.4048,-32.0010,-126.3447,-183.8483
-45.4081,-40.4444,-4.6871,-42.4280,-10.8878,-149.5550,-72.9432,-115.0263,-16.8686,2.8620,-88.9306,-23.1928,30.9992,-110.1786,10.5315,-94.0832,-50.4303,-123.2757,-152.5014
-87.1835,-53.7419,-33.9919,-71.4236,-58.3599,-151.4972,-79.5644,-86.4295,9.6661,-22.2016,-102.6461,-30.1472,34.3857,-77.4416,43.1216,-40.9291,-78.0890,-159.9124,-157.6871
-84.4660,-68.1270,-78.0235,-117.0229,-138.1314,-137.2115,-126.9669,-81.9783,-79.0337,-50.9351,-96.1204,-34.3163,-36.6335,-56.8547,3.7736,-17.1586,-120.8628,-159.8211,-224.0406
-88.3405,-88.9197,-124.4209,-131.4474,-209.2006,-95.3982,-174.8765,-92.9043,-154.8918,-65.6746,-89.5391,-24.2315,-86.1403,-37.7762,-25.2429,-26.3236,-142.5119,-118.9008,-296.2770
-90.1583,-104.6307,-115.3101,-117.7548,-218.9653,-80.8610,-172.4221,-131.8445,-138.1661,-138.7184,-82.4547,-25.3696,-71.5938,-32.1970,-26.3706,-65.5178,-118.7590,-105.9124,-318.2638
-76.8588,-118.4865,-64.4890,-102.4134,-192.7917,-89.3685,-158.3491,-158.5458,-102.3160,-189.0251,-73.2844,-58.2157,-57.5112,-45.2695,-57.2735,-120.2844,-84.1850,-102.1272,-290.3544
-72.1925,-117.0900,-30.2740,-74.2299,-147.5673,-51.4221,-139.9710,-105.0034,-114.7641,-113.2218,-28.9797,-59.1762,-32.4523,-35.9717,-78.7724,-165.8873,-49.2948,-56.6338,-228.8736
-54.3051,-83.2507,-15.5609,-45.5002,-66.9560,13.4129,-77.6279,-33.4505,-169.5772,-38.4532,61.7250,7.6036,29.9067,7.1927,-32.9028,-177.6478,-11.3410,-21.9135,-165.0957
-24.4632,-52.1853,-25.3198,-45.4337,-8.4269,27.8896,-4.8943,-50.6441,-205.0013,-62.1657,105.2550,59.1074,49.6128,26.7199,6.8094,-154.1669,-22.4501,-38.1969,-145.5080
-60.5962,-52.8791,-71.9178,-35.1320,-12.0751,17.4114,40.7884,-97.1310,-140.7403,-66.2561,46.1047,41.4257,22.7517,5.6882,-15.9107,-126.2936,-82.4117,-34.8102,-154.9541
-143.6153,-57.4711,-100.1797,5.5496,-1.8376,40.1648,104.7415,-75.0875,11.2909,-29.3417,-15.6173,12.8114,55.5109,1.7201,-12.8431,-115.4593,-98.9411,8.1996,-131.6144
-165.4309,-59.6713,-90.0023,1.8586,40.7594,52.1962,189.3055,-35.9977,127.2138,-51.6250,-10.1593,9.7473,113.3161,26.0834,66.9255,-106.3254,-73.1734,7.9005,-82.8183
-159.1637,-84.1374,-119.7176,-57.8938,31.1563,17.2743,215.1522,-21.6963,122.4613,-55.8843,2.4778,-0.3688,84.9774,29.8272,127.9907,-81.3562,-99.8481,-38.1282,-60.4737
-210.8833,-108.1349,-185.2515,-77.5473,-21.8980,-1.7119,162.3131,25.3220,35.7406,45.8685,0.6084,-23.0809,27.6324,8.0235,96.4620,-48.8975,-155.1895,-48.4634,-56.8059
-235.1644,-103.7573,-178.0578,-45.8327,-41.6034,16.4308,84.4089,73.7659,-49.5719,107.5485,19.0001,-35.5359,25.3820,-18.7673,23.8841,-30.3002,-144.0273,-31.6284,-39.8167
-149.2495,-107.5978,-102.8403,-49.8197,-41.0542,4.2901,22.5220,35.3452,-83.5312,38.2160,24.6979,-48.9973,19.2851,-57.3474,-16.3312,-35.4849,-92.2382,-47.0796,-13.8317
-65.3391,-146.2483,-61.7232,-101.7749,-51.0540,-45.7990,6.7357,-36.3364,-55.5237,-40.2250,-2.8785,-77.9185,-18.1389,-78.9775,-21.5326,-46.0979,-73.0705,-72.3152,18.2236
-74.7196,-177.7732,-58.0776,-142.7774,-45.5672,-69.0140,39.6118,-57.1913,8.0881,-72.5734,5.8283,-98.9391,-21.3048,-41.4513,-25.3451,-38.7264,-76.4425,-70.3865,60.0121
-102.7032,-172.1296,-39.9564,-152.3711,-25.5367,-54.2200,62.3215,-58.0460,48.6961,-94.8966,60.2638,-96.1055,9.0608,-3.6106,-21.3674,-27.0732,-80.9895,-62.8200,92.7874
-97.0159,-163.8125,-28.6691,-144.2656,-10.0621,-36.4896,54.9674,-40.1574,47.9258,-54.7494,66.5224,-90.7403,31.0632,-38.4151,20.2905,-36.3461,-95.1858,-54.8843,115.8789
-95.8580,-178.1872,-41.2080,-124.7952,26.7009,-15.4475,98.2416,54.5923,87.8503,65.9846,-0.5693,-91.4165,58.7670,-81.7389,63.8724,-48.1770,-90.1454,-22.3708,164.4680
-89.9098,-167.4481,-19.6476,-81.0894,99.5214,25.7140,223.9641,177.6400,216.8023,163.0884,-60.9141,-69.9899,98.5607,-48.6087,56.4437,-29.1362,-32.1907,26.7685,244.3904
-38.6571,-79.3041,58.3940,5.7360,179.2227,76.2202,327.9486,232.8108,310.7180,196.2062,-65.4886,-17.3124,134.4014,12.3665,58.7521,7.4576,41.8271,69.8186,303.0680
14.5620,37.6690,120.5958,100.6825,239.3080,108.2390,324.5558,226.0986,264.1191,208.4008,-40.5336,32.4467,177.7414,21.1255,140.0890,21.0304,72.6682,92.1423,281.6461
4.0672,82.2608,115.5311,128.8305,262.3838,101.5816,255.6486,190.0234,174.0408,184.1523,-17.9992,55.3461,214.7189,-11.2053,208.6893,11.6239,57.5632,74.4863,181.9666
-40.0060,47.8603,85.4132,93.9454,238.1362,65.7823,179.9612,117.7116,110.4584,98.2172,8.6268,58.5745,204.0481,-35.3230,173.2861,22.0676,36.8626,28.4527,75.2605
-48.8329,19.9844,73.9000,67.9198,173.1724,30.9333,83.4246,29.6827,-15.4471,-5.9830,54.2121,48.0216,161.5477,-32.9279,113.4990,57.0599,38.4358,-8.2229,18.7540
-29.5923,37.8372,62.2949,59.2446,72.3195,1.6399,-44.1129,-38.3849,-170.2333,-83.0496,91.5337,33.1818,118.6969,-22.3789,86.2518,55.2596,57.9968,-43.2424,-2.3411
-23.5488,58.4231,42.5321,24.7453,-39.3958,-37.4851,-149.7563,-72.8875,-182.9410,-113.4614,85.1712,33.4794,61.7511,-35.6888,24.8427,-4.6122,73.0693,-94.9473,-8.6782
-17.4720,37.4582,37.9319,-31.5804,-95.9353,-73.8324,-178.2403,-56.7727,-79.4463,-86.1511,63.1940,36.6622,4.5298,-62.8879,-46.8977,-47.2390,55.8398,-121.1427,10.4822
-2.5854,-17.4232,31.1424,-69.1081,-74.0066,-84.1069,-126.2503,-5.4117,-16.8861,-32.1366,65.3811,18.2732,-4.9262,-53.7746,-25.6792,-19.6447,-0.2744,-95.9987,37.7429
-28.4375,-48.4560,1.1125,-63.3774,-25.4931,-75.8239,-40.1229,19.8211,1.6044,-6.4101,65.9558,11.3115,24.7294,-7.2302,43.2934,34.4092,-48.4940,-72.5781,42.6388
-96.1252,-8.6485,-10.3876,-28.9656,17.4792,-69.1287,6.4580,3.2869,17.0002,-20.3734,45.1839,51.7683,56.8537,21.4546,60.6869,61.6786,-46.1994,-89.5076,39.1163
-133.2176,51.8228,4.1619,-19.1841,56.5837,-71.1992,-14.2333,-22.8116,-2.6885,-44.7965,39.6295,82.3523,98.8105,10.5796,64.8368,52.8879,-40.8506,-111.6959,37.1633
-135.7212,37.8612,-19.7522,-50.3731,68.9761,-72.4767,-39.7319,-39.2022,-17.0227,-48.9146,51.2304,38.6087,151.2521,-12.1588,98.1494,24.9465,-88.2570,-90.9666,13.7900
-156.1234,-29.9143,-69.0126,-59.0066,45.9681,-51.0502,-23.9527,-14.0772,17.4016,-28.7852,40.6856,-24.9366,169.2290,-22.3044,106.8834,21.9143,-137.3062,-28.3785,-29.9849
-164.2383,-37.8681,-57.0287,-16.0909,24.2120,-17.0446,-5.9485,51.4553,20.0025,-23.7293,22.5093,-24.0353,135.7974,-21.0667,87.5488,53.6722,-129.5115,16.1213,-73.7335
-113.9562,25.6669,2.0118,18.3416,27.0560,-23.9165,4.9052,59.8262,-8.5836,-59.9041,31.9385,15.4801,102.5677,-29.7326,95.8297,48.0053,-99.2208,-5.5788,-101.6398
-55.9364,56.8161,28.4729,13.6882,47.6204,-73.1044,48.7175,-14.4321,38.7312,-86.2272,46.5404,22.5902,109.6535,-49.7488,121.6143,-12.5098,-74.1460,-45.7811,-82.8595
-38.3048,21.8194,21.7878,-0.3219,67.3957,-88.6503,82.5309,-37.9363,94.8898,-44.9538,33.5827,0.5072,114.1460,-35.6413,128.0231,-23.2413,-42.3010,-38.9289,-28.8778
-45.8176,-8.3811,11.0166,-17.3310,57.9031,-45.9808,44.9720,33.7368,29.7865,29.9313,-1.6221,-12.5899,66.7109,26.9906,115.1536,54.5342,-33.2567,-19.8879,-14.1877
-77.5007,-9.8161,-9.8380,-41.3349,29.1750,-10.1353,9.7562,79.9954,-55.2918,59.3054,-31.8641,-18.5884,15.3800,73.7374,82.7214,126.8168,-59.5845,-38.1712,-34.2919
-119.5133,-32.2369,-28.8684,-59.7964,33.1812,-19.5445,54.0084,61.2280,-27.8468,24.6962,-20.5593,-31.0255,20.8686,68.8556,47.4949,140.8599,-70.8944,-60.8174,-6.3288
-117.0769,-74.5812,-36.7054,-87.6642,57.9035,-48.2288,111.1099,47.1463,45.6056,-18.9958,17.8859,-42.8762,39.1253,49.6705,45.6367,121.8536,-76.3651,-63.1053,49.3131
-84.7366,-80.3484,-62.8035,-129.2947,40.8078,-66.3367,125.7713,46.7643,107.2104,-16.8439,-3.3327,-46.5709,24.5550,21.4248,51.0815,75.7720,-121.6387,-68.1866,63.7447
-82.4446,-49.8188,-95.7780,-134.8625,8.8519,-59.8535,153.6666,45.3381,196.0368,26.6527,-83.4120,-37.9683,21.8486,-40.8517,21.2141,17.4404,-143.3049,-69.6623,85.9075
-79.8133,-30.1577,-79.9900,-97.0142,38.8694,-36.1763,214.5284,72.4312,265.9437,76.2251,-85.1409,-20.9115,41.4250,-97.4794,0.0071,-5.8374,-80.4209,-52.9852,157.1852
-34.8605,-18.9995,-21.2670,-69.2034,106.6881,-21.0834,244.3225,123.4141,242.1036,125.6091,21.1373,-14.4367,32.4276,-98.5292,28.7196,11.2128,-16.6941,-30.9710,192.4287
2.9678,20.0923,24.6488,-39.7753,128.8432,-4.8252,208.7990,165.9102,184.1291,177.6569,88.0928,-3.0569,16.3576,-67.3620,57.0081,37.4054,-15.1589,10.3032,150.3030
13.9328,85.4247,38.8923,38.4670,93.9451,43.9306,142.7980,191.1267,168.7616,197.9299,58.7743,58.0576,32.8271,-39.3592,45.4495,52.8048,-7.0076,72.3608,101.3644
51.9177,141.9181,46.7654,112.5026,54.2348,87.0196,102.2411,163.4471,154.3964,144.5700,39.2128,126.5372,27.8965,-30.6727,17.8817,31.8516,49.9247,82.7284,79.6294
116.5839,154.4564,86.3291,101.2749,43.5611,53.6120,91.7365,49.7823,81.5634,18.0697,78.7138,104.3898,-21.3925,-78.9650,-13.0774,-32.5921,107.1933,11.0760,65.2717
154.5634,109.7386,152.4492,36.6681,38.1450,-36.8746,40.2166,-88.3939,-20.2924,-128.4487,115.4260,22.0637,-50.5218,-173.8516,-50.8790,-92.1419,124.6226,-63.4631,57.8129
143.2100,45.3134,163.2151,-2.2031,-11.9286,-99.6191,-75.4837,-161.8399,-84.1143,-206.8417,109.6249,-8.2694,-63.9193,-207.0262,-84.2608,-104.1948,97.7546,-82.7960,47.5446
86.3857,21.8801,80.0372,-6.5310,-95.8046,-99.4637,-165.2637,-154.3710,-102.2762,-173.9507,81.4068,13.6212,-111.5634,-130.5745,-110.2917,-79.6757,50.7702,-70.2491,14.9046
26.8382,45.6188,-3.1798,-12.0414,-141.1374,-72.9582,-189.2098,-109.0531,-122.6404,-104.1970,62.8957,33.7190,-146.2457,-48.3927,-128.6418,-49.8384,26.8977,-66.7391,-24.3105
25.2380,71.5240,-20.0579,-34.2357,-132.8403,-75.2374,-207.3507,-90.9389,-151.7743,-90.9094,53.5684,59.2066,-127.4738,-30.6618,-132.0773,-29.2843,17.3339,-101.5030,-50.0470
43.2307,74.0461,-34.8500,-60.4899,-120.6601,-115.6564,-210.9039,-117.9472,-146.6741,-108.3596,16.9191,72.2517,-117.0646,-1.3700,-136.9675,7.3352,-21.6589,-153.2337,-59.8179
-2.6805,57.2180,-81.3647,-71.8928,-102.9664,-139.3542,-148.1099,-121.4099,-112.0310,-94.7029,-37.9782,37.9919,-127.9692,76.2320,-152.5562,75.7685,-65.6509,-152.0705,-48.0251
-65.5442,22.1544,-98.5105,-79.4680,-55.7357,-120.2577,-78.5372,-85.1834,-89.1371,-94.5575,-49.0135,17.4568,-99.9141,94.8903,-144.6381,97.4581,-66.6321,-112.7135,-28.4951
-52.4537,-23.9304,-70.4342,-120.3518,-32.3007,-121.1540,-72.5378,-108.0538,-77.2905,-172.3613,-29.4268,54.8005,-58.1656,4.6573,-108.2555,11.4153,-43.1605,-130.8386,-27.7135
1.8391,-45.1332,-41.5469,-178.7640,-68.7207,-171.5733,-94.4664,-207.7655,-74.6252,-272.2321,-42.6142,82.7943,-67.6159,-80.7169,-93.3318,-80.0896,-21.7693,-188.0660,-37.4710
22.1504,-8.5372,-26.0137,-171.8263,-88.2456,-191.9496,-114.2411,-272.9269,-102.7852,-299.5664,-60.8371,81.2744,-94.8848,-90.1848,-111.3469,-87.9470,-0.4317,-175.8504,-44.3983
9.1292,59.3681,-25.0923,-78.5463,-41.7056,-137.0099,-136.9701,-263.1731,-136.1823,-257.8146,-48.0791,93.1735,-89.9696,-96.4078,-124.5456,-90.6905,8.2565,-101.8686,-54.8681
-8.4093,98.8923,-36.2835,5.1556,6.1731,-75.3859,-127.0070,-228.0703,-141.0256,-204.9762,-55.5616,91.4083,-80.0934,-127.7856,-124.8922,-125.1682,12.3307,-53.3795,-52.2305
0.1505,105.0070,-16.1014,13.5701,21.8410,-57.0851,-85.4242,-185.2498,-150.8259,-162.8323,-75.4614,68.8979,-95.9165,-112.5022,-135.9590,-113.4439,45.6277,-40.2156,-26.9726
50.2003,108.0620,46.6373,-0.2850,43.1331,-51.2865,-86.5077,-154.6874,-184.1796,-140.5549,-34.4414,81.7995,-130.8115,-56.5380,-170.4665,-83.8969,80.9492,-29.7583,-23.6411
92.5545,92.0789,84.7644,10.5799,47.0441,-40.8756,-142.4296,-175.2354,-207.6787,-161.2719,28.6292,86.2142,-166.0225,-45.8877,-210.2806,-119.2219,74.7518,-19.2297,-64.0751
94.2112,52.3670,73.5032,13.9689,-9.9040,-43.1435,-193.5014,-221.9085,-225.2952,-213.0500,47.5740,32.1384,-157.8551,-76.4870,-200.7148,-150.7729,61.4016,-13.0233,-103.1452
101.2377,48.8911,61.3014,-4.0186,-60.3474,-48.8898,-208.6335,-242.4997,-237.7762,-235.9339,56.3703,24.8431,-87.3421,-78.2244,-121.0090,-104.8835,59.8012,-15.7672,-102.4935
103.7382,78.0454,42.4187,-13.2791,-35.7323,-36.7277,-168.5116,-216.9850,-180.0625,-177.6478,32.5215,84.2237,-32.1670,-44.2233,-49.8422,-45.5734,15.3587,-21.4888,-59.8745
25.5720,58.6871,-26.8592,-14.1910,3.5869,-11.3178,-68.8711,-125.0285,-59.3938,-39.0756,-86.8989,65.1114,-57.2067,-3.2549,-50.8611,-4.9929,-64.9763,-3.9994,10.4198
-91.1830,15.8614,-104.1142,-22.9061,1.3420,12.4133,21.0486,8.3715,13.6682,113.7684,-188.1768,3.1974,-95.4763,31.9283,-67.0967,46.4352,-98.5727,13.2882,76.4331
-131.3668,37.0796,-121.3373,-39.4486,-3.3551,12.8417,46.9314,88.1228,27.8890,195.3658,-159.8815,61.9127,-75.9905,33.5550,-47.8924,59.3920,-77.7136,-33.9458,120.8568
-98.3842,75.5854,-103.6508,-80.6451,-1.7213,-35.1933,43.6056,85.8719,63.4850,188.3821,-130.5416,156.3171,-46.8651,-14.3874,-42.5446,-5.0413,-62.6179,-118.4766,149.3867
-56.9315,55.4121,-99.9580,-139.1651,-35.8984,-106.6011,22.0462,54.8982,77.4485,128.7872,-182.7394,127.0475,-55.6053,-72.3399,-74.3248,-67.8992,-61.4900,-146.8135,139.9404
-18.4892,27.5960,-96.4941,-146.5793,-87.8175,-130.1791,-57.9833,-3.4450,-27.0546,15.6756,-176.7402,57.5984,-65.4264,-96.6244,-85.9226,-65.7527,-46.8078,-112.7542,77.8788
6.5628,33.0773,-75.9560,-85.3864,-112.0185,-86.6484,-170.9689,-98.6902,-182.5976,-142.4462,-79.8591,53.4516,-57.3355,-75.5520,-55.3689,-24.9410,-20.7049,-68.4193,7.0321
15.1434,41.5725,-48.3637,-17.3195,-110.6398,-23.7540,-251.8982,-172.7108,-263.7947,-255.5174,-30.1330,68.5640,-52.6156,-14.4208,-25.7666,13.8040,11.3627,-14.1128,-54.1105
59.9732,73.5654,-0.3078,41.3967,-87.1673,33.2812,-297.6303,-199.5451,-291.0620,-272.0098,-29.1724,91.6473,-38.6381,43.8154,-27.1480,15.7403,63.8777,58.0293,-131.7395
150.9347,135.1173,79.2632,97.2142,-38.1584,88.8847,-321.2785,-206.0030,-324.5121,-251.7264,11.5190,140.8025,-12.0405,45.3707,-53.1913,-27.3396,133.0338,112.3502,-189.7962
213.6465,146.5603,148.4189,102.4981,10.4147,119.8835,-298.8800,-182.0684,-315.9453,-223.2731,46.5097,154.0833,-12.1631,13.1241,-78.1850,-62.9672,182.0005,126.0048,-174.2751
209.1731,106.6379,169.5424,67.6851,52.8674,107.2608,-223.1891,-126.9366,-221.0009,-152.4432,20.5047,118.0598,-22.6501,7.1422,-74.0263,-54.1737,182.6300,112.7170,-121.3336
159.3258,90.9843,155.7242,67.7143,104.1626,77.2480,-123.0913,-78.3150,-90.6045,-69.5921,-8.6268,88.7379,11.2827,22.8353,-40.3490,-19.2072,145.0276,86.0976,-67.7446
82.8088,69.3620,118.0317,64.7592,126.9992,48.4043,-25.0958,-26.8312,31.2632,-32.0631,-11.3749,56.9027,53.6314,38.6383,2.7582,41.9502,91.9272,44.7531,11.6583
10.0448,2.0902,51.8564,-14.1402,93.1862,9.1828,50.5384,33.9562,132.2022,-23.2453,-21.2149,20.8009,44.7007,74.2522,45.2200,120.7191,33.6392,-15.9784,89.0458
-24.1430,-24.2233,-18.1002,-88.2303,56.6948,-32.5198,83.1888,41.2114,160.7695,-14.5290,-30.4987,37.5692,25.3493,112.0815,73.2959,139.3121,-16.2770,-73.0516,89.3517
-30.0480,23.0738,-56.7737,-74.2155,49.4566,-54.6660,70.3663,0.7900,104.2469,0.9626,-15.5280,76.6092,36.4980,95.7538,71.5034,69.6196,-40.7883,-75.9898,26.7771
-19.4583,54.7529,-55.4677,-36.4353,38.9727,-57.4180,36.5409,9.9457,59.9509,44.8998,14.7206,65.8127,44.7047,50.0101,60.4097,13.8644,-38.2537,-24.5811,-18.1331
27.0602,55.8322,-12.1520,-18.7093,33.5211,-45.4809,12.6184,65.0131,85.4859,88.1157,60.1223,49.4566,55.4511,50.5463,68.7999,45.9775,-6.8015,12.8636,-17.7962
96.8853,81.0425,64.4316,15.2267,63.5325,-23.1743,6.3358,71.6527,107.7558,58.6782,126.3252,76.8469,105.4247,87.7097,83.8124,99.1217,54.2165,10.0030,-11.3658
150.4569,114.3930,133.7922,51.5941,101.6899,-9.4965,8.7963,25.9801,63.5388,-13.4177,189.4056,100.9578,152.1313,106.1457,88.5064,99.6803,110.8207,16.6334,-40.6440
184.4800,134.7084,168.8992,70.1167,128.9484,-3.6590,28.0062,-7.5514,-15.6715,-45.3849,222.9104,108.3786,153.9200,117.2431,97.5104,86.7428,132.8881,52.7839,-84.5820
204.3971,168.7579,179.9632,102.0718,157.1044,19.0876,66.0123,-15.7262,-71.8807,-60.6230,227.3805,134.6418,150.3020,142.0634,114.4088,105.9000,142.9994,76.5810,-80.3299
199.7745,199.9677,167.2185,129.1987,148.9895,50.9894,76.3651,-24.1952,-74.9556,-105.5007,220.5734,154.5800,148.8393,136.1930,114.7472,97.5848,156.0761,69.9177,-39.3269
193.1008,197.9127,134.3984,117.8962,88.9734,70.2196,29.1581,-43.2743,-50.7405,-130.9669,219.2350,133.3479,114.6111,79.9677,89.2676,16.6331,152.4088,70.4137,-34.1693
219.6524,199.8916,129.9584,115.0888,67.3291,90.9378,-12.8299,-51.4905,-51.8387,-97.3145,223.6706,99.7461,87.6546,37.8899,63.5631,-45.6623,145.1999,104.9555,-52.0332
251.8892,225.9964,167.5037,132.2385,117.5871,111.6262,13.2366,-24.8887,-53.4734,-54.1176,222.7110,83.9191,111.5860,50.3110,69.3787,-7.4105,148.6076,134.7658,-32.1422
228.3783,217.5307,167.6317,103.4419,120.0450,94.1498,55.2465,-1.5094,-0.4927,-58.9531,203.7621,78.1407,126.2624,78.7590,100.6068,68.4915,116.6768,105.0272,-7.9514
150.2218,142.6808,87.1567,43.5031,18.3611,50.9224,40.0333,-36.3254,53.8708,-107.9657,151.7432,60.6318,86.8665,100.0924,112.1837,109.7574,48.0940,43.6817,-30.4735
90.8788,60.4176,12.8793,25.6840,-63.1220,36.7895,10.4928,-89.8330,49.8126,-146.7995,82.4643,17.2619,43.8045,128.6973,88.7350,124.8566,28.4118,31.4791,-60.2199
97.4203,34.1156,27.2821,38.0083,-34.6457,47.8297,35.5620,-95.2409,38.4611,-138.7865,52.4363,-26.6875,31.2649,137.6272,69.9584,106.3512,67.3826,66.6549,-65.9818
120.9094,48.0887,81.9430,40.3446,26.3781,48.7391,70.6232,-69.6103,37.6118,-103.2466,68.4104,-29.7060,34.9343,96.0657,73.6404,58.0108,76.8366,77.9932,-72.0808
100.5443,55.1618,91.8252,40.8243,42.0840,54.0026,62.7621,-34.4715,16.5699,-43.6790,68.4148,-2.3419,53.6967,60.8544,74.4530,62.9118,44.3260,63.0664,-61.6426
70.6697,63.0487,64.6384,42.7760,47.0656,80.9030,76.9392,24.1752,40.5766,47.5091,47.5404,21.1205,71.1782,92.4831,72.6358,135.0539,32.8413,72.5957,-1.4795
84.7941,91.8495,55.4930,45.3135,67.9381,94.5698,141.2569,60.0555,116.4371,85.9318,61.9431,37.0334,48.7940,140.0732,80.0485,169.7424,42.5189,92.4846,65.6601
106.1327,101.1095,64.4957,55.4559,56.8395,65.5488,140.8192,27.2798,96.0205,22.5679,95.4965,40.1156,4.2730,134.3870,68.2331,145.1710,32.6628,73.1542,85.4394
87.7043,70.2060,57.9030,46.5975,-0.8246,18.8198,43.0091,-3.5560,2.2041,-3.7574,90.6753,24.4731,-9.3541,100.0146,31.7533,131.5590,8.0379,25.7429,76.6486
59.8455,50.9573,38.5217,11.7002,-55.5983,-7.0292,-16.5679,30.6560,32.0278,82.2886,71.1374,16.5962,6.4812,76.7468,25.0332,114.5474,-6.8895,-4.7156,77.4856
55.8304,52.6023,27.3915,-3.9459,-89.7979,-14.8016,-1.7611,78.1410,130.5592,137.4906,86.0765,22.8572,16.9371,53.0334,60.1479,59.7025,-7.6864,-13.5436,87.9787
64.6588,33.6990,20.0864,-7.6200,-116.6645,-33.9998,-14.5602,102.1340,109.8409,121.0265,114.1091,15.8380,13.0395,41.4420,77.4830,36.0098,-1.3524,-27.8333,98.3960
74.3327,19.0453,7.1334,-35.7613,-113.8437,-51.5950,-37.0258,135.1978,60.5955,158.3111,115.0893,7.0512,4.6169,82.9669,60.9201,88.1698,2.8032,-46.9872,110.7152
61.8357,40.3533,-7.2494,-39.1115,-69.8481,-20.0235,13.4935,166.4510,111.2790,206.4187,89.7806,20.5297,10.7846,149.9869,68.6319,151.3080,0.2562,-36.4222,113.0522
-5.5830,51.3928,-26.4645,8.0604,-34.1150,34.9626,59.3961,143.2217,129.6464,136.0565,57.6874,30.6218,44.6169,171.5612,122.3693,169.5478,-20.1084,-3.6468,76.5017
-95.9618,36.5777,-60.3035,14.8482,-52.0358,20.9133,7.8267,64.4794,40.4077,26.4309,36.6400,19.6792,70.6983,138.1261,155.7392,142.6933,-80.6441,-18.2787,-0.4337
-134.2120,25.9127,-102.0174,-49.3665,-119.6784,-67.1619,-71.8324,-27.8293,-30.4783,-30.4165,34.1635,2.7460,44.8984,82.4262,114.6592,81.4711,-155.5912,-89.4521,-80.9099
-111.4081,-12.4050,-126.0898,-92.4954,-199.8331,-130.1994,-112.7359,-95.8806,-54.4022,-108.4759,39.6349,-27.6145,3.2880,19.0323,55.2983,21.5505,-167.9702,-121.0584,-139.7673
-78.4891,-82.1906,-105.6537,-75.1787,-229.5785,-119.5538,-138.9216,-119.1382,-92.2478,-194.0883,43.7943,-63.4920,8.2746,-31.0096,58.6379,2.2412,-110.5514,-72.4126,-173.3796
-57.4344,-87.3676,-50.8984,-40.2867,-181.1507,-80.0680,-143.7292,-115.7414,-104.5778,-169.5469,54.8582,-51.3170,31.8126,-43.9341,85.3746,2.3540,-64.0371,-26.7175,-170.2308
-29.5154,-18.3203,-18.3933,-11.6301,-125.5634,-57.0276,-121.5893,-126.0549,-79.1694,-95.1275,82.6836,4.9538,13.6929,-41.0861,54.5539,-14.7038,-59.3803,-33.0107,-144.0005
12.5708,15.6015,-29.5916,3.1508,-133.4111,-56.3885,-132.0069,-151.1916,-88.9062,-117.4939,113.9985,30.9540,-18.1888,-41.4711,9.1478,-30.1477,-52.6318,-40.6648,-142.8454
42.3590,-0.8461,-26.7585,8.1214,-161.0375,-62.2329,-175.0452,-162.4594,-116.5668,-200.3426,114.7303,11.8936,-12.0097,-15.9589,20.1266,-20.0675,-24.1279,-21.2295,-161.3066
46.0890,1.4825,22.7693,31.8550,-138.4424,-52.7943,-174.0041,-162.0254,-98.1877,-219.9168,85.2552,-0.7886,-0.6922,27.4912,32.6601,-7.6489,13.1242,-1.8920,-146.4484
60.0542,13.9249,65.0386,61.9335,-85.8079,-25.8899,-131.2759,-166.9703,-70.8729,-171.5201,80.8785,5.3547,-29.3585,29.8070,-4.7524,-5.7237,47.7689,12.0674,-111.1466
92.5336,4.5228,56.5394,59.4152,-65.8883,2.2024,-121.6154,-162.9938,-81.1609,-139.6354,112.4827,6.0475,-61.6233,7.9186,-23.6223,15.7923,53.6368,31.6559,-101.5496
77.2037,0.7759,19.8064,49.1116,-92.0150,20.7710,-158.3217,-140.9881,-100.3702,-166.5690,111.4923,0.6751,-52.9128,29.1370,11.8615,51.7369,23.8961,42.0860,-99.1450
13.8561,15.0882,-9.8729,62.6162,-120.1462,20.8237,-193.2090,-131.0189,-114.8845,-196.9288,69.3917,0.6411,-26.6238,61.6981,37.0569,43.4551,9.3889,36.8055,-88.0954
9.8885,29.9925,-8.2994,73.3409,-108.4492,8.5469,-198.7804,-134.7900,-155.8959,-154.2550,61.4481,3.7881,-13.9040,49.8357,27.1522,2.0275,35.1522,39.9253,-104.3582
67.6698,52.8789,23.9852,78.4261,-71.3324,18.0521,-186.1179,-103.9170,-222.3071,-63.2862,85.1676,9.1221,-1.9033,59.0817,18.1218,24.3384,51.0476,55.4692,-134.7619
60.2883,83.1701,35.5567,94.8593,-46.8863,41.3559,-163.6787,-52.2173,-251.9701,-18.5277,69.1667,26.5337,21.5420,142.1839,21.7365,114.3973,31.5830,45.6631,-123.9609
-11.6167,89.5507,-5.7454,80.9449,-39.1019,16.0509,-120.8871,-67.7842,-197.5495,-57.0336,28.2029,59.4784,37.8654,204.9460,36.6012,155.1116,18.0218,-4.0868,-91.7182
-21.7718,66.0987,-43.0418,21.3016,-43.4468,-48.2293,-81.2010,-152.3132,-114.6984,-140.5002,23.8351,88.4313,38.5942,173.2895,57.7459,111.4221,27.6542,-44.2199,-92.7512
32.5563,46.2941,-22.9386,-19.2316,-61.0453,-68.6042,-95.3864,-205.4830,-89.2549,-205.2225,49.3939,86.6830,52.8231,108.0933,64.9309,67.3060,29.5775,-38.1983,-118.8080
55.2573,51.1475,14.1351,-25.7006,-63.9162,-45.7179,-130.5452,-196.2875,-98.5078,-210.9880,71.8735,56.2801,92.0264,64.5766,72.5810,58.3244,11.7160,-27.0267,-142.4407
33.4970,59.8069,8.5971,-40.8054,-47.2479,-48.3509,-110.5291,-183.3705,-84.9860,-195.8350,75.7818,29.6851,97.9222,34.4341,95.6554,52.6278,-8.9389,-46.4208,-161.6819
4.6872,50.6605,-27.1727,-45.3763,-61.9884,-75.3853,-75.9218,-200.9783,-72.9842,-226.0367,49.1881,30.3070,29.4454,25.6055,75.8408,39.6814,-14.9911,-64.9303,-167.5763
-14.3109,51.7031,-31.8648,-13.8347,-100.0661,-93.1556,-99.4160,-257.2346,-76.7915,-287.3051,19.7262,48.6887,-35.8732,35.7026,1.3112,17.4433,10.5967,-71.0003,-160.5538
-1.1346,87.0756,17.0132,10.4022,-94.2545,-108.5656,-131.9538,-336.7716,-73.3800,-317.2150,27.5644,63.4463,-20.5544,28.8997,-25.1434,-7.3918,59.0852,-88.5658,-169.1444
26.8596,113.6413,55.4567,19.6347,-69.8530,-105.3212,-134.0843,-351.1755,-94.6374,-281.6371,37.3307,70.4061,6.6488,24.8424,12.2532,6.4652,74.3922,-80.9383,-187.8346
7.5370,106.2810,21.5887,53.3815,-91.1141,-54.9290,-150.8190,-245.7647,-123.9812,-173.1339,1.1775,72.1232,-30.0288,64.5674,4.7418,55.1424,27.6203,-18.5693,-161.5314
-40.9045,102.4885,-33.2986,67.9261,-116.4383,-9.8334,-143.8000,-110.8543,-52.1675,-45.4431,-47.7128,53.7967,-59.5081,94.7379,-42.4057,74.7400,-23.0367,6.3908,-67.9047
-43.4585,84.0742,-35.3487,-8.5000,-101.9738,-35.1157,-47.3279,-40.3938,80.2740,5.7945,-67.3343,9.7455,-18.8039,59.8258,-23.0805,63.4371,-22.7216,-66.7294,44.1552
-14.8091,1.5134,-19.6051,-119.6622,-91.6588,-96.7271,42.1206,-15.2145,113.7925,-3.8947,-59.3186,-30.8050,17.9407,23.0684,41.8216,67.1628,-5.8369,-131.6406,114.1120
-12.4444,-73.8125,-33.7533,-154.9979,-88.2917,-123.7723,37.3483,0.5859,91.2785,31.3456,-25.1632,-49.6526,-5.3321,38.2661,55.2353,68.1746,-19.6803,-105.9776,133.0443
-26.2235,-54.3032,-40.9669,-113.8549,-46.7600,-98.6446,35.2367,24.8465,146.5835,114.6829,13.1715,-58.7917,-35.4356,48.8816,19.2572,44.0893,-44.1858,-57.4847,133.9594
-33.3447,-3.9841,-27.3356,-71.4197,1.3207,-45.1238,94.9965,86.5949,202.3474,172.1792,14.1615,-51.5395,-31.0044,31.5928,-13.6506,42.8586,-47.9403,-36.0994,136.2910
-41.4130,-3.0556,-34.5090,-55.8596,11.5216,0.8105,125.7123,150.1811,149.8103,191.0206,-0.1100,-21.5561,-10.2171,55.7744,-30.2872,86.1454,-41.0005,-9.5389,133.3216
