Fp1,Fp2,F3,F4,C3,C4,P3,P4,O1,O2,F7,F8,T7,T8,P7,P8,Fz,Cz,Pz
40.3227,-43.3385,-51.2458,-51.5119,-65.9655,-117.2154,-29.5602,-119.6924,-18.0159,-10.1412,52.1056,-37.2043,-3.0144,-18.4635,25.6915,-12.2760,-154.9071,-155.3290,-48.2354
-70.5658,-111.9085,-128.6021,-137.3102,-255.3119,-156.7806,-216.5292,-90.6251,-182.8207,-153.1289,-110.3999,-140.5027,-72.4654,-39.3985,-121.4544,-30.8097,-227.6328,-122.3189,-110.8457
-125.6487,-203.9993,-117.1031,-197.1207,-293.0916,-149.2463,-257.4596,-36.8045,-238.3645,-157.1908,-162.9655,-173.6691,-99.2448,-11.8153,-172.3619,6.7184,-179.5160,-77.4633,-103.2631
-117.9803,-187.7287,-82.0744,-167.0736,-151.4699,-108.4042,-142.1298,1.8820,-145.5088,-60.1775,-122.5611,-116.2795,-98.8440,33.1680,-130.4301,35.0206,-119.1143,-58.9313,-60.3814
-161.8492,-88.5281,-109.3433,-125.2715,-77.1334,-83.9949,-66.3642,7.9105,-65.1994,-103.9697,-151.3005,-98.0181,-88.7947,10.7311,-100.2446,-11.9587,-102.2815,-37.7684,-67.8707
-217.7485,-48.8086,-128.8821,-112.2245,-110.2735,-55.1280,-63.2502,3.5216,-49.3526,-240.3225,-203.4655,-148.5749,-41.5153,-52.9541,-93.8533,-76.1160,-75.8305,16.8358,-75.7617
-171.9584,-60.8757,-85.7467,-67.8429,-95.3063,17.7077,-43.3333,18.4730,-30.4028,-232.6810,-164.8912,-176.4087,15.3114,-41.8178,-76.4200,-72.6126,-48.0732,75.6520,-20.9151
-72.5237,-24.7646,-37.7192,9.2473,-33.7139,117.1020,-24.4595,76.0056,-20.4725,-79.7985,-96.1586,-154.6804,20.4335,43.6366,-54.5913,-15.5339,-32.7248,119.2384,32.6007
-16.9255,16.4234,5.0187,71.2969,-1.5040,204.9767,-37.5110,167.0389,-43.5851,41.9462,-77.1623,-124.3116,8.4266,76.3124,-52.1826,10.5889,29.5675,169.4426,41.4461
-12.2623,-12.8607,64.0337,132.0161,29.5185,243.8882,-32.0322,230.5797,-45.3947,54.0865,-91.7899,-100.0099,45.9520,30.7501,-81.9464,-25.0234,136.0746,216.5581,56.6202
-46.5873,-25.5658,80.5217,190.0533,69.6904,208.2064,-6.0398,224.5634,-18.7344,22.8701,-111.8430,-79.4219,97.4928,24.1892,-116.9010,-47.2761,205.9545,221.5462,77.7827
-90.2418,56.1978,44.0850,177.0830,84.8065,145.2266,-5.5085,185.6498,-11.7615,37.0908,-94.3354,-63.3051,100.3512,89.0073,-98.2332,-4.1256,209.6634,194.6273,48.9253
-83.8095,135.1692,35.6049,84.4304,86.1295,126.5791,-16.4204,151.4058,-17.8743,55.9998,-13.5891,-51.7344,71.0071,117.2815,-34.1577,27.2111,155.4112,167.8603,-19.2459
-32.9760,130.8771,43.0503,-2.9806,61.7050,120.7434,-28.0573,97.6641,-34.0279,-31.9448,61.2504,-57.7586,42.3100,68.1593,-5.6788,-14.4626,53.8404,118.7919,-83.3335
11.7444,91.2711,5.3863,-24.6778,-17.2992,58.8241,-72.6495,20.9118,-88.2626,-155.5393,80.2628,-89.9044,11.6481,21.7834,-31.1020,-51.5037,-37.4532,31.5042,-130.7066
23.1174,28.9221,-23.9467,0.7266,-87.0148,-19.4301,-119.8469,-15.4319,-126.3304,-132.4677,84.7908,-131.8323,-12.6273,17.3833,-52.9657,-24.9369,-76.5370,-22.9510,-135.1973
-29.7228,-66.5942,-5.7967,15.0344,-93.8989,-40.9265,-112.1427,20.1677,-87.9299,5.5879,86.6994,-163.7557,-15.7273,19.1749,-55.9908,1.6320,-97.9535,9.0842,-83.9592
-109.1719,-87.8669,-2.3455,-17.7652,-91.4507,-23.1961,-83.8828,78.6645,-44.7229,92.7961,74.7912,-166.5067,-14.8792,19.3733,-60.7095,-4.7061,-111.8595,59.5167,-32.6292
-91.2695,14.3189,-11.0551,-70.5135,-101.3144,1.5119,-72.4319,123.6711,-44.5700,118.2150,79.3783,-130.9367,-26.1050,42.1745,-44.5293,19.5786,-83.5520,65.3580,-6.9110
2.0540,75.2392,13.5589,-96.1087,-87.8975,55.4832,-32.5179,174.5568,-8.3451,140.4706,87.0932,-93.9311,-33.5541,83.1278,5.2451,91.7983,-36.3714,83.1239,47.7883
16.2129,12.6703,29.3165,-84.8222,-75.0208,134.5349,36.3760,227.1868,66.5973,117.8224,69.9179,-92.9308,-19.3861,110.3157,27.5244,129.4994,-1.4883,157.3199,128.1281
-26.9221,-3.9557,34.6817,-37.2723,-79.0903,191.3654,65.1577,236.1170,80.5205,21.3995,76.7190,-95.9834,12.2426,102.7423,-15.0312,74.4631,62.1546,224.8654,147.8285
-6.7006,109.3620,94.8129,40.1092,-46.3370,213.9852,58.9775,196.0316,43.8448,-67.2025,99.0036,-62.3550,34.4157,77.8894,-58.7404,-10.0896,144.8900,237.9139,92.2551
26.8735,198.4348,138.3725,96.5683,16.7323,209.1528,62.0810,143.7460,29.6809,-59.0938,52.0721,-14.4689,17.3911,61.5603,-52.6032,-13.8967,142.7876,216.5474,27.9647
1.0511,162.5814,64.7407,97.3168,37.2281,156.6609,44.4019,93.2197,14.6891,32.6933,-21.3737,5.4487,-25.1573,30.2182,-36.9886,63.5809,44.8798,158.0864,-12.7885
-29.8595,65.1315,-23.2836,74.0739,14.4155,67.5593,-3.4590,56.8049,-21.5701,114.8535,-33.9943,-22.6121,-49.7140,-34.3954,-36.6705,114.2421,-33.3253,59.0389,-22.7150
-36.5380,-18.2878,-13.4881,32.5070,-11.7482,1.3655,-26.7948,63.4396,-41.9829,134.7428,-32.9351,-85.0380,-60.8562,-70.6819,-31.6064,85.6333,-47.4956,-22.5203,5.0664
-12.3112,-27.8618,27.0916,-56.2882,-54.3779,-23.2800,-47.9944,86.9435,-66.8705,114.5220,-46.1637,-117.6724,-93.4008,-43.2716,-56.0578,30.8978,-50.9128,-51.1943,28.8002
69.6134,46.4302,49.7585,-126.9883,-120.0071,-31.2732,-110.3131,77.0811,-104.4346,60.0207,-49.7587,-79.4251,-124.6620,-17.4658,-123.4472,10.4828,-38.0783,-52.5694,24.3386
101.3038,83.7243,83.1989,-77.3008,-156.9445,-13.4988,-119.1827,74.0643,-69.8526,-8.3387,-127.3765,-30.8284,-115.8883,-21.9309,-125.4837,39.2996,30.6020,-26.5686,48.6221
-19.8581,17.5110,78.7839,42.4091,-129.7999,36.1053,-26.0304,124.4660,17.4297,1.2262,-263.8125,-32.3801,-99.9524,-23.7169,-36.7427,75.2355,91.0503,30.8041,90.6524
-116.2696,-8.9669,8.2125,92.9058,-80.4899,65.5498,6.9016,156.0268,7.8282,80.7298,-228.5451,-52.2203,-114.0654,-58.6562,-21.1050,49.6687,56.8296,63.7555,42.5894
-16.0166,81.3934,-21.9265,54.0091,-73.9069,55.0680,-91.5967,120.7737,-83.5110,92.8959,-15.6193,-66.2268,-120.5768,-146.6496,-119.4510,-11.3749,-18.9692,50.6955,-61.2499
127.1684,126.6927,39.5480,7.0906,-95.6963,62.1795,-130.7602,101.3853,-88.2679,33.5583,85.9482,-106.8335,-86.5437,-180.8119,-147.1966,-11.4036,-27.5935,53.2914,-64.8193
129.6336,33.3633,97.1432,-6.9276,-72.5096,105.6079,-21.6355,128.5734,-4.7570,3.9384,18.0691,-162.6972,-44.9650,-118.9182,-54.3985,25.1424,21.5573,96.9880,11.7844
39.1134,-56.7610,85.1782,7.4051,-13.0829,136.0071,56.1045,127.1089,27.3303,-19.1300,-26.7297,-176.3206,-22.5512,-65.8059,-10.2049,8.7413,48.8902,144.4795,34.9688
-21.9538,-30.7043,48.0017,48.7792,1.1236,142.0966,9.1889,105.2819,-2.4919,-52.1865,-14.1158,-144.7897,-2.8099,-56.6145,-66.6842,-21.0156,49.3141,182.7765,31.1502
15.7378,36.6009,52.4338,96.8463,-21.9292,145.1071,-25.0805,130.7362,2.2137,-11.4844,-12.5416,-123.1900,26.6184,-44.9616,-94.4328,-11.9492,72.1165,203.6225,67.0478
106.3276,35.5404,100.0741,106.1039,-7.6505,124.1556,29.0710,158.6075,57.7577,57.8382,-20.2521,-149.9798,62.9127,-58.3719,-40.7779,-19.7876,115.2411,171.7874,69.7689
95.3449,-29.7938,110.8760,56.6650,33.8597,70.8996,77.8002,125.6662,96.9922,49.0970,-76.7422,-202.8654,97.0979,-95.0702,6.2266,-30.0430,125.9861,101.8625,20.3286
-7.7876,-64.7821,45.5179,-19.3762,49.5896,40.0296,64.9471,88.6106,76.7406,22.5881,-193.2486,-222.2737,100.0043,-62.2257,-20.2334,28.3990,87.4550,62.6956,33.2762
-7.3147,-26.6352,-1.9660,-64.5006,52.2114,62.5574,48.3041,105.1254,36.4215,15.2290,-249.3327,-198.6472,59.9801,18.3687,-67.4354,64.5911,53.2143,78.2043,126.3261
64.8755,0.0205,27.2528,-51.6740,74.1147,100.1573,74.6701,144.6029,55.3218,-45.2562,-224.0955,-190.0327,27.7293,31.0648,-42.7672,-16.6813,65.6831,116.0769,213.5997
-3.0084,-47.9425,35.5611,-26.2240,110.7666,116.9814,120.0535,179.7178,126.9400,-87.0326,-230.2703,-209.5743,44.6339,4.1769,30.2162,-87.2909,76.7261,150.8437,282.0623
-134.7905,-85.5958,-31.6660,-52.1120,137.1722,119.4746,142.9166,213.4401,152.0827,-18.1546,-257.1372,-201.7052,68.6770,31.3984,40.3613,-37.0745,33.1241,176.3458,330.8592
-99.3658,-35.2645,-70.5166,-106.6678,125.0700,127.2895,132.2755,231.5994,110.5091,41.7256,-240.1643,-163.9097,51.8729,73.3670,-11.3064,32.8992,-7.7295,189.7159,309.6758
51.2512,30.4416,-8.6453,-111.8133,86.2066,145.9949,107.4114,223.0167,93.0096,39.3371,-226.4100,-155.6181,21.0956,56.1418,-27.0081,34.2198,23.1706,186.9818,244.3678
99.4814,16.8897,75.7836,-66.6886,71.6421,161.5172,87.1160,200.1431,114.8611,91.2622,-226.3851,-187.2458,9.8018,0.0090,-5.5644,7.3504,62.8295,165.3901,203.4819
-14.6024,-55.3710,66.6095,-35.0728,72.0507,159.0660,64.5773,180.4989,89.2391,164.0346,-204.5743,-221.0583,-1.3140,-40.6500,-7.0135,-0.8960,21.1911,134.1430,165.2931
-157.7115,-102.1437,-42.8294,-34.2501,31.0270,133.3499,26.4793,173.2631,17.6060,148.2936,-235.2348,-238.5060,-19.8638,-36.6751,-17.8389,35.2928,-62.3257,100.8355,107.8424
-156.5238,-85.4948,-124.7468,-51.3194,-35.6922,71.2581,-13.2653,151.8529,-4.4313,105.5184,-349.7201,-232.6880,-19.2692,-6.8814,-16.6054,102.5223,-100.1843,51.8772,77.3874
-51.9436,-50.2912,-92.4244,-84.6676,-84.7321,-17.7288,-37.0814,73.2953,14.6378,73.2583,-424.9196,-200.0591,-9.9235,-9.5897,-30.0055,106.9657,-87.4055,-4.3648,63.9396
-75.3157,-36.0011,-47.7222,-87.4042,-126.3949,-63.7196,-65.0075,-30.0822,-22.5716,-6.0987,-417.5306,-159.6029,-25.7741,-43.0020,-60.6388,22.6496,-59.7256,-14.8081,15.3566
-201.8620,5.7856,-86.7724,-8.6538,-142.4753,-21.3137,-105.5310,-69.4386,-90.1809,-60.7255,-401.0979,-129.5627,-42.8612,-44.6753,-87.7293,-26.0321,-21.2744,38.5911,-35.0412
-168.0208,86.9332,-115.9785,93.8301,-80.7261,58.5024,-97.9642,-27.2979,-72.5524,-4.9111,-373.4387,-112.5197,-17.5764,-23.3403,-97.5398,24.5740,36.6616,104.2847,-30.4259
-26.0264,94.9191,-65.6407,145.6834,28.7302,124.8055,-6.6702,43.0401,11.4571,81.7615,-312.9006,-115.5505,27.8968,-21.8537,-66.3626,87.7893,102.8885,141.8964,19.6939
-29.7251,14.3937,-23.2355,180.7000,112.5456,184.0131,85.6973,107.4089,55.5417,139.0089,-265.9193,-130.2551,50.2170,-5.7808,-7.9383,111.9468,148.7764,155.6689,84.9383
-101.6478,16.8426,-20.4896,224.1132,148.4463,216.6969,96.6089,146.8813,66.1186,183.9377,-239.2860,-118.4890,52.6657,40.2108,21.6189,133.5845,159.4839,148.2477,119.2672
-65.2805,147.6626,-4.0396,216.2995,128.3256,189.1991,58.4372,140.0893,80.5253,188.6896,-214.2378,-75.9636,47.4189,52.0922,24.4055,160.1098,159.1168,118.6280,75.9423
-15.7388,222.7075,-3.0962,152.2629,57.9840,140.4358,19.3231,98.1058,35.4610,159.9435,-216.7592,-62.4742,30.1616,17.9310,26.3339,168.0224,167.8322,86.4762,8.4808
-29.2930,150.1923,-46.5933,104.1923,-12.5057,118.4105,-34.0260,50.9967,-77.3247,142.9957,-235.9035,-117.2711,8.7026,-11.7390,-11.9910,167.1519,157.1715,68.4102,-0.6855
-39.9896,42.5432,-74.2593,84.9027,-65.0632,96.6228,-100.7191,12.4300,-147.4820,98.9816,-245.3769,-189.7216,-14.5389,-24.1157,-92.9751,182.4824,115.7238,48.7666,-2.3170
-72.2203,-6.6459,-78.7745,43.6223,-115.6281,41.2380,-146.2267,-14.9337,-152.3940,25.9892,-278.0778,-203.3168,-49.0087,-22.0284,-135.2016,213.1613,96.9375,-0.3096,-58.7283
-120.6728,-5.6233,-102.2349,-44.7884,-134.3929,-34.0482,-154.2276,-44.5051,-155.7386,11.4827,-306.0466,-163.3964,-69.4953,-20.1086,-117.6726,229.1042,117.4762,-65.9254,-87.6245
-88.9899,11.8144,-118.9551,-147.4449,-114.1087,-99.8307,-123.7943,-92.4042,-128.9486,30.4735,-256.4577,-144.2879,-53.3065,-70.4881,-88.9188,207.9789,104.2177,-87.9110,-37.8984
-62.3569,13.0207,-119.9805,-185.7750,-104.6058,-123.9436,-76.1530,-133.3872,-47.5187,3.3735,-203.3527,-173.5379,-42.3363,-140.2716,-62.1637,175.0423,23.2665,-44.0529,-10.0895
-152.6372,-7.0058,-142.7099,-134.8131,-85.7670,-94.6706,-54.2022,-138.7456,0.2058,-27.9414,-235.7485,-203.7083,-56.0694,-116.4238,-43.1803,164.3956,-48.7010,8.0938,-51.5708
-220.0103,-23.5747,-161.0085,-85.9396,-17.9219,-49.5034,-49.2065,-129.9869,-7.5851,-36.1639,-262.9910,-205.9892,-42.4188,-38.9385,-43.4638,165.4480,-48.7946,28.3555,-76.8038
-188.2496,-25.4379,-163.6229,-84.1683,15.4324,-20.1006,-26.0059,-120.0554,2.6031,-57.0142,-223.0383,-198.2648,-14.1604,-43.8623,-36.0881,168.4632,-16.4055,44.0282,-56.3365
-171.3901,15.6988,-199.4173,-54.1869,-39.2535,1.1545,-24.5090,-92.5128,8.0446,-54.0360,-190.5826,-176.4731,-53.1745,-83.4725,-25.5490,189.8629,-1.0790,65.4640,-56.4191
-125.8856,128.4135,-197.2325,0.0707,-77.3654,7.4765,-76.9716,-74.5135,-46.1798,-27.1377,-160.6034,-122.7627,-124.2364,-46.2540,-56.8872,199.6807,21.1360,70.1473,-91.7245
1.5986,222.2243,-57.5789,6.1294,-44.7995,-5.7145,-113.8152,-95.1390,-97.8211,-60.1431,-85.0923,-73.4397,-116.1224,-3.8342,-99.0884,139.9832,82.5311,69.6401,-105.9812
6.8415,181.9776,81.2424,34.8261,-15.7425,6.2417,-95.3765,-101.8700,-93.4323,-112.1106,-37.0321,-74.4599,-49.6741,-31.7474,-100.0980,43.5189,152.8508,82.9367,-70.8164
-131.4778,76.9785,59.1367,149.2892,-4.4212,55.0605,-67.2942,-56.0344,-70.8938,-102.0281,-46.4583,-91.7135,-14.6738,-53.0519,-94.5092,-2.1908,188.9602,92.1382,-22.9630
-118.0065,37.9652,-8.1115,210.5081,26.4515,74.5403,-37.1981,-13.7809,-49.9884,-105.4175,-32.3117,-64.3135,-4.4000,-46.0551,-96.5848,-5.8403,194.9253,84.3889,-20.2092
40.2165,52.8340,9.3932,143.8036,39.2927,37.2437,4.5479,-13.6746,-27.7687,-156.4792,-6.9588,-14.3783,4.4679,-75.5512,-56.8588,-42.5484,187.8527,60.0250,-60.5213
44.4576,80.1764,22.7099,72.6161,8.4521,-7.0509,19.2931,-23.0835,-11.2810,-162.6888,-22.7456,-6.8967,-21.0876,-91.2843,7.2238,-101.2066,164.6184,14.8784,-71.7725
-75.1699,130.4410,-27.5010,38.9200,-16.6482,-34.3429,9.2110,-33.1777,18.0694,-138.2950,-18.7212,-36.4809,-65.8014,-21.0134,30.4536,-114.4792,135.1701,-18.4469,-34.8252
-94.6486,146.2467,-57.3896,1.6965,-20.5941,-59.8836,-2.7415,-62.3463,33.1297,-148.5184,24.7777,-49.8730,-78.3602,53.5652,3.5230,-97.5734,124.7875,1.3737,-24.7488
-67.4939,63.8843,-42.1186,31.2291,-27.6796,-70.9265,-56.4509,-83.6696,-36.0624,-142.0348,38.3341,-42.4602,-75.9306,58.5060,-51.3912,-104.1915,129.0850,35.0040,-58.2118
-108.5927,-52.8804,-33.2319,119.9976,-19.7852,-51.4346,-120.5688,-67.5338,-119.9542,-101.0534,39.5515,-42.5625,-78.2130,47.6389,-90.0888,-114.6533,118.2474,20.2116,-59.8203
-137.9822,-122.7396,-38.0703,90.7581,24.7807,-33.1592,-86.7878,-45.8607,-97.2356,-77.0688,54.0541,-46.8235,-47.6546,44.1351,-62.4352,-106.0160,75.1141,-20.5262,-36.5749
-123.0204,-133.2731,-50.4373,-61.3699,78.0374,-47.6250,-12.7557,-52.2556,-37.3785,-46.1995,9.8453,-44.3477,7.4824,20.8041,-14.0521,-113.8687,5.5609,-30.2533,-72.5154
-138.4849,-83.8548,-74.5792,-136.2477,99.6745,-62.8168,-28.7609,-56.9566,-35.5400,-3.1972,-65.4928,-45.9271,21.1068,23.7501,-16.6858,-124.5070,-58.2423,2.9493,-134.7069
-152.7439,-26.2068,-81.2787,-80.9258,73.7691,-27.3631,-63.9715,-18.6687,-23.4784,-4.8642,-49.6933,-44.4396,-17.8318,79.0353,-24.1633,-81.5118,-72.8977,61.7896,-121.5975
-104.4081,-38.7029,-52.1224,9.4094,25.5388,42.3854,-27.6798,45.4295,11.6553,-10.2362,20.1941,-10.0210,-61.4013,102.1924,-4.2010,-28.2924,-35.0185,120.4715,-62.0181
-62.8208,-61.7280,-14.6692,102.1784,7.7737,86.0566,-8.6982,84.7984,-16.1993,21.8168,48.1910,62.1731,-69.7070,66.8659,-33.7014,-38.0980,14.9710,156.9860,-49.8434
-85.1519,4.5412,12.8425,174.4033,27.3315,91.6212,-45.2690,75.4528,-66.6143,-3.9628,86.5693,144.3391,-36.8718,61.0581,-109.0865,-72.8991,45.8747,167.5634,-88.1949
-106.0819,98.3517,25.4973,175.8033,34.6874,80.2002,-68.6228,25.2158,-83.5202,-106.9773,165.7168,201.5956,-8.1976,99.7266,-137.4430,-90.1974,44.0518,145.0249,-146.3082
-86.9432,143.6675,8.6644,140.9423,18.6373,45.8374,-99.4464,-35.3030,-129.6407,-163.7863,199.2708,217.0181,-26.3124,111.5452,-126.0394,-117.1728,9.3421,95.2266,-206.2625
-82.8804,171.2571,-20.5563,139.6908,19.7495,3.3743,-140.9705,-53.4602,-163.9565,-140.4407,178.8667,210.5355,-54.0076,100.0687,-117.4608,-129.3726,-18.1640,67.1687,-208.6375
-117.0783,149.7611,-28.2961,167.3136,29.7798,2.2602,-110.3421,-12.9470,-96.8611,-100.3612,160.2795,203.7366,-66.3183,111.3889,-93.9670,-88.5563,-12.4914,68.7790,-143.7196
-152.5767,42.4693,-40.4649,186.0027,-20.7051,27.6934,-84.3282,25.9188,-67.5928,-71.1146,121.9110,179.7193,-122.9988,123.0228,-91.3752,-61.5274,-30.2596,37.4561,-124.4766
-183.0777,-15.0652,-99.5667,167.2142,-144.8114,26.0320,-190.0824,20.3700,-180.7739,-69.4896,63.8716,132.7694,-215.5747,110.1497,-147.4257,-87.1954,-107.1072,-23.7208,-197.4715
-224.3375,39.7528,-170.9593,98.2718,-249.5836,18.4468,-288.8650,7.8504,-249.9138,-93.0023,46.5362,94.0375,-243.5213,102.1635,-171.9835,-95.1245,-175.3948,-49.0512,-257.2570
-274.1132,35.2712,-205.6079,12.5105,-253.1474,28.8985,-239.3428,7.3312,-193.6904,-100.7787,44.3970,68.9116,-218.3955,107.6002,-118.6584,-77.2076,-209.2987,-53.2226,-250.6029
-348.2328,-67.6295,-240.2621,-54.1891,-188.9418,4.2485,-182.3363,-14.8551,-176.5959,-100.3609,4.5342,56.0225,-226.9399,104.2675,-82.3367,-91.6283,-281.0911,-66.6889,-230.3479
-428.5508,-77.5233,-311.9901,-101.5143,-127.1611,-52.1367,-198.8897,-43.2997,-191.6661,-109.7911,-19.7398,96.6555,-236.2085,92.2589,-89.9462,-105.8052,-373.7186,-38.5922,-206.7565
-404.0330,18.1385,-347.7682,-105.6237,-75.8753,-48.9199,-160.3208,-29.5779,-107.9553,-93.4081,6.4710,176.0553,-198.2394,70.0064,-83.0848,-75.7256,-370.4625,31.1294,-172.5450
-261.5929,36.1362,-279.8023,-48.9110,-39.5309,15.8691,-78.7524,4.6094,-28.0729,-76.1472,24.0356,200.4059,-173.0325,28.1795,-84.4479,-57.8256,-273.8994,71.3148,-170.2631
-181.4389,-23.0547,-178.6568,7.1465,-50.2907,59.6240,-87.3127,17.9214,-67.9844,-110.8276,30.5233,175.2776,-167.6349,0.8770,-118.6627,-87.3346,-186.1638,99.2349,-184.3420
-225.2360,-13.1508,-125.3062,22.1309,-72.5343,81.0675,-133.0351,34.3173,-105.3399,-118.3792,82.0292,204.1279,-117.6814,28.7050,-123.2970,-115.8265,-119.6581,156.9395,-145.7547
-225.9974,64.2558,-83.9402,38.4674,-29.9861,125.5382,-106.3784,82.9269,-67.7688,-29.6037,144.5522,280.4280,-65.7378,87.0627,-86.5849,-108.9781,-54.2709,189.8012,-77.7675
-146.8740,103.4743,-35.8122,62.2712,55.7637,168.0755,-50.9021,142.9027,-42.3947,59.1994,143.5593,316.1368,-81.8325,123.2740,-67.1944,-77.6936,-46.4881,181.6239,-40.5941
-133.0275,81.8356,-43.1215,62.7595,109.9653,164.9172,-15.4423,185.0817,-31.1043,66.8035,94.9276,314.6927,-113.5550,112.7718,-68.4363,-57.6575,-102.0678,198.5760,-9.8105
-167.7945,60.8525,-80.5735,74.5779,136.6486,128.5245,29.5317,202.6092,17.3170,32.6914,53.8511,317.7951,-106.5900,61.1283,-61.8166,-77.3796,-119.1235,237.3719,43.7566
-120.2586,94.5050,-48.4450,126.4822,178.6113,107.0317,89.3598,211.3843,70.5336,8.8331,31.3585,314.6579,-76.8516,18.4905,-52.2786,-88.9310,-59.8325,267.3394,98.6284
-28.2517,153.6623,22.9701,170.8948,232.9072,142.1239,151.4621,231.3775,120.9282,27.5100,30.2957,310.2285,-25.0542,43.8366,-45.7025,-36.0443,4.7671,317.5377,150.3634
11.3344,151.1062,39.7304,183.1288,269.3717,216.1327,199.0270,244.7879,176.4179,71.4147,63.9001,326.4904,17.0188,97.1252,-41.8723,14.3032,38.8531,350.6191,186.3908
9.2518,82.5208,33.3159,187.5122,260.6045,253.7845,180.2629,224.4411,155.8759,65.1225,104.3130,337.0764,-20.4038,77.2189,-37.5166,-6.8052,69.2707,287.7742,163.6066
-15.9060,38.7565,57.7378,183.6043,210.1535,232.4039,105.9862,199.4483,56.5383,33.9297,99.0962,323.0650,-85.5391,-0.0996,-15.4663,-24.6866,100.6110,198.1451,103.5403
-45.8054,55.3906,70.1857,168.0052,170.4488,206.2153,68.3951,201.4080,21.9525,78.3817,57.4574,316.9205,-75.4091,-16.4875,0.1050,22.1611,107.5731,186.0244,67.9327
-22.1758,92.8122,57.7430,164.5142,166.2313,191.4582,69.4564,202.5499,66.0744,146.5000,32.5567,337.2315,-44.8719,45.0350,-39.1653,71.3917,76.0705,202.7633,48.9580
24.1745,114.0744,67.1834,174.7141,156.9220,163.3766,39.4021,195.8975,53.8046,142.5042,15.3127,366.2212,-79.9296,78.6355,-83.3854,83.5102,23.3527,187.1669,42.6327
14.6960,73.5145,83.8222,169.9921,137.9380,145.7998,21.2868,223.6646,8.0059,133.1369,-30.4024,377.4354,-115.2952,39.6229,-43.3706,83.4758,-4.3344,169.0102,111.5136
8.4255,-31.2297,83.0852,129.7962,153.3682,159.5858,94.6245,275.3860,69.1529,160.7209,-42.7840,351.6771,-81.6729,-1.4565,44.6734,67.3771,18.6313,146.0776,237.1447
79.5465,-73.6348,109.7500,65.0991,190.0331,157.4134,196.6739,296.4599,193.2390,138.7761,56.9717,313.9087,-17.1493,13.2291,94.3025,36.3160,59.9217,105.9542,294.4589
163.7605,38.2266,174.1377,28.8967,208.7055,123.6156,222.3871,289.9355,221.8290,77.7731,201.5597,314.1676,44.6965,57.4710,109.9424,25.4018,91.3978,110.5300,252.6319
227.4576,192.8603,238.1779,62.3876,232.0549,122.4094,188.7444,286.0815,159.6548,78.2968,277.5700,343.1696,95.4009,72.2609,115.7552,28.1125,141.5803,170.6593,207.2916
323.5146,254.4291,317.7926,129.7862,277.6292,173.2812,169.4913,271.4056,126.0211,122.6161,296.2264,355.5271,109.4301,32.1927,96.8930,19.2880,225.3095,202.3022,201.5591
411.2870,240.5419,404.5375,172.0267,305.0155,206.7152,170.0018,230.9628,135.9487,125.8674,313.2627,344.6798,99.3002,-24.4850,73.5162,24.0171,284.0432,184.9096,188.4465
404.1801,209.1898,399.5300,169.5941,296.6079,180.8185,146.9987,182.5476,120.7551,81.4238,324.8802,314.2057,96.2352,-31.4478,80.8258,59.7554,261.2916,165.7604,149.2086
340.7199,182.9095,301.1492,123.2373,280.8988,127.4839,101.7235,140.1585,82.2848,50.6088,328.6760,268.4727,82.0963,14.7500,94.0801,89.7317,197.4907,146.6010,122.3072
302.7125,192.6051,253.0262,73.9864,272.8610,81.4616,91.9534,108.6809,81.0012,71.0289,326.0058,247.9188,57.3383,45.8949,83.3457,82.9826,190.6657,127.0198,135.5423
279.2460,208.6974,287.7943,88.6548,265.7910,61.9750,134.0025,99.0270,116.1454,71.2975,280.2708,264.2828,65.3336,29.4563,69.2262,53.7870,262.2020,140.6005,177.9660
209.9490,143.1821,275.4151,131.8690,246.7991,91.6895,156.8945,109.7422,126.6103,-21.3622,204.6332,275.4604,86.0484,1.4482,69.9061,39.7257,320.0030,164.4901,221.1464
89.6873,36.4234,179.0104,101.2573,208.0389,142.3909,117.4086,120.0899,92.4355,-91.4214,169.2063,281.2090,60.0837,-15.8849,79.7690,56.8882,288.7826,138.4028,236.5215
13.8609,25.5503,112.3173,20.7938,174.0266,128.6691,79.5535,110.0672,56.9847,-28.1147,156.7823,297.5110,8.7128,-29.7425,101.2957,70.3728,210.1300,77.0883,212.1551
65.8096,94.9636,131.5870,-4.8280,170.5248,37.0373,98.5645,72.8148,54.2560,25.0345,99.9158,281.6706,-2.0905,-34.1166,122.4386,43.9458,162.2719,35.9521,168.1751
148.1227,115.7639,165.2813,21.9783,171.8068,-47.1999,121.1209,16.7733,65.4903,-48.7311,36.9243,236.0656,37.4923,-32.8494,101.4341,-3.7384,150.2752,13.4934,128.8643
111.6632,75.6202,145.8053,28.7615,155.8442,-90.7891,88.1643,-38.2081,55.6637,-125.6357,34.4688,231.0615,84.7698,-43.7722,40.1211,-41.9809,129.5299,-14.8023,86.7356
17.1663,27.6067,95.1976,-7.2294,155.1382,-126.4721,48.4227,-64.9061,33.5452,-138.4920,57.0403,242.5057,98.1021,-50.2861,12.7726,-58.7749,86.7535,-27.2966,42.4382
5.8009,-47.9621,75.4447,-56.7863,178.1371,-120.5866,75.7621,-38.0849,44.8690,-148.0536,56.3987,194.1242,80.2858,-34.7292,55.3831,-29.4395,55.8806,2.8701,34.5675
38.1838,-132.8417,94.7240,-64.3019,174.1773,-39.2603,134.0904,26.4767,87.0405,-121.3652,45.2475,129.7296,71.6005,-21.2442,95.3098,44.4690,61.7763,39.4306,54.3000
28.1717,-115.8313,97.5405,-20.8856,122.7264,16.1277,122.2249,61.2076,84.9437,-44.5690,29.9599,118.8187,75.4981,-13.5156,64.7529,95.4339,71.3401,20.9861,21.1908
26.9641,7.8315,65.0393,-13.6545,57.4914,-43.9698,24.4583,27.8741,4.1436,-15.9062,10.0193,127.7676,52.9050,3.9800,3.7619,82.2737,46.8547,-44.4403,-72.3428
72.0451,82.4396,54.6856,-65.6589,-0.0436,-136.4654,-74.4497,-27.5071,-79.5467,-26.5831,5.1815,128.6686,9.9052,-10.9728,-27.1954,49.4416,27.3573,-82.5987,-124.4337
90.3978,27.3212,91.1092,-60.6801,-46.8873,-156.2671,-109.0022,-47.3431,-90.1746,-5.8807,4.2606,147.8201,-10.6157,-82.3090,-41.2426,41.2979,65.3014,-55.7285,-93.0203
54.7816,-50.6288,115.7011,25.4359,-71.6523,-117.0036,-92.5627,-31.2830,-58.3755,0.6325,-7.3362,176.2764,-10.6315,-125.1927,-62.6805,44.6031,128.7673,-5.6592,-46.7304
29.2928,-33.6977,96.9618,70.8838,-77.6036,-55.6775,-74.6380,-5.4847,-51.7288,-18.0432,13.4512,190.1511,-10.1650,-79.4508,-74.3094,36.1659,170.1900,18.4864,-26.5273
47.8278,55.2885,82.5444,48.1113,-82.1125,22.6538,-81.2615,15.5349,-68.1148,-9.5812,61.9850,192.1857,9.0440,-12.6358,-69.2434,24.6932,199.0407,26.6253,-7.6249
88.6873,121.3927,105.8582,22.8926,-70.9913,86.8167,-84.3288,28.1649,-67.0976,-25.0479,33.2073,174.0097,54.3703,-0.7394,-61.4825,29.3905,209.3160,48.7419,13.4569
126.8137,123.3844,134.4931,0.7700,-23.4171,93.6790,-53.1537,29.2643,-56.8078,-79.7735,-86.9240,148.1976,75.9329,-38.7667,-45.5515,39.3614,172.9042,58.8623,7.5489
135.6297,85.8266,125.2061,14.6254,15.7986,39.1754,-35.1295,4.5966,-74.0995,-78.2258,-151.2874,163.2517,32.4948,-75.3374,-17.5457,36.2903,125.9439,12.3993,-32.4570
104.5279,56.8385,79.9589,123.7210,-15.1260,-37.3077,-80.8057,-44.3417,-104.5828,-40.8558,-78.1890,201.3855,-26.3666,-54.9299,0.9265,48.0303,109.0807,-42.4950,-75.7097
89.2569,100.8292,55.5723,216.4512,-76.1940,-70.8278,-121.0207,-62.6709,-105.3774,-26.1689,42.1668,190.4312,-14.4626,10.3298,-1.1187,91.1739,84.5273,-12.7154,-81.1324
158.4948,237.1817,107.3890,148.5240,-75.1634,-36.3458,-83.7477,-8.5792,-90.9980,30.9444,116.8716,125.9129,50.3364,34.5215,-15.9963,106.1182,47.7708,72.1778,-44.0440
268.4380,339.0716,200.4344,27.8265,-25.9218,15.0952,-45.3015,62.7975,-101.9200,86.0954,144.0473,48.4830,70.5966,9.9109,-41.7523,73.6882,74.5699,102.3741,-5.7962
301.1870,252.9942,242.5944,27.2596,-13.4387,51.3437,-76.0418,79.1014,-110.6892,15.9201,126.9368,-23.5550,47.2728,22.7651,-65.2130,75.6261,159.7387,80.6458,4.0522
235.4542,56.1234,217.8655,91.5955,-27.7994,95.0202,-91.4077,59.0496,-65.3928,-54.8538,46.3461,-64.0977,60.6240,64.1130,-60.3431,122.7191,196.4896,76.5670,2.7601
140.5525,-31.5020,178.1363,84.3739,0.9715,114.2508,-30.1953,49.0388,8.7673,13.6413,-69.1825,-61.5816,89.5145,42.1829,-36.4710,123.2349,155.4431,50.7831,15.4195
46.7298,17.4842,129.1291,1.0293,45.3687,44.0139,22.3270,36.2228,49.3486,82.0262,-138.1216,-58.3728,61.5910,-32.2366,-27.4788,78.3343,104.4570,-60.6018,32.7715
-10.7228,62.7685,61.1729,-89.7860,21.3095,-71.4755,4.3926,-0.9469,44.2297,67.4930,-114.8355,-69.3218,7.4355,-77.8643,-25.3093,68.2200,73.4633,-177.9551,20.2126
45.5780,64.2957,27.2385,-124.8957,-61.5738,-126.2304,-35.2482,-37.3137,14.7433,62.9839,-49.9338,-56.5969,-19.0884,-70.2888,3.4033,78.1475,51.6956,-183.1210,-19.3986
156.8282,45.6773,55.9810,-70.4505,-113.3186,-96.1100,-43.9132,-41.5841,-9.8162,29.5697,-29.8783,-26.9841,-27.8747,-26.2460,49.1056,52.3311,56.8281,-92.9179,-10.1753
140.9745,-26.9529,80.5045,13.6122,-83.1194,-26.3365,0.7236,-19.0470,17.0975,-79.9770,-67.4732,-27.6729,-12.7347,14.0980,78.5520,8.5100,92.5730,-3.1538,88.2724
-0.5767,-107.6723,52.0665,20.6837,-6.2410,32.2217,88.0393,5.1512,95.2064,-126.0720,-103.0047,-61.7985,28.2845,1.8346,87.0668,-25.3948,112.4651,37.8907,177.5142
-75.8411,-66.3052,17.9906,-41.5480,38.6468,44.3790,129.9902,22.3291,137.3952,-66.4717,-100.4092,-96.6324,32.3616,-37.2536,77.2052,-45.6287,96.9790,30.0851,161.4880
-16.8531,68.9022,33.9942,-54.8541,19.8498,24.1461,71.3470,43.2030,99.5177,-4.7757,-73.3098,-106.7143,-5.8635,-45.5980,45.8940,-35.6711,89.6313,-12.4531,103.1696
75.3927,135.9511,87.4468,23.5189,-3.2586,-0.6746,16.6603,63.0163,63.2139,62.0902,-38.2736,-94.4439,-3.4856,-42.1555,20.9797,-8.5398,112.9763,-52.7627,90.9468
118.1819,87.3176,119.1630,90.8938,25.1709,-51.6815,54.7690,57.8813,85.3133,126.5762,-7.2770,-100.7923,40.0082,-45.3827,27.1760,-5.8354,126.3192,-47.9807,95.2194
91.0555,-3.5038,85.7132,59.5084,66.7916,-118.2354,92.9271,33.6679,99.7806,91.5925,3.8050,-141.8242,45.7775,-22.3957,29.0220,-20.5346,99.5360,3.1637,78.5442
18.9307,-64.5443,15.9004,-14.7598,70.8688,-114.4590,59.2340,27.3001,63.0283,18.7448,-5.1233,-163.7001,10.9096,0.9051,3.8163,-31.5324,48.1275,62.2699,66.8034
-41.3071,-53.7099,-26.1231,-56.2603,62.3084,-39.2821,41.9631,39.4816,30.1672,25.4497,-19.8237,-144.1557,-7.3300,-19.2076,0.6343,-59.4827,-21.0928,98.4239,51.4241
-87.4017,-7.3615,-49.3332,-102.5705,66.5734,-3.9071,69.5133,26.4534,20.0129,30.0968,-25.2360,-133.4823,21.3438,-32.8314,31.7164,-100.6400,-105.0100,103.0358,-6.2985
-153.6767,-14.4384,-110.0023,-174.2290,53.0722,-23.7529,37.4037,-23.5189,-18.6894,-26.4574,-3.9866,-134.9479,87.8293,-8.9057,29.2403,-114.2823,-153.7544,80.0190,-82.2979
-208.7195,-64.1701,-184.5697,-176.1367,13.1254,-0.6028,-56.1866,-63.9440,-83.9410,-44.8605,32.9908,-104.1996,129.5438,5.2469,-20.1542,-109.2722,-132.0201,52.2724,-128.7617
-218.6617,-87.6564,-208.7667,-85.1698,-24.1657,70.9595,-105.0821,-65.4245,-127.0658,-25.5633,39.6819,-64.2843,86.4387,14.5578,-51.2565,-129.0830,-100.3726,33.9039,-153.4507
-202.2672,-103.7933,-199.4806,-24.4355,-73.1083,93.7081,-119.0438,-63.2425,-148.1685,-50.0177,21.0843,-55.1364,1.7025,43.1925,-47.0777,-162.1982,-130.2895,-7.1034,-187.1813
-146.4800,-121.2113,-194.2064,-35.1023,-155.3080,46.4423,-163.8142,-81.8112,-159.0748,-69.4236,39.7386,-44.1496,-47.5483,45.6015,-40.9286,-154.6099,-186.1635,-80.9533,-217.3997
-66.1286,-83.0656,-166.1908,-27.6006,-207.5903,4.2577,-182.5885,-73.8041,-140.4435,-33.4762,81.7897,-6.7297,-55.4930,31.9875,-35.1154,-100.6471,-188.1390,-121.8365,-191.2125
-73.8751,-36.6722,-119.8791,-3.8093,-173.6830,1.0469,-124.0169,-18.6658,-107.1427,-12.9162,64.7869,29.8004,-36.1765,68.8544,-29.0361,-68.9612,-142.7376,-104.0905,-99.3163
-172.2265,-71.4677,-126.2238,-55.7388,-122.6867,-9.1286,-72.6023,6.5398,-99.8450,-43.8241,4.3443,58.5723,-8.6783,98.3205,-46.1774,-106.5762,-125.2260,-92.7253,-27.8569
-196.7840,-120.5516,-178.3181,-155.0793,-128.3315,-42.9310,-82.1000,-31.6944,-106.2339,-66.8906,-12.5116,71.8950,-27.1440,38.2680,-78.6719,-155.1551,-154.1867,-87.9503,-39.2193
-109.6134,-118.5463,-177.9830,-183.1815,-135.3837,-40.3767,-85.6488,-43.4901,-92.6558,-28.0623,1.5016,26.2234,-77.4199,-31.9641,-87.2962,-144.8930,-160.4403,-16.9294,-59.0071
-46.3925,-137.5553,-109.2066,-128.3738,-84.5796,4.6177,-49.0438,-0.1183,-61.8649,53.3629,-21.3873,-50.4004,-70.7049,-35.7820,-60.8634,-115.3365,-104.4476,67.1974,-19.0904
-59.4103,-166.7826,-62.7125,-85.0919,-39.5899,-23.4660,-26.7385,-18.5887,-32.7221,76.3726,-60.8617,-42.6379,-21.1468,-42.1962,-32.5392,-137.4870,-50.1787,23.7907,1.1283
-97.0863,-119.8385,-84.0766,-108.5967,-73.4776,-176.8212,-62.6027,-149.5450,-36.3955,-22.4635,-77.1302,73.4988,-20.2576,-95.9031,-48.9348,-200.1782,-68.9171,-136.6019,-66.1594
-142.3860,-91.4737,-139.9897,-174.3986,-152.5858,-322.4831,-139.6981,-277.5972,-91.7186,-152.3320,-118.8285,185.1235,-58.0306,-133.2114,-105.7964,-248.9292,-149.1379,-275.4794,-132.6079
-211.2737,-199.9358,-212.4500,-243.8295,-204.0469,-335.1231,-186.7121,-306.0881,-135.1509,-205.6437,-230.9410,212.2990,-75.4516,-107.2793,-130.5578,-249.0684,-242.0177,-325.1880,-109.1623
-332.6216,-328.9621,-309.1765,-301.6118,-209.5177,-261.4696,-150.6895,-266.3868,-107.3820,-200.0846,-353.2715,178.5100,-83.9580,-48.5581,-94.2760,-210.5274,-307.7668,-312.0376,-48.3305
-499.5023,-360.7577,-403.0084,-335.0353,-210.7722,-201.3149,-105.0448,-223.6558,-89.3790,-187.4499,-403.6127,120.2912,-110.3543,-25.7977,-66.6331,-195.8300,-319.0271,-281.7247,-34.9103
-575.5821,-359.2312,-438.5433,-324.3481,-254.0353,-175.3020,-150.6949,-198.0480,-156.2249,-194.6094,-391.3021,58.4947,-152.3930,-61.8951,-86.3746,-223.2669,-292.2813,-263.2773,-62.3796
-438.7504,-329.9395,-389.2282,-263.3691,-318.0088,-146.8904,-221.9624,-169.2717,-207.6351,-233.2574,-374.6775,31.4305,-191.7461,-76.0810,-109.4990,-211.2667,-257.7870,-230.8565,-76.3854
-197.2377,-183.1711,-281.1580,-156.7908,-329.0595,-74.5768,-202.3013,-114.3799,-154.5448,-239.7311,-353.7482,54.5064,-184.7376,-15.4495,-120.2135,-144.4691,-186.3153,-144.8554,-62.4228
-51.5457,4.8331,-171.9483,-13.1092,-263.5557,31.2762,-133.5528,-56.0138,-86.0712,-158.9245,-300.2133,83.1308,-130.1709,26.4482,-137.1432,-133.0943,-66.5321,-50.8799,-43.4806
-62.2333,54.7348,-104.7018,125.5316,-165.4431,91.4684,-92.6088,-38.8186,-82.5439,-86.2245,-259.9885,76.8688,-98.0743,-16.9699,-139.6535,-195.8592,16.9260,-15.5917,-24.4304
-164.6306,-18.2236,-74.8643,192.8659,-76.5103,73.8093,-48.2362,-53.1345,-86.5490,-111.8937,-288.5371,51.8737,-90.1490,-62.8462,-112.7973,-220.8849,23.5549,-4.1346,2.7297
-226.3216,-36.0742,-53.9391,166.0600,-21.0450,45.4620,5.2878,-56.7154,-53.5686,-168.9306,-324.0305,41.0215,-37.9220,-54.3738,-80.1260,-179.4751,22.7021,37.3361,15.7592
-126.0705,63.6298,-29.5267,80.0764,-1.3472,31.4939,14.2996,-49.1446,-20.5413,-192.5387,-286.9040,52.8574,30.8517,-32.9408,-47.4451,-140.3983,41.1391,73.9709,1.7565
67.9641,160.5997,5.6146,-0.0002,27.8015,-16.4395,11.4086,-52.7007,-1.6294,-201.1584,-222.2438,74.8474,50.6457,-14.2823,-15.3331,-128.5359,60.3982,74.8771,3.9947
163.6928,150.9104,64.1068,4.0634,94.3130,-70.6891,57.2963,-70.7223,27.2340,-195.5894,-190.3475,86.6287,58.8671,-1.2115,-3.6035,-132.8960,126.3118,84.2728,42.3924
122.4286,78.4810,119.4207,94.9301,147.7863,-58.6392,104.4434,-101.2360,56.6865,-174.8253,-165.9132,83.7324,83.2803,-29.3011,-1.6557,-138.4715,225.9164,119.8455,64.7656
42.7637,20.1777,106.4601,136.5039,148.2725,-21.9205,98.1748,-127.4830,54.5223,-141.7715,-150.3239,76.9830,74.2460,-76.5267,9.0013,-106.9311,219.2975,129.3248,56.1718
-28.8021,-22.9059,19.2798,31.5443,129.2675,-31.7580,74.3253,-108.6929,34.0223,-49.2311,-179.8013,48.5104,45.7838,-75.5054,6.4980,-36.4193,86.8479,95.5111,77.1426
-72.6713,-51.5991,-57.9672,-104.4350,119.2590,-37.6136,66.3578,-41.5017,45.6613,76.3032,-199.4429,-22.0237,59.6391,-23.1887,-1.1326,22.5796,-10.6969,68.4554,133.8716
-55.0821,-51.9931,-64.8460,-118.4186,103.5290,18.5544,63.6416,20.2838,85.1057,107.0028,-144.9947,-77.5229,86.2183,43.3999,35.0227,50.0993,-9.1220,67.8630,150.5907
2.6356,-65.5819,-27.9077,-37.4225,71.8933,84.6012,69.5393,48.6136,91.6545,62.1388,-78.5650,-52.0465,69.2441,91.2897,98.3766,50.7563,17.3833,64.4546,109.0744
59.8743,-90.1723,22.6403,43.8759,36.0996,119.0465,93.4171,70.8549,73.9191,86.1150,-64.6083,3.1346,33.5614,83.7045,128.1868,26.2324,57.6722,66.3736,82.2861
104.4486,-23.6571,92.3417,112.6582,21.7539,155.1627,119.0050,96.5422,97.5995,149.8824,-58.8472,6.6502,24.3527,52.6538,119.1925,18.6406,126.3759,100.6291,104.2618
104.6287,110.6910,143.4183,158.2437,42.6419,190.2972,126.7169,99.0199,130.6571,134.9004,-32.6319,-19.8987,42.7668,90.5377,98.0061,53.3531,138.6620,123.0138,121.1516
46.0166,121.1346,94.4956,127.3035,64.1919,183.1258,116.7791,80.8036,100.1248,100.2944,-31.4612,-36.4667,62.7649,173.7812,84.4009,76.1439,30.5656,82.9543,92.8386
-25.5873,-32.9772,-49.6314,26.7058,48.5966,145.3450,101.8469,70.2803,50.9009,131.4248,-63.4530,-58.5313,59.1956,170.1091,92.2478,66.2507,-124.3955,17.7542,41.7720
-78.6980,-165.2631,-164.9154,-67.5093,6.7318,96.9818,74.2853,51.5583,32.7886,128.4348,-74.1238,-66.8252,38.3216,64.4214,91.2301,61.4717,-215.0441,-39.2003,-9.8188
-88.3215,-149.7600,-156.0247,-111.4768,-54.5310,21.9766,9.8320,-4.0846,-6.5953,4.0979,-37.4490,-31.1374,27.4297,-14.8139,50.3532,36.4937,-196.1033,-101.2075,-46.7893
-14.4071,-44.7630,-68.6339,-117.0134,-125.6050,-37.2308,-52.5012,-50.6643,-53.2564,-123.9338,6.8619,-18.9425,30.3460,-0.5056,23.5902,-33.2022,-93.7007,-109.0351,-27.4558
74.9084,24.3654,-10.2233,-102.4637,-127.8174,-2.1229,-29.1598,-32.8670,-22.5074,-122.2235,13.7942,-75.1695,39.8396,31.3612,47.4185,-75.9726,8.7901,-1.1892,44.1569
65.0285,-8.2113,-9.7592,-75.0248,-26.2471,77.7708,57.3346,3.3701,36.5799,-48.3107,2.2742,-96.3308,55.1773,3.8290,60.2588,-65.7201,36.2619,109.9764,95.8339
18.7689,-73.6439,-12.8610,-50.7577,76.2723,84.5928,110.9740,2.9598,47.3370,-13.2986,8.0367,-22.0301,60.9828,-29.3828,53.2643,-54.2296,5.6578,101.7074,130.1294
38.9876,-74.6204,8.9483,-62.0679,115.0534,37.2999,133.3033,9.6824,78.9016,22.1081,-6.0389,30.6758,52.6704,15.3091,85.1611,-16.0515,-11.3346,47.3299,208.4446
45.4209,-62.2651,23.8581,-114.9218,134.8959,20.8502,148.9772,46.9961,134.6265,123.3327,-61.1983,-9.5077,47.7954,78.0242,104.6506,69.4659,11.2639,22.4907,255.9385
-0.9904,-104.8930,23.7301,-154.1138,115.3117,8.3139,88.8323,46.8186,75.9171,191.9322,-60.8941,-38.4551,34.9041,58.5565,35.5900,89.7215,54.8010,-32.9829,165.5031
34.7603,-113.7573,50.7680,-127.1939,13.5343,-34.6433,-35.0441,3.1422,-65.6764,137.3919,34.6502,9.6049,10.1306,10.1285,-37.9553,1.3068,116.2622,-103.1248,47.7379
142.5192,-44.8857,106.7492,-53.4477,-56.6012,-31.9364,-70.7775,0.3534,-97.5347,68.8885,93.4990,53.5505,24.5420,15.5487,-26.8430,-63.8053,195.3410,-77.1575,54.8714
139.2016,-1.1173,130.3499,28.4383,18.3761,47.5396,15.0581,47.5455,-8.2688,93.0068,53.4740,39.3303,79.6646,30.2833,11.6848,-39.9199,257.3885,19.0985,118.8943
43.9233,13.4356,103.5471,115.5002,152.3948,121.8118,109.6187,85.5622,76.4708,148.5762,24.9391,13.6782,108.4658,21.9968,35.4751,-4.2810,271.5660,77.1045,139.3666
41.9646,64.2329,83.9035,191.9944,217.4386,159.3185,175.1340,115.4298,134.8428,176.7990,44.4657,8.1663,116.2714,26.9223,74.7629,4.3180,245.3276,92.9110,156.3042
124.5480,63.3709,98.5113,208.5730,204.0608,184.2442,214.3396,155.2918,169.9637,193.1684,33.0938,10.0051,145.1175,22.4390,96.9208,9.9744,187.5707,92.8226,176.1787
127.9914,-36.3816,97.3872,147.1001,153.3421,157.2521,178.7095,180.4233,140.6431,191.9413,-6.6584,13.0414,150.3318,0.3414,63.9185,20.2937,101.8956,63.2056,146.5833
17.8033,-85.5468,35.5342,53.5093,103.8850,71.2639,108.0969,192.0049,90.3554,193.4200,-32.6625,-0.4814,104.2069,31.1583,40.5355,46.7092,17.0791,36.6118,107.1407
-95.1817,-49.9958,-66.6991,-1.9403,77.1427,30.5802,101.2744,208.6981,90.5625,240.5235,-71.5453,-47.1200,72.6918,77.1148,67.2277,90.4630,-51.2865,52.3165,101.3642
-120.0779,-69.8791,-150.7943,0.9940,54.3104,67.8851,119.6211,205.1571,111.2956,266.2597,-107.7294,-80.5986,79.5422,38.5652,89.1108,112.3190,-123.5396,72.3716,93.8819
-68.1711,-131.9290,-169.6244,-6.9429,46.2450,84.2095,106.8282,177.2866,129.9645,206.3116,-81.3097,-56.5059,83.7995,-2.3865,88.1943,106.2226,-183.2944,58.8745,100.5284
-7.2181,-122.6832,-124.7598,-85.0226,95.5991,43.4276,137.1759,166.4803,175.9292,158.1085,-34.5027,-23.2551,80.2310,48.7378,95.7350,108.8662,-189.9677,14.5390,146.3460
28.4217,-86.4073,-70.6754,-164.0537,142.4768,-1.6526,203.9347,157.3055,198.3880,181.9816,-34.4184,-34.1511,71.4932,78.4302,91.4348,112.7986,-177.3509,-59.5211,140.4555
23.9579,-103.7870,-61.6396,-151.2615,90.6663,-48.0434,174.2961,100.0784,136.5225,172.5965,-47.0886,-63.7575,47.8344,19.0423,53.8496,92.5128,-191.6024,-121.6341,40.1992
-62.8513,-149.5384,-98.1860,-87.0215,0.2589,-108.2204,74.0819,23.7399,61.6322,92.7138,-46.1808,-89.1235,36.2078,-25.2751,22.6924,68.1186,-191.9869,-116.7611,-55.7669
-190.9259,-177.0026,-140.2126,-54.8648,-21.0625,-142.9492,39.1504,-18.8292,32.3939,38.1900,-66.6671,-117.7235,40.1752,-31.0795,12.7478,50.0386,-154.5770,-100.1282,-110.2098
-200.4473,-129.8168,-152.3821,-52.1596,-6.9728,-138.7145,32.2317,-38.1411,-15.5673,31.6629,-98.5074,-124.4985,14.3882,-43.2164,-6.8592,16.2041,-129.1057,-139.4517,-158.6215
-56.7347,-4.1513,-125.2814,-48.5688,-20.7633,-110.6356,-34.4456,-40.1365,-94.0827,24.9167,-99.1979,-102.3697,-30.2276,-19.0517,-30.8003,-20.5471,-105.9557,-155.6805,-155.8577
69.2732,40.8753,-67.4196,-22.6166,-40.1631,-45.0201,-95.3787,-0.2267,-119.0977,28.3409,-62.4893,-104.4843,-49.9653,17.5380,-47.8119,-24.6887,-26.6948,-89.5565,-95.1908
78.5372,-66.2673,9.8071,59.6882,-48.6552,25.6597,-104.1486,47.5392,-90.8102,55.2694,1.4290,-134.2635,-58.2846,-27.6974,-84.4388,1.3334,67.9945,-50.8210,-85.4158
43.3905,-122.5322,82.8331,156.0821,-50.0828,25.0742,-113.9427,40.8994,-74.2963,77.9356,44.9411,-132.7826,-57.8573,-75.3067,-112.9638,37.2671,97.5710,-90.7869,-121.6076
22.0616,-27.5905,107.3026,159.2770,-12.6841,-11.1478,-99.7379,8.2512,-55.5310,102.4054,8.4716,-105.4513,-24.7212,-19.9464,-66.1084,70.4365,75.6586,-85.3808,-83.9526
48.0816,53.6172,81.8960,93.0004,55.2324,7.1276,-27.6417,16.2354,-21.0442,138.5346,-26.6321,-97.9063,2.0155,22.4265,2.6972,77.6205,58.2879,0.8510,-11.0051
190.2619,77.0983,102.2448,82.3780,74.5734,36.0970,-12.9766,35.5987,-41.7296,129.5844,93.3569,-99.2745,-6.0935,-32.7254,-15.5104,47.8549,79.0045,36.6634,-33.4748
396.2260,139.0827,240.5735,128.4036,13.8963,9.1998,-118.7233,-1.4032,-133.4164,39.9934,329.6563,-97.3136,4.0183,-64.6646,-82.1125,15.5482,153.2623,-3.9236,-115.8733
503.5323,182.5888,403.0875,159.0339,-74.1386,5.4751,-217.8148,-60.6443,-212.7339,-61.2242,514.6439,-110.3984,34.3354,-24.1595,-104.5367,18.6225,235.2775,5.7836,-153.5174
525.3527,175.8682,455.6355,191.6271,-126.3391,86.1944,-236.4472,-59.3578,-243.7342,-92.3960,613.8763,-119.6702,27.7649,5.0066,-114.2948,47.8708,252.7162,96.7976,-157.2947
597.0659,247.7032,428.3518,234.4772,-103.4013,163.0392,-234.8067,-3.0889,-241.7915,-54.5953,666.0261,-111.7298,12.4841,20.4118,-140.9727,71.7966,225.5257,175.3774,-151.7012
642.6264,346.0338,419.2718,223.6982,-14.7983,174.1794,-205.0219,53.6758,-180.9744,13.0158,630.8206,-135.1088,36.7159,49.5731,-112.8310,82.8916,213.6122,211.6391,-98.4546
498.9836,278.9258,400.8268,169.3395,71.4066,169.4112,-100.5996,105.5755,-68.6917,89.8515,509.0872,-196.7659,57.9115,48.5839,-27.9088,95.2747,202.8144,238.7893,-14.8601
288.6814,123.7943,318.3463,144.6480,108.4190,170.9534,5.0529,148.6210,8.6732,151.2567,413.1479,-225.1230,52.1915,31.8650,20.9438,121.4374,171.5267,234.7651,19.9876
254.1908,65.0052,242.7731,141.2873,113.3153,147.0081,29.8023,141.8801,24.3021,165.3969,397.2503,-192.9745,60.8122,61.5554,28.1465,161.4111,140.6929,172.2077,-9.3199
349.0013,61.8359,234.8869,111.3075,93.7456,99.0837,7.8241,93.6327,30.1262,134.1312,393.8683,-146.4266,75.4102,89.4662,47.6669,185.6932,98.5507,98.5040,-51.5802
347.3916,49.1444,215.2650,55.2616,34.0883,54.9499,-12.4797,63.4764,25.4366,81.5211,344.5945,-125.9685,52.4843,36.9286,57.2328,147.7201,29.3678,61.4177,-70.6775
203.3974,55.1580,119.8964,-9.1141,-33.0593,35.1042,-28.4702,58.8836,-9.5159,25.0599,266.6221,-141.6056,8.3715,-50.1604,29.8459,68.0746,-30.0618,45.4171,-62.2405
39.3360,14.1949,10.2705,-58.9291,-56.3487,41.7820,-35.8034,48.2159,-26.1663,-7.1374,201.1238,-168.8660,-14.8770,-75.2776,9.0739,43.8734,-87.7125,20.1163,-46.1572
-60.2004,-102.4138,-64.7744,-88.3683,-52.5102,27.3279,-36.6826,30.7739,-7.3694,-5.7329,157.4238,-165.8879,-16.9255,-31.1556,20.9041,87.2760,-203.6931,-25.7247,-56.9358
-84.2250,-139.8731,-132.2440,-149.3751,-68.1123,-44.1319,-38.8368,7.8060,-12.6654,-19.8701,115.1570,-141.8147,-34.8739,-2.3017,31.1989,79.4591,-334.3152,-79.5804,-93.9940
-62.7983,-56.6816,-179.1155,-230.7608,-99.2818,-93.6575,-35.7647,-24.1663,-45.8563,-66.4148,79.8597,-133.6633,-87.5133,-44.4304,5.0583,-5.9353,-355.0789,-93.5470,-111.8047
-51.1960,-9.9371,-148.0423,-198.3468,-119.4310,-38.5642,-42.9793,-33.9796,-48.7067,-84.5682,86.4666,-121.5652,-118.8998,-86.3608,-44.4055,-33.9400,-244.4324,-46.2409,-92.2306
-54.5253,-37.2909,-57.2953,-40.7484,-124.2388,41.5254,-66.8843,-18.7500,-22.7929,-72.6778,122.0060,-85.2880,-73.2989,-43.5237,-57.0341,31.4579,-100.9062,-9.3867,-75.9931
-20.4240,-48.8340,8.3584,47.4358,-113.2423,28.2294,-59.5281,-39.4147,-9.8574,-99.5263,125.7134,-73.8895,-15.3888,16.2140,-13.5677,63.5597,-28.9121,-51.3057,-107.0378
40.2647,-45.2512,9.7805,-20.7691,-96.2554,-45.4999,-34.0998,-103.6315,-16.4386,-139.8784,81.3344,-110.1671,-23.7628,-5.9237,12.4876,34.2429,-68.8562,-125.4792,-184.3085
53.5499,-53.5310,-24.1822,-112.8576,-109.8444,-90.9648,-74.3065,-145.4327,-36.0236,-124.1903,32.7570,-137.9655,-48.0337,-57.8770,-10.1079,33.7735,-155.9530,-157.4192,-257.3486
21.4375,-46.8065,-51.1504,-124.9098,-157.6783,-114.1283,-134.5373,-157.7231,-57.6088,-106.0738,22.7828,-119.7316,-41.4452,-62.8785,-12.9011,38.1314,-162.8589,-153.0615,-265.8580
7.3483,-28.0306,-44.6638,-60.8073,-188.2460,-143.7369,-109.0732,-185.1413,-61.7373,-157.9386,52.4465,-73.3721,-61.6073,-56.9187,3.4720,-32.0974,-52.5840,-139.3895,-221.0619
14.0273,4.1777,3.6261,65.4974,-185.6567,-146.1067,-79.9273,-213.8149,-69.4783,-230.1575,70.1709,-20.5232,-118.4839,-68.2903,-35.0876,-106.6258,86.5029,-107.4091,-202.7216
23.1070,85.2471,77.7446,192.8307,-187.7326,-97.5422,-149.5617,-209.6369,-109.2003,-264.8372,32.1653,21.4293,-147.3495,-53.7621,-96.3046,-86.1675,177.4069,-68.6247,-223.6265
62.8479,166.4587,133.2284,218.1265,-193.7289,-37.8355,-201.3850,-186.8168,-133.8391,-268.6754,-16.0032,36.5770,-149.7243,-2.5597,-102.9042,-21.3284,213.4474,-63.2075,-199.0036
110.3663,148.4022,130.7043,139.2221,-170.1431,-13.4468,-140.3135,-156.1711,-94.2810,-236.4293,-16.8198,27.7122,-149.5566,42.7282,-72.3752,1.9059,207.7641,-87.2782,-104.2355
78.8587,41.2343,89.8636,49.4524,-126.5177,-31.6762,-65.3164,-113.7107,-31.4252,-182.9609,-12.2268,5.5252,-108.4656,41.3554,-24.1297,-22.5784,189.0378,-95.1277,-22.5868
-6.8778,-53.7185,64.0331,6.5204,-87.6253,-70.4685,-26.2537,-93.5562,9.0745,-178.2857,-41.7382,-23.0024,-29.5115,-17.4731,46.8197,-76.9487,190.5493,-72.2577,-3.1006
-19.4960,-58.8948,55.4930,4.7696,-57.0654,-100.1186,22.2151,-122.4638,38.2857,-220.1955,-48.6756,-51.1672,16.9661,-84.4768,76.9342,-126.3356,189.2704,-50.8548,-17.2977
45.4815,9.2726,34.5900,2.3252,-56.9163,-110.7533,36.8161,-161.0143,48.8647,-215.8788,-8.6212,-74.2794,13.7238,-104.1770,42.8043,-123.9174,141.9763,-66.4650,-49.0952
67.4109,29.1121,18.0110,-45.7252,-104.1352,-121.0676,-15.2317,-173.2479,15.3846,-148.5451,20.0086,-80.9320,-9.5239,-117.0283,23.9034,-107.4767,74.1012,-121.6445,-101.0818
6.2121,-69.2811,18.5397,-123.9347,-153.5061,-144.7837,-52.3417,-181.7796,-33.2797,-99.1754,23.2287,-71.9300,-46.3832,-172.3320,21.7263,-144.0760,22.9165,-176.1976,-147.1071
-80.0033,-169.5493,-14.4290,-186.4123,-154.0575,-175.2699,-55.4659,-199.4852,-54.2056,-101.0551,25.9116,-88.9015,-80.0881,-201.8117,-15.5197,-175.3325,-41.2366,-185.2544,-156.6526
-143.4437,-155.4224,-90.8059,-239.2685,-110.5044,-212.2875,-72.7667,-194.8180,-54.1918,-109.4255,7.6014,-135.8449,-79.5831,-152.5145,-18.6955,-123.7199,-125.9195,-162.1461,-130.2863
-149.3707,-86.8093,-138.3688,-284.4579,-50.6521,-254.7267,-61.9380,-166.7141,-47.5075,-93.9239,-30.4349,-130.7589,-54.6139,-116.5654,50.8221,-66.8506,-168.7004,-157.5248,-96.6007
-106.3900,-61.0728,-148.7203,-268.9807,-8.0932,-268.1920,-0.6327,-163.6357,-21.4484,-70.3868,-43.2929,-58.5222,-34.4633,-170.4684,77.2166,-94.2594,-160.9953,-166.9627,-85.3277
-110.7510,-97.2978,-188.2565,-191.4636,-13.5398,-220.4669,25.0829,-186.6837,26.1599,-54.8841,-43.9874,-24.7912,-27.4692,-230.9731,33.3052,-140.1418,-158.7354,-138.6590,-74.8124
-185.2964,-157.3292,-229.2593,-122.8771,-43.7995,-132.4961,9.5672,-165.7504,71.6271,-36.1065,-62.2078,-54.1086,-33.0288,-184.2291,31.1129,-122.4893,-144.8832,-70.7559,-10.1298
-189.3987,-133.6989,-183.0663,-80.5789,-47.7738,-39.7226,33.3764,-73.1287,92.0458,2.8538,-58.6204,-62.6166,-44.5298,-53.3774,69.8923,-70.2603,-71.3733,-1.6321,85.6047
-78.8067,17.0478,-84.8440,-28.5332,-25.6615,51.5715,67.9554,35.4958,84.7042,58.2509,-24.6630,-57.1634,-51.3249,33.4547,65.6268,-28.2154,9.2310,68.6666,127.1057
-21.0451,127.8824,-34.9443,31.4162,5.8125,126.5566,54.1143,114.8779,72.4698,103.4085,-18.6654,-95.6510,-46.6818,11.8625,43.2223,-4.7918,40.8387,142.8719,117.6110
-86.4388,81.4802,-28.5707,82.2559,62.3966,151.0745,55.7404,158.3725,84.6199,104.6561,-34.3607,-127.6695,-13.8999,-38.5831,55.0038,-9.6999,67.0877,171.3626,129.5138
-131.7207,20.5488,-17.9642,122.0318,122.8230,124.4417,115.7546,148.9911,114.2749,64.2687,-26.4825,-105.1886,39.5190,-25.8141,75.8560,-16.6258,103.2250,124.2479,148.7610
-84.9692,45.9678,-15.8814,131.7539,116.7557,72.7205,147.4807,93.3363,121.3741,45.2540,-26.4743,-81.2339,49.7946,16.1945,81.4274,28.0600,103.7150,44.5481,110.4565
-18.9140,79.6021,-11.9953,115.1869,40.5599,3.0861,104.2093,48.4116,99.5109,96.7566,-50.5589,-68.0922,3.7216,11.1561,76.0913,94.9248,106.7581,-16.7577,46.3574
42.4517,124.6186,45.3899,127.0845,-27.6320,-69.1779,63.1326,34.6171,90.5884,170.8808,-38.5333,-20.4671,-9.5710,-28.8289,63.8638,103.1949,174.1752,-42.8238,37.8466
94.3534,203.8406,113.7948,166.2956,-54.9428,-103.1528,65.0944,17.0981,98.6460,184.4577,-3.1362,25.2216,33.6927,-50.1550,58.1971,58.7350,228.5998,-40.6072,72.2593
68.5807,181.2814,93.9149,144.3683,-88.0276,-102.3894,41.7163,-4.3804,70.8373,133.3179,-24.1104,5.2630,39.6587,-50.0183,53.0022,16.0793,173.1526,-43.3132,77.7601
-6.3886,45.5892,17.2650,36.5581,-137.0584,-125.7465,-22.1889,-5.3886,20.4431,86.5516,-74.8986,-51.0081,-10.2959,-58.1686,27.6632,-22.9349,62.4835,-69.3055,62.2264
-10.5597,-10.2542,-6.0760,-62.2464,-133.1812,-182.5877,-14.2527,-4.0741,41.0795,90.1355,-92.0672,-94.5676,-34.5486,-73.8698,11.2184,-48.7384,-6.4251,-83.5642,92.4764
14.5581,3.5522,10.9288,-90.5727,-60.0485,-202.8337,93.9118,-20.3906,123.6383,105.4777,-120.9597,-132.1611,-30.3068,-58.6515,26.0388,-20.7859,-31.6328,-73.6214,145.8852
-50.9068,-70.3436,-13.5464,-108.1776,-14.2772,-147.6521,147.0268,-35.8998,140.7236,70.5338,-177.9762,-165.6546,-52.7161,-3.6579,25.6578,20.2110,-55.2413,-83.5007,132.4518
-122.5050,-138.9680,-60.5822,-170.7488,-42.0593,-66.5426,84.8642,-32.8323,86.6253,18.0402,-166.1427,-165.4477,-73.2011,37.1787,1.6252,3.1364,-95.6340,-105.1494,80.8959
-84.8637,-89.0147,-81.5067,-220.5886,-53.1786,-9.3334,66.7684,-1.6775,96.7440,23.0168,-88.6819,-127.7351,-37.6382,36.8100,8.9550,-15.8677,-140.3682,-75.0901,108.1222
-59.7097,-89.0333,-109.9022,-189.6178,3.3829,37.2503,149.9995,57.8946,174.8502,47.2163,-82.0530,-99.6446,31.7956,34.7585,36.7506,34.2323,-159.9316,-12.1236,186.4931
-148.3959,-207.3008,-159.2490,-128.3584,49.6014,82.1194,174.3915,104.3886,171.6294,24.4239,-155.1095,-123.3283,83.8780,36.0815,27.3137,71.4277,-159.8836,3.1487,177.9309
-214.3325,-236.8862,-175.8452,-116.6709,32.5975,85.1335,81.8113,102.1343,61.5579,17.7617,-185.5876,-167.4064,84.3117,13.6154,-9.4768,30.9413,-183.6255,-28.9597,84.4720
-186.6871,-142.0688,-166.9919,-128.0338,-12.4527,36.0781,-4.6831,81.2195,-21.1956,67.6231,-162.9045,-167.7992,20.6639,1.3394,-32.4253,8.0037,-226.0912,-45.9691,20.7922
-181.5977,-105.1183,-178.4360,-111.9088,-53.9044,-6.2386,-26.8636,71.4655,-18.7945,73.4426,-158.1586,-128.1300,-57.9137,13.4946,-35.5811,44.0228,-227.7068,-28.7340,11.6065
-194.3046,-126.5539,-162.6923,-101.0068,-67.4202,-2.5997,-16.7781,61.7770,-3.1504,15.5884,-155.1998,-86.7647,-76.6922,-11.2233,-32.8265,42.6720,-169.9789,4.0472,22.0265
-111.7083,-90.3888,-80.8545,-111.7917,-21.0281,20.5130,16.4972,60.2870,-15.4730,5.7812,-130.8240,-32.7564,-37.6688,-47.6610,-42.9582,-2.0524,-95.1098,38.6086,55.1586
-0.6154,-34.0336,-22.4758,-86.5293,62.7679,30.2999,55.1305,76.0119,-10.2989,38.4387,-129.4115,32.0475,8.0633,-2.6370,-55.6108,-6.9996,-43.5006,64.1881,92.0711
17.3959,-5.4426,-33.3720,-26.6361,133.7924,17.6718,83.5932,72.9922,45.9863,22.5020,-136.4948,49.2819,49.1148,63.7888,-24.6957,-3.7496,-18.7639,74.7567,93.2439
-5.5095,43.6458,-19.4555,-5.6967,183.7304,-13.9406,125.4455,42.1237,109.2922,-8.5622,-96.3012,13.7203,89.9047,37.1260,33.8493,-43.9413,3.5932,73.2644,81.1718
-9.4747,86.4525,42.5958,-16.5701,203.7930,-42.2792,149.5684,18.6970,117.6009,-2.5026,-56.9220,-7.5990,117.9008,-18.1380,46.2645,-52.7177,31.8984,64.5373,82.8349
-19.1379,63.3737,54.5562,9.3969,177.1489,-48.7089,104.0480,-4.9298,81.0820,-9.3018,-76.2820,6.9805,135.8468,-1.0631,23.0330,3.0153,39.4769,56.3694,70.0781
7.8277,34.1846,18.6146,63.0666,144.2264,-38.3807,56.8810,-41.7403,54.1614,-37.2019,-96.1379,28.3219,148.6461,45.5495,23.5361,37.9946,27.5444,51.5748,46.9787
87.0174,48.3243,32.9393,90.1684,149.1964,0.4017,69.3964,-33.9609,39.6575,-30.8452,-79.8165,47.6611,141.2056,66.1771,19.0237,28.5399,34.4822,43.6752,62.3212
92.3497,59.1213,79.0727,77.2835,165.6297,82.5822,66.4214,45.2940,11.4043,-0.9629,-78.6633,61.3689,118.1281,69.4983,-23.8618,13.6561,49.1501,41.2425,108.9653
3.5550,60.9547,70.5803,30.1929,165.1802,160.0680,32.6620,122.8537,-0.1299,21.8272,-89.1063,57.3737,96.7263,55.2781,-40.3790,-16.8070,32.4901,61.6653,139.2947
-30.1530,66.4566,35.7317,-16.0574,162.7846,182.3228,65.5186,146.6222,42.9661,52.2504,-70.8579,44.5047,68.3748,39.6512,8.7721,-36.0129,12.5761,94.4557,146.0915
6.4653,21.9096,43.7854,5.6842,166.1060,180.6491,137.2151,144.6095,97.7787,78.8652,-62.7919,37.7432,43.6920,44.0559,59.8203,23.1201,28.6470,116.8116,142.1550
3.9587,-44.6080,65.6617,72.1287,165.4982,183.5285,132.0054,141.9816,106.2600,72.7857,-85.2302,41.3392,58.6795,27.6678,62.8573,98.9073,50.8989,122.0427,125.7749
-12.9323,-11.8111,57.4617,75.5407,147.9106,159.7622,82.6936,131.4930,86.0223,45.7710,-72.0012,57.3770,89.4686,-0.9188,49.1448,81.6248,52.5387,107.7196,101.0227
28.4405,82.5935,54.8178,23.3777,110.7162,118.3961,84.9349,108.5728,76.4522,15.9280,-12.6854,71.5822,87.5538,52.7713,62.3000,18.9710,50.0140,90.5382,79.8337
81.3969,80.5184,81.5442,20.4298,102.6147,114.5466,119.4233,87.4313,72.9947,8.4750,30.3295,70.2561,81.1554,151.9246,91.6643,11.8327,40.0102,113.6328,70.3533
83.2457,-6.7866,81.4137,50.9378,165.2695,140.8922,133.7544,99.6657,67.2928,60.1855,52.2320,73.8032,102.7741,149.3478,92.0179,45.8485,5.8855,167.0538,71.2710
24.7433,-47.3940,20.1817,21.3075,227.5314,143.2921,119.5569,141.9542,66.6357,128.6240,76.6644,88.6800,104.9798,71.7933,61.9169,70.3445,-50.5207,166.3743,55.2973
-69.3730,-33.8706,-38.0209,-54.7565,203.3184,95.3867,66.9874,140.5249,50.8021,124.3796,80.4616,85.1834,56.6188,61.4766,45.4798,76.9428,-131.6475,81.8743,-1.3142
-117.7738,-49.9258,-34.5385,-118.0984,135.4906,-1.2292,-3.4152,61.0482,1.8713,60.0022,58.0336,70.4828,-3.7141,103.7537,38.6385,62.5170,-211.6710,-1.2977,-61.9452
-99.8134,-104.8882,-20.4703,-161.3697,102.7479,-99.9240,-27.1426,-18.2036,-33.2064,1.0108,45.8722,79.5876,-44.9601,97.6947,1.0044,35.7824,-222.1537,-4.7996,-75.6941
-121.5450,-126.6669,-60.7022,-150.3950,101.9865,-117.0730,0.7414,-42.7051,-10.7149,-56.6649,57.7639,103.1412,-53.6223,53.2390,-43.9748,21.5255,-164.3014,49.8791,-60.7861
-172.7859,-68.7586,-107.4993,-56.7444,103.9472,-40.5532,21.1691,-50.2387,25.7532,-108.2679,78.1066,126.6775,-19.5184,33.2546,-49.9256,29.3871,-125.5867,99.6825,-55.1648
-109.5918,9.3981,-90.2191,20.1072,101.8866,54.9613,23.3460,-39.6491,32.9531,-86.1213,82.0260,161.6703,15.3342,49.4400,-30.2123,71.0690,-134.9843,117.5344,-37.5387
4.6642,23.8847,-48.6671,-11.1724,97.9523,119.7557,42.2625,32.6342,45.2205,6.5153,52.0951,181.8011,1.4543,85.8458,-5.5110,142.8052,-143.1164,105.6409,10.4188
-24.1453,11.8441,-54.0055,-62.9522,96.6029,143.8339,63.0477,113.9777,64.5544,61.3344,17.7636,151.2012,-31.8380,125.7047,19.1348,182.9677,-132.4420,64.9564,35.3674
-142.7800,37.0306,-96.3762,-40.8398,76.3691,116.3874,35.4848,120.1166,22.8626,28.3820,13.5449,100.6468,-42.6563,154.9846,9.5416,157.0130,-122.0701,13.1685,-1.0517
-183.9701,42.4952,-140.5647,-19.2959,21.6038,61.7699,-23.6054,86.5201,-63.7600,-11.8430,12.8235,66.7365,-42.8752,159.8707,-38.0632,117.1766,-120.3371,-5.5238,-43.3442
-161.9993,7.5993,-170.2217,-61.3000,-10.0364,24.5427,-47.7156,78.3047,-98.4902,2.5598,2.4122,36.4609,-41.2593,115.7897,-68.4608,95.7269,-126.7212,20.8445,-44.1994
-132.9318,27.3513,-151.7493,-70.6920,7.2810,5.8131,-53.3972,62.9903,-97.2482,-1.3166,16.1625,3.4601,-36.8441,36.1620,-82.3890,74.5504,-116.5764,49.5043,-56.1959
-83.0684,75.0676,-89.9628,7.1847,-10.9849,-1.6576,-114.4902,9.9826,-146.6762,-86.3553,27.5932,-20.9364,-42.3317,0.3441,-128.0748,68.6577,-66.0592,57.3378,-112.3155
-53.2179,40.2306,-61.5993,52.1833,-73.0889,10.2650,-185.1540,-28.5454,-198.6211,-153.8964,-4.1591,-28.8709,-31.5719,33.7593,-170.1965,86.4214,-23.2322,63.8659,-132.4462
-65.7670,15.8377,-74.7278,-3.1782,-69.9233,16.3083,-156.3166,-26.5554,-159.6648,-113.8176,-7.3003,5.4704,25.5122,43.4468,-149.4698,81.0150,-37.2389,69.6671,-80.2717
-33.7131,129.1573,-40.3555,-29.1051,-14.5980,-0.6185,-80.8245,-28.0669,-93.9551,-54.6696,68.1973,76.2159,73.6863,-21.2212,-105.5467,49.7468,-50.9424,65.4406,-57.1029
59.8566,253.7057,41.3986,56.9569,-11.2842,-4.1093,-78.0785,-43.5716,-95.1446,-55.0114,125.2327,102.7193,64.7073,-68.1957,-83.9879,52.4254,-12.0391,73.1123,-105.3902
112.1055,256.7710,73.6074,131.6371,-25.7007,3.6725,-97.1131,-41.7396,-105.7496,-56.2761,102.7693,55.8882,43.6118,-26.3834,-48.5709,94.9437,16.3487,97.1028,-122.7233
88.7239,223.0197,52.8601,111.7147,3.3484,-25.5115,-55.8908,-42.4842,-65.5852,-57.0877,71.2292,23.2535,35.4123,24.4475,4.0006,119.3382,-4.8084,105.3069,-75.7392
59.6944,219.8817,54.5807,99.8243,11.2682,-61.8997,-30.3455,-84.4333,-40.2501,-125.9136,67.5162,55.1928,17.6146,-0.6497,0.1518,92.2971,-2.6176,93.4528,-50.5873
86.5162,197.9546,86.3909,149.5627,-19.7943,-34.9883,-61.8349,-123.4446,-54.7622,-186.6080,57.4399,95.1578,18.1766,-34.8608,-64.1917,43.8340,52.2890,79.3698,-46.9644
153.8886,152.7586,116.2697,172.2370,-12.9275,37.7696,-50.6324,-87.3349,-32.8128,-115.6437,35.7743,99.7653,49.7224,16.7989,-90.7383,39.3363,81.2109,59.6165,6.4364
168.0767,113.2067,131.4435,146.8883,17.0557,100.5120,7.7816,1.4687,11.7094,20.2469,13.0241,84.8119,41.7869,97.6772,-48.8934,85.2742,42.5106,38.8240,65.4929
87.7178,81.1703,106.2462,129.9032,1.7643,139.5919,-3.7930,61.5171,-25.9780,77.1703,-3.4180,67.1560,-18.0163,97.5228,-23.5768,93.1342,-13.6387,29.3577,52.9359
20.7316,77.8095,49.7681,95.3610,-29.0256,144.4896,-78.2035,68.5868,-119.1376,39.3085,11.4153,55.6595,-44.1248,33.5852,-48.1451,27.5542,-38.0065,18.8933,19.5742
50.8050,95.5895,40.3309,37.4828,-17.1305,117.4396,-103.6000,58.2631,-132.4934,-19.4530,40.4840,57.7391,-5.0286,-7.0269,-60.4962,-22.1222,-15.8360,22.6065,34.3598
114.8552,80.3291,97.9876,68.6798,31.0138,115.9156,-65.1875,59.4222,-50.7396,-37.1268,32.0856,58.0125,55.1390,2.7966,-49.7350,-9.4297,52.6410,82.0461,69.9505
147.9657,40.9527,144.4731,190.9046,72.9676,164.7737,-18.9893,72.2966,27.0821,-12.8590,4.0655,29.2448,95.2967,40.2091,-51.9018,12.6381,121.1883,146.6080,93.3047
132.1027,12.9380,135.3435,221.9353,59.9366,184.9330,13.6998,70.9870,58.6234,-6.4567,-1.2069,-28.6560,78.6452,60.0832,-29.9831,29.6313,112.3385,111.7934,103.3160
47.8797,-23.8881,90.1156,100.0194,-6.5483,104.0798,28.8038,23.9039,68.3313,-29.3578,-6.8873,-74.1205,15.5839,26.4774,39.2021,55.3622,30.9457,0.2793,80.3301
-31.0811,-52.2780,33.2834,-22.8615,-50.6008,-28.1281,34.9534,-54.0455,77.8812,-15.2808,-25.6215,-62.7905,-7.1621,-8.4495,76.3597,48.9595,-18.7281,-68.2499,31.9113
-0.0654,-28.0314,7.2584,-53.2266,-36.9272,-107.9786,56.8363,-108.9188,103.9700,24.9459,-26.6667,-10.5778,36.4538,17.4733,60.6653,1.5430,13.6551,-60.4907,6.1605
69.7949,-8.0742,37.1584,-46.0493,-6.8778,-122.8105,78.0675,-132.9633,131.1300,-1.6732,-15.0462,23.4259,68.4590,27.1293,66.3465,-32.6810,56.2016,-38.8923,-7.4731
70.5262,-53.4544,67.7413,-26.5410,22.9523,-152.2192,62.0167,-172.2069,103.1854,-86.6876,-3.7059,18.1489,67.0269,-57.1914,76.0747,-50.1757,55.3013,-48.1884,-56.3880
49.9228,-108.8409,52.7854,32.6542,42.1760,-220.1898,24.2842,-230.7268,22.6515,-135.6311,19.6255,-10.6289,75.6845,-133.3391,34.1408,-76.6928,55.9779,-84.9525,-106.2642
35.3451,-116.2935,21.9830,72.7717,0.7373,-251.6758,-8.5868,-250.6084,-31.7886,-130.6903,26.2873,-53.8840,67.4762,-99.5396,12.3134,-78.0250,76.2163,-129.0756,-89.6585
-14.6193,-87.8133,-10.4312,-5.8591,-86.0442,-212.7749,-38.1948,-204.2708,-28.5265,-116.8255,-2.4555,-88.2081,5.8506,-29.2667,55.8423,-31.6186,49.4907,-165.4234,-28.7698
-35.9735,-60.8857,-53.3917,-154.1095,-132.2150,-164.3098,-43.3403,-136.9139,-4.3786,-109.9294,-5.3025,-89.2347,-46.4233,-14.9111,64.8289,12.2023,-35.2775,-189.7089,0.8516
2.6445,-86.5249,-72.4271,-208.3016,-126.1240,-147.3348,-16.8619,-104.6687,14.8327,-102.0609,27.1849,-83.9828,-42.2824,-48.3657,4.5267,9.1859,-85.0174,-203.2065,-26.9237
-15.5680,-162.4038,-57.7997,-136.3577,-122.3130,-145.9491,-24.4773,-111.3714,15.7504,-79.1656,20.6171,-98.7738,-38.6810,-94.8172,-36.0716,-27.2087,-52.4573,-217.2150,-72.8307
-84.4746,-208.0923,-52.3646,-65.0694,-134.1248,-150.8852,-80.0939,-114.3557,-0.0430,-30.3591,-5.3464,-109.5887,-69.0417,-117.2937,-31.1940,-50.0603,-0.5549,-242.8478,-79.7974
-71.1082,-193.7326,-48.1186,-51.8511,-137.7268,-157.3061,-79.2688,-83.2345,14.4802,18.7697,26.7389,-102.8387,-78.8071,-83.9591,-17.4736,-26.9849,14.4666,-254.1276,-42.3291
-6.3455,-133.7152,-16.7025,-47.3130,-106.8389,-149.6604,4.0927,-40.4235,68.4131,25.2809,72.9841,-78.1413,-45.9667,-17.1303,-1.4371,9.0541,5.1717,-218.4576,-20.5015
32.3980,-17.5743,5.5795,-54.7386,-45.8464,-127.5476,43.1534,-19.1999,86.7086,-10.4701,65.9034,-19.2957,-28.7797,43.7523,-4.0982,10.3201,-6.5611,-162.3909,-37.5751
94.1732,51.7983,12.1919,-90.8614,-20.4546,-88.7326,-7.8581,-4.8825,51.0615,-44.7536,51.5332,26.0631,-53.9652,73.1363,-38.1975,6.6434,-8.6550,-119.6613,-31.3106
144.5357,-58.3369,56.0722,-83.9513,-50.8082,-28.7138,-30.6983,25.8986,36.9745,-48.0751,71.9279,-18.2047,-71.2338,33.7853,-53.2692,31.1462,19.8580,-66.5077,24.5131
95.4963,-185.9191,112.6370,-15.4066,-34.2371,13.7671,33.5742,43.2698,61.8380,-39.0659,98.5158,-83.6108,-49.2450,-44.2983,-35.3298,32.5946,67.6359,3.0559,63.0170
47.2358,-103.8248,109.1287,13.9361,77.4777,9.6885,102.9860,18.3575,83.2391,-42.3852,112.4154,-52.2437,-16.4362,-48.1521,-30.4342,-11.7361,79.8369,40.7255,50.0646
78.2336,43.0810,63.7072,-14.9452,174.5938,5.8618,122.1682,-11.0645,106.6297,-39.1787,94.0084,19.3287,5.6111,25.1407,-37.8450,-38.4340,43.1075,38.1910,34.0984
72.3368,36.2092,33.6476,-13.3460,174.4673,35.7885,116.2369,-4.1936,125.8619,-21.5397,24.2840,28.7497,12.7473,55.7747,-42.3958,-30.3165,10.6654,37.4373,37.4197
18.1156,-40.9139,27.2747,15.5306,112.1763,68.5324,88.7561,21.9814,87.0494,-36.9526,-36.8050,22.1176,-14.7438,27.4222,-59.5142,-34.6653,10.4057,46.1678,26.5646
29.5622,-75.2991,35.3268,13.4592,23.5640,100.3059,16.6406,44.4542,11.5161,-88.3111,-30.2474,52.3208,-67.4668,20.1873,-56.2174,-50.7762,17.1818,43.7165,-9.3048
64.4151,-67.9584,39.0454,30.5937,-74.0167,145.8691,-75.1997,60.2259,-25.2017,-95.5250,-5.2986,74.9904,-93.6007,40.3283,-8.8341,-48.0798,26.4334,29.6214,-49.8394
57.4796,41.4446,25.8033,112.4030,-134.0131,159.4733,-126.2078,51.0659,-34.9031,-30.2779,-0.5417,82.1447,-79.3673,54.3280,4.8320,-30.3670,55.1789,13.2012,-81.9450
72.7108,203.7770,33.4017,160.2394,-130.8178,107.4183,-111.8159,10.8343,-59.1361,40.7877,24.6122,102.6089,-44.6611,50.6410,-41.3452,-5.9245,79.8745,-2.3133,-93.3766
77.5724,190.5344,63.8320,95.9195,-88.9967,29.6443,-70.3585,-28.5185,-73.1250,60.0963,55.3247,100.2387,11.9871,3.2815,-57.1369,11.0213,64.0498,-24.2058,-83.0424
-4.5479,8.0953,38.3768,11.7936,-50.8566,-44.4664,-63.1708,-57.4855,-77.1289,23.4872,25.7340,49.7448,52.5592,-69.1842,-30.6686,-17.9908,19.7198,-59.3793,-84.5563
-55.6016,-92.0190,-36.6493,15.6942,-59.3107,-110.6712,-102.0652,-89.7835,-114.9289,-23.9690,-42.5510,-1.7855,2.9530,-91.7093,-31.5876,-83.1482,-21.0232,-78.7956,-112.7828
-4.6768,-55.1898,-55.1961,61.8403,-114.6574,-140.8448,-131.2066,-97.1905,-148.9031,-18.2258,-88.9086,-21.8412,-97.2602,-68.1130,-39.0668,-109.9672,-49.9361,-56.1604,-118.2421
2.3276,5.9707,-17.9352,47.8151,-154.2990,-136.5020,-105.2316,-60.6396,-106.5808,18.6329,-117.8458,-10.9542,-126.1442,-54.0649,-7.4260,-72.6730,-61.1562,-33.2086,-65.1732
-54.0930,65.3258,-5.5337,-18.9957,-134.5824,-132.1355,-52.8956,-28.7799,-31.8772,6.9319,-139.2007,27.1493,-75.5052,-33.2308,20.8285,-30.2520,-40.9695,-39.4975,-1.3876
-29.5816,82.3451,-4.0822,-50.3468,-78.3173,-106.4022,-32.0310,-23.5858,-21.9496,-22.0558,-132.5161,52.3196,-29.7977,3.7993,11.7542,-24.7889,-2.0731,-30.4655,14.3739
35.1274,-7.6384,19.2316,-8.5169,-27.0555,-39.4308,-50.9452,-9.1237,-71.3412,9.8871,-114.9722,32.6537,-18.1150,9.2400,-10.0543,-29.3943,19.6131,-7.2439,-4.7756
8.7756,-110.7030,20.3469,66.8880,-9.8969,0.6610,-63.6063,3.5670,-96.2254,61.3412,-124.8087,19.0035,-30.2379,-7.6726,-23.8519,-19.0593,14.3591,-30.6754,-12.0203
-47.8826,-94.5698,-8.6074,110.6926,-26.7601,-19.9214,-38.2942,-12.0697,-59.8977,86.2698,-149.1915,57.2954,-59.1786,-9.5242,-12.9324,-24.9867,9.3294,-71.8268,6.8697
-38.6415,9.1793,-15.9560,79.2648,-46.1987,-23.8309,-9.1573,-3.2703,-13.5476,124.6814,-149.1018,106.8681,-71.3279,-13.1544,16.9790,-64.1192,21.2979,-56.7854,33.6423
-0.4949,95.4425,2.4757,8.9582,-64.6643,35.5499,-26.3861,57.9312,-24.3720,148.5233,-120.6814,122.2784,-52.9988,1.6708,16.0623,-74.9743,33.0362,-5.6420,45.4530
25.0885,107.0821,17.2998,-0.0856,-97.6355,116.0398,-65.9126,101.9758,-73.4761,98.5461,-91.0982,103.5830,-43.9969,72.4117,-9.2222,-20.4697,36.3410,47.0837,36.2225
32.4633,46.2942,18.5272,77.4359,-96.9222,179.1421,-55.3451,104.0607,-70.1047,53.7410,-74.4243,60.1073,-52.6022,114.6384,10.4261,22.4339,54.5126,111.3967,24.5208
-0.8682,-21.9183,-0.7957,159.4512,-18.2627,201.1859,12.2826,109.7531,5.2215,81.1426,-54.8130,21.1222,-41.0469,55.6308,58.1118,-6.2624,90.0172,145.9519,25.4646
-61.3967,-37.0836,-31.1432,195.4442,71.6519,163.4277,69.4954,102.1705,60.4069,97.6182,-27.0585,26.3149,-5.2841,-2.9755,62.8102,-45.8418,101.9062,116.1798,26.9500
-106.9026,-2.3407,-51.6792,201.0054,97.5963,106.1057,74.0305,50.0951,38.6620,72.8295,-16.6899,58.2315,25.1017,22.1044,47.2100,-43.5691,66.5055,95.1649,19.7356
-122.7296,65.1069,-72.2257,177.9946,75.1144,80.7040,46.9388,9.2706,-3.3389,83.6069,-19.1221,66.6615,25.0510,53.4221,58.2118,-32.8861,12.1872,125.1266,11.9912
-94.9469,132.2541,-87.9807,138.5076,33.3878,64.3037,22.9151,13.1646,-10.8088,114.7424,6.7527,50.1757,-15.8300,33.9214,64.3155,-31.6119,-19.0124,141.8321,-6.6177
-51.0840,126.7646,-65.8326,117.4110,-12.7335,29.2168,10.6671,11.1241,-14.9138,97.5969,47.3057,35.5206,-63.8020,10.8990,43.4407,-20.8460,-11.2302,116.5406,-50.4506
-89.3207,23.7812,-42.8951,83.2375,-31.0902,-0.3932,-5.9903,-11.7906,-51.3018,67.6700,53.9450,18.0844,-70.4530,10.5214,26.6136,-8.6382,10.4734,66.8661,-84.9054
-195.5898,-115.4326,-84.2428,-9.4936,-30.0898,-26.7555,-40.9678,-23.4867,-88.2798,74.3658,53.1375,-16.5351,-55.2678,18.4913,21.5258,2.6066,2.6166,-20.3951,-70.0983
-198.0661,-193.9892,-136.4525,-92.3409,-48.7354,-70.5933,-77.8006,-27.5895,-92.5526,84.1971,90.5461,-42.4595,-60.2535,42.0984,10.0937,30.5536,-26.9950,-112.1118,-38.0776
-51.6565,-129.9680,-104.4251,-84.9857,-61.9356,-88.3420,-87.0581,-24.3227,-90.9639,71.3078,123.2410,-14.7451,-63.9426,84.9403,-9.2279,47.4365,-18.5643,-129.8908,-38.3643
69.1091,15.0547,-16.4723,-25.7331,-38.7100,-38.3408,-68.7280,12.4074,-104.9034,63.8909,110.2103,50.0313,-40.1568,117.6915,-23.4041,13.7162,36.1643,-82.5335,-45.9408
39.4320,47.9514,31.1996,35.3644,-24.9947,36.0135,-49.9995,62.2727,-98.5837,79.6370,99.9733,80.3368,-10.1206,109.5291,-12.8590,-42.9599,84.2321,-25.3468,-13.8530
-66.0741,-28.2911,14.0108,102.5490,-48.0302,79.0600,-56.1896,79.5473,-64.9280,85.2362,126.6883,81.8109,8.1248,67.6648,10.6826,-75.8681,112.5631,26.1945,26.1246
-102.8359,8.5366,-7.4072,135.6013,-67.8639,81.4374,-94.4844,62.3514,-66.5070,34.1865,151.8484,133.1902,6.1568,38.9129,-7.7910,-79.2871,135.5528,41.5750,9.7272
-28.3160,145.4020,24.8712,90.4879,-66.2074,60.8439,-131.8170,32.1270,-108.6513,-44.7277,142.7355,188.4748,-19.3104,44.6419,-60.3872,-60.3766,123.7285,19.2230,-37.6424
50.2035,134.2631,72.4668,36.3381,-49.4644,66.2276,-111.1655,22.2448,-105.7447,-61.7183,96.1194,110.9544,-28.4732,43.7135,-59.6194,-28.8456,72.4153,44.9791,-27.1260
35.8161,-3.1288,57.0554,40.4990,-6.6922,115.0427,-38.7833,64.3428,-50.8322,-14.0216,22.8445,-36.6204,2.2832,12.0018,-5.4758,-5.2441,53.2432,111.4454,43.1949
1.5994,-13.7568,17.5117,34.1664,48.9755,113.9838,10.0875,106.7119,-32.9601,13.3837,-34.8336,-45.5875,18.4928,-18.7977,7.9724,2.5092,95.9324,85.7483,87.9179
25.5582,102.5309,36.5901,-44.4830,86.9477,6.6472,23.8994,68.4006,-34.3042,5.0545,-61.9851,78.4662,-2.7314,-36.0968,-17.9927,-10.7272,137.1549,-17.3293,102.0573
7.4649,114.7998,44.9421,-120.3487,114.8310,-87.1551,76.1892,-2.9428,45.7698,-1.1108,-128.6893,154.9207,-3.1228,-49.6061,-4.4972,-61.9230,134.8835,-56.7676,162.0215
-124.1308,-39.5365,-54.6755,-133.0035,139.9598,-78.9612,162.2342,-21.7108,150.6981,-23.3416,-276.1151,158.9681,24.4310,-44.1255,35.0642,-131.0035,107.4401,-55.7095,238.4127
-250.9750,-184.6932,-175.6662,-147.3370,134.1423,-67.9850,172.5155,-39.6137,133.8521,-76.3156,-422.0633,169.9456,23.4425,-33.4870,37.4590,-160.4491,66.5202,-113.8606,216.1909
-298.5528,-186.6597,-206.2288,-195.7099,86.7939,-118.5071,76.9002,-116.8817,26.9543,-124.2073,-476.4968,145.5333,-3.1429,-62.9827,9.8763,-140.9388,15.0809,-174.2354,105.2402
-345.1065,-143.8469,-201.0918,-199.6581,19.9127,-151.6657,-30.3100,-183.7793,-38.5622,-157.1414,-452.2236,44.7419,-12.0735,-101.2698,-19.0507,-121.8277,-29.1020,-170.8963,13.7697
-406.4187,-198.9954,-234.0036,-146.1140,-42.2847,-150.1392,-84.8997,-194.7453,-67.7101,-178.7869,-408.2019,-33.2090,-4.2743,-80.9707,-48.2350,-130.0711,-62.8450,-170.8162,-38.8052
-390.0749,-259.4165,-263.6353,-130.1333,-76.0467,-171.3458,-101.0016,-196.5881,-114.5708,-163.2080,-368.3817,-27.8687,-2.4371,-30.0473,-61.9631,-144.6694,-97.1752,-203.6552,-84.3187
-273.3575,-173.5830,-240.3849,-159.5872,-77.9978,-178.3767,-93.2549,-184.6305,-131.7277,-124.2059,-318.4858,-1.8014,-18.8902,-6.8178,-52.3716,-145.5817,-119.2088,-207.8402,-92.7760
-148.3857,-50.4500,-186.9170,-146.9468,-76.0359,-124.9999,-69.3379,-130.5859,-87.3978,-119.1529,-251.9162,19.3514,-49.0747,0.5926,-51.8724,-146.7563,-106.6690,-170.2774,-48.8309
-123.7703,-46.9817,-152.3011,-98.6690,-79.5820,-77.5535,-44.3696,-92.6449,-40.1669,-154.5937,-204.5843,57.0131,-58.9447,-5.0472,-63.5862,-167.7811,-70.8336,-118.1893,-3.7001
-211.1397,-79.6731,-156.3650,-83.9985,-72.9772,-69.0584,-11.9284,-94.6833,-16.2524,-183.9237,-203.5128,73.0539,-36.0816,-51.5284,-43.4372,-185.2997,-52.4737,-52.1386,17.3924
-283.0244,-55.0586,-169.4582,-84.3963,-61.8110,-38.2992,27.6334,-58.7213,9.9436,-163.2101,-204.5886,45.9133,-19.8662,-88.3672,6.6327,-159.1993,-78.5752,12.3176,31.1835
-229.1767,-39.5004,-154.3397,-61.7458,-51.3841,12.1536,44.5515,16.9010,34.3590,-85.4695,-166.2626,35.4772,-16.0931,-45.5465,29.7691,-105.9397,-127.4442,53.2280,42.6048
-112.2550,-43.3462,-112.6521,-43.0415,-18.8409,24.2374,51.4771,39.1065,51.6380,-7.2612,-126.7809,57.7721,8.5553,18.6956,10.4481,-72.3240,-147.8961,85.6199,61.9357
-43.6447,-5.2082,-55.4839,-27.8069,31.0946,26.9008,85.0804,16.0468,72.1147,17.1378,-119.7533,56.8323,27.9112,20.2662,-12.6736,-58.1298,-116.8996,111.8068,93.7610
-39.4131,37.3560,1.4939,28.6813,51.1857,79.3493,93.3020,31.7571,61.9204,15.0963,-113.8253,30.5334,6.9314,10.5676,-19.9172,-45.9317,-52.4314,115.4063,96.3898
-73.6384,41.2945,13.7899,113.9870,28.0771,152.6304,18.1866,69.1109,-3.5273,10.6320,-92.7862,20.6308,-6.7024,52.0415,-20.6610,-43.1309,15.9077,121.8940,58.0510
-96.7168,54.6905,-13.3727,161.6726,8.3758,186.7906,-48.1968,69.4034,-52.6572,-18.4090,-72.8794,22.4672,15.1214,75.2258,-11.7482,-34.6659,56.7458,151.5635,48.2438
-52.7487,91.6330,-4.6061,127.6343,33.4999,174.5222,0.0557,65.9969,-15.1419,-26.9731,-38.5605,27.9675,20.3780,27.7392,10.9009,-0.1474,55.7598,164.6183,95.3180
-2.7232,109.8998,38.4036,43.6670,85.7172,141.1560,88.6717,94.5718,60.2611,38.0753,22.7039,58.6454,6.5087,-15.0103,24.7595,12.8905,43.5614,145.5132,126.9602
-26.7414,105.9134,43.6446,24.3143,114.0197,112.5197,103.1719,103.3296,87.4333,90.2093,66.5376,95.8027,36.5023,-18.2191,17.6617,-37.1071,55.6560,142.8325,99.3034
-24.2173,105.5399,39.1431,123.9606,104.3957,108.9871,76.5456,65.5544,69.4511,59.1592,58.9116,100.6006,103.6862,-46.9003,15.1777,-88.7959,80.2786,170.9086,59.0665
83.1316,123.2492,89.2810,220.0965,85.8780,132.0838,75.7532,40.7809,62.3889,40.0490,34.9391,93.2619,136.8016,-84.0540,24.7373,-75.0259,92.7816,177.4065,39.6614
150.5743,143.0084,136.9789,205.6040,68.3209,150.8616,67.5114,56.3496,61.1594,88.2819,39.0256,100.0463,106.8569,-44.5860,13.7458,-20.5929,85.1758,128.5977,6.1896
96.2103,123.2498,113.7369,147.8262,42.1624,120.0627,14.9361,62.1407,10.2517,116.0421,53.8286,93.4895,37.7097,24.8762,-15.3170,28.2491,35.3798,46.5846,-65.4847
29.0606,81.6800,57.9139,96.7153,21.9696,37.4818,-41.6237,32.0287,-78.2526,82.9593,31.9863,66.0002,-24.5118,20.5054,-19.7604,49.8800,-60.0609,-37.6224,-137.4079
-30.7113,78.5132,10.6812,10.2347,11.9279,-46.7495,-73.1395,-12.2692,-131.2512,23.3679,-6.9783,55.5785,-35.2057,-17.1954,-15.8034,20.3362,-129.6489,-112.8456,-179.9404
-118.2182,73.1348,-26.6265,-47.5567,-17.7144,-113.4684,-108.2420,-72.1701,-145.3309,-67.6623,17.2436,64.0251,-1.9886,-3.6557,-59.3606,-40.8891,-108.7816,-163.4878,-225.0899
-123.8958,5.6183,-33.1327,15.7703,-64.2403,-187.7043,-148.0944,-153.4248,-166.3851,-165.5145,96.8524,61.9410,21.4502,27.9345,-123.0333,-61.1176,-45.1716,-167.3765,-285.2449
-23.2196,-35.5078,-17.0048,85.5776,-97.5185,-242.3671,-144.1584,-211.1938,-168.4990,-190.6057,117.3561,58.1037,3.9992,26.0626,-132.0088,-34.8616,-29.5881,-147.7144,-297.0605
22.1223,19.4574,-29.4182,21.0281,-133.5461,-221.5659,-94.6279,-208.6465,-116.2410,-159.6506,61.3882,60.8045,-47.3509,12.0820,-91.5836,-37.8869,-65.2281,-157.8963,-229.6523
10.0445,64.1447,-49.2302,-87.0745,-181.1287,-156.1229,-58.9279,-172.5324,-59.1893,-158.8129,53.8146,31.5249,-97.2376,-0.2747,-52.0441,-80.0847,-81.5251,-175.4838,-151.4886
77.4403,30.5218,3.5147,-97.3491,-173.8222,-110.9020,-54.0605,-132.7394,-34.5861,-168.9369,135.5712,-27.9927,-84.0325,-22.0563,-23.7208,-88.4391,-44.3403,-126.2016,-118.7057
145.5528,5.3901,109.3703,-38.2947,-81.9342,-81.8150,-45.5414,-89.7950,-20.0828,-119.6321,191.9655,-32.3901,-0.6748,-33.8941,-12.1628,-46.6427,4.8546,-41.4891,-112.0434
68.1831,34.4344,140.5561,3.7907,-0.3317,-59.8210,-35.8753,-60.7027,-21.7298,-47.6461,145.9326,46.9625,54.5717,-15.9663,-22.8163,-16.3093,16.2206,-24.9417,-115.1759
-56.3549,54.9215,42.1334,23.4891,-20.9591,-70.2010,-48.6951,-61.8661,-44.3990,-36.1383,57.0375,103.0213,20.5699,14.9246,-15.7840,-25.9526,2.6712,-64.6135,-137.3135
-71.4763,32.8065,-66.0462,57.8713,-108.3801,-90.8001,-73.2255,-67.0300,-53.9244,-77.3307,27.3727,62.5757,-23.3521,31.9443,19.3252,-40.0251,17.7214,-71.1717,-165.2550
18.0252,20.4569,-40.8674,110.0335,-167.6132,-74.5939,-109.7563,-62.3418,-78.4804,-109.9322,92.6268,18.2659,-9.5049,21.3163,15.0231,-32.1443,84.0206,-43.8529,-175.4214
150.9184,87.0372,85.7438,136.1275,-166.0917,-34.9791,-165.7945,-78.8815,-159.8269,-122.7368,183.8016,65.3867,3.7797,-3.0620,-47.6091,-27.9807,174.0511,-19.5563,-161.3851
262.4529,201.9426,181.2020,114.3437,-141.6779,-2.5198,-187.5987,-115.0266,-210.2755,-136.5063,208.0074,134.7511,-32.3323,-8.7182,-102.3541,-60.5924,236.9059,21.0827,-129.1398
265.5022,236.7881,205.3396,90.1890,-117.3347,18.7267,-136.2560,-118.5540,-150.8160,-136.7534,170.2591,126.1596,-65.4989,3.6716,-118.3352,-106.1825,231.8498,69.1916,-96.4381
160.4362,165.2395,173.7631,86.7640,-61.5580,11.5401,-62.3336,-74.9243,-53.3979,-97.5851,128.1123,73.5688,-52.8063,9.2685,-97.1087,-102.9967,163.7992,73.9294,-63.3323
60.1115,103.4834,77.6402,58.2712,38.4148,-32.8444,10.3825,-26.2547,25.8850,-35.2403,82.0346,48.0264,-18.5558,10.6171,-21.0140,-36.4620,78.3877,59.5192,1.7451
45.8257,73.4081,-18.7992,5.0355,127.9430,-79.3428,108.6280,-2.9695,112.0410,11.3951,32.5094,31.2938,23.0179,-3.0508,65.2873,38.8518,14.4679,80.7494,79.5434
94.1839,0.6017,-11.7861,-1.7284,164.9044,-101.9086,179.3379,-2.6200,171.9999,21.4967,29.5741,-12.2537,81.2832,-71.7992,81.6910,62.7629,-8.9716,100.6150,90.1730
138.7445,-53.2979,62.1751,43.0341,169.3944,-99.8848,158.9308,-16.0063,168.9382,6.1264,66.7960,-57.8082,129.4871,-157.8193,59.7683,25.6475,13.6727,63.8905,36.3822
149.5061,2.1497,99.5359,49.8387,146.7198,-65.7346,101.2682,-31.1451,142.0567,11.9109,72.2491,-78.1734,115.8331,-159.0048,61.4422,-14.4348,40.6646,-8.4446,12.7652
124.5844,49.1124,78.5830,-39.3038,63.0349,-20.0908,47.9929,-29.5428,85.3498,74.6499,31.7726,-92.3653,28.1940,-78.5259,44.1297,22.7708,-3.5452,-87.1234,36.5531
29.1242,-51.2804,-21.0441,-173.5317,-64.8025,-17.2291,-30.2990,-2.1431,-12.9159,159.4030,-19.3135,-123.5227,-79.7044,-20.2246,-8.0370,122.9855,-128.3240,-163.8142,41.5598
-124.8200,-211.2719,-196.5271,-254.3175,-153.9099,-66.0875,-80.8622,30.3404,-45.2111,208.6116,-74.8061,-155.8860,-127.4354,-20.0590,-19.8927,170.3302,-254.6368,-199.6013,24.6531
-195.8085,-280.4878,-292.6978,-263.1076,-149.9812,-123.7507,-32.7932,29.7239,30.6469,213.0607,-124.6620,-161.7177,-90.8315,-34.5011,11.5883,129.7678,-308.3067,-169.5054,31.7279
-129.0000,-256.9879,-214.0319,-266.5811,-72.1600,-152.2776,41.4459,-4.9953,90.9471,181.3297,-133.2249,-159.7320,-27.6902,-46.6315,29.4099,102.9191,-275.6770,-111.1089,53.8214
-76.8014,-204.5734,-122.0949,-265.0019,21.7375,-125.7891,70.1309,-24.1555,92.9238,125.9948,-96.1283,-193.1419,9.4546,-58.9326,50.1886,132.6882,-193.6678,-56.1149,64.2016
-94.3691,-132.6654,-140.0297,-185.9471,82.0873,-46.9465,95.2520,1.8473,105.5083,97.4464,-49.5339,-238.2063,29.9792,-42.3537,87.7978,148.8673,-124.2771,-1.8796,83.4294
-63.8491,-47.6763,-164.5028,-59.3818,108.6996,36.1439,123.8595,53.4297,118.4562,138.3171,-28.4289,-226.2727,48.5431,20.5593,104.3304,148.1429,-100.8299,43.6758,128.7009
-17.9290,-17.0995,-134.8232,13.3974,135.9419,96.8417,128.5650,120.4636,121.3139,235.4980,-32.6175,-169.4613,61.7059,90.8996,114.5576,194.2425,-101.4313,83.2364,168.2208
-68.7310,-82.4380,-111.9511,32.9301,156.1758,148.8072,148.2241,200.4073,163.9435,342.5323,-14.5941,-146.6647,84.9519,123.3739,137.4599,250.9967,-99.5537,133.5804,167.7666
-111.2683,-153.7760,-88.8646,34.9682,124.5918,158.8739,170.1861,240.5927,188.9379,376.9039,60.1815,-171.5655,116.3323,118.9097,130.7211,246.2955,-95.7284,149.9686,131.9622
-54.0114,-120.9727,-52.6902,-9.7208,53.2179,68.5159,116.5002,188.9273,119.7064,279.8463,146.3798,-187.8260,106.4712,91.7022,116.7214,221.0108,-98.0733,74.1830,76.4348
-28.5263,-33.4624,-76.8831,-80.6959,-4.9617,-82.6166,28.9174,78.8582,45.7882,141.8582,181.7240,-163.9750,46.1180,42.6940,147.2755,221.5349,-121.1165,-35.1788,4.1346
-63.8821,-14.3232,-145.3326,-106.2520,-50.6118,-180.0758,-3.6746,-17.1935,34.9963,87.7388,174.0536,-119.2294,-2.2987,2.9214,146.7053,191.6029,-158.9645,-77.7992,-61.2106
-21.7548,-67.8853,-134.8551,-107.4087,-91.4764,-167.5892,-3.2755,-58.7491,28.8731,78.0084,167.8577,-95.0335,-4.1627,15.7827,71.7714,109.8846,-149.6164,-67.7505,-68.4186
61.9320,-125.9310,-39.7242,-128.2413,-74.8451,-82.4751,19.7214,-27.4829,43.5314,55.7722,183.6229,-112.0705,16.9942,50.9923,44.4359,56.7238,-69.6046,-69.2952,-11.5838
42.2690,-173.4733,22.0482,-130.5288,-3.0512,-2.8754,90.4833,55.7154,109.8200,85.9281,204.4839,-133.9073,41.0449,46.3560,100.0993,68.4287,-15.2690,-78.8259,41.8607
-50.5036,-211.1031,-12.9106,-111.8795,16.9705,13.0908,121.9592,109.0610,121.2317,146.5563,195.2541,-118.9544,53.7606,14.6197,122.1383,91.6890,-56.9851,-80.1572,35.3354
-103.3896,-207.2250,-100.2414,-129.7480,-43.4571,-23.1265,52.1874,84.7334,48.8443,124.0831,166.3812,-85.0518,32.2879,-5.3846,97.7632,94.3063,-115.6281,-88.0284,-18.2051
-68.6629,-149.2061,-133.9169,-161.3440,-83.2873,-49.0979,-13.5432,37.5895,10.2453,75.8856,169.0396,-54.6833,-19.5052,-18.0918,87.3516,90.8179,-100.9796,-88.6114,-71.9891
50.5577,-67.3942,-49.8760,-145.7899,-63.5980,-35.2033,-22.6403,20.1969,9.5832,96.2677,186.3140,-13.5734,-67.8914,-12.7148,58.9343,86.0787,-38.9084,-67.0067,-86.9668
158.7610,-3.8390,68.8234,-99.2103,-40.1765,-16.2713,-38.6847,0.4435,-16.6257,78.1005,166.9871,29.9596,-79.0335,24.1022,15.6621,71.8169,8.0819,-65.1780,-54.9553
139.7444,14.7514,95.1708,-51.5712,-14.8479,-27.8712,-39.3051,-46.2207,-16.5947,-23.8917,152.5313,52.2709,-36.5190,40.3397,24.8643,48.7282,19.9852,-95.2323,-4.6886
39.7018,-8.2971,38.2225,-7.4015,43.7815,-39.6768,11.4654,-62.8779,21.2269,-41.6984,176.5243,64.6577,25.2739,16.5245,45.9455,32.3002,12.9610,-85.3426,47.2252
-13.0384,-44.4633,-8.0672,0.6501,106.7460,9.1469,45.0984,1.1381,29.8920,54.7458,162.4010,62.3345,41.7352,17.8483,30.3346,42.2692,30.4204,-7.2860,113.2798
30.1028,-55.0270,7.2745,-37.1843,148.1663,99.9534,63.3820,93.4017,51.3712,91.6825,110.2442,20.7921,17.1060,34.6462,48.0063,58.3598,86.6942,58.8669,158.2666
157.1861,-19.2604,89.0136,-63.5725,175.1641,133.0948,117.8763,109.4233,111.4514,28.0349,138.0959,-16.6959,11.2687,-19.5323,91.9024,23.9712,122.0661,51.3016,107.2283
265.8420,20.9263,180.4020,-47.8358,158.5664,76.9322,119.2909,26.8736,101.8213,-35.4996,221.2210,-1.7475,27.1703,-109.8278,63.2681,-47.3000,99.0692,2.7826,-14.3338
204.6148,5.1171,177.1418,-22.0365,84.2086,12.8602,27.4638,-61.1879,36.7436,-67.5267,213.3424,8.2319,38.8351,-121.9872,9.6801,-57.1115,69.3513,-42.1138,-81.0370
35.9534,-40.2417,79.9686,-12.3520,18.6471,-10.8772,-11.3244,-74.6678,42.0730,-81.1058,122.6201,-39.7579,65.1432,-64.6062,22.2335,9.7343,72.2123,-88.2521,-56.5955
-22.7157,-58.3253,13.1573,-17.8672,-0.1643,-36.6185,19.5969,-53.5571,58.1995,-84.0262,56.9568,-88.9992,94.0170,-33.7954,26.1573,34.8361,80.6160,-146.0948,-40.3935
30.2270,-72.1686,27.0477,-26.5569,-19.1574,-83.5274,-25.7309,-74.2761,-13.0703,-104.4665,25.9449,-92.4927,65.1669,-62.1313,-35.4145,-36.1847,77.9173,-189.7197,-89.6967
47.6642,-84.9509,51.3115,-35.5117,-54.1767,-117.3132,-105.3505,-121.6726,-75.5597,-126.0097,7.0161,-83.2392,0.5643,-102.2687,-70.1127,-103.9126,75.2217,-189.0570,-136.8569
39.4679,-25.1537,44.3345,-69.8637,-64.9867,-132.5513,-83.4404,-133.7054,-70.1318,-108.7365,3.0136,-85.5702,-18.3478,-90.6510,-38.4184,-91.8091,74.5344,-160.4469,-123.7185
72.4748,70.1077,36.3123,-119.7879,-51.9679,-144.0370,-31.9309,-111.1657,-70.3950,-92.1685,-24.0084,-95.3713,0.1869,-28.6043,-3.9524,-46.1651,87.6642,-143.3338,-90.3210
111.8288,69.3684,55.0565,-110.3700,-52.0321,-129.1847,-48.8080,-91.6154,-65.4349,-107.1672,-78.6748,-114.7334,-4.2105,10.1876,11.8459,-18.6726,123.2324,-133.0837,-77.4276
131.5648,7.4364,89.7760,-38.9978,-68.1448,-71.9906,-67.1565,-74.7584,-26.9096,-109.0028,-87.2203,-128.7235,-26.8204,6.0432,20.6905,-10.2708,147.8381,-91.5951,-49.4310
134.6600,21.7077,106.1247,0.2355,-70.7164,-6.5261,-40.6722,-43.6299,-17.2859,-99.3914,-48.3136,-123.1399,-31.1073,6.6305,19.1976,-28.7117,148.7322,-12.0947,30.3964
100.4744,79.9398,96.6821,11.6852,-32.1086,46.9140,6.0342,0.5393,0.0216,-94.2626,-42.7450,-120.9771,-7.6132,-9.5940,19.5544,-58.6388,167.5639,84.6308,130.4586
56.7812,87.0399,96.0546,83.7211,44.7416,110.7578,81.1901,55.7126,95.8295,-28.3678,-79.7987,-127.9986,31.6399,-72.7477,15.8836,-34.9908,195.0136,180.1048,187.9393
43.6245,104.9812,104.0298,166.5299,110.2515,172.7237,138.1808,108.3621,139.4673,75.9978,-112.6248,-116.3984,49.0777,-95.3448,-13.0012,40.1326,162.8831,236.3959,171.3918
31.2203,190.0781,79.7031,150.6304,118.9831,179.6211,96.1453,122.6750,47.3597,79.4410,-119.5115,-98.7224,21.5942,-38.6827,-23.2081,73.1674,90.9226,219.0338,125.0744
23.7097,228.6543,47.2244,96.2627,94.8986,140.8270,30.3275,103.0507,-3.1417,9.3783,-81.6174,-110.6000,-4.3951,-16.3848,22.4368,41.3499,73.2760,166.5871,138.0641
68.7722,148.0206,67.0630,114.1792,89.7631,120.6273,46.8153,99.4792,59.2255,14.1269,-16.5834,-132.1894,7.8561,-61.6663,54.4791,18.5291,102.5956,142.8571,199.6050
118.2821,62.2204,110.5623,163.3503,96.9640,117.2802,66.5058,104.5286,65.5713,43.3775,0.5870,-126.2492,18.7905,-67.0305,20.0353,29.6281,89.7654,139.4569,183.3872
94.4759,57.5389,110.6061,162.3922,74.6058,84.3568,16.0896,65.1339,-3.7919,-21.3073,-31.3300,-107.7488,13.8309,-12.7917,-20.5384,53.2318,34.7068,120.2622,78.6438
21.8186,54.2203,72.4463,112.8836,35.0106,43.8713,-4.2339,9.1979,4.2125,-86.5965,-24.4246,-110.9262,32.7436,22.9051,-13.4827,102.2939,0.5341,91.8623,36.2808
-27.0128,-6.9348,34.7819,25.0705,30.2546,35.1163,55.1319,2.1375,75.1183,-53.8362,33.1192,-139.2773,57.5836,19.8950,13.8707,146.7522,-18.1460,55.1457,85.0029
10.5874,-50.4009,22.4030,-84.1689,53.2579,25.9669,96.1500,15.4454,89.8276,-15.8276,74.1428,-168.3497,44.1464,-3.1201,23.0627,104.6714,-48.3907,-6.1929,88.3680
130.4923,-28.6208,54.0469,-138.3660,53.8222,-2.6985,90.2508,5.5444,74.0043,-15.0073,80.2409,-163.6392,33.7448,-23.2999,15.9789,18.2046,-57.0029,-54.6189,32.7730
198.5007,-2.7656,100.9816,-106.2203,49.9188,-6.9268,109.9214,17.1480,97.5851,35.2325,62.9124,-113.2548,71.1535,6.0148,23.5364,18.1694,-30.1822,-39.8062,28.0742
138.2216,-8.9085,105.5564,-62.2768,90.0932,11.8811,142.8994,56.6835,118.2677,91.7319,16.8105,-58.1595,109.7887,61.3421,47.3998,70.8397,-15.4203,2.6638,54.5140
74.1327,-23.2525,83.9805,-53.2371,129.3528,-1.8176,110.9508,33.2163,78.7583,12.9022,-26.3013,-51.6791,110.1561,43.9290,31.5951,30.2562,-19.3395,9.3727,19.4987
74.5276,-38.2527,85.8357,-50.8530,98.9753,-43.2216,34.0112,-59.3813,9.6346,-155.3153,-14.4525,-78.7688,92.3905,-34.6569,-30.0732,-75.3954,2.3934,-3.2627,-42.1528
71.9536,-26.4393,94.2642,-51.4617,36.5004,-51.9983,-3.0051,-102.4067,-32.2674,-234.8306,36.6262,-61.8339,59.7137,-50.5908,-49.2420,-97.4513,50.5972,22.0293,-53.5971
117.1902,50.3993,100.1769,-58.0669,8.2339,6.3114,0.6733,-52.9370,-47.7504,-189.6962,58.9501,30.8737,16.7781,27.4060,-14.5197,-46.7630,101.6279,86.1476,-31.2040
249.8949,120.8087,143.8667,-14.7805,11.2718,113.7373,-17.6470,5.3621,-71.5816,-129.4851,22.4078,132.0721,9.8084,107.9711,-26.8799,-51.0345,157.5801,122.5140,-18.0070
280.4589,100.2689,190.8225,90.2634,25.1662,185.3660,-59.3742,14.6881,-98.9798,-127.5818,-29.8855,166.6744,32.9047,112.9722,-86.0918,-109.2400,190.2369,74.5689,-21.6031
152.0514,70.3659,160.7714,155.9910,28.1373,136.8131,-80.5301,1.7549,-105.4015,-155.2063,-44.8686,138.4538,14.9612,49.9754,-87.4455,-110.6305,148.4224,-13.1698,-33.1916
97.5604,118.3503,97.1438,120.6637,-11.7278,29.2032,-80.6858,7.4793,-102.5213,-142.7694,-51.1556,92.4770,-42.2148,-0.9738,-33.0976,-32.3080,63.3829,-30.3057,-26.8265
158.6923,161.2115,96.6351,58.9113,-49.8176,-0.3652,-67.1926,30.8283,-87.2043,-86.7727,-109.1072,61.9241,-63.7476,18.3189,-0.3530,35.3954,25.3561,37.4748,12.4939
150.8918,132.4187,139.4948,50.7201,-4.1587,39.5052,-20.4839,29.8802,-31.8262,-75.7634,-165.7701,60.1835,-31.6993,60.0753,9.9337,21.5421,64.4139,88.7585,49.1890
120.2328,91.9154,171.5029,80.5834,75.9977,49.8680,18.8646,-12.8044,10.0852,-137.4244,-114.6104,59.7842,17.9155,61.3699,13.7233,-42.2524,139.1434,83.5911,44.8269
209.1497,67.3420,207.6969,100.3120,88.9096,46.1475,-17.4593,-43.8347,-29.8893,-155.8201,10.1548,23.7243,58.2656,42.5437,-2.0696,-63.2058,177.7200,80.2093,13.3685
302.3287,53.5089,233.2483,81.3687,72.0361,82.1113,-63.1984,-19.8277,-68.4502,-66.5679,87.4257,-13.9543,60.5049,16.0112,3.3977,-7.7627,105.2581,86.1434,-2.7199
282.8689,89.4953,195.1439,11.7107,93.8828,99.7696,-5.5183,20.9028,-7.7059,27.8917,101.6584,-14.5903,31.3889,-56.9869,61.3825,48.5984,-68.5046,60.0121,13.9506
252.2466,137.2192,137.0339,-73.7568,100.8320,43.2222,86.1879,33.7023,67.7171,59.0279,110.3664,-47.9610,42.0455,-146.9348,99.3687,45.6501,-220.2551,34.5622,26.0934
269.8691,106.9363,145.2272,-100.0420,50.2017,-24.2873,79.5847,28.5355,66.6957,90.4444,127.7947,-165.6861,101.8195,-164.7001,77.8248,39.3072,-252.0344,66.5227,-7.4193
285.5785,63.3037,198.1762,-48.8832,5.7320,-30.0615,26.8749,22.1945,55.2839,139.9091,157.9053,-262.0453,118.6862,-112.9278,68.4882,80.5774,-181.3783,125.9996,-47.1387
315.3189,106.1064,236.0217,16.4918,0.7650,11.5222,23.9528,18.7332,65.1964,142.7057,208.7149,-244.3832,69.5105,-80.9609,86.4392,107.0177,-66.1240,156.3801,-34.0160
368.8629,147.2694,271.4756,58.9076,-8.7208,59.8445,7.4401,29.1918,19.8308,107.8059,234.5089,-186.3751,31.4453,-100.4758,55.1547,71.0464,55.1618,161.0771,2.4412
374.6132,98.2378,315.1064,113.0213,-22.6290,115.6017,-56.8269,57.9557,-51.6300,105.2662,197.2888,-168.8708,31.2664,-110.1958,-13.6916,35.8551,156.4038,174.2833,33.0183
328.4508,53.1522,335.4606,197.6989,25.6047,200.7485,-37.9303,106.7215,-24.2009,139.4605,153.2485,-152.9168,50.4262,-60.4458,-23.7276,47.0149,236.9592,218.8015,103.1527
300.0833,83.8573,339.3382,274.7273,149.4280,297.2936,92.7927,176.6268,76.3875,166.3650,166.1867,-92.7277,94.8607,12.1763,25.9563,64.0982,306.8426,283.5451,187.8228
298.4818,138.0209,349.9570,313.3633,249.6515,339.1940,153.7263,223.0658,102.3461,165.9300,208.0078,-10.9161,121.7314,48.5483,49.1047,65.2661,349.9175,310.1817,183.2462
307.8745,204.4685,347.7946,317.4492,230.9602,293.5158,72.4995,192.1708,32.8875,143.0305,223.6765,58.6181,71.5677,52.0031,21.9801,68.7593,364.3242,264.6075,113.8713
346.2726,290.1536,339.2643,294.1915,143.4144,208.0861,-2.6178,119.9575,-23.9930,110.1524,215.4759,97.1929,12.9385,47.9165,-12.4373,68.6542,386.5306,199.6650,91.6746
378.4795,292.8147,358.0400,258.3094,105.0137,142.6531,-0.3716,77.5168,-33.3225,72.5209,210.8432,93.9556,35.8118,37.9486,-32.3310,59.4959,411.0759,163.9380,105.5823
315.3094,151.6175,352.3376,231.8870,126.4682,106.1712,-2.6124,59.3933,-43.0267,36.4362,209.9976,64.2833,82.4962,48.0479,-38.0389,51.4063,375.6626,128.0438,95.8421
166.0792,1.8628,253.8258,202.8374,146.8507,78.8770,-8.4068,42.2461,-38.8888,39.2950,208.4107,54.4606,84.0506,102.1058,-27.8480,30.5332,268.5981,75.9110,90.9539
62.6007,-12.6585,129.6068,142.8900,150.6263,46.7231,43.0279,49.1810,14.6983,97.2475,223.4615,100.8702,80.1606,144.7426,-21.0011,5.3534,150.7304,44.7932,90.7001
69.4912,50.4751,66.1367,63.7151,124.3470,10.6762,73.4904,70.0386,42.9132,146.0217,246.7717,168.2166,80.4637,124.8352,-41.2678,23.0048,47.0389,24.8026,30.7097
78.4799,42.1980,8.6230,-15.1195,34.6528,-28.1021,-6.4585,54.7804,-24.7343,140.8526,219.4731,168.7569,37.6988,80.8589,-70.4701,55.6888,-80.0303,-35.7792,-59.2899
-17.9703,-63.3251,-101.2737,-97.6544,-88.7429,-89.1151,-106.4813,16.4582,-98.4538,133.6317,128.8058,97.9426,-25.8713,46.2874,-82.9823,29.4273,-220.2323,-107.2794,-92.6170
-143.5458,-160.0569,-184.7964,-150.3947,-188.3087,-171.3445,-128.0623,1.1413,-89.3980,150.1255,66.5381,60.5802,-65.4257,15.9848,-91.4732,-15.9734,-281.2787,-106.6683,-92.3475
-158.3460,-167.1424,-162.7625,-121.8396,-254.3754,-212.2738,-121.8834,-17.0813,-71.1166,119.6230,99.4497,91.6642,-96.1337,16.7658,-98.9024,-5.3437,-220.6096,-43.5753,-126.3220
-78.6056,-119.8052,-81.7237,-57.7122,-273.0125,-173.0600,-134.5149,-79.9046,-107.8454,9.8498,160.0942,101.9596,-120.2285,45.4619,-82.5154,13.6102,-128.4039,-8.8685,-169.7319
-31.9095,-90.0700,-33.1525,-51.2167,-231.9631,-103.6356,-133.1871,-133.4057,-129.7019,-79.2352,152.5301,56.1176,-120.3308,32.8939,-64.5374,-6.1965,-112.0962,-28.6952,-162.8067
-61.1703,-77.3524,-55.4636,-87.5833,-185.7502,-42.2205,-110.1542,-88.1848,-84.7066,-26.4273,76.5228,21.6138,-121.3964,-13.7280,-83.1504,-3.5008,-168.5766,-40.2865,-105.2468
-102.8181,-43.2754,-124.1823,-84.1394,-165.7138,31.4908,-67.6622,37.0151,-12.9042,132.2495,-8.9180,29.4685,-131.7374,-13.5460,-96.6044,37.4563,-222.5944,-11.8832,-38.0043
-117.5990,-4.8123,-179.8269,-29.3477,-129.7602,98.3550,5.1967,124.3008,36.9564,211.7248,-57.9207,50.1902,-121.0050,19.3698,-59.8916,48.2562,-216.5288,12.3574,-2.1749
-132.3819,6.2194,-177.2315,33.6955,-95.2902,109.3484,41.2024,110.3301,29.4970,131.8427,-55.1808,69.7523,-103.7971,12.9653,-36.5708,22.5399,-144.7010,2.9735,-17.6980
-149.2816,24.7853,-121.6237,78.3474,-130.0013,79.8078,-30.1570,45.5661,-36.6362,29.7333,-19.8406,87.9959,-108.5257,-25.7288,-83.1643,-4.7037,-65.8522,-11.2085,-70.2022
-117.9504,78.8570,-63.2685,87.4560,-201.3042,40.0892,-130.5079,-10.3493,-99.9109,4.2789,12.9019,99.8797,-114.5203,-57.0113,-136.8611,-38.4634,-50.7820,-12.3021,-126.1694
-51.0209,104.4886,-62.6827,57.5602,-226.4281,-14.6853,-157.0116,-46.2949,-125.3308,-7.8768,16.1228,96.3577,-117.5739,-70.4378,-141.9902,-52.0671,-88.0867,-15.4508,-154.2706
-56.0754,49.2018,-121.1335,19.2346,-188.7418,-45.1877,-128.6098,-47.3749,-130.9996,-10.4689,-29.9608,55.0822,-126.7243,-58.7182,-131.1065,-3.3975,-115.1400,-10.8628,-141.7935
-166.1896,-34.0994,-163.7768,7.2203,-98.2915,2.5582,-74.2197,-5.7903,-93.1995,55.2577,-101.3930,-8.6985,-94.9284,-39.6467,-114.4822,47.3793,-117.0091,19.6380,-111.4781
-247.3820,-75.8899,-147.3141,32.7424,11.8558,72.9923,7.5461,35.2480,-7.5968,102.4270,-111.7303,-15.7998,-14.8996,-41.6542,-66.2177,25.1687,-103.7128,44.2445,-87.4184
-169.8564,-49.1414,-100.7686,76.7964,59.7377,81.2206,58.1552,50.9635,37.9623,50.7501,-41.8751,53.0358,21.8872,-28.7953,-17.9736,-22.0435,-61.7310,40.8599,-47.1989
6.2296,68.7393,-29.3903,94.2068,29.0699,58.0570,53.0835,75.6155,31.1978,16.8552,-9.6526,110.2686,-12.3164,35.3610,-6.7020,-20.1228,1.8611,61.9954,26.6618
100.7359,232.6211,63.3954,81.1710,-5.1764,63.9215,67.5349,110.1113,61.7283,63.2982,-74.9546,114.9171,-34.7153,93.1703,3.0138,16.0944,58.2230,135.5159,88.9376
49.9042,290.9422,95.0321,100.0051,-25.4199,77.0008,101.5449,111.2966,104.4318,75.3141,-130.9524,109.7002,-8.1235,79.9298,33.3473,40.2306,97.8053,181.5512,109.1614
-20.9703,177.5099,34.2163,144.0100,-63.1062,73.5290,77.6684,91.6943,84.6768,37.3998,-115.9158,89.2736,35.0263,13.4427,45.1593,41.8626,84.1309,129.5734,131.4433
-26.0044,13.6854,-26.2747,98.1760,-82.4667,79.7806,40.0492,101.7574,76.2071,61.6053,-118.0219,21.3123,71.0888,-52.4768,27.3042,45.9597,-44.3009,29.5226,177.7216
-67.2339,-102.3141,-71.8349,-53.5750,-54.2989,92.0604,66.0971,138.5010,123.5540,148.0611,-181.1980,-45.8858,65.7066,-71.9065,13.7744,77.2978,-253.1299,-39.3092,192.7265
-197.8525,-194.6080,-180.9170,-163.4806,-36.1148,71.8783,82.9735,158.7677,112.7576,205.1111,-238.4441,-58.5981,-1.2043,-32.3013,17.4441,104.9371,-412.5718,-76.5160,145.0099
-271.6661,-227.1279,-286.2675,-151.1760,-59.8131,28.2890,29.3255,132.8810,31.1473,181.1446,-261.4551,-43.9242,-55.7276,16.2233,29.7394,78.3257,-440.4454,-102.2117,76.5968
-215.1349,-108.2961,-257.1530,-88.1136,-73.0617,11.0059,-13.5462,68.7507,1.1820,73.2240,-273.1718,-22.5494,-19.7878,21.0921,39.5101,22.9219,-351.5689,-82.7457,27.5828
-143.3480,74.6353,-155.2724,-22.2353,-37.2191,39.2340,-11.0889,26.5181,9.9909,-37.3764,-260.6347,29.8524,64.8365,-2.0560,31.2486,-9.5371,-212.1025,2.2367,4.8631
-106.2652,124.3660,-102.0185,59.6815,21.7045,87.9191,-22.6424,53.8778,-22.6404,-49.4578,-220.3496,90.3024,119.8230,-7.9529,19.9590,-27.3997,-103.9935,85.4466,7.2290
-75.1785,45.4714,-86.6768,116.9938,60.2249,116.0077,-25.5523,99.2181,-35.1985,-15.0382,-195.9598,97.5518,140.7198,22.5454,40.9697,-33.8114,-67.4704,85.9840,13.3694
-111.9601,3.6236,-100.9580,92.9655,71.8696,96.0417,39.2863,91.3563,24.8637,-25.7273,-203.0217,58.0286,150.3853,62.3364,75.0523,-5.9632,-71.4458,18.2624,4.3666
-208.5505,21.3033,-170.0206,14.6296,90.1500,45.3103,118.7370,61.5545,85.2102,-14.5278,-213.4156,26.5559,142.7874,53.4236,81.9524,25.4336,-73.7482,-36.0602,24.3172
-212.4541,-4.7953,-205.7883,-54.7969,123.2148,11.8329,148.3379,71.1408,118.4943,70.6589,-211.7427,12.4419,113.3181,0.9064,85.7943,31.8467,-47.8060,-32.4862,111.8216
-144.4901,-65.2930,-142.5637,-77.9430,128.9695,3.6332,156.9176,96.1458,149.4587,120.7619,-202.9844,0.1192,77.3515,-12.0575,110.0164,43.7852,34.2764,5.2072,187.2118
-180.3986,-73.7474,-101.6473,-34.8255,87.8958,-25.0134,154.3648,77.2074,126.8767,70.4779,-200.3692,6.0284,40.2962,28.1410,109.9483,37.4154,145.2910,28.7543,149.7049
-258.8310,-40.5514,-155.9820,37.3312,18.2715,-84.5865,88.0134,8.8048,24.1288,-25.0235,-210.4397,35.0594,-10.6141,54.6885,66.3100,-40.5439,189.8523,10.4881,35.0188
-192.0716,-23.4032,-176.6598,39.2344,-79.7940,-114.3890,-43.3919,-67.6263,-81.7661,-133.3849,-202.2337,53.4256,-69.0160,62.7779,19.3414,-114.2974,128.4699,-39.1895,-62.6695
-60.8222,-29.1407,-102.5843,-48.5516,-189.9782,-82.6136,-167.4595,-111.2177,-149.2810,-224.2977,-148.0963,56.1183,-99.0904,67.1817,-25.8145,-100.2229,26.5507,-88.7010,-127.5847
-57.0111,-60.8233,-64.8924,-120.3192,-242.7593,-45.8690,-217.1423,-116.2236,-190.6497,-230.3803,-86.6616,69.8560,-91.3228,25.7724,-81.2725,-80.3758,-55.7165,-123.4987,-171.9384
-142.6057,-123.3064,-131.9604,-128.0688,-210.8257,-60.3257,-178.8811,-114.8982,-179.7358,-168.9955,-61.2859,81.2770,-87.7473,-36.0320,-104.3874,-122.9582,-126.5622,-160.0980,-186.5937
-178.5758,-175.9734,-204.1165,-153.7841,-160.1160,-112.1705,-119.4096,-137.0040,-132.9908,-128.3601,-56.9820,68.3663,-119.1530,-39.2034,-79.0178,-152.9244,-207.9375,-212.4895,-196.3223
-160.4936,-184.7578,-210.7942,-228.2198,-150.3291,-163.5179,-132.9810,-173.4306,-138.6633,-119.8263,-60.8479,61.5791,-163.9581,-20.9775,-66.4543,-140.4707,-289.1094,-249.8210,-215.2468
-152.0343,-154.0812,-197.1562,-264.4855,-160.1981,-185.2588,-193.8558,-186.0895,-180.4891,-99.0178,-77.8048,78.3477,-184.5597,-34.9855,-86.8714,-138.4250,-339.8588,-218.6760,-186.2112
-162.4591,-95.5946,-198.6762,-228.1409,-130.7789,-150.0923,-177.5272,-154.3550,-150.5911,-73.7690,-80.6039,84.1497,-168.4186,-22.1739,-88.9414,-125.9306,-351.1475,-133.2773,-107.7827
-164.4373,-66.8706,-189.8047,-187.4859,-58.5968,-73.7418,-85.9810,-111.6965,-73.2071,-89.4740,-61.6826,71.7984,-145.4298,18.3988,-63.4643,-73.4754,-352.9630,-89.6249,-82.5024
-154.4359,-127.5420,-165.3371,-169.9172,-24.5315,-27.9726,-58.3428,-100.9887,-62.4146,-145.1499,-70.2215,71.6969,-159.1219,6.8910,-49.0143,-47.1076,-366.7201,-133.6235,-125.5838
-159.7052,-184.0840,-153.3010,-139.4126,-72.7837,-54.2028,-117.7189,-106.5532,-100.8334,-174.9646,-112.0145,92.6685,-190.0394,-19.5085,-53.1107,-75.0759,-362.5005,-194.4917,-135.6129
-179.6516,-104.3134,-147.7101,-102.5180,-119.4005,-120.6965,-144.4103,-105.3669,-102.2547,-148.7517,-131.1644,130.8818,-175.1225,-3.8049,-64.5553,-94.4064,-302.3952,-205.7337,-100.3827
-170.4314,40.9315,-124.0319,-84.6847,-96.8403,-178.3055,-108.1247,-124.2733,-87.8350,-131.4323,-119.2293,164.8163,-127.8031,-21.3210,-82.0750,-87.1696,-194.3778,-177.2491,-89.6915
-125.2328,125.9861,-95.3952,-42.7871,-68.3655,-184.5758,-87.5762,-147.5708,-102.0369,-142.6308,-115.0631,142.9288,-119.1882,-83.8344,-95.6493,-85.3840,-78.6960,-114.1297,-85.1489
-89.7314,178.5428,-76.3231,71.2008,-76.2086,-102.0198,-90.0113,-94.1193,-97.5470,-96.7900,-132.1012,81.3726,-144.3815,-80.5523,-97.2923,-76.0449,10.1632,-2.0631,-37.3115
-81.8212,205.1372,-53.7694,206.2914,-55.0792,50.3957,-50.7771,29.8090,-35.0079,6.9814,-168.6258,67.4725,-138.0677,-11.9992,-82.3106,-30.7681,60.1105,126.1078,28.7924
-81.4242,145.1325,-33.7788,263.9696,24.1489,188.3106,44.2989,125.7293,51.8320,62.6890,-207.1811,93.4666,-74.8402,37.9104,-26.5112,34.7793,81.2961,221.4777,95.1633
-70.3822,104.1052,-20.8391,218.2433,114.4803,246.3277,153.3474,165.5307,132.2000,58.5667,-195.2093,90.3391,32.2738,76.6979,58.1801,76.1654,99.3959,266.1430,159.1718
-28.1631,211.4030,24.3095,137.5578,190.7448,224.3525,225.7365,180.5066,188.8616,48.3366,-115.5313,100.7871,144.4119,111.8181,97.2877,62.2671,139.4964,245.7276,163.8210
44.5587,332.5675,103.9114,111.0746,240.1534,162.7634,234.8682,167.5871,199.5100,29.1456,-19.6699,161.9939,201.2264,98.3916,78.0384,22.2986,198.2877,179.0136,108.0223
94.9567,325.0967,156.2860,167.5910,241.8253,116.0036,214.3048,143.2932,188.7123,30.1900,50.7432,175.6097,202.2819,64.5919,77.6667,17.0122,242.2730,143.5333,87.7001
85.0567,291.3111,171.1397,256.5431,226.2563,109.4788,206.0957,146.4449,191.8501,89.3629,82.8499,125.1208,205.7543,66.8696,101.7034,36.1249,255.7043,166.9303,104.8634
49.6567,292.0235,183.1467,306.8622,244.1109,117.6167,193.8459,154.7216,178.7385,124.7950,61.2688,133.1664,209.2135,88.4982,81.1393,30.9798,254.8082,198.0066,87.5710
39.4700,234.3187,170.1845,292.5391,289.2886,130.6181,178.5852,154.0250,141.3118,101.3505,5.1033,174.9801,174.2779,103.8008,41.4497,29.5109,238.0772,223.6063,92.5104
60.8201,149.3870,121.5661,232.7993,322.0930,171.0976,198.1376,185.8621,136.2684,126.9570,-36.2713,117.6023,135.6476,95.0043,53.3533,66.2335,196.9133,244.4380,169.9333
85.3041,142.0963,99.2200,157.2243,301.6649,193.5665,198.2304,208.3586,143.1021,179.0510,-50.8103,35.6928,131.2843,38.9292,72.2800,82.1532,162.2346,189.6811,180.9391
79.3700,156.8756,103.3335,90.9004,206.6906,104.8423,97.9378,114.6559,85.3771,95.8601,-54.7705,86.7522,115.5853,-11.5271,35.7666,34.1788,146.7214,41.2710,48.2895
17.5124,118.5783,48.5364,48.5383,84.4643,-69.0549,-25.5525,-73.1703,-1.1115,-103.0225,-78.5472,203.8544,50.3523,2.6903,-6.6337,-31.8886,113.0128,-97.3237,-85.6293
-116.0860,52.4157,-73.8283,22.0290,-4.9344,-195.6341,-74.2956,-241.0767,-54.0747,-260.4538,-181.8631,247.3425,-34.2120,19.3619,-15.8987,-85.9953,65.1245,-181.3286,-131.7768
-297.3418,-63.0839,-190.6047,-17.0730,-76.7419,-222.9131,-107.8524,-335.7446,-104.9537,-315.7728,-350.9837,241.2596,-102.3923,-1.0080,-31.2458,-132.7944,34.2566,-263.4978,-141.8236
-439.6500,-239.7938,-274.4214,-91.4289,-136.8074,-204.1165,-150.4842,-337.4817,-129.3539,-258.6253,-450.0698,234.5300,-138.2820,7.8081,-39.9420,-142.8427,-19.6467,-335.1917,-120.1325
-484.0154,-364.1465,-339.9702,-188.7019,-143.3864,-186.7063,-113.9488,-258.6825,-56.1857,-129.9049,-416.4219,181.2862,-138.4974,36.3273,7.6099,-102.7767,-119.9780,-364.4204,-83.5057
-477.7310,-396.7505,-387.7588,-265.2645,-142.7371,-201.7163,-58.0514,-207.5932,5.9766,-98.4698,-338.0611,81.8708,-126.2530,25.6591,61.4826,-64.5755,-186.8433,-400.9215,-138.8326
-458.9791,-411.6000,-406.9836,-296.2104,-209.2900,-272.4169,-124.7274,-256.2831,-73.3242,-223.9235,-260.4852,26.7100,-123.2151,23.6531,52.4629,-70.9521,-184.7284,-451.4636,-264.3962
-375.1847,-355.2739,-371.9568,-301.7363,-257.6429,-352.8013,-209.2291,-325.0190,-157.0540,-320.8601,-160.2392,58.5344,-120.6980,41.8295,22.2000,-110.2841,-167.2979,-428.3696,-303.1080
-236.5909,-178.6371,-277.3444,-291.7193,-194.9947,-357.9902,-140.8078,-335.6992,-99.3208,-286.3884,-88.3576,127.4587,-111.0639,1.5004,14.4378,-147.8029,-120.6323,-322.7061,-248.8771
-173.8086,-72.8993,-195.6821,-232.3726,-124.5297,-277.2998,-35.7677,-309.0472,-34.3389,-242.5764,-86.3995,170.3334,-104.8756,-38.1661,-13.7924,-152.5809,-9.4257,-212.2444,-209.6889
-232.6442,-142.6652,-190.3808,-124.1989,-134.5538,-169.0275,-58.0618,-262.6132,-75.9894,-253.6277,-81.3330,166.3118,-113.1750,29.2905,-61.3124,-125.9449,83.7531,-106.6038,-173.9823
-299.6209,-192.5092,-210.9875,-46.4122,-134.3099,-76.9977,-108.3164,-196.0328,-95.1481,-238.8551,-38.8225,133.1378,-136.3125,99.8341,-44.6301,-91.7181,88.2102,6.4899,-92.0803
-294.8750,-158.2308,-197.7802,-58.6199,-84.5005,-20.9575,-67.6065,-135.4391,-12.6678,-165.1068,-17.4900,88.0034,-153.2361,63.8675,37.8254,-45.0151,53.7940,63.3935,2.1433
-267.1527,-211.7786,-185.6862,-122.4763,-75.3638,-12.3388,-7.7005,-80.4092,68.6272,-84.0524,-13.3561,28.4730,-141.9654,18.5383,78.2466,10.1083,26.1159,43.0804,93.1905
-254.6961,-298.7513,-192.4546,-152.8016,-97.6135,-36.7190,19.2795,-14.5343,94.9991,-24.2510,28.0253,-22.9141,-117.6113,28.0207,35.9802,14.4575,26.6646,38.8781,185.9595
-197.8694,-211.7938,-148.0095,-90.2319,-56.4842,-56.4999,57.9746,27.7093,101.8973,28.6266,94.1014,-15.8947,-98.5986,23.7300,-10.6903,-38.7132,107.3448,106.2777,224.5328
-73.1401,-59.2886,-33.2772,50.5788,12.4121,-33.7944,81.1500,29.2720,81.1084,67.5700,153.8576,27.2536,-77.4363,0.0878,-10.2927,-57.6065,228.1069,182.6553,194.0792
7.0748,-53.3381,54.0583,163.8379,19.2448,45.7883,37.3961,40.3162,30.3389,53.9561,200.1475,8.6479,-67.6143,-10.8525,0.0791,-9.9638,258.4140,204.0024,173.6280
-30.5946,-98.4386,49.8347,159.0806,11.7911,139.9715,-5.8091,79.6290,8.3995,17.1742,201.6831,-79.6104,-75.8995,-30.8336,-1.5178,38.5992,197.5917,181.4291,188.8333
-80.5258,-59.8803,7.1678,81.9937,70.7604,175.7791,15.0354,111.8214,26.8694,56.2889,152.8098,-132.0868,-47.3225,-26.0852,14.9028,78.8370,141.5922,147.3379,178.9355
-62.6978,-35.9724,-20.9253,24.5317,138.3786,142.9405,33.0423,125.2318,26.1495,142.9753,111.2811,-128.6487,25.4347,44.1573,42.6535,145.9907,83.6737,109.2178,119.0498
-56.8541,-94.0926,-44.1931,-14.5562,120.3332,95.9342,-5.3944,120.1678,-7.0997,127.4028,98.3032,-156.4045,51.5092,82.3541,41.5182,185.8929,3.0915,63.2012,47.4661
-79.9147,-153.7982,-53.0221,-65.6748,49.2707,54.1920,-33.4750,85.0036,-16.4389,29.0379,80.4018,-206.7238,15.4142,22.3094,34.4886,141.1419,-29.4389,10.6073,11.9439
-32.4074,-176.9583,-22.9875,-107.0245,22.9566,-2.3847,6.4315,45.0530,28.7757,16.9607,51.1484,-195.7586,6.4881,-25.6090,65.3395,92.1692,-10.9495,-38.9340,29.0606
51.7219,-161.8607,3.7099,-130.9643,60.3018,-55.4057,71.9589,38.3458,91.1316,88.1777,18.2806,-164.0389,37.4563,3.8155,94.8070,129.8529,-30.0353,-70.7872,58.9187
41.3513,-98.5051,-17.0322,-159.8778,106.6411,-74.3757,109.6428,44.2730,123.4436,105.2531,-13.2400,-202.2026,55.8419,10.8998,80.0614,185.3253,-88.6373,-83.5539,58.3625
-37.7086,-74.5437,-47.3091,-185.1340,123.9492,-81.6312,122.5078,25.8625,125.6769,66.3251,-5.1427,-268.3371,70.4698,-62.4027,68.1033,141.3868,-130.9960,-96.8622,46.3421
-67.9358,-170.5409,-53.8896,-195.2269,111.0115,-101.2977,123.7102,-4.0014,118.7911,52.6346,47.7250,-284.6747,86.1561,-133.0949,82.5579,27.6365,-163.3032,-121.0983,43.7588
-31.9208,-267.6086,-54.9638,-199.6161,72.9919,-113.1418,97.8646,-20.9452,93.1798,51.8145,71.0021,-260.3947,61.6979,-130.2465,58.7447,-36.7730,-176.4590,-141.6405,27.3932
15.0201,-205.8259,-42.6948,-181.5611,15.9416,-119.5711,32.3967,-36.7765,34.1862,0.0554,42.4237,-213.5549,14.8925,-105.6448,-16.1346,-34.1258,-120.7783,-149.9484,2.0354
28.9648,-21.7613,-6.5959,-131.0513,-44.0686,-155.5518,-40.0216,-67.2658,-24.8828,-106.3353,37.5952,-155.3317,-3.3283,-138.2489,-62.5702,-33.9979,-29.3539,-144.3282,3.6527
18.3973,119.3600,17.7325,-85.3342,-83.7390,-188.2346,-65.3039,-84.5736,-41.7584,-177.2508,78.0413,-129.6428,-7.8497,-178.7186,-47.7851,-32.0344,19.8522,-105.0037,25.7102
27.5671,111.8485,23.0427,-52.9234,-92.6680,-137.2297,-53.8220,-45.1605,-42.7074,-120.5543,93.1271,-126.7004,-25.4639,-111.6667,-21.0553,25.3877,31.0749,-44.7501,43.3203
20.3629,-2.6418,22.9328,-15.3845,-92.8595,-30.4568,-79.6879,28.4348,-86.2666,-11.3648,49.1929,-97.1180,-45.7797,22.1283,-27.5027,90.4767,31.7847,-40.5171,53.2438
-58.2856,-90.4536,-15.5065,-18.4004,-107.1815,4.9198,-143.3996,55.7345,-152.5516,-10.5977,-10.9606,-79.0739,-63.7611,70.2224,-72.2145,74.2273,-1.3977,-115.6164,42.8634
-88.9442,-86.2685,-72.1775,-91.6325,-112.7729,-56.9634,-149.7220,19.1609,-159.5197,-87.4849,-41.9110,-107.3663,-69.8110,29.4172,-117.5732,14.7515,-61.3050,-169.1540,11.8352
25.6267,-36.2930,-56.4931,-144.3848,-79.8564,-94.1593,-82.9760,-8.3397,-96.8680,-89.5481,-43.3961,-115.2437,-49.6053,8.3468,-110.4203,8.0191,-83.0450,-116.6487,4.0630
118.1741,8.6043,10.5269,-105.1698,-27.1299,-31.5240,-32.5836,13.7810,-30.6804,-26.1507,-39.5748,-97.7587,-30.1335,0.3877,-60.5595,35.1586,-39.0111,-4.6333,35.3948
84.1432,18.1746,43.4658,-39.4698,23.3286,54.2526,-7.5769,43.9368,25.4786,4.5859,-26.7410,-126.5551,-28.7259,-50.4905,-25.2913,18.1410,38.0201,71.5794,62.4605
78.1054,-15.6922,74.7119,-19.6000,79.8814,77.2887,56.9391,53.4947,101.1379,21.8693,8.4746,-164.0972,-12.6537,-85.4672,-9.7836,-20.6846,107.6507,77.3606,68.2480
128.1674,-30.7957,121.7625,-23.3246,125.6350,73.8451,128.4015,80.2486,158.4710,86.6154,21.5981,-163.8389,16.7467,-31.8086,15.0829,7.5968,135.2516,58.7549,88.3063
92.2815,0.0087,91.2360,-9.0187,131.9887,115.8914,144.0613,156.5559,156.3963,181.3740,-26.0328,-199.2442,30.2305,67.0970,50.4021,100.0301,110.6868,85.1296,139.6681
16.5930,1.3442,2.7579,16.7135,129.9709,169.7687,151.4434,226.1639,153.9892,231.8289,-71.5576,-242.2843,55.7318,125.7549,100.5990,147.2553,77.8313,132.2133,187.0412
5.3094,-21.2133,-21.1870,12.5493,145.5275,135.0361,181.2462,185.5826,190.3129,166.0284,-62.8021,-161.2875,107.9287,118.6925,154.5107,90.2639,77.9115,87.4997,178.9772
-17.8437,2.0170,-9.1794,-46.1344,122.9736,0.2765,156.5542,31.0285,181.7806,17.0509,-60.7060,-51.1538,124.1024,76.7249,139.9783,-2.9173,78.5418,-50.1156,105.2909
-80.4751,-9.6077,-49.7911,-122.9683,35.6209,-134.3767,59.9787,-114.5195,70.8196,-78.9135,-101.4988,-103.9330,77.5942,27.6862,41.0443,-60.9874,31.1570,-131.6146,15.1552
-111.1472,-114.5430,-104.6253,-165.4347,-38.6343,-197.2964,-23.8575,-169.8432,-63.1563,-82.4776,-129.7699,-226.1892,21.6378,-28.3977,-41.4751,-95.1830,-42.4276,-101.7970,-43.1773
-148.1657,-179.5535,-140.5366,-179.5941,-55.7829,-216.4256,-69.4614,-176.5701,-124.7688,-75.3434,-130.3559,-240.3110,-8.3932,-74.4796,-65.0649,-109.2524,-100.4825,-79.9526,-77.3923
-210.6116,-194.3430,-193.0901,-203.7940,-82.9199,-237.0844,-113.0832,-182.5067,-119.4064,-73.7545,-130.1370,-214.7156,-21.2085,-88.1821,-93.0997,-79.3556,-159.8309,-146.2451,-119.4977
-222.0064,-297.0839,-249.9690,-257.6647,-161.5939,-261.3775,-146.0862,-187.3642,-113.6635,-57.3730,-108.1640,-252.4016,-34.4685,-116.1299,-122.1993,-55.4689,-239.7829,-242.5709,-174.2142
-224.0332,-394.4881,-291.5363,-333.4944,-227.1314,-281.3064,-148.8167,-194.0689,-136.1182,-61.7060,-64.1201,-296.5240,-57.9170,-189.2127,-97.3888,-98.6317,-296.4300,-292.4527,-213.0600
-263.4822,-335.0970,-319.1550,-369.4648,-218.8348,-292.4268,-135.8135,-192.0305,-142.0288,-65.4255,-44.9184,-302.0691,-65.7426,-213.9385,-61.6809,-147.0372,-287.5302,-284.0562,-211.1587
-224.3101,-242.2618,-277.3882,-296.1770,-170.6588,-281.1474,-116.9757,-158.9549,-104.8557,-28.0812,-32.6660,-272.7704,-36.6986,-138.5170,-77.6319,-131.6671,-231.6062,-256.4737,-193.5343
-101.3733,-195.5125,-163.5527,-162.4660,-150.1328,-251.7711,-102.2538,-132.3414,-90.1906,-38.5154,15.1899,-174.7502,-19.7410,-69.0408,-109.7689,-112.9731,-155.2094,-243.5366,-200.7442
-33.5319,-90.4736,-82.3519,-76.0027,-163.0860,-225.9697,-104.4017,-152.8024,-132.2262,-128.3007,52.6946,-44.3316,-44.1982,-60.9784,-119.9263,-141.9948,-65.9451,-217.1291,-208.1694
1.3453,0.6822,-40.3014,-30.9033,-161.6923,-190.6471,-99.1027,-164.1574,-143.4266,-139.1935,38.0932,8.0073,-51.1898,-50.7555,-128.3120,-161.1685,-0.3048,-144.7307,-175.8732
56.0681,-34.3790,24.6987,26.0946,-130.2229,-118.6411,-71.1947,-111.9736,-83.1234,-25.5268,14.0915,-11.7148,-23.7626,-43.3047,-135.4746,-144.5235,3.6621,-75.3044,-138.5187
44.4785,-47.5933,48.3178,58.0532,-108.5112,-43.4172,-59.3847,-48.2057,-44.6456,48.9785,2.5448,-20.5989,-14.8372,-75.7848,-122.1460,-139.3392,-14.0956,-51.4504,-125.6764
10.1567,34.3230,10.5118,38.8761,-115.9550,-23.8848,-69.2344,-30.4173,-65.4594,29.0770,-15.8466,-25.2526,-8.6017,-94.1382,-100.2091,-146.8880,12.2451,-21.2761,-98.5379
71.0619,88.4709,42.5587,30.4126,-112.4696,-45.4930,-51.2884,-35.5209,-66.3054,19.5816,-21.5551,-44.4345,35.5671,-88.2030,-83.7463,-136.8145,60.4290,53.0587,-58.2668
114.9579,147.8529,132.5825,54.4237,-68.8249,-39.7076,-7.7227,-19.3995,-24.7685,55.7285,-1.9055,-28.6176,66.7723,-116.1814,-67.7287,-125.8231,62.0061,137.3899,-47.8765
68.6367,242.4334,139.4004,73.2322,-16.8091,20.5553,18.2594,31.9888,5.3430,99.6029,9.3740,17.7129,54.0221,-130.3292,-47.7416,-120.6622,31.7177,221.4542,-28.0525
101.2516,192.9057,115.1942,106.2167,13.4676,109.6459,38.8948,101.4449,21.8412,145.9193,15.5987,26.8842,57.4861,-70.6497,-19.3461,-82.8409,48.7812,305.0467,53.7826
221.9028,48.2174,168.4489,185.9308,44.9720,195.7273,84.3637,155.0451,56.8223,198.4375,48.3658,8.4165,88.8146,-12.3232,10.7969,-11.7006,123.8413,329.3354,139.0229
252.0537,75.6099,216.5421,259.6187,94.9029,249.0627,135.8307,183.7036,102.1992,242.3066,77.7999,17.0325,100.1950,7.8954,22.6677,39.0204,183.3902,275.1101,159.2819
223.0343,190.5941,201.9124,273.5575,132.7998,248.9433,161.6773,198.4263,130.5474,248.0669,66.1058,29.1049,104.6023,41.9712,24.2657,44.5530,183.3223,216.9694,132.8062
230.9686,164.6985,199.0524,260.9370,143.3586,218.6544,147.3216,189.3482,121.7250,199.8793,49.6464,3.8094,127.2124,50.0042,35.3305,41.7649,154.4366,190.7040,96.1156
184.3887,97.3157,196.7493,258.1255,152.1223,204.7627,102.9048,164.1449,82.0671,154.2868,66.5048,-14.6570,133.8880,4.1440,40.8134,76.0559,128.6493,159.1584,76.3056
83.9540,76.9152,146.0950,238.4407,157.8204,204.4651,76.9679,159.8374,57.1505,157.7222,92.0021,23.7928,117.3955,23.1448,39.2961,133.9542,92.4554,116.1443,84.9497
84.9094,-4.7891,116.8952,189.5020,133.0141,177.7063,80.9516,151.0088,50.2323,131.5310,101.1900,79.4497,115.7493,117.3269,56.7928,150.5773,40.3017,76.1785,61.2652
154.2827,-64.7394,136.2366,157.6198,93.1346,131.6413,36.9747,81.8015,-9.6929,31.0963,103.5866,96.5722,117.4889,122.4322,61.6521,111.6407,10.4819,22.0470,-39.5368
133.2032,33.8552,114.0288,162.1956,68.3668,108.7171,-75.2000,2.3333,-118.9391,-26.2235,95.6049,90.0046,78.8983,35.9222,8.6600,86.3600,21.1311,-38.0536,-121.8406
44.5992,131.7214,39.2139,158.2503,49.8667,103.0175,-136.5813,-3.4674,-163.1889,13.9194,59.1081,89.9411,5.5548,15.5218,-50.2490,104.8627,26.6230,-62.8553,-97.8696
4.5436,104.7562,-9.0390,123.8985,34.2151,78.8814,-91.8876,27.2708,-117.1598,41.7818,13.7503,84.3812,-62.8324,60.7695,-59.8128,106.0128,-7.1965,-58.2858,-47.0641
17.4703,69.4734,-16.5487,82.1401,32.7561,43.3475,-52.6506,21.9615,-80.5704,22.2900,2.6373,64.5921,-95.3214,64.5628,-56.6391,61.7155,-45.2105,-58.3084,-60.1071
26.1403,42.6699,-20.7237,30.3320,20.2277,18.5003,-77.4879,2.1352,-75.4743,36.6694,25.7983,44.7971,-82.9858,34.6615,-49.6658,25.6899,-60.2850,-59.6083,-94.2440
13.1875,-35.8491,-30.5497,-29.9315,-17.5129,-6.6977,-75.9719,2.6128,-36.8709,74.9431,50.1802,19.8712,-57.9830,20.7508,0.5386,27.3372,-85.8846,-59.2031,-97.0742
0.8924,-57.9341,-31.6248,-45.9408,-42.4611,-35.2576,-23.6655,-5.4666,8.6820,57.6468,69.4000,-20.0137,-67.9701,18.0805,40.7744,44.4591,-131.8470,-80.1542,-96.6035
4.7795,28.4753,-15.6202,-16.7483,-57.1945,-40.5999,-26.9018,-38.7391,-16.8694,8.2201,89.2526,-53.7056,-111.4053,29.9771,-1.2035,70.0608,-155.4431,-110.4711,-110.6953
10.5125,71.0185,-6.4013,-18.9232,-102.0956,-19.8317,-104.8657,-59.2956,-81.7367,9.8486,93.8010,-68.0155,-149.9513,59.4688,-55.1221,91.9709,-155.7685,-104.7081,-108.2366
7.5911,-5.7430,-32.0758,-53.7798,-133.8322,0.9643,-145.9221,-36.1857,-114.7767,54.5483,83.1148,-81.7912,-173.3327,73.4086,-38.4292,64.4933,-172.9324,-60.1930,-77.8291
-4.2904,-108.0939,-63.1450,-50.3629,-92.3593,18.3812,-120.4039,14.3959,-133.3790,61.8058,82.3948,-99.8789,-191.2320,55.8930,-10.6418,-4.5500,-189.0845,-10.3075,-42.8233
-33.6875,-140.0225,-60.3011,-15.6526,-31.2773,48.9317,-108.4111,56.1430,-153.8163,23.4922,92.0273,-101.7615,-182.5431,20.2847,-35.3021,-34.3689,-149.9448,42.5414,-12.0880
-41.9357,-67.9298,-35.2533,11.6739,-3.9525,88.4635,-109.7704,71.7956,-121.5015,15.1256,108.8839,-77.9029,-117.6618,-8.6271,-61.2095,-3.1780,-56.6071,112.8163,20.4448
41.4849,44.4247,14.2873,59.1689,31.2963,120.2638,-51.7988,67.2464,-36.1364,38.7914,158.7436,-39.1498,-24.2634,20.3855,-30.9796,24.0956,45.6034,178.9361,38.2594
178.5171,73.8129,102.1989,125.1280,72.3863,150.5074,33.0015,56.0225,19.3848,20.2444,224.8717,-6.7676,26.3650,113.3251,34.2810,24.5272,107.6840,205.6282,24.3223
242.5680,21.9988,161.3353,148.9796,50.8554,193.5624,45.9110,55.9108,18.4187,-6.1313,239.4277,7.4609,6.8341,168.3568,76.5799,31.7287,88.3710,187.2838,-1.5916
179.0311,-2.9043,122.6601,133.0321,-10.8736,218.3817,-3.2502,72.1462,-0.4617,52.0429,196.2233,21.8669,-38.0134,118.3230,60.3999,41.0087,11.5919,135.7348,-22.2698
40.0044,16.3359,42.2187,123.0064,-27.8645,169.4277,-28.2002,82.7975,-23.5497,134.7021,148.7885,47.9971,-57.2261,46.6639,17.5060,38.5374,-33.8676,75.0075,-36.7642
-54.3677,37.2425,9.9439,113.9162,4.5565,72.7267,-3.3830,83.3594,-28.3923,138.4591,113.5235,57.9004,-44.0164,44.5543,11.1371,52.1296,-21.0806,53.4232,-8.8661
-8.6846,62.7794,28.5939,97.1731,44.5640,27.9056,40.6936,98.6591,18.3316,106.6104,93.6741,47.6019,-23.3026,76.0343,27.9756,68.3480,-9.6573,82.8834,69.2786
102.5041,82.1292,57.0960,89.6187,68.3098,47.0710,63.6399,106.8185,54.5962,91.8106,115.3857,58.8845,-28.6750,69.9620,3.5789,35.2099,-21.5124,90.6804,95.6404
152.7962,75.8594,81.2636,75.9187,37.3516,38.4061,18.0030,60.6099,-3.4929,55.2068,158.8006,82.6341,-68.8611,33.0899,-46.8957,-7.3218,-21.0087,29.5414,19.6356
175.2370,70.0620,110.8148,33.0286,-56.5401,-15.4038,-83.5369,-3.2588,-92.1086,0.8057,166.0725,55.6593,-99.4438,12.3667,-57.5672,13.5781,0.1757,-34.6803,-39.0453
183.7735,58.4503,131.0413,-26.0093,-129.2991,-41.9050,-134.9365,-26.6298,-103.7406,-32.5766,128.0569,-18.3575,-81.2835,12.6542,-30.0968,48.1342,22.5243,-48.4176,-11.9023
77.0683,6.8981,93.9141,-84.6937,-113.3451,-40.9284,-80.1889,-43.4062,-59.5177,-56.8367,68.5355,-66.7453,-54.6841,-2.0320,-5.7975,27.9952,31.3121,-59.0719,5.9492
-42.7793,-36.9999,14.9257,-124.4269,-58.3116,-68.3430,-4.1590,-80.7281,-14.9025,-55.7591,10.4251,-50.9027,-72.2987,-42.7303,7.5904,5.5859,14.3915,-85.8998,-13.4253
26.4507,-21.9312,-12.2813,-120.1277,-32.8040,-103.8776,16.1714,-84.4052,36.1090,-3.5209,-3.4508,14.2830,-98.2998,-72.3754,16.1707,22.3674,-1.5309,-70.0744,14.6405
145.7304,3.9728,19.6940,-88.1873,-20.2500,-98.4906,27.8305,-45.0660,80.2226,33.6377,32.5280,82.6316,-74.9352,-61.7395,24.9783,24.0851,40.4779,-14.4154,80.2412
113.9265,12.5852,32.7651,-57.4745,19.5692,-68.2953,79.9611,-18.8432,91.0570,15.6010,49.6979,94.0846,-26.6667,-32.9898,44.4572,-4.4505,124.6931,12.8857,112.3648
77.5234,50.0610,50.6069,-10.0400,68.2784,-45.5707,118.1533,-11.1296,90.9208,-9.0250,26.0300,53.2685,-0.8026,-26.9945,60.6032,-25.5226,179.5642,17.5121,118.4965
138.5696,104.0386,131.0997,53.6297,82.8205,-37.7943,83.4832,-8.7906,72.8494,-55.2653,23.6959,44.2630,11.1758,-49.7096,48.3605,-48.8060,202.7075,39.4574,95.5560
149.4579,109.5986,202.2436,76.4508,55.5447,-51.0349,4.6388,-39.2486,-5.1752,-149.8532,51.3309,94.2317,20.7421,-73.9808,22.7475,-79.6112,225.2084,36.4571,5.3084
134.3696,82.9294,204.6129,36.5750,3.5044,-76.6170,-64.3050,-86.9774,-90.5446,-191.2727,53.9035,129.5941,11.9804,-91.1845,11.8270,-85.4818,206.6201,-32.3628,-89.7962
210.3829,80.0808,187.9127,-29.0055,-55.4474,-97.7764,-100.2080,-95.8775,-91.4776,-124.4351,33.9826,108.9735,-3.7784,-116.1044,15.0690,-83.6310,111.3694,-108.1467,-98.3394
235.9326,79.1110,153.3521,-87.5582,-98.6147,-117.0606,-89.5431,-72.9576,-39.0335,-49.9499,28.9334,69.4430,-4.7289,-127.2805,27.4139,-95.6187,2.2473,-129.0981,-58.8738
134.1370,45.9551,87.7070,-114.1717,-122.9769,-113.4716,-50.9398,-54.8199,-20.4555,-19.6243,33.2879,44.5331,-9.2555,-93.7783,39.1400,-80.0841,-49.3478,-111.8318,-47.9668
97.9614,28.9922,85.4059,-94.1158,-154.6265,-54.9821,-47.4859,-41.4568,-37.5913,-0.0538,40.2070,44.4334,-22.5320,-71.6527,23.1474,-56.9185,-48.0019,-84.9904,-58.6701
155.7070,49.1072,162.3902,-52.2039,-172.9634,7.0812,-74.4785,-35.5937,-40.0475,-9.7983,54.4086,66.8302,-8.2864,-122.1378,-10.3699,-99.7362,-20.3249,-46.6103,-57.3413
137.4581,22.8256,179.8261,-14.5912,-107.6839,6.1396,-34.2827,-38.8421,-3.1241,-49.1760,47.1121,75.6288,29.9556,-160.5422,-7.3173,-142.3683,28.8201,2.7843,-34.5365
72.6426,-48.4030,117.1409,21.1339,22.0684,-10.1510,74.8964,-27.3721,49.5717,-55.7724,11.7783,53.8053,53.3777,-91.4337,40.2831,-81.1011,87.6324,47.2881,-12.6943
98.1915,-7.0180,100.8153,47.3862,101.0881,8.8909,113.9836,-16.3394,53.1701,-41.6473,5.7063,57.1926,73.9482,-0.8099,80.8108,-6.6856,120.5311,64.7989,-50.1066
181.8488,169.1362,144.4053,55.3194,91.4049,7.6055,37.3628,-45.1448,-11.5032,-57.9274,41.4077,116.6370,110.2627,5.3389,78.4121,-28.4094,99.8507,52.9952,-142.2528
219.5104,280.6412,159.2249,62.7747,56.3247,-24.0898,-37.2565,-73.1335,-64.0867,-64.3890,50.0848,166.8587,120.5748,-19.2595,38.0402,-58.0292,53.4625,58.6928,-173.1946
171.0414,250.0114,129.8905,72.2760,33.6408,0.6591,-42.6116,-33.2751,-49.9848,-21.9199,11.6786,158.5285,83.5249,-19.8988,0.0604,-20.3655,45.5735,117.0458,-87.2642
66.6375,194.1669,93.2405,65.9989,28.9658,80.0447,-25.2894,44.5296,-16.8481,16.4386,-24.6290,124.7911,39.0356,-36.9550,16.7389,2.3308,83.7082,175.3683,20.8858
-16.2547,125.8728,62.9800,53.2487,51.2694,122.3142,-3.3826,86.5480,5.5413,5.6153,-60.9878,89.5223,4.4180,-50.6091,67.8647,-16.2655,107.3857,177.9094,72.1785
-63.9125,-1.5099,28.7684,44.7999,68.8367,122.1511,40.4621,81.3129,41.2342,-32.2909,-124.0519,44.2494,-28.5540,-2.2637,70.6829,1.0066,95.0174,161.6705,86.4415
-117.7117,-64.3428,-21.7843,27.2479,48.7928,128.0592,73.9802,61.0697,64.5561,-58.3185,-153.4816,24.4423,-39.8451,40.9852,27.3188,36.2101,88.2703,157.1727,75.8074
-125.3700,25.0728,-52.3305,17.2384,30.0966,122.4103,60.7663,42.2089,38.2799,-54.7444,-98.5849,77.2171,-25.1354,0.1335,18.4156,7.8566,98.8195,118.6551,27.4580
-41.2095,126.9415,-13.4709,49.5109,36.4253,83.6755,26.4136,19.0064,14.4267,-34.7100,-46.1391,165.0956,-16.8332,-46.4146,40.5956,-52.2308,99.8740,47.3321,-24.0094
39.7037,141.7272,46.2203,93.1271,14.8325,47.1335,14.1037,-1.0390,39.1878,-11.5181,-71.2401,200.9066,-24.9130,-14.7473,32.0938,-53.6630,96.7925,13.4416,-32.6030
58.7942,115.1496,53.7678,87.4353,-54.0878,36.9284,19.4451,14.7717,48.3438,24.8320,-95.7343,153.1369,-44.3766,31.0741,4.4174,9.3259,106.9035,12.9411,-11.7867
53.0563,17.0057,35.5078,52.7683,-116.7296,43.9546,-3.5360,66.2546,-13.1261,60.0640,-64.1271,58.5589,-75.7740,23.2603,-17.2261,75.8091,102.8703,-5.2894,-1.0046
12.6788,-169.6522,16.6849,57.1156,-133.4769,59.3630,-59.7281,102.2650,-75.2796,59.2795,-61.5933,-28.1621,-82.2801,10.7255,-53.0335,99.9927,48.6217,-7.4233,-3.0916
-48.2568,-253.4726,-30.9688,80.6714,-99.6137,64.6999,-69.6864,105.2634,-51.2371,29.7537,-115.4754,-59.5991,-29.9275,40.6828,-68.1003,80.4225,-40.2946,37.3696,3.9077
-72.9426,-117.2478,-78.9473,33.2178,-31.0909,40.5604,7.0569,101.9444,30.6028,-3.7818,-128.8937,-19.9261,36.4445,68.2716,-10.0170,49.6327,-115.0676,54.1967,20.2915
-115.0737,42.5565,-97.5527,-67.4302,28.1812,4.7065,81.9605,89.2515,86.5892,-13.2474,-95.1637,42.8229,66.4648,50.2671,46.0086,38.1871,-150.8406,14.9984,32.9383
-187.8249,43.8928,-129.2452,-80.6900,63.9999,-2.9250,97.9762,71.0784,105.5510,56.4463,-103.6595,60.6072,73.7765,23.9028,17.2914,49.7158,-153.6952,20.2870,55.1238
