Fp1,Fp2,F3,F4,C3,C4,P3,P4,O1,O2,F7,F8,T7,T8,P7,P8,Fz,Cz,Pz
52.7537,-146.9035,39.7171,-122.1301,-39.1174,-195.9495,-88.6460,-282.1413,-101.7673,-276.7913,63.4725,-206.4049,-21.1886,-157.8142,-30.0491,-146.8236,55.3923,1525.0016,1474.5433
84.6715,99.9979,97.6397,111.6474,257.8750,207.1756,205.8099,-26.7839,64.0889,-178.1733,109.7892,-30.2120,37.5398,80.4052,-0.4371,68.5896,82.7501,-1311.9141,-1416.2158
108.3742,239.6461,175.2578,229.1895,394.1823,370.8095,359.1455,53.5019,193.5438,-131.0791,170.4737,79.6011,108.1781,203.5102,23.8942,175.4977,106.1330,-2633.2070,-2823.5571
124.8394,238.0909,197.3763,222.4462,337.5596,289.2050,323.5104,-8.9755,269.6419,-137.8573,173.5643,81.6686,138.2207,171.7359,81.8178,152.8341,108.3685,-2111.6533,-2360.9761
102.1897,277.0390,148.8621,255.4351,274.3144,289.3539,305.2225,64.2679,368.2321,-44.7205,100.7146,92.8672,123.4431,154.6669,165.8192,142.4837,96.5273,-1941.2493,-2165.6123
40.4776,358.1552,99.9017,321.1836,273.1994,358.8321,391.2414,229.3689,484.3577,170.9564,46.3984,149.5698,132.5466,187.9476,234.4338,154.8347,95.4822,-2297.0129,-2433.7888
10.2144,372.7262,84.9073,338.2052,301.0055,353.6504,487.8829,327.1045,555.3580,382.6094,72.9581,193.5529,197.4959,214.6460,271.6207,168.1667,92.3835,-2187.8108,-2214.0405
35.7281,346.8519,70.7796,317.3790,317.5495,341.4547,499.3593,416.0594,551.4915,528.3076,125.9373,203.0196,226.4858,231.4368,260.8680,211.7010,63.2060,-2101.4097,-1949.6915
61.1410,316.0924,50.0869,255.5455,277.6056,326.7227,425.1993,518.4881,487.6031,607.7059,147.0541,167.7912,163.0560,201.4689,191.0300,208.8239,45.2726,-2408.8330,-2004.4359
61.1383,257.1049,40.3483,161.5411,216.7641,246.2974,354.4791,570.1396,427.4495,629.5079,139.3158,83.0875,112.0312,109.3070,108.3179,103.4005,57.3127,-2461.1802,-1873.9056
52.6207,205.0615,24.0563,119.4629,207.2206,190.4731,337.8911,594.1444,412.7311,633.4025,115.2580,14.3106,127.3653,45.4720,66.8542,18.4833,36.4077,-2334.8467,-1699.9066
32.8327,171.6424,-14.4515,113.8508,185.8624,161.4512,293.5257,547.5239,375.3991,595.1975,80.7600,8.4424,91.3987,34.1290,50.7745,13.6215,-20.8254,-2525.5447,-1835.0164
7.2313,98.4395,-55.5355,45.7846,66.4664,29.5123,160.9204,373.0728,259.2546,446.2137,50.4129,4.3372,-25.9767,12.9371,14.0993,0.6755,-36.5898,-2714.5154,-1921.3900
1.9254,7.7381,-74.8997,-45.8965,-61.4818,-122.0197,27.5069,221.6633,144.0377,249.1998,42.1750,-58.4324,-77.5083,-15.6972,-42.8808,-38.1619,-18.8909,-2681.2676,-1894.1688
11.8874,-58.9615,-46.5732,-96.0755,-90.4983,-170.3394,-32.5132,130.5529,88.1459,76.4763,62.9503,-165.3432,-13.3907,-73.6610,-79.1702,-97.2662,-11.9144,-2778.2273,-2108.2842
18.2723,-151.4802,21.3822,-165.6236,-92.2852,-243.6243,-83.5813,-106.0193,8.7722,-141.1704,81.0659,-273.4352,37.4881,-209.1636,-75.1331,-214.6487,24.7914,-2982.3164,-2406.1611
27.4176,-233.4707,45.3079,-237.3183,-161.5717,-381.1542,-194.2493,-425.1391,-144.1039,-364.1296,53.1482,-310.3743,-14.4566,-293.0689,-57.2289,-289.6476,75.1995,-3006.6409,-2565.6094
36.4575,-190.9999,-0.2125,-198.3361,-231.1671,-406.6405,-310.5741,-568.3514,-269.4571,-429.0372,2.3732,-226.4484,-100.8815,-209.5766,-45.2282,-216.9685,56.8934,-2909.3979,-2742.7571
25.1939,-98.6053,-7.7208,-104.0079,-200.7419,-311.7702,-325.6337,-586.9827,-258.3852,-406.7286,-19.2264,-110.9271,-84.4892,-116.0822,-24.3332,-136.9654,33.0115,-2778.0061,-2851.7588
-2.8204,-87.1329,36.1829,-73.8277,-108.5650,-195.6155,-213.3723,-545.3174,-133.1403,-435.2271,-9.1700,-82.9719,39.0262,-119.7395,-6.2438,-142.6131,78.4723,-2545.3303,-2658.3020
-28.1252,-67.5082,-1.6649,-45.6999,-22.4330,-0.9037,-46.2324,-283.9105,-8.3387,-377.6057,45.1686,-104.7993,77.3771,-81.9687,-28.3837,-89.8243,70.8857,-2210.1458,-2264.3674
-39.5710,48.5661,-94.4354,45.3094,87.5210,242.3390,102.1664,43.7384,41.5718,-201.8081,153.1221,-90.8927,-44.5454,21.8678,-65.4077,29.3666,-24.0579,-1847.1552,-1867.3815
-33.9087,137.3478,-80.4665,111.4327,189.5443,339.2051,193.6431,94.8850,55.5478,-171.3241,189.3836,-53.1203,-109.3421,67.1915,-61.2766,61.0741,-22.8651,-1650.3035,-1654.8646
-32.9899,123.3728,-16.5624,122.4792,149.9827,300.4865,200.7478,36.2152,103.0952,-239.5988,39.7465,5.2178,-14.0754,93.0188,-25.5630,65.7372,76.1851,-1753.3739,-1764.4260
-64.1095,114.6449,-49.6581,164.2118,47.3727,311.0124,174.3267,184.8909,178.3207,-47.5152,-150.3599,117.6844,44.8784,185.6613,19.2938,176.4281,83.5486,-1881.1178,-1916.4388
-95.1638,176.3698,-87.7609,240.3388,125.9276,383.1751,224.9232,373.2044,236.8102,312.7014,-182.2688,229.7009,4.7429,275.3377,83.3367,289.5344,31.3526,-1788.0630,-1810.7766
-75.3378,240.7026,-38.7129,259.8273,300.3061,410.4482,309.0285,377.0529,260.0698,412.9172,-119.4174,269.2844,7.7247,299.1188,126.6088,283.9605,44.6891,-1708.7052,-1697.9447
-38.3197,233.2148,-38.6614,189.8323,276.0107,375.2551,276.8738,307.5201,256.9232,251.8179,-125.5478,268.0180,30.8576,265.7257,105.4883,216.1879,28.0019,-1770.2117,-1763.7136
-55.5811,158.3628,-116.2978,103.7327,140.5635,338.1550,191.0594,277.5669,277.0089,142.1039,-202.9573,251.8039,2.9414,186.5192,95.3611,158.1629,-72.4233,-1743.7136,-1759.4719
-114.5605,95.3422,-104.8956,95.4080,162.6526,362.8084,221.1124,291.8275,350.6435,160.0073,-256.3481,199.1199,32.0612,145.4089,158.9173,145.7043,-106.8613,-1646.5942,-1663.0673
-142.4054,95.9931,-24.1760,142.2541,240.1868,411.5590,287.2682,346.4552,383.5019,201.0193,-222.5831,169.7052,117.9003,193.7501,202.8348,197.8101,-58.0807,-1687.9777,-1669.4624
-110.5281,103.0670,-31.6791,129.2715,185.1941,353.2532,243.5504,332.7089,295.4845,210.8024,-122.3416,228.1997,104.3352,202.3687,168.2686,233.0622,-58.1476,-1785.4928,-1686.6693
-56.0771,68.7950,-78.5899,69.0865,120.9883,221.6777,190.9617,209.6056,203.4274,186.2400,-73.0787,285.1185,25.4427,121.3447,154.2376,177.1221,-84.9310,-1784.3700,-1630.6261
-41.6166,47.6071,-68.5075,85.5156,139.7711,207.4965,215.1978,163.9525,209.4875,194.4395,-139.5903,246.8732,-6.8599,97.8321,183.3172,113.2170,-69.0384,-1731.9327,-1627.3618
-103.2064,60.5016,-88.3615,134.8246,106.8451,275.4342,177.1610,237.5365,193.3908,279.1862,-222.4910,181.6164,-43.4030,132.2433,127.1222,119.9177,-95.1618,-1725.7756,-1661.1747
-203.1804,36.3857,-178.0006,63.9720,0.0068,216.5694,41.9447,242.2236,78.1030,322.1080,-240.3182,165.2984,-80.8428,79.6616,-7.8655,138.6949,-208.8143,-1818.1566,-1649.8768
-261.1483,-39.7627,-231.9720,-72.8135,-51.3728,82.1428,-8.6536,193.9690,10.6097,265.6504,-239.0794,166.7718,-38.6980,7.0520,-34.6462,127.6996,-299.0259,-1914.4064,-1623.6543
-241.9883,-77.2966,-230.1754,-94.7556,-14.1888,93.2629,79.4840,257.9432,72.7957,270.7874,-235.7667,176.4240,0.6681,72.4098,82.6424,142.1678,-287.2808,-1807.8221,-1543.0739
-169.4851,-10.1598,-222.3470,0.7798,66.7342,238.2935,158.0802,385.0845,134.0070,383.5592,-204.6005,228.1257,-25.6926,202.1548,159.3497,211.4442,-213.4840,-1573.7325,-1417.1067
-89.4328,98.3681,-185.6397,77.1299,139.2173,333.9601,145.2271,446.1038,93.9377,411.8228,-187.6046,274.2299,-3.7911,229.1557,110.8444,259.7947,-164.1636,-1497.2147,-1420.1765
-67.9860,121.7216,-144.6982,70.8482,138.1309,307.0027,102.9964,421.3831,10.9675,296.2244,-197.3251,241.9081,75.1297,143.6629,55.8965,198.0542,-204.3562,-1547.1520,-1543.8143
-133.2258,62.0860,-192.2495,26.1202,92.7961,223.4646,102.4920,316.0988,-16.1048,190.2494,-164.0026,183.4954,103.5497,67.5743,73.3216,89.0937,-290.7307,-1531.4674,-1611.6548
-187.3441,50.5123,-274.6739,11.1037,91.0560,185.9036,138.0057,203.4018,39.7207,154.0764,-102.0536,193.8716,93.6209,101.6118,113.0312,89.3244,-307.5944,-1505.6106,-1620.2668
-134.6313,87.2960,-243.5809,25.1288,97.6428,220.8292,154.0288,200.6465,104.6527,131.3631,-105.8171,235.3185,75.0721,187.3862,139.4206,170.1596,-251.7169,-1537.2776,-1607.1884
-71.8713,52.8739,-118.3835,11.0258,61.3389,246.0668,149.2562,264.2145,104.1147,152.0952,-167.3924,211.4711,55.2556,185.6041,155.6844,169.4958,-220.7826,-1546.1876,-1536.6990
-118.2336,8.8203,-49.3674,-3.5255,61.3404,233.3126,188.4510,307.6854,90.7012,295.5498,-200.2247,152.0125,132.1971,132.4147,148.8797,126.4958,-227.8724,-1529.4004,-1473.5651
-162.1298,83.2048,-87.7753,54.5102,119.8019,259.8276,255.8150,376.4758,134.3133,520.3285,-175.6602,153.5159,240.4950,165.7440,137.8382,175.0519,-218.7905,-1522.5421,-1446.5094
-72.3006,149.1227,-154.1035,106.1301,126.8162,301.2654,242.8066,437.1854,164.8429,675.2535,-120.0603,202.4052,121.2320,240.5425,145.0990,238.3762,-198.3221,-1521.4590,-1384.7207
29.9460,72.9229,-167.2270,45.4877,54.3419,245.4994,136.2171,371.6464,104.4784,676.6570,-71.3075,223.4460,-136.8256,250.9188,102.8629,232.9711,-193.5368,-1565.1852,-1377.9526
6.8476,11.0695,-131.9551,-22.4145,-14.4773,142.7363,44.3874,261.6565,7.3734,597.9300,-67.6372,215.7357,-158.4795,248.4827,-20.0834,265.4494,-193.7968,-1603.0870,-1492.1461
-56.8961,65.0460,-110.3342,7.9280,-31.1719,122.2293,26.5525,237.8497,-59.1704,518.4283,-114.0115,196.6700,36.1961,268.4380,-91.8182,336.2622,-184.7923,-1532.8958,-1532.6318
-71.4616,78.7058,-117.0510,29.6941,-4.6978,142.5081,35.7209,218.8712,-100.7089,403.7805,-169.2549,148.0123,108.0118,238.7166,-27.9471,294.7047,-157.4064,-1470.6674,-1460.2421
-71.0556,29.5702,-100.3238,5.9467,16.1015,121.0315,7.5839,148.1932,-132.7541,273.8779,-177.1545,121.4786,-20.6861,177.4920,57.5991,194.2434,-105.1384,-1491.8699,-1489.5621
-43.8955,101.8241,-40.9883,90.7764,-7.9000,133.8250,-47.3190,140.5009,-144.6592,279.7156,-121.2011,207.4921,-162.6669,182.8746,68.8128,222.0503,-50.4134,-1393.2458,-1591.8694
37.4826,283.5096,24.8829,274.9553,-9.0837,250.8052,-33.7844,232.0206,-84.1105,434.2225,-64.9012,345.6924,-138.9809,267.0955,52.4921,346.4516,-13.7357,-1174.4266,-1568.0082
94.9701,368.4105,81.5109,346.7402,84.2903,376.6434,89.5896,336.5853,88.8547,537.4330,-65.1279,381.7932,72.7633,364.0161,53.7833,403.6925,26.0014,-1118.1111,-1450.3402
101.8492,316.9092,132.9541,277.3438,194.3460,406.1317,212.1751,407.8428,262.0295,504.4565,-63.5521,310.5244,234.6286,386.2482,78.4166,362.8357,82.3072,-1210.9081,-1347.3829
135.9902,269.8248,154.7339,233.9229,233.7258,365.5562,237.3833,430.8036,270.7326,455.8969,-2.8125,258.8929,145.5802,307.2379,134.9082,299.4288,122.0944,-1231.0024,-1276.1226
170.8635,293.5435,121.1160,258.0123,227.6868,327.8181,216.6236,409.2582,165.5006,433.3581,46.9300,273.9880,16.3123,247.0625,170.6906,270.0072,112.8771,-1206.4673,-1278.1493
119.2262,317.0999,52.1367,269.0226,181.6147,317.1223,198.1860,397.6910,113.2917,364.0769,37.3184,296.0825,69.1651,296.3199,130.0853,280.7155,66.6713,-1209.1063,-1325.0461
39.3799,287.1821,2.6485,268.6568,85.3142,334.4909,151.2945,418.4854,111.4917,297.8984,37.4387,293.1442,116.6274,357.6210,83.1109,311.9775,25.1745,-1161.7716,-1304.2861
18.4677,266.9866,6.8229,295.6606,26.6649,381.8425,95.4627,443.4000,66.0245,348.2778,67.5463,298.9884,20.5233,365.7282,85.2661,352.2877,13.8946,-1083.9125,-1254.9252
22.1064,299.6115,28.6610,303.9581,53.2488,423.7993,78.6633,459.3922,-9.4240,436.2416,64.5666,331.4309,-20.8420,381.9665,49.5770,365.9335,16.2924,-1059.0824,-1264.1661
26.4885,287.9008,8.4412,247.4925,82.6172,407.8753,80.0534,445.1714,-42.4683,400.6379,34.7062,353.0610,60.5831,382.0362,-42.4023,303.3108,9.9633,-1063.4553,-1251.1506
62.4054,191.0425,-33.0515,186.0503,93.4605,359.7418,102.2565,404.2339,6.4801,299.5417,27.1604,338.7596,84.5198,317.9141,-55.7066,225.5302,4.1886,-1071.3865,-1160.0480
94.4528,150.1959,-25.9466,195.4099,150.5118,357.0898,188.2464,407.0777,109.8904,290.4678,22.6708,313.0657,10.6180,277.2347,30.7683,230.5012,11.7574,-1072.4489,-1085.3987
68.0066,216.4176,25.1703,245.9713,225.4335,390.6444,278.9257,438.3727,164.2398,310.3932,-6.6311,285.1626,-32.8518,290.2025,71.3231,246.4555,32.6200,-1029.1173,-1077.4491
17.2597,254.6541,67.9428,271.1140,250.5719,389.3788,290.7223,401.4697,133.2474,224.4825,-30.6512,247.0777,23.9540,280.1774,25.7785,187.6400,78.9112,-984.4377,-1088.4109
15.9630,244.8033,106.7617,284.7260,260.0784,358.3024,285.1097,350.0166,114.3154,138.8331,-14.2797,240.8646,137.0073,277.1208,0.0132,161.9999,148.0356,-988.5625,-1080.0135
93.8631,291.2129,161.4482,317.5204,298.7842,331.6455,337.5404,369.0188,127.7281,184.8792,37.4220,279.0425,184.4843,305.2005,28.3937,217.6609,192.1591,-991.7968,-1064.3165
198.0789,341.4093,198.2143,329.2084,335.7066,284.5564,389.3512,345.7498,85.2225,229.4323,88.1800,266.4825,121.8705,259.9821,48.0840,211.0573,185.2039,-996.4338,-1089.9469
232.4790,287.6697,197.1467,294.6081,344.3871,233.4858,380.9214,236.3327,15.2128,158.5606,116.7067,177.3534,83.3421,176.6617,40.2671,131.4877,166.7054,-1034.3071,-1144.6914
201.7357,206.2756,195.9068,252.6411,333.6097,248.8217,335.5866,215.5704,-1.9639,109.7030,145.2414,142.7979,129.0301,202.5838,37.4154,116.3426,164.5686,-1027.1895,-1137.6594
197.2192,197.9090,205.0132,211.0032,300.7451,287.3434,267.3696,292.2270,-16.5179,149.7566,168.3205,204.2434,126.7579,254.4471,46.0238,130.9832,144.8606,-973.5312,-1086.8507
192.2640,215.4618,172.9947,161.1215,242.3038,249.1564,184.9445,277.5078,-63.2797,144.7238,127.7117,232.5186,59.4691,195.9016,49.6715,80.2478,77.3580,-982.3990,-1098.6295
93.0916,194.0426,78.9244,152.3216,181.0090,180.0572,132.7233,194.0201,-82.9728,76.8893,34.7780,179.7859,58.7482,139.2614,41.8802,48.1270,-6.5471,-1009.4598,-1131.9287
-37.6124,128.1861,-17.2558,178.4360,143.5774,160.4633,112.2903,184.3384,-85.7171,57.9567,-23.4410,122.2475,97.1229,165.4191,26.0525,82.5435,-56.2725,-981.8272,-1097.1552
-88.6228,33.3011,-58.0893,135.2660,125.4728,137.4019,76.3777,189.8023,-99.4822,72.5809,-29.3573,75.5468,54.5898,150.3345,17.5669,72.6614,-80.0896,-994.3437,-1053.4353
-91.8190,-27.3952,-67.1095,29.4299,98.0776,92.9399,35.8682,150.6164,-65.2827,66.0036,-23.6320,30.9593,-27.1234,76.2008,32.6566,16.1433,-131.1400,-1044.2489,-1041.1833
-99.8183,-5.9468,-99.0616,-14.9493,63.9651,122.3979,42.2449,174.9798,10.2602,89.1966,-21.4995,38.2179,-52.2483,62.2935,51.7765,29.3130,-202.6153,-1006.8721,-991.2213
-105.3484,14.7044,-155.7999,-15.9068,59.2116,196.2311,83.5240,259.1395,55.2408,140.4779,-57.5688,71.2931,-38.6665,91.3069,38.0793,73.2961,-222.7467,-952.8771,-910.4708
-144.7960,-57.2603,-201.6513,-91.1024,71.0819,169.6337,103.7256,247.5457,97.6713,134.4310,-148.4855,25.7808,-40.9657,61.2917,-2.4883,15.6751,-188.7447,-1001.1511,-871.4490
-230.2562,-159.8518,-223.1347,-198.1286,44.1193,66.0639,86.2797,136.3690,149.2177,78.6928,-203.1227,-82.2459,-64.3205,-21.3111,-38.3097,-101.9900,-180.1123,-1068.4521,-872.3597
-273.0325,-197.8445,-231.0529,-229.1047,-13.9752,18.2293,51.6219,63.1469,121.1440,31.0947,-171.1108,-148.6353,-87.6178,-80.4949,-61.6940,-126.2375,-211.3246,-1092.6418,-878.5945
-254.8457,-201.1251,-239.2375,-228.5404,-54.5038,8.0289,4.9871,55.0317,31.9585,-26.2938,-157.1558,-169.4370,-117.3342,-74.3584,-71.5482,-50.9654,-225.2374,-1129.3143,-875.5157
-261.6812,-241.0204,-254.1380,-266.1929,-86.2587,-49.9693,-63.0952,25.2475,-11.7291,-104.3535,-221.5363,-192.4887,-180.2372,-46.1817,-69.9915,-19.0362,-222.3471,-1169.6787,-868.5679
-289.4026,-302.3046,-254.4263,-295.3388,-125.1647,-126.3541,-127.9269,-65.4691,-22.1655,-159.3974,-278.5293,-197.7744,-233.2570,-90.8064,-81.9686,-92.6717,-234.2619,-1188.7766,-891.3663
-270.1418,-319.7845,-212.2104,-283.9194,-132.3838,-161.7928,-142.9141,-158.9517,-38.9207,-185.6554,-271.1635,-171.9115,-212.0199,-199.0415,-99.5907,-183.9263,-230.8254,-1204.1379,-926.8420
-236.1355,-275.0312,-155.7427,-263.0193,-101.9835,-152.9944,-122.4269,-180.2446,-34.1982,-208.6447,-233.8909,-160.9331,-182.9231,-253.1059,-85.7391,-221.6979,-194.0134,-1178.4889,-909.9041
-242.5253,-205.6891,-137.0518,-220.4848,-86.4049,-101.8933,-123.9831,-137.6235,-30.3144,-216.4035,-201.7019,-173.7055,-213.2817,-227.4654,-86.1572,-222.5330,-171.5544,-1102.8972,-862.5914
-242.9676,-147.1714,-132.9971,-142.9814,-89.8980,-30.8175,-129.1364,-93.4482,-37.3763,-182.5770,-189.8358,-167.1019,-204.4310,-190.4869,-155.8422,-192.2556,-165.2586,-1044.3835,-822.5580
-181.6034,-104.4405,-83.1520,-82.8715,-70.4925,7.5511,-71.2849,-50.7190,25.5823,-105.0992,-189.4216,-142.2583,-122.2553,-149.7430,-196.5952,-129.3038,-119.2025,-996.4614,-739.7022
-105.8171,-71.1289,-11.8719,-59.4638,-36.8249,12.8104,16.1666,17.0022,139.0046,-12.2805,-168.0276,-136.4845,-115.4759,-96.4012,-124.6247,-84.0134,-56.3974,-941.5300,-645.0463
-99.9628,-46.4725,8.2711,-40.5508,-26.7554,20.0842,34.9496,67.4285,183.4270,46.1418,-131.7073,-139.0575,-210.4296,-68.9810,-59.4831,-77.1501,-56.1489,-946.7279,-649.5972
-144.6940,-37.6891,-10.0700,-35.1170,-33.6120,25.3604,-9.1626,58.8479,171.6494,55.8356,-109.4754,-113.7752,-250.9845,-59.4749,-88.6512,-63.3816,-99.0877,-979.3580,-710.2589
-131.4577,-41.4381,11.0044,-32.0927,-23.2905,39.0249,-16.8023,45.0162,175.7843,65.3842,-88.4626,-63.9556,-174.5961,-20.6622,-108.7717,-27.4074,-87.3553,-921.4420,-720.8060
-40.9059,-17.0489,91.9073,41.7560,27.1367,102.6536,50.9471,91.8674,171.3417,110.3050,-56.6085,-3.0618,-49.1131,36.7461,-69.3212,18.6929,9.8164,-813.2031,-695.7955
34.5752,62.1199,187.3483,144.8865,115.0704,177.7368,136.4508,168.7251,151.6578,160.1384,-23.5347,68.1056,39.8550,71.0243,-35.9601,72.6921,130.0558,-764.8579,-659.4047
72.3678,126.1405,258.3284,123.9078,192.9867,168.7005,181.4705,179.9885,146.5107,170.5211,20.2535,108.6759,35.1811,60.5830,0.1370,87.2242,193.8808,-770.3693,-633.0018
107.1995,86.4775,281.4719,-1.2867,207.3430,77.7140,188.6848,86.5015,124.2421,147.5363,48.5358,67.5217,1.9789,21.8727,65.2419,46.1172,170.3067,-793.3117,-691.9291
82.8412,-13.8217,241.2546,-53.5800,171.4297,-6.2154,181.4461,-22.4856,92.1849,138.3327,6.3029,-12.9882,30.3223,29.4317,110.7874,63.2501,102.2449,-819.2935,-781.1130
-21.9332,-56.0243,159.8758,-22.5501,122.9191,-54.1408,146.4127,-45.2034,111.6476,153.3642,-52.4103,-41.9499,29.4896,102.1880,140.7072,168.1130,44.6208,-840.7579,-773.0971
-80.1376,-19.5958,78.1743,-41.2545,43.8240,-120.8046,60.9347,-35.6542,137.2325,147.1964,-38.5201,-12.3282,-50.5299,112.5046,164.5439,177.1968,-18.4296,-907.8503,-761.9305
-53.5089,10.8925,5.0585,-106.4308,-73.8956,-225.6370,-45.3547,-92.7862,99.6997,126.3925,-10.5390,18.2768,-40.6833,-0.0936,92.9594,24.2926,-112.5700,-1014.6533,-860.4067
-63.1819,-24.4964,-55.0450,-132.1823,-158.8596,-282.0976,-110.3220,-141.7191,60.0362,160.9406,-47.2180,24.0678,62.4920,-87.8432,-43.1952,-84.2029,-182.0442,-1024.2883,-915.2079
-116.7063,-91.2227,-78.9966,-138.4094,-163.3201,-207.6619,-105.5417,-62.9240,89.7543,227.2910,-88.2493,16.0126,39.3045,-50.7518,-63.1250,-31.2424,-181.6174,-914.3638,-809.0442
-111.0577,-108.9766,-79.6206,-148.3947,-139.4641,-72.5742,-60.8286,68.5794,166.6439,228.4670,-81.3704,17.3056,-77.9022,15.6836,13.9255,43.8132,-162.9998,-822.0726,-667.9810
-67.6684,-47.6407,-82.3228,-93.8286,-140.5356,-7.2789,-37.8414,117.3782,214.9019,186.8954,-61.5099,48.5725,-103.8756,31.4952,20.6390,35.8833,-151.0393,-763.2074,-604.5901
-48.8226,61.0266,-45.0456,41.7044,-144.9341,13.0974,-49.3367,109.9885,158.6051,190.8858,-28.0857,92.2514,-97.4902,30.9795,-3.3385,13.0476,-84.3920,-653.0959,-608.4799
-16.3330,186.3428,49.8967,177.1321,-103.4955,103.8977,-19.1589,134.6953,78.0623,219.2936,27.7844,114.4898,-97.3117,48.2731,41.8892,40.9934,27.4204,-520.0799,-609.8112
24.2686,282.3098,91.5700,257.3824,-1.7340,235.4467,81.2353,186.0775,165.2805,217.3422,49.7829,125.6632,41.9812,85.5569,63.9671,89.7119,80.1711,-440.9139,-526.5585
-0.9198,278.7649,10.0532,284.5394,100.6716,278.4264,134.7349,213.9060,308.0294,191.5359,30.0212,152.1180,216.8397,125.3194,14.1368,107.2815,63.5143,-440.7336,-447.2954
-53.7366,210.6178,-78.3403,285.5742,112.3948,230.4206,67.8184,196.4355,179.8044,131.4230,34.3506,189.1807,150.3753,127.4344,6.0882,86.0301,68.4413,-501.4166,-549.9309
-41.5486,208.7402,-64.5344,299.7697,49.5580,202.6051,-15.8806,149.8779,-110.4987,37.5884,56.7799,226.5948,-57.7903,101.8150,42.8804,62.3827,100.0539,-528.7274,-709.6460
2.7296,272.9026,-10.5515,319.6960,17.9439,232.1942,-41.0176,126.1449,-170.2320,-3.3690,31.0020,255.9592,-101.3643,110.4662,5.8793,68.0730,82.6919,-460.5538,-676.1035
0.2601,281.0625,-2.7309,302.4390,17.7272,257.2474,-71.0108,158.7170,-63.2011,50.3504,-29.3264,261.8734,3.7540,158.9307,-92.4770,102.0386,22.3822,-392.4328,-544.8840
-30.4005,231.0273,-27.8798,273.7752,-31.1521,242.7727,-123.1161,218.1114,-103.2693,116.0299,-48.9205,253.7560,38.4328,211.5861,-134.4773,154.0137,-8.0665,-390.8058,-510.2700
-35.4263,211.6626,-48.4566,274.8464,-100.8693,216.0854,-147.4948,256.7485,-221.4176,125.4262,-22.0130,252.8456,-42.0674,250.7666,-91.8444,195.1910,-1.2965,-394.6045,-515.7211
-25.3125,224.7233,-55.9401,259.1436,-135.5872,184.7060,-181.0051,240.8248,-221.7110,94.5837,-27.1676,258.7047,-130.3757,224.2653,-45.6160,171.2568,-8.3456,-404.4849,-516.3577
-40.0822,242.0880,-56.2468,208.6726,-180.2526,124.9680,-257.5329,160.3537,-184.3819,68.5320,-89.0826,278.4327,-164.9976,106.4456,-71.0495,92.1792,-47.5670,-447.9478,-569.0127
-69.8782,267.3433,-64.7472,189.6087,-227.7245,59.9809,-289.6600,74.4411,-206.4180,80.3273,-110.2639,296.9180,-155.8135,15.6266,-145.3210,53.2900,-92.5283,-454.9505,-607.5668
-66.7515,260.3741,-73.1673,187.9458,-188.1345,37.3670,-240.8163,54.0964,-238.5446,97.6025,-37.9987,237.0866,-104.2883,39.6580,-193.3651,85.1832,-107.7497,-425.6763,-581.6530
-31.7411,200.7713,-53.0229,139.4933,-105.8447,42.6964,-201.4894,65.0000,-255.6971,56.5277,20.6037,107.6359,-38.1299,70.6625,-199.2068,107.9124,-76.3666,-432.8355,-570.1694
-22.6104,157.5643,-31.0876,102.7100,-96.1819,49.4630,-192.5535,52.8917,-236.6973,2.2342,-7.8440,54.5778,-64.4571,33.0097,-172.8437,85.0260,-31.0287,-415.4250,-557.6838
-55.8918,146.0128,-53.1873,128.9288,-111.7178,82.0010,-138.7398,63.1508,-147.6070,25.0282,-40.5438,95.5108,-170.4206,19.4088,-99.2035,62.3071,-30.7006,-331.0500,-492.4496
-79.0990,100.6171,-75.3732,125.6507,-55.4350,129.8715,-35.2587,111.9963,-53.1305,78.6726,-22.8731,63.0601,-137.8652,45.1935,-23.1581,41.2641,-71.1431,-300.9352,-458.8816
-51.7081,35.6652,-38.8313,61.3428,42.8594,134.4744,66.2256,113.0450,-2.1074,78.6507,5.8613,-65.0365,59.1421,6.4777,-5.6034,-11.5610,-82.9412,-347.6403,-477.6095
4.6542,12.6904,9.0490,35.0027,133.5464,104.6881,149.5192,56.7109,51.5166,58.5613,38.3086,-119.8921,149.7795,-61.8522,6.7749,-51.5121,-42.4785,-370.4909,-458.3272
29.4012,18.5721,15.1313,61.7981,207.7266,86.4073,199.3447,37.6891,84.5811,61.4204,51.4073,-63.1554,96.1859,-40.4317,50.6953,-21.1856,12.2643,-396.0399,-420.9960
-4.8308,31.1213,29.0662,80.4569,241.6644,62.9176,213.0073,63.4071,68.3942,58.6287,-18.6995,-23.6562,140.9293,17.1015,56.0236,19.2212,72.0147,-462.3957,-411.0346
-36.4045,51.2077,88.9896,91.9395,249.8714,16.7533,237.2548,54.4413,96.9053,28.6965,-86.5674,-57.6727,266.8205,-8.4499,39.9399,-16.3675,135.2237,-488.6598,-392.4934
-6.7540,40.8557,126.3956,83.8684,251.1486,-25.9081,250.0777,-3.7259,142.6853,-32.4896,2.2018,-104.6291,264.5587,-70.9837,68.1373,-78.2029,139.4145,-479.2597,-413.0155
21.1030,0.4840,75.8840,32.0780,166.3909,-50.2887,148.6009,-57.2983,37.7477,-104.4998,152.3214,-92.1682,154.4930,-60.8357,47.3806,-56.5332,56.8225,-484.8913,-516.5950
-20.6248,3.9125,-17.4590,18.1335,-3.7906,-30.2372,-14.3271,-57.1651,-122.8807,-120.7867,155.5692,-2.4039,43.5012,18.3109,-58.8946,32.5260,-18.0824,-428.9099,-560.7780
-54.0930,42.3583,-55.3650,77.1336,-68.2973,44.3433,-37.5122,-8.1540,-88.6690,-99.8650,67.7702,86.7554,-45.7820,80.1037,-72.1019,62.7816,-0.6607,-337.5782,-470.3250
6.6374,27.4496,-4.1956,78.7858,26.6703,62.1245,73.9825,1.6425,45.6946,-161.0145,78.6865,77.9048,-34.9519,40.8503,24.6528,-26.2043,71.1187,-400.3442,-398.4342
100.5186,-28.5984,79.5434,-14.8155,80.1399,-53.7276,97.6166,-85.1819,19.5344,-293.2737,170.7511,-4.3454,78.2565,-99.2946,19.4665,-157.2333,135.7199,-570.4373,-430.9426
148.4817,-41.0093,140.6741,-65.1030,31.0985,-154.3076,15.5516,-173.7867,-96.6072,-374.4587,211.0685,-64.3342,131.2925,-204.9503,-71.6125,-220.9502,197.8108,-596.0803,-466.0062
177.0759,-2.4177,189.3021,-34.6549,49.2095,-116.8256,38.3437,-176.5344,-86.3062,-417.1254,200.5267,-72.7509,99.2480,-166.5318,-42.0508,-201.8484,270.0388,-485.8790,-426.0149
209.3175,28.9514,223.0856,-20.9213,140.6514,-72.0798,147.2182,-169.2531,-5.3905,-482.1656,214.0386,-50.1317,70.5583,-79.4207,64.2352,-164.5188,309.6258,-459.6131,-354.0550
181.1757,-2.9848,173.2943,-57.1195,104.3838,-135.3371,84.0504,-216.4045,-35.3156,-490.4614,228.5066,-25.5747,3.4452,-83.1746,52.6990,-146.2167,250.4546,-557.6008,-339.0022
55.9492,-112.5033,33.0967,-125.6757,-77.7765,-228.5964,-139.0466,-252.2507,-144.0297,-384.9103,167.8105,-48.1208,-66.8122,-156.2442,-71.1993,-144.0305,103.1118,-656.5925,-384.1382
-67.5620,-222.9540,-68.7527,-216.0397,-181.3790,-296.1871,-209.9720,-249.7879,-145.7927,-258.1144,63.7147,-122.2315,3.5243,-235.0900,-164.6638,-181.2357,-16.5911,-691.9319,-365.0829
-70.8120,-247.2693,-60.2342,-281.9919,-104.6698,-361.2505,-51.5038,-258.0850,8.1178,-178.7987,26.9234,-175.8362,87.7694,-309.0989,-140.4346,-255.8154,-46.0606,-674.7869,-248.9598
-16.6823,-225.5042,-61.7483,-305.6672,-11.5691,-384.2193,79.6752,-253.0266,165.3188,-109.8854,50.0149,-165.4210,-16.9209,-302.9775,-14.0258,-261.6017,-73.7299,-633.4999,-190.9816
-66.5195,-227.7074,-168.8463,-314.0461,-42.8638,-330.0768,50.7519,-190.0544,205.4365,-28.0414,19.5616,-119.9167,-152.5396,-165.1849,92.4308,-136.4476,-141.5291,-593.2393,-241.1828
-183.0646,-208.4883,-254.7100,-267.4475,-109.5117,-263.1904,-10.4821,-143.3054,177.0838,18.1217,-49.0348,-75.7484,-116.9779,-62.6714,72.7485,-25.9725,-134.8849,-558.8915,-276.2939
-171.8533,-136.7960,-180.7696,-155.0061,-93.9501,-237.3867,-23.5431,-193.4979,129.4122,-16.4245,-29.3999,-59.6327,-10.3798,-148.4707,-23.3100,-82.2056,-25.5083,-524.8852,-283.3044
-42.3337,-107.1505,-49.3724,-109.3852,-51.0798,-222.0386,-45.8402,-263.7458,25.8060,-61.8294,50.4579,-81.1193,37.5154,-254.9165,-92.7190,-185.5014,36.7151,-481.9261,-311.5392
-7.5502,-161.2202,-43.9928,-175.2783,-55.9725,-167.0922,-81.4678,-221.4029,-87.3060,7.5245,38.6832,-93.5704,12.9697,-167.0010,-102.3260,-127.9302,-11.3952,-420.1167,-280.2801
-110.1005,-195.1812,-151.4683,-208.2593,-57.6872,-81.8623,-62.5066,-93.0250,-95.1981,137.4765,-60.9205,-48.1014,-66.5783,-6.7952,-52.4255,19.4512,-71.0494,-371.8156,-182.8770
-172.5032,-156.0415,-220.6041,-172.3134,-18.0139,-54.7186,-2.2613,-43.5112,-36.2676,139.1378,-103.3831,14.4113,-85.5984,-8.6900,9.0375,27.4678,-91.0444,-387.3650,-168.1866
-113.1735,-127.9218,-188.5412,-195.5953,4.4494,-129.4779,4.6389,-120.2221,-35.6257,24.3219,-47.7142,13.9057,13.7513,-120.3999,-1.8271,-84.8038,-106.8801,-429.5929,-236.7226
-38.5860,-156.5601,-120.1086,-287.3475,-20.2809,-192.6130,-60.5304,-167.7869,-73.0484,-34.1145,20.7008,-45.2827,52.9547,-133.4808,-51.2089,-103.6988,-135.7109,-400.0509,-245.2238
-34.2179,-171.3087,-95.2282,-323.9517,-45.9356,-141.6285,-92.6137,-84.9069,-54.9526,-31.1203,45.5581,-73.4241,-24.9964,-38.2894,-20.1224,-11.1194,-174.3445,-285.6237,-190.0470
-59.3198,-118.4486,-122.9503,-250.0314,-31.3648,-48.0228,-18.4279,20.6644,6.3246,-64.1249,36.6858,-18.7257,-14.5308,17.6334,78.4840,33.1423,-195.2725,-170.2072,-150.5828
-52.2181,-30.6496,-136.6934,-102.1222,19.3277,11.8761,82.5723,48.0429,44.1390,-106.8001,18.6210,58.3861,91.1681,8.8801,129.5262,18.5303,-144.1794,-104.0020,-128.8563
-10.1006,43.5200,-69.2386,39.3583,75.2194,79.2227,112.1478,59.1205,39.3292,-105.9964,26.1588,69.2556,104.8030,33.0147,109.4790,47.4770,-39.3865,-45.9922,-127.5802
54.9695,85.3060,64.1140,95.3663,128.2306,172.5435,120.5411,121.8523,20.2843,-71.0298,83.7804,21.2685,87.1186,93.7846,85.0297,86.1905,35.5852,52.6887,-155.3330
125.8583,106.5789,176.1793,93.2812,207.0503,254.1824,194.2673,197.3228,38.3314,0.8654,137.2346,6.2378,171.8739,100.0292,101.1607,56.0837,73.3436,157.8656,-144.6331
135.5459,148.4120,197.7149,129.8071,293.9957,312.9836,281.6100,232.3834,102.0675,79.3689,95.1028,80.8504,236.9399,55.8689,143.7015,20.7222,126.7669,198.7641,-54.3847
64.8692,219.5109,156.7897,208.1305,325.1588,332.2973,298.9526,231.4822,149.4599,98.4304,-12.5493,185.8215,191.6179,59.0267,170.3003,57.3141,197.2051,188.6390,49.3611
49.5528,247.3139,158.8399,247.5530,316.0501,306.0072,287.9540,232.9220,162.1405,86.6006,-43.3450,199.7059,160.0351,126.6162,178.2329,118.7365,248.7032,200.9043,102.2736
171.3341,179.4892,240.8388,197.7318,317.1550,293.1450,306.8596,257.1088,190.8065,98.5983,38.0796,105.5631,184.1960,179.5869,199.1846,142.4873,246.6371,227.3827,104.0046
258.9688,78.1349,293.0343,83.5732,285.3850,302.2845,309.1270,274.7813,218.2625,101.7009,108.5883,38.4971,171.1977,172.6327,211.7363,135.0075,179.7686,186.8640,84.4097
166.6320,27.9852,227.1023,21.8030,206.0480,261.3412,263.7099,257.2682,192.4067,87.2738,88.9423,86.1682,131.3907,129.8624,172.5431,124.0765,119.1388,70.9468,81.1302
45.1349,43.2395,129.2210,105.5576,185.0758,179.4198,236.1863,219.3076,163.3918,81.8363,32.5407,174.3999,154.5151,89.0433,107.4899,122.3152,143.7398,-43.8074,88.1230
70.9130,103.9713,116.2154,224.7553,243.9175,118.3819,252.5006,163.5783,173.0082,45.0440,19.8365,223.8317,224.2660,72.6144,60.2260,111.6851,196.9298,-103.5976,53.0086
169.9412,165.4091,164.6605,211.0375,266.9599,68.1662,250.4158,95.3211,152.7245,-9.1481,85.1779,221.3562,230.2304,86.1347,45.3515,78.5461,182.3643,-95.9140,-8.7338
206.9322,156.2669,193.2669,106.9933,226.5260,34.3196,219.5201,81.5665,102.0431,19.5485,181.4920,146.3828,135.0566,116.1982,82.9613,76.8220,119.1971,-33.1417,-20.5414
178.8214,82.0541,179.3244,46.4128,191.1542,38.5729,211.9388,111.3352,113.2214,74.5428,190.3977,59.6497,46.2299,123.4127,147.1213,124.0932,66.9882,-1.9143,-9.6583
127.3049,42.1198,134.6666,38.7922,157.0111,-9.3589,200.3613,23.2408,138.2226,-16.7768,82.9256,121.4594,54.2451,60.6886,162.7624,95.1210,51.1042,-103.8972,-81.9000
75.1144,69.6202,80.9204,47.4755,89.0583,-148.7106,105.7869,-211.2325,48.6397,-230.1512,-21.1952,312.6392,79.7368,-50.4223,129.4307,-62.5946,91.2108,-277.7606,-215.8055
49.7620,81.4132,50.9572,47.8297,8.2847,-227.0633,-46.0799,-383.1313,-102.9986,-378.4727,-73.5299,403.9453,28.6080,-110.5813,71.9718,-168.8914,138.8930,-354.6319,-291.0261
47.4700,14.5643,47.8742,-14.5978,-63.3009,-190.3009,-154.1229,-403.3747,-187.6507,-385.0012,-166.4165,320.9996,-32.7145,-90.0135,-48.1834,-108.4033,89.8747,-327.4083,-307.6263
24.2886,-92.9258,34.8910,-114.8216,-115.4285,-193.6876,-186.1943,-414.9561,-219.8199,-333.6852,-300.2044,218.8701,-29.5837,-81.5843,-159.1709,-37.7444,-33.9488,-334.8912,-347.8645
-39.0296,-143.8401,-17.8373,-135.1841,-131.1324,-262.5833,-176.3125,-451.1024,-238.3704,-325.0425,-360.2296,198.6859,-35.3985,-123.1321,-93.6651,-91.1124,-101.6849,-381.8061,-363.0498
-104.5219,-79.9084,-93.3519,-64.3775,-127.7101,-236.5796,-144.1510,-371.6145,-196.5383,-330.7321,-338.3035,225.6694,-122.1749,-125.2812,62.9318,-162.7482,-70.1200,-340.1724,-256.6768
-100.7375,26.2020,-112.0659,12.6639,-121.1466,-79.8904,-94.7669,-164.0102,-108.0459,-240.9599,-303.8184,233.8097,-201.5774,-38.8521,63.1379,-118.5623,21.5548,-188.6924,-110.4189
3.3884,54.4246,-3.5094,82.5748,-76.3097,92.7375,-36.5180,28.3164,-54.1363,-103.0771,-237.3135,182.1416,-143.7179,75.5124,-46.9832,10.0977,135.2410,-18.5932,-52.6916
129.6778,27.7602,159.5661,156.4973,7.6359,208.3545,26.4143,137.3337,-20.2505,-74.8552,-116.6968,121.5429,9.2916,151.9886,-43.8388,102.6283,203.5177,102.3661,-19.3888
164.6678,55.7761,214.4996,196.6366,68.0915,245.2932,77.2740,196.1029,47.2593,-102.8284,-24.2370,148.3976,83.6590,162.0667,46.1333,93.3987,186.0667,130.4575,81.2251
100.7702,127.4346,135.1855,190.4755,81.6666,201.5965,84.2252,217.7383,86.4913,-28.3585,-23.1592,228.1649,44.7429,116.0788,65.4437,38.8116,143.0771,67.7485,149.8927
27.5885,156.9652,48.3380,158.6314,68.4670,131.8198,39.4678,197.6733,17.2236,72.8388,-70.2204,248.9996,32.0215,83.4903,24.9045,44.1252,117.8813,13.2964,96.5775
16.6892,134.3950,24.6657,121.3957,27.6678,94.9433,-30.1532,163.4896,-97.8663,71.3316,-93.4309,208.1776,77.1483,107.2863,-3.2987,107.2080,77.3969,23.5680,27.9249
63.3934,81.6674,28.3406,104.7723,-22.4103,84.7203,-84.2139,140.3045,-137.9324,54.1175,-54.2286,155.0125,69.3652,130.4416,-25.4208,126.7904,19.8674,21.6381,36.3871
100.9315,15.8254,38.7550,81.6310,-18.4037,62.4556,-81.4299,112.7969,-95.0567,95.8821,24.9902,103.0817,16.5672,106.7517,-40.5877,72.8348,-26.0142,-17.0226,44.4304
70.2902,-2.9891,59.7931,4.4059,58.7414,9.0674,-17.4418,63.4627,-52.5601,112.5660,53.1805,83.7866,18.6095,67.3201,-26.3488,22.8172,-64.6111,-4.7843,-18.6914
-8.0627,34.1243,51.5889,-57.7797,124.8245,-51.5427,36.5915,14.8829,-45.2388,89.0812,-18.4107,91.0817,45.6053,31.1401,-8.7105,39.7879,-92.7422,47.7277,-96.5733
-68.7648,26.3048,-21.2452,-38.4893,75.3592,-66.1183,-2.6224,7.1298,-36.3875,121.0800,-102.3922,56.4221,14.0299,10.1582,-33.5296,108.4191,-107.8361,38.0043,-113.9004
-84.4090,-53.1344,-105.9535,-31.6498,-63.2401,-17.4621,-110.2727,60.0162,-2.1120,236.2800,-102.7954,8.2721,-56.6473,51.6848,-103.0831,165.2982,-141.2416,-0.6942,-61.5908
-73.8328,-100.7949,-119.4413,-83.8232,-134.9447,49.2756,-161.3695,155.3510,47.3743,368.5891,-61.6071,23.5753,-107.8506,123.4871,-162.1228,164.1598,-177.5107,34.7259,22.5051
-70.0898,-83.8363,-76.3275,-93.9772,-75.6465,78.8718,-94.3028,230.0720,100.2902,455.4894,-67.1726,43.1858,-114.6143,122.3945,-147.0257,142.4547,-164.7009,88.7113,88.3108
-81.3875,-60.0771,-70.0785,-52.8089,-0.6481,59.0932,3.0228,237.9156,142.2482,533.5883,-112.5804,14.9261,-88.7409,90.4196,-73.1191,183.9795,-127.2930,58.5488,115.2307
-66.9848,-22.5466,-120.6307,-22.0103,11.0375,40.7276,34.7738,229.0042,169.5979,684.4211,-138.8888,16.5146,-68.6569,152.1715,-20.3792,280.5145,-104.8536,14.2086,119.6073
-11.7433,46.9384,-145.1627,38.7851,7.7722,78.9756,28.3786,260.9623,195.4616,800.1738,-120.4584,43.1759,-43.1308,231.4405,-25.4778,310.7150,-78.8735,57.6991,94.7953
21.3801,79.9968,-95.4010,103.1601,3.0790,133.1445,25.6437,274.9913,186.8674,669.1550,-49.2648,10.3474,15.0767,171.4643,-66.0618,210.2282,-67.6621,120.6568,11.0190
15.2873,54.7012,-13.6583,60.6696,-24.7833,140.3351,-10.9123,221.7044,101.9452,389.4762,61.2646,-18.4266,25.0445,62.2577,-101.2194,89.8449,-87.3450,125.8091,-83.7589
51.5516,62.3536,49.6855,16.9656,-17.3511,159.5555,-60.5149,190.8485,27.2762,253.6471,137.8677,35.5899,-40.0997,92.8197,-75.1486,99.2668,-42.8730,154.3987,-78.6158
136.0890,133.6989,74.8383,133.0054,57.7533,236.6318,-15.5759,231.0132,66.5910,249.9192,120.7758,86.3742,-13.8548,204.2164,11.7301,200.0043,93.2145,244.9816,14.8289
152.6121,176.6438,49.9949,259.2794,116.7391,247.3730,96.6919,224.8468,115.5432,179.5814,57.8546,86.8777,121.5204,200.6682,54.5336,197.6402,163.0771,260.5496,44.2238
61.7763,141.5390,-13.0020,212.0048,104.5765,126.9214,113.0865,109.4944,39.3911,59.0409,32.4846,105.0133,116.9857,69.3922,-0.9778,38.8456,91.5610,149.2882,-28.6029
-31.5427,94.6031,-60.2819,108.5371,58.6064,41.4261,18.8927,11.3983,-45.8859,-6.5627,56.5585,128.8200,-51.5031,-33.5044,-53.3649,-84.3084,10.0438,76.7739,-61.1365
-32.6556,101.1872,-36.7622,95.6419,13.3688,105.8299,-39.7223,37.1492,-0.6410,-39.7772,99.1274,108.5885,-109.3634,-12.9101,-13.5573,-34.3996,12.1658,138.7371,-10.7936
37.4806,143.3393,37.7367,141.6309,-17.4816,196.1067,-26.3434,106.1762,46.1593,-94.4153,126.6606,83.5728,-17.1009,69.6558,56.8897,54.2417,52.4001,207.5780,-10.9349
78.5507,164.0088,53.4082,193.1179,-25.0925,184.5192,-28.5483,85.5748,-48.7910,-193.3918,91.5281,72.2633,16.9252,95.7430,55.4309,28.6339,73.7064,173.7896,-84.5914
26.3663,129.0764,-46.9958,194.5397,-14.3906,107.3009,-45.7410,-6.5038,-153.3575,-286.2185,-8.5255,48.0836,-8.9426,51.1211,-12.6157,-21.0838,51.1841,99.8410,-94.9748
-60.4720,47.9464,-141.6896,78.3216,31.4955,46.9260,4.0835,-38.6922,-88.0559,-225.0872,-81.7683,36.7150,46.4477,33.8272,-37.0907,26.9045,-9.1540,72.6287,-24.8280
-79.6678,-27.3652,-100.5760,-78.4071,112.4082,30.0094,102.2730,8.7196,79.6570,-27.3423,-55.8784,38.7033,129.3140,86.0684,46.2664,86.8508,-56.1617,80.0090,6.7971
-22.4851,-39.3336,-7.5835,-116.7812,135.5760,42.9265,124.1345,25.9528,155.0073,63.5015,15.2963,9.1175,92.9922,145.5361,133.5017,77.3674,-54.4455,68.4909,-13.4724
41.6563,11.4360,-8.1614,-15.7834,50.1294,70.5314,27.9447,4.2795,93.2926,0.6898,31.5354,-4.8507,-39.0584,175.1746,97.6040,91.4305,-12.5086,36.4583,-3.6235
50.9638,66.9376,-66.4784,123.9969,-26.2798,106.9258,-54.2486,31.8574,30.6434,-29.4358,-28.6331,42.2542,-104.4838,176.3842,15.6498,141.4271,48.2770,31.3192,40.9463
-11.3405,78.0536,-82.4739,176.2089,6.2449,116.3907,6.9664,73.0599,68.6485,-11.6401,-99.2089,39.6160,-19.3219,121.9470,40.9667,92.4858,62.3158,56.2571,78.1235
-83.7092,32.9992,-76.1262,63.4172,74.4015,59.8050,135.6713,64.9259,141.8831,-2.1948,-102.4501,-79.4821,98.0351,44.1280,125.4224,-7.7259,-30.9043,54.8991,114.0976
-73.7788,-33.7010,-90.4073,-86.5285,82.9839,8.2379,160.8887,110.1577,158.1459,121.6422,-24.0394,-173.4884,85.6125,57.7703,119.5478,32.2398,-141.4352,32.7057,158.4088
4.4328,-27.4202,-90.6336,-45.8101,40.3888,64.6533,68.9969,250.0975,135.4470,346.9314,79.1309,-121.0031,-6.5898,153.6991,40.0426,148.5559,-127.8490,54.0572,177.1351
51.7750,97.4749,-57.4768,142.9688,-12.0092,143.0347,-22.6979,291.2672,101.1234,410.8586,140.4760,4.3527,-15.4258,165.1124,7.2417,126.5959,-29.7518,77.5934,130.4600
42.0734,213.7456,-38.2002,226.0799,-59.7897,73.3247,-69.9044,134.0901,19.3893,259.9184,132.3109,75.5522,40.0596,41.3653,36.9390,7.1572,14.0112,12.6230,21.5239
28.3749,184.9980,-61.1116,156.4371,-105.6293,-82.8658,-110.8995,-29.3177,-93.8877,127.1748,77.6898,59.3329,29.6479,-58.2630,65.0271,-26.3159,-17.1206,-58.6309,-77.9387
41.4628,86.5251,-78.6376,87.4822,-143.3244,-111.9344,-147.1525,-23.0649,-150.9767,120.9603,45.6236,10.0987,-22.5713,-18.7219,67.8940,26.0838,-62.4985,-2.1315,-81.3773
67.5623,51.9374,-37.6293,63.3279,-144.8409,-8.6950,-147.4781,76.8354,-128.4971,133.2082,88.2040,-4.7615,-7.1168,60.8563,50.5491,49.7207,-93.3815,83.1897,-8.8664
70.4375,60.4545,14.9071,30.8748,-114.3916,33.3312,-123.7587,101.1708,-96.1620,74.0337,168.9017,22.3114,54.9564,38.4607,2.2460,8.5206,-97.3795,33.6288,25.8526
41.1163,64.4619,-7.4392,9.1888,-107.9267,-40.2284,-125.2213,22.8418,-113.1858,-11.8607,209.9697,51.8612,72.8310,-41.5184,-70.9161,-38.5849,-74.5043,-53.0294,-14.7047
40.0333,79.3055,-55.4712,23.1505,-130.3287,-90.9120,-165.5754,-40.1390,-162.1141,-35.8784,190.8064,57.9939,48.3207,-41.0881,-123.1732,-18.1806,-56.0537,-9.3033,-57.9773
99.4013,56.3007,-9.4291,6.2840,-122.5766,-65.2756,-194.8083,-44.6576,-176.9018,-44.4841,150.1980,28.0151,23.2077,6.9046,-114.1252,22.8633,-64.4206,78.2430,-75.6241
141.3873,-30.4146,82.0775,-75.2789,-89.8670,-57.6611,-178.3797,-92.1440,-136.6225,-158.7542,129.2556,-23.4941,-25.0149,-22.3101,-55.0433,-31.0212,-98.7501,72.6349,-111.7194
111.4096,-42.5881,75.3224,-113.2991,-95.4097,-78.3995,-164.9479,-180.8467,-100.6946,-292.0420,132.9985,-24.8511,-88.8659,-62.5844,-11.5445,-100.8278,-149.1287,52.4859,-144.8836
65.6593,71.4941,-0.4319,-23.8660,-137.6635,-36.5215,-194.9781,-168.7185,-102.5358,-266.2194,127.6007,43.1110,-59.7344,-1.2314,-56.3068,-34.7613,-173.2791,99.0865,-98.7519
51.2564,131.5170,-10.3800,82.1677,-155.1580,50.0766,-203.1303,-74.5567,-92.1235,-162.0152,94.2986,67.0444,68.2475,43.3337,-164.8318,45.7502,-128.4887,151.9488,4.6921
53.2985,68.8587,43.9664,84.9637,-110.2345,112.9746,-125.6323,-20.7767,-44.1407,-102.5937,60.1636,-12.6223,93.3230,-7.7975,-193.6437,19.2919,-60.4716,238.0214,69.7539
47.2452,35.0101,62.0644,61.3038,-30.3609,208.5004,-30.5594,71.3022,-6.6554,51.0919,32.3191,-71.0098,-75.0908,44.4135,-81.3539,92.4164,-70.9670,435.8005,82.7875
-4.6888,53.5433,4.5602,85.1122,4.6842,354.2299,-17.0381,274.6907,-2.4850,329.2639,-16.8586,-17.2912,-221.4436,253.8794,23.0534,321.4267,-173.9392,601.2115,99.9006
-104.3247,8.1038,-95.0349,65.3498,-28.7692,403.7408,-50.9139,396.4064,9.7555,438.6052,-66.9908,42.4745,-171.0917,338.4707,5.4706,378.3890,-252.2843,572.2369,137.6993
-156.0769,-46.1275,-168.5385,-7.7751,-42.9262,311.9352,-22.7922,319.9099,58.6948,271.2832,-69.5432,17.6706,-49.4422,199.7542,-33.2388,195.0789,-191.8392,481.5279,177.3657
-100.4688,24.1534,-151.4351,17.3674,4.3463,218.5464,66.7599,204.3253,105.9059,84.1046,-34.7765,0.6086,-13.1500,74.7593,-29.8339,83.0633,-27.6789,468.1760,198.7537
-8.8896,147.1712,-53.3338,141.9603,34.3349,168.8094,106.3279,138.1894,93.7342,10.7011,7.8170,63.5638,-31.5223,65.8199,-73.1002,96.7738,104.6074,419.6190,183.8126
57.7935,161.3785,48.6230,176.2058,15.5777,98.0692,61.8543,58.0542,45.0040,-72.8055,54.4170,98.8715,-51.8187,62.4371,-121.9534,59.2647,144.6116,282.9621,159.2550
98.5781,61.2864,88.6071,62.3029,-2.2553,33.7676,21.1343,-15.8025,40.2538,-189.0925,76.2751,33.3594,-87.7259,38.0203,-40.5765,14.5280,131.0065,189.0991,169.0748
74.6729,-29.6840,45.5727,-54.9164,-29.0727,14.3811,17.5027,-43.8611,64.1468,-205.4518,45.9571,-13.2429,-93.0511,15.8218,51.3567,35.7409,90.5478,161.3978,171.2844
-17.4907,-18.4475,-40.4705,-56.2676,-89.3404,-3.4951,-14.0983,-60.6786,26.1132,-104.0740,-0.4707,34.3818,-7.4955,-28.3696,-40.1387,20.8152,41.7813,126.3307,106.1983
-64.9754,64.3744,-79.3116,29.9965,-126.7318,-11.2049,-71.4699,-43.0183,-48.3554,-17.5238,-25.2774,56.0931,69.8538,-52.3552,-173.0196,-23.7732,36.0778,106.6550,25.7828
-10.2782,109.1741,-37.2965,96.4512,-108.9991,16.4707,-78.0048,20.7076,-59.0607,-13.3949,-26.0179,-2.3911,-2.2663,-18.9303,-127.1102,-6.1515,69.6685,97.7444,-12.8378
47.4742,80.1379,15.7515,84.6982,-77.6472,-2.0721,-41.3957,16.4740,-17.8121,-34.3539,8.2695,-10.8276,-135.4498,-16.5615,-4.4952,0.5314,66.8938,25.9942,-45.6010
25.5637,40.7468,24.4178,29.1893,-52.1455,-90.7971,-21.8258,-79.6607,16.1366,-57.5154,50.0200,59.5646,-119.8819,-76.9639,20.4129,-55.6562,15.0935,-44.2027,-68.5359
-32.6056,24.2371,12.4362,-25.2249,-29.0717,-127.7808,-2.5332,-130.5724,48.1191,-117.7670,19.2522,66.4652,21.2011,-102.4622,-9.1721,-74.5904,-25.3493,6.1837,-24.2918
-62.9427,19.8736,1.1777,-55.0573,-14.4663,-75.8929,44.3306,-94.8654,59.6333,-151.6452,-77.8051,-5.8850,76.3326,-77.1502,-25.6262,-47.9883,-35.9032,122.6804,50.1234
-68.7166,40.0632,-22.2534,-26.9553,11.9237,-26.7117,80.4564,-38.2730,24.3727,-55.7555,-144.2403,-21.1727,-1.4419,-67.3923,-48.4413,-48.4744,-32.2543,204.8655,100.7913
-78.9665,81.2444,-50.2404,37.5564,55.6857,1.4953,94.1765,42.4619,22.8209,108.4472,-152.1717,36.2188,-74.5155,-59.0595,-49.7127,-36.6255,-12.9003,265.4549,176.5915
-94.5753,111.4127,-61.1317,62.3153,69.6312,45.4749,124.4960,139.4882,103.1544,204.3823,-144.4128,64.3171,-67.4565,-24.8694,-6.8394,15.5361,-2.4685,312.0060,269.7987
-116.3334,121.6803,-71.6104,51.1455,43.2220,72.0141,157.1534,168.4612,154.1833,214.8353,-143.3335,48.4428,-20.8497,-4.7194,17.8846,37.8446,-45.4813,301.0179,260.3492
-169.4438,98.0278,-112.6448,44.5510,14.8433,52.0124,140.1687,126.4594,111.0741,173.8690,-162.2686,43.1953,-13.9688,-4.2626,19.9284,29.2562,-125.4519,246.6455,146.7287
-228.8519,35.9709,-157.1145,9.0675,-11.1647,24.8016,88.2657,96.8594,65.2635,94.2625,-184.7764,54.4513,-84.2266,14.8978,59.0540,49.5344,-175.4949,214.7281,69.7638
-207.5440,7.7538,-136.1411,-36.1908,-33.2847,25.9227,57.1525,94.8573,66.2471,35.4149,-146.4230,56.4199,-127.5373,43.9421,90.8612,83.5976,-158.7097,235.3049,82.5619
-108.8632,43.6560,-50.9380,0.0271,-28.6944,57.0758,47.9451,89.9720,62.1948,55.9876,-60.4088,38.6750,-43.6537,49.5379,41.9052,88.8602,-102.9397,271.9169,123.2144
-51.0856,51.9266,-0.7562,73.9024,-33.8917,95.4654,16.1993,97.3765,43.6301,135.7771,-27.7800,16.5564,13.8772,29.1916,-23.9939,58.3988,-77.2907,259.7282,146.0051
-75.3037,23.5777,-50.4332,85.0955,-100.7557,97.2042,-51.8436,127.0342,39.8638,219.2543,-59.3099,26.3028,-117.5924,3.4094,-29.4669,10.3080,-107.9125,193.6022,130.1738
-103.4180,67.7055,-132.3597,83.8769,-180.6771,61.9396,-123.8400,134.5230,30.9744,233.5057,-79.0957,67.4598,-263.0675,4.1892,-22.7514,5.1981,-119.1680,130.3160,66.5024
-85.6735,162.0954,-131.4165,123.4491,-191.5261,49.2193,-162.3861,87.6165,-8.4119,149.3651,-65.3151,92.3824,-219.9126,45.3840,-46.9751,74.8742,-37.3360,91.0412,-8.6119
-32.7280,198.8615,-29.1987,157.8627,-132.2567,72.8391,-149.0878,26.4230,-55.2745,87.9630,-24.4992,102.1230,-95.5777,96.5560,-58.1762,142.6669,82.3844,75.5543,-55.3910
22.6210,208.6211,72.0019,203.0983,-67.5529,81.6592,-106.9062,14.9618,-88.1019,146.3764,36.8581,133.3678,-24.9857,123.1942,-52.4329,154.5358,132.9023,108.6171,-80.5656
23.4347,227.8338,79.0445,264.0606,-70.5435,69.9648,-111.7206,59.5830,-122.0606,203.7008,56.3113,137.8929,3.8640,121.4843,-78.8104,163.2784,102.4277,153.2744,-89.8286
-29.5216,173.1398,36.2979,223.3804,-140.0302,87.2664,-185.1165,127.4504,-150.3918,173.1720,8.7228,58.9974,-41.4054,116.2975,-98.2080,187.7985,56.7330,141.0950,-56.1099
-45.4945,54.3286,43.2200,91.4849,-157.5334,137.6921,-199.9352,206.5956,-109.0560,180.9916,-21.2687,-11.8988,-132.8806,149.0000,-28.3986,186.4987,32.5748,123.6887,20.7837
-6.9081,-6.6128,75.8282,41.0089,-56.3705,169.8702,-74.1958,273.8141,12.0403,274.7032,-0.4265,28.6776,-68.5195,206.4983,69.3686,177.2205,13.9386,166.6407,72.0663
-0.3679,-8.8894,46.9827,75.6601,37.4569,162.1107,31.6374,280.9133,88.7802,319.9406,4.4774,94.2662,149.9703,206.2603,63.8740,193.5034,-9.8861,193.8174,39.3241
-28.6398,-17.3628,-1.7282,73.6410,6.8264,143.5721,-27.4733,234.3470,43.4481,260.6086,-11.4225,61.1461,210.2476,146.3829,4.3010,197.1654,-3.9356,148.5693,-22.2492
-7.0741,-0.6911,34.4572,58.2163,-62.5627,126.5829,-109.7732,173.9420,-13.4354,152.2807,4.8024,-5.5083,15.5912,124.9207,41.0360,156.8198,61.2858,95.2121,-27.1670
68.0395,55.7334,123.8086,84.6831,-56.0223,88.3287,-69.2438,86.6496,-6.9663,40.2977,42.5074,14.1285,-134.9508,140.2166,114.2016,103.1398,136.0504,61.3204,-20.9207
120.5232,86.7311,141.0325,110.0074,-15.5238,41.6392,-23.5784,-16.2821,-42.1215,-7.6701,55.9956,72.1063,-50.8971,109.3522,45.7226,72.1869,146.9567,31.1034,-80.2188
99.7699,78.9557,57.7321,120.9097,-22.5985,38.0155,-70.6753,-46.3592,-140.0264,46.2667,26.6719,54.3961,61.6718,75.8651,-85.3864,86.0054,113.5933,34.9328,-128.9441
30.3785,72.1859,-18.3225,127.7153,-58.5402,68.1949,-95.7200,5.3347,-151.4336,116.8635,-13.2912,-10.7155,-13.2039,124.6255,-54.2748,148.2446,112.4775,54.5345,-87.4719
12.8198,76.0232,16.6030,110.5513,-66.7987,62.4563,-41.5249,34.1651,-67.5965,127.8380,19.6908,-10.1036,-113.3287,195.4850,78.3740,203.4273,149.1526,29.0709,-43.7465
92.8941,88.4263,113.1138,109.8365,-37.7708,13.1317,0.8338,13.2786,-47.4239,100.7281,107.0476,60.8625,-0.5901,207.8869,85.8273,179.2380,165.2923,4.7990,-44.2382
147.6600,93.9208,133.2103,146.4661,19.7367,-10.3972,21.0055,17.5856,-101.0180,62.0150,80.1163,93.8634,158.9394,187.3883,12.1400,97.7629,143.0396,45.2268,19.6404
87.0017,61.4507,83.2144,126.0445,104.8315,26.9254,80.4580,61.8005,-105.6751,31.2596,-50.0700,32.7487,97.2335,156.3890,41.0369,56.9455,118.7181,101.9004,147.2771
41.9687,25.5598,99.5733,53.9091,182.9247,89.5591,145.9420,91.5944,-60.5442,22.2852,-10.8220,-54.4805,-14.1427,111.5165,118.2341,79.2063,113.3068,147.6041,190.8236
127.6678,56.9140,179.1086,70.9415,197.0330,133.1172,161.5664,87.7514,-36.5734,-10.5927,251.6286,-86.7108,81.2988,92.4135,107.8801,81.2879,105.7233,213.1715,141.4554
239.7439,132.7706,193.2652,153.1828,153.9421,137.5529,144.2875,64.0050,-29.1533,-79.9256,457.1710,-78.9463,207.2815,100.0767,67.6007,32.7003,72.4281,245.3114,111.7833
273.5304,166.4584,148.7939,142.9372,117.4841,94.1349,115.8475,16.9226,-29.9953,-119.3653,489.2540,-91.0612,161.9097,68.9398,73.9836,7.9372,23.6473,187.3452,104.1180
276.5287,127.5335,142.9184,48.4031,116.1771,15.4876,100.7602,-57.0590,-54.1683,-134.6046,485.8039,-126.2808,107.1789,10.6930,74.6404,27.8234,-8.3585,123.4098,72.1171
280.0988,64.6117,159.9438,-2.9833,139.8916,-38.7244,141.7371,-121.7655,-64.4030,-171.0688,465.2989,-145.4014,160.0833,8.0584,52.3836,21.7072,-1.0158,127.9627,39.6003
238.8334,54.8271,146.3845,26.5494,163.8492,-19.2245,177.1107,-129.1321,-54.3481,-172.4800,360.5529,-136.3805,185.8082,51.5499,41.2969,-17.3635,39.6034,124.7557,5.2574
165.6289,99.6947,118.0670,81.1816,116.9758,13.6983,70.7568,-95.3864,-109.7117,-120.5096,255.9674,-118.4347,119.9296,56.0589,8.1666,-28.9837,72.9359,38.6395,-57.1967
132.1568,90.4969,79.1940,80.6444,-33.5546,-31.6644,-132.4895,-82.5562,-230.1361,-107.8090,233.1069,-114.2034,22.9823,9.2966,-47.9846,-17.6322,58.7406,-63.7404,-102.5619
147.8520,-4.6331,28.1050,8.0179,-165.9265,-102.2026,-224.6257,-94.6016,-284.0544,-131.9248,231.0446,-133.5248,-57.7233,-29.6494,-44.1268,-25.7761,19.9151,-81.0685,-106.4118
153.9404,-52.1314,15.4267,-43.3959,-165.8068,-87.9754,-173.8061,-92.0539,-253.0481,-120.2176,213.5280,-155.4499,-64.4756,-43.3455,4.9235,-54.1365,13.5273,-35.1184,-122.4653
117.0318,-1.1357,37.3245,-28.9423,-123.9430,-38.1021,-165.8053,-83.8882,-264.8271,-110.2058,201.5043,-150.1659,-4.2428,-73.1869,-19.8718,-96.2041,23.2943,-30.4136,-138.4432
59.5910,18.9338,8.5625,-35.2369,-166.3896,-60.9305,-265.3513,-95.9060,-321.7642,-128.9011,159.6188,-130.0167,17.3502,-135.1699,-133.5666,-145.3946,-22.0795,-85.8618,-85.3036
1.3735,-45.4491,-76.9623,-96.2170,-240.4224,-127.5597,-327.5399,-122.9138,-291.2025,-119.4615,73.5874,-126.9758,-18.0233,-191.7408,-222.0301,-177.8870,-118.9278,-131.5658,1.3788
-58.6177,-105.9743,-138.3039,-153.8117,-248.3060,-177.7977,-283.7884,-165.4983,-184.9190,-113.8966,23.3427,-137.4753,-57.7769,-216.5665,-194.0418,-195.1655,-191.1858,-153.7819,50.1128
-88.0941,-128.7357,-149.5290,-199.7716,-220.4550,-219.7078,-241.8216,-194.2592,-146.0547,-159.9041,52.5402,-144.6102,-96.9484,-213.2290,-84.5049,-196.0529,-203.7493,-173.4165,98.0925
-55.5476,-142.3618,-139.9891,-231.0998,-230.3544,-214.6780,-263.5320,-132.1530,-174.8425,-154.2772,98.5070,-148.4946,-85.1631,-177.1116,-28.6698,-147.7793,-175.6571,-148.1888,188.2399
-22.9280,-147.6225,-128.5911,-207.5370,-270.1488,-131.4266,-275.1367,-10.2422,-145.5178,-50.3564,90.0409,-146.9497,-16.5409,-131.6504,-74.0843,-96.5270,-135.7087,-79.1898,259.6825
-61.2691,-159.5112,-133.5181,-171.6748,-281.2062,-87.1845,-228.5553,21.4215,-47.0564,9.1022,25.2706,-141.8889,-45.3132,-145.4001,-94.2394,-137.1442,-126.2279,-67.0472,250.2510
-120.3002,-179.1410,-160.0212,-185.0049,-252.9906,-154.7207,-180.4977,-58.0282,26.1751,-34.9864,-44.8393,-141.4688,-153.4806,-208.7923,-41.3494,-209.5264,-170.4300,-122.8161,175.5381
-138.7529,-142.0626,-183.5523,-194.2782,-243.6677,-201.2672,-190.4191,-113.2027,57.8894,-58.9280,-83.9968,-125.0257,-143.1156,-215.9831,-45.6363,-184.1435,-224.1148,-141.0956,77.6467
-160.3212,-61.9439,-196.1327,-168.3649,-279.7469,-152.8832,-234.7330,-104.3815,107.6730,-11.7631,-109.2971,-86.6696,-133.6013,-156.6610,-104.7017,-110.5848,-239.7222,-108.6923,-7.1503
-204.8160,-64.1264,-211.9316,-166.8961,-297.7674,-127.9236,-235.7068,-111.4007,180.9482,12.5821,-142.2970,-83.1040,-318.2227,-138.3607,-69.4459,-104.9686,-231.2644,-91.3201,-49.0962
-213.2592,-150.2651,-226.4406,-172.7286,-249.1806,-156.9823,-158.2619,-132.2899,220.9246,-19.4501,-171.9997,-116.9187,-430.3372,-166.9128,6.5267,-129.1994,-208.0702,-64.5677,-40.8308
-190.1221,-165.8075,-224.2897,-115.9876,-171.4381,-119.9731,-61.9620,-90.0328,209.5970,-22.1313,-185.6487,-85.9056,-273.5054,-136.0367,-22.5409,-99.7836,-133.6416,16.0681,0.5708
-176.5580,-55.4627,-186.0346,-19.8512,-106.1597,-17.9548,-17.2558,-6.2304,195.0488,24.8582,-160.7142,22.8448,-151.9418,-50.9339,-66.7166,-43.3102,-1.7504,96.8005,36.2346
-113.9452,77.3792,-86.3110,79.5775,-56.8793,34.7756,-11.5960,17.4955,193.8524,14.8254,-67.6309,74.7022,-191.8803,-25.5760,-15.9385,-30.0149,134.6532,137.1606,26.1969
32.0209,142.7812,47.7432,186.4015,-28.7843,52.0637,-8.5218,-15.9373,144.0939,-70.2096,42.1730,18.3963,-169.9014,-66.8730,35.4106,-69.6734,226.4736,186.4812,-12.9357
135.4200,128.8609,134.4448,240.1048,-17.1806,107.4285,-17.5199,-2.8473,24.8925,-97.6439,68.8395,-43.2047,-124.8386,-75.1822,46.1319,-95.0411,258.8465,252.2434,-21.2336
108.4883,66.9031,149.4937,183.9129,1.1263,133.9845,-29.6604,49.0562,-70.3129,-50.5575,24.8015,-43.0210,-166.6991,-36.5602,82.5042,-53.5646,242.3307,252.4280,17.0980
52.4316,20.6574,146.0613,101.0592,32.4695,54.5629,3.3958,26.4620,-65.6923,-48.7900,0.6215,-9.8775,-94.1140,-28.6180,93.5916,-20.7585,212.1163,172.9538,82.7019
60.4926,32.1624,156.2234,96.3992,78.1776,-29.1424,73.4722,-41.1168,-0.9308,-65.4310,8.8410,24.0407,88.6047,-59.7741,42.8380,-84.3918,206.0243,127.3667,176.5917
89.4045,63.4474,180.2494,145.5762,141.7699,6.3104,118.5739,-25.3391,51.4428,-21.7723,22.5799,38.0520,76.6179,-64.4633,46.9132,-158.0430,233.5503,186.8923,267.0721
108.7737,58.1826,230.5815,168.7563,193.8826,111.3223,129.4529,32.2456,51.8391,-33.8095,50.1844,20.1628,-63.6944,-32.8481,115.4204,-125.9543,275.8032,281.5807,281.7733
150.1338,30.5799,288.0710,152.4534,208.4945,180.0268,143.3978,26.6975,1.5052,-147.8301,63.6772,-3.0613,-36.2439,-11.1882,117.1979,-47.4493,297.1726,325.3151,235.0643
184.5601,30.9594,289.0975,141.9491,212.4357,192.6937,164.1583,19.7567,-19.4547,-169.1000,17.6523,-8.2278,89.0137,-14.0833,61.2606,-24.4417,274.3072,303.4072,224.0009
155.0590,57.0712,226.8622,150.5701,234.2860,156.8513,177.6167,61.1941,69.1604,-57.3006,-47.6087,-9.3299,130.6900,-32.5138,36.5103,-55.2674,233.6505,234.2568,263.4011
95.0435,67.1531,171.8837,137.1727,263.8218,94.0547,192.8303,71.3131,190.4159,14.9778,-83.1805,-4.4570,121.5667,-55.8689,18.5522,-95.5683,209.2706,189.1237,281.5948
59.5551,65.3148,148.2303,109.5284,273.4287,93.1646,209.3677,85.4947,217.7536,76.6783,-121.6636,27.3456,62.5492,-40.3864,-0.8599,-83.0846,173.2928,265.0430,271.2515
31.2386,93.7669,102.3210,133.0800,236.9012,190.8002,209.8242,217.1111,206.8903,252.4106,-173.9907,66.6234,-62.9165,35.1774,42.2594,12.9939,100.9481,410.9436,297.4251
-1.8195,138.5396,32.1245,172.1483,177.6798,273.6371,210.8239,361.9538,280.2480,396.4094,-189.5734,69.3970,-109.6232,90.7223,114.0106,80.1339,54.4828,459.3480,368.4929
-2.0938,133.9872,13.5993,115.7387,165.4931,251.6418,242.5177,345.4315,373.7827,334.3334,-164.7173,24.8140,-24.5958,44.6994,121.6523,12.9065,78.4354,388.7317,402.5943
27.2404,66.4062,50.3757,-4.6516,187.9285,181.8910,273.0547,221.8558,356.2811,171.9992,-142.7862,-38.7438,49.3590,-56.8684,79.4536,-84.2801,98.3047,310.0757,339.8109
30.8896,-12.8511,47.5452,-60.1942,159.7873,128.6872,244.5548,132.4521,273.0854,74.3487,-140.1147,-80.1005,59.4469,-109.4052,60.6464,-89.8195,48.7384,241.9588,238.0006
-10.5474,-65.1028,-17.8177,-50.3502,96.3042,78.1023,170.7666,100.5752,234.1219,75.1193,-158.9864,-83.7545,61.2445,-79.7871,78.2211,-55.8262,-17.5384,150.8833,196.0263
-68.3708,-84.7450,-66.5207,-63.1145,67.8940,18.1082,104.5953,99.1986,206.4128,162.4831,-187.2047,-76.1570,54.0050,-17.2625,83.2546,-31.3689,-47.0411,74.8042,207.7232
-114.1435,-76.8320,-75.1453,-106.8655,47.6183,-37.3269,54.5830,105.7912,125.2353,278.7532,-184.8535,-79.2857,31.5737,10.5291,47.8914,13.2765,-63.2714,28.5188,198.6042
-138.9628,-65.8390,-86.9827,-129.5025,12.3996,-77.4624,20.1064,95.0246,54.5004,311.9165,-156.6054,-81.9526,3.3879,-15.7664,36.9801,33.9218,-70.2302,-32.4756,165.5194
-151.9220,-87.2951,-94.8341,-109.2077,15.8934,-94.5242,19.7522,67.7004,54.6701,216.0839,-146.8208,-77.8228,-50.2848,-51.8106,104.2457,-26.1245,-38.3487,-98.1661,147.0452
-153.9789,-140.4328,-73.0536,-79.3653,44.6287,-98.3878,30.2069,28.0040,56.4399,53.5564,-135.5621,-77.0037,-86.9412,-49.7877,150.2530,-82.2009,3.2958,-110.6359,136.1100
-122.2452,-176.1348,-44.5380,-90.8779,53.4776,-93.4210,25.9405,-7.1236,17.0744,-59.1599,-95.0349,-80.2854,-9.9727,-4.6313,82.8624,-31.0110,9.6851,-46.2322,136.5395
-61.8783,-149.4411,-14.7995,-119.1508,103.2219,-41.9140,62.5122,25.5381,13.8481,-32.0937,-81.6926,-81.2309,161.2532,53.3147,3.9287,78.3184,11.9582,60.9453,178.2238
-25.0817,-77.8729,25.9224,-87.8327,208.0448,42.4073,156.1792,105.8037,65.9689,80.8839,-99.1790,-71.0667,274.6281,74.5316,20.9929,117.0619,38.0187,111.0619,216.1946
-36.7343,-25.7385,18.6153,-26.6561,231.2974,52.6220,184.5308,103.8832,77.7865,129.9323,-44.9653,-47.0883,210.5605,39.7256,77.7324,50.7123,31.1138,39.4009,174.8075
-70.5145,-19.8452,-74.1221,-29.3740,117.7423,-30.6491,82.8920,23.2941,26.2010,82.4792,61.8866,-40.0228,46.2025,-11.4166,94.6111,-26.6753,-37.4993,-51.5892,88.1437
-99.9672,-27.7117,-153.6367,-71.9261,-11.9992,-82.5053,-29.9816,-1.1566,-15.2533,32.4969,62.6589,-74.9333,1.0821,-53.9385,48.8924,-38.6777,-87.8515,-39.6270,45.3069
-108.7188,-38.2376,-126.6892,-85.6249,-58.7751,-45.2559,-54.9636,33.2927,-31.2440,39.8717,-45.5280,-113.1733,96.3371,-87.6500,-44.9767,-17.0215,-64.5968,19.6406,55.8907
-97.1218,-80.3685,-48.7200,-96.7627,-33.9034,5.6483,-30.3424,53.9190,-43.0700,100.4763,-97.0298,-122.8801,98.7182,-57.2269,-86.3039,18.0251,-35.2891,35.7458,79.1225
-94.0769,-137.2342,-6.4031,-124.0923,7.6847,18.4193,9.2837,80.8669,-19.5126,156.6187,-50.4672,-137.7133,-15.1955,51.9471,-11.3897,88.5903,-63.2259,38.0197,100.1828
-86.5219,-146.5053,7.4845,-128.8785,32.9320,12.2705,77.5455,100.7818,41.0110,110.4584,-8.1611,-156.1962,-11.9983,112.7011,58.8607,122.7820,-89.0859,58.8978,116.2236
-17.5669,-105.6681,32.2679,-120.5505,81.7056,21.3075,153.2285,55.5532,81.3959,-16.0534,-6.6959,-116.1388,85.2916,72.5182,40.4464,62.1234,-38.3088,85.5944,119.1942
64.5419,-78.8125,63.3069,-110.2149,192.3257,73.7821,210.3474,14.6053,103.3142,-50.5736,-19.3177,-32.8038,88.9821,62.2899,26.9454,36.7080,36.2323,131.1120,114.5272
34.5448,-99.8516,69.6060,-55.8941,281.9870,146.9973,257.1268,53.0177,144.5615,61.2729,-52.2388,-2.1700,108.5619,117.6240,40.1813,118.8390,29.6382,176.8638,117.6416
-75.7340,-145.7090,44.2626,5.1582,262.6943,178.2564,272.5054,107.3200,164.3118,175.1749,-85.1796,-47.4706,238.2890,130.0577,13.2973,160.6112,-49.2835,166.6632,130.8696
-106.3307,-183.6456,30.5641,-15.9199,186.0954,177.0459,223.0570,149.9144,119.5825,210.8773,-57.2040,-101.6460,237.6690,121.9407,10.6579,136.6435,-102.4768,130.2349,143.9402
-39.8323,-196.6997,64.1754,-75.8688,127.4266,195.5951,153.9104,209.8129,71.2157,234.6739,7.8479,-114.6541,62.2188,175.2324,77.7502,200.7841,-100.9531,130.4332,157.9655
-4.4368,-188.6333,91.1302,-88.9371,97.2538,201.5349,140.7657,216.6848,78.1751,263.8163,10.5267,-83.6951,14.7182,209.1743,97.3521,293.0586,-105.0660,139.3024,178.8775
-47.0056,-176.2164,33.7167,-84.4897,108.4378,158.9947,173.2535,149.4471,100.4074,236.5407,-53.9041,-24.7655,125.1687,169.5626,55.3342,242.3529,-146.5950,125.7111,181.4278
-99.1789,-159.9323,-75.4310,-88.5277,136.0174,140.1226,178.9503,137.8208,94.3509,166.4597,-78.1797,29.5695,156.6571,155.1317,67.1219,153.9492,-190.8585,120.8094,139.8180
-108.7302,-127.5527,-132.9245,-70.0465,105.6140,181.1253,133.5493,183.8884,80.4322,121.3448,-24.7254,33.5684,117.9525,159.9568,93.1996,166.5222,-201.7708,121.2928,87.6946
-83.1239,-90.9137,-108.9916,-62.6545,53.9792,190.0076,89.0413,139.3676,74.3943,82.8426,6.7425,-26.7353,114.3289,76.6302,46.1361,151.2427,-176.7464,102.9055,70.2602
-57.6697,-73.6293,-66.0598,-85.7884,99.0219,135.7210,109.4131,47.3509,78.7347,21.1281,-55.7032,-85.4428,83.0697,-19.0997,18.8696,49.6530,-136.8833,99.7251,90.0454
-67.4310,-76.4782,-68.1142,-58.8869,219.9596,123.2089,196.0790,86.8944,131.0702,21.7192,-137.2940,-63.0559,44.3296,16.7661,81.8398,29.2073,-113.1080,118.2164,148.4091
-110.3005,-98.0834,-113.1018,-7.2435,285.5359,171.9494,267.3357,201.4400,217.8580,100.9906,-137.7814,-7.2340,90.9263,101.4385,132.7614,95.2224,-119.0856,88.5588,213.2165
-133.9052,-143.4453,-138.3429,-73.8324,247.4051,151.3234,240.3685,175.6657,219.0809,80.1059,-73.5011,-32.8596,122.7232,70.7711,103.8225,71.1936,-136.1937,16.2387,182.9193
-95.4715,-175.1807,-105.1126,-196.6115,169.1486,44.8406,153.6987,25.3965,110.0990,-67.5801,-22.7087,-104.4801,62.3498,-31.5428,50.3585,-19.2658,-135.7165,23.7327,70.4126
-30.2937,-133.8603,-58.3653,-162.4139,139.8570,23.2710,124.1082,-18.9547,54.7810,-79.2648,-17.4593,-85.2100,28.2824,-43.4334,39.5976,-16.5932,-101.7978,136.8938,56.7706
-6.9999,-44.7511,-49.1733,-16.5785,169.8643,123.0160,150.1721,93.8409,117.9470,91.0881,-38.8509,14.3378,32.0253,46.4402,93.0020,52.4336,-50.7980,190.6349,175.8281
-17.9366,-15.9275,-60.0890,-0.6448,156.8831,146.2456,118.0888,149.1478,147.8628,135.5886,-47.1067,72.0202,-10.5602,95.5611,142.2259,67.1653,-36.2307,79.0581,242.4358
-8.1729,-87.5873,-67.8191,-124.3418,50.7005,31.7859,31.3541,44.7293,82.1302,-23.3925,-16.0429,66.8585,5.9120,54.0126,75.2370,43.4401,-76.5140,-53.1951,193.5128
1.9835,-161.7298,-79.9606,-178.2766,-47.9392,-26.4642,-5.0039,-47.7579,19.2418,-137.9240,22.3276,51.1010,140.3273,30.6213,-68.8960,41.3379,-99.9641,-45.1043,121.8995
-36.0075,-135.2544,-79.9442,-97.7801,-76.9688,33.7885,-14.9686,-30.6537,-41.5602,-161.2741,24.9230,35.5781,176.3664,63.0433,-113.3395,28.8995,-58.7409,23.4328,30.2122
-77.5825,-46.9937,-56.9822,-19.4786,-92.4613,43.1313,-72.6420,-36.6975,-142.6881,-226.3884,20.3448,34.9000,27.3366,64.9216,-2.5663,-14.0658,-26.5916,12.1642,-79.6345
-66.9062,-17.6465,-64.4373,-33.0423,-98.4236,-41.4419,-101.2950,-113.3302,-184.7647,-270.7633,42.9343,82.4110,-80.2947,47.0961,137.0771,-16.5604,-63.7559,-51.7028,-99.4997
-42.5749,-70.6469,-127.0786,-74.5640,-56.6699,-96.4802,-43.2790,-141.4875,-135.4993,-211.3243,50.0171,151.9778,-28.7730,86.2673,174.8201,48.1281,-108.4371,-108.2057,-45.9161
-45.3401,-112.7225,-174.6061,-64.9609,-13.5063,-118.3706,-3.1658,-116.0136,-124.3445,-164.6733,16.9734,180.2574,65.1424,121.2977,95.8400,88.0923,-112.3404,-174.3868,-60.2690
-61.3397,-88.6172,-161.4812,-32.8598,-1.5697,-176.0019,-14.8650,-136.7414,-155.7399,-196.7677,2.9884,154.2052,136.5055,92.5178,-2.6565,53.6747,-113.7621,-223.1344,-134.9305
-80.0053,-38.2029,-124.1069,-33.3116,21.9280,-213.7851,1.7403,-189.1329,-138.9146,-234.1289,41.2431,122.1511,180.9903,88.1576,-22.5960,23.8944,-105.8789,-214.1576,-185.2325
-66.2318,2.6752,-74.5730,-28.9310,40.1693,-179.1216,5.4725,-215.9903,-148.8697,-259.3239,91.3900,139.0158,139.8997,116.5459,13.3763,39.4215,-30.8005,-212.3221,-230.1638
22.3844,41.7417,7.7921,29.3874,-2.9118,-152.3726,-69.9278,-247.1468,-240.7028,-285.2068,120.2359,191.3516,36.3104,59.2663,25.8002,25.0667,76.5476,-258.8988,-264.8309
104.0626,78.3316,82.4781,89.1304,-73.9228,-198.0239,-126.0662,-304.7087,-281.6004,-286.4330,125.1194,203.4431,-2.7929,-53.4173,-0.1657,-44.3912,127.4767,-282.0863,-248.7130
78.4052,101.3217,98.2891,92.7660,-120.4514,-266.9698,-116.0179,-352.9959,-254.0859,-289.8130,120.1905,167.4685,41.6792,-81.7256,-49.7022,-87.1763,129.4104,-253.9008,-253.5264
50.6746,113.5142,102.0597,78.0295,-150.0095,-286.3798,-141.9742,-365.4520,-290.0704,-315.6772,139.9096,163.4118,72.6708,-26.5376,-104.2592,-63.9013,151.8284,-219.1570,-310.7022
160.0339,119.0720,165.2431,89.3495,-162.7643,-241.8569,-189.9202,-334.2452,-341.2075,-298.7252,179.0204,199.1945,57.7188,30.6511,-109.5852,-23.7835,207.4470,-181.0662,-301.8864
300.2776,128.3427,248.8471,115.6783,-154.3642,-191.5645,-164.9020,-279.5491,-296.9223,-236.4594,182.4372,205.9828,44.9308,55.9547,-69.0826,-7.6724,251.6991,-150.5788,-218.8797
301.6310,162.3140,253.7359,138.0361,-151.6179,-203.3285,-131.7421,-259.2779,-256.2606,-217.5877,165.9985,205.1663,62.7646,28.2024,-75.0809,-15.9788,243.7680,-177.3782,-193.0365
206.4211,213.0825,174.1829,134.3150,-143.0081,-257.4943,-153.5278,-289.7938,-290.2746,-256.1902,199.7031,264.3679,86.9679,-30.5963,-131.9422,-44.5371,191.1755,-230.4807,-217.8982
146.8888,246.2693,103.9987,99.8920,-91.6013,-281.6548,-139.0576,-322.6928,-280.4042,-304.5271,244.3931,327.4038,69.6100,-60.1676,-139.2929,-93.5983,150.7179,-239.6319,-206.5272
146.4817,256.0025,94.5856,98.4374,-40.7496,-256.9459,-77.3578,-324.9852,-200.4200,-338.7781,209.8606,307.8613,17.0789,-78.7660,-89.4724,-143.9639,148.6376,-232.4097,-192.7639
155.1892,262.0314,97.9822,160.3752,-51.9415,-209.6633,-62.3281,-294.0816,-154.1258,-312.7372,132.8870,266.5878,16.3791,-109.5295,-60.6501,-146.3265,134.2773,-249.4919,-202.8409
132.2834,265.3945,64.9234,189.3921,-75.6749,-172.9199,-56.9253,-243.5489,-132.8693,-210.2984,95.1048,296.0506,96.7380,-85.7077,-59.6707,-88.6696,69.8941,-252.0508,-176.2467
77.6274,242.2419,9.8633,119.3194,-35.1697,-181.5526,2.7001,-221.7047,-82.6974,-140.0759,79.0722,339.7785,154.3011,-19.8020,-50.9863,-45.7243,-10.5610,-227.7858,-124.5694
44.5890,170.2415,-32.1124,21.6828,22.1508,-212.7531,28.8383,-246.3157,-56.8185,-179.4982,55.4276,304.8865,117.9029,-18.7408,-43.9913,-58.2191,-70.2589,-217.0264,-104.0024
67.9939,73.8664,-37.5870,-42.0748,-8.6983,-199.4950,-29.5975,-253.7258,-87.7571,-231.2803,48.1125,230.5998,40.8158,-57.9980,-54.5366,-60.8815,-101.1732,-215.2577,-88.1972
91.6322,22.4260,-7.5275,-82.8750,-117.0544,-159.2352,-94.5446,-211.7881,-120.6236,-193.7616,43.9312,183.4985,-37.1103,-58.0941,-73.0280,-44.4873,-93.6185,-202.3231,-58.5000
52.6265,27.1647,10.4903,-90.2295,-195.1801,-159.5176,-145.0082,-176.9393,-134.5331,-122.2754,8.1737,127.8973,-118.7921,-77.7383,-89.8287,-85.2584,-58.8426,-200.2058,-50.8457
-10.0449,16.4433,-14.7680,-60.8085,-207.1334,-174.4940,-204.7296,-177.5840,-150.6496,-104.4479,-26.2970,49.2209,-139.1396,-151.4448,-108.7418,-147.7707,-35.0281,-205.8856,-45.7936
-13.3270,-26.2316,-26.7526,-42.8171,-204.1998,-151.7494,-224.5795,-173.0847,-165.1188,-107.4139,-23.1578,27.8449,-50.2994,-185.4808,-149.3768,-142.4200,-28.1759,-177.1449,-2.7269
46.9201,-32.8679,16.4340,-41.2824,-193.2795,-121.6522,-194.5281,-141.1619,-166.3987,-52.0528,-12.8133,68.4262,34.1133,-155.5757,-208.5489,-120.7326,-11.4351,-115.0175,48.5553
98.5729,16.2816,50.8054,-14.1315,-140.5569,-110.9603,-179.0150,-105.8152,-146.7267,35.8682,-10.4798,73.6167,-12.8081,-122.1620,-221.3826,-125.4176,26.6084,-60.1674,83.3410
100.2714,72.6106,35.1411,20.5263,-66.6609,-100.6172,-161.1091,-96.6094,-104.9873,58.3783,21.5084,38.5000,-128.0123,-96.7326,-150.7451,-81.1406,77.0407,-31.4039,119.7539
79.0399,83.2428,25.9753,9.7524,-11.1611,-99.0517,-91.2425,-110.5724,-77.3456,1.5864,79.1298,25.1611,-165.6794,-98.8325,-76.9326,-35.1757,105.8756,-23.4225,139.4712
62.2237,6.8991,45.5925,-41.8276,18.8261,-102.3407,-34.8251,-97.8802,-89.5582,-54.8986,93.7350,5.0608,-111.6830,-149.3661,-83.6324,-109.6171,75.1126,-12.5107,114.2544
52.8695,-96.1019,53.5485,-76.7178,8.0058,-61.6062,-56.6056,-28.0843,-99.1100,-67.2819,41.1566,-35.6708,-71.4734,-166.2923,-128.3510,-188.6042,29.9924,35.3872,71.1952
62.9231,-59.5064,53.8607,-41.5798,-43.0115,4.0056,-101.7727,41.3676,-70.3367,-61.9958,-11.8186,-11.2077,-97.7056,-106.9210,-133.7322,-124.2815,56.2436,107.8431,31.3529
83.0773,111.2363,65.2228,44.5191,-80.2412,20.3659,-121.0730,51.8267,-31.5057,-58.9474,-14.9583,76.7892,-125.5699,-65.6495,-113.5989,-48.6539,109.7461,144.1153,-20.8094
72.2725,189.1397,63.8903,94.6779,-88.0115,4.7102,-138.6402,41.9633,-8.3500,-29.4901,-13.4545,117.5945,-112.1638,-63.3423,-115.6116,-62.3740,82.1868,119.3272,-71.2709
47.9748,116.4880,60.7543,90.2871,-113.3174,8.5088,-164.1218,48.5374,-4.7024,52.2341,-45.9477,92.1939,-138.8282,-31.3194,-126.8686,-41.5164,27.2285,53.8854,-90.8315
69.9501,72.4787,93.8011,98.8553,-150.8944,-16.2629,-179.7814,9.5993,-34.3274,122.3836,-52.8941,45.9481,-235.2400,-23.7250,-112.4168,-1.6741,71.3698,-40.5320,-92.1046
105.7301,93.9916,127.3245,111.2239,-149.1467,-106.4521,-169.6992,-101.4189,-71.5339,82.7724,0.9082,-26.6914,-240.3491,-106.7499,-76.2998,-87.2261,164.9375,-129.1928,-87.8957
82.1329,67.8038,116.1744,64.9060,-113.6032,-173.7546,-113.2965,-172.6129,-52.5230,-20.9125,27.4583,-99.7962,-69.2157,-171.1425,-35.0409,-189.6814,175.6455,-148.2231,-70.4743
38.5696,17.7442,100.5517,1.7143,-87.1700,-160.1349,-43.9337,-136.1740,7.5610,-61.2513,-28.0327,-125.3402,77.5294,-132.4712,0.8217,-142.9745,116.2099,-119.7242,-72.5000
46.1967,13.1378,113.3762,-15.4456,-82.8732,-144.4842,-42.7998,-100.7092,43.1181,-66.8438,-75.1321,-147.9544,34.2011,-79.5854,14.3249,-66.3292,73.3910,-128.1577,-124.4202
67.6255,4.6072,117.5267,-10.4302,-75.7550,-170.9260,-74.9420,-136.1647,84.6009,-121.7892,-45.7939,-197.6727,-62.5179,-77.7673,28.4053,-85.4397,54.9017,-139.5241,-161.3724
45.3876,-17.2418,91.3685,13.2489,-26.7357,-157.7244,-22.4863,-135.1673,167.5679,-146.2563,-11.9175,-207.2718,-55.3815,-86.4451,93.8309,-110.7052,37.5243,-68.9198,-129.1898
1.4100,9.4167,52.6234,64.3972,42.8701,-80.3804,64.8269,-62.8095,178.0905,-91.1321,-41.2967,-174.2773,-1.6219,-88.0175,158.9018,-99.2268,30.2625,-0.8446,-109.6998
-30.7492,48.0766,16.3909,69.3290,47.3664,-41.8459,44.8102,-64.0678,56.8324,-91.9153,-94.1417,-167.2213,23.1642,-98.4871,124.7503,-112.6185,42.1912,-53.5560,-166.0856
-45.0030,43.6231,7.4041,25.4025,-9.5247,-74.8969,-21.3459,-166.8958,-17.5180,-183.3147,-119.8357,-166.0525,45.4661,-112.7986,59.0978,-134.7800,81.3345,-131.0900,-207.0204
-26.1023,54.7565,43.8407,58.3681,-25.9332,-88.9452,5.8512,-213.3874,60.8639,-228.0392,-122.6702,-137.0589,66.9966,-121.4491,81.8488,-132.6580,154.1600,-106.4853,-170.0484
31.7877,109.7913,94.3794,152.8282,2.2673,-62.2494,56.9663,-166.4172,107.6144,-210.6628,-105.6264,-134.0160,50.5090,-108.2675,106.0586,-117.1049,217.6950,-60.0178,-135.6794
99.7540,122.6955,122.3372,142.6876,0.5501,-64.2757,21.5852,-136.0732,1.8083,-215.2258,-53.9275,-160.5623,-2.1339,-62.7373,23.2170,-64.7539,204.5139,-91.2910,-145.9696
137.7577,45.5020,124.7401,27.8800,-13.4368,-87.8109,-31.3510,-133.8197,-107.8704,-219.5667,8.2400,-142.7449,-59.3795,-18.6415,-50.9777,-0.8354,112.5619,-140.4602,-147.5935
111.4364,-53.0195,93.4409,-38.3390,-9.8496,-67.6224,-44.3445,-100.5187,-120.4498,-196.4113,22.6217,-88.2311,-76.4316,2.5931,-23.0855,-10.2245,12.8224,-139.4326,-137.2270
28.3514,-67.8370,24.4820,-11.5271,-45.2276,-20.5038,-79.8303,-53.8160,-108.9079,-179.4153,-15.4476,-63.1808,-37.0871,20.5318,-3.1450,-45.0566,-23.8964,-109.7640,-143.2519
-30.2085,26.7288,-40.3760,45.4393,-119.3631,-15.5405,-132.0914,-33.4097,-102.6484,-147.1256,-40.4597,-56.1967,-8.3144,7.4587,-43.1848,-23.2880,6.9405,-93.2377,-141.7884
-6.7372,109.9575,-58.5080,74.2692,-147.5537,-69.1479,-133.4761,-52.0074,-89.8116,-94.5184,-26.1220,-22.3190,-25.4077,-62.8562,-49.8564,-30.1348,34.3586,-120.3617,-125.0033
26.8533,48.5682,-40.4342,32.1858,-120.9124,-124.1524,-105.7724,-99.6861,-108.0997,-82.2073,-31.7994,11.5030,-14.8895,-90.2253,-1.9743,-85.0125,-4.7506,-155.4287,-104.8744
-18.8008,-84.1641,-31.0563,-44.6248,-102.3660,-95.6070,-90.3673,-99.8874,-131.1888,-79.2963,-85.8564,-8.5109,17.6520,1.8795,32.3719,-30.9058,-77.8464,-94.4622,-55.6462
-86.8284,-99.1041,-64.3262,-41.6324,-120.4902,10.7899,-84.8818,-17.8501,-104.7733,-39.8507,-120.3377,-39.6121,-30.3463,92.1220,8.2621,93.1381,-105.4222,32.0686,-1.5729
-60.9117,16.0499,-109.8078,50.7961,-157.3591,58.7058,-105.6970,12.9801,-89.8475,-63.2195,-87.9174,33.2543,-103.7604,56.5034,-76.9880,56.3653,-62.8470,36.9426,-8.5694
32.9761,88.9924,-88.3033,97.2773,-152.2712,-22.4135,-123.1031,-99.3348,-108.6430,-175.9184,-52.6620,193.6996,-86.0356,-42.0817,-129.6860,-109.2591,6.7043,-114.4237,-25.7298
48.7468,9.6472,-14.3053,10.5413,-75.5251,-132.6849,-68.4621,-235.4829,-65.9786,-224.9869,-109.3332,268.9531,-76.9075,-111.0670,-43.4083,-181.5232,21.7766,-257.4378,15.8530
-73.8270,-156.5466,-21.5076,-150.7209,-35.3453,-198.8322,-26.1605,-285.4792,-2.8704,-175.1457,-269.8643,211.3683,-152.4199,-146.2914,52.4726,-151.5618,-74.8736,-314.7036,36.4435
-235.4330,-268.3269,-142.0479,-261.9442,-118.6544,-243.6866,-111.4001,-272.2192,-58.9339,-136.0694,-443.0439,156.0832,-130.8469,-136.6291,-48.8869,-122.5145,-205.5380,-319.1578,-4.3786
-314.1415,-260.7095,-225.9199,-251.2870,-196.6765,-237.7983,-183.9324,-210.4971,-150.0636,-111.3625,-506.9007,130.4037,23.4215,-78.0748,-220.3818,-83.2012,-211.2641,-263.1766,2.2083
-292.8240,-201.7778,-182.9422,-182.6217,-142.5883,-165.0482,-85.2767,-124.2758,-93.3269,-79.1574,-432.1686,52.1758,34.9384,-45.9869,-183.7332,-44.4372,-92.3621,-174.5412,72.4989
-232.5223,-191.0448,-106.3728,-179.6761,-52.9169,-131.5733,41.2708,-99.6304,54.8970,-111.0989,-322.0271,-11.2897,-142.0783,-78.8898,7.2492,-69.6568,-16.4960,-133.8370,105.1084
-182.2395,-228.9613,-81.7547,-232.6840,-23.6307,-162.4722,51.4987,-131.1531,116.6715,-178.5805,-278.3893,39.9570,-201.4751,-101.7648,98.3988,-104.3180,-37.2676,-106.9697,104.2700
-145.5174,-232.7284,-68.5257,-206.6746,28.4720,-129.1433,70.1141,-121.9166,72.5223,-155.1017,-276.9098,107.5763,-55.2361,-63.9896,67.7634,-63.2699,-34.8516,-12.3280,131.3519
-106.9194,-160.8163,-16.1617,-71.4615,161.3957,-22.5673,181.4009,-71.4510,35.6312,-63.7410,-241.7133,81.2092,71.1641,-11.2922,66.9609,-0.6111,43.5524,91.0808,170.0285
-65.5526,-78.2225,49.3583,30.8683,274.8445,25.8373,255.1467,-41.7606,71.4755,-17.0827,-176.5551,18.8278,102.1393,5.9632,102.0801,-1.4345,109.5455,114.8010,199.6699
-37.7608,-70.2086,72.0619,-4.3100,266.4610,11.0992,213.4695,-30.3492,105.8893,-11.7607,-137.5534,-12.7256,138.9651,-18.1927,61.9777,-44.6526,95.1317,93.0234,213.6185
-37.1550,-113.5547,25.3666,-92.4580,168.9570,23.6658,134.8613,-15.3663,51.4846,5.1357,-132.3304,-22.8757,155.6144,-52.1446,-18.6967,-54.3644,28.8101,84.1728,206.4736
-67.3499,-122.4286,-62.6740,-102.9656,95.6156,53.9868,103.7506,17.8917,13.1724,30.0647,-130.7635,-17.8261,76.9050,-35.9386,14.4883,5.1991,-26.9199,86.6013,247.7266
-119.6052,-100.8839,-128.0539,-64.1739,91.0158,57.6885,139.9963,90.5279,122.8852,53.1204,-131.1728,-16.4624,-21.2048,35.5549,135.5350,77.4836,-42.5379,94.9834,362.0702
-159.2455,-109.8265,-136.0207,-79.0733,92.9392,53.9259,188.9049,162.0976,230.6650,85.4160,-135.8914,-51.9676,-35.4737,71.8844,156.7336,68.4516,-44.7558,106.8463,399.6510
-148.1946,-132.2981,-109.2585,-114.6462,76.9635,57.2421,173.9122,171.8317,151.6982,137.1952,-110.7621,-100.5134,26.5543,26.0466,85.3329,-1.9674,-68.0951,107.9188,298.5555
-106.6414,-120.9379,-87.6640,-78.2702,99.1687,61.9017,126.0842,156.9038,27.9191,200.9029,-51.4541,-116.8246,118.1610,-19.8901,90.2512,-17.9871,-97.0356,107.8575,217.1253
-99.3079,-88.5860,-92.7550,-5.1927,137.7149,80.0464,121.8876,173.1454,35.0011,233.6739,-19.9770,-96.0447,192.7029,7.8128,137.5721,39.1275,-102.1431,123.4463,211.9888
-128.0310,-52.7412,-107.8225,34.0211,112.9325,107.7397,122.8572,197.1158,78.6204,214.9226,-32.3682,-57.8635,191.4056,67.0590,87.9416,83.1727,-81.7311,139.1014,183.5011
-111.6412,-16.5383,-76.3157,53.0856,73.5159,122.8294,83.7897,206.1929,74.8701,191.7604,-12.1451,-46.7253,119.1214,78.5080,12.1422,72.2911,-39.2272,134.6300,150.9105
-22.7408,-20.8885,15.4173,34.8856,103.2901,123.1272,72.5457,201.2526,92.6788,175.3274,67.9338,-92.3625,63.2243,21.3285,19.1428,20.8564,2.7995,109.3638,170.1483
42.6847,-81.6092,71.8652,-64.0929,135.8655,113.0251,111.1547,165.6966,129.0008,124.1323,124.6884,-135.1414,75.8829,-48.0998,42.3333,-32.7399,1.3921,79.8928,166.6576
11.2086,-126.1830,20.0785,-143.5079,107.9394,108.4256,129.3519,132.4081,141.1897,94.0703,105.8192,-111.8298,119.7434,-41.0658,41.3624,-12.1770,-18.8554,84.3557,116.6421
-42.8477,-90.7955,-44.7566,-76.2739,102.1507,144.3772,128.1816,161.1653,165.2814,171.5165,65.9714,-65.0079,132.9626,46.9154,70.6964,84.4549,12.5589,135.3920,74.8296
-17.3493,-7.2496,4.5235,50.7513,158.6601,205.3576,144.9627,207.9515,174.4613,266.5122,67.0821,-49.4215,92.6226,102.7423,105.2031,121.4235,74.7757,183.3108,11.1344
64.9102,44.2297,129.1298,80.3445,201.6007,230.1760,155.8912,204.7086,128.1792,252.8042,102.8103,-51.0358,47.9280,66.0719,113.9097,48.6563,102.6090,202.1107,-50.6372
115.1413,24.5692,205.0996,37.9772,221.1800,222.4640,180.9539,195.9914,142.1509,200.0371,131.8042,-53.5530,74.5774,24.7993,155.4061,3.2455,112.0660,230.4592,9.2478
92.5196,-18.0045,184.6443,27.0691,249.8720,226.0881,246.4514,216.7910,239.0585,195.2244,130.5521,-55.6948,148.0906,38.6946,198.8497,38.9930,113.4447,257.2793,98.6369
10.4809,-13.4935,87.2865,39.6971,209.4882,218.0510,226.0538,193.5240,202.5351,152.5508,112.3859,-49.5983,167.0779,33.6601,128.9883,35.5557,55.0625,210.7063,10.9001
-71.5252,14.6812,-23.8546,18.4864,57.4030,162.6860,51.3995,98.0670,5.3360,32.4070,101.6886,-48.5433,119.7886,-21.3432,4.0733,-23.9884,-34.8146,106.6425,-154.5694
-84.6456,-10.3603,-55.7358,-40.6877,-60.2287,92.3920,-72.3979,22.0355,-72.7916,-36.1200,99.1427,-63.2125,49.4573,-29.0374,4.3370,-12.7205,-74.1774,32.9224,-168.1725
-58.1980,-88.8256,-23.5961,-117.6621,-46.0034,34.4374,-11.4471,19.1803,34.2452,-16.1290,92.6166,-77.5080,-62.0363,40.1772,115.7482,65.3885,-98.7625,-16.1932,-92.1867
-82.0605,-155.4582,-57.8716,-185.2166,-23.0107,-33.9035,42.5150,18.7371,72.5529,-32.2228,75.9994,-92.2827,-153.6000,68.8119,122.7765,77.1079,-159.5930,-99.6241,-103.6754
-130.9516,-156.6635,-152.4515,-187.1200,-70.8189,-106.8041,-41.2695,-47.7837,-41.5137,-100.5647,45.7890,-95.1234,-65.6545,1.2181,-48.0050,10.8231,-170.2293,-168.5376,-178.1012
-113.4970,-78.6359,-152.2830,-100.5507,-78.5647,-131.7203,-103.2417,-126.7534,-132.9443,-111.1689,17.5147,-42.2095,116.6439,-62.3582,-182.6749,-36.1962,-88.7383,-141.5907,-220.1655
-62.4458,7.9450,-65.8350,-11.4117,-17.9365,-96.5901,-54.1453,-133.8544,-130.2375,-81.3245,19.6814,19.0331,92.5663,-60.3092,-111.3896,-46.8570,-44.0129,-76.3801,-233.2279
-59.8033,-4.2435,-58.5484,-27.4720,-25.6942,-68.2892,-24.6695,-109.1079,-102.2960,-117.3478,43.0323,-19.6808,-130.5327,-72.4181,15.9360,-72.0729,-107.9222,-81.6825,-243.0439
-74.6492,-88.7345,-130.1262,-127.5133,-114.9904,-110.0119,-68.4506,-141.3495,-62.7011,-178.1484,59.3499,-114.9067,-236.0914,-150.8785,6.8019,-115.4938,-178.5749,-132.9751,-234.9704
-60.3366,-124.4849,-148.7256,-199.9065,-155.1873,-183.0307,-108.0819,-189.7488,-30.5239,-147.7276,69.8296,-130.9151,-142.3010,-217.7282,-87.4365,-139.0846,-180.8481,-142.1111,-185.2251
-60.5380,-116.3150,-127.8658,-208.7265,-149.3910,-199.2746,-141.8528,-161.2194,-85.8188,-51.8613,55.9912,-85.0507,-49.4118,-206.9596,-177.3611,-126.1203,-163.7035,-128.0281,-102.4998
-101.8230,-151.7359,-155.8970,-207.3990,-196.0840,-165.7531,-204.6221,-89.6637,-184.8136,9.2280,-13.8280,-91.6339,-69.3509,-165.9848,-254.4525,-102.3778,-167.1555,-151.5502,-44.1360
-132.2358,-200.0379,-188.9634,-214.7760,-253.3100,-151.3342,-242.4357,-56.8498,-175.5659,37.1686,-69.2312,-150.2091,-180.8853,-155.3511,-219.9409,-105.6935,-156.7628,-155.4058,-42.4438
-109.0410,-179.2965,-150.1321,-191.0531,-219.3316,-130.2610,-205.0577,-40.1972,-72.1767,91.6941,-15.7864,-174.4186,-300.5174,-165.1517,-43.4799,-130.0790,-107.5220,-49.1104,-42.8563
-55.3994,-124.4297,-82.1191,-130.2948,-119.3442,-45.4232,-125.0582,12.3246,-24.6197,156.7825,70.2046,-145.8071,-254.9452,-165.9304,39.0143,-132.8782,-63.3840,90.4154,-1.5979
-32.9131,-123.8539,-59.6354,-102.5087,-46.1464,19.9515,-60.0737,61.1275,-44.9707,155.6536,57.6594,-129.6310,-17.5731,-152.8230,-89.6016,-102.9366,-76.8386,90.3428,36.4148
-59.8105,-181.6250,-71.1709,-171.9415,-41.8891,-49.2903,-51.2038,31.5654,-46.5075,73.5931,-12.6780,-162.0118,132.7488,-137.9053,-189.8809,-71.2446,-120.3684,-50.6027,32.1394
-68.8399,-230.9496,-59.4300,-283.5707,-75.2863,-190.1620,-75.9689,-63.6108,-26.3108,-0.3271,-40.2073,-189.0191,20.4070,-147.2303,-102.2230,-70.4530,-127.5636,-147.4965,14.8310
-30.6812,-222.6113,-22.7614,-295.7943,-74.6169,-247.0451,-51.9462,-115.6274,2.8320,16.3326,-39.7288,-164.7032,-154.3417,-176.3950,25.3184,-97.4224,-105.4993,-98.6420,7.2025
-31.2666,-153.2252,-25.4348,-161.6422,-39.1229,-177.7551,-0.9061,-51.1429,51.5444,99.3428,-48.6401,-122.3356,-187.7321,-151.6522,40.1124,-80.9166,-102.6638,3.1790,-9.6792
-96.1309,-48.4020,-83.2077,0.1534,-53.9103,-63.4492,-47.1896,54.6255,56.8894,168.7303,-56.1786,-83.8471,-130.2731,-49.5059,-52.8511,24.6940,-105.3655,44.8967,-35.5607
-122.4198,18.5016,-111.0820,41.3547,-107.0601,-8.5304,-144.2203,67.7481,0.4987,165.4723,-72.5743,-52.3229,-71.4039,4.4777,-148.6539,91.2059,-89.2417,22.0012,-32.6147
-93.5271,-44.9586,-68.7171,-71.9904,-88.9030,-47.0760,-111.3159,-19.4627,9.0626,73.7295,-93.5115,-88.9921,-32.1498,-64.3823,-118.2806,-2.9875,-94.3368,-6.4191,9.0590
-104.8496,-193.4981,-41.4972,-227.5500,-17.1212,-85.0798,11.8098,-84.2309,105.1530,-32.1072,-66.8946,-186.6628,-46.7047,-107.2989,10.0635,-89.5551,-133.6460,16.8922,51.1990
-154.7961,-252.6434,-79.7086,-269.2520,12.5433,-25.5519,39.6477,-48.8428,132.0879,-37.4992,-12.8835,-209.0715,-95.9665,-11.6539,62.6658,14.8402,-142.6307,85.6248,77.7853
-173.9199,-199.5052,-114.8237,-201.2174,32.3746,47.8580,-4.0283,15.7721,57.2224,24.0038,-21.6117,-144.9659,-80.3394,69.5144,15.6413,122.8575,-104.5687,107.2894,94.5221
-165.3371,-174.8783,-98.3355,-178.8643,82.4681,4.6552,-2.0951,1.3870,-3.5132,10.0462,-71.1467,-130.8350,13.8614,9.7461,-17.0084,32.1829,-86.2978,41.4960,54.0357
-120.2663,-164.1283,-53.2144,-207.2984,77.0129,-81.9421,-9.9919,-66.2180,-33.3337,-71.0367,-19.1607,-155.6800,84.1212,-45.0748,-31.1078,-63.6031,-98.0040,-7.9593,-62.9360
5.4935,-47.1500,8.4471,-117.5477,-4.3402,-70.4081,-81.1304,-75.6228,-59.5082,-95.4477,190.9263,-121.8790,84.3758,23.3178,-54.5428,21.4685,-63.5904,28.2096,-138.1154
148.2786,103.7944,75.0250,76.9180,-53.2462,-0.3936,-113.8127,-15.6605,-35.6986,-55.1667,429.4503,-84.0614,67.9893,94.0561,-40.0087,121.7155,37.2583,81.7581,-87.1755
209.0984,179.3665,115.8397,182.1335,-33.9370,46.8884,-57.3717,59.7602,22.9053,0.6586,522.6932,-92.1597,61.6962,95.3220,0.7345,122.0068,131.1501,132.9052,-5.0543
222.1235,250.2462,147.6059,188.9154,5.8315,125.8354,22.0894,169.1700,52.8767,81.4341,462.3979,-77.5894,41.9896,133.3326,30.3169,152.4028,175.9143,233.3790,36.5410
247.4102,334.4767,197.5175,229.5858,58.2595,246.8248,94.9176,293.2264,91.7216,145.4505,396.9482,-55.1544,30.5597,212.2990,80.0780,218.5732,203.6421,302.1330,86.5556
251.9431,331.6209,215.4920,285.0612,105.8356,283.6118,149.9701,300.6388,160.3388,127.7290,397.2625,-82.1411,68.9376,197.2468,118.1176,179.3357,226.1880,230.1932,119.1691
228.5468,284.7008,170.1488,280.7814,101.5981,212.0185,145.3391,186.5451,176.7014,98.7543,385.7291,-88.9681,105.4062,104.1338,85.3478,81.8901,216.7120,132.9830,66.3227
234.2178,288.2809,141.2423,258.1681,77.5760,169.1851,109.4531,131.8114,139.2225,135.9345,330.3421,-42.6383,71.8131,97.9686,62.9403,83.4827,190.7795,161.3963,5.8631
261.3946,278.4953,179.8496,250.5487,102.5341,210.0989,113.0721,199.7182,127.4028,167.4211,293.2355,-18.6827,41.0326,198.8658,105.7663,159.6548,184.6184,227.8160,15.4204
245.4271,231.1376,210.0451,239.6524,147.8241,250.8840,130.6387,260.2002,124.2907,136.6609,278.0409,-7.2622,114.4362,249.7301,125.2230,174.5166,169.8196,207.2933,27.6153
182.7535,232.3704,168.6956,245.0350,134.9641,242.6587,95.3888,235.7485,85.0508,100.3589,244.6952,27.1872,222.8346,180.3730,104.7854,112.0074,110.5026,160.4772,20.6200
122.7550,237.3263,100.6333,247.9290,62.4941,210.9903,18.6757,175.2471,37.2694,86.9071,216.1166,21.4056,228.2432,108.8921,94.7865,79.3811,47.8432,155.1121,57.1590
87.0149,160.7511,60.9331,181.1011,2.3214,174.2791,-42.7863,136.9258,-13.3940,77.1020,208.5208,-9.7872,125.0069,127.0882,61.8923,119.1228,18.7425,143.3593,99.6409
64.6810,96.4179,47.5300,96.2488,6.4783,138.8833,-47.6443,133.5195,-63.2788,82.5101,183.6235,29.7817,19.0566,149.1181,31.6824,127.4479,-5.9615,115.1223,88.6207
51.8384,124.3351,47.3713,102.1523,51.1345,124.9701,3.3731,136.0194,-38.9491,106.5326,142.8053,93.5035,12.0906,104.5246,78.7380,58.1293,-26.5398,127.6198,84.9581
52.8081,169.8094,55.8236,166.7578,76.7531,154.8886,49.1313,134.2160,59.6124,133.8253,115.8932,99.8173,114.6295,101.5494,93.9295,48.5540,-0.8975,177.1790,120.6164
54.2422,191.6911,57.6167,203.0580,67.5989,228.6107,52.3430,176.4713,129.2601,166.8553,85.1955,104.5384,198.5083,200.1060,-7.1182,142.9214,46.3798,213.1399,126.3893
41.0603,207.7575,48.9516,211.7728,55.5397,294.9928,73.9286,241.8367,166.2601,177.8013,48.2755,128.4170,137.9235,251.3622,-37.5761,167.5654,54.1835,217.8950,87.5630
35.4092,193.7710,51.7254,206.7323,59.9473,282.6708,138.4620,211.2165,224.8729,132.2850,46.4058,104.2510,7.5922,170.9429,84.0186,83.3093,34.9520,187.1118,53.3999
61.7605,164.0531,69.4122,183.3084,56.5018,202.5542,137.5320,103.5593,224.5863,94.4647,62.6730,60.5480,-30.4689,92.0843,125.3959,61.0684,34.6449,129.1903,38.9875
96.2454,171.0210,81.8451,180.8455,10.5268,149.1100,23.7040,89.9191,102.0762,144.8305,42.9250,67.1796,26.3342,108.7653,-6.2508,121.5763,70.7545,102.8014,49.5405
120.2789,192.3848,110.1448,224.8008,-42.5888,162.5443,-55.2145,180.8222,0.2290,232.2756,21.3430,94.2573,68.5750,159.2765,-97.4812,149.1579,162.1872,144.7535,80.4707
160.9935,200.1581,195.9057,272.3266,-7.1220,178.6115,16.7127,207.6014,38.4363,259.6406,67.2342,98.3195,65.2276,178.4550,-38.4873,151.9741,284.4335,185.8046,82.5409
212.7391,209.5364,288.6480,277.1494,102.4469,141.8301,126.0788,134.0624,108.9092,237.9039,137.4941,78.6394,61.4899,141.8273,33.9249,143.6078,326.0648,150.7345,51.5911
219.0489,184.2299,284.8370,219.0383,138.6444,87.2684,128.9197,101.3247,100.7934,246.4183,126.6455,37.0372,68.1225,77.4549,23.3786,79.2999,246.7911,88.5273,60.4281
176.5277,105.1400,203.2525,113.5533,73.9350,76.6013,80.7541,175.2777,82.1243,290.0237,40.9407,10.7211,48.4497,88.1021,2.6664,52.9428,168.0509,81.1852,120.0255
144.6881,59.4702,158.0642,48.2923,36.5382,98.0363,83.0199,241.7809,107.5294,271.2280,-6.3453,29.4128,-2.4490,154.3245,32.8306,122.3646,169.6174,98.2053,146.3210
144.0999,83.5561,159.5632,87.6625,29.3979,87.6965,76.4117,179.9090,94.3720,144.1987,24.8912,33.8461,-39.2032,100.4224,41.1131,103.7057,177.5007,78.7094,102.4278
147.8804,104.0129,135.3725,152.7772,-47.4499,47.8432,-2.1302,58.0216,18.6691,24.8669,60.7300,-8.4590,-59.7916,-36.7036,-23.8331,-37.9306,148.4405,58.4860,58.2151
152.5436,95.2565,106.1639,139.0811,-115.5432,49.9918,-49.7522,34.1754,-6.5297,16.6975,65.1234,-31.7929,-105.3539,-26.6732,-74.0269,-57.7401,143.2948,75.6394,83.3512
166.7381,80.5131,125.0560,73.3771,-45.9234,98.5523,5.5648,86.7957,49.6171,40.9122,65.5807,-18.3178,-139.4903,71.4952,-68.7165,41.9654,166.4496,80.2554,143.1119
154.0682,42.1985,122.0661,30.9379,50.5233,116.9378,56.4095,81.8280,77.4560,12.4808,35.7460,-19.5832,-120.7190,27.7353,-86.7626,15.8827,137.9076,47.2892,154.6138
71.1651,-21.4039,19.3966,4.7759,14.8133,82.3466,23.1108,47.9978,39.7307,-8.7426,-46.5070,-33.7574,-135.3878,-58.7454,-106.2172,-72.9849,30.6236,19.7464,122.9042
-38.1647,-82.3208,-101.9897,-58.9214,-75.6456,36.5914,-28.2236,70.2699,-1.2403,2.2944,-90.1948,-41.8643,-202.7511,5.1461,-55.7427,-9.2178,-96.4181,1.2155,111.9902
-74.5439,-143.0462,-126.6922,-165.9848,-77.2761,-7.9308,-45.1066,68.6486,-45.0007,-37.2776,-43.9746,-73.8432,-175.8404,79.5190,-33.5911,92.6630,-163.3981,-21.3953,108.4568
-31.4975,-191.2879,-80.1402,-246.7481,-14.2572,-47.7557,-45.5654,-16.3429,-109.5218,-127.2422,-7.5405,-130.1651,-86.5385,11.4070,-87.3465,44.7330,-132.2762,-9.0823,63.3678
-6.9235,-188.4018,-51.9610,-224.2253,13.4220,-52.8484,-47.7662,-85.8558,-138.5589,-179.2538,-35.1148,-154.5505,-154.8314,-69.5064,-67.4810,-57.0237,-60.5800,27.2956,2.2358
-36.6232,-144.1430,-53.0648,-119.5670,-11.7615,-31.5085,-77.7923,-105.7288,-126.7450,-184.8278,-54.7833,-115.1865,-288.6381,-67.7703,6.1494,-82.1443,-37.2659,22.0402,-37.2583
-45.9509,-84.3251,-34.4776,-30.7518,-19.8466,-20.3993,-120.1428,-135.5642,-143.6108,-189.6509,-46.1924,-46.7962,-176.3974,-55.0327,-44.6946,-66.7683,-42.3363,21.5115,-59.6506
7.3000,-13.0438,21.5718,1.5770,48.0901,-8.8478,-73.9864,-150.4213,-167.1517,-206.3240,-43.0920,-17.8038,85.7882,-48.6716,-114.6371,-66.4722,-5.5210,97.7711,-62.4984
67.1770,31.3700,71.7542,13.2486,127.8917,1.9087,43.7818,-143.8683,-144.7854,-251.1699,-17.9687,-35.6057,111.8863,-41.7427,-21.2867,-100.3018,35.4920,130.2081,-74.8046
62.0075,21.0801,52.5613,17.5957,83.7995,-55.9504,30.2851,-211.3571,-157.5665,-319.4484,13.1954,-14.5135,-116.8677,-87.3379,67.0556,-156.3437,8.2009,-16.4833,-158.0018
-28.2400,-10.6409,-50.1217,-20.3624,-80.7725,-190.9280,-155.1262,-326.6013,-259.1066,-329.5366,-54.1469,62.3190,-271.5471,-158.7206,-21.0159,-166.2620,-70.5040,-219.0673,-256.4512
-161.0307,-78.3084,-180.2268,-128.3006,-204.7995,-291.8943,-283.3061,-337.6191,-321.1888,-231.5655,-208.6267,67.5917,-201.8396,-185.2584,-139.4075,-129.9764,-175.9412,-281.4981,-248.3691
-266.3247,-219.3906,-270.8454,-268.4213,-207.9081,-276.6607,-254.6842,-238.3727,-262.8038,-94.0603,-311.3948,-42.8653,-77.2464,-201.2204,-180.0606,-140.0848,-302.6685,-210.5692,-174.8047
-322.8937,-333.3079,-302.8995,-330.8674,-172.1417,-186.5712,-216.1095,-149.0383,-197.6763,4.7780,-330.2372,-128.6423,-110.9182,-225.0809,-191.8286,-177.4298,-368.7196,-124.4526,-163.0785
-358.7344,-314.9130,-303.8355,-267.7016,-158.8454,-115.2057,-212.7083,-115.6926,-201.9522,55.0573,-346.9268,-111.6589,-277.2937,-191.6591,-129.9895,-149.2430,-320.4600,-92.3481,-198.2942
-378.0282,-263.0563,-311.8602,-209.5799,-132.1538,-123.4404,-141.6763,-125.2124,-187.4314,56.9128,-381.4652,-81.5933,-333.5875,-125.3495,11.8607,-99.5887,-272.4755,-129.7904,-202.4897
-378.7746,-290.5336,-336.9231,-276.6030,-93.8295,-189.4332,-46.2046,-153.3834,-101.9651,12.4212,-396.2948,-94.5290,-194.6253,-111.7815,64.1775,-90.7400,-325.4417,-191.5582,-192.8186
-393.2351,-318.9415,-357.7568,-357.5026,-116.9512,-224.5147,-74.2013,-149.1237,-36.7957,-36.5159,-385.3274,-103.7865,-95.0419,-125.9226,-16.4464,-66.2396,-395.3057,-213.0207,-213.9023
-413.3041,-263.1225,-364.6533,-305.4743,-201.6855,-198.1560,-187.1016,-123.6233,-58.4229,-67.9567,-363.8846,-96.4836,-180.1148,-117.0098,-79.7792,-33.3986,-381.8569,-214.7114,-255.2845
-378.9384,-182.1062,-364.6957,-198.0782,-246.5523,-181.0773,-210.6128,-155.7942,-94.0980,-117.8397,-352.8163,-109.0861,-250.6698,-114.9191,-84.7467,-74.8561,-315.5458,-239.9075,-271.8130
-307.9257,-145.6520,-341.6234,-170.7399,-205.9213,-203.9195,-126.0021,-223.8695,-70.0127,-171.5825,-368.9982,-128.4518,-154.2792,-131.2712,-105.3787,-135.8279,-266.6199,-249.7451,-221.0757
-291.7806,-158.1488,-283.5613,-200.7944,-148.1287,-212.5766,-77.9170,-225.5697,-36.4792,-137.8969,-383.1443,-107.6618,-67.2024,-137.7046,-129.8842,-126.2052,-268.8624,-228.7586,-125.8132
-330.8203,-210.0688,-231.7818,-228.8793,-131.7354,-203.0091,-115.3832,-169.0123,-34.4930,-19.2025,-351.4878,-58.4482,-149.9834,-134.5346,-101.8099,-103.5653,-310.0687,-240.6691,-57.9460
-325.3630,-262.6991,-216.1686,-260.1676,-135.7311,-224.8895,-129.0200,-135.7424,16.5836,61.5333,-286.3095,-36.6287,-243.9922,-115.2561,-34.1266,-106.9076,-323.0991,-278.7582,-21.4384
-243.7453,-252.4552,-200.9977,-267.8597,-117.2860,-256.2926,-71.8601,-124.2834,128.2961,77.0081,-224.2784,-48.1765,-145.8038,-68.9876,5.6842,-68.4394,-270.4910,-261.9594,10.6356
-174.4094,-182.2430,-169.1556,-211.6701,-63.3344,-240.2284,-36.7393,-95.1569,145.8477,121.1338,-186.8604,-51.5220,39.1915,-35.2453,-29.4512,0.2125,-204.9793,-188.0083,-5.7937
-183.8058,-122.5518,-150.6169,-130.9833,0.5867,-184.3426,-49.9028,-58.8030,39.4791,187.1797,-202.0735,-36.6368,72.7943,-23.1460,-79.0608,28.9494,-158.4118,-104.9165,-62.5551
-206.0132,-104.7890,-125.5638,-73.8737,35.5156,-110.9597,-13.9045,-23.0387,8.7969,172.1900,-249.2592,-15.0507,-13.1214,27.5847,-35.6421,49.0360,-99.7579,-23.4047,-47.9199
-147.7029,-89.3632,-54.0347,-34.4913,44.0445,-22.5969,73.8434,27.7140,115.2260,89.6064,-224.4830,25.7348,3.7929,111.3526,57.4409,93.5897,-44.1893,29.7948,28.8682
-50.3416,-40.0837,5.1268,-11.2171,56.6821,43.0151,94.4147,76.0740,170.5780,48.0966,-110.2024,75.6321,118.5526,143.2353,69.1264,103.2429,-28.4469,36.9546,35.0489
-19.3741,28.1947,-19.6338,5.8281,60.6752,63.0624,42.5090,99.9812,114.9587,80.5702,-50.4800,89.1663,121.9859,105.8052,42.8498,64.8461,-18.0002,73.2402,-21.0905
-47.8449,88.6943,-74.6284,62.5271,29.8044,97.7056,33.2595,128.7368,101.2020,147.8987,-108.6113,70.3680,7.6834,72.4922,107.4950,52.7724,2.2375,183.2209,-30.9789
-72.5362,139.0950,-90.3610,148.0652,-6.1306,182.5626,78.4318,189.2235,158.2357,213.3042,-165.4346,69.4497,-16.6640,117.0376,188.6378,107.9377,-22.9939,271.5473,0.0876
-102.4767,164.8204,-95.8474,182.9949,-12.0586,251.0576,93.6545,250.9884,163.6751,242.5216,-163.6226,93.0481,97.8423,231.6104,126.5549,196.0249,-72.5765,257.4104,30.7260
-129.2358,126.0615,-100.8051,146.4417,-2.4953,244.9581,78.6043,270.5253,117.6979,214.2884,-168.5598,103.5722,178.0980,288.5329,-8.7645,234.4794,-47.6525,180.0037,75.6690
-80.9871,35.9116,-51.7644,91.9101,2.0825,182.8323,89.1573,230.4510,118.3124,141.0212,-167.1750,72.9914,121.2454,189.2246,-17.6729,167.5683,36.1942,93.8559,92.0931
12.8463,-15.7374,22.7645,61.2041,-9.0721,101.2459,100.5563,139.4504,153.0773,62.0160,-114.0932,15.0410,16.1610,50.9382,91.7520,73.2675,62.5970,17.5431,12.7151
37.9069,25.9433,30.6506,67.3750,-52.3994,29.6393,46.2765,48.1696,137.2144,25.5587,-79.5090,-0.3441,-24.7282,31.6588,123.4624,65.8194,12.1796,-38.3733,-112.6455
10.5910,103.7936,-17.6070,89.1253,-113.6716,-10.7124,-60.9748,14.3602,60.1467,32.5393,-94.5221,66.7333,-2.8410,72.9397,14.5208,101.7947,-33.6728,-81.8171,-189.1585
24.9451,123.1352,-49.3512,72.8991,-150.3261,-32.8501,-130.9447,22.9781,-11.9334,30.6021,-75.0919,130.1907,16.4636,65.4001,-83.3140,84.0525,-43.6173,-110.6495,-183.0840
51.6211,64.3905,-61.7032,19.3035,-148.1676,-57.3856,-105.5835,20.0771,-22.7773,14.6700,-29.0927,107.5839,-8.4351,48.7321,-55.5717,41.2407,-49.3406,-100.8863,-103.8620
28.5076,-3.6613,-68.0370,-7.4885,-119.3617,-75.2080,-39.8011,3.9302,-6.9642,6.4228,-24.9333,63.7603,-69.8447,56.1543,19.2812,18.3739,-57.1221,-79.2356,-22.8195
4.7831,-18.1297,-44.0511,3.0379,-80.8550,-70.8683,-29.9540,-2.1457,-52.0345,-46.8787,-8.5630,65.5027,-93.0821,54.0320,14.0081,-4.0449,-46.2997,-77.6177,-21.7740
21.6893,1.6988,-5.4911,12.6115,-49.7731,-29.7557,-59.3794,7.9904,-130.8443,-139.1651,42.1241,60.9184,-6.2057,80.6754,-60.5543,-1.9919,-13.4992,-39.3167,-37.6771
45.6516,18.4397,13.1674,35.9169,-4.2322,54.4315,-27.5579,54.2849,-120.0749,-123.4915,42.1349,34.4580,96.2284,151.7160,-82.6427,44.5993,44.0650,51.4638,36.2009
93.0482,68.6469,52.4508,105.9240,85.6170,128.7611,52.3998,130.7846,-46.9507,7.6521,61.8806,65.4986,61.3600,165.8092,-20.5595,70.0380,144.3641,94.1843,121.8851
209.3529,195.9479,157.0507,213.3437,158.1021,134.2087,62.2778,168.7308,-64.1460,62.3837,234.7399,162.1100,-3.1768,118.1335,-9.0218,67.2972,277.7231,79.1967,95.7540
344.0910,349.1722,282.4636,343.1815,142.9764,120.7085,2.1915,155.6342,-151.6529,12.0174,422.6364,233.9393,105.9445,125.7401,-111.5532,102.7171,391.0568,110.3156,22.2081
423.5294,447.9116,365.0450,454.6042,112.8922,163.2473,-4.5470,168.4767,-154.4528,9.7228,450.3627,230.9152,243.8776,172.9826,-153.7176,139.6420,434.6661,167.5665,11.4103
454.4059,478.3776,383.0226,465.5365,156.4718,214.6019,62.1011,213.7956,-74.9975,68.2504,418.9887,181.8186,159.0342,166.4530,-21.0811,122.6423,398.3521,159.6471,43.6063
454.2660,458.8975,339.5295,384.1456,204.9843,193.2394,97.2873,218.1416,-23.0966,113.5172,415.3017,140.0844,3.8736,143.8923,98.0829,119.3726,322.1982,126.1094,71.9722
418.0638,404.4007,280.9705,323.3991,172.4397,117.6201,70.4108,177.7030,5.2590,161.0845,355.8301,139.0979,42.1119,149.5944,50.0646,143.9103,276.8534,115.6913,91.5256
372.9438,348.3322,260.8315,304.4377,113.3485,50.2641,62.7447,137.6742,54.7708,185.3129,274.6994,165.3727,170.2746,130.5569,-17.5597,105.9554,280.1642,82.2677,85.3455
333.1932,310.1649,244.1212,249.2789,101.8759,21.4138,106.2499,103.0080,80.3849,130.7126,263.9425,189.1244,192.7561,93.3672,11.5703,46.0775,269.2655,46.5691,50.6886
264.3912,266.5863,175.5564,174.8382,106.3514,29.8602,118.1711,76.0484,36.5611,79.5743,233.5693,205.4680,130.9981,91.0836,13.4520,73.6681,212.1676,69.4363,10.8723
175.1494,209.9508,97.5408,152.3003,63.6881,38.6004,30.0982,54.8031,-41.3731,83.5447,127.1210,207.2850,17.5182,91.4637,-63.0408,118.4831,147.2816,90.7411,-33.8545
114.9563,164.1177,54.6652,134.9262,-21.2544,19.5415,-89.8933,5.0943,-84.2388,40.6538,56.6407,185.5983,-133.7431,76.7712,-83.1240,78.7052,77.7314,65.1169,-63.4847
68.2831,131.3063,1.8395,57.3472,-92.2518,7.1033,-129.7937,-49.2295,-63.3425,-40.1793,46.3219,169.9193,-175.0753,89.7120,-24.0248,29.8579,-20.6956,65.0071,-30.5485
0.3130,103.3600,-84.3951,-10.3854,-127.0062,18.3553,-114.5555,-40.0899,-43.1830,-25.4469,28.4490,172.6406,-63.0053,86.3412,-23.4639,36.0824,-100.5838,84.3929,30.2905
-56.2733,87.0563,-158.6994,2.6715,-156.1979,2.4059,-142.1492,-8.9712,-91.1143,42.6725,23.0374,142.2097,-0.8337,2.0663,-103.2769,18.0213,-112.4925,40.5923,47.3742
-81.6022,72.8848,-195.9582,34.6281,-180.7889,-43.8264,-178.0443,-39.7674,-125.3117,34.6515,35.8210,67.4225,-75.2122,-78.3209,-126.9558,-46.2733,-97.8763,-11.9329,49.4134
-114.2192,55.9409,-194.9262,30.3345,-169.1843,-48.2667,-137.9745,-80.0596,-52.1650,5.3385,18.3484,21.3295,-124.1969,-56.5366,-48.8903,-53.8693,-101.9354,14.8072,72.0489
-156.7096,61.6475,-159.8750,38.6881,-151.1677,-0.0683,-94.5236,-47.4495,21.4806,55.7105,-0.6222,30.7692,-69.8169,9.3114,3.4158,18.1900,-114.0439,48.1009,56.8672
-167.0071,68.7230,-134.8628,76.4986,-163.1576,32.2926,-134.7639,1.7673,-7.9366,127.8568,2.0024,36.5672,-14.7126,23.3735,-43.8467,48.1981,-118.5003,9.7043,-2.8007
-132.6064,21.3897,-138.5044,75.5660,-146.4571,21.4765,-162.4713,-11.4717,-28.3428,130.4382,-12.9021,13.9267,-23.1330,-15.6639,-78.9425,-31.1556,-98.9166,-38.9926,-19.2833
-75.0149,-43.5005,-122.8123,15.7989,-72.9458,8.2731,-94.2541,-40.7798,32.9474,87.7640,-15.4948,-0.7056,-54.3668,-57.1856,-19.1008,-107.1705,-66.4322,-38.5541,20.1035
-50.0218,-70.3331,-102.8270,-57.4838,-34.5831,21.7338,-26.2937,-5.2573,64.1006,80.4715,2.1840,-2.4575,-56.8401,-69.5949,38.3945,-63.1474,-103.1587,-15.5183,54.4289
-120.2633,-125.9429,-151.9787,-137.2288,-66.2827,31.7494,-25.9457,70.3326,32.8105,118.6555,-53.4443,-25.4120,-37.8113,-62.3196,22.3070,21.5360,-222.3133,-3.4723,71.7580
-231.2170,-241.7620,-224.2527,-217.1167,-85.4430,2.9350,-28.3330,98.3554,22.9955,129.6956,-138.0235,-67.1745,-55.9090,-48.4665,6.2832,19.2580,-282.2943,-8.5275,73.1506
-247.0682,-295.4455,-217.2644,-228.6459,-59.1481,-17.6052,-2.5587,78.1997,28.5659,106.0176,-121.2328,-89.2511,-107.1661,-9.7883,27.5631,-13.4284,-214.4828,-8.6712,53.5857
-176.5970,-249.3988,-162.7163,-158.4364,-15.5309,42.8534,35.2302,95.1382,30.0947,144.8676,-93.1291,-84.1042,-93.0619,36.2701,49.8441,25.3632,-136.9042,30.9556,61.5734
-144.7652,-221.3869,-136.0355,-101.8524,44.0947,133.7254,99.0340,148.3691,74.0467,235.7861,-140.7690,-79.6801,4.8116,28.5726,84.9187,73.1717,-121.9967,88.7168,99.2914
-143.4911,-213.6481,-112.2548,-98.8588,85.3470,145.2482,144.6813,139.4488,105.5053,232.4003,-93.7063,-84.7410,76.1366,-7.9186,120.4615,49.0633,-101.6530,110.8018,65.2055
-68.7147,-117.8719,-48.9527,-69.0616,56.4494,106.7157,96.2606,67.2940,46.5513,128.2326,86.8743,-79.8544,72.3610,0.2792,87.1104,6.2789,-29.8172,120.2080,-40.3490
63.0121,32.0479,47.0613,43.1707,16.4749,133.9405,21.9248,35.3454,5.8852,62.1731,170.5017,-51.4019,49.8352,19.2740,27.5906,2.7845,76.7205,173.1403,-74.4958
158.6153,129.9278,158.1640,189.5913,53.2748,226.4865,39.0426,66.8529,66.6013,49.2946,124.0010,-4.3983,33.8655,11.8103,43.7801,30.3361,195.4248,242.9333,-14.2940
201.0853,172.4709,246.3161,272.3406,131.9458,281.5829,106.8052,102.3897,94.0961,5.8602,129.4737,31.4230,11.5106,48.3105,90.6518,81.4480,278.1509,266.3723,20.5426
220.0042,165.6388,274.2893,227.0488,175.9645,250.5930,132.6058,112.6899,16.3678,-65.3059,182.8217,15.4815,-9.8578,117.4835,81.2763,115.7308,284.4281,240.3523,9.0968
217.8386,99.9246,259.9662,121.2476,177.0551,191.5358,132.4358,96.1301,-42.7362,-118.2247,174.1845,-30.4271,-10.8894,105.8449,47.2150,74.9474,246.3843,211.6170,20.0354
184.6622,65.6064,232.3110,114.7913,172.2437,197.8812,151.3222,72.7612,-21.3899,-129.6059,133.0422,-17.8618,54.4668,50.4562,31.6800,15.2093,220.8350,223.3882,38.0884
134.5553,126.9408,216.1825,221.0218,214.0515,268.4862,192.1935,74.5551,17.0543,-96.6719,111.7084,64.3458,203.2351,56.6197,39.4765,24.6435,233.5480,256.1182,10.8530
113.7006,176.5833,263.1875,264.5104,298.5303,280.7493,238.9189,56.7963,38.1094,-102.7726,108.8359,106.4290,295.0875,48.9114,93.8170,39.3847,273.0017,223.3703,-30.6419
144.6620,128.3969,347.8131,177.0917,319.1497,178.5253,244.0754,-30.3800,41.0729,-210.3914,137.8437,61.7429,183.5863,-38.5911,151.9393,-22.2890,286.5178,108.6817,-13.5792
176.0202,65.3922,349.3969,103.3052,240.8106,76.1149,186.5404,-82.3298,26.7872,-269.3974,169.7560,28.6430,5.9429,-68.8234,120.4822,-72.1613,246.4322,24.0902,71.9052
160.7976,62.1822,262.0633,120.9755,182.6158,56.8724,133.7250,-10.7533,-1.6517,-162.8688,146.6203,61.8553,12.6122,14.2058,36.0932,-31.5549,188.7268,20.9418,134.9532
123.2733,65.7010,194.7798,116.0449,174.5691,45.0358,110.9380,42.0821,-77.8267,-93.5787,98.1953,73.7794,164.4714,44.9760,-8.4748,-9.2650,119.1168,10.7856,86.5878
88.3813,25.9069,158.1247,27.1577,111.4086,-13.0305,52.9614,-48.2831,-173.7933,-217.8592,81.6514,18.3690,225.7085,-46.6093,-40.3918,-91.2886,36.5861,-30.2262,-3.5060
68.0795,-5.5351,129.1879,-24.8094,24.4201,-46.4027,-16.5032,-151.4477,-141.8376,-316.7835,97.7041,-8.0914,141.9072,-121.8409,-80.1404,-162.6406,36.4105,-25.2149,-8.1122
104.0006,28.4563,165.6126,32.0420,25.1431,-23.7139,-19.5713,-144.9486,-4.7036,-230.5197,133.4038,39.3815,45.1373,-101.0258,-58.2706,-122.1922,136.8635,-11.1522,6.7751
173.6356,67.1882,221.8756,65.0129,33.0827,-29.0306,-32.4731,-120.2268,-25.2116,-165.2994,148.5132,47.7873,19.1308,-60.8965,-1.1359,-62.3668,160.2793,-87.2288,-94.2083
174.1099,17.5982,157.5793,-24.8801,-55.5615,-100.3024,-136.6706,-149.2924,-227.8794,-244.4024,93.4806,-35.5581,36.6851,-63.8070,-14.4635,-75.0479,45.5945,-168.8796,-212.8363
106.6808,-61.6429,22.4313,-103.7777,-128.3034,-144.5762,-202.3766,-148.0244,-307.1967,-277.9110,15.7706,-81.3407,23.1003,-83.9444,-66.3944,-100.6789,-35.0248,-121.0920,-178.9008
62.4205,-52.5723,-34.2418,-59.0786,-96.1496,-104.6179,-128.2023,-81.1043,-173.3671,-189.4721,-19.0559,-18.2825,-43.8890,-91.3796,-57.4533,-95.1032,-32.3104,-44.6309,-63.0566
24.8372,-11.5581,-47.4444,-25.3556,-58.3916,-83.8736,-35.1929,-43.0039,-40.1814,-138.3498,-49.6463,33.1178,-51.0573,-89.6110,-12.2636,-99.6680,-73.2325,-104.1497,-8.4698
-56.3278,-56.2191,-102.2221,-116.0124,-53.2786,-169.9657,-1.8022,-71.2499,24.8679,-138.4666,-102.0819,-5.4501,87.4589,-70.4165,1.5866,-89.6515,-156.7363,-225.0966,11.9077
-120.3312,-136.3293,-150.4817,-216.5128,-4.8278,-261.4865,54.6537,-88.3834,105.9043,-62.2272,-136.1525,-55.4763,206.4799,-25.1007,8.0324,-28.2782,-202.5846,-251.5929,40.2575
-137.6786,-171.1829,-158.3961,-247.8166,60.4442,-248.0831,135.2603,-69.9038,167.9975,24.8142,-162.8881,-77.3009,116.0105,-5.2522,57.3528,-12.5107,-240.4210,-210.4007,34.1561
-176.2072,-208.1124,-160.8793,-289.9389,64.0804,-203.2285,144.3254,-80.8730,179.2941,-15.8393,-194.4133,-118.4378,-45.0174,-55.1158,129.6998,-82.4736,-278.4887,-195.3917,21.3426
-228.9651,-271.6660,-153.8132,-345.2092,31.8898,-214.8463,91.6497,-117.1227,208.8611,-98.2581,-174.8631,-160.5464,-41.8349,-98.9085,148.3356,-90.1704,-257.9083,-200.5002,55.6485
-227.7705,-309.0188,-143.9235,-338.0853,-1.8079,-226.9558,41.3104,-108.5062,218.5250,-96.1713,-119.9314,-151.0380,54.7531,-55.0823,67.4242,-0.4102,-210.1817,-200.0569,70.1129
-188.0311,-317.4055,-163.6286,-304.2329,-45.4364,-189.3536,-6.4045,-82.4219,120.1642,-77.1474,-111.4102,-122.5214,67.9985,3.6435,-44.5851,20.8592,-182.0196,-202.0508,22.4790
-140.2605,-304.3118,-159.4944,-286.7879,-54.0908,-145.9663,-30.4683,-111.5724,18.2996,-104.2085,-122.2108,-114.6341,41.5785,-11.0530,-59.7132,-39.3512,-129.1744,-188.9844,0.9699
-65.4762,-236.0831,-82.4340,-232.4946,-3.6180,-121.0584,8.8030,-153.0357,36.9955,-102.7895,-83.5842,-92.1551,49.1660,-41.0225,34.9735,-32.6797,-64.2208,-151.5439,26.3438
8.1713,-148.7937,-11.3251,-152.9712,25.7170,-106.5591,52.8699,-142.8329,76.9200,-57.5818,-30.3797,-38.0849,19.1808,-33.9840,103.9099,1.2867,-52.4053,-128.6639,22.5463
32.9347,-119.9124,7.3604,-128.5355,6.7673,-119.7231,44.1666,-125.6252,34.9611,-57.4486,-9.5822,-11.3571,-32.3760,-59.9755,59.9886,-74.7262,-37.8246,-133.2541,24.0387
43.2413,-136.9386,46.1455,-147.1811,18.2035,-150.3800,56.1328,-136.4227,8.8714,-115.4465,1.2951,-54.7973,29.3384,-130.9816,2.3190,-175.5772,37.2501,-132.1079,99.5130
74.7085,-146.4727,109.0218,-156.5662,64.9058,-145.1138,130.1934,-125.2606,73.4536,-141.1313,21.6270,-105.9846,157.7887,-126.0737,52.6837,-136.3434,72.8701,-108.3860,148.9892
86.8868,-117.7915,99.9541,-138.0684,67.9693,-84.1147,149.7650,-69.7448,118.9671,-61.0715,32.1957,-57.8085,162.9469,-8.3347,130.7125,5.6195,8.5201,-62.7027,77.9726
55.6286,-35.2196,13.4393,-58.3325,20.2676,-1.4716,46.5054,-9.7957,56.5860,84.2327,-0.2911,67.5252,44.1286,79.8699,78.5646,96.0301,-49.3313,-12.8860,-3.7431
18.6332,26.7519,-48.0280,33.5506,-21.5007,33.5942,-57.5092,1.6481,-31.9171,132.1648,-75.2275,102.8988,-27.8044,26.8046,-44.6275,60.2434,-39.1754,-26.8912,0.4882
2.0304,-38.4897,-36.5870,-19.3834,-26.7696,-42.6758,-51.2734,-81.7190,-44.0881,-8.2689,-113.9496,-12.2209,8.0116,-88.4119,-55.6377,-52.1519,-34.8164,-143.3167,5.0011
-5.0738,-155.0475,-6.0738,-195.8149,-4.5257,-186.5070,-0.7873,-222.9330,-0.0969,-179.6397,-54.7703,-122.6570,52.8281,-130.0182,30.4608,-122.8605,-65.8432,-268.7506,-48.3148
-1.4763,-164.7702,-1.1037,-264.6765,-5.1707,-261.9145,-5.5683,-294.4941,30.7981,-200.6850,41.8752,-111.9979,9.8277,-101.0137,63.2662,-106.9076,-59.7592,-279.5221,-84.1970
43.0740,-91.7736,16.2918,-168.8168,-58.3308,-221.8013,-45.2775,-262.5033,31.7092,-143.7255,98.9218,-56.0133,-81.9850,-101.2264,17.3873,-96.1077,16.2665,-191.8035,-74.2147
127.0591,-37.1303,80.2094,-82.1781,-87.4714,-151.5546,-62.6164,-225.6328,6.4012,-157.4337,115.6336,-40.7380,-66.4482,-154.5233,-62.9961,-151.1715,102.5381,-122.8305,-72.3412
184.9097,4.6735,138.3380,-70.6984,-30.5495,-118.5871,-65.1883,-218.4791,-53.1722,-223.3039,108.6382,-48.4911,89.0986,-192.9939,-160.6628,-197.6029,152.8617,-114.9630,-77.7098
193.4210,47.5506,156.7962,-36.5961,26.4390,-101.2224,-63.4182,-190.2769,-110.4001,-263.8189,120.8736,-50.0013,158.4606,-175.5354,-180.8211,-173.5114,193.8236,-96.1253,-57.3763
228.3848,79.0257,194.3740,58.3938,11.4477,-56.4671,-28.2887,-151.5011,-98.4361,-268.4423,202.2936,-40.6838,7.7054,-135.0883,-52.2303,-123.5295,247.4351,-26.6021,-36.0097
305.0315,129.3608,263.3061,143.1438,-3.2007,2.6189,27.6496,-144.0274,-34.7149,-251.1078,268.2442,-18.2764,-114.6544,-128.2354,73.5751,-110.3160,278.4264,17.1185,-39.3290
319.7391,168.7740,281.9279,141.3080,30.4142,6.1200,43.4798,-151.8649,-9.7494,-240.6315,203.8310,-2.3598,6.7541,-164.9011,45.5160,-147.5034,254.2842,-21.8429,-49.4641
249.5578,106.0056,229.1876,49.0605,52.7943,-64.7152,10.8898,-156.2263,-49.1874,-256.8983,99.3740,-14.7984,156.1682,-194.8480,-40.8963,-197.5646,182.7517,-72.2770,-65.1746
185.4076,-13.5621,161.3298,-52.5565,39.7910,-125.6155,-23.6498,-172.3744,-98.5325,-254.8435,86.1059,-47.1073,99.0505,-197.8660,-76.8155,-204.3733,91.0556,-63.0734,-97.1310
140.2868,-64.9368,104.3450,-84.7359,34.1979,-126.5416,-32.9829,-200.8239,-112.7204,-208.0636,100.1289,-80.8305,-9.9962,-219.5277,-94.7568,-174.5276,35.1356,-29.9428,-106.2361
76.5656,-52.4770,81.4289,-47.9675,59.4966,-115.2664,-6.8964,-214.8689,-67.8011,-174.4372,70.6905,-87.7178,8.4583,-248.1477,-62.4421,-169.2062,67.2844,-16.9263,-46.9686
45.6852,-34.6746,121.3165,19.7565,100.4181,-107.6541,43.2251,-190.5691,31.7647,-186.8349,66.2711,-47.0157,43.0555,-210.8719,71.3311,-186.9216,147.6376,-14.7950,39.8956
79.2514,-1.2246,163.8458,80.5906,101.5159,-77.8749,47.9463,-144.1734,97.2328,-209.1065,103.6386,-6.7421,2.0898,-148.3157,150.0990,-170.9151,189.0389,-12.4698,55.4156
102.2960,53.4284,129.6199,109.4228,26.7160,-51.1728,-24.6956,-121.9074,40.0805,-201.7633,103.4412,-15.0304,-9.7002,-156.1318,30.1135,-118.8712,185.3514,11.9906,-18.2601
82.4251,111.2155,61.3094,144.8249,-27.2011,-25.4404,-70.8903,-107.4053,-65.2556,-129.5201,53.1765,-8.6954,42.6198,-166.6530,-127.8501,-67.2003,187.6856,87.2886,-64.0142
70.6744,169.3531,40.6827,228.7326,47.2973,57.6474,-0.1026,-35.2822,-68.2182,-9.3168,14.4520,67.2502,53.4227,-79.5650,-106.1124,-31.2699,206.2330,174.2917,10.6400
80.0718,198.5891,62.2213,291.8206,145.0654,149.6775,102.1408,53.5608,17.9733,43.6842,36.6340,129.1463,-10.9528,0.9285,46.3727,-35.1951,209.4746,210.3369,113.4261
87.0902,180.4221,80.8754,266.0788,101.8092,140.0099,100.3990,52.2441,41.3394,-17.9566,108.7966,106.0959,-65.8625,-45.0740,134.0248,-92.7624,168.2115,202.4382,104.4259
90.8406,170.1316,81.8298,222.0769,-20.1940,73.6892,1.1813,-8.6003,-41.3131,-74.1474,133.3442,62.1803,-38.2093,-115.1367,77.9517,-135.7048,107.2374,174.0730,28.7061
94.4497,197.8594,88.5660,230.2349,-52.9992,68.0368,-70.5742,-16.8655,-106.2055,-45.6875,53.2827,58.9708,31.2923,-79.9519,-16.5067,-88.0102,112.2750,131.1463,25.0694
102.1694,218.2395,132.2977,246.9153,11.1176,101.5027,-28.8208,19.9866,-60.5957,-4.2419,-10.8307,69.8111,18.5493,-3.6530,-7.8035,-2.6486,183.2663,108.2837,78.9372
108.8878,199.9473,163.9572,221.8771,56.3045,85.7118,56.7100,17.4733,17.6945,-5.3951,56.1424,60.9160,-75.1659,-1.6110,55.1631,3.6926,165.7330,96.7462,66.8189
68.5793,134.1131,78.0326,148.9168,15.3867,12.0436,30.9626,-41.0432,-3.7941,-14.0210,160.8037,22.4971,-74.9606,-54.0440,-2.7621,-58.2388,-7.0310,21.0282,-23.1684
-29.8654,35.8043,-97.4355,50.0751,-73.6059,-62.8203,-107.5935,-99.2180,-106.2509,8.3908,166.1096,-40.5124,32.0255,-64.0613,-138.1638,-60.0086,-167.4064,-85.3970,-81.4638
-110.7548,-7.8603,-200.2543,4.0731,-124.7742,-74.5960,-182.3351,-92.5385,-146.0671,54.1383,84.1029,-88.1019,10.2505,-12.2170,-126.7893,23.0710,-172.2289,-101.9169,-47.6888
-131.4803,30.6765,-174.6953,37.3745,-123.9652,-25.7921,-139.7929,-31.4584,-98.4552,71.8068,1.4076,-90.0340,-177.4998,24.3335,12.0757,62.5962,-99.7195,-65.2545,6.0160
-127.3702,31.0577,-118.7532,32.3451,-142.7848,-10.8256,-125.6116,-7.5245,-92.0241,38.2146,-28.7474,-72.3037,-265.1260,11.8046,44.5941,15.8718,-77.7205,-94.9755,-24.4280
-111.8410,-38.3743,-102.4337,-54.3266,-191.0722,-61.0558,-183.9866,-33.3418,-149.9753,19.3916,-15.9143,-59.3291,-155.4131,18.6312,-53.5199,9.3475,-113.0429,-138.5312,-115.5094
-89.9260,-43.8439,-111.1543,-84.2111,-195.1022,-76.9898,-194.2246,-14.0647,-140.4534,36.8414,-21.7351,-45.9670,-35.2255,68.0295,-115.9930,83.7280,-137.6140,-89.8248,-136.0568
-96.5152,32.0541,-115.7019,-12.2180,-146.7148,-24.5801,-129.0847,41.8978,-42.2346,-2.9857,-61.2945,-37.2075,-21.9155,83.0070,-97.7090,103.6934,-96.3140,-1.8724,-45.5423
-98.8198,69.4971,-93.1092,46.6359,-101.8649,14.8474,-70.8784,37.2076,18.6252,-89.3203,-70.9261,-28.1519,-75.8553,50.3428,-43.9674,23.5575,4.6835,46.9952,62.7577
-29.8890,57.5147,-38.9685,72.7787,-62.8336,40.9813,-29.4672,18.8145,16.9420,-69.9746,-39.3600,1.9791,-122.8083,44.6580,30.8451,-26.5364,94.8437,85.7367,124.4561
42.4320,40.5977,10.1428,111.4475,-5.7524,113.2977,20.3273,88.0198,30.2697,58.7627,-29.3953,26.2772,-68.4905,66.1747,60.8252,12.2733,105.3929,128.6347,142.7596
4.3867,-12.3913,9.3654,89.5116,55.7197,167.1768,53.6127,173.2629,47.1302,148.2070,-52.2438,12.0654,70.8951,60.2203,-6.2869,53.3208,31.8247,133.0082,116.4694
-93.0266,-70.3080,-38.8675,-23.4829,106.3810,115.3387,73.9203,175.7000,32.2898,174.9464,-71.3994,8.4919,99.8236,50.6739,-54.8559,54.9757,-56.5685,106.8376,86.9268
-123.6038,-40.1811,-76.0967,-90.8027,138.1964,33.1412,109.8414,155.1107,51.5051,209.0715,-80.1029,49.7372,-29.2647,77.6249,20.1490,65.7326,-67.8378,98.1639,125.5417
-82.3413,25.8628,-61.9422,-52.0820,131.2262,30.0183,127.3739,173.6621,130.4186,228.8499,-83.1154,61.5244,-87.2070,95.9903,105.6352,91.6288,-9.4114,105.1817,183.7383
-48.9679,4.2007,-50.3261,-17.3832,89.7226,70.4618,98.1581,180.0796,177.1566,201.4414,-91.0135,4.6204,9.9937,53.5268,69.8379,75.7773,0.0192,94.2657,160.8098
-65.7019,-80.4236,-96.9000,-39.1483,48.3189,75.1475,68.1189,149.2312,157.2399,177.9257,-126.3548,-32.9028,56.6028,-12.8768,-15.9120,8.7314,-70.5809,71.0214,107.1947
-106.4069,-114.5796,-127.2194,-52.7135,28.9688,66.9052,63.2359,139.9164,136.3132,195.3601,-159.4124,5.8031,-27.5261,-14.0201,-22.6030,-26.9826,-98.7165,75.1543,120.1407
-103.4111,-57.1951,-59.0303,-27.8790,33.7310,102.0012,62.7305,180.8634,138.3197,225.6074,-130.8737,56.8734,-75.9466,69.7787,40.2850,30.8865,-20.5205,110.8858,162.4748
-26.9309,40.6508,41.5933,10.3060,56.3726,155.5115,83.0415,220.9821,150.5053,232.6975,-60.8693,59.2155,-20.4676,126.5023,83.4723,105.5255,85.3396,131.6395,192.0237
65.4773,87.2955,96.7997,46.7760,88.8511,168.0912,142.8983,211.6771,189.3220,214.0763,-15.1321,31.6226,24.8753,68.9829,78.5889,91.8271,145.2160,121.3327,248.7315
109.5106,59.8698,128.5884,69.1717,123.7112,147.8452,188.8410,192.4831,228.2835,203.4625,-12.3089,23.6399,15.8101,12.7872,61.0768,51.2839,144.7558,126.0348,297.0274
99.4174,55.4551,126.1571,71.0553,135.7304,147.5994,179.6982,236.3692,204.3671,223.4339,-47.9028,59.7690,30.8546,91.6820,47.2699,102.2511,103.6762,163.7162,258.3200
49.3574,120.8848,55.0552,77.7101,114.8570,173.7924,166.1667,311.2486,149.5737,253.4755,-104.3259,103.0337,92.8810,198.3453,34.4841,186.4608,94.0548,183.2908,194.5098
-9.2075,155.1195,-0.8135,110.2882,118.1891,182.0556,188.9473,315.6367,137.5764,279.3251,-124.4552,95.2538,121.9341,185.8069,56.1716,188.0453,150.2835,144.5117,187.0672
-23.7207,107.7152,29.1077,147.5247,167.1803,147.9593,189.7356,250.9246,125.7031,292.0870,-88.4516,66.0323,77.9434,141.0031,116.4633,152.9277,184.5340,71.9398,162.5331
0.3213,70.5434,57.2615,154.9871,170.6001,99.4633,117.9359,197.9952,40.3348,253.4662,-54.8402,91.3615,43.0103,172.7873,119.2315,152.5439,142.6481,24.6828,63.3508
14.4105,90.4062,34.5842,125.9222,110.3857,74.7458,43.8526,162.9418,-57.2250,177.0294,-47.2247,146.1464,99.3024,189.7673,24.1513,133.7332,106.4071,33.9687,-15.0660
40.9322,113.6429,50.6951,85.5688,108.1184,69.5145,57.2953,111.9275,-65.7470,129.7461,-17.4191,164.0442,178.9443,124.4636,-34.1969,81.1796,127.1445,63.7293,-2.4199
112.7543,124.2449,114.4666,73.1915,170.6878,67.9283,123.2913,81.3762,-7.7803,87.5242,40.6536,170.6359,149.7390,83.8324,32.4837,75.3813,151.5962,77.4318,53.7080
151.9464,147.0574,119.7623,114.4709,173.6662,112.9612,158.1246,125.7039,38.2130,14.9616,66.5151,185.6999,44.2948,134.9023,98.7759,117.2512,146.0835,120.7191,113.5399
88.3552,163.1081,59.5158,188.8914,138.7766,240.0372,166.6295,231.0260,61.8360,26.3632,35.4888,155.2394,42.6051,206.9894,54.4379,147.6491,115.1398,215.9248,163.7024
-3.6967,142.2700,26.2345,225.4919,174.9449,348.8020,180.0011,324.3866,74.4110,164.2194,-7.7006,106.7011,171.2160,233.1510,-11.3131,176.4136,55.6373,252.0182,154.8063
-25.2198,98.3438,49.7273,173.9613,228.0182,305.3229,164.3916,324.2096,45.4746,222.1285,-20.4380,141.4817,223.0737,197.1167,0.4396,188.3464,7.4389,151.2065,72.4349
17.9569,67.6667,95.3302,87.4745,201.0054,153.9798,99.6946,221.2861,-35.2634,82.6762,-11.8214,230.6077,103.3221,111.2903,24.1837,112.7955,28.8438,12.1686,-12.3391
65.6879,62.6490,129.6236,55.9454,139.1087,39.5003,36.5379,104.4749,-113.6321,-75.1667,-11.3614,258.3625,6.9390,37.0634,-32.1174,1.1955,83.9091,-69.3923,-37.8285
68.3897,39.4371,118.5574,50.3676,106.5068,-22.3093,20.1257,36.5639,-132.0491,-101.1835,-26.1903,208.8696,63.1030,15.0210,-104.2944,-24.2431,82.6662,-131.7504,-1.5353
16.6001,-52.8391,53.0187,-29.0792,89.3253,-97.2844,41.6194,-9.6158,-89.7819,-59.9278,-52.7720,125.4699,100.3211,10.6823,-57.6877,15.4661,13.4267,-191.9604,73.8328
-36.8897,-165.0022,-20.8754,-142.1964,56.0128,-153.3474,43.7060,-34.8209,-45.5823,-19.8094,-91.4168,33.9118,-11.2119,19.9756,66.3479,45.8246,-57.1871,-185.4723,123.6801
-48.1813,-191.8618,-54.8463,-146.6229,-23.5065,-124.8758,-38.8451,-3.3769,-64.1904,32.9298,-122.6422,-11.4350,-112.2882,67.9041,68.9147,83.1193,-77.8290,-120.7581,68.9796
-45.4774,-138.8578,-48.6861,-62.2153,-124.2432,-61.8960,-154.7205,25.6577,-120.4340,70.4566,-119.7218,14.4876,-57.3779,76.7897,-66.1602,100.2960,-61.1285,-91.8503,-48.3252
-51.5599,-105.9310,-30.2834,-52.5366,-139.5201,-52.1026,-152.2042,-31.9003,-114.6905,21.8099,-98.0662,38.1800,45.9043,-20.1713,-115.1997,17.0153,-52.0471,-121.1072,-87.2932
-53.4984,-120.9350,-26.8921,-128.4089,-61.4139,-76.7490,-43.6850,-114.8078,-43.9590,-106.4363,-97.1328,15.2891,37.6908,-106.1229,-16.0672,-94.1141,-60.3275,-139.2166,-31.0984
-71.3004,-130.9550,-46.8605,-143.7295,-24.6076,-71.5394,-23.5080,-123.3538,-21.2181,-201.0478,-118.2259,-7.4386,-79.9497,-81.7708,36.4540,-97.9526,-61.8339,-110.4144,-10.8463
-103.7645,-117.9309,-58.9875,-86.2316,-49.8107,-52.2400,-112.1665,-100.0646,-68.9999,-185.0288,-124.5804,-15.8276,-163.5535,-53.2417,-14.4930,-46.4358,-62.7589,-74.0469,-72.1710
-79.3208,-111.8503,-22.7074,-86.0696,-21.6184,-65.0441,-123.9822,-121.7171,-98.2392,-149.5060,-92.8271,-44.4855,-81.7616,-100.6467,-28.3022,-59.5861,-83.6246,-69.1194,-127.6857
-9.8700,-131.6332,32.4190,-155.3861,46.9993,-90.9187,-38.7639,-152.4100,-100.3311,-202.5905,-46.6147,-90.4705,84.8487,-133.0851,5.8112,-106.6364,-98.0408,-89.7185,-140.9961
-14.4634,-162.0555,19.0812,-185.0091,43.5079,-107.1431,-7.1741,-141.8380,-114.3508,-251.0915,-31.8228,-123.3683,95.5032,-105.6381,9.9469,-106.9956,-77.5632,-121.4921,-148.6239
-89.5594,-163.2429,-64.6097,-149.8937,-10.8963,-146.6057,-25.9823,-119.5550,-80.0210,-160.4962,-47.4601,-114.3114,-70.1598,-85.1816,37.8166,-69.0567,-54.0986,-159.2713,-143.6853
-105.6335,-119.2603,-98.6731,-108.4627,-25.5972,-202.4653,2.5710,-114.4882,27.7561,-12.1549,-45.1934,-61.6355,-153.4000,-84.2250,103.5158,-34.1106,-63.3681,-179.4428,-110.5667
-47.8448,-75.3488,-29.2024,-79.8048,-23.9986,-205.4773,17.6806,-112.2400,79.0756,43.3759,-20.1128,-39.6181,-72.9539,-71.4997,71.8148,-19.9248,-82.1674,-165.6933,-90.1751
-3.2437,-66.8366,37.9867,-49.3488,-78.5298,-162.0002,-67.4173,-110.9184,0.6643,12.4575,-15.5524,-88.5385,-40.1671,-56.8467,-58.4304,-19.4731,-69.8979,-156.0269,-109.3975
12.9464,-51.6677,24.0272,-6.7829,-169.3974,-153.4218,-164.1187,-124.0466,-105.1413,-35.7064,-26.4836,-94.1530,-120.1571,-36.2437,-112.9052,-9.1317,-29.0230,-182.0400,-147.2556
19.7995,6.3447,-8.2744,49.6463,-216.8283,-172.7337,-165.1055,-139.4300,-147.6628,-75.0892,-9.6099,1.9810,-135.4313,-1.5335,-57.7273,0.6897,4.5637,-194.0391,-179.4694
6.8800,60.6706,-0.0244,81.9377,-198.0808,-132.0695,-108.1187,-119.4557,-135.3560,-69.7890,26.8917,45.3200,-49.3734,6.1691,-19.6927,-18.7546,15.9132,-136.3295,-176.2419
1.1828,64.0960,20.4075,50.0777,-155.9453,-30.3307,-62.5286,-43.3384,-89.8659,-10.4509,45.9014,-38.6127,-11.1500,-11.3461,-38.0316,-34.2876,20.3768,-54.8803,-134.5227
28.0139,39.3204,19.6134,-4.5532,-101.2736,29.7582,-24.4864,36.8714,-41.6656,36.5752,43.0549,-88.0306,-39.1884,3.9068,-47.5683,-15.5057,4.2909,-44.9241,-128.8721
25.4619,19.4303,-22.6202,-19.6061,-13.8191,-8.0668,19.9954,31.2913,-30.8540,39.1999,23.9735,-21.4340,-25.6182,31.3057,-12.0172,-10.9111,-70.7011,-113.7485,-196.4000
-48.7057,4.8781,-114.3767,-5.1409,54.5897,-73.9316,48.4640,-43.6269,-44.6766,39.8049,-1.9191,37.6743,17.8853,16.4244,47.1956,-26.9060,-162.8946,-172.8855,-243.8091
-115.7852,-5.5544,-181.2341,1.4838,42.1538,-82.4160,47.9804,-77.9465,-47.1233,43.2955,4.8723,14.3893,12.2437,-7.4901,76.4621,-3.0456,-166.2237,-183.2267,-210.7205
-89.9524,-11.8255,-130.4690,-25.5986,17.2301,-77.9171,43.6115,-73.0747,-31.6702,10.5250,57.8019,-49.6385,4.6213,-16.1883,46.9257,23.6554,-81.9314,-212.7205,-174.5326
-2.6056,-26.9165,-11.0123,-95.0750,51.3812,-148.4004,49.5094,-126.4941,0.5378,-52.8980,94.6259,-114.2497,62.8917,-51.9582,2.9280,-25.3825,-32.4728,-285.9186,-194.5611
40.9408,-52.2601,43.6441,-136.8148,48.8979,-231.4834,23.6892,-211.6790,13.4877,-119.8612,65.7824,-132.9544,87.2304,-96.6355,-13.2598,-89.9940,-67.0499,-317.9642,-236.7562
-4.4224,-70.4782,-1.5073,-80.7915,-78.7319,-216.2029,-68.4905,-233.8991,-55.5424,-189.1014,17.4717,-83.5494,-32.4476,-92.8509,-25.0873,-91.5786,-103.1841,-284.1746,-271.8915
-57.9035,-71.3310,-67.9532,-16.6653,-221.5338,-159.2475,-165.5672,-222.2133,-151.7755,-229.3547,17.3945,-43.4060,-172.1552,-68.5786,-45.4235,-79.7858,-79.7120,-252.7018,-284.8600
-29.9977,-49.0557,-68.9817,-36.3406,-245.2531,-146.7210,-179.6781,-222.7980,-137.9060,-189.4563,57.2928,-62.5558,-151.7019,-69.2412,-48.4445,-92.4275,-28.5447,-209.0396,-248.2403
34.1774,2.9543,0.6710,-33.8493,-197.5392,-115.4713,-138.8227,-191.9823,-41.8304,-125.7399,89.6390,-75.2293,-59.1259,-81.7881,-40.5797,-94.3195,13.4281,-115.2592,-183.1033
46.8942,63.9513,43.2805,61.0774,-200.5141,-44.6962,-143.7482,-148.3866,-22.5664,-148.3408,102.4525,-55.6032,-86.7594,-96.6275,-55.0736,-87.9102,42.6234,-70.3438,-142.2717
23.1016,97.3781,-16.2218,111.9332,-253.7558,-39.6356,-200.2879,-150.6297,-88.9193,-187.0652,97.0963,-51.8296,-165.5307,-94.8116,-97.3308,-67.6486,24.0723,-110.5389,-130.1601
