Fp1,Fp2,F3,F4,C3,C4,P3,P4,O1,O2,F7,F8,T7,T8,P7,P8,Fz,Cz,Pz
-215.4983,-159.1999,-137.7107,-118.3512,-153.5531,-22.7692,-44.8193,-59.9550,1.0300,-47.5420,-175.2464,-121.0005,-80.7571,-69.6668,-51.6458,19.2641,-158.2192,-53.5674,-28.8386
-30.6805,25.9082,-34.5030,-22.0490,-143.2077,101.2961,-39.2764,0.6390,-45.6735,-130.4004,1.0363,-1.3990,22.0036,40.8936,74.2491,59.4342,-61.7259,97.8609,-77.6907
64.7194,98.6762,15.3680,7.3629,-87.8599,138.2886,-47.6894,38.6685,-109.8991,-96.7171,109.9315,92.9142,91.5397,98.4906,147.3300,85.8633,-38.6683,173.5126,-132.2205
33.0772,46.5813,-23.6627,-25.1459,3.7737,57.2092,-77.6520,11.3344,-163.1870,20.4486,83.4747,91.7968,72.4899,52.4681,100.2621,65.8226,-85.6336,145.2717,-148.3015
13.1204,37.6422,-52.3054,-22.1752,55.9117,9.5544,-79.9971,-3.6795,-171.9239,66.4421,57.3444,67.3901,44.1956,25.7730,22.0589,48.7064,-69.5886,161.0105,-104.5569
69.3055,102.3894,6.3187,47.2345,86.4460,51.3338,-11.8665,39.7378,-132.8725,20.7773,96.1082,95.0838,71.5934,72.6640,19.1559,57.7925,29.6852,261.3528,-36.4750
155.7920,146.4109,95.9377,124.2693,161.0058,96.8395,74.8487,83.2822,-96.1766,-10.5007,135.4373,148.7964,113.3828,110.5292,65.6301,65.7630,114.2217,322.2853,3.3270
224.2547,155.6773,138.0178,149.9337,249.6412,118.6807,88.3325,100.2970,-104.5740,12.8914,165.8718,195.8052,123.4528,116.6981,64.4056,78.7806,150.2226,299.9866,15.7433
244.5339,177.5076,157.4284,137.8106,306.6248,156.5328,44.8057,119.2835,-117.9253,37.3708,216.3755,246.2690,122.2274,149.9307,36.2588,106.3985,175.3184,297.4796,29.7590
220.5885,232.0184,194.6166,168.1762,341.0494,213.9864,50.6063,148.7787,-81.4996,53.0876,234.8735,293.7278,140.9951,230.4394,89.1379,132.2213,188.4334,379.0779,31.1869
186.6871,313.8069,191.3157,276.5614,331.8557,288.9186,108.1353,212.8317,-42.0092,125.2297,168.6981,332.5349,162.5240,346.8778,181.6480,186.3710,156.5891,489.6021,-7.5293
149.1034,389.4157,113.0887,388.5969,265.1728,392.2247,101.8980,339.3084,-67.1176,261.0140,83.4870,399.0532,143.9162,476.4099,167.0950,306.5292,98.7251,562.7419,-56.9445
109.5517,436.0568,66.0013,443.0383,214.2902,488.7287,22.3251,473.1840,-104.9219,381.8244,76.1385,504.3353,93.3573,563.9073,76.9612,438.7544,82.8132,594.2638,-65.8577
96.5926,485.1261,115.0657,482.6574,214.5048,523.2646,-8.7159,550.9139,-80.2022,453.2583,118.1534,587.6042,75.0564,586.3674,62.6863,512.3305,130.0367,595.2845,-41.8646
92.6568,528.8513,145.0179,533.5082,191.0219,490.8543,27.6363,588.0360,-39.5901,490.3674,98.1280,589.5244,97.8517,580.0955,114.3657,534.6102,176.0929,551.9483,-37.4246
53.7653,491.4506,73.7513,532.9738,109.5059,419.3875,22.7822,584.7272,-53.0275,477.8869,13.2990,517.5681,88.8727,553.6980,120.4721,532.9485,156.4608,458.1229,-76.7521
17.7716,388.0126,3.2663,456.6993,30.2196,329.5030,-49.3762,513.5672,-92.1023,435.5258,-20.7239,427.2079,33.0588,488.5016,83.3426,506.0542,83.6521,345.1573,-138.6642
34.4176,332.6099,15.4787,382.2334,-12.2295,246.1471,-117.8339,436.4145,-110.3075,431.7790,26.1232,376.1494,3.0346,420.0111,67.5746,455.1944,18.6419,264.3381,-192.7878
55.7267,358.0075,35.7372,386.3294,-41.8554,211.4521,-160.8405,437.3951,-119.1344,457.4215,58.6200,385.1502,12.2621,403.6216,73.6001,402.1653,0.3077,249.4303,-225.6693
31.3853,408.9921,-6.9528,460.8052,-78.4731,241.1541,-199.3080,478.1973,-140.3590,465.8886,40.2504,417.0102,5.3741,423.2696,61.1837,380.8615,4.0549,268.4632,-249.0688
-6.3256,441.9592,-72.5279,513.3293,-119.5534,263.2909,-226.6192,464.5959,-171.6334,462.0212,32.7870,408.4249,-9.5222,402.4825,12.6836,390.0303,-20.4424,229.0938,-288.7115
-12.3203,415.4617,-93.8692,451.8042,-148.6400,179.5531,-237.3766,371.5681,-194.0452,397.9511,64.3090,348.1863,7.6351,304.2567,-31.4713,367.8785,-49.6502,102.9904,-340.3779
32.1340,340.6015,-48.9039,325.8605,-145.2087,27.2599,-239.9202,248.1707,-186.0757,229.2038,111.7116,303.4683,20.8370,197.9478,-13.0076,297.6147,-4.5704,-8.4538,-356.4438
118.5446,324.8559,28.8140,282.6226,-103.6166,-48.8582,-221.5197,174.1753,-150.9427,102.9024,159.9877,323.2858,-2.4464,173.5820,39.6068,254.4900,98.3585,-25.2255,-313.4610
187.3113,378.6869,77.2472,322.8847,-32.9402,-21.1428,-172.2084,182.6009,-111.4700,138.7337,186.6123,359.2027,-5.3176,206.0631,49.1966,253.3209,152.8527,2.5914,-255.6845
192.1642,365.8746,83.7929,311.3581,43.1453,6.4273,-124.3157,212.4171,-88.3011,189.3878,171.7831,356.4729,40.7150,218.3693,18.9647,220.2756,135.0309,20.5519,-229.6506
171.1742,291.2865,88.8390,245.8972,84.1413,0.0087,-112.5252,205.9298,-97.0828,142.6768,150.2646,336.7339,66.8823,214.6084,-6.1425,158.7389,113.6574,39.5780,-220.7571
167.8647,295.5479,92.8845,224.9502,73.7902,3.1458,-105.2334,183.7341,-104.2054,98.9722,163.4157,307.9961,47.1651,208.3026,-9.5419,123.4220,114.6231,40.7361,-190.1575
165.0664,332.6483,63.3997,215.3782,38.7925,12.2763,-44.1544,172.2064,-48.1301,81.5709,177.5333,243.5349,50.2053,165.4071,31.0881,89.6663,106.9285,7.6090,-139.5418
134.7901,283.2628,11.2973,165.5652,-8.7838,26.5790,21.7177,171.1050,6.3408,27.3732,129.6125,195.3992,85.4121,124.0576,85.4157,45.2889,73.9041,15.2030,-112.2301
71.6804,253.2839,-35.8576,163.2807,-74.0576,83.9264,-24.0624,179.9500,-62.2041,-6.2099,44.7605,216.5585,75.6601,149.8469,56.2679,39.4985,43.6887,96.1865,-125.8126
24.1625,334.4355,-52.3533,220.1978,-99.7619,147.0057,-124.2123,171.2455,-153.3765,-1.8522,41.0492,218.2060,35.7032,173.3896,-19.5329,39.2745,80.5870,154.0447,-121.4684
92.7594,373.2788,16.5137,206.5296,-8.5288,144.6547,-83.2942,134.8108,-80.2283,-33.4617,165.7064,149.5318,71.3322,126.1524,-1.5573,-15.7978,185.0163,152.2691,-41.1196
252.1592,297.7264,145.7283,138.2937,138.7267,115.6256,78.1141,136.5063,65.7560,-21.6140,284.6777,134.1934,157.6040,95.4183,62.0561,-55.6552,221.8899,161.8545,57.9113
299.1356,242.0034,174.6957,133.5298,178.7417,104.5843,141.2549,175.6374,89.7579,85.5434,261.9634,190.1110,156.2972,116.8818,35.5521,-34.6183,112.8192,154.9927,75.9512
178.4232,210.2324,62.9208,117.1146,93.6392,42.6562,88.0136,128.3290,33.1635,69.1871,175.1608,134.4178,76.9809,73.6981,-6.0116,-64.4753,8.6955,44.1647,34.5872
101.9215,100.8000,-1.0648,-2.1546,43.7827,-85.2390,85.2437,-8.9932,2.4128,-134.0802,168.6357,-46.9376,54.2648,-51.2877,44.9765,-184.1439,55.9232,-91.3261,28.1856
157.8691,2.7156,57.5275,-72.2740,88.7030,-170.3947,139.7350,-84.6607,-2.1585,-233.7449,205.2691,-138.9964,84.4136,-129.8021,96.6209,-266.5842,153.0397,-120.9845,58.2668
176.9939,21.2977,71.8637,-4.7381,108.8307,-200.3652,150.9701,-91.4333,51.6089,-163.2584,176.2784,-99.9944,69.7137,-131.9357,77.1515,-277.7006,151.0093,-105.3524,55.9994
107.4920,30.9186,-0.8889,10.0022,76.5739,-284.5351,136.0751,-160.3608,141.9182,-202.5967,116.5946,-110.8108,48.9129,-142.3882,58.8180,-327.4114,92.0493,-158.2707,9.0536
91.5375,-74.9290,-0.9293,-121.1620,105.7149,-415.4525,120.6661,-265.4037,99.0592,-378.9466,116.5578,-225.9859,99.8702,-182.9646,58.0974,-422.7986,77.2613,-232.8183,-42.4460
145.0046,-195.9894,71.6855,-220.5408,180.4174,-479.0246,55.4475,-285.1145,-72.6203,-430.5256,158.4906,-322.0835,143.1480,-202.4298,22.9306,-451.6818,93.3602,-246.7668,-75.1432
165.6661,-248.6311,68.4363,-192.6253,181.1162,-482.1249,-22.9031,-258.4878,-144.7366,-337.5756,179.3163,-327.2985,94.6320,-173.2269,-31.7681,-405.7142,96.1628,-231.9173,-86.9044
175.5936,-266.2657,42.8433,-144.8095,156.3996,-522.2642,-21.2347,-286.2951,-97.3076,-317.8757,189.7124,-278.5078,43.8967,-126.1666,-71.1976,-390.2917,117.4159,-236.0009,-84.8721
237.3198,-260.7119,143.5462,-135.0751,208.6808,-593.7498,15.3974,-337.4492,-119.7443,-418.2207,244.6398,-239.9819,80.5301,-116.5472,-86.3204,-434.1216,189.5784,-248.5343,-96.1607
291.4320,-224.2750,268.9595,-131.5122,241.1641,-627.1040,-25.8008,-355.7569,-220.6953,-497.7988,329.0955,-260.1186,128.6042,-146.7358,-54.6391,-467.7953,249.4548,-267.4331,-153.2558
275.1121,-201.6020,229.1949,-155.0874,151.2978,-641.3796,-126.4810,-383.1265,-268.7944,-491.0740,338.6981,-328.6623,103.5344,-168.2809,10.4654,-471.1297,217.1414,-313.1729,-245.0480
220.9371,-226.3262,89.6238,-229.9543,50.7451,-694.9312,-173.9200,-453.5521,-240.0418,-462.3391,241.7810,-369.1714,60.4941,-178.7610,47.9673,-492.3938,134.6723,-384.6646,-300.8472
177.0954,-268.2640,39.1350,-288.2643,47.5270,-753.3312,-134.5010,-508.2461,-182.5939,-459.9874,184.1376,-325.2991,73.0780,-199.4492,39.5144,-532.7332,112.8060,-450.1811,-262.8752
179.8463,-275.6428,100.7194,-261.5052,87.4524,-738.7437,-85.2120,-487.7228,-145.1924,-452.4465,270.1466,-236.5299,106.4742,-197.4418,4.3468,-539.5143,167.0780,-455.8424,-164.7479
247.4727,-228.5081,183.4007,-189.8461,127.5382,-670.4980,-80.4323,-424.7317,-154.4450,-426.6468,358.8612,-200.3999,104.3305,-177.2734,-42.8865,-506.1103,225.0432,-384.2924,-83.9850
314.7905,-172.5839,238.4471,-167.1409,180.4788,-641.2741,-81.1798,-396.6617,-152.4992,-427.3616,303.4261,-252.0560,88.3153,-216.2472,-65.6340,-479.1071,243.3413,-315.6513,-42.3998
299.9338,-171.4847,244.9082,-211.0648,190.4558,-663.0027,-65.6304,-411.8494,-99.0532,-442.9255,213.6920,-308.7434,89.4228,-289.1442,-45.3745,-477.1319,217.6406,-312.3107,-14.3350
240.0195,-200.2645,198.6797,-242.0505,114.1811,-646.8688,-74.6815,-396.8473,-68.1663,-405.6780,233.8886,-285.0397,87.0188,-272.2472,-20.9439,-463.6933,164.4698,-288.3316,13.7004
221.8028,-178.1401,163.5577,-202.4059,51.4717,-554.2383,-79.6854,-316.2025,-76.9232,-338.3207,289.2384,-212.2021,87.4826,-171.4206,-0.1630,-404.3393,143.4961,-166.4831,45.5638
248.8820,-102.0299,205.3167,-132.5401,108.7315,-458.1018,-0.1739,-235.9483,-41.6956,-311.2658,272.5432,-164.3203,138.0869,-106.2839,49.5282,-333.4354,189.3307,-46.8339,89.1310
280.7661,-33.7582,276.3728,-90.6866,222.4653,-415.8186,113.8295,-213.4048,26.5859,-285.2691,233.2422,-147.1657,209.3429,-99.8275,97.7725,-315.4684,236.1517,-28.2873,136.2831
296.3144,-1.9436,278.2422,-77.6064,256.0561,-382.3131,141.3411,-201.0218,57.0037,-194.3590,236.2885,-131.2379,214.8524,-86.1417,89.9130,-323.6812,213.3272,-40.5121,158.8553
288.2250,-5.9596,219.5723,-79.5503,210.0103,-302.5680,97.3034,-137.4426,70.1193,-94.5621,262.2940,-105.0016,167.8247,-42.7294,50.3088,-272.7850,154.4741,-7.2408,147.4357
285.6764,-34.9090,199.0785,-95.4565,205.9451,-207.5002,95.7330,-57.9496,109.4797,-59.4016,284.4445,-71.2043,153.4794,5.7480,35.2569,-187.2873,138.0758,35.2180,158.1505
319.4357,-44.7185,240.3599,-100.8095,272.6233,-154.4784,192.3393,-25.6861,189.0536,-51.4585,268.4859,-56.4275,171.9809,34.6771,49.0593,-155.6192,182.8527,61.5214,262.3480
334.2221,-8.4762,263.9331,-67.4294,305.0617,-126.1810,337.9246,-27.1010,304.2435,-24.4879,179.4254,-81.1020,166.0424,43.3676,55.7621,-151.3405,237.9793,97.3190,403.2244
283.1318,32.8021,235.6630,-12.6513,269.6467,-61.9363,409.7895,-23.4697,361.6129,-19.0482,90.5761,-100.0993,140.3548,61.4419,43.9818,-118.6258,255.1350,138.3123,429.4293
254.1904,48.4196,216.4293,31.9159,259.4718,31.2172,348.5673,-25.1163,296.8127,-55.3694,105.9437,-65.2485,127.5088,95.8818,62.0441,-114.4440,250.0651,164.6413,335.8429
312.2252,71.2837,236.9406,61.9199,299.7951,84.8677,258.6924,-35.0521,240.4817,-62.4600,164.1513,-12.3035,114.9233,112.9749,129.3136,-157.2995,248.7742,168.1479,269.6778
358.3057,113.4472,247.2810,70.1646,301.5465,89.0566,227.7803,-14.1343,275.4236,-13.0676,150.2090,13.6877,87.1296,111.3182,156.9324,-143.3265,215.5297,130.2527,269.2647
323.4564,132.8696,216.5695,42.2051,237.2434,99.8559,196.6697,33.7542,270.8020,9.1917,107.7402,34.0080,69.5292,111.9463,101.3887,-60.2660,138.9112,63.8408,252.0839
285.9849,121.8022,172.3627,9.2919,181.7926,118.2410,154.6569,47.2364,198.7739,-21.5216,109.5193,59.7947,82.6336,89.0297,67.4753,-25.1885,94.8989,18.1561,215.9876
280.4539,118.2785,134.5735,18.9728,173.3917,94.4438,176.7736,15.5991,198.5530,-13.6775,102.2525,53.2835,97.6131,32.1692,92.3129,-57.8508,103.2436,-8.9869,204.0335
246.3260,123.9693,101.4034,41.8348,167.1080,51.3029,212.8751,-8.6922,247.3816,39.8776,58.4945,15.9352,76.8902,-10.5258,73.7250,-75.6986,80.5951,-43.1400,190.5896
198.9207,118.0615,84.2535,11.1566,128.0101,48.7156,172.8231,-14.7998,218.3549,25.5314,44.2609,4.9955,39.8424,-39.7900,20.3097,-73.1198,18.7206,-55.1312,162.2632
201.8346,115.6680,91.8782,-58.6000,92.2502,58.3408,116.1813,-38.5575,142.2142,-62.2229,56.5244,29.1153,32.7069,-98.8669,36.1292,-91.4853,-1.9176,-41.3888,148.9803
223.0353,115.2136,114.0308,-105.4937,108.7574,34.9449,94.4514,-68.6042,86.2682,-98.8786,40.7287,28.3066,46.9541,-144.8522,71.3223,-105.3869,17.6595,-50.5207,148.1564
220.9122,84.2726,150.5914,-116.2783,159.4244,33.0385,61.9802,-56.4043,40.5687,-44.8934,34.7833,-2.6272,47.4600,-117.6631,36.0390,-81.7362,29.9023,-52.2833,153.1382
247.4536,70.0895,208.5392,-83.6582,200.0384,104.8256,46.1234,-11.4592,33.2921,28.9379,86.2663,20.2396,47.1326,-71.1868,8.9867,-49.2902,63.5454,22.1803,167.0727
320.0720,151.7078,263.8512,15.6547,236.5569,201.4444,91.5496,16.8667,80.5143,78.1564,144.7830,112.2832,64.3122,-62.6412,56.1777,-33.7078,131.0466,121.4671,163.1261
351.0809,252.6067,275.7487,117.8604,268.3911,275.0909,128.2124,35.2913,119.4851,101.8156,162.0069,165.3342,75.2889,-48.6543,93.8763,-11.5663,163.4299,159.5044,165.0520
302.0225,242.2708,244.2355,120.2118,247.2388,330.4773,134.0552,72.0147,142.7464,95.9734,150.7706,136.1860,73.9798,-10.5284,85.1974,27.0891,150.1585,157.1703,238.5809
256.1472,184.7230,222.4569,63.0007,192.5595,346.7635,177.2063,84.2690,183.9660,61.5234,123.8665,110.1385,81.7486,-6.3213,95.9024,42.6388,165.1275,152.5536,323.3293
276.3473,206.9257,249.7409,55.9668,199.0595,306.1685,226.2507,35.4625,206.9651,26.3529,96.5264,117.3328,89.5076,-42.1089,120.6118,18.7534,210.7612,131.6455,327.2534
311.7848,247.1117,280.0746,72.0972,258.5561,262.3859,223.4019,-5.5537,204.9302,35.0172,89.6764,107.9374,84.9226,-60.9506,89.5560,-0.9960,207.7797,104.8688,323.2734
289.9908,204.8266,235.9974,36.3468,265.9234,259.8039,227.2856,13.1803,222.9982,78.8982,84.7898,98.2540,81.6722,-54.3327,19.9646,-0.9391,144.0462,95.2260,363.1565
222.5463,141.7160,145.6734,-0.4032,217.7364,280.1818,253.6096,26.7996,218.5562,79.2502,70.7673,116.3585,70.4174,-50.5165,2.7146,-16.4387,99.7011,84.4346,340.7491
176.7222,130.6811,116.3186,26.2835,199.6284,319.4734,229.4504,1.6483,146.9322,25.6727,83.9116,112.0754,37.1842,-41.3624,61.7109,-33.7963,123.0051,71.3233,257.8614
180.1291,136.0033,152.6462,71.0320,214.5982,385.7458,181.6065,2.3548,96.3405,3.5819,119.3074,82.9492,13.0066,-13.0501,118.3331,-8.6872,172.7855,92.8261,255.0037
199.0834,131.8984,163.3157,98.2264,211.7228,440.1878,187.8165,33.7943,132.1477,11.4429,126.1566,89.0107,16.6098,11.4078,115.7628,28.0317,204.4565,152.6297,317.3192
204.5385,131.8508,149.0761,141.5517,213.8787,452.3650,219.2096,30.7018,183.4429,-18.4669,116.3802,102.2469,27.3254,10.0221,99.5923,38.4835,236.5846,205.8963,330.9185
208.8060,127.4780,180.9503,189.2811,260.8284,434.3871,226.4376,3.7969,182.5685,-34.6850,131.9240,81.1334,43.4279,-7.7197,111.0824,57.9694,279.2466,202.0074,308.1078
221.3466,129.4253,226.3626,187.4349,302.7789,380.5583,216.0802,-3.6861,149.9874,21.2851,152.5976,88.3024,62.3195,-23.7867,115.8942,82.0822,285.1744,141.5286,283.0135
225.7479,162.4490,214.8942,156.5910,280.4060,297.1334,188.2990,-12.5488,130.7718,74.5045,157.9402,136.8110,56.0733,-33.4510,108.2216,52.4701,250.6405,108.8492,228.2755
230.5209,193.9705,193.4676,159.5380,242.0582,245.7830,146.7431,-26.2445,126.6380,93.1183,179.8802,146.9476,37.8678,-43.5057,121.0300,7.7397,249.7886,154.4712,167.9066
273.1960,192.3343,222.0818,185.4105,257.1935,238.0102,104.7279,-14.5690,89.4653,120.0299,224.3866,133.0786,38.3490,-55.4865,116.9560,25.5964,291.7307,183.4517,129.6723
341.4213,197.1079,252.4488,181.7175,279.0291,216.3398,46.1536,-3.8982,14.2234,114.8012,249.0759,158.7132,33.7787,-47.9737,64.0273,65.3843,288.6074,133.9210,77.8872
377.0373,258.2570,244.6065,166.8820,228.2211,205.8044,-12.7359,-1.4053,-18.3407,93.5233,234.2814,191.7748,18.2035,4.3228,44.3402,75.4743,215.5485,124.6654,22.7691
377.0477,395.6398,224.9371,208.0227,136.8658,281.6999,-28.4815,65.4255,13.4437,190.2124,206.3315,232.3114,26.3427,82.8496,99.8276,101.0086,146.4096,206.9996,-2.3557
390.6425,588.6575,186.1856,290.0539,79.2418,381.3110,-42.1005,173.8852,24.8423,334.2982,207.3871,343.3937,29.2738,126.2966,127.3590,139.1125,127.2634,213.9162,-32.1968
432.6934,736.0567,131.3672,307.3994,67.6515,375.0748,-78.5333,184.0642,-2.5419,316.9006,249.7210,450.0251,-3.6016,100.0014,70.6576,113.3460,152.2583,73.5886,-57.9313
493.9982,753.7932,153.2705,231.9860,107.3249,288.5615,-33.4777,96.9756,5.9146,219.5082,284.2365,442.2395,-2.1558,47.6012,27.0882,57.3642,214.3530,-28.6225,-17.0578
565.0182,718.3875,269.0905,189.4865,199.1620,258.4561,105.5375,69.5015,66.9524,234.3519,266.4892,424.6983,56.4857,47.5666,78.1332,81.2402,277.8513,26.7127,46.7793
588.7717,735.4628,329.1470,269.6190,259.7579,318.6054,176.9408,135.9365,132.9097,266.3820,240.2288,514.3708,84.7353,111.3088,174.7151,163.2714,283.7750,112.0784,65.9677
520.1064,750.2506,257.3562,358.5741,216.6938,367.4481,153.5418,180.1537,174.1572,192.3081,259.4818,584.1039,77.1046,163.9158,229.0249,193.2489,231.7617,105.9169,87.8400
428.4073,675.1609,168.1793,312.9498,135.2849,331.0220,173.4512,168.2593,184.0442,120.2562,270.1217,510.8716,98.9685,163.7060,218.6361,169.9679,175.1644,64.7201,132.5102
379.1211,562.5425,140.2323,211.3831,100.3223,275.6327,217.4181,176.1982,171.0898,112.4717,186.0052,414.3953,106.1188,169.0574,177.8957,172.6952,148.9926,71.8452,133.8812
307.3755,492.4164,118.0498,225.3515,96.1360,294.6392,152.5362,213.4556,132.9764,94.4195,36.5268,422.5694,46.6023,208.7707,137.2170,198.5801,154.0572,103.5963,87.1030
165.7893,430.8055,72.8035,313.5615,91.7561,330.7668,20.4610,203.9755,39.9942,69.8432,-75.1584,453.0104,-8.0082,201.0110,105.8626,188.3014,151.0705,101.8287,15.1676
22.5668,308.0507,29.3841,298.2492,78.8123,268.2471,-68.6421,138.5585,-84.8779,79.7389,-128.0713,381.6092,-25.6109,113.8362,85.1995,161.1680,78.8562,62.8565,-116.3829
-87.8897,139.9813,-33.7356,179.7614,12.9380,152.6978,-152.0618,102.8738,-167.6599,100.3716,-187.5684,241.7280,-73.5747,50.6048,55.5530,174.3953,-44.0374,2.8351,-280.4408
-196.7554,1.4834,-130.5232,101.7369,-121.6445,100.8046,-266.7030,127.5536,-206.6647,124.1978,-263.8816,142.9495,-143.5078,60.8734,-0.6483,202.3179,-122.1892,-83.0158,-377.3704
-283.4233,-79.9944,-201.9027,83.5474,-240.9197,86.8127,-325.6677,139.3276,-237.8417,140.7637,-290.5050,99.3573,-161.7757,58.8661,-41.0577,199.3707,-146.5601,-174.8032,-395.8681
-330.7184,-144.6121,-222.3689,43.6377,-278.6078,39.6283,-308.8077,99.9945,-242.9150,111.0000,-262.2152,48.4991,-140.4489,4.1284,-25.6138,194.0715,-197.2440,-224.9601,-400.0887
-391.7468,-217.8803,-251.6049,-25.8909,-288.4035,-18.3858,-322.6571,50.7359,-233.0708,70.5793,-256.8318,-12.1158,-132.3535,-54.7853,-11.9178,192.6882,-272.4335,-240.8479,-418.2689
-460.1284,-283.7897,-314.4271,-98.7447,-334.1634,-86.6065,-386.0930,-4.9036,-253.1915,55.9646,-292.1610,-36.0441,-133.6197,-116.0601,-60.2231,133.8680,-305.0396,-267.2965,-440.1939
-452.9830,-338.3612,-348.4133,-171.7778,-364.0025,-196.5509,-398.5629,-93.1679,-266.4731,-2.2150,-298.8258,-41.6708,-128.1265,-187.2805,-117.9747,29.5700,-293.6576,-283.5992,-421.5306
-377.2099,-383.9418,-308.4838,-201.7104,-300.1830,-263.5502,-338.3824,-161.9438,-238.4819,-104.1017,-245.4473,-80.8178,-125.6973,-206.2622,-113.4198,-34.1616,-259.0919,-247.8602,-321.6030
-323.0256,-403.2772,-239.3177,-166.6951,-200.2320,-209.8687,-272.4265,-156.8926,-220.9490,-137.0659,-176.3801,-138.9865,-126.5481,-177.8093,-61.2484,-57.8967,-201.7940,-203.4250,-197.5516
-317.7985,-405.7759,-209.5912,-148.8829,-178.8598,-152.6010,-209.2740,-134.8801,-215.8320,-110.7221,-141.1724,-176.5455,-111.1788,-208.9949,-14.4460,-101.7160,-171.8071,-206.1312,-125.3362
-325.3329,-423.9124,-214.1043,-194.9310,-203.6454,-203.7267,-130.8423,-152.9734,-182.5705,-131.7633,-152.4618,-202.2911,-75.7050,-300.1505,-1.9780,-158.0883,-202.6339,-222.3562,-63.4984
-322.4309,-449.8034,-199.2694,-241.7397,-172.0010,-269.5558,-78.7659,-171.7879,-166.9578,-193.8278,-184.1921,-238.2246,-58.6177,-333.7688,-18.2571,-195.6060,-224.6419,-204.0970,33.8038
-310.2349,-466.3607,-171.1875,-263.8191,-124.9106,-247.0659,-70.1978,-163.5195,-189.2144,-238.3905,-199.9529,-274.5511,-90.4674,-290.5528,-35.8529,-213.7261,-202.9964,-166.0648,105.3106
-297.3708,-480.9476,-171.3384,-285.2926,-136.3278,-184.6854,-57.6693,-155.8768,-181.2403,-256.4695,-190.9569,-282.0448,-121.0867,-245.0793,-45.7398,-199.3739,-192.5588,-134.6247,115.5072
-277.5308,-469.9171,-166.2746,-269.7682,-133.7254,-144.5829,-41.6686,-144.4305,-161.3970,-228.4032,-156.9221,-245.3061,-94.2511,-215.2326,-54.3727,-156.4111,-184.3219,-116.4842,109.3055
-240.5427,-413.4127,-118.6560,-203.6021,-73.5756,-123.2209,-67.5040,-114.0464,-194.6895,-159.5731,-96.9850,-194.9440,-59.6307,-192.3355,-46.6494,-134.7554,-139.0835,-116.8268,94.6198
-212.6282,-368.9433,-94.5649,-167.8134,-56.8834,-121.7433,-106.8231,-96.6875,-220.6876,-123.2004,-55.0184,-181.6738,-73.2188,-193.7946,-18.8409,-141.2700,-110.6606,-123.7420,51.7289
-205.6720,-373.0791,-118.1833,-194.9514,-98.1613,-147.1075,-95.5926,-102.9314,-183.8354,-141.5781,-70.1469,-211.1055,-85.1976,-208.0451,4.8354,-134.0309,-114.2998,-124.3172,7.0527
-180.0475,-378.5388,-94.1933,-231.3474,-100.2123,-189.2884,-54.6660,-110.8773,-145.7324,-170.0106,-96.2851,-259.7813,-59.6890,-226.2250,20.1489,-120.2644,-86.2737,-152.5732,-25.1938
-160.5816,-373.3897,-39.8515,-260.8596,-101.7234,-249.6584,-49.8010,-149.3771,-121.3935,-196.3032,-99.4806,-314.3369,-44.4132,-281.5092,19.9610,-127.9675,-76.9660,-232.4402,-69.7137
-216.4125,-378.6326,-91.0205,-282.7455,-187.0816,-318.7161,-71.8247,-233.3794,-58.5370,-209.9029,-120.4008,-335.5423,-44.7140,-341.1394,-11.2997,-136.0175,-152.6598,-296.6526,-115.3721
-260.4563,-342.0590,-178.3997,-242.8669,-245.4891,-344.6420,-54.7497,-274.0487,12.8296,-183.1138,-132.5926,-282.2510,-18.9092,-311.3646,-18.4489,-128.1131,-180.9911,-269.8044,-128.5913
-165.9879,-240.8418,-114.9790,-129.0113,-162.7528,-292.8408,-5.6382,-219.5358,22.4603,-147.7842,-59.8730,-197.7745,11.4097,-212.1247,36.5773,-119.3488,-76.5692,-187.1815,-125.7672
-48.6397,-169.2316,9.4599,-22.3657,-53.6630,-200.4480,-7.4511,-156.0542,-22.6946,-144.3310,32.5786,-148.3830,16.1888,-145.3077,53.8871,-102.0945,-0.4512,-133.6671,-141.9022
-65.5260,-165.6149,-3.3468,16.8581,-41.9921,-134.2108,-52.1420,-142.8304,-59.9235,-146.7195,43.2649,-116.6598,30.0280,-110.1653,-8.5368,-64.3246,-29.6994,-124.5301,-169.0529
-109.6618,-148.3579,-64.0859,20.2538,-64.9982,-111.1797,-36.4545,-130.1600,-48.7851,-143.3178,35.1680,-67.9217,60.3653,-53.2682,-25.5429,-30.1299,-26.5365,-121.8058,-185.6508
-60.6648,-89.5437,-28.5927,44.1831,-60.8671,-80.4782,13.4023,-96.7075,-32.0626,-152.8463,66.8346,-22.7822,55.7115,-1.3151,20.4611,-16.5648,30.0250,-101.0714,-202.8885
-25.9286,-43.8506,-8.8323,78.1651,-85.1892,-8.5928,-32.9425,-66.1401,-80.0273,-140.9134,60.4591,-0.2034,9.4572,19.0046,7.4667,-4.8132,26.6899,-53.3045,-232.6775
-63.3526,-31.3058,-75.3473,65.6837,-140.0920,51.7379,-128.6397,-19.3709,-143.3875,-76.1724,19.8429,4.4624,-23.2384,45.3152,-35.0280,25.1067,-4.1392,14.5985,-239.9515
-55.9351,-36.3874,-71.1244,32.7960,-115.9369,49.9486,-119.9255,38.9420,-121.7000,-4.3014,45.8732,-0.7329,-9.8728,77.8542,-7.6559,68.6616,36.2313,68.4082,-180.8540
12.6562,-37.7201,42.9656,76.9925,17.8698,30.7663,-42.3232,51.7091,-54.9693,38.2968,99.3589,14.7267,26.1120,77.8241,23.5115,99.6872,113.7456,95.7011,-74.6964
47.3400,-2.7445,109.0123,178.5666,136.4526,53.8332,-15.3494,47.6779,-33.6054,72.1538,101.8900,63.9183,46.3818,71.4101,-1.9222,102.4268,166.3462,139.1679,10.8210
76.3112,63.9096,105.0606,224.5098,151.7034,113.0456,-9.9071,111.0895,-38.1117,103.7948,132.9435,110.7161,53.5357,107.4797,-16.0559,99.3746,197.1760,221.7431,35.4893
175.1825,141.0537,143.7194,234.8108,134.2444,182.6560,27.9940,201.4578,-31.2181,113.4536,229.0601,166.0835,78.1992,164.7059,-5.4731,109.7489,207.4769,294.6661,20.6375
292.5478,269.4485,211.3954,305.7455,151.1676,236.8441,60.6536,226.3158,-26.9054,104.7233,274.5232,275.1182,104.2988,201.6138,-4.0240,122.8421,210.0560,317.6592,17.1108
362.9532,454.2045,232.6229,399.7726,147.7483,245.7033,66.1549,218.3383,-31.3435,108.1074,267.9327,366.6092,93.7941,221.4847,9.7337,150.8339,245.2711,324.3298,37.6241
425.8793,589.5815,248.7603,449.6509,108.8597,238.9586,53.8227,245.5220,-52.2894,141.6538,328.2072,357.5731,83.1259,245.8300,12.2390,207.6523,313.9870,361.1286,43.4225
532.3992,659.6519,326.1174,508.3234,143.5585,284.5278,41.0316,284.0634,-70.8665,183.5009,419.8139,366.8294,126.4687,290.4596,-24.1858,235.2133,397.5455,425.0567,32.8612
661.7245,798.8057,428.9539,610.4189,278.2304,373.2246,81.4359,307.1658,-23.4419,211.7986,444.5078,527.1715,181.6600,354.7001,-15.4194,197.7149,487.3081,491.4910,59.5606
747.3949,1008.7405,476.7998,697.3402,369.0259,447.6332,142.6106,341.7986,39.7186,254.4192,462.2121,715.6145,184.3016,408.5804,46.1403,185.0280,527.8458,547.0294,115.3882
744.8759,1118.9585,443.4853,747.1493,333.9620,503.3249,105.4210,395.7921,2.6348,328.9593,516.6528,767.6072,158.4574,443.7141,41.1458,263.2925,484.1950,583.3004,149.2080
701.1373,1106.8235,389.8987,789.4446,282.3919,559.3778,44.8879,460.0029,-39.4192,394.2649,507.6984,757.4968,159.7295,507.1847,-2.0994,353.4458,451.2964,611.8058,211.0758
709.1860,1115.4016,406.7166,834.7137,328.4261,626.1605,147.6773,545.5765,64.7168,436.5597,426.3318,808.0706,198.6326,611.2406,31.4227,387.1971,509.9096,673.5284,357.4013
759.0586,1151.8188,493.3231,882.6201,428.0907,719.9434,318.7566,633.6821,200.6411,480.5199,391.2554,856.9774,249.4637,683.6331,82.6008,404.0314,574.1514,764.0760,473.7540
740.8837,1100.2814,543.6178,899.2708,467.2006,787.8574,345.1661,665.0179,231.4394,493.2556,394.3028,816.3537,265.4542,673.8876,78.1194,420.4840,545.2639,784.4148,437.0505
615.0478,973.8658,488.1094,822.6451,416.1502,719.4618,288.6465,623.2966,248.5642,449.6818,327.5468,737.6271,221.3154,613.9176,83.7075,398.2961,462.5067,670.5314,321.8417
459.4841,869.0578,377.6119,680.8707,341.8049,548.1281,286.9231,563.6109,302.0698,427.5955,208.5202,674.3107,165.8683,543.0285,107.1484,357.2444,392.0528,515.7987,248.1141
347.9639,773.1019,299.1111,572.1335,304.3664,447.1198,300.3145,538.6039,315.2630,466.9082,128.6275,583.9768,157.5600,470.9821,94.8865,346.1376,326.9586,432.0699,210.5018
273.4700,629.7418,265.1947,508.6382,293.2478,456.7240,299.2593,527.8622,314.4452,481.6821,99.2319,452.8076,172.2141,407.0815,84.2789,333.5311,249.6851,383.7369,166.4850
183.1719,467.1127,214.8967,432.3734,262.3603,451.5282,308.8560,474.4841,339.9293,424.6859,84.5541,331.8384,155.4444,353.6339,89.0179,265.6310,164.6029,307.5367,109.7559
51.2861,324.3108,117.3847,320.9460,190.0912,384.4849,278.6605,397.3348,320.3923,357.8843,49.3280,218.2040,112.1081,308.0000,61.9587,182.6158,65.9644,250.7663,45.0504
-78.9004,192.6122,33.8427,193.3821,99.8388,331.5332,213.8640,381.8823,269.3093,332.7061,-38.1847,83.5717,79.6862,286.2314,44.7208,166.0624,-35.2113,241.6557,5.3540
-148.4672,87.3049,21.4570,109.1400,36.5397,318.8234,202.6659,423.6822,273.1888,345.2256,-142.2885,-6.5226,64.2116,284.0153,63.5958,205.1170,-88.0893,202.2909,24.7466
-170.2407,32.3959,29.5220,112.4124,14.7011,282.5287,209.6647,414.8786,281.2813,361.5198,-181.8466,5.8952,44.3265,257.6647,34.1124,212.1000,-80.4830,105.1536,67.7013
-198.6800,-14.8103,-14.2977,119.0442,2.3633,182.5569,167.1128,322.1812,227.9615,332.6956,-159.8499,30.1239,15.9814,202.8073,-23.0148,165.3477,-81.8583,31.3404,74.5762
-240.4591,-95.5371,-80.6008,35.9111,-24.0875,51.6463,137.6589,219.5768,175.5759,259.5769,-143.9839,-29.9390,0.7933,161.9602,9.5745,132.9925,-136.5060,22.4003,35.6626
-272.0966,-176.8313,-107.3456,-60.6303,-48.7513,-75.3127,129.0909,142.3901,155.8982,197.4903,-147.7655,-116.9753,0.9759,129.3115,84.8998,137.3074,-194.9388,35.2204,-16.6947
-293.7922,-231.2364,-114.8232,-96.3462,-59.1954,-198.8499,60.5566,71.5814,129.9365,160.1575,-147.6653,-147.9283,-9.7057,71.5347,83.3838,120.8126,-216.2740,28.2770,-23.4426
-301.4653,-271.7598,-147.3572,-146.1025,-69.4989,-270.7209,-13.6747,28.0054,95.8052,129.0916,-141.7161,-144.5435,-27.7172,22.0174,33.0479,72.4921,-226.1926,-17.2112,42.3366
-283.6890,-285.6089,-180.3465,-221.7720,-93.5606,-194.1245,-12.5591,38.3790,43.0502,117.4089,-133.9476,-149.9927,-27.2712,24.6953,0.5234,47.9454,-229.3394,-98.6026,100.8318
-274.6077,-268.3852,-180.8327,-228.5216,-130.2147,-11.8269,-19.7734,59.5086,-44.2883,113.3751,-137.1185,-161.0017,-32.9088,47.5135,-18.6683,58.2175,-200.4563,-165.3950,78.6811
-307.5791,-275.3429,-179.2263,-193.1694,-160.3899,84.8177,-84.4016,38.5820,-100.3510,73.6330,-161.9246,-167.7277,-77.5325,49.0548,-27.3433,69.6451,-167.8463,-172.5132,43.1389
-334.3670,-322.4338,-199.5463,-204.4970,-162.2376,40.2726,-122.3807,-10.2400,-95.1032,22.0423,-168.6172,-166.6131,-116.7255,36.3357,-29.4415,75.6620,-179.4785,-158.3785,58.5628
-307.3627,-344.2599,-213.8108,-228.1747,-158.7700,-1.8009,-133.9480,-48.9953,-121.0949,14.4940,-131.0266,-154.1001,-107.1486,19.6151,-45.9622,72.8935,-231.6152,-185.4390,59.9366
-281.3500,-311.5453,-227.9193,-219.1322,-200.0414,40.2257,-188.4835,-68.2595,-211.9436,37.2245,-118.3355,-132.8848,-99.9665,15.1947,-68.4310,52.4170,-298.9720,-218.4133,18.3591
-314.0551,-256.8143,-279.1565,-189.5826,-264.0995,114.7788,-237.6684,-62.4170,-271.6345,41.4518,-176.4245,-101.2556,-138.6886,56.4009,-91.8554,47.5556,-339.0265,-157.3634,16.0653
-347.8407,-201.9562,-309.2234,-105.5002,-263.8770,172.6755,-203.2712,-30.9454,-236.5134,1.4439,-216.4243,-75.1630,-161.2756,108.7873,-115.1178,74.0028,-286.3402,-13.2690,69.6392
-299.4768,-177.8718,-226.6518,12.5649,-184.2108,164.3074,-118.0265,-17.0239,-138.3273,-61.8516,-154.3422,-102.4541,-107.9065,79.2237,-88.1140,73.7457,-164.8365,64.3928,106.0199
-199.2435,-219.6010,-105.1998,20.3093,-114.4950,49.6620,-55.8796,-49.3748,-46.6560,-58.6959,-56.1389,-177.2653,-35.7576,-25.0555,-15.3940,32.1788,-105.9143,7.9054,111.3735
-155.0750,-278.2891,-93.8312,-98.0957,-121.1709,-86.9893,-52.1649,-73.6255,-23.6959,42.9412,-39.7349,-215.8187,-36.1689,-93.1545,-0.4748,14.2504,-158.8324,-71.1172,108.0862
-200.9917,-281.6491,-165.4706,-175.6173,-168.8678,-134.7870,-92.0191,-59.4223,-60.4472,98.4983,-103.4607,-190.4193,-90.9554,-95.6697,-52.0323,11.5495,-227.8872,-94.8464,66.9489
-245.2012,-262.7041,-191.3389,-154.2399,-188.9825,-133.0554,-117.1729,-79.6210,-82.9640,7.9453,-134.2249,-168.1810,-98.7204,-113.5204,-68.1087,-43.3759,-227.9739,-119.2725,-17.8453
-208.8786,-271.9055,-170.9787,-122.8451,-173.1909,-157.9038,-100.9179,-151.6135,-66.4663,-96.5529,-84.4281,-183.5470,-36.3280,-176.5689,-40.8665,-105.1736,-161.1428,-151.9277,-91.3104
-148.5629,-259.3662,-169.2494,-100.8048,-162.8755,-185.3368,-83.1224,-175.8683,-51.8777,-106.0048,-41.0933,-200.0815,8.6286,-218.2157,-27.2176,-89.3322,-72.8844,-128.8595,-142.1490
-136.5956,-188.0244,-160.6576,-51.1912,-169.9259,-194.0716,-87.4053,-138.9730,-54.7317,-105.6460,-51.6054,-190.4029,-10.7135,-199.5754,-16.7153,-49.6998,-19.9139,-83.6880,-204.0737
-125.3817,-133.5785,-111.0920,-13.0052,-169.3517,-208.9044,-98.9492,-135.7601,-57.6952,-138.6585,-41.5693,-166.0816,-45.6058,-173.6624,-8.7589,-72.2051,-22.8424,-87.6259,-254.5710
-76.9538,-166.9073,-69.7254,-53.8843,-161.0445,-221.6313,-116.5670,-160.8236,-61.4688,-139.7497,-3.6984,-153.2967,-70.0005,-192.6282,-41.9886,-118.9105,-47.6252,-96.6582,-255.1564
-63.2429,-243.2136,-68.8384,-155.6648,-155.3178,-224.0783,-132.3363,-148.8400,-79.9563,-138.1166,-27.9692,-155.9135,-101.8853,-214.9931,-95.2197,-131.8646,-61.9289,-45.2857,-241.7496
-92.6775,-261.0107,-57.5113,-202.5614,-115.3971,-229.8668,-121.4827,-138.5183,-108.5217,-194.5141,-80.1938,-139.8943,-113.8167,-176.2141,-122.7944,-137.8190,-38.6281,43.9563,-243.2800
-58.8924,-184.3746,7.8833,-108.2557,-13.8788,-200.2690,-96.4510,-155.3456,-119.3913,-227.5425,-45.9504,-102.8389,-73.3030,-109.3543,-118.5134,-161.1605,51.5445,117.9822,-201.0470
43.2931,-89.7940,92.7505,39.9433,90.0802,-100.8277,-82.4182,-120.6535,-94.5766,-161.8517,32.8954,-100.8223,-20.1718,-82.0489,-76.9422,-169.0812,153.1930,129.3897,-89.3334
98.0313,-68.9521,133.5086,84.1067,124.2544,3.5118,-59.7056,-28.8810,-58.9738,-75.1538,50.8636,-128.6173,10.4364,-62.5271,-15.5976,-137.7868,157.8275,70.0766,0.0379
71.9891,-101.3059,113.6970,30.0596,96.2370,46.6103,-13.9523,30.3314,-54.9624,-43.5117,28.9862,-110.7346,40.9937,1.8218,11.6490,-90.2170,81.4069,23.3755,-1.0108
23.0351,-107.9862,66.7394,-2.1489,48.5626,47.4134,20.1340,52.6622,-91.0488,-29.9024,18.2966,-68.1203,71.1955,51.0728,5.9199,-62.8062,34.4748,42.5270,-32.7128
-6.3524,-85.1654,29.0580,14.7135,3.6668,35.1533,22.5904,86.4616,-130.5558,11.5434,24.5452,-86.7757,71.8274,24.5711,6.4253,-61.7847,36.0969,49.5743,-25.6665
19.7460,-61.0141,19.6160,35.8316,-17.2772,15.1500,14.8501,104.7109,-132.3521,60.5712,71.1228,-120.4851,55.8587,-9.3717,4.4935,-62.5601,30.2883,5.3994,-15.5929
94.6215,-7.1520,32.0764,46.5568,-13.6925,-4.5263,-10.5759,75.6167,-122.1940,71.0313,135.9940,-66.5919,46.8096,12.0959,-5.9944,-58.0970,-1.9465,-15.4406,-77.4928
129.8886,84.2212,28.1741,43.3227,-32.4704,-25.6173,-93.4035,31.3056,-169.5249,32.8538,144.5425,25.5282,32.9858,32.5650,-7.4177,-64.0644,-49.5025,0.8091,-203.2187
106.6122,154.8394,-3.3249,38.6660,-87.9673,-36.0667,-201.7947,6.9532,-242.2963,-8.3273,125.2758,52.6662,14.8201,13.6772,-18.6278,-68.2799,-77.0417,12.1367,-289.8842
123.1164,195.3720,-9.7313,66.4099,-115.7645,-1.8628,-232.8119,16.8342,-228.4502,-11.3782,145.4884,50.0001,9.9209,16.7757,-33.1033,-51.2797,-37.4783,48.4554,-256.5282
193.8395,263.6209,20.7428,103.5140,-86.3433,50.1785,-165.8491,59.6917,-141.3554,9.9777,153.1328,95.2725,5.4144,74.2793,-0.5436,-35.2139,34.8014,107.7795,-139.0942
241.9932,361.2272,26.4317,104.0648,-55.6295,63.7064,-90.4580,112.5575,-84.7309,36.0657,130.6297,159.8466,-7.5826,139.7403,34.5653,-31.0000,59.9184,111.5403,-27.9946
296.7684,440.9149,27.6861,108.4939,-35.5107,79.8613,-51.9399,170.5343,-57.5353,65.0312,189.1596,197.3108,3.1730,188.5609,-9.0971,-8.7825,59.2339,87.7714,35.6805
423.8558,506.8283,114.2341,163.1438,32.0478,152.2286,-23.1499,235.1825,-23.7340,71.5991,330.7698,240.1612,48.0747,233.0656,-56.3527,23.1173,101.6101,131.0360,58.2552
548.2186,569.6056,232.1490,213.3796,128.7967,209.1227,-5.0589,257.4702,-8.9862,44.0158,414.5870,305.6776,87.9583,260.8265,4.5884,23.3230,163.1628,196.2073,68.1530
573.2631,582.0522,250.7853,214.3222,172.6271,192.3674,3.1447,220.1691,5.2374,28.6101,407.0406,339.2172,103.6348,265.8627,104.8852,10.6004,184.8456,206.6953,97.8338
527.5593,536.5340,209.0112,224.9228,176.9466,180.4339,34.0893,206.9933,28.9250,51.5645,384.8816,320.4870,117.0769,284.9819,115.6727,29.7382,164.2236,223.2636,117.7407
467.4195,501.2962,207.1915,292.3789,200.1038,212.8518,53.6096,252.0179,-20.5961,75.6817,370.2614,290.3118,134.6122,321.3586,53.5403,63.1184,116.8650,278.2237,68.8240
393.9805,471.2262,184.0155,346.0506,193.1072,189.5348,9.0787,262.1054,-104.0220,64.2550,343.5059,244.0276,134.3044,315.3196,26.7486,69.4556,48.6771,256.0791,-9.3113
292.9240,357.0038,63.6990,289.9467,93.5125,61.8765,-37.4585,187.3473,-73.1755,3.5872,282.5141,155.4403,110.3206,256.2654,70.6868,45.5672,-27.9361,106.0951,-44.6672
154.3276,188.9145,-70.1685,165.2159,-31.3649,-69.3159,-27.9823,100.4204,1.5643,-80.9831,160.9026,83.7177,83.3987,217.0230,109.1326,12.3230,-93.3197,-36.1057,-68.2364
1.1729,109.7057,-135.4553,111.2654,-93.9070,-127.4533,-20.1957,65.4554,-15.1411,-95.8402,21.7570,83.2147,63.8205,221.6362,75.0749,-2.0477,-115.6705,-64.1814,-102.9138
-104.7099,114.0129,-177.3552,132.8185,-116.5187,-173.1289,-42.0420,57.0890,-8.9403,-14.3252,-57.5972,89.2545,34.8416,202.3653,15.5070,11.3129,-98.6558,-71.2717,-102.0196
-166.8686,43.1068,-249.6288,82.3511,-161.9156,-277.4529,-66.2728,7.6028,76.5160,10.2979,-110.8511,41.6085,-16.5897,126.9690,-4.1192,3.9922,-127.7436,-176.3583,-115.7861
-258.9227,-137.5650,-340.1034,-65.9889,-243.3358,-403.2612,-123.0390,-110.5494,66.2440,-128.1388,-206.9658,-30.7886,-73.3495,37.1989,-11.0141,-72.0056,-237.1708,-315.1263,-221.9039
-365.1293,-307.2116,-409.4115,-176.2460,-324.1811,-484.5130,-199.1537,-237.3036,-24.1818,-300.0813,-285.3901,-126.1140,-106.3833,-44.4003,-37.1072,-174.0491,-306.6519,-380.8323,-311.2856
-394.6719,-418.2736,-413.1669,-213.3891,-348.0594,-526.6055,-202.4445,-298.7407,-15.5210,-375.4693,-258.3958,-264.6106,-107.1637,-117.4333,-60.0628,-220.7358,-253.6351,-435.6191,-280.3267
-361.3258,-524.4367,-345.5299,-263.2615,-302.5034,-555.3766,-162.5985,-312.7907,18.2242,-404.5316,-176.7401,-384.7315,-92.6754,-158.4113,-79.4745,-212.2086,-174.2672,-549.6357,-236.1201
-354.1970,-631.0816,-270.0360,-329.9488,-241.0228,-563.4612,-167.8720,-334.0798,-29.7431,-428.0667,-151.7260,-439.0321,-81.6753,-176.7182,-98.0051,-221.9060,-154.7203,-608.2817,-234.0237
-379.7690,-694.8702,-238.5885,-352.4143,-192.3314,-558.1389,-152.8012,-354.9979,-26.0373,-403.6021,-191.4686,-472.6786,-70.3385,-217.8511,-88.9649,-285.2393,-138.8314,-530.2164,-167.5224
-380.4919,-712.0735,-221.8774,-328.0414,-125.5929,-565.6353,-67.4704,-362.7278,49.8817,-373.7689,-194.5558,-501.2512,-45.9126,-267.6983,-78.4888,-367.1521,-63.8453,-453.1062,-49.5267
-323.0565,-728.1113,-164.6739,-313.3250,-38.5561,-595.5374,-13.5034,-408.9680,49.6050,-430.1476,-100.3533,-519.9554,-21.7815,-302.0354,-99.2145,-444.2180,38.4939,-503.7642,10.9069
-217.3968,-812.1960,-72.8164,-402.3319,20.8174,-674.6248,-5.7551,-531.4279,20.7395,-545.3521,1.2596,-606.7113,-23.3834,-385.2748,-100.2833,-536.8644,88.2118,-629.2521,47.4911
-141.2602,-986.9238,-34.1120,-627.3699,15.8455,-821.7580,32.4648,-673.4912,52.7096,-645.6735,-6.6859,-778.7674,-46.4442,-541.1706,-87.3883,-639.3610,37.8917,-748.1167,106.3279
-178.8761,-1156.6993,-117.0582,-835.7449,-50.4340,-969.8246,41.7954,-762.6762,33.4881,-746.4026,-80.7678,-912.3565,-69.5180,-668.3885,-141.9935,-727.0107,-48.5536,-848.7076,120.4789
-264.8644,-1235.1592,-226.6447,-896.1845,-114.3691,-1076.6587,-26.7908,-839.4009,-49.9595,-893.7864,-90.7781,-984.2214,-80.1408,-747.2302,-195.6430,-839.1133,-50.7381,-948.1204,96.5110
-253.3506,-1307.9912,-200.6582,-947.2314,-90.9114,-1230.7063,-60.9545,-1000.2816,-62.4524,-1076.2354,-16.8130,-1106.9012,-63.4723,-887.2308,-134.0308,-1010.2065,24.2965,-1076.8052,97.0329
-157.2732,-1469.1324,-77.1299,-1124.6858,-8.7195,-1451.1198,-39.9798,-1207.1465,-56.9519,-1232.0635,58.8923,-1249.9604,-22.9928,-1063.1282,-68.3587,-1161.7990,65.0715,-1220.6317,68.5957
-101.8393,-1602.9694,-32.4439,-1268.8578,16.6585,-1585.8539,-70.4179,-1321.0304,-128.6908,-1297.5114,80.7330,-1271.5195,-6.0959,-1121.8818,-113.9371,-1219.7821,64.7860,-1286.6571,-9.6334
-102.3941,-1570.4257,-70.2121,-1220.0724,-15.4443,-1578.0876,-113.0682,-1331.0157,-148.2861,-1265.9017,61.1607,-1192.9207,-33.4092,-1075.8781,-146.9034,-1223.4910,94.0988,-1237.4076,-23.9714
-108.8288,-1461.7196,-71.0357,-1095.6106,-14.6111,-1546.4578,-69.4929,-1322.0385,-50.6381,-1186.0228,48.9774,-1131.7747,-54.3505,-1056.1187,-95.3723,-1198.8015,120.8361,-1162.1628,37.2086
-132.8792,-1438.6844,-58.5364,-1054.3024,3.5933,-1532.9900,-4.6317,-1281.2341,7.9826,-1095.5754,72.9245,-1094.2303,-39.2300,-1059.4330,-81.0975,-1122.4812,69.9585,-1143.1038,55.9651
-158.0935,-1486.6915,-99.0589,-1093.5626,-26.6538,-1490.1046,14.3941,-1194.7642,-13.9139,-1025.7988,116.7710,-1048.5187,-15.5593,-1033.4366,-115.5844,-1057.4336,-22.7513,-1166.4178,28.5415
-113.2534,-1484.6378,-106.4940,-1143.1917,-60.2281,-1447.5703,47.3718,-1161.2856,20.3742,-1019.3957,163.7141,-1011.7999,15.7508,-1022.0833,-85.5312,-1076.5717,-61.7885,-1168.1949,37.7982
-21.1668,-1377.0753,-17.4931,-1127.4951,-28.8991,-1419.6271,112.1798,-1192.2677,129.8435,-1054.5172,202.8053,-965.4159,67.5487,-1028.5082,-17.4124,-1105.5382,-12.7151,-1106.1760,71.3428
29.5337,-1203.8047,61.5890,-1014.2368,30.9234,-1345.2806,146.3727,-1178.6633,194.5355,-1059.3854,202.7250,-885.8212,94.0592,-991.9371,-0.8859,-1066.1930,70.9595,-1025.4709,75.2392
39.4914,-1063.8724,53.0985,-908.0732,50.1860,-1263.2759,137.5286,-1134.6328,175.6189,-1029.4409,172.4539,-839.2805,65.2742,-954.6000,-2.3133,-1009.2709,92.4135,-1002.2729,58.6328
52.3579,-1028.6195,20.7567,-916.1763,26.4997,-1246.4126,135.2581,-1124.6041,164.2273,-979.8618,164.6876,-858.2913,39.9937,-962.1819,31.8153,-948.7265,28.0351,-987.2009,61.0634
65.5458,-1028.3490,32.1592,-938.4849,19.0767,-1181.8558,190.1341,-1052.0507,229.7033,-868.4398,155.7770,-836.4235,62.4992,-903.0829,71.1322,-821.1946,-18.6664,-867.5843,107.1352
86.2813,-924.0593,93.7834,-814.5961,71.0590,-958.1279,285.7157,-863.9498,291.6029,-718.2460,95.0568,-711.8187,90.8641,-723.0254,74.4423,-675.0688,22.0412,-672.3130,178.2128
122.1510,-716.3732,173.4688,-593.3430,130.1910,-709.5150,312.9814,-702.3373,228.2625,-629.7248,54.3026,-589.7455,84.3416,-569.7508,48.8821,-612.8563,69.4889,-505.9337,219.9422
124.6636,-536.2099,202.2131,-445.3734,122.6096,-574.2162,232.5628,-619.6541,95.2481,-588.8707,98.9234,-545.9323,60.6754,-518.9138,42.4109,-579.5666,53.9170,-369.8696,226.1364
86.3907,-432.0652,163.1262,-404.2904,97.6154,-474.4997,177.1745,-504.9659,57.1264,-499.0295,130.5943,-500.9590,49.9795,-459.9634,78.0230,-472.8072,37.4386,-224.0650,244.7736
79.6410,-334.7520,141.4487,-368.6978,139.2044,-343.1085,228.9128,-353.9151,130.4932,-359.7279,71.5147,-392.2454,55.3674,-346.3812,97.7048,-338.1245,71.8468,-76.0677,283.0552
115.9590,-212.0840,175.9088,-285.9432,201.9711,-247.3579,286.6622,-239.5910,194.4550,-206.3960,4.6348,-269.0418,57.3467,-237.6911,65.6192,-237.1415,111.2190,71.2893,308.9565
141.2190,-93.9032,202.4616,-183.0783,218.5155,-181.2118,268.2699,-119.8167,181.1140,-38.2671,-3.7686,-159.1333,44.5323,-118.4105,42.0724,-110.7755,119.1668,213.7645,304.1219
150.4640,25.2616,197.0676,-60.3583,221.1895,-45.7549,205.4341,38.8537,110.6013,97.5371,1.6241,-32.8168,33.6652,48.6409,44.4187,59.4443,104.1913,327.9658,248.3540
144.6644,166.6788,184.3350,99.4215,223.6115,142.2935,134.3751,160.2549,37.3695,171.7912,-16.6803,95.0808,35.0167,202.0328,25.3339,174.3280,66.6582,436.5654,147.4801
102.3845,291.0609,151.8839,240.1376,190.3185,275.3022,82.9242,222.4210,4.7769,248.3437,-46.1830,178.1537,30.7612,288.6647,21.5477,213.1721,32.4773,555.1407,65.9460
71.9315,349.2389,117.1729,288.7075,154.9394,337.4751,62.2639,277.4955,-11.7804,319.8438,-66.0416,210.7746,16.0941,337.8812,66.0341,274.8470,49.4298,609.8043,34.1087
89.6106,361.3358,130.5418,269.2298,158.5497,380.0123,22.4406,318.9595,-50.0653,317.6409,-70.3257,217.2072,5.0771,378.6434,63.8495,370.3911,78.3602,580.3441,16.8317
71.1567,376.5884,149.1290,253.2291,159.2009,408.2204,-29.4309,327.7826,-68.3465,318.3498,-89.7360,242.5192,-1.5530,417.5919,-1.1339,412.3925,36.0414,580.6987,7.3716
-4.4212,406.0006,115.6689,263.9418,145.8341,418.6413,-5.0572,340.5327,-40.2495,394.0199,-141.3077,322.6811,2.1374,451.7152,4.6757,406.0567,-41.6082,651.3032,4.1422
-23.9150,433.1165,84.0181,295.0852,156.2677,444.4948,50.6827,373.6940,-24.7280,426.8108,-177.6823,398.8360,22.6509,450.2719,84.5917,424.9896,-64.7579,680.9160,-35.0000
0.1942,450.2885,69.3900,333.7509,146.2295,489.4725,15.1911,415.4625,-22.0921,390.1903,-190.0284,390.2336,21.1865,422.3830,104.4433,459.5988,-68.0024,612.6506,-78.6133
-62.0375,464.2044,-7.6719,348.4890,61.0818,511.4364,-45.2832,465.0791,30.6322,430.8759,-236.3979,353.1303,-29.7437,431.5182,61.9175,469.2856,-127.6112,516.9084,-45.8075
-163.9095,477.2868,-112.3884,325.9999,-38.8897,501.7140,-25.7496,477.8427,82.1647,498.3416,-292.9463,369.1668,-82.1087,447.1466,40.8822,466.6019,-203.1576,457.5921,2.2226
-174.1228,476.7542,-134.0765,288.1759,-100.0966,500.3207,-14.6853,406.4328,59.1937,423.4781,-294.4753,376.9631,-104.3012,372.8523,39.3559,449.9165,-230.5551,445.5596,-32.9393
-145.9510,465.3189,-114.5191,255.0778,-150.1417,533.4778,-53.4494,331.0154,60.5407,324.0202,-292.2887,329.5787,-124.3871,263.1836,41.5579,406.0297,-233.3828,471.5634,-65.3386
-168.1236,476.9066,-132.7033,243.1627,-167.8943,592.6415,-20.4017,353.0712,159.6087,379.1750,-326.5876,315.3064,-125.5559,245.2800,46.5171,378.5777,-234.5414,496.5795,-10.7391
-183.6571,509.3776,-128.5830,253.0389,-103.8209,657.7281,59.8328,410.9170,208.3696,466.1134,-319.9552,350.6494,-72.9740,270.7324,13.1971,389.7307,-214.9418,479.1631,20.5784
-165.0951,501.0108,-80.3880,231.6678,-25.2752,711.3886,51.1889,406.5325,127.7339,464.6274,-286.4541,324.9181,-33.4415,222.1344,-30.3075,392.9163,-191.4828,432.1106,-20.6409
-175.5654,441.0636,-83.9035,147.5773,-29.7774,737.0090,26.6973,380.6664,91.0871,487.1426,-334.2965,233.5062,-75.2610,129.2726,6.9274,383.8424,-189.8620,393.2760,-9.9670
-191.2910,400.9485,-126.8775,67.6556,-81.6433,698.0903,85.8513,378.4153,171.4537,546.2679,-396.0250,180.3417,-128.7742,54.2749,77.1861,387.6206,-180.7467,371.2254,49.0145
-141.3455,393.0687,-94.3509,34.4128,-91.2710,557.3670,93.9304,333.4462,193.2065,487.6433,-335.5504,161.0817,-109.2396,-39.5809,72.2513,351.1822,-146.4783,357.3047,20.9008
-65.4255,338.1739,-9.1109,-22.9751,-60.1156,372.3345,-12.3268,218.8968,108.1593,315.2769,-235.3590,93.7547,-52.9814,-167.5761,33.6416,238.8381,-116.2604,331.3837,-46.8977
-28.9621,217.6604,17.1907,-138.2208,-43.6581,287.4885,-62.4357,103.7452,75.8175,167.4349,-221.3849,-7.1888,-27.3352,-274.0319,24.9463,129.5700,-90.0313,250.3126,-28.0402
-4.0347,114.4987,3.5328,-224.9155,-45.7006,340.5423,-14.9574,13.7053,102.3530,83.6474,-219.2072,-63.2493,-31.4805,-335.3276,16.5842,82.1556,-44.5817,123.2131,-1.2742
57.1360,90.1270,46.3372,-224.6417,-18.6377,399.0393,-9.1334,-58.0889,60.0761,60.7197,-141.0375,-53.5596,-29.1183,-358.8436,40.4906,72.3489,-6.1519,71.9354,-59.4837
142.9481,137.2884,132.9382,-179.7677,49.6370,372.3630,-35.3283,-54.4068,3.2533,123.5418,-42.1386,-5.6800,4.1274,-336.1459,143.7215,102.2314,-7.5949,184.9095,-93.5539
210.8552,236.3657,172.5742,-125.4633,105.6380,325.8234,1.0826,48.2519,39.6631,231.7816,24.7345,75.5512,62.8969,-278.5521,216.8595,182.9851,-10.2302,368.0033,-31.8048
251.9243,383.3240,162.3288,-40.6414,121.2840,334.9311,46.3098,169.1999,81.3252,322.5403,66.1735,211.6049,111.6724,-202.6161,176.0893,266.5638,50.5190,491.9287,32.0266
318.5389,579.9785,189.3159,87.4830,146.2320,401.0503,55.1538,267.5798,51.0648,403.8449,83.3585,390.6040,118.3183,-83.6650,121.8381,337.5307,173.4728,571.6394,63.4426
441.8353,815.9108,272.4689,234.7861,208.3213,510.8772,100.1776,378.0425,39.8097,466.4830,107.3868,556.5695,83.5296,78.4593,117.6438,434.4919,293.3703,650.2316,101.4721
557.0004,1060.0305,339.9634,376.7979,257.2180,628.9254,161.0421,473.2504,68.7669,455.3647,184.9108,690.4274,39.0683,217.3610,104.3180,520.3168,363.8371,694.8740,94.7532
615.3337,1281.5260,374.2026,508.6436,264.4622,689.9597,127.6287,501.0270,34.9930,407.7618,279.9909,823.3474,24.8323,297.3409,69.7980,525.2773,401.8354,720.6070,15.7373
663.3052,1443.7355,409.2759,621.3262,262.5296,699.0578,27.0860,517.0327,-55.8171,432.1579,322.0173,930.9323,41.5163,356.6454,29.9854,505.0808,431.1415,782.6373,-33.2799
703.1647,1487.5924,409.9672,696.2810,259.6848,732.9504,-25.4366,589.5387,-99.7511,520.0453,309.8311,943.8981,48.2226,422.8943,-25.9309,549.8038,437.0730,835.3398,-19.2661
671.1729,1415.6160,354.5499,741.7410,240.3161,802.7444,-12.3195,668.8130,-81.6544,560.6575,282.5811,891.3395,38.5150,480.1763,-29.7029,609.4258,418.7342,833.4363,-32.4155
608.0176,1338.4070,334.0981,778.7154,226.6131,844.6360,15.5840,691.9399,-58.9140,540.3163,269.5998,866.5662,46.4188,517.6975,69.1554,604.1487,403.1674,834.3106,-74.5631
593.0417,1310.9225,372.2294,781.1449,225.2872,837.4551,25.9716,688.9067,-55.1387,546.1880,274.4402,856.6689,64.4540,540.5026,148.0539,587.8902,372.5981,821.0970,-71.2125
551.2584,1237.6200,343.7530,718.6571,183.6102,808.8547,10.3829,691.0706,-50.2970,578.2549,245.3249,787.1509,63.8525,547.2389,126.9244,618.0786,283.2791,705.4036,-55.4015
393.4001,1053.0566,216.7771,633.3791,89.5491,763.1588,-10.1940,659.3751,-23.9129,552.6927,138.6319,680.8473,63.7727,528.4346,104.1736,617.4910,156.2497,567.2667,-93.7022
201.7971,825.1595,105.3833,559.6906,9.1402,693.7449,-16.6012,570.7773,-5.1508,491.5374,13.8011,593.7305,70.2556,475.5196,100.8236,539.3299,39.9020,529.5240,-140.6340
58.2705,623.2906,27.8788,454.5953,-34.7597,623.0002,-27.5956,482.6178,-35.6586,491.1067,-61.0414,497.2625,36.7073,403.7895,35.9074,481.1519,-68.7811,498.0668,-142.1506
-83.7220,469.8443,-87.1062,325.9986,-86.9305,576.0902,-40.5918,451.4712,-72.2584,515.3895,-117.6826,378.9088,-29.9986,364.4134,-26.3765,485.8413,-172.3650,386.2418,-133.8844
-221.9820,383.9870,-193.4188,265.7672,-134.9622,547.3866,-25.8242,448.9508,-61.9030,460.6307,-175.8469,303.8857,-57.4394,381.3521,5.5787,457.0549,-227.0898,322.1858,-137.2102
-271.0510,322.5334,-207.1163,259.0829,-121.2025,513.3035,-19.5872,418.8940,-66.1814,370.0494,-183.2004,268.9072,-46.1359,391.7018,32.9677,369.2599,-214.4335,351.0885,-120.5293
-256.3929,208.3822,-190.7796,192.4697,-88.6370,457.0521,-80.8780,360.1205,-134.8414,336.5328,-159.3924,198.0166,-72.8596,324.9628,-35.7639,304.5103,-179.5386,316.5273,-105.4042
-295.0100,76.4573,-236.7836,87.4561,-132.8362,375.1129,-173.9496,288.8527,-191.3319,312.7735,-195.0149,116.2446,-149.0386,208.4824,-124.1809,268.4955,-173.5771,185.5051,-147.5540
-395.5053,-2.1845,-298.3521,45.0226,-217.1426,274.9749,-234.1742,202.4935,-189.9419,251.3021,-273.3116,86.0362,-212.2918,112.5048,-165.0787,221.3062,-203.1011,89.5047,-205.8836
-468.3664,-73.5001,-301.8071,13.0717,-236.0876,176.7070,-267.7033,132.3569,-185.5055,234.4812,-302.5803,42.7072,-241.9225,49.7660,-178.3534,195.6760,-230.1985,52.7404,-193.7281
-486.8072,-166.4516,-292.6726,-80.0487,-220.5805,108.4435,-286.5302,115.0147,-191.4865,267.5256,-291.8281,-53.7453,-262.5712,8.4267,-183.6783,191.4796,-217.2033,22.8025,-139.5567
-492.0866,-184.8636,-322.9413,-114.5644,-249.2209,87.6444,-263.1870,104.6313,-177.3239,215.3548,-297.1813,-85.4687,-256.8293,6.8040,-191.5269,145.4109,-174.9193,35.6897,-128.5355
-481.6028,-103.0633,-318.0129,-3.3904,-244.1753,111.9251,-204.1589,56.3590,-164.9700,90.9185,-278.6234,-6.3377,-193.3539,50.9106,-185.8268,90.6589,-136.4248,110.4199,-140.7854
-423.1612,-31.4662,-223.8650,114.1089,-125.7837,169.4886,-168.4111,32.5468,-181.5898,71.8075,-192.9443,69.5688,-122.4580,109.9595,-130.8917,101.6385,-106.3999,168.1339,-120.8735
-361.1610,-12.1405,-153.6480,136.0955,-30.8746,240.8561,-187.5797,78.1890,-209.5867,151.3838,-122.3119,110.7476,-115.4885,159.1425,-78.8431,126.4323,-82.3275,174.2495,-103.6495
-355.2903,7.6787,-182.0162,143.3594,-83.0637,295.4577,-215.2651,119.5238,-221.6667,156.2944,-139.0659,173.9459,-137.1500,193.7842,-98.7521,108.1266,-75.3326,180.0680,-113.3030
-338.0275,28.9510,-175.6251,165.6521,-145.2342,309.9378,-187.8847,105.4263,-190.3901,108.9074,-161.1656,208.5639,-116.6021,217.7417,-120.4782,111.8004,-81.5910,202.9426,-97.0703
-245.3742,29.1733,-66.5244,155.0954,-90.4028,282.1414,-132.4985,83.0777,-125.5097,154.4863,-115.0983,162.2484,-82.8458,235.7973,-87.5064,161.4343,-95.3533,207.3806,-64.7146
-207.9368,37.7295,-31.9081,165.6509,-48.2714,221.4876,-129.0179,71.8518,-97.7245,222.7531,-98.5666,115.9156,-89.2975,227.5903,-83.5917,171.6379,-131.5346,179.8521,-88.0770
-324.8245,62.8805,-158.6627,231.7062,-120.4851,156.1466,-156.5814,38.7893,-117.6293,186.2937,-185.7056,115.1331,-108.4074,175.1490,-113.4919,125.8044,-177.5223,131.5879,-139.4090
-425.8146,64.4309,-262.5321,242.1544,-178.4942,143.2412,-133.5988,6.9323,-101.3427,153.4796,-250.9560,111.7948,-109.9676,135.3645,-78.7704,108.2832,-188.1193,65.5038,-146.0621
-375.6278,37.3552,-229.4151,172.3331,-142.7335,213.1336,-88.0791,29.9415,-42.5248,216.6714,-195.6907,117.0633,-108.1023,171.6259,-27.9443,142.6332,-162.2201,1.7208,-132.6466
-311.8336,21.9255,-164.3235,150.4700,-108.2101,304.7214,-88.6958,83.1675,-25.9243,230.0068,-123.9048,158.2009,-90.5196,229.5913,-58.2082,161.5617,-138.0299,-5.4080,-130.5268
-313.3473,37.3142,-121.6686,192.3989,-100.6741,330.6771,-98.4590,104.9663,-50.3944,144.8733,-114.7240,171.8647,-43.4039,230.7924,-86.8270,135.2945,-116.9918,53.1518,-96.8438
-255.7338,60.5494,-56.2849,204.5550,-55.0282,312.3199,-79.4959,109.9016,-49.4004,145.9487,-98.0669,128.7796,-6.4945,213.1298,-32.6502,118.6829,-76.2819,89.4280,-26.6025
-144.8574,66.0054,-4.5974,197.8947,-1.7927,353.9176,-67.6454,153.0456,-27.0823,265.1179,-55.9539,111.5553,6.5416,231.8453,28.3503,146.9062,-26.8250,40.5778,29.6522
-120.7523,63.7485,-10.6037,208.0688,18.3191,465.3635,-41.1178,213.1386,-4.9721,323.7592,-43.8281,172.8466,39.2059,255.5152,51.9001,177.7821,-0.7827,-30.4571,65.8226
-149.2433,63.7648,-10.6792,182.5299,64.6203,538.4436,48.6975,222.7247,48.9397,297.5069,-30.6448,242.3378,90.4150,258.9460,74.6927,195.8386,-11.3317,-68.2682,96.1590
-129.1524,29.2441,15.0811,121.4917,124.2572,539.3788,131.1017,189.3164,132.2724,296.7291,10.9775,214.5394,105.2964,260.3308,83.1151,240.8490,-44.4585,-129.9513,107.9222
-110.0444,-44.1717,-10.8930,93.8559,91.8069,566.7942,136.1315,168.5675,171.4840,287.0048,10.7858,104.1821,71.5219,251.7760,60.0480,271.0931,-74.8784,-240.3688,104.3044
-127.9633,-75.1569,-83.5182,89.6426,-3.2472,658.6445,120.2388,159.0234,122.8183,188.3009,-28.6310,54.0482,31.9677,233.2685,31.5931,210.5291,-93.7273,-319.6420,84.6153
-134.4237,-43.5050,-117.0371,71.3738,-51.9744,715.5493,101.8961,139.6940,26.5006,71.0283,-30.1339,102.2403,16.6843,242.1508,-13.8491,144.5981,-114.1746,-337.7493,15.2801
-161.0950,-46.6367,-123.4060,63.4198,-87.7882,675.5923,15.3269,136.1935,-54.2552,33.1114,-36.5783,103.0365,4.4927,266.5996,-76.0396,192.3535,-145.8539,-342.6929,-76.9559
-233.1214,-105.7891,-170.8183,59.6845,-165.2769,593.7497,-90.2293,162.3277,-97.8477,72.4253,-102.9201,21.8058,-31.1882,259.2382,-76.4326,277.0999,-184.5603,-330.9593,-97.7139
-245.7529,-123.0634,-217.8367,19.2599,-195.6548,516.2354,-90.2070,197.2038,-113.3536,147.6505,-124.7877,12.5737,-47.4052,238.8568,10.3263,302.3140,-214.4735,-289.9422,-39.1041
-164.9194,-76.2859,-178.1534,-24.5433,-129.7184,433.8847,-16.1446,233.3014,-105.2006,212.7317,-43.0044,89.6002,3.0695,241.6118,86.4160,326.3541,-208.7701,-284.4965,9.0265
-100.1734,-40.1598,-91.6302,-23.5462,-68.0479,356.2519,16.2882,243.3587,-80.9614,222.9848,20.1725,102.1975,47.6122,240.8424,63.1655,356.5929,-160.9019,-328.2960,22.9066
-87.3928,-52.7871,-66.6210,-16.7544,-63.6979,307.2076,26.4119,184.2663,-54.3160,179.2426,-5.7137,37.5721,8.3898,216.3764,-30.8249,302.8091,-103.0354,-320.3824,64.2420
-65.5061,-107.4847,-92.9506,-49.0683,-58.4395,277.6906,86.0617,105.9515,-24.6952,108.0627,-34.4204,-3.9930,-34.7998,197.9907,-81.1996,208.5780,-62.2401,-226.6280,139.6463
-20.4551,-156.7635,-69.1426,-82.9416,-36.2163,250.6594,135.7406,96.2189,-4.7017,26.5562,4.2295,4.1991,-3.5030,197.2738,-31.4188,177.2925,-40.9174,-141.6974,183.5691
26.6392,-110.1379,6.5355,-62.8331,-31.3939,226.2674,90.4630,122.8893,-24.5748,-27.6481,79.9616,63.0843,29.3601,193.4651,21.4256,156.5464,-41.4585,-119.9776,183.2525
57.0463,14.4097,42.2479,-2.6642,-31.3356,214.2391,19.3375,119.2024,-55.9457,-17.3889,113.0700,151.4838,21.6930,180.4565,-9.8835,85.9999,-48.7510,-118.9235,192.4684
49.9116,73.3880,30.5912,37.0340,-13.0613,235.2091,24.0680,118.8268,-39.7627,34.1567,61.1577,174.9398,39.3924,168.3121,-41.3062,44.3242,-34.8655,-106.0267,209.8484
31.5334,45.8901,30.8885,38.3336,-2.9712,280.0884,50.6527,141.4146,1.6930,83.0328,-0.7926,115.1487,75.7201,157.8352,2.3199,70.2431,-28.0725,-90.0884,181.5051
28.0708,29.6238,20.2317,24.6269,-21.3606,272.1685,29.1370,127.8291,32.9491,117.6708,7.4810,57.4374,72.6337,130.5168,46.0628,86.8602,-76.8919,-78.8786,131.9212
-12.2603,-8.5387,-35.8835,-22.4418,-37.7509,169.0919,46.2335,75.9146,97.0877,122.1935,13.0702,9.0470,66.9345,69.7826,44.3779,51.4096,-142.4167,-77.2864,125.1783
-92.6403,-125.8447,-67.8806,-113.4154,-32.1417,59.6753,141.3260,36.8343,183.8306,67.7951,-44.0074,-47.8417,88.2617,2.7607,39.5902,-15.5713,-157.4590,-86.8372,120.8248
-112.0873,-179.5523,-43.6381,-149.9136,-43.5117,44.3851,159.7906,4.4197,195.9833,-21.6982,-44.4519,-46.0218,84.5337,-20.8393,32.2776,-90.2044,-135.9407,-80.2236,60.6085
-44.2664,-51.7374,-42.2770,-54.3013,-87.4223,101.4984,57.3548,-14.8497,146.0977,-63.8707,80.7973,8.4793,69.3643,6.5621,32.3987,-131.1523,-103.4180,-10.0278,11.4990
54.8229,130.9469,-51.9813,87.1135,-81.8406,167.1593,27.8885,46.7306,134.6257,-10.4470,218.7853,20.2457,112.1545,63.5556,85.0988,-103.8582,-34.3745,130.4190,30.8163
178.9613,231.2497,33.6427,174.2658,23.3954,225.7552,119.4015,175.3281,143.8363,94.9183,306.7804,-6.0056,174.5729,129.6305,123.8781,-33.2703,61.2567,264.8232,46.6196
284.8963,268.5883,158.2693,223.8969,124.3826,256.0215,137.7702,261.1491,109.4670,186.0543,375.7414,-27.1783,169.1186,158.2626,70.0457,30.9140,126.0501,311.5379,17.7805
275.7969,270.3489,175.9845,257.6259,135.6339,226.9229,56.6329,270.5867,75.6098,250.5293,382.4340,-65.9891,111.5427,121.5346,27.3094,56.4871,146.3704,301.8637,0.7844
205.4596,227.7488,140.1028,253.7555,137.0434,169.7444,54.2522,259.0444,84.2894,277.3212,301.9356,-97.7291,75.6234,75.5619,86.7033,38.1110,140.5825,304.8046,-2.9325
198.8301,165.1832,169.8783,209.7349,171.7613,125.6835,129.6945,238.0477,94.9825,220.1241,234.1530,-91.1870,79.7017,60.7726,144.6980,18.2735,107.1893,268.5491,-34.8347
206.2417,93.6003,186.8009,127.5037,139.7744,62.9579,139.7133,183.9225,97.7936,105.6288,220.4050,-113.7224,86.1689,30.9676,121.8642,42.6681,58.6763,133.2662,-49.3134
149.1245,15.2439,107.3542,37.5155,45.2571,-32.3101,114.1179,131.4152,121.0322,54.9235,185.0640,-157.0544,74.3976,-13.6350,86.2909,81.7977,28.6157,15.0981,-0.1911
106.0406,-12.1652,47.9394,28.5814,32.1718,-81.8030,145.5666,132.7765,146.4322,105.9026,118.0143,-115.2738,69.3379,-4.3342,90.1993,82.1290,27.2388,26.1805,47.9560
119.2273,26.9540,85.1985,100.5997,90.6854,-56.8392,160.5237,149.7127,148.9907,147.1668,81.1516,-45.7614,67.7253,26.8420,109.9021,53.5713,47.0032,61.6336,33.7704
107.9049,42.9226,110.0396,132.1842,77.1497,-63.1306,90.0550,87.8325,142.9889,84.5924,76.2250,-83.0813,21.1381,-13.4989,104.1101,25.9503,73.2115,11.4886,-10.1900
61.5507,-4.9554,66.9094,102.7096,12.0723,-158.9964,29.9346,-50.0545,134.2137,-33.9244,60.5573,-157.8711,-33.8021,-82.3746,53.8966,-1.5065,76.0029,-39.2190,-38.7016
35.2673,-50.7346,38.5757,102.0792,20.4576,-237.4773,46.7263,-139.7393,110.6060,-83.5593,13.0858,-141.6365,0.7194,-76.3732,20.3618,-18.8006,54.0331,-14.3484,-37.3447
17.4436,-57.1984,49.8732,123.3827,68.7825,-211.1609,66.3308,-108.8540,82.4323,-16.5989,-51.1943,-70.2793,75.1099,-28.8748,69.3835,-4.8617,45.0856,15.1964,6.9862
-0.6759,-43.0858,41.9353,110.7829,44.9760,-157.0705,50.9470,-34.5329,81.7112,68.0780,-73.1877,-22.6391,64.2844,-28.5320,126.9852,22.4343,46.3776,-4.5654,78.5328
12.8048,-17.9064,9.9674,94.7472,-26.8743,-166.1934,60.3493,-9.7398,120.4102,66.2598,-19.8976,-16.4198,18.5892,-55.9997,107.4259,31.3472,15.3245,-57.2775,119.9179
22.5607,-15.5668,-12.0242,88.9443,-53.8128,-212.5113,95.8226,-23.9556,156.9810,18.9741,34.5201,-60.1996,44.7764,-58.2208,71.9112,20.2750,-36.2435,-144.6339,111.3998
-34.4216,-91.8138,-37.0759,40.5508,-39.1976,-260.1328,85.6280,-37.1635,143.2416,-1.8674,6.3031,-132.7433,76.0824,-63.6823,70.2670,-8.0382,-61.4888,-240.1011,95.6391
-124.2432,-214.3823,-90.1706,-47.9772,-53.2881,-326.1892,29.8650,-56.3470,101.6382,-19.5130,-68.6336,-174.1564,29.0876,-107.5589,46.6391,-47.1245,-73.0853,-276.2948,79.7283
-171.5788,-276.4748,-148.1443,-122.5307,-114.4265,-382.3906,-21.9607,-82.6465,67.2446,-33.3538,-104.9567,-155.9541,-33.2793,-149.0726,-16.4439,-52.0774,-117.0472,-275.9764,11.0323
-172.3044,-256.2378,-175.4184,-166.5885,-179.5717,-377.6245,-92.0669,-88.7780,6.0873,7.4999,-101.5828,-111.4997,-63.6253,-154.8780,-87.6137,-9.5668,-184.5242,-323.1946,-94.8537
-173.0097,-255.6066,-183.0967,-198.3514,-219.4143,-367.6154,-194.1340,-90.5439,-83.9148,40.3585,-119.4640,-131.5402,-102.6459,-174.4653,-140.5262,-11.9699,-213.9524,-401.8940,-135.6017
-189.0596,-347.4258,-196.8185,-249.0520,-237.3919,-438.5059,-239.9808,-145.4827,-120.6919,-46.9947,-154.1224,-263.9746,-143.9230,-253.3131,-114.2971,-121.7771,-165.2590,-433.7914,-103.5520
-184.0637,-460.0128,-191.7140,-323.2970,-228.6877,-547.4186,-201.8736,-256.2051,-100.9217,-210.7201,-124.2018,-378.4201,-144.6712,-353.1927,-26.5821,-238.4063,-78.6547,-413.7444,-113.9915
-140.0446,-481.0241,-145.4882,-364.9635,-189.0402,-607.8804,-193.1744,-361.1917,-118.3630,-322.8791,-33.1022,-341.0698,-130.1604,-419.6853,-24.3441,-258.8914,-42.6904,-382.3508,-185.6115
-104.7464,-436.4547,-109.9307,-357.3877,-138.9451,-628.5019,-243.1618,-420.3754,-167.2941,-345.2117,-1.6983,-265.3418,-143.8472,-439.1202,-108.2041,-242.1676,-74.8109,-346.7214,-204.2693
-98.7876,-440.4525,-105.4121,-361.9747,-77.3660,-626.4314,-231.5997,-431.9044,-152.9380,-321.4601,-37.7073,-282.3503,-157.0309,-403.2845,-118.3269,-266.5668,-86.4701,-292.5349,-138.9368
-56.1626,-473.5256,-50.4862,-363.5109,19.0988,-560.2997,-131.4315,-399.7666,-71.7324,-317.4337,-2.7484,-281.2120,-108.7758,-325.7611,-75.0468,-301.5345,-17.8327,-216.3923,-65.5215
39.3547,-400.8404,62.6521,-282.9166,110.6538,-453.3202,-47.9912,-350.1840,6.5577,-358.3030,87.8768,-182.5612,-19.3900,-275.0124,-90.1782,-318.0640,72.5378,-134.6607,-5.1113
88.8195,-235.9720,111.7856,-168.8050,127.1815,-402.1372,-20.0996,-318.0801,42.8251,-378.0335,71.1136,-117.7867,2.1691,-283.3913,-77.8765,-330.5417,106.7577,-76.4566,54.3279
53.4911,-152.2122,78.4236,-128.1265,91.1975,-409.6338,-19.4442,-291.4431,19.8020,-332.1235,-14.1156,-140.7396,-70.2953,-289.4295,13.6419,-316.9600,92.5016,-53.3528,78.7196
33.4155,-189.7003,74.7680,-140.4401,69.2797,-387.2757,-44.6657,-245.2354,-40.9998,-282.2654,11.1069,-154.2555,-108.5994,-248.7360,30.8684,-266.8957,80.4219,-49.5140,76.3118
83.4590,-204.6823,93.8818,-137.9379,50.0597,-319.9234,-61.1081,-196.3264,-61.9440,-255.6036,113.1978,-138.8147,-51.9688,-195.0696,-49.9675,-228.0057,77.9832,-49.5931,103.9481
114.8268,-146.5226,37.3471,-118.2035,5.7079,-267.1483,-19.2293,-158.5022,-22.9320,-211.3985,140.9244,-121.6336,-10.6021,-157.2823,-76.8507,-209.7246,51.8696,-54.6004,133.1590
55.4730,-123.9987,-49.8008,-95.6123,-18.0529,-244.5739,33.7970,-127.4528,4.3507,-180.3577,92.3609,-71.7569,-32.9055,-131.4211,-43.9674,-182.5556,0.0423,-74.0860,102.4208
-30.2641,-173.1731,-61.2738,-95.3802,11.0775,-229.1638,44.4185,-122.2635,0.8527,-199.7049,16.4257,-24.7688,-40.1310,-122.9942,-33.5403,-165.3156,-27.4296,-103.0823,62.5596
-54.6200,-208.5782,-30.2327,-145.4175,38.2438,-219.0766,55.4532,-138.7759,25.1850,-210.5430,-68.7810,-66.9975,-30.5373,-132.7907,-25.5880,-172.1693,-8.5295,-108.8027,82.7155
-32.3629,-206.6662,-31.9284,-197.8242,13.8902,-215.2274,79.6571,-138.0655,72.6348,-205.5614,-67.8410,-155.2747,-50.3489,-149.1415,-25.7507,-173.8038,4.8895,-85.7581,112.7824
-28.9917,-224.8237,-55.9119,-204.0284,-36.6321,-214.9924,60.7388,-150.2864,69.4850,-252.4409,48.0679,-194.8012,-51.7516,-179.7069,-75.7959,-182.7246,-30.5119,-97.7762,81.9867
-71.6917,-266.4791,-95.7109,-221.8665,-84.2650,-244.6058,9.5361,-225.1111,4.0874,-311.9391,93.6043,-203.6494,-29.9399,-227.0392,-108.3031,-225.7941,-90.3171,-179.3123,6.7765
-149.9012,-287.5412,-173.6734,-282.3281,-143.9008,-323.0583,-25.6276,-300.0276,-62.1182,-316.1808,-22.4234,-220.9836,-79.3541,-265.5360,-82.8636,-265.1510,-137.5792,-259.2462,-73.5852
-218.0006,-284.7953,-239.0227,-309.7190,-206.9533,-409.4763,-58.3296,-326.2493,-90.5563,-334.4308,-115.7246,-215.2737,-170.4883,-293.0351,-89.9676,-280.7646,-154.2911,-278.1263,-139.9873
-215.3977,-279.8562,-222.8860,-287.8047,-219.2196,-451.4366,-83.0595,-375.7207,-85.6070,-409.4946,-86.5532,-182.0080,-172.4838,-329.5239,-142.3009,-307.4365,-130.2352,-273.8725,-160.1697
-163.5962,-269.7840,-169.0013,-283.8031,-172.7975,-444.8389,-56.6421,-442.3027,-59.8945,-441.2220,-74.4319,-162.2366,-107.1826,-345.6588,-140.5078,-333.4564,-97.4550,-276.6803,-122.9565
-145.5044,-236.8065,-149.6453,-284.4877,-121.2064,-403.5191,-15.7002,-411.3701,-42.5539,-396.3379,-126.5247,-143.3764,-80.7366,-293.5650,-79.3511,-323.3726,-100.9499,-257.2990,-77.5782
-148.9731,-184.3661,-128.9267,-232.3131,-82.2129,-339.7944,-21.2008,-316.3944,-67.5180,-377.3231,-132.2825,-96.8894,-76.9761,-209.0290,-40.5358,-298.6803,-99.2694,-223.3252,-65.2465
-110.7267,-154.9384,-64.2335,-172.7219,-46.4697,-300.5235,-44.4974,-290.0407,-113.1771,-408.2809,-100.0052,-75.2158,-51.2565,-183.6071,-51.1648,-273.9513,-36.6197,-227.8582,-68.2230
-76.6886,-177.7159,-24.3048,-186.4496,-44.4484,-328.2961,-59.9941,-304.9194,-130.3024,-386.1453,-114.6868,-119.3519,-42.3853,-232.2223,-76.0598,-233.6545,19.2685,-263.3662,-63.4390
-97.4458,-207.6798,-47.8645,-250.5811,-67.1473,-373.1548,-94.1691,-268.8437,-133.0630,-277.7674,-122.3160,-150.5278,-59.0790,-265.7403,-62.9523,-201.7622,0.2863,-258.0739,-52.7146
-101.0243,-202.4134,-44.3520,-274.3647,-33.5982,-344.2383,-113.5902,-206.4131,-150.1209,-183.4952,-57.4158,-108.6068,-47.1406,-213.2334,-3.9779,-192.2430,-12.4307,-189.6103,-32.3591
-55.2135,-200.4494,19.6952,-215.7379,49.0331,-244.3786,-66.8619,-152.1248,-133.1461,-161.1418,5.3596,-72.5647,-4.2302,-116.0986,27.0824,-160.1437,48.2400,-124.6989,-5.2356
-34.1215,-212.4862,45.7610,-119.7423,79.2789,-157.5634,-11.6113,-99.3789,-56.5984,-142.9089,14.1146,-94.8274,19.4881,-60.5054,-8.3241,-101.1873,101.7665,-117.6402,1.3405
-42.9706,-172.5262,15.0584,-63.7187,55.0715,-127.7052,-12.9549,-87.5262,-5.2987,-99.8814,12.0275,-95.9944,8.8055,-56.7241,-40.2962,-69.1928,90.0837,-121.0157,-11.2343
-26.5543,-84.4688,21.6093,-62.4680,51.1882,-125.1493,-20.8553,-114.3356,-25.9502,-96.2733,-2.8749,-35.2671,-6.9990,-40.6517,-26.2868,-67.6300,70.8917,-51.6725,0.1088
5.0338,-15.8559,74.0379,-38.3475,72.6299,-95.3282,18.1088,-77.4403,-50.1769,-103.0379,-36.1180,36.2051,8.5317,34.2864,-6.6145,-45.9281,87.1938,91.1633,42.1502
46.7584,49.2842,118.4517,66.3683,122.2447,-8.3353,66.2248,46.8532,-49.3811,-23.3329,-4.0204,113.4029,64.5634,149.0264,-3.1637,26.1246,126.6064,231.7475,80.3996
117.4522,124.0228,165.7381,167.3126,229.1898,94.1525,84.7204,157.0077,-59.9513,79.7334,97.6126,195.8550,121.1003,234.0621,-14.3317,125.5659,166.4208,303.3051,118.6777
155.5065,123.0668,198.3327,140.1396,311.2217,124.3195,97.0016,197.0643,-44.8879,93.0650,133.7035,204.7594,130.5009,226.9922,-38.1119,174.8867,161.3669,297.5762,177.5236
118.6326,53.2254,155.1205,41.0636,269.7448,69.1180,131.0559,189.0812,47.2055,74.8484,70.9409,139.1891,99.9391,152.6742,-27.7317,128.4964,107.0983,273.6847,214.1864
86.1813,50.8587,99.2849,44.4217,191.2076,17.0018,167.3241,150.2263,143.7959,84.9131,13.1589,122.0515,73.7274,110.4067,39.1945,62.5626,92.7471,297.5305,173.4301
96.0576,124.4479,130.7816,154.1985,188.2913,20.7639,165.6903,99.9604,158.4598,62.0534,-9.2806,177.3377,73.8223,133.9046,88.6511,55.1318,143.6289,337.9550,84.0424
96.3713,155.8034,176.2701,212.2479,195.6681,27.2185,129.9524,64.9598,128.0658,23.2598,-20.9280,195.9675,85.5313,139.3987,79.0245,58.2799,156.3667,304.2490,18.4265
91.3711,131.1467,133.3943,175.9557,130.9861,-14.0298,101.3691,44.3855,113.2765,30.3170,2.1618,141.2715,79.4654,76.8953,65.5587,27.1939,104.2811,199.4198,-2.3602
92.3442,109.9818,62.8357,139.9917,40.2868,-54.2915,78.6176,33.6695,101.5222,12.7100,26.0733,87.5750,42.3038,31.9680,71.0289,17.6391,79.8023,117.5993,-2.6387
45.2707,101.8649,38.7475,151.4875,-19.8575,-11.2557,35.2109,49.0827,82.2870,-45.1501,-29.2529,93.8630,-1.1531,85.6871,61.9381,58.1722,97.4530,103.0020,9.4745
-22.6751,117.3090,27.4064,195.7337,-41.2422,100.1719,13.0152,100.2250,87.8343,-6.5737,-107.8111,136.7276,-15.2996,169.2267,35.4955,103.3683,98.5013,120.2549,43.3461
-16.0224,152.5704,7.4378,238.5177,-18.4047,166.6072,56.7745,166.9691,116.7797,121.7548,-100.1079,130.6936,-4.4214,166.6040,8.3522,122.8725,92.9054,125.1711,80.0473
36.4606,139.4777,7.2196,211.5297,17.0622,132.3297,96.0913,201.5328,117.0671,175.9466,-38.4652,43.4599,-0.4184,87.3820,-2.0863,100.0768,100.8757,98.6140,82.4891
49.8913,71.6614,22.0590,111.0557,3.3581,71.9123,59.4080,180.0197,77.7407,141.1055,-7.0272,-26.0823,-8.8618,31.4613,33.0386,28.4468,80.8474,52.7282,62.0106
37.9953,28.7441,24.1759,37.6667,-52.6796,48.3930,13.1222,155.2207,56.8959,122.4125,-17.6621,-3.6698,-10.8926,39.1345,88.2558,-26.8158,26.0894,16.2560,67.6696
28.0500,13.0299,10.5876,19.8044,-82.2040,27.0498,28.1668,177.3981,74.7102,137.4538,-62.3711,27.7921,-2.7950,68.9832,87.4911,-1.1695,-5.4679,-0.2884,97.3049
7.4853,-12.5570,-2.4299,-3.2064,-56.7946,1.8144,54.2087,209.9602,71.5066,144.2841,-107.8881,0.3391,8.7100,89.4166,32.8237,52.6840,22.6812,8.5682,107.5994
5.2067,13.3080,3.3589,1.4944,-10.1322,41.9804,56.5198,226.2393,37.4425,117.0519,-81.9271,-4.8366,31.0072,120.8251,3.8508,56.3811,100.7802,65.0374,104.9861
50.6888,127.7366,29.5217,96.6255,27.4271,147.1530,94.1194,263.1138,53.4605,74.3130,9.3291,75.2028,72.7396,181.7257,29.0914,34.2146,184.3366,161.1210,119.3270
110.9694,233.0021,64.5323,201.8486,65.8626,216.4791,170.2816,301.9989,124.3069,92.2568,83.2628,167.6065,123.2868,228.3079,60.6217,43.7348,208.6436,233.9669,124.5944
159.1375,255.5227,103.7783,210.9333,106.9115,192.4495,199.9353,279.7378,142.8128,168.6922,116.1774,195.0266,156.9731,203.2845,39.7226,74.3145,160.4901,230.5961,92.0949
195.8777,238.7461,126.5783,144.4297,111.4772,116.3690,168.7914,221.5857,83.1441,181.4014,124.0679,177.7235,149.4180,144.5789,-32.8541,88.6062,103.1577,169.4169,52.9649
208.8561,229.3965,108.9451,76.0361,82.2301,58.9619,134.8977,183.8800,26.7374,117.2617,100.1735,166.1855,105.6510,143.3777,-69.0686,93.3192,92.0267,123.5971,25.0273
191.4605,221.8586,86.2907,55.5654,84.8970,56.0009,86.0332,153.9214,-16.5962,84.9437,69.9619,167.3575,67.8132,188.7404,-16.3882,110.6940,118.4631,130.5817,-22.7036
148.3113,206.3332,92.0458,95.2947,112.8680,74.5493,-12.3833,121.4656,-93.4127,76.3929,67.6573,167.6721,62.6394,194.7135,32.3698,115.9106,137.2543,132.7935,-79.8249
93.1015,190.9663,83.0011,147.2224,98.0845,57.7324,-87.2030,98.2281,-156.0663,30.9433,66.7541,170.5709,70.5182,160.5432,0.0986,73.3964,122.2546,85.4851,-83.7283
72.1095,190.7785,56.2784,174.5560,83.9045,29.6441,-63.6368,61.2138,-135.0085,4.6471,49.8090,172.1572,76.3517,146.4668,-36.9685,20.8840,105.5341,69.3139,-26.4551
94.4173,206.2884,84.3522,214.8879,151.4880,64.1693,-4.9618,24.9119,-78.5381,32.0094,38.3109,156.7207,86.0095,154.7936,-23.6528,18.0754,130.1175,152.5367,35.3290
96.8871,222.5056,147.2680,275.8613,231.0546,142.1112,12.9523,52.3703,-64.2189,48.1868,21.3995,146.1851,79.8095,165.7191,-25.9984,34.9206,178.5706,246.8874,79.5335
87.2483,234.3926,165.2458,295.4248,231.3429,172.1771,20.5701,106.7010,-85.3633,24.2546,1.2732,163.2110,39.4995,183.7946,-70.1892,15.6384,224.7164,260.7562,127.2112
137.7112,232.0131,173.5235,263.7656,203.2548,140.3577,27.3146,90.2336,-119.9776,-29.1867,28.9505,160.6389,1.1368,184.4962,-114.1578,-9.1422,281.4423,239.6366,164.6815
195.5128,196.4629,214.8469,234.0767,192.7084,107.9592,-27.6294,24.8533,-176.8949,-99.8690,83.4994,111.6618,-8.5625,142.3096,-151.4895,-7.3219,324.1700,236.9833,157.6868
178.3711,159.7116,218.1413,226.6948,158.8609,95.0124,-115.9325,-9.7484,-222.6838,-134.6362,83.6957,81.8501,-22.6496,96.4212,-155.9187,-25.1428,308.8176,230.2498,124.2425
167.9749,165.0547,172.6759,226.7623,115.7200,72.4358,-131.9746,-14.6781,-199.8240,-120.8628,46.8956,97.8054,-52.1096,81.7484,-77.3922,-67.2762,276.2176,206.1430,95.7646
218.8314,160.6064,165.5113,207.3983,113.7611,31.9787,-94.0889,-12.9109,-141.7290,-117.7220,45.6618,102.4215,-55.3112,72.0247,10.4579,-65.8421,263.8450,165.5343,45.7978
214.6477,90.8138,179.5108,138.0671,111.5964,-13.9530,-113.8925,-11.7826,-138.6756,-124.7397,68.6809,84.2825,-25.6960,42.7945,-0.8783,-40.9745,211.6900,88.8011,-40.0677
129.5629,23.5247,135.4525,45.2515,57.7244,-68.1002,-181.0048,-45.1045,-178.9487,-117.9628,71.5215,69.9957,-2.8397,0.8222,-44.5227,-79.4533,112.9825,2.9897,-95.2519
92.4989,19.8899,73.4724,-2.3260,-1.3251,-124.7111,-181.6391,-94.7157,-161.3429,-127.2565,58.7855,48.4663,4.7348,-34.3680,-18.1334,-137.0833,57.6607,-23.1648,-83.0505
110.5002,23.1149,61.6071,-8.5439,-13.1307,-150.0620,-102.3883,-76.6461,-77.8494,-115.6770,47.4477,28.6610,19.4746,-36.3971,14.8992,-108.8711,35.4623,0.8074,-78.4920
75.7258,-11.5409,56.3108,-40.8495,-17.4290,-145.5114,-50.9546,-13.8153,-30.2425,-43.3390,34.2477,27.4315,36.5768,-18.6543,-5.7484,-49.7119,-52.6758,-10.9094,-138.4428
-3.9050,-52.6222,-5.1609,-107.1773,-84.7771,-160.7996,-85.2162,-18.6695,-46.8604,-26.1589,9.7773,5.0755,28.5619,-26.6324,2.0054,-59.1208,-182.0961,-84.4295,-204.2278
-40.4342,-73.7139,-88.2626,-138.4250,-192.1805,-178.7202,-135.8095,-71.2234,-50.9983,-98.8033,-9.2185,-26.0954,3.0834,-33.3684,74.6101,-65.0967,-232.7298,-141.7583,-210.0973
-6.8205,-58.0727,-100.6857,-91.3101,-220.0499,-115.8639,-119.2891,-60.5570,-21.5252,-95.9151,22.2317,7.5099,14.3724,12.8931,124.8345,6.5937,-176.9400,-119.3035,-178.0362
60.7945,-4.3123,-25.3492,-25.0890,-129.9811,-7.8170,-54.9600,-5.7288,-11.0115,-14.7733,82.5063,53.5166,82.6851,49.5954,113.9238,43.9414,-99.8017,-77.9038,-162.9784
86.2374,22.7986,29.2982,-33.9357,-51.3052,4.1406,-21.5174,-5.3946,-24.0894,-27.1672,79.3301,13.0113,139.9634,9.4709,87.3461,-23.4339,-88.5262,-112.1085,-186.3669
36.6456,-15.2870,-2.9957,-98.7016,-78.0685,-78.2895,-47.1190,-59.3954,-38.2594,-101.0167,35.9861,-44.2168,126.7053,-38.0453,68.1630,-74.0044,-132.0508,-183.0958,-226.3366
11.4149,-43.7689,-26.5933,-117.0987,-132.9766,-119.2825,-92.0461,-107.2940,-73.0235,-112.7439,70.1282,-31.8331,83.8763,-39.0869,56.3628,-50.4577,-131.5575,-182.8644,-232.0750
79.9382,-6.9007,20.0562,-82.8515,-134.1071,-98.8724,-98.4987,-129.6844,-111.6399,-114.5648,137.4869,-13.9153,69.0699,-47.9672,48.2780,-48.8880,-56.9630,-113.4935,-181.0732
133.8504,50.9302,52.1790,-56.1235,-93.6327,-90.2697,-38.8128,-121.4130,-89.2296,-130.1753,110.4055,-18.9883,79.2416,-60.2762,17.2756,-77.3008,1.0233,-36.1038,-126.2716
97.9363,101.3546,44.8113,-5.9848,-24.4037,-64.5407,42.7721,-70.9012,-32.9648,-68.1582,45.6432,24.3510,102.5975,-4.2696,-25.8560,-48.3607,-0.1185,53.1809,-129.5300
67.6735,165.2312,60.2463,114.9095,45.5592,35.1029,64.8792,7.5050,-31.9833,47.0580,43.8587,107.1418,121.6069,91.1422,-22.9501,23.6973,4.7140,145.3654,-169.0211
95.1597,233.5806,69.5160,243.7641,46.3940,140.3711,20.3259,83.6510,-64.6803,124.4277,57.4138,160.6902,91.6530,139.0314,8.7918,73.2228,54.3042,165.8733,-178.5897
119.6213,270.1759,53.0174,297.6286,5.2844,157.8969,-18.8192,130.7392,-57.0087,158.4879,73.4397,174.3989,33.3620,129.6618,-2.0925,97.2458,125.1879,95.1025,-146.2868
137.6732,245.4373,101.6370,257.5315,32.5011,101.9437,-18.3639,127.6611,-40.1741,142.8379,146.7643,141.2354,26.8974,98.3349,-28.5782,96.5815,180.8294,3.3080,-107.7131
170.1467,155.2049,186.6299,150.6354,104.7854,40.4221,-10.7210,92.0893,-64.3794,81.6751,189.9805,55.0997,52.6452,68.4978,-8.5797,78.6122,178.4606,-45.6490,-79.0790
161.5376,66.8652,163.0805,64.6453,99.4079,6.8194,-22.4446,69.9175,-87.5684,42.1493,117.5717,-14.1535,35.0835,45.3842,12.4531,89.2402,129.4504,-42.5417,-59.7535
112.1120,66.0850,80.6060,70.3490,30.6709,-8.5533,-52.1340,51.9658,-84.2452,8.6047,60.1230,-2.3706,14.7490,3.3542,-15.3031,107.8695,108.9416,-29.9030,-62.8886
108.3655,122.9289,87.4691,98.3719,16.4612,-25.0800,-90.1960,-11.0555,-102.2825,-76.8423,108.3755,56.0903,46.4637,-53.0055,-43.4211,70.4627,118.1243,-50.2013,-89.9077
139.6867,137.7617,131.9671,69.0288,66.7847,-38.6027,-123.2359,-96.3596,-144.4950,-133.6840,144.4429,92.2748,57.1708,-59.8483,-40.0806,18.7896,99.2377,-68.6313,-109.8022
134.6798,102.0984,117.2310,45.2332,96.0076,-36.9931,-137.2529,-129.1620,-149.1153,-102.9010,118.3889,78.2070,5.8748,-26.0313,-32.3192,7.0273,88.1864,-39.3751,-94.8726
131.8750,88.7501,97.7839,81.4729,78.8928,-26.5255,-114.5777,-103.2222,-102.9474,-80.0916,123.1506,48.0129,-21.0892,-31.8396,-20.1836,-20.1834,125.5955,-6.2682,-50.1395
168.5810,135.5603,99.8649,121.7309,53.7444,-3.0542,-57.0896,-68.8198,-67.0093,-91.9043,154.9174,63.5309,4.3800,-39.9772,-3.5228,-68.7970,130.6087,-0.0559,-7.0241
156.8102,214.4294,60.2373,145.1331,21.4469,43.8581,-27.7622,-42.3364,-92.7871,-63.5355,127.8901,112.6757,4.7710,36.2563,-15.3425,-48.9432,66.2827,29.1716,4.8046
67.7823,257.7930,-2.2665,181.9879,-40.4752,79.6072,-70.9194,-15.4253,-146.9585,-16.6568,56.7888,117.9975,-39.0701,114.2393,-49.8706,28.7435,24.0170,71.4643,3.7651
16.3239,215.8029,-23.6450,206.4804,-91.1035,71.0194,-105.2739,6.2331,-139.1763,1.6396,13.4437,76.6508,-77.8005,87.1501,-81.1284,76.7085,37.7571,61.7505,39.4186
43.1336,135.6046,-19.6260,202.9142,-70.6217,54.0966,-55.1572,22.2798,-56.9206,29.1078,11.5045,60.0921,-96.0369,48.5278,-114.3100,95.8028,47.5430,38.6814,94.8297
59.0910,126.9200,-20.5473,219.4123,-11.6273,61.1756,0.3364,35.9204,7.1732,67.8120,16.6284,94.6107,-98.4393,100.0924,-114.2148,105.4617,34.4085,67.0794,100.2765
35.8731,211.2720,-22.2780,255.3594,11.9321,65.2394,-0.8414,34.3423,26.9159,78.1287,-1.6906,147.4852,-76.9622,151.3154,-35.4521,78.7972,12.5466,97.4215,69.0436
25.0224,278.9746,-26.3508,248.0148,5.8189,56.8322,33.3781,24.4567,80.7647,87.4669,-26.3914,165.0208,-33.0322,119.0054,48.9891,51.5877,-20.3383,81.3820,76.3853
28.4189,231.5046,-27.1414,179.9487,11.6752,60.9556,130.9746,44.7626,160.7381,128.7161,-11.5025,108.8511,23.9519,80.2738,54.8415,84.8202,-58.8622,56.0597,114.1356
16.5265,108.9194,-25.2301,88.9364,12.4029,72.9488,156.6989,94.1602,164.6031,165.2677,30.2938,24.0949,69.5315,93.8260,28.0930,131.2237,-106.4433,41.8895,122.3642
-7.3593,28.5322,-52.1810,19.9087,-19.7442,79.0351,71.2547,112.7326,98.0815,146.2605,40.5458,-8.9535,62.8712,101.0455,7.2145,115.5393,-161.5708,36.8901,102.5807
-40.2813,27.7890,-94.4899,-3.5976,-57.2350,86.3739,9.4404,72.7983,57.8725,79.0986,9.7621,-3.0099,16.6436,71.8269,-39.4327,61.2645,-175.7453,61.0434,75.4988
-81.4478,35.8814,-101.8432,-12.5411,-66.7472,79.1957,25.2117,22.4829,57.2907,58.8327,-35.5921,-15.1675,-6.2114,56.3967,-66.0368,38.7465,-150.3349,80.4635,31.4154
-108.4843,-6.2223,-106.6814,-52.5801,-67.2538,41.1618,23.6833,10.1354,55.2237,152.4899,-81.7361,-39.3994,-9.7399,73.8740,-15.7965,73.9820,-176.9269,31.5336,-19.4863
-124.2757,-73.3950,-159.8735,-99.9797,-94.0483,20.9865,-27.0678,30.1022,62.5988,253.8264,-111.0405,-45.0740,-44.9632,99.1051,33.5330,131.1768,-265.5925,-37.5020,-54.3873
-153.7072,-106.4400,-202.5226,-100.7420,-126.3222,67.4572,-40.5685,60.9630,95.5807,251.7902,-119.4541,-10.8136,-75.4282,137.1220,30.9352,160.4272,-318.1848,-24.5750,-73.5767
-173.6889,-80.5165,-180.6647,-61.3715,-106.8170,134.4247,13.3956,94.1165,117.0867,227.0075,-125.3722,71.4584,-32.0982,188.4700,46.8231,174.7738,-305.1746,62.6295,-68.2883
-151.4487,-24.2124,-147.1255,-24.1029,-46.2489,148.1085,52.2002,118.5706,81.5008,246.1669,-110.2839,135.6804,41.0563,200.3347,77.8837,213.6318,-259.5128,149.0342,-36.0582
-113.1545,18.4394,-128.6586,-0.3545,-13.3917,123.5530,36.5684,129.7759,-0.0248,230.1781,-55.4358,106.3840,57.7740,152.3705,51.6041,232.6216,-177.0059,210.9331,-17.5633
-88.1714,43.1639,-84.9609,25.2805,-7.3892,125.0807,40.3814,137.7548,-47.0380,178.4287,-21.9468,31.3205,33.8428,103.3879,5.7112,174.4238,-89.8654,250.0538,-27.8032
-74.4509,69.9172,-39.1668,55.0432,18.9412,151.8028,100.0770,143.4367,-2.5556,181.1773,-54.8185,-11.6945,31.9037,95.3524,-9.0002,106.7683,-72.6421,247.6527,-27.2680
-88.3943,95.0234,-54.4140,72.7551,34.9033,165.5638,138.5766,156.3446,69.0121,230.2502,-94.1815,-29.0595,41.2642,119.6968,-35.0198,120.3388,-98.2862,216.0309,-2.1119
-132.5195,114.4246,-104.7056,88.1685,-3.0368,194.1233,112.8055,212.4831,79.5275,285.3690,-91.2346,-24.1483,14.3307,169.1654,-53.5848,173.8926,-76.4317,214.0853,30.4108
-153.3033,137.2802,-118.9813,133.9401,-47.6091,268.2411,75.4081,297.9507,53.8972,336.0760,-78.0721,11.5239,-35.4417,216.9442,-0.0941,188.2008,-16.8224,250.5433,61.8163
-133.5860,140.4481,-100.0440,179.1610,-59.1071,312.5042,44.9023,336.5642,40.3944,332.8579,-80.4285,29.3439,-56.7468,227.9632,47.4924,185.7798,4.0607,249.2501,69.7825
-125.2158,104.7647,-102.4458,151.6739,-70.1516,265.2084,-9.0858,321.0637,15.8857,294.0743,-90.7119,17.1537,-53.4199,237.3535,-1.1107,219.9150,-24.5976,183.6402,46.7847
-137.2257,78.7371,-132.3856,79.2492,-93.0933,203.4682,-58.0399,309.6301,-8.3800,294.9798,-105.7964,24.1027,-69.7915,268.5110,-49.6429,260.4268,-49.7102,143.9337,32.8044
-130.1307,95.9314,-135.2956,56.9344,-108.3871,195.6895,-52.1739,286.0997,31.5197,260.7297,-116.6259,44.8182,-92.1470,247.2533,-6.1311,253.6317,-40.3701,180.9441,29.0318
-112.1764,112.4200,-90.3436,94.3645,-114.8227,200.7162,-12.3420,224.2616,109.8535,150.1231,-112.3953,75.7914,-70.5492,179.3269,37.4503,232.1920,-23.7229,221.2664,-4.2099
-106.7001,111.3319,-56.3430,146.7697,-102.8806,199.3638,11.0474,196.0676,133.8789,147.1651,-97.5449,159.2613,-31.7516,191.0335,1.6635,250.6137,-31.4600,212.4711,-41.0829
-85.7461,134.9965,-66.5240,195.5656,-69.2848,202.4941,-6.4887,210.4357,92.3952,259.6179,-66.8223,230.3521,-35.8187,246.3287,-30.2567,260.2129,-44.3197,184.6602,-56.1862
-33.4701,183.2300,-63.7300,207.7741,-48.5115,157.0184,-57.6395,160.6279,42.0013,232.3092,-13.9106,195.9848,-47.6667,184.4321,23.1063,197.6825,-42.1039,149.8660,-101.8642
12.1882,219.4792,-23.4980,179.5341,-44.6335,65.7794,-94.0868,76.7345,12.7755,100.5943,38.3804,151.4808,-8.2510,81.8254,101.9947,134.5259,-50.2567,110.5518,-160.6938
27.5856,241.3695,-10.3288,192.1594,-33.2976,42.2129,-82.5947,105.1744,8.8801,123.9391,70.5190,196.9604,32.6544,128.0125,107.7390,161.1594,-71.8984,111.1650,-131.3100
33.7493,252.6957,-32.7031,256.0910,-37.0670,97.6429,-60.1180,201.5367,32.8426,226.2839,89.8529,243.1107,15.4398,239.8466,46.5639,225.7990,-68.5018,154.2053,-39.7762
57.3244,258.9584,-15.2181,269.3503,-55.6466,132.2340,-49.5560,216.6057,72.0674,214.6097,109.3823,245.1055,-9.7735,246.5780,3.8931,252.9916,-38.2008,181.1976,-1.9241
107.9559,309.8687,38.6133,242.1702,-31.8339,153.7789,-19.1993,191.7386,94.0378,201.8041,142.0421,290.7468,-2.5164,220.3097,10.0681,269.2836,-4.2008,182.3130,-11.2934
181.5082,433.1044,54.3097,286.0775,13.8980,216.8828,23.5085,231.7439,86.1078,293.7508,183.1471,375.4777,-11.9274,267.7093,17.9786,297.2384,44.3078,192.3736,7.9536
284.5571,575.6872,60.7309,371.5429,27.6105,268.3730,57.3544,290.5898,103.9153,370.3444,215.1216,438.3623,-36.1228,321.5002,14.5154,297.8287,117.7437,216.1829,67.6998
446.8455,697.4059,153.8339,399.1878,76.8899,280.0899,124.7585,311.8796,197.8951,380.5518,276.0060,511.5851,2.2038,338.8688,43.0512,262.8202,207.0814,251.7354,153.2800
660.6804,824.0224,315.0298,407.3023,205.2460,312.2951,215.3928,328.3215,281.1032,371.6547,414.5309,595.3075,86.1027,369.9471,101.9935,229.4429,313.3544,302.7274,235.7869
844.3644,960.7976,441.0073,463.0297,298.2484,358.2076,233.3448,342.8717,246.4522,333.7493,561.1274,624.9207,120.2818,403.5072,134.1434,226.4025,417.2031,352.7223,265.5510
927.8276,1051.7655,496.9958,527.0063,305.7542,381.1044,203.4497,341.4583,191.7728,309.2473,616.3433,624.3525,114.2230,413.5679,124.9058,261.0166,476.3738,398.7981,260.2835
909.5060,1040.0189,506.8915,554.4489,324.9404,430.7042,251.3030,366.8855,262.9498,365.4343,599.1457,627.3389,144.0896,437.6936,116.6882,303.2511,488.6932,440.9503,281.6848
802.9193,920.2130,473.4891,537.7102,368.7761,505.2813,343.2562,424.5756,369.6886,422.9897,540.6317,559.2172,183.9167,450.7458,123.3146,308.0296,465.8053,426.7990,316.6728
634.4548,744.2935,403.7435,451.6965,356.3675,490.2696,348.7189,441.8099,359.5843,402.2230,415.1295,400.4465,160.1132,368.1942,105.7569,283.2708,386.7383,326.2436,316.1010
474.1851,576.3013,320.7719,311.1820,290.9160,359.4671,292.4930,379.5169,289.3169,347.4827,269.0884,261.6881,90.8062,223.4147,47.3560,251.1252,256.3407,201.2530,268.0691
344.2008,431.8974,205.0352,192.9804,202.3257,214.7799,260.8182,267.8028,252.9171,264.4285,162.3392,195.8764,29.1690,123.3036,-9.5426,181.4548,114.7412,103.2688,175.8218
171.0268,286.1758,34.0023,122.4507,71.4897,114.9615,211.3681,155.3519,194.9822,146.4704,31.4611,134.0456,-27.3983,64.6517,-31.4218,72.2633,-21.0872,19.0853,85.2676
-58.1783,120.7285,-122.1429,47.7933,-55.5735,43.4478,101.0411,82.7601,79.6426,99.5255,-140.9189,20.4720,-84.8307,-19.5018,-33.9984,-3.3914,-128.3441,-52.4892,64.4963
-226.2971,-63.3527,-176.9610,-66.3025,-95.8819,-21.3001,4.8871,48.9561,-19.6662,138.0318,-231.2692,-116.4137,-121.8224,-109.9388,-30.4835,-14.6970,-169.7487,-103.1492,66.5953
-268.7530,-234.7083,-162.3134,-190.6301,-91.2466,-90.8111,-38.5811,9.4496,-71.4620,94.6808,-215.4209,-213.7931,-144.4930,-147.9652,-26.6342,-18.0555,-167.7639,-152.1932,-10.6202
-267.1287,-339.1380,-160.5898,-254.4736,-134.5792,-147.4020,-99.5273,-60.2680,-111.9376,-66.7821,-203.9353,-249.5177,-172.6204,-158.7663,-59.2691,-56.7159,-171.3391,-199.6540,-134.3864
-299.0728,-374.9568,-181.1453,-229.5199,-200.4591,-162.7136,-195.0136,-142.0413,-146.8541,-176.4625,-219.1128,-254.0260,-189.9380,-199.0741,-126.9303,-115.5103,-183.9900,-231.6481,-211.9453
-351.3156,-411.5873,-205.2211,-198.0983,-217.1613,-163.4547,-238.4760,-196.5206,-163.6667,-167.3961,-226.3218,-251.7185,-181.7245,-230.8978,-149.4308,-161.1823,-212.7912,-265.6422,-232.4540
-404.7326,-477.2499,-241.0520,-238.8791,-207.0508,-178.8770,-199.5224,-183.3745,-172.5398,-137.6478,-254.6488,-247.9068,-164.4422,-183.0053,-109.5446,-175.9731,-263.6925,-299.2533,-195.1391
-467.6675,-516.4820,-274.0829,-291.9799,-224.8592,-172.1574,-159.5524,-127.8247,-181.0054,-139.7751,-298.5129,-257.2653,-140.6050,-108.9432,-90.8161,-172.1027,-284.0460,-301.6575,-107.5570
-524.2434,-513.2305,-279.4774,-294.4076,-251.2090,-147.3360,-165.7876,-129.9410,-179.4488,-162.8477,-312.7084,-277.5759,-102.6867,-125.7094,-98.4409,-171.2105,-267.2276,-299.1767,-66.5831
-543.1763,-547.5132,-278.4347,-322.8523,-248.0041,-192.9288,-163.7097,-219.3217,-150.8701,-217.8224,-322.9792,-298.5636,-76.1915,-220.9088,-57.4701,-171.5023,-295.4207,-335.2924,-111.1739
-526.7191,-659.5811,-287.0285,-419.8614,-233.5731,-309.1338,-117.1717,-303.0689,-90.2521,-276.8926,-342.8824,-351.8866,-79.3542,-288.2116,-2.6274,-168.0340,-354.3554,-367.9613,-119.4449
-508.6508,-753.8163,-281.5921,-469.8274,-222.4138,-367.2669,-67.8368,-322.6251,-26.8451,-277.4213,-325.8594,-433.0956,-84.0595,-303.6563,-23.2026,-175.9836,-327.8400,-336.9855,-26.6224
-507.4957,-727.7010,-259.1874,-407.5062,-182.2792,-310.9060,-41.2381,-317.0655,4.0967,-258.1079,-293.5063,-442.7181,-73.7313,-308.4280,-77.3748,-204.1865,-219.1778,-262.2821,71.2014
-486.4097,-621.8839,-224.1384,-320.8336,-109.5336,-220.9060,-20.7696,-310.9976,-2.0626,-298.9518,-283.6795,-346.1242,-67.1629,-298.8349,-85.3897,-239.4108,-128.0187,-190.3642,111.0803
-397.0923,-538.6121,-152.4350,-254.7957,-45.6928,-160.4955,-19.2152,-279.6764,-34.4093,-331.0760,-240.9482,-256.2215,-65.4859,-258.2722,-82.5703,-256.0875,-74.6326,-129.8629,132.7156
-287.3844,-487.7018,-78.4866,-166.3807,-9.3879,-114.8226,-48.5596,-210.2585,-59.0448,-238.9195,-168.7944,-251.1482,-59.8618,-207.8590,-109.3987,-230.1967,-53.7678,-78.9134,161.9643
-264.5297,-434.1860,-89.3833,-91.7936,-7.9249,-80.2736,-56.7383,-122.1903,-24.6019,-91.0933,-165.1161,-273.5583,-67.0140,-166.5065,-106.7707,-174.3281,-103.4350,-60.9500,185.0960
-312.0668,-408.3763,-154.6033,-111.4039,-49.3450,-88.6378,-13.7805,-65.8452,39.9861,-36.9352,-198.3131,-261.2653,-82.4033,-144.1802,-36.2163,-139.8869,-193.3302,-114.4713,181.8772
-305.0991,-440.6315,-151.0988,-191.1718,-78.9896,-142.3841,16.5379,-90.9973,40.1525,-77.9151,-160.2458,-238.1333,-66.6272,-162.7963,30.7692,-152.9060,-226.9423,-232.8836,135.7010
-231.6349,-478.9906,-73.4356,-247.7645,-36.2310,-199.5161,-12.2212,-167.1931,-8.6615,-117.9621,-100.1959,-250.7330,-27.1184,-213.4955,19.6665,-185.0566,-184.1152,-328.9849,74.0663
-187.3630,-466.9577,-11.1839,-269.9082,30.2790,-224.2337,-52.3888,-202.1706,-9.6371,-110.9156,-98.2553,-284.1689,-17.6242,-245.1936,-30.6735,-194.4987,-119.6011,-328.6376,53.3455
-171.3742,-415.7454,19.8438,-268.8958,50.6202,-219.1518,-63.3962,-169.2289,8.7022,-74.0589,-90.0696,-282.1479,-43.2252,-237.1691,-32.5982,-168.7549,-70.8272,-268.1011,72.0616
-120.2098,-362.5629,39.2108,-246.1517,41.5604,-203.4001,-74.2058,-124.0147,-44.6474,-56.6281,-47.6167,-248.9538,-65.7952,-217.5783,-4.3804,-141.5778,-50.6489,-219.4465,83.0499
-67.4447,-333.7705,19.5154,-231.2175,25.0584,-174.9854,-103.9395,-99.4795,-123.2378,-82.5881,-61.7307,-241.7177,-79.4264,-199.4121,-37.2652,-147.3902,-58.3235,-190.4043,67.8132
-62.8961,-339.4527,-29.8822,-232.5263,-1.0987,-122.7822,-123.5947,-86.9625,-136.9263,-116.4039,-126.5967,-251.9016,-94.0076,-168.8969,-97.4982,-157.3972,-69.0856,-162.9838,25.8748
-70.2542,-361.2036,-45.3804,-219.8261,-4.1099,-80.7934,-116.9828,-99.6929,-112.7435,-150.3602,-134.8480,-240.6064,-94.7858,-141.1936,-61.4126,-142.2818,-59.9023,-141.4611,-40.9325
-76.7174,-373.8338,-26.2857,-210.2224,15.4172,-109.6376,-106.0289,-154.8527,-99.6551,-205.6623,-98.5822,-246.4880,-78.1724,-158.4430,34.0620,-143.9753,-34.3790,-128.5990,-103.0210
-114.8396,-368.0840,-23.5088,-223.9380,3.3590,-191.3938,-112.6871,-213.5359,-82.5315,-217.2641,-109.4626,-285.3412,-64.7740,-213.2970,41.9742,-169.3894,-4.1712,-119.8277,-138.8090
-143.2722,-330.2056,-29.7482,-191.2960,-17.2912,-227.0317,-131.9710,-225.6463,-59.7573,-145.7228,-142.1401,-276.9129,-49.1221,-238.6031,-13.5530,-151.3351,28.6360,-111.2135,-166.7973
-119.5146,-263.6727,-15.6832,-89.8434,9.8726,-180.3002,-130.7009,-208.1416,-45.6467,-110.4975,-123.1914,-210.2583,-6.9251,-206.1044,-6.3126,-107.8336,53.8560,-94.0643,-183.8223
-122.4624,-227.6422,-22.0395,-38.5068,27.1322,-122.4844,-77.1217,-200.6900,-19.2350,-159.6818,-98.5718,-171.8277,39.6469,-167.7531,31.2388,-128.7384,37.3437,-77.6942,-154.6270
-202.8282,-259.0167,-92.2959,-81.6182,-29.0179,-107.9389,2.5956,-193.0180,18.5500,-162.7349,-137.1971,-165.1852,40.6543,-164.8713,11.2364,-186.8815,-30.0557,-83.6845,-96.4592
-258.6511,-298.6931,-165.1977,-100.2483,-88.4880,-115.6384,37.4202,-171.0535,28.4026,-100.2421,-172.6752,-139.1621,10.5065,-172.7057,-1.7604,-189.4500,-82.3359,-87.1145,-67.3555
-216.6614,-295.3206,-151.3036,-62.3334,-73.6634,-116.3206,11.5699,-159.0553,16.4185,-86.3787,-123.7418,-129.4603,18.5660,-160.1349,60.1763,-143.2267,-64.5354,-43.6758,-66.3952
-155.1782,-295.4325,-80.9992,-84.8530,-16.0556,-105.5022,-16.6698,-158.2833,18.8788,-97.9616,-62.6472,-171.5812,73.1668,-131.8499,106.8873,-104.2669,-28.2776,21.7271,-51.8262
-146.1836,-330.5337,-53.5647,-174.1819,25.2761,-87.5278,-11.3994,-134.4778,30.6678,-51.6250,-83.5020,-204.0660,110.6680,-102.6075,64.2611,-90.1239,-28.3837,55.3959,-28.3345
-152.3012,-331.6055,-72.9556,-187.7240,43.6082,-67.8559,19.8258,-81.3785,48.1431,14.8203,-125.7972,-170.8142,113.2578,-75.4258,12.4939,-88.7985,-26.7987,67.1988,-15.0249
-133.9736,-258.2782,-77.1167,-99.1410,61.6709,-40.7525,86.0081,-20.1239,99.6851,61.4530,-100.1835,-93.1878,121.2147,-41.2592,35.5242,-61.3629,-11.2005,82.1487,15.8350
-117.4712,-189.7373,-81.2135,-59.5645,70.0415,-10.9447,180.3868,24.1874,169.9754,82.6983,-53.9773,-26.9129,129.8855,-1.4475,94.2960,-6.8863,-42.7202,71.3879,77.2411
-126.0873,-192.0839,-129.8896,-149.4267,26.1470,-23.4321,233.4456,20.6081,199.5901,34.9913,-65.7422,-13.2529,106.7061,10.1395,108.5452,5.6502,-108.6842,16.3939,118.9604
-135.1102,-220.0614,-177.3175,-252.1232,-49.3345,-89.9830,203.3372,-13.3551,175.4723,-38.2840,-106.3647,-34.7723,77.9544,-20.8292,67.6897,-5.1712,-123.1980,-43.0203,107.7885
-121.9783,-225.7982,-166.3247,-244.4690,-76.9395,-140.8763,139.6035,-11.5467,126.0633,-31.0778,-109.5575,-40.9000,72.0398,-44.0437,35.0638,56.1034,-87.8287,-80.3724,71.7014
-105.8710,-226.2669,-133.4930,-176.1634,-67.3608,-144.5456,86.1502,15.4446,60.7540,0.7437,-80.2634,-36.6527,54.6232,-32.9546,61.1645,117.0800,-73.5536,-115.9340,32.5996
-105.2127,-215.2275,-126.7687,-157.4937,-91.5933,-154.5357,23.0925,-4.4783,-11.8955,-41.7190,-69.7468,-49.6758,15.3318,-41.5943,103.7901,42.9608,-91.4953,-150.8607,-15.5316
-103.7337,-162.6329,-126.6299,-182.9361,-121.7181,-175.3517,-51.8918,-51.5176,-62.3485,-92.2462,-87.7311,-52.4884,-1.2191,-94.0315,88.0353,-70.9852,-102.4917,-145.6206,-63.7013
-88.8678,-106.6219,-103.3638,-182.0335,-102.9630,-153.2394,-88.1017,-62.9364,-75.5323,-96.9052,-81.8394,-34.4673,5.7390,-136.7656,34.8881,-86.5918,-81.1969,-83.0563,-95.7832
-64.0296,-91.7705,-61.3599,-136.9055,-63.4339,-103.8128,-58.9925,-61.5445,-62.9329,-112.7223,-25.2428,-40.2139,-2.4195,-144.3767,21.1024,-76.8982,-31.0011,-5.6465,-111.0178
-20.8599,-73.6202,-22.4642,-64.4663,-19.3696,-78.9345,-11.0142,-74.0240,-51.3137,-138.9813,23.0562,-64.3862,-18.8711,-139.7938,32.3613,-107.9856,9.8834,24.4424,-110.1171
22.8928,-17.7742,-10.6299,8.6656,26.5873,-71.8625,-11.9280,-74.8289,-78.3399,-153.7010,11.0555,-60.1121,-23.7152,-126.6975,1.7424,-111.7471,6.0791,-5.7798,-105.1708
9.0386,30.0939,-28.8676,38.8837,10.3679,-68.9990,-66.3017,-78.4524,-143.6544,-193.8234,-23.8109,-41.8236,-31.0865,-109.3790,-41.6867,-89.5183,-24.9201,-43.8543,-122.1600
-52.2728,57.5468,-54.1576,29.2252,-57.9993,-82.0954,-109.7453,-103.2486,-178.6581,-213.4142,-29.9145,-33.4153,-40.6476,-108.5938,-24.8278,-98.3500,-51.2020,-46.2638,-149.8227
-68.2672,94.7401,-68.2315,29.3607,-60.3411,-99.2842,-98.6111,-105.2189,-140.2303,-138.8447,-5.3133,-7.9840,-33.3253,-115.0620,21.0271,-108.9895,-65.0954,-37.8563,-146.1873
-18.6267,98.0421,-57.9017,23.1085,10.5429,-114.3187,-55.0126,-90.8108,-80.8986,-68.9361,37.2681,17.1948,-15.9568,-118.8368,23.0412,-102.3924,-52.9414,-47.0291,-117.2779
25.3747,23.1207,-11.0685,-32.5523,67.7628,-142.4430,-5.8275,-121.4395,-51.9322,-116.4222,77.3845,-20.9504,5.9568,-138.3507,7.8155,-113.0303,-5.7786,-42.2670,-106.3488
40.7960,-41.9947,48.6898,-72.1421,116.7691,-145.0919,48.4484,-156.6630,-23.3041,-192.7491,88.7788,-83.8996,44.6048,-146.9507,35.5559,-127.6309,51.3485,-3.5443,-105.8381
55.9397,-12.0791,87.4871,-20.8307,171.5958,-68.9949,98.7463,-112.3877,34.9457,-169.8486,80.5705,-61.8879,82.6212,-93.0685,79.8559,-125.9075,97.6760,26.6144,-66.8329
71.6436,31.3716,119.8618,46.8133,183.3145,35.4967,133.9073,-21.9162,85.7907,-75.2660,68.0304,27.4543,89.9618,-13.1954,89.6850,-114.0598,128.7474,27.3137,8.1095
90.9861,-12.6175,160.2395,35.6613,171.3200,79.7973,161.0431,38.1201,92.0014,-22.1460,41.1780,57.0112,78.9467,28.1792,76.4681,-59.3387,134.9473,34.5544,58.6804
126.4028,-75.6069,180.1752,1.0611,174.3892,74.5090,176.6005,60.4930,76.0862,-44.3317,34.1101,12.6613,74.2765,51.8337,63.0710,29.6387,138.6861,58.5034,64.2238
148.1691,-44.8838,179.2453,37.6752,148.7127,82.3838,164.5126,65.2482,73.6516,-49.3341,95.0925,1.4167,71.2269,80.4052,41.3439,65.2635,177.8882,69.3222,73.8975
131.0627,29.3835,184.6003,113.5950,104.2863,103.0655,126.8436,66.0617,70.4397,20.3750,157.5519,42.4189,60.7701,74.8641,15.3020,52.9622,216.2121,60.1141,103.5469
97.6129,24.4279,173.9442,128.3841,109.6158,90.4564,71.5628,64.8837,29.3464,67.5421,127.7774,63.6998,48.1761,40.6583,4.6329,72.1417,198.3657,36.7382,94.7907
59.9135,-37.5020,131.1105,65.1032,127.0358,33.3845,5.7399,34.8237,-35.3027,26.6799,55.8194,72.5507,40.0825,31.6241,5.2038,93.3838,165.6858,-12.0376,31.8413
30.6193,-46.0407,110.2480,4.7093,109.0507,-36.7114,-42.9553,-23.0131,-69.4453,-24.9339,32.8576,107.6899,39.0016,36.5119,-0.0728,63.3507,174.0946,-73.4254,-20.2905
56.2867,-7.3093,134.3863,1.8250,105.9666,-92.3212,-51.2414,-58.6966,-58.3158,-60.4909,40.5115,118.8897,42.3087,19.7186,-11.3408,28.6767,188.3591,-102.5236,-30.9979
117.8935,-0.1482,150.9755,18.1558,109.6045,-118.9241,-24.5051,-65.0077,-21.8237,-110.0239,37.5246,87.8053,48.2750,14.6046,-8.4715,22.8217,167.3219,-92.3260,-21.0069
125.7620,-13.2689,139.3992,12.2542,64.5073,-101.7271,30.2892,-72.8877,34.9648,-107.7736,37.5772,88.5180,55.6381,47.2067,32.7174,31.3808,131.9033,-91.1620,8.2501
85.8812,0.8478,126.5984,5.2330,25.5931,-60.2011,90.6926,-72.8089,84.6652,-41.6965,51.6845,113.0945,42.7118,64.0927,86.4681,58.0301,104.4411,-122.5590,32.7693
83.4499,24.1405,113.7477,7.5025,35.1695,-47.1025,95.4142,-60.4828,65.7103,-28.9570,89.7154,82.9494,-3.1876,26.1610,65.9860,69.1247,88.8386,-140.0024,-0.0164
113.4961,38.0087,94.3738,-4.7142,22.7879,-56.7962,18.7057,-66.4051,-18.1099,-64.9081,167.0621,31.1797,-34.1750,-20.2092,-44.2757,25.6669,86.2024,-107.6304,-59.0412
118.4887,52.2728,80.7267,-11.0437,-23.7372,-34.2280,-84.7533,-82.5235,-89.0938,-55.1330,228.6245,23.8284,-12.6141,-22.0636,-118.4349,-11.2112,74.6921,-77.5071,-77.2136
100.7325,46.6452,66.9508,18.8548,-47.9783,-1.1917,-161.9174,-87.8592,-117.7675,-51.3824,190.4280,21.8720,5.3350,-1.9606,-78.6005,-8.4787,40.1149,-105.8673,-89.0384
70.2377,15.5424,41.9926,31.6158,-64.1340,-18.3886,-207.8993,-104.8082,-137.2368,-106.0502,81.9168,-5.0643,-29.5130,-13.1349,-30.6690,-40.9982,14.5137,-148.2346,-131.8716
29.0785,5.9334,25.3981,-21.2953,-86.6324,-46.2480,-219.3457,-121.4075,-150.5741,-134.6517,14.7193,-23.3124,-64.7512,-44.5763,-66.7432,-94.5450,19.9958,-136.2697,-125.2681
30.5481,25.8103,35.2440,-70.7538,-71.2993,-16.9955,-173.4805,-80.1097,-122.0089,-104.8782,30.1833,-35.5956,-49.7633,-39.8683,-98.3275,-69.9398,37.6088,-77.3822,-10.2597
93.0829,33.8566,57.5880,-50.4676,-19.3990,34.2619,-53.1841,0.0802,-32.7694,-56.7559,72.7071,-53.6515,-6.0725,-13.8227,-32.7668,-15.5933,55.2428,-6.4949,133.4827
132.3320,29.2905,64.2439,-18.2615,32.9583,44.3613,105.3264,26.4800,84.0297,-3.0170,79.6406,-57.5174,48.6078,-47.1330,60.8757,-45.8735,66.0250,43.0055,187.4953
103.6947,32.3181,42.0913,-27.8991,77.8390,12.3472,196.3569,-35.9598,151.5173,-5.7005,52.4339,-62.1059,106.5685,-136.5887,87.6957,-114.4630,51.4418,23.1645,118.2776
69.7904,33.0256,16.8721,-24.4608,96.1899,-36.7890,166.5932,-120.6425,137.3284,-92.8003,43.8154,-71.0392,126.0807,-177.9642,69.6848,-119.1534,22.1280,-36.9479,14.3536
59.9517,29.2362,16.2087,23.2913,80.1146,-69.0503,106.2222,-144.0867,97.9072,-142.2340,69.2711,-38.1053,96.9136,-133.3820,59.2418,-83.6526,-1.3733,-30.8191,-8.7710
25.0826,32.3930,1.4557,49.7285,53.6639,-53.2192,82.2202,-116.7763,58.7091,-120.7303,76.0302,1.0147,67.1859,-83.9717,38.8829,-81.6581,-44.8227,24.9286,23.8034
-42.1203,35.4130,-71.1700,25.0376,-6.1973,-15.4215,28.0758,-117.4116,-18.5594,-130.9934,40.3435,-35.0970,46.5930,-92.7523,-15.6569,-111.7701,-117.1492,-0.6642,15.9441
-74.8351,27.0535,-147.3987,-12.4813,-108.2241,-9.5003,-55.7501,-141.5559,-85.3540,-126.8318,12.6020,-94.7810,0.3144,-134.6310,-62.4498,-125.5618,-154.7668,-101.5209,11.2879
-35.5002,-0.8032,-155.8095,-62.2497,-149.9211,-40.1443,-46.5656,-120.1897,-49.9909,-36.8862,18.2414,-97.7399,-59.1427,-163.1907,-59.7341,-114.7666,-117.7510,-148.3565,80.8858
26.9882,-34.4052,-114.1106,-112.1061,-78.1215,-69.3374,49.5385,-78.3181,21.0189,12.4526,13.9246,-82.5306,-88.1127,-153.1139,-43.0229,-108.8967,-43.8488,-107.1263,136.8548
54.9342,-10.6495,-52.6804,-71.3335,17.0215,-56.3025,99.5560,-69.0210,12.1654,-12.1600,-15.0103,-75.5908,-82.1636,-103.5260,-52.1068,-93.9308,31.7670,-32.0374,122.2226
72.1945,74.7392,32.6393,49.1487,81.2744,-5.0669,98.9351,-48.4438,-25.1615,24.2213,-10.9263,-56.7773,-55.9342,-59.2271,-49.0206,-38.1850,96.1198,29.1639,126.3977
122.2504,100.0071,97.8113,76.9294,128.5181,17.0773,121.7704,-3.1299,-10.3503,74.6030,52.2326,-72.5413,-13.4853,-66.2938,-11.2352,3.4799,113.9385,31.9260,151.3135
157.5669,33.4310,82.3005,-19.1030,117.7609,1.4290,135.0541,8.3042,6.2851,27.3051,100.9748,-126.5102,29.1252,-79.7073,-3.0877,-27.1181,76.1151,5.4524,108.4257
117.5742,30.9957,24.4291,-42.5107,34.4510,46.8464,103.5316,18.8994,-13.8227,-8.2032,72.2390,-115.4519,47.9811,-21.9141,-40.3933,-63.4775,46.2761,64.4903,45.2661
65.4489,143.2602,14.7374,78.0262,-26.1465,154.4769,79.2636,80.9251,-29.9597,32.3545,30.3175,-41.7896,42.5327,64.2364,-38.1060,-43.8191,75.8570,207.8857,43.0677
101.3541,205.4331,83.9380,177.3089,6.8748,191.9241,66.3007,110.7204,-39.0528,31.9133,67.9767,-16.3515,35.2224,71.1941,11.6020,-20.8668,130.3095,287.1554,50.3958
200.0256,136.7854,196.1568,158.2157,102.0002,150.3962,27.1430,58.3445,-50.6354,-9.1429,144.9500,-36.6683,48.6409,16.1990,17.5726,-23.7804,146.6996,239.3816,30.1521
251.5717,41.6507,272.3043,88.7755,182.6857,127.9626,10.4893,14.6225,-25.3162,-5.8915,155.8286,-47.7755,80.2674,-2.2199,-6.7401,-16.8730,114.7658,140.7336,20.0951
205.5325,-9.6781,239.3185,21.0336,178.4612,103.9515,60.7036,21.2315,30.9600,-0.1767,101.4964,-84.4080,96.3221,14.6197,31.7681,-5.5304,78.3864,70.8294,10.4615
116.7677,-34.4340,133.7492,-27.3190,97.9359,55.7797,105.4954,45.6698,58.8435,-15.5702,63.8099,-147.4338,74.8389,14.9486,90.2038,0.8236,77.5775,68.8658,-8.8940
81.1956,-32.4127,74.1225,-15.0266,34.1492,79.8244,80.1804,98.7558,56.6367,2.4832,75.2664,-158.1476,42.5749,27.3857,60.9123,24.5498,94.6047,103.1881,-3.6694
120.6862,-6.8017,87.9821,27.7668,24.0599,147.1026,25.3616,155.2157,58.2902,29.1544,105.9414,-113.8532,32.1375,63.5701,-7.6756,39.5118,74.7912,71.0856,-1.9647
148.4840,-0.5249,92.7441,1.4166,14.8360,95.0076,-6.8635,139.0595,63.2486,29.5727,113.0982,-82.9362,29.6748,42.6808,0.0038,21.0628,12.9102,-36.9659,-39.7737
102.1641,-28.5534,53.1668,-82.9078,-17.5902,-41.5411,-24.6393,70.8595,62.0790,30.6961,73.6904,-79.3043,6.5144,-41.6058,55.0166,7.8843,-30.0593,-105.1258,-63.3688
38.5011,-48.2952,12.6301,-105.4869,-55.6515,-92.6264,-56.8690,11.1237,44.6496,5.3709,19.4686,-79.0010,-31.7048,-82.5924,54.1178,-12.7511,-24.4956,-109.0864,-64.5248
24.1410,-28.0750,-13.5017,-50.9164,-91.6323,-73.4078,-105.8511,-57.0219,5.0159,-62.2527,6.4407,-85.7425,-63.6343,-73.4282,2.0403,-83.5180,-14.7499,-139.2249,-113.6812
39.2042,-1.2245,-41.3047,-27.2297,-112.3836,-95.5915,-149.4927,-129.3964,-22.5160,-94.2285,29.8220,-109.7302,-82.6193,-108.3456,-21.6591,-133.1544,-26.8922,-202.9329,-192.5592
46.1869,-4.9256,-53.6348,-49.9656,-116.6040,-141.3207,-181.4846,-155.8074,-28.2117,-88.6920,43.1747,-116.9770,-83.6601,-156.4661,-3.5618,-99.9680,-24.2224,-231.9657,-233.1403
42.2774,5.0825,-40.9655,-11.3518,-128.1265,-141.1235,-207.3841,-148.6393,-59.0200,-122.4048,36.5940,-51.8679,-61.6590,-112.4532,5.0092,-65.0552,4.3340,-218.9192,-241.8077
20.1726,68.1977,-44.7599,89.0485,-137.3311,-92.5753,-190.5334,-138.1664,-79.2600,-167.2033,16.0050,47.4532,-34.9620,-26.7279,-11.0026,-78.1260,13.0275,-195.3950,-215.6629
-28.9023,102.4555,-75.7171,107.3078,-117.2987,-38.4980,-100.4672,-117.7212,-1.4738,-171.9617,-23.4692,54.2691,-24.6628,-19.7024,-16.1429,-89.2273,-12.1335,-174.4446,-137.7708
-77.7594,39.9295,-80.8592,11.2301,-81.3276,-27.9533,-5.7998,-111.9890,96.9348,-177.3902,-50.7993,-39.6596,-16.2392,-69.8333,7.5507,-100.2499,-36.4155,-162.5949,-85.0824
-90.4868,-40.4359,-53.0127,-71.1014,-44.6191,-54.2318,19.9401,-134.1725,90.4575,-182.3364,-29.3185,-104.3472,8.5854,-98.0895,37.9096,-125.7533,-46.5590,-153.7884,-102.5743
-64.8653,-68.5716,-44.4668,-90.0060,-11.2970,-49.5422,16.6963,-128.5681,60.4063,-129.6722,4.7631,-98.4539,27.5255,-103.8163,37.8630,-105.9784,-39.5083,-138.4397,-100.8848
-15.4402,-69.7448,-43.1808,-101.1316,-1.3278,-8.5011,23.1426,-95.0338,99.0597,-62.8055,4.1180,-60.6194,13.7533,-87.8292,-14.0973,-46.2004,8.9499,-127.8571,-62.3420
46.8637,-39.6693,3.5145,-102.4361,1.2467,-4.7460,-6.5153,-114.5033,92.0873,-85.6277,-5.6420,21.6338,-17.9122,-43.7311,-72.9223,-38.5860,75.9039,-120.7869,-86.2067
88.7155,6.2488,58.3419,-95.2005,31.0762,-62.1670,-66.2827,-191.0364,-10.2812,-190.3680,0.8687,68.4792,-33.2514,-53.4760,-54.2609,-77.3437,81.2315,-97.9761,-147.5551
59.7043,-42.3673,54.8179,-157.6171,49.4016,-136.0061,-84.3697,-242.2494,-60.8027,-249.7073,-8.3431,-67.2808,-19.1245,-162.0669,15.4834,-77.7331,6.7067,-70.9592,-130.4914
-29.2551,-167.6166,13.9456,-264.3450,17.6052,-178.3587,-78.0295,-233.0499,-34.4464,-201.5685,-43.3870,-243.2343,1.7789,-236.2219,8.5976,-46.9100,-80.3489,-70.1061,-75.6623
-97.3860,-185.5424,-37.2767,-278.0443,-29.8318,-172.1261,-109.2378,-213.9301,-68.2652,-172.7829,-74.4178,-168.1733,-12.6270,-183.6845,-73.0064,-61.2424,-135.5243,-112.6414,-95.6210
-114.2347,-93.2239,-121.6416,-215.1135,-93.5586,-175.6195,-148.7986,-254.5491,-155.0787,-272.2959,-101.0234,58.3645,-68.2833,-136.8099,-94.4189,-136.2526,-163.5507,-200.7262,-151.0153
-125.6678,-81.7619,-197.6864,-217.9659,-186.9507,-251.7062,-159.5411,-338.1045,-185.7508,-362.6746,-120.5496,103.3543,-112.7208,-197.3841,-47.7219,-203.9749,-164.2715,-284.5033,-146.4448
-128.3513,-169.2984,-177.6609,-274.3634,-220.1712,-314.6540,-168.6640,-353.5338,-180.0372,-299.8087,-88.2397,-26.7183,-103.5277,-246.2787,-39.9589,-193.0316,-137.9799,-287.6131,-107.1159
-79.7543,-208.7533,-92.7926,-263.9560,-152.9796,-257.4909,-163.3338,-272.6862,-184.5329,-189.6871,-21.4675,-94.2946,-57.8907,-193.3114,-57.2258,-120.1113,-108.7759,-233.2134,-97.5450
-37.5606,-180.7780,-60.1295,-199.8730,-110.8105,-171.6395,-110.2364,-204.3925,-157.1455,-139.7529,-21.4361,-71.0842,-15.5688,-138.7277,-21.1921,-64.3860,-108.6151,-218.4322,-97.1626
-88.4144,-173.2001,-110.2341,-183.6937,-163.2874,-166.5095,-69.1497,-188.9960,-102.2498,-90.3094,-98.2706,-69.7913,-4.2400,-150.7044,24.8558,-48.5753,-153.9424,-247.1210,-58.7719
-173.2739,-203.1528,-180.9250,-221.1237,-228.6553,-157.0987,-84.9611,-153.1291,-75.4940,-30.4838,-139.9500,-95.8121,-24.8272,-150.4905,8.7035,-39.7347,-214.5867,-239.8324,4.0491
-183.1800,-223.9249,-216.9723,-234.2996,-250.2543,-80.9334,-80.2348,-89.2938,-55.0097,-4.1283,-110.0478,-94.3066,-38.1710,-96.8719,-40.1659,-35.5604,-227.2604,-176.8765,40.1995
-143.7220,-198.3569,-205.1049,-190.0541,-232.4356,-39.9207,-24.9709,-56.8131,-16.3888,25.4546,-85.2769,-53.6734,-20.7499,-55.7288,-67.1428,-42.3765,-190.7826,-112.4948,19.6969
-137.8456,-140.6454,-174.3604,-140.1184,-184.2072,-70.3347,-17.3624,-65.7830,-13.0576,44.6599,-93.0338,2.4005,-14.3312,-60.3725,-54.4308,-41.5307,-174.0008,-95.1063,-37.2535
-163.1484,-113.9380,-169.6377,-137.2964,-154.3737,-87.0074,-77.5489,-98.2193,-48.8201,-6.3846,-100.9153,34.5775,-37.3557,-75.8999,-4.9009,-36.5257,-188.5852,-113.4270,-68.6905
-177.7749,-127.9692,-189.7244,-148.1188,-168.4690,-80.7519,-97.6495,-130.4412,-51.9767,-49.3646,-113.9423,26.6141,-33.5227,-85.3596,38.5269,-40.6687,-177.1974,-102.2634,-37.7285
-173.1100,-109.1879,-189.1026,-108.0401,-165.4571,-95.6330,-55.5083,-128.1274,-19.0645,-22.2831,-128.0483,10.5348,6.7019,-93.0166,28.2641,-40.2863,-133.8657,-38.9359,12.8964
-149.9501,-40.7306,-146.0922,-31.6445,-128.7418,-99.8690,-44.7297,-111.2945,-6.9834,-17.5256,-95.3123,17.5988,14.5057,-87.1942,-12.3920,-41.9001,-96.9304,6.7388,21.3724
-105.8243,10.3042,-82.5812,21.1725,-109.4618,-71.8528,-86.5999,-121.3088,-12.8931,-38.6372,-29.9077,44.6948,-18.1325,-71.3811,-34.4151,-67.8638,-64.1447,-8.5003,-8.9032
-51.8102,30.9113,-26.9711,46.9505,-84.9851,-61.7519,-106.6659,-125.5775,6.3928,11.3492,-4.3691,74.0542,-33.6064,-66.2551,-35.6521,-88.7041,-22.8281,-29.1171,-33.0458
-3.3612,67.0706,13.9512,87.3552,-14.1604,-68.7705,-70.5949,-93.0858,50.2150,83.9083,-19.0453,90.0746,-31.1383,-49.7930,-34.5772,-68.8931,16.0003,-4.4553,-22.1144
28.4562,114.9200,44.3491,152.7010,42.5235,-28.2169,-17.0218,-55.0184,71.9442,94.3101,-26.5549,93.2702,-40.6869,11.0045,-42.5947,-35.6879,50.7873,41.7819,24.2872
36.6280,132.0259,49.9987,198.2449,30.8404,46.2523,2.4968,-13.2933,31.5064,90.8549,-34.1783,91.7960,-44.5158,70.2556,-60.2658,-16.4087,70.6133,56.1217,72.9080
32.5547,109.6863,24.1204,175.6695,-6.0563,72.9593,-28.3856,44.2099,-43.2521,114.3764,-51.1943,74.1730,-31.5226,68.1736,-61.8410,12.7905,52.7789,18.0150,91.8298
40.6908,70.6554,13.0420,111.5393,-16.0018,61.1766,-60.2687,80.7167,-65.1795,147.0043,-39.8928,40.3805,-27.2434,52.2415,-33.6238,65.3083,34.0523,-13.5913,107.4141
56.1994,34.0697,43.7008,87.3013,2.1821,97.6398,-28.1513,96.2478,-4.8181,169.6540,-5.0402,26.7279,-28.5933,89.4531,-7.8780,102.0715,66.2826,35.0326,144.1947
38.2023,1.1454,51.8292,117.2550,18.3935,166.4513,39.8130,122.3879,59.9801,123.7847,-3.5950,38.7498,-12.9863,129.3349,-3.3724,82.7292,105.2742,116.0251,149.8310
-18.2442,-34.8383,7.4350,132.5144,14.7047,157.3106,54.5873,116.1107,55.0670,21.4272,-33.9519,32.9321,3.6925,100.2983,-5.1777,28.6609,85.8481,126.0562,90.8641
-43.1800,-72.2526,-6.0159,96.9170,22.0220,64.6226,8.1861,50.7575,-10.4401,-1.1021,-40.2688,-2.7223,-3.0972,33.0485,-18.4677,-7.2875,37.6001,76.0308,22.1332
5.3135,-103.1629,33.5591,44.8303,51.8314,-11.1232,-36.3290,-5.2942,-87.4075,44.8907,-15.2084,-36.8063,-23.0112,-21.6704,-50.5566,-26.2676,13.3780,35.3119,-15.8832
56.0954,-108.8686,32.0025,25.1798,53.5731,-38.6560,-53.7086,-18.8157,-126.4784,21.4987,1.2426,-46.7861,-30.6210,-53.2069,-74.7298,-51.0737,17.9767,32.7360,-17.4940
42.1631,-66.4334,-8.5315,62.9089,42.7109,-36.3969,-29.9057,1.7414,-86.9861,-0.0422,-7.6319,-29.6364,-9.0877,-30.8907,-67.4858,-36.5833,47.3722,101.8282,57.7808
9.2821,-5.5165,15.1297,121.4054,91.5891,23.3558,73.6436,85.3586,24.8913,85.1729,-27.5576,-8.2128,32.1504,47.5169,-20.4831,42.7083,75.0188,213.6779,190.7071
3.5094,8.3352,75.0678,113.4280,138.4505,99.7146,206.4348,177.7740,129.7028,121.0514,-48.3333,-7.3294,46.1843,86.7160,58.6984,93.4956,45.3770,213.4905,240.3086
-8.6621,-9.4980,59.4282,17.3706,78.6533,54.8316,225.6718,144.3100,135.8690,18.7355,-87.1069,12.5000,2.0316,27.1399,106.2264,50.6220,-25.7178,56.3853,145.7583
-34.8877,8.3530,-5.7415,-80.9417,-13.6146,-107.3371,112.3347,10.3692,58.4010,-51.5841,-172.6090,91.2063,-60.1051,-58.0707,65.5524,-18.1531,-53.3869,-91.9451,33.0221
-42.4256,33.6003,-32.9260,-111.1143,-33.1330,-214.4063,19.7837,-79.8611,24.3309,-33.8815,-278.4152,152.5125,-85.3352,-98.6958,-6.0079,-59.4919,-22.1438,-147.2147,17.3212
-50.1542,-7.6657,-34.6989,-100.5394,-20.9503,-208.6955,41.7719,-106.4887,93.5566,-43.5756,-315.3486,111.8963,-79.1830,-111.6483,-24.9361,-92.2326,7.3650,-184.1250,75.6318
-74.4632,-91.7628,-33.5121,-115.4369,-7.3209,-185.0210,118.3776,-115.5525,174.5147,-75.0021,-260.2740,23.2325,-65.6330,-114.7462,-6.8038,-102.3383,4.5902,-199.2642,148.2906
-77.1230,-151.8984,-8.4951,-172.4641,40.0823,-165.9764,189.4971,-92.6770,200.9305,-67.3664,-213.2041,-28.6100,-32.5783,-101.0388,-2.0997,-73.8478,-25.0395,-147.6698,210.2058
-71.7766,-173.8663,-7.4075,-217.7610,63.9719,-111.2210,245.7928,-57.6435,212.8855,-62.3382,-234.4596,-43.7872,13.6750,-82.5427,-17.9080,-53.4143,-75.6910,-113.3541,236.3261
-107.3819,-166.8165,-80.1698,-212.2152,-3.5718,-68.9336,246.3072,-61.1571,203.8056,-84.7152,-247.2095,-40.9493,18.4028,-71.2605,-35.7424,-58.5578,-122.6235,-164.2323,203.9924
-133.4713,-153.4763,-131.1211,-205.2585,-86.5755,-92.1249,167.7321,-65.2985,132.0972,-90.3992,-200.5174,-32.6029,-26.1635,-63.9406,-23.1298,-47.1201,-131.4139,-221.2039,146.3465
-87.8608,-166.1087,-70.5976,-231.9511,-83.2947,-119.3951,87.1863,-21.3932,64.4186,-49.1333,-162.3475,-48.0497,-48.2472,-59.4116,22.5427,-10.3685,-92.1253,-214.3329,133.9705
-30.2366,-178.7049,9.8062,-224.9875,-4.4238,-93.7968,73.0584,19.9249,55.0521,24.2898,-161.1822,-67.2260,-18.4259,-46.3811,41.4271,18.9707,-20.3010,-168.2120,158.2498
-17.7049,-140.0318,17.5084,-156.4114,76.3170,-65.5509,77.3284,0.5763,25.4783,49.4465,-132.2797,-41.9633,10.3107,-17.4948,16.2705,14.2763,40.7614,-114.9695,122.0285
-11.5604,-73.4254,16.2177,-112.0193,97.8627,-79.2297,37.4190,-53.9888,-49.4009,-34.7458,-72.0921,-9.3710,13.8133,-1.6929,5.1693,-29.6614,42.9964,-73.2137,21.7289
7.7969,-29.0796,49.2292,-123.4890,56.3987,-92.6905,-27.3754,-86.8477,-92.6157,-138.1714,-39.7332,-20.2849,13.2335,-15.5662,4.1791,-69.6232,4.9045,-64.4203,-18.6566
20.4044,-6.8587,48.7724,-126.0146,5.5198,-69.7405,-83.4355,-84.3953,-118.0559,-155.0086,-21.8927,-24.1022,-2.9234,-27.0672,-36.8381,-55.1152,-3.7044,-83.4250,24.9991
38.1585,3.0431,9.4211,-106.0345,-21.3181,-38.6125,-125.2618,-75.9340,-165.9051,-118.3794,8.7640,14.8850,-38.1732,-17.8774,-82.7480,-19.6998,29.0496,-98.2690,44.6581
51.5652,1.2646,4.9917,-91.3459,-28.1948,-20.9907,-130.6454,-63.1841,-154.3799,-61.7664,0.6317,30.4080,-41.1384,-1.2108,-87.3150,-18.3374,56.1984,-79.9688,27.3456
25.8948,-0.5618,31.1489,-62.6761,-4.9946,3.0407,-83.3441,-6.3546,-55.6054,28.9287,-49.5902,-6.0306,-2.0868,25.0043,-71.5555,-25.3712,68.3811,-32.8498,53.4879
7.3034,-2.8675,41.3664,-20.2931,39.6987,37.1140,-19.3539,77.6853,25.0880,99.9027,-49.4401,-30.6479,18.4602,55.2596,-30.2964,-10.4192,84.9626,-3.0946,113.7223
50.4003,5.0327,47.9006,-6.1914,58.4636,51.6962,20.9304,109.8666,61.6173,121.5850,5.8923,-8.5977,-2.1356,59.0773,33.4413,0.6803,85.1748,-6.8329,140.5582
82.7909,68.3909,46.7329,-8.5855,41.5230,40.4894,24.8235,76.9864,91.4984,142.8644,16.8092,41.4922,-38.8129,48.0692,30.4996,4.5178,47.2639,8.4244,109.2160
38.8881,171.7221,9.1229,8.2891,15.5283,35.7656,-19.9987,38.6818,63.9986,132.6207,-25.0319,104.1299,-81.1174,68.9049,-48.0280,24.2956,7.8367,56.5785,24.7593
1.8883,218.2054,-10.4866,21.0789,-12.1674,54.2883,-86.6619,29.6747,-14.7012,50.6396,-42.1975,144.7588,-108.5291,110.0984,-76.3674,43.7836,3.1662,72.7278,-49.2431
34.8481,172.2683,35.6766,11.2084,-27.9121,73.0239,-91.1621,53.8551,-16.8217,-3.3834,-29.6102,119.1603,-96.3953,118.7901,-29.0376,38.2689,12.5438,38.4040,-23.4601
53.1581,101.2140,64.7146,19.4418,-17.8444,77.0099,-15.5492,95.5522,62.1172,21.0803,-19.2604,53.2308,-70.4133,95.8364,3.6254,20.0998,23.0231,16.9818,59.0103
11.3584,78.5822,27.3125,73.5812,-1.8863,87.5286,57.7333,115.2932,99.0962,50.8427,14.8311,17.2381,-48.0313,87.5656,16.6877,19.3727,66.1854,52.0810,88.0446
5.2480,131.2147,16.8576,145.1640,26.5533,110.7381,95.4034,121.9629,84.8633,108.3482,78.7644,29.2576,3.4596,109.1289,38.9814,57.3619,129.3084,119.6517,84.0169
70.4473,215.3091,69.0914,189.7803,88.8223,112.1578,129.7029,163.6250,76.6950,238.5690,113.4755,62.1274,69.0885,132.2386,30.1755,110.0801,136.4527,148.9370,96.8918
101.2099,243.6283,94.7812,190.7173,119.4150,86.0461,130.0122,203.9747,42.0786,313.1771,109.7101,91.8280,84.1416,134.3822,1.5984,119.7230,77.2400,95.8762,76.9670
63.7397,212.7014,72.5814,170.5949,60.4216,78.3338,63.6924,177.7346,-37.9405,248.0076,132.4281,94.0648,51.0022,130.0911,16.8737,91.4534,35.3608,34.5253,30.7703
66.3157,206.4287,65.3153,158.1213,-2.7473,103.7799,11.2321,138.6722,-93.2863,175.4806,193.0391,72.3315,17.7219,143.9227,40.8640,86.1855,54.0770,64.6112,43.6771
153.1487,248.9345,81.5479,160.6959,15.3457,134.1088,30.2933,167.9096,-92.2682,191.4837,233.3182,86.3186,-0.3805,170.8516,8.2827,102.7889,101.7606,139.0867,89.9357
254.3633,314.0358,114.3644,189.1925,72.6568,172.6104,53.9706,234.0862,-77.7646,219.5417,249.8204,162.4525,12.1900,190.6334,-41.1474,104.8473,166.2720,169.8932,96.5304
358.5963,419.6188,200.8274,250.1029,133.1629,229.6471,55.3629,279.4678,-62.0611,208.4342,301.0450,237.0066,62.9503,202.5995,-45.0206,117.8293,256.9505,207.9571,108.2638
512.9504,563.1357,329.6569,315.2161,223.0861,269.9305,97.9511,316.8469,-10.8765,228.5802,391.3051,281.4994,104.0077,223.7762,-8.5008,170.4503,351.9680,313.5663,171.0788
685.9367,704.6468,437.0429,376.6448,321.9317,288.5098,168.5411,375.0274,68.3906,330.2652,473.8191,368.1595,116.4088,273.7106,32.8196,228.2494,433.2029,415.8631,229.2436
816.0054,873.5624,512.1498,464.0551,381.4862,338.6407,197.9403,441.5592,114.1305,428.7358,544.2480,520.6474,155.1965,354.3868,46.6004,253.9862,503.6247,452.4998,248.3466
904.8634,1096.3605,572.1851,544.4669,410.1279,413.4978,211.4475,473.7844,114.7652,413.4534,609.2613,645.9286,224.4901,426.7278,37.8996,248.4045,538.7063,456.2401,253.4127
945.5618,1259.5386,587.1895,542.1487,419.9296,439.9891,243.7401,448.2956,123.5392,327.6838,621.9683,674.1921,251.7778,444.1035,57.6030,235.0917,507.1899,448.7690,243.1318
895.9211,1234.7650,528.6319,475.9879,378.0767,410.3758,229.1230,399.5770,127.0762,283.5806,562.3646,618.9228,218.4851,410.4916,110.1652,237.1991,429.4854,415.2352,199.7141
770.8477,1051.7444,426.6950,416.7586,280.3812,374.6793,145.8217,367.8265,74.9664,264.8837,490.3695,505.6875,179.1313,358.5379,135.8450,231.6860,352.0562,359.1003,134.0602
627.9144,843.3823,335.0114,363.4677,193.0366,333.1106,88.1116,337.6391,44.5445,217.0054,432.6949,380.8069,164.9795,302.6696,123.7646,181.9544,294.2751,292.0259,66.9408
481.7202,702.0853,270.0652,293.4823,165.2141,256.9045,83.8612,281.5740,101.9514,172.6768,337.1732,316.4936,150.4144,248.1907,110.8721,130.7521,234.9218,223.8020,-0.1404
320.2049,595.8888,187.5984,214.6971,145.1021,159.1512,40.0990,193.7227,98.7563,123.3566,190.5646,296.5934,94.0873,190.1160,89.7688,129.4036,132.3071,162.3853,-91.5645
149.7629,419.0394,48.4872,109.9713,58.7027,71.3233,-70.7418,71.7927,-59.9376,19.2063,57.6538,219.2470,6.5040,109.5218,41.4436,126.3319,-7.7638,96.9125,-206.9566
-3.8535,176.3110,-89.4126,-24.8772,-54.4762,0.6802,-155.7090,-47.0350,-189.3108,-69.8554,-17.3123,72.6369,-41.3983,24.6419,-9.4493,77.6785,-114.4744,37.5914,-274.5619
-110.1492,-5.4114,-145.3983,-123.9769,-101.8925,-61.9436,-159.5984,-96.3663,-166.3615,-70.1894,-58.2269,-41.6708,-28.9204,-17.1855,-34.7007,42.4764,-165.3866,24.3690,-252.2408
-179.6633,-105.6440,-157.1949,-156.4066,-94.9519,-115.6701,-132.1629,-84.4660,-121.9275,-56.8229,-106.2487,-78.1029,-24.3783,-21.9297,-18.3629,57.6991,-215.8803,27.4916,-215.4389
-258.4522,-215.5570,-199.2722,-177.9867,-105.2323,-141.3464,-123.9313,-77.7353,-122.8931,-95.4846,-160.9044,-100.3196,-54.2587,-27.0971,40.0771,79.5210,-257.9576,-35.9802,-226.5208
-327.9442,-314.5298,-232.2982,-212.1747,-135.9764,-138.7475,-125.4774,-96.3337,-97.4449,-152.3561,-181.0143,-165.4595,-72.3631,-34.1654,80.0319,77.5870,-217.2513,-149.7828,-244.1656
-321.8701,-325.9874,-194.3539,-222.4311,-153.4035,-148.5684,-129.1512,-130.4542,-72.4610,-202.4086,-155.4344,-248.6988,-76.6893,-51.6652,36.3713,53.9644,-117.1166,-218.4664,-242.8899
-263.2115,-307.1953,-130.0474,-206.4538,-148.6638,-180.9807,-159.6704,-167.8960,-107.5273,-229.6345,-132.3192,-289.7574,-96.3707,-97.7675,-42.3080,15.8118,-55.2748,-211.3262,-245.1694
-231.2094,-330.3510,-100.4753,-191.0511,-119.5799,-172.4064,-203.6323,-157.1453,-148.1733,-212.5935,-137.1810,-275.7623,-106.9489,-115.4914,-58.7810,-10.2697,-45.1033,-153.3662,-224.3244
-235.2064,-345.6483,-95.0284,-173.6275,-79.5264,-85.3505,-194.9306,-69.5574,-159.8970,-176.7416,-138.9653,-245.8806,-87.9724,-43.9386,-20.4352,-7.7266,-47.6010,-69.6593,-149.3364
-258.1105,-322.6812,-101.1835,-145.3456,-60.5482,17.7186,-129.0505,31.1342,-174.9996,-138.5338,-132.3507,-220.8864,-71.2737,47.8015,-6.7124,8.4104,-72.1067,-15.8178,-70.3538
-312.8423,-318.5838,-134.6284,-117.3895,-70.0041,61.6737,-94.2719,77.1214,-177.6648,-96.2637,-151.2978,-198.6351,-72.9582,60.2999,-33.0432,27.8396,-123.2341,-31.1226,-38.2913
-377.7144,-352.7679,-182.6943,-103.2781,-99.7378,50.2173,-117.3667,68.7285,-141.2782,-96.7206,-193.0164,-208.7688,-78.3498,8.8983,-43.7783,33.1690,-161.7606,-52.5394,-25.6532
-407.4054,-392.6916,-208.4480,-114.5539,-133.7619,33.2828,-101.9131,39.0063,-81.6973,-120.8551,-221.2403,-264.1955,-79.6908,-44.7222,-10.2802,0.8755,-172.7352,-4.5053,13.2554
-402.0227,-422.7096,-199.1451,-149.5329,-123.6158,37.1265,-8.1511,29.6179,-13.3992,-75.9850,-223.3666,-296.7650,-72.4932,-74.3735,27.1832,-37.5665,-171.5198,71.6587,65.2883
-381.0380,-425.4401,-176.7396,-172.3627,-73.3542,46.4800,50.4811,45.4297,16.3432,-35.8454,-214.2984,-260.1053,-69.3905,-68.3068,22.5019,-48.4090,-161.5608,81.5359,67.8375
-366.2892,-394.1038,-176.6198,-155.4627,-85.7125,29.1264,-8.1515,21.5477,-46.1647,-124.1112,-214.5870,-216.9976,-95.5459,-54.2430,-7.7095,-70.0350,-160.9974,8.6315,0.5409
-391.1553,-382.9061,-209.8233,-139.4031,-188.2148,-30.1625,-104.2703,-62.7368,-128.2074,-205.1935,-227.6058,-227.2493,-130.6091,-92.0256,-20.1249,-107.1522,-208.9693,-86.1058,-66.9596
-440.5275,-433.6167,-255.8616,-182.9655,-276.3121,-107.3773,-148.6861,-121.0436,-125.9408,-131.1471,-237.0556,-262.5312,-147.1822,-161.6322,-23.5538,-96.3897,-297.1255,-149.3505,-88.1863
-463.6296,-492.0518,-301.9046,-257.5997,-307.0612,-150.9269,-170.8361,-107.3376,-82.1169,-34.1273,-249.7759,-287.1701,-176.7213,-184.7865,-56.2471,-54.4796,-357.1496,-177.2557,-112.3117
-465.6351,-493.6589,-333.6204,-275.8006,-323.8283,-138.6520,-202.9757,-79.6726,-65.3879,-28.1934,-283.4453,-301.6811,-218.9656,-169.4418,-101.7536,-49.5338,-342.7591,-187.4693,-145.7218
-461.9513,-465.5316,-312.8010,-231.5924,-319.2516,-111.9678,-190.2492,-70.8669,-35.0066,-26.6864,-301.0486,-296.6680,-209.4243,-171.0443,-96.9147,-50.8988,-286.7652,-186.4807,-104.2172
-426.4584,-460.4975,-257.5849,-206.1448,-283.7627,-109.7573,-98.5387,-47.3252,44.2613,15.2932,-265.9415,-259.9858,-161.0280,-165.6390,-22.7876,-15.2021,-256.6272,-176.4082,8.2257
