Fp1,Fp2,F3,F4,C3,C4,P3,P4,O1,O2,F7,F8,T7,T8,P7,P8,Fz,Cz,Pz
-55.3911,-91.0870,-45.6995,-111.7018,-166.8639,-53.1543,-83.3092,-50.0155,-58.3194,-36.4591,81.6680,62.2817,76.4522,9.8975,128.6006,-47.6958,-12.2193,-18.9453,-93.0793
80.1526,66.9827,59.6249,-31.1900,-46.0076,55.6615,17.1426,-39.7142,28.4171,87.0800,236.7316,263.0336,269.0433,175.6078,240.9101,77.7161,192.8706,136.9674,18.1440
206.8229,253.4518,178.8104,29.2264,78.3369,131.7038,108.0608,-12.6146,80.8122,89.7219,282.6070,404.0135,357.2214,273.5807,333.0533,162.6671,251.7139,151.5012,65.6261
237.4706,278.6525,224.6403,10.4719,103.3462,66.0561,107.3092,-101.8908,58.4244,-108.5485,345.3294,336.7281,389.1063,143.9148,222.5494,101.3459,253.7451,2.4828,77.9789
629.7261,629.6261,415.6244,-30.0979,230.0356,73.7957,231.1192,-98.1894,101.9702,-124.7022,487.9622,568.6342,480.6309,28.7577,77.3327,140.5921,432.0455,27.5637,262.3890
1065.1024,1136.2916,602.2985,-29.0191,386.0672,211.2116,396.4097,121.9290,221.0386,124.8865,479.4012,1015.2888,482.6977,130.5382,40.4314,261.9508,573.6693,211.9405,477.0607
544.2908,747.8173,310.3486,75.7685,196.8319,217.1434,208.5118,236.9237,256.5655,263.7729,287.2484,823.9225,236.6024,161.2739,13.7560,201.2367,315.7613,217.6803,340.6659
-572.5189,-294.9113,-243.8825,293.2716,-203.1016,95.8998,-185.2460,121.9680,194.5525,236.0197,120.3451,108.8557,-126.7629,-79.5878,41.3747,98.6288,-114.8999,93.3147,-37.3070
-982.0765,-659.0317,-405.9109,435.0854,-320.7131,68.0638,-275.2113,37.7939,132.1292,222.1117,-9.6166,-209.5609,-354.5846,-230.6793,152.4868,141.3900,-234.8411,44.7676,-200.8257
-707.7185,-414.1532,-219.8790,323.6263,-177.1448,44.9664,-119.4202,3.9019,73.4593,105.3506,-111.0900,-137.5079,-341.4769,-10.7583,141.1425,105.6473,-97.3797,-33.2134,-107.5459
-612.9869,-490.1535,-133.6102,123.1323,-99.3515,-81.3097,-73.2980,-94.9895,39.2542,-88.0210,-23.3959,-183.2762,-200.2156,280.2007,83.2578,-16.9627,-41.3404,-123.7336,-15.2346
-667.7648,-640.5735,-133.6066,94.8961,-83.7356,-101.9584,-85.7379,-82.8419,83.4917,-31.1401,151.1010,-210.2068,-103.4390,283.9138,208.6176,49.7260,-77.2844,-15.6441,39.7080
-540.6732,-398.4529,-73.0519,171.0063,-47.7833,17.7630,-39.6733,69.0945,110.6940,139.4301,122.2137,-113.9915,-55.1779,74.5503,235.6887,118.4773,-80.5618,115.7263,91.2930
-455.5731,-261.7670,-71.2584,139.2076,-80.9324,31.9537,-60.5122,71.5933,35.2194,30.0185,-6.0544,-169.9127,16.2621,-61.3463,-11.9443,-65.8173,-87.8109,20.5650,68.5141
-483.0715,-418.0240,-132.6693,33.3498,-138.1376,-23.6895,-117.7291,-42.5033,-14.0252,-121.8580,20.0020,-244.0986,31.6271,8.3999,-55.9986,-131.2485,-97.5118,-45.3341,30.7484
-403.7198,-355.6834,-116.2740,15.2433,-98.8770,66.0338,-66.3410,13.7431,27.8930,38.3712,95.3179,-80.2527,-60.8030,165.7131,179.5088,133.9675,-59.5911,107.3650,68.7109
-314.7943,-109.3544,-70.2951,65.6384,-52.0702,189.8983,-12.5817,131.6888,6.4787,172.6508,89.6695,76.2201,-106.4451,211.6226,166.7758,258.7679,-53.6694,180.4560,65.9196
-334.4867,-86.7795,-78.5865,48.3674,-77.8826,144.6095,-65.5375,47.0136,-109.7121,-33.2578,109.2264,59.5131,-38.4297,126.2525,16.4334,57.3752,-107.9982,52.5457,-24.9711
-292.2306,-168.7220,-94.7909,-45.5257,-87.5887,26.2940,-105.4229,-123.5857,-150.4211,-233.2985,133.4365,38.8940,1.8791,52.4436,187.4397,-61.0109,-120.1143,-23.6600,-41.7548
-181.1743,-126.6209,-127.6571,-114.4479,-81.0280,-2.1375,-82.5260,-155.5993,-83.7962,-155.2658,47.5761,19.4910,-17.5899,53.1876,386.6499,24.9923,-114.7552,9.9197,24.9393
-155.5794,-64.0781,-198.9738,-135.9782,-142.3851,26.7832,-78.5007,-88.5333,-31.4014,-37.6765,-18.7948,-14.6662,5.4773,77.9545,296.3874,47.1984,-153.0493,18.4738,27.2819
-148.1521,-54.5143,-210.9022,-155.9945,-203.4555,12.6756,-83.7152,-50.6578,-0.7226,-42.7559,45.1968,52.7561,43.7915,74.9896,233.9815,-25.2337,-98.6639,14.0600,8.0437
-57.2756,-57.7013,-126.4626,-135.6956,-151.6074,-50.0121,-61.4254,-44.1716,78.2992,-6.7135,62.5201,82.9788,7.4097,8.9557,224.1365,-29.5361,92.6157,33.6024,81.1254
51.8642,-43.1232,-36.3562,-13.7358,-23.4004,-75.7458,-30.1004,4.8497,168.4095,145.6909,-57.0810,-55.9061,-66.7587,-83.9837,-24.6465,29.9549,200.2056,37.8544,163.7147
135.8786,64.4980,15.2583,135.2230,86.0693,-21.4274,26.7803,96.4728,176.9926,239.5098,-133.7178,-99.5258,-93.9347,-83.7101,-237.1764,46.2482,155.6586,41.0946,160.8373
198.6029,237.3490,40.8234,204.9146,144.7134,29.3636,100.5400,123.8662,94.1960,148.6142,-81.3538,52.3502,-58.5615,18.3592,-126.4713,-17.1470,146.9618,59.2130,136.6357
234.2609,327.8419,55.3655,217.6974,181.3844,18.0802,126.7373,64.0648,-2.7075,-2.5979,-8.2265,131.5722,-14.1233,82.4988,-47.6871,-103.8895,220.0395,67.5466,152.3960
300.5805,353.8229,108.6401,228.2081,247.6059,17.2900,135.9251,38.4751,-37.6914,-50.5101,53.8483,112.1939,-20.8505,67.1713,-169.4433,-131.6403,263.1025,94.4204,185.8167
424.8677,405.8512,203.3509,225.1210,343.0180,67.6145,192.4142,67.4392,-16.7520,-28.2076,155.3716,154.6398,-41.1802,66.1148,-184.2078,-93.5276,266.2939,147.8340,204.9832
523.0556,432.0894,246.2503,206.3826,399.5005,115.2284,231.8717,56.2377,-9.3409,2.1378,241.2227,175.7325,2.4898,106.3103,-80.6544,-20.0515,247.6075,157.5729,179.6566
557.6371,421.8195,200.2717,189.0584,383.6370,138.2148,193.4924,31.7606,-42.9584,94.5919,227.3804,103.8855,51.1195,132.6578,-73.4634,97.9447,179.2983,111.5109,110.1256
558.5801,423.6585,128.4763,157.4897,329.6367,134.9903,134.1436,52.8386,-64.4970,203.3073,166.1451,37.7980,13.9287,121.8160,-100.2429,214.1083,116.8924,61.5302,59.0868
519.0164,376.4332,76.9346,110.9917,267.2738,93.3997,95.5497,60.7038,-12.5894,208.1456,143.7391,-19.9899,-37.7184,92.0048,-80.4919,240.4332,116.2341,26.3402,64.2737
458.3152,290.6836,57.1924,74.6504,208.1159,63.9666,71.6058,59.3845,104.1526,198.4132,124.2536,-75.9881,-25.2595,74.8387,-76.8333,212.1540,107.9851,17.0653,102.7585
422.2261,291.0887,62.9414,42.6833,169.7312,79.4640,76.5819,116.3967,200.3843,266.6678,51.8736,-42.7106,-8.1241,78.4753,-66.1859,185.5078,63.4881,31.4186,172.1989
390.6460,334.2770,62.7647,23.1257,165.0126,84.0090,101.3439,157.7291,203.9208,244.3269,-10.5850,30.5416,-17.6788,67.7490,-49.5735,94.5091,60.6245,42.5338,271.9686
362.8355,323.6651,67.6180,62.2635,192.5657,92.1224,117.5311,119.4876,147.1439,69.8125,10.0013,48.5326,-8.4206,46.4135,-99.5287,-54.2390,104.8555,81.8649,332.5249
381.9920,336.2958,112.2884,142.3177,229.2262,172.0954,140.6336,98.0897,106.8987,-42.7684,68.6860,79.0696,12.6194,69.4982,-134.4981,-118.7143,139.5288,167.4863,303.8403
395.6010,395.9394,149.1612,191.8128,250.6307,252.2234,183.1520,118.7854,92.4559,-41.8125,88.3341,144.2643,21.8666,112.6105,-73.9493,-84.6095,182.8100,208.7868,255.2923
334.7809,406.2678,136.0840,210.6153,281.3257,249.7597,231.5934,106.9840,73.9213,-78.7932,57.9970,160.9104,28.2483,95.9760,-28.3678,-73.3253,255.3667,185.0343,269.2664
270.4373,386.7450,134.0220,237.1840,339.9214,232.9958,280.2849,97.5582,48.0064,-137.7558,7.6880,151.2706,11.5200,42.4089,-48.1101,-93.3150,296.7411,180.6249,301.6953
272.7603,375.2018,152.1071,244.1506,349.1609,216.4702,277.8648,119.9694,13.4864,-118.1854,-20.1654,147.2553,-25.6279,31.3506,-61.0553,-49.5282,256.0228,149.5672,255.8845
274.4643,297.1768,106.2902,187.3856,247.4897,109.4662,163.7229,78.3596,-33.2746,-55.7049,-2.9132,97.7669,-27.1946,58.9485,-67.5752,68.3604,157.7124,11.2777,139.6418
197.8235,168.1765,15.1294,91.6211,121.7685,-36.3106,16.8735,-37.6837,-72.4649,3.2561,14.2537,45.9666,-10.4674,70.6734,-75.2252,157.2973,65.2870,-117.2356,32.9461
63.0603,90.9528,-32.4153,17.7930,64.9060,-93.3778,-46.3726,-130.5162,-96.5098,45.6100,-27.6724,55.7453,-38.2128,41.4022,-63.9469,131.5103,14.9452,-147.1280,-50.7462
-53.9630,57.7853,-69.2457,-21.2282,23.2739,-110.1987,-73.9446,-197.0421,-107.6694,18.6033,-112.6243,47.2070,-82.2352,-17.0404,-92.1901,40.6840,-31.7894,-197.1554,-134.6711
-101.6920,22.5610,-156.6147,-81.8169,-76.8644,-195.4939,-150.3663,-274.7838,-63.7210,-69.0693,-182.0995,-23.4406,-101.3768,-65.5676,-155.0140,-15.0795,-117.2748,-319.2340,-176.4385
-107.6158,-18.7905,-231.8660,-193.6905,-194.8076,-312.7043,-223.4060,-324.5499,53.6073,-144.5900,-202.9381,-83.0605,-119.8270,-82.9992,-140.6608,-66.6039,-186.1516,-395.6577,-139.9847
-124.2462,-83.4991,-231.5573,-270.8935,-254.1295,-362.1937,-226.7672,-314.4532,154.6673,-186.9289,-177.5074,-109.4935,-133.9323,-96.0506,-81.0500,-182.4605,-175.8230,-357.4831,-79.1378
-143.0532,-134.7565,-200.0624,-228.2323,-243.9483,-314.7634,-190.5162,-253.5954,154.9504,-178.2398,-148.6849,-117.1564,-129.2412,-121.1266,-90.6141,-273.8398,-133.8858,-244.9669,-44.8067
-144.8636,-110.1964,-185.7112,-132.0452,-206.4154,-218.5356,-163.9540,-165.1645,87.7132,-119.7645,-162.2031,-102.2702,-146.0701,-139.1575,-134.0021,-238.1892,-110.9334,-145.4881,-28.9527
-144.9405,-71.1980,-169.7254,-82.9174,-173.4041,-140.9709,-161.9569,-116.2932,11.4199,-117.2489,-193.2409,-106.5107,-178.1765,-138.4030,-164.9095,-144.2076,-68.4157,-132.3017,-33.3972
-134.5861,-72.3244,-124.4143,-54.8736,-127.8035,-92.5976,-161.1586,-142.9657,-75.5925,-196.6450,-185.5010,-135.7271,-160.4825,-117.8944,-217.1504,-85.0617,6.3106,-147.8555,-60.0139
-107.7628,-47.0092,-65.7194,-7.4253,-44.6949,-50.7476,-117.3000,-177.7649,-169.7938,-214.1844,-147.1806,-126.3520,-106.1792,-91.3481,-239.9950,-49.5143,45.6188,-96.5443,-70.1427
-113.1337,-12.7341,-44.8314,0.5650,41.2320,-41.3855,-54.4387,-172.5507,-225.3063,-120.4221,-130.1929,-108.2655,-77.2775,-95.8797,-184.2086,-12.2465,10.3241,-51.2580,-60.5162
-163.4164,-57.1070,-85.6344,-52.7334,73.2360,-79.4204,-58.2839,-155.1190,-213.0974,-7.1040,-150.5683,-143.2253,-72.3019,-128.5347,-139.0744,20.4860,-55.7985,-87.4025,-84.1839
-196.5936,-112.5352,-130.7912,-79.9250,59.3267,-116.1241,-121.3122,-142.3660,-151.5917,79.4942,-168.1678,-167.7182,-58.6254,-144.8001,-140.1858,31.0800,-78.6395,-102.6837,-142.9081
-180.8493,-101.8973,-106.0923,-47.4222,50.9534,-143.9723,-142.4160,-155.8300,-84.9266,87.2053,-132.0897,-151.0518,-20.4365,-146.6828,-107.6397,-1.5028,-28.4101,-64.4962,-180.6774
-145.7912,-105.1924,-33.1267,-32.2487,60.5602,-189.5001,-99.8456,-224.2647,-58.8323,-38.6535,-62.1122,-165.4435,30.7945,-144.9724,-44.6260,-55.1617,36.3046,-82.7670,-187.0363
-131.6824,-143.8810,-5.6889,-58.2058,57.0420,-200.5882,-68.7364,-286.5591,-86.9209,-173.1757,-43.8717,-182.4484,34.7525,-103.9851,-32.4080,-89.3884,35.6166,-128.8314,-194.4217
-162.2779,-130.4682,-54.7427,-52.7626,36.5961,-129.2924,-73.2421,-262.3410,-119.9008,-166.3976,-90.3118,-119.9646,-34.4201,-43.0056,-95.1382,-111.9070,-12.7897,-84.9000,-184.5270
-209.4194,-82.9636,-101.4521,-2.9437,62.9227,-18.6746,-35.5812,-174.8766,-84.5898,-82.7497,-112.7507,-33.8641,-92.7429,-26.5894,-189.2891,-103.3195,-23.5339,23.7240,-82.7751
-221.0330,-79.1430,-72.5466,18.6116,191.6751,107.3802,108.6602,-54.9763,15.5269,-21.6285,-83.4340,-6.8464,-79.1060,-23.7013,-226.7980,-15.9039,25.8195,144.1413,127.4297
-216.6841,-108.7285,-12.2561,5.0224,362.8655,248.1147,292.2678,109.9037,87.3499,33.5672,-79.4825,-16.1510,-41.8442,17.3822,-168.8479,78.6435,80.6008,279.2514,334.9807
-252.2582,-142.9646,-12.2212,21.2819,453.1507,332.3541,381.7862,264.4657,82.7310,93.6841,-140.8149,-18.7654,-23.5891,55.5879,-116.0182,95.0836,90.4894,356.6547,417.3461
-314.2123,-174.1806,-69.3114,56.2699,432.5783,321.9609,352.9130,326.2016,67.9940,154.3446,-217.1395,-7.8081,-23.7330,74.1369,-139.2128,116.7033,57.4910,321.1747,383.0605
-342.2219,-176.4025,-102.1994,42.5144,376.4149,277.3785,292.1119,297.0148,99.1410,208.6727,-239.1687,-6.8899,-42.7927,98.8370,-147.7353,185.9969,34.3089,256.0673,305.0119
-293.6375,-147.0145,-70.7960,3.8813,344.3941,214.5606,248.3416,206.0162,134.7934,185.1466,-180.1097,-40.8634,-40.0558,77.6602,-84.4388,164.1832,65.9398,214.2459,200.5340
-174.8826,-95.2426,-0.7087,20.5102,331.5078,119.3791,211.3514,79.9911,127.2335,84.7716,-89.6094,-50.9088,25.4856,-5.9244,-19.8118,19.2258,122.7482,167.2128,80.2631
-67.3334,-9.3095,55.4980,87.7775,302.1332,71.5483,171.1615,-13.3797,83.3182,19.6407,-45.1239,23.6394,88.2014,-39.8641,-1.1989,-104.4275,138.8902,137.0258,-14.0373
-41.3278,66.6081,35.8525,139.4677,226.6662,109.3936,106.1825,-56.1375,22.5576,-35.5134,-40.0000,85.7746,78.2112,-3.7120,-25.8478,-166.8326,101.3666,134.9263,-87.7307
-47.2299,71.9717,-76.8392,151.9608,121.0323,119.9942,15.1349,-123.7601,-21.1077,-162.7513,-8.9305,42.4082,45.6826,-18.0797,-73.0506,-218.6267,48.0663,107.7115,-170.1422
-19.6670,50.6983,-219.1933,133.4896,41.3919,36.4378,-43.3451,-230.4789,-8.1442,-233.7567,42.0303,-24.3833,42.0737,-88.9905,-82.6050,-207.6290,8.8682,50.8590,-225.9499
4.0565,39.2335,-338.0497,72.9194,10.6446,-72.1377,-55.4349,-286.3176,27.3497,-158.5565,48.5978,-59.8489,29.9924,-99.5069,-69.2054,-84.1575,-14.1138,-25.2566,-205.2661
-16.4244,-17.3247,-449.7335,-25.1572,-0.3241,-150.5306,-80.3215,-234.8255,12.7181,-90.7181,0.6447,-119.2109,-17.8192,-29.5186,-139.0871,68.2813,-28.3480,-135.8351,-104.9688
-47.5233,-87.7560,-540.1258,-90.3945,1.3661,-168.0878,-95.6154,-91.8579,-35.7880,-71.2748,-42.7006,-165.4979,-69.5924,42.4516,-254.5329,144.5791,-17.5735,-180.5162,62.3236
-44.6311,-60.5358,-529.2549,-48.1302,60.3491,-65.6530,-10.1274,96.4086,-47.2148,36.2643,-20.9599,-126.2912,-78.4459,66.9455,-260.2859,125.7661,52.7057,-51.5513,245.9369
8.2945,36.0567,-416.7075,67.2572,190.5381,111.7044,139.0017,245.1656,-22.6856,174.7722,54.9098,-67.3776,-22.1831,50.5417,-167.1343,67.1450,155.4723,109.6200,335.0887
75.1825,109.2258,-328.7647,147.8523,299.8895,201.3442,203.9217,273.9890,-16.8738,178.7480,99.1476,-44.7684,47.6998,34.4362,-95.9967,24.7932,194.5468,127.0618,269.5032
86.2407,175.1044,-341.9550,165.1990,279.6608,165.5075,135.1806,190.4598,-39.7029,83.3046,69.4858,-13.0547,48.3358,38.7746,-66.7485,-19.4205,143.3150,86.4220,117.5291
51.8351,222.1578,-384.6503,166.7545,172.6547,125.3146,35.0190,65.9874,-40.0835,-17.7202,27.1667,6.1323,-0.1388,24.7356,-61.8691,-93.4968,89.4374,97.6765,-4.6150
44.2337,162.6714,-376.1489,151.2514,118.6100,115.1989,13.2617,-46.6890,25.8008,-127.0856,16.8873,-47.3515,-8.9851,-22.8715,-76.9546,-141.4015,85.5703,84.5926,-47.4311
54.3609,52.0956,-343.4120,103.1635,119.0263,58.6876,47.7096,-139.6167,112.1423,-219.9235,8.8380,-116.5706,16.3001,-52.5010,-67.1073,-120.6900,85.6777,11.9611,-65.0225
41.0506,32.6863,-339.4200,73.4557,63.4433,-22.6812,34.4772,-225.1243,125.8680,-252.2890,-4.9894,-135.6196,2.0710,-37.4907,-46.1364,-74.6283,64.8796,-29.1418,-120.8754
29.8375,64.4524,-345.0034,84.3100,-16.3095,-28.8077,-17.3435,-284.3206,91.2631,-232.0342,-0.2162,-146.0186,-47.2066,-1.9988,-86.2871,-23.8237,58.1004,-5.5126,-156.0880
28.7234,32.7721,-313.6076,79.5550,8.1654,28.0333,5.8527,-250.5835,128.9404,-143.7498,14.3168,-185.3746,-55.5643,31.7610,-129.8284,44.8427,63.5993,55.6374,-73.5238
23.3559,-10.7425,-249.7326,44.9909,104.8175,61.7636,91.9598,-95.4450,228.8879,17.8973,30.1841,-238.6387,9.7117,42.9962,-73.4105,99.1440,44.7756,137.8299,81.9277
51.7504,11.0710,-196.4117,23.7285,149.4949,68.4765,120.7158,103.6003,256.2528,168.9007,55.0642,-317.0421,90.4996,30.5436,12.4181,113.1549,19.1660,181.7361,211.6796
100.1837,35.8489,-175.5431,27.1397,148.3117,89.9541,99.4028,252.1827,188.2737,247.1506,61.4602,-444.6762,109.5806,34.9984,17.0978,93.9182,34.0459,157.2731,318.5726
99.5143,26.4262,-158.4594,61.4312,166.9311,128.3373,118.3727,341.1171,117.0531,266.8851,44.8413,-599.5572,81.8294,60.5127,-22.7315,31.0838,89.5468,161.4938,397.0055
107.6634,52.3071,-93.6802,143.3988,195.5227,176.7178,157.5031,383.2021,73.4379,228.2302,74.1969,-732.1115,81.9033,55.7037,-41.5249,-50.2828,162.1279,237.4958,366.9021
205.7281,130.7877,23.1458,234.3394,214.6075,213.2858,150.5627,333.9109,38.3260,137.4014,158.7316,-802.4004,105.1432,20.4914,-42.4910,-91.2712,238.0288,260.8513,231.8121
294.8615,219.2933,121.0967,292.4011,217.2077,179.8766,95.9381,179.2967,14.5254,41.0839,197.3198,-807.5287,93.0249,4.4343,-33.5978,-112.5415,274.8317,175.1070,79.6677
279.8523,311.8976,125.4104,336.0099,148.6672,82.0399,0.7384,7.0039,-16.6944,-55.1448,153.3007,-806.9188,59.0093,7.5889,-30.6986,-146.3877,220.3621,92.6874,-65.0326
224.4248,357.3751,41.3578,349.1559,-4.8858,10.4476,-116.5766,-115.0608,-66.5332,-165.8096,108.1676,-878.5375,42.9444,3.3498,-62.7902,-131.7604,100.6473,62.6919,-192.3572
172.9100,260.4966,-55.6215,281.9012,-136.8332,-13.7175,-184.6548,-208.9627,-75.0288,-230.8535,95.1837,-1017.4883,25.2211,6.6813,-101.4313,-43.1448,5.0991,12.4124,-236.6552
116.3526,87.7239,-92.1462,185.2696,-157.8928,-55.9908,-171.8626,-265.0597,-15.0756,-184.9815,60.7011,-1127.2639,-9.1939,35.9744,-95.7120,57.4559,-11.6363,-58.8592,-184.6025
102.0189,12.5389,-52.0743,148.8819,-110.7645,-117.1971,-128.5914,-220.0881,40.4746,-62.8185,2.0490,-1154.1489,-38.4750,59.1492,-68.1870,141.8062,40.3658,-83.5072,-91.8633
128.3149,22.7717,15.0781,152.6413,-77.8998,-136.3110,-92.7041,-85.6138,48.4221,56.4956,-18.0306,-1160.7269,-61.9523,31.1976,-72.0038,183.6089,107.0969,-71.2686,21.4642
115.9747,-20.9422,50.2556,142.7311,-66.9002,-103.1073,-57.6610,71.5773,47.4785,144.3339,17.0085,-1195.2943,-75.1485,-24.5611,-96.4510,128.9897,126.0262,-54.4907,151.4096
76.1980,-94.7463,57.1083,129.3103,-29.8584,-46.7325,-9.7781,221.7691,56.0247,208.9076,65.0069,-1199.5482,-43.1691,-33.0015,-89.5380,30.8003,98.0595,-8.4088,259.0604
61.9240,-75.4591,74.3159,123.8572,38.6002,12.4065,52.2111,324.7284,57.8186,236.3381,86.2335,-1140.3246,20.0784,4.3567,-41.6969,-16.6969,81.4584,55.9735,316.8897
36.8267,12.6647,89.1522,120.5700,72.9894,56.2211,91.7345,339.5080,56.1691,215.4016,56.9599,-1086.4838,47.3720,9.6041,3.0209,-42.9276,77.0686,80.0019,320.7699
-11.1677,51.3495,65.7118,125.5383,38.9093,76.8890,68.3857,309.3613,47.9063,181.0124,-8.0664,-1081.1610,22.1292,-11.4967,13.0483,-68.3177,36.8253,62.9940,262.3778
-19.4103,18.6613,40.9136,115.8197,-10.2570,70.3467,10.8235,256.2175,9.1684,132.8838,-35.9200,-1091.4254,-8.1526,9.4822,1.5020,-22.0625,-6.9505,27.0605,141.9715
11.1572,-17.2654,75.5318,72.3866,-37.6581,25.2782,-40.5380,114.3487,-61.3386,3.3809,0.2445,-1086.0306,-13.1166,41.2103,-13.5590,62.1554,9.8610,-42.3464,-30.7553
23.3416,-8.1460,128.9017,54.5351,-72.0040,-29.7563,-100.3726,-78.7601,-137.3688,-177.4437,5.5559,-1037.7928,-15.3024,24.7278,-27.1515,74.4480,46.0345,-113.5899,-216.2153
8.5748,33.8811,112.5308,95.1273,-114.6287,-48.5181,-150.3891,-183.0649,-172.4461,-262.7476,-81.2385,-936.3232,-51.5485,3.5878,-33.9146,50.4622,38.9412,-129.8233,-305.6880
-12.5466,54.8646,42.6480,108.1593,-137.6280,-61.3926,-130.9445,-200.2624,-113.2690,-209.3425,-167.2318,-854.8720,-110.2909,8.2977,-42.5781,83.1364,25.8443,-132.5872,-224.1150
-25.5307,7.1265,14.6639,41.5812,-148.8773,-112.7192,-63.2283,-209.9544,20.8015,-95.4485,-164.5812,-857.0688,-131.3382,-4.4252,-56.5362,141.5162,50.1641,-165.3253,-44.7160
-22.7204,-90.7305,60.5181,-18.6719,-130.5283,-151.7955,-1.8750,-165.1838,131.1010,27.9720,-117.8089,-875.8433,-92.3757,-30.2467,-42.1125,148.9732,87.4294,-147.4266,134.5915
-19.7225,-144.1875,131.7329,4.6355,-27.4249,-123.1928,74.4537,-22.4300,174.8978,119.6660,-90.3693,-830.2637,-41.4443,-38.5597,-4.7716,89.6212,124.1339,-30.5981,307.6938
-20.5761,-73.4407,182.7188,78.4065,118.4571,-43.3461,168.6860,146.5939,187.2495,171.1138,-83.8558,-736.8452,-19.3867,-43.5838,-17.1640,13.4017,163.5625,96.6861,441.8330
-2.5997,70.9557,204.0963,143.5209,195.4286,75.1352,207.3605,296.8991,158.5523,257.7303,-81.3896,-623.5665,-19.1874,-19.7917,-75.8814,5.3607,176.1558,169.0060,441.7659
24.4913,154.8662,213.7138,179.7683,197.1149,203.3189,172.7730,395.7430,65.1019,321.1055,-48.9251,-501.7272,-19.4344,64.7893,-90.8450,65.2645,161.6570,196.3445,313.4582
47.7003,147.6786,241.3795,189.8082,190.6998,248.5018,126.0850,344.6066,-27.4001,177.9786,38.0127,-419.3119,-6.2534,120.7816,-77.9660,86.1440,166.8296,159.8230,168.3236
94.8708,137.4763,289.3303,183.7505,175.6945,188.9709,87.3182,152.8653,-66.6497,-64.8677,119.0024,-401.6497,9.5152,75.2395,-148.4658,49.1220,183.7189,53.9764,47.9052
145.0957,144.6843,320.2907,159.6911,124.0850,114.2359,35.2225,-28.1129,-98.3362,-136.2585,124.6922,-411.2523,-2.1970,20.5977,-299.7502,42.4705,164.3047,-46.8620,-89.5237
138.5744,105.1182,309.2494,104.3752,60.2066,55.8023,-17.7086,-143.5324,-126.7579,-119.1285,93.1345,-419.8747,-32.0841,34.9992,-425.7810,58.7057,124.2385,-88.1629,-233.4548
114.2019,43.0117,277.4469,41.3785,21.9368,-17.3852,-35.9071,-235.9346,-88.9533,-204.2259,86.6333,-415.6650,-33.7108,51.2245,-482.3125,22.9451,103.1567,-88.0153,-299.2108
140.2683,46.3300,259.2021,18.1490,30.7411,-66.2808,-0.4198,-274.8875,-12.5788,-247.2043,91.6624,-376.7656,-1.8070,13.9742,-488.6499,-35.9844,90.0177,-59.8204,-227.4119
167.8165,84.1980,255.3016,24.4280,91.2318,-38.8917,78.3315,-215.1203,35.4917,-121.5293,75.3948,-315.6894,32.7490,-23.4895,-460.9794,-39.1981,77.2563,15.2079,-39.6618
136.1694,68.5851,239.6354,22.6945,171.6210,49.8729,170.3632,-63.5615,106.6656,42.4831,35.9338,-256.7605,64.7169,4.2615,-427.1128,28.6186,92.4529,145.6982,194.9669
92.0986,50.2706,220.6263,45.1898,236.3702,180.6238,254.7397,178.1632,241.9376,215.3600,-3.5789,-174.2451,97.8335,88.0546,-415.6480,127.9884,134.2974,287.7456,395.6093
92.2920,122.9795,251.0211,124.7130,281.6306,308.7899,309.2368,440.2394,325.4426,421.9909,3.3646,-61.9249,121.0214,155.9791,-411.9068,187.9632,165.9250,350.2092,478.1618
126.7405,206.3519,329.7142,187.6380,291.3762,330.8547,292.1237,558.8370,264.8572,482.2400,62.2503,18.4065,132.4568,161.1862,-392.1907,168.2037,166.9886,297.2564,410.6701
159.2878,171.9534,369.2785,170.0310,236.6186,233.7010,199.2513,487.1527,135.9297,332.7042,95.9771,37.6870,125.0918,132.2060,-382.8527,119.2953,139.0001,195.8494,266.2876
160.2042,90.5196,329.5794,132.1699,140.5427,135.7208,90.4846,344.1958,35.6538,181.2615,61.2275,36.5020,79.8099,101.8048,-420.0580,92.6675,101.2138,94.7944,137.7109
134.6138,95.0315,276.7563,122.0645,55.9084,91.1278,12.9531,210.5293,-22.2386,103.7756,18.0670,44.2428,18.8799,67.8577,-463.9505,69.5895,91.8835,-11.8539,25.6517
123.7888,128.2260,256.4520,91.9966,-0.5164,45.1774,-33.5729,76.1532,-47.0274,6.1980,21.3309,57.2365,-6.3151,37.7378,-436.2466,27.1273,119.6647,-83.8852,-107.9332
144.2241,79.8465,243.2085,35.5830,-36.2698,-22.7313,-64.3678,-72.1197,-51.6860,-107.0980,56.8759,62.3016,9.9376,4.4190,-349.7820,-49.1823,135.4417,-96.2678,-248.3607
166.7417,-2.5645,219.4037,-1.9034,-69.6697,-97.8169,-105.4995,-241.2037,-50.4285,-215.6099,81.3110,43.2887,34.7257,-54.2732,-290.3395,-159.9965,95.3136,-132.7812,-356.0085
150.0497,-44.9293,171.7222,-48.8367,-127.3670,-190.7204,-158.1017,-395.0851,-17.5037,-313.7334,45.0626,21.3309,45.5255,-87.8329,-272.9228,-217.8023,17.7286,-219.4184,-390.9464
70.7307,-67.5804,78.4027,-127.0450,-186.9468,-271.1878,-160.2612,-418.1148,72.2273,-266.3110,-53.8862,52.0720,32.5410,-45.7693,-259.9370,-145.8011,-47.1315,-233.6052,-296.3187
-34.1442,-68.6362,-9.4928,-151.1473,-184.0801,-263.1517,-85.3644,-244.1141,178.4669,-13.2570,-129.1518,131.1239,4.2852,-2.5970,-268.8787,-28.3872,-72.5334,-125.0625,-72.1422
-87.7853,-20.3151,-13.5346,-85.4806,-116.8082,-167.5710,-7.8362,30.0181,235.2962,254.2386,-114.6089,192.2278,-10.5293,-11.4894,-301.4404,35.7301,-63.4844,-6.5243,160.1569
-76.3164,30.2882,28.7418,-19.9034,-44.3553,-70.7667,23.2317,235.0903,201.9859,362.4227,-56.6974,218.1696,-7.7243,3.8417,-291.5370,73.0808,-30.7953,31.3396,272.3926
-37.3979,41.7024,44.4661,1.3334,9.8863,-18.5550,42.8578,277.8881,79.0750,301.4906,-23.6746,242.3356,-14.3119,56.3443,-248.5116,90.3998,20.1449,2.7436,261.6529
20.7275,39.2857,69.5437,13.0353,51.7401,16.5974,56.6114,195.4444,-70.3691,112.4011,-17.5334,258.8524,-34.1639,50.6880,-255.0909,42.1945,70.7397,-42.7347,195.9972
68.6393,21.2378,132.9779,8.6175,65.9404,43.9983,30.6749,88.3306,-181.4919,-103.6357,-10.9154,242.6432,-40.5487,-16.4218,-279.5779,-35.0020,90.4603,-61.7407,106.2429
52.5595,-10.9142,162.4759,-20.2557,57.3421,29.3053,-10.1987,1.5124,-263.2835,-229.2536,4.0372,227.8853,-20.5173,-63.2102,-225.9698,-86.3078,72.9275,-47.5967,2.3297
12.1066,17.0726,131.2596,-20.7936,62.7660,-10.8459,-22.6483,-68.5965,-315.8148,-257.7092,1.9253,270.2075,4.7883,-62.3673,-126.1461,-114.6814,31.0446,-21.9346,-87.3519
7.2905,113.3796,87.8481,20.0283,69.7775,0.5391,-35.5999,-88.9420,-276.6721,-206.9675,-45.3781,347.3754,4.5438,-16.9386,-63.7988,-81.5905,-38.0194,15.2390,-157.8761
-17.8575,159.6251,23.9235,32.6162,21.9418,47.3246,-85.2565,-56.9328,-145.1981,-85.4789,-105.3358,370.9859,-11.8333,51.2017,-19.9773,35.1066,-127.2492,38.4394,-219.1762
-93.1922,89.4965,-66.7677,-39.4493,-65.7044,-0.5459,-127.6248,-65.8473,1.4067,0.1250,-115.6672,306.7650,2.7760,64.5007,46.3778,114.0691,-192.7156,-18.2917,-220.7928
-124.5778,-33.6972,-99.4030,-175.6999,-105.0733,-156.3511,-110.8473,-140.1488,131.4772,-3.4127,-77.0693,227.3781,49.7624,-4.1733,99.4744,66.1689,-206.9383,-110.0922,-116.9344
-87.7280,-117.2722,-52.8505,-281.1370,-74.4191,-245.9414,-69.2300,-150.7190,223.7564,19.0620,-34.7900,211.0933,69.4572,-76.4769,95.9113,-17.5671,-186.9110,-98.3436,15.5902
-73.8852,-118.2006,-23.9045,-266.9368,-44.1251,-174.3614,-52.1931,-31.4168,217.6684,93.0759,-19.0139,243.5656,41.0753,-101.1476,53.0150,-59.2211,-146.6881,0.0366,92.1261
-96.3474,-75.8492,-28.0740,-176.4074,-40.5044,-62.9209,-28.4346,100.9471,140.4782,114.1345,-43.6269,276.7988,8.3531,-101.6141,21.3954,-101.9320,-95.0780,29.7388,155.0788
-88.1633,-53.5675,9.6192,-126.2382,-18.3225,-32.2688,27.6888,137.4458,85.5820,94.0210,-76.4582,320.9011,0.1189,-93.4433,29.4438,-155.7990,-60.0620,-30.6865,225.3721
-46.0478,-31.1067,68.4895,-116.2708,19.9222,-41.6291,54.6897,113.7141,33.6698,74.2469,-51.8184,399.8877,12.4220,-67.0892,60.2684,-163.9533,-41.6747,-67.3988,220.1517
-16.5698,20.1853,81.4632,-67.3726,26.0875,-12.1694,28.9163,97.8333,-65.1632,-3.2578,6.8679,474.9943,32.5121,-22.2613,85.7561,-124.8083,-6.8856,-43.8513,143.3236
-13.6563,45.3162,80.4581,9.4527,9.3952,43.8530,14.1833,83.0443,-143.1405,-94.9921,13.1928,495.7264,29.7316,6.4430,100.0279,-95.3508,32.7658,-13.6621,84.0987
-2.8159,55.2107,113.1550,61.7234,5.8291,77.7571,7.6980,39.1916,-162.3608,-92.0268,-7.0685,484.9468,-6.5722,-29.3744,106.8462,-96.2327,48.1064,-0.7635,13.4116
60.2028,147.5715,158.3623,102.0482,10.8074,88.9559,-43.6949,-30.7896,-190.3802,-75.5599,27.7497,499.3948,-31.8366,-89.5063,115.4972,-89.6715,70.9019,9.9238,-125.7665
147.2875,272.6215,197.0597,136.2802,22.0912,92.6331,-83.7543,-125.3304,-209.9479,-146.4319,75.6436,536.6716,-24.9154,-71.5638,134.8074,-49.4996,115.7893,19.2417,-247.6617
169.1554,284.1957,212.3498,120.9625,39.6287,62.7183,-50.4307,-237.7732,-122.1047,-192.4861,59.4246,542.0501,-27.0078,-10.8567,142.4017,-13.5335,113.1579,13.5229,-268.5909
110.7098,197.2269,159.5747,53.6393,25.9488,-13.4924,-11.4161,-286.6660,56.6268,-110.4579,14.9697,490.8282,-50.4272,-35.9410,126.2800,-20.1072,41.2349,9.7438,-197.4066
45.0814,114.0458,65.6832,-6.5762,-7.8671,-66.5082,7.5568,-178.5590,229.0860,32.1768,-3.1151,424.9608,-59.1283,-108.9563,138.2740,-31.5401,-8.8633,56.5868,-17.5208
21.8745,70.1589,31.0919,-13.3566,18.0404,-29.6598,82.4812,44.3238,348.4976,164.1748,-14.1279,408.9552,-50.5759,-96.6980,198.6243,1.1783,15.0107,148.5499,240.3666
43.5236,96.4464,66.2637,26.2469,89.3602,49.0348,177.7792,245.6986,387.6541,266.8321,-35.6243,458.6002,-46.9502,-26.4405,237.9984,50.2571,58.0487,195.2887,411.1295
71.6665,167.1144,93.4608,60.5392,101.9154,73.7705,179.2152,337.2065,332.7695,290.5159,-46.6586,522.4905,-37.5928,-1.0549,233.9907,54.6833,69.4858,135.1901,406.2586
38.4785,143.7327,96.2100,46.2461,54.6450,28.0083,106.4451,283.0081,227.2275,190.9268,-34.9137,549.4583,-11.1897,-9.9425,243.1212,2.1505,50.8928,16.0015,291.9204
-24.5308,25.0520,106.8137,12.0499,19.0244,-29.1168,29.1636,104.7201,104.8741,10.5711,0.0609,547.7819,12.0164,-4.3427,256.8045,-50.7355,17.5587,-68.7416,107.0727
12.6642,-5.4700,115.9805,15.2435,-21.2785,-50.4436,-64.4844,-74.1483,-40.2798,-138.9937,59.9248,538.6805,13.2484,8.2393,221.2874,-32.6685,-8.7887,-83.1721,-113.5506
137.2910,72.0716,104.3391,36.6455,-99.5971,-60.6820,-157.8112,-177.6108,-181.9320,-210.1488,123.7025,507.0894,-11.7178,12.8619,162.2675,31.5049,-11.8811,-94.2658,-260.2239
188.6396,99.8340,83.6813,15.0246,-157.2645,-116.2416,-186.7980,-296.5896,-278.0168,-292.9042,138.8983,464.7257,-55.5254,12.3053,126.7389,34.7646,3.4718,-178.7905,-319.9868
129.2754,71.3854,73.7072,-22.3440,-144.8388,-187.5449,-163.7558,-464.0215,-313.7138,-417.2049,72.4298,479.1468,-84.3629,15.3375,111.2238,-26.5978,36.4060,-268.9380,-386.9007
52.2339,83.0017,90.0822,4.4518,-103.8522,-181.0167,-138.4894,-528.9135,-258.7916,-423.6976,-19.5400,552.6340,-65.7314,29.1436,126.3971,-38.2316,77.4212,-241.6931,-437.4688
1.4258,90.3075,121.6291,59.3540,-89.1419,-117.5228,-115.6002,-427.5528,-111.1390,-256.0974,-32.5004,574.0458,-19.6409,36.1342,181.8065,19.7334,76.5165,-148.4359,-387.3300
-0.6313,26.6841,120.3462,32.2528,-102.3586,-99.7386,-94.1454,-281.5585,29.5446,-99.5008,40.1544,489.9442,7.8594,23.1474,224.1559,51.8286,17.2783,-106.0522,-267.4503
68.6854,-30.6471,77.7349,-39.0327,-105.2188,-94.0580,-65.2987,-140.8602,94.2225,-25.6055,95.8133,405.0045,12.3298,15.2315,225.9330,25.7226,-26.1979,-65.4388,-109.1637
130.5276,-10.6400,49.4218,-23.3030,-67.2131,-9.9089,4.2114,42.5776,146.8016,88.0556,77.3641,408.7552,22.6854,13.0366,234.8578,-22.4560,-1.5807,21.7386,117.4821
109.0777,29.5083,58.5569,35.3119,-2.0751,73.0900,97.1331,200.8349,217.0986,208.4548,24.3052,441.6067,41.9736,-15.6401,259.9623,-78.6992,45.1173,40.6491,339.3563
87.0298,37.5550,75.7678,2.7207,63.6235,52.3532,149.6113,213.7910,215.6694,183.9781,-11.4716,435.0021,48.0356,-47.9720,255.5850,-117.0197,69.7362,-35.1679,419.1741
147.1591,55.0771,88.7507,-60.8928,122.0750,11.4631,143.7145,107.0229,108.9297,53.8810,-3.1137,423.4943,45.0914,-38.0408,231.1316,-104.6177,86.5704,-70.0701,350.0612
222.8732,102.0690,95.3764,-36.5483,151.8595,26.7292,105.9787,-26.9988,-22.5801,-68.6651,44.2425,428.6309,57.7735,-11.2741,232.5706,-80.6520,97.9284,-58.5370,216.3022
249.5758,120.7999,87.7572,3.2079,134.1337,20.9764,62.6313,-172.4440,-124.8320,-196.4336,84.0326,411.9015,70.4827,-12.9201,245.3776,-90.8008,83.7028,-99.3573,65.4138
256.7070,114.0598,85.9726,-14.0065,98.9332,-23.0840,27.4301,-316.4200,-184.8654,-304.2708,84.3552,397.9211,42.0817,-27.2694,233.5041,-84.8502,55.6383,-133.5843,-70.8225
254.0946,172.3066,92.3125,-0.4306,62.1325,-15.1116,-16.9504,-379.0752,-156.1843,-270.1848,52.9218,444.1604,-12.8618,-13.3779,225.7734,-6.2019,30.8663,-80.2361,-150.6587
218.1258,276.3490,49.4412,50.7512,-11.5276,18.9042,-82.0826,-322.2472,-35.2254,-96.0980,-14.4624,485.3875,-38.1867,25.2868,262.2218,91.5495,-12.8665,-38.1452,-165.6324
176.5922,288.4242,-50.0442,23.6732,-107.5376,-25.8701,-123.7411,-216.9786,79.4147,76.5239,-100.6281,418.9591,-27.6570,26.1787,298.2111,119.6178,-86.0199,-78.2794,-143.3330
166.5206,195.6647,-114.6965,-59.8378,-150.4602,-113.5239,-111.6613,-138.3962,129.0232,168.8764,-126.7136,296.0054,-21.4637,-49.2937,265.2876,77.2347,-142.5380,-104.6865,-101.6215
163.3092,119.2193,-90.3455,-90.2650,-115.7122,-133.5799,-65.8369,-84.8541,177.0296,205.0623,-67.8233,243.1313,-26.5874,-124.9583,200.0246,21.5941,-137.8181,-54.2270,-21.3234
139.8835,106.5598,-17.5188,-75.2116,-29.9877,-73.9849,20.4113,-27.1373,266.4424,221.9004,-4.1184,282.3490,-11.7504,-110.2880,197.3246,-20.0714,-83.2080,34.5706,114.1776
119.6232,121.9593,60.6164,-39.8992,84.3495,25.4403,144.8078,57.2457,334.7512,241.6555,14.2088,347.5204,31.9577,-42.8375,256.4418,-29.0507,-12.2214,144.4740,263.2310
119.3023,123.2836,132.0178,37.0950,193.5719,142.0515,237.6966,178.8571,329.4590,264.2053,19.8042,378.4786,74.9092,8.6441,292.6244,28.9188,57.8050,251.2857,370.6147
120.6594,63.1943,188.2148,89.4357,273.1543,222.1974,279.7663,272.8041,275.6349,252.0275,46.5028,367.0640,89.5267,51.8269,269.8009,112.4958,111.4704,272.8026,422.7950
117.8403,-8.2388,225.4096,60.8219,327.8021,214.8199,313.8116,239.5153,205.7923,186.5082,92.2764,380.6429,81.0351,80.2936,227.6044,117.9536,136.4127,206.0511,395.1913
106.4649,48.8603,235.3664,65.3065,335.7254,173.5852,301.2990,128.0517,134.8600,128.2750,111.1122,475.7654,67.7242,68.2984,220.2554,63.4711,143.7101,181.4021,267.8874
46.0321,181.5152,210.0103,174.5053,287.4178,196.1802,211.2390,88.8335,85.9640,138.3590,47.1736,573.4261,49.8168,60.5138,260.3646,64.0416,141.1260,262.3093,123.0662
-58.1508,172.7896,181.2200,251.9100,257.5140,264.6833,151.5369,107.4785,67.5689,171.3703,-49.0827,557.8871,29.9969,88.7339,291.3660,99.7104,118.4135,327.9051,52.6632
-103.0577,47.3540,187.9178,204.8714,281.1795,267.7325,177.5870,50.5943,73.2095,157.2969,-62.4604,459.1539,34.5351,101.5255,263.9194,69.8102,93.1140,271.0484,18.9374
-49.0401,21.0985,207.8929,135.4048,283.4917,189.6580,195.5993,-51.6946,112.2930,132.1788,-11.0647,383.0909,67.2917,60.7250,227.7120,16.4617,98.1937,181.7494,-27.0200
-20.6962,67.7001,201.0524,118.9733,250.6863,141.5079,183.6615,-61.1111,171.2133,156.0786,1.4375,339.9773,93.8261,-33.1758,234.7944,21.0474,108.4421,182.3320,-36.2475
-125.1702,-26.9799,170.8600,86.0645,248.9614,162.2003,204.8899,16.1322,198.1556,185.6163,-15.4604,269.7980,107.2654,-139.9534,231.5389,33.6580,70.8059,214.7179,15.0488
-319.8716,-285.0457,121.8309,-11.4196,248.0800,156.4739,221.7883,81.7178,198.6143,165.0708,-13.6905,166.2519,134.8307,-127.0228,184.2762,23.6170,-10.1296,185.1561,88.3272
-541.9276,-540.3790,33.7163,-106.4822,188.4782,98.6872,188.4285,135.5807,245.2448,154.2575,-45.6545,94.9480,168.4581,50.9128,167.6718,65.5572,-103.3615,161.4123,182.1235
-791.5412,-691.6750,-89.6792,-138.0455,129.8429,86.7907,168.4839,237.4494,334.2142,234.0358,-146.6246,96.3204,175.9959,183.0293,217.4660,145.6716,-204.6104,206.1040,288.1076
-1042.1981,-782.7154,-212.7528,-149.4534,109.1090,119.5394,168.6989,359.4588,350.8914,339.7943,-254.2931,102.4693,159.0265,116.9552,263.4290,143.1411,-299.8135,203.3448,328.5430
-1234.2734,-907.4201,-312.2620,-209.6399,44.6587,69.4007,96.1942,386.6544,228.1835,325.3498,-335.1763,22.8059,122.9501,4.6777,245.1648,51.3892,-368.6516,65.8326,259.1820
-1366.3612,-1066.3911,-389.2417,-297.9523,-84.6903,-64.5036,-46.8672,279.1572,47.6470,206.8894,-415.4092,-101.2381,53.8756,-22.4609,161.7029,-8.6614,-427.4306,-88.3923,130.3623
-1466.2697,-1152.3647,-445.9120,-337.9254,-198.5501,-142.4000,-164.1177,159.7769,-62.7271,164.8382,-485.0313,-156.9389,-21.4304,-43.8619,53.9251,7.6507,-480.6272,-140.0575,10.6282
-1506.1858,-1127.4865,-475.7603,-314.6251,-275.2575,-141.3404,-230.0897,124.9968,-80.8195,222.7406,-511.1412,-132.4113,-48.4365,-79.8284,-6.0234,21.6324,-495.0304,-147.2340,-79.1353
-1455.9891,-1082.9685,-480.9561,-288.1501,-340.3385,-162.9360,-276.0494,82.1604,-77.5357,194.2148,-503.8811,-85.0601,-38.1629,-44.0806,4.0204,-10.8196,-475.0711,-192.6053,-162.9930
-1374.1279,-1073.4845,-476.0661,-302.1664,-362.2666,-212.3302,-291.7810,-38.8431,-83.3520,48.8496,-492.9413,-38.0775,-42.5658,35.7155,24.7558,-28.5341,-452.9484,-234.9083,-239.2450
-1336.1284,-1062.5916,-454.7813,-328.9618,-311.6817,-209.6125,-251.3472,-114.3787,-69.8294,-30.7738,-482.1522,-14.4768,-51.5026,62.9690,36.1505,-0.5476,-412.6667,-208.0195,-232.5411
-1321.0208,-1034.1110,-402.4223,-320.9992,-226.3251,-158.3819,-172.5812,-58.7791,-27.3914,15.2838,-463.8150,-39.7879,-21.6051,34.7963,82.4223,11.6875,-351.8715,-132.9246,-106.0206
-1288.1194,-1016.4557,-364.9967,-295.6958,-155.6916,-116.2056,-102.4749,47.4498,47.9680,111.2924,-459.0269,-80.1611,23.9126,12.2695,143.0032,10.1089,-338.4244,-69.0039,51.6700
-1280.0939,-1020.9319,-403.2166,-305.9288,-124.3823,-84.1670,-65.5064,153.9431,153.7245,226.6900,-493.1687,-90.3870,26.6320,45.0432,138.8614,73.0590,-384.8052,-40.3537,156.6608
-1305.3164,-1013.9603,-463.5674,-328.1035,-132.0807,-42.0605,-51.0792,264.2650,199.4110,285.8651,-523.3208,-71.3704,-6.4058,124.1852,69.9185,153.3228,-398.4527,-33.0977,209.4643
-1268.6891,-949.8826,-442.4561,-294.4225,-142.2602,3.6122,-52.6515,324.9654,113.0450,226.7795,-486.1476,-36.8154,-20.1832,175.7115,25.4079,150.2125,-341.6129,-12.7983,209.4357
-1163.5569,-854.6827,-363.1092,-228.8441,-125.6273,45.9329,-71.4883,335.1603,14.5140,207.8808,-422.0826,-12.6672,-6.8937,174.6283,60.8197,144.7352,-290.1934,31.0457,169.4314
-1105.3807,-807.5168,-327.9344,-205.9607,-114.2024,60.1068,-82.8929,358.8190,28.5038,311.6658,-410.2872,-19.4031,-10.7357,169.8731,116.2593,220.5158,-293.2805,35.6650,150.4707
-1087.0815,-792.6472,-348.4831,-217.4637,-143.7209,0.5504,-68.2100,332.1569,69.2212,299.3167,-421.4671,-6.4912,-43.7234,146.3765,100.1275,237.1174,-310.3855,-49.6710,148.4377
-1005.4731,-731.8714,-366.2631,-222.5074,-180.7268,-106.9670,-51.6777,175.0595,69.3455,99.1356,-401.4705,54.2505,-63.1341,61.9922,50.9039,115.6166,-306.0338,-139.7559,106.6127
-918.0552,-661.7557,-367.4361,-242.2230,-181.6274,-168.3650,-50.0700,23.1708,134.1551,10.1364,-393.9845,65.9551,-47.8964,-14.1230,78.4467,30.3542,-304.8855,-130.0407,56.1792
-926.6402,-653.3096,-371.9209,-291.3515,-170.9405,-164.2453,-55.1469,18.5562,269.5269,134.1112,-427.4191,-16.8894,-34.1786,-14.2066,141.4746,76.4921,-328.2023,-84.6856,41.3633
-932.8563,-651.5490,-374.2131,-327.9815,-186.8398,-167.1368,-77.1480,67.6796,324.0511,240.5177,-431.7941,-81.0682,-44.1254,9.0203,114.9176,125.6675,-335.9690,-115.8690,16.6880
-822.1280,-601.9778,-348.0707,-327.8800,-203.1979,-207.9946,-112.5090,51.8114,274.1151,225.9807,-361.2542,-67.8020,-42.2322,9.3347,44.0356,100.7300,-282.5472,-180.4643,-30.6945
-669.9383,-544.2321,-283.8521,-305.0046,-183.0958,-243.1730,-119.9057,15.9597,214.8122,166.6062,-257.5929,-40.0068,-8.9820,4.4465,53.6814,57.5658,-204.4082,-189.8366,-59.9422
-560.2789,-471.9310,-216.7356,-262.0306,-158.7590,-234.6039,-105.4380,20.7223,151.0671,110.3007,-181.2913,-5.2721,4.3738,-4.0141,100.0881,45.3985,-169.1160,-174.9566,-95.9902
-457.2347,-344.0502,-189.4746,-200.1242,-168.4731,-187.2715,-114.1035,35.6003,65.3366,94.4229,-155.6171,60.4722,-42.3746,-3.6561,67.6495,78.1605,-149.3939,-191.6722,-143.8431
-329.6894,-214.8374,-169.5437,-145.8127,-164.2597,-138.2469,-112.5493,12.2989,11.0972,92.2466,-135.4472,107.7999,-96.4723,35.9478,-22.3803,115.7408,-68.3323,-213.1609,-116.1741
-194.0662,-136.3247,-88.5458,-118.7342,-88.7977,-117.5105,-44.2021,-50.0309,12.3007,6.5541,-58.7264,126.2296,-80.5986,75.8102,-63.4104,74.1780,42.5478,-190.2149,-16.1961
-76.2144,-63.7147,18.9228,-101.3223,0.9366,-101.2718,31.2895,-91.9313,46.5216,-96.2892,26.1613,170.2487,-6.3247,67.4563,-7.7354,-22.1741,73.3044,-114.4506,35.2856
-17.4642,21.7293,45.0030,-71.3764,3.3547,-61.1082,20.6525,-63.1486,89.5252,-81.9407,23.0718,213.9868,40.3417,52.2131,83.7907,-58.4111,15.9569,-33.0004,7.1344
-3.1640,80.0974,-10.3054,-46.6550,-66.7132,-39.3218,-49.6049,-25.3889,78.9165,-53.3216,-19.2308,202.5874,17.0223,60.0431,104.1405,-40.6899,-24.4356,-24.4269,-46.0644
55.4739,109.1837,-37.6050,-57.6730,-109.4647,-80.9870,-98.7378,-76.0937,-16.9128,-137.2016,8.4006,170.8587,-20.8128,38.2063,51.7655,-60.5766,-5.1994,-97.4214,-119.6382
149.7062,123.7283,-8.1160,-89.8892,-111.7075,-151.7673,-126.5283,-180.6205,-102.8741,-210.3051,61.9220,146.0271,-12.6853,-31.0510,31.1915,-107.0572,-7.4738,-166.7778,-202.4990
161.7610,124.8990,-13.7687,-110.9278,-146.5851,-195.8545,-172.7170,-212.8433,-89.7424,-153.2757,38.6532,107.6054,4.7897,-79.2271,54.5056,-107.0348,-88.2336,-180.6073,-225.6999
86.6041,145.6095,-99.4504,-124.1385,-208.9161,-186.1164,-213.1558,-130.4516,-20.4412,-34.8848,-34.6758,91.9982,-27.3293,-53.3998,44.7536,-44.5681,-174.1276,-165.7979,-171.4195
44.0908,204.0894,-184.5203,-133.5570,-213.5459,-124.3429,-198.8600,-22.9706,25.5050,40.9301,-70.3861,128.9785,-56.4317,9.3705,30.3648,30.6005,-175.2931,-154.2114,-114.5420
90.8946,259.2533,-185.1541,-125.6447,-168.1871,-84.5327,-168.0406,-5.1363,10.2619,7.2227,-40.5685,143.9453,-2.9878,25.2626,75.6753,38.5384,-133.7508,-167.3430,-136.0247
199.7932,303.1618,-127.8704,-114.4175,-176.0568,-137.8313,-213.0923,-73.0125,-76.1654,-104.5322,33.7609,95.7326,68.6891,-12.8777,109.9995,-12.1735,-147.2704,-197.7743,-236.2767
333.3669,377.4365,-94.4489,-99.7517,-249.8805,-183.2564,-321.4138,-98.7766,-190.2151,-124.2818,110.7165,62.5208,47.9650,-5.6711,58.9489,19.4246,-188.7417,-173.5307,-314.8877
443.6243,468.1255,-95.1464,-32.3363,-286.1872,-82.9348,-363.9514,-23.9137,-255.4224,-4.2252,163.4502,89.1504,-21.1568,79.4565,-17.4598,155.7230,-150.1419,-70.7246,-285.9825
505.5769,522.1777,-60.0205,64.1071,-231.4737,63.9522,-284.9178,47.8891,-247.0174,78.6200,210.6935,116.5562,-25.0199,126.6770,-50.5194,204.8331,-49.0460,11.0224,-209.0352
541.1489,539.3599,29.3061,80.0234,-143.9704,79.9004,-186.0590,36.4153,-197.2907,54.5302,245.8557,99.0860,23.5500,82.6163,-46.5453,117.7122,-15.8619,14.0249,-188.2662
550.5126,546.2690,82.4904,13.1919,-100.1946,15.2535,-168.1613,2.2093,-151.2946,35.4935,217.2230,65.5549,33.1233,62.1496,-32.0195,98.3197,-65.6241,-2.4755,-205.3731
529.8604,543.6572,53.0483,-25.8369,-115.8997,4.9927,-193.8563,4.8892,-131.9317,50.5728,156.1899,61.5342,-14.3219,126.1062,-37.7016,200.2659,-70.3070,-13.8941,-189.9380
541.7894,525.2449,41.3740,-6.8698,-142.4085,30.1368,-174.3212,17.8781,-115.5821,52.3139,163.5821,87.4302,-59.3861,169.1007,-60.2895,231.4978,14.6031,-40.9657,-146.7866
611.1392,490.6060,118.9207,19.7084,-123.1226,37.3185,-110.2824,18.1686,-88.7463,36.3154,224.7007,101.5910,-46.0668,124.0268,-30.9967,136.8240,90.0052,-46.6908,-105.5652
645.2119,445.5048,188.9691,34.3608,-62.6235,43.9849,-64.5468,18.6893,-85.6107,-4.5619,233.8517,87.5483,18.0287,72.8639,58.6310,68.2625,102.7322,-19.3779,-66.7682
597.0933,421.6214,164.7350,32.2426,-15.9443,32.5605,-52.3180,17.4059,-87.2573,-30.9949,187.7410,83.5170,62.9108,77.8222,108.9634,73.8982,102.5684,-21.3074,-46.0548
552.1734,462.6391,114.5102,26.8169,-14.2957,-17.1453,-47.4612,5.4197,-25.8750,47.7967,166.3837,118.2728,55.2602,77.3160,95.1130,54.1792,108.7303,-37.6366,-63.6209
562.8548,565.3080,109.6883,71.8103,-39.0780,-30.9890,-50.1909,2.3915,61.4420,179.5981,181.5534,169.6334,49.8964,29.4255,105.4657,-6.7338,95.6748,15.2221,-94.1034
578.6825,655.0093,119.0627,157.9696,-55.1915,35.0659,-64.4360,34.5761,89.4520,227.6133,192.5304,201.9201,78.2411,11.2536,148.5002,-17.4512,85.6185,112.5337,-98.8041
572.9578,659.5059,120.2665,211.0848,-45.7529,111.1437,-58.0655,88.8727,78.3066,202.7032,196.8764,203.0103,93.4928,72.1658,142.8129,36.4434,117.9027,167.8821,-76.0339
572.4567,610.8000,139.3618,242.3196,-18.7086,154.4119,-10.1264,116.3480,58.7407,161.8553,212.7898,195.2706,81.4156,123.8779,94.5246,64.6072,182.0198,185.3762,-46.6529
578.7386,601.2045,181.9918,304.9127,23.9599,190.1306,53.7348,90.9149,10.4786,81.3697,236.7523,210.3588,90.6500,95.8769,89.8805,33.5220,253.7043,202.3066,-28.5290
574.9162,633.9351,236.3055,358.9852,88.5880,199.3895,92.2140,37.8525,-18.4972,-4.0043,253.7719,231.3438,131.4149,54.6464,141.2805,7.9962,312.9230,207.8546,-41.6563
559.1953,643.0085,279.6427,367.9067,135.4041,149.3652,76.7791,-10.5947,6.1098,-25.1334,253.2270,220.2055,161.0795,63.2603,176.4964,12.4534,327.5308,199.2251,-97.4296
529.7892,631.8194,273.4127,370.6011,110.1315,86.0999,23.8738,-51.2867,-10.9152,-34.9786,246.0638,197.7533,155.4944,80.5233,153.2764,-0.6520,307.6663,175.0046,-160.2607
503.6733,616.4904,240.2320,345.7640,51.4054,49.6920,-2.3866,-100.8409,-88.6731,-105.3163,266.9221,183.8119,132.4700,58.7177,104.1714,-41.2129,309.8986,90.3064,-168.1410
520.5198,535.2515,251.5757,234.6281,42.9666,-1.9628,20.8746,-171.4632,-101.3467,-192.0490,317.7845,135.2923,134.4229,5.1187,80.1320,-80.0537,335.9577,-32.9284,-121.7988
561.8730,414.8483,283.1727,126.0017,78.5257,-66.2391,47.1229,-222.7152,-40.2131,-196.1574,336.2318,78.1152,175.5491,-39.5333,91.4880,-105.4929,340.1363,-51.3436,-90.8550
556.5577,428.0846,257.5027,172.7471,99.9346,-36.1079,56.9858,-173.0406,-11.7861,-63.4697,281.6043,129.6426,197.3491,-15.0367,105.6048,-87.2985,329.5862,84.2729,-107.8912
513.7584,590.1595,212.2407,335.9625,94.0829,103.7606,58.1987,-41.9393,-15.7263,109.7099,213.1658,267.0770,154.7992,73.1126,91.1259,-11.0143,326.1933,200.2455,-135.1675
510.1543,671.6031,217.2435,408.9499,62.8246,181.8439,20.7649,25.6082,-15.9192,129.7001,206.6464,312.4268,105.4172,111.6315,63.1539,36.8417,296.2352,151.2499,-139.2554
532.9624,566.5198,223.0246,298.3436,14.9599,97.2400,-35.0055,-19.7033,-39.3721,7.7455,238.8951,221.3121,108.5650,61.3085,54.6368,-3.0069,235.0195,39.1924,-118.2412
509.4223,436.5784,175.5957,148.2001,4.8965,-2.2911,-13.7486,-60.9734,-56.0144,-44.7840,236.5769,127.0189,129.3559,42.5313,21.7673,-38.2087,205.3802,13.6660,-80.4569
460.2869,402.6697,126.2747,119.1008,52.8262,22.5958,67.0673,-44.3388,-21.3881,-7.0936,193.7779,98.5415,124.1583,101.9705,-128.8919,-10.3407,215.8387,31.1361,-49.7951
453.2820,399.8132,116.8173,149.4611,92.9887,72.6926,85.3683,-48.1848,-2.0440,-33.8144,166.1286,92.6944,103.0704,123.7453,-360.4008,-11.2456,200.9802,-11.9743,-44.8211
477.6911,366.7050,119.7855,96.5242,91.7128,27.4146,46.6366,-88.4635,-41.0185,-109.0286,180.9502,86.4784,81.5575,69.5113,-509.9970,-74.7291,147.3453,-79.6582,-49.6875
489.8566,335.2058,117.4462,7.8226,87.5043,-33.0114,37.9468,-91.9248,-78.9760,-122.1990,206.7563,87.1823,69.6521,36.8420,-537.2142,-107.3483,103.2999,-87.6911,-52.0385
476.8667,339.7149,111.8275,20.4148,85.7589,-0.4096,33.7340,-51.5604,-98.3256,-92.5962,198.0492,93.1952,71.5942,48.6956,-555.2532,-90.3881,82.6424,-44.7916,-63.7158
430.6827,372.8181,94.0781,107.1333,63.5932,77.8096,-0.7987,-24.9649,-118.1511,-67.6492,151.8681,113.1389,60.7291,41.9231,-592.8003,-94.1695,69.8364,1.9506,-82.1090
378.2940,402.4127,73.0696,150.5294,50.0617,112.6906,0.5565,-32.5064,-102.1143,-56.3241,114.5037,142.5241,34.3000,27.1794,-575.7418,-112.4350,73.5637,37.4916,-94.3839
383.8257,401.0527,72.8396,136.5161,74.1566,96.4367,42.5191,-60.0311,-47.6601,-82.6259,113.7938,143.3618,37.6892,49.4963,-520.6752,-95.2825,89.8734,51.2847,-101.4682
425.1221,380.3154,84.8494,116.0147,98.9438,60.1200,38.6078,-88.8819,-20.6114,-104.9109,117.1947,111.7511,60.5368,70.2077,-510.0682,-67.3759,75.9223,38.0957,-95.9282
412.3737,362.2957,75.8225,102.1256,89.5270,31.1421,-4.9219,-95.7221,-39.9064,-57.6855,100.2948,91.8027,47.6203,36.9803,-539.1218,-69.5073,20.2245,22.5821,-75.9547
360.0056,333.9539,36.2856,78.0065,67.5036,23.8746,-16.8874,-83.7051,-76.6063,-17.9549,90.6753,90.5078,30.8350,-15.5097,-549.4611,-81.1303,-31.0254,19.7918,-78.3400
340.9897,291.7511,-6.4351,37.3054,57.1504,22.7553,-10.8405,-83.9216,-114.5893,-69.0028,95.6852,76.7422,65.4454,-22.6503,-522.9690,-75.9204,-49.5068,12.3014,-114.6855
324.9639,267.3780,-26.5921,14.9524,48.6323,20.4509,-18.6274,-93.1966,-132.9926,-126.1817,77.0501,64.3686,95.5064,15.2846,-473.2465,-71.0361,-51.7749,3.4363,-125.5111
265.4613,260.7537,-35.9658,53.3811,34.8123,48.1492,-8.6070,-76.1932,-124.4027,-115.5800,32.8729,90.5216,63.1399,40.5363,-425.4048,-89.4120,-42.8152,25.1818,-76.5578
220.9970,243.5804,-46.5734,109.8418,27.9116,100.3219,21.6182,-41.4323,-113.1234,-94.1561,9.0096,125.8869,24.0753,22.1150,-398.5384,-116.2837,-15.2372,58.2742,-26.2014
232.0115,229.3867,-31.5975,103.7511,22.9926,102.3758,19.9883,-37.8754,-106.5210,-100.1529,15.4763,109.1373,25.5989,4.2681,-380.4542,-112.5116,6.4161,32.3710,-41.1882
244.3414,240.0337,11.9771,58.6633,0.5441,28.4459,-18.2072,-74.0653,-111.6900,-114.0256,16.4414,55.4938,30.0059,28.2624,-363.1211,-77.5898,5.1153,-45.4167,-107.3076
233.5161,252.1394,34.4446,49.1774,-22.8372,-42.0305,-44.1767,-117.6543,-153.6240,-142.4327,-2.0605,30.7333,11.1233,34.7239,-363.2966,-71.5099,20.8895,-79.6221,-158.0390
239.9790,243.8930,32.4831,63.6868,-17.4114,-55.7197,-38.6006,-165.1403,-199.9924,-199.5577,-11.3458,34.4007,-15.9499,-44.1672,-361.7807,-122.6031,84.0510,-60.5297,-164.1213
273.2240,222.5656,61.8834,59.3987,-5.6791,-64.1203,-23.3317,-223.4928,-196.0669,-264.2580,17.9541,18.5756,-38.4709,-127.7319,-307.4404,-157.7798,147.6670,-80.5308,-157.5746
294.5325,199.3616,111.2466,48.7697,-21.2800,-99.2924,-20.3178,-245.0929,-170.4409,-281.8534,65.6131,-1.4815,-39.4503,-91.8225,-212.4315,-109.9885,147.2675,-129.9095,-156.6739
271.3559,195.6077,108.1611,47.7468,-43.5636,-97.5164,-34.2575,-188.0570,-156.4715,-207.1214,71.9366,21.4015,-16.4866,11.7975,-154.1026,-34.8738,89.7599,-103.2237,-129.2523
217.4917,216.1571,58.3922,47.5437,-46.1891,-32.3337,-50.4539,-102.7446,-126.2264,-96.6208,27.3444,58.0961,-9.5054,40.6086,-167.7475,-15.0874,43.0928,-23.5758,-70.1161
189.7470,211.3141,34.7648,44.9673,-39.4660,15.2668,-48.2325,-54.0880,-100.9074,-68.8193,-2.5661,51.4710,-33.8056,0.7480,-196.9159,-29.1742,47.8065,-0.6722,-30.5597
207.2480,161.4254,47.2412,32.0591,-28.7637,2.9210,-29.8924,-33.0826,-129.6182,-127.4476,9.5030,22.2636,-46.9732,-1.5566,-168.0684,-27.7131,68.1735,-16.7593,-29.6054
209.1532,121.7842,39.2532,1.8111,-9.4719,-15.4103,-16.7350,-26.7128,-164.0805,-174.4082,6.5577,11.8463,-35.6630,36.5336,-97.4090,-34.3167,55.9884,-6.9351,-23.8519
160.6212,96.8996,-7.6750,-31.9151,14.1298,-29.0071,-12.0509,-54.1268,-149.2830,-168.9608,-34.3287,-2.7792,-37.2871,39.2883,-70.3115,-64.1509,25.9659,-17.7809,18.1371
113.7919,36.8319,-43.5499,-67.9519,46.0423,-80.9210,-2.2551,-84.7810,-124.8050,-134.3456,-56.1829,-38.0964,-54.5676,-0.8577,-99.2619,-69.2393,9.1579,-78.8113,75.8059
105.7025,-12.6711,-32.8425,-111.4764,71.0771,-134.0060,4.5512,-65.5827,-121.0020,-107.8152,-33.8633,-52.5134,-47.6174,-26.4183,-103.7684,-45.0701,-7.0335,-106.6181,100.7458
107.8757,14.4180,-16.0946,-127.3486,48.0140,-120.3664,-10.4687,-33.4387,-118.8971,-130.5275,-12.4343,-43.3390,-7.4789,-11.5047,-53.3284,-50.3261,-24.7868,-64.1165,67.0058
94.5009,38.5177,-40.5560,-94.7036,1.0585,-80.3317,-31.8463,-60.4078,-115.9860,-174.0406,-22.1480,-69.6022,27.7849,1.9825,-6.1340,-88.8225,-19.0506,-23.0893,14.7171
71.2167,-15.1981,-79.5345,-64.0711,-3.1684,-87.4810,-29.9333,-122.1030,-105.3702,-163.4574,-49.9195,-123.6199,19.3442,-33.4698,-5.4191,-110.6674,-14.9756,-33.7345,4.3282
56.4106,-57.4554,-93.2994,-76.9365,7.2591,-124.9285,-13.9945,-136.4230,-80.6361,-122.2193,-78.5822,-127.9241,-30.7518,-79.0398,-40.8170,-104.8842,-59.4529,-74.6726,26.5758
54.9377,-23.4156,-100.2271,-103.6524,-33.6273,-146.0351,-22.9947,-87.7991,-83.4295,-111.1930,-97.9680,-89.3748,-81.7166,-55.2795,-75.6158,-81.9905,-121.9032,-95.8964,26.8405
38.3790,21.9090,-114.9386,-95.3376,-90.6995,-143.3869,-71.0416,-31.9659,-121.2691,-92.3067,-103.8802,-81.8994,-104.6712,9.8335,-63.2210,-40.1290,-135.0022,-51.9603,-4.3099
19.7686,76.8156,-107.5833,-31.8659,-100.2918,-110.1543,-111.4793,-5.6629,-131.8986,-48.1528,-96.3673,-81.4638,-109.7584,19.9704,-2.0023,-5.0575,-85.9667,37.8262,-26.9607
94.3020,200.1666,-67.3077,58.0692,-61.4354,-39.7514,-75.3020,10.6431,-108.8936,-53.4910,-55.9983,-20.2363,-102.9342,-12.9089,44.9793,-6.4236,-7.6010,88.5539,-5.9364
263.9854,301.9355,-12.4688,104.3453,11.7276,34.9836,18.6001,37.0992,-98.9545,-101.1089,37.0513,42.0738,-63.2194,-5.8065,47.5928,-17.5969,49.9755,67.5930,46.3132
366.7932,246.8994,46.1695,74.7236,83.4723,63.4111,56.9501,51.2203,-97.2477,-104.0178,133.8344,10.2258,3.5674,31.2416,46.6823,-5.3108,47.7490,25.1455,65.4558
330.4112,99.9037,82.0278,9.6855,93.4793,20.2439,6.0136,21.1691,-100.8256,-90.0212,144.8202,-76.3068,39.8248,25.1648,60.8120,6.8945,15.6950,-9.6522,19.3760
263.6540,10.1301,68.5841,-45.1083,62.3217,-65.5484,-32.9058,-55.3169,-141.2949,-143.3861,67.5093,-132.0957,2.6876,-41.6984,57.9798,-19.4343,16.6776,-40.6709,-31.6302
222.9906,-3.4784,47.4445,-47.7379,62.1007,-104.1535,-7.4342,-131.3847,-187.7619,-209.6503,-3.3716,-131.4387,-74.1123,-120.4169,25.0462,-73.4516,55.5905,-30.0358,-36.6331
183.4084,25.1484,76.3952,51.8080,88.4218,-29.0512,32.1388,-113.3903,-186.7021,-169.4755,-11.3755,-51.5757,-114.7238,-133.7822,-9.4587,-93.1396,110.7710,57.6458,-23.0096
189.4454,90.2637,128.7885,202.1728,116.4167,97.2223,75.9246,19.8870,-161.7301,-47.7889,8.7414,73.3301,-94.9672,-63.4782,-15.0317,-43.5333,172.3082,157.9359,1.6102
251.1256,124.1349,143.7939,247.7526,159.6689,144.1720,135.2318,123.2809,-132.1424,14.2371,18.2287,92.5311,-71.5235,-19.7409,0.0345,5.7546,192.1305,172.3196,66.9217
263.3471,55.6369,120.0583,152.5848,183.7353,79.8224,149.8293,92.7368,-66.7757,-13.8361,18.3202,-29.0637,-95.7900,-83.8853,-0.2423,-22.1758,133.2915,114.7237,139.0040
205.8047,-40.0435,85.9214,52.0388,150.1373,-5.1080,101.8988,57.8811,16.4721,-4.8109,7.7463,-110.0074,-139.6360,-147.9450,-8.7984,-64.6898,53.7882,83.0866,162.8169
165.1366,-56.8710,45.2291,21.4768,113.9599,-26.6838,71.7796,138.3838,69.1791,102.4186,-19.3645,-75.3118,-149.3363,-108.1263,17.2958,-35.7272,3.3354,103.3264,160.9087
137.5501,-28.9582,-7.7400,4.2381,103.9421,8.0520,72.4919,233.3261,90.7772,205.8107,-46.9503,-59.0577,-131.8055,-54.2603,49.2401,6.9232,-57.0059,114.7576,160.8115
86.7943,-25.7953,-64.1233,-27.8240,61.6577,36.8767,33.5811,255.6628,67.1321,215.6351,-59.6719,-94.9972,-135.8676,-70.1351,19.1621,0.5975,-129.2099,81.4404,129.4925
80.0703,-36.9090,-93.0888,-42.2935,-4.6175,14.9147,-32.4329,252.8947,-33.8593,139.2654,-55.0937,-107.3527,-176.0422,-78.5376,-42.1008,7.7791,-137.3877,14.6956,60.9289
146.2374,-52.9284,-60.2113,-36.0260,-16.8282,-41.1043,-45.4273,212.5524,-150.2842,13.3917,-28.8169,-171.6355,-218.1894,-29.6707,-70.1269,54.9842,-63.2998,-52.0527,10.8455
191.5083,-88.2650,13.0453,-21.0735,31.6410,-61.2955,9.2407,112.5706,-176.8108,-87.6946,-5.4065,-388.8261,-230.0350,4.5369,-88.6717,69.6969,20.6523,-52.5938,16.6449
158.8878,-125.8923,42.3157,3.2296,89.3274,-6.4085,81.0602,67.6131,-120.0811,-102.5589,-37.5876,-657.7409,-218.4800,-11.8520,-107.6369,37.9362,41.9568,30.3809,61.9052
84.7442,-168.2377,-14.9407,11.0559,109.1586,64.6716,113.2884,113.1371,-70.1602,-98.5145,-107.2685,-853.5959,-209.0752,-33.1311,-73.1379,9.5229,-6.4410,93.3561,106.3292
18.5083,-236.0043,-90.1792,-13.4892,69.6142,84.4293,89.7855,119.1640,-71.3312,-139.6399,-124.5736,-981.1530,-208.4603,-32.8051,-19.5373,-0.1135,-46.6475,71.4505,122.7246
0.5321,-277.4032,-95.2244,-24.4579,32.4648,84.6328,65.5863,78.7723,-106.5033,-156.5847,-86.4741,-1043.0581,-214.4552,-21.1361,-39.1624,15.9877,-8.7327,43.3904,119.0671
28.4708,-257.2652,-45.9967,-4.5831,67.4767,101.0431,83.3290,91.3263,-147.5731,-138.6245,-92.5343,-1038.9962,-236.7464,-11.0743,-98.0592,43.4836,44.4101,45.9607,111.7913
36.0043,-259.1866,-35.1468,-14.7129,102.1121,83.1385,94.3979,100.4381,-174.7943,-172.4907,-162.6470,-1038.5881,-269.5477,-12.7729,-120.8435,18.0545,20.2606,14.2531,93.8927
-7.7105,-313.2128,-92.7700,-61.7955,52.5629,29.5284,62.4323,37.8093,-180.3831,-213.3843,-208.7574,-1045.8323,-283.7642,-19.4277,-148.1000,-40.9474,-32.4098,-28.4512,63.0557
-56.0624,-324.1061,-135.8129,-67.1595,0.1604,24.2422,36.8977,0.7072,-169.9756,-179.5028,-198.9406,-992.8314,-277.0537,-20.6506,-205.5002,-26.7824,-22.9233,-4.2090,39.3569
-77.1822,-304.0091,-87.9874,-29.4080,23.9433,44.9470,45.7892,25.8073,-153.5793,-160.4975,-183.5013,-942.1523,-277.7586,-41.2233,-210.9953,36.3178,34.0863,38.4291,34.9345
-79.7568,-373.4124,2.6557,-28.7627,63.4851,2.7413,57.7222,30.3775,-132.9474,-205.8160,-174.8128,-995.4626,-288.1900,-100.2447,-147.2846,30.8873,92.6185,36.5676,54.2074
-75.5091,-487.4032,35.7503,-48.8781,77.5647,-28.5593,72.6844,39.2108,-105.8666,-195.5673,-146.0526,-1053.9730,-286.2593,-150.0764,-109.3910,-20.0640,138.7495,49.0572,105.5427
-82.6700,-500.2995,8.7770,-5.2835,99.9708,58.1206,120.4628,113.5967,-82.0120,-111.2068,-114.5649,-975.8930,-270.9222,-138.6574,-130.0816,-33.0801,158.1882,106.2033,174.3509
-98.8218,-439.8898,5.1484,80.0601,134.0711,166.8698,190.6313,177.0530,-71.1876,-72.8014,-111.0731,-825.3997,-251.7648,-99.3538,-146.8517,-38.8652,172.4872,146.0402,222.4389
-91.7146,-413.9954,56.5008,129.5869,170.1784,187.0289,233.8748,166.2914,-75.5748,-100.8389,-111.7622,-730.2980,-229.4237,-97.2660,-133.4415,-68.7496,219.1599,151.2766,219.2912
-74.1855,-399.6691,108.6485,146.5166,205.8933,178.3261,208.7784,127.3459,-121.5341,-139.8711,-85.8627,-686.5217,-213.6815,-125.6705,-131.4263,-77.8293,249.8894,141.3735,157.5175
-83.9266,-354.6327,111.6523,150.2496,199.3918,175.2346,133.4890,80.0340,-225.8776,-182.7711,-57.4268,-647.2785,-213.4526,-142.1764,-167.7375,-70.2486,209.9842,99.0194,78.8742
-95.3841,-343.2945,69.8147,115.8372,146.0946,123.5148,81.9912,22.4798,-311.8806,-230.0062,-53.9991,-620.6339,-216.1328,-161.9505,-204.8524,-91.6022,161.0988,40.7020,59.5573
-86.7083,-405.0762,21.3631,66.7986,125.1487,67.2684,88.5148,-4.3241,-290.0229,-280.6805,-52.2652,-604.0016,-212.3556,-206.7667,-190.6008,-125.4786,163.8823,25.5917,107.3629
-101.1337,-469.9910,10.7786,68.3947,163.4091,89.3313,116.9780,-0.6382,-207.3222,-325.8401,-33.9187,-551.0005,-205.8272,-220.2891,-148.8350,-140.6290,176.3667,58.0057,147.4846
-140.0526,-476.7507,45.8688,110.5154,202.7610,144.4813,144.5085,-2.2542,-158.6212,-307.4172,-27.5000,-441.3973,-193.6987,-166.4272,-147.3737,-145.7087,165.4098,101.3966,152.5140
-154.1217,-453.7473,78.2542,137.5367,217.8299,162.3122,168.8568,3.4855,-135.3039,-243.4212,-42.3564,-324.6568,-183.4091,-128.0756,-171.5878,-151.0907,149.7468,130.9901,161.5514
-164.7895,-453.6784,69.3449,143.1116,213.0073,141.6511,158.4579,9.4601,-112.3079,-262.2167,-44.7791,-265.8882,-195.4678,-171.0205,-161.4141,-164.9510,122.3428,120.5011,163.4070
-218.8112,-478.5052,38.4372,139.9205,175.9844,84.8263,101.9424,-24.6944,-125.8840,-349.0741,-32.1418,-264.7128,-215.4054,-231.0655,-148.8682,-189.2320,70.9108,80.7739,115.2452
-279.4834,-498.2722,10.3494,124.9306,129.2489,31.1128,43.0969,-50.3671,-163.3487,-344.7586,-33.6033,-266.5719,-212.6991,-247.3953,-192.5207,-194.0200,24.8390,76.8089,54.7525
-294.2969,-507.1646,-8.3369,112.4206,117.6446,64.3033,17.0243,2.6514,-165.1431,-257.3065,-34.5124,-242.0585,-205.0202,-246.5526,-244.1325,-170.2039,18.6143,118.9764,49.4498
-267.7159,-519.7324,9.4464,114.0287,136.2304,152.7390,26.1018,71.0182,-147.9913,-229.2555,-0.7368,-206.2550,-214.8060,-237.7474,-232.7795,-157.0312,58.5957,137.1982,74.6535
-228.2820,-545.1312,67.0732,101.4054,152.4425,166.7231,48.0928,54.2706,-161.0332,-277.3090,45.2306,-188.2489,-215.5742,-208.5416,-180.4513,-168.4819,100.2073,95.5764,56.1814
-215.8043,-595.0872,91.1228,50.5025,143.1907,90.1220,33.1556,-35.2205,-199.6582,-343.0468,57.3468,-205.0488,-203.0535,-204.2307,-146.0167,-185.2805,71.3525,22.9074,-3.6091
-246.5051,-656.4400,40.2309,-15.4958,94.8759,16.6355,-20.0750,-118.8470,-253.5094,-408.2815,33.9293,-218.7265,-222.3256,-240.9077,-163.3923,-201.1350,-3.6567,-42.0420,-35.4080
-261.8937,-668.2277,-5.8600,-52.6011,36.3376,-10.7819,-34.2565,-142.7553,-305.8564,-434.9686,5.4929,-164.7904,-271.7323,-247.4349,-231.6435,-199.9224,-10.6518,-66.1764,-17.9613
-219.8997,-620.3193,25.3289,-38.8993,20.7688,-15.3545,9.3026,-115.9427,-302.4523,-404.5305,-0.8445,-77.3541,-295.2905,-221.8448,-288.6020,-171.3471,53.7226,-47.0641,4.1415
-181.4290,-597.2148,80.4064,1.1752,38.1198,-24.7345,32.2830,-97.8366,-258.4753,-376.5805,16.5186,-54.7856,-282.4239,-257.3223,-283.8254,-154.9649,76.4043,-27.3795,8.6679
-198.6339,-621.8190,75.9265,20.0245,31.9477,-38.9418,3.1820,-97.9259,-271.5429,-370.0082,24.3767,-71.5792,-269.2938,-338.2927,-278.1548,-159.6692,35.1747,-29.4861,8.7200
-238.9098,-616.4149,13.1388,4.8678,-9.6675,-24.1057,-41.2287,-58.2558,-336.8192,-338.7035,-1.1922,-36.3295,-268.8824,-350.6194,-327.2589,-130.9077,-11.1063,-33.0632,-2.2767
-282.1133,-595.1785,-59.2959,-27.6412,-55.8396,16.4548,-83.1154,4.1889,-344.8884,-291.9843,-37.5913,-3.8501,-273.6086,-309.5717,-359.5797,-79.6080,-64.4570,-31.2674,-21.9173
-340.4145,-654.5263,-106.8418,-72.5169,-72.2692,22.3000,-96.2484,4.5637,-277.4300,-273.0107,-59.3114,-60.2314,-278.0880,-319.2407,-313.0570,-77.9390,-119.8706,-20.5677,-11.0211
-378.3578,-743.3455,-102.4639,-104.7566,-30.0429,2.5980,-39.8659,-39.8156,-199.4676,-283.3518,-67.6642,-105.0167,-273.4110,-351.2971,-237.4126,-112.6296,-105.7975,24.4189,21.7576
-352.2968,-723.3834,-40.0435,-72.8759,56.9087,28.2993,49.8307,-53.0654,-127.2150,-316.0574,-59.5090,-23.0345,-264.5784,-313.6360,-186.5811,-120.6954,-22.2799,85.6695,13.4350
-293.3793,-624.6353,28.8963,7.9544,121.6112,67.8345,93.6346,-59.8266,-67.7067,-355.6061,-32.0735,96.8906,-272.8124,-244.2471,-180.7064,-107.7257,41.6019,98.1852,-29.7224
-259.4167,-575.9995,48.6740,56.0754,126.8427,49.4951,86.1077,-107.2023,-60.3186,-365.1953,-2.4280,133.6911,-290.3620,-225.0825,-234.8737,-105.6824,66.9636,61.2876,-44.6135
-248.8102,-584.7603,49.3565,50.8037,114.3925,26.5780,77.2488,-147.5082,-89.6945,-358.2196,25.9576,115.4059,-276.6973,-232.5434,-289.9861,-121.1412,108.0729,42.1139,-32.9890
-219.3646,-596.0917,88.2201,41.2723,130.5092,56.6124,88.8269,-141.4531,-108.1302,-381.5498,58.4787,102.6924,-218.3924,-222.8938,-264.1276,-155.4493,158.0712,49.2266,-30.1487
-170.7002,-609.0663,126.9570,44.4046,148.1178,71.8147,94.8578,-131.6670,-136.7789,-406.4366,69.1003,103.7981,-158.4080,-215.3787,-216.1948,-181.1367,158.6479,27.9583,-26.2286
-149.0098,-596.1547,100.0415,52.4423,116.8787,41.2104,61.3398,-135.5639,-194.9625,-365.1833,49.4981,135.3205,-150.1491,-216.8106,-243.7256,-162.0663,113.7663,-8.5797,-14.0947
-155.0361,-507.5298,53.5227,84.6185,62.2066,47.3502,13.3142,-105.1715,-216.9094,-270.7830,48.6630,194.7082,-187.2663,-210.7725,-292.8665,-129.3687,88.3843,19.8374,-4.8756
-132.8884,-410.3805,65.9388,136.2769,53.6813,109.7650,18.6958,-31.2744,-163.5088,-201.2816,86.7650,224.7744,-202.5070,-212.5845,-280.2798,-125.7900,106.7656,102.1569,24.0097
-84.0106,-412.5471,112.6107,153.8460,88.0774,142.6467,74.4616,20.1564,-93.2694,-205.3738,117.1316,209.4141,-164.1934,-222.9029,-238.4067,-129.4882,127.9446,121.4396,78.9734
-71.5446,-471.2307,132.8239,118.6782,103.6893,110.4222,109.5620,3.4808,-56.6844,-267.7588,113.1145,203.6351,-127.0725,-210.2034,-212.5824,-128.5546,126.8856,47.0905,103.4623
-95.6410,-478.7445,122.3755,77.1134,84.4794,68.7827,101.2003,-44.0584,-49.9806,-335.5240,91.3500,232.6154,-136.1722,-191.9502,-211.8777,-145.2070,121.7094,-12.8344,72.1420
-109.8842,-454.2041,92.4643,61.6435,49.9213,59.8725,70.9541,-66.7693,-67.8200,-364.3827,54.6140,262.9497,-154.1589,-206.5900,-253.0890,-156.6046,113.1389,-1.6536,33.7113
-125.6396,-472.3589,52.3821,56.5736,6.5213,60.4555,32.7001,-63.1985,-89.6021,-345.7536,3.2916,264.5722,-137.7750,-223.7565,-285.5185,-131.6657,91.1087,16.0923,22.2052
-161.2192,-520.7278,27.8442,47.3660,-23.0781,38.8862,20.5655,-59.3370,-84.2245,-305.0678,-33.9152,236.5795,-104.2601,-209.1357,-223.5203,-93.2422,76.8448,-1.9296,23.1156
-181.2110,-565.4154,13.1699,29.1942,-26.4530,5.7238,41.4272,-71.8577,-88.4621,-288.2093,-37.9472,194.2699,-89.3901,-198.0905,-139.4413,-58.8609,63.6257,-41.3445,11.0735
-177.0247,-623.5705,-22.0903,-24.4188,-55.4766,-30.4228,17.4897,-116.9319,-147.8984,-313.9028,-19.2682,148.7817,-104.3138,-218.0705,-170.6004,-34.3544,3.3397,-107.1071,-34.5183
-183.5059,-678.1533,-59.7909,-111.2173,-135.2267,-85.6165,-79.6036,-175.3860,-192.1478,-329.3869,6.9453,104.7699,-135.0572,-242.5100,-255.2306,-51.7893,-80.5258,-171.1285,-102.5940
-202.7185,-661.0593,-72.7808,-147.4418,-198.7612,-119.4384,-159.4653,-175.2670,-146.7274,-272.4344,17.9386,92.3552,-155.4913,-241.7146,-248.6008,-90.0747,-114.8432,-148.0014,-145.1418
-226.7560,-581.6411,-91.1588,-86.3374,-214.8405,-62.6977,-183.4525,-99.4290,-88.9067,-173.4464,-15.3376,135.2292,-162.8088,-203.6278,-189.7072,-71.2129,-121.6574,-50.4511,-149.0391
-270.2836,-537.8616,-137.2508,-25.7848,-242.6193,28.9370,-207.9572,-28.9274,-108.1663,-125.7367,-81.2746,173.9887,-180.4526,-151.0576,-190.0948,-6.3539,-156.7601,-3.9809,-146.9527
-301.5352,-552.5996,-171.9094,-46.6902,-291.2280,43.9294,-219.3676,-9.0604,-146.9727,-154.3355,-117.5305,152.1276,-195.2119,-142.1940,-216.0845,25.6096,-167.1872,-35.9352,-132.2447
-258.8974,-533.5023,-151.9100,-67.8866,-283.1323,10.1378,-151.8824,-4.3441,-134.7188,-181.6931,-87.5433,138.8548,-163.6821,-176.1355,-194.6564,19.6122,-98.5186,-53.8123,-76.4154
-167.8492,-448.7628,-87.0735,-27.4034,-195.5973,-0.6842,-53.9884,-8.7349,-112.5419,-153.1941,-33.2427,187.8628,-108.1312,-185.4076,-181.7832,-2.3285,-24.8995,-39.0289,-18.7726
-116.8171,-394.6050,-41.0385,-13.6172,-106.0982,-25.6290,-34.0689,-42.2393,-123.0368,-126.2732,-7.0225,200.9640,-102.8797,-176.6450,-253.7329,-55.3644,-25.8738,-51.0635,-10.9045
-128.4363,-417.7692,-64.3854,-67.1838,-81.0251,-77.9992,-84.1327,-70.2361,-137.0127,-156.7766,3.7136,127.0066,-153.6163,-207.8284,-342.9826,-104.8450,-72.9404,-84.2751,-23.9895
-152.3642,-437.2928,-115.3309,-95.3671,-110.2291,-92.6400,-113.6741,-63.9665,-123.5551,-182.7202,20.8647,85.8984,-192.7874,-236.0278,-331.5652,-91.6002,-112.3623,-97.8168,-18.7998
-158.5512,-416.9109,-132.8439,-74.0590,-160.1185,-92.5218,-110.5981,-60.5494,-76.0629,-135.6338,10.5690,127.9789,-189.3860,-204.6736,-243.2495,-51.8150,-135.4078,-110.3761,-16.9958
-170.7656,-427.5090,-147.2638,-83.0078,-216.1548,-141.2422,-131.4259,-82.6007,-5.1007,-62.4131,-38.9851,134.1584,-176.2345,-192.2722,-199.8796,-50.9652,-148.2409,-148.3787,-28.5767
-204.9108,-481.3361,-176.7304,-131.1185,-249.5113,-183.7600,-162.1968,-104.5064,35.4775,-36.8396,-62.3585,61.6274,-177.7013,-259.7333,-232.8692,-81.6860,-151.4662,-187.5019,-25.3062
-220.0205,-497.5967,-151.8587,-158.4074,-225.7116,-169.4785,-142.4979,-114.0818,-1.9675,-65.8881,-29.2499,21.5998,-176.0668,-297.4170,-274.7036,-110.6317,-145.6889,-196.5142,-22.9472
-185.4978,-450.8071,-82.5844,-148.9799,-174.7503,-152.6808,-104.4853,-115.4048,-75.0531,-114.9298,-0.3031,71.8294,-149.6689,-202.7963,-272.6965,-99.1339,-137.9105,-169.9016,-63.7601
-155.9276,-393.2182,-73.4406,-120.6416,-154.7611,-144.6093,-114.7388,-107.0939,-109.8956,-136.0185,-10.4187,143.7798,-103.8467,-61.9705,-213.4448,-13.4110,-146.5410,-126.1826,-122.3301
-182.8803,-360.4770,-113.2812,-97.9703,-155.4388,-110.8612,-138.6826,-102.7659,-106.7277,-122.6785,-22.5922,169.6604,-55.1214,-24.6707,-134.0909,75.4051,-176.4509,-102.8575,-145.7126
-211.4869,-346.2266,-115.1272,-106.7029,-145.8261,-90.8753,-133.1125,-109.2420,-106.2273,-131.2364,-15.5332,153.5779,-13.4894,-92.6442,-118.9522,59.8737,-201.6052,-108.5530,-142.2480
-180.6529,-319.2168,-101.7349,-124.3105,-145.8600,-99.3012,-140.3674,-96.5094,-118.9874,-144.1973,-9.0654,130.8200,7.2546,-129.7316,-165.0686,2.6203,-204.4007,-103.6897,-139.2206
-136.3803,-266.4497,-115.0239,-114.7597,-155.1564,-71.4166,-160.5199,-52.0061,-140.1276,-64.7267,-17.8431,112.5576,-3.9133,-68.9129,-161.7495,33.4515,-193.8690,-74.4120,-122.9447
-134.4297,-242.0697,-110.0297,-110.0330,-136.4188,-27.9822,-127.3879,-11.8125,-148.0434,61.9315,-33.2398,88.2417,-31.8464,-7.7448,-105.5552,105.9445,-174.9934,-56.9708,-79.1801
-142.3825,-284.2313,-81.0429,-143.3222,-110.4909,-54.2569,-61.4581,-2.2859,-87.7261,100.7081,-23.9133,66.7627,-56.6034,-33.7924,-111.5459,116.9754,-153.1645,-69.5228,-27.7704
-123.9759,-324.7129,-83.3658,-182.9657,-122.4148,-120.8523,-39.1747,-14.8645,34.9853,87.2074,25.0107,59.1350,-78.4858,-84.7406,-172.3224,108.4015,-149.1580,-101.4454,-1.6194
-111.2911,-310.3376,-114.3617,-206.1710,-150.5549,-151.1181,-62.3789,-37.2165,100.2283,108.9090,57.7705,44.3515,-89.0288,-86.4604,-188.0363,134.1453,-164.3817,-141.4630,-22.1743
-136.5341,-290.1910,-139.6356,-206.4165,-160.9204,-147.3140,-98.1402,-55.7307,55.5240,110.1074,19.4805,25.6331,-70.0386,-73.0632,-172.3462,142.4659,-168.3472,-154.9874,-62.4012
-174.5567,-280.0517,-151.8128,-152.6525,-152.3594,-114.0088,-117.7682,-45.7068,26.6808,90.5945,-40.7526,50.6056,-40.7558,-80.1342,-169.3804,115.6037,-145.6991,-104.8902,-53.1203
-188.6801,-226.8516,-141.3139,-67.8268,-119.0540,-35.4095,-82.1031,11.2546,84.1737,159.0484,-53.9974,119.7933,-34.8832,-78.8905,-134.9201,109.8863,-118.2020,-13.5349,10.1147
-179.0716,-136.9019,-116.7692,-22.8257,-76.3400,46.4310,-23.8430,96.7110,102.0371,259.8512,-39.4445,182.5035,-39.3893,-54.7297,-70.0985,133.6744,-109.7521,61.2094,41.6104
-158.2398,-61.8679,-105.1386,-6.0493,-59.7450,81.0606,-26.6027,140.4377,18.1715,250.0228,-29.3766,219.5394,-28.5248,-30.8970,-50.3732,148.8945,-114.0100,73.8843,10.5266
-122.0274,-16.8206,-90.0545,20.8144,-45.5601,70.2547,-61.1128,88.0586,-34.1781,181.5017,-14.3096,228.2273,-15.5351,-31.3075,-69.9824,138.3193,-107.9168,13.0219,-7.0706
-80.1671,-9.8935,-65.5762,15.9598,1.2009,22.4198,-42.1701,-0.9043,12.7377,156.1018,-11.9926,202.1439,-13.4472,-65.9642,-59.9684,94.2270,-93.0932,-55.4017,34.9905
-67.0899,-38.8301,-77.1752,-31.7462,37.2118,-46.8581,2.7043,-33.9921,65.9723,126.9228,-44.8141,171.3206,-6.3799,-109.3737,-14.3808,26.3887,-93.2127,-59.1538,88.2178
-75.4864,-61.0487,-101.5901,-61.3903,30.9700,-98.1066,15.0585,-49.0911,81.4739,61.8010,-62.6296,155.9996,16.8554,-122.9208,26.9476,-26.6777,-99.2219,-56.1494,99.3190
-49.1604,-52.3765,-62.9225,-65.5458,27.5025,-112.5039,11.5567,-117.9712,86.6675,26.4147,-23.6857,136.6997,50.5384,-117.2091,40.7674,-51.6503,-75.1107,-102.6041,75.9505
12.5387,-14.2724,5.8494,-55.4643,48.4855,-80.5783,9.4759,-165.7986,60.4699,41.1841,19.8204,140.7468,76.2689,-112.2443,39.1404,-57.3866,-22.6586,-94.6029,63.3350
46.6874,60.1545,33.8815,2.8989,69.1768,1.6879,15.0563,-117.1519,7.3819,62.1339,25.1809,197.6303,68.1324,-85.9663,64.4662,-30.7329,29.7266,-6.3215,81.1880
49.4980,132.3447,52.0290,72.2699,81.7171,60.4546,48.0989,-73.1036,-6.2834,57.0423,38.4821,231.3136,39.1179,-51.9311,117.5688,14.5599,73.8524,-5.2866,86.3196
76.2534,158.2400,84.5765,76.1610,80.3657,23.4330,70.4615,-113.1378,8.7230,30.2980,89.4611,201.0074,45.5103,-63.6558,141.5672,26.8104,96.4770,-93.4986,38.4695
117.7283,192.4237,81.5250,61.1397,59.6248,-35.3142,31.4936,-136.8335,-12.2208,35.0347,120.5860,197.5509,95.4135,-90.6807,133.3947,15.6021,74.9241,-72.4411,-25.7901
114.5616,271.1062,41.7896,91.4229,40.7432,-24.9740,-22.7236,-77.7895,-49.2555,104.7069,88.9387,244.6959,131.8998,-55.1893,138.9094,38.4902,36.0749,37.1444,-57.7851
77.9908,326.3896,23.3321,121.4032,27.3023,8.7933,-36.3956,-16.5894,-56.1554,176.3361,47.1481,262.6103,136.0946,26.3769,148.7142,91.1463,33.7307,54.6942,-62.9726
74.1849,345.1930,50.7378,123.3852,9.6844,13.9695,-21.6547,0.1886,-51.8016,187.0551,55.3663,254.5464,144.6787,89.4999,156.8894,130.8172,66.1771,9.0895,-46.3259
114.7920,360.6238,112.8675,114.1510,23.5229,9.7478,19.3399,3.4932,-56.5926,159.7491,87.0189,251.6017,171.0450,125.0327,204.6723,146.8234,98.1528,1.9602,2.4148
154.5587,327.7415,172.8139,75.2438,87.0691,-3.0746,84.7111,-0.8626,-48.5394,138.3974,96.5730,213.0625,200.0044,145.5250,255.0394,141.4405,126.5430,5.1001,63.1688
167.1459,277.6933,192.0809,47.5528,152.6711,-4.2056,134.1696,4.7982,7.2292,156.9856,107.4644,173.1970,224.4657,156.8931,233.4752,126.4592,161.4287,29.2589,118.6479
161.7154,330.5763,200.2416,98.8323,198.5824,50.8586,168.0477,50.2554,123.3993,217.8598,148.8058,209.5542,242.5714,169.5080,200.8972,119.8966,189.0476,93.7927,165.1915
149.6780,407.9186,229.3837,136.8712,229.7148,86.3084,197.5684,71.4047,236.3574,241.2892,180.5581,242.5730,260.5107,159.0614,246.5051,90.1244,181.2089,87.4410,157.0975
137.5274,371.1474,219.7839,74.4658,206.1344,19.5169,166.9034,9.0507,259.9717,188.0066,163.5592,195.4163,281.3684,98.1399,314.4377,8.0271,123.1823,12.6472,81.5064
134.9460,349.4826,146.0052,36.4721,125.0970,-28.7711,82.3028,-43.3962,228.4139,160.3963,128.3845,183.0186,273.1382,45.6862,324.0357,-57.5461,43.6336,34.4177,41.2996
137.0359,448.2771,91.0837,94.2109,61.3694,42.0634,48.4257,-0.8111,219.0464,207.2466,115.4266,260.5060,219.9505,72.4918,292.5816,-44.4864,-1.2816,120.1877,93.0474
122.4947,499.1437,87.4837,118.9328,39.4904,101.3745,73.2463,64.4765,196.8659,238.4288,121.0960,293.0671,180.6962,139.7475,271.1728,-3.7667,3.8074,116.1630,133.7664
95.3536,455.7393,91.0527,77.9814,28.9164,68.7989,79.0996,85.6737,143.0306,237.8368,128.9443,238.3260,198.2910,176.9776,303.8046,19.3172,26.8376,86.8638,89.6453
85.0401,484.8161,104.3066,78.1354,36.3963,56.8045,65.1697,100.5244,146.7142,273.4024,132.1594,214.5954,223.7010,193.9489,382.6947,48.0940,46.8025,120.0012,25.8475
89.6803,561.1934,126.9791,119.2484,51.7506,93.5394,42.9969,124.2615,200.2877,310.1979,125.6076,253.1875,212.2900,227.5297,404.8432,75.1794,52.5219,113.8646,-7.7793
80.2973,542.5312,107.6101,127.8105,25.6740,82.4258,-15.7759,121.0162,184.7373,276.1277,108.0684,252.1765,186.7668,264.8806,332.7193,75.2026,25.8777,38.8812,-37.2225
59.6862,480.3383,60.9909,89.0122,-19.0478,28.7370,-65.1156,88.5827,114.4099,209.7563,81.3285,147.5635,172.9160,266.6194,296.4809,70.6270,-8.7181,2.2346,-61.3796
51.4386,451.5183,49.9098,19.2747,-13.7872,9.3331,-42.6650,58.0726,93.5526,191.7750,47.3473,6.3273,176.6877,226.0499,362.6342,72.8382,3.4758,18.2041,-50.2891
55.9073,420.3513,58.2205,-18.4179,33.4825,31.6882,7.1448,59.0051,106.9781,233.2103,20.0850,-42.8113,191.9844,187.4391,419.9734,72.8694,54.2003,40.5197,-10.3886
68.9338,396.9376,54.7452,25.5311,75.9309,65.3368,42.3443,87.0886,99.8911,257.8538,21.0047,10.0672,182.3817,180.9962,404.9743,91.6420,86.8753,57.5051,33.4616
92.9412,389.1077,65.2783,46.6194,108.3034,75.9028,86.1594,81.3059,100.1259,190.9463,48.5773,27.9387,143.6203,163.6582,375.6262,112.3853,89.8292,38.3796,68.5631
110.6967,343.7903,84.2759,-29.3830,140.2429,48.4133,124.7378,23.6137,129.8102,102.8514,71.3028,-26.1168,143.4034,107.4722,360.0635,78.3528,86.6014,9.8804,90.1447
107.0187,322.6035,75.1467,-53.4145,165.2904,46.3758,129.6762,6.3930,159.7044,123.1071,63.5090,-15.7068,183.4949,83.5977,348.0304,26.2304,85.2598,62.0850,95.0501
101.1248,425.2173,58.8848,64.2785,169.1543,123.5522,119.8002,69.2579,163.5978,212.2050,46.3826,105.3969,166.6196,142.9560,339.7691,32.6496,99.4823,152.8334,69.6311
119.2430,574.4423,78.7688,187.3517,155.2665,218.1416,108.1286,119.4485,138.5578,259.7316,73.4181,222.4410,103.2168,217.8431,309.4044,63.6907,148.4167,184.2397,14.7663
171.4976,668.2292,141.8197,230.0913,165.6277,259.4936,113.6899,113.3298,128.5505,276.6045,151.4162,266.7204,120.5448,242.0388,257.6444,67.2632,204.0825,195.0271,-12.2714
239.1272,708.2412,220.1448,220.2241,211.9021,241.7370,161.4776,99.5977,180.8686,260.4727,208.5062,249.5981,203.9196,232.9523,250.2671,75.7320,203.5335,200.1530,28.3169
261.4036,662.2605,241.6549,141.1130,221.2857,163.6653,176.5026,76.9312,229.8184,156.7769,188.4242,182.1553,201.9582,210.1982,285.0168,100.8551,131.8971,123.3462,75.0723
214.7219,524.4688,165.8506,21.2955,162.1506,68.3669,89.5422,30.4719,187.2422,60.5591,138.7061,111.0194,104.6939,175.2219,281.3542,111.3562,55.3738,23.3530,75.8864
184.7934,428.1960,89.3071,-55.4596,121.7399,41.2990,27.3764,11.1856,128.8344,97.3078,143.0022,87.1029,59.2887,155.2742,258.2809,116.2951,46.2505,13.7754,87.8059
226.7170,443.6590,112.2895,-130.1263,150.4089,57.2931,101.0639,30.8924,166.1025,180.1865,195.9829,83.6307,125.9371,162.6719,308.4649,121.3116,83.6602,38.3710,137.4338
248.6602,487.9103,161.9745,-249.0580,178.0886,29.6337,168.4564,44.0264,238.2569,187.8051,217.3483,74.0759,212.9068,176.7872,400.8463,110.3181,84.6276,25.8060,138.6282
196.6909,507.6389,136.4269,-318.3314,150.2971,-16.5076,102.4742,50.4629,244.2839,149.5546,185.4219,81.2844,231.8086,194.4727,417.4011,114.8965,44.1569,4.3929,70.6787
181.6596,503.4801,94.8595,-319.3571,106.6818,-42.4977,28.6320,49.3522,222.7547,113.4656,176.6097,88.5566,204.0686,204.1796,361.0335,137.8598,44.1338,-38.2783,41.6367
265.0925,481.0519,130.9107,-342.2471,105.6766,-89.6876,64.1938,8.5757,244.0775,102.4730,233.7110,66.8110,207.3594,168.5219,350.5136,103.4074,97.0560,-92.9861,76.4291
335.5468,513.2522,196.1855,-348.7747,137.0880,-125.3803,108.0505,-23.1984,276.5226,154.3593,279.6543,62.3890,255.2620,117.5288,406.4938,33.7059,115.1500,-60.4819,60.2535
311.1987,641.2253,187.5357,-265.0236,120.5745,-69.9174,46.5629,23.8730,258.3379,237.7568,243.9339,114.3322,285.7368,127.4635,409.5130,60.0238,68.5456,37.3207,-35.1725
254.0483,757.0753,116.6603,-166.5079,30.9056,9.5522,-54.3368,85.1345,211.0558,293.3550,188.3319,174.8572,277.5111,166.9557,335.4935,170.7666,29.0977,72.1577,-93.8156
237.6487,781.8715,87.0315,-123.3386,-28.6516,7.9680,-69.6467,67.2636,209.2054,326.7494,201.5536,192.2843,280.4117,143.1128,335.1699,211.6035,29.2442,50.5048,-70.1060
260.4420,766.9924,123.7565,-113.2811,2.5229,-37.6013,-8.8701,-6.3203,258.8657,310.9446,249.6597,178.1251,309.3816,80.2841,455.5964,144.0734,14.9441,29.7218,-48.3300
274.0661,735.8683,126.2491,-125.7362,24.7345,-58.9097,10.6848,-71.9779,290.7582,215.2387,234.7189,174.8915,318.2784,66.0822,532.5675,70.7750,-42.3853,-16.6371,-72.2569
233.9446,677.3943,34.6643,-130.4821,-36.7904,-53.1670,-46.5070,-91.7680,283.4707,139.0896,145.5697,200.7182,285.3441,93.4401,485.6236,52.2280,-105.5882,-67.0984,-101.2231
171.9874,631.5934,-71.1334,-103.9148,-116.3762,-32.9255,-97.1800,-58.2745,269.8512,135.0039,70.3276,210.3928,239.4996,108.9328,417.4681,56.4476,-149.3811,-78.4829,-112.7621
172.1321,590.9030,-107.1971,-135.8120,-145.2664,-34.5374,-94.4112,-36.9365,243.6613,107.1754,77.3925,150.7154,223.5242,118.2407,375.0937,45.8692,-178.2076,-100.8003,-104.8191
219.0122,506.1316,-93.3823,-241.9389,-118.6769,-70.1626,-71.2969,-61.5027,211.6270,82.3420,124.0981,66.8392,257.2913,151.0701,333.8178,41.4944,-182.5418,-116.5611,-60.9121
206.2853,442.1179,-83.5284,-258.1829,-62.2058,-54.5263,-45.7594,-24.7994,237.5882,179.2613,111.2852,47.1338,296.7765,204.5789,337.8138,83.7313,-168.7176,-42.0750,0.1994
116.3289,462.0389,-109.7046,-178.6579,-41.1738,18.0982,-21.1226,96.3779,300.2330,286.5143,16.8893,72.6978,269.6872,242.2115,377.9999,134.8252,-188.5876,9.4161,32.1359
11.3459,442.2831,-182.4647,-216.6107,-83.5897,-14.1740,-22.9181,112.4861,291.5439,232.3387,-93.4435,58.4274,187.3542,220.3701,340.4038,108.2981,-251.3942,-116.5354,33.0378
-115.7889,273.9085,-264.8950,-381.3445,-117.7703,-174.4394,-48.0704,-37.8682,215.5072,112.4287,-185.9467,7.5131,123.5629,152.1003,238.1460,13.9983,-289.0550,-285.3710,15.8852
-296.1016,71.6223,-316.3405,-460.2230,-121.3891,-262.2435,-68.1077,-150.6788,160.9351,84.8540,-289.0106,-18.6492,82.7943,101.8880,192.4206,-47.5146,-284.8704,-315.3955,-28.8739
-470.1311,-37.5332,-365.5430,-424.5367,-163.1720,-221.6112,-89.3034,-130.2972,134.1937,119.2727,-399.5740,-40.8444,30.0633,76.7924,178.7722,-30.1657,-306.1115,-289.7029,-66.7824
-561.3677,-101.1259,-431.3952,-425.3997,-218.3534,-208.3241,-117.9742,-108.2734,121.2871,128.8181,-459.5928,-122.0887,2.8713,40.0972,122.9692,14.6969,-357.1261,-311.7539,-44.2182
-566.7536,-153.3082,-448.6826,-478.9971,-197.6815,-254.4985,-123.6177,-137.6030,150.4204,92.4245,-437.8085,-213.8989,38.6172,27.0005,107.7487,-2.3655,-362.4318,-296.4920,-7.1122
-508.0022,-104.8653,-385.9353,-462.3678,-136.3243,-241.0424,-96.1327,-133.3347,178.9887,56.0786,-372.9364,-207.4208,77.8178,72.1883,188.2628,-120.7893,-309.0715,-188.3709,-30.1414
-400.6027,44.8309,-308.9599,-327.8086,-110.9677,-147.6417,-63.7095,-66.4813,141.1134,114.4132,-322.6842,-125.3379,68.6738,102.4810,230.7227,-241.9379,-243.7969,-73.9324,-62.9068
-280.1830,151.1596,-250.8172,-167.2243,-89.6904,-53.5535,-35.9909,24.3856,103.0011,251.0017,-287.6326,-79.1199,54.2895,78.6120,153.6007,-228.5757,-168.9249,-21.1142,-19.8827
-177.3358,165.8422,-169.8074,-95.0257,-24.8988,-0.4411,11.6831,93.7523,155.1488,301.7052,-220.2511,-74.0809,73.2132,77.8167,78.4356,-131.4188,-79.2922,-12.0516,59.6660
-96.1114,179.4555,-69.5599,-105.0503,55.2546,10.1446,89.3620,92.3630,254.5889,248.1946,-129.9554,-51.8612,99.5678,113.4409,109.2786,-112.8109,-20.7129,-0.7485,96.4946
-49.3703,221.7121,-21.0147,-92.6487,100.3691,0.2276,148.2678,52.3557,327.6774,273.9974,-102.3613,-30.1257,116.3253,107.0425,187.8572,-158.0475,-22.3033,44.0743,107.4680
-54.0428,255.2918,-55.1173,-31.7634,83.3801,-2.3932,124.7894,75.2996,373.4813,405.7408,-162.5144,-34.6674,131.4669,72.3019,231.9283,-131.9693,-58.6672,82.3215,129.7333
-84.5002,276.0327,-121.0855,-16.5296,24.2040,-37.1312,42.7451,128.0874,392.7878,454.1857,-222.2940,-46.5397,134.5296,78.3152,236.8538,-55.0363,-97.0918,23.5540,116.7215
-89.4516,264.0289,-151.7698,-90.1921,-28.2104,-153.9628,-17.3407,70.8195,363.8613,366.7887,-216.2045,-80.2326,123.6102,97.7400,213.4188,-46.1065,-117.2278,-110.5759,17.4001
-55.2130,217.8141,-139.4676,-151.5672,-73.6950,-268.2004,-54.1599,-64.2427,301.8503,300.0963,-176.9268,-123.4369,123.5227,92.3082,167.9518,-88.5220,-118.3861,-162.7002,-116.2700
-18.2566,241.0028,-135.4212,-90.8024,-128.4354,-251.1680,-108.2196,-102.0097,250.0546,332.4762,-150.2631,-81.1357,135.0680,101.5318,146.6289,-81.5282,-121.0079,-72.3604,-187.1057
-14.8338,360.6377,-163.9048,55.3812,-143.4100,-138.0558,-134.8521,-21.3254,227.9081,370.2653,-141.2081,43.6507,143.4700,134.6453,176.5526,-22.7864,-113.5958,31.7952,-175.5717
-29.2011,434.1705,-173.0126,167.2620,-91.5523,-56.1448,-82.8313,47.0372,219.2820,342.4111,-135.7635,120.5741,171.9089,156.5812,200.6137,18.4680,-54.5978,59.9555,-136.6909
-11.8128,427.0283,-114.5868,213.8326,-33.3182,-23.3219,-10.3474,58.4031,197.5312,297.3419,-106.4677,124.1639,234.8232,186.5082,186.4082,24.8130,31.5726,74.9811,-107.2498
39.5489,451.9578,-32.9446,233.2800,-8.1012,6.3149,7.4047,69.5739,161.1932,283.1087,-42.6579,124.7237,277.9048,237.4421,196.5494,24.6872,63.6860,104.9151,-80.1792
69.0462,481.5371,-12.5251,206.8480,-5.5050,13.9773,-21.4096,95.0093,136.4936,271.1012,6.6980,107.4168,252.3814,241.8921,240.7964,20.2116,28.5968,78.3193,-40.4155
62.3489,418.9053,-57.3003,122.5821,-23.7835,-18.5303,-46.4459,100.7093,138.1850,228.2589,-3.1422,47.9874,194.4954,177.8881,228.0668,-6.7247,-5.6535,-5.1943,19.0900
74.2310,333.4305,-83.0826,61.1563,-32.7990,-43.7969,-27.8941,79.5061,155.4451,162.8739,-32.8739,2.7203,172.3974,139.2453,153.8920,-44.6743,9.2679,-57.2948,80.5298
116.1293,306.9599,-39.3484,70.3939,0.9605,-33.6504,25.6270,58.4383,176.3888,109.4146,-31.1008,-6.3523,203.6797,175.8598,126.6322,-63.5304,51.5114,-38.8892,94.5841
120.5960,310.0601,20.3657,105.2102,24.9452,-0.2268,46.8725,69.9519,199.3665,128.1414,-23.1259,1.1270,246.7568,205.8884,167.4458,-56.6852,59.3582,36.7036,45.4170
69.3466,355.4048,31.9721,141.9545,0.1304,63.9193,9.3409,125.1016,225.2713,233.8092,-38.8336,35.9934,252.0453,180.6735,190.7546,-30.9331,10.7133,136.3701,-5.0454
44.8162,450.2887,18.5757,170.6495,-14.2499,136.3858,-21.2508,185.3378,244.3134,317.5418,-40.9757,68.9722,223.3637,190.8446,164.4328,13.5225,-32.6210,172.3070,-2.2083
98.7899,484.2682,23.6277,144.3836,-2.8371,136.5887,-7.4739,180.6911,233.5481,281.9700,-8.0076,42.8273,202.5688,287.9116,131.5296,57.3303,-15.9887,92.9740,21.4864
174.5993,418.8513,23.1605,84.8783,-17.6105,58.5975,7.0906,92.8605,192.7466,197.0493,12.7021,-6.5215,193.4207,353.5484,129.3191,65.7617,20.2915,-6.4221,10.5044
206.3741,361.1142,-11.1023,77.6375,-38.5419,3.6991,-0.3167,5.2019,164.0468,180.6127,1.1350,-16.8397,177.6031,303.6147,162.7246,48.0621,20.8171,-16.7787,-29.1718
203.8422,360.7827,-42.8957,115.5215,-33.3765,16.6128,-11.0829,10.3157,169.0791,228.5617,8.4123,-1.8025,178.1350,246.7714,200.4861,53.7343,-6.7967,25.7067,-62.6829
203.3433,379.3369,-42.4265,127.6507,-51.7146,31.0593,-33.3443,62.3289,160.5295,244.8652,53.3677,15.0356,200.5226,275.7815,201.7419,88.8383,-44.8719,16.7412,-98.4561
208.9927,388.1279,-41.6904,97.7413,-102.4331,-9.4490,-83.8150,22.5724,96.9905,154.8578,79.4298,19.2387,191.0956,317.9461,177.3369,105.5266,-80.4614,-71.4540,-166.9033
210.4265,364.3197,-62.0548,41.2280,-126.3010,-87.0076,-137.0303,-117.1595,25.7158,3.5941,50.6663,-18.4257,148.0897,315.2996,174.8890,91.1232,-75.4973,-163.8992,-239.1027
205.9547,328.7223,-73.8379,-9.3432,-129.1521,-144.2197,-153.3384,-205.6892,14.7906,-62.8778,1.6005,-67.8775,136.2866,303.4217,203.2715,84.1134,-31.0335,-171.5428,-244.8232
193.3696,342.0161,-60.6506,-5.9939,-141.6105,-138.6760,-130.7681,-168.9589,41.6980,2.5568,-21.9907,-68.9047,155.9379,281.7681,226.0578,92.1217,-4.9182,-106.5586,-186.5838
174.0229,379.3600,-39.8507,32.3959,-127.8602,-88.9968,-103.8585,-93.9771,43.1596,89.6591,-10.8409,-45.4464,166.6764,241.7411,221.6811,96.8273,-3.9819,-49.9313,-139.1323
161.7286,385.7006,-16.8055,55.9187,-81.8310,-47.0232,-94.1795,-53.4862,29.7146,129.2924,6.5773,-38.6091,185.8212,233.6148,219.2876,122.7936,11.9382,-19.3062,-126.3265
158.8523,392.0208,2.5053,80.3909,-65.6566,-27.6304,-86.4972,-35.2497,36.3952,135.7396,-9.5483,-33.0704,209.2127,249.4367,248.5117,178.3633,19.9667,2.5146,-114.9401
147.7065,397.6204,-13.7297,98.3244,-93.7496,-22.5007,-72.2802,-28.1428,32.1717,105.2987,-48.3819,-34.0294,179.4404,233.0209,261.1092,200.5935,-22.9215,-11.1375,-104.7551
139.1775,358.7242,-55.2003,51.9030,-115.9816,-33.5412,-63.2974,-26.8077,3.3545,80.8623,-37.1641,-50.9423,119.6961,226.0397,200.5897,180.3283,-72.7774,-48.2088,-100.8489
184.8739,337.4010,-43.0934,-19.0036,-92.7966,-43.9178,-46.3459,-15.0744,8.1865,122.8050,52.7760,-47.1684,103.5202,263.5871,136.8871,187.8878,-61.7667,-48.5868,-69.4508
291.9896,374.3158,41.0900,-29.2505,-23.3950,-31.2755,-7.9182,-10.3873,49.2420,148.2178,142.6456,-28.7146,111.6845,259.4587,162.7885,200.9069,-5.4909,-25.0576,-17.3560
384.4525,380.8234,97.3914,9.1954,30.3078,-2.1486,19.2239,-21.0719,63.2229,90.2878,154.0201,-23.4078,108.2203,203.8931,217.1023,150.8579,36.3543,-10.5295,0.7815
403.7027,365.1759,68.9225,77.9299,-26.6763,41.8287,20.2083,-2.9722,61.9214,56.4083,116.8579,19.6426,126.1104,214.4219,210.0977,116.3719,49.7138,27.4509,-15.8653
386.9238,425.3913,41.0577,174.0260,-188.5197,88.6995,31.6385,33.3521,80.5493,59.4150,111.8109,106.4099,154.3266,280.2056,191.7611,172.8706,64.1212,75.1785,-36.5486
403.4642,504.7585,86.7579,201.7150,-330.1951,77.4814,58.0983,14.8312,67.8060,-24.8584,158.7716,129.1943,142.1927,274.9601,221.2678,207.3609,85.4400,70.3552,-64.7762
467.5932,524.9800,143.6479,119.2223,-383.4945,7.2688,66.0803,-34.1309,7.8764,-123.8302,207.0353,65.9930,129.9171,214.2632,256.1043,154.5605,82.2204,43.3527,-72.6233
537.5110,556.0527,142.6495,60.4066,-414.8202,-12.4303,60.9668,-26.0239,-24.5091,-85.3652,212.0030,16.8216,168.1848,207.6103,266.1815,129.0593,60.6838,51.3430,-6.5588
577.6774,627.3469,134.9725,103.7876,-481.6315,59.3490,70.8753,21.9625,-20.3209,1.0571,194.3999,35.2893,206.1194,256.0327,266.6522,162.5907,82.7120,79.0557,84.2116
621.4294,710.7017,189.8606,182.4386,-535.7887,137.8718,100.7424,51.8812,-25.8027,22.7567,211.2589,119.7416,209.6125,295.7363,247.8873,170.4287,162.5588,122.6254,102.6898
741.7436,863.2737,270.6872,259.3651,-530.9268,175.3984,142.2724,73.5468,-19.9505,35.7810,275.4609,232.2022,219.8560,307.2897,217.2302,168.9397,238.6175,171.1678,69.4322
938.8814,1072.1753,313.0538,319.3102,-514.4335,181.7945,167.9875,79.8395,8.4045,40.6549,340.1311,271.7361,234.1982,298.0104,218.2365,195.4336,284.4016,154.4518,61.9717
1140.6838,1218.5306,341.7127,334.4034,-527.8795,154.1721,157.0979,44.8779,24.4692,9.9227,373.4258,237.7514,213.0068,283.3812,247.1891,193.5829,337.2511,100.8683,78.7970
1320.8762,1308.3342,408.0361,373.3281,-523.4763,135.5583,153.4922,28.2109,57.3636,49.5574,399.4397,276.3643,178.5918,277.8012,262.0510,173.7775,403.3654,126.6913,89.2730
1480.4375,1376.3900,478.8378,476.7866,-473.1379,173.0156,190.4675,77.6661,123.9964,158.5865,439.8954,394.1442,173.1062,267.0418,254.3792,197.7751,437.1303,191.7008,95.7729
1549.0350,1345.1073,488.5818,510.1867,-436.8309,190.3015,206.7678,116.3955,140.0603,156.4465,467.2880,429.6723,193.6109,244.8083,238.6414,208.0031,410.6677,178.2361,92.3401
1470.1471,1258.3651,442.5092,409.1405,-446.6451,125.6591,163.0052,83.3977,97.8168,35.2718,451.2401,352.9693,216.4090,240.0713,225.1070,157.7081,341.4693,124.3821,70.4319
1299.4960,1228.5405,380.1522,302.4120,-458.5446,81.9028,115.0421,34.2699,99.0374,-28.1111,405.5657,254.4516,214.4557,251.1027,211.3650,123.4549,262.7623,110.0364,45.5457
1090.3716,1127.1737,301.5577,255.7199,-448.2764,132.7188,86.7515,32.8132,136.4992,22.0490,351.2719,161.3956,184.5220,232.0213,175.1406,127.6487,184.8909,131.5329,21.6304
828.6586,847.4005,199.9185,227.8562,-429.4092,191.7315,48.2125,83.3647,131.5766,118.0265,279.9822,107.1052,175.9800,178.4879,126.6744,132.8335,102.5397,184.3167,2.0369
547.5421,583.2045,105.3219,214.5034,-397.8123,188.6907,31.7055,140.5736,112.7949,182.2531,195.2948,126.1365,211.0881,138.3634,122.4484,167.1433,48.5508,215.6092,23.2718
323.2356,431.4394,49.6910,180.2708,-345.4889,139.6758,76.0983,126.0918,116.5983,140.8201,135.0564,121.8561,226.4146,126.1491,156.3565,195.6825,59.2579,131.6202,82.2514
155.9218,251.4991,28.2922,81.3134,-288.7499,62.2178,108.6046,42.3141,101.7742,44.1966,109.1357,29.0516,180.7427,108.9227,155.9384,118.8891,72.3253,22.1651,99.6913
1.0604,76.5959,5.0828,14.2561,-260.7337,5.7936,47.9944,11.8686,62.6931,46.9268,70.6065,-32.2791,118.6682,85.0509,119.3964,24.6071,-0.3791,50.2788,36.7582
-152.3695,33.8622,-52.1895,48.2112,-287.7216,30.0774,-56.1883,68.9626,8.5569,126.1398,-12.3279,4.3338,72.2240,97.5317,94.7116,58.4789,-106.5012,123.7955,-45.3858
-297.0642,-5.7176,-116.6995,74.4653,-327.4786,80.5192,-98.5427,86.3383,-88.2613,109.0105,-97.3686,31.1694,27.1313,146.5507,60.2530,112.2179,-125.7732,86.7952,-76.8224
-396.6562,-160.6054,-119.8876,48.9782,-288.4159,79.8228,-58.0745,24.8093,-167.8797,4.3092,-116.0142,-5.8681,0.3537,167.4207,-15.4565,45.8780,-62.8237,38.5847,-47.4268
-405.7196,-288.0775,-80.8629,58.7574,-186.4428,74.5514,-1.9903,2.1382,-132.5040,-23.1000,-69.9657,-50.7473,28.1786,122.6921,-82.7966,-26.1281,-19.2857,91.0840,-0.6076
-381.4363,-316.4952,-132.5430,74.0697,-145.6043,97.5745,5.5505,49.2893,-49.4837,51.7841,-47.9005,-94.4631,78.0360,41.8555,-86.1544,3.4364,-45.4297,128.8400,3.1883
-430.7226,-368.2411,-327.6504,3.8569,-189.9818,68.7347,-36.1637,69.9796,-32.1543,108.1299,-111.3828,-159.1854,65.1684,-28.2589,-38.0295,29.7321,-105.8703,59.3201,-31.8044
-524.6237,-459.4249,-516.6678,-79.8864,-219.6815,-16.5673,-73.0077,47.4942,-33.3116,88.5158,-190.7494,-204.8082,-22.5890,-49.7006,13.5335,-17.6351,-125.7872,-15.9607,-20.1531
-557.5307,-481.9478,-528.5427,-66.8645,-182.4545,-35.0375,-46.3705,57.9029,8.3790,55.1061,-174.8452,-184.2681,-81.5858,-18.7948,29.8031,-54.0350,-68.9412,16.9844,68.7760
-534.6224,-430.0228,-393.7861,8.2799,-97.6505,49.4934,42.2201,124.0578,34.2573,86.8635,-80.6988,-120.7180,-37.6074,13.9851,15.9058,-18.9550,7.2394,147.0151,153.4111
-520.0020,-389.0456,-280.5178,67.5276,7.0663,142.4587,119.5187,215.1408,26.2909,192.7943,-26.1287,-77.8445,30.1230,24.4287,22.1785,57.8776,37.2252,275.3205,184.9807
-516.2510,-396.7041,-267.9866,98.8440,78.6751,186.4455,132.0785,303.8619,62.6810,309.4395,-58.9023,-80.6547,23.9902,45.3812,74.2919,121.9183,36.6656,305.9739,204.1888
-513.6517,-421.6894,-295.7196,104.7714,77.8403,187.4371,107.1246,343.5310,157.2385,360.5602,-120.8047,-96.7215,-7.4460,52.3615,138.0789,120.4446,21.4483,232.4122,213.0155
-527.2064,-431.3433,-304.7390,59.4077,42.5347,132.6318,72.6338,299.0152,229.6544,340.6655,-156.2946,-111.1624,7.2184,-8.3065,175.3174,57.8660,-38.3163,122.4175,160.6271
-549.4352,-449.5644,-308.1109,-42.4690,17.5542,27.1968,16.1657,217.8806,229.5583,326.5005,-167.8411,-148.5010,13.2914,-67.3512,177.2617,19.6612,-119.0696,31.9904,67.8480
-559.4505,-501.0754,-318.7279,-128.0687,2.9413,-58.2999,-36.2739,164.4516,185.3953,345.8494,-174.6637,-188.9990,-38.5643,-40.1212,144.5016,52.1720,-151.6780,-16.8984,10.9556
-546.2234,-534.3755,-311.3762,-122.3082,4.7280,-78.7644,-40.9288,125.6799,148.3915,319.2611,-172.6652,-188.6555,-84.7980,1.5167,86.6463,96.3102,-132.0509,-39.0698,4.3455
-499.1205,-514.6376,-267.5867,-79.6624,25.3845,-80.3167,-26.3891,77.3037,131.8494,241.8245,-147.1887,-178.6188,-80.2938,-22.6675,38.5665,104.2789,-97.1164,-75.2235,11.3717
-439.1676,-492.9158,-195.9682,-86.7740,40.2464,-98.3786,-28.8671,60.5909,116.6098,234.0339,-109.6343,-189.3395,-53.5469,-66.7469,37.3462,107.9751,-64.8718,-98.7719,19.1367
-420.8528,-468.0889,-126.1241,-78.2146,47.1576,-70.5829,-28.2973,116.8256,97.7499,301.9020,-92.0491,-153.0616,-13.4656,-89.0949,65.3603,126.3966,-60.6240,-20.0462,35.3287
-446.8542,-368.5951,-97.6509,30.1571,58.1982,51.9808,-25.3058,222.2696,81.2418,327.8531,-97.7624,-42.1621,29.8465,-99.0628,55.4485,119.9061,-87.0131,138.9576,61.6135
-452.9524,-244.7813,-106.7195,135.4882,63.8404,173.2493,-35.0235,305.5947,57.2175,308.3240,-99.4582,29.0703,25.8243,-99.2800,-4.5255,66.1195,-96.4095,222.2251,85.9706
-405.2720,-235.8407,-98.0984,106.5732,78.2957,162.2162,-27.4517,288.5157,30.4133,293.0685,-91.6338,-21.3543,-13.3699,-124.7771,-35.3642,-4.5923,-89.8799,154.7153,84.2194
-346.3811,-328.0137,-65.6774,-6.6688,123.8449,54.6478,-7.6890,176.5963,36.9080,255.2414,-95.1677,-111.3074,-14.2738,-181.4065,6.5865,-48.7419,-124.3260,39.3946,58.9259
-335.1561,-381.6664,-74.0851,-89.7114,158.3175,-8.5519,-24.5742,91.7979,88.8604,226.9691,-115.6316,-136.8887,8.2338,-174.3484,55.0130,-45.5918,-180.9695,-6.3783,44.3711
-368.4084,-360.6547,-134.2885,-122.3227,143.3835,-10.5313,-53.1754,83.6835,141.2396,237.6937,-137.2630,-124.2994,-13.7843,-112.7000,38.2627,-33.4321,-192.3756,-9.7616,28.9504
-383.9817,-342.7651,-175.6550,-133.5898,113.5676,-41.9726,-62.9826,35.1228,134.4193,160.9901,-144.0736,-152.9236,-52.7064,-142.9605,-29.5962,-80.5272,-170.4190,-60.8565,-32.0326
-357.4133,-363.1169,-163.3502,-130.0108,88.5809,-93.6400,-108.5379,-80.0874,63.4249,6.9016,-133.2616,-204.8560,-53.4636,-221.1107,-84.5349,-150.0282,-156.8191,-132.8833,-95.5023
-332.5775,-383.1961,-129.8943,-108.3134,55.1722,-81.2332,-172.4266,-105.7602,-9.6626,3.7649,-124.7931,-197.7247,-50.4803,-173.8837,-95.0527,-124.3514,-136.7591,-139.5045,-76.7928
-323.4481,-371.2584,-98.9763,-80.7988,48.1249,-32.6418,-149.8009,-23.7429,-46.9087,107.9276,-138.7401,-135.2776,-78.0998,-87.7941,-106.0854,-38.6959,-91.7645,-122.5575,-15.3005
-295.6075,-337.9426,-57.0815,-63.1133,99.0702,-32.5814,-70.9828,-7.3338,-81.2725,55.6482,-150.8777,-96.8956,-97.5794,-133.1065,-155.0186,-48.4608,-31.6617,-158.5676,-9.4140
-257.1349,-313.8018,13.5696,-51.1307,166.0197,-60.2514,-41.0538,-78.9135,-104.7862,-73.5432,-121.7237,-100.7553,-89.9491,-193.7127,-168.3531,-130.3418,30.9645,-184.4360,-37.6210
-226.1193,-311.5121,95.0636,-43.7265,207.7184,-68.1827,-30.3218,-104.7256,-49.2060,-56.0977,-66.4555,-107.6472,-88.0155,-128.5269,-95.2833,-135.1268,67.6231,-150.3053,-29.4559
-143.9497,-287.1865,138.9999,-50.0440,222.0301,-77.6878,3.9734,-73.6336,43.2365,12.8591,-21.4416,-104.5090,-100.0275,-52.5705,-56.4202,-75.8430,62.4447,-126.3711,-15.9453
29.6979,-164.2138,142.6756,-26.6963,201.7974,-66.4851,-0.9014,-34.8672,42.7020,30.9512,29.7334,-79.0936,-105.4796,-52.7343,-139.2360,-37.2527,53.8164,-96.3814,-47.2384
208.9988,47.4303,160.4621,76.2113,161.8300,28.7210,-44.0205,49.4946,-30.6695,112.8465,107.0631,-11.3211,-96.3676,-31.2092,-220.0990,16.8080,60.3565,22.4609,-74.3185
286.0656,204.3051,195.7544,175.5638,155.9906,144.7797,-42.7721,160.4503,-41.5467,230.8862,161.3792,55.1598,-68.9568,47.6124,-197.6359,97.6586,48.8003,134.4354,-32.6377
257.2995,194.8185,198.9596,157.7977,199.8325,165.7465,-3.1006,200.6686,15.5185,241.4596,145.1280,52.8656,-31.9182,105.8891,-149.2706,124.4802,32.5338,113.6091,48.9558
184.7839,84.6367,184.8154,80.2186,248.3891,119.8742,23.6117,179.2227,43.9001,193.6830,94.7698,-2.9529,-25.9932,114.2676,-136.2818,96.0626,51.9471,43.7231,93.2218
108.0051,-9.5118,192.5932,40.2593,260.2189,84.5022,41.7791,156.1776,22.8196,159.5005,64.3516,-49.6047,-70.4914,88.2605,-135.0107,57.7946,61.6247,11.1336,75.2484
34.9741,-80.9729,186.0568,3.0096,237.8780,41.6833,44.1825,112.8531,-13.9669,93.9986,55.3417,-63.7045,-116.4557,41.4377,-153.1154,-7.3065,14.6835,-32.1836,40.2463
-9.2314,-147.4926,152.1986,-43.1464,225.9884,-7.5149,15.6474,60.1561,-51.2038,27.4757,62.3717,-55.0233,-111.7488,16.7334,-184.8964,-67.8009,-17.4779,-62.6966,29.3753
12.4822,-157.2038,159.2366,-27.9440,254.2619,-4.7836,0.7493,50.5722,-71.1048,-6.9788,87.0573,-46.5491,-79.2558,34.7019,-178.1408,-62.2938,25.9138,-27.3970,24.8862
62.8099,-114.2337,201.4632,3.3962,272.9888,6.5582,17.9723,24.9013,-67.0603,-92.8289,87.4949,-71.2942,-75.9076,32.5098,-157.5328,-63.4043,71.9232,-30.7433,1.0633
43.2100,-130.1506,186.8405,-49.7176,224.1086,-71.4395,9.3247,-89.4193,-59.1707,-201.2579,28.4258,-131.5388,-99.0923,-41.6079,-187.8037,-142.8217,41.4925,-129.6691,-23.4879
-48.5075,-225.7392,120.7535,-120.0815,153.8602,-184.3257,-39.8332,-191.7883,-46.9185,-188.7460,-34.1142,-177.3856,-95.4455,-123.3917,-227.1956,-199.6553,-29.1485,-173.0514,-29.7460
-106.5047,-262.4434,90.3336,-98.1132,144.0684,-191.2702,-69.1450,-154.2062,-20.1988,-77.9136,-34.0474,-161.0918,-57.7489,-114.3902,-206.9668,-150.3937,-66.2754,-83.7005,-26.6424
-95.7477,-178.7973,99.0372,-32.5310,182.3824,-91.3954,-55.2038,-24.9374,2.4854,13.9608,-10.6566,-102.2700,-39.3988,-45.8475,-163.8669,-73.0838,-58.9314,11.9770,-14.7407
-77.2131,-95.8270,94.2761,-4.1033,202.7475,-8.1915,-36.9176,67.0384,21.0250,69.2182,-31.8049,-68.8315,-60.5075,-41.8234,-161.4377,-49.5716,-40.4045,30.4571,5.7982
-70.6335,-99.5521,81.2880,2.4599,193.5090,-3.7037,-32.9402,79.5881,60.1743,78.7772,-75.6966,-79.6797,-82.7788,-102.5484,-186.2976,-61.0349,-23.5315,14.5305,10.5315
-53.4437,-135.1293,93.6437,4.6549,193.0066,-29.8657,-16.6250,54.4482,96.6018,22.4976,-85.6754,-84.1981,-88.2714,-101.2298,-186.7216,-45.5216,3.7919,-4.1797,-8.5018
-37.8816,-171.7865,124.5548,-23.8965,220.2004,-35.6793,15.2705,32.6141,85.4570,-33.9154,-66.6555,-73.3295,-97.8906,-28.0135,-149.5681,23.1356,25.0789,-27.8243,-29.0467
-44.3488,-244.8433,136.0960,-90.7920,250.3867,-39.7949,15.8730,9.3991,36.0557,-50.2998,-55.4925,-101.3170,-111.3054,-6.7595,-114.3085,79.4921,-0.9311,-54.6316,-45.0299
-72.6303,-320.7567,107.9820,-168.6948,251.8552,-75.3382,-23.9324,-34.8395,-26.1051,-88.1534,-57.0802,-156.2298,-98.3152,-56.2158,-110.6578,57.7245,-61.0336,-87.8927,-64.5859
-121.0656,-333.3055,69.1143,-213.5831,222.8993,-118.4147,-47.2002,-82.9742,-95.7023,-160.2808,-59.1633,-159.6842,-49.4933,-76.8682,-107.9135,24.4925,-95.6079,-115.7575,-85.7073
-176.1692,-313.0953,51.1085,-196.7247,182.5937,-126.5824,-45.7256,-105.8496,-145.7405,-198.8185,-69.5928,-113.1580,-0.8930,-50.0478,-73.7328,45.2391,-99.5636,-114.9910,-109.9901
-221.2924,-318.4146,26.3674,-149.5894,155.0629,-102.8896,-67.9588,-108.6773,-156.8566,-188.2888,-99.2423,-88.4009,4.3953,-46.8613,-39.2455,40.8578,-115.8268,-93.3135,-126.7425
-260.0713,-335.6679,-30.1162,-124.8053,160.6963,-67.6058,-92.4914,-101.5365,-170.2026,-174.9551,-129.6926,-97.7956,-20.8575,-83.3896,-48.5779,-30.0405,-142.4662,-61.5806,-103.5537
-275.6774,-341.3710,-69.8755,-114.6377,185.1344,-22.9182,-66.3342,-75.7475,-202.7303,-173.2961,-131.9424,-101.6903,-24.7166,-98.7029,-87.0630,-68.4227,-143.4836,-16.9045,-51.8615
-235.9203,-342.1790,-54.0867,-87.2795,194.6007,13.3258,-22.2065,-41.8714,-194.5613,-158.2407,-106.9272,-93.1712,-8.4528,-60.1193,-100.1354,-31.9304,-117.1265,2.5272,-25.7037
-178.3430,-338.6935,-20.3645,-67.1239,200.1059,6.1479,-3.7319,-29.8192,-137.3561,-141.6539,-83.0789,-96.3338,-21.1869,-28.1054,-72.7450,10.7897,-83.5789,-35.5423,-25.0394
-168.5182,-336.2778,-2.6270,-85.7484,225.7814,-33.0166,10.9549,-42.1152,-113.6759,-171.5034,-83.1380,-116.6468,-59.7630,-71.9716,-58.3532,18.9910,-46.7327,-66.2536,-10.2602
-180.0466,-338.2375,13.1949,-102.0481,240.3201,-47.0128,29.2120,-57.2045,-137.6685,-221.3744,-101.7831,-127.3559,-81.0724,-156.8127,-92.3653,-3.7658,-3.1321,-37.7913,6.4625
-149.0206,-314.6057,39.6090,-66.2608,217.8528,-19.0667,29.7883,-71.5802,-135.8784,-221.8300,-108.1902,-110.0102,-83.6351,-211.3432,-133.4247,-38.2466,40.6871,-27.5330,-4.6882
-93.6090,-261.9687,72.9774,-10.9768,186.1233,8.7191,16.2687,-96.6500,-115.6272,-221.1203,-93.7970,-84.5822,-83.5804,-237.1654,-153.1672,-46.7960,64.9535,-80.4527,-29.1515
-72.4541,-228.8150,96.8076,15.4463,150.6067,20.6008,-12.1724,-115.9446,-147.7439,-280.2303,-105.9462,-58.7062,-81.7637,-245.2707,-170.6864,-35.5523,50.9244,-92.1240,-51.8374
-94.3796,-223.3553,83.0665,34.0711,97.7118,46.0665,-52.8665,-95.4803,-197.3669,-296.0085,-161.8574,-10.2839,-93.2573,-223.3498,-166.3188,-37.4702,14.5527,-22.1596,-74.5196
-124.5530,-217.8095,46.5235,56.1825,65.7845,70.0909,-61.6106,-56.0061,-179.5708,-228.6836,-180.4834,32.0603,-115.7684,-217.4850,-130.8897,-29.2907,2.4474,-1.7389,-77.0862
-126.7152,-228.2993,46.7534,29.6093,83.6216,39.6480,-26.8185,-61.2588,-122.7151,-242.9513,-115.0394,17.3417,-104.3899,-261.8320,-136.8735,-9.0408,37.1664,-69.0663,-47.2561
-96.0151,-255.6786,87.6612,-38.8030,117.6855,-16.3367,9.7164,-104.5447,-98.9402,-351.4348,-51.6260,-15.4463,-57.6040,-287.9013,-185.3214,-34.2239,88.9036,-70.7680,-16.7588
-70.6975,-243.8763,107.4913,-57.0516,147.3164,-16.2149,37.4997,-115.4371,-100.2061,-348.3846,-54.1427,-16.3522,-35.8992,-269.6904,-173.2941,-81.0562,104.9875,36.6501,-14.6903
-83.3518,-192.9634,84.5505,-11.3951,173.5909,25.5947,51.2185,-91.9301,-107.4484,-229.7612,-61.0421,-22.9517,-58.6861,-274.2555,-120.1018,-76.3210,68.4748,93.4568,-32.9873
-113.9298,-171.3554,56.5203,14.7822,179.6010,32.7538,22.3901,-89.0734,-141.7834,-176.9445,-25.8263,-37.2507,-81.8829,-292.2834,-138.8445,-51.2329,25.8134,36.5175,-54.7482
-126.3761,-196.0793,49.7063,-8.3708,174.6315,2.1091,-16.9633,-108.2032,-185.5587,-203.8433,12.5437,-6.0154,-62.2003,-274.0478,-193.5452,-57.3025,17.7265,-21.5025,-82.3141
-118.9670,-232.4471,51.7941,-47.6407,175.7162,-33.8894,-26.4389,-132.8578,-195.2791,-252.7702,26.5553,18.1437,1.2018,-270.7786,-181.0538,-74.0362,8.0773,-36.3095,-130.8639
-110.3181,-253.0149,32.9454,-87.7648,147.7115,-79.4887,-50.7492,-180.1782,-191.8706,-349.9085,21.0582,-32.7260,47.3633,-300.6083,-135.7022,-99.7290,-38.1706,-60.1221,-188.5196
-103.9457,-226.7142,-10.5894,-109.7001,91.5034,-116.6498,-93.2339,-217.6010,-215.6812,-413.4173,4.4445,-64.3869,20.7527,-268.7304,-132.6731,-126.4109,-74.0411,-80.0929,-207.0578
-90.4997,-164.9626,-35.0053,-98.9461,71.0777,-115.6390,-87.8977,-185.2786,-238.6572,-323.0389,6.6312,-10.1004,-29.4557,-171.7178,-143.7012,-92.5175,-71.2489,-78.7884,-179.1888
-80.0016,-165.4506,-19.6667,-115.4476,71.9634,-130.5879,-73.1441,-140.7671,-217.1355,-212.1531,28.3937,6.4621,-32.9285,-123.6919,-108.7786,-33.6497,-85.5765,-125.9759,-163.0910
-102.8484,-271.6295,-16.2776,-212.4745,38.5295,-216.3140,-113.6157,-181.7645,-177.3699,-262.1944,13.3934,-78.4249,-8.2511,-149.6449,-73.7868,-60.3052,-136.7448,-221.9910,-177.5190
-158.4478,-367.7130,-59.4379,-303.2670,12.7908,-288.2596,-143.2786,-250.5219,-181.2415,-357.4350,-33.4464,-133.7462,24.4349,-178.4127,-175.2618,-122.9940,-175.8796,-241.2726,-185.1424
-193.9823,-342.5761,-108.9960,-263.9028,20.2481,-242.7166,-136.5765,-234.7076,-231.3793,-313.7819,-39.4181,-84.1377,60.3299,-169.8840,-381.6991,-92.1576,-192.9739,-158.5035,-194.2191
-165.0102,-250.6001,-128.4565,-135.9736,-5.4545,-140.2771,-163.7813,-181.1751,-252.0810,-216.0124,-18.3164,-20.7932,15.5901,-127.0989,-398.8656,-11.9600,-198.9907,-101.5006,-223.5844
-98.9246,-205.7051,-126.2179,-72.1269,-48.0468,-100.4730,-174.0791,-185.0647,-184.1893,-224.5776,-40.5779,-13.1134,-125.7791,-88.6462,-134.0975,-5.7049,-172.5770,-108.4779,-215.7917
-75.9946,-226.0700,-117.9469,-107.7955,-30.3817,-112.5860,-98.4630,-191.7962,-76.0637,-273.5069,-89.7288,-29.6270,-195.1143,-104.4306,54.8989,-56.1917,-147.7142,-94.6772,-143.4542
-139.2838,-279.0197,-124.2045,-159.7738,-3.7979,-116.2775,-56.2795,-135.1041,-28.8105,-238.0865,-123.0014,-52.9711,-122.2093,-146.0002,-43.9504,-69.4173,-192.6117,-83.6637,-89.8590
-230.0893,-367.2434,-156.6541,-212.6773,-29.6493,-143.7379,-102.6423,-104.6222,-60.3414,-205.3551,-150.8840,-108.5666,-60.2952,-139.9597,-163.6217,-46.3990,-242.2111,-160.5518,-99.0129
-253.1321,-454.2310,-172.2893,-276.7206,-26.4004,-200.2625,-82.3153,-150.3103,-88.6603,-268.9028,-156.0542,-161.4833,-77.1135,-97.7053,-127.7040,-63.8497,-175.4192,-212.2230,-99.2347
-198.5688,-427.0145,-122.9182,-243.3113,43.3857,-166.9223,33.2734,-137.6760,-57.3076,-274.7773,-106.3345,-124.2122,-85.2861,-82.4007,-108.4283,-111.1403,-42.4382,-80.3318,-47.0368
-127.8192,-270.2210,-41.6871,-67.9757,82.4539,-13.7079,84.8637,-6.4018,-8.3204,-125.0894,-52.0264,-10.7936,-76.8220,-88.3789,-180.9125,-79.9413,20.0856,105.4332,10.1299
-74.2468,-127.4683,-0.7796,73.4907,62.0893,104.5580,54.3798,101.5672,2.9884,-17.5426,-49.0465,68.6448,-87.7654,-56.5643,-216.2599,25.7099,13.7534,143.1623,34.5744
-46.9654,-81.7938,-15.9059,76.6470,58.7583,115.3568,52.9406,111.3754,-6.6284,-59.3052,-64.2043,87.9896,-73.4376,21.5964,-164.7381,68.4242,19.5983,105.4299,38.8992
-58.7638,-88.1825,-42.4456,44.8274,93.1623,98.2251,80.3974,79.3385,-10.4755,-108.4137,-60.7912,77.6068,-27.9709,60.1182,-90.1123,25.8935,41.9712,83.4648,35.4308
-79.9602,-150.0023,-37.8332,-9.6919,121.7187,42.0667,76.3999,-13.4363,-33.4324,-156.3157,-59.1520,-7.9563,-19.6331,-23.6160,-84.2722,-18.7686,48.5904,-27.3107,22.0780
-61.8359,-268.6670,-7.9893,-137.7641,124.0025,-85.8423,49.2959,-153.4317,-69.0814,-261.4865,-69.5900,-141.5779,-62.5738,-154.9605,-181.4134,-75.7285,49.3305,-160.2815,14.6753
-16.6213,-301.5660,12.6475,-179.3928,113.6258,-128.2423,39.3163,-156.7048,-43.8477,-229.7764,-69.1141,-160.3884,-116.4516,-180.1133,-248.0710,-135.6284,66.3802,-71.7323,46.2718
20.9320,-191.1817,20.8882,-40.6592,118.3131,-6.2472,73.6840,-2.0488,57.0355,-5.5681,-47.9088,-78.8242,-136.9296,-127.5511,-175.3011,-108.6886,97.3211,124.2044,105.7233
46.6976,-120.5695,34.0411,48.7867,144.5172,68.6431,134.0336,52.9009,146.8096,71.6296,-29.0902,-91.4690,-93.2586,-159.6153,-91.1664,-71.1596,118.0980,116.0479,121.5865
38.3422,-174.7804,34.0863,-10.8694,155.7924,-7.0092,146.8134,-53.2308,157.6996,-90.9550,-44.8448,-162.0784,-37.5916,-249.4750,-95.1124,-145.7852,110.1050,11.1110,68.1076
-21.5076,-197.1038,11.0368,-1.3236,130.8609,-43.8586,94.3110,-92.6473,100.9043,-164.3350,-82.6527,-104.1738,-48.7119,-214.2793,-93.9314,-184.8902,105.3454,59.2341,21.7491
-65.4887,-141.4738,19.3585,115.8040,99.6441,29.2038,60.4858,-19.5231,32.6925,-82.1400,-79.9069,5.3302,-81.5294,-66.6412,-72.3414,-75.0650,157.9512,127.3307,44.8867
-30.2981,-136.4813,87.7048,151.5553,95.1756,76.2242,92.4555,13.7014,18.8268,-58.8398,-20.8170,-1.9085,-58.8883,-1.1600,-112.9791,-20.3422,246.5222,83.6339,110.0499
29.7880,-168.6338,150.0044,127.3014,128.5069,89.8636,142.0963,17.4944,64.7194,-52.8422,23.6037,-50.4893,-23.3845,-57.5672,-183.0402,-109.3554,293.3962,109.3178,178.5110
40.8064,-124.2505,157.2334,179.3842,185.6112,145.8822,168.6870,74.3470,99.9587,40.2180,9.0593,-34.0580,-36.8196,-105.6034,-212.3274,-146.1835,288.8086,229.3494,236.3441
21.4384,-51.7552,154.8807,250.3909,220.0140,180.6155,185.5510,122.1732,95.8529,78.1978,-8.5091,-3.9721,-78.9728,-94.3134,-200.4825,-77.9528,288.8526,233.1344,259.7831
16.6145,-61.3415,183.8449,246.1517,209.8850,136.1864,206.7435,101.4986,88.6608,10.1876,34.0723,1.7482,-101.0251,-64.6584,-176.8158,-24.7353,301.3962,132.6585,241.0993
19.0806,-142.5102,204.9156,185.2898,183.5261,70.1888,199.5051,32.0847,69.5059,-49.2391,100.3149,-28.8034,-82.5017,-50.1432,-181.4005,-28.1742,280.6762,68.1151,198.5253
3.2483,-223.7104,165.0867,108.6274,140.9422,19.6080,120.7069,-67.1556,19.6565,-117.6594,100.1714,-121.0173,-80.5601,-108.5000,-148.4415,-121.5540,216.1293,24.4121,139.2748
-21.5113,-211.4607,76.6444,96.8263,69.8185,13.4231,20.0946,-97.8521,-3.8213,-165.1929,35.4558,-154.4306,-152.8483,-224.1623,18.8924,-254.9729,142.2213,40.8401,91.9532
-18.8641,-44.1562,11.8360,203.2219,36.7619,100.1809,7.5171,38.6550,24.1398,-23.4091,17.1377,-5.1529,-180.7056,-209.8710,114.7574,-189.2697,85.1022,187.5863,105.6976
13.8823,128.2463,23.2107,281.3402,91.6002,191.5811,68.2643,184.4043,36.9863,162.2241,88.3436,147.1936,-53.2353,-32.6963,-59.0429,58.4078,45.0571,269.0274,142.7368
21.1014,85.4532,59.8476,192.3000,139.9297,143.1796,74.3953,141.4478,6.6954,83.4895,141.7429,99.6548,48.4072,22.8759,-198.1211,121.1949,1.1410,138.6137,110.0696
-28.2927,-83.0041,18.8804,64.6109,79.4954,14.2496,-1.0612,35.7806,-35.2000,-88.5287,93.4273,-4.4343,-29.6954,-116.6038,-107.0783,-31.7956,-60.6083,8.6999,24.4077
-71.0700,-137.0308,-84.8041,40.6912,-33.0076,-56.5432,-68.0704,28.0979,-85.6620,-62.6188,9.3135,1.5796,-117.7910,-144.8413,-111.5237,-76.1189,-93.1251,-20.7202,-23.1145
-30.2321,-111.9484,-113.1024,45.3728,-77.1207,-91.7987,-77.6456,-10.7715,-139.6288,-70.7797,-10.9393,16.2272,-119.0454,-21.5674,-205.5608,-14.7800,-37.8428,-123.8474,-28.1096
67.6852,-127.6503,-32.2740,13.0930,-41.1200,-127.7053,-55.5519,-141.1371,-168.0820,-286.4822,32.5785,-15.4629,-159.2200,-33.5894,-57.3233,-40.3498,37.2176,-223.6330,-45.5128
114.3137,-73.3264,10.5068,16.4299,-22.4191,-84.4957,-58.5996,-146.1644,-173.5527,-315.8243,52.9498,16.8978,-202.1672,-122.6823,43.4017,-57.9073,0.8538,-91.4656,-78.0903
67.7198,100.2274,-63.9335,86.5284,-79.0455,39.0687,-118.3545,33.5495,-155.1979,-13.7324,-3.9076,93.6287,-154.9785,-10.6946,-199.8246,-6.2592,-100.5189,111.8380,-83.9292
47.3091,219.0867,-121.8611,163.6622,-128.5173,121.8645,-156.4991,162.7032,-91.1718,143.3470,-47.0845,110.4741,-142.4691,170.8161,-295.4821,-35.4978,-86.8880,136.4502,-34.7899
198.0774,269.3078,-44.4004,214.0307,-72.0704,127.2136,-81.5788,133.7004,-20.9246,-14.3084,48.1608,127.1736,-177.5943,139.6164,-113.2804,-72.4066,44.5891,108.7354,37.6411
474.8298,426.9814,87.4215,256.5673,26.8398,115.5304,19.4266,80.1185,5.0676,-96.6724,204.4426,221.4919,-115.0541,-18.8595,-199.4720,54.5485,127.3813,161.0883,61.0396
726.5985,699.6984,164.0939,308.7452,51.9597,103.1715,20.2048,89.1400,19.0222,8.6514,252.0429,330.9391,-75.5168,-74.4295,-373.5318,163.4411,145.2362,166.8139,54.3803
963.2064,996.3667,226.1510,357.0180,51.3935,84.1672,5.0832,123.9323,32.4226,32.1884,245.0114,423.2868,-169.7578,7.0059,-171.3881,50.3359,246.0921,99.6489,130.3242
1285.1522,1292.5221,350.5307,391.5495,134.3134,84.9615,107.1712,136.0120,2.1052,-66.7088,337.6249,518.0880,-124.0458,77.1299,-180.6728,-118.7932,446.1773,73.7262,268.5091
1605.4845,1469.2206,494.3981,438.7726,247.0191,99.4657,247.4000,105.5089,-21.1180,-129.3282,452.9890,546.5544,111.9840,-8.1108,-741.5142,-161.7064,587.6507,62.3891,306.9418
1742.5675,1453.8711,556.2989,486.7841,267.4507,85.7128,281.1593,66.9888,46.8974,-131.2200,434.5612,490.6845,118.6765,-89.7459,-843.8341,-127.4470,587.1996,9.2360,246.0814
1705.8224,1446.3746,529.5753,452.5815,227.5997,41.3030,245.5248,59.8296,134.7776,-116.9506,347.0618,473.5735,-159.8249,100.2409,-87.6973,-81.1016,537.6626,-40.4145,261.2804
1604.3566,1481.5885,510.4861,326.6316,254.7933,-15.4997,274.6645,20.5071,130.2466,-141.4983,314.6599,500.7861,-273.8269,284.9760,365.8201,-69.8149,548.6643,-93.5740,368.4099
1403.0148,1255.3357,533.9984,222.2232,350.3029,-75.5602,366.3102,-92.0852,74.3326,-251.4471,275.9311,451.2057,-131.5627,33.5831,-91.9706,-156.5863,585.8507,-153.7874,400.5210
1028.0171,814.3118,489.5774,206.7345,377.7056,-92.6459,374.9438,-147.6854,66.8203,-325.6971,121.5962,385.9907,-120.7447,-270.5760,-547.2172,-252.9137,529.3807,-126.0424,311.6757
568.3033,577.0023,304.8246,222.4878,275.7383,-42.7312,251.8302,-78.8814,120.2655,-246.0470,-106.7102,429.3135,-392.7083,-78.5146,-269.6052,-218.7652,369.4280,-53.5795,220.1795
154.3877,477.8897,98.3635,179.1360,151.5689,-29.0882,143.9550,-45.8695,180.6205,-155.1654,-284.8038,445.6980,-643.0910,227.3955,190.6580,-142.4286,222.0016,-109.4426,187.5781
-220.3144,110.6732,-4.7841,46.2582,104.4193,-137.0161,141.0825,-135.7693,186.7659,-168.7000,-370.9156,283.3777,-588.8001,131.6148,45.8039,-178.6456,141.6233,-248.6177,159.1988
-589.0861,-408.2372,-50.2220,-92.4519,95.2013,-260.5158,131.7185,-231.3377,120.1963,-205.3475,-428.2947,90.3497,-384.1746,-96.0495,-445.8844,-265.5508,85.8065,-300.9015,85.8997
-887.6576,-698.4241,-105.1831,-120.7104,66.6053,-290.0403,54.1240,-287.5966,21.7181,-289.7108,-502.9550,29.7721,-384.8038,-150.2813,-481.8078,-296.4471,45.9722,-295.7495,-8.7999
-1093.9524,-826.0021,-147.7977,-83.1147,31.2596,-305.0775,2.8716,-348.2442,-65.9130,-440.8304,-562.8382,15.6129,-547.3833,-154.8608,-165.1721,-319.0238,29.9516,-319.9241,-71.2182
-1303.2212,-1031.4749,-186.2950,-130.0832,-9.8941,-385.0890,-4.7769,-364.7564,-107.2982,-444.8008,-593.4443,-71.7927,-542.1098,-154.7068,-158.7139,-358.8401,-4.9442,-344.7188,-87.4517
-1516.9580,-1285.6334,-249.5273,-267.0697,-68.4697,-472.3186,-39.1322,-349.7119,-58.2320,-314.2173,-621.5264,-226.3365,-431.5463,-170.6043,-206.5765,-338.7116,-54.3167,-383.2266,-87.0401
-1582.2140,-1464.5602,-275.0989,-371.9225,-101.2895,-529.5324,-68.3297,-428.9648,34.5267,-368.3433,-613.6650,-375.0726,-497.1074,-316.8132,193.4536,-291.5696,-51.4375,-447.9814,-87.4053
-1473.2682,-1502.5328,-220.6199,-372.5671,-85.7712,-557.6551,-49.9682,-530.5676,38.4804,-531.5395,-526.9961,-403.5461,-588.7783,-406.2296,434.3474,-348.5900,-10.9596,-413.4494,-88.8288
-1364.1384,-1385.0498,-160.5334,-261.7401,-69.9930,-493.1390,-35.1523,-460.3246,-42.4319,-458.9061,-423.2828,-284.7141,-470.1226,-279.3326,73.2862,-475.8110,2.4952,-255.1932,-99.6831
-1325.5986,-1226.2192,-134.1087,-103.9619,-65.3137,-343.3294,-19.5661,-296.8061,-68.4268,-284.3122,-362.6537,-180.7399,-359.5794,-217.4821,-57.0260,-532.6757,3.6438,-151.4538,-108.4215
-1253.4508,-1131.4636,-102.3553,-20.9488,-45.4712,-244.6024,26.1569,-230.1675,-36.0708,-298.0465,-316.0390,-186.0055,-448.0514,-266.7303,395.1438,-535.2676,15.1817,-155.4704,-92.0902
-1131.7463,-1042.5223,-81.4598,-4.2662,-52.0568,-228.7659,7.4315,-212.0310,-55.3480,-352.9895,-281.8211,-182.0190,-524.9253,-152.7775,562.8373,-534.5063,8.5962,-152.9398,-74.3252
-1059.2203,-942.0728,-93.7718,66.4490,-119.7247,-208.7210,-105.5220,-157.9251,-84.3227,-283.8719,-286.0317,-132.0655,-462.7737,-95.7514,211.6321,-429.8372,1.4162,-138.0229,-75.7647
-1042.4242,-917.8499,-80.5163,158.3839,-173.9116,-196.2902,-155.4952,-134.4267,-1.3457,-210.3625,-279.0984,-154.6468,-396.0470,-356.7222,42.5973,-253.5723,21.6915,-157.7314,-54.2901
-1016.8383,-954.8753,-40.3243,167.1624,-162.0562,-236.4028,-99.7172,-143.2587,144.5300,-167.9536,-231.0996,-250.3143,-371.5272,-504.3513,204.1737,-266.8347,8.9969,-163.7014,-12.9860
-975.8760,-991.7960,-59.6496,161.8796,-151.3191,-268.7603,-91.6126,-120.8027,220.7305,-105.9043,-196.0705,-326.9267,-340.5425,-321.0131,366.3757,-430.6340,-62.9520,-155.9506,-40.8008
-911.6163,-1009.7385,-118.5145,213.0088,-182.9366,-258.7470,-158.3248,-108.6781,222.9384,-66.7401,-167.5132,-364.6902,-309.0435,-230.7122,501.9486,-347.6259,-103.6721,-187.0706,-136.2800
-788.1979,-919.0062,-113.0896,240.2550,-193.0613,-236.2166,-170.2017,-109.6572,214.7167,-7.3327,-91.3605,-324.0122,-255.3875,-264.0645,545.0300,-15.5524,-68.7845,-194.1344,-170.5432
-652.7260,-731.1252,-55.3929,239.3773,-145.5068,-181.3062,-101.4146,-32.0306,206.0361,108.8026,-9.7403,-189.0224,-160.7457,-133.9029,354.3028,98.4350,-13.0182,-125.7018,-88.4735
-585.3057,-672.9642,-19.7436,294.2921,-91.7114,-101.4222,-23.7709,83.0409,203.8789,134.6579,28.3824,-112.8751,-93.8359,-70.8404,172.1837,-73.5010,33.6139,-69.3668,32.0695
-548.1334,-727.3096,-6.2414,351.6157,-77.9761,-61.2015,24.6284,136.1596,225.5237,93.4150,57.0684,-159.5793,-85.0761,-209.0189,201.2570,-87.9756,52.7857,-42.8789,106.0431
-462.4299,-582.5096,-15.6531,330.9263,-108.9149,-16.3039,11.0144,190.4286,216.4368,202.4263,70.7768,-137.2399,-89.7676,-139.1895,239.3436,171.0513,-2.0981,34.9092,100.2317
-349.3767,-294.4451,-66.9875,285.7616,-174.1415,92.8595,-66.3356,288.2699,123.4422,364.4619,47.0213,12.0206,-93.9607,128.6342,202.9109,352.0907,-91.1789,102.9534,52.9405
-249.5143,-231.7791,-81.5497,245.1617,-224.0486,145.3673,-111.1188,314.0998,34.7224,338.2845,69.6427,79.8009,-78.6079,140.7317,236.1774,311.2460,-96.7253,50.7223,63.1521
-147.7724,-361.1017,12.6022,175.2561,-190.1517,61.8345,-56.5597,245.9884,54.2462,225.1675,171.9647,4.8177,1.0935,-12.1228,294.7062,235.8434,-17.8304,-33.8901,141.8057
-75.3717,-373.6261,94.7707,118.7238,-98.9200,-10.9668,22.0651,202.0743,102.4921,179.9647,216.3114,-56.0096,110.2986,-4.0093,249.0441,204.7699,19.1374,-25.2815,170.5141
-92.5908,-252.7387,22.3294,109.6134,-59.1125,24.9425,36.4077,203.9660,58.4506,144.9846,142.0752,-48.3088,166.3954,11.3330,144.6195,164.2494,-37.3656,29.6587,115.6504
-129.0862,-140.9927,-106.9754,85.6571,-86.0634,78.4686,11.4688,189.7029,-19.0689,133.2398,89.7077,-33.7247,159.9085,-103.5837,87.1257,180.0502,-96.8179,51.4131,78.6989
-66.3801,-93.6745,-102.4634,20.2695,-80.3768,72.3436,16.2458,139.7067,-38.6264,151.1971,148.3888,-45.5527,144.5358,-155.7258,115.3114,306.6944,-72.1228,31.6779,79.3421
38.7386,-166.7986,17.6662,-52.8362,-12.9138,6.3997,50.1135,44.5288,-71.4562,34.7713,226.3179,-104.7351,167.1424,-126.9221,160.9427,387.7384,-7.4234,-22.0229,45.2155
45.1640,-278.5465,72.0136,-109.0084,31.5402,-68.0147,47.8445,-41.8421,-180.0072,-133.3976,220.2272,-160.5424,212.6025,-143.5779,119.3758,309.9023,-10.2348,-30.6588,-5.2271
-26.4475,-189.2024,-10.1933,-96.4209,14.8918,-20.6131,-4.1292,23.5020,-255.5603,-41.1253,147.7495,-90.4736,216.0279,-132.4393,65.9380,244.6454,-75.3248,103.5386,-2.9825
-46.7358,48.1380,-106.1766,-7.5222,-0.6350,163.3697,-20.7385,215.6599,-215.3367,203.6358,109.3758,47.9341,191.2007,-68.4712,132.8248,333.5212,-90.0661,266.1207,34.7656
15.5103,136.0439,-86.2547,36.3702,28.8789,266.2841,35.0276,296.2518,-153.5179,239.0457,160.6428,50.7066,223.7014,-81.4164,201.8150,403.7770,-35.2967,264.9058,50.2780
91.4785,106.2872,2.1373,-13.0074,66.5856,187.1285,67.2713,195.5204,-153.0824,135.1720,223.3459,-50.9941,275.1984,-117.9139,138.6195,319.7021,-10.5696,175.7994,22.9780
134.4101,176.0134,12.8439,-45.1497,63.9494,101.0434,26.8892,99.3483,-147.0123,150.3379,197.8716,-50.8997,234.9273,-38.7358,63.9976,262.2339,-40.8033,165.3329,-21.1108
165.8476,244.1821,-72.3043,-43.7013,37.0869,101.1960,8.4585,97.2209,-77.9242,216.5292,127.4359,28.2136,170.1882,50.9538,57.9787,341.6021,-58.5816,163.8068,-15.0485
225.7342,169.4980,-139.8995,-103.2058,39.2728,105.6562,54.7229,115.7636,-18.1387,220.1441,106.7398,23.8542,235.4157,22.8362,53.3684,381.0812,-73.3949,94.6079,53.6457
277.1095,108.0110,-160.0587,-212.1926,61.6879,113.8370,74.6272,142.8121,-33.2903,244.9637,112.9008,-32.0763,394.8958,7.7875,92.8345,323.6948,-160.0179,71.9882,84.8485
228.0702,131.6292,-214.7755,-332.6965,36.6896,150.0716,26.8779,190.7699,-78.3945,281.0842,83.0348,-36.4272,489.6987,121.2052,201.8261,327.6151,-299.3957,104.9657,32.4003
106.8270,95.2580,-311.3876,-491.9165,-35.5748,140.8858,-24.8219,190.3058,-115.3338,227.7912,43.1258,-28.7113,483.4186,220.1201,226.4140,371.8727,-386.6134,63.2812,-9.7632
64.2641,40.7945,-357.9630,-616.9774,-74.6470,94.0928,-40.9016,127.9081,-184.8094,148.7507,48.2162,-47.2966,468.7783,182.9080,136.0928,306.3786,-372.8807,-7.7068,2.8735
137.6329,99.7993,-318.4099,-623.5743,-54.7231,79.6328,-32.0321,67.1138,-289.0926,106.1062,99.8386,-60.1367,498.6899,117.7609,85.9905,193.9336,-309.8093,-12.7531,-2.9210
207.1552,126.8914,-256.0396,-633.9218,-32.3479,30.2619,-23.4818,-11.6860,-356.6772,7.2309,149.1174,-105.6871,518.3499,111.7417,92.9538,156.7971,-267.4241,-45.0616,-59.2586
207.2279,16.2808,-242.0845,-729.0395,-41.5503,-78.2409,-49.8022,-123.0642,-356.4443,-112.6446,124.9130,-203.2783,483.2088,110.4979,70.4834,151.5918,-250.6771,-114.7913,-122.0374
186.4057,0.6309,-275.8139,-751.6624,-56.4798,-83.7036,-82.8034,-142.7377,-303.8024,-62.0595,21.7841,-225.7025,460.4614,139.8069,52.7670,153.7663,-221.9373,-59.9669,-148.7817
192.0484,171.2641,-282.8322,-650.8024,-42.4712,41.5738,-44.4833,-31.8027,-205.4169,118.7221,-42.7157,-137.6574,514.9305,262.7038,84.4812,204.0669,-188.9360,82.6567,-121.3567
233.6947,260.9960,-223.1337,-588.2695,-7.2815,121.6423,15.3682,46.6072,-126.2153,196.5817,24.4692,-117.6932,586.7041,364.8913,106.2064,236.4624,-198.6472,143.4453,-92.1850
298.6301,194.5943,-174.6173,-578.1992,-4.7136,138.2506,-37.4464,33.9290,-170.4365,167.5892,146.8086,-229.5488,585.1341,360.2770,72.1298,185.1139,-252.3661,181.2819,-154.0612
361.5830,208.2617,-208.1529,-500.0870,-56.5350,211.6995,-164.6644,63.1385,-301.9747,193.8215,207.1544,-307.9373,498.7841,366.3697,7.1700,112.2744,-316.3280,290.6222,-272.7750
422.6059,326.3959,-263.5937,-395.8524,-111.4193,301.1128,-226.8421,157.3295,-373.6106,257.4695,216.7901,-287.6112,387.2212,412.1750,-52.1330,68.6363,-388.1725,361.0957,-327.3384
483.2246,353.3365,-274.8437,-359.5366,-145.1152,311.2806,-244.2414,209.7317,-353.6397,270.2258,242.0240,-278.9899,343.6820,396.3965,-96.4308,67.4701,-464.0862,342.4958,-323.0714
498.2204,294.9089,-272.9244,-356.0634,-191.3640,283.5270,-293.4492,214.1468,-326.5319,278.2644,272.9202,-308.8548,379.7820,378.0937,-131.3592,135.6523,-499.8490,317.2146,-334.1059
