Fp1,Fp2,F3,F4,C3,C4,P3,P4,O1,O2,F7,F8,T7,T8,P7,P8,Fz,Cz,Pz
59.1904,101.4154,5.1225,62.5101,-68.0592,-12.5247,-125.0797,-56.7835,-69.9026,-64.3132,35.3799,59.5270,-14.6372,29.6561,37.1774,8.1421,15.2810,-0.8923,-99.3012
89.3505,-119.1978,-34.0359,-70.6026,31.4694,-14.8468,7.3134,-5.4084,51.9619,-131.7852,6.2347,-11.5255,37.3835,-12.5976,106.2319,17.1685,68.8493,57.6761,82.2705
139.3009,-143.6107,-12.9408,-55.1332,99.6972,-20.6620,101.6533,32.3595,103.0928,-78.4999,-23.7321,-93.2770,36.0708,-93.1779,130.8821,8.9833,82.3124,74.8770,145.4495
154.6252,-8.5174,47.0132,35.6301,112.5594,-45.1232,140.3750,-6.7730,108.1944,-12.4312,-11.2222,-84.4082,32.4406,-142.3603,151.2220,-41.9633,73.4908,52.9505,67.1395
134.4771,24.5890,80.0341,14.0560,131.8461,-48.2568,171.7473,-50.8144,147.4243,-23.6519,33.8939,-22.8270,77.4113,-97.1819,201.6313,-79.9544,46.5792,43.6953,29.5983
95.0788,-53.8603,58.1777,-71.0148,133.2237,-17.5708,152.8475,-13.2676,155.6358,-5.4751,46.1912,-17.6111,102.5628,-30.4207,172.6084,-64.7488,-13.4070,37.8184,67.9365
42.1402,-103.5646,-2.8925,-102.9256,64.4810,-1.6414,80.7480,49.6074,93.5134,65.8594,1.7654,-53.3320,60.3448,-18.3153,61.0275,-10.3685,-76.8268,-18.0839,89.1118
9.0772,-135.2903,-73.5354,-135.5084,-5.7006,-25.7949,76.3671,66.4604,64.7013,79.7324,-48.2697,-66.4709,-0.6306,-11.1007,29.4255,72.0002,-119.1782,-87.0808,107.9164
13.9164,-184.8970,-118.2499,-209.6179,0.2087,-51.3266,163.5449,80.8260,102.8213,49.6334,-58.2686,-70.8159,-33.3754,31.0444,84.4052,131.8328,-141.9412,-69.5590,167.8084
14.7890,-200.2211,-115.1259,-234.4711,41.2176,-34.3646,219.0898,117.8842,132.2650,58.0148,-45.1806,-66.2751,-20.0243,56.2347,95.2231,92.9124,-111.9197,8.3272,217.4119
-1.6191,-178.6642,-75.1102,-170.9456,64.4494,5.7284,211.6274,117.8615,158.2560,88.0965,-44.3182,-18.3101,34.0050,42.1275,87.5566,14.9286,-14.9162,18.4543,225.6860
14.1005,-162.4610,-20.7201,-95.1203,80.1805,7.8374,218.6928,80.9105,212.1441,111.9064,-48.5526,26.9370,74.3674,18.9217,139.5370,36.3777,78.0664,-35.3011,219.3431
62.3870,-144.4088,30.2961,-63.2868,94.0383,-26.3619,222.8023,70.8505,212.0197,115.8076,-27.3862,3.4271,69.6721,-12.2678,173.1561,124.1671,109.9077,-25.3661,185.2789
78.4484,-118.0417,56.1768,-46.7128,107.5064,-24.8374,157.9497,78.2891,121.4232,62.1633,8.0853,-43.4532,60.6598,-45.4492,116.0655,130.6435,112.7178,63.2175,120.4459
57.3466,-90.3897,58.2129,12.9302,148.7023,24.0929,95.8863,65.3738,65.2296,12.1513,13.9379,-37.0183,63.6306,-41.2500,31.4972,46.7550,141.1025,128.4959,101.7179
69.8898,-42.1457,81.4124,112.5794,206.6009,55.9385,137.5866,58.8486,107.5847,61.6201,-3.1697,9.8031,54.2315,-16.6562,-9.4431,-29.3679,205.3971,137.3169,155.4192
132.3913,2.1856,142.7654,173.7639,225.1155,55.7323,208.2925,64.8767,138.1988,114.7057,14.9324,36.2184,46.9142,-37.4648,13.4539,-56.5309,253.8022,130.2889,183.0501
168.5634,-20.0521,186.7561,157.1011,205.6327,57.7597,189.1969,37.6197,96.9033,49.7459,73.1811,17.7094,54.7966,-84.4877,85.2028,-38.6486,222.9326,123.0862,130.5883
137.3232,-78.5736,177.9937,111.3976,199.8630,58.9214,135.1794,-5.5118,72.0717,-29.8619,105.3730,-18.8551,57.7378,-71.4793,138.8134,7.8297,148.7157,112.8659,88.8172
99.9081,-99.1833,156.1950,66.7061,204.9267,49.7469,144.0550,-0.4358,107.4614,-14.9970,80.8786,-36.1983,72.5242,-5.1513,134.0461,40.7003,130.7637,97.7829,134.0314
100.0765,-103.7603,149.1705,11.7089,183.8865,51.8561,161.6628,42.2195,135.3120,15.0280,35.7242,-26.3077,105.1399,30.6157,104.4810,49.5376,167.2236,72.7792,206.0885
88.4775,-128.0662,132.0190,-18.5917,152.5095,70.9923,119.4529,68.6819,123.6106,3.4282,-4.1703,11.1968,89.0407,38.8226,56.6329,52.4665,177.2812,57.8311,222.7035
40.3685,-126.2764,95.0615,9.0554,143.0330,93.6240,86.5569,76.1036,111.5410,13.8119,-33.5623,68.3706,26.7245,76.8230,-8.0945,25.0964,141.5416,69.3704,196.6019
10.0822,-95.5162,56.3259,23.3511,137.4297,102.4217,122.6429,90.7882,122.0346,67.1046,-30.2951,71.7643,20.8055,97.3863,-6.1663,-26.9399,72.4400,66.0096,177.5148
8.7396,-121.5752,14.9506,-62.1783,108.7739,61.9846,167.2313,113.8057,147.6548,104.4833,-3.0783,-30.2881,68.9686,33.7825,81.5896,-29.7785,-33.7336,19.1689,173.0028
-13.9278,-211.3354,-37.1047,-195.7299,67.3021,-17.6307,168.2662,118.7770,167.5529,81.6463,-15.6816,-123.0065,75.2432,-32.4906,135.2907,-0.0006,-125.0534,-20.6475,165.0313
-62.2336,-264.7404,-86.6166,-236.0354,30.0974,-48.8188,145.5717,86.2862,151.7597,21.7678,-81.7291,-86.5302,54.6349,-12.8110,118.3966,-21.6743,-135.3595,-12.7935,139.0567
-113.7850,-254.7406,-115.9833,-148.9655,5.5030,-7.5646,108.5712,47.8767,107.2732,0.9762,-123.9143,-19.8946,68.3083,15.4162,110.8444,-39.1841,-100.4056,15.5618,93.6957
-165.5021,-253.0412,-117.7589,-62.5704,9.6152,19.6122,57.5566,54.3643,77.5655,40.1979,-96.2259,-55.2629,74.4953,-24.2021,94.5405,24.2466,-85.5267,42.0627,62.6612
-173.2698,-271.4007,-94.4844,-78.2502,45.7285,2.5011,38.7364,90.4302,78.6212,67.6426,-48.3190,-126.4007,43.4512,-63.8150,12.3314,58.8475,-72.8024,69.7831,96.6344
-102.1707,-256.8198,-59.4448,-130.7426,86.4294,3.3038,91.7862,105.1637,108.5353,61.0264,-39.9392,-136.4745,24.6914,-47.1387,-61.3412,-10.1717,-24.7290,73.6937,193.0537
-36.5116,-228.8098,-25.1357,-130.5333,108.0352,31.3563,175.7342,99.9187,160.5220,63.9777,-74.7256,-119.1169,11.4706,-8.9543,-60.0910,-59.1376,35.7559,27.2744,279.7636
-55.1314,-242.3855,1.5627,-101.9329,117.5207,39.7209,214.2260,93.4414,177.0062,56.8798,-110.6699,-115.5051,-29.3473,28.9571,-33.3453,-42.0060,66.9937,-23.9467,290.8766
-94.1363,-254.1646,17.9937,-70.0629,136.6958,34.9124,196.8051,78.2307,127.1083,26.4752,-96.7585,-125.2873,-32.5044,55.2266,-2.8702,-50.7348,72.6865,-0.1155,239.1565
-86.7229,-211.2659,37.1459,-2.7129,170.7769,54.5775,176.3646,63.5271,96.0020,29.2561,-44.1030,-168.1202,30.0724,40.1050,32.5596,-56.7214,93.1502,85.2958,193.8305
-67.6453,-192.4910,66.8071,56.8349,189.3829,83.6870,170.9759,50.0386,130.1184,21.3616,-32.9299,-220.1783,42.3105,11.6868,3.8379,-5.7003,136.4646,121.6444,185.7847
-58.2321,-257.6447,86.0536,29.5673,165.8423,77.2344,156.0065,-6.1873,145.0866,-90.0384,-77.4855,-210.3672,-32.3409,17.2421,-83.4665,-6.4069,168.5386,75.3979,169.8387
-34.6702,-287.2023,103.1771,-10.1205,137.3936,37.7232,144.0375,-91.2605,116.8371,-193.5149,-83.8720,-158.5620,-55.1551,15.6713,-109.6902,-88.5837,197.3055,49.1073,110.2596
-5.3434,-191.9430,165.4275,63.6763,151.9651,13.8560,151.6231,-112.8485,114.0103,-135.3717,-22.0969,-150.3305,20.9536,-39.3319,-73.4547,-120.5343,251.2903,88.3901,52.0705
12.5259,-108.8298,236.2494,169.6320,169.7104,15.0118,134.9229,-57.5682,115.3464,-10.3643,12.2540,-196.0131,69.1181,-102.4893,-69.6282,-119.1069,261.5745,96.5107,54.4996
17.4949,-174.5011,204.2032,113.3286,128.5468,-5.6105,86.3547,-2.4344,77.9708,37.3150,-30.7922,-257.6176,43.3514,-123.7854,-65.9158,-179.6773,151.4590,18.6918,106.2596
-19.0911,-311.2647,67.6779,-99.4647,60.2454,-56.2752,81.7881,32.2960,78.9859,56.7407,-99.4774,-318.4268,20.3202,-110.9600,-22.5939,-181.9817,1.2136,-84.9898,158.7177
-117.6702,-409.1419,-70.8929,-268.9674,17.9588,-97.9708,136.3161,72.5555,158.0875,122.3183,-171.3232,-349.0780,-4.2894,-86.6426,-42.9333,-36.6859,-80.5552,-175.7011,191.0433
-234.4555,-476.0838,-172.7003,-294.3130,-22.6514,-128.9347,176.2263,103.2231,222.5820,189.5017,-259.3463,-328.6656,-73.5398,-72.9024,-137.4540,64.8509,-117.4429,-241.1325,199.9136
-309.3087,-501.1087,-238.0905,-256.5355,-78.5023,-146.0025,174.2343,111.5330,212.4143,186.9142,-314.7669,-306.4577,-112.6328,-82.6657,-157.4777,1.2713,-139.3858,-217.2646,174.7975
-316.4632,-433.8641,-225.7576,-219.2383,-92.1010,-96.6677,149.7978,109.5284,149.3234,92.3546,-280.5004,-332.8055,-62.4011,-105.2548,-101.5006,-88.3609,-107.9898,-90.5501,124.4600
-264.6935,-331.2651,-144.2430,-154.0513,-34.0219,-1.8879,110.7631,79.7501,72.2043,-29.0427,-194.8831,-365.4119,-9.7116,-130.4435,-103.2141,-120.2750,-40.3690,22.5793,86.8435
-195.5829,-284.8258,-68.3155,-71.8407,37.6051,27.0241,97.0854,7.8568,48.0842,-71.6800,-141.5579,-329.1801,-14.9669,-143.5026,-140.3915,-153.0100,12.4968,31.3414,76.6656
-149.9743,-271.3812,-17.4725,-26.3130,67.2413,-21.5797,136.0073,-68.5829,93.3249,-63.4467,-148.6919,-238.7329,-26.5769,-124.5900,-125.4562,-187.5488,66.7870,-5.5053,65.6040
-138.6951,-257.4467,20.6502,-2.2826,66.6680,-50.2122,158.1195,-108.0864,111.0836,-109.8008,-184.0616,-194.1952,-39.2119,-110.1585,-115.0281,-191.0809,119.2437,10.3224,42.9448
-165.3299,-279.2138,16.7122,27.8213,65.6764,-29.7597,120.3705,-93.3914,68.9101,-139.5200,-208.1182,-239.4020,-92.9227,-145.7112,-157.7291,-186.6541,108.9140,70.3818,37.5220
-211.8962,-313.2756,-24.6487,21.2946,54.5780,-1.0600,96.7387,-25.3875,52.6367,-27.1162,-220.4052,-289.7361,-138.2337,-173.4718,-190.9980,-189.0393,46.4637,85.4050,59.1005
-232.9771,-302.1642,-59.3095,-39.1107,10.5832,16.8684,124.7424,46.5637,63.7465,106.1626,-260.9033,-265.4408,-121.8246,-134.3783,-203.3520,-191.0735,-3.7021,25.3296,87.5152
-244.9474,-309.6717,-108.0773,-114.3579,-43.3924,8.7596,144.2397,66.5507,40.0369,85.4901,-345.3866,-216.8220,-101.8526,-94.8760,-229.1318,-185.2682,-50.7998,-43.8791,118.9390
-309.5202,-406.7482,-200.6682,-203.7052,-64.2120,-27.5958,134.1050,67.2490,23.5471,8.8795,-421.4914,-232.4879,-127.8481,-117.0153,-233.6248,-149.3621,-122.8099,-72.9666,152.8383
-386.4511,-505.2834,-275.9165,-291.1049,-57.6389,-45.3085,128.1046,110.3412,46.4395,42.0053,-428.3787,-309.2397,-157.6683,-164.3951,-209.4949,-108.2624,-171.0306,-66.3260,162.6923
-383.6617,-500.8985,-269.4748,-282.5924,-47.3008,-13.0410,124.5917,164.7037,33.5793,113.1363,-372.1782,-368.5325,-158.3416,-198.3819,-215.8745,-125.2749,-141.0139,-9.8780,136.4186
-326.4563,-415.8258,-196.7532,-167.4715,-17.1309,48.1232,111.4305,162.7876,-19.3565,85.7416,-308.8903,-335.7878,-143.9276,-193.1976,-237.5922,-172.6706,-53.1983,83.4478,102.8547
-286.5731,-311.1178,-108.0331,-74.7780,34.3243,101.8762,115.2278,114.8605,-19.3338,10.0224,-279.6581,-218.4608,-126.4996,-132.8539,-227.2621,-192.2780,25.1904,118.0209,92.3312
-255.5704,-239.3638,-60.6083,-72.4307,58.3040,100.2870,150.7531,73.4857,33.9433,-6.5454,-285.8434,-133.0406,-123.9159,-100.1949,-241.1394,-222.3649,39.8409,67.2130,101.5453
-227.4073,-256.7280,-80.7833,-108.1711,36.4983,35.6194,168.6404,48.7573,54.1839,4.7378,-300.1142,-171.6175,-152.5798,-174.5029,-326.0149,-275.8308,0.8841,41.6712,95.0468
-233.6654,-338.1364,-104.5135,-138.1873,10.3209,-3.8583,113.1753,20.7253,20.3789,-29.7877,-287.6442,-266.3722,-187.3526,-261.3218,-399.4929,-281.0923,-20.3283,89.2268,54.8913
-250.8751,-385.4474,-69.7941,-144.7366,13.7265,28.7923,38.0440,-8.2605,-12.6233,-78.9261,-252.0408,-294.9973,-201.2266,-254.4082,-388.9584,-245.5065,12.0770,125.5758,33.6867
-249.9700,-370.9597,-36.0253,-123.5051,45.2507,47.6976,61.9411,-18.0548,-5.9084,-91.5853,-256.0536,-241.6981,-203.1506,-207.5332,-342.8995,-239.3354,39.9739,106.7671,79.7642
-278.5459,-344.0740,-79.3721,-128.5904,77.6462,14.0947,159.9063,-9.1275,6.5942,-98.8395,-330.6683,-173.4696,-191.0890,-181.8010,-328.6797,-257.9822,0.0432,71.8908,134.3898
-352.1676,-337.9586,-159.9776,-193.5031,76.3522,4.6496,182.7863,3.9657,-26.5519,-124.7195,-390.4388,-160.8964,-157.8728,-169.2094,-342.0966,-277.4951,-77.4716,46.8416,130.2579
-391.4693,-359.2110,-198.6284,-254.9060,50.2173,30.3080,122.1850,24.3900,-67.5455,-131.4634,-350.6652,-231.3532,-148.1876,-190.1092,-357.7079,-289.5746,-124.0687,35.6061,107.6564
-362.2056,-390.7602,-189.9122,-276.7575,34.8954,28.5361,94.6427,52.6514,-53.0407,-109.2338,-279.3892,-317.1113,-196.6755,-227.3814,-381.5587,-253.0967,-143.5750,35.4863,109.2039
-341.7874,-405.5330,-182.2939,-299.6307,19.2566,16.0634,100.7524,69.2225,-25.8516,-82.9010,-283.0423,-318.4777,-239.0409,-196.3125,-402.2534,-186.5859,-169.6463,36.4025,111.7122
-385.2920,-417.9592,-198.7587,-307.6509,-11.3714,39.6807,80.9777,73.2963,-39.9600,-62.4332,-324.2829,-243.7217,-206.3992,-123.7395,-370.2207,-177.6871,-161.4388,45.7693,114.7159
-427.9879,-428.8322,-203.9837,-253.6606,-26.4536,58.6297,58.3355,59.8954,-67.0186,-100.4886,-321.5293,-179.3394,-158.2785,-125.3440,-311.9687,-227.7184,-84.1529,48.3201,107.0445
-385.4693,-377.1018,-162.6357,-191.6633,-36.7427,16.7045,21.0395,-26.3171,-119.1374,-249.4870,-303.6495,-168.6441,-186.6726,-193.1517,-337.3346,-289.8626,-11.2289,3.1922,25.8310
-294.7817,-279.6102,-99.9284,-176.1338,-70.9651,-46.7247,-72.0203,-172.6606,-222.2805,-391.7953,-307.3873,-204.6260,-245.8512,-238.4119,-432.9034,-351.8186,16.0384,-23.3201,-77.5211
-257.1975,-245.8629,-50.6901,-139.0739,-55.1267,-37.0694,-119.1251,-227.2506,-263.0548,-356.7912,-282.6339,-247.9186,-235.0300,-249.7455,-461.3200,-349.2159,67.2888,73.0169,-58.1094
-278.3954,-275.0469,-24.3705,-54.0778,48.9009,43.5381,-33.0370,-136.6746,-164.7752,-217.5269,-226.4692,-249.4666,-185.4150,-265.4245,-422.7253,-273.9494,117.4461,176.4072,36.0833
-310.6979,-299.5280,-63.5370,-57.4198,94.4749,47.7680,50.6546,-81.9480,-77.1806,-198.5797,-237.6429,-241.8996,-189.8365,-315.6483,-426.0670,-295.1037,34.2863,88.7173,24.2298
-382.8514,-368.6194,-188.3170,-226.7041,-6.9259,-99.7195,10.2785,-183.1107,-118.9025,-334.9692,-349.9794,-293.4765,-232.8596,-400.6178,-449.7210,-443.2294,-136.7556,-108.2484,-76.6967
-506.6500,-496.9999,-295.1145,-406.8761,-120.7258,-242.4033,-66.8066,-303.1792,-184.5856,-453.7841,-462.6511,-351.6390,-261.1003,-453.1887,-435.1004,-506.3949,-213.2763,-195.6757,-116.7446
-579.7830,-545.6149,-297.2972,-428.4256,-145.0428,-240.2325,-92.2996,-299.6051,-173.7501,-426.2056,-479.9216,-340.1876,-288.0290,-427.3813,-431.0738,-454.0173,-183.2727,-173.5769,-77.6476
-548.2771,-486.7621,-258.8819,-347.9777,-124.6878,-180.2719,-83.2463,-216.8136,-123.5091,-301.6239,-415.1642,-324.5870,-297.9347,-390.4849,-431.8027,-436.7734,-141.3505,-152.5555,-19.6651
-499.2200,-470.6004,-233.6435,-312.6679,-75.7590,-151.6951,-47.4224,-144.2525,-79.3949,-230.8549,-347.9438,-355.3239,-239.8244,-386.9629,-378.8529,-405.7070,-86.6077,-132.1065,38.4172
-503.0786,-528.5795,-190.1013,-337.3528,-11.8035,-106.4060,-5.3549,-99.6262,-55.4054,-273.7142,-334.3214,-348.9321,-175.2558,-352.2695,-358.0750,-290.7182,-45.9184,-103.1767,72.7547
-543.9944,-549.0339,-168.4180,-368.4004,-23.3831,-54.9509,-5.7798,-70.8949,-53.9728,-316.0290,-361.8043,-285.3745,-202.8366,-267.0040,-439.6767,-233.8729,-109.3737,-110.6771,73.6262
-593.4135,-509.8900,-224.2707,-405.2209,-97.9608,-67.0369,-7.9273,-49.3736,-41.1911,-265.6587,-381.7621,-247.9901,-272.2005,-206.2251,-489.3794,-262.9531,-202.6895,-132.1589,80.5592
-609.4062,-471.5521,-257.9231,-428.2142,-102.9174,-91.5295,47.6322,-44.3921,-9.9332,-211.8333,-370.1872,-234.1101,-287.7726,-204.0275,-427.5908,-250.3066,-163.1033,-110.2609,94.3133
-562.2349,-458.9646,-182.6894,-381.0038,-38.0107,-62.8688,87.2370,-71.8705,-9.8161,-237.7621,-336.0827,-202.6267,-269.2193,-226.6514,-365.4913,-246.5122,-35.8268,-68.9997,81.2670
-512.9290,-473.1401,-105.9122,-302.7810,-8.6936,-40.2778,45.6235,-93.6793,-34.0614,-252.9971,-296.0563,-198.3674,-257.8445,-242.0535,-356.2854,-309.0166,18.7658,-51.4444,68.8483
-523.0194,-496.0336,-122.9349,-299.3232,-4.5221,-58.1913,12.9715,-52.1086,-22.6131,-171.2567,-267.0383,-229.5796,-244.0048,-240.9842,-359.4504,-290.5463,-11.2307,-39.9343,97.8189
-544.1617,-497.0138,-162.4214,-366.4167,30.8564,-56.5869,56.8389,26.5724,12.7610,-65.3778,-255.2946,-231.9570,-239.9225,-238.5738,-391.7512,-181.8140,-44.5236,-18.6009,146.1205
-531.2017,-482.4053,-160.3698,-398.6898,59.4294,-22.6778,95.5494,75.6280,22.4198,-32.5905,-242.7939,-212.8025,-254.0455,-238.7053,-446.0356,-158.2327,-51.5549,-13.8793,168.8858
-524.7811,-456.4025,-153.2072,-345.6968,40.1195,-3.0457,69.8384,81.0145,12.2160,-76.0886,-215.3040,-201.1571,-245.2354,-205.8304,-446.3536,-200.8336,-36.0210,-33.9063,136.5003
-538.5859,-396.5885,-160.5914,-257.4232,-2.1769,-8.0730,40.9263,43.1350,0.0142,-168.1655,-189.5490,-155.9199,-206.4411,-150.8444,-383.4114,-202.9100,-12.3278,-42.8095,65.1557
-526.7169,-333.1729,-149.1261,-213.5933,-30.0414,-21.0420,50.8574,-38.5196,-18.6760,-291.2162,-176.9303,-97.8125,-175.3785,-154.2038,-302.2082,-238.8420,-0.7334,-26.0711,32.9208
-481.8186,-312.2912,-104.2510,-242.3054,-19.1612,-35.2219,51.4470,-114.0698,-37.9793,-407.2158,-150.5419,-115.8575,-158.0998,-225.5668,-241.8159,-342.5457,7.8918,-27.7038,61.4495
-443.5273,-305.7302,-58.3466,-297.0340,3.4300,-56.2870,8.5370,-148.8849,-58.7921,-469.4780,-94.8979,-176.7365,-163.3104,-282.7615,-270.2666,-394.8606,16.4186,-76.6326,59.6698
-441.4548,-295.0860,-56.4652,-327.9797,-33.9193,-97.1765,-37.7483,-181.6491,-92.4190,-456.4290,-59.4260,-179.1237,-219.6779,-285.4943,-376.7105,-366.7319,-1.9145,-125.0829,0.8751
-473.9270,-308.2452,-93.7007,-332.2937,-103.7670,-133.0350,-38.0291,-214.3487,-117.3077,-383.9048,-94.7190,-139.1043,-285.2433,-251.1802,-418.3098,-320.4776,-21.1499,-112.7411,-19.6971
-497.1043,-313.3611,-110.5649,-310.3644,-84.1830,-106.4268,3.7690,-188.1950,-110.3932,-309.8393,-152.5806,-116.4485,-279.9153,-203.3403,-363.3170,-268.4955,11.7727,-42.8702,27.0145
-472.2964,-276.9798,-88.6888,-272.6845,21.4717,-35.3736,44.9871,-123.3097,-92.2207,-287.6745,-142.9435,-106.3708,-209.0038,-184.4083,-326.1349,-237.6822,44.2337,25.5616,70.1993
-442.3739,-259.7300,-83.3577,-280.4602,82.1518,-13.9088,56.8778,-103.2326,-78.7553,-295.7775,-81.9761,-110.5280,-140.6334,-209.8490,-300.8040,-268.1932,-10.3002,16.0784,74.8019
-469.4661,-283.0041,-129.5313,-355.4704,54.0454,-68.2520,44.4504,-127.0334,-64.8299,-283.3441,-67.2327,-143.2146,-129.8885,-224.5984,-229.0497,-312.6560,-105.6733,-87.8332,40.9102
-526.7604,-288.3819,-199.8563,-419.0681,-8.9891,-123.9770,11.7809,-134.6707,-69.0857,-267.2066,-112.9314,-171.1966,-192.8414,-201.5561,-218.3954,-294.9620,-142.4451,-179.1803,-23.1610
-553.6599,-288.8756,-247.1677,-419.1360,-67.8473,-117.7476,-42.0262,-117.4790,-95.0632,-282.7042,-137.0393,-170.6774,-257.7653,-182.7198,-325.4976,-212.6355,-119.3107,-155.3799,-52.2231
-544.8113,-318.3798,-230.1193,-389.0849,-81.8085,-63.4930,-71.1152,-100.7385,-95.1824,-303.6563,-101.2474,-158.1858,-228.1084,-181.2632,-388.3833,-150.9342,-76.7177,-74.2598,-4.9878
-512.1874,-312.1289,-150.1904,-340.1865,-26.2242,-11.3649,-28.2999,-95.6889,-69.8808,-310.5629,-45.7685,-128.5830,-155.3381,-168.5211,-328.7086,-192.3294,-19.5899,-26.7362,42.4670
-457.0513,-237.7889,-71.8520,-254.6813,37.1030,28.3177,21.1109,-100.6761,-92.2965,-322.6118,-5.8831,-76.0710,-157.2202,-137.0612,-269.8460,-246.8257,32.2527,17.6809,24.9303
-408.3037,-163.4848,-41.6199,-175.9097,46.0734,76.7040,-12.8214,-98.9408,-160.4656,-314.7762,14.3007,-35.5960,-189.8378,-103.1571,-260.5074,-172.5811,45.2946,75.2418,-14.0717
-397.8745,-127.1889,-38.4307,-172.4067,23.5061,97.4184,-73.8081,-87.0402,-187.1446,-269.7230,14.6134,-28.8903,-154.9886,-103.4728,-235.6983,-100.5444,33.5126,65.8083,-32.2052
-412.4974,-143.1275,-44.5997,-247.7088,-7.7444,33.6423,-74.9126,-99.3928,-170.1140,-264.5569,4.1064,-52.8480,-112.5449,-162.6179,-213.4076,-202.3669,20.7173,-10.1539,-38.4035
-425.1072,-236.2879,-68.6281,-340.2277,-51.0190,-58.1250,-69.2992,-137.4704,-175.8324,-313.9840,5.0134,-108.6535,-142.1688,-215.1591,-246.0994,-273.0023,-4.8536,-46.7750,-31.2378
-427.8683,-323.4254,-93.1125,-373.2725,-68.3849,-77.3576,-104.0268,-141.3580,-183.8032,-296.2292,23.3001,-156.0734,-186.2621,-177.9103,-283.9813,-124.8726,-36.4973,-23.0510,-21.0215
-420.1176,-289.8876,-94.4460,-326.6243,-35.9279,-44.6102,-110.6759,-100.3166,-155.9781,-206.5160,41.9940,-133.8754,-185.8724,-97.6843,-257.5441,-8.6664,-41.2242,-4.0560,-48.4961
-414.3158,-209.7902,-81.2999,-270.6105,2.3906,-31.2520,-82.7542,-84.3679,-151.6468,-199.3635,56.3786,-74.8396,-153.2245,-72.4336,-182.0847,-104.3318,-28.9336,-1.8280,-103.0574
-430.0305,-215.6992,-67.8368,-270.6693,28.1458,-31.0587,-94.5900,-120.6008,-191.9289,-279.7364,80.6229,-63.8314,-91.3230,-98.8579,-120.9730,-197.1689,-32.5281,7.7671,-122.0517
-446.3149,-258.5997,-62.3961,-296.9898,67.4452,-21.2464,-119.0864,-150.8335,-197.3273,-300.1893,108.1517,-89.0418,-33.5375,-125.1436,-123.7897,-165.4875,-38.4036,22.4592,-93.6933
-416.1893,-236.4921,-68.2667,-290.2793,103.5947,-11.3245,-90.1652,-131.3028,-163.6246,-251.3701,117.0897,-72.4889,-44.0189,-133.3821,-178.4407,-119.7754,-19.7566,36.0255,-63.6929
-350.0724,-179.7313,-61.1208,-245.7316,110.9835,0.4281,-45.9060,-92.0208,-158.4626,-225.1594,121.9011,-9.0211,-73.1478,-115.1907,-200.3971,-77.5324,15.5156,39.7932,-56.9941
-314.3795,-160.3311,-24.4885,-193.2298,117.1666,6.6468,-31.8826,-88.1874,-155.6841,-218.7926,144.1620,28.9679,-33.3532,-81.4430,-141.8016,-32.7961,60.6379,29.3160,-66.5633
-336.2747,-179.8837,7.0457,-155.9771,128.9367,-12.0853,-41.8915,-125.6606,-117.2515,-210.1040,149.5240,1.4799,-1.2985,-74.4063,-81.5575,-56.2481,113.7740,42.2104,-87.6365
-371.8707,-190.5976,9.7745,-135.8868,107.7057,-31.8075,-83.8083,-157.4414,-103.8046,-223.1744,117.3757,-38.1976,-74.2098,-108.0069,-103.0262,-98.8018,139.3433,92.4577,-113.0014
-370.3809,-155.0149,7.8267,-121.6625,61.8510,-30.8977,-124.5738,-158.9831,-122.8812,-224.9888,105.9214,-23.0169,-156.6929,-154.4570,-152.8037,-85.6121,112.4156,105.4478,-116.8261
-331.7034,-108.2429,5.4515,-118.9692,39.0996,-36.9798,-88.6458,-147.0722,-91.2746,-165.3674,127.6607,13.6946,-137.0280,-180.4681,-138.4742,-79.2933,67.4689,42.8256,-74.0763
-301.3908,-117.4129,-17.0874,-140.4916,40.8633,-48.4889,-5.3195,-111.5902,-16.1950,-83.5877,96.9469,8.4219,-67.7270,-156.0507,-69.2635,-73.4911,35.0112,-15.1989,6.3063
-313.9977,-160.5012,-47.8289,-175.9694,39.7118,-34.3434,39.4723,-33.8798,22.2469,-38.4289,8.7833,3.5695,-20.4046,-86.8186,-3.3508,2.8486,-1.9558,-23.2132,80.0285
-345.2023,-179.7147,-73.5875,-223.0837,29.1166,-19.2358,51.6449,36.1760,16.5310,-40.1631,-28.3005,45.7795,6.6642,-22.6668,30.2783,66.8845,-48.3849,-43.5812,108.4207
-346.7816,-202.6786,-102.4709,-285.2040,13.1554,-31.6680,57.5437,47.8649,-0.6870,-73.3922,8.5512,62.9591,13.4889,16.1942,19.9310,70.3228,-76.0744,-92.7233,99.8833
-317.8898,-243.3712,-115.2768,-310.4483,5.0501,-42.7925,52.9797,36.8612,-7.4396,-88.3238,47.7188,28.1737,14.0667,40.9023,-10.4726,112.6718,-76.6015,-104.8174,91.7708
-294.0494,-225.2844,-93.4956,-251.3235,19.8813,-41.5380,71.5604,38.0447,17.2298,-49.3268,77.1999,45.5276,29.9600,33.9269,-17.1642,151.9612,-68.5906,-73.9508,86.7975
-287.2398,-135.5846,-73.3233,-159.2786,32.0771,-45.1216,99.1732,26.9229,37.5579,-9.1114,103.4755,126.4030,9.7084,2.0700,-21.3818,83.9365,-58.2225,-52.1122,51.3416
-282.3528,-62.0770,-74.8768,-91.4539,5.4424,-38.7444,52.4320,5.7906,2.2520,-9.1967,89.0092,149.8792,-57.0885,0.9366,-39.4142,20.7311,-30.3221,-36.2339,-2.0870
-258.4247,-38.1009,-56.0737,-25.7487,-28.6138,-15.6679,-13.5878,7.5209,-30.7199,1.1742,66.3934,108.8211,-46.9830,29.7204,7.6699,42.6238,23.8145,-0.1643,-5.6471
-199.1585,-34.9426,-8.1630,37.2003,-16.1581,5.7601,34.1306,25.3733,4.9824,43.3982,109.0177,109.4359,54.6880,47.5096,105.9992,45.3841,70.8315,40.3102,45.4279
-130.1313,-41.4333,7.1709,45.5906,15.9761,38.7539,120.0630,49.9478,45.8909,71.4429,161.0234,159.3148,72.7770,72.3241,86.4563,42.0853,51.8018,75.2751,61.4202
-114.5049,-39.9566,-42.8138,-0.2439,0.5194,78.2598,84.9917,84.7450,25.4749,78.2579,134.8112,185.3373,-18.2909,102.8279,-40.3558,105.9756,-33.3011,99.1597,0.2973
-156.8845,-30.8900,-112.7570,-60.6981,-57.9488,58.6538,-19.5207,81.4034,-27.5895,73.6006,93.0790,159.7360,-38.0033,72.3894,-48.1835,132.3868,-106.6322,64.2011,-67.4038
-176.9369,-59.6146,-144.0292,-113.8748,-99.0796,-24.0604,-58.9626,7.8325,-74.3525,34.4242,114.4941,101.3557,43.7708,0.6012,82.0914,85.3893,-114.9934,-30.1587,-82.1613
-127.1328,-95.8760,-131.0708,-124.7102,-102.3950,-76.8862,-35.1219,-54.1315,-84.9437,-15.7092,144.1630,71.0128,93.7430,-8.6624,152.1774,92.3785,-84.3583,-81.4755,-66.9844
-58.2934,-54.1437,-112.4573,-86.4076,-86.0705,-55.0414,-4.5792,-31.9376,-43.3093,-18.0644,137.8434,127.4557,102.3886,52.4305,132.1543,135.0565,-56.0325,-37.6733,-40.2726
-33.7376,8.1085,-108.2489,-74.9577,-44.4699,-5.5616,20.5677,24.3189,-0.7294,20.3759,149.6085,209.4207,125.3725,117.4163,114.8956,131.1201,-45.2696,24.4938,24.0653
-44.2592,-18.8936,-103.3919,-126.1158,19.4695,21.9997,40.9608,59.9292,12.1797,67.2138,185.1243,209.9664,107.8374,167.7383,73.5620,154.6702,-54.0440,39.2066,112.6156
-35.6535,-65.3035,-95.9045,-161.7714,42.5263,18.5858,56.6401,92.2213,42.3587,119.3794,171.2663,158.9574,32.8186,195.0695,10.6335,214.9452,-57.7198,26.7852,157.3262
8.4816,-35.0372,-88.3961,-123.8494,2.3297,20.6723,66.6904,121.2391,78.8209,149.1919,112.4435,146.1373,17.6743,189.7094,51.3487,213.2151,-10.0939,34.1071,144.0629
49.6220,-2.4003,-43.9782,-36.0831,2.6733,75.0181,71.6315,116.0455,72.4875,128.1619,109.3063,173.4360,110.3772,198.9233,192.4868,187.8369,91.6322,97.8545,131.1646
70.4633,-12.0687,50.8186,67.2692,107.9430,149.2176,83.6868,86.5952,68.4305,95.2362,197.8818,219.4371,204.2660,243.6951,272.5074,182.1892,180.3643,195.5432,126.3559
95.9960,21.0694,125.4386,144.1345,199.4268,160.9803,84.5288,70.0773,81.0229,93.8266,287.8956,268.2716,209.5676,260.0095,236.0793,134.7048,187.0759,230.5433,77.2835
113.2552,83.8908,124.8350,153.8813,164.6909,115.7024,41.3472,82.6532,34.4133,115.7288,295.5341,259.9776,156.7984,228.6161,172.0765,121.8340,123.8256,176.7442,9.7239
91.5338,85.0095,88.5804,130.0160,79.9549,83.7042,1.5664,109.6811,-28.8938,141.9080,255.6065,203.2940,121.0199,199.2635,140.1478,212.1298,75.9332,129.0528,3.0318
87.6539,82.6108,70.8390,134.1745,49.9797,65.2169,22.8854,101.2528,-3.3049,138.5600,245.7682,204.6093,124.5082,163.8996,140.4158,198.8170,98.7428,118.8292,28.0138
168.3250,158.8282,83.8180,158.7794,54.0070,18.9314,51.1198,21.9588,51.5541,64.7329,268.3417,256.9851,143.6909,101.2413,194.6873,14.6326,155.5084,83.6334,7.9565
266.7252,222.8753,120.1071,165.5005,55.9233,-30.1395,35.4209,-71.4716,57.3679,-32.1487,277.4511,252.6102,179.0232,79.2152,313.2685,-52.8269,179.4385,36.8471,-18.9569
285.1131,200.3620,139.1671,139.5323,64.8600,-36.2912,19.0032,-92.3573,63.2755,-45.1803,258.7764,216.9846,227.4249,133.0421,389.8913,70.1470,144.7704,21.1909,-0.5925
251.0408,175.9205,95.6199,79.7229,53.5055,-28.8558,9.5724,-56.6236,64.1506,19.1192,227.2524,232.1465,219.8532,177.5999,299.7752,135.3257,70.0406,-18.3035,1.6797
243.8718,199.5246,30.0741,23.4848,0.2892,-58.9128,-25.6591,-45.6924,16.4751,39.6967,209.3824,246.8674,134.8351,169.8223,138.6484,106.7274,13.5044,-99.9106,-44.0791
282.6969,213.7244,20.2924,24.9618,-35.3197,-94.7532,-47.3765,-69.4286,-0.3100,-19.5774,236.1505,217.6475,83.9512,177.7840,118.1086,128.8529,25.6767,-133.0068,-63.0793
334.3528,196.5310,48.9254,53.6752,-18.5024,-74.3473,-29.9598,-70.9538,44.2610,-46.0631,288.6543,209.7697,119.7239,214.9970,214.3217,176.3610,58.6059,-105.8251,-30.3304
339.1365,165.0625,48.6022,31.4853,-0.5714,-29.1392,-25.3148,-27.9525,49.2270,44.6558,298.2487,221.3686,143.1090,210.1478,255.7431,199.7227,27.5074,-97.4151,8.9900
277.5428,123.0718,20.1675,-31.9028,5.0248,-31.2345,-24.5520,36.5475,34.4107,177.2550,252.8450,186.7074,127.6763,171.6684,260.9924,236.7137,-35.0448,-94.6192,60.8979
233.8681,113.5093,-7.2920,-69.4833,41.0658,-59.1436,34.1698,102.3921,100.2965,235.4041,213.4110,146.6862,163.4589,175.7550,317.1585,244.1160,-46.1225,-47.1806,130.5701
271.4727,168.8816,-39.1136,-62.3348,76.7303,-56.8188,113.9993,148.6062,179.8009,228.3473,204.3976,162.6334,232.6898,202.2273,352.9554,203.1376,-28.3626,-9.5099,151.7430
312.9809,216.4199,-63.4618,-18.4274,42.7177,-45.8421,133.9580,149.6976,181.7067,239.3966,195.5041,186.9501,237.6183,181.0870,322.7481,215.4167,-28.2401,-26.4496,101.8012
287.2581,194.5868,-45.3232,53.5413,-19.9370,-46.5910,95.3480,119.2145,165.4779,280.0716,179.7812,179.6344,194.4901,144.6614,297.7270,263.5569,-13.5791,-32.1158,46.5615
253.8806,159.2855,0.8989,105.7176,-19.1584,-23.7551,40.4803,98.0464,168.4861,295.2161,175.5426,170.4747,165.3279,149.4487,286.7923,233.9530,19.6420,8.3393,20.6343
275.2527,165.3441,32.1805,97.2239,24.2027,2.7236,-5.0878,79.1620,144.9364,249.5948,184.4909,170.5376,148.5504,154.1609,279.6018,173.7705,21.5811,25.2046,-8.2075
330.0044,204.1200,52.4595,74.0921,27.5339,-24.9334,-31.7613,26.1577,95.0171,154.2746,200.6054,182.1380,152.1523,128.1315,318.6829,165.0355,8.6892,-12.0547,-67.2753
380.1997,269.6718,82.4347,100.4082,-0.8025,-65.6295,-56.4685,-37.3413,31.6100,60.4414,216.4225,213.1084,180.5825,121.6914,343.2076,157.5407,21.1712,-29.8233,-139.9382
396.2453,320.6160,105.2267,147.9461,0.2243,-51.1122,-90.1723,-60.1524,-51.0543,17.3772,220.1788,213.7656,177.6355,135.6393,276.3972,142.1114,34.7071,14.2336,-169.4551
371.6487,281.6942,116.1332,159.1318,26.2332,-12.9984,-105.5848,-52.8880,-100.0939,13.1004,223.7799,163.0330,144.2682,123.3449,230.4916,173.3484,56.4947,57.4746,-120.3734
359.3549,207.0502,151.7474,166.4139,44.0476,8.0692,-89.7288,-40.7885,-79.1343,19.8148,247.0371,160.9469,154.1254,128.3571,283.4580,210.2095,130.9609,51.7182,-48.1237
393.3422,240.4848,206.0428,222.0187,58.7237,26.2041,-61.3291,-0.3330,-45.0034,62.9564,263.8064,250.9075,185.3934,195.3802,322.9642,211.0733,190.8327,33.2230,-28.2540
424.9516,364.0706,211.7354,265.8558,60.8969,20.5781,-30.5238,63.4974,-22.2517,147.4262,240.8795,309.6854,170.2904,231.9384,323.6499,218.2344,138.5482,18.0136,-47.8008
423.5940,433.5408,156.6240,221.5044,19.2164,-31.2526,-10.2181,85.3564,31.5479,204.0703,207.1424,261.8499,155.8367,171.8609,365.9537,211.6158,40.0899,-18.6548,-53.7793
414.2518,423.7149,106.2922,155.4552,-30.2575,-57.0919,-4.7674,59.3232,112.8557,200.8058,202.4373,195.8003,189.3283,119.2594,396.5828,141.7339,6.7277,-29.9181,-28.6357
389.1995,400.8632,78.3535,162.4347,-20.4675,1.7405,25.9710,63.5714,175.4922,187.5021,215.7297,191.0184,211.7775,164.8212,365.0001,94.3361,5.9644,36.5631,26.9811
340.0309,371.0426,28.3455,194.2781,20.1543,76.6000,81.2336,114.6878,180.6181,185.2405,234.4465,220.1027,209.7171,239.6350,353.2023,169.5909,-25.5072,92.3275,77.5252
324.1401,337.3753,-25.7072,174.5466,16.9985,79.6983,74.1571,126.9361,106.5908,160.9494,261.4172,228.2854,233.0708,242.7064,354.2614,285.0075,-47.1704,46.1493,48.9412
364.8633,344.3482,-8.1679,138.8110,-12.2064,14.3405,-7.1253,53.0836,14.8234,112.4111,262.5557,199.3536,245.0085,167.1468,305.5316,268.6216,-6.1254,-26.1292,-49.9123
408.3591,380.0403,88.1207,136.7209,6.5592,-58.9828,-43.3088,-43.1001,12.6942,73.8359,219.0070,175.4251,209.3416,89.5766,299.4004,105.7978,83.0859,-33.1431,-100.5244
444.0444,398.8625,190.5949,160.9943,75.7506,-76.4334,13.7616,-77.8327,78.6803,66.1664,195.8318,207.5274,208.2959,97.8621,378.8703,7.4411,168.2100,-0.7237,-51.4216
495.3353,413.5379,226.9007,208.5938,121.3091,-23.2905,59.9963,-31.7757,99.5309,98.3329,229.0497,255.3792,259.7272,178.1462,391.0616,130.7421,178.3429,39.7083,10.6887
505.1678,427.7264,165.8747,258.1888,90.5657,30.5400,21.8876,58.4173,66.2738,166.9203,242.4834,241.5619,244.7001,216.5833,291.3588,300.0231,84.7767,76.1322,11.5982
424.3676,395.3638,53.5721,253.1101,19.1980,25.0087,-39.2150,132.5065,47.1995,228.1575,195.7507,195.5222,152.5815,186.6664,222.5597,286.0073,-18.7549,61.4281,-14.7732
346.6011,334.3844,4.6222,211.2827,-13.4874,12.1563,-47.4298,148.5851,55.6746,230.7695,166.1552,189.3500,119.4141,189.2619,243.4863,214.3312,-16.3899,18.1050,-5.5918
377.4826,322.4167,66.3686,213.4036,4.9280,57.2196,-18.2900,133.2745,66.8386,196.3114,195.3668,203.9840,176.1428,244.3204,297.8683,277.6577,58.3559,43.3255,41.0358
467.8408,362.4758,143.2010,258.0936,16.9068,113.2060,5.1369,145.9222,64.9792,201.6855,224.9928,203.6960,224.0320,255.1461,333.7582,340.9738,87.1193,116.1427,82.8505
514.7484,404.1674,136.4158,285.5040,8.4310,111.2821,41.6883,182.4819,63.5735,261.6600,217.7956,215.2201,225.1572,209.6591,309.4783,279.9645,54.2864,127.6796,107.9767
508.2963,437.7129,72.0454,283.0370,22.0483,77.4685,124.7889,194.8534,119.6086,309.7609,189.0742,245.2745,213.8638,193.7744,265.5304,251.0746,30.1910,85.7572,142.7622
484.8870,454.4176,34.0836,253.7226,63.7303,56.3898,220.2131,183.6076,232.9057,313.1286,153.7637,258.8189,205.8705,216.5388,312.4845,291.5079,32.5766,64.2036,178.6740
460.4484,429.5701,59.5614,199.2643,100.3724,31.0724,264.9526,172.5222,285.3546,301.9846,143.7674,242.8739,211.5638,208.3187,408.5032,230.8961,32.8221,57.6162,167.1966
457.7263,397.7407,120.6606,167.6539,112.9444,-5.3514,239.2063,151.0398,222.2554,286.0921,183.2733,197.8766,246.2994,154.9654,409.8388,129.0057,29.6403,44.0636,105.0073
488.5077,413.1806,153.3017,191.8392,90.5163,-15.3878,166.7504,126.8202,148.5418,258.7589,221.3320,143.4324,299.1908,115.2625,363.3886,191.6893,21.5530,45.5772,43.6097
511.7530,449.2448,121.6762,229.8673,42.4884,4.9826,103.6277,134.2048,138.3615,244.9604,208.7837,143.4232,345.0732,134.7623,404.7381,331.1848,-5.9525,66.8990,19.8407
494.4490,451.9045,72.4042,246.9794,21.2853,23.1396,103.9601,148.4625,157.5020,245.3197,189.0596,207.2347,353.1539,182.4550,471.8964,334.0502,-17.2578,89.0361,33.8576
464.4202,426.8038,74.3514,255.5510,48.3782,31.5681,143.0155,115.8116,188.3285,216.9928,202.9680,245.3927,298.9900,180.2937,436.8770,240.2434,24.4040,92.0044,49.6775
453.3224,400.4226,115.1706,257.9069,65.4477,25.0024,141.7875,55.1085,213.0240,168.3777,211.8615,218.4440,227.4516,118.7687,337.9465,196.9208,52.1105,52.9874,10.2855
456.9116,379.9456,125.9842,247.3095,29.4832,-9.5980,84.3938,21.6391,169.4868,159.7494,187.8094,177.8121,219.7453,82.7602,276.9776,208.5101,-0.0422,0.3617,-69.1513
453.9911,365.5379,89.5271,222.2675,-22.6868,-33.8966,24.5363,30.5710,92.0153,197.9669,160.5440,137.6192,257.9907,110.6966,281.0034,214.7520,-61.0785,-0.3927,-84.9125
417.5537,338.6431,52.8592,164.3096,-45.6035,-9.6242,3.1563,72.0011,100.6660,236.5118,150.3425,94.4044,256.2506,146.5141,336.3557,207.4340,-63.3735,25.2324,-8.7749
352.0368,286.0592,42.2568,86.3376,-41.8046,16.5298,24.9230,127.6113,172.1812,259.9661,139.7576,106.4811,215.1994,173.5576,400.9145,219.4111,-71.7137,3.2572,60.0821
311.0438,250.2424,31.2832,60.3255,-30.9040,14.7802,66.4825,174.0947,178.3604,287.4425,108.9491,182.6701,196.5608,228.7222,400.2527,273.4981,-120.6090,-26.3784,70.3276
321.5639,269.7661,5.6801,108.9705,-14.9791,38.9566,91.0724,200.2865,131.9379,306.1227,77.8700,229.1064,203.6090,274.4275,308.4181,326.3524,-126.8325,3.5304,69.3454
365.0628,314.6555,0.9106,169.8520,11.9141,78.6493,84.6640,182.3412,126.7197,268.3848,99.8118,209.0025,205.7535,241.7198,194.5758,311.8249,-61.0905,30.7837,63.9887
437.8747,359.9379,45.6873,216.3174,38.8096,54.2748,53.1012,105.2154,140.2279,193.0531,166.7556,187.0593,202.3113,169.9934,162.5301,251.2884,12.6579,3.1126,22.1129
501.0624,417.0498,116.0301,281.1049,50.1536,10.0810,10.6468,45.9005,118.5204,185.2121,185.5827,194.6347,207.0208,142.3440,250.2408,213.3994,71.9694,7.4842,-25.0304
472.6287,457.6179,167.8285,352.7153,60.2916,47.1492,-2.5470,77.9776,90.7702,255.1811,132.4188,200.2299,226.0852,150.5773,365.7732,206.5999,117.6085,90.5847,-42.8114
409.1974,457.5100,180.3576,382.1179,88.4049,108.0007,24.3657,116.4496,73.6833,264.7243,107.9346,180.4516,241.3158,139.0437,372.9030,207.4709,118.8185,162.1181,-64.2274
470.6145,483.0702,171.1463,379.9778,111.4054,97.1465,29.8039,67.0172,51.6836,176.3256,167.6191,140.8254,219.2388,100.0112,275.9999,204.1322,101.4601,177.4735,-101.3512
627.6696,575.5679,184.5349,400.7753,99.1426,75.6808,-6.3360,4.5908,48.9801,120.9322,255.4118,117.3066,180.0774,69.7692,203.6312,182.3781,125.8738,189.9335,-115.0891
718.9252,658.7192,232.3835,440.9208,63.4835,112.9188,-25.7089,10.5733,56.5920,144.9391,313.0824,143.8521,174.5925,89.0791,191.2508,165.9277,151.0931,196.2371,-103.2220
741.5637,678.1433,258.5395,431.7923,31.6711,146.0470,-23.8198,51.3018,24.2480,187.5351,306.9703,181.9725,173.4917,158.2326,166.8470,209.4790,107.7045,147.6181,-85.6176
754.2844,663.4476,219.3820,347.9195,19.6103,128.4959,-25.3233,117.8691,7.8381,258.3593,227.5193,169.8475,134.0819,218.8917,148.9586,290.7722,36.1617,82.0803,-43.4363
694.7212,615.2256,151.2436,259.3402,28.2143,111.7125,17.7213,223.7419,76.6004,348.9304,149.2862,134.9671,119.7779,232.6877,217.5320,329.8800,-6.1226,68.6948,16.2204
558.3776,531.5123,99.0946,236.7930,27.1862,131.7269,95.2310,295.6151,117.0804,366.9670,148.7552,137.7740,168.7161,230.9707,307.1716,316.1458,-39.9027,94.1845,34.1373
472.0583,489.6602,62.6948,262.5551,-2.4073,169.9119,97.5925,293.1176,35.6392,334.8862,181.2449,159.6345,196.0452,228.5353,286.9236,296.0545,-75.0648,115.2809,9.5057
471.6362,513.5135,48.7359,277.6773,-14.1165,193.9581,46.6247,282.4160,-26.2425,346.1386,186.4292,156.0653,173.9710,195.2875,196.9758,290.2320,-80.8339,121.6462,7.1949
485.6740,505.2200,72.1626,261.2948,24.2515,167.2079,72.1416,275.2291,40.3596,345.1683,183.8953,136.3652,175.3751,151.0247,167.6694,293.0249,-58.2023,106.7481,30.1276
488.7348,441.3473,104.5953,239.7454,58.7279,94.7641,140.3934,222.2776,124.7270,273.8853,168.4790,123.3605,186.2318,144.6316,198.0728,280.5361,-26.4199,76.4349,22.8673
479.8731,419.7313,110.0596,251.0131,44.0768,44.7303,132.6847,155.3308,150.7117,218.8271,113.0789,116.1048,144.6355,143.8510,216.4132,221.7675,4.3829,61.9943,-11.2085
454.6656,448.8400,94.8713,285.8258,6.5870,45.2219,81.7005,126.6124,168.8140,205.9943,74.2127,108.7804,103.6920,92.8265,223.4622,137.8540,0.6443,61.0067,-24.7279
438.0667,430.1587,75.1630,281.4184,-27.4580,40.4862,59.8454,117.7893,173.1675,187.8304,94.4784,93.1735,118.0984,26.7607,226.0182,97.4931,-47.7118,42.1745,-19.5350
419.7903,350.0726,60.6826,231.8072,-50.2347,5.6345,37.7910,124.0961,154.0774,223.5641,114.9088,63.4246,133.3963,10.5365,190.6065,139.4367,-68.1549,21.0542,-14.9849
372.5238,288.4945,70.5674,222.0026,-40.4639,-1.8511,16.1607,172.8104,205.9068,327.5013,114.5259,35.4175,133.5040,44.7556,148.4229,241.0353,-12.7854,31.9721,21.5134
349.3889,284.0912,101.3575,269.8623,4.2392,55.0688,65.4579,241.8068,333.5076,361.6017,138.5233,35.4919,172.7401,98.8231,174.4092,324.4680,46.3852,57.5537,107.2770
374.9838,311.4087,118.4565,275.8624,60.9429,124.9022,169.6539,281.0634,369.8873,302.9775,163.2074,78.3718,227.0845,154.4235,240.0388,316.7756,32.4548,60.5937,167.1091
370.0419,322.8132,107.2316,204.1370,111.3454,135.8975,217.6981,272.0723,237.6550,271.6380,144.3740,147.4236,234.6283,198.5696,253.9636,269.6729,-26.5666,29.9024,131.9951
325.8365,287.2795,78.0778,141.3524,123.4473,92.6120,160.9178,230.8278,64.4689,267.7184,122.3841,179.1243,220.8201,221.1839,220.5996,298.5664,-71.6806,-18.6899,54.1443
312.2287,245.0139,47.1459,139.8382,82.6550,61.3891,64.5624,193.2033,-30.1330,223.9631,124.9271,127.7883,220.3473,206.5113,199.4826,352.8069,-84.7263,-45.5107,15.3377
309.3047,261.6803,50.4503,163.3433,49.5145,61.2417,0.7295,162.8976,-71.3479,171.9111,107.6049,52.6454,197.1263,145.1435,173.0632,275.5165,-53.0536,-39.9452,4.7570
286.8854,305.0877,102.9067,179.8111,64.9972,47.8616,-35.3325,106.5677,-105.3490,141.3969,56.3671,39.5498,132.4689,83.7335,110.3098,108.5664,24.6281,-48.8188,-4.5909
294.3601,288.5245,145.3848,193.7480,67.8519,22.6115,-68.6202,53.7571,-91.7898,113.5782,9.2757,63.4180,66.4295,83.9257,63.5803,46.5797,91.5811,-73.5592,17.9796
318.7516,225.9363,128.6028,215.9564,18.0570,31.4675,-82.2786,66.6851,-13.9683,106.6158,-4.6155,54.0586,30.8551,113.8584,63.8888,112.7367,97.1973,-54.5991,59.9287
312.3779,208.2475,97.2679,241.8033,-33.3524,44.5938,-71.8660,99.6865,36.8975,133.8486,21.9987,30.5711,31.2342,95.0548,64.3923,168.3775,82.9936,-15.6270,49.6998
331.3832,254.0877,105.5938,240.9371,-52.6352,-1.4856,-63.0938,83.7465,21.6977,169.1063,57.7822,40.6944,61.9377,38.4126,72.7592,171.9723,112.5497,-24.9228,1.9595
395.2507,296.5740,143.1676,206.1328,-48.6547,-57.8107,-50.8292,67.1641,24.3843,198.0723,60.4963,61.8551,91.8241,12.7871,120.7537,180.2970,172.2203,-34.2589,-3.2546
413.5630,291.7621,187.1517,194.8448,-19.1419,-35.9176,-35.7512,87.5360,49.4420,199.1760,62.8774,65.5593,87.9608,32.8773,114.9299,184.3659,208.6453,9.2245,16.7051
379.0638,260.3404,213.1046,229.0979,12.8764,23.6555,-53.1680,83.4220,19.2352,160.3223,97.8516,71.6687,66.4424,70.3446,16.4313,136.6532,184.8702,22.3823,-4.4868
339.5034,222.7265,167.8756,220.4075,3.9707,22.5902,-68.3094,42.2130,-1.2728,130.0487,78.2165,80.2116,67.0160,100.2269,10.9659,72.4089,80.7766,-41.4662,-34.4703
251.0889,160.1304,44.8420,112.9606,-30.3653,-34.2984,-15.3308,18.2696,72.1451,123.8521,-43.1851,60.5173,86.5309,94.8551,155.6777,74.3440,-61.0376,-100.8335,-14.8205
142.2021,91.4572,-62.0674,1.7654,-46.7229,-80.4568,40.2623,8.4094,118.3350,99.2269,-122.3163,25.9840,90.7483,51.7925,193.6122,147.2194,-127.0718,-121.3934,18.8789
167.5986,105.6503,-62.9427,-7.1418,-37.3195,-97.2986,15.2283,-9.6046,51.0370,78.5639,-53.1709,15.4646,77.7814,17.3929,44.1901,207.3318,-75.8799,-135.6729,16.4343
312.4635,206.6952,19.1695,47.8195,-4.6088,-100.3900,-13.4907,-11.5404,2.1016,96.4501,45.5369,11.8394,77.5819,17.1048,-16.2537,193.0143,-6.4507,-134.6362,5.6986
378.0696,248.4283,80.3220,60.7826,29.0341,-100.2536,28.1363,11.0995,42.7124,116.1137,46.6713,-25.2838,101.0367,14.9422,108.5203,130.2679,-11.2320,-130.5891,26.5539
307.1507,166.4504,46.0253,11.9275,10.7589,-106.1373,68.1363,38.4774,87.1402,139.4285,-4.8916,-68.8781,126.6092,-10.0336,186.9416,82.8868,-75.4136,-159.9537,52.8529
217.0758,98.0867,-52.0791,-28.0451,-48.1865,-107.6500,47.6587,54.3658,94.9844,166.8451,-28.9906,-56.7499,123.2892,-19.2023,130.3127,83.6466,-142.8504,-158.8233,31.4195
178.9350,135.0659,-116.6770,-12.8027,-74.8804,-74.0746,-6.1373,36.9650,54.5030,102.1018,-26.8276,-5.0926,82.6406,10.4985,82.6545,111.9778,-171.0003,-68.0729,-30.7033
174.0484,179.7734,-109.1984,15.4099,-72.3545,-15.8732,-71.1077,0.9151,-46.3072,-21.7552,-24.2198,-4.8239,45.2500,32.0611,95.5966,109.5277,-148.9490,13.8892,-63.6330
175.7511,147.6273,-78.2851,-6.9298,-90.6011,5.2415,-111.2656,0.5328,-97.2647,-15.0964,-26.8954,-78.8138,56.3763,1.6503,100.1966,49.7675,-122.5427,-4.8201,-34.9123
174.7083,85.6067,-65.8327,-69.9652,-94.1327,-38.0226,-74.5650,24.4322,-22.0454,95.5587,-26.1178,-123.1997,91.9119,-41.8619,87.2596,-6.7667,-138.7916,-67.6672,8.9858
163.2015,50.5258,-72.9204,-111.2735,-37.3208,-97.5321,8.1999,25.3766,58.8770,132.1214,-8.1123,-61.1344,108.4355,-39.9370,111.9608,5.9868,-174.0757,-108.0393,32.0215
125.4003,46.8370,-99.6100,-110.1094,13.8928,-121.5552,59.0871,30.2184,82.4870,134.0943,14.1043,19.0938,119.4936,-14.9177,180.7135,58.8824,-188.7034,-131.4541,45.7599
78.7909,56.3311,-134.2663,-103.3467,-16.7673,-121.5117,52.1150,50.4107,116.0220,177.2201,5.0729,-8.7667,121.7098,-19.1119,196.6629,96.1814,-188.3444,-150.5062,39.2027
85.6379,43.2348,-144.1889,-114.3687,-89.3598,-131.4065,-1.6091,27.3886,113.4606,158.5363,-28.6656,-108.3012,77.4927,-34.5380,103.2505,126.3431,-186.6236,-166.3928,-7.6421
143.4713,5.9399,-127.0385,-123.7605,-116.0883,-135.6437,-50.4801,-14.4640,52.6358,87.6201,-39.8416,-143.9172,49.8518,-24.1491,45.8240,146.4308,-185.6579,-159.2273,-45.9518
171.1572,5.8301,-111.2109,-116.2045,-81.5736,-98.7530,-11.5258,6.3092,103.1361,90.7085,-19.4877,-88.7085,128.9658,-13.2243,139.5189,89.1354,-183.6154,-102.6837,-15.3721
162.4662,60.6738,-97.7112,-98.3836,-43.4503,-45.3593,90.1683,45.7238,260.2863,96.1442,-5.1854,-32.7956,216.0919,-25.3415,214.4645,-39.7689,-157.1583,-47.4232,46.1903
174.6346,107.6887,-71.0848,-62.3976,-48.7936,-26.6513,118.8836,26.7500,266.7976,17.3836,-10.0585,-34.4200,168.6222,-24.0132,135.4227,-88.4856,-102.4949,-57.3996,48.7183
188.2450,120.8456,-43.7923,3.2195,-81.8498,-26.3938,44.3543,-3.3640,113.2628,-20.5964,-7.7614,-63.9331,69.6257,17.8084,65.4141,38.7085,-69.2239,-71.3729,-14.6673
174.8501,130.0879,-29.5375,69.8084,-94.1273,4.9793,-13.5823,7.2113,51.0274,27.8478,11.0794,-50.7053,66.0880,79.0761,112.9377,201.6496,-61.3430,-23.8901,-50.4165
183.9575,139.9965,-6.1982,109.7083,-60.5147,53.8854,21.2012,21.2043,113.3155,43.5630,26.7540,46.7444,120.6561,135.1219,160.7903,210.3374,-5.8588,16.7179,0.2255
231.7366,151.6769,53.2510,145.4006,3.1011,72.7169,89.0628,8.7152,132.0474,10.9391,40.7757,165.0015,137.9641,161.6031,155.3208,108.5059,98.1296,9.4002,65.7635
272.5012,184.0644,128.3613,178.9826,52.8622,59.8886,95.2506,-23.4058,67.6854,-24.6705,68.9649,175.4874,118.0537,128.1352,119.4775,59.4690,149.6177,22.5264,54.5889
285.3228,207.5266,156.9737,158.2506,51.6876,45.1444,28.8407,-55.4316,-3.5387,-72.0338,81.1561,68.4023,94.0713,52.1419,32.6728,46.3767,109.9619,65.7877,-8.6033
253.0243,184.0252,115.6997,89.9216,7.7039,43.1540,-43.6267,-46.4691,-38.0929,-68.8281,41.3822,-9.2617,88.5012,2.4230,-20.1629,-32.0143,47.2783,79.7941,-60.5798
179.0823,161.1970,68.8979,56.2051,-37.4804,43.8152,-84.8399,-8.4674,-41.0650,26.9972,-4.6686,24.9794,93.9269,8.7302,50.9645,-94.0984,20.1290,61.3987,-99.1974
151.1561,182.1302,78.5899,64.7950,-50.6265,22.4369,-98.1423,-20.4110,-34.1091,84.2456,0.3965,74.0627,55.5202,29.3961,101.6334,-25.7878,26.0859,25.4206,-108.8603
202.6740,184.1178,111.0892,41.9437,-26.3590,-14.6600,-59.9176,-74.1479,-11.0198,33.9303,15.5277,40.5616,-9.6081,29.8169,39.3218,74.7883,36.5244,-22.3360,-57.3076
236.9163,121.0210,117.5956,-11.1665,5.8159,-15.5158,10.3806,-75.3180,24.2383,-7.1726,-10.0586,-32.3403,6.4656,30.0638,26.9946,87.9871,35.3294,-27.2667,-1.7695
229.4367,58.9502,125.6913,-25.0812,13.2643,23.4774,18.8259,-19.2313,8.5197,20.2774,-31.0194,-65.9760,90.0947,46.0118,105.4606,67.4962,34.7791,16.4067,6.4102
244.8112,45.8038,154.6904,-3.8700,19.4053,26.8868,-15.2871,30.4402,-28.6453,67.8598,-5.6824,-59.9079,118.3523,44.0892,134.4322,65.1503,37.4645,5.8789,44.2480
241.4814,34.8648,153.4228,-7.4371,56.5901,-24.8275,30.4552,61.3269,46.2883,103.5922,28.4898,-46.4375,100.8427,9.9811,141.4209,54.2512,14.5416,-74.5891,137.1613
175.0265,5.3396,103.0510,-33.7780,78.6125,-55.6623,110.7967,62.7788,161.6544,79.7766,45.4006,-31.8076,118.0694,-1.0997,197.5981,57.7846,-28.3532,-100.2600,156.3769
144.6358,0.3551,60.2884,-29.4013,49.8205,-33.2916,86.9448,7.9876,106.9169,-15.3506,50.1162,-17.9510,136.4332,40.2419,195.9368,80.0998,-33.1652,-32.4481,67.4818
182.2307,14.7542,64.8989,28.1359,43.5758,-2.2848,19.9402,-58.3267,-31.9508,-68.0125,23.1174,-10.5288,123.9961,73.0513,114.7732,50.0609,22.9514,32.8158,6.2889
187.1291,9.3290,110.1845,112.7527,100.4585,10.7774,31.0428,-79.0765,-18.4993,-30.0062,-16.3477,6.0777,126.1606,53.1979,86.2057,-4.1478,100.8723,38.6515,13.4851
181.6667,27.5367,174.8523,176.6365,128.2292,3.2115,48.1818,-86.7420,69.0183,-14.6490,6.6257,41.0138,123.7360,15.7291,105.4296,0.6814,152.4129,6.2722,-11.6952
263.5260,119.7290,206.6165,189.8624,70.1155,-22.6944,-19.2618,-113.9567,28.2383,-56.6426,67.5841,56.9104,70.3573,-15.6815,73.6655,0.3636,145.2558,-27.1385,-79.1200
352.0723,202.5892,162.9904,177.1833,-0.7859,-24.2944,-98.1201,-111.3509,-75.2812,-55.8914,49.6568,28.1775,16.5085,-42.5447,3.6983,-52.8099,100.5985,-16.3740,-83.2571
338.1175,187.7462,110.8134,187.3931,-18.6014,28.4476,-98.9811,-45.8374,-80.8952,8.1217,-28.5028,9.9986,5.5390,-21.2667,-47.9245,-47.4011,109.0809,45.4415,12.0944
311.2424,150.7785,156.4036,219.6814,2.7977,82.1790,-40.0311,19.3720,-4.7168,44.2529,-23.0984,59.3138,5.6198,66.3264,-55.3725,12.6142,204.3502,89.4719,118.1372
362.2555,177.0996,265.2030,226.6425,24.7267,87.7549,-9.8035,5.7275,34.1880,-3.4468,67.7802,123.5174,1.9384,133.8183,-29.1250,-15.6438,274.2946,71.5597,130.7536
394.4906,189.8048,291.1967,182.7147,13.8873,73.4532,-76.5186,-57.8742,-23.0685,-72.5689,94.3203,108.0141,-14.0746,118.9776,-43.9469,-75.2097,209.4051,43.1242,55.0877
311.3810,108.6215,182.1843,104.2593,-21.7615,65.2947,-162.4656,-58.6191,-92.4571,-34.3595,19.2220,21.0148,-56.9787,82.9016,-102.2716,-13.3437,56.3171,55.2384,2.9875
175.8907,2.6354,36.8892,27.4832,-20.4705,54.0213,-118.6729,25.6955,-51.8423,111.3891,-37.7732,-38.8160,-61.6385,85.9803,-78.9259,91.4955,-60.7041,77.8849,30.6931
86.2506,-42.3806,-38.7239,-3.4841,32.9033,48.7069,7.6951,82.8056,29.8949,187.4785,-22.1942,-13.2950,21.4688,101.7958,26.9806,110.5627,-92.4688,62.8605,59.2026
50.0079,-33.0071,-47.5604,26.0418,68.3621,57.7706,43.1212,60.6121,9.2187,129.0434,-13.3256,60.2770,87.6275,105.9058,72.7135,87.0025,-87.1044,24.4179,24.9977
30.6357,2.1366,-58.1675,65.6182,49.7098,59.2916,3.4628,39.5245,-32.6260,89.4698,-59.5867,103.2690,43.5962,111.7431,34.1149,50.2821,-100.8456,13.1111,-21.0702
20.5749,35.6057,-89.9760,60.4507,18.3816,41.7464,8.9078,57.4240,27.7050,135.8970,-108.4348,69.2415,-37.9348,99.0791,-30.9776,-26.9523,-121.4325,33.8360,-25.6775
28.9381,20.7900,-90.6884,30.2430,6.2552,15.1975,31.2593,68.8084,93.0592,174.4802,-120.6871,-14.8020,-66.8089,34.3878,-95.1422,-70.7666,-100.8207,43.8312,-3.7712
45.9235,-39.0044,-35.6223,27.0616,10.7205,-3.4701,20.8846,76.9058,99.7265,190.6642,-126.4989,-64.1805,-48.3650,-30.2917,-72.1133,-20.3443,-42.2047,33.3111,20.0111
50.3618,-74.1424,15.4141,57.5121,26.8106,14.7605,34.9367,104.9263,138.5196,215.6523,-146.2181,-22.1836,-16.4709,-1.1316,42.4749,49.9946,3.1304,35.3895,30.4219
30.0921,-59.3678,4.8667,88.5408,35.8882,61.9114,66.5388,109.0334,162.1323,182.7155,-155.4422,58.3743,-0.9476,96.1193,58.5952,83.3847,4.3227,45.5805,11.8525
-7.3911,-49.0099,-37.9271,80.9591,8.8155,66.1154,36.6296,66.6892,57.0336,82.1348,-140.8233,66.9509,-17.6245,126.6744,-45.7556,94.0227,-25.5098,23.0266,-22.6720
-23.0491,-74.9472,-45.5489,30.1446,-51.1043,9.4104,-26.5270,25.4568,-67.2250,25.3943,-118.4228,-7.8830,-46.0608,57.0145,-62.7086,79.6049,-34.8708,-14.4877,-43.6966
17.2073,-90.3200,2.3488,10.3812,-100.2753,-16.4089,-52.5905,7.2232,-86.3053,32.1640,-102.8233,-52.0324,-70.6140,8.4359,-6.4542,47.8854,28.6439,4.1201,-42.0638
74.3301,-48.7477,70.3118,86.7885,-94.1511,40.3924,-58.3580,2.8816,-66.8151,24.0065,-99.3646,-0.6535,-83.3195,53.2021,-38.3347,23.9832,132.1225,82.7836,-10.8358
76.4681,5.4345,103.6605,176.6794,-33.6573,109.5495,-53.8983,27.2904,-31.3848,13.8540,-106.4852,65.6713,-51.8374,119.6295,-69.5933,14.9423,168.4625,133.7423,48.6814
24.4755,-11.7436,71.3231,158.3445,30.1881,119.9254,-9.4102,68.8526,57.9153,57.3420,-113.8490,56.5131,6.2870,134.6032,-1.2412,47.4772,102.8838,104.7606,86.0905
-27.7057,-91.6378,7.8615,74.1379,59.0385,83.3039,37.5433,78.0328,92.1547,112.7806,-112.6636,-8.3929,18.6938,105.8696,27.2966,100.8836,19.3978,52.1131,60.5702
-58.8539,-141.6411,-13.9550,35.5778,67.4349,43.3023,35.2984,58.1168,12.3824,123.1262,-98.8000,-59.5249,-0.1300,64.6828,-22.6516,70.6089,-6.3220,40.6346,23.1278
-74.3656,-124.4522,13.4829,34.1843,73.0489,23.9762,26.9926,60.6898,-16.0994,121.5296,-78.5376,-58.5607,16.0793,43.6757,-17.0947,4.6147,7.5217,47.5874,38.1689
-76.4363,-84.4276,18.0965,18.8021,63.1057,21.0375,55.4149,98.0850,70.5072,151.6367,-81.1442,-11.7189,32.3082,62.7154,28.8616,81.2356,1.5224,24.4435,71.5447
-75.2015,-63.2448,-27.9923,-0.2746,32.5079,11.0105,70.1301,134.9508,102.8788,172.9180,-114.4504,25.1030,-6.2739,77.8354,18.1521,202.5237,-41.4132,-23.2446,54.7867
-76.9676,-85.0659,-65.1384,-29.1526,-2.3489,-16.9785,27.8256,126.7837,17.0399,118.6923,-124.7885,-4.2074,-56.8799,35.0522,-20.2162,110.8165,-81.5182,-67.4326,0.7093
-77.5142,-153.7083,-64.2804,-86.9249,-29.2790,-43.2137,-29.2168,57.7239,-63.5060,10.5037,-89.2272,-65.0323,-77.5542,-21.0301,-49.8510,-91.9167,-86.9661,-92.5567,-28.0037
-82.0173,-203.1022,-67.7913,-114.4290,-43.0983,-42.0269,-44.9759,-19.2252,-81.9633,-54.1189,-77.7975,-73.7801,-82.4802,-6.5198,-82.5256,-118.3694,-71.1947,-81.4508,-16.5016
-83.9774,-164.1423,-80.2599,-58.4342,-39.9076,-14.6407,-22.7648,-37.1617,-76.3682,-31.5775,-119.5013,-33.8052,-74.5266,52.1533,-87.7013,-1.5903,-40.8412,-36.7655,-4.6816
-67.1371,-94.5484,-55.7227,20.1517,-18.7046,5.3292,-4.1932,-18.0417,-51.4095,23.5598,-136.4839,-26.6143,-49.2642,41.6585,-45.5847,54.8269,11.2206,3.9419,-13.9507
-61.2630,-101.8425,-7.1849,43.8304,24.0820,-7.0987,5.9455,-12.8840,-0.1460,62.4464,-95.3404,-76.4016,-5.2889,-57.0813,22.0174,18.8193,49.3421,23.5579,0.0923
-94.5206,-165.7432,10.3756,23.8327,80.2351,-20.1454,64.3604,14.8021,68.0602,102.9051,-55.9412,-114.5039,63.9829,-110.8896,93.4129,-33.2049,43.3522,44.4849,84.8567
-116.8443,-186.3673,5.9658,10.1425,113.1539,14.7391,181.7674,103.6200,152.3731,150.4020,-45.3309,-81.9329,113.6003,-27.4018,116.5296,-24.8460,30.4963,74.1124,182.3900
-103.5273,-160.7169,14.7483,12.7256,98.0457,75.5327,248.7673,177.9892,211.5217,150.5115,-47.2614,-16.7320,99.4153,85.3368,83.7887,61.5224,23.2161,86.3577,184.8005
-123.5429,-168.7107,13.0946,-13.4210,59.7486,89.2550,196.4849,163.3723,180.5674,88.6358,-66.7545,-10.6372,83.2709,84.9316,89.8790,106.5893,-21.9532,53.4586,118.4676
-181.5254,-221.1662,-21.2579,-95.1787,29.0730,39.0070,130.3217,114.6246,100.9727,50.7101,-90.0365,-76.1941,96.7326,16.7053,121.5463,51.9994,-75.3759,-17.5563,109.8484
-183.2116,-245.2613,-48.7857,-149.6062,-4.7539,-8.8695,139.6635,108.1712,75.1879,83.4832,-86.0150,-115.6494,59.9508,0.5792,56.3883,41.9085,-61.9152,-66.3498,151.4802
-132.0564,-212.2202,-48.7699,-85.9612,-60.7972,2.2488,139.2956,114.1021,85.9254,92.1168,-73.4502,-71.1881,-0.2164,22.0822,-35.2636,93.8935,-20.8452,-46.8648,122.0290
-123.2057,-178.9126,-62.6834,7.6070,-119.0481,37.2320,68.1102,73.0042,53.1022,9.2149,-71.8303,-20.4711,29.0593,1.3670,-19.4399,30.0400,-35.2729,-11.5316,30.6583
-147.5866,-189.9311,-102.1183,-15.9611,-146.7131,24.1482,16.4928,7.2919,6.3683,-70.4404,-62.8600,-44.7446,69.6190,-54.6020,-10.7559,-92.6394,-74.6310,-27.6611,-9.0739
-139.8541,-220.1822,-111.7584,-104.0084,-150.9195,-26.3351,19.4633,-25.6919,-0.5709,-72.9485,-67.4815,-98.5367,-1.6823,-80.9411,-96.9560,-60.6142,-73.8221,-58.5586,-0.4308
-135.1394,-231.9167,-68.7785,-105.6582,-155.3731,-43.8194,-10.4252,-29.6269,-13.9226,-75.7371,-108.2995,-97.2388,-76.2503,-54.5620,-111.4772,17.5698,-46.8241,-47.8514,-21.8178
-181.1777,-224.5837,-34.4742,-35.3941,-142.4424,-25.6562,-74.7276,-49.3089,-44.6766,-120.4997,-122.5095,-48.6706,-46.5716,-30.2375,-21.8489,-77.1199,-27.6505,-18.0307,-58.3873
-226.5842,-217.0500,-55.9730,-9.2470,-89.3316,-20.9492,-78.4758,-89.1916,-17.3936,-126.1151,-79.7296,-23.5339,-6.8964,-72.2807,-20.8369,-213.3625,-22.1581,3.0475,-62.2324
-219.9095,-217.7410,-87.5982,-42.9799,-42.6481,-32.2034,-25.2429,-116.7388,31.0846,-83.1886,-58.6730,-54.1540,-18.7636,-136.7089,-108.8974,-180.0498,-35.1225,7.9605,-61.4014
-184.8587,-214.2791,-77.8180,-81.3726,-70.4883,-55.2513,-12.4323,-127.8278,-21.8163,-91.0391,-91.9998,-106.2483,-49.8599,-133.5228,-137.0777,-80.4629,-60.3090,-42.4024,-92.6312
-156.9821,-195.1851,-58.4152,-99.2169,-157.5573,-110.5948,-77.7051,-137.7549,-124.1440,-152.8853,-124.5908,-123.6152,-119.4892,-98.9287,-148.7842,-91.5764,-70.4857,-133.6479,-130.6483
-149.5755,-184.1506,-55.4637,-83.7658,-217.9356,-146.8717,-160.4586,-126.8158,-128.9286,-161.0503,-135.8581,-94.9930,-194.5859,-104.1376,-222.2357,-152.6719,-40.4546,-151.3565,-131.9153
-158.1989,-205.9013,-12.6837,-32.9124,-194.8511,-86.3030,-172.2513,-79.2265,-70.7614,-100.0272,-121.9341,-70.9867,-173.1294,-92.7446,-247.8279,-124.3901,34.8837,-63.3298,-92.8470
-156.9800,-228.4352,77.1354,4.0135,-122.2590,2.0929,-103.5464,-48.0063,-57.1727,-74.3635,-70.4154,-84.8564,-105.8371,-39.7638,-154.4131,-46.0471,105.9932,3.6504,-58.1036
-152.0431,-223.1355,96.9811,-23.7052,-93.1650,-16.0323,-51.8498,-88.6413,-44.9546,-130.9407,-56.1580,-94.4249,-100.6238,-45.6393,-54.3417,-62.4720,93.1698,-41.0837,-64.8268
-205.0052,-240.3952,-2.1152,-87.4117,-138.6022,-112.4244,-71.3756,-166.0712,14.5612,-203.0083,-154.0003,-63.2677,-101.1398,-102.1882,-44.3060,-169.8670,15.0493,-136.2596,-88.7623
-323.0259,-319.4812,-90.0132,-116.1626,-170.0414,-150.6975,-89.9285,-210.0762,30.9798,-233.4978,-269.9056,-39.4188,-63.5492,-99.2157,-89.8645,-227.0698,-17.4579,-174.3528,-96.3753
-408.3671,-394.2173,-62.7392,-92.1626,-116.0274,-105.0188,-61.5927,-211.1502,-38.9734,-227.6921,-281.7291,-73.8010,-64.3658,-86.6949,-112.0207,-217.8095,17.4934,-121.3258,-96.8349
-393.9973,-390.3446,7.6576,-57.2936,-33.7385,-66.5547,-30.7744,-200.1902,-93.7438,-195.2444,-220.0394,-128.5716,-79.2572,-155.4968,-84.2915,-236.4491,40.4597,-47.0193,-88.9946
-334.4882,-337.5592,19.5966,-45.7389,2.8539,-90.6672,-11.0273,-194.3262,-71.0422,-162.2426,-156.0767,-141.9050,-33.9929,-211.4028,-63.7266,-240.9652,31.3817,-42.4151,-62.9521
-309.2153,-315.1646,-13.7878,-53.8359,3.8149,-136.9340,4.7642,-198.7357,-31.3511,-186.0875,-108.9896,-118.4330,-14.4234,-184.5073,-102.8066,-159.7117,30.5937,-85.3845,-58.2441
-325.1153,-353.8683,-25.5562,-65.6609,-3.9281,-142.4838,-23.0575,-209.6024,-35.2767,-247.3133,-104.8674,-101.0602,-77.2874,-168.4821,-148.9843,-120.0040,39.3470,-80.1489,-90.2055
-351.0028,-415.1499,0.4765,-74.3386,-9.6389,-100.0225,-85.6901,-210.2905,-72.4384,-253.6735,-137.9748,-98.2228,-105.8351,-176.4852,-139.8330,-213.1528,41.0385,-24.2446,-100.6912
-372.6208,-428.3031,19.8625,-76.9515,7.6460,-37.5879,-113.7012,-197.6197,-100.1679,-221.1891,-144.0691,-73.1076,-75.6205,-115.3519,-126.0834,-272.0677,35.5787,6.9226,-84.6684
-378.3878,-367.9259,1.0698,-66.6821,27.3382,24.5283,-115.2731,-191.3093,-94.6715,-244.6016,-111.6430,-10.7509,-101.5773,-19.6772,-165.9633,-190.0910,19.0131,-7.9864,-100.1595
-351.6202,-299.6446,-14.8584,-44.5855,-12.0744,48.1595,-142.3204,-200.7201,-75.9133,-286.7376,-79.7430,23.5709,-162.5288,2.7244,-205.7680,-135.4142,-3.1226,-46.7008,-127.9377
-322.3785,-298.7891,4.1087,-41.5331,-100.8562,-3.3237,-169.5494,-205.0337,-70.9032,-238.7095,-55.3652,-31.9389,-147.1502,-41.4974,-188.5574,-221.6031,-34.5013,-100.3865,-120.2394
-356.9328,-347.2348,-19.5430,-95.6411,-164.2978,-85.8840,-151.1937,-171.0743,-53.9220,-109.4303,-61.3126,-113.7958,-93.3936,-91.4658,-163.1321,-300.3663,-114.5856,-155.0813,-104.9771
-435.8893,-378.0891,-141.9742,-185.5773,-174.7982,-129.8558,-86.5276,-90.3268,19.1399,32.5470,-120.4004,-131.7263,-92.0686,-135.5565,-177.3616,-235.8070,-218.4646,-192.3070,-84.9579
-451.1072,-384.0563,-243.0138,-236.5045,-148.2140,-142.3590,6.8318,-5.3172,121.5999,141.3096,-154.5167,-130.0977,-111.2541,-181.0234,-174.6782,-113.1888,-232.7740,-194.0122,-19.6364
-385.2003,-395.3638,-197.5142,-214.9584,-92.8449,-138.6113,76.7909,26.7728,171.4928,149.1022,-102.0827,-170.0759,-97.0656,-214.5781,-107.2373,-66.7263,-141.1225,-131.9049,38.5893
-334.7505,-386.7870,-78.2446,-152.5030,-32.8920,-90.3545,75.4368,2.4835,139.9018,44.5831,-45.5816,-177.1434,-81.1416,-202.1244,-51.0530,-91.3299,-52.9839,-29.9017,21.3506
-320.8979,-314.2279,1.0605,-74.8783,1.6222,-24.1064,50.5937,-42.7267,81.8795,-69.5687,-43.3284,-99.3933,-97.6577,-141.2602,-82.9239,-128.6690,-0.0272,29.7778,-18.0443
-279.6376,-217.1044,62.8759,12.6227,21.8941,-0.4024,53.2452,-102.6948,43.7596,-148.7254,-37.6870,-28.6935,-121.2396,-101.8328,-148.4537,-193.9093,71.4148,40.3742,-36.2934
-222.6100,-168.0880,131.9678,85.9108,47.1784,3.4270,35.8723,-181.0901,3.0011,-243.3251,-19.2008,-17.8827,-126.4625,-117.1958,-181.2379,-287.4939,142.4385,67.2828,-74.0329
-201.2940,-160.8451,148.3194,118.1471,62.8434,30.4081,-16.2289,-227.1818,-59.0058,-313.4256,-28.5006,-10.1420,-126.5971,-115.7117,-211.4652,-319.2537,168.6933,100.2726,-103.1214
-197.9263,-165.4976,114.5141,111.2773,53.7299,60.9243,-38.0694,-181.7265,-99.7574,-269.4938,-29.7741,-4.4941,-133.6522,-72.3651,-249.0125,-257.9512,179.5379,89.5386,-55.7715
-201.7446,-212.2082,111.3798,81.9879,28.1726,80.6759,-38.0722,-79.9278,-97.1007,-162.5657,-1.4115,-44.5647,-144.0792,-56.1207,-250.0254,-193.0744,200.6340,57.3527,17.3592
-236.9787,-298.5897,147.8747,51.5203,5.7482,91.5112,-69.3316,-18.2893,-95.2853,-100.4040,-2.0866,-82.2825,-172.9336,-65.4791,-249.9334,-155.1047,219.1749,38.7240,49.1966
-264.4237,-337.1137,177.9353,44.6403,14.2388,80.6584,-84.8138,-11.3757,-103.7756,-75.6100,-24.5686,-62.6645,-222.9658,-39.3011,-304.2915,-95.1782,240.9184,43.4454,79.8561
-241.1762,-292.7434,199.4505,61.9876,65.8098,79.3294,-26.1754,12.6660,-71.9075,-37.9209,-0.0186,-31.4603,-234.8069,-2.2311,-335.3660,-66.1942,250.1944,88.4277,124.0887
-219.8189,-233.7739,201.2224,67.7163,123.5855,112.1415,56.6301,56.9475,-9.5360,-15.3939,39.5710,-29.2255,-176.4326,-5.5582,-267.1659,-150.2262,195.6381,125.5425,119.9905
-242.5589,-210.8196,136.2123,29.7700,138.8892,104.8199,100.3731,48.9069,19.5625,-45.2427,15.1728,-29.8255,-121.1822,-30.6220,-183.8057,-243.9574,94.9679,75.5114,80.5917
-276.9073,-216.6038,31.6475,-30.2183,119.8242,41.2298,109.8292,10.5093,30.2467,-69.3371,-50.5583,-28.1935,-120.8687,-50.5742,-165.6101,-206.2127,27.0296,7.9849,86.9010
-303.9998,-234.5318,-17.1346,-52.1553,113.2620,38.9262,106.5409,27.9370,67.6488,-25.8241,-90.3666,-49.3702,-128.5182,-61.9073,-171.8119,-132.0600,15.4639,34.8678,124.7611
-313.8450,-243.3394,6.6329,-27.3413,126.9373,99.7780,94.0873,57.6750,76.7910,4.9208,-97.4803,-84.5610,-126.4318,-61.6558,-187.6130,-181.2218,29.9537,85.1032,110.6205
-286.6755,-242.6728,29.8217,-26.0734,126.5064,92.7660,70.0482,15.4685,6.1376,-66.1636,-95.1681,-103.7853,-143.6413,-65.1174,-236.0362,-250.6967,36.1327,67.2222,57.3567
-272.7619,-263.8282,7.9977,-83.3073,100.5780,33.9906,45.7267,-23.2292,-65.8903,-130.5133,-89.6686,-96.4703,-146.2541,-80.0965,-249.5768,-159.3101,-5.2273,44.0876,51.4726
-323.2975,-284.0484,-43.6679,-137.0714,61.1085,22.2080,43.8122,20.3333,-78.9547,-71.7864,-86.3125,-80.0775,-117.0988,-89.2833,-190.3373,-36.5315,-87.6983,44.2725,75.8619
-375.1861,-252.3047,-95.9640,-136.3655,4.8576,13.1499,45.8762,55.1118,-100.6694,1.4650,-106.7004,-91.3783,-137.2375,-103.4960,-182.8273,-118.8082,-134.5161,17.0228,28.7617
-388.4795,-229.4632,-120.5732,-104.1503,-45.6135,-29.0207,7.5039,27.6116,-153.0055,-10.5492,-158.7850,-135.7230,-213.7176,-124.1785,-290.3138,-284.9039,-108.0450,10.8112,-67.1246
-416.4807,-289.0740,-105.0707,-71.2429,-31.8666,-20.0648,-41.3537,22.2842,-145.6116,-28.2577,-201.1439,-151.8028,-235.5695,-100.3896,-368.9404,-259.8639,-56.0667,65.2049,-82.9252
-427.6167,-331.2969,-74.8005,-51.4271,26.3253,29.3981,-40.7501,38.3867,-77.4257,-39.2304,-196.5091,-89.9729,-198.5781,-46.6044,-334.5325,-120.5320,-13.3686,81.5136,-21.1093
-346.1314,-251.9915,-54.9094,-44.3075,38.6808,25.8050,-21.1245,1.1088,-61.9290,-107.4707,-179.6470,-1.5009,-199.0015,-43.3962,-293.0480,-120.2986,33.3332,42.5460,11.7549
-252.6200,-152.8692,-28.1009,-11.0912,19.0694,11.9804,-16.8771,-32.6752,-102.2529,-138.1155,-182.2714,15.9946,-210.0934,-71.9389,-286.1412,-228.0818,84.1303,54.0848,25.5639
-250.0476,-151.5736,13.4939,52.4673,52.2704,53.3945,22.6811,7.0649,-82.6945,-56.2566,-169.9691,-48.9715,-156.8629,-72.1245,-242.3446,-253.4199,106.6372,88.3513,75.0674
-287.7746,-196.8407,21.0292,62.3640,93.7929,70.9941,87.2134,43.7278,0.3980,-9.3444,-149.4661,-97.9434,-114.2825,-78.2453,-217.3695,-183.1302,71.5577,44.8584,92.0840
-312.5072,-218.6555,-30.2218,-3.4148,44.7414,13.0914,65.2145,16.6049,11.4214,-87.6449,-183.7363,-61.6817,-174.6860,-103.8969,-317.7006,-139.4069,4.5802,-26.9696,20.4205
-336.9653,-220.0485,-74.2271,-47.4135,-47.7287,-49.6491,-53.2827,-39.8111,-105.0653,-190.6154,-242.0527,-14.4698,-269.8965,-107.7957,-433.6090,-205.6567,-17.2117,-55.8243,-67.0656
-324.9953,-192.6672,-57.1657,-46.3154,-86.6542,-86.4936,-142.1602,-110.8503,-227.1771,-250.1953,-240.6956,-62.1597,-300.6544,-134.5286,-403.7512,-336.2587,16.4455,-79.0574,-111.9097
-273.7672,-155.3353,-31.3893,-75.2123,-88.5320,-125.1684,-132.1443,-164.5240,-224.8208,-249.7399,-209.6198,-164.5453,-274.5974,-214.8956,-307.3445,-373.5052,12.9666,-103.5628,-128.5700
-285.7764,-182.2995,-59.1221,-118.0564,-103.7068,-145.3471,-81.8944,-141.6805,-145.3253,-176.4789,-215.6959,-198.7420,-235.9547,-247.7107,-288.8491,-289.1952,-58.1361,-92.4994,-131.2668
-381.7555,-256.2740,-115.7174,-109.6405,-130.1155,-126.7326,-77.0819,-103.3099,-125.7536,-119.5936,-235.4844,-152.5990,-211.1663,-208.6536,-315.2883,-261.2296,-114.9403,-76.6572,-145.5101
-455.7703,-276.5165,-153.6692,-95.5814,-151.6236,-105.8924,-117.9499,-127.9961,-154.2630,-128.0992,-238.1770,-120.3139,-219.3444,-201.8636,-322.5020,-310.3282,-127.7116,-87.0429,-168.7450
-455.1222,-248.8109,-161.9164,-137.4314,-144.5055,-107.3773,-106.1943,-126.6817,-105.2230,-91.0986,-229.5078,-147.2985,-232.1258,-221.7336,-330.3445,-248.7642,-142.4866,-100.0071,-120.8866
-410.8139,-253.2745,-147.6075,-195.3675,-100.7386,-118.5950,-4.4748,-49.3636,0.0096,-18.5287,-201.4955,-184.0862,-199.4967,-200.1301,-323.8586,-123.6485,-161.5817,-115.9873,-14.1048
-375.0129,-281.4359,-146.0020,-221.7390,-76.7004,-132.7965,61.0253,-24.1436,22.4933,-47.9473,-181.8061,-170.2190,-156.2632,-184.6862,-284.0712,-149.5066,-170.4464,-140.5378,8.8809
-406.4602,-286.6115,-192.7599,-222.8321,-104.8197,-149.0765,11.1485,-71.1689,-30.6779,-98.5521,-213.4776,-111.3711,-172.8156,-190.7511,-275.5642,-235.2829,-184.9748,-142.0418,-44.2030
-475.8620,-276.0274,-236.6476,-212.0110,-124.0660,-154.6951,-39.7965,-56.8660,-49.5055,-47.3100,-232.8213,-71.9337,-215.2463,-139.7824,-300.4620,-175.3009,-184.1587,-122.7250,-26.8951
-464.2170,-255.3885,-198.1079,-195.7893,-102.5722,-129.0295,-24.9438,-2.5705,-46.0487,-42.6197,-172.6351,-95.3046,-206.0905,-75.5735,-268.0728,-78.2323,-138.7325,-105.9529,23.1288
-365.3282,-221.3393,-109.2000,-163.4670,-79.5734,-64.0336,-42.3552,-27.3676,-80.4262,-161.8173,-110.6044,-148.7791,-165.9878,-105.3162,-216.0860,-118.2010,-83.5472,-63.9349,-17.0984
-292.9378,-203.6668,-54.2921,-98.3081,-49.4180,5.3231,-94.6357,-77.5878,-105.2437,-210.9220,-110.4003,-160.8015,-158.1358,-165.7747,-266.0047,-218.4196,-42.6663,9.9555,-61.3224
-282.2284,-203.2230,-46.4871,-43.8234,5.6168,27.9779,-55.8073,-58.0082,-76.8626,-143.7529,-113.2984,-100.2452,-177.6390,-152.1672,-358.0249,-263.2792,-5.2358,55.0300,-6.2167
-299.2930,-175.9783,-70.0553,-52.0099,27.2221,11.4095,44.2071,-23.8761,-46.5448,-120.7569,-99.0487,-19.2912,-182.2657,-110.7323,-337.6695,-258.6925,0.7467,52.3271,44.6844
-321.4905,-123.7948,-107.9123,-72.6639,0.2587,3.0298,61.8037,-32.4942,-47.9928,-142.9317,-95.2585,-4.8481,-145.3148,-108.0685,-221.1665,-215.3949,-24.3855,49.6977,16.8751
-290.7400,-81.6770,-101.5028,-51.2951,5.9472,5.5746,17.2852,-44.7104,-63.7508,-121.8851,-69.0925,-64.2391,-74.6956,-125.6094,-142.3542,-146.5979,-12.7838,64.9768,-7.9653
-202.3887,-50.7573,-39.1024,-41.6818,47.7355,-3.9696,10.2919,-39.0296,-84.4863,-102.3635,-33.4793,-109.9145,-40.9310,-144.6646,-162.9475,-117.9643,29.0719,74.8646,5.0050
-179.0001,-32.6664,-0.3429,-70.6251,47.1464,-5.1073,14.6719,-31.3491,-73.6330,-111.8435,-60.0181,-86.8530,-93.9836,-152.1538,-237.2095,-156.5934,45.7049,72.7815,27.9921
-232.7236,-30.9094,-1.2441,-63.1205,35.2824,30.6606,4.3818,-16.0821,13.1257,-87.0765,-85.4868,-29.1535,-138.9633,-111.8435,-252.0898,-185.7685,80.6421,77.9492,83.9890
-203.0194,-8.4329,20.4893,-0.3902,93.7988,78.9650,48.9083,14.5276,103.1839,-33.9292,-12.9903,16.2317,-65.5092,-42.3312,-143.1584,-115.6695,153.1351,104.6306,155.9669
-71.1784,43.4099,48.5198,43.8583,164.0078,104.2255,131.3525,47.5880,71.0850,-18.6462,61.6992,24.4628,44.5060,-20.4140,-23.3869,-4.7560,168.5618,135.9327,168.2607
35.6402,86.7419,49.6096,44.9766,164.4576,112.3537,145.0328,52.5525,-44.1092,-56.8323,47.8315,-9.9436,49.6272,-63.2434,-41.6029,-32.0098,140.8456,148.6844,145.6928
141.1551,148.9255,87.9095,33.7551,170.2202,108.9280,121.6459,4.1775,-56.0274,-108.0514,53.7680,-41.9149,-8.9541,-109.5961,-134.7942,-195.4094,185.9307,145.9983,172.2999
323.1634,274.9441,170.4257,8.5652,248.6345,66.3215,180.1100,-60.4692,104.1858,-119.3628,136.7772,-20.0018,-2.8070,-115.0897,-133.5505,-257.9922,248.7716,111.6022,223.3322
498.9264,415.7278,193.0124,-30.0579,295.9333,-5.0937,273.0744,-86.2740,257.0445,-116.1943,191.2790,34.8378,65.0087,-80.4640,-42.4298,-150.4966,219.5088,20.9403,222.1899
628.0523,559.1309,157.7455,-26.6312,235.8897,-26.3230,250.9225,-102.0307,191.4202,-187.0923,200.6888,79.8355,98.3276,-9.1675,-4.8192,-72.8673,194.7278,-40.8546,178.8713
825.7823,775.7580,180.3834,56.6554,184.1488,37.1028,136.8674,-127.2514,-9.4511,-265.5689,258.1167,108.3716,75.2506,85.6703,-49.0616,-104.5839,279.0528,42.5319,171.0055
1084.0526,987.7504,280.8450,158.1511,254.3157,117.2604,115.4401,-79.5926,-39.0167,-176.0088,356.7882,110.7363,74.2210,163.6497,-40.3447,-129.3996,380.0784,188.9005,244.6983
1224.2195,1017.6035,385.1137,174.7319,379.9838,151.5790,240.6865,33.1925,146.8938,-2.9233,424.5920,96.5991,150.1951,218.5906,94.3058,-93.6059,408.0182,212.3673,335.9240
1185.1139,912.0012,432.0882,100.7706,433.1770,140.0673,324.3908,46.2297,222.3831,-14.8467,453.7526,124.0185,235.7320,293.8923,207.7580,-11.7765,385.9125,112.8455,320.9792
1063.8990,843.1660,381.5410,39.8524,378.6034,89.8701,219.3286,-63.8218,53.3678,-178.7231,455.0406,183.5002,223.5388,369.1384,126.6019,66.7077,334.2504,27.7551,214.8080
917.5928,784.6365,271.7458,48.6330,272.3019,27.5295,77.5622,-114.3963,-66.8520,-212.8686,424.6593,175.2490,117.8315,360.8730,-67.0358,1.7928,282.6067,8.4524,177.5023
724.8033,621.4154,217.7901,62.2083,195.5121,14.6305,102.9752,-51.4444,24.3382,-88.0926,383.9795,84.0877,11.6263,291.2098,-146.3904,-197.1161,270.6230,26.2304,239.7766
465.0463,371.5580,224.2167,19.6523,178.0766,47.7730,196.9139,-10.7001,98.3885,-25.2174,349.9202,2.9981,-31.9269,264.6332,-65.4137,-264.6488,238.8869,52.5207,260.5479
152.1702,95.6889,176.8041,-42.1006,167.9090,52.8693,168.4109,-35.6333,35.3278,-72.3999,308.0999,-26.6251,-5.9842,271.9158,30.5574,-134.9850,123.7109,50.3909,195.7808
-153.5892,-152.6279,58.8420,-69.1311,113.0801,17.4155,80.2267,-57.6785,-8.8272,-96.5501,243.6955,-33.9347,33.8194,234.4119,29.6708,-80.7272,1.5095,1.3063,123.7568
-376.5894,-276.0431,-49.6378,-79.5966,35.3874,-20.5417,48.2919,-95.0145,-26.4908,-114.1447,157.0696,-41.9806,3.8316,169.2643,-45.1720,-194.0577,-47.1080,-70.0614,54.5559
-485.7588,-275.9623,-114.6181,-121.1414,-9.3489,-65.6952,11.4315,-195.3071,-147.1137,-232.1039,85.6231,-72.3288,-55.7951,124.3359,-76.3387,-257.8962,-52.3048,-130.3067,-20.0422
-503.2875,-294.7243,-127.1623,-182.3520,2.4318,-104.6989,-51.7510,-277.5705,-268.4853,-331.8372,85.2814,-125.3563,-20.7701,94.2753,-2.3250,-184.6835,-59.6774,-144.7204,-42.4444
-502.9252,-377.7500,-106.0232,-211.0935,26.6508,-83.0486,-71.8175,-246.5873,-239.0881,-237.4468,124.4084,-147.0693,46.4378,89.9116,46.3686,-114.8610,-105.2122,-107.5082,-31.7636
-577.4266,-444.8317,-143.9026,-219.6451,-13.9523,-31.9617,-103.0478,-163.6246,-170.0246,-99.7345,111.9880,-113.9302,-25.9124,110.4075,-56.3111,-141.1457,-212.8560,-84.7309,-69.0809
-704.9040,-490.2660,-253.0148,-270.6604,-100.6089,-39.9975,-180.4626,-138.4644,-167.2633,-145.7464,73.1809,-85.6180,-162.7805,88.7959,-172.4145,-214.0694,-299.4595,-111.1395,-100.8504
-741.7795,-537.3535,-299.3696,-337.4804,-121.3590,-86.8336,-168.3156,-151.3422,-140.6277,-237.6614,102.9710,-105.7164,-165.8894,23.2405,-135.1690,-225.5626,-274.1568,-111.2174,-47.3154
-658.5469,-522.4581,-244.2694,-327.4161,-81.6906,-87.2866,-79.4450,-133.7884,-94.4526,-170.9056,169.5815,-140.2676,-92.9924,2.3131,-52.6710,-135.1112,-221.8918,-50.4607,-10.8065
-594.2989,-435.5050,-200.1626,-259.5969,-104.1108,-48.8471,-122.3921,-130.0998,-151.9355,-89.6043,194.3633,-145.1507,-102.1339,19.3209,-67.7684,-61.8921,-248.6885,-16.1094,-97.2903
-598.8513,-381.4027,-199.3329,-241.2994,-177.4704,-44.5729,-275.3553,-210.8968,-262.6404,-154.7966,217.8366,-125.4825,-131.1239,-13.3855,-109.7887,-121.5508,-296.1315,-58.8564,-218.3011
-584.6948,-399.9458,-193.3584,-284.2816,-193.2769,-93.6753,-329.3067,-308.2571,-288.4133,-218.9884,271.7396,-111.3231,-81.6074,-78.2187,-103.0265,-205.9854,-306.4741,-121.2141,-262.4385
-547.7693,-420.3359,-204.5631,-311.1734,-174.3286,-134.5240,-280.6487,-304.8538,-236.3408,-153.0369,268.6113,-101.9301,-39.4174,-94.8375,-89.0605,-146.5381,-318.2133,-134.8798,-236.6975
-550.2067,-398.2536,-244.4137,-285.5987,-177.5702,-93.3878,-227.2352,-211.5850,-152.7640,-59.8850,177.5484,-76.3848,-73.4213,-67.9547,-78.6530,0.3471,-314.1643,-75.1956,-174.0292
-555.1610,-352.9051,-247.4635,-220.5453,-147.9628,10.3185,-150.3161,-115.8130,-43.1784,-22.8471,101.6216,-56.3976,-97.7323,-49.5567,-58.2754,63.5222,-255.2695,21.7896,-105.9565
-514.9460,-311.8033,-202.0643,-142.5257,-74.9176,75.1058,-64.4888,-40.5313,26.9262,-3.4176,103.0625,-66.7385,-52.7927,-54.2635,-53.7855,44.7121,-206.3465,74.0368,-73.4804
-467.0994,-286.6340,-156.0919,-91.0982,-31.4743,74.4886,-31.7887,28.4588,11.9539,21.5192,137.7670,-53.8718,0.6539,-72.2999,-50.4714,71.9714,-198.6452,64.1775,-55.4329
-414.4096,-260.6657,-106.1417,-73.2851,-5.3923,81.0427,-19.6377,63.6244,-21.0852,37.0739,159.2713,22.4474,2.8491,-93.9743,-27.1919,136.2101,-153.3484,65.4024,-19.1084
-324.0498,-201.2585,-40.0419,-43.7650,41.2447,115.6264,-16.9729,45.6113,-38.9753,35.7836,151.4096,89.9919,-28.7293,-114.2199,-32.8449,109.7467,-72.4837,111.5989,-12.3465
-243.3300,-107.1381,6.8903,17.7423,58.7728,141.9110,-67.2491,25.8578,-79.9758,29.3312,113.9565,89.2771,-50.8843,-134.0148,-59.2891,10.4997,-50.4168,159.7090,-48.6980
-210.6271,-16.6219,25.0812,75.2558,34.1914,167.9325,-108.6331,47.1875,-126.1804,35.4029,78.0056,63.5078,-59.6858,-156.8079,-28.2199,-14.0225,-82.1672,167.8773,-61.7684
-182.0491,26.8226,41.4382,97.5607,4.5774,186.7874,-104.0274,50.1003,-157.1426,11.4866,55.0277,48.2171,-76.9439,-193.9293,10.9816,44.6063,-110.2417,121.3043,-75.3307
-162.9060,11.7658,47.5526,87.4024,-60.6635,138.2307,-159.3181,-30.0139,-214.2453,-89.9068,-9.0386,39.9087,-91.8265,-243.5310,-49.8846,78.9947,-163.5323,46.9917,-160.9951
-188.1879,-19.7344,14.3905,59.1684,-147.8782,42.9807,-248.1699,-116.8487,-261.8518,-163.9475,-135.7728,53.9726,-81.7656,-274.6545,-137.4824,74.5097,-255.4817,6.9050,-231.5152
-189.9174,-15.8110,-42.3478,24.0420,-142.4488,-4.3803,-201.9379,-102.4288,-201.6490,-98.4787,-239.9021,71.1079,-70.3784,-295.0495,-113.2856,51.7868,-313.0162,0.4922,-178.5775
-131.6074,9.0967,-69.4398,-12.2211,-56.3427,-5.0833,-77.4148,-44.2020,-84.8346,-15.9179,-246.8213,40.2555,-80.0316,-353.4366,-23.7962,-3.5339,-322.6302,-31.1629,-104.1505
-121.2012,-3.2851,-54.0834,-44.6547,-31.8112,-23.4755,-70.7447,-50.0667,-63.1519,-45.9917,-205.6382,-10.0404,-84.8763,-411.4742,-1.6452,-22.5000,-360.2131,-72.0799,-137.4468
-196.8911,-57.7589,-62.8069,-70.4369,-84.3491,-44.6383,-151.2887,-62.2903,-137.6726,-58.4640,-207.2557,-27.6833,-81.5515,-383.4955,-49.6156,52.3988,-438.6100,-67.9707,-209.6924
-247.2169,-93.5121,-140.5877,-98.9566,-130.9801,-36.6562,-179.9123,13.3344,-174.9948,54.0699,-261.5716,-44.0071,-104.4299,-319.5885,-85.2413,101.7902,-489.9726,-55.5781,-211.5754
-224.8939,-73.0236,-210.5279,-131.0762,-162.6458,-34.7489,-168.2369,100.9685,-139.9439,137.9737,-312.8410,-74.4582,-137.2074,-319.2961,-85.4421,49.4273,-479.2534,-75.8983,-164.0005
-180.1011,-35.5418,-188.6985,-136.1771,-176.6334,-46.9271,-175.2861,96.9472,-129.9667,78.5137,-321.6465,-67.1488,-133.1012,-333.1679,-77.8598,16.8171,-424.9773,-66.8999,-125.3370
-131.6894,-33.8479,-128.6669,-94.8224,-136.4360,-22.3430,-189.8628,49.5853,-180.6411,-3.0366,-295.9365,-29.7406,-109.7976,-280.8151,-72.5819,62.8629,-359.6593,12.4038,-106.9313
-100.4053,-48.7998,-122.6320,-42.3292,-85.6704,34.7833,-189.8235,34.3410,-198.2930,-2.8795,-278.9254,-20.0916,-111.2378,-210.5014,-76.1433,107.7935,-319.9282,88.2091,-106.0302
-127.5602,-37.2038,-161.9626,-28.7771,-100.5549,61.5501,-163.9800,33.0684,-137.4688,20.7017,-316.8121,-28.1218,-129.3640,-176.7120,-98.9038,135.7957,-318.0073,94.8986,-109.2938
-178.5109,-30.0640,-187.5092,-53.6968,-152.0431,51.9046,-118.5800,31.0491,-81.6329,25.9918,-400.5982,-17.9680,-142.4327,-154.0364,-110.5193,154.8370,-316.9010,77.6372,-86.1661
-185.8684,-65.9671,-165.7616,-60.4403,-151.5311,61.9928,-84.2316,68.1588,-73.0653,69.7375,-454.4325,-0.1792,-153.2414,-127.4515,-81.4520,126.7939,-275.9523,112.7423,-28.0881
-157.5049,-88.8114,-95.2013,-7.2816,-66.5954,109.2319,-53.3901,151.1501,-50.0709,163.0113,-431.6956,4.7962,-146.3209,-101.9217,-45.6418,110.7639,-203.0564,181.4853,33.1984
-135.9892,-54.0552,-23.4467,58.2714,47.0359,140.0541,-2.9814,221.3587,-4.0311,217.2026,-384.4192,-16.6658,-90.9766,-73.2036,-14.1472,173.9802,-146.8573,184.1888,47.3403
-143.8256,-32.7399,-16.8562,54.4217,81.1991,99.8380,11.3125,218.7846,-3.7628,180.4989,-378.8523,-63.4084,-16.0032,-66.1140,46.0656,199.8703,-156.2172,83.0484,-20.4443
-182.0375,-75.1322,-77.9274,-8.4262,-9.7890,6.0135,-67.8490,143.7871,-63.0966,103.8921,-402.4713,-91.0032,-1.4432,-90.5637,74.5174,112.7972,-224.4915,-43.7188,-144.3864
-204.7523,-111.7360,-142.8511,-52.3412,-128.0414,-64.5046,-172.4017,59.0957,-128.4085,49.7580,-410.1942,-76.5055,-60.9516,-95.8690,5.8631,60.2597,-268.2123,-109.2856,-239.4036
-171.2858,-93.1261,-143.7706,-54.1398,-149.5011,-67.7980,-193.4082,15.9769,-152.3461,36.8902,-387.4900,-66.5023,-112.3198,-76.0545,-44.3877,113.8531,-218.3231,-98.8610,-253.6753
-125.9116,-72.8741,-69.3362,-33.8290,-83.6396,-44.3852,-140.0630,-5.6114,-137.1627,42.2034,-336.4339,-76.4783,-109.8578,-89.3362,-0.1303,130.3479,-118.2826,-53.8582,-231.6384
-113.0287,-83.5083,-3.1615,11.7777,-35.6311,-48.8782,-118.5699,-37.3347,-142.2560,0.1478,-284.5753,-59.9400,-107.9558,-122.8498,-6.6133,53.1376,-60.8315,-36.2246,-224.3778
-106.7231,-69.7288,-35.6848,69.9081,-57.3536,-67.4973,-160.6638,-46.7488,-181.7219,-85.4173,-291.2480,-15.2551,-140.9808,-110.7008,-104.5688,9.7190,-68.5857,-58.8720,-195.0578
-104.8882,3.2347,-130.6577,89.1571,-110.8793,-54.3589,-178.5004,8.9079,-173.8143,-83.5433,-354.1950,11.4091,-163.8375,-65.1995,-133.1510,58.4919,-106.4641,-64.7933,-119.4779
-137.4320,68.1147,-199.8273,42.5382,-163.2227,-18.0544,-159.2045,89.2658,-126.5564,17.7456,-382.2096,-0.1064,-160.8610,-46.5096,-98.5030,98.1007,-148.8134,-44.3795,-89.3449
-181.1917,42.1009,-233.6306,-45.4354,-223.7679,-11.2702,-211.7219,105.7590,-152.1507,31.6059,-342.2193,-51.0305,-177.2823,-70.4650,-126.8568,51.2432,-178.4076,-52.3352,-154.1763
-212.9150,-44.1137,-237.9222,-118.3074,-263.1233,-41.8066,-297.8634,51.9878,-191.8526,-52.3375,-313.6766,-115.5123,-214.9795,-107.1395,-139.7535,-11.6439,-185.3147,-63.7260,-197.0185
-249.6730,-84.0148,-207.3694,-123.9046,-227.9013,-53.1645,-243.7025,28.1754,-109.5289,-17.8406,-336.5685,-126.8965,-219.0985,-99.9050,-43.1070,20.3188,-187.6798,-20.5757,-147.2504
-258.7407,-51.5367,-204.0353,-83.5060,-160.6051,-11.5079,-100.7303,90.5426,-15.0646,127.3383,-347.0052,-78.8552,-165.5249,-23.2383,60.3002,138.5372,-199.6265,15.7468,-100.0070
-192.1160,-16.4038,-254.9141,-79.4934,-130.1185,38.3274,-47.0101,161.7144,-25.1724,176.7358,-297.6077,-55.4980,-84.5662,50.0576,105.5759,236.4261,-202.5283,-11.8109,-76.6563
-98.8269,-15.6440,-265.9035,-129.2634,-89.4575,43.1858,-6.1977,167.7127,24.8101,147.7596,-215.0100,-80.5982,-24.8439,51.5579,119.6065,237.0645,-180.6148,-31.0971,15.8343
-45.9298,-25.2434,-211.2574,-161.4088,-6.7156,22.3395,127.1494,143.8941,192.7166,150.4791,-140.6647,-81.6463,-16.6750,40.1633,79.2271,138.8697,-137.3972,-12.3860,114.2814
-25.6425,-30.3646,-179.2066,-130.6599,16.8619,20.4094,172.8339,125.1539,238.9312,109.6288,-103.7040,-42.4501,-44.9054,75.6575,30.7747,18.5556,-79.1890,-15.6534,71.4661
-26.3158,-23.9711,-162.6094,-61.0501,-48.9612,30.1719,34.1469,95.3285,106.0159,23.2797,-113.6657,-26.2675,-73.5217,98.0790,68.4202,-6.7501,-24.1761,-11.9046,-35.7478
-48.5101,8.8174,-101.8520,2.8879,-80.0720,27.7196,-69.4242,87.4539,7.2080,42.1271,-131.4079,-41.2109,-88.2259,73.3020,119.0270,77.4484,13.3471,49.9444,-40.9955
-53.5058,41.5663,-55.1137,28.0522,-33.7129,21.1533,-26.6237,132.7648,-6.7175,104.5829,-101.5205,-32.7472,-79.4675,70.1971,111.8926,153.8664,54.9325,80.3047,16.5693
-28.4161,26.8718,-64.8246,14.6890,-6.1597,10.5930,7.8370,141.6951,-39.3739,29.6664,-31.0807,-3.3645,-39.0198,92.2402,129.3031,144.3865,104.2034,15.5427,14.0360
-17.4788,-2.2212,-63.8374,-4.0757,-42.9911,-20.4554,-47.3598,49.0977,-80.1789,-85.4925,15.9982,-13.8941,0.4540,51.0095,146.6027,67.5711,115.3402,-40.5237,-50.8614
-10.6879,41.8136,-40.0686,-2.4081,-94.3331,-51.4341,-110.8308,-39.9789,-81.1609,-60.4557,9.8687,-62.1107,5.9507,-40.6034,81.2245,-24.8797,95.3060,-17.9058,-117.8433
51.5989,144.4402,-35.2310,20.7765,-103.0013,-53.7644,-107.4331,-36.7178,-40.8720,22.2528,-10.5807,-73.1326,3.0815,-66.6494,56.9032,-31.0075,115.2420,4.6072,-134.3848
135.6183,171.9746,-30.4832,35.4339,-58.5843,-51.4900,-30.3091,-7.4923,48.8040,34.6669,-10.5332,-32.6624,13.6074,-8.4204,134.6486,98.3182,162.5000,-33.0215,-75.6684
149.4064,64.5922,-31.7787,-14.2626,-14.2716,-68.7708,48.6374,0.7789,131.7955,38.2836,-3.0785,-17.9365,20.0156,41.1792,151.1906,200.3176,156.0959,-85.0842,8.3577
116.9101,-60.5877,-74.7241,-118.7080,-3.1433,-83.9190,63.0353,35.2375,135.9172,90.5210,12.6804,-64.6484,38.8469,38.1971,112.1668,133.9991,113.2884,-97.0890,59.4346
135.9026,-75.2699,-96.2413,-169.4386,23.1866,-84.7289,66.4350,82.2514,121.7703,123.8399,57.5830,-109.5776,92.5569,22.0007,158.8466,45.9479,104.2044,-74.3593,81.3554
175.5704,-4.6308,-50.7215,-121.9254,57.2615,-78.0885,86.4472,72.3490,119.0609,97.1404,79.0031,-91.6130,121.3815,29.2968,195.6378,78.7501,103.2978,-60.0536,59.0066
122.2841,55.6566,-27.4329,-70.8231,10.6583,-57.3578,33.3746,20.3453,28.5273,44.7614,11.5823,-28.1082,79.5121,55.6392,139.5550,107.5874,70.0075,-76.9069,-19.6336
33.6070,81.6033,-53.7095,-77.5598,-76.9049,-42.3931,-55.5969,-20.9822,-93.7804,-15.9651,-55.2292,18.5908,39.9201,69.2819,151.0963,43.8979,62.9339,-98.5591,-60.4172
95.4734,99.7814,-32.9696,-93.3221,-74.5521,-71.7386,-18.2640,-56.5299,-55.4674,-82.4527,5.3200,9.6937,66.6987,45.5212,245.6957,15.5665,134.4230,-95.4761,-1.3829
283.5978,105.0232,47.4249,-84.3928,4.1799,-113.8268,112.3637,-82.1918,99.4576,-115.4912,120.2812,-35.0653,119.0622,3.6745,258.7885,77.8773,236.5818,-70.9385,70.1528
351.7384,67.6175,110.5914,-64.2718,73.3249,-107.3593,182.2572,-56.9379,174.6053,-87.0234,153.8957,-70.3165,163.5892,-17.9658,228.8369,112.0403,295.4008,-32.3605,94.0853
226.7654,9.8161,126.4905,-32.5231,122.6697,-67.4873,194.2249,-1.9065,154.3989,-35.7051,143.5650,-73.6274,208.8209,-10.1240,252.3667,55.2659,283.8474,9.2773,97.6784
132.8849,30.1480,98.3293,4.3040,128.6565,-35.0886,195.3931,9.6833,119.7477,-5.2742,167.0927,-40.8005,218.5151,24.8668,238.0904,-18.8488,235.5352,19.6521,64.3547
240.4245,173.3533,65.5715,25.5579,77.0462,-7.6338,160.0200,-19.7220,86.8242,16.6340,197.5642,8.7984,168.7502,82.3297,162.8382,-17.1992,219.7521,-6.1199,3.6515
430.8989,318.1324,101.3574,46.2346,61.8109,17.3313,124.8116,-10.4574,76.7547,43.2679,232.9572,25.2020,130.9195,127.6493,145.5174,64.3065,249.5064,-5.9770,10.6867
505.3156,349.4569,164.8096,93.9976,109.6873,46.7348,133.9029,63.3181,91.1491,51.9005,298.0804,13.3725,147.5495,141.7579,186.4718,117.0814,262.4552,61.0078,73.8002
457.8900,344.5561,140.2720,153.5344,106.0057,104.4929,120.0780,125.2851,73.6952,35.1283,314.8704,42.5769,149.2803,156.4431,199.9236,64.6601,241.5903,131.8290,77.4482
418.1912,382.7441,64.5750,177.2429,36.2225,143.4462,56.6913,104.0103,33.7906,10.3302,233.0373,87.2882,99.4048,169.5005,173.8173,4.2045,227.1339,120.5781,27.0167
409.1314,369.0144,39.5362,131.0589,-10.4307,87.7740,5.6495,40.5379,21.5291,-4.0165,146.6835,50.0637,53.8865,140.9184,129.3067,54.9712,201.3628,50.6205,-3.7763
346.0773,263.2994,26.3399,48.4558,-43.8926,0.9169,-31.3968,28.6285,16.0531,22.4729,109.5912,-20.3603,34.5860,108.8022,100.6786,160.5598,140.8337,18.1614,-21.3271
257.7762,201.9310,-6.9514,22.8093,-77.9431,1.6943,-59.4848,69.2952,26.1521,85.1848,86.9615,-4.4853,21.7549,132.4181,109.0884,197.4392,123.4547,43.0327,-20.9826
264.8599,228.3026,22.6493,78.8866,-40.0288,55.1020,-28.2233,80.5259,88.0605,101.3230,106.5070,50.0518,38.5547,152.8654,98.9729,147.2259,189.6210,63.9093,18.1493
328.7721,225.6540,96.2066,124.0760,34.7652,59.1058,11.7703,38.7414,89.4330,26.9405,163.0195,48.7430,78.7036,104.8715,61.2186,65.8124,224.4822,61.6409,18.3690
289.6538,169.4839,76.5203,102.7212,23.5099,25.3274,-42.0799,-2.3742,-60.6967,-59.9251,124.9786,41.2204,61.1701,56.9506,71.8034,8.6232,153.7018,65.6250,-58.6131
142.9740,137.1009,-28.8760,75.0766,-40.9844,15.5769,-111.2138,-6.6276,-168.4061,-71.9131,-9.8760,72.3946,-14.0762,79.1450,93.9926,9.1637,84.9426,77.1940,-85.7904
34.3749,127.9296,-75.6516,86.2966,-39.7446,40.1136,-51.9245,38.2186,-48.8722,10.9819,-51.1613,83.2113,-31.8625,128.4766,53.8403,55.1342,111.5758,86.1964,12.2766
30.5243,109.9213,-31.1453,93.5431,19.8523,77.6302,83.2443,140.8275,131.4377,160.0056,46.1754,56.9957,42.1614,146.9730,48.1178,107.5084,155.9141,88.6849,126.6738
74.5276,106.3124,4.6563,56.5688,61.4315,80.2460,145.9762,237.3182,153.5384,269.5274,128.6603,30.3952,115.9438,122.1985,129.8880,143.1935,125.0362,48.5463,149.7678
100.2876,109.5643,-12.7733,1.1487,59.9499,6.6610,115.9725,210.5996,86.5330,224.0817,137.3757,3.5778,128.8081,65.8703,155.6977,143.5288,67.3460,-46.4398,92.1125
99.8952,74.7041,-16.8297,-22.7053,30.2718,-86.4130,70.3652,62.4266,63.3005,63.2364,129.0619,-5.4574,100.5394,28.3100,90.4686,98.4238,71.6356,-112.7755,14.9561
115.0888,30.9693,30.8705,-1.9464,9.8245,-96.0017,52.2180,-58.0876,44.0504,-72.4433,115.2928,35.6436,77.1460,49.7727,77.6095,44.7364,120.7130,-74.1642,-24.5298
162.1788,47.1695,62.9429,31.0390,24.0972,-22.7485,50.1097,-59.1834,-9.1114,-120.6689,105.5566,76.5710,101.1885,86.9100,133.0466,29.7512,139.1472,20.7534,-11.4997
191.7108,98.3584,38.1571,42.9930,36.0921,38.0294,43.0222,-12.0483,-20.0972,-91.4641,133.3317,58.6992,146.0323,87.4771,138.3557,46.1850,120.8238,66.6875,12.0065
178.2188,93.8066,25.6605,29.2605,5.9375,21.8143,26.2053,-10.8559,27.3302,-25.5686,156.9479,17.5536,124.2827,66.0188,80.7680,57.8798,122.1541,30.9398,11.1229
164.9654,32.4283,63.4853,6.6049,-33.1579,-47.1487,9.3794,-52.6690,44.8966,-19.5410,127.5272,0.4926,56.5014,42.2847,60.5510,57.1413,164.1391,-20.5026,-8.8376
171.6895,13.6287,98.1890,9.6678,-23.4033,-84.5873,10.9789,-91.3606,5.6617,-107.7224,108.2125,6.2326,68.3807,21.2460,126.4967,66.9675,212.6922,-10.0898,-29.6338
172.3747,64.9863,119.0736,54.0646,44.1707,-37.6587,46.9016,-98.8298,-25.7359,-161.3629,159.7271,24.4330,157.4581,29.3159,193.0900,105.4162,233.7682,47.7143,-16.7560
163.0219,96.5008,154.0893,86.7034,128.1478,46.5791,112.5233,-47.7861,1.1722,-71.5227,229.2345,37.2535,206.3041,66.9444,172.6341,149.3072,221.9659,82.4042,56.4975
148.5143,76.1354,162.7163,61.2062,179.0969,98.2764,188.5327,63.2592,89.3856,87.8188,253.6608,41.4659,215.1784,95.5119,159.8768,153.6943,189.6747,86.5768,144.4042
114.5842,74.6260,118.3260,37.8890,180.8338,124.8580,241.7393,161.4570,181.0851,187.7338,234.5062,75.0851,247.3599,113.1799,250.1458,126.1295,153.7901,94.0244,167.2819
77.2246,106.5085,86.4381,86.7442,145.0166,155.5359,215.9524,178.0607,178.6240,198.3457,189.4657,131.2920,251.0427,135.8620,287.5659,119.1001,135.5552,95.5609,114.4756
86.7100,118.6055,103.6625,155.2224,88.2519,160.7682,110.5519,149.0882,93.3073,162.8117,144.5966,140.6548,186.9255,134.9019,171.4939,129.4032,151.2556,73.6174,47.7495
148.3242,102.4811,120.7537,150.5300,40.8924,103.8864,35.0797,135.1181,50.6252,118.0569,136.5810,104.9865,145.4960,102.9264,110.9050,111.0405,171.8105,29.9477,23.8757
187.6813,71.3968,88.8892,77.8071,20.5128,16.0592,48.3956,115.4933,58.8379,77.7468,154.7271,95.3905,156.0122,98.8486,189.4712,95.2208,130.7223,-39.4538,36.5589
134.6299,36.1317,2.9323,14.8163,-7.7146,-35.1580,53.8684,63.8524,13.3413,53.0203,142.4220,112.1873,114.0861,140.2877,179.2446,141.0660,33.1397,-98.9465,27.7746
45.1760,44.6295,-82.0542,5.1283,-64.7778,-33.7883,-9.0898,16.1996,-59.2319,42.4551,78.8714,100.9502,-0.1073,149.5565,28.2971,168.9949,-15.7284,-88.0950,-29.0584
51.4356,97.8950,-77.1211,27.8835,-106.3806,-24.1852,-67.3137,-11.2854,-66.7167,16.9743,7.2016,64.6940,-68.4221,78.7694,-62.3854,53.6795,38.0825,-34.1402,-90.6156
151.3881,122.9746,9.8589,65.3338,-104.9623,-18.8915,-83.8406,-43.9101,-56.7621,-28.5904,-14.1015,58.3266,-35.7746,10.5270,-49.6591,-114.6806,125.2492,0.9330,-120.3876
207.7323,129.1453,70.1116,133.6593,-82.6880,16.1145,-93.6201,-72.8010,-90.4509,-61.9426,23.7236,109.8452,22.0968,47.5786,-17.2328,-119.1424,170.6213,26.9733,-135.9247
175.8973,168.2407,61.2983,193.4378,-57.3714,53.8435,-101.1645,-76.9677,-129.9318,-84.8754,52.5227,169.2337,28.3589,141.3195,27.3757,21.2501,155.4038,36.7949,-154.5303
125.9085,171.4777,27.8952,157.8273,-52.5892,31.5708,-115.0115,-67.9568,-172.4431,-95.0193,11.5085,153.0351,-11.4232,157.7477,27.9232,73.6680,93.5008,-3.3629,-160.5880
88.6361,106.3147,3.2966,73.8941,-82.2605,-5.4593,-142.5735,-38.9269,-213.1537,-31.1678,-47.9612,77.2342,-46.5330,100.6867,-77.2692,-5.2143,51.0615,-24.0997,-133.5076
72.3608,98.2352,12.7566,84.7335,-92.5617,20.7793,-122.1538,19.9338,-162.7556,69.8338,-43.7895,54.3791,-53.8585,89.7246,-163.9561,-23.5821,77.1605,31.4559,-82.9818
97.2567,168.6971,50.9659,165.3378,-57.3411,60.0985,-55.4452,52.3179,-56.3343,58.1256,-6.1651,111.1526,-51.4883,129.7616,-126.2300,57.2811,88.7137,69.5442,-65.0242
112.6000,185.3772,40.7174,178.3222,-55.6271,47.6047,-63.7812,13.6820,-63.1483,-43.4234,-6.6841,151.9863,-45.6262,115.7428,-74.3175,48.5599,8.3300,51.3444,-122.5249
60.1008,148.6236,-40.6965,141.6143,-113.5480,31.5176,-156.6363,-48.4474,-161.4960,-73.3281,-32.2559,120.1020,-28.1148,41.0278,-97.3870,-93.5196,-65.9130,69.2300,-198.9815
-15.3493,137.8422,-102.5392,136.7640,-147.1084,36.6393,-209.5111,-85.0778,-188.6221,-60.0132,-51.9900,53.1733,-27.6108,0.9758,-116.1186,-164.8566,-42.4306,101.9222,-198.3650
-60.4967,88.5489,-104.1306,109.0236,-138.5356,10.7803,-202.4590,-97.4105,-158.1479,-107.9215,-75.4387,3.5784,-64.8623,26.0655,-72.4373,-61.7272,-6.4431,46.9408,-124.1837
-66.8812,-29.4879,-91.2311,9.6629,-141.8866,-34.8374,-195.6992,-79.1221,-164.2381,-135.3215,-76.7330,-9.4179,-86.7915,58.9232,-35.5107,70.4598,-36.1884,-40.6927,-62.5008
-20.8680,-77.9974,-81.8088,-86.4933,-143.3458,-48.7606,-181.1655,-36.6117,-178.0685,-83.8553,-34.3188,-5.3308,-62.0027,62.7731,-83.0356,102.7287,-87.9671,-62.8087,-53.5650
12.0036,-16.1462,-89.8303,-131.9869,-118.2471,-51.1702,-148.1725,-11.0654,-159.4765,-47.4814,-21.3391,-8.2413,-56.5912,58.5256,-167.2814,68.4701,-128.1841,-54.3665,-56.9517
-65.6494,25.3976,-131.3176,-144.5142,-101.8811,-61.8176,-109.6114,-3.3720,-116.5410,-25.9168,-70.6414,-4.7236,-99.6243,57.5840,-160.9772,10.8526,-141.2677,-55.8678,-30.6826
-135.3888,7.7401,-131.3385,-107.6993,-93.0902,-50.7309,-52.4993,8.1636,-50.3175,29.3851,-79.4706,14.0985,-110.5979,31.1614,-62.6771,-66.0444,-74.8268,-47.6281,-5.3942
-15.5712,25.6784,-33.1536,-19.4716,-56.0533,-27.1002,-13.0585,-13.5830,-18.5093,13.6510,-5.7538,29.1471,-49.9421,-8.0406,-0.4186,-97.4811,37.5287,-44.3489,-40.5996
164.0891,103.3619,54.8797,45.2593,-19.6019,-31.6993,-39.8791,-93.1778,-71.3092,-113.1250,49.7746,47.2819,18.1220,5.2239,9.2209,-31.5555,64.3224,-68.8211,-115.6565
169.3131,145.4032,28.9183,17.7953,-28.8366,-70.7769,-71.7649,-174.3117,-115.9820,-202.8688,42.1555,59.5809,46.5153,44.1288,40.9654,48.4824,-16.0181,-108.6253,-161.4556
69.2658,86.0400,-44.2798,-81.4284,-68.6163,-133.7750,-77.3043,-213.0017,-91.8543,-205.1753,26.2718,3.7715,36.5633,5.2411,39.7393,47.0720,-86.2094,-150.9539,-176.1365
60.7937,1.0364,-62.2525,-149.2592,-104.1249,-184.8634,-124.4628,-221.3098,-81.7043,-198.5038,18.6912,-90.2191,-14.6415,-81.1775,-61.8733,-11.6074,-68.5094,-163.2613,-178.6105
145.2528,-2.4422,-15.7730,-105.0457,-110.3251,-173.1453,-159.0965,-216.9276,-82.4647,-186.8170,18.5890,-95.7278,-72.4715,-102.2066,-141.5413,-79.3047,12.0038,-126.8900,-141.7485
209.2359,29.1681,39.9420,-19.5171,-79.2880,-138.9460,-78.7769,-227.8708,-21.8878,-177.8869,51.4930,-29.1590,-63.7631,-91.7241,-71.5339,-143.3694,70.4515,-111.3628,-94.8124
187.7787,-3.2272,28.6962,-29.3082,-51.4294,-164.5570,-0.2801,-262.7098,15.9492,-220.4527,77.1806,-23.9577,8.2678,-127.3223,80.3651,-154.0438,19.7401,-153.9294,-113.2497
94.4034,-42.9297,-68.2297,-124.8461,-66.5898,-202.2168,-32.3005,-253.5310,-22.4420,-237.6036,31.0851,-71.0244,69.6598,-142.9516,176.9250,-76.4932,-116.4704,-175.3019,-146.3452
13.4899,-18.4773,-161.8601,-192.8075,-91.2799,-166.7457,-30.3922,-165.4923,8.6686,-148.7138,-38.9537,-79.1354,98.7809,-91.7512,176.2737,12.0548,-197.7840,-152.9496,-87.2982
0.7930,-15.7490,-168.1030,-198.0966,-76.2588,-115.0739,76.3677,-83.1092,132.0504,-57.0314,-50.0526,-68.8976,119.0444,-56.5873,139.5214,33.7910,-152.9847,-154.2447,24.7225
20.3112,-72.4828,-102.2449,-165.0508,-34.6885,-117.6229,132.8367,-54.5462,173.3876,-33.3693,-6.8133,-77.0708,126.1056,-62.3336,136.5511,30.7518,-63.1290,-165.2440,91.2567
47.0411,-85.0096,-26.6466,-109.4222,-4.4486,-121.8770,106.4562,-20.4621,134.6547,16.6959,55.2212,-71.2472,119.6419,-51.6381,151.0361,55.8700,-22.0197,-138.7084,108.6464
84.2864,-52.3398,5.9740,-70.8111,12.9360,-90.0342,124.1824,28.1880,164.3658,115.3646,108.5295,-55.4930,121.1056,-33.6394,147.5009,73.0170,-28.0602,-109.9920,101.9066
97.0098,-69.2644,0.2171,-74.3591,45.6334,-62.2712,180.5298,37.6655,223.9247,163.3091,115.3714,-52.5044,123.1832,-28.3721,163.4347,62.9856,-21.8419,-88.0924,83.5347
97.4424,-95.4089,38.8122,-80.8240,106.0797,-40.3247,189.6094,25.5311,205.7530,139.4547,94.9613,-32.8407,112.2725,-2.0657,193.2103,87.3839,32.8444,-35.9163,88.8008
150.1653,-55.5317,142.2166,-63.7933,162.3816,-2.0996,168.1513,29.0381,175.7386,99.2414,111.4940,-5.9984,102.6030,24.2422,151.0213,148.0589,97.6558,-4.0736,108.0806
201.5943,-21.6920,185.3944,-48.1579,163.9518,12.0080,147.4342,14.5992,207.8894,64.3882,140.0963,-26.4208,76.1691,-5.3244,57.6911,134.7162,98.3459,-54.6635,91.4647
153.2242,-65.4710,102.6191,-56.7579,95.2525,-32.9846,112.0619,-22.8957,232.4103,46.0504,106.5822,-65.4600,-3.2818,-57.4693,33.4715,35.1060,26.8812,-122.3503,69.1020
66.0054,-131.5304,7.0799,-94.1683,3.0028,-88.5531,84.1636,-16.0220,190.8039,62.9015,34.8615,-61.0627,-81.2457,-67.3828,109.1625,6.3064,-48.0156,-119.8302,96.5092
37.4836,-154.3720,-9.8267,-132.1577,-29.1192,-85.1693,99.8154,48.7511,132.5477,104.6340,-2.1774,-40.8803,-69.9491,-36.2651,221.0236,87.7007,-67.9321,-62.7524,142.9904
42.0545,-125.9828,13.3903,-113.7402,29.9110,-24.3779,146.0478,104.7161,130.6143,145.1803,10.6422,-45.7451,-6.2227,2.1476,269.4732,110.6543,-29.9508,-22.6656,182.6644
59.0271,-67.0927,41.2328,-47.2425,107.4774,20.8472,199.7746,121.4377,214.1930,174.9736,61.1519,-39.0908,9.4397,23.8795,182.1044,39.5680,24.5179,-36.0619,243.5782
115.8799,-20.2208,77.4324,-7.7843,138.3961,11.3426,250.3689,138.2003,345.5686,211.1438,122.7247,11.2189,-22.1092,35.5052,74.8863,42.4896,41.5903,-56.9808,301.2880
160.4818,-5.3689,89.9097,-14.4772,151.7018,5.3563,276.8101,181.1871,432.2982,266.0958,132.4168,60.7673,-41.2869,67.7416,120.3720,134.4465,15.1601,-28.7838,308.6040
129.5566,0.5859,55.7774,-36.7665,164.1170,38.7273,262.5708,211.7005,414.2348,284.3199,76.1782,55.9080,-46.4068,102.4687,218.2923,170.3016,0.2791,0.2378,297.8969
84.4272,-2.6433,31.9959,-60.2725,147.0490,50.5014,221.4164,184.3313,329.2892,205.0359,37.2215,20.5427,-51.2701,95.1439,205.6808,156.5563,33.6317,-15.8206,303.0317
100.6099,-30.2484,74.0626,-45.1121,142.6365,37.0469,187.9038,132.9878,260.2015,109.0079,75.4316,22.0572,-35.9821,76.8951,183.2534,160.5257,84.9651,14.3797,287.5955
139.7003,-43.2229,134.6791,32.1364,198.2832,78.6049,180.0473,125.8144,239.5310,122.5814,148.4744,63.3742,-10.3784,81.4854,205.6764,105.6665,110.5117,119.5302,236.4340
148.7188,3.1283,137.8075,83.2640,238.8418,126.0318,178.7198,138.3100,233.5945,178.4601,191.7562,84.1974,-14.6700,59.1994,133.3761,-25.4016,105.5240,137.2703,190.1824
164.5571,85.5687,107.9343,32.8338,205.9972,47.9968,162.7724,86.1326,203.7119,107.7631,186.4548,60.8798,-41.7977,1.2670,35.1349,-97.7238,86.8587,9.5327,163.6582
220.0640,146.6255,105.2360,-53.8324,158.6962,-85.9297,134.4714,-15.7942,147.8705,-55.5251,142.4058,17.3737,-59.2001,-29.3098,83.9781,-72.1373,58.0655,-88.9911,132.7156
244.0876,147.4341,95.8142,-95.1204,126.0024,-95.9858,98.6688,-62.1740,93.1448,-118.6203,87.5693,-17.0535,-65.6523,-30.2067,149.0390,-16.9002,19.5913,-61.1439,99.4996
180.6512,96.4151,47.6941,-87.5648,98.6837,-6.4769,75.7288,-22.6173,83.6307,-47.0061,67.6826,-1.2500,-50.1979,-18.4667,113.6398,47.7787,1.3775,-10.4893,103.3473
117.4962,52.1479,37.2845,-48.8214,122.0527,34.2807,98.4383,30.6756,134.5723,18.0728,96.1392,62.8715,7.5737,35.5312,132.0148,82.2135,30.8436,-17.9618,153.3511
135.1536,48.1918,88.5447,-15.9658,174.0868,18.0997,134.7449,54.6740,177.2429,31.1453,120.7124,85.5035,56.5907,91.6944,185.6553,52.3024,70.2840,-45.9854,197.1302
157.9059,49.0911,104.1706,-27.0007,156.8239,28.0400,123.3675,81.8372,149.9324,74.5989,102.3097,36.1020,33.6871,80.8131,96.6449,55.8546,65.7202,-30.0029,202.3230
120.9019,32.6259,73.1061,-39.2958,116.6142,75.6729,104.9853,130.3955,121.0982,144.6308,85.5557,14.1205,-9.9866,59.1849,-2.5001,117.1483,39.7681,45.7536,205.0444
89.9527,28.4861,82.4968,4.8021,158.8246,120.1208,144.4994,160.5444,160.1840,157.8126,113.7858,60.6486,-0.1435,81.4238,65.6737,77.9484,43.7094,111.9478,214.1364
99.9275,50.4370,119.2385,74.6696,203.8436,131.2411,177.0302,139.4616,176.8770,123.7618,147.2349,102.4760,22.4795,87.2999,142.2333,-51.0364,66.4687,90.7353,177.3969
109.0406,79.4894,126.3886,116.6175,152.7490,97.1668,125.5099,83.5314,91.6538,93.4540,145.3857,105.7089,9.2143,62.2563,112.9929,-62.8018,76.3903,26.6690,100.4264
125.6730,94.7311,132.1915,105.7966,89.9963,35.2087,57.3406,27.2099,16.9897,53.7240,127.8600,72.1520,13.0538,40.4801,94.0550,17.2344,81.2330,14.5633,61.4193
167.0350,78.8070,139.7950,34.5937,91.5577,-13.9675,67.6354,1.5868,69.8191,22.6933,105.4410,-3.6968,62.6577,-14.0382,93.8648,-1.8216,94.5699,49.8818,86.0797
189.8266,51.6710,113.6746,-19.5306,109.3996,-11.6625,136.3550,18.7104,174.9917,51.1670,75.6834,-29.9339,87.1645,-70.6760,62.1748,-77.7960,120.0078,90.5955,125.5083
182.8926,72.6680,112.5703,54.1028,122.1637,52.5233,182.6680,39.9544,200.0612,89.1924,75.4245,87.2850,47.5433,-21.2275,75.4803,-81.6661,165.4948,141.0676,131.2511
172.7375,137.4812,181.8471,189.1278,143.2399,123.8383,166.3248,29.3696,133.3355,83.9526,117.2777,218.4259,-0.8963,57.8070,116.2802,-59.8721,205.4854,179.0210,97.5353
152.5856,156.0833,228.6253,204.5758,143.0590,131.9630,115.7869,37.8652,59.4185,102.6482,147.6675,186.2651,-1.0312,13.3655,78.4055,-25.2216,185.7803,158.3178,74.6737
132.8768,86.7575,196.7024,88.7214,119.1822,107.1877,80.3950,110.3949,50.5661,154.8312,139.2248,62.5893,44.2922,-73.3817,33.6867,104.9773,115.3053,105.1919,105.5690
134.9716,-9.7596,151.4980,-17.9153,106.8410,117.8976,60.2356,162.6152,86.8389,134.4872,114.2754,13.2676,88.0361,-78.4515,67.5252,227.8044,69.0538,73.3599,134.5479
119.5073,-62.9716,122.0992,-49.6621,94.5155,123.1815,28.5180,112.9927,75.4135,49.3816,82.7332,42.9725,90.6863,-84.8933,82.6473,164.6385,73.7223,57.2325,93.1981
77.5932,-54.1080,87.8515,-27.0856,61.7083,73.7829,-13.0482,31.4057,-16.8272,6.0035,59.1147,74.4545,70.5513,-153.5094,40.1600,14.9779,82.2614,43.3955,26.5402
69.5840,-5.6041,72.3903,36.9886,36.4101,46.1341,-63.4620,1.4146,-108.4139,-4.3572,69.2117,76.6599,67.2338,-198.7440,34.4784,-16.4813,72.3640,55.9057,1.2783
83.0489,36.4811,89.5173,105.5919,42.9849,82.9706,-116.8016,-5.8145,-117.7012,-28.6608,92.9886,51.4504,75.0944,-201.5291,67.5968,18.7483,73.8189,95.7356,10.7830
64.7990,34.9798,105.5816,107.2194,76.2467,93.9411,-115.6238,-14.9887,-49.1985,-21.0914,98.5418,26.7768,78.7194,-214.9392,60.5824,-23.8948,89.1316,120.9804,48.7627
56.4105,3.7108,109.1635,40.8080,125.4675,54.0545,-42.1804,2.5240,39.1668,24.7029,98.5361,34.0571,87.8747,-225.5073,1.6128,-84.1732,88.4741,116.0500,107.8469
94.2392,1.9024,116.1696,8.1835,171.4448,54.1049,11.1040,24.3584,81.6619,26.9501,99.4537,65.1724,91.8139,-215.9379,-50.3039,-49.3987,89.2020,120.2371,122.4607
127.7784,53.8676,131.2785,77.8521,197.0242,105.8575,-17.9642,8.1628,54.5916,-24.6841,91.0017,102.8684,82.9958,-205.2326,-8.5435,19.6463,124.2222,165.0077,73.5072
126.6183,81.2151,140.7474,171.2690,205.1175,142.9744,-76.1236,-4.2146,21.3303,-43.5297,89.8651,125.4130,102.9029,-188.9076,118.7274,28.2483,143.8418,222.4721,45.6611
81.7716,4.4256,112.0728,169.5280,204.4234,163.6287,-96.2054,45.7394,57.6063,19.0980,91.3222,89.4599,151.6907,-174.9270,170.3813,15.8739,92.0201,248.1732,85.4227
-13.6626,-85.0712,48.4035,93.1676,199.9531,184.6449,-59.7770,132.5919,128.6722,110.3766,61.8249,28.1095,160.5738,-173.3916,93.4909,48.4968,29.3036,236.9286,141.0502
-69.8712,-29.1378,13.1548,53.9329,181.7825,174.4998,-4.3452,187.1066,134.7558,144.3953,28.1839,49.0336,129.9601,-135.9203,45.0224,102.2484,18.9911,198.0216,155.4251
-15.8210,109.8736,12.3496,64.9656,127.3929,129.4642,-10.9195,173.6486,68.2416,120.3725,28.6145,125.0115,122.9567,-67.9035,61.7764,115.4491,2.4540,137.4372,122.5097
26.4689,112.4187,-22.0423,47.7936,59.4493,92.6529,-77.3424,127.8726,18.3238,114.5653,15.9484,109.9404,120.1906,-61.1842,25.3001,59.3566,-59.3817,98.4876,92.5088
-48.5500,-40.3104,-75.4891,-1.6753,32.2867,91.9427,-100.6812,127.4544,15.0985,135.3690,-40.9508,12.7520,73.1014,-100.4219,-21.7855,-22.6456,-95.2188,124.3651,106.7558
-146.9519,-148.7307,-80.7444,-5.6256,26.4891,120.2509,-89.8183,168.7798,-12.7377,124.0711,-83.2567,-28.6874,24.0437,-91.7896,11.7597,-30.7852,-87.6623,161.5625,94.3852
-195.6502,-131.8434,-83.1160,35.2534,-19.0754,121.1696,-158.9839,144.4121,-87.4673,82.0529,-89.4989,-13.6082,15.2980,-77.4622,16.8197,44.0082,-119.9452,117.7273,-19.4347
-240.9522,-110.9734,-156.9963,11.8569,-86.6583,36.7287,-265.4162,30.4602,-118.1359,30.9820,-110.2876,-33.0052,12.2497,-131.6250,-66.5892,67.8061,-202.7792,16.4912,-128.4198
-268.9258,-158.3628,-244.3137,-101.4406,-117.3851,-64.6909,-257.4216,-50.4543,-55.6149,-42.5388,-145.3908,-62.9673,1.9259,-176.5325,-98.9711,-15.8674,-239.7225,-25.6613,-98.6648
-223.1039,-196.0594,-232.6913,-154.6798,-89.4733,-56.8698,-142.8980,-35.1221,17.9590,-89.4851,-134.3667,-40.1847,16.8173,-138.8362,-46.5188,-89.8123,-163.3347,29.1318,3.7037
-137.0704,-161.0193,-101.2520,-50.1947,-2.4288,23.2161,-50.7643,-0.9427,23.5833,-49.6236,-58.6585,-5.0371,46.9158,-87.3075,-29.1383,-94.1572,-12.5178,92.4249,53.7726
-77.4615,-94.8433,43.8737,75.1570,87.9490,33.8280,-45.6451,-3.1577,-23.6837,2.8770,14.3288,-11.5729,45.3829,-89.7665,-63.8796,-101.1044,77.5334,74.7466,39.8287
-78.0396,-48.2698,44.8488,63.9878,69.8846,-34.2616,-125.1840,-23.4240,-96.6516,-13.8555,-13.4847,-30.7502,-1.0757,-118.0525,-90.4116,-113.2476,-2.0677,-7.4135,-30.4159
-139.9116,-31.1516,-110.4884,-31.2330,-61.5255,-85.0883,-253.6437,-62.8831,-189.6471,-60.4054,-134.3580,-25.4637,-54.6976,-115.1640,-100.7782,-66.0713,-166.0594,-74.1306,-157.9589
-202.1716,-67.8756,-237.0949,-97.2159,-180.8683,-89.7316,-364.7797,-127.0811,-262.1947,-112.9772,-202.5655,-18.9943,-63.1559,-67.9012,-97.6869,-3.9528,-241.1138,-99.6993,-273.2272
-206.9720,-171.0148,-225.7814,-139.5756,-224.7749,-87.5290,-413.9179,-176.9974,-267.3069,-179.2311,-143.3675,-52.1921,-31.7008,-37.1067,-114.2554,-15.8323,-229.1617,-123.6284,-314.6807
-188.9414,-261.1184,-173.0022,-181.5378,-224.7959,-105.5051,-387.2808,-186.0788,-219.1051,-187.5934,-70.3326,-117.5099,-26.9553,-72.8619,-193.0471,-87.7696,-227.3739,-146.7795,-297.8013
-194.0379,-248.2454,-149.5558,-181.3076,-195.2959,-129.6098,-292.4889,-169.4089,-162.0670,-123.5162,-80.7946,-151.7319,-58.0224,-107.4046,-227.3808,-159.3930,-200.9311,-122.7094,-236.2758
-206.7594,-168.3959,-115.6547,-129.7475,-149.6684,-123.3905,-192.9200,-138.1956,-111.6568,-94.0228,-116.0042,-113.2024,-52.6260,-76.0720,-104.8615,-187.6141,-106.5514,-68.3927,-144.5975
-195.9511,-114.1698,-73.8058,-80.2616,-119.1531,-93.8385,-139.4527,-90.8237,-57.6144,-85.1957,-101.6866,-54.3200,2.1656,-46.8770,16.0285,-124.7411,-41.0970,-48.7004,-81.6071
-137.3678,-91.8858,-49.7668,-54.6769,-86.6509,-83.0334,-87.0019,-28.0122,2.0685,16.7747,-45.6096,-45.9901,41.7647,-60.3550,-35.9795,8.6268,-48.9319,-44.9202,-67.7653
-70.9030,-55.4050,-12.2430,-14.9835,-26.4140,-70.3533,-11.1654,33.5359,36.5397,125.9021,15.8747,-58.1330,50.2602,-44.1400,-107.2876,80.2551,-36.2683,1.6654,-68.5806
-123.6688,-5.9564,35.5128,54.8860,23.3087,-23.2342,17.6450,38.9646,9.0664,67.7927,45.5385,-26.4013,54.9459,0.8138,-41.0213,16.6840,25.1665,47.0992,-86.9947
-296.3807,18.1347,48.4026,103.8521,19.0832,-2.0262,-24.7184,-40.1072,-53.6328,-86.4557,26.6569,18.5976,50.2907,-0.2866,12.1521,-84.6832,70.9758,24.0168,-134.0885
-396.2774,1.5712,44.5141,102.6385,-35.1740,-39.3477,-80.1130,-119.9311,-83.6987,-145.1790,-5.7153,19.8535,35.5569,-14.0722,-60.5582,-125.9904,86.4519,-20.2717,-173.7980
-360.7414,-24.4030,51.9652,103.9588,-107.1677,-60.5754,-123.6663,-117.3391,-81.5078,-104.1628,-12.3499,7.7160,33.4356,19.9692,-110.9015,-147.7380,74.8655,-30.7231,-192.9952
-335.6778,-17.0686,40.1148,120.9721,-143.8777,-49.1631,-151.4046,-83.1058,-99.2382,-70.3428,3.7763,22.5806,40.6429,51.9750,-65.7293,-181.8946,19.4058,-42.6514,-203.2281
-363.3038,6.6949,4.7776,82.0765,-120.6242,-58.7198,-131.2882,-73.2042,-121.0319,-48.6484,18.5712,32.9300,54.2837,50.6630,-41.9267,-140.0351,-30.2875,-59.5099,-171.6853
-358.4385,-5.3684,-14.7773,9.7013,-86.8935,-59.3098,-70.3013,-43.1497,-93.9345,1.5416,2.2911,20.7789,84.2586,70.1855,-61.4033,2.4499,-13.6469,-43.3800,-94.6758
-311.0350,-28.6540,-18.2738,19.0040,-88.3807,-27.1987,-31.2327,1.6933,-53.3208,27.8888,-50.4608,24.5536,80.1827,113.5963,-56.9996,91.2642,21.8510,-53.4417,-53.4312
-234.5323,1.9451,-29.7939,81.3272,-112.1477,-39.5614,-56.8168,-20.0618,-74.9409,-31.9129,-92.4620,51.6002,-5.8359,125.4435,-75.7085,28.6599,15.5696,-139.8938,-77.2200
-132.6299,47.1028,-50.5004,72.9959,-138.9662,-94.1490,-118.8561,-77.7316,-133.1506,-104.6576,-99.9900,62.1008,-80.8620,96.8429,-142.9528,-64.2078,-8.7965,-186.4801,-88.6283
-96.6371,20.3625,-75.5087,13.5746,-145.1388,-99.4827,-124.9776,-72.5024,-135.7940,-86.4716,-119.3794,39.2408,-37.9097,54.3854,-142.6224,-67.2695,-31.8838,-115.5290,-54.9899
-155.1257,-43.5758,-94.9605,-16.9379,-103.2119,-83.6428,-35.6137,-42.1935,-74.7395,-32.8486,-165.1071,-0.3310,40.3418,19.4165,-62.1561,-37.5547,-66.6702,-54.5535,-42.8973
-164.8846,-53.1639,-93.7919,-34.4302,-57.9241,-114.5343,39.8010,-80.2769,-30.4946,-56.9880,-189.5328,-34.4633,23.3318,5.6377,-39.7648,-57.3810,-87.1083,-93.6349,-86.0778
-74.3075,-33.6384,-77.1346,-46.6864,-69.5960,-139.2659,18.2659,-154.9934,-32.4251,-125.5832,-177.5990,-47.5932,-39.6158,-0.0564,-68.8847,-107.3332,-65.8952,-145.8479,-126.3815
1.3503,-71.5123,-52.6868,-30.8414,-84.8835,-131.0018,-1.3251,-190.7158,-22.6445,-148.1682,-144.4580,-46.0938,-39.5907,-10.5248,-38.1073,-144.3947,-32.4563,-155.8231,-115.0140
40.0607,-147.5178,-20.5026,-40.5392,-38.1670,-149.3588,45.0139,-189.8940,11.3395,-140.8254,-94.5499,-48.2356,-2.8615,-7.0331,-19.0440,-151.5551,-19.9901,-158.0666,-81.8926
100.3427,-168.5879,-0.4154,-101.1324,15.5274,-166.7132,52.6679,-173.0756,-3.5109,-142.6253,-62.7677,-55.0099,6.8902,9.1578,-106.9393,-115.5871,-26.5803,-130.0549,-63.3839
136.8108,-122.6522,4.2317,-118.3641,21.9138,-107.7114,-6.0135,-126.3389,-66.1626,-126.8466,-81.0600,-55.3776,10.8894,25.8504,-160.3589,-53.6222,-32.8506,-38.9799,-35.6129
112.7227,-79.5141,30.1336,-51.3070,17.3991,-9.1069,-16.8674,-51.0489,-66.4640,-84.9609,-105.2879,-32.5604,22.1137,74.9864,-72.3747,-23.5552,-12.7604,46.1623,16.7043
108.0515,-63.4981,70.7796,16.1022,19.9899,52.2997,37.4684,8.9757,9.7290,-45.5070,-90.7363,21.7113,9.4925,142.5133,5.9699,-50.8797,24.9563,52.3734,47.0291
157.0334,-43.8008,68.5388,19.5221,8.2328,53.0014,77.6052,12.4062,49.4360,0.1903,-60.5770,52.8438,4.5500,132.3851,-12.8914,-75.2111,18.0699,3.4167,33.3368
179.6245,-30.8010,21.9067,-30.4949,-1.8699,1.4005,92.8898,-17.2009,39.3947,68.7684,-39.8979,-1.9648,56.4591,49.8130,-9.2921,-22.4389,-49.1610,-35.6685,16.3977
127.2435,-54.0588,-12.6215,-78.5969,8.9010,-42.2804,99.2437,-15.1167,71.0370,124.6183,-35.3010,-69.0031,101.2255,22.9975,27.0410,64.5039,-92.4792,-29.6260,11.0808
63.8537,-76.8860,-3.2323,-61.2629,27.6623,-21.4509,95.2421,16.2622,125.3318,129.6167,-52.1032,-32.9647,66.4886,75.3720,-14.3012,61.4874,-54.0609,-0.4895,2.0123
81.7350,-57.4250,43.4497,-5.7711,53.3207,6.7727,113.9827,18.0699,119.1908,102.1076,-51.7884,35.2966,23.6903,107.4666,-63.0210,-25.6383,6.3658,-0.2135,11.3742
164.7910,-31.8393,86.1661,-3.9287,75.0497,-12.5188,142.6339,3.5514,80.0447,80.0889,-5.4370,-5.1034,51.8185,86.8545,1.7600,-49.9386,16.9827,-25.2348,49.3546
200.3962,-35.6783,77.6145,-34.9706,56.2284,-15.5892,101.8347,26.2795,49.9271,64.9826,19.5740,-95.0160,83.0545,64.6823,58.0035,19.1976,9.7483,-26.2120,73.8124
165.0985,-37.8838,49.7393,-4.1358,17.6775,20.9764,23.3255,56.5769,-11.6738,43.4017,-18.4467,-82.7307,46.5420,78.4412,-28.9883,57.9305,48.0253,-16.6963,73.0710
144.7041,-16.0003,67.3881,61.5613,13.4381,18.9787,17.2163,48.1085,-89.3468,29.6929,-36.7678,13.7439,3.8262,122.8725,-122.4735,36.6154,89.0726,-46.3335,63.8438
149.6769,5.9906,97.6488,65.1995,9.2802,-29.0352,49.6419,26.2694,-98.2167,26.5218,13.5944,64.5696,17.9290,144.8598,-77.2408,40.1888,50.8736,-83.7692,20.3969
137.6460,11.0751,92.9698,16.9104,-44.0354,-55.0302,26.0492,0.2751,-44.7025,-5.7368,64.9722,31.7908,50.6839,109.6608,6.0996,60.2539,-4.4223,-64.3279,-48.4542
147.6203,6.6877,110.5365,8.4062,-76.7198,-44.5281,-5.7980,-56.5033,-2.6187,-68.9652,73.7393,-10.4160,61.0261,81.1824,13.1861,26.4183,46.7839,-11.1616,-58.6194
188.6055,10.6044,171.5050,73.5543,-24.0203,-17.2291,22.1022,-106.0255,5.7406,-100.3607,65.4924,9.2595,61.6767,106.2232,0.0711,-15.3081,143.8620,5.8426,-4.6509
185.2570,34.6012,181.7283,139.9936,38.0463,6.8837,59.1942,-89.1280,-8.0640,-71.4356,55.9763,64.3499,59.6740,112.3518,14.7550,24.7236,135.4631,-11.7035,21.5322
154.6855,53.9945,117.3357,131.3443,40.0493,-0.7550,75.0173,-27.0802,-16.8266,-6.4248,54.3107,67.2013,54.2255,63.9930,12.6120,97.5408,52.2880,0.4419,6.0134
158.1973,39.7923,59.7141,97.8061,33.0035,-14.3440,113.6463,28.3544,13.4482,68.2840,71.5994,10.8014,71.0099,32.7143,1.6612,77.1295,13.2342,54.5628,4.4282
130.1830,14.7133,24.1830,122.5198,56.3533,15.3538,163.3381,54.1344,47.2522,96.3768,82.6932,-22.4214,119.9977,39.8563,45.3966,-34.2795,8.5777,82.3484,16.5517
44.6887,-1.9013,-10.9446,146.5803,86.8656,53.6862,182.4931,43.8155,41.2278,42.7893,68.2893,-3.9063,162.8336,56.5079,119.6750,-96.9201,7.1023,55.1316,37.6517
24.2206,-29.9972,5.2045,98.8268,129.9342,66.0184,194.3452,25.8585,56.1065,-1.0822,61.1133,19.2730,161.1154,103.2812,122.2509,-43.0637,51.0805,39.0596,86.3529
87.2271,-40.7686,84.1238,63.6138,176.0152,92.5779,197.7357,35.9678,106.5688,32.1559,82.4872,16.5132,113.8200,155.0339,19.4763,23.5062,119.0762,66.1316,106.2793
120.3833,14.5917,139.9559,97.8821,160.5506,118.3830,139.4810,42.0931,77.4601,33.6339,100.1257,-13.8241,50.4346,130.8282,-87.6576,-0.8348,146.8024,79.7480,49.8657
117.1907,69.0900,143.5076,119.4706,106.5254,94.6725,62.7026,6.6777,-21.6818,-58.7607,83.7258,-43.8450,21.0877,76.1206,-74.6332,-62.4278,164.1527,69.9693,13.0949
115.5511,40.9243,147.9068,115.6195,116.6038,93.0645,67.0911,-24.9018,-34.2054,-122.6353,57.3607,-8.7510,55.0406,100.8048,28.9006,-55.5508,205.0363,99.2226,64.1554
82.4057,9.1845,170.5481,159.3948,170.6827,168.7602,118.9451,-13.4000,20.8560,-103.7941,79.3916,87.7614,112.3548,169.0600,77.9828,6.3252,235.1682,163.8544,100.8983
68.4668,62.1188,210.5935,217.4188,181.0138,215.0387,130.2006,2.5416,-0.0608,-83.9352,157.9914,140.0685,136.7098,195.6548,55.2635,28.2740,268.2994,201.7551,63.4049
144.9695,113.2043,279.9134,226.2470,185.3755,181.7283,133.6332,0.3440,-41.1114,-58.7926,210.7510,112.5358,133.6066,199.9610,59.0743,-1.2184,330.5310,213.2905,47.3250
189.4920,83.4368,323.6047,226.4049,229.5771,169.1644,173.0676,8.2218,25.6041,11.8944,179.0781,87.2744,121.3108,193.4694,54.3780,-9.6696,348.3087,222.8882,89.8071
125.2963,72.3979,273.6384,235.4583,229.4306,184.1200,186.7074,20.5244,112.4054,42.2705,130.1088,92.6471,80.2210,132.5215,-35.5074,-10.6296,274.8076,197.5009,101.0359
131.8975,161.6907,182.0132,201.5980,146.6900,135.0208,143.3290,4.9728,80.6290,-11.8858,141.6853,73.9351,32.4255,51.8610,-82.1306,-82.9150,173.9216,125.0461,51.7582
271.8899,250.7954,126.2862,139.4886,71.7150,68.2578,102.5983,-12.1378,-10.7377,-38.2610,174.5761,27.0743,48.8608,32.7253,20.6773,-148.5155,84.2839,74.8895,14.9108
335.5993,242.2697,80.6667,105.1582,48.5806,86.5991,98.5002,22.7703,-27.4286,12.6049,160.6513,-0.5950,112.9540,64.6078,111.4224,-62.5761,4.3626,87.8006,30.3885
263.2064,202.5453,23.6451,83.3991,42.5188,129.3101,124.2527,84.5524,35.6337,49.8417,115.4026,2.2261,129.9031,92.0041,78.2154,77.4220,-35.4096,99.4260,62.3488
214.9572,205.3224,2.6441,36.4929,41.8813,95.8973,165.8037,99.0662,82.4450,42.2594,91.5207,16.0575,89.8592,111.2254,41.9639,89.5703,-54.5515,48.5570,67.0199
208.4308,187.8134,6.0643,-23.1157,32.6701,38.8400,168.6889,76.7614,67.1925,55.3261,96.2943,22.1111,54.3786,130.7788,30.9008,44.1687,-115.9159,-22.0373,49.5630
154.4093,97.0611,-35.8141,-63.2651,-12.2658,40.3883,108.3406,88.4553,36.1465,88.2522,85.6747,3.4402,22.5668,129.6710,-42.7958,47.2033,-180.3029,-46.8777,50.0816
86.6120,16.9480,-112.1476,-76.4174,-62.8427,58.8285,59.8149,116.4706,11.3725,69.6186,23.6453,-34.0230,-29.8275,100.6156,-95.7622,12.4639,-181.0047,-38.2082,69.0943
34.9450,14.7915,-161.3224,-87.5262,-80.3927,35.3400,53.7237,99.2427,-49.0156,14.2701,-53.4164,-58.6758,-68.2049,70.9468,-44.7923,-47.2089,-170.2971,-30.5758,56.7784
-37.5206,28.3990,-173.1389,-108.0292,-91.5530,8.0123,15.9039,78.0510,-122.4277,23.6914,-77.1588,-57.5445,-72.1252,63.8341,-28.2329,1.8064,-195.1673,-13.3238,5.0452
-66.7626,16.2955,-152.1218,-94.9281,-117.9832,21.6700,-48.9491,106.2844,-131.2336,101.7138,-55.8805,-49.5888,-78.5328,76.5409,-107.3170,64.5860,-190.9178,22.4132,-29.0325
1.3593,30.9465,-95.4021,-26.5736,-125.5334,49.5435,-41.9881,128.3749,-101.3890,137.4860,-52.0277,-47.3209,-102.2941,97.2835,-152.0600,10.4935,-125.8422,57.4015,-11.7773
38.6442,72.1070,-46.7308,33.4286,-91.9351,61.5962,31.2628,115.9228,-97.1605,121.9504,-69.2516,-45.3809,-117.1128,104.2677,-143.9770,-8.8579,-70.5022,74.2617,29.7890
-33.9997,63.4292,-52.5615,31.4529,-51.2235,57.3182,78.9526,130.4323,-64.6021,162.2751,-71.9193,-55.3438,-103.2069,64.9968,-137.0195,85.0263,-71.9199,51.2026,58.8234
-97.0320,-0.6280,-86.1326,-3.0147,-44.7633,30.8517,98.0710,165.9470,53.0782,241.6389,-66.6192,-94.8403,-53.6805,-0.3552,-63.0335,116.9035,-90.7939,-6.8679,72.1577
-81.9625,-42.7245,-98.2579,-22.0833,-54.6165,3.2486,138.3280,162.3907,172.2063,236.4952,-67.1587,-123.7042,4.6558,-10.8686,46.9186,72.4618,-77.4461,-29.4138,85.4805
-58.6377,-17.3399,-85.0572,-12.5590,-43.8166,16.6764,160.9242,138.9656,173.4722,159.7271,-56.3729,-81.9981,-2.3541,38.9024,8.0174,77.7607,-50.2256,2.2265,77.8448
-55.8189,47.1733,-72.4199,7.4321,-55.6017,36.5037,92.7588,119.6199,48.3557,113.2923,-44.0637,-8.1141,-90.0064,60.8692,-143.4886,61.7262,-58.5999,-2.6432,12.3997
-62.7350,83.6034,-85.2570,10.9750,-130.8864,3.4751,-10.0730,82.3430,-72.3178,97.3949,-67.2760,11.4555,-144.3612,54.8050,-173.2364,-14.6574,-79.0355,-56.7606,-59.9449
-94.5056,65.4106,-117.6456,8.4965,-176.5773,-33.7210,-13.3653,60.0067,-50.1505,75.2363,-105.8471,-6.0758,-79.2749,93.7036,-61.7515,0.4304,-57.5297,-69.3421,-61.1370
-108.4086,58.9695,-128.8896,19.9182,-139.7108,-29.8191,42.4509,65.7484,26.7612,47.1757,-104.4084,1.9618,2.9912,120.1005,5.8880,70.5818,-42.5297,-73.6271,-60.8582
-52.7658,110.2275,-115.5297,1.2394,-148.1797,-67.4108,-32.7332,0.6027,-56.5653,-29.4588,-85.2966,10.1069,-48.5280,37.0878,-51.5530,7.8681,-95.3612,-165.1526,-158.1995
-4.5761,132.6364,-126.3208,-77.1114,-231.3819,-173.2668,-204.6070,-145.5522,-230.8066,-167.6645,-121.1118,-14.7004,-180.3141,-68.4056,-152.0070,-111.4307,-140.0596,-255.6974,-245.4459
-52.4503,45.4489,-157.9277,-144.2929,-221.6898,-222.3155,-214.3055,-224.2601,-232.3300,-247.0713,-193.4976,-37.1690,-200.6009,-75.7689,-176.4533,-116.0704,-110.3498,-228.2427,-188.5407
-142.8445,-81.0783,-152.1543,-156.7446,-115.0226,-174.5906,-63.0196,-197.5611,-106.3545,-207.0150,-209.0086,-55.2605,-95.5690,-44.9475,-113.3164,-74.2696,-88.8495,-172.4454,-101.0966
-185.1126,-143.3651,-117.4829,-169.0424,-89.4804,-146.0549,-28.6102,-185.0053,-101.9781,-179.5281,-158.0601,-97.9514,-53.5346,-60.2456,-89.4499,-95.8505,-126.1266,-189.9100,-131.7959
-167.7001,-138.5169,-110.0559,-195.4877,-134.7187,-178.3136,-140.3411,-219.2972,-186.3563,-245.2377,-121.4061,-121.5868,-136.3307,-79.9188,-152.4690,-142.9337,-139.9996,-218.5137,-190.1026
-121.0805,-114.2585,-112.2291,-187.9747,-116.1129,-191.0290,-161.1677,-225.2561,-163.8274,-282.6542,-121.7662,-87.2853,-190.8537,-64.4112,-172.3111,-159.9207,-89.7114,-199.8696,-142.0596
-83.0039,-100.6590,-72.9445,-149.7055,-58.0094,-149.3937,-50.6113,-180.5616,-53.2070,-202.8575,-108.9259,-49.4155,-131.1674,-42.7279,-94.1533,-137.8298,-38.1886,-155.3551,-49.1456
-78.3720,-100.1006,-21.1289,-109.7082,-21.8677,-94.1927,36.4016,-127.7824,12.2688,-106.2649,-72.9739,-42.1051,-35.2946,-33.6727,-10.9276,-101.3027,-30.7239,-91.5963,-28.5173
-91.4538,-90.3071,-16.3692,-66.0610,17.3847,-62.7815,65.1904,-107.0186,9.1353,-93.5170,-46.9285,-30.2010,33.0901,-40.8922,44.3132,-89.0088,-49.4535,-31.4293,-59.8229
-105.5882,-66.3503,-44.2638,-37.0761,33.0184,-67.9565,82.6421,-121.4500,-16.1660,-116.6924,-38.8796,-16.5193,56.1510,-67.8098,65.7971,-81.8971,-54.5987,-32.6692,-55.5480
-128.3058,-56.1088,-55.4808,-49.9064,-15.9428,-98.4371,63.1215,-132.9996,-30.6221,-108.6401,-45.1369,-36.2191,10.1829,-93.9914,-7.7850,-77.3878,-41.8762,-87.3167,-26.8767
-150.4443,-65.1033,-56.8410,-84.4902,-77.4244,-132.8551,-12.2158,-124.8018,-37.7854,-90.1985,-67.8002,-71.7651,-51.8373,-106.7481,-112.9274,-139.8168,-67.2528,-144.8902,-58.8782
-160.1610,-80.1981,-83.0083,-117.5178,-123.1904,-167.1987,-82.7573,-120.2635,-45.7437,-76.5824,-89.2687,-88.6873,-44.3005,-111.9430,-105.4339,-180.9475,-141.6879,-199.2301,-124.8706
-165.9981,-110.0231,-115.3305,-146.9984,-163.9916,-189.6414,-74.1485,-104.6703,-1.1692,-34.0231,-95.6947,-89.0629,-11.6027,-90.9210,-26.7266,-37.3143,-171.1875,-233.1919,-101.3142
-153.4921,-140.8178,-112.3572,-149.3393,-151.4958,-168.7180,14.6314,-53.8392,106.5820,26.1224,-103.8159,-81.2907,-22.0867,-44.2298,16.2563,120.1945,-120.0532,-198.5368,-16.4621
-107.0099,-126.0740,-85.8970,-103.1070,-90.9499,-112.4007,82.0036,-21.0776,141.7929,48.9631,-113.2358,-60.3895,-16.7842,-28.8976,49.0605,14.3913,-71.5026,-115.1025,-24.6556
-58.0531,-65.0836,-56.1155,-29.9715,-74.2321,-69.2861,46.1609,-48.9780,44.9115,19.0015,-93.4841,-24.5102,20.3566,-56.7848,58.0454,-186.7990,-43.7538,-57.7656,-99.1667
-19.7200,-2.7909,3.5886,28.7223,-86.6896,-53.9049,-22.3903,-88.0351,-46.6089,-56.2861,-47.7431,9.8296,-9.2838,-67.1324,-24.4465,-173.6436,21.4897,-42.7724,-81.7308
25.2953,24.5417,79.2967,38.2877,-51.4789,-41.8126,-31.3407,-99.2041,-74.4931,-152.2695,-18.7065,11.7175,-79.7780,-49.2489,-105.1419,-42.6733,86.2651,-27.8041,-3.4706
36.6916,-6.2021,84.6515,5.1690,-14.0735,-27.3515,-25.2460,-97.9946,-122.2344,-185.6318,-25.8402,-19.4654,-62.2201,-50.5963,-84.9231,-19.4871,71.6167,2.1278,-7.9307
-17.8876,-65.1007,6.9791,-12.3019,-32.3166,-28.4135,-56.9539,-85.0366,-165.2698,-115.0788,-47.9510,-41.0288,-4.4167,-65.5038,-62.4762,-61.9436,8.4428,13.4577,-66.2787
-65.0358,-66.1277,-59.5870,-0.5256,-61.2039,-44.5816,-75.2708,-54.4600,-127.8035,-25.5439,-59.0828,-36.5145,-35.8741,-48.6643,-100.7158,-46.3144,-40.7563,-15.9004,-62.3830
-58.8272,-11.8223,-77.0285,-21.5005,-73.2712,-49.2325,-51.2435,-17.3572,-71.9643,17.0320,-56.8525,-32.7142,-93.6918,-8.3203,-107.2811,22.3647,-79.8549,-50.3047,-6.4543
-61.8480,-7.8015,-92.0858,-75.3570,-76.8653,-30.7207,-30.9007,21.7895,-58.5185,36.3624,-53.3700,-38.3436,-52.9503,9.4418,-49.6256,61.6194,-111.7548,-46.9194,26.0122
-92.3001,-67.4793,-108.9510,-89.0711,-45.7467,-12.1387,-29.5212,42.1596,-45.6025,24.4275,-45.4134,-51.4197,37.7533,-6.1963,17.7203,7.6724,-108.0172,-24.5960,28.8028
-96.7402,-109.5994,-95.0903,-74.1013,7.1263,-9.5530,-17.4944,21.0767,-26.1057,-28.0416,-26.6980,-81.7206,63.0622,-30.0128,51.7509,-74.6546,-70.1110,-20.3249,47.8020
-82.9498,-130.1461,-64.5487,-99.7888,22.2023,-8.4143,5.8157,1.5480,-25.1790,-40.0299,-27.0872,-102.9625,11.9453,-42.0687,3.3379,-60.3637,-34.8972,-22.5926,99.6040
-87.8694,-160.0297,-44.7864,-140.5910,7.4303,5.0729,8.2319,31.2503,-11.1859,22.9850,-69.8757,-81.3611,-51.0683,-30.0640,-91.2796,10.0364,-22.2282,-7.5392,146.7958
-85.8797,-158.9276,-30.3865,-128.3687,7.3020,35.1752,-12.0397,79.7038,37.5430,78.9157,-98.2526,-51.9248,-66.4861,14.0265,-89.9802,29.2552,-11.2276,18.8756,163.0327
-48.3247,-104.4936,-8.0880,-73.4829,14.9580,73.8551,-7.9285,105.5835,85.8466,83.6781,-44.3373,-49.2125,-34.4907,52.2617,-2.8794,37.7208,21.2210,43.7173,167.4997
4.9872,-40.3715,31.8678,-17.6169,15.2233,76.9045,29.2867,96.1386,91.3431,55.6738,44.7363,-37.4355,-16.9086,21.4235,22.5759,58.6157,58.8611,60.3631,154.7204
