Fp1,Fp2,F3,F4,C3,C4,P3,P4,O1,O2,F7,F8,T7,T8,P7,P8,Fz,Cz,Pz
74.1541,38.5253,101.5837,61.3692,57.7355,49.6356,104.0972,80.0987,50.2145,-13.6283,74.9406,38.9776,106.0248,-13.2463,110.9107,40.3026,-1.2536,-6.5613,87.2384
-49.9915,-114.6667,-46.4105,-75.9117,-29.8242,-19.5637,-13.1464,-145.6317,11.3964,76.2171,34.6984,-61.4045,111.8137,-96.8189,50.4067,5.7493,-7.5404,-100.8914,-60.1983
-199.1973,-198.6031,-217.9117,-160.1253,-179.8259,-153.6246,-170.2374,-227.2638,-20.0318,170.2689,-106.5938,-134.9232,-1.3796,-176.7576,-72.2469,-22.6407,-43.9242,-183.8768,-166.3554
-193.5171,-98.5963,-209.8783,-141.8495,-195.2910,-248.3847,-147.5247,-144.3423,30.3146,244.8679,-135.2960,-122.4821,-85.2455,-188.5577,-101.7584,-63.4344,-43.5366,-215.9870,-130.9669
-131.1518,-15.8738,-127.1219,-143.1400,-133.4281,-306.3362,-46.3125,-116.4679,56.0451,259.8125,-78.2321,-97.2945,-89.0102,-207.0489,-86.8502,-97.8012,-26.8651,-237.2886,-110.0080
-154.1647,-54.3206,-142.8529,-155.9913,-152.8271,-359.7673,-75.3075,-179.9442,4.9906,209.7745,-92.7559,-90.5029,-103.1688,-238.6784,-121.1298,-92.7796,-48.5060,-237.6182,-168.8742
-203.4462,-99.7097,-204.3013,-109.9896,-193.4242,-360.1645,-143.1418,-202.7516,-15.7726,171.5747,-139.6432,-80.9101,-127.7299,-221.0953,-135.4499,-83.0148,-97.3598,-170.4785,-181.0038
-217.2723,-117.2000,-230.0317,-87.9748,-147.1253,-269.3484,-96.2475,-176.2505,8.4634,189.5501,-131.6677,-81.4248,-89.1064,-177.0082,-82.9872,-83.2986,-139.1481,-58.1769,-128.0350
-224.9076,-144.2944,-246.5863,-149.7389,-65.8566,-126.6983,-34.2323,-154.4770,-18.0369,192.7141,-111.9192,-95.4481,-18.9219,-121.6420,-47.7459,-47.0386,-176.1196,37.3952,-99.5822
-219.5518,-152.8294,-251.6848,-205.1279,-20.8246,10.1653,-73.7934,-113.9947,-79.6919,139.1311,-113.1868,-97.5169,-5.5597,-16.2871,-75.3256,2.2871,-208.3540,88.5641,-94.9587
-199.5863,-138.7214,-226.6393,-203.9568,-2.3154,102.5951,-121.9432,-58.1662,-85.3885,121.4005,-114.9286,-80.5098,-46.0047,84.8623,-112.8574,7.9048,-209.0044,96.9827,-90.0595
-213.0210,-135.1940,-213.0551,-184.8173,7.7317,131.8533,-81.3861,-44.6813,-22.9540,193.5232,-123.3712,-56.2795,-63.6273,100.8788,-103.0202,24.9548,-177.1668,73.8843,-101.4087
-238.9236,-137.1350,-216.5250,-166.5091,10.6476,104.9374,-25.5351,-68.0648,67.5020,243.4875,-123.2259,-48.5195,-28.8278,79.3467,-45.5128,103.2158,-141.8920,33.6730,-101.6784
-205.6568,-141.0980,-184.3054,-154.7837,-1.9064,46.9422,-48.1506,-76.3498,135.3886,193.7768,-83.2972,-61.5910,-9.6050,80.2538,-15.6961,161.8117,-94.4032,-16.5374,-78.2070
-125.8572,-126.3471,-120.5666,-135.6010,-40.5569,-1.3701,-111.2626,-52.3184,124.4458,147.3905,-43.1803,-45.0681,-70.9492,82.8646,-74.8489,147.6847,-11.0625,-71.1377,-88.5731
-67.3543,-41.7471,-77.5727,-68.9705,-82.2368,-11.6231,-133.7952,-6.9436,51.7079,174.4192,-43.5427,6.6988,-145.8341,87.3505,-144.8233,107.2421,61.2202,-127.2739,-128.2681
-57.8346,54.7641,-65.7154,-2.6355,-97.7861,-29.5444,-114.7577,19.4473,1.9445,176.1373,-50.7651,6.4576,-122.0921,97.9664,-119.5130,45.3104,64.8780,-192.6519,-131.7760
-78.6874,57.2212,-60.5795,-25.2017,-92.8773,-115.9843,-77.6202,-28.3809,0.7619,106.6604,-38.6905,-52.7350,-32.9197,64.9461,-43.7256,-55.7692,37.5319,-242.9216,-112.7021
-90.3771,21.2279,-50.9326,-79.6733,-63.4710,-205.7532,-5.0645,-119.8528,9.6287,68.7218,-22.7105,-72.2514,7.2612,-4.0388,-8.5259,-130.5934,27.0656,-202.8454,-104.6084
-74.3249,31.0311,-49.6749,-67.5871,1.7597,-171.5656,79.5793,-139.1829,14.8445,88.2921,-11.3878,-47.2594,2.2019,-25.1983,3.8967,-124.6855,-0.7829,-47.6390,-68.3254
-53.0253,26.5383,-67.1006,-42.5216,73.2372,-21.5008,108.1286,-47.6425,19.7455,73.8075,-9.7431,-39.0039,29.7243,26.0122,37.7521,-69.8100,-53.2307,126.9359,7.1305
-39.4708,-17.1668,-77.6137,-73.9410,131.4789,122.7491,99.5079,61.4174,23.1182,26.6412,-12.3591,-22.7333,83.3591,113.8095,77.0920,-0.3941,-58.0807,215.9335,71.4776
-23.8220,-32.3897,-52.4375,-104.2776,189.5125,201.0141,122.1128,96.7110,52.2916,23.2907,11.4683,20.3235,109.2911,206.2787,99.9518,50.9381,8.2700,226.1955,110.8442
-9.8687,-35.0610,-13.2886,-80.3437,220.8855,232.9819,141.0903,58.4108,115.6049,39.2614,53.7733,41.7632,100.9749,251.5061,96.7045,33.3754,94.1895,220.4074,124.8061
2.1803,-54.5574,3.0505,-27.4770,193.5675,228.4706,87.8539,-11.8636,133.9668,13.2148,58.6423,46.4505,69.8673,217.9843,56.2050,-13.8172,163.8341,213.5834,78.3287
18.7891,-29.0452,-5.5696,26.8616,144.3526,182.9090,7.2313,-87.1532,51.5829,-20.7090,19.0874,54.0412,25.6622,154.9338,6.1174,9.5964,190.4673,182.5956,-10.7935
17.6005,23.5943,-29.6639,49.5699,105.8790,105.9512,-20.1663,-150.1487,-35.8960,-12.7029,-17.4254,10.7770,-3.1041,102.1030,-6.1247,59.8885,145.3894,114.1056,-68.1678
-8.8461,3.3868,-61.3062,-1.9410,50.7760,7.2931,-13.4352,-186.6162,-22.6832,16.1038,-26.5596,-86.2096,-15.8054,36.6515,4.5813,5.7192,67.2074,10.3174,-97.0175
-24.9207,-58.8984,-81.5867,-98.5434,-44.3221,-101.3374,-53.5956,-206.5707,17.1014,28.5278,-11.2741,-157.1928,-54.0501,-40.2774,-19.0883,-111.4196,22.6130,-108.5654,-166.3507
-31.6157,-74.2695,-81.7271,-161.2664,-170.2358,-193.1381,-162.4062,-244.9432,-35.3421,8.6005,13.3946,-186.3673,-115.1767,-103.3140,-83.8347,-147.1755,1.8060,-211.0077,-266.9810
-58.9091,-66.0872,-68.6672,-165.7608,-279.9158,-253.8020,-256.3900,-312.9265,-126.2711,-39.4766,18.5126,-197.9390,-141.8192,-162.5881,-138.1992,-126.4680,-27.7374,-280.8311,-319.3949
-80.0865,-66.2238,-49.4261,-135.9920,-289.1194,-291.1321,-245.1543,-364.7682,-146.3531,-72.9611,2.6483,-167.8524,-118.0611,-205.2720,-143.8022,-165.5282,-38.9343,-302.0470,-299.3440
-73.2134,-45.6902,-47.5574,-90.3348,-185.4785,-286.6459,-158.5013,-346.5889,-119.3873,-53.1298,-8.6875,-103.7968,-80.7400,-171.9957,-106.1325,-225.7952,-16.3174,-240.3270,-239.6694
-93.0884,-28.4975,-87.9239,-52.0926,-69.4923,-195.2858,-78.3001,-260.7890,-94.5577,-3.2428,-27.3634,-62.0325,-48.2879,-64.4309,-44.4283,-204.8116,-9.7145,-104.1735,-149.5943
-172.0583,-70.2533,-150.6230,-44.1876,-4.9246,-31.0913,-4.4094,-149.8044,-39.5016,42.3927,-76.3273,-47.2799,-14.3974,41.9738,19.8637,-136.6722,-49.8027,29.0573,-37.8618
-255.6664,-137.3215,-198.7290,-49.5241,24.7811,116.0277,68.7725,-47.9880,41.2020,84.7021,-117.6357,-31.8264,22.0478,110.1793,53.7921,-87.6619,-92.5549,104.8802,38.6896
-282.5712,-158.0839,-219.9466,-38.6440,11.6139,181.9664,73.5826,22.9053,88.5649,110.6740,-107.7510,-21.0622,54.4107,153.6026,44.8244,-20.0310,-88.7203,131.7400,47.6523
-245.3580,-147.1004,-205.5014,-27.1044,-47.4772,176.3874,2.9516,54.5180,108.2305,101.6209,-71.6267,-28.7815,61.9069,163.5836,21.6949,76.7709,-49.5282,122.8266,32.8171
-181.4874,-170.6673,-154.1633,-37.2792,-95.0492,127.7815,-50.0793,58.8244,123.1975,95.5880,-44.0299,-51.3283,28.1898,128.6001,3.9663,108.4061,-5.0616,94.7378,22.2570
-132.3474,-211.8123,-95.8032,-34.6702,-109.2334,62.5364,-51.8518,36.4057,94.8543,123.9520,-17.9208,-63.2078,-16.2894,87.7737,-18.4632,44.8065,50.3103,85.3675,-12.3378
-97.1182,-182.1534,-54.7616,13.3237,-126.3842,20.7334,-49.9218,-20.8099,16.6379,136.7787,2.9760,-38.4444,-32.9244,79.6552,-40.5075,-12.3649,114.4589,101.8135,-63.1823
-61.5466,-91.0556,-30.3053,59.4737,-153.6031,17.8114,-59.9950,-69.5988,-53.7978,101.7067,-8.1179,-15.9800,-42.1134,70.2261,-52.0931,0.2257,139.7452,113.6297,-86.1308
-43.7705,-45.8313,-23.0899,48.0915,-186.2889,16.8503,-74.0301,-69.2449,-85.4147,70.3171,-34.9068,-56.1331,-72.3540,2.1403,-68.9205,16.6318,110.2829,98.8162,-99.4186
-43.6414,-53.9985,-22.5473,8.0682,-237.5582,-17.6196,-104.1739,-88.0435,-74.0014,67.3627,-27.3510,-119.6929,-94.7511,-107.0988,-87.7371,-37.7246,79.2347,39.2214,-146.4827
-30.1163,-31.2339,-10.4473,3.1404,-288.2990,-68.3563,-142.4240,-179.8231,-27.8473,62.9740,5.5406,-124.8498,-86.9432,-173.8708,-86.7560,-136.7452,76.1784,-53.0275,-193.1453
-14.1101,24.9861,-5.7049,51.9111,-303.3513,-81.8912,-144.7664,-229.9834,-2.2512,72.8036,2.4965,-65.9421,-80.0039,-144.4057,-85.3110,-204.3130,78.4343,-97.9554,-173.9638
-19.1897,72.1778,-30.9637,115.4913,-263.8929,-28.7302,-72.9587,-147.8085,-19.4903,112.4775,-40.6349,16.5100,-85.9086,-50.8308,-95.0899,-208.3862,74.3928,-59.1737,-87.9151
-29.0156,98.3789,-67.4119,117.1235,-151.4717,51.3159,50.1268,-48.8542,-18.0761,116.9791,-69.9324,64.5403,-70.4666,28.1777,-71.1823,-158.0776,54.7285,-9.0204,15.6671
-52.9391,55.5307,-103.7161,31.9122,-6.6622,100.4750,132.1489,-23.9668,11.9164,74.8852,-75.1801,28.8376,-19.4277,62.9558,-6.9904,-69.0562,7.8436,24.5083,96.5736
-109.0838,-54.7774,-141.6294,-44.4882,67.0937,128.8914,131.5404,14.5761,11.7874,84.2676,-84.2579,-24.8811,42.0093,100.4340,43.6143,12.8337,-21.9513,90.9391,142.8566
-134.3037,-90.2160,-148.0920,-36.7941,62.6709,166.8062,125.9691,83.3593,0.3916,139.3350,-86.1024,-2.6001,85.7388,161.0235,72.1738,37.7455,9.0768,160.8959,148.0052
-82.6208,-9.0047,-107.4137,-16.9663,64.5515,178.2143,142.7575,52.1428,21.3650,99.3462,-59.0047,23.0529,95.9425,182.4744,94.1238,31.9204,54.1097,171.8634,89.6071
-19.2873,38.2955,-59.6101,-47.5736,66.4343,131.6158,84.2395,-90.2952,16.9763,-50.3499,-19.8069,-29.4125,71.3141,134.6111,76.4582,29.3258,70.0654,164.5874,-24.7271
15.3800,16.7814,-20.1745,-61.6259,22.3964,75.1364,-53.0259,-215.6394,-51.9464,-168.1937,19.5736,-55.3328,26.2805,81.1860,17.6926,-23.3243,91.4092,176.6919,-116.9533
52.5395,31.5756,20.7642,-17.6477,-13.6944,49.7881,-132.7621,-277.8770,-109.5105,-187.4649,58.9528,1.6684,-23.0110,57.0269,-28.9086,-128.8422,119.3533,164.8818,-132.9922
66.5128,44.4210,25.4396,20.7139,-10.7393,32.5001,-128.6668,-302.5033,-102.0639,-146.6973,62.9545,14.8848,-68.2095,14.6425,-67.7827,-163.7631,106.8762,124.2610,-123.9253
19.0159,-28.4568,-27.8690,11.4825,-39.5312,1.8031,-144.5229,-281.2226,-66.7880,-67.7245,10.9671,-56.6694,-110.1209,-60.6536,-134.4872,-99.7575,74.1918,83.3283,-141.9154
-26.4655,-91.2721,-76.9445,-18.4902,-109.4427,-37.8644,-195.2193,-231.9821,-48.4695,24.1063,-43.1823,-107.4619,-155.2589,-112.4596,-197.1141,-64.2802,71.3216,28.2390,-151.9832
-6.0265,-49.2956,-69.1591,-26.0526,-132.3673,-69.5966,-201.1015,-201.3888,-61.5600,63.2814,-45.7010,-100.6649,-188.1117,-103.9741,-216.6923,-105.5193,87.1434,-16.4860,-110.9065
45.9673,28.9750,-28.3566,11.7663,-63.9299,-56.5703,-124.0507,-172.4389,-84.0154,21.6161,-13.2026,-71.4035,-171.6903,-54.9378,-196.7142,-160.6154,102.0317,2.9302,-21.1617
71.9033,60.9834,-3.4509,50.5482,64.2497,6.4366,17.2112,-107.4620,-67.1836,-46.8295,10.5496,-44.2712,-108.8322,-3.0723,-130.2626,-193.5185,119.7017,48.8393,99.2962
54.1941,33.5413,-18.7202,31.4096,190.8663,72.3879,164.3670,-21.0929,-8.7772,-54.5670,7.6641,-56.8948,-46.3146,31.6573,-33.5655,-157.2384,132.5938,79.8779,205.7241
20.1235,-23.0467,-43.7153,13.3979,259.8135,137.5070,235.9143,60.4502,43.7943,25.0959,0.2434,-91.2614,0.5950,64.0829,24.3630,-28.9097,153.7891,140.6240,238.2463
22.7655,-24.2190,-17.7190,82.9788,276.4013,229.5866,203.0432,113.8677,66.1926,99.5568,33.8596,-57.9023,49.8193,118.5599,28.8948,52.8641,205.1905,218.8996,196.5303
58.5611,67.0150,45.0425,175.3244,274.8996,288.6182,102.2876,104.0022,38.2220,67.3497,105.3006,32.5748,85.1058,181.2407,25.6493,-14.3201,238.2210,233.6160,121.6296
62.7247,153.4980,64.1310,185.9689,232.7376,242.9161,-26.0923,31.2831,-65.3870,-34.6592,142.9386,78.4957,68.3519,208.0445,3.6503,-87.6921,202.8145,193.5231,22.9392
30.9288,153.6641,36.0973,127.8205,140.0092,145.9223,-138.3195,-65.8955,-185.8573,-117.7777,120.8013,58.5533,3.4300,175.5455,-57.2524,-51.8963,145.4873,147.8901,-86.5892
10.4665,92.4310,20.9861,36.3679,61.2149,70.9735,-194.9671,-156.1692,-229.6469,-176.1475,99.2258,-7.2068,-66.5179,108.0878,-102.2771,-0.6684,104.2545,83.7528,-157.1556
-12.5133,-4.3208,11.4195,-80.5693,8.2656,7.1980,-222.5107,-198.1557,-217.4337,-204.7046,102.7430,-118.1119,-109.8792,60.9583,-116.6460,16.6168,47.6188,5.2023,-175.2277
-56.9711,-112.3336,-22.6900,-161.1062,-80.7931,-51.8112,-276.0351,-167.3394,-221.1708,-155.0739,88.4833,-202.7560,-138.7296,56.0387,-177.0418,40.6762,2.4103,-64.1441,-184.1780
-68.3853,-160.1427,-42.9078,-156.1300,-183.1072,-97.9599,-345.7194,-134.5471,-234.8633,-68.5325,50.2725,-188.9082,-189.4071,43.3093,-298.5211,12.2770,36.3021,-144.6477,-209.1662
-28.0579,-126.1031,-27.2047,-115.5999,-207.3632,-158.3981,-377.4187,-176.0462,-239.1100,-53.7360,16.1878,-138.6331,-258.6752,-18.9120,-397.6870,-107.1029,95.4721,-201.3751,-224.3297
-12.6621,-72.0588,-30.8963,-91.7912,-146.1071,-192.9241,-337.1103,-227.8657,-249.1517,-100.9505,-29.8818,-124.8398,-295.8234,-84.3761,-428.1207,-209.6158,73.1134,-140.4540,-177.2444
-67.4594,-40.1650,-85.5417,-81.7381,-52.1081,-99.6619,-219.9211,-182.9737,-237.3974,-97.2663,-101.2698,-119.4502,-277.1725,-87.7072,-409.4853,-238.6651,-8.8948,1.6634,-39.4182
-139.3772,-36.0374,-148.1997,-82.5763,48.5154,71.1097,-60.9218,-67.4964,-171.4271,-18.6816,-149.9773,-105.3253,-226.8276,-40.8701,-363.4027,-231.0319,-68.6317,75.8288,118.7958
-172.0841,-63.9198,-184.7641,-95.3390,119.5124,144.2518,53.6515,0.7758,-113.9073,18.4734,-151.5101,-117.2583,-173.9603,-15.3046,-322.6755,-176.0890,-114.3129,18.6665,155.2072
-183.8124,-103.2374,-216.3407,-120.4160,108.9814,85.8813,41.4518,-40.3424,-135.1812,-74.6705,-153.9450,-160.6046,-152.1209,-57.9620,-331.8091,-104.4709,-181.4870,-113.2378,27.3658
-217.4478,-127.9214,-263.8886,-164.7385,29.3630,4.3265,-85.9518,-144.5170,-191.2696,-196.3034,-182.2415,-204.9442,-184.2588,-127.0569,-379.6748,-113.9539,-235.1543,-209.2260,-142.3692
-255.5678,-141.5588,-301.3503,-194.2765,-50.7999,-49.3093,-211.1113,-207.9075,-204.1686,-179.2306,-196.7536,-213.6750,-228.7264,-136.2137,-401.5717,-157.6929,-232.8501,-179.3472,-229.2207
-243.1628,-139.2210,-287.1098,-168.9023,-91.9110,-88.6497,-236.6265,-183.5358,-180.9069,-65.3399,-171.4905,-180.3005,-226.5453,-94.8406,-368.7067,-113.7126,-185.4679,-73.0857,-238.2323
-178.8819,-108.6704,-219.1141,-136.5326,-97.2824,-113.8633,-203.1203,-141.1851,-168.4378,-31.2242,-124.6012,-171.0924,-190.5069,-102.0376,-318.0184,-32.5262,-115.6466,-20.5293,-237.0673
-107.3609,-74.0182,-135.9588,-146.4726,-77.7277,-133.1958,-201.0037,-165.5128,-166.2431,-77.4956,-76.3910,-231.2509,-158.1239,-161.2914,-287.3893,-10.0039,-42.9210,-24.5826,-253.5109
-50.9606,-57.8554,-76.5304,-149.7641,-59.1533,-161.4167,-229.5857,-244.2780,-159.9576,-88.4477,-38.4293,-285.2301,-131.3719,-178.3745,-273.3638,-11.1236,-5.1059,-12.6456,-281.5171
-20.0063,-49.2233,-51.8960,-120.8200,-86.0995,-195.8982,-260.3948,-315.7543,-179.9005,-89.3095,-17.4898,-271.2236,-123.5106,-159.3512,-263.2967,-24.9008,-16.9685,-15.9781,-317.7413
-24.4744,-49.5134,-45.7933,-115.2412,-156.5630,-247.6449,-316.2548,-351.4551,-242.5904,-146.2091,-8.4962,-250.3112,-150.8543,-196.0685,-260.9988,-97.7738,-44.8991,-78.8513,-343.2383
-45.7510,-74.1029,-52.8385,-144.1486,-202.1824,-315.9182,-371.9797,-342.0798,-295.7018,-194.8942,-22.6073,-269.9424,-181.1338,-281.4808,-269.7759,-165.2602,-76.4363,-146.1501,-314.5450
-74.0005,-111.7985,-100.5665,-172.8468,-190.1361,-339.3100,-342.2268,-275.3726,-299.5372,-169.7661,-87.4437,-291.7800,-196.2949,-334.0602,-284.5380,-158.6750,-132.7120,-181.2830,-219.7284
-124.5994,-140.8932,-179.4771,-203.1969,-160.9095,-283.1869,-232.8174,-164.7216,-277.5408,-91.8479,-173.9642,-295.1263,-222.6783,-337.0092,-293.7924,-164.0335,-184.3974,-212.5989,-108.8604
-164.3491,-153.6251,-210.2530,-224.4882,-129.5163,-211.7310,-137.0106,-58.4095,-239.7751,2.4736,-204.3325,-294.1960,-238.8203,-319.6429,-274.3256,-225.9851,-173.9502,-238.5184,-37.5584
-139.5483,-144.0175,-164.3368,-202.0059,-74.7837,-181.6770,-94.0422,-6.6043,-178.8254,48.5407,-164.7624,-283.6291,-200.0808,-288.8854,-220.9837,-230.8609,-118.6252,-240.2142,-21.6228
-77.1390,-106.6097,-113.9814,-155.6983,-24.1341,-172.5218,-87.0299,-27.5851,-137.5660,-0.9959,-111.3974,-256.3322,-153.6080,-245.0550,-178.8457,-144.9608,-70.2363,-231.1394,-55.0601
-27.6816,-45.1252,-94.8846,-116.4194,-12.6269,-162.4923,-108.5858,-95.7596,-142.0156,-61.8293,-70.6436,-208.5393,-164.3478,-193.4039,-185.1062,-83.2786,-22.7652,-213.5540,-111.8723
13.0763,22.3728,-66.8754,-63.3171,-16.2446,-146.7836,-143.1414,-158.0400,-136.7452,-60.6368,-36.3216,-128.3729,-190.4279,-131.6396,-204.0253,-80.8699,33.1985,-161.5091,-139.8462
37.6917,62.5172,-33.2670,4.0731,-17.8331,-94.2867,-159.8221,-171.2418,-98.9968,-75.8038,-20.4882,-42.5716,-166.3895,-65.6055,-182.0631,-71.1401,60.7799,-55.6573,-112.7380
27.9049,63.4690,-30.2446,52.0237,-18.2189,3.1836,-142.0261,-128.6636,-75.7524,-130.2374,-21.4314,-5.7503,-102.2535,-12.2954,-119.1246,-52.9788,61.4553,90.6286,-59.9422
29.3476,59.1242,-30.7918,84.4538,13.9610,88.7252,-96.2807,-58.5847,-61.1846,-114.1454,-11.6652,-13.2533,-33.2417,25.3642,-50.2145,-47.7620,85.6432,203.9987,-20.7215
68.6688,73.4563,-3.1363,107.4911,51.4452,109.5531,-66.0173,-9.4461,-20.4363,-32.2021,4.1477,-14.2196,10.1393,52.0224,-14.2414,-10.3086,123.5143,203.1835,-20.8832
85.7557,85.0223,20.8510,85.5420,-4.3768,67.3369,-97.3784,-16.8571,7.7145,12.6198,1.3528,-2.7872,-7.8426,46.2794,-30.9954,53.0305,115.8288,121.1167,-66.5667
63.5378,75.6185,20.5375,15.6620,-120.2490,6.4013,-151.6842,-49.1869,3.3680,48.5240,-10.4507,-14.6529,-68.7955,-15.2545,-63.7392,57.1477,69.2467,78.4599,-100.5790
66.9854,54.8480,22.1159,-45.9126,-144.1154,6.7298,-144.9018,-19.2567,28.4991,123.7082,-12.9255,-50.3444,-92.8464,-79.7040,-51.6031,8.6284,45.0467,128.6530,-43.2070
101.9841,32.8973,35.9140,-61.8142,-63.6744,114.1377,-72.2426,91.8967,81.7562,146.8038,-10.6537,-66.2754,-51.4117,-50.0456,5.5913,-8.2114,56.6838,218.3729,79.1118
106.3525,19.1066,45.8955,-47.2646,13.4722,245.6050,18.7671,185.3529,84.8041,88.3966,-8.6919,-44.8304,-4.5964,53.2766,56.9575,0.5205,68.9385,267.0356,163.3548
79.4511,32.6068,45.9467,-32.2643,67.2936,283.3245,116.4698,195.6715,55.6045,78.4322,-11.3005,-20.2759,-1.2751,93.3670,74.3572,-9.6793,71.0186,241.6768,193.8649
82.1506,82.8155,43.0316,-19.9840,119.1257,247.2167,206.6950,185.9943,80.5343,150.4761,-24.8989,-9.3093,-21.3632,35.3020,64.1632,-16.0053,83.8805,190.3592,231.5299
130.6401,150.2969,51.3061,20.6399,138.3420,234.1241,247.0967,204.5561,137.7317,163.3780,-25.8179,23.1256,-27.7498,-8.9932,47.5642,-23.8002,123.1216,179.9565,272.1889
180.2230,201.5238,85.0480,105.8092,133.3255,254.5695,234.2826,195.3530,138.3349,53.7311,16.5069,89.6607,-21.5818,19.9640,46.1058,-69.9529,196.3245,202.2077,264.1255
205.5815,228.9630,138.7922,195.8817,148.2164,267.5720,201.8895,132.5473,87.0077,-62.2413,76.4204,145.5963,-25.6006,74.2905,54.6433,-87.7317,295.0120,214.6375,216.7917
236.0181,253.6594,187.0746,232.0866,161.1326,270.7992,168.3317,80.0748,68.3952,-77.8214,106.6179,157.6257,-31.0976,116.8722,60.0060,-12.2782,360.3127,214.9349,176.1461
278.7131,263.3536,200.8023,183.8915,133.7749,247.6273,145.1550,68.9074,117.5858,-26.6609,106.1904,134.4437,-6.2211,130.2579,76.9679,53.9870,318.6304,193.3641,141.1446
270.7670,213.1954,163.9127,65.7831,71.5330,153.5347,129.4897,56.2321,172.6842,9.1416,90.7613,91.2116,38.7062,81.8403,103.8253,11.5658,178.3353,124.4810,81.9722
178.1535,121.2955,91.5517,-55.6230,-15.5216,20.5064,89.9706,10.5877,158.3173,14.3874,53.8177,40.1898,61.5370,-17.2723,107.6740,-64.5369,24.6920,53.2559,10.6930
64.4549,58.5507,15.5525,-118.0333,-84.7457,-52.2014,38.6355,-50.4212,95.3722,20.2980,4.3279,-6.3796,68.9872,-101.4863,108.1094,-78.7372,-78.1947,53.9930,-20.7155
3.6797,39.0031,-40.8037,-135.5754,-57.9145,-29.1155,43.2234,-79.4359,69.5766,43.1394,-14.2041,-43.1222,104.9509,-120.6930,156.3090,-45.5818,-114.0625,108.0051,3.8071
12.6381,37.5744,-50.0646,-144.1665,49.9186,41.8365,101.7937,-40.4499,87.6298,77.2357,21.6306,-61.2319,158.8445,-75.0354,212.6307,-13.3000,-94.4027,141.1489,38.8825
65.9477,61.2280,-2.8262,-129.0978,132.7295,116.2491,129.0875,34.5841,71.3811,93.5731,70.8441,-53.3726,171.1855,-14.9275,197.8340,-6.8458,-65.2358,138.3839,58.1931
98.9613,100.7419,40.9863,-87.9110,151.6301,179.7512,103.9257,75.8637,8.1215,52.3637,70.7497,-36.1243,127.1272,4.0835,137.1640,-18.7405,-58.9631,132.3488,90.3104
65.0813,113.0413,21.1262,-65.4987,138.9789,216.5818,82.2728,68.5720,-20.7613,-34.6536,24.6630,-33.0223,70.5549,-8.5147,104.7079,-18.0629,-41.5661,127.1772,130.8507
22.6462,103.0871,-19.7975,-65.1929,105.4121,204.5159,69.2862,37.9788,20.2251,-97.5037,-0.0647,-41.9465,31.0229,-20.0841,96.3803,-23.2216,10.7193,97.9653,124.1599
47.7325,112.8055,-11.6699,-37.7528,62.5049,139.9680,28.6301,-11.0372,61.1106,-89.6085,14.4526,-39.6629,-7.7501,-47.7764,67.2951,-75.4651,56.2882,47.2701,69.9478
98.0006,143.6161,27.2722,24.5559,36.8266,61.9642,-20.6028,-56.6447,40.0412,-19.8866,10.9226,-13.1396,-63.2178,-90.4092,12.8665,-121.8467,81.0915,14.3874,31.2780
95.3039,169.1835,45.7792,82.1228,21.8334,31.9347,-40.2389,-47.1932,8.5792,78.9825,-20.9850,14.8930,-113.1141,-89.1986,-35.7922,-94.3052,121.7499,13.7489,32.6736
55.0608,169.6114,41.5187,109.6579,2.5587,54.9718,-43.3120,10.6314,48.7050,155.7322,-24.9927,18.2871,-123.6811,-29.3611,-44.9344,-40.1428,162.6255,4.4469,41.9407
34.1116,140.1686,31.6160,96.8399,-19.5712,51.2460,-52.3408,36.5309,110.6627,157.6878,2.2422,26.6121,-103.9258,44.0776,-16.8025,-7.4190,147.7608,-51.5805,16.1014
40.9563,108.5101,19.8974,39.0947,-62.6668,-32.1136,-68.7436,-13.4061,75.8644,88.8593,18.6382,73.1402,-92.7737,106.0170,2.8508,43.6252,76.5018,-127.7918,-61.8709
36.2556,90.5772,0.4042,-27.9194,-126.5389,-115.1957,-100.6357,-76.7609,-16.6664,22.0014,31.1457,114.6884,-92.7636,149.9246,0.3214,116.1837,-9.5497,-139.5061,-128.8451
-13.8663,57.1680,-38.1294,-35.1123,-145.8629,-80.4016,-125.4273,-59.3440,-17.5852,25.9050,47.2571,115.9066,-63.2602,178.1543,24.9702,156.8748,-68.7246,-29.6207,-89.2506
-77.1410,21.6752,-85.2410,30.5201,-82.3593,48.3538,-74.4525,22.9807,64.0303,70.3072,25.5609,114.9325,9.0773,201.9145,94.1035,155.4685,-69.7776,121.1269,20.5504
-102.0795,31.8036,-113.0218,74.9388,12.0279,128.1390,46.6302,41.1931,103.2189,45.6144,-32.3720,110.1466,84.5717,177.6966,160.2503,116.1375,-45.1648,153.6504,67.9625
-136.3738,26.6837,-138.1656,3.5220,83.4321,86.9907,134.4109,-58.0491,118.5447,-64.9169,-85.1641,54.8825,131.7291,57.8559,204.2667,29.8937,-76.1967,52.4144,44.0723
-248.3787,-78.6492,-205.7098,-143.5512,126.1121,-19.9745,159.0103,-170.3155,200.7337,-135.6973,-155.6661,-10.6928,158.8203,-77.0385,250.0021,-62.9686,-160.9370,-49.8308,42.7266
-353.8323,-194.5720,-291.8166,-250.5729,135.9701,-119.8391,193.0483,-208.0189,298.0749,-104.0814,-252.8631,-30.2926,170.4759,-125.4810,283.3021,-104.6473,-206.8921,-108.8716,70.9226
-333.6329,-200.9073,-321.2814,-281.1636,102.1989,-176.0723,232.8797,-203.2462,329.1833,-43.7555,-286.1436,-54.0698,149.8795,-123.3019,258.4776,-84.5760,-176.5617,-181.0984,81.5965
-247.2319,-161.0064,-287.7990,-269.2130,32.6254,-174.9898,195.2386,-190.5537,334.8011,15.5339,-232.9425,-110.2891,96.0585,-121.6671,177.8547,-19.1660,-113.8175,-239.4665,84.2894
-212.0585,-159.2245,-256.3862,-228.7557,-38.7298,-146.4534,104.8896,-156.2111,346.7364,89.3254,-204.6102,-125.4952,32.0722,-92.0221,95.7831,41.9432,-48.8088,-232.3192,90.5065
-205.8871,-142.1074,-247.7944,-178.1736,-60.8066,-141.1312,80.7152,-108.4118,316.2307,95.0198,-229.3179,-71.9444,-20.2090,-37.8010,52.1198,30.9023,10.1219,-221.3526,85.5955
-169.6408,-83.7769,-220.7540,-157.4464,-24.4503,-152.3397,137.4316,-67.1190,241.8870,-14.2739,-220.2170,-2.5585,-41.2858,12.1343,42.4471,-37.4536,28.8280,-251.5845,81.8823
-146.7360,-59.1231,-180.1400,-157.9600,5.0088,-138.7979,173.2874,-25.6939,174.4925,-102.6915,-184.9896,50.1135,-23.9115,71.4077,46.5685,-85.9718,-28.2578,-244.4694,85.8699
-186.8731,-84.8735,-188.5251,-146.2984,-5.7622,-104.5961,148.9638,16.6071,123.8357,-65.3264,-194.3298,75.1952,4.8927,116.9176,56.7434,-86.9132,-138.2275,-154.1362,84.7731
-243.7469,-114.4466,-236.6007,-155.1853,7.3804,-79.0640,140.0645,45.6617,90.8529,12.0405,-208.8474,70.3073,26.0616,104.9436,77.8302,-40.2142,-228.2596,-65.2869,103.5784
-259.0045,-164.3087,-246.0462,-230.7007,67.7228,-75.2882,184.6323,49.6367,92.7154,29.3982,-174.2164,50.5407,65.5634,68.1588,116.7112,44.0382,-267.1613,-65.0920,144.8754
-258.6534,-259.7199,-229.9339,-330.4348,86.5960,-97.3327,195.5874,19.5618,109.9005,6.4706,-142.9828,2.5681,124.7949,30.9295,163.7790,97.5916,-302.0825,-118.2656,137.2162
-292.3421,-334.8661,-262.0858,-372.4807,25.9735,-109.5585,108.1840,-12.8251,114.0394,20.2469,-146.8053,-65.8955,147.6436,-11.6774,180.0437,96.2611,-350.4659,-111.4792,69.1584
-330.8981,-323.2901,-296.2306,-332.7166,-27.4010,-47.9262,4.0280,11.8201,110.7253,114.0545,-130.1901,-58.5133,117.6914,18.7733,141.9462,120.8192,-339.4344,-14.3132,24.1384
-305.2637,-257.9881,-235.7757,-243.7661,-17.7170,55.1416,-32.8528,65.6439,97.8831,217.7661,-72.0444,42.2398,81.2146,138.5498,89.9625,175.0692,-235.2511,63.1662,22.0376
-216.8838,-201.9533,-122.3947,-158.2404,1.6828,71.7686,-51.5838,56.4995,71.4955,203.9834,-15.0140,89.3783,45.4883,172.1763,62.5227,163.6262,-125.1400,33.6546,10.3538
-126.2230,-167.9582,-52.6576,-124.4032,-19.4513,-32.1516,-96.1100,-9.1633,60.8074,87.9340,11.4784,22.8776,-13.6432,53.8474,28.4218,101.5448,-89.5869,-55.1158,-15.0860
-64.9329,-152.6282,-27.8792,-142.5294,-58.6552,-151.7535,-103.1486,-51.4059,66.4701,-5.2094,7.8929,-42.1060,-65.3443,-41.8145,-30.1786,72.6047,-100.7040,-137.2173,-35.1499
-29.3272,-162.6098,-20.4036,-151.2987,-83.1131,-206.4647,-53.4040,-62.6370,36.8268,-65.0690,-1.5743,-46.0657,-78.4372,-42.0484,-65.2316,49.0917,-94.2641,-198.0990,-60.1956
-13.5945,-170.3299,-23.6844,-94.0017,-97.6741,-210.2051,-28.2494,-71.1008,-33.4207,-129.5255,19.4196,-23.4337,-85.6280,-49.2692,-61.1106,-17.2588,-56.9094,-216.2701,-87.7664
-12.4203,-125.7161,-0.7573,13.2640,-105.2470,-200.9673,-48.7911,-61.0050,-77.1801,-115.4567,64.7287,29.0151,-96.2629,-69.3561,-51.5692,-85.7197,-23.2613,-202.6763,-112.2602
-25.5308,-39.4514,57.7043,99.1050,-74.7831,-201.0305,-47.2840,-34.3357,-50.1100,10.3739,93.4052,100.8138,-69.1853,-40.5685,-26.9671,-119.9995,-19.8353,-223.3983,-139.2548
-40.7797,17.5425,89.0514,111.6437,6.1295,-210.2861,1.1054,-26.8801,14.7599,98.0365,101.8839,133.0459,-16.6910,4.3071,25.9770,-123.0878,-25.7041,-272.7196,-129.5653
-15.3166,10.3227,75.9812,66.8508,92.6421,-202.7841,66.2231,-38.5462,48.1921,58.3092,115.0058,129.4011,7.4479,29.8233,52.8919,-104.4954,-10.4472,-270.5512,-51.5105
63.2767,-19.6341,78.8920,28.3989,151.7939,-164.9700,126.6810,-54.7443,31.3875,-5.7458,139.3141,137.5459,10.0049,50.1521,29.3585,-95.5790,19.5759,-203.7504,25.8025
139.4170,-18.6869,117.3805,33.8220,193.6998,-121.2669,154.9166,-82.7583,16.3968,-15.4097,170.5205,147.2054,21.2356,55.2545,8.6421,-87.3735,47.8570,-118.5325,32.7472
168.7663,2.4643,148.1526,45.7818,187.2968,-95.8371,120.3078,-101.9461,23.5839,-17.9053,193.3279,122.7563,29.2419,49.4188,13.6938,-17.5175,58.3296,-43.7391,4.4879
157.2404,-14.7279,139.6655,12.6410,81.5139,-83.8564,44.2594,-75.0761,10.1476,-33.6133,185.2938,62.2777,37.5278,54.0355,29.0617,74.0521,22.7819,-4.2381,-12.2846
119.8278,-68.2268,99.6129,-35.3506,-66.1409,-77.5146,-23.3072,-30.9197,-23.4913,-15.4110,160.5481,-0.9625,70.3113,28.9868,62.3411,78.6537,-29.4362,4.0588,-33.3653
95.5524,-66.6146,74.3191,-21.7260,-150.1600,-89.4338,-72.0848,-39.5242,-55.0307,14.8219,153.9438,-15.1105,92.5314,-44.9368,90.8719,28.9466,-4.7108,30.3523,-84.0551
133.3231,26.9447,105.8318,51.5929,-173.0860,-124.8925,-117.2579,-109.6347,-132.1296,-34.5443,160.5922,17.9106,58.2428,-96.3437,65.3861,15.4958,93.1913,73.5766,-164.5036
194.7629,116.3189,157.5644,101.4326,-188.8499,-147.3811,-155.5081,-179.0848,-243.9349,-139.3919,156.1097,27.6677,7.4169,-93.5305,15.0499,11.8214,146.0535,81.0538,-242.9573
201.1800,123.8465,163.9505,85.8386,-203.9656,-129.2553,-183.9583,-201.8402,-259.5492,-147.3935,135.2426,-3.5666,-10.7495,-79.2822,-9.8652,2.2464,124.3058,43.1725,-278.9997
173.8882,99.5392,135.7379,51.1866,-237.1622,-126.4621,-227.0687,-203.0001,-179.7706,-41.2640,96.4374,-28.3273,-32.3729,-71.1566,-47.1743,34.0218,105.5856,-35.9469,-301.2971
172.7398,102.4981,111.7950,48.0389,-306.0502,-197.3362,-293.6056,-226.2950,-164.5653,1.9887,52.2865,-43.9761,-88.4396,-75.6451,-114.9411,44.8102,102.8804,-156.2380,-359.1827
172.1169,101.8915,80.5231,58.1293,-340.3648,-272.5178,-325.1415,-250.2643,-206.9821,-65.8587,29.7534,-59.1544,-123.3676,-98.6063,-131.2697,-40.6862,72.4742,-246.6367,-378.6225
126.6783,58.7161,33.6379,39.1322,-281.6977,-249.6762,-247.6757,-212.1808,-150.6497,-65.2247,14.8103,-33.9750,-89.5409,-84.7839,-60.4777,-105.6647,20.8819,-243.9523,-258.4114
51.0864,11.6189,-1.6969,9.5411,-177.8721,-156.4661,-76.9781,-106.0016,-16.9953,61.0312,-19.4601,34.8807,-24.0603,4.5627,25.7554,-45.6489,-26.1935,-204.4439,-76.1146
-17.9567,26.1644,-21.8594,15.9809,-73.6986,-74.6587,76.2084,3.7210,49.6953,127.0808,-41.8010,105.5154,17.5516,114.1474,70.2475,25.6113,-58.3678,-182.8809,11.6841
-42.1482,92.9548,-45.2012,39.6321,16.8805,-10.0461,114.5386,54.9424,38.1753,44.5373,-25.3386,174.3053,23.8716,204.8627,71.4609,18.1961,-53.0769,-145.0379,-12.3403
-2.5772,134.3912,-60.1399,42.6441,40.1633,48.9359,46.7252,38.4525,7.9394,-42.0189,-4.4827,234.5130,10.1767,285.0666,43.1830,30.5876,-8.5856,-77.4901,-63.8921
51.8917,125.5529,-41.1308,56.3129,-6.0886,76.8610,-37.4510,-7.6539,-31.9213,-33.3929,8.1700,243.4097,-3.9390,311.1104,17.2518,118.2123,46.7582,-8.4401,-91.3674
73.3655,122.9098,10.9253,102.8877,-39.7992,75.1455,-86.0958,-40.7029,-59.0787,1.5854,42.0946,206.7268,-6.2755,251.0278,14.1193,191.2747,114.2578,56.1597,-92.2926
96.5325,144.8745,71.0472,135.9649,-61.6032,73.5509,-135.5072,-50.2878,-47.7044,16.6146,84.1660,174.9896,-8.6568,181.7762,6.0085,213.1427,192.6879,100.3181,-93.8565
143.8055,153.4163,110.1616,150.5012,-126.4168,72.2191,-202.0748,-46.6088,-30.1244,48.9385,97.4865,171.2501,-25.3665,162.2851,-20.5999,239.4939,228.1629,103.0405,-119.6006
166.7480,160.3687,115.9453,186.7479,-176.6893,49.6689,-221.6744,-42.9565,-25.6229,78.8944,93.9104,190.6803,-38.3579,132.7645,-30.4129,254.8637,197.2209,79.3067,-147.9827
157.4010,194.3062,100.7700,206.6148,-167.6277,-11.1751,-177.2850,-56.0232,-9.5275,50.1212,102.6900,192.4319,-29.2150,46.1450,-13.6915,193.9351,147.3718,21.8610,-155.7889
158.1523,209.8737,82.2825,162.4860,-186.8768,-104.9074,-142.3944,-74.6901,15.4608,18.2824,122.1888,128.8753,-17.4858,-31.5488,0.3546,98.2645,107.2529,-84.1124,-157.0269
147.9950,172.5356,62.3649,103.4888,-248.8745,-188.5547,-130.5100,-61.3526,26.5360,66.6201,127.3761,44.0492,-18.5001,-35.5620,8.1137,61.9471,59.5752,-179.1116,-155.5190
83.2845,127.3097,29.4892,46.5596,-250.6646,-242.8841,-95.2843,-38.3599,16.9858,121.4249,97.9837,0.5359,-9.5296,-22.7046,21.9891,70.7856,-10.9867,-227.2632,-152.0649
9.7719,99.9856,-13.9367,-66.5483,-196.7823,-307.9139,-76.8890,-77.9508,-19.5207,68.3186,65.8800,-47.1393,23.5035,-73.0550,34.5583,55.7114,-109.6974,-280.1902,-175.2707
-3.8297,67.1364,-35.7063,-195.6287,-153.8378,-372.6544,-111.6237,-162.0792,-62.3888,-44.0451,93.9608,-107.8510,60.0491,-125.2121,48.8622,24.0458,-211.9009,-323.7767,-203.4378
26.2645,31.4600,-17.1097,-227.6168,-73.8525,-349.2926,-90.8922,-193.8724,-58.8690,-112.0351,163.4104,-68.5264,84.6629,-63.9713,82.0585,8.9075,-249.1247,-284.8002,-164.0091
46.4670,7.3896,8.1016,-161.3844,67.1886,-228.1617,42.5946,-157.4326,-13.9321,-138.1108,185.6276,70.2630,100.9932,69.1915,116.8247,-0.1441,-194.0284,-198.1004,-78.8495
45.9392,-10.3782,7.1968,-67.8941,164.8100,-91.3965,144.2837,-110.5691,11.5174,-142.3221,148.8004,160.3492,117.0348,148.0553,126.1201,-0.1859,-107.3973,-120.6515,-33.8760
43.0381,-7.0585,0.4470,17.4757,187.6765,33.1235,130.9915,-55.6980,20.6833,-90.4343,121.7524,176.1877,152.6823,169.4893,141.3170,32.6974,-44.9700,-9.7460,-4.8861
46.7132,33.1602,14.4461,67.7947,225.3486,156.6667,125.5399,38.5181,69.9473,17.6372,131.1488,208.6886,214.4171,198.8031,199.8300,93.2834,2.4056,132.7310,74.2552
57.2859,84.3138,45.9135,90.2334,287.5300,244.6977,174.4913,141.0326,138.3483,118.0744,150.3949,260.3758,252.4323,237.4118,246.5481,172.9123,66.7512,217.0488,145.9779
86.1069,118.1501,91.8918,139.0376,295.3507,277.1927,144.0499,183.6235,135.7211,134.1731,163.3645,289.2028,216.2687,266.6678,202.3178,251.2447,165.9401,220.5946,135.2811
149.7031,119.7556,149.0827,187.4874,236.6069,268.2764,3.3231,145.9181,45.5263,39.8480,177.9936,290.8864,134.6532,264.2587,99.9669,250.4700,274.3379,175.7966,89.4139
227.4769,77.6763,197.3484,159.2784,162.6759,200.3225,-111.3635,75.6227,-42.7887,-63.5107,209.3479,243.8318,68.4751,186.5240,30.9060,144.9174,318.7106,92.9927,57.8132
252.2231,33.9422,219.0661,104.3533,96.8499,80.1898,-151.9236,26.9377,-70.7615,-45.8722,235.0014,158.9297,31.8372,74.2483,5.7453,43.0394,268.2634,13.3138,-2.3208
188.7487,47.5216,198.4353,105.0068,36.7707,-16.6905,-183.8063,-10.1515,-82.6097,33.7394,191.2476,114.6334,13.0964,30.2863,-13.3938,18.7280,186.7843,-27.1252,-100.9126
93.7297,70.4761,125.1471,102.0112,-1.4243,-59.0635,-189.9001,-66.3251,-106.2982,33.0586,83.8349,109.9568,8.2346,34.3852,-21.5815,24.7427,125.4634,-64.4116,-156.7245
36.0547,13.4113,33.3127,30.5356,6.7614,-72.4512,-112.0136,-95.3864,-86.0604,-2.3827,11.0808,67.6183,7.2966,13.7603,-12.0402,43.1853,49.5889,-96.9716,-119.9773
1.9489,-87.4630,-30.5436,-46.6601,46.8353,-37.6586,-8.0292,-35.0807,-7.3123,38.4828,7.9311,10.7821,6.3601,24.9120,-6.4987,90.0010,-67.2310,-69.1400,-38.6095
-47.8580,-131.2968,-73.3287,-72.6963,66.3012,45.3615,33.1504,63.1945,48.3641,92.1569,8.0963,9.1149,16.0198,109.1482,1.1161,95.4423,-178.9485,-17.8325,4.5288
-93.9199,-108.1328,-109.6990,-69.5284,41.3236,89.9994,18.8081,101.0005,30.7933,67.9491,-15.9579,25.8346,28.7464,154.9254,27.6465,18.2122,-237.3946,-11.1180,-32.5333
-110.4306,-72.4291,-116.7016,-50.1917,4.1916,68.0765,-13.3062,79.1297,-18.1925,25.1860,-29.7089,11.1920,35.4205,101.3021,53.6523,-35.3234,-237.6220,-7.2438,-103.1349
-116.9439,-54.9676,-94.5716,-8.7838,-3.5993,53.7662,-45.0375,61.2637,-42.5176,32.6181,-22.4789,6.4758,60.1866,39.6496,70.1175,12.1962,-184.6557,32.2867,-109.4291
-110.1819,-54.5061,-65.6726,42.9687,31.5412,64.1808,-44.5347,64.0853,-27.7578,53.6690,0.2476,44.1414,103.7513,38.0803,91.1838,86.6832,-89.0693,60.8058,-38.1081
-50.2912,-45.4755,-14.9601,92.9105,81.1706,59.0389,-15.0765,69.0757,-0.2996,38.6936,39.0381,95.4820,114.2951,83.2358,100.8739,112.7982,7.9103,74.2496,15.1039
43.1274,-5.7633,53.7278,125.1583,89.9023,57.2190,-9.6108,71.8593,15.7555,1.1843,68.9920,140.3067,88.1893,149.5409,91.3499,104.1282,62.6188,109.6420,3.0504
97.2148,37.9363,81.8953,119.6693,56.8472,70.3063,-22.8226,66.4646,46.9610,-11.8337,66.5730,164.5426,95.4988,184.9149,102.3547,86.5449,73.7833,135.0134,-23.7625
87.2586,41.9938,60.2764,86.0844,48.8104,39.4073,-10.8620,31.6830,107.2339,2.9641,48.3822,128.1789,146.7247,137.3687,136.0166,67.9036,59.2764,119.6141,-51.5912
38.1656,11.2152,42.0374,47.2926,83.2543,-42.4377,-1.8908,-35.7215,133.7748,-6.2485,32.5570,31.9232,167.2749,37.6191,144.2369,51.0852,18.1089,104.6046,-111.8429
-20.1560,-14.4169,32.8226,8.7606,113.4106,-99.0058,-16.5352,-100.2449,92.6641,-41.3122,11.6761,-40.3780,138.3490,-36.9176,129.4468,21.8766,-44.6621,98.7955,-162.9575
-50.6382,-10.6454,1.1459,-21.4939,134.5394,-95.9790,1.1080,-122.2786,33.8147,-52.0330,-20.0818,-22.0202,120.5139,-39.0700,122.0763,-21.3454,-95.9250,53.6855,-142.6246
-50.4028,12.0641,-35.5122,-33.2501,163.3992,-56.4683,43.5634,-96.3707,-17.0396,-62.9738,-43.3567,37.8788,129.4156,25.1110,104.0207,-42.9912,-112.2322,-23.9368,-83.9757
-75.2985,19.0139,-35.9972,-30.8353,173.0604,3.2716,37.0881,-36.2447,-53.7015,-103.8653,-21.0580,46.3761,122.5091,84.7115,71.1267,-26.8107,-99.8057,-70.2024,-42.7494
-133.7683,-7.3032,2.8907,-16.7646,159.1482,59.8232,12.9815,38.8811,-28.8150,-86.5994,47.6434,9.1523,101.4934,87.0168,73.3262,0.6673,-71.2001,-68.1052,-13.4146
-155.8531,-42.3000,47.2421,-4.1788,151.2411,82.6593,42.8355,83.1825,37.8969,15.7724,95.4420,12.5776,111.6468,97.3245,122.6621,27.7099,-51.5190,-67.1508,5.0125
-133.8126,-61.9848,55.9546,-24.6782,129.0120,72.7433,79.8752,61.1124,52.8432,67.1391,76.3509,74.6654,151.6588,166.8470,165.6155,61.1199,-72.6414,-106.8152,-8.2887
-129.2788,-68.8076,29.8292,-56.4518,74.5627,45.3964,67.8441,18.9832,22.9748,27.0886,40.3126,122.9520,175.2345,203.4419,162.8253,81.0396,-104.5333,-152.5309,-27.7356
-126.8783,-55.4295,18.6419,-22.8383,41.4642,22.2676,42.9076,31.7517,10.6031,17.9462,39.5396,124.7681,164.5558,153.4665,123.9897,72.5718,-72.0563,-130.2220,-12.7504
-76.8220,-7.8600,38.4447,80.0195,49.8280,41.9213,25.2377,87.2952,-2.1600,66.6314,49.0806,129.5722,141.3184,115.6562,87.4851,62.9810,15.7295,-34.9125,20.9361
-30.3373,50.6205,50.7721,159.8041,49.5757,88.8388,8.8589,104.6613,-0.8819,80.0788,39.7518,165.6214,131.6840,133.9631,89.9359,56.7342,74.8424,49.1645,34.1196
-42.1498,80.1652,53.4734,159.6477,40.2020,81.3085,31.9004,39.7048,71.0418,29.2261,29.0095,188.1911,151.2332,124.6080,127.4598,11.5023,98.6499,73.4007,22.2103
-47.1104,77.0920,86.6622,122.7354,69.1462,21.4878,93.2176,-61.8145,134.1795,-37.8697,39.7429,161.6228,190.8129,69.2574,164.6040,-55.1884,143.1613,96.2592,19.1489
5.6247,64.0826,137.2208,115.8563,122.2636,20.6702,130.5743,-85.0928,105.1736,-51.8099,66.5906,122.6229,211.9659,45.8691,182.2754,-53.9957,176.8473,172.7248,65.7017
36.4039,51.9394,137.1115,134.5072,138.8161,114.4004,150.6704,38.0437,88.6452,36.0191,68.7368,117.0477,194.6467,84.2053,184.4735,17.8286,125.1422,253.6469,159.1835
-23.1962,33.5180,59.9725,114.2748,102.7219,223.3505,201.5515,220.0639,138.8749,159.4155,16.0517,127.0863,169.4678,147.8149,184.0623,50.6734,26.5486,277.6434,255.4564
-113.7445,-2.5654,-38.9929,47.9730,62.0443,306.8134,248.8362,328.8652,129.1582,196.3277,-41.0425,120.5584,164.5620,201.6629,189.7838,-3.7297,-21.2681,283.7678,328.5632
-152.8867,-47.1412,-80.8231,19.4410,68.4609,390.8943,241.4807,361.2384,43.9145,148.0010,-36.3004,124.3200,163.9768,241.0865,181.2336,-83.9560,-3.8426,328.2921,362.9699
-135.2946,-57.8703,-44.0368,69.0430,101.4766,470.7794,199.7873,357.8909,8.2335,95.0253,0.7327,168.9986,145.6536,281.4618,135.1616,-144.1599,41.2759,368.4662,315.9354
-89.6758,-9.0532,22.9926,128.8041,93.0322,495.8338,143.4445,271.7038,8.0814,53.5389,16.0956,207.5770,107.8208,294.3803,76.0176,-194.0516,93.8454,339.1172,180.7084
-34.1426,54.8408,69.0778,137.4241,32.9734,425.8691,56.5580,91.6021,-45.4168,8.0846,24.5500,182.9790,54.0708,221.7923,31.0519,-247.6149,116.9436,258.2622,31.2047
8.7142,72.6476,80.4618,107.1763,-38.1000,283.1964,-48.2215,-64.5750,-106.2300,-35.3120,31.9075,126.1059,-3.3242,110.3562,-17.5205,-313.1223,75.5543,169.5803,-62.4414
22.1875,53.2576,63.6711,64.6600,-107.1735,155.2756,-123.4353,-113.0972,-108.4005,-62.6732,11.9397,87.7942,-44.5765,59.2769,-70.5470,-383.8298,11.7483,79.0048,-92.0792
21.0110,38.0901,42.7947,13.8751,-160.6521,88.6697,-139.0336,-98.7738,-88.5452,-45.2983,-6.7476,38.8466,-68.6326,27.5326,-96.6409,-428.4273,-13.2336,-6.8213,-82.5065
21.4653,18.9565,45.0158,-46.4600,-164.8199,27.9949,-114.1253,-79.2223,-87.9140,3.5328,10.5347,-49.1692,-83.0086,-58.4656,-99.4455,-428.9859,-11.8783,-61.8177,-68.0176
10.5283,-20.5250,59.0795,-91.4014,-125.8165,-45.8957,-94.7396,-60.5444,-103.2676,0.2466,29.1594,-105.1919,-74.8859,-114.4041,-89.7654,-384.8850,-9.2867,-53.8537,-57.4126
-21.5122,-47.9025,61.1767,-72.4473,-62.1301,-52.2979,-83.4840,-38.7794,-116.3478,-62.8945,33.7912,-70.4576,-35.5400,-78.4259,-45.0386,-299.8230,13.5652,38.2381,-20.9182
-54.2054,-49.8132,65.6223,-6.1836,34.7963,14.5082,-40.4852,-17.1604,-99.0928,-91.0095,58.8669,-14.1654,15.2513,-49.2431,20.8383,-227.7045,47.2260,159.6309,34.8433
-66.3932,-66.2504,82.4282,7.2334,122.9047,48.0454,21.8368,-9.7043,-61.1102,-70.2838,86.7649,-16.2158,55.9887,-63.3154,60.1010,-229.4155,43.4164,199.8657,60.8854
-60.8397,-102.3429,78.1120,-56.9948,126.6304,30.4651,42.9395,-30.9342,-57.1378,-71.3974,68.8853,-51.4206,74.1129,-50.1478,73.0809,-254.2457,3.8073,156.7923,61.5809
-47.7699,-114.5579,40.0444,-101.9124,67.2045,47.1397,18.8990,-57.1438,-90.0620,-104.6868,25.7580,-75.0801,57.8594,-30.9729,66.1323,-228.4147,-25.0656,135.5672,65.7628
-29.6625,-96.6330,11.6510,-80.3302,21.2225,103.2461,-5.8318,-52.8791,-102.0368,-141.3683,6.9296,-86.9384,19.1346,-45.5567,15.3844,-200.1566,-23.2239,150.4784,47.7537
-8.4399,-73.2969,24.6514,-34.8905,-1.8167,129.4937,-21.0686,-33.4269,-67.3161,-162.2083,14.0071,-80.6704,-8.5832,-36.4311,-41.4919,-206.0000,9.5839,132.6788,7.2835
12.4757,-43.5579,54.9997,20.9822,-23.9453,111.4859,-42.3242,-31.5777,-12.6394,-140.3100,20.8383,-54.9002,-21.8898,-14.3339,-42.4667,-164.5398,74.9906,96.6807,-0.7470
40.9186,-4.1813,67.4563,96.4728,-47.3270,75.5776,-71.3276,-46.5934,11.3817,-105.1590,12.4423,-29.6731,-51.6548,-44.6895,-40.7888,-72.8611,155.6781,89.0733,6.4061
93.0587,39.2499,73.7699,180.9293,-72.5723,37.5708,-96.5895,-74.2166,-29.7363,-121.0497,5.5857,17.5999,-104.1458,-50.2149,-105.0527,-51.8981,228.2112,75.9920,-34.8284
158.3660,95.8708,114.6457,273.4828,-77.3630,12.3895,-101.6533,-114.3604,-94.4869,-146.9582,35.1916,107.5845,-144.1790,24.2000,-163.0873,-98.8911,278.1235,25.3435,-95.1356
191.2420,151.2661,177.9473,334.2877,-38.6262,-9.3147,-96.1007,-143.7631,-119.2234,-112.9234,86.1142,167.6925,-146.4907,43.0370,-142.5626,-87.1696,280.9416,-37.4103,-120.1513
173.2896,165.2768,199.1367,292.4752,4.7131,-53.3253,-118.4372,-149.3238,-131.6018,-63.8100,99.4998,152.2225,-132.4133,-30.2915,-115.4416,-12.9006,231.4874,-91.9553,-134.9025
143.6059,148.1312,166.4354,201.6599,17.1177,-93.2501,-162.5905,-144.3502,-180.0331,-42.4232,76.3042,133.7151,-135.3142,-41.8507,-146.8568,32.0541,171.8459,-118.2917,-153.7517
130.2474,135.2101,131.0962,174.9050,21.8625,-93.0366,-172.3720,-116.7139,-212.5492,-10.7878,71.7112,131.6798,-139.8473,7.2246,-171.5078,53.2403,120.7878,-91.6811,-132.8899
114.0966,109.9629,107.4947,164.3181,21.0808,-94.4741,-130.7887,-47.1596,-164.2709,27.1228,87.5971,68.2821,-101.1755,-28.3881,-123.9900,100.1204,44.6690,-44.9540,-64.6871
86.4689,63.0025,75.4674,75.9148,3.7420,-136.7083,-64.5340,18.6138,-68.9812,33.3788,84.4574,-31.5187,-29.3154,-109.9490,-44.7611,132.6634,-47.8761,-25.7868,8.0339
67.7126,35.3449,54.7325,-26.9240,13.9493,-163.3755,6.5870,17.7488,8.9436,25.6367,71.4295,-62.8431,17.1987,-114.3965,1.9893,100.6934,-90.2189,-18.2387,60.6011
65.2457,28.5835,69.2320,-68.8844,57.2738,-119.4486,50.5898,-26.2808,50.9080,25.8025,82.7763,-45.4052,20.3082,-87.1603,6.7134,61.8456,-68.4055,-4.5440,98.9707
75.0423,8.9136,90.2201,-78.0310,57.9551,-38.1941,36.7476,-35.8664,57.5113,39.5097,103.7495,-56.8775,4.0367,-94.7386,-17.1760,102.9868,-31.1687,-1.3591,133.9659
97.5321,1.2104,90.4016,-51.0811,7.1262,32.6107,-6.3549,6.5900,27.0111,74.4609,98.1665,-69.2710,-24.3507,-81.8174,-62.1717,190.6150,8.2887,4.7443,153.9975
122.3453,30.8284,92.2774,26.3792,-23.7624,83.3929,-39.1039,44.0170,-26.9306,77.1756,80.1540,-35.9890,-59.1211,-33.7196,-105.0235,208.7009,71.3557,28.4563,128.3277
142.0576,46.4653,122.5705,79.4753,-23.9555,103.0789,-74.9449,36.3902,-69.4829,9.0427,90.6825,5.3798,-80.1269,-23.2493,-121.6186,150.1228,138.9348,30.5040,59.6677
166.3997,23.9812,161.3440,78.7728,-39.2504,76.9999,-131.0110,13.1706,-77.9142,-22.8562,109.9576,16.4232,-102.9333,-53.7589,-133.5877,134.8990,168.6418,-8.1660,-21.5630
184.0916,20.7714,164.0876,97.9103,-86.7758,23.6074,-190.3076,13.8966,-77.2054,55.2941,79.1207,18.6394,-155.8286,-54.7052,-168.1498,194.8509,165.3759,-49.6431,-103.3303
165.5596,52.6166,129.3037,146.3142,-139.2480,-16.0427,-218.4297,25.4199,-94.4509,122.8429,16.6922,43.6123,-192.3368,-13.1122,-183.9710,213.5914,162.7582,-75.6587,-143.2439
118.0416,61.4201,96.2412,167.9159,-132.7840,-23.6750,-170.8511,19.5673,-94.3654,86.7763,-6.1414,89.2690,-143.8670,19.7794,-131.2602,141.0528,151.0572,-98.1287,-78.2593
70.2712,34.6089,62.2647,169.2644,-42.4437,-25.8142,-51.6143,3.1960,-39.2266,23.0856,2.2745,125.5191,-45.4971,24.2423,-47.8629,74.6208,98.9014,-109.3213,31.2108
26.2206,24.7939,-0.1761,171.9434,47.9946,-56.2604,47.0055,-5.7662,29.4824,5.7512,-8.6014,133.7657,14.0515,23.4170,1.9823,71.7520,32.1141,-87.6313,58.8414
-10.4736,45.1652,-46.7775,154.2545,76.3014,-89.3330,68.9568,6.6071,55.1138,39.8414,-13.7343,122.2904,35.5883,14.9341,28.5178,73.8397,-0.8883,-17.1630,35.9126
-16.2466,46.8998,-23.8647,110.0028,104.3556,-55.6730,80.8814,69.1562,58.2006,123.6160,21.9428,87.5026,84.0637,-10.5520,80.8980,61.8088,-19.6655,96.6638,77.1457
19.2166,7.5467,24.1338,49.5488,166.8651,56.6613,138.8167,186.2204,101.3869,210.7776,59.5013,25.3655,155.1930,-1.9708,160.7706,104.7046,-56.3939,207.0382,158.3596
77.4572,-26.6446,54.9846,-7.3050,203.2381,182.0420,193.0294,292.3127,192.7387,230.9121,77.3816,-14.9671,181.0161,67.7209,209.9949,204.3997,-58.1665,268.8372,198.0780
120.0929,-8.0779,102.2253,1.7993,196.9686,263.3425,188.2327,318.6418,257.7111,198.8527,105.8152,9.3633,144.3822,105.8813,174.7452,258.2000,21.5677,281.9638,210.2193
110.5025,42.6512,145.5764,89.7413,180.7606,286.2214,145.7160,274.5046,241.6105,188.8511,127.1614,55.3446,94.7065,47.4241,90.8983,229.5598,108.9410,249.4802,224.0497
63.5310,68.2237,116.6872,153.9198,150.2684,252.2688,124.5117,210.7361,214.1808,227.6862,100.5773,67.6146,71.6783,-22.0878,58.4389,197.7824,117.5108,170.1090,219.1612
36.0311,54.3714,55.2488,136.5293,109.2718,182.3415,145.9782,147.8534,251.0732,260.9607,55.9695,53.0379,75.4839,-31.4562,91.6711,193.1689,70.2459,77.5589,178.1117
41.5445,43.3818,34.6040,104.9785,78.1052,103.1365,159.6488,79.4270,275.3073,217.2844,31.6807,33.1064,82.9216,-29.6233,103.2129,160.1215,22.2370,-2.4079,100.2170
47.6801,67.0629,19.8439,98.5617,40.9361,9.6448,124.8487,14.8892,210.0494,139.8631,8.8783,14.7637,65.2873,-50.1140,68.2792,109.4347,-17.2912,-72.8678,25.9462
50.9349,96.1327,-16.2036,84.3386,8.8739,-92.4979,94.8951,-11.0183,151.8674,150.7501,-14.5431,1.6594,28.5679,-67.9781,48.6433,102.1212,-37.0895,-99.2064,34.0667
71.0297,88.4414,-10.8087,66.3480,32.6910,-145.5939,115.2742,20.9529,181.2018,214.3183,-5.6465,-20.2641,21.1807,-76.8081,57.7497,96.8937,-16.1377,-58.5352,108.4038
99.1097,57.2291,44.2175,68.1994,94.6110,-128.7018,131.4781,78.2152,210.6419,184.4873,23.3478,-51.1676,57.6842,-62.6519,64.7095,35.0909,24.9762,-23.5680,139.8701
104.0299,35.6957,73.0722,66.5797,145.8526,-98.7509,116.8859,118.4321,181.5967,108.8228,31.0679,-40.3411,94.8341,2.9524,81.1057,0.8513,52.0120,-26.3424,129.2669
69.2127,24.1493,53.8780,51.4425,196.8217,-68.2905,132.0375,150.9709,156.4237,126.3094,21.2166,36.5018,113.8279,90.8628,114.0096,72.9797,66.0487,28.8128,164.6880
25.9527,27.7826,26.3311,55.4673,226.6884,15.1817,172.2684,194.3762,145.5179,156.7193,16.0980,114.9511,127.8138,149.4957,121.7994,148.4431,67.6467,158.9328,211.3130
34.5175,53.7795,6.5741,70.5855,158.1776,129.0952,155.5553,216.0228,94.7113,82.5812,9.5446,118.2725,114.0274,168.0749,90.7917,123.4474,28.8264,233.9286,179.5602
83.7353,47.2165,-12.7198,40.2691,6.6392,196.3018,86.2103,204.9088,34.9176,24.7313,-1.4315,39.5034,58.3216,144.3856,58.5552,85.9764,-48.9392,224.1626,121.3472
98.1577,-26.4147,-25.1822,-30.4120,-104.1682,238.7650,58.6008,230.4146,61.6108,106.4270,14.2355,-57.0117,31.7684,94.9772,62.1531,141.0184,-78.9529,247.1105,158.7126
109.9651,-77.0772,14.3345,-52.0061,-68.9728,319.2863,141.8792,316.9567,214.1229,218.7790,100.5700,-87.2568,118.8170,70.0719,142.6223,216.8684,56.7296,320.2339,322.2316
242.1501,-42.2347,168.9869,11.4029,124.4019,381.7107,342.8449,360.7854,443.2661,226.9582,272.5311,-41.0411,308.5241,70.4456,322.9362,210.3712,357.3256,328.1140,538.0735
467.7014,-13.8543,412.0153,72.7438,362.5767,329.4380,583.4573,288.8112,644.3118,162.2133,479.3722,2.0243,502.5453,58.4153,526.6226,163.7798,643.6238,230.9502,686.7552
621.8310,-53.5900,605.2259,63.8875,491.0501,190.5745,729.5229,180.2913,737.4340,122.8271,629.2557,-3.6681,602.7276,47.6203,634.3984,147.1857,743.8090,102.9148,707.9506
659.6002,-81.9079,672.3760,36.8434,509.4677,66.9901,744.3747,125.0277,736.4643,130.5758,687.0937,-14.1618,610.3910,43.2810,642.9447,115.3280,707.2778,3.0589,675.0251
670.3165,-51.0490,689.4492,44.1650,540.2177,-8.6790,723.5421,95.7885,700.0640,117.4557,706.3109,7.3636,625.2438,8.4505,645.5910,28.2733,698.8984,-65.4618,673.4484
692.2947,-9.4696,728.7697,58.6880,602.1827,-74.8696,722.5652,46.3854,653.8942,47.1183,723.6493,39.6960,684.1966,-26.7733,671.2868,-33.0097,733.3224,-116.2815,668.5531
694.7901,15.6816,740.8033,65.1952,620.9965,-145.5547,698.5726,0.1751,598.4593,1.8838,696.9939,51.2544,695.7017,-14.4346,664.2748,-9.3888,697.4244,-158.4937,606.4398
653.9938,22.0167,663.0312,71.6578,586.0049,-181.5483,630.0782,-16.6388,532.5914,39.4391,595.4385,32.8202,611.9336,-8.0198,592.1687,30.5897,574.8586,-188.9716,520.6700
558.1155,-9.7089,541.7334,34.8606,520.6036,-169.7083,543.9921,-16.7731,461.2877,72.0903,466.8236,1.4440,503.5092,-33.6957,479.5610,32.3551,449.0144,-200.6062,453.3784
428.0914,-66.2161,463.5705,-67.7848,426.9381,-160.7665,455.9775,-5.2821,421.4357,53.3493,368.2523,-22.5068,412.8433,-15.4681,370.6693,42.5808,346.3166,-190.8551,405.2920
317.8279,-113.2087,418.5333,-156.5105,329.7231,-163.5251,379.4437,30.6661,452.8373,97.4247,296.7702,-50.0743,317.7490,36.8391,297.5645,91.3533,244.4691,-143.2809,378.4021
233.1369,-145.8747,329.6763,-156.0434,240.6928,-102.5881,320.8132,86.3122,511.5069,240.0746,224.1242,-88.4660,228.7171,21.3606,244.2473,131.0648,160.8928,-45.0774,352.7281
140.0113,-159.2284,203.3038,-94.6233,131.0071,23.1731,237.2386,124.8097,483.0178,310.2970,151.0781,-112.1908,165.0517,-51.8570,164.2095,117.1447,114.5037,51.1728,272.5616
57.8707,-159.9592,121.4375,-51.9952,19.0355,87.4183,97.5837,95.5800,330.3990,195.8595,94.3792,-133.1647,104.5744,-104.6579,67.8759,63.9011,81.4045,60.6669,138.1756
21.8914,-196.6640,89.3305,-80.6112,-49.3161,34.8755,-35.7760,-7.7781,170.7964,23.1038,43.6407,-194.2717,36.1750,-144.9556,7.7360,29.8584,38.7769,-14.5981,24.5091
-8.0750,-265.3660,31.1273,-159.0543,-105.5545,-47.7538,-90.8695,-114.0602,116.2218,-49.2594,-31.9927,-258.2159,-36.5900,-193.0852,-37.5970,55.4779,-30.3253,-92.3251,-37.6988
-84.7286,-281.9432,-72.6292,-208.8034,-187.2931,-106.7052,-96.0887,-162.5358,97.3372,-34.9241,-123.9478,-252.2373,-117.7077,-210.4714,-120.0310,97.5252,-148.9228,-136.6692,-97.4040
-171.7889,-224.0546,-158.4801,-203.8952,-237.8490,-172.8151,-109.1377,-189.2373,4.6763,-23.5413,-173.8363,-202.2559,-166.9635,-191.2758,-185.8928,81.0130,-285.6755,-173.0419,-176.4512
-195.2125,-159.1708,-175.3618,-200.2425,-205.6917,-243.9801,-121.4843,-243.0466,-93.8413,-38.8814,-156.2925,-175.2635,-144.5410,-179.5216,-165.5214,0.1181,-361.7891,-198.4167,-233.3642
-158.9282,-125.9775,-146.0098,-216.1664,-135.4969,-275.0344,-117.0616,-285.3726,-104.7770,-71.0250,-117.0070,-162.6944,-110.8955,-179.5955,-122.1946,-102.1969,-362.4103,-187.5092,-248.3220
-140.9375,-113.8354,-136.8006,-205.0757,-88.2712,-245.0996,-124.1467,-259.3308,-111.3043,-108.4531,-96.6042,-125.0939,-123.7158,-144.1327,-134.6271,-171.7756,-338.6355,-154.6416,-246.2682
-176.6414,-104.2091,-165.3799,-153.8965,-69.8916,-161.1893,-149.5941,-181.3011,-179.4110,-107.6552,-84.2960,-59.9936,-130.2131,-49.5931,-163.7572,-135.9780,-304.0578,-117.2192,-232.4940
-210.1926,-74.8698,-173.0770,-87.7957,-60.1215,-55.9201,-159.7333,-102.4646,-210.8798,-60.5949,-62.0708,13.1731,-100.3639,56.3282,-166.1937,-6.2654,-240.2415,-52.3412,-194.2102
-191.8706,-34.6577,-130.2338,-22.9410,-49.2127,23.2741,-146.4364,-47.9045,-176.6541,-38.3415,-28.8603,68.9309,-92.8151,112.8874,-170.7666,74.9151,-169.0949,38.1241,-152.7162
-143.1338,-22.4043,-78.8440,13.9230,-43.1900,65.7388,-131.9968,-21.7572,-185.7281,-61.7927,13.2767,91.5986,-117.1915,127.2557,-186.8514,48.6578,-128.4057,91.6992,-137.4995
-91.5151,-38.4881,-38.5455,5.5463,-55.0340,84.5551,-133.0798,-23.6265,-246.7436,-77.9896,48.3052,86.8696,-134.4487,121.8827,-203.3474,22.8850,-117.5807,73.6089,-140.1382
-45.7738,-59.9651,-6.5750,-10.9608,-91.5597,68.3393,-163.3213,-48.1398,-269.5632,-102.6685,50.6386,59.7464,-169.0943,68.9869,-245.3064,32.3874,-111.4568,30.8206,-145.3655
-33.6999,-74.3322,-21.4938,-4.3857,-146.3471,20.4297,-217.1360,-82.9406,-258.9958,-169.6681,25.9435,30.7543,-243.5574,-19.7448,-309.2496,-5.1942,-97.2556,10.8425,-166.4056
-54.3796,-40.7715,-82.7959,-0.6907,-207.3172,-22.5788,-266.0496,-112.2926,-279.9924,-210.4628,4.4070,47.1235,-306.6317,-67.5498,-347.6275,-75.2376,-94.6577,-9.2145,-225.5142
-60.0161,38.6247,-117.2762,-24.0107,-266.2577,-54.6219,-311.3685,-130.3200,-339.3925,-192.6644,-8.6919,95.9195,-323.3762,-65.0105,-353.8004,-108.5337,-132.7614,-60.2309,-311.3138
-66.0085,39.4682,-120.5581,-66.6366,-299.6460,-93.1731,-351.8799,-140.9514,-393.4657,-188.6306,-31.7979,94.8092,-298.0353,-66.3232,-333.8076,-138.3381,-194.9659,-107.2592,-358.4810
-129.5407,-79.1170,-154.3176,-115.3096,-263.0134,-132.7238,-326.2715,-146.9484,-389.7631,-198.4751,-59.4217,35.0713,-225.5080,-80.4694,-267.7855,-185.0124,-235.0036,-106.4908,-329.6371
-183.4812,-120.5286,-188.6225,-134.0244,-167.1655,-174.2664,-237.4776,-161.0226,-343.0119,-169.4892,-49.7040,0.6625,-147.3774,-101.9480,-204.6476,-193.0969,-243.1336,-76.6260,-311.4916
-107.4098,67.1285,-147.1592,-71.4150,-105.5123,-213.6798,-208.8502,-190.6262,-351.1067,-141.2510,19.1545,32.7583,-144.8883,-122.9807,-230.7707,-188.1344,-226.0313,-39.4493,-379.3446
50.8130,345.6040,-48.0579,61.4061,-110.1191,-191.5322,-255.2347,-186.6563,-421.0568,-124.8581,102.5876,102.9713,-197.8528,-80.3071,-301.2713,-230.4304,-171.4103,29.3227,-414.0104
150.6243,496.4741,49.8001,180.4496,-94.6754,-77.8441,-231.7582,-90.2013,-424.7835,-46.6876,148.4290,165.4538,-208.5933,28.2335,-307.1591,-244.6113,-101.8344,119.6194,-285.7279
177.9287,477.9937,125.4769,219.5524,-35.7249,53.4176,-123.4260,56.6474,-325.2971,59.7071,169.7718,167.7663,-166.6458,88.9735,-260.3567,-150.6823,-66.8827,169.1794,-104.8163
190.3501,383.1439,161.0235,189.5118,-22.4198,138.5863,-70.9407,156.0265,-217.6309,102.4150,187.4782,109.4862,-126.1440,87.4887,-217.5652,-35.5272,-56.0377,167.1255,-35.1424
162.4931,288.7879,139.8467,141.5764,-78.4591,184.9987,-100.0512,185.2790,-151.3612,113.0426,156.4044,60.6551,-97.6931,114.6662,-170.5531,-10.2240,-49.0838,144.0219,-58.2975
44.5488,191.8816,62.3690,100.1814,-159.5099,176.5242,-151.6787,174.8568,-135.9879,111.4097,39.2317,34.0425,-93.5515,118.2191,-150.7664,-53.1483,-92.8015,86.2397,-115.8871
-121.8845,70.8471,-66.3388,61.4061,-267.6090,95.0391,-244.7071,135.3832,-184.1676,37.1541,-110.4114,-25.5705,-148.0640,9.6993,-218.9779,-78.2669,-180.8017,1.5791,-209.3779
-239.1983,-16.7762,-192.4917,48.2294,-362.1077,14.1237,-344.6204,92.4081,-224.8626,-43.4499,-211.3482,-90.5622,-222.2905,-85.8480,-300.5452,-44.2318,-197.2097,-30.7521,-280.8981
-254.9487,4.2366,-227.2298,96.6931,-341.2623,2.0325,-336.8113,81.1602,-193.7539,-20.2013,-242.2912,-93.1225,-240.9105,-48.1061,-283.5847,13.8307,-107.5014,3.6939,-280.8951
-205.9191,86.8824,-182.3626,173.2537,-244.8884,6.0363,-270.7088,74.8226,-174.2270,21.0102,-242.9222,-84.1518,-225.6652,1.8706,-232.3009,36.7593,-29.3968,17.2989,-285.6487
-179.0998,120.5853,-162.7115,191.0523,-210.1670,-42.5299,-288.9568,36.8525,-223.6106,-3.4845,-267.2825,-143.0806,-237.9396,-45.4136,-254.4064,33.0482,-48.0837,-21.8489,-326.6333
-220.0159,80.3362,-202.6185,125.9264,-217.1249,-114.7056,-328.7783,8.5020,-241.3525,23.9462,-320.9297,-227.4084,-245.8277,-97.4539,-285.7927,40.7469,-130.8184,-62.3850,-308.6797
-287.9494,10.4513,-252.2649,40.9125,-165.7516,-151.8096,-254.6464,34.2179,-172.0943,147.7888,-354.7534,-265.3935,-197.4415,-69.0331,-231.3416,29.3759,-212.0900,-83.4315,-218.2886
-307.2545,-45.2236,-270.2193,-1.2517,-93.3488,-139.7921,-144.3591,82.0573,-96.7557,221.0498,-345.3475,-257.4877,-138.5038,5.4606,-151.7799,-11.3684,-231.3747,-81.6912,-143.0470
-244.6979,-42.8607,-232.0591,20.1604,-70.6421,-74.3417,-122.0208,123.6624,-64.4545,212.6876,-312.1293,-204.3524,-128.7547,102.2807,-134.7371,6.2473,-156.1702,-15.1171,-79.5839
-137.5436,36.5669,-146.4737,114.0408,-55.7279,55.2942,-117.8437,187.3846,-41.5711,246.9948,-250.2837,-82.6921,-132.1855,227.4176,-142.2536,92.2553,-30.2131,124.8643,24.2914
-40.8721,160.7563,-65.4343,263.9767,3.4860,206.8056,-31.1789,265.1358,-0.3833,298.6251,-153.4717,69.4759,-86.8086,323.9146,-103.2792,118.5828,78.7900,257.3661,122.2440
40.5566,275.4056,0.5511,377.4758,78.1138,278.7504,79.7985,275.3120,46.2869,214.9998,-69.7467,153.6859,-12.3560,302.6552,-35.0566,60.0570,149.7503,292.3674,146.7256
115.6152,326.6631,76.6584,358.5396,109.7152,232.5394,120.6775,191.8645,59.1645,30.7970,-30.4878,128.9297,22.8232,171.2585,1.9264,47.2911,180.7857,236.7091,126.2950
149.9037,303.5364,127.8295,263.7897,71.0682,170.7391,106.7788,119.5643,29.2135,-58.4405,-1.4225,75.3449,6.2853,59.6884,3.4473,120.9327,187.3456,189.4734,130.0277
140.0266,281.2148,125.2060,240.8170,-7.2896,197.7164,92.8901,147.5944,0.1102,-20.8208,31.5895,90.2910,-7.2475,61.0308,14.6304,174.8914,215.1000,209.9564,159.3559
149.2310,321.0320,119.1672,292.0557,-74.6670,260.0887,65.2013,206.2530,-25.8997,-8.7655,35.7657,149.3651,7.0017,106.5382,35.0709,135.0788,252.9904,238.1454,140.4600
175.1205,369.1503,115.4602,300.9297,-123.2252,244.2562,-11.2443,183.3111,-87.2963,-73.8909,3.6795,165.3755,3.9254,101.0805,10.0273,27.0454,228.8355,211.9349,41.3507
144.3992,371.7377,62.1085,261.5508,-146.9915,156.2636,-90.1533,97.0199,-138.3610,-122.0435,-35.4007,145.3674,-29.7823,76.2888,-50.8167,-69.8016,158.7785,164.3018,-45.6802
88.6606,361.9832,5.2980,236.3225,-106.5498,81.5452,-87.4480,33.2331,-116.2864,-112.4819,-49.7954,144.9269,-28.4496,77.4188,-59.5118,-72.9990,134.2537,133.4654,-26.3882
99.8092,341.1979,23.0169,191.8272,-14.8643,57.1650,-6.2166,16.7450,-72.5928,-71.3373,-24.5995,141.9819,26.5775,65.2788,-0.1501,7.4116,152.8507,124.0050,63.8368
137.2359,270.2113,64.1413,115.3379,67.0489,86.2053,82.5655,39.6822,-54.3151,-12.0716,14.4402,116.4598,60.2858,49.3976,51.9337,58.0756,148.3991,166.6548,146.4740
118.8290,203.8602,58.7573,92.4208,132.5198,168.0614,142.3827,87.9397,-37.1795,-4.1899,25.4615,125.0987,46.1031,102.9537,68.6690,19.1902,118.1204,240.2247,189.6323
85.4576,210.8036,33.2712,102.3088,179.6907,238.8810,157.8175,96.8098,-65.0975,-118.7153,10.4508,167.0802,43.6019,184.3108,71.0275,-45.8854,75.5569,225.7488,167.8566
82.4932,217.7841,7.8724,28.4518,157.4888,206.3804,109.9499,19.6951,-174.2209,-244.9199,-5.6025,161.4121,68.9304,184.3217,51.8704,-65.1807,15.0419,101.7556,92.4322
69.5355,145.7713,-21.1317,-72.6333,82.4520,95.5308,43.1338,-77.1234,-234.8483,-232.6506,-15.8667,123.0906,77.4873,131.4713,22.6771,-35.2702,-20.0985,6.5667,42.2833
48.4509,74.9298,-8.8724,-49.7954,39.9004,31.8816,33.6223,-107.5793,-166.2590,-151.1841,-4.9947,141.9111,56.9578,112.7862,17.9862,0.5204,3.6050,12.3164,44.9051
61.4883,87.9624,50.7633,51.7069,34.9271,50.8920,62.8822,-81.6295,-102.7932,-133.2154,34.8006,193.5931,28.2375,91.6680,10.5160,-5.3769,27.6562,52.1197,54.4233
69.9848,110.3347,77.0968,86.3865,19.5482,63.7130,57.8718,-48.1194,-120.0691,-139.0321,60.7473,190.1228,11.3116,24.3678,-21.9511,-42.3379,11.4292,71.2778,70.5614
28.1907,68.4548,43.4953,60.9627,-4.0353,30.6424,29.2762,-16.9331,-114.9058,-89.6340,45.6086,152.9115,27.0471,-4.0395,-16.9861,-45.2890,-6.9869,67.4223,101.4056
-19.5540,36.8449,3.8655,61.8135,-30.0146,9.9149,33.3537,16.7811,-70.7271,-23.5593,23.0793,155.3390,58.6623,49.5464,31.7977,-2.2676,-18.4787,49.5070,94.6341
-36.3965,78.8703,-26.3927,87.6729,-61.5400,16.9446,56.4761,37.8985,-83.7491,-11.0671,8.3165,185.1723,56.4171,76.7432,32.8161,35.3469,-39.7690,39.4733,54.2652
-51.9986,105.6918,-63.5967,86.1443,-63.5440,-6.1953,48.4708,20.0004,-128.7903,-59.0106,-22.3260,182.8589,27.7539,18.4732,-14.9530,57.1594,-44.8891,29.0543,44.0520
-87.7981,38.0997,-100.0005,41.1115,-38.1649,-72.2637,4.0327,-39.1080,-116.9720,-100.5780,-68.6181,137.7850,12.9038,-36.8735,-32.1368,81.7875,-43.1463,-15.0830,28.5675
-130.8405,-48.7218,-136.1360,-18.9877,-39.9595,-128.2573,-51.4755,-93.3426,-83.1034,-51.4865,-114.6629,93.0535,-9.3507,-26.2193,-36.3514,87.0975,-86.3520,-53.9740,-50.9744
-159.9953,-72.6319,-169.4098,-55.9566,-52.0937,-135.2883,-97.8017,-96.0925,-85.3825,61.3919,-152.3029,85.2066,-53.7986,18.4470,-66.7380,62.4449,-142.4047,-31.7437,-120.9652
-159.8229,-73.1502,-166.6747,-68.3617,-33.0603,-92.0854,-118.7154,-61.4761,-78.5110,119.3027,-161.9066,87.7910,-59.1365,62.7082,-61.4171,46.3774,-153.4592,-0.2225,-118.1724
-141.8357,-95.4809,-135.9676,-86.0597,-38.1854,-32.4902,-104.4625,-31.7131,-19.9944,103.4004,-143.6068,48.3663,-6.2185,75.4131,3.7393,64.4928,-161.1507,-23.2447,-107.0478
-127.7462,-119.1042,-134.4870,-119.0720,-97.3810,-16.8699,-60.8051,-22.5906,60.9184,93.7992,-134.5196,-14.3254,37.0986,32.4011,51.4867,109.1063,-191.7541,-66.2775,-112.3649
-115.2045,-145.3264,-158.3103,-151.2094,-119.9965,-51.7079,-1.4038,-28.7377,144.3781,103.2033,-136.2517,-39.1459,54.1289,-7.1030,69.0190,154.7303,-178.4868,-85.9554,-68.4424
-106.5599,-192.6952,-145.4977,-155.3071,-68.6813,-66.0274,63.1546,-28.5170,233.5033,99.3437,-112.4985,-31.5630,95.5841,22.0939,119.9419,167.8543,-113.5857,-82.6808,21.1924
-108.1683,-226.4681,-86.6015,-108.0627,-29.2114,-39.9544,122.9874,-2.6174,310.3221,99.6381,-70.3322,-30.0756,153.9471,59.5033,189.9804,159.3588,-64.2583,-67.4667,90.8835
-92.6624,-223.3734,-30.3341,-53.1675,-42.2639,-55.9644,168.5014,12.3354,367.6500,109.4697,-46.5396,-30.2899,178.1523,27.8231,213.5742,153.9718,-38.0159,-92.7336,133.7012
-69.7298,-233.9774,-19.3192,-92.2996,-54.9941,-166.6566,205.3163,-34.5806,420.9713,95.7290,-53.1423,-42.7780,179.9464,-39.5043,209.9542,93.4687,-33.1674,-202.1448,163.7378
-110.3623,-294.9953,-64.8312,-230.5544,-26.8595,-316.2682,252.9891,-109.6494,460.5489,74.9446,-89.8125,-104.8757,209.3817,-94.7513,250.0836,-32.2024,-96.0953,-314.2790,160.6481
-197.0504,-366.1115,-134.3134,-344.2256,45.3854,-415.0464,304.3187,-148.6599,466.7720,90.7010,-139.4596,-184.7948,262.4777,-140.6810,321.0853,-59.0781,-190.4152,-330.0187,126.9763
-230.1112,-389.7431,-177.9952,-364.0884,146.2264,-424.8440,317.5194,-164.2478,443.0834,104.2128,-160.7936,-220.1498,289.1734,-171.8499,332.0652,59.7099,-208.4071,-292.0768,96.4525
-213.8684,-354.1479,-190.9071,-340.6035,229.3091,-384.5012,285.2787,-189.1804,388.6812,42.9676,-147.2421,-221.1840,273.1929,-184.3962,269.3318,104.4734,-150.1362,-279.3499,75.2179
-207.8806,-300.7527,-195.3023,-310.5256,250.7213,-361.9521,249.4269,-207.2588,310.7935,-48.4573,-134.9105,-207.9792,245.7228,-182.9760,228.7640,7.9114,-95.3168,-285.2755,41.5356
-182.7374,-279.9593,-187.1577,-260.8524,216.0030,-361.7220,213.7601,-220.8816,246.5677,-57.8918,-133.0456,-161.9347,221.6124,-143.1995,237.1096,-23.9413,-69.3072,-290.4426,-16.2958
-136.2738,-294.2688,-170.0628,-215.9558,159.5302,-332.4335,144.3889,-258.5554,192.0709,-14.5053,-132.5158,-114.3977,185.1826,-79.1182,205.7507,29.3465,-80.7523,-293.1477,-78.9241
-156.8068,-319.2979,-180.9566,-222.2144,103.2306,-262.5912,70.7967,-275.1511,110.1689,-36.1019,-151.3847,-113.4584,142.4107,-51.1428,128.9418,5.6237,-144.8285,-262.8528,-96.8675
-239.4952,-349.9354,-219.4284,-255.2003,56.9398,-174.3584,58.2657,-187.7436,50.5879,-66.2566,-183.7911,-112.7603,118.2666,-25.4496,108.2695,-15.2262,-197.7855,-190.0459,-36.5380
-272.6493,-368.5312,-221.8546,-238.7596,40.2032,-72.8621,94.5883,-26.8985,79.9373,23.7207,-169.9946,-68.1506,114.4217,57.6262,144.9052,91.0883,-147.3605,-127.9932,71.7891
-216.8130,-340.3990,-149.4272,-157.4981,67.2681,8.7208,123.0829,80.9542,130.8153,129.3750,-90.7747,-36.5912,121.8063,106.1479,147.7133,145.5154,-13.1965,-119.2884,162.1558
-122.9016,-284.4456,-55.9038,-80.1728,96.1748,19.3451,127.1490,91.3662,133.7999,103.5733,-23.4378,-41.9879,125.4723,45.7945,110.4043,51.1237,91.3405,-147.0281,190.0565
-67.9339,-253.0215,-34.8357,-55.9159,57.1351,-12.8080,99.6916,79.9495,154.1606,69.7870,-39.6496,-21.3279,90.9183,-7.2941,76.3635,30.2587,90.9685,-175.0674,150.7570
-109.0157,-243.3485,-92.4662,-54.3618,-28.1172,-31.3213,39.4400,86.0883,221.2876,143.5423,-94.6106,26.9809,28.6079,13.5233,43.9083,122.2106,24.6752,-194.5154,78.2126
-178.9158,-221.7762,-123.8266,-35.5230,-55.0661,-60.8539,3.0882,50.0746,250.6402,173.2512,-98.6855,36.2556,9.3383,3.9998,23.7130,89.8394,-9.9444,-218.1992,15.8459
-159.4963,-191.1579,-78.2951,-8.1474,0.8133,-120.5702,26.0507,-47.6750,214.6564,75.9275,-66.2438,5.6396,39.7656,-61.4199,39.3865,-38.4661,0.3838,-233.8916,-31.8689
-108.2308,-173.0504,-46.5030,3.1264,61.2772,-142.6405,40.8675,-121.1768,156.5059,-0.6281,-71.4775,-18.5146,53.5170,-90.4777,59.9738,-15.1132,-23.7060,-213.4990,-80.2209
-145.6834,-175.8918,-82.3022,-11.2879,88.1653,-96.4727,-1.5784,-118.5260,87.6659,-4.6331,-95.5742,-31.3549,44.7197,-72.5287,52.0445,110.2611,-87.9243,-181.4197,-111.9720
-203.1383,-189.4638,-103.4463,-44.0841,106.2178,-43.9602,-48.8731,-98.4214,32.5083,-38.1025,-78.0625,-45.4488,43.9054,-45.1766,28.5165,124.1526,-108.7460,-181.4564,-107.8714
-185.6092,-193.2278,-73.1470,-74.8374,110.2671,-21.9525,-68.4866,-113.3233,16.1806,-111.4029,-54.8264,-58.0069,24.4806,3.0059,0.6468,69.7164,-83.5073,-195.4241,-92.9177
-158.7826,-195.9915,-66.9448,-100.2855,76.0716,-19.4421,-89.3906,-135.6894,-10.9313,-158.3845,-74.2854,-63.8498,-16.8462,49.6509,-21.0861,75.9086,-84.3252,-197.7776,-94.7730
-152.3813,-215.5436,-92.7347,-130.1429,28.5924,-41.3454,-97.1630,-132.4886,-59.7340,-166.4624,-83.8176,-50.4252,-20.8454,44.3884,-11.4999,79.8088,-114.9297,-202.1244,-107.7043
-101.9354,-205.6624,-77.8083,-137.4421,12.2043,-83.6306,-60.3286,-119.8600,-63.0072,-156.2305,-45.7071,-19.0389,14.5111,4.3944,22.1352,15.9883,-140.0560,-191.0004,-125.4585
-44.4418,-133.2542,-38.5408,-106.7913,20.3646,-126.7733,-25.1898,-127.8654,-44.5460,-150.7055,-21.5760,-13.5565,37.9679,-40.5143,51.5422,-29.5721,-165.7555,-153.3612,-146.4715
-50.6299,-88.7571,-53.2181,-109.4967,1.7093,-187.7997,-40.8948,-155.2778,-63.5488,-140.1718,-52.1712,-63.1755,41.9904,-95.7208,66.4670,-2.0872,-201.9397,-163.9147,-155.5502
-82.2839,-142.8054,-120.2575,-193.2249,-70.6703,-269.4122,-77.4627,-167.6240,-54.3616,-83.4560,-101.1233,-129.4114,24.4262,-135.2291,45.9570,38.2077,-251.9547,-242.5577,-156.1212
-120.6011,-204.1717,-181.3048,-269.8194,-155.5625,-305.7235,-101.7518,-142.0679,4.2898,-29.7315,-138.1339,-157.2457,-26.0771,-125.4163,-12.9555,44.9571,-314.0876,-266.0881,-170.6673
-186.1277,-184.5488,-198.4763,-251.2874,-185.5831,-270.7196,-116.0323,-100.3525,1.1079,-62.5252,-160.8014,-135.7202,-55.4487,-96.4837,-44.9181,23.6075,-323.6182,-176.6662,-178.8801
-202.2668,-126.7306,-161.1140,-182.4504,-143.5225,-236.2208,-98.9739,-74.8998,-48.4741,-100.1232,-160.0919,-98.4607,-12.8769,-93.1028,-9.0186,-16.7369,-226.9808,-83.7929,-141.0314
-121.3111,-76.0851,-101.1928,-142.3165,-79.4157,-240.8642,-33.3109,-72.8926,-19.0780,-43.0342,-138.7246,-91.1719,45.8666,-120.9576,44.1924,-43.6922,-115.0972,-76.6718,-85.2948
-50.7946,-30.7730,-78.8695,-138.4734,-68.6067,-231.8863,22.6461,-85.6534,33.0267,14.5824,-129.7211,-119.9368,47.9987,-172.9724,58.3913,-6.6578,-93.4969,-121.7749,-72.6028
-46.9748,-16.6913,-101.2092,-137.7999,-145.6989,-175.2123,-4.3424,-88.9267,-14.3988,1.7627,-154.7885,-147.7929,-5.8980,-240.2778,14.1862,85.3515,-105.6591,-150.2581,-99.0636
-28.3345,-43.6628,-116.0170,-119.8308,-256.9702,-101.6665,-98.0584,-53.2945,-86.9601,4.0972,-181.5412,-165.4489,-84.5506,-303.5130,-77.8353,158.5361,-69.6489,-135.5579,-118.7042
28.6702,-68.1979,-92.7347,-101.0267,-319.7187,-37.2151,-173.2872,11.3894,-76.1060,46.1850,-160.1283,-193.0285,-145.6713,-335.8925,-142.0853,163.0858,-25.7113,-106.1879,-107.4998
69.0460,-70.0701,-49.5350,-101.3959,-330.6125,27.6645,-174.7582,79.8303,-24.0858,92.4755,-108.1692,-207.9722,-152.7164,-315.4794,-119.3456,118.3770,-14.8813,-79.3554,-54.6014
86.6633,-51.5547,-19.0504,-81.1064,-333.0387,102.6838,-128.2786,167.1436,13.9922,169.4004,-90.8795,-180.6089,-132.1981,-260.6154,-77.8321,70.0011,-0.0972,-7.6873,28.6944
98.1988,-3.0768,-8.4772,-3.6071,-311.2086,169.2444,-95.3019,266.6480,47.0838,228.1072,-101.3042,-146.8438,-119.5993,-216.6142,-78.3771,41.5746,38.8721,105.4948,87.8855
107.7112,43.4289,13.4620,67.6895,-233.1403,194.4528,-83.3208,303.3558,65.8540,185.7155,-76.3888,-138.1813,-83.5745,-187.2778,-57.6011,41.8716,82.0075,159.0437,97.5286
134.3177,50.5749,59.8808,77.0292,-138.1545,180.1812,-45.2386,255.5444,56.1160,144.1445,-27.9772,-120.2346,-13.4559,-163.9838,8.0160,77.5394,114.2801,149.4572,104.9607
164.5056,61.5143,90.4101,85.0643,-70.8298,167.5818,23.7617,207.9096,39.2094,194.1336,-13.2687,-78.9576,28.3158,-178.4686,38.6697,118.3362,120.8107,188.8373,135.2283
160.4838,99.8079,89.2065,138.8273,-7.6199,168.2422,73.9921,207.3672,36.5890,221.5894,-20.2639,-53.7225,19.6360,-212.5033,24.3195,109.5532,111.1254,270.6185,147.8474
153.4215,103.7220,96.1351,191.8966,81.9777,156.7537,101.0006,205.7486,58.0361,187.3124,-6.5577,-45.9397,17.7166,-178.9012,33.9203,73.4362,135.4225,301.7426,127.7900
180.1230,72.8691,117.9097,218.4560,179.6058,144.0476,142.3359,172.8501,95.0037,181.7921,28.9473,-15.9998,58.7623,-83.7538,72.8071,85.7903,192.1663,292.2584,102.7962
189.1422,70.4745,121.9611,222.7126,239.4535,158.6572,167.0650,128.3988,101.6503,147.2291,71.1887,28.4345,111.2368,-24.8623,99.9875,111.6690,205.8058,261.7417,69.9151
151.5365,62.3919,115.1674,173.4647,225.6322,176.5447,109.8652,80.3703,51.2755,15.0727,98.2196,46.4472,122.5603,-9.7717,101.9375,62.7449,161.3684,177.2503,16.7658
125.5234,0.9760,118.9774,94.5977,161.1105,178.3464,6.9641,35.1305,-17.5741,-74.6234,90.1064,45.5029,81.1207,24.8532,73.1525,8.9211,137.3975,114.1048,-26.1919
141.6122,-25.7878,127.6234,91.7909,122.5532,203.8365,-49.8926,16.6889,-62.2330,-45.7003,82.3536,71.3470,31.7461,67.9873,21.1210,55.5405,174.8312,166.0940,-37.1234
179.4580,40.9450,150.6772,176.8687,127.4078,251.5346,-58.8624,22.7505,-77.5513,-14.6310,115.9281,128.4807,8.8492,69.1823,-16.0717,108.8391,226.4168,228.1478,-35.5485
220.5700,97.5202,189.6071,236.0016,103.4505,246.2204,-72.2265,28.1585,-62.0370,-16.2155,147.8885,162.5128,0.9060,35.2669,-13.2403,68.5608,232.8679,177.1094,-29.3434
218.5307,77.3824,191.2890,215.6025,29.3267,173.5726,-85.1823,33.4818,-13.6256,8.3906,135.0978,139.9646,10.2561,10.1771,20.3945,33.9214,178.7952,86.3990,-16.3004
151.9037,65.6601,140.9236,176.7849,-26.4699,99.9233,-79.4901,40.4955,35.9610,27.9326,119.5628,108.8506,37.6378,12.7686,48.0237,56.3135,100.5526,41.7497,-29.5040
115.5942,119.4367,110.0755,174.5529,-45.5564,47.6677,-89.6837,20.0466,34.6491,0.8052,132.7656,127.6705,26.3220,15.7141,23.1676,24.9123,60.5635,9.1525,-87.6428
169.6975,170.0692,129.5154,197.0907,-74.6757,-5.8024,-130.6782,-24.4407,-18.6108,-42.5540,143.6396,167.0607,-32.6078,-2.4521,-33.4546,-49.5376,75.2867,-24.2170,-133.0898
200.5021,147.9581,144.8214,199.2298,-90.7973,-57.3276,-147.1352,-34.8460,-55.4911,-76.4379,138.2371,159.4204,-47.6555,-6.5626,-38.2211,-36.3830,90.8533,-25.9780,-106.9382
130.8826,81.3263,131.4157,157.7339,-22.8035,-106.0115,-100.1531,-10.2542,-42.1423,-83.8590,132.7086,113.8075,-4.7492,21.1283,6.5366,30.4837,69.4771,-6.5080,-48.5185
72.6144,44.1765,125.9494,109.1828,95.9937,-151.5303,-37.5892,-33.8873,-38.4527,-67.4811,129.1645,94.9741,1.6466,41.9423,10.8172,34.0892,41.1019,13.3520,-44.4331
103.7727,47.1936,146.7823,101.2149,149.7642,-142.4803,-30.8410,-121.4754,-78.1442,-84.3745,128.3200,116.5689,-28.8250,71.9135,-26.1810,-9.4672,32.6985,23.6052,-102.5212
140.0752,31.6296,169.1716,111.6475,106.4007,-52.7894,-74.6276,-181.0116,-103.1495,-138.5361,135.3409,135.5970,-19.8412,151.2943,-30.5394,-50.6561,26.3735,3.5047,-146.3555
129.8615,-6.6873,168.5803,97.6128,41.6613,51.9877,-106.3054,-169.7634,-94.8782,-162.7840,143.0260,140.6426,0.1497,205.1306,-19.8325,-80.1757,24.2542,-14.4378,-130.2776
133.3310,9.5181,159.1879,99.7213,15.7559,131.4601,-115.5505,-129.1539,-109.2900,-159.3691,147.3379,173.0359,-25.7555,176.4911,-56.7511,-46.3005,67.4165,40.2895,-83.7822
168.8913,83.3839,171.6462,174.1678,19.3352,208.0036,-140.1625,-70.0508,-138.6147,-149.7603,146.7030,237.6020,-54.5654,153.1334,-108.5978,55.1440,147.4631,124.3813,-37.5319
180.4577,110.7626,187.4599,251.9305,18.0009,240.3715,-159.7266,0.2192,-117.9207,-88.2593,135.5022,265.1460,-55.7380,156.9143,-112.0369,108.5907,187.3546,108.3967,3.2325
151.4628,61.1702,165.7670,225.0254,-11.7974,170.0439,-130.4342,18.9665,-60.7121,-1.6634,133.7847,224.4776,-62.7252,111.4387,-83.1110,61.0507,153.6194,-6.0163,17.4377
114.1469,23.9598,128.9917,143.7477,-62.0223,73.8201,-89.2942,-2.7076,-33.7027,29.5300,155.9364,183.0807,-57.7206,76.4585,-61.3768,-6.6570,99.1300,-66.6179,3.1448
75.2027,49.2944,106.9030,142.0426,-87.4943,54.9795,-70.2312,43.6127,-40.6871,59.9084,152.0542,179.7980,-6.3802,116.5012,-38.2402,-30.8742,60.1087,0.8587,13.5986
16.5030,94.6471,56.9522,203.1620,-66.9346,64.6858,-26.3879,142.2311,-36.2514,143.6818,87.0814,162.9902,36.7122,94.3959,-1.8324,-20.8608,7.7179,80.4288,51.3551
-50.2696,111.9609,-29.0639,200.0026,-47.4567,-5.0053,29.0509,135.6003,-13.0475,161.6483,26.0685,118.7678,22.7152,-37.7227,22.6928,-20.5963,-65.2549,37.8528,22.8681
-76.0405,86.6194,-65.9090,113.8427,-61.6521,-160.8356,5.4951,-12.9168,-9.0915,46.9419,36.9201,93.8511,1.2006,-104.6568,21.5163,-72.1674,-107.3790,-84.9556,-92.7598
-37.2473,33.4092,-27.3001,25.9436,-62.3538,-310.8397,-66.0256,-164.6144,-34.8353,-83.9538,87.2210,71.0883,11.2051,-68.9118,16.6213,-133.7751,-98.8236,-140.2454,-174.6423
15.8120,-11.3971,10.3951,-28.0419,-11.7964,-337.5734,-71.9543,-212.4291,-49.5921,-145.8778,108.3047,11.7267,17.1746,-49.6851,14.3599,-124.0637,-89.1386,-83.9808,-147.1066
18.1613,-39.4515,13.9048,-60.1305,52.2298,-210.1110,-27.9531,-170.3328,-38.3209,-147.9283,81.6821,-32.0771,3.5960,-23.9317,-2.8000,-82.9244,-108.7194,-4.6915,-70.0639
-30.9847,-81.4363,5.9818,-79.4555,83.8095,-47.4901,-10.6271,-97.3203,-31.7928,-89.6970,28.6679,-20.4490,-3.6208,42.2151,-27.0395,-93.1162,-123.7172,27.9335,-6.5896
-94.1113,-130.1547,-20.8463,-84.7931,78.0630,51.9806,-6.5567,-26.7148,-24.0239,2.4138,-21.4884,-4.3368,-7.9199,43.4040,-34.1771,-99.5260,-103.9178,49.9090,40.1782
-144.2289,-128.3916,-60.4421,-46.3179,58.5588,148.5184,9.0733,51.2793,4.5598,69.6235,-44.1060,6.1867,-20.7265,-1.4940,-22.3393,-23.7636,-68.8321,124.1061,68.0395
-157.4893,-68.2675,-67.8098,38.7495,60.4798,261.1893,17.2045,132.0541,6.9509,99.0291,-34.9976,50.7160,-17.8438,40.3226,-0.7765,71.5444,-50.3329,206.7120,64.7454
-127.1120,-23.6568,-47.1441,75.9396,65.8628,253.8696,6.2624,146.5395,-39.4419,84.6474,-17.9521,79.9715,-5.0966,97.7464,4.6257,83.0412,-58.6929,167.0652,14.6500
-92.1909,-52.1819,-47.1342,4.7860,-14.9469,90.6235,-60.0279,50.7562,-75.2851,15.5291,-24.0920,22.4652,-37.6964,21.9237,-50.2559,-5.5689,-91.6800,-4.4542,-101.4194
-98.1124,-117.9140,-76.0980,-82.9000,-179.3154,-72.0646,-195.3936,-90.2985,-93.5651,-47.8682,-55.2109,-79.7508,-102.7083,-120.4182,-134.0989,-119.8096,-141.8342,-135.9907,-236.5060
-151.3138,-152.8800,-117.0091,-107.0285,-264.7231,-145.3019,-273.3885,-186.7184,-132.9034,-50.3644,-93.8991,-157.8553,-114.7023,-190.1301,-142.9258,-145.4022,-195.6149,-128.9871,-280.4031
-226.6398,-158.1480,-169.1504,-114.7837,-191.7332,-187.3573,-201.1200,-215.6452,-146.1815,-38.5186,-149.8122,-201.1271,-79.1380,-172.9184,-86.3031,-67.1604,-233.7389,-92.6736,-215.8614
-276.8510,-170.2583,-219.7205,-137.4747,-86.0456,-229.5778,-105.8464,-203.6305,-103.9185,-55.8696,-224.1585,-198.8781,-88.4289,-111.8522,-84.8791,-11.9428,-233.2146,-117.2652,-141.0038
-276.8284,-183.1556,-246.6253,-147.4209,-45.5790,-242.8758,-93.7960,-187.7776,-89.3283,-77.7327,-261.3665,-159.3251,-139.9692,-51.5864,-138.5497,-40.2272,-200.1880,-136.6270,-99.5223
-275.3816,-200.5774,-256.7329,-162.6534,-28.6807,-206.7603,-74.6548,-177.5852,-112.0696,-81.3517,-238.9995,-143.4128,-146.2576,-21.0539,-137.3897,-71.3305,-183.7351,-96.0105,-52.1440
-303.4696,-240.0074,-257.8437,-201.7743,-17.5588,-112.2027,-6.8471,-146.4380,-75.9145,-57.5250,-218.1964,-163.8615,-104.2165,3.1219,-84.0495,-81.9175,-192.4220,-42.0116,6.8073
-276.1479,-197.6209,-222.0829,-215.4434,-41.1372,10.4102,16.8556,-99.2584,-6.9869,-19.3976,-212.7798,-161.3293,-85.5535,30.9946,-70.2772,-119.9957,-143.0885,-8.0550,59.2760
-116.5194,50.5427,-126.1058,-171.3036,-62.1236,98.5385,-5.4206,-70.9630,-23.7733,-17.9867,-164.4292,-108.2134,-109.0667,40.4165,-103.0738,-134.8984,17.0721,31.2135,121.5059
116.7412,385.9089,1.6534,-89.8146,-39.0728,150.2683,10.0412,-35.1264,-109.1217,-34.8973,-96.0487,-17.6658,-138.2061,64.2548,-125.4162,-48.3707,211.2716,86.3863,191.3162
322.6865,626.5369,108.0465,9.9853,-6.1886,196.3800,55.3848,47.5346,-146.5845,15.3664,-84.1730,94.4579,-140.2737,130.9126,-112.5537,82.2385,353.1571,125.7454,233.2809
456.1766,830.2214,172.9120,109.1122,8.2281,216.3134,77.8525,130.4211,-95.0077,99.4386,-108.5730,191.0844,-108.6851,188.3203,-72.7385,140.1135,460.2251,125.0797,246.8031
514.1804,1019.9268,207.2829,193.0442,4.4039,212.8431,80.5288,174.2597,-6.1042,125.1800,-125.2040,250.8033,-78.0458,219.6967,-36.0453,90.7458,566.3565,109.5825,259.4402
544.1125,1000.1681,218.8495,270.6887,-30.8246,241.2826,90.7259,216.4067,55.4774,148.2986,-155.1123,298.0396,-77.7842,258.7101,-28.6919,-2.1458,652.3156,119.6462,284.2649
607.5897,827.2587,224.2379,326.5627,-60.9484,284.3320,128.2866,255.6174,74.9671,217.0708,-176.9977,328.4361,-68.8008,273.5242,-30.4721,-42.3361,710.4942,142.6501,326.5492
682.8194,829.2604,247.3495,329.4720,-16.1235,272.6501,176.1169,242.0222,69.5544,201.5824,-146.4753,316.4980,-19.1512,240.0031,-15.0819,-16.0587,757.1070,128.6327,370.9408
711.4338,945.3480,257.7408,300.6144,67.5417,208.6721,184.3265,190.8121,33.9679,76.4425,-135.8320,291.4742,16.6880,208.1292,3.1018,-12.2550,778.3427,67.8380,384.0793
686.3161,852.2972,193.9919,265.1294,112.9117,125.2681,181.8482,149.6562,-6.2985,60.8975,-216.5907,269.7606,-1.5002,179.1471,12.0442,-69.4725,754.7476,13.1981,380.8927
595.4856,667.9167,84.1815,214.0521,168.6786,54.1871,260.6215,130.7164,21.2207,229.4923,-304.7026,217.4191,-19.1896,135.0925,26.7479,-117.3816,705.6136,35.9687,416.3758
427.2466,662.5125,23.1343,173.9835,299.1393,78.2546,400.6351,150.4812,85.7275,347.1576,-327.3902,157.3978,11.9460,138.1410,55.4233,-110.2227,660.5037,142.5149,500.6793
255.5209,664.9970,24.2371,163.9104,434.3107,219.2680,508.7450,207.8265,90.7253,272.5480,-344.4019,138.9928,58.2576,185.5977,88.5376,-83.7676,637.9000,242.3510,603.9990
156.7068,486.3991,32.6306,137.9761,512.3902,365.0779,582.5972,252.2804,89.6259,166.7920,-372.2590,135.1754,70.1143,184.9164,104.3961,-91.9162,651.8491,283.0966,697.9730
121.4409,292.5163,41.6189,116.3264,577.7021,461.2003,631.0882,275.5782,152.3364,153.8988,-347.2038,125.9812,46.2378,161.3551,87.8685,-175.9211,687.0576,337.8379,735.7455
126.9242,166.0175,64.7915,172.0981,631.3171,545.7837,600.2476,304.3873,158.4826,106.4274,-304.9484,120.2971,25.4336,171.5855,69.4454,-324.7994,700.1104,422.3636,687.2388
115.2150,48.2957,70.1737,222.6162,607.3122,558.5270,522.4590,295.0052,58.0430,-54.5313,-338.9020,48.3989,31.5053,117.0141,82.7593,-442.0728,665.1023,416.0927,598.5081
-28.7987,57.3503,28.5637,140.7959,516.2369,433.3127,494.6754,220.8860,14.7209,-144.4706,-416.3756,-110.0637,24.8565,-35.0576,85.8821,-448.4530,574.3606,309.7254,517.2911
-261.0105,179.2617,-49.6601,9.6568,421.7862,284.1244,484.5800,160.6933,61.2092,-33.2651,-448.0446,-209.9737,-46.4052,-121.0150,25.1386,-389.5222,424.2962,242.5300,428.9239
-380.6157,98.4284,-146.6163,-57.8355,332.2808,203.3723,409.3311,138.8921,48.9697,95.7532,-454.6541,-212.9152,-167.1156,-97.8643,-78.2033,-365.5144,242.3373,218.8549,332.3614
-388.7451,-219.6574,-246.2589,-137.1399,239.3896,108.9841,311.9412,79.1851,-22.1606,63.4064,-503.8954,-279.4364,-285.7673,-124.1374,-181.8189,-401.4344,76.7974,136.3134,265.0327
-467.8768,-452.6139,-336.2465,-270.5804,168.5527,-19.4892,271.6485,-5.4826,-52.4944,-22.5415,-577.4785,-418.3366,-358.2597,-237.3289,-255.5550,-435.5810,-54.4989,45.4010,235.6640
-616.2197,-519.0773,-420.8117,-341.8617,137.2975,-80.1023,284.9765,-25.9508,-61.7851,-43.8710,-612.7040,-459.1157,-343.3265,-300.8423,-255.0860,-421.9391,-153.7565,40.2609,226.0899
-709.1539,-565.6940,-488.6934,-316.7577,140.3958,-83.1827,305.1577,-4.7022,-76.1307,-86.1480,-597.1591,-405.7959,-273.7811,-257.3922,-197.7143,-399.4586,-213.5394,52.8609,209.3541
-752.4409,-589.0776,-504.9397,-300.0868,151.1515,-128.5541,269.9699,-26.1318,-77.0042,-181.9413,-564.1703,-401.4760,-283.1390,-195.1820,-199.2885,-414.0718,-246.3206,-1.1264,134.3385
-768.1188,-564.4496,-478.5328,-335.2822,115.0873,-199.0175,147.6201,-82.8875,-119.9590,-199.7929,-544.4457,-448.9588,-414.8646,-195.0285,-309.7909,-435.9712,-276.7199,-84.9184,-0.5245
-716.0287,-564.0204,-465.9276,-369.9392,22.2355,-203.4526,15.0861,-113.5932,-219.1024,-106.9458,-543.7392,-474.3091,-534.8254,-214.6502,-429.8505,-432.4753,-288.3116,-139.0503,-103.0560
-656.2373,-584.0155,-490.1686,-358.4805,-60.4989,-121.4008,-50.7376,-89.3727,-270.6436,-30.3321,-552.6479,-473.2329,-562.0151,-164.9713,-478.4255,-421.6025,-267.8974,-128.0881,-132.1510
-675.0914,-594.1161,-529.4715,-299.3655,-106.7409,-0.3823,-104.1405,-20.0073,-259.8258,-31.4803,-568.5383,-457.4595,-576.4307,-93.2761,-495.9275,-399.6695,-264.6586,-42.7023,-159.8636
-707.6289,-603.8536,-563.8823,-238.6768,-164.7179,95.5981,-186.5575,50.4142,-274.8762,-57.7439,-589.5427,-450.1995,-618.5596,-129.1434,-527.0807,-356.0737,-304.3568,45.2349,-212.4363
-672.1422,-544.5411,-575.6173,-221.3841,-233.2266,129.2501,-226.8646,79.8321,-321.3161,-80.4070,-591.1196,-494.6196,-626.9457,-234.7286,-538.9647,-340.4267,-324.9241,64.9549,-234.3083
-604.3049,-408.0040,-550.3813,-223.7849,-258.0488,117.8985,-218.2011,74.4123,-366.4733,-118.6507,-554.0684,-550.4955,-596.5535,-267.0815,-505.8664,-362.3534,-295.2816,59.2056,-230.9350
-560.3939,-363.2208,-515.8066,-213.3788,-248.7058,86.0151,-247.9285,51.2198,-416.0005,-158.8772,-509.2887,-540.0833,-587.5615,-243.5935,-483.0224,-339.8751,-289.9600,73.1672,-259.7378
-560.2703,-438.9720,-517.0115,-211.6890,-250.1376,33.8396,-296.8618,2.6889,-435.4068,-150.7800,-488.3846,-494.2264,-605.0748,-259.6394,-523.6168,-271.4253,-354.0499,59.0416,-314.1651
-583.1487,-453.7755,-535.8406,-225.1350,-249.7919,-33.1585,-273.7189,-69.2238,-411.4097,-103.3958,-461.0562,-478.7686,-606.6976,-290.1015,-577.7077,-269.5394,-417.5022,-12.5343,-359.7721
-563.8665,-377.1181,-511.2520,-235.1247,-226.1743,-119.7530,-213.0932,-153.8603,-429.6437,-113.8564,-398.9080,-484.8289,-576.1870,-300.6711,-573.9534,-352.2543,-422.4582,-93.2350,-403.1076
-515.6955,-330.1949,-451.3360,-261.7027,-204.7266,-227.3479,-200.0358,-246.0470,-505.1479,-222.2940,-340.2868,-497.5047,-538.2505,-325.2076,-551.4285,-403.6729,-416.0845,-132.2968,-441.5900
-551.5586,-338.1512,-438.0152,-306.7609,-206.1092,-281.1099,-214.4882,-300.7935,-531.5602,-324.7697,-327.0757,-516.4124,-540.1589,-331.3481,-586.7408,-364.4921,-455.7577,-118.2976,-448.2076
-658.7038,-382.3104,-497.6448,-316.3246,-224.7487,-213.8889,-223.3455,-257.9765,-489.4077,-334.6153,-348.3487,-510.6533,-589.4804,-266.0573,-646.3481,-301.2406,-517.9125,-80.0115,-431.1086
-681.1282,-442.7414,-553.3654,-293.7537,-261.2511,-101.6201,-258.3898,-149.2626,-467.2879,-303.1422,-369.8745,-487.2534,-615.7081,-201.9053,-642.5253,-282.3911,-544.6844,-61.9810,-418.3677
-587.8514,-448.9558,-536.9065,-303.3192,-307.4529,-41.2532,-315.9129,-74.1662,-489.7183,-297.7847,-352.4675,-500.4250,-571.3919,-220.4521,-581.5550,-289.3542,-515.0901,-63.9283,-406.9720
-494.6550,-421.6287,-464.0750,-331.3766,-330.2624,-4.4251,-350.8521,-67.1782,-514.3336,-316.6011,-272.7761,-534.8831,-511.4944,-272.1470,-545.0756,-281.3525,-450.7089,-54.8851,-392.6982
-452.1520,-438.5520,-385.2513,-314.6879,-325.0143,38.3558,-376.7649,-85.6241,-536.4375,-348.5336,-178.8672,-538.3958,-499.6899,-292.4858,-571.5717,-286.9133,-394.2513,-41.0203,-405.5320
-426.0640,-414.4402,-337.4869,-264.3083,-342.5505,39.1646,-436.0341,-102.4807,-589.7618,-377.7805,-144.5914,-530.5979,-529.3105,-305.6557,-626.5682,-342.1202,-370.6037,-41.7407,-462.6889
-401.2261,-293.4104,-331.3828,-213.8916,-409.5644,3.6161,-516.1573,-128.5664,-677.3268,-378.8682,-156.6510,-530.2784,-565.5938,-340.3249,-661.2501,-390.0504,-354.7614,-51.3437,-524.7857
-394.1562,-243.0064,-339.1409,-155.6978,-469.4428,-16.3186,-572.7616,-165.7189,-737.4785,-385.4610,-158.2142,-499.4898,-577.4791,-370.5766,-665.0559,-375.7727,-328.4363,-74.6566,-543.8737
-416.4047,-312.4069,-335.7396,-126.0912,-470.1371,-52.7746,-578.9355,-196.2399,-720.2495,-445.2372,-156.9120,-458.6771,-555.5358,-383.1225,-662.1548,-356.5431,-343.5399,-127.3244,-525.7118
-437.5974,-335.1038,-347.0669,-194.9395,-455.7863,-156.4557,-545.0989,-217.9352,-681.4590,-509.2653,-176.6024,-487.6686,-540.7433,-418.5412,-672.1478,-383.9147,-433.6544,-201.9786,-504.1087
-419.6092,-296.8898,-391.5606,-315.3116,-474.0395,-284.7966,-513.2809,-255.9738,-680.8986,-506.7844,-188.4121,-566.6079,-552.9088,-487.2740,-676.9319,-411.6978,-515.2778,-274.8037,-482.8687
-406.4040,-286.3754,-421.9545,-359.2987,-464.8520,-378.5067,-481.1083,-319.9851,-648.5042,-457.5094,-170.7654,-584.3957,-528.4612,-511.3705,-628.0394,-404.0211,-510.6106,-307.9930,-446.4977
-451.6563,-251.8831,-399.7902,-318.4685,-373.1696,-425.4016,-391.1101,-370.8997,-527.2992,-407.0035,-145.7731,-513.4577,-447.7870,-445.9590,-524.4677,-376.1592,-485.0187,-274.1572,-397.9119
-484.9781,-204.3281,-356.6792,-294.0551,-274.1211,-398.7832,-271.5638,-360.6599,-419.2707,-363.7481,-125.6613,-434.5896,-401.4348,-362.2582,-457.7751,-324.5612,-509.0429,-212.6154,-344.8428
-429.8933,-252.3439,-330.5624,-311.3156,-248.2113,-271.9290,-235.8947,-289.4913,-419.1987,-340.1541,-105.5539,-398.8787,-422.4948,-300.5163,-484.8063,-252.9121,-513.3103,-176.4838,-288.8133
-339.2846,-305.6889,-316.0004,-310.7547,-256.9292,-97.9216,-284.9065,-201.5567,-476.0706,-343.8971,-92.2706,-377.5294,-434.0711,-207.2829,-519.0377,-203.7393,-430.6523,-142.5007,-248.8640
-266.0027,-232.3832,-291.3307,-273.1732,-246.0885,42.2248,-314.2357,-133.8734,-515.9326,-345.0858,-81.8155,-342.7606,-411.8269,-102.8013,-481.2828,-189.5843,-318.8472,-78.1368,-239.5495
-199.1314,-141.5195,-247.7865,-217.4291,-235.2650,135.2021,-306.1472,-84.5165,-524.8860,-327.0922,-54.2350,-311.5102,-399.9594,-81.8555,-431.3874,-182.6116,-234.8451,-12.1783,-235.6985
-165.9648,-126.8644,-200.9146,-143.7850,-249.8256,190.6295,-303.7401,-44.1820,-498.4899,-314.5249,-12.4577,-300.6387,-387.4619,-127.3003,-412.7405,-170.7984,-166.0219,32.9592,-224.9510
-177.4875,-112.2738,-173.8082,-67.1258,-281.4628,175.9700,-297.9400,-42.8769,-451.8083,-319.1591,19.2576,-302.2154,-344.7116,-156.6457,-369.4596,-155.4786,-125.1670,55.8925,-250.6816
-173.3203,-94.9622,-162.9150,-30.3389,-321.2860,85.8674,-304.3932,-112.6443,-438.5588,-327.2784,28.3744,-308.9897,-308.4590,-179.9621,-312.7468,-141.8328,-136.5879,34.7815,-329.8968
-159.2190,-112.7565,-157.7308,-54.8638,-360.9817,-12.7123,-373.6045,-219.9771,-481.8268,-345.9819,18.0634,-323.8884,-316.5678,-231.9771,-321.7841,-141.3362,-164.0929,-18.2690,-396.1437
-194.2080,-97.4844,-176.1345,-135.6431,-391.1863,-84.2105,-454.4595,-307.3976,-544.0885,-390.3760,-7.3724,-354.3321,-352.1894,-294.3138,-371.2644,-142.8309,-191.2071,-50.8771,-399.1199
-243.8904,-56.2499,-221.6747,-241.9543,-408.0968,-156.4418,-448.6328,-363.5427,-578.9206,-417.3832,-39.8426,-400.5523,-377.3196,-352.8023,-377.1552,-136.4727,-253.8607,-56.6772,-378.9584
-265.0851,-75.3817,-251.5556,-300.0801,-392.3953,-206.4685,-366.7881,-386.0482,-569.1508,-364.0980,-55.7344,-424.3091,-354.4503,-377.0445,-330.9047,-153.9376,-320.6309,-52.7118,-376.2899
-288.5206,-86.0375,-239.4953,-276.6782,-334.8431,-187.4117,-283.3162,-362.9195,-534.4567,-284.2417,-37.0610,-379.5207,-293.2266,-318.3606,-269.0941,-193.8560,-314.5779,-33.4188,-365.6095
-283.8321,-8.1996,-208.1807,-251.5862,-280.3004,-162.9369,-240.8453,-334.1353,-503.2701,-302.4406,-8.8041,-306.8053,-275.2747,-232.1978,-238.5071,-179.9654,-253.6402,-26.8873,-330.0059
-197.2057,26.8871,-184.1435,-290.8508,-268.3386,-205.6936,-251.5010,-342.3409,-464.0067,-378.9587,-12.7587,-296.9390,-329.3473,-217.0204,-277.1917,-85.1395,-206.1780,-68.2611,-300.0613
-121.8423,-87.7131,-178.4509,-340.5276,-279.8157,-235.5858,-281.2094,-331.5837,-389.7524,-340.1558,-42.1619,-337.3293,-361.2579,-221.3179,-324.7768,-0.4326,-184.6087,-122.2103,-281.7995
-157.1000,-223.0792,-189.9057,-347.5444,-296.9228,-166.0150,-273.0148,-242.8031,-304.9625,-195.9173,-63.3898,-332.0145,-312.4501,-149.6187,-284.5958,-16.6371,-192.0138,-150.9422,-244.7349
-226.1484,-209.6546,-202.0001,-339.2806,-322.2886,-60.9223,-235.9927,-132.2272,-257.2987,-141.0898,-80.4668,-269.2834,-248.4899,-72.2626,-192.6503,-109.0466,-232.1138,-155.9744,-196.8274
-225.2748,-50.3977,-204.2927,-316.6638,-331.7545,13.4784,-217.2025,-59.6235,-243.5956,-222.2974,-96.9071,-220.7637,-222.1737,-93.5926,-139.5112,-168.6633,-235.8995,-119.6358,-178.3976
-162.1800,96.0435,-195.5433,-244.0384,-323.7752,77.1256,-235.9191,-1.0546,-236.8553,-311.4327,-79.7387,-215.7619,-218.4026,-161.5157,-132.0060,-132.4766,-151.2282,-65.4841,-193.8916
-84.5878,101.1938,-165.3503,-169.1189,-359.9055,101.7759,-316.2086,35.6786,-250.5891,-363.3358,-36.8001,-240.2156,-238.6065,-193.3315,-168.4295,-62.7719,-63.5428,-75.8363,-222.0831
-34.6634,40.2283,-123.6527,-177.4987,-439.4334,34.4189,-432.3401,-2.1971,-297.1229,-420.3815,-20.0282,-287.8796,-280.2459,-220.9194,-240.0794,-51.5579,-68.7703,-117.3179,-249.6057
-29.3797,46.4352,-106.3014,-243.6475,-448.5815,-62.9262,-449.1441,-77.8487,-323.8091,-463.8830,-24.0980,-336.4747,-293.9876,-283.0052,-252.3947,-93.5541,-129.0194,-78.6510,-249.3928
-30.6669,69.2671,-109.9058,-277.4780,-338.5366,-106.8646,-314.3518,-109.8322,-273.9899,-451.3343,-17.5599,-350.3497,-265.8032,-327.2581,-173.4093,-131.6687,-168.2465,-7.0992,-190.9658
-26.7095,38.3488,-110.2184,-272.2859,-214.2277,-127.3445,-160.5764,-112.8895,-176.2658,-391.7766,-30.3740,-327.9128,-234.4931,-316.6702,-111.6186,-146.9657,-190.7263,-16.5811,-99.4459
-59.6330,51.2615,-131.1636,-277.7336,-166.2025,-172.3430,-73.5664,-136.8342,-100.3157,-327.4854,-66.8503,-287.0717,-198.6823,-305.4041,-97.0627,-146.3022,-229.5424,-68.9945,-45.5164
-96.8789,128.7037,-168.7089,-280.3446,-149.3478,-212.9093,-15.7284,-165.3296,-66.3406,-312.6046,-49.3529,-231.4613,-136.2178,-318.4240,-53.6419,-143.4802,-258.0505,-91.1950,-60.5543
-60.8370,134.3650,-140.0915,-227.9001,-93.5803,-203.9545,-4.9686,-176.7858,-64.1002,-356.0920,26.4085,-166.1006,-84.8263,-281.6112,-2.6304,-141.1869,-205.6817,-93.8802,-101.6841
15.5162,94.6286,-33.6666,-135.1024,-20.2418,-136.5244,-71.1650,-186.3560,-99.9242,-398.8186,64.1244,-104.0391,-79.3561,-168.8484,3.0718,-93.4799,-64.0050,-77.6126,-120.1215
64.9361,154.0087,48.5866,-75.2757,10.7950,-45.7177,-133.9356,-196.0861,-160.7545,-435.7356,58.5330,-60.8909,-83.4237,-73.3996,11.8095,18.2227,56.2003,-72.7849,-135.5662
101.4474,229.3316,64.1334,-83.6046,-7.2609,5.1250,-145.2217,-193.4802,-189.2844,-510.6501,80.8033,-56.9207,-67.9328,-41.9838,34.7912,107.5126,60.8399,-159.7571,-176.7690
123.4353,173.8296,64.5899,-110.0228,-21.0897,23.1401,-137.8832,-151.8890,-138.8159,-529.2853,98.6757,-70.1264,-45.2980,-10.2941,29.5169,120.1949,31.6378,-246.2930,-170.8039
108.0544,107.3589,77.6905,-71.1179,25.5657,106.7322,-84.1727,-12.7727,-34.9112,-371.9619,65.8715,-28.9083,-3.7761,37.9199,51.5439,120.1571,98.9280,-142.0919,-44.9732
125.9280,175.3488,110.1542,36.6615,102.1099,266.0972,3.2071,206.5532,26.2724,-181.4921,74.5409,53.5255,52.1505,37.6926,124.4518,122.6213,213.5707,60.1509,86.4975
220.5836,251.1473,168.0729,100.5529,81.9798,356.4010,-26.1025,350.0981,-22.8811,-160.1996,169.6811,44.9287,39.1293,-22.2163,111.3923,62.5019,219.6015,116.5910,69.4398
263.1807,177.7851,186.2466,30.5977,-81.6427,289.9023,-179.5454,333.5291,-117.1776,-209.2216,208.3614,-96.7004,-72.8675,-95.9706,-24.3566,-21.3933,73.4363,67.2784,-21.1091
147.4891,21.0358,92.4393,-119.5797,-246.1594,151.9595,-248.2131,272.5244,-146.2163,-163.0640,122.1665,-249.0464,-164.4418,-166.3513,-108.4008,-30.8857,-157.5996,78.0468,-38.4371
-37.4619,-101.4983,-57.0625,-254.2690,-293.9667,29.9501,-199.4326,249.4685,-133.6402,-119.0690,55.2297,-343.7684,-153.7384,-234.4138,-71.4553,-3.7681,-414.3889,78.3443,-56.0313
-177.0587,-191.3125,-163.4014,-353.3214,-305.5102,-99.1064,-233.3729,179.8290,-175.7468,-172.6994,87.3739,-427.9483,-123.4109,-293.4837,-48.4279,-28.7577,-644.7493,-38.0104,-201.2975
-268.9548,-273.1101,-219.1445,-413.7161,-351.1663,-247.4682,-373.7660,31.7138,-255.7585,-192.7976,127.4651,-481.8984,-137.1317,-332.8095,-96.6733,-71.9199,-782.3476,-165.0238,-391.0483
-329.6896,-325.7553,-243.0831,-418.9895,-358.7506,-342.3319,-445.9129,-84.8045,-309.0194,-139.0583,145.2768,-443.6610,-138.1892,-324.2705,-124.6708,-70.6242,-817.2040,-207.8458,-496.8170
-351.9037,-350.3243,-222.2865,-396.1461,-326.5012,-330.7886,-435.0820,-111.1202,-361.0239,-172.2890,199.3442,-369.5984,-110.0970,-256.8698,-99.8879,-57.1169,-814.3519,-223.1293,-545.0806
-355.8966,-377.9357,-176.5081,-372.2177,-356.5380,-249.2321,-462.8609,-85.2466,-425.6429,-295.0798,260.7417,-334.1985,-119.6565,-179.3568,-95.5211,-62.7779,-817.9986,-238.1844,-590.3398
-365.0999,-414.0997,-148.1323,-335.5821,-427.8189,-157.2230,-516.5472,-25.6336,-442.0532,-336.8219,273.8358,-307.0490,-181.1010,-138.9546,-149.5379,-46.0007,-804.2507,-222.1439,-629.8676
-372.0097,-449.4678,-133.3103,-309.2989,-442.7961,-79.2034,-522.7783,45.6563,-429.5212,-299.3241,281.5281,-278.6946,-250.0618,-133.9001,-213.8355,1.3339,-758.5067,-191.2495,-683.8619
-372.9889,-480.0078,-113.1023,-312.2991,-421.4668,-20.5625,-527.7620,79.2839,-475.6063,-279.5367,311.0764,-284.1941,-298.6569,-151.8816,-236.4268,13.7570,-722.4843,-145.4672,-749.3469
-365.9390,-475.2150,-91.7105,-273.3735,-414.4306,19.1859,-573.2353,100.8411,-526.6351,-201.3224,317.5222,-264.1283,-298.5526,-161.8360,-219.3409,-15.6134,-711.4908,-48.6217,-746.9471
-321.6783,-406.4783,-62.9890,-172.1354,-411.0603,47.0100,-583.6556,169.9138,-452.9787,-13.4627,309.4749,-166.5247,-241.2244,-119.1936,-186.1731,-3.3331,-672.6857,50.0294,-659.5173
-234.4673,-320.6208,-23.6029,-127.1497,-429.1281,54.4014,-519.6273,235.0941,-295.5795,122.8189,322.3235,-98.0781,-182.5860,-63.5024,-141.0657,60.2835,-590.8177,75.8484,-564.0938
-159.6576,-286.5667,-8.3281,-183.7626,-454.9862,19.5225,-428.5711,223.0515,-175.4653,131.1438,310.4900,-136.2771,-145.6469,-82.9407,-74.5339,81.7119,-532.2789,76.9411,-459.4579
-145.6957,-290.1996,-37.2620,-239.2860,-375.9218,-51.6490,-294.8750,191.2780,-61.2899,140.4363,243.3870,-188.1514,-71.3498,-150.1787,20.4144,51.2222,-529.1491,119.5006,-281.0678
-179.5767,-272.1071,-71.9476,-244.6189,-181.6306,-123.0236,-83.3260,210.7475,105.4069,177.2175,187.7722,-179.9608,48.2615,-157.4879,136.3120,60.1737,-527.9584,159.1941,-85.1808
-215.5241,-220.3484,-69.3890,-232.1957,-11.3039,-170.7227,103.2432,234.0884,225.4597,147.1320,191.3967,-136.3795,141.9358,-84.4517,236.8092,113.8727,-482.3720,148.4584,14.3395
-214.8505,-168.3191,-33.1841,-198.9180,83.7664,-190.3776,150.8725,215.2827,234.7433,105.6213,225.2282,-56.9231,180.7281,9.1950,281.3129,137.8788,-402.3048,100.8059,36.9776
-176.3657,-153.1411,0.6450,-153.9265,136.3432,-168.7217,113.8216,197.8668,263.5956,175.0910,250.1941,50.5021,179.0117,78.8252,268.4922,138.1627,-319.4947,11.7123,65.0676
-148.1046,-189.8698,-2.8762,-142.6042,100.6774,-97.7213,78.0119,212.1004,392.2866,316.6522,230.5050,112.3229,135.3457,101.8054,219.6278,170.9034,-264.5219,-112.3699,90.4086
-161.9449,-244.3918,-39.5971,-144.9906,-28.3008,-14.0404,31.5563,235.5507,503.8372,422.8722,159.3765,119.5522,76.8701,83.0455,158.6541,232.3984,-231.3610,-195.9742,89.4900
-172.1888,-247.9513,-56.7566,-106.3404,-116.5696,40.3746,-7.1267,264.3723,520.2568,455.5411,109.8897,151.5107,58.5316,77.8614,134.1834,297.9910,-166.2068,-188.3143,105.0594
-130.1665,-165.7300,-23.2171,-27.4266,-88.7044,93.6730,23.2569,304.5024,500.1496,418.4675,135.7555,233.3576,84.3279,136.0816,173.2758,363.6270,-60.5574,-118.4012,135.3260
-64.7939,-39.2847,25.2864,72.0024,-12.7979,188.1669,70.8251,325.1667,463.7202,353.3843,180.7916,328.7897,130.4663,222.6048,224.4995,409.5230,15.7814,-32.6326,112.8679
-21.8656,46.9756,56.9892,161.5821,37.1469,259.3476,45.2752,292.3258,398.7597,297.0134,194.3849,399.3710,198.5800,231.2667,247.8233,412.5695,31.9180,14.8813,53.5447
-7.6855,57.1263,80.7967,178.6521,30.7510,208.0847,-2.8062,205.3045,368.3135,208.1221,195.1622,388.3834,275.9591,111.7170,286.7655,367.8226,26.7970,-13.9718,41.5312
-21.7016,42.2073,79.5314,116.5882,-20.0764,73.0264,27.3553,96.4117,399.6633,97.2758,173.1357,289.9281,327.6400,-31.8019,359.9906,275.8857,7.0243,-58.5811,70.3836
-54.2110,35.5221,19.5918,40.0913,-41.7032,-35.4645,127.2265,26.8482,429.8321,94.8697,104.1740,208.4428,347.5763,-70.9940,407.9096,182.1445,-44.6716,-36.0059,76.8476
-71.0798,-5.8356,-58.5169,-20.2248,10.4083,-111.3523,228.0658,23.4716,451.6226,210.8842,40.9047,205.0557,357.1078,-49.3429,412.8847,175.5881,-85.7061,19.9464,69.5231
-66.3907,-69.6693,-81.0970,-58.7877,93.7613,-190.5512,287.1469,21.1365,486.8378,284.1261,35.5651,211.0304,375.3151,-74.6275,424.8989,258.2763,-72.4647,42.0953,76.2849
-68.8111,-59.8320,-58.2689,-59.9006,171.8230,-230.4643,291.2194,-27.8250,466.1561,268.7747,48.6086,190.9157,404.1464,-101.1199,451.6490,316.8716,-41.7721,48.0770,77.2671
-79.0479,19.1264,-51.4271,-57.5679,234.4528,-199.5969,271.7430,-43.2862,372.1990,265.7928,24.6498,206.1998,419.6699,-30.8927,461.3878,302.8365,-39.2656,67.5409,85.8563
-83.5523,55.3455,-74.2348,-85.0062,247.9130,-140.3281,281.1253,46.5237,332.9014,299.1602,-35.7011,272.8347,406.5580,92.8074,456.8521,305.8108,-45.6847,86.0910,150.7059
-85.7868,33.6261,-99.2308,-93.0070,217.0428,-68.2881,313.0598,161.5687,404.3720,331.3818,-88.6991,329.8071,389.6975,170.6249,451.4147,374.0860,-21.9915,90.4189,244.9548
-63.0406,29.5971,-96.3186,-63.2141,200.4428,29.5660,325.6964,203.0839,492.4565,370.3120,-78.7707,345.3796,383.2727,181.5931,441.4104,418.0381,31.7866,66.0699,293.4152
9.4955,57.6895,-50.9364,-48.8558,199.5745,109.8500,320.3834,194.1312,539.0685,401.5009,-15.4954,344.5427,366.5210,154.2263,434.7670,383.9701,80.5913,8.1749,281.7830
94.1927,107.3240,5.6035,-25.2993,169.0224,133.4237,307.8934,179.5709,556.6056,381.7474,12.3499,364.1401,340.8469,139.1784,432.6305,360.9400,107.2780,-36.7932,240.7775
156.5603,196.9219,30.9655,72.0937,110.8077,136.6481,261.7138,145.5286,533.2941,327.0641,-21.1469,419.5114,322.0313,187.2922,406.1714,402.1545,147.7323,-41.7272,189.6685
212.9915,284.7764,46.8624,189.7946,50.0265,155.2982,181.3382,99.6035,475.6169,284.7958,-38.2571,487.4370,299.4494,271.0049,357.8361,421.9669,233.7326,-47.9573,147.8029
258.5804,295.5685,94.2498,245.7653,12.1603,173.3646,128.0575,77.6069,441.3873,277.9651,-7.8736,526.9928,284.2185,309.3450,344.6517,383.0059,326.7345,-63.8785,138.1252
289.6379,256.1589,154.6301,252.1804,48.2103,160.0363,146.7014,61.1616,455.7664,296.2843,29.5255,522.2928,317.0052,277.3834,394.1916,363.0091,374.1595,-44.2104,165.7030
357.0251,250.9337,202.5923,238.4279,168.4633,97.0595,220.2869,10.9775,493.5925,284.2227,69.6771,495.7738,393.6942,213.6191,471.6501,364.3716,381.0324,15.1912,217.0285
444.7156,284.8961,246.3238,215.2858,310.2444,11.4673,319.0873,-55.0691,533.6283,225.0465,111.3422,486.7224,476.4751,171.3706,541.4284,316.8171,369.5954,88.2013,266.5983
465.3794,313.1062,277.3820,207.7378,437.7695,-29.9861,425.5284,-98.6996,572.0540,209.4285,123.5811,503.8471,547.0038,187.0730,593.4194,259.6801,353.0044,160.2883,303.8151
482.5851,348.6485,303.4395,205.9339,552.3580,-15.3749,509.2911,-113.1683,613.4607,270.0259,153.3613,506.2275,587.3118,239.9887,621.1083,267.6510,360.5310,197.4524,350.8008
636.5186,437.5897,381.2707,176.5664,603.4894,6.0620,530.0521,-99.5242,638.6187,293.8895,270.6080,477.0154,582.7558,289.3182,614.0607,303.9956,384.7913,182.9889,396.5956
832.2043,550.4282,495.5665,142.0109,540.7600,33.2740,470.3471,-56.5768,594.8033,240.9499,395.0056,472.6070,549.5580,348.6563,564.5171,334.2170,365.0872,159.4337,376.4477
871.6922,594.9316,541.5143,136.1053,419.2033,94.2730,357.5523,-4.7995,484.6381,206.3016,410.7849,523.4513,498.1043,416.2515,488.0645,385.6478,316.0577,145.5345,292.4092
798.1709,553.6271,507.0956,154.1977,333.7036,150.0248,253.8553,21.2454,395.4806,201.9671,366.9099,563.9503,435.4453,419.3116,433.9368,412.9049,339.8549,114.9155,234.5238
757.3962,502.2848,482.9304,199.5602,297.9197,147.3749,199.4932,4.0270,382.3680,161.8382,352.5968,539.6966,402.8997,345.1864,424.7370,345.8784,440.8098,69.1826,228.2931
726.3156,477.8786,480.3834,261.3071,253.5027,91.5424,165.9521,-38.0361,423.2711,128.1092,335.7626,495.0828,399.0316,279.7341,408.0683,247.3475,497.3457,9.8873,214.2404
657.5035,470.7298,445.8311,292.7361,164.3232,8.5336,115.1115,-63.1393,477.5077,176.1456,282.4881,498.7018,357.3021,264.1898,345.8223,222.5087,457.2205,-79.3467,179.3637
626.2078,506.5670,402.1757,296.7958,63.0239,-70.2615,71.0751,-58.5593,485.5809,249.3516,248.1493,545.6301,290.0229,272.0034,286.4087,265.3102,394.8638,-159.3350,151.1369
666.2875,567.5491,402.0946,308.6659,1.4365,-115.9091,52.4271,-66.8738,405.4055,241.1122,268.2668,566.3190,277.7727,278.2483,266.3044,294.8287,375.8777,-186.9031,117.4760
713.3461,557.5656,436.9214,310.7287,0.9591,-150.0013,22.5616,-122.1071,301.7576,147.5170,317.0348,525.4540,307.6972,245.3999,259.3110,251.9988,396.4580,-192.7518,77.8352
740.6049,480.5173,483.4937,303.8907,72.6762,-192.6839,-2.8403,-186.5653,258.4762,64.0350,366.3105,481.4073,331.8773,163.6118,277.8251,163.5219,423.0387,-180.2098,77.6296
754.5414,439.5223,526.4388,329.3524,207.3545,-195.8018,54.0335,-197.8497,258.5551,81.5127,392.2623,488.3904,389.7805,110.4841,362.3975,125.5032,412.4717,-111.2592,131.7998
730.4971,415.0407,529.5521,336.4606,334.5464,-146.6934,177.4577,-149.8702,289.0319,197.2196,386.2717,491.4241,489.9841,133.9976,462.4614,160.6791,333.3056,-45.8035,209.8624
670.3267,319.1115,486.9243,240.0286,392.2113,-117.8834,272.1046,-85.2432,384.4031,328.0996,379.2349,428.4769,549.7086,181.6847,500.3424,188.9068,203.7185,-64.9398,278.2113
622.7208,211.4373,452.3851,100.9437,407.5350,-121.6401,318.3614,-32.1945,479.4543,404.4250,393.5385,353.2960,554.3233,228.6329,502.4088,194.2164,90.5863,-105.5518,299.5156
613.7828,191.5662,456.4455,42.5172,419.2275,-86.3683,336.4273,12.6433,466.0100,412.8941,414.5503,339.3142,561.1111,296.0395,512.8063,225.6091,60.6983,-75.6379,267.7820
635.7050,226.0623,476.2132,87.7593,418.0703,3.3789,306.9565,50.2044,392.7351,381.4352,442.0075,380.8990,556.3835,355.7921,495.9447,244.5651,128.2918,7.1725,243.7612
677.3688,270.2825,510.1652,205.6816,419.7823,100.7952,260.4212,63.5426,367.6957,355.3208,488.9999,461.4051,510.6998,384.3131,438.6130,203.7244,248.5389,94.6038,257.2096
722.9562,345.0405,580.1883,355.7939,445.4669,164.4685,252.9814,40.1311,362.0994,335.1762,532.7116,567.6584,472.4564,401.7088,394.1376,170.9531,366.2261,148.2565,243.9807
755.6330,412.5031,653.2034,456.8113,438.1381,152.7570,229.2356,-10.1502,305.1788,268.9242,544.5882,630.2736,470.0838,390.7715,379.8100,187.9950,450.0419,121.0201,174.0210
764.5557,401.6744,662.5894,459.2053,355.8437,68.2681,138.6978,-59.8656,225.1321,167.3219,529.7504,600.6519,458.8383,343.0637,370.3970,189.1312,478.6612,31.0437,111.3045
744.5668,352.5776,615.7233,411.9531,264.3827,-11.4417,68.1956,-86.9782,179.7080,123.3747,500.8137,539.5896,416.3761,321.7787,360.2451,156.4099,456.7285,-42.3520,78.2577
716.9548,359.6283,589.4570,396.9693,219.4529,-46.0828,55.2874,-102.1225,180.7564,160.1745,475.4146,519.0190,370.9293,336.2513,339.2781,148.9821,441.9149,-63.9527,24.1839
711.4305,419.1400,604.6034,451.0647,193.1996,-67.4615,18.2131,-131.2159,215.1078,189.7216,477.9745,522.2511,348.0831,322.5479,298.3897,161.3167,471.2386,-43.3902,-39.2221
709.9490,442.6394,603.4308,519.4828,179.8082,-81.0875,-11.9830,-164.6830,262.4480,155.1141,488.9743,502.3635,361.5365,289.1777,287.2711,126.3902,488.3374,-12.1267,-32.6441
674.2960,373.4561,563.1104,480.1340,219.2183,-86.5047,80.0057,-171.7426,311.2506,102.1872,455.9274,444.5570,407.9231,272.2912,344.0736,52.1321,426.7793,-33.5484,55.8540
604.0940,236.3246,510.8227,307.5579,299.6235,-117.1420,228.4491,-153.5824,357.8097,93.3907,382.1052,358.2303,455.5560,246.3820,406.9804,41.2539,310.4526,-100.2457,158.9109
508.2288,100.2084,438.8927,135.6031,366.9354,-136.3505,287.6012,-116.5069,374.0208,114.6773,326.7886,280.2479,488.1256,242.1647,421.0925,144.5558,201.7759,-100.2179,232.5967
391.6209,19.5858,342.7313,64.6310,410.7927,-66.9975,290.6696,-42.9412,339.5854,103.1738,319.4993,259.6419,525.9564,325.1139,437.0771,252.3688,124.0794,-2.3868,280.3859
303.8219,7.1219,294.9672,68.1957,457.8069,42.3974,336.3323,43.8611,299.6042,60.3946,345.0305,301.0229,576.7695,414.8640,501.1553,233.1633,95.2630,100.4808,314.1546
303.1450,36.6423,345.2619,123.3332,513.4200,95.3990,399.4351,83.3998,305.3561,58.6357,382.4164,360.5983,616.0521,407.6754,562.0835,134.1503,151.4380,161.4357,345.9200
367.7812,69.8391,423.9182,221.8599,547.8584,106.6271,418.9691,81.6417,338.0463,108.6564,404.5179,399.9731,618.9769,368.5029,555.8864,85.4249,274.1628,182.9836,374.7907
424.9451,101.3427,449.6221,295.5472,526.0721,101.7349,393.5210,83.7078,361.2225,140.5599,383.0145,410.7694,578.8007,361.2990,490.8453,94.8052,369.6058,138.7580,372.9105
438.1425,147.5066,427.3771,308.4512,451.5187,46.8927,341.1046,76.8163,372.2113,128.5547,325.6146,403.5789,510.3888,329.9438,416.2580,108.0206,377.8758,57.2880,330.2548
422.6343,186.5891,391.9796,311.7534,372.7284,-19.6264,284.7912,52.9888,359.7519,107.9291,279.9075,394.4803,448.0023,280.9914,366.3565,123.8815,348.3132,23.2063,285.5829
416.1046,182.1371,371.1290,323.9086,329.1200,-18.9071,242.5452,56.9195,305.6356,101.2012,282.9808,387.2417,413.9983,286.6169,340.9843,129.2950,354.1137,34.1754,265.2146
431.8187,146.7930,389.4799,313.4695,309.7184,8.5809,200.8181,71.5216,245.4778,112.7123,312.2672,371.8786,392.7961,309.6585,315.9146,91.2295,382.5060,28.3760,243.2291
431.7362,109.1754,419.4491,292.8739,288.9262,-9.9168,166.9092,28.8751,235.8701,126.4406,310.4240,349.8435,364.8077,288.9362,281.6880,41.1848,370.7560,4.2984,207.0930
382.5269,69.6213,394.3694,286.8471,272.5516,-32.3463,181.2286,-31.3805,257.2948,107.4182,263.1591,334.5981,347.2162,274.4147,261.4192,28.7130,307.7604,-9.4230,193.5891
303.9464,33.7980,313.8751,282.8765,282.1753,6.4043,226.7597,-15.8998,245.5238,77.7452,212.6000,331.7578,367.6376,318.5645,274.8360,49.0597,243.8029,4.4156,226.9563
230.9194,18.7006,248.9485,283.3764,325.2842,93.5670,259.0408,49.4290,218.7700,96.4639,193.9066,347.5747,415.6905,399.0938,311.0526,75.7477,222.6803,63.4571,287.0738
192.3081,24.3933,241.7094,293.9651,388.2388,186.5783,302.3170,77.2306,243.9391,125.3639,210.9469,380.7978,450.6475,464.1028,343.1951,73.2887,235.1217,141.8373,340.6261
218.9151,55.4210,278.6942,281.5614,428.6302,251.3692,360.0993,59.6423,279.0669,78.9534,264.4090,392.0140,451.8403,441.9797,351.3170,21.0254,244.9688,189.0326,359.5249
297.2910,119.8791,332.6988,252.8080,400.1380,277.4790,350.6329,44.1693,226.0946,-6.8991,343.9893,355.7755,435.4215,327.1830,334.8463,-23.4434,253.3570,218.5904,340.3791
363.8074,191.1914,379.6749,273.7297,318.8920,292.1720,267.5160,62.2809,126.2015,-29.5244,410.4409,327.6693,416.2729,250.5773,304.5514,-9.0006,295.1445,251.4317,319.2427
389.9541,237.6685,408.6595,340.4248,249.2612,294.6151,211.1319,106.5186,92.8137,21.1099,427.7447,350.6380,379.1300,274.7226,256.3244,5.6489,360.2398,237.7781,316.4621
392.9629,257.3926,419.5569,372.5979,198.5358,233.2306,189.5443,132.3119,104.7601,86.7601,390.4894,359.7090,306.2263,275.0627,180.0532,-17.9729,393.3923,159.0546,295.6207
377.3498,256.5014,400.6281,356.8705,122.7678,119.2554,132.6547,121.6843,90.4360,143.5140,321.3040,310.5635,220.9675,202.6676,107.6216,-12.6300,390.8053,83.3501,238.2401
351.9544,258.6587,353.1962,350.2239,38.0482,39.2464,83.9998,113.4912,94.8573,198.3725,261.0440,274.9781,171.4362,171.1286,88.5121,34.1886,401.3909,54.0550,190.3860
344.7406,300.0956,322.6307,369.3916,-3.6575,22.8719,113.7116,113.7329,152.8837,234.4589,234.0566,291.2893,170.0088,189.0651,105.4111,35.7192,438.0507,57.8001,182.1882
361.9065,361.0250,341.4925,398.7131,-8.1159,41.0524,150.2117,89.0804,183.1181,220.3060,231.8775,304.9702,188.1043,172.5325,106.6781,-24.5822,478.1015,83.5599,190.7078
391.6978,382.6880,374.1021,432.6046,9.0749,88.5813,125.8706,68.4200,153.1588,172.1584,247.3820,311.6074,203.7850,174.8119,106.5217,-61.7635,496.4049,100.8056,198.0692
410.1160,351.2036,368.9449,430.2744,64.3908,140.5359,111.3453,83.9487,130.3697,135.7509,269.3978,339.8878,215.6116,249.1793,142.9029,-26.1302,449.1591,61.3235,197.9859
367.5985,281.5964,325.1012,344.8341,130.4512,139.1103,159.7775,72.3940,125.5557,100.8028,254.5018,333.9081,225.4013,281.2059,186.2811,34.6337,329.7483,-6.7474,173.6907
266.0651,195.3781,275.5233,239.2841,158.7223,105.7061,220.5966,6.8184,102.8993,54.9000,193.7706,264.0518,234.7371,224.9951,197.0681,36.4227,232.5375,-8.6782,136.5117
195.4173,151.5500,244.9592,230.5559,178.5346,123.5621,254.6785,-20.6064,92.0172,70.0253,157.7539,213.6798,244.0000,198.1997,198.0354,-24.7996,233.7669,82.9023,128.5839
196.1992,173.4630,237.3333,302.8885,226.0891,184.9586,261.2879,24.5043,119.7877,156.7668,181.1369,205.3275,250.4227,209.7506,212.0875,-51.8567,276.0674,192.9935,155.3051
215.7357,195.0563,242.8749,333.6606,254.0668,202.2360,239.1585,59.6638,149.9168,192.2165,206.5873,166.3678,257.1425,152.3262,222.4440,-14.1384,288.4730,254.4172,180.9363
234.7762,190.9017,255.1521,296.6931,228.9128,152.0108,215.5082,51.4114,170.6165,164.1381,205.0681,116.1333,262.4770,57.2176,219.6026,-12.8499,297.0727,271.4823,181.9199
257.1888,205.9302,267.3300,271.3091,182.7115,79.8069,199.9745,32.0409,188.0137,191.4483,202.5499,124.3453,245.9875,20.9232,198.3513,-76.4816,326.1982,252.9337,150.1613
239.3733,221.0665,256.0081,276.9976,125.1904,4.1854,138.8232,-8.5448,158.4502,230.2613,183.9464,144.4243,206.1476,3.5472,151.5210,-95.0627,336.3568,178.8255,88.6881
186.0282,204.5340,210.8299,270.5913,52.9755,-77.3533,46.3930,-70.6077,78.3997,162.0788,124.4225,117.5311,174.9044,-48.2316,115.5425,-38.7472,310.8782,82.7990,32.4422
160.8848,224.6207,166.5557,264.1968,7.7060,-128.5382,26.2551,-92.0991,34.1097,83.7078,64.7751,95.1354,160.3591,-72.3461,122.9764,-5.9354,282.1494,45.8219,16.2308
152.0903,300.0253,155.1747,278.7744,8.9721,-118.9450,66.8484,-65.5099,50.8449,98.9736,43.6558,110.5387,139.6285,-30.4689,123.8260,-26.4750,252.6054,49.9429,22.1481
115.1306,302.7075,148.2471,238.8833,12.8966,-105.6665,48.1815,-69.2447,47.5632,94.0943,37.2096,110.6128,107.9745,24.3965,72.1972,-30.4235,171.3490,-13.2360,5.1486
67.6300,167.3431,96.4593,82.4166,-12.1705,-160.6944,-30.9751,-128.7281,3.5764,21.9720,13.3043,70.5424,70.5202,60.1253,15.3766,9.5604,23.1454,-151.4364,-39.4144
7.4166,-0.0393,2.9124,-87.6858,-56.8519,-229.5888,-76.9529,-177.0755,-7.3727,0.7325,-37.8376,23.4993,28.2217,79.7731,-5.7092,49.3018,-102.1675,-249.8779,-65.0756
-76.8969,-86.9986,-80.0457,-119.0727,-102.9392,-195.6139,-83.8862,-160.1148,22.3278,27.3314,-104.4158,0.9898,3.4387,67.6526,-22.2367,47.8843,-107.9736,-235.7700,-36.8055
-107.2094,-78.6226,-105.6057,-15.2511,-124.1433,-66.1507,-91.4330,-82.1041,23.0177,35.2287,-136.0459,21.6516,7.0206,42.5248,-44.5161,20.5990,-37.0366,-139.1449,16.7430
-51.2267,-21.7743,-73.2091,95.6512,-106.2218,48.7836,-85.1109,25.3268,7.3777,98.8024,-104.2317,69.1255,4.1724,71.2253,-42.5002,31.0463,2.3123,-40.2217,47.4786
-12.2253,17.0366,-29.6218,132.3035,-75.9990,104.6897,-57.2106,114.4789,58.4971,219.9594,-65.7789,88.9136,-15.9904,150.5225,-23.1961,103.4833,10.8621,-1.7626,56.3562
-25.8398,19.8527,-18.2778,121.4739,-62.3101,133.8490,-39.5144,149.7526,152.6630,247.4200,-73.9705,70.1620,-24.1392,186.6286,-18.2806,175.1395,39.5284,11.5627,57.2920
-22.4384,45.7704,-27.9410,140.4850,-63.3084,151.0656,-45.2323,157.1898,183.7466,196.4231,-98.4308,58.0004,-27.2970,139.2647,-29.6317,188.8991,61.3100,86.3576,36.0544
-2.5604,126.8778,-16.4082,224.7940,-65.4778,152.8201,-54.1309,181.4686,163.6463,211.4192,-94.3921,64.1770,-33.0850,71.6926,-34.2231,156.2414,64.0081,192.8824,14.6725
12.8763,193.1837,23.3165,308.1912,-57.1541,142.4352,-41.2983,195.4836,182.6968,230.0748,-57.2437,64.4531,-1.0628,32.8035,-9.5945,103.5438,98.2560,216.0433,37.5367
55.3501,164.4784,54.9922,296.0569,-50.2755,111.5395,-17.8951,146.4126,204.7796,130.1492,-1.8722,63.1680,53.1902,15.9146,32.6144,63.7945,133.1659,143.9106,58.0323
79.5954,69.0655,52.7496,195.4535,-79.2947,52.2640,-30.5811,66.8868,155.0496,27.9877,31.0811,77.0363,58.7435,42.7574,46.1154,88.7139,85.4229,45.8762,14.5147
22.9461,14.6927,26.9812,87.3936,-118.8446,-18.1095,-63.7466,21.4104,117.7710,59.3926,2.0101,102.7983,46.1896,144.7470,33.6199,161.9625,-1.0847,-47.9602,-20.4102
-24.4960,51.3304,3.7999,15.5852,-73.9432,-60.7423,-29.9397,-4.4702,173.4798,129.2101,-45.0007,142.3662,96.5159,268.9554,60.0754,201.2035,-24.1699,-98.8516,26.6789
32.0196,137.9618,13.2823,0.0676,69.4289,-28.4894,62.6492,-34.8568,200.8698,122.9345,-20.5338,199.8326,168.4507,338.2044,121.2237,206.9688,11.7861,-48.3065,72.2595
167.3755,284.0467,89.3243,75.9215,197.8421,80.8134,100.5676,-22.2505,95.9922,87.3087,88.9669,254.2056,182.5763,359.8294,134.6884,240.0386,65.6507,76.6656,41.6546
407.5728,592.3106,246.3730,235.9512,241.0601,194.5199,72.6265,48.9724,-31.8487,79.7776,235.0494,288.6129,164.5080,367.5348,99.1537,263.5725,148.1330,208.5647,1.0733
805.8591,1058.9120,454.2661,414.4276,249.8960,264.8474,67.9340,115.1290,-69.3834,80.6678,390.9057,318.8210,157.8779,348.9018,88.7251,220.6370,258.8119,335.1327,6.4935
1240.7025,1483.3369,666.2677,549.5530,266.2806,321.2028,91.0744,156.6552,-45.4626,88.1584,552.5477,355.0066,153.8891,303.0872,107.9713,179.9828,378.7539,423.6037,38.6264
1532.0336,1685.2987,872.0571,612.8442,261.9107,349.7456,90.9939,204.3494,6.2918,120.1216,718.7993,371.1903,159.6803,256.5247,119.1583,194.5836,502.8595,412.3256,88.9068
1638.2711,1682.9559,1081.5587,625.8143,231.5250,292.3802,73.2764,231.4594,75.1597,151.8316,884.5059,346.0705,187.7910,211.9240,133.2941,183.8872,598.2191,358.2888,126.3489
1603.6669,1608.0526,1258.2708,652.5205,220.4479,214.5928,48.8576,219.4389,106.3005,177.9375,1008.7402,304.5771,208.5475,176.3693,149.8100,126.4841,634.3807,390.3652,102.6673
1508.3601,1549.3943,1327.7593,700.4366,232.6743,240.2417,12.5807,245.5212,93.0431,247.3921,1033.9114,282.4483,197.6488,164.9099,126.1293,122.2871,646.9063,496.7054,80.9186
1445.2180,1506.5654,1272.3956,700.8351,222.6384,326.8320,1.5307,334.6650,100.4955,334.5478,965.9641,277.3814,163.7106,135.0735,75.6788,156.7168,654.6747,544.4716,147.6392
1409.1075,1452.2531,1159.8811,641.2981,202.1304,340.1491,44.4770,371.8374,121.1811,310.0038,862.2163,275.6329,125.8643,63.9122,62.2022,105.5878,613.9119,479.8257,230.3610
1348.8381,1395.1687,1050.7522,580.2612,237.1185,279.9317,110.1001,300.0479,96.3489,145.8011,749.2111,296.3263,123.1688,57.7298,92.3769,7.0446,539.1683,375.1485,241.1412
1298.5862,1348.0742,949.4879,542.8066,328.5144,249.1891,178.4266,229.5437,56.4739,4.9110,640.1105,363.6010,188.4807,200.1351,139.3139,18.8080,513.8250,315.1651,254.0226
1271.8856,1294.4594,865.2123,540.4836,420.1101,290.4617,260.0636,251.8091,64.5475,23.3020,573.5498,453.1318,285.2497,379.2991,210.9785,138.3271,546.7118,299.2877,334.1238
1212.9143,1242.2498,818.9550,580.9891,495.5392,340.3433,340.7929,310.1605,115.0831,135.0660,546.5608,503.4164,344.2988,439.2292,291.7693,227.4767,571.8459,256.8894,405.9086
1153.2981,1216.9630,778.7991,585.5427,545.5190,299.4307,396.0202,317.6759,183.1089,199.1915,494.3507,484.9351,346.7262,386.0644,318.8864,233.2405,561.8866,162.5992,410.6103
1141.4701,1189.6759,700.3778,499.4649,522.9792,170.1550,409.2814,274.4793,242.7588,186.8260,401.6217,443.1516,314.2188,325.0861,285.7559,203.3943,538.2077,87.1513,374.8341
1102.1771,1133.2605,619.1110,439.6337,438.7208,87.4958,357.7850,225.2232,248.3461,158.6071,332.5168,439.9532,262.7523,305.6873,247.2585,180.5969,533.5288,88.9452,313.5959
1019.8105,1082.4767,583.9772,491.1052,377.0278,110.7449,255.4091,181.2782,202.5976,127.6887,308.0420,451.5579,198.3785,288.7583,201.0685,167.0790,573.5991,136.9106,237.9822
992.9832,1046.4703,555.7845,538.6401,362.8036,127.1255,166.5911,124.0843,152.9222,55.1573,271.3100,399.4519,138.3880,213.2378,117.9233,132.3587,637.6140,187.0428,190.3042
986.2559,1002.1975,486.0719,498.8481,347.1544,77.5141,126.6642,55.0384,98.2256,-32.4455,195.8546,285.2596,118.8330,89.8312,64.2502,66.2735,661.2071,227.0304,174.6455
881.4557,960.1962,392.5511,430.8820,291.3047,42.6292,108.8177,1.8914,30.1304,-61.3941,106.3628,184.3862,141.9390,1.5435,101.8585,20.2893,595.7526,218.0734,144.3392
706.6433,861.0013,277.1452,335.2716,166.8817,38.5071,69.4920,-26.4200,-5.3350,-52.5839,3.9191,116.4606,138.7379,-21.2792,134.1855,20.4486,434.8727,121.3800,84.8642
503.8478,563.7727,111.7242,170.9082,-13.7499,-1.5891,-5.0838,-48.8799,-5.9657,-73.3908,-119.3171,42.0376,64.5912,-41.1791,59.9533,10.5418,223.6287,-3.2739,36.4665
213.4944,103.1056,-73.1666,12.4136,-140.5246,-58.5601,-59.3787,-68.1076,-30.3835,-85.4257,-235.0499,-39.1004,-17.2853,-92.8946,-31.6531,-31.4801,49.5283,-54.5083,41.3419
-133.1098,-302.7884,-231.3508,-83.3826,-129.8023,-80.8629,-14.2974,-66.5706,-66.6721,-47.8666,-328.9947,-90.9137,-33.3544,-133.8063,-20.2310,-45.8338,-53.7532,-49.1760,89.8145
-419.5285,-575.6997,-381.0656,-184.1838,-54.3254,-106.3876,94.7812,-55.0469,-67.8436,-54.9412,-423.0150,-113.3937,-0.2578,-136.6782,41.0545,-21.8316,-148.1904,-92.5114,117.1902
-631.6945,-798.4454,-520.9368,-295.1012,-14.9597,-163.0671,147.2986,-68.4404,-72.2890,-148.6527,-502.8842,-138.5886,34.2396,-125.4559,58.4796,-19.1353,-253.7728,-184.2763,91.3637
-788.7673,-967.2723,-589.1818,-319.0618,-5.2892,-192.3476,135.2187,-96.9036,-103.1031,-194.7873,-522.9493,-167.5656,55.8638,-112.1285,58.7997,-30.6876,-290.3039,-208.3120,73.1751
-862.6187,-1027.4312,-583.5880,-251.7745,4.8038,-158.8946,149.9756,-81.4961,-75.4860,-128.1515,-491.1181,-158.9133,64.8201,-75.6412,80.0198,8.0920,-229.6589,-135.7662,117.5230
-881.8420,-1025.7770,-566.6910,-185.8295,-0.9234,-107.8292,191.1980,-12.7363,39.7869,-61.4314,-458.1645,-106.2713,59.7184,-14.6195,79.1998,71.4413,-154.3678,-74.9523,175.1987
-906.6750,-1032.6937,-558.2623,-165.3441,-35.8891,-93.4982,176.9142,27.2889,121.7706,-58.7426,-458.5413,-84.7018,30.0646,17.5422,27.9688,68.4724,-132.7270,-90.6876,161.4084
-945.6332,-1061.0024,-566.7146,-179.9882,-96.7827,-121.0182,87.0438,-23.8597,79.8831,-72.8525,-503.7247,-146.3088,-34.0609,-29.0040,-41.4395,11.1723,-164.9768,-130.0235,62.2877
-1009.7648,-1104.8512,-624.9708,-216.8904,-174.1953,-155.3068,-31.6455,-115.0323,-17.3646,-89.3441,-563.5261,-232.1639,-101.0698,-113.9775,-101.8153,-5.7306,-231.3241,-146.9922,-59.8642
-1083.1505,-1136.5844,-695.5243,-270.2676,-239.2235,-185.3175,-126.4371,-167.1687,-62.4691,-108.7828,-577.0841,-281.0248,-129.7460,-154.4657,-146.8029,12.9857,-305.7347,-162.6852,-130.0379
-1082.6876,-1136.6705,-702.7849,-358.2844,-271.1915,-248.2999,-160.0592,-181.0038,-43.7056,-92.3908,-551.7363,-320.8548,-139.9442,-155.3870,-164.7706,-14.6948,-374.1672,-196.4000,-124.0711
-1034.4730,-1167.8295,-686.2073,-495.8695,-284.4651,-337.5845,-141.2568,-179.1850,-10.4327,-48.0541,-562.4839,-372.8460,-165.1518,-177.2901,-154.5703,-64.2832,-464.1118,-237.4106,-72.2475
-1081.7467,-1274.4711,-732.3801,-631.2814,-287.1105,-367.5620,-106.0327,-134.9314,22.0558,-13.2406,-611.2277,-395.7927,-182.3535,-189.1215,-133.4368,-59.6291,-583.0817,-270.5014,-6.5925
-1204.0260,-1362.3738,-802.1244,-680.2520,-258.3300,-309.1524,-48.1693,-50.7909,68.1668,38.1606,-625.2141,-371.3900,-162.3964,-116.7569,-109.7026,-47.3977,-662.4476,-283.0255,53.1581
-1245.8042,-1350.5341,-807.5480,-628.5425,-192.6989,-247.3007,42.8440,-7.4050,109.9268,107.6703,-595.0336,-335.1931,-115.8974,-24.6277,-76.9948,-86.0567,-642.9906,-274.9818,84.8498
-1215.3141,-1319.7107,-766.5565,-542.4897,-122.7878,-235.9175,117.8579,-41.2057,130.7765,126.0791,-564.2145,-319.1849,-61.3624,-48.1280,-31.8478,-92.8201,-554.4020,-256.0029,97.3232
-1228.9120,-1352.8433,-742.7505,-468.0609,-84.0097,-218.1538,143.7038,-68.9505,168.0707,114.3540,-537.0864,-312.4995,-19.0992,-151.2813,10.3625,-14.9841,-456.1234,-212.2387,121.8623
-1272.5491,-1383.3807,-735.3211,-376.4832,-78.0507,-140.7649,143.3932,-18.2466,215.1105,154.6745,-507.9501,-269.3112,-10.8636,-173.0242,17.0681,40.1452,-373.9424,-134.0170,135.1809
