Fp1,Fp2,F3,F4,C3,C4,P3,P4,O1,O2,F7,F8,T7,T8,P7,P8,Fz,Cz,Pz
131.8531,128.7351,-16.0183,-11.3577,-53.7334,-127.6950,-120.1826,-154.8578,-18.3270,-67.8317,29.0520,20.0939,15.9698,-5.2013,1.4274,-26.1415,-0.2330,-76.1771,-192.4474
-149.4233,-286.1427,-135.3950,-190.1582,-154.9784,-220.3221,-47.2273,-167.0431,90.5633,-151.2147,-15.4075,-156.4187,-44.5894,-153.8623,232.0484,-4.1346,-93.5501,-86.9765,-170.9603
-347.8093,-523.2534,-255.3683,-269.6805,-306.4657,-368.2312,-34.2222,-179.7409,84.3485,-108.7011,-88.4317,-230.9138,-131.8920,-238.9708,265.4012,-6.8595,-174.8979,-174.8405,-209.1801
-319.6262,-469.9348,-165.3521,-199.3260,-373.6890,-497.9286,-27.7954,-237.0814,10.6405,-33.2974,-68.6326,-178.0903,-164.6821,-214.5841,153.2050,-28.4302,-175.1348,-265.1217,-292.7754
-244.5519,-387.1404,2.5515,-169.5202,-395.6544,-521.7533,-58.6447,-321.8744,-29.9431,-101.3619,-12.8246,-163.2232,-173.8138,-186.1898,102.4153,-54.5471,-145.9757,-262.1794,-328.1806
-235.4406,-360.0902,43.9572,-212.8557,-378.0489,-395.8601,-99.2051,-319.7881,-19.2879,-193.6971,-22.5381,-188.6446,-174.6359,-166.3836,113.8516,-83.4196,-130.7401,-180.2652,-227.8012
-256.8269,-338.5370,13.3025,-205.4218,-217.9052,-155.3734,-5.0629,-179.6681,41.3128,-121.3422,-51.9808,-151.5932,-115.9200,-87.2731,118.2180,-83.3506,-115.6816,-71.0004,-17.4985
-315.8229,-356.2481,2.2363,-174.2204,22.9406,92.4743,188.7831,14.6407,118.9330,19.1202,-48.8186,-101.3116,-19.1423,13.1115,140.9680,-26.4172,-110.8635,38.8158,184.9638
-372.4170,-390.3594,-8.1132,-219.9330,179.7014,236.0752,304.6668,154.4814,137.5402,52.7183,-63.8794,-114.8708,53.7455,43.9191,193.3874,32.9834,-144.1684,106.0695,304.2349
-325.3404,-406.2450,-18.2167,-313.9635,253.8982,259.0525,341.4777,205.8086,111.2652,11.0002,-116.8438,-148.8004,105.2055,7.7509,248.4290,42.5210,-213.0189,110.5212,363.6106
-253.0360,-462.5478,-49.7164,-383.8970,292.1946,243.0532,371.9793,221.7841,126.1064,9.3611,-151.7557,-159.8247,119.5393,-27.0074,280.7225,49.6859,-293.5830,98.5440,406.5566
-322.6611,-519.5892,-150.5116,-402.8044,249.0259,245.8405,345.7178,264.2082,170.6767,57.6548,-142.7445,-150.5852,55.8420,-26.6585,248.7291,87.2715,-333.7916,101.0191,433.0044
-457.7787,-483.5939,-226.4571,-346.4539,149.3332,250.9170,254.3170,307.3335,167.1139,84.5824,-112.4981,-125.1723,-29.7868,-24.6188,171.7364,100.3523,-271.3507,112.8152,425.2588
-445.0079,-412.0656,-159.4421,-211.2780,75.4368,254.7325,181.7076,310.8015,104.1539,56.8513,-88.5433,-117.0378,-74.9295,-56.4399,136.6399,76.9858,-129.5168,159.8477,387.5927
-289.6158,-338.6857,-31.1820,-44.4519,5.6277,279.0460,140.5932,332.3199,38.7593,35.0194,-94.9243,-131.4585,-135.6641,-73.1619,138.7868,69.9968,-7.0327,231.5408,353.9413
-176.0265,-227.2902,45.0781,85.0319,-83.4681,276.7053,123.8260,398.1865,47.3362,70.9311,-122.1467,-112.1764,-233.8496,-21.5522,116.8536,67.6540,65.1414,216.8648,358.1842
-166.2328,-201.3409,101.0517,118.7292,-133.3496,168.2810,167.0546,388.8656,132.3836,89.6463,-109.6051,-87.2272,-276.1849,12.2985,99.3215,18.5519,131.0511,77.5273,374.9683
-161.7624,-313.4786,167.1359,73.5367,-144.6344,-9.1786,224.3632,241.9297,152.1148,1.7825,-21.9862,-133.9101,-230.6185,-70.5071,100.6697,-60.0011,178.8999,-40.1131,333.3250
-112.0174,-328.8227,212.2552,44.9306,-157.6680,-118.7548,218.1232,88.7841,18.5513,-128.6986,86.8568,-181.2913,-154.1619,-178.0468,63.2607,-115.2869,155.5372,-18.9149,237.8693
-72.9059,-191.8920,235.0473,53.7333,-118.6422,-93.4496,196.5291,51.1304,-107.2853,-173.6853,141.4401,-144.5138,-55.0762,-174.4890,33.4231,-120.9270,80.3718,61.7926,193.3526
-73.7251,-170.1404,221.1426,8.6635,11.9662,14.3208,242.5910,103.0054,-56.1325,-135.5251,134.0449,-116.7229,66.8696,-104.9399,112.2498,-80.4099,0.7026,96.9401,246.1320
-97.4225,-312.0651,131.5099,-103.9524,142.6240,138.8945,339.5448,186.2851,81.3154,-149.5505,96.6164,-154.8516,148.2746,-68.7912,234.7879,-36.4726,-89.1874,117.1116,317.3144
-164.3238,-407.4452,11.7210,-171.5691,195.5070,256.8397,413.7124,268.3581,136.0136,-307.6784,42.3052,-150.2831,168.1135,-42.2882,275.7725,-24.2712,-160.9615,170.8041,341.9411
-271.0155,-413.2757,-53.9852,-131.9494,215.3111,342.3069,401.0498,299.3171,93.2813,-523.1996,-8.6041,-70.0431,177.1722,23.1462,244.4564,-13.6040,-123.8109,213.3738,336.8575
-332.6223,-407.6575,-64.7048,-35.2963,253.8918,369.3014,310.3513,263.3763,30.9928,-635.0251,-16.5380,1.8569,184.5927,103.3024,193.4531,13.7204,12.1530,208.4739,324.5537
-326.4749,-405.4006,-59.4158,49.1113,277.9976,367.1743,250.9839,225.6275,19.9184,-628.6721,7.1072,55.9867,167.0484,163.8659,137.7537,18.7967,116.2522,194.5358,318.9946
-335.5021,-424.2908,-59.7292,81.3282,242.4063,374.1266,283.4938,232.1274,88.0922,-610.1361,1.3158,105.4530,143.6987,182.6034,117.4360,11.5148,134.4292,183.4821,332.2435
-364.3361,-423.2377,-92.1259,60.0095,165.5878,351.0513,313.6606,230.1924,171.5169,-610.4214,-41.3029,92.5993,123.1535,145.8310,145.4164,44.4409,117.4703,135.2595,314.7020
-326.4230,-318.4109,-155.4720,23.5319,76.4277,258.7114,250.2098,165.0881,170.3044,-599.3690,-70.7537,19.6938,72.5657,100.0625,146.9788,89.6686,69.0728,66.8917,212.0218
-233.3891,-218.9715,-201.6340,-7.0466,-33.2513,156.9238,141.2039,87.4891,82.8185,-573.8520,-70.7932,-35.0031,7.1068,98.4033,83.5151,94.0154,-40.8813,33.7477,95.9072
-186.2522,-271.5714,-207.7204,-61.3098,-127.3815,96.5017,89.7072,73.7523,18.7551,-495.0772,-60.3428,-62.3031,-11.0551,91.3346,24.3631,85.1181,-169.5680,8.2103,74.6704
-212.2528,-360.8334,-195.3613,-147.8685,-118.6499,37.1289,138.4499,109.2013,86.5262,-337.1142,-46.4968,-99.7238,13.7193,16.2983,30.2084,88.2727,-245.0197,-58.6103,131.9480
-250.7073,-357.2095,-174.4783,-203.0718,-22.8293,-18.2714,242.7697,151.3097,243.1876,-217.1380,-29.8428,-137.6375,22.7388,-68.7145,72.1581,74.9624,-243.1183,-111.1841,200.5233
-244.7523,-336.4520,-140.9079,-179.7398,45.3688,0.4006,314.8729,206.3042,266.2463,-233.1647,-7.4558,-154.0204,13.4914,-86.9611,87.1316,54.3572,-189.9210,-91.0181,267.1644
-197.3539,-318.7932,-111.4317,-138.3716,60.7299,71.4897,305.8993,258.6907,35.9527,-279.6032,17.1672,-144.1842,18.9268,-62.2068,51.0035,60.4648,-152.2500,-49.3770,323.4087
-161.4289,-229.6360,-108.2891,-150.1396,85.0915,131.3823,238.8765,282.5045,-213.7879,-234.3170,7.0498,-104.0720,24.5194,-26.6853,-8.4736,70.9963,-168.2705,-13.7859,367.8251
-155.0291,-131.3878,-115.1190,-163.2910,130.8503,225.4945,187.8095,341.3088,-195.2937,-130.1025,-43.5263,-47.9984,16.2324,37.3284,-47.0975,64.0288,-181.1390,80.7847,435.7418
-129.1572,-116.8904,-89.1107,-106.2025,185.3028,370.1561,229.1798,466.2996,15.7146,-28.1485,-55.0897,0.3785,34.7664,101.4702,-35.7906,67.6681,-142.7083,216.9147,505.1415
-68.8083,-138.2393,-41.9179,-38.0364,246.1085,437.2642,337.7046,526.0820,172.1342,63.3169,-0.6220,34.1460,87.1404,100.1007,24.6572,82.7666,-98.4516,273.4257,504.8628
-26.7000,-136.8981,-46.6805,-31.9843,269.8528,380.0908,393.9856,451.3555,249.2939,142.0641,17.8788,45.5331,108.1153,54.4656,90.0085,73.8652,-77.1614,237.1130,467.0680
-32.1318,-122.6022,-108.2595,-42.1531,234.9795,318.1602,378.0390,383.0076,336.3273,217.4918,-38.7181,40.9823,75.2790,44.1367,109.6594,55.4889,-53.9856,201.6884,467.1204
-76.4244,-110.2995,-128.8847,-24.2119,188.9091,281.5899,371.4717,392.4951,377.6591,280.7896,-63.5008,61.6562,38.5871,76.1189,92.9810,70.7996,-41.3643,169.5645,447.6349
-144.5342,-110.3240,-63.6197,-2.6468,130.0320,175.0114,342.5630,342.7548,295.9061,268.7460,-6.6815,119.7855,15.6922,95.9813,79.1170,98.3151,-35.8018,83.6088,320.2836
-187.8873,-104.6416,18.6166,37.6797,20.3233,21.1676,212.2776,164.8116,164.8718,168.5288,51.3759,175.7112,-17.3986,79.9840,64.6899,82.9919,28.5028,-13.2208,137.9243
-169.3365,-70.7098,57.4716,114.5080,-79.4933,-56.2503,60.6805,-19.4903,81.0090,64.6964,63.3957,201.0998,-56.8344,37.4032,36.8751,36.3036,127.6958,-47.5791,1.2815
-129.7854,-66.2900,62.2062,148.1990,-98.6987,-58.5874,-6.9065,-105.7771,43.4741,24.3856,62.6825,178.7307,-82.4317,-23.4900,21.0790,11.3389,137.7676,-49.3923,-70.5771
-101.9706,-115.8589,59.9646,79.2890,-79.4201,-89.3894,-19.1480,-117.7087,42.2035,50.6847,72.3083,88.8015,-86.0639,-91.1655,31.9708,4.1065,34.6624,-75.3248,-99.4534
-57.9593,-119.8126,63.0859,-30.1119,-59.4047,-159.3205,-11.7544,-113.7626,85.3666,113.5534,88.9051,-26.2628,-65.3125,-151.7850,41.8803,-19.2140,-87.6669,-92.5344,-94.8964
-7.2893,-76.6014,67.2086,-95.2273,-14.4361,-166.7136,14.4401,-98.9344,122.3918,160.0821,95.9250,-81.6477,-47.2251,-191.0220,24.2115,-30.9608,-144.4987,-28.8598,-57.9465
8.9292,-109.3201,68.4750,-77.2476,34.9128,-57.2544,20.4965,-39.5061,105.1170,178.9302,62.2148,-68.7201,-71.1625,-181.1445,-11.2271,4.9158,-89.9155,108.7236,5.0372
12.1445,-164.0474,83.4066,9.2755,51.6804,79.4423,11.2720,39.1964,81.0819,209.7762,0.3542,-52.3944,-112.2006,-117.1464,-21.2785,42.2944,38.6905,218.7612,59.4921
29.8638,-91.9332,111.2831,75.4157,61.1416,125.9314,33.3541,47.5850,91.2643,232.1339,-24.6057,-71.2275,-114.2324,-60.1159,15.4998,35.4462,111.8211,231.5719,69.5608
39.8341,16.3350,122.3981,62.8839,75.0470,104.2096,46.4791,-13.0762,95.2440,206.7593,1.9420,-109.0163,-87.0094,-61.1471,45.8892,29.1258,90.2985,204.4913,52.4334
49.0167,-2.3118,126.0320,38.4275,60.0340,105.2062,16.5634,-43.0756,86.0486,191.6804,29.8553,-127.6299,-74.9046,-76.2135,22.4386,63.3324,70.6112,198.3601,32.4257
78.1544,-70.9353,146.6137,46.8064,10.3281,100.3029,0.5946,-36.3505,98.8242,218.2060,37.9002,-115.4945,-88.6475,-58.8154,-5.5051,91.3811,73.4217,142.6711,-12.8835
83.0292,-51.4812,142.4368,28.5389,-64.4664,-3.1246,-12.0448,-68.0220,97.4643,214.8721,31.0212,-110.0480,-120.2775,-60.0209,10.5777,65.1821,33.0353,-17.9008,-89.0283
39.6101,8.6521,87.1950,-22.0487,-165.3319,-175.6235,-76.9035,-122.1306,47.1831,181.0842,-8.5189,-132.0541,-151.4161,-119.8176,33.2173,10.3077,-25.6565,-171.4791,-159.0358
7.1008,-2.7810,51.4966,-40.7619,-255.7096,-301.8878,-130.8107,-151.6513,3.2050,175.0597,-63.9309,-144.1234,-159.5970,-170.7760,38.1985,-19.4806,-40.6186,-215.3101,-208.4449
7.9412,-86.3167,78.7500,-37.1391,-284.6384,-336.3056,-130.7916,-190.4051,-17.1604,151.8284,-65.8226,-127.8328,-159.7863,-161.5587,47.0816,-11.9942,-34.3481,-218.1700,-242.5127
-12.1329,-151.6296,106.6287,-53.9306,-258.9962,-312.1139,-153.4997,-242.8667,-62.0382,79.8525,-12.9568,-112.7516,-171.1435,-144.2673,44.1140,-7.0216,-45.0579,-258.8594,-257.0459
-72.5904,-143.1277,79.8485,-77.5330,-212.9071,-265.8999,-184.6646,-239.5264,-105.3888,36.9930,7.4409,-111.9326,-162.4694,-159.0922,23.9286,-31.5829,-77.8404,-290.3814,-260.8128
-135.6693,-105.7623,20.9257,-95.2473,-148.8346,-207.0751,-129.9039,-169.6897,-102.2566,31.2961,-26.7864,-123.5816,-115.3082,-169.6314,45.0972,-48.2595,-124.6552,-254.1538,-254.2626
-169.6906,-85.1380,-13.3269,-99.9138,-59.7824,-125.2539,-29.9369,-86.4398,-93.4581,9.2267,-39.2515,-145.7367,-58.6802,-144.4121,112.6622,-22.1751,-135.6693,-166.7371,-216.7749
-160.9608,-47.2828,11.9050,-53.4964,30.0317,-22.2850,42.9836,-6.1657,-86.4412,23.8273,-4.2809,-134.3146,-1.6244,-89.4063,157.5464,14.9294,-77.4153,-65.8637,-170.8530
-122.7789,3.2948,64.3925,37.3107,80.7809,74.8944,119.0435,78.8304,-33.1806,114.0131,21.9842,-57.0675,51.2177,-23.2536,171.3685,33.6396,-7.1988,33.2529,-149.8678
-102.1562,-10.0276,93.2156,119.9232,95.5595,149.9445,181.5358,160.8502,20.5348,192.4050,32.3272,26.1499,66.8581,17.5976,186.0852,51.5589,45.5199,133.1944,-112.4042
-117.1603,-72.9184,121.3422,188.7723,116.6996,195.2060,165.6542,225.8910,2.6429,213.9047,73.4120,52.4658,63.0106,11.1134,175.6682,72.3569,122.1182,213.2171,-38.9767
-124.8301,-89.8852,164.9472,229.0840,128.4567,175.3289,112.2530,244.7275,-31.6210,211.9099,123.7521,32.2719,81.1282,-16.1150,129.2660,78.6887,178.1260,205.8584,-7.1103
-87.3780,-48.6377,152.7817,174.0505,67.9044,74.3194,80.3522,203.4980,11.4052,187.0393,121.3213,-19.1595,72.1371,-42.8841,102.8700,69.2153,131.1812,101.2199,-34.4627
-23.9592,4.5688,83.7742,54.9992,-29.8159,-42.6536,53.6850,155.0110,121.1650,156.0413,85.8450,-73.3484,0.0168,-65.8496,107.7047,36.6536,47.5506,14.0889,-39.3837
13.2395,50.4248,68.7161,10.7198,-67.7136,-94.9599,40.0426,149.0136,168.9659,153.7605,75.8872,-49.2772,-46.8492,-45.7021,89.2099,-18.2051,34.0709,18.6775,-24.6078
-3.0498,68.0302,109.2899,73.8712,-66.4784,-79.9132,51.3353,153.4751,39.5863,145.4360,82.1749,52.0244,-23.6991,30.2953,43.1461,-47.5369,66.6359,48.6333,-65.6628
-34.1921,59.4132,110.5673,142.6946,-99.0971,-44.4167,42.5356,131.8856,-119.7119,125.3642,77.7909,102.8182,-4.4181,88.7263,24.9808,-28.5310,89.0005,64.6503,-131.7938
-18.7288,65.0986,106.6713,157.4240,-110.8331,-2.2548,33.3365,114.8431,-23.0355,150.2981,88.3183,63.2685,3.7602,101.1459,53.5330,-7.5515,97.2093,112.9169,-135.7754
31.5023,62.2017,171.3157,139.5679,-13.3599,66.7654,99.3451,127.6940,204.6198,172.9046,123.9666,42.3019,65.5015,130.0866,93.6953,-2.4807,76.0019,170.8819,-87.2096
42.0693,1.8814,225.3347,104.8688,147.3267,146.8014,200.7468,139.9331,152.4193,123.8215,143.8927,78.6576,157.1188,166.7483,124.2015,20.1815,22.3481,166.0043,-41.1749
-7.5022,-55.8390,189.9546,50.7655,273.6953,183.4398,258.9702,135.8587,-86.0445,85.0830,137.7793,81.6019,225.4418,142.8453,162.2828,58.4549,-16.0165,119.7052,3.4288
-57.9845,-49.4540,135.7900,-2.8786,344.1878,173.6680,302.5923,152.3594,-73.9381,100.7109,136.5728,14.1494,280.2047,102.0105,204.0770,85.7307,-20.0551,87.0137,60.8745
-64.3002,-42.1569,127.0243,-23.6373,366.1967,165.4033,339.8690,201.3543,101.2186,81.1205,141.0677,-49.4243,298.8932,114.6859,201.5837,96.6800,-23.1285,55.2061,102.5905
-44.6954,-73.1079,126.4445,-22.6002,313.7733,147.4672,297.3878,233.0562,76.0112,47.6654,137.3437,-54.9805,231.9425,120.9254,145.2031,74.5766,-44.2402,14.2976,102.7638
-32.2624,-83.0278,102.8709,-43.6397,185.5279,77.9728,196.2979,226.8299,-36.1554,90.4223,141.2865,-30.9954,129.1423,76.8607,90.1561,15.9343,-61.5141,-2.5271,92.3356
-24.4274,-63.6352,74.7749,-63.3034,62.8336,4.8004,147.0801,224.3974,-13.4517,131.2497,153.6348,-11.9706,78.0082,68.9429,57.3379,-16.8392,-28.2818,9.6020,111.1413
-4.5509,-59.1639,61.6599,-13.5296,17.4246,-16.8304,154.5385,224.0948,-19.6057,88.0528,139.9619,11.5093,68.7707,120.7245,17.5327,15.2125,59.4303,8.7570,127.4658
13.3095,-45.4003,66.5138,59.7312,-13.1302,-44.0073,140.5767,170.1749,-131.1078,35.5506,95.0043,37.4186,42.0024,127.3599,-13.8785,51.9186,115.7335,-40.5163,88.4210
16.3390,10.3239,80.1774,51.3466,-114.4571,-110.9423,101.0248,73.7184,-145.1503,0.8405,48.2472,26.6471,-11.6930,67.9164,1.0344,40.6277,96.9661,-107.4476,20.2953
41.9772,65.9360,98.6983,14.0945,-194.9883,-134.7639,85.2402,-3.9793,-67.0408,-46.8255,11.1312,-22.0752,-47.9350,32.4212,35.7846,20.4843,101.1738,-95.0869,-26.4150
109.2752,89.8397,133.6351,80.0497,-101.7502,-82.6696,114.5601,-57.0999,-35.8303,-24.2255,-8.5662,-56.7396,-14.6432,31.5659,50.6886,38.9155,192.0315,33.3170,-60.0039
154.1620,112.3715,176.4272,224.1737,124.7001,-16.8716,198.8622,-86.9831,39.3542,95.1210,11.2041,-57.0019,84.7816,14.5034,56.9300,71.5882,286.0733,184.4895,-78.6748
136.7120,153.4517,193.5823,332.8300,322.1593,67.8582,318.3043,-52.4133,181.6354,161.6948,58.7996,-38.3769,183.4032,20.1602,66.0340,75.0525,310.8409,281.4026,-39.7155
110.8056,187.0600,175.1794,365.8042,419.1555,207.3672,379.4993,35.7326,176.6174,137.7491,86.3934,-3.8775,233.1526,96.5839,73.3356,71.1814,263.9163,333.1300,43.0320
97.7034,180.0303,134.8047,302.3229,417.2061,311.1537,327.1082,107.9345,32.0956,156.9373,70.2680,14.5250,236.2524,160.2025,92.6426,111.3443,141.9835,304.8939,108.7907
61.0523,129.4858,90.7874,145.1209,332.0582,274.8605,256.7802,141.0515,2.0246,220.7394,29.3607,-31.7915,203.4901,121.6622,122.0578,164.9483,19.9150,163.1774,151.1649
46.1857,66.4492,83.0466,21.7900,236.4025,164.4688,262.6689,148.0737,92.4154,204.8879,6.9667,-98.4605,158.3465,39.7135,124.1750,150.7483,40.3229,41.6785,192.3111
116.0453,33.1156,135.4726,42.5351,190.9340,110.4602,267.2661,126.2053,112.7419,121.4785,36.9888,-107.6134,126.3909,2.0646,89.1475,83.8881,180.3090,74.2353,217.7396
188.6268,62.2039,196.8511,122.2036,140.6575,111.9934,169.9877,82.6812,69.7859,79.8236,83.1429,-96.3077,76.9977,-11.4685,49.7819,50.0780,264.0488,153.2481,201.5715
171.8205,138.7946,193.7423,140.5554,13.5991,71.5515,26.3411,28.2735,69.3391,91.2124,63.0872,-121.5878,-25.6910,-39.3708,28.5165,54.7398,237.0514,117.2055,137.6568
120.1927,165.4041,117.6639,120.3471,-145.9704,-36.2604,-68.0723,-34.1759,74.8762,91.8025,-23.4188,-127.2589,-131.5276,-61.8683,23.6455,48.6264,186.0723,8.2671,58.1025
82.5278,77.1831,21.6383,114.4130,-245.7562,-129.2020,-113.4585,-74.7552,35.7349,59.9692,-89.3623,-85.2018,-182.0604,-72.4736,20.8399,32.9427,158.5805,-58.6036,23.8694
38.5457,-5.9849,-31.5112,110.5362,-288.6629,-145.8588,-144.1546,-81.0247,3.2982,30.7200,-96.7672,-94.5220,-206.3950,-86.8187,-1.6403,20.8291,144.8040,-78.0014,34.3294
54.1084,56.6574,-22.8530,107.8791,-354.1366,-111.7771,-174.7402,-83.2403,7.7650,47.1076,-82.0421,-196.3166,-239.8427,-87.3183,-45.3183,6.4119,128.0144,-73.9239,30.8754
180.8618,166.5323,0.0811,125.2056,-429.3393,-45.4371,-199.0884,-46.7635,23.4074,115.3184,-73.6413,-282.9890,-249.0801,-62.4461,-82.4650,14.3266,86.1205,-20.7153,38.7630
269.7315,163.6024,-7.6687,146.0003,-375.8274,73.7389,-158.7980,83.1844,52.7696,190.1564,-73.3945,-274.3818,-197.2072,-32.9104,-86.3973,53.2206,35.7005,77.7510,125.0099
201.6011,118.0565,-23.5551,150.6525,-154.6190,201.4936,-17.2271,207.1929,101.7179,210.3027,-69.1090,-206.7992,-95.4473,3.7478,-47.3724,68.8250,24.7186,147.7626,227.7490
101.3835,145.6371,-12.4043,147.2422,68.3962,248.3436,128.7668,204.3218,138.8974,168.3853,-44.2645,-120.2883,14.7507,58.0729,17.3100,48.7901,50.6924,131.9829,257.1399
84.5121,171.8712,20.7364,146.8292,162.8924,218.4808,168.2180,151.4640,154.4395,132.4373,-18.4475,-11.6085,77.2526,103.4878,60.1735,53.1655,89.5229,68.0798,260.0097
85.1381,136.8185,61.6491,158.8656,182.5193,177.7475,134.5334,147.9638,156.1373,148.7516,-23.7917,79.0381,60.0089,118.5398,58.1549,84.2698,144.7349,38.7953,278.3813
55.4198,135.0325,90.4542,176.5714,192.0214,135.7462,106.9583,134.1334,118.6793,171.3663,-35.2925,56.9892,10.8895,104.6028,46.1838,80.5821,176.8919,55.6077,250.7632
33.7044,193.6227,67.9699,161.7794,173.3011,89.7604,89.0647,80.1734,55.2474,167.9327,-24.9682,-86.1339,13.8049,65.0620,48.4181,41.2564,125.0330,60.3101,184.2754
20.7617,208.4633,-7.7968,112.7388,121.4025,74.0404,65.6536,67.7109,39.0153,180.2478,-27.0334,-200.5857,67.7072,39.3152,42.4190,12.7991,37.4283,36.7015,170.8581
5.2674,138.5918,-73.4340,88.7013,55.5157,84.0548,41.8582,96.2118,63.5571,200.3209,-53.5497,-159.8939,82.5851,62.8039,23.9329,-5.5656,6.6444,25.3149,202.7169
4.7836,46.7193,-81.8004,96.2972,-10.3328,83.9918,10.5394,87.1132,62.3710,178.9875,-63.7440,-51.2702,20.2202,76.7536,16.4499,-33.9472,5.3753,38.9768,197.8020
0.7805,13.8217,-64.1778,68.0866,-40.7541,89.7544,-36.7892,49.9707,62.0322,175.3995,-52.6909,-32.4553,-48.6431,33.9344,12.7539,-50.9858,-45.5805,53.8149,145.7116
-25.9249,88.2418,-74.1911,-2.1787,-29.6781,116.4437,-96.6299,36.8658,91.2906,245.7197,-38.5868,-81.9048,-63.7130,4.6660,-8.2347,-35.2078,-127.2316,59.7769,83.0982
-45.7200,199.8823,-106.6042,-46.4706,-26.9363,121.9386,-150.4997,39.5861,97.5470,282.7769,-21.8905,-79.5586,-49.5206,23.1619,-28.2005,-7.5948,-167.2882,68.4188,39.7674
-55.0277,206.6789,-116.3266,-39.3230,-23.6409,104.7032,-144.8454,43.1023,128.7965,228.7317,-40.4425,-28.9526,-35.5774,28.1501,-8.4521,18.4608,-147.8360,100.8255,50.4958
-72.7709,116.7999,-106.9252,-2.3404,43.4446,123.8963,-54.5645,54.1592,242.5132,208.4309,-118.1035,-4.1103,-15.9258,29.2503,53.4384,66.6258,-102.8865,163.8875,99.4720
-76.6152,63.2296,-123.6964,48.0015,150.6455,163.8804,40.4328,48.3463,238.8861,245.0668,-164.3314,4.2556,6.3767,67.0558,101.5337,124.0980,-66.2449,216.3495,104.9775
-62.9252,68.2968,-146.9981,82.0258,226.5692,141.1042,61.7176,-9.3446,25.2375,195.3165,-104.3672,27.3514,39.8598,68.4570,79.0568,118.8971,-39.6055,208.8772,46.0671
-53.9181,81.2966,-108.7703,76.2697,267.8542,57.3811,49.4165,-103.4590,-50.9196,67.4984,-7.9870,31.9509,115.5926,-4.0212,21.4048,40.6487,-6.0660,154.5828,-4.1448
-5.9551,118.3400,-29.2574,56.6689,283.4547,-14.9277,62.8472,-181.8420,140.7902,15.3066,43.5891,6.6472,201.2763,-45.5355,11.3930,-13.3510,19.9362,96.6810,-7.5355
111.8995,166.7808,1.9244,46.1924,251.8482,-64.5994,78.5705,-206.4555,164.6510,49.8648,48.2795,8.1626,215.3366,-10.1025,32.9825,18.9636,2.2427,49.0367,1.3996
207.6037,164.0202,-24.9975,33.9565,184.5757,-119.6619,62.9055,-173.8095,-109.7767,93.5389,16.2205,56.5817,157.2333,30.2915,15.4073,87.2029,-46.6575,10.4017,2.8332
195.8226,134.1410,-48.4694,18.8996,105.4701,-172.7281,24.6626,-119.2507,-223.5141,142.8684,-16.4758,85.4992,92.4310,36.5427,-12.5684,125.4262,-84.6384,-34.1014,1.4375
119.5611,127.3827,-61.1654,-16.4177,5.7940,-223.6098,-37.2005,-110.2659,-62.4181,155.3454,-4.1088,25.8299,38.5046,-2.7502,-4.6872,110.0655,-122.6262,-112.8379,-22.5123
73.1517,120.2118,-99.6462,-110.6311,-99.6142,-280.5184,-133.6631,-179.0826,6.4552,57.6969,-2.2902,-112.2152,-16.9422,-91.2398,-19.5145,48.6804,-184.9269,-192.8349,-72.8013
103.0535,107.9670,-146.3389,-211.7232,-162.4611,-287.5984,-226.5802,-252.2229,-46.4696,-50.9931,-71.4112,-234.5904,-61.8318,-141.8510,-70.4045,2.6184,-219.3780,-190.0760,-96.2071
147.1210,105.0196,-145.1530,-208.5645,-163.0911,-194.8249,-253.0581,-239.4516,9.3885,-25.7755,-125.4494,-236.8764,-88.6000,-85.9484,-57.6760,33.3335,-164.0776,-107.9838,-65.6124
91.0404,84.9487,-91.2766,-111.4740,-106.6836,-59.4038,-215.4499,-174.5327,71.2010,55.2278,-94.6348,-115.7309,-93.7010,-8.1322,11.9818,90.6822,-59.2738,-19.6660,-31.3604
-6.4732,93.0797,-32.9405,-18.3660,-11.3687,56.5758,-179.5027,-132.3587,-23.2818,43.9051,-57.8560,19.4150,-61.6925,16.7829,12.5369,84.2568,14.2471,80.0299,-19.6503
61.0465,205.8884,6.5453,47.8640,73.5065,168.0330,-169.5257,-85.3184,-131.1576,-20.8131,-52.9729,83.4625,-11.7546,33.6287,-47.7382,37.6933,48.7458,215.0289,14.3670
283.5533,337.2316,45.0000,101.5430,119.4151,258.6435,-140.7121,4.1261,-129.2446,-26.7092,-16.1002,105.2792,11.0581,63.0085,-54.7936,35.9735,69.1378,306.7477,78.2503
432.7291,396.3170,80.2531,122.5679,154.8801,278.5532,-73.5888,95.7632,-73.3538,44.2910,38.8772,138.0660,10.2455,81.8580,-13.5923,87.5116,62.1816,308.7703,124.3279
452.1009,464.5044,85.8279,122.2198,190.0034,268.1927,-6.0666,180.4099,1.7596,154.4912,44.7299,162.9520,18.8246,109.8122,8.7564,136.7339,30.1704,306.7220,159.9538
446.2875,537.7376,64.4664,128.7592,190.3938,287.0950,33.4557,274.6325,58.8377,237.0818,20.8207,144.2138,31.5390,137.5229,20.4544,141.0893,20.2083,335.5117,224.2072
400.1173,484.7754,39.1985,115.7137,153.6644,296.6037,45.5965,318.9987,62.4780,232.6952,0.7951,110.2136,23.2553,118.4072,34.8463,102.1751,40.5619,315.3494,286.6825
286.3207,374.5859,23.3377,72.1931,117.2685,266.8354,42.9517,291.8535,100.4136,194.0743,-33.3008,111.3336,-6.6237,90.2914,41.4388,65.3779,49.5905,244.6024,301.2595
212.7264,347.4034,38.5996,50.4381,93.6851,245.0548,49.5621,279.5226,175.7098,195.1236,-63.8966,140.5332,-37.4824,110.5974,60.0381,66.9512,49.5769,213.6322,280.6101
212.7092,310.0658,93.2086,80.1261,71.7694,249.7404,60.0921,293.0073,117.6133,179.2711,-48.5191,151.1033,-49.8825,130.4665,76.3391,83.4955,83.0923,234.5174,245.2983
183.1830,204.3334,144.3801,143.8810,60.0564,263.8478,35.8322,261.3811,-29.8639,112.0973,-7.8005,126.8700,-46.9728,92.9054,40.8945,74.3557,147.3058,264.6379,207.0365
106.7054,166.5085,167.7188,212.2457,80.5306,292.8425,0.5334,220.3320,-17.6477,93.0163,16.9991,93.8911,-38.0010,32.2371,-1.8552,32.7744,211.3351,308.0629,206.1155
61.8040,175.2737,203.5914,240.6237,138.0251,322.7020,30.4974,240.4288,118.1240,138.6301,28.9809,77.8723,1.3823,0.0222,19.5434,-19.4281,270.6414,359.1653,268.6414
63.8678,94.2560,261.4495,216.8617,215.7619,339.4602,119.0431,285.8605,167.9084,160.9554,42.1574,80.1043,84.0021,3.6210,52.4196,-36.7667,310.2514,381.3582,367.3519
75.9894,13.7637,290.9599,193.7050,284.6714,377.0244,194.7567,324.4422,203.2702,194.8067,54.8671,92.0983,144.8622,16.0982,39.5436,9.4704,297.7475,378.1020,454.4894
78.8582,25.7047,283.0820,194.4384,310.4097,413.8047,237.4834,367.7401,334.9629,283.5191,59.5101,110.0758,117.6202,6.5201,34.8348,68.3990,251.7704,362.4337,474.6008
69.8277,-4.6405,273.3417,183.1193,283.1015,370.3655,247.6684,370.0914,369.1738,300.7786,48.4100,123.3897,40.4333,-10.7770,55.1906,74.4317,221.1798,320.0680,405.6675
62.8417,-102.7663,267.6815,148.6402,248.7593,279.3628,214.2688,307.0570,204.2596,210.5637,36.6294,112.5293,1.3705,-2.8458,41.3460,49.4469,205.7420,271.4233,326.0000
60.4388,-123.3319,263.0681,103.8907,253.0016,225.1190,184.2142,247.3796,102.6198,167.9693,53.5102,86.7921,20.3742,10.9799,12.9374,41.1661,188.9178,246.9213,314.8871
31.7594,-91.4176,270.9655,64.6365,256.6339,167.8655,209.3868,216.9555,201.3069,187.4400,83.2530,87.6361,38.1770,4.5399,35.2275,40.9105,186.7080,210.9783,316.3663
-26.9201,-113.8181,272.2058,67.5549,195.8445,59.0979,235.3507,174.7328,261.0241,139.1140,76.2489,110.5620,6.0833,-14.2161,83.5001,31.2580,185.6152,128.6000,248.5301
-79.6170,-133.9258,230.7573,79.7276,94.5630,-45.4853,191.3373,116.7655,144.1385,42.8207,30.4764,91.6328,-39.9712,-58.5086,112.5363,13.3918,134.2684,22.1342,143.9284
-114.3116,-107.0202,152.0645,-6.6434,14.2497,-121.5933,110.2025,44.4132,41.8758,-19.7894,-12.5321,27.1836,-39.6740,-117.3144,140.2537,-15.1177,41.0528,-89.0634,60.8155
-140.0986,-108.0089,70.0640,-158.1131,-41.2514,-184.9549,48.1995,-48.6289,66.5940,-69.0426,-40.9316,-6.1581,-23.4008,-112.4995,168.2825,-39.5016,-41.1696,-181.0604,-2.5200
-165.9598,-159.6882,5.6968,-224.8068,-82.4661,-191.7096,1.1281,-112.5411,78.2897,-99.4349,-64.7597,-1.5158,-49.6009,-58.1128,157.9787,-51.3799,-111.8475,-202.2503,-50.2747
-209.2435,-225.5259,-39.9010,-221.6585,-87.7624,-144.6008,-32.0188,-129.2035,17.3260,-97.4003,-63.8089,-31.4328,-66.0357,-76.3085,110.8916,-82.5766,-179.8400,-160.8484,-77.8381
-247.6955,-278.3941,-69.6406,-247.8801,-49.8559,-125.5150,-12.7788,-161.0429,0.0547,-136.3485,-21.8944,-81.7020,1.2591,-156.5321,69.9774,-118.9318,-198.2889,-114.4968,-96.2606
-227.6829,-271.9174,-66.1869,-239.9330,13.1267,-123.8087,64.1056,-199.0333,37.1679,-197.4828,22.0979,-70.1433,97.3586,-175.1224,57.4158,-97.1397,-149.7575,-57.1601,-94.3085
-181.9679,-225.9626,-17.0423,-145.2674,84.2163,-79.0554,136.2790,-176.0058,12.0533,-174.8778,30.4125,-19.5187,139.8198,-134.5304,59.7418,-52.3114,-90.2349,26.7601,-52.4869
-188.4466,-233.9600,35.3158,-82.3762,142.2618,-33.7326,156.5010,-125.9934,-65.8291,-126.4154,31.3053,-13.6295,155.4787,-97.5147,59.9683,-61.8014,-51.4314,85.6046,7.9571
-209.7247,-250.5378,53.2345,-90.5491,178.9870,-22.0756,161.3999,-91.8455,-77.3604,-131.4823,61.9744,-32.8933,190.7348,-40.1164,68.9889,-72.8397,-17.4876,107.0652,67.6471
-167.8868,-143.8165,73.4111,-59.2722,205.1814,5.8950,195.3431,-16.1889,-16.4078,-87.9611,100.0696,-0.9815,209.5571,22.0872,94.7404,-32.5372,12.2298,137.9094,132.6938
-108.9899,26.1086,113.6369,25.9579,199.5752,43.6050,225.7136,96.7312,17.9752,11.7153,106.9547,75.4851,162.0132,14.2867,94.8641,-28.6545,40.3863,161.9390,182.7524
-114.2557,87.0334,117.1934,86.4074,133.0427,37.0122,216.8429,141.2886,-14.6131,10.6139,80.9079,122.3125,68.6866,-21.9584,41.4990,-82.6582,80.1255,142.6956,188.2700
-153.8959,16.7417,76.0657,108.4875,45.7288,-3.1056,196.1814,106.4595,-69.7528,-53.0821,43.3187,104.3683,-3.7586,-0.3208,-7.8799,-73.0202,98.0082,113.5375,157.6291
-151.8946,-73.8637,52.1548,98.6981,-9.8812,-50.7976,176.8642,81.6691,-97.2766,-17.2059,19.2891,71.5341,-21.1785,40.7855,-2.4188,9.4710,57.7671,88.1383,108.6973
-112.6272,-90.9500,45.1720,48.5266,-43.8258,-84.2940,143.9162,94.3884,-83.5192,51.2040,14.8932,77.8743,-1.9358,39.3665,27.5139,41.5326,-1.3554,31.2954,66.9117
-110.9343,-64.2595,13.8451,-21.1637,-50.1985,-51.9200,138.6828,99.9678,-39.2766,11.1846,4.5981,65.2058,50.2188,7.6124,57.2129,0.7921,-35.2847,-39.4130,82.9845
-169.2340,-139.0834,-10.6836,-114.2316,20.3899,21.6437,201.6188,62.5201,17.3795,-86.9202,-11.9796,-46.7049,148.9367,-46.0744,93.6033,-44.6157,-60.2197,-80.4283,153.2482
-206.6499,-326.5956,16.8868,-237.6761,142.8535,45.0815,269.6224,-3.6145,51.7737,-141.1003,9.3561,-165.7616,237.3599,-103.0446,106.9697,-64.3840,-86.8888,-94.3161,195.4989
-177.6335,-409.4005,65.7738,-308.9504,220.4127,44.6149,274.6916,-29.5486,34.9829,-129.1189,65.4063,-147.8069,241.8011,-103.4233,81.7450,-41.9173,-106.9492,-83.5096,175.8810
-162.2242,-308.3086,80.5240,-276.8495,221.1223,82.0448,246.5479,18.5307,-6.0728,-69.8088,92.1744,-55.4225,203.9632,-63.0659,63.2970,8.3233,-133.6852,-49.2938,137.4945
-206.5773,-214.4924,46.9232,-212.9420,184.1539,72.9378,211.4807,62.5551,-40.6504,-24.0991,72.1371,-28.5465,187.8636,-64.4451,53.6675,13.2506,-148.9254,-28.3067,91.4677
-237.8572,-206.0285,2.5129,-146.6594,131.6486,-38.4914,126.8479,22.6163,-97.6800,-31.7780,42.7900,-37.1137,148.1817,-100.7788,8.0128,-30.2170,-102.4194,-25.1395,18.7119
-227.0753,-175.7628,10.2119,-53.0437,73.3258,-142.0853,-8.5581,-71.6984,-164.9176,-56.0987,28.0910,-9.9215,59.6207,-116.0630,-38.2207,-48.1523,-27.4278,-12.4277,-58.3751
-219.5198,-134.6386,71.4922,-5.5373,31.5102,-185.6006,-109.6231,-152.4668,-158.2479,-89.7678,44.9195,10.5719,4.3266,-121.7348,-25.5127,-47.0730,-9.8272,-22.7211,-109.3300
-200.3916,-151.4615,103.5740,-52.6051,-6.0976,-238.8862,-128.7988,-187.8228,-99.9636,-144.6517,88.3709,6.9600,6.0128,-122.6243,-6.1698,-65.9444,-39.5870,-82.4297,-131.3779
-145.4975,-158.9906,68.8470,-83.7741,-87.2770,-295.6770,-123.6172,-168.9318,-99.8731,-152.6596,97.0955,31.4565,-18.9739,-83.1826,-48.0146,-67.3455,-42.0879,-129.1050,-120.2482
-103.5886,-113.3740,31.8029,-39.6096,-208.5594,-310.5898,-152.7183,-122.2585,-128.5545,-100.7850,44.6138,70.4497,-105.3041,-40.3257,-111.0840,-55.3606,-4.5477,-134.0898,-91.9077
-91.6788,-78.0441,39.4283,-3.3880,-302.4233,-337.0592,-199.8912,-103.7670,-105.1050,-91.4258,-5.4483,77.3202,-210.9495,-59.4112,-148.7916,-92.2702,38.7650,-153.8919,-95.5700
-81.6832,-67.0629,62.4936,1.3529,-333.1518,-394.4770,-242.6710,-122.1353,-108.0085,-125.5233,-14.7208,67.4326,-295.6987,-91.2143,-186.5376,-129.3088,64.4998,-193.7649,-127.6057
-97.3148,-64.4794,63.5954,15.5450,-320.6158,-374.8352,-276.4762,-118.6076,-191.7612,-107.4248,-14.8501,55.1243,-319.8116,-58.1545,-225.1203,-82.3733,48.3216,-198.1882,-119.3830
-145.4902,-92.0984,28.4206,1.5068,-261.4729,-222.0237,-247.4655,-44.9898,-223.2587,-51.5540,-25.7484,26.8675,-259.7646,-2.9265,-208.9447,-9.0001,-24.2826,-155.3147,-51.6905
-170.6861,-125.6068,-38.0509,-70.5072,-132.4272,-21.9522,-118.9299,74.6092,-140.9237,-15.6024,-49.1929,-5.1032,-150.7728,4.2845,-127.7485,17.1857,-123.3349,-77.3745,26.0987
-180.1766,-150.5677,-98.9546,-135.8038,28.6038,135.8174,17.3347,169.6299,-71.1214,15.5183,-81.4943,-30.1785,-41.2218,-4.7103,-43.9944,30.9777,-192.3536,28.9596,85.0007
-218.7943,-233.2451,-115.3533,-144.0807,153.8431,241.6259,68.9447,204.0539,-72.1206,40.1937,-82.3183,-46.4108,46.4372,25.0283,-2.5862,46.0204,-189.6452,121.9948,123.4952
-246.3034,-332.0650,-88.7233,-92.9796,236.2680,309.5752,81.5098,202.6728,-77.1367,37.4538,-39.9690,-17.5050,94.7010,73.3972,17.1504,20.0717,-116.5339,173.2743,126.4774
-234.4354,-292.1224,-45.7810,14.8752,299.2022,334.0862,106.1169,185.1122,-79.9353,24.5730,-13.5377,59.2493,110.8229,101.4703,45.5219,-27.8101,-18.8105,217.1305,89.7040
-234.0753,-143.0959,-15.2706,124.4683,323.7253,308.6278,106.8937,142.7557,-122.2829,-3.1286,-14.0312,110.9683,125.4811,111.2099,69.6702,-37.2852,53.3755,257.9169,35.2846
-233.3162,-57.7038,-22.5807,161.7737,269.4191,249.3880,71.8906,95.9083,-178.8510,-46.5247,9.5420,109.1783,128.3616,109.4363,64.7059,1.5037,76.2501,240.2144,-10.0950
-169.2388,-36.0407,-62.9851,154.9083,140.1699,189.2192,29.6354,86.1943,-194.0826,-54.1025,41.9561,106.0823,97.2627,93.3365,36.2851,42.6709,53.6588,170.0892,-10.4863
-73.7114,27.0207,-95.0390,169.6768,11.0014,146.6917,-12.2277,110.1926,-161.2820,-32.0740,41.7599,124.5381,65.1105,81.9198,-8.1943,26.1248,25.2681,124.6132,39.4728
-2.8184,98.6498,-89.4611,182.4655,-42.2446,98.7424,-43.2268,122.5793,-144.1647,-26.3459,39.3576,139.1208,50.4725,93.0254,-86.0601,-39.5939,31.9781,111.2444,53.7752
55.5118,94.6142,-66.2349,150.4765,-52.0809,7.8230,-84.0613,86.9891,-207.6625,-5.2469,50.6971,131.8838,12.8174,105.2871,-190.0578,-65.5123,40.6644,55.9999,-29.2588
75.0178,25.5857,-80.5776,80.2078,-94.7872,-97.7260,-187.9349,15.9642,-276.3739,22.4175,32.3418,95.9882,-43.8536,98.3241,-260.3289,-36.9112,-21.0796,-53.7242,-105.6760
-9.0350,-74.2981,-169.3802,-42.7608,-131.0433,-124.0726,-276.5234,-22.0499,-210.5260,-23.6790,-13.7767,41.9999,-55.8956,91.7908,-250.7181,-34.9443,-145.9037,-141.2929,-61.5269
-147.8453,-188.7099,-284.1335,-216.2208,-89.5568,-40.7546,-212.5194,17.4711,-89.2501,-88.5195,-39.0998,-5.4157,-24.7876,106.2499,-188.9608,-51.6390,-247.2578,-161.3862,34.6763
-218.3448,-268.4030,-311.6566,-317.0881,-25.6600,83.4323,-83.0610,89.5082,-118.3088,-69.8501,-32.2255,-44.0839,-18.1012,133.2901,-138.6893,-24.8374,-260.3004,-125.3905,83.7953
-192.5390,-274.3026,-220.0742,-240.9109,4.6194,204.8105,-46.5883,147.0622,-213.0006,-27.3428,-13.6497,-71.0589,-45.6348,150.7850,-121.2333,-11.5137,-194.2339,-29.7362,117.4186
-148.4928,-239.8879,-131.2314,-96.5655,41.8313,312.5910,-25.5235,195.4089,-108.6530,-10.1069,-14.3172,-65.9943,-59.8753,126.0876,-109.4323,-63.9938,-122.5403,92.7612,148.4293
-164.8988,-218.4449,-160.5392,-57.4326,54.7607,329.1251,61.9633,193.2603,98.6703,18.5589,-56.9044,-47.2404,-64.9410,43.7481,-91.9939,-103.6530,-109.2949,115.5713,106.4652
-239.9898,-221.0784,-247.6546,-109.9091,-37.0180,199.9943,87.8553,80.7089,49.6786,-18.3697,-106.6095,-39.3436,-109.8899,-46.2528,-89.5496,-103.1167,-130.8348,-11.4828,17.4517
-286.7984,-233.9198,-269.9124,-139.9231,-153.4590,19.3765,21.7714,-59.7574,-230.2432,-149.5184,-119.6187,-7.8493,-175.8719,-80.5854,-100.2666,-122.8605,-140.8702,-145.3543,-12.2305
-243.4945,-236.7260,-249.4762,-135.6099,-187.3105,-92.9068,4.7553,-86.2533,-334.8278,-165.4950,-121.9167,43.8609,-190.2956,-70.3211,-101.1279,-125.9865,-158.7378,-160.3040,6.8410
-168.3212,-203.2024,-273.8797,-130.1194,-219.4015,-122.7437,11.1683,-27.5714,-148.8366,-6.3325,-136.9814,34.2680,-179.0391,-61.4781,-111.4749,-63.7121,-184.2043,-113.5225,-16.8779
-147.1793,-149.4376,-291.2659,-97.9739,-335.5316,-124.9124,-105.8379,-38.2743,13.3958,67.9101,-130.1376,-38.1530,-257.7848,-71.0681,-171.9934,-33.8965,-147.9725,-104.5224,-109.6784
-163.8477,-150.4197,-204.9639,-40.1391,-464.3260,-195.1486,-310.1066,-179.5246,-39.8529,-57.5252,-96.1046,-81.6461,-420.7164,-109.5077,-262.5672,-98.2004,-47.5492,-153.8078,-251.1830
-157.8079,-224.3973,-91.0375,-19.3084,-530.2218,-379.4211,-460.9653,-364.5820,-164.9534,-211.4381,-77.8564,-78.0357,-510.2510,-160.6021,-319.4904,-156.3971,20.8053,-234.9570,-384.4151
-149.2739,-288.7603,-92.5173,-59.0347,-507.0845,-515.6906,-494.9080,-449.3082,-218.5411,-274.0288,-95.0991,-78.1615,-446.2362,-153.3092,-317.3101,-143.6732,-0.6616,-285.3770,-381.7352
-205.9352,-324.9213,-192.6424,-139.9015,-359.3083,-402.1914,-392.2144,-347.2578,-209.8121,-243.4053,-140.1911,-96.6908,-308.8841,-75.6641,-281.4303,-110.9304,-95.2610,-255.1830,-189.0294
-310.4964,-404.5545,-279.1940,-242.9913,-134.5151,-119.7311,-197.8719,-126.0878,-162.6944,-140.1590,-178.7498,-127.6324,-181.5813,-17.1815,-243.5053,-88.7484,-211.3080,-185.9691,42.4274
-358.1261,-475.1973,-306.5048,-305.0208,48.2810,108.5827,-45.5630,40.3926,-100.9913,-52.1829,-152.3403,-153.9976,-77.5549,-0.5631,-205.9304,-63.2429,-270.8738,-122.7288,128.2532
-312.6443,-414.0455,-284.9730,-272.1056,167.3483,233.8134,-3.5052,54.9932,-74.8916,-45.0802,-73.4874,-138.2328,-1.8435,40.6362,-149.6715,-34.5833,-257.5087,-38.9469,69.2276
-265.7919,-309.4503,-249.0579,-216.2850,249.1779,288.3583,-14.1098,-24.8566,-73.0352,-54.7460,-30.3497,-96.6742,37.0023,80.8096,-84.6333,-5.4805,-248.9756,38.7867,-4.4933
-283.6645,-318.7447,-249.8071,-212.6953,248.9939,240.6451,-17.6506,-92.4471,-43.8503,-29.5274,-43.0013,-90.7464,39.1844,44.4424,-51.2538,24.7173,-255.8340,30.3526,-17.3852
-312.5197,-354.1098,-273.0041,-191.9777,161.8798,123.0327,-10.2564,-106.1597,1.2564,-2.9237,-55.5535,-118.7215,-0.3407,-14.4317,-46.7848,47.9572,-202.5864,-26.6650,-0.7927
-299.0420,-293.8663,-251.4099,-106.9807,74.1487,29.9213,-10.3024,-92.8629,31.9562,9.4473,-52.4868,-136.4655,-59.7088,-12.4025,-27.0691,57.9897,-122.2268,-40.7098,0.8650
-274.5303,-246.8840,-203.8835,-55.9115,21.5787,-35.6951,-19.1798,-85.7713,49.3893,11.9134,-55.4375,-124.3446,-82.6893,14.5232,7.6743,50.5111,-117.3253,-44.2915,-2.0856
-273.2705,-280.8464,-197.0959,-78.6712,-28.5414,-105.3619,-11.9081,-90.7781,43.4592,4.2826,-68.8489,-66.2214,-64.5235,29.8143,25.8067,37.3213,-150.0151,-99.1200,-3.6663
-278.1984,-266.3031,-187.2245,-69.3328,-86.6174,-161.6091,-9.7454,-101.3294,18.7013,7.4017,-75.2165,19.4853,-63.2322,60.7925,23.1094,47.1980,-112.9387,-160.3247,-38.3414
-260.2890,-185.6416,-92.9007,17.1741,-143.1634,-217.5990,-76.4308,-110.2757,3.6116,11.2439,-32.7037,61.4383,-90.9121,77.6647,-17.0307,58.7588,-12.3905,-175.4224,-94.1279
-207.6255,-171.9527,35.4695,96.3382,-179.8392,-297.4852,-171.8973,-115.6691,-22.3285,-15.0255,56.4619,48.4448,-99.8190,28.1810,-110.1274,15.3914,75.8334,-174.9325,-109.3849
-144.1801,-213.2627,79.8873,97.2804,-177.8208,-353.1436,-203.3539,-133.1815,-62.3073,-35.7673,89.7117,27.5609,-83.3364,-43.8345,-176.6456,-56.7201,99.3367,-208.0498,-91.7383
-126.5892,-197.7173,23.4274,19.9584,-166.4020,-341.2949,-206.1158,-160.6585,-28.4123,-17.7519,20.9872,-12.2073,-78.6526,-75.9992,-134.9830,-81.1822,46.4382,-263.8898,-85.1910
-165.9047,-135.6400,-35.6263,-79.0579,-161.9504,-269.6488,-210.7063,-138.7849,88.2743,17.1260,-42.7212,-67.9054,-81.0195,-62.1865,-62.3569,-56.9604,-17.0613,-256.7856,-55.3690
-193.3353,-85.3620,-9.8047,-98.2594,-96.6635,-126.7156,-120.2401,-26.5972,158.7203,87.4803,-39.8542,-60.8362,-53.6978,5.4795,-67.2003,-16.1561,-2.1536,-126.2772,25.9589
-159.6303,-56.5426,67.3173,-1.9210,45.3540,81.9899,29.3209,119.2575,140.5808,193.5780,-28.5266,-0.6239,2.9073,110.1302,-102.2664,43.9790,73.8994,45.0248,92.3960
-108.0529,-75.0670,96.1635,111.8025,155.5522,280.2096,48.1534,216.5364,105.6255,230.8709,-12.0939,15.0667,58.7628,173.0427,-83.0130,99.5036,134.9986,143.2136,100.9501
-109.1030,-142.8094,72.7547,162.4307,181.4916,405.6827,-33.8184,237.1845,64.9617,169.7819,36.2918,4.3164,87.2074,166.3185,-34.6743,104.9850,173.5432,189.8569,85.3400
-163.7154,-184.2028,75.8736,192.0990,183.1018,445.7735,-24.0962,183.7500,13.6195,110.3942,49.4677,38.4579,63.3878,140.9911,0.9987,72.8462,213.6310,226.9303,62.3778
-190.9380,-166.1874,100.9508,223.1738,173.5378,398.1865,51.4216,89.5473,-9.1430,71.0297,4.3499,70.3205,-4.2330,113.4143,31.8603,43.9032,242.7685,200.4676,37.0424
-119.6800,-139.4710,82.9911,173.5284,116.3623,306.7247,54.6275,18.3864,-38.9258,-3.4155,-2.9206,48.6558,-51.0194,73.8302,45.2663,30.5537,242.5053,112.2594,31.9653
7.7548,-126.6086,49.7617,8.5868,37.6704,233.9931,4.4060,-28.0243,-125.5831,-99.6680,48.2851,21.2361,-45.8354,43.2786,15.6996,19.0504,211.1409,55.9131,14.9901
82.7921,-113.6109,71.9658,-163.3895,-21.8590,154.6132,-46.7609,-107.7590,-191.6532,-193.6886,80.5807,16.1780,-46.3912,18.1726,-36.7276,-24.0416,175.5673,37.5922,-59.5451
79.9369,-109.3894,133.5669,-224.2653,-67.0217,32.2211,-98.2558,-195.3028,-181.6795,-257.1217,91.1857,14.7913,-79.6735,-17.3619,-65.7253,-90.9012,187.5294,-0.8413,-133.2325
57.5480,-116.1353,182.2128,-188.2017,-85.6230,-63.2080,-97.0074,-204.5133,-157.7141,-224.9520,113.8846,15.5281,-77.1098,-26.8461,-34.6295,-100.3101,228.1548,-49.8823,-137.2524
35.1199,-115.9254,205.5111,-169.7005,-53.3713,-86.7423,-35.8677,-162.9628,-123.5908,-156.2386,116.7431,-0.7337,-6.6969,-2.8280,45.4541,-40.5914,196.1466,-119.6925,-117.8966
-2.1522,-114.4935,192.9433,-247.0864,-5.1988,-114.5843,-10.9161,-172.5500,-39.1235,-184.6740,92.3993,-47.1985,69.3744,-0.5774,91.9767,-14.6277,77.6683,-273.6367,-129.8706
-24.4310,-128.8930,132.6099,-373.4193,14.4059,-174.0416,-8.2063,-220.3923,34.6357,-232.9439,94.0908,-64.4101,113.6873,-7.8686,66.1939,-41.1977,-14.0588,-455.5840,-135.5407
1.4438,-145.7464,65.7127,-432.9384,33.6048,-168.5647,82.0415,-199.8883,73.2180,-153.5434,130.1859,-21.0302,148.2838,37.1918,67.4184,-33.7069,-14.2042,-518.2578,-85.0511
52.9591,-127.7804,55.1070,-387.8728,89.2531,-49.2774,211.2968,-82.8355,141.6930,-45.3040,158.3335,19.2426,171.3370,103.2226,155.3951,-0.0132,28.8755,-453.2772,5.4058
97.5199,-51.8698,93.0794,-308.8919,135.5370,104.0623,240.1204,44.7446,149.6896,-71.7993,151.9727,24.7963,157.3877,124.7986,206.0375,-10.7966,49.5141,-382.4789,56.8509
117.2318,47.7345,97.3261,-245.5523,106.4818,190.3591,166.7230,88.2588,-49.4552,-195.5711,99.5205,32.3187,105.0128,116.5094,123.8473,-41.4165,19.6364,-370.0203,-5.5290
82.2844,92.1196,24.1658,-175.7283,23.2093,179.8120,73.2586,40.5495,-282.5118,-269.1172,14.6026,51.0082,26.9831,107.9751,15.6647,-38.8340,-34.8021,-395.4476,-132.4186
-4.1277,56.8398,-54.2863,-107.5344,-42.7699,117.9638,10.7821,-21.4015,-261.5112,-192.4772,-43.0742,68.7919,-46.3993,90.6504,-5.7473,-16.6366,-47.2136,-434.6683,-181.4703
-64.8488,11.1438,-56.6035,-94.9392,-70.9979,53.4166,11.3753,-50.1047,-78.4245,-63.7101,-35.1346,78.0445,-71.1210,53.9702,4.3500,-17.7502,-2.1023,-484.8305,-129.7642
-37.6591,15.8123,-25.3533,-130.7152,-90.0833,-36.1143,45.0068,-93.9737,-20.1922,-149.6600,2.7471,47.3683,-61.0030,-11.5276,-37.5986,-83.1672,42.9761,-553.0721,-92.0482
42.7661,51.3911,-40.0133,-150.5217,-128.3721,-171.2760,20.1415,-177.7555,-92.2215,-411.5958,26.7995,-9.8120,-80.3314,-83.3210,-98.1945,-180.5231,51.3864,-624.0051,-117.7031
98.8058,80.1032,-78.9290,-134.3695,-204.6682,-273.3744,-65.3890,-215.2532,-143.2989,-428.9318,43.1652,-7.7233,-125.4516,-93.2215,-107.9000,-181.7800,25.3971,-650.0490,-165.6644
93.6610,100.5820,-91.3318,-114.1713,-293.9376,-281.1344,-114.0215,-163.3767,-164.4484,-149.8711,64.3133,50.4582,-127.0453,-51.4195,-80.3804,-81.3529,-34.5294,-626.8517,-217.2345
49.6608,104.4159,-92.3941,-124.7021,-317.3868,-270.2287,-97.4140,-126.6732,-147.8263,-8.9687,65.9674,52.8365,-82.7489,-55.6274,-79.7370,-50.8113,-101.8676,-613.7202,-253.1675
20.6180,59.6431,-98.7810,-171.0540,-252.8428,-300.0909,-75.4643,-166.7851,-27.0125,-81.2985,33.4249,2.2095,-59.8724,-96.9125,-107.4847,-113.4922,-131.1794,-613.7866,-237.3644
35.2246,-0.8068,-97.8044,-190.2950,-175.2338,-288.4904,-70.7571,-174.8451,87.8304,-43.3042,6.2240,29.6892,-69.2188,-76.1859,-101.0233,-108.8452,-124.4987,-549.7779,-187.0794
61.1886,27.2748,-105.3696,-118.4695,-121.4435,-177.3299,-48.4151,-70.8307,61.5662,78.0166,8.4238,140.8090,-60.2731,-19.4790,-51.8132,-47.1114,-114.8269,-420.1484,-126.2101
53.4807,146.4330,-142.5326,-30.3333,-57.2305,-46.8781,13.5136,52.9202,51.7000,41.3921,-14.2629,184.9725,-35.1138,-27.3980,-20.9178,-69.7137,-118.6484,-329.7600,-30.0368
18.9861,224.3895,-187.2083,-42.5403,-0.8463,30.3895,90.3313,97.6130,180.5845,-53.8487,-92.4475,105.9220,-46.9457,-81.2656,-19.2394,-124.9584,-142.3757,-312.3197,73.1502
0.3158,225.3396,-205.5814,-96.1156,-0.7116,75.5155,138.4914,88.7613,220.9556,-37.2044,-144.3521,22.8407,-81.4040,-97.1208,4.7149,-83.9394,-165.6822,-283.7391,102.5477
15.3594,240.7718,-176.5111,-71.3913,-18.8298,102.8099,156.6497,74.7780,91.1187,12.7076,-105.9901,31.0849,-62.3534,-61.8070,61.0098,3.0121,-154.7251,-215.8363,71.6595
29.2277,242.8806,-112.5507,-27.7820,-6.5824,80.8230,172.4590,50.1913,80.8253,32.0051,-50.1040,74.0154,8.1183,-26.3619,115.1823,36.6361,-146.0956,-195.7364,51.0723
-2.9008,140.5662,-83.1225,-75.0681,-8.6426,1.6677,158.1051,10.7208,223.3872,48.4454,-56.0001,65.0631,47.2387,-57.5924,150.3971,27.6068,-195.9908,-267.4546,40.2759
-54.7160,38.4887,-119.2472,-158.5203,-60.7333,-95.7636,73.3540,-21.4873,212.3861,33.9492,-83.5911,23.5944,32.6862,-177.1250,158.9208,17.0780,-248.7115,-354.3424,20.9926
-53.5527,63.2529,-148.1441,-177.0616,-118.5664,-166.4404,-30.8079,-37.8370,69.0720,7.7332,-81.7061,12.6802,6.6170,-322.0409,135.8653,19.5136,-224.1872,-381.4556,-0.2678
-8.1355,109.8424,-139.3282,-134.4350,-164.6594,-202.7942,-105.7809,-61.5211,55.9913,24.7106,-83.2209,28.2840,-25.6373,-432.3160,97.2259,31.6301,-158.8167,-362.9347,-56.3047
7.0584,86.7627,-154.8754,-72.2342,-229.0617,-235.1616,-200.2847,-115.7970,85.4621,18.1832,-105.9883,35.0632,-66.9970,-502.2133,45.3917,35.9808,-110.9587,-341.3618,-155.5992
-0.8662,81.0302,-170.8799,-26.2828,-281.1971,-271.1244,-307.1849,-174.9147,-30.0314,-39.6177,-95.4787,42.1593,-79.3669,-504.0460,-26.3150,47.7346,-75.2057,-330.9554,-210.3668
24.9474,88.6177,-99.8817,-38.6857,-259.8129,-269.7955,-314.3514,-176.9415,-132.1392,-36.0096,-35.6357,67.3649,-56.4446,-427.7604,-65.4347,91.3946,-69.1695,-323.8944,-170.3260
51.7621,17.8916,3.1725,-82.7391,-185.5957,-200.5294,-221.1334,-102.0155,-57.2725,40.4911,10.3592,83.6353,-26.1723,-364.9350,-13.0735,125.1362,-114.2536,-284.0672,-89.0625
25.9501,-42.8136,36.9959,-64.5420,-101.3374,-67.5969,-138.9910,13.2318,66.2432,97.6817,20.7004,63.2725,36.5232,-369.5518,80.3665,121.1119,-139.1128,-169.9259,-2.6221
-13.5439,-0.2873,49.5782,36.3923,12.7208,104.2166,-70.3640,128.3611,97.7153,137.8796,47.6151,34.4673,149.8523,-366.5266,120.7483,120.4820,-84.0208,-17.3914,81.9986
-23.1043,19.4793,98.1840,144.4792,136.7540,242.8979,28.2616,204.8036,44.2376,157.4452,101.0392,40.5747,240.9452,-321.9422,113.1844,106.5820,-8.6947,79.2115,131.2925
-17.0510,-46.7111,118.3319,207.0092,178.5383,275.9286,94.9548,221.2207,-32.1549,97.9764,132.1599,64.1352,260.1454,-294.6026,128.3547,36.7991,29.9936,109.2111,158.4288
-5.6968,-78.0426,81.5218,238.9906,144.4351,243.5478,112.8143,226.3642,-53.6065,34.9628,130.3408,52.3549,252.2417,-292.4763,174.1659,-3.3557,60.9843,149.1751,210.3572
-13.8912,-69.3090,49.7039,276.9835,138.9535,229.2469,164.6130,272.9852,-15.6404,73.8396,114.3300,14.2647,236.8873,-282.8300,188.6608,56.8444,100.9835,209.0668,247.0294
-75.4846,-97.8522,44.0184,324.0453,155.6617,211.1078,223.0891,313.0656,4.0006,135.9726,76.4480,4.6004,189.5313,-270.5986,144.6065,113.1933,120.2701,225.5789,219.3808
-112.0550,-74.6936,51.2819,321.6440,114.0667,133.8931,197.3586,276.4450,23.0929,136.0765,36.9493,4.2949,141.5980,-254.3311,102.7052,86.8195,113.5525,190.4770,181.7672
-16.1471,54.9423,81.3903,226.4517,54.3490,15.9990,137.1074,176.4276,106.2208,121.4235,53.4595,-58.7625,125.4194,-239.8616,121.9633,39.9217,109.1948,137.7549,164.0753
126.2102,126.8946,111.8797,123.2061,42.3266,-115.9242,97.4982,58.5924,181.2222,107.5620,106.9208,-155.9581,93.7855,-267.5902,154.8917,-0.3243,132.1549,76.0078,114.6228
152.3464,56.7206,105.2787,144.8411,27.8760,-226.4804,14.6193,-35.3504,173.2829,77.1471,111.1991,-175.2551,31.9053,-303.2733,123.2473,-49.4608,184.2023,43.9374,48.8895
82.0908,-42.0999,81.7976,267.3969,-3.6096,-219.3106,-89.8213,-58.7505,135.5957,66.5968,55.8882,-112.7984,10.0965,-268.3498,55.3337,-53.3986,227.5595,95.6821,29.8505
26.1408,-130.1132,65.7934,323.9672,30.3181,-83.0250,-95.4014,-32.9160,113.9664,45.0398,5.9044,-94.4384,41.5312,-212.5294,25.2088,-0.2675,220.3202,177.3598,35.2820
8.0812,-241.5558,52.6263,244.7048,124.1909,34.9522,-21.6296,-32.2104,120.1610,-52.1634,-9.2860,-182.4144,59.4187,-215.9115,22.2588,24.2676,182.7354,189.1526,34.4659
27.3142,-293.7523,67.4055,138.1729,191.6669,48.1335,29.7434,-46.7381,159.8202,-141.8257,-4.6645,-294.0860,55.7663,-219.7019,8.9955,1.6781,164.2497,146.0383,58.0441
86.0535,-233.1656,125.7721,102.5436,225.9460,30.2031,66.2031,-19.8192,168.2641,-134.7051,2.9634,-331.9165,73.3948,-175.0337,20.2580,-11.3888,169.6922,124.1818,100.4360
119.9037,-174.3446,176.6522,117.2295,249.3712,55.0373,120.4879,31.0100,160.7685,-94.4566,-1.5367,-288.2047,96.5321,-140.5070,85.4859,-11.7889,187.1610,149.5336,134.3934
84.4273,-179.4406,185.2096,163.7511,239.1954,127.7528,160.1766,81.3903,271.1219,-60.7999,-16.0768,-210.9254,88.4899,-118.8577,139.0737,-13.4481,227.4905,216.1717,179.8087
35.2965,-176.0041,178.6575,259.0570,204.8158,199.9931,160.6946,132.2312,372.5848,-15.2969,-15.9879,-148.8932,65.2276,-72.5069,112.2181,-2.6859,281.8643,270.5620,208.0058
22.7585,-176.7862,179.6929,332.1841,171.8938,163.7033,117.9722,114.2711,194.9863,-28.3063,7.9682,-135.1910,50.7714,-57.2187,50.0684,0.6586,318.8520,224.0817,147.7804
47.9691,-255.4013,198.7461,296.8034,122.8721,-5.9872,51.9274,-13.7521,-54.1996,-115.8840,47.1928,-167.0435,53.6427,-92.3416,46.5858,-17.2433,344.0428,112.0587,52.4243
118.9372,-318.0263,250.0320,231.4170,72.2966,-165.4287,32.0872,-140.2076,9.3308,-148.1516,97.4268,-208.6852,91.7390,-88.7223,96.9467,-15.1636,374.6786,65.1575,20.2183
206.0054,-229.4063,307.1802,237.7491,59.9282,-239.2935,63.7575,-189.7535,183.8508,-107.8971,139.2014,-237.5961,144.3312,-46.8226,109.8852,6.6691,376.9257,70.8476,3.9597
236.4344,-80.7249,324.4964,236.2659,56.5974,-319.6792,62.2545,-238.3163,99.8433,-100.7909,146.1137,-253.3618,153.0178,-52.0420,59.9641,1.0707,323.1821,29.2810,-60.0763
213.7254,-41.5035,300.9436,149.3617,41.7308,-413.3593,32.8530,-307.2685,-82.5832,-112.3936,127.8779,-248.4435,131.9223,-78.6222,16.8506,-10.4264,253.1229,-25.2801,-103.0640
199.4193,-95.4500,246.2295,63.4474,56.3662,-418.1570,45.8788,-323.0801,-112.5083,-107.0380,101.0954,-230.1345,137.0286,-67.0869,22.9976,14.8753,193.9700,-38.2456,-75.3859
192.0055,-157.5795,151.3170,17.3901,78.5537,-354.8506,76.4034,-291.4600,-56.2074,-136.1405,49.8226,-237.0249,137.9292,-58.5564,56.9281,39.9217,116.2593,-68.8744,-17.0167
165.6758,-249.4614,39.7537,-62.4118,60.3165,-294.5442,113.5939,-244.6500,84.4420,-140.3303,-16.8756,-273.5061,104.7766,-68.3014,93.6721,31.8755,35.5762,-111.0610,73.4793
142.4243,-376.1003,-30.2784,-134.4590,68.3131,-191.1515,210.7223,-144.0967,328.9590,-47.9682,-32.4176,-294.6843,116.6253,-40.3991,105.5651,23.1899,29.0098,-74.7438,200.6245
139.9301,-436.2009,-23.3588,-97.1204,148.4886,-41.1555,281.6443,-19.3813,380.0685,-18.1013,33.4276,-291.4694,191.4553,12.2650,65.5103,19.9237,98.7035,-2.3731,271.8457
157.8483,-365.1407,43.5594,-22.0144,200.4870,31.7059,204.1594,26.8354,102.1312,-123.3715,110.6049,-288.1209,204.3775,36.1085,-0.6497,-2.4842,159.1125,17.0138,239.5287
206.3790,-212.2511,107.3261,-13.1046,173.2184,-0.8748,95.1910,19.6687,-113.2724,-136.1160,119.6357,-260.2762,117.2372,39.6460,-55.9982,-16.9767,176.3412,47.7234,197.2906
255.5302,-67.3108,124.4494,-4.0402,143.8304,-33.6421,97.6395,52.9596,-24.3309,-15.9535,78.7755,-183.6527,30.6326,20.5412,-119.2577,0.2375,184.3323,140.4863,204.4433
253.9096,-0.1091,128.9038,60.8873,119.1507,-41.1302,121.9074,80.9439,95.1925,-35.6832,58.6526,-117.8263,-32.3087,-54.0754,-184.6780,-5.2898,188.2779,182.4697,196.2634
226.7749,-15.7326,140.6125,88.7532,28.8078,-83.8301,89.3851,15.2160,45.6105,-218.7771,58.5363,-115.6910,-118.8276,-134.7200,-185.7495,-70.3557,161.4933,111.7934,126.1909
203.6640,-53.2756,94.8041,30.6229,-100.7194,-149.8234,58.2276,-92.8579,-77.6709,-312.9164,14.9518,-132.7444,-197.4948,-142.9890,-132.3301,-138.6681,90.2441,31.4577,26.3951
123.7327,-82.0857,-19.7442,-32.5575,-190.7178,-185.2908,3.1140,-152.1533,-239.5647,-296.9840,-71.4816,-122.7084,-237.5204,-115.3265,-120.8412,-166.3834,-23.3719,13.6497,-80.0953
-14.3777,-129.3377,-109.6662,-50.0830,-242.8999,-212.0844,-116.8315,-174.5622,-400.3894,-324.8895,-131.6412,-107.2238,-275.9021,-124.4892,-166.3361,-184.4643,-139.7170,15.9580,-198.5785
-77.9365,-191.6951,-150.3674,-46.2097,-277.7658,-269.0674,-178.9433,-208.8325,-370.1772,-383.5511,-150.1038,-88.9744,-301.3912,-136.0959,-203.0757,-191.9581,-186.1731,19.4211,-309.5861
-25.0941,-224.3050,-193.0191,-20.1252,-257.8525,-303.1917,-128.0675,-253.9093,-192.5359,-403.8231,-167.1614,-32.2735,-276.3370,-87.0070,-224.0622,-133.1672,-146.2207,75.4698,-381.0086
24.4924,-190.0681,-195.3514,49.8691,-170.0443,-246.0900,-111.7769,-287.1885,-194.8804,-407.2251,-177.2106,38.7711,-244.1961,-11.8845,-256.6407,-39.3316,-77.9285,189.8902,-411.2061
28.6493,-72.2990,-88.0388,133.6433,-80.5021,-137.8796,-182.6840,-294.3788,-395.4096,-397.1178,-146.4929,61.7826,-235.8144,31.9073,-276.7021,-19.9829,-22.0761,276.2963,-408.0961
70.6796,67.7948,57.4148,174.7433,-40.6894,-45.4500,-219.8730,-265.6086,-469.2526,-377.4034,-95.8850,53.6439,-209.9732,75.7127,-263.3446,-65.9202,17.5140,281.9304,-359.7663
152.0452,100.7473,129.0725,167.4802,-20.2119,58.3056,-197.8103,-210.0854,-353.1144,-399.3238,-66.5703,71.2073,-174.5366,160.2528,-241.0089,-58.2698,33.7101,272.1274,-272.2252
184.2130,18.6377,136.9316,151.9367,14.7169,194.6758,-194.5249,-152.7714,-239.3820,-434.4314,-49.5732,93.2301,-168.2470,232.3974,-220.3667,11.8159,36.5514,308.2917,-194.4406
153.9877,-39.4274,155.8725,147.2804,40.6047,287.0258,-197.7414,-102.0467,-141.0092,-408.7703,-14.2228,79.3164,-154.7074,239.7191,-193.7793,52.0579,50.2737,345.1841,-158.3905
124.6060,-27.0153,205.9033,139.1813,42.7983,295.5475,-158.4045,-63.8354,-37.8713,-365.6853,34.3559,74.2147,-116.7213,230.5289,-173.2933,63.1022,62.9102,330.7814,-142.6291
134.3997,-29.8685,231.4318,115.0051,36.2567,278.5987,-113.2460,-64.1953,-76.7025,-370.4288,56.1038,113.7698,-119.7836,249.1333,-160.4185,99.5617,49.3321,280.4966,-127.3566
165.0507,-73.7912,170.8438,67.1205,-2.7129,254.5223,-105.5429,-91.6295,-221.3054,-372.0846,23.3970,132.1574,-170.7594,254.8317,-133.5391,125.6207,12.5540,214.3999,-118.2891
156.6639,-111.5961,58.2021,-2.3531,-94.8419,188.8129,-116.2150,-81.0567,-230.1385,-321.2879,-34.8693,89.1102,-198.2171,223.4372,-99.9162,106.4016,-44.2867,147.4271,-112.0946
82.5642,-123.8785,-13.0389,-62.1959,-178.8456,98.5794,-128.5061,-32.1087,-117.4683,-259.8383,-65.3221,48.8598,-185.5102,184.1871,-83.4822,102.5822,-121.9434,103.1386,-113.0263
15.1122,-119.0082,-45.5114,-103.2601,-200.7301,8.7588,-140.0320,-31.4011,-60.4532,-227.6510,-69.7594,37.4308,-155.2229,136.7711,-60.4897,133.1833,-204.5128,56.8717,-143.9663
11.2702,-136.8444,-111.0640,-175.6691,-188.2256,-95.1742,-122.2348,-92.4979,-29.2822,-219.8348,-89.1810,-6.2919,-103.3139,72.6354,0.6015,124.2578,-288.2944,-19.4118,-184.1427
1.0904,-210.6047,-189.9331,-280.8875,-158.7904,-181.2001,-72.9820,-130.9466,0.9878,-219.6399,-116.5554,-79.7809,-53.1748,30.8074,57.0625,69.6082,-368.0497,-61.8263,-183.4021
-66.7332,-265.4122,-213.7506,-322.0229,-97.5482,-188.2084,-48.2259,-125.8830,-64.2218,-195.6893,-113.7415,-100.0499,-42.8985,31.7409,53.6811,50.9765,-399.1823,-22.7826,-159.9532
-112.3514,-229.4772,-200.2573,-267.5711,-38.9106,-142.1106,-62.9975,-129.8005,-97.3606,-123.5220,-94.0700,-60.7702,-45.5197,49.2105,29.3391,80.0829,-374.9911,13.4746,-165.6008
-84.8484,-190.8846,-198.8221,-220.8766,-29.0786,-117.1762,-70.2551,-144.6958,69.3141,-35.0864,-94.2767,-43.0669,-30.7157,73.4784,49.8968,88.3327,-353.5574,-36.1668,-172.4565
-43.7884,-216.1499,-203.5324,-238.3379,-51.3930,-128.0246,-69.3489,-140.4509,236.0183,14.3033,-95.5885,-71.2438,-28.5615,97.1335,85.6979,50.4727,-322.0470,-130.2533,-114.4221
-13.7891,-205.3119,-191.6239,-242.5390,-59.9346,-135.0615,-77.3545,-115.2209,258.8846,34.3000,-52.3355,-83.7315,-36.1965,89.4862,75.4099,1.2643,-208.8337,-176.0045,3.7091
46.1953,-112.1172,-146.1740,-170.3259,-18.5522,-97.0600,-41.9139,-60.8206,359.4680,86.0625,29.7337,-43.8377,0.3507,57.2728,44.8033,-27.9003,-62.1640,-120.7920,111.6861
126.3137,-33.2553,-55.7588,-60.2854,58.8134,-20.3382,22.4364,8.3339,488.9760,151.5287,92.9705,8.6645,54.4919,39.4610,38.9394,-35.0547,8.8871,1.3460,131.5035
175.9444,-10.7986,45.4964,29.6804,72.7720,27.6312,-24.4671,16.7043,253.4692,127.6627,95.7638,33.5938,30.0863,43.7862,23.6064,-46.2280,31.0117,79.0061,40.8686
191.0309,2.2847,110.0195,87.0827,-29.4255,12.6507,-178.6778,-44.9368,-202.9101,30.0607,61.0001,50.4924,-74.5483,67.5145,-32.3348,-78.1956,81.0450,60.6876,-70.0886
199.6317,44.7952,141.2081,118.6329,-139.9960,-20.4163,-248.4421,-71.9435,-277.9745,25.3197,38.0872,76.1819,-160.8362,102.0759,-77.5919,-96.5621,116.3255,18.5117,-92.1910
206.4562,139.1139,141.6348,120.9938,-163.6824,-60.2949,-199.6930,-32.9069,48.5324,151.2915,26.0690,78.5967,-175.6169,101.2291,-64.7159,-74.6708,77.9875,3.8026,-53.9938
185.8598,235.7670,79.1178,100.4564,-143.2199,-136.0465,-172.8601,-16.2788,264.3579,246.5266,-12.2944,58.7479,-143.1170,62.6928,-17.5005,-62.3074,21.9124,-2.0212,-43.5421
119.1389,223.7425,-26.6549,92.3505,-104.9979,-182.8234,-166.1993,-34.8511,246.2411,242.6019,-70.5011,72.5316,-91.6396,63.5511,26.3503,-100.1161,18.1928,23.8701,-35.1114
33.7045,122.9145,-100.2295,110.2591,-23.8228,-109.4418,-97.1615,-2.9588,258.1722,239.4994,-109.6080,113.4830,-44.1307,111.8539,54.4729,-133.0317,37.7235,105.9110,27.6368
-26.1467,66.9465,-117.9762,101.5857,42.8406,27.2516,-36.4790,82.0147,328.5697,272.2604,-123.6858,114.5797,-32.0452,127.7796,61.5610,-104.8319,12.1352,173.3906,88.3319
-44.8866,83.5725,-105.6229,31.5880,33.0077,115.4131,-63.2765,136.6143,300.9649,287.9836,-116.7030,85.0825,-56.5186,111.3931,51.5720,-46.9519,-59.0275,173.6250,82.2818
-17.5214,119.1299,-64.7693,-36.9610,0.3737,156.9361,-115.9069,141.7216,216.2266,299.6058,-73.3109,86.4543,-85.7971,122.8278,38.1394,-8.9609,-112.4786,166.1491,47.0669
28.8818,135.8228,-2.4308,-40.2762,-4.0671,192.3262,-132.5102,142.3739,219.7801,341.8328,-11.0206,109.0099,-95.8951,143.3379,27.2120,2.2318,-117.2415,202.2923,35.4922
4.1628,65.8896,36.9936,-15.6558,7.2670,205.3090,-97.8652,148.9126,292.9930,377.5712,20.9586,115.2615,-65.6450,138.8618,24.9547,2.3229,-105.2407,248.0186,55.5374
-106.3721,-75.1640,39.8735,-23.1546,43.0171,190.7519,-14.4882,141.4389,288.1809,368.9225,15.2885,120.6007,5.8752,140.6053,36.1044,24.7056,-96.0271,263.7057,99.4671
-163.0605,-123.3216,47.6178,-47.6779,86.6030,175.8013,7.0771,121.8770,147.9113,335.3587,4.5984,137.9979,48.9363,156.8908,40.7748,91.4214,-73.3882,257.0996,131.2663
-100.3738,-66.7992,79.0270,-40.7314,69.5457,163.0333,-132.6184,111.7348,4.4501,310.8513,10.4574,145.5105,11.1199,156.1277,21.9300,159.7633,-41.9866,257.8100,118.4884
-46.5135,-82.3622,102.4734,2.2025,15.4671,153.8871,-288.6872,134.8222,7.5179,310.1651,35.6789,138.5408,-25.8447,147.7559,4.6937,177.9666,-23.1788,275.1297,105.3823
-77.6093,-142.7494,103.0153,42.4410,17.7526,164.1169,-275.4908,194.1672,95.2345,320.5471,61.5264,134.9223,25.5782,150.9301,17.4957,162.1521,-19.3469,280.2681,131.9170
-105.3923,-73.4074,110.7730,57.3976,60.8325,159.8791,-170.3777,239.1165,106.2161,314.0557,65.0957,149.4717,104.7112,146.9689,48.3753,138.6013,-24.6229,260.5756,140.4505
-76.0682,64.8493,145.3931,79.3100,83.9168,93.5565,-120.4894,214.4316,53.2849,283.7332,65.2660,188.4335,137.4900,133.9044,78.3648,101.9603,-10.2828,262.2801,96.7031
-42.7485,123.0877,178.2187,142.7748,123.6759,20.3827,-97.1032,155.2806,39.0407,242.2701,74.1621,225.1675,164.5011,134.9574,107.2237,72.7523,61.1065,308.1594,65.6092
-49.6989,127.9977,166.0072,209.4068,200.2213,43.9140,-47.6497,136.7429,26.3609,199.0901,43.8235,215.4538,208.8223,148.0578,123.5998,74.8065,135.7851,334.6605,72.9592
-81.3730,104.5094,108.0597,209.7755,228.1968,158.4456,-17.0914,151.5129,-42.4660,165.2683,-15.1236,169.4628,214.4675,161.6548,106.1898,80.3754,109.9766,291.1075,73.8015
-82.5948,31.1795,59.8469,140.6501,170.9857,274.0703,-29.7189,161.3277,-90.0337,143.4900,-0.2298,142.2285,176.4532,181.5249,69.9705,77.2997,8.4288,225.8403,72.6581
-38.9447,6.9168,70.6201,63.7604,109.4586,354.6306,-52.2101,192.1880,-71.8493,116.4667,78.9972,160.8300,151.8838,212.7411,64.3976,87.0923,-54.2682,209.9372,92.0615
-43.5928,72.3598,110.5181,39.2225,99.1615,412.4875,-56.1068,242.9981,-70.8417,72.4711,95.1508,219.4740,156.6461,254.9619,100.6038,77.4156,-54.3806,242.8955,88.9822
-142.0333,86.0894,111.9445,81.3267,100.4318,426.2369,-30.2516,230.1006,-141.4953,13.9931,54.5676,289.5268,168.6707,300.7926,115.1836,12.1387,-28.3012,274.1067,43.0953
-196.3291,35.5788,83.2462,144.8481,67.1828,369.5645,6.6525,137.8711,-257.8687,-39.0154,74.5535,311.9405,172.6930,330.2703,60.8835,-50.1301,21.9594,269.1471,7.5342
-106.6222,75.1601,94.7492,169.7592,11.8115,271.9310,19.5358,59.9224,-352.9042,-48.8015,152.6348,264.8843,163.4323,335.6534,-0.7945,-57.9721,71.6374,226.9919,4.4456
20.9289,181.9936,151.5328,149.2907,-29.4970,180.1798,12.6807,32.2055,-338.7978,-53.5007,211.3293,216.3539,156.2894,322.4286,9.2537,-57.2533,76.2584,162.1163,0.5045
80.9025,204.1397,177.4695,108.6394,-47.3604,102.9770,1.7635,1.0753,-282.9814,-186.3752,230.0950,227.3458,162.9394,284.3731,49.8710,-85.7622,54.7613,100.1154,-23.2938
84.8037,155.9986,122.1353,57.1086,-49.9381,33.5717,-25.1116,-46.0425,-417.8557,-439.6688,192.7011,260.7990,166.1500,233.6122,36.8765,-122.9840,36.6261,76.7380,-65.1930
48.3492,135.2754,22.3298,25.6960,-20.4712,-10.5308,-43.0310,-69.7992,-706.1939,-587.4576,115.4275,252.8504,183.0228,208.3941,-8.7372,-161.9925,11.9673,111.6736,-103.6427
12.3216,150.2793,-25.2026,61.8041,68.6058,-13.9657,0.9535,-64.0780,-793.4959,-539.4152,103.6900,213.8653,249.9492,199.5354,-22.9071,-212.0869,5.1355,181.7286,-102.6554
55.8549,203.4610,39.1724,131.4440,187.3912,-11.7360,79.7100,-64.3329,-632.7449,-501.7251,168.5234,203.3255,298.8140,165.1033,-16.7649,-268.4393,49.8314,227.4906,-84.1126
137.5616,306.8818,135.3762,148.6099,246.4913,-41.0181,123.2914,-92.1349,-544.1602,-599.0062,171.6960,228.6585,236.0888,130.6413,-22.1002,-313.0039,95.6931,204.6441,-100.5774
136.6564,376.5354,120.6279,117.8638,199.4664,-43.1140,132.9929,-104.6776,-556.1824,-653.7463,92.4999,227.3743,135.7207,145.2242,-26.5613,-298.5684,84.1290,149.2755,-108.8611
68.6187,326.1228,3.1547,112.7500,110.7418,68.1720,144.9628,-36.1734,-426.9837,-515.4283,62.0603,176.3577,130.9970,172.1472,-18.6982,-207.2159,49.5533,141.5729,-39.0759
38.5413,222.7657,-66.5986,137.1376,67.8579,226.9372,164.0190,71.9451,-229.0027,-324.1398,98.7952,137.8032,188.6584,153.7324,4.2060,-133.0207,40.6653,170.1835,47.0119
60.8551,179.6802,-40.0622,131.1001,55.4986,271.4037,191.0091,99.1276,-184.5339,-274.5283,102.6402,140.0202,191.2759,117.7316,58.9773,-157.5318,30.4118,140.2177,60.3033
70.4471,176.8049,-25.3656,70.9576,-2.3795,186.0262,219.5301,43.8285,-183.2232,-314.5332,52.0800,133.4629,130.5607,115.8512,130.1769,-208.1757,-27.7769,45.1754,39.5853
20.2568,138.3470,-88.1574,-13.2455,-106.3029,91.3581,213.6477,4.3075,-46.1098,-268.5238,1.7873,110.7172,75.2621,131.0307,162.9307,-190.7799,-110.6842,-32.1575,31.4906
-60.8926,86.0630,-165.7933,-76.1128,-191.9771,18.6862,163.7717,-27.5192,101.6805,-141.8498,-9.3339,107.5109,49.4187,113.6732,135.9850,-121.5466,-153.2882,-85.7865,-22.9372
-91.4814,59.3034,-191.5364,-103.4220,-246.3349,-102.0558,105.7009,-125.4145,105.8749,-74.2406,19.1488,84.5198,18.1248,51.7380,74.0116,-45.6166,-170.2432,-170.7575,-157.0546
-68.9854,15.6919,-187.4323,-144.4076,-308.5255,-278.6750,52.0566,-255.7006,59.2083,-71.3585,34.7137,-7.4632,-44.0716,-31.2762,16.3220,5.6194,-245.3108,-278.2401,-293.5557
-69.5055,-41.9391,-203.9633,-235.0273,-374.5706,-441.6311,-4.9178,-337.3956,97.5117,-32.4244,-5.0525,-102.9629,-94.4034,-108.9183,15.6465,4.3733,-348.8443,-364.7420,-351.8908
-84.4124,-36.2537,-229.4024,-298.5908,-380.6003,-533.2906,-36.5928,-350.1707,189.0801,55.5527,-56.6441,-128.4885,-77.7231,-157.3112,81.3646,-3.5947,-348.3248,-401.4086,-329.7907
-71.5592,-0.9749,-219.6537,-244.4515,-291.7270,-534.2225,-25.8834,-294.1141,226.4086,158.4250,-82.2068,-122.7526,-28.0528,-156.3740,129.2242,49.8594,-251.5502,-360.9517,-278.3643
-88.9299,-29.3085,-189.7404,-128.0596,-172.3894,-468.2296,-21.8076,-198.0833,199.1106,267.7136,-111.6512,-136.7478,-8.2809,-121.8234,96.5752,119.8027,-195.9899,-278.2062,-254.3329
-144.3194,-68.1609,-186.9582,-73.4988,-117.5887,-391.4473,-47.7144,-140.2333,203.9435,343.6534,-142.4090,-150.3557,-2.1440,-107.1985,44.7100,140.2551,-207.6461,-239.9187,-265.9660
-137.3609,-52.0250,-201.6123,-102.3787,-119.7922,-327.2177,-35.3598,-123.4290,300.9717,390.9215,-146.6028,-142.2022,10.9991,-126.9993,49.2292,145.1867,-223.9536,-239.5938,-256.3554
-87.3996,-54.6997,-205.3474,-157.6295,-107.1786,-249.1643,44.2761,-59.2436,434.5378,503.0499,-157.6604,-127.4527,-11.6304,-126.6893,86.9997,159.8265,-249.5838,-217.6562,-182.6658
-87.1451,-84.1043,-219.9739,-206.6298,-100.1792,-152.3675,90.1491,41.5924,513.1164,645.4580,-188.6923,-123.9088,-74.8811,-78.8661,97.0153,154.4812,-290.0997,-214.4875,-93.3855
-77.8503,-44.1807,-261.7107,-244.2113,-170.7914,-84.7027,35.2902,55.9005,503.0196,654.5053,-193.4602,-136.4635,-131.0171,-33.8524,61.8078,135.6602,-311.6608,-268.5075,-75.9102
-15.8301,31.4475,-305.2835,-273.5211,-290.2886,-84.0691,-26.6733,-36.7030,445.5216,541.4926,-192.0888,-144.7789,-186.4217,-29.4291,5.1259,105.8722,-338.3387,-298.3465,-137.9013
-20.0366,56.5338,-335.0772,-290.3687,-381.8288,-114.7442,-14.1494,-114.8046,385.0718,453.2767,-230.7870,-118.4059,-255.1933,-37.5809,-39.0135,37.8616,-381.6818,-256.3331,-196.2234
-111.8631,59.1612,-336.2757,-255.9414,-426.3723,-106.9461,-1.2407,-104.3066,281.4411,405.5437,-246.2104,-79.9245,-269.9996,-35.5407,-61.4865,-19.8004,-359.5888,-204.9878,-196.8055
-172.1992,30.1440,-281.6548,-168.7811,-405.6572,-70.9706,-50.2348,-63.4403,131.4471,367.8333,-182.4573,-84.9449,-190.2493,-47.7065,-75.3403,-9.5373,-260.7575,-187.8748,-171.1659
-205.7150,-65.1054,-200.8268,-126.6472,-298.4225,-94.9915,-73.2668,-65.6343,107.3474,372.9560,-114.5442,-119.9969,-88.2217,-86.3446,-69.4175,2.6150,-189.5839,-202.9382,-143.5430
-257.3577,-96.4968,-157.0819,-164.8754,-166.0502,-186.0972,4.2184,-94.2886,252.3655,365.3192,-103.2909,-116.8143,-30.4661,-109.3550,-32.8179,-36.4121,-164.3334,-229.8474,-90.4865
-212.0662,11.4108,-139.3825,-157.1943,-75.2269,-231.7139,102.8058,-94.9108,256.2061,269.9387,-105.4249,-62.5317,1.6654,-75.0497,-14.7675,-59.8447,-114.9017,-203.3728,-26.2723
-11.8126,97.9618,-107.5262,-58.4693,-6.1652,-173.7599,120.9727,-63.7174,-12.7287,191.7894,-95.4373,-7.5499,27.3935,-11.4496,-59.0609,-35.3868,-58.8386,-113.8413,4.5717
168.0215,95.7403,-85.5524,-25.1253,46.3307,-76.9896,83.5324,-16.1021,-170.1429,235.2897,-104.7732,6.0926,20.0415,23.2803,-111.3735,-3.9768,-57.2240,-59.4673,33.1954
173.1173,105.2617,-89.9468,-117.6989,54.4596,17.0290,87.7327,64.0961,18.0014,315.4130,-131.8969,-27.2878,-15.5597,36.0242,-86.3391,40.6962,-83.5793,-40.5193,121.2397
70.8618,93.1514,-79.7032,-177.1344,74.4165,143.5449,171.9152,165.3839,232.1585,342.7425,-133.5685,-71.0670,-6.7801,72.7689,13.2017,110.8635,-81.5928,61.5412,230.4494
8.2121,23.1840,-42.7663,-131.7689,163.8250,283.9253,277.5447,220.5103,229.9131,330.3846,-89.8576,-64.3009,79.1473,115.6252,105.4677,156.0942,-48.6776,197.9793,275.0739
34.1770,40.3380,1.7090,-105.2164,239.5680,329.5432,322.0446,194.7737,192.5904,283.0023,-23.3999,-3.7007,147.3246,109.8689,127.2665,148.7925,-7.3720,187.4295,247.9610
96.7736,133.3830,65.1586,-144.0254,206.1628,235.2703,279.4917,122.3070,245.4715,217.8755,29.3397,35.3330,97.3154,64.3539,92.9249,117.7608,23.2312,55.6768,184.9776
131.1352,118.7230,130.2606,-141.0488,99.6724,105.4143,181.2897,56.6778,262.2687,205.8247,45.5380,12.9562,-18.3509,26.3528,59.9414,92.8692,24.9092,-5.9176,98.4964
101.9369,81.0483,128.6314,-59.2497,-2.5347,48.5830,78.7169,45.0002,183.1867,256.5871,23.3725,-24.6983,-84.0459,2.3334,52.5134,89.3485,-6.7869,37.3785,24.7283
7.5632,184.7893,68.6668,5.1576,-67.5393,20.8412,17.4722,79.1859,98.0634,294.4023,-7.4826,-45.0058,-87.0135,-29.0599,51.1915,83.1391,-44.3288,60.2837,15.3584
-72.5276,245.4418,44.9914,-10.3698,-90.0861,-81.5832,-3.9684,56.5020,77.8425,262.6477,2.0486,-63.8476,-69.2905,-80.7627,35.7053,25.5050,-40.0232,4.9815,31.3333
-26.7754,114.0737,77.4664,-55.0861,-96.1045,-233.2142,-35.7971,-83.3650,103.7655,167.5563,45.0709,-70.9786,-36.6622,-147.2943,-5.8059,-56.5273,17.1046,-65.2746,-10.4116
96.8083,28.5598,92.4506,-61.1274,-103.1220,-306.8969,-80.8881,-220.5284,97.4401,78.5529,50.1152,-42.4714,-3.3446,-177.9982,-66.1571,-87.9785,75.5616,-78.6246,-69.2458
128.8872,123.0069,56.8027,-38.9119,-74.3020,-247.2818,-72.3481,-213.5146,28.2259,82.4019,-0.1248,-3.6279,3.4782,-112.4467,-101.8783,-72.7865,87.3124,-40.9059,-45.0345
56.3456,190.4978,-2.0455,-38.2796,-15.8161,-119.1224,-4.6354,-113.2430,-28.8040,174.7059,-48.5846,19.7778,-6.2400,10.7607,-85.7263,-50.8032,54.8516,-12.7019,16.0254
4.1700,155.4602,-57.6799,-54.4352,-16.5674,-17.4710,40.0537,-53.6492,-12.0040,268.9238,-72.9220,41.7854,-32.7662,76.8055,-42.1635,-17.1013,3.0500,-17.5484,8.2916
-10.3295,169.0117,-79.8800,-42.4588,-89.1927,22.4134,37.3800,-34.5984,77.4205,316.5232,-81.9836,51.3143,-97.4899,57.2632,7.0167,16.5596,-28.5247,-18.0515,-18.5443
-31.2179,229.1049,-52.6147,3.3006,-134.8273,38.3031,42.4108,20.3979,237.2965,322.0897,-67.9732,23.5210,-153.1208,36.9460,48.1739,24.5476,-3.4296,11.2314,17.3472
-17.9699,217.8089,-18.9088,54.4365,-115.4233,58.6265,60.6123,81.5552,367.9850,286.4423,-62.2580,-0.4776,-135.3229,64.3030,46.9690,35.8639,51.0261,42.8496,37.7556
49.9080,182.8769,-4.3420,90.1052,-86.3590,50.3246,46.6891,53.6792,274.6205,201.6196,-94.1267,20.6635,-88.7259,86.0866,16.5857,66.2948,85.8981,37.9684,-24.4010
108.8944,226.2870,44.9472,96.6912,-72.8031,7.0279,9.8425,-44.9236,-11.1870,71.3836,-93.2367,40.3011,-77.0445,47.0132,21.4746,77.8092,106.4161,7.5874,-74.2732
122.4525,300.3020,133.8629,80.1603,-54.3366,-12.1309,4.3578,-92.7166,-194.0133,-52.6285,-19.2782,21.7337,-58.5584,-22.7871,53.0930,71.6571,103.8408,7.4696,-49.2884
107.6278,320.6766,169.5352,57.6083,-19.2683,-4.2010,51.7733,-45.4584,-138.2523,-85.4879,40.7449,14.1050,12.1516,-44.1270,61.9261,84.1090,43.0980,36.8802,-8.2877
93.8450,295.2269,131.2506,-2.0655,24.7564,-39.5398,120.7362,19.6177,-4.9560,-26.5437,43.6345,44.1931,85.9961,9.8203,73.9734,112.8847,-25.8204,10.4176,21.1855
95.6312,244.1385,81.8035,-136.3680,34.9838,-117.5289,138.4862,37.8269,37.6590,31.4728,23.7440,65.3964,102.4092,73.4058,93.3432,142.0943,-44.7413,-89.3832,33.8687
69.4739,167.1983,5.3979,-285.5472,-25.9803,-163.8052,57.5359,23.5455,-40.4119,35.7565,-40.9024,51.7652,64.8269,67.2716,48.8718,150.1000,-68.5221,-159.6252,-10.1917
-2.5063,117.8937,-109.6359,-369.2250,-94.2309,-157.8432,-42.7292,7.8252,-170.3488,-21.3488,-126.6359,22.0952,20.3764,-14.9614,-26.5189,105.4392,-108.9070,-158.6579,-52.8979
-21.6270,141.2088,-146.6201,-412.2871,-77.6498,-126.3139,-31.8545,1.7514,-207.0732,-126.8716,-109.0478,-15.2830,9.5707,-128.9863,-14.8784,52.2273,-80.2054,-156.6096,15.4642
33.3468,162.1619,-80.4265,-456.8900,-23.6285,-71.5837,63.9852,17.7832,-74.8728,-157.1971,-16.7409,-54.8350,10.0609,-230.2127,56.8743,69.7862,-26.8004,-167.2241,120.3234
15.0611,105.7557,-74.0236,-468.0425,-39.8862,2.1097,102.0673,67.7115,86.7290,-14.3093,-18.7515,-75.1713,-29.4194,-270.4736,80.3378,114.1798,-66.9468,-137.6853,120.9541
-87.1763,40.9205,-159.0611,-428.3316,-96.7748,69.2318,67.3754,138.8514,110.3828,136.5194,-99.0044,-68.9445,-74.8934,-230.7218,66.5924,102.2280,-125.3875,-77.9535,74.0031
-104.3809,44.0395,-175.6630,-371.3626,-98.3740,120.4849,54.9000,195.6657,56.2442,114.2617,-116.0841,-46.3685,-54.7812,-177.2073,62.3789,77.3189,-81.9156,-21.5394,77.3903
-41.9004,80.0320,-104.4510,-286.2869,-68.7291,154.3075,54.5882,208.8123,68.8934,36.0738,-77.5854,-13.2197,-11.5836,-186.2262,47.8836,90.8482,-5.9230,47.7211,65.6605
-35.9757,133.2966,-61.8732,-150.6715,-88.5520,152.1897,2.9155,179.5136,90.8727,24.9543,-53.1707,19.4497,-29.6555,-231.2945,25.9517,91.9321,30.2534,119.0696,-12.2390
-43.2175,224.0432,-42.9983,-26.5950,-138.6549,111.9990,-43.2104,133.2404,-14.7872,-25.7248,-42.0211,30.5721,-74.5204,-245.4553,17.8555,61.7273,71.1709,137.7324,-73.9841
14.7555,269.0957,-8.3342,13.0199,-147.5767,68.8407,-12.1409,98.9449,-142.3819,-117.1288,-53.9719,14.4159,-71.7941,-226.3883,2.1773,47.4269,98.9809,103.6685,-70.9059
47.9117,196.5426,-8.7728,-17.9553,-109.3207,44.5864,41.9167,91.8363,-92.0109,-81.3590,-80.3452,-15.3432,-34.9200,-194.2562,-13.6314,49.8505,57.3844,69.4853,-49.3017
17.9318,119.5644,-20.9512,-68.1764,-60.3257,11.2963,62.4455,97.1512,28.7058,27.8969,-56.6689,-45.4017,-3.2537,-151.2037,-0.2038,50.2367,7.0678,60.6992,-43.7068
28.6327,155.3929,47.1908,-93.8657,-12.3597,-43.8067,78.6375,95.3504,-13.0189,23.1405,-1.7892,-59.1646,13.5841,-125.3309,1.2115,59.4140,25.9001,78.0793,-36.5500
98.2341,242.2030,151.2486,-46.5302,35.5580,-51.9334,104.0405,111.3616,-114.1828,-21.8180,15.5484,-30.0002,1.5123,-137.0943,-36.5720,56.4487,102.8357,127.4124,14.0714
149.0266,291.7621,187.3437,65.6130,71.1749,43.7907,121.3614,164.4551,-62.3176,32.0392,29.5840,36.6215,-27.2673,-145.6100,-51.0572,15.4301,196.0301,192.6146,107.0670
166.0797,308.6866,160.0715,137.5385,80.1984,166.5186,131.8081,193.2410,21.6353,60.0088,65.1416,71.9227,-23.1183,-127.4488,-25.1724,-23.5883,234.9718,221.9425,151.8352
167.8498,299.4378,106.6745,102.0836,58.3589,206.5125,108.0935,158.2370,-21.7718,-32.8597,65.0636,27.1084,9.6674,-112.9318,-20.2179,-25.5923,167.7372,186.5148,101.7803
154.9385,250.6449,52.9189,38.2809,17.7307,181.4654,30.8832,142.4844,-46.8682,-66.6386,60.2567,-31.5549,18.8378,-93.6715,-37.9033,-14.6143,85.7016,129.6730,63.2651
147.0258,189.3160,56.0801,41.8697,-12.5674,162.4730,-18.3339,198.6110,32.9617,37.6820,112.1580,-11.8228,7.6701,-41.4838,-35.5531,-12.4125,99.9503,103.1464,114.9962
151.6280,173.9919,101.8710,84.9730,-8.9918,145.9317,22.5044,244.5487,64.7010,80.8867,134.0205,56.9764,11.7500,-1.3196,-27.8921,-26.4763,153.8645,88.1183,184.2216
143.1575,243.0033,94.1878,104.6275,28.7289,111.6643,87.6266,246.7057,49.2008,6.1664,74.4666,84.1436,23.8058,-11.6189,-39.5652,-62.8882,163.7896,62.7974,224.9253
116.6880,346.9943,50.2078,116.9194,85.2276,81.6465,129.4038,286.9492,106.7905,1.4634,55.7781,62.0414,32.0293,-25.6496,-52.4625,-87.5862,160.0661,69.9542,278.4711
86.3631,372.1406,76.0783,154.8580,133.4050,61.8011,164.6106,356.6790,94.8863,62.7185,120.4238,39.0900,51.2800,-25.7696,-54.4479,-67.1506,163.4507,114.3218,313.1132
68.4585,319.1040,158.4213,204.5135,154.0966,37.7414,154.3583,341.6449,-116.3938,0.9331,164.8679,34.9596,86.0451,-56.3096,-50.6082,-38.2611,156.0038,128.1412,263.0176
90.4740,304.3682,216.3812,249.9988,178.9564,20.5933,95.9188,249.1242,-249.0757,-101.5299,178.0908,52.5307,142.3462,-90.6162,-32.9020,-28.3916,167.0991,115.6868,189.2006
130.7817,310.8499,255.4364,280.2186,255.4453,24.0822,110.3574,212.0529,-54.7999,-15.2689,217.6977,80.4547,234.3677,-53.1654,11.6435,5.5054,193.8009,142.5320,193.1588
116.9385,228.1540,299.1786,265.8065,350.9392,46.5505,216.7276,277.5510,232.6749,164.8265,243.0294,80.5628,319.3008,34.7994,77.8282,69.6836,171.9208,178.3535,267.3190
63.6556,135.1126,318.8337,214.0929,385.6795,98.4298,273.3519,366.8169,292.7765,212.2324,213.4772,54.0884,319.9503,94.1572,128.9977,105.7325,119.4207,168.9852,343.7366
61.2317,167.7100,304.5273,179.3845,358.6407,190.8392,250.2997,408.1656,163.4880,179.7855,176.8493,54.5966,245.5575,111.8496,129.7927,116.7299,103.4311,173.2558,373.7445
100.7305,230.3391,273.5432,174.2011,328.8961,303.7108,235.5855,403.5218,44.7328,184.1093,157.3707,83.1833,185.4866,120.1682,111.9681,158.3329,95.3474,229.8670,338.7565
102.9803,196.7893,222.8941,170.0451,306.2176,393.1169,215.3992,386.4373,-2.0779,160.0188,136.8968,81.5847,181.8204,134.0217,130.6682,208.6779,59.6200,259.4446,269.1190
79.5371,143.2862,156.4280,173.4256,267.3717,425.9704,149.7853,364.0500,-22.1375,100.1250,122.9669,44.9903,196.2609,151.3656,162.5625,210.2374,55.9253,225.8623,213.2363
83.2403,128.1064,100.0965,197.5805,219.4993,412.5005,94.9297,319.7973,-34.1944,110.3430,111.6079,21.3203,186.2078,155.1696,162.6693,190.6816,109.1311,187.3833,171.8665
90.4572,91.3736,61.9064,222.8041,173.7494,380.0163,70.3600,263.3808,-10.8358,161.2027,80.7708,16.8319,156.6006,131.7875,153.6461,198.8738,153.0544,161.9367,129.5597
67.6906,77.2291,34.4137,254.6143,132.2432,312.9607,39.8999,224.6660,36.9326,159.1102,60.5640,8.4211,144.3954,105.3157,148.9311,208.6168,168.3480,131.6521,98.0160
49.0423,178.1686,29.7016,319.6581,116.6185,192.6284,27.9111,196.3548,25.9590,135.2687,94.5239,12.5029,166.4619,99.2509,117.3044,187.9213,204.4912,111.4521,68.6649
66.5581,299.6512,64.1259,382.8977,127.9413,65.7353,33.4043,144.1219,-58.8692,119.5830,150.7123,54.3102,193.2903,95.6266,76.7996,147.7283,259.6201,87.3605,15.5163
90.6923,302.2645,106.4735,383.5658,116.5351,-25.7477,-17.7459,67.2624,-104.8445,72.1213,160.5067,105.8542,191.9434,92.0641,65.9392,84.6062,278.7733,17.8540,-35.7762
80.4448,236.6389,88.2238,336.2786,61.3458,-107.4193,-105.0972,-3.7094,-80.1645,12.9874,114.2067,127.2440,166.7657,115.8281,54.8110,3.8404,255.8646,-64.7102,-48.6841
44.4917,219.5220,9.5825,297.7051,11.1534,-194.1741,-135.2549,-59.2196,-105.5718,-29.8402,72.3803,133.9427,131.6257,140.4724,20.0024,-45.4039,238.1441,-100.4973,-51.4056
31.4646,246.8732,-27.5609,270.0347,7.2173,-255.6337,-125.1267,-111.8552,-210.8239,-108.6466,86.8475,153.2257,88.1988,120.9165,-2.5166,-62.0483,242.3273,-104.4127,-64.8606
67.7736,243.3536,29.5744,220.2096,38.6876,-256.2772,-126.2256,-133.4785,-276.9167,-208.1664,128.6909,162.8379,53.9421,119.4288,-7.0362,-83.7305,241.3664,-96.4289,-27.7268
124.6031,185.1566,104.0861,166.8465,85.0555,-146.5168,-89.6345,-54.6949,-252.5660,-203.1772,134.5837,147.1179,58.3838,220.4323,-15.8280,-59.1073,228.6618,-37.7361,106.6129
164.6575,138.1452,137.1760,159.7221,142.0273,74.9403,17.2639,108.0900,-172.2038,-71.0583,104.4049,140.1219,93.9760,346.8256,-8.9659,46.2069,219.0908,60.5637,274.6179
186.2700,165.2801,158.9123,164.4629,200.0233,262.7184,124.2740,210.4723,-40.5791,40.8078,75.3637,148.9518,114.9616,363.2739,18.3621,97.4043,193.3171,88.9908,376.5066
182.7563,190.3835,165.0063,80.8636,228.0715,271.7916,167.4705,166.2422,93.1775,12.2721,40.4563,134.8267,98.8654,295.4693,21.9577,9.1158,127.3567,-12.5521,379.7770
112.4511,91.9245,114.3084,-77.4501,203.9190,156.1341,151.0437,59.6495,121.6195,-98.1951,-17.0303,94.8972,77.7887,245.4227,-3.9697,-76.6699,56.1994,-154.4363,316.6787
-28.9536,-64.0969,46.8985,-168.6902,161.5370,53.9955,105.5690,-12.8052,61.3191,-147.1817,-66.9824,52.9121,89.0741,206.1005,-22.7767,-58.5157,25.1969,-215.1554,238.1977
-161.0792,-112.1209,26.7419,-145.4535,153.8688,6.0066,52.1058,-52.5900,35.5192,-120.4005,-81.9915,8.5145,116.9555,136.8867,-26.1543,-40.8198,24.2063,-194.2718,176.9180
-208.1224,-66.8767,27.2962,-111.3693,160.5226,-10.1711,-12.6697,-75.3222,53.2877,-147.7573,-79.7990,-16.5462,118.0797,69.9091,-20.2975,-102.1992,30.4405,-177.7342,122.3290
-184.0768,-57.0801,6.6920,-115.2181,124.5037,-19.7777,-81.6202,-85.3540,26.5728,-267.4253,-79.8576,15.5790,86.7078,29.2514,-9.4685,-191.3636,49.3593,-194.4784,56.1171
-145.2034,-81.1051,-5.3849,-87.4539,65.8730,-46.1785,-108.2509,-106.7600,-23.3745,-344.4583,-74.5396,74.5284,46.3295,5.0235,-14.2947,-251.5772,82.6709,-201.1416,1.9827
-116.1501,-61.2134,21.5070,-4.8616,34.1726,-83.6016,-87.9903,-138.2326,9.2880,-296.9631,-59.0878,105.2340,2.2632,11.4495,-27.1424,-240.4059,117.2193,-192.2262,-25.8264
-92.0511,0.9021,60.2135,57.8898,1.9785,-131.5817,-91.9081,-174.5438,94.9632,-216.9370,-52.9319,107.1852,-43.9765,26.4431,-8.0713,-154.1761,144.9657,-212.0051,-76.3250
-67.2444,75.2407,78.9134,55.9006,-56.5245,-212.2497,-138.2400,-253.8717,93.1082,-197.3819,-72.0389,86.2134,-72.2825,-21.0343,24.9978,-95.7495,163.8573,-249.9207,-164.0196
-49.8666,151.3713,86.8570,33.0657,-76.8082,-270.5360,-155.5613,-343.4718,34.1159,-195.6372,-93.3717,44.1882,-80.9764,-110.5428,16.0666,-125.5543,174.5800,-238.1694,-199.1390
-56.7011,180.1510,101.5650,34.5307,-25.9450,-217.2976,-127.5282,-320.3175,91.0680,-129.2204,-86.2050,16.4173,-96.6622,-146.8368,-23.1844,-137.5300,164.6912,-166.3739,-130.4104
-80.2027,114.2979,94.0171,35.2406,5.9938,-100.3540,-127.3688,-182.6069,219.7543,-3.0195,-75.1184,-3.2241,-125.2117,-114.8199,-43.1326,-49.1239,100.1561,-93.2515,-45.2747
-88.3397,-6.8553,15.4618,4.5502,-50.8008,-21.2101,-171.5524,-59.4382,244.8251,127.7429,-106.1264,-59.9971,-145.5240,-49.1950,-28.8554,81.6704,-9.4526,-49.8486,-20.6065
-75.4866,-107.0347,-106.0840,-26.4214,-127.1507,25.5391,-169.1722,3.2966,270.0575,236.1156,-158.2658,-105.9338,-144.5664,36.5294,21.0597,187.0790,-80.4316,-38.8989,-10.8242
-57.4606,-153.1760,-177.4481,-51.7661,-128.0621,40.6356,-71.7755,23.2450,436.5121,270.4476,-166.6567,-80.1122,-116.1156,85.4487,83.8731,228.8908,-73.6635,-92.4231,27.6190
-26.0490,-153.0893,-174.7298,-134.1496,-71.8129,-35.2359,16.3362,-31.6090,510.2506,161.6330,-116.5642,-60.5928,-63.9710,55.1109,95.8706,189.3268,-57.3686,-203.8813,44.4995
19.8272,-128.1477,-157.6841,-244.3183,-39.9454,-152.6368,-22.7666,-133.8985,344.4407,3.8459,-54.6607,-100.0716,-28.3077,32.7986,51.2971,148.7064,-73.3887,-267.7777,-5.6953
45.6208,-85.8362,-144.2498,-242.9941,-49.4461,-189.5577,-138.2642,-180.9567,230.9274,-15.5427,-30.3195,-100.4913,-44.5991,85.8004,20.6679,185.2674,-70.9841,-220.9194,-92.5270
40.0599,-17.1559,-100.8431,-129.0471,-58.2796,-153.4949,-217.6109,-174.6912,268.5429,49.4781,-46.0081,-33.6027,-81.2575,130.6070,8.6785,218.6915,-33.4027,-151.7083,-169.9435
29.6326,50.9701,-46.6817,-51.3656,-69.2938,-129.0544,-283.2556,-187.0040,178.5144,7.1292,-53.6949,-3.2259,-95.7684,111.4564,-43.0837,169.6451,-20.7122,-147.2267,-224.2898
27.5197,62.5520,-41.6998,-34.0569,-122.7332,-125.9533,-388.4065,-195.7669,-21.2680,-70.8646,-25.4124,-12.3450,-113.5766,94.3949,-110.8833,106.7752,-48.0148,-155.7288,-252.8265
37.6194,30.5231,-78.4374,16.8050,-184.7921,-110.7340,-451.7966,-150.9160,-78.4207,-11.2880,-0.9345,33.5121,-159.8925,115.9286,-127.8994,76.1676,-55.6647,-104.7415,-243.3647
61.5054,32.3118,-78.0667,85.6464,-166.3608,-76.2014,-393.5009,-80.0201,-65.0789,83.9566,-3.3135,123.8308,-181.3635,149.1673,-110.5426,37.7826,-14.8733,-24.1595,-191.4600
75.2361,87.3169,-2.8078,105.2688,-73.7052,-48.7345,-284.1826,-32.2435,-100.4303,59.7829,13.5061,171.8786,-140.8484,179.1890,-102.4699,6.9712,40.8452,24.6321,-131.7327
74.7078,141.9153,81.6969,115.9524,-18.7024,-57.2099,-224.3182,-26.8022,-75.6942,-1.6242,59.3120,149.1539,-105.7846,179.5508,-92.4051,10.1642,82.7908,42.4979,-111.4264
94.4492,169.8552,93.4295,167.6232,-53.6541,-51.5963,-206.8067,-28.2330,-23.1467,13.6165,74.4729,86.5863,-132.9136,132.9952,-62.7592,0.4995,107.5660,76.2515,-106.0616
125.3586,194.7638,51.7484,220.5662,-107.5868,46.7815,-155.5648,45.5338,-14.3560,100.1811,51.5268,37.0171,-162.1314,91.3188,-18.7261,-18.6813,106.9289,146.7773,-43.1889
135.0615,226.2791,38.1117,231.3686,-111.0668,162.3189,-43.8094,171.3680,106.0651,218.1455,44.2269,31.6424,-132.0003,85.7279,30.4698,13.6943,80.3031,201.8644,48.5242
151.5186,241.0328,65.7034,200.3844,-83.2357,150.8140,36.4247,193.0282,245.0715,266.9445,56.2082,42.9656,-92.6622,75.7410,59.6136,60.3927,57.4743,176.1119,48.0821
173.3575,224.7798,79.0162,143.1081,-63.9480,55.5221,-8.3091,80.5304,69.4908,169.4918,55.9463,46.2723,-100.7213,63.4539,55.1812,49.9311,53.3799,97.7158,-57.5486
124.1605,190.7502,52.8851,95.1675,-46.2455,2.3471,-96.7483,-21.6704,-223.5685,52.4278,49.9843,58.4153,-109.8398,90.3715,50.3609,22.9274,36.3844,43.8578,-152.3422
27.6616,149.6109,11.5358,90.4149,-12.6803,-41.8285,-94.1676,-73.0768,-190.6607,38.0925,50.9113,74.9871,-59.2546,123.9073,59.8879,28.2536,-0.1342,18.0147,-185.3285
10.4804,109.9783,-13.2644,117.1800,27.2336,-141.3441,-44.3130,-149.8117,-5.0379,24.3334,54.4958,80.2199,17.8074,113.8611,50.0793,19.6248,-2.9644,-10.0880,-200.2743
73.9397,111.3124,-8.5917,135.9543,53.8766,-223.4787,-57.8342,-218.8899,-32.7325,-55.1198,66.4805,90.1038,45.3738,86.2635,19.6791,-26.9604,33.9640,-23.9322,-202.8812
111.3355,164.4937,-7.9378,113.1484,41.8433,-224.5426,-113.2958,-202.9413,-135.9484,-91.9335,72.8490,90.4837,9.7052,73.2856,7.0852,-50.2072,29.9403,-28.5666,-171.5005
102.5992,175.3411,-59.6649,44.9211,-25.5181,-187.3574,-147.5638,-141.3069,-92.8377,-55.7352,43.0764,44.3512,-28.6667,63.2116,18.1851,-14.5761,-41.4092,-67.7359,-131.8437
83.1684,76.2804,-126.2019,-23.1817,-102.5016,-152.7810,-157.1234,-97.2984,1.5933,-22.2135,9.0229,-10.6358,-14.9507,52.6687,28.3197,28.7183,-98.3058,-111.5126,-110.8642
58.7998,-13.8587,-111.1866,-45.5165,-113.6850,-135.4286,-142.0702,-83.9852,34.8457,1.9785,26.3536,-17.6893,28.6639,46.4272,13.7306,13.9568,-92.3790,-88.2829,-109.1269
62.8313,47.7926,-19.2156,-32.7748,-65.0989,-154.7755,-105.9295,-108.1184,42.8855,45.9720,63.9293,1.9116,40.9215,29.7693,-30.1104,-56.0105,-64.0725,-26.4021,-129.9528
117.0465,187.4765,42.4185,-9.6931,-26.8324,-181.3847,-66.4407,-121.0872,90.9428,125.2093,58.3256,11.3490,10.4381,0.4498,-54.3854,-119.6001,-44.1948,-5.7737,-137.3527
139.5268,225.7505,28.0946,13.8974,-27.1389,-160.4986,-18.8029,-41.5577,173.8860,250.5782,16.4184,2.3488,-35.4859,-17.3931,-15.9419,-145.5735,-39.1062,-23.2691,-65.9473
60.6930,126.9027,-15.8797,7.0344,-59.6136,-106.3870,20.3797,92.5555,207.2602,356.4163,-31.4277,-36.7510,-88.8500,-9.4513,32.3211,-162.7024,-79.0929,-30.9704,61.1332
-55.7027,-2.9723,-63.8164,-54.6580,-116.5708,-66.1251,21.7218,180.2948,213.6767,373.5934,-77.7178,-89.1159,-129.2310,6.3073,40.7037,-185.9164,-168.9270,-32.6816,152.3793
-123.0291,-66.3445,-136.9793,-147.5058,-153.7133,-50.2740,27.4325,209.7509,282.5020,342.7609,-103.8487,-121.7819,-109.9070,-6.9801,52.9778,-204.6595,-263.3868,-58.6987,172.2333
-143.4095,-50.0256,-238.9931,-232.3184,-132.1164,-62.0934,55.5428,187.3752,262.0378,265.0624,-105.9032,-148.6133,-41.7972,-59.6908,77.6702,-253.6089,-335.9863,-92.3983,127.9100
-147.3056,-9.1376,-322.8107,-253.2457,-80.9965,-94.5629,44.1339,100.3310,101.5242,111.0106,-112.6162,-159.5968,13.3387,-110.8381,71.8403,-366.3894,-361.8179,-74.9683,36.5012
-124.1041,19.4642,-319.3195,-148.7895,-24.6325,-106.5513,28.1132,15.1772,183.8017,36.6267,-107.7865,-100.3210,48.0815,-126.3852,80.3512,-472.7394,-278.0293,-0.7623,-45.6600
-54.7379,69.7056,-218.2980,32.1873,38.8801,-99.1499,68.1472,-30.1482,480.2870,126.2974,-47.2684,-17.9479,79.1186,-128.5931,127.9545,-492.0400,-99.5882,40.7391,-107.8238
35.4864,154.7226,-94.6088,155.8546,54.9688,-122.4160,30.8383,-130.0340,352.9297,118.0308,36.2761,-5.3768,65.3355,-138.3772,99.2465,-478.0101,45.3988,5.9465,-217.8406
100.7461,204.6338,14.1207,208.9333,-2.1073,-143.2725,-152.9648,-283.2830,-109.5672,-111.1534,94.6610,-5.5232,-7.4077,-128.6807,-24.4388,-505.8849,113.0059,-6.6747,-345.5103
143.1847,187.4475,161.8408,279.6484,-34.0606,-83.0987,-279.7588,-340.6951,-182.0641,-274.2815,162.2930,58.7256,-63.9827,-88.8007,-86.1047,-512.8027,188.9870,59.1717,-379.0094
199.0002,184.0142,328.2670,351.3852,-5.7806,-3.3743,-276.7649,-314.9570,-26.5194,-254.5137,243.1877,97.8693,-66.9825,-69.8128,-54.6173,-432.0550,279.7675,93.4754,-358.5124
262.1496,250.3676,374.6865,345.3098,-25.5924,-22.6526,-313.9919,-355.9217,-170.9387,-265.4070,245.6381,44.0766,-69.8385,-104.0557,-42.3446,-349.1102,297.8671,38.7501,-387.2903
292.1143,306.4474,275.6669,286.2148,-96.7774,-90.5826,-372.7191,-429.8228,-246.8206,-327.2049,154.9979,-5.5872,-98.4822,-131.3615,-48.9225,-335.7059,253.9666,11.8998,-414.9220
273.4942,251.6720,177.8177,241.0168,-93.9968,-92.6176,-323.4021,-421.8964,-26.2155,-296.1588,80.4723,13.3631,-126.3994,-86.7991,-35.6742,-299.7364,230.4836,72.0088,-394.5179
218.1735,125.8207,162.8801,213.2854,-29.8876,-68.5211,-284.4754,-382.9105,-104.6688,-234.0524,64.6007,40.4758,-152.9947,-21.5311,-61.4150,-173.0299,226.4404,118.5168,-388.2683
152.2195,53.8807,175.5765,187.8042,-13.4414,-92.8507,-341.9222,-352.4926,-449.3383,-204.7744,53.6835,29.2968,-178.4778,-23.2876,-112.1453,-50.4559,197.9173,99.4629,-350.6522
102.9191,57.0906,169.8347,156.1455,-17.4149,-101.9440,-319.3589,-235.0720,-345.3008,-102.2487,45.2046,-11.9772,-156.2702,-64.9972,-84.0743,-8.7969,143.9700,87.7972,-183.7067
63.9398,49.8964,136.5058,106.0276,36.1967,-26.9490,-164.2097,-37.6580,64.3772,54.0888,63.6331,-63.0944,-60.9719,-71.4735,9.3590,7.4585,80.7127,136.3051,7.4820
23.6964,16.7547,77.1714,68.2860,120.4132,71.9111,-32.5580,99.7534,172.1619,124.0935,66.5064,-86.2546,61.0994,-56.1618,86.7017,47.9288,42.8784,219.1357,88.8428
15.0468,22.7890,47.1968,92.9162,192.6778,108.9610,49.9684,139.5234,101.2402,132.4902,32.7268,-61.8968,155.4684,-53.3889,141.5783,88.8664,70.7404,281.2202,121.4845
50.3073,60.5014,79.3083,151.2118,256.4470,81.9392,144.7372,143.8987,126.0518,164.3525,18.0805,-21.9062,221.4317,-35.6009,177.7284,111.8232,119.9011,278.6414,162.9630
76.5295,60.3882,92.6031,168.7279,307.3579,64.8486,226.7145,151.5515,123.2269,189.2292,34.2296,2.1773,289.1198,8.5831,196.3845,124.6640,110.3745,222.9274,186.2179
65.9133,10.5506,36.6721,132.5034,348.2597,141.2411,303.5662,212.2692,120.6547,202.4741,27.7466,0.9141,356.8431,57.2217,242.4852,144.5549,64.5845,168.8107,249.6441
43.1095,-63.2059,-14.9723,76.5094,380.6861,295.2118,398.8347,354.2446,224.2062,258.0435,-5.4522,-27.8674,379.3051,120.6493,301.1366,192.9423,37.0265,132.8168,381.2701
22.2499,-139.5763,-27.7003,18.8606,356.1338,412.4085,441.0428,479.2080,263.6628,313.3472,-31.8225,-57.1751,341.3754,186.6751,301.8231,241.5015,4.7610,93.6961,439.4270
26.0742,-166.2541,-46.9272,-25.4710,264.0240,436.8866,410.6874,473.1899,193.3845,275.7133,-50.2994,-58.5151,300.8925,189.1612,266.9911,223.1246,-29.5732,56.2616,358.7882
82.1817,-110.2757,-49.1990,-25.8848,195.4957,407.8506,371.4299,366.3374,152.8270,155.6655,-46.2937,-50.8806,307.5977,133.7698,241.3134,158.2634,4.7090,45.1896,256.1996
138.5935,-29.5425,22.7234,36.3824,212.2039,355.5269,305.9402,260.9699,90.9023,49.0670,11.6315,-43.4045,338.0744,115.8253,184.0726,145.8326,106.2056,79.4164,197.4120
130.2223,11.2595,130.4143,140.2070,276.3431,301.4315,203.3350,198.2343,-17.7791,20.1014,83.8472,-5.8254,354.1395,168.9198,104.7217,198.6987,197.2249,156.6848,163.8014
107.3608,20.1739,200.0427,220.3559,339.9784,261.8726,151.4106,154.6059,-39.3694,35.9658,99.7719,43.3565,349.0726,225.1961,85.9383,235.0889,241.0398,209.7891,168.5074
133.8030,22.9425,199.7376,212.0973,372.8980,176.8266,153.6623,100.3170,-19.7962,25.2669,64.1087,43.2140,318.2975,217.9274,116.3923,223.4610,231.1211,163.9698,184.8479
157.6988,25.3874,122.9450,136.8829,349.1399,15.2174,128.5367,45.8784,-57.3713,-8.3850,19.1732,4.2125,266.4545,152.3367,132.9381,205.7153,173.0176,75.1397,150.3842
119.4438,24.0243,26.2772,96.8506,292.6592,-101.8894,91.9310,30.5250,-68.3654,-19.8089,-11.9978,-8.9738,231.0301,94.6462,145.2243,206.6772,128.5668,59.9813,101.0347
53.0582,-2.8777,9.4271,133.5845,249.4945,-94.2846,80.7441,57.1366,-59.7272,-25.5422,4.1750,14.6870,232.1156,87.1635,159.4704,204.5015,133.4432,101.0742,88.7663
5.7661,-56.6165,67.8461,171.5088,205.8424,-60.1289,56.7225,86.2687,-103.2081,-41.6962,76.3962,34.5610,238.0861,93.3224,148.3008,172.6102,124.2207,96.5194,64.5601
-22.1845,-77.8111,104.4253,159.5639,128.8884,-63.4821,21.4105,92.7145,-87.3098,-20.7979,137.6475,27.8715,221.9331,83.2653,133.1353,127.1800,71.5882,37.0974,0.2982
-39.5838,-27.6970,89.0162,148.3642,37.8962,-43.7310,15.0156,83.1221,3.7015,42.3076,136.3014,7.0515,195.2533,88.2814,134.1503,119.2020,39.7408,-16.5046,-48.3003
-42.0646,44.3095,56.4926,161.8102,-38.5136,14.2127,27.6670,83.3936,13.5589,86.2951,104.7043,-7.1623,166.9618,110.7031,120.2634,154.9118,45.1122,-41.3124,-56.5595
-24.3776,77.5902,27.1725,145.0590,-104.8723,67.7050,40.8322,106.0306,-13.6573,89.9219,85.7426,-12.4424,126.2042,110.7774,89.7817,172.0114,39.3149,-47.2703,-55.2856
7.9117,72.3025,28.6933,95.8336,-154.3852,111.9559,32.4760,106.5372,0.5149,60.7107,94.9672,-16.0241,81.1580,89.9906,62.9400,136.7823,26.5366,-35.3669,-71.4200
40.8940,59.0032,69.0421,82.0164,-139.7169,147.1515,-13.0110,51.0919,-70.6478,-6.9449,133.7496,-5.8436,72.4257,67.6018,24.3188,92.0924,39.3761,12.4148,-100.1275
63.9293,56.1118,78.7404,108.9497,-34.1208,173.3556,-1.8199,9.5125,-153.3838,-69.8684,152.9453,29.7307,122.4048,46.7290,-13.6571,78.2179,68.8045,100.7543,-81.8687
60.9184,57.4958,17.1648,125.2301,94.5248,206.8580,131.9378,42.4421,-19.2874,-75.6025,99.0699,67.8817,186.9852,51.8299,-7.8811,86.2798,110.1817,170.7671,23.7342
20.2628,44.2432,-33.9360,133.8608,144.7269,215.1027,224.7465,86.9469,128.1748,-67.3242,29.7289,86.8125,195.3006,78.9817,17.4233,97.7671,176.2982,174.6766,130.4806
-12.6493,24.7362,4.8260,173.2999,131.8909,180.6742,153.0319,91.4937,-33.9951,-92.2062,39.1063,100.1827,145.0714,71.9219,12.2368,101.4437,244.8168,187.3293,147.3171
30.1854,41.1932,93.4216,235.3854,157.3281,185.2678,80.3366,88.6051,-289.7191,-104.5529,97.5190,112.6654,109.0464,41.3282,-7.2929,85.1497,278.7236,268.4673,126.9827
124.2561,106.3989,144.9765,268.7163,214.3752,223.6424,122.6788,64.0102,-290.2419,-90.6585,114.2240,97.4085,123.0099,39.5418,-14.9672,55.2676,271.4305,304.0216,125.8479
180.8292,168.1057,134.8021,237.9641,201.1892,152.7656,142.0474,-11.8213,-139.8423,-116.3332,88.5800,57.3443,130.2612,28.8927,-23.1863,39.5529,241.6104,210.3422,97.0147
185.3506,177.0110,111.9886,179.5409,120.0211,1.2467,72.4772,-60.7044,-91.8569,-172.1787,83.7724,44.2048,82.3012,-7.8911,-30.0389,54.1892,223.3837,113.7234,45.3697
189.2242,149.0591,128.2741,166.6494,65.6642,-25.3639,33.7043,-31.9627,-157.0968,-169.1754,120.2075,72.1200,23.6968,16.3959,-16.1101,91.0882,234.3594,109.6056,55.2217
197.7012,100.9242,164.2843,187.0514,48.6302,85.7545,66.9185,-10.4985,-212.6264,-107.2311,152.6773,80.8219,5.9941,92.9169,10.6581,128.5700,239.5297,99.6292,114.6026
169.8439,8.4492,160.4495,167.9547,-0.3840,169.5107,93.1396,-40.2660,-188.4774,-73.3606,127.8123,45.9598,-5.8301,111.9585,30.0686,141.3678,204.7051,23.5007,122.0413
106.4500,-70.3063,113.0678,132.5821,-98.9910,190.5594,75.0546,-61.3289,-139.1308,-97.5613,63.0648,41.0062,-45.7695,101.0185,47.7012,129.7866,151.7975,-28.2823,50.4929
68.8825,-7.2061,78.4399,148.3279,-182.0395,208.6714,46.9719,-61.8112,-159.0807,-132.5970,38.6045,100.0239,-53.4871,137.5240,80.8047,131.5341,116.0701,-1.8140,-22.5711
90.4068,125.8371,94.5444,171.5105,-156.5955,208.8006,79.0221,-75.5528,-179.3665,-137.8926,89.4530,132.6049,22.0661,150.6541,114.0372,152.7817,118.8939,55.5859,-3.8305
114.0886,103.6562,140.5960,138.9411,7.1421,161.7192,211.1604,-88.9286,-72.7343,-119.9251,173.0147,86.4176,125.9639,96.6345,116.8454,130.0474,163.6933,96.0015,119.4395
88.9047,-32.4772,157.2932,82.0451,199.8764,82.8556,360.0771,-87.3821,41.4930,-106.1821,237.9891,43.9567,192.7829,66.9317,113.7891,46.7914,180.3329,88.7555,242.0864
62.7222,-53.6404,108.8814,23.4057,265.4311,-10.9025,404.9140,-86.1581,-27.1040,-94.7553,252.0986,51.1700,215.4357,64.7485,144.1859,4.1800,84.9310,23.7676,252.8575
75.5600,-19.7414,32.1585,-45.7021,190.3417,-102.0540,357.9440,-98.5116,-154.4445,-64.8654,215.6899,37.4583,182.3651,2.9056,159.7094,55.7579,-53.9135,-44.5560,161.5136
80.0048,-102.9402,-13.0694,-74.1918,91.7169,-181.5602,305.2913,-156.5037,-111.1683,-45.7413,186.2336,-14.2239,94.1192,-73.6741,109.8388,100.7858,-96.5091,-53.4198,42.4207
65.8082,-146.1959,-18.6045,-30.9904,26.7838,-251.3076,253.3282,-261.7490,10.2785,-77.5975,201.7179,-21.2788,18.1846,-66.1535,59.4716,76.1488,-61.8547,-20.6696,-60.7617
87.1412,-0.3777,-7.2276,21.4357,-55.1246,-279.1200,165.4851,-314.1044,-15.1332,-107.8342,211.3307,32.9485,-11.4995,-10.5213,55.0646,70.8132,-54.2771,-9.8207,-120.3851
122.8656,111.8003,3.2441,35.8178,-186.4202,-263.7719,62.2277,-260.8333,-124.7548,-77.9311,168.2541,70.1382,-59.2830,9.7359,34.4989,121.0997,-69.8611,-51.9315,-132.5844
109.8238,56.2938,-11.8127,8.4353,-331.6497,-292.2418,-11.9962,-216.6614,-119.0457,-63.3795,94.2951,56.8046,-158.3369,-9.8137,-6.6846,121.0631,-78.7378,-129.2621,-142.3757
75.7407,31.5768,-57.3822,-59.9773,-454.9016,-361.9697,-58.4327,-260.2359,-33.0905,-142.3062,14.6304,37.0086,-254.7532,-26.4079,0.7012,40.1196,-112.9232,-189.9602,-162.1758
66.3154,90.3423,-90.5396,-106.5648,-533.2443,-315.0794,-90.6328,-291.5265,-0.9285,-230.3114,-47.1104,40.9596,-307.2481,-2.7491,23.6683,-7.2517,-148.9441,-184.1306,-136.9859
50.3608,66.1238,-75.2843,-78.8879,-525.6075,-115.5948,-80.9687,-224.4518,28.3958,-223.8741,-50.6500,45.5147,-307.5031,48.4690,-6.9912,34.7428,-133.8833,-123.3829,-62.0114
8.0227,-14.4447,-20.2837,-68.3923,-430.7584,51.1673,-29.6982,-124.4695,112.6104,-168.2096,-13.8068,26.9141,-253.1960,63.2957,-43.0994,94.1881,-123.7206,-85.3246,-17.3698
-12.2652,-19.1269,51.7835,-135.2971,-330.0406,63.7486,-22.3638,-85.4962,132.0576,-157.0574,1.2707,14.9522,-184.0484,33.0807,-26.4911,108.0546,-157.5080,-110.2851,-41.1439
26.8905,-0.7713,108.8995,-153.2750,-267.7611,9.0372,-85.5249,-113.0354,49.8185,-199.7360,-9.1380,56.1229,-136.8662,30.2561,15.0707,85.3831,-131.0038,-110.9917,-77.9600
86.3865,-16.6239,111.4780,-43.1277,-175.1599,14.5300,-95.8173,-136.2211,18.8633,-238.3706,-28.2170,129.3237,-72.0796,81.2535,52.0989,64.3155,-5.6685,19.6754,-64.3362
78.7027,9.9998,60.3392,92.8902,-10.9683,110.1500,17.4108,-80.0836,75.0881,-220.7730,-70.7267,165.3139,31.4169,135.4881,68.5449,70.9759,84.0904,219.6097,11.7153
-18.7082,78.6892,-3.3225,163.8136,150.7567,231.3291,153.1902,47.0258,92.4751,-164.2908,-112.4639,145.8314,107.8999,156.5437,50.2673,94.0974,68.9441,330.4613,117.8366
-107.4987,92.2418,-56.5516,155.8735,240.6975,283.7169,229.6075,157.9586,57.9667,-128.5622,-125.0063,106.8804,120.8557,142.7096,40.6691,108.7585,23.1546,336.0599,197.7503
-114.3865,46.2536,-106.8184,74.2218,254.8817,238.7203,261.7177,195.3191,44.8937,-113.9378,-157.9198,67.2223,97.3877,104.9607,67.8799,121.7299,-26.8114,328.1600,208.6239
-97.4236,9.7773,-160.0222,-3.7905,198.3888,156.1328,236.2226,172.9390,21.9580,-98.6919,-215.5371,26.0370,42.1371,64.8811,64.5587,139.7012,-103.8171,316.0878,161.1753
-106.2837,3.5990,-197.8511,5.0679,113.2560,108.4802,156.8924,132.9904,-39.2639,-112.3813,-206.4379,-3.3410,-31.1026,25.5890,6.5460,136.3183,-149.9684,287.6191,112.0380
-109.0955,3.4400,-184.8113,44.6263,80.9270,130.1995,123.2761,128.1176,-40.6627,-118.9274,-141.4849,-12.3120,-68.1023,-20.1790,-29.2226,108.9427,-122.2427,300.2218,112.0603
-106.1851,-8.9950,-121.2388,34.9575,95.2018,205.6391,167.3229,184.0884,71.7209,-27.4538,-132.9705,-23.8407,-73.1200,-44.6393,-22.7486,93.5890,-94.1706,335.8052,156.1801
-110.7465,-9.1175,-61.4884,13.2482,79.1255,271.5764,185.0257,245.6027,170.4099,71.2738,-165.5829,-67.1205,-93.7870,-36.9846,-24.5511,92.4856,-109.1871,296.2338,177.2698
-68.5722,59.3971,-33.7243,29.8734,46.8596,280.6645,124.2890,238.3465,110.9862,18.2129,-142.7739,-127.5978,-103.2930,-52.2776,-39.9131,69.8616,-102.7877,213.6949,112.3571
24.1838,190.1192,-12.3539,70.8663,59.9628,243.2041,37.6946,170.3542,-50.8614,-85.9455,-86.4376,-150.2170,-58.5791,-113.4414,-59.1825,17.7308,-55.2376,184.0213,-10.3469
67.5246,270.4232,-0.5320,95.0172,87.1284,175.8569,-31.3530,100.4812,-129.3881,-65.2032,-63.0615,-116.0312,4.3877,-158.2717,-90.0636,-33.7497,-34.3226,155.6049,-88.7708
25.3774,197.6461,-29.1528,55.7459,90.6362,93.6306,-44.6363,63.1260,-71.1574,23.7702,-57.2579,-68.7704,50.3241,-140.8043,-102.9498,-50.5682,-50.1697,70.7587,-69.4921
-25.7610,28.2829,-77.2966,-18.4047,123.0086,49.4118,34.1614,67.0355,11.5364,97.2390,-47.3457,-29.2909,88.6498,-81.6704,-79.8334,-25.4540,-38.6908,32.1491,-1.7051
-30.9607,-52.5300,-101.7160,-21.1418,202.0953,67.1429,137.3885,92.9622,47.5280,186.8918,-43.9482,29.3933,104.7276,-20.0797,-61.2842,5.5404,14.9577,93.4362,46.2572
-12.4084,24.2537,-95.2695,39.3828,251.7644,82.2630,149.8316,92.4023,46.1355,236.1677,-27.5505,88.3611,86.9913,8.7289,-59.3011,4.2981,73.4559,141.1975,61.0817
-18.1496,95.1884,-53.3550,54.5082,239.4884,47.7938,91.6929,59.1247,6.4297,188.5597,26.2541,86.5462,79.3573,-4.6451,-55.1714,-12.0630,124.8530,122.8947,63.5306
-39.3694,43.8513,25.6577,45.3331,217.8038,9.7589,72.6460,48.5418,-27.0132,169.0749,94.7114,30.3571,99.5769,-26.3213,-77.0536,-2.5913,160.1197,115.1994,70.4718
12.9514,8.4581,94.5484,82.3520,206.7606,8.7782,90.8234,69.2341,17.9332,227.6564,132.1999,-26.8387,90.7197,-39.4592,-134.5203,29.9011,147.6416,130.5169,79.3506
152.8216,91.1711,100.7498,95.9140,157.6757,13.4087,50.4128,56.1903,79.8458,233.0217,104.7317,-79.7622,13.4761,-72.4720,-165.2049,40.6187,96.7192,103.5235,65.8029
231.8739,142.3529,46.1318,31.8680,44.4897,-6.8227,-52.7414,-4.0830,59.1595,171.1032,26.1534,-135.8996,-90.9696,-127.8504,-145.4202,-5.5419,47.8717,35.4351,19.1147
165.6331,52.5984,-36.4334,-43.5414,-79.2714,-26.4174,-124.3760,-44.0889,13.3359,136.6709,-32.5603,-165.1468,-154.5674,-168.1897,-126.2134,-80.5181,-15.8348,-21.4739,-27.9867
61.0261,-71.0169,-111.9697,-108.2329,-138.3519,-5.3198,-127.9713,-26.2059,16.9635,130.9353,-36.2871,-162.3489,-162.0125,-175.6937,-128.4057,-100.0275,-122.1010,-49.3548,-34.9508
-10.5281,-150.3638,-157.8838,-180.6182,-119.7757,54.5831,-95.7768,38.8034,32.6373,176.9406,-36.2409,-165.7533,-151.7067,-156.7020,-114.2723,-35.6197,-215.7587,-46.9570,16.1727
-101.3703,-224.7827,-185.5376,-227.9693,-54.3274,109.2109,-18.9311,149.0548,70.6984,318.8754,-62.0654,-189.1748,-130.7034,-132.1527,-53.4975,28.8606,-249.9705,-11.9558,127.1087
-196.8623,-271.3435,-214.2974,-259.9134,46.0795,128.7361,109.2381,274.3122,181.7584,426.9987,-73.3191,-221.2402,-62.1053,-142.8266,32.4690,23.9095,-268.3642,31.0645,257.2064
-213.4227,-221.5108,-243.4781,-298.2642,149.9108,130.7620,200.5991,344.0764,281.6058,393.7681,-64.7160,-259.6902,25.0736,-190.3758,80.5094,-17.2201,-280.7587,51.2232,330.6214
-167.8674,-125.9192,-273.4701,-265.7543,179.6044,130.1567,193.1925,352.5933,277.4948,345.3029,-80.4235,-281.5568,47.4905,-216.5278,63.2248,-50.7440,-229.2834,50.9855,333.3755
-144.5723,-105.9539,-281.8980,-153.7556,130.5498,101.8546,167.1077,357.4231,239.3843,370.6308,-100.4534,-246.9572,17.3931,-201.5500,33.6262,-76.4180,-144.4623,50.0748,321.3564
-152.4783,-165.4936,-206.5241,-89.3531,98.4921,37.1738,187.3350,353.1884,233.2961,396.5859,-55.4018,-167.9787,6.1828,-182.7725,27.5664,-87.0284,-108.3410,57.8116,304.9240
-123.8929,-181.9270,-53.7347,-83.3991,103.0265,-28.2535,176.6242,287.8828,204.1167,397.2439,33.2646,-99.5437,-11.4423,-164.4816,0.9992,-82.1760,-72.5853,73.7729,246.5011
-32.7089,-117.8272,63.4818,-42.1165,60.1828,-78.6476,76.2959,173.2731,136.8337,363.4697,61.7739,-64.9939,-87.8893,-139.7901,-61.2606,-92.7796,35.2103,88.2562,156.7913
23.5143,-105.6814,76.5048,1.4479,-32.0310,-123.0701,-30.0812,65.3646,106.6706,241.6633,9.0370,-57.6152,-175.6060,-143.9742,-96.8537,-119.7050,120.1155,84.5837,76.6068
-62.7178,-212.1321,21.7075,-14.6984,-105.7779,-132.9974,-62.1780,4.4036,129.9302,106.6086,-36.4799,-82.8112,-225.4470,-171.9773,-82.4441,-126.0844,70.1230,53.3227,19.9305
-217.2548,-307.0053,-58.5046,-57.5948,-194.1835,-96.7652,-68.5906,6.2279,130.9758,64.3447,-35.9803,-145.2778,-266.0910,-172.0017,-68.8161,-106.2640,-57.7330,-9.1080,-4.6853
-274.8666,-306.0760,-130.0024,-134.4894,-342.6660,-95.9304,-120.1831,23.7642,59.5604,29.7360,-45.4527,-229.9172,-304.3958,-174.4112,-77.7528,-89.9480,-160.0676,-97.7282,-6.8897
-233.2212,-297.3546,-144.2239,-247.6508,-438.8687,-171.8503,-184.3589,-16.7236,-48.1556,-66.2430,-82.5875,-311.2511,-305.5320,-238.8217,-77.5639,-102.4637,-209.6767,-169.0289,-33.7512
-217.4780,-340.4713,-114.6283,-276.9787,-366.8721,-211.0100,-184.3268,-77.3371,-116.1814,-112.1458,-100.6247,-350.4008,-269.6328,-295.7304,-55.6255,-136.4116,-203.9093,-171.4436,-84.2947
-273.2336,-394.1544,-109.8796,-196.0153,-197.9720,-138.3705,-113.5298,-63.2304,-100.0603,-60.5779,-95.5767,-315.9057,-206.7784,-250.1481,-35.5004,-140.6120,-165.7149,-138.1944,-93.4209
-347.4124,-420.7053,-130.6792,-152.5129,-48.2857,-67.3770,-25.4670,-13.4917,-35.9550,-3.6487,-97.9480,-241.3663,-114.7693,-152.0646,-42.2976,-106.3596,-149.3456,-148.6962,-58.5809
-367.2671,-401.5928,-117.1412,-175.4786,80.2549,-85.8076,28.9676,-26.7248,-25.7292,-2.2584,-94.9268,-201.3492,-39.1076,-87.7654,-85.8581,-118.9334,-140.0265,-181.3309,-44.4126
-300.4756,-372.5406,-59.8314,-150.4776,197.0406,-104.2229,17.4376,-75.2992,-102.1047,-72.5924,-70.5483,-210.7570,-32.3051,-48.1606,-140.3315,-181.4688,-76.4796,-154.3709,-58.0001
-217.0159,-415.4207,-7.0048,-75.1747,248.1998,-55.4117,-37.0060,-95.2469,-142.9792,-185.0712,-54.7745,-218.8483,-59.0155,-18.9781,-147.5243,-172.6524,16.0323,-94.4708,-67.2483
-203.6297,-465.2942,0.1931,-20.6679,217.9507,-11.8952,-48.4607,-118.8379,-85.6917,-249.7862,-71.1045,-194.4589,-59.2143,-32.5521,-100.1373,-143.6786,76.2584,-83.1101,-92.8396
-219.5701,-375.6970,-31.5478,14.9923,154.1761,-35.3296,-0.6642,-181.1519,-109.5631,-277.6899,-100.9594,-153.8168,-46.5606,-79.1019,-72.5462,-277.1971,109.0675,-105.5599,-157.0254
-198.0192,-243.7400,-46.9264,26.9684,79.1743,-111.7028,9.2216,-253.0285,-319.4384,-359.0324,-109.1624,-131.4861,-57.2537,-104.4704,-94.0079,-428.6599,107.4981,-122.7592,-217.2955
-182.8417,-264.1044,-16.5487,-15.4818,-10.4766,-204.4855,-39.5956,-302.3848,-474.6080,-433.3071,-82.0139,-143.3179,-82.1929,-87.5206,-96.7295,-287.4518,32.3259,-155.3455,-226.0380
-212.2516,-367.3787,2.2636,-71.3712,-78.1742,-232.7277,-47.1138,-301.2657,-384.9692,-416.7470,-58.7406,-144.4023,-94.3193,-44.8637,-65.6020,-10.8433,-62.2883,-174.6887,-183.0508
-241.9428,-420.5013,-42.1645,-84.8012,-71.2870,-122.8206,-2.4667,-235.4309,-235.6343,-410.1183,-80.1083,-82.1091,-74.0668,-1.5948,-68.7667,13.7523,-75.2587,-102.9855,-110.1586
-252.2422,-475.1026,-96.8654,-70.6080,4.2095,57.7179,9.0645,-152.6368,-215.7661,-463.6050,-103.5248,-17.6463,-13.9606,31.7358,-90.0125,-116.1106,-28.1859,29.7964,-30.7337
-264.0167,-541.9429,-88.9367,-61.3685,88.5224,182.3866,-2.7630,-90.8912,-257.5917,-467.0971,-77.0831,-49.5818,52.2386,77.9246,-53.7974,-89.6118,-12.0186,125.0439,34.7186
-287.3083,-554.5412,-39.7088,-67.4922,144.8527,239.1382,18.2479,-18.1705,-293.7267,-436.4500,-43.1812,-117.4580,66.3172,136.8911,-8.0010,-18.0075,-26.8097,165.3093,79.1963
-332.0631,-574.6757,-16.3750,-83.8066,191.7953,265.6768,41.3653,53.0120,-323.7612,-484.2091,-42.8615,-95.0686,21.7938,139.8131,-44.4821,-107.5317,-11.9240,174.3173,107.0153
-364.9628,-619.2180,-29.5446,-80.8360,251.4781,242.1185,51.3180,50.7289,-274.9709,-541.6575,-47.6340,-28.6360,-29.6340,59.0958,-117.6996,-195.9535,40.8031,152.7449,125.4435
-319.9882,-548.4754,-42.0902,-42.5673,306.0730,165.1281,97.8957,-2.7332,-163.4702,-504.4606,-64.2363,-38.9075,-54.7776,-20.8650,-135.8333,-146.2530,85.1059,124.9377,129.4768
-243.6051,-393.1477,-43.7774,0.6190,317.1147,74.5646,146.6976,-32.4640,-161.4376,-462.9807,-114.8758,-92.1819,-66.4568,-44.3586,-99.7373,-131.9417,79.7798,103.9500,87.7861
-237.9966,-353.1193,-52.7095,16.3934,256.5277,-20.4343,102.3025,-65.9016,-279.3822,-504.2844,-136.4106,-95.4451,-86.6485,-59.1140,-53.7413,-221.5943,24.6468,53.3787,-2.3639
-267.4915,-434.3801,-61.8192,-9.4427,136.9311,-98.6914,-0.4442,-124.5830,-310.0370,-534.5460,-103.6117,-73.7999,-129.6726,-85.1048,-33.0972,-244.4476,-46.0416,-1.2340,-51.9911
-268.3667,-516.8447,-66.0962,-77.5019,26.8139,-87.6580,-31.1986,-107.3896,-184.8279,-472.4728,-111.1048,-84.9129,-189.9357,-84.8172,-46.9888,-169.0526,-103.2681,20.8635,14.5224
-298.5547,-582.9289,-108.4609,-142.5122,-28.4153,6.6979,27.5991,8.6574,-79.2208,-409.6555,-177.9841,-109.9928,-219.2702,-83.4694,-47.8713,-137.6066,-140.0183,82.4865,109.8155
-364.7317,-609.3744,-186.7972,-155.3016,-78.9179,63.4797,62.0899,69.5143,-121.4668,-448.1920,-198.4747,-117.9800,-180.1272,-136.1576,-14.9984,-173.1897,-160.5127,75.9970,96.3477
-368.9990,-569.4015,-200.2189,-152.6364,-159.2453,28.5410,9.1211,8.2279,-206.0694,-513.5844,-146.2381,-112.6328,-127.4669,-202.0213,-16.4851,-188.1797,-186.5608,18.7899,3.6403
-325.6258,-570.9065,-122.9997,-201.6289,-187.9129,-11.0995,-60.1082,-49.9171,-187.5226,-493.3280,-92.0757,-104.9578,-141.7854,-206.8341,-69.8628,-164.2628,-239.3154,-1.8904,-48.2201
-330.6112,-666.9270,-85.4388,-290.8700,-107.1703,24.1598,-68.7024,-33.8322,-142.3306,-451.1663,-72.4129,-115.8600,-195.2320,-164.4068,-102.5862,-135.7000,-295.5930,25.4746,-52.9922
-374.0636,-728.7371,-156.2955,-362.2461,9.1254,114.0506,-31.4075,-0.6801,-212.7974,-459.9719,-106.2134,-163.2209,-204.3983,-125.1532,-105.9861,-106.3686,-326.4125,81.8080,-56.2749
-419.4472,-706.1455,-242.2876,-392.2309,81.0046,204.9901,29.8131,46.3512,-279.5172,-398.5686,-199.1609,-216.3793,-182.2580,-97.6562,-111.3857,-60.9005,-358.6714,145.2980,-22.7348
-479.2853,-697.0798,-279.1845,-406.4726,94.5153,264.8011,116.2703,141.1048,-161.0328,-217.2198,-275.7410,-228.6835,-203.9137,-86.1755,-82.1600,-1.5758,-411.1388,135.6701,64.7847
-508.0422,-733.9465,-301.6689,-446.2891,46.7098,269.6075,169.2713,212.5330,5.7401,-107.4961,-270.9443,-215.4940,-261.4694,-104.6900,-27.1393,44.6004,-428.7366,17.2683,137.7757
-460.9394,-780.5815,-313.1411,-497.9575,-19.4053,214.6185,147.5907,190.9174,12.8711,-148.6996,-230.1079,-230.2779,-280.8202,-128.3222,-36.4674,55.7741,-371.2768,-91.4605,169.8764
-409.1904,-815.3802,-282.8838,-481.9934,-24.0460,149.4674,131.1334,134.5320,-65.5971,-198.0267,-205.7051,-266.6593,-251.6052,-120.0787,-102.3159,40.3392,-286.8163,-76.9274,179.4513
-402.7746,-788.6826,-230.8556,-372.5665,3.0512,141.2971,151.2424,92.8453,-126.8969,-226.7923,-194.0100,-259.8284,-236.1878,-97.4841,-139.7296,8.6685,-230.5951,12.2941,119.8698
-394.9525,-691.8783,-196.4422,-250.4678,-32.2779,172.5893,105.4564,27.0079,-234.3599,-300.2296,-200.9159,-200.3504,-264.3846,-104.3373,-152.7424,-41.0455,-201.2553,73.9837,-16.9868
-383.6091,-618.0095,-198.3022,-192.4145,-108.3333,138.0962,-7.6749,-53.7771,-357.2138,-336.9359,-227.1442,-160.4018,-297.0844,-145.8978,-176.1302,-94.4492,-194.5850,70.6196,-106.1274
-398.9865,-602.3780,-247.9455,-209.9309,-170.6121,-0.9616,-62.4335,-89.2985,-367.2027,-283.6634,-244.2587,-179.3819,-295.1440,-194.2862,-190.1318,-133.1301,-232.7029,-2.8473,-91.0957
-403.3483,-591.8604,-320.4358,-288.7783,-252.3413,-134.5713,-59.0735,-104.5268,-300.0471,-252.5218,-257.4430,-226.5198,-264.3058,-223.3323,-193.3613,-154.6531,-314.5181,-119.4553,-80.4831
-388.5014,-597.7855,-356.8038,-387.6581,-323.4262,-155.7572,-83.9837,-154.2066,-264.4044,-276.7368,-278.0576,-283.5411,-224.4247,-224.1216,-199.2110,-151.3323,-395.8088,-199.1818,-123.7819
-401.7359,-630.3037,-342.2269,-443.8542,-269.5556,-101.3413,-117.0659,-195.9791,-259.7105,-264.9837,-261.2542,-337.2132,-190.2666,-210.4123,-193.8911,-132.2222,-430.8902,-196.7403,-138.7977
-397.2747,-596.2520,-303.1587,-430.1227,-122.9311,-48.4655,-134.1078,-166.0533,-266.6849,-193.0275,-193.2949,-329.8405,-183.7976,-199.3416,-201.1507,-140.3212,-402.4642,-146.4920,-99.2819
-303.9893,-483.8746,-239.8061,-352.1836,-20.5453,5.8647,-181.9742,-92.3486,-284.6389,-85.4822,-134.7087,-249.1290,-206.6303,-189.1468,-252.6191,-170.2780,-315.3685,-71.1077,-71.1401
-195.4833,-433.2988,-150.1287,-228.8607,36.3016,58.8348,-236.4748,-55.9453,-282.9103,36.2441,-103.2985,-175.4986,-219.1618,-180.7462,-295.8665,-162.0964,-197.9118,31.4423,-100.1686
-153.9715,-488.3910,-69.5292,-125.4008,100.7843,38.5192,-246.8043,-105.0910,-279.8154,104.0030,-61.0122,-153.8803,-204.6716,-188.0285,-287.4876,-122.5881,-103.1619,101.5337,-187.6953
-118.9640,-534.2452,-20.4005,-107.9057,110.7309,-71.6552,-263.8227,-206.5605,-320.0995,88.8990,-20.9915,-160.1856,-206.8929,-200.9310,-270.6822,-107.0303,-62.8044,69.5846,-282.3372
-52.5667,-527.9535,9.4447,-150.0653,22.6275,-176.5298,-310.4111,-267.9374,-346.0072,56.4260,-29.7530,-198.8607,-254.3590,-189.6679,-265.9183,-100.2075,-55.8441,-23.8150,-300.2237
-37.5407,-552.2963,6.8240,-192.0463,-87.9021,-201.6432,-321.6727,-252.5427,-295.4949,44.2194,-87.0716,-263.6667,-313.5978,-152.2546,-248.3828,-73.7920,-68.9230,-89.9562,-256.3008
-105.8903,-633.0021,-69.0280,-227.7571,-179.0820,-178.4747,-312.0935,-224.4870,-246.9155,43.8293,-163.3979,-275.9305,-349.8002,-113.9489,-231.1649,-69.7529,-125.9732,-117.4335,-257.5764
-179.0538,-678.9301,-202.5333,-239.4282,-293.5379,-189.6751,-348.1478,-235.3412,-307.3365,50.8966,-236.0134,-208.0589,-366.4018,-109.1370,-226.4427,-105.8812,-204.0836,-141.4003,-310.3395
-203.8350,-624.4062,-309.3076,-186.9151,-429.3497,-282.4996,-387.6219,-256.2434,-448.2046,39.9656,-298.7479,-144.9371,-369.6259,-170.3629,-207.0797,-134.7853,-233.6189,-172.1941,-315.1125
-205.8134,-538.1479,-351.4795,-129.2845,-516.3322,-385.9693,-354.2101,-228.8393,-501.1053,51.2652,-373.1962,-149.0292,-343.7880,-264.6577,-167.8354,-141.1812,-232.3418,-205.4715,-231.6216
-242.5269,-536.3063,-393.8892,-172.2692,-499.8502,-340.2134,-248.0157,-104.4743,-334.1025,203.5227,-456.9088,-197.6116,-274.4129,-287.7237,-121.0457,-140.7566,-287.5997,-226.9896,-85.2711
-346.9782,-619.6842,-472.1195,-276.2358,-381.3606,-116.5599,-105.2795,103.1029,-84.8839,429.4402,-469.1264,-243.8068,-182.7249,-210.2529,-78.1928,-117.6227,-387.0770,-216.3981,83.1139
-459.0683,-685.0197,-495.0695,-314.5631,-222.4457,95.9684,-0.6953,273.1852,-16.1746,503.4328,-347.2476,-242.2441,-118.5702,-123.3401,-92.4152,-65.7871,-435.9432,-191.7318,185.6535
-470.5024,-680.2014,-388.5321,-280.8464,-105.7804,153.7697,-16.8636,304.6001,-73.7089,437.8909,-161.8137,-178.0325,-105.6934,-72.5577,-185.0996,-14.7294,-409.2115,-186.1886,157.6258
-385.7050,-634.5772,-228.2955,-246.1588,-55.5370,126.7191,-108.3708,236.8531,-10.8582,415.1479,-35.3700,-95.9485,-130.2438,-16.6063,-260.9202,19.1046,-336.6028,-182.3082,40.3748
-310.1182,-565.9495,-118.5464,-206.1459,-39.9359,88.3612,-178.1731,119.2166,62.6563,387.2271,0.4661,-30.5072,-191.3005,24.9642,-261.8810,25.9632,-227.2910,-160.4581,-126.3753
-272.6056,-479.4900,-62.4909,-135.7811,-51.5639,-10.3242,-266.4509,-80.5271,-125.5694,210.0023,-9.4073,33.9859,-289.0746,-10.2481,-279.0514,-12.9808,-115.4305,-156.6509,-342.9860
-220.6169,-419.4136,-25.5725,-71.4270,-108.3103,-161.5065,-416.1919,-320.5097,-402.4745,-22.0693,-34.0272,86.6558,-375.9027,-80.8771,-363.8422,-76.7060,-54.0429,-189.2712,-521.3903
-155.1539,-426.1257,9.7036,-34.5740,-192.5872,-259.5276,-506.5891,-466.4797,-428.8221,-145.3878,-65.7983,85.5725,-417.8379,-104.9547,-422.1555,-110.9232,-25.8768,-226.8263,-556.1085
-124.0023,-478.3202,60.1210,-9.4631,-271.2591,-291.4339,-468.5544,-498.9297,-317.8029,-182.1974,-94.4918,42.6072,-458.8897,-104.6682,-397.6055,-102.4835,12.6723,-267.6240,-505.4480
-137.0967,-517.4358,92.7044,-13.5120,-351.6095,-337.6176,-418.8228,-508.6042,-331.2442,-226.8132,-122.1519,6.7681,-528.9965,-138.5686,-349.5782,-84.1964,40.4432,-334.0212,-471.0250
-169.7966,-503.3033,35.2709,-56.6270,-449.7099,-400.9340,-411.3250,-517.2727,-366.4299,-296.1483,-159.0627,-9.3737,-574.5450,-184.9548,-311.4735,-85.1765,32.3938,-401.5068,-430.8693
-185.9319,-449.2672,-76.0792,-86.6208,-541.4172,-428.1805,-369.0578,-517.1280,-286.4737,-358.2925,-180.8421,-14.9009,-556.4799,-200.2753,-271.8544,-117.1683,21.5162,-430.7746,-378.1485
-147.2188,-392.4659,-105.5262,-70.8139,-596.0970,-425.1912,-321.5599,-556.5854,-268.4399,-387.9677,-147.3004,-0.7382,-511.2547,-196.3675,-272.1483,-176.0681,29.9790,-414.6761,-389.4534
-58.8134,-321.7126,-24.3136,-36.3434,-599.0561,-398.9133,-360.5910,-603.2932,-404.4498,-376.5772,-71.0908,37.7454,-469.0824,-186.9321,-334.0547,-227.1837,26.5333,-356.4011,-427.4479
15.4161,-225.9537,56.2912,-11.2333,-517.1996,-299.4133,-397.4268,-520.6996,-462.9267,-303.4203,-4.0705,64.5636,-409.2490,-145.2436,-361.3701,-210.2808,-25.0307,-276.9251,-354.8495
10.9235,-199.8419,59.2900,-21.0983,-340.8858,-130.6517,-298.4480,-312.0688,-327.3266,-154.7720,25.7161,31.8148,-312.3375,-74.6605,-287.9575,-104.8109,-119.6148,-213.9284,-192.0134
-76.9844,-312.8959,4.3838,-78.5265,-151.5073,10.2884,-141.5345,-152.2498,-193.7669,-15.8682,13.4282,-39.3288,-192.8099,-40.8481,-204.3505,3.2861,-200.2953,-159.8212,-84.4796
-178.6394,-430.1270,-57.2635,-129.7303,-23.2920,71.8211,-61.0082,-110.6049,-185.4995,-5.3402,-24.8675,-65.1162,-84.9489,-71.9364,-187.2160,1.9968,-213.3507,-85.4050,-51.9540
-210.6512,-406.0776,-70.3644,-128.3152,79.6714,100.1582,-29.2971,-88.0834,-198.8318,-81.8027,-31.1529,-27.1525,-20.3747,-106.8641,-179.5299,-78.8107,-184.8528,-14.3724,-14.4100
-172.3992,-322.2336,-6.9358,-109.4206,184.9452,137.7128,9.8665,-27.1265,-162.7840,-102.7073,26.4654,4.0610,-2.1927,-96.2458,-151.8894,-106.8661,-160.9330,38.7298,35.5060
-129.5945,-293.5988,86.3847,-78.9793,227.1772,182.0558,25.7220,45.2454,-110.8919,-40.9379,87.8657,3.3157,-3.8835,-62.2119,-158.8563,-61.3326,-111.8486,113.0459,73.1542
-111.0427,-275.9623,133.2532,-3.0490,179.8444,213.5757,20.0971,116.2365,-69.6304,34.5651,94.3913,5.8338,-11.8891,-37.3458,-187.7902,-39.7437,-33.8102,177.8182,110.7417
-108.6062,-245.1046,103.2480,34.9213,87.5935,186.6129,28.8837,152.6524,-81.6958,83.3753,65.5161,-6.6425,-49.4160,-47.1805,-181.0163,-69.1535,-37.4213,126.6203,124.3880
-127.1644,-264.0216,7.8368,-74.6791,-51.1751,72.6503,16.4273,98.4626,-159.5174,92.4181,19.4819,-72.9876,-128.9314,-117.2705,-162.4623,-85.1186,-167.7470,-31.9185,80.1327
-153.5323,-308.4813,-119.0728,-246.3492,-230.8554,-62.3677,-35.4540,2.4928,-165.5118,81.3543,-53.4479,-149.5203,-205.5078,-208.8299,-162.3871,-62.9110,-294.0623,-170.0349,37.5255
-165.7222,-323.6161,-223.7338,-327.9417,-356.2626,-135.3006,-57.0314,-32.1388,-7.2310,97.4048,-120.7817,-177.4350,-228.8061,-248.1248,-154.7810,-31.9703,-314.5563,-241.1396,53.1866
-194.8219,-354.6334,-272.5232,-324.1689,-392.4306,-161.4650,-43.5686,-24.3974,133.4202,111.8872,-140.7289,-178.5396,-216.3866,-251.7136,-153.1596,-5.6789,-282.2009,-295.0036,63.9908
-257.1830,-389.3864,-270.5987,-304.3635,-414.0443,-177.0010,-78.4106,-41.2263,64.1372,50.5365,-128.7013,-191.6135,-203.4619,-267.3753,-182.6624,15.9954,-260.2124,-336.1182,21.3104
-278.2989,-314.3613,-223.8671,-274.4833,-406.7032,-148.5928,-146.5939,-45.7518,-99.5404,-44.7220,-106.4411,-192.5317,-161.1963,-245.9739,-188.3207,12.8620,-244.0071,-330.6981,-8.4183
-211.0864,-159.3081,-147.8018,-226.7513,-276.2404,-63.6221,-149.6940,-4.6337,-146.1676,-75.3817,-70.7942,-137.1092,-53.1186,-147.7474,-132.0163,-26.7397,-225.1093,-289.9517,8.1303
-129.3786,-88.7046,-94.8965,-157.8534,-68.9241,16.1592,-90.1557,16.0527,-93.9375,-65.7188,-38.8913,-40.2018,83.6797,-42.3773,-60.7603,-52.5745,-187.1388,-240.0095,6.3449
-107.6115,-129.4763,-82.4606,-65.5304,82.3792,49.4687,-44.5070,-10.1713,-86.4865,-88.0542,-28.8237,31.3453,181.3532,27.0402,-12.1440,4.2750,-101.0088,-178.3325,-30.3540
-114.8278,-151.6266,-43.8349,6.0929,166.5439,55.2526,-19.2308,-23.3153,-124.5346,-106.6890,-18.8498,46.5724,200.1984,91.4429,4.7546,109.6923,6.2299,-105.6105,-40.5541
-84.6712,-68.6244,60.1893,20.3187,242.2090,57.4412,27.3272,-17.8751,-95.2060,-70.5991,11.1070,42.6252,145.0606,131.5792,-11.0012,151.0842,74.8991,-37.8148,-15.5434
-25.5076,54.7138,157.1673,11.3005,302.5559,58.9506,95.4779,-51.1622,3.5672,-37.9362,40.1678,51.7091,88.3790,111.6266,-4.8772,116.5681,96.3040,16.8724,-7.7541
-17.8901,63.9178,163.6812,3.3667,322.6518,46.3217,154.2692,-119.4687,74.0211,-57.9553,25.5549,70.0918,98.2888,80.8384,56.8375,98.6724,85.4040,46.2123,-23.0512
-80.8802,-58.1862,98.3542,-16.2242,309.9353,12.3532,184.1647,-165.2354,123.8218,-66.4905,-47.4521,97.4969,118.1187,79.9840,92.0751,113.4266,45.0974,25.9306,-27.1929
-105.2698,-107.8468,51.6242,-26.6230,258.9161,-15.4670,173.6014,-177.3177,196.7949,-27.1817,-109.0946,121.1353,69.3506,70.5159,47.4179,103.4524,7.3811,-34.0361,-37.4794
-31.2410,5.6675,86.7895,-10.4514,168.0095,-17.0320,116.7708,-190.6808,202.2545,-9.3167,-61.0822,111.2231,24.0745,38.8129,-4.7669,84.5367,8.1324,-72.8387,-89.6747
32.2228,93.3574,176.7185,3.3267,94.3056,-22.2106,52.9777,-207.3745,141.1527,-24.5181,66.9717,90.9755,75.7579,21.6075,-17.0359,106.9976,27.5718,-59.3266,-129.6430
25.7905,77.2234,231.8747,2.6445,97.6108,-49.8049,51.1001,-193.7939,190.7439,-0.5764,141.3973,105.2013,160.7641,20.3511,-19.4461,143.8002,37.1439,-57.4443,-85.5400
58.4717,115.5901,206.2716,-19.0127,138.2775,-79.3842,82.5487,-164.5989,250.8389,35.8343,119.0933,122.7777,187.5901,12.2776,-26.1708,142.7445,32.4985,-146.0490,-32.5498
148.4444,187.0106,139.0912,-93.9609,107.4787,-113.4642,17.9284,-179.4950,25.8918,-1.1514,65.5453,99.0007,168.9535,5.9724,-48.5866,103.2128,-12.5257,-295.5693,-90.0377
153.5971,116.3126,73.5307,-189.5387,-20.4606,-165.5996,-142.5348,-230.7744,-280.0748,-80.0160,21.6080,61.7000,129.5814,20.2572,-95.9082,57.5890,-105.1652,-402.9453,-200.1505
66.7913,24.2118,5.0442,-224.1024,-138.4455,-211.0532,-221.8778,-249.5278,-254.1649,-132.8718,-16.1609,44.6578,77.5963,58.7727,-113.0605,48.3376,-176.2641,-428.4740,-237.5299
26.2611,132.2591,-76.1036,-209.5490,-154.3980,-228.7432,-159.2410,-222.8138,-100.4640,-149.8166,-59.5041,53.2289,62.3676,114.5069,-69.9042,96.4063,-182.3523,-405.8107,-220.9052
30.1777,276.6928,-152.8424,-201.7258,-101.2717,-223.0516,-92.6137,-175.8063,-158.5598,-97.8822,-114.6764,96.5608,98.6096,162.7737,-40.5462,155.2321,-165.7507,-345.8925,-200.4099
