Fp1,Fp2,F3,F4,C3,C4,P3,P4,O1,O2,F7,F8,T7,T8,P7,P8,Fz,Cz,Pz
-57.2358,-16.5303,43.9351,-11.7806,39.5922,-62.1299,14.8247,-57.5478,-7.6462,-32.7202,2.6931,-38.9072,16.9366,-14.2421,19.9179,-0.7115,1.5903,-36.9790,-5.7238
122.6193,127.8583,225.9056,140.4071,146.5486,28.9417,85.0210,28.7681,134.0566,92.7475,179.9761,138.1841,182.8018,141.0148,167.2787,112.2776,256.2455,88.8092,185.9091
210.5108,193.3673,295.5988,198.3710,193.7735,123.7006,198.6242,142.5372,203.2184,233.6468,204.4103,220.4764,169.6671,204.0894,171.7153,149.7737,323.8322,195.4337,338.1720
279.2697,178.1050,233.8633,140.3305,201.5220,211.4453,292.8634,238.9817,206.9777,294.8441,145.5653,168.5808,95.6460,168.9447,119.0883,141.8346,242.6340,228.9467,420.8578
355.7090,177.7586,213.2348,104.4435,244.2782,286.1978,307.7597,292.0899,225.5483,282.6222,160.7813,131.8355,132.9397,159.6483,128.6050,137.3662,242.9473,202.9579,464.7446
331.0267,208.5127,258.8621,148.0307,261.4597,276.7114,258.4108,276.7110,243.2402,259.0677,222.1823,190.3978,159.0985,182.5900,116.7189,120.6528,310.5942,145.6749,418.7109
301.9464,257.7630,288.7894,215.6746,189.3462,169.4962,201.1686,189.8547,205.1865,208.1939,266.1532,271.5577,77.7856,161.9377,34.2391,102.0584,325.0560,68.5635,274.4937
414.2072,328.6386,323.5398,266.2778,99.8799,46.8651,121.4229,60.3715,111.9983,82.2540,315.6875,296.2787,18.1537,93.8446,-34.4704,72.0562,321.6498,-12.2833,142.1431
533.5822,375.4061,370.7776,287.2633,65.4647,-48.5803,-18.7501,-66.3968,5.5164,-68.4342,353.5407,259.7032,34.5349,9.1102,-60.7934,-21.4753,331.7661,-57.7251,75.0465
542.8475,366.3368,337.4727,262.6922,76.6286,-118.1098,-135.9679,-137.1153,-50.7971,-143.8059,330.9651,202.5025,54.2816,-74.4385,-56.7854,-120.4973,294.4912,-40.6617,30.2405
520.6187,349.7490,220.1760,195.8762,119.7517,-136.7458,-109.7609,-135.8883,-18.7385,-122.1403,287.5912,177.9326,85.1394,-115.6622,2.9419,-118.7065,220.6047,20.9237,6.8456
456.3847,355.3753,145.0959,117.5223,183.6893,-116.3291,4.0985,-113.5479,42.6251,-64.4404,286.5063,207.3338,147.3844,-94.0806,76.7215,-66.4881,169.1102,94.3555,19.8182
351.1737,359.9870,159.9975,55.4393,233.5667,-113.6067,39.2943,-112.4422,39.6786,-37.8683,305.8360,245.3369,182.1006,-56.1531,84.1441,-54.4740,128.5547,157.4053,20.9742
390.1187,358.2561,179.2030,9.1667,244.6234,-119.7438,-21.7592,-115.0372,-16.2864,-59.3539,294.0470,233.9935,177.6321,-32.8161,48.9619,-48.2694,92.7838,191.1463,-3.3843
551.2557,351.1927,145.5371,-31.7952,211.8718,-81.3928,-51.1793,-100.6503,-34.9695,-99.6944,256.6666,188.7691,171.0039,3.3838,28.0291,-26.5322,103.2739,207.4554,7.3083
571.9527,339.3603,112.3456,-41.6234,159.6292,-4.6518,-11.6499,-66.6332,0.8846,-130.5459,233.7412,172.2466,144.6257,52.4674,12.4184,-39.0657,156.2505,246.2573,60.3525
481.4465,356.3513,138.1753,16.0381,146.4581,72.2456,10.1700,-4.3291,17.3719,-126.2326,234.4520,192.2685,88.5973,69.9689,-6.5461,-68.3724,212.9760,296.6196,98.1536
493.5521,395.7436,187.9872,112.1138,175.1148,140.2902,-20.5054,65.6793,-16.6827,-61.3347,237.9965,207.4420,48.9531,64.4577,-22.7865,-65.4043,266.7118,305.6750,114.2249
540.4985,391.7336,201.9827,187.2875,172.4801,196.5489,-57.3695,96.4627,-45.3418,17.2901,236.2963,219.6329,39.6327,92.9002,-49.7726,-46.2467,304.9591,270.2395,138.5835
508.4524,360.8053,183.3105,235.8695,122.1320,222.7865,-78.0524,93.6254,-33.9752,22.7929,225.6186,258.6137,29.5170,143.0822,-71.5785,-20.9633,298.1936,207.0732,154.4864
502.0213,382.9743,146.3848,271.2739,62.2046,203.4678,-86.3789,99.2008,-15.7896,-14.7899,194.5494,301.1420,4.3611,150.0070,-64.8318,8.8872,271.5144,98.2596,140.5185
544.8682,430.5616,92.7620,290.3737,-23.2680,148.2417,-83.4545,110.5206,-12.6155,-5.2031,165.7047,312.8706,-33.8496,123.7226,-78.6474,-11.4111,286.7541,-25.1984,124.8068
543.4849,430.0299,78.2093,321.0364,-109.7195,98.5704,-90.3456,104.0077,-9.3944,19.0937,173.1996,320.3130,-74.3160,116.3415,-152.1641,-83.8166,342.1069,-76.2288,124.5691
530.8480,408.7614,145.5816,378.6651,-73.1474,83.5666,-102.1445,84.7364,-3.1643,-2.2246,189.6588,345.3771,-87.4657,100.2875,-214.5556,-118.5187,368.7374,-55.8362,107.5689
509.3105,400.4681,214.1304,391.9641,82.2574,77.0825,-75.1458,58.6715,-2.3661,-16.7310,183.5495,345.9960,-54.8613,30.4553,-187.2198,-94.8176,324.5827,-38.9472,53.0726
375.1548,370.1848,194.6248,311.0515,181.9859,44.9710,-45.3446,23.4396,-10.0464,3.4185,187.2217,295.5413,6.8053,-44.2294,-98.5328,-69.4808,233.4876,-18.1571,-16.5988
228.2546,326.4466,109.4084,201.1744,178.6131,2.6307,-90.5138,-5.8952,-32.8356,3.1627,197.3283,234.5260,62.7318,-54.2487,-28.7535,-46.4737,137.7601,63.0176,-74.0942
265.1393,308.0005,3.7370,123.2157,184.4842,-9.9964,-151.1333,-11.0166,-56.6228,-10.7096,151.6814,204.5323,89.4171,1.1062,-8.8519,-17.2004,70.5299,174.8091,-98.6022
372.0419,271.6606,-86.6877,64.0283,209.3835,26.4441,-128.2046,11.9451,-48.0307,-3.8168,75.8063,207.1394,97.1160,87.8362,-5.8327,-11.7775,63.2892,246.2133,-70.3570
329.8336,181.1315,-91.9393,27.0591,179.9989,92.2737,-72.0065,54.1211,-19.1085,-11.3617,55.3818,227.9155,102.5067,159.9752,10.6849,-14.1970,112.7926,271.7017,-4.4466
224.5818,111.2409,-12.7835,35.2713,128.2289,144.6978,-44.2563,90.5452,-9.3964,-28.9055,70.9850,242.9682,88.3852,182.0694,18.8196,14.7174,170.2139,283.0584,54.9945
217.8636,116.7220,48.3935,64.3170,110.9162,177.2269,-7.1403,108.9609,-8.3152,0.3414,53.9042,224.5104,46.9604,186.4081,-4.3538,50.0665,212.5443,286.9995,102.0511
210.2959,131.1669,53.2161,82.0284,90.7368,217.9830,18.2494,130.4041,11.3686,45.3657,15.7694,176.1834,12.4526,207.7415,-27.0578,72.0617,246.6181,273.3295,154.2332
98.1465,99.0311,32.4209,88.4564,37.9202,241.9291,-18.4624,151.6628,36.4868,51.8021,-10.0397,136.4758,-7.3308,195.6239,-16.8938,99.9295,238.8299,235.7758,174.4613
42.3242,74.3876,-20.1832,90.1655,-16.7465,193.7295,-46.7811,132.9632,43.7752,47.5823,-20.6360,131.3386,-38.7659,124.8770,0.1802,100.9060,178.9225,173.8298,117.8697
159.2760,104.3593,-66.0095,107.5705,-64.7354,108.3335,-41.2816,84.6235,12.9141,40.1989,-3.9292,146.5174,-63.5702,65.4976,-17.4685,39.9925,156.1212,100.1922,31.9093
259.2299,127.9090,-31.6718,154.5856,-110.2602,72.6925,-100.6574,62.6014,-60.6638,2.4776,27.0879,153.8810,-49.1715,37.7143,-64.5094,-21.9743,208.8559,41.6151,-5.5761
193.9757,93.8683,8.8720,187.8955,-119.7535,90.3365,-185.1444,68.7323,-113.5231,-25.0602,29.6988,148.9200,-22.9108,-13.3504,-94.5156,-39.1593,235.8238,14.4127,-0.5530
127.0388,84.1087,-38.3176,180.1673,-81.2534,97.3503,-160.6937,61.0845,-91.8494,-15.1724,29.3321,152.2766,-20.1032,-72.1447,-85.4709,-55.5948,191.6053,3.6392,-3.9654
181.5855,172.4800,-65.9073,175.6383,-46.7652,55.8323,-106.2233,27.2894,-69.1847,-25.0193,78.0420,178.3729,-36.2470,-77.9337,-80.2557,-75.6522,155.5491,-17.0856,-33.1051
217.6185,260.3541,1.9652,171.7922,-59.9236,-26.4172,-159.0795,-27.5842,-122.4332,-69.8503,125.7361,213.4796,-65.2832,-41.3789,-113.7114,-50.8395,143.9541,-46.8270,-86.2660
168.4541,233.0700,27.8047,114.4113,-92.1521,-103.5682,-241.6546,-95.8524,-191.1362,-102.0950,99.2996,229.4170,-93.8294,-6.9412,-139.9774,-10.0111,108.3912,-51.3421,-153.8007
156.8346,148.9966,-27.5498,58.0795,-80.5357,-121.1843,-263.4113,-141.7743,-207.3073,-116.0541,40.6910,215.2265,-87.7613,3.5030,-116.9804,-12.1568,90.4683,2.3751,-200.2171
198.5868,100.2039,-5.1250,97.9046,-16.6330,-75.7805,-270.1797,-133.3804,-191.6523,-119.1097,33.6354,190.0850,-46.5995,-6.9229,-79.9801,-30.1142,144.7389,96.0645,-197.8900
196.6720,71.2175,113.8451,180.6315,30.0992,-7.6193,-259.3047,-84.1241,-156.4868,-92.3633,81.2705,181.7192,-5.7334,11.6791,-54.1619,-21.6273,216.0886,148.2453,-158.3709
146.1560,61.1600,180.8819,210.9080,2.3999,52.5199,-204.7913,-22.5470,-107.1485,-47.0171,123.5636,200.0019,16.7744,85.6029,-21.7500,-0.4442,244.4446,102.1225,-103.2774
83.6457,115.3629,159.7622,209.1778,-70.4197,91.1860,-183.5752,35.9957,-86.7290,-2.3020,105.7774,233.9610,12.8328,138.4666,-2.4031,29.1153,237.1757,20.8744,-43.8233
32.8709,184.5719,109.7455,209.7939,-126.7405,114.2342,-199.4716,83.5465,-75.1086,53.8344,30.7365,256.7271,-18.1114,126.3601,-16.9364,72.6934,198.5470,13.3258,13.8109
39.3792,180.6425,53.8371,201.8597,-141.8858,137.2209,-137.0270,118.6702,-4.9210,107.9698,-22.2690,241.6826,-32.5427,119.2368,-12.0912,91.4091,141.8749,79.0096,67.2609
65.0778,135.6785,37.2073,206.9778,-119.6411,130.9567,-18.7199,128.8163,77.2408,127.5486,16.9184,201.9792,7.7803,128.5200,43.2230,64.2965,119.1549,112.6324,96.8504
41.5833,129.0191,97.2329,224.7768,-87.2942,56.2944,16.3162,90.8109,80.7282,118.0819,102.0527,184.8589,58.5461,89.9315,81.1920,37.8424,141.6278,39.7001,69.8172
67.7184,155.5053,160.8095,198.3954,-87.9625,-27.6025,-38.6608,29.8262,37.2926,83.5940,125.1502,196.0050,49.5270,45.3772,46.0586,43.0649,169.1037,-95.9796,10.6379
196.7009,161.8309,152.0208,145.3196,-114.5737,-26.3457,-102.0837,10.1324,10.5142,17.5589,66.1067,188.9892,-10.6011,68.1003,-22.0436,58.3141,179.0396,-159.2927,-3.0888
226.4945,114.9665,94.2766,128.0666,-106.3762,38.5734,-143.2196,36.4338,-7.6290,-28.9121,8.0587,155.2683,-43.1560,102.3067,-49.3367,68.4811,150.5890,-69.0437,42.3601
73.8142,30.5527,22.4117,107.7571,-50.2527,84.1703,-131.1026,61.6002,-10.8618,3.6612,10.8321,137.0348,0.7126,100.5160,-7.2072,72.9171,67.4188,89.1451,81.0586
-50.5257,-27.3614,-47.9857,41.6883,2.6266,102.0982,-50.3696,79.6291,22.6590,74.5167,48.3238,137.8267,78.3918,116.7942,67.1569,68.7296,-10.8877,190.8321,85.0068
-45.0703,-31.8011,-80.9179,-11.0894,28.9148,126.3594,26.3513,104.7551,54.7505,92.2425,78.7122,120.4269,117.8943,151.9874,116.9049,73.9746,-13.6071,236.2301,88.7045
2.4431,-23.5101,-74.5312,-23.6808,43.1292,157.2297,52.3941,117.2029,62.1473,49.8834,92.3407,90.6278,112.0296,153.8604,130.0723,102.5297,23.7645,257.6924,102.7906
78.1189,-2.8413,-68.0889,-20.2707,38.8517,180.7454,77.7294,113.0637,82.7091,33.0640,78.3816,91.3792,91.1168,148.3282,123.0314,124.7662,42.6208,230.3372,97.2779
152.4586,53.1388,-61.8388,35.0835,3.0836,184.5674,110.9833,115.4062,109.6935,77.7956,35.1371,122.2138,61.1149,154.9434,100.0243,118.9305,66.7238,176.4433,53.8163
114.9950,73.8602,-44.4734,130.1794,-52.7210,148.5497,87.4443,102.7120,91.5881,92.3701,11.5110,128.2860,39.8513,111.5618,79.0288,99.6894,110.8499,143.2253,-16.4836
16.7815,14.3515,-47.2870,142.5944,-112.7455,76.2885,0.6628,41.8644,40.2587,12.9399,46.1928,72.2285,59.0877,22.8249,83.0946,62.6241,115.7604,90.9178,-81.3570
-0.5770,-16.1344,-85.9020,61.3062,-153.0909,11.8325,-86.2980,-23.3700,5.0360,-64.6928,93.2449,-6.3293,90.6204,-12.1178,92.5365,1.8167,51.5841,16.8642,-104.1540
36.9807,41.4247,-134.0147,13.7299,-139.3556,-8.4240,-125.8911,-32.4773,-6.4368,-52.3853,92.1447,-25.1503,88.6802,27.7835,91.5671,-31.5539,-22.9113,12.1839,-78.8308
58.7074,76.5636,-159.8091,30.5256,-97.4883,1.1009,-105.4446,-8.1067,-5.1019,-12.0396,59.0146,35.9422,75.5412,66.1149,101.6463,-1.0607,-30.1125,34.1655,-41.6843
79.1500,50.1146,-120.6557,60.5550,-124.7172,-3.5929,-65.1254,-5.8168,-1.3709,-8.3346,45.8078,107.6697,68.2677,61.6874,100.5620,41.1437,51.2753,-66.8030,-41.8030
94.0585,70.6033,-1.4033,112.0443,-250.0771,-41.4037,-91.6842,-31.8824,-25.3196,-23.0849,73.0926,129.3807,26.8751,32.7103,37.3745,40.4136,157.2421,-236.5346,-104.0573
115.8394,148.4767,119.3352,164.4283,-358.0798,-91.2181,-194.2591,-68.1289,-89.7750,-48.9870,129.6019,109.3521,-35.7586,0.1917,-50.5910,13.6148,186.4842,-284.2934,-199.4695
183.3899,156.8427,154.9458,150.2426,-321.3277,-125.3133,-262.8246,-105.1564,-150.0333,-74.7022,178.1212,75.9169,-37.4395,-18.8436,-82.0320,-4.8493,127.3997,-188.9613,-251.5690
214.5415,61.5011,124.6740,110.5203,-141.5435,-121.0720,-232.2165,-118.9666,-146.7882,-61.5343,169.8748,48.0270,37.6804,-3.3437,-49.8604,0.1856,85.3022,-53.9997,-205.3579
142.8295,-23.0184,91.5486,129.6879,75.1206,-57.6128,-154.5235,-80.3938,-73.5890,-37.3333,101.4331,52.6291,116.9804,49.6722,11.7720,35.3459,128.3231,65.7689,-84.8808
96.0941,-4.1530,80.6152,172.8435,216.1183,46.5360,-69.0458,-5.4201,14.5042,-43.1404,33.4672,99.4614,146.1683,111.0897,78.8631,77.1702,197.8978,137.8080,37.3554
138.3929,80.3885,98.6964,180.9985,232.7418,127.4152,25.8998,52.2393,63.5671,-34.4620,19.3638,152.2227,131.5618,147.0080,112.8214,84.6856,225.6611,150.9630,106.1408
147.4084,135.5945,135.1142,180.3391,172.4515,149.9773,84.2794,66.2227,79.2157,-4.8991,46.9785,171.0829,104.5549,153.6773,97.8132,66.3189,233.6082,150.5490,116.8381
114.0178,141.4119,160.2341,204.1801,124.4305,136.8908,72.9892,61.7578,88.7523,-11.5873,78.8995,159.5312,86.6001,146.3748,77.3455,66.6764,268.2886,154.1918,112.1912
152.8651,151.2284,171.2775,258.4543,105.1916,115.6647,43.0038,71.7008,81.8149,-11.7837,107.0147,144.9344,78.8594,132.4851,72.2544,85.3204,324.8119,141.7598,132.7755
234.2643,181.2074,176.2514,333.3190,57.4330,99.6874,14.4617,96.3709,53.8846,51.5383,128.8970,135.0743,75.8634,117.1338,50.2698,85.7978,368.5146,130.3560,161.1674
252.6533,202.7192,155.2312,356.8378,-34.3432,98.2537,-46.1124,116.6336,44.5722,99.4848,121.3308,108.5938,66.9744,99.8098,16.7885,72.5728,364.6191,115.0073,152.7433
206.3658,203.9866,104.5863,263.6792,-126.8776,98.6373,-92.7605,121.5692,62.6730,88.6614,84.1023,51.1143,35.2726,65.6805,20.7723,81.7371,286.4978,43.1744,109.9286
145.4395,170.0351,46.2452,122.6591,-203.9072,75.6627,-70.4117,104.0618,61.9697,82.2014,51.3933,-5.6959,-5.1412,23.1473,56.9895,103.9535,156.5414,-59.8308,69.4102
113.9656,93.5639,-21.3257,50.0693,-267.8127,25.2607,-54.1457,53.0098,34.0064,59.2210,28.2763,-15.2292,-17.7233,3.3350,62.7451,90.5971,56.4995,-102.2697,38.9989
118.6247,32.6869,-86.8330,55.8319,-281.9697,-40.0460,-92.0875,-21.3799,20.3996,-19.2333,-8.3028,8.3188,-14.9451,-8.4608,19.8481,38.4101,37.5361,-60.5053,5.6608
94.8408,25.4571,-106.3664,74.3996,-224.1570,-96.2541,-89.8897,-77.7493,30.8525,-50.7772,-52.3218,-4.8827,-31.2752,-51.8250,-13.9787,-4.9491,50.1382,25.3652,-21.7403
29.6484,8.6052,-96.8090,49.1741,-141.3542,-111.5271,-16.1576,-91.2606,50.0625,9.1638,-95.9087,-87.3920,-42.9665,-107.9748,4.5430,-20.3084,14.3379,100.8038,-22.1873
-3.2222,-59.0533,-122.9464,-47.6621,-79.6697,-90.9975,43.8550,-82.8166,90.4130,37.6519,-154.1395,-196.2923,-21.1224,-136.7485,45.2728,-23.9664,-79.4797,107.3259,9.4572
-25.9091,-137.3752,-181.0584,-195.6456,-32.7607,-71.8093,84.5296,-71.7744,154.5217,-0.8244,-200.5008,-276.8363,7.6918,-140.1110,72.1921,-10.9626,-188.3813,60.6819,59.5624
-110.1160,-215.5993,-239.3823,-330.9663,12.5495,-49.0386,140.4181,-41.9556,200.5994,-1.4392,-183.1969,-313.5540,32.7592,-122.3700,98.2975,28.4898,-284.1623,48.8465,99.9688
-193.7953,-293.3463,-307.6459,-386.2951,57.3236,3.5667,148.6721,13.7571,195.7094,56.9091,-122.3912,-308.5991,73.3789,-86.7465,129.1809,69.8423,-341.8813,81.7092,104.6020
-222.5321,-300.1481,-346.3908,-320.3596,102.2717,49.1736,86.9888,60.4498,150.6189,97.9559,-75.4591,-264.0085,100.0142,-75.6996,132.6879,87.9991,-313.9120,86.1234,76.9596
-244.7735,-204.3862,-277.3651,-173.0636,123.3604,33.7358,44.4872,63.4917,95.1336,90.8445,-51.9591,-207.3468,71.5570,-110.2219,95.2708,77.9924,-198.1423,42.4410,42.7705
-220.5853,-92.0291,-149.2218,-72.4810,89.0059,-21.1651,41.2310,31.5634,58.3567,66.6111,-48.1771,-188.8325,14.7162,-154.3091,39.7813,34.9451,-94.3238,-18.7380,14.0129
-99.0336,-49.1084,-90.1528,-88.8046,20.2042,-63.7490,19.4450,-2.7203,48.0975,61.0496,-62.1879,-222.4617,-26.0739,-195.7273,-3.0377,-20.7450,-97.3442,-83.3783,-19.4940
-15.4177,-77.4542,-109.5856,-147.7318,-38.1259,-101.0036,-13.8282,-31.1430,38.0346,57.7736,-53.3659,-261.9945,-41.6649,-244.3854,-7.4858,-44.2283,-163.8733,-144.8960,-70.4265
-47.1322,-114.3692,-133.5401,-164.5445,-83.7953,-177.9057,-32.4645,-81.8531,14.7494,0.4280,-9.1263,-260.9268,-33.5700,-270.6694,15.0966,-43.6066,-183.6679,-213.5230,-133.1384
-57.2929,-84.4243,-141.4839,-148.0088,-127.4829,-292.1818,-46.8488,-165.1702,7.7892,-86.2114,11.6036,-227.9391,-16.7093,-264.8021,19.0304,-63.9817,-142.7692,-299.8261,-172.8065
-8.1132,-2.4069,-124.8020,-138.2392,-152.6156,-367.2683,-40.6476,-227.7205,24.0023,-106.6187,-6.6786,-202.2944,-22.1442,-263.4747,2.5208,-87.5926,-108.9140,-344.8055,-160.4655
-11.8310,25.9878,-53.0268,-154.6109,-152.2641,-337.5708,-20.6957,-215.8834,17.7848,-64.6233,-10.8720,-203.5980,-51.4987,-256.3496,0.2690,-72.8366,-101.7947,-281.4762,-126.3493
-47.2190,-32.8220,34.1710,-188.2023,-136.2941,-240.5517,-48.2206,-157.6532,-21.2600,-37.5030,3.0252,-225.7795,-73.5216,-209.5367,0.9440,-47.1741,-86.7909,-141.8916,-117.5200
-42.0426,-113.4109,48.3371,-194.3917,-94.4731,-156.4525,-93.2380,-107.4222,-37.5322,-23.0487,-0.2127,-250.0535,-65.4271,-155.4924,-11.9011,-42.0238,-57.8686,8.2229,-111.7382
-62.2000,-172.9529,-8.7551,-151.1225,-20.8778,-93.5547,-63.6257,-62.4543,-8.4680,5.2891,-9.7558,-245.1040,-28.7585,-118.6030,-7.2233,-26.7614,-35.5613,135.4067,-67.8670
-122.8762,-184.5807,-51.1342,-101.3290,52.3055,-27.1878,-6.4294,-13.5904,16.5954,15.9173,-8.3916,-193.1638,8.1471,-64.2234,12.9107,6.8716,-17.9425,194.0861,-25.7277
-113.6876,-123.9238,-39.9853,-82.0840,94.6246,17.3742,-22.4666,5.1973,2.9312,-3.8652,-6.9977,-132.7119,15.7968,-6.0718,14.3477,16.4753,0.9876,170.9787,-36.6403
-42.2295,-56.0283,-14.4648,-88.4169,105.9006,20.7303,-66.0124,-10.3908,-20.2126,-34.4871,-1.8198,-124.5304,12.3216,4.8046,26.7908,4.4671,-0.1675,138.1373,-55.8910
-33.7437,-63.0495,-15.6877,-112.7538,91.2899,22.2609,-56.2956,-10.9608,-8.3026,-66.7022,6.8946,-164.2047,33.3636,-2.8754,75.6123,12.4022,-32.5895,140.3069,-24.6572
-89.8790,-106.3563,-42.3907,-127.8897,66.4227,49.7152,-18.8420,19.8680,43.0899,-61.9566,3.2936,-185.2814,69.8561,13.9917,102.7393,23.1867,-59.0447,145.8775,23.9379
-93.6236,-109.4043,-64.2864,-89.6748,72.1654,81.2268,18.5166,52.6935,90.5060,0.6174,13.6124,-146.7620,99.8546,17.6808,85.8676,-11.5029,-41.3439,149.4961,36.2367
-5.1486,-54.0970,-47.0717,-14.1586,119.6527,98.4000,68.5418,77.4979,90.1384,44.0831,64.1762,-64.9861,121.8815,-9.3672,74.2162,-73.6205,3.6287,164.2705,22.3406
87.4425,47.0396,24.3115,49.9512,152.0667,107.4235,97.3609,97.1978,60.1404,24.6337,107.0585,18.5005,122.6183,-11.3552,64.2544,-105.0059,48.6180,147.4038,16.1289
98.2723,124.0528,127.5489,106.1010,120.4519,114.2529,68.5263,99.9791,53.4364,15.3187,106.8300,63.3404,93.0263,20.3828,24.3566,-93.0004,109.2098,64.9210,34.9105
64.7024,98.1912,207.5939,154.2915,56.4628,114.8610,20.0549,89.2095,70.0275,38.7225,99.0521,59.8978,56.8209,25.1512,-16.1617,-59.3048,181.0395,-44.0644,83.1994
70.9122,28.4942,212.2351,145.3398,18.6614,101.7688,-4.3137,83.7257,69.9123,33.8986,86.9780,38.0872,23.0563,-11.6031,-36.4566,-16.4359,193.3438,-113.8279,134.7778
88.7232,-0.1151,141.4414,79.9668,16.4683,83.6351,-13.2078,84.0438,50.1587,17.8190,39.4007,18.5002,-13.1958,-40.7011,-51.8854,9.7094,114.3215,-90.5219,142.7216
43.8848,-40.6509,61.7508,28.2104,34.5645,88.2954,-27.8664,87.5635,30.3131,41.1347,1.9728,-4.7990,-14.3638,-31.3425,-40.0885,-12.4860,18.4247,24.5715,100.6566
-27.0325,-114.2360,31.4952,12.3024,70.0420,114.2049,-51.3340,97.3913,14.9638,59.7346,32.2761,-23.8690,45.7618,-1.6960,10.1905,-48.4491,-34.4781,130.1379,51.1242
-63.5728,-137.1852,7.9513,-15.1630,102.6483,118.4882,-62.2797,95.0509,22.7578,42.8645,72.7549,-29.2237,112.6139,15.5607,41.8643,-30.9053,-78.9696,136.7115,34.5050
-95.8122,-129.7591,-84.1071,-76.4196,105.9637,97.6415,-30.7941,74.0983,67.3761,52.2155,42.5481,-37.4494,125.2316,19.4413,27.3611,21.6951,-134.8634,109.1331,67.9719
-131.0803,-158.2520,-188.0906,-125.0841,108.8099,110.0107,33.1350,80.0219,110.5247,99.7456,-32.5076,-43.9066,86.0918,44.5035,6.1058,44.8582,-143.3301,155.1394,145.6599
-111.8487,-156.4637,-170.4700,-104.3528,146.4002,171.1859,93.1512,135.7990,134.6108,118.6678,-87.6062,-19.1264,27.2169,96.6464,4.1066,52.1111,-73.3502,229.0050,229.4741
-58.2414,-103.7747,-52.6243,-35.6822,168.3983,214.0878,144.5383,186.0008,185.7657,110.7371,-117.7307,16.3823,-15.8473,120.8804,22.2269,73.9303,9.7294,200.7752,273.0500
-52.2344,-107.2443,-0.3716,-5.6407,119.7999,196.1352,186.3402,185.5330,255.4103,136.2525,-146.8944,14.6635,-22.7689,84.1877,51.7464,65.0182,24.9817,69.0730,273.5700
-81.0236,-162.2710,-73.0714,-41.3562,57.1114,156.0590,203.1781,165.6707,274.1651,179.5868,-177.9702,-15.2724,-18.6824,42.9256,62.8614,18.3305,-32.9607,-42.7536,273.8337
-70.5743,-178.7396,-166.3751,-87.6556,50.7619,130.7601,232.4661,168.0427,267.0366,185.0055,-202.0549,-33.3646,-29.6110,62.7429,49.4704,24.0378,-97.4574,-79.9637,298.8385
-22.3558,-173.1038,-178.8465,-113.6413,61.3918,106.8791,311.5276,188.7747,305.3728,174.5311,-205.7140,-23.0905,-32.9898,115.3135,39.9727,96.7979,-97.5775,-107.2456,315.9843
4.9751,-164.3470,-89.5473,-120.2061,25.0549,77.1153,355.1615,200.1259,338.5579,194.5639,-170.1425,10.4335,-10.6627,120.8311,32.9765,125.8280,-28.3595,-168.1672,283.2784
-15.8197,-128.0746,56.5168,-89.7709,-47.9209,54.1976,276.2031,177.2798,294.1251,208.1045,-105.1747,23.9915,17.3338,59.6818,21.9943,66.0900,38.2545,-228.0979,205.9186
-63.3962,-121.4737,153.9970,-41.9456,-117.2345,27.4284,153.8720,121.1446,222.7939,161.3534,-60.1384,-28.6550,39.9994,-18.1601,37.9718,-3.8081,27.7385,-250.2265,110.1893
-90.3311,-152.3014,127.1670,-34.5310,-147.9179,-11.1099,84.9335,66.4864,166.0456,91.3551,-56.2784,-93.4136,59.4645,-68.0168,74.5952,-29.0872,-55.8444,-215.0420,10.9593
-75.9349,-103.3674,25.2075,-60.0891,-113.8054,-30.9133,29.8509,34.5308,81.3482,60.5126,-51.3016,-77.5125,64.8531,-80.9865,87.2340,-28.9571,-147.8730,-118.8102,-59.4584
-77.7687,-5.8071,-63.2856,-79.8362,-50.0741,-20.7777,-32.9270,9.9914,-6.9602,58.3851,-20.8398,-11.7779,55.1484,-61.6334,85.7177,-22.1759,-212.9037,-22.8206,-64.8700
-159.1963,-31.9665,-125.8176,-112.9100,-29.7627,-6.1704,-33.5899,-0.3126,-20.5760,55.1788,-6.6477,14.4840,43.4708,-15.1658,87.7818,-5.2611,-264.1195,16.2861,-26.1070
-261.4651,-166.9394,-181.1968,-160.1450,-49.7705,23.9394,22.7731,43.1003,20.7299,68.5138,-31.1903,5.3193,32.2478,52.1057,66.8758,28.1803,-292.6274,58.3759,15.3541
-267.5716,-259.5546,-216.9625,-169.0094,-51.9155,92.5270,64.3587,131.0074,63.6014,113.9320,-56.3087,-8.7155,26.7723,118.3586,47.3366,79.3751,-263.3557,148.1517,62.9273
-190.8688,-269.1364,-220.7523,-151.8097,-40.3909,149.4977,98.1205,192.2734,116.9505,162.8822,-63.9495,-53.4571,38.2602,134.3298,83.7986,121.5755,-200.8213,177.3494,113.7026
-147.8209,-223.5522,-205.7318,-173.9864,-56.4488,137.8017,139.4191,180.8036,161.8391,176.6822,-75.1580,-118.0726,55.0156,81.4454,134.3957,110.3062,-181.1831,70.0287,128.1111
-159.3669,-161.4830,-196.7673,-225.8921,-93.7625,84.5506,139.7991,114.4818,153.1800,137.5293,-83.9658,-125.3328,57.9481,33.1106,136.3069,54.5700,-216.8487,-72.3372,106.7332
-149.7277,-147.9790,-200.9694,-248.5439,-129.3897,31.8945,109.6341,37.5104,128.6332,63.7221,-66.6546,-48.3583,49.5550,65.9479,114.8310,29.3451,-239.3590,-151.9899,85.6761
-103.5606,-165.4630,-178.5385,-227.6953,-160.3551,-21.6075,103.7169,-13.9643,129.7787,8.1409,-32.3269,40.8130,33.6056,137.6825,88.9663,74.8246,-207.5859,-192.0934,58.7622
-59.1037,-143.9579,-95.3301,-190.0234,-173.9548,-70.5279,86.4427,-33.1304,106.1415,-0.6991,-1.3550,51.8775,8.1765,157.5801,36.9987,131.6447,-155.6481,-224.9731,17.6893
-17.3870,-117.0929,-1.2478,-168.7158,-157.8754,-99.0658,30.3177,-44.1806,36.6237,3.6912,25.1949,-13.7305,-7.1202,118.9603,-3.0056,121.4161,-126.4568,-249.4745,-1.1619
12.3872,-111.7515,39.1866,-158.6490,-125.6598,-111.2579,13.3395,-63.7318,-13.2523,-14.3748,51.1819,-46.4215,17.8996,68.6759,24.0629,46.0059,-112.6360,-260.6666,0.6119
-3.9774,-52.8434,50.3184,-100.3013,-82.2403,-105.9026,46.3545,-81.7559,-22.7801,-51.4936,79.1624,22.7745,86.0873,30.3342,88.0090,-37.8964,-83.0594,-220.6020,-27.8595
-23.4692,45.9449,77.8636,8.7553,-12.6454,-84.1574,32.5204,-91.1534,-41.1410,-105.2492,110.1031,112.2720,167.8533,15.9529,127.6550,-87.3159,-42.9796,-103.4998,-75.7357
37.6985,84.0051,106.7276,71.1441,73.9996,-71.8265,-24.1600,-96.0579,-81.0401,-171.2988,135.7622,126.8041,224.1719,24.3663,122.4273,-76.0178,-22.2139,23.7626,-83.5052
149.2415,77.5667,117.0140,60.4099,139.3256,-67.8655,-28.0535,-96.7417,-103.1410,-199.7221,148.2985,93.7114,231.6175,24.8431,88.3314,-5.5110,-7.9860,80.2841,-56.1081
195.3202,77.5738,110.7076,70.2733,151.3083,-45.2762,18.2114,-99.3381,-78.2064,-153.2865,134.7937,72.7269,193.2079,15.4529,74.3551,59.0979,35.4454,72.4878,-44.0292
125.8150,49.6602,70.7383,134.1621,106.8906,-18.1163,50.4584,-105.4137,-20.5411,-84.0925,71.4437,74.4520,135.4645,42.3978,113.9322,52.6754,85.0450,54.5010,-50.3599
-7.2422,10.0182,-5.3799,192.3542,40.1679,3.4297,62.5867,-81.2923,23.9693,-49.5926,-20.6620,103.1856,96.8795,109.2878,164.8782,3.8471,87.7529,64.9404,-38.8063
-97.6672,24.8004,-75.3779,215.2444,-7.0774,57.6690,59.6658,-3.9849,33.2532,-15.7531,-65.3035,142.1466,92.0099,158.3364,168.6639,-15.1489,48.3218,100.1151,3.1954
-68.4159,57.2622,-110.5934,193.5544,-31.5687,131.9203,33.8668,79.3259,33.3096,51.5410,-40.8690,131.1000,95.8288,168.6835,132.5026,23.7706,9.1640,110.7096,53.6808
20.4880,38.7963,-117.0900,117.7745,-47.8507,157.9200,22.8907,115.3164,46.8825,101.3728,-12.6794,54.1750,100.7706,172.5388,111.6030,114.6156,-5.9874,75.5880,90.3046
33.3121,-7.6044,-108.2538,56.3811,-53.2205,142.4009,62.2162,117.1662,71.4235,100.4418,-18.2380,-22.7466,130.9852,174.4228,150.5487,213.1324,18.8915,40.6972,108.9159
-35.2259,-22.4992,-105.6090,88.0273,-63.0175,129.1363,107.4405,105.3867,97.0254,88.7507,-31.8025,-35.6383,157.3887,152.3428,216.8073,229.1739,78.8481,15.3936,101.2806
-80.7053,12.1861,-111.7011,151.1426,-112.9501,84.4624,91.3428,59.0403,91.1297,74.2039,-38.0499,8.8781,114.7384,118.4861,208.4931,145.2896,107.8712,-62.0292,49.1942
-98.4129,32.1331,-95.6444,120.1202,-186.8083,-19.8445,16.1123,-24.7638,30.6811,25.4881,-36.6379,26.6929,28.7733,89.3324,113.4944,69.4649,35.3946,-197.1654,-34.0150
-161.4239,-56.3641,-76.5775,-26.3832,-227.0757,-128.1545,-52.9702,-109.7492,-33.7255,-29.7424,-24.3880,-65.1404,-21.1134,33.9762,47.4584,62.5346,-122.6357,-305.1010,-105.4242
-247.1367,-201.3813,-127.7053,-210.9414,-222.2903,-197.1648,-68.7848,-171.7402,-46.7093,-51.7289,-30.0658,-218.5046,-32.7159,-60.7920,46.5881,54.3194,-281.9510,-326.9721,-149.5700
-279.8469,-259.0538,-241.9685,-348.4263,-203.0075,-235.5648,-54.4280,-205.2645,-33.5955,-69.8913,-77.6920,-298.2982,-32.5453,-132.6611,37.9106,4.3202,-380.5875,-287.8049,-176.9594
-270.1004,-247.5934,-335.6729,-399.0328,-185.4810,-248.3897,-51.3899,-209.8174,-29.4932,-104.5722,-120.9987,-271.8137,-5.7534,-138.0114,31.6203,-35.0610,-422.9399,-243.4244,-189.0978
-281.3311,-251.0352,-380.1748,-377.1384,-172.2912,-240.2135,-51.2486,-199.0481,-28.0414,-117.3508,-114.9058,-202.1166,25.8176,-116.0565,64.5483,-44.6115,-433.3122,-203.9559,-192.3971
-327.3532,-198.2703,-386.8913,-301.5141,-156.4686,-207.6374,-32.1737,-170.7460,-31.7078,-87.4578,-97.0099,-105.1090,8.1204,-85.1536,49.0450,-53.8965,-396.5859,-120.7632,-191.6769
-357.9437,-62.7726,-348.1667,-178.7449,-119.3642,-119.0082,-5.7138,-97.1478,-36.9280,-31.5515,-118.6389,14.3138,-37.9489,-8.7325,-51.7504,-49.7065,-302.1243,16.5725,-159.8704
-324.1907,1.4051,-294.1242,-61.8005,-62.0875,8.2341,21.5628,0.2529,-15.6585,25.4784,-167.4725,87.3382,-56.1521,82.8701,-106.8383,-6.0990,-207.7683,127.6038,-81.6087
-265.4324,-47.7161,-271.4194,-11.6605,0.5024,93.2153,56.7248,53.6836,20.1369,46.1963,-192.4061,76.6882,-47.2669,106.3860,-64.2316,45.1639,-158.8821,160.3439,11.8092
-261.9518,-70.2556,-247.2294,6.2491,65.7776,115.9401,78.9229,60.1530,40.8205,27.0574,-154.5052,35.6454,-34.1639,75.9215,-33.3647,61.9899,-103.7274,156.9568,96.6330
-264.7743,-21.7963,-175.9894,54.8678,98.9634,120.3689,69.9035,72.2926,64.7026,21.7992,-80.6137,21.3398,-30.5667,67.4039,-49.1367,50.0941,4.8363,145.5532,168.0444
-155.7247,19.2038,-92.3432,105.7560,46.5719,112.8502,57.9215,95.1712,95.3898,43.7778,-65.3214,38.0065,-53.5256,81.9357,-39.8804,37.8864,117.1240,113.9895,205.0004
-4.3912,9.1639,-40.3081,100.4017,-43.4940,97.6251,71.7057,108.7625,104.2427,52.5815,-136.6332,53.8756,-86.8473,87.7997,-0.2388,44.6493,167.9922,84.8565,209.0689
7.7392,-46.4912,-28.2751,44.1116,-64.8651,107.7038,96.5181,118.3495,109.1680,53.1208,-181.7738,42.8280,-94.9494,89.6016,18.8087,67.9814,145.2549,65.6620,206.1706
-95.2904,-92.6593,-54.6919,-7.2870,-33.5027,109.6105,96.4525,102.6879,112.9356,62.1438,-113.3813,31.3983,-90.2074,73.1527,3.2947,73.0732,81.4345,8.8126,165.0508
-133.9921,-55.2652,-61.1379,22.2924,-33.1217,39.0690,46.4953,31.0154,48.6790,43.1420,-0.3901,56.3159,-94.7425,15.4771,-41.7914,32.7260,61.4706,-70.9519,50.1277
-54.2556,37.0409,26.3112,152.5324,-37.6470,-60.2372,-36.1228,-51.5847,-65.9944,-9.1881,57.6037,84.3494,-89.9567,-48.5927,-96.7998,-16.5746,147.3942,-87.8132,-57.8056
67.8896,97.8691,144.6373,263.1404,9.3880,-98.7602,-82.9295,-80.8526,-107.2711,-44.2479,60.0312,74.9293,-66.6011,-78.6854,-108.2654,-22.9772,260.2638,-32.3019,-57.9497
138.3668,104.3849,178.2692,231.9748,61.1624,-70.6363,-47.0964,-60.6435,-55.2172,-44.7042,60.1366,57.8075,-35.3374,-74.6246,-58.9952,-5.7011,279.6856,36.5945,15.6882
78.5266,46.8875,163.3748,129.1536,71.7575,-6.7957,22.3056,-10.5750,-6.4976,-21.6212,93.2941,56.7914,-0.1432,-30.0870,-16.8716,-7.2346,225.1964,107.0054,72.4146
-44.1441,-52.8123,183.9921,93.9565,70.0047,79.4646,40.8390,59.2945,0.0947,11.6061,145.6022,58.9996,10.2647,46.8894,-46.3752,-4.8347,188.7383,182.3730,98.1122
-24.3012,-68.7882,197.7471,118.6329,59.1103,156.3299,12.5407,108.6101,-4.5124,21.9342,152.6499,86.6638,-22.3728,109.4091,-109.6510,30.3967,182.2770,223.9245,124.0165
145.4463,28.3963,158.9971,121.1296,20.9889,193.8355,20.6443,127.2823,11.6808,29.5191,90.5235,141.3542,-38.8790,150.5885,-110.1908,65.7266,168.3816,209.0952,160.3929
227.6964,73.5502,118.5096,92.0434,-2.3703,190.7535,87.2482,159.5913,65.7428,99.7014,36.8657,137.8549,-1.3969,184.2138,-28.9017,88.0349,134.9650,157.2854,192.6485
153.7719,16.0249,99.0680,61.7152,16.8881,136.2359,132.5032,182.5258,113.2283,173.2395,55.8539,49.7027,30.7788,152.2644,46.1304,126.6771,99.8263,88.0185,188.9990
104.0213,1.8464,86.1254,53.6028,28.2714,35.4638,105.8850,119.7889,84.9928,130.5690,111.0074,-12.1807,24.3501,34.0697,45.9380,142.0224,114.2436,15.1852,130.2792
161.7224,66.3636,120.1532,90.5548,-6.5727,-50.5298,45.2073,-0.5149,13.5108,16.0852,149.3049,16.4403,8.6058,-51.0545,-6.2204,70.5251,214.1189,-54.0690,40.7388
250.6766,110.4392,209.7142,155.8261,-75.1183,-84.4232,-23.6699,-85.1096,-27.9612,-66.6103,151.6916,57.3704,-23.7609,-26.8456,-63.2145,-17.4601,338.2784,-119.8676,-38.8845
308.8635,115.6161,270.0717,194.0148,-152.7259,-91.5179,-104.4452,-113.6023,-57.6791,-123.9832,107.4875,42.0030,-71.4646,23.3267,-97.2031,-13.4465,379.3990,-151.5022,-81.9243
285.7177,102.0076,263.8739,177.8729,-180.9089,-86.9156,-150.5037,-102.3645,-98.1472,-140.1371,57.0795,2.4332,-67.2183,26.3263,-83.6910,38.4505,303.6809,-122.7861,-79.7365
167.5393,52.6653,241.9700,113.4020,-100.8946,-87.0738,-119.2407,-68.6838,-101.0083,-71.1262,78.8124,-13.2969,2.9145,-0.4490,-26.4277,40.1409,168.3159,-99.3248,-64.1068
58.9468,10.2743,224.1035,31.2139,35.4243,-145.5742,-65.2172,-78.1959,-67.0261,-22.9950,151.0159,-6.3966,69.6573,-48.5278,31.0123,0.3603,68.2225,-151.0002,-89.6152
29.0781,36.7951,193.9305,5.3499,117.4136,-245.2031,-58.2111,-154.3295,-64.0291,-89.7063,165.8189,-2.1220,98.2088,-107.7769,51.3120,-38.2377,59.6225,-201.5918,-146.5633
13.3503,83.6078,157.1772,63.2620,128.7665,-267.3970,-77.2445,-194.7720,-94.6057,-140.3076,104.6131,-14.5983,89.7486,-121.9755,27.9329,-63.9116,91.2546,-137.5335,-155.4307
-1.1954,64.0874,106.0127,102.1784,127.9175,-164.0762,-54.1529,-127.5798,-90.6489,-63.6867,42.5643,-39.0583,45.5801,-76.2150,-9.7636,-44.3300,72.0136,-0.7511,-78.1693
33.2357,-20.9772,21.3959,38.2878,142.0722,-14.8289,30.0053,-13.0027,-18.8798,40.5196,8.0071,-60.6651,13.9039,-22.2209,-10.6226,23.3104,1.5951,91.9550,37.4729
47.6886,-107.2398,-72.5913,-56.1846,159.4476,110.3411,110.6953,86.6559,78.3108,88.6987,-32.2929,-65.5431,30.2914,15.5627,21.9377,65.3357,-63.4139,123.8079,132.6280
-18.2478,-139.0372,-145.9742,-88.3214,152.8792,197.4960,123.1367,164.9402,134.7202,121.9876,-91.1940,-48.6315,37.9745,49.7853,30.2151,52.5461,-102.3251,146.7267,189.0563
-56.6657,-98.0340,-192.9456,-62.8458,111.2339,234.7434,117.1843,207.4916,149.0722,155.8700,-130.2993,-18.1975,8.6222,73.8953,23.0903,35.7693,-98.8303,181.6729,205.1467
-13.5319,-2.8645,-182.5552,1.1198,89.4986,222.3987,164.6067,211.4883,166.5153,166.8419,-100.6367,11.7035,6.3536,70.7026,55.9184,23.1472,-34.6063,215.5099,176.0444
-3.9868,89.7176,-92.0249,90.0941,143.2152,181.8034,196.4557,198.2464,162.6522,162.2061,-24.5180,30.5519,43.5940,38.9369,95.8130,-9.8921,46.0310,213.8527,115.3900
-51.2172,101.5107,19.9660,139.3801,216.9411,126.8976,138.6101,160.1288,93.9712,146.2332,10.9462,28.2192,62.4514,-6.3283,85.4383,-31.6016,87.3054,147.3157,60.2923
-37.3834,34.5434,84.1580,119.0501,228.4007,81.6946,73.9887,96.5145,28.1640,113.7909,-6.7128,6.1567,62.6638,-37.2345,64.7536,-19.0997,104.5909,55.3795,27.0083
36.6888,10.4188,110.9360,99.7238,206.3672,75.8229,60.3317,50.6268,26.4573,74.1097,3.0559,-2.5242,76.7031,-33.3857,75.7606,-9.0519,128.1144,15.3408,-6.6279
58.4791,80.0682,141.1976,129.9626,215.9081,91.1277,26.3992,31.8557,21.2006,26.7501,57.6335,37.0371,92.5354,3.8317,83.2611,-12.7423,155.8657,36.6186,-51.1622
31.5823,130.1239,186.9252,177.4092,245.8116,93.5292,-24.2213,13.6812,-18.2086,-17.8785,101.5283,105.5445,101.4553,57.6304,71.3770,-11.8886,191.6134,69.9728,-84.5948
29.7988,104.7968,236.3020,215.6878,256.2375,91.5745,-9.3571,9.3638,-18.3377,-19.5706,124.2975,141.0918,109.8800,87.6216,63.5607,-22.1464,222.2306,80.6799,-99.3631
21.4670,87.6963,255.9639,231.2484,230.2415,89.3023,39.5149,23.7459,19.3207,22.3566,130.0180,114.6941,97.4514,58.0486,54.6905,-41.6436,198.4583,48.8613,-113.2729
-39.5018,101.1130,224.8759,196.6982,162.8028,63.7492,51.3057,15.4677,30.5146,60.4415,101.4047,62.3568,63.8242,2.6885,38.0536,-25.2834,119.2208,-18.7799,-128.4976
-75.5658,85.1551,174.8322,131.7803,83.8972,23.0291,39.2172,-11.1511,29.9832,69.9131,76.1260,20.6695,44.6797,-21.8388,24.6193,15.5672,41.2137,-62.4511,-130.1908
-23.7353,27.1683,129.0800,81.0717,44.9399,-14.8907,10.5875,-18.5635,31.4362,45.8660,85.0491,-28.5927,36.2560,-30.9625,5.1573,17.3354,-16.7080,-52.3099,-112.5972
26.7802,-71.0213,59.0566,22.5267,41.7527,-66.1802,-31.6939,-33.9391,-4.8694,-10.1845,59.9150,-98.9042,12.7092,-57.0542,-18.6312,-16.3136,-66.4838,-43.8190,-79.9071
-23.2188,-194.2499,-25.7361,-66.5251,25.5379,-120.8564,-28.6491,-81.2076,-42.0484,-57.7958,-14.2035,-148.5258,-5.4019,-79.5131,-24.2191,-31.0296,-93.2569,-64.1955,-46.8074
-143.9560,-253.0457,-55.9051,-136.1317,-18.6526,-133.8096,13.3079,-104.9851,-10.2134,-58.0478,-33.1222,-163.5346,-0.1722,-91.3755,-32.3377,-22.6856,-103.0197,-60.0407,-33.9702
-247.9955,-219.9352,-22.1055,-169.9083,-64.9992,-111.6627,14.5938,-78.3193,36.3128,-28.1083,13.5224,-189.7806,-0.3560,-111.6420,-66.9962,-17.3430,-138.3874,-15.9995,-41.8337
-258.0293,-189.5646,9.8976,-212.1679,-78.5098,-102.3734,-7.2771,-57.1189,6.5368,1.5222,29.9358,-220.4349,-17.0154,-122.2738,-81.6957,-13.5606,-192.0782,11.0624,-56.4935
-145.6143,-185.0402,7.5219,-248.9319,-45.5941,-129.9704,10.1270,-82.1393,-83.1654,15.7452,21.0553,-204.9614,-25.6098,-122.1331,-42.3620,-9.5803,-218.2842,-10.1794,-78.4838
-31.6346,-164.4608,-24.5930,-245.4156,-14.7705,-196.2246,36.0788,-135.0060,-168.0625,3.3055,29.7278,-182.1505,-23.3235,-151.6920,1.5435,-20.8090,-231.1576,-59.1483,-102.2970
-83.1566,-182.3626,-100.1720,-245.3309,-48.7577,-248.5438,34.6484,-162.3605,-213.8120,-10.3133,-2.2314,-213.0219,-28.3302,-177.2542,-0.7709,-40.7408,-270.0472,-97.9285,-96.1386
-239.9274,-263.2316,-209.1986,-267.9844,-124.5560,-179.7734,20.8103,-104.8538,-216.2102,20.0283,-87.9824,-242.3447,-46.0001,-130.5677,-41.2420,-41.3496,-307.2538,-86.9718,-49.7602
-306.1348,-300.6076,-284.4438,-249.7685,-181.1631,6.6901,-7.9297,22.2625,-206.1337,77.5283,-132.2436,-208.1187,-73.4068,-63.8299,-77.8675,-21.1895,-299.9556,-31.2231,-0.8814
-274.9307,-261.7846,-274.9897,-188.4655,-217.1438,155.3834,-34.4384,119.8387,-213.0859,112.5560,-115.7522,-152.7078,-100.0138,-48.0466,-71.2575,-9.6819,-267.1848,6.7421,20.4906
-257.4044,-223.1399,-203.9121,-152.3743,-238.6182,182.1275,-17.7090,140.4496,-218.2077,124.7226,-102.0388,-107.2017,-109.0548,-28.6085,-37.0368,-16.6011,-232.3873,-9.2783,25.1820
-240.8927,-186.8920,-130.4855,-131.7908,-225.9282,144.7369,9.5559,121.6567,-204.0906,126.8793,-89.7862,-48.4230,-107.3339,19.7437,-31.5544,-14.2706,-177.5585,-56.9024,17.9170
-179.2157,-123.0394,-90.7224,-74.5016,-215.2010,76.9580,-2.7037,75.2663,-196.6810,98.7495,-56.3026,0.1262,-116.9631,-0.7588,-53.5625,6.9668,-114.5785,-107.9525,-29.4346
-112.4278,-81.3489,-87.1067,-8.0107,-252.2055,-19.6521,-33.8320,-5.7003,-212.7122,39.3670,-34.9759,-3.5219,-127.1520,-111.0879,-60.8660,5.4273,-98.5387,-128.3819,-114.1842
-73.5069,-99.0375,-113.1445,15.4759,-273.2115,-85.9081,-62.0029,-72.1477,-225.7567,-6.3116,-42.3653,-39.5104,-110.5483,-197.1509,-61.5990,-43.2138,-129.2029,-82.5917,-158.3285
-72.4102,-135.3318,-148.0776,-5.6153,-210.2500,-92.9442,-69.7967,-80.7863,-200.7283,-8.1143,-51.8503,-70.4168,-84.6364,-202.0661,-68.1807,-90.6453,-145.0843,-5.2529,-106.2644
-118.8034,-132.5302,-136.9998,-59.0330,-136.0419,-92.2589,-19.2323,-58.0395,-141.3432,4.0613,-44.8792,-81.6206,-90.4216,-176.8545,-54.1053,-90.2712,-129.9687,28.2484,-27.8355
-152.4520,-83.4058,-58.2375,-124.5604,-143.5097,-100.4650,37.4378,-41.9145,-100.0045,-15.9282,-17.0949,-85.3156,-115.6856,-170.9918,-31.1362,-69.1968,-125.6827,16.6441,-18.5670
-123.1815,-70.6054,2.7636,-159.2926,-194.3732,-94.4633,6.9950,-39.6726,-107.9573,-50.4670,9.1676,-135.5496,-109.0564,-195.8278,-28.4560,-63.6917,-147.1034,8.7952,-51.7757
-94.3780,-152.7848,-30.2353,-149.7340,-193.3558,-90.1645,-49.9538,-37.4714,-119.7303,-34.0266,-8.1858,-242.0656,-69.5330,-230.2944,-16.3453,-52.0827,-165.9847,11.2210,-51.3737
-91.4978,-220.1840,-80.6651,-125.9781,-111.4403,-90.0484,-29.9392,-6.8253,-93.6542,42.3349,-51.7246,-303.8004,-48.0825,-233.0821,13.2928,-7.7072,-159.8008,11.2439,-26.2458
-58.8014,-176.3063,-47.6522,-106.8688,1.2195,-56.2999,25.2146,53.3927,-55.1951,123.1514,-57.5147,-257.3190,-50.0559,-192.7417,16.5971,48.5029,-129.1682,15.1373,-9.0577
-38.6254,-118.5202,11.8881,-86.3081,70.4873,4.6448,66.3663,98.5623,-17.6692,176.7471,-26.5017,-164.8932,-22.2218,-120.2399,16.8336,82.7288,-90.1074,23.1023,28.0361
-82.7392,-98.3466,-0.1974,-54.6467,79.7847,60.2278,123.1390,115.1116,39.6130,197.8931,-11.0797,-80.7219,37.5200,-14.2406,61.9922,86.9468,-59.5527,40.6394,95.2270
-81.4168,-20.5549,-43.9856,-12.7795,80.2386,120.4571,163.3445,141.2870,86.6393,172.4502,-22.3072,-21.7354,57.5932,87.1363,99.3767,80.3159,-36.3244,79.2995,135.1376
14.4159,68.6779,-35.2170,12.7760,84.4267,175.0226,128.4390,171.6721,69.1982,113.6365,-37.6792,-33.6200,15.0698,115.0011,77.8831,88.1248,-14.5372,89.6744,108.7386
56.9959,30.2215,8.8011,5.2583,39.1243,161.6950,58.9539,142.6666,7.9650,54.1819,-43.2082,-86.8155,-26.8240,90.1925,41.0348,96.6981,-0.6984,-0.2978,44.0302
-7.8047,-49.5171,33.1257,8.6238,-55.1559,74.1358,15.8367,41.3562,-27.2079,-7.9211,-40.1248,-58.8251,-34.0258,92.4884,10.9398,62.8859,11.8599,-137.9424,-10.3894
-44.9945,-16.5642,36.0424,61.4257,-115.9397,-4.0532,7.4748,-51.7969,-9.4552,-67.4080,-47.4938,48.4568,-40.3234,113.9398,-28.8780,6.2993,43.4509,-174.8720,-29.5184
11.1348,66.3216,31.6598,117.3537,-91.9839,-1.4139,17.6562,-52.8835,21.2637,-79.0363,-62.8983,99.6241,-52.6092,103.5029,-40.0371,4.0445,85.7276,-70.5060,-19.4466
83.8603,87.5931,19.4725,127.9914,-10.1376,73.3697,1.9755,27.1091,11.4848,-36.1462,-42.7076,59.6091,-35.9187,90.0066,-3.7252,57.5784,113.8246,69.5359,6.9919
93.1633,57.9504,10.8338,129.7566,73.5273,159.5849,-50.6781,106.1934,-28.3359,17.1890,11.3111,13.9646,3.9340,120.5935,19.2170,92.6866,130.3562,162.7148,49.1197
35.1743,15.8608,16.6801,167.0424,117.3496,212.1281,-72.4577,147.1222,-41.8246,61.4654,32.6168,20.5819,30.4152,168.8656,13.9251,94.5719,147.7865,219.1224,87.8364
-8.7479,-3.3317,21.4974,221.6355,126.3218,234.0110,-52.8756,177.1996,-30.1774,91.9097,10.0092,79.2388,47.8938,186.7223,25.1989,96.3927,163.2575,244.6064,88.2348
21.7412,23.2475,15.7294,262.2229,144.3315,234.6796,-54.4134,191.7404,-30.0587,87.5266,5.5891,141.0103,75.6934,169.7747,38.7896,84.9985,173.5931,213.2148,63.1896
55.2842,51.8251,18.5187,272.1674,182.8761,197.9553,-52.9094,150.3756,-19.6551,47.9048,43.4930,134.6277,92.3553,145.5925,24.3538,51.6055,170.1222,138.3401,40.7359
35.1257,66.5298,35.6455,231.4081,197.0843,118.3216,-17.2198,60.7069,8.0101,-16.0408,89.3304,77.3828,70.1015,132.4235,10.2921,33.2840,143.7746,57.0137,-15.0842
46.8940,111.5131,48.5569,158.5752,156.1032,21.4502,-36.3355,-36.7536,-15.6702,-105.0336,106.0801,65.9219,19.2509,113.5254,-2.6180,25.6082,128.9662,-28.5444,-116.1873
128.0721,148.2916,64.6519,131.3752,90.3878,-52.3950,-130.0443,-114.2998,-89.4452,-179.0610,78.7868,118.4497,-33.1206,74.2706,-52.3803,-6.3984,166.7989,-102.6251,-171.5986
173.8561,116.8363,102.8253,176.9162,53.6642,-63.6675,-180.2059,-139.3857,-116.6370,-185.8053,37.0258,162.5220,-67.2078,45.8244,-104.8485,-33.3286,217.3389,-116.1488,-142.5290
130.5173,66.8796,126.6648,203.3109,56.5898,-26.4498,-168.4870,-115.1868,-96.4788,-168.2808,31.4247,153.6027,-74.0982,49.9984,-104.6899,-25.0227,210.0490,-94.0534,-120.5778
60.0932,22.7583,95.3719,135.9239,52.0931,-24.6069,-179.3361,-113.0006,-115.7109,-195.0358,57.7194,104.2627,-68.2894,57.5589,-95.8192,-27.5157,152.3392,-127.4864,-143.7243
38.5530,-33.3500,60.3685,39.7912,7.9941,-88.1637,-203.2096,-151.4198,-161.4177,-219.8717,76.2645,60.1376,-79.8837,57.5782,-133.0076,-61.4155,89.4300,-207.7421,-143.7350
102.6183,-10.6755,80.6815,-3.9518,-39.5918,-136.2261,-197.7494,-157.2845,-168.2804,-179.7435,77.1220,61.2558,-117.8194,66.7043,-171.3678,-77.2160,25.0567,-229.3000,-115.4599
184.6804,100.9849,98.7713,-32.0496,-55.5144,-123.9320,-200.9683,-124.7323,-168.4748,-141.4762,51.6990,70.4218,-153.9651,55.9382,-162.7539,-65.0542,-34.2480,-165.1905,-113.6829
164.4255,102.9190,49.2634,-85.5346,-59.2759,-109.9187,-235.7439,-131.0040,-211.2077,-184.6445,-4.4321,16.5583,-148.5074,-13.8905,-137.1602,-68.6614,-48.2806,-83.6783,-122.4257
84.4236,-27.5401,-4.8811,-107.2345,-57.8402,-132.5101,-257.5417,-175.4754,-252.9404,-249.5324,-32.8879,-78.3025,-98.3390,-120.4998,-118.5036,-100.2703,-18.8137,-27.5338,-110.8043
73.2997,-61.4831,7.0018,-73.4782,-28.3329,-161.9018,-226.6201,-190.0400,-243.3677,-239.3573,6.4993,-136.0014,-55.4798,-215.1866,-89.7891,-134.9782,-7.3357,5.3036,-100.7598
70.9232,10.2671,26.8181,-64.0878,5.7250,-166.9927,-151.1501,-161.4391,-203.8837,-167.2300,37.8922,-137.4533,-64.9445,-247.6234,-65.5637,-138.7081,-45.5630,20.8687,-80.7193
-18.8559,-7.4779,-23.0561,-119.0114,0.9101,-133.5795,-86.4172,-115.6821,-168.7480,-106.5210,-8.3806,-100.1648,-99.0530,-175.0567,-76.2703,-91.4961,-100.7651,30.2917,-20.1878
-75.1934,-84.6596,-109.4798,-183.6389,-16.9241,-69.7613,-67.9955,-72.6945,-142.1926,-86.3265,-75.2618,-41.5890,-104.0997,-46.3655,-97.3957,-38.4848,-133.1965,43.8428,32.1776
2.2073,-81.1817,-149.3146,-206.1037,0.3443,-11.6580,-53.3242,-48.8669,-131.9016,-86.6995,-82.9814,-4.3568,-80.5117,26.7981,-96.4310,-43.2581,-124.7973,60.6120,35.2963
102.0825,-40.2274,-115.7037,-161.8903,36.0941,32.7551,-23.4084,-23.4737,-158.1559,-70.2988,-36.6594,-6.7695,-61.3416,36.6906,-93.0364,-69.8462,-64.4479,75.1473,41.4555
142.6829,-13.0040,-51.9306,-50.9830,46.6213,81.4729,-39.6965,30.9107,-214.0885,-20.0119,13.0787,-3.7237,-54.4854,54.3297,-99.9759,-44.0285,31.0930,71.8986,69.2160
155.3428,52.7533,-15.5812,59.8608,30.9629,106.6259,-103.3112,66.4199,-257.1233,15.5109,28.1190,29.8445,-48.7063,74.7821,-92.5585,2.4675,104.6122,49.0480,60.8110
133.1179,132.3289,-3.3997,108.4521,24.8217,78.8307,-137.1220,36.6724,-261.0760,-27.2923,10.2368,71.0936,-41.9587,63.4660,-76.5075,-5.5222,132.5235,42.0706,20.4925
95.0950,168.0870,45.9914,137.4644,44.6979,32.8457,-134.8032,-13.8128,-250.7847,-117.8264,4.1939,116.1209,-49.5593,40.9961,-91.6410,-57.1653,170.2569,48.5959,0.2224
131.2121,198.9616,149.3318,202.6037,49.2769,-5.7563,-138.0712,-52.1430,-260.3617,-168.4791,44.4984,164.6675,-86.6831,11.5425,-140.3697,-96.3687,252.2362,9.7243,-21.2721
215.6241,237.7791,241.7498,272.4822,-0.4459,-43.7068,-134.2431,-93.8688,-280.3129,-154.8150,113.7006,186.1879,-125.0946,-32.5118,-180.7804,-105.1522,310.0199,-48.8250,-70.4279
225.0424,237.9664,265.2852,304.1640,-51.5798,-51.7150,-108.9065,-102.0842,-273.3810,-104.7479,168.9169,179.6523,-105.7702,-44.6243,-169.5584,-99.9526,269.8514,-26.8919,-94.8785
157.5975,218.0963,223.4317,286.5640,-33.7076,-22.3811,-83.2899,-53.8059,-228.9841,-48.0343,173.4425,175.7867,-28.5322,-22.6030,-94.1126,-101.6927,158.0504,43.6510,-71.7818
96.4728,189.6118,145.9555,199.9453,12.3939,-20.8012,-64.6292,-33.0186,-175.9853,-33.0265,117.9584,157.4515,42.6286,-42.6205,3.5255,-105.4880,44.7509,40.6720,-57.3519
46.5859,84.1507,60.4714,68.3014,15.4861,-57.4003,-45.1189,-71.3389,-136.3381,-68.2818,40.4344,89.2533,82.1533,-88.1679,69.7202,-79.8406,-36.2809,-13.1069,-67.1947
-33.8650,-85.8172,-15.5198,-18.0533,-2.5952,-68.3222,-8.5906,-77.2290,-95.3734,-69.7282,-12.5864,-1.0555,109.5067,-56.8554,110.3077,-20.0285,-80.9980,-17.7826,-53.2010
-142.0167,-201.2907,-87.4887,-39.6611,-12.0937,-62.8278,53.6037,-38.6037,-45.3919,-10.1227,-43.3324,-67.0300,105.3623,29.4533,137.6700,42.6455,-106.0588,0.2310,-10.9126
-223.1763,-220.3615,-166.8493,-82.3981,-47.5069,-92.4797,89.7718,-49.5261,-17.3889,1.9616,-80.7693,-103.8620,40.2080,44.6996,108.7222,79.0135,-139.9439,-16.7428,9.4319
-224.0334,-183.7860,-238.9437,-168.6314,-109.6412,-123.9707,57.7671,-110.3626,-30.1476,-76.4717,-132.1207,-105.4759,-45.7859,-38.4355,24.6975,51.9836,-171.4277,-25.9612,-9.0654
-181.3472,-103.4218,-267.9728,-194.7870,-148.6097,-108.6727,19.2144,-134.6193,-57.0189,-138.3597,-178.0685,-53.8556,-92.3521,-125.9034,-26.9354,-55.1222,-150.9093,-0.7877,-23.9797
-181.2959,-4.7858,-225.5449,-83.0099,-162.2819,-58.5553,20.8082,-95.5796,-70.0547,-117.9710,-185.2831,22.6624,-100.1914,-128.3089,-18.2834,-156.9247,-66.0099,10.2636,0.9407
-184.9875,40.1552,-116.8437,103.2853,-184.3264,14.5569,11.3394,-19.4232,-70.0039,-57.4333,-134.9220,70.7828,-96.1928,-44.4184,-11.9185,-143.3846,39.1740,-12.5356,33.2534
-78.8776,15.1511,8.4705,222.9735,-217.9921,76.5814,-27.9560,48.7138,-72.2921,2.4926,-49.6111,77.9634,-77.0475,40.4794,-22.5503,-36.7932,103.9314,-61.0810,12.4029
76.7508,-18.4954,81.8775,192.3893,-251.0643,36.5810,-55.4152,37.9277,-84.1394,29.1187,25.5084,48.3488,-37.7424,49.7725,-17.5774,58.2856,69.1441,-148.7881,-47.6837
99.9001,-23.9567,58.2057,40.2659,-266.7944,-108.4333,-54.3543,-56.3901,-72.8665,-5.3580,43.9644,-20.0165,-9.3147,2.0400,-11.7844,90.1288,-75.6199,-253.0009,-66.6766
-19.8421,-27.3975,-58.5028,-147.8995,-250.6952,-221.0478,-7.0552,-133.7967,2.7716,-45.9726,-28.1245,-88.2357,-25.9184,-43.2668,-26.7108,56.7474,-235.2480,-319.5391,-19.3309
-126.1549,-55.1613,-201.6788,-288.4175,-242.8604,-219.2799,79.1994,-132.7417,95.4964,-17.1858,-154.4809,-109.3805,-79.3607,-75.8636,-46.9719,-18.9133,-287.8093,-338.3267,29.9296
-142.4170,-76.3644,-268.0640,-303.9639,-292.6703,-161.3763,112.3886,-91.8091,115.9750,47.2625,-229.3797,-110.9986,-135.2590,-128.5151,-70.8324,-90.7137,-218.7438,-293.2348,24.9209
-107.0300,-40.6532,-206.3678,-162.6316,-340.5559,-102.9767,68.0001,-41.8141,89.9745,79.4220,-200.4677,-130.7652,-168.7158,-221.1890,-91.2485,-145.6368,-105.1094,-133.7631,-6.9480
-50.8306,20.7903,-74.3562,46.1703,-281.3214,-35.2665,51.2640,22.3200,103.3939,94.8854,-115.7579,-132.5717,-156.6440,-298.8440,-58.0855,-179.0990,-22.8673,84.0687,7.8015
-5.7355,15.4764,20.9595,149.2421,-129.3198,36.2347,87.1556,79.4888,132.9777,122.1382,-38.5549,-93.4528,-80.0209,-239.7525,36.5199,-119.4690,-27.2418,191.5249,82.3248
-40.4725,-60.1038,17.3816,49.7886,3.4380,71.8081,104.1107,97.5878,119.0432,128.5598,-17.0537,-58.8156,26.9015,-15.0366,117.7561,52.8760,-132.9406,133.6737,136.7149
-160.3439,-126.8301,-75.4244,-184.2011,50.3611,59.5349,105.3601,82.0497,105.8089,95.1570,-75.7261,-54.7541,86.7635,220.4262,134.0545,201.2494,-274.0956,34.5618,128.7500
-261.9199,-185.3902,-199.0008,-403.7777,36.3128,45.4878,113.2645,72.4249,143.6695,71.0764,-144.7513,-83.4797,72.3685,300.7407,103.1988,225.7536,-365.5065,7.1658,138.7999
-267.2923,-276.5035,-279.2961,-510.7061,22.7264,74.0970,105.9373,102.3217,181.0759,95.5305,-113.8959,-166.0630,30.5271,215.3109,48.5952,187.4957,-386.7209,45.7700,213.7340
-204.8142,-318.8672,-266.3482,-495.5376,25.4849,103.2619,114.0018,140.6059,161.4556,123.7013,5.9485,-257.4232,3.4916,53.2969,-11.0399,131.3313,-346.6896,80.8945,254.6233
-128.7564,-225.5779,-170.8535,-402.3964,-8.7038,49.7470,150.0534,107.7152,112.4505,96.3504,105.3383,-252.3939,-14.9488,-88.8887,-37.5927,29.3896,-249.2787,44.1562,189.9789
-67.9509,-89.1596,-58.2409,-291.4534,-100.2518,-65.9346,134.3330,8.0284,92.4246,46.6997,125.2158,-155.1066,-44.5279,-148.0356,-14.9346,-71.9854,-134.6705,-57.5420,99.0063
-37.9258,-21.5409,19.3990,-198.0583,-170.5048,-130.2061,71.9003,-45.0287,108.3862,42.5355,80.6576,-60.7295,-73.9861,-138.2611,22.5567,-95.4846,-53.7424,-116.2692,61.8316
-19.6781,22.3589,70.4007,-121.5956,-160.3519,-103.9195,57.5081,0.1530,109.2960,65.1092,23.2058,3.8684,-60.2672,-111.0780,46.0924,-67.0990,-10.5399,-70.0877,60.6570
12.3794,80.0366,109.1837,-84.8021,-118.3911,-57.4062,75.5810,63.5998,80.3274,63.8536,18.9909,40.5016,12.2558,-72.8284,72.9123,-33.1575,-10.5909,-17.5318,68.2241
25.6296,81.4532,106.6617,-141.5944,-101.2290,-51.7810,73.9608,69.4358,89.1806,51.1796,70.4337,12.2977,84.2413,-27.1196,110.3827,16.9281,-77.8855,-64.9227,73.8945
-0.6847,26.7942,52.5405,-276.4320,-102.0049,-97.2514,85.4678,14.0778,148.3831,31.2837,100.7857,-60.9422,87.4185,-24.6945,111.2397,55.4136,-168.1814,-163.0380,41.9379
-11.2944,-2.4829,-5.5336,-400.1100,-105.6427,-189.0723,95.6151,-89.6677,154.6537,-36.9533,73.1218,-115.3273,36.3377,-89.8830,47.6666,21.2318,-203.9326,-213.2945,-41.4645
3.4182,-19.2893,-39.1877,-469.6012,-109.1106,-293.2997,46.6087,-209.8136,78.0008,-133.0438,22.4995,-153.4222,-12.0177,-180.5336,-24.2910,-61.1711,-196.8992,-214.1268,-130.6639
-23.5506,-65.9325,-69.5290,-488.0587,-101.2490,-340.7299,-17.5540,-277.1863,22.4480,-178.8779,-28.0649,-181.7448,-45.6672,-232.4753,-47.6853,-116.4325,-190.4157,-204.4471,-173.3985
-81.7588,-82.6742,-101.5942,-448.0627,-84.4957,-291.3978,-34.6005,-253.7935,34.7312,-158.2933,-74.3174,-159.8344,-75.8890,-193.3253,-38.7259,-123.5795,-163.9345,-173.3027,-148.6867
-110.4950,-50.9854,-121.4335,-415.9318,-70.1888,-173.8106,-6.6302,-168.2457,73.3531,-109.1650,-106.5948,-106.6757,-79.0902,-75.4980,-14.2661,-91.0422,-120.7122,-94.5603,-69.4955
-146.8517,-74.8638,-138.2872,-525.2048,-47.0904,-47.5169,68.0978,-64.2856,130.3443,-53.7475,-139.6796,-79.9646,-29.8370,30.1374,43.6670,-20.4612,-120.1774,16.8003,21.0208
-227.3484,-180.4269,-158.4002,-768.9419,-9.7122,44.9801,142.0957,26.1124,185.8175,-6.2525,-190.1126,-66.8805,33.6787,73.1570,104.8255,55.2863,-153.1770,108.4564,89.9995
-273.5748,-256.6782,-166.2773,-992.3113,21.3354,94.2587,123.8556,81.1712,181.5113,34.3173,-235.3789,-52.9819,40.7220,93.6413,107.1761,95.2602,-153.6753,128.9710,138.2292
-248.0739,-250.1494,-161.8178,-1120.6676,33.1546,113.7729,60.2734,109.3028,147.7563,93.8609,-260.6203,-73.3109,-11.7438,110.4985,66.3453,109.1255,-119.6463,79.1044,166.7353
-234.8125,-217.3780,-158.2207,-1185.3779,11.7897,121.3123,57.4152,139.7932,159.0686,161.9406,-279.0725,-111.3413,-57.7153,99.6348,41.8445,115.6313,-81.4141,24.7909,177.7063
-276.3776,-200.0806,-156.4053,-1199.5323,-67.7925,134.0838,78.3810,181.3949,188.7744,192.5950,-290.1057,-120.6383,-77.0942,66.4899,36.1383,98.9323,-47.5108,30.1362,193.4207
-312.3991,-194.8301,-164.0923,-1189.8622,-172.6413,158.7940,78.0091,212.8261,195.4572,181.4189,-298.5153,-129.4410,-112.8466,13.9770,27.9780,62.1172,-54.0174,86.2185,208.6493
-285.4419,-194.9692,-194.5461,-1208.6039,-211.0076,164.9176,98.3689,200.4907,210.0406,152.6723,-324.1398,-172.6713,-153.2640,-70.5987,30.0387,37.3546,-123.6654,128.2773,183.5210
-206.9886,-187.0066,-230.4108,-1225.9698,-150.9541,115.6250,110.2213,135.5135,229.5561,117.2118,-340.3594,-214.1486,-130.9061,-136.3601,52.8121,26.0827,-196.3436,116.4197,126.4064
-157.3337,-163.1840,-238.2412,-1181.9669,-46.2720,50.7139,81.1211,72.2351,223.5825,99.6895,-302.3347,-214.6481,-48.5335,-114.1831,85.8055,24.9597,-227.4251,78.8320,90.6858
-195.4820,-151.4557,-207.7799,-1112.3745,52.6731,51.2509,99.1649,71.0880,226.1686,112.6050,-230.2138,-172.8339,29.7389,-25.1476,119.0688,61.5987,-241.7510,56.9434,80.7850
-243.1180,-176.7253,-153.4785,-1065.4751,114.0325,100.7438,159.9995,99.3233,241.0930,110.8660,-164.3111,-106.8231,77.2996,68.9990,129.3010,111.1660,-233.9332,34.7156,58.1310
-202.1440,-204.6292,-105.2341,-1013.5865,101.8352,112.0689,130.9190,90.1138,199.5209,74.0977,-107.3100,-49.7053,85.8563,138.6459,93.8095,100.9505,-189.8474,-18.5827,18.7712
-147.7936,-182.8087,-91.2940,-945.5217,25.4305,89.1281,33.6151,65.1850,114.0047,52.2737,-71.8072,-10.9158,39.9852,162.7123,44.5151,60.1554,-171.3691,-70.6721,-11.7233
-182.5004,-126.6029,-107.0304,-892.2915,-54.0421,89.7916,-14.2864,70.6419,69.2186,56.5493,-72.6611,28.6370,-20.7758,142.3451,29.2798,77.5613,-205.0049,-76.9062,-30.3885
-216.1831,-88.6395,-115.8075,-840.0794,-95.5394,76.3729,-37.0134,70.5452,66.8550,39.8107,-64.2721,52.6602,-29.7399,119.7565,28.2988,115.1531,-209.2614,-57.4752,-56.3577
-132.6399,-59.5136,-78.5585,-750.6959,-83.8504,3.9756,-70.9846,27.7630,64.6427,6.8284,0.9462,44.4955,9.2731,116.5400,-1.2772,90.3345,-147.8335,-41.6761,-91.2828
-4.1864,-6.9238,19.2207,-622.5038,-4.5137,-41.6318,-60.1691,-16.1253,66.8722,-1.2800,93.4371,52.7468,55.0963,122.1087,-33.1645,53.6812,-71.6137,-10.3693,-103.6746
56.5151,34.6281,140.2893,-458.3683,106.6951,13.1592,-21.9140,-19.0539,70.4179,5.8083,161.4556,107.5476,101.8304,141.3232,-15.8176,67.1125,17.8369,46.4640,-73.1463
75.6794,55.9525,220.7011,-260.5736,168.0032,97.7333,-19.4218,12.2522,56.2594,7.2431,192.7301,178.2372,144.2806,177.6277,35.4240,73.7456,151.8319,102.5087,-33.6223
123.9664,143.4529,253.0354,-71.5544,168.4674,145.3131,-22.0228,59.9113,40.6368,13.4829,191.9377,261.7940,160.9441,216.8100,70.7071,41.9519,291.3971,149.5758,-22.3050
194.3310,305.9685,280.5102,67.2249,185.1457,185.0000,-4.6074,103.2781,41.8880,22.6020,164.2017,357.4498,159.7534,249.9343,81.6907,22.3561,383.0165,204.2216,-18.6164
240.8244,417.2948,305.7760,168.8907,257.7217,228.7908,7.4068,137.9106,67.2888,38.7552,128.6318,407.9367,165.6721,255.4852,84.1763,13.9603,423.8373,271.4391,3.3165
248.3187,436.3120,304.5968,253.6291,346.9608,253.0037,52.0452,191.7940,129.7334,98.5548,120.2221,400.0792,187.8780,212.2076,82.5174,-12.0698,417.5286,333.6388,17.2301
230.3346,439.7429,294.4855,302.0331,407.3642,262.1317,150.4701,241.9406,186.6456,172.5344,165.7815,380.9888,231.8204,160.1832,89.5367,-17.4253,373.4357,341.8384,-6.4473
204.2815,433.1263,294.4563,306.1106,415.0234,246.0285,197.0464,206.0040,170.7682,155.3889,240.8119,346.8476,281.4025,156.3471,114.6149,16.5646,336.2782,252.6574,-55.1359
198.6356,387.9424,285.3839,313.3077,362.7100,184.8876,126.9449,99.6942,122.1805,49.5651,281.0139,304.0497,283.0203,195.1806,123.1424,42.0488,335.3544,117.0377,-98.4876
244.6687,355.0475,258.9937,359.0682,280.2788,129.1104,30.7173,36.5596,113.6894,-12.9856,268.6514,328.2055,218.8108,246.7165,86.8522,46.7987,346.3795,39.2512,-111.5485
316.3143,349.1399,224.5369,396.3662,205.9615,126.2144,-7.9357,35.6659,106.5534,4.3082,246.5999,397.0850,148.8383,287.0094,49.1306,50.5447,330.3001,24.9703,-91.1359
338.0789,318.2815,180.9746,369.8206,137.1249,133.4087,-16.2204,29.3393,63.8406,4.1024,233.3817,387.9970,127.2088,277.5558,52.5441,35.9999,270.3722,4.2863,-68.5709
302.4055,278.7621,141.1864,314.5764,74.8945,121.1876,-30.7072,17.7478,47.3679,-33.9677,212.9487,309.1026,140.3438,219.7223,62.1211,6.0043,186.8763,-14.6640,-65.2772
280.4659,256.8282,115.9545,288.5348,58.8301,120.5765,-27.3231,28.5717,77.2842,-26.5893,187.2949,261.1584,151.4458,168.8939,43.7286,9.0660,126.4342,22.2884,-54.1685
282.8449,210.8163,77.5180,282.6458,81.3230,127.0226,11.8293,36.3549,100.6046,32.8424,158.0220,233.7504,141.6889,135.0706,28.4257,44.5873,116.2932,84.2208,-15.1130
248.8389,172.2417,35.8990,293.1819,68.4540,123.6411,43.6810,38.8525,113.0641,66.4126,115.8357,191.6010,107.6861,93.9232,34.4684,56.4603,152.1280,111.5585,12.8731
186.6760,217.5893,65.5938,360.7623,11.0307,138.6395,31.6604,60.1088,125.0782,53.0701,86.2114,192.5929,66.4794,74.5962,29.8351,29.8881,216.9146,124.7448,-17.7231
175.4659,279.5294,162.4052,463.2201,-8.0941,155.8515,12.1997,63.8897,107.0606,30.8234,104.5102,248.7322,52.2999,94.1650,11.0802,6.7308,270.5732,155.8278,-90.8069
224.7404,281.8058,221.2577,522.9406,50.1746,118.8411,23.8165,18.5406,77.4490,14.1990,159.9199,280.1941,79.9718,99.8770,15.4093,16.0548,278.3105,170.0814,-142.2496
252.7345,303.4847,209.3488,540.2064,141.4783,60.3689,38.4690,-27.8747,75.4758,-1.0404,224.5755,262.3673,123.1710,71.1590,39.1351,39.2073,266.6898,143.8793,-148.6987
218.3388,360.8530,192.2932,558.1005,224.9709,42.4309,25.4942,-41.9411,56.7906,-11.3161,278.4329,227.2964,144.4409,42.0707,36.9176,49.3857,261.8566,121.5919,-158.7008
190.7656,335.6753,195.9250,548.8690,283.6577,34.8548,-4.8863,-46.4885,-6.4695,-19.5106,291.6291,167.8211,136.0121,13.9498,2.9916,53.1122,225.2424,132.2198,-196.0546
235.4504,248.6052,197.7891,489.5670,294.6534,9.6064,-43.0851,-43.5104,-40.8227,-31.8163,260.4601,85.2315,116.6847,-17.6946,-21.3405,53.7166,161.5878,130.1676,-204.7138
290.6755,230.5856,201.4952,448.4934,243.8981,2.8738,-81.7573,-29.4630,-15.8845,-43.3699,222.6754,39.9455,94.4730,-17.8250,-22.0689,26.1222,156.4935,58.8227,-163.8335
261.6020,250.4922,204.4579,475.2543,133.9303,-3.3279,-110.8126,-43.4070,-3.2351,-50.4208,186.1113,67.5282,54.0355,13.2238,-35.8754,-15.9084,200.9037,-76.7421,-147.4584
177.5214,211.9798,163.4606,516.8627,-11.5882,-74.4641,-145.4857,-103.9135,-43.8089,-62.7643,127.4799,120.8421,-7.7853,23.7600,-81.3343,-25.0114,168.7621,-210.2202,-188.2698
118.5174,159.0521,60.4483,509.7060,-122.0751,-184.9626,-184.1550,-170.7934,-106.2233,-93.2173,63.3107,131.4274,-54.5843,-2.3205,-114.6499,-20.2076,38.2240,-261.5350,-220.2930
78.0929,150.3338,-48.6277,462.9294,-136.9126,-238.9137,-175.4615,-199.6909,-141.8371,-129.2315,24.6222,91.6007,-48.0766,-34.2175,-93.7387,-39.8625,-63.7425,-201.9450,-204.6469
38.1475,153.2956,-81.8087,432.1859,-97.0789,-194.4884,-104.0198,-174.4670,-108.3513,-128.6357,2.6459,57.6804,-6.1508,-44.6154,-43.3140,-43.8829,-52.6624,-85.8640,-165.4963
45.9117,155.1000,-25.0951,454.6850,-81.7245,-95.4284,-26.1602,-113.7409,-24.4814,-84.2158,-19.6762,66.5064,13.1377,-23.3026,-7.9966,-15.3863,34.6644,8.1834,-112.5697
106.3511,164.6880,35.7549,497.0924,-91.2249,-18.5395,6.2928,-63.3321,22.1882,-55.3727,-43.3678,80.7669,-11.7879,17.2248,7.8879,-16.2689,116.3011,63.4781,-55.1421
134.6526,139.4326,21.3429,489.8275,-79.6384,12.5571,-20.7016,-35.7534,2.4243,-65.4622,-61.9506,54.1910,-45.3007,44.2171,7.3027,-38.9434,131.0371,119.3998,-30.4885
67.5653,71.4952,-29.6755,447.8951,-25.2391,48.0046,-81.9763,-0.9825,-26.0406,-49.2498,-49.5472,5.2102,-50.9629,34.3696,-21.5215,-17.9668,88.8029,196.0544,-43.7053
-54.0933,44.9369,-34.7384,470.6423,71.1155,97.2081,-115.0161,34.6748,-45.7980,13.3598,8.2614,-17.2461,-24.9604,-9.3975,-56.0870,12.4674,63.7645,258.8789,-65.0876
-107.1500,99.9469,-4.8071,563.3610,165.4864,95.4683,-101.5290,35.6346,-82.0584,39.5913,69.2281,2.3048,17.5268,-50.3147,-53.8695,1.2341,81.3350,258.5324,-86.0082
-21.8595,149.2236,-5.0675,591.8486,183.6612,49.6881,-89.8921,18.8063,-103.8175,1.0877,89.0257,39.4150,50.9309,-30.8504,-25.4360,-0.8001,80.6492,198.0827,-91.1978
78.7656,111.7832,-32.5294,493.3590,131.4965,49.1530,-78.0635,25.6636,-68.2538,-15.4793,72.3175,57.2928,53.5602,50.8423,-4.6569,26.6567,33.0877,133.2621,-44.4679
38.1632,43.5047,-29.1400,379.9627,87.1630,92.3578,-19.9117,49.9589,-5.7892,30.8165,35.4553,41.9776,32.5389,116.1885,15.4931,29.7951,-5.0198,78.5981,30.4471
-49.4537,32.5426,28.9477,350.7546,55.3016,89.9908,42.7611,61.1021,28.7319,64.3924,8.0330,17.6831,9.1168,116.7576,32.8677,22.9110,12.6637,-22.9194,53.5131
3.4481,41.2591,111.3127,365.8466,-19.3638,24.5532,26.3930,41.0074,23.6012,26.2851,37.6353,12.4557,-14.0623,88.0730,10.3024,46.6072,57.5473,-182.0517,3.9921
127.8907,7.6073,156.8956,372.1448,-117.7339,-51.8697,-57.3237,-17.1214,0.3001,-40.5636,100.6647,24.2000,-41.9939,59.2049,-36.6097,57.6388,66.8026,-312.1406,-59.1481
143.4571,-1.6690,110.2358,381.7090,-176.2756,-112.7058,-128.3731,-89.2334,-19.5703,-68.2333,109.5746,36.2393,-67.3795,19.1754,-53.4558,30.9194,18.7578,-348.5470,-89.5670
77.3567,58.8758,-4.9571,393.8611,-192.3864,-147.4434,-141.0109,-128.4713,-40.3316,-56.0954,57.1175,40.6875,-83.4645,-21.5707,-62.6038,9.8278,-25.4413,-304.4794,-96.4426
42.9446,87.4576,-72.0781,402.1794,-201.0382,-142.4664,-126.9284,-124.6879,-77.4533,-56.9447,12.6539,39.4534,-94.4311,-40.3964,-110.0764,-5.5246,15.2285,-202.9413,-100.5190
34.7630,54.4992,-22.6854,445.1236,-214.5532,-114.2549,-150.6759,-107.0127,-110.2229,-89.0256,-6.8549,39.3989,-111.8964,-53.8543,-151.8366,-39.1247,117.5075,-78.2421,-89.7585
27.3074,74.1655,55.3719,511.8478,-213.1228,-92.6981,-190.3015,-87.7984,-104.1151,-99.5081,-25.3368,41.9206,-143.6429,-86.7115,-148.0794,-60.2626,167.3668,11.2265,-40.7724
39.2978,134.3825,49.3635,512.4135,-153.8407,-73.7425,-157.4550,-51.0963,-69.0281,-40.6794,-42.2420,37.8622,-164.8858,-123.7646,-144.5370,-53.0252,115.2107,69.7689,28.7716
48.5595,108.6009,-15.2560,440.2274,-27.6399,-37.1841,-76.1290,11.4876,-28.5376,56.8904,-64.0134,20.3719,-130.0402,-139.6381,-142.1680,-43.6356,23.6239,149.5611,75.9935
19.2948,37.5603,-52.9795,389.5474,101.4944,1.4027,-31.2475,74.1199,23.2005,130.6447,-99.3752,-13.3118,-46.5674,-143.8673,-73.7481,-25.6497,-35.6473,225.1979,95.5180
-36.6998,31.8541,-54.7045,380.7308,179.3697,2.4745,23.9024,95.4669,80.7478,163.7108,-114.9782,-63.6089,17.9045,-153.8880,28.3466,12.6743,-38.6423,243.6975,109.3794
-89.6260,35.9232,-43.1984,368.1968,218.7615,-21.7315,132.0726,78.8315,112.9554,171.0552,-85.9485,-101.0147,28.4194,-142.7836,53.8367,43.0228,5.5512,239.0301,119.8851
-95.0434,-8.0795,-12.9808,365.6516,229.4259,-5.5327,173.6686,76.6504,112.0694,156.0992,-39.9907,-77.7415,14.2899,-73.5728,0.6887,57.8154,50.5610,235.2642,126.5860
-28.6854,-24.0345,19.2808,377.8214,197.5622,56.0074,94.4670,106.3407,91.1098,126.4827,-5.9164,-10.5829,3.0209,21.1914,-47.6971,73.2167,47.1037,172.6291,138.9017
32.0456,-4.7249,25.8358,343.9936,139.5863,86.6929,3.9045,127.0407,51.7426,106.0218,14.1907,18.4869,-7.4878,73.3401,-63.2265,75.1512,17.7916,42.2612,136.9095
11.4013,-31.8818,29.1265,277.0091,74.8859,59.4460,-69.5279,113.4794,5.7772,95.9710,22.8943,-13.9954,-24.1137,75.6252,-61.9004,57.4164,19.3193,-87.1257,84.6472
-15.0702,-67.2316,48.0434,268.7676,-10.0946,12.4709,-173.0834,71.2335,-18.8625,72.6485,20.3614,-41.9713,-55.8611,53.9056,-53.6574,41.4975,42.6347,-198.1127,-6.3226
50.3480,-19.9483,56.8672,313.3167,-108.1946,-55.4129,-244.4867,2.0306,-22.4501,36.9741,2.1334,-28.5299,-108.0408,-5.3022,-58.7677,17.5971,47.2470,-291.7701,-82.7345
163.6917,69.2448,60.6330,324.9049,-177.8325,-144.2527,-240.1373,-70.0130,-30.0027,8.8119,-26.7849,-11.6694,-157.2217,-105.4286,-84.1341,-31.4262,39.1822,-300.6387,-110.6906
230.8958,116.3780,84.1877,296.3564,-191.4280,-180.5616,-235.4359,-97.0884,-38.7508,-15.9773,-36.8607,-22.7456,-164.5441,-193.1375,-97.7595,-74.4810,27.3672,-192.5407,-95.0271
206.0059,115.5655,84.0089,275.9016,-135.1281,-128.4038,-237.4706,-74.3816,-26.8604,-38.5597,-25.8570,-48.9256,-118.7626,-227.7839,-80.1444,-90.0681,-8.5784,-35.1451,-53.9158
79.4667,88.8762,16.9886,276.8729,-12.0267,-44.3647,-192.0065,-29.4294,-7.4654,-25.2071,-38.4869,-65.3147,-45.4432,-216.1702,-47.1480,-100.7471,-54.7226,118.4835,-0.0667
-66.1885,59.7168,-57.0428,300.0860,122.5710,40.3622,-150.5257,36.1947,-7.4505,35.3593,-76.9189,-53.2837,21.4277,-168.0371,-11.2713,-101.0306,-69.9971,255.1312,50.0881
-83.1900,58.2456,-65.4425,333.1716,201.4596,117.0556,-159.4546,104.3732,-6.3504,89.5712,-89.4834,-19.9360,63.6899,-99.6610,21.1448,-54.6015,-54.3149,321.7563,68.3644
25.4846,73.8840,-23.0770,326.3228,213.6065,120.7277,-159.7989,110.9759,22.7660,79.2429,-65.5704,-2.0101,77.5648,-45.3423,33.5224,21.9321,-19.6005,279.0405,45.6430
93.3523,74.8443,28.7343,273.7153,186.8577,43.7628,-144.9130,46.5830,41.2154,15.2027,-26.5268,-10.2459,63.9634,-6.7667,18.2144,65.2378,38.1808,187.4857,13.6825
67.0248,65.9195,76.4803,244.4491,147.3603,1.7707,-168.3383,-8.1230,11.1797,-28.7505,25.7754,-13.3199,33.9698,41.0065,-9.0802,53.3837,84.9324,122.4512,2.8895
63.8957,53.2778,105.1551,258.9634,108.3493,37.3554,-201.0378,-8.8053,-21.2274,-7.9105,66.1899,-1.3317,10.5825,79.1588,-22.9046,24.2152,82.3550,68.5344,7.4277
114.3577,27.0363,96.3665,259.1430,65.3890,44.6268,-203.6573,-4.9182,-10.2253,19.2819,58.3751,7.3898,6.7695,71.8342,-11.2262,9.9978,61.5113,-19.4895,9.2204
100.2605,5.2549,48.4441,232.2284,27.6186,-22.7545,-208.2207,-34.3733,10.3773,-14.1941,25.4636,11.6762,18.4915,43.1068,15.5242,3.5172,37.0994,-110.1741,-1.0969
0.2927,-1.2297,-23.2853,216.0707,30.0348,-74.9008,-207.2914,-61.5402,8.7924,-53.6002,1.4411,7.8521,43.0648,34.0878,49.2818,-5.3395,-43.4299,-131.2290,-19.3283
-41.9080,-20.9753,-78.9385,194.2285,53.6497,-57.0221,-156.4978,-48.2723,2.5161,-33.5537,-16.2303,-18.6541,70.7575,28.8249,87.9413,-11.6359,-146.8468,-85.4551,-20.0299
37.3578,-42.8573,-66.9683,145.3418,22.9083,-15.5190,-90.2282,-7.2541,-0.9331,-21.1855,-7.3379,-40.5934,68.9591,5.6400,97.5234,-19.5442,-131.3447,-36.1139,15.8570
121.7381,-17.5285,25.6444,144.7966,-49.8969,16.6459,-62.3515,35.9469,-2.2874,-58.0265,42.0620,-21.3024,18.8400,-7.7762,45.0056,-28.6312,25.1790,13.2562,71.7595
124.2949,33.7628,150.2578,247.3816,-56.8689,57.0312,-59.7132,72.1206,12.5265,-40.8130,71.3867,8.5506,-45.1993,-5.0217,-23.8863,-22.0823,168.7317,100.9714,123.1134
95.1651,56.0993,223.5770,347.3852,28.7764,91.6429,-64.9021,86.8296,31.1432,52.8398,39.7795,6.4303,-66.4031,-38.8008,-36.3715,-21.1649,188.0652,191.1633,152.6262
77.5671,73.9824,190.0621,330.1786,125.1962,72.0538,-76.0407,65.4234,32.9362,80.1988,-9.2193,-9.2103,-27.9184,-119.4107,1.8181,-66.9855,122.4343,226.7801,139.4372
49.0089,123.4863,90.1874,260.2694,188.6983,16.1976,-60.0607,30.9852,37.9160,11.4749,-41.2132,-12.6444,31.7365,-168.4297,38.7940,-113.7780,58.7990,242.9306,98.3995
9.5928,145.4536,25.5675,244.6820,238.5976,9.4290,-1.0593,27.2454,54.2975,-13.2911,-52.7340,-13.5374,66.7313,-128.0391,55.0642,-80.6714,40.5653,274.7905,82.1095
-21.1222,66.7309,23.6107,241.4254,262.0011,70.5564,53.4424,54.6800,60.4074,34.3177,-33.6398,-24.6563,77.7568,-30.7315,61.7549,0.8996,52.8928,259.6805,94.1321
-46.2890,-79.8737,13.2047,175.2191,217.2550,120.0995,61.6077,67.2923,71.5552,39.2260,-17.2876,-46.1271,93.1292,62.4439,80.8697,54.4032,47.5787,163.2886,95.4621
-67.9217,-187.7683,-50.2623,93.1489,116.8179,111.6228,42.6110,43.4678,101.3341,-9.1896,-54.5408,-52.3552,106.2264,118.8389,114.8041,91.1222,-1.8464,61.5963,94.6070
-104.3221,-198.1003,-125.1805,55.8983,27.1964,87.7096,38.0380,25.9664,105.9282,0.6133,-107.2131,-7.4900,86.5477,139.3322,118.2615,132.1427,-77.2018,10.4122,113.1887
-173.9514,-165.8198,-149.9864,28.3410,-19.2716,89.3516,51.9689,64.4347,73.5392,91.9510,-108.0125,45.3193,41.6250,148.4075,66.1354,141.6781,-146.7349,-21.8673,122.5173
-196.3538,-179.8606,-114.1021,-18.8364,-59.9289,100.9734,41.6315,130.2039,46.9459,160.6586,-65.4245,15.0962,2.1500,150.6886,4.9985,122.2300,-189.3619,-61.3369,103.7341
-94.7070,-222.6317,-67.9713,-44.6888,-123.3527,87.6063,-14.1772,140.7207,28.9170,142.7996,-10.8106,-64.0956,-29.3495,120.0993,-27.6955,112.6571,-200.9659,-90.7688,74.4424
6.5671,-207.1147,-61.5608,-30.3031,-179.3618,38.5262,-58.7678,81.6201,15.9473,91.2028,29.1893,-70.1147,-58.6427,70.8546,-34.3781,98.8434,-194.8582,-100.6706,43.3149
-39.0117,-145.6906,-83.3611,-21.0492,-210.2279,-17.2326,-29.8762,27.7353,51.9352,60.0544,-0.0032,-6.1731,-73.5750,50.4896,-3.9010,62.0528,-185.0389,-101.7572,34.3020
-136.2387,-123.4404,-103.0449,-55.1439,-237.6858,-37.8868,52.4764,21.9228,129.4683,35.3255,-95.3363,25.6950,-74.9075,37.5372,45.6201,23.9497,-177.0543,-94.2303,77.5259
-148.2375,-131.7655,-115.7078,-104.5784,-238.6008,-16.8116,134.5259,33.9239,178.4628,24.3537,-155.7579,6.6223,-77.4867,-18.9526,53.0151,-19.7337,-165.9527,-52.3952,125.3898
-122.1914,-104.1242,-92.9562,-94.2677,-156.5493,21.9480,197.6708,51.0383,182.4201,66.6482,-123.6286,-7.8774,-69.5360,-77.0786,31.0191,-72.7435,-127.9461,43.0719,117.6118
-102.9582,-53.0544,-15.8693,1.8266,-18.6207,58.8136,234.4786,92.7657,165.2513,127.0255,-45.0372,13.3368,-29.4105,-69.9932,40.1505,-79.6214,-62.2543,152.8389,99.5536
-48.9706,-28.7818,32.8636,98.0793,89.0608,85.9489,235.9220,140.3139,137.1021,141.4278,26.1543,59.1358,31.2883,-20.8937,60.5684,-22.3764,-28.1501,208.8425,126.0995
-14.4066,-44.0555,-10.5819,104.9285,147.9332,113.5999,217.1134,157.6781,125.9189,128.3143,67.8177,82.2236,89.6493,32.8062,70.8080,34.7145,-57.8255,198.4136,152.1005
-72.5138,-104.4935,-56.5348,50.1787,187.7741,156.4826,192.0683,155.1993,135.3029,121.1252,71.1804,58.0229,137.1561,101.8805,113.5841,56.9839,-101.0353,150.1325,126.9953
-127.3744,-182.4540,-39.3584,-3.2420,192.4837,189.6264,152.5235,163.4978,118.4097,127.7788,48.9369,41.6806,157.5094,164.7189,156.9695,54.0509,-133.9704,79.7883,73.8669
-85.6878,-198.0150,-43.7703,-53.8094,141.2874,185.0942,112.5749,191.5150,89.6328,191.3963,24.7108,59.0737,142.0022,173.9400,128.7948,23.1801,-184.7080,22.4263,39.5970
-27.4352,-155.3324,-99.8026,-89.0738,88.2858,175.7198,112.4944,226.9678,100.6314,280.3166,19.6843,45.2432,130.5139,144.8307,95.3550,-1.8293,-220.9129,19.2394,48.2830
-28.8536,-158.3846,-116.6922,-72.2693,97.9265,177.1261,161.1832,232.1173,118.4763,249.8181,46.5796,9.0260,159.7067,113.6228,135.9058,30.1037,-200.5139,28.2422,76.1707
-54.2775,-204.0271,-91.2356,-42.6211,138.8430,135.0692,229.5997,179.0700,123.7636,126.2226,72.6875,50.1932,191.0656,75.1285,170.9950,76.5793,-178.9661,-12.5563,74.2652
-79.2109,-180.7502,-94.9485,-52.9986,131.3412,56.4045,275.4383,109.2532,158.8739,105.2218,50.0451,148.9901,171.6947,39.1244,137.3225,74.9115,-178.1500,-52.2217,48.2655
-104.0324,-94.3518,-92.5150,-47.6444,75.1234,24.2942,244.3996,68.3703,149.7075,141.2651,4.9721,197.1187,118.0807,36.4640,99.1845,58.8729,-112.0313,-23.4097,20.6593
-85.0296,-42.6351,-23.9752,19.2387,35.0066,19.1847,119.5666,11.4632,-3.5274,20.6043,-5.5356,198.6843,66.4697,42.8495,75.7915,52.0852,12.5384,12.3464,-56.1882
1.2091,-22.9067,57.3955,63.0137,21.0155,-50.0544,-24.2721,-99.6307,-166.7863,-174.3202,13.5528,202.9526,16.1888,16.9856,26.3973,8.6431,65.0555,-18.8184,-191.2908
100.1650,10.8454,88.7181,26.3863,-9.9563,-144.7883,-103.0852,-186.3988,-177.2392,-213.4531,38.7855,189.0549,-26.2048,-7.3423,-10.8894,-54.9896,27.9544,-65.1797,-282.3146
146.2076,32.8663,79.1332,-9.4618,-54.9100,-164.7686,-121.1879,-183.7062,-131.2525,-157.7681,60.6375,177.5089,-37.4853,22.3808,5.9652,-77.5372,3.1428,-59.0159,-291.4969
123.4877,39.7143,43.3974,12.3526,-71.3682,-137.9059,-109.3646,-155.7845,-149.6727,-174.0000,43.4662,228.4849,-33.3843,76.0747,20.8450,-88.1106,6.6687,-32.2505,-291.0462
65.9461,74.4676,-4.3924,27.7055,-57.9962,-138.3723,-66.7326,-159.0850,-164.6200,-203.4655,-18.7230,280.4405,-51.1857,91.2580,-8.2969,-127.8053,-17.3188,-38.5859,-288.7696
30.0766,103.0608,-29.0609,-14.1772,-53.1500,-141.0721,-21.3175,-148.0685,-129.3404,-150.3890,-63.4503,241.8635,-93.6153,76.4256,-41.7683,-145.4029,-61.5106,-68.9397,-250.3533
45.0773,69.8872,-23.4781,-70.2871,-81.9327,-106.5495,-17.2620,-108.0233,-110.1404,-85.7726,-68.2425,184.8833,-149.4073,79.1827,-56.4686,-113.7753,-85.8327,-90.6620,-228.2554
93.8863,43.7990,-9.6939,-91.0350,-135.4996,-81.7338,-37.5802,-103.6403,-134.2000,-88.5065,-71.0930,214.4843,-223.3150,90.9482,-81.7970,-93.5329,-90.2803,-103.2829,-264.0946
153.1521,125.6842,8.1872,-85.3311,-179.1888,-110.7732,-57.8181,-134.1609,-170.5715,-114.2901,-71.7189,274.6722,-306.1479,75.3211,-123.8027,-112.3514,-88.9459,-116.8781,-298.4522
221.7401,293.8456,32.8397,-77.6478,-186.1705,-134.6377,-89.8349,-109.2490,-173.6514,-75.9689,-59.6928,277.0695,-356.8891,61.2044,-139.7608,-128.5125,-78.3390,-99.7760,-274.5399
308.5879,463.4718,54.8687,-54.6764,-162.8095,-69.4340,-94.6861,-7.2575,-100.0807,29.3502,-69.6244,268.7674,-338.8907,102.2162,-106.6729,-118.0850,-51.2782,-14.1911,-196.6367
410.7150,592.7952,59.7870,3.7859,-126.0287,47.5830,-24.2448,79.2157,-12.9998,84.8292,-104.9647,319.2187,-273.0334,167.9406,-63.7841,-101.0635,-20.3093,84.5660,-111.1598
499.1168,672.1561,32.1230,55.9454,-96.1775,92.6341,36.4630,77.7094,-39.2677,9.5869,-123.4243,380.9147,-238.2331,186.0923,-52.9252,-101.0279,-9.7199,94.8096,-94.1748
540.4453,702.0457,-4.8508,38.4571,-105.7273,41.0927,-17.8613,18.1868,-146.8911,-99.3292,-117.3844,382.6810,-270.6036,160.4598,-69.6098,-113.4220,-11.1469,34.9664,-160.2583
532.2938,682.9836,12.7327,-20.7354,-142.9342,-16.4020,-125.3166,-38.0077,-199.7550,-131.1502,-106.6465,339.0296,-299.3054,135.6134,-97.8274,-118.5660,4.8782,12.6576,-227.9057
479.7245,581.9364,78.2674,-38.9866,-138.9883,-46.9394,-175.5808,-83.1975,-188.9229,-132.0848,-102.7039,277.6768,-263.7128,91.8360,-106.6246,-129.5934,23.7076,35.5405,-254.0743
360.7244,379.6503,99.7750,-17.9976,-82.5266,-90.2136,-172.3636,-136.1897,-169.1763,-158.8430,-115.6522,185.8528,-206.4409,-1.9275,-51.5935,-168.2375,16.0934,34.9851,-262.5635
168.9396,164.3115,50.5349,-18.2648,-42.1005,-121.2896,-156.7494,-175.8671,-133.9696,-180.2372,-131.3058,94.5377,-170.8432,-74.8645,3.1122,-201.8197,0.6392,24.6204,-251.1696
-39.2266,53.6736,-7.2992,-36.8905,-36.8791,-87.6120,-143.4649,-175.2254,-109.4237,-208.1307,-131.2557,72.2576,-147.2797,-35.9240,-68.0097,-209.5053,-11.1715,50.0985,-232.8431
-186.5326,18.1629,-50.0690,-40.8690,-25.8796,-37.2067,-150.1918,-169.2625,-141.5762,-275.1256,-150.2828,93.4563,-150.3383,50.4142,-176.3669,-234.5232,-42.2644,73.9657,-245.0981
-250.4012,-77.6808,-96.2273,-55.7174,-13.0306,-49.1715,-156.0156,-197.3467,-171.4333,-308.1884,-202.4839,59.7691,-180.9889,34.7432,-117.8874,-263.8210,-75.0618,56.7377,-238.2249
-278.6620,-261.3146,-130.0649,-114.6234,-24.9695,-99.6884,-120.9242,-220.2166,-137.7594,-251.7504,-220.0694,-44.7863,-174.8835,-67.4126,15.9094,-232.6082,-79.0700,33.4774,-159.4944
-326.8393,-422.9250,-126.5858,-189.0298,-41.0964,-108.3284,-84.4614,-188.5063,-94.9238,-190.8799,-179.3205,-147.7920,-136.9346,-100.9272,-15.8906,-194.6601,-82.1786,33.3653,-81.2263
-387.7816,-487.5992,-92.8171,-226.8382,-35.2774,-57.4250,-84.9952,-127.8495,-85.6921,-190.3203,-143.5966,-200.5721,-153.9820,-56.3972,-125.5240,-223.8895,-90.9793,46.9721,-38.0882
-416.6560,-486.9609,-61.9643,-206.7407,-10.2268,1.6172,-62.5013,-80.9045,-69.3894,-192.9278,-133.2282,-212.6253,-193.5331,-74.7393,-78.3847,-221.6694,-65.0480,72.0837,47.3513
-413.7886,-481.3857,-84.0419,-155.7128,28.6627,24.2967,-0.6350,-52.1983,-30.0328,-162.5381,-127.0091,-226.2791,-150.6260,-165.8678,48.7685,-123.9417,-37.3434,92.1625,157.2620
-417.7019,-505.2766,-162.2221,-135.0190,73.1791,13.7659,22.1763,-42.1372,-2.0048,-137.6416,-141.1676,-271.6570,-76.9000,-204.9334,54.6450,-81.4024,-64.8676,77.2503,193.0768
-429.7942,-547.2009,-205.6246,-163.7138,118.7978,0.0117,8.6907,-40.1333,-7.8068,-120.7911,-158.2119,-309.1841,-78.4669,-172.7726,-29.9823,-164.5342,-84.3720,57.4430,175.5998
-411.3630,-541.2940,-143.2487,-175.7962,174.9083,16.4610,20.4337,-8.0794,-49.7003,-80.2618,-106.1003,-275.7782,-102.8296,-137.0943,-90.2239,-214.8624,-25.8772,84.3127,161.9530
-339.7578,-446.5685,-24.8105,-123.3722,219.9803,78.3592,10.4617,49.7302,-111.7557,-42.9544,11.6388,-198.5925,-66.5091,-98.4810,-116.6903,-154.3156,50.3533,122.4572,121.6003
-234.2087,-323.1122,69.7121,-61.3302,212.0952,136.7433,-71.3661,76.1462,-165.1384,-51.8391,110.5960,-160.2600,-14.1066,-58.7878,-110.1648,-83.8046,89.2254,101.8130,53.4105
-142.2757,-246.3368,117.2065,-50.9760,166.8539,112.0476,-142.0712,59.1392,-198.9679,-75.1725,147.3057,-169.8823,-5.3051,-70.6795,-66.4688,-47.5156,121.0297,29.1285,7.4368
-98.2324,-211.1328,116.8370,-66.6504,114.8572,20.9545,-141.1760,33.3297,-207.8187,-67.4678,135.2503,-173.2917,-27.0528,-108.4925,-38.2436,-8.6401,133.5982,-53.2516,-20.1481
-90.0339,-198.3725,78.1178,-70.0576,31.3417,-41.6809,-125.2167,1.6079,-178.6502,-51.9926,97.4976,-154.3738,-51.3758,-93.6418,-42.6516,26.2953,83.9541,-133.3844,-34.4070
-87.0908,-224.1989,35.0832,-79.0257,-62.8634,-55.2945,-121.0742,-33.5855,-135.4154,-50.5525,61.7123,-145.0950,-50.5345,-45.9824,-28.1401,45.1831,23.7515,-182.3253,-3.1966
-78.8303,-266.4748,8.7750,-100.7556,-59.7560,-50.1668,-94.1642,-28.8798,-124.2523,-29.5189,49.9878,-161.0123,-8.2236,-21.1414,1.8835,58.0397,22.5057,-146.6755,48.3473
-65.9673,-270.2946,-4.9931,-93.0737,54.8857,-3.1378,-59.6476,23.6915,-140.4433,17.1348,65.0975,-175.6054,38.8650,-3.7419,-9.1914,54.6663,49.4769,-49.2336,68.1437
-55.6276,-240.4033,-10.6217,-50.4229,142.7184,67.4969,-56.9289,69.2285,-150.5386,50.1641,88.3056,-166.2376,49.9985,3.3375,-50.5139,44.8782,55.9402,-4.8216,66.3525
-61.8341,-213.0349,-22.5919,-40.8970,110.0386,60.8678,-67.9492,72.8820,-150.9629,63.1227,77.8449,-157.3592,30.3769,-47.2588,-64.6925,52.8983,50.2084,-75.6862,57.7662
-66.6176,-181.7877,-52.4823,-94.5850,12.3817,-16.1899,-55.3906,45.7478,-140.6270,57.5600,19.7252,-177.0598,-11.6257,-128.0439,-53.6587,44.0047,39.9773,-174.8746,34.1143
-24.0404,-140.2552,-60.7036,-135.1049,-53.3177,-43.1702,-16.2693,7.5357,-104.1797,6.7059,-28.7712,-203.2141,-59.9977,-163.0774,-59.2363,-4.7355,30.8607,-182.9490,19.2966
62.0995,-100.7771,2.9355,-95.3924,-51.6102,-16.0384,29.0065,-19.9704,-53.9716,-56.6669,-17.6409,-206.5121,-66.6754,-150.3044,-73.2256,-28.7068,61.7248,-118.9746,24.2953
130.0736,-28.9251,98.9333,-26.1058,-23.9987,-30.6805,54.8568,-29.1123,-21.0942,-50.2490,23.5486,-199.3174,-32.6414,-135.0072,-53.6092,14.2411,118.2273,-105.2247,4.9195
141.5208,98.2969,116.6037,-12.4263,-44.8024,-88.5667,46.7570,-43.5008,-8.9892,14.6593,44.8092,-206.4605,-22.5586,-140.9035,-13.1138,82.4702,98.0507,-189.5450,-59.0872
114.3889,182.7284,23.0452,-56.8507,-127.9547,-135.6594,15.3707,-71.3169,-3.4238,58.4250,35.3491,-237.1189,-43.6745,-175.5710,-9.0460,130.3694,-14.8026,-303.8478,-129.6335
90.8921,131.8197,-69.7244,-106.3030,-200.6396,-169.5983,-13.6150,-84.5689,-3.6653,66.1976,16.2168,-273.6892,-49.8603,-212.1719,-55.2734,125.8750,-79.6154,-366.0251,-160.8545
102.5083,35.8272,-56.1118,-118.1975,-203.4658,-178.9733,-14.0951,-74.8400,-9.7887,59.9015,25.4190,-265.7657,-52.2740,-196.6460,-116.0498,55.1852,-22.8073,-330.8128,-132.2090
138.1589,29.4211,9.9270,-68.8816,-159.5116,-131.1612,25.4768,-59.6641,2.5854,39.8247,68.0986,-201.7422,-76.2796,-143.2825,-153.0578,-15.6244,47.5332,-201.5393,-65.5560
147.9394,77.1559,28.1839,23.1283,-120.9971,-51.9630,85.8424,-32.8922,59.2126,29.7255,84.3925,-155.5932,-81.9156,-130.9262,-130.9320,-9.7838,53.1092,-62.2113,7.2295
103.5483,79.2855,19.2990,87.1463,-105.9071,10.4642,142.5965,21.0490,137.7191,63.7978,38.0978,-166.8161,-41.6100,-165.5340,-46.2408,36.8081,51.9366,-12.6966,99.4238
42.0069,56.8400,30.7989,76.3447,-99.4683,47.6695,200.3236,81.1658,188.9445,126.3590,-20.1661,-173.2168,10.4934,-166.1614,42.0229,55.5449,61.2440,-52.4260,201.4433
35.0263,63.9324,23.1139,8.6991,-81.4821,45.2322,257.9450,100.6250,214.0448,173.0599,-32.0627,-147.8065,56.8588,-105.7565,92.0229,68.5060,17.9808,-125.9065,227.3857
99.6273,56.0634,-15.1171,-89.0101,-48.5776,-23.2232,280.3427,52.6267,250.9727,168.6629,6.9024,-148.7124,104.5798,-54.0706,125.0636,122.9804,-51.3671,-222.8723,161.5827
145.6884,-16.5877,-20.8164,-185.9023,-18.6742,-124.9223,260.6260,-27.9855,293.9565,119.6902,66.1293,-188.3911,125.4206,-63.2445,128.5948,199.7553,-48.4653,-317.5833,122.3764
96.8020,-95.7682,11.2304,-212.7070,-3.4989,-179.9666,253.9997,-60.2043,312.2349,96.4988,98.7390,-213.4338,97.7312,-97.4830,58.0738,245.4611,28.5615,-328.6005,173.1047
41.8891,-89.3080,34.2557,-139.9340,13.9163,-153.3004,294.2131,-19.9574,311.8443,127.0254,83.4739,-204.5532,65.1997,-111.8328,-29.0085,229.3801,99.5102,-250.0331,235.8348
89.2444,-2.3815,46.9082,-46.3271,45.7045,-88.4246,340.2071,20.6238,308.1384,127.9460,50.5836,-180.3240,79.9991,-130.1248,-17.4551,161.4558,117.8302,-181.5034,238.9658
136.4958,62.0530,45.5029,-13.8425,61.2370,-47.5701,357.4641,16.8643,306.3109,76.3262,21.2821,-155.9666,141.5138,-179.1526,92.8360,83.5149,86.9083,-171.4075,206.1341
53.3705,47.8597,3.9215,-31.0650,30.5871,-43.5792,375.7556,16.2715,328.6141,72.6861,-5.0730,-145.8099,214.4190,-213.7000,199.2690,36.4914,37.4092,-181.4138,192.6722
-33.3631,39.2026,-46.1225,-52.8541,-19.0103,-53.3357,404.5835,43.3051,366.5164,127.4669,7.4081,-143.8734,255.7122,-187.1741,230.4109,40.2444,-0.7974,-193.0827,202.2005
40.5646,112.5024,-62.6515,-58.6640,-49.0474,-67.8148,384.2845,53.3328,352.1298,144.6456,76.3609,-122.2536,242.1319,-119.6073,193.5504,92.4763,-35.3379,-205.3106,179.6235
160.0430,174.1399,-67.9817,-43.1560,-64.4360,-80.6071,300.8065,36.4101,272.8230,121.0362,130.0358,-85.2297,204.2531,-43.9822,149.2589,160.4275,-67.9792,-187.6223,113.3388
155.0595,122.4058,-66.0049,-23.8639,-62.3952,-73.3613,240.3669,30.3929,209.9645,100.3184,114.2276,-67.4636,187.7621,13.1764,138.5469,195.5854,-52.8080,-134.2776,82.7546
103.8348,51.7360,-16.6303,-17.3678,-13.6082,-52.3593,239.5323,36.4705,194.1039,63.4982,78.3394,-80.6996,183.5014,8.6744,119.3127,175.5423,21.9947,-76.0703,119.7246
135.4017,81.7587,71.7660,11.1356,53.0958,-31.7035,208.9463,37.0822,164.0476,36.9300,81.8431,-107.3603,164.1065,-42.2285,49.2890,123.4082,96.8739,-17.5258,148.7846
191.0138,143.3400,155.1475,83.6910,63.2350,9.0679,99.0174,48.9289,103.0689,70.3709,123.6734,-116.0496,150.0889,-55.0307,-11.9015,92.1453,129.7832,38.7773,136.3714
185.0799,133.3735,205.2811,136.1847,18.1692,65.8824,3.7602,79.4512,67.0683,100.2471,172.4857,-88.8540,161.8476,-28.5852,8.4717,110.9175,118.7904,59.1430,126.4796
153.8843,99.5809,189.3593,119.4218,-14.3363,82.0803,11.4024,103.1433,72.8017,87.4007,187.1640,-68.0780,174.5157,-37.4146,88.9348,139.6900,68.2512,44.4630,121.8089
129.9562,121.6810,112.7433,80.0624,-10.5277,47.9774,70.7569,105.1599,78.0560,103.0457,145.5275,-112.0810,179.3763,-55.1628,165.4041,131.4298,22.7987,24.3004,95.8864
93.9775,170.2817,51.9787,58.2888,7.8422,10.3853,85.1840,77.1297,63.0334,114.4714,80.1903,-189.2310,199.0694,-19.0828,190.7899,112.1365,45.6923,-14.9996,62.6406
80.3949,171.4631,49.1582,44.7070,31.7524,-22.8348,63.5214,13.8502,56.1747,30.4312,42.6207,-214.1818,220.8986,7.2525,150.1346,117.5559,123.2879,-60.1094,42.9139
123.2625,115.5764,76.8194,63.0768,64.8555,-51.0720,92.2986,-33.7537,83.0097,-43.0623,53.5324,-174.7273,217.1411,-23.0083,98.5889,124.6166,188.3149,-27.5186,50.2214
142.6770,64.3586,118.5879,126.8836,106.5651,-30.5232,172.6000,-7.5522,121.5831,5.8004,105.2057,-128.7338,211.2629,-15.3273,105.6098,114.4987,202.8898,66.0137,87.1903
83.7995,65.7797,152.0818,153.1921,137.6205,24.6914,195.9550,41.5191,123.5831,46.0148,166.8938,-114.4368,230.9630,55.3493,136.6291,97.5181,154.4540,77.5228,99.7654
53.7493,90.0631,134.9500,83.0727,123.7317,31.2541,128.2815,29.0752,80.6670,-10.4928,198.1764,-123.9137,250.2172,73.4606,119.5365,69.7468,65.4099,-8.8330,53.0990
123.3441,96.4381,95.1005,-8.8462,76.5828,-14.6820,70.6270,-15.0024,36.5092,-35.9303,184.5187,-127.0159,240.6146,25.3101,82.6183,46.2658,12.1798,-55.4081,20.2798
177.8580,100.6105,89.9764,-47.4589,49.2442,-48.9288,62.4037,-31.5315,14.6250,-2.9066,142.4296,-105.2329,208.7770,13.9566,80.2768,57.4283,28.2478,-35.4282,42.8391
150.8518,108.6732,92.5740,-54.4588,32.0706,-70.4483,18.5306,-53.5364,-14.9603,-34.8536,103.0085,-72.3711,168.0990,40.0709,80.9027,66.7489,53.1055,-38.0234,45.8785
140.7227,88.5630,68.3000,-43.5208,-14.0303,-91.7539,-64.9658,-95.3891,-64.1676,-101.7796,88.1225,-43.9106,140.7642,43.8057,50.2869,36.4447,49.9815,-53.4248,13.4202
147.7582,41.9575,50.0859,7.6167,-32.9201,-64.9886,-74.0216,-85.3560,-82.7568,-77.4679,75.8266,-13.9145,153.4138,57.1563,25.0826,22.9280,54.9805,-25.3000,30.8652
54.1064,-5.0107,48.3261,56.0741,27.3742,6.7816,1.1450,-18.2222,-40.8952,-4.4123,40.5594,7.8811,182.8814,105.6111,30.0931,53.5627,79.6228,-4.4110,100.2965
-54.5690,-35.5609,44.0648,38.7159,71.1514,35.3544,32.5170,12.8279,-1.0616,2.9110,25.6114,-4.8656,175.4652,122.7516,35.5528,57.9342,90.2931,-40.6237,123.8142
14.2574,-4.3265,58.9295,4.1816,16.3948,-2.5060,-29.9378,-19.7875,-31.0551,-44.7376,73.8328,-35.9558,142.1497,76.7366,25.3935,18.4073,79.9236,-78.3847,54.7052
150.8537,94.9458,96.9032,34.8156,-46.0789,-45.3679,-91.5128,-64.2054,-93.8909,-81.4921,136.0897,-39.5980,145.4236,13.9431,23.4119,-13.8737,66.2385,-78.0243,-60.6761
107.3179,148.8900,110.5331,77.2407,-27.4606,-79.0733,-73.0895,-106.6099,-112.7788,-96.8423,151.0671,-19.6904,187.0382,-34.2417,48.1088,-41.6709,40.6229,-71.2164,-137.8613
-35.0522,91.8816,82.3264,21.6506,14.8691,-125.9552,-12.9084,-148.0643,-88.1498,-109.3352,118.8479,-21.4579,204.5131,-55.8924,90.2473,-71.1906,-17.2681,-66.4087,-126.9885
-35.7359,16.9393,27.7750,-95.1839,21.2354,-151.4662,17.5174,-149.9938,-57.2533,-121.3783,54.8719,-49.2271,179.7304,-36.4047,130.9131,-60.1650,-84.6069,-48.2950,-59.9271
43.4413,-24.6951,-42.6643,-150.1636,21.0807,-120.4846,25.3975,-105.5856,-14.6673,-117.2101,-6.5535,-67.8025,159.3123,-4.4548,160.8123,-22.5883,-112.2617,-36.6784,16.1838
-24.0769,-95.2818,-98.1316,-151.0428,24.7445,-71.6050,57.2048,-60.4313,39.0523,-91.1307,-10.8059,-75.8043,162.4854,-2.6397,178.9663,-3.7569,-111.6719,-44.0189,92.7194
-210.2397,-178.9031,-117.3165,-186.9762,-8.2916,-43.9674,89.0786,-30.5000,61.3082,-58.9636,25.0050,-94.3209,157.1130,-10.4093,179.0519,26.1760,-138.9879,-41.7146,130.6940
-287.5974,-189.3382,-117.3129,-218.0146,-69.5607,-26.8337,71.2220,-4.4507,47.1758,-18.5938,38.9779,-99.8186,135.0048,8.5040,153.7741,73.8011,-166.4442,-21.4209,87.1301
-180.8798,-142.5793,-84.0522,-151.5553,-90.8149,-25.1998,45.5257,-1.5039,50.9353,39.9627,38.8757,-69.2738,121.3860,28.5763,113.4357,62.1260,-116.6633,-18.2363,24.7276
-46.2900,-117.9592,-5.5417,-60.0194,-53.8652,-61.2520,79.7862,-33.9242,94.3416,76.6699,42.8363,-53.8053,111.0283,3.9191,80.0699,-3.7860,-36.7079,-45.1889,22.0325
-43.7827,-146.8899,31.7522,-72.7307,-30.0668,-99.7696,136.4995,-57.5679,136.9572,62.1220,11.1797,-94.0952,81.6027,-62.8116,62.3437,-21.1086,-37.3920,-59.4969,52.3953
-149.6228,-217.4124,-38.0443,-143.5981,-71.6005,-83.6097,136.6830,-29.1878,139.8019,50.1926,-57.7118,-137.2262,43.4739,-118.7763,48.5498,12.7595,-95.1783,-25.9286,81.0768
-226.0373,-273.6895,-140.5881,-158.3774,-129.6376,-27.3486,84.6728,25.0389,99.7098,68.3961,-115.4385,-139.5386,7.2305,-107.8056,23.7929,4.6332,-125.3885,21.0006,115.1278
-216.8717,-262.6239,-203.0891,-142.6355,-142.9941,16.7606,33.1145,47.8991,36.8180,54.0565,-149.3933,-134.5481,-35.4651,-41.3213,-8.5821,-44.6189,-140.9835,28.7886,118.1625
-195.2810,-235.2362,-238.2584,-163.0549,-129.7629,41.3529,-7.2351,32.7573,-21.4015,-5.2961,-153.9387,-136.0784,-62.5278,0.8510,-25.2392,-43.7756,-158.5564,3.4043,68.7303
-231.4267,-253.1386,-232.3444,-178.7583,-116.9368,54.7011,-55.0827,12.3935,-55.8015,-37.9859,-119.7954,-116.1359,-43.4905,-13.8434,-14.8339,13.1853,-127.4414,-37.7622,29.3944
-274.1679,-243.2910,-157.7292,-146.0703,-85.1349,29.8532,-95.4130,-14.1400,-64.2073,-31.9961,-88.9429,-81.6375,-5.8694,-29.3606,-4.8615,24.2067,-66.1451,-111.6693,13.9381
-201.5480,-140.3168,-67.9087,-112.7280,-45.9244,-42.6155,-91.3179,-62.1450,-60.7513,-37.6291,-78.4493,-51.9409,9.8074,-15.4328,-23.6425,-46.9294,-58.0388,-180.3968,-40.4230
-32.9394,-50.9841,-26.1836,-114.2546,-46.5229,-107.7588,-63.0252,-98.3401,-64.0402,-58.3918,-48.3030,-27.6200,9.5978,-7.3211,-45.1043,-104.2797,-87.9042,-154.3729,-111.9437
3.7603,-96.2558,-29.8219,-124.9089,-72.8633,-123.3074,-68.7911,-101.0419,-66.5735,-73.1737,-37.2166,-38.7492,-0.6691,-16.6750,-27.8563,-92.9401,-83.2039,-64.4108,-118.3846
-187.5730,-213.9242,-59.1616,-141.0594,-76.8691,-125.8418,-86.5134,-115.6826,-45.6192,-85.2635,-108.7119,-98.6949,-34.7113,-25.6923,1.2202,-83.1493,-58.3359,-34.1153,-74.3967
-331.7239,-245.0341,-92.8128,-171.4544,-69.4512,-144.0568,-59.1141,-148.6284,-29.8721,-89.8073,-179.2136,-127.3811,-74.0014,-41.5794,-18.4134,-99.9587,-56.4053,-49.2365,-49.3275
-208.0319,-150.8887,-97.9001,-164.8351,-72.4556,-128.1369,-42.6029,-137.2359,-69.0060,-89.3686,-158.0185,-61.4616,-83.5732,-61.5323,-73.4709,-75.3600,-54.0175,-2.1999,-52.9777
-46.1796,-61.2081,-77.3244,-89.2974,-60.4788,-65.5661,-91.6459,-97.0726,-115.6322,-116.0179,-112.2060,30.9519,-69.4890,-57.0457,-100.5108,-24.8421,-34.5972,67.9466,-61.6590
-104.5511,-86.9224,-72.1815,-31.1941,-38.0928,-47.2013,-96.7121,-107.8550,-82.3810,-157.0970,-103.4270,53.9778,-66.6625,-35.8812,-97.3701,-32.4929,-38.9729,51.6634,-60.6751
-229.1831,-172.1968,-103.3263,-73.2655,-59.0670,-96.5126,5.8782,-140.9192,-11.1162,-153.1546,-102.9219,10.5582,-94.3923,-25.8358,-104.0937,-75.4965,-75.0948,-9.7040,-33.1566
-214.7628,-224.5963,-148.1408,-154.0984,-115.3545,-100.4499,70.0563,-117.3142,-2.3664,-115.6196,-125.0868,-35.4658,-135.7733,-21.2013,-112.2700,-84.4988,-85.5704,-22.9564,27.5989
-162.4807,-256.3570,-159.1547,-182.6044,-131.5234,-25.5730,19.6201,-69.6462,-34.6080,-112.4133,-188.3186,-52.1195,-152.2792,-19.2475,-97.2764,-78.2524,-49.6871,-13.3906,101.2625
-186.2963,-281.3922,-122.0446,-177.5039,-87.3868,14.9325,-20.0032,-51.9888,-44.2489,-128.0318,-224.3606,-57.9113,-138.4580,-27.1720,-79.0766,-88.3129,-25.0148,-17.0179,146.0973
-207.4578,-262.4203,-92.8141,-179.3322,-33.6335,-13.3870,-10.8537,-33.3553,-59.1258,-90.1837,-202.8454,-71.7036,-129.9986,-21.6600,-73.1522,-99.3266,-48.5157,2.6404,122.2370
-192.2639,-228.8610,-106.4901,-175.1110,-0.1673,-25.9413,-48.2639,-8.6364,-87.5671,-22.9630,-171.4523,-89.3465,-130.7064,-12.3650,-64.4815,-107.4280,-80.9493,26.9997,49.0592
-208.2896,-235.0967,-113.8638,-181.6623,18.9254,-20.3674,-98.8518,-27.0695,-62.6217,-19.0995,-135.8414,-118.6343,-109.7783,-61.0784,-63.5906,-108.0394,-90.7149,-15.1947,3.9404
-227.9007,-233.1754,-99.7957,-225.7053,23.4133,-66.2231,-59.2378,-73.8752,-3.9630,-77.9242,-93.1303,-154.3047,-79.2332,-136.0509,-85.1884,-89.2891,-104.3601,-91.8761,6.8323
-173.3904,-180.1149,-121.7324,-241.1816,12.0152,-135.4065,12.4608,-101.9808,-12.7231,-117.9094,-92.7580,-132.2713,-75.1787,-122.3797,-88.2126,-88.5931,-128.8620,-117.5512,-8.7095
-97.9871,-145.1904,-164.8294,-170.9615,-10.4023,-148.7536,3.1497,-121.2159,-78.7240,-121.2980,-129.0717,-38.6039,-93.0914,-31.1129,-50.2305,-128.6279,-114.2270,-108.2577,-58.3484
-103.8761,-170.7232,-145.4063,-86.9955,-44.3824,-112.7353,-67.2682,-131.7711,-111.2828,-120.3725,-133.2588,21.4989,-118.2984,19.2000,-39.3284,-147.0628,-38.8569,-108.9077,-68.0487
-152.0251,-192.2662,-67.2777,-56.9832,-72.3281,-82.6627,-115.4643,-102.3704,-106.2043,-97.8465,-105.3903,-0.4636,-145.8961,-2.4167,-101.1053,-112.7631,40.5424,-85.4522,-14.5794
-139.4684,-168.2146,-7.0759,-53.6990,-62.0408,-77.5679,-107.2624,-64.1147,-105.6520,-52.8721,-95.2615,-28.3490,-144.9026,-54.4032,-161.8363,-83.3606,59.2563,-33.1535,31.3701
-107.0367,-141.6891,-0.2619,-76.9372,-33.9583,-85.0891,-65.8514,-69.6738,-101.3612,-61.1145,-106.2934,-37.6487,-103.4133,-105.7890,-141.4701,-86.7643,18.9341,-29.2021,29.7737
-142.8096,-145.4849,-38.3864,-149.8399,-50.6589,-92.2935,-45.8246,-90.7234,-80.5395,-126.2283,-121.2541,-52.2420,-78.7658,-102.0601,-74.4908,-97.3595,-29.2480,-88.4357,13.7292
-145.6048,-139.7915,-83.6005,-200.9328,-119.0427,-101.5435,-65.5044,-90.1261,-55.4468,-141.1541,-128.4554,-20.9450,-109.0235,-35.9397,-41.5802,-111.1537,-47.1839,-144.0935,-1.8218
-9.3670,-83.9842,-80.8077,-164.9172,-192.3855,-118.8601,-87.7343,-97.1463,-43.7510,-99.9637,-102.2480,54.7073,-151.2099,-20.7999,-57.1739,-131.6537,-38.4430,-177.1315,-40.7308
89.3125,-27.6526,-42.3892,-110.7913,-248.3130,-122.4024,-111.2649,-116.5612,-85.6620,-103.3288,-48.4878,62.7513,-167.1865,-99.6298,-82.8161,-145.3308,-35.4855,-188.2413,-90.3724
-10.2790,-43.2439,-44.9837,-114.6488,-269.1792,-81.9694,-158.9364,-92.3085,-178.6405,-119.2036,-26.7365,6.0986,-167.4396,-145.6946,-91.8630,-140.3011,-74.9611,-128.1022,-93.7725
-149.2773,-102.8998,-103.7758,-158.4211,-208.7182,-7.3022,-162.4557,-16.4159,-202.2946,-44.3120,-66.6468,-7.8999,-147.8184,-96.3836,-72.8431,-97.0231,-161.1401,-10.8338,-23.0383
-215.4888,-147.4285,-166.3411,-218.2689,-71.6521,60.1700,-47.2618,45.4119,-83.8612,48.0625,-122.7775,-1.6787,-88.8278,-39.2807,-14.0472,-18.4129,-247.2016,55.1771,81.3328
-302.8333,-182.0695,-211.0172,-278.8875,47.9210,83.3530,95.0388,60.9062,47.9819,44.9651,-139.0929,-39.8750,-20.4618,-17.5672,64.1569,33.9173,-286.8720,41.0832,140.6929
-296.8087,-177.1169,-240.7238,-284.5251,75.4592,60.9608,124.1064,70.9401,63.4776,29.9048,-109.8131,-60.3363,0.6718,1.1630,95.2486,32.4683,-279.1256,18.9058,120.4031
-40.7717,-71.1490,-234.0101,-218.0432,46.0253,47.3906,81.4289,109.2161,26.3683,94.9043,-60.6701,-25.8564,-19.0123,17.6700,47.1234,35.1229,-226.6637,14.7185,91.0863
147.4471,42.4674,-178.7171,-144.3296,47.9096,89.2077,107.2644,152.9343,37.3344,153.6307,-4.5149,-10.2591,-16.6943,35.0095,-8.8673,65.2251,-131.2485,19.6551,138.5330
-21.4920,7.0747,-107.2225,-103.8196,104.9191,153.3973,199.6157,178.7010,84.7142,154.4136,48.1770,-41.1048,23.1134,73.7641,17.3721,79.3762,-52.4455,57.1288,225.9118
-199.7821,-119.4762,-64.2586,-71.2919,153.0204,199.8073,248.0634,209.5527,133.1691,186.4081,63.4244,-71.9581,52.1393,104.1474,104.1022,79.0738,-45.8165,115.5050,266.1144
-90.2720,-158.6678,-56.2942,-23.9729,148.4257,243.1869,240.7154,259.9460,170.4007,258.6141,34.4334,-68.8806,58.7389,98.9136,154.2108,103.7683,-62.3206,149.1757,265.1407
8.8599,-85.2877,-48.8813,38.0481,129.6216,269.6291,240.1389,288.7955,168.2270,274.3656,20.6497,-21.3668,78.2420,85.4378,138.3466,140.9524,-40.7339,163.1236,249.9353
-73.7636,9.2910,-26.9621,103.0233,119.6107,237.5631,219.8552,264.2157,128.8832,235.7848,56.4944,28.4488,93.2838,65.7361,107.3631,151.0703,-8.0277,161.5915,189.9288
-77.4652,74.4741,-15.1100,143.3337,83.0776,184.7247,133.8844,219.7043,96.2856,213.9751,84.3120,21.8671,56.1234,29.4815,85.0352,135.1998,16.8437,114.8492,111.6936
17.8240,103.0176,-8.7363,142.8705,40.2498,170.4326,64.1520,200.2101,78.1579,203.1406,52.7357,13.1792,0.6041,29.8540,50.6847,133.2120,61.1319,62.2048,96.2606
-15.0460,103.8769,22.9670,114.8096,58.3544,169.3611,88.6431,203.4316,63.4469,185.0244,0.3321,72.9268,-8.0438,85.5413,11.9693,166.0609,97.9290,63.9551,115.1837
-82.8958,96.3658,52.0733,79.9388,104.8607,146.0806,126.1142,192.9917,66.1016,179.7860,-10.2977,117.5658,12.0312,114.3165,3.5536,180.6112,90.2105,65.5305,83.3088
-1.6032,93.3232,42.0807,67.8721,100.8276,109.6684,91.5126,138.6886,59.6114,156.7556,29.2968,82.5646,18.4118,81.3958,27.2964,120.2657,89.1450,18.8847,15.5764
90.0752,114.2651,44.3928,103.4365,79.3333,60.2367,38.6906,58.7079,-3.8322,87.0716,81.5947,73.2649,33.4878,55.0193,55.9992,51.8921,129.1322,7.1629,-43.7286
77.8016,159.9745,99.9623,152.4066,106.4393,19.5761,29.7264,15.5547,-69.8424,45.2374,110.5328,138.9041,78.9335,69.0935,73.2238,71.2229,150.1396,66.3624,-93.8908
101.0270,175.7705,146.1094,151.3814,148.9412,39.5099,42.5375,28.2980,-53.8849,67.1622,115.2510,176.2055,114.7950,89.7937,76.1527,122.6780,127.4640,96.5589,-100.5049
187.3387,142.0967,142.2099,101.7553,159.0939,93.2679,48.8915,40.5704,-7.8838,52.5497,112.9924,149.8452,105.0192,105.3310,67.8685,106.5727,118.7622,59.8248,-40.6607
188.8448,117.1797,137.2199,57.8690,153.7512,111.2910,41.6195,21.7132,-27.3308,-36.9616,101.4500,128.4900,72.6132,130.0965,53.0377,57.0344,141.1568,34.4998,12.1501
106.1398,108.8207,144.7504,52.1612,147.1974,109.2645,15.2341,4.2776,-78.5888,-99.9652,83.0816,133.0802,61.0302,153.2996,28.9170,40.3373,142.8350,55.0503,5.0122
46.7340,69.5701,125.9692,84.6594,135.3467,114.0964,-12.9477,-5.2180,-85.3086,-98.4154,96.2109,147.2456,78.0120,145.7249,7.4865,37.7490,99.3614,84.0601,-28.1568
-15.2959,28.1320,105.2560,131.6761,132.1845,84.4520,-25.9457,-33.4825,-71.8102,-96.0053,153.4245,174.6422,92.1959,99.9479,23.4892,25.5179,54.5816,89.6119,-74.5212
-112.8417,51.9972,138.4301,158.5308,137.1543,18.2169,-37.0493,-69.9760,-93.5290,-102.8434,196.3756,212.3946,81.2675,44.6874,63.8217,6.9490,62.8999,56.6490,-139.1954
-111.9399,152.3958,199.3383,171.0672,130.0302,-35.6476,-51.3354,-97.7671,-133.7110,-98.9305,177.9020,257.6810,61.0208,9.2027,53.0561,-26.5674,111.1151,3.5425,-180.3929
55.3005,295.3918,222.0008,200.0944,117.0599,-76.5765,-61.5614,-132.1883,-148.2037,-116.6127,128.7836,296.0153,48.2073,-12.1094,-22.2089,-51.8156,134.9728,-15.5189,-174.3584
187.2504,374.5819,203.3247,217.4321,109.7124,-105.9516,-70.2852,-158.0689,-130.4871,-151.1252,95.2185,270.2933,33.0117,-31.9637,-76.0319,-26.7627,124.6786,13.1725,-135.4137
118.1246,278.6602,185.1099,175.8506,94.9175,-92.9280,-62.2808,-139.2278,-97.7118,-142.2026,78.6596,172.1909,12.1633,-48.0753,-63.6067,17.0035,127.3433,49.2409,-72.6885
8.3900,115.3218,181.5148,117.4269,68.0157,-70.7878,-29.5503,-111.0758,-67.2649,-102.0832,70.9148,92.9932,5.0380,-64.8132,-31.1561,20.5611,144.2070,67.4569,-36.1911
40.1218,92.6560,169.5634,110.3522,33.0035,-90.0401,-14.6095,-126.6267,-55.7705,-95.3462,76.1727,85.5708,20.1037,-68.1637,-12.8813,-3.0651,139.9422,65.3015,-68.4398
82.6433,141.7232,127.8182,121.5660,-18.0320,-93.9749,-31.4617,-140.3527,-66.6090,-111.5295,75.1634,99.9492,36.1213,-12.7582,-15.4725,-9.6365,116.9138,51.2455,-79.4331
-31.8752,56.1232,67.3677,80.7639,-69.3839,-19.0359,-36.2023,-82.7917,-78.2768,-89.6469,43.1495,90.1855,21.8428,84.3736,-62.8142,14.0665,91.2099,57.5601,11.7909
-173.4979,-84.8049,24.7033,12.3813,-89.4805,79.2498,-35.3697,11.7008,-70.0230,-19.7144,5.3319,63.3356,-32.9098,131.9117,-134.6413,53.9275,72.3952,84.8284,113.3391
-130.1216,-67.5988,18.4811,-7.6841,-101.4686,124.1086,-68.6539,63.1515,-53.3843,42.7609,-5.2032,45.9634,-101.1800,111.5250,-153.9852,75.6266,83.0264,78.4032,148.9569
53.9535,57.9816,26.4000,25.0958,-147.2941,119.4079,-101.3099,61.5698,-45.2978,44.0853,-6.2718,56.5951,-138.5357,99.3084,-113.0842,68.7801,101.6133,35.4476,174.7615
135.0396,92.5327,22.5827,49.9283,-188.7149,101.4362,-87.3573,50.5690,-26.2416,16.7292,-5.3175,61.5072,-119.5459,113.9949,-80.2003,72.6051,57.1783,18.5545,185.1360
-7.7537,7.2154,13.8629,33.5372,-157.9609,76.8109,-46.1502,47.6064,19.9876,36.9391,28.7012,1.2611,-54.8962,89.3222,-61.5005,85.8099,-43.6350,25.6234,109.6721
-197.5219,-70.9034,10.6866,-5.9256,-78.9432,25.4593,2.3486,28.2814,54.5295,77.3477,72.7190,-95.3817,13.1524,-2.0357,-9.8594,52.3343,-116.0320,3.9214,-0.1492
-225.7576,-61.5910,0.2920,-42.8222,-27.5145,-41.4300,48.7784,-13.4623,45.6888,62.7732,69.9346,-130.4714,43.0952,-91.2089,52.7634,-2.5114,-136.9740,-20.7492,-53.4761
-196.3317,-14.6548,-11.1208,-59.2353,-9.7209,-56.1156,69.1601,-24.4231,33.3724,48.7722,52.1456,-73.7267,35.2242,-81.2255,63.2855,12.7020,-136.1277,9.9981,-61.5655
-264.6819,-3.1007,14.6916,-35.4101,10.3933,-3.1491,76.5190,29.4719,48.5543,102.9828,75.3587,23.6312,13.7134,24.4080,20.4851,87.7875,-102.1598,64.9376,-48.6835
-246.5431,14.6733,77.6656,28.0862,6.5960,25.9906,84.7428,78.6706,45.8687,127.0909,101.3616,98.8191,-12.7964,89.2255,-29.0761,129.5401,-23.0640,80.1594,-19.3660
-0.1442,101.1495,125.8297,91.9866,-62.1245,-3.2996,48.5425,52.0716,-2.1179,54.0187,94.2104,102.7806,-29.4914,32.3044,-50.6601,104.5401,57.0673,72.9157,-14.3414
180.7164,168.5789,133.6622,111.5152,-144.7039,0.8228,-19.3933,8.4789,-42.7485,-1.6408,94.3850,42.7558,-14.7260,-36.3388,-37.6570,43.3069,83.1457,101.8521,-27.2341
82.4554,114.9270,117.6132,78.1815,-166.5117,76.5200,-23.7375,34.6038,-37.2773,24.1210,108.1039,-0.3857,4.9641,-6.2550,-12.8933,-9.3621,42.9242,165.8537,6.5651
-68.9665,20.7009,86.4616,30.9885,-147.0166,155.7797,31.3824,99.1586,-9.8633,57.3818,94.5462,27.5599,-10.5981,67.1329,1.6740,-5.5047,-14.2989,213.3511,64.9948
-110.6012,-5.4114,47.8458,33.0357,-134.8120,209.6936,58.8165,133.5153,20.8969,80.7593,59.9209,87.5360,-37.2146,114.9421,19.0609,52.7838,-14.6673,223.5663,77.1932
-139.4056,-4.0413,21.0846,101.4208,-115.0150,246.3120,64.1498,140.7609,54.0129,119.5261,21.2373,116.7229,-39.6298,154.5672,46.5998,103.1188,46.4206,215.0665,64.8944
-146.9718,-34.8427,2.1637,166.4009,-71.9426,227.9532,90.8374,133.9581,67.1398,126.6632,-28.9800,96.5067,-28.9254,168.8732,58.4328,114.5282,103.0766,192.0922,72.7187
-87.3918,-69.8566,-21.5162,160.1896,-34.8148,149.8403,110.3193,95.9781,50.3480,88.7009,-54.5902,51.0571,-1.5122,119.7089,54.9038,104.4888,120.2868,153.5594,75.6272
-84.5249,-82.9650,-34.9753,111.4572,-16.2937,81.8601,86.2962,40.5849,24.7476,56.0708,-18.6917,19.1297,51.4215,59.3284,61.2260,74.5363,99.7228,126.2316,44.3065
-166.3867,-85.1206,-42.5371,78.2735,-4.0166,49.8376,11.8767,1.6069,-12.2384,18.1217,29.1347,11.4830,78.3824,37.1444,54.9813,31.2445,31.6077,116.5474,-17.0514
-221.3042,-92.0437,-81.8982,55.8718,2.6783,15.5809,-88.8409,-19.4187,-72.2355,-36.7502,35.3600,6.0990,55.5951,19.9628,8.9964,20.3581,-58.4075,88.0666,-84.2426
-276.5923,-126.7661,-138.9072,24.3531,3.8840,-23.9341,-141.0145,-30.5935,-121.0966,-48.5746,15.6339,-4.5975,44.4541,11.4088,-36.8473,60.4586,-102.4941,34.8872,-118.7412
-334.1783,-169.5309,-151.3179,1.6711,-11.7526,-53.2749,-144.9931,-45.9405,-141.6803,-32.0815,-6.7674,-11.3967,52.0554,43.1209,-57.9262,102.9313,-86.0354,-13.7349,-139.2518
-225.4448,-139.9660,-113.6484,-2.8655,-69.6117,-102.5152,-215.1054,-103.0030,-181.1420,-74.6831,-19.2047,-24.4960,10.8427,39.7331,-98.3717,90.0127,-50.3600,-52.8536,-212.8594
-10.7207,-37.2073,-70.7108,-1.8273,-130.1164,-178.4124,-328.0393,-186.2221,-243.6826,-142.7138,-9.5636,-54.9422,-64.0236,-60.9597,-162.3088,12.7058,-9.6584,-59.3128,-294.8002
19.8800,20.9844,-36.6350,17.1199,-110.6770,-203.4417,-321.2852,-203.7156,-257.6709,-138.1036,-6.1175,-85.5166,-102.3854,-143.7775,-190.9498,-75.0395,45.7404,19.0062,-267.4999
-112.9280,-11.7058,-10.1420,68.2000,-38.5239,-122.2691,-225.8710,-132.6245,-212.1493,-81.2634,-34.6404,-93.4608,-114.9730,-106.4998,-178.2882,-96.2191,99.2430,135.5018,-164.2203
-163.2934,-51.0626,-4.4115,110.9079,-21.6557,-0.8481,-200.9343,-58.5352,-173.2884,-37.9161,-52.4331,-72.9902,-130.9572,-38.1024,-167.1209,-40.6695,113.6343,168.8866,-108.0265
-151.8803,-61.5713,-9.8541,89.1119,-62.8687,64.3853,-211.4620,-18.0775,-150.9100,0.9251,-28.3864,-37.1472,-126.9293,-21.4671,-162.5424,20.2376,72.8982,122.7805,-94.0574
-211.1733,-101.6312,-7.8189,12.1265,-76.5706,67.8258,-164.7915,25.8859,-111.6782,49.2463,-0.8329,-13.1874,-109.2955,5.1875,-162.0254,39.3099,12.6362,101.7366,-59.1592
-268.5542,-173.5112,-17.8966,-55.0397,-41.0046,53.1183,-131.3391,53.7002,-85.6810,71.1614,2.4254,-13.4099,-106.9151,69.2960,-183.0216,43.7845,-20.2056,115.6534,-22.5340
-256.1539,-209.3780,-51.9849,-75.0141,12.6276,33.8249,-154.3514,19.9673,-109.1001,42.0434,-10.4408,-19.4037,-88.8448,98.6148,-198.2227,55.8530,-39.6046,110.6947,-8.5365
-242.6140,-200.2072,-73.3114,-69.7534,79.7353,21.6896,-156.1600,-28.4650,-137.1649,-9.0734,-32.5735,-15.3565,-28.7538,82.2125,-160.2289,47.9954,-72.5253,106.0319,7.5598
-230.6284,-193.3556,-63.3184,-63.8641,153.7634,44.3060,-121.8335,-19.0551,-123.8390,-27.2633,-40.6343,-8.4591,29.9333,74.3548,-101.6802,9.8451,-77.0154,134.2069,40.1211
-175.5086,-189.9235,-47.3702,-50.1688,193.0605,92.3893,-93.9610,39.1061,-88.5287,8.2877,-12.8756,-11.7343,44.2046,67.9535,-99.1289,-8.8316,-26.0967,154.8374,94.5455
-119.5763,-156.5948,-28.4790,-38.4653,162.3480,125.2351,-65.1720,103.6132,-47.9616,69.4529,22.9954,-30.6702,6.3372,32.2432,-153.0406,30.8797,17.2760,122.2891,165.5791
-86.5299,-106.9404,3.7405,-67.4380,68.4362,121.0656,-34.0597,150.4862,4.8460,128.4984,33.8480,-56.1079,-69.9209,-8.8250,-183.9648,80.9994,15.4306,48.7373,202.8045
-51.7049,-85.3623,15.8803,-122.3369,-52.1254,76.5764,-18.5199,147.6211,41.2193,160.2599,18.8421,-70.1428,-129.3354,-30.4762,-142.8454,67.5987,14.2926,-17.6495,176.0169
-54.9353,-88.7555,-13.7786,-121.7666,-159.6077,14.1146,-9.7036,83.7216,25.1954,127.4850,-18.6402,-68.9074,-130.5708,-34.9008,-87.3548,10.7788,33.8564,-29.7229,118.9082
-92.0499,-71.3496,-44.0661,-39.1961,-209.5621,-8.1046,-10.1444,17.3295,-13.1675,58.9791,-56.8066,-51.7173,-113.0483,-11.5045,-105.1091,-3.9992,41.6365,11.2964,57.1126
-39.7439,-28.3290,-54.2705,44.7607,-157.1653,33.6580,-11.7375,17.8949,-22.5882,44.4619,-61.1011,-4.0669,-102.7897,41.1436,-164.7475,35.9857,31.3713,48.4850,15.4365
85.1612,-5.9211,-68.5557,61.0317,-35.9889,96.5529,24.1726,81.9413,-17.6069,79.6529,-49.2008,62.9804,-64.2815,97.0749,-159.4097,63.3539,28.7370,50.7414,47.0314
87.2679,-8.1497,-57.0214,44.2065,21.1941,150.4859,48.0949,146.5004,-43.7776,80.1067,-49.9328,106.5914,-25.2305,143.7756,-103.2527,46.0044,58.7492,52.4189,116.0544
-27.8527,18.8442,35.2573,57.5715,-38.3248,190.4800,-26.4339,159.4147,-88.8264,47.2254,-31.8429,118.6138,-55.4421,171.0381,-102.3743,11.4329,125.4824,79.4435,103.5147
-29.6061,82.0311,155.8887,96.7068,-83.2425,180.7561,-123.0481,120.4765,-103.8895,30.3726,13.9066,122.6464,-106.0809,149.3737,-147.1553,-17.2230,178.4294,104.1432,16.7289
112.3278,128.3881,199.7302,122.4996,-3.1537,106.2650,-121.4015,61.2562,-87.1828,13.8626,26.8100,115.4959,-86.4543,87.0403,-144.9030,-32.5574,158.0350,98.0590,-30.3592
196.4684,140.1579,158.9119,131.6059,134.4120,26.2998,-66.0618,3.8787,-70.6305,-10.9795,-12.1682,95.7808,-29.1126,34.7268,-97.1860,-29.5802,92.9516,78.3202,-33.5152
153.7825,134.0889,98.7023,139.0536,233.5184,-9.0046,-23.3359,-34.4444,-52.0384,-10.8485,-50.6810,97.1036,7.3247,10.4526,-55.7765,-24.1274,60.7922,79.8057,-50.9183
85.6516,118.0466,70.6549,145.8057,288.6377,-13.3435,34.0789,-32.9313,-22.1335,2.6344,-45.2331,128.9842,50.5485,6.9961,-18.0405,-37.2832,83.0559,97.7355,-52.3890
61.6929,121.4158,108.9666,160.5407,297.7810,-11.5286,74.6501,-12.7229,-18.8851,-3.8499,16.4150,158.3930,105.4442,33.2736,5.7673,-54.7736,133.1600,86.6961,-23.0031
105.3299,153.9364,198.6272,186.0824,234.6442,-14.5986,18.7904,-27.1401,-67.8263,-28.0491,110.1291,167.7321,115.4509,75.1407,-26.9521,-52.5786,179.9540,32.0364,-40.1753
196.2066,152.2740,257.4814,183.0373,123.4703,-24.6661,-96.9062,-64.8848,-123.2365,-66.9560,178.1558,162.4379,80.3065,90.5511,-93.7517,-46.3841,196.9671,-15.8919,-119.5664
244.1806,121.6247,247.9116,138.1808,30.1253,-26.0405,-175.1090,-65.5316,-146.0777,-102.2460,200.5806,146.2351,48.8767,66.8318,-134.2608,-67.7457,196.1560,-7.9142,-176.3034
245.5666,181.3803,224.9601,126.1374,-6.7646,-16.9945,-187.9043,-45.9618,-162.1591,-99.3090,199.4323,131.4106,22.0392,11.3997,-142.9396,-114.0734,219.6876,38.0011,-181.8785
309.4691,324.2530,220.7657,194.4499,-7.0407,-28.7597,-166.2612,-76.1126,-184.8617,-99.9673,168.4650,133.4708,-21.4391,-67.8537,-137.9886,-160.6281,262.9143,56.8402,-193.9242
409.3382,393.3285,209.1778,266.9687,-25.3475,-69.1700,-153.6427,-142.7755,-181.2997,-158.0030,112.9564,150.2483,-69.3373,-125.7097,-127.2017,-198.6996,278.1069,10.7271,-232.8348
408.6480,360.8117,184.6826,258.2759,-69.2081,-99.2951,-154.2660,-171.7227,-152.2287,-200.7997,79.0157,169.9684,-107.7703,-112.4252,-138.4573,-227.0803,251.4933,-58.2993,-237.9042
334.8046,319.3163,156.9357,185.3453,-77.9893,-80.0940,-126.6142,-142.3886,-136.7961,-164.3468,52.7113,179.4178,-144.4642,-50.4855,-180.9783,-224.6784,212.3234,-71.6547,-152.4861
297.9019,277.9190,122.3382,114.6908,-32.4574,-3.8671,-84.0074,-79.7641,-128.1137,-122.9840,-12.4509,171.5252,-177.5874,2.9505,-203.0448,-176.7297,193.8411,-12.2047,-14.3655
276.4295,230.1983,101.5409,93.5958,19.8697,93.5028,-78.5377,-1.1430,-92.6382,-111.0561,-63.8909,160.3862,-173.8889,27.9069,-167.3863,-121.8826,199.7415,76.5641,77.5663
227.5047,210.6691,108.3382,126.3127,78.2167,151.7959,-71.9178,68.3827,-53.0985,-58.6361,-39.9224,155.4039,-98.7180,29.8605,-101.2437,-112.0245,183.4119,162.5165,88.3372
178.6746,177.9269,95.7831,158.3983,170.3585,155.7051,-17.7922,95.4215,-45.5823,17.3252,2.1154,136.0527,16.2222,20.1540,-40.2410,-123.6483,106.2692,213.2896,62.5709
136.3354,115.9529,33.8334,138.4460,242.6753,133.8182,22.7650,73.7955,-41.6311,26.9010,6.9979,90.3044,79.3876,11.8541,-1.7118,-93.4614,15.4769,182.6884,24.2486
121.2114,128.7435,-32.0995,92.0612,240.8797,85.6469,25.0089,23.6577,-12.0546,-16.7102,5.6212,33.7038,62.8111,2.8714,3.5516,-39.4524,-20.2075,90.0866,-30.4522
166.8123,197.7126,-61.3654,57.1904,217.8641,5.9239,50.3502,-25.8746,7.1906,-38.6778,3.2402,-19.0522,34.3667,-1.2421,-6.7669,-29.9074,-17.1614,8.5532,-77.6353
181.5577,168.9102,-61.5376,14.2921,215.1548,-63.7258,77.9624,-49.5954,-1.1006,-19.1540,-28.2149,-52.6175,24.4158,19.0895,-2.9495,-46.3341,-33.8101,-54.5122,-100.3004
89.6203,78.1762,-49.9347,-44.3312,178.2281,-100.0793,45.8344,-54.2804,6.1873,18.0434,-60.2660,-60.3790,-2.8854,29.3617,-0.4951,-25.4349,-70.5400,-125.6370,-111.3460
30.6625,74.8251,-45.4924,-70.7549,98.4843,-121.9792,-7.8608,-68.4275,22.1451,28.2487,-59.6176,-70.5550,-33.7883,-29.4499,-34.0042,-3.3393,-69.2533,-151.7148,-106.7038
111.5734,122.4386,-48.2855,-26.7595,72.9127,-112.1224,-49.0989,-86.5004,-17.4746,-17.1250,-49.4659,-83.5626,-25.8967,-108.8213,-88.9050,-47.3652,12.4765,-74.4587,-81.7991
206.4599,137.1219,-14.7700,75.3326,142.7208,-45.7195,-97.8224,-74.6620,-87.4275,-73.6365,-43.2944,-41.6319,-12.8305,-103.8024,-121.6962,-104.3386,134.2264,46.4134,-56.0711
218.8136,156.9179,65.5526,178.0694,219.6844,27.9097,-100.1338,-32.8008,-90.8658,-86.9301,-23.1537,46.4284,-37.8730,-27.0099,-116.5768,-89.9011,202.2868,103.5575,-17.7800
210.2556,181.4260,120.4864,207.3850,225.8635,51.6902,-6.1156,4.2632,-32.2014,-65.9653,2.8027,84.1953,-64.9674,31.6596,-83.5164,-41.1786,186.7366,71.8743,50.7923
210.7489,157.7866,92.1375,145.4477,188.1772,37.2037,90.9786,16.3165,7.2439,-29.6512,3.4960,50.9715,-60.9976,52.6191,-38.7684,-30.2136,131.7049,12.7644,91.8595
189.7172,101.3066,-0.5966,36.8736,155.6810,15.8741,108.4931,12.8078,27.3559,7.4498,-30.5766,9.6117,-48.4160,55.0320,-1.5099,-36.4395,49.8992,-10.7803,60.6880
132.3822,10.3729,-111.3752,-91.6877,123.5804,6.1045,96.7056,13.8034,71.8237,8.3956,-77.9726,-29.6911,-27.9295,28.9008,16.3289,-18.7817,-61.9364,-6.0283,24.6334
24.2017,-129.2266,-193.4645,-213.0374,80.3374,22.1267,95.6104,27.1240,106.6824,-14.0691,-102.6817,-76.6460,23.4640,-6.5781,10.8196,1.2670,-145.8397,-17.3428,39.2623
-86.1342,-215.2708,-219.6158,-251.9282,48.7302,51.0282,77.5208,43.7761,78.0177,3.2227,-87.0714,-91.0138,79.7770,2.0304,-18.1234,-1.6546,-168.1066,-31.7150,59.6814
-101.6563,-179.8043,-221.8716,-196.5055,44.0143,72.3509,45.0032,65.2258,9.7843,57.2002,-54.5243,-69.3615,97.1148,51.7997,-47.1754,-8.3492,-193.0257,-10.9053,56.3755
-68.2203,-126.1581,-240.1134,-148.0293,47.7933,94.9412,19.8752,103.5965,-41.4291,102.1155,-37.4399,-60.2780,82.3769,91.5108,-43.2509,6.1071,-256.6707,7.3510,52.5263
-88.6067,-119.3124,-250.1250,-157.8045,30.0850,106.2720,-11.7471,133.0675,-57.5416,132.5792,-32.8705,-68.6506,64.3757,98.7526,-25.4307,34.4368,-294.2406,-25.6023,36.5360
-81.1313,-103.5712,-215.9702,-171.0735,-25.8024,66.7003,-48.2770,109.2653,-51.0408,134.9504,-15.6058,-78.8395,48.3920,74.6147,-41.0840,43.5440,-258.7308,-64.0598,-3.5368
31.3559,-75.0477,-150.8675,-155.3498,-83.7245,7.8019,-37.0434,57.9617,-29.9858,98.6813,12.3050,-96.2920,38.1618,26.5915,-62.9154,20.3057,-188.2508,-58.7314,-13.4790
97.0485,-70.5699,-96.5365,-121.8839,-72.2137,6.3350,48.6877,46.6249,11.7358,80.0268,16.5538,-92.8818,49.9353,-6.3584,-25.1103,-0.7084,-142.6222,-54.1012,38.1776
19.7691,-72.3788,-100.6575,-76.9773,-15.0007,46.2965,129.1307,63.9569,59.4711,90.1157,-5.5931,-51.1390,74.5037,1.1289,37.3294,4.4087,-146.3500,-93.0899,94.8950
-48.7153,-71.4082,-160.4332,-53.4912,-32.5507,49.8403,93.2979,47.5083,58.2739,55.9434,-1.6712,-36.4662,69.9533,5.8540,34.0091,5.2292,-163.9102,-130.6307,99.5986
-7.3652,-74.3074,-175.6834,-72.8613,-129.2999,17.6206,-29.1093,12.1682,-11.1313,1.7276,46.1856,-74.0174,26.2016,-14.7241,-17.7437,-15.6644,-129.6769,-108.6101,53.3088
48.8778,-53.5517,-90.6108,-74.3412,-172.0802,8.0908,-101.9468,17.7033,-83.6644,16.3956,75.4116,-78.6448,-6.0595,1.4996,-32.2198,-31.5442,-51.2990,-47.1717,-23.2181
55.5989,-11.6024,-18.9693,-20.0388,-135.5395,19.2541,-112.3851,39.1400,-113.6573,42.4500,44.4445,-22.2001,3.8612,63.6039,-11.0814,-39.6096,-19.4087,-23.5116,-109.0728
56.2885,9.6510,-59.8794,20.4462,-118.9625,-7.9021,-166.5482,-1.4778,-142.1972,-13.3140,-7.8310,10.2492,10.3671,67.0146,-19.2498,-58.6520,-69.0551,-67.5216,-181.4367
71.2663,2.9996,-135.4959,-2.2504,-127.6705,-88.9467,-259.8220,-101.1392,-195.0205,-89.0609,-38.0707,-23.0219,-27.6859,-15.2210,-67.7535,-72.2049,-132.5315,-111.4165,-232.9551
78.3781,-27.2845,-158.9226,-42.8800,-98.8872,-160.0748,-288.2478,-174.3445,-226.5595,-115.5859,-44.8477,-81.2771,-77.4004,-65.9507,-118.3762,-64.4653,-151.0170,-91.5505,-261.9983
69.6917,-77.7658,-153.8968,-53.8012,-57.6223,-153.2723,-240.3266,-165.4611,-203.6274,-122.1407,-45.7867,-123.8625,-96.2610,-33.2433,-139.0279,-52.3637,-124.0721,-42.3736,-245.5983
40.3757,-101.6179,-132.9522,-25.7637,-35.3930,-79.5201,-172.0244,-101.6593,-142.9600,-98.8618,-68.5952,-115.7989,-89.9059,4.4004,-114.8483,-42.7080,-63.6667,-12.0845,-164.8081
-12.8493,-67.3177,-85.5273,30.1628,8.1193,-9.1540,-92.5679,-46.5995,-72.2803,-23.8577,-117.3045,-46.2413,-70.7401,7.7302,-60.3749,-42.5985,3.1620,17.1434,-48.1540
-43.7643,-0.5146,-63.7253,73.7876,62.2754,12.5496,-12.6170,-28.0325,-17.6269,24.9598,-138.2739,21.8375,-37.3992,1.4194,-14.7134,-76.6765,27.0781,49.2705,48.5910
14.0029,77.2508,-89.4362,78.0355,56.7956,-2.1054,19.6749,-18.7006,9.3540,8.1202,-92.8315,30.6307,-12.6096,-28.0930,-1.7115,-123.2724,-3.1578,39.7219,94.9058
126.2862,135.9596,-94.1567,67.0129,-1.9251,-15.0159,1.0849,3.9114,24.1835,1.4544,-27.6631,11.5853,-30.5254,-86.3518,-20.3427,-132.6664,-46.2480,-9.3121,94.2194
171.8346,135.7776,-61.8128,55.3488,-56.2323,-1.8599,-15.4615,14.1761,32.0624,23.9143,-10.1697,2.4303,-78.6176,-121.3722,-54.2306,-120.2565,-68.4265,-38.1907,64.7303
130.0189,116.0627,-51.4954,34.5034,-100.2261,27.2299,-14.8131,-3.4322,20.8891,25.3395,-47.3112,-11.7860,-107.2719,-113.0310,-72.3294,-112.7801,-54.3290,-27.6788,34.3899
103.3086,124.3076,-54.7235,29.4887,-143.1516,45.5378,-34.0990,-6.4163,10.9206,31.6994,-89.8660,-22.0682,-98.0371,-79.2686,-63.3334,-71.4962,4.0839,-16.2225,25.9736
121.0337,103.3135,-19.7245,49.4066,-163.3759,46.7120,-60.6913,32.9288,34.1332,76.1235,-80.2620,4.6507,-75.2208,-7.7351,-48.0110,15.2523,63.3092,-29.4667,31.5963
124.7506,24.9366,30.3934,31.1803,-147.7336,39.3033,-22.1301,68.3118,70.0052,97.5581,-14.8595,34.7728,-53.0793,76.0085,-19.0202,83.2553,57.0960,-51.5923,31.5784
125.0236,-37.0247,51.9004,-50.1859,-107.4909,18.5775,62.0144,51.6767,78.6591,62.3640,45.9729,12.7622,-29.3915,78.0287,46.4781,84.4009,15.5512,-63.6545,27.1243
158.9207,-49.9941,61.9180,-108.0613,-66.5800,-21.6606,73.1626,-0.1635,66.7397,24.2813,59.0537,-19.9463,-25.1645,-9.4426,98.0112,12.1224,30.0210,-73.2444,17.1342
188.6781,-16.9286,83.4053,-76.0057,-47.2648,-66.9570,18.4921,-48.3642,61.3686,6.7741,36.3994,15.3541,-54.5786,-77.9329,71.7413,-106.9880,90.1327,-82.2406,-14.9490
191.2753,79.1963,100.7167,-14.8349,-31.3644,-91.7298,28.5969,-75.7052,59.2762,-14.3223,-2.4482,80.1452,-74.6223,-76.8414,17.0115,-178.9601,105.5748,-62.8082,-52.9780
191.7507,155.0264,91.7040,-15.5770,13.6071,-79.9623,83.9496,-77.0421,44.5587,-36.8917,-31.9557,64.9836,-48.7075,-47.5385,14.2585,-135.5622,57.5870,-20.1732,-56.2701
176.7725,99.6457,52.6247,-71.6817,49.9285,-55.0987,55.2283,-68.6672,25.4881,-53.2491,-14.6980,-20.5873,-10.8135,-13.4014,40.5132,-48.7798,-8.9638,-28.6789,-42.6219
133.0363,-4.4638,9.3667,-117.2178,13.3602,-90.0132,-21.6928,-96.0285,13.4288,-74.9948,30.0019,-58.9700,5.3168,7.5770,47.8580,-12.8060,-72.2845,-134.6867,-73.5424
88.4037,-29.4118,-1.7927,-143.5285,-69.2684,-219.1602,-38.7560,-175.2218,-9.6240,-93.2349,34.3393,-27.3088,13.3746,-30.2054,57.7717,-23.2156,-121.2527,-272.4397,-141.9771
42.6850,-22.6188,6.2603,-187.1874,-116.6831,-345.1273,-28.1693,-245.4114,-44.7907,-82.9168,-12.8648,-19.1953,10.0067,-112.2449,78.1076,-56.5081,-146.0549,-326.2245,-168.4205
4.1907,-57.0748,-14.4790,-233.4279,-105.4281,-335.6260,-28.6576,-230.3196,-38.4883,-35.0843,-67.5707,-65.2950,-25.6907,-166.9086,61.8318,-96.4887,-158.3790,-248.7540,-118.2704
22.7256,-114.2826,-63.1978,-240.7979,-71.8396,-203.9791,-0.7786,-138.7110,19.4819,36.4487,-103.1504,-111.4771,-72.0669,-187.8842,9.8648,-93.4518,-153.2916,-114.7560,-48.2796
56.1311,-173.8273,-105.2048,-220.7987,-68.8254,-83.1461,10.6760,-61.5555,39.6004,74.2146,-111.5359,-146.7364,-106.3540,-208.3845,-16.1114,-53.2814,-118.1594,-50.4240,-28.5302
15.9009,-189.4483,-146.7309,-191.3613,-132.1216,-49.3592,-64.0164,-62.0144,-14.0376,14.7911,-109.5227,-177.0161,-146.7796,-195.1463,-6.1533,-47.7520,-92.1162,-78.6924,-61.8441
-28.9548,-101.6369,-200.4138,-129.6930,-215.0745,-72.6587,-138.1140,-104.8056,-47.9647,-92.9774,-147.3369,-148.5119,-183.3505,-120.1292,-3.9884,-63.7991,-96.3191,-89.9394,-90.3389
15.7211,21.0518,-227.3546,-39.3814,-209.3382,-90.9168,-111.6395,-115.5730,-16.6213,-122.0206,-219.2005,-53.1454,-165.9756,-47.0255,-0.2301,-35.8321,-70.4724,-7.6133,-66.3136
57.4713,68.0902,-193.3388,38.3816,-92.6483,-59.5620,-39.7546,-73.4043,12.1475,-60.8899,-236.5271,12.1277,-94.1322,-25.6464,54.5263,4.8305,-2.3245,108.4803,-2.1379
12.5447,47.2408,-123.9434,84.6445,35.3959,3.7037,3.8559,-17.1466,18.5841,-18.7400,-166.4247,3.1046,-23.9641,-29.1145,140.5315,2.7846,23.8942,153.4419,50.7352
-32.8091,2.0451,-56.5810,91.3931,91.2850,11.3001,31.2464,4.5508,45.0268,-33.5198,-79.5635,-9.5838,6.3037,-53.1131,186.3754,-18.6264,-8.1310,89.6611,53.6181
-21.7099,-26.5710,2.5726,66.6703,71.6546,-70.2076,49.6391,-31.4552,69.7274,-48.5279,-31.7205,10.4753,-3.6265,-114.4686,172.9179,-37.6101,-22.3559,-33.2729,4.2847
2.1223,34.7719,49.2051,66.5816,-3.9356,-153.9956,33.7125,-105.3113,55.4733,-51.0368,-24.4974,19.2353,-36.6354,-159.1493,128.7397,-60.6496,-6.1250,-136.1396,-69.6871
31.3379,141.7681,63.2429,94.3018,-100.4912,-182.7697,-6.4033,-165.2868,37.5393,-72.8788,-56.1814,-0.0342,-66.2288,-136.5896,80.0986,-66.5391,-10.4269,-194.5794,-129.1528
58.3134,148.7351,44.0407,58.0305,-157.8771,-206.8151,-19.5364,-182.1364,42.9483,-99.6775,-104.1635,-19.1452,-67.1532,-97.8333,64.5527,-51.1108,-46.1823,-234.3728,-158.1078
32.4748,81.0748,23.2534,-42.5813,-157.2950,-250.2181,11.0384,-185.5233,43.8514,-102.6468,-114.4219,-24.3972,-30.6125,-96.1606,100.9001,-47.4293,-101.0362,-266.8347,-194.0424
-10.7223,61.4032,15.4765,-88.4158,-139.9601,-283.1104,23.4756,-221.4218,27.5337,-103.1371,-74.8672,-14.9121,19.8990,-105.4836,134.7362,-56.7219,-166.1971,-309.9556,-285.9114
15.5467,53.7400,-7.2002,-68.9441,-132.0314,-313.0536,-27.2428,-277.5269,5.3993,-121.6314,-40.2983,5.2526,33.7630,-94.3796,115.1275,-63.9094,-204.0648,-382.7197,-400.3636
76.8660,11.1851,-56.1812,-73.8885,-134.2940,-316.9578,-75.6519,-280.6679,-13.4089,-120.8166,-59.3981,10.3482,-11.0538,-60.4864,67.0006,-75.1985,-184.3229,-408.1094,-437.1507
78.6632,3.8451,-94.8458,-92.8001,-168.0683,-211.1607,-61.5900,-190.1435,-7.3590,-62.1966,-121.7629,-21.7387,-78.9995,-15.4315,14.9134,-77.6059,-134.1143,-298.7846,-373.4675
19.5040,4.9193,-110.0736,-80.1946,-233.5240,-37.0351,-34.3042,-62.6825,28.3467,25.8778,-180.1331,-74.4814,-129.7350,-5.4811,-36.0405,-59.0614,-93.8083,-137.8221,-295.4561
-43.2890,-75.4397,-140.6902,-74.1150,-266.2014,54.9904,-28.2574,22.7618,56.8429,89.3195,-199.7986,-104.7242,-146.6348,-47.6556,-34.2007,-46.3133,-73.5937,-45.5289,-254.3048
-78.2934,-155.5750,-196.7626,-78.4574,-217.6632,58.0624,-6.9926,60.8607,63.1270,118.5026,-185.7661,-86.8976,-117.7453,-67.4177,37.4446,-37.2583,-71.8901,16.7720,-217.4957
-98.5833,-141.7808,-239.3401,-49.4652,-117.1050,66.4643,29.6878,79.1293,76.7313,128.4453,-169.0013,-59.6790,-58.8871,-33.9057,89.1541,0.4781,-87.6695,100.1188,-171.7027
-152.8934,-126.1147,-250.3843,-31.2394,-9.3014,71.5842,69.9323,76.8781,109.5628,122.8360,-173.9723,-90.9214,-17.6317,-28.0295,73.5004,39.8327,-111.8910,153.5371,-138.6603
-238.1099,-173.8452,-234.6114,-66.3380,86.2074,58.7613,139.2631,71.6414,142.0157,127.9234,-198.6190,-154.3598,-10.4507,-66.2881,50.3056,36.2129,-121.1894,174.5201,-114.0232
