Fp1,Fp2,F3,F4,C3,C4,P3,P4,O1,O2,F7,F8,T7,T8,P7,P8,Fz,Cz,Pz
168.9628,79.9217,172.8855,51.2067,124.9221,45.2749,99.7523,27.8775,108.9560,7.8524,171.3343,4.2601,145.3902,62.6042,148.4699,73.4651,-2.4379,-24.2061,118.9679
444.8252,290.0271,284.1482,242.7864,32.7181,81.1655,-200.8920,-322.5071,-91.4384,-213.0324,76.6376,211.4116,60.1580,137.9398,-104.3554,-137.8112,148.7674,-39.4715,-268.6427
485.3812,421.0342,244.1087,383.6221,-60.1859,55.1621,-388.4041,-489.5500,-225.0594,-224.5320,-18.9129,406.2592,-17.0014,131.5770,-281.0587,-256.9770,280.2964,15.1058,-492.5152
418.9932,534.3566,222.1085,483.8045,6.7499,44.5596,-255.3497,-373.6982,-153.6621,-42.5470,21.5770,479.1191,44.4360,98.6015,-211.5050,-167.9780,284.1259,67.8786,-413.5459
448.5509,634.6704,262.3009,517.3571,93.0665,49.2346,-160.3415,-314.5515,-109.4232,-24.3244,70.6858,473.5762,119.1611,180.6519,-139.7249,-83.1308,188.0814,23.1885,-380.6396
468.8154,592.3433,219.4873,403.4722,69.4194,-2.2087,-271.9783,-400.9846,-210.9543,-175.1374,14.5701,445.5690,88.2464,278.8680,-202.4227,-149.6534,90.3679,-66.9598,-448.9583
380.4015,467.2203,114.2912,247.5712,17.3414,-71.5635,-311.6853,-418.8386,-236.3119,-224.8679,-48.0286,390.6709,31.1469,209.4876,-237.4574,-255.0631,27.1078,-104.3709,-397.2234
304.9620,431.0418,81.4955,217.4450,-18.5864,-87.0487,-205.8636,-338.6302,-119.8017,-197.4632,-28.4806,327.6861,22.8321,88.4051,-179.5074,-273.5690,0.0865,-97.3933,-281.7649
311.5695,421.5634,93.5598,231.5054,-66.0933,-87.7739,-150.0039,-276.5610,-78.2116,-250.7028,28.1321,291.4521,30.3061,120.2065,-136.0549,-212.8281,10.0833,-103.2810,-233.7194
313.1603,314.2285,58.7859,151.8175,-89.9891,-99.3705,-153.3033,-233.6542,-140.9975,-274.2968,41.1280,279.7677,13.1807,207.1559,-157.9637,-154.3702,10.3634,-117.0006,-181.8927
264.3235,216.2081,0.0012,75.9385,-83.7587,-66.0728,-112.8729,-170.3839,-136.7006,-136.4758,-26.9753,285.9213,-33.6397,168.1753,-211.2721,-154.7473,-37.6289,-100.7008,-115.3781
211.6413,228.4022,-22.7120,96.0240,-96.3440,-20.0761,-57.4723,-101.3370,-82.9076,5.3369,-104.9988,288.1345,-57.7469,72.1743,-229.4693,-153.0616,-87.5031,-83.8256,-103.2277
180.6759,209.2025,-4.5057,79.7618,-108.2155,-69.4971,-37.2708,-67.1033,-90.4025,-29.2597,-77.5527,227.7378,13.5871,53.5984,-167.3811,-77.0894,-94.0403,-138.7704,-94.0481
153.7432,49.2194,23.9253,-44.0971,-83.0415,-181.7547,-40.2351,-106.1018,-100.4837,-139.7460,15.0805,123.6532,116.0791,82.3516,-102.7550,-31.5254,-70.5744,-230.7241,-57.6532
135.7064,-93.2399,37.8395,-116.8867,-49.1807,-220.6950,-57.7330,-173.5638,-81.6078,-147.8290,43.4472,91.5828,101.2246,85.3321,-137.0582,-124.1330,-16.0685,-225.7637,-63.1421
142.2810,-42.9335,48.0834,-37.2693,-27.5555,-166.2728,-95.3033,-177.6008,-140.8439,-99.8019,13.6595,145.9540,2.3056,65.6124,-210.4073,-222.9566,65.1978,-103.1481,-114.6082
127.0948,114.7662,72.0860,81.7737,-7.0919,-92.7020,-153.6744,-153.8663,-235.1060,-122.9310,-20.0445,183.5773,-15.9569,56.7053,-223.5336,-196.3504,112.9932,22.8833,-175.5750
53.1302,193.4028,92.9565,130.4082,30.1437,-9.8272,-195.5082,-183.3097,-201.0384,-157.4429,-69.8963,196.8675,36.2813,81.0606,-227.6904,-161.2181,111.9059,110.7080,-234.1676
20.1597,192.0441,98.6836,144.3529,101.7505,103.8181,-178.4852,-203.8408,-120.4431,-115.0004,-74.1815,247.7665,10.4350,118.2281,-301.8600,-220.1230,118.0784,196.2673,-244.8256
121.8015,225.7757,98.9675,185.4530,157.3472,197.0710,-169.8931,-149.2611,-185.4646,-94.3998,25.1051,285.0804,-85.2224,119.0583,-377.7039,-255.0424,124.5441,244.2128,-208.7884
241.1046,284.5258,84.8669,227.6615,121.5950,204.9846,-236.9873,-82.5386,-292.6115,-153.4108,66.9483,245.1328,-101.0417,101.7494,-340.3993,-168.4226,80.6487,216.1436,-200.6411
232.3563,277.1233,63.6943,210.2608,56.8420,150.1793,-266.6418,-43.0103,-246.3949,-156.1976,-61.2630,203.9124,-19.8338,121.3037,-226.0311,-42.8963,29.3931,170.2061,-201.2392
172.4250,226.5584,81.3904,148.2655,63.2931,104.1622,-179.4531,-12.9460,-162.0619,-73.0686,-145.0704,229.9364,10.4435,136.6031,-187.1624,9.1959,43.4667,146.6695,-158.6518
198.6985,226.8759,131.6252,127.9214,83.6764,91.1150,-112.8913,-25.3599,-216.4946,-64.4188,-20.6401,269.8504,-72.5007,87.2570,-262.6315,-41.2225,100.5735,120.4712,-142.4598
281.4259,281.5534,159.7347,183.3010,54.9727,86.5846,-142.5180,-86.1301,-284.2296,-149.3674,131.4107,286.9759,-136.8811,43.5416,-323.3232,-138.0612,142.9715,100.4678,-181.4087
314.7625,312.4330,165.8057,240.7669,41.4826,77.5405,-172.2840,-124.7352,-217.0185,-174.8015,144.5569,307.9250,-75.1081,84.4902,-279.5359,-173.5855,141.4825,98.6089,-192.0332
260.5518,270.5615,155.8440,218.7464,44.0918,67.0201,-176.3582,-122.4074,-135.7212,-112.6388,89.2678,315.0075,16.8968,137.6469,-180.5618,-120.7404,67.9557,70.2124,-179.5331
156.5866,187.1821,75.7157,123.3593,-12.8499,42.5528,-165.6986,-110.2118,-128.2714,-64.4911,36.1147,266.9435,19.5512,102.8222,-115.6255,-82.5824,-63.4102,15.8146,-189.5057
80.0492,130.1476,-66.6501,17.2956,-75.6296,2.7630,-70.1933,-76.6259,-69.3166,-45.8006,-13.7530,178.9738,7.0352,16.0230,-137.2875,-100.0681,-161.8498,10.3858,-156.6062
60.7883,108.6624,-154.7561,-47.5726,-50.2276,-0.4031,70.2763,-12.5123,46.5802,11.3859,-30.5790,89.5658,88.9916,-12.1092,-180.5678,-74.9575,-163.6928,79.9714,-67.5003
46.4457,75.9843,-131.7397,-47.3788,12.7986,79.5349,113.8062,52.9922,49.8465,95.6035,-42.8288,31.7389,167.6553,51.0043,-99.1996,4.3798,-102.0741,177.5285,-24.8828
19.9016,46.1913,-71.9133,9.0121,38.9527,191.5917,79.0319,90.4176,-37.0408,95.9859,-116.1330,37.3140,91.0780,114.3628,31.1098,4.2785,-38.1759,252.8421,-35.6463
25.4337,78.7842,-53.3061,71.7241,55.5081,242.4569,74.0292,81.4257,-35.8989,-7.4763,-180.0238,78.5845,-56.7504,87.9619,-40.9072,-81.5392,-2.0392,279.3235,-17.9125
40.3668,131.1757,-74.0707,90.6692,100.4936,238.2062,103.9935,66.4882,37.7486,-52.3991,-155.6937,75.2934,-73.4993,36.8199,-214.6887,-87.2047,7.6870,285.2547,30.9492
6.3517,101.5400,-92.3066,87.6817,165.2522,267.2893,141.7845,129.0128,67.2435,46.5926,-134.0046,22.9845,34.6977,84.2650,-162.1743,11.6540,25.9184,334.1701,75.7582
-35.9830,15.0272,-84.3337,134.5573,227.3097,342.8661,164.9864,226.8451,81.7915,134.3776,-167.3930,-0.4720,91.3915,170.4878,-0.9702,48.2996,87.4792,404.1757,110.7402
-21.7937,-11.5896,-66.7230,229.0949,258.3202,378.6708,137.7265,231.0905,116.2823,126.6968,-157.4364,22.3429,49.5834,127.9911,-27.9485,-13.2750,168.8208,401.6650,119.6795
15.6730,37.0846,-64.5947,279.2373,237.3172,329.0840,108.3638,176.5698,113.1193,153.0341,-102.5006,33.4604,25.4900,-14.6301,-52.2687,-25.0559,213.5719,324.4498,96.4670
20.0184,77.8401,-67.2646,253.3552,167.5814,237.6853,134.8197,180.0833,84.5539,208.4521,-99.4503,18.2003,76.6055,-70.1646,129.3338,47.1956,211.5771,246.8560,57.5758
4.5616,87.3097,-49.5533,226.5287,77.3516,144.3100,144.8281,190.4338,75.8449,141.8396,-97.6324,13.8753,131.3359,-10.3831,194.4212,75.4960,203.4224,175.8647,10.0502
11.4635,111.8547,-28.2508,226.8509,14.0609,50.7119,110.6928,129.8875,53.5800,42.8861,-20.1377,18.7616,121.1097,14.6360,-16.0242,17.5974,209.0410,84.0833,-14.9211
42.6660,146.0918,-56.8201,182.4708,-17.7819,-28.4634,126.6295,77.6222,38.1589,97.4619,27.1030,-3.0052,72.8867,-45.7232,-111.5038,-32.6810,194.0282,3.8577,4.9894
57.2695,143.4367,-143.4412,79.1525,-71.8986,-62.9836,168.7518,85.2325,82.5091,196.1672,-17.1213,-35.9845,63.9495,-69.5013,63.1644,-12.5264,136.0094,-24.2656,5.3751
39.4062,120.6492,-205.5922,18.8325,-136.7825,-45.0806,129.9750,87.5499,87.8569,176.1956,-18.7012,-26.5946,102.6749,12.8742,155.1715,44.1896,90.5189,-7.3412,-45.8458
31.3797,110.1288,-175.1285,60.0715,-138.2833,2.3632,61.5665,81.1840,-1.3581,133.3574,62.8214,9.4348,105.7799,87.8255,6.9350,68.0663,119.4321,26.2076,-62.0038
45.6232,74.7004,-117.6043,124.3014,-106.1790,35.7010,59.9569,120.0325,-17.7761,152.1312,86.2020,-7.2674,56.3801,38.7882,-126.8892,38.0626,177.4861,41.0119,-14.4497
28.1443,8.3463,-130.2735,116.1390,-117.0166,25.9667,92.1040,180.4914,72.0957,140.4381,20.2351,-71.3458,59.4611,-50.5236,-69.6736,17.5778,174.0727,25.4118,16.6594
-20.9893,-13.9071,-174.6114,52.8497,-118.9835,9.6472,104.2943,218.3959,50.1560,83.7940,-19.3594,-71.3885,129.0024,-21.0188,47.7204,51.9249,123.9334,26.2191,23.4933
-30.9757,7.5010,-167.5565,15.8523,-52.7716,46.4588,90.5669,235.4219,-91.7435,72.2892,-12.7759,17.7904,127.1152,98.2932,22.2661,76.0022,108.9708,71.1038,58.0640
-1.4853,1.2305,-148.3730,24.0620,5.2514,115.1700,58.8384,226.4351,-120.4171,102.6519,-31.3526,69.5447,32.2624,141.8695,-123.3308,40.5656,130.3853,108.9324,91.2612
9.4468,4.0156,-177.5976,37.6512,5.2596,147.1459,44.8046,194.4075,-31.2683,124.2540,-65.8083,19.3115,-7.6395,79.1469,-166.2808,11.2839,138.9037,119.1595,76.2335
7.4921,67.6841,-195.2822,61.0627,12.2868,155.2232,41.8685,172.5110,-12.4358,134.4868,-69.4552,-21.5262,30.7882,33.1341,-61.7006,24.6778,153.8990,164.4206,31.6813
19.2676,97.1104,-137.9528,127.6796,57.4314,204.7287,-12.7982,153.2896,-81.7407,106.7379,-74.2163,40.6273,16.0532,57.6821,-22.0454,22.2356,215.0299,251.8902,-12.9996
26.6375,47.6388,-56.4022,194.1359,105.2703,271.8969,-69.7141,97.2870,-151.9352,4.8109,-113.3430,135.9481,-55.7050,72.1211,-96.5776,-15.9142,277.8965,287.0956,-40.1086
38.4265,48.9216,-9.2257,187.5108,131.6905,266.4849,-29.3229,14.0128,-198.7365,-113.3030,-119.6665,162.8323,-59.4610,18.7375,-93.6017,-56.9869,276.8794,230.4832,-56.0147
93.5233,140.3051,26.9790,144.5323,116.2028,188.8862,22.9816,-57.7746,-198.5058,-145.0089,-35.4757,127.6964,5.3271,-33.6938,13.1596,-93.3494,234.5056,165.1870,-115.0955
166.3084,195.2777,84.1931,156.5055,60.3956,134.7151,-40.2867,-98.5328,-169.2541,-86.0343,42.5112,93.3918,14.9566,2.4145,52.1876,-106.9475,217.7387,158.6841,-213.9576
195.5938,172.6360,147.1339,199.8636,19.0295,134.3720,-143.4734,-103.3588,-196.7624,-49.5972,-8.9138,84.4755,-62.3880,72.2687,-8.5160,-89.3863,231.7719,159.5084,-244.2406
176.7058,132.7738,188.6944,163.7120,10.2385,111.2705,-164.3471,-95.1730,-245.9802,-108.6815,-120.2356,73.0267,-123.2471,40.7803,-42.2106,-109.0602,217.7981,89.4149,-180.3660
138.9252,79.1237,193.0337,25.7455,-18.0807,28.4145,-123.8449,-106.2785,-204.2516,-164.4447,-142.1083,23.8151,-92.3519,-77.3184,14.3076,-175.2741,137.4503,-16.6388,-136.0031
96.6732,10.5670,153.1281,-113.0119,-75.1688,-42.5152,-89.1074,-113.1800,-121.3141,-106.5988,-100.4208,-41.8591,-30.9093,-121.6791,94.6138,-172.6268,28.1134,-51.3830,-147.7602
58.5706,-35.6158,74.8224,-166.2572,-107.9174,-48.4206,-76.1076,-82.1485,-94.4377,-36.3542,-107.1021,-63.0018,-34.1457,-58.1079,98.1458,-99.5801,-43.6677,-7.8461,-134.9151
24.5211,-69.8939,-27.5328,-154.2005,-98.2756,-36.5126,-66.8515,-55.4292,-83.2000,-84.7078,-136.3945,-48.1313,-69.8340,-35.5135,43.3470,-93.4900,-69.8930,18.4609,-94.4447
-16.1993,-96.3566,-123.8230,-136.3707,-72.3070,-52.3044,-47.5633,-77.6536,-68.9757,-143.1790,-116.9620,-68.3790,-37.0032,-121.2390,56.4980,-132.8638,-88.1777,11.0101,-99.7855
-53.8668,-65.8297,-155.6106,-117.5584,-39.4869,-66.0253,-41.6167,-112.4212,-94.4354,-82.2847,-90.5836,-107.5008,38.5553,-187.5832,128.3830,-88.3913,-89.9828,42.4280,-133.0215
-65.5279,-12.9466,-92.2312,-76.1900,11.9859,-46.9533,-46.1688,-122.3392,-86.4105,-18.0374,-102.2867,-69.7858,41.8527,-125.7346,112.2544,-27.0956,-35.0382,98.0052,-114.2939
-63.4477,-29.6912,-6.9525,-38.0881,66.6304,-18.0301,0.5598,-124.9833,2.4086,-70.1576,-108.8047,31.0337,-18.5583,-23.2294,25.5549,-71.6550,35.6873,86.3488,-57.3453
-86.3084,-78.0540,-9.2443,-47.2920,67.2837,-14.3149,63.3211,-128.0853,21.1462,-143.3571,-91.2096,67.3980,-30.0112,-37.4305,16.9433,-130.7585,25.0549,12.4124,-47.5768
-129.2631,-72.9323,-82.7291,-92.3653,2.2381,-43.0614,26.0639,-117.8247,-93.5536,-151.6498,-90.1788,4.7186,13.6375,-147.6469,62.4122,-101.5826,-51.5208,-37.0553,-89.5287
-131.8178,-48.9894,-93.6692,-114.0423,-40.9299,-73.9162,-58.9760,-105.5495,-172.2917,-145.3552,-108.2312,-53.7197,5.8543,-174.7300,36.5597,-66.4632,-60.3247,-32.5496,-101.2749
-68.2488,-39.4623,8.1375,-66.4215,-11.9099,-61.6239,-60.1165,-106.9869,-141.0349,-142.0526,-105.0329,-42.5611,-73.8268,-88.8387,-32.5105,-81.7681,32.3365,-5.7110,-67.1366
-9.2076,0.2034,101.7299,25.9838,5.4151,-19.9511,-35.8544,-114.1793,-103.7711,-119.1467,-78.6390,-22.9018,-115.3811,-80.2026,-36.8729,-89.6539,85.3695,6.2831,-65.2288
-32.0904,29.2789,67.1347,59.9671,-47.5169,-28.3066,-70.2083,-119.5113,-84.0761,-115.5634,-73.2689,-66.4638,-61.0929,-203.4615,26.0402,-86.6796,17.2389,-26.1656,-105.0093
-101.0316,-45.1745,-36.0091,-30.7839,-95.9841,-105.9612,-70.1748,-118.9754,-47.0894,-136.4048,-105.9974,-138.2556,-4.7543,-251.0255,64.9799,-90.9320,-50.0494,-86.6342,-91.3554
-123.0332,-153.7482,-62.5667,-155.2468,-84.2197,-163.4213,9.8447,-105.6436,-34.1765,-120.8811,-132.8333,-161.3451,-39.5389,-140.8063,11.6786,-55.4093,-8.1691,-110.3569,-9.9633
-93.6721,-155.0732,-6.7459,-168.9602,-58.2621,-131.3799,62.5038,-86.5506,-39.5568,-89.8220,-122.0354,-147.3694,-101.8721,-71.6957,-75.9199,-7.7785,60.1918,-65.3748,30.6280
-84.3646,-73.4064,15.3037,-69.7908,-46.5847,-41.3899,49.1295,-62.9588,-1.7522,-102.2064,-110.2259,-151.3852,-75.1595,-143.2941,-72.0878,-34.8913,59.7119,23.5153,-1.0555
-111.0289,-23.4659,-14.5592,29.5582,-22.4194,43.0828,33.1703,-14.4445,33.4178,-101.0838,-115.4199,-143.7156,17.7746,-193.9087,8.9785,-69.6267,42.7435,113.9341,-9.4544
-114.2590,-24.1316,-7.5824,67.2634,16.7042,85.5711,47.1698,44.8806,13.4836,-32.9765,-84.7029,-79.2375,57.1712,-126.8746,36.0063,-7.4150,73.8544,152.5813,45.0960
-62.9902,-37.7324,31.5221,62.0022,40.8064,73.3438,85.0148,60.6299,3.3232,8.6852,-20.2060,-22.2682,13.8858,-64.6663,-0.2718,48.7699,117.4899,117.2814,91.3149
-3.9059,-45.9170,16.4953,45.8845,30.8029,22.3683,101.4483,28.4040,14.8979,-40.8026,-15.8239,-34.8587,-37.8241,-104.5705,-14.6511,-13.8017,125.7993,66.7981,74.6855
7.8039,-20.4338,-32.8881,46.5815,-6.3518,-25.6966,43.3442,-1.7671,-20.2377,-83.0087,-87.8426,-55.8269,-63.4508,-165.3315,-22.9086,-78.4816,100.3472,57.3057,4.8201
-13.2177,43.7661,-26.8825,82.8045,-37.9020,-36.0860,-36.8534,-18.1125,-74.3816,-50.8174,-135.5183,-28.6674,-94.7264,-136.5262,-70.9406,-39.0494,77.7110,64.7552,-85.4880
-7.2201,88.3158,34.7931,137.7949,-33.3981,-9.7346,-63.7608,-51.7748,-102.5940,-33.7735,-105.7350,3.8424,-120.2564,-51.3214,-100.6208,-3.6349,112.0477,52.1843,-148.6287
35.0324,80.6429,93.5510,162.3037,-7.3907,6.5442,-91.3605,-111.6244,-142.6358,-90.9413,-44.8061,6.0214,-80.1501,-34.3493,-59.9875,-58.4713,187.2550,5.8833,-157.5518
57.4378,49.6981,115.5271,121.3522,-5.1179,-37.8977,-159.0995,-170.1128,-160.6452,-132.9086,0.9147,-2.8184,3.3786,-99.3950,-9.2313,-109.3763,190.4917,-82.7658,-142.7657
33.2712,0.4261,78.9046,37.8816,-44.4966,-119.7233,-171.3532,-181.6846,-104.0733,-99.7201,22.6511,-9.4779,15.0292,-125.1531,-28.5216,-74.2006,88.9322,-167.2944,-124.9238
-9.9301,-72.4734,-6.2432,-28.3940,-99.9953,-164.5370,-93.8720,-127.8123,-79.6786,-72.5002,17.9517,-17.6368,-72.0074,-83.3408,-102.3358,-6.2182,-5.8817,-182.1199,-83.0485
-70.0413,-122.1778,-82.6240,-49.1192,-139.0930,-154.1278,-27.6924,-62.7215,-123.8448,-88.9328,-10.7154,-39.8429,-118.5672,-92.3712,-128.5289,23.2311,-33.0479,-158.8906,-36.1930
-155.7639,-127.8345,-118.8221,-40.8633,-146.0520,-122.4000,-13.5822,-42.5816,-75.1425,-51.1538,-40.6957,-78.9594,-28.2158,-154.8618,-58.3783,26.5575,-39.0855,-142.7679,-25.8413
-204.5638,-132.3487,-119.6618,-22.6471,-110.9340,-74.2667,7.2890,-37.0782,53.8605,48.3707,-43.9314,-76.1711,74.2031,-101.8646,11.1295,61.7777,-30.1089,-88.1220,-21.4718
-164.0094,-137.9378,-82.5798,-5.4388,-42.0493,-6.9116,50.7859,-11.4591,59.5549,60.6437,-29.1442,10.6414,33.6742,89.3261,-6.0417,129.2161,16.7175,1.8358,10.4984
-111.1684,-115.6761,-40.6369,4.5916,10.9675,46.0271,62.6125,-2.6897,-32.4025,-33.7418,-32.8172,82.0768,-63.0090,192.7420,-30.8913,149.4762,56.6659,47.6481,18.4211
-130.4215,-94.2154,-46.4467,14.8961,21.1897,61.2250,7.6094,-25.5911,-66.8128,-78.3609,-38.5148,37.4338,-31.4546,73.0359,16.7723,99.5938,50.8905,70.6376,-29.6488
-168.2106,-93.3667,-70.3089,14.3632,37.8421,48.8844,-66.7615,-43.3179,-74.5795,-41.4673,-0.1679,-45.5407,76.3266,-98.8205,53.1412,81.3781,21.9092,117.8327,-78.2241
-162.0831,-84.4091,-64.2965,-27.0725,84.7550,27.7789,-71.1259,-50.6633,-68.8062,-6.8900,32.8943,-59.5108,69.7129,-99.0990,-5.4884,150.4515,-12.4856,122.5848,-80.1425
-158.9794,-86.9360,-62.2930,-76.6468,109.5245,38.3760,7.4849,-42.9291,36.5044,66.4744,-14.2700,-33.4244,-24.0990,27.9424,-80.4856,212.2293,-35.4108,94.6956,-38.3807
-179.1102,-121.6915,-78.3385,-68.1164,104.7844,101.8921,77.5841,4.6041,131.5301,191.3630,-70.1499,-26.6270,-32.4774,55.1466,-62.7166,185.5458,-19.3366,144.6898,2.4782
-152.2011,-114.7785,-72.6946,-36.1239,106.9637,137.9089,45.6636,28.1159,63.0807,183.9906,-34.4538,-46.7387,26.2501,-72.9892,20.1878,117.5390,1.5730,191.1326,-44.3911
-76.5130,-57.1490,-78.9621,-64.2876,78.3682,68.9030,-91.2024,-48.3563,-48.7275,10.3811,21.7479,-90.7483,14.4352,-163.7368,47.9516,85.2474,-33.3004,87.3807,-172.1988
-53.2762,-84.1475,-142.7985,-130.6892,-2.9302,-20.2233,-219.4994,-122.4633,-75.2779,-62.7716,-3.4375,-119.8779,-43.8546,-101.6452,-25.7837,105.9558,-97.0049,-31.3457,-218.7658
-111.1928,-205.3339,-183.9867,-158.4833,-51.4166,-13.2310,-209.0873,-75.8962,-81.2586,59.8858,-54.1541,-80.6832,-47.2908,-27.2750,-102.2783,131.5152,-115.8021,-8.7164,-137.0555
-154.6004,-223.7452,-134.8122,-134.1810,-50.1923,31.8292,-109.9974,-16.3793,-80.2878,134.6048,-55.5243,-8.3195,-25.3241,-71.8616,-83.2112,92.0726,-75.9009,4.1318,-105.3591
-119.9602,-74.5964,-77.3582,-82.8007,-91.7408,3.3371,-91.5324,-63.6473,-42.4758,50.4330,-56.2715,32.0192,-45.8930,-137.3377,-22.9994,15.0042,-27.5296,-109.4728,-183.3969
-74.3931,42.2047,-96.0489,-43.5230,-158.6168,-60.9949,-134.1236,-106.4599,-29.9044,-11.6823,-104.4243,50.9476,-77.8278,-91.8089,-15.7427,12.7993,-39.7768,-184.8847,-202.3727
-114.6620,-25.9802,-159.7880,-63.9629,-151.4981,-67.6031,-80.6139,-34.4374,-22.1638,36.3970,-148.9501,59.2289,-65.8315,3.6285,-33.0288,62.9003,-123.0118,-132.1010,-113.3699
-219.6019,-172.3828,-201.4145,-115.0566,-97.2100,-34.3079,26.8955,49.2407,44.3031,79.8896,-143.3250,28.8728,-22.1481,8.7916,-17.1479,29.1947,-182.0665,-87.1564,-52.3369
-273.9770,-216.2949,-197.6169,-120.3303,-76.9667,-30.9765,37.7988,37.9018,71.4867,75.1819,-136.1105,-19.0913,-13.3746,-73.9494,-0.7821,-38.2269,-154.4054,-120.8827,-49.1671
-228.2370,-155.7959,-186.9445,-106.2491,-89.0793,-55.4430,2.2956,-1.3139,47.2504,85.9846,-189.7774,-46.3408,-81.7705,-108.5543,-14.8106,25.7344,-125.8075,-158.0662,-22.9331
-146.5698,-128.2294,-215.7202,-144.9339,-111.1953,-56.3717,41.2456,27.0266,133.8033,95.4775,-254.1649,-75.5216,-154.3417,-31.9476,-25.0448,143.8683,-166.5948,-141.9420,25.2195
-102.9653,-172.9456,-238.7595,-196.3108,-122.4933,-26.8584,99.3287,100.7799,232.2247,53.5445,-224.8430,-124.6284,-125.8438,37.1701,-25.4755,121.7207,-200.2509,-83.6543,50.6269
-105.3549,-183.8942,-180.1728,-183.8941,-89.5812,-16.0740,73.8821,135.5795,95.9342,19.9389,-129.7389,-162.8327,-57.3396,-18.3205,-47.9599,16.2480,-154.4476,-40.8869,53.9739
-105.4750,-114.8837,-79.9293,-111.9737,-52.1487,-42.9373,-8.1296,98.9567,-111.3386,33.2610,-103.3387,-165.8192,-85.7269,-100.2078,-68.6192,-18.1651,-63.5998,-61.0375,41.2745
-58.3428,-56.7901,-12.5015,-9.9074,-67.1380,-49.0802,-57.7012,43.0237,-91.0555,-8.6488,-158.7462,-127.0921,-159.0752,-53.4261,-38.4483,-25.6782,37.4064,-84.9193,30.3202
10.7203,-67.0975,56.9304,90.5195,-67.5656,8.7480,-38.6822,34.2944,32.1425,-127.5464,-178.1746,-64.3644,-142.6771,47.1296,3.7327,-70.6797,156.3819,-32.2971,63.2692
45.5757,-87.9020,168.9021,131.2093,3.6875,76.7058,3.1381,72.8573,29.1717,-158.9155,-133.2124,-37.8829,-92.9339,34.0917,-32.1017,-70.0402,272.6096,35.8098,126.6542
55.5675,-69.1500,259.5431,110.8543,52.8771,94.6466,16.4233,117.8601,-9.6957,-43.1066,-110.2671,-63.2319,-118.3183,-32.7241,-125.8710,4.1201,330.5193,27.5831,161.9852
60.3157,-46.3509,266.2197,94.3196,22.5807,93.1870,49.4880,158.9982,52.8087,81.6768,-129.7993,-65.8767,-131.7025,10.0525,-137.4037,66.0336,302.9631,-10.1645,171.0422
20.5566,-58.4940,214.7290,89.3362,-1.7430,112.6203,154.4265,200.2231,139.2475,148.4031,-116.3319,-13.6110,-32.7348,109.9458,-20.3941,85.2149,236.4176,-7.8041,193.8433
-38.8766,-66.3560,168.3992,59.2704,22.4882,117.4442,234.5723,216.4227,127.1654,179.4383,-47.4659,23.1411,59.1468,99.7241,71.5947,66.0115,206.7067,-3.3345,226.0415
-25.7524,-30.9123,149.7142,14.4331,37.4357,74.4472,200.0805,201.3515,38.3399,133.2159,-13.2338,-10.2822,4.0036,-7.7182,12.4583,4.5138,200.4803,-31.0445,249.4022
5.2293,-29.0205,102.8867,-34.1410,29.8942,30.7378,155.8572,211.9273,21.4584,45.1249,-78.1370,-83.9803,-105.4391,-61.4193,-83.0072,-5.0862,136.4344,-35.2862,276.8236
-72.8057,-136.5781,-14.6923,-95.4477,49.9697,45.0667,209.5863,275.5510,133.1573,44.7165,-159.0426,-130.3224,-100.1631,-9.1046,-47.3189,103.1442,39.6138,21.0054,310.7517
-172.9277,-240.4110,-108.3978,-125.0657,102.8122,95.0485,271.3172,308.4917,196.7770,71.1522,-155.7157,-114.0846,-13.1906,52.1446,52.0129,166.3511,21.6215,74.3794,316.5941
-130.8591,-194.8838,-71.1114,-82.4661,125.4265,102.7652,232.5614,239.3308,88.1587,-10.6956,-122.0150,-78.3154,-5.3574,20.2429,34.5457,58.5706,74.0229,48.8366,270.1759
-16.0470,-83.4658,18.8232,-24.7395,76.5837,41.1346,145.2591,134.6958,-28.4685,-86.5027,-134.1306,-78.8915,-85.0806,-63.3639,-78.9358,-44.9870,89.3659,-30.9371,187.4983
17.7873,-61.4323,31.1671,-4.0142,11.6083,-18.6550,86.3854,72.3563,-9.5502,-38.4574,-124.0378,-77.7216,-105.1906,-55.0361,-121.7045,1.9019,67.1991,-69.1348,91.6908
-3.3019,-87.3165,1.8987,25.2917,7.0831,2.6780,27.1064,12.1295,41.9086,-3.7272,-47.3667,-19.8759,-27.8600,56.9401,-79.1772,54.1423,97.8467,-29.5003,-6.4611
6.6451,-54.9070,20.5382,91.6651,33.8835,71.2513,-64.5193,-79.3341,18.4522,-46.5173,-8.0153,36.4295,19.3731,94.7687,-71.1037,-3.5790,175.9908,15.7310,-89.9010
37.2192,8.1027,56.0038,125.2555,16.7248,73.4934,-133.5432,-140.7859,-58.3080,-38.5153,-37.7359,10.2953,-14.8280,-25.0992,-90.9304,-62.7891,191.7163,-16.0009,-146.8507
62.0518,43.2403,43.5121,67.1463,-38.4143,-23.8633,-139.9853,-145.7526,-132.3937,7.4443,-25.5063,-70.2887,-25.6307,-145.0908,-40.2780,-57.0285,97.9338,-104.2584,-195.0216
94.1174,66.9596,2.9831,-31.3643,-94.0350,-119.3389,-146.9066,-142.0943,-148.5340,-35.4587,39.3432,-119.3953,28.7444,-123.9373,28.9391,-57.5510,-11.8581,-147.9433,-247.5581
145.5480,108.7765,-13.5338,-74.0185,-148.7708,-113.2731,-214.2337,-148.9214,-135.0934,-137.2087,53.5379,-86.2417,42.0595,-37.2323,-5.0402,-83.3848,-31.7107,-108.6786,-286.8848
207.7363,173.6034,-3.4846,-44.4041,-185.4998,-42.9389,-285.3943,-163.0228,-183.9209,-185.7393,20.7246,4.1042,-28.1680,-23.2420,-76.1379,-82.7166,12.4236,-64.7762,-299.2693
237.2944,235.9761,5.6579,-7.9815,-175.3588,-17.9601,-264.4134,-188.1137,-206.6203,-115.6650,25.2912,58.9541,-62.3086,-81.7250,-37.6218,-39.8115,37.8601,-67.9625,-276.5452
197.6029,238.7771,20.6490,3.1616,-130.7426,-49.8502,-154.5418,-186.7769,-63.2315,68.7038,70.2351,41.0455,5.0236,-95.8471,54.7080,23.3294,53.8557,-59.3498,-211.0770
140.9853,179.2937,65.1260,28.7038,-76.2882,-45.2814,-72.0833,-147.5145,65.4035,188.9350,105.6578,41.6105,52.6647,-10.8416,39.8143,57.6000,106.2366,-3.1227,-157.2297
143.5959,142.0680,108.2280,96.2813,-30.6388,31.3431,-117.8080,-149.3290,-38.1654,66.3645,103.8160,115.8330,-14.9533,59.5740,-57.9224,15.7592,166.0067,54.7062,-192.7251
174.0057,162.7382,107.4879,176.2830,-14.5834,109.9628,-232.5875,-201.8192,-191.0859,-124.1534,60.8097,172.8669,-94.6208,2.8673,-84.5667,-52.5005,189.4339,102.1494,-269.7085
150.7647,164.2406,97.1432,214.9321,-7.0966,140.2311,-265.7706,-195.2965,-168.0958,-99.2846,19.3619,145.4124,-67.0556,-66.2785,-18.7570,-43.6049,184.3326,149.5539,-268.8954
78.1400,88.3387,111.8554,176.4290,21.8800,140.1903,-211.5743,-126.0262,-78.2014,51.9274,24.6403,101.8955,-0.7984,20.6539,22.2693,29.0677,164.5005,142.8332,-198.7608
27.1656,-7.0233,104.0128,95.0586,28.2263,121.9098,-189.9924,-111.4407,-51.1031,73.3308,28.4630,109.3582,-28.0052,158.6420,-26.1177,45.1693,141.7081,66.1149,-151.0027
27.9388,-27.7373,54.5609,57.6465,-18.5427,78.7407,-190.1530,-142.9813,-31.2334,-21.7681,-20.1416,131.4393,-124.5674,127.6094,-106.4494,-43.5311,132.2430,-0.4818,-122.4166
24.5187,20.8113,21.1272,67.4206,-56.3791,20.6325,-113.8317,-105.8372,16.1378,-47.2969,-48.6951,108.7669,-144.6219,-21.0236,-118.8355,-147.6680,100.5587,-35.5085,-64.5539
-47.9173,38.4577,6.9009,33.4718,-63.4182,-42.0621,-15.4025,-7.8754,54.9650,44.3863,0.3870,60.1741,-40.1367,-61.3012,-26.8583,-154.6040,1.6734,-88.3728,-14.0791
-140.4695,-13.0492,-39.6218,-48.6104,-94.2771,-96.3931,5.3006,44.2953,44.6242,102.2670,35.3208,53.8916,54.6537,28.9603,83.1674,-80.0697,-107.0247,-132.7946,-29.1180
-147.9399,-57.8356,-100.4423,-86.0452,-135.6431,-109.8057,-1.4798,22.5223,-46.8164,-1.6712,-18.3446,82.1272,18.8963,68.4333,90.8946,-53.6497,-137.9167,-118.2087,-77.1072
-96.8709,-49.8708,-125.3826,-70.7087,-127.7491,-82.2477,18.7195,-7.8960,-134.0156,-117.8336,-82.1464,60.9153,-56.4662,-12.1526,22.3710,-104.0815,-113.8575,-75.2124,-79.0274
-104.8821,-35.1670,-125.7475,-63.8950,-88.6593,-53.5482,13.3150,8.5908,-86.1204,-36.2328,-77.1038,-0.9736,-29.3256,-63.9191,13.6311,-101.4349,-105.9636,-30.3983,-33.5334
-169.3486,-50.4360,-126.4388,-54.0677,-57.6192,-17.3098,-29.9957,44.0236,10.2485,81.7032,-35.7990,5.4797,30.5931,37.4292,65.8918,-13.2748,-108.6328,30.5040,-23.9706
-188.3661,-85.5038,-116.9345,-17.2461,-21.6530,54.4433,-58.5663,22.2441,-5.6464,-7.1024,-1.7985,82.1710,-13.1893,169.4383,46.7281,12.8003,-82.6243,84.5172,-78.8584
-145.0566,-112.1366,-94.6076,0.7828,21.5124,108.6914,-61.8763,-55.5251,-59.1617,-102.3281,17.0050,116.7456,-87.4270,134.7906,-37.1426,-67.6996,-50.7234,106.9718,-125.9584
-113.1870,-87.1780,-84.5599,-10.3447,46.3938,88.0866,-50.3978,-101.9414,-26.2723,40.7788,0.9101,88.8818,-56.7551,-8.6280,-33.4948,-111.4766,-64.6645,119.8920,-133.7755
-136.3152,-19.8525,-106.9298,-1.1781,49.5915,48.5163,-31.3919,-91.2549,30.1428,193.9321,-41.8700,76.4714,17.0895,-35.8282,62.9817,-65.0432,-107.7139,125.5829,-147.6347
-179.5423,0.6235,-141.4119,17.0512,46.1535,52.6412,-30.9949,-86.0236,49.3496,114.8954,-52.3875,100.1816,13.1981,70.1420,97.0610,-44.5116,-103.6643,105.6605,-158.3266
-166.8204,-47.0099,-132.7595,-1.8041,47.2543,53.7743,-35.0073,-112.5457,82.9570,-37.9581,-19.6280,106.8701,-30.6011,115.7579,40.3857,-103.0149,-41.7445,66.2003,-122.9332
-80.4173,-77.5179,-70.6170,-38.3093,37.7745,-7.0096,-11.7663,-139.1088,138.1916,-91.1168,9.8596,41.5445,-20.3937,24.1481,13.1585,-152.1433,-11.9279,-4.0851,-81.7503
-7.3067,-67.1365,-24.8812,-66.8035,-25.6040,-104.9130,-14.9733,-140.6817,154.2779,-65.8559,36.9503,-93.8921,24.9317,-81.7173,36.7742,-120.5622,-61.6338,-111.4059,-79.9303
-15.3651,-64.2682,-42.0621,-103.7815,-132.6885,-177.2866,-81.9113,-106.9401,99.1347,19.1360,73.5032,-199.3522,16.5878,-82.0313,19.4525,-44.3482,-121.5013,-182.9566,-84.7245
-59.6029,-65.6584,-83.0855,-130.6272,-200.4252,-184.4099,-125.8397,-48.9495,5.9861,99.4009,56.6515,-180.8797,-60.4828,-4.9671,-40.0526,-0.4669,-136.1461,-165.0696,-78.4834
-89.0094,-63.9913,-104.2421,-119.3638,-204.1513,-147.4996,-99.3442,-0.2221,-36.6509,79.7179,-36.4134,-112.3336,-105.0967,21.0456,-49.8849,-9.7736,-145.9089,-123.8873,-70.8352
-123.5701,-93.7842,-112.9115,-122.4002,-206.7483,-140.3302,-74.7604,40.7477,1.9007,80.5021,-110.2717,-131.5106,-48.5908,-47.0628,-5.7861,-20.7636,-185.7256,-124.0626,-34.8686
-164.5582,-131.9023,-135.8258,-174.6068,-230.4048,-173.5764,-72.8903,101.6770,34.1341,225.1892,-118.6271,-208.1923,0.3130,-80.0915,-2.0159,8.3856,-217.0074,-129.1288,23.6265
-161.4789,-133.6399,-181.1015,-198.0686,-243.8712,-159.1629,-40.4593,154.7865,26.3835,303.9465,-132.0119,-206.3099,-90.3399,8.4883,-69.2792,45.1421,-198.8472,-92.0599,52.4838
-108.8972,-140.7094,-208.4231,-145.3033,-244.2439,-77.1714,-1.4961,147.5086,40.8782,154.6424,-164.4354,-117.1300,-235.2938,85.1218,-132.2776,33.2941,-144.3949,-30.9433,62.0437
-70.4489,-170.3669,-157.9859,-80.2314,-234.4934,-29.3491,-28.0653,95.6672,48.0971,24.7554,-141.9604,-48.9375,-250.9200,21.2802,-131.1738,-22.9316,-83.0568,8.3841,80.2436
-82.5922,-142.1816,-48.7351,-30.1330,-198.4314,-50.2896,-101.4367,54.4242,-9.8326,107.0472,-70.2961,-30.4792,-149.2314,-78.3970,-96.1891,-62.6980,-17.4353,12.4651,69.7381
-98.9743,-45.6504,37.9858,44.6290,-148.0621,-52.1850,-137.1336,37.1286,-49.4167,193.5409,-37.1216,21.0250,-107.0301,-60.7746,-93.2457,-55.5480,62.4532,15.1356,31.9814
-56.8983,32.4574,90.4278,120.0972,-112.9684,-1.5129,-116.2761,16.3173,-22.9746,112.2126,-58.3537,132.2679,-183.0641,33.3676,-142.5477,-57.0771,143.1362,31.6504,20.7999
33.9761,89.9763,153.6484,149.6340,-102.4076,28.3872,-111.2082,-24.5570,-28.2623,10.6732,-66.9104,203.2731,-237.8336,49.5370,-193.7825,-121.4798,188.3132,15.5788,5.1970
112.3746,183.1591,210.4009,163.8631,-122.2563,-9.4057,-156.5322,-54.8701,-67.4607,19.2599,-24.7199,157.9128,-166.3753,-57.4716,-181.1249,-179.3236,172.8363,-54.5514,-58.6610
145.0858,249.9221,207.2174,165.7548,-174.3614,-83.7151,-176.8377,-32.6234,-35.3758,64.4707,31.4431,56.7938,-81.1114,-154.8256,-117.5133,-128.5947,101.6122,-133.9464,-93.5378
134.0362,185.7581,149.3707,87.2433,-238.7541,-150.9839,-131.8555,9.9396,29.8845,78.5101,41.1425,0.1683,-120.6993,-109.0736,-86.1574,-30.3701,7.0070,-200.9710,-44.2621
92.0832,43.6906,79.8244,-46.5216,-289.1444,-195.1586,-107.4097,-6.1498,17.3378,62.4452,-0.0047,8.1876,-191.0463,-7.6004,-112.6010,-40.0574,-71.7242,-259.9475,5.8252
49.6672,-28.3468,13.5309,-127.0641,-300.8402,-219.7243,-151.5537,-73.0459,-39.7346,2.8658,-33.5607,21.1469,-142.7194,-38.9344,-133.9727,-155.3951,-130.0480,-277.4553,-5.2063
25.0099,-4.2042,-66.2703,-154.7466,-268.0548,-226.1792,-183.1830,-96.9953,-44.6845,-46.4161,-31.3637,-27.4251,-62.1462,-155.0383,-115.6695,-213.9422,-196.0372,-242.4696,-16.9049
-9.2191,9.1811,-167.4194,-196.7670,-233.0700,-205.4868,-127.0270,-40.7859,12.6993,14.6578,-36.3812,-102.1404,-85.3115,-132.2699,-91.3374,-144.8794,-262.0723,-199.6266,35.2802
-66.1105,-49.7778,-246.9067,-223.3644,-221.8140,-161.8150,10.2332,32.3491,70.9226,110.5454,-66.8849,-73.6910,-118.6472,34.1175,-76.5599,-66.0907,-269.1118,-157.7202,119.3789
-100.8712,-121.4405,-237.4125,-181.9037,-183.1517,-117.4329,163.9925,50.7288,63.8952,83.9831,-63.3215,62.7037,-37.2763,123.8813,-42.9789,-92.0208,-194.4436,-97.0130,146.5663
-84.0092,-127.7548,-148.5905,-116.2808,-102.2999,-76.5669,232.8706,13.6820,10.1836,4.7684,3.9839,132.4086,68.4226,69.1682,11.5788,-159.8861,-101.9520,-39.7600,90.2649
-45.6629,-71.1335,-77.1847,-79.8940,-68.2625,-21.9344,195.9355,-19.1855,23.6845,20.1882,62.4798,75.6496,69.3504,32.1980,39.2140,-143.2957,-54.8156,7.7852,36.8943
-15.7901,-18.5668,-62.3745,-50.4712,-114.2526,49.5995,160.6091,-21.1124,125.6828,44.1493,54.3579,43.4216,7.9878,103.7014,13.5698,-72.0303,-17.9382,77.7469,50.5497
14.3587,-16.8018,-15.3120,11.6985,-145.7591,118.4463,158.0397,-42.7814,163.6177,-28.8316,41.8845,103.4243,1.2799,161.7656,-9.7517,-77.4603,77.2847,149.8106,64.8357
62.8370,-32.9941,126.1494,100.3134,-113.8013,153.7576,100.7989,-97.5140,57.1633,-67.8282,92.7440,146.6182,68.1273,81.1114,32.1865,-148.5247,187.3745,170.7093,27.9095
115.2874,-11.6500,254.9466,157.3771,-98.4115,127.2650,32.6714,-99.2753,-44.4860,22.9012,143.9777,108.3482,113.5480,-58.9770,89.3160,-150.3616,194.4094,134.0008,16.3000
125.2566,21.4325,239.1599,126.4770,-160.2998,48.8703,94.8303,-25.9939,5.0624,100.0887,110.0074,34.6433,73.9916,-82.9834,76.0759,-74.7911,101.3982,51.7842,77.7285
83.4108,0.9879,142.0800,38.1104,-241.5291,-30.7772,231.7850,0.6651,121.3735,40.4058,33.0432,-16.7028,30.0022,10.0308,36.0412,-54.7762,33.1598,-53.0863,123.8548
47.6503,-56.6454,114.3079,-22.1453,-267.9949,-83.6035,259.9062,-82.4289,142.8441,-73.1373,-5.7894,-22.7627,60.4152,32.7546,46.3306,-131.2162,29.0718,-115.3418,82.3928
46.1086,-90.5176,134.5406,-44.1172,-260.3418,-123.5820,167.0975,-161.2144,88.6347,-88.0870,-12.6833,-34.5241,80.5220,-102.5848,47.0021,-190.0624,7.6158,-100.1094,20.7273
24.1590,-107.5236,73.0630,-88.9742,-273.6534,-149.1207,103.2751,-124.0577,85.4302,24.2321,-25.4922,-123.1170,18.4184,-239.8915,-15.8643,-144.5187,-76.1955,-49.1046,40.3196
-49.7485,-147.3122,-65.0560,-166.7781,-286.1877,-134.0960,156.8678,-14.3045,128.3060,111.2027,-47.9760,-223.7641,-15.2333,-208.4846,-36.0753,-59.6610,-180.3382,-1.3914,124.2385
-116.3181,-189.2412,-155.3540,-218.4263,-245.2251,-85.4343,259.4328,56.5140,117.5339,39.5147,-62.3121,-216.6026,55.6946,-76.0854,41.4209,-57.3945,-235.1286,28.8247,164.3113
-104.5303,-171.4570,-127.1413,-197.2226,-174.1695,-47.7235,285.8785,48.7194,51.4178,-75.5453,-30.1584,-141.5150,105.2200,-42.2982,72.7175,-141.4051,-191.5702,28.0469,125.9821
-12.9453,-78.6002,-13.5540,-115.4045,-122.4407,-40.2984,238.2352,15.5757,7.9806,-67.3245,44.5927,-101.9761,33.0679,-135.0096,-24.2200,-190.9500,-83.3427,29.2846,93.4830
79.4379,11.7115,83.1282,-34.2736,-77.2224,-32.2432,239.3509,22.1393,26.2853,3.4766,52.7824,-91.3338,-57.7165,-187.0920,-104.6262,-144.5914,-10.1182,78.4817,124.9232
76.4425,7.7186,83.5552,-11.1290,-22.2957,1.3983,304.2000,74.0543,83.1690,49.7889,-49.8843,-95.3835,-34.4671,-128.4064,-49.4630,-74.1686,-5.6382,127.4389,180.8848
-11.1452,-57.4254,35.6503,-48.8676,5.9559,24.2123,318.8734,145.7126,103.5283,130.4834,-106.8769,-148.2283,69.3164,-93.1310,41.7592,-38.9501,-34.9175,98.0831,223.7116
-73.1938,-76.5510,12.2220,-111.5734,-21.2558,-15.1907,265.5651,226.2840,60.7303,212.7034,-18.0291,-214.5792,119.2631,-166.5648,36.8256,-15.4935,-100.6889,16.6942,257.0912
-79.6229,-56.0379,-35.7104,-152.5576,-83.8809,-82.7901,225.1447,288.3057,74.1715,184.7585,67.8014,-227.8559,79.3077,-230.0737,-22.3268,6.0726,-182.6205,-30.8939,271.4863
-105.9312,-76.1707,-129.2475,-124.7201,-130.6654,-82.7277,199.2907,288.5323,176.9042,126.9901,29.1812,-189.5097,40.9193,-161.8562,-31.3476,6.4975,-178.9111,-12.1734,254.1526
-155.1200,-112.5217,-141.5469,-35.2848,-112.7844,-6.5583,131.5108,239.6300,139.0818,133.3311,-32.7413,-116.7888,33.5944,-38.0884,-31.0242,-4.6066,-69.4356,33.1010,211.0509
-142.7952,-93.2421,-31.6629,33.3441,-50.1916,39.3971,22.3596,189.9368,-120.7926,79.7219,-27.9049,-43.7890,-22.7088,-14.5707,-126.9992,-25.1351,25.8867,36.2314,143.0212
-64.4294,-44.0669,52.8675,23.6377,-24.1841,-0.2844,-73.6062,144.2405,-297.8753,-69.1391,-11.5438,-45.8860,-110.8220,-73.7116,-256.3755,-64.9998,34.9374,-17.9470,72.0764
-6.7057,-28.9116,40.7708,-28.2959,-40.8076,-45.3832,-103.7078,100.2059,-237.6615,-119.6598,-10.4455,-97.8367,-104.2578,-43.3733,-254.7027,-71.6623,6.3035,-55.8058,52.7264
-11.7069,-58.3835,20.4244,-56.7832,-21.3368,-21.5297,-91.2202,87.3820,-177.4142,-40.2096,14.5519,-80.6645,-26.6578,83.4823,-139.4857,-9.6995,-4.6933,-29.9867,76.9745
-45.4626,-109.1049,23.2849,-40.0495,23.3355,21.1973,-132.7436,89.8909,-207.0843,-26.7027,29.4982,-21.1511,-40.8824,81.7912,-87.3871,21.6769,3.3764,-4.1838,60.9247
-66.2017,-137.1833,-8.1520,-13.4136,-4.6846,7.2623,-223.6601,49.8413,-141.8637,-101.3055,-27.0047,-44.5643,-151.0448,-92.3466,-140.1876,-50.1172,-6.6026,-41.0979,-13.9825
-65.7986,-112.7489,-61.9745,-32.1793,-90.0313,-45.1514,-229.7663,-18.5786,-6.2462,-85.4745,-101.5378,-109.7123,-195.7933,-164.8727,-169.1056,-110.8637,-53.2325,-101.0336,-72.2941
-61.7219,-75.9337,-60.2370,-91.6147,-113.9800,-84.3393,-143.2452,-52.8872,-10.7811,36.5629,-104.1856,-104.8683,-130.1868,-40.9916,-116.5781,-65.4539,-73.7936,-119.7752,-87.2068
-64.9242,-71.2681,8.2913,-127.0788,-66.2090,-116.3439,-123.6161,-58.8613,-140.5900,79.2653,-73.2782,-85.9138,-80.6803,12.5927,-73.1660,-17.0789,-20.4482,-107.7463,-121.1654
-74.2796,-75.2420,61.2456,-117.5049,-52.8967,-157.9020,-216.4861,-86.0075,-229.3570,-32.2909,-105.1617,-137.0184,-125.2363,-113.8621,-108.7879,-58.2395,26.5310,-114.4965,-209.3023
-98.5863,-65.9097,44.8645,-83.3981,-97.5077,-170.2073,-301.4607,-141.4797,-219.9863,-159.8599,-167.0167,-174.6926,-180.7896,-196.2651,-160.8227,-109.7196,9.9984,-124.9195,-305.8245
-136.8849,-56.3412,24.1466,-9.3888,-107.8434,-112.7354,-324.0365,-196.9206,-142.1767,-183.1728,-147.5100,-110.1947,-151.6416,-143.3369,-137.6363,-104.2447,11.7115,-69.4763,-356.9998
-150.9974,-35.5874,61.4083,90.3084,-50.8185,-20.9582,-344.0029,-221.5873,-87.7931,-144.2866,-55.0471,-21.7148,-87.2896,-120.0798,-66.8555,-93.8136,59.3941,33.6359,-358.9357
-118.2360,6.4743,81.3788,123.5497,-3.8458,28.8164,-378.4695,-204.0973,-167.6604,-117.2957,6.2956,-10.4102,-82.9064,-180.1698,-47.1115,-101.3283,55.9989,73.8272,-339.0562
-82.7502,36.2350,14.6197,71.4112,-7.4929,23.9132,-372.1467,-178.9405,-309.3578,-116.4260,10.0893,-34.7845,-99.7114,-193.9573,-78.7421,-84.3202,-4.5460,44.6792,-327.2891
-88.6557,40.9566,-44.8558,48.5788,-7.0769,35.4686,-323.6502,-186.2464,-324.5902,-155.8060,10.2756,3.6179,-52.3416,-97.5623,-78.5858,-56.7335,-15.5765,59.2454,-339.7704
-95.7406,60.9240,-6.5600,124.8258,30.0227,106.5572,-314.0121,-209.9963,-229.9595,-218.0224,37.0298,107.1101,3.5844,20.3987,-52.5999,-69.0592,37.1323,130.6306,-360.2833
-34.4256,125.8511,49.1801,231.7357,66.3759,179.1823,-352.7783,-213.3979,-188.7209,-215.3397,82.6363,190.9569,-29.3390,28.9901,-81.9789,-97.9777,68.1261,168.9092,-354.6181
67.6162,208.4066,22.0728,277.9300,80.4371,195.6800,-329.7472,-185.9117,-212.2847,-133.9134,120.4240,189.8669,-91.2218,-73.9040,-143.5135,-77.1567,38.5486,170.5549,-314.0489
97.1755,231.1070,-52.0846,244.8124,92.6341,186.9620,-230.1500,-128.3962,-216.3191,-68.9329,118.1097,114.4247,-62.1586,-114.4016,-132.4639,3.3218,-16.6281,175.1201,-257.6980
24.7037,146.1582,-92.0479,169.4168,110.7516,179.5290,-196.0490,-66.2264,-203.6312,-46.7908,80.9480,37.5518,20.7024,-3.3903,-63.6377,82.2225,-48.9322,139.5343,-203.2403
-40.5532,31.5005,-99.0742,87.1575,117.6466,134.9329,-251.7241,-49.0961,-183.2093,-27.8272,42.9392,21.5329,19.3064,88.8870,-61.0491,84.0684,-54.7161,48.0456,-168.3533
-24.2066,8.9416,-124.0674,13.8334,99.4526,56.7308,-254.6313,-75.2465,-119.2380,-40.6405,31.4582,44.0537,-67.4356,39.2347,-130.3541,7.0305,-70.0428,-9.9856,-169.7360
17.9865,69.8570,-144.7739,-11.8052,72.4632,17.5571,-190.1265,-97.4367,-62.1341,-102.4730,81.9459,54.8525,-90.2121,-3.9574,-136.7401,-47.5015,-81.0234,15.1791,-193.4784
29.7578,113.5066,-82.4700,43.7906,75.5913,35.0735,-179.6768,-110.3582,-108.2060,-139.3688,172.9340,79.2187,-12.6279,76.4251,-57.2321,-3.3175,-43.6106,65.7555,-201.0474
20.5647,108.6816,17.1815,104.8477,105.9745,51.1593,-207.5416,-115.5772,-192.6159,-103.8057,170.7630,147.2934,6.8476,157.4828,-34.0945,73.3395,-11.9179,75.1402,-162.5701
-4.7187,89.5012,6.5033,61.7399,116.7261,30.2021,-152.1247,-77.4687,-144.8516,-24.1677,40.5051,191.2969,-89.8465,126.5671,-102.0069,83.2701,-55.8071,27.9989,-73.1957
-25.6180,63.1540,-90.3530,-40.9831,120.2285,-9.9417,-18.5580,-27.3071,22.7380,43.0863,-23.5346,156.9274,-125.9197,54.6984,-115.1157,43.8068,-91.5369,-35.1846,23.5377
17.8292,18.6648,-93.8379,-75.5490,174.3080,-21.9369,75.7005,-50.9112,112.2226,31.5839,85.0048,102.9212,-11.1011,48.7731,-29.0496,22.2496,-21.5473,-45.6243,60.9843
105.9933,-17.7624,16.0015,-31.9588,241.5462,26.7004,69.7080,-110.3923,68.2818,-47.7641,184.4199,81.7331,82.3046,99.6092,15.7973,15.8147,81.5512,-3.0700,48.7022
144.9699,8.7659,113.7626,25.3924,233.9229,81.9425,24.7811,-98.0177,44.8321,-94.4095,132.2906,76.8139,24.9616,102.0990,-37.6374,-4.0859,129.9061,11.8177,58.7514
141.0168,97.8163,175.9431,77.4169,181.8930,59.9977,41.3457,-50.6423,86.4402,-99.9491,40.6972,92.0489,-70.7622,21.6359,-73.2351,-19.5054,158.1266,-23.7436,89.2622
157.3390,150.9934,222.3529,112.2266,180.6802,2.8024,109.8647,-64.3079,68.8540,-122.8430,31.5880,138.6403,-75.6691,-1.7796,-21.9399,-6.3656,185.6642,-35.3690,87.9320
151.1512,99.8320,207.0203,120.0406,235.8394,16.7305,134.8972,-85.6864,11.0980,-95.6799,69.1399,172.7089,-28.2947,121.7762,40.8904,23.4094,177.7421,16.5930,87.1513
94.1532,26.7164,160.8082,143.7150,295.9192,77.7180,117.2040,-27.5325,56.5871,5.8942,76.3449,161.1883,-22.4852,213.2146,37.2557,46.6617,167.3466,82.4950,131.6114
99.6926,38.0968,186.8845,200.7277,335.6343,92.4030,117.8142,40.0079,132.5241,3.8248,41.2773,124.7379,-51.4152,116.9109,-4.7843,53.2639,203.0808,111.9906,151.2407
205.6865,102.6571,269.0762,227.3157,342.9279,77.5699,98.5184,14.0670,55.7594,-138.3561,26.7268,90.1298,-27.6302,14.2352,-11.5868,50.4503,236.2922,109.5600,87.9509
258.7477,127.7744,318.4896,186.6129,322.0748,96.2865,29.1967,-62.4900,-90.0280,-202.7801,84.3953,89.2322,53.0965,103.4144,15.5098,53.2902,213.5724,99.6931,22.5109
183.7981,99.3456,317.6769,124.0546,305.0552,123.5485,-1.0946,-94.1686,-98.5162,-147.0298,140.1886,140.6418,71.0558,234.3209,19.4603,57.4592,164.7658,84.5965,30.5528
101.6672,68.6768,272.5727,86.0902,296.6389,104.0963,39.8407,-81.8530,-6.6806,-129.1989,101.7927,184.2446,2.0925,196.4414,22.5374,52.3155,113.3680,47.4058,58.9689
88.4358,59.5315,190.5873,71.6389,264.6138,46.5843,65.0988,-71.5042,34.8451,-118.1367,41.3381,156.3221,0.8139,85.5224,83.9357,65.8018,44.7665,-7.5930,46.6534
90.8955,34.2568,136.1314,54.4834,213.1351,5.8443,46.9058,-57.4742,37.5836,-19.2164,58.3820,109.7359,111.6353,94.4890,132.0241,115.1252,-7.1142,-38.6145,30.4599
94.0936,-19.3014,146.0964,23.3811,190.5551,20.9451,26.8545,-31.9209,63.4940,29.5211,94.2978,124.9382,154.3909,183.8546,66.5786,128.7426,12.4444,-16.1949,51.0557
132.8693,-18.9482,165.7155,9.9216,208.2618,65.2871,-1.5036,-42.0407,68.4881,-74.6530,85.0184,169.7542,51.2690,192.8982,-28.2692,48.2964,74.1650,26.2235,58.6174
170.6664,61.8807,154.7817,36.5213,206.9325,70.9664,-61.4711,-104.3700,14.7227,-185.1704,76.9166,148.6611,-39.6825,110.0803,-24.8137,-33.4130,103.3971,24.4469,-5.3868
136.6240,82.5025,122.5381,53.6541,134.6737,26.8616,-138.3785,-144.6651,-34.9881,-192.2197,70.6217,33.4627,-20.5907,52.6388,27.1179,4.0944,78.9103,-34.8696,-91.3967
34.9475,-31.1613,60.1104,9.6612,38.0017,-15.5189,-184.7188,-108.3811,-9.0066,-135.6899,8.0424,-93.1621,19.0189,64.7356,31.8672,109.6679,16.2129,-93.2913,-99.7982
-64.0419,-135.6577,-29.5836,-67.0459,12.3927,-35.7034,-136.5329,-45.9970,60.0622,-30.0670,-74.0996,-127.5167,9.7794,77.4074,5.0215,142.1957,-64.4712,-92.1005,-34.5801
-97.9039,-129.5607,-87.4454,-118.7787,70.6625,-42.8449,-13.3195,-18.1361,63.6559,90.9712,-96.2791,-90.4631,-0.7349,50.6732,-16.9034,85.1336,-107.2473,-34.0434,8.2359
-73.2410,-94.9945,-68.6855,-115.1989,149.2880,-17.5646,64.6630,0.0742,-9.5663,117.7308,-62.9092,-93.6996,38.2681,43.5096,-22.4887,48.3885,-67.4369,41.8220,0.4481
-62.8037,-95.0236,-7.7161,-49.2847,215.6493,48.7159,69.7878,59.3190,-30.9775,49.0154,-13.1370,-137.7449,103.8337,107.3418,11.9149,94.6535,4.8105,105.7683,8.3521
-90.8593,-104.9606,24.1458,42.0545,269.4084,117.1319,80.1159,133.8002,30.2121,-2.4095,28.2709,-118.4643,133.3240,178.0047,61.1095,148.0237,40.3845,140.1350,52.3200
-82.2840,-106.9775,11.6138,92.6266,291.8505,152.4126,67.2682,136.0833,31.0155,-14.3851,24.4687,-36.6329,102.7309,150.2806,63.7976,106.5882,58.0695,140.4707,60.8303
-10.8630,-67.2009,20.3193,97.0279,276.1311,153.1994,-30.5134,45.6373,-57.5081,-34.8241,-22.6229,16.9106,60.0762,57.6505,45.1849,19.4041,95.9498,126.3160,-0.9166
33.5027,28.3680,92.7131,111.9628,248.9559,143.5581,-113.6087,-39.1695,-92.7040,-60.2030,-43.4268,43.2905,49.7070,59.7331,58.7638,23.8903,133.5776,115.1637,-56.9122
14.5869,81.2133,170.5691,150.4134,232.4739,154.3630,-94.6972,-47.8228,-59.8104,-78.6171,-12.9474,98.0699,43.8382,181.2870,60.5737,98.1954,154.0879,91.5787,-35.9839
10.3577,32.0761,192.4534,164.6787,231.2359,161.9195,-54.6345,-41.2151,-66.1094,-81.5061,5.1818,151.8487,11.1379,235.5087,13.3202,99.1676,174.9233,35.6161,18.0692
42.9915,-13.3699,177.8325,136.6359,229.6073,96.0129,-47.0477,-67.7312,-82.3305,-34.5648,-17.7770,143.4738,-9.5743,135.5908,-10.9801,42.7848,188.0336,-32.2003,26.7016
44.3246,11.9446,153.9222,105.2425,192.1946,-25.4754,-36.1972,-66.0423,-32.9553,30.7458,-24.1693,92.2087,26.0201,48.8092,38.2173,57.1451,162.2938,-72.3033,-1.5229
7.2893,21.9308,111.6602,84.7796,121.6873,-97.1002,-40.3582,-12.7995,18.1153,29.8383,10.3528,59.5476,81.0570,78.4074,96.9889,113.5414,92.9712,-91.9861,-5.7068
-14.7811,-39.5467,44.5927,17.8192,70.6924,-114.2701,-67.2158,12.8117,14.3585,-21.8311,24.8403,45.4506,83.3925,79.9092,98.0792,101.1046,-3.2900,-141.5922,24.6200
-30.7043,-114.9046,-53.9000,-125.9531,52.7260,-177.3255,-45.6327,-28.8014,17.0427,-54.6607,-3.4568,-12.8082,42.0044,-41.4091,71.6927,44.7499,-105.2265,-223.6914,41.6525
-84.8144,-146.1394,-175.8716,-257.7910,29.8422,-284.5634,11.9939,-91.9170,65.2138,-59.8158,-19.5017,-130.6293,37.8852,-153.9007,84.6062,20.3445,-186.1936,-274.4755,8.0777
-158.8200,-138.3485,-257.6210,-279.9417,-4.4312,-325.5989,8.3732,-127.4662,113.7391,-16.5464,-24.7421,-224.4786,76.0826,-146.1707,116.2983,26.1790,-222.2332,-265.2470,-47.3259
-187.6884,-125.8121,-252.8141,-221.5912,-24.8103,-274.1376,-39.6816,-117.7575,99.9780,66.8961,-77.5646,-222.6118,55.0734,-86.0004,72.0638,36.3919,-196.5411,-228.3634,-58.6901
-134.5005,-105.0210,-204.9688,-155.9571,-22.7929,-204.2810,-36.5330,-97.5487,6.0103,39.6108,-139.9493,-157.8478,-58.3543,-72.2545,-43.2687,21.2732,-114.3837,-171.2586,-25.3775
-30.1150,-31.9807,-159.4360,-84.7321,8.4123,-145.6343,18.1438,-119.6359,-83.6056,-133.1783,-130.7293,-98.3843,-152.0873,-105.1276,-90.5013,-29.2905,-22.9272,-83.0609,-11.7695
44.7386,64.5892,-107.6624,-1.9389,70.4932,-68.4202,60.6232,-135.9715,-70.7379,-207.7399,-92.4193,-72.5525,-144.6913,-107.7597,-26.0575,-34.9451,29.1982,-2.2484,-18.3807
47.4504,88.7555,-54.7091,55.6384,125.5782,20.8770,71.9789,-66.8905,-8.9796,-97.1623,-91.0240,-72.4958,-107.9661,-24.7006,10.6595,41.0050,52.1336,37.3054,12.6288
34.2315,60.3787,-5.9526,87.6043,139.2997,73.7012,73.9705,8.9550,8.5180,-28.8828,-72.1493,-55.3919,-132.0812,68.2990,-59.6133,68.7195,91.7413,54.8302,58.2224
75.2282,91.9423,75.8463,138.3674,127.4682,70.2081,75.2010,-18.9051,24.1700,-33.1442,-1.4652,8.5778,-178.4291,39.0358,-135.4750,-5.2239,157.0583,49.7493,44.7334
147.5693,171.5815,175.8501,201.7035,109.7690,39.0794,42.1412,-72.0173,80.9773,88.2416,48.1974,64.7894,-151.3150,-64.4769,-125.2086,-28.5247,193.6546,8.0119,-13.2132
179.6592,190.4380,194.7795,204.0169,79.0901,14.8269,-46.5317,-47.0905,122.3225,218.7664,54.8289,52.3128,-60.7289,-55.4726,-58.5195,50.1563,140.0896,-25.0379,-42.7244
148.6720,122.8456,101.6116,95.0822,37.8398,-3.9118,-113.3252,-1.2393,118.7113,88.7838,61.9703,2.1235,-18.4434,60.3569,8.8991,86.6169,24.4480,-29.3621,-15.2051
77.8023,20.6266,-13.9271,-71.7781,2.9285,-48.8748,-59.3911,14.8297,73.6153,-135.8973,45.0999,-51.0241,-56.6693,71.8526,56.2795,42.2439,-59.8750,-69.6739,50.5605
-6.8471,-59.1477,-86.1227,-174.1955,-20.6410,-120.3932,72.7380,47.1009,-1.7178,-116.8078,-16.2208,-121.4332,-69.4724,-69.1598,82.9239,25.6564,-101.4735,-131.2737,109.9291
-68.4878,-73.3038,-132.6667,-153.8445,-22.6310,-142.3997,156.7075,96.7613,-2.4295,66.7914,-43.5132,-166.3767,-9.5031,-161.7726,93.9123,60.7019,-149.5050,-83.0877,132.6493
-66.3537,-46.7584,-161.2569,-70.1692,23.9251,-41.9275,176.3953,131.5024,112.8436,126.1841,-16.3145,-120.0797,8.8547,-97.7401,70.3119,79.0880,-161.0030,82.9894,159.5296
-24.0630,-50.7791,-152.9727,-6.0395,104.6123,122.9612,219.4091,170.4546,159.8763,50.2620,-49.8111,-40.6397,-79.7556,-18.4757,-2.1407,52.7627,-93.8080,205.3537,228.3994
-32.2351,-82.3782,-136.0652,5.6955,146.3246,212.0625,306.8763,207.7342,53.9662,30.2527,-179.9344,-26.4692,-152.5872,-43.8739,-49.9374,18.4722,-56.4579,210.1471,279.6747
-121.2178,-83.2883,-162.9713,-27.2679,121.5290,189.1430,349.8585,205.3576,-8.4979,121.5994,-265.8969,-53.8763,-107.9967,-72.3936,8.8655,40.1632,-120.1285,184.7687,257.6962
-196.2503,-56.3254,-225.6352,-68.5257,96.5659,142.0711,292.9606,185.2066,64.1846,184.0391,-218.8614,-54.0440,-34.1082,12.0080,107.6282,113.9930,-174.8711,180.4547,211.7650
-171.2516,-55.5447,-277.6649,-98.6216,106.3860,122.7849,219.5568,170.5212,141.5011,119.6782,-146.9464,-37.4741,-40.4412,106.3815,128.8803,137.2159,-162.5068,150.6691,201.5662
-97.2107,-103.7712,-305.6861,-147.5073,88.2014,100.1182,218.2478,131.7015,171.5348,44.2626,-155.3664,-41.9032,-88.8396,52.3796,95.4923,85.1951,-170.0912,81.0657,206.1007
-76.4188,-156.5971,-312.8026,-200.8337,9.3355,56.7973,209.0081,79.8654,164.0650,74.4506,-167.3455,-59.8530,-96.4615,-84.2120,84.6396,63.8872,-209.3955,18.9130,164.7732
-118.2243,-147.7984,-290.3790,-185.4273,-72.8631,10.4483,83.5126,52.9025,75.5532,96.9986,-99.9813,-61.6986,-73.7732,-116.4132,69.0110,84.8187,-211.9164,-20.1069,59.8801
-154.2149,-100.1555,-245.7233,-134.9949,-113.0127,-36.2331,-55.9215,26.2154,-24.7719,9.1160,-47.1825,-40.9181,-76.7159,-33.5438,8.9042,47.9023,-194.8101,-57.6217,-30.2962
-135.9411,-97.1154,-190.2767,-159.4005,-103.5293,-79.5482,-44.1709,-7.6803,-17.0513,-58.8351,-87.3295,-31.1071,-99.3464,16.7096,-29.4352,-28.5662,-189.6003,-75.6319,-17.4514
-73.3623,-110.1801,-118.1392,-217.6522,-41.1795,-93.3781,54.5947,9.3219,40.1817,-8.0366,-105.2949,-61.9531,-78.9203,-26.2064,24.0592,-36.7616,-168.6921,-36.5429,38.5687
-19.8434,-55.3937,-53.9655,-191.7839,27.8267,-70.3949,73.7387,74.0937,64.7724,74.2555,-16.6392,-95.3041,1.9911,-79.7493,120.1242,28.8683,-150.5639,31.0763,26.6664
-19.6690,8.0725,-38.0065,-116.9007,47.1191,-29.3678,41.1521,110.7307,87.9215,120.8819,55.2982,-70.7968,60.1862,-61.2472,142.5957,85.8111,-159.2460,72.4293,-2.4737
-44.4985,-3.1236,-35.5733,-67.8188,60.7577,28.4607,81.5914,97.3143,82.3465,104.0667,8.2607,-2.3706,23.3232,7.4834,63.8308,55.9903,-123.0474,106.6329,36.2393
-26.7157,-17.1955,10.5200,-0.3877,120.0502,104.6066,157.3054,65.2135,12.0935,-16.1261,-61.3779,42.1062,-25.2638,29.1483,12.7941,-61.5532,-25.1388,166.4637,65.5294
25.4282,14.0949,52.3275,79.6204,153.4557,156.2768,147.4339,35.1889,-26.1061,-117.3005,-39.1879,21.0818,44.3829,-29.9568,101.3147,-127.0365,3.5427,195.1092,20.0240
30.0383,1.9425,0.9380,58.3715,101.3130,142.7842,71.5286,31.7291,11.7266,-32.7695,32.8847,-51.4600,167.6586,-69.1742,220.6087,-31.4720,-93.9106,144.7934,-11.4444
-33.1070,-65.8289,-122.8658,-46.6229,35.3550,102.6770,43.1263,63.1823,58.2346,101.2211,35.6697,-108.7064,164.2650,-18.6846,206.0771,85.7149,-181.1884,91.6552,14.8836
-89.1995,-83.0292,-199.9686,-73.0163,26.1622,97.2227,79.2736,76.2721,109.2711,68.7729,-56.1246,-90.0400,48.4637,26.7795,123.2083,53.0399,-129.0540,110.0118,16.4892
-80.1146,-28.6877,-139.1047,22.8867,57.7524,104.9030,94.1951,19.8772,140.1121,-29.0834,-121.0903,-26.2017,4.3108,-7.7784,116.4249,-47.5406,21.8420,143.1842,-39.0788
-24.5169,20.9117,22.4518,119.1142,96.1197,72.8005,40.9712,-75.5782,53.5655,-29.5119,-58.7990,13.2522,65.3176,-30.0114,125.9666,-74.5547,137.9776,118.0918,-97.3756
24.7616,26.2145,142.5727,117.1474,108.3380,26.6601,-33.9890,-138.1873,-85.7302,-8.1136,36.8514,32.2019,91.5868,21.1315,59.1624,-59.1171,144.4570,60.7681,-125.6289
30.0967,7.6535,144.8577,33.0932,66.6297,11.0495,-73.9326,-144.5112,-123.2873,-43.7989,27.8270,51.1903,42.0524,46.1164,19.2717,-64.0798,71.3564,8.4758,-140.0141
-0.7506,7.0707,91.1923,-61.4694,-9.9001,-20.8429,-92.1359,-146.1261,-95.3157,-92.0022,-39.1452,29.3771,15.6898,-16.9091,89.4970,-72.1485,-22.0908,-66.4880,-184.0535
-26.3411,31.9076,32.2336,-127.0474,-84.6333,-131.8610,-130.1705,-198.9274,-89.7217,-152.9900,-52.3723,-30.9881,47.6574,-82.2935,150.0916,-75.4295,-107.2420,-178.3796,-269.4022
-40.9979,27.9997,-46.6668,-180.0477,-142.9299,-272.2932,-171.2785,-273.1303,-76.0890,-224.4959,-32.9734,-39.8478,59.0237,-73.7662,96.0405,-89.4883,-159.6519,-269.2077,-317.2063
-78.4952,-18.2446,-109.3001,-221.4289,-170.7669,-329.5806,-177.4579,-283.5434,-60.6941,-222.5191,-42.9336,27.4619,-1.5718,-23.4682,-7.7133,-106.5990,-158.0059,-273.2031,-266.5412
-124.3557,-33.5585,-104.9774,-207.0243,-168.8085,-267.6342,-180.4497,-206.9286,-70.1740,-145.7303,-71.1433,84.4815,-82.4286,-7.3657,-65.9033,-108.9696,-121.9971,-198.5099,-189.6301
-127.9716,1.8798,-74.6747,-140.5082,-158.5676,-161.2027,-224.4440,-110.9831,-42.4688,-94.9858,-87.3771,74.6144,-106.8370,-53.7949,-66.8503,-83.3704,-82.9370,-126.8460,-166.4705
-93.2750,17.9527,-58.0167,-99.0902,-130.7769,-104.0374,-265.4649,-73.2111,2.7766,-105.9541,-61.7461,20.8672,-72.2715,-90.7609,-53.2015,-41.3617,-46.8939,-127.1004,-163.9043
-47.7408,-10.0471,-34.0671,-121.4000,-81.3064,-106.5433,-246.0227,-97.4586,-32.6798,-143.0446,19.7769,-41.1589,-34.8535,-37.2800,-61.3889,-18.7753,-27.5738,-178.2409,-135.4846
7.7223,-37.8234,-26.1156,-162.3194,-65.3338,-119.3218,-194.4099,-102.9934,-76.1475,-144.8030,89.0142,-81.8728,-21.0093,37.2449,-70.2103,-9.5221,-46.2038,-216.4222,-95.8903
40.6584,-25.8330,-73.0153,-169.6745,-104.5131,-138.8416,-156.3907,-28.4082,-8.4850,-42.4866,86.1355,-87.0314,-15.9561,12.6397,-38.4467,16.3091,-89.6650,-233.1226,-64.5395
9.8923,30.8908,-130.0596,-142.8019,-149.8465,-192.7929,-133.3463,61.8143,80.4517,96.5626,71.6010,-85.4653,-18.1251,-56.0446,-3.2910,32.9460,-128.4296,-255.9082,-48.1957
-35.9473,69.9882,-152.3947,-125.6879,-184.8596,-247.4839,-120.6240,71.1929,62.4305,99.9400,88.6490,-102.4398,-37.5475,-50.1692,-31.3925,25.3395,-144.6340,-277.4784,-43.2586
-32.8241,15.1216,-155.3611,-150.7357,-216.5891,-258.5046,-98.7221,31.5872,-32.3705,-8.9286,74.3557,-116.1702,-67.3933,-26.6882,-89.9524,34.5300,-126.1946,-286.4963,-12.8061
-7.6238,-73.6787,-140.1778,-176.9681,-220.6226,-256.0414,-39.7285,31.6495,-119.3073,-49.1643,22.6273,-112.0482,-90.7788,-90.7965,-96.5065,44.1806,-85.0672,-300.1924,60.1849
6.8211,-70.3355,-106.7796,-139.6490,-211.3888,-265.1096,14.3750,62.0726,-141.7090,-27.4418,9.0054,-105.0771,-87.0833,-174.1142,-53.8317,7.3704,-54.3029,-303.7232,122.5728
14.8967,-12.5172,-86.5233,-66.6805,-223.0641,-246.0230,15.2503,71.1932,-81.6983,-60.6380,23.3166,-92.2473,-55.6398,-158.9518,-28.9168,-26.5888,-37.3153,-253.6996,133.6986
-18.2601,-33.8929,-75.4716,-40.8489,-206.3315,-185.6645,28.1239,72.8412,8.1253,-81.6755,2.3215,-67.4481,-37.5094,-79.9669,-32.9145,-12.0339,-16.6876,-166.1982,132.3426
-104.7232,-118.4427,-58.5304,-56.0008,-124.0551,-122.9826,108.3917,93.9211,72.3285,14.6140,-37.2172,-55.4257,-46.2561,-56.2135,-2.9674,5.8125,-4.2683,-95.5782,158.8063
-168.9470,-144.5051,-71.7390,-40.1523,-48.7639,-76.7395,178.3605,121.6961,107.2140,148.2121,-61.3112,-65.7305,-34.4057,-115.1778,80.2660,26.0012,-23.4651,-53.4327,191.1635
-187.8455,-101.6629,-118.1026,-0.1390,-29.0312,-47.2855,191.8073,157.4439,121.0222,214.8559,-88.0000,-79.8371,-4.9132,-163.4875,130.0515,83.3752,-75.5692,-37.0019,217.9614
-228.8934,-98.1884,-158.5946,-11.1508,-36.1216,-37.9802,219.9373,223.9331,154.7521,219.9832,-123.8602,-104.5463,-16.6529,-131.7263,93.4744,116.3301,-145.9327,-56.4655,283.5730
-296.3338,-184.6513,-217.8097,-76.7553,-64.5349,-35.2277,278.7573,301.6079,235.6058,185.6073,-148.1365,-146.2156,-33.2477,-94.7309,64.0308,79.3195,-201.5862,-79.2900,377.4345
-339.7556,-265.1657,-302.3760,-113.1968,-102.2712,-36.1838,295.7408,331.7842,259.5318,144.2227,-145.4857,-165.2945,23.8236,-140.7267,117.8211,42.7003,-211.6436,-55.6051,381.9238
-357.6557,-230.5950,-318.8627,-74.0640,-99.6596,-53.4266,243.6844,290.3042,159.3904,146.6128,-106.1797,-144.4038,94.9488,-189.8916,169.7577,37.7841,-193.4908,-1.2824,249.8201
-337.1969,-128.7908,-245.0982,-7.3989,-70.7661,-54.5268,146.5190,215.5363,77.1402,156.2725,-53.5690,-123.1287,93.4577,-136.4619,142.2761,26.2093,-178.4152,37.4397,111.2661
-250.4874,-84.4502,-176.1195,17.8109,-65.0580,-15.9617,47.1127,151.4211,87.1876,111.1162,-35.2902,-117.0938,81.3403,-64.2598,100.1764,22.1164,-155.8913,44.2680,76.6653
-164.9600,-101.1208,-138.6234,-9.2805,-65.5587,-7.0929,10.7511,96.4244,55.0104,76.1097,-38.1416,-105.2254,119.8596,-91.1056,102.0224,36.4540,-118.2711,13.9427,91.1906
-152.6595,-93.8873,-100.6643,-39.1823,-58.8395,-66.3230,34.9192,44.6369,-26.8731,116.1025,-15.8677,-87.8661,133.5823,-143.3673,103.2048,25.9347,-95.8726,-33.0312,81.5418
-155.1917,-46.4584,-85.8243,-23.4783,-69.2897,-103.3742,42.5639,31.9439,-8.8577,143.2254,12.4060,-63.6278,77.9245,-98.2648,62.7339,2.9242,-98.7763,-44.0454,64.1673
-114.1843,-10.7711,-85.4556,14.8616,-69.5079,-63.3573,35.8185,75.7577,67.8352,92.4072,25.7630,-18.0847,38.0884,0.2522,8.7718,11.9991,-98.6987,-26.9222,70.9903
-79.5112,-29.2410,-45.6543,2.3281,-35.8070,-21.8505,66.2325,125.6638,54.0478,52.1482,60.9047,15.2498,75.3749,29.2330,-4.3409,25.5240,-86.1094,-41.8349,111.9897
-80.1411,-91.9674,-8.0827,-62.2231,-22.3736,-26.1567,90.9760,144.4838,-3.1649,77.0032,98.8769,2.9937,131.8468,-14.8633,43.8354,23.0377,-77.2141,-61.2265,170.3889
-63.6996,-114.6235,-27.6988,-81.7600,-34.9784,-15.4479,83.6180,164.0248,4.8345,93.0311,73.1405,-0.3790,118.9046,-16.2589,93.8749,43.0516,-67.8471,-7.9797,193.1474
-7.1277,-39.3155,-27.7975,-18.6443,-0.2149,59.1117,131.2972,206.8102,44.5953,73.4416,31.8221,42.6778,34.8571,72.0201,66.1111,73.9201,-34.8453,82.5929,186.8686
37.3147,37.7235,47.6868,35.3508,82.3417,158.8192,251.2870,245.7671,76.0997,90.3014,68.5470,57.3694,-13.6816,126.6113,-2.1818,55.6910,13.7225,122.7822,237.2534
13.4767,3.2352,102.6888,16.5906,143.2222,211.7245,341.4251,266.3083,138.3507,140.5008,123.1117,1.6106,49.1363,43.8243,6.8719,-5.2666,27.8841,119.3010,326.8079
-61.1804,-73.4937,52.4981,-19.4271,154.7661,196.7457,363.7126,273.6444,216.9322,132.0479,75.9004,-41.1543,128.4836,-57.8361,100.5265,-35.3706,-14.3457,110.9906,331.5004
-106.1929,-75.1436,-44.9075,-22.9347,122.1862,165.4263,351.1682,254.8136,229.0907,90.9175,-36.4414,-13.2768,96.0549,-19.8210,158.4232,15.3803,-60.3387,82.6342,253.5328
-95.3000,-47.0437,-82.7973,-24.0846,71.3086,159.6876,308.1781,212.9009,169.6575,146.8045,-84.9322,29.5732,16.5054,81.9687,120.4743,99.5886,-57.5440,38.8540,203.8233
-89.7775,-78.8995,-37.1761,-40.8406,59.0627,152.8991,253.3121,183.1094,128.9837,253.3958,-36.8912,31.3136,39.6427,80.6386,68.9629,109.0554,-24.7939,29.6931,187.1216
-106.4309,-117.8230,8.3228,-35.5825,86.8094,125.6835,213.3840,164.9313,129.9059,212.8787,35.0066,9.9730,130.2104,4.8248,77.1732,39.9668,-3.7323,53.7226,139.6194
-94.7678,-76.1564,-31.8051,8.8418,82.0813,108.6102,155.4632,124.5203,88.2071,39.8872,55.0760,12.3066,124.0496,-3.5230,79.7796,7.0521,-7.2890,53.2053,73.0074
-65.8125,-5.2152,-122.6839,53.2700,31.5718,106.6947,77.8168,74.5272,5.6339,-52.8319,10.2276,56.7443,13.4244,60.8547,9.1142,24.9998,-26.2420,23.2332,29.1197
-72.6664,3.5993,-158.7466,63.3722,9.1833,95.3018,57.2056,48.9277,-5.1265,-40.6676,-42.0946,108.3022,-32.4786,74.5897,-45.9144,-7.0076,-21.6280,27.7215,14.6885
-92.5966,-0.9278,-99.4811,63.2167,57.8893,87.3655,102.2211,35.8498,39.9071,-55.0966,-35.6355,120.7388,62.0470,-9.7499,0.0212,-73.4880,40.2713,85.8574,27.5320
-72.2470,62.4067,7.6155,84.9734,138.2514,99.7713,135.8934,33.8780,21.0956,-67.5065,21.6319,105.0652,166.0603,-76.1946,50.2931,-65.1210,100.6464,125.8231,59.2923
-28.7071,101.2284,71.6140,79.2778,176.6122,104.8336,132.9386,83.2025,-26.9073,-9.4136,64.4717,89.2683,155.3572,-6.1714,20.2836,3.9266,64.7571,101.3389,91.0174
-21.0354,-0.9217,34.2335,-23.4704,143.0164,84.1214,109.7052,158.6809,-14.0144,24.2981,71.8130,46.0083,95.3969,120.5012,11.2419,40.9247,-42.8051,71.6847,104.4647
-64.6767,-124.8967,-36.4438,-155.6003,86.3410,57.1501,59.7287,165.0273,-5.9770,4.9288,84.3080,-42.6453,110.2283,121.2209,93.5283,41.1946,-119.4449,83.6802,74.8176
-100.2066,-97.8239,-38.7894,-180.3599,50.9334,38.3598,4.0116,93.4430,-43.1351,51.0753,112.8974,-115.6459,181.0764,5.7521,157.7454,57.1535,-146.8631,76.5991,6.2054
-74.2032,-0.8049,-21.3258,-128.2066,13.9906,26.9030,-12.0387,32.6279,-29.2111,128.6988,117.3755,-118.2936,202.2486,-20.1876,123.1497,98.1121,-172.3305,8.6678,-44.0392
-44.5668,-8.1612,-71.2972,-150.5582,-27.0952,19.2770,-1.5529,7.0173,29.6720,86.3492,96.1998,-80.1142,162.3818,113.9512,67.7603,112.8661,-193.7248,-46.4961,-59.8079
-81.3960,-94.1533,-114.8027,-241.7498,-27.6000,8.3245,-20.1376,-39.5028,25.9820,-21.1889,98.0913,-55.1213,139.6064,213.6341,78.6119,46.4986,-179.9127,-31.7759,-100.8302
-111.7895,-126.8314,-70.7584,-248.9410,-7.3567,-3.0865,-87.7348,-106.7979,-15.6779,-32.7016,121.8932,-49.8676,145.2726,117.3783,115.0395,-56.8629,-139.9361,0.1387,-179.5115
-57.3099,-70.9474,-24.1759,-130.9042,-34.3230,0.8135,-166.4738,-131.5125,-31.4422,15.9491,117.2798,-24.4032,102.5162,-33.4467,64.0107,-82.8349,-87.0613,0.9284,-232.4334
9.5329,25.4676,-34.0149,20.6751,-94.5190,29.6136,-201.4721,-112.1935,-83.8286,-28.9054,90.2596,53.6980,-1.1263,-4.8240,-82.7011,-35.8275,7.5682,-2.5575,-236.3899
31.1083,102.7493,-4.9795,150.6491,-127.0331,77.8029,-206.0930,-123.1653,-203.7777,-175.5410,85.4963,141.3234,-73.6737,136.3695,-182.5551,-37.6174,148.7950,4.1599,-232.1564
58.8511,132.2780,106.6355,244.9738,-136.9844,113.1205,-254.4561,-181.8143,-279.4269,-257.8491,89.5305,156.9971,-77.4601,130.6060,-169.0675,-100.1919,253.0890,-7.7027,-243.5550
83.5413,140.8552,191.4110,265.3998,-161.4110,98.0595,-328.3595,-201.6968,-219.4818,-170.2859,64.5268,114.6005,-85.9759,1.0319,-164.6663,-109.1545,242.8097,-36.5271,-251.4793
54.7205,143.1749,173.1835,212.8081,-190.1355,57.9594,-324.5621,-146.2274,-86.7478,-60.8860,29.6978,109.1285,-133.3957,20.0866,-229.5076,-40.6078,173.9815,-53.2403,-243.2052
45.6856,117.2831,137.3872,154.0717,-184.0233,42.7568,-270.8798,-127.0671,-41.3916,-112.2829,32.4127,144.5972,-155.4158,193.3730,-255.5825,-2.0496,163.6992,-67.9329,-252.9662
129.5041,102.7533,201.0088,125.4098,-141.4673,15.8351,-297.1435,-226.2861,-159.7774,-222.1306,80.8994,121.6715,-115.8027,235.4659,-209.1906,-58.9148,217.7376,-99.1726,-313.2658
222.1002,159.0987,304.3340,107.0451,-121.1138,-64.1673,-375.6140,-332.4133,-308.7105,-216.7962,122.9321,16.1138,-66.4924,71.5750,-173.9987,-141.1890,239.5415,-113.1950,-372.4183
233.1509,222.9815,255.3436,88.2039,-169.9418,-110.8552,-364.9897,-310.5544,-306.7024,-159.0124,80.6772,-71.1721,-74.9422,-66.5736,-166.5537,-139.0619,176.7683,-89.4527,-352.6526
194.1495,213.1495,44.6085,69.0128,-243.4321,-59.2264,-271.5164,-214.6184,-174.2633,-116.7803,-38.3293,-58.4636,-150.4034,-30.9456,-164.6073,-53.2517,72.2677,-83.2517,-279.4758
173.3450,195.0222,-84.9572,38.8053,-266.0883,-13.2921,-211.6718,-177.6203,-69.2005,-42.0028,-97.8967,17.4666,-215.8186,72.1515,-175.6961,-3.2621,-0.7824,-123.8264,-238.6317
204.3236,242.8275,-18.9752,4.8953,-238.1682,-58.1345,-205.2567,-210.4835,-66.5122,-41.4498,-13.4258,56.0845,-187.3378,67.2152,-162.7589,-64.5187,-17.3097,-146.8456,-243.9368
261.4475,288.9854,50.0282,-14.3058,-204.9897,-119.3728,-192.0987,-226.6673,-118.2598,-188.7107,104.7397,13.7528,-111.3277,-68.4426,-110.3730,-155.7024,-20.4580,-123.6793,-240.4135
270.7113,256.5058,-29.8933,-35.3037,-185.3078,-135.0916,-147.7102,-183.6740,-125.8975,-218.8397,116.8683,-43.2012,-95.5697,-150.0180,-91.4317,-143.3745,-52.4992,-130.6925,-193.2331
225.3153,175.2404,-152.9040,-88.7552,-188.5218,-152.3370,-93.9964,-139.7667,-48.4559,-37.3326,44.8964,-34.2590,-113.1780,-28.3078,-95.2754,-35.4678,-96.8730,-207.9668,-141.3840
206.8004,103.9548,-187.1199,-164.4646,-220.2039,-201.7461,-75.5410,-178.0092,11.3604,-11.6408,-6.7421,8.7085,-71.9658,136.6137,-32.2097,3.9158,-120.8123,-281.5626,-157.2822
230.7469,71.7846,-144.4504,-214.7075,-248.5105,-249.0285,-112.1371,-274.6733,-46.9781,-238.2382,3.1776,-4.3939,-19.7948,94.6359,31.6557,-106.7530,-110.3233,-276.0502,-218.7010
239.1582,86.8742,-82.1242,-194.6865,-232.4637,-252.3441,-146.5865,-313.9439,-133.3490,-326.2042,47.1032,-57.7998,-59.6084,-71.5661,-29.8695,-210.3989,-49.4939,-197.4044,-215.7324
241.6503,122.8728,-21.9545,-107.1230,-171.8490,-189.9001,-129.8298,-263.7632,-123.5274,-186.1249,76.4745,-46.6463,-151.1396,-90.4781,-150.1717,-157.3066,49.0617,-103.0382,-145.3421
274.3983,144.2988,44.2991,-20.1286,-100.7975,-99.2395,-129.4199,-214.8764,-72.6057,-130.5942,65.9156,35.9949,-181.2921,29.3812,-196.7119,-64.6669,125.3889,-49.1362,-121.2255
300.8950,167.6527,129.1819,15.1862,-51.3451,-62.4985,-215.6222,-225.1683,-75.8484,-202.4472,43.7729,73.6826,-138.6443,40.8776,-170.4697,-90.1017,159.2590,-29.1244,-169.8460
299.5850,231.4898,195.7498,52.0900,-20.1888,-75.5860,-309.9978,-254.9700,-101.1624,-186.0799,38.5196,21.2095,-107.5926,-107.1224,-130.9418,-146.2885,196.2602,29.3379,-223.8871
311.7223,310.7996,193.5985,152.9463,22.0331,-40.6254,-299.2231,-245.6593,-98.4518,-58.0406,27.5183,-18.2075,-139.8999,-190.2759,-115.8608,-92.2611,256.6976,145.7418,-246.9971
335.5500,332.2273,175.0329,255.3985,75.1056,63.9400,-209.7265,-183.6999,-89.2416,48.3246,9.3328,33.8010,-175.7546,-66.6248,-128.9109,18.7133,315.1228,232.8456,-212.8506
327.2290,281.5393,229.1592,267.0266,108.2223,153.1478,-135.9997,-122.5413,-76.0624,32.4273,37.1182,109.0214,-124.4749,99.6165,-106.6080,57.8806,347.8091,228.5897,-122.3054
303.7061,237.3441,314.9812,226.3928,119.2583,179.8924,-87.3838,-119.0708,-16.3876,-98.9502,106.8259,115.1187,-17.7077,75.2925,-16.8337,-4.4795,342.0406,187.1656,-58.1941
309.9889,266.2411,334.6478,233.5215,126.7564,173.2734,-17.8337,-119.5576,69.0998,-149.0781,133.1945,73.6360,28.8335,-89.4975,48.4555,-84.4495,313.4728,179.8198,-43.2597
326.6114,327.2828,299.5246,284.6892,123.0849,162.9294,59.8017,-41.3195,84.3215,15.3613,91.5191,60.3640,3.9003,-131.5306,34.4679,-58.6706,294.6003,193.0903,-0.3005
304.2129,324.5963,258.8571,284.7897,96.2426,153.0526,85.0816,48.2885,21.0212,148.4006,50.6919,80.0243,2.4606,24.9099,30.1213,56.9913,256.6038,172.1302,41.9706
233.4846,226.6425,180.8208,185.8723,52.6901,128.3751,50.0697,35.8752,8.4349,20.7480,37.4466,72.1873,58.1819,156.6005,98.3710,81.2414,150.4951,107.4627,-7.7441
137.5466,101.1927,46.5511,54.7743,0.5066,70.9468,14.1638,-37.5757,89.1851,-133.2209,9.2079,14.5599,107.5518,83.9368,174.9341,-17.8648,35.3533,39.2014,-81.0969
58.1809,36.1514,-61.0720,-11.0664,-38.4736,10.3067,10.4780,-75.2560,115.6234,-57.9483,-28.9324,-41.6521,95.0004,-64.9880,175.7515,-41.7742,-1.2009,-4.6328,-77.5251
44.6592,32.3781,-72.6959,-23.3854,-37.8429,0.9735,-5.4931,-79.8540,8.0979,74.1623,-17.8233,-47.2545,46.8455,-55.3702,97.8919,52.7702,0.8657,-34.9783,-53.9799
86.3336,15.7210,-33.9207,-71.9348,-17.5737,24.5888,-77.6116,-87.8449,-99.5343,53.1850,45.7771,-15.3322,41.8557,94.6442,23.4704,78.2669,-33.9253,-63.7333,-78.9996
99.6663,-30.7333,-21.4744,-141.5956,-13.0533,15.2683,-162.3698,-107.0658,-93.1986,-26.9447,98.5787,8.4729,87.2661,142.1224,8.1493,-3.0231,-76.7113,-77.3350,-121.2929
53.7128,-46.4166,-36.8664,-124.7220,-8.4017,-14.3033,-174.4137,-130.2464,-31.6793,-49.6859,97.1470,-6.4142,86.8091,11.0579,-10.4270,-42.9556,-72.7386,-54.6415,-135.0422
17.3994,-24.5418,-34.0058,-32.3089,20.7153,6.4342,-102.9560,-107.4820,-5.6911,-47.1827,53.0393,-50.0587,15.7917,-82.8094,-61.9748,-4.7674,-43.7540,7.4464,-93.6462
16.0952,-21.7909,-5.7402,13.9596,52.3358,74.4055,-33.9867,-10.2072,-18.7072,-16.1823,11.4294,-62.3481,-14.8300,8.1681,-39.5624,46.9584,-45.5848,74.0458,-25.9123
-5.2729,-40.0785,9.7466,-7.5657,66.4365,119.4460,-30.7954,70.4176,-12.9210,77.0034,15.1195,-2.9488,37.4832,138.5559,62.8947,97.8845,-83.0471,91.1489,-12.1363
-25.8267,-41.8166,4.8886,-15.3434,81.7280,114.0805,-32.8548,50.1998,42.7215,133.2814,55.5475,62.2747,76.1967,132.1462,74.7312,116.7659,-82.4868,56.0758,-19.9878
45.2559,-27.9486,36.6210,26.6470,120.0786,89.4328,38.4883,-15.2589,84.4739,45.2323,85.7629,59.7322,51.3580,32.9784,-28.6300,53.1984,21.4543,28.6579,50.4992
182.0666,-3.9118,146.2461,105.1115,176.3154,80.8187,113.8895,-52.6629,53.0506,-84.6370,98.3383,51.0370,16.1705,-14.3878,-75.1687,-27.3265,164.6144,46.5156,125.6178
251.4718,24.3822,272.3067,197.3743,210.0347,98.8804,78.9822,-62.5633,14.1780,-92.5384,116.8566,107.6389,8.2353,30.0072,-21.2546,-22.3397,223.0517,86.6143,93.8332
199.6565,14.5002,311.6606,249.0787,173.6878,111.6765,-3.0858,-50.1551,27.6086,-21.2211,123.7765,146.9081,17.4616,76.4443,26.8185,26.5145,189.7646,105.6916,40.5866
96.6759,-26.0226,259.7364,224.7607,80.6429,65.9434,0.4834,-33.8038,44.6199,-2.4989,87.2764,88.5854,16.8338,30.5683,39.8277,14.6109,142.8342,66.6080,32.5008
22.8197,-27.0300,201.5169,157.0355,-0.3740,-35.2361,36.4095,-61.5301,52.1534,-22.1489,20.5375,19.0635,-13.1861,-59.9598,45.5360,-41.6002,104.3595,-30.7987,-10.0189
-35.8730,-33.8770,168.7107,72.9768,-33.6466,-128.2071,-17.6007,-120.1827,66.9064,-41.3422,-42.3218,24.2289,-36.9898,-54.1259,38.4204,-60.1262,60.4323,-128.3809,-65.1000
-166.3588,-177.5800,114.3730,-27.9397,-40.7102,-181.4066,-105.4363,-159.1355,7.8066,-124.4119,-73.4546,40.6295,-17.4650,39.6185,23.7699,-60.4077,23.2704,-183.3108,-47.8138
-355.8846,-396.8622,27.1648,-109.2611,-54.7778,-216.2025,-118.9248,-188.0260,-124.6797,-235.8899,-64.5179,-4.3259,-16.3216,40.6001,-0.3172,-115.6225,2.5191,-215.3136,-25.9955
-442.1490,-473.0432,-41.8650,-140.5705,-92.8774,-246.4677,-92.9839,-209.7011,-145.4714,-221.7591,-62.6119,-76.5055,-84.9591,-101.5396,-51.1239,-184.0815,-6.6384,-229.3146,-45.2515
-369.9948,-384.8084,-66.2356,-162.9095,-131.9526,-270.3624,-82.1915,-176.3931,-10.7794,-105.4041,-111.9326,-121.5610,-135.0613,-197.7797,-68.1678,-155.6163,-19.4059,-205.1340,-15.7008
-301.8756,-344.0249,-71.1589,-219.4462,-119.4701,-287.2135,-55.4773,-105.4871,97.8745,-37.4397,-158.4483,-146.6880,-91.3308,-118.5172,9.4059,-39.8825,-68.7852,-180.0602,55.5408
-325.0540,-440.4878,-88.2216,-301.6013,-59.7017,-295.0820,-9.1632,-77.8647,113.3462,-0.6193,-146.8792,-189.3706,-32.2075,0.5212,80.4633,39.9316,-143.0767,-200.7794,76.9987
-321.8281,-502.3484,-119.9794,-373.8857,-21.7396,-311.0671,19.7004,-109.4408,120.6023,65.0378,-132.7822,-240.3104,-46.0885,-21.7907,27.0412,11.0655,-161.4970,-226.0883,69.8184
-236.8095,-396.5188,-121.8390,-375.1375,-20.9735,-342.3427,39.7307,-150.9173,134.0218,56.1986,-161.4623,-232.5011,-105.9456,-137.3530,-65.7032,-79.7362,-102.1434,-195.6199,74.6691
-179.9849,-265.2011,-52.7246,-279.2321,-9.5408,-320.4472,59.5526,-154.7071,134.2188,-60.4671,-189.9771,-159.9259,-144.5258,-168.7572,-52.2577,-119.6510,-50.7740,-123.4146,78.5913
-212.2761,-289.9846,26.5384,-184.1671,7.0709,-201.1479,69.0059,-93.2905,136.2850,-115.2561,-201.0655,-128.0917,-131.5641,-95.8816,33.3818,-56.8072,-61.1417,-61.2437,123.8806
-258.5788,-377.4062,12.7050,-185.6801,-15.6041,-93.5446,114.1389,11.3099,123.6488,-22.8485,-206.0120,-176.8984,-91.5942,-61.0803,55.7558,11.4395,-94.1372,-37.9416,222.1415
-237.0681,-321.5393,-63.3131,-203.5706,-52.6953,-93.9064,213.4346,109.9075,112.2005,109.8930,-169.8950,-190.1847,-84.8370,-116.2428,-2.6238,-6.8794,-105.7203,-31.6261,271.0445
-158.4297,-144.5493,-82.3276,-122.2629,-49.2008,-105.1461,257.5889,198.4980,150.0788,190.3060,-101.1638,-101.0698,-114.8809,-151.9382,-40.8755,-20.9678,-91.3297,10.6190,244.0434
-104.2899,-25.2202,-46.9878,-4.0056,-23.1721,-32.6624,185.6492,274.9355,158.9173,205.1872,-80.0803,-6.4125,-114.4460,-90.0536,-22.4298,59.7170,-68.1125,75.9588,227.4340
-110.6176,-23.7649,-46.0688,21.5045,-19.5347,33.0794,119.5526,293.9122,66.4898,169.6414,-109.6937,7.5333,-77.4066,6.5458,-22.6100,131.2110,-53.7603,81.3665,235.3648
-113.8161,-68.9042,-64.9237,-37.9247,-24.1062,6.1491,151.4688,263.3080,4.3985,140.8935,-124.6219,-34.1659,-67.8147,38.0859,-66.0365,104.0135,-40.6183,19.6425,223.7889
-80.5836,-88.5036,-42.4582,-86.5672,-14.8664,-53.8267,186.3287,250.4873,51.5472,166.0140,-120.4031,-90.5835,-70.4291,-3.8974,-63.1635,67.9991,-23.0976,-30.7583,198.1593
-71.6290,-69.1665,-26.3641,-97.6937,-22.4780,-82.0317,144.8050,263.4422,84.4559,223.4225,-109.2379,-145.1472,-10.6790,-31.5353,24.0281,104.2899,-37.8808,-49.9389,186.2914
-102.8081,-66.9577,-85.1398,-113.7686,-58.5543,-76.1630,125.0357,278.0618,97.9632,279.1864,-74.1891,-173.6139,81.5042,19.8421,106.4603,171.4518,-91.1997,-65.0565,215.5161
-113.0109,-115.4385,-164.3217,-135.1442,-65.5095,-36.1178,215.9636,309.0851,201.7353,290.6988,-43.0343,-161.9796,109.5444,89.8385,122.9309,196.5959,-107.0007,-54.1019,276.2232
-85.9005,-134.9174,-162.0173,-103.8493,-13.7366,16.0248,320.2630,334.7725,269.2783,195.5593,-48.2744,-126.2802,79.3820,80.2200,117.6312,138.5235,-46.8236,1.3584,279.8885
-40.4003,-69.6418,-68.4007,-13.0766,41.7974,47.2059,321.6672,307.3678,139.8536,44.3440,-54.5777,-96.1540,75.4100,16.1134,128.2787,58.2868,23.7299,69.0375,211.2695
26.7202,-2.4618,31.7522,62.4874,65.2243,85.5749,286.5149,274.3223,-0.4529,-1.6098,-41.8660,-86.5209,114.5143,5.1201,132.5341,84.5760,55.6378,124.1691,202.9563
79.9899,6.3498,51.3335,83.2520,84.7079,149.7833,313.3443,296.0989,49.3381,87.1133,-35.1650,-69.3955,139.5395,56.8161,110.8041,169.6200,72.5196,153.0205,279.4493
75.0398,11.0017,2.1873,93.8716,97.5048,179.7666,324.3795,307.0613,134.5022,174.6745,-24.5209,-9.0363,115.9203,69.2908,74.6051,133.2627,96.6756,147.0966,288.3938
68.5643,51.3287,-5.0423,134.8555,72.4070,161.8175,226.0172,244.6017,92.8152,181.8471,7.0665,66.0029,63.1002,3.7171,43.7873,27.5778,135.8233,147.2575,196.8029
128.7227,120.2163,81.1663,198.3849,48.7739,169.3119,116.7472,186.6341,28.1033,142.4640,44.6321,107.4049,25.5208,-33.1144,29.8456,49.9728,196.8178,182.4877,135.2478
197.2948,195.3875,160.4007,254.6526,77.1603,207.3069,114.0817,212.5704,17.1541,115.2826,88.7101,129.8153,32.1347,48.9491,26.2899,151.2653,239.2194,201.9400,146.9211
183.8818,202.5002,134.9911,269.5145,105.7758,206.9293,154.3905,269.3629,0.6165,152.1520,119.2615,153.1996,57.8422,152.8474,21.5212,170.4879,215.8366,190.9333,165.1529
110.8419,128.1885,68.9260,251.6848,86.4694,181.8157,147.7743,278.6008,1.0096,231.7878,88.7195,152.7104,61.0647,136.5404,24.4617,150.0289,181.6772,221.6920,160.7749
81.0583,123.3669,90.1452,261.1634,93.6151,202.3703,133.9835,257.3706,54.3225,247.5888,53.1713,139.6068,62.1241,66.2688,44.1049,171.9884,222.5747,293.4774,152.7279
157.3347,260.8046,203.0889,301.2457,176.3855,250.9969,158.6374,250.8815,65.4011,174.6932,113.1659,163.5111,94.5704,102.4726,62.6047,183.6260,295.6889,307.5646,154.1592
287.1732,379.2727,282.6274,294.3934,231.3824,253.2451,179.5272,231.4372,10.0763,106.8316,208.0357,204.5856,114.5518,198.8451,66.1737,150.5312,288.8154,241.8600,146.2332
343.1486,356.6484,233.8953,212.8410,174.2220,199.7270,161.1859,158.4404,1.5564,81.6346,219.7838,197.8970,86.5008,186.7937,63.6553,101.2550,194.1440,175.0412,93.9167
277.9454,270.2386,115.4605,116.0796,89.3988,139.2211,130.0036,76.9400,34.5031,65.3852,184.9600,150.1768,76.5651,79.4229,62.3988,48.3339,98.5723,150.3409,22.1582
193.8378,210.9421,60.1186,60.6601,74.8969,99.3615,115.9278,42.7834,12.5009,57.4855,180.5382,118.0971,124.3499,25.8242,76.7699,26.9409,48.3295,135.3463,-7.0270
190.3516,186.9814,76.0560,54.0298,81.3631,72.3786,109.7344,19.4642,-18.5409,53.4225,180.5261,109.2154,151.4976,56.9128,123.9962,60.1001,9.6175,85.6644,-13.0630
218.5764,172.0056,39.9997,48.1976,25.0790,48.4801,89.4948,-34.7404,11.7352,34.2992,152.1347,88.0891,104.6893,85.8247,155.0142,79.8443,-61.7354,4.2376,-44.4419
175.1039,121.0035,-86.0938,-13.5305,-64.5865,27.2684,63.5853,-78.7238,48.1340,33.0975,100.2825,51.2663,37.2722,69.1464,94.4509,45.8474,-147.9303,-50.0666,-65.4891
72.1934,45.0554,-193.6715,-86.4397,-110.1905,12.5599,56.8456,-68.1577,74.1716,67.6424,19.6434,35.6006,7.2976,39.9151,4.0603,24.6071,-184.4622,-37.6674,-37.9294
4.2593,24.9970,-220.3405,-81.7981,-108.5388,10.9996,61.9214,-4.0078,117.1730,95.7378,-64.7965,48.2683,20.9000,38.6172,18.9091,59.3721,-167.8446,-8.5228,7.1827
-8.6334,53.9793,-224.9288,-41.9984,-118.6098,10.1663,49.9065,91.3330,89.0247,107.1684,-103.3035,46.6071,46.5109,59.0004,90.8293,109.8078,-170.7281,-38.8398,34.2471
-15.9812,49.7373,-238.3072,-51.1160,-169.3575,-32.8418,9.3865,137.9713,-39.6917,101.2584,-92.6446,19.3338,34.9699,54.2460,63.9484,117.6733,-194.3059,-122.4959,9.0993
-25.3837,31.6238,-211.2694,-57.6161,-213.3918,-123.8520,-61.7561,54.8198,-110.2930,47.6636,-42.0952,11.3416,-0.5515,8.7746,-18.1939,59.1366,-153.6090,-180.2297,-89.9764
-27.2565,51.1124,-129.8546,-11.0491,-183.7430,-185.6606,-151.8876,-82.4125,-75.2912,3.8264,38.8434,32.6459,14.6817,-23.3409,-7.4201,-6.3493,-65.4165,-168.5385,-188.6347
-52.5680,49.2193,-50.8426,7.5292,-104.7163,-169.1629,-220.7544,-133.6663,-66.1042,45.2491,71.6813,38.8177,55.9455,11.7039,38.3363,5.6577,-42.5589,-144.1025,-201.1386
-101.2011,-22.3963,-22.3390,-42.6511,-80.1139,-147.1721,-250.3449,-123.6354,-79.1510,72.3256,0.3336,15.9596,12.4480,91.8612,-17.8862,57.9763,-76.1056,-177.6525,-171.3583
-120.6158,-96.1253,-35.9195,-87.9043,-122.7252,-185.8793,-254.2233,-150.2169,-20.9926,-3.4329,-74.2034,-8.6292,-82.5578,141.9740,-104.5714,61.0451,-60.4612,-221.8016,-160.3507
-97.1709,-94.1686,-40.2896,-88.9831,-115.1842,-217.0005,-217.2048,-178.9011,29.0019,-61.7175,-35.5071,-15.0494,-78.8066,120.8688,-87.7560,31.2592,-6.2379,-167.5342,-137.5891
-53.8088,-18.0625,2.8098,-66.0899,-12.3906,-156.0067,-142.8593,-140.4706,-26.4648,-37.6728,60.6366,8.5258,22.5385,76.4452,-15.0784,6.0789,-2.9105,-23.7709,-94.5650
-3.5651,49.7989,52.0224,-45.0927,74.7688,-47.3279,-102.5527,-74.4955,-101.7232,-40.1795,82.9887,43.3288,71.3163,78.7078,7.9599,-30.2247,-53.2092,85.2520,-68.9682
16.4794,24.9570,22.9655,-73.3281,68.2949,5.2392,-109.5404,-40.5569,-101.6454,-69.4935,6.4172,20.2065,14.9094,98.0951,-7.7446,-44.7726,-103.4757,88.6600,-52.9617
-16.5471,-41.1173,-77.1170,-140.6264,30.8618,-23.6886,-94.6256,-38.3952,-50.3032,-20.8910,-78.6852,-73.2923,-43.7676,48.9266,-8.7615,-4.7128,-120.4187,41.0166,-40.7251
-52.0698,-36.3408,-134.9022,-130.9793,38.4405,-66.3840,-74.7932,-52.6936,0.2679,66.4339,-79.1157,-123.3363,-14.7253,-38.1311,2.8381,24.2622,-81.2346,45.8973,-62.5048
-68.8833,-0.7285,-89.2706,-8.3590,89.2153,-46.3830,-109.7623,-68.7828,17.3039,84.3832,-1.5375,-37.5754,58.8824,-33.5740,-0.2941,9.7984,-1.6169,130.9709,-95.0924
-96.4486,-21.0129,-7.0550,107.9873,148.3927,32.5192,-127.2120,-75.7648,3.2002,14.4415,64.0453,115.3169,73.5704,76.9863,-19.8445,-6.8850,61.5524,196.9028,-93.5367
-77.5073,-35.0740,36.9122,141.5250,176.2141,86.9794,-70.1368,-93.8545,-13.0231,-108.1913,65.5561,198.1685,17.2800,155.6027,-35.6180,-47.7770,96.8748,153.6866,-88.1911
45.1511,4.8946,56.9036,129.0784,140.1247,65.4616,-63.1464,-140.6436,-56.3856,-199.5219,34.6087,173.4615,-35.4984,128.0549,-42.9415,-116.1902,131.1869,60.7680,-111.7513
153.9777,15.5965,83.3744,103.9984,59.8784,12.6254,-172.2669,-192.2881,-138.4076,-191.0260,11.2869,125.1283,-63.6840,84.3259,-54.9699,-108.2200,143.4892,3.0967,-126.0514
132.3363,-18.6236,80.1195,75.4941,-9.2151,-18.8773,-242.1523,-222.4471,-137.3440,-164.7919,-2.4158,132.9273,-99.0299,109.7957,-62.6473,-30.3210,98.9158,-54.9326,-100.4999
54.5796,-35.3858,6.5013,41.5190,-53.2326,-49.5665,-165.9817,-230.6307,13.2372,-199.3417,-20.0534,160.4525,-118.0264,155.7829,-48.4485,-36.6419,16.9088,-148.6796,-58.0986
10.9358,-65.2906,-95.9709,-31.9326,-103.3395,-110.2846,-57.8444,-224.2950,146.0273,-204.0117,-41.7413,116.1357,-85.3522,143.7653,-24.5357,-134.3843,-57.8718,-216.5818,-35.4068
-16.5743,-125.0415,-146.6898,-125.9914,-165.2970,-164.8056,-44.0156,-211.8903,104.5640,-132.5475,-39.9988,13.6065,-42.8137,83.2189,1.1981,-168.7475,-88.5407,-219.6613,-53.5785
-33.1215,-120.3374,-122.2230,-146.7398,-198.6392,-160.4897,-91.1966,-194.2585,-30.3738,-80.0555,-3.9617,-31.7894,-44.2150,33.5244,22.8560,-103.7815,-70.0959,-187.4344,-90.6249
-20.6321,-49.6446,-71.7762,-96.8180,-177.3265,-114.9894,-95.9282,-157.2287,-100.2332,-75.3259,7.9923,21.1316,-77.2090,35.0738,-5.9110,-55.9345,-54.2615,-141.9629,-88.9964
0.2073,-26.1012,-55.0765,-84.6601,-128.3421,-82.7820,-28.2779,-97.9525,-60.5595,-88.1696,-46.0341,81.4496,-88.7029,78.7848,-73.9382,-95.7058,-66.7416,-93.8210,-34.3331
30.7214,-36.2470,-70.5258,-107.8298,-80.1871,-57.5164,42.3694,-40.9061,15.2326,-138.6881,-87.5738,69.7352,-36.7222,95.3153,-65.2364,-154.3918,-43.1457,-36.2379,17.4629
86.1134,17.5718,-52.0291,-63.8743,-15.4447,10.8365,42.6073,-16.3594,15.7254,-192.9279,-24.7611,20.3570,58.3301,51.6750,28.9248,-123.1954,40.1489,67.9014,16.1857
116.3801,80.8743,23.9520,24.7265,73.1836,107.2053,-14.2972,-33.2913,-81.0906,-183.2192,95.8776,4.7485,115.3478,39.7310,53.3364,-35.1009,91.8792,181.7454,-24.7665
82.5193,43.1588,75.7417,41.7549,132.1645,151.3683,-66.6108,-62.4572,-174.5442,-139.5320,165.5415,34.4653,97.8648,110.0036,-27.9030,-34.0387,67.1518,197.4906,-59.0845
47.1003,-13.7392,55.2463,2.9749,122.9428,114.8948,-84.8570,-66.5179,-181.8337,-90.0352,172.1078,81.2318,60.8365,134.0137,-71.6305,-107.2061,45.6629,132.8553,-73.6585
82.1469,64.2712,51.5504,29.3513,86.4096,57.1473,-77.0559,-57.6673,-113.2038,-19.6905,179.0997,117.9118,52.0896,47.8505,-35.4594,-101.0221,86.7959,112.3499,-90.1565
160.5357,205.4482,125.3392,131.5486,72.9794,43.9965,-68.2988,-61.0939,-18.9415,17.8402,201.6507,114.7055,54.6995,13.2349,-23.7299,-30.9946,155.4451,146.4004,-94.2454
200.6932,217.8786,193.2758,210.5997,81.7300,88.3841,-79.3732,-52.8959,33.1758,-0.9944,192.6961,77.5387,36.1683,110.5538,-70.7612,-33.3784,204.2760,160.5122,-51.4412
191.5865,138.9023,204.2195,235.1348,97.3319,149.7701,-91.3744,-35.4378,8.4202,-8.9289,141.0521,75.1212,-6.1834,171.2899,-106.0838,-79.4538,226.0567,147.5408,-7.9933
206.4425,152.8074,224.4410,250.2267,113.0749,164.2503,-67.5012,-65.9321,-31.6801,-13.9479,107.8151,134.8602,-32.2609,98.1170,-80.2187,-73.1849,231.6400,123.6912,-30.4931
243.7629,233.0784,256.5754,252.4279,113.3024,118.2349,-15.6979,-104.3838,-27.1749,-36.9233,123.6348,180.4730,-9.4376,24.4753,-16.1922,-47.3629,215.1482,101.5831,-65.2091
194.5178,227.0688,216.6792,206.8539,91.8472,85.4662,24.5168,-28.3628,-5.6599,3.2261,124.6326,157.3501,14.7690,51.7455,22.9166,-32.2744,161.9520,139.5189,-25.3231
75.2089,157.1569,130.0699,135.4152,77.4112,125.6196,47.4335,123.4187,10.8729,78.8819,67.1947,100.1189,-10.8731,108.0182,15.3448,4.8312,111.2425,228.8892,65.0935
55.4711,115.7032,110.4335,79.2681,101.8011,182.1230,88.1274,173.9315,37.5187,71.8687,13.3901,37.7293,-30.3368,94.0702,15.1217,22.8495,139.2366,253.3226,144.2589
157.3877,98.1219,168.8556,52.1537,154.6620,173.6007,165.3181,97.5179,69.6586,56.5433,16.5180,-17.2506,20.1451,8.4434,65.5075,-13.8150,232.2778,206.4481,189.4335
228.1066,122.0557,230.2470,69.2756,192.1473,135.2068,234.7505,28.8696,117.8713,117.6913,41.2301,-19.4332,103.0874,-50.4076,143.5401,-18.7099,286.2117,209.9358,175.2569
222.0140,202.7056,255.6582,118.3856,190.3260,147.9357,231.3723,19.5651,181.6485,115.2217,70.3657,30.6988,168.5810,0.7518,198.3699,35.4561,265.7431,258.6949,108.4729
212.7047,235.0245,238.7673,132.8198,169.0271,179.8108,162.6563,5.4703,172.3963,-12.9674,132.7814,56.9077,202.5346,79.8793,177.9271,33.7011,233.2581,240.0368,49.2162
212.4096,184.1814,188.4674,86.9465,145.1141,141.2517,89.6156,-48.2582,59.7069,-127.4449,174.9611,30.7394,181.8143,40.9608,93.0231,-50.5873,218.7414,167.4189,2.0103
197.1801,159.9646,147.8617,39.3966,106.6090,56.2205,29.6449,-105.5446,-24.2225,-156.9220,112.1111,0.1484,134.1232,-61.0181,57.5986,-88.6093,190.5174,132.0359,-63.4650
171.8271,157.2716,142.2129,32.8409,60.8919,21.2348,-20.4396,-112.0585,-24.1566,-112.4518,24.9144,-1.4369,135.1688,-42.6527,109.8911,-20.2972,137.5107,123.5459,-92.1012
132.3188,88.4597,141.5070,46.0374,32.9688,28.7114,-31.0180,-63.7072,-68.5404,-38.8759,59.8867,19.8468,157.8194,81.6289,113.5838,60.0558,93.3395,78.4432,-45.7196
93.5915,19.6015,130.6792,48.9199,3.5633,-4.8820,-10.7287,-35.0089,-187.1218,-60.5312,162.6538,27.5785,116.0604,117.8880,15.2371,59.6474,94.4564,-2.1893,-9.8535
99.3145,21.1546,147.6603,43.4526,-51.7829,-66.0003,-19.1799,-72.6322,-212.6986,-123.3613,176.1167,-12.3803,44.2186,19.7990,-50.5207,-4.3857,138.8188,-60.2548,-28.7687
139.1057,26.7710,212.7699,66.9332,-87.4950,-58.7159,-52.2853,-98.5463,-74.4800,-9.3205,124.0698,-44.7544,24.5731,-50.2121,-31.2850,-57.9694,181.0961,-41.8445,-32.1632
164.6956,38.8294,268.8143,140.4539,-62.3065,30.7627,-53.9672,-45.0171,53.0236,128.5117,129.5558,13.6832,36.4763,8.9699,-17.7853,-66.0568,182.2003,37.5990,-10.9492
161.0842,120.6565,233.5060,210.3591,-21.9238,116.4756,-36.6845,2.1546,1.6900,-31.6190,168.1591,106.1100,25.1664,100.9492,-33.8190,-54.9482,153.1513,95.1717,-32.3019
126.2560,193.6983,127.1989,225.2697,-10.0347,143.4910,-48.5161,-46.2369,-127.9127,-265.2847,139.8718,127.5874,-6.6253,112.5397,-37.1972,-54.6996,131.3076,98.6763,-80.7796
68.0263,168.7721,79.6533,226.2371,-0.0978,140.4615,-68.3382,-111.0843,-123.4889,-198.0569,62.8418,120.1673,-27.5466,86.4175,-22.1434,-55.6098,133.8243,103.1288,-88.2237
22.9174,106.7737,133.3364,254.7073,22.4383,148.3697,-47.0132,-87.4535,-23.2009,-26.5065,26.7881,159.8169,-16.2870,115.9056,8.3343,-36.9344,144.2881,124.8532,-53.0679
0.2342,68.4494,159.4845,270.9074,26.4840,156.4811,1.0546,-20.8995,-35.4467,-41.5668,41.9920,186.9718,-1.3281,165.5046,21.2463,-9.2463,132.4384,110.7422,-4.4785
-31.0185,38.2687,77.6093,235.0871,1.9682,123.6762,20.4185,9.6315,-133.3198,-91.1100,32.0341,125.0989,-36.7372,134.8982,-30.8835,0.9905,94.8920,54.3146,45.0234
-74.1382,16.2614,-11.7998,160.5327,-28.5656,49.7475,0.3027,34.6400,-120.6333,-4.2005,-33.1299,21.6998,-79.6714,52.1914,-74.2719,-3.6568,65.9771,9.4484,70.3091
-99.5969,12.4510,-19.0105,91.2518,-44.8690,-5.5895,-20.4666,84.0394,-20.8198,120.5235,-66.2687,-24.6260,-41.1776,45.5468,-20.8556,-1.2781,64.7227,-1.8920,56.9651
-91.8351,24.0650,6.7674,83.7522,-39.3581,-0.1975,-37.2544,93.2767,9.8405,160.9509,-13.4443,7.7941,23.6225,122.2839,32.0504,3.7476,70.9822,1.9928,28.0890
-71.5019,51.7937,15.3604,131.2466,-31.4471,30.7462,-81.1100,31.6955,-21.6689,78.6680,24.0103,33.8605,5.5762,137.8995,-4.1496,-5.8100,78.2698,8.7696,-12.4150
-75.3927,72.8945,38.9492,148.6983,-52.8469,37.7323,-126.3204,-31.4332,-49.6821,-63.6085,-20.9151,-22.2421,-49.7214,39.4135,-29.9077,-22.3572,107.9931,15.4362,-88.3290
-83.3623,74.4851,103.4050,126.9932,-84.3701,39.5784,-125.4250,-46.6806,-74.2656,-115.7420,-48.8051,-94.7160,-52.4276,-26.5431,8.5762,-35.5425,153.5027,28.0503,-167.3068
-46.7762,78.4596,176.1509,142.3046,-73.6583,82.2842,-107.4357,-22.5176,-54.2537,-58.3578,-15.4732,-82.9990,-30.2330,39.3774,32.2549,-44.2548,175.7397,60.3744,-165.9867
-20.4768,63.6179,206.3114,184.8750,-28.2877,150.9858,-97.5667,37.6485,17.7516,0.5296,-10.3449,-25.3722,-20.9801,111.6844,34.5382,-26.7238,170.3727,101.0751,-72.3044
-56.5407,32.4878,187.6749,210.6479,1.4701,192.5341,-49.7872,108.4724,26.9149,53.0211,-37.9372,4.2069,-0.1835,60.7789,50.8882,24.0928,181.1589,116.6835,30.4969
-38.6895,97.8682,183.9964,262.2747,16.8199,195.2146,30.5095,139.2171,-33.2127,118.6102,-40.7068,22.8819,30.0243,-32.3443,49.7577,62.5715,224.9228,105.7251,89.9641
78.9536,251.4511,243.4453,322.2380,57.1366,181.8841,86.9574,150.1716,-7.3829,154.9494,-48.1703,32.3666,49.4454,-32.3316,54.3009,70.4413,256.5519,101.2222,140.4579
117.8199,280.0840,301.8057,278.4827,123.8989,161.8582,146.3563,192.7876,122.4669,177.1391,-48.6839,-0.4597,71.5002,45.8722,110.2346,84.2543,238.9550,113.1569,202.2968
30.7193,134.1131,262.0280,155.6202,181.4642,142.9840,229.0826,223.5804,213.3323,180.2750,15.1970,-31.3588,93.6850,93.5425,130.0884,95.9659,196.1884,119.2302,226.6415
-7.2197,17.3521,142.0033,85.3653,203.3401,138.1898,250.5589,184.7513,221.5336,126.4543,48.7602,-20.6853,94.4687,54.1252,64.6223,74.3857,163.2472,109.9502,185.4839
27.6918,18.4872,51.5151,72.1178,187.4371,126.2779,189.7002,125.8792,202.4413,143.3129,-25.6849,-28.6317,82.0595,-23.0122,31.7211,63.0932,136.7509,96.9736,126.5221
29.5712,32.6280,48.2561,48.6795,155.6684,80.5636,136.8120,107.3562,162.3784,274.9474,-71.0045,-77.9200,65.5379,-40.5845,63.4940,85.8692,104.8410,87.8426,107.1742
24.8644,-1.6094,76.1868,15.6384,146.4211,37.0543,130.3348,112.8287,100.6182,247.0296,-33.4236,-96.6686,42.3353,6.0414,55.0556,62.5957,73.7464,84.2096,135.2827
27.8563,-50.5355,50.7959,-15.4917,170.2712,37.4255,165.2481,115.3565,75.3785,13.9667,-44.5691,-53.9552,37.9408,6.3604,28.0234,-23.9716,53.2840,80.0398,166.9421
-20.3309,-51.7251,-15.0427,-33.5802,175.7786,39.6809,233.0908,97.1001,126.5941,-60.7117,-89.0705,4.5258,71.0323,-83.4448,82.9189,-58.4030,46.0454,47.9230,136.2610
-50.5807,21.3929,-40.3014,-10.5500,108.4800,-13.9238,233.7895,40.0856,189.1268,81.8558,-69.3775,25.1845,106.0356,-163.9537,160.5479,-3.2126,31.7020,-30.0913,31.6523
-14.6118,80.1336,-34.3898,7.3716,-3.4034,-102.9716,113.3206,-15.0662,159.1387,143.0647,-61.7870,-8.7952,103.6143,-153.5709,151.6266,36.4344,-24.2558,-120.5991,-63.9620
-33.2392,30.9995,-81.5055,-44.6896,-90.0610,-175.4196,35.7795,-9.7364,76.5655,109.8437,-100.1048,-46.3882,69.3380,-90.3734,96.8327,12.6759,-107.4320,-180.1802,-66.7961
-129.5321,-76.6550,-164.8209,-114.0406,-144.2864,-209.1212,113.9821,29.2087,95.5245,144.5680,-106.1266,-39.3426,35.7265,-51.8221,84.7089,-5.8656,-162.5731,-214.0087,8.8890
-225.7646,-175.2150,-193.9880,-149.5231,-192.4984,-203.9869,201.6626,59.1841,191.6873,201.9298,-158.1181,-37.7422,30.4102,-55.8289,102.7334,22.3799,-191.8925,-241.7431,90.3644
-346.5266,-252.7252,-180.6257,-199.3965,-220.3474,-186.6747,180.2259,105.5954,169.0612,232.0959,-280.8144,-80.2070,38.5836,-47.0498,88.8770,62.2712,-239.5175,-251.9370,126.4137
-424.0512,-246.0267,-198.3111,-250.6342,-225.0281,-188.5380,115.8149,172.4592,25.3112,229.8987,-230.7107,-106.5105,14.8080,4.9884,40.7304,72.1456,-278.8735,-229.5650,112.9076
-347.4375,-156.7055,-236.6327,-226.7085,-231.5785,-180.1143,65.4601,220.3511,-52.9584,106.2100,-17.8509,-114.3151,-26.1400,23.9485,19.8426,50.6405,-249.3245,-179.9830,97.8536
-339.8192,-149.6919,-250.9249,-175.4493,-201.5878,-119.6574,41.9932,262.4732,-30.4314,-26.6741,-22.2890,-177.1774,-11.7711,-40.7731,52.9834,46.5064,-183.2232,-118.8003,133.3214
-534.7264,-259.4008,-255.1023,-193.5775,-98.3391,-54.3272,75.8205,321.6387,4.5836,74.3534,-229.5135,-245.4302,54.6021,-84.2301,82.3549,107.7771,-171.5630,-71.8540,190.1988
-494.5237,-288.9680,-260.6753,-244.2642,-20.5894,-45.0152,128.5080,347.1411,28.2605,238.1315,-195.9606,-208.6393,83.0289,-26.1603,58.6188,184.1817,-228.3572,-53.7076,194.4098
-30.4910,-166.4996,-231.1281,-242.2439,-49.2116,-49.4269,128.5531,304.8192,2.4471,146.7861,88.8652,-114.1065,51.0550,25.3303,13.2468,174.3976,-269.6571,-34.3931,147.7590
254.9028,-48.7712,-153.1447,-181.5261,-71.8537,-5.2918,99.8371,246.2750,-83.2960,-21.0549,191.6859,-73.0269,41.2626,-35.4232,-1.8849,104.0958,-223.5042,15.6811,110.3392
12.0497,-40.3919,-75.6259,-99.6008,12.4679,56.3578,84.8230,217.6968,-95.1426,22.5176,37.7762,-70.3225,93.8084,-129.3034,23.0612,95.9037,-128.8375,60.6919,89.8928
-280.6068,-90.5649,-53.1143,-43.2589,107.4161,73.6038,69.0000,202.3379,-24.0660,106.9084,-30.8891,-34.7621,134.9811,-130.2264,51.9590,145.1304,-83.9808,42.3936,57.3576
-245.3350,-119.6943,-82.4959,-49.0125,110.7994,43.9554,54.5270,167.0040,-60.4337,34.1801,113.1490,30.8269,97.1287,-71.6491,28.4388,133.5173,-106.0603,-36.8036,20.9312
-91.0249,-105.7364,-104.2590,-84.5163,57.3181,5.6235,48.9775,107.4994,-145.8060,-19.7978,242.0844,73.5728,27.8953,-132.0801,-39.2616,55.1061,-131.3329,-117.1030,-7.8649
-47.1182,-79.2739,-68.2158,-85.8532,2.6189,-14.4426,33.2993,59.6144,-40.7273,61.8078,206.8714,78.2777,15.8956,-386.5108,-58.0473,4.5037,-137.7646,-147.9655,-42.6865
-96.3930,-69.6479,0.4584,-66.4996,-21.5039,-20.8965,25.0885,56.5133,107.1832,90.8409,138.7838,89.0735,48.9772,-644.5685,-6.1757,-5.1886,-149.8960,-133.2482,-58.2749
-155.8352,-87.1262,26.3613,-91.6901,17.9992,-23.7860,42.0976,75.5266,17.8372,-10.6051,160.3750,128.5676,32.7275,-723.3508,9.7133,-16.2261,-158.2423,-102.2759,-8.7313
-125.9517,-122.7498,-7.2070,-152.6603,93.8153,0.4721,37.8704,79.7756,-121.6172,-69.8747,183.7025,151.7571,-47.5660,-749.8638,-57.4504,-26.0787,-138.2261,-47.6526,59.9326
11.3781,-109.4559,-22.2070,-161.7798,152.3319,68.3440,-11.2655,69.2575,-64.1861,-45.4770,140.8558,139.8160,-84.4077,-887.6667,-114.6923,-33.0074,-95.8366,48.8099,50.9596
109.2413,-26.0453,32.8912,-84.8752,211.9860,133.0361,-63.0873,41.1132,-0.6517,-70.2434,120.0213,133.4235,-21.5582,-1008.4260,-89.3165,-40.9723,-45.8538,140.7778,-18.5443
77.4194,-8.7512,92.2355,-0.3750,282.4734,148.9944,-69.2530,-9.3244,-59.0919,-113.9632,124.7980,133.2676,32.6118,-974.7968,-25.9993,-22.7583,-3.7181,165.9435,-41.6019
13.5786,-87.5471,87.7850,9.8741,310.3529,135.6278,4.3891,-39.1490,-25.9675,-70.9538,48.2731,109.9124,-17.9222,-911.8457,-7.5569,-5.0817,15.2140,146.7330,2.0135
10.9620,-57.9362,65.8387,-40.6944,308.2474,114.9858,114.2984,-18.4210,105.8131,-35.8662,-52.3081,77.7048,-74.5396,-942.0535,-43.1778,-49.0501,19.3450,141.5737,39.2972
48.1686,81.3172,83.6849,-87.9994,331.9659,82.3228,128.4362,9.0887,89.3527,-66.8227,-33.8856,42.6454,-20.7462,-997.2740,-50.0268,-88.3389,17.9576,146.2452,37.1460
76.9967,72.3901,109.7574,-89.9530,332.3078,59.7661,36.6970,5.0183,-43.7666,-31.3500,42.3977,-5.0255,42.6974,-981.6752,2.6794,-33.5153,7.0543,127.1470,16.3087
81.3370,-61.4440,114.4352,-48.7237,256.2764,68.5417,-19.9989,-20.1832,-86.1116,28.2715,26.0391,-22.0402,-32.3849,-880.3484,-10.1295,18.8712,12.6418,85.9326,-16.3568
77.6531,-84.3691,122.1011,-9.9088,177.3474,73.1655,-33.1584,-59.5636,-66.6680,-60.7335,-64.4794,11.0249,-169.1434,-774.3393,-154.6865,-33.2952,55.3417,35.8928,-64.6569
88.0372,-20.5378,140.2844,-8.8942,143.9578,35.2535,-113.6933,-104.5899,-80.1467,-173.5697,-110.5434,27.3368,-194.2200,-775.8859,-252.9404,-89.2205,80.2769,-31.0075,-122.9488
95.1251,16.8907,157.2127,-25.2081,93.4609,-34.3756,-223.4865,-135.4613,-70.7601,-136.0775,-85.2780,-2.5781,-117.2315,-812.9352,-167.6687,-61.5824,39.9618,-117.1908,-184.1593
66.4239,21.8913,171.5747,-35.0809,9.3806,-97.6949,-258.4754,-162.4147,-27.4783,-86.9725,-81.5387,-32.2237,-91.9316,-709.8604,-59.4489,-40.7704,-16.5182,-182.5766,-224.6715
19.5730,-90.3055,158.6120,-41.9136,-50.8074,-118.1665,-237.9305,-195.1828,-32.0575,-113.0905,-178.3276,-45.6857,-174.5352,-567.3021,-99.1353,-96.7076,-37.4249,-186.5709,-222.4463
4.4270,-269.9323,97.2216,-45.7287,-86.3423,-113.2775,-208.4194,-212.3177,-82.7035,-93.8350,-296.9489,-77.7098,-242.8068,-606.1974,-193.4509,-161.1375,-49.1290,-175.9200,-215.5708
24.1103,-253.2296,19.6442,-72.5374,-139.7137,-155.6541,-195.8387,-225.0865,-125.5177,-54.8744,-294.8242,-165.1711,-180.8652,-689.1631,-201.4598,-149.4299,-96.7029,-231.5342,-255.3782
23.0203,-135.7341,-59.7929,-158.5887,-217.9416,-240.0281,-249.7103,-263.4373,-168.1600,-94.8159,-198.4664,-286.8886,-91.0387,-566.9051,-157.9581,-78.4631,-198.7018,-319.1870,-318.4669
-21.9439,-202.8997,-167.6304,-254.8573,-309.2307,-279.0019,-334.8376,-302.2773,-225.6135,-176.4648,-159.4459,-333.0439,-147.2736,-391.5896,-154.5173,-76.2070,-334.0973,-350.1074,-364.6202
-70.7468,-207.9684,-272.1305,-298.9919,-387.4124,-293.5710,-353.8449,-313.7570,-249.9118,-252.1708,-226.6856,-267.5471,-258.4070,-432.5178,-189.1642,-199.2798,-430.6938,-343.6550,-403.5164
-129.5827,86.3677,-314.7571,-316.1407,-410.8942,-363.1652,-329.2285,-296.1209,-190.0247,-185.3558,-323.4667,-228.4425,-204.5257,-567.6735,-192.1105,-254.5949,-449.6577,-335.4155,-422.5614
-233.6149,234.9841,-327.2781,-298.4748,-388.2840,-400.1460,-319.8685,-222.3385,-107.1146,128.0294,-364.9191,-289.9152,-64.8490,-508.5554,-143.4643,-89.2584,-457.3369,-274.1388,-383.8328
-292.3806,-33.1862,-373.8561,-214.9306,-372.9315,-294.0969,-290.4638,-135.6601,-126.9168,263.3311,-344.1388,-390.9384,-79.8938,-298.9986,-135.8835,52.0723,-510.1976,-183.2691,-333.2762
-200.1740,-282.5570,-438.4214,-171.8767,-368.5262,-152.0408,-246.2777,-170.7332,-220.2949,-158.0374,-336.5341,-544.7908,-197.7777,-242.9645,-219.3710,-90.6994,-546.3292,-156.2285,-348.1981
-31.2340,-191.7834,-454.4521,-210.2248,-341.4651,-86.3990,-251.6826,-284.9689,-259.0682,-540.5926,-347.2496,-694.7941,-207.6096,-393.6712,-255.9674,-282.3055,-492.6277,-124.7038,-400.2756
132.9288,146.0966,-390.4395,-137.8858,-305.1375,-21.4550,-289.4682,-261.2237,-307.5512,-284.6140,-268.9564,-594.7654,-132.7368,-424.7640,-167.1901,-177.3020,-389.4344,11.2584,-421.1831
314.7471,559.9503,-293.0758,76.8121,-282.1235,77.1808,-311.2186,-101.2206,-432.9042,83.0370,-120.8264,-283.1507,-105.9273,-172.5544,-134.6596,89.7889,-321.5832,125.0431,-400.6690
408.5558,708.5246,-242.8107,191.6635,-234.6794,126.8966,-291.1736,-7.4780,-390.3471,21.7417,-39.5136,-128.1319,-100.9291,52.9763,-234.6382,171.9183,-297.0349,103.4528,-329.0882
291.2820,394.1371,-236.3748,178.5642,-137.4200,140.9539,-190.9126,4.6628,-93.9872,-90.5156,10.0416,-143.4827,-50.8093,20.4259,-226.0608,63.1890,-268.9934,72.8740,-208.1040
165.2000,82.9018,-199.0028,210.5940,-47.2205,173.4994,-69.7322,47.4525,48.3635,29.8272,101.5233,-50.9766,3.8529,-29.7829,-35.6672,11.9815,-229.6689,117.6938,-116.3563
248.6458,169.0415,-127.4423,231.8804,1.1486,172.0198,-48.3479,96.6678,-113.7235,122.2308,110.5370,77.2087,12.7970,104.8639,53.2253,102.0366,-198.8072,160.4553,-91.8939
354.0516,292.6893,-73.6514,160.4690,72.9947,138.2478,-55.8576,116.8513,-155.8140,122.0033,24.3609,75.0696,-1.2052,245.9138,-37.4639,191.4465,-170.7163,198.7174,-65.4766
254.5607,158.1226,-47.2965,150.9219,185.9701,163.6771,25.2810,154.7064,40.0355,138.0632,40.6044,100.4278,9.4199,244.0504,-51.0000,169.7135,-175.4691,252.6293,-30.2719
61.7420,11.4333,-71.5504,226.1140,221.5209,200.5340,71.0603,183.7092,94.6406,116.5570,121.3619,201.3453,53.3966,197.8039,42.1077,82.9594,-284.8385,226.1014,-44.5457
-55.9067,-31.9903,-175.4279,220.8841,139.5521,148.1934,-3.4380,179.1505,-34.8126,113.3463,72.2752,208.1520,87.6690,210.5264,18.4081,14.9808,-440.1844,139.1312,-40.2300
-94.0213,-100.2127,-278.5006,190.6438,90.3302,102.4180,-17.8935,231.8646,-69.7196,201.2071,-9.1221,197.1769,73.4686,290.4594,-89.3699,-9.4686,-469.7174,160.7212,61.0092
-93.6239,-154.5212,-292.6469,261.7219,142.4507,170.3746,91.0503,333.7343,-37.1630,221.0821,14.1326,276.5936,26.7723,368.1456,-75.6620,-3.0582,-380.6580,255.7145,136.7482
-105.2654,-137.6312,-264.6954,295.1532,144.7611,225.3734,143.9945,345.0142,-66.3636,167.5954,-0.7818,261.6794,-15.4715,334.1427,5.3950,-2.3234,-369.0414,219.4427,77.5796
-162.1473,-97.8484,-257.5915,175.4677,8.9508,123.0015,89.8712,272.1963,-81.0829,199.6568,-119.8620,146.1734,-37.0180,261.7301,-21.9105,-16.8048,-485.9598,47.8527,-7.6762
-218.5251,-34.6622,-273.7454,40.4525,-144.5481,-60.1802,28.1024,222.6114,-99.0139,190.8504,-199.8139,201.2672,-49.6676,364.3585,-125.8043,14.0715,-583.2814,-95.6214,-34.2678
-254.2964,-15.2490,-326.5694,6.1326,-216.0147,-169.1527,-41.1327,176.4650,-196.5264,32.7594,-211.4017,386.3133,-84.2575,575.2656,-184.8209,69.6508,-580.1118,-142.7889,-85.8382
-296.3733,-130.4579,-378.9038,40.4361,-240.7184,-171.3248,-154.8840,101.9872,-232.5637,-29.0136,-212.2699,427.0246,-121.6464,615.6171,-178.5657,21.7026,-538.5275,-134.0909,-195.4389
-317.7108,-256.8690,-351.2331,76.5093,-260.3634,-145.9300,-277.5766,58.8123,-143.8492,102.2940,-219.1041,321.9783,-98.2694,501.4693,-143.9317,-71.0929,-531.4023,-142.1672,-287.3004
-340.8994,-305.2426,-310.2969,49.1089,-276.1077,-162.1628,-370.7756,40.3617,-107.4546,206.9893,-313.5876,219.5016,-67.5159,486.0600,-142.1720,-26.9841,-566.6520,-209.8564,-332.9947
-444.2790,-351.2723,-362.9118,-24.0908,-272.7752,-198.9900,-406.8728,-8.1516,-164.9142,186.4808,-468.6939,189.4936,-146.8029,617.7194,-218.0102,32.9744,-585.8790,-263.8850,-346.4940
-525.3818,-296.9286,-417.8466,-40.4340,-219.9444,-209.3692,-390.7701,-57.6998,-218.5066,88.9281,-453.8549,280.6434,-243.6928,733.3199,-292.0948,-95.9286,-550.5688,-229.3323,-337.5112
-444.4906,-86.7283,-383.9005,-13.8856,-150.3224,-217.0654,-395.6505,-82.4681,-268.0952,-15.6767,-296.2796,381.7873,-181.6649,720.4509,-258.4992,-208.6672,-533.3267,-196.9269,-343.5061
-349.9898,-68.3882,-361.4144,-46.8242,-160.1982,-239.9590,-417.5992,-87.4313,-235.0594,28.5141,-310.1251,258.9295,-63.4448,631.2452,-179.5211,-82.8359,-591.5729,-242.6304,-348.5741
-427.0501,-383.2057,-386.2725,-103.5608,-224.5418,-206.0669,-349.7638,-16.9547,-20.6977,210.3630,-492.3038,5.6283,-79.3185,636.2968,-170.0797,49.9821,-623.4700,-242.4550,-273.8763
-565.9191,-572.3705,-344.7360,-75.8630,-203.9729,-82.3848,-229.7585,117.3372,115.6301,242.5196,-570.0150,-17.5171,-127.4703,800.6223,-185.9851,-9.9782,-536.2245,-109.4892,-181.3563
-596.5724,-356.0686,-242.3244,31.0391,-105.0140,31.9077,-225.9374,171.5320,-114.5545,36.2520,-528.1686,230.7609,-60.1312,957.7830,-147.4726,-86.4320,-426.2646,15.1853,-222.2124
-523.2441,-68.3976,-202.8697,110.7971,-74.8405,41.6056,-328.3588,122.4772,-454.0098,-154.4874,-483.6709,430.9150,-5.6056,978.3605,-121.5411,-52.2332,-418.6031,-6.8357,-320.5141
-424.8898,-55.4977,-244.9769,58.3409,-129.6255,-31.1664,-350.2201,97.9441,-463.7400,-129.3911,-404.6595,386.6061,-80.1177,939.6663,-169.8109,27.9880,-472.9645,-113.0833,-269.1305
-387.0259,-246.5113,-288.8481,-68.8176,-155.2699,-101.7823,-222.5137,112.7557,-161.4199,87.1609,-301.8837,233.5613,-139.1207,903.3605,-174.3214,100.1280,-469.9901,-171.2996,-114.4976
-431.1863,-355.9817,-267.7187,-51.4884,-123.0479,-107.8284,-82.4441,105.6861,106.9304,294.2629,-238.0084,220.5062,-62.7803,864.1085,-26.3937,75.3141,-384.1564,-139.9137,-70.3429
-442.0921,-248.8046,-173.2621,110.2002,-87.7145,-51.7796,-87.7112,108.3951,103.0337,251.4820,-147.6359,381.8177,33.8139,896.9399,127.7950,-33.7384,-298.3741,-60.4655,-159.8447
-358.0696,-97.5360,-71.0260,135.2249,-69.8792,17.7016,-226.1509,118.2586,-142.5432,3.4704,-26.6932,514.3590,11.6305,1019.8265,62.1674,3.9996,-269.9201,6.2400,-257.7774
-283.2882,-81.9250,-14.5376,-2.6140,-71.3069,64.6189,-343.0528,64.4342,-362.9991,-157.6294,-5.0245,519.0956,-86.3692,1085.8074,-155.6691,125.0524,-251.7655,3.1937,-311.1857
-263.5700,-105.3310,0.6774,-41.8507,-96.2250,52.3134,-345.1862,-9.4073,-306.4993,-127.3800,-55.5991,509.6233,-118.5992,1030.9098,-232.1510,-36.0605,-212.2283,-104.0204,-308.5153
-225.8707,-83.3188,-58.3816,9.4680,-115.9096,-58.1823,-269.3277,-38.8818,-63.3964,-26.0745,-57.2072,546.7123,-52.7816,983.2920,-103.4829,-294.8254,-220.4922,-259.9947,-239.3171
-169.5801,-117.7462,-199.3935,-51.5858,-112.2774,-191.9106,-179.5867,-105.5898,29.8976,12.7915,-74.8529,580.8267,-10.9872,1046.3513,-15.9497,-157.9628,-299.0043,-329.8286,-184.6305
-174.2741,-199.6411,-292.8373,-172.2692,-123.5559,-204.4285,-147.2292,-246.4203,-140.8424,-121.2997,-174.6431,567.5439,-70.8566,1138.2877,-90.0239,117.4118,-347.9060,-282.2551,-238.2828
-262.9109,-233.0248,-263.9685,-207.9572,-162.8002,-128.9517,-221.1533,-355.6037,-299.7272,-330.6441,-222.3866,458.2066,-137.2133,1051.6183,-152.3052,36.2886,-309.2170,-242.4234,-337.5791
-340.9509,-242.0021,-192.8448,-165.3512,-170.3753,-116.9846,-316.0444,-397.9117,-200.1350,-323.5653,-158.2843,324.0470,-116.8767,741.6000,-102.8764,-112.1933,-230.9900,-241.4931,-363.4444
-274.7275,-197.9152,-107.6687,-61.0702,-107.4260,-123.5090,-312.4427,-395.2626,-23.3640,-140.7897,-127.2156,381.4366,-68.9227,530.6635,-83.1835,8.9495,-152.1600,-142.3678,-324.4398
-128.0209,-69.3714,-23.0859,38.5506,-10.8941,-6.4141,-239.3352,-289.5409,-76.2197,-120.2204,-172.5657,591.9153,-66.1820,670.4860,-158.2399,51.5067,-87.1767,47.5252,-281.6757
-128.3635,-36.6753,-61.4797,-11.7169,62.5659,130.0398,-175.7091,-134.1390,-268.1949,-260.6694,-135.7876,677.3412,-67.2323,848.7830,-184.4991,-126.1715,-69.2440,104.4357,-240.8388
-227.1827,-107.8487,-167.1516,-136.7049,80.8543,82.4502,-132.3256,-135.4976,-300.3231,-326.0792,37.6778,677.3751,-14.6729,692.5854,-102.3448,-123.9814,-101.3545,-30.0863,-216.5495
-157.4987,-4.8994,-88.6979,-137.4624,57.9604,-80.3949,-104.7685,-265.0270,-152.6523,-293.0096,159.5817,793.8121,64.7933,417.0099,-39.9989,82.3011,-138.1445,-132.7170,-208.0517
-2.1093,189.4629,121.7345,-81.7451,67.0069,-134.4184,-36.8017,-245.9653,19.7453,-167.4586,94.9476,863.6641,113.9457,358.1151,-48.3232,156.7740,-135.6137,-74.0455,-118.8541
-32.2837,128.6073,167.7408,-94.8428,144.5802,-46.0577,132.1345,-45.7043,140.0207,40.0960,1.2516,739.9543,122.4244,384.4736,-25.5052,145.3357,-87.2978,6.2297,61.9875
-151.7440,-79.4226,51.7707,-84.7926,193.3896,44.9491,249.0537,82.3814,110.2996,71.9932,74.9110,651.5799,113.9652,291.3685,46.1431,200.0194,-47.2239,-19.0982,144.5991
-166.5503,-164.2533,-25.2161,-42.7580,127.1488,61.8792,145.6859,55.1453,-89.5831,-145.3587,227.8921,654.9169,98.0680,198.8290,60.1767,170.3501,-57.6138,-77.8642,67.8931
-142.9563,-191.4839,-37.2419,-94.1485,39.8788,51.3843,11.9212,28.9910,-206.2480,-244.6048,251.7011,552.8306,70.6081,246.9504,5.7276,65.7148,-44.5506,-71.7503,51.1529
-83.0077,-149.8936,-1.5810,-166.9820,39.0385,66.8458,69.4407,80.0067,-76.6983,-97.3583,110.3059,474.7943,40.4767,375.8273,-11.3314,135.8346,46.9890,-36.0348,172.6408
78.1924,75.6818,98.1107,-136.7209,50.6610,82.5712,149.0051,144.4131,82.9568,12.0757,-127.5305,619.9101,20.3032,472.4896,32.3836,314.9947,99.3042,-40.7506,219.1660
142.7374,220.3069,145.1733,-85.6760,-4.3583,57.0709,79.3402,185.5703,92.8730,17.7667,-393.6034,740.3834,10.2065,462.4799,57.8423,335.5493,41.9566,-61.5331,130.2455
3.5639,78.0107,73.9323,-70.7191,-40.0978,32.2086,29.1897,219.8432,62.3489,64.8567,-559.3112,636.1666,10.3455,367.4005,47.8847,250.4203,16.5193,-38.5277,103.8259
-81.7051,-43.5547,29.2806,-38.1619,3.0966,62.9513,114.6229,253.5138,78.6635,120.5538,-558.2055,526.8525,20.0356,307.7225,59.7950,265.3287,84.5157,9.2366,183.8803
-32.2994,7.2154,60.1892,-36.6880,30.7323,97.4335,184.6257,272.3502,94.1547,142.4659,-509.9430,527.7278,30.2621,306.9969,91.9752,342.2284,93.3714,18.1066,206.5927
-63.1472,-12.9751,46.5351,-101.8626,-8.8503,71.1821,142.2013,253.4016,86.6063,166.7697,-460.3575,503.1087,37.1995,268.6254,84.3964,337.3766,2.6557,-7.0569,133.8345
-153.0303,-79.6767,1.3249,-123.5372,-31.5189,39.3342,65.6297,198.8672,59.3239,114.2565,-260.4877,455.1141,35.6922,208.3629,41.7047,268.7672,-26.9432,2.0667,83.3011
-132.0383,7.9673,26.4749,-75.6399,17.6730,72.1942,41.6883,163.6593,35.2040,-6.8730,68.3353,439.4766,24.9089,215.8637,39.2204,250.5608,63.2470,70.4298,106.2375
-80.6937,97.5747,85.4604,-36.4990,97.0940,136.3462,77.3195,186.5621,72.3020,15.4301,244.8424,375.5625,45.2931,234.8272,101.7001,294.1335,163.6364,151.1245,130.7796
-105.3355,29.6468,114.9373,18.5534,160.0055,185.1670,85.4946,216.0124,153.5558,189.3172,180.5714,273.9565,122.6438,175.5827,166.7915,288.1509,207.1044,205.2780,73.7395
-119.1916,-19.1753,147.2780,108.3875,195.3981,230.5848,11.3689,192.6344,237.6365,272.6940,104.9237,251.6549,186.4387,116.9797,185.7274,196.7470,226.5504,240.7426,-16.4312
-68.6730,45.5293,199.5326,139.1015,213.5440,272.4463,-14.4426,159.3089,363.7643,205.9286,148.8053,288.2215,173.7515,173.5835,183.5159,150.0800,262.6506,257.5363,11.3326
6.5234,76.4142,235.1945,99.8303,222.9289,279.1838,94.9210,171.7455,442.0718,116.2717,207.1846,293.8676,145.0330,287.5417,192.7136,207.4620,309.2325,223.1269,136.8741
80.6482,22.3042,230.1048,63.4672,195.7015,235.8179,147.7268,158.6831,256.2859,16.0924,237.5296,243.4074,162.0081,294.5460,189.3567,225.4041,320.2680,131.8201,139.6333
111.6075,-15.9097,193.8382,15.4509,109.6363,147.9067,11.1689,36.6426,-84.3797,-133.8522,318.3580,126.1060,175.6419,167.4826,136.8489,131.0274,286.4882,43.2960,-7.8668
91.7243,22.9546,173.9839,-40.4219,25.7092,61.3306,-121.1484,-91.6395,-192.9353,-233.5022,408.1193,-1.6952,134.5428,88.4039,59.3269,61.5882,272.2523,27.0206,-66.9903
81.0521,81.7542,191.2352,-21.3808,14.0451,60.2046,-99.6472,-70.8887,-15.7059,-168.6965,377.0203,-32.2479,66.7635,170.1641,16.3138,94.6595,298.5849,73.8774,34.0707
65.0229,49.0832,172.9579,29.6126,36.2219,136.3754,-51.3661,31.7330,143.3465,-22.0266,281.0658,-18.0916,27.4304,252.9332,21.3588,139.9129,288.7029,100.1397,109.7125
10.5648,-43.8775,82.7369,-6.0308,26.4990,159.8499,-59.2894,40.0373,156.9304,27.1674,299.0945,-86.1723,52.0144,197.4521,47.7759,149.0210,218.2046,72.8229,83.0699
2.7939,-38.8890,19.9096,-69.6457,16.1716,95.2911,-29.0925,-25.0391,156.0183,-15.0258,404.2752,-175.9421,111.9062,137.8093,84.2209,151.1394,183.3970,70.9183,54.8309
63.1514,26.3358,55.8706,-40.1452,60.9052,72.0584,59.9563,-24.0390,204.0634,16.9367,417.4914,-190.1508,127.9333,186.5598,111.5153,137.4652,244.3262,146.3126,70.8499
81.2940,-1.8516,128.9224,28.3696,131.9505,137.1862,104.4249,28.7120,224.0264,133.0262,351.9315,-203.6388,104.1449,222.8698,91.6194,115.1683,325.3515,220.1572,87.5333
64.9422,-2.1315,171.7474,30.9196,167.9692,169.1839,59.3399,24.9028,180.9424,161.2113,355.3384,-269.4352,120.5567,172.4388,57.4562,124.7887,339.2975,219.7267,68.1790
108.4106,179.3931,186.1580,-12.3680,158.2894,115.2725,-12.5849,-29.2420,162.8673,42.2394,391.2538,-314.5244,148.0783,132.4843,83.2862,123.9822,318.5594,186.4299,26.5060
168.8539,326.0820,194.8308,-41.2813,125.3667,75.0071,-19.9375,-48.4209,223.8845,-86.7758,342.6846,-326.9422,92.6637,151.1477,112.7156,67.9465,345.5762,164.7511,44.5085
187.9950,246.8689,222.2292,-38.9302,94.5388,106.2698,72.4262,-2.7763,250.0812,-87.0332,295.3705,-349.6631,7.1467,187.0348,36.0242,40.9018,417.5487,143.3635,164.6969
221.3901,136.0857,282.2517,-3.2626,97.2644,148.7365,187.9269,59.9269,163.6497,16.3081,369.0483,-358.3211,4.2115,200.6763,-64.7333,81.1962,479.2301,127.5831,272.5474
283.2534,150.6499,352.9389,37.5884,136.5972,141.0458,217.3334,62.2063,106.6508,60.8587,456.5927,-358.1793,43.2703,131.5073,-41.6125,81.1045,532.2082,117.2101,269.5677
328.4930,187.2116,394.1287,36.1183,158.3600,85.3838,170.2715,-2.4624,171.0777,-15.0298,412.2249,-413.6413,27.1668,-9.4575,35.2738,31.0011,594.5786,79.0899,248.7664
359.8563,207.8598,381.9965,14.4842,123.5012,25.9019,142.6996,-31.2333,213.3752,-64.0170,276.8571,-496.0387,-14.3992,-65.7962,32.2972,42.0101,626.0903,43.5193,295.5981
363.2848,255.7262,342.1101,39.3545,78.8668,9.8856,156.1473,26.3823,162.7695,-13.5101,157.1020,-531.9357,7.8168,-5.3008,10.1014,74.7828,600.4776,73.6729,332.7178
309.9872,263.5579,332.5436,88.4707,80.0430,24.9830,164.8134,76.8795,149.0024,9.6991,98.5003,-563.7571,90.8852,-36.3013,52.6228,29.6936,547.4810,112.7419,319.5879
263.3397,210.3295,335.4575,70.2202,91.4611,3.5590,172.1724,62.9645,208.8366,-14.4386,93.0646,-658.1387,134.6467,-227.6607,89.7281,6.5233,472.5608,66.6295,331.3669
279.3967,193.0357,265.0475,-9.4489,56.3054,-58.6030,204.9503,48.3336,245.9981,33.7766,49.0296,-773.7695,71.3260,-365.4174,73.3747,99.7227,375.4203,-6.6154,368.2943
307.3687,214.9804,152.5894,-29.7587,9.5348,-70.1842,236.4495,57.4122,254.2294,128.2021,-123.5032,-855.3916,-24.3524,-360.0121,64.9972,173.8760,330.5609,13.6673,360.2976
325.8989,217.9146,140.2588,61.9736,25.1553,10.8987,246.4254,51.4925,290.1169,178.3004,-323.5040,-917.3882,-23.9004,-402.7730,91.1804,127.8712,401.1515,117.5354,346.7415
384.3313,234.1522,248.3775,163.6044,103.6223,101.2040,281.5179,50.4146,352.4837,202.0202,-376.9338,-981.1569,63.2416,-595.5193,125.0341,60.7500,533.2904,196.7997,420.6058
473.2056,263.4836,355.0387,169.8702,188.3236,126.8873,381.4615,84.3195,415.9004,174.6281,-308.0599,-1040.2085,118.3182,-775.9791,159.0291,44.6283,642.3859,199.3614,558.6417
542.1926,228.3291,397.7453,116.1710,250.8117,138.3983,510.2561,115.4372,448.4477,68.4370,-248.4614,-1080.7863,116.8118,-812.7036,189.2034,53.2524,717.5777,185.3250,665.8456
594.2181,156.9035,427.2693,98.6900,300.0918,199.6623,581.4872,118.7365,428.6028,30.3935,-226.5519,-1097.8700,137.3667,-809.2817,219.7405,77.4687,782.9694,226.0909,701.5806
648.3507,150.2861,497.7437,132.2401,332.6401,250.4253,540.4943,112.9553,403.7216,130.2721,-242.1494,-1118.4713,185.4908,-892.3242,268.8192,91.0381,841.6553,274.4811,684.4024
692.8391,199.8829,583.0797,161.5226,327.6126,207.3318,469.0601,102.3320,420.2968,187.2412,-318.9539,-1167.4645,173.0581,-979.8907,313.0648,60.7948,883.7650,244.0180,663.5823
703.6075,237.4623,597.2760,148.5265,292.8818,120.2767,524.1031,86.7779,455.7720,108.4538,-383.4438,-1197.0903,88.4480,-944.1577,335.4030,35.6961,901.8074,178.5831,693.0405
671.4706,246.5968,526.7739,100.8158,262.3269,75.3508,676.8535,63.5110,502.3829,25.3852,-324.8089,-1154.3312,50.6748,-876.6311,393.9309,36.2133,891.4608,151.6851,755.3682
630.8859,227.7815,471.4854,55.5477,226.8714,40.8942,715.3914,6.0726,557.1810,27.5228,-162.1396,-1091.7318,120.3090,-941.3620,491.5489,1.9466,845.9854,102.4592,761.2751
617.0703,180.5724,466.9466,33.7699,138.0754,-32.4418,601.0107,-68.4584,556.6525,73.0129,14.7205,-1075.2230,173.9162,-1060.5466,517.3577,-29.5953,765.5573,-12.9662,687.9507
586.0001,115.6279,430.3744,-4.1319,7.7029,-92.8882,516.3060,-105.2453,504.2963,82.9723,165.8910,-1059.7540,97.4937,-1038.4984,447.6000,16.6024,680.3326,-105.2565,624.2058
493.4492,22.6201,346.1295,-97.8839,-95.9932,-109.8887,515.9272,-133.1337,492.8776,18.6784,292.0903,-993.8742,-23.2592,-912.9788,390.5618,35.0254,626.0173,-147.1557,619.9187
408.1033,-89.4437,281.2556,-195.8648,-164.1759,-148.9487,483.4705,-208.7547,496.7070,-39.9801,420.5908,-932.1871,-65.9998,-882.1409,370.4630,-79.7380,597.7340,-210.4065,610.7536
394.1781,-150.2380,239.1819,-225.8261,-233.2689,-224.9968,397.7641,-282.1254,425.6645,-13.6837,556.9026,-933.7441,-70.4193,-958.3840,299.9065,-210.9695,575.4211,-259.1390,545.4324
385.6992,-137.9554,204.0195,-206.7762,-270.2620,-251.0325,333.5305,-299.4559,354.3196,13.6227,615.2930,-963.9866,-114.9260,-971.0217,173.4564,-244.2926,568.1656,-197.4915,470.1059
319.6029,-125.9683,208.3969,-179.4487,-212.7123,-177.0703,311.8456,-297.7628,376.4699,-22.8345,554.8658,-956.7475,-156.3387,-869.6064,95.6196,-231.7366,588.9988,-63.2734,444.4251
254.9803,-143.7995,240.6116,-122.1457,-93.2463,-54.5010,317.3193,-290.0996,383.8038,-55.0656,514.3463,-889.6005,-123.0373,-801.9523,114.6525,-220.8027,623.2429,41.5586,455.1765
262.4236,-137.4766,262.0468,-34.9569,-0.6288,25.9404,315.4479,-262.4284,265.6294,-88.8029,604.9604,-794.1368,-45.9608,-874.1077,147.8625,-211.1932,643.6559,80.9720,443.4001
318.8666,-92.8806,295.6962,10.3493,40.3310,14.4681,262.6483,-262.8758,120.9249,-154.1563,717.1212,-730.8975,-16.4177,-984.6274,106.8241,-230.6883,630.9938,64.7070,392.5480
354.3608,-61.0298,338.9512,-21.3974,62.0263,-32.4911,204.6211,-296.1413,91.9348,-147.8142,706.4459,-715.9516,-51.4714,-979.7514,37.7808,-266.4524,596.0005,41.4359,358.9450
335.6003,-65.5256,340.1125,-62.1203,80.3323,-14.7329,216.5880,-283.9572,170.3646,-72.9582,602.0465,-685.5526,-45.6994,-892.3555,49.0867,-284.2303,580.1617,61.2733,377.0355
298.5368,-66.8648,325.7948,-26.5635,83.7924,38.5153,252.9277,-244.8228,244.5968,-86.9779,526.0249,-598.4069,71.4730,-882.7769,131.4683,-319.5859,590.7859,75.4963,383.0550
296.8001,-19.0142,337.6628,69.3969,67.3409,2.6662,256.9513,-263.7024,237.5858,-160.6344,523.9219,-511.6103,180.3996,-953.7006,177.3122,-355.3159,574.2721,23.7616,325.4576
312.5488,43.6170,315.1327,111.1913,54.8870,-106.1757,274.8926,-297.3402,177.5264,-172.8938,523.0818,-478.4831,143.7789,-924.5325,141.8972,-298.8483,500.3897,-26.0865,269.4030
280.6208,20.6710,237.1155,38.1102,76.8492,-140.6235,301.6813,-274.9965,130.1651,-189.5475,466.9211,-459.5819,48.7118,-755.4160,78.1001,-215.3628,407.4517,-9.9992,275.0418
201.1746,-87.1972,192.9495,-62.4399,117.7646,-76.2272,261.8601,-246.7318,95.6550,-218.3457,449.9571,-409.1793,52.9829,-658.5749,57.8354,-255.7128,333.6454,11.1886,294.5176
129.2192,-134.3992,190.8441,-86.8378,125.1355,-29.5275,193.3340,-232.2353,59.8684,-114.3780,552.4490,-350.5598,110.8141,-740.7773,81.5355,-351.1133,273.6281,5.9896,287.0326
75.5095,-51.9637,136.1304,-36.3626,90.6718,-30.5724,189.2147,-156.4842,65.8982,51.0971,628.8392,-299.8446,76.9410,-783.4908,53.2931,-352.8501,221.6825,40.1056,290.3456
30.4225,43.1942,30.9425,47.7195,68.7381,7.1665,236.7582,-28.1630,117.6497,59.2432,534.4362,-224.2643,-36.6862,-596.6437,-53.6510,-324.5928,199.2543,118.5227,329.7913
23.3710,42.7055,-29.8470,110.2753,91.5378,90.7034,294.7923,55.9214,140.9651,-54.9573,387.9760,-133.9881,-87.0580,-353.5118,-85.5247,-350.1308,210.1002,159.8303,380.7676
49.6097,-16.4835,-25.1490,72.1234,127.9031,116.9420,362.0578,65.9185,120.1250,-99.4409,338.9433,-99.1119,-13.1362,-312.0356,31.1073,-311.2592,206.0893,141.9922,407.0296
38.3315,-53.7751,-9.0715,-32.1668,147.2428,66.0991,403.2524,35.7534,108.5001,-25.3750,337.8584,-132.7659,78.5441,-419.9670,112.7468,-139.7661,151.2558,132.0425,373.2081
-18.7840,-56.6639,-3.4739,-58.5077,164.7598,47.1204,381.8168,3.7256,96.8085,66.1722,309.4921,-175.7793,58.7210,-462.0611,45.0730,-4.6409,91.4369,171.9917,293.3860
-43.8032,-76.7205,16.5140,-18.3719,198.9229,94.4862,338.1752,9.6269,44.8170,45.2464,259.7966,-211.0228,-31.2190,-409.5442,-16.5284,-46.5730,76.8907,205.7373,253.9281
-28.4024,-150.3250,55.0000,-61.2072,225.5093,102.1531,324.2682,41.5953,-17.5564,-76.3112,192.1644,-267.0551,-43.2776,-382.1942,37.2982,-164.0277,68.1443,160.0555,286.0974
-41.2999,-220.5524,69.3216,-160.8234,207.5028,34.4912,328.0131,47.2801,-56.1464,-115.5098,142.2233,-318.5996,30.2034,-403.8463,103.3026,-188.2350,28.7640,83.0223,304.7639
-81.3732,-203.9594,36.1151,-161.7676,154.3694,4.4633,303.1203,50.5439,-82.5211,-28.8867,147.0675,-307.7542,53.8020,-390.9114,95.4172,-105.2674,11.3792,85.6530,262.2080
-105.9171,-135.1996,-2.5597,-69.6786,113.7758,65.5761,242.1954,101.5599,-69.3940,22.8079,111.8881,-242.9223,-13.7476,-314.7977,50.4910,-20.0639,41.7573,142.5820,219.5739
-129.7898,-113.5195,-7.7966,-0.3317,102.4803,122.2249,205.1725,137.0882,20.5482,33.9327,-24.7841,-185.9921,-73.2470,-246.6813,33.7489,1.6282,56.6729,128.2385,206.7727
-148.7699,-134.2570,-5.6810,7.2444,81.2270,95.6376,211.6010,81.6602,96.9398,103.8314,-109.7210,-169.1939,-67.3405,-241.0535,70.4713,-18.8981,24.6940,33.4607,161.1255
-121.8124,-120.0546,-36.4309,-29.9818,18.2973,20.5148,159.1563,-6.7018,17.2325,106.2020,-45.0067,-166.0063,-47.2911,-241.4283,95.9652,-35.5607,-18.5273,-41.1336,43.9189
-99.9258,-65.2422,-93.2670,-68.4537,-54.3932,-28.1948,4.2995,-55.4653,-190.1622,-68.1356,20.9240,-127.2832,-60.7103,-160.5034,36.8672,-35.2048,-55.5900,-49.4503,-91.7711
-150.5214,-29.3636,-139.0473,-55.3039,-91.7024,-18.5629,-122.0188,-100.4832,-342.8606,-223.7777,-21.2027,-50.8591,-81.2915,-32.1856,-28.4212,-53.7656,-87.2923,-20.3999,-183.9508
-188.6136,-32.4054,-161.8783,-30.1772,-114.5094,3.1269,-157.9107,-180.8430,-342.2970,-213.8448,-85.6349,-1.3466,-72.3615,15.8703,-10.5853,-129.0187,-108.0702,-1.9230,-252.2201
-128.6133,-30.0237,-197.4884,-65.8354,-173.4614,-27.3513,-220.8346,-257.3991,-270.4742,-166.9034,-104.9040,-17.7107,-64.8492,-44.5694,-16.3042,-210.4388,-140.0686,-26.9771,-348.9329
-56.1288,9.8865,-259.4626,-110.9988,-248.9582,-71.1555,-343.3258,-285.8326,-254.6424,-183.7113,-109.8679,-42.1166,-111.1293,-86.6042,-126.8732,-199.4900,-198.0058,-55.6421,-443.2927
-44.2016,43.1785,-287.1414,-96.6123,-271.3960,-42.0831,-405.5794,-269.5532,-314.9025,-225.0818,-120.1260,-4.3077,-185.7806,-16.3194,-208.1411,-130.0056,-243.6432,-27.6240,-459.5638
-39.9154,19.3332,-262.9611,-82.1310,-242.3065,14.2952,-380.1140,-248.9078,-365.6702,-275.4395,-135.8784,71.6246,-219.5581,84.0227,-182.8904,-147.7631,-261.9146,-8.0077,-424.9633
-39.0903,-15.8518,-277.8352,-122.4436,-238.3783,-13.6446,-360.0906,-270.1418,-345.9688,-313.3129,-163.1363,106.2541,-211.9868,96.0140,-160.3780,-246.6766,-291.5496,-96.6155,-429.2625
-95.1558,-0.4616,-354.5510,-167.6251,-284.6552,-94.5460,-378.5534,-316.9350,-296.0793,-277.9952,-200.7954,78.3940,-219.7206,59.5171,-186.6927,-258.3280,-337.3721,-211.9953,-461.0038
-169.5718,14.6872,-390.1974,-177.0010,-320.7463,-112.6927,-391.8180,-310.7635,-271.7884,-213.3924,-255.8641,50.8266,-250.4008,83.1133,-197.2769,-167.3273,-365.5285,-200.8628,-449.0314
-209.1252,-44.6717,-361.5695,-169.0679,-301.5822,-61.9393,-366.2674,-238.0735,-266.3048,-224.7428,-310.1006,72.9423,-246.7648,138.8602,-184.8377,-145.9691,-369.7922,-93.4336,-400.8476
-241.8470,-134.2947,-339.3702,-163.9672,-242.9730,-23.0907,-302.5168,-177.2828,-269.1713,-257.2260,-292.0496,102.1437,-184.8975,126.5565,-184.0949,-213.0081,-349.1698,-28.1924,-356.8062
-257.8707,-154.0032,-297.1538,-158.2753,-162.8042,-31.2306,-226.9762,-154.0569,-275.5948,-170.3259,-195.5319,86.0357,-123.2387,70.1623,-196.2533,-189.1701,-286.5498,-26.1223,-307.8542
-206.7191,-85.1607,-179.0029,-125.4279,-60.7646,-48.9384,-157.1336,-116.5763,-218.9004,-38.0300,-137.0093,65.4388,-102.0870,66.9699,-200.8981,-63.5741,-207.8736,-14.3812,-247.8575
-143.8215,-8.4732,-70.5105,-67.4676,35.8132,-25.5219,-83.2596,-65.8535,-71.6383,-73.3325,-186.7323,87.7273,-62.9508,110.3276,-151.5480,-48.3600,-177.6752,23.6196,-192.1769
-160.6429,-10.8152,-76.0932,-58.2023,78.1997,16.8396,-1.7887,-38.7139,34.7476,-232.0383,-263.6559,94.6017,29.3141,108.6483,-39.3749,-183.0602,-216.3909,33.3028,-120.8261
-235.0616,-83.3308,-167.6301,-135.0882,56.8738,-13.2933,85.8873,5.9766,-4.3897,-256.5201,-272.8235,22.5467,79.2609,35.0486,28.2987,-244.3915,-285.8514,-21.6437,-6.7748
