Fp1,Fp2,F3,F4,C3,C4,P3,P4,O1,O2,F7,F8,T7,T8,P7,P8,Fz,Cz,Pz
29.7900,-76.2217,-116.7192,-122.3837,-89.8844,-35.7471,-38.8713,-15.0261,-18.3903,14.4790,-124.6022,-99.0243,-59.4263,-33.4542,-10.3409,6.8397,-138.9492,-52.3647,34.3657
202.4487,219.7038,-59.7622,134.9888,-104.2829,-34.3292,-132.5237,-123.7563,-121.7341,-56.9117,-1.2462,87.8741,-113.7088,20.2487,-58.0277,3.7721,-23.1715,22.3637,-120.3987
104.7396,395.2586,-40.7084,233.3784,-40.4811,-5.1357,-127.2485,-125.2689,-100.8663,47.3307,66.8771,231.6341,-159.2435,75.9499,1.4886,28.7181,61.3851,62.3565,-137.9648
61.5732,455.2766,-46.8174,155.0152,-3.5317,26.3644,-82.0541,-78.4107,-70.6999,110.9206,59.7445,255.5544,-185.2406,95.0418,52.1070,33.2961,22.8239,11.5153,-118.1165
230.5083,526.9359,-54.5947,139.2904,-112.5593,14.0749,-126.4988,-111.6688,-66.8985,27.4374,84.1865,232.2327,-205.4289,76.1612,35.7225,28.3550,-46.7358,-36.8843,-134.3261
275.6715,557.6426,-56.2641,198.1149,-209.1589,-8.6108,-172.8476,-153.7918,-71.6225,5.5348,148.1118,212.4439,-208.7156,55.4313,22.2581,66.7253,-47.4338,-25.2052,-145.7005
149.0469,514.5127,-24.3938,195.9787,-130.1738,5.1693,-143.1180,-122.4456,-166.6261,70.3495,163.2310,197.9073,-201.2883,72.4118,-0.0262,107.7347,-12.4629,-22.1942,-183.9019
133.1435,497.3802,57.6996,200.8253,-16.9053,21.5365,-150.1069,-89.0415,-276.9771,61.9843,141.5032,203.9301,-196.9413,104.1373,-61.8304,71.6205,25.3682,-54.4449,-239.9192
181.5679,501.4667,148.2206,287.6563,-13.8640,-0.8980,-208.7945,-91.4288,-229.2548,34.1351,152.8064,214.4433,-176.1739,88.8795,-86.4852,6.3812,80.4481,-76.6914,-208.4834
123.9101,441.9652,196.0841,332.1979,-27.3030,-38.9055,-200.0668,-93.8401,-116.8096,70.3174,176.6789,194.9653,-150.7747,46.7502,-46.7625,8.6297,117.0829,-87.6819,-122.0520
90.6173,379.2677,203.8502,294.4371,8.5494,-70.0219,-155.7788,-119.8538,-84.0273,76.1922,178.6858,173.9933,-167.7284,48.1611,-11.3873,43.0516,105.9903,-109.1204,-99.0359
173.0915,416.9341,200.3065,296.4511,17.2432,-119.6619,-169.2911,-185.6532,-71.5621,35.9295,198.0442,180.3099,-203.0738,65.6887,1.2597,37.8643,100.9407,-140.3318,-126.2092
237.6335,492.0974,191.3223,329.1739,-10.5985,-192.6585,-178.7174,-230.9751,-84.9062,5.6802,242.6828,172.0333,-201.7476,42.0898,-5.3492,28.9408,131.4489,-174.0629,-147.1721
235.7969,469.4494,174.8028,292.4597,-3.4082,-222.7791,-119.8645,-223.5457,-160.7689,-60.5344,256.6166,133.1693,-181.3147,34.8409,-51.5275,35.4470,155.7983,-166.8702,-147.9540
219.7557,342.0999,168.7344,235.6199,55.3695,-158.8755,-46.2552,-186.7500,-149.4271,-130.5115,242.0350,113.4628,-154.5168,89.6760,-84.2174,-6.5988,158.5243,-90.7994,-112.3577
185.1998,223.1545,179.3949,229.2564,134.6243,-61.7778,1.8928,-144.0722,-36.3893,-101.7900,250.3220,127.7797,-84.8192,121.9687,-39.9606,-83.3441,156.4776,-25.7169,-89.4362
142.6734,196.2705,177.8929,219.2961,193.1756,-14.5843,30.2347,-113.8695,-15.6759,-55.9624,261.6624,151.8245,-8.1106,92.3854,21.7223,-116.8973,156.6549,-21.9433,-133.8857
136.2427,259.2864,163.3894,202.7041,200.1700,15.2644,41.2705,-91.8115,-69.3079,-87.2162,235.0039,185.7349,-4.2736,82.3844,21.0695,-128.5530,189.2930,6.1213,-169.8795
186.2848,376.2936,190.2763,261.8123,185.9669,87.7773,47.5842,-69.1277,-112.7760,-127.1985,220.4800,215.6409,-38.0230,110.0407,-31.2558,-166.1355,273.0623,81.0425,-176.8904
297.4448,480.0367,265.4170,364.1662,194.0449,149.6398,39.7703,-84.3706,-255.2582,-185.3315,267.5817,205.5602,-28.2537,113.2931,-91.8817,-197.1889,344.4780,102.2833,-259.5143
398.2971,478.8773,307.7572,396.3736,204.0391,134.1173,-4.4573,-139.3902,-405.0722,-304.6961,314.4734,174.1481,-1.4966,95.9865,-117.1632,-204.9388,340.7296,60.3506,-353.4897
383.9814,384.1128,277.8299,352.7976,195.3634,84.1222,-42.7036,-154.3428,-317.1613,-340.6593,305.2931,163.2301,-5.0002,83.6321,-84.8504,-203.4664,285.1992,29.6798,-313.9566
311.0362,326.8256,237.5241,305.4551,185.3197,56.8245,-41.6870,-126.5325,-158.4027,-247.8858,289.2785,158.1522,-0.1419,47.0039,-43.2267,-179.3237,218.5027,13.3657,-258.8222
299.1660,355.7840,232.7840,286.1107,165.1736,43.5066,-50.9172,-137.3736,-199.3723,-232.1859,294.5171,137.0250,30.2614,-7.2082,-40.0652,-169.5748,163.1149,9.9777,-337.4042
309.7958,379.7485,237.8486,285.9108,127.9161,39.2106,-80.7273,-168.9657,-291.1464,-341.9046,264.1882,111.1111,21.9947,-27.8368,-63.1662,-224.5538,162.4537,48.7013,-429.6701
283.3053,339.4331,238.3067,285.7413,115.4804,58.7503,-82.6718,-162.0802,-278.3459,-410.0210,192.9082,77.2018,-39.5621,-22.3960,-113.2810,-268.3447,225.9281,79.3744,-414.7621
260.6153,261.6531,253.4496,279.6830,142.9815,83.4576,-67.2106,-162.8566,-258.7114,-400.3754,155.4374,39.8653,-73.9314,-35.1273,-179.1622,-243.0534,283.1871,47.9907,-343.0650
248.8479,180.5535,270.8801,281.0008,173.9926,82.4753,-52.8343,-204.2622,-231.0215,-372.6602,170.8785,33.5249,-44.0128,-84.0474,-182.3167,-242.7233,279.3400,6.4182,-259.2585
243.4327,124.1189,247.2077,266.2936,187.0337,56.9511,-17.1084,-235.1311,-170.7751,-329.5359,186.0137,35.1925,-11.3417,-169.7347,-113.3016,-299.6988,232.8824,-10.2736,-197.0708
274.9789,104.0611,176.0925,191.6043,171.5946,24.0915,-0.0806,-256.1471,-189.2352,-311.8197,170.0042,-13.9461,-18.1578,-250.8490,-66.6558,-321.1847,181.5609,-41.2798,-200.9053
277.8790,97.5208,110.5885,100.5096,122.4949,-17.6626,-52.0045,-303.7381,-231.5160,-353.2282,126.5478,-74.6867,-35.4646,-259.5653,-66.3971,-299.9475,165.9021,-95.5933,-211.0622
207.0011,92.5396,111.1717,78.6657,83.3543,-86.0725,-110.6060,-344.0911,-169.5267,-391.6810,72.9761,-72.8021,-50.0615,-205.3275,-76.5075,-294.2946,228.3531,-156.0243,-171.8789
206.5887,86.4864,179.1563,112.1578,93.8604,-166.0039,-114.8486,-355.3752,-126.7058,-412.2026,43.0414,-42.0868,-81.5420,-156.6855,-112.9052,-310.3495,345.3735,-216.6877,-159.2099
319.1495,58.9511,253.1689,131.2619,116.9026,-213.8584,-100.4289,-383.0023,-187.0715,-455.7361,45.8520,-48.0092,-111.6412,-149.6665,-156.0520,-359.3829,420.3578,-252.3188,-219.2216
352.9106,33.3157,281.2636,113.7991,106.7620,-252.4201,-106.1103,-434.2134,-229.5618,-495.3519,53.4323,-89.1351,-111.9501,-209.3020,-148.5881,-415.9087,396.3979,-263.4320,-296.1274
273.8858,50.8190,274.8925,50.9340,79.2763,-340.3554,-131.4270,-459.7956,-251.2875,-523.1515,64.4171,-152.8692,-101.9846,-322.4493,-135.6820,-399.4076,318.6893,-290.5005,-327.5237
244.3891,54.1979,272.3482,-57.9634,66.9544,-423.4083,-135.8006,-446.2385,-281.8802,-581.4263,97.2274,-221.2433,-84.9807,-377.0625,-157.7279,-366.6765,262.2840,-325.2777,-267.5239
255.5506,-17.3103,277.8419,-152.3009,67.3643,-420.9084,-60.8308,-440.0524,-216.8690,-634.2169,125.5864,-248.2778,-26.1904,-332.0580,-136.5387,-418.7453,244.4734,-347.3395,-171.7439
214.4020,-91.5945,267.1750,-181.1565,48.2217,-408.5599,20.0977,-480.0191,-121.1264,-627.4196,116.9092,-245.2316,39.9978,-319.7205,-79.9789,-451.0092,230.3085,-382.4781,-174.3259
193.5620,-109.6896,235.1645,-181.1386,2.3220,-460.2036,-35.8559,-520.6609,-138.5903,-578.5463,98.4994,-267.7114,35.2922,-388.7801,-103.8853,-390.5302,199.6701,-405.6302,-209.9780
244.2626,-132.6345,205.7000,-201.6776,-12.7568,-475.6247,-138.1015,-491.1835,-138.2025,-510.7925,116.7912,-291.4082,-8.3325,-415.3438,-160.2903,-374.3493,170.1407,-369.7997,-125.7270
276.6538,-183.4830,198.9194,-232.9235,38.8066,-398.4501,-99.6215,-439.7158,-51.2663,-479.1904,169.7970,-264.2028,-0.6379,-369.1302,-120.5500,-411.8163,162.2152,-331.0538,-62.5496
258.4041,-214.8337,214.6719,-238.7876,96.8196,-333.6070,-13.7957,-456.5829,-76.0331,-552.1556,202.8221,-214.4448,32.7600,-329.5420,-63.5721,-373.0034,191.3878,-332.9454,-173.4085
237.8378,-260.4829,244.2490,-221.8168,119.8870,-328.5632,-36.5319,-502.8298,-190.1794,-658.2983,168.5180,-189.7716,13.7356,-290.2635,-114.5759,-283.5732,270.7826,-335.9188,-258.5211
221.4794,-387.0409,273.0000,-247.9631,146.2339,-345.1879,-60.4766,-522.6232,-179.5692,-702.3593,107.1315,-213.8088,-22.6576,-251.2843,-182.7999,-150.6432,361.9668,-363.5857,-191.5988
209.9092,-511.6942,280.8447,-333.6455,164.2828,-379.7747,3.6462,-541.5276,-85.1629,-711.4404,102.4494,-284.6669,4.1618,-283.4408,-149.4524,50.6265,378.8808,-402.3805,-132.1204
224.2923,-443.4038,258.7180,-327.5838,122.1793,-354.0436,41.4004,-493.0440,7.9250,-630.9266,133.9431,-284.9932,67.9061,-318.4581,-83.7067,7.6692,306.0877,-270.0293,-84.9058
254.7452,-127.1592,213.2618,-110.9199,72.8793,-156.2444,24.1501,-289.2386,142.6253,-377.6653,113.8829,-89.7881,88.6273,-215.7862,-83.0978,-470.4193,233.8222,39.5500,26.9249
277.1280,227.5331,162.0184,148.5886,95.1529,77.6377,36.3842,-91.2695,167.6794,-156.4237,68.1219,151.5778,69.7729,-62.8592,-111.3520,-830.8287,223.4899,225.2188,15.5414
265.9148,354.3045,135.3466,223.7965,149.5561,123.5600,53.3882,-83.9779,-62.3529,-167.4335,81.9819,175.8465,73.5576,-41.5648,-107.5839,-607.3278,231.5886,190.8388,-193.0278
198.8519,254.0147,141.2995,165.0578,165.3506,62.9532,25.3709,-138.6893,-297.1756,-224.4382,115.1359,36.2144,100.7645,-109.3073,-102.2894,-227.1777,195.4006,173.4332,-325.0121
112.4811,149.7125,123.4739,133.9894,126.7031,91.6179,-16.2547,-86.5387,-292.1078,-153.7076,78.2089,-13.5975,89.9959,-111.4346,-134.5091,-144.3320,106.9793,242.3007,-266.1363
59.4830,151.5301,33.5459,130.2903,37.9688,155.0605,-58.1688,-2.0096,-159.8251,-76.8784,5.4181,61.8969,30.8317,-27.3486,-155.1013,-147.7785,1.8977,238.5705,-182.8054
29.6420,190.2700,-65.0230,96.3581,-47.7492,128.1693,-87.4904,26.6094,-57.1091,-55.9629,-16.3584,126.3031,-13.3433,69.4622,-121.9333,-44.8971,-66.1799,145.5858,-143.9304
20.7356,210.1081,-79.0622,49.8663,-58.5636,48.5277,-70.8082,21.0357,-23.9958,-46.7553,10.4797,136.9508,-12.4381,125.3617,-104.9286,10.1851,-69.4474,58.4407,-134.2619
59.9834,209.9612,-38.7450,17.3936,-42.5167,-30.0970,-66.2279,-30.2428,-61.2086,-111.7623,25.1168,125.2934,-5.4628,124.3017,-161.1132,-16.9001,-47.7097,-9.8307,-175.2961
98.8346,190.3152,-33.6882,15.2433,-83.9438,-109.7567,-132.4270,-117.9379,-93.3907,-230.0430,7.5889,110.3486,-10.9098,89.3534,-216.7882,-45.0418,-51.0383,-44.4590,-223.0547
74.5768,180.7188,-51.0109,60.5315,-114.8161,-146.5396,-182.0586,-153.1799,-113.7260,-258.7477,0.7700,121.6004,-3.6723,60.3107,-208.5487,-101.8005,-55.8018,-10.2370,-261.1794
42.3281,213.0785,-27.9506,120.7929,-52.1801,-108.3522,-147.6710,-121.6779,-228.2400,-223.1664,36.9461,159.7283,8.6091,60.4645,-187.0263,-144.7382,-20.5478,50.7179,-337.5243
66.0177,256.9740,-0.1849,154.0235,12.8776,-41.2080,-101.4463,-82.4496,-328.6624,-209.9612,65.7016,167.8872,-9.6600,89.7902,-183.5180,-84.7604,19.1881,104.0231,-353.3963
97.6224,267.8965,-31.4299,175.3036,-9.7658,27.9615,-96.0168,-40.7307,-222.1244,-175.5961,36.1948,127.0617,-44.3191,114.3938,-156.2573,-6.4144,19.0409,178.4206,-230.7735
86.9025,249.2601,-60.4741,201.3443,-44.0441,106.2501,-107.5083,1.8884,-77.2292,-142.9032,9.1137,96.5589,-49.1681,106.9870,-105.3525,5.5494,22.7622,245.3314,-158.4639
64.7212,234.9198,-0.8310,219.3741,-16.4512,156.6253,-109.0643,19.9344,-101.1114,-172.7530,40.9708,125.1290,-18.5949,108.4362,-73.6816,18.7358,67.4113,233.1604,-223.3413
73.0884,255.6375,70.9929,216.0357,21.0193,137.3410,-69.6510,35.4206,-121.1836,-161.2895,54.4658,184.4822,22.3189,146.5694,-59.9462,56.1399,78.2447,156.3435,-215.4576
112.7987,302.7391,29.1674,164.4030,19.2041,71.1571,-1.7229,54.9390,-17.2133,-69.8229,-4.6963,208.5107,54.2170,162.6243,-41.6014,64.2239,1.1810,89.7786,-88.3662
152.4596,334.5464,-62.9579,83.2709,5.4962,21.9285,17.7443,35.9935,32.0750,-34.7393,-42.4371,185.6589,52.7505,140.0435,-25.5970,54.5316,-57.9733,82.5107,-38.7180
168.3128,348.7309,-47.7743,92.1768,5.6213,40.7338,-5.3380,4.0066,-20.1954,-54.8212,-0.1806,172.6213,6.9320,148.2043,-29.2215,53.3344,15.6656,140.0444,-83.9577
177.8547,373.4287,58.3937,227.4376,15.9657,106.7507,13.7581,20.1105,-35.1065,-36.5973,36.7185,194.2573,-36.7732,182.9764,-44.5025,51.1057,153.4550,213.2677,-91.4770
195.8140,396.2948,111.5854,332.5950,40.6436,136.3912,55.1128,58.7901,7.4875,-40.1596,14.5195,211.4298,-21.7159,178.1670,-29.0452,62.3222,212.1365,240.0073,-61.8235
198.1480,406.8523,79.7937,309.4484,76.3729,119.4801,52.2577,82.0389,57.3866,-78.3909,-7.1157,210.0314,33.6181,159.6495,31.0467,90.2885,179.7866,235.3077,-49.0700
181.1299,428.4905,43.1733,255.5092,93.3998,146.9870,49.3994,114.9264,73.5367,-26.4809,13.3241,217.3129,69.5948,181.7564,59.7643,99.9845,144.4331,260.4566,-49.0671
172.7412,426.2919,42.7724,255.4735,85.1327,234.5599,94.5091,170.3713,-7.3353,96.1284,51.7344,239.7280,78.0266,218.1904,7.7348,94.3331,150.5658,317.0451,-61.6473
168.9290,333.6805,73.5360,295.4996,91.6121,292.7061,133.5241,236.3147,-107.3137,175.0893,90.3593,265.5772,88.6948,249.3778,-32.6160,108.8826,187.6991,361.7608,-72.4048
155.7024,206.7842,132.7865,362.3090,131.9164,307.6918,126.4482,311.0378,-60.2980,229.9681,124.9099,282.5146,98.1562,297.1316,8.9905,143.8570,232.2124,382.2091,-40.2245
146.2579,175.0286,184.1527,409.0877,170.6549,342.3196,113.4940,376.2202,78.8661,292.4399,136.8551,279.4894,87.7885,341.2085,53.6409,178.5595,232.3552,383.8089,40.8026
124.2159,240.1793,161.7689,356.2596,179.9180,377.9850,133.3326,419.1484,159.0892,326.4846,126.2940,282.5374,90.6049,351.2906,63.5363,214.7576,140.8254,351.8072,141.8590
53.7449,278.8645,61.4846,245.0006,165.8262,357.7119,163.8957,453.7565,192.1830,342.4973,134.5785,316.9132,157.9875,347.0730,111.7305,270.6819,1.9490,288.6485,191.4685
-34.0478,236.6454,-34.6886,198.9933,135.0604,312.5275,159.3252,460.5608,188.5966,342.9910,188.3570,333.2896,257.0923,343.7712,173.5880,325.5996,-77.7832,249.5305,120.0633
-70.5676,198.5799,-48.1685,232.5601,107.2856,291.4965,139.9448,425.3134,116.4111,306.8570,250.2833,303.7733,293.5947,331.5764,154.1265,310.5935,-60.5773,274.6606,25.1318
-38.9748,235.4958,12.9119,277.3089,115.4532,276.9965,171.5177,411.4595,86.6705,306.0547,270.9367,297.6184,258.6974,314.6266,106.3218,234.5936,-4.5697,316.0300,68.4850
18.6865,289.2976,71.8955,311.3279,136.3860,256.4550,218.3991,447.4745,160.8554,382.8347,259.9861,329.7821,240.0841,298.6093,119.0780,212.3979,31.5005,309.6506,165.5414
43.3274,299.1554,74.7117,341.4906,109.7910,254.6581,183.7639,462.2224,184.4985,435.2199,249.4195,324.6431,262.7524,281.6539,123.8111,258.1204,44.1130,282.7834,117.8881
16.6003,308.7999,41.7960,370.1753,52.2413,270.7401,104.6423,428.7466,91.3931,407.6544,233.7659,292.1315,264.6632,267.9192,64.2595,264.0260,57.8377,300.3028,-34.1949
-12.6973,339.5137,28.9438,409.5862,36.5872,283.5313,84.0450,396.8627,-4.9155,346.4096,208.6836,295.4338,234.4207,248.9986,29.9732,237.6833,84.4610,352.0168,-124.5117
-5.3261,338.9864,64.8020,441.0359,65.1421,288.9072,104.8824,376.4664,-51.0295,274.0282,192.9722,295.8052,203.7743,219.0237,55.8610,262.5594,105.3658,372.7101,-112.7161
18.2740,320.1954,126.6787,414.0410,76.6622,279.9003,109.4449,347.1387,-29.2559,236.4876,170.4567,256.3015,150.0403,205.6417,58.1583,289.7128,98.2500,330.0567,-27.0832
53.3644,330.6005,159.3593,335.9642,48.4728,255.4965,100.6204,312.3669,81.6445,279.8078,115.2213,239.2338,74.2025,219.3252,28.0630,263.3488,75.6602,250.7997,81.7153
111.7328,320.1282,127.9942,270.6596,4.6560,241.7529,69.7093,269.0979,163.6969,317.5398,72.0641,263.6783,56.9457,231.1366,30.5854,258.9850,52.4342,190.0944,121.9664
128.5736,246.7563,53.5947,235.3118,-39.2507,233.3061,14.2455,222.7096,134.0579,290.5503,90.1083,277.1400,101.2932,234.4643,45.1338,303.6835,1.0800,174.2625,91.7212
38.4120,174.4664,-16.1099,187.5926,-81.2625,182.9629,-17.4496,203.6548,121.7516,287.8668,126.9980,270.9352,106.2159,233.0237,17.9298,321.8746,-86.4135,168.7914,76.1417
-81.3128,145.7586,-49.2121,110.3432,-103.6743,101.0536,-27.7815,203.9441,157.6784,307.8854,126.0884,241.5879,67.0531,199.3271,-12.2442,301.1382,-144.1562,129.4468,73.5637
-105.4676,136.1070,-40.6659,39.9284,-83.5796,51.5203,-58.0431,194.7578,109.5973,247.1582,97.0896,162.7143,70.3015,136.3017,13.7732,279.7881,-126.4507,66.2189,50.0302
-45.5365,121.6774,-21.9980,8.1596,-41.2666,40.0522,-70.0027,196.7467,49.9717,161.3300,54.7803,85.3074,95.2725,93.3550,65.2397,255.9444,-82.5230,31.4888,50.2654
-16.0695,68.5774,-41.4499,7.6010,-28.3216,37.6278,-27.9434,225.1610,115.5825,162.4919,-6.6366,76.6269,58.4558,81.8846,66.4296,229.1389,-61.6216,60.3323,73.8703
-70.4452,-17.7359,-89.1604,27.6444,-45.6979,64.2651,12.9440,242.8941,144.0461,205.5301,-57.2410,93.2247,-6.4260,80.6500,6.7789,210.1791,-39.8575,116.6642,56.4808
-155.9762,-48.7828,-91.5988,65.7750,-44.4980,120.9212,23.0026,230.0858,10.3115,227.0339,-56.3398,86.5373,-4.9706,91.2755,-32.3155,198.2951,-4.5549,117.1632,20.8516
-203.2103,-15.9919,-23.8955,83.8276,-17.8064,137.5383,34.1213,201.7460,-63.9384,236.6656,-20.1606,86.3061,60.1335,102.4823,15.1208,199.4237,-7.5223,49.2733,21.3881
-194.7351,-21.0708,42.4650,40.1520,0.4151,88.1322,47.9193,165.5407,51.5123,215.1004,4.9103,83.1400,103.7773,84.0781,90.1462,186.4141,-68.5074,-5.1721,35.6727
-148.4757,-67.4834,48.4059,-19.8740,7.2045,36.5868,48.6083,132.6027,164.6876,160.1405,4.6226,34.4892,79.4198,46.6470,96.4501,115.5723,-111.2362,-9.4420,51.1230
-95.7132,-92.5085,34.1202,-18.1174,13.5443,20.5334,39.3356,111.9125,151.4546,121.8207,0.5549,-18.1336,39.1213,12.8393,50.2702,34.0236,-72.6568,-10.6975,73.3711
-84.6887,-122.8459,63.8861,21.2233,13.8477,11.6027,22.2644,83.3048,84.2711,92.9839,16.4495,-27.5660,60.7804,-30.8862,18.8236,3.2843,-11.3517,-24.2375,53.3868
-131.1912,-155.8683,115.1088,16.4450,19.8569,-7.6835,12.9187,37.3653,19.3773,51.0464,50.0475,-33.6250,125.7157,-79.5085,6.1407,-13.9994,-14.0236,-28.8149,-4.3138
-175.2567,-129.8394,112.0932,-32.8029,39.0682,-26.5844,17.0085,-0.6189,0.2260,30.2458,80.3568,-55.1002,152.4259,-92.6742,13.9793,-29.7075,-57.3951,-38.2849,-13.7505
-162.9245,-101.6443,51.4643,-66.9484,41.2439,-40.9416,1.7890,-15.5826,60.3442,7.7627,99.9287,-54.6904,135.0970,-76.9502,59.1739,-9.5805,-71.1266,-52.4812,-0.8346
-108.7311,-136.6315,18.8867,-62.2988,34.1785,-51.6520,-15.1484,-19.9156,90.8745,-71.2183,115.0398,-57.3945,119.0240,-95.2009,71.6557,-22.8723,-52.9972,-35.3301,-59.7259
-31.1136,-146.7981,74.4880,-28.0943,78.8228,-58.7398,25.5180,-33.6625,-0.2296,-127.6605,127.5813,-123.1386,99.8834,-170.0667,-13.8924,-114.7976,-19.3901,-1.9651,-114.2792
52.0609,-99.0827,179.9862,13.2052,165.3972,-61.4941,84.4582,-59.7390,-69.7202,-70.5563,142.6821,-209.8834,75.7223,-239.3043,-88.9532,-164.3375,35.2206,1.4100,-42.6050
70.9774,-87.6150,245.6804,17.1258,209.1337,-47.0480,91.1170,-67.4499,14.9785,-0.5216,157.8892,-217.9724,83.3581,-231.2969,-30.6394,-128.5819,70.8873,-17.4862,57.3796
1.3999,-107.1256,219.9518,-26.2302,184.4638,-11.5000,74.3617,-49.4838,115.6745,-56.6173,142.7987,-140.0517,105.8741,-156.9584,73.6818,-127.4300,52.6606,-44.1692,35.0234
-50.0382,-99.6993,138.1576,-56.1612,128.4532,11.4636,52.3694,-60.6985,71.6179,-191.9307,87.1553,-62.5626,90.7208,-84.5700,82.1897,-166.7672,40.5736,-97.9293,-46.0777
-7.7763,-114.8619,80.1452,-47.1630,59.5339,-5.6587,-2.9629,-109.9947,-35.6071,-267.4461,36.5063,-47.0305,56.5007,-41.1059,26.1098,-147.3640,65.5618,-159.5240,-59.3793
44.6939,-169.4649,79.0341,-65.4652,6.7863,-36.5562,-33.2159,-126.6803,-55.4716,-247.6512,24.1992,-70.2379,47.5107,-10.9604,7.1602,-95.7405,52.8206,-173.4221,-28.2975
21.2399,-192.6063,107.7821,-129.3960,21.9492,-47.6175,12.8376,-109.2849,8.5275,-189.2236,32.1897,-72.1821,60.7016,-4.3298,24.1394,-85.4578,-2.8835,-134.2757,-7.8989
-36.0231,-176.1787,126.7304,-139.9293,79.6178,-48.3015,46.3531,-120.6061,65.1040,-127.0648,43.2150,-33.5125,92.8367,-33.9765,23.8546,-102.1004,-10.2081,-86.7641,22.3971
-67.1078,-143.8928,92.7846,-48.0146,79.6071,-55.3735,6.8029,-135.6290,64.6007,-79.3705,47.1100,5.4813,133.8418,-67.5506,7.6855,-113.6478,21.2130,-70.1205,42.1429
-86.7281,-101.1579,-6.1302,49.3044,-4.2545,-61.2332,-43.8343,-104.5909,15.2648,-82.7299,17.5229,-2.5617,121.8036,-76.6342,7.0291,-89.2360,11.9708,-89.1801,2.0056
-111.6960,-112.9406,-89.4884,62.8578,-82.9104,-59.6642,-61.0451,-62.7586,-15.4353,-107.5439,-35.7705,-53.4085,42.4901,-70.7276,16.0341,-14.1126,-9.8030,-101.5678,-21.6759
-106.9027,-190.2074,-65.4498,23.2641,-77.1433,-49.9458,-34.0181,-27.3674,60.5057,-66.3239,-51.2820,-93.3114,-4.9101,-56.7812,12.5332,26.6850,18.9717,-63.4724,63.7739
-50.3170,-202.1762,39.1378,-5.4800,3.4101,-21.1921,46.2241,22.7314,204.1759,7.8456,-0.8201,-81.1318,45.8713,-40.4182,14.1744,-29.6136,75.8146,2.9181,158.6212
12.3483,-122.5229,139.3531,0.4971,102.1533,22.0468,119.4325,43.3832,233.7060,7.8740,80.7249,-36.0974,125.5339,-45.0690,35.2973,-85.8931,121.0162,51.4785,130.6922
21.9078,-93.8296,191.9990,38.8976,163.0203,59.2193,137.4268,19.0115,92.1721,-20.2972,138.8710,-1.6317,140.9229,-61.6364,31.0204,-62.7465,134.4372,85.6871,51.2314
-15.9544,-145.5384,164.5331,83.2497,155.0007,105.1337,156.3768,29.9062,-20.8425,14.8435,121.9135,23.9883,90.8203,-40.8041,-13.6952,-13.3340,100.8337,121.0714,32.1093
-43.2333,-166.6350,67.1420,107.8761,107.7067,177.1608,186.7660,63.2702,42.7324,41.5355,33.3564,70.5354,37.3452,13.6074,-32.5753,21.8790,69.8406,139.2692,31.5871
-24.8249,-116.8502,13.8452,132.5951,89.2608,215.7456,161.2808,13.9269,145.2401,1.2046,-33.0503,120.8318,20.9660,32.3295,-8.2142,31.3639,104.7825,133.5101,5.1299
19.1755,-34.5871,63.3484,178.7824,111.2867,170.8927,108.4846,-69.6812,128.8691,-13.1341,-18.7103,130.2429,29.2568,1.6858,8.6374,-16.1183,146.9096,138.2979,2.5165
36.6105,28.0667,94.4275,219.2546,112.8086,125.6804,103.0947,-47.0875,77.7911,43.2527,4.4624,115.0173,40.2049,-4.8340,38.1294,-54.3771,105.2719,183.0914,27.5233
-21.8369,19.1579,13.2155,232.3924,66.2253,165.4819,129.5522,60.0948,125.2670,121.9808,-21.1971,125.8114,59.4750,43.6746,110.4715,26.0880,21.6944,247.0550,40.6528
-140.4612,-24.5017,-77.1282,230.3536,30.3027,208.5312,166.6055,132.6208,221.2345,205.3936,-31.2887,145.1596,89.5846,82.5885,141.6814,155.9602,-4.2753,271.2360,63.3679
-204.0813,-5.3824,-47.9552,211.5420,64.4849,149.9107,208.8178,136.8572,247.2538,243.4851,23.0529,121.8938,111.9506,72.7995,92.6494,194.1723,41.7427,220.6156,95.1642
-118.7835,63.9715,65.1081,169.0853,130.4003,57.4361,187.2456,96.9430,194.1889,175.9131,85.5881,77.8715,122.4685,57.6623,63.7435,161.2946,84.6804,125.8544,77.0736
32.5405,95.7220,116.3029,116.2389,119.0955,48.2556,83.7008,41.7675,126.8352,89.3390,98.6307,59.6193,126.7091,60.2239,81.6361,130.9008,30.5769,42.5906,27.7984
82.5421,67.8552,22.9720,51.1811,0.3331,94.1697,-2.5097,14.8019,84.2709,75.1362,63.2067,39.7795,110.2257,49.5067,64.2733,93.7006,-115.2318,-1.7397,14.8362
17.0641,-7.7056,-124.1235,-25.1989,-104.8569,95.7229,-22.7334,24.9301,74.9063,65.4576,5.0154,-12.3039,74.3572,27.6042,17.7946,66.5256,-208.6951,-1.4345,22.3217
-41.1371,-99.5890,-156.0793,-60.1500,-88.1526,45.1398,-16.2483,31.2641,98.9069,26.3262,-31.7459,-39.7451,59.3045,29.9169,-9.3082,92.1316,-157.0718,31.5933,21.6005
-45.3832,-112.4025,-47.3187,-19.8853,-10.8182,4.8757,0.9191,12.3456,122.9256,21.4651,-14.0198,14.4210,81.4541,52.6337,-43.1197,110.1611,-49.6886,53.0621,27.3724
-27.9138,-15.1715,70.8363,41.2432,25.3205,-8.4507,18.5260,-17.2049,94.0099,30.4734,22.0442,105.8744,99.0678,68.8453,-67.3736,55.6492,9.2243,29.8352,13.1855
18.7511,71.7026,107.6424,64.3867,30.5150,-24.6585,23.1147,-33.6663,37.9921,19.6273,14.7618,150.0311,71.5186,72.6828,-26.9471,11.3025,25.6974,-1.4900,-26.2697
71.9460,64.4989,79.3266,58.8087,31.1995,-27.5464,50.3596,-12.5950,41.6674,52.0168,-31.6252,128.9080,15.1924,73.8215,12.8562,72.1727,14.9976,22.5928,-15.7525
43.9081,36.8808,30.4261,56.2431,2.5237,33.8762,102.7114,43.7795,80.2564,119.4328,-59.1571,101.9347,-19.5460,101.6393,-23.2896,179.5585,-30.8604,96.7421,25.5308
-43.4921,67.5934,1.2170,79.2377,-33.0004,125.7498,105.7657,106.9676,47.9592,134.1503,-37.3283,131.8873,-17.2481,183.5491,-71.0734,231.1372,-69.4603,148.5483,-0.6354
-64.7711,119.5270,1.2214,141.6890,-34.4036,146.9630,41.1368,170.2671,-12.0215,119.3271,-3.8026,207.8622,-13.2407,278.4342,-79.9874,227.3711,-52.7586,140.2198,-28.5008
-27.4375,121.0936,-8.7409,207.3959,-44.3018,94.2353,-25.2878,237.8627,23.1064,146.6694,-21.3458,257.8286,-20.6644,306.9045,-75.7181,223.3871,-18.4227,112.0895,39.2184
-45.3356,78.0429,-47.5400,190.5882,-93.0810,64.4493,-44.7215,292.2370,95.6569,208.3092,-85.6471,239.1607,-6.2292,262.8434,-26.9070,254.7689,-53.1936,103.0665,83.4184
-112.7031,58.6442,-94.3726,63.3182,-129.1665,83.3034,-12.9453,322.3463,84.9261,279.2224,-123.1793,181.8485,19.5767,221.9576,67.8141,327.9681,-174.5118,95.3098,26.4164
-145.4892,94.6867,-147.1890,-69.8710,-148.4689,87.2993,19.2756,321.6911,50.0110,329.7887,-108.7338,150.5540,-5.3827,245.9117,87.3767,387.1844,-281.2251,74.2974,19.2637
-136.7638,149.0138,-189.0028,-73.9770,-198.5640,63.4653,-20.9984,273.0714,71.5460,327.2804,-96.8387,185.2297,-69.1627,309.3018,14.2154,361.7097,-271.4502,67.6396,92.3271
-123.5491,171.0333,-165.8974,41.4597,-237.1788,69.2910,-95.5212,213.0341,73.3477,322.4677,-115.2411,251.3520,-86.6436,326.5417,-9.2264,305.8295,-178.2695,92.6420,74.7344
-131.7854,140.2828,-90.4250,140.7926,-193.6389,128.4699,-102.2776,213.5602,4.6635,350.7242,-132.5252,268.3589,-46.1993,275.2892,33.9888,325.8225,-85.0651,135.4471,-30.1174
-164.7931,92.2369,-37.4180,167.6262,-114.6728,192.1237,-71.9851,249.1084,-54.1438,326.6955,-127.5065,224.0375,-15.6714,234.8981,20.0261,370.8037,-3.5572,184.3121,-70.0817
-162.6357,102.8822,-21.7258,187.4835,-82.5800,207.5435,-85.1702,246.6405,-56.5684,250.0127,-103.8923,190.2347,-17.6802,241.8634,-50.4460,334.3939,40.1492,228.7466,-52.9579
-84.8763,179.8177,-17.4716,220.5515,-83.2468,192.7969,-88.8586,241.5168,-43.3267,259.5738,-69.0719,203.3758,-21.2012,237.3466,-75.7410,276.4073,-10.5447,250.1589,-43.6177
-18.0132,240.2886,-21.4091,233.0862,-59.9258,200.1351,-31.3317,279.8990,-38.4750,354.2273,-40.2883,237.9089,-12.9892,208.8523,-48.5168,290.2065,-82.9963,243.3430,-3.6623
-31.5047,249.4204,-11.3020,267.7924,-13.8162,218.7836,5.1406,285.2510,-24.3703,395.0206,-27.1711,280.5356,3.3515,207.7156,-17.6343,322.5236,-51.4459,220.6568,55.3664
-58.9849,232.0056,24.0884,349.9214,5.4114,208.6641,-26.3368,222.4254,14.4628,361.6977,-20.5789,313.0645,21.4651,235.5206,10.5423,318.2857,36.2479,198.8353,63.5977
-57.5491,175.3561,30.0899,355.7519,-21.5701,194.8329,-50.3009,198.1373,53.0851,317.1841,-25.4255,286.7228,19.8717,266.1141,30.0133,315.6368,64.7229,189.0388,47.0423
-60.4990,103.7961,-3.5519,217.5154,-54.5501,197.6801,-32.6802,245.0129,35.0287,272.3678,-48.2047,208.6438,-9.4889,283.2534,12.6907,314.0743,57.3954,176.3618,47.9810
-52.9216,109.2603,-1.4092,104.7441,-64.1082,164.5656,-40.4176,252.5721,-36.3857,235.2638,-61.0547,163.2129,-41.0629,247.7872,-41.1994,274.0268,77.1641,140.2020,42.2708
-33.5219,174.0644,49.3318,174.2593,-63.0626,100.7872,-92.7027,194.7443,-75.2322,207.3002,-43.7868,200.3274,-53.8905,189.1006,-84.1689,221.1749,117.3388,111.3642,39.9869
-64.3685,194.7972,91.1032,327.1097,-33.4446,101.6963,-95.5280,161.9550,-34.8548,157.4687,-15.6308,281.0049,-43.6081,218.0185,-61.9995,196.4982,179.1175,134.3788,58.2117
-101.8929,186.3793,118.3987,396.6060,48.4800,164.6519,-3.7619,159.4155,31.1957,115.3266,9.1487,325.0167,-10.6324,292.3123,3.9734,190.7447,259.9442,178.9818,43.2082
-41.0930,201.3602,129.8861,367.7449,102.4913,177.4684,66.1521,123.4192,40.7085,133.6298,24.4896,271.3399,9.8397,242.8521,12.5133,179.7242,283.9114,177.7965,-12.9664
46.8626,184.0603,65.8257,265.9940,38.7883,114.0375,30.4225,85.0886,-17.9863,167.0254,6.8311,135.8205,-29.4420,108.4022,-55.6043,151.7784,181.3772,119.7893,-27.9742
25.8320,104.8050,-75.8985,64.7873,-75.1929,47.9914,-4.3271,104.9232,-34.2119,159.7608,-38.5319,12.0188,-91.9812,71.1469,-76.8488,123.7989,-14.5254,47.9758,27.0440
-60.6741,24.3158,-193.5404,-147.4145,-117.9112,27.3942,33.4154,136.0170,69.5243,128.7036,-59.1985,-20.1980,-91.4391,111.8753,-9.0930,115.5921,-173.0673,18.2991,87.1775
-109.2299,-33.3866,-199.4682,-151.1760,-78.4697,62.5949,40.7742,116.4843,131.6927,78.6603,-29.3400,37.6527,-35.4055,101.3206,8.7010,82.3459,-148.1409,66.9969,81.9704
-128.7017,-73.9081,-86.4989,83.1028,7.7338,134.4904,-3.2021,89.9780,-5.2609,20.1800,25.7084,117.8102,-0.4072,63.4592,-81.6710,-4.9931,57.3256,165.1627,10.1209
-145.7831,-90.3596,83.3410,286.8228,129.0344,180.7373,16.8889,119.6328,-148.9591,22.2041,76.8647,137.2323,11.9032,71.1806,-136.6261,-60.2590,250.3225,240.1516,-33.0706
-142.5039,-120.8280,201.6136,252.8683,237.0764,174.8923,82.8428,185.2948,-76.7455,88.1231,108.3153,79.3283,49.4752,100.1316,-71.0057,-37.6065,272.4268,252.2782,22.8258
-130.0062,-179.7548,191.2910,59.2268,260.6145,159.2156,92.8995,233.9624,61.3844,131.9948,119.5173,23.6317,96.2042,113.8629,19.1191,-15.0316,137.4184,192.8819,92.3675
-147.7840,-191.5804,73.3572,-155.4614,184.8837,143.0580,86.4511,245.7929,72.1099,140.0515,125.5412,33.3005,109.9851,113.3849,60.3954,2.2993,-78.2133,64.5403,84.3100
-195.4573,-138.7433,-65.1840,-340.1327,52.9993,95.2012,101.2270,215.9134,22.7731,150.5256,121.3575,72.1277,102.2728,106.4794,74.7017,68.2940,-268.5604,-71.0411,43.3874
-208.4501,-102.2220,-132.4931,-408.7122,-57.7049,38.5308,52.1269,137.0013,-33.9440,118.4656,84.4633,84.2532,95.1366,103.0397,52.2332,93.2200,-287.3381,-120.2834,-2.1324
-130.5328,-111.8010,-81.5907,-280.9234,-69.9519,17.9530,-57.2594,28.0532,-122.5630,11.3613,36.3191,57.1642,78.5384,80.2084,-13.8711,-1.6592,-114.9991,-71.3156,-71.5590
-26.8736,-144.5516,51.4246,-56.7885,15.5666,18.0426,-103.0926,-57.2677,-140.6795,-71.3416,30.5222,-5.2082,53.8647,5.4044,-38.5045,-93.0902,86.3998,0.0226,-88.6107
-10.0081,-186.3330,171.7554,78.4560,118.2612,2.8305,-53.0467,-84.8246,-52.4427,-57.0989,71.1801,-71.0901,51.3223,-68.1247,23.8775,-95.1548,175.5412,16.5533,-29.1482
-45.4423,-191.1453,186.8884,56.2817,165.1803,-34.5358,26.7013,-81.7629,-20.0094,-41.5939,104.6633,-91.7227,82.1616,-72.8017,88.1958,-93.2490,120.8721,-49.9634,-43.9626
-32.1335,-143.9076,62.2404,-86.4783,127.2300,-89.7497,78.8195,-79.3819,-75.9164,-108.7861,88.1403,-89.3322,107.1243,-59.0757,90.3888,-111.3988,-51.6795,-149.7663,-150.5147
-11.3408,-124.1463,-117.4806,-267.6173,27.1512,-133.9298,69.6317,-51.0233,-85.5517,-166.0060,39.8595,-129.2192,76.1219,-93.6268,60.2209,-86.2144,-224.2199,-183.3685,-156.9773
-50.1106,-158.5066,-195.1390,-364.6692,-46.7711,-107.6359,28.6765,18.7963,-55.1252,-134.4812,19.3916,-192.9248,9.1002,-137.8871,14.1356,-48.6808,-246.7018,-122.4096,-54.6064
-82.1716,-181.5683,-124.5176,-318.3976,-23.0681,-10.2205,28.4549,67.7879,-63.4638,-110.5091,43.8320,-214.0233,-10.8344,-153.7718,-41.6451,-60.4729,-126.0644,-41.4960,-21.1482
-69.9743,-190.5179,-7.8746,-205.7296,61.3881,57.5798,62.2241,52.0741,-63.4492,-144.5563,56.8289,-201.9632,31.9063,-179.3851,-48.0700,-93.4740,12.6778,-1.8392,-40.6677
-82.9782,-206.6070,68.2520,-114.8858,123.6330,23.0794,75.5478,12.7791,-13.2790,-126.1838,19.9729,-201.4175,47.6679,-225.1938,8.4383,-105.2155,113.4223,-1.0912,11.0656
-128.8500,-170.1156,83.8836,-53.7076,127.5525,-51.2716,67.1679,-26.9915,37.8487,-55.4116,-38.0982,-197.9109,-8.0712,-233.7512,42.3167,-93.9704,169.1089,-28.5248,65.1594
-152.5538,-78.4984,21.5800,-26.1744,74.9997,-84.2657,37.4689,-90.4604,55.0311,-68.2513,-93.2881,-165.0105,-65.4124,-189.2222,13.1811,-74.0576,137.6208,-77.5793,30.7177
-147.2325,-41.4377,-94.2730,-56.8388,-16.6190,-110.7741,-22.8509,-140.0607,38.6318,-117.2814,-141.6379,-127.4218,-71.5814,-156.8933,-22.7221,-66.0559,15.4258,-128.0645,9.5560
-102.4016,-83.2141,-182.9390,-113.0975,-114.0081,-166.9925,-71.3889,-113.2204,12.3392,-53.2405,-152.5994,-108.0347,-64.2856,-155.5218,-41.0565,-57.9150,-109.1835,-149.7637,72.6871
-6.4233,-108.5234,-203.1917,-120.4150,-179.4053,-161.7107,-86.7260,-49.5141,4.0078,46.8905,-116.7675,-84.9238,-84.5310,-106.2848,-74.7714,-20.9356,-140.5682,-105.2341,105.5104
62.9085,-82.2950,-154.1633,-71.5172,-170.0303,-43.3988,-99.6331,-24.8261,-21.7639,43.2149,-79.2308,-47.7134,-116.7286,-7.8878,-114.7563,3.9247,-66.7452,4.8891,38.0033
48.9817,-54.3036,-33.0681,-44.9696,-67.0974,51.0379,-97.2262,-33.2662,-86.0849,-3.6406,-47.9645,-30.1243,-121.9887,10.9079,-111.2994,-28.9419,33.4292,96.0103,-32.6982
18.1173,-42.7162,90.9819,-89.4319,62.5826,10.1635,-73.5286,-44.7956,-119.1688,-19.6020,13.6987,-48.1977,-85.6090,-63.8874,-59.8972,-60.3750,71.2387,97.4785,-39.7658
-2.2923,-28.3344,95.0924,-133.8295,120.4709,-59.6498,-83.1453,-56.9790,-104.4971,-35.5000,72.8207,-67.4614,-38.2699,-98.0422,-11.3898,-35.6034,40.3411,67.9340,-31.0486
-71.3975,-22.2424,-21.4428,-72.0464,103.2617,-24.0546,-92.6716,-42.8382,-81.3581,-23.1970,57.0370,-60.6140,-19.9070,-95.6045,-4.9025,-3.6147,4.8463,98.8306,-10.5557
-144.2634,-35.8011,-123.2561,80.6742,82.6948,80.0606,-13.0313,16.6683,-5.5088,51.1505,-7.8680,-36.1863,-24.5922,-169.2153,-18.8422,-1.6634,23.5214,168.1757,68.7069
-94.7848,-11.7673,-111.8561,201.3529,90.9162,150.7450,80.3553,69.2928,94.3465,101.7200,-32.9886,-1.6952,-28.4035,-266.5088,-6.2429,3.7034,101.6938,193.6847,135.1823
53.5814,87.8323,-7.9226,222.1781,99.4432,159.3203,60.2862,71.2274,54.7512,81.5024,-6.4076,33.2827,-42.3674,-293.6231,24.0947,24.6041,172.5825,153.8253,71.0338
138.4781,155.8512,91.9885,184.7861,68.7317,127.5154,-22.3809,56.0640,-88.5375,60.0782,9.3859,33.7016,-75.5334,-320.0464,20.2180,34.2700,164.8564,86.7745,-59.4453
86.8697,84.9389,105.2449,139.1320,0.3502,83.5165,-72.2784,58.8677,-122.7835,70.5345,-16.4876,-15.2794,-93.7377,-381.2419,-10.4615,31.2252,114.0014,31.8577,-91.0053
-18.6363,-35.6213,54.2343,84.5174,-44.6449,45.4772,-93.4516,65.1390,-50.6869,89.4485,-48.5583,-71.6855,-62.9737,-389.9303,-3.2770,43.6783,93.0175,-0.0993,-4.8065
-87.2664,-85.6154,19.3859,15.1116,-28.9741,1.8719,-77.6399,57.5045,-5.0512,110.5632,-40.1142,-92.2091,7.3501,-358.2805,42.9879,72.8607,67.9154,-26.8841,89.0517
-113.2729,-113.1893,8.3122,-51.5807,-5.6084,-57.7788,-4.6209,44.2210,20.6437,120.0682,9.9233,-88.2705,74.4586,-373.9790,55.5991,65.8314,-5.1273,-55.3489,115.7050
-103.3265,-164.4451,-9.6883,-94.3920,-12.0787,-96.7208,63.2373,50.6168,38.5404,104.8009,64.7899,-98.0048,100.0054,-419.9163,21.6286,-5.5232,-46.7976,-48.7962,83.6232
-35.1185,-162.6214,-3.5987,-86.6652,4.7315,-67.4424,78.3354,94.9278,10.2398,80.5652,98.0855,-118.9429,92.6703,-448.8448,16.1837,-71.8774,2.9244,22.8163,50.5455
50.2604,-94.9464,49.5461,-3.8820,71.6604,18.9015,82.1461,147.7546,-14.7081,54.6374,106.0642,-100.1281,91.5018,-448.3937,63.9985,-70.3454,73.2270,119.3062,48.4727
60.3237,-55.8267,98.6449,112.9051,135.1374,99.5736,107.6797,156.2910,1.2033,36.3159,94.4041,-29.3201,103.5944,-384.0146,97.3588,-41.6644,108.6194,167.5334,49.3180
17.7351,-77.7071,107.1029,158.2485,163.3700,131.9775,144.6081,123.3801,28.4742,42.0165,87.3969,24.2992,117.8579,-281.9739,91.4178,-29.5786,128.7458,141.8761,58.7656
26.9369,-118.1992,82.6684,84.7573,164.4616,128.1831,175.2680,93.7224,87.4740,39.5717,108.1913,21.3884,145.8620,-238.3554,101.6687,-22.5016,114.7091,72.0099,113.9113
64.2321,-140.2339,14.3313,-50.6709,132.4950,107.8755,178.0643,77.9292,143.6597,5.0198,123.4059,13.5208,175.7939,-241.2439,132.0509,-24.2867,29.6649,-1.8122,144.7359
29.9542,-117.4525,-93.9851,-183.5861,75.5015,61.1573,166.1106,58.7599,94.6902,-25.7524,75.8680,22.3481,163.2217,-211.9337,125.6310,-30.3770,-78.2818,-55.7007,67.2210
-42.8037,-59.6488,-175.4302,-271.9028,20.0862,-8.0769,181.4698,29.5664,15.5650,-64.8514,-13.9936,1.2785,111.6040,-173.2961,94.0901,-13.9025,-127.7675,-90.4988,-32.1524
-55.4306,-7.1631,-182.0109,-264.9591,-36.6058,-60.6048,204.5598,-12.4507,18.6888,-139.6295,-68.1229,-47.7853,58.0273,-172.0683,83.5038,-20.7193,-105.0616,-122.9679,-48.7101
-21.8142,33.7903,-150.1957,-185.0590,-85.7214,-80.9002,191.7523,-61.4200,5.0239,-165.1852,-69.5037,-88.1178,1.4796,-196.7451,60.7357,-93.4085,-56.6867,-149.2244,-21.2383
-6.2142,57.9562,-131.7922,-143.4812,-76.6232,-91.8177,170.7799,-98.8922,-50.8460,-107.2099,-64.5499,-137.2846,-55.8692,-244.8017,0.8391,-145.0176,-22.2423,-142.5260,15.6189
-4.4012,37.5946,-117.9851,-155.3340,-14.5218,-101.8923,160.1220,-127.4568,2.0065,-88.8249,-72.3477,-191.2428,-86.9699,-290.3900,-29.1844,-121.6634,10.4567,-113.0419,73.9954
7.2531,8.6236,-73.3509,-114.7726,17.3750,-106.1021,116.6158,-160.9165,116.9043,-137.3011,-85.3116,-185.3257,-107.4740,-274.4669,-2.6483,-103.7611,67.4035,-111.1602,98.8854
20.6803,20.5043,-16.1943,-22.4177,-16.7752,-114.2038,54.1577,-183.4563,127.4669,-152.3108,-110.9680,-123.9435,-136.9189,-221.8054,19.4270,-113.8850,115.4842,-141.6564,63.0025
32.1867,15.1966,-2.2511,7.9645,-62.3290,-122.2426,39.7479,-176.4249,85.2449,-148.4564,-134.2560,-75.9530,-130.2481,-186.6399,27.7796,-103.5319,114.9249,-151.7948,41.2067
46.7060,-55.6946,-16.1130,-20.1852,-59.3786,-102.1497,65.7637,-146.8263,85.0419,-160.3362,-108.6528,-42.8927,-69.2830,-144.3414,57.4415,-102.6170,114.1624,-122.0291,64.8216
63.4834,-104.5654,24.1445,-9.4441,-3.7674,-51.1531,83.6741,-102.9260,99.7996,-105.6852,-34.9811,1.1329,-6.5851,-94.9640,72.0111,-116.9187,162.5794,-85.7067,95.8537
96.5358,-45.7301,116.3883,32.5312,52.3813,-1.7250,82.1230,-67.5296,116.4852,-19.3652,31.9463,33.9155,40.3244,-71.8511,36.9880,-77.6907,197.6069,-64.9401,101.1539
156.6867,74.1053,153.8883,38.2470,49.2949,25.3867,46.1845,-84.2028,91.3931,-53.6311,62.1508,53.9111,77.8885,-23.4285,8.0904,-30.8623,149.6313,-60.6956,40.8062
200.1251,136.0425,92.0380,17.8110,-6.1300,37.8045,-22.9148,-138.0153,-2.3638,-158.1742,59.6069,76.8615,61.7704,61.6062,22.4105,-66.7094,61.9458,-75.7276,-41.8404
170.3227,75.4468,7.8154,5.8190,-50.3195,40.3865,-51.0654,-153.7560,-2.1148,-172.8746,32.2549,64.3286,-5.1727,69.7090,38.4264,-113.3294,12.9145,-99.5065,-11.2359
96.6227,-23.1103,-22.3496,-1.2619,-51.6449,14.1365,2.8873,-118.6497,123.6188,-122.1399,4.8150,3.6184,-32.3735,-7.2734,30.1726,-98.3914,16.9953,-115.0173,87.7528
58.8999,-21.2226,-2.6642,-2.9300,-29.0393,-55.8070,63.0399,-94.1212,111.5632,-99.7088,-4.2953,-41.7987,-4.2023,-49.3777,14.3484,-89.3714,40.3320,-128.4396,65.2991
67.7915,51.4083,19.1621,-9.8031,-2.1576,-142.9157,66.3380,-106.6859,-45.4028,-101.8741,-17.5787,-58.9152,5.4402,-54.5791,5.1729,-103.0995,41.7876,-147.9442,-38.7656
83.2674,61.8028,14.8785,-64.9307,21.7784,-203.2707,54.3349,-130.3383,-69.8485,-107.8606,-43.0433,-97.5729,-3.3308,-83.5946,14.2730,-90.2249,6.4071,-163.5476,-54.1599
97.6117,7.5523,4.3201,-152.1831,35.9594,-222.5796,66.6764,-136.1549,0.7255,-99.5321,-48.4459,-137.2486,19.9011,-86.0744,34.2916,-91.2352,-35.3704,-180.1846,-4.0361
97.0882,-58.8027,12.6242,-179.3448,27.8699,-210.3369,68.0775,-110.3571,-10.5042,-62.1655,-34.0255,-123.3426,48.4487,-36.9443,27.5390,-127.1748,-52.2761,-217.8210,45.2456
45.8927,-151.3908,16.0556,-122.3039,-19.5742,-188.5730,25.5268,-80.4201,2.3418,-58.1191,-30.1470,-89.9223,39.4353,-19.6442,-1.7362,-120.3415,-52.7353,-265.4538,101.9461
-13.4939,-208.8333,-5.7522,-65.6291,-89.4277,-199.2476,-34.0909,-96.7139,68.1085,-121.8151,-32.4645,-96.1506,20.9223,-49.8281,0.6208,-76.2686,-50.4763,-292.0584,80.9601
0.8538,-134.3641,-10.6223,-65.1916,-116.6513,-257.2395,-69.2687,-150.6060,32.2790,-167.6015,-34.2534,-124.9397,23.9499,-50.4858,34.0488,-81.8638,-39.7589,-296.6396,-42.7240
59.4729,-25.7557,24.1704,-95.1632,-73.4924,-311.0270,-70.3158,-199.1630,-29.0989,-171.7240,-47.1221,-142.3465,36.5452,-11.3893,43.4574,-128.7430,-20.2526,-298.7957,-95.3054
96.5579,-37.3508,43.0419,-133.3853,-17.9036,-315.8063,-51.9178,-250.7419,-8.6794,-210.2165,-41.6915,-166.8808,53.4702,-1.8602,17.0187,-164.3877,-6.6960,-300.0025,-45.1281
135.6727,-128.3125,20.2450,-179.3972,-1.7138,-294.7805,-37.7068,-309.0293,-35.6785,-255.4673,12.8185,-218.4359,84.5920,-50.7682,-17.4385,-193.4311,-14.2975,-290.9579,-36.1509
168.3604,-189.7037,19.4339,-203.1178,-7.3419,-283.1594,-45.6512,-325.2860,-93.1812,-238.6393,76.2925,-263.2521,120.8108,-101.2504,-37.6890,-218.6941,-32.9859,-275.0452,-37.3818
129.3560,-194.5348,77.0997,-171.5664,-10.5162,-282.5898,-63.3818,-304.1974,-45.4169,-234.1440,112.9993,-257.8589,137.3577,-103.9206,-20.6914,-232.0472,-13.5889,-259.9569,1.7934
89.4159,-133.3677,134.5045,-103.3811,-23.1223,-282.8476,-66.2656,-305.8617,-25.0885,-305.4273,132.4870,-220.2136,119.0811,-105.2281,21.3072,-236.6395,61.6157,-246.7473,-59.6067
164.1336,-34.8471,132.3070,-53.0410,-54.7838,-273.5737,-62.9498,-309.8434,-106.8394,-352.4228,112.9947,-205.5200,74.9517,-138.9810,26.4069,-200.8788,109.8046,-243.8055,-193.6609
256.2065,11.5139,86.4578,-71.5030,-84.7486,-256.8231,-65.7162,-259.8284,-92.8517,-303.3907,45.1045,-214.3137,29.5136,-122.8174,-4.9341,-118.7488,60.8476,-263.4913,-177.1446
227.4135,-9.0203,44.2026,-156.7186,-83.0735,-255.3427,-45.8533,-203.0337,-6.8977,-238.5122,1.2687,-193.9993,-4.6835,-37.9027,5.2061,-76.7225,-10.3459,-286.7326,-54.5816
167.3844,-26.0940,24.1390,-212.3666,-57.4255,-267.4352,2.4147,-213.8886,-37.4136,-221.9125,6.8885,-141.4949,-30.4492,-22.4954,49.4523,-110.9653,-2.0721,-272.5579,-22.3156
189.9231,-12.0957,20.9459,-148.5956,-59.8680,-259.5695,18.6412,-269.2985,-86.1108,-213.5655,-10.2419,-115.8266,-45.9838,-107.8303,34.1540,-137.5487,59.4848,-227.2251,-53.5974
228.5031,16.5558,33.8964,-34.0412,-111.4296,-233.0944,-34.9524,-319.1966,-85.8275,-197.5361,-50.8118,-131.3228,-52.0632,-143.0197,-37.3504,-115.3850,103.4523,-210.9710,-96.0396
225.0695,35.2507,50.8504,-6.8680,-169.1966,-214.5559,-131.3753,-363.2529,-202.1107,-216.3825,-43.3228,-133.7627,-61.0191,-79.8899,-77.7905,-89.9506,107.8825,-245.7912,-191.1316
212.3995,12.1426,23.6151,-66.9944,-207.7336,-187.3183,-233.6735,-385.4044,-322.3671,-237.0024,-14.3153,-98.8561,-70.9137,-8.7386,-72.5460,-71.8225,48.8045,-271.7192,-229.1830
172.3102,-23.0093,-64.5067,-111.3039,-234.0108,-126.0722,-287.7778,-328.3398,-190.9498,-177.3372,-27.7214,-56.0047,-64.5930,58.0441,-52.7369,-37.9341,-63.7709,-225.8802,-124.2727
88.3870,-2.3078,-123.0188,-96.0755,-209.7112,-54.4813,-238.4822,-195.1714,-25.4729,-103.8333,-41.6591,-10.1494,-49.7356,144.5216,-15.8228,4.7770,-120.9564,-123.3105,-87.8590
32.8285,43.1755,-69.2862,-45.5303,-109.2368,-7.5015,-145.8902,-94.7154,-131.8125,-145.2568,-16.4868,46.3159,-55.8485,186.9162,13.4395,39.0856,-76.2162,-39.5592,-246.0509
17.9849,40.0309,5.4464,-6.4144,-22.5388,-4.3164,-134.3696,-109.1191,-290.8736,-216.0440,-11.2857,61.8203,-81.9446,146.9469,-9.8518,51.1772,-52.5424,-30.1352,-351.9991
-29.9219,15.5020,-36.5546,-26.3626,-28.0778,-55.6896,-186.8086,-170.3971,-225.4189,-163.7325,-42.9326,2.5899,-88.5922,88.5162,-50.5154,40.0128,-115.3019,-68.0535,-241.0179
-85.2081,13.1384,-124.6254,-79.5972,-51.9631,-122.5450,-191.6000,-170.7710,-121.0732,-80.1721,-32.2282,-53.2430,-58.4992,72.0284,-60.1307,42.3990,-147.6414,-74.6060,-122.6828
-67.9013,-4.9138,-85.8486,-93.1916,-10.7738,-129.3800,-154.6805,-127.3284,-197.6438,-86.5000,32.1754,-44.0447,-33.0018,95.0742,-80.3385,72.1366,-91.5935,-29.5794,-151.6875
-25.2310,-54.0959,44.8840,-89.9297,44.2221,-77.6456,-146.1625,-105.0735,-280.3976,-77.1757,58.1635,-31.2602,-51.9106,118.9695,-129.1796,75.3531,-51.4290,-0.0155,-141.5118
-26.8580,-70.8399,87.5476,-128.1583,47.0052,-46.1419,-142.0527,-85.6899,-155.1911,-15.3609,27.2131,-48.5566,-82.7868,109.2546,-127.2479,29.0491,-68.4443,-18.3554,24.1369
-14.2258,-13.0847,24.9420,-145.2949,26.2202,-54.4354,-106.1625,-49.5755,5.0157,-61.8619,33.5007,-31.8912,-74.2297,83.2841,-63.6767,-19.1177,-59.3207,-21.3100,88.0466
63.4622,75.5591,-14.5414,-84.1745,18.5117,-47.9952,-87.4308,-46.0709,-78.5322,-203.6239,100.4470,17.6763,-51.3929,79.2760,-52.7985,-49.2414,-6.2288,20.1201,-120.7573
135.2473,118.6262,8.4804,-32.7645,7.3008,-18.3108,-116.9891,-92.2564,-287.0462,-247.3967,132.8700,33.3088,-65.9821,86.8177,-130.6687,-81.5152,26.4640,32.5952,-319.9925
144.8518,102.1538,55.8889,-44.9728,-13.3472,-12.2178,-147.9767,-147.4600,-317.3364,-199.2734,101.0050,37.9468,-92.2764,88.7321,-186.8293,-113.7092,35.6429,-11.2044,-279.8721
135.6687,85.3411,129.9267,-48.2709,-11.7663,-30.6372,-140.5791,-188.2242,-227.3201,-199.9294,84.1690,70.1994,-83.6031,104.4755,-162.8688,-142.4122,56.3239,-31.1822,-202.5190
138.3430,95.6544,198.5922,-28.2736,17.3900,-29.8511,-103.0221,-196.3762,-239.9804,-244.8931,101.2702,70.4533,-65.9133,124.6603,-129.9514,-174.0049,66.1541,-5.2368,-217.3361
113.5352,95.5542,164.2164,-33.4109,22.4869,-10.4219,-60.6156,-159.4423,-253.7007,-264.9984,99.6691,20.6496,-65.1119,107.2546,-120.9076,-186.8138,41.2945,-7.3393,-140.2836
43.3770,67.8675,35.0089,-18.0055,-25.9856,-8.0283,-31.7156,-122.4763,-97.0795,-230.5385,92.3986,1.5586,-44.2502,61.2091,-74.6903,-165.7553,20.3195,-35.4723,28.0179
-14.8578,25.2034,-40.6127,56.2513,-64.6825,-21.1040,-5.9345,-118.1160,75.2158,-116.4486,111.3687,27.7999,-6.8539,36.1739,2.4123,-131.1181,35.1031,-18.3524,69.5915
-3.4366,-23.1807,11.8555,93.1952,-27.3351,-36.5711,34.7916,-108.6760,73.4180,-6.4202,110.8404,41.3074,-21.6158,48.3931,13.9838,-90.7146,65.0145,13.6635,1.8260
45.4158,-34.7085,97.4657,41.6176,39.0918,-79.4867,60.5598,-93.3556,-17.9322,-45.7799,66.4248,35.0197,-80.0020,68.9577,-42.1343,-51.5167,92.2362,-15.7815,-27.4316
50.5499,20.2059,109.5144,1.2872,55.7025,-153.2074,37.1458,-119.3495,-37.5690,-142.3799,29.5504,10.8977,-98.1533,51.1738,-67.4892,-44.4409,114.2391,-68.9738,-11.1141
14.7348,72.1962,58.9445,26.8659,35.0993,-199.2883,9.5758,-154.9289,44.0431,-80.9259,21.5245,-57.3291,-77.0159,-24.5247,-47.3835,-53.8499,103.5455,-70.1926,54.0834
24.1404,58.1881,17.1975,42.4931,16.9610,-182.7483,33.3627,-129.6662,127.8612,55.0109,27.3320,-135.1647,-80.5856,-108.3772,-34.0239,-35.8430,45.7091,-31.0359,137.5660
88.9788,16.0739,9.5988,-5.5126,-12.8174,-141.0261,69.4548,-57.1311,96.0105,37.1686,51.3947,-163.5175,-100.4690,-129.0079,-13.7738,-24.0896,-12.9198,0.5425,105.9257
108.1310,-29.7874,4.5911,-88.8024,-59.1956,-118.1241,60.0550,6.1629,13.0228,-49.3074,63.5302,-162.7476,-108.9251,-89.0143,18.4880,-50.7165,-32.0260,-0.2841,53.4406
39.5617,-99.5631,-15.0988,-160.2875,-86.3893,-113.6289,37.2916,27.6546,64.8366,12.1911,17.9384,-162.3048,-134.0145,-55.5983,6.2042,-53.2511,-23.8521,-27.3123,194.4566
-29.2669,-151.4739,-15.1682,-167.6108,-76.7790,-93.9786,50.4217,1.0082,197.6259,122.7203,-34.9541,-131.5887,-156.9013,-55.9277,-26.3333,-24.1767,9.5837,-26.3335,324.3501
-29.3714,-133.8233,34.7058,-93.4944,-43.0717,-37.5245,64.2537,-29.5784,172.4005,66.1769,-16.5549,-70.8766,-108.3305,-46.9789,-2.7503,-45.1565,64.9052,24.8156,159.8294
-1.4748,-84.9881,96.8245,-27.5809,-10.6403,10.6182,31.8043,-20.3909,8.7439,-62.5091,40.4763,-41.3806,-30.7041,-13.7013,33.7735,-84.0910,66.8217,45.5887,-44.5597
-14.3458,-59.6503,95.9886,-64.6953,-4.3884,-10.3044,-2.8600,-13.5158,-52.9831,-47.6055,51.0204,-59.1499,-30.7558,-8.8588,26.8440,-54.0125,-22.6338,2.5476,-0.5500
-81.9311,-64.4352,17.2830,-135.3719,-4.7389,-48.5741,20.7368,-40.4297,29.2785,47.2332,-2.9844,-60.7477,-75.8653,-33.0327,39.0423,-28.0013,-85.5123,-5.1315,89.3141
-152.3735,-95.8247,-59.6916,-100.8665,24.2922,2.4215,63.0490,-37.9404,92.4673,39.7593,-62.9340,-3.5281,-51.9398,-7.8852,78.7245,-77.7702,-23.7136,60.8890,55.9966
-153.3492,-137.7267,-56.4491,17.6564,53.7411,117.6844,62.4755,17.4846,72.0431,-30.6899,-49.3883,60.9064,38.2501,61.6507,68.2052,-102.7855,70.2711,114.6667,39.8729
-91.8009,-150.0878,3.0214,83.5438,58.3200,180.3824,62.9245,66.2816,53.7934,-32.4423,31.0112,70.2733,106.4475,92.1703,58.5189,-67.7409,78.5664,128.1531,67.8617
-71.6502,-108.3790,37.6144,66.6711,87.2087,166.4752,113.1562,98.5727,95.5082,18.1172,60.0171,65.9151,116.3109,104.0500,137.0143,-61.7460,22.6320,134.8802,66.2570
-146.4332,-32.8931,17.0592,45.5951,124.3929,130.0439,131.3616,132.7474,136.1628,61.8115,-7.3890,104.2873,92.0462,149.2994,206.5091,-29.6446,-36.1043,105.5858,98.3826
-238.1010,8.5709,-38.2625,47.9644,67.1015,83.2308,56.0567,122.2211,103.1077,108.5306,-61.6923,115.6898,73.5190,145.5379,173.2408,115.8900,-76.4393,27.4042,144.9636
-259.0643,-29.3618,-108.1198,41.5007,-47.0641,12.4962,0.5183,44.1751,46.7301,139.2280,-48.3988,31.4474,80.8080,44.2056,129.5694,214.7372,-74.7388,-30.1129,88.0743
-201.5728,-78.3707,-158.5757,17.3662,-67.5162,-60.9930,50.8297,-40.8091,52.4613,101.2538,-42.0630,-57.4051,86.1976,-32.6581,133.7610,126.9123,-32.6075,-45.5387,4.6197
-102.0596,-73.7117,-145.3766,-27.6446,-9.0319,-98.1716,88.4515,-85.2205,71.6743,4.5195,-56.1200,-63.5564,64.9695,-19.5995,109.0929,9.4508,-2.9545,-67.4547,2.6633
-35.6524,-106.6628,-78.4433,-110.0482,6.5635,-83.0336,16.0418,-88.1442,19.5283,-97.2932,-32.6282,-55.8599,45.6125,-2.9095,43.9289,2.3004,-5.8105,-92.3746,-10.4937
-70.1650,-229.9975,-21.0997,-191.8747,-2.5998,-45.0750,-61.1758,-65.5225,-47.7362,-154.7609,-2.7849,-94.4264,39.3297,-21.5058,7.9742,11.3486,-2.4309,-82.9037,-77.6988
-132.9794,-278.2677,-12.0193,-191.4731,25.7511,-33.4437,-54.4859,-57.7985,-54.7730,-144.7019,-33.0115,-125.4042,6.0051,-42.4574,3.7150,-40.8234,30.1674,-58.3434,-102.2809
-79.8186,-151.3593,-34.5740,-113.0821,33.2546,-58.2713,-45.3119,-86.2018,-63.6617,-114.8738,-92.2082,-123.4110,-54.1424,-74.1050,-8.5037,-108.7075,70.6792,-64.1521,-77.4153
54.6995,-24.9180,-48.0785,-70.6935,-21.5298,-100.6358,-84.9325,-115.3659,-106.4947,-125.3189,-114.8089,-135.8423,-86.3686,-115.1890,-26.2930,-149.2354,78.9917,-104.6218,-38.2676
95.2164,-52.0242,-19.9578,-131.4004,-65.4621,-149.7628,-85.2243,-126.1247,-64.4038,-155.2588,-86.3946,-173.2383,-69.3741,-124.4775,-22.6216,-132.6122,42.8103,-135.4687,39.1494
21.7616,-143.9209,49.8148,-213.2127,-45.3854,-165.6139,-9.9010,-140.6840,77.6258,-185.4198,-23.4381,-194.4512,-22.1530,-99.3382,11.6637,-78.8432,23.4708,-107.0194,95.7509
-22.5589,-182.4905,122.8867,-196.6136,16.8225,-91.5141,37.4994,-160.1562,120.2856,-246.7700,35.2067,-165.9515,37.1984,-66.1725,38.7823,-92.6988,84.8242,-28.3205,53.7866
8.9521,-179.9521,156.5283,-78.5967,92.8886,34.8850,-7.0480,-171.4199,1.6679,-303.9918,46.1481,-90.3829,82.5603,-49.0400,13.6304,-169.9070,175.4210,38.1872,-9.6011
30.9927,-170.4878,149.2787,40.5800,148.8668,98.9610,-67.2518,-171.2526,-77.0611,-284.4095,15.1228,-22.6135,87.3045,-72.2795,-24.8061,-165.0685,200.5000,47.1990,-26.0895
-1.4355,-147.5075,143.8126,76.7363,144.1234,61.0453,-64.3736,-143.3870,-33.7371,-206.6564,-25.5621,-22.3035,55.5993,-99.7713,-7.8496,-80.5286,167.7189,-8.7682,-36.2641
-47.7215,-123.9743,162.5937,27.8585,90.7526,-19.1005,-19.2969,-91.6934,9.4181,-120.3603,-65.7377,-64.6255,19.1214,-71.7267,43.6363,-56.9633,134.3265,-96.3766,-12.6672
-54.8033,-125.7358,150.3657,-39.5161,45.1176,-84.6454,35.1994,-54.9246,54.8595,-51.8857,-90.7045,-72.6017,18.8515,-34.9615,87.4587,-84.0681,93.9421,-137.1593,79.1744
-10.0881,-131.3527,45.9647,-65.6737,24.7944,-122.9588,107.0717,-28.3577,158.8530,-41.9105,-86.3237,-33.8126,58.6918,-47.6581,130.6857,-69.2171,19.7138,-110.1343,131.7376
26.4628,-120.0836,-95.7799,-83.4273,-12.6228,-145.6445,156.6796,16.4251,183.8765,-54.5208,-88.4551,-13.7331,69.6361,-52.1490,139.5457,-40.8931,-66.1740,-109.0882,97.2926
-28.9715,-147.8938,-155.0486,-170.2384,-86.5002,-169.4526,112.2929,40.3109,71.7135,-2.2910,-126.1777,-66.0322,14.7197,-32.0738,70.8389,-34.7224,-123.3442,-174.8621,72.2878
-151.4733,-240.2918,-113.9795,-302.4771,-131.1701,-193.8540,20.4527,11.4904,6.3473,34.9105,-151.1351,-164.9130,-19.3392,-61.7985,-1.9210,-24.6661,-142.4715,-213.4720,59.9046
-222.6161,-284.6032,-68.9727,-368.7616,-90.2645,-197.5589,4.9083,-6.3607,32.9398,-51.5338,-122.2379,-228.8504,24.1359,-104.3483,4.9567,-39.5831,-149.7137,-181.9453,7.4590
-210.6156,-213.7312,-89.0447,-329.6170,-29.6404,-162.1390,61.3718,31.5886,25.2618,-120.6433,-79.6913,-213.1573,52.9709,-70.9468,40.3730,-89.7403,-168.3945,-153.6530,-7.2302
-190.2104,-150.3896,-146.8170,-249.5951,-33.0634,-100.8266,81.9900,69.0866,24.5118,-47.4670,-60.6022,-153.9744,6.3613,-26.2718,24.7715,-82.8126,-184.2672,-159.0988,57.0943
-188.7854,-179.1431,-178.4488,-200.3817,-56.6605,-66.8335,57.0457,58.1143,92.9811,24.9845,-48.8587,-113.7192,-33.4362,-45.5183,-30.2939,3.3609,-179.4397,-158.6604,109.8295
-177.8293,-212.0544,-157.1534,-209.8276,-27.0312,-88.6007,68.7226,28.8162,117.4257,11.1116,-41.2340,-126.2185,-11.0034,-65.4204,-66.8519,75.0569,-170.0938,-139.0463,137.0574
-178.9902,-206.5497,-107.0539,-246.4001,31.2869,-104.0563,130.4563,20.1658,86.6686,5.5519,-48.0280,-177.5178,26.0997,-57.9267,-47.8089,92.4226,-168.5706,-100.4707,168.6093
-217.7392,-217.5958,-70.2799,-237.9033,75.8553,-48.2190,176.6232,29.8180,110.2475,-0.9748,-45.1900,-204.4249,45.5975,-77.8043,2.9756,63.3006,-163.6356,-33.7069,145.0939
-230.0065,-222.0636,-72.1590,-173.2370,106.8609,35.8374,172.7671,41.7049,152.9852,-45.8702,-26.5893,-163.2744,51.6619,-97.5084,24.9370,-21.3312,-155.7274,32.4204,101.0016
-157.3283,-171.4122,-101.5261,-128.9973,108.0532,71.8368,149.2848,52.1451,169.2443,-25.7455,-33.4532,-94.1064,38.6965,-52.0481,22.6476,-87.2710,-151.8445,46.0457,150.5786
-67.6456,-114.8286,-115.3688,-144.7986,64.8585,47.4330,137.3330,56.0463,202.7306,58.4338,-63.9281,-50.3492,23.0415,19.1487,39.8372,-28.9766,-149.1149,-2.2524,204.9988
-65.3015,-99.2303,-93.6424,-173.5087,10.9536,-13.3927,120.3895,45.1244,194.4990,83.7117,-67.4598,-30.2142,30.6564,43.7521,45.4393,85.6475,-145.1070,-57.7438,155.7565
-130.0051,-104.5223,-67.4239,-161.1389,-13.9348,-54.7191,81.9135,38.7643,124.8773,87.7549,-47.1584,-23.0535,45.7521,28.2269,13.7051,106.3719,-110.7303,-41.2608,131.5034
-135.3577,-97.7540,-43.0986,-83.9570,14.8381,-12.4413,52.2483,56.2672,117.1281,121.0857,-36.8968,-18.0853,49.6357,30.7179,10.5974,45.3798,-10.3825,41.4189,157.5750
-32.5509,-48.6785,14.0229,31.9183,93.0926,57.0362,39.3113,56.3502,105.9563,84.7056,-21.6429,16.3573,44.2996,75.2661,47.3783,24.6557,95.2094,68.2468,76.7399
61.9424,9.7198,69.0319,84.1353,136.9415,26.5719,-2.9974,3.1871,-20.2669,32.4091,5.3134,60.0504,15.4892,101.2538,40.2147,83.0891,100.6024,-23.7680,9.5478
36.1649,-14.2899,47.2413,10.4354,69.7052,-77.2815,-69.4940,-53.1776,-42.5371,115.6093,7.3161,47.8641,-29.9525,48.2967,-15.0904,158.4196,25.1407,-137.5591,142.9338
-43.1197,-84.4237,-17.8598,-88.6877,-44.8769,-128.1530,-99.7622,-74.4808,107.9800,179.7397,-13.4137,2.6910,-41.2954,-17.4470,-45.5754,169.4950,-37.1241,-180.4491,201.2956
-58.5977,-81.7758,-64.7910,-94.9531,-113.5358,-129.1652,-97.8274,-97.1886,83.2190,46.3659,-29.5242,-7.5520,-17.9732,-7.6528,-37.4554,100.1508,-75.8568,-168.9150,-35.3177
-43.7747,-62.0398,-139.9836,-56.8993,-153.6359,-150.9700,-99.7501,-121.4172,-112.0808,-60.0535,-62.0116,-21.9553,-17.4684,17.1685,-6.6313,38.9503,-119.8041,-133.3856,-199.4713
-85.6623,-122.9903,-249.1030,-74.8123,-190.2008,-173.6778,-91.6084,-108.7833,-85.4264,45.7309,-112.6307,-102.0275,-46.7977,-33.7676,37.8993,57.8162,-153.7698,-87.1059,-63.1469
-145.9784,-158.4118,-273.3936,-116.1126,-191.4379,-165.2615,-89.8079,-91.6832,52.6093,126.0389,-124.2133,-187.1312,-73.2011,-113.9744,45.5467,85.7752,-161.5644,-59.2884,12.6235
-147.8584,-78.1381,-190.2883,-93.0649,-163.5511,-147.5395,-144.0406,-111.3107,-70.8781,7.2110,-97.0998,-196.6486,-98.0887,-141.6268,-5.9532,43.9188,-132.9112,-49.5416,-145.8495
-111.0312,11.1587,-122.0963,-28.6991,-136.9523,-120.2824,-208.0042,-132.0739,-266.3464,-113.4405,-104.3698,-154.5833,-121.1351,-113.2508,-48.5993,2.1404,-66.6355,-30.7570,-229.1242
-89.5736,28.1889,-126.3713,-13.1394,-112.8267,-73.4250,-205.4342,-121.1304,-213.6503,-77.1168,-163.6043,-121.2644,-123.2057,-54.4626,-41.5023,35.7338,-32.1886,-11.3148,-123.2938
-96.5600,-0.0028,-172.0645,-45.2820,-119.0487,-40.5505,-161.3537,-79.2088,-74.1860,18.4907,-218.4807,-112.9190,-123.2582,-6.1655,-25.3075,79.4006,-82.1649,-5.4774,-39.7394
-117.3146,-43.6148,-222.1635,-42.6433,-168.6235,-47.1444,-104.6719,-5.5917,-37.0872,78.8007,-221.0838,-116.2627,-146.9935,-25.0271,-27.3224,72.0986,-128.0679,-2.2263,-28.7969
-112.2184,-41.3574,-200.0147,8.3032,-171.7080,-70.8981,-13.5646,57.5987,2.4089,129.4141,-168.7864,-114.0622,-162.2740,-88.7796,-34.4699,58.2803,-81.0259,2.8888,22.8879
-47.0709,39.1956,-67.9017,49.7335,-63.9987,-62.6872,71.2927,63.6679,84.0379,166.3516,-104.1235,-93.1474,-131.1389,-92.8235,-37.2310,48.2884,8.6892,23.5102,95.6619
46.5643,104.5822,63.0299,83.0937,74.2232,17.9574,89.2418,55.1229,100.9093,117.6798,-68.1134,-42.8885,-72.6479,2.1135,-37.3079,-2.1296,73.7916,70.4262,87.1664
104.3400,105.4915,92.6976,138.1432,135.4144,131.3622,66.5416,69.2649,58.3531,9.5871,-47.4584,30.4157,-29.9755,114.2526,-36.4511,-38.0966,95.1289,89.2779,23.8509
96.2560,86.6333,56.8741,162.8604,88.7570,176.9940,37.9851,73.7115,85.7359,16.3210,-29.1851,75.6774,-15.9821,154.3963,-12.6188,36.5685,43.1175,50.6348,53.7300
25.6830,15.0676,0.5796,122.9683,-14.9746,152.3974,16.9903,86.5615,205.5105,183.2253,-32.2201,55.5037,3.3084,132.7050,59.3026,168.7093,-40.4065,45.6664,179.9582
-57.5886,-94.3161,-43.6664,102.7009,-50.3351,155.5514,49.6643,140.1664,217.1580,267.8224,-23.1078,24.9275,61.0663,125.2444,124.6966,225.6207,-33.4797,119.9901,160.9859
-70.8149,-81.9619,-9.3168,143.4336,34.0922,200.7816,112.7792,171.5007,15.1626,128.8822,42.4508,37.4982,116.5193,155.5512,107.0378,187.7559,51.9241,164.7941,-51.1908
-19.2970,23.9804,68.5564,148.9667,102.9670,211.5938,109.0055,165.7940,-101.1751,18.5499,97.1908,45.8484,107.0099,175.5677,57.1311,133.7954,76.8306,113.5890,-97.6504
1.8786,12.0644,71.2069,69.2722,70.7341,165.2531,72.5657,194.6946,80.9066,135.1958,78.5297,20.4224,63.5325,167.9595,59.1219,123.0771,25.4090,38.6198,138.6435
-20.3509,-77.9113,22.9556,-11.0509,58.5883,94.4266,98.1935,200.5115,217.9763,243.3612,55.6566,17.7797,48.6158,162.3828,64.9847,151.0650,-9.2814,-5.3720,245.2725
-12.1623,-67.2072,19.2482,-20.4746,118.5155,27.1320,106.8566,81.4742,58.1269,115.4829,68.5198,41.0732,41.9629,156.3854,19.6222,159.3253,-13.5480,-27.3103,54.3260
25.0565,-17.5499,20.4605,18.5176,123.7558,-3.6089,17.9479,-51.9263,-87.1679,-62.8587,54.7558,27.9162,27.2539,135.3668,-12.3258,116.2841,-21.9056,-20.6046,-84.1804
24.8722,-31.0482,-19.2019,43.6854,60.7178,16.4843,-40.0789,-50.8389,-37.4387,-58.8084,23.3240,-9.2595,61.0420,119.5455,14.1423,81.3504,-27.4730,15.3455,-30.8551
-15.3258,-35.8391,-30.6025,16.1926,59.2244,58.3568,21.3584,28.9335,-18.1155,48.0697,36.9622,-18.5173,132.5368,102.9197,52.0815,98.6056,-18.5572,50.5655,2.2007
-40.3973,-6.4038,9.9722,-19.0682,118.5965,97.9601,82.8744,86.3125,-49.9531,100.4879,56.3304,-6.3308,136.8515,57.1590,67.8604,114.6064,11.4907,73.7704,-9.7922
-18.9035,11.2677,43.6252,26.8132,132.9899,130.1347,59.2477,111.9399,24.0688,97.9676,39.1512,27.6012,66.6035,29.3211,64.7075,101.0189,62.2975,91.8494,36.2152
21.7515,49.0970,56.8113,133.3013,97.9975,149.1117,9.7909,100.3814,106.3850,85.4023,47.1417,105.0982,32.5227,78.8860,56.6148,106.0287,83.1110,104.3852,66.5490
23.1870,104.3837,65.4000,189.1995,67.2753,162.5899,-18.3135,57.1806,89.0188,77.1370,98.3469,174.7527,66.9765,145.5358,71.2586,132.5398,43.7874,109.1154,29.2614
-6.9626,113.7606,65.1917,179.5595,40.0099,162.0979,-36.0089,26.8122,42.3707,90.7645,112.5187,165.2950,85.5050,142.0589,86.3144,136.7088,10.4540,88.9698,-5.9014
1.2728,96.7951,53.9123,170.0406,-5.8771,110.4393,-57.4515,18.6566,-27.8638,100.9260,58.5734,98.5116,40.3099,95.5439,42.2693,119.6877,26.1650,38.3137,-27.3529
24.5018,74.4313,15.6575,159.9879,-68.9364,42.0293,-82.0327,29.2292,-88.2047,59.7060,-11.0916,32.7533,-17.9942,64.5574,-18.2158,94.3489,40.4162,18.6530,-35.7264
-14.7354,20.8494,-42.2024,136.2633,-112.0048,50.8609,-74.0924,75.8224,-23.6700,7.7762,-43.7577,-9.3068,-31.1612,42.9378,-8.2466,64.3282,37.0747,79.9523,-25.1919
-45.8568,6.9744,-48.5427,152.5975,-82.3342,121.6576,-13.1538,123.5291,37.0233,6.9280,-25.6969,-7.2513,-14.3802,34.0571,22.9403,66.2521,63.5213,159.7989,-89.4695
31.1967,90.1605,2.5100,219.1423,-1.1087,157.1328,40.1766,132.3873,-73.1403,20.7259,2.3993,47.4727,-17.8820,72.3166,-7.7842,95.1476,116.8415,181.7012,-209.1237
113.2887,161.5235,26.5730,267.9893,41.6455,157.6016,48.4690,146.5030,-140.6231,20.4514,-5.6150,114.3454,-35.3324,128.2327,-39.0740,75.9561,146.7686,166.0374,-167.5417
79.9137,161.5957,26.5347,271.6990,27.2142,179.0470,68.2813,187.9579,7.0480,54.5636,-15.3774,153.6730,-21.1573,138.0093,6.0198,26.2956,126.1231,153.1828,24.8441
13.9343,163.8734,45.0303,238.7805,9.4410,202.8394,109.1856,205.8371,127.3401,108.1454,17.2829,164.9137,12.7726,121.2823,64.3292,60.5183,50.6705,134.8173,98.2158
0.0411,154.6844,13.1267,155.9928,-9.7981,197.9089,98.7446,190.6402,61.3781,111.3144,40.3908,154.1288,20.7913,133.9916,55.6585,168.1234,-41.2431,104.9185,30.0838
-10.2134,87.0809,-84.1302,69.2875,-52.2380,184.4572,34.5322,162.9002,-12.6526,90.0908,8.2758,130.1552,13.5205,152.9432,14.8694,210.7742,-72.3519,79.9215,20.5309
-25.9228,50.7030,-124.7452,74.2609,-81.4302,172.6822,-17.5043,120.2939,21.0332,88.5625,-24.4743,114.6368,15.1710,129.7069,5.5651,148.6934,-42.0144,78.2068,64.9675
-20.3082,102.0746,-98.2780,147.3447,-70.7266,162.9336,-46.2018,108.0090,82.9801,70.7385,-14.9604,109.2002,3.8821,87.0698,11.2886,86.4222,-37.0505,121.8278,35.9593
-51.2429,154.1856,-95.3096,177.8279,-51.9775,176.5107,-78.1438,163.4928,75.4930,60.6266,5.6292,95.9840,-18.4844,69.4693,-10.9922,112.0661,-73.1775,198.3433,-48.9748
-126.0448,159.2439,-72.1733,162.5289,-42.4863,197.6536,-111.2403,206.2602,-37.7052,132.5237,13.2341,81.7649,-12.1770,77.0737,-36.6362,189.6098,-79.3495,232.9490,-111.0499
-134.7722,156.4268,15.9612,157.9579,-30.4888,174.7084,-122.5310,177.6010,-155.2847,206.0668,9.8863,84.2349,5.5201,90.9712,-24.6535,212.1732,-50.4076,179.3907,-111.5956
-63.2126,156.6326,51.8852,122.0411,-27.5087,110.7258,-90.5079,142.0551,-132.9292,153.4458,-1.0943,87.4759,-12.0930,89.6451,-7.5695,153.7184,-52.8354,91.8426,-49.7525
-27.8773,136.7946,-7.6473,11.0036,-44.4365,47.2548,-34.6940,128.9024,-35.4124,49.3575,3.4227,65.0874,-41.3575,51.8698,-18.7624,107.1236,-97.7808,40.1502,-3.7784
-64.3561,83.1479,-37.5563,-89.8623,-53.0447,-15.3923,-21.2136,96.3506,-9.6953,45.0950,27.8381,21.5480,-46.7274,-9.3165,-21.7178,123.6107,-130.9095,24.8784,-22.0286
-94.8267,20.4296,8.4905,-93.7746,-28.2398,-81.1651,-62.5430,60.8602,-23.1417,136.1801,20.1674,-26.4837,-54.7415,-62.3978,-11.8763,142.9792,-109.4552,27.2713,-10.3913
-61.4712,11.7340,56.5682,-34.6238,18.5298,-98.9573,-87.6255,60.0948,-15.5005,211.4548,-29.0466,-66.2795,-68.7768,-98.3718,-33.6089,132.9115,-34.6727,63.8447,60.1231
20.0268,53.5990,76.1024,20.7725,71.9208,-28.5382,-61.4853,74.9962,-24.9724,186.5157,-36.2917,-60.6281,-39.4118,-95.5237,-52.8832,128.3061,41.8476,139.2918,52.2090
69.4255,64.2661,83.4427,48.5214,127.0869,84.5812,-26.2460,88.3476,-33.8359,79.2184,35.8446,29.6067,20.3021,-17.6248,-18.2492,124.9482,57.2440,204.5287,-57.5215
24.8744,45.2111,89.6561,48.2141,155.5904,162.9665,-24.6071,98.1849,-6.8202,17.5870,104.4178,163.6459,33.6075,97.6737,6.8171,95.5968,25.6391,209.4599,-109.3087
-47.2452,64.0797,99.2549,51.1542,113.8631,185.9001,-66.1636,94.0234,10.3369,64.7529,95.6017,242.0199,-9.6630,159.2634,-18.7155,69.0457,19.3719,165.6384,-47.6981
-48.1045,98.7828,85.4355,94.7402,17.7426,181.8092,-116.2703,100.3529,16.5679,113.6476,34.9676,239.8214,-49.3638,152.6469,-11.4934,84.9927,43.9102,125.5054,16.8913
-13.5570,107.9772,33.9113,143.0675,-51.6468,174.2827,-109.3333,145.0879,27.8811,109.7406,-26.4852,230.1516,-59.7087,143.7661,42.8740,132.5978,38.4359,121.4064,15.9853
-27.1311,123.2595,-10.2355,138.6990,-57.2162,177.7115,-47.4686,198.3475,-17.5226,159.4559,-74.5288,257.1791,-57.6293,175.5026,44.6532,162.9680,-8.2874,147.5502,-6.4376
-69.9988,144.8068,-37.7425,121.7514,-46.4106,207.9643,-7.6461,246.1163,-67.5409,291.0615,-96.1385,284.3601,-48.7245,230.8378,-5.5996,120.5764,-58.1368,187.4087,18.0229
-86.4908,149.4131,-79.5282,166.5881,-48.4751,263.0341,-9.6149,317.4033,14.3141,386.0050,-63.6443,285.7527,-32.7619,267.5863,-20.3774,-0.8649,-94.1146,236.3124,83.1996
-67.3586,193.0502,-81.7780,259.2437,-34.4546,320.7059,-16.8935,388.3250,107.9971,382.6405,16.4172,301.4362,-21.6649,279.8257,-18.8283,-136.7831,-96.5227,287.6166,82.8140
-14.0642,310.8030,0.6882,352.6703,-8.9248,356.0249,-37.4149,407.0208,10.9068,321.4625,85.1151,371.7764,-19.6301,316.1692,-62.4640,-234.2212,-41.0875,311.7727,-39.8374
54.7326,427.9731,60.6414,438.1980,-23.3626,344.1994,-75.0553,389.3376,-137.3438,264.4702,87.6223,464.6227,-18.1929,383.5568,-98.0058,-296.0804,19.9549,286.4288,-161.3306
82.6066,471.5910,16.5247,482.1522,-79.5419,288.4803,-88.4810,370.8957,-111.5746,276.5065,32.9676,509.2313,-16.8181,410.7360,-56.6073,-331.5467,1.0447,241.8508,-147.8586
40.1750,438.9093,-45.9756,431.4774,-125.5703,249.7429,-87.4960,347.8788,-4.5377,359.6478,-17.0150,489.5114,-22.8929,387.7022,7.5166,-355.3448,-79.4291,229.7583,-53.8683
-41.9135,378.6421,-65.5302,327.4760,-138.9822,279.8378,-112.1012,322.7957,16.7122,430.8246,-19.1201,443.1965,-34.8369,390.6440,14.7883,-395.8375,-136.9001,258.5296,-3.7368
-104.1237,365.4391,-90.0874,271.2866,-131.8432,341.8451,-127.4660,313.1470,-14.5848,440.2139,5.7048,369.5348,-45.0037,416.7840,-13.8562,-439.8338,-152.0658,296.6624,-15.6987
-90.3849,400.1248,-116.0312,278.0649,-109.3259,365.8512,-102.8038,310.4898,-32.1324,396.2983,14.0511,236.2093,-55.0988,393.2530,-32.7824,-460.5681,-145.7291,310.6371,-44.4006
-12.1561,402.4806,-86.8526,292.8653,-78.1607,342.1364,-85.9258,291.3662,-38.0610,315.9898,4.5161,82.8668,-68.7456,336.2502,-63.2449,-489.6628,-112.5546,281.9384,-62.2501
42.5506,367.0080,-26.9477,297.3004,-55.2189,303.2420,-94.6428,249.4442,-36.9332,261.6518,7.3637,-1.1961,-72.5985,310.4448,-108.4866,-545.7048,-67.3578,226.9291,-62.3609
31.8410,337.0485,-6.1404,292.5208,-52.4225,262.8328,-108.0333,197.2752,-72.7893,266.1017,28.6321,-2.2619,-54.6233,308.7630,-108.1240,-579.3325,-51.0076,186.3247,-70.7137
-2.1122,267.9090,-39.8789,262.6649,-84.1049,209.3111,-162.1415,143.1310,-174.9322,226.6228,33.6573,15.1486,-37.7490,293.4936,-74.3750,-578.7112,-57.5568,163.5063,-117.3500
-40.9911,152.1609,-97.0354,223.7978,-149.2225,138.8018,-253.7995,81.6670,-230.9040,105.8578,-12.9549,8.4494,-50.9206,253.3969,-95.3087,-593.0349,-54.3514,124.8779,-161.8275
-75.9242,109.8316,-131.2576,204.4946,-185.3711,78.8283,-265.8606,32.6330,-155.6041,53.9888,-82.9744,-7.7529,-74.5302,201.1007,-143.3343,-627.6004,-51.7929,70.7850,-147.2510
-35.6450,166.8487,-108.9406,168.2890,-132.2390,55.0629,-170.1331,33.1377,-77.5972,111.4457,-89.6872,-5.5338,-71.3686,175.5676,-117.4108,-649.0186,-75.2567,32.4579,-111.2169
78.6160,194.6873,-55.7948,79.8309,-45.1772,42.3686,-104.9885,50.9384,-111.2046,121.2062,-15.8110,4.0523,-50.8015,178.6411,-59.9722,-648.3615,-112.0579,16.1240,-112.9982
123.8514,145.5576,-30.9012,6.9036,-23.5663,8.5536,-129.3118,17.5196,-160.2060,50.4354,32.3442,-16.3260,-42.4925,148.8529,-70.5570,-626.3860,-126.5214,11.5694,-120.0326
51.8359,104.4042,-44.0015,25.2357,-55.9236,-20.4486,-144.6191,-42.3172,-140.8021,14.8463,-7.4606,-48.8481,-44.6733,94.6891,-109.2576,-602.0735,-98.7322,14.8215,-97.6190
4.0360,127.0438,-56.6433,89.2032,-69.4735,-11.4942,-108.7990,-59.3816,-115.8901,23.6153,-49.3024,-33.5881,-47.7887,88.9496,-105.6844,-611.8154,-54.3720,17.5285,-85.1912
56.2166,172.3464,-51.0658,102.2715,-63.1500,18.9462,-82.0116,-39.1532,-96.8351,25.2927,-20.8957,7.9835,-56.4391,89.9454,-85.6830,-625.7404,-48.5794,21.0914,-77.4259
113.2980,162.1395,-41.6608,43.4983,-66.7071,50.9070,-79.9049,-11.5117,-24.0255,33.2267,30.7432,3.4344,-61.3937,29.6295,-74.8777,-585.1385,-83.3769,41.4990,-19.0798
116.4886,104.2482,-34.0408,-29.4649,-62.6350,79.1732,-79.1323,5.4511,30.5923,26.0345,59.2603,-23.3157,-46.7776,-7.5382,-71.9426,-535.1072,-94.8416,68.9308,25.5101
122.1736,109.9764,-19.8946,-44.5070,-31.8598,79.3835,-92.9658,-38.1387,-49.5596,-39.4579,71.1754,-11.1663,-21.8011,22.1257,-96.8839,-540.4812,-59.3682,75.7849,-51.4494
158.0783,190.0067,1.8604,17.9832,14.0599,43.1322,-116.9966,-134.1206,-184.5621,-107.5649,62.0513,7.5764,-3.3527,-7.3802,-123.8128,-551.9506,-16.8087,66.5379,-172.7230
179.8513,212.1971,35.5773,97.6438,55.8209,5.3927,-116.2878,-176.2420,-218.2626,-124.9491,46.8593,-0.2196,-0.1448,-107.3175,-99.3055,-531.2672,19.5984,60.1693,-205.5192
160.2327,164.8847,89.8939,129.3506,60.3347,-16.7245,-113.8939,-142.9522,-175.6573,-131.3408,74.3763,8.7999,-23.0873,-123.6528,-60.1062,-526.0410,58.3723,50.1707,-198.6512
126.9141,162.7017,136.7766,122.1115,12.9703,-37.1936,-155.4038,-121.1247,-168.4003,-132.2013,123.5510,43.0671,-61.7653,-57.7374,-57.9148,-509.9252,73.3593,22.0644,-214.8456
129.3665,192.1604,129.2175,120.0633,-35.8634,-52.3717,-201.8714,-115.4711,-175.0588,-88.4877,115.8560,70.1832,-81.4685,-37.5203,-56.1326,-411.6544,65.0735,-20.4609,-167.4172
176.6174,192.4726,87.7879,147.1967,-41.4845,-54.9169,-186.8952,-78.5562,-124.4757,-51.6435,53.4743,107.5961,-80.2626,-43.6666,-36.1712,-310.8531,92.4161,-49.7251,-61.1070
204.9920,222.5987,83.4452,198.9904,-17.3284,-49.5278,-119.7691,-45.7660,-74.0047,-88.7027,15.1044,148.3104,-78.6018,-11.7843,-35.9993,-313.3386,152.9938,-29.5779,-54.2784
159.6575,269.8632,117.2826,212.6824,34.3504,-17.1479,-40.8373,-36.5277,-90.1218,-124.5411,37.7864,126.0395,-54.2893,1.7530,-37.0865,-338.0302,153.1950,30.1487,-123.8729
88.3641,204.3247,118.0790,110.9830,106.8774,55.2595,34.5681,4.2067,-71.1230,-63.0445,82.5399,63.4632,11.4721,-20.4751,3.6138,-290.4490,63.8508,67.8383,-75.2622
69.0920,58.3375,58.9878,-53.8372,125.2224,118.1445,81.7808,61.9659,50.9044,17.8511,82.8158,49.5671,66.3900,-11.5747,48.5872,-239.9356,-20.9630,57.7495,61.3977
86.0004,-10.2863,-16.6427,-131.1884,62.5446,116.1769,78.5010,53.8176,95.7393,-9.4275,20.9649,57.5789,64.1358,-3.3477,38.9766,-233.4493,-25.7703,30.8265,73.3124
76.4505,-0.2235,-66.7040,-87.2583,11.7000,59.6738,59.1483,-20.8850,-36.5905,-90.3576,-34.7409,8.2841,35.3839,-68.5061,-12.4872,-200.1731,11.6449,-3.2401,-34.0252
43.4646,-8.1348,-76.6305,-30.4963,20.3182,-9.0947,71.9473,-84.6715,-97.9337,-88.8180,-20.0290,-63.7181,23.3446,-137.7158,-40.3979,-134.0526,23.3561,-51.3551,-70.0584
31.5916,-38.8754,-41.6961,-34.8086,42.1276,-58.9189,105.5725,-87.8327,45.1756,-27.1514,36.9228,-84.5524,33.3764,-117.1526,-8.3896,-107.2816,13.4999,-80.8540,0.8720
48.4921,-52.0474,26.0565,-78.4138,74.8167,-71.2382,120.3594,-51.0005,131.7034,-14.8958,76.5105,-57.6323,50.8390,-65.8281,31.0210,-116.3616,28.9562,-68.2148,61.9470
62.8225,-43.1333,90.3822,-106.8903,129.7441,-57.6302,115.9987,-43.9804,68.0302,-52.8804,77.9774,-23.9244,50.5555,-81.9461,23.1615,-117.5852,68.0630,-46.4530,71.7177
40.5035,-43.2348,123.3904,-86.0524,148.0553,-61.6303,124.9088,-99.9256,106.6936,-83.8599,50.0681,-26.6228,32.3233,-148.0891,32.5707,-112.2306,84.8509,-46.7043,77.2907
-19.8284,-100.3131,132.1318,-54.4951,114.3839,-110.1183,155.9866,-165.4661,221.4574,-95.8271,34.6734,-93.4984,41.7252,-200.3875,111.5464,-93.7513,70.6934,-67.4268,92.3647
-67.1175,-197.2937,127.3899,-89.5726,92.4817,-178.3668,173.3285,-186.1698,130.9385,-96.6243,69.1497,-174.6526,84.8960,-231.2666,155.2714,-59.6347,57.9509,-101.2681,86.8629
-50.8968,-250.8613,100.4835,-172.3419,91.5383,-209.1862,151.0738,-160.3167,-45.1545,-119.4424,105.8913,-188.0266,101.8274,-248.5447,100.6913,-59.8271,55.6325,-122.4830,63.2528
4.4155,-254.7987,67.0736,-205.5415,85.7922,-166.1183,132.9189,-93.2916,2.2105,-184.0631,84.2984,-142.2740,86.3477,-230.1377,60.5942,-92.5456,56.6066,-94.9573,79.5328
45.2166,-260.3411,70.0399,-174.5565,106.6918,-77.4841,181.3023,-18.0215,169.9161,-199.2705,49.9116,-104.2860,97.0561,-178.2483,91.9218,-78.5197,73.1467,-36.5785,156.1590
80.2350,-236.9696,99.7356,-141.5557,166.9927,-9.3125,274.4971,-8.4757,222.0637,-119.1838,66.3218,-87.8809,131.5088,-136.5299,113.3197,-24.6340,98.2261,-2.9038,199.0828
137.4445,-160.5639,106.3768,-126.7518,220.9750,14.6800,324.2607,-70.8091,174.9697,-94.1009,109.9942,-68.6012,139.4919,-117.7263,96.3729,-15.3752,100.8672,-0.6924,129.2972
185.6052,-116.4024,103.8209,-117.7525,247.2802,28.1604,289.5104,-127.9812,59.8922,-179.0838,143.5993,-44.9252,117.7819,-99.2815,56.6513,-36.7510,105.2169,0.1665,42.4018
185.7948,-147.8867,135.5583,-110.2435,242.2923,48.1385,211.0130,-144.0795,-113.6871,-192.1934,154.7471,-30.4578,82.9153,-89.5757,-28.6615,-16.7676,160.9372,-9.4061,68.2567
152.7185,-188.4721,165.0232,-94.0687,191.2634,33.9265,147.0328,-139.7685,-185.8351,-102.1294,122.6501,-32.1011,46.8525,-105.6990,-97.5756,33.7960,209.6993,-60.7994,148.1438
105.6358,-206.8277,129.8498,-94.0008,119.1747,-49.6461,119.4710,-129.0744,-111.9241,-91.1691,72.0873,-49.3197,46.3004,-125.5326,-44.0334,79.0034,139.1142,-138.8108,153.2921
41.4758,-225.5708,53.2945,-164.3015,63.1580,-158.4836,111.0221,-130.4457,-67.0708,-152.6074,64.1692,-77.3945,80.9023,-136.1518,61.8698,124.9286,-8.6821,-192.6661,107.2925
-14.9519,-235.1347,10.6552,-264.1044,15.0050,-209.9413,96.1999,-156.6993,-83.6594,-143.0795,75.2060,-111.5332,87.0421,-154.1100,85.8175,156.7424,-67.9868,-199.9172,88.6802
-33.7916,-231.5184,31.8107,-277.9841,-27.0800,-185.5214,75.3817,-179.1417,-74.9282,-104.0247,45.7639,-136.3292,55.4727,-171.6417,66.5927,152.9313,-11.2048,-179.0351,62.1424
-47.3272,-249.9996,64.4423,-206.0060,-53.2693,-135.8462,62.7776,-177.8304,-111.8789,-115.1964,8.5539,-132.4991,34.8740,-177.2731,82.8643,145.4610,16.8586,-156.2485,-14.7224
-95.8208,-297.3706,33.2243,-160.2886,-89.3508,-103.6741,47.2644,-170.3731,-218.7266,-130.6129,-2.9933,-121.8098,9.4225,-197.8328,84.1932,155.0683,-44.4362,-141.1696,-74.4142
-143.8488,-326.7556,-31.9352,-164.5047,-120.0369,-96.7984,14.1272,-157.7277,-225.5059,-145.5934,-36.7661,-145.6676,-50.2363,-241.5244,34.4432,150.5513,-73.9592,-113.9813,-62.9856
-136.7613,-287.7010,-8.1076,-128.5078,-67.1332,-97.5228,0.9963,-128.6983,-103.8521,-171.5108,-89.1920,-178.2315,-82.3197,-273.2742,0.9034,125.7188,21.8492,-47.6171,-34.1494
-86.3970,-187.1539,112.1548,-22.5234,59.5225,-72.7971,55.6504,-98.7007,-40.3662,-132.5122,-85.9664,-159.5727,-37.6147,-274.9569,17.1674,108.6586,158.5387,29.8723,-36.4960
-40.0545,-101.0907,181.7769,63.5194,149.7959,-30.6454,135.4727,-77.7045,-99.0628,-48.8665,-40.5470,-115.0932,27.9160,-254.8108,37.1775,104.5971,192.0592,53.9078,-33.3299
-27.4190,-76.0157,126.3393,58.1736,149.9510,-27.9938,143.0580,-51.9397,-143.9840,-27.4931,-34.6325,-115.9610,49.2473,-228.9033,37.5223,125.2149,94.2604,33.3023,8.6027
-53.0635,-65.1569,26.3907,11.1855,86.9597,-60.7773,68.1467,-17.2488,-71.2095,-20.3110,-76.0753,-140.8965,18.8269,-220.4360,41.7661,206.6591,-29.7141,29.3688,45.6510
-74.8038,-43.1284,-29.3840,3.3525,5.9028,-60.0044,-5.8132,14.2379,44.5431,38.9487,-124.4042,-113.5518,-39.6504,-210.5071,49.9949,320.1254,-62.9967,22.1018,29.2293
-36.3589,-58.1128,-19.9103,23.9014,-35.9985,-37.5972,-25.6216,25.7111,49.5490,44.7818,-159.7380,-49.8184,-75.7603,-153.0388,32.2587,363.9406,0.6588,-38.6276,-8.1849
27.8662,-99.2146,25.7939,18.5880,-17.3708,-67.7874,1.9401,13.0313,-43.8650,-34.8135,-149.4819,-36.8690,-54.6117,-99.4979,0.7068,309.8586,63.4947,-96.0407,-7.1465
27.6380,-98.7310,50.2542,-8.4846,13.2111,-134.3405,59.5838,3.6544,-65.8125,-67.2120,-74.0800,-83.5117,-11.7043,-145.5133,2.1288,248.5779,49.6530,-87.0861,18.0038
-26.5628,-82.3743,38.3495,-24.9033,21.5115,-171.2279,108.1982,7.6077,1.4058,-41.3612,3.1816,-107.8189,12.7843,-236.0176,21.2903,237.6776,-15.2083,-69.6340,9.5616
-47.1116,-112.4880,28.8169,-32.4094,16.9281,-177.5501,100.9454,-19.7076,14.9651,-74.2340,9.7628,-74.5266,26.0130,-246.2571,6.5774,229.7727,-59.3685,-94.2312,-40.1054
-24.7501,-144.2651,22.8824,-49.4618,-5.3211,-165.0550,56.5714,-82.1978,-38.4517,-160.6005,-31.9367,-47.5811,16.7773,-203.6360,-14.2817,198.5535,-53.9989,-115.6254,-89.8211
-9.7123,-122.0997,0.1579,-84.7714,-40.2508,-124.7410,24.3859,-103.8720,-70.9432,-193.2358,-59.6718,-84.8404,-34.0166,-205.7678,6.4175,187.9951,-28.3596,-110.4918,-93.4829
-7.3096,-94.6280,-12.3141,-116.3963,-52.8874,-89.9557,1.5567,-68.3459,-63.3966,-134.1884,-63.4655,-147.4135,-81.0004,-231.1097,25.6127,203.3803,-14.4695,-100.1867,-24.9748
-4.2071,-101.3798,-8.6874,-89.0502,-43.6936,-89.2022,-15.7509,-59.4662,-4.8640,-47.9922,-67.2458,-144.2601,-88.6634,-201.4487,9.5243,210.8469,2.8983,-81.3148,69.0049
4.3622,-98.9100,-21.1208,-11.3691,-37.6873,-87.9653,3.4513,-112.0209,78.2780,-25.0962,-80.2994,-50.2227,-99.2145,-114.7979,8.1741,226.8069,47.1220,-70.2949,89.4059
34.8526,-72.7922,-21.1335,7.0085,-22.7844,-77.4958,40.1518,-164.1602,70.2637,-63.8082,-89.3567,39.8964,-118.2508,-38.4338,29.2809,259.9649,81.3226,-88.7393,34.3422
58.4961,-68.6353,20.9481,-65.9782,16.6842,-90.3755,46.8881,-165.9646,-6.6570,-78.3496,-64.7529,17.8842,-76.0987,-34.9973,24.8363,259.3463,61.5101,-70.1571,11.5598
20.0369,-87.0642,39.7950,-116.5765,65.4291,-97.7076,49.6194,-125.5063,3.0712,-58.3451,2.0252,-77.3056,27.5559,-78.6950,17.3403,227.8144,26.2884,24.3069,55.1319
-24.7651,-84.9651,2.4172,-103.2298,101.9834,-43.4283,79.7899,-61.0342,70.3639,-52.3566,54.4047,-102.3591,102.0847,-62.6319,53.3503,231.6319,30.8758,89.5711,98.2735
16.5575,-69.5236,-19.8904,-114.1874,106.5864,56.1552,101.5306,28.1296,90.0152,-25.8770,30.2239,-18.8167,108.1637,42.9353,99.2564,271.7393,57.1001,68.3710,121.4594
82.4633,-68.9329,4.8385,-146.9339,88.6079,144.2788,114.8195,133.9802,131.6906,50.1177,-32.8462,77.9958,82.9349,137.1443,107.9196,313.0889,80.3551,53.4709,146.9211
84.5378,-46.7020,36.7287,-101.9028,97.0967,166.5641,160.3047,204.5513,204.3705,105.8913,-40.0762,126.5608,54.5696,149.2281,78.8102,359.0649,113.1275,73.9468,151.0767
93.8247,35.2442,57.6520,3.4147,123.1539,86.2146,193.0614,192.9960,185.4895,118.7620,18.6415,140.1946,34.1387,112.7653,28.5285,383.1330,127.6712,51.7756,127.1886
159.5819,119.4544,54.5183,61.3268,89.4817,-35.4992,153.4283,140.1606,144.3805,139.6177,61.1238,127.6740,36.9737,78.4106,-2.8959,355.9470,81.7307,-3.8983,123.7517
174.3942,130.8018,10.0518,47.3766,5.1733,-72.3425,103.1195,117.5009,205.8396,154.5885,32.8959,110.4938,54.3083,76.8930,12.1770,337.4597,13.3938,-23.3446,142.8097
95.9232,88.1740,-39.8467,-3.4234,-35.4170,-20.3172,111.6686,118.8259,234.9422,128.0204,-36.7040,134.8467,60.3409,112.2442,24.0032,354.8170,-32.2993,-21.4283,129.1376
28.3302,54.3564,-58.3830,-67.5488,-24.0269,11.9118,127.3882,109.4506,134.5149,90.2741,-78.8898,182.6706,56.1654,137.0045,-5.4941,337.7543,-82.0007,-29.9850,77.8597
24.6811,52.0891,-63.7907,-96.9640,-32.0863,3.0774,76.3323,99.3824,69.8103,77.2613,-51.0503,187.6155,50.7400,117.0457,-28.1950,300.4259,-132.1212,-27.9509,50.1686
51.6051,75.7897,-61.8968,-53.3133,-72.4827,19.2627,-24.5528,93.1397,122.2473,106.3106,20.9402,157.8602,28.8397,84.7632,-27.2295,327.8730,-123.4400,-12.7653,89.6555
87.5446,113.5197,-37.3127,18.6937,-94.0149,64.3812,-85.1191,86.0259,180.3631,167.3818,69.9484,152.3087,-5.0596,65.0449,-47.1336,377.7492,-65.2862,4.0293,156.3296
103.8578,155.0844,-1.1557,61.9572,-57.8778,86.4115,-35.9946,111.2896,184.2010,183.3683,68.1988,165.4584,-7.2995,50.8983,-69.8920,371.0233,-14.0897,29.6732,148.9389
86.8508,208.2263,46.1921,84.3068,17.4285,60.3973,59.6907,160.8871,127.4032,129.4477,47.0066,151.1733,26.5495,56.3368,-50.5151,347.5000,30.8573,29.5057,39.6689
95.3897,253.2832,101.0151,90.7288,58.3933,-3.7515,69.5213,150.5438,18.7918,100.9549,38.1322,106.3319,42.2708,81.6292,-25.6038,345.1232,61.9464,-30.0408,-58.5451
135.0535,214.7992,93.5345,45.2809,24.2421,-58.2975,14.9844,80.2629,-36.9456,111.1361,38.6904,57.2774,29.8018,91.4340,-27.3661,342.0007,27.6250,-70.0779,-58.9023
101.3119,82.6397,-2.6232,-34.2441,-33.6785,-38.5420,30.7500,65.0191,10.1909,70.0028,26.9602,25.0986,38.4864,88.6854,-15.0329,346.6901,-32.9693,-11.4213,-30.7659
-13.5663,-21.4210,-78.1984,-45.0337,-58.0482,49.7609,99.9234,125.7901,51.4560,19.3983,-10.1705,36.3728,59.0627,102.0564,15.3886,349.3807,-7.8144,75.0642,-44.3013
-75.0545,-10.6820,-57.8407,62.9636,-44.0974,126.8717,106.2352,153.2633,45.6742,57.1376,-56.4708,103.1813,28.9875,118.3017,10.7361,318.5440,90.7694,100.0077,-43.1165
-43.8748,49.5956,-15.1432,185.0193,1.6520,147.2873,66.3852,113.9635,58.3390,118.5535,-79.5770,176.2135,-30.8929,123.4786,-26.7088,313.6436,135.9412,100.2918,17.9090
-28.8721,70.5791,-22.7112,185.6520,49.0837,135.4161,43.7611,85.8860,75.2939,128.2680,-66.2234,181.8808,-41.4227,128.7171,-41.6672,367.3223,77.4426,125.3409,78.5503
-89.6890,48.3290,-54.3396,79.8078,50.9608,126.8127,10.5149,93.7431,75.2643,140.4973,-20.9956,122.9645,-10.7101,123.7420,-17.6011,372.2453,-28.0779,142.3826,79.8359
-165.8658,3.9327,-74.8192,-18.2220,30.6465,133.2395,-29.4961,93.1579,96.3929,157.5202,41.6981,70.8208,3.1019,102.8258,15.7539,309.3586,-123.2118,126.1889,20.3910
-194.2237,-58.7487,-102.2579,-75.4957,33.1805,139.1152,-24.7948,85.9648,79.9898,102.3741,76.2275,45.3500,14.6063,83.0396,32.1855,309.8615,-191.0411,96.3653,-73.1294
-199.5830,-121.2055,-169.6479,-135.1531,12.7448,115.2261,-17.3902,98.6131,-18.2063,8.0056,38.9303,7.3925,45.4426,47.1306,32.3206,373.5009,-240.2964,55.7805,-123.2570
-247.7870,-156.7767,-258.3917,-192.5829,-64.1544,59.2358,-60.3759,99.2573,-36.3044,-20.3361,-32.6720,-24.3847,40.0760,-12.1486,29.1174,373.3362,-278.0183,0.3771,-62.9994
-323.4914,-162.4482,-283.7675,-210.7936,-115.5445,-1.3003,-106.0492,55.5465,86.8851,23.6679,-52.2683,7.2497,-17.2573,-32.2252,20.5507,307.0923,-288.0182,-48.1233,10.9381
-340.6244,-153.8960,-207.4147,-193.9391,-88.0815,-50.0676,-134.7006,5.8896,115.2866,67.5661,-9.0031,69.8134,-40.4013,1.8892,1.6157,249.7573,-272.2942,-76.4552,-43.5022
-305.8862,-144.3103,-127.3277,-161.7804,-42.6953,-77.4355,-174.2382,-5.5458,-21.1498,75.7865,19.6360,83.3115,-0.7376,9.0641,-10.5606,210.7430,-274.4513,-82.5491,-127.8517
-305.5490,-129.5408,-134.0630,-126.0217,-24.1719,-64.7293,-163.0760,12.4789,-52.5432,66.7326,-8.4706,43.0159,17.2666,-40.2477,-12.2721,188.7019,-294.5812,-50.4051,-57.4164
-312.9664,-93.7545,-154.4108,-107.0397,-10.6820,-29.2703,-61.2889,30.4073,72.9362,44.0128,-34.9777,-22.8458,-13.7989,-96.8088,-31.7855,182.1442,-267.4100,2.7549,50.9890
-239.1307,-44.7640,-89.0582,-100.3589,3.1468,-20.3853,7.7847,18.4294,65.9775,-15.7700,-5.2394,-106.3245,-20.3599,-133.4234,-64.9989,155.5135,-187.0928,17.8680,-23.2715
-131.6188,-21.8994,-1.6027,-73.9190,-2.6431,-27.4711,-30.5435,-27.7860,-99.8680,-75.7009,18.2910,-151.5555,20.0446,-128.5048,-67.7225,112.6349,-131.8983,-4.5999,-152.1174
-87.5776,-44.1001,-10.7014,-43.3155,-22.6154,8.6622,-59.8656,-45.7337,-126.7856,-66.3053,-50.8194,-94.9525,57.0195,-65.1159,-34.9264,93.3524,-129.6751,-5.7533,-98.9557
-86.9132,-83.5258,-87.5460,-53.9083,-29.7350,68.2452,-14.5146,6.8072,9.0782,-28.3355,-156.8145,-1.5392,72.7749,-9.0103,-3.1773,100.8112,-131.1734,1.5783,29.2104
-89.8171,-108.1803,-109.7360,-85.5204,-18.7469,60.0320,-1.7865,47.2723,57.5440,-30.2479,-177.7101,14.7706,66.9175,-22.7689,5.3915,132.4911,-112.3315,-43.1930,45.3190
-112.5573,-105.5237,-55.7147,-88.8348,-19.6080,-28.4238,-76.3396,0.3222,3.4411,-17.5231,-122.0771,-23.0294,21.4561,-49.1756,-24.0421,170.5672,-87.8434,-105.5133,24.8137
-119.8953,-65.3079,-18.8520,-81.1949,-50.5590,-107.3298,-136.0201,-61.9181,-12.2005,26.1809,-91.2479,-22.5395,-30.3236,-32.6492,-91.1586,147.7387,-69.0700,-110.2959,33.5336
-64.0458,-3.7669,-58.0333,-104.5365,-92.2892,-118.3888,-107.9719,-64.5874,-9.4299,-0.9142,-118.2851,-5.0118,-38.5223,-20.0205,-134.5809,72.7521,-77.0260,-92.0849,7.0712
-8.4130,16.1951,-128.4335,-140.8788,-136.2961,-99.3136,-60.5325,-56.9694,20.7779,-70.6461,-165.1490,-49.7635,-49.2098,-48.0993,-105.2792,45.2607,-112.7466,-129.0057,26.6931
-9.5971,-31.7444,-145.4414,-140.0908,-180.1071,-113.8002,-79.1055,-86.8518,152.1691,-61.8158,-177.8887,-125.7757,-111.8930,-92.2877,-76.6918,58.8123,-106.6694,-202.6353,155.9795
-3.8376,-78.1930,-69.2530,-89.9495,-177.2966,-170.8586,-144.9083,-134.5283,192.0866,-47.5287,-109.3510,-139.1391,-159.3094,-134.8285,-144.3486,31.5708,-11.3912,-247.8031,161.2929
45.4690,-60.2818,46.6981,-29.3041,-119.1974,-226.6368,-199.2574,-201.7574,-44.5388,-138.8680,0.9975,-95.7191,-146.7880,-164.7071,-255.4036,-7.4172,94.5873,-256.6500,-67.8560
76.6166,-9.2997,89.5618,-9.7565,-98.0674,-261.7636,-243.4648,-293.9897,-263.0042,-237.5483,38.5302,-70.7549,-141.4256,-170.0419,-281.9890,-8.4918,111.0311,-260.4831,-238.4165
70.9053,22.6872,18.7840,-43.4207,-155.9975,-313.6892,-286.4300,-357.5544,-185.8551,-263.3659,-11.2861,-70.2549,-160.7803,-170.5169,-216.1391,-16.9653,53.5047,-277.3534,-193.5819
71.2563,26.7074,-70.8711,-88.7195,-211.0565,-382.4659,-286.5393,-352.5721,-73.6874,-284.5074,-51.8645,-64.8547,-153.2261,-180.1189,-163.4163,-50.2650,5.3259,-293.8371,-142.8374
79.0763,9.0536,-71.0765,-93.1834,-208.5689,-381.0656,-246.1875,-308.8403,-152.9128,-296.6590,-52.5567,-82.6830,-151.0355,-180.7917,-183.5079,-70.0621,18.9426,-265.7478,-173.6021
89.1121,-7.6887,16.1683,-49.7219,-165.3075,-270.7256,-235.7063,-272.7313,-213.3006,-254.3542,-47.6853,-130.0687,-194.7434,-176.4980,-235.8163,-78.3891,91.9317,-174.9596,-163.6703
124.3193,4.1513,107.7791,-16.4356,-88.5408,-146.1370,-244.5074,-272.5343,-144.3712,-237.7974,-31.7266,-134.7550,-204.2805,-178.8527,-253.7199,-77.3368,159.2839,-81.1912,-132.2143
141.1602,15.4386,123.9346,-52.2157,-11.6586,-94.8420,-180.7887,-305.7041,-109.2087,-298.8657,-15.0578,-77.6048,-134.5750,-157.4986,-210.8937,-51.6967,142.0181,-49.8563,-160.0967
69.3791,-9.3876,41.2529,-116.0794,1.2779,-94.7793,-58.2649,-326.8435,-118.3382,-354.1238,-44.8890,-32.8685,-75.3125,-102.1823,-136.5401,-35.7546,54.4326,-66.5579,-183.4787
-26.0694,-20.8502,-85.4647,-113.0857,-40.9933,-109.8322,6.6078,-301.0352,-75.1058,-338.3671,-98.4266,-29.9953,-77.1548,-58.8799,-88.6736,-43.8472,-15.0035,-90.2123,-160.1067
-19.9541,19.3370,-167.6795,-55.7216,-88.4223,-142.7871,-18.4908,-245.8492,-28.9775,-251.2294,-116.3955,-37.1516,-91.7742,-44.5811,-89.4350,-22.6783,-31.5067,-121.7969,-131.6865
59.6638,44.7716,-165.5848,-45.4853,-129.7788,-171.1304,-58.7445,-186.2191,0.5615,-125.2443,-106.8057,-52.9389,-88.7552,-28.0444,-92.5414,35.5062,-25.3744,-164.1150,-76.4066
78.8916,13.0329,-114.1505,-99.0025,-141.4197,-164.4582,-66.1769,-132.5774,67.2367,-53.1023,-87.7075,-76.7141,-61.0064,-4.8580,-48.0875,90.0481,-23.1005,-196.4996,2.5059
13.4874,-13.1016,-79.4743,-140.2227,-108.6364,-149.3034,-73.1221,-104.7651,85.0172,-83.4083,-48.8063,-77.0039,-9.8762,0.3430,17.7305,127.5057,-42.6208,-220.2421,-10.2757
-34.8595,18.9129,-85.6437,-116.9132,-99.2226,-157.5608,-126.8619,-114.0015,-25.8847,-133.9605,-22.0277,-57.7765,8.7495,-17.2045,34.5543,113.0362,-74.0982,-241.3137,-125.6263
-4.9299,88.4968,-84.2621,-22.1808,-143.5327,-161.9942,-198.3547,-140.8766,-129.3857,-131.9584,-37.7048,-47.3708,-29.0242,-48.5557,-11.9325,27.8215,-55.3471,-216.2074,-183.1361
37.6402,138.3535,-36.6359,93.6399,-158.1713,-125.7199,-190.0095,-147.4359,-91.2637,-82.4367,-50.0626,-43.4066,-47.7050,-91.6545,-61.4134,-26.2532,32.3015,-114.2219,-105.0306
-2.5300,104.5080,17.6919,122.5651,-100.3050,-53.8916,-74.2969,-95.1816,29.7719,-0.8823,-26.9607,-44.2572,-22.2510,-132.3797,-61.5134,21.6635,113.4921,3.7675,9.2650
-93.2465,-2.6740,49.1392,55.2850,-10.7750,29.5608,56.1108,4.3034,110.5297,56.9517,0.7355,-44.8646,-17.2861,-129.6021,-28.8888,72.4370,151.6757,64.9972,61.3942
-102.0195,-72.7952,100.8233,34.4240,93.2482,100.9734,126.6160,72.6368,97.9281,30.9327,32.8495,-8.0313,-19.0428,-60.7034,-14.9312,51.9336,199.5871,79.6989,61.9915
-0.1563,-52.2073,190.2778,117.6391,190.5412,133.8392,147.0520,70.9458,40.9418,-26.8695,99.3279,51.9775,37.0024,23.6539,-34.1081,21.9961,276.9850,83.4693,60.2812
106.6728,-10.1010,267.9511,192.8214,230.0296,122.9930,127.4564,48.9919,30.4636,-59.6613,173.5792,64.8924,102.4857,58.1117,-49.3703,10.6881,347.2600,82.3996,61.6638
154.1169,3.9827,292.5015,201.8702,222.9188,105.9330,72.6504,40.2230,61.7807,-95.5925,196.0448,48.9658,94.5979,60.4547,-29.3407,-17.9718,381.0489,99.9212,49.8385
142.8049,2.3818,240.2444,188.5234,208.6131,122.6397,32.0995,41.7937,64.0919,-91.6792,142.6043,72.7001,39.0933,71.9452,6.7049,-35.1706,333.8955,159.3223,39.1568
57.7111,-14.8519,111.4157,143.4035,171.5640,156.6401,41.1918,84.9368,47.3373,19.6262,37.6317,91.5136,5.2311,69.3210,29.4128,17.8160,188.0694,212.5271,39.1848
-47.2230,-39.8793,-2.8165,48.6620,119.3342,153.9606,78.5170,166.4916,53.0869,128.7154,-49.0871,36.4364,13.7761,49.8899,53.2865,117.7927,53.4905,197.9097,33.0343
-53.2125,-56.5729,-2.0839,-30.2646,101.8767,99.2784,126.5211,200.6205,78.1173,134.0554,-51.4951,-38.5030,41.9953,59.7406,96.2882,172.6828,36.1001,131.3259,52.8484
-0.0636,-88.5317,68.4184,-59.7100,112.3529,27.9859,186.5021,163.9763,142.0397,138.3482,19.0129,-66.5168,56.3376,62.5096,126.5008,122.9308,64.6564,62.8531,141.8629
-28.6797,-128.2086,104.0738,-83.6454,123.3700,-27.7557,242.2711,128.6270,232.9095,182.2396,100.1541,-67.2290,69.4584,-0.5049,116.5378,28.1003,46.3599,16.7334,218.2920
-85.8789,-122.2632,99.7947,-114.7305,145.7677,-53.9046,271.7594,104.2847,243.5113,137.8976,147.7022,-59.4687,120.3224,-42.4582,100.5051,-0.4651,27.1229,3.5161,181.6463
-48.6755,-105.1171,85.3446,-140.1839,156.7831,-41.9031,263.6032,50.4237,160.3829,25.1827,139.4774,-39.0466,164.2492,9.1193,117.4441,29.2449,34.9017,16.8855,103.1863
-11.3116,-147.2682,49.0693,-167.3720,123.7895,-5.5331,221.0634,8.1922,109.5685,15.6765,89.1447,-29.3711,138.3407,36.3425,155.4789,29.2709,12.3650,39.4067,84.2030
-73.2766,-192.7791,17.7701,-159.1773,99.0062,31.2956,174.8434,30.8120,120.2734,98.8022,61.4691,-37.4054,112.4053,-24.3478,182.0073,12.1197,-1.2882,83.8384,80.0785
-102.3256,-164.7897,56.9636,-56.9628,140.5007,74.8366,148.4366,80.4870,132.1744,119.0592,94.7909,-27.5996,160.7126,-35.3167,176.5606,29.2645,98.1299,160.9330,61.5864
-12.5199,-100.7633,160.6246,106.3061,226.0953,129.9838,130.0887,111.3384,165.7345,60.4619,154.1332,16.6796,207.8612,49.3031,147.3943,32.2221,259.4699,227.9372,97.4077
68.6881,-43.1591,261.4714,239.4105,314.2581,159.6284,123.4761,119.4112,207.5313,9.6231,205.6269,73.3022,194.5024,91.4825,135.2648,-11.3007,341.9613,244.3173,150.2605
76.4249,1.7069,319.5976,287.5735,359.0522,146.3523,138.9652,87.7389,149.8327,-27.9744,243.9375,106.2527,174.5433,57.8285,145.8417,-30.1799,323.7909,218.4626,105.1675
78.1279,-6.2774,319.5589,238.7611,307.4554,137.2781,133.8092,26.7092,26.3153,-75.9712,240.9169,92.9374,156.2941,47.8580,127.6718,-4.7674,261.7990,177.3708,25.5684
70.6148,-52.8487,250.6579,142.2796,196.0109,167.6281,95.5714,8.2366,4.1868,-89.2644,172.4588,63.4847,114.2404,60.7676,91.5260,-5.0132,185.7138,160.5998,48.6868
34.8579,-41.8806,148.5148,103.5843,124.4305,204.3112,99.7580,41.4860,92.8443,-44.3191,73.7791,64.3182,103.0021,28.8921,114.2276,-26.3518,132.4850,183.0308,111.3566
42.8048,30.5684,82.0259,158.0696,96.8291,204.8611,147.9954,44.0016,153.1340,-0.8387,-1.3779,75.7462,125.7067,-20.2782,167.4270,7.0606,125.7504,174.8012,92.0223
89.6191,74.9968,65.0576,218.5743,50.8607,179.9532,132.2132,6.8766,130.2790,13.7521,-33.9533,59.7033,84.8584,-28.9397,151.9161,77.7259,108.0350,96.5805,43.9397
56.2228,62.9504,54.7054,193.1315,-1.8511,169.0245,49.2094,9.7727,67.0301,41.2557,-33.8181,35.3312,-7.1079,-7.2700,93.6842,97.0207,31.8738,48.9656,37.5050
-63.6553,8.4478,42.6752,69.8846,-9.6551,176.2656,5.6436,52.2772,8.1470,77.7945,-26.3372,12.9181,-45.7223,15.0411,68.0106,68.4186,-46.1273,89.0391,27.1615
-144.4796,-65.2016,49.9280,-88.7821,25.6654,161.3000,10.3729,68.7115,-9.6072,87.6285,-31.1245,-33.2339,-48.5235,27.3392,40.5151,65.4290,-64.2887,111.2869,22.1570
-130.0163,-76.9796,45.8125,-175.5636,64.8485,100.7600,8.6287,68.9878,11.5355,92.6180,-37.9953,-79.6297,-76.6947,23.2480,-6.3460,87.9148,-44.3705,59.5087,81.4250
-64.1207,-9.0698,-4.0303,-139.0766,67.7095,16.8810,19.6632,73.9371,16.5281,88.8800,-35.1938,-84.7363,-87.6868,6.5040,-3.8901,100.2253,-24.4255,6.1938,123.6434
0.8301,11.1825,-50.5123,-58.8333,21.6171,-61.8334,53.7342,27.0150,-10.6337,26.4771,-38.0234,-72.9658,-61.2579,-9.5477,23.3588,129.8229,-2.8820,-23.0749,61.8828
24.3455,-65.0431,-38.5665,-27.2495,-19.4185,-107.4028,70.1790,-65.7475,-23.6972,-31.8236,-51.1311,-63.6152,-57.3325,-20.2414,-16.5340,170.4868,34.1948,-38.3954,-0.8924
5.0781,-120.9055,10.5136,-27.6728,13.5886,-88.2692,92.0326,-93.2939,-9.1645,10.7445,-48.5259,-35.2206,-78.1947,-40.7737,-79.7631,147.0566,83.0220,4.4054,24.8484
-6.4205,-111.9092,62.6992,-18.9994,93.1798,-30.5711,151.3095,-41.0485,10.9435,78.6558,-22.2239,-29.3665,-82.2196,-96.9113,-73.9474,90.7362,103.1937,80.3736,70.1227
1.2879,-109.6932,93.2302,-25.3228,113.8478,-6.3614,168.5689,-3.1125,44.3056,85.5640,-6.2929,-106.0644,-83.4852,-170.3764,-28.3616,89.6107,42.3968,91.7259,99.6882
-35.0770,-117.1231,49.1532,-66.4422,32.0305,-16.5626,83.9598,13.1982,81.1590,104.7496,-38.6343,-194.1149,-96.3249,-188.2888,8.3027,65.4850,-78.6588,54.5466,132.9443
-139.0706,-99.0239,-73.3600,-106.9257,-83.3232,-17.3874,-23.3353,45.6094,74.9448,160.8500,-120.0297,-190.2971,-101.6399,-139.2915,46.8298,-53.9366,-165.7031,36.3004,123.5639
-224.6460,-87.8462,-182.7017,-114.9153,-154.4654,-42.4359,-76.4377,39.2931,54.3249,175.7091,-199.0009,-140.2049,-107.0739,-108.7381,65.9587,-110.6304,-171.6239,1.2642,88.7669
-192.8865,-83.4804,-207.4027,-97.2380,-175.5439,-124.2954,-92.0190,-30.1361,79.8937,166.5839,-202.6373,-129.3462,-116.3133,-124.0373,38.5602,-22.9782,-137.1750,-68.0386,110.9522
-58.5635,-26.6550,-152.0085,-71.6218,-165.0846,-185.5362,-85.4281,-75.8564,80.1118,161.3151,-120.3192,-121.9917,-100.4174,-119.6648,3.2753,23.3373,-108.8019,-107.1647,114.4199
56.5558,48.9480,-58.5065,-49.6650,-129.9735,-175.2538,-47.2049,-67.6631,-5.3293,96.1246,-33.7874,-73.5812,-74.1490,-89.8695,-16.9998,-48.7292,-94.9595,-121.5483,34.3521
62.5966,44.9462,-12.1909,-37.0825,-101.5587,-161.2119,0.2296,-62.0066,-42.1193,8.9097,-11.8990,-39.5534,-76.4593,-82.0950,-44.4237,-95.7174,-77.3411,-157.9088,29.6661
3.4349,-17.7516,-65.1730,-30.9695,-108.9376,-177.3033,19.9801,-66.3410,14.8184,-19.4203,-20.9915,-46.3724,-79.8124,-72.5670,-67.2684,-96.5684,-29.8515,-187.6517,110.4742
-22.1751,-46.0646,-129.1990,-30.6739,-130.6282,-172.9872,-16.3773,-72.7467,-29.0023,-80.7989,-5.8315,-37.2167,-55.7434,-35.2542,-66.2131,-144.3778,27.5502,-204.6613,39.2904
1.6633,-60.7310,-119.3909,-54.8098,-152.0375,-150.2724,-120.7589,-113.5944,-170.8353,-205.5413,13.4105,-16.3007,-47.8769,-27.9289,-61.2275,-201.4370,29.3479,-249.9897,-117.9428
12.4351,-139.1627,-103.1865,-125.4585,-181.7309,-162.7490,-227.3010,-171.3773,-161.7523,-238.0673,6.4297,-46.0603,-69.8197,-75.8960,-54.5680,-205.4512,-29.2476,-280.7719,-78.8088
-36.7304,-242.9381,-135.4646,-224.8544,-179.7436,-203.2352,-229.4203,-207.3744,-65.3786,-212.3068,-0.2182,-94.1349,-63.6233,-122.4715,-34.1656,-201.6487,-82.5374,-252.3384,15.6614
-132.8740,-296.3513,-158.8252,-295.6045,-125.7570,-230.6102,-152.3765,-261.3680,-146.9303,-301.4821,-0.8441,-96.4107,-23.6781,-147.0392,-28.0687,-226.6180,-115.6481,-243.2903,-104.7233
-211.0925,-340.4788,-166.9833,-311.5180,-106.5611,-250.0664,-133.8281,-346.7393,-269.8685,-386.9853,-36.0985,-109.2145,-12.7821,-177.4240,-48.0027,-271.7555,-159.8147,-299.6683,-233.1018
-205.4284,-415.1656,-202.7408,-317.4453,-161.6284,-289.1628,-187.5201,-383.4426,-185.7150,-306.2912,-86.7932,-191.9041,-38.6061,-209.5156,-52.7873,-317.9568,-190.8236,-348.4112,-146.7776
-130.3581,-430.3434,-211.8931,-356.7180,-196.8786,-341.9386,-195.5058,-351.5469,-74.4788,-240.3104,-87.6202,-269.4453,-51.9512,-225.7536,-30.1620,-317.1689,-173.8490,-363.3235,-64.5291
-72.6068,-340.9808,-145.9595,-396.4293,-182.2380,-370.1774,-149.1134,-316.5345,-117.7300,-321.9517,-60.0406,-279.6156,-45.1054,-227.9457,-9.8869,-273.2985,-141.0356,-393.1117,-112.3775
-67.9689,-257.7815,-89.1663,-388.6902,-196.7662,-359.6977,-155.7704,-295.0767,-132.7941,-376.7910,-74.9838,-274.8575,-40.4562,-219.0865,2.3960,-264.9898,-126.1370,-436.8012,-91.3810
-59.9406,-243.4282,-109.1034,-365.3297,-231.6699,-355.6037,-212.5581,-280.8992,-53.1184,-344.1638,-116.3711,-285.1920,-31.9375,-217.3468,9.4976,-299.4381,-116.7188,-455.8746,12.8502
-8.3740,-233.7928,-138.9321,-378.2493,-204.4330,-390.7436,-210.4209,-304.5916,-55.5423,-352.4658,-120.8398,-283.1576,-20.6070,-247.1405,-7.5326,-333.4659,-97.5038,-429.8134,16.5989
52.8979,-217.2949,-92.6410,-391.1476,-126.0242,-422.1923,-141.1747,-349.3044,-118.6961,-374.7290,-82.3383,-286.9889,-38.7098,-289.2538,-42.7879,-375.5444,-53.8428,-358.3607,-50.0280
84.1430,-238.6289,17.1215,-357.1513,-61.5699,-413.0414,-96.4489,-357.7434,-98.6252,-332.1834,-26.7900,-317.3798,-81.1834,-313.2762,-52.0430,-385.5220,22.7357,-294.4390,-48.9264
82.1371,-260.5438,93.2564,-340.8586,-30.5995,-383.9779,-93.3105,-334.3434,-39.1924,-299.9135,27.0862,-328.2680,-92.5316,-324.5436,-13.4930,-309.4071,88.0053,-288.7011,8.3750
54.7982,-236.2079,63.6471,-396.3693,-28.1845,-325.8378,-62.2052,-301.7833,-7.7763,-299.3018,52.6834,-296.0261,-51.0943,-316.4823,37.3604,-253.2719,100.1012,-277.4471,60.7136
27.5249,-198.8628,-15.5730,-409.2118,-33.8812,-208.0431,9.8572,-248.0876,13.6592,-256.4371,42.6736,-256.2835,10.4522,-266.2295,42.5809,-296.4064,109.0784,-197.3622,74.3065
63.8323,-157.3942,-22.1043,-253.4983,-20.7453,-92.0749,39.9684,-198.2268,-6.4358,-219.1743,33.3189,-222.8237,61.3083,-200.7352,-4.7138,-308.1673,187.8157,-132.3247,27.9247
198.8792,-78.7382,80.3956,-3.2341,-1.0042,-68.5665,-20.9024,-194.5824,-61.8826,-252.3683,60.2403,-186.5998,85.3197,-165.0259,-31.0012,-232.8048,325.5289,-150.7291,-19.5520
355.2289,5.7588,224.1822,181.7707,12.6638,-115.7746,-90.9473,-210.9913,-77.8245,-282.2142,121.0693,-153.6344,77.6281,-154.7625,24.5788,-197.7141,443.9006,-175.9220,-15.2789
401.3083,46.0919,301.1245,242.8369,29.5098,-162.4098,-72.4459,-217.3142,-82.4655,-275.4414,166.7331,-121.1130,61.5351,-152.7673,109.3334,-215.9550,449.2918,-172.6891,-25.3553
301.4721,56.3245,217.7724,188.5354,2.6478,-200.1146,-11.2366,-236.7196,-91.3524,-277.0717,128.1401,-90.7415,51.8934,-161.2885,128.2802,-192.1431,299.1033,-214.5731,-60.7532
149.7058,44.5374,9.7832,52.9864,-108.9723,-231.6156,-10.2685,-260.1517,-14.1763,-236.3880,18.5109,-89.4110,22.2463,-169.1988,77.1734,-147.6890,88.0685,-282.7780,-23.6543
51.4950,-11.1752,-137.4592,-61.2409,-203.7503,-221.4742,-54.8244,-246.6746,54.1093,-126.3046,-46.2560,-110.9389,-30.3034,-155.7806,14.9940,-132.8831,-15.5546,-263.4971,41.8015
33.3436,-83.3523,-102.9682,-67.9212,-174.3452,-162.2868,-83.6024,-219.4262,-85.0347,-84.9685,-14.1494,-117.1182,-59.9698,-120.6159,-37.6554,-127.0848,39.4063,-162.9776,-11.4543
66.9308,-116.8048,28.4729,-15.0133,-95.2867,-100.9206,-117.1802,-217.2950,-284.0635,-161.0603,34.6786,-111.3803,-56.8388,-85.0935,-79.7038,-129.5383,145.3368,-93.2492,-131.4729
104.1788,-98.1283,101.3051,-4.0901,-75.6184,-72.1497,-156.5586,-199.2335,-265.0663,-190.8269,42.9849,-106.5956,-51.0541,-80.1188,-79.7175,-133.9536,161.9697,-74.4564,-143.0254
84.6616,-43.5558,48.9569,-65.3278,-75.5514,-59.6449,-111.3679,-111.6163,-100.9164,-94.7546,33.2380,-76.6841,-29.1763,-103.9295,-28.6151,-102.7615,31.4205,-38.1968,-30.6683
-12.3577,6.3710,-80.6379,-165.5884,-20.8601,-37.0886,42.3441,14.5392,23.2422,11.4969,9.7330,-30.8106,33.8071,-105.5569,33.0815,-55.9149,-158.6985,19.1359,84.2175
-108.9236,7.9482,-170.3199,-237.0359,57.8853,-16.6390,185.8640,97.3396,100.8902,41.2244,-26.6707,-24.8553,90.8755,-70.8171,78.0006,-24.1059,-231.8750,39.0666,99.0359
-97.2808,-0.6105,-140.1284,-196.3399,93.7391,-18.7988,204.1529,93.6494,85.5267,21.5690,-35.6930,-56.1862,78.7172,-53.9997,93.5941,-5.3388,-127.0169,27.9586,1.2585
-5.1447,40.9407,-30.6418,-33.8987,85.6085,-10.6524,114.4840,50.4173,-53.3418,15.3445,-25.6058,-70.5364,18.7449,-67.0865,60.8397,-35.5031,30.6327,55.5088,-79.2521
0.8783,59.5233,57.1621,138.8856,84.0115,55.8785,49.4664,62.7959,-98.8395,63.0353,-47.0570,-52.8739,-5.2377,-59.1396,26.2637,-90.2309,119.1646,130.6702,-9.3582
-131.7303,-27.2054,72.2973,198.4738,110.4019,156.2752,102.9636,143.9436,36.8771,96.7861,-65.2742,-13.1803,49.2471,-24.8886,66.3220,-58.5517,137.4826,185.3271,94.9980
-202.9870,-95.8334,48.7786,142.6609,128.7202,224.5986,175.6640,195.2076,73.4167,10.2340,-14.9877,43.8864,126.1176,-1.3960,119.3857,6.8003,111.1222,188.0105,35.5931
-47.5103,-4.0583,59.0797,78.0297,116.4021,247.2602,121.1842,166.1391,-72.0718,-95.0635,60.8666,85.7419,135.9286,11.2251,72.7724,-29.5198,53.6407,181.3434,-90.1759
180.3859,151.1272,119.8746,92.8913,109.8783,254.3662,22.8263,135.8699,-100.0179,-31.9646,92.9191,87.5215,80.3302,31.9741,-5.9938,-74.0791,30.8918,200.6095,-65.7902
261.4120,233.7554,177.7104,186.4058,135.2447,256.9337,41.2303,162.2089,38.1326,94.4954,101.4256,91.5854,45.6173,63.8087,-1.4424,-30.1990,114.0775,226.8336,30.6314
263.5618,292.5677,206.8114,311.0200,161.7893,246.3219,89.2807,185.8159,57.9549,66.5308,113.2891,132.2280,64.1305,98.9693,28.8183,-31.0140,255.7898,225.2654,12.2135
326.4942,361.9455,210.8502,401.8102,161.0733,223.0675,21.5426,158.5775,-53.7576,-22.7310,99.5108,159.1284,81.8037,110.6258,16.9882,-85.1163,309.4762,190.2587,-41.8415
348.9792,344.2648,151.2060,373.7063,145.3298,195.9496,-52.8972,128.7201,-69.3634,8.4180,57.5984,122.0673,66.1039,80.1668,8.8145,-30.7038,197.9721,143.0340,15.3075
224.8240,233.8773,29.4905,212.6079,130.1821,166.1261,-4.9615,137.8786,-11.5274,75.8729,28.4095,54.3391,45.0938,32.7737,2.4079,57.3718,8.6791,100.0980,99.9010
85.9167,149.2876,-54.4771,48.7479,107.5488,129.7874,50.0824,156.8079,-21.4000,71.3865,14.6818,10.5444,40.5917,-3.9184,-20.0408,24.6407,-119.7733,75.0569,84.3449
33.4424,124.6146,-56.5553,16.4491,75.6335,103.7770,2.2196,158.1387,-38.1053,56.5639,-21.9140,-1.2904,34.1375,-12.9138,8.5839,-23.8422,-147.9030,105.6669,3.8155
-25.9770,125.2831,-28.2627,98.5994,81.1254,122.3402,-49.2012,154.6344,-9.2158,46.6062,-82.1594,8.7553,7.1782,31.5272,45.6905,-2.5330,-109.3943,204.3517,-63.3393
-112.7527,148.1431,25.3951,190.9384,169.0345,179.7988,-3.9907,157.0696,-26.9207,23.1964,-106.9860,39.1137,-17.1038,94.1825,-28.6391,-0.6176,-40.1479,287.3514,-82.6595
-128.0419,146.7847,98.9032,215.9113,261.9594,216.7167,84.0247,161.3107,-83.1120,76.0534,-63.4853,77.7060,-10.6277,96.3353,-98.7300,-12.4006,-23.3242,264.3527,-40.5296
-113.1837,78.3327,83.3804,151.3361,209.4678,200.3976,112.0009,167.1113,-86.4254,188.1406,-25.7073,104.0033,-12.5547,71.9170,-35.8439,-12.9629,-146.7831,178.2497,11.1963
-176.1389,36.4957,-55.5350,57.2069,25.5813,170.4416,53.6366,176.9746,-65.0617,183.6910,-75.2307,110.1671,-72.9664,103.7539,-44.7928,-83.2688,-316.7498,132.8611,6.4861
-231.9314,82.0232,-148.7328,25.9185,-75.5036,169.2576,6.1262,188.0827,-43.5961,77.0038,-130.0433,100.6847,-127.3218,136.3624,-229.7221,-136.8538,-308.8508,134.8049,-1.5296
-146.7132,93.1702,-49.6924,47.6044,35.8648,174.2619,94.0231,188.1104,45.1376,67.5402,-46.7402,89.4826,-74.4691,97.3636,-283.3024,-14.6050,-88.5411,126.9522,73.2196
-1.0664,13.8464,154.2891,47.8049,233.5768,141.8889,272.8744,169.6482,177.7470,178.3413,115.5636,97.3408,40.4366,59.6721,-74.6975,133.0530,125.8870,106.3151,191.7782
49.2116,-23.2131,256.8065,38.3402,324.5948,93.6394,370.7588,164.3824,265.4431,264.8125,175.0942,132.4198,98.0766,110.3933,102.1542,120.3846,166.2555,105.8226,256.6145
13.7007,34.1920,180.3181,59.6574,277.7219,93.4696,346.5950,210.5803,302.5877,268.5213,134.2084,191.6086,99.2476,285.8258,111.2038,80.5975,76.5957,123.6474,236.7869
-20.3811,83.3578,46.9054,66.3072,186.1009,137.8886,297.1766,271.9501,283.7164,243.3395,126.5433,280.1930,107.7650,617.5804,121.3807,124.7990,-35.9965,141.3657,180.8902
-52.1671,93.2022,-14.0512,37.4555,104.2845,162.1542,248.6351,282.7190,209.0067,261.0435,145.8775,387.9581,101.2254,977.0651,171.8205,150.6616,-118.0091,165.5469,161.9982
-100.7029,123.7634,-36.8481,59.2237,23.7464,162.0418,153.2147,261.1732,160.4931,338.9913,110.8828,473.4774,43.0770,1104.3033,153.0449,155.9973,-144.4093,206.5561,154.9893
-126.5113,182.9060,-97.3763,174.0849,-54.9670,184.0588,10.5502,263.2257,84.7565,420.2321,62.2548,523.5755,-11.8614,1005.1208,69.2371,225.6247,-137.8648,246.9383,34.8333
-121.4676,249.3445,-165.8863,300.9833,-126.8355,213.6609,-139.5198,285.2793,-165.8885,478.2987,65.0320,575.1797,-11.9184,946.2180,-1.2608,293.6708,-180.9878,268.6998,-177.0885
-128.3404,330.4349,-198.6157,364.3044,-195.8043,216.2713,-242.4605,318.8263,-381.9412,533.8411,93.4098,645.3803,1.3543,998.1877,-30.1229,285.0724,-287.8688,287.7247,-274.4607
-122.8089,415.2287,-199.3543,370.1023,-223.1512,226.5111,-241.0923,383.8121,-244.2257,541.8580,134.9299,714.1424,-19.0741,1017.2756,-51.1334,258.8488,-346.8429,319.2975,-195.7449
-59.7791,462.3571,-155.5426,353.5650,-170.0601,272.1129,-168.7625,446.7641,0.8261,498.8433,196.4394,774.9815,-50.6385,977.6946,-119.0902,266.1761,-290.5351,345.7621,-90.4128
-11.9525,454.6494,-80.2421,351.5887,-90.8812,314.3860,-134.5193,457.7501,-43.7005,536.7341,207.9447,826.7275,-66.0399,946.0941,-188.8185,294.4364,-191.1684,361.2180,-34.0412
-35.9307,433.3170,-33.1630,393.1225,-45.7566,327.6297,-147.9601,454.3329,-164.1646,642.8861,132.3053,846.9395,-75.5000,915.8782,-153.5251,315.8124,-119.9296,384.2234,3.7998
-31.6059,458.2906,-13.3616,451.8447,-10.8753,318.2891,-126.8138,478.7141,-38.7822,622.4919,64.1555,822.9263,-70.6728,873.2570,-66.6398,298.4107,-77.0548,399.1416,15.6765
39.4794,509.7528,0.5775,467.8723,5.0390,287.6536,-86.7484,486.7768,105.0974,511.5690,64.3179,767.9448,-26.1315,832.8241,-47.9502,274.6264,-70.9342,378.3587,13.9228
51.8320,504.3318,-39.4213,452.7830,-50.9088,266.6867,-115.4931,452.4204,16.7770,515.2098,71.9074,709.1622,25.0748,789.1572,-40.7350,306.8470,-92.9413,357.9907,28.5164
-12.2866,451.1013,-118.6140,479.4199,-117.8257,290.7704,-186.7620,415.8225,-127.0401,550.2967,45.3644,684.6528,21.0381,751.8873,12.5913,325.9248,-75.5655,385.0315,-11.0048
-41.8216,438.3567,-130.1439,540.8096,-102.6947,315.8284,-195.0346,383.5362,-167.8420,432.2015,4.4995,696.0795,-29.8921,726.0586,10.0335,238.4174,-10.1682,428.8472,-136.8720
-61.3211,457.4553,-80.3994,549.1204,-59.3063,289.1216,-126.6319,334.7674,-160.8659,306.6021,-36.2564,677.4485,-74.0714,661.4493,-59.9216,143.0132,27.2548,434.4457,-187.2665
-127.7365,439.3320,-60.9852,489.3259,-53.9554,246.2192,-45.3766,298.1938,-83.6811,373.1361,-47.6763,590.1142,-90.2980,544.7394,-88.7671,164.1565,15.4985,398.4433,-34.1471
-129.9417,398.4415,-58.1808,415.0134,-38.7641,229.9102,29.2451,302.6324,91.3342,500.2187,-3.8405,482.8882,-71.6309,438.3806,-92.4040,231.6270,-17.8596,346.0843,182.3241
-28.6732,357.1596,-32.7098,321.4831,-4.1599,226.6317,106.0464,322.2501,196.9084,477.3009,50.2980,397.3914,-15.1609,374.2204,-100.5759,238.8686,-74.3168,301.3568,219.7475
23.5794,280.0810,-19.8506,202.8912,-3.8957,222.9339,135.0107,321.2470,98.4348,339.9976,71.4297,325.7273,36.8822,337.8903,-26.1992,200.0052,-113.2650,277.4540,51.8909
-12.3347,196.4895,-19.9892,137.6042,-15.2798,205.9593,55.9312,283.3462,-87.2850,252.9367,83.3304,276.3168,42.5626,307.7849,83.6199,154.9690,-80.5761,253.7059,-88.0998
-25.5083,185.5784,-4.6414,143.9009,-6.9041,148.3399,-76.1587,216.5305,-168.1892,257.4597,91.9854,257.0594,21.6814,238.4764,59.6195,122.4807,-54.1644,196.1306,-43.6982
-8.4840,217.2325,-3.1637,115.4526,-28.0744,63.8013,-133.1084,154.5516,-118.1635,235.5007,74.8478,230.1172,-4.4200,127.5942,-49.0444,119.7541,-117.9284,103.4457,24.4072
-9.2043,198.5853,-20.0281,20.6619,-88.0339,-7.5532,-95.1020,102.4401,-54.3155,121.8249,51.0805,173.4993,-45.4778,54.0356,-72.8576,102.4903,-185.1212,3.6673,-41.7745
-5.2647,126.6807,-20.3996,-45.6357,-126.7587,-56.5860,-59.1292,33.9576,-37.6162,40.5503,34.1051,110.8933,-77.6025,28.5003,-35.5680,9.1907,-183.4281,-60.9297,-96.1674
-8.3832,59.8547,-31.6530,-46.2006,-127.6426,-73.0684,-62.0221,-18.2376,-16.8324,70.3170,6.8116,53.8790,-68.3018,-27.7795,-24.1680,-99.8877,-179.6588,-55.4722,-24.5462
-44.9454,19.2259,-59.2110,-23.3249,-107.1906,-48.5542,-56.4018,-4.7076,29.5571,69.1250,-5.3641,2.5282,-48.9819,-101.2211,2.2093,-126.0518,-164.8740,-10.4554,26.9079
-44.0338,-4.8136,-18.0762,11.7703,-71.4896,-31.8881,-42.3175,18.3918,65.3058,-43.1237,18.8631,-27.5843,-48.4958,-119.0351,68.1985,-112.2218,-51.4336,-2.3729,9.1959
34.8956,-5.5433,90.5991,46.6434,-43.7080,-63.7210,-50.7443,-15.0871,78.9898,-121.5364,33.0502,-39.2205,-31.3703,-122.7926,110.3852,-144.0889,78.3145,-43.5462,30.3974
114.8064,26.9367,147.1906,35.0684,-33.7118,-108.9299,-58.5022,-48.0214,40.2402,-87.5904,26.3775,-53.2716,12.3033,-177.0064,108.3784,-173.4285,72.3991,-80.2857,30.9501
131.7401,48.4995,119.6526,-17.5484,-24.0993,-131.3714,-60.8307,-30.1952,-67.5649,-42.9861,39.1290,-64.8002,29.8985,-220.2537,98.3601,-139.6174,-15.5052,-91.2456,-54.4416
74.0562,-2.8152,83.4127,-50.2504,-28.1264,-129.6612,-104.5534,-28.2636,-117.2190,-51.5997,45.3637,-59.8059,8.1260,-184.3299,92.6511,-122.3309,-35.3233,-97.9488,-71.9171
-26.0815,-79.5738,72.9705,-40.1875,-59.9471,-109.7073,-168.5124,-85.4850,-30.0491,-99.6281,7.7968,-51.6193,-9.4005,-127.8042,83.6903,-176.0290,13.8908,-123.9128,0.3835
-53.0082,-77.9099,59.3467,-33.3491,-98.0224,-119.7325,-180.6680,-147.5271,27.4961,-168.7941,-36.7445,-66.1229,-17.5067,-136.7743,76.4698,-189.4914,29.3459,-183.1030,-16.9810
38.6079,-35.2831,1.8832,-95.1407,-142.8073,-200.2273,-150.5092,-173.7096,-35.0370,-193.7216,-80.9600,-110.3211,-44.7470,-191.9952,82.7182,-94.7004,-26.9836,-243.4841,-76.2357
105.1228,-63.8230,-102.0146,-216.3161,-184.9988,-268.5622,-114.0873,-173.7981,-48.0923,-147.0494,-147.9447,-155.2770,-65.2510,-217.6270,98.7659,-17.7903,-89.9634,-238.7157,-20.3223
60.8026,-133.7249,-174.1093,-289.1190,-164.8132,-233.1836,-47.6572,-158.7713,44.0447,-136.0921,-171.7097,-168.5594,-31.4740,-214.0049,103.1518,-65.5912,-88.2554,-176.1745,38.4223
13.6784,-159.3485,-143.8590,-264.9309,-96.4964,-159.7659,32.3879,-141.7103,91.8842,-192.6695,-104.3331,-177.0625,21.9896,-241.2576,86.8194,-158.5175,-54.5478,-139.0457,-0.6538
29.4546,-167.3924,-61.6828,-232.9435,-62.4451,-144.4577,48.7836,-135.1590,71.3152,-183.0219,-32.3474,-223.9152,24.8367,-287.4273,57.7409,-189.1926,-62.2318,-157.6529,2.1125
59.9488,-185.0914,-10.5367,-232.1100,-41.1469,-164.1583,3.3391,-140.2977,54.2058,-113.9307,-12.3530,-271.0983,-4.7878,-295.5651,21.1425,-176.6086,-80.5001,-189.9574,54.7233
89.7622,-165.6282,6.0938,-192.9244,15.9969,-167.9333,-23.6469,-168.1050,14.6057,-172.9323,2.1749,-262.5923,-3.6080,-287.9886,2.8877,-185.2388,-48.4467,-200.2446,-2.1117
105.5242,-125.2562,15.9037,-134.9876,51.4356,-147.6546,10.9320,-207.7700,-44.2175,-336.5832,14.2279,-231.0006,22.1098,-296.1900,32.3894,-214.9850,-5.4662,-171.9130,-112.5600
78.1244,-132.4419,46.0342,-134.2507,62.2795,-96.8832,91.5455,-200.8895,-61.1062,-365.3326,0.6466,-222.5086,42.3696,-270.0252,65.9869,-235.7127,24.2744,-107.6301,-115.0357
73.7412,-166.9695,128.5425,-121.2841,132.4261,-29.9206,163.0749,-136.5495,-46.9711,-243.8252,9.6495,-221.3816,76.4985,-207.9125,53.6021,-250.9369,106.7363,-42.3994,-48.2870
145.4743,-169.6473,225.5320,-21.9100,217.7840,17.7954,189.2334,-79.1748,19.4152,-182.9648,62.8805,-222.8969,132.6450,-197.8825,58.9997,-256.9142,225.1978,3.2878,-3.3888
189.4971,-149.7886,246.1684,50.7812,227.5375,50.8852,229.8323,-47.3966,177.9232,-211.9647,107.7868,-242.3550,182.4151,-241.4663,140.1282,-214.7736,258.8403,34.4703,14.6406
131.4051,-139.3038,199.1875,13.0956,217.2309,79.9643,311.0895,-14.9940,267.4688,-200.2350,125.2477,-249.6544,214.1148,-255.6484,210.6415,-144.6956,195.3801,25.2319,-23.4961
64.4210,-141.4155,181.1247,-34.9899,220.2616,73.4967,307.0659,-13.3012,155.7289,-164.4738,119.7916,-232.4494,212.2377,-245.6447,194.7446,-124.5282,139.6395,-45.0438,-99.4490
59.7138,-160.5649,203.1165,-49.4655,162.7225,23.2889,200.1851,-62.1779,60.4175,-167.1616,69.4477,-252.9964,162.2146,-269.8598,161.7905,-131.4985,121.7421,-124.3279,-95.8671
60.8356,-210.3549,180.4270,-121.6834,84.6785,-30.1062,197.7519,-96.7889,164.3959,-140.1936,3.7939,-331.8523,129.6743,-309.8180,175.9811,-87.4951,81.8901,-160.3566,-43.5473
24.9683,-280.8925,87.3323,-241.7844,88.1161,-58.6098,327.5734,-93.3010,262.5833,-94.4006,-9.2434,-387.1234,175.5157,-317.0044,186.8203,-52.7781,6.5838,-170.0325,-105.7508
-8.7728,-320.4396,11.8378,-289.7318,114.5970,-59.4913,352.0128,-100.6887,189.3414,-151.6468,19.2021,-361.4116,224.2949,-288.9237,152.8799,-108.6768,-40.4761,-174.4804,-226.2513
-4.0123,-279.8891,44.1595,-254.1051,95.2580,-45.8091,246.4203,-103.5034,102.3798,-248.9524,44.1735,-302.6442,207.8633,-246.9014,126.9869,-168.9196,-14.2897,-164.9377,-230.6790
17.6845,-190.8054,151.7698,-221.9242,98.2848,-46.3391,210.7501,-63.6004,99.0194,-242.9429,71.9129,-282.4504,195.3724,-223.7648,155.2789,-150.4938,35.4796,-151.2611,-221.6174
18.2766,-138.2187,198.2054,-220.8875,125.6248,-62.0528,221.1956,-46.8664,90.6707,-200.4642,82.2648,-307.7429,212.5764,-255.5933,193.2254,-94.7091,28.8805,-156.4122,-355.7963
1.4081,-147.4556,104.1801,-220.4125,73.4672,-69.8165,137.3929,-100.8526,119.4437,-172.9050,12.5151,-334.0650,166.2893,-328.8312,193.4229,-13.8004,-19.6359,-177.8131,-435.6231
-5.5038,-168.2566,-45.6464,-197.0231,-49.0399,-85.4638,46.7461,-137.7655,261.8703,-48.2485,-105.7638,-330.5342,50.8993,-375.8281,190.4622,79.8970,-31.9983,-199.3857,-293.7207
14.5958,-139.5833,-104.0878,-138.5960,-143.3691,-121.8012,42.8394,-99.6308,310.5742,95.2477,-154.3784,-305.1614,-27.7137,-359.3342,194.9199,90.3359,-0.7902,-211.1911,-219.3084
84.7360,-29.2122,-48.6221,-63.3270,-187.7967,-128.3959,16.2620,-58.2299,80.7334,51.1856,-112.7148,-273.3788,-45.1033,-320.4189,128.6683,30.8592,20.8203,-205.4515,-414.7194
198.2880,133.3686,3.0872,-13.8973,-197.3182,-78.8513,-68.2511,-58.8320,-167.7771,-71.3797,-85.2645,-231.5444,-55.7220,-294.7297,-1.6970,19.3825,23.8837,-171.9530,-562.9850
293.2524,289.1776,-25.9502,19.6022,-168.2579,-17.4767,-93.3718,-55.5659,-126.7689,-75.3393,-117.3869,-166.7395,-62.0329,-236.8644,-59.4013,29.0258,37.3570,-102.5475,-461.0147
358.6089,440.3935,-78.7216,90.4386,-132.6788,42.0602,-46.2478,-22.1059,44.9892,-56.4156,-129.8452,-80.2845,-34.0830,-120.5854,-14.6873,7.8308,60.1466,-9.2480,-377.7165
427.6455,600.2346,-89.9702,185.0507,-118.6001,127.5435,-12.1034,31.9349,69.3670,-67.0873,-81.6651,-1.9061,16.0897,-24.9749,14.8636,43.3626,58.4792,76.9038,-431.1671
444.1582,711.5060,-68.7834,233.3629,-87.0438,207.0567,-15.0937,105.4120,-6.3925,41.7653,-42.7959,34.0546,44.5752,-4.7744,-16.4886,131.7462,11.1163,138.2716,-432.5992
397.6826,767.9928,-21.2572,225.8428,-20.4805,209.8717,-59.3659,162.2643,-69.1671,209.3874,-46.6703,29.0331,26.2516,-15.7262,-62.0514,181.5045,-55.4580,165.5022,-413.5279
456.7485,852.3571,50.3728,205.4900,18.4537,137.7007,-142.3448,149.9747,-127.8652,247.5015,-41.0968,8.6096,-10.1556,-32.1588,-97.8449,255.4403,-94.2442,143.3823,-477.9042
642.9936,943.4724,84.6738,178.5818,-1.2288,73.8022,-189.9765,109.9809,-100.1218,224.2892,-18.9182,-0.7353,-15.4545,-38.5611,-103.7147,359.2059,-99.8960,102.5489,-420.1863
707.8241,942.8864,50.5538,140.3548,-14.7796,90.5067,-152.2432,128.4185,38.2144,218.9361,-17.6551,39.6326,12.3248,37.8467,-80.8218,316.7774,-89.4063,106.5592,-188.2545
596.8592,892.0045,12.1661,132.7636,21.7547,173.1622,-90.7220,178.6225,57.1392,134.3024,-22.7450,137.0401,38.4222,169.5519,-86.8788,174.1357,-51.8058,138.6131,-117.1312
529.9658,883.5309,-0.5149,190.0743,51.9625,247.5659,-76.2321,173.7964,-94.5460,64.5916,-32.0706,223.5403,29.7097,205.3626,-109.4433,167.5356,4.1553,137.3732,-266.9197
535.1794,877.9758,-28.9244,276.1620,21.5802,275.3143,-108.9531,137.3487,-141.0090,214.4050,-94.7810,256.1156,-40.0935,146.0648,-70.6813,263.7683,20.4338,130.9155,-313.4808
459.7533,803.2144,-68.8582,315.2950,-39.3304,270.0116,-151.2017,154.0306,-42.4336,419.4148,-178.8204,274.4997,-136.9947,135.9419,-17.2282,302.2162,-27.9718,154.0105,-198.8593
312.9402,644.4093,-88.5075,260.2626,-89.9533,234.8354,-163.4023,206.4548,-25.6293,377.3851,-189.0273,279.1918,-163.1231,183.4714,-44.8870,287.1703,-100.8646,132.3936,-126.7099
176.5143,411.4534,-98.4296,146.0337,-128.1633,159.9424,-142.6754,203.8709,-67.9570,160.3298,-142.9119,225.1085,-108.5252,195.9580,-103.6112,202.1071,-147.0796,31.5881,-108.1480
67.0934,195.9779,-89.3447,68.5475,-148.9101,52.3929,-132.6318,114.9854,-24.7375,25.3481,-128.0707,150.0001,-80.9916,138.6109,-110.4202,53.6978,-131.5732,-56.8282,-70.6298
27.4335,104.0552,-37.2744,62.0899,-158.8863,-76.9096,-161.9688,-19.2107,31.6003,8.4485,-142.6688,99.1034,-120.3113,4.7481,-84.5252,33.0265,-70.7267,-103.2133,-56.5200
24.1070,59.4870,11.2526,55.0443,-188.8631,-201.8862,-216.7832,-137.8978,38.2754,-27.3514,-136.2612,27.3757,-161.0192,-127.9406,-69.4173,130.1269,-41.7793,-179.0391,-65.9514
-70.5484,-58.4586,6.1034,2.7574,-213.6242,-268.4279,-265.6538,-189.5081,27.7488,-154.1099,-108.7748,-49.5543,-169.7878,-111.1017,-99.6065,76.0981,-69.2657,-261.9464,-63.3502
-188.0140,-175.6179,-33.3615,-47.0404,-177.9469,-261.2450,-271.3813,-172.6458,-71.3794,-279.3057,-90.7683,-45.7137,-155.8656,-14.6408,-174.8190,-77.2374,-93.0387,-250.6658,-94.8207
-172.2030,-200.1263,-89.8603,-65.4769,-121.0609,-227.7076,-236.0677,-134.9619,-237.5190,-261.7366,-102.4414,-15.6566,-127.3355,-51.3227,-202.0978,-70.7384,-103.6027,-156.9812,-158.1894
-138.0386,-207.0300,-141.1729,-79.4892,-105.3505,-191.9198,-217.3024,-94.9512,-254.5373,-132.4664,-123.8224,-56.7711,-112.9129,-150.5244,-153.8534,-7.2752,-127.5179,-76.8047,-151.4597
-222.2747,-255.9290,-113.5617,-82.4003,-82.2953,-125.9443,-213.0016,-27.5710,-96.3082,-40.9629,-98.0961,-82.9576,-109.1888,-104.5908,-143.6502,-58.2574,-103.5902,-23.6001,-30.9423
-276.1758,-291.3209,-8.9070,-36.0881,-1.7157,-11.0486,-133.2267,65.5058,53.8269,1.0021,-21.2130,-4.1715,-54.4105,19.7935,-156.8047,-67.8204,5.8527,68.9177,132.0217
-208.9936,-270.9691,53.1915,56.3053,80.1976,139.8836,31.3733,156.6976,133.6173,64.7905,40.0088,96.8636,45.7421,88.6635,-64.9087,47.8637,107.1854,222.1506,212.6668
-177.1212,-202.2634,31.6541,161.5344,126.7912,295.4613,175.3656,243.2022,139.0757,112.8609,57.3473,172.3422,111.8869,167.9931,37.9374,136.7951,154.9242,373.2250,162.8644
-228.9015,-116.8028,13.3813,252.8557,179.3246,419.7866,245.7615,328.0825,56.2415,112.6897,55.9752,273.6094,134.4132,288.1599,1.3986,175.5086,211.3878,465.3270,115.6614
-225.0707,-53.1595,48.0799,313.7229,240.7173,507.1731,267.9676,399.2767,20.0761,143.2378,52.7176,359.7997,147.4952,355.0313,-45.5570,231.9361,259.6534,530.7339,176.3159
-124.0598,11.9215,123.0287,363.8019,276.1367,580.4113,250.7317,460.2037,106.3292,239.1229,80.8705,368.7674,136.3642,359.3638,13.5276,260.0753,249.7504,622.0420,218.9017
-22.3738,107.7780,234.9957,452.4063,309.3971,642.8109,224.4908,518.5526,149.3054,340.6967,163.7077,378.5149,109.0779,368.6072,44.3829,257.3026,267.2999,703.3793,168.9564
-1.7608,167.1606,339.6248,572.2836,374.1909,676.9277,265.9772,556.2443,108.1367,417.0190,230.0180,451.8690,120.1997,424.6467,13.5847,296.4126,362.1996,711.4405,178.3726
-54.0641,167.6501,343.3609,636.2495,421.8672,675.2455,363.7463,569.4915,144.0034,483.7295,211.0914,514.4351,169.7500,530.7261,59.7545,366.8867,391.2905,667.6462,285.5160
-88.1793,198.1086,238.1018,586.5921,385.2371,643.9175,393.3063,589.0472,222.0151,550.3500,157.9688,512.7767,213.0254,594.8328,145.2731,436.3084,273.6671,625.1817,343.5869
-62.4342,237.2489,131.8474,479.6947,291.2098,600.9568,298.6442,613.2454,185.8006,592.3752,129.3953,488.9348,228.1347,538.1151,136.5190,499.1475,152.7872,578.0012,328.6404
-59.0044,181.8130,99.5511,418.2009,222.6708,551.5663,166.0754,586.1349,84.5449,550.9224,109.8156,475.4516,199.7619,470.5940,87.3505,512.0714,141.7782,501.3059,286.7817
-113.8054,98.1070,97.5522,419.7679,190.0160,465.8478,85.0161,482.0441,33.6281,437.5037,97.1809,457.9312,134.7321,477.5376,89.8257,476.4697,165.5609,411.9594,190.5477
-150.4149,86.7962,68.3889,406.1059,145.0968,347.9041,58.5230,358.5911,48.7322,367.8339,103.2052,414.6528,91.0982,444.4931,102.5737,446.9561,141.5763,340.7545,115.6792
-143.8528,75.7599,44.1339,325.5167,102.3773,263.2672,60.7054,280.9713,110.9348,356.2945,100.6805,347.3367,100.8008,341.4471,81.2585,401.0650,93.7044,280.4296,155.7960
-132.2760,17.2040,56.7286,209.6201,94.4824,214.0128,64.5332,225.2050,128.2400,272.8376,82.4045,287.8734,119.3315,283.2670,38.2177,316.3814,50.7617,190.3212,177.9725
-120.9662,-30.8208,34.8643,96.1114,56.6843,129.7225,20.5645,128.5457,31.6318,118.0755,61.9346,243.1651,91.6558,244.7821,-10.5850,249.1040,-0.0081,67.5355,107.3740
-130.5286,-101.8588,-66.0992,-5.8278,-52.8548,34.9341,-74.6363,20.0471,-35.5019,45.4026,12.6440,171.7168,16.2320,151.3480,-33.8262,201.1201,-42.8639,-21.1339,121.9279
-191.2805,-229.6133,-135.2182,-71.4631,-124.0368,16.3625,-124.9128,-19.3284,19.0260,61.5336,-55.6502,76.4288,-43.7477,75.5891,-22.5303,136.7352,-38.4506,-35.4805,225.1327
-254.4082,-284.3817,-76.5919,-85.2449,-77.4031,35.2085,-69.3053,-15.2921,28.2822,25.4344,-66.4144,24.2283,-25.4476,44.7838,-21.4092,79.9305,-13.5088,-27.8150,184.6508
-262.7969,-213.0672,16.2795,-83.7120,-6.8862,0.9301,4.3453,-54.3710,-51.1211,-76.6907,-22.7542,26.8196,28.8840,-2.4886,-33.8158,27.9750,-39.7205,-43.9610,33.6309
