Fp1,Fp2,F3,F4,C3,C4,P3,P4,O1,O2,F7,F8,T7,T8,P7,P8,Fz,Cz,Pz
39.7032,-66.9805,72.6083,-33.7638,71.3144,-83.5479,32.2840,-100.6036,-13.6922,-56.1533,44.2777,-106.4594,29.7374,-120.5757,-32.8410,-74.6574,-19.0155,-93.2872,-60.5820
-15.0971,119.3536,4.6326,203.7769,75.8748,155.7418,-37.0761,123.8176,43.2179,244.7405,-22.5311,150.0559,54.1856,148.2233,40.1339,154.5263,-73.2813,189.4120,6.1213
-48.8955,234.6683,-50.2844,287.0932,35.6557,294.0938,-25.5399,271.0457,131.4114,263.9290,-11.2695,317.0494,93.9481,313.5688,120.8066,267.6350,-41.3790,339.7472,108.7169
-0.4335,219.9760,-9.1411,214.2569,27.0249,245.1445,32.0678,247.0099,133.6489,109.0561,43.9708,276.0026,92.6275,250.7065,77.0977,225.7903,-22.3231,295.5533,123.0329
42.4897,223.8874,41.2676,211.5423,58.4270,187.2266,52.4568,213.8839,92.2934,163.9965,50.0731,251.6546,68.7600,186.5824,22.2736,188.6795,-8.9050,277.9825,108.0867
38.8572,262.8369,28.1132,276.7950,62.6508,188.3960,42.0134,247.0243,112.1182,347.6498,10.3667,292.2414,52.3351,197.8976,69.9647,202.1337,29.8504,300.0999,141.3561
38.4607,246.6825,7.0468,273.5404,24.7011,180.1672,31.1966,257.1890,167.2790,378.9947,-21.6400,247.4975,24.2671,173.8644,101.5932,218.2510,36.4011,250.7893,133.8621
42.5065,217.7098,2.2611,229.5761,-15.1291,160.6266,-0.9355,214.5632,160.1989,324.7521,-24.8411,189.2903,-6.7391,158.3973,32.2494,241.9412,23.0456,179.5784,41.9030
29.8139,225.8162,-26.1661,187.4875,-46.8984,138.8458,-54.4738,176.1882,86.4711,323.2663,-10.2872,249.6297,-12.7469,210.6599,-32.3145,262.9994,41.9185,122.0884,-9.9635
18.4577,213.0339,-67.7520,114.8505,-84.2641,103.2582,-92.6334,167.4265,16.6024,261.1280,-15.6436,335.4448,-20.5136,234.1608,-32.0822,245.8172,38.4797,49.6305,29.3543
12.1430,182.3423,-85.8229,82.4131,-105.5946,103.5564,-124.2954,159.9587,-40.2529,72.0145,-54.1530,358.6636,-44.8987,203.4944,-40.5310,213.4241,-4.3254,48.5991,48.1056
3.0194,189.9153,-75.5898,155.5105,-78.0373,147.4205,-177.7742,121.8937,-113.9366,-56.6604,-71.2612,342.5559,-43.9454,183.2630,-92.9719,191.3617,-15.1263,155.5111,0.9153
2.5276,194.3951,-46.3909,208.1648,-31.5100,146.1308,-223.3233,79.0589,-166.4479,21.3349,-40.9762,265.5723,-17.4374,150.7766,-136.9437,166.5246,-24.9220,219.8891,-15.6923
6.3066,154.4096,-32.6901,142.0753,-29.0527,91.5687,-225.9576,97.7697,-173.8529,185.8006,-23.1857,159.5754,-8.6540,105.7990,-128.5654,157.7327,-87.6324,182.6825,54.1706
-3.1751,113.0377,-63.7080,50.9232,-59.5122,70.5515,-200.9090,176.6962,-187.4010,265.6343,-52.3138,128.2575,-15.9996,121.5007,-82.7081,184.6745,-127.3823,158.8612,153.4136
-37.6035,67.2178,-94.3286,15.3498,-61.3769,95.3345,-156.9834,249.6131,-166.9055,295.6745,-99.1863,111.1847,-34.2186,160.2007,-47.9032,207.7535,-120.1392,188.5237,219.5266
-101.1027,-12.6812,-81.1505,11.3728,-40.4528,119.3099,-93.8119,289.2416,-23.0330,377.6539,-149.8224,10.9538,-85.5557,140.3532,-50.7182,205.1275,-141.2659,213.6092,232.8438
-133.1921,-42.4062,-63.9171,32.1372,-40.8060,139.8221,-57.7953,292.4361,113.0675,434.7943,-187.4003,-47.6593,-134.2721,114.8638,-77.6826,199.3685,-150.1852,215.3416,188.3175
-53.0892,68.7177,-68.2756,88.1157,-47.9938,169.2046,-77.9828,241.6595,59.3370,335.2441,-169.0803,42.9899,-129.2293,144.3144,-107.7709,179.2084,-71.7962,205.5086,111.9144
71.1817,258.4293,-61.9559,160.2597,-36.5332,202.8634,-106.7729,169.5097,-70.2978,122.6895,-120.9786,174.4191,-127.6159,187.0356,-123.7112,124.1330,17.6343,200.0169,55.3929
100.7738,413.4185,-43.6116,234.3112,-25.5553,237.5125,-121.3358,136.3567,-107.8224,-53.9665,-125.3837,277.2684,-199.6593,211.8970,-128.5388,61.9160,57.2215,208.1051,27.1724
66.5889,501.3777,-26.1816,289.8773,-18.0970,259.0369,-161.8007,124.9568,-137.5597,-92.7747,-174.1844,391.2346,-291.6371,214.4131,-180.7159,7.7699,104.6725,198.4592,-9.6477
84.5344,527.2690,10.3184,296.4020,-1.5268,245.9084,-226.6706,80.2286,-231.8242,7.2434,-190.7024,467.4335,-333.9922,166.7211,-314.7868,-63.6573,154.0248,166.4022,-72.6246
130.8743,488.4541,40.7873,271.7845,-14.3596,200.1227,-279.0681,5.5068,-286.7046,94.3940,-180.2312,438.6479,-350.8610,86.8610,-433.2842,-147.1206,129.9299,164.2188,-150.8599
113.8758,404.6258,0.4675,247.8714,-89.9607,146.2563,-322.1226,-63.1745,-278.4003,-0.0337,-213.4568,354.3835,-370.6425,42.3445,-426.5899,-202.0781,37.3988,181.5340,-216.8246
20.3784,308.7876,-90.7109,206.0404,-172.7451,107.9118,-345.0376,-107.3976,-297.3997,-188.4896,-296.4467,274.6120,-376.7209,49.8119,-350.2986,-213.4846,-66.7563,159.8299,-228.3898
-106.3164,211.9898,-149.7730,137.9474,-189.3409,79.6191,-318.1442,-125.3422,-364.3876,-236.6683,-360.9362,218.2984,-372.7008,61.7324,-328.9221,-193.3428,-140.2332,113.3910,-193.5948
-199.9009,120.5082,-152.7544,75.9661,-157.9749,32.9680,-303.4781,-126.5959,-440.6863,-126.1926,-363.2477,205.2156,-378.6193,25.1992,-369.9059,-156.9535,-155.3158,66.2344,-186.6041
-210.9824,60.0254,-137.4168,28.4477,-160.9525,-24.0281,-374.4742,-118.8929,-467.2193,-43.3330,-334.4782,203.5779,-388.2484,-53.5856,-395.3135,-131.7804,-138.6210,4.8257,-223.5283
-177.0326,41.0326,-136.0861,-3.8958,-221.8860,-55.6452,-445.1560,-107.2276,-398.3034,-93.5024,-321.8612,156.9803,-386.6558,-97.5293,-370.8237,-148.2230,-142.9385,-29.7503,-241.1499
-163.4294,24.4825,-148.1223,4.6122,-270.6248,-73.9351,-404.5408,-106.3360,-323.9720,-178.7335,-318.1628,82.4914,-359.0427,-86.3628,-329.5321,-195.2981,-161.5325,-17.1867,-227.2757
-176.9989,-31.7059,-153.5315,30.0690,-266.9092,-105.9861,-322.2974,-104.0268,-343.8052,-101.4997,-294.5552,7.5372,-298.2277,-108.7547,-314.2170,-210.7761,-172.8480,-52.6502,-205.1135
-209.7265,-111.3668,-154.7579,-2.1237,-263.6808,-135.2858,-312.5602,-56.3810,-355.5334,154.2939,-264.4145,-75.7947,-251.3950,-179.2635,-322.8828,-150.6946,-190.4959,-160.8333,-143.6592
-249.0517,-169.3725,-177.4633,-97.0289,-279.9407,-163.2449,-337.6438,27.9717,-274.8886,315.6820,-253.8128,-129.7287,-279.2549,-198.7201,-318.0809,-57.9371,-209.1582,-225.9874,-46.2035
-249.4336,-195.1876,-221.0523,-182.8789,-271.2441,-216.1897,-309.8927,90.5020,-214.8182,234.3537,-260.8727,-135.0009,-346.8464,-167.9925,-288.2774,-5.7582,-221.9695,-222.6925,8.5472
-217.9889,-207.4592,-273.1159,-223.3557,-274.9571,-267.9068,-249.0829,120.7631,-203.1543,143.8666,-284.9507,-177.3990,-369.5313,-183.1752,-251.9215,10.6633,-254.0685,-237.8400,6.4932
-228.1143,-221.5594,-339.8984,-247.8884,-356.1435,-288.2617,-223.1647,146.7575,-117.2061,206.8443,-327.0294,-286.6825,-345.6653,-235.3126,-209.3704,44.2140,-297.0184,-269.7334,-1.3151
-285.0642,-258.2126,-396.8892,-290.2899,-433.7422,-300.7767,-223.6333,178.2268,37.7449,275.2672,-366.1611,-365.7938,-329.3375,-256.0424,-157.9798,88.1601,-330.8237,-255.0430,-11.0423
-334.1705,-338.2313,-400.9075,-344.4959,-415.1812,-304.3941,-186.9820,227.6976,168.4320,302.7504,-398.8847,-387.3094,-332.4961,-251.8087,-121.1406,96.9471,-382.2379,-197.1169,-10.3525
-367.9814,-428.1204,-372.9242,-373.9959,-372.3937,-277.7308,-117.1040,289.1446,255.6390,395.4125,-437.6445,-414.6663,-339.1306,-237.4601,-108.2604,79.1382,-425.5964,-133.2087,41.3263
-382.7339,-445.0256,-349.1789,-359.4206,-373.7263,-253.1948,-95.2061,303.1258,256.2694,456.5670,-443.4114,-422.7334,-340.2147,-190.5164,-99.8652,83.6199,-383.7121,-97.0944,88.7525
-348.9616,-372.2715,-309.9167,-320.3663,-367.0463,-240.1450,-131.8784,252.3197,151.1833,360.1993,-380.5204,-348.5156,-319.3047,-117.6888,-85.2748,123.6714,-304.1187,-105.8513,57.7821
-299.7794,-303.5138,-260.7877,-281.5129,-334.5985,-189.7073,-135.6403,205.3099,76.4043,238.3915,-317.1772,-248.8983,-270.9944,-45.4282,-58.9348,162.1747,-296.5001,-111.4471,12.7894
-297.2958,-294.9532,-251.0396,-250.8437,-311.7034,-118.2562,-86.3015,190.2768,100.4275,194.4385,-322.5334,-207.1477,-216.5771,16.8597,-12.6798,154.1499,-324.0453,-77.3490,19.6112
-319.0241,-273.0910,-261.8407,-224.6233,-281.4483,-83.4713,-65.0010,158.9177,100.4193,138.2986,-336.6230,-189.7071,-167.2350,60.0199,29.8119,101.4453,-296.9604,-64.8765,23.9386
-303.6245,-186.8480,-237.3285,-182.2997,-239.4582,-57.4831,-77.5418,97.0024,36.5709,45.2725,-287.9726,-126.3799,-124.1204,85.7148,39.9851,56.2313,-240.8264,-88.0842,9.4730
-252.2752,-108.9516,-194.5793,-111.0146,-217.3105,1.2849,-55.5106,43.1256,13.1193,-42.6662,-222.7171,-32.6702,-98.9531,106.1680,52.1322,40.2564,-202.6322,-41.3072,28.9691
-209.1564,-90.2137,-164.8397,-43.0792,-181.0574,54.8606,-13.8921,18.2820,48.0500,-140.4309,-196.6540,23.5059,-78.1223,109.5478,108.1401,14.0584,-172.7059,86.2404,53.3396
-191.4798,-86.4220,-126.7116,-14.3374,-102.1355,66.7418,-4.2356,14.5316,69.3610,-176.3459,-177.2466,18.8893,-30.3002,88.3476,161.0588,-28.8885,-154.5998,159.6913,39.1392
-172.8668,-77.0704,-76.4921,-8.0825,-46.5202,52.0670,6.5966,20.0740,49.2523,-68.8244,-135.3458,-9.4091,22.6973,62.7645,145.7941,-38.0723,-150.5744,145.8635,45.4184
-135.1505,-74.6923,-41.2412,8.2768,-37.3889,38.3898,48.4210,29.7736,6.6818,26.5515,-102.6156,-29.5562,34.8685,36.5494,100.7160,-15.1224,-126.4913,154.1301,94.5520
-107.7117,-49.4753,-12.3511,38.6673,-13.5708,47.2333,73.0126,40.2593,-18.3659,-29.1387,-92.8318,-43.3555,19.2121,10.7105,106.7479,-16.1991,-76.7150,214.2578,102.5222
-105.4867,2.9111,34.2007,79.0051,26.2348,67.4097,63.7138,36.1378,-9.5056,-85.2285,-75.0623,-43.9256,13.9415,13.9179,152.9224,-38.9539,-26.5466,244.9510,45.9987
-89.9638,31.4273,84.6939,127.5459,42.0041,70.9347,63.8325,15.5487,-14.6371,-47.2033,-39.6888,-22.0161,25.0099,43.0606,164.3413,-42.9015,25.4394,218.4579,0.5589
-50.7382,40.4224,108.7738,170.5999,46.8315,83.3878,74.4945,16.1392,-50.3598,-60.0191,-7.9287,-15.4551,54.4193,56.4798,124.7328,-31.0740,76.3551,182.1004,0.8398
-23.0651,64.7797,100.3216,189.4097,47.7934,126.1491,69.3545,51.8938,-55.3602,-124.7068,14.3912,-54.3081,98.5499,48.3964,88.0144,-2.1273,95.5433,158.7311,15.9613
-12.1176,69.4675,83.5416,171.0489,34.5431,140.4908,71.7322,76.2844,-5.2259,-69.1805,32.7427,-85.5988,118.5869,39.2136,94.6927,59.7336,82.1541,139.1010,24.6855
-7.6919,36.0357,83.0540,123.1330,42.2592,105.3090,103.1055,65.0745,57.0553,57.2632,44.1142,-64.5380,97.2925,35.2970,128.5334,96.8870,67.5791,124.6373,27.3589
-8.0338,19.3376,87.7204,84.7440,79.3265,87.2422,125.8380,48.1893,77.8498,81.6983,60.6928,-46.7924,78.1574,46.4339,145.6324,54.7153,63.3314,113.4138,29.0789
22.2421,30.2215,71.9453,81.3888,87.5282,102.3210,111.1286,43.2406,20.2459,40.9764,105.9385,-69.8623,97.8589,72.4627,132.7563,13.0014,64.2695,96.2942,35.4644
85.3858,39.7122,40.5493,87.8426,58.4527,118.0346,84.8843,44.8787,-62.2948,-4.8397,165.2757,-58.6770,146.3918,95.8674,123.7603,44.0340,68.3328,92.5515,37.4031
102.3728,62.8341,16.1178,80.5504,42.1916,143.0812,73.0484,46.5938,-67.8934,-132.6295,196.7287,27.9029,194.5076,122.4316,139.7597,65.5253,66.6279,123.4747,20.6381
76.1304,76.3117,14.8077,69.6500,49.5885,159.3698,71.1904,31.1019,-40.4430,-248.9627,187.4436,95.4180,208.1316,145.8732,154.4877,18.2139,46.6992,151.5435,0.0186
110.9186,20.9265,39.1601,55.3522,64.9410,126.7283,67.3657,0.1052,-74.6817,-147.1624,151.1311,77.1602,179.7173,123.4310,152.6950,-9.4893,15.0984,124.9372,3.7097
178.4596,-33.3044,53.7360,31.9559,71.1380,93.9741,50.2731,-18.4176,-77.4244,28.3096,113.0246,52.6339,157.9695,76.5870,155.9358,34.9779,-0.4983,60.5098,18.1031
151.0945,14.4948,18.0884,16.1259,36.5940,100.3748,19.8951,-37.4692,37.9313,-2.5312,117.8278,91.9395,180.0602,77.2835,165.2165,85.8861,7.3191,10.4291,-1.8741
58.8752,78.1478,-33.5965,7.4445,-12.9173,85.5266,0.4203,-82.6685,125.9800,-102.4808,167.7854,132.2966,212.9292,109.4323,158.5188,106.9458,1.4834,-5.4384,-50.8377
22.8178,54.1395,-36.0117,-6.4580,7.3964,51.2166,4.5399,-111.7068,72.4163,-26.6035,186.7068,113.8750,218.8725,118.4125,137.2747,120.6046,-30.6874,6.9312,-70.0687
50.0390,32.7764,2.0806,4.8371,89.0678,66.1711,11.9419,-98.2369,-22.1624,78.6354,152.9521,89.3344,199.9514,116.2666,108.7579,123.4599,-34.3206,22.0653,-54.3932
96.5315,88.5459,26.3134,50.2908,128.7149,84.4670,17.5578,-99.6647,-50.1133,45.3940,155.5544,105.6609,159.9959,108.4097,77.3367,109.9037,4.0897,4.7331,-61.2175
138.4832,122.7912,15.3797,59.3667,97.5255,44.3809,33.8838,-126.7777,-4.4331,7.8089,209.1968,121.2475,115.7717,82.3299,74.2699,104.3000,2.6808,-24.9391,-94.2956
120.7810,78.5484,-15.5296,6.5453,53.9511,18.0392,37.9281,-115.7055,73.0585,23.5271,207.6415,110.3990,111.2354,81.5490,110.7452,111.9618,-65.7386,-6.2321,-107.2067
44.7175,35.1514,-30.2556,-27.5287,32.2058,42.7200,15.5121,-84.3295,109.0443,-7.7201,145.9855,109.0863,142.2904,112.4887,140.6239,107.4250,-113.5642,49.5435,-107.7874
26.6736,41.6754,-12.3882,4.4745,28.6565,50.2024,10.0975,-110.9177,79.9688,-45.8292,141.2107,120.6145,144.2117,108.0164,135.4207,69.9882,-95.6311,78.8768,-127.2756
106.6460,81.9186,-6.3127,66.0065,26.3838,47.3853,20.9921,-169.2045,20.2946,-58.7132,200.4805,110.9056,98.6670,84.3679,100.2464,14.8899,-57.7846,81.6507,-146.2750
176.5076,140.1117,-37.5658,121.8392,0.6103,83.1695,-22.2147,-174.0260,-68.9995,-119.5825,222.4794,84.0562,52.9541,101.0581,25.6696,-0.3796,-26.5292,79.7835,-147.4821
178.6956,166.1694,-61.2108,135.8919,-45.7707,100.2057,-99.1247,-126.8176,-114.0087,-94.4686,190.1158,45.0113,23.9134,106.3160,-43.6547,37.6163,-11.1218,36.4546,-141.8445
164.1159,114.7683,-79.5898,75.7800,-89.5573,57.5291,-104.0469,-80.3589,22.6784,141.2240,152.6127,-34.0955,-12.2761,66.1959,-9.2309,44.9402,-47.5967,-54.0309,-120.9158
151.6512,48.1583,-147.4978,5.2185,-136.3828,34.8840,-45.1918,-49.4626,203.5244,270.2773,115.8895,-114.8728,-45.3073,60.0675,88.3524,-4.4007,-116.2921,-109.3989,-92.7864
120.9523,42.1606,-213.8375,19.4925,-184.9601,75.6754,-20.5362,-30.8482,133.7076,41.1720,85.3270,-97.3979,-36.1188,95.4669,93.4178,-4.7070,-127.0111,-83.7905,-97.5470
100.8741,60.7450,-179.7088,82.0786,-181.9145,114.4205,-39.8183,-26.9301,-105.0568,-223.7426,91.7806,8.9321,7.5906,96.6017,5.7785,60.3125,-60.9821,-29.4032,-114.9061
126.6236,56.6473,-82.3886,93.5846,-96.6546,99.4204,-62.0616,-26.0555,-207.7251,-223.4310,125.2916,86.1079,26.1137,76.7916,-50.2759,58.6508,-4.0671,5.0502,-89.7254
166.9637,53.6712,-10.8196,55.9400,15.2016,49.2272,-88.2040,-17.7426,-166.7867,-130.1809,154.1745,96.2336,-4.5240,71.2649,-74.3486,-24.2008,-6.6899,30.9785,-46.7532
178.9298,48.7757,42.5988,29.2432,83.3726,8.5372,-105.1951,-15.7439,-131.0014,-116.1310,182.5414,97.1914,-29.0819,43.4317,-129.4036,-59.1707,-22.6397,65.4356,-29.4139
175.3312,8.9470,97.4013,29.2303,102.3095,3.8499,-93.8318,-26.8547,-110.3651,-98.1527,212.7755,107.1099,-0.8597,4.1831,-173.7740,-34.1527,-4.5408,91.9288,-6.5052
184.4801,-21.1300,120.8461,43.8008,105.4629,17.1075,-85.8801,-25.8185,-104.9937,-21.2738,216.7632,99.6017,37.8563,2.4892,-161.3309,-36.1455,21.1793,86.5375,43.2773
197.3372,11.1258,110.9194,59.3290,108.9138,16.8107,-88.5975,7.2547,-124.3861,75.3054,180.6415,65.2546,27.2527,-2.0691,-133.3321,-49.2825,10.3840,58.7593,86.7849
193.7921,36.6014,98.1822,61.8187,110.5635,3.4793,-74.2176,56.3172,-91.1803,172.2719,124.3472,3.4977,-17.1542,-50.8969,-121.9877,-21.1116,-14.8477,36.1023,120.8007
176.5280,-28.2900,87.1806,50.7214,109.2369,-18.5017,-80.2068,97.8800,6.1324,267.4552,75.9616,-64.1436,-50.2627,-92.7211,-119.4187,18.1015,-6.2035,5.9211,161.9669
155.6599,-124.3969,72.6148,22.5259,94.1166,-53.4988,-127.4175,125.4824,89.8101,361.5288,46.8550,-86.3406,-63.1664,-94.8087,-116.5049,52.0634,17.4894,-57.4783,185.5420
135.2983,-142.2141,52.2105,-24.6452,53.6862,-74.0732,-122.9673,134.8640,150.7637,402.8640,21.5379,-61.8743,-52.7055,-84.5785,-89.0526,111.1914,5.6637,-109.8115,171.4445
115.0113,-88.6938,22.6287,-49.4755,13.8624,-58.7055,-37.3737,121.0513,189.1150,312.6323,-12.4685,-43.4308,-8.7167,-76.4300,-36.4310,160.8443,-28.9582,-92.5703,134.4937
89.1810,-40.7846,2.4495,-21.0630,11.5778,-44.6908,16.7059,93.9979,182.9217,180.5526,-23.8712,-30.5796,47.7480,-74.3060,-13.7616,133.8107,-36.8602,-40.7626,88.2768
70.0622,-3.7931,8.7857,18.9859,39.6261,-51.5874,2.5218,72.8837,174.6474,156.7163,24.9793,12.1982,85.3908,-73.3198,-34.1475,55.7148,-10.0899,-7.5258,55.7216
84.7495,61.0766,24.6183,46.0707,76.6794,-31.3922,1.3735,68.8922,151.0291,148.1026,101.5405,59.1547,100.0831,-38.4124,-41.7581,2.7567,24.2416,33.3041,65.7415
110.0216,116.1952,40.8303,90.5112,116.9224,32.4521,29.7083,77.0913,56.7577,30.5704,122.5160,76.3947,89.2435,30.0873,-21.0721,-12.6391,38.5910,88.2592,96.5999
89.8323,92.9292,62.6046,124.2845,133.1486,79.7566,47.3347,83.8272,9.5594,-52.4695,61.3490,87.8269,53.5714,79.3477,-3.5382,-20.3596,21.7056,87.7691,103.9243
46.9478,28.8077,65.9647,86.8916,105.6219,69.8898,53.8179,94.8320,80.0791,25.5555,-7.4495,99.3047,33.8651,95.4595,3.1464,-14.5791,3.2423,22.2288,89.1038
56.1461,12.5182,38.0035,21.2157,73.7279,33.5601,39.7220,126.6592,77.1030,154.9971,-2.1255,80.8888,59.1575,104.0733,-2.1503,22.7318,18.5940,-25.7934,62.8298
108.4931,35.1913,10.2153,2.2542,60.5276,16.0337,-4.5390,152.4232,-37.3276,215.6868,60.4691,55.8040,86.7359,110.2204,-19.6635,54.3625,36.9023,-21.8672,15.9505
132.8429,40.9406,-6.8528,12.7571,33.8724,23.4903,-18.8374,135.1223,-45.5283,190.4002,103.9324,68.5844,76.0474,117.9584,-17.8027,31.4737,10.4280,-7.5375,-24.7519
111.0608,38.7758,-29.2469,17.1495,1.1598,25.8300,34.3796,114.2966,39.8694,143.7936,95.9141,85.0188,53.6521,129.1773,15.7783,-8.3369,-33.5030,-11.5856,-21.2023
72.9337,47.2479,-46.2992,22.2548,-0.4159,3.7380,93.3402,136.2085,52.6985,176.8882,53.8034,56.0630,50.7369,117.9773,48.1878,7.7412,-46.7371,-26.8887,-11.0625
45.4951,56.3359,-51.4003,24.8038,13.4611,-18.1951,102.4549,144.5221,39.6859,200.9791,8.7670,29.5007,64.5916,84.6200,65.4394,56.8236,-38.0526,-25.7854,-54.6740
44.0866,85.2737,-57.7561,28.9077,36.7848,-20.8840,68.2063,84.3922,19.3293,61.5979,-2.6770,77.7589,86.1825,65.8601,69.8844,68.8049,-24.0517,9.9212,-122.2925
48.8185,128.3202,-49.6775,62.6692,93.6395,-29.7700,13.0497,14.9493,-91.0069,-37.0117,10.8494,165.8051,89.5660,67.7349,54.0340,61.3284,-2.3204,38.1854,-140.2619
22.1520,113.1203,-21.8417,107.0502,129.7764,-41.1326,-24.4183,-5.1142,-150.5738,112.7831,-16.1478,199.3044,49.9674,85.4283,48.6713,85.9950,2.1885,18.0370,-107.3510
-19.7235,47.7705,-18.8722,117.3282,86.5359,-2.4155,-16.5695,-2.4271,-68.0649,225.0164,-84.0088,173.3477,9.8691,133.0723,87.2611,114.2821,-21.4342,4.8090,-73.7923
-29.1288,34.2195,-37.5106,103.3658,43.3468,66.0723,-2.9308,4.9892,-86.1424,127.3538,-101.6743,167.7807,21.1797,182.6888,115.9014,107.0366,-21.3248,43.4027,-55.1693
-7.2040,69.9521,-13.8400,91.3495,72.9589,78.9956,-25.5897,33.2429,-252.7531,110.8537,-53.2779,204.7117,41.9266,191.4668,79.8075,100.1921,22.0034,69.0396,-43.1222
12.9781,73.9939,35.5883,87.6180,103.2686,56.8010,-54.8148,63.3324,-280.2261,178.0197,-30.4498,220.2954,17.2705,187.3309,33.2692,128.7036,49.5774,56.5860,-42.9946
20.8482,67.9700,30.9215,105.4628,80.0593,87.3697,-48.6371,64.7966,-150.5341,58.2312,-60.8726,181.3337,-18.1297,196.8253,35.3986,163.5216,41.0138,75.8645,-47.6992
28.3434,102.9610,-12.2659,126.3547,54.7471,133.8111,-15.7069,44.5527,-109.0588,-65.7548,-67.1500,132.1124,-22.4595,181.4361,44.8589,158.6141,48.1036,116.1717,-42.3895
56.5580,143.6909,-15.5830,107.5887,52.9981,111.8676,-1.8955,19.1479,-199.6568,4.1558,-5.1819,118.1696,-8.8760,139.4534,2.4019,95.8410,80.5045,103.0183,-48.1119
101.4547,151.9680,13.0436,77.8512,52.2157,64.1384,-41.0787,-2.4807,-319.4758,-2.0893,59.0088,122.5098,12.4174,119.1738,-71.5529,18.7976,79.1441,69.2710,-75.5655
102.5071,106.4919,8.7087,76.1241,48.4164,46.2337,-83.4956,-7.2952,-356.9554,-88.3223,24.4238,87.2319,27.9964,112.3751,-96.6503,21.8911,8.4532,70.6653,-77.5437
23.6285,-17.4977,-29.6283,53.2241,40.4982,18.5460,-40.1025,11.4595,-208.8725,52.2944,-92.3739,0.1639,2.0022,90.0878,-37.7327,105.6153,-96.0994,60.7374,-45.6907
-60.8428,-134.2460,-56.2105,-1.0264,39.8502,-13.9542,54.8622,43.3292,-28.2473,219.2388,-140.6714,-61.1741,-46.2925,76.7316,24.0129,126.2588,-160.7001,21.4081,-49.6892
-68.1826,-115.1725,-65.0196,-3.2777,74.7962,3.5792,93.3077,57.1427,-68.5853,119.5258,-64.9446,-36.4218,-52.8878,71.8466,10.1591,22.1400,-150.4222,19.2421,-96.0147
-43.0156,-24.0460,-80.4660,47.7108,110.1100,23.2555,95.5322,20.7867,-177.2796,17.3391,-6.3758,17.4527,-22.1289,29.6987,-11.3419,-82.0850,-117.7448,63.3922,-109.1074
-77.4271,-3.0062,-98.0263,77.0366,87.1226,-13.6675,130.7202,-42.9683,-101.3146,45.9605,-42.7295,31.8277,-4.7513,-24.0306,39.4863,-104.5327,-120.7569,98.1985,-89.6299
-150.7978,-25.9480,-94.1306,94.2523,49.4079,-42.4785,147.6785,-72.5721,-12.9416,-32.8136,-65.5558,30.4436,-10.4844,-14.8763,94.2490,-95.1211,-135.4205,101.3257,-100.0442
-168.8218,-28.3200,-70.8726,121.6492,62.8287,-22.0254,115.6504,-59.8834,-79.9228,-111.6625,-22.1071,36.2129,-27.4212,37.7402,88.8377,-72.7960,-130.4313,77.5991,-120.8840
-127.4223,-46.3790,-46.9899,114.5310,91.8002,-10.7163,124.4355,-39.1819,-111.5035,33.2864,6.5515,19.9510,-32.7183,53.8455,90.2272,-35.5079,-129.6799,46.4940,-103.1692
-106.8349,-78.7786,-32.1811,88.9613,88.8600,-22.1262,191.8896,-10.3048,-16.1714,211.2062,-14.6608,-13.2291,14.5081,35.4667,143.4014,-31.6287,-130.4905,38.6209,-76.2133
-116.9255,-80.4603,-32.8955,104.7072,73.1989,-24.5507,235.2536,35.3734,86.3545,287.2759,-57.7932,-28.4748,93.1542,47.4474,207.5829,-35.2999,-96.4524,45.3511,-73.5328
-94.8653,-66.6659,-42.5884,135.6825,70.7129,-21.4700,255.0850,79.4438,192.2409,301.3106,-94.4696,-24.3219,128.8435,100.4198,262.9604,18.2487,-54.7107,56.2597,-77.1798
-43.8212,-38.5115,-36.8015,158.1454,96.5257,5.3279,297.0725,112.4343,297.4995,113.1714,-69.8850,-10.9089,130.4215,147.5027,298.5807,57.5542,-59.0618,95.1326,-82.1833
-22.4868,6.4490,-21.4981,197.1690,153.7782,59.7965,335.7264,128.9867,304.2135,-110.2188,2.8815,-10.1410,159.3308,155.6008,292.1135,43.7399,-91.0149,116.6234,-88.9448
-32.3372,-11.9008,-30.3109,203.4237,200.4221,56.6070,353.1998,121.8917,267.3848,102.8659,-1.4421,-47.6297,194.6339,128.9627,280.3830,93.8005,-102.5331,59.3729,-72.0309
-40.3708,-78.6281,-48.2042,151.8146,209.2360,-5.8875,357.7466,126.2019,270.9206,442.4414,-86.4274,-59.5773,197.0279,111.6463,284.3276,167.8177,-82.4894,23.9039,-43.7175
-41.9801,-45.8077,-37.3007,158.9766,214.7698,5.0148,317.2773,167.2145,218.2545,233.8374,-102.1769,27.2180,201.9996,160.2017,235.2890,99.3625,-47.5501,94.9453,-46.1263
-38.7530,44.5832,-28.2457,233.7445,225.5752,73.0149,248.7936,189.0995,101.9996,-137.6645,-43.5428,110.7142,227.5476,232.4269,143.0188,22.3679,-36.9209,130.5116,-62.8855
-36.5490,23.7535,-61.6344,215.8809,212.5165,44.2454,234.4902,157.2952,51.2735,-23.6708,-33.8164,83.2737,232.8938,169.9232,129.8054,129.0567,-69.4573,58.5592,-66.3912
-39.9250,-15.3763,-92.4369,137.8496,193.8532,-37.2175,249.1560,124.7535,19.1458,101.9136,-54.8447,61.2538,210.6290,-80.8020,193.1952,206.3038,-89.3056,44.8277,-91.6221
-13.1038,81.9997,-77.2188,186.6543,191.7626,-21.6477,206.3395,113.4555,-73.1248,-214.9625,-29.9812,130.5327,189.3147,-336.8471,207.3561,71.4327,-55.5014,111.0254,-140.5623
43.9105,159.7844,-63.4884,284.6452,177.4541,19.4636,154.8658,92.5491,-86.6445,-323.9387,-2.0542,141.6756,176.0450,-415.2758,154.1931,-41.3556,-28.5331,73.3397,-139.0199
44.7232,71.1730,-89.2329,231.9568,148.7712,-44.4533,168.7049,76.3780,25.4190,93.4305,-8.8934,34.1989,168.5850,-356.3351,103.6387,-19.1819,-53.5723,-38.4910,-79.4247
-14.2213,-15.6661,-106.3601,128.0342,131.5293,-123.6035,182.6991,81.6353,51.8303,258.0399,-19.6710,-22.6282,158.6005,-280.9944,76.9556,-59.1156,-73.1942,-31.0749,-45.2188
-20.5149,25.3430,-76.9287,169.0282,108.0743,-101.0630,151.3688,67.8366,-90.3268,-138.2757,-41.6581,23.6663,122.8746,-216.5362,75.0985,-145.6912,-42.7914,57.4985,-55.9969
18.2091,76.2417,-40.9432,277.1018,76.4742,-54.8591,148.9716,25.7526,-212.1398,-374.6084,-73.8842,38.0252,68.2068,-170.5712,83.0079,-127.6991,1.9381,65.5988,-59.6210
-1.7485,73.5621,-40.1462,294.2603,84.7462,-84.6143,189.6648,-6.4830,-186.7749,-167.1693,-59.9536,-5.9068,35.6224,-177.2502,47.3072,-135.9218,27.1313,12.8708,-63.9251
-26.9959,86.9966,-52.8984,253.8864,126.5036,-141.8917,190.3422,-35.8287,-127.0210,-95.9548,-9.6243,-19.0023,38.3198,-204.8044,-18.9095,-291.0133,41.7165,0.9932,-113.2036
48.2946,117.2169,-40.8952,243.2297,146.0850,-151.7136,141.9427,-88.9041,-180.6361,-390.1585,12.8286,3.7809,53.0076,-190.8834,-38.7487,-434.9229,63.9226,27.8762,-177.4374
155.0429,103.6227,-9.8347,248.2206,147.5355,-142.4106,107.6459,-144.3302,-306.5842,-595.8469,18.4873,8.7197,59.7194,-165.0105,-25.8541,-471.4772,95.2160,29.4241,-200.7366
200.4263,46.6369,12.1387,230.8805,165.0119,-169.8867,82.6217,-179.0746,-371.0741,-507.4231,44.6208,-20.2606,59.2187,-182.2634,-51.7415,-465.4913,114.6786,-14.9861,-200.9861
217.0443,1.5269,24.5383,205.6170,191.0091,-206.8280,16.2839,-202.0445,-389.2953,-428.1509,73.1965,-65.5131,66.8908,-200.9285,-113.8023,-435.2085,107.9764,-40.6724,-221.7307
218.2316,11.3016,38.0004,202.9307,207.1469,-203.6803,-67.2660,-220.0748,-450.4418,-495.7261,85.0679,-80.4869,80.2860,-166.6928,-181.1375,-414.1912,86.8020,-4.3885,-250.5694
166.1998,43.9953,29.8914,202.6687,198.4005,-198.0809,-87.1038,-238.5508,-502.2081,-515.2705,77.4165,-40.6414,75.7905,-118.4598,-240.5140,-450.7861,53.6449,-7.8935,-258.0226
91.6463,27.1240,-24.6497,150.6612,147.8949,-235.8358,-41.5608,-264.4184,-489.1732,-459.4930,41.5487,-6.7165,69.6284,-101.0765,-261.1433,-468.0407,1.4390,-112.3207,-263.0986
43.7678,-21.8781,-93.9039,75.3661,82.7354,-258.1374,-37.4518,-279.2014,-505.7643,-511.4113,-1.2126,-30.9136,99.4963,-99.6572,-256.4406,-422.7246,-49.0649,-162.6367,-297.6780
16.0661,-34.6897,-126.9089,72.8355,53.2438,-218.8151,-127.8127,-259.6438,-578.5249,-610.7304,-15.4044,-71.1070,130.2170,-120.5511,-289.0828,-379.5887,-83.2311,-85.1142,-336.7208
6.6722,-44.4269,-135.8583,114.7910,55.1533,-200.0038,-210.3655,-214.9392,-594.3737,-503.6976,-9.6580,-92.5404,105.1722,-179.9429,-335.6938,-315.3330,-121.2048,-64.9017,-330.8478
15.1671,-102.8270,-175.1220,72.5175,52.9400,-260.6736,-187.1710,-161.9034,-534.9946,-250.1930,-14.9564,-119.6698,59.0391,-209.2975,-320.8674,-233.9587,-166.0145,-162.9273,-295.6376
1.5722,-149.7540,-245.9927,-34.5396,36.3286,-316.5752,-116.0775,-102.1867,-480.4890,-179.0682,-51.5660,-146.0784,47.3834,-154.9913,-263.5958,-260.4229,-203.2323,-190.5549,-287.1113
-48.7938,-144.1372,-291.2157,-75.1945,8.0839,-292.8734,-94.4584,-51.5099,-460.3552,-317.7256,-120.9515,-142.4336,44.7269,-108.5472,-222.6281,-293.9281,-236.3396,-110.9146,-296.0983
-103.3297,-149.0104,-286.4658,-57.4488,-17.8869,-244.2858,-120.7323,-38.9506,-468.0927,-339.8033,-181.4103,-137.3594,7.3689,-153.1896,-207.4971,-109.9312,-250.8619,-81.6341,-267.2572
-150.2993,-188.9064,-269.4239,-74.1775,-21.4203,-241.3536,-157.6120,-51.9997,-449.6622,-133.5498,-196.9169,-170.0513,-48.6105,-211.6835,-213.5957,115.9189,-231.1594,-114.4596,-209.5598
-195.6573,-209.7269,-271.4587,-106.2102,-23.7593,-259.7850,-197.1179,-39.4147,-347.4553,23.6159,-203.8299,-211.1663,-61.0305,-197.8412,-201.3570,89.4917,-217.2919,-109.5156,-178.8828
-223.6426,-185.1811,-279.8573,-99.3780,-57.1739,-236.8008,-215.1956,1.5964,-270.2659,-35.6593,-233.7575,-214.2515,11.2949,-147.8808,-117.3698,-43.5756,-225.4504,-85.3673,-181.4313
-223.0287,-147.1586,-274.2409,-89.4637,-98.0672,-175.2655,-187.7123,11.4429,-301.7633,-85.8911,-257.7427,-201.0116,100.3370,-122.5540,-31.5273,-38.5540,-208.6390,-108.3778,-186.9056
-210.8316,-151.0495,-259.7044,-118.7977,-125.0017,-143.6596,-156.8377,-28.4460,-250.7529,84.3215,-262.5049,-217.2414,96.7124,-137.8123,-49.9085,38.9477,-180.5604,-163.8102,-190.5352
-204.4575,-198.8470,-256.4978,-160.8762,-162.7085,-164.2592,-179.5538,-71.7204,-68.9025,256.6321,-242.7910,-218.2727,52.3620,-171.7991,-118.8543,56.7620,-197.5347,-186.8577,-210.5049
-195.4509,-193.2052,-266.4852,-164.4948,-198.3566,-160.6663,-237.0804,-94.8316,-81.6153,87.3832,-173.0494,-124.4055,98.2069,-154.3712,-152.9763,-41.6009,-225.7914,-132.0224,-257.5610
-179.1005,-109.2358,-262.1416,-111.6450,-188.6739,-84.2002,-272.4731,-101.1001,-323.9389,-258.2260,-117.6044,-18.2616,170.3229,-72.0585,-171.5901,-226.1913,-226.2646,-55.1821,-300.1516
-198.9208,-95.1258,-235.0148,-62.2428,-163.0606,-14.9407,-277.5179,-82.2757,-377.7407,-250.0410,-181.6569,-73.6084,129.9651,-48.9153,-154.2206,-225.4215,-244.3376,-71.1971,-275.2061
-278.0905,-188.7908,-227.7129,-103.4790,-174.0335,-32.6485,-280.9712,-67.2094,-174.1592,109.3518,-297.8726,-233.0487,45.5901,-133.1204,-73.3235,116.7893,-279.7794,-156.2658,-195.0526
-335.3198,-218.3767,-267.3030,-214.6832,-206.1764,-83.9447,-294.9863,-99.4111,-73.7795,215.1526,-341.3524,-260.5097,32.4359,-177.2736,-47.4988,409.9611,-287.9294,-194.8416,-163.3155
-324.7162,-172.7579,-322.7005,-307.2507,-250.6140,-96.2431,-322.9969,-136.4339,-134.4789,-61.2985,-378.3603,-145.7050,31.0192,-124.1463,-117.3865,319.7637,-318.0446,-211.3691,-206.0535
-356.3026,-230.4657,-371.6660,-376.3751,-341.1503,-103.1565,-363.1851,-122.1958,-145.2098,-184.7457,-497.9406,-84.1725,-14.4587,-115.3215,-118.0378,127.9156,-409.0575,-264.2365,-232.5419
-481.0620,-344.4121,-417.4930,-439.5782,-448.4172,-135.1292,-372.8842,-94.0418,-120.5362,-82.1480,-611.9390,-93.9678,-54.1969,-177.6293,-40.3342,101.1954,-471.9131,-267.2886,-206.3990
-572.3867,-316.9191,-433.1880,-443.7493,-495.0346,-127.9445,-320.6447,-80.2893,-133.3312,-203.0388,-659.7827,-51.1081,-97.2669,-163.8190,-65.8615,64.4258,-451.6597,-194.2883,-172.6465
-581.9054,-207.9475,-405.3149,-390.3152,-483.7737,-56.9746,-278.4970,-50.4514,-96.9000,-400.6872,-701.9617,9.6226,-166.2498,-58.5681,-141.5699,-67.5131,-411.6075,-171.2291,-147.2236
-592.6000,-187.8371,-384.2026,-356.4404,-469.3569,-4.5219,-324.3231,-26.6649,-19.1543,-193.9895,-707.3830,-7.7134,-166.7054,8.3199,-84.2111,-144.4502,-395.0411,-204.6952,-133.2501
-575.5485,-210.2088,-382.2011,-332.9806,-451.3270,-2.3873,-384.5706,-39.1936,-3.2250,134.7399,-592.8467,-39.2249,-64.5928,13.3855,-8.2152,-150.7834,-377.8632,-172.3165,-131.0745
-460.4556,-176.9162,-328.6253,-273.9599,-398.1043,17.4434,-355.7935,-35.3448,-6.7827,106.8027,-439.8358,-9.2315,4.6158,16.8174,-99.2800,-92.5026,-321.1464,-79.2139,-84.2256
-336.6756,-121.0052,-202.0800,-225.3609,-309.9273,71.2023,-298.3599,-5.9914,20.3692,-6.0223,-366.8990,17.1518,-22.1320,5.9319,-225.7943,135.1577,-201.1040,-1.9092,14.2828
-274.1150,-60.2315,-73.7172,-195.3623,-209.6089,111.5576,-302.8401,-14.5187,-15.7596,66.2468,-323.6994,-2.4287,-26.5985,-27.4600,-201.6421,405.2358,-65.5934,75.3437,61.2999
-197.5379,33.7401,5.1000,-103.3339,-124.4977,154.4736,-305.6740,-23.6294,-124.3672,6.0410,-229.4911,8.3841,73.0634,-2.2835,-94.9220,405.6181,6.0853,162.1566,56.3867
-104.8543,113.5834,46.1528,20.4477,-70.2429,237.3888,-236.3829,52.3041,-137.3837,-209.1279,-125.7732,84.7604,204.7823,109.8808,-36.9051,153.6726,42.4732,212.3768,141.3769
-74.9249,116.0257,89.0835,58.9496,-30.8118,314.7116,-164.4798,165.8355,14.6475,-125.9023,-64.2019,146.9150,264.9117,199.7881,-43.0899,-16.0451,115.6799,228.7918,325.9648
-59.9772,69.2813,172.2193,30.5765,7.4825,333.9149,-144.0625,235.6145,177.3792,237.0331,-23.8726,138.2516,232.8391,188.5531,-72.8957,64.0501,192.2676,238.1771,475.5958
12.8303,42.6821,272.1293,21.0180,29.6244,318.2379,-109.9733,283.1959,236.6348,441.2673,8.7848,104.3754,171.7540,148.8719,-54.1713,262.9890,221.7385,227.2157,559.4376
71.3724,54.2707,305.3542,5.8813,39.2725,301.1365,-22.3897,334.7447,317.9470,457.3098,19.2186,92.6174,156.9579,160.5937,60.0585,408.6990,230.3152,191.9990,623.6100
55.6695,56.5563,259.5211,-54.1433,58.4600,286.9222,65.8767,362.8166,530.8395,528.6500,32.7618,83.1740,201.1128,186.6682,195.1641,459.8255,237.4902,151.8631,638.7137
47.1193,29.4448,222.8192,-101.7233,67.6245,288.0089,115.8856,357.9695,691.1737,592.1567,97.6676,75.5579,259.3064,190.5058,267.7549,442.1224,247.5741,125.6472,578.0777
116.8045,50.6354,237.6723,-84.1580,46.2042,314.0951,139.5929,333.9733,619.2119,462.8340,197.5709,124.3066,284.9415,216.6079,314.9315,361.4388,285.1736,138.2366,495.8852
215.2833,158.2510,259.6202,-29.3299,40.6190,347.4900,148.8860,301.3116,493.9471,259.4892,266.3275,216.0965,258.4102,268.1976,362.8410,274.2560,328.9146,177.9893,449.7348
273.2601,248.7841,274.7197,18.7731,90.3917,367.4735,143.5942,265.4434,516.1121,225.5922,291.9351,256.4374,203.7511,275.6459,344.1017,302.1751,348.8636,199.6391,452.1956
305.7946,266.3114,321.7364,59.2608,157.2181,367.7770,122.1271,215.1995,553.3837,303.0665,312.1582,236.0618,181.5370,233.4289,257.5829,423.4042,392.5573,213.6982,473.3804
349.0292,283.7068,393.1722,106.7041,195.4758,351.1828,99.2902,163.8337,492.9263,271.8967,314.2343,229.6011,211.2280,205.2649,206.5383,447.0967,463.4810,230.1004,469.9649
351.6352,297.0341,416.6260,126.7116,198.0408,323.8752,122.3424,163.8933,490.5970,235.8322,266.5341,228.7390,229.4457,203.8766,227.0586,325.4778,465.0361,180.7187,456.7081
267.7657,238.7289,356.7986,69.7081,162.1038,291.8331,204.2208,203.0320,605.7468,414.8690,229.0027,187.3196,187.4102,199.0107,258.4256,229.7477,383.5898,83.4467,473.4683
197.4353,173.4223,280.2003,-17.0447,109.7276,272.4462,258.5791,211.5448,669.1852,566.2026,267.6544,159.7518,128.0160,194.6284,268.7335,252.1621,312.0048,84.0931,493.7025
222.1029,179.3445,271.3616,-40.7251,96.5616,284.7901,217.6286,203.6307,605.8809,377.9809,302.5139,193.6003,98.3121,212.7041,271.3803,304.6615,288.3364,192.2837,495.3661
232.1886,196.7031,319.5934,-15.5255,126.3846,305.7558,164.9225,229.7471,508.6676,139.2663,228.3098,217.4405,70.9806,238.7090,269.5511,309.4019,292.2116,263.6338,516.3627
153.7487,187.2574,355.3305,-4.9568,139.9076,298.4635,201.8636,251.1581,469.7363,191.4978,118.9778,177.3730,20.0823,220.4816,270.3814,281.7718,299.4691,267.6853,542.9911
107.4903,183.1049,353.4606,-0.3486,116.2680,284.4972,264.1691,230.2463,528.6380,309.2586,122.4269,122.5211,-27.9436,142.9563,284.6232,266.0692,272.3529,271.1226,524.4763
152.7502,157.8921,331.3231,2.5040,92.4150,296.3467,236.1703,203.5247,623.3077,287.7914,229.2581,97.5421,-71.8923,86.7502,281.7881,285.8380,226.0507,266.0585,489.3847
186.3076,111.6464,307.9162,-27.9663,89.1061,305.1600,147.8524,181.8367,626.1152,301.7046,311.7367,96.0542,-141.0665,113.6765,235.5462,312.9416,231.8774,241.7855,464.6713
177.1573,126.7561,306.0864,-52.8489,86.3616,285.5588,99.2306,143.4579,555.7823,355.3622,316.9224,103.8427,-205.1688,142.0168,198.6826,291.2632,278.5530,228.7096,411.2955
190.4101,188.4214,322.1057,-25.7125,56.9156,264.1810,91.9979,99.7939,532.1659,253.9948,294.2299,110.4829,-219.4919,98.2943,219.7035,219.5969,300.7315,198.3773,343.5773
220.3340,212.8433,311.1093,-4.5310,9.7422,259.6169,68.3668,55.6242,514.7592,75.3672,294.6788,123.8668,-218.9039,74.8830,230.4400,159.6308,311.4537,133.6285,310.8829
228.6875,222.1667,273.0019,-29.4900,-0.8014,274.1058,17.6018,9.3348,395.9500,32.2094,322.9965,147.8910,-232.1530,151.7228,145.5632,149.3585,332.9704,105.9628,293.9942
227.1674,236.7972,277.4078,-48.9163,48.9888,320.9364,-43.3986,-0.4768,248.9215,142.8269,347.5591,131.6708,-220.5095,245.2909,16.2744,155.8493,344.3737,131.5190,299.4041
228.7879,203.9039,352.8218,-51.8452,102.7682,387.3966,-101.9324,29.5113,224.1580,261.5654,327.2506,62.1006,-201.3683,275.8523,-41.3243,140.9840,378.0544,145.3467,380.7027
239.6772,164.4839,443.8681,-75.0441,112.4557,442.9735,-126.9460,35.6782,339.6584,197.9057,254.6538,38.1618,-245.0874,279.7518,-11.7739,144.4380,460.4470,149.2698,485.8582
264.1945,187.3338,488.9880,-99.9199,95.5264,493.5696,-97.9456,2.8810,478.6543,-23.1613,178.8677,89.3066,-310.3879,301.7162,33.0765,216.3341,513.5153,175.3790,533.0595
270.2125,196.9025,472.1520,-105.3146,69.7273,545.1420,-52.5240,-22.3390,509.2811,-94.9665,173.7420,98.1723,-308.6981,330.4658,53.5148,293.9255,492.8467,194.7725,573.2921
247.7865,148.7554,426.6209,-125.1492,43.6233,568.5277,-44.8635,-26.6350,451.8235,28.4012,263.1183,41.4885,-293.7643,325.7956,64.7937,297.0640,461.0328,198.3000,649.1196
244.0795,133.9973,407.8704,-181.7064,45.2706,547.4622,-82.6077,-32.0010,469.1537,52.1454,361.7835,31.4941,-364.5295,290.5114,84.0612,286.5620,448.5173,197.0100,682.1151
259.3030,148.0836,418.2413,-267.9161,48.7222,485.1717,-140.8799,-62.8909,578.3587,13.6709,348.0570,63.3293,-478.8810,350.6568,103.3799,338.8686,433.5441,138.9199,639.3530
246.5332,99.4620,396.6873,-361.9988,-21.9048,395.1028,-202.0633,-128.4253,615.7866,130.4753,244.3934,42.7477,-537.1367,599.2899,99.3058,387.3363,416.4835,17.1667,581.5391
220.8735,40.7118,324.9812,-408.6105,-135.9316,333.8463,-251.4220,-178.4917,563.4918,165.6724,213.9266,8.1502,-531.5839,853.0875,64.5078,366.8641,378.7284,-60.3970,524.8455
213.3741,56.6093,262.6476,-388.9341,-173.2505,333.0007,-259.5656,-156.4245,549.3414,-27.6063,298.5464,34.5182,-518.2150,868.0262,33.8784,344.4851,299.0165,-54.4902,448.3724
194.8235,80.0103,247.6349,-369.3603,-123.4952,319.9446,-210.4732,-104.8051,581.9216,-12.1653,336.5389,72.8390,-536.1279,717.2025,47.4214,388.6435,237.2071,-47.5813,376.6813
154.8542,57.7389,253.2459,-372.1853,-82.0817,253.8753,-148.5709,-94.9266,615.3144,329.1248,243.1561,81.8503,-579.5529,616.8157,81.3315,467.0243,248.6745,-56.0333,338.1415
134.4025,63.4092,255.0900,-327.4268,-83.0677,227.1533,-140.4168,-113.6532,641.9958,450.5765,154.2956,109.0911,-604.7892,587.8744,75.6708,505.1839,286.4920,-14.2469,313.3141
144.9255,124.1282,262.4635,-226.9273,-90.9858,286.5037,-176.2886,-122.7925,571.1034,198.2266,182.1107,153.8069,-587.7056,565.5280,32.1591,470.7109,287.9346,63.4737,267.1627
157.6942,158.4575,276.7511,-161.5220,-84.8042,330.2227,-192.2164,-118.1037,383.5583,56.5761,250.1817,150.8733,-572.4894,546.6082,-4.5393,423.1225,245.8478,99.1161,203.8850
153.3931,126.6059,278.0929,-170.6282,-64.5441,292.3640,-186.0913,-96.5808,288.7084,197.3052,260.4903,97.3428,-617.3918,502.3354,-45.2464,432.4189,183.2240,87.6540,163.4865
139.0642,93.0317,261.9506,-184.8064,-53.4195,242.1057,-199.7287,-71.4158,340.8718,250.0903,225.6399,57.8648,-705.5026,427.6330,-112.3293,443.5803,138.7586,83.2369,140.6827
128.1019,115.2172,236.6130,-135.7611,-93.6651,237.6360,-213.1719,-67.7922,304.3558,31.7840,181.2878,69.1764,-756.2570,397.7055,-143.6143,383.7664,119.3311,90.6148,90.0817
97.9967,141.3297,187.0878,-61.7643,-175.1394,237.0937,-176.4668,-56.2325,170.7860,-126.3626,125.6672,95.6813,-734.9104,388.1334,-92.0428,317.1970,70.1911,63.3417,42.4268
28.7169,93.7265,114.0022,-54.3144,-227.8976,194.5380,-105.3135,-2.1084,187.1810,69.4502,71.3400,82.8017,-698.5743,300.4143,-38.7077,290.9980,-13.8503,0.2910,45.4550
-9.8245,26.4101,82.7772,-99.1517,-218.9975,141.0418,-56.7663,45.8930,288.2220,323.1855,50.4512,53.2690,-687.5031,206.5713,-57.0754,244.2003,-40.4509,-37.7069,25.8966
37.4818,47.6876,129.0744,-89.6944,-177.9105,120.8755,-55.0145,37.9314,203.8012,215.9608,58.7639,74.8590,-660.2325,216.0636,-94.9341,202.9166,19.2885,-36.4600,-61.8060
73.4190,121.0021,170.2477,-22.8146,-136.6986,110.6611,-74.1136,12.0200,18.3235,-14.7444,57.1979,124.2880,-608.0119,227.0321,-101.2454,232.6459,63.5847,-55.7459,-108.7326
24.2638,141.1556,132.6040,6.5445,-113.7712,75.2004,-65.7802,13.9108,-13.7591,50.7399,36.4839,129.5983,-585.1735,147.6143,-102.7040,223.5470,27.2865,-101.2253,-83.8279
-9.9824,121.4966,73.0544,-3.0539,-115.0562,40.1704,-25.8041,27.0095,48.3760,177.9162,35.0850,114.2286,-571.0795,94.8251,-110.4006,94.1956,-29.6990,-99.0467,-105.8740
28.2620,113.3656,59.5716,11.5534,-114.0670,25.3954,-9.9859,30.5909,24.1103,51.8388,70.7753,119.9166,-501.1583,124.2698,-108.8444,-9.5140,-50.5529,-39.3593,-170.2066
47.2739,89.3998,57.6855,36.4355,-85.7238,5.1977,-26.1331,44.0606,-30.3939,-45.3605,95.4926,96.6330,-422.2836,108.4890,-102.0969,-17.2343,-66.9392,7.7897,-158.3223
9.9720,51.6099,27.9869,50.9633,-58.8769,-5.2514,-3.5659,78.4451,-6.5373,64.6464,62.4013,36.9030,-400.9928,17.8774,-75.7376,-59.2698,-97.7855,32.4563,-90.7894
-33.4530,71.6994,9.7461,96.7482,-70.0297,31.1268,63.0347,99.3751,-2.1552,79.5778,6.8184,34.6500,-381.7104,-28.0086,-23.4118,-142.5506,-84.1897,80.3833,-56.6802
-66.4560,139.4109,39.7415,167.5507,-89.6779,65.7296,85.5197,81.4646,-133.9944,-30.1531,3.6755,94.4433,-316.6592,-16.7647,-12.8174,-141.5618,-13.6552,131.5356,-51.6454
-60.4499,152.7998,78.0966,196.2330,-66.9758,40.2260,44.4628,55.8515,-285.5691,30.7033,57.3300,112.6636,-258.6788,-41.4686,-76.0354,-92.3409,23.1649,133.7278,-62.9616
11.1731,103.5344,69.3623,178.6225,-16.6028,-0.1024,16.1831,50.0204,-276.4552,192.5712,92.0752,87.3427,-235.1488,-89.4916,-125.3983,-111.6761,-3.7292,104.9594,-95.9349
62.6186,107.9229,30.7620,172.2494,6.5550,-9.9793,30.0221,42.5050,-163.5213,181.8108,64.7029,103.8203,-226.6621,-86.6707,-104.7887,-170.7834,-11.2367,79.6080,-111.3535
31.7382,204.4752,14.7522,195.1392,-12.2564,-32.1238,44.9641,22.6030,-126.8576,42.5350,26.8046,141.4949,-242.3806,-69.7748,-69.6515,-190.5718,18.1234,34.3708,-117.6354
11.7645,268.4706,10.3278,208.2361,-42.1920,-91.0006,42.0517,6.5325,-169.0133,-50.7852,31.0738,122.0282,-262.1001,-106.6350,-61.0650,-166.7213,12.1799,-32.8995,-183.4754
57.6763,211.6526,-19.1712,180.1521,-47.5349,-134.7721,34.2368,-6.2770,-196.2907,-77.7404,46.8256,80.1863,-222.2416,-142.6561,-62.4991,-117.7991,-26.0335,-52.7562,-277.4023
91.2106,118.1318,-39.6036,138.1374,-15.3738,-120.8383,22.6352,-6.1572,-230.8398,-71.1298,36.3931,90.0521,-129.7612,-109.2996,-61.7202,-69.5565,-40.9646,0.6711,-299.1880
73.2084,80.1413,-17.8471,127.9244,20.9683,-72.1176,7.7381,25.3802,-276.9099,-33.3790,23.2464,110.4809,-49.8776,-68.0995,-50.4522,-66.2791,-48.4394,56.6178,-245.9928
26.9330,74.1945,-2.5798,141.9355,18.3873,-42.2697,18.9689,50.1249,-222.4907,35.9923,19.0023,73.5025,-1.7947,-81.9333,-29.5188,-116.4838,-76.2494,80.3511,-182.3195
-45.7880,74.1277,-8.2182,156.9905,15.3942,-44.1779,81.8657,38.9753,-89.6101,99.0396,-4.3248,26.0034,34.0120,-94.6239,-25.3933,-171.4057,-102.5706,130.2293,-139.6729
-109.5694,86.4196,26.0470,185.3571,84.4641,-33.4990,154.5713,46.4628,-69.7598,86.8690,-37.0456,35.0163,74.3885,-74.4552,-33.6014,-167.8893,-116.8117,221.8383,-116.5863
-112.4203,76.6085,86.0943,215.3335,177.4632,4.3333,166.5868,84.0292,-179.7005,31.6981,-46.3866,63.7135,120.2886,-82.1993,-19.7402,-100.0075,-114.2236,274.0368,-91.3580
-84.3277,42.3613,95.4605,218.2242,185.8013,22.8337,136.0982,79.5874,-223.4860,23.8114,-46.9573,65.5678,138.0277,-110.0659,3.7420,-49.2750,-76.3189,248.5554,-55.2204
-61.0568,45.2894,73.5728,226.6458,138.4980,12.9346,144.0633,41.2860,-138.2354,5.2960,-54.4119,73.1883,116.6048,-83.1710,12.9341,-61.4176,-38.1364,211.0624,-46.7929
-18.7544,64.6642,81.8567,251.7204,138.0751,8.5556,188.4494,40.0105,-55.5302,-66.7878,-44.7209,104.0942,116.2168,-37.7716,25.5576,-62.4675,-51.6984,200.4098,-86.5299
23.3209,33.9910,95.3302,226.4020,164.0121,-3.5493,200.3644,53.9886,-43.2740,-45.0605,-18.8793,122.3440,158.0054,-56.7226,35.4366,-29.7728,-74.4030,163.2756,-135.5820
16.3271,13.8694,73.7809,175.8917,143.8583,-31.1053,177.6621,36.7098,-55.6817,66.3578,-3.1327,131.7461,178.9828,-90.5923,17.2169,-54.5771,-40.8409,78.6616,-165.9867
-8.1082,74.7761,37.2198,217.2446,107.9885,-17.0346,167.2458,14.8246,-76.2515,55.4918,15.0960,161.9623,169.9490,-63.7371,4.3507,-118.2736,12.3633,26.2935,-182.0347
-3.1326,131.1752,7.1532,309.0904,104.5512,35.5532,176.1465,3.7093,-100.7119,-29.7425,57.3555,180.0087,189.2321,-29.1435,27.9967,-106.0960,15.8410,49.4616,-185.4032
15.4147,97.4369,-17.4749,300.7500,102.4931,36.1917,187.7311,-3.4974,-77.0626,20.6868,107.0230,137.1095,235.0555,-46.6629,55.3761,-57.4275,-24.6184,69.0191,-179.9103
35.6983,19.3707,-35.5415,211.6823,84.9609,-14.1986,189.2145,28.8304,-19.3234,123.2432,135.5487,56.3569,264.9551,-66.6778,75.8125,-61.5014,-57.5477,33.8634,-154.2719
58.2106,-35.9358,-49.0491,173.2163,85.2502,-12.0038,171.9995,106.1213,-22.0245,104.5962,121.9885,8.8363,274.1480,-41.5702,113.4818,-51.1555,-56.0157,13.3243,-90.7114
54.8126,-41.1553,-60.6169,196.3357,84.4110,51.3415,156.7365,157.2734,-55.2790,4.4669,76.0288,40.4114,266.3734,-6.0854,146.1464,2.0958,-38.5050,29.8657,-45.7614
25.8103,-6.8120,-76.5761,199.9027,19.0841,64.1267,162.0693,131.2396,2.1533,-90.0470,61.3900,113.3921,259.7514,-3.9849,149.8233,-12.3360,-42.3923,-12.5691,-89.6635
8.4338,-16.7362,-109.5653,139.2628,-95.9244,-27.3815,160.2235,49.1988,77.9899,-97.1095,103.3751,121.3297,307.1936,-40.3544,159.0261,-74.4489,-81.4386,-134.5376,-163.9862
-9.5823,-126.9539,-139.5730,32.0076,-175.1068,-150.5761,144.3234,-21.6223,12.7545,31.6794,122.7937,28.3379,399.9678,-96.2382,196.2351,-43.3641,-139.3868,-235.1086,-176.1516
-65.7841,-249.5013,-142.9877,-52.5316,-190.6840,-218.9899,154.7832,-22.1136,-87.2848,108.5970,83.0138,-63.1332,451.0083,-129.6318,241.9419,59.1909,-188.4130,-281.8390,-145.4344
-132.1459,-292.2613,-160.8354,-66.2409,-186.4829,-221.5118,189.9819,23.2117,-32.4921,2.1758,68.5944,-69.1232,438.6525,-101.8017,280.2092,127.5275,-204.4893,-312.6361,-110.3600
-150.1026,-288.3788,-203.9920,-51.2086,-169.2410,-185.2389,222.8068,53.9961,82.3404,-18.8307,110.6172,-36.4574,430.7646,-33.3814,293.4600,170.8941,-192.1382,-290.4698,-59.2804
-115.0698,-281.2973,-177.7511,-49.7336,-101.3014,-130.7409,275.3367,84.3332,113.4574,194.8721,127.6657,-32.2735,460.8978,5.2325,274.1088,199.8731,-172.7628,-178.4462,-12.7389
-69.4287,-253.9468,-57.4392,-29.3049,-1.4888,-87.6394,347.6044,127.6142,145.4740,352.9438,97.3264,-53.2891,498.5759,-18.5641,263.4382,172.8987,-133.8331,-46.0665,5.6660
-40.0012,-198.9964,40.5685,36.1268,71.5172,-63.6043,384.7751,132.3171,205.0938,321.5855,86.4143,-66.3579,513.4553,-48.5224,289.2447,120.2288,-55.1496,54.8543,32.9018
-5.8323,-123.9346,75.6068,133.1532,124.5329,-7.6001,376.7284,116.4085,145.6228,263.6453,117.3325,-38.3901,503.7774,-16.4689,302.3086,78.3478,32.2013,158.0273,81.9350
61.8107,-32.1689,128.8854,244.6871,193.0696,89.0780,342.4646,154.1801,-12.4889,163.1218,154.1999,41.1781,487.9631,48.0548,254.5148,17.0195,94.3906,267.3073,124.8000
143.4038,52.9826,208.6376,322.8831,251.0880,140.3620,274.5082,209.8304,-92.2127,-26.0467,165.7659,120.2335,478.4396,64.4523,175.4335,-33.2253,139.9937,340.7640,172.1146
197.8033,119.1130,249.6509,329.8567,269.4732,121.1126,219.0224,215.9723,-81.6449,-109.9340,141.1097,133.7982,466.6018,40.0053,122.9788,-27.8430,174.9264,366.1985,224.4826
216.5966,175.6901,250.9516,326.2067,272.0989,113.6013,241.6017,206.3564,-68.0819,-30.0939,116.0249,95.8185,451.4681,43.7746,110.7158,-54.2270,204.0414,340.7775,241.2010
209.3313,189.8147,241.8208,362.6658,265.1473,132.0126,281.7538,217.4028,-52.1015,53.5673,144.9501,73.7503,444.2341,68.9830,111.7877,-146.0880,240.2764,257.1369,243.0385
185.6627,124.8536,209.9888,360.5238,228.6820,104.2965,262.8584,245.8365,-32.7970,144.2092,194.2277,91.3557,436.8743,60.2578,118.5489,-154.5366,243.7819,148.3284,284.6029
170.2545,39.2468,146.1832,263.4925,188.1122,27.2777,254.9602,301.6848,-11.1344,312.9176,180.1109,105.2468,424.8739,29.4556,152.4795,-38.6930,171.2890,62.0737,335.8730
168.9406,16.9711,75.5865,162.9071,179.3091,-36.4745,322.3061,342.5176,74.2587,454.2116,115.3076,78.3402,432.7378,20.3283,198.6201,37.5137,85.1417,18.3764,351.1009
136.5523,50.5328,31.2530,144.8980,183.3949,-47.2648,394.0966,313.3507,195.5858,477.4911,73.8927,48.1277,464.5511,34.0767,224.3067,16.2918,60.8606,26.2993,352.6853
55.7127,90.7131,26.3400,167.9395,173.4514,0.8183,403.8547,281.9212,232.5293,412.2266,71.4054,71.0163,485.7362,60.9088,260.4301,4.6320,74.1690,69.6468,342.5663
9.5760,125.4084,40.0665,158.0919,159.7319,54.2829,354.5851,306.3132,208.7562,317.2702,99.0895,121.3836,478.7917,92.0024,315.5194,43.2177,92.6911,104.3909,288.6040
78.3424,148.5525,47.4553,114.8123,163.3693,43.7450,266.4164,314.7429,225.2969,295.7425,158.7477,135.5311,460.6914,105.5627,294.8853,91.6811,122.8808,133.2851,224.5643
186.5523,142.4041,50.6747,103.4145,195.1705,23.1086,206.0123,286.2126,234.8607,348.3270,199.4379,113.4244,448.6920,120.4326,188.5179,116.0320,141.1516,197.8094,204.7021
184.4041,121.4197,54.3965,172.1135,237.8511,89.9202,231.3251,278.2686,178.4437,294.7890,166.7671,89.1374,440.4024,172.3423,146.8728,77.0044,130.7618,280.4955,206.3428
91.2897,114.0069,62.9193,271.9045,247.1609,181.2017,277.5184,269.9439,145.8269,165.0811,103.7465,71.1861,415.4276,208.6133,208.4576,8.9640,108.9583,326.5547,192.0558
69.8394,103.5244,91.7358,309.6853,215.9217,183.3459,283.6058,249.7242,199.2404,235.0857,61.7200,56.8430,366.8434,176.5093,235.6711,27.7211,65.2045,330.2455,174.3767
131.1279,81.5411,123.5426,288.3177,192.2215,143.7689,313.5527,271.5360,261.2066,430.9835,9.6299,40.3317,330.5980,165.9232,193.4724,109.6011,25.6632,315.3363,155.4277
139.2798,125.5074,129.2735,298.2343,206.6134,163.4865,371.2367,284.5088,232.3139,356.7412,-51.8265,37.2359,335.5545,249.2946,162.8799,110.0543,86.2924,303.2626,102.6515
118.8079,285.4538,142.2616,379.9525,248.0759,232.3453,334.2527,215.6216,72.9320,-9.0515,-49.8784,98.4295,347.4283,319.6947,125.5449,48.3432,229.0386,329.7048,13.2939
205.3588,455.2170,187.0116,494.5835,293.4832,292.9959,204.8538,150.4958,-153.1989,-297.4094,11.7400,189.7506,321.7595,291.3046,31.3646,38.5377,313.8812,399.8522,-67.2431
330.8513,525.3231,209.7308,587.8429,303.6358,317.7935,131.6285,146.4553,-295.9484,-321.1520,52.7981,190.0242,269.0024,240.0584,-68.5991,35.6017,315.5690,455.6507,-95.0149
337.1629,548.2728,193.1738,602.7977,254.6885,293.2252,123.6893,127.6154,-305.7118,-189.5259,72.1556,155.1086,220.0036,204.2949,-141.6462,-24.5266,310.3263,465.7311,-70.5585
286.5327,577.9536,185.3081,506.5352,192.3155,223.6675,47.3253,91.8153,-286.1068,-55.2399,109.5171,280.5330,173.7078,119.4995,-225.0427,-64.0739,294.8997,466.8525,-46.8539
313.1044,538.3242,176.9447,364.6570,170.0706,137.3092,-89.3972,85.2942,-282.9398,15.1707,118.0871,482.9742,116.0655,12.6583,-308.5798,-64.9147,244.7849,467.0920,-72.7983
350.4126,408.7144,137.3485,295.2112,170.6571,76.7540,-135.5192,65.5075,-259.8924,43.3542,59.9795,474.7238,68.0470,-12.5784,-348.8460,-117.6880,195.5364,423.2259,-115.1347
273.1343,300.0728,101.9219,312.0139,159.7094,78.2159,-77.7103,39.8255,-273.6397,30.3080,9.8361,282.0619,71.5383,28.9879,-348.2614,-199.5044,160.3503,336.1794,-111.3411
120.9023,252.0353,84.6166,315.3202,137.9298,107.5952,-65.7055,66.8279,-382.7156,-79.9523,18.2468,163.7873,110.2968,40.6102,-322.2112,-210.1142,133.5435,244.7104,-98.0304
23.0870,187.6327,49.7837,244.1556,104.5843,78.2829,-145.2148,72.9713,-481.5720,-210.9319,21.7877,127.4789,108.2677,3.1049,-289.4919,-158.4180,125.0353,138.7866,-151.4558
21.9462,74.8372,-1.5337,126.9594,55.0646,-13.3654,-199.9367,-2.5002,-469.8608,-182.1706,-20.8324,33.4048,52.8706,-39.3651,-282.8140,-101.1144,94.5061,9.1665,-222.8736
35.1051,-47.2340,-59.6965,3.1432,8.9645,-90.0363,-180.2431,-58.2906,-411.1661,-23.4939,-57.4444,-63.4615,25.0038,-67.8587,-286.0854,-54.6179,11.9974,-72.9140,-218.1773
-18.3631,-137.9107,-122.0836,-94.2796,-15.4260,-129.2539,-165.0233,-59.5466,-383.8661,71.9932,-49.0592,-72.8015,55.5884,-94.8639,-265.0799,-43.4875,-39.5104,-58.3827,-180.9506
-88.4980,-160.4636,-131.8399,-119.1756,-21.4122,-150.2952,-187.9554,-85.3084,-388.3406,38.7235,-24.5494,-61.7885,77.6671,-128.7009,-263.6842,-78.2453,-4.6845,-6.9059,-188.7432
-90.2408,-117.0870,-74.9086,-67.8747,-17.9121,-141.1944,-211.9040,-107.4196,-431.0768,-102.3688,-24.8628,-77.5599,51.0315,-158.5146,-314.6499,-127.0538,33.3280,28.9441,-187.0043
-63.5268,-82.8761,-51.3056,-11.4987,-21.4256,-121.9333,-240.3804,-68.5201,-499.7722,-280.9041,-63.1623,-85.7672,0.4841,-185.1363,-340.8404,-173.6302,5.8226,53.9768,-119.5313
-77.5152,-116.4141,-98.6897,-25.1108,-50.9823,-157.2181,-277.1665,-34.4241,-511.4368,-266.4694,-125.1716,-110.1501,-60.8222,-238.6683,-294.9799,-195.8443,-59.2574,27.5303,-56.5039
-109.6627,-182.7695,-149.2138,-116.3470,-103.3682,-246.6471,-272.6278,-43.5017,-427.0209,-2.2907,-189.6876,-181.0164,-128.0475,-310.4028,-243.8726,-152.1610,-133.8152,-79.5605,-60.6672
-155.7040,-219.0582,-199.4396,-222.9831,-163.5660,-320.0311,-230.5629,-48.7392,-305.8490,126.8685,-249.7729,-242.6740,-165.5065,-335.6048,-215.6022,-78.7946,-211.6798,-169.9539,-104.8176
-249.7220,-224.7466,-275.4136,-274.5501,-222.7247,-337.0751,-221.5370,-47.6267,-192.5173,-64.0302,-296.7464,-263.8673,-158.4962,-309.4994,-159.0148,-40.7865,-281.5924,-187.2407,-157.5695
-331.9416,-249.6983,-333.0990,-278.0471,-270.7110,-321.2196,-239.7280,-45.5289,-88.3004,-152.3136,-318.5354,-288.2291,-153.0800,-297.7566,-87.7074,-6.3485,-344.8889,-240.4479,-196.3509
-336.3219,-305.6801,-372.9336,-297.5969,-308.1632,-319.7717,-207.0120,-5.5433,-5.3880,88.7601,-338.2339,-319.2589,-189.4302,-305.4860,-61.3676,50.4439,-398.2625,-367.1354,-187.8629
-329.8319,-340.0984,-443.7217,-339.6920,-348.8428,-343.0890,-117.0028,55.9721,70.0063,255.1125,-383.1315,-303.6350,-245.4681,-300.2012,-53.0971,80.1408,-429.4171,-435.8146,-149.5210
-365.7587,-327.9221,-499.8853,-360.4198,-377.2505,-354.4420,-47.7093,92.5014,166.9355,150.4740,-416.0888,-236.8730,-278.4887,-312.5427,-11.8197,95.0163,-445.8755,-403.3193,-134.0863
-380.7792,-308.2041,-481.2931,-360.2246,-356.5502,-340.8590,-53.4987,110.6408,225.8853,122.0910,-391.3558,-187.0579,-274.3944,-346.4702,21.4329,128.3669,-441.1690,-360.7109,-144.7776
-348.0023,-296.9069,-427.2590,-348.5904,-295.8611,-318.5770,-106.9547,111.9808,179.1895,262.5266,-337.7624,-202.7622,-236.7490,-327.9843,-4.1552,114.4076,-396.6514,-321.3287,-155.0874
-314.1434,-275.7668,-376.2786,-291.8357,-243.7161,-266.8985,-135.6373,80.0387,113.3574,232.3680,-297.5981,-238.6024,-184.4964,-262.5829,-50.5536,55.7411,-347.8817,-253.0063,-162.6524
-278.2162,-252.2289,-333.3309,-195.2527,-221.9477,-183.3883,-114.3066,37.8689,125.1741,-17.8820,-262.2475,-222.6203,-167.1198,-239.4019,-62.2577,72.7252,-326.8875,-213.3760,-184.5016
-216.8425,-221.2036,-324.5645,-127.1526,-222.7170,-142.1715,-94.1210,0.2399,126.9796,-165.9909,-225.8680,-184.3940,-202.8095,-245.3232,-42.2494,140.6632,-293.4380,-243.0583,-241.5150
-158.5685,-160.3183,-331.7737,-123.9168,-235.6175,-171.4847,-109.6062,-43.0464,42.2683,-92.4432,-207.8732,-206.2813,-225.9172,-206.9050,-26.7929,134.3668,-242.6077,-288.7050,-317.1208
-128.0863,-113.9314,-309.1768,-168.4762,-241.0918,-205.8158,-130.4758,-67.3980,-10.1711,20.5195,-209.5825,-254.9932,-195.8084,-155.1641,-46.0653,99.5139,-227.5753,-318.0823,-345.7857
-108.5042,-118.4637,-295.2358,-221.0900,-227.8973,-218.2882,-134.7011,-65.0043,34.5774,8.2424,-216.5606,-218.1594,-173.1921,-139.7753,-85.2168,118.5590,-221.9563,-347.6169,-311.7321
-81.4956,-98.7885,-321.7171,-229.7047,-221.8848,-231.7098,-134.2570,-77.7128,30.4243,-114.6349,-210.1308,-101.1712,-186.8553,-119.3871,-85.9314,129.4399,-170.0943,-374.2758,-274.9543
-47.4845,-27.6806,-327.8708,-201.1887,-239.6376,-234.4773,-128.3012,-93.9845,-86.2784,-189.3870,-166.2440,-26.7416,-178.1169,-76.7129,-43.8835,116.0745,-127.0603,-383.9714,-253.5201
-28.7290,-21.4752,-301.7503,-216.5116,-246.0299,-223.4697,-108.2565,-62.7894,-148.3450,-120.9784,-107.5173,-50.2527,-143.6552,-62.4975,-22.0786,136.6481,-153.9026,-368.7327,-215.3408
-48.2761,-120.6014,-301.6370,-289.8190,-224.2772,-223.8536,-78.3217,-10.4793,-53.0540,-19.2232,-104.7275,-106.1514,-137.5860,-77.0132,-19.7108,132.4599,-203.7041,-329.9179,-165.5889
-88.4390,-203.3147,-319.2330,-338.3827,-221.4054,-222.9984,-43.7200,5.1188,70.9022,29.7504,-160.5910,-125.2212,-138.1200,-82.1495,15.1609,56.5424,-222.1310,-300.4594,-117.4977
-122.1566,-193.2907,-311.6014,-320.2222,-250.8888,-202.3840,-25.5865,-12.3834,85.4770,73.0129,-195.5236,-112.6408,-102.0548,-91.7559,48.7513,9.8763,-206.0687,-288.6615,-69.0188
-157.8031,-135.7516,-269.3177,-252.6227,-249.9674,-173.2624,-52.2968,-34.0193,20.1525,34.7577,-186.4555,-99.7650,-61.0582,-117.4874,30.1837,17.6174,-158.0590,-236.0504,-46.6484
-187.2080,-84.1603,-179.5284,-159.0713,-199.7791,-132.7061,-92.7829,-48.3871,-23.7498,-156.5229,-182.7994,-81.9165,-37.4877,-128.6397,6.1875,-6.3653,-103.3720,-140.5271,-47.4258
-173.9039,-62.6662,-80.4932,-104.6208,-158.2005,-104.9499,-80.1232,-61.1543,-11.5444,-237.3838,-189.1833,-57.2573,-13.9945,-131.4210,11.5505,-34.4799,-85.3988,-98.6599,-16.2992
-142.3698,-77.4820,-68.0273,-135.7253,-139.3867,-140.4643,-20.1433,-81.0708,22.2463,-33.6757,-177.8453,-76.6730,-8.0110,-150.4111,20.8269,-14.0660,-99.7530,-127.5927,37.4809
-159.0005,-109.9375,-115.9284,-169.3193,-108.3006,-172.5771,18.2394,-78.8226,45.8663,128.1006,-175.7537,-162.6120,-27.8747,-145.2555,48.2447,-22.4602,-113.4061,-126.2405,61.5427
-210.5563,-145.0082,-101.5856,-123.6383,-75.9880,-102.9171,7.4481,-31.9653,59.2826,32.5766,-208.6543,-235.6582,-36.0514,-93.2644,81.8653,-79.7804,-116.4147,-70.2345,65.5319
-225.4905,-179.7186,-41.0658,-69.4960,-62.7035,-34.0678,-20.7722,-11.2192,76.6474,-35.4889,-225.8779,-229.9258,-33.4664,-71.4962,44.3316,-92.7175,-117.8990,-54.8587,47.0355
-201.4100,-208.7603,-37.9778,-90.6969,-47.5784,-98.2271,-31.0041,-64.7073,116.1067,65.1409,-190.3721,-196.6742,-43.4985,-119.6298,-14.2455,-71.6458,-148.8421,-122.0361,-20.6388
-203.4235,-241.7453,-76.9709,-144.2898,-40.8017,-182.8606,-14.0737,-99.9754,173.5711,90.6737,-162.2679,-190.5771,-41.8102,-150.7290,36.5801,-89.4656,-217.1124,-195.3783,-60.6342
-247.1192,-267.1679,-82.2902,-154.3501,-66.7362,-151.5074,13.7897,-63.6204,196.9182,-29.7177,-199.8403,-169.8777,-22.8267,-111.9235,132.8989,-100.9387,-241.0071,-201.3284,-6.6489
-270.9760,-224.3029,-47.9064,-111.5918,-72.8875,-93.9745,28.7763,-49.0832,150.6148,-115.7110,-258.6815,-94.8693,-16.5264,-76.9948,145.0057,-58.0469,-169.0026,-162.6095,40.8566
-240.7092,-127.5425,-7.2816,-65.3522,-18.6442,-104.2952,24.5811,-84.8014,78.9165,-96.9332,-264.3173,-10.7650,-4.2850,-91.9876,137.0538,-28.1920,-106.8911,-141.0424,13.9067
-201.4057,-103.7250,10.4081,-68.9439,32.1822,-107.6030,14.8611,-80.1277,37.0630,-2.7958,-213.6675,13.5486,29.1355,-94.6394,173.2425,-51.9650,-141.9483,-136.5296,-2.8854
-184.3000,-177.2739,1.9047,-93.6953,39.3624,-50.3312,16.8114,-36.8770,36.2327,106.3140,-155.4286,-36.1529,40.3337,-49.5559,163.9877,-80.6265,-181.7163,-100.7486,16.0379
-151.5688,-194.8249,7.2509,-51.4241,54.3663,9.3166,36.1471,-41.2444,69.4033,100.9401,-128.1004,-86.1246,36.0627,-10.5482,99.1960,-92.3841,-138.5845,-27.5668,6.4691
-87.3846,-66.0202,39.5242,49.4166,98.3372,34.7121,57.6746,-84.3284,70.4303,-20.8062,-134.6949,-27.4311,68.8480,-10.1722,74.9079,-107.9694,-74.9854,34.3177,-26.5094
-41.6020,102.1334,52.5096,107.8916,134.2339,46.3129,59.0358,-104.1055,-54.2264,-112.4958,-137.8368,127.5990,111.0572,-9.1425,79.6970,-116.6684,-47.6715,46.0917,-57.1020
-39.2053,172.9387,38.2576,106.2345,146.7344,60.6787,36.5644,-100.7846,-228.6236,-176.8185,-100.8197,227.0001,116.3686,27.2363,54.2133,-99.1783,-21.6548,21.4560,-88.7910
-43.7345,144.7115,39.2186,113.6475,142.9903,84.0835,4.7691,-88.7527,-269.2086,-280.6824,-48.8774,203.7572,113.2610,80.0890,17.3937,-84.1048,15.2251,8.9944,-74.7794
-27.5713,101.9184,55.4260,145.2503,139.2545,109.3035,-17.2404,-54.4573,-197.5632,-299.9779,-34.9896,154.9595,118.8709,101.2665,-15.5155,-100.0766,32.6408,23.6390,0.8616
-8.5522,76.5753,62.0630,159.3087,159.5514,110.3659,-19.1233,-1.8855,-165.2237,-164.8218,-60.0923,137.8283,111.2270,64.8012,-47.1343,-110.0914,35.0262,29.0430,59.3504
-16.5754,38.3000,72.1397,142.8145,184.7262,91.3699,-15.7401,45.5566,-149.2372,-49.2397,-86.2945,113.1197,96.7394,14.1142,-56.0482,-77.6757,40.8089,27.4625,91.4103
-46.0349,-0.7300,98.6752,117.0637,178.6231,95.1045,-21.2130,73.7109,-81.2667,-47.1168,-82.9628,91.8260,76.9403,15.1904,-59.5633,-43.6701,38.9121,61.8394,154.8267
-55.4283,-1.2918,118.2182,95.0557,166.3425,121.1292,-6.7028,79.2602,-41.0570,-23.1946,-33.5986,102.0542,45.0116,42.5038,-70.9990,-43.5003,22.9178,96.0988,202.9221
-37.3620,2.2425,106.1241,65.8922,170.8383,113.8424,51.0345,76.2050,-39.8354,113.9914,36.4188,94.2236,52.3857,23.5627,-30.0783,-52.8344,6.4370,71.7033,175.4534
-32.6379,-26.7022,73.9578,29.6895,159.4385,72.3896,104.7367,82.8215,18.5533,251.1311,72.5643,60.1519,123.4495,-6.1896,57.0068,-82.4270,-4.2613,51.5785,124.6491
-33.8808,-30.2487,62.7827,25.6459,137.6849,62.9296,104.8766,86.2229,64.4392,213.0216,88.8516,64.5172,176.9791,27.0689,90.3615,-140.6719,-3.9725,89.6968,84.7697
18.3341,22.7827,87.4792,63.2247,142.0137,83.5757,77.3425,67.5890,-10.5370,17.4532,144.9120,76.7505,166.0649,60.8449,63.9322,-118.5717,12.0272,96.2068,33.3062
116.7009,61.5412,109.0826,74.6098,144.6273,66.8974,60.7198,47.7151,-81.4009,-111.7681,209.7626,32.7189,144.5354,21.3544,40.0127,25.7593,18.0607,37.4799,-4.1960
188.4298,47.7726,100.1225,27.4574,127.7092,30.8913,55.2851,46.1607,-42.2023,-98.4113,217.0535,21.4841,145.7366,-0.7486,14.3339,112.6929,-8.5654,24.1371,-9.5928
196.4962,16.1843,77.5610,-10.2254,139.4525,35.5946,70.7592,34.4394,-5.1293,-84.7547,206.1106,116.4857,156.6221,54.1701,-8.5963,45.0747,-31.1850,65.6493,-17.1803
151.6988,-10.1888,48.6817,3.0846,172.0928,38.8413,116.6736,-8.7364,-1.8425,-48.9553,226.3176,184.3777,169.2096,65.7374,4.5838,-14.0973,-11.6240,48.5409,-19.2170
101.6400,-6.5531,17.0727,24.5049,167.3764,6.9645,152.1815,-50.0633,62.8695,106.9571,228.2351,127.5409,164.0703,-2.5101,19.6904,33.0951,15.5928,-12.5975,-2.7895
119.3342,47.4892,11.5456,27.6930,142.8550,21.8803,142.5302,-60.9588,121.5143,180.0166,191.9694,62.5736,139.4930,-6.9886,13.1780,80.4645,10.7825,-11.8059,-16.8410
193.1699,90.9557,24.8789,25.6915,131.8589,94.5062,117.3875,-57.1895,72.8707,41.8363,178.6544,74.4976,141.2897,72.3016,23.7387,67.7229,-1.1155,29.2464,-53.8194
210.0466,61.7768,18.0780,21.3334,107.9191,117.7982,104.5900,-48.2390,18.8746,-38.9275,190.5963,90.6771,170.3278,108.3252,29.5221,31.0892,6.5675,27.1672,-39.5818
143.1145,19.7066,12.4877,33.2488,80.2229,100.9394,80.2264,-29.4016,8.5944,-3.3960,180.0972,81.8536,169.1843,113.2891,-9.8465,-12.3692,29.2510,1.8334,4.3034
102.6955,52.4186,45.6481,90.0865,89.9535,139.6150,24.7237,-30.1227,-82.2701,-134.1069,169.5740,107.9749,135.4190,160.5999,-47.6664,-29.1418,77.1216,9.2307,-8.3157
149.4982,144.9143,79.5601,153.9001,100.7433,180.9393,-41.9157,-78.4403,-214.7216,-340.3635,196.7428,166.9706,108.1165,162.3501,-70.9510,-0.5721,141.6292,24.3069,-79.6403
220.9212,218.0513,68.7390,156.7199,66.1104,128.2899,-89.1280,-138.0707,-212.6887,-309.3825,237.2311,198.1152,91.9060,63.4803,-126.6906,1.5814,162.8327,-1.1636,-154.7768
242.4258,220.3056,32.4144,109.8428,35.1159,42.1975,-98.4275,-161.4845,-143.6476,-175.5197,263.9063,172.7514,91.4010,-3.4646,-173.6829,-48.0277,125.3751,-34.4633,-198.7537
198.8112,170.1855,11.0805,74.1240,64.8195,8.8871,-79.3263,-157.0599,-169.2955,-138.2350,256.4442,100.6747,107.4896,19.8594,-150.7002,-75.2931,91.8357,-9.4183,-203.2045
128.3030,125.6447,32.6751,63.9410,121.6843,8.9618,-71.8778,-156.5928,-187.4131,-54.6250,182.1621,38.0555,96.3875,24.7027,-98.3832,-64.7191,96.6077,46.1560,-204.5394
87.2620,107.3528,89.2263,68.3240,136.3163,13.7965,-101.5696,-180.5765,-104.2218,28.9868,90.8509,58.5528,55.8575,-25.2073,-64.2352,-50.7500,124.2216,51.3923,-252.2558
101.7364,116.2111,122.6165,103.7144,97.8624,22.5042,-152.3274,-235.1793,-135.6192,-142.0669,103.3731,138.7052,53.2886,-70.4441,-70.6097,-44.0710,171.8696,30.5891,-326.3913
163.1551,184.7469,111.2872,169.9466,61.1192,25.3860,-206.0867,-292.5942,-392.2364,-417.0071,207.4064,178.0351,81.2942,-106.8769,-152.0193,-106.3438,224.7173,62.9479,-366.2718
228.6015,283.3146,103.3834,217.7749,54.5634,31.2033,-256.8387,-317.3427,-575.5510,-484.7593,239.1866,156.6496,47.9884,-142.9505,-256.2264,-254.7182,236.0192,108.1334,-349.9126
215.6998,287.4162,96.0344,212.3962,32.7141,38.0596,-274.3420,-314.3291,-461.9059,-392.2632,134.4858,120.0053,-55.2460,-157.0201,-285.0836,-336.5026,187.3577,79.0224,-287.6026
110.1587,163.9198,33.8718,166.9921,-22.9261,7.7473,-231.7072,-288.8911,-258.3778,-264.3875,18.6020,47.7301,-136.2993,-171.2076,-268.5409,-297.8540,98.7860,19.2098,-208.3361
29.4817,29.8994,-50.4690,107.3096,-57.4455,-34.2577,-174.6798,-229.3937,-211.5016,-125.2627,3.4220,-82.7933,-140.7796,-197.4469,-265.2131,-312.0746,12.4429,25.0138,-162.4744
41.0354,-21.2022,-69.0988,72.6688,-55.5483,-21.5882,-179.3339,-182.2564,-283.7433,-109.0224,47.5104,-180.6615,-104.9744,-185.9592,-244.3445,-407.5221,-0.7340,74.5638,-173.3065
63.9578,9.0404,-22.4132,96.7676,-60.1616,-3.9655,-241.8342,-211.4801,-364.3841,-242.1465,60.8661,-158.1348,-94.0430,-153.9681,-231.6044,-401.9240,72.6048,70.8959,-206.6643
56.8773,71.3783,15.8559,126.4356,-75.5787,-60.1142,-285.9427,-267.9623,-423.9246,-324.8615,37.8012,-73.8725,-119.2861,-180.4121,-281.2081,-290.8418,124.7929,-3.1500,-210.8223
71.1248,85.7421,-1.4562,82.6868,-89.1091,-115.8314,-274.4001,-256.1329,-426.3980,-344.0439,22.2117,-37.8808,-132.0471,-231.8486,-311.0098,-235.9975,83.4883,-62.7977,-166.3385
94.8641,25.9017,-54.5635,12.5820,-114.0755,-89.6616,-245.3634,-189.9893,-364.1956,-398.3462,10.6280,-70.9801,-120.7451,-224.3668,-266.8020,-260.0684,24.8659,-56.4530,-105.5921
88.5138,-26.6642,-77.0313,-1.8509,-130.3466,-71.4688,-236.6907,-143.6351,-306.6087,-313.9473,-26.2283,-131.7143,-131.4147,-208.6031,-242.7623,-301.4574,16.9771,-43.2702,-75.9976
84.1890,-23.5860,-42.9413,-5.9444,-109.2707,-140.2095,-233.8677,-136.0563,-277.7770,-36.5529,-66.5768,-178.1980,-155.6059,-269.6752,-250.4650,-341.8057,18.3207,-67.2935,-80.0639
78.1846,-13.8868,-13.5306,-45.5512,-89.0620,-204.8076,-211.0291,-155.5760,-237.2655,70.7267,-66.6265,-169.6414,-137.4832,-352.1935,-203.9466,-328.0056,-1.5798,-78.0715,-90.1462
15.2147,-25.9811,-42.5997,-66.6256,-107.7574,-195.2060,-176.3636,-190.9602,-187.6767,-96.9720,-38.0478,-112.5078,-101.6117,-364.9209,-142.8711,-236.0515,-25.2618,-74.1050,-92.0233
-69.9809,-62.0152,-110.5997,-80.5888,-147.5428,-188.3842,-146.2386,-204.8018,-143.7020,-146.1223,-29.8905,-95.5257,-107.8050,-329.1682,-135.8135,-167.2915,-68.4975,-120.8174,-77.0916
-110.1379,-140.2408,-171.9313,-147.6865,-187.6794,-221.5499,-118.6646,-173.0648,-91.6616,24.7062,-56.2483,-171.5553,-125.5838,-301.0106,-122.1088,-177.7950,-137.5091,-170.8003,-63.9689
-124.4360,-209.4197,-182.7178,-187.5552,-205.2800,-213.6265,-109.9290,-142.4215,-68.3244,43.9382,-86.9118,-258.2202,-113.7820,-278.0275,-70.0598,-187.9477,-165.6773,-144.0313,-107.5034
-130.4338,-191.3592,-136.8830,-128.8808,-184.7688,-160.5879,-154.5655,-170.5913,-114.3896,-160.9247,-97.4107,-261.0145,-119.1423,-262.1713,-46.3723,-154.3055,-114.1509,-129.6943,-192.3332
-111.3425,-135.1167,-108.8220,-94.4931,-175.8821,-169.2118,-224.7698,-231.8316,-163.9425,-237.0406,-98.9287,-207.6727,-165.6035,-289.2633,-67.9089,-129.4162,-55.0120,-206.8214,-229.3162
-104.9098,-124.9879,-143.0906,-157.8129,-205.4898,-243.4008,-237.8022,-254.1180,-149.5922,-99.8835,-107.6512,-172.6532,-186.6520,-340.5122,-96.7256,-143.8224,-67.9837,-257.8747,-222.9619
-132.8713,-137.6859,-165.7701,-200.7200,-200.0115,-278.3933,-186.1604,-240.5261,-108.4845,-31.5542,-109.4929,-176.4273,-153.7499,-346.0885,-112.4347,-158.7819,-124.8337,-214.8413,-253.5050
-132.9862,-147.2589,-137.1450,-175.4917,-146.2916,-267.1859,-152.1476,-263.4073,-77.5362,-109.5090,-96.3206,-207.0254,-125.6732,-301.7180,-89.5945,-125.4525,-143.8326,-196.2853,-305.9170
-97.1415,-175.9608,-130.1497,-168.4485,-144.5019,-276.2079,-160.5950,-325.5309,-44.7106,-156.1039,-101.1962,-232.8908,-130.5420,-255.9733,-20.6990,-68.8711,-112.0527,-253.8587,-325.2822
-95.8231,-192.0146,-169.2146,-191.2966,-207.3637,-285.9150,-143.9430,-347.9319,-19.7019,-165.3851,-136.5952,-213.2570,-134.6597,-212.0601,45.4547,-71.2990,-89.0219,-298.1595,-333.7634
-126.8389,-168.2743,-200.3938,-201.9032,-249.6579,-262.2101,-79.6285,-313.5219,-3.2878,-231.5993,-157.3430,-180.4439,-129.0286,-172.6761,64.6222,-124.0090,-107.5674,-291.3876,-336.3459
-141.6606,-163.9398,-216.7708,-216.7060,-261.5004,-251.3963,-29.3674,-281.7006,42.6714,-245.8550,-146.5553,-213.3386,-131.0565,-183.3615,42.0711,-129.8978,-135.2103,-262.2202,-292.3363
-158.1451,-194.2858,-226.1106,-233.4325,-269.8652,-268.5688,-23.1665,-271.8606,98.7444,-140.3293,-151.4549,-283.1246,-133.4330,-222.1374,14.2929,-98.2324,-133.3849,-213.6812,-236.6379
-184.6741,-189.1751,-193.6531,-213.9908,-247.3226,-261.8722,-30.4324,-269.4137,82.8614,-109.8774,-184.0916,-284.0244,-132.6893,-202.3521,12.0838,-123.1301,-100.8943,-156.2632,-231.2215
-167.2405,-142.1311,-130.7973,-170.6765,-196.6579,-224.0017,-50.0059,-286.9359,-15.9031,-241.2896,-194.8595,-216.2221,-141.0167,-129.3195,10.9384,-186.7673,-60.5297,-125.8899,-245.4110
-111.9506,-116.0798,-101.7056,-135.6971,-170.7469,-187.3716,-102.5265,-313.9591,-104.3972,-351.6848,-179.0699,-164.4229,-136.2571,-74.4990,-22.6045,-212.3949,-36.6862,-136.8024,-228.9330
-104.0599,-130.4200,-119.4877,-124.1357,-181.2154,-165.6995,-142.4483,-302.4212,-100.8503,-333.5041,-190.0605,-153.4641,-98.1632,-51.5298,-42.1777,-208.0271,-40.8282,-169.6998,-188.9915
-159.9456,-168.9464,-143.1041,-155.1318,-198.5650,-175.5961,-113.0940,-253.3690,-45.9978,-234.3502,-224.2726,-168.2005,-70.9845,-66.7028,-17.4484,-193.7499,-66.9159,-173.3950,-144.7366
-197.4027,-206.9548,-136.0579,-194.6683,-188.2660,-205.7881,-62.8293,-218.5465,-65.2540,-130.9396,-215.7709,-200.3781,-80.2543,-132.2580,-16.7409,-156.8505,-95.4881,-110.8669,-118.7970
-168.8014,-195.2561,-97.4031,-168.6585,-129.3110,-201.4231,-62.5795,-219.3622,-174.1913,-181.2144,-163.6460,-200.3391,-77.2405,-171.1521,-52.8909,-134.0375,-105.5224,-43.6580,-133.3812
-123.3908,-137.4654,-79.9841,-118.0798,-66.1984,-176.7311,-70.2615,-234.6380,-220.0964,-396.0154,-143.9652,-138.0382,-55.7833,-125.5513,-49.8346,-160.9287,-107.3235,-68.3875,-152.3203
-123.8029,-136.6761,-124.1930,-164.1362,-63.9481,-198.5321,-24.8764,-236.2458,-130.2766,-421.8275,-173.5472,-100.5413,-65.5440,-86.1236,-14.3135,-187.8451,-142.5741,-164.0782,-119.8006
-165.9034,-241.3236,-177.6280,-288.5634,-96.1279,-232.0860,26.7885,-211.4155,-49.1681,-132.2344,-182.3653,-158.8848,-74.0618,-108.3259,4.4538,-171.5040,-206.9365,-224.9312,-59.4590
-204.6255,-331.4993,-183.8196,-346.4399,-109.8578,-206.5153,29.1980,-172.2343,-86.7717,10.1619,-139.2496,-228.2552,-20.7090,-102.3619,33.9726,-144.6153,-229.3216,-210.9458,-34.1018
-214.1896,-287.4287,-173.5688,-289.6007,-126.2574,-163.2533,12.4377,-133.4539,-145.1816,-217.1460,-86.7717,-219.5910,33.2288,-47.7716,60.5968,-136.8268,-182.1346,-169.1886,-34.6262
-194.9119,-186.5342,-170.3044,-215.1308,-149.1496,-157.4622,5.3487,-95.1969,-122.0310,-364.3616,-56.0426,-186.7821,12.7295,-48.4367,14.6515,-133.3532,-120.5019,-143.2790,4.8260
-156.9915,-176.8339,-137.5666,-198.0204,-123.6488,-157.8085,-1.9340,-63.3676,-62.0198,-174.8799,-50.2508,-191.6759,-30.1847,-116.2591,-48.9898,-129.3902,-80.2328,-118.7567,86.9357
-119.1284,-218.8741,-73.2023,-190.2263,-58.9538,-135.1937,-0.1718,-44.2987,-22.4772,-2.6438,-67.2954,-189.0585,-38.1228,-143.3521,-30.8983,-154.2704,-51.1671,-66.8128,125.3592
-98.1442,-167.0841,-20.2008,-126.1030,-22.8495,-87.6258,10.8020,-28.4165,7.2749,-99.1043,-70.2187,-143.1393,-39.1718,-75.9878,16.3445,-211.8373,-33.5516,-11.2127,95.2067
-91.1878,-59.2151,13.8171,-44.4215,-11.5787,-9.4963,5.5053,-15.8631,19.1597,-248.8648,-27.9334,-99.5336,-41.5464,24.7207,7.5410,-235.0082,-15.7856,14.1273,101.5390
-77.5891,-45.9680,51.8514,-12.2526,28.1438,50.0985,6.2470,-13.6786,-4.7088,-214.0758,4.7702,-78.1047,-20.3451,59.2589,-21.6659,-186.1792,33.3214,30.5863,181.1253
-42.5691,-86.6482,95.2102,-8.2595,87.7234,36.0479,42.2771,-14.0372,-8.4687,-73.1917,-18.3578,-33.3990,0.8509,10.0209,-20.6854,-153.7732,96.3080,51.3767,212.0745
-1.8351,-38.3069,125.2986,9.4085,117.1548,7.6210,55.2869,-25.9970,49.2621,-61.6442,-27.3804,36.1077,-3.3149,-25.5126,-11.9458,-196.2018,129.6139,46.8812,156.7546
14.6727,38.1616,137.3553,18.7177,120.1803,29.9084,4.5438,-51.2116,88.6343,-185.9745,23.0459,60.9331,-10.4550,7.1146,-21.9155,-207.7643,133.9940,27.7113,150.1951
9.8547,-9.9731,147.8850,-5.6304,142.6592,48.7590,-22.0657,-20.6679,62.0139,-159.0308,44.9028,14.5945,-14.0874,39.0637,-28.9416,-125.4003,112.6238,23.2034,248.5630
7.2695,-136.3816,149.3739,-53.0926,173.4368,29.8022,48.2728,99.0017,73.1673,107.6835,-7.7275,-52.1357,-24.9922,49.6540,-2.8923,-51.7483,47.3075,6.3219,353.8215
-0.5127,-200.3373,100.2701,-110.2731,153.9822,33.7124,141.4542,206.4386,160.0358,295.4497,-40.1352,-104.1423,-19.0928,106.9619,28.7631,-17.9501,-35.1121,-23.5265,400.8509
-26.1769,-203.7598,16.2299,-157.7459,100.2893,69.2628,163.0976,232.5131,195.8641,230.3052,-1.1901,-143.3073,10.3812,183.0449,22.3627,68.2775,-91.7644,-13.1629,399.1938
-48.1176,-218.3642,-22.1559,-182.8627,81.9316,78.7898,138.6246,245.1203,163.4916,133.2999,29.6646,-146.4761,18.9261,186.9402,25.3620,168.1699,-133.9480,19.0393,364.6695
-56.5513,-238.8491,-7.0680,-203.3281,88.1555,63.4144,143.6700,276.3218,189.8928,152.9717,5.9170,-95.1747,2.2998,154.4319,85.7528,156.2212,-163.9342,20.5145,327.9127
-63.9566,-231.7655,-2.9106,-216.6379,77.8347,57.4023,175.2471,270.1024,242.8318,204.2430,-12.0054,-43.2786,11.4986,169.0194,111.4545,90.8964,-148.1043,25.2436,300.2304
-52.6879,-202.4314,-5.0399,-196.1996,85.5711,57.0417,174.7079,231.1198,206.9361,236.8942,10.6541,-50.9767,42.9700,200.1720,49.2981,121.0188,-110.6525,63.2714,248.9936
-15.7993,-166.0854,31.8427,-154.5344,125.5998,63.3591,148.6567,207.2746,173.9197,232.7716,16.7497,-91.0163,47.5371,184.8370,27.0711,224.6108,-103.5210,89.7124,184.3864
-4.3809,-124.6965,85.6320,-103.3450,143.2491,88.4797,157.7685,183.1875,238.0717,157.4404,-29.1104,-97.3719,44.6109,142.9387,91.4638,274.3696,-91.6469,88.4164,145.0467
-31.9291,-69.0447,119.7230,-21.0056,139.5691,112.7481,190.5329,138.5667,267.1646,87.8888,-64.0459,-57.7862,78.6914,135.1644,109.9336,237.5434,-22.3005,78.3626,106.4907
-34.9635,4.4657,136.1882,60.3527,150.6334,121.1985,188.1004,99.0406,201.9262,98.0309,-34.8339,-14.3624,97.7125,181.5241,65.8358,179.3700,57.1494,55.8369,55.0501
4.4625,60.3547,129.0398,80.7786,144.4321,124.6365,166.5159,73.0081,181.7922,117.0246,8.2806,-2.6345,41.3465,229.3928,78.8495,156.1329,85.5624,39.2175,42.1405
36.9935,64.4598,101.2819,67.0285,109.5970,113.5433,160.0816,42.8647,219.8309,90.4447,22.1715,-0.1415,-14.0895,215.5991,133.4514,161.2994,90.4634,44.8101,60.7893
54.4939,57.4532,85.4369,64.1854,91.9442,82.8657,133.2316,7.2059,196.1258,16.7117,58.4703,41.6518,20.4291,171.2770,128.2891,160.3525,103.6974,35.2355,46.4149
76.2273,76.9636,76.7893,51.9369,69.7561,72.1601,91.0590,-10.3258,144.6915,-111.2710,126.3384,94.6669,81.5086,166.5938,93.7316,159.0846,87.0950,13.8857,15.3719
74.3569,58.7149,47.2954,26.1090,9.5253,86.2623,117.9557,21.9746,177.4879,-146.7141,126.1806,75.1475,83.7911,172.3939,127.4592,182.0997,20.6838,20.4351,22.5955
33.3508,-21.6449,16.7511,9.8451,-18.7455,65.6133,207.8819,83.4365,270.7025,50.3788,38.9208,11.2020,66.0554,131.3084,225.3860,192.1588,-26.5492,18.2403,53.2383
13.8042,-28.9265,10.1027,-0.0275,22.7959,15.8662,247.6862,98.0557,319.1076,208.5314,-2.9765,34.9653,71.9225,92.2902,274.8553,130.1901,8.5341,2.1100,72.6895
70.9756,108.8957,17.0014,21.3107,65.6419,28.0718,198.2234,62.9468,244.3653,17.2994,66.1327,155.1697,68.9070,114.4330,192.5292,27.7351,82.5216,63.1754,75.9716
164.6409,246.1646,36.1590,99.4783,88.0804,107.8473,125.9166,52.4800,63.3687,-270.2414,142.1708,229.0546,60.0301,149.4634,61.2168,-27.7130,121.8773,165.8918,64.0023
210.0905,271.8281,66.7417,161.1074,122.0575,148.2941,84.6794,56.6020,-89.5975,-289.6954,131.2754,199.5531,83.7432,139.7021,16.3146,-31.3181,132.2303,161.3926,51.7116
190.2169,255.5464,82.4802,142.3176,142.3822,109.3398,69.6662,18.4310,-140.2414,-178.7979,68.7653,163.5006,108.0233,114.9342,24.7281,-56.7108,142.8384,77.5662,55.2383
157.7773,230.0251,75.4998,94.5861,128.5741,60.4669,48.7673,-17.4025,-156.0060,-172.9976,24.8079,182.7963,88.7789,118.2598,1.9447,-113.3146,131.7096,43.9539,51.3839
138.0966,158.8662,60.6712,63.1433,113.0638,45.8043,10.9804,-14.8683,-148.5314,-200.2966,13.7659,205.9350,58.5038,130.3626,-0.2984,-141.8260,98.0438,43.2265,12.0742
115.9639,129.0748,44.9914,49.8215,100.0003,51.8523,-16.2512,-48.7973,-98.2174,-195.7932,21.4844,195.8292,57.8021,117.8208,29.5877,-158.3459,100.1567,28.3017,-47.2839
108.6047,215.3498,48.7030,83.7990,85.2069,67.3892,-24.6476,-132.3292,-132.7950,-208.7087,42.6285,190.3449,84.6370,93.3594,-11.7217,-217.1259,144.8889,43.5614,-86.0425
134.6107,272.4988,83.7637,140.2466,100.7741,74.5802,-45.8202,-166.4185,-289.0394,-197.0915,61.5582,205.3232,128.3243,81.7687,-91.3684,-248.2648,164.8331,87.0548,-73.5632
143.5486,186.8750,111.6357,136.6061,136.4666,57.6942,-80.4574,-121.9821,-347.9614,-165.6776,50.9329,183.6669,163.4395,75.0214,-86.0716,-176.1102,138.6892,109.4274,-21.4712
94.9272,81.9570,108.7530,90.0896,140.4049,46.9713,-98.8226,-57.6372,-241.8246,-211.9581,19.6974,90.3602,155.6749,67.8823,-45.3370,-112.7743,102.8851,114.7857,26.5021
32.2027,46.8993,97.6901,62.7067,106.6181,58.7090,-101.7434,-7.3034,-177.0775,-251.1938,9.8270,-12.4222,113.9826,70.6337,-53.1493,-160.6637,67.4842,102.4811,64.4500
-1.0544,5.5392,77.5969,34.9824,54.4245,50.8320,-98.7714,9.3812,-198.2410,-163.8781,25.8444,-52.1729,69.5187,48.6541,-48.3379,-202.3055,31.9091,64.6729,103.3342
-9.8504,-52.5223,47.5451,6.1885,1.9025,15.0322,-94.6403,-17.5752,-165.3092,-73.5076,32.5980,-58.3542,26.5130,-39.9192,-18.5228,-130.9452,16.9425,45.7296,99.5378
-0.0220,-66.0904,46.4191,2.8955,-12.6662,-13.6914,-111.5726,-44.9921,-86.0299,-19.5454,19.6858,-106.2721,-14.8118,-136.0576,-40.6758,-32.4587,12.6737,41.8935,44.5286
10.7866,-73.0055,60.1140,-30.8005,4.8025,-49.3633,-131.6905,-37.7850,-14.3941,149.9823,-6.8545,-182.8142,-52.5002,-148.4475,-73.6695,5.7772,-15.6433,-8.1758,23.3046
-11.5106,-108.5936,27.9793,-101.0182,-5.6390,-95.2015,-99.7189,-15.3272,94.2930,278.5294,-54.8238,-199.5333,-98.1827,-89.8287,-34.9520,-2.3895,-52.2481,-66.5785,57.7724
-50.0363,-113.4456,-19.4991,-100.8985,-32.5996,-81.8302,-42.8474,12.0268,180.5373,91.2054,-98.4135,-136.2206,-131.4246,-24.8867,21.4894,-20.7169,-55.9816,-67.3065,76.2632
-64.2943,-84.2054,-17.0189,-46.4823,-21.1774,-16.9509,-31.3400,45.2567,139.3630,-130.5480,-82.1248,-79.2642,-110.9353,21.9826,26.3351,12.8967,-29.3229,-68.3081,74.3781
-64.5704,-68.3356,-1.3932,-50.9019,-10.0661,-9.0729,-41.0451,55.2701,83.8998,-13.0518,-14.6595,-80.5845,-67.2526,40.5299,12.6556,113.2106,10.4475,-114.4548,81.3271
-51.5902,-27.5451,-18.7999,-71.6313,-47.1789,-55.4551,-28.0313,29.0930,145.5558,161.8986,38.2422,-73.5001,-67.7027,30.4879,16.0030,152.5325,56.8071,-143.9328,53.3249
8.5688,51.5124,-30.5411,-37.1912,-72.9623,-54.5702,-23.4575,-0.3052,208.4071,86.6202,55.0764,1.2499,-96.4625,24.6833,18.3429,72.6706,83.4018,-139.7402,-6.8769
72.8096,70.9972,-13.0955,-23.5669,-42.2261,-15.7270,-34.4094,-3.1612,151.4347,37.4550,62.0230,86.5661,-92.0208,37.8733,2.2511,20.2461,76.6839,-134.9338,-17.2849
55.4622,23.2803,8.8726,-47.9155,-4.5226,-7.9849,-26.1975,15.7793,62.2775,157.8505,68.2610,107.9997,-60.7642,47.1361,-17.7556,61.9461,75.6320,-99.5294,9.8830
-5.2328,31.4180,36.5464,-12.8561,7.6105,-10.5879,-18.2510,20.2739,40.6429,149.4836,67.3619,75.8654,-50.1690,39.7287,-12.3492,84.6213,102.0888,-24.5969,-1.3926
-2.3062,103.0321,71.5059,61.6166,11.0477,3.3276,-31.5044,-18.3594,64.6609,6.4401,63.1262,31.0334,-63.8713,18.4053,12.4068,68.8719,114.3299,15.6614,-34.2847
50.2480,113.8200,77.8732,78.5201,2.2952,5.8202,-27.3697,-60.8392,97.4413,6.5564,61.5256,-0.3528,-70.3769,1.5047,24.7451,89.8083,81.8813,-2.4021,-45.8234
52.8892,47.4810,45.5039,50.5106,-23.5166,10.1832,6.4156,-50.9852,129.7306,76.8521,67.3957,3.7267,-52.4763,23.1875,45.3346,112.8845,28.0418,-21.2548,-52.6258
-7.4003,13.5559,11.1442,31.2259,-38.9596,45.8568,35.9857,-22.8034,139.6709,27.3455,84.4219,22.1848,-20.3774,64.0279,101.6170,96.0349,-15.4486,-19.2348,-66.7027
-52.0711,47.4015,-3.7140,28.1110,-34.4828,69.8082,50.5410,-39.8362,123.7422,-28.7591,101.4564,10.4610,1.4638,59.7605,142.2035,103.6889,-32.5856,-25.4089,-86.6947
-38.7894,67.2100,-16.4185,32.3661,-35.0168,38.0494,58.5873,-77.4983,116.8809,18.7939,99.9861,-2.2685,0.0175,17.2389,136.5807,158.4801,-33.0246,-52.9018,-115.0341
-5.1287,26.3127,-45.6690,5.7590,-46.5453,-25.3395,68.8320,-80.4271,118.7616,104.4638,82.3525,31.0216,-5.0132,-10.7368,132.0146,197.5031,-49.2802,-76.7221,-115.4346
8.6203,-4.6331,-71.3119,-60.6261,-42.4206,-73.7867,87.4696,-55.1004,80.1675,175.2153,74.1786,63.1018,15.1531,-21.9886,124.7084,178.0630,-69.8241,-58.6717,-68.2654
11.8145,39.3964,-53.2147,-73.2500,-9.5626,-64.3848,91.0503,-33.6754,17.7787,165.3532,88.9243,53.6369,41.5391,-9.5351,73.1661,91.5967,-39.1740,-6.9031,-28.9505
15.5236,92.0810,-0.2295,6.2875,29.8097,10.6106,66.1948,-24.2042,11.9732,62.7581,106.1730,59.4491,23.4637,56.0966,21.2181,-19.3446,30.3707,28.0373,-21.3238
9.5979,73.2082,42.1378,76.1749,57.0139,84.1324,48.0802,-17.3270,31.7927,8.1277,104.9974,94.0808,-22.9325,124.8149,9.6923,-59.3559,70.1239,54.2355,-8.4177
14.7219,44.3694,70.0889,95.4602,78.8954,104.5678,39.2902,-2.1355,-28.4082,-15.2294,93.5298,85.5846,-23.9042,122.9114,-0.8917,-16.4918,79.1610,121.3592,3.3812
54.6176,78.6486,95.4279,122.9787,91.0174,111.8652,12.3757,18.4485,-109.5863,-140.6186,82.2274,39.3359,15.9344,75.8948,-7.8715,25.4128,90.8977,184.3680,-0.5365
79.9118,104.3922,97.3743,141.8413,80.6653,133.7995,2.2114,35.8056,-87.6840,-170.0885,68.4733,33.4638,19.7802,34.8019,19.4135,40.7826,83.4560,161.2996,13.3900
42.4961,60.9898,87.3455,108.3527,75.5276,143.6251,23.8473,56.6423,-46.4987,48.6461,57.1865,63.2768,-12.4991,8.5001,24.3502,41.3370,49.6317,105.9745,35.3408
-6.6716,23.9192,106.3972,72.8966,103.4882,151.0715,13.8037,79.8322,-93.6092,164.2112,47.4676,61.8632,-20.3802,12.3506,-26.9458,3.1884,23.3673,115.7768,23.3435
-10.9593,26.7886,119.8736,67.2073,127.1403,163.5800,-18.8722,86.2761,-113.2606,45.0112,27.2177,16.2628,-9.1915,30.8162,-59.0215,-37.0732,-8.9404,138.0580,5.4984
3.2727,-0.9986,72.9544,51.0799,111.1129,127.8856,-8.0803,79.0765,-34.9474,61.1855,18.4340,-24.2962,-9.5088,9.9364,-35.7391,-13.7216,-54.6068,83.0780,5.5550
8.9639,-46.2912,16.0768,30.9176,86.6689,58.7242,4.1651,73.5544,-2.5979,164.7047,42.5285,-6.2778,-4.4201,-24.2841,-4.8941,18.6034,-48.0879,15.2715,-17.2383
14.6158,-28.0447,10.0649,39.8742,73.6550,52.8794,-24.1165,65.6408,-57.6587,-6.3161,46.7585,49.1509,8.0874,-11.5582,18.6298,-8.5761,6.1035,21.2199,-48.3603
5.4847,17.2501,11.8658,50.1533,46.4931,95.6503,-21.0109,65.5188,-72.9840,-175.7322,-0.4474,39.3243,10.2841,7.4608,49.8252,-39.3175,3.8928,33.4309,-26.2110
-24.2665,11.0114,-18.5038,41.0465,13.9546,86.3547,22.3065,92.0299,-44.3699,18.7155,-22.3291,-52.3476,21.1962,-6.3343,79.1886,-27.5373,-53.5871,-14.0192,23.1488
-37.4484,-9.7940,-43.4394,42.3139,10.9594,40.9340,34.3017,121.2980,-47.8750,190.7937,11.9833,-90.0267,38.3240,-0.3466,97.4354,-7.9638,-59.7245,-37.4556,47.1002
-29.9104,4.3138,-40.3423,53.1651,23.5106,31.3332,40.2387,131.7219,-41.0643,62.8638,11.2652,-20.2477,20.4141,22.4185,92.5998,18.3758,-11.8562,5.9155,70.6933
-35.9299,12.0814,-27.5973,35.7523,21.7303,27.2052,74.5645,148.5593,16.6352,37.3302,-42.5740,26.2738,-11.3351,-8.9260,57.1884,72.4285,6.3234,13.5365,110.8050
-46.7930,-16.5782,-4.7266,-8.8325,15.2206,-10.6393,78.7518,177.0852,86.9327,248.3907,-46.5602,-18.0309,-9.2772,-64.6458,38.4173,127.6479,-17.5052,-34.2430,123.6729
-34.2775,-55.8314,28.2815,-38.1769,15.2326,-36.4443,54.8340,187.5145,169.6605,313.1870,15.6545,-64.3781,-4.0321,-64.9081,72.1392,158.7048,-41.2337,-28.2691,91.8063
-7.4543,-89.7808,43.9040,-25.7670,8.1630,-26.0271,55.3880,175.8964,241.8175,181.3126,51.2035,-69.7430,-20.7207,-34.0290,103.4052,159.3639,-39.5308,21.2840,51.7125
21.5356,-103.8536,40.7203,13.6663,-9.6005,-12.2000,41.6157,152.3100,206.0129,124.0246,38.8687,-69.7533,-17.9170,-28.3590,88.7981,132.5827,-6.2450,10.3336,36.4702
46.2923,-73.0435,51.2810,45.1444,-25.7598,-1.2212,-2.5610,120.4953,87.7870,120.3445,38.6863,-41.2407,-4.1612,-28.7256,71.5033,117.5059,34.4454,-24.1458,40.4303
48.9321,-13.7602,72.5501,50.0585,-37.9046,12.3730,-9.4837,97.0256,44.0347,33.9909,68.6092,36.8398,-29.1333,-12.2347,78.0031,117.6364,49.9710,-2.3682,28.8261
48.3145,29.4005,65.0495,35.9812,-48.2650,5.6668,3.4060,76.3708,106.2279,-11.3160,95.5051,74.9830,-59.0984,-12.4639,69.6945,74.7543,43.5601,14.7715,-6.1266
77.3459,33.3056,26.7849,17.6325,-45.1416,-14.5282,-20.7445,38.0239,167.9180,111.0791,101.8446,9.6367,-45.7406,-40.9119,29.2648,34.7745,24.0153,-19.5070,-16.4507
90.6301,-7.0854,0.3913,1.1620,-17.5369,-5.5493,-28.7708,18.3721,178.2552,262.1947,100.8283,-66.7380,-30.6780,-43.4311,-3.8104,111.9081,-6.6868,-36.8335,22.6052
34.5276,-67.3804,3.7346,-20.6454,10.5949,27.1763,11.8476,39.7303,165.3421,269.7196,93.5185,-52.5699,-49.2352,1.0355,9.5568,221.9090,-16.0757,-27.8708,63.5364
-39.8257,-96.6817,13.0681,-47.9990,-2.3733,37.5060,39.2143,36.6578,166.8634,190.5253,50.6231,-1.8471,-62.0214,26.0983,52.5984,181.5795,7.3762,-42.5877,66.8986
-68.3120,-91.3212,16.1566,-50.1109,-39.4290,27.6310,44.2894,1.4911,191.9947,144.7266,-19.4333,-18.5574,-44.2902,3.5323,63.0136,39.8347,13.1805,-31.8630,51.8771
-68.2148,-87.5388,26.4878,-8.4614,-27.2985,44.3896,54.7788,23.3862,192.7517,73.1243,-47.5129,-77.0127,-20.9783,2.7043,22.0403,-23.4961,-13.3989,56.4057,54.7247
-64.7894,-79.7168,51.9473,40.1998,43.5577,93.7050,52.0250,95.6520,150.6533,-65.5549,-23.1132,-87.4853,-10.2530,36.2306,-4.2762,13.3871,-29.6338,140.4927,93.7256
-60.4182,-59.8439,86.9494,65.2715,88.7729,123.3486,54.0455,132.6341,148.3527,-88.1707,-21.7690,-71.5556,-9.7758,31.7019,33.1964,71.8476,-31.8831,149.9911,148.1584
-65.9578,-58.8214,113.9414,83.9351,67.2316,102.4691,94.6603,147.7773,199.2501,87.7117,-49.0973,-97.8785,-11.3904,6.7900,91.5483,115.3380,-27.7146,143.3422,170.0331
-55.8345,-56.5208,115.8120,101.3381,47.0215,73.5754,119.0869,170.7380,166.6234,238.3876,-28.9554,-113.3856,-3.6355,36.2307,106.2273,115.4139,16.0470,181.8967,153.2347
6.9879,2.6353,119.4933,110.8789,85.3913,95.2142,85.6433,142.3410,18.0540,192.1122,34.9392,-37.6737,21.5031,91.4595,68.6526,56.9002,82.2852,241.1205,132.4955
69.0725,85.0232,168.3196,143.8839,137.6378,160.4065,44.4897,60.4993,-82.6234,4.9663,76.1466,66.5406,65.4587,126.6229,23.4664,-11.4984,101.3769,268.5740,103.2330
59.8739,121.7465,219.2815,199.1870,134.1258,201.6426,27.9429,9.9377,-49.3183,-191.6302,93.5235,112.5922,110.5731,150.8831,21.4926,-22.6386,82.6416,230.1199,49.6396
15.4659,114.4733,186.9407,199.6019,83.1934,166.1951,33.3301,7.2462,24.7701,-191.9093,106.3318,138.7182,116.8920,119.1468,58.0475,49.5901,89.2799,133.7578,20.9361
5.5742,76.3421,103.5161,128.5117,51.8834,78.9924,65.0907,22.4291,62.5630,80.2577,92.6017,165.3162,77.0982,17.7026,78.0567,156.3547,109.6727,46.9252,55.5765
45.8150,17.2788,70.6241,77.2811,66.5791,19.8073,85.3508,67.2728,77.7275,286.7166,62.8928,109.7204,45.2114,-26.4072,68.2277,191.6997,90.4330,28.7027,105.0658
113.2295,1.1717,77.8802,81.4602,79.7847,14.1206,70.7772,129.4397,99.9611,179.7584,63.1364,-7.7348,61.4146,14.2458,71.4898,140.5676,41.5526,47.3201,129.1831
139.7606,46.8962,51.6904,70.7507,52.0329,-2.0117,86.3166,161.0218,147.6772,82.6920,80.0072,-24.0384,96.4715,0.4902,97.0210,120.0892,25.0584,32.4669,153.1151
80.1830,69.0543,13.6890,19.4562,13.3293,-50.4095,140.4970,159.0857,203.7521,243.4426,62.9351,77.2774,104.7314,-47.8703,115.1406,165.3324,70.3117,-14.6446,177.6809
31.1543,36.1779,25.1331,-7.9194,7.6962,-50.6087,134.0462,144.9458,210.2001,384.6180,26.2292,102.8189,85.2450,11.5532,117.8866,179.7935,126.7978,-35.9428,161.8351
89.8214,13.3677,66.4223,20.5046,32.1824,23.1828,48.4905,132.6155,148.0219,332.3538,37.8038,-18.4748,71.5635,106.2651,100.0957,155.3076,130.9995,-13.4922,118.0579
161.0391,23.0552,86.9544,54.2946,57.7231,75.0124,-23.7949,149.1980,70.4098,246.5415,110.0168,-94.9747,81.5535,95.3075,53.5993,165.3533,103.4092,15.0656,106.4270
136.1855,38.2105,78.2320,45.0222,55.0233,56.8740,-29.2169,184.7517,46.0933,165.1404,162.5668,17.8234,94.5192,50.9418,18.8356,177.4667,84.0711,13.5773,131.2880
80.9764,46.8665,47.5361,7.0646,9.2800,37.5334,18.0812,190.8022,110.0865,85.2978,132.6735,183.6917,92.8458,66.8573,31.1924,137.1545,42.4443,-14.0484,149.4655
64.2043,31.5179,13.2846,-13.8593,-33.4356,63.3369,71.6505,186.7371,207.0512,148.6091,71.1161,204.1742,85.2407,99.1956,37.2149,101.4102,-18.9823,-17.4910,158.0306
50.6751,0.5107,18.3262,3.8792,-1.4323,106.9163,85.3934,216.7050,216.0250,268.7396,49.2899,109.7512,61.0620,131.7511,-3.0590,107.5026,-17.9285,40.9683,172.0274
35.0469,8.7661,64.2653,42.0572,69.0136,140.9475,86.8712,228.2962,145.4760,184.3128,46.2868,65.0100,10.7642,183.9655,-13.9701,112.1701,40.5603,98.6199,162.3427
44.7572,50.6251,83.7594,68.5346,65.1061,148.2259,124.1871,172.9151,144.4819,-23.3666,20.7405,99.5639,-11.8654,206.3119,55.8367,120.6426,52.4044,68.8628,111.8322
55.4632,63.9320,45.1805,68.2069,-5.9917,113.8507,160.0345,118.0634,216.5823,-83.2195,-11.4796,126.4908,24.8420,179.7891,133.5513,165.6637,7.9959,2.1332,63.8946
43.8160,47.6804,2.6251,40.9603,-30.6733,57.6915,172.2772,114.2128,223.4045,31.2375,-34.4738,126.8249,57.5914,152.1116,175.3021,208.2111,-22.9011,-10.9382,40.3911
11.7374,20.8296,-11.6248,-12.2596,5.8620,8.9979,205.2989,108.2752,195.9989,210.1975,-47.8637,113.7608,63.4937,122.7658,219.3172,207.7421,-36.6003,-19.7492,7.6625
-30.4719,-12.7113,-32.6792,-60.6631,26.6328,-25.9557,216.5147,69.0682,232.7948,334.0004,-18.8614,42.8041,102.1249,80.4271,231.7363,180.6090,-36.3196,-67.5576,-43.9426
-6.0151,24.8601,-59.7267,-35.4198,23.6449,-28.6200,131.2879,33.4175,195.3496,231.4782,74.4064,-58.5966,147.5266,68.3488,144.8606,141.8425,21.9921,-48.2838,-98.7689
137.2920,173.7078,-46.0101,69.0147,30.5119,11.6885,28.7302,12.2523,-35.1613,-68.6902,192.4640,-58.5112,120.4801,86.5282,30.0853,100.5319,109.2899,68.6033,-160.1739
266.5151,282.9178,-9.5959,144.6084,32.3641,40.7676,-1.2351,-13.6955,-246.8159,-260.3097,283.6758,42.2553,78.6764,73.8613,-17.5765,74.2464,132.1468,141.3993,-207.0721
251.0827,230.7978,-7.7530,116.8701,21.7337,9.9468,-18.5999,-32.2021,-260.6736,-198.3542,318.5003,77.6361,104.3345,16.2501,-47.5838,55.5401,87.1479,118.8639,-207.2428
193.9663,116.8621,-31.7595,42.6814,15.7991,-42.2550,-58.8668,-24.4989,-229.2824,-50.9408,288.8407,-15.1527,116.5441,-49.5186,-97.6333,39.8309,41.8825,85.0251,-198.5872
215.4423,52.4092,-57.0620,-10.9014,-7.3351,-66.0232,-70.4276,-10.7025,-269.7943,38.5589,234.7008,-136.3686,41.7583,-93.6986,-102.5980,41.7260,10.0528,49.2353,-220.3813
232.0393,33.6231,-103.4077,-39.9073,-62.4729,-71.3500,-83.5666,-17.0270,-259.3397,55.8070,211.7579,-187.8292,-25.6794,-98.5351,-81.8761,22.1897,-22.5376,-10.0237,-225.0288
155.0581,55.7526,-150.4990,-35.6967,-106.8586,-75.2887,-154.6053,-39.3532,-168.7703,-6.9910,209.5470,-128.3738,-17.1821,-75.9085,-117.7997,-60.8362,-31.4017,-31.9751,-188.3637
59.0141,80.3036,-139.2110,-6.8830,-116.9378,-79.0772,-219.6248,-72.3447,-145.3005,-76.1103,177.8255,-23.5384,-14.6079,-75.5896,-159.6940,-128.2717,-9.6748,-8.5080,-168.5698
37.6687,23.3210,-93.7300,-16.1046,-112.6969,-100.8980,-217.3842,-122.4024,-203.0428,-11.4873,117.8024,-42.0205,-69.0513,-118.6988,-138.7350,-100.6175,-2.0004,-14.0397,-172.4324
75.5616,-54.5627,-82.9563,-66.4192,-103.8456,-142.7444,-196.1972,-161.6847,-208.2032,110.5922,73.5864,-168.5258,-111.9676,-156.7885,-120.0215,-59.5062,-23.3226,-45.3537,-141.0877
90.1238,-21.2009,-100.5359,-82.3852,-105.9794,-159.6078,-198.4310,-142.9056,-149.9096,36.8818,54.7854,-150.0794,-104.8718,-140.5014,-139.2784,-94.2484,-32.8532,-53.5831,-76.3355
32.3068,45.2810,-113.5283,-61.5907,-132.4347,-128.9261,-207.0125,-87.4033,-137.0243,-196.4780,26.6498,24.7726,-100.0625,-106.7820,-146.7771,-144.7505,-24.5303,-56.4906,-21.2866
-47.5117,-14.4610,-126.3836,-71.3692,-141.9609,-100.2724,-214.7758,-63.3501,-174.7388,-250.7268,-26.9965,53.9209,-130.0242,-132.6916,-164.6465,-153.2442,-41.5655,-65.2068,24.9839
-77.1063,-133.6413,-129.5386,-113.2991,-117.5231,-121.2216,-225.6936,-66.5489,-163.5279,-80.3566,-81.2361,-98.2585,-167.7354,-195.6569,-219.1358,-174.7135,-77.4444,-50.1434,80.4616
-81.6963,-151.0003,-106.3210,-140.2414,-121.1339,-162.1870,-219.6996,-36.4819,-94.7297,2.2150,-123.6950,-164.1363,-194.9439,-208.6211,-232.1773,-227.2031,-87.9144,-31.1565,145.6124
-114.4800,-92.5082,-85.4234,-142.6170,-159.9789,-175.9418,-182.7689,25.7088,-61.3491,-24.2746,-165.2995,-127.1658,-211.1522,-196.3352,-185.8714,-225.4600,-94.2628,-52.4887,206.5157
-147.3290,-93.2047,-97.2153,-149.2002,-164.1518,-187.2858,-143.5529,71.6327,-68.4275,118.7942,-183.9481,-164.2678,-199.2541,-225.1211,-156.7858,-136.6717,-134.1828,-101.4893,226.3193
-140.6351,-173.3700,-134.1538,-200.9631,-136.8975,-235.3515,-138.8363,96.3740,-31.9591,331.2410,-156.3538,-220.2544,-164.4596,-220.4131,-136.9671,-48.1983,-169.4723,-141.5269,183.7896
-113.7973,-237.2076,-175.9559,-288.9630,-131.2309,-271.9493,-147.0668,120.1379,33.2853,278.3747,-129.1940,-183.5251,-152.4815,-125.3584,-90.5678,-24.9500,-162.5213,-158.8690,119.1735
-97.2286,-231.4269,-189.9855,-319.9377,-138.4613,-237.9234,-118.0282,131.3330,61.8888,100.2535,-143.2189,-150.9641,-171.9864,-71.4938,-72.6231,-15.8795,-137.1413,-160.8116,80.7984
-105.7715,-201.4712,-160.8273,-256.2978,-149.3517,-182.6140,-75.6798,110.6594,111.1842,128.0266,-162.8966,-188.5312,-187.1226,-119.2894,-93.5201,29.7925,-106.3505,-163.1075,68.9439
-132.7812,-178.9738,-137.1541,-195.9668,-178.6754,-169.1376,-82.0222,71.9136,217.3777,212.2469,-168.0670,-210.3598,-191.6307,-110.0318,-89.2479,60.6053,-70.7304,-154.4893,59.3981
-140.4448,-133.6005,-144.6860,-191.6851,-184.3864,-154.5620,-116.3953,43.2689,232.8374,86.6563,-181.4688,-178.0190,-189.9691,13.1954,-77.6364,37.1898,-58.9881,-112.1136,30.7795
-123.3859,-77.4254,-124.9217,-175.8105,-140.4959,-100.2316,-126.0993,27.5099,86.2155,-84.3311,-188.0467,-115.8575,-171.1784,91.8927,-93.9702,25.3793,-58.6278,-70.6190,-9.1694
-121.3538,-56.6384,-71.6577,-130.5705,-114.9568,-66.3218,-121.5490,9.2532,-25.0670,-78.4776,-175.8631,-50.0132,-168.4254,65.6441,-78.9710,61.6624,-21.6870,-74.6074,-18.2668
-119.7246,-43.6103,-65.7521,-109.0084,-140.3376,-82.1172,-113.0455,-3.4941,49.8614,9.7970,-185.5095,-60.0795,-211.1343,42.7095,-24.9364,78.3467,19.0674,-85.2780,6.9703
-79.2653,-18.7571,-100.6738,-106.5073,-161.9372,-78.7430,-82.5860,9.9716,168.8728,62.5710,-212.7661,-161.9821,-231.8068,57.4132,-20.8265,47.9584,4.7640,-51.5043,17.6404
-50.6552,-45.9491,-89.0420,-92.8507,-150.2216,-25.8965,-55.6010,27.0412,150.9539,88.8974,-205.2627,-205.5265,-185.4429,51.3343,-69.2664,23.7780,-33.2192,-6.5505,0.0120
-88.0798,-102.8452,-50.2878,-76.4291,-113.3499,15.2493,-62.0909,-0.1665,39.8098,31.0737,-172.5853,-103.2980,-140.3320,31.1826,-84.4288,16.8631,-53.7941,-5.3458,-34.5225
-132.4861,-66.7641,-67.0062,-57.3795,-64.1484,7.5044,-75.4347,-67.5899,-21.7048,-136.4119,-146.2872,29.8651,-122.0937,40.6612,-47.6777,7.5138,-72.9707,-38.8949,-95.9645
-122.0976,33.3702,-109.8678,-37.3901,-41.3553,-12.9790,-78.4090,-120.8765,-19.7929,-227.9369,-119.3595,71.7120,-87.8639,59.1437,-8.9867,15.2358,-86.0491,-46.6942,-141.7937
-91.6480,52.0482,-98.5123,-37.5099,-48.5760,-2.7847,-76.0875,-125.7815,-45.3414,-123.7070,-113.1621,25.3450,-74.6308,57.0120,-5.7886,30.9569,-68.6630,8.5919,-102.0575
-78.0057,8.0470,-48.2160,-31.9238,-34.0815,38.3996,-49.1636,-101.4188,-112.1593,-14.9567,-141.1778,-23.6572,-111.0373,65.7463,-34.0949,10.7040,-33.6865,66.9554,-35.9582
-53.9984,29.7332,-27.4987,9.1536,-16.7556,69.4443,-16.1664,-94.5114,-148.2966,-77.3686,-130.9670,19.5213,-103.5770,101.5693,-49.0686,-26.7581,4.7208,39.4674,-54.2218
7.2081,116.4884,-52.2147,36.0509,-52.5185,57.2646,-36.4366,-120.9277,-153.9399,-192.2941,-51.9187,135.8333,-27.2556,112.9663,-27.8617,-43.1695,41.8005,-28.7210,-123.0264
82.2751,183.4659,-81.5092,28.0585,-84.5263,33.1188,-92.3118,-148.7789,-200.3345,-251.6721,7.6016,192.8710,4.4456,86.4319,-22.7836,-59.4100,58.3329,-21.6677,-156.8174
128.9974,204.6873,-70.9043,50.0302,-52.5669,47.4879,-127.1961,-163.8063,-284.0369,-333.8280,-0.2431,150.6205,-41.9072,81.2552,-78.2339,-87.2431,65.7320,32.5005,-168.3383
138.5461,187.1092,-22.0428,94.6676,-22.6512,76.4661,-153.1221,-184.1853,-331.7662,-373.8398,-26.8490,90.9728,-98.4580,91.9446,-155.4677,-105.7172,79.2821,14.4252,-180.2938
121.2803,131.4308,9.2028,73.1011,-34.0754,61.2950,-175.0009,-191.3492,-299.8322,-210.1164,-48.6977,51.2270,-141.5907,54.9615,-190.2001,-120.2868,48.6073,-67.8043,-174.7092
60.8550,64.7834,-18.7701,-5.2428,-35.2054,17.5110,-151.9155,-165.3781,-203.5721,-30.5266,-75.3569,39.4326,-151.8207,8.6768,-159.0435,-127.2476,-33.7596,-100.0123,-169.3799
-28.2661,33.8608,-66.9364,-47.0342,-22.9464,1.8684,-113.9391,-162.0539,-142.8244,-99.9262,-86.1538,83.7594,-99.9094,20.0696,-105.9072,-108.0374,-67.4646,-45.3565,-181.7313
-53.6420,50.1709,-65.5980,-27.5740,-20.0014,12.0460,-130.3025,-207.5408,-220.8315,-216.8152,-62.6965,129.1634,-46.9554,31.8989,-117.7449,-105.7781,-18.7977,15.3896,-178.9412
13.2742,67.6786,-14.3502,16.4189,2.5544,20.2169,-174.1935,-220.1712,-351.5684,-164.6580,-27.0230,97.4551,-55.0677,1.1949,-202.8615,-146.1973,28.1352,8.0186,-155.0881
60.2105,43.3336,27.8906,59.6563,30.8830,44.1105,-187.7097,-169.4156,-374.0865,-201.5220,-21.7564,40.3366,-79.4590,-3.3834,-261.3848,-153.4089,36.8746,-26.7786,-138.4311
17.9940,3.9725,36.8264,79.8871,13.4478,88.2346,-183.0162,-133.8814,-333.0701,-417.2479,-62.0549,22.6783,-89.4688,16.4186,-249.4030,-111.7325,32.1353,-16.9962,-113.5028
-47.5862,-18.8919,31.1462,55.1080,-17.3589,87.8773,-170.2687,-130.7421,-316.5829,-398.8145,-104.1514,9.2343,-111.5122,-21.7149,-225.6772,-113.8749,3.1871,-16.6964,-52.5318
-87.0144,-63.2325,1.8341,-11.6914,-21.9041,3.7404,-122.1202,-102.2139,-227.6650,-63.8733,-118.0472,-10.9175,-127.3191,-92.9452,-204.5547,-140.6382,-52.7536,-103.5689,25.1401
-115.5945,-136.6681,-70.2126,-92.4541,-47.3506,-97.1940,-51.4493,-54.7321,-55.6652,125.0729,-144.5803,-21.0685,-117.7916,-128.7883,-148.1300,-78.4765,-99.7964,-191.9678,85.8848
-127.8921,-165.1954,-144.0319,-151.0570,-104.7560,-133.9823,-4.4850,-22.1487,22.2023,58.6555,-184.1755,-71.1320,-118.2322,-148.2804,-80.0217,28.1198,-124.8318,-192.5584,111.9681
-123.6394,-140.5946,-166.6118,-173.5936,-128.4293,-117.6821,18.7362,14.2273,25.3147,118.4179,-173.4862,-152.6957,-129.5734,-155.5700,-41.9238,47.9069,-129.7723,-191.3094,104.5506
-139.0398,-145.7583,-155.7856,-177.2382,-111.8326,-102.2334,53.2155,55.6949,132.2757,350.3024,-148.0058,-156.9761,-125.8618,-116.3797,-7.6074,10.2283,-117.7943,-233.4746,89.1561
-177.6624,-189.7024,-155.5447,-170.2691,-114.6247,-96.9995,95.8800,71.1836,267.1225,378.7058,-196.5464,-95.5750,-125.2519,-67.9911,55.3577,16.3872,-115.4500,-208.5743,85.2993
-206.5587,-195.6571,-164.5997,-143.6658,-149.4320,-84.7756,110.0990,69.5628,264.5995,131.8117,-265.8867,-91.3458,-131.2637,-52.1348,115.2360,43.2644,-117.3242,-115.7425,82.6570
-203.7901,-131.4370,-157.9449,-106.4758,-170.4791,-70.5577,97.5494,66.6991,208.1228,-47.4941,-264.7067,-118.7959,-128.6382,-41.2220,114.4651,30.1166,-83.5604,-97.2665,66.7790
-158.3938,-31.6852,-125.0105,-73.0027,-144.7537,-60.4721,92.2075,44.4322,187.1357,-15.8397,-229.3393,-49.4031,-147.5074,-33.3673,48.4600,5.2584,-39.3624,-150.1768,38.0976
-98.0878,40.2913,-74.7749,-37.3518,-94.5204,-32.6174,82.2117,11.1924,127.7046,0.2285,-203.8501,77.5595,-179.1954,-45.8745,-16.7334,2.2820,-31.8831,-138.8806,16.9785
-86.2597,30.5356,-33.5122,-1.0612,-63.9387,23.0930,41.4349,6.1695,63.3920,-87.1677,-181.6682,92.5601,-153.5182,-41.1708,-30.9252,-8.9559,-33.6335,-48.2407,32.8566
-115.7185,-32.1979,-17.2329,16.4281,-47.8080,64.6524,22.4705,31.2711,116.6027,-64.4996,-198.3873,-23.3825,-92.1204,-14.6340,-12.7132,-29.3891,-33.2509,22.5086,67.4812
-120.6081,-69.0270,-14.9693,1.7855,-19.8601,45.5704,78.3618,50.2914,230.6380,105.2915,-240.9669,-100.0185,-74.1395,-23.8304,27.2845,1.4530,-78.9251,16.3807,63.5422
-116.5639,-76.4074,-28.1242,-42.9913,-13.3659,-12.2530,148.7098,33.5906,287.9037,173.9096,-200.6392,-40.1237,-73.7927,-57.1843,97.0268,81.6253,-149.1332,-45.1078,27.7554
-154.7818,-94.8525,-68.9163,-86.0166,-56.3783,-42.5928,162.9483,-13.6175,303.5097,83.7676,-90.0067,46.1933,-41.7883,-47.9587,137.3838,126.9564,-172.4449,-91.6769,7.9986
-187.3579,-100.8605,-104.0321,-80.9516,-88.3317,-27.4789,144.8323,-55.2247,297.2136,18.0011,-55.7141,49.3407,-10.0838,-1.3725,101.0899,120.8879,-152.9745,-74.4540,-19.7736
-155.1650,-55.3643,-87.0479,-32.4969,-56.5612,-9.0453,123.9351,-83.4413,234.5996,0.0052,-111.6346,33.2353,11.7281,33.1989,64.0797,121.6687,-117.0040,-31.5621,-89.0384
-98.0520,17.6451,-36.6181,18.8215,4.5805,-2.9292,88.6138,-132.5337,143.2230,-76.5991,-128.9550,76.8879,48.4217,48.9687,74.9663,117.4223,-62.0337,-12.2455,-148.2487
-58.3098,71.0030,-3.4323,65.7178,45.7440,27.0943,48.5547,-189.1449,79.3101,-173.5235,-56.3461,127.2360,72.5413,70.9590,56.5727,68.1593,-21.3329,2.6775,-156.6985
-18.4177,89.1762,2.8323,98.2882,49.0478,80.3805,23.3494,-195.3966,34.3633,-176.9024,40.1144,126.4266,77.3381,107.5099,-4.7882,27.7727,-14.3171,18.0800,-147.3385
22.8843,92.2647,3.1644,82.4495,23.5501,92.9397,10.6336,-165.6988,-30.2033,-65.5005,81.5342,111.4613,106.8517,132.4055,-19.5355,33.8782,9.7180,-7.7876,-140.5205
47.8177,101.5229,12.2679,46.0621,9.5648,54.6333,10.3352,-155.2700,-120.4113,37.4527,61.1712,130.0073,133.8710,133.4918,8.5622,25.0362,52.7448,-52.6986,-126.7860
66.5842,103.1376,27.1466,48.3741,20.9585,49.8326,7.8043,-143.8451,-185.0793,-63.5040,59.3494,180.2348,100.8558,148.0325,2.6874,-6.4458,48.1089,-43.4349,-111.4585
77.7991,96.8873,28.3207,66.1430,19.6221,109.5981,-20.2420,-99.1554,-171.8900,-308.9703,119.3863,221.7994,55.6626,173.9233,-28.3643,-3.0701,13.6135,10.0096,-90.1457
66.9256,128.8958,15.1740,68.6025,13.1373,150.4474,-40.9434,-68.1882,-140.7977,-352.5049,168.3945,208.9274,66.6711,146.2553,-50.7332,3.3473,32.6780,38.8474,-55.1281
74.1170,182.3766,23.6267,98.2348,48.8645,127.6360,-27.1073,-87.1549,-183.5085,-151.4882,159.6998,164.6123,98.3213,80.9744,-89.6350,-32.4943,98.4954,38.5814,-32.8749
132.3823,172.0181,63.6832,144.0580,94.4090,95.1614,-33.6864,-109.2477,-228.2266,-44.1323,146.5094,164.4123,89.5532,58.6860,-141.5961,-52.0593,138.2587,46.3080,-32.6734
165.6191,118.3562,94.6036,127.5791,98.9832,76.1612,-71.3207,-89.9330,-166.1909,-73.6742,149.0607,202.7521,55.8947,55.1997,-152.4494,-32.7972,130.1169,56.8711,-25.7834
107.9708,114.3497,93.6565,75.6346,102.5974,47.1089,-61.5686,-50.7790,-90.9182,-29.5231,131.9358,203.2373,59.8526,13.3798,-105.4544,-36.7552,98.0612,60.2454,-15.5826
44.8041,129.7889,72.2462,79.3112,128.5552,32.4720,-7.5942,-30.1963,-120.7605,-12.9065,104.4519,155.6051,119.6929,-20.8336,-31.2589,-52.6625,51.7930,85.2261,-26.2851
59.0595,87.5453,34.8929,110.1202,125.1212,47.7221,19.2960,-27.9624,-162.6949,-133.5530,90.5909,100.7195,166.8359,-18.6487,27.7662,-26.1414,-13.5276,129.3004,-40.6479
69.0714,29.6180,3.4795,90.8631,101.5239,41.1514,45.5618,-17.6871,-117.8928,-158.7524,74.3102,49.9695,145.2110,-21.5181,39.3937,6.6832,-71.5194,141.2695,-33.9084
0.0682,18.5089,23.2307,54.5611,119.2727,14.0731,109.2892,1.9378,-66.2586,-50.9594,48.4391,12.4667,114.3150,-21.2364,22.0542,0.6520,-73.4251,119.9856,-17.5380
-63.6603,27.5981,76.6170,64.3403,145.0258,29.3107,144.4810,4.1683,-54.0003,-47.8686,25.0900,-2.5702,131.2702,-11.5826,30.5723,-18.2987,-35.1991,115.5790,-8.4211
-55.7565,10.5699,90.4042,89.3165,110.1741,60.3472,134.8534,-10.9519,9.2500,-67.3499,6.2163,-12.4036,137.2074,-42.6073,83.1719,-30.6331,-28.9415,131.2237,-1.1242
-42.7194,-42.9733,64.1774,75.0760,53.3272,47.0544,158.2337,-17.9688,124.0976,58.0718,-4.9856,-1.5363,102.2650,-73.8678,149.2449,-37.8859,-52.1518,145.2609,22.9709
-65.9455,-86.2420,64.2667,42.6718,45.4049,41.0023,200.4631,-16.5437,160.5965,97.9692,-10.1761,63.9523,103.3124,-18.8336,185.3795,-37.3474,-39.0794,174.2773,67.2524
-81.1393,-46.4824,93.5261,37.8758,70.0160,90.0981,181.6781,-11.2219,98.9547,-63.2234,-18.2188,120.4003,152.0968,58.9543,164.0757,-57.3890,-4.1507,210.7527,100.0557
-66.3308,22.4878,102.8419,45.7841,83.7774,132.1904,132.4285,16.8379,56.1227,-130.7440,-18.4047,77.7149,163.0376,70.2927,111.3268,-104.6003,-6.8401,208.6422,101.5749
-28.6393,-14.6438,97.5357,33.5956,94.4080,139.0652,122.2364,59.8122,65.3307,-29.7713,-9.5598,-3.8342,122.4755,67.0888,85.2752,-99.8919,-20.5645,177.5701,101.1017
24.7690,-98.6778,112.7509,27.6633,113.4346,152.7874,124.0944,79.2548,52.1064,7.5063,-15.4864,-4.2073,86.8844,82.9431,84.7183,-5.5564,7.4552,157.6078,107.5917
54.6889,-61.1810,137.4457,52.3514,120.9153,155.1924,91.3995,76.5693,15.2464,-4.2533,-17.2974,49.8160,69.6862,67.3494,60.1343,81.7312,55.2735,140.5475,87.1879
48.2331,36.3355,149.2183,64.5963,119.6451,119.6250,39.2537,82.6419,28.3560,81.4271,28.2719,55.4178,72.6385,39.2143,14.4933,79.9306,80.3646,123.2257,51.0636
58.4451,32.8696,154.1100,50.5941,136.2852,99.3253,-2.0844,95.1391,74.3210,161.0449,89.2757,23.0591,107.5859,42.4241,-6.2611,38.8766,79.1014,125.1105,48.2946
82.4556,-15.5993,146.4490,65.2006,147.2173,108.8802,-11.9883,100.3462,67.5892,122.0764,97.4840,23.7529,135.5543,34.7321,12.1628,31.3894,67.7092,121.9021,75.4468
59.8022,0.4109,109.3986,99.6570,111.8383,94.8780,16.5834,108.4558,27.6898,62.6080,52.5210,31.7962,127.0016,-4.8094,54.2662,39.6934,55.6688,94.8461,89.6416
18.9196,20.0719,62.3059,83.4200,68.5706,69.0976,51.1267,119.3836,49.3423,62.6805,6.1175,-15.1690,133.8515,-26.5701,100.2232,17.6780,31.0217,77.9604,68.9818
16.1638,-11.9027,38.6134,37.3882,69.3207,68.3608,65.3830,113.5509,114.1586,87.0086,-1.8827,-72.4899,173.1989,-18.1302,132.7063,-10.7460,-7.7579,69.0281,27.5295
12.3316,-30.5525,39.3561,33.7906,77.1113,55.4986,84.8890,98.3008,108.5153,100.4940,25.0478,-69.8047,171.1797,-5.1281,147.4155,-1.1872,-13.8856,37.2601,12.0599
-8.6659,-8.1717,48.6572,57.1108,52.2709,22.4404,108.5170,105.3153,25.4798,92.5187,51.0255,-55.5711,119.3946,6.0894,137.8549,24.5903,32.2231,10.9815,41.5064
17.5769,5.0806,57.5656,65.8638,30.2002,27.8027,78.3804,126.3822,-19.7712,83.7265,69.0301,-94.9975,101.7673,11.7704,92.4580,39.9600,66.0881,8.8293,59.4471
75.6745,-7.8951,61.9124,76.9829,32.0686,58.0585,5.4023,110.1714,16.3306,107.1277,93.8625,-125.8065,122.1127,16.1891,42.0262,61.0338,54.5840,0.4922,37.8498
82.6423,-12.7660,65.3699,96.2553,40.2789,50.7799,-8.5826,53.8275,54.0796,124.2033,96.4708,-76.6569,120.7682,28.2296,39.6510,61.7821,44.4083,1.7979,28.3849
50.9838,13.0113,66.5323,95.6226,64.6674,25.7564,59.0847,26.4122,38.3005,101.2547,66.9855,-11.6355,130.2820,22.9675,75.3423,13.7627,40.0308,23.9401,31.8818
37.0217,43.8763,47.5897,74.4137,100.0471,22.5433,113.0142,51.2445,-2.3764,120.9404,62.8069,-15.3716,186.9575,1.2804,99.7127,-10.1956,11.5424,4.5019,2.2808
34.2339,50.6280,19.1201,56.2048,104.6231,21.7607,106.3781,60.2861,-39.0997,199.1960,77.3206,-47.9409,201.2235,19.9818,94.8206,7.3981,1.8124,-35.4081,-22.8771
41.6901,71.0834,27.7829,66.9605,91.2943,24.7361,79.6375,19.2036,-68.8549,153.4852,47.1555,-23.0916,127.2994,66.0120,51.5674,-51.4502,47.4655,17.2526,-6.2958
79.7123,142.6305,70.5743,121.7888,97.2297,56.7490,48.0901,-19.6623,-73.9848,-83.8229,17.8236,47.9738,70.9721,56.5738,-21.0698,-159.4783,91.1269,124.6131,-2.6498
105.7419,198.0803,86.6193,174.8879,90.7826,79.2440,15.3639,-22.3385,-41.5907,-248.6041,40.7703,72.8787,71.8957,2.5995,-50.6242,-139.0817,95.7982,140.5555,-16.7663
69.6592,171.4418,65.3311,157.7980,51.7508,48.4270,23.4210,-12.3511,1.0692,-128.1534,30.9508,21.8533,41.6244,-19.2032,-1.0350,-36.8347,104.3696,73.2133,5.7356
17.4361,112.0156,57.3226,94.8693,25.9772,4.0727,55.5340,-11.4799,15.6677,90.1929,-27.4660,-23.0059,-13.7166,-17.5584,46.2855,-33.3220,129.1980,25.5973,17.5334
15.5561,70.8384,68.2929,54.8936,15.3173,-14.0175,31.7586,-26.3562,2.8065,152.2012,-19.4702,-3.6700,-11.0786,-42.0765,41.9052,-66.2346,127.7414,0.3544,-35.5781
35.4629,40.3154,50.3218,27.9734,-21.6757,-38.1301,-26.1380,-50.2429,9.7808,125.6387,32.3405,30.3588,9.1536,-79.6347,50.8720,-16.6488,99.7714,-36.9726,-70.9284
18.4582,49.4405,4.8377,-9.5973,-63.2670,-83.5109,-30.9340,-58.8632,54.2043,136.0202,19.5661,36.9147,-22.8886,-96.9543,82.6683,10.0737,96.2114,-57.9321,-44.7627
-2.6821,112.2785,-1.5626,-13.8550,-70.7137,-98.1623,-17.8611,-52.6530,55.1496,85.6038,8.7400,42.7850,-50.9938,-89.3678,54.6944,-55.9624,130.4791,-32.4552,-45.5603
36.7527,135.3420,52.5503,25.5385,-60.2141,-60.4096,-59.3939,-48.5358,-42.1730,-41.1146,77.6140,53.5939,-21.9749,-63.4974,-12.1882,-101.1050,149.0943,11.8577,-90.8659
93.9178,69.8397,94.8759,41.9614,-47.7393,-26.4699,-101.0522,-23.3143,-127.1347,-62.1554,121.7303,60.2032,18.9737,-33.4572,-9.5653,-86.0249,118.0983,18.6528,-98.7100
87.5694,26.3974,75.5668,20.7175,-35.4211,-28.1834,-91.3067,26.3626,-98.2165,-24.0872,86.4178,100.7515,32.2009,-10.7089,40.6682,-73.8740,88.8907,-15.7213,-64.2587
58.6917,84.0454,53.0767,23.4660,-42.8876,-23.4335,-87.4591,32.7442,-50.6253,-149.0085,65.3380,162.8580,15.6267,5.3443,31.6609,-67.6663,102.1200,-22.1836,-40.2887
79.8257,142.7189,74.5027,54.3071,-62.9017,-1.2483,-107.0019,-18.7339,-80.5818,-294.3210,76.0647,149.3251,-15.3391,3.6010,-15.6616,-65.0053,100.9742,15.2243,-23.1863
101.2285,91.0310,82.6559,47.4434,-56.8265,-13.0107,-101.2362,-44.5060,-120.1143,-178.2903,60.3350,59.0362,-5.1518,-21.5995,-20.4160,-81.4968,47.0362,24.1302,8.4344
73.5258,-14.6613,48.2509,-1.8922,-22.1518,-51.6855,-90.0825,-9.6156,-123.8863,9.7315,39.6764,7.9805,51.0808,-37.5627,-24.0725,-76.4739,0.8540,7.4232,47.9001
56.5744,-56.2118,34.6118,-30.2412,13.0380,-50.6030,-104.6620,40.0782,-130.6874,-22.9795,41.7902,13.8217,55.5525,-29.5091,-85.4735,-45.9641,-5.3282,37.7289,90.1291
70.5286,-37.5543,52.1783,-25.1999,31.1678,-19.4178,-92.2833,75.2142,-113.9543,-86.1634,32.6746,-19.3216,-10.1479,-38.6595,-132.1102,-48.5619,-16.9497,85.1794,123.3329
56.9083,-27.6464,47.0207,-20.7167,25.9087,-13.5848,-40.2492,82.2825,-68.1019,20.8014,17.2998,-95.8810,-37.0269,-72.4567,-101.4331,-66.4849,-37.9151,100.5193,124.4017
24.5494,-14.8116,44.7332,-2.2427,19.4442,-8.9681,-22.9975,59.0243,-89.7437,51.7974,32.4552,-113.6551,-4.9890,-66.7188,-59.2621,-64.9568,-28.8699,141.4820,100.5427
13.5467,20.0323,97.1629,43.8859,45.4687,29.2467,-56.3892,50.1126,-154.6629,-115.5603,50.9295,-40.9037,0.3462,-3.8926,-55.7916,-90.4447,-2.0551,202.2287,78.6658
-4.2282,17.7908,155.0994,55.4694,77.4197,55.2586,-91.5637,62.5876,-127.0827,-179.4427,33.3576,48.0970,-28.1858,38.5003,-62.6577,-125.8689,16.8930,177.1198,58.1140
-21.9891,-13.9148,163.6282,11.3765,67.4957,40.4519,-127.6446,24.7919,-66.9318,-57.2296,12.6290,100.9151,-46.8756,11.9825,-94.6163,-89.3626,41.5822,99.8889,18.7649
23.2750,26.1721,149.2934,-0.0801,42.3366,18.4429,-176.8431,-65.0916,-131.2501,-68.4011,26.4502,133.3174,-69.6902,-36.4750,-176.4452,-36.1035,68.0149,98.6297,-38.6442
95.9489,110.2908,128.6006,50.3037,43.5818,-4.4602,-200.8426,-115.8884,-246.0311,-269.5845,35.2712,146.7941,-102.8755,-59.1595,-230.2153,-70.4498,65.1314,142.6249,-81.3428
102.4586,95.8322,87.9097,69.0059,38.2289,-34.6032,-175.1964,-105.5794,-249.7183,-317.5829,-4.3527,108.2774,-113.9841,-65.4352,-199.1203,-140.6621,30.4561,117.8465,-77.4670
54.2753,-13.6173,42.0481,16.5708,-13.9649,-38.8606,-125.8584,-80.2214,-172.3341,-98.0195,-43.6909,41.1436,-103.6037,-62.8530,-154.2216,-156.8512,-12.1689,29.4858,-38.3075
12.3238,-87.3306,1.1375,-40.3990,-81.2697,-18.1034,-81.1931,-49.5814,-117.6064,90.8580,-28.9817,22.2922,-91.3524,-42.0130,-129.8883,-138.4666,-40.2101,-44.7647,-13.0971
-14.3242,-89.2877,-36.9992,-61.9616,-105.3359,-20.0504,-55.3963,-26.8039,-97.3018,51.7403,-14.4031,54.3899,-82.5814,-22.1004,-66.5334,-126.0894,-40.1569,-69.7532,-34.3601
-17.2251,-76.8846,-49.4550,-63.0511,-77.4977,-41.5913,-44.4496,-43.2001,-83.3072,-40.1307,-46.3440,62.4290,-91.5037,-25.7140,10.1336,-118.8394,-24.2874,-76.3228,-74.5257
14.0293,-75.3626,-50.8374,-55.7941,-45.8893,-48.2464,-15.6902,-71.1000,-51.5704,8.0688,-57.2933,29.4196,-113.0536,-37.9797,12.4675,-110.1407,-25.7763,-121.3962,-76.6930
32.0940,-57.9471,-99.3031,-47.4590,-50.1651,-47.1250,40.5852,-71.2375,3.1097,73.0241,-18.8843,16.0300,-105.9701,-41.2716,-13.8440,-101.1560,-56.5686,-184.5608,-41.2220
-0.2627,1.9613,-166.5713,-33.3957,-72.1980,-42.3644,73.7722,-62.9991,38.5808,-34.6698,-6.3708,46.6807,-63.5431,-36.1654,21.9221,-110.6986,-91.1009,-188.4081,-30.6591
-41.4155,58.7948,-171.1222,-7.2173,-84.4018,-20.7853,44.4337,-51.2894,26.6931,-175.3275,-24.8092,66.0721,-27.4728,-23.4493,59.9941,-139.2282,-92.3510,-163.5007,-51.9623
-53.2810,29.2142,-137.1881,-9.2098,-93.4167,-12.6414,-8.6619,-10.0212,-0.0347,-93.6330,-16.2756,20.9028,-22.1933,-16.3597,19.9666,-126.0525,-55.2746,-192.1538,-34.4289
-53.9212,-46.7934,-133.2032,-66.1699,-97.1820,-48.5425,-17.2715,35.8139,-10.6386,106.7883,-18.3810,-52.4893,-36.9499,-32.1029,-24.4648,-53.8136,-28.8473,-226.7444,27.5476
-52.8312,-48.8127,-143.8231,-118.1582,-87.3243,-95.6942,27.6196,47.6612,4.5589,147.4810,-68.0386,-67.6806,-41.9143,-56.2970,4.3280,-3.9896,-51.7825,-203.1935,57.3223
-39.3703,-2.9960,-145.6253,-126.0259,-90.3512,-121.0526,65.3162,45.5492,52.1017,70.7964,-83.8999,-24.9011,-13.0522,-74.9591,41.1226,3.3867,-83.7337,-179.6792,38.3521
-38.2344,-17.3366,-158.6533,-131.7582,-107.0454,-131.6355,45.1283,50.3263,99.5432,71.9273,-38.5159,-15.5536,22.1708,-96.0731,19.8304,37.0202,-72.7997,-176.5831,13.3564
-76.2874,-56.4591,-162.5040,-131.1781,-86.9556,-127.7438,-5.0293,48.9166,99.9461,88.3360,-29.7718,-62.9635,16.1442,-101.4830,-14.6223,84.3235,-38.3633,-128.0161,-7.6435
-103.8553,-40.3403,-120.4767,-80.4550,-36.8912,-110.1953,-27.7020,43.2828,59.8565,14.8703,-78.2334,-95.4772,-20.2400,-83.8051,-21.4037,91.5361,-21.8155,-65.2418,-20.0972
-54.9196,-14.7982,-69.7007,-35.9620,-23.2705,-105.1135,-29.7106,40.0272,11.9497,-10.2731,-90.8758,-86.9498,-50.0339,-97.1409,-25.4639,97.3999,-26.5759,-70.8219,-16.5183
24.2084,-33.7323,-63.2667,-68.8004,-46.3770,-119.5772,-52.7715,27.7879,-16.6217,92.0468,-45.6792,-77.2206,-65.6066,-140.0682,-23.6966,122.0800,-37.0388,-101.5378,-31.2973
29.5124,-62.5750,-82.7868,-117.3026,-51.6222,-129.5584,-81.5834,16.4609,-4.9477,140.9423,-17.8895,-81.8703,-58.1065,-122.8369,15.8226,108.7479,-40.0886,-87.0392,-69.4064
-26.9928,-72.2320,-77.5690,-107.9671,-28.4711,-120.5734,-72.6191,24.3173,17.4517,41.6160,-41.3964,-88.4263,-27.3973,-52.8682,57.8562,85.0502,-36.9552,-64.5546,-74.5963
-41.7006,-68.2075,-33.9253,-73.9035,-1.3665,-91.2459,-36.8720,29.1396,11.5040,-55.7112,-69.7810,-88.5331,-15.0502,-36.0843,40.1653,127.5839,-46.5410,-69.8833,-49.2918
-8.7128,-51.9087,15.3794,-41.7695,12.9800,-49.0437,-10.8942,11.1593,16.5710,-60.2120,-67.0197,-80.3651,-36.5058,-66.2650,-16.9306,168.0864,-60.0694,-53.7620,-42.1730
-19.8611,-29.5383,36.7622,14.9198,18.1264,-14.5582,5.8889,-2.5698,50.2381,-58.0636,-56.8390,-81.6609,-52.5929,-58.2817,-50.8458,103.0472,-40.9829,15.1113,-34.9358
-73.6610,-4.3769,46.7941,69.7173,44.7313,4.8824,18.2295,3.1932,38.4955,-90.4691,-59.8488,-96.9090,-54.3152,-26.9009,-52.2103,2.0659,-7.1746,77.1057,-15.4957
-63.8920,19.7170,72.8204,61.7163,86.9858,12.8774,6.2405,1.8539,-8.4246,-91.4084,-58.2760,-77.9136,-65.8928,-21.5561,-34.6033,-23.1140,-11.6276,67.3472,-27.6432
16.6843,15.6276,87.2470,11.8386,73.8934,2.0067,-19.2028,-14.3735,12.7919,-62.8547,-54.5091,-11.6323,-76.6918,-16.7535,8.6554,-6.5018,-38.3331,26.0022,-49.7876
43.2851,-6.2929,67.8356,-4.8572,6.4647,-5.8564,-13.9259,-24.6998,63.3806,-93.8855,-60.2829,28.6869,-66.1390,6.8993,52.6109,-20.6600,-33.5734,41.9963,-34.1811
-20.8375,16.4542,58.5594,27.4703,-9.5523,28.9357,19.6538,-36.7209,24.9202,-168.1704,-38.4860,14.3403,-39.9944,20.5957,45.9916,-50.2274,-0.6468,95.2610,-32.3594
-57.2925,74.1415,75.9799,59.0104,39.6125,64.0459,36.6280,-72.2365,-53.2205,-165.4642,11.9118,3.9744,-9.4034,14.6564,6.4041,-67.8601,21.6907,90.4482,-79.0929
-11.3342,87.4230,61.5845,56.4202,44.9214,31.8341,31.0343,-105.1306,-62.0520,-118.0434,18.1727,13.7985,7.3149,7.2142,4.7309,-79.9207,17.4371,36.8015,-107.5651
24.6940,63.1256,3.1058,38.9464,-16.7632,-13.0237,29.8428,-93.5621,-41.7429,-186.5225,-2.2079,14.8981,-0.9263,15.2380,39.7941,-66.2599,-1.5209,10.3398,-96.7238
5.1230,72.2966,-32.8647,26.3965,-58.4695,0.4783,29.6981,-55.7162,-70.6680,-300.3517,42.4403,28.2846,-8.7240,34.8392,37.3015,-9.7380,-6.4158,-12.8861,-87.2683
-10.2972,95.9363,-32.1431,-0.8139,-54.2656,1.5983,10.5079,-33.1594,-112.6558,-205.5326,98.2038,59.7439,-6.6440,27.3314,-17.7620,42.3215,14.5601,-83.3075,-62.6957
-8.1327,56.2168,-47.2325,-45.4588,-51.3857,-64.1055,-22.4989,-13.1738,-89.8866,49.8334,52.6661,31.8005,-23.2696,-16.2372,-61.5161,50.4263,32.5846,-131.7800,-9.0982
-25.4892,-29.7107,-71.3878,-56.4865,-59.2539,-99.0459,-53.0978,30.9725,-9.0813,139.8199,-27.1468,-79.5036,-47.4738,-31.6881,-71.7391,36.0706,30.3831,-78.8172,28.0495
-47.9926,-61.0516,-46.3096,-17.3096,-49.4525,-51.2295,-74.6401,70.4293,30.3474,9.7305,-19.9485,-159.0002,-47.3331,-0.9258,-88.6713,8.9378,26.6408,16.0340,40.1248
-48.1903,-27.0002,13.3351,7.5343,-25.5181,-11.9054,-89.5338,62.2197,-33.2823,-91.9830,44.5862,-119.8087,-53.6635,-0.1199,-112.2450,-36.2477,21.3192,51.0766,43.4453
-23.6863,-30.0478,38.9770,-9.3842,-21.7759,-16.0750,-105.7369,14.3856,-113.0884,-100.0936,79.4409,-35.7266,-88.4385,-42.4981,-101.6887,-55.8788,3.3996,38.0501,12.1428
32.3093,-79.1337,33.1040,-3.8915,-34.3954,-2.6824,-115.8554,-28.6643,-98.2463,-147.4825,52.2996,-10.7615,-97.0128,-51.7456,-69.1600,-24.2417,-8.7654,49.2837,-43.1233
71.2949,-70.3505,49.3387,39.1924,-11.3994,16.0061,-96.4011,-31.5415,-20.7712,-164.7812,-23.4708,-46.1633,-55.8607,-24.5489,-52.3548,-0.6190,-11.0849,71.4092,-56.0519
16.7457,-34.3139,77.2931,39.1424,48.9501,-13.0205,-50.2991,-0.7375,34.5185,18.8276,-75.0936,-119.7667,-15.6493,-22.6975,-33.7720,-23.3478,-23.7871,35.2951,-18.1440
-57.8638,-77.7007,63.3680,-19.3655,73.9838,-49.8689,-6.2188,15.6374,55.6829,229.7944,-43.9741,-219.6464,-4.6489,-37.8451,-0.7745,-46.3537,-32.0079,-43.1946,19.1202
-24.9629,-106.7287,7.8489,-59.0828,44.6702,-47.9455,27.2140,-8.3447,58.5261,143.6548,9.9312,-230.2186,-11.5110,-30.4944,3.8553,-39.1096,-15.6159,-99.0954,28.4440
37.0265,-27.3679,-43.3099,-75.4620,25.0298,-49.5121,47.4247,-40.0850,61.3460,-120.7238,18.7303,-52.8878,-26.0681,-20.2464,-20.9335,-31.9904,-3.6801,-142.6670,16.9588
-4.9579,-0.9964,-55.9918,-118.7391,34.7705,-79.3485,31.1422,-57.2818,82.0465,-196.3671,10.2029,138.0971,-31.2763,-25.9994,-16.6890,-48.0219,-12.5577,-184.4289,9.2179
-75.8540,-86.3334,-26.6923,-143.8891,35.9371,-94.2500,-14.6579,-83.6356,85.1077,-139.4874,2.7510,123.8110,-20.9527,-24.1483,21.5470,-64.2659,-19.3031,-161.9354,20.7248
-77.1985,-94.7100,0.8243,-111.3274,23.5392,-90.1566,-34.2743,-119.9990,58.0847,-191.3741,-26.2683,34.0779,-13.4459,-21.6595,59.8026,-45.8582,-39.2386,-97.3062,33.0557
-78.8229,-64.6492,-30.5713,-120.4536,10.6007,-108.1108,4.2571,-128.2603,89.8484,-155.5177,-64.3491,76.3099,-0.1239,-47.1012,115.7275,-14.8525,-101.3387,-104.3590,45.9719
-131.9661,-196.9560,-90.9696,-210.1632,-0.3006,-128.4076,78.6175,-101.4573,197.9527,143.4848,-95.3323,118.0734,40.5237,-56.4322,194.6444,-32.1284,-156.8144,-142.9054,80.3570
-180.3016,-325.3546,-90.5519,-233.9202,10.7295,-93.6076,146.5284,-73.1660,259.5885,302.6379,-115.1074,7.6613,75.4369,6.9049,231.8354,-58.2124,-140.8863,-74.1018,95.5587
-199.3497,-215.3536,-29.8624,-132.3913,35.3131,-21.0893,173.0793,-59.2926,247.8268,107.5120,-90.3942,-73.7743,66.0016,73.8926,205.9497,17.0856,-79.2918,41.5956,57.5319
-185.6913,-74.1672,12.6509,-53.1622,24.5883,15.2563,163.5389,-38.9211,261.9417,34.6086,-34.5283,2.9315,37.6993,48.7628,181.9341,147.4434,-40.6063,49.7114,37.0946
-113.2718,-110.6720,19.6623,-69.5231,-4.7985,1.6574,161.0192,13.7699,297.7664,256.5997,-20.6262,52.5930,29.2248,1.1164,196.4040,187.8109,-37.3379,2.0599,74.2658
-28.4051,-153.1323,20.6370,-83.6579,4.1344,-1.8645,174.2487,93.6767,276.9015,268.4418,-32.7814,-17.1576,48.4405,41.6239,222.1789,174.1745,-32.8803,22.6232,107.0370
-5.8918,-96.7313,8.3502,-55.5083,24.4710,29.9658,171.7716,168.2781,220.9449,6.5060,4.0507,-40.7380,92.9617,97.6474,227.9117,219.7418,-9.1615,50.8646,135.3917
-17.3990,-71.5799,-17.4598,-49.2383,23.2494,45.3671,161.6159,226.5869,193.5852,44.7079,64.1261,31.3613,143.0066,61.6724,199.9001,255.1782,11.9938,-9.0564,216.8188
-13.4570,-91.2212,-20.2778,-74.2416,56.0754,18.2607,173.5410,289.9229,209.9068,436.9675,81.3544,58.4706,160.8185,13.8753,159.9130,207.1281,8.6078,-85.9520,309.0739
-18.0263,-91.9101,-4.3668,-85.8748,126.8280,4.6982,188.6262,359.2071,268.7931,624.4453,57.2983,18.7663,135.5748,56.9092,163.4868,196.7261,-6.9419,-89.0731,353.4516
-36.7307,-122.7135,-16.3283,-85.0898,140.2687,34.8608,190.5580,409.0932,347.7974,487.1176,16.7210,14.1260,98.4067,122.3636,221.4290,290.0960,-16.4025,-72.2052,385.2603
-35.8070,-176.0476,-56.1546,-102.3602,85.0432,54.6775,211.2293,436.4424,404.7358,420.3941,-4.8779,34.7934,92.3536,123.0978,282.3511,351.4642,-32.6552,-102.2799,411.6497
