Fp1,Fp2,F3,F4,C3,C4,P3,P4,O1,O2,F7,F8,T7,T8,P7,P8,Fz,Cz,Pz
-148.3607,-58.8599,-178.9567,-54.3563,-157.8777,86.4951,-167.5358,-91.8408,-107.4079,-47.8646,-133.4024,-50.1149,-96.6602,49.8738,-46.9228,-9.8219,-208.7487,-80.3051,-129.6441
-154.1681,-96.5590,-186.7268,-90.1754,-162.0211,46.2340,-183.2105,-37.7100,-145.6527,-43.0231,-145.9109,-58.5460,-109.0145,13.6128,-50.3162,17.9587,-199.5255,-10.5187,-126.7060
-170.7044,-131.2633,-193.1970,-133.7966,-174.6606,-25.5801,-206.3854,-0.0768,-189.5731,-47.9655,-180.4873,-86.4351,-152.7708,-49.9047,-48.8861,-19.8343,-148.2569,110.6456,-130.8108
-167.5558,-73.0532,-177.2605,-115.7400,-185.0678,-52.7498,-247.7550,-18.5519,-182.1635,-45.7140,-176.4984,-76.2875,-197.6752,-78.0864,-78.2206,-73.9025,-76.1884,173.1529,-133.0529
-148.9065,10.3507,-158.7588,-71.2662,-181.8456,-34.6522,-301.2392,-45.4717,-162.9796,-58.9683,-153.7757,-39.6844,-242.8630,-85.0279,-177.3418,-110.6401,-71.1246,214.2708,-112.3041
-147.2111,12.6416,-163.4343,-84.3041,-166.3319,-49.6876,-313.3960,-35.3594,-166.8376,-21.5962,-172.4924,-26.8964,-275.1412,-120.6063,-280.7017,-135.5822,-101.7104,297.5237,-67.0510
-158.2761,-20.6037,-171.0820,-129.8283,-157.7417,-94.1739,-295.5496,-19.5866,-180.8551,93.6646,-196.3760,-43.5138,-263.0424,-165.9557,-297.5497,-119.5009,-72.5335,359.7091,-36.0832
-145.3112,-10.1713,-145.5710,-137.2372,-151.9087,-103.7721,-305.0781,-17.4400,-210.2952,139.5739,-184.5965,-66.2661,-234.5305,-172.6598,-256.6579,-91.9757,-13.4546,420.4567,-42.2410
-105.5886,3.2845,-108.2660,-117.0968,-124.1141,-82.4550,-308.4797,4.0686,-257.9436,72.0642,-170.2426,-77.2836,-228.3397,-137.4883,-227.5810,-122.3182,13.7234,525.7888,-62.6079
-80.7716,-31.0573,-122.8081,-109.8937,-100.0488,-56.9994,-281.5482,48.1095,-303.0589,25.2504,-152.3497,-74.2987,-227.9470,-86.2947,-226.0042,-139.3775,28.4320,549.4019,-66.9681
-86.9205,-58.2152,-176.3511,-119.3719,-113.4646,-30.8063,-293.0862,89.1788,-333.5933,-5.8935,-112.9047,-67.0653,-227.7288,-49.8699,-277.3615,-64.5789,32.8872,506.0162,-35.2011
-91.6072,-24.6591,-182.7233,-135.4247,-125.3481,-34.4161,-317.7276,117.8123,-331.6107,-85.0090,-101.0503,-46.4973,-232.7170,-48.7088,-365.3233,-13.8550,15.1016,584.8807,15.7154
-88.1884,17.6464,-148.4936,-139.2094,-118.3422,-69.0803,-263.3439,113.4727,-281.4552,-80.2903,-133.5067,-4.1940,-214.7081,-60.7817,-354.6367,-62.0999,11.7858,654.8552,21.7005
-105.7020,11.1721,-149.7423,-119.7491,-130.9137,-87.2861,-193.0632,92.5441,-196.7292,68.3305,-161.3032,14.6830,-185.9888,-67.0292,-211.0627,-71.7778,18.4047,557.9651,-8.3117
-120.0241,-7.9508,-146.4314,-105.9599,-120.5317,-111.8719,-178.5146,144.3499,-87.9162,196.2216,-174.6979,-29.3333,-182.6721,-109.8619,-113.9075,23.8302,-2.7199,595.7723,24.4004
-81.5817,-0.4506,-90.1774,-105.4153,-57.4073,-153.1597,-155.7030,236.7153,-3.5604,231.9581,-154.4507,-93.3824,-165.3321,-182.3698,-129.8182,93.5680,-34.6889,766.1661,71.8389
-27.1479,0.6751,-98.4791,-70.2270,-91.3096,-86.5774,-153.6838,170.2885,-45.6037,185.3995,-46.8004,-116.4281,-116.6266,-155.0352,-94.0313,55.0320,-96.4289,456.6326,-55.0646
-18.5412,-17.7056,-212.1278,-0.2248,-277.3472,92.5167,-235.4944,-68.8940,-167.8829,-26.1394,76.9884,-87.4114,-91.5892,6.1381,36.9963,-21.3321,-216.3718,-285.2656,-313.8795
-38.8167,-14.4271,-256.2433,42.9200,-387.5715,170.4905,-249.8824,-227.9296,-187.5167,-291.4256,82.4364,-32.1996,-64.8777,114.8380,103.3164,-48.7668,-279.3539,-616.2150,-432.1588
-77.6907,2.5503,-201.6281,55.2214,-326.7648,121.8955,-149.2570,-213.4007,-133.9405,-319.9586,0.0788,-12.5404,-6.6384,62.4545,61.0248,-35.9583,-238.9173,-405.7837,-353.8985
-161.0218,-22.4855,-222.9004,70.2885,-290.7285,151.8960,-162.3438,-191.3320,-176.5052,-178.7973,-64.3903,-67.5683,-23.8171,9.4505,25.7966,-61.3445,-267.2775,-251.3706,-270.7893
-213.2275,-78.3070,-271.1187,61.0774,-297.4208,228.5528,-242.9615,-206.6247,-216.9389,-152.9257,-94.1908,-110.9547,-103.8152,79.4577,44.5844,-105.9353,-343.8764,-223.6424,-234.4876
-126.5463,-80.4426,-138.6824,11.7088,-142.7597,138.7538,-64.2617,-143.6127,-77.7997,-152.3149,-71.9703,-30.2866,-40.9587,136.1596,70.3765,-36.0048,-194.7399,-78.5480,-142.7652
17.7462,26.6115,90.0639,-12.1360,125.3918,-57.8165,271.7010,-25.2837,105.0511,39.8722,9.3836,122.8698,143.0886,49.0162,58.9445,110.9886,120.1780,17.0053,-12.2163
59.3325,185.3409,185.8327,26.0692,271.2325,-148.3294,387.3702,28.5683,159.9612,259.9896,41.5207,209.5727,207.4648,-73.4473,1.7270,125.3940,239.0530,-29.5921,62.1633
17.3657,246.8581,169.1951,77.2418,285.8777,-120.4898,334.8653,27.0566,175.8038,272.1996,-28.1256,203.1068,156.8997,-69.2501,-31.4516,35.5463,138.9966,7.2520,89.0906
-3.5459,149.4415,162.9184,102.9425,288.2202,-63.2005,351.8860,42.9205,224.7093,159.8466,-85.6679,169.0987,148.8829,26.3707,40.6689,60.2337,67.4062,104.1016,121.1921
-13.7750,31.5574,158.0343,109.4584,271.9970,-14.7965,364.8083,78.8666,243.7175,110.5983,-79.2168,138.6680,142.4045,32.9358,133.6962,155.7029,63.8467,89.8279,149.3638
-45.5608,31.4214,134.8066,104.3148,222.8895,-16.0380,289.8534,113.0620,247.4689,184.3440,-77.3448,106.6003,86.2886,-104.2427,89.0063,137.9380,68.0029,61.5394,156.1537
-43.2699,91.9241,121.7766,100.9484,200.4261,-55.7164,245.6893,136.4472,266.4541,325.1612,-73.7122,93.0156,75.7717,-192.7619,-44.3784,71.4207,109.2876,92.3205,165.3593
18.6171,118.4515,116.0157,114.3292,212.8955,-57.6462,250.2106,135.2685,235.8073,387.7933,-22.2731,134.1016,101.3757,-74.4014,-77.6235,72.3385,143.3012,78.5892,193.2194
76.0594,144.1086,123.9424,126.2558,224.2107,-37.9396,231.7519,115.9998,163.3711,291.4806,30.9288,212.3659,73.9265,73.5356,2.3673,67.7189,110.3192,53.5103,214.4212
89.0704,198.9272,165.9551,114.7260,239.1031,-62.7072,236.1631,100.1939,138.3912,161.5872,42.1138,252.1573,55.9138,3.6085,39.8137,35.8866,101.6729,95.8900,208.3477
75.6744,208.5286,209.7351,96.7709,270.1617,-90.7119,282.4755,88.4573,166.7254,129.1826,30.6786,220.6273,112.6708,-158.9951,-18.0260,66.0215,161.9059,122.9379,205.1925
44.6759,122.6301,236.3708,102.5177,301.9046,-67.4253,295.9710,82.7250,224.0018,143.0043,5.4863,162.8498,162.2213,-136.3146,-62.4742,109.9133,191.7676,106.9409,238.3658
16.4012,13.4739,273.9357,142.6613,310.9012,-30.2838,283.3363,96.6593,300.5892,133.6888,-5.4329,115.8323,157.7389,-1.5007,-6.9647,65.1416,185.3441,121.1692,280.9183
61.0904,-9.1367,306.1352,197.4521,290.8876,-14.5853,289.0892,118.3947,318.6916,138.9429,62.5299,91.1656,142.9025,-7.6291,99.5178,-3.1783,236.3767,134.7048,299.4290
197.0908,63.9668,312.5032,219.3634,280.3320,-19.3703,286.8279,125.6412,257.7405,179.0791,190.0889,111.7237,133.2142,-101.5730,147.4754,-2.1969,328.9334,106.5685,320.6177
313.4072,135.4876,342.1153,195.1824,321.4384,-45.0769,281.9205,123.0119,254.7665,201.1604,276.2274,157.4609,141.5380,-70.6345,112.0433,22.2970,375.7754,96.2872,363.3171
313.9501,145.6704,404.1098,175.8472,382.2127,-66.7317,317.1880,120.8107,363.3902,176.5951,285.2012,165.7422,188.2502,27.7376,88.5849,7.6143,360.9803,107.5584,385.4817
258.2619,122.1047,434.6019,172.2771,406.5698,-67.1351,363.0222,123.9630,460.2942,145.8121,259.2215,134.7954,233.2151,9.6892,154.4607,-17.3012,328.5130,83.8418,371.9195
239.1423,66.3083,427.0570,123.4421,398.9795,-77.4363,381.0731,150.6941,488.9417,149.4903,225.6382,96.5991,248.2349,-67.0462,250.1611,-3.2841,323.0745,49.0519,368.5006
238.4467,-28.1966,420.5774,41.2553,380.4759,-93.6836,392.1702,200.3072,495.0864,156.2774,192.8027,46.4493,267.9912,-44.3441,279.2372,37.9123,345.2207,54.2169,381.4098
222.4006,-62.6963,410.8334,20.4545,353.6457,-78.2990,395.8950,223.9025,462.0462,126.2242,187.0751,19.7257,291.5401,36.7560,253.1659,55.0411,351.9885,85.2011,361.8835
225.9527,34.4760,399.9119,60.3312,341.4458,-64.1068,367.6808,187.9234,375.5055,125.5927,223.5458,72.1402,293.2972,62.7381,225.7983,39.2999,335.3809,96.4332,307.1340
248.8932,146.7783,409.3395,72.5532,357.1447,-93.4090,332.2249,129.8999,306.5762,217.3695,262.3398,135.3360,299.6615,46.1762,188.8253,28.1204,320.0884,65.6949,259.9604
237.2089,139.4683,406.8994,48.6895,363.2782,-123.8866,329.7921,99.8311,273.8237,285.5933,249.2487,112.2654,317.5567,13.6353,152.9304,27.1220,287.2815,29.5904,226.8344
197.9917,43.3442,357.7886,34.4932,331.1087,-114.7309,350.7606,90.7959,227.1082,216.3133,197.6329,52.5020,307.3621,-43.2921,179.8590,30.0060,222.8407,31.1796,196.1138
173.3931,-41.7693,300.1582,25.0240,281.5754,-79.2081,348.3558,76.5778,195.8424,130.6833,164.2637,39.2948,277.3061,-42.1455,229.0523,70.4777,169.1064,32.2169,179.7665
154.2376,-64.8335,275.0298,18.1667,244.9484,-27.0293,292.3350,69.5096,220.7252,144.2161,159.9335,62.1954,256.9686,72.4820,182.3190,133.4449,147.1325,6.5038,163.4866
139.1632,-34.7657,265.4531,35.6487,223.8886,23.0940,207.8451,86.4573,209.5335,131.6451,167.5687,93.8373,222.5589,159.7243,79.3448,140.5440,143.9908,17.5831,114.5651
153.2932,-6.7905,235.6508,48.2429,192.6945,34.8401,144.8676,106.8887,92.4933,30.8025,188.7141,111.3947,162.4558,117.4872,66.3549,104.1835,157.7125,59.1170,73.3491
162.3822,5.9391,173.9622,29.7218,140.9225,14.0958,118.6781,112.5734,-13.2284,21.5463,197.9638,92.6874,115.6256,68.6093,120.1069,99.0775,156.5337,41.0361,96.8147
129.8902,62.6664,115.0035,25.3121,106.6591,-12.6606,121.0833,112.6073,2.1433,139.5462,164.8225,98.9477,98.7202,88.0014,110.8596,99.3411,115.9385,-8.4950,133.1123
110.1408,141.9239,104.9538,46.5246,109.6699,-39.8012,141.8942,109.7577,64.6940,166.0790,139.6842,176.8783,96.2914,80.0128,58.6048,67.3715,105.6638,-8.6790,120.3143
138.5967,135.9568,121.6810,38.6795,114.8019,-46.4628,154.2695,110.5431,90.3852,75.3605,172.4019,210.1768,107.5831,37.7270,58.9772,69.9622,167.8624,0.1515,117.4327
170.2150,68.1718,118.0913,6.1801,121.5753,-25.0904,152.4592,141.7412,106.2075,71.4504,213.8150,121.4811,135.1874,43.7063,92.7658,119.8316,224.1437,-17.5789,167.4808
207.3112,64.0227,124.9679,-5.4577,157.8650,-23.6897,169.8558,185.6954,106.0545,131.8102,230.1388,41.6367,164.5953,56.0963,108.4494,123.8040,245.3107,-16.7451,194.1657
282.2762,107.1275,177.2231,-17.9965,178.5935,-52.9442,200.1968,180.0214,45.1896,67.1941,261.4427,52.0271,183.2167,24.7274,122.2801,84.4280,291.3967,-12.6428,170.9850
324.6772,90.1638,224.3874,-50.6770,151.8256,-60.3315,201.7614,134.4338,-8.2197,-37.9088,292.6640,50.1914,196.1038,21.0286,131.7033,97.6546,334.7614,-35.4709,177.7968
269.9661,40.3491,239.8494,-52.8265,161.6642,-49.4010,186.3984,120.4645,34.0995,21.1256,265.0665,4.6424,210.6523,49.3413,106.6679,152.7163,305.4131,-29.2373,217.4730
199.8623,59.8841,269.8380,-12.7155,243.6143,-65.3387,180.6302,130.6201,112.2164,140.6506,210.7937,13.8817,207.4812,27.2650,81.6933,158.0400,249.6414,13.1535,204.9241
190.3164,128.3258,302.0420,14.5306,289.0111,-82.1193,166.7898,100.9512,134.3097,97.5328,191.5412,78.3296,161.2119,-11.1893,97.5800,99.9963,226.2476,27.9368,141.3446
189.9037,143.6126,273.9206,21.7446,248.7064,-52.6623,151.0705,48.6626,115.4601,-34.8350,179.5219,92.1448,101.1868,6.6894,102.3551,41.1332,194.8245,36.6570,108.3001
158.2493,93.1715,216.8129,49.1107,215.3389,3.1820,163.8113,42.0555,95.0994,-31.8121,133.7798,31.7750,83.4544,37.7770,44.9542,42.2073,133.2823,81.8420,128.9333
127.4398,51.0977,204.8649,92.8918,233.6002,47.8229,175.2250,80.1023,69.8996,84.2619,88.2130,-18.9524,103.5262,52.8694,-15.0691,110.9822,92.8939,113.0119,145.4156
100.4855,50.5994,214.6861,118.0471,233.2471,71.4451,141.2507,104.0844,30.9273,90.2365,80.6191,6.6416,115.3020,88.7346,-10.8784,173.8547,98.5592,104.5906,95.7061
62.5058,71.5066,190.5285,116.5974,172.0533,67.4272,81.8961,84.1976,-15.6424,-50.7724,83.0012,73.0090,98.4541,107.4481,8.6837,160.5798,115.8899,97.7154,-5.9775
44.6763,105.3742,154.8609,104.6649,98.1753,30.6159,34.7334,47.9506,-43.0770,-117.3867,57.0801,88.7271,53.7402,53.5111,-20.1977,111.2133,99.1182,88.0674,-74.3738
60.1927,138.1739,139.6039,92.9722,60.7794,-27.3602,12.2181,42.9613,-47.7428,-10.3133,26.0584,40.2740,3.1271,-17.4292,-44.0066,88.5706,40.5492,53.5220,-79.1751
65.1523,146.0236,115.8293,73.2003,41.9245,-76.7970,14.5580,77.9486,-83.4583,88.3282,26.4855,3.6163,-9.8629,-40.3346,2.4779,65.5059,-1.6805,20.0259,-77.7250
33.6854,143.0494,68.1193,43.6786,8.8064,-84.3004,27.3699,119.2638,-130.5667,70.3659,24.8289,5.9480,7.6707,-21.1787,54.0668,23.8526,24.4859,5.8876,-79.8877
-11.6531,124.7899,34.2244,37.4250,-18.6847,-55.7247,40.0901,147.4022,-72.6760,53.0638,-17.0935,6.0700,3.0979,27.0602,31.8184,22.8788,71.7417,8.2135,-45.8506
-36.8226,52.0574,29.7328,66.1348,-18.5206,-38.4763,60.1340,159.1778,47.8382,69.4718,-47.0553,5.2379,-7.7221,64.0664,-5.3927,62.5981,63.8684,24.3062,-11.3436
-17.1798,-5.9118,29.4626,75.3616,-20.6268,-53.1543,80.1773,136.8916,55.8795,42.0760,-17.9109,31.8255,31.3041,18.1606,21.5452,60.1971,11.6177,25.5650,-18.0746
33.1337,48.0076,32.1609,40.9971,-31.2237,-76.6515,92.0832,95.2560,-2.7883,46.1491,19.0417,54.1845,87.4737,-77.0530,65.8737,21.4862,-26.3463,4.1266,-7.1648
53.1298,102.4797,58.2381,27.2657,-4.6754,-88.7290,112.1953,93.6991,38.1707,148.2224,19.5739,31.1511,92.0946,-93.1768,64.4150,28.0343,-24.2539,9.5697,51.3120
17.7213,38.8465,101.4095,69.9588,53.9195,-77.4519,129.1572,129.6856,102.0003,175.7385,11.3412,-2.5146,65.1384,-7.2062,61.0005,55.0235,19.4195,45.7754,84.8528
-1.6303,0.6613,140.8750,121.5483,86.1390,-41.3530,111.6091,130.3360,52.7641,28.4983,24.2159,18.3923,60.5769,66.0865,101.2366,25.5617,98.7665,57.4111,69.3118
74.3755,81.2785,159.6112,149.2829,82.4613,-15.4382,83.2361,92.9357,-20.8365,-106.1117,78.1982,94.6450,67.3209,50.9402,130.7892,-12.7205,184.1551,43.9151,67.0685
205.6202,117.8068,139.8570,153.7109,72.8167,-33.3583,78.1764,90.7634,-28.6139,-74.5560,165.8885,156.0095,52.4859,4.7540,105.9576,18.0301,230.5025,28.3242,103.2398
260.5221,68.1180,97.5764,113.6334,64.8817,-79.6446,78.7462,127.0428,-10.6553,44.3496,200.9945,148.7914,33.5687,16.3276,90.5212,64.6602,220.8905,-11.4928,150.1815
187.8413,76.5933,77.4681,37.6134,52.8979,-126.9575,74.5059,130.1612,41.7408,99.6924,143.5186,107.9816,46.2041,66.1971,135.5434,55.0230,196.6742,-60.8430,185.7816
91.3166,119.3625,72.0184,-7.7993,27.6079,-169.2099,76.5938,85.9822,122.5375,19.4727,101.9100,107.2943,75.8635,66.7887,176.2417,25.0092,211.9541,-71.7564,196.8793
81.6434,103.0597,42.2326,-13.2279,-10.3379,-202.1040,74.7446,52.2308,128.9251,-100.0993,142.7688,152.6844,74.9723,26.3506,159.7232,19.6143,253.8728,-75.3442,182.6186
147.9537,101.7512,13.2108,-50.6916,-27.0398,-219.4390,70.2038,58.3974,83.6077,-79.8515,195.5380,179.1359,38.6763,23.2962,138.7235,23.0099,270.1909,-114.8775,153.3449
235.2093,131.5453,22.0615,-126.0594,-7.9269,-212.2470,74.1405,79.1982,110.7888,48.0821,229.7679,144.2026,4.9757,39.8126,133.7692,22.5054,262.8409,-140.6472,118.2920
308.2707,86.7993,39.4747,-148.5354,17.0766,-165.8782,69.0805,91.2861,171.7170,86.9244,258.2850,76.6058,-6.9015,17.2411,87.2702,16.1488,263.5533,-111.3330,110.7940
306.2240,6.0461,51.3025,-87.6991,48.8632,-95.8034,68.7285,92.8506,182.0234,27.7590,227.1729,32.0702,4.0479,-0.4674,29.0675,-5.8641,256.7377,-67.1534,157.9931
212.6014,-15.4394,85.2610,-24.1208,99.0529,-47.3085,107.2402,73.7571,189.9091,-21.2151,151.2892,34.7564,37.5891,26.4555,55.0249,-29.0782,222.4326,-38.3168,206.1638
139.5222,-20.7615,111.9103,-11.3094,119.2696,-33.1932,135.5843,22.7343,197.3018,-74.4400,146.0641,71.0050,62.5572,32.2956,126.8847,-41.4009,195.2643,-19.8300,197.4018
162.2937,-31.9124,89.9271,-12.4330,93.5847,-33.1635,110.5814,-29.2154,151.0964,-103.3261,191.2276,107.9405,47.4580,-10.8530,135.1796,-58.7413,206.1398,-24.9309,173.5497
198.3294,-10.5166,68.7789,-0.2754,83.4152,-42.5364,93.8710,-30.3551,142.6924,-2.5652,171.8086,106.5521,19.6739,-41.5482,90.2762,-57.7758,228.4008,-58.1504,175.5268
187.5846,-1.0519,84.7899,-0.9597,88.0503,-61.9440,100.8325,14.4615,238.1995,123.5196,124.1079,64.9703,7.1455,-38.2548,53.9463,-4.4181,219.1309,-85.9063,163.3737
177.2021,-11.7639,78.0727,-20.5494,51.4010,-80.5354,72.9385,46.8518,290.7596,102.8484,131.4297,41.3616,-12.9126,-19.2550,26.2902,42.8543,165.6807,-88.2902,122.3886
171.6565,35.2555,24.8773,-38.6119,1.1159,-102.2407,41.0191,39.0440,220.1049,44.2120,149.8759,62.4255,-40.5607,7.8766,4.8091,29.0906,89.7615,-90.9583,85.1426
144.7320,88.4976,-14.6616,-65.0011,-16.6436,-142.1537,41.8628,16.1726,155.6631,115.6729,148.1436,68.5817,-39.4560,-8.6371,-1.9991,18.8985,32.7865,-119.9557,42.4588
136.8536,42.4423,-21.5687,-101.9058,-34.8434,-188.9346,13.3099,3.5015,145.9161,213.2656,163.2548,37.1540,-15.3194,-92.3091,-0.9328,52.4140,18.7844,-145.4084,-17.3039
137.7116,-27.2603,-29.3820,-103.7700,-70.2684,-200.6919,-21.2074,3.9092,101.8699,158.2962,158.3436,27.1895,-2.0813,-128.9090,31.3052,59.1107,24.3885,-113.0754,-52.4752
68.8763,-25.6441,-35.2598,-63.9817,-89.0940,-154.9713,29.5897,14.7794,51.3921,-0.4300,88.4501,27.0479,-6.3202,-61.5616,83.4328,22.7559,12.6695,-48.3356,-42.0037
-9.1664,-24.1474,-18.5417,-44.1180,-84.3505,-99.8766,86.5831,32.9756,93.6945,-46.4292,33.9696,-34.0182,-21.0208,-34.8501,52.1865,11.2502,-6.8385,-37.2380,-11.5587
32.8260,-69.4218,6.9920,-51.9322,-56.5022,-97.9848,51.6026,48.5774,156.3690,91.0498,66.1675,-88.8990,-31.5815,-110.0994,-53.1575,25.0255,11.9197,-70.1403,16.0011
132.1255,-57.2253,21.2542,-15.9260,-1.9770,-117.7468,21.5935,41.6701,96.8782,172.2247,125.9691,-7.6167,-21.9446,-121.3643,-63.5249,20.5564,81.6214,-49.9120,13.8403
162.8775,77.8695,31.8539,82.7942,38.0454,-89.2061,51.0359,-2.7626,-29.9843,-1.9915,149.7712,147.5152,-9.3624,-5.1986,16.0498,8.5010,163.6070,24.9117,-27.1538
175.6249,211.7705,60.3239,175.3089,44.4123,-33.0259,45.6539,-59.8976,-52.6606,-209.4628,158.2485,202.5320,-5.8703,78.9251,-20.7158,-3.9245,221.6656,64.7714,-46.3695
228.3871,187.5721,105.5771,206.2192,63.3749,1.0994,18.2746,-80.4515,37.2554,-186.0373,173.2500,145.6226,13.9565,60.6938,-171.6475,-32.0354,246.9333,55.2297,-3.3666
234.5687,81.1597,128.7306,182.4507,88.1820,24.6181,49.7853,-67.6264,103.6956,-92.9189,174.1813,99.4104,34.3955,36.0920,-204.0583,-46.0327,237.8659,42.5827,28.6575
174.0855,93.4671,102.3769,139.0230,58.3697,34.9859,77.9556,-70.0200,103.0495,-118.5720,156.4707,98.8546,13.3269,38.4273,-64.2519,-25.4887,206.5355,21.4233,-9.7046
146.6640,167.0400,55.7390,97.5917,3.3201,9.4897,51.0833,-77.3839,99.5537,-90.2847,137.4277,69.1788,-7.8075,31.7179,57.4373,-13.6129,184.6761,-24.9078,-39.5072
136.9079,95.7722,26.1283,47.5466,4.0913,-12.3277,51.7524,-33.5735,109.4901,88.8962,94.6550,-16.2020,20.2157,31.5027,37.3706,-23.9634,184.3753,-62.0366,25.7853
54.1925,-32.6711,9.4005,-17.2094,51.9458,-5.6014,102.5647,39.0633,97.2319,189.2860,6.9687,-77.0204,52.0579,41.8839,-49.1027,-16.0732,179.1867,-60.0412,124.2712
-24.1962,-19.6952,-3.0729,-57.7766,85.8823,-13.5253,135.1037,69.7139,56.2934,108.6991,-46.0562,-53.1243,69.0498,32.9779,-68.7275,17.4683,139.6242,-32.5138,145.4952
26.1862,26.4977,2.0920,-48.7863,100.2916,-24.5474,143.3434,75.4432,9.9582,35.7651,11.4619,-7.0130,118.5438,29.3739,7.1329,51.2040,74.3320,-5.9154,113.7316
115.2670,-31.7508,26.6881,-32.2849,127.9699,5.0091,151.0386,111.1015,-1.3769,60.6338,84.2265,-15.2522,170.9749,46.4190,97.6597,59.5031,37.7005,4.6797,135.0576
91.0923,-57.0534,48.6159,-39.5921,161.5959,25.7594,155.4084,139.9866,44.5401,50.3141,58.0305,-40.2082,168.8441,30.4745,145.8052,12.8902,64.7683,6.4194,208.2765
7.2969,20.5865,51.6234,-42.1308,154.3417,1.5718,185.5360,111.6676,92.7810,-50.3322,6.3582,-23.7320,157.5851,-5.3647,159.2010,-56.1644,99.7308,12.4056,248.7971
-12.2018,49.5346,47.3240,-33.9842,111.7394,-8.5713,255.3297,72.5712,88.5489,-86.7335,14.0980,-1.7473,170.9654,11.0769,130.1022,-53.3370,79.8286,7.0167,252.1331
2.0911,-2.4740,57.2523,-43.0799,102.4099,1.8091,302.5598,64.1495,74.1808,26.9132,10.6134,-13.6792,159.7967,28.0595,69.2345,10.5324,50.7592,-18.5751,256.7854
-17.6165,-2.8562,71.7672,-42.7186,126.5997,-12.3372,290.6039,41.9786,82.9108,102.3145,-30.5226,-21.7912,129.6650,-38.3005,53.5273,21.5815,65.5738,-23.5198,231.7141
-26.6731,78.0993,61.2483,6.0950,108.9942,-18.7447,257.6120,-10.4060,66.1791,-10.0169,-19.8801,0.5421,121.4306,-99.1394,88.2790,-20.5201,78.9483,9.5948,164.5280
10.7597,132.8393,33.2532,52.1825,54.5263,3.0372,220.5230,-40.2828,16.9466,-126.4584,29.4563,15.3238,91.8110,-52.2133,70.1805,-25.0959,69.8651,30.7012,117.9422
37.3947,74.4351,16.4253,36.4731,23.6876,-1.8818,141.9301,-39.5488,-17.6100,-82.7750,25.3308,-14.5119,17.5796,14.0931,-21.3774,-15.5027,82.0274,19.7402,95.5503
21.2208,-36.1721,1.6703,3.1979,-7.1956,-27.9676,0.1297,-45.6806,-49.1781,-39.9590,-8.3004,-80.1306,-32.7400,-6.6696,-96.3684,-58.5453,83.7630,17.3155,43.2728
-9.6338,-43.7797,-29.9352,7.0031,-67.7333,-28.2749,-157.8809,-42.7422,-103.2297,-107.3470,-28.5739,-132.4590,-49.8952,-70.5124,-118.7224,-100.5928,21.6508,29.2930,-10.6980
-55.0702,45.3231,-67.7974,19.3235,-105.3879,-29.7707,-251.6062,-3.0789,-150.1332,-126.7734,-97.9920,-118.0279,-100.4504,-107.7497,-122.9680,-85.0680,-46.8237,27.2104,-20.3661
-132.0670,57.0665,-106.2017,15.1370,-106.4495,-46.5259,-272.3651,25.2005,-177.9040,-48.0949,-227.9609,-56.9260,-178.8985,-113.8885,-145.3417,-68.1577,-90.0055,24.6825,-31.3720
-221.5549,-33.9107,-146.2942,23.6378,-122.0193,-36.7359,-293.4753,-4.9368,-199.8738,-14.6139,-319.0690,-47.0071,-230.5864,-103.0483,-217.6174,-87.6570,-182.3419,44.2004,-73.0401
-294.3322,-103.1855,-173.0263,45.8062,-154.4700,-17.2272,-341.8695,-41.8210,-198.9705,-40.8823,-333.2464,-126.7919,-256.7490,-114.3525,-316.6345,-100.2491,-315.3757,63.5681,-105.3207
-327.1055,-119.7179,-196.5554,46.2164,-184.6851,-28.2952,-373.8849,-16.7087,-175.8633,-29.4291,-326.3058,-203.5460,-282.6039,-177.7316,-365.1270,-92.8348,-391.4812,61.3792,-126.0768
-313.3667,-101.0156,-241.6434,31.4371,-222.9809,-39.8216,-379.6595,39.6490,-164.2055,8.8804,-334.5964,-189.0039,-310.3731,-216.4708,-361.2778,-94.7676,-410.3105,53.0401,-150.3267
-308.1161,-74.6901,-267.6573,38.8520,-245.4899,-21.2478,-374.5685,54.6315,-166.2667,5.9495,-364.3400,-131.7928,-330.0227,-149.0448,-363.0980,-100.7113,-417.9669,66.7370,-144.0161
-363.3397,-150.5369,-221.5911,75.3386,-214.8928,18.5249,-344.8700,33.8573,-176.0976,-43.8284,-406.9988,-132.4931,-320.1615,-63.0011,-357.9471,-88.6619,-396.3575,114.4000,-117.0104
-412.3863,-280.1196,-142.4765,120.3441,-149.3235,67.0130,-302.0122,26.1559,-201.7458,-83.8555,-409.3377,-182.2800,-275.4215,-80.0701,-329.0526,-61.5598,-344.1660,163.0381,-132.0139
-361.1299,-211.8099,-87.3430,147.7132,-77.6459,87.1736,-274.4952,22.4406,-210.3555,-52.8056,-331.6909,-179.9752,-223.8174,-136.0162,-329.9214,-29.4620,-280.5614,164.0332,-167.5492
-243.3658,15.3890,-36.9517,142.3972,-15.6075,64.1791,-226.8637,-2.9360,-168.4589,12.0744,-223.7704,-85.8401,-169.9805,-109.2574,-349.9940,-4.7905,-187.4180,139.9194,-160.3870
-145.0111,83.4420,33.1554,131.1814,16.1461,60.5873,-131.2462,-18.9613,-106.4481,10.6432,-153.0815,29.1935,-98.5416,-38.8140,-305.3249,-3.2045,-103.8173,147.7627,-140.9652
-82.0538,-19.4383,93.9336,153.3331,35.5566,88.7019,-48.8584,-7.9398,-51.0956,-42.3040,-119.3272,76.7875,-40.9458,-21.5131,-209.2728,-14.6470,-103.3349,161.7982,-151.7785
-59.4356,-74.3901,114.1246,187.6020,66.3862,76.8044,-15.5757,-8.3999,-2.4396,-65.4144,-102.7535,30.5459,-21.8648,-44.5653,-136.7382,-13.8882,-124.8403,134.6315,-146.2420
-97.8727,-71.1670,94.1752,181.2209,66.1445,39.5465,16.5297,-21.0803,15.3601,-74.2081,-99.2831,-58.6007,2.0532,-61.6379,-87.7680,-4.7325,-72.8818,108.4589,-94.7963
-131.3081,-50.6292,64.7971,137.9512,22.5845,44.7959,56.3614,-5.3049,10.8998,-91.7742,-68.6810,-91.2854,41.7308,-72.9102,-57.1017,-3.5577,2.5395,113.8168,-51.6007
-46.6012,30.7750,67.0529,100.1137,6.4927,52.6998,60.4359,25.7924,39.5921,-62.1976,27.3503,-22.4139,41.2856,-66.2877,-74.3478,5.7922,39.2482,89.8834,-49.8581
123.6340,64.7350,93.7670,80.0797,35.4009,19.9404,45.6141,46.6528,83.9423,27.4860,126.0843,61.5655,6.6350,-36.3412,-86.0103,47.5917,71.3527,23.1178,-52.2811
211.7411,-45.1193,100.9358,72.7378,64.6021,7.8292,60.0972,80.9661,85.5499,116.9150,146.7715,52.1459,3.4768,-27.0643,-11.1527,98.8473,107.0585,-8.1379,-24.7309
165.4749,-119.3562,98.3249,83.8659,95.2050,43.2132,91.4496,115.7816,72.9984,152.0613,134.0724,-22.3214,31.9086,-32.8169,85.7319,112.3374,128.2827,18.5200,20.5755
117.6089,-33.7661,128.2612,100.0511,130.9905,71.7568,114.9179,100.3120,84.1577,115.3655,161.0362,-51.7748,58.0913,3.8450,90.7800,93.2016,160.2351,46.8825,55.7224
144.0961,53.8685,174.2675,87.9068,151.6467,73.8063,139.9035,67.4014,83.3366,67.1482,185.5795,-17.6020,91.6791,42.5707,36.7441,90.7622,183.8692,54.6443,74.8830
156.3195,21.1688,198.9002,58.3100,178.0584,75.1940,145.9037,80.3509,69.4689,79.5704,158.6668,5.7769,123.3171,14.2155,23.4842,109.4433,149.2616,63.5384,90.6767
120.9696,-63.4938,208.1489,66.3971,205.1563,94.3149,97.9189,106.0740,87.2501,86.6472,136.6428,-4.8502,116.4237,-7.7518,57.2745,110.1190,105.2269,83.5606,94.5983
140.3526,-98.4146,202.4668,109.5088,174.6722,119.2790,43.3780,90.7367,112.8121,18.4380,167.3817,6.4409,94.4378,53.1701,94.0442,98.2932,116.7347,99.0782,59.2531
220.8194,-41.5498,160.1296,109.7867,118.1995,102.4072,51.1657,53.0445,104.7276,-19.3945,206.9593,56.1456,90.5548,121.3772,111.6870,106.9589,149.3474,77.4211,4.6574
234.4623,38.6011,101.9071,50.1421,116.3179,47.4001,84.9539,30.1615,93.6883,42.0876,198.9089,89.5349,69.8185,135.8943,84.0108,114.0943,163.2433,18.8663,2.2999
160.2652,36.1815,78.4720,13.9624,141.9081,40.3546,83.5883,45.5467,93.0557,91.5761,134.4592,93.3645,30.3660,134.5142,20.3199,86.7198,156.6411,-11.4447,71.3885
91.3866,6.7306,97.3611,34.3425,154.3828,86.0984,82.8914,104.0575,55.4150,60.2561,53.6756,115.6975,43.6123,115.4235,7.9922,54.4004,111.9530,25.9156,141.5001
42.9055,54.5325,126.9612,50.6793,184.1539,98.6252,125.5457,157.8365,-6.4085,-4.0129,14.8682,137.5581,112.4191,64.2478,73.1957,48.9692,43.3846,83.5163,167.2455
-4.2441,90.6825,149.7326,47.8288,217.8102,93.5345,177.4214,169.5718,-2.2929,-52.7342,22.7177,80.5263,167.0556,27.7847,101.4490,47.2451,-1.7911,117.2058,191.6532
4.7836,20.7615,176.2696,70.5041,226.6966,123.2666,214.1931,169.2551,87.8245,-40.7255,49.6373,-17.7306,202.2785,1.7943,38.3809,20.4908,-18.2753,134.9693,230.9316
90.3955,-34.5246,220.9909,115.5156,252.9543,124.0365,242.4272,157.0954,168.2046,7.7026,122.9034,-24.7627,242.2680,-43.9325,0.8321,-32.3333,20.5611,143.4420,211.2693
193.7812,40.5582,274.9775,159.4189,293.9779,76.6215,241.4951,100.4190,155.9949,-21.9672,247.5964,55.6408,259.0702,-40.8109,64.5168,-89.2598,166.6312,146.8203,114.4216
290.5990,172.0157,307.4088,206.0211,295.1037,71.7989,227.9760,49.8034,76.9369,-103.0977,328.2379,86.8496,257.9133,27.4136,147.0752,-103.6418,326.8364,153.3289,54.6601
368.8485,236.7769,299.4966,219.9061,286.1873,91.6575,285.2694,54.3639,21.3860,-92.3144,322.3355,45.3105,288.5882,46.9857,183.6912,-60.5929,343.1697,136.3972,104.0515
367.0718,192.2433,271.2039,167.7661,298.3820,52.7871,429.0266,58.3712,51.4347,-22.3288,304.2016,28.5904,327.1844,17.9144,212.8139,-16.2533,260.2248,84.6965,185.2666
288.2506,85.3855,266.5166,119.4194,283.8865,14.5211,577.8649,50.3683,137.1384,5.1863,294.5078,35.2019,327.4110,37.5435,253.7371,-0.2033,225.8892,57.1152,225.1404
228.9018,7.7071,301.6472,127.8971,259.5948,44.2836,673.1926,90.7861,178.6243,15.6402,253.0053,-11.6958,329.5284,46.7818,261.0486,25.2761,233.9295,79.0687,251.6103
220.4380,-2.3704,338.0157,123.7835,287.3432,72.6236,701.1161,129.4233,152.5349,-14.0831,216.3848,-63.7530,359.4944,-24.9215,208.5442,46.1873,219.8668,88.4842,279.5023
217.9040,28.3005,340.7008,79.7143,325.7961,54.0638,662.2848,84.1400,174.5853,-115.8638,233.6949,-23.6040,363.4489,-65.3239,143.8047,6.0537,227.3456,57.0533,265.9187
228.9117,71.9951,333.3476,72.6284,327.6948,21.2927,595.5287,21.6474,292.1186,-125.5130,278.0710,50.9632,332.0016,-29.6414,150.1436,-47.8822,301.1743,20.3870,215.5231
285.2895,94.7338,339.7888,99.1467,325.3250,-23.1548,545.9182,12.6528,362.1828,21.4257,328.0636,51.3495,316.3045,-29.4756,240.4727,-36.3914,386.3520,-16.1836,198.8449
358.2300,81.9558,333.6862,73.6803,320.2112,-66.9931,526.1823,14.9927,296.5317,102.5059,381.6466,13.3505,329.6033,-52.6345,334.9740,-17.0529,414.7629,-60.5882,246.6131
406.9057,79.2107,300.4704,4.7446,296.9825,-68.3614,542.9951,19.3899,205.5670,25.4133,416.1666,11.7681,367.8179,-8.5730,397.5818,-64.1368,389.2912,-89.8161,300.2101
415.6620,85.1040,257.2822,-46.1541,275.9149,-57.8144,556.5015,48.0998,184.5205,-57.5522,445.6295,12.9617,420.5252,25.3940,468.1185,-95.9629,359.1742,-118.3340,283.6094
368.2558,29.7941,193.6839,-93.2493,220.8869,-88.6541,477.4503,52.1599,222.2582,-78.5610,483.2712,-18.5299,414.7731,-31.0018,515.3932,-27.9415,341.2274,-189.6616,201.3806
287.6796,-59.2524,104.5335,-156.0785,102.0513,-129.5955,330.7159,19.9541,307.6588,-47.7966,454.6091,-35.1043,313.9953,-70.5120,465.0503,54.3300,306.5452,-265.4475,124.6726
246.3061,-85.4100,43.8623,-189.0793,21.5951,-140.3529,248.0764,6.4186,377.2388,46.9864,332.2296,-13.2742,213.6458,-15.6106,368.4736,45.0172,265.2253,-270.0314,76.0207
257.3002,-48.8127,37.8199,-170.5425,38.6669,-142.8259,235.5476,-16.7920,323.6414,113.1295,225.7800,7.3497,183.2491,39.0211,318.5962,-19.6138,256.5723,-225.4924,16.6609
249.2197,12.0397,32.7818,-143.3914,55.7307,-158.3714,200.0048,-97.3906,197.0626,60.0368,190.0943,10.2533,168.5336,15.8627,287.0883,-66.5884,239.2966,-199.0302,-45.8056
179.3238,94.9640,4.9080,-134.4561,31.3234,-170.1769,154.6954,-173.4317,126.2869,-34.4454,155.4867,17.6734,141.3842,-29.5471,223.8470,-93.8889,162.3544,-178.5481,-66.9475
76.3817,157.8717,-0.8239,-121.3855,30.6850,-152.7683,144.8605,-200.5032,86.7146,-91.7750,102.6940,45.8382,142.4994,-23.6216,158.0861,-100.3348,98.8418,-131.5878,-63.1395
-0.4338,149.8397,27.1043,-93.0705,50.9097,-113.7619,132.7007,-212.5084,28.8457,-106.9886,86.6537,84.6882,166.6250,11.8819,120.7613,-62.5221,116.0770,-98.9805,-66.1367
11.0449,71.0362,49.5744,-77.1882,47.2995,-95.3701,116.9180,-198.8516,1.7390,-57.5338,113.2971,86.1009,184.2494,7.8175,131.6648,-23.3187,141.0034,-109.4944,-51.3155
95.0208,-70.9718,58.3721,-79.4938,37.9677,-92.9661,136.1778,-146.2658,-17.8276,11.9384,137.6324,13.6334,204.8696,-24.0498,206.1770,-59.2103,110.4799,-106.7287,-14.1179
119.8754,-188.7007,73.8652,-63.2216,45.3699,-53.1755,139.4736,-119.4536,-82.5316,6.5246,123.7075,-68.2514,214.7919,-18.3572,263.6772,-141.2080,73.2308,-66.8679,-0.9774
29.6459,-113.6026,81.5850,-35.7148,56.3636,-7.9568,78.6208,-144.0782,-113.6492,-59.8197,72.9261,-54.0810,173.7523,-3.6877,204.7148,-162.3712,68.7496,-59.5874,-19.7528
-37.0673,107.7385,47.3688,-56.3985,50.0532,-37.5150,13.1851,-173.4701,-89.9302,-133.0905,28.2983,40.2609,97.8803,-47.7985,94.9735,-105.1165,76.2113,-106.8080,-44.6292
9.4468,195.1970,-16.6379,-113.8568,10.2897,-94.7619,-21.6415,-191.4859,-116.7781,-176.6215,11.2036,90.9807,32.2687,-99.2300,45.7994,-56.9767,69.8401,-134.8764,-75.5597
59.5837,66.7783,-60.9524,-135.3977,-34.2902,-88.7668,-63.8362,-191.6121,-159.5774,-137.0496,-3.2048,44.5314,-20.7646,-79.9507,10.9224,-66.4419,30.5363,-115.7138,-96.2327
43.7181,-76.0143,-72.8863,-128.1896,-41.5169,-58.3150,-107.4891,-158.3686,-114.5869,-91.1498,-8.2155,-26.4281,-71.0308,-35.0283,-77.5008,-93.3917,-27.4347,-96.3930,-70.0739
27.2937,-115.3503,-75.5347,-147.7924,-44.6869,-72.4034,-114.4796,-133.3566,-55.8248,-143.4748,8.8401,-56.9640,-97.5398,-42.4512,-147.5782,-100.5972,-44.5595,-97.2744,-16.5404
2.7860,-113.9222,-56.1356,-172.8011,-64.9460,-117.0371,-93.5017,-147.4547,-44.5027,-143.6214,-8.6691,-72.6648,-79.5741,-100.2291,-134.7071,-104.1953,1.9783,-110.3960,14.7409
-71.2204,-111.3206,6.4132,-157.0583,-38.4410,-164.4275,-73.9467,-160.5581,-8.0725,-36.0606,-71.9851,-90.9114,-45.2431,-153.1430,-105.1951,-122.7871,68.3072,-128.3676,3.5779
-81.6178,-78.0053,56.8431,-119.5821,15.3432,-190.7349,-81.3903,-173.1781,17.2184,-98.5941,-84.5600,-67.8668,-56.4345,-151.9774,-131.0429,-145.3942,101.1415,-121.5288,-66.7217
44.2293,-11.9154,29.3397,-102.0015,-12.9076,-176.7983,-129.4600,-215.9175,-44.0167,-294.8111,-28.2714,-26.6288,-117.6094,-128.0228,-183.7592,-168.6261,67.8766,-97.9158,-176.7495
130.1189,30.3265,-37.0374,-122.0175,-88.8284,-170.1385,-182.1944,-238.7629,-85.8877,-247.3157,-12.3204,-60.9450,-153.6382,-164.0197,-203.1441,-201.2244,-4.7138,-121.6062,-230.1333
28.5107,-3.9567,-61.3460,-156.6886,-92.4690,-193.3094,-197.7868,-208.8795,-51.2299,-80.9581,-82.1392,-137.3927,-134.0655,-215.4845,-185.2130,-214.3061,-39.7322,-161.6875,-190.0747
-135.4579,-91.8466,-32.0082,-136.8869,-46.4182,-163.2148,-193.7063,-180.3376,-56.4808,-152.8503,-171.9652,-137.9833,-110.6626,-167.0054,-159.4524,-172.4393,-37.4712,-112.9473,-149.9339
-181.3963,-169.0492,18.6142,-48.4960,-24.5167,-78.8713,-192.9053,-162.7831,-104.9814,-251.6004,-202.3169,-97.7671,-92.2335,-94.1933,-125.3470,-124.2933,-51.4399,-23.7726,-161.8629
-90.1859,-190.6038,61.8799,9.3708,-12.9472,-67.4111,-194.9786,-141.4931,-112.3525,-148.5547,-117.1007,-104.4859,-52.4554,-137.3968,-77.6949,-145.8986,-25.9542,-27.4563,-180.7879
55.1520,-120.4392,71.6562,-18.8644,-8.4468,-132.6912,-225.6423,-173.0306,-138.7334,-116.3201,50.6021,-94.3208,-42.8050,-205.4534,-51.3460,-202.8539,83.7118,-85.4279,-199.8110
151.4887,1.6666,51.3629,-63.7623,-37.4403,-160.4976,-283.3358,-245.5610,-207.6972,-223.2411,153.6415,-36.9586,-95.5831,-170.8548,-53.6749,-207.3118,140.6802,-90.9303,-222.7044
133.2178,23.1869,33.5741,-81.5538,-68.1375,-152.0113,-286.7292,-245.3080,-196.0815,-209.3229,115.0633,-52.4495,-116.3577,-125.1143,-38.1087,-168.5882,63.8377,-83.5535,-186.1329
49.2549,-90.2125,19.9595,-102.7216,-67.1892,-163.3447,-205.0595,-176.0475,-121.1897,-126.2026,36.2319,-144.2305,-55.7853,-147.5451,-19.1317,-144.3618,-11.5950,-124.5566,-98.2457
3.3061,-169.1023,-11.0987,-128.4634,-59.9541,-168.0250,-131.1348,-138.1643,-129.8333,-109.4537,13.7030,-173.1381,-12.5746,-157.2560,-51.8129,-121.2383,-8.4300,-169.9502,-74.6142
8.2657,-154.0403,-51.1956,-147.4509,-73.5848,-166.4379,-135.7524,-128.9235,-190.5488,-29.4793,4.7733,-132.6064,-46.5778,-130.8799,-72.0454,-70.1275,-2.6342,-188.9948,-128.0980
-9.2301,-163.2891,-86.6159,-182.4888,-111.6833,-200.7324,-183.2564,-113.7203,-170.7457,64.7836,-50.4907,-102.0915,-96.7936,-114.8690,5.4592,-25.3954,-16.5403,-197.7651,-157.6937
-81.4537,-196.5601,-125.4396,-222.5041,-154.9708,-225.2600,-221.7882,-129.2951,-82.6604,-11.9013,-114.9700,-72.0807,-118.2812,-72.6829,77.8959,-19.9192,-41.7341,-185.9506,-150.6568
-148.0753,-165.3979,-158.5680,-223.2307,-162.6242,-188.7723,-231.9973,-171.4213,-13.4309,-87.2369,-127.3605,-49.8665,-119.5871,0.1037,17.0025,-24.4280,-115.3954,-158.2710,-159.7976
-145.9094,-120.4382,-164.0397,-190.4286,-136.5738,-143.4324,-204.1921,-184.5845,9.1870,16.0306,-108.9102,-77.0240,-107.3908,9.8311,-88.5851,3.5420,-188.0222,-145.2153,-160.5612
-112.1234,-132.5171,-156.4113,-167.3336,-123.8570,-126.4669,-156.0851,-162.3398,-2.4295,98.5226,-122.5535,-95.8733,-98.9852,-38.5431,-115.7827,62.0692,-186.6789,-133.9409,-110.8652
-124.6259,-163.0776,-166.8474,-181.8887,-129.1499,-116.5015,-126.3557,-105.5029,-21.3053,73.9866,-166.9173,-64.9323,-108.8960,-48.5930,-129.0055,112.5542,-187.0374,-116.8550,-34.1898
-174.9000,-192.2736,-196.2238,-230.3867,-134.3115,-132.1946,-120.6367,3.3310,-23.0213,138.7157,-211.6431,-61.3931,-121.2374,-37.0205,-196.1535,128.0140,-255.4359,-132.4485,35.3917
-222.0821,-236.7940,-233.6637,-263.1725,-159.0584,-177.6440,-133.7988,129.1878,-6.4938,274.8365,-281.0780,-110.7403,-148.1971,-73.7832,-226.1706,116.6660,-331.9600,-164.6281,74.7700
-299.4112,-269.1989,-282.6522,-239.3149,-211.1765,-174.7868,-190.4118,221.6456,17.0154,267.0203,-379.8354,-163.0425,-220.3318,-124.3637,-170.5605,94.4094,-398.7738,-148.1877,56.7236
-422.4451,-265.6683,-334.6651,-195.9152,-268.2633,-100.4014,-274.3978,270.4653,13.6424,157.3562,-438.3748,-212.7592,-287.7989,-132.3502,-149.4476,76.1805,-462.0990,-92.6183,-11.6724
-503.4366,-230.2757,-357.6129,-167.3826,-320.6173,-36.5965,-312.3026,262.4230,-47.3475,156.6995,-431.5043,-220.5686,-285.8972,-104.1542,-239.8599,89.2444,-450.7150,-50.8319,-102.8934
-476.0128,-173.3355,-345.5357,-121.3989,-350.1841,-16.4849,-307.9626,197.0018,-124.7449,232.1633,-407.6167,-122.1578,-268.0323,-43.0553,-340.6745,124.6901,-383.8895,-27.9070,-212.7010
-389.5502,-115.4341,-340.2340,-65.6879,-341.5085,-0.4163,-340.6383,116.1179,-175.3893,193.0612,-381.0927,0.4449,-306.7548,36.0544,-347.8108,121.5685,-375.5787,-17.9617,-310.2561
-328.8850,-27.5401,-362.5516,-60.6039,-330.4832,6.2844,-391.9843,41.2542,-229.3708,90.7199,-342.1093,42.5087,-353.0923,60.6535,-300.9716,76.9939,-402.2293,-21.0567,-333.2930
-329.8814,108.4132,-373.8525,-85.0375,-335.9173,-13.7322,-381.8703,-15.3477,-267.9037,105.8739,-310.3665,57.2039,-336.7138,18.3019,-277.7459,67.3663,-391.8753,-5.0377,-290.5980
-367.9365,136.6666,-350.7250,-68.0842,-319.9983,-7.5377,-339.6112,-7.2428,-221.5277,136.5415,-299.3655,76.5840,-281.5066,7.8695,-268.4056,105.4806,-380.5804,42.4373,-242.5127
-385.1285,-42.6944,-322.5407,-24.5331,-285.4400,52.1967,-319.1584,53.3378,-147.3371,41.5108,-314.2522,39.2323,-232.9592,55.5275,-233.5748,128.2501,-354.2448,75.5166,-185.1973
-343.0095,-187.5444,-297.8989,-13.3636,-263.9020,91.0970,-275.0932,88.3953,-125.0946,41.3115,-335.4479,-12.3294,-197.0753,58.8956,-198.6165,130.1063,-269.9688,70.1506,-90.2507
-258.5668,-94.4104,-247.6169,-31.8761,-219.8250,66.5651,-188.5162,99.4803,-79.5382,237.7901,-284.4061,-2.5282,-168.7076,6.6039,-201.2749,147.7562,-226.5943,60.5955,6.6372
-206.0574,39.8850,-173.6313,-28.2977,-122.1790,57.0490,-105.0952,138.5040,7.9851,281.1266,-179.1464,8.0271,-120.1273,18.4004,-191.3199,166.0643,-252.8422,78.5664,66.8869
-245.5720,21.6053,-110.3700,28.9170,-26.5095,120.8434,-15.5395,181.0284,9.4554,82.8189,-179.7174,-15.0818,-22.6218,97.3373,-91.4925,161.8066,-207.8334,116.1538,104.2519
-291.4354,-32.7841,-79.6225,96.0377,15.3937,184.7329,64.8155,192.0750,-34.0945,16.2713,-260.9836,-5.1377,63.1007,113.0454,50.9760,154.1229,-109.9849,134.7871,132.2403
-200.7304,-15.0608,-83.4122,94.0641,17.3129,167.2135,46.9527,198.5810,42.9234,142.1682,-198.1200,15.3588,50.4257,61.2291,109.8454,163.6004,-89.6272,108.7333,154.2266
-51.1196,6.6952,-92.6119,40.4553,6.4570,110.7133,-21.7940,223.7822,149.7497,207.0553,-23.3979,-24.1537,-12.0634,53.9358,84.2018,195.8186,-64.3582,71.5429,184.2252
-25.1498,-24.5739,-70.4480,17.0606,-9.6377,95.1292,-4.6777,265.9049,122.6712,238.5843,27.2930,-72.1648,-17.5867,85.7928,89.6666,234.3321,33.5556,61.5097,204.8701
-47.3758,-85.5597,-46.3972,1.3650,-35.1731,105.4561,43.3877,305.5007,108.6432,320.8291,-14.2446,-61.8560,15.9482,87.3161,149.9655,233.9053,42.4438,53.3452,178.5849
30.1616,-108.7332,-67.4568,-53.5581,-57.9062,93.4550,16.4659,295.9789,256.2317,315.4185,9.8751,-23.9439,22.3562,99.2626,186.4456,193.7889,-57.4361,36.9216,125.1793
83.1273,-45.8303,-90.1631,-52.7630,-45.8690,90.4879,-7.3823,237.4334,358.3611,215.3150,36.0564,2.7223,24.5140,153.1727,174.3478,167.5333,-74.5117,60.9633,90.7216
5.1263,39.1363,-67.2357,59.2236,-11.9389,130.7014,9.7104,181.9647,233.5733,153.0954,3.3531,10.8265,42.7479,165.7769,137.9017,152.5736,-2.4195,110.0399,72.2276
-49.9566,79.7118,-50.3220,138.5628,-0.3901,155.6991,-26.5203,126.8171,57.9682,149.1212,-2.0871,15.8730,35.4816,134.9016,86.3124,123.3519,32.2113,106.7145,61.8940
-12.7398,125.1283,-67.0800,108.9397,7.9004,136.3674,-74.2327,77.6085,12.7590,210.2518,9.0487,70.2739,10.8249,188.8801,55.6718,132.5410,42.0559,76.7696,80.6181
20.6075,175.2714,-59.4174,102.6171,35.6547,152.9993,-38.7206,114.2557,15.8556,253.9729,-14.9776,164.9402,15.1159,317.7894,67.0405,183.9767,50.4232,103.7313,114.3850
50.3030,163.4273,-19.3673,172.4204,37.9211,221.4865,-11.9869,199.3451,-11.5266,92.8029,-10.7944,194.3320,32.4490,349.2414,55.7377,167.8732,26.9352,153.4615,130.3904
55.4145,144.7442,10.4782,211.3660,32.3280,240.7963,-54.0567,186.9509,3.2102,-99.3031,5.6336,144.9802,42.9657,267.7192,5.2134,88.2023,28.9932,155.7571,145.4079
-49.7808,153.8514,46.1310,214.8516,88.1099,204.8301,-64.2581,117.4626,62.9634,3.4329,-43.0670,132.7630,61.7573,244.1192,9.5868,79.0946,75.2691,152.5760,161.2122
-123.6352,85.3035,96.5822,272.6550,133.1798,209.5195,-50.8547,121.3033,51.6803,170.1279,-60.6658,186.7129,58.6170,307.6328,75.2839,128.6727,65.9468,191.8585,118.2600
-20.8322,3.2669,111.0278,350.1126,75.8027,239.9416,-101.5817,116.9622,-60.7934,78.8228,17.6628,225.3913,12.8117,311.8890,91.1621,122.2343,20.9242,228.1099,12.0793
61.3788,122.7740,91.7209,367.4729,13.5683,225.3968,-156.8550,4.6570,-204.4704,-32.2972,54.4411,241.1884,-14.3104,241.1900,35.5499,87.1889,54.3004,231.1892,-86.7434
13.3587,361.1303,87.1939,359.9956,21.9727,211.1351,-175.9837,-99.0028,-342.4142,-7.5868,26.1424,296.0877,-16.4464,229.6647,-25.1855,82.6171,112.8927,233.2964,-168.3383
15.0064,429.9120,76.6162,368.2181,-0.5152,243.8497,-238.3948,-103.1024,-439.6616,-77.6880,40.2601,373.5605,-62.7001,287.8080,-65.4856,55.3868,84.7661,243.4104,-259.1118
25.5898,295.6009,24.2463,357.0840,-86.4210,268.4126,-307.5769,-69.6918,-448.1294,-175.3732,29.9249,389.5049,-116.9090,299.5245,-67.6724,13.7341,19.1391,240.5091,-305.0307
-93.7498,152.6210,-39.3967,324.8893,-144.0495,260.5711,-286.4722,-27.5235,-434.4338,-77.3345,-59.1088,328.2815,-104.5368,240.1703,-30.6911,43.1597,10.2195,217.2563,-273.2026
-124.0756,145.3060,-85.3640,303.8517,-163.3094,247.4343,-240.7291,14.2319,-494.9334,26.4180,-65.3449,270.1057,-83.5648,175.9270,-27.3928,96.6904,45.8912,175.9404,-251.6340
20.6342,266.2258,-110.1637,279.5733,-172.8036,220.3207,-229.7709,-4.0678,-534.5266,-27.1355,30.6073,270.9016,-93.9141,147.2913,-64.4191,81.7099,55.5095,142.5557,-285.1416
16.6310,354.8809,-96.5960,254.8798,-141.5139,200.5728,-184.5274,-57.0332,-430.0704,-66.9727,41.1435,296.3429,-62.6715,175.1770,-40.0341,48.9721,9.9692,156.9479,-290.4930
-126.1110,297.1092,-57.6552,274.2649,-83.6206,240.7201,-118.4128,-63.5092,-307.6310,-65.4523,-9.8776,306.9564,-5.2818,242.7359,23.7823,54.1262,-25.0223,198.7151,-232.0359
-55.2670,217.2827,-35.4773,305.7947,-39.3577,292.9981,-99.7007,-41.5856,-320.6934,-122.1388,42.4702,303.1081,4.1182,259.4234,-7.5706,52.8750,18.5451,209.8362,-170.7279
131.9167,226.7535,-20.0769,265.4370,14.5928,280.4467,-60.0172,-16.5256,-351.3059,-143.4297,138.9117,267.2892,30.2260,181.0314,-99.9316,43.7253,84.3305,186.5854,-115.9603
141.7629,218.9324,12.8233,161.2655,62.8436,232.4646,54.2314,44.5680,-234.9354,-73.2492,152.5536,190.0634,119.2917,81.6810,-94.4068,57.6107,107.7501,143.6928,-26.6607
97.3255,147.5560,38.1143,60.5967,63.6245,188.2496,160.8800,104.3905,-31.7160,3.1527,129.2430,121.1789,173.4234,20.5342,28.2146,50.0634,129.5288,70.7919,80.8115
125.5373,128.5731,57.6304,-8.9042,99.6105,137.0097,240.0360,101.6701,131.2397,65.8867,131.2832,88.5117,194.9149,-20.7747,162.5220,12.3419,152.0327,8.5786,163.8426
103.6112,170.2911,115.1192,-29.3155,233.0163,108.8706,338.7991,65.3129,235.9659,75.8251,153.0786,67.5975,279.9162,-51.7504,235.4402,12.0413,140.6954,23.0326,213.5681
105.2619,162.7619,192.1517,7.7336,333.7629,132.4018,390.3887,14.0960,309.2125,-26.4006,207.2641,63.1566,349.5015,-60.5033,244.9164,23.1422,174.6022,77.1328,234.8575
255.2294,80.5508,237.1862,49.2747,311.2415,160.3300,343.0014,-63.2848,373.5976,-130.3904,268.3610,73.7468,308.6714,-54.5880,244.5103,-31.8414,276.5203,83.4011,252.3306
359.0099,2.6450,260.2461,41.1636,274.7795,146.9842,308.9563,-107.9472,440.6092,-130.9956,275.9815,44.5007,276.9654,-54.5158,264.2662,-96.4758,297.6143,28.5791,297.8373
312.7975,18.3873,270.6460,-16.3968,292.8091,75.6426,341.9666,-97.0306,470.4619,-72.8268,265.4668,-21.2132,317.0961,-91.6317,246.4118,-84.6012,231.1333,-61.4086,332.6203
287.9880,80.4035,230.5904,-108.1963,278.2984,-52.5233,322.2132,-108.5696,429.1104,20.1110,279.6669,-64.2760,300.8141,-172.0034,174.4312,-38.8393,244.5305,-150.8424,288.0508
254.7742,3.5720,151.5902,-190.1685,194.5000,-150.2502,215.4388,-131.9731,356.9647,94.3002,233.3761,-111.0126,214.2887,-228.0627,146.0443,-12.5886,305.5007,-171.3071,197.9728
70.8418,-191.4181,91.2775,-200.8778,119.5621,-133.5729,142.8620,-69.6130,283.7729,61.0400,81.4738,-198.2560,158.7447,-208.4897,182.8981,16.5443,251.1097,-120.7180,147.8279
-78.7901,-240.1001,36.4538,-174.8461,81.3680,-78.1270,115.5713,44.2681,184.9326,38.6756,-48.6773,-249.7701,89.7446,-165.8641,160.5810,42.5827,115.0786,-93.1760,121.7244
-4.8122,-130.8982,-60.5682,-188.7049,21.4684,-73.5301,16.0541,87.7796,77.2251,114.0668,-65.1351,-221.9330,-51.2666,-158.0193,15.4801,23.7596,-10.5507,-108.1737,48.1254
85.2396,-91.6543,-167.7029,-203.9211,-70.4463,-76.1211,-133.6081,40.6042,12.9587,71.9509,-65.0251,-190.5952,-165.7997,-169.2481,-164.0565,-27.2265,-151.5214,-101.3400,-57.7955
-33.6809,-98.6952,-228.6776,-171.3608,-139.9396,-59.2859,-200.6466,-30.4635,-18.4335,-109.1877,-156.4824,-188.1235,-209.2444,-165.3627,-268.7278,-56.0899,-280.2249,-91.4934,-128.0029
-245.1028,-58.6511,-262.1169,-154.9879,-190.0756,-48.1475,-210.4539,-54.6096,-57.8061,-114.1692,-287.7051,-169.1724,-262.3183,-124.3755,-281.6822,-24.5471,-318.3614,-120.5086,-159.8054
-353.9278,-128.5514,-305.9029,-168.7558,-268.2290,-3.6218,-281.8604,-4.4033,-104.4764,48.1223,-357.6880,-133.2430,-325.5195,-57.2814,-280.7137,52.5830,-309.2060,-127.6723,-200.8616
-365.0641,-277.1411,-346.0518,-131.8445,-342.0739,67.8548,-378.7755,54.2378,-159.4675,62.9004,-375.5960,-103.2687,-342.7797,-20.2200,-332.4380,92.5396,-318.7906,-81.9307,-261.6492
-366.1831,-186.0601,-361.8920,-59.4163,-352.8785,75.4207,-402.1616,45.8991,-248.6862,-67.4243,-402.4731,-66.7912,-344.3234,-15.4516,-399.7491,44.4606,-327.5465,-49.0121,-310.7109
-349.4557,95.9097,-361.7879,-21.4269,-334.6531,54.6618,-385.1845,4.0380,-350.6242,-142.0022,-427.8517,-23.8418,-362.7411,17.7326,-424.5587,-17.2124,-329.7895,-36.4624,-330.5333
-290.5278,207.3361,-351.3468,7.8350,-334.3909,94.2430,-383.7545,-23.8977,-387.1947,-152.5747,-412.7607,16.2213,-369.5821,57.4226,-404.8711,-16.8459,-330.4377,-4.7054,-337.2271
-267.2640,137.9041,-331.3129,40.3308,-337.3322,108.9125,-362.7234,-64.2053,-325.1638,-144.3716,-373.5309,66.1970,-360.7035,48.0361,-331.9599,2.4186,-290.2664,5.7009,-349.2512
-309.6249,84.5863,-312.4657,25.9766,-344.2130,30.3608,-311.3534,-106.3786,-224.6614,-100.8962,-337.3592,103.2146,-346.4455,35.0837,-230.1888,-8.8118,-217.1167,-34.5100,-353.3170
-291.6212,16.6179,-290.8768,-6.6494,-356.7924,-28.2584,-275.4070,-96.1006,-154.7071,-47.6173,-289.4055,73.8530,-306.6677,37.1728,-198.4857,-24.6440,-168.2315,-64.1551,-320.7776
-163.2895,-70.2878,-251.4786,-16.2824,-328.3761,-32.7054,-251.2830,-69.5143,-118.0959,-34.1964,-201.8753,3.7192,-246.5773,-6.6873,-206.0436,-30.8342,-137.5617,-62.3346,-262.6804
-27.9582,-13.6025,-202.8410,-54.6418,-265.8642,-74.5683,-201.2631,-97.3517,-94.2485,-92.1689,-65.1338,-9.4016,-198.1120,-53.2565,-96.5415,-40.0821,-83.1871,-70.6255,-219.9699
98.6588,143.7851,-148.8491,-108.1469,-223.7353,-117.7356,-130.1370,-141.7224,-77.7640,-174.5737,90.1011,69.3108,-163.5659,-29.1006,61.1507,-41.4791,3.9036,-78.7512,-183.6464
245.6665,193.3997,-62.7670,-85.1788,-166.7642,-86.2856,-67.0487,-133.8480,-40.3641,-155.2903,196.6656,160.4884,-132.6135,-6.4709,60.9138,-41.6131,117.9192,-62.5001,-110.2511
305.7531,146.6465,50.8197,-26.8943,-56.1558,-54.8063,-17.4672,-103.1737,46.3026,-79.8070,230.9146,164.6724,-91.5497,-23.2835,-7.6932,-66.8450,221.9807,-51.9262,-22.0403
255.7517,121.9872,142.8095,-24.7771,38.5334,-73.3481,51.6034,-101.7387,147.4446,-118.0070,236.7507,75.6665,-17.5805,-17.5049,54.3346,-96.8545,259.4470,-55.0288,31.2537
259.0942,74.2649,203.0111,-26.4790,86.6007,-78.4176,154.1441,-99.5416,219.6421,-171.3562,236.4016,-22.6049,54.4960,-54.9688,137.4200,-119.0731,254.4738,-41.9633,75.1605
336.8911,-15.8141,259.0052,17.8040,130.8566,-76.7008,208.3940,-65.8506,258.0482,-98.6218,226.8382,-64.1898,50.1073,-198.1790,96.3357,-182.1998,290.3557,-23.7095,130.2305
358.4305,3.1367,300.8497,38.4595,142.3089,-115.7194,151.5015,-62.9578,232.7293,-107.5306,239.3299,-57.9360,-8.5423,-277.7708,67.8434,-269.8762,371.7304,-22.9192,133.7702
336.5302,159.4641,306.8485,15.4727,98.2053,-143.9618,91.5306,-137.5278,135.8239,-283.0815,271.9850,-37.1606,-30.1135,-199.8920,148.4297,-271.0099,422.7396,-19.8476,77.7563
331.7073,251.6059,294.0868,8.4737,75.9852,-128.1596,126.3395,-210.6376,77.6234,-320.5548,260.7418,-14.0068,-12.6799,-127.1595,209.9094,-184.3860,401.2734,-9.0258,48.8068
288.6222,191.7701,272.1362,15.7785,90.4733,-125.8761,153.4306,-207.2527,126.0327,-144.5668,204.6749,6.5210,-20.2143,-125.5588,201.4557,-151.1376,338.0699,-19.5678,50.8288
197.1802,114.4018,223.4144,3.1213,76.9294,-141.3559,94.6400,-176.5310,162.4135,-13.3085,160.5144,7.5456,-54.0257,-97.8001,202.7423,-204.5781,273.6262,-48.3804,10.5910
116.4872,78.7885,153.7851,-16.4143,53.7415,-128.9321,47.8166,-171.5019,88.9890,-15.9067,112.5560,-21.4324,-65.5950,-48.1083,194.1483,-217.3320,202.4677,-61.7198,-55.0667
46.4878,20.7750,87.4731,-25.7858,52.7895,-119.9202,48.6864,-167.1438,-28.7471,-108.4989,24.5556,-57.3167,-37.6130,-17.7014,103.0258,-148.4251,114.5114,-50.3539,-90.5861
-19.5983,-36.9097,35.3315,-26.7616,30.8294,-154.9617,17.9702,-149.4622,-129.0254,-238.1772,-67.8243,-79.1046,-2.1101,11.1994,-31.2832,-104.5349,34.8887,-19.8443,-101.4767
-86.3791,-48.0400,10.2861,-22.0125,-3.2022,-181.0678,-25.1050,-121.9033,-203.6885,-230.2165,-134.6145,-116.4317,-7.4599,-5.4894,-119.7272,-130.2429,-46.1945,30.8560,-75.6500
-173.5669,-63.0215,16.3630,-17.3999,-0.9817,-142.0980,-22.7238,-70.6800,-211.4254,-110.1245,-169.7410,-180.9259,-52.3912,-61.6718,-138.4203,-161.6557,-167.8273,83.6034,-4.6145
-186.0713,-96.2636,25.7137,-2.9914,4.3958,-65.3297,-25.8465,-32.3141,-167.8561,-167.7670,-130.8048,-211.9090,-72.0848,-19.0736,-120.9642,-170.0859,-276.7282,107.8597,25.2798
-58.5469,-130.4633,25.2724,27.5692,-4.1777,-1.5363,-52.1059,-46.5017,-162.3225,-331.1419,-31.6616,-198.4285,-36.4177,100.7670,-96.3352,-159.9610,-295.7259,107.2694,-20.0008
5.3477,-222.5797,38.4615,36.0979,28.0034,30.5792,-33.0886,-44.6449,-177.5393,-266.7405,16.4817,-214.1241,5.4667,121.6642,-63.8057,-107.0106,-269.4243,105.8477,-32.7397
-117.8649,-321.5478,69.8975,13.6898,91.1827,30.9314,19.0095,22.0291,-131.9979,-52.6946,-22.0836,-244.9787,19.0605,60.6509,-41.5915,-38.7936,-245.2665,102.5647,26.8928
-197.0334,-260.4854,101.3142,15.6553,128.8164,13.6528,54.9314,82.8598,-49.1908,72.6465,-66.6117,-209.3232,26.8566,20.0401,-67.2360,-30.6862,-188.3658,94.3185,79.1540
-104.3066,-117.3338,133.4846,38.7640,147.6478,3.7855,114.9154,115.7986,35.0010,133.5414,-63.6214,-160.1143,43.6743,-56.6462,-96.9170,-64.4185,-129.0412,94.6574,112.9006
-4.3915,-119.9391,167.1957,24.0719,161.9380,2.8692,203.3811,164.9514,135.2508,133.0294,-10.3024,-190.0533,62.7770,-158.7406,-40.6689,-68.6236,-108.7569,82.9471,166.3950
37.3214,-214.9101,186.8044,-6.0421,165.6239,-11.4766,238.4386,188.5062,197.0799,78.0419,62.6499,-226.8720,90.3992,-134.1827,77.3045,-45.9939,-41.3372,27.0591,217.4972
50.0344,-227.4333,192.4664,-3.2955,182.9829,-38.5319,226.7341,166.0507,193.4774,160.9934,68.9505,-178.1908,124.5555,-7.8915,160.5972,-7.2143,73.1121,-26.8611,259.3380
-14.7531,-191.7232,188.6002,-1.5065,207.5719,-58.5789,239.0630,187.3076,238.0821,325.4537,4.7717,-99.9685,131.4028,48.9020,186.0356,57.8521,76.4013,-21.4674,301.4525
-65.9030,-170.1274,159.5901,-24.1979,186.7241,-76.9546,240.2848,236.9904,347.0386,298.2140,7.3864,-60.9603,92.4863,23.9515,178.2412,86.3667,-12.4364,-7.7162,290.3822
20.5022,-135.3436,111.9286,-43.5518,128.2790,-101.8262,188.3494,198.6443,379.7847,192.0844,94.3951,-54.0696,50.4465,20.2127,171.9133,46.5929,-26.8219,-46.6386,224.6479
81.2063,-108.1146,83.1673,-78.7840,80.5295,-116.7352,165.5025,113.1977,343.5399,225.3293,118.1146,-72.0224,59.0509,55.5442,213.6437,37.3226,2.4070,-96.9439,194.2205
9.8917,-79.6996,80.2063,-151.9987,47.5376,-127.1285,203.7270,89.9698,350.4604,251.4655,80.2460,-96.1810,93.6972,58.2911,256.8486,76.0201,-6.5684,-118.9318,188.2029
-9.4610,-15.3388,79.7837,-194.3334,21.0271,-151.4624,188.5384,91.8551,342.7917,203.6960,96.9635,-84.9584,82.1450,-19.0273,206.7153,52.8658,34.8103,-123.8569,117.9362
31.5944,-13.0740,79.3494,-143.7987,-4.7390,-153.6014,88.7490,65.7381,266.9679,210.2016,108.8764,-45.4573,30.1201,-85.7802,140.7004,-3.7486,116.7200,-91.6848,15.2126
-6.3725,-72.0795,82.7160,-45.8204,-44.6415,-111.4506,26.9505,32.9602,243.1714,160.5059,60.0228,-9.3455,9.5222,-22.6658,180.4443,8.3743,93.4525,-37.0477,-50.7962
43.6493,15.9886,79.2323,12.3365,-73.2969,-102.8939,29.3860,-33.8857,268.9362,3.7787,115.3830,13.6921,22.8346,57.9849,215.2365,9.6340,31.9869,-56.7930,-104.8501
289.9957,198.1904,76.4606,-2.6750,-62.9990,-167.5917,-5.7885,-142.7315,189.4979,-4.6060,309.1536,3.6485,14.2059,-8.4906,126.3902,-70.7750,92.4171,-132.6811,-146.5944
406.5480,181.2223,90.7218,-35.7001,-49.9652,-195.2196,-62.0110,-190.0024,68.0802,94.0460,380.1332,-19.7362,-8.9468,-66.4501,51.0162,-107.6237,187.2107,-110.5006,-131.1644
227.2221,35.6509,103.0582,-7.1765,-43.4695,-107.1897,-34.4563,-148.8884,73.2816,-12.5619,231.3983,23.0628,1.7433,63.6323,87.9657,-62.2734,179.7776,10.5492,-100.5478
37.8133,47.0831,92.1594,55.6547,-9.5993,-3.5813,28.6044,-130.6906,89.8672,-205.5623,87.5885,105.7454,37.1302,175.1281,99.4997,-67.1482,130.4674,64.8218,-108.6456
23.3094,154.5499,77.4087,52.9115,6.7979,1.2331,7.8050,-167.3285,-49.7413,-178.2550,82.9743,99.2050,42.1650,76.0518,12.5058,-116.9518,106.9177,20.9971,-106.7789
84.1659,159.4712,72.5382,-1.8552,-34.3434,-49.7312,-63.9607,-171.2301,-184.2099,-34.8055,123.2685,12.7016,-14.4451,-40.8929,-65.6487,-85.2847,81.8663,-0.0498,-51.8226
111.4290,81.9027,58.3052,-5.5400,-42.1576,-50.1139,-88.8820,-103.2213,-118.5642,0.6795,123.4370,-29.4185,-90.7203,-13.1719,-73.1489,-4.8597,61.7490,39.8714,21.2446
49.5394,-1.8256,32.8078,34.7390,27.0456,-1.8566,-63.0263,-18.4068,4.8842,-56.2621,79.8738,-19.6499,-93.5580,40.1588,-36.3107,-3.1702,59.5239,69.1399,74.2346
-42.9703,-30.3847,10.2686,19.8364,62.2834,1.0035,-26.7868,15.0534,-15.9625,-116.7544,21.5583,-21.4336,-22.6801,38.1924,16.5749,-74.2073,31.9645,41.5966,91.3347
-7.5672,63.5552,-24.0466,-60.1893,12.4012,-67.9416,-16.8525,1.8051,-101.7348,-107.5621,2.4255,-24.2875,-10.4918,14.0026,35.8289,-99.0810,-27.8548,-20.2101,85.4213
91.8262,151.6355,-74.2122,-128.2572,-37.9024,-132.4903,-59.8505,25.2992,-93.2547,21.9182,15.3169,-28.4753,-99.8955,-56.7429,-4.1481,-20.1837,-69.0152,-70.9337,114.6897
31.5778,30.5752,-100.7925,-161.1244,-43.8033,-155.2072,-105.5106,121.3470,-22.4638,208.6640,-15.6320,-87.4435,-160.4212,-160.4331,-47.2188,65.2876,-74.4906,-97.0258,195.9976
-126.6522,-203.4674,-98.8907,-198.9496,-41.3890,-172.1439,-83.2972,223.6175,12.2227,343.5234,-82.1173,-172.6042,-130.5365,-192.8769,-50.4448,43.5841,-74.9977,-110.0362,259.0684
-171.4805,-289.0832,-112.3999,-232.2414,-52.0816,-171.2540,-33.2740,284.7289,15.7020,337.7861,-112.1625,-176.7582,-89.4899,-135.2378,-30.8045,-5.2391,-83.8388,-97.0691,260.0081
-126.4456,-158.2087,-131.4185,-195.7341,-64.7003,-111.5742,-19.3965,303.3993,17.1495,156.2157,-113.0183,-82.3046,-59.6370,-55.6425,-15.7315,50.5682,-62.2839,-56.1952,227.9311
-78.0791,54.2902,-107.5236,-99.8762,-64.7353,-42.7824,-20.2283,259.2516,9.9212,-7.6401,-97.2220,5.7647,-16.4444,2.6459,-50.1925,126.2754,16.0414,-37.0838,190.3067
-4.8534,158.0129,-66.3836,-46.0734,-57.5019,-35.7522,-26.2923,180.9600,16.6243,87.9941,-18.4412,11.1185,-14.1399,-3.9134,-137.6454,100.8022,79.7095,-52.8766,155.9554
55.2776,97.9721,-62.9060,-67.5800,-63.0019,-68.5934,-56.8691,145.5032,55.8072,278.5277,80.0568,-13.1322,-66.3059,-78.4834,-165.6081,53.3750,49.0367,-56.3167,119.7980
60.2940,38.5306,-73.9965,-92.4438,-68.7016,-91.5505,-63.8224,126.3752,79.5399,258.6110,84.8836,10.9707,-79.0661,-117.1044,-83.8093,50.2808,-19.0703,-43.2455,53.4891
65.8628,47.8910,-53.0669,-78.6097,-46.1891,-84.8219,-13.3685,59.1340,57.4427,117.8466,15.7084,46.0131,-28.1669,-71.9806,-31.3621,30.9778,-26.1829,-27.3393,-26.0147
55.8420,-21.0689,-9.9375,-43.5808,-8.2491,-33.8459,38.0213,5.4101,17.4207,41.9106,-25.4770,21.4017,21.6747,-44.9246,-87.1453,16.2597,15.5079,22.5354,-48.6697
-11.3472,-111.2097,25.3149,-3.8186,30.4705,31.7674,63.3326,17.0027,-33.1884,-35.0094,-27.4075,-17.8922,58.9519,-78.2710,-130.2406,47.7695,48.7079,73.5220,-22.4105
-35.7657,-10.3152,33.8574,12.8450,74.3114,50.6665,83.8880,16.4839,-81.8937,-93.1143,-22.1688,-0.8779,85.2074,-74.6085,-91.1751,35.2196,49.6602,39.9844,-23.9754
12.7560,127.5028,9.1066,-3.7098,88.6919,45.0655,82.3463,-22.4875,-70.2500,-0.7490,-22.7948,30.0921,62.8471,-5.3137,-65.7792,-23.5043,6.4223,-22.4261,-44.8446
0.0027,38.8370,-22.3297,5.4867,50.4677,76.3219,59.6948,-29.0641,-16.1793,108.9984,-64.4495,15.5931,13.0676,31.6408,-114.7708,12.5044,-44.8249,4.2776,-30.0458
-81.3960,-99.4534,-37.4873,61.9088,8.9578,105.4638,48.4695,-11.4686,-24.1794,63.7917,-137.7908,-2.4882,-15.2439,-2.8227,-177.7786,107.5432,-33.9493,64.6629,-15.1602
-122.3419,-30.0728,-61.5349,93.3663,-18.5950,69.7665,10.3298,-30.0326,-94.9770,-8.4272,-156.3029,37.5582,-54.3944,-34.5293,-197.4093,87.6303,21.6724,48.8066,-51.0732
-139.5250,130.8521,-100.3779,86.5789,-70.7329,14.9249,-88.2513,-59.4871,-131.4225,-2.5694,-117.8578,114.6846,-131.5405,-17.9836,-201.4584,-24.2783,45.5875,10.8965,-98.1393
-157.8512,191.0409,-111.1344,111.2558,-124.9686,14.7355,-174.5329,-52.3566,-135.8406,-30.9604,-120.9689,157.1152,-198.9199,11.0402,-240.4586,-78.2919,16.4594,42.9230,-121.0894
-111.2423,141.9761,-91.5598,163.5411,-139.1982,59.7673,-202.0676,-27.6328,-196.9626,-112.3369,-169.4746,138.8683,-234.4261,30.7247,-276.9560,-55.1012,-60.5854,104.3274,-155.1381
-46.2961,60.3058,-76.5553,182.7821,-137.4917,88.7993,-208.3285,-23.9239,-322.7864,-146.1824,-181.9639,115.9107,-248.9728,55.8420,-240.6823,-28.6290,-159.4218,114.3675,-205.1431
-73.8728,55.9667,-57.9341,162.5344,-127.7759,57.8051,-199.4068,-48.6216,-423.3201,-140.8470,-158.3834,129.1813,-224.3839,56.4507,-193.6331,-36.7995,-191.5960,70.2815,-219.9525
-128.3355,135.0204,-30.8363,114.2796,-100.1102,-21.1510,-174.6843,-70.4873,-419.5267,-123.1634,-137.5249,123.2670,-172.2480,-16.8552,-216.7678,-59.9121,-138.5370,20.7111,-200.2316
-99.5963,133.5645,-33.1852,49.5864,-107.3222,-92.2670,-165.2317,-53.4913,-326.6283,-45.4979,-101.8145,60.3736,-131.3327,-121.4679,-190.4214,-57.2806,-115.1524,-3.6554,-195.4916
-53.3617,24.0108,-54.6200,20.3375,-154.0568,-121.5506,-129.8380,-16.3490,-230.3168,39.4003,-58.4539,5.6505,-77.6980,-163.6044,-18.6282,-48.6705,-164.5705,-13.3136,-190.3289
-84.5035,-44.4281,-42.3284,42.1483,-148.1299,-105.4571,-24.9284,4.3750,-173.1694,-10.9353,-56.2207,-14.1452,0.6991,-130.7473,113.6924,-82.3557,-200.8718,-19.2278,-131.7371
-137.5727,-80.7852,-16.5803,52.7011,-95.0244,-43.0565,49.4588,23.8099,-131.3215,-180.0205,-71.7208,-57.1750,33.5900,-81.4518,74.3787,-107.8034,-190.8960,-13.6545,-46.6191
-123.6251,-137.9769,-33.4369,19.0917,-91.5327,17.5679,23.8528,54.7618,-94.9298,-275.1812,-50.4057,-98.9659,12.1236,-56.5073,41.3922,-73.1058,-159.4664,-17.2131,9.0711
-82.5429,-97.5983,-68.5090,-28.2364,-107.6510,5.7606,6.3480,77.4403,-55.1802,-177.5379,-30.1825,-55.7240,19.8933,-56.0638,130.5646,-58.3196,-99.7324,-51.3438,53.1839
-106.2318,3.7917,-56.7417,-50.7837,-55.8830,-33.2690,52.8218,101.4539,7.2946,5.0043,-57.5200,18.7957,57.9725,-48.1656,206.1455,-90.4072,-46.4228,-71.6887,93.6195
-150.5454,-35.0123,2.1098,-18.5549,12.3437,0.1763,60.6887,122.2006,26.3088,72.1843,-63.8706,14.1232,54.0132,-12.5888,198.7339,-57.5500,-61.0085,-54.6133,70.9555
-92.8153,-101.0684,43.3393,43.2157,11.6975,63.7287,3.8389,80.6390,-67.7585,-7.1806,15.1194,-21.3072,20.4820,9.6515,163.0772,38.7268,-91.7765,-57.4190,-1.5733
11.3127,7.6983,23.8739,58.9706,-22.9430,61.5144,-16.1095,-4.9668,-162.4172,-81.2356,89.9665,19.5096,20.0180,-2.9774,96.3820,74.6813,-53.5120,-79.9056,-28.8688
-20.1711,70.4740,-13.5897,40.8817,-27.6050,41.4890,17.0794,-34.7456,-130.1385,-78.8779,39.0269,90.6878,50.6821,16.8770,49.5378,66.2628,11.8678,-51.1854,-18.0020
-155.1886,-104.3707,-8.5333,61.0048,-16.4198,76.8698,10.4804,-13.6463,-65.7866,-68.4992,-83.5556,83.6427,67.3835,90.7413,133.1170,105.4018,23.8726,-3.6718,-48.5589
-167.6890,-197.2496,3.3859,74.5837,-31.9765,106.5962,-56.6709,-22.7185,-83.7015,-51.4897,-105.4600,24.4668,42.0921,136.0100,231.7648,151.6056,-4.7604,-20.4710,-94.5193
-17.9001,24.4814,-37.9530,20.3932,-61.6705,76.4557,-95.4584,-53.0809,-105.8805,-8.8471,9.5369,14.5406,-6.8305,132.4644,138.6788,139.2751,-27.0636,-50.8730,-89.2274
90.5428,234.2758,-84.0832,-11.7192,-45.6905,47.0612,-56.3547,-67.6797,-54.0632,-55.1394,99.1058,51.7901,-21.0471,128.5563,-29.4184,103.0909,-44.2276,-11.1510,-49.2397
36.9435,122.5334,-76.5418,30.6343,23.8580,50.7849,6.9003,-81.0644,20.3946,-175.8658,37.7144,55.8258,16.1600,90.5571,-14.6281,83.6960,-84.1458,47.3559,8.5401
-78.4511,-117.9855,-66.8182,36.3607,74.5014,36.8180,63.9047,-65.8139,79.4485,-104.9061,-90.2712,21.7077,58.6702,-0.2864,133.0086,93.6361,-145.5122,44.9310,98.1468
-132.3822,-175.6987,-88.1800,-24.6932,75.6218,4.8102,154.3869,17.1622,133.1055,151.4812,-136.7068,10.5623,97.4095,-33.2874,191.5302,151.2994,-180.5294,9.7512,178.2696
-130.6709,-77.9139,-78.0637,-36.6193,79.8012,18.9110,236.7910,94.9090,162.4050,206.7948,-91.2305,18.6736,152.7003,28.2281,137.0349,219.0909,-150.3247,9.2733,208.3386
-114.1999,-49.4522,-23.1069,12.9017,101.7201,76.6591,204.8574,87.7724,159.2925,28.5665,-35.8903,-10.5336,182.2411,71.1912,89.1477,219.9748,-78.1951,45.5276,219.0739
-68.6616,-139.1965,15.3531,23.0752,109.2026,102.5032,118.7856,50.3458,164.8205,16.8206,-7.7451,-68.4041,155.8582,69.1420,87.4679,171.8464,-9.2584,65.6621,224.0511
-14.8663,-189.7936,37.7279,-9.8589,129.3147,75.6128,131.3598,60.3837,203.2923,196.8020,3.9158,-88.6460,130.9708,84.2214,94.9299,160.2122,35.8909,50.0507,209.3651
-16.2523,-111.1708,88.7228,-9.6791,198.5993,56.6505,193.4891,90.6711,233.1353,224.5461,12.1581,-49.5061,133.3284,78.1190,92.7003,174.9552,48.4666,47.0910,209.8340
-29.7279,-1.0091,153.9762,36.9658,265.0720,79.4464,169.0307,79.7946,197.9752,112.0988,26.3369,9.7875,125.8500,30.9354,83.8942,133.7188,37.7574,81.4702,236.4663
24.6621,18.9248,198.1791,91.3488,276.0099,109.2544,122.0322,33.8244,135.9939,101.0184,34.8696,52.1023,128.4838,51.8422,65.2959,59.3474,33.0306,107.2916,234.6519
76.6899,-38.8949,223.5998,129.1518,266.6900,121.3756,159.5892,6.6323,154.0053,141.7559,26.4814,71.9599,171.4436,137.3314,46.8122,54.9068,40.8271,109.0718,214.4067
58.8726,-67.4707,236.8030,143.0500,268.5963,130.4871,207.4303,16.1742,235.1021,111.8394,45.5799,72.9336,196.6193,133.0780,59.7740,101.8601,54.1687,119.1579,237.7210
73.6486,-25.9093,233.8709,134.0109,244.2733,135.7033,195.6531,30.1810,253.9567,73.1905,125.0474,60.5694,173.1598,47.9578,91.7557,99.1565,84.8454,117.7460,265.2425
166.1546,6.8553,219.9196,113.0955,180.7028,122.7085,191.8704,40.8110,216.0383,57.6623,197.2009,65.9328,160.3611,36.6928,86.4716,79.9457,125.4683,72.5002,218.8090
224.0112,-0.4902,204.3150,94.0131,139.2655,102.9759,218.4857,62.9917,211.9478,47.8409,202.8994,115.2269,171.0238,88.0352,63.1924,117.7438,153.6793,25.7968,131.6453
217.1409,45.1836,198.2873,78.0510,155.8908,84.4900,218.4331,53.7038,205.5206,67.0924,191.4574,168.0582,165.4561,87.8819,84.4153,118.9161,189.6237,15.3812,83.3151
204.7346,143.3195,210.0096,58.6770,185.0316,61.6062,205.2675,-18.0799,148.8413,60.9748,201.7628,174.2951,162.2214,73.5774,92.8449,24.1562,239.7212,20.1486,89.3719
183.9519,150.6529,222.9216,52.0908,186.1237,64.2422,210.4326,-61.4547,100.2729,13.4218,205.5673,161.0315,175.7299,123.8132,25.6676,-6.2448,246.5248,30.9085,119.0776
186.8018,68.0106,213.8294,77.7299,170.4954,114.3941,181.9362,-8.3732,54.4811,57.7114,216.0451,154.0140,155.2844,163.0646,4.6906,90.7529,204.2624,45.3340,127.1885
269.9059,46.1417,191.3793,100.0622,140.3101,149.6348,102.3904,46.1633,-29.0915,148.5325,261.0210,117.3530,102.8432,109.2987,105.1932,132.0984,191.2293,39.0685,88.5199
332.9817,80.9246,177.7041,78.3455,85.7689,120.4158,49.2699,21.8113,-49.6333,79.4940,290.2051,71.7181,84.9318,50.7159,159.1957,66.5091,221.7637,26.1363,42.3932
279.7717,60.9317,173.3667,51.2647,37.9191,90.7697,50.7489,-16.4923,50.1103,-58.9136,272.2789,92.5524,97.3649,89.0257,88.2923,54.2847,235.0658,35.8229,33.6722
214.5659,19.4644,168.2930,61.6123,33.8675,108.9704,55.3705,-19.9426,132.2755,-51.8947,254.1960,146.4563,92.1290,148.2104,64.2380,103.2237,226.1065,39.0395,42.8474
214.2549,40.3415,160.6315,74.6567,65.7249,112.5031,51.9795,-21.6691,111.5599,16.4695,245.1372,149.4336,86.8269,118.6932,122.2802,86.3453,223.2436,21.5950,48.5313
216.9753,100.1305,150.0863,62.9976,103.6157,73.0869,56.7266,-10.6434,41.2840,35.9036,219.2631,132.0134,105.5236,61.7780,90.4458,38.2859,202.7577,23.1953,69.8675
215.0622,156.3769,127.4288,46.3019,114.8573,52.2934,45.0679,50.2140,-43.5622,85.0691,193.9425,138.9137,114.6191,65.0191,-9.5334,48.5074,148.0135,31.4380,105.5779
208.1467,183.2543,80.6008,19.3967,86.8560,53.9625,25.3426,127.3165,-83.2495,130.5182,154.1303,124.0995,101.3537,53.9381,6.3886,62.0198,93.9546,8.3095,129.1882
118.7888,137.6525,16.7082,-17.2199,57.0994,35.0999,49.7479,175.2397,-15.5965,68.4637,64.0720,83.7195,98.3484,-15.3212,103.8176,36.9939,53.6125,1.1975,131.4182
0.5395,48.9564,-34.2087,-16.3178,44.7923,41.2050,84.4746,191.7994,42.0711,-16.8888,7.0544,75.5757,110.4862,-10.8332,118.2842,40.2197,6.3927,42.5079,107.5297
-7.1485,6.1076,-54.9069,12.2541,14.0767,106.5041,62.7419,173.5956,-11.7045,-23.9287,55.4231,80.2943,116.7475,94.3968,65.2219,78.4942,-34.7051,49.6781,66.3981
26.6723,6.8925,-61.6947,-6.7703,-16.0705,133.6858,46.1511,128.0287,-18.7984,35.0548,87.3188,53.9873,113.3747,127.9407,48.0154,89.9372,-36.3401,-19.3922,47.8817
-16.5576,-3.2117,-73.4398,-64.8262,4.9116,77.4106,91.1430,89.8768,118.2252,129.6195,16.4698,33.9700,96.0358,65.2708,60.0411,95.0467,-6.2659,-71.8487,51.6352
-26.2745,-11.3353,-83.6157,-81.4291,18.1570,46.4127,91.6751,59.3897,213.0675,164.5884,-21.2823,46.3811,63.1223,57.5311,57.0851,140.2017,17.6720,-41.2513,24.4664
86.8190,-2.2557,-71.7352,-50.9873,-18.3663,75.1678,13.6761,16.8229,152.6132,95.1337,49.3079,57.3051,51.3146,91.5149,51.2418,165.1689,12.7984,19.1857,-26.0925
163.4787,-4.0310,-28.4854,-25.0608,2.9662,66.0592,18.8021,-13.4349,63.8614,77.1376,93.9002,64.7201,90.2281,66.0181,58.7624,103.3591,-16.7150,51.7208,-39.7820
78.1178,-3.8438,27.8916,-9.6026,99.0741,25.8523,124.5364,-22.6071,48.6868,107.3912,49.4606,87.6614,141.2057,54.1648,60.6173,17.9295,-42.6829,67.5801,-29.9356
-53.5812,25.3060,63.6214,16.4238,116.5040,51.0795,127.6357,-51.5424,89.5520,-38.5122,14.2960,95.3389,153.5323,97.8016,43.2231,-7.9019,-34.2063,87.2151,-43.6902
-83.9376,36.4452,69.1478,51.3508,52.2762,102.1628,19.2843,-85.8582,134.1947,-220.3290,20.4123,54.7001,138.5745,59.5035,34.3892,-11.7342,-2.3306,105.8294,-52.0098
-28.1010,-7.6752,71.1734,88.1658,56.9898,89.0414,9.9097,-68.5553,119.6262,-116.9753,13.5134,-6.3551,129.7604,-53.3162,46.9421,-56.9336,13.6956,127.5396,-24.5890
22.2466,-40.3349,93.0013,127.4377,112.0786,65.5211,96.3834,-37.0299,56.2847,42.1534,12.2368,-30.8325,123.2078,-48.2334,16.3814,-112.1414,14.5223,158.4218,-6.8507
50.1694,-1.8020,120.6192,157.1921,104.3821,91.3712,90.1854,-62.3703,25.2125,-80.1340,62.6536,-5.0839,103.8983,56.7967,-78.6807,-129.2469,22.4455,166.6614,-19.6740
83.2840,62.3571,120.8082,151.5310,69.3295,91.9367,7.3607,-97.8446,3.2404,-222.9990,114.8350,19.7328,81.4646,57.5629,-107.8044,-122.5204,20.2290,126.1144,-20.4503
89.1347,105.2150,87.5030,107.9351,64.3661,33.6161,-7.8365,-72.2008,-78.7480,-138.6046,97.9799,14.9805,67.2226,-41.6569,-7.3052,-117.1227,12.2087,79.9568,-8.1424
50.9648,128.5327,52.6803,67.7764,47.7628,11.7484,12.3668,-34.2520,-139.2043,-86.8394,49.1324,27.3716,50.9097,-66.3950,55.0882,-126.4428,57.9430,76.9779,-22.3449
47.6812,75.2752,39.3179,62.1251,9.4867,57.7421,-27.9418,-49.3710,-89.9847,-177.4429,52.9559,56.2161,20.9703,-2.6201,-23.4237,-160.1925,125.3249,91.4766,-49.1870
92.1538,-85.8882,29.3019,62.9216,-14.8926,78.8536,-79.0903,-79.3318,-15.1124,-181.2064,93.5555,21.0797,-12.0035,22.1212,-84.7678,-186.2388,83.8084,82.0197,-53.4805
81.5039,-168.6415,-2.5160,36.2424,-26.1419,31.1401,-67.5288,-71.4964,4.6522,-120.9325,83.4765,-53.0610,-24.8048,-25.2889,-20.9552,-169.9946,-50.7144,56.6734,-49.5191
16.3218,-16.3600,-52.8577,-6.2810,-25.2875,-28.8856,-19.9171,-41.5697,3.2192,-179.3539,21.1908,-52.8241,-9.0325,-74.7776,54.6201,-149.3486,-116.4802,33.6200,-54.1888
-12.1138,148.6554,-95.9610,-44.9262,-15.5964,-57.4021,24.5474,-15.4146,-8.1650,-246.1604,-19.3746,-9.2979,16.1937,-93.4752,62.3728,-159.1535,-97.2791,13.2521,-52.4924
-29.4733,58.4780,-105.2144,-70.8334,-28.9499,-58.4289,48.1482,9.4676,-36.8949,-175.3532,-28.5210,-28.4607,19.6913,-95.6731,47.7703,-164.5430,-113.0691,-6.8296,-47.6376
-78.7449,-143.0811,-90.5995,-70.3761,-54.5177,-40.9902,17.4930,33.5720,-22.8655,-84.4666,-44.8192,-75.5811,-12.2114,-73.4434,30.0187,-148.4361,-160.2400,-31.7483,-54.9678
-96.3633,-209.7382,-99.9927,-55.6554,-63.6126,-19.2298,-53.8586,50.0392,45.7035,-79.7363,-66.9237,-94.5631,-59.2031,-27.8505,8.3891,-127.7451,-155.1468,-53.3421,-55.7538
-86.9966,-187.5396,-134.1916,-60.2455,-90.9601,-12.7003,-93.8077,58.8129,64.8696,-100.1937,-91.6671,-129.6070,-86.8689,-6.4837,-7.9819,-87.6603,-121.5520,-51.3093,-37.6127
-124.6351,-171.0954,-132.2607,-73.6721,-136.8380,-15.7549,-97.3440,61.2373,-15.8322,-110.5320,-126.3022,-155.2390,-89.8208,-17.4851,-59.5425,-41.3806,-122.1313,-40.6710,-34.8314
-158.2331,-120.6267,-96.5296,-63.3225,-131.1931,-11.4850,-125.5104,52.9441,-110.7254,-130.0716,-132.9165,-85.4570,-96.2149,-13.0752,-127.4520,-55.4191,-154.6468,-45.0730,-71.4984
-124.4630,-60.9536,-98.3641,-41.3471,-92.2971,-10.5962,-166.6591,25.7175,-143.5545,-126.1842,-97.5468,7.9505,-118.0543,-11.6283,-88.1808,-121.2825,-192.1098,-39.2703,-124.6493
-90.1009,-50.3713,-131.8952,-26.5046,-100.9799,-26.1936,-164.3182,-18.1911,-138.1912,-74.6354,-82.9689,0.1218,-132.7447,-61.9785,17.3402,-152.7348,-194.7939,-13.7189,-164.5125
-87.6965,-40.7255,-135.1867,-5.4998,-131.7446,-35.3877,-136.6001,-56.4268,-136.8222,-29.8581,-106.1945,-55.9476,-127.3441,-103.9991,-18.3119,-125.8051,-147.2451,-8.4346,-177.1965
-88.6996,-19.1668,-125.9373,16.1994,-124.3979,-17.4735,-113.8412,-78.5288,-146.5194,-34.2853,-120.4195,-59.4442,-115.7629,-74.5764,-159.7895,-88.0009,-130.1340,-17.8675,-164.9149
-129.5546,-33.3565,-144.4812,12.8008,-108.7282,6.5618,-73.8479,-106.5539,-179.8341,-63.7863,-134.9691,-41.7619,-108.5440,-34.5787,-165.2841,-77.5708,-190.2462,-5.1082,-156.9392
-183.6618,-53.3828,-156.7951,-2.2122,-120.1720,17.7774,-46.3183,-146.4380,-232.9239,-108.6167,-159.8244,-52.3106,-106.4572,-18.2377,-56.9429,-92.2711,-216.2114,7.3472,-178.6399
-135.0846,-72.3690,-135.7169,9.7275,-137.2966,34.2023,-91.1045,-168.5176,-237.9778,-173.6540,-137.3732,-60.5350,-104.9480,17.9171,-46.1942,-86.4794,-135.8427,7.0302,-208.5491
-48.8889,-130.1920,-106.5800,54.4385,-133.1106,64.4708,-137.7921,-164.8375,-163.8953,-186.7849,-86.1351,-41.8913,-85.5135,28.0335,-101.4977,-40.5242,-45.0742,32.2606,-213.0781
-83.4787,-123.7913,-76.2911,99.7058,-91.2524,80.8786,-87.6179,-153.6694,-96.2197,-83.3446,-92.2711,-13.9820,-47.4516,-50.8030,-81.5407,-19.2121,-4.6442,62.1646,-193.3487
-138.8329,30.0243,-40.9999,112.6532,-25.0624,67.3549,-16.3039,-130.0764,-90.3475,46.3162,-105.9844,11.8570,-29.2426,-127.5865,-61.5201,-47.6474,33.5543,52.2091,-164.6814
-36.5129,155.5276,-14.2920,97.9129,14.5754,43.0246,-26.3267,-92.9278,-86.7866,76.0369,-35.5221,36.0779,-38.7144,-124.3436,-120.6071,-42.3962,72.3621,43.7387,-139.2273
112.3585,122.0377,19.6097,87.5540,21.4364,23.8706,-51.2455,-79.3625,-67.1667,21.8776,37.9708,53.9682,-26.1634,-116.2207,-133.7302,19.6387,88.6013,58.3527,-134.5788
117.9277,61.5420,79.4120,89.7169,40.6273,9.0361,-18.0285,-101.2745,-82.8148,-23.3512,22.2600,55.4809,22.5067,-136.5942,-47.0341,61.6437,113.0606,42.9407,-149.6037
34.3965,55.5145,127.6271,91.0472,68.6206,4.9168,15.6912,-115.0356,-89.8309,-2.1342,-9.2101,34.8481,64.7584,-113.6154,14.4086,72.0897,137.8483,12.2935,-152.5171
-2.1158,47.4363,133.5705,87.9902,72.0518,11.4931,16.0564,-97.7062,3.5662,66.2518,4.1036,9.1329,81.8165,-55.3667,23.4931,84.9917,123.9980,9.0961,-125.3402
25.6333,62.1901,111.2904,59.2577,62.6230,-8.5171,27.1978,-81.5403,148.6676,74.7806,25.2345,-1.3327,70.2249,-51.6720,55.1027,75.8689,115.0420,-27.4322,-84.6464
98.1341,94.6805,64.0910,-18.2487,54.2641,-84.4623,43.0619,-95.5535,227.5340,14.9252,62.0507,-21.7738,12.7775,-122.1436,60.0005,52.3752,138.0705,-113.6832,-48.4436
168.2129,6.9040,11.7035,-87.7729,39.3769,-167.5354,28.8480,-122.2991,239.3783,81.3607,112.1687,-87.0112,-50.6776,-198.4209,-21.5987,70.4122,118.7655,-137.2699,-15.9022
113.4442,-181.3670,13.6393,-75.4229,33.5158,-181.8193,12.4414,-122.7151,249.3047,281.5828,71.8116,-152.5662,-50.0744,-195.1666,-85.2757,94.5134,56.5124,-84.4631,16.4837
-66.7687,-251.5704,56.5590,-29.2846,40.1017,-138.5394,20.3835,-95.1586,232.9454,288.6476,-63.0549,-133.5989,-21.7143,-91.1546,-56.7503,62.4281,53.6178,-73.8862,27.2164
-159.6324,-146.1032,49.5925,-40.0838,16.8750,-112.0472,19.6659,-82.4012,126.2483,58.5547,-130.2942,-45.9314,-47.0951,25.7668,-18.4959,31.0186,97.3406,-121.6707,-17.4823
-78.9329,-24.5152,-15.9718,-84.4424,-48.7879,-122.1195,-21.5812,-93.5355,-5.7964,-15.1259,-85.5726,-7.6021,-92.6943,60.4029,-10.6372,55.7866,82.5484,-148.7842,-91.4768
-23.2042,12.9151,-66.4385,-98.4225,-108.3481,-135.0014,-88.9278,-85.5627,-29.2199,135.3093,-60.3210,-63.0435,-92.2592,18.8726,14.0848,68.4580,22.7209,-147.0873,-109.1344
-89.5053,6.5773,-84.9879,-102.7495,-121.6678,-140.3174,-128.3977,-56.5266,20.1223,142.2347,-90.0433,-113.4822,-81.6053,-45.7481,22.3296,22.6998,-7.0655,-139.9309,-56.9791
-120.6274,9.0035,-99.1499,-132.4424,-96.4629,-138.3074,-97.7127,-43.9616,-4.5883,-23.7911,-93.7476,-87.8894,-101.7001,-91.4094,-48.3577,-7.9330,-26.7642,-116.8209,-21.1994
-85.1996,5.6344,-100.2001,-155.1780,-64.8399,-114.5063,-46.7731,-25.4574,-74.8394,-45.7794,-86.7615,-56.0863,-113.9714,-86.3025,-137.2848,21.4036,-74.7028,-88.4877,-32.3138
-131.9349,-49.9736,-80.6982,-139.2984,-45.4263,-86.3109,-59.0036,34.1875,-74.5987,73.6931,-136.4583,-83.1536,-97.8352,-53.5170,-150.6608,29.6575,-123.9021,-71.8448,-31.8645
-221.0175,-145.3918,-70.6987,-109.0803,-35.2482,-91.2978,-98.6871,82.9434,-61.7382,111.0257,-192.2677,-120.9236,-86.3879,-46.3600,-98.4910,-46.7510,-157.4594,-50.2016,-9.8510
-192.0594,-197.5868,-89.9160,-95.9489,-46.8306,-116.2378,-77.6608,71.6509,-92.2103,85.9052,-168.6608,-126.8156,-89.5559,-54.9041,-50.8689,-127.4445,-180.9951,-30.8537,-3.4390
-95.4758,-152.2268,-123.3833,-101.6136,-97.2284,-126.0669,-28.6215,48.6766,-51.5460,81.1204,-89.6147,-125.5538,-90.9146,-51.5885,-52.9489,-115.4193,-167.5993,-48.1428,4.2305
-48.3211,-48.0990,-142.1647,-114.7633,-140.0461,-124.2417,-22.5826,64.6385,54.4916,34.2757,-21.2448,-112.3395,-88.8459,-46.2875,-89.3616,-45.5429,-104.3493,-87.6378,29.8287
-11.8951,17.8425,-120.7675,-116.9134,-111.5600,-111.2328,-34.0040,99.4413,61.3383,-19.1732,29.2277,-60.8974,-89.0351,-16.0042,-95.6117,15.5601,-25.2969,-104.2122,25.2988
40.5957,-8.5214,-58.3122,-89.3541,-42.5936,-68.9622,-43.0110,119.4240,7.5347,30.8786,76.7372,-10.2337,-92.5921,51.9417,-45.5895,72.4461,56.0594,-89.2215,-26.8639
63.1150,-58.7000,12.7129,-50.5812,-4.3830,-26.1540,-78.2985,111.8717,38.8164,95.1587,110.1668,-5.9560,-82.9870,78.6268,14.8256,101.1587,140.0644,-63.2217,-74.0728
88.6115,-40.6357,59.9697,-43.2413,11.1338,-28.1665,-86.3945,84.3731,74.7854,59.7293,115.6876,-20.7470,-25.3306,40.3319,58.7597,48.4023,177.3164,-42.6163,-88.3103
149.2217,17.2961,88.2330,-57.7839,48.8304,-47.9852,1.9489,60.1057,27.1842,27.3972,101.2612,-10.8166,68.2913,31.6794,94.8758,-31.2006,139.0941,-30.6903,-87.3055
170.7617,52.7277,125.0966,-46.0304,98.7307,-34.3785,106.4894,31.4132,24.9971,64.8588,88.4100,27.3253,126.1465,67.8701,96.5761,-54.3704,94.9210,-17.6285,-83.1512
117.0004,62.2825,171.1371,-11.9087,118.5152,3.9280,129.4307,-26.3562,119.3184,52.4344,95.6480,62.7962,129.9940,77.9820,46.5067,-54.3565,108.8702,8.1207,-82.9759
54.2478,18.9297,192.3243,17.5071,93.3556,39.9284,114.5559,-79.1036,172.1179,-41.4091,128.1475,50.4028,137.5402,76.8096,0.2006,-74.8776,146.1665,43.5621,-89.0128
52.9041,-50.5606,176.2836,57.9590,53.9381,63.2799,113.2598,-93.8844,134.0011,-119.7601,167.7447,3.7762,162.9982,89.0508,8.4502,-88.1390,152.5252,64.2374,-81.9432
126.9678,17.8138,152.7017,92.2537,50.9865,44.9454,111.7751,-119.5524,83.7387,-170.9945,166.6855,14.0713,170.5089,57.7296,57.3045,-89.2720,122.2511,44.5725,-51.6990
188.2911,210.4765,138.8504,56.7410,92.1839,-22.3434,139.2014,-167.3823,62.5895,-184.1198,95.7931,97.8403,167.8659,-6.7889,106.9215,-82.7324,71.7798,8.3816,-10.0310
129.4547,250.8168,120.8273,-17.7256,126.8187,-74.0186,200.9724,-151.6746,58.9909,-82.5078,13.7156,138.4338,173.3826,-21.9290,114.1476,-39.4733,36.2144,13.6141,48.0775
13.4227,97.6094,93.2024,-43.9001,121.7814,-68.7554,200.8868,-57.8491,48.1244,40.2399,-8.2281,65.4872,156.5345,-5.3055,67.1067,8.9906,42.5912,50.4864,135.7349
-47.2678,-2.4582,58.8083,-50.3078,99.9686,-53.4262,135.3054,24.0845,31.8509,14.5075,-22.1128,-64.1915,110.9273,-21.7889,22.2938,3.8863,38.4477,49.9532,227.2751
-93.4491,-32.1390,9.7518,-92.1799,76.4948,-55.1027,122.5060,63.2012,43.5353,-64.3158,-92.3043,-176.3156,80.7803,-47.8196,14.5260,-16.4555,-37.5677,17.0632,263.1778
-117.4318,-113.0141,-44.0149,-106.8684,28.9532,-34.1734,134.6291,90.5343,33.5404,-54.3810,-118.4431,-207.2157,64.8276,-43.8759,-13.4042,-10.6590,-122.3263,20.4244,208.0795
-18.7949,-103.8541,-66.9652,-56.9036,-27.4392,10.6207,56.5214,100.1679,-64.5766,-68.9954,-25.3894,-119.0454,22.7072,-30.0453,-87.1984,-16.6434,-122.9322,57.7716,115.1847
54.7995,64.4170,-47.9312,-19.8197,-18.8781,32.4849,-22.6014,92.0264,-125.4677,-135.7793,24.0726,-13.8433,-19.9216,-34.3873,-128.9291,-33.6195,-80.3607,71.1865,96.3616
-91.3463,108.0037,-20.1011,-28.0306,57.0965,33.0270,26.1187,100.7339,-44.2023,-51.4837,-86.1444,-39.6910,-10.2672,-55.7807,-94.2323,-24.8786,-83.0854,52.4839,163.6944
-218.5872,-78.4623,-20.8501,-41.3707,84.9131,42.1878,90.8340,125.9739,3.5365,150.0233,-172.0697,-138.1635,16.0069,-62.4175,-42.7826,-10.7949,-124.0387,29.2259,192.5205
-62.7985,-207.6252,-53.2011,-61.7716,21.2351,49.6487,50.1191,139.4353,-78.7252,193.0303,-79.3746,-144.7198,-8.8525,-29.1227,-24.3550,4.3936,-152.0402,8.2910,130.7249
130.0005,-144.4944,-89.1759,-92.1106,-20.9153,48.1368,-3.9740,129.5191,-91.6893,63.6093,48.9762,-86.9540,-57.0445,3.7181,-17.5331,45.2120,-145.0075,-12.5331,87.2671
89.3634,-73.5620,-101.3598,-92.9624,11.1240,60.4376,5.5901,94.2353,10.2619,-33.8453,62.4553,-96.2324,-54.4437,-5.3239,-6.9767,66.0424,-98.9666,-25.0319,130.4159
-20.6452,-103.7312,-79.6097,-64.4889,32.2984,79.2181,27.8038,64.6862,31.3473,-37.7616,21.9720,-145.3116,-4.0883,-12.6132,-22.5760,41.4639,-36.5664,-17.4145,194.4503
-13.4404,-145.9722,-28.7943,-34.2420,30.5889,78.6836,58.5255,90.1556,-23.7289,8.0403,12.8661,-127.8583,42.2762,19.5036,-58.1845,41.6418,17.5628,5.6857,228.4729
53.9753,-106.1511,24.8049,-0.1691,79.0257,76.8412,118.8372,137.8948,-13.8174,57.5826,34.4152,-49.2561,71.8510,60.2164,-38.9400,72.9352,91.6979,13.4957,246.5257
124.9398,0.4308,56.4321,21.7978,147.1581,93.8728,145.5061,127.3221,13.3173,46.8914,80.4872,25.9978,90.3294,99.1336,46.4248,68.5640,193.6318,-7.5764,245.0321
187.8302,65.6637,87.1023,10.8640,167.0624,98.3319,115.0475,66.4537,-3.5057,11.6238,137.3702,66.7166,91.7983,131.0312,92.6370,52.6054,245.8863,-26.1899,216.9570
207.0581,33.8166,136.9128,1.9044,173.1665,65.1430,101.5656,15.9425,3.3367,42.1412,172.8123,53.9140,97.6071,94.8405,69.1909,63.8307,218.8981,-23.9180,191.4767
218.7979,-1.2216,160.1747,10.3778,189.1038,22.0150,129.7478,-9.8665,32.0104,65.2787,192.3953,-4.2874,133.8654,-11.3130,85.5661,35.8238,201.4793,-20.3568,185.2661
269.8236,38.5444,129.2520,-7.4487,170.3992,-3.4011,158.7949,-14.9588,52.8663,-0.4913,217.3917,-51.1998,162.3483,-88.4228,161.7729,-57.5822,244.4169,-26.5071,184.1198
300.4762,89.5751,102.5823,-52.5965,129.7945,-21.3783,179.6660,-14.8707,130.1930,-30.5091,238.5549,-49.8423,136.5781,-90.6494,186.5352,-124.1040,287.0726,-42.6187,179.4058
264.1358,83.9376,111.5128,-76.4222,120.1631,-41.4422,191.6897,-53.6174,237.8933,35.2347,235.2437,-9.4852,94.6350,-47.5538,149.9041,-107.4915,273.1800,-62.5125,166.5222
193.8476,31.8458,110.6094,-63.1360,132.3783,-44.1452,173.7692,-116.7030,250.1722,27.8338,181.3935,61.7347,91.3792,21.7286,135.7893,-59.8090,210.9977,-53.6055,134.1438
123.9649,-22.9380,84.6309,-32.0533,128.3986,-25.3097,131.2345,-134.2938,191.7287,-100.9990,82.5176,134.7392,97.3056,58.8142,138.8062,-50.1566,141.5143,-26.9709,81.1145
94.8405,-2.1097,51.1098,-26.3968,82.4736,-32.3701,84.4901,-117.6761,177.9582,-143.7126,26.4376,137.5717,57.5806,-12.7235,121.5202,-72.5778,105.6982,-61.1486,24.6751
113.8920,116.8414,-3.3960,-77.5418,-5.3247,-90.2117,32.1963,-123.4361,196.8005,-18.2964,61.1504,59.1860,-12.4112,-123.0997,93.5074,-58.9105,96.9082,-140.0865,-9.3566
95.7809,198.6599,-64.6777,-120.1609,-77.2352,-131.0271,-27.8391,-130.8441,171.6995,54.7555,86.1865,-7.8269,-60.4051,-127.3423,30.8760,-13.2036,73.8311,-143.4363,-19.5647
22.3407,139.8187,-91.5117,-84.1905,-104.4629,-101.4063,-85.2365,-118.2974,89.7429,-72.8984,30.7079,-12.8224,-77.9087,-47.0287,-63.0436,-37.1016,40.7681,-79.3272,-48.7484
8.6568,37.8965,-116.6807,-48.3312,-152.7290,-65.5142,-125.5000,-123.9638,-13.9561,-207.5572,-20.9085,-14.3412,-97.6791,-17.2678,-89.3420,-130.6429,13.3905,-67.2302,-115.6530
60.6432,-5.0565,-174.9476,-87.3516,-228.1196,-77.4866,-134.8840,-131.7865,-94.6212,-156.9919,-18.5348,-42.5077,-125.3577,-49.2143,-46.5352,-158.2530,-49.6940,-93.7906,-157.6967
24.9529,-36.4866,-193.4804,-110.2238,-232.5973,-81.7575,-114.1938,-77.9266,-120.0168,-38.6054,-39.4631,-52.5953,-118.1753,-51.3950,-57.1318,-78.6800,-148.5370,-71.6268,-120.3262
-137.0271,-108.8817,-126.4324,-60.9729,-151.7154,-57.0870,-68.0895,14.8537,-64.7430,41.6656,-110.1140,-49.9610,-60.4647,-16.2605,-97.6019,22.5903,-192.1516,-41.0531,-46.2186
-250.8870,-174.0482,-57.4682,-39.0199,-68.7387,-73.8426,-4.9027,61.7488,68.7294,151.9534,-139.6974,-78.3406,-11.0609,-8.4390,-36.3124,92.4184,-149.6218,-70.6581,-14.3653
-151.1042,-143.6675,-49.5464,-86.6590,-32.7533,-131.6240,15.2748,26.1768,160.5746,165.5239,-68.6538,-93.1313,-17.3816,-22.5903,77.9883,107.5524,-88.7700,-115.2212,-56.3787
68.3942,-6.4565,-59.1414,-123.0120,-60.0897,-149.0662,-59.3173,-58.8199,92.5242,-58.4982,28.8304,-44.2987,-47.0915,-6.4438,97.9995,59.4166,-43.8273,-119.1599,-142.2297
115.1386,82.7373,-44.8651,-112.0381,-115.5139,-121.0691,-147.1208,-115.3271,-14.5073,-182.6493,21.5688,-10.5288,-63.2944,21.0639,30.1848,19.4551,-12.5498,-102.0629,-199.5542
-71.9761,-19.4544,-27.6625,-89.2150,-105.2819,-95.7231,-146.3721,-96.3078,-12.5240,23.0149,-92.1491,-51.7652,-77.6630,15.2150,-33.4821,32.4299,-20.9639,-93.1845,-187.4688
-180.7367,-165.2288,-44.3267,-80.5552,-55.1390,-66.4866,-113.0203,-48.2469,-30.0300,112.9512,-159.3926,-81.0365,-93.2033,1.5931,-72.9309,26.2184,-70.8440,-85.6346,-148.8747
-58.2166,-138.3458,-94.0447,-86.7387,-84.5824,-25.8264,-126.2565,-10.6107,-149.6542,-122.4209,-125.8799,-52.6520,-97.7124,5.1333,-103.9823,-22.3322,-129.0176,-55.7744,-127.6133
25.5601,-52.4806,-128.0100,-80.6083,-142.0036,-10.5623,-141.9896,50.1599,-164.1818,-189.5016,-124.7692,-44.5708,-109.5584,-3.1471,-116.0921,-37.2037,-185.9643,-15.0527,-113.5655
-93.6146,-93.9659,-123.2756,-50.9800,-118.3016,-31.9694,-140.6149,104.6182,-29.4857,29.6342,-200.0209,-48.8113,-138.7669,-13.2779,-98.1588,-15.0874,-219.9788,-25.7963,-123.0366
-220.9836,-137.8791,-128.2687,-48.7442,-101.7347,-69.3929,-179.4318,57.0830,-2.5159,80.1763,-232.4737,22.0836,-156.9438,11.5642,-84.7648,-18.1239,-193.9906,-94.6499,-189.6719
-232.6665,-63.5151,-160.9978,-84.1252,-158.8460,-108.6811,-233.1810,-58.0730,-126.9141,-36.7240,-201.4531,102.8801,-159.3705,34.8588,-130.2168,-41.9811,-149.2640,-126.0543,-256.0744
-217.1000,-35.8663,-164.2868,-79.0400,-168.3338,-116.5720,-227.4655,-113.1964,-180.2831,-7.2956,-194.2798,66.8303,-161.0794,20.9253,-195.0000,-47.0709,-154.7254,-79.3201,-233.7913
-206.2296,-132.3412,-124.4599,-23.7435,-97.4154,-63.5385,-176.4366,-98.1270,-106.1511,39.7104,-204.2006,-28.7581,-135.0687,8.8438,-169.8245,-24.3484,-185.5879,-29.1566,-141.5659
-177.3996,-179.7153,-88.5297,-0.4612,-43.3676,4.4419,-117.0741,-84.9653,-22.1780,-32.0062,-188.9840,-58.8156,-71.5611,9.3205,-80.8076,2.5886,-193.2551,-12.9011,-58.9242
-162.0813,-118.3584,-58.3537,-18.3324,1.0177,18.2801,-54.2687,-87.6486,5.5956,-13.1171,-172.7356,-32.3333,-33.0392,2.8370,-60.0987,-19.2988,-184.8649,1.7367,-15.5918
-160.2286,-60.8489,-12.5751,-19.8649,66.1342,-9.1249,-23.6841,-90.8340,-34.2190,81.1713,-150.1785,-6.8686,-44.3685,26.7462,-92.5910,-89.8373,-152.9107,17.5169,0.2792
-145.8549,-35.3925,26.6562,4.2174,91.8623,-12.2050,-42.6191,-86.7411,-95.6971,43.3335,-95.8528,0.2060,-47.5085,71.7599,-79.0432,-113.0522,-87.0379,32.1368,2.0458
-127.6121,-17.7361,41.8655,38.6849,79.2768,28.0386,-64.3570,-55.3091,-106.7375,-26.5016,-51.8788,-24.5061,-29.3554,41.8859,-67.8172,-55.6007,-44.0436,62.9083,-1.8472
-89.9188,-20.4934,39.4239,68.1088,67.5661,65.1462,-82.6980,-7.9491,-103.3889,-1.6785,-46.9537,-46.0354,-37.8064,-41.5871,-118.5765,-13.4437,-51.8179,74.2713,-11.9356
-41.9699,-2.6904,13.0436,56.8498,14.2218,52.4264,-129.2239,14.6503,-139.5622,2.5989,-59.0560,-1.4364,-60.6704,-48.4119,-123.8364,-42.4083,-47.4807,23.3084,-26.4379
-62.4440,53.4554,-23.6731,14.2735,-64.2127,5.2200,-166.0855,25.0291,-167.2769,-19.2374,-84.8903,52.6194,-53.5773,11.9327,-26.4521,-94.5220,-13.0946,-46.3488,-37.4930
-112.8271,52.3970,-34.8465,-1.8410,-78.0853,-22.2895,-153.4486,64.6930,-188.2827,35.8968,-88.3760,26.1495,-43.7257,31.6179,29.0792,-116.5654,-11.4117,-77.6856,-53.6012
-59.9673,-10.7440,-31.8589,11.9820,-69.6604,-13.3296,-137.7078,120.9335,-242.2850,93.4947,-19.8535,-3.5606,-64.7413,17.3736,-55.9917,-90.0417,-51.2987,-72.2856,-90.6381
27.1081,-5.5969,-45.0350,28.3796,-120.7197,4.3032,-153.1807,142.3799,-241.3396,59.1618,27.2393,59.2010,-78.1794,28.4654,-165.2122,-47.0330,-79.7905,-41.1015,-144.8556
-19.3983,77.7605,-54.9839,57.3410,-168.6939,9.2326,-167.0081,90.9823,-156.4013,-23.8768,-55.3067,127.0519,-59.4923,46.6688,-161.5460,-51.4473,-88.7210,-0.6354,-196.5643
-127.5856,134.2134,-47.8248,84.0759,-162.6466,-5.1518,-162.6223,-15.4239,-128.0052,-97.4510,-160.5730,114.6091,-51.6499,39.1720,-86.6161,-86.9848,-112.7717,13.5574,-222.0573
-140.2854,133.5622,-62.2801,70.8888,-166.1690,-38.1899,-158.9232,-88.6723,-165.7356,-114.1851,-160.6734,90.6412,-83.7818,11.7296,-61.2096,-82.1031,-158.3626,7.1409,-225.9257
-104.8204,77.8250,-115.9044,43.6919,-202.9558,-66.8216,-167.3654,-85.6668,-164.5022,-81.5011,-125.0566,89.8819,-136.4097,-19.3773,-86.0379,-58.9749,-185.3743,13.4922,-259.8304
-110.4260,-8.2748,-164.4829,28.5831,-234.7338,-68.0688,-194.3449,-92.7482,-190.2813,-106.2343,-125.7012,46.3384,-185.3613,-33.7524,-88.9566,-75.1120,-151.8969,20.3000,-327.6818
-122.5645,-1.7780,-164.3028,-10.0475,-242.4227,-55.3081,-239.1688,-161.1343,-285.6586,-179.7641,-124.3936,-28.0495,-209.4243,-33.6254,-97.0926,-96.7832,-88.2766,12.7976,-335.2246
-127.2616,109.5091,-123.8094,-57.2274,-202.9644,-49.8975,-275.0403,-192.8747,-306.2863,-164.6645,-126.6044,-46.2686,-193.6396,-44.8509,-158.3435,-82.1290,-78.1575,21.0467,-253.9706
-151.3414,128.7881,-83.4607,-41.6274,-121.1365,-42.2908,-266.2225,-128.7160,-266.2507,-92.6543,-156.8179,-0.5133,-158.4452,-44.2261,-198.1016,-48.8439,-120.8343,51.0525,-191.8335
-154.4691,10.9405,-62.1815,20.0650,-64.4429,-14.0903,-208.8170,-56.5301,-322.4460,-82.5875,-167.9402,50.9464,-134.1004,8.8235,-168.9321,-16.6219,-122.9404,67.8910,-193.5386
-128.5264,-53.5804,-47.8410,54.9020,-52.7122,23.2758,-155.2628,-38.0981,-376.0854,-86.1970,-155.4223,66.3026,-115.8411,66.9300,-158.6084,-11.5817,-72.7448,63.6253,-184.3247
-144.7115,-16.7599,-43.7242,60.1875,-48.5245,34.8976,-163.2301,-30.0729,-273.8153,-59.1295,-159.0014,30.5252,-94.5060,61.0437,-196.9337,-46.3933,-62.4708,54.1143,-154.7221
-170.0894,14.1689,-69.3503,55.3344,-67.8652,13.5961,-202.1361,-9.1481,-166.9407,-77.9977,-136.8799,-17.5254,-91.2873,15.6434,-208.9440,-57.0206,-107.3067,40.6962,-160.4448
-104.9865,41.6446,-109.4024,23.5576,-119.0953,1.0549,-197.4176,-7.4694,-197.0086,-130.9714,-72.2134,-9.6253,-116.7770,-12.0275,-189.4987,-8.4365,-122.1663,28.2644,-178.9490
-29.7898,77.0816,-129.8841,-15.2713,-127.4837,19.0400,-158.8458,-30.1094,-237.4904,-122.2896,-62.8603,30.5032,-137.0708,-10.3998,-169.8328,26.1647,-88.4893,32.6758,-162.0461
-80.1658,46.3710,-129.2571,-10.0624,-65.0596,25.2464,-131.6842,-40.1850,-200.2672,-47.4077,-126.3181,15.6996,-114.2469,12.3692,-121.7845,14.0477,-73.7329,52.9076,-117.7554
-153.0708,-14.8252,-117.9858,21.4032,-5.6014,-3.1323,-88.1423,-16.9091,-159.8810,16.1415,-149.3513,-33.8895,-58.3521,32.7214,-61.0065,-0.9453,-90.7571,68.8101,-46.7084
-90.8182,-8.9888,-91.4012,19.7189,10.5268,-21.3173,-9.8755,14.9574,-136.2576,-10.0342,-100.1932,-28.6619,-16.3440,11.8902,-41.7664,-22.5339,-84.0213,62.7921,52.3606
16.8875,22.4437,-52.4392,-9.5472,21.8263,-3.7251,47.1908,30.8105,-74.2673,-83.1403,-47.7474,5.4465,-6.6413,-40.9423,-29.2080,-47.1649,-39.5320,38.9122,129.6415
31.4555,16.1524,-13.4041,-12.9121,56.5596,25.6045,66.6349,53.7745,41.7972,-30.2473,-12.5146,-22.1216,10.1279,-65.7100,26.0768,-11.9321,10.9748,22.6475,158.6180
7.1212,-8.6927,23.0553,16.3786,90.9603,56.1531,93.3756,94.4330,169.9232,115.5849,21.6014,-83.3304,67.2194,-36.8877,98.0889,56.5192,65.2164,26.3227,167.5901
21.5180,-51.2253,59.0676,32.0065,94.8790,75.1712,126.4477,99.0086,219.4562,84.2965,54.9146,-80.9499,132.9893,8.7107,156.8531,66.7440,127.6925,30.9845,158.5889
66.1854,-81.2642,95.9545,11.9362,86.2884,48.1209,135.6488,52.6700,143.1244,-92.7922,99.4227,-16.7681,158.6173,29.0502,173.9753,50.2953,158.4213,22.4318,124.1916
145.2486,-22.3566,129.1131,-5.8418,100.9908,3.3257,131.3980,28.7664,37.6038,-108.3480,138.7810,29.0254,144.8446,22.8702,133.9761,74.3235,132.4932,13.7011,101.7499
203.0204,68.5337,145.1843,18.4059,123.0706,15.7833,129.4862,51.8081,20.2106,7.3987,113.0003,22.5468,126.1204,12.7146,119.1543,82.7580,93.2354,16.8698,112.4796
128.3156,86.4587,148.2914,58.4003,127.8970,64.9750,129.5478,64.0105,80.4615,27.4194,45.2717,-5.9010,126.4856,-1.0973,177.4974,29.9936,85.8921,20.8892,135.8816
14.7787,81.5221,156.1977,56.6671,139.4388,69.9680,139.6956,55.8627,143.4099,26.6837,48.0964,-18.1843,144.5146,-29.3564,201.8821,-9.8864,103.4514,11.8182,163.6998
51.0178,79.4687,155.9939,21.9521,154.8001,50.3191,157.7421,59.8818,164.0420,90.4336,126.7571,-8.6450,159.9850,-43.8497,163.2253,11.2959,116.8539,4.3561,185.9880
136.5673,-1.7347,131.2540,20.9774,133.2982,72.9245,175.3555,56.8328,162.4222,59.8895,146.1785,-6.6247,166.6982,-15.2008,172.0039,35.7895,100.8153,24.0402,177.8194
82.7899,-74.0001,110.8407,61.5066,102.4560,98.3802,206.1671,24.2413,209.2429,-50.8598,54.3007,-20.9912,182.1514,14.8807,203.3779,15.8819,54.4707,52.8320,150.7059
11.1283,27.0048,113.9655,81.8360,109.2900,51.7102,236.9295,-16.8062,279.6777,-47.0146,-25.7573,-4.9030,190.3639,-7.9400,165.8433,-13.1488,20.7961,47.8758,129.5869
77.3147,184.4516,111.4277,71.3844,113.5946,-30.8394,211.5092,-55.7749,232.0728,10.8420,7.0602,63.9682,141.8683,-54.5939,131.0195,-12.1018,29.0951,17.9836,97.4973
139.6460,206.0256,88.4943,78.1289,81.6826,-63.6891,128.8540,-81.5849,70.2907,-40.4339,78.0032,127.8540,57.4853,-57.4368,130.0697,-15.1629,49.8170,5.7254,44.0235
62.1710,163.6382,59.9703,98.7307,53.1927,-41.2471,58.3924,-61.4239,-30.3503,-128.3327,65.7405,142.8396,19.5483,-6.3387,61.4899,-51.0886,64.7191,15.2627,-0.7494
-44.1599,156.2799,30.8190,95.2289,35.4224,-8.9453,24.0796,-11.0582,-38.6153,-129.4085,-13.0320,131.9746,23.4579,50.2476,-27.4283,-52.3074,88.5242,28.9575,-19.7948
-60.4139,93.6229,9.8710,80.1745,-0.3405,16.6656,-19.1522,22.8585,-68.9318,-47.1313,-50.5229,99.3925,-13.8299,62.2467,-40.8152,25.3643,95.1728,38.0160,-19.1068
-12.2334,-43.4987,1.8868,70.6945,-37.3647,37.1254,-84.6218,53.2314,-113.5587,61.9554,-21.1749,23.9519,-89.7454,22.7795,-97.4635,94.6102,56.6942,26.0438,2.4413
22.4884,-94.9489,-25.6003,47.3168,-61.8643,51.4549,-127.6884,99.1366,-97.9359,83.8673,-5.5899,-47.9781,-126.8253,-20.6551,-239.5834,91.4601,22.4600,-2.6404,38.3100
-13.9546,-6.8419,-83.0858,22.7221,-93.5705,70.9038,-128.2543,127.3568,-50.6164,-39.0149,-56.3320,-44.0992,-121.6187,-9.4861,-268.2801,68.7591,26.6463,-13.3767,65.0256
-92.9705,57.3282,-122.2291,29.3843,-116.6893,95.0623,-116.2008,136.3904,-19.3501,-133.2872,-121.5400,14.0357,-125.0633,54.6630,-159.5104,51.1763,15.4993,-7.8616,63.8016
-115.7848,-18.9002,-124.4446,43.7721,-103.5219,95.4238,-98.2977,159.6846,-10.1195,-51.4455,-131.7112,37.4968,-131.1349,91.6849,-106.2966,22.8670,-39.7208,-6.0568,35.8565
-77.9752,-117.2430,-128.3236,34.5681,-81.9930,70.9478,-50.5053,177.5751,-24.3263,65.3236,-107.8087,-16.1700,-113.6073,31.8533,-109.2115,32.0466,-88.1732,8.8855,9.5675
-71.4777,-80.0639,-149.8091,13.9573,-92.7232,52.5382,-5.2965,162.7090,-12.6046,81.3996,-108.6684,-91.8105,-99.7132,-68.1705,-58.0005,81.5373,-82.6263,15.0327,5.3053
-101.7149,47.9642,-167.4948,-13.8469,-131.4242,31.1051,-31.2446,128.8769,60.6486,77.4120,-109.9536,-76.2750,-120.3889,-76.8259,-30.9177,67.6380,-11.3135,-43.5437,-8.2807
-86.2724,131.2223,-159.3467,-41.5349,-155.9557,-10.1519,-111.6374,65.3693,87.1633,76.2066,-53.7819,59.1527,-156.5885,17.4660,-106.9592,-11.3858,96.8571,-103.3853,-47.6791
-1.0639,130.0424,-115.1571,-24.7425,-131.6060,-18.9438,-165.4550,-22.7446,-14.6870,-6.1275,18.2204,166.6561,-171.9347,87.9729,-168.5490,-27.9409,153.6309,-59.7843,-54.6790
83.8090,46.4156,-61.4785,31.2056,-90.1920,32.5705,-162.8314,-51.8736,-118.9091,-85.5109,25.3228,103.9135,-148.4828,68.1649,-108.1754,36.9177,104.8903,19.5232,-8.2488
74.9219,-75.7912,-43.0732,51.8512,-88.0818,61.2667,-124.6269,-12.5010,-105.5263,-25.9908,-10.2679,-44.9179,-96.6649,14.9061,12.3686,86.4001,18.0241,18.0707,15.5594
-21.3864,-85.9521,-51.7657,20.6712,-94.8417,16.1258,-82.1560,-20.9880,-38.0474,61.4720,-20.6296,-99.2294,-53.4039,-16.1490,72.8722,95.4581,-18.5165,-20.5673,-10.1877
-66.0054,49.8600,-52.2654,-9.4833,-49.7727,-30.8741,-64.4979,-87.0908,10.0198,33.2269,-11.5355,-38.3185,-40.5745,-13.1770,56.5024,99.0437,2.4353,-24.1169,-11.3006
4.6243,135.4287,-49.8815,-18.2380,16.7500,-33.6155,-39.3311,-92.9434,62.0695,2.5669,-12.8071,29.8676,-32.4981,21.0931,70.8854,91.5343,43.8710,-21.6895,44.5465
56.8729,85.1146,-47.5338,-10.6513,59.0465,-30.6688,49.9544,-48.9381,128.0604,66.0542,-14.3014,41.4848,1.1082,54.2672,158.0045,58.9030,65.6454,-26.2998,108.5533
-6.6282,23.3596,-18.6561,20.4896,95.3581,-20.7573,138.7357,-59.1361,170.7994,71.3883,-19.5990,10.2400,51.2850,60.6333,196.8902,23.7509,55.7991,-8.7491,147.3887
-91.8828,-14.0609,28.3666,55.6406,121.8746,21.8792,124.8020,-87.5573,161.7923,-41.7644,-44.9872,-19.9216,91.5705,61.1758,147.9610,20.3582,58.9197,12.2521,165.2013
-89.1321,-49.3495,57.4760,56.5287,107.3875,37.5667,65.9717,-49.3051,98.9166,-70.7592,-49.6433,-23.3612,104.7726,49.1697,152.3151,57.8150,90.7834,12.8049,172.4972
-4.9542,-12.3120,63.3388,22.7645,77.8111,-28.3794,57.2069,9.7322,18.2711,57.5831,8.9579,-28.9557,87.2511,-8.0130,242.9254,97.0897,92.6334,5.8007,178.9499
82.4104,49.0765,53.9897,-17.6739,67.0687,-108.5152,50.9058,32.5289,-21.9859,155.3363,77.8505,-63.7993,56.1519,-54.8632,283.9321,91.5993,65.1243,-14.7107,177.6667
90.3733,-0.5913,37.8810,-45.1012,58.4856,-129.4519,1.7832,49.6499,-2.8750,142.2687,85.5643,-84.0707,36.8110,-21.4479,234.4196,61.1485,78.3398,-51.0883,155.8801
25.2685,-63.4372,37.6890,-54.1473,44.4838,-121.5437,-33.5462,59.8151,37.5646,126.7316,54.8756,-44.3118,36.0723,27.4631,167.1795,55.1787,107.6630,-64.4667,121.2316
-18.9303,-8.5622,49.5049,-46.5858,39.7304,-118.4882,-40.1541,19.2403,38.3851,135.8586,35.4353,22.4072,43.9116,18.5851,132.2560,63.2654,86.1832,-42.0001,67.1679
-15.4950,28.7141,41.6361,-18.0962,38.7847,-92.3085,-53.5807,-49.8175,-25.4605,115.0067,14.5796,56.0046,43.8837,16.0036,167.1865,50.7792,52.6950,-10.2042,-26.0042
-12.2547,-30.6416,25.7428,26.8936,31.2996,-43.2712,-58.8342,-97.5706,-95.6959,79.5053,-19.7939,34.5817,27.2621,66.2004,236.3594,29.9951,34.7430,25.6471,-113.1405
-13.1970,-33.1172,39.5813,49.4503,19.2729,-16.3096,-42.8528,-121.8323,-111.3645,47.6288,-35.9583,-19.1490,22.2118,85.9373,207.7021,14.4053,-21.9575,61.2628,-119.3916
-24.5656,46.0407,71.3113,24.2906,13.5423,-13.7267,-20.9282,-125.7681,-109.7765,6.0561,-31.4267,-51.5697,57.9512,23.5119,92.4558,-16.4907,-83.1128,65.0412,-59.2177
-71.0630,60.1253,79.7237,-12.7286,29.4618,-4.6649,20.2716,-98.2954,-111.0191,12.7024,-39.2971,-39.2715,90.4801,-50.7486,55.1373,-41.7755,-72.4193,35.5556,-0.1385
-98.0821,-18.6337,58.3133,-17.2694,51.8300,12.3896,69.0237,-45.5384,-27.2585,112.9716,-60.2077,-26.0255,69.1089,-60.2475,90.5990,0.4881,-67.0610,23.7065,41.2142
-83.5563,-109.9740,46.2734,18.2439,55.5355,34.1735,79.0906,16.0915,135.1761,190.9499,-80.8742,-39.6939,44.7286,-10.5351,64.2419,79.1880,-130.8657,59.7687,66.4246
-112.3712,-133.3093,80.0778,68.4733,66.1419,60.2955,73.4713,53.6963,203.5459,129.7967,-94.3950,-51.4374,70.5316,21.3411,10.1139,82.3936,-137.5536,95.5023,49.1217
-134.5497,-40.9220,121.2870,71.1468,81.6298,52.3467,88.9908,27.4891,126.6844,25.6306,-52.3322,-57.3371,88.9220,-29.5632,24.7112,15.8360,-36.0659,65.3747,-9.5827
-4.9391,55.9666,96.0503,1.2460,29.9239,0.0965,88.7433,-24.9302,60.9254,24.4732,67.5541,-73.3813,57.0163,-102.6263,58.2172,0.6226,20.1469,1.3712,-56.4510
160.3491,14.4359,31.9825,-52.4780,-58.2115,-20.1352,71.8413,-12.8178,93.9682,76.6035,159.6725,-62.6991,27.2965,-80.9227,49.7794,40.9714,-19.3601,-10.5319,-43.8034
153.1151,-45.9108,15.5664,-26.3148,-52.9766,19.9777,84.8067,55.2521,156.8631,73.3216,134.0563,-6.3238,15.2333,2.1562,27.9220,25.1697,-37.0986,14.7930,16.3316
65.7814,25.2417,24.8078,1.7440,19.5494,37.7528,93.6589,92.8574,182.9837,56.7594,68.2014,25.0966,-11.5585,16.9216,10.1317,-45.1637,-21.3497,11.2047,54.1444
47.7928,80.2272,-9.1814,-23.8964,24.4753,8.7105,69.6280,91.5684,153.4788,76.0861,46.4592,-18.3013,-17.2591,-27.6601,-7.9847,-64.5921,-46.5490,5.1417,25.3642
19.8529,-7.4404,-56.9626,-52.4066,-24.4009,-3.9540,82.4269,93.7030,95.8811,71.7976,26.9857,-81.8468,20.5650,-37.6695,-25.8112,-15.8055,-80.2924,18.1143,-18.2021
-44.1068,-79.3012,-82.6536,-77.5107,-45.4836,-12.8086,135.6490,93.0755,97.9163,65.3156,-6.4902,-90.8652,24.7981,-29.3679,-52.0953,32.7282,-86.2713,-12.6624,-17.4243
-25.9521,-32.4700,-127.9858,-127.7620,-59.7255,-58.1307,137.4208,87.2995,163.2337,132.8194,4.9596,-45.3199,-23.5515,-49.1618,-51.4007,41.2610,-122.1664,-66.0194,-6.9498
29.9343,5.6930,-191.5131,-152.0173,-87.2285,-74.7711,83.5790,102.1534,159.8629,162.7987,37.9273,-21.6482,-41.5697,-52.6755,14.0608,25.0991,-178.2163,-48.2936,-21.8432
-19.8377,-59.2387,-203.8832,-121.1370,-94.6479,-27.2755,30.0665,117.0705,71.1575,54.0618,12.4286,-75.9459,-28.0468,-21.3261,55.9194,32.2671,-166.2526,-2.9948,-15.3069
-125.1433,-161.8753,-153.2664,-86.0684,-84.4823,-0.7070,-20.6019,102.1669,45.4906,-11.4228,-47.0679,-133.1507,-44.6511,-11.2985,-11.6661,71.3803,-107.7718,-12.6224,28.1288
-143.8825,-171.9510,-91.0117,-48.1245,-61.5603,-19.8327,-48.4932,88.1553,91.3234,89.4604,-57.6286,-82.3961,-55.2005,-23.7676,-97.4963,73.3855,-88.6919,-19.5918,45.7183
-64.1992,-31.7905,-52.9166,11.2511,-12.3602,-17.5224,-23.9190,89.2615,66.0413,165.3739,-8.7467,23.2168,-19.6984,-11.4607,-97.2676,17.6795,-85.9250,12.7261,21.2017
26.4239,132.6555,-46.1680,33.7837,22.7266,1.6035,-3.8644,63.3268,-22.6594,92.1864,54.6596,60.0145,-10.1669,18.7545,-37.7023,-25.8729,-41.3624,16.8715,-4.3760
57.2491,166.2231,-54.1905,9.0937,11.1835,4.7242,-28.8296,10.8109,-62.9131,-12.2532,94.2900,59.6505,-59.0433,50.9665,35.0656,-45.3602,11.3568,0.1084,-33.6682
46.9898,114.7349,-53.4230,18.9115,-8.0514,34.5093,-42.6368,-11.4904,-75.5634,-63.0175,94.5791,97.2535,-86.0113,103.3738,66.4297,-55.5434,32.9567,15.8026,-70.1645
58.5353,65.6225,-43.5888,70.3977,-18.1293,102.0297,-24.0984,15.2199,-99.8718,-49.5985,67.2624,99.8481,-56.3458,157.4110,-13.5660,14.1709,48.2322,35.0172,-56.2071
58.8759,-19.7118,-21.7611,101.6258,-26.3175,148.8879,-8.1428,55.4393,-66.0192,18.5565,37.6618,13.3776,-15.1634,168.6456,-107.0902,135.7673,62.3505,50.3842,11.9600
11.1526,-85.6520,24.2673,110.8931,-1.4575,160.9379,11.2844,62.1164,9.2937,19.3559,47.1656,-35.8980,21.5988,136.6391,-41.4728,126.5023,53.7985,86.1658,34.1839
57.8860,25.3384,67.4581,112.0184,44.8309,149.4032,30.9627,6.2393,-8.3503,-97.0517,151.5497,45.5088,54.3537,80.3027,83.6704,-16.5728,59.2982,81.0570,-28.1194
271.0114,222.8992,82.6167,94.8102,58.4523,103.3933,12.7176,-77.0413,-113.2316,-155.2545,313.8895,143.6721,60.4764,30.9159,59.2561,-92.4519,124.6047,25.2121,-80.4347
398.6411,241.9598,107.6331,90.0970,67.5846,65.5705,-12.2132,-103.0816,-164.4883,-99.3095,369.8117,128.7313,57.2411,51.1049,-22.3827,-55.3487,198.0924,32.5191,-51.0534
264.2272,81.5473,164.2545,119.6377,113.6219,86.0425,20.9221,-54.4893,-131.6038,-89.5301,257.0356,59.0559,89.9802,127.5604,21.7051,-11.4278,201.2096,90.7186,16.8815
103.8208,-11.6010,207.1324,134.9030,144.0954,103.6884,90.6745,-10.8142,-93.8496,-130.8333,144.1749,65.3077,134.5780,136.7709,92.4829,7.3255,156.2874,73.9700,56.7017
142.2499,60.0610,206.4412,112.9923,124.1977,59.2949,134.3689,-24.8525,-81.5275,-118.4818,167.8296,124.8576,129.6399,47.8499,48.7826,-6.4959,132.4556,25.2759,53.0832
237.0929,151.5717,173.6465,94.6929,90.7536,17.7669,129.1880,-60.1004,-69.9370,-110.7660,234.4054,105.4511,87.3545,-11.7724,-12.2706,-56.9626,125.3072,48.3577,21.5817
206.7661,134.8180,126.7871,97.7879,63.4944,32.0801,90.2569,-74.5031,-39.5950,-145.9675,214.7420,13.7853,68.9280,18.7661,18.7345,-63.3379,88.3799,76.6509,-17.6475
104.6382,50.7432,99.1872,105.8596,51.9647,50.6780,66.6957,-77.5926,5.3292,-134.0594,122.8546,-6.5940,79.3940,52.1313,83.8507,-6.8066,26.2349,45.6829,-51.9877
29.4343,-15.8194,96.1154,106.7652,57.5742,29.6862,81.6224,-79.0552,30.2679,-69.4633,28.6762,54.0003,68.5290,26.1850,96.9906,16.6392,-16.1045,13.5237,-81.0300
-5.8042,-46.1126,59.4518,86.0168,24.4621,-15.0790,67.1497,-53.7712,13.0793,9.7772,-23.1178,64.1156,14.4716,-24.6682,22.7345,9.1971,-12.5585,-13.3763,-95.6013
-4.0469,-20.4863,-20.5141,42.4602,-60.4422,-57.4822,-18.7264,6.9678,-19.8010,100.4751,-11.4888,19.5402,-55.6264,-48.5637,-106.7788,34.3360,19.5146,-64.8976,-79.2879
4.5567,61.3336,-74.9119,1.9329,-122.1391,-74.4781,-96.2239,65.4691,-46.2296,103.9630,22.4181,24.9893,-118.2089,-22.7424,-152.7119,45.6671,26.2125,-86.0412,-51.6345
-21.1812,84.5268,-102.4992,-25.5406,-162.6399,-68.1655,-115.3204,90.2772,-64.3192,-8.8642,13.8802,56.8645,-175.8768,22.2031,-54.6453,20.7971,-18.2509,-69.1989,-59.6455
-22.8437,-12.0957,-155.3743,-54.1855,-243.0590,-74.6663,-139.5883,85.9951,-52.0042,-44.9921,-8.1403,27.3846,-225.4014,20.8451,2.9709,19.8198,-49.7252,-96.2094,-110.2785
62.5906,-81.5457,-189.2748,-76.5027,-299.7372,-89.8593,-185.4111,60.0797,-11.6075,45.7023,18.7556,-21.0767,-241.1777,-25.1161,-110.5293,23.4013,-6.6665,-141.8014,-163.7258
123.6114,-26.5711,-141.1831,-61.1118,-247.7809,-66.6058,-177.8642,18.6259,6.1736,79.1602,51.6238,-9.7603,-206.6457,-44.2883,-210.9902,7.7333,46.7713,-111.5478,-190.4321
47.6447,33.7050,-73.0765,-10.2429,-153.8681,-20.6923,-111.1861,-21.0119,-3.3397,46.5073,32.4058,24.6962,-147.9538,-24.6916,-132.0301,30.4986,26.8722,-47.2143,-187.7705
-44.2206,14.9023,-58.3804,15.8529,-97.4965,-12.2385,-64.4025,-56.1643,5.4218,74.8941,10.8763,11.6544,-107.9638,-20.2638,-10.4074,50.2365,-11.6596,-32.8585,-160.3147
-19.7904,-23.7591,-54.0470,-12.2032,-48.7969,-27.3309,-51.1526,-89.0622,31.0421,116.2291,24.4323,-37.8316,-79.5827,-43.2345,13.1832,-18.4351,15.0122,-24.3196,-120.0814
19.9624,-32.0472,-6.3844,-17.4017,16.0526,-15.4618,-11.1748,-93.4440,46.9847,84.5509,23.6652,-58.8928,-19.7529,-68.0006,17.5576,-91.2673,60.6083,29.1595,-84.1277
-15.0633,4.6926,49.9262,50.9290,59.9036,0.7681,51.4601,-63.6480,58.7429,-1.3274,15.3991,-19.8549,51.5953,-86.0694,56.9745,-91.1526,57.4611,64.7588,-58.4156
-18.1973,56.0221,67.1354,95.8332,55.9255,-19.1849,56.2079,-40.5775,62.6654,-100.6999,62.5514,35.8729,66.9062,-86.9771,56.0274,-91.3780,52.0131,33.5230,-41.1680
59.4930,33.4753,56.6970,51.2045,21.9883,-38.6625,-5.5194,-32.2600,41.5519,-108.3319,126.7560,48.1751,45.0975,-64.9125,16.5303,-101.2299,94.1548,-12.5076,-28.7778
117.4487,-29.4230,53.8422,12.2420,14.0423,-10.7293,-31.3207,-15.4626,-1.6614,11.4498,136.5605,22.0360,67.7347,-49.2422,15.0485,-75.5724,126.0216,-19.3567,-4.1307
128.2247,-13.6757,73.8675,33.5839,70.4501,39.0200,30.0599,-11.4869,-65.6726,33.0033,121.7915,-5.4330,122.3879,-49.9368,28.4815,-71.1907,92.5181,7.1189,50.5729
125.1928,1.3623,113.5901,42.2128,149.0640,70.5038,94.6653,-28.5880,-126.3389,-130.2429,103.6572,-22.7919,131.8073,-31.6637,4.6836,-87.2298,49.3877,40.5636,115.4326
86.0958,-74.6413,147.0486,18.2457,183.7791,78.5274,83.6808,-15.8716,-121.2906,-188.0926,51.2318,-18.4426,95.1730,-2.9956,-9.5386,-48.4418,68.6529,50.7964,144.6729
53.8375,-69.0052,127.9143,-1.6156,159.3474,55.3401,32.8748,24.8817,-65.8435,-56.1993,20.8365,-0.1185,54.7602,-26.0528,16.9655,-29.1135,113.5424,23.7030,135.9096
93.7074,51.5376,54.1766,-35.5401,91.5423,11.5041,10.7362,43.2190,-43.5725,-10.8908,61.6897,-31.9265,15.8894,-93.9763,13.4019,-87.7551,97.2458,1.2739,143.5432
86.3580,16.6918,-6.0337,-72.6903,25.8600,5.1790,27.0043,66.0872,-26.2581,-86.0194,55.1926,-115.5421,-6.7188,-118.0998,-51.0709,-89.1529,24.6723,21.0667,186.2254
-57.1438,-155.4429,-21.6467,-56.9511,19.9856,39.5212,52.5233,120.4770,59.4947,-81.9704,-57.3860,-126.4821,8.6609,-66.5929,-93.5375,-23.8618,-24.8747,37.6474,195.8441
-145.1164,-146.3936,-46.3211,-18.0722,47.8123,34.4477,62.8635,134.0205,130.6859,-28.8828,-116.8853,-14.4238,22.0302,-11.1156,-59.7566,-54.0187,-35.9636,11.8239,127.0040
-56.0939,11.1767,-95.9012,-11.7288,37.1140,-13.7787,51.2934,85.8283,88.8002,-25.1576,-61.6944,87.1827,-6.3033,-16.8312,-12.6428,-127.4948,-62.7882,-12.6420,52.6306
6.4156,52.9600,-114.8695,-21.1085,3.9985,-28.7223,28.3262,57.5837,19.7263,-3.6494,-54.3370,72.8284,-37.4436,-62.5185,-25.7985,-89.8988,-110.4410,-23.2707,53.9796
-95.7090,1.8383,-97.2362,-46.5910,-6.4479,-30.1472,10.0169,58.6048,22.9423,49.1409,-149.6543,9.2863,-34.9007,-84.2551,-85.5095,-28.5362,-124.3659,-64.5454,90.6760
-214.1921,-37.0961,-86.4227,-91.7329,-19.8917,-71.2580,-2.8911,46.1011,51.3515,73.4636,-219.0871,-12.5027,-28.8390,-57.6636,-137.5351,-42.8949,-86.3359,-96.9738,87.0393
-225.1263,-108.0666,-85.2254,-87.9757,-53.8385,-79.2895,-31.0860,63.2505,55.6659,84.5481,-219.7559,-8.2513,-50.7523,-21.1042,-154.7890,-26.7777,-44.0785,-55.6291,57.8854
-172.2963,-150.2264,-92.1883,-42.9799,-88.9568,-12.5605,-78.5124,128.4613,64.6068,74.8437,-205.2034,-24.9289,-92.0235,-14.7620,-139.3400,56.2734,-56.0694,-16.8947,49.9802
-110.9901,-68.3986,-126.7200,-68.2722,-130.3163,13.1174,-97.3507,152.7828,79.1493,35.5516,-169.1716,-49.2461,-126.3008,-16.5963,-120.8128,91.8637,-118.5505,-64.8928,55.8242
-77.4800,2.3067,-155.2072,-140.4433,-154.3353,-42.4138,-50.5999,110.2600,67.3491,59.1290,-112.3360,-46.6265,-127.5892,13.9336,-130.9129,60.3770,-148.3178,-116.5028,59.4978
-110.7091,-57.6103,-126.1882,-131.0186,-102.3628,-59.1635,18.4929,74.4084,49.0126,135.4176,-104.5445,-25.9964,-94.1460,55.6247,-134.7967,43.4939,-95.5814,-81.5182,76.3941
-176.0892,-125.6347,-60.3748,-54.1060,-5.0882,-8.1024,61.0986,60.4172,63.5404,116.8176,-153.6131,-7.7598,-50.9380,68.5801,-81.0606,66.9348,-39.1147,-12.0651,105.1544
-178.4520,-77.1220,0.8973,-5.9692,51.1531,14.0208,89.2470,25.9229,79.6131,21.4549,-165.1535,20.0590,-14.5044,69.4351,-29.2377,86.7473,-56.7618,23.1688,113.3232
-86.1429,49.0815,46.2053,3.2262,59.0837,-8.3600,96.7155,-36.6115,35.8619,-16.8582,-91.7006,54.4456,5.9827,74.0385,-54.6421,51.7778,-84.4201,29.0347,89.3144
9.7616,126.3860,61.5786,-0.5667,55.9984,-15.0103,56.2642,-108.4837,-29.5561,-22.5322,-14.1941,62.9168,2.4984,55.4196,-81.7855,-13.4859,-43.8972,32.6418,64.9306
-6.2500,54.4354,66.6594,6.2366,65.2602,13.3360,21.9016,-147.6461,-18.9818,-61.3064,-18.1047,56.0329,5.9382,36.6577,-36.2020,-20.1952,9.0812,61.3407,74.1739
-92.7975,-82.2856,122.5193,58.0875,115.7811,70.6810,54.5488,-114.7261,33.2162,-82.5457,-52.3912,57.5381,54.1506,81.8230,-4.6970,14.4582,0.1745,115.9276,100.5206
-82.1696,-94.2118,211.3626,127.6649,185.0895,126.8791,98.0738,-66.5356,2.7091,-65.2670,-18.3781,22.6863,109.8551,148.1826,-23.1784,-12.3957,-23.8445,150.1540,86.9859
49.7251,-4.6141,242.5135,150.2512,191.7390,124.2395,90.1112,-86.3762,-82.7368,-61.7142,61.8753,-53.7799,110.2481,132.4868,16.2681,-64.6076,18.9528,145.1866,12.7518
161.7936,44.4552,206.5872,129.3744,135.1984,75.2096,58.4903,-131.7724,-90.3080,-75.5701,122.8950,-53.4084,65.3835,58.3689,91.2105,-42.7349,106.0282,125.1308,-76.1007
199.9175,98.5190,166.2748,92.1128,96.4805,45.4868,21.8399,-131.5123,-23.2266,-75.6067,177.3052,59.4442,24.1238,20.0040,63.5867,0.2566,141.7126,81.9769,-131.2107
186.7279,189.9940,135.1503,40.1804,87.9707,21.3284,-18.0630,-122.7920,22.6048,-53.1598,195.3203,128.1317,10.5078,11.1208,3.9851,-2.1673,101.7153,13.9648,-150.8969
93.2652,162.5825,95.4419,-1.8909,62.6506,-35.8122,-14.6240,-136.1285,19.8509,-7.1923,98.5782,62.8415,22.9890,-10.7175,68.9413,11.2021,63.9242,-20.9411,-155.9443
-8.5910,22.7938,55.7967,-24.2736,18.7747,-77.0641,18.0463,-126.2253,-18.4075,41.2346,-16.0006,-23.3954,24.6634,-20.4678,156.6619,48.8350,66.6852,-1.5960,-158.5313
37.2942,-21.5101,22.9402,-55.8401,-18.3622,-67.3954,-13.5061,-90.5542,-54.9818,47.1619,15.4467,-45.3527,-24.9838,-18.9096,96.8735,30.0422,46.3211,20.2803,-152.4318
141.8397,25.7805,-7.9561,-78.0070,-45.6021,-62.8096,-90.2349,-61.0534,-18.3863,7.6871,99.4818,-58.5676,-87.6545,-59.9231,-24.4414,-23.7818,-26.7523,18.2716,-123.8949
78.9382,17.7761,-29.8197,-62.0980,-66.4299,-92.0499,-96.9423,-18.7612,60.9963,-10.0003,52.9994,-89.5910,-91.7828,-116.1604,-50.7893,-28.4097,-89.9335,4.3152,-87.8134
-84.5651,-18.3957,-35.1512,-49.0215,-74.6660,-113.0084,-41.8206,25.3336,50.8072,55.6425,-50.9457,-87.3592,-51.0489,-104.9384,-17.1385,-0.1247,-106.4202,-12.0658,-80.6515
-121.7952,-45.0275,-26.4516,-50.0569,-64.1432,-104.2432,-25.3015,6.2125,-53.8444,150.8968,-56.7901,-55.9872,-28.3604,-52.8846,-28.7127,2.2088,-97.9813,-7.5542,-98.8289
-49.2325,-127.6061,-12.5052,-25.0855,-53.7360,-79.7008,-55.7543,-50.2329,-120.7579,141.2230,-10.8648,-54.9093,-39.1131,-46.3369,-81.1133,-14.6280,-77.9164,21.0575,-106.3866
-19.9780,-186.2404,-9.7467,-5.0668,-76.2877,-50.4089,-75.1467,-49.5210,-99.4442,10.0662,-24.1015,-84.4589,-65.8723,-66.4941,-92.9300,-13.2627,-56.3348,24.7750,-99.1299
-50.9348,-90.9306,-24.1334,-29.5571,-112.0772,-31.2872,-73.2437,1.0828,-55.0429,-97.3986,-84.9987,-97.1563,-89.3632,-54.2839,-35.4140,10.1467,-42.1775,-9.9924,-84.8315
-81.5464,24.8839,-43.1360,-44.1083,-105.9737,-26.2403,-77.8738,32.9456,-41.7227,-83.1602,-126.5367,-87.9278,-86.8112,-45.0612,6.5472,23.0449,-22.3124,-31.6694,-40.9414
-95.5209,-20.1988,-57.4181,-17.6685,-63.2258,-6.5150,-89.8329,52.1902,-35.0438,1.6725,-133.0159,-87.2905,-58.2496,-68.3113,-33.6542,14.6835,-14.1213,-16.4120,36.2194
-115.1746,-119.2058,-52.5833,9.7418,-18.8624,42.2925,-62.0766,79.5451,31.2525,68.5581,-153.1740,-97.4621,-19.6123,-51.0196,-62.6988,23.7047,-40.0721,15.1324,102.6243
-156.8360,-84.5385,-8.4908,30.3684,33.3753,86.2723,27.5550,70.9538,127.8614,80.2884,-207.2774,-84.3515,26.0535,23.8846,5.8880,47.2423,-29.4774,42.3738,125.1391
-159.4287,50.6952,49.0300,43.2629,77.6750,91.1589,93.9211,7.0435,128.4416,55.9816,-196.7188,-20.4012,51.1508,46.1146,68.0439,23.7460,63.3931,42.0218,108.2502
-47.2506,126.1631,67.1643,20.3280,72.1676,67.4477,53.9573,-52.9744,52.8403,18.1932,-52.6621,58.9091,20.3964,-10.3742,25.6236,-18.9220,130.9735,11.9350,76.3379
86.6250,58.3772,55.5084,-13.2819,49.6882,51.2006,-16.9216,-57.6774,65.9221,-55.1970,91.4807,55.7618,-14.7506,-27.7356,-45.5239,15.1990,111.2854,-13.0310,73.3034
89.3504,-95.0536,58.0275,-23.7784,58.4832,58.4251,-7.7366,-13.5084,162.0539,-137.9184,93.9161,-52.8701,15.8602,31.8582,-70.3461,90.2347,100.8151,-27.8245,127.2938
19.7850,-182.2191,59.6770,-47.0191,64.1280,66.8408,45.0784,47.7423,197.3055,-123.5605,20.8114,-125.9087,60.9925,77.3200,-46.3335,100.0654,127.5583,-60.1826,203.6507
20.1376,-127.4945,24.9602,-92.5143,49.5796,45.3714,67.9788,91.0449,180.7875,-16.1151,-16.2032,-58.1750,49.5495,58.9514,52.5569,77.4726,112.2858,-100.1720,252.7809
50.7563,-50.1787,-23.0483,-123.0671,62.2245,-5.4600,88.4603,102.5876,197.0429,73.8831,-18.9267,25.8587,29.3795,-5.2068,170.8335,101.8231,69.3215,-123.7569,275.8883
23.5519,-84.3430,-41.2971,-150.1918,99.2112,-52.8963,133.6512,111.3413,231.8734,142.6969,-13.7454,-21.3929,47.5769,-77.5666,154.2990,126.2187,49.9350,-127.6815,294.5791
-16.4419,-160.2932,-27.0822,-173.0966,116.5331,-64.1882,164.5186,135.4686,261.9040,199.1573,-17.7136,-126.6712,60.1138,-81.8393,30.2474,85.7423,15.1699,-92.2709,301.4959
-23.2706,-147.9956,-2.9302,-137.3200,111.7238,-34.8841,169.6068,138.7487,260.1105,149.0177,-55.4515,-159.8648,58.8576,-5.5045,-18.9230,25.3055,-39.7451,-18.4427,268.9318
-36.1441,-97.0124,10.0735,-68.2833,82.5131,7.2512,171.9004,103.8651,169.9180,34.2330,-87.0237,-132.1724,89.9577,25.9444,5.5576,14.6093,-61.3769,24.5905,187.8757
-68.3542,-111.0347,-5.7968,-50.9354,20.0444,23.9195,156.4653,77.4712,65.5519,12.2745,-56.9389,-86.1886,125.7748,-32.9486,-1.2167,54.6544,-77.7789,-4.2822,98.4711
-79.2905,-126.8784,-57.2025,-78.7116,-39.0783,-6.1749,106.3690,82.8928,51.3146,43.4349,-13.9753,-21.4972,104.1035,-53.9453,14.1933,93.9267,-126.4966,-60.2009,48.9299
-45.0743,-55.1691,-123.6261,-102.0834,-73.1677,-68.1846,52.7944,84.2682,14.7604,27.2649,-20.3087,22.9798,43.3373,-3.9487,76.5770,88.5568,-150.4661,-99.9974,17.2036
4.2649,29.2550,-162.9969,-112.9684,-107.8365,-111.6605,13.8328,67.0913,-112.7687,20.8084,-46.6883,18.2689,-10.8171,3.9557,46.3403,58.0455,-121.9716,-117.4496,-41.9095
-4.5558,46.9694,-155.8922,-94.5518,-134.5704,-98.0642,-38.9660,47.5224,-137.7020,35.2936,-63.1727,19.1654,-50.8537,-24.3247,-77.6311,51.6533,-89.5392,-110.7052,-98.3019
-85.8381,51.3872,-132.1108,-46.7037,-128.7086,-50.3290,-102.7048,18.5993,-15.9950,34.2069,-81.7085,58.1960,-64.5327,8.7347,-122.5841,60.6062,-77.1645,-92.6881,-114.1339
-130.9344,67.7334,-122.7165,-26.5258,-114.0147,-12.5509,-121.7196,-15.9397,28.3077,85.7133,-94.5283,92.2699,-44.3103,65.3087,-81.5182,48.5530,-94.9792,-75.1675,-122.0110
-80.4794,40.9172,-118.2063,-46.0445,-103.9718,12.6870,-87.6412,-22.6067,-25.7142,121.2588,-92.6120,91.1052,-23.7505,56.9268,-69.2032,26.5176,-151.0413,-43.9344,-126.1306
-46.9038,-14.5858,-103.4220,-52.0649,-80.4739,34.4254,-58.4803,-13.2474,-11.0476,-22.9530,-84.7211,58.9528,-13.9599,9.6533,-49.1191,9.7785,-184.2110,-4.2715,-80.8010
-98.5889,-35.1511,-75.7093,-26.4133,-52.6465,45.6897,-47.8598,-28.5454,18.7526,-180.8167,-59.1051,18.7743,17.1582,-15.3907,25.9114,-11.2821,-137.7477,23.8822,-20.3904
-113.4508,-6.2713,-20.4455,24.3562,-23.8216,63.3745,-22.9476,-44.2744,-54.8900,-129.7182,-12.9862,18.9205,57.3480,-9.1513,41.4184,-22.0232,-63.5761,57.1883,-12.2596
-12.8581,74.5230,56.0351,95.3562,30.5861,101.5797,-6.9400,-26.4990,-120.6166,-30.5590,18.9511,57.0335,60.6883,4.3154,-39.5519,-20.1216,-33.4522,94.8646,-16.3880
79.9414,157.2073,99.7560,136.0597,91.7795,114.6208,-25.3663,-19.2943,-64.2855,-22.1167,21.5031,58.2200,46.6533,-12.6923,-65.1364,-50.3257,-43.3287,94.5856,15.2724
60.6677,112.1733,93.2642,112.2935,124.0533,76.2976,-12.8230,-49.9892,31.1978,-4.9587,21.0343,17.8494,68.9394,-47.7548,23.1211,-97.8962,-44.1477,74.3191,30.0622
22.6658,-33.9350,94.6590,78.3934,144.3132,47.1957,63.7145,-59.3308,56.4766,-29.8318,54.8804,17.6727,121.9325,-31.1610,95.4201,-89.3074,4.1938,91.1971,4.8791
80.6932,-63.1765,128.3507,75.6115,157.8824,60.9896,118.3149,-23.6062,7.9418,-146.0356,135.8424,63.8239,165.0340,23.9388,83.0913,-56.8160,71.7680,114.4453,-3.0037
167.8418,57.1354,142.3567,76.7434,134.4320,60.6015,106.1096,-6.4716,-34.5450,-169.0078,200.2830,84.1667,177.3874,24.2897,69.9708,-89.9643,81.9520,85.4609,13.9046
158.1808,127.3579,118.9286,68.7819,97.1397,18.7769,87.9756,-32.4486,11.9294,-115.8251,168.7692,59.3624,151.9511,-27.2678,116.8208,-134.4097,52.9979,35.9305,18.8886
90.4795,86.5678,102.8529,56.0769,92.1565,-14.3621,92.2679,-46.7151,119.3564,-145.7800,96.1039,25.0972,106.1501,-53.8839,172.5923,-82.9460,64.0417,12.5550,20.4372
87.6004,21.9174,95.9467,28.1500,92.9712,-15.5033,100.8300,-20.7276,193.7640,-86.2347,92.9228,10.8509,84.4019,-46.9765,170.8710,8.9097,83.2832,-5.0742,24.1846
125.8984,-55.8990,53.3112,2.4115,60.9885,-18.8859,121.6807,13.3921,219.3119,127.0251,126.0611,22.0719,94.6483,-30.2450,117.1151,24.4050,54.1037,-41.2555,8.9883
93.9279,-113.0632,-12.2850,-3.8137,24.3074,-43.1593,140.6865,30.1913,209.9534,159.6307,104.0503,27.5668,97.8074,-10.9840,71.3812,-16.4282,31.9027,-81.6918,-3.7038
11.7203,-61.1103,-47.7992,-28.0267,11.8390,-68.4855,123.6450,36.7921,141.6741,16.4442,49.1521,4.9881,82.3915,-19.7263,82.6624,-28.1995,36.4558,-104.3173,12.5718
-12.6351,25.3308,-60.2275,-79.1718,-4.9592,-73.9415,94.4977,40.5703,45.5596,26.2733,20.9350,-5.8802,68.4840,-55.7791,132.0486,-3.9329,5.3105,-98.4766,20.4014
31.4056,20.4613,-82.6199,-94.4573,-53.4801,-57.7247,67.9528,36.7554,-13.5076,72.8042,31.6082,15.6489,50.2091,-57.2860,134.6809,7.5936,-29.1413,-72.4793,-11.9094
66.1804,-20.1904,-90.2595,-53.4293,-102.2438,-27.3659,2.3489,27.0810,-48.1467,-42.2988,78.1635,17.2457,16.8154,-14.7736,47.0043,-16.9827,-10.1700,-42.4487,-55.8004
41.7229,-49.7901,-55.0112,-10.1721,-104.1878,8.8706,-70.7104,20.9309,-89.7240,-62.2303,106.7925,-14.9132,-5.4726,17.1560,-41.0049,-45.0802,-10.3516,-7.8445,-81.3415
-23.2916,-114.8744,-9.8081,7.8299,-69.9982,33.8584,-63.6137,11.7683,-139.4959,85.9979,51.7200,-20.0678,6.0259,16.2613,-32.5142,-32.1890,-58.0562,29.7180,-92.6144
-56.3864,-100.6897,14.6609,24.0250,-46.6874,33.3245,-17.3819,-15.7340,-215.0692,90.4221,-14.4720,24.9829,28.0456,-14.2726,-2.5821,-10.8487,-49.1678,52.4431,-113.1853
-10.0830,103.9427,31.4365,53.0156,-47.1305,27.1051,-45.3298,-49.6324,-286.4384,-44.1804,19.8483,80.4404,20.0690,-56.9466,-62.6264,-49.3933,28.4330,60.4372,-163.6313
59.8711,260.2118,49.5077,82.4626,-60.8540,38.8931,-130.5271,-66.9816,-276.1935,-82.3422,94.5537,105.9590,-22.5278,-57.8771,-129.3897,-105.4031,74.5857,66.5110,-219.8144
77.2103,151.0063,62.5652,94.1281,-84.1570,46.7642,-166.2657,-79.3584,-221.0519,-71.6326,96.5039,85.2204,-50.2026,-12.8249,-78.6872,-82.6898,69.3626,65.3536,-230.0506
60.8689,5.8749,64.5722,81.8668,-90.9754,35.0822,-116.1224,-103.9148,-211.2072,-100.9648,50.1533,51.5822,-16.0856,13.6215,4.4116,-14.3139,48.1281,58.1504,-189.9398
61.8690,66.5328,45.8790,58.4519,-51.1523,36.8862,-23.8147,-117.3279,-199.0713,-102.6761,29.2272,67.8238,51.6719,21.4784,-7.9216,5.5716,19.3907,58.4298,-120.9696
76.9018,172.0555,33.7036,46.3503,19.2374,54.9942,57.2205,-101.7764,-115.9045,-83.6712,55.7977,120.1307,97.6286,56.0787,-53.0309,-5.1019,22.3250,59.9365,-17.0567
91.3601,130.8499,91.3186,58.8870,96.0470,49.9390,103.0718,-86.4528,-24.9035,-59.3795,123.2408,129.9763,128.6343,89.7846,-23.7608,15.8441,88.7568,60.3591,91.5422
104.7279,33.6759,199.3435,82.8880,169.5160,36.0969,117.7901,-91.3984,21.3850,13.4155,178.8689,96.1436,163.6010,93.3154,60.1297,52.3742,162.9312,74.7114,125.1757
104.5735,7.3407,253.7436,91.1342,206.0431,48.6176,105.9352,-96.3464,65.1097,52.0447,164.2655,90.0164,172.8192,93.6438,134.4625,58.8655,187.6927,89.5174,85.0180
94.9370,40.6802,233.4348,85.3002,196.8728,55.3320,85.5329,-91.0476,124.6816,-10.3000,119.7477,127.6172,159.5145,85.5986,160.0250,23.3020,173.6971,84.9041,61.5847
105.2789,91.1372,210.2308,88.1161,188.5088,37.1381,97.8343,-84.1111,169.2526,-64.7840,116.0129,165.4256,174.1755,64.8553,128.9727,-23.2135,152.2584,79.5599,86.7837
137.9491,127.8727,205.6454,91.7637,181.7283,40.9341,131.5713,-69.0505,171.8048,-63.3534,145.5083,174.8173,197.3135,84.2705,106.9761,-19.1425,154.6272,75.5609,117.6519
168.5698,123.9406,201.8777,78.7362,146.3616,66.6041,126.0598,-43.2314,127.1907,-40.6652,180.9615,151.2570,171.0255,131.9108,146.6497,31.0634,180.8865,48.5154,141.7684
175.5683,85.8275,213.7326,62.8610,135.1570,64.2083,100.9284,-19.6635,98.2130,45.2048,202.2332,103.9781,128.9973,130.1514,181.2989,43.0215,175.4555,24.9236,176.6007
