Fp1,Fp2,F3,F4,C3,C4,P3,P4,O1,O2,F7,F8,T7,T8,P7,P8,Fz,Cz,Pz
-270.1743,-105.8485,-284.9897,-135.0785,-203.9001,-86.7735,-287.3360,-136.0570,-230.1715,-8.9272,-137.7018,-85.1720,-163.0369,-1.2056,-137.9660,-86.1770,-36.4122,182.1646,-63.3969
17.2758,-86.5952,155.9170,94.3177,163.6941,153.5356,-98.1238,-118.6743,-124.5897,50.4563,115.0793,6.8644,100.4043,-77.7275,-59.6562,-19.4370,32.9753,-193.9198,-243.7473
453.0510,91.5352,604.4736,296.1203,420.7396,305.4649,192.1738,-18.9974,63.0121,21.1525,359.9025,69.8561,331.2713,-85.3487,134.2794,77.6022,135.1753,-346.7430,-213.8497
397.0482,159.5211,532.0455,210.1326,327.6436,214.0392,193.4622,-12.2213,38.1369,71.1633,217.1105,21.4720,198.0226,-132.5765,125.5409,33.4183,61.6223,-337.2968,-134.2959
168.6035,151.3347,301.5476,90.6045,175.0669,85.9360,72.8836,-44.3037,12.5550,115.2019,62.6065,-0.3419,40.1956,-220.9156,-22.2854,-91.2755,-24.5628,-396.2008,-154.3358
335.8994,233.2050,383.1189,157.7981,207.5781,95.0389,164.5473,-18.2836,187.4227,87.2507,181.9391,69.2162,126.3179,-253.1704,-7.5332,-136.5313,37.8644,-447.4121,-173.0428
458.6562,222.9384,412.7728,174.5557,203.0336,101.2455,212.0530,-67.9392,230.4745,128.1736,167.0574,72.3182,135.3397,-282.5051,59.1313,-165.5520,26.5129,-443.7945,-190.0871
221.8679,86.8673,164.9062,72.4043,34.7858,16.5472,71.3769,-148.1561,106.0492,158.4518,-31.3913,-4.9770,-0.1914,-333.3845,26.3237,-214.4544,-105.5013,-498.8134,-223.6474
153.6604,112.5207,71.9324,76.4613,-49.8916,-2.8845,89.7813,-50.9811,148.6938,61.7361,-9.0662,-5.4734,6.5569,-291.4897,71.9698,-142.1240,-118.9479,-541.7408,-152.5407
260.2091,173.0578,128.0997,90.5487,10.5300,69.3776,191.6955,57.4670,151.5314,81.2566,41.6387,25.0725,21.8552,-209.8456,145.1160,-5.0984,-106.8156,-485.9973,-58.5764
98.0305,-17.3369,-36.7856,-52.5278,18.8097,82.4439,83.4004,4.9366,-59.9802,247.2246,-164.2212,-23.7918,-112.7327,-202.2713,40.4590,22.9802,-241.1939,-449.3525,-85.3813
-11.7866,-165.9273,-144.1182,-108.9106,18.8731,96.0697,93.3256,60.0260,25.6638,207.3835,-226.6844,-43.0273,-81.5822,-130.9514,-14.4071,53.8462,-272.9500,-419.9955,-52.1864
140.6625,-94.8237,49.4043,5.9688,131.9055,243.2033,332.7283,237.8671,362.5525,71.9512,-53.7631,-2.6681,94.2392,34.8668,109.0157,172.3179,-131.5661,-296.9648,63.7349
-16.0313,-205.1882,46.3073,-28.3227,181.7227,329.6171,247.9218,152.1427,211.4357,234.7394,-155.5240,-58.1384,-17.4297,23.0074,47.9539,152.1965,-170.7489,-255.9310,-45.4958
-387.9670,-451.4802,-250.4497,-199.7676,74.2153,164.1777,-49.2976,-69.2133,-184.8083,438.2507,-410.7579,-136.2602,-225.2223,-147.8513,-171.5897,-19.4284,-352.0672,-401.6480,-233.0430
-286.0572,-323.0498,-248.3813,-169.0128,38.5752,-1.5728,104.4427,5.4479,-49.0862,272.2185,-277.8656,-31.8928,-53.9859,-119.4710,-90.1757,-30.4828,-283.1784,-452.2953,-87.3768
6.2874,-0.5511,62.1842,35.8210,163.9751,104.1034,444.1885,177.7496,276.0371,16.2099,40.4531,136.2556,244.9330,96.0885,160.1865,127.8318,-41.6939,-290.9396,123.7971
-28.8937,23.2183,200.9961,180.7861,280.4138,312.6953,388.5068,91.2480,212.4641,14.4244,111.3928,153.9866,265.3152,167.6293,138.5337,183.6460,53.2104,-175.1842,-17.1965
1.5936,-77.2231,199.0957,253.4378,318.0186,370.8855,215.5790,-53.5256,84.4569,87.3230,69.4597,98.6755,182.0501,81.1496,-7.8646,129.9007,43.0590,-180.9445,-203.7529
244.9864,-43.4655,255.5285,267.1417,315.5745,328.5269,206.3911,-43.7501,105.5941,56.4240,101.1729,96.5543,199.8478,51.5211,3.8398,125.8712,59.5722,-160.8956,-123.0015
242.8296,-45.4645,295.6542,221.1624,301.4093,333.1646,159.0092,2.8351,70.1478,26.1384,167.9545,113.1318,241.0665,102.4709,64.8564,173.9192,80.2639,-159.7165,-51.7083
154.4738,-90.5386,370.5293,230.5666,351.2254,371.9600,178.6557,51.3256,134.3942,95.3128,264.2633,128.7669,278.0652,130.0853,103.9171,218.7267,108.1489,-271.0984,-141.4026
316.3453,-40.3663,494.4982,252.7108,434.4816,332.2094,359.5096,112.0205,313.3458,247.0143,256.9957,153.3687,260.0310,83.2641,156.6180,218.2550,100.4165,-381.0014,-177.0103
336.9284,-22.9791,407.6094,127.5986,372.8282,175.9643,320.3903,78.3226,221.4271,336.1605,30.2159,157.8869,98.2159,-12.1965,111.4886,125.3784,-13.0701,-398.4431,-127.3643
85.7520,-55.2034,181.3681,1.5802,210.7328,22.3262,96.3147,-1.8776,51.8511,220.1626,-133.1034,170.8157,-41.3547,-61.5219,-0.7895,16.9667,-91.0239,-379.7424,-118.6138
48.5864,46.9411,171.4355,71.0995,179.7474,1.3496,126.6126,-11.8696,185.2098,62.3726,-41.3012,214.0293,2.8504,-43.0171,11.6002,2.3496,-29.3903,-352.4032,-141.5339
195.9660,184.9696,263.9535,152.8308,237.6335,41.1882,223.0868,-34.3078,213.5704,95.9159,52.2495,191.5621,78.2012,-73.7517,78.1496,3.9715,-12.8453,-328.6227,-176.2639
170.9133,206.7987,191.9257,69.7768,192.6861,-12.3658,59.6826,-102.2334,-84.8739,177.8728,36.9876,76.0464,77.7246,-180.9811,44.1595,-72.9224,-121.9357,-372.1749,-230.1355
133.6783,234.3423,116.9804,-30.2240,101.4740,-125.1547,-52.7629,-115.0987,-146.2870,125.0258,44.0265,-7.3911,78.2589,-248.8701,-1.8021,-147.5195,-191.1401,-458.5375,-259.0248
193.2496,257.1191,151.0624,-33.0390,83.0315,-158.9264,47.9336,-109.0450,98.7538,78.5922,21.0358,-3.2666,58.8096,-245.8228,4.8532,-144.1195,-192.4186,-471.5401,-271.0470
101.0793,149.7965,130.9334,0.9671,88.7743,-113.1019,65.6296,-120.3722,132.1106,112.7263,-37.5482,31.2853,10.4804,-220.4459,-1.8942,-98.0764,-211.5370,-408.0183,-287.1332
-34.5649,89.8653,90.7366,34.6550,85.6036,-85.4828,14.6843,-64.2873,19.1821,98.7865,21.9491,67.4845,41.5307,-181.8442,-0.7430,-50.9659,-206.5967,-384.8801,-256.7530
54.4609,186.7236,140.8018,27.9856,97.3974,-112.4962,70.4371,-17.6063,63.9325,70.3914,92.4419,87.5567,105.2584,-166.8898,18.0610,-34.8619,-167.0844,-439.2674,-208.3325
179.5973,184.6049,163.0581,-53.9591,96.5642,-150.9062,89.6129,-94.2104,74.7675,117.3451,27.4260,68.2029,86.2697,-195.2243,-7.2589,-51.4294,-166.9009,-482.1035,-212.3733
149.6685,28.1920,123.2126,-118.5554,90.7916,-145.4759,31.4778,-148.8905,-31.6326,125.3787,5.5205,46.7964,63.9158,-170.4774,-16.7786,-38.2119,-167.9511,-457.0118,-206.3507
110.4139,-26.2482,130.0423,-95.7038,115.4771,-101.1746,52.5309,-105.8086,9.8381,29.3644,70.1610,55.2322,87.3377,-71.1852,48.6575,7.8057,-116.2896,-423.6170,-156.4822
104.0864,35.8789,138.9432,-57.2272,123.9701,-77.4918,89.9958,-117.1646,162.4908,-44.7202,17.7802,62.5678,57.4133,-31.2707,85.6981,14.1946,-72.7034,-435.1879,-142.5143
49.1475,30.8585,112.4699,-41.2888,110.1218,-83.3515,63.8687,-154.9871,138.9870,-25.6907,-67.9407,68.6751,-1.6663,-74.6748,58.3044,-5.3569,-51.2891,-437.1318,-136.6108
13.4322,-40.5656,151.7305,-12.9189,154.7302,-66.1350,73.0626,-82.4374,-51.3557,40.6189,-10.6815,104.3492,-1.3553,-85.4053,42.9592,2.8878,-2.5863,-375.3885,-73.4994
42.7720,-82.1529,219.8627,27.2825,230.6503,-19.2751,102.6290,-19.1310,-122.9020,87.5648,20.0582,139.8200,-4.4549,-56.4717,16.1235,2.9483,48.4385,-301.5055,-39.4374
92.5141,-56.2933,209.4304,84.3650,245.6981,20.1236,101.1741,-75.2060,65.0654,50.2677,-80.9939,132.8679,-48.3289,-67.2881,-50.7625,-31.3143,78.0534,-271.2141,-72.9817
179.2651,29.4082,201.2960,161.8081,236.6195,44.3327,137.0211,-118.3777,233.6049,-40.5077,-114.2080,99.7921,-50.1413,-118.9215,-77.3979,-65.8254,117.4842,-254.6148,-83.1510
260.8008,96.1366,265.8089,195.2289,263.7182,52.9005,155.9074,-94.1673,73.2399,-71.8533,-22.1979,67.2977,-0.8113,-175.9836,-45.0708,-102.6631,143.2823,-222.3578,-77.5422
224.9159,106.8822,312.0523,167.5017,286.0693,41.3321,104.1295,-79.9389,-122.3308,-40.1919,58.5604,41.4279,47.6415,-218.5588,-2.8424,-136.0882,111.6133,-200.1738,-106.6363
126.8968,134.6927,299.8227,138.7335,279.8413,31.9346,146.6781,-54.0148,41.7641,-12.3658,95.0630,29.1937,88.1219,-220.1097,53.5129,-119.1600,52.8291,-202.0485,-110.9300
94.8445,154.2546,279.4509,99.1737,276.4425,32.4416,273.1457,-0.9953,227.0704,18.6777,98.8418,32.6241,96.6498,-193.6746,103.4097,-77.3556,15.8831,-208.4513,-75.0335
105.4611,87.2573,275.0620,32.2747,281.8859,25.7169,258.4489,11.3649,69.5480,48.5928,65.7802,36.8832,63.3962,-185.0108,101.2732,-63.9009,21.8361,-207.5827,-51.9276
100.7839,44.0321,296.5277,20.7405,290.2603,30.0837,179.6097,9.2149,-62.8167,47.9925,53.8703,18.5497,52.9129,-184.8119,86.4871,-44.6022,59.9128,-199.8488,-4.5807
103.5805,93.2393,317.7965,71.9422,294.1778,57.8862,232.7557,51.2080,63.9833,64.8161,68.0281,-22.6432,80.5193,-156.3024,92.5371,-1.9977,66.0975,-192.8946,86.4417
127.5196,57.8338,279.4682,64.3156,265.7659,64.7368,295.1092,80.8427,129.3324,106.6679,50.7664,-42.6095,91.0809,-108.8801,82.0226,15.7815,6.8037,-203.5506,129.5430
157.4423,-102.5837,216.4344,-18.0306,213.4199,47.8577,257.8929,65.8726,103.6068,86.2812,39.4109,-16.3413,88.3997,-61.3185,57.5521,30.6641,-40.7630,-219.5005,107.2587
180.6260,-171.3934,212.2274,-56.9144,188.7028,71.2701,240.3508,66.0805,199.8865,30.1471,61.6436,19.8942,98.6206,-1.1935,48.7567,99.8257,-0.6484,-198.3272,99.6100
171.7709,-98.1616,248.3852,-5.2108,210.2472,133.2055,250.7935,92.3473,247.9030,46.5981,48.2926,60.7577,93.2706,79.5711,53.2079,180.5727,105.6322,-148.3232,122.1220
126.1105,-37.8671,275.5074,85.1673,263.6584,168.6452,223.6279,103.8581,130.7527,94.0515,20.4379,149.0426,67.9746,153.1872,84.2268,209.1279,218.9109,-122.5647,142.4691
82.3456,-30.5709,298.3441,172.8309,327.9727,179.4539,222.5401,86.7540,71.6875,82.5535,52.5899,251.8466,63.6500,178.4114,116.9117,200.6745,288.8173,-110.2253,138.4907
83.8192,-22.4451,314.3063,248.4719,365.7418,212.1707,243.6278,44.3732,99.8942,46.9901,81.1665,290.1410,88.6164,159.6176,74.5974,186.7432,295.7199,-62.0747,87.6083
137.1168,-8.4131,321.8399,300.7076,367.7695,257.6967,219.8086,11.4820,125.3845,28.2169,52.3772,268.9774,117.5108,145.5118,5.4127,176.8387,276.7122,-5.9451,32.6554
167.9757,13.1594,340.9918,309.5549,371.2122,280.2624,223.8438,44.9843,220.9596,10.5240,60.2226,221.5807,138.9960,142.4299,21.3323,179.8303,263.5191,14.7140,51.1298
102.7978,43.1032,360.6500,287.9259,386.6360,283.0331,271.2938,131.6052,240.5253,12.2696,149.9073,152.7197,176.3142,118.1473,70.1311,188.2957,245.0544,32.5838,103.9166
39.6533,72.7383,366.8458,285.1523,389.9580,274.9567,229.5140,183.3752,-4.8392,50.0726,217.7908,120.1152,240.0166,84.6908,71.1522,176.3993,225.9575,35.1787,99.8038
111.7298,130.3776,360.8595,286.8214,365.5526,221.0028,132.1895,138.8560,-160.3704,89.9465,166.7414,166.5663,252.7052,52.9444,82.0309,131.3058,206.9033,-69.5686,55.8446
211.2220,192.3879,312.1667,219.5806,300.7307,97.4411,148.1117,40.6515,92.2795,113.8595,35.0017,197.8753,159.0948,-9.7338,114.0609,76.2125,149.1117,-235.4822,35.5424
164.7887,154.8339,237.8263,112.1679,215.4353,-24.6627,248.6072,10.4153,371.6329,126.3493,-26.1743,136.7682,84.4363,-74.3540,102.7693,56.2940,64.1103,-287.3680,45.9901
46.1313,38.8120,226.7562,66.3549,173.2981,-51.4975,275.9330,78.4849,301.6658,121.4423,56.5118,65.7526,142.2081,-73.6220,91.7581,65.7554,20.3517,-220.6948,60.3882
14.2919,-9.5777,255.5967,69.5384,178.6891,-9.5141,204.6841,105.9612,98.1994,110.5975,141.7449,63.4218,211.9010,-51.8166,125.4984,41.8912,16.4054,-188.6829,45.0109
57.2731,10.4771,214.7369,49.0784,170.4474,15.3699,137.4866,25.5410,46.6216,104.6297,103.3845,83.4924,178.1974,-76.1520,134.7533,-7.9614,-3.0273,-207.6551,0.6537
87.1251,-36.2364,140.6936,24.2922,150.5096,36.0046,154.2489,-23.0619,115.2352,88.5844,46.4783,70.8232,139.0184,-87.4222,123.0371,-3.5366,-28.6327,-179.4389,-7.7595
73.1731,-160.9916,134.4813,31.7314,167.1167,100.5433,213.2842,44.7550,165.1139,77.9526,66.5571,36.3550,162.8450,-30.4851,156.2227,54.7737,-9.6326,-117.4312,54.4996
32.8951,-237.2967,158.7708,44.6479,207.7897,160.4413,232.5478,139.2659,164.7834,101.7197,70.5235,9.2416,166.5014,39.9731,170.9747,109.4767,45.7732,-102.6410,138.6923
11.3944,-200.9984,140.5399,39.0618,228.2344,154.4862,254.1685,200.7731,229.8880,133.3742,20.0301,1.0369,125.8951,77.8899,119.3071,158.9761,58.7161,-136.2388,192.8266
18.2915,-118.4874,91.6919,13.6142,207.8701,108.6778,334.3734,226.8683,398.2946,142.9023,20.6177,5.9910,109.5620,81.2948,113.8047,183.7532,-10.8264,-175.0338,189.2913
11.5869,-73.8171,55.2549,-14.5599,158.2219,63.6954,370.1654,187.0611,437.5662,140.3806,85.0490,24.4296,136.1586,44.5324,197.2265,134.7009,-64.4156,-198.3078,131.1071
4.2315,-65.4843,76.0022,-0.4445,137.2775,24.9673,291.6625,125.1184,215.8062,126.0208,103.7869,57.4986,173.7162,0.3946,251.6818,67.8051,-5.7201,-203.3645,93.2529
45.2796,-48.9551,148.1668,46.3157,171.6956,3.3929,204.0992,132.7333,-8.1308,104.6134,54.5962,62.5297,186.8880,-11.6921,222.1908,60.6250,69.2520,-196.0935,118.1091
99.7842,-23.3292,180.6664,64.0374,191.8019,14.1665,172.4534,166.6808,-14.7964,110.2232,31.5880,8.7234,160.1051,-21.0849,167.2400,64.7729,48.1380,-168.4707,117.3819
109.3650,-5.8980,149.5726,79.3727,168.5123,51.9745,163.2341,145.9804,94.5662,133.7028,75.0615,-35.1387,132.8533,-36.5347,136.3230,43.7064,16.9595,-111.3465,45.4680
84.6670,4.2532,138.2768,139.7538,169.9807,93.8909,191.6844,118.3695,193.3526,128.7021,98.6140,-8.4004,129.0374,-9.8574,151.6230,56.1519,49.8721,-68.2058,8.2715
46.7696,-10.2562,147.6744,159.5565,199.2126,111.4681,258.7891,127.8706,245.7369,108.2318,31.0006,26.2799,97.8824,33.2768,182.9213,93.2151,57.8707,-78.7688,59.9648
13.5308,-44.9561,124.8101,85.5477,201.9919,110.2052,293.0588,126.7845,213.8079,106.8375,-38.9094,12.1647,42.4800,26.0478,137.6571,85.8830,25.8395,-92.6142,106.4729
29.2362,-31.3659,125.1387,39.2778,209.2607,129.8127,269.3679,101.6674,125.9494,105.3088,12.5408,-0.6934,45.0012,0.9087,23.2154,59.9681,47.2681,-64.9402,82.6224
97.7565,29.2274,178.8308,81.9430,240.6865,155.6535,201.3809,83.9190,44.6117,92.3781,122.7192,28.5731,87.1327,8.9900,-15.4277,70.9081,88.3803,-53.9478,36.4137
172.6672,25.7380,187.1409,100.9305,219.8007,126.1291,108.8345,76.6776,-0.5996,89.3397,131.3842,70.8637,70.6545,19.1013,56.4211,93.7514,62.2465,-106.4279,25.6495
218.3967,-58.6765,119.4716,45.6079,136.2458,59.3058,77.6949,77.5233,65.5577,84.1327,35.2023,90.2525,8.0667,8.4408,93.9865,89.8284,15.8209,-165.8948,36.2359
205.8018,-104.2712,62.2966,2.2516,69.6332,31.1472,126.6762,77.6773,228.0154,59.6900,-26.3562,62.7085,-13.4872,0.0427,36.7631,65.3978,4.7570,-170.2474,12.3890
155.8350,-59.4913,55.0915,19.3809,39.4101,45.8729,127.1124,59.4090,283.5529,50.7294,13.8481,-2.2586,19.7809,-1.7781,0.1306,54.3419,-1.3225,-137.1592,-46.5215
159.0758,12.4625,81.1714,60.5602,31.5136,57.6169,58.3066,43.6261,178.3827,78.7975,86.8214,-36.0605,61.3349,-4.2329,45.5040,76.4969,-3.8649,-126.3125,-87.2344
206.3120,56.6535,123.7922,87.0402,56.3553,48.8505,20.0435,30.1254,56.5311,99.8165,119.0356,-0.9615,75.4259,-14.4513,84.6467,78.9912,23.5278,-164.9219,-125.1305
182.4335,52.8083,145.1568,91.9322,76.1846,17.9059,-44.7953,-35.4755,-87.3354,76.1015,120.5514,42.6020,56.6172,-47.7486,53.5909,11.0622,54.3986,-210.7232,-210.1628
112.1196,12.3328,130.1219,97.1367,46.4162,-15.2918,-189.8599,-110.7362,-229.4052,28.2591,109.9822,31.3005,28.3463,-73.2166,-1.6465,-45.7257,52.2917,-204.4032,-274.3471
105.3905,3.2638,116.6109,121.5589,10.0424,-4.9644,-221.9691,-79.9790,-122.8940,-10.8622,65.9127,-14.1423,15.7448,-38.4518,-28.7674,-9.1673,24.6568,-152.7402,-232.7391
110.3795,64.2177,126.2033,149.9507,16.7114,42.5474,-65.8165,14.1542,145.1253,-28.8134,17.4881,-31.6691,24.4781,19.7640,-25.2332,45.1583,18.8770,-103.9279,-158.5068
52.5248,128.4535,160.1616,176.1769,58.5824,74.3995,19.0925,48.2532,112.7348,-12.8952,33.7779,3.0258,44.0145,33.4842,-4.2743,51.9445,75.8255,-69.8024,-141.0577
15.1449,135.9143,215.2450,225.7342,120.3267,94.9912,-88.2049,50.2289,-179.4402,43.8030,75.9761,50.6113,37.6305,22.6950,10.0557,58.3401,136.8988,-34.2902,-138.9147
49.7378,135.4165,238.6673,288.8961,167.1345,139.8513,-167.8564,71.2074,-215.0011,96.4462,52.8680,66.9514,-18.4060,18.8020,-5.9107,50.0486,97.8975,7.0581,-121.5967
105.6700,182.8563,202.6047,315.5522,164.4520,190.6730,-89.2805,44.8332,31.5311,79.0102,-1.1679,65.9723,-69.5503,0.0284,-31.4380,-18.0709,-6.6005,52.7758,-125.7749
171.9296,211.0823,184.8802,299.1893,169.4885,224.5744,12.8374,-16.9105,110.7621,22.9751,-5.0452,71.8694,-57.3244,-12.9685,-29.6088,-51.0959,-67.0165,99.1798,-122.8911
206.2576,117.9273,226.5166,285.2871,243.8374,258.3170,31.0175,9.1319,-73.0621,35.0624,30.3928,73.3567,-12.9325,30.6246,-13.8935,21.9622,-100.4409,134.8414,-60.7269
127.7963,-26.8786,253.4216,290.2237,316.6249,287.5760,27.3296,104.8635,-192.2375,108.6060,73.0314,71.9184,22.1887,85.5184,-19.4641,81.6038,-179.1437,146.4104,10.3298
32.5262,-29.9675,224.5470,272.7170,299.2157,283.4047,78.5286,139.5125,-55.7253,119.2694,101.9958,66.8201,55.0705,62.6662,-39.3649,39.1486,-290.6756,124.8976,26.9972
67.5536,114.6211,174.1744,206.8029,222.8403,251.9457,148.2601,114.5643,162.4327,46.0561,78.2048,16.5904,75.4539,-17.5043,-41.3554,-16.3273,-394.4648,80.6526,23.1671
146.3285,189.4813,121.2173,132.2724,159.2515,213.6408,149.4904,103.0724,167.4548,0.8375,37.3663,-60.9555,66.1439,-59.0907,-16.4573,-8.3473,-461.5996,30.6444,38.3702
151.5400,112.4102,78.5508,80.6507,127.9812,155.4988,86.8013,74.4624,-56.0618,23.2567,59.9453,-70.9164,50.9620,-42.0881,19.7700,18.9857,-475.7274,-39.2022,37.9911
141.6626,35.9219,64.6302,21.9047,105.5658,68.6901,59.4485,1.9304,-185.7168,51.0267,97.6971,-12.1086,45.2298,-31.2718,59.2162,17.7489,-490.5087,-124.9410,4.4821
103.9207,27.9373,61.4614,-41.2831,58.9170,-5.7541,117.5365,-26.4545,-31.7268,70.0875,68.4671,21.3479,43.5648,-49.5536,110.4295,9.6434,-546.3368,-157.1147,3.3720
-42.7480,2.0775,57.8338,-45.9730,2.4711,-28.5248,203.6048,33.7033,185.7539,109.0090,29.9382,10.9604,55.6435,-53.2338,166.1696,28.4300,-568.5649,-123.5183,72.8287
-138.9888,-34.6697,65.1564,-11.5972,-9.5025,-35.3293,229.8634,82.3549,197.9120,145.8623,30.3279,-13.4422,64.4897,-55.8269,192.2520,39.6798,-539.1456,-126.9874,123.6345
-2.5826,-14.2901,48.3363,-40.9292,3.5550,-86.5030,161.8919,43.5084,37.1308,144.5090,9.1123,-72.9216,39.5230,-134.4776,174.9610,-24.6642,-575.7745,-197.2481,62.0722
186.8358,-4.4397,-20.0105,-131.4962,-35.2349,-156.2641,64.6751,-19.1063,-82.4428,109.3818,-28.5596,-156.5359,17.2973,-259.1693,140.2663,-128.2335,-685.3187,-231.5670,-49.7082
181.2430,-79.7228,-77.2758,-173.0995,-108.4233,-168.8449,39.8120,-28.6769,-48.5820,65.6766,-13.9436,-192.1051,30.7366,-288.2574,108.3466,-151.7902,-721.3964,-193.7242,-89.3156
52.3705,-150.5489,-67.4547,-128.5973,-124.8356,-120.9066,79.1081,0.9046,33.3406,43.1564,30.9466,-157.7357,32.8575,-184.1167,77.4496,-84.8575,-636.7071,-147.5329,-55.2280
-27.6777,-129.9467,-17.4764,-61.7869,-65.1095,-60.0038,91.9616,28.2018,14.6322,48.3676,56.2547,-85.3233,6.8933,-55.6455,47.1053,-22.4974,-516.7465,-111.7875,-23.6070
-40.3934,-83.8421,30.6219,-29.0040,18.2525,0.8794,76.3296,38.2540,-53.2753,36.0044,62.7816,-4.0929,0.8806,22.7633,21.0529,12.1013,-426.2948,-75.8690,-14.3400
-11.0227,-96.3046,50.2599,-25.0653,80.8324,59.2208,98.1947,35.6566,-30.1665,-14.9006,39.2224,41.5674,18.0175,69.9582,10.8668,59.3406,-379.2789,-53.0628,1.5473
34.1758,-156.3350,22.9024,-2.3310,104.1016,101.8253,152.1116,52.1075,67.2965,-41.2498,-5.5775,27.2606,30.6430,102.9223,26.4245,107.7666,-354.6203,-20.9822,36.7971
20.1500,-210.7529,-23.9406,51.9010,102.5531,141.2220,198.4206,108.1777,161.7540,-7.7746,-7.1384,5.0610,42.9039,112.7018,40.1886,124.9438,-318.6475,40.7570,77.4653
-51.1425,-213.8578,-35.4033,75.6347,111.0252,180.4071,241.8802,151.2139,236.5176,32.4822,35.1836,26.3503,44.3096,104.6107,22.3807,113.4686,-287.6703,75.6174,100.6243
-76.4443,-148.9861,0.0751,39.2002,125.9300,180.6060,273.7836,126.7768,232.5278,59.3408,48.3156,67.7048,22.0775,95.6174,4.1836,89.1565,-281.0676,46.0856,106.5218
-44.4295,-54.3431,45.4502,3.3778,113.1029,131.7737,265.0847,80.3276,133.9146,110.4699,19.4833,85.8053,10.1518,87.8144,20.0746,78.3321,-261.6219,-4.5992,125.6838
-36.5628,0.9466,48.4658,-10.1078,74.5503,66.0441,239.5868,79.3108,78.7027,167.9663,-11.7774,67.6654,9.9459,55.5405,43.5869,92.8516,-239.5372,-48.7809,159.9217
-43.0391,-22.0405,-7.2312,-52.4410,34.0219,-3.8422,223.8806,104.0973,93.4435,175.9199,-31.4753,20.0872,-19.4029,-27.3414,49.8676,81.9587,-275.1703,-95.9487,158.0760
-7.6753,-88.4666,-58.5867,-110.5199,-11.6729,-64.2211,176.2142,100.0376,28.2950,143.3817,-36.4350,-41.1706,-44.9947,-132.2040,45.9175,5.9081,-326.5518,-136.1121,89.7840
13.5975,-112.0442,-49.6196,-118.8948,-63.6271,-88.5365,80.9492,58.5806,-79.5020,117.3414,-31.9581,-98.3732,-15.5951,-192.0193,25.0136,-77.6809,-318.2737,-156.0150,-2.7618
-40.0716,-69.5428,-27.2900,-91.1334,-93.5143,-96.7808,16.7185,18.1813,-47.9443,110.9409,-33.6014,-128.8970,14.9135,-187.7213,-8.0138,-101.3625,-298.2781,-155.3643,-48.0693
-72.2398,-45.7189,-39.7867,-86.6340,-92.2596,-117.5484,26.6999,32.1934,55.1687,116.3467,-28.3157,-119.3592,-11.2314,-164.3844,-23.4322,-82.6857,-315.7360,-143.3623,-13.7697
11.1508,-80.0351,-47.4651,-109.7749,-89.9108,-125.6234,43.0291,103.3933,50.8832,126.0039,-7.3232,-107.8264,-50.5858,-157.8131,-30.3288,-61.5057,-306.2981,-151.8596,70.9035
89.6264,-99.3448,-33.0331,-127.4405,-95.4717,-117.2479,35.6792,159.8186,15.7016,130.1779,-6.3507,-137.8547,-59.3805,-154.2531,-47.7527,-38.2705,-241.8609,-178.6747,150.0397
2.2598,-91.4052,-47.3074,-120.8113,-85.3379,-126.9658,80.6605,163.4643,105.8290,122.9598,-39.3605,-169.4598,-58.4251,-129.4578,-47.4292,-12.6902,-194.5008,-162.3680,188.9803
-158.2608,-125.0219,-88.2507,-99.5336,-62.0169,-121.3188,183.0394,168.8553,232.4113,100.7810,-71.4371,-146.2956,-62.7846,-88.0072,-26.9453,0.3649,-186.4551,-96.7036,190.0762
-180.4773,-165.1822,-87.4752,-84.5725,-36.3860,-39.4548,219.9409,202.4303,198.6535,77.0968,-78.7328,-93.7100,-58.0702,-35.9304,-29.3908,9.1837,-149.6485,-34.9655,178.3555
-83.7583,-141.5341,-26.9333,-55.0970,21.0712,87.4996,157.6213,209.4268,49.1944,80.1807,-53.8028,-45.3860,-33.9722,46.2304,-51.0030,39.1040,-46.8332,34.1838,167.6892
-49.5056,-122.2034,49.1995,31.5788,110.8134,195.7201,117.9654,167.9834,49.5555,86.5286,5.3250,11.8611,9.1337,142.9327,-61.9245,82.6289,78.1455,120.4026,143.4384
-90.4963,-152.1836,114.6345,132.0018,167.7000,260.4359,142.8410,116.5358,204.3876,39.9494,74.6783,70.1969,60.6007,178.2320,-64.7222,102.0563,172.2525,140.2731,100.3317
-77.6874,-123.6366,173.2413,153.6750,179.8029,249.8865,114.9800,68.0068,123.2024,-26.6792,140.9018,109.7069,105.9820,135.6011,-46.2874,90.3009,231.1790,77.8618,58.3447
0.8304,-11.3272,213.3327,116.5094,200.0238,168.1411,-9.6605,16.0463,-268.2014,-33.5499,207.3197,137.6485,134.2074,99.5300,-4.3674,80.2355,259.7905,40.4964,13.2584
53.9796,55.4046,212.3558,120.5873,211.2637,116.2759,-101.1716,-13.0839,-434.7070,-9.1952,224.3825,136.2397,128.9576,107.7381,-3.0001,84.4796,244.0011,62.7645,-43.0672
56.3288,46.1214,188.6979,172.0885,174.8984,155.2697,-61.8193,1.8880,-163.1934,-28.3876,146.3510,92.8419,91.0147,111.2293,-47.4388,83.3064,212.3805,85.0037,-62.4307
46.2972,50.9323,177.0294,190.9977,146.4911,201.0998,26.7277,31.0142,48.7211,-62.4158,45.9871,71.0192,56.8057,94.0756,-46.9704,68.4797,212.9960,82.2549,-29.0034
55.9832,85.9940,157.5559,153.5865,148.3283,164.4518,45.7786,29.6049,-3.4347,-51.0815,28.5061,98.1477,49.5455,68.5048,0.1756,46.6532,205.1173,42.4239,-24.1542
75.0445,93.5020,108.8954,108.1349,101.8622,74.5723,23.3451,0.3665,66.9754,-5.1385,84.6474,92.6902,57.5332,16.4797,17.2435,24.8731,135.6449,-31.8040,-68.4827
25.8358,24.7808,77.5386,79.8864,14.3800,6.6857,58.5170,-3.8199,292.3899,50.8449,124.3612,23.8527,75.1315,-40.9205,26.4021,19.1699,71.3796,-66.6218,-67.1937
-108.9534,-108.3032,83.8234,47.8206,-14.8511,-14.8811,128.6158,45.8437,287.0776,99.6698,96.5724,-29.0011,96.2994,-53.3324,65.5588,32.9250,81.4581,-42.6087,-0.9411
-148.8444,-154.4248,80.4064,9.6941,14.7339,-16.1315,124.9487,99.0946,48.5823,98.6556,42.5974,-25.9500,94.7214,-49.1580,66.2453,37.8528,124.9847,-40.6001,43.2068
46.8034,22.6989,77.5208,1.5680,50.5049,-17.6715,42.1155,97.2407,-153.5781,39.5032,40.2106,-5.1733,69.1741,-63.1769,8.2893,23.6758,167.8294,-47.3996,37.8184
289.9186,260.2081,118.0500,29.7012,101.5162,0.5967,-21.0097,61.0532,-265.5067,-13.0591,76.6039,7.0043,45.6903,-49.1699,-23.8374,18.5476,209.9361,15.4019,17.9860
319.0794,290.4281,139.4903,47.0501,146.9419,55.0556,-12.4447,38.1764,-252.0040,-5.4221,60.8335,16.1934,25.1885,-6.2519,-23.2479,31.3330,205.4226,83.8451,-6.8352
191.8181,148.0500,90.5471,32.9087,140.8277,109.8937,36.5640,25.1571,-54.6346,36.5370,2.1230,37.2700,8.2938,3.8046,-48.4909,43.4448,160.8299,77.4506,-26.3749
118.8300,24.4592,63.4744,19.6013,132.0574,129.5611,73.8467,11.4672,128.9337,48.8185,4.1574,65.5633,20.5092,9.5692,-59.9497,54.5974,170.2862,68.0185,-21.1754
110.9234,-61.5549,107.0046,17.6726,162.2322,129.6071,70.1881,26.6514,122.6785,18.7921,65.0610,58.2204,52.7999,57.7771,-1.1919,71.7910,228.8795,94.4308,6.8847
64.1046,-139.2009,124.9800,7.8390,170.7432,128.7533,50.7537,79.7690,61.3656,5.5573,85.3030,12.1796,59.7372,77.2887,55.9701,82.1211,247.9899,84.7474,53.5826
-1.4807,-140.4665,85.5217,5.8357,145.3732,118.3248,61.4035,114.6096,62.6166,35.7133,43.2534,-0.6309,28.8556,36.4667,27.2561,76.6595,249.8885,48.3097,90.3976
-0.6040,-67.8043,79.6200,39.7814,147.6811,101.4693,89.7578,87.7587,87.1593,51.0961,-3.2109,33.9792,-12.7939,34.5235,-35.7018,71.2269,292.7896,47.8190,74.9286
48.3759,-27.1266,130.9184,79.6622,163.2698,92.9360,102.1003,51.2414,129.9878,37.8488,-25.1027,43.5693,-30.1207,92.1054,-35.2184,84.1576,320.5227,44.9736,60.9253
52.7180,-50.2364,154.5987,72.7706,140.9697,80.3530,123.9420,85.0069,160.6069,62.6747,-35.8340,19.9643,-8.1656,108.0703,26.1458,99.9438,279.8317,3.6803,125.0976
-2.7569,-70.0112,98.0721,32.0507,95.1572,43.9042,184.2838,163.7147,153.1607,113.7409,-52.6780,13.0250,12.7268,64.6227,74.9519,77.5069,221.0393,-23.4611,185.8678
-29.7951,-35.8604,11.6062,16.8198,45.3769,-0.7263,241.2889,184.6604,218.5715,104.8961,-68.9602,7.5555,-5.1291,33.8218,79.1408,25.2654,197.0201,-25.4767,141.6320
16.6886,19.8581,-17.3914,31.8427,-3.2557,-26.2561,229.8856,130.3486,300.7206,44.5292,-53.2433,-14.9382,-4.1365,31.4455,64.9656,15.1668,201.1135,-54.3508,67.1187
59.2064,18.2758,9.2354,18.4715,-24.1377,-44.5289,131.4423,85.7016,140.4675,12.0296,-6.3305,-12.5006,61.4882,32.1766,60.9119,62.5142,191.3515,-114.0473,45.4019
28.1462,-40.2940,-3.3911,-39.0244,-32.4756,-81.9299,0.4066,90.5942,-139.4202,31.4778,20.8533,3.3304,100.9363,34.9232,68.4453,91.5161,128.9976,-162.6141,34.4521
-33.8043,-66.5277,-70.6574,-82.8173,-67.3342,-112.2462,-59.8332,104.0386,-155.3999,81.4168,4.6753,-25.7324,54.9135,38.6924,63.0925,74.5195,48.7668,-162.8412,20.4105
-68.5705,-48.4603,-102.7812,-89.0187,-87.2643,-87.6935,-14.8357,100.7761,0.7456,118.6739,-29.1413,-60.9179,24.1879,34.2746,19.5826,58.0706,24.1559,-105.2318,35.7504
-80.0139,-49.8293,-93.5915,-104.7772,-53.7567,-32.6601,45.0035,90.0418,18.7772,85.5361,-63.0192,-34.9191,53.2192,24.7152,-39.2696,45.3100,36.9115,-42.9493,51.6454
-72.4983,-59.4585,-112.7994,-150.6690,-27.6985,-10.9404,48.5660,74.3578,11.6892,3.6582,-91.5759,0.1159,27.6116,22.9292,-59.9628,24.3927,27.6999,-34.9309,52.5390
-39.1686,-57.8076,-131.8186,-189.7586,-39.5665,-17.7509,35.0709,62.5823,128.7332,-32.1217,-97.1818,-18.6644,-74.2570,44.9719,-42.0174,43.2567,30.1340,-45.9471,67.1061
-3.3334,-88.1645,-89.1377,-188.0972,-32.3123,-4.6988,41.6149,68.4275,177.2875,-7.2813,-72.7845,-33.2356,-111.5637,81.2265,-28.5004,98.0849,89.1231,-17.9824,68.0743
21.6782,-110.3533,-32.4847,-130.0577,4.0332,28.5868,43.4904,70.6882,101.3135,14.6673,-46.7564,8.3114,-53.9974,82.3310,-24.6237,92.8998,157.0211,18.5604,33.8946
57.0366,-47.2369,-19.3082,-30.9501,22.9723,46.8133,25.1928,44.1265,82.7387,19.5064,-58.9212,49.2597,-35.9789,35.0679,-9.2657,22.4781,193.6525,11.5390,19.1850
105.4284,18.3482,-20.1088,36.8525,22.5481,29.3897,-6.1735,14.7970,90.1025,31.7337,-98.5049,49.1133,-94.3463,-1.9987,11.4317,-3.0342,226.2698,-30.6953,29.2798
151.1469,0.1580,-3.6947,29.3514,20.8806,-21.4866,-49.3451,11.8643,-4.5526,51.4178,-90.9482,47.2367,-117.4505,-0.0243,14.2056,30.1166,261.1733,-74.9322,7.8692
184.8146,-8.2390,22.7448,12.7575,7.5660,-75.4949,-88.4123,1.9685,-101.2735,68.3022,-5.3707,55.2984,-64.2820,-4.2031,-12.4569,20.6936,269.7158,-98.3816,-36.9841
165.0567,42.2455,44.8134,47.9431,-24.3450,-104.1832,-102.1814,-61.9063,-104.1903,74.2626,77.9128,39.8323,-8.1224,-45.3842,-41.4935,-50.2732,249.3144,-102.3384,-83.1299
63.4734,56.6465,32.8889,89.8536,-69.4352,-124.4986,-102.4965,-155.4056,-87.1582,59.4569,94.8990,5.5552,27.0171,-99.9456,-18.5744,-101.5554,216.6711,-112.0767,-157.9243
-27.2275,36.0814,-15.5894,99.3957,-112.3824,-140.3539,-111.8125,-196.4683,-79.2029,20.5459,84.4314,-29.2267,81.4330,-130.1973,36.6890,-102.1479,181.6574,-115.5648,-231.1165
-4.7200,67.6450,-36.9973,106.6564,-119.1073,-102.4045,-128.1611,-138.4823,-52.9697,-35.0740,72.6878,-76.7386,132.6004,-114.0872,28.8480,-83.3485,152.4342,-68.2629,-225.2112
63.2199,116.8636,-0.8964,108.0307,-83.7136,-18.5880,-129.1053,-26.8069,-38.1859,-70.2100,36.3171,-118.1023,123.0635,-69.8959,-34.2365,-50.5795,134.3458,2.4003,-157.8614
67.7303,107.5443,34.1957,70.0463,-44.7733,20.2676,-92.7103,40.2891,-32.3345,-41.4706,0.9836,-113.4139,84.1219,-46.5163,-38.6965,-6.8927,127.1469,27.7856,-114.4894
40.8475,57.9627,29.4559,30.6781,-15.3404,-0.9755,-36.4635,10.3002,-2.4130,11.5708,4.1516,-89.0009,86.7157,-53.4800,17.9274,0.1285,125.9779,23.1038,-125.4838
29.5493,3.9895,13.3617,31.3665,20.5539,-0.1519,-11.9504,-61.0995,11.5853,10.6265,13.7145,-73.6705,115.9311,-51.8526,43.1160,-40.8143,118.2244,33.6618,-151.4152
-4.9050,-40.3412,-2.4492,9.9091,46.3970,36.2076,-25.7778,-80.1081,-14.0419,-27.8602,1.4009,-21.2291,108.4234,-25.9480,40.3988,-58.7164,97.7347,32.0051,-137.1030
-39.8229,-46.4613,-37.1208,-86.6229,41.5126,37.6965,-34.4153,-53.8483,-39.3357,-61.1589,-17.1996,70.9089,54.7435,8.3875,56.7378,-18.7191,82.5801,-7.6748,-80.4217
-7.8497,-13.1750,-75.4530,-183.3469,28.7562,-9.6096,-33.1332,-76.0604,-81.6808,-106.3115,-47.8335,116.2090,-16.4339,42.0513,63.4517,18.6189,95.6879,-50.2287,-46.8851
21.4288,23.8103,-81.8664,-196.9416,24.8036,-53.0499,-47.7654,-152.8714,-149.2089,-126.6415,-91.8636,95.5632,-86.5125,60.1330,33.2560,12.8836,128.3342,-73.5715,-67.6468
-30.2139,45.9566,-65.0846,-151.2486,5.7485,-68.8878,-53.5551,-177.8347,-122.9025,-63.8171,-110.5824,74.6151,-133.6551,44.9870,-20.5309,-5.1056,140.1746,-83.7713,-88.9416
-52.7945,58.1960,-67.3164,-95.2650,-41.1198,-70.4930,-15.8848,-115.9135,30.3393,-2.8885,-104.3319,65.4076,-139.9536,15.1564,-91.7507,-16.4999,113.6279,-75.4957,-68.4661
45.3413,87.5749,-96.2879,-40.6879,-85.3990,-62.6019,27.7566,-49.9072,121.6949,-31.1205,-105.3254,46.5338,-120.7566,2.9486,-139.6089,-27.9019,91.5917,-60.2453,-28.5391
153.1583,152.5164,-117.5271,-12.4915,-92.8843,-46.9755,19.5991,-29.0256,45.4970,-66.9555,-89.2575,41.7218,-99.1978,6.0263,-115.1679,-28.8797,103.7057,-66.0693,-12.1593
172.2798,192.9127,-116.0169,-27.1825,-76.3990,-42.7288,-35.2892,-32.3082,-60.0732,-50.2729,-35.7430,57.9293,-75.7445,6.4969,-75.1068,-20.3762,100.2892,-81.8933,-46.6207
141.9801,152.6490,-107.8426,-36.4157,-78.2515,-56.7062,-87.8015,-47.1432,-94.7283,-42.6858,6.8496,60.7405,-45.6662,6.0368,-91.7449,-21.2955,56.6336,-75.4154,-104.6354
83.7679,100.1171,-97.1932,-9.6909,-94.4925,-59.3221,-99.4806,-60.2677,-105.8585,-57.7924,15.3913,42.7281,-13.2307,10.8326,-120.0415,-29.0616,39.5824,-47.3697,-116.9819
5.2232,103.6343,-82.9555,2.4425,-78.7231,-37.7421,-64.7760,-50.3853,-87.9447,-74.1722,17.0199,17.9092,14.7911,10.1563,-110.8793,-39.5793,68.2749,-23.4235,-74.0339
-5.0623,111.5652,-75.1606,-22.4547,-36.4283,-32.8717,-17.0955,-35.8214,-18.4258,-107.0852,6.1284,-7.4844,27.8387,-8.7729,-93.5534,-53.8608,73.5589,-26.8293,-29.4685
77.7190,76.8990,-64.9175,-37.0698,-22.4780,-65.5126,-11.2191,-29.1768,-7.4990,-101.4750,-18.9898,-20.5200,18.2248,-38.0367,-74.5984,-45.6629,52.0805,-58.0076,-4.2383
133.4082,24.7334,-43.0120,-39.6892,-42.2969,-92.1983,-64.1472,2.3088,-105.2422,-21.2540,-11.4357,-24.5390,-5.2684,-58.5337,-42.7382,-16.3067,58.8298,-83.1171,6.5223
88.4500,-20.9066,-46.1624,-69.5987,-57.8465,-86.3318,-121.3354,42.2679,-162.9809,7.3039,8.3106,-37.7972,-32.6991,-63.7541,-37.4567,-17.7634,74.1447,-75.9847,1.1505
-4.4124,-28.9266,-93.9164,-91.0195,-63.2997,-67.4157,-120.0724,27.4843,-95.8795,-56.7667,-56.2862,-36.0254,-65.6319,-50.3820,-66.5941,-38.6343,73.5453,-48.4281,5.0545
-79.9969,19.4052,-129.8849,-48.6936,-66.1012,-34.4611,-72.2738,-23.6255,-4.0703,-62.4871,-184.9330,4.0281,-100.6267,-16.9799,-71.3395,-22.8622,106.3852,-13.0582,23.5785
-90.8724,58.5500,-117.1683,10.5746,-58.9182,10.8248,-48.4758,-58.9567,25.0611,-4.1059,-236.0729,32.8117,-133.0115,-6.0167,-37.5775,-18.5551,163.4762,15.5686,-2.6366
-17.8558,46.0214,-99.1236,18.5405,-64.5711,16.1631,-94.9414,-108.0791,-27.6078,-22.1581,-178.9178,15.1935,-166.9953,-68.3415,-7.6464,-89.1380,157.7192,0.6735,-92.2928
55.5326,37.6380,-108.8726,0.5924,-115.3308,-31.6713,-182.4774,-189.5906,-132.6986,-65.1309,-130.6906,-0.0661,-193.8048,-153.7313,-0.3270,-157.1160,89.7194,-49.2786,-187.4940
18.1498,39.5490,-129.5514,2.9588,-174.6822,-62.8560,-222.2704,-237.7169,-142.6512,-21.7705,-146.3654,17.4828,-197.9307,-159.6682,-13.0798,-148.4052,38.2956,-66.9914,-244.1465
-102.7955,8.8379,-143.9868,11.4479,-178.4950,-42.4502,-160.2167,-216.9548,15.1186,17.6139,-146.3080,28.0160,-187.9510,-95.4476,-40.0064,-117.7715,25.8800,-38.6064,-235.4704
-185.2161,-14.0630,-130.2980,10.9473,-133.3610,-10.5172,-72.4752,-164.1858,114.0477,-12.0668,-65.2191,11.1244,-161.6060,-54.7132,-65.9203,-104.3615,34.6644,-10.8389,-167.4369
-172.7381,-10.9635,-60.8439,28.6263,-86.3298,8.8241,-81.6622,-119.4206,-33.6353,-24.2347,54.1974,3.5383,-81.5853,-61.5631,-91.5223,-89.4291,59.8438,6.7962,-137.9094
-97.5202,-39.4891,33.9666,72.7631,-47.8462,21.1308,-170.9634,-113.8387,-232.3815,-22.4572,127.4080,24.4762,36.5707,-76.4226,-119.3006,-94.3904,77.9926,15.6394,-191.0394
-24.7897,-53.7708,79.8431,95.5023,-22.6081,17.3244,-214.0674,-138.2560,-231.2062,-72.3793,128.7030,21.0718,105.9015,-78.2681,-115.5584,-110.5496,59.5843,-10.1415,-209.3648
-22.0169,5.2654,62.8734,53.2308,-38.4169,-4.1083,-170.7473,-120.3051,-82.4901,-104.4433,115.6540,-58.5323,110.2187,-59.5165,-61.6399,-66.0986,16.9590,-42.5756,-144.7496
-98.2832,6.5619,37.9915,-29.5467,-76.7360,-23.9837,-110.7194,-54.0098,18.3323,-58.8239,139.9729,-151.7931,119.7977,-35.7667,-1.2501,6.8736,-13.7461,-30.4613,-106.4184
-156.6315,-110.4774,35.7697,-84.8949,-74.5761,-37.6850,-82.4223,-29.4667,-18.5460,-19.1374,156.2874,-151.7164,131.2998,-55.1450,16.3486,0.7777,-5.8552,-16.1661,-101.5788
-105.1179,-151.7931,33.9607,-72.9045,-37.7535,-53.4446,-65.5158,-44.5466,-111.5011,-30.7558,94.5038,-79.7413,78.8503,-105.8080,-13.5258,-56.7466,40.2787,-44.5214,-32.7592
-22.7251,-51.1102,13.8310,-7.9278,-29.4027,-63.0347,-24.7649,-14.6576,-104.5074,-35.9557,-9.2531,-29.5915,-7.2186,-107.6999,-54.7424,-70.5531,90.5706,-49.2794,51.8394
-55.1643,2.3848,-9.1217,65.2025,-41.2914,-42.1849,28.4949,22.9875,-13.5438,-23.3188,-58.3435,-1.8921,-42.5196,-58.1013,-52.1339,-59.5333,124.1257,11.2525,42.5849
-138.9973,-35.9775,-14.2325,102.2515,-21.0360,17.7362,38.9763,-14.3742,-2.9978,-30.7835,-35.5623,32.8827,-34.7219,-31.3840,-6.3019,-65.4829,159.0944,69.3550,-14.8177
-87.5162,-27.8527,1.6122,99.2941,14.5627,79.7735,6.4657,-61.9600,-31.0799,-51.4598,-0.7048,49.8728,-35.6302,-18.0581,-0.4725,-45.9281,200.9270,91.6711,-20.6239
53.3441,26.0885,36.4927,106.5959,37.5242,103.0870,12.9189,-35.4010,76.3527,-54.7604,9.3710,66.6675,-41.6770,49.8367,-63.4108,15.8249,239.1594,116.3480,22.1244
89.1848,47.7838,83.0901,158.9542,80.0527,112.4642,68.1669,1.8711,200.1982,-38.8848,13.1052,121.7976,-35.1016,134.4834,-100.0452,60.8879,285.5678,139.1016,46.9479
52.3393,76.4792,120.7201,215.2759,138.0264,142.7705,63.4174,-28.0946,90.2963,-31.4467,41.1698,158.6321,-20.4125,141.3881,-52.8440,59.2217,327.7613,134.7001,11.3877
69.3510,121.8753,135.7735,220.6472,151.0226,154.2199,-32.8478,-81.9531,-153.4060,-52.6644,76.4663,136.0330,-0.3125,90.1563,3.8403,41.9634,310.8981,127.5222,-45.6090
46.9881,106.5368,129.4536,187.6109,124.4167,117.2152,-102.5627,-79.9821,-214.3174,-68.8739,71.3587,116.7051,16.0272,70.3886,7.2700,39.9683,235.8105,130.3506,-46.6694
-65.1428,82.8837,104.1863,160.7245,107.3542,84.7677,-68.9813,-17.0478,-33.8323,-30.0180,52.3184,109.4932,26.8770,77.3597,1.1392,48.7807,167.0715,112.1874,-15.9840
-51.8784,184.5693,72.5063,136.4962,79.9806,71.9198,-10.9202,32.9674,124.7774,36.5159,94.9120,56.4592,62.9802,40.1627,32.6860,37.7738,116.3063,60.4574,-38.7060
141.4253,336.8906,47.4384,73.4910,12.4042,17.6735,-32.2205,10.2396,37.1707,55.6868,163.2276,-5.5865,119.2286,-27.7234,76.9417,-1.7174,44.1848,-7.7971,-84.9763
244.8530,332.0842,11.1501,-25.4123,-51.0222,-67.2725,-109.1375,-38.2262,-178.9955,23.0998,150.5385,-17.0180,127.0189,-51.7163,94.8141,-30.8819,-35.2851,-66.5147,-81.4941
173.7141,182.5383,-38.2255,-89.2222,-69.9733,-101.2561,-145.3280,-37.8255,-258.8198,-1.3502,71.9757,-20.2731,70.8521,-40.9065,77.1435,-28.3966,-64.4012,-82.5382,-68.0996
139.8499,101.5278,-49.7279,-69.7346,-66.5005,-84.4986,-136.8014,-17.5997,-182.5652,11.1094,15.9965,-40.0013,16.9432,-60.8139,27.0153,-23.8120,-35.3435,-60.7997,-90.1391
172.6126,137.1896,-27.8846,-19.7955,-69.7101,-80.9657,-140.0829,-25.3502,-58.9558,43.7153,-15.1118,-31.7403,-11.4795,-90.5313,-31.7401,-21.6416,-5.1807,-55.5707,-97.7666
100.0459,127.3648,-55.9430,-18.3802,-84.0463,-98.0474,-117.6262,-14.8944,106.6779,66.7109,-39.8066,-4.5878,-45.8334,-61.5370,-47.4233,10.3640,-13.5166,-79.4972,-62.1592
-48.4704,21.2135,-121.2948,-58.9291,-96.0622,-103.1994,-42.8847,34.4677,169.3803,52.3191,-31.1302,-2.8969,-77.6221,-4.2772,-9.2898,49.5193,-25.1494,-84.0614,-19.5846
-105.1073,-69.5766,-119.7425,-87.3128,-85.6121,-84.1457,-39.7369,47.8098,-44.9988,5.3393,-14.2249,-24.7361,-82.0570,-0.2507,18.3637,37.8521,1.4705,-48.3364,8.9789
-78.9343,-121.3614,-66.8941,-92.9924,-58.2979,-37.0221,-127.1790,10.9508,-207.7064,-32.1381,-34.7246,-65.0631,-74.1551,-27.1168,-1.9960,-0.6958,33.6947,10.1523,26.9720
-80.9558,-193.6261,-58.5750,-93.5435,-33.9237,31.8243,-97.4000,-3.7453,39.8789,-39.3549,-48.0785,-107.5688,-62.2205,-0.4437,-21.6943,4.3403,33.8299,72.5791,42.6888
-120.8297,-248.7196,-70.8821,-90.2248,-0.1935,85.9224,72.2130,1.8632,292.5226,-37.9843,-16.6659,-82.4864,-28.9991,69.3475,-5.8950,35.1526,36.0869,98.9970,66.7424
-149.7674,-231.8106,-38.3060,-80.8509,53.8820,92.6087,123.5745,-21.3565,105.0182,-36.1677,0.8197,20.4725,13.0863,94.4967,15.1595,21.8851,60.6791,65.3254,84.8544
-148.6353,-185.1286,-1.5190,-67.8047,94.4487,66.3453,11.9021,-28.1318,-148.1846,-18.9464,-24.7074,92.7053,27.9336,54.7967,27.7726,-21.9220,62.1947,30.1967,81.9241
-125.8267,-136.5659,0.3937,-50.5647,97.2569,53.4250,-34.3140,35.9542,-53.3783,4.7250,-39.0235,63.9082,16.6025,12.4715,49.6594,-33.1441,34.5288,48.3426,81.5023
-115.2278,-79.3606,4.6916,-38.7296,80.5020,72.9545,38.8253,101.7239,161.5522,18.8913,-27.9724,-10.1712,13.8082,-1.0987,70.9058,-21.7793,28.2098,75.7054,91.8445
-130.2255,-60.6681,12.8699,-39.6477,59.1258,88.3633,97.8993,92.9947,238.7931,27.6038,-43.0006,-52.4998,29.4626,-10.7263,82.3884,-35.4144,43.2211,65.7558,89.7878
-111.7613,-81.2276,-14.4274,-35.9371,33.2104,61.4857,103.7729,54.7060,194.8879,21.0353,-92.3347,-48.2991,30.5158,-22.0847,106.0517,-59.6547,33.7640,41.7689,85.3031
-31.6926,-50.2437,-68.6875,-27.8046,-3.7758,5.8117,70.7369,51.2569,28.1384,-4.0217,-110.6125,-34.2649,-3.8614,-22.7455,128.7216,-59.7112,-13.2669,11.3856,96.5860
15.5398,18.8155,-125.0848,-53.1027,-70.3961,-49.1115,4.5240,77.9117,-145.5662,1.1986,-62.7481,-52.4383,-41.1938,-32.6968,105.7135,-47.5592,-80.9880,-41.2198,109.7209
-36.2988,5.7519,-182.3410,-108.2402,-154.9059,-93.5247,-15.1757,131.5859,-88.1213,60.5477,-29.8335,-93.9799,-63.3088,-56.9378,54.6589,-34.6895,-141.1438,-80.5052,131.0978
-95.9847,-79.7093,-224.5934,-126.5978,-208.0007,-112.7584,52.9224,217.5282,150.0260,118.7397,-96.1818,-101.9577,-114.6918,-45.9107,30.7371,-2.2027,-160.9819,-74.5518,171.4157
-77.9598,-112.2693,-233.9787,-88.8021,-220.5022,-95.4298,119.7186,276.6567,332.2858,143.6643,-178.2268,-46.3640,-194.2886,9.7927,31.2858,45.9412,-148.3326,-61.4979,192.1114
-47.0115,-65.8856,-225.8848,-67.8586,-215.2325,-69.7882,124.5097,251.2803,352.7859,153.4107,-146.3509,34.9537,-208.8115,42.9362,30.1588,78.6410,-145.1767,-72.7144,176.5607
-68.2934,-29.1418,-215.9963,-117.6365,-179.4513,-70.4206,88.0615,187.5383,185.1756,127.3822,-55.3929,79.3728,-135.5433,37.2550,43.1453,94.8908,-157.4280,-86.2463,159.3362
-91.9134,-74.1620,-199.2316,-189.7102,-117.8381,-86.5071,34.1486,154.6582,-20.2687,60.0853,-24.1713,75.6721,-77.2316,63.6214,69.3361,126.3643,-158.3735,-77.6103,139.7122
-91.4284,-170.2788,-163.5953,-196.7628,-75.9810,-76.4616,5.1144,142.1805,4.5866,23.7210,-13.4396,82.6264,-71.2555,146.3621,58.4439,183.2521,-128.9062,-30.1105,98.8213
-116.0695,-195.1644,-89.3788,-116.3468,-30.3107,-14.1060,8.9279,115.3708,113.8810,38.2247,50.1812,133.8446,-33.7162,222.5999,10.1628,231.0992,-53.1617,56.2587,56.6130
-153.3214,-99.9958,18.8705,-11.2111,74.4593,77.3977,-31.3768,74.3060,-23.7174,46.3426,111.4894,161.4719,57.1564,246.6265,-3.8233,236.9865,50.9566,129.2471,15.4761
-138.9718,-6.0415,112.4030,53.4994,176.1229,147.0937,-109.4426,37.1185,-189.5437,53.1636,120.2107,102.4986,125.1194,238.5997,32.8718,224.3031,121.3447,157.8034,-33.4447
-88.3985,1.5958,171.3875,97.7246,196.5490,193.3750,-121.6236,33.5810,-85.2429,86.3686,129.9528,23.3526,150.6392,235.9353,59.6079,230.0467,148.9899,196.5374,-54.0881
-47.2717,8.9764,222.4685,175.8279,196.2090,251.8863,-84.2178,65.5162,31.8521,102.1399,169.2478,23.8360,179.2351,241.1205,66.5575,225.8565,184.4574,259.5359,-46.2801
2.0008,67.1080,246.7505,252.5036,223.6394,290.6494,-57.3697,70.2017,44.3341,91.5510,175.5870,74.9244,207.0705,217.7019,102.6528,173.6017,210.0548,258.8139,-57.4183
53.7506,97.1984,198.3707,242.8734,195.3669,243.3055,6.8022,23.6096,225.9363,107.7429,105.1293,68.8466,197.5056,147.7454,160.3506,112.3859,170.5754,171.4781,-58.8430
42.1690,81.5574,120.6614,174.3351,88.2337,142.3259,69.7590,-5.2434,404.3053,133.9019,23.7825,-0.0136,163.8853,71.3402,190.0387,80.0241,116.1636,92.8278,-21.9994
-26.5933,88.8207,96.9220,153.8152,21.6738,73.2283,9.9169,-13.9730,219.8979,122.1940,22.9303,-25.5931,144.6714,21.5600,190.4201,36.6896,124.0932,63.9984,-41.6401
-64.3664,115.3577,107.8455,173.9663,39.4560,36.0742,-79.2620,-94.1215,-13.9957,92.2412,60.7137,19.1931,142.6592,-27.2616,181.0121,-37.9796,144.3952,26.7529,-148.3938
-45.1669,115.4343,76.4434,132.4462,38.1385,-17.6105,-47.1605,-208.8503,42.9081,62.8027,29.6379,26.5665,136.6119,-88.1983,162.8956,-90.0713,94.2368,-38.9509,-197.1514
-20.5672,104.7126,6.9204,28.4482,-31.7812,-78.3164,2.0693,-206.3614,72.3870,38.7275,-33.1236,-45.4420,111.3605,-117.3413,145.6231,-85.7382,3.0434,-82.0135,-124.9527
-16.5297,99.9710,-42.2409,-45.3568,-95.4201,-100.5751,-29.7039,-92.5836,-90.3914,49.7356,-38.2005,-96.0168,63.4738,-85.7874,117.5266,-44.1113,-58.0426,-73.2025,-46.9642
-24.1652,66.7010,-69.7102,-69.1113,-107.5453,-74.5179,-20.8945,-5.0201,-118.8808,65.4775,-57.5328,-80.9703,9.5060,-18.6964,38.9311,16.0922,-87.2745,-44.9112,-12.7051
-56.2353,-16.3422,-115.2122,-93.8182,-115.3267,-40.5000,68.5455,45.0615,10.5350,29.5753,-152.9526,-73.7771,-23.5791,50.5744,-55.1264,80.1277,-124.0087,-44.6508,54.4097
-130.6237,-120.6516,-172.5496,-134.2666,-146.6669,-47.4388,140.2858,135.6164,39.5952,4.6012,-200.3766,-87.5652,-36.3491,106.3940,-78.3648,135.9234,-178.8491,-73.5055,182.4867
-224.2036,-215.0814,-202.7162,-177.9151,-158.2026,-89.6094,220.6033,236.2453,45.5354,58.5956,-154.2281,-64.4530,-56.2948,136.5424,-50.1953,185.4987,-225.3006,-94.3482,318.1369
-295.1157,-314.6840,-202.4103,-221.6214,-124.3454,-118.6864,355.4273,267.6700,161.8301,117.0147,-151.5779,-16.3269,-85.0619,128.6283,-45.4033,207.5132,-236.9169,-101.7863,405.8869
-326.7895,-434.8589,-190.1771,-246.4100,-83.3507,-128.2351,429.2664,241.1273,224.0916,112.4733,-199.3344,13.5502,-92.8828,87.1048,-35.3436,168.9802,-216.3778,-119.2037,414.2961
-315.4963,-492.2623,-164.5327,-238.1530,-66.9100,-149.9531,371.2372,192.3848,167.3047,75.7629,-169.0503,35.5151,-79.1456,40.1102,21.9561,96.2652,-182.1199,-136.2500,348.8787
-250.1925,-379.5994,-123.8200,-219.1322,-61.3225,-174.1577,266.5297,102.1714,141.0583,19.3999,-92.7093,55.3062,-75.6298,2.2927,57.2332,33.6766,-143.4890,-132.0971,237.2139
-148.1549,-175.0611,-74.9663,-194.8029,-51.2522,-163.4839,173.8697,-31.0721,142.7383,-54.1148,-80.0362,52.4132,-85.1485,-49.4827,23.7832,-33.6491,-101.3986,-115.8880,95.0143
-63.8919,-77.5934,-9.0689,-137.6969,-38.6942,-119.2489,91.4509,-143.7282,77.9338,-108.7430,-96.3963,26.1594,-82.7806,-108.5808,-8.5194,-110.4919,-47.9553,-84.5474,-29.8026
-21.5679,-117.6952,68.9078,-57.2744,-22.5581,-71.8837,50.2094,-175.8224,18.7636,-140.1801,-82.6053,-18.3658,-63.4607,-113.3436,8.8541,-137.1560,22.5467,-31.5465,-52.6884
-1.9976,-165.2714,108.9896,0.5180,-5.7756,-48.3194,65.9062,-132.1548,46.2422,-133.7547,-66.6660,-66.6879,-34.7409,-75.9439,39.2022,-97.4973,74.4994,-6.6975,13.6263
1.7987,-162.7887,83.1240,19.0644,-5.0415,-68.8636,95.0662,-79.1475,95.9484,-52.0520,-56.2492,-76.5083,4.9754,-107.6336,63.7355,-74.3959,62.0798,-50.7363,43.2277
-3.4850,-128.6081,35.8730,8.4924,-26.0157,-131.2121,96.2611,-96.7558,108.4268,25.3916,-31.1446,-46.3588,49.4872,-222.2402,103.0495,-132.1429,14.2899,-116.7661,-16.1027
8.4752,-64.5731,18.6495,-18.4426,-49.4420,-199.2384,59.0539,-188.5596,76.0495,-2.8695,-4.4245,-26.9069,87.5499,-291.6559,142.4995,-225.1398,-2.6592,-147.1519,-87.7179
30.2584,-8.4425,34.5604,-32.8009,-53.6383,-225.3591,-11.0385,-256.1662,-46.2059,-62.3104,20.5162,-29.0315,115.9907,-250.7858,138.7755,-267.7490,13.0823,-137.6050,-117.4540
33.9981,-7.8773,60.3386,-15.6629,-41.2363,-184.0432,-97.7817,-231.7328,-238.9318,-77.2445,39.4205,-31.4335,112.0919,-146.8643,85.6545,-250.5970,29.3038,-96.4413,-128.4426
37.6921,-18.2220,70.5506,9.2863,-31.1527,-98.3193,-162.8591,-170.2443,-316.7068,-116.3084,13.5294,-27.6759,54.7794,-7.5486,17.6168,-227.8056,45.2383,-41.5379,-135.4077
47.9574,5.5465,59.2371,17.6004,-18.6922,-25.0070,-151.5958,-134.8317,-175.0217,-170.7719,-42.3902,6.8725,-3.9019,135.4123,-37.6391,-212.5164,51.6970,-13.7595,-130.3240
21.6729,17.5154,51.5757,8.4677,14.0333,-1.0223,-90.5727,-111.8077,-30.5984,-145.1817,-52.1374,67.3133,4.2682,188.2752,-78.1972,-191.8645,21.2829,-30.5094,-128.9862
-20.1688,2.9381,57.8658,-20.1581,35.7027,-21.2263,-110.2045,-94.7336,-122.9442,-90.7087,-10.9331,73.7662,41.1720,140.5091,-109.4240,-201.9707,-27.9932,-64.7986,-147.7627
-11.5441,2.6215,46.8265,-48.7779,0.8653,-45.4428,-219.7462,-92.6191,-306.3119,-92.7421,6.3263,26.5080,20.4584,121.4248,-135.4510,-239.8682,-54.2562,-66.6318,-166.0009
6.5615,-7.5527,9.0026,-29.8222,-48.3324,-16.4402,-241.1236,-56.4010,-294.1504,-95.3223,-36.0821,46.0880,-51.9158,193.3370,-155.7943,-216.3796,-51.5118,-1.0161,-152.8465
-23.5476,-46.4468,-13.0244,25.3384,-38.2685,58.4930,-132.8898,26.8663,-135.3070,-64.7634,-101.8092,142.0918,-113.3011,254.6190,-152.5307,-152.6491,-25.4739,73.1798,-107.0562
-39.1092,-35.7117,1.0828,36.7249,0.5573,75.2811,-73.8002,49.7779,-49.5179,-61.4673,-145.4293,182.5415,-153.2299,206.1200,-118.6465,-200.2747,18.4365,40.7802,-67.4296
-21.2714,34.4344,16.6564,-12.1049,-5.1158,-10.1248,-115.0288,-42.7097,-29.9375,-101.0669,-167.4083,127.3628,-190.3258,72.2482,-92.6194,-345.8781,52.5878,-72.3264,-78.7150
-63.5129,38.8666,12.6295,-44.5229,-33.3582,-96.0073,-136.5970,-149.2072,2.5505,-153.2245,-191.5453,53.1640,-215.9958,-56.6552,-103.3855,-414.9521,65.1593,-117.8860,-118.7767
-145.1082,-58.7012,14.1195,-26.6687,-25.7750,-115.4254,-135.1705,-186.1736,-30.4346,-188.8072,-190.3860,6.5916,-214.0385,-120.8405,-121.2759,-402.1353,71.4877,-84.5416,-110.2318
-155.4405,-144.3040,37.6271,-13.2793,1.0954,-126.8419,-172.0053,-181.9467,-135.9181,-176.4083,-121.0336,-7.8220,-178.6417,-140.7005,-123.5029,-435.0084,55.6115,-86.5324,-51.2653
-135.0176,-155.8789,57.2373,-37.4679,3.2127,-157.5367,-192.5510,-169.7155,-179.1430,-142.7380,-33.9856,-11.5531,-118.2252,-175.9563,-131.1957,-490.1189,1.0154,-123.2103,-28.4021
-155.0195,-135.5074,47.3220,-56.6423,-16.1425,-163.5486,-167.4731,-147.4433,-168.6110,-129.0195,-6.2220,-54.5122,-67.8674,-223.7923,-143.0100,-478.4664,-44.1128,-111.2039,-51.7750
-142.3161,-121.2171,16.3705,-34.6065,-28.2944,-141.4519,-146.6756,-118.6743,-179.4484,-90.8971,-16.7398,-123.0970,-49.0152,-228.1834,-123.8687,-444.2339,-48.5733,-60.0567,-40.6175
-93.0419,-126.8512,-18.6669,-4.0075,-18.7251,-106.6897,-95.3622,-92.5411,-111.0384,-34.4164,-17.5358,-134.5839,-24.1484,-188.6922,-64.7388,-442.9250,-57.0144,-19.8105,5.6727
-111.8340,-135.7772,-42.3460,-3.9175,5.3274,-44.1995,15.3725,-81.1421,36.3919,-57.4428,-10.9702,-76.6592,37.0217,-144.0274,4.2837,-427.3427,-82.3029,13.0844,22.3390
-128.2678,-87.7158,-30.9620,-11.0818,28.1334,22.8146,79.0314,-77.3492,36.8258,-111.9943,3.2924,-8.8040,84.3789,-82.6572,28.7364,-365.1464,-85.1389,45.4753,39.2037
-26.8782,10.4890,8.5853,8.1712,48.9829,47.1604,89.4762,-24.5577,-23.3746,-74.6113,24.8125,47.8083,66.3076,5.7978,-24.7319,-287.7065,-82.1412,66.8648,127.7366
37.9307,43.7022,34.2490,32.4662,74.6312,46.9040,209.1945,99.6853,218.7569,-13.8117,36.5294,89.3739,27.0519,67.4207,-91.8689,-215.8179,-105.2824,77.1140,255.4671
-64.3477,-25.1474,54.5251,35.0087,96.0928,54.1128,403.9072,214.3876,557.8953,-11.5119,68.3037,88.5828,39.0877,76.2645,-76.2160,-148.6223,-105.6836,69.6249,337.4651
-127.4028,-85.1604,119.1793,28.4291,110.1784,42.2086,419.9669,248.9411,404.9764,23.1505,139.5197,52.4945,92.4902,77.0172,-4.8495,-85.9213,-53.6607,37.4122,343.6012
-6.4280,-80.9031,192.6198,8.9828,127.1215,-13.9470,244.1410,221.9174,-67.6938,101.9925,171.5600,20.0989,126.7349,75.0094,23.9434,-37.8799,-26.9742,-8.4760,291.4200
119.6020,-77.4551,190.4028,-45.4512,128.7115,-89.7525,139.0187,159.3007,-157.5837,102.2227,137.2381,-0.5451,130.0296,25.6621,0.6403,-35.0619,-78.1086,-59.4698,216.3928
154.9298,-78.7636,137.3198,-99.4831,91.6325,-142.1273,170.2953,69.0250,79.3071,18.5788,133.5976,-18.1340,132.0677,-51.7436,-24.6622,-80.0048,-141.1671,-99.6999,149.5363
212.2711,-13.6757,113.7404,-97.0917,49.2692,-142.4935,144.0720,-12.4669,51.5912,-70.3897,167.6705,-29.1030,125.4504,-94.0298,-31.8893,-113.0114,-145.9184,-99.5774,96.9762
250.5150,87.5267,107.7661,-53.0330,39.9406,-104.2069,39.6374,-43.2355,-146.0948,-133.5901,140.5865,-38.0422,83.1278,-101.1318,-19.1411,-94.8798,-115.3967,-65.9646,73.6549
152.3736,118.2330,77.0442,-13.6699,38.2624,-71.7538,63.2523,-10.8224,-6.4430,-120.2655,77.4420,-57.2864,37.8099,-111.0115,-5.6312,-58.1522,-111.6289,-33.6221,102.7496
68.6176,79.2688,49.6376,3.0048,25.2555,-60.2366,226.1222,57.3328,302.9739,-29.7694,71.7395,-82.0895,46.4409,-125.3861,-13.7583,-37.8662,-137.5383,-10.1348,157.5389
171.8351,61.2318,57.9350,-15.6889,42.7197,-51.3007,291.3096,95.4696,256.0837,19.3956,87.3878,-96.3820,90.8573,-131.8448,-1.6833,-38.2239,-127.1156,3.9133,199.3421
299.9140,88.3542,80.9348,-56.1176,98.5441,-34.6471,193.9089,82.0168,-58.2751,-1.4915,65.9338,-102.7950,109.5009,-136.9606,55.0865,-60.7725,-56.5330,5.9790,230.3701
259.3800,114.8853,90.8813,-57.1033,125.7815,-3.9042,118.8032,77.8584,-167.4961,-10.2265,59.6376,-122.9480,99.2188,-142.8120,75.6997,-89.3188,-7.6863,22.5501,233.2125
155.5053,114.6812,80.8918,-15.0068,101.1608,35.0220,138.2940,100.5244,-22.8320,-16.7734,101.3686,-146.9550,94.0841,-132.7607,32.5172,-84.9869,-36.4692,55.4994,187.8605
128.4434,100.5479,63.0518,-7.0771,88.4699,48.7769,146.1891,100.7723,74.4430,-41.3940,136.7620,-124.3154,95.2252,-89.2605,18.6622,-35.5126,-70.5517,63.7055,152.2659
128.3188,116.0412,66.4817,-32.2246,119.5332,41.9406,117.3006,92.2130,25.3427,-18.4553,142.1550,-49.9732,100.0043,-21.0532,46.4755,30.3534,-47.1982,64.0194,152.6071
108.8538,190.0292,98.6364,-3.2883,145.4518,68.9921,100.5893,108.5289,-52.9584,28.8437,149.4922,14.2609,131.0650,30.6842,41.4470,76.2254,-22.8936,106.2098,109.3599
102.1204,253.4766,126.9760,67.8895,131.2159,127.7089,70.4416,113.1342,-91.7187,24.6619,168.3201,39.3565,184.0519,44.6580,29.4805,87.6045,-52.1949,153.4114,23.7704
86.8866,220.8271,118.4936,82.0299,93.9366,156.6258,26.9953,106.1599,-45.4456,24.5719,181.5383,42.3383,214.3535,53.0293,50.9961,84.1349,-108.4643,149.8932,-2.6169
58.9772,166.8394,69.3670,36.1003,48.0212,141.1169,29.4543,123.1436,92.7616,61.0678,191.3035,20.9855,200.8764,78.5893,31.6249,96.0133,-160.2628,122.4258,-1.2199
104.4506,213.1850,17.9356,12.3496,7.3656,112.3182,11.4982,101.1664,103.0242,35.3999,213.6921,-3.5107,168.5242,100.3863,-45.3965,125.6557,-185.4965,105.4939,-81.5632
203.1138,284.7186,16.5086,33.3760,0.2545,90.4480,-135.9301,2.0323,-191.2074,-55.3786,224.0925,25.4711,137.5677,109.1874,-83.9911,148.4535,-156.4331,92.4689,-196.4243
204.0943,243.6908,44.5447,59.5238,6.3290,84.7414,-303.4702,-64.7567,-477.7288,-101.2229,174.0264,84.3365,94.8527,112.3310,-84.4819,143.0332,-107.1110,78.6048,-240.2682
106.0866,138.8623,31.1957,66.6672,-30.0456,82.3595,-322.5424,-50.6917,-395.0737,-85.7796,98.3114,92.0697,28.9396,99.6871,-125.0358,123.3248,-102.3359,54.6670,-224.7186
57.3780,72.1512,-11.9805,61.2620,-87.8080,58.1003,-264.0141,-39.4103,-184.2212,-57.9286,83.5768,51.3540,-37.9667,79.8812,-172.1498,133.5054,-116.6724,23.7733,-190.9615
73.8580,34.2800,-26.3175,69.9514,-103.4272,31.5255,-252.0611,-45.3400,-165.8878,-39.3331,93.7501,12.7431,-80.4435,77.3758,-158.5370,168.4536,-91.5955,29.1721,-150.1155
53.9324,26.2710,-33.7453,112.7704,-93.6664,34.3094,-208.6067,-43.4052,-100.7706,-46.3218,22.9151,-11.7332,-106.7516,67.1231,-128.3133,155.5619,-52.5528,66.6965,-135.5598
0.2420,75.0172,-57.6662,163.9068,-94.8125,47.1499,-76.4608,-90.0395,164.4233,-55.9741,-78.1913,-1.3230,-124.5537,31.2205,-134.2507,93.0121,-27.2520,70.9999,-155.6673
8.6168,124.0011,-44.5010,179.7397,-74.5706,48.2130,-10.4289,-187.0505,218.2418,-37.8364,-82.6951,53.4239,-112.8589,22.4432,-133.6353,75.1679,14.4158,37.9911,-181.9459
120.2550,150.5129,-4.3398,152.2479,-38.7124,33.5407,-101.9453,-246.7606,-96.3432,-47.0135,-29.8488,86.8993,-75.4506,43.0074,-79.7692,108.6777,42.5444,-0.2819,-212.4286
251.9553,217.8642,-27.6869,87.4433,-62.4936,-23.9815,-187.6043,-243.4022,-313.7548,-95.6034,-31.0005,68.4082,-54.5457,15.8313,-9.7805,110.1708,-20.8544,-64.1740,-203.6330
238.6888,269.3870,-109.3434,-23.0857,-134.2321,-119.6137,-114.7428,-177.4540,-182.3096,-77.1588,-69.3489,57.5236,-63.4141,-37.9505,5.8889,98.3426,-143.0381,-151.1005,-75.9714
54.9805,191.3389,-170.1492,-161.8594,-168.7661,-195.7134,19.2086,-41.8808,14.2138,2.6714,-85.6542,58.7114,-83.5735,-23.6035,-35.4464,139.5707,-221.9837,-220.0323,85.7847
-77.9526,71.6010,-197.2828,-268.5092,-175.4424,-244.5918,26.4983,54.3330,44.9728,13.6124,-91.1151,19.7843,-113.6626,22.1716,-56.2500,180.0652,-246.3979,-278.3323,98.6398
-31.8462,40.6159,-208.3879,-304.7663,-213.9375,-290.1910,-100.2871,9.2146,-25.4594,-27.2971,-102.5523,-26.7482,-148.5826,5.6905,-14.7145,158.2179,-267.9142,-319.4788,-9.4002
28.6580,43.3642,-206.3110,-299.5114,-258.1714,-298.5485,-186.9096,-71.2863,-54.3356,-20.8227,-115.1499,-26.2950,-164.0340,-34.1761,30.3275,129.0408,-296.0943,-297.8950,-67.2443
20.4920,28.9913,-213.5995,-298.6626,-258.4908,-257.8137,-135.6891,-79.5420,8.8588,-10.0030,-135.8240,-15.7991,-162.0067,-27.6040,33.2355,138.8042,-306.1387,-253.8330,-68.6338
73.3591,37.6058,-217.8964,-293.2578,-227.7063,-216.6458,-74.1380,-87.6255,21.0593,-50.3881,-153.2294,-30.6600,-155.2735,0.3085,38.2915,165.9403,-273.3807,-235.3783,-109.9006
141.8967,23.6750,-164.6512,-238.8844,-187.8807,-168.1950,-137.8081,-126.5088,-142.0364,-78.4378,-137.1004,-43.6656,-128.6712,26.5532,64.5841,203.1770,-195.4489,-174.5885,-163.8418
54.6984,-45.1791,-82.0061,-144.3411,-144.0954,-90.6477,-242.4494,-114.0603,-265.9395,-61.0203,-91.2771,-52.0667,-92.2500,52.5666,41.3834,232.6738,-121.9939,-75.8691,-163.4264
-75.6213,-53.4471,-45.5506,-76.0946,-112.7561,-48.8995,-258.2645,-68.8078,-140.2204,-43.9880,-45.2017,-77.6087,-88.0022,30.2887,-49.4064,209.3384,-99.3806,-62.1452,-152.5804
-59.4590,25.8126,-40.3818,-60.8575,-100.1919,-68.8386,-228.3185,-81.9892,20.7364,-39.3474,-25.2768,-103.9785,-106.5028,-51.5357,-99.8305,154.6339,-101.3017,-104.6734,-188.6624
-0.5302,67.2338,-32.5332,-58.8882,-99.8697,-79.7196,-216.0549,-128.7258,17.7832,-31.5487,-46.8334,-114.9841,-112.7236,-110.2686,-51.0754,128.2047,-97.7466,-82.4909,-231.7185
-10.8606,49.4630,-51.6055,-41.9637,-121.0772,-73.3872,-177.2788,-125.0554,3.0552,-24.9859,-81.1833,-126.9724,-120.9937,-114.0879,-3.1271,123.4258,-110.1669,-50.3766,-228.8788
2.9995,17.5109,-92.4234,-23.8927,-158.4244,-92.5392,-135.6064,-71.5252,19.6116,-16.8160,-77.9095,-149.1518,-139.8110,-120.8700,-32.5273,112.5489,-133.3188,-83.1191,-203.5769
24.1533,-61.8505,-107.8796,-15.4238,-175.7857,-100.4761,-183.1519,-26.9810,-65.1710,-4.4875,-45.7304,-171.9310,-139.9318,-139.3779,-60.0665,106.8755,-125.7446,-96.6635,-190.2079
-76.5748,-139.1555,-107.9065,-9.4257,-161.1936,-68.5829,-243.5458,-15.1068,-120.7349,-3.5920,-37.2451,-172.6100,-131.4576,-122.8174,-23.1145,114.6763,-97.6602,-60.0213,-166.3266
-201.5649,-111.1368,-117.2048,-4.1384,-134.2945,-48.4312,-171.3052,-9.1881,-7.5497,-20.1830,-73.4965,-120.6925,-143.5477,-68.5091,9.8588,135.9588,-82.7950,-47.9266,-116.7954
-160.5131,-73.5661,-113.7101,-2.6229,-99.6893,-44.8164,-42.4657,1.6925,37.3822,-43.4143,-134.7099,-36.0148,-151.8126,-0.3378,-3.9672,175.7422,-62.3670,-44.8516,-78.7180
-9.6089,-133.6611,-88.0430,3.8418,-54.1685,-7.2222,-21.0437,-15.1545,-119.2290,-52.7752,-176.7349,3.2562,-144.4669,69.5266,-23.7156,205.3202,-18.8272,-5.1606,-66.9738
62.3744,-152.8664,-56.7013,30.0016,-11.7497,51.0689,-66.6355,-56.6629,-209.1754,-36.4913,-164.7194,-16.4961,-159.4888,107.3161,-46.3364,186.6261,16.2599,28.5915,-48.1505
-4.3971,-57.5712,-26.1094,63.7950,15.0462,80.4373,-44.1434,-67.7816,-98.8369,-22.7883,-134.2630,-9.2595,-193.4017,81.9295,-76.7221,137.5911,21.4950,35.7902,-9.2626
-119.1275,-26.7081,-15.1067,58.5260,22.6671,70.9526,37.4037,-36.7298,25.2652,-37.7725,-142.6903,48.9738,-209.5704,25.8615,-61.9722,104.9276,10.1971,37.1921,35.9754
-139.1161,-108.0896,-34.5242,1.0732,9.6829,43.5326,83.3850,9.6070,77.9729,-54.2513,-164.1412,61.6408,-213.9395,-2.7803,-12.3934,110.8930,0.1112,25.7290,78.3335
-36.6183,-123.5613,-48.2160,-44.5641,-5.7917,39.0098,71.7487,60.5724,123.7506,-48.9361,-152.8635,-6.9716,-205.5840,4.8272,-5.3217,142.3825,5.7408,31.8329,91.8329
21.2831,-54.3760,-36.6383,-28.1771,5.4457,75.3901,48.1017,83.7611,146.0258,-34.5503,-125.6642,-53.0779,-148.6996,16.7043,-13.3198,159.0308,22.1078,90.1120,60.1429
-81.9518,-55.1712,-20.3822,9.6831,40.0267,105.4826,38.2738,61.2012,118.1821,-12.7322,-80.8358,-19.7849,-56.4456,14.3328,38.1505,151.3813,21.0002,130.8596,25.0208
-208.2843,-125.5748,2.7900,18.4032,63.8883,102.3553,14.1589,52.2874,71.3388,1.1271,2.3984,9.7976,14.8915,7.1338,101.6713,162.2030,0.2424,112.1994,13.8382
-197.8923,-146.3639,33.8272,12.4892,62.8945,103.6650,-45.7452,65.3950,-5.9886,-24.2531,63.5297,-15.9991,48.2403,5.4643,105.3128,188.7589,-14.5368,108.8389,-9.5563
-117.1183,-124.9717,39.4550,16.1820,58.1602,108.9541,-95.5044,24.9101,-111.7922,-36.9915,53.2051,-34.2322,59.0973,3.8975,71.8881,176.5408,-22.7928,131.9182,-51.8747
-105.3021,-130.9195,26.8957,25.3540,65.8344,85.7826,-89.7156,-30.3827,-159.3567,20.9067,42.8560,-10.3117,72.9240,-1.9939,33.2277,143.3741,-26.9903,116.9833,-67.8235
-152.4745,-127.1943,44.1681,41.5335,76.2063,66.1617,-60.2891,-1.5720,-117.4002,56.9467,84.9352,15.1273,120.0494,-3.3345,0.6208,140.9013,-1.7145,92.9043,-50.5714
-160.3120,-67.8452,86.4982,63.3229,83.2406,78.4336,-52.7019,35.8394,-80.5391,-5.3574,132.4420,31.6603,172.8811,8.3543,1.5290,136.1917,42.3180,105.2142,-35.3089
-101.1360,-25.0489,112.0499,66.8033,93.7404,83.8658,-62.8188,-16.9111,-121.3470,-52.8758,161.6244,55.1589,164.2738,32.6489,22.2900,103.5282,49.3872,103.9054,-39.4033
-18.9572,-51.2128,101.9147,42.6458,98.6081,74.0048,-66.7957,-63.5241,-172.8675,-9.6886,168.9529,63.0845,110.6177,58.6036,21.6554,100.3854,11.6966,70.0498,-48.9492
51.6326,-54.4870,55.0205,10.3881,87.7143,75.0289,-33.9467,-18.6868,-107.5241,16.7902,107.8356,50.2616,83.2630,69.0956,11.5979,137.9592,-21.6658,53.2620,-23.7400
81.5950,33.4943,9.4349,-6.0509,86.1371,67.6573,54.2777,39.2584,76.4531,-23.7342,5.5899,64.6446,81.0965,72.2265,2.7763,162.3379,-16.1130,53.9112,52.9475
32.7283,123.6778,21.0996,12.2932,110.3064,46.7525,145.4087,54.3051,219.6094,-34.3297,-23.2561,116.7795,63.8156,96.1365,-25.1545,173.5679,30.4120,46.9950,118.4550
-53.9630,132.0413,59.5663,53.4037,126.2744,53.2379,165.3968,51.2141,217.4666,12.3429,34.2094,144.3790,34.5802,120.7433,-39.3760,184.7969,87.2782,49.6729,117.6403
-62.4194,83.9216,52.0333,59.2191,114.9322,77.7490,123.8840,32.4663,134.8860,37.5064,86.4101,94.8310,11.9922,89.7543,-3.7933,156.1866,93.7489,69.7801,91.4030
9.8379,0.5630,11.0202,-0.8341,101.9603,82.5841,76.1968,14.4078,41.6340,24.0545,91.3912,-12.7688,14.8894,13.1549,38.2493,87.7144,29.6376,89.4579,82.2021
35.7364,-92.8814,-33.0477,-75.3705,86.9846,84.6264,53.9732,37.3391,-35.2989,29.5246,54.6509,-104.6689,61.2369,-45.3707,65.4506,36.3090,-48.0556,99.2895,74.3209
-18.0961,-95.4306,-106.9663,-102.6965,45.7919,87.3620,80.9987,68.8241,8.5842,73.7432,-14.8185,-125.0518,106.1043,-71.9510,103.8864,15.3477,-88.5011,88.5427,66.2881
-62.9956,16.7335,-182.9477,-77.6300,-0.8220,54.3412,145.0509,44.4151,222.0759,105.0361,-71.0058,-90.8009,84.1296,-82.0423,119.4025,7.7349,-93.7142,60.2423,55.8683
-64.2022,109.1425,-175.8570,-30.0252,-13.9404,8.0145,169.9944,-35.5721,383.3630,68.1916,-65.9671,-45.6629,39.2865,-60.0553,82.3530,18.6469,-68.3684,40.4218,3.4623
-45.4056,105.7955,-94.9486,0.5847,5.4967,-7.9653,94.7292,-136.0256,207.9648,-12.0350,5.1067,-2.9870,60.3740,-21.4156,45.7977,32.2650,-16.5354,23.8585,-85.2884
0.7578,80.4518,-19.0205,-7.8466,30.4981,-27.9182,-72.9014,-218.1238,-241.6209,-61.6417,116.9190,24.3186,119.0722,-29.5256,25.8064,12.0130,23.2906,-9.6766,-156.0764
66.8317,82.8788,18.5675,-28.0872,24.1924,-77.9870,-250.8363,-240.6669,-546.0455,-70.1395,171.6103,21.5332,117.3226,-80.1002,-10.5578,-30.2850,19.4783,-35.9529,-188.2216
103.7614,87.4631,9.3448,-22.9057,-29.8697,-100.2680,-287.0966,-201.7148,-407.3481,-80.9756,64.7660,22.3680,38.2441,-84.4477,-37.5584,-37.7752,8.0303,-30.7335,-157.9591
84.5514,78.4279,-27.4600,12.5562,-65.7632,-54.2257,-128.7882,-126.6262,-52.9844,-89.5842,-103.6462,62.6800,-46.7951,2.9053,-44.6650,25.8293,58.1690,-0.0738,-39.0374
9.7611,39.1526,-16.5899,84.2985,-5.8367,34.7613,40.1886,-26.6677,78.3483,-64.1560,-136.7315,111.5474,-74.5181,130.5441,-78.3002,127.7153,175.3529,63.8170,87.8608
-88.0745,-35.3973,59.3340,188.6336,97.2643,137.7029,68.0036,67.7614,-5.8984,-25.9769,-60.6326,131.1813,-49.2048,212.5579,-107.5041,183.4783,277.1040,148.8532,119.4805
-118.4821,-67.6488,121.2458,259.7551,139.1656,218.0282,64.0941,107.2014,14.0564,-9.7089,-15.5214,124.9152,-17.8804,196.0297,-82.1270,153.8360,294.9703,193.4217,97.1605
-40.4945,8.8845,146.4149,246.3500,136.3984,227.2156,123.2547,94.4950,112.3813,-3.7065,12.7184,88.2440,-1.9596,105.8182,-72.4586,87.1286,262.4146,183.2060,112.7669
47.0504,109.3465,177.9280,201.8108,159.6923,187.2233,161.8490,89.1052,79.7689,16.6767,42.3836,19.5812,7.4294,28.6429,-106.9867,39.1335,244.0447,169.7584,177.5634
59.4087,112.9492,181.7393,180.7947,184.1561,171.5268,174.3900,141.5573,72.3369,57.7334,-17.1419,-37.3533,-0.2016,9.7173,-77.2341,29.2529,226.9585,158.4687,268.6735
57.8119,56.7240,96.6564,138.4134,145.3857,169.2366,241.7295,232.8981,282.7448,113.1840,-124.2851,-53.0700,-33.4742,-0.7781,29.3625,55.3267,159.6311,110.4810,335.0943
95.9073,39.4339,-29.1699,31.8872,55.7818,105.8314,310.1152,270.4077,500.2696,160.2751,-126.9614,-57.7733,-57.8563,-60.0740,91.4891,64.5872,48.1445,33.8243,302.7833
98.7435,21.1757,-99.7940,-86.4105,-21.3830,-3.7260,304.3680,204.8008,502.1272,167.2745,-45.2363,-82.9768,-38.7092,-144.1270,86.6534,2.1756,-47.8289,-32.0905,198.5907
33.9978,-60.8348,-90.2997,-144.4604,-49.8759,-75.7763,246.0746,109.1800,318.5823,126.8869,13.7365,-122.4171,20.1375,-186.1869,86.5636,-73.2290,-82.5103,-74.6158,115.5959
3.2336,-99.5637,-52.0169,-142.7859,-45.4978,-103.1763,114.8886,41.9565,9.9713,73.4986,50.4077,-149.2596,88.3856,-167.8928,100.0944,-79.7610,-73.3255,-104.0100,46.9081
27.8940,-14.9631,-52.2470,-139.1016,-49.1630,-130.8387,-69.8381,-31.9297,-251.7574,48.0129,62.4815,-135.7749,117.7542,-128.3651,102.0813,-62.7274,-80.4803,-128.9615,-47.5066
-1.4125,41.9124,-84.7931,-164.2351,-70.1107,-147.7976,-152.9299,-110.2058,-228.7359,39.1192,24.7457,-90.3108,86.2430,-96.4867,80.5539,-79.4941,-113.0400,-141.5372,-130.1348
-59.0350,-24.6621,-67.7422,-172.3072,-78.1455,-132.6864,-138.1125,-151.4384,-86.0852,-7.7952,11.8904,-60.6083,42.8745,-66.4691,12.6117,-88.3938,-108.1703,-125.1001,-189.8521
-15.5082,-57.9259,8.4328,-108.0943,-59.8896,-106.0724,-189.1664,-181.3769,-122.9290,-93.2754,59.0497,-53.6972,35.0301,-36.2439,-73.8615,-77.1960,-43.7484,-79.8035,-247.5895
30.6962,11.0154,48.9978,-2.3590,-28.8148,-60.3773,-227.5590,-204.3693,-155.2856,-132.0986,54.6049,-13.7215,33.4376,-8.0915,-95.9028,-86.1505,26.3135,-20.6657,-244.6646
-81.1486,42.3113,28.5374,71.0060,9.6476,20.7590,-103.7735,-165.0450,-7.9073,-85.7583,-33.2461,78.0181,-1.1575,34.5105,-52.0486,-82.9624,75.8455,28.1577,-158.4122
-168.0842,29.5819,21.9986,98.7386,46.5958,75.8882,-5.1437,-112.2188,-1.0110,-44.8285,-93.1406,158.9085,-54.1537,83.6458,-24.0977,-36.2393,122.9645,34.6399,-105.5011
-18.7089,74.8739,52.3584,119.3890,60.2410,62.7039,-103.7072,-140.8261,-231.2031,-82.2238,-89.4106,172.0882,-93.4743,89.0674,-40.5331,-12.9543,157.3102,14.7594,-143.3906
152.0342,97.4727,85.2894,160.1436,57.0204,53.5911,-197.9169,-176.7802,-301.1852,-120.7608,-75.2248,134.8156,-103.3407,48.2140,-68.8574,-32.4416,166.3426,40.6767,-168.8114
105.4925,23.6792,110.3475,218.5345,66.0073,93.2653,-119.4752,-100.8352,-86.3106,-65.0712,-69.2088,96.0978,-98.7367,23.4320,-88.3394,-17.4410,172.8665,116.8630,-113.3889
-5.1351,-11.0868,106.3826,262.9830,82.5773,125.1692,17.7452,27.7421,157.7020,26.6915,-74.1068,71.1304,-106.2914,26.9675,-81.9472,28.7319,179.8833,157.4164,-41.2391
-23.1431,36.7046,57.4039,259.9648,81.6324,130.8275,96.1826,82.7919,251.2979,41.7936,-70.4770,46.5716,-94.6387,9.9569,-27.6928,25.0244,169.0510,133.2803,-22.3317
-35.5450,32.8054,20.8564,217.3638,63.9771,136.1218,68.0874,49.5305,79.5709,-0.2012,-15.7270,11.5687,-25.7472,-32.2841,52.4720,-22.7364,151.1444,91.7939,-37.3438
-51.8613,-12.5606,27.1034,165.6802,34.4769,107.4096,-68.7800,-1.5583,-255.8297,-6.9559,34.3626,-45.3843,22.5718,-68.8098,85.9550,-58.3478,132.4846,49.6904,-21.9694
15.2963,18.4927,6.1611,114.7454,-16.8563,30.2007,-146.2215,-12.8505,-299.1295,26.4319,-6.0481,-111.8597,-24.1635,-101.3682,26.3901,-88.0734,90.4154,6.1382,20.7968
103.8121,82.5305,-58.9750,62.9634,-74.7427,-33.2160,-46.7522,-10.2340,18.0704,42.4758,-49.9762,-115.6562,-69.8213,-124.6432,-73.4256,-123.8856,30.6060,-22.0474,10.2405
128.9513,89.6359,-83.1497,8.7382,-97.6515,-70.9348,44.5964,-57.5508,161.1862,18.7193,18.0700,-20.7188,-19.0270,-107.3095,-109.4851,-132.3582,-14.3162,-49.3576,-60.4987
122.0527,66.0646,-43.0234,-50.6773,-74.6670,-118.6377,-17.1047,-118.6261,-24.6697,-34.6151,114.3896,70.4055,51.3761,-66.5221,-64.6065,-105.1225,-34.0018,-89.3696,-91.9115
97.9042,21.1352,10.1134,-92.0428,-31.2621,-134.5741,-105.8284,-106.6898,-183.6744,-88.6862,133.0171,61.0575,67.9431,-44.9482,-25.2241,-73.3912,-21.7422,-96.6482,-51.8617
63.2908,-88.1961,62.0159,-82.4611,14.9478,-74.8749,-129.8355,-45.2242,-209.4803,-93.9665,117.8819,17.9500,70.8236,-19.1673,-40.7109,-45.6732,22.6608,-47.3883,-1.3883
66.3065,-198.7482,99.9553,-41.0034,59.0352,-1.3262,-93.9537,7.9854,-97.6646,-47.1412,111.0906,28.1682,80.2219,48.2036,-63.0145,-8.0023,53.1283,8.8372,42.6535
67.9960,-163.7848,96.5867,-15.7755,93.0051,24.0104,43.9429,65.8595,243.2754,-15.3903,98.5471,59.2514,90.6174,121.2713,-34.5331,38.7890,39.7529,25.8019,86.1416
1.5300,10.4774,89.3987,-22.1034,109.3147,12.2994,182.8407,100.0380,458.9378,-27.0021,101.1961,75.8300,132.4217,152.4394,44.8146,81.3764,23.8021,-3.7773,90.1406
-56.5252,96.3321,107.7394,-46.7551,95.6792,-19.3114,126.1913,51.0448,188.2361,-26.2909,121.0199,91.5857,180.7654,148.3151,126.8978,100.9864,31.9985,-56.5081,50.1112
-26.0281,-40.8106,95.5976,-52.0480,46.1870,-49.7310,-23.5595,-23.6517,-121.6411,23.6126,123.8833,75.2564,167.7479,124.6340,156.8815,77.7513,41.0333,-77.8159,6.7332
32.7932,-187.1822,50.5826,5.7377,-4.5599,-42.1392,-44.3635,-44.7265,-40.0318,82.1236,126.8130,6.3359,119.6460,88.4216,131.3871,30.0335,54.2183,-49.8540,-32.2420
57.6743,-123.0495,45.8311,92.4117,-19.5273,-12.8012,-6.0066,-37.9306,90.9032,94.0065,127.3891,-43.3260,96.8939,66.7709,101.0002,20.3011,83.7828,-21.6435,-53.3947
48.8567,-9.8855,52.4091,119.8167,-27.0648,-15.7607,-21.3297,-26.4428,36.4081,63.8569,62.2815,-31.0425,83.8404,69.9369,94.2966,62.0398,90.2408,-14.5227,-29.1627
15.2406,-37.3337,-0.9150,90.0079,-63.1743,-57.1477,-5.0017,-5.3256,23.9283,47.5892,-29.0700,-3.4826,65.3071,62.1065,93.0774,77.3878,52.5025,-8.9938,-7.7674
-1.9690,-49.3441,-54.7186,75.2180,-93.8751,-110.1573,55.8349,-17.1952,72.3872,67.8127,-37.4961,15.9226,58.3274,21.2667,84.7377,21.9551,12.9431,-16.8201,-42.0697
16.8708,68.7851,-51.8478,82.3534,-91.0550,-155.1849,82.8575,-60.5644,113.8589,77.0003,6.5077,30.3016,51.2972,-30.1748,75.1025,-41.0316,-4.7587,-35.6426,-78.8064
21.7693,144.6470,-49.4523,83.8127,-85.3831,-171.1396,103.5190,-69.5361,224.3692,44.8092,28.2096,11.6780,50.1210,-66.5710,68.9451,-66.4823,-11.3644,-19.4186,-78.9289
32.1889,130.5497,-52.8108,86.8086,-76.1142,-163.4865,96.7224,-62.5585,192.3989,18.8602,62.0766,-25.9728,78.2668,-74.8955,69.6368,-92.3914,-1.3907,23.6788,-96.7885
134.4822,188.3386,-14.5977,81.2252,-31.4446,-166.0003,-11.8537,-87.4444,-127.5556,31.9591,99.9139,-20.7249,82.3482,-54.0266,59.9608,-122.0764,19.1712,45.2999,-140.4863
306.3470,332.2426,10.5955,52.1559,16.7695,-171.3717,-98.5735,-100.4314,-311.5953,29.6951,64.3101,16.5741,19.4743,-34.5024,4.4658,-112.9448,23.2440,59.9094,-154.7959
480.1796,490.3470,-13.2383,38.9297,27.9850,-150.8200,-59.6832,-93.1469,-183.1897,-33.7825,12.5910,25.5826,-30.5473,-50.7556,-83.1328,-98.6985,13.9555,96.8495,-155.4210
670.3453,715.8112,3.2256,65.6817,33.8536,-119.7059,-41.3963,-118.7001,-113.7568,-99.0103,53.8134,10.6432,-11.0724,-81.4658,-140.1247,-133.4789,6.3917,141.8371,-184.7830
882.6049,1009.6496,76.4583,108.4122,62.4656,-80.5120,-80.7321,-129.0719,-124.8157,-78.5501,134.5493,9.7187,15.0377,-69.9920,-161.0502,-160.2207,10.5426,192.7955,-199.3432
1105.0751,1263.6210,122.9238,176.7441,105.5523,4.5146,-54.1892,-66.7152,-75.8095,-7.5560,161.0973,33.9618,3.8486,3.8399,-209.1920,-112.5820,74.7805,252.2029,-154.0124
1355.2738,1455.9117,155.4695,284.8597,167.8979,112.7340,-55.8878,-9.5434,-219.8242,-12.7209,145.3383,86.9747,-27.8323,100.6525,-293.4465,-41.8393,205.2022,294.2583,-99.7488
1533.0033,1588.3650,204.0076,380.7115,211.6777,169.8239,-155.3221,5.2599,-384.7386,-99.9004,111.3372,142.8845,-74.4952,149.4452,-336.6086,-11.0472,277.9224,313.9816,-99.6290
1479.7592,1589.1207,197.9966,424.4150,165.2990,167.7383,-121.1645,46.4697,-71.0565,-135.9076,87.4756,142.9205,-101.4895,114.5877,-291.3585,-6.4928,232.5934,306.7836,-132.5133
1283.3634,1473.0951,151.1484,424.9371,81.2069,138.4117,23.0198,79.4110,179.4012,-92.4878,126.6987,91.6082,-63.0266,50.6443,-208.2786,-14.3549,201.4401,234.3323,-133.5814
1145.2896,1327.7258,157.8618,370.2209,65.6587,74.8117,-72.8876,26.5843,-326.3649,-71.0423,154.8867,55.2257,-24.5240,30.5894,-166.3117,-34.9109,238.0852,126.8980,-82.3450
1032.5706,1130.9376,153.2339,274.6531,58.3093,-12.2108,-279.9848,-15.0574,-742.7858,-70.0454,44.5636,40.1046,-72.8351,38.3452,-175.5115,-33.8685,204.1787,76.8863,-13.4851
831.7273,834.2126,48.0178,217.6336,-36.4325,-63.4535,-169.3815,54.7161,-256.9050,-12.6160,-103.5999,-1.7083,-147.6971,23.2458,-178.3897,-2.9768,86.9621,73.8541,37.5990
600.5032,500.4222,-36.5242,211.2644,-124.0156,-54.7543,73.1772,137.8817,233.4177,44.0654,-102.9021,-68.3021,-149.8459,-0.0077,-139.5154,8.9548,49.6132,54.7359,65.4904
405.0817,217.0974,-7.2965,182.9443,-97.5848,-13.3476,51.1613,147.5749,33.5356,19.0965,-22.4906,-116.3489,-99.6066,-9.3152,-83.0831,-10.5071,89.8477,48.3206,75.9145
208.4135,31.7684,15.0535,121.2250,-36.2389,27.1341,-25.5039,143.5170,-91.1916,-20.1074,-22.4481,-125.7314,-54.0202,-34.8940,-29.1859,-32.6415,58.9706,61.3826,68.3968
25.1244,-32.6757,-28.1304,63.2554,-30.0884,27.5196,90.8701,145.9764,179.3370,-17.3585,-48.8544,-102.2682,-9.8844,-75.2553,29.5928,-59.3453,-21.8238,17.7937,56.1565
-86.9593,-39.4101,-46.0847,-4.6692,-43.7757,-20.7181,153.5211,115.1750,200.9094,-12.4344,-9.2612,-72.6375,32.3110,-82.6298,65.8720,-77.0806,-49.9337,-61.0659,81.4516
-164.3510,-121.1059,-43.7878,-91.8795,-43.6726,-55.1077,96.1723,107.1683,54.1511,15.1546,29.1728,-66.8463,46.1260,-67.5538,49.3345,-36.4917,-74.3207,-75.9791,163.9184
-275.4247,-329.3683,-80.5583,-157.8469,-42.7287,-35.3697,188.9513,168.3053,264.6185,111.6504,23.1403,-67.5132,50.5085,-76.7267,46.7516,28.5239,-135.4280,-47.2503,236.0058
-401.3364,-577.5774,-87.3609,-186.3007,-23.1003,-13.4928,318.6942,185.8625,412.9366,206.0411,33.4695,-39.3478,86.7722,-88.2415,120.0692,25.2427,-133.4635,-45.0519,216.4200
-479.3208,-717.0665,-14.7640,-194.8613,34.9660,-21.0600,190.9395,88.3938,38.6108,212.5313,53.1420,-7.2798,130.0701,-58.9829,171.8417,-15.6085,-44.9988,-49.0648,154.2571
-514.2380,-684.8149,32.6103,-199.5221,94.7487,-14.9072,20.8292,1.6926,-264.5369,161.4835,14.6257,-19.5378,114.9863,-23.4223,111.2455,2.2954,2.6295,-50.4355,158.3332
-575.2507,-621.9470,-17.9261,-226.3948,99.0592,4.5000,98.9184,23.5515,-23.4566,124.5631,-57.8271,-66.0529,43.2206,-36.1991,56.1944,40.6099,-48.3822,-89.4652,210.0264
-674.2532,-718.6453,-94.5601,-270.9433,36.5628,-8.3624,231.8508,84.5946,297.9796,135.9740,-96.4821,-100.9894,-15.1211,-71.8206,122.6376,24.8789,-115.6497,-129.0636,235.3760
-750.2833,-915.4635,-120.8248,-266.3310,-33.1230,-18.4795,236.6285,127.5533,347.3390,170.1873,-105.2560,-93.9810,-25.5463,-62.1802,203.6129,20.2148,-114.4846,-101.0606,262.3089
-792.1417,-976.0646,-101.9011,-186.9629,-36.3869,34.0132,256.2120,166.6223,342.4686,148.7647,-108.5514,-44.1654,-17.8070,-1.5280,193.8085,79.1456,-36.2194,-41.3185,309.0677
-830.5889,-844.5150,-72.3351,-101.2153,15.9462,100.9927,309.7670,175.1326,340.9960,61.5442,-94.9020,1.3922,-19.2768,48.1537,173.5300,108.2355,55.3567,-19.3105,301.8099
-834.7551,-686.3351,-49.3300,-60.0581,49.5640,115.4987,261.3805,149.1599,200.4207,12.2031,-73.5689,-3.6083,-26.8609,59.4528,188.9689,68.6471,82.7826,-25.6777,252.7583
-768.2051,-632.7354,-30.5134,-43.8694,44.3707,111.7389,182.7691,167.7906,49.6929,51.4860,-86.1750,-14.1981,-34.0620,75.4077,147.1377,62.9467,55.0400,-22.3266,265.9934
-650.8079,-683.0493,-14.7905,-32.4530,40.0702,129.5877,181.5082,233.9705,46.3433,112.8985,-121.0479,25.2272,-40.9693,110.7637,38.6261,115.0293,45.6431,-9.3900,320.3531
-511.9974,-762.5758,-8.5553,-30.0025,50.1049,138.6410,178.4451,261.4977,95.3765,144.9026,-106.7757,43.8358,-47.9096,115.2881,-9.4127,130.0997,62.8049,-4.1615,321.2635
-437.4013,-755.8614,-6.9563,-37.3599,50.1960,126.6570,163.7195,260.0334,155.9285,150.3130,-35.7392,-32.4603,-45.5711,77.7559,57.8976,98.0287,51.7479,-10.2748,291.7156
-527.9050,-612.0279,-10.1334,-51.3061,25.2080,117.7296,223.0291,284.4033,282.6682,141.5175,4.7070,-110.6654,-12.9924,46.6155,157.1879,89.9622,5.0362,-20.1744,275.3448
-656.5883,-449.4546,-33.6852,-67.0741,-5.7955,102.1239,271.4873,285.5576,345.4859,147.0161,-13.3480,-79.6462,42.0226,31.4636,203.9052,100.2695,-32.5518,-27.3022,227.2183
-594.7622,-405.3005,-57.1954,-75.1449,-7.0705,71.1019,210.0383,227.4108,245.5785,178.5014,-5.7388,-1.1969,64.5285,8.8271,205.9304,80.9989,-38.8884,-23.0604,146.5536
-417.8921,-431.3399,-31.5767,-62.4903,24.7497,63.6804,158.6580,177.0551,177.2398,198.1009,54.0954,16.2481,37.3610,-5.7586,216.4894,46.4327,-23.9507,7.9626,105.9999
-349.5778,-424.5302,29.3073,-23.5578,61.0163,96.3268,187.0426,158.2475,231.4460,190.2883,77.2092,-16.9755,20.2254,-3.3915,230.2220,25.8056,3.2921,53.8598,108.6471
-369.6715,-427.3702,59.9670,5.1897,90.4018,130.9522,153.9509,124.8580,190.7672,172.5832,33.9425,-46.8989,44.0686,-17.7457,197.0181,7.0216,35.3227,67.4946,98.7257
-387.6818,-481.9911,47.1899,-31.6105,106.5091,142.1475,29.9685,81.8613,33.0587,136.0774,7.7644,-65.5835,69.7129,-43.7797,144.3862,-19.0411,49.8739,40.9779,70.0101
-437.4062,-488.1832,24.8142,-108.5948,85.8357,129.0172,-32.1461,46.5289,3.8283,88.2008,31.7730,-68.0820,75.6020,-42.9517,134.8511,-41.7265,26.3610,16.4039,37.6144
-441.2844,-394.3886,10.0337,-132.2968,42.9307,86.4109,-28.1870,-13.6200,44.3533,55.5517,48.1528,-35.5019,73.5882,-38.9268,122.4889,-64.9056,-6.6058,-0.5968,-11.6118
-278.3108,-292.4786,13.8722,-79.9818,24.5638,37.0156,-86.4152,-92.1887,-92.1746,15.5828,32.1374,15.1202,54.9691,-69.4662,53.4230,-93.4513,11.4931,-27.4384,-72.1416
-115.3025,-242.9299,39.6925,-9.8598,25.0247,31.5997,-161.6425,-129.2105,-229.7621,-31.5419,14.9652,30.7524,19.3398,-86.9451,4.7797,-101.0874,80.1370,-29.9914,-103.8497
-153.2552,-237.1905,60.6412,47.9354,21.6739,78.4530,-126.5569,-110.0226,-92.4370,-32.2552,19.0601,-3.4238,9.9594,-32.2292,26.8686,-66.3337,133.7570,15.0056,-93.6642
-246.8468,-265.8457,63.1736,87.8280,41.3796,134.1683,-52.4784,-76.6581,68.4919,-19.1807,40.1772,-24.1863,46.1418,58.4180,35.4084,-25.6383,137.6490,54.1171,-82.6986
-199.9558,-257.1525,69.8982,90.3572,81.8334,162.4457,-72.3333,-67.0792,-43.6629,-65.9946,56.9981,20.2460,83.3865,110.0185,-8.0687,-27.7640,110.9642,53.1577,-103.3133
-94.8294,-156.1258,88.4498,77.3149,89.9253,158.1810,-133.7534,-77.4075,-190.8552,-113.4001,63.8078,72.5874,87.8924,106.5104,-39.2172,-47.1791,80.4750,50.5890,-124.9429
-61.0320,-86.3810,99.6139,94.7708,65.5248,140.7852,-150.5858,-65.9250,-141.3917,-89.9891,95.6927,60.1137,90.2649,84.9647,-38.9629,-24.4739,68.7149,65.9108,-115.6327
-70.0150,-141.8299,93.0194,122.3969,43.3057,142.8319,-166.9041,-22.7450,-78.8666,-66.3670,156.8219,28.8759,127.3144,83.5601,-31.3944,28.8686,78.9568,75.7284,-107.7355
-72.8566,-187.5344,68.6247,118.6968,19.9643,171.2265,-194.8434,-2.7108,-95.7427,-88.9096,174.8559,43.8841,167.2394,104.2919,-17.3235,54.3652,79.1915,77.1941,-131.7981
-67.5570,-132.6197,37.5847,111.4335,4.9997,191.4946,-175.9394,-26.5055,-64.2338,-93.2681,129.1897,60.0279,154.6725,109.2346,-19.6413,37.4639,59.7528,82.2452,-157.0298
-30.9334,-78.9720,29.0110,139.4222,21.0593,183.5427,-153.9611,-41.6389,-39.3279,-54.0547,108.8871,35.9072,114.2686,74.8860,-45.4208,6.1664,57.3433,87.3259,-155.3975
31.8471,-69.4111,45.4817,172.4434,32.6748,171.1056,-185.1129,-32.8921,-87.8484,-1.9671,141.7759,22.0779,110.9566,31.3782,-31.6314,-12.0239,74.7071,87.7010,-142.3036
43.8957,-51.7710,51.6541,158.3092,16.7675,165.4602,-181.0054,-39.0267,-48.8987,39.3796,140.5290,35.5773,128.8206,6.3294,28.7379,-6.4109,72.7926,77.5562,-131.9783
-16.3787,-48.9952,34.2853,90.1262,16.2479,137.1214,-105.5428,-55.6491,73.3495,48.6803,76.0109,23.9293,107.3341,-24.6781,56.4783,-2.9581,46.5341,48.8476,-123.7308
-51.7951,-83.1383,7.7327,3.8731,24.5191,80.3946,-65.5525,-48.5321,100.1491,58.9090,18.2514,-14.2065,59.1359,-71.5554,52.4052,-33.9730,15.6319,23.4674,-114.1876
-8.6528,-105.8938,-14.2797,-51.2348,-2.0877,52.2920,-52.8283,-29.5872,131.4099,118.1415,8.9786,-34.9572,41.7736,-82.7242,80.6864,-69.5182,-6.5969,38.9224,-95.7018
21.2607,-117.1051,-4.6277,-54.4428,-12.8697,89.1990,12.0221,-40.5579,240.1452,147.2411,34.2844,-39.8683,62.1425,-44.3065,117.2445,-67.2537,5.9308,79.9887,-80.0729
-28.5726,-143.5905,43.1214,-40.1874,40.6365,127.9993,24.0480,-87.7074,138.1215,80.9338,66.9472,-43.7876,84.5893,-33.1069,121.8210,-59.2565,49.1222,85.3665,-83.1929
-80.5928,-162.1712,70.2245,-50.6946,81.9372,93.1834,-71.6692,-119.8917,-128.8946,53.6932,62.3387,-36.1108,81.1704,-87.9039,129.5371,-86.8601,62.2537,41.1914,-70.7867
-66.7087,-160.6767,51.7739,-60.8083,65.5146,27.7286,-75.5678,-98.2384,-64.3079,133.4964,1.9182,-26.9345,53.2229,-142.1854,129.4005,-130.6683,51.1248,14.5311,-18.3214
-11.0566,-134.5842,69.5879,-2.4094,74.8506,34.0054,45.1827,-82.8851,207.0805,142.4742,-55.9689,-33.7985,33.0484,-145.4921,61.4213,-167.6656,113.5627,59.8921,12.6448
60.2829,-79.0031,160.3377,112.5281,147.2089,113.2214,29.1994,-146.1145,49.0341,10.9006,-52.1176,-36.6372,35.7383,-120.5882,-11.4934,-184.2523,238.2835,134.0691,-24.8255
92.2577,-58.4156,229.0633,174.8534,198.6296,180.8411,-129.2820,-214.3889,-345.5001,-83.1367,8.1018,-28.8164,40.1945,-74.5760,30.1197,-140.9913,276.6155,170.5908,-68.3985
2.0195,-91.5715,222.2532,144.3103,181.2625,211.5992,-131.7103,-171.6672,-245.9854,-53.7170,90.3350,-49.1013,54.1512,7.5595,138.4236,-42.6277,195.7418,186.1846,-49.7053
-119.6008,-63.8676,204.8601,119.5205,150.2074,244.4516,32.9056,-67.5231,162.0135,-4.9254,139.3647,-96.8810,96.0166,94.0380,167.1906,32.3495,137.0932,215.3611,2.7368
-68.8364,41.8338,214.6238,166.8967,155.7051,281.7955,94.1569,-18.9899,155.1508,-13.9403,106.2726,-97.6982,116.8716,147.7318,107.2294,57.2247,180.1166,229.8250,29.5982
99.9601,96.6328,226.0024,222.6323,179.4675,300.8491,32.2968,-4.4722,-146.8750,-58.8051,42.6050,-17.2783,87.2862,181.3329,50.7206,89.0770,249.4039,227.8790,38.5938
143.1421,82.9383,243.2888,232.4961,192.4295,317.7791,46.8633,62.7005,-147.6517,-73.1399,54.0821,70.9548,87.0997,208.3624,9.9812,146.7580,268.4143,262.9053,83.5705
74.7396,57.0733,272.7693,223.3485,205.2854,341.9453,151.1581,165.6613,77.6413,-17.8024,128.7855,97.4881,151.0591,218.6839,-39.8138,188.7863,244.0432,301.1297,160.5698
87.0769,-3.6119,269.1561,197.5922,217.8218,322.1013,196.5149,217.3230,81.7464,45.3423,154.8571,90.9971,177.3391,208.8232,-49.1493,194.4361,201.4874,240.6879,196.2935
123.0514,-52.7707,217.6411,123.2148,184.9952,221.4634,147.5819,193.0530,-97.9120,46.7825,100.2974,95.4612,124.2541,174.7341,10.0031,173.2480,143.2141,106.5162,174.5266
5.9490,-4.5437,161.6493,20.0324,98.5564,87.4242,101.5818,154.2497,-127.7201,37.4105,32.3641,91.2431,85.8991,112.5477,70.3557,138.0956,59.0988,14.4804,156.5804
-157.1982,54.2781,108.1717,-69.5810,10.5557,-16.1400,128.6289,154.0716,48.6376,76.5550,-3.5189,66.1107,99.4123,48.2210,103.8761,112.2989,-54.4320,-23.5698,156.5308
-148.4348,45.1473,39.6755,-137.3469,-58.3738,-81.7164,202.2704,175.8832,228.5855,143.1893,-18.4332,57.0609,101.6149,9.7215,154.2673,112.6138,-157.2925,-64.5828,157.6543
-50.6677,42.2191,-5.7248,-178.3856,-112.2989,-126.2058,251.8244,188.1893,237.8782,219.7336,-31.9918,73.1021,76.9902,-13.4192,192.3033,110.9724,-192.0599,-102.4947,185.8369
-88.4169,27.9479,4.8771,-188.8966,-121.1957,-152.7363,242.9834,187.3696,103.7472,260.4606,-40.3517,81.1948,64.0986,-40.5856,162.1799,64.6797,-186.3098,-114.3645,211.6726
-230.0134,-62.7450,23.7166,-198.4565,-99.8877,-167.3526,206.6768,158.3127,53.8426,200.8716,-37.9627,71.3227,59.3698,-70.8444,133.9719,-4.0510,-227.8778,-122.9950,161.4897
-292.4875,-110.8116,3.7879,-230.3192,-123.7722,-181.1591,195.5712,97.1108,204.3011,135.3589,-53.4717,57.2661,34.7957,-87.1174,177.8151,-19.0110,-299.9101,-142.3033,97.9803
-249.1047,-35.1436,-25.7548,-259.2748,-174.7461,-184.5755,215.6257,56.6185,340.0611,193.5021,-102.9418,54.3233,-4.3033,-63.2058,205.2859,28.9213,-292.0319,-149.4693,116.0423
-165.4353,63.7509,-22.5426,-248.1907,-164.2377,-153.4725,216.8468,54.2694,285.5041,263.5461,-133.5307,76.5065,-38.7506,-2.7104,124.6818,53.4726,-196.5837,-121.0117,129.3907
-49.4341,157.7030,16.6052,-182.4124,-111.7070,-83.3224,175.3064,33.1236,201.1147,190.6402,-108.9261,105.2684,-67.3223,50.5942,-6.1226,16.9514,-103.1843,-61.2049,58.5194
61.7149,241.7974,76.6068,-80.2863,-83.0308,-8.4584,122.9693,-10.7366,183.4889,58.5602,-93.2652,115.5595,-103.8818,79.1067,-89.0322,-16.4453,-29.2804,-18.1417,8.7928
95.7902,191.4373,121.6183,-9.2923,-58.4108,14.1722,54.9203,-30.2909,51.2438,-6.8677,-146.5663,148.4081,-155.2208,91.9474,-102.1524,-14.7065,40.9063,-40.0160,38.9141
77.4245,50.2870,109.2724,-32.4517,-33.6265,-34.3347,-57.0078,-43.3230,-188.2202,-12.0296,-228.0518,234.5523,-200.5334,70.6006,-87.2922,-12.2320,46.4533,-95.9058,62.3752
57.8223,27.7781,54.3809,-113.6644,-65.0584,-99.1066,-147.5287,-69.9715,-262.9257,30.5471,-275.2194,293.3727,-216.4006,22.9354,-101.5429,-12.9178,-38.1223,-120.3004,41.5845
12.1215,101.3770,18.3307,-152.2872,-132.8283,-122.1308,-146.8504,-70.2846,-148.5465,87.4444,-261.8701,262.5712,-207.1709,6.3389,-138.5181,-11.7992,-116.2341,-115.0653,-3.7788
-52.5760,138.9931,24.2941,-123.8267,-161.5392,-120.8963,-116.5157,-61.1030,-53.0904,68.8535,-186.6073,207.8386,-182.2247,3.7724,-122.8619,-46.4362,-120.6204,-118.7540,-72.0194
-82.7627,177.6676,39.7508,-107.7624,-156.2590,-142.3167,-115.5763,-99.4839,-18.3747,0.1304,-111.7567,177.4804,-149.4679,-57.2791,-54.9713,-114.5616,-101.4033,-138.6807,-109.5830
-83.4201,201.5727,31.0186,-154.8475,-155.4882,-181.1648,-108.6666,-136.1213,-22.0826,-18.7567,-111.5773,132.8046,-136.3289,-132.2904,-42.0046,-151.8618,-110.1760,-165.6759,-76.4128
-59.3713,121.2627,-4.0596,-207.6012,-148.4020,-200.4856,-119.3008,-109.2934,-131.4300,-13.7643,-133.6066,79.6048,-151.1305,-131.2461,-123.7055,-135.9586,-139.5780,-180.8587,-56.4496
7.6122,41.3203,-33.5644,-198.1587,-131.0009,-193.2628,-204.6826,-82.2101,-274.6269,-32.8002,-78.6742,68.7716,-150.5182,-103.6566,-213.5750,-101.0403,-173.5625,-160.9962,-98.5506
50.5694,35.8006,-22.9537,-153.6440,-125.0530,-182.8295,-272.0369,-101.1771,-281.6499,-17.5233,5.9983,82.8633,-114.1551,-127.1693,-231.4269,-77.2627,-200.8503,-131.1900,-120.4347
12.7906,-33.9144,2.9735,-138.7843,-127.5769,-184.8075,-213.5862,-98.8484,-172.5195,47.4033,5.1355,75.1093,-86.0851,-150.8180,-184.3274,-80.0532,-204.8624,-133.5825,-77.2903
-29.3867,-119.3010,-15.2197,-149.5505,-121.4052,-180.5538,-106.9541,-36.6955,-66.0367,93.4466,-63.8548,52.9334,-83.0228,-118.6879,-134.7792,-93.0225,-175.4920,-138.2900,-2.8764
-38.2482,-3.0467,-75.6911,-141.0571,-104.1965,-139.4255,-56.4188,45.3317,-9.7663,107.8690,-97.9500,43.1802,-68.8871,-75.5723,-134.4196,-79.6727,-128.8736,-104.8775,80.2186
-64.2961,190.2730,-133.9488,-116.2653,-94.3045,-83.5669,-41.1347,121.4257,-33.9870,111.1178,-70.9789,53.2332,-50.4280,-55.9278,-161.6484,-54.5201,-114.2153,-76.7261,137.3385
-58.7675,177.7609,-187.7265,-112.8190,-125.1734,-78.2769,-25.1241,176.9684,-91.9582,94.6653,-46.1801,76.0955,-70.6199,-27.0888,-147.0820,-46.8360,-157.3648,-101.2166,147.0722
27.4937,35.2630,-250.5090,-136.9031,-190.6951,-131.9665,-11.8751,178.8272,-60.8088,82.2726,-86.0489,86.4387,-117.4040,19.2593,-85.6691,-28.5894,-206.6401,-153.9893,152.1408
89.2053,-6.6032,-297.8835,-159.0126,-228.1144,-184.7422,-1.7000,130.6233,26.8635,102.8516,-168.9135,69.6922,-153.9078,35.8555,-62.0943,2.3013,-206.0143,-196.8733,150.6250
84.8305,60.2370,-305.2512,-150.2544,-213.3881,-201.6697,-22.1149,73.5931,29.0188,126.6382,-201.5784,55.0163,-190.4745,8.5621,-135.4884,-6.0266,-166.1142,-203.6344,89.8469
97.1959,143.6989,-271.2046,-98.2859,-186.1427,-182.0309,-102.4309,24.8458,-58.0920,126.0730,-152.7061,72.8513,-234.1879,6.0636,-243.5405,-29.9839,-96.7043,-148.5336,15.9824
98.0763,197.8073,-201.2331,-13.9479,-154.6854,-114.5835,-182.5432,-9.9650,-147.1226,105.5794,-107.1773,103.0745,-248.8929,67.7992,-273.3316,-10.8330,-0.5913,-61.5672,2.8806
51.2756,195.6844,-144.4689,52.1159,-112.3604,-31.7229,-182.5405,-16.7713,-171.1544,66.6514,-138.5717,88.5927,-234.2453,95.3242,-229.7478,-7.7528,39.8973,-26.0382,3.1555
95.0525,193.2053,-169.2028,45.2386,-111.9729,-20.6202,-139.3530,-19.1191,-107.8958,20.2494,-207.5212,5.0209,-239.1728,10.8155,-227.4705,-83.7519,-31.5197,-59.6768,-38.8089
256.9033,272.0397,-233.9129,1.7446,-169.1503,-78.2452,-154.5112,-59.5934,-77.0040,-15.5131,-215.7776,-79.0271,-263.7796,-58.7188,-290.6954,-144.8762,-102.0162,-82.7932,-87.5933
327.7338,345.5261,-214.6123,30.1099,-188.5099,-86.9573,-238.4017,-113.2259,-188.8277,-43.4643,-106.9665,-77.7235,-251.1176,17.7841,-335.7079,-97.2721,-58.3319,-37.6096,-110.5997
246.7964,283.5001,-92.9579,138.0480,-114.7548,-9.6764,-297.7213,-125.1866,-302.8958,-64.9419,72.0093,-29.7651,-174.0150,129.3116,-345.1874,-16.9400,29.0443,34.7554,-108.8825
181.3996,168.0872,18.5314,201.0885,-29.9830,55.5217,-278.6864,-118.0206,-281.9992,-69.9276,193.3926,-31.8773,-64.7287,117.3723,-349.5071,-17.4965,47.4936,70.0905,-95.3804
187.5900,153.1102,37.7039,178.2995,-13.6704,64.8338,-217.6595,-124.4676,-156.5012,-61.6755,188.4105,-53.9817,16.9960,31.5998,-322.7828,-72.8002,13.1559,85.7015,-103.2757
194.9765,216.7450,4.0926,181.1742,-21.6173,91.2286,-136.6221,-97.3727,91.7379,-52.5797,137.2543,-2.4990,30.8390,-1.1631,-276.0222,-75.8554,18.4261,132.0547,-119.9809
214.4581,269.6831,17.2207,247.9878,31.6304,158.6963,-68.1353,-46.6009,270.8797,-79.7616,150.0216,91.2595,5.1796,31.8487,-269.0930,-18.4441,113.1490,174.2561,-92.0376
274.1852,301.6598,106.3952,272.4897,140.3407,190.8166,-128.7863,-75.9237,-69.9951,-178.9289,215.1412,129.1925,6.4015,76.1160,-261.3763,7.3271,234.4344,157.4079,-44.7840
310.5295,285.4382,172.3106,213.7527,216.1872,156.1822,-303.7507,-140.8973,-712.7601,-270.0348,235.5598,106.7791,34.7002,93.1490,-198.6890,-3.3408,250.1891,128.2951,-28.6629
269.8940,192.1434,123.5397,143.8727,209.8727,110.0893,-360.2118,-75.8414,-864.1420,-241.7745,180.7545,79.1409,33.7548,78.6415,-150.3182,40.1358,137.7319,125.1836,-12.5395
181.7464,111.2696,9.9521,78.9606,153.5683,76.4671,-237.7117,78.4230,-525.7219,-151.7654,112.1985,50.6363,-3.6050,67.6505,-133.1196,117.0160,8.3382,82.7517,16.7776
87.2919,79.7958,-104.0195,-17.3658,73.8334,26.2259,-118.2080,163.6003,-207.0688,-91.0141,44.4520,-10.9314,-46.8527,86.9008,-62.2996,133.5597,-93.4691,4.1539,25.3742
8.9121,-19.8195,-236.8390,-100.9789,-22.0096,-24.5052,8.5424,215.5116,232.9564,-14.1745,-63.2745,-83.5882,-87.0561,119.5042,20.8096,135.5400,-192.5278,-0.5042,35.7175
-13.9079,-159.3421,-332.0830,-113.4162,-66.8597,-29.0692,216.2179,278.6022,709.4465,61.8632,-137.5472,-98.2587,-99.9270,139.8446,21.6681,186.4300,-219.0560,47.5980,52.2435
25.4043,-168.9528,-276.5813,-104.3034,-10.2673,-15.2637,233.4832,227.0065,385.0479,23.6333,-68.1418,-69.7435,-54.5524,121.7009,12.2220,190.8744,-122.5103,17.0825,24.8369
25.4130,-126.0022,-157.9731,-127.2022,48.7682,-42.3187,-66.8883,94.8590,-519.0318,-53.6761,20.1266,-97.0105,2.3173,52.3031,65.5786,113.5025,-29.4894,-63.4837,5.3120
-102.3292,-176.0361,-167.8679,-124.4715,-5.3959,-84.4175,-240.8391,93.8913,-655.7659,-6.4775,-70.8300,-170.9953,-2.2639,-12.2065,121.8996,88.4931,-44.0730,-71.3697,62.5134
-256.6765,-163.1302,-262.1072,-50.7502,-110.5962,-87.9049,-29.0731,185.3061,44.8046,101.2687,-231.1232,-187.1543,-48.1617,-10.6556,178.0589,140.7265,-87.5425,-35.7015,105.8845
-286.8707,-39.4519,-272.2119,7.6276,-148.7880,-86.7499,197.3590,182.7537,438.6779,151.4137,-249.1319,-172.1114,-81.0989,10.4942,260.4374,142.9708,-94.0838,-58.0389,77.5098
-231.3376,-79.3058,-226.6073,-39.5783,-146.3125,-136.5172,177.1249,123.6302,299.5790,181.5084,-202.0014,-204.7550,-113.6345,-16.6587,262.3751,70.8813,-117.3614,-133.3773,57.1820
-198.3787,-243.4857,-235.5113,-135.0961,-183.3630,-201.5470,96.9248,78.5433,193.3716,193.4500,-224.0571,-204.5317,-158.4414,-61.7948,145.7749,-3.5928,-169.7046,-192.4924,32.8022
-192.4250,-215.4942,-267.0044,-157.4513,-237.0724,-209.7872,91.7520,-15.6698,263.9849,143.0745,-233.0470,-130.3846,-174.8794,-79.1848,58.9981,-61.5310,-186.5914,-181.4083,-50.5354
-216.7647,-127.4910,-257.2249,-85.9215,-245.9319,-156.0082,122.1199,-101.6782,414.2249,95.6024,-180.0701,-128.3400,-147.0880,-87.3628,56.2842,-103.7842,-150.9142,-96.1403,-90.5350
-276.1360,-224.4225,-212.9605,-7.6011,-209.8810,-95.0100,150.7842,-87.1589,473.4912,62.4646,-149.4947,-204.8739,-107.5007,-113.7285,54.6222,-135.8481,-101.4502,-27.0641,-44.9028
-264.9688,-248.2167,-137.3005,1.0600,-157.3494,-79.9193,77.8958,-103.3280,139.2050,-40.3961,-125.1118,-176.3903,-70.2077,-157.7321,66.3736,-187.3333,-62.7751,-56.0572,-60.5631
-142.8942,-64.1458,-44.5833,-36.8967,-105.1938,-106.5629,-115.9793,-221.3567,-340.9351,-132.6391,-51.1063,-69.6555,-26.9348,-187.4850,117.8529,-223.6459,-38.2864,-108.5922,-168.3759
-62.2112,-25.6913,6.7478,-46.2201,-69.9180,-111.8118,-222.3947,-278.4124,-374.0952,-103.6359,5.3991,-62.9156,7.6002,-161.2635,107.6790,-192.3349,-37.4413,-83.5236,-247.5168
-99.0008,-177.0464,3.1610,-31.0838,-61.2446,-71.3326,-163.0996,-239.5757,-108.5310,-100.2386,19.3283,-101.6317,18.1164,-103.1079,9.8052,-154.5480,-78.2067,-31.5497,-284.2727
-146.0845,-184.2407,-17.8452,-61.8897,-69.0891,-43.7376,-108.2647,-218.8596,-8.1220,-216.9151,51.5118,-60.7815,31.5672,-66.7037,-41.0077,-150.9426,-144.0507,-26.8804,-303.5156
-154.6087,-87.0420,-39.7874,-108.7885,-74.7629,-52.0368,-104.5758,-175.6275,7.2261,-250.9480,70.9997,-31.6282,75.9254,-22.4717,11.2647,-100.3633,-154.2674,-30.3777,-256.0781
-162.5702,-102.6491,-26.4433,-66.9372,-57.3356,-39.0783,-97.0379,-74.3478,-13.6666,-138.8682,49.4710,-79.9507,119.0751,49.4612,76.9003,-12.1996,-56.7675,-12.6782,-178.1615
-162.1551,-123.7246,66.3999,22.1254,-8.1243,-1.5547,-147.7885,-52.6040,-234.6011,-117.6088,67.4307,-86.9087,109.6452,60.2134,88.5969,-8.8606,66.5662,-19.7367,-159.4342
-149.7382,-75.2528,177.3845,20.2084,44.2479,-3.5020,-221.3075,-118.8594,-364.3948,-251.5521,118.1091,-14.8592,69.2791,-1.4608,54.9867,-60.7655,109.6513,-45.1205,-155.6714
-125.0759,-74.1447,221.4112,-38.4044,69.9915,-29.0209,-163.6846,-113.6454,-153.4599,-339.5054,109.7485,34.8139,67.4119,-11.0438,15.1077,-35.8548,105.9125,-22.4690,-102.5421
-35.6985,-59.4416,239.8512,-12.0522,90.0232,-7.2577,-44.1593,-38.1138,6.9534,-311.0295,77.9592,34.2109,105.9757,34.9670,11.0375,33.0802,138.0997,39.2804,-53.4332
89.6279,55.9861,291.1584,75.9673,129.8535,41.2473,-25.2442,-7.6226,-75.6381,-269.2402,85.6898,30.5765,127.3400,21.4875,40.4400,33.0325,180.2663,68.7781,-48.1860
127.6975,108.1007,327.4711,97.3763,162.4440,50.1732,-52.3494,-29.3108,-97.4191,-250.7844,80.3245,37.0695,118.3106,-27.9736,57.6907,-15.0610,172.0928,50.6424,-56.6181
79.5857,16.1835,306.1850,34.9065,158.4848,23.9205,-52.2262,-78.5198,-49.8345,-251.3116,49.4611,49.0018,105.9599,-26.7985,55.2582,-38.5583,136.1378,15.8527,-65.8247
49.6163,-52.0889,255.9111,-51.8857,133.0077,-7.6761,-67.0202,-136.1755,-92.8545,-300.7281,46.2561,54.6117,94.3110,-20.9809,71.6296,-44.4097,104.7415,-27.0762,-67.9769
48.1939,-25.5658,189.7719,-127.7227,96.7328,-52.3103,-66.3599,-128.6061,-72.1031,-349.4817,44.5325,34.0342,84.4809,-56.1769,107.0136,-58.7334,52.7382,-73.2163,-49.3318
39.6664,-29.3659,110.6666,-156.6210,41.1426,-108.8863,-18.7380,-61.4380,36.4792,-300.3329,31.4729,13.9696,98.5845,-69.3030,115.1939,-64.6115,-14.0697,-99.1056,-29.5291
27.9316,-154.4899,59.9632,-124.0872,-5.8125,-141.4424,1.6984,-34.6195,36.9245,-189.7311,66.1866,35.4212,132.2040,-37.5743,85.3182,-41.9218,-35.9266,-101.0467,-12.2174
-1.1946,-314.2316,56.3194,-85.8609,-0.3273,-126.2731,5.0349,-32.1126,9.1299,-133.1475,106.1001,60.0669,144.3195,-13.9611,58.0316,-7.2302,-5.9661,-94.7512,27.0097
-32.9715,-307.1763,72.8360,-87.0621,44.1769,-87.7186,49.2294,12.6795,61.2601,-134.1973,66.6102,13.4438,113.3572,-20.2164,50.2535,3.6625,28.5217,-80.0095,60.6106
-1.3572,-105.2726,87.4716,-93.3956,79.8984,-72.2413,52.0536,31.0913,47.3866,-118.2493,13.7500,-94.4101,58.0548,-45.1180,31.3090,-7.6062,58.7807,-53.7243,50.4857
66.0374,42.6084,79.5831,-52.0913,95.7014,-72.7475,-1.2012,-4.5670,16.1502,-77.1456,20.1650,-157.9253,20.1614,-54.0416,-6.5036,13.4090,98.4203,-14.7194,39.1725
88.5570,11.9072,41.3368,35.4567,113.5798,-28.9843,39.0038,28.9066,133.3038,-42.4314,21.3721,-105.9452,32.9776,0.2416,-27.7240,85.5163,126.4907,43.4693,73.0098
101.4566,-25.7169,9.1228,100.0352,134.7384,40.2081,137.8589,133.4076,189.2863,-10.0740,-15.7334,-21.3682,69.0959,64.6423,-18.7915,128.2562,118.8311,76.2163,118.2120
142.9582,-2.5944,-13.9813,67.5519,119.7920,23.8964,114.8262,163.3830,55.6799,28.4091,-44.6239,-33.3974,54.1521,25.3117,5.5485,74.3184,64.0326,7.4885,141.2345
123.8790,-32.7238,-95.8290,-36.5562,33.0660,-92.1846,66.5999,136.3126,134.0393,79.7648,-78.1849,-108.9502,-28.8740,-82.5676,41.6479,-3.0499,-51.7963,-120.9516,168.0550
24.8047,-64.5274,-225.2277,-112.4168,-89.6302,-193.6018,200.5023,181.7499,581.2571,159.1545,-123.4196,-127.6189,-98.8968,-130.7484,80.4246,4.1867,-180.1935,-178.1491,204.6490
-3.7692,31.6628,-274.7770,-129.2983,-155.7512,-225.4436,372.8275,235.0461,803.6711,226.9970,-98.8799,-102.2984,-76.9439,-125.8793,105.1719,52.8384,-216.9493,-160.1116,183.5306
108.1641,167.2627,-217.8161,-136.0869,-135.2021,-229.5469,294.1787,137.3090,362.2236,210.6155,4.1952,-107.5156,10.7970,-141.5068,120.1921,27.0028,-169.5648,-167.6691,54.4180
230.8308,205.5998,-184.1225,-149.5014,-103.6808,-228.4328,18.6473,-68.8736,-273.7074,128.2030,71.5160,-113.1759,67.4958,-150.1455,120.6614,-45.4017,-156.9606,-198.9823,-112.2038
240.9954,179.4576,-228.5651,-146.5418,-123.0961,-222.9496,-157.0076,-213.8607,-432.0731,64.0900,47.8897,-83.7030,46.0097,-120.7090,81.7522,-58.1833,-191.2713,-187.0974,-202.7365
167.3513,159.2038,-253.5639,-115.6333,-161.6534,-216.1905,-139.7549,-249.7812,-194.3185,31.9171,-6.6820,-63.4801,-7.6479,-106.1416,16.0760,-40.8255,-170.4101,-145.4590,-218.0673
107.8137,147.2139,-203.4719,-50.4029,-170.5404,-180.6961,-96.6960,-258.3231,-65.9762,-7.3525,-33.0790,-61.2298,-44.2495,-122.3910,-42.0679,-76.5747,-86.4617,-111.1364,-238.0360
108.8744,126.9220,-151.5517,32.2358,-154.0955,-119.7684,-124.5282,-300.3896,-81.1818,-48.7374,-31.4585,-46.5734,-80.2876,-117.6938,-84.9811,-113.3023,-27.2002,-83.4238,-270.4212
133.3054,86.3058,-153.9772,76.5017,-132.0511,-96.6953,-115.0520,-333.9998,66.4079,-60.7883,-28.6565,-43.4022,-121.8490,-79.0263,-86.9734,-72.5055,-13.3664,-71.7560,-258.1376
107.2989,35.9970,-162.1452,55.5968,-101.4401,-106.0456,-11.0862,-278.6974,284.6497,-32.4593,-32.5344,-65.7546,-112.4782,-33.7402,-26.3667,-4.8248,-6.7401,-74.1538,-188.6537
21.9182,16.4219,-125.4538,1.7892,-58.3154,-80.9890,45.3768,-159.7497,216.6597,8.0236,-21.2203,-70.1448,-37.0439,10.9697,22.6465,23.9609,-2.8417,-61.2761,-108.6105
-28.0605,45.9337,-78.1375,-46.6090,-13.6263,-45.3177,-34.6192,-91.9092,-90.8086,-0.1024,5.8480,-49.9323,22.3805,54.8359,-5.0450,43.1980,-12.1205,-43.3419,-63.6730
14.5247,90.7637,-80.6497,-66.2404,14.1007,-49.2947,-123.6874,-84.8885,-263.1069,-60.5003,4.0180,-38.0779,4.7128,88.7111,-34.5285,84.8416,-28.3599,-38.9277,-50.1008
67.6735,98.1556,-131.4165,-48.3945,10.3893,-41.2107,-106.4240,-37.1630,-169.0650,-97.8983,-40.4363,-31.1810,-44.5067,115.7310,2.9072,123.9647,-42.8122,-15.3644,-20.1332
68.1899,55.5321,-172.8044,-15.0658,-9.1898,13.7618,-41.8511,60.4790,-16.3742,-90.6749,-80.2437,-23.2526,-56.3496,145.7159,43.8388,140.3980,-48.0299,29.2421,40.9358
71.0515,13.7916,-167.0350,10.2306,-6.5484,54.6508,-11.8432,133.6191,17.1778,-88.0951,-86.8734,-32.0661,-30.9642,172.0495,31.9233,147.9767,-54.5880,45.7541,84.7219
85.9273,17.1618,-140.5186,24.3587,13.7823,56.2789,-9.3000,180.0847,-2.2047,-85.2908,-75.9088,-47.5447,-9.2026,165.3766,4.1656,154.6180,-97.3484,32.8884,82.2913
55.3447,58.5035,-144.8504,7.1130,-0.8570,41.3742,-16.0218,203.1723,32.0075,-54.7548,-58.0104,-58.8130,-9.0770,95.2210,-3.1169,126.6452,-180.1114,12.4656,53.0510
21.9397,134.9240,-178.3071,-43.6077,-52.9886,1.0935,-33.9094,151.9451,60.6337,-37.5773,-33.0084,-91.5743,-11.6129,-6.6445,2.7729,39.1413,-245.1965,-18.0325,10.1726
33.9702,214.3477,-177.4524,-53.7506,-68.1066,-32.3257,-42.9393,65.6186,31.2689,-55.2542,-0.7504,-134.8722,16.6323,-45.8652,-4.3493,-42.4509,-236.0474,-19.6257,-38.9942
23.1522,205.9724,-106.8152,16.9042,-14.4644,6.7997,-47.0846,26.1143,-1.5687,-73.1101,53.8354,-130.7112,86.1524,-2.0964,-42.3297,-46.3382,-166.7966,37.3345,-86.7602
21.4829,145.0494,-16.1048,83.5226,40.4150,64.9538,-97.6357,-20.5250,-57.4632,-98.1541,122.5932,-76.2679,154.8354,20.5467,-74.5415,-31.3523,-119.3946,78.2860,-146.5993
144.2349,191.7540,12.7360,74.2988,39.0609,45.6476,-165.3954,-115.0940,-110.4680,-131.6109,129.5035,-29.0054,154.6642,-37.9591,-64.5567,-73.5337,-162.1824,55.6701,-203.7850
265.0849,322.5388,-41.4112,32.1464,13.8803,-4.5221,-125.0512,-147.0304,27.4974,-118.6813,41.4469,-17.3770,84.8136,-103.0638,-67.2091,-116.4366,-254.6426,36.5176,-201.9891
216.0600,367.1905,-104.4585,2.8801,21.7974,-2.1024,10.9335,-95.7166,241.5267,-79.2902,-27.6409,-32.4240,38.2844,-115.2827,-116.1367,-106.9509,-300.7651,47.8318,-146.7367
145.6987,318.1095,-96.6254,-26.2612,57.7602,15.9033,53.4785,-82.4957,142.9615,-86.9935,17.8221,-68.8303,71.0163,-111.0357,-129.8209,-98.9687,-307.0427,42.1521,-100.7783
170.5714,243.6000,-49.2425,-47.1009,71.3648,2.6843,-32.7015,-93.5473,-126.7480,-96.5751,91.1199,-111.0065,117.0612,-108.8021,-78.1937,-107.7724,-347.9436,22.6427,-67.8411
121.3820,125.6344,-44.7185,-35.7141,51.8941,-7.0070,-62.8062,-44.1165,-129.3559,-33.5592,86.6122,-124.1918,108.9148,-85.5741,-43.1931,-91.5408,-399.8657,12.2409,-27.5685
-6.7816,31.7035,-68.6618,-22.3096,43.3173,2.7944,3.4378,-10.6906,-37.9866,33.1986,38.1327,-102.8098,75.8670,-66.7668,-36.9876,-75.6601,-394.4541,-0.8506,-10.6711
-5.8835,74.7175,-66.3193,-38.2263,56.2755,2.5663,25.3292,-45.6520,-119.4126,25.9582,-15.9713,-92.0303,50.6035,-83.3330,-2.3482,-82.1931,-369.7874,3.5756,-18.6070
57.0589,150.0946,-75.3265,-43.8259,45.3020,0.1548,16.7864,-38.2658,-46.0021,0.1226,-88.9739,-124.7236,11.8744,-87.8111,36.5230,-60.1816,-382.2566,44.0775,2.7767
-4.2980,85.5657,-121.7058,-2.4266,15.0910,33.3016,87.7898,37.7556,237.2003,7.7114,-111.7060,-159.3092,-28.6981,-28.7252,43.2012,-6.8228,-379.5650,75.0627,64.9823
-85.9437,-87.7630,-128.1761,36.7080,28.8402,95.1445,166.6547,92.2881,235.7071,14.3022,-37.7299,-129.0469,-33.8760,64.1394,60.0601,33.3636,-323.2481,74.1322,130.0921
-75.2957,-222.2792,-90.9582,20.9013,67.7927,129.4576,165.8670,130.4695,43.1128,4.4465,-6.4629,-38.2273,-33.0914,127.0869,95.8807,73.1229,-286.7010,63.8928,166.1319
-61.3758,-194.2404,-117.9766,-5.5180,46.4613,105.1853,184.5593,176.5395,187.3342,7.0436,-92.9316,48.6235,-59.8983,128.9241,100.4403,109.2973,-312.2818,37.1924,155.9908
-33.1496,2.3011,-195.9201,4.2588,-17.1174,60.7499,264.8685,163.4257,432.9767,18.7947,-123.7527,92.3961,-63.9494,91.4004,79.1998,91.1958,-337.7387,-2.0975,123.1985
65.6724,170.0989,-201.8508,-15.5510,-32.1491,30.7427,274.4309,90.9606,255.9659,2.8889,-8.0040,99.7093,-8.0712,72.3113,79.7605,54.0497,-332.1711,-26.1841,116.7946
80.7180,136.5568,-151.5138,-122.6712,-10.4993,-18.8364,181.1968,39.6708,-97.3132,-33.0902,79.3355,84.9052,48.3202,81.8577,110.3939,66.0299,-351.3005,-64.9618,119.7964
-60.9077,-6.0483,-154.0836,-228.0767,-37.5211,-101.3567,113.3687,17.2147,-153.3758,-27.3329,27.5076,60.6900,48.3178,61.5712,147.5078,79.3043,-419.8746,-130.3710,78.3429
-141.8098,-118.5662,-193.1348,-233.2250,-114.8890,-151.2021,121.1092,10.3762,11.9034,35.7072,-45.1593,41.9346,18.2822,5.7953,154.2283,45.8147,-480.7365,-148.3310,15.6471
-61.7634,-181.8163,-184.2192,-193.9514,-168.3342,-147.5584,129.5098,35.9727,106.7504,93.5697,-38.1385,18.2252,3.9795,-29.1112,98.7213,18.9678,-488.2361,-124.1553,-15.6941
-15.5002,-162.8139,-131.4194,-198.0232,-168.5945,-155.9700,87.0538,44.0249,43.6516,114.2165,6.8582,-42.3850,6.8849,-58.4472,9.6187,6.2215,-461.9976,-152.1848,-26.0288
-112.9577,-94.2304,-91.2339,-211.7436,-158.2571,-190.2496,21.7176,-13.0624,-80.8329,125.8927,15.5808,-117.6833,-6.9844,-116.8816,-43.0357,-47.2401,-431.3254,-205.3698,-38.6349
-210.8777,-114.1938,-94.5914,-180.5678,-175.7293,-205.3091,-16.9637,-73.9856,-114.9495,116.5043,-44.2568,-121.0454,-66.0085,-137.1967,-42.7517,-106.7101,-396.7411,-199.1790,-47.2778
-177.5091,-172.9408,-130.3467,-143.5902,-197.6761,-210.1219,-15.5193,-95.6238,-39.1395,56.2703,-135.5346,-40.5063,-143.0144,-97.1696,-38.0728,-111.2961,-358.9908,-170.7052,-45.6989
-93.6055,-133.3788,-151.5431,-145.1478,-186.3407,-218.7878,16.7951,-110.1956,62.8536,2.8331,-180.7842,2.7007,-176.8019,-114.6109,-59.9371,-108.0681,-329.0904,-155.2153,-25.6671
-118.4342,-120.3597,-137.0922,-150.7362,-157.8262,-181.3582,84.4592,-111.2568,193.5442,11.8762,-165.9177,-55.7873,-164.6378,-201.7312,-72.3074,-141.9162,-293.3118,-106.1171,15.2334
-225.9827,-222.3208,-118.6498,-121.8979,-130.1845,-91.9215,157.4921,-92.4121,277.7611,29.8222,-144.3890,-102.3718,-160.6794,-197.2707,-38.8835,-156.6115,-220.1364,-49.1868,49.5381
-237.7295,-221.1646,-104.8884,-79.5222,-70.6722,-24.7433,147.5951,-108.9298,101.0302,6.9731,-137.6168,-37.1235,-171.7729,-74.1905,-18.8641,-118.7537,-113.1171,-38.8680,59.3567
-134.3212,-59.0405,-71.5860,-37.7851,19.9839,4.6779,40.8123,-147.2260,-255.1203,-27.0576,-118.6055,73.7245,-146.7345,11.4176,-76.4158,-81.3888,-13.0639,-8.6661,57.5991
-83.8260,26.5705,-33.9598,31.4916,79.0758,56.5679,-45.1912,-126.1052,-407.6423,-52.5809,-73.8020,125.9259,-79.4630,12.6524,-123.1977,-78.7852,41.8668,87.9871,46.3854
-135.5560,-6.8424,-17.6709,118.8344,91.3444,137.1534,-16.4849,-65.9942,-234.2500,-79.3970,-29.5675,97.8185,-29.4539,18.7356,-63.7004,-84.9292,42.7146,166.2945,30.8373
-167.8458,-24.0701,-2.9423,166.2923,99.0541,193.7591,94.6545,-34.2831,31.8603,-90.5794,-19.5046,30.2180,-25.9651,50.5543,-9.6340,-70.5861,30.7065,183.5231,41.6270
-127.3564,-50.9873,26.7219,175.5981,113.6297,208.4586,184.9367,-0.0027,151.1274,-70.0563,-19.4751,-1.3490,-27.4006,75.1727,-74.1004,-27.0486,69.1384,192.5960,76.8637
-76.8651,-91.3921,71.5470,203.9884,136.6480,201.4587,179.0430,78.7611,71.3522,-41.3651,37.4663,34.1930,10.7158,105.5278,-130.1747,32.7894,150.8116,204.0832,103.2908
-61.2133,-13.5049,144.1348,237.1312,186.9168,182.4927,118.1738,157.4249,-50.7457,-23.1196,141.0549,58.2105,74.0765,139.9532,-63.9560,72.6326,196.7415,186.8801,122.9355
-60.4517,133.8222,216.3951,218.2388,228.4929,147.0385,88.0110,186.8875,-85.7882,-3.8752,213.1982,29.9830,115.8486,140.2638,-3.5228,76.5159,188.1145,142.6679,134.6142
-12.4763,169.7785,232.1384,182.3602,201.7482,99.1654,44.8866,164.0804,-138.2419,18.1607,239.9922,39.5082,117.4919,113.7226,-52.2113,70.1182,189.6264,90.2076,88.2855
110.6701,129.2480,210.2390,190.8331,135.1439,58.6476,-71.8613,98.1595,-201.1600,20.2076,236.5554,107.5742,92.2684,96.0461,-103.0541,58.0949,214.3288,52.0591,-24.5131
216.5991,158.9413,197.9341,199.1617,95.0074,36.4690,-131.5373,19.7629,-43.1240,-3.5353,175.1642,131.2620,54.2143,85.3346,-66.6111,20.4256,212.4174,35.8734,-119.7069
193.6547,229.9241,173.8758,144.2006,79.5589,13.0946,-42.9270,-29.4835,214.3475,-17.5668,84.3183,102.8419,18.4780,65.0362,0.8334,-9.6802,190.3739,2.4428,-135.2634
94.7798,225.5969,133.3779,61.6929,57.4970,-24.2668,9.5583,-61.3705,170.7442,-8.0550,49.5214,89.7329,11.5878,30.4648,37.6015,6.5994,193.9633,-52.0577,-124.0918
65.3477,145.8398,138.1808,13.6824,37.5858,-41.3385,-108.2484,-125.7424,-118.0213,-14.7934,73.7984,61.4371,46.4042,-17.5159,41.8373,15.8940,214.3683,-49.2310,-169.6095
100.2713,57.8886,177.1646,6.5913,47.1970,-8.2928,-244.7806,-222.8790,-308.5087,-35.4417,104.2495,6.4682,87.1093,-48.2918,27.3303,-21.7812,221.3614,20.3606,-252.2773
57.8923,-33.2421,153.7944,25.3577,82.6911,44.8802,-259.7356,-290.8419,-313.4757,-23.5113,110.7424,18.4748,76.8600,-12.1846,15.3901,-27.7155,223.9782,57.4726,-279.6846
-66.9127,-126.5958,61.7611,56.0531,106.3027,80.9948,-185.5266,-291.9256,-142.9943,-10.6528,53.5660,91.7237,19.3741,76.8368,16.6424,34.9424,237.5976,40.8362,-242.5543
-103.4834,-133.7273,0.3831,76.8205,102.4821,109.0309,-91.2783,-267.4969,75.5996,-46.8182,-40.7063,111.4926,-11.1736,136.9067,11.2618,68.9934,258.2427,50.5149,-226.7370
-10.3096,-30.3010,17.6557,86.3491,107.0185,146.2248,-63.6719,-267.2072,1.5469,-76.5979,-40.9375,79.4850,20.5064,137.7776,-10.0382,41.4141,278.1144,105.5994,-256.6299
36.1687,30.1532,67.0105,111.0139,132.0583,187.4731,-127.8043,-269.3503,-237.2189,-64.5927,52.2231,74.5437,50.0247,139.2460,-31.1764,40.9636,287.4784,164.8845,-268.7666
-27.6236,-18.7361,110.1976,162.8147,142.0980,224.1942,-128.2349,-235.2188,-98.6196,-82.1485,90.4612,92.5349,31.7917,168.2874,-47.8562,76.4948,299.7664,217.5099,-236.6903
-40.5046,-23.9830,177.7615,220.0046,155.4939,242.4210,-3.1844,-187.1417,210.7252,-129.1477,92.6790,107.7863,32.5544,161.0327,-65.7638,68.2094,351.6892,249.2877,-185.7988
47.6817,60.6500,288.5613,248.5474,221.0516,220.7077,39.5768,-162.1909,56.4661,-116.2429,179.7430,121.1928,105.8012,90.2647,-77.5831,22.7865,418.7365,232.3899,-127.8433
86.2905,96.6163,371.0743,236.0745,287.0291,167.1865,-62.8386,-145.3056,-289.9961,-57.8293,270.9207,104.2264,178.2210,32.2403,-73.8326,5.5660,425.1080,189.2184,-71.7370
35.0476,67.8537,359.9764,200.9759,276.2117,115.3940,-92.9366,-104.7184,-247.6837,-21.2435,245.4773,47.6105,164.5509,20.8710,-61.3875,12.2514,378.0169,154.1532,-32.4954
12.6391,48.8883,310.0209,162.7724,224.2751,74.3479,-11.9008,-41.4157,-67.2652,8.5020,177.5802,-7.1077,94.5435,-17.1336,-54.4954,7.4640,352.6885,118.9914,-0.1077
42.8000,-0.6717,292.5992,127.4363,190.4556,41.2500,15.7428,24.9570,-78.4946,40.1926,140.4059,-46.0592,44.8301,-93.6856,-43.6593,-1.2408,347.7656,86.8770,44.3429
38.4993,-84.5840,268.5345,94.0571,156.3753,27.9546,8.1547,79.8831,-44.4101,51.8993,93.8699,-75.5073,31.6250,-114.4656,-8.7080,3.0834,304.1127,68.6339,100.6190
-7.6780,-97.1918,184.1730,41.5147,93.6031,15.8598,56.5477,116.3235,84.6092,73.8625,44.9220,-80.9976,29.7658,-72.3110,22.2662,8.3386,222.5449,24.1563,154.2392
-21.2788,-42.4144,71.4087,-50.9605,7.2600,-37.8531,86.3781,126.5451,83.5776,112.8975,20.7967,-77.5405,24.4201,-73.3767,13.6214,-6.6792,144.4210,-59.5309,175.2219
-3.5016,-15.4437,-24.1947,-140.4448,-78.1983,-108.3483,55.0496,108.5809,43.0514,115.9481,-16.7596,-92.5771,2.3474,-134.5772,22.8523,-33.8088,89.8459,-105.7254,148.2982
-47.2406,-39.7888,-89.5114,-155.7242,-121.4062,-123.9490,34.5598,96.9246,96.8876,97.8178,-75.1440,-110.9538,-56.2262,-163.2848,103.3327,-37.5038,68.4800,-80.7382,114.9051
-167.7207,-118.6544,-124.2338,-103.6476,-129.8828,-84.5442,36.7203,138.0465,171.9229,112.5170,-142.9688,-130.4624,-141.8407,-128.1339,156.3821,-11.1142,75.4311,-52.7258,115.8409
-247.9572,-228.1877,-152.4044,-43.9385,-160.6421,-38.3235,67.7626,206.2430,314.8855,130.6419,-240.6415,-155.7440,-195.6032,-69.4864,107.0561,20.5722,93.4405,-45.1649,131.9850
-239.7269,-266.8683,-181.7830,0.9210,-182.6231,15.8462,153.6002,221.1254,461.9469,113.2050,-299.4265,-135.1317,-170.6934,-0.5795,86.4088,57.5017,127.1395,-11.8446,135.7805
-228.8316,-226.2134,-166.1884,29.3885,-127.8181,82.0657,165.6156,176.7663,278.4123,73.6580,-225.6263,-63.2913,-101.7086,71.4840,177.1764,98.1601,171.6934,31.6478,126.8886
-224.0611,-219.9497,-103.1500,38.9262,-67.9848,113.0309,12.1468,160.1615,-111.6607,22.6114,-115.2899,-18.7690,-55.5930,118.5192,229.4423,113.4595,187.6700,39.8163,118.7346
-193.1606,-275.1824,-62.5345,48.3750,-82.2431,96.5324,-89.4766,215.1461,-158.6255,0.9166,-98.1373,5.2548,-40.2378,145.4527,172.4189,124.4049,175.0837,42.7681,144.8954
-256.7770,-338.9797,-44.8606,60.1623,-83.4288,84.0967,22.5002,280.1025,80.1984,46.5585,-95.4600,68.3295,-19.3448,173.7266,163.6166,173.5096,181.0512,67.8637,207.8313
-417.6647,-361.4004,13.5805,50.1337,-14.3113,86.6615,131.0961,285.7318,86.0836,73.7612,-12.8972,103.9379,17.5921,179.1838,240.7945,201.9076,199.8598,68.1250,227.5536
-354.1731,-234.3381,82.0719,39.8027,20.9948,56.8860,55.0733,242.2003,-103.9272,8.1696,68.4191,56.3708,46.2547,142.1559,222.5043,147.5940,187.0352,20.8990,154.3435
47.7516,58.9539,84.9605,65.3401,-30.0759,-15.6748,-59.4605,198.0793,-114.3717,-55.2657,72.4508,31.3423,41.7910,105.9500,71.9983,90.9449,157.7618,-34.9711,53.0083
399.3228,279.9898,46.5351,84.1797,-93.7745,-88.6092,-99.3131,156.9741,-32.6628,-44.8042,35.6599,76.8618,1.5679,100.2848,-30.9336,102.5719,150.8822,-83.5894,-20.6534
422.9144,246.0775,22.1280,47.2339,-131.0490,-133.4892,-156.5849,92.1570,-122.3498,-35.8398,-7.9707,87.9648,-51.7953,86.0454,-21.6407,114.4167,151.6047,-132.5663,-79.9746
293.4952,79.4848,2.0062,-9.9973,-158.8691,-159.4138,-236.0481,23.2085,-216.9174,-56.0235,-55.3368,39.5072,-95.8957,38.5422,-14.2642,81.2134,127.9869,-169.1435,-114.2499
180.9884,-52.4571,-32.9996,-57.7545,-190.5496,-189.3638,-213.2371,-2.4967,-32.2865,-46.9859,-95.1932,6.4190,-124.8652,-7.3996,-48.9593,50.5756,76.8030,-194.7796,-102.8704
55.0056,-116.7628,-77.3800,-125.8593,-242.6899,-234.0592,-96.8232,9.9981,268.6624,-15.7380,-119.0270,-13.7727,-127.1404,-30.1235,-38.2324,38.2967,14.9184,-229.7309,-75.5758
-61.3719,-127.2589,-126.4655,-211.7300,-295.2679,-280.2418,-29.3313,19.8558,300.3442,10.6405,-125.3521,-48.7117,-105.3649,-47.2820,51.3974,29.2158,-32.1241,-264.9661,-50.9094
-121.8761,-149.2504,-162.6226,-265.1082,-297.8189,-303.0343,-53.3463,20.8010,80.4229,49.4198,-128.3241,-59.2461,-106.3995,-59.9046,133.7269,33.5024,-49.6130,-275.4736,-18.4159
-186.8787,-241.6932,-167.6478,-267.0483,-265.7112,-283.2467,-70.9632,25.7653,-32.5925,75.0297,-153.4962,-39.0575,-145.7453,-58.2339,124.7942,30.7731,-47.1287,-251.6276,6.3734
-274.7604,-314.2613,-161.8877,-237.7103,-237.9972,-221.6304,-28.7169,21.2704,5.0339,48.6232,-182.0739,-41.7910,-165.6596,-68.3241,44.9083,-15.9385,-36.0757,-190.2804,19.4521
-312.6554,-263.4277,-158.0189,-190.1700,-193.5766,-143.5463,7.8621,2.3953,-76.0702,2.5492,-172.1742,-80.3249,-141.9858,-106.9169,-21.9768,-78.3095,-16.1910,-99.8961,55.8877
-298.0479,-147.3300,-128.7221,-118.0354,-132.4884,-63.4004,8.2512,7.3197,-213.4074,-29.1636,-147.9595,-120.0843,-116.9341,-130.0091,-31.5370,-110.4946,17.7636,-4.1925,115.4009
-296.9751,-51.2277,-76.7198,-21.4791,-92.6519,34.2611,42.9539,59.2217,-118.8991,-53.0183,-150.1262,-125.2599,-93.3756,-99.5693,0.8345,-107.8945,79.9448,79.4760,156.9792
-303.6430,11.9606,-40.5082,62.7762,-48.6352,132.9506,113.2315,118.3501,68.7795,-55.6722,-149.4587,-73.3493,-46.0707,-44.0503,57.1360,-65.2770,164.4853,133.6887,167.0018
-249.7137,17.4011,-19.2327,92.4445,20.8443,171.5733,119.4263,145.3383,49.9599,-20.8674,-119.4162,5.1871,-11.6502,-5.8383,115.8739,10.4574,215.0697,145.4496,160.6859
-135.3191,-36.4009,12.4694,88.3065,56.3642,152.5333,86.3795,169.5742,6.7245,18.6075,-88.0940,42.7212,-20.1255,12.2297,118.2752,64.9322,201.1732,149.0753,165.2484
-60.3993,-68.2689,44.7693,103.6085,55.2491,154.9663,155.2007,231.9639,206.4308,24.2065,-72.5621,32.0360,-29.1392,25.9954,38.2890,70.8473,177.1866,184.6978,206.3423
-82.0306,-23.6294,56.7493,137.2511,85.3054,198.0535,296.9538,308.7693,427.1325,9.8151,-60.6947,20.2641,-15.8333,40.2924,-35.7299,71.1853,183.2620,219.3867,262.7725
-122.2450,47.6912,55.3577,147.8259,121.9364,222.7738,346.8106,357.2950,403.0484,32.6992,-29.3531,10.6790,3.8173,46.0154,1.1035,98.1750,177.5136,205.8371,293.3179
-110.5349,54.3530,52.1342,108.5800,105.4863,204.7629,296.5163,368.4507,245.1724,116.6130,40.6397,-28.5885,41.9671,35.8885,108.7899,124.8357,129.8274,162.2305,299.5057
-77.3555,-19.2270,46.0286,30.0790,77.7580,163.5071,244.2850,340.8671,70.8429,186.6348,100.6001,-79.0864,88.8596,26.3892,152.4184,120.7933,83.8973,126.3487,286.3753
-37.3505,-64.5172,35.6432,-20.5399,75.4010,114.1394,189.1955,291.0682,-112.3308,175.1032,60.4747,-85.4273,83.0677,29.2630,98.0071,100.8318,79.2893,109.3783,242.9730
13.7878,-6.8980,10.8117,0.2781,51.9698,74.8929,134.7395,262.5665,-127.5541,141.0204,-62.5446,-50.5199,20.3684,8.8611,43.4914,86.8482,84.3215,94.4564,200.4830
18.1790,55.4946,-45.6083,-2.5075,-3.7005,38.4408,167.3542,242.9588,102.2496,143.1098,-162.3202,-41.4660,-38.0597,-57.1483,63.0316,61.0981,45.2550,31.4846,191.7802
-44.4914,18.4516,-122.3377,-126.8063,-52.4710,-38.9835,254.2340,176.4700,272.3123,140.7273,-210.1399,-81.8371,-77.7698,-114.7192,117.9706,17.0337,-31.9122,-85.0732,185.7364
-128.1444,-87.4721,-177.9978,-270.6838,-93.5408,-130.2294,251.2513,103.9900,216.6483,122.1506,-238.4171,-118.1628,-110.7643,-118.1220,130.4964,2.9935,-88.6395,-153.8015,161.3021
-230.7725,-212.2379,-194.4249,-290.2188,-128.1729,-137.0414,172.7361,106.5033,177.1006,118.4913,-243.0008,-119.6678,-111.6614,-100.8694,89.1721,28.2537,-100.4572,-119.1252,143.2635
-303.6949,-302.9584,-199.9660,-237.9369,-124.6653,-64.4145,145.2815,129.5200,236.3968,93.0186,-232.5755,-106.4079,-85.0505,-92.5439,57.9254,28.9650,-96.2033,-71.1833,128.9014
-232.6594,-279.3097,-212.0103,-223.8965,-85.7054,-14.3729,166.5745,88.5159,214.1381,30.8597,-234.5835,-75.0463,-78.4805,-68.8024,83.0087,3.9365,-85.6550,-59.5644,105.4680
-117.3476,-212.9564,-201.8143,-223.6912,-47.0296,1.2525,177.2987,37.3912,163.9794,14.5831,-214.9697,-27.3526,-90.4656,-26.3303,117.1404,10.3261,-57.5080,-19.2960,90.8517
-161.3411,-247.5933,-155.5865,-184.7480,-16.3629,39.9270,194.9823,34.8141,212.3653,56.6343,-139.3555,-16.2138,-88.1906,-0.5639,90.5601,17.0801,-31.3651,45.3555,81.9535
-241.6105,-276.0138,-110.8812,-132.0953,13.7754,84.7982,218.6485,37.1581,199.3330,74.3387,-62.4378,-42.2865,-78.6225,2.6812,33.1169,-15.5396,-23.2195,62.9507,72.7906
-145.1950,-142.1396,-93.4926,-98.6857,37.4574,95.6602,219.8387,33.9384,80.9143,64.8596,-40.7189,-38.9684,-64.4344,11.5003,25.0355,-15.8537,-14.5107,56.7156,97.7380
-14.0682,8.0663,-76.5489,-84.5697,53.8830,91.7605,228.7232,59.9188,64.2010,68.5858,-42.6612,-17.9091,-15.4230,32.9078,56.4115,34.7177,-1.1191,73.3415,150.7611
-17.9216,20.3111,-37.1511,-78.7889,70.2412,83.7070,235.1193,81.6198,71.5632,61.6926,-21.3692,-36.9770,49.5010,33.9868,55.3063,32.4288,3.2570,72.4464,181.0952
-47.9383,-13.7281,-3.5225,-69.8580,75.7683,57.9079,184.6274,82.8450,-53.9510,48.8277,3.8303,-59.0934,62.8158,-11.3117,17.5267,-28.2778,2.3173,39.9769,205.9084
-55.6285,-46.0162,-7.7947,-62.5922,49.9240,41.6496,172.8578,133.0156,-4.9579,81.8513,-3.5471,-39.7216,27.1809,-60.2394,-3.6967,-41.6830,-3.3462,29.9976,260.0729
-94.5532,-103.7114,-24.4646,-62.1364,6.9965,51.1806,293.2339,215.8308,334.6952,134.3258,-8.5622,-26.5497,18.3265,-51.8805,3.1752,-10.7685,-8.7661,42.1508,292.1237
-36.9976,-74.7034,4.3166,-44.3409,-0.0812,42.1923,352.9093,209.4119,393.7564,132.3270,54.8916,-33.7750,61.7151,-22.9538,7.5453,-15.2007,26.3237,41.3591,262.1259
154.0172,57.8283,79.4149,-8.9428,48.9074,11.1663,195.9950,116.1317,2.3031,82.7629,142.0642,-10.9538,109.8842,-44.7655,-4.7451,-47.7842,97.9655,48.4973,211.0613
219.1207,100.3694,128.0981,2.4365,101.1884,18.9580,58.3513,67.1633,-146.6045,48.9495,140.9078,27.0059,134.4519,-70.7775,-25.9701,-62.7294,122.8264,73.5312,161.5964
110.5545,43.1361,115.1614,-2.9845,109.3418,63.0330,134.0122,88.3189,172.3627,51.1249,86.9415,38.6326,148.6752,-25.7211,-42.4757,-54.1645,84.9868,74.0067,104.0159
102.1020,35.9701,95.6428,12.8679,95.3269,77.9026,199.5370,80.4926,288.7107,46.2852,99.9995,52.2736,150.7584,32.1716,-40.5997,-30.3833,72.8758,50.4759,53.7437
202.5529,15.7448,106.8603,23.4841,93.5131,68.9649,71.4515,12.9795,-37.8327,-16.8493,131.4046,87.4581,130.5761,31.8550,-23.7774,-11.9569,113.0566,59.1584,16.2448
171.8721,-60.8982,113.7207,12.7877,102.4361,99.8662,-58.6258,-39.3222,-238.5744,-111.7674,82.7494,119.0045,108.7494,30.7169,-15.9228,-12.5259,138.8542,113.0119,-20.1189
84.8753,36.2179,102.9873,44.0430,108.3177,165.9554,-35.4721,-39.4780,-72.0809,-145.2829,63.8281,150.4844,108.3345,74.5236,-35.0958,-4.6483,126.0654,162.7296,-46.2620
218.9893,351.7727,115.0921,124.5095,97.7398,200.7602,-5.2918,-35.1317,27.6229,-95.0782,194.9760,182.9561,133.4232,104.7831,-74.1717,18.6663,110.4663,168.2768,-71.2582
526.6074,565.6155,154.8290,164.9950,65.2301,181.7146,-105.0649,-56.0755,-197.6832,-42.2570,341.1902,182.8803,182.4966,97.3824,-110.0630,23.1943,102.6397,139.4360,-123.1149
715.0125,542.7079,181.0962,149.2140,29.6951,150.1881,-247.9709,-72.8187,-448.0340,-42.1434,349.5385,165.6882,224.1087,103.0012,-126.6891,17.8201,88.2500,112.8851,-178.4435
694.3905,477.5789,189.9009,156.4947,8.7487,142.6981,-293.9034,-75.3270,-410.2179,-58.7951,305.1656,171.8487,212.6461,127.8735,-133.1489,28.8407,73.5819,105.1691,-205.4580
617.0851,456.9466,211.2760,200.5770,-6.5549,140.4099,-249.4891,-93.2165,-217.8577,-51.0539,326.4810,167.2983,175.4852,123.6096,-153.9772,20.8861,75.4516,99.9948,-233.9757
576.2122,409.3626,239.2382,219.6086,-24.7830,102.7263,-232.3443,-125.1549,-166.1656,-50.3858,369.5363,122.6486,178.9032,76.4698,-188.3536,-26.1108,87.5108,81.8470,-282.9072
509.4287,352.0609,235.9546,199.1616,-41.7093,40.9974,-268.2413,-153.0336,-219.0862,-69.9551,361.6573,91.8652,198.5984,21.1077,-204.9890,-66.2737,84.5765,51.2278,-321.9771
411.4346,325.9324,199.2638,177.5718,-51.5768,5.3231,-262.9055,-206.7647,-172.7191,2.9242,321.3634,97.9314,173.4179,-10.7653,-198.4175,-89.3994,69.8466,14.0718,-350.0157
