Fp1,Fp2,F3,F4,C3,C4,P3,P4,O1,O2,F7,F8,T7,T8,P7,P8,Fz,Cz,Pz
34.0811,-34.4461,31.2412,-14.0352,31.4715,26.2657,-28.1587,56.1482,-18.0642,33.8833,52.4899,-103.7766,55.9406,-10.7932,40.8752,56.8596,23.4750,13.5432,-4.5189
8.9886,-123.6509,1.3706,-66.0321,-56.4736,-15.4477,-72.3379,40.9740,-22.9664,11.5919,59.3947,-59.8307,56.7879,-14.6610,70.3372,97.4178,59.8308,-6.6711,-11.3573
3.9528,-162.5928,-53.8173,-128.5238,-142.5196,-119.8834,-95.4936,-19.2823,-6.9892,-32.0651,11.1239,23.2506,61.7311,-12.2059,56.4030,80.6461,102.6552,-46.8239,-3.5608
9.9844,-84.7146,-100.5894,-101.5062,-142.9926,-171.3279,-54.0886,-63.5992,37.8420,-48.2621,-30.4365,92.5235,51.4063,23.2572,45.2195,-9.1023,105.8761,-49.4229,25.6333
-0.8140,1.5727,-124.5838,-29.0168,-97.2306,-122.9580,31.0345,-55.7108,72.2841,-5.6130,-4.5323,105.8783,33.2891,61.2096,68.2931,-49.4884,39.1468,-31.7156,28.7309
-19.5983,-15.0700,-114.3673,-15.7381,-66.1387,-37.8829,91.5815,-30.0828,83.2697,56.7780,40.4207,105.3326,44.8603,62.2605,59.6081,2.5144,-39.6420,-33.3335,-9.1259
-32.1006,-52.0534,-70.2786,-40.6134,-28.8030,35.1229,93.1979,-15.7061,87.7907,83.4090,55.2693,123.5837,76.8846,56.4405,10.6501,42.0083,-43.0300,-48.8022,-39.7567
-29.3248,0.7113,-47.9443,-39.8831,11.3526,69.4424,66.0603,-23.2454,65.0950,53.9805,53.1868,100.9970,83.1821,67.2477,-7.4635,8.5106,17.0337,-58.1975,-49.9667
13.8679,89.7376,-74.2422,-14.9512,11.7271,43.8253,55.0475,-65.6822,10.9307,-7.5217,25.4634,34.8500,68.9568,55.8882,-4.1329,-55.9496,59.4198,-34.9197,-69.9027
75.0093,126.2760,-73.5607,36.9036,9.4432,9.6183,62.4657,-120.1586,-18.5275,-64.7893,-36.3551,41.9692,64.4441,23.0294,-35.7607,-105.3908,57.5144,34.8948,-87.6946
75.4040,101.6402,-7.1226,108.2905,46.1794,34.8756,55.6315,-142.6723,-14.5695,-126.9719,-75.9199,137.8793,49.9446,31.6272,-70.7501,-111.3551,34.2528,94.5086,-73.1493
19.9943,21.1676,37.4848,121.3253,50.8352,79.3758,29.6016,-128.2280,-22.4592,-197.4541,-59.4338,180.5436,7.8142,83.8728,-44.8343,-68.8997,1.4067,79.2191,-42.1623
-5.1210,-81.1573,-2.2429,55.5456,-24.9081,69.9882,16.5300,-89.1607,-16.9403,-192.9173,-26.7870,111.8129,-26.3607,109.8140,37.7885,-17.4497,-27.3256,21.9896,-17.3164
-10.9052,-118.5792,-74.5266,9.4704,-105.0608,32.0891,22.3000,-28.7648,51.4819,-77.9352,-8.3741,24.6773,-35.8794,87.4735,118.7295,17.1232,-44.6261,-11.3939,4.5937
-68.5812,-74.2933,-115.5351,21.6551,-125.1076,28.1202,29.4020,22.8881,135.3322,18.3123,-9.8171,-3.1544,-46.2428,63.8785,135.5902,41.9403,-76.1252,-21.1867,19.4185
-129.6188,-18.3131,-109.4457,20.4474,-102.4762,57.7374,52.5216,22.2668,159.4030,0.9873,-44.1607,31.9781,-52.3120,62.6908,79.5809,41.3182,-115.2105,-30.1342,24.5081
-121.7612,24.8676,-72.0980,-15.9971,-66.4200,87.6419,95.1055,-33.7954,123.6407,-58.1701,-92.3564,97.5816,-32.9417,55.2314,7.8204,8.7464,-99.6672,-36.7301,36.7913
-106.2685,68.9506,-47.5583,-46.4502,-46.8814,103.7945,103.3109,-108.3396,72.3316,-100.8238,-110.6503,146.3769,-17.1093,29.6515,-46.4269,-16.0919,-26.6041,-43.5090,53.8311
-122.5670,80.9956,-61.4163,-68.1295,-68.5695,107.9687,51.1545,-147.6681,34.1638,-141.1525,-94.5082,167.6736,-38.2065,18.2346,-101.4817,-19.6083,25.5773,-52.4791,59.5294
-87.0759,30.7767,-81.6402,-81.1266,-98.8362,102.3506,-13.9153,-118.3601,-8.8006,-136.5341,-64.3833,180.2932,-79.1148,27.6849,-144.3295,-18.3089,29.0932,-44.9484,74.6754
-5.7563,-41.3310,-78.1513,-55.6343,-84.5006,86.3148,-44.4011,-55.4913,-85.5598,-52.4248,-38.6406,168.7981,-119.3997,19.2991,-147.5802,-1.5584,28.9025,-13.9627,116.4869
-2.5924,-60.6752,-57.2255,-9.5179,-30.3599,66.4847,-24.3821,-19.0354,-145.6526,29.1725,-43.8622,136.9244,-152.2323,-8.7870,-146.1814,10.2999,40.5067,19.5849,139.4143
-63.0336,1.9237,-22.0314,14.5127,15.4494,54.3067,29.0417,-16.8840,-118.1906,30.2416,-77.9936,139.8839,-146.4290,-18.0459,-172.9261,-37.9749,42.3220,43.4370,99.4512
-66.2675,88.9575,22.6459,41.0572,22.6817,38.3086,54.1222,-47.9675,-52.9276,-31.4848,-99.2993,163.8391,-88.5295,-12.3196,-185.3071,-103.3786,27.6621,66.1369,18.5244
-38.6659,124.8855,57.8736,99.1459,16.0465,0.3354,29.6291,-132.9838,-28.2553,-102.2015,-86.8635,140.1319,-29.1384,-9.9530,-141.6650,-88.5804,-4.2364,87.5934,-74.2426
-62.9628,103.3463,84.3002,143.0127,41.6717,-30.7332,11.6180,-232.0722,-17.6629,-126.3257,-37.4984,95.5141,-8.0666,15.8718,-69.8483,-21.8061,-46.2200,94.8924,-183.5821
-64.9068,48.6318,107.1256,139.1588,72.5304,-11.3145,-7.1078,-271.9109,-5.8287,-99.3665,51.7940,90.6209,-3.2367,66.8196,-21.8586,-1.7572,-61.0272,88.8570,-293.8022
36.4396,-4.6325,112.0913,119.5549,40.0490,36.4731,-88.3798,-270.3933,-37.8819,-102.8191,127.3685,103.6122,2.6093,94.4557,-12.2303,-32.2362,-26.7094,78.9242,-358.0352
140.4745,23.1626,114.5026,100.5056,-17.9420,56.1119,-168.5194,-277.3589,-82.6738,-159.3257,122.8393,122.9675,-1.7546,94.0134,-11.8360,-51.2511,21.8755,59.6282,-360.0086
123.9745,122.7076,147.9036,74.5866,-8.1273,45.9158,-155.3536,-261.3364,-88.1377,-174.9065,76.7838,171.7056,-5.8312,96.6013,0.3729,-27.5527,39.7072,34.4332,-326.7471
26.3498,137.9640,182.4255,64.6189,43.9347,49.8255,-121.5748,-202.7030,-105.4516,-133.8251,65.5063,200.6627,9.1874,102.9521,0.9953,21.9941,18.7205,31.5863,-288.3902
-27.1662,50.3551,162.4004,71.4048,60.9114,89.9095,-135.6256,-161.6781,-156.2261,-124.4061,80.2565,165.6925,30.4728,119.3927,-20.4072,46.5866,-22.5352,50.4763,-256.2490
18.0047,27.3761,94.9751,47.0061,56.2934,146.6754,-117.4575,-153.2235,-166.0337,-141.5584,81.2926,128.0151,35.6447,146.6607,-25.7121,30.2318,-61.0486,53.3856,-217.0085
93.2777,57.5596,18.8884,-5.9101,54.2013,177.0149,-49.2246,-126.0401,-128.0986,-121.7225,65.2975,127.5926,10.8659,127.3954,-7.6418,29.3336,-86.1093,37.2454,-152.0963
85.3230,-10.1060,-37.4770,-29.0512,24.0049,148.1647,-26.4576,-93.5644,-101.3854,-101.6561,45.0086,127.1637,-46.2517,56.1764,-9.6136,53.4479,-98.6278,30.6999,-80.5430
-20.1167,-86.8691,-43.8701,-14.9163,-23.5712,80.6256,-41.8951,-107.4653,-77.6145,-124.4027,45.7976,127.8524,-99.7694,29.6704,-32.9388,21.8078,-89.5143,34.5800,-38.3332
-116.8426,-6.5432,-12.8999,9.1948,-38.5122,33.6430,-18.0508,-135.4196,-30.9391,-133.3344,66.0907,154.0852,-111.0012,59.6328,-36.0444,-71.8759,-54.5797,39.0810,-18.8263
-119.7754,124.2153,-13.9790,42.4936,-30.3340,26.9409,19.4251,-118.9156,19.4990,-92.9924,45.0566,176.3630,-106.2600,49.4283,-14.5765,-126.0342,-28.5652,39.1530,-3.4768
-61.0356,133.0461,-62.6278,58.6020,-44.4696,20.8895,22.3249,-78.2679,61.8404,-49.9048,-21.7617,175.9363,-108.7986,3.7805,10.9081,-101.3349,-48.4450,9.9266,-6.2483
-37.6067,46.4022,-99.7113,14.2649,-82.3419,-10.7313,24.9316,-54.9069,86.8684,-27.7819,-48.4818,178.2756,-64.1470,4.7583,32.2896,-47.0391,-97.2037,-48.5079,-18.1243
-88.8627,-25.4724,-119.3647,-51.9468,-102.0550,-48.6683,57.2224,-44.9713,87.2120,-4.9321,-23.8605,187.7289,36.4401,36.1649,31.9013,1.4539,-128.7490,-93.7661,-1.8613
-128.7972,-5.7014,-167.9332,-75.3007,-77.2305,-78.2155,87.5343,-42.5939,98.7667,9.8101,-16.0806,188.4003,80.1697,51.4034,0.5710,21.1659,-117.9846,-121.6190,24.2039
-69.6976,81.6146,-214.0149,-78.2774,-47.1643,-101.7875,72.9376,-50.5410,127.8128,-13.4469,-22.1399,174.0071,10.9383,65.2121,-25.5677,-0.5957,-69.0013,-144.3557,23.9462
9.3822,84.1451,-188.0261,-100.4122,-65.6358,-106.1308,10.0981,-44.4951,117.2723,-47.9139,-8.7042,139.1936,-74.1697,56.7155,-15.8310,-22.0202,-11.8896,-127.4983,23.8368
-7.0870,-18.8071,-126.8182,-120.5775,-103.0247,-86.1114,-53.3732,-9.2005,70.7372,-24.5325,13.6020,92.3733,-98.7216,-15.0053,7.4010,-16.8431,15.0260,-86.3644,32.8892
-49.1130,-33.6188,-115.4967,-121.7703,-101.8273,-68.1220,-76.8476,34.9964,47.6324,61.7683,50.7986,46.4887,-101.1298,-83.5231,15.5835,-26.5660,1.5931,-89.2679,17.9581
-11.8971,43.2111,-137.5655,-110.4436,-77.4661,-55.5069,-65.4724,88.7554,49.8657,137.5476,75.5563,-1.5865,-109.6319,-57.4463,13.7749,-45.9949,-35.1816,-93.2953,25.1516
26.3452,0.1725,-137.2869,-82.4436,-50.6646,-27.6580,-14.2361,155.8517,68.5558,158.2937,0.8576,-19.0231,-94.7208,25.7308,18.0506,-7.6427,-77.7562,-36.0174,104.9069
-23.0084,-130.3199,-146.7496,-65.7409,-10.9929,-21.2972,71.6880,165.9036,118.1526,139.6658,-118.7699,35.0351,-64.7288,61.3791,47.1219,65.8138,-115.2938,-22.5930,154.6842
-95.1390,-177.4721,-204.8249,-112.8859,-8.6945,-90.1856,111.6871,68.2513,167.6217,101.9652,-117.4319,81.4144,-72.9125,18.3185,126.6129,84.7083,-155.3096,-122.1970,99.7625
-142.1836,-228.4365,-260.7028,-207.5549,-87.1164,-186.3196,73.7103,-39.0027,205.1837,80.5050,-28.1476,9.9531,-121.8993,-49.3192,240.2457,59.6080,-216.0866,-199.8911,64.4589
-203.0997,-368.7603,-272.3668,-278.7293,-153.9091,-223.1179,53.7815,-47.0676,275.1357,113.9715,-9.9489,-115.9615,-151.2260,-86.1637,304.8812,58.6251,-275.4330,-187.4803,124.3009
-259.3684,-424.8736,-264.6405,-285.0102,-119.9137,-214.2119,89.4927,-6.1352,344.5066,163.2150,-42.1871,-166.1882,-129.0552,-93.3059,277.6817,71.9104,-286.7898,-184.4585,165.1615
-263.8285,-334.0627,-238.5360,-229.4413,-50.4089,-216.3864,104.4042,-0.8577,357.8986,171.2922,-24.7387,-153.8880,-97.4685,-86.1239,235.9388,71.1307,-258.7078,-201.9849,137.8560
-245.1868,-263.2502,-176.3620,-162.5234,-39.7108,-218.1126,83.5531,-9.7623,379.8353,175.6638,25.7801,-140.0708,-103.7722,-47.6391,241.4049,81.7297,-224.7769,-175.5133,123.5740
-221.7751,-248.2817,-109.9937,-145.7642,-84.2032,-192.1195,67.2828,-2.4728,427.0057,208.5917,70.3835,-103.6355,-130.9987,11.3040,230.9252,102.9067,-173.8543,-148.0391,127.2889
-156.9446,-193.8951,-56.4012,-148.6348,-123.7147,-158.1709,53.4274,-2.7751,386.8837,211.9387,84.9155,-45.4301,-133.0773,38.2794,174.3688,102.0909,-113.4991,-148.2720,104.8110
-67.2959,-125.4929,5.3101,-97.3219,-107.8609,-126.7656,58.9841,-8.6939,273.1823,165.5780,32.0199,-26.6151,-100.8420,42.7608,162.2279,101.5953,-95.3432,-102.6205,87.9782
-16.3479,-103.9870,40.8154,-24.7869,-55.3399,-74.4734,95.7723,3.7365,208.1232,114.0225,-12.3709,-44.7331,-57.0169,72.0038,201.9123,122.4197,-96.4666,-11.2260,90.4532
-3.8247,-97.0883,17.6090,6.2909,-36.5520,-4.7732,95.1209,25.5021,158.8770,53.3848,64.3973,-37.4807,-18.7659,90.1234,169.7263,114.9865,-41.9458,46.5202,72.7088
27.4422,-77.2950,5.1639,37.5185,-44.0534,37.1992,52.8684,40.4430,62.8162,-14.8830,165.6604,6.3541,8.9528,55.8369,59.8977,67.5763,31.6149,67.2124,50.1622
101.0661,-52.0103,41.9775,93.7811,-10.9545,23.4230,66.7496,33.2500,15.0044,-22.5665,144.4391,55.0100,21.9120,31.5988,11.4233,38.3186,35.1938,83.0996,56.0134
164.1376,-8.3063,56.8756,108.5685,39.9326,-18.9258,124.1519,-7.4037,57.3100,35.5554,64.6366,90.2666,17.0050,49.2776,65.5019,22.6640,-1.4255,86.9076,75.3805
142.3551,52.3153,37.5802,85.7853,58.0751,-40.1223,135.3393,-28.9028,91.9174,83.9379,15.5448,95.0820,10.3860,27.9115,134.5239,-16.8943,-10.6203,84.3899,112.7849
60.2075,89.6090,51.3715,105.4356,76.7310,-28.6459,127.4631,23.9797,93.1170,100.7817,-32.6524,66.1841,27.5327,-52.2838,154.3196,-26.9523,-16.6169,89.4362,173.2487
30.2938,69.3152,83.0666,150.1996,99.3358,-13.5636,139.4136,82.0205,92.1262,93.1277,-48.6895,50.7931,46.8301,-90.8532,114.6581,25.5565,-33.1908,91.4380,203.2457
68.3370,7.9133,82.7751,150.1514,72.3266,-9.7690,118.6313,64.9675,53.4126,39.9680,19.4480,82.8354,20.6150,-51.0393,47.1139,52.4716,-1.7907,91.2263,194.3522
63.3515,-11.2964,85.3240,123.2672,30.4609,-8.8622,69.8202,38.6946,-11.9867,-10.8411,77.4986,115.7973,-14.7983,-13.3800,24.3378,15.7200,75.3992,88.5567,203.0852
-4.2493,72.4194,115.2169,109.2459,37.9756,-14.9171,54.4476,77.7516,-21.3098,32.9560,62.0841,112.3103,15.1912,-17.4882,65.1328,-7.0659,116.2920,70.3410,202.3842
0.3957,175.7921,132.8450,103.0067,61.8065,-25.8461,53.7938,134.5150,16.5556,137.5888,57.7288,118.8955,58.5287,-12.5619,94.3563,4.5998,103.7385,69.6400,126.0674
133.1567,172.8847,145.3424,126.2121,80.9702,-5.1042,27.4167,163.4523,28.7959,182.5618,79.2834,156.8176,22.4335,18.7652,58.7995,4.8619,100.3904,123.2798,27.2681
246.7870,102.5216,200.1760,203.5988,133.9442,57.0346,-15.5896,173.6431,10.5723,144.3278,57.8551,171.7942,-21.5485,27.9127,-9.1819,0.2737,131.4539,186.0334,-15.4769
207.3262,103.9771,279.4414,275.7175,188.4830,97.7790,-60.9670,146.9609,-15.6156,95.6425,34.5601,164.5958,28.9223,13.6877,-45.9918,-0.7677,162.8973,208.7129,-37.9150
104.9159,179.5725,319.9767,278.3245,181.4753,72.5652,-79.3095,87.8364,-47.5975,78.6129,64.5852,188.2458,89.1786,28.6179,-18.1299,-13.9133,173.9731,208.1533,-92.0810
98.0649,196.7024,292.5134,245.7367,141.0379,33.8133,-57.6208,57.1860,-63.2923,71.7913,74.4841,200.7823,60.3093,57.7680,32.1244,7.2340,177.6392,197.2579,-145.8935
149.8451,116.9648,221.1525,228.6416,115.2071,39.7643,-56.1715,49.3240,-50.1705,50.2867,24.5334,141.4441,25.4758,53.9802,28.6103,83.3335,177.8050,177.2998,-146.2222
129.2159,64.3418,158.2179,206.2988,104.7614,54.8806,-82.1417,5.3696,-50.4298,25.2053,-1.0800,92.4562,55.4479,64.6719,-17.7418,115.3805,163.7057,173.4674,-92.1719
75.1967,126.8055,129.6244,163.8387,109.9049,28.6829,-57.9073,-47.9254,-99.3419,12.4619,36.0311,146.0002,60.7853,130.6858,-39.6792,65.8113,156.3158,174.8342,-40.7713
109.3336,229.0847,120.4149,145.9420,112.5358,-5.5551,-17.1151,-55.8130,-154.1509,4.3907,65.3934,233.4117,-7.7734,162.3002,-43.9141,33.9169,190.4331,140.4668,-42.0747
198.2314,266.7297,116.8229,159.3072,70.3848,-2.2987,-44.9504,-42.3547,-135.2729,4.4608,32.0331,250.8548,-58.3880,105.6839,-56.0119,46.8409,232.7850,91.4395,-59.7039
226.2668,237.3308,97.8118,140.4739,1.1934,12.1165,-64.6824,-34.2760,-45.0769,26.6990,-31.3052,207.2792,-40.5851,47.1789,-33.1837,38.7246,218.0192,69.7591,-36.9124
168.5987,196.1234,38.4657,83.7934,-35.3498,5.1049,-2.1314,-25.0786,12.3469,40.0408,-48.5813,168.1240,-14.2206,30.2115,23.8564,21.4450,168.5482,60.9111,-9.4981
70.9953,189.4293,-13.1297,62.5381,-35.3529,-3.3850,45.7074,-42.7688,-14.2909,0.3554,0.0600,165.6232,-12.9248,15.6814,27.2854,25.0617,151.4475,50.0673,-22.9563
6.1072,210.7801,3.7038,81.9567,-38.7639,4.9379,29.6049,-99.6340,-47.1509,-76.1120,41.5225,175.4089,-9.1173,23.5852,-38.7687,-1.0362,153.8105,52.3711,-33.9106
35.9197,188.7999,22.9971,74.7943,-68.1791,17.6942,19.9504,-141.7123,-29.0037,-145.8240,25.7190,163.3662,-4.8499,61.2098,-81.1047,-57.7793,134.0677,58.9350,-15.9916
101.4689,123.6145,-27.4884,44.9409,-109.0374,22.2361,15.8068,-150.9993,-6.8156,-185.1545,6.4300,163.9195,-22.6615,48.9279,-49.4911,-70.7724,109.8789,50.6460,-15.4449
82.5336,136.8521,-63.6440,45.1183,-114.1638,10.0835,-6.3664,-162.2337,-16.0550,-175.0169,32.5297,212.4056,-29.7728,-2.6888,4.9959,-48.8895,87.7246,37.0621,-39.5744
-4.4135,222.7420,-12.8759,59.2866,-62.9754,-14.7761,11.8282,-156.1514,-25.5777,-120.0223,75.3496,232.8560,14.3881,10.0707,22.2696,-53.2294,31.2034,28.6649,-50.4277
-65.4541,200.2413,43.5990,50.2255,-0.7006,-25.2283,67.3734,-97.3421,-7.4131,-64.1102,106.0594,167.2503,73.0985,61.6276,0.4487,-60.0553,-42.2859,21.0830,-49.4517
-102.2585,58.5331,50.3749,33.0905,35.8292,-17.2750,83.7453,-28.8686,21.0273,-36.9139,114.1276,93.1952,97.5158,61.7019,-43.0059,-28.7436,-66.2196,9.8612,-42.9867
-133.5972,-18.0171,61.0442,19.3567,51.5250,-14.6570,72.6388,0.6760,11.0765,-39.1202,72.7320,56.1145,105.0749,52.4774,-114.6651,5.0510,-30.0788,-9.6271,-12.4639
-109.0199,-7.7684,79.5626,-4.9947,31.5475,-1.2434,78.0512,8.2784,-42.3817,-64.5190,-0.6530,11.2323,103.3359,94.8131,-187.5667,2.3139,16.5193,-33.0577,21.9596
-24.9989,-23.9408,50.2777,-35.0606,-29.2662,44.1830,72.4244,15.8627,-55.0924,-75.9902,-35.8122,-14.8500,59.5267,135.9664,-184.7273,-26.4363,24.5347,-46.5417,25.7232
45.1417,-37.3393,-8.9665,-60.4896,-66.7604,67.4320,50.9153,28.9644,12.0720,-31.5972,-28.9470,13.9350,7.6046,123.0382,-114.6203,-55.4631,-23.8636,-50.5438,25.0343
58.9775,13.9329,-37.9305,-78.9841,-35.8674,22.4764,59.1419,58.3478,71.3765,40.2434,-46.3959,16.9889,15.5993,63.2310,-77.8666,-53.5356,-90.2759,-52.7565,54.9314
24.4485,49.8643,-48.1908,-80.7340,9.3112,-41.9204,97.5091,77.2423,86.5670,78.5919,-99.6206,-31.1963,39.6562,-17.6091,-71.5143,-5.3137,-114.1831,-54.7293,96.8804
-37.0181,4.8269,-96.3186,-75.5695,-0.9487,-80.8204,128.9184,39.7002,127.3445,73.1462,-142.6026,-39.3749,0.3855,-56.0136,-8.6224,47.4490,-103.0430,-65.8628,129.8607
-107.6883,-69.6462,-172.9145,-82.9113,-55.1947,-111.8359,131.1265,-20.4183,182.2590,49.8150,-158.5392,-9.7064,-58.5082,-10.1588,78.4153,51.5965,-110.2111,-83.2736,158.8330
-187.4160,-113.4777,-196.1440,-80.0580,-83.6746,-130.5169,98.2833,-29.6558,187.7673,30.8238,-159.1361,-11.0441,-58.3176,46.1590,107.3517,16.0492,-131.8023,-76.5525,173.2921
-250.2832,-108.5620,-140.2455,-54.8701,-56.5942,-109.1196,52.8396,1.6578,183.3335,18.3332,-158.5228,-16.3533,-18.6939,37.0824,102.9424,-11.8316,-123.4230,-43.1038,157.0308
-242.1606,-71.2189,-83.6830,-49.2520,-28.2322,-68.3723,26.8658,22.0620,196.7446,-5.3995,-177.1629,-10.9172,4.2566,2.1592,87.2608,-5.9045,-81.4958,-20.7609,132.6204
-188.5513,-33.7104,-69.4603,-61.3818,-41.8829,-44.8556,19.3475,36.7952,171.9357,-23.9410,-205.1211,-37.5035,-6.6728,-3.7802,21.4742,22.9574,-28.9910,-24.0280,129.9090
-146.6068,19.4985,-50.0681,-35.8554,-54.4878,-37.5361,19.8613,49.8205,130.8375,5.0592,-193.1953,-38.9374,-36.5377,17.4890,-64.2303,35.3355,27.9192,-35.6192,123.1372
-60.5328,112.0143,-20.2382,13.3487,-30.6618,-25.9685,25.1103,13.7669,133.8474,41.1368,-132.3244,48.5136,-42.0236,51.7970,-107.7541,1.0165,83.4947,-38.0361,65.8440
87.3651,184.0935,-26.6277,31.3670,-1.1075,10.9587,21.2565,-67.1115,126.5872,11.9725,-70.1019,126.8393,-1.2614,63.2886,-119.4547,-59.4512,115.6189,-16.2003,-16.4454
139.5847,174.8665,-51.4669,31.4297,20.0876,70.8470,15.7497,-101.9050,66.8186,-33.9314,-34.8112,111.8954,36.9385,20.0457,-100.8558,-107.5530,105.9608,21.0596,-46.7982
46.7011,106.2019,-57.5294,43.7294,40.5989,113.9494,31.9034,-53.5116,14.3843,-27.1314,-29.7905,57.4844,35.9089,-23.6041,-33.0219,-133.0479,61.4847,45.3369,-7.5652
-18.1079,15.2649,-60.6314,61.6744,44.3327,128.5644,51.3646,-1.5795,-10.0016,-25.9905,-64.4089,-6.6722,31.0239,-8.4609,26.4556,-122.9276,8.1457,67.3938,53.5307
-2.2437,-53.8748,-54.8645,91.8115,48.4109,144.5457,56.8782,-15.5093,-16.4290,-73.6674,-109.4475,-84.2105,46.5392,14.0966,21.3728,-66.3177,-33.6304,105.5518,96.6125
-14.8665,-42.2055,-17.3590,131.2929,86.0145,139.8984,70.2055,-62.4584,22.4529,-91.3803,-104.3536,-110.1901,63.7507,-13.8651,-12.0700,-28.4293,-51.8565,119.6581,94.7561
-29.1497,15.4931,13.9984,136.9627,112.1196,74.7282,80.1579,-71.3355,59.2625,-34.5372,-59.2225,-74.4536,75.8830,-58.3316,-24.9608,-83.4288,-41.6333,92.8065,53.8780
9.8429,18.5568,15.4480,110.5987,90.4878,14.7192,69.9986,-9.7114,22.3548,43.5581,-41.2927,-80.5458,79.3903,-84.2893,1.4193,-164.1783,-34.8942,85.8919,65.8401
-18.9283,-42.5471,25.7920,103.7293,78.3528,42.8880,88.8501,110.4686,-12.5180,95.2935,-57.9753,-161.5783,64.2025,-98.2266,42.2241,-156.8615,-74.3411,118.2595,191.2116
-137.9105,-126.7158,46.8786,113.6432,90.8589,112.1552,136.5618,238.9926,19.0098,106.0074,-67.9947,-241.8391,46.7560,-88.8721,4.1665,-96.9639,-127.2722,135.8316,313.2755
-153.9792,-225.5761,53.5609,106.4153,70.6504,143.6250,125.3755,309.2667,25.2948,89.6523,-67.1128,-277.4198,34.7601,-51.2095,-106.0001,-69.8113,-130.2673,124.6429,298.1635
-31.1899,-289.9316,65.8849,92.9379,27.9573,148.1563,65.7790,303.8917,-11.4815,89.9973,-67.5314,-271.6051,3.1666,-21.8576,-104.0510,-40.8419,-108.5703,109.6484,201.2744
52.2397,-264.2634,79.0920,81.6967,1.4074,149.2537,56.9902,270.7029,12.9633,106.7418,-57.7217,-232.9095,-35.2374,-17.5400,42.2782,19.5127,-105.4400,88.3949,133.1035
44.1583,-192.1174,56.3941,58.7098,-29.2413,137.6359,89.7466,241.2042,75.0671,98.7940,-36.8525,-187.8164,-33.2576,-11.1542,112.8981,36.1229,-73.0777,68.5611,85.9741
16.5977,-116.0556,30.4626,53.4716,-46.6194,132.0941,103.8293,188.3347,80.8130,75.5277,-24.0344,-141.8038,4.0380,10.3736,51.2254,-1.8864,8.8660,76.0108,29.0853
-26.1235,-13.6096,37.6973,101.3744,-2.2629,148.9426,126.3639,96.8473,70.7545,53.4175,-24.8470,-63.4918,35.3257,26.2624,36.0540,-7.7150,53.1942,93.7965,-10.2032
-57.7583,81.2313,28.4672,153.2996,53.3720,150.2900,168.6481,10.4242,92.6101,10.3990,-30.5170,31.4180,50.5911,15.4642,82.7357,20.2689,26.1682,90.1789,-18.0674
-13.1606,104.1123,-14.9488,136.5824,55.9426,116.3198,172.2793,-24.5229,93.4187,-25.2357,-29.9338,86.0961,64.9327,-13.4825,49.6501,20.0443,5.4254,74.0058,-4.4222
34.6525,81.6898,-31.0930,71.0305,44.5064,85.6615,132.4590,-13.0229,66.9805,-18.3073,-16.6746,107.7449,89.0013,-25.8005,-37.9858,11.9033,27.1290,58.8504,21.9720
-10.5557,56.1796,-7.4842,31.0237,46.4406,78.0300,88.3416,3.9777,54.4257,-33.2412,-0.3787,147.1032,106.3852,-7.6505,-59.1288,32.4984,54.0147,35.5994,19.7812
-54.1477,23.9864,17.9200,27.1082,26.2516,66.6669,33.5197,-11.7680,24.6351,-91.9776,16.0495,196.2323,82.8681,12.3935,-29.2754,56.7874,75.2269,2.4561,-42.4077
-0.0607,21.2833,45.1648,14.0330,1.1820,33.4814,-26.3535,-61.3926,-44.5707,-89.7411,48.8933,209.6630,40.4658,17.5671,-30.6960,79.6889,106.8272,-29.7088,-117.7233
64.9915,82.4957,74.0198,-10.8549,19.3819,-15.9287,-42.7076,-98.6262,-97.6244,-8.1449,82.5514,192.6748,43.8814,27.3314,-63.5884,114.5960,143.9854,-57.6295,-157.1237
81.8859,137.7243,71.6096,-23.1524,52.9903,-70.0986,-19.7275,-86.9267,-114.1554,41.7904,83.6582,189.4302,77.5011,47.1193,-60.9133,128.5313,162.2810,-89.9925,-177.6358
110.4485,115.3124,36.6216,-50.8595,48.1718,-107.8509,-15.6582,-63.7180,-126.4677,32.9959,85.4672,205.7679,81.0374,58.9775,3.0517,109.9412,133.3680,-129.9905,-197.5389
132.1893,62.0907,9.5434,-109.6707,17.3264,-109.3280,-42.8218,-92.8476,-124.5807,17.3660,127.4522,204.3625,80.3470,59.2981,54.1167,95.2813,69.7223,-150.9617,-212.5965
86.0311,51.2455,15.9270,-129.2837,9.4680,-82.4401,-66.3168,-163.2432,-86.6250,-13.2675,147.3598,167.7562,111.6122,49.9128,42.6205,73.8734,35.2728,-122.4555,-232.0719
36.9862,58.8878,36.4919,-77.5126,29.2359,-52.2426,-76.1620,-205.6619,-44.1211,-66.4359,95.6614,116.3621,127.2227,22.1888,51.6027,13.3680,45.8081,-64.4586,-247.8037
34.0922,21.3185,30.9699,-29.9654,29.9638,-33.4524,-89.0799,-202.7705,-23.7423,-95.8755,51.2425,75.5703,107.0342,-18.3735,117.2982,-51.1675,46.6075,-18.1639,-228.9878
7.5729,-22.3394,4.8481,-17.7822,2.3511,-30.2501,-102.8963,-199.7598,-3.6121,-88.2638,71.9897,64.0756,86.7957,-56.2495,124.7863,-84.1105,36.4652,11.4019,-185.5344
-20.0007,33.7690,10.3618,11.5671,0.1118,-39.9421,-103.4209,-203.6912,22.4111,-63.2593,101.2768,83.3322,46.5436,-93.3456,48.3522,-112.3985,65.6416,25.5521,-149.4390
56.3993,151.8229,49.6318,52.4303,19.9711,-47.0666,-103.1946,-167.2827,20.0884,-21.5569,121.1872,98.5365,-35.0142,-126.4697,8.2492,-144.9826,105.4962,11.1172,-117.7695
160.4119,159.7902,73.7502,54.6086,-15.5182,-41.9424,-123.3870,-87.9270,-8.9128,22.8156,183.1382,77.3142,-95.7920,-128.5079,18.4543,-140.0054,83.0558,-16.6953,-87.2754
150.4039,34.1690,75.8497,25.6702,-102.8515,-43.3510,-152.4088,-21.7425,-10.9814,46.4997,256.0023,33.8854,-104.5114,-97.8532,8.2566,-80.2442,10.7160,-32.4263,-72.4995
94.3508,-66.1960,65.2344,-19.9120,-159.0575,-69.2450,-167.1901,16.3570,20.0990,61.3730,257.5535,-6.3600,-103.6119,-82.3276,12.7795,-5.9295,-38.5860,-49.3979,-56.2496
88.3976,-78.1892,22.5582,-86.3986,-170.3887,-94.3612,-160.5082,62.9273,25.1611,81.9454,198.6125,-35.4335,-96.9058,-105.7669,54.2818,27.8511,-28.5235,-81.4831,-8.0889
49.1842,-80.6036,-28.5316,-130.2889,-165.1628,-75.8506,-121.4837,121.3581,-6.1151,100.8711,130.3443,-44.2225,-69.7485,-116.0900,45.7676,8.3333,20.6328,-105.9682,61.5219
-52.0331,-95.3494,-38.5031,-122.1273,-126.8849,-17.8446,-49.4521,168.8419,-20.5725,118.7605,50.3686,-39.1596,-58.0373,-66.8877,-20.9638,-25.2036,61.9966,-104.0197,125.0355
-82.6400,-80.2484,-31.4127,-108.5429,-60.7891,21.8293,14.1970,208.0513,-9.4115,132.5278,-28.6960,-42.2657,-68.4543,-10.0675,-58.2667,-47.8962,71.8892,-86.7169,164.9066
-19.5710,-45.3292,-44.7218,-102.9973,-17.9979,0.8015,31.6341,230.3940,-7.7536,128.6899,-50.8448,-39.0224,-62.2607,-25.1859,-65.0513,-78.0119,71.3823,-75.7161,168.4503
14.6273,-27.3542,-55.2993,-70.1321,-14.0276,-50.8821,19.6859,213.8875,-16.5540,127.7417,-23.2943,-10.4315,-59.3535,-90.7738,-88.1462,-110.0873,74.1740,-79.1637,161.3445
-5.3128,-34.6953,-59.4089,-44.0385,-29.1423,-73.9480,21.2139,199.0273,-16.2979,163.3481,-27.5080,4.1471,-105.5330,-127.2995,-105.1469,-110.8688,59.8191,-79.5182,199.7554
-22.2476,-65.1368,-81.6369,-73.9510,-47.2829,-67.1692,57.9032,238.3720,2.8526,208.3478,-87.9797,-17.8281,-170.9590,-133.2632,-89.5849,-92.5602,20.0381,-63.5644,272.7426
-54.2417,-107.1146,-98.1373,-113.0747,-55.7793,-71.8650,106.0994,284.3789,44.3360,198.6614,-134.6462,-28.9388,-199.4461,-162.8319,-57.7256,-85.7194,-24.1202,-49.6187,302.2184
-114.2817,-130.7708,-88.6655,-111.0197,-64.4890,-86.6844,119.0603,272.5488,74.7572,132.7395,-129.8661,-18.1303,-186.8652,-199.9213,-30.7864,-68.9155,-44.2483,-46.2590,270.5966
-118.8968,-115.9022,-85.7987,-94.8148,-80.0006,-82.7124,101.9682,237.5363,56.1254,86.3951,-135.9923,-36.4540,-157.9306,-172.8695,-43.7364,-18.2669,-21.7533,-40.0377,233.5540
-31.2822,-80.3124,-100.4062,-86.3274,-63.3412,-71.5450,103.4638,218.7231,31.4922,107.3844,-191.4102,-79.5062,-136.9975,-84.0094,-105.6101,29.4810,18.6633,-43.3160,205.0754
42.1647,-63.7950,-114.8758,-75.8781,-16.6834,-72.2536,117.2285,186.7125,51.8807,146.6056,-218.1582,-89.8087,-141.6670,-26.8853,-130.5069,30.9701,20.8185,-67.4184,155.3873
10.4058,-69.2997,-135.5688,-77.1476,-14.4391,-67.6735,107.7105,143.7384,73.5491,146.7176,-157.8470,-67.2414,-162.7462,-53.5308,-45.5412,4.7688,-19.2030,-82.9915,103.2466
-58.6744,-60.8258,-159.1980,-106.3394,-59.5321,-52.0052,94.8592,130.4515,60.6404,129.1036,-91.6614,-58.4962,-169.3578,-93.0900,72.9473,1.1741,-50.8955,-85.4279,89.6133
-67.6020,-49.5753,-159.1164,-141.7472,-85.5072,-43.1882,90.5556,121.2044,51.0114,116.6034,-104.5308,-72.1661,-141.5757,-58.5754,103.3969,22.5299,-54.8128,-100.2801,91.5733
-58.2022,-77.1541,-131.9312,-143.4539,-99.2247,-38.1986,62.6295,71.6593,44.5106,76.6214,-154.1755,-83.4035,-91.1909,18.5332,50.8888,24.6817,-50.2049,-98.6181,64.1924
-93.8991,-97.3190,-89.8619,-87.7222,-119.5221,-31.4797,27.4244,13.8114,12.2224,12.4637,-173.4088,-89.9110,-58.2579,54.0761,12.3349,4.9664,-52.2321,-46.1264,20.3462
-100.5395,-39.0530,-42.4895,5.5761,-92.8323,-30.9084,16.4735,-16.1459,-9.7449,-22.9662,-161.9891,-103.9173,-67.9830,52.6524,27.4924,-3.7826,-60.0619,13.7291,-11.5711
-26.1837,48.5350,-0.3519,85.5438,-25.1185,-20.1494,-12.8419,-45.1716,-4.0835,-34.8353,-130.5595,-98.2301,-92.4422,58.3058,46.2916,-27.6268,-39.0172,44.4881,-44.0622
21.0426,92.7927,43.6711,124.9077,-1.7721,3.4511,-81.2552,-96.7635,-17.9505,-69.5485,-92.8680,-36.8819,-91.7891,45.2314,24.2559,-91.6664,41.2449,63.7452,-85.6326
-4.1851,129.2327,80.0498,123.0554,-28.4159,-10.7525,-133.4166,-155.7343,-44.6413,-114.5527,-92.9524,29.4331,-69.6169,-6.6030,-21.0970,-118.5754,124.0388,60.3502,-113.8210
16.6202,189.2950,57.7580,85.8283,-53.5292,-62.4528,-152.9875,-199.0074,-52.1470,-129.6318,-128.4091,17.6509,-53.3828,-35.1179,-54.5004,-68.8164,136.7511,21.1391,-120.8074
90.5565,205.2739,-6.5627,55.2537,-79.0559,-69.2199,-163.6878,-200.3367,-75.0400,-122.9594,-131.1922,-37.4780,-55.8380,-9.2037,-55.7386,-40.1205,104.7441,-0.3188,-113.3164
61.8692,120.3368,-25.2603,71.9515,-102.7320,-20.6423,-154.9833,-153.0591,-97.6484,-123.9378,-88.5827,-46.1006,-66.0944,14.3038,-13.8020,-64.9577,62.7351,23.0229,-84.1944
-84.1694,-13.4234,-13.6504,86.3980,-86.8535,3.1810,-131.5981,-99.7459,-41.6871,-129.4588,-58.4924,-24.2916,-55.8873,11.4215,46.8652,-46.3093,-8.8360,34.1042,-48.2302
-189.9053,-82.8892,-49.4660,34.9114,-44.4679,-7.6687,-116.2018,-76.0634,33.0410,-116.4700,-55.7207,-25.3468,-17.5884,23.0970,70.8837,15.3227,-72.2004,1.8382,-43.5148
-189.5522,-50.9676,-93.5377,-40.8847,-28.5816,6.4172,-89.9102,-58.2296,10.7963,-92.7444,-53.0186,-31.3782,12.5814,54.9667,43.3192,21.9140,-70.3774,-31.5473,-50.5273
-144.6317,-18.0381,-90.1609,-76.3435,-45.0778,48.2680,-54.4829,-15.8151,-35.8014,-93.2710,-54.3920,-34.6065,10.1653,75.3014,-10.9145,-12.5762,-57.2144,-25.6173,-9.3067
-90.3225,-41.7949,-87.0898,-70.4779,-50.8858,83.9195,-46.2200,33.7843,-10.6085,-109.1662,-61.6387,-54.0852,-6.4909,77.8975,-86.6891,-23.7487,-59.9312,19.2310,57.9580
-11.3379,12.0456,-91.3860,-16.8663,-22.8965,114.4371,-49.5901,45.8554,-20.5008,-104.0008,-45.5892,-45.6947,-33.8787,64.0859,-172.3523,-47.4456,28.5238,76.6779,60.9127
101.7931,237.0824,-53.8713,91.0935,-7.6025,147.0212,-58.2093,-0.6706,-146.2787,-115.1946,-22.3082,24.2191,-91.3241,32.9765,-229.6639,-122.3852,223.5848,124.2801,-13.1229
224.9259,478.4537,-15.0048,189.0591,-57.2541,172.0675,-113.4514,-58.6512,-272.6884,-194.2601,-59.1642,96.7280,-160.7140,12.1673,-270.8362,-212.3937,371.3999,166.9977,-83.6083
308.4386,578.3576,-12.8845,227.9198,-121.6340,183.4877,-168.5440,-47.2188,-338.1016,-278.2758,-153.7834,141.5597,-207.3246,11.9583,-356.1618,-291.4445,405.9261,207.7979,-108.6976
344.0206,593.5606,14.4680,247.4826,-128.1244,172.5656,-150.9183,25.5255,-420.7164,-299.4844,-207.2076,199.0008,-244.8465,-16.0115,-482.2833,-354.5697,403.0425,223.7390,-129.8457
371.9692,605.7303,65.5509,265.8947,-122.2646,125.0173,-135.0530,53.9808,-513.3210,-309.2975,-163.9198,253.7796,-302.0900,-94.8556,-571.3134,-386.9011,378.6363,201.1471,-177.3728
377.5622,565.7390,53.3829,239.2390,-161.6534,39.7539,-182.2228,-1.6877,-535.4510,-340.9103,-87.5287,243.7062,-355.3201,-171.0372,-567.8715,-404.1959,283.6328,143.7852,-220.7989
303.6008,425.1743,-13.1323,169.5033,-197.8503,-57.1035,-207.6859,-62.5959,-518.9165,-346.0308,-53.6840,166.9957,-355.1342,-200.7894,-491.0616,-432.3951,139.4395,63.3032,-235.2079
172.8924,245.8935,-54.9991,106.7811,-198.6784,-107.5335,-195.5629,-77.8538,-526.3201,-340.1521,-60.5332,66.8184,-301.0027,-202.6274,-414.2181,-453.5006,14.3843,5.4611,-238.4384
47.2010,121.3419,-50.6106,61.3835,-193.1539,-78.2480,-222.5935,-89.0303,-519.1304,-378.3474,-84.9011,-15.9331,-243.5237,-209.1863,-393.9605,-444.1750,-67.7585,6.2973,-236.8630
-72.9264,50.4976,-14.9056,15.4513,-167.3025,-34.8249,-249.8367,-125.5647,-463.8326,-421.2369,-125.9224,-50.7124,-211.7692,-237.1445,-405.3690,-401.0001,-128.4891,18.4582,-215.0059
-182.4434,-39.2050,15.5464,-32.8057,-116.8533,-61.3587,-220.8062,-156.1697,-399.7288,-413.9304,-168.8706,-49.7712,-183.1677,-277.5770,-389.8565,-324.2130,-182.8407,-13.1800,-189.3733
-235.3863,-127.4795,-7.0370,-83.8249,-94.9536,-132.0564,-200.1441,-155.0708,-347.8977,-373.7360,-199.0256,-49.7383,-144.5205,-283.2775,-344.6517,-249.5483,-214.9409,-66.9950,-182.2393
-242.1670,-121.3145,-58.5671,-138.5898,-81.6824,-183.6688,-200.1499,-133.0694,-306.4131,-317.7717,-224.4751,-51.8519,-122.9300,-235.3219,-302.1216,-225.5257,-227.1589,-114.1788,-162.3225
-260.5461,-75.9514,-89.8018,-181.8374,-20.0108,-222.2481,-153.1774,-108.1821,-296.1727,-258.6287,-219.4215,-53.6014,-126.8797,-209.5462,-275.4359,-234.6538,-267.2941,-150.2299,-100.6611
-292.5604,-128.9748,-122.3498,-199.5253,25.9881,-252.2500,-92.6531,-97.8834,-304.0337,-229.9636,-150.3192,-80.7640,-129.3819,-272.6808,-273.0615,-240.9929,-330.8208,-149.6513,-26.7994
-293.8336,-223.4918,-160.9647,-200.3705,-10.3302,-248.6745,-83.3604,-118.6813,-276.9413,-212.5197,-84.3246,-134.2652,-131.1690,-360.8843,-298.3212,-258.3423,-332.6541,-118.2421,34.4783
-240.9495,-216.5697,-169.7214,-206.5748,-60.9507,-240.8166,-91.5836,-151.1128,-216.3374,-169.2354,-109.4044,-189.5989,-160.2153,-375.7978,-318.8600,-281.5798,-259.3239,-112.7526,90.3394
-169.3796,-166.8740,-187.4274,-224.5753,-76.3950,-254.0140,-82.0193,-138.5133,-165.4702,-142.8307,-184.7891,-238.8772,-201.0193,-326.0725,-296.2354,-268.5494,-199.7322,-132.3638,127.5326
-174.1298,-215.4037,-240.4027,-229.7098,-92.4139,-226.6483,-57.1623,-65.4714,-118.7725,-150.5149,-233.4777,-270.2819,-203.6731,-274.3561,-239.3256,-223.0937,-187.9270,-127.9153,132.9109
-286.3440,-329.9561,-242.3457,-205.5515,-92.9263,-142.0464,-5.0740,7.7342,-46.3552,-113.9650,-252.3817,-273.5315,-163.1809,-237.6911,-195.8387,-177.6459,-188.9617,-110.9772,125.0033
-373.0496,-375.5590,-184.0466,-182.8086,-39.5692,-93.8378,51.4423,32.6655,29.6540,-28.3075,-222.4918,-271.2834,-121.9278,-211.8803,-193.9665,-141.5875,-201.8223,-113.3918,96.4342
-320.0060,-314.2495,-173.7527,-187.2384,16.4890,-107.9089,68.6623,28.2266,56.5729,6.4216,-126.2251,-269.5704,-99.9766,-202.5181,-199.0756,-133.3255,-224.0434,-116.5224,24.1098
-212.1776,-240.7479,-195.9744,-186.6590,19.7247,-97.5847,56.8630,16.4158,33.0122,-24.1466,-61.6798,-245.6014,-86.8588,-198.2533,-157.4225,-156.4935,-215.9281,-103.5100,-49.8913
-162.6539,-248.7905,-154.7107,-151.4316,0.7504,-42.4346,21.8670,-5.1045,24.5494,-44.2889,-86.9349,-218.5936,-87.3387,-181.4635,-87.1101,-158.6967,-182.1375,-80.9912,-76.8511
-142.7257,-296.7856,-100.5361,-112.2858,6.6985,-8.7339,-45.2466,-12.2881,64.8574,-43.4588,-80.3055,-218.5854,-100.3037,-152.8790,-51.4901,-121.1874,-165.6671,-52.9026,-88.7314
-108.6150,-303.9168,-114.0467,-106.7616,35.8169,-2.4582,-91.2734,21.8084,93.3087,-58.1453,7.3784,-220.0771,-82.5677,-109.3997,-46.1306,-91.9686,-171.9517,-38.8252,-108.9383
-91.1553,-311.5042,-137.8495,-121.4228,56.9437,28.5874,-87.1801,64.3404,77.3461,-77.3197,23.2284,-206.7136,-20.9705,-47.6080,-18.0309,-78.7193,-192.9745,-46.1387,-91.4548
-110.2484,-350.5178,-112.1857,-112.0905,58.3146,84.2541,-85.5739,64.8928,83.9634,-83.0822,-75.1031,-200.6671,21.9138,4.7540,29.3057,-60.8091,-217.9443,-31.7171,-36.3972
-141.4777,-315.7086,-62.6291,-52.1196,66.1562,119.0519,-86.5339,19.9525,110.4241,-99.8371,-109.4199,-192.5718,18.1317,21.1755,60.9737,-71.1615,-202.2692,19.2545,-21.8196
-128.8029,-190.7448,-16.3322,31.4852,91.2166,121.2062,-56.2318,-43.1495,59.9146,-134.0314,-9.5164,-169.3676,22.9372,15.7239,91.2650,-104.8221,-152.4123,54.1245,-72.0792
-31.3918,-131.1585,-0.7641,72.9672,102.7105,115.4371,-41.4351,-91.6015,-9.1206,-141.4674,71.3531,-160.9124,58.3733,5.9127,146.0888,-72.1135,-155.2118,42.8458,-125.5443
53.0143,-173.0157,-37.7428,46.1347,90.8479,106.7617,-57.4633,-110.6929,60.1921,-112.5151,38.2085,-157.4899,87.8684,-11.3862,199.1707,22.8976,-198.3722,2.3678,-144.1779
-4.4146,-166.6972,-73.0684,-6.3447,67.5748,72.3425,-48.6026,-139.1694,178.9548,-114.1251,-7.9733,-101.2860,100.7781,-27.5735,209.4239,47.2539,-146.7735,-49.4527,-155.5758
-78.9311,-45.3773,-54.0384,-42.4357,17.5710,16.2302,-46.4338,-212.5124,134.3121,-173.0867,34.0024,-6.5099,92.3908,-26.6624,182.4792,-26.4538,5.3906,-83.4209,-186.2832
19.5094,95.1557,-27.2220,-57.6376,-44.4158,-22.7754,-95.5396,-278.0358,-13.9733,-214.6769,107.2112,50.9260,50.6285,-13.4014,156.3500,-66.1239,100.5720,-77.6253,-218.6641
144.4921,155.0525,-37.9634,-55.7655,-52.9961,-40.5057,-112.4354,-275.7325,-77.4861,-201.7208,114.3260,56.4833,32.6826,8.8056,145.9136,-12.8633,83.3593,-66.5425,-227.9240
86.1040,132.4368,-61.2119,-56.2428,-13.5773,-72.0952,-62.7133,-248.1391,-90.0442,-196.6110,85.3495,60.9929,87.2753,49.1275,136.1801,41.7776,47.7204,-86.8944,-217.8089
-10.5061,90.1549,-86.9637,-95.3187,-8.6428,-108.6840,-39.7699,-252.4052,-152.7144,-218.7458,98.4717,87.5400,126.6731,94.4903,123.3791,40.5199,32.2359,-120.5052,-187.4797
9.7800,51.3368,-128.0363,-158.2368,-54.2154,-101.5415,-56.0006,-258.2773,-200.3309,-211.8259,123.3737,95.9180,73.0097,118.8766,113.6008,36.6109,4.4010,-142.5326,-119.4769
3.8030,-2.3017,-154.9353,-181.0049,-87.4089,-57.0900,-50.5239,-229.9814,-179.6104,-171.7985,106.3237,54.2228,4.1532,125.5463,87.7024,64.5681,-9.9721,-150.3968,-46.9793
-67.8263,-28.1138,-133.8085,-153.7761,-78.4151,-37.9943,-49.6922,-199.2835,-174.3898,-144.1294,88.3360,20.3404,-4.0203,123.2809,27.6488,85.6528,21.9595,-145.8994,-42.3907
-35.3663,-0.4613,-84.9119,-124.2856,-62.8735,-72.4220,-82.3186,-195.0939,-218.7382,-135.8512,86.4289,56.6258,19.0114,93.2193,-43.5073,75.0116,43.0870,-140.1040,-89.4694
41.4324,-20.0243,-52.4242,-104.2894,-77.0925,-119.6031,-100.0553,-187.6753,-229.3298,-133.1816,40.2564,88.6810,54.7909,40.5159,-94.3020,52.1125,-5.5967,-133.5069,-80.1562
-28.5253,-121.4124,-52.3179,-82.1988,-86.0222,-115.1446,-75.7213,-128.2458,-169.2690,-121.2242,-31.8800,24.1620,99.3558,22.5638,-112.4016,31.9589,-93.1631,-101.5382,32.2702
-148.5352,-181.0185,-58.5080,-78.4556,-23.4109,-45.1044,-12.5364,-10.4671,-106.7995,-71.8263,-50.1750,-58.4627,93.6150,51.7482,-91.5717,19.9152,-159.4724,-52.1639,182.6842
-157.3923,-163.9825,-42.4365,-91.1613,72.9007,16.4598,77.0620,102.0073,-92.7436,7.7896,-41.3486,-58.1697,18.8777,42.2488,-47.6937,24.2296,-181.1040,-31.5519,285.0351
-140.8814,-144.8963,-21.1704,-77.4092,95.5454,-7.1770,126.3406,133.2787,-81.8051,77.5634,-66.7124,-46.1148,-48.0554,-51.6579,-5.8927,36.1092,-172.9308,-45.9607,301.1650
-183.0548,-122.9831,-22.5705,-45.8843,48.6617,-76.8314,108.4329,95.8696,-16.2675,132.5166,-83.0839,-102.7709,-52.6539,-131.9071,54.3567,40.9426,-176.6718,-61.0870,258.6744
-221.4217,-122.8852,-33.5061,-42.6350,8.4059,-90.8145,105.4652,66.4248,73.7127,167.1187,-49.3960,-160.5010,-20.5764,-108.3713,140.9113,45.8988,-202.5175,-57.8084,217.3765
-223.7935,-212.9743,-37.6002,-40.9017,-30.9420,-30.1665,137.4820,63.8493,125.2661,145.1920,-22.4965,-159.1858,-4.0244,-46.1241,175.3207,53.8307,-190.7771,-30.5016,186.2503
-172.3968,-275.7964,-37.8194,9.8703,-80.4074,41.8517,127.8243,52.4259,137.8757,94.6927,-48.3399,-140.1993,-26.2638,-30.7473,126.8860,50.8483,-116.9319,11.6212,130.3090
-50.1189,-175.9632,-19.4747,66.7486,-79.9386,70.1892,93.5073,39.4342,143.7657,96.1310,-89.6392,-118.6438,-45.0239,-24.0991,107.1838,48.7073,-62.2098,29.1310,66.6638
17.9443,-49.9976,17.5471,57.5425,-27.8448,32.0896,106.0275,52.5896,164.0590,143.9631,-91.2852,-59.9424,-14.1788,18.3354,171.2881,74.9450,-77.4202,-1.7693,47.1167
-58.8886,-29.3345,28.4029,-3.4165,5.0934,-46.7209,125.0858,61.9955,207.4120,165.2226,-51.0012,16.7884,16.3457,49.4383,204.9166,108.8743,-93.7592,-50.5232,67.0305
-126.6216,-23.9900,12.6080,-45.8826,6.2666,-80.5568,96.5946,34.7573,224.9569,140.4982,-18.0057,56.6414,-7.0043,46.9321,140.2034,99.5976,-54.3910,-66.0148,88.5528
-88.6067,1.2807,31.9631,-25.4457,4.6061,-21.1769,64.4153,12.2994,154.9987,98.6646,-11.0968,56.0955,-20.3963,56.7320,66.1076,53.4887,-4.1394,-27.3435,97.1987
-84.6166,-8.0553,84.3247,39.4483,9.2320,71.0193,59.5007,35.4809,67.7880,59.7952,15.6819,50.6870,25.9315,82.3513,52.3453,33.0960,-0.7481,27.1005,87.7311
-142.9265,-6.8971,98.0463,76.0793,33.0000,128.7727,52.5255,57.9679,74.5056,31.8486,62.0546,59.3550,58.4419,88.6557,73.0027,55.0095,-36.7086,38.6609,65.9886
-104.5729,17.5529,64.5689,47.4158,61.4918,151.8252,34.9117,23.0589,114.4958,18.9133,58.4861,85.6840,21.2455,85.1756,97.0331,67.0434,-52.9785,19.8249,50.4727
39.6014,11.7637,45.5183,16.5468,52.9684,137.3944,15.0861,-43.0656,78.3561,30.2690,18.3174,134.6685,-45.9242,88.5693,92.3963,59.6982,-0.2247,29.6894,29.0643
149.1698,43.5048,67.8590,42.1588,34.7880,76.9592,-14.3541,-90.9409,20.2807,65.3796,24.0261,190.4767,-98.3522,85.7402,32.7893,91.2083,82.4029,58.6364,-14.7612
175.8888,142.9570,95.7371,80.6320,53.6684,19.2554,-45.1825,-123.1446,24.7373,87.3974,57.4242,213.4903,-110.3438,83.9638,-9.9362,150.8219,101.3312,55.6308,-47.1050
138.5511,167.9866,82.4999,74.2284,63.4666,-0.2230,-56.0800,-148.1606,57.6364,79.4990,57.3857,194.5083,-66.4391,92.1838,53.3376,152.2448,56.7284,27.4431,-47.4736
53.0737,99.1694,34.1026,41.2875,24.2310,-21.6933,-50.4838,-137.6719,75.7500,83.6508,59.4395,159.5712,0.5694,81.5816,145.2815,106.7496,32.9728,7.9021,-48.3715
-10.2621,50.1989,16.3629,25.7850,-12.3727,-50.2726,-48.4445,-72.8800,80.6051,105.7807,92.4398,106.6469,47.3467,49.8258,136.8622,107.1358,33.6909,9.1718,-47.6731
6.4037,-19.6729,52.8862,32.1725,-15.1109,-33.7292,-54.2361,21.4436,73.9434,100.3178,96.7111,31.9513,68.6915,21.8485,85.0980,146.2151,-3.3951,30.0304,-12.4998
47.2574,-136.5086,68.0943,20.8113,-11.5033,-17.2372,-48.7212,89.9588,94.9340,91.8792,54.7578,-2.0615,57.7424,-38.0828,118.1858,159.8180,-55.8135,26.0934,24.9079
29.4001,-132.1319,13.0990,-44.2911,-12.4964,-112.5026,-17.0233,74.6192,170.0313,141.5414,23.4859,47.8855,17.5097,-153.1342,196.4107,161.2640,-54.2924,-50.3436,18.6085
-34.7819,18.2597,-48.9489,-120.7039,-14.4006,-277.2105,26.1591,-22.2887,208.3688,207.5767,20.1598,118.4633,-3.0344,-220.8293,211.3517,160.5616,-13.5466,-133.3407,-5.2251
-52.3388,109.0816,-54.9672,-121.4141,-14.4793,-341.7224,57.1984,-119.0593,139.2217,205.7369,20.8665,146.1389,13.3469,-160.6572,180.6445,120.5552,12.5762,-123.0313,-20.2104
20.2711,74.7396,-13.8031,-45.4229,-8.1467,-256.9418,59.7941,-158.1133,57.1823,143.6430,20.5073,140.7903,25.5574,-63.1965,164.5105,74.6424,31.3828,-52.1968,-41.4365
83.7519,25.5572,56.8070,33.9917,-18.8439,-127.3227,23.5835,-157.9425,60.0117,87.6985,20.5781,107.3028,29.3376,-27.1100,137.3811,72.9974,70.3266,0.9413,-50.8119
37.3853,-5.0690,129.2759,87.5442,-49.3452,-30.7461,-12.8901,-125.4224,105.7750,69.2510,25.2178,47.9408,50.2722,-16.6078,69.5498,60.8762,103.0893,45.5826,-15.7779
-33.3125,-57.2616,135.0296,117.1352,-45.0307,36.7994,15.9117,-48.0792,123.8322,64.7222,46.5560,8.6132,68.0452,6.0261,14.9979,16.3214,86.8959,87.1279,32.0458
-1.3512,-122.8976,55.8060,107.6684,-20.2598,79.9736,70.0683,27.1488,103.7579,47.0721,73.2869,-4.5004,55.9315,17.3701,34.9336,34.1575,41.6575,81.5362,45.4859
81.3323,-138.9524,-19.7843,78.3949,-50.2715,93.5952,48.6111,54.9163,61.3333,45.6922,80.3754,-34.8645,28.2565,51.1645,94.7434,125.2358,34.4331,48.2121,32.3160
104.8226,-63.6737,-6.6423,73.8064,-76.5259,105.6265,-6.1984,65.0480,19.1033,84.0105,62.8816,-54.0513,13.4433,154.2136,97.7356,172.7231,80.6101,54.5153,19.7856
67.9990,25.8231,83.1900,92.6058,4.9149,140.5987,15.8439,64.0902,-6.8632,94.0937,22.8190,-11.5465,36.8548,244.3226,29.3381,142.9420,118.1307,92.8504,17.7323
10.4154,28.3939,175.0059,110.8676,112.6902,159.1199,66.0778,14.1730,-17.3987,44.5101,-20.9095,36.9613,85.8869,221.8141,-14.9600,112.6084,103.7397,99.0600,29.7625
-31.4338,11.3134,202.6974,106.7066,127.0843,108.9041,51.5181,-39.0952,-12.6735,38.3101,-13.9892,30.3574,98.1254,135.5767,-9.2490,122.1272,71.2808,52.6019,54.9716
-10.6778,63.5725,166.9715,48.1897,92.4060,18.7725,29.1720,-20.1985,-7.7962,109.8343,54.3856,10.2846,66.1032,76.4612,-48.6498,152.7899,66.5967,-6.3393,85.7044
54.3827,88.9935,131.9740,-34.9946,66.5017,-31.9776,55.0817,24.7403,-26.5197,137.1459,102.6383,13.5407,54.8061,56.0237,-122.6433,170.6006,82.9834,-31.8785,104.6385
102.8936,23.2311,130.2560,-49.8012,22.3900,-14.4446,60.1332,26.3461,-30.7879,87.1564,76.3392,22.4358,59.5699,82.8360,-83.6097,149.2810,85.3817,-22.8555,83.0840
131.7475,-15.2244,130.7712,5.7907,-20.5396,45.9809,22.6315,19.3471,39.8674,68.1546,37.2601,47.3298,29.8553,164.8024,61.2451,113.3285,64.1732,-5.6861,20.5954
124.8864,20.5961,131.3555,46.4385,-5.6707,122.2842,20.3329,27.8162,147.2186,96.3588,51.6521,91.6494,18.9675,225.3307,134.2758,105.3484,41.2767,19.2202,-36.9716
30.3594,29.0138,165.7883,62.4998,57.0209,189.1382,63.3773,18.6880,204.3136,97.0480,82.1091,89.2190,92.9246,209.3943,103.3523,104.2442,23.4981,63.4769,-63.2130
-76.8148,-25.5782,207.6763,92.3000,128.4279,228.7799,85.8506,26.8706,201.9171,92.2756,77.2112,12.3884,181.0424,186.4334,89.7445,75.2430,-8.1583,107.2994,-76.1457
-53.3670,-74.6418,202.6051,114.5407,176.4695,250.6511,71.3719,95.0543,175.4151,140.1860,78.0438,-51.6284,197.4552,201.2124,107.9524,45.1094,-33.8935,120.3756,-83.1785
66.1269,-49.8337,166.7077,108.6744,168.4490,257.4134,47.4484,131.4275,134.0122,171.1014,130.3482,-29.7404,173.8738,201.4089,90.8404,44.6834,-2.3090,96.5482,-88.5559
134.6416,47.1258,134.7343,90.1270,125.2911,233.6674,27.0440,60.9220,88.1902,85.6805,177.8493,22.4362,173.3521,187.4849,65.4855,65.7321,53.9570,60.8657,-117.8922
120.1877,104.4683,88.6899,56.0659,107.9390,198.4249,23.4538,-10.1373,67.5596,-36.6599,156.2533,14.7494,204.9380,207.7972,96.9892,96.7332,39.0723,55.4498,-149.3573
69.1191,47.5737,23.8817,20.0425,122.6582,179.2575,52.8762,12.0772,94.3694,-16.9481,93.3057,-28.1945,241.7615,225.5315,175.1738,125.3133,-35.0805,74.9346,-124.4444
-8.5140,-10.7867,-17.6538,17.4977,135.1420,149.6070,100.5921,35.9737,162.3170,120.1207,29.0339,-9.0632,251.7496,202.5875,237.8082,146.9043,-60.9146,57.5286,-82.4463
-89.3819,21.4985,-16.0761,27.1767,135.2778,101.7092,125.6832,-23.6560,218.0150,154.6689,-29.1274,74.7791,239.3812,196.2818,221.3241,185.6131,-18.4560,7.9925,-117.4743
-107.3593,58.3022,20.3758,26.9226,129.7635,97.3667,102.5653,-88.0991,195.7226,46.4377,-47.2732,136.7105,242.3087,228.5203,122.4927,226.2457,23.9651,11.6570,-191.6073
-45.1041,52.4519,92.1117,58.2965,129.9436,143.0762,46.5725,-82.3344,102.4761,-18.1554,-19.3463,155.6996,254.4239,246.5969,33.3144,198.8716,51.2653,74.8102,-189.9045
16.3814,58.7838,171.5785,110.4355,138.1392,160.3990,-3.0816,-58.1906,16.1816,4.4776,-17.6204,163.4952,232.3892,255.1343,20.7574,118.0797,89.7907,118.3685,-117.6938
-0.8937,59.3568,199.3013,110.1471,128.0219,139.4562,-22.8983,-51.9123,-7.9416,0.9868,-55.2658,130.4323,179.5711,280.6924,26.0724,91.6018,117.7506,122.8449,-49.3670
-45.7243,14.2471,169.1712,74.8338,92.7602,137.9213,-18.3238,-7.4493,13.5188,2.7122,-54.9443,42.3221,130.6652,268.8777,-12.6089,132.8463,99.0523,118.9592,17.8827
-20.4653,-43.0428,135.4909,73.4684,65.7462,139.3713,-5.0832,84.2501,28.1976,83.0485,-13.7450,-12.0063,94.1477,191.8689,-51.6966,152.0625,48.2785,111.6843,94.5987
39.2453,-86.5160,120.2526,94.0453,55.1021,104.4525,8.8068,139.4275,19.6400,143.0578,10.5898,13.4456,67.4818,127.3099,-43.1047,137.8313,8.9779,109.9851,128.0397
50.3402,-86.6405,102.1783,103.9772,52.2162,82.2304,28.1388,129.9682,19.3771,125.7268,29.2192,40.9221,49.8035,126.4132,-22.5274,141.1929,6.6078,121.7792,117.7897
62.4926,-11.8679,91.7926,111.7816,75.8711,110.3690,58.4486,128.9944,23.4546,128.0554,48.2909,36.4618,38.1417,151.4849,-40.8229,125.3161,32.3302,122.6074,137.5618
129.7502,57.5039,124.4797,114.3038,111.9611,131.2829,88.5536,171.5793,-13.5024,149.6371,21.9346,67.4362,45.0149,166.7677,-90.2774,42.5512,57.9439,109.1269,187.8168
168.3060,54.2953,174.7832,104.9612,106.2319,105.4647,100.1062,204.0525,-60.9622,108.8729,-16.6411,133.5675,72.9862,162.0702,-125.0636,-22.4687,68.3098,94.5758,201.8404
125.0433,54.5153,165.1503,87.6670,59.1701,67.3794,88.4538,205.3584,-41.9414,73.3300,14.4329,132.2350,91.6570,114.7667,-119.3330,6.1110,68.3127,59.2865,194.8891
60.0262,63.7480,87.3699,46.7859,13.7369,39.6761,63.7292,241.8466,12.1179,135.1483,96.9694,35.9434,94.3848,21.1594,-87.8807,36.7251,64.1536,19.1938,233.6476
-1.8977,11.7385,31.4529,-0.0977,-11.6810,14.1006,48.9612,352.2717,22.9699,225.1387,161.4658,-45.8436,101.8122,-62.3995,-51.7954,-9.1989,57.9781,28.8328,300.4951
-62.1873,-7.8830,46.1930,-0.4688,-9.3472,-0.1320,68.9858,464.7133,25.3652,261.5549,167.6291,-25.0552,94.9154,-63.6952,-12.7478,-41.3606,41.3824,55.6297,336.3902
-67.7370,55.5530,63.1955,19.6243,6.7455,15.3686,119.9548,490.4758,86.2945,268.6533,90.3319,45.4804,56.1286,15.6347,26.6377,-4.2991,-4.2327,37.8826,342.9251
-16.0501,21.0466,22.4590,6.4386,-2.2696,59.5744,173.1682,439.0557,170.6516,277.7750,-14.5241,61.4897,32.0729,87.3535,58.0236,12.3232,-62.7475,21.1675,331.0447
21.3056,-123.7660,-29.0744,-0.2819,-22.1579,103.8769,205.9655,375.1331,209.6433,283.0176,-29.1746,6.7346,54.8065,85.9754,92.5814,-3.8843,-75.5457,49.0216,269.9103
27.5529,-147.6298,-32.1387,28.5911,-16.7848,103.7824,197.2779,322.7816,191.8311,275.2034,34.6091,-53.5839,95.4199,44.9539,146.1715,36.2220,-27.7539,72.3086,164.3715
25.7837,-48.8981,-6.6431,45.5049,-14.6741,61.5466,139.4594,276.1922,142.3743,241.1366,75.1128,-63.3349,141.2029,24.6792,192.4378,88.1097,21.4820,81.1692,82.3621
17.9571,4.8359,6.6419,55.7025,-14.4358,50.1224,85.0399,238.6298,89.0196,172.0135,99.8170,-20.8010,200.3117,40.9769,177.2080,50.8502,32.0741,117.1665,64.5424
26.9793,49.7551,8.5318,94.2448,54.5691,107.0790,100.3819,205.7110,49.3734,86.0058,129.0599,18.6288,245.5553,86.2262,102.8314,0.0504,28.3512,154.7719,83.8760
61.8123,136.3664,15.8221,122.7270,166.2436,169.7449,159.5678,168.8442,34.2482,32.1421,85.3986,4.2390,251.7317,134.4749,44.9475,34.3733,41.5684,156.0917,92.1246
88.9110,169.4930,36.6808,131.8660,212.6902,176.1898,175.3606,127.0338,43.1841,45.4733,-16.5014,-8.5598,234.6338,146.8490,36.1510,76.3242,82.2580,147.0341,56.7463
125.4274,175.0313,72.6830,170.2821,193.2958,143.5956,123.5050,57.1981,26.6323,62.6844,-52.4804,75.9608,214.7925,131.0153,19.2564,49.5607,149.2843,147.0005,-17.5188
178.7809,248.3819,108.7204,210.3828,174.6345,115.2039,58.0401,-51.3228,-56.8663,-9.7701,-25.1053,204.8652,205.1673,125.1066,-17.8609,10.9275,210.7036,151.3598,-85.7469
146.4828,307.9972,123.8270,212.0393,166.3549,111.1880,24.9631,-131.0455,-125.8568,-108.4783,-17.7854,233.3412,210.2240,118.9235,-10.6736,2.6393,221.6213,165.3738,-116.8005
31.1343,280.1226,126.4874,223.1899,165.3115,129.1461,12.4988,-126.0935,-95.4146,-107.9687,-13.9978,163.7883,199.8044,87.8894,25.0600,-0.9400,190.9479,174.0913,-129.6342
31.5686,246.2275,140.4985,246.9029,166.1439,144.8601,-14.0741,-91.9583,-53.5516,-65.5269,9.3501,119.4765,146.9425,55.0680,15.1587,-8.1837,171.9238,166.1075,-146.5414
181.4039,242.8845,154.9459,224.7778,134.4227,137.6762,-50.3815,-88.7321,-87.0038,-90.3229,22.4618,132.3764,85.3480,44.8040,-6.2726,-11.1556,179.5155,166.3314,-159.1140
246.6243,239.2590,137.1372,186.8011,90.0069,114.7218,-61.9936,-99.4622,-103.4686,-122.0973,55.3917,152.0947,61.7940,55.2037,15.8536,0.0129,176.9762,162.4517,-158.7245
127.2397,248.6573,95.9237,180.7053,88.9433,83.3886,-50.7281,-120.6117,-45.8930,-98.4271,122.4941,171.2431,71.5411,83.0137,28.4827,40.7320,142.4647,123.9906,-148.4300
-16.5193,248.0624,80.7641,171.0249,102.3994,42.3989,-49.7849,-163.0546,-18.4360,-84.9277,133.1576,189.9007,81.6446,94.4105,14.9990,78.2541,101.1715,102.8412,-125.6053
-53.2624,189.7232,106.8689,154.8750,83.9686,7.3975,-65.3306,-178.3511,-66.3490,-98.1373,83.9435,165.0926,68.7946,39.6459,28.5083,55.6230,89.0587,138.0846,-89.4882
7.6468,127.9099,124.8343,159.1210,58.3276,-11.6468,-82.5001,-142.7354,-115.6904,-90.1126,97.4314,92.5844,28.0110,-51.0303,20.3428,-5.9109,110.7574,154.1739,-44.5612
101.7446,123.2026,84.5538,127.8098,23.0879,-33.5311,-94.1255,-109.5673,-135.3101,-82.3144,157.8980,37.6831,-25.6067,-94.6351,-56.0207,-35.3201,140.3645,100.0388,14.9164
142.2008,128.6180,0.1947,30.8654,-56.1822,-66.5457,-94.8017,-89.8004,-131.9217,-79.9349,126.7933,28.7039,-76.9489,-76.0795,-84.0997,-6.3035,153.9691,21.4909,86.1088
95.9544,94.1904,-69.3083,-55.0953,-134.1478,-96.5014,-89.4493,-45.5116,-87.4908,-22.7517,27.7009,10.9803,-125.0738,-37.1000,-15.0382,53.9040,150.0635,-50.1228,132.1606
43.8964,43.9565,-85.2575,-88.8361,-151.7279,-115.0128,-90.8576,4.5980,-20.6840,65.9141,-1.8964,-36.8505,-164.9936,-1.6093,14.2028,81.8688,142.3241,-99.5225,117.6113
63.8754,33.4674,-51.3399,-87.7572,-137.1000,-111.7327,-93.2424,25.1501,13.1506,98.5050,35.0943,-33.1919,-189.3931,13.8050,-42.3865,33.8210,146.1586,-86.4971,54.4784
133.9027,89.4739,15.0551,-43.2710,-128.6672,-81.2948,-97.4033,17.9241,-14.6532,65.2925,44.3721,62.2114,-200.5031,-7.1778,-95.6228,-34.4546,162.8599,-27.9530,-13.3889
186.2201,146.5496,96.5487,22.7714,-118.8348,-52.2899,-114.7515,-20.0898,-95.7992,3.7289,15.5966,135.8322,-193.1196,-42.2930,-125.6280,-45.3872,164.3011,13.6511,-52.5100
164.2793,114.4365,161.5608,53.3072,-102.1936,-41.8019,-107.5619,-60.8918,-163.5982,-49.8582,-13.2999,90.4569,-166.5024,-48.0323,-123.5232,-22.8614,119.8187,35.2561,-57.0166
70.2883,37.1030,178.6771,54.1605,-88.6471,-24.8886,-47.7337,-48.0618,-140.1056,-51.6278,-28.4677,4.6381,-146.3370,-20.2005,-52.6406,-22.0864,56.2926,51.8231,-46.7238
4.6167,26.6751,150.6488,53.4418,-88.8102,-6.2739,-14.5471,-25.5490,-73.9734,-26.6312,-11.8673,-16.2376,-138.0467,1.7866,-18.4305,-48.6921,50.3465,49.0185,-53.2325
59.4248,93.0883,103.9233,52.1378,-98.6127,-17.9192,-65.5642,-57.7273,-80.4846,-54.5539,42.2473,12.9429,-114.0955,-7.7439,-125.7266,-102.5055,130.3680,49.5786,-93.0188
180.6633,193.9803,60.5497,75.1742,-88.1417,-33.1032,-121.5290,-52.5951,-151.9512,-124.5548,102.1648,51.4865,-87.0672,-31.7029,-231.6274,-159.5217,227.1049,75.8628,-150.5206
237.8729,301.2671,39.4266,112.5543,-57.3560,-19.8198,-128.4140,53.8119,-204.4276,-172.1533,155.2727,83.1684,-94.4531,-56.7821,-204.7778,-164.3078,257.0050,74.9940,-192.7932
185.4855,336.4523,38.8002,85.3015,-55.3732,-23.6559,-132.2941,119.1896,-210.0776,-198.9824,197.7561,58.4243,-116.7727,-95.3703,-163.6357,-139.4195,214.0684,15.8811,-200.5272
84.5648,237.7272,13.4977,-1.8146,-91.2846,-70.1193,-128.9739,64.1891,-165.3194,-205.4188,174.8234,-29.7568,-122.9544,-131.7511,-187.8836,-151.8214,141.0402,-52.9101,-182.6066
13.6467,82.5095,-64.1516,-64.6017,-134.5321,-104.1152,-86.5811,12.0321,-85.4703,-160.5089,78.2932,-92.4832,-131.3135,-135.2348,-178.5586,-176.0516,60.9698,-104.2625,-163.4475
-2.2820,-13.3751,-145.4705,-106.0215,-190.9779,-101.4584,-63.7965,10.9988,-37.3363,-102.9893,16.5011,-100.6137,-149.0145,-128.7558,-117.7996,-167.5945,-7.9769,-146.1153,-157.3170
11.6471,-41.2729,-175.7026,-150.5911,-251.9916,-90.1699,-89.6958,-10.7423,-44.6101,-88.7303,26.7705,-127.6094,-165.0430,-131.1385,-85.4337,-149.9039,-29.1184,-160.5599,-152.2147
26.0774,-64.4081,-161.6843,-145.5117,-267.2797,-67.2018,-91.0022,-25.2025,-64.5961,-88.1070,3.5389,-174.5940,-198.7033,-102.4275,-69.1068,-120.8013,-8.7187,-144.7933,-130.8707
18.9434,-113.5853,-121.3441,-94.7336,-240.2586,-31.8430,-58.3225,8.7667,-93.7164,-78.6008,-54.2190,-167.2589,-225.6172,-49.2302,-41.2646,-66.3172,-13.2517,-127.1339,-113.2114
-17.7132,-149.6275,-60.1249,-70.9374,-206.6917,-22.7980,-59.8326,-5.2580,-133.9835,-101.3664,-15.0588,-127.8888,-165.7751,-29.3147,-53.8516,-39.9036,-59.0676,-106.5435,-136.9421
-41.9517,-133.5797,-14.3855,-65.7533,-162.1077,-43.9125,-83.4387,-110.8672,-128.0544,-156.1183,81.4974,-142.4886,-50.9634,-19.1989,-103.9935,-52.5091,-79.7299,-79.1469,-179.3138
-23.9951,-109.1476,-18.5946,-50.8193,-126.8695,-71.0963,-67.5947,-195.9546,-60.0369,-192.8388,51.6658,-197.3280,-5.5015,16.4602,-111.1763,-46.9302,-59.9450,-80.3023,-167.1326
-48.3067,-126.7458,-52.6792,-75.3235,-137.2671,-122.1064,-11.9343,-204.9538,12.3094,-198.2388,-84.8190,-210.1768,-23.2523,15.6463,-63.8142,-42.0986,-73.3314,-124.2603,-88.1875
-183.9969,-152.5949,-90.9766,-154.4420,-158.1266,-200.0711,51.3126,-208.1913,53.7706,-183.9613,-142.4678,-168.6534,-7.8294,-26.4300,-16.2417,-70.6885,-138.9139,-180.8872,-11.5446
-304.3964,-156.9262,-132.4739,-228.9142,-168.5828,-252.1708,92.1577,-237.9422,58.2465,-150.0795,-93.6093,-131.5163,24.4419,-12.4972,20.2854,-74.6406,-179.9884,-224.8057,11.0319
-263.3012,-153.6536,-154.4268,-258.9674,-205.3393,-260.3255,87.9607,-244.6585,36.0005,-103.1144,-48.8905,-136.1009,20.1667,44.5422,60.8092,-54.8488,-153.5499,-241.7346,-18.0593
-138.0429,-118.9118,-132.7538,-234.9196,-234.4945,-254.1884,55.8756,-203.2143,31.0115,-64.4876,-35.3250,-163.1745,24.1286,55.9672,82.1522,-83.4881,-100.7163,-231.9498,-83.5289
-73.5522,-55.3832,-96.4864,-179.9783,-209.5188,-233.8310,19.1324,-167.8431,45.5968,-79.4204,-12.5762,-175.8766,64.7109,54.9905,65.5471,-114.0143,-73.6427,-223.1534,-163.6462
-74.2934,-50.6597,-74.6270,-155.2736,-194.9998,-197.9004,-25.7810,-209.4765,43.4806,-185.1721,14.2733,-167.3227,91.9244,84.9214,54.6298,-79.5121,-86.1957,-214.7741,-228.1008
-117.2433,-112.1089,-38.5733,-151.8557,-214.0641,-181.6003,-49.7994,-306.9024,64.1161,-305.5756,12.9214,-159.4520,96.3492,90.9165,85.5179,-60.7702,-102.1621,-165.6095,-262.5703
-203.2597,-137.0269,37.0773,-96.0451,-190.5255,-181.8461,-25.6096,-362.1536,119.0847,-311.7414,-22.2233,-153.0586,102.6424,90.7506,98.6616,-107.9955,-65.9652,-85.8528,-264.3141
-221.1731,-107.7651,119.9387,-12.2793,-141.0191,-148.6457,-15.9429,-346.3945,78.6337,-255.8478,-53.0241,-112.0226,90.0201,159.3814,21.0727,-145.0059,4.6551,-32.5916,-233.3820
-82.6413,-89.7142,171.0639,21.9157,-125.8701,-86.3268,-61.9390,-315.7292,-81.7346,-296.6440,-29.9158,-33.9975,61.3857,241.1784,-105.9928,-152.1862,24.3381,-10.9702,-190.4771
50.3438,-90.7144,201.4372,28.8145,-92.1013,-49.8736,-88.2708,-284.9178,-180.2834,-369.8803,21.1717,11.1145,65.9516,270.1892,-182.9022,-157.8816,-13.8441,2.7303,-157.5661
11.9102,-82.6554,241.5171,47.9668,-25.9612,-39.1050,-61.7586,-236.5446,-168.8990,-303.2423,12.5481,-12.8523,91.5735,313.0601,-177.2944,-126.3022,-21.2277,-0.0748,-131.7637
-71.9619,-47.8450,278.5659,54.4202,-18.3007,1.2076,-57.3483,-210.7593,-199.5600,-208.3673,-57.8654,-30.8404,94.1809,383.1235,-126.6662,-73.9123,29.9026,-9.9629,-117.4096
-60.1080,10.8546,273.9109,57.0742,-52.8702,77.1942,-91.0254,-241.2550,-287.7007,-289.0357,-98.6907,14.1135,106.1537,382.5975,-87.4212,-79.7353,73.4604,4.2293,-125.7832
-61.8383,28.2413,238.9928,81.6023,-31.6900,124.3118,-95.9005,-280.0509,-312.8853,-405.9445,-90.9799,56.5528,162.2129,318.5850,-96.2103,-103.1575,70.5936,15.9862,-132.3331
-137.7041,-22.8737,215.2153,77.2002,27.2763,106.5216,-63.2223,-282.9956,-284.0670,-340.5336,-101.7792,42.6379,205.9725,297.1603,-132.5026,-62.6659,48.2162,-20.3638,-114.7499
-128.4757,-40.7709,184.1187,9.2548,48.9046,66.0243,-45.4962,-275.3635,-273.9876,-225.5328,-128.1350,24.8424,182.6071,326.3213,-156.7738,-10.9328,44.8887,-79.2875,-96.4504
-1.5950,3.6027,111.6218,-63.8948,9.5021,38.9545,-70.1487,-287.9294,-254.9457,-245.5851,-97.8159,35.3968,120.1615,336.9166,-170.0309,5.7599,74.7416,-114.0899,-90.7588
54.4543,-2.0817,48.7193,-96.9973,-80.0344,2.2549,-124.0006,-310.7841,-196.7386,-289.4695,-21.2899,31.7057,65.2564,312.8417,-167.5833,53.5701,107.2656,-127.7671,-86.4547
-8.2359,-49.8373,51.0739,-111.5062,-147.7869,-52.5838,-167.5010,-317.4500,-139.1228,-233.2215,12.6368,1.9745,29.5844,281.9891,-122.2056,131.7570,92.5273,-137.6655,-92.2463
-53.0416,-37.2574,69.5269,-131.5152,-120.1026,-90.2262,-167.4598,-288.5345,-100.3120,-133.5102,-18.5340,-25.5263,14.3593,261.2103,-60.2261,152.0055,31.1827,-147.6306,-93.8308
-68.1613,-21.5701,48.0876,-152.0671,-60.8062,-104.0593,-133.3941,-230.9135,-55.2692,-33.7243,-62.4666,-43.1095,27.1807,249.6906,-22.0387,132.7592,-32.4621,-156.8257,-48.0486
-138.7058,-70.6037,16.8187,-154.9778,-62.1376,-119.7739,-90.7212,-183.2448,5.7936,26.2154,-96.5983,-45.2913,63.7345,233.9991,23.1789,157.9919,-74.1561,-149.1899,5.4458
-198.0028,-89.6103,-2.5918,-145.6626,-90.1493,-135.6897,-59.0613,-164.4439,54.1066,-29.9115,-127.5442,-44.7063,93.8313,197.5618,89.8335,200.1766,-89.8201,-121.9145,-8.5254
-136.0532,-70.1902,-37.6157,-160.7498,-98.6667,-135.2516,-63.5042,-130.1168,47.2433,-98.8187,-139.7012,-100.5772,91.0215,137.2672,119.9185,199.1546,-89.8590,-114.6670,-32.5996
-37.0146,-133.7703,-72.2040,-194.0544,-95.2058,-115.0812,-86.7948,-37.8986,11.2316,-20.7193,-126.2282,-211.0727,74.6364,79.4862,101.2133,194.2042,-114.0150,-135.3602,27.7165
-45.7437,-230.5409,-66.0204,-189.9615,-56.3983,-76.5863,-62.4781,66.3647,52.2584,86.8923,-99.5963,-273.5190,80.9847,64.0725,84.8408,210.5528,-165.5181,-128.1043,111.2490
-124.1240,-212.8631,-52.9384,-154.3980,9.5719,-45.2455,11.1408,107.0694,192.5919,81.0667,-57.8137,-247.8035,106.6194,84.6360,86.1860,180.7041,-178.1402,-84.8747,120.0113
-151.6358,-132.6558,-81.2715,-144.9334,26.4719,-54.1550,63.3410,93.8788,306.1072,93.0107,-25.8498,-203.6869,128.7418,94.4829,98.9700,103.2364,-136.3437,-69.7811,95.0437
-137.9290,-121.6595,-108.3183,-158.9209,-1.3340,-75.8970,78.9788,84.0067,310.6136,187.9893,-53.5224,-168.6930,139.0087,89.2765,122.0094,84.9774,-107.1574,-98.0542,101.6726
-143.7624,-150.6878,-75.1602,-166.0842,-4.3368,-70.8409,90.9958,78.9959,259.8563,210.1796,-101.8588,-102.6602,123.0911,91.9144,123.7876,146.0546,-96.4736,-128.3168,104.1504
-127.9280,-124.6917,-22.4085,-178.5857,3.1716,-72.6003,92.7271,57.8110,204.0205,141.8948,-96.4398,-13.0060,72.6859,90.5833,97.1663,188.6381,-46.6746,-153.2489,70.2826
-57.5214,-52.9165,-26.7901,-201.0374,-19.8482,-96.7475,82.5092,41.6302,154.5131,101.7923,-90.5751,43.0772,17.3815,92.8724,86.3973,173.3195,21.2593,-174.1342,53.7929
-16.7953,-18.1231,-71.4651,-210.5621,-52.8341,-75.9792,89.9558,48.0663,156.0224,79.0098,-139.4881,46.6471,-17.5774,125.5844,84.7781,135.4073,48.8258,-157.9342,90.3357
-47.2079,-44.3258,-71.8747,-191.8017,-68.8068,-8.9918,92.5944,59.3983,202.2896,45.8611,-131.6600,33.0953,-41.1129,131.4848,63.7152,92.6016,61.2470,-103.4262,106.5481
-61.3848,-57.9321,-11.8742,-134.7321,-49.4447,0.2328,44.3456,64.2883,186.5474,53.4440,-15.1003,26.1767,-54.9972,55.2306,81.5655,73.0322,88.7044,-59.3775,27.1853
-21.9221,-25.0508,29.5690,-69.4026,4.1374,-65.4101,-15.8785,71.3898,91.1219,92.1461,40.3873,-8.6420,-57.6234,-22.6595,164.3909,100.4283,82.9014,-50.7440,-63.9570
-2.6446,-25.9000,2.3087,-65.2420,28.3484,-102.4329,-21.1875,102.4884,44.8233,141.3165,-52.2840,-92.5417,-71.9630,-46.7017,206.0938,118.2080,30.7671,-60.0979,-23.2844
-32.1523,-83.5519,-38.6232,-102.5271,-1.0091,-73.4334,4.7319,166.8319,82.3241,212.1616,-133.9489,-150.5051,-101.7497,-100.5564,154.7922,86.0331,15.3413,-60.1494,94.1184
-56.3102,-104.8169,-24.3752,-87.8624,-10.6186,-48.4558,-3.9653,195.9294,88.7612,232.9425,-96.2111,-117.8017,-119.2026,-197.7400,97.9148,56.5776,80.5497,-36.8236,105.7704
-38.4030,-83.2914,19.8804,-36.2806,11.6350,-70.3090,-42.1821,114.7594,43.6819,181.1819,-28.9737,-63.2096,-117.6635,-233.3391,80.6803,44.7450,145.0000,-13.6699,23.3927
3.1631,-104.2890,22.8090,-21.5308,9.3015,-104.6400,-45.3795,15.5909,45.9470,172.3443,-9.6836,-66.2461,-97.4886,-211.0084,62.1166,18.5994,107.9747,-16.8494,11.7611
12.8040,-142.8386,-19.4664,-8.2091,19.5494,-105.2279,12.4850,48.0321,93.5199,200.2930,1.7954,-91.6031,-43.6568,-227.4659,44.3518,15.5427,-14.0131,-9.4972,76.6386
-39.2877,-125.1724,-52.3658,47.4113,89.6024,-67.1043,79.7110,151.5373,105.4432,175.7534,55.2181,-96.4056,21.4113,-279.3255,59.5242,39.8044,-105.5458,46.9186,96.9703
-96.6815,-90.7857,-55.9474,89.4431,151.4328,-15.5040,98.2109,166.6257,97.2409,174.2199,130.1068,-99.4659,60.1887,-313.6789,85.7734,-0.6013,-105.4794,109.0506,67.8814
-106.1793,-87.9614,-52.7848,94.0999,170.1266,37.0917,82.8390,111.6358,113.9208,204.8911,152.8922,-100.0385,94.9190,-337.7515,89.4530,-88.7994,-76.3405,133.2155,61.0776
-92.1312,-81.3036,-52.6404,97.6605,198.5166,87.5125,83.5004,87.9213,118.5035,125.8975,90.4489,-88.7888,137.4621,-359.9176,88.9371,-106.0959,-82.4499,141.7859,76.4487
-46.5509,-59.3147,-58.6933,85.5478,225.0258,112.2690,96.0703,85.9038,90.4007,45.8891,16.9762,-101.2929,128.5617,-372.2845,126.2762,-76.3826,-95.1199,144.0208,84.2141
58.4751,-51.3581,-86.6701,52.3570,208.6571,107.7361,81.3769,71.5884,75.1498,146.3872,12.1804,-141.8734,63.0951,-392.6027,198.3700,-94.3600,-78.8073,126.2909,84.7884
127.2268,-50.9124,-125.6939,56.2639,196.5022,113.7688,51.3594,65.0943,90.2354,218.8632,47.1047,-147.7654,23.7147,-417.9976,238.2880,-124.2202,-56.9234,115.4423,82.0921
83.7584,-51.0430,-137.0848,87.0715,225.4657,127.9887,54.9765,65.0225,114.6132,106.6886,59.1530,-82.6080,20.6288,-417.0998,198.2470,-110.6255,-39.6348,123.0043,82.1782
39.1834,-61.6472,-111.6908,72.2608,247.1331,96.7992,85.8762,56.5633,123.7446,74.1695,48.1980,26.4009,-10.5696,-394.8035,125.6866,-85.5208,2.5149,108.6230,83.3589
65.5659,-41.5232,-66.9571,43.3952,229.1623,39.1538,82.5738,49.3464,82.5069,188.8552,43.7266,124.9866,-52.6557,-367.3865,90.3783,-63.4231,69.7240,78.2608,50.3009
85.2347,46.3291,-13.6087,86.6385,194.3740,33.3139,24.7807,35.7786,7.5862,170.4007,65.1647,152.8699,-50.9407,-327.1295,84.5896,-30.5182,124.9247,84.6689,-27.8978
100.9026,122.5812,27.1474,173.2119,166.3352,73.5310,-36.3108,19.3319,-24.5377,42.9499,114.4283,94.3035,-48.3098,-296.5355,56.1364,-5.5479,146.6145,121.1901,-86.9035
145.8383,91.9215,43.2709,211.9053,160.7016,95.7189,-46.0583,46.5231,-25.2231,47.4699,160.0805,12.1594,-91.8210,-313.3616,-22.7773,-7.2876,140.8664,148.0245,-63.6243
109.3181,15.1952,71.5331,189.9614,190.2794,98.1493,1.2230,109.0937,-72.4290,117.8725,169.5037,-26.6083,-119.3004,-352.1797,-133.7766,-44.0279,124.4406,163.4474,17.8355
5.4582,18.7616,117.2975,149.9637,242.5141,101.8582,62.0626,133.5785,-125.2072,133.9390,156.4350,-13.7603,-91.6876,-372.1305,-202.9601,-99.7559,107.3520,162.8199,73.7031
69.3666,87.9118,103.2578,110.7245,269.0049,82.0120,79.3798,109.2733,-110.9403,181.5729,155.3965,36.6227,-85.0530,-391.8082,-165.0118,-108.5820,80.5188,130.0716,60.8787
284.4173,119.7848,12.6180,78.6368,228.8401,35.0422,54.1274,85.9656,-98.6238,231.8052,174.5815,105.0117,-126.0051,-420.2766,-67.7475,-78.1698,37.2749,94.0705,33.2055
331.5146,100.0059,-51.9928,69.4623,165.8205,12.9779,51.3478,81.0311,-132.3286,176.3977,186.9220,145.2556,-121.2567,-410.2435,-11.0893,-110.9515,-9.5167,92.7714,55.2670
160.4351,63.4048,-49.6011,73.9058,162.7302,37.9083,85.8848,85.6080,-111.1002,134.8771,163.6665,133.1943,-55.5035,-359.3274,7.4151,-169.5354,-47.7701,106.9712,84.0437
52.4148,12.8928,-61.6108,58.9066,186.1272,61.6296,85.7863,75.9193,-16.8381,203.0330,128.9384,122.0592,-42.9985,-336.5424,55.3849,-116.0810,-56.7341,94.0203,38.9541
110.1676,-4.5081,-124.1907,29.4673,136.0082,34.3570,17.1950,14.1128,38.3196,209.8347,118.9233,162.1347,-99.7315,-346.8253,120.0581,-11.8110,-4.3013,46.8831,-51.7418
164.9977,56.7976,-191.7398,14.9379,44.2045,-22.8683,-63.6522,-66.6003,49.5025,57.6728,89.5969,193.1393,-109.5695,-312.6724,136.9642,-0.0461,72.5069,-0.5349,-95.1324
117.5237,99.8146,-255.0065,-6.0208,10.3130,-33.2472,-95.8410,-64.5613,86.5133,-82.9190,11.3878,133.8711,-64.8114,-233.1686,106.5324,-32.8853,75.9553,-12.2649,-61.9020
48.3041,35.8111,-329.3086,-58.2558,18.6624,34.7293,-59.8450,40.6933,109.5298,-60.8152,-13.4911,41.6708,-78.7545,-194.2868,66.0767,-28.3750,9.9794,-1.8107,13.6652
47.5928,-42.5941,-390.2415,-90.7140,13.4090,108.5687,13.8376,167.5946,91.7383,69.4333,70.0842,21.1164,-162.4653,-208.3833,14.7725,-8.0988,-24.3707,-13.4045,84.0291
92.5824,-56.7126,-430.0349,-75.2687,3.5904,99.8026,47.6511,252.0630,119.1966,167.2771,143.5384,45.2760,-237.3685,-223.2077,-38.0110,38.2813,-26.3589,-49.1349,114.0887
112.2399,-52.5194,-476.1717,-81.1172,-10.2260,14.6181,20.0015,272.8967,179.9124,163.6153,147.5204,60.6642,-301.9001,-247.0269,-39.4183,87.8623,-70.7533,-78.6151,115.8218
118.5828,-20.2320,-510.2234,-126.2899,-33.4797,-66.4277,5.3307,233.0082,140.9441,103.3586,166.5873,112.6873,-384.7201,-295.1260,4.6584,29.3149,-120.3409,-87.9847,121.2696
165.4711,55.3488,-485.5968,-120.7023,-23.9219,-80.0359,21.9246,182.2844,28.8393,65.3886,197.0438,168.9673,-453.7158,-323.4521,8.2010,-86.5828,-102.7067,-59.7226,115.1062
213.5545,52.3563,-422.9072,-45.1399,19.8417,-36.5145,6.6066,164.6468,12.5956,72.6675,164.6430,89.8224,-492.6605,-329.9930,-43.9580,-103.4366,-70.2145,14.9702,74.2290
197.4284,-55.0873,-384.3702,9.4326,42.7233,-11.4660,-18.7458,152.6006,91.4944,91.0576,117.0359,-69.1052,-524.6609,-351.9713,-71.7813,-82.8998,-78.9962,81.3890,26.9797
152.7460,-91.0195,-382.9189,10.3790,52.2164,-59.2046,11.3882,116.3113,109.1599,73.7326,93.8472,-89.9376,-532.8980,-350.2990,-58.5216,-120.7459,-79.1615,86.6445,-2.4497
123.8264,-9.1893,-387.5858,7.1450,87.5835,-135.8721,50.8214,84.1065,45.2884,23.9695,14.2648,19.3225,-488.7701,-292.8632,-51.6912,-96.7330,-58.4942,64.5530,-20.8220
73.1599,43.3715,-377.7238,13.1395,121.7452,-161.8417,49.9930,79.7634,22.1310,1.5090,-103.7671,73.5724,-416.0185,-247.4377,-32.7733,4.4030,-84.6123,58.5755,-12.6386
-5.5351,16.7321,-350.9049,1.5130,119.8226,-131.6044,52.8305,84.0761,67.2507,7.7899,-124.8028,63.7682,-349.9955,-233.3145,21.6323,-6.8705,-151.5900,47.8354,29.6577
-33.1845,-39.4514,-315.5444,-31.0114,91.0373,-102.3854,47.1491,74.8636,87.6334,-11.6720,-60.2254,86.8696,-302.3753,-186.7578,46.4751,-111.7897,-188.7954,12.5563,57.7189
17.8865,-110.8496,-293.1229,-66.0757,47.7926,-114.5155,-23.6589,53.3685,51.9166,-5.5246,-32.2403,113.9001,-271.7628,-136.7080,17.6165,-125.7419,-198.7444,-23.3569,47.0076
54.0209,-139.6666,-294.7757,-84.3360,7.4394,-155.8962,-89.3547,40.7516,38.0355,89.2594,-45.1450,102.4356,-238.2870,-156.3867,12.6748,-89.8566,-219.2870,-33.2909,35.6612
4.0856,-61.0744,-296.6076,-75.0277,-13.4631,-176.2381,-77.4043,42.7987,82.0412,130.4069,-33.1182,112.1177,-192.3881,-191.0097,49.2066,-114.8205,-220.9316,-18.5417,24.2297
-47.3798,49.7556,-274.0490,-53.0072,-33.9594,-151.4954,-78.4450,13.9401,92.1481,-8.5924,15.8990,172.3896,-163.0092,-166.9628,54.8786,-112.1473,-168.0770,-13.0902,-31.2404
9.6215,93.5093,-245.3718,-45.9344,-58.9880,-129.0438,-145.6246,-67.1464,-2.0276,-153.7417,91.8480,224.3232,-160.5711,-126.3090,13.3172,-32.8708,-110.0285,-42.3896,-96.8848
113.1297,78.6757,-230.9752,-51.0243,-55.8063,-147.2916,-170.8097,-111.6080,-100.5786,-111.4246,159.3161,208.9370,-159.5594,-110.5318,-28.6084,9.2546,-117.8219,-64.4043,-83.4554
136.0598,28.8508,-195.9178,-27.8256,-31.9138,-162.7407,-121.5905,-49.0854,-89.5726,14.3292,155.4935,123.5651,-160.0275,-103.3055,-50.7180,-5.3693,-168.7279,-28.0565,-5.9351
95.2936,-32.9331,-104.2589,44.1268,-22.5110,-142.5685,-111.6343,27.4061,-47.8418,48.5237,99.6486,39.2508,-161.9879,-116.3293,-65.3854,-2.9347,-175.2195,32.8855,28.5627
66.8466,-43.2172,-0.7016,112.1605,-16.4415,-132.2297,-162.4011,20.2069,-83.1752,7.0245,77.4985,35.6660,-123.7325,-155.8575,-100.2865,-13.4763,-129.2552,60.6327,-1.9385
47.2849,-15.0096,43.0346,105.4625,-2.7917,-154.9534,-167.8699,2.2485,-114.4960,-18.7822,87.7514,73.6180,-50.2079,-167.4629,-160.3239,-56.6894,-116.4170,51.7873,-16.9922
31.3673,-38.5968,30.1310,40.0765,-8.3105,-168.5454,-103.8561,47.7151,-56.7593,0.0609,62.0615,47.5838,-17.5843,-120.3268,-175.0454,-31.9233,-159.7818,11.0618,7.4311
40.2975,-94.1036,14.5600,-7.2993,-34.2956,-159.5661,-56.3595,78.3047,2.8689,57.3745,-0.2757,-36.6146,-48.1329,-45.6809,-98.1449,63.4679,-183.4173,-53.3975,15.8223
61.5164,-79.5777,18.3663,-13.3586,-61.0143,-156.8235,-60.6246,48.0500,13.4878,117.9965,-48.0393,-86.4398,-91.7533,17.0741,-19.7614,77.6906,-157.0374,-88.6324,2.7200
93.4629,-7.4222,30.8155,-8.7870,-90.8027,-159.8930,-62.1585,42.2701,46.7024,115.9105,-63.3624,-78.1226,-121.6831,24.4781,-19.3665,-14.0586,-126.3444,-71.0216,19.7866
118.4040,20.5400,40.9093,-10.0287,-109.2787,-147.0742,-25.2267,83.8965,76.6703,54.4033,-60.8129,-61.2085,-127.6866,-41.7852,-38.1991,-63.4009,-112.0798,-52.8178,76.6414
46.7152,-28.9723,31.2415,-27.5840,-90.2764,-114.9059,19.6055,113.1425,14.7727,48.4936,-56.2191,-67.1643,-86.1689,-99.2131,-39.4356,-22.4135,-118.9630,-65.0386,149.2174
-93.3182,-114.0255,-13.4762,-79.2290,-62.6688,-68.9126,42.0594,161.3938,-62.9050,146.8799,-61.6181,-86.3273,-16.5451,-42.0229,-76.7629,20.3446,-171.2873,-88.6263,228.2206
-125.0813,-200.2027,-72.3323,-149.2662,-68.4534,-18.9451,56.4089,260.2938,-39.6241,210.9068,-94.6189,-99.3291,23.9690,98.5706,-124.8680,46.3952,-236.6544,-118.3477,287.4744
-58.2269,-263.7327,-104.7836,-191.3199,-85.6548,25.0102,84.2878,300.8460,25.8832,146.5426,-169.1066,-100.3678,18.4511,199.4193,-102.4837,88.8540,-239.7448,-142.7156,291.6866
-59.7416,-258.2964,-103.4995,-179.9625,-75.9077,69.7681,123.5797,235.5688,34.6172,86.1000,-243.2682,-84.2051,-7.9113,218.5759,-50.4505,96.7261,-194.4709,-128.9145,258.3157
-87.4964,-170.6076,-92.7498,-131.0883,-49.5269,110.6368,157.8483,185.6047,10.7954,125.1270,-238.0663,-35.9984,-24.7032,202.2081,-38.0639,36.4566,-173.2140,-89.1169,223.6666
-31.3405,-75.0075,-82.1616,-81.8825,-32.5124,113.9811,167.3737,190.6021,14.7751,153.8086,-173.9104,26.2759,-4.5501,172.8078,-11.7810,-3.5256,-171.0782,-58.4199,180.5301
-3.9841,-26.4710,-59.0839,-47.0893,-19.8474,82.1437,150.3994,166.9046,43.1306,124.2240,-164.1547,51.7088,49.8916,134.8834,51.3084,38.4893,-146.4590,-19.6358,121.8132
-82.1459,12.3145,-19.4351,-4.1719,9.2754,76.7819,132.1712,136.5855,41.8607,114.7346,-205.2031,40.1908,101.5667,137.0548,38.5128,94.9157,-120.9350,46.9355,79.9333
-139.5173,31.9190,24.0617,50.5629,52.2384,134.4239,118.8428,171.7370,-17.6179,97.3718,-169.9801,36.4331,128.6578,201.9270,-83.7360,90.7381,-121.4684,105.0675,75.7472
-134.8259,-35.0917,59.1394,85.3669,82.7555,218.7419,87.0155,220.0148,-71.7706,32.8217,-59.5595,32.1441,129.8134,254.7885,-173.6855,43.8973,-118.2340,124.3858,86.5469
-140.4680,-116.8159,83.4500,104.3858,88.0988,270.5983,50.4084,229.2493,-64.3096,18.6290,-16.7948,-9.5658,103.6551,239.1783,-139.5390,27.7035,-92.4108,126.3522,78.6157
-138.6777,-83.9305,103.7305,143.9101,82.5463,263.0438,52.6885,234.3309,-61.5106,55.0666,-66.4701,-60.3794,80.7048,210.1690,-51.7103,78.7015,-71.6733,141.6141,43.9880
-108.7591,2.6319,124.0187,188.3347,88.5704,212.4613,81.7178,222.1383,-98.0078,33.6652,-90.9470,-62.8434,107.4416,212.6849,11.3069,129.9902,-64.4946,166.5089,11.5650
-93.7941,30.3106,132.1213,193.8612,120.0388,155.8867,90.8686,160.9288,-79.0612,20.0049,-59.8751,-14.1301,165.4081,204.3734,45.7290,92.4217,-44.3032,171.0257,13.9449
-81.6721,44.4248,125.4480,171.9127,159.4838,124.3035,84.2765,114.1079,-6.0409,90.9335,-58.7680,42.8353,195.6207,173.8360,56.6591,7.3265,-9.8105,151.9126,39.3621
-61.9394,85.0387,140.4102,163.2568,162.4439,136.8903,87.2301,120.2644,-7.0292,105.3733,-99.8372,65.5734,186.6378,174.4105,49.2951,-10.8963,12.9618,146.2367,50.7608
-71.5286,94.6366,191.8025,167.9708,117.6322,179.7754,83.4719,116.6728,-58.8292,22.5143,-88.1289,39.3598,153.7209,205.7681,48.0285,45.3446,22.3414,151.9450,43.7646
-67.9126,75.4692,209.3698,150.0738,53.0511,190.4175,57.8906,83.4130,-24.2393,16.1522,8.8584,-13.5491,96.1150,210.3817,52.3894,92.8855,27.1530,117.6567,46.6016
-5.2631,59.7777,135.6789,93.2819,-24.3526,134.9230,40.6997,77.3099,81.1203,105.6822,87.8965,-56.3361,33.9639,175.0714,52.1853,91.9896,12.9379,52.8932,77.2282
47.0694,16.4043,43.4496,33.9936,-103.5094,70.6922,56.9706,122.4760,152.4656,173.1773,58.0796,-67.3870,2.3925,130.8932,85.2207,78.8713,-12.8101,16.1211,121.3727
64.9325,-29.5808,33.9547,11.3964,-125.8105,54.5641,88.1457,190.1914,163.1815,228.9512,-26.1511,-49.7947,-0.4458,101.0755,157.0601,105.9393,-8.6219,1.2226,147.8011
100.9317,-0.4679,82.1313,1.7895,-72.4815,67.6993,113.8539,227.3084,121.7077,265.0280,-62.0846,-21.8674,15.1345,100.6420,169.1401,149.4952,12.9168,-14.2217,150.0748
122.7764,70.7284,101.9893,-27.1363,-12.7171,83.8897,136.7786,197.1511,70.4894,198.8240,-48.0889,7.7215,56.9893,128.1167,79.4266,126.9359,-7.7646,-0.4496,156.7404
90.3211,89.7365,83.3390,-48.3829,1.1212,99.8168,148.4336,150.2499,98.4304,122.9227,-33.0431,28.5454,97.9338,147.1102,13.3600,71.8739,-57.4620,27.2147,184.2196
39.6188,27.9530,64.7511,-43.7045,-15.0852,100.1957,133.8222,159.3311,189.9057,160.9364,-14.5605,3.7560,91.5775,122.8420,58.3277,99.6300,-74.2925,14.1444,216.5877
-21.8019,-75.1234,56.1970,-38.3773,-30.4487,93.5577,112.5990,187.7124,218.5394,184.3672,11.4517,-49.6712,59.0399,73.5282,114.9882,142.9584,-62.2967,1.9550,232.4402
-50.1207,-106.2052,48.1681,-23.6720,-22.0761,112.3262,100.8674,163.2692,143.2540,67.2588,21.7357,-23.7949,58.2700,57.4364,91.1514,64.2722,-45.6744,47.3767,211.6635
39.8344,7.7501,32.7587,22.3931,12.3730,139.6722,70.3067,108.5979,28.5909,-71.7447,41.6743,84.3726,92.8904,97.6051,49.2154,-16.5382,-5.5883,87.5923,155.1191
120.0063,118.1546,12.1311,64.5768,49.4725,155.9210,28.6586,87.5673,-57.2116,-109.0963,99.3104,100.0963,133.4100,141.0265,55.8973,52.8379,38.1435,79.6307,118.5510
16.3505,62.8262,16.9527,76.9910,85.2511,197.6219,39.8371,122.3885,-59.6139,-70.3280,121.8350,-32.2256,165.3393,132.7951,74.5398,111.7386,34.9124,88.5688,146.5354
-95.5261,-34.8228,67.2039,82.9140,122.4445,247.7493,93.9572,178.6482,6.0626,-16.8206,47.5480,-129.7008,169.0155,95.5239,65.9223,5.8430,19.4837,118.7937,189.9809
-25.4806,-0.9050,120.2230,84.0456,124.3244,222.3191,118.4818,172.1190,47.5023,-11.6406,-50.1888,-80.0549,132.1793,72.5467,41.8371,-103.2441,45.4736,100.7687,185.6133
22.1468,102.9977,132.6859,75.4172,82.6853,137.5514,127.5753,72.7192,52.0632,-90.4920,-99.2466,27.2110,91.8373,53.8594,12.3131,-80.9186,67.7178,58.3522,151.2169
-103.1332,174.1278,133.0232,83.2814,51.9979,87.4353,160.2742,-31.6333,78.8930,-188.9542,-132.7704,111.2356,94.0257,28.2915,-15.8323,-41.8280,50.6107,56.0751,118.3329
-191.4544,213.1194,161.8552,103.5894,49.2837,78.1815,157.4641,-89.9814,90.6869,-228.5992,-166.0417,158.6903,132.6817,32.8810,-26.2007,-64.6863,53.2589,68.3618,73.7357
-130.2426,202.2233,207.0823,114.6304,48.4040,71.6096,92.2963,-151.4688,36.5393,-213.1274,-162.6967,147.8851,166.4206,88.4533,-29.4715,-87.6023,96.7292,63.8794,21.9051
-57.0257,151.4581,239.1391,131.3920,51.3198,72.6232,47.6571,-201.8710,-10.2703,-172.0352,-139.6761,114.1912,165.0140,144.5317,-48.5359,-92.6356,118.7887,63.5914,0.4812
-26.2102,158.4418,240.9374,131.1968,47.7450,57.6635,50.7728,-179.3182,0.1670,-128.4646,-126.5820,141.7699,137.2697,133.2931,-67.0568,-106.3041,100.0535,50.8001,12.9959
-12.3209,229.3705,206.1741,63.7465,17.3588,-10.5415,52.3944,-134.0949,8.8971,-104.5642,-90.4194,212.0075,123.5444,63.7160,-63.0332,-106.5423,78.7126,-3.2922,19.9743
-35.4525,258.8375,160.1310,-14.0498,2.9164,-78.9739,52.8521,-140.7039,-10.1877,-91.8811,-31.1908,233.7258,134.2830,24.8080,-50.5434,-72.1620,66.0909,-48.1891,-5.1857
-46.0597,227.5417,138.1421,-20.8877,27.5327,-72.5690,45.8312,-174.5817,-40.9627,-98.9702,-15.9343,199.5978,129.2316,66.6687,-30.7373,-24.8517,54.3181,-29.8689,-45.8517
8.0251,197.2482,125.6427,-4.1266,34.6089,0.4712,-17.9069,-204.9030,-98.3249,-177.9713,-50.8502,167.7972,97.0540,134.8471,15.7568,8.8749,46.3272,15.1599,-66.9965
44.2996,182.9372,86.8127,-19.8611,22.8732,93.9760,-96.6079,-219.0742,-155.7088,-298.4012,-74.5681,155.3794,82.9146,170.6394,51.5252,24.2991,34.9858,25.0648,-58.0706
21.7672,164.5394,34.5326,-34.9985,47.5547,167.6385,-101.3543,-168.1630,-154.7542,-337.7031,-79.0254,134.4938,109.5350,179.7079,18.3164,32.0357,11.7924,-1.7994,-28.0679
5.6705,120.7474,3.3617,-44.5153,83.1640,189.7703,-56.0921,-63.5303,-127.5187,-265.9201,-101.7817,88.6599,151.4172,168.1741,-34.1186,26.9245,-15.3190,-23.1930,21.5964
-19.9597,44.0777,-7.9189,-68.2517,88.2680,174.3395,-20.3197,3.7969,-126.8707,-170.6247,-133.3745,43.4075,176.7024,138.6509,-10.2907,0.2362,-41.7835,-19.5295,67.4387
-91.2714,-10.9969,-17.3928,-65.1178,87.7149,154.9179,8.4472,14.9941,-112.2839,-108.8280,-124.1995,32.3038,164.4241,136.0414,44.6200,-3.9103,-59.8206,-17.5995,54.7724
-127.9111,14.6046,-22.9747,-18.8954,80.7634,127.8628,16.1810,8.5456,-56.5363,-75.8744,-64.1759,43.3186,131.0165,176.7025,13.1113,46.0476,-42.2053,-28.2736,-22.2410
-98.1728,78.0839,-11.0559,27.3416,54.9987,94.7059,-13.8790,-29.8347,-20.1674,-49.5528,-14.5871,51.2682,125.4160,203.6771,-57.9223,69.4302,14.0165,-13.2770,-103.7418
-84.5268,98.9946,14.1509,68.4083,48.3221,77.8231,-38.5804,-98.0389,-29.6008,3.2711,-27.6743,65.1691,139.0874,181.3540,-17.8155,-1.1832,60.9366,30.6437,-156.4086
-98.6949,75.4556,25.3102,106.3140,48.5441,65.0534,-45.3164,-137.9972,-28.2363,71.3587,-52.0145,78.8098,120.2178,133.4153,112.3663,-76.8839,56.5680,53.5097,-198.2263
-93.3476,53.9517,14.5506,111.7628,15.2529,46.5852,-63.5921,-138.4417,21.7090,83.3283,-20.1609,57.5907,98.5963,96.2532,170.3148,-51.6023,11.3256,61.8407,-245.0056
-88.2356,55.9316,19.8065,112.5257,13.1942,49.8235,-63.1269,-134.1152,82.2187,38.2243,8.3411,17.9072,128.9698,108.3520,128.6918,37.7395,-36.0581,100.2502,-292.5031
-95.9821,76.2350,64.7656,151.8201,82.6597,66.0446,-19.1373,-140.2560,77.2247,23.0252,-47.4756,15.7903,165.4974,163.2407,105.4110,102.8575,-57.7811,136.5786,-311.6242
-94.4666,96.8964,116.0427,188.2555,129.5970,71.8320,19.7578,-169.2759,-12.1548,26.4848,-133.2623,54.4093,166.4035,184.7881,145.8061,147.8493,-57.2312,131.0336,-269.3685
-124.0785,77.4615,139.7064,190.2219,115.5813,103.1579,40.3710,-211.4153,-61.7076,-45.4790,-175.0159,84.5303,169.8655,162.5364,189.6468,233.1729,-66.5013,126.2076,-198.0648
-197.5018,-16.0194,130.2776,181.8199,92.9838,158.6194,62.0299,-212.6423,68.7224,-122.3600,-189.6953,66.5398,161.1721,183.8438,188.3278,313.9288,-101.3971,133.2005,-160.8208
-205.3348,-120.1819,83.2918,145.8819,47.1138,157.3955,49.5634,-162.9028,258.8888,-46.1497,-173.3232,3.9065,98.5679,243.5419,143.7352,237.9317,-118.7643,96.8786,-138.4678
-116.1439,-101.0419,26.7454,79.9367,-26.2230,101.0646,10.6644,-114.4639,218.6315,101.9544,-100.6054,-55.8290,50.5167,242.3616,112.1407,25.5134,-70.2953,37.1096,-83.3186
-65.4876,27.8987,24.6827,56.5399,-51.7537,78.4455,20.1941,-87.3338,-25.2580,132.8007,-43.4109,-77.7319,61.6292,188.4292,156.9254,-57.0763,0.4957,20.7115,-31.2267
-94.6039,80.5639,75.4603,73.7297,-36.5098,93.6021,50.4578,-69.9555,-87.3023,106.7548,-64.7829,-82.0423,52.3228,157.8647,213.8319,85.8738,0.7884,22.4198,-21.7275
-81.2386,12.0281,111.4307,49.0426,-47.9094,92.8315,13.9446,-64.1681,153.7305,131.5348,-103.0537,-76.0947,21.6674,144.7597,150.0833,219.9133,-55.7446,-6.5715,-21.7747
-1.3440,-7.9500,119.6702,-1.6492,-68.8492,80.6493,-57.2896,-56.8780,344.3211,68.8231,-107.6955,-20.3951,54.5708,142.5426,11.0709,225.6799,-49.4181,-43.7552,-23.3621
59.3576,75.1706,129.3372,-16.2579,-94.5363,62.5696,-97.9173,-33.7648,267.5283,-123.1748,-79.5110,77.8882,94.4599,194.9292,-45.1558,243.3309,57.0102,-73.8761,-64.0612
115.3915,126.0876,131.3193,-24.9161,-169.3726,10.5888,-125.8007,-18.8055,139.6787,-191.8078,25.8802,140.3116,52.5184,265.7267,-33.7498,291.9196,157.9417,-109.9487,-121.2450
184.9545,89.8970,134.9198,-59.5754,-242.5137,-57.5323,-142.3926,-31.1477,134.5674,-75.6707,170.8333,121.0153,22.4730,272.4648,-63.5124,256.1306,171.9749,-131.0163,-137.0811
164.0235,39.3004,191.2171,-90.9264,-247.5312,-89.2614,-120.9201,-60.9248,144.4152,-25.3732,187.6446,56.4962,90.5818,250.5348,-113.8050,179.0204,148.6593,-133.5399,-124.1846
71.8158,33.8490,286.4684,-111.3293,-237.0456,-66.2811,-98.7403,-95.6599,84.9143,-99.0062,97.7171,13.5903,164.9380,287.2599,-154.3692,139.4557,170.1507,-160.1529,-132.3715
95.2220,102.1459,351.3865,-124.6276,-247.8802,-12.6419,-102.8111,-109.7598,-0.4241,-132.5754,129.2999,22.3444,166.7751,354.3493,-228.8493,71.5406,236.5537,-204.9017,-159.5194
215.1222,205.9108,376.6104,-111.8200,-243.9175,13.4089,-83.7877,-87.1146,-81.8223,-120.1850,268.1363,55.8078,130.2557,357.4051,-282.6556,-36.8137,286.0690,-218.6371,-168.4702
229.0436,225.2794,397.8374,-85.2353,-237.0019,-25.5348,-27.2549,-70.0514,-134.4735,-140.5945,274.1682,78.2170,88.0316,290.5605,-242.5291,-86.1652,284.8133,-204.4748,-157.8297
157.4496,146.6538,424.8563,-73.1694,-251.8799,-81.9860,9.7904,-101.1404,-145.0167,-173.5329,173.2963,71.7930,58.0191,236.0907,-209.1975,-73.9007,257.2756,-196.1908,-165.5028
144.3280,101.3425,447.7732,-76.5561,-273.2838,-111.2326,-8.1999,-161.7521,-153.5427,-213.0004,189.6048,8.2457,57.0099,226.0273,-234.4010,-73.2680,230.9877,-205.1354,-201.0028
133.0862,113.9760,440.3031,-102.0889,-319.6382,-151.4461,-68.4576,-217.3299,-140.0513,-240.8223,278.2337,-99.4563,51.8044,195.3096,-174.2711,-88.9192,204.6257,-232.9103,-228.6761
70.9051,78.1752,379.3226,-135.9222,-387.5458,-211.8192,-132.0938,-244.3266,-60.0641,-179.5233,245.4065,-150.1142,18.3736,114.2298,-23.2796,-103.1660,188.4991,-256.2276,-240.5769
89.6824,1.1805,308.4378,-122.3555,-396.5108,-242.2598,-155.6882,-234.7333,-20.1191,-90.3702,153.5641,-103.3376,-10.3546,52.5602,20.9962,-118.4749,203.5602,-242.1011,-262.6927
191.5400,-4.7372,289.8812,-76.0063,-340.1355,-265.9543,-146.9580,-224.0330,-94.6491,-84.2252,166.6883,-61.3811,-34.2572,34.3594,-64.4999,-118.1592,228.9341,-224.2330,-273.8746
184.2294,65.2703,299.7171,-74.6888,-297.0744,-331.0284,-153.9721,-231.0947,-137.2806,-67.1359,213.0534,-76.0654,-77.1262,-12.0627,-132.0444,-100.8227,229.0499,-248.4112,-231.4884
51.4837,113.2080,282.7208,-102.6018,-265.4710,-371.1499,-174.4739,-212.9659,-89.0920,11.8501,145.4135,-74.7770,-102.3242,-88.3412,-165.1796,-98.9965,208.5056,-263.8907,-160.1358
-17.3842,94.2414,242.3434,-94.0294,-211.8331,-320.7107,-165.1706,-173.6378,-105.3804,-5.0310,30.4547,-44.9097,-90.6045,-110.5000,-206.3905,-125.7764,179.0897,-215.3886,-102.7787
40.5297,42.1391,194.9657,-68.7044,-173.0558,-247.1376,-128.3037,-164.1645,-190.8408,-98.7152,18.7748,-59.9176,-94.1060,-95.2389,-207.6121,-165.7099,141.9776,-153.2811,-44.9896
89.4116,-15.7538,139.0266,-57.7027,-159.5107,-222.1710,-100.7741,-137.7415,-182.8961,-75.6506,78.5202,-129.9356,-123.5473,-148.4789,-164.7818,-188.4933,120.6667,-130.8765,34.8394
17.5966,-78.6015,84.0418,-44.1150,-140.4782,-224.1422,-87.6870,-27.6343,-88.1344,11.1621,66.0226,-197.9321,-140.4073,-268.1866,-132.5636,-167.4109,119.3146,-125.6002,122.7818
-106.4340,-112.5420,23.0249,-45.7741,-131.8909,-228.7437,-63.2348,95.7282,-13.5768,38.8686,-22.6207,-211.9908,-153.3548,-344.5380,-97.4198,-132.8463,100.9720,-118.1518,193.1629
-142.0378,-70.1249,-54.8219,-71.3735,-127.2378,-237.0105,-18.5254,146.5462,32.9524,109.2951,-59.3693,-150.6949,-173.0343,-335.2191,-60.9024,-145.8253,88.6036,-105.4554,211.9821
-106.9787,15.1907,-94.3629,-47.1098,-68.1309,-218.8168,16.4939,136.2271,33.8314,206.6066,-18.1628,-68.1613,-163.2193,-304.2082,-87.4010,-208.3754,152.4338,-53.5697,166.4499
-122.7205,67.5018,-53.8270,46.5129,20.9406,-149.2187,16.6408,75.6359,-25.4537,127.5624,-14.9261,-55.3945,-129.6721,-307.5943,-143.6835,-275.6686,247.7584,38.3008,108.4823
-155.3228,74.3019,-15.7874,107.2296,48.9502,-66.5607,15.1860,-16.7780,-28.9685,-47.2829,-98.5127,-116.5182,-128.7235,-333.0285,-125.5620,-298.7065,252.7806,101.3475,87.7690
-100.9689,42.9162,-60.9077,88.2158,11.8297,-22.6283,53.4054,-63.8224,60.0450,-75.7973,-166.8898,-182.9891,-166.6567,-346.9613,-54.2249,-237.1803,171.5866,108.6509,80.1705
-17.8445,-30.5627,-121.2846,68.0953,-16.3810,-10.7442,94.8329,-61.7654,59.3519,-41.8726,-119.9435,-190.4541,-205.2283,-336.6203,-34.5738,-136.6100,116.9944,118.0335,50.5016
22.0479,-70.0948,-97.2592,95.9764,6.6162,6.2688,79.0250,-91.1038,-111.8441,-120.4883,9.4891,-92.8498,-232.4411,-303.7987,-84.2508,-107.3732,136.8557,151.7687,9.9395
66.8325,6.9097,-16.3926,121.0444,57.7560,23.0469,28.8337,-143.7868,-263.0315,-193.7452,88.3559,47.4472,-249.3782,-269.5796,-135.3519,-138.2273,186.7975,149.7367,-18.6787
102.2964,113.1445,20.2462,97.8879,85.8241,15.1045,8.6945,-158.0411,-240.7369,-141.1397,31.4826,61.1290,-234.0766,-264.2714,-134.8032,-118.7201,199.6283,90.8749,-25.3446
73.8840,103.6576,-22.6185,56.6639,83.0229,13.9513,18.7693,-140.3646,-141.8027,-88.8136,-70.1187,-55.5867,-165.2922,-268.8530,-93.5373,-57.6295,131.4651,50.2735,-17.9380
48.7046,3.5040,-84.9828,42.3521,97.3537,60.1026,19.3319,-95.7189,-120.2072,-122.1192,-53.5146,-98.4657,-62.6040,-234.4056,-54.7707,-42.1511,14.7980,76.3840,-25.1434
54.2856,-51.8886,-102.0310,48.5084,150.0207,117.3557,13.5344,-20.4277,-164.4068,-138.1526,64.9304,-12.0794,21.3508,-182.6459,-29.9776,-59.8586,-54.6937,115.4520,-56.9992
14.7682,-17.7148,-82.0071,50.7916,208.1059,135.9052,20.1715,13.4305,-176.4000,-86.3512,116.1964,47.7921,54.3657,-171.7670,-15.1228,-56.2350,-31.8739,116.1088,-88.6251
-32.4150,20.2259,-63.2233,48.1352,231.5757,122.6183,13.9291,-26.7672,-158.9117,-57.5566,56.3130,27.7982,47.5694,-180.8577,-23.2790,-32.1207,32.8211,96.7382,-100.1367
-38.5331,-27.3534,-51.7893,29.8374,196.4503,85.0196,-16.8621,-52.1013,-160.9995,-89.3938,-8.0087,5.2248,24.7386,-160.3758,-21.3570,0.0899,69.3299,69.6200,-85.7536
-105.0637,-120.4916,-55.5230,-16.0469,132.8566,28.8637,-20.6352,-27.5954,-142.5577,-97.8003,-32.6655,-6.4626,9.3698,-127.4520,47.8470,28.4792,59.4054,25.5568,-57.9971
-195.6997,-149.5380,-92.5674,-44.0434,114.0835,3.9292,15.0960,-23.3560,-83.3127,-49.0945,-50.3482,-24.4944,21.6905,-108.6150,135.4611,41.3121,40.0195,-2.8136,-64.6772
-118.0288,-109.4952,-130.5867,-10.6122,133.3880,22.0668,20.0404,-52.7744,-57.6453,-18.6579,-51.5262,-23.7793,48.5483,-94.2311,153.5478,61.2773,37.0940,13.1454,-115.7482
41.6585,-72.2059,-123.9799,34.2018,124.3830,23.1403,-17.8547,-66.2982,-60.6052,-24.7478,-25.4970,-5.3268,58.6729,-83.8100,125.3555,88.8332,12.8392,33.9528,-135.9459
49.8862,-56.0923,-96.9978,24.9052,114.5686,0.7456,-27.5528,-54.0714,-18.0139,-6.4661,-17.4555,3.2090,47.9189,-76.5579,100.1587,86.5198,-50.5294,23.4654,-91.9001
-17.8493,-71.0440,-89.9485,-19.3346,144.0315,-0.8491,-10.0887,-25.5885,23.2720,12.1173,-52.1011,-9.8629,19.2562,-62.7610,71.9914,83.7875,-81.6499,0.6373,-48.6354
-15.2323,-134.6836,-92.7731,-46.2177,142.2063,0.3795,-21.0776,21.2976,10.2351,-22.4564,-94.2836,-54.6010,-20.4736,-67.4598,64.9695,117.9215,-52.6669,-9.0584,-33.4647
-37.9584,-175.0263,-93.5561,-33.0156,100.3278,-10.1943,-30.9951,79.1365,20.4920,-35.1651,-97.9823,-101.7040,-24.0619,-101.0483,84.8244,111.8423,-48.4156,13.4921,-11.0775
-105.1922,-122.8429,-90.4479,17.3610,124.6263,13.8114,2.4900,134.5252,60.8964,30.4214,-46.7850,-83.5491,18.5151,-110.6075,51.8388,36.0907,-88.3320,74.2083,10.5325
-65.2039,-44.9882,-59.2988,70.4651,191.5241,50.8551,32.5158,158.1967,44.2121,75.7241,14.5468,-18.2909,17.1639,-86.8517,-23.1534,18.4066,-79.7869,121.6015,11.5663
38.8128,-28.7822,-13.3343,83.9712,170.6649,24.0643,32.5182,125.0303,29.1285,57.4497,12.3237,2.7586,-64.2664,-90.9951,-13.0407,91.3242,-20.2150,106.4373,20.1426
36.7872,-86.5947,-22.3824,61.7545,85.5561,-28.8647,48.9085,90.3663,120.9784,71.7843,-42.5960,-27.8954,-123.1440,-114.0517,77.3152,108.6895,-9.1629,71.0713,42.5871
-35.4983,-188.4497,-94.5009,30.3853,48.9921,-13.4724,92.7682,128.1896,242.5258,122.2371,-67.7092,-47.1329,-100.2257,-85.4717,134.1969,42.1628,-53.7916,65.3307,56.0527
-58.3672,-240.1094,-155.2819,-10.4832,57.8431,52.2840,126.8522,194.4320,277.2545,109.9511,-48.5136,-38.9125,-61.0911,-21.0917,160.6564,38.8112,-82.5200,55.3725,78.2026
-41.4108,-183.9017,-177.2236,-65.4671,49.9305,86.0597,128.5318,204.1941,233.4175,59.9528,-22.2579,-18.8229,-48.0431,2.8008,198.8763,126.3179,-86.9105,9.7012,124.0287
-33.3790,-132.6657,-194.2393,-113.3693,13.6084,60.0762,93.2581,166.0559,174.3671,65.6825,24.1255,8.7085,-35.1076,-18.6424,197.4056,164.4612,-84.6557,-34.7838,155.6127
-52.6990,-152.1787,-196.6815,-118.9317,-16.8691,13.4986,52.4265,117.0638,159.1973,87.5782,81.9793,26.2867,-11.1338,-18.4190,136.1292,110.8735,-50.1750,-36.1906,149.7479
-88.1600,-127.9809,-145.9251,-66.2202,11.6284,13.6668,54.0972,65.4456,168.3992,53.7654,67.0349,19.6145,11.5009,44.1356,72.7496,79.1480,21.6988,4.6264,129.6068
-56.4177,-55.7527,-70.3987,4.2666,90.5598,64.2336,63.6670,43.0282,90.5501,27.4362,-27.9175,10.6746,13.9341,116.3506,31.1649,107.7628,89.0218,45.8936,111.4975
81.0118,-45.3919,-36.3985,33.6749,125.7673,76.5162,6.8497,63.8687,-47.3977,59.7382,-86.6275,25.5560,-19.5986,107.6086,8.7708,94.8617,125.4563,41.7261,86.9684
192.5668,-33.2717,-47.2233,33.7089,88.1560,28.0302,-85.5304,77.7939,-71.1654,43.1334,-57.0142,53.2860,-58.4961,29.1212,12.6373,13.3434,132.7084,19.2400,54.1727
164.0989,31.3002,-57.0041,51.4986,53.6405,12.8740,-125.8867,68.4668,1.4388,-73.9227,-20.8749,55.3108,-61.8748,-23.2987,26.5520,-34.1158,111.5157,48.9856,44.5561
71.0273,10.9134,-55.6034,75.4555,51.4616,50.5898,-100.6206,77.2892,9.1211,-128.4944,-47.5145,17.5809,-54.8625,-35.7288,41.6914,-28.0888,72.0968,112.3524,86.2141
24.0592,-60.7678,-58.6370,81.8332,56.2789,61.9446,-50.6724,97.5300,-22.0083,-32.2429,-104.2377,-17.5746,-63.9787,-59.8395,60.6498,-48.4729,47.0246,134.3295,124.0642
19.6123,-2.9408,-50.5429,93.1940,83.2431,47.0863,-12.5936,87.5821,-4.4312,44.1515,-115.7625,-12.7316,-51.2556,-76.3620,49.4435,-73.8266,50.8051,124.8890,81.3146
2.3521,71.7550,-23.0034,108.9823,133.7069,55.4271,4.7751,59.0072,11.9881,8.6505,-63.3076,3.2674,2.9846,-56.6059,19.4603,-37.5106,37.9546,127.1569,13.2745
-47.0616,-9.6468,-17.7411,89.9534,155.7575,60.5416,33.8564,42.5296,14.1578,16.0568,-15.3376,0.5852,65.6867,-44.7642,46.9077,6.9150,-34.4168,108.3420,23.9192
-86.4166,-91.1718,-54.3041,34.8836,130.8410,40.8779,81.5669,36.5195,33.2623,108.2343,-19.4340,9.0633,114.0676,-47.9023,98.5187,17.4393,-106.2565,42.0603,75.9305
-69.2095,-52.7461,-94.8698,-25.5390,88.6838,33.8076,98.8062,36.0930,12.1933,123.4766,-12.7917,47.6217,129.0642,-16.2721,79.9761,50.7561,-88.8982,-21.0742,89.2965
-42.1899,-23.4582,-126.7771,-70.8679,50.8102,38.4698,84.0639,29.7796,-22.6803,54.3570,45.5063,77.0456,87.5818,27.4080,59.3308,76.3763,-17.5159,-47.9084,88.5415
-63.5156,-8.8731,-168.5924,-83.5883,18.9697,27.3297,67.3275,-23.0551,33.4858,31.1566,67.4535,71.6488,16.9014,28.1517,124.1498,12.9026,25.1847,-61.9229,81.0012
-49.7184,78.4239,-194.1947,-72.6546,-20.4062,15.7837,7.8906,-128.1942,85.1883,16.4539,12.0106,61.6132,-31.4332,16.5476,163.2244,-50.5198,54.9403,-67.2452,16.1469
78.5700,126.6366,-176.4246,-77.5937,-61.1852,9.2171,-85.2602,-202.7224,15.8497,-53.2567,-16.5476,65.5618,-45.5649,34.0071,90.6213,-5.9254,87.1985,-44.7041,-51.3006
195.7831,51.2508,-152.3420,-93.0947,-52.1441,-5.8651,-92.1252,-164.0890,-42.5385,-51.5033,19.2323,39.1668,-34.5178,54.7709,13.3516,51.1973,63.0925,-11.0515,-22.3530
164.7400,-19.4975,-138.1947,-71.6919,12.2248,4.2180,-20.5051,-52.2898,-22.4440,63.4305,22.1178,-42.5573,-17.7084,66.8839,-14.4214,31.8258,10.8933,1.8898,49.2051
62.3067,-13.1730,-89.6810,-13.3827,55.7377,59.1648,-14.0319,11.7140,-58.1897,89.9893,-24.8466,-96.9970,-21.6974,91.9752,-65.2293,15.7836,32.5848,7.8372,55.2706
9.0549,6.0337,-16.0196,37.9575,53.3119,96.9733,-60.0535,-12.7334,-116.9678,-56.6662,-47.4242,-56.2872,-23.1620,103.7965,-125.7241,30.0572,78.7244,40.2851,16.4390
-0.9865,0.0026,11.3231,57.5033,53.7999,74.9349,-43.1761,-53.2545,-57.1246,-179.8837,-59.5281,-14.8316,9.8496,57.7272,-128.0787,-14.1457,30.2684,81.0795,7.0287
13.2382,-36.9244,-11.4982,49.9033,53.5124,33.9021,2.3893,-63.9175,16.0985,-146.7135,-89.8331,-60.6513,21.9247,-13.7227,-102.8375,-97.6295,-53.9171,83.7926,30.2575
64.1666,-78.1359,-24.5096,40.5346,17.5515,7.5740,-0.1521,-83.4276,-46.9991,-77.1931,-56.9001,-84.1667,-28.1761,-45.1262,-86.7576,-103.0674,-53.8859,55.6128,41.7045
112.0526,-50.8927,-16.8496,46.1330,-21.3110,-20.2621,-24.9785,-126.4417,-159.5309,-84.5018,59.4653,9.6859,-59.7070,-52.0885,-56.4734,-34.6699,-4.8102,36.4812,16.4619
118.3032,39.2250,-17.7331,44.8098,-17.2892,-47.1270,-60.4592,-141.0489,-212.4789,-98.3784,126.6490,96.7963,-20.9593,-89.7362,-31.5906,-3.7271,10.2696,28.9713,-12.3926
92.5082,100.2715,-22.3389,24.9733,12.8166,-32.0647,-110.4971,-107.9271,-217.6614,-51.2567,91.1246,59.0737,15.8351,-117.0516,-41.2434,-41.1521,-8.5366,23.5641,13.1617
16.1484,80.9522,-15.7651,6.9806,21.2919,26.4592,-108.1141,-70.3031,-175.8236,0.7993,61.0462,-29.5954,7.0268,-50.4323,-32.5521,-74.6945,-47.3301,20.7911,83.0948
-97.7863,-17.4007,-20.6354,-24.5185,-21.1196,54.8431,-44.1878,-47.2321,-82.6246,38.9193,86.7237,-78.3574,-15.8541,51.0718,21.2096,-59.9158,-95.4746,-8.7768,128.2620
-120.7339,-124.0016,-56.3475,-90.7975,-96.6109,4.9896,-17.9923,-16.3943,18.6652,106.5693,95.3464,-101.4610,-60.2783,42.8489,54.6109,-30.2588,-109.3174,-74.9976,120.6822
-10.3388,-121.4844,-91.8040,-140.6336,-160.5213,-69.8452,-56.3804,16.4218,96.2429,139.0621,55.5858,-128.4104,-141.1676,-68.4026,54.0286,-14.6271,-88.1346,-115.1316,79.9304
68.7328,-53.3824,-94.8027,-140.1683,-205.9382,-121.1692,-89.8214,23.3921,131.8568,79.4146,19.7918,-153.8860,-196.0726,-149.6270,85.2777,6.1447,-94.9179,-109.7932,26.3272
27.0149,-62.4228,-89.8907,-140.7965,-241.1824,-180.8624,-87.6677,17.5078,126.9455,74.6926,17.9824,-145.3719,-172.0568,-157.1074,134.8082,30.4434,-135.5603,-123.7498,-20.5061
-13.1415,-72.8881,-99.4427,-156.5446,-233.0231,-245.1905,-58.5610,23.2531,140.6271,200.0029,19.2503,-74.2076,-105.1529,-131.4821,119.5152,16.5980,-137.3913,-148.9858,-61.3277
-0.2307,39.1801,-83.3517,-137.1631,-173.9818,-250.8137,-12.3714,17.5716,197.5008,246.4437,-12.9644,7.3122,-45.2675,-79.0209,59.1034,-30.9360,-80.0433,-114.9697,-111.3263
-43.8624,123.8292,-29.3940,-92.7092,-121.2877,-218.1591,18.9262,-13.8758,247.2565,131.5053,-63.7820,18.7308,-0.4563,-18.0666,51.1242,-52.1953,-40.4432,-66.0058,-133.3883
-154.6930,61.3196,-12.1397,-79.6386,-99.9116,-219.6027,20.5758,-20.2081,276.7822,95.2119,-82.4247,-6.9961,22.7973,-10.1973,91.3754,-29.7044,-68.5886,-91.8471,-84.3899
-207.0071,10.5689,-58.2092,-106.3468,-88.2364,-235.7881,20.1869,29.2833,285.6389,217.2358,-58.1485,3.9272,9.5033,-53.7610,91.9092,-4.4250,-104.1161,-153.1804,-20.2302
-152.8226,44.9007,-92.0149,-149.3885,-95.3551,-227.1546,24.5033,79.2118,228.9169,261.2093,-21.2189,27.4005,-21.2126,-84.0025,47.7253,6.8211,-91.5542,-173.1726,-11.7171
-48.1330,39.7973,-99.3730,-177.6058,-131.4946,-222.5236,12.6348,76.0696,150.2206,151.4250,27.4160,22.9493,-23.7979,-87.7624,27.8559,24.2496,-88.8648,-166.4099,-25.9918
42.2504,-6.1830,-150.2460,-163.6055,-157.8650,-219.4933,-4.8676,42.5917,156.5439,94.9862,85.4442,4.0686,11.7986,-91.2972,43.2971,38.8374,-145.3887,-162.6275,-11.3821
49.2999,-8.2690,-220.8943,-139.8032,-137.9566,-177.9369,10.6116,29.7495,208.7502,186.2832,96.5575,-37.7875,54.6598,-82.7846,61.4602,19.5561,-199.6295,-152.7960,18.6991
-38.8285,-6.3535,-226.1771,-154.2532,-86.2288,-123.8300,63.4628,56.2185,211.7424,279.9376,55.1698,-103.5036,84.2726,-49.4716,88.6184,-3.6266,-216.4094,-137.3153,45.3205
-104.8731,-40.6817,-200.8811,-172.5794,-58.6394,-91.6968,93.9473,93.8965,201.3687,249.2957,57.4702,-126.0933,83.7121,-25.0654,125.8667,34.3244,-233.8263,-122.0765,62.2029
-55.0525,-66.1632,-216.0481,-150.9812,-91.2540,-62.2160,57.3910,94.8615,207.4810,148.7481,129.3447,-86.6084,22.1854,-30.8445,129.2824,104.6417,-217.5896,-104.2019,44.6792
34.8398,-66.3907,-222.1346,-127.1181,-132.7527,-46.6008,16.4436,57.2258,170.2861,97.8388,166.5173,-63.2925,-69.8060,-33.0875,90.2642,115.9607,-123.6095,-92.2219,-9.6647
66.3740,-48.4310,-173.4243,-132.5438,-121.7134,-64.1152,34.0091,26.7915,99.6926,89.3966,129.6090,-85.5910,-92.0875,-4.6636,52.7057,77.0900,-53.0499,-85.1116,-61.3380
56.9540,-18.2330,-132.7592,-132.1949,-97.9346,-53.8475,42.1484,13.2505,49.7926,30.3136,96.5362,-93.0197,-23.3749,28.5707,22.2765,54.6111,-77.5729,-62.4085,-79.3293
29.5865,-18.7310,-118.5951,-91.6912,-93.8655,25.0949,-5.1863,-7.6311,-3.1798,-54.8450,83.7721,-61.3769,48.9240,45.0808,-28.1409,17.9004,-91.9752,-19.9806,-58.8730
-35.0679,-46.6122,-64.0050,-12.1650,-46.7480,115.9387,-13.7626,-16.2643,-56.0006,-80.4273,32.6909,-42.5215,86.3320,74.0213,-80.7871,-72.4594,-48.6545,33.7331,-14.8024
-84.4020,-29.9289,19.6231,74.8199,44.7387,174.7148,46.1260,17.2213,-53.2328,-94.3726,-28.1212,-67.8360,125.6307,129.9463,-106.4578,-141.4141,-46.3411,90.0965,17.9867
-42.9436,32.4546,56.9426,125.9656,98.8946,203.3786,72.7228,64.8019,-47.1472,-155.9540,-12.2392,-86.6817,160.6367,159.2260,-120.1138,-142.5961,-88.7514,126.7462,20.7409
36.3866,79.5289,55.1193,143.6418,126.4753,189.7795,52.1103,95.4205,-122.1922,-189.3302,58.8091,-47.7000,156.0989,115.7678,-132.1832,-134.0528,-88.0546,136.7752,13.6980
57.6420,85.0537,51.3368,148.4952,167.5237,146.1413,54.5185,126.9675,-204.6109,-171.4217,88.7481,1.3587,130.4799,38.9987,-130.2944,-121.8869,-72.8095,138.6701,21.5491
25.6347,29.0997,22.5847,107.6415,160.6707,115.1130,69.7566,173.4872,-188.9247,-185.7528,59.7823,1.7168,119.3493,1.3110,-127.8379,-76.8520,-104.0358,125.8353,56.4065
-32.3500,-63.4160,-21.3629,24.9701,99.6512,93.9071,83.9391,212.8701,-124.2346,-195.1355,20.0565,6.5146,122.8391,14.6733,-129.1009,-71.0074,-134.5153,90.6983,116.3863
-115.3059,-86.6439,-17.1538,-4.0524,88.3967,64.7586,138.9210,226.4651,-94.9207,-96.1955,-17.4510,56.8326,126.7386,24.3858,-91.8462,-134.9372,-134.6718,66.7268,165.0573
-155.8514,-44.1429,13.2267,30.4940,123.7246,38.9171,202.8714,227.6166,-79.3369,35.5801,-53.7538,66.3905,123.2291,-11.6452,-24.1987,-140.9288,-147.3090,53.0820,161.8875
-95.9914,-65.2340,-10.5110,18.7869,104.9202,-0.0715,206.9413,231.7196,-51.0111,56.0134,-54.6230,0.9057,119.6322,-56.2401,-10.6547,-47.9762,-152.9802,6.1771,116.0774
-13.9713,-116.5166,-61.5924,-46.6117,44.6568,-69.7662,170.9153,205.1259,-60.1212,-12.3455,-12.7439,-32.6802,128.1328,-47.8610,-62.7915,0.7375,-91.9159,-48.5252,60.6119
21.3118,-47.9059,-60.5146,-67.2267,21.9614,-121.9831,125.8839,109.2859,-109.7212,-48.3358,13.7855,-2.2054,124.5528,-12.5404,-90.3349,-36.3330,-4.5016,-59.0632,18.5092
43.9321,73.9426,-40.0019,-48.2394,27.2198,-124.1415,70.5967,8.6664,-95.1582,-11.6145,-11.9927,-4.4601,78.3597,-25.1645,-56.7391,-29.9076,12.4152,-62.6256,16.6064
23.0374,68.7065,-73.1668,-70.4882,7.2620,-105.6132,46.6756,-3.9800,20.0445,24.9026,-51.9368,-54.6357,25.1902,-70.3962,-13.0303,50.6742,-45.4474,-98.9306,51.8080
-86.2234,-25.8307,-123.0545,-130.2882,-45.2822,-74.7502,67.2709,19.4076,109.2207,-16.1742,-60.8630,-68.4396,5.6194,-72.0470,5.0485,95.8534,-84.8867,-126.6847,66.0623
-133.7076,-53.4613,-117.7657,-168.6556,-93.6406,-32.0217,60.7369,-9.7653,84.2430,-80.3597,-47.8605,-36.9656,-22.5243,-35.2241,-3.4278,66.3929,-53.3325,-120.9297,38.4716
-4.3160,-9.8715,-75.3173,-158.0438,-93.9598,-13.5468,13.6002,-18.9123,29.7383,-48.5211,-49.2066,-28.2708,-92.0630,-24.6517,-25.2980,19.5091,-10.9430,-98.7668,28.4401
111.2879,10.1901,-42.5293,-103.0885,-50.8331,-12.7784,-3.8640,66.5532,25.1820,49.3246,-69.6469,-58.4733,-140.7603,-45.9927,-25.9925,-14.5366,-14.7743,-54.5257,60.0064
59.7145,-11.0252,-16.5363,-36.4974,-17.4663,9.1169,17.0444,133.7718,22.2227,82.8807,-70.0496,-78.4034,-125.6436,-57.4404,-1.2606,-42.9915,-16.3883,-1.0311,72.6371
12.3272,-21.9485,4.2510,2.7202,-21.0354,26.1036,21.8565,89.9300,-16.5739,47.2184,-28.6660,-68.7306,-104.9519,-44.5201,3.4374,-63.5990,25.1517,18.5491,37.7974
93.8866,-10.0396,-3.7691,12.8644,-45.7847,20.2418,-10.2665,34.4972,-40.2625,21.2437,17.3644,-84.6575,-125.0275,-21.9939,-13.4932,-69.7297,50.5241,18.0463,9.8697
150.4339,-24.6543,-27.0060,16.1645,-64.4392,46.0959,-52.4461,56.0642,-21.0739,11.7305,36.2126,-164.7456,-139.4283,-10.3080,-13.3271,-67.4541,27.3416,41.8009,20.3634
95.1205,-83.2185,-14.9783,36.9118,-43.8692,107.7699,-54.7565,92.6490,-13.4901,-3.2958,41.2621,-240.2259,-95.9951,-16.7104,-25.3181,-78.7410,13.8221,87.3657,23.0155
49.0957,-120.6087,50.0738,100.3212,14.5960,150.2490,-7.3458,73.7592,-74.6722,-33.6406,27.9868,-232.1348,-17.4499,-13.9206,-87.9284,-116.9089,27.3391,141.4716,-14.8646
52.9237,-93.4265,136.9027,185.8284,57.2998,178.1275,18.5960,13.2445,-174.7337,-113.4140,-12.8205,-176.8931,41.3792,21.1741,-130.6082,-143.0189,17.5925,186.5113,-56.8009
16.6334,-52.0165,197.3492,221.5584,61.0075,198.4085,-15.1573,-46.2505,-222.0614,-219.1071,-23.0310,-141.9330,59.6599,57.2602,-86.0420,-102.1940,-13.9868,176.0088,-76.1360
-46.5959,-41.0361,196.0352,183.1031,55.3179,164.1229,-43.1908,-79.9372,-195.1398,-243.8967,22.9340,-115.8739,46.9613,66.8616,-27.9881,-21.2836,-13.2948,123.4482,-95.8740
-28.0477,-37.6596,146.8368,123.9022,54.9469,99.6734,-25.3692,-96.0927,-165.2898,-167.8139,25.7626,-76.9324,13.9279,81.3759,-46.4611,11.7621,24.9056,109.1552,-112.5115
61.5924,-33.7016,107.8316,89.0538,64.0880,84.9024,-0.0986,-115.2898,-153.5520,-91.9265,-60.4370,-54.0029,-21.1277,108.3099,-90.8788,-25.9995,44.4849,129.6937,-91.1265
88.0447,-57.3015,102.9946,75.7298,88.1696,95.3360,9.1570,-122.1276,-119.6563,-69.1232,-121.3684,-65.1915,-24.1048,89.6057,-66.3877,-71.7545,3.9564,115.2655,-47.5197
9.9720,-97.1003,93.0542,61.9515,94.8769,62.3402,0.8332,-90.4522,-93.6329,-63.8824,-92.2255,-84.9439,15.4606,16.3611,-1.8433,-80.7923,-67.3674,76.4587,-16.3565
-45.2172,-109.6480,48.4729,29.1118,60.8579,5.7802,-26.5101,-42.7574,-116.9236,-39.5543,-48.3371,-85.1772,48.8804,-40.6045,8.5137,-79.4037,-109.6409,49.5380,23.2971
19.2676,-89.1161,-16.2043,-19.8671,18.1512,-36.5785,-40.0075,-17.1819,-121.5302,25.2665,-26.3223,-71.4305,17.3292,-60.6640,-15.3571,-101.0916,-119.7387,1.8724,85.3076
113.1261,-65.2763,-84.5799,-68.7497,-16.4422,-68.9135,-21.4758,-6.5423,-53.0952,129.1001,-3.6841,-75.5369,-60.0984,-89.2750,21.9585,-112.5426,-127.1311,-76.2815,132.9933
97.9723,-67.6633,-141.0688,-119.8766,-49.0674,-84.9659,-4.3024,21.4439,26.8274,222.8912,-20.8466,-98.1780,-102.0016,-117.8689,92.4429,-57.4361,-111.0778,-135.5230,155.6187
-15.9398,-101.5013,-155.2494,-175.7690,-57.5449,-87.1203,10.5234,63.1045,63.6452,265.0937,-98.1136,-93.1610,-85.3227,-97.7911,87.0114,29.5864,-54.8679,-162.1025,163.5769
-100.2949,-116.3229,-127.7296,-211.0771,-47.6030,-102.1146,41.3833,68.3236,60.3300,265.2261,-144.2115,-51.7608,-71.9605,-46.8485,28.2910,55.2299,-13.3313,-171.5616,128.9369
-72.8073,-56.3968,-100.6859,-206.1476,-60.0194,-114.7270,44.2148,15.0821,22.4088,234.8124,-104.8939,-16.7168,-89.4659,-17.4729,13.3196,22.3020,-10.6985,-157.4784,51.3805
13.5506,30.9187,-80.7938,-164.3537,-77.8520,-98.6654,-4.2771,-38.7378,-6.4162,173.4204,-50.2526,17.8008,-93.8334,-13.8530,20.6261,-0.6673,17.0096,-126.8821,-11.7110
43.8676,69.4532,-27.2427,-88.3878,-66.2774,-90.8532,-47.2604,-48.5181,22.9360,110.5264,-42.7278,90.9311,-70.0471,-16.3845,-13.2848,-34.6680,95.6358,-95.6980,-48.3887
0.7565,106.6523,60.7035,3.4028,-42.6342,-119.2827,-60.8216,-59.5377,56.0843,81.8900,-65.3085,171.2548,-46.9195,-17.2574,-60.2754,-107.5941,159.6665,-52.3935,-88.4119
-30.0142,190.1410,129.8905,65.0757,-15.0842,-139.2731,-74.9965,-102.5682,36.0898,76.7145,-84.7114,202.6182,-29.3590,-8.1303,-84.9637,-120.6310,161.8866,-4.6892,-116.2758
-13.3487,222.3337,158.5122,78.6327,11.3883,-113.6569,-94.1552,-135.8572,18.5538,59.7323,-84.7463,195.7966,-23.8178,10.7288,-96.6555,-38.1983,131.2921,16.9620,-122.9864
23.9363,170.4255,180.6638,83.0446,-0.6259,-62.0402,-119.6511,-152.9810,20.5682,19.1319,-60.4473,180.7511,-51.0844,30.3122,-86.2732,-16.5591,118.9496,29.6420,-149.1833
81.9670,160.1874,220.9444,114.8938,-25.9830,-18.2893,-161.0546,-185.9903,-36.0337,-35.5901,-12.2953,156.6886,-68.3332,56.9434,-57.9753,-113.0307,132.4850,58.2883,-195.4011
126.3207,182.0160,258.7108,149.6755,-11.5967,-2.1249,-192.1119,-206.0954,-131.6626,-95.1689,60.9787,127.0137,-16.6316,89.1038,-50.6736,-154.5063,126.6150,71.2141,-219.8271
90.8730,108.4766,264.5541,139.0553,-12.2655,-4.0973,-197.7209,-183.4728,-160.5910,-152.1190,129.2405,107.8326,51.2153,101.3523,-57.2874,-75.0928,83.9660,56.7347,-224.7379
48.9592,40.6790,241.2850,101.2516,-56.7074,9.4226,-198.2641,-161.0909,-142.2255,-192.7530,128.0043,111.6187,50.8799,92.4668,-50.3047,-31.8051,68.9323,55.6566,-228.8035
129.6501,127.0736,213.0419,98.1188,-46.8589,41.8541,-188.1170,-154.4651,-176.6090,-196.2986,67.4361,140.9147,13.9043,89.7157,-56.4503,-77.2318,114.0276,61.1985,-218.9527
258.2201,201.3766,186.2025,105.5845,17.2871,56.3952,-164.8657,-122.4135,-256.8593,-156.6111,50.7874,166.1294,20.8323,101.9458,-91.3008,-84.2498,135.9881,25.7819,-190.3303
271.7457,115.8858,149.2115,46.6120,27.8343,36.0178,-158.0913,-80.8673,-306.0984,-114.6217,96.7527,161.1655,79.1849,127.5763,-122.2446,-30.5748,85.9647,-31.7803,-158.6622
189.9754,62.2335,111.8918,-35.4398,18.4871,3.6887,-152.8440,-86.1025,-308.7825,-133.0250,96.7357,172.4850,133.4046,164.0380,-133.3101,-26.4563,59.3342,-55.7175,-143.4458
124.9565,153.8784,104.3746,-39.3857,59.0962,-10.8256,-126.5386,-120.0641,-302.3596,-213.3341,22.3445,238.4986,122.6054,180.4532,-121.5354,-75.0571,126.4522,-46.6870,-162.2001
91.2960,201.4172,124.5774,-8.8189,66.4587,-3.5231,-125.1749,-119.4948,-300.9991,-284.8328,-22.7853,276.7662,47.1822,152.6066,-91.9358,-72.5149,195.3470,-35.1358,-183.6699
52.7108,121.4550,129.1660,-33.9693,10.6165,-4.3311,-149.0974,-80.1680,-276.7757,-290.9283,-3.1689,204.3849,-9.5894,108.3104,-91.6693,-13.8977,166.4009,-26.8268,-154.4373
14.8671,53.3752,95.2174,-56.4888,0.4129,-26.7058,-128.2953,-55.6094,-222.2210,-234.0963,13.2899,92.8996,0.9847,85.3638,-126.1647,6.5932,89.2468,-19.5078,-119.1787
29.0782,58.6908,55.3061,-2.2297,45.8344,-32.7877,-90.2950,-72.1797,-201.9070,-161.3254,21.3535,56.9466,27.7663,97.4932,-123.8375,-24.9372,55.8039,-13.8128,-152.1454
114.5959,89.1011,54.6326,61.4187,70.9636,-11.5055,-108.2916,-91.4104,-264.4052,-146.3869,67.6757,92.6062,45.2241,131.8036,-93.9510,-38.1281,59.6511,-0.4473,-190.1531
160.7041,116.3461,99.3248,75.1941,90.9246,-10.3403,-134.7752,-82.6691,-341.4274,-202.7283,122.0764,129.9329,93.2175,129.1507,-125.5651,-38.5991,56.8948,27.7021,-149.2817
67.0096,107.4165,155.8181,90.1005,129.8639,-26.3235,-119.3111,-77.9052,-345.8796,-224.7215,136.7753,131.6534,156.5681,60.6848,-194.8925,-86.3596,49.0952,62.6553,-90.2716
-36.0746,34.9919,180.7823,128.2877,144.7542,-2.7846,-114.0274,-90.4222,-296.2392,-158.2838,134.2246,89.4923,174.7506,17.9242,-206.3341,-135.7711,36.3461,88.5980,-74.3041
-0.3860,-72.5885,154.0081,141.4080,118.7394,46.1767,-129.9027,-78.2209,-241.8466,-118.8827,126.7691,23.8112,146.2310,62.7887,-157.3154,-108.9542,7.7438,92.2223,-58.9700
55.2970,-158.2763,99.4963,124.0313,69.2895,65.9541,-123.1762,-47.9868,-183.2830,-159.5002,99.4595,-17.0400,105.5363,89.7054,-88.7754,-65.1660,-8.2766,75.2378,-40.0774
2.6039,-158.6329,60.4958,111.7281,26.8025,61.4537,-110.1146,-46.1758,-132.4071,-150.5655,94.0131,-24.7642,78.7826,22.4790,-22.8753,-78.6446,-4.6804,52.7877,-52.3168
-65.9993,-82.1327,45.5867,101.0545,46.5848,43.6112,-97.3243,-44.6982,-111.7555,-54.4972,132.0350,-36.1248,91.9363,-48.7014,-7.3417,-89.5514,-30.9700,33.2924,-50.6047
-95.3223,-51.2351,31.8738,74.5836,111.9371,7.0081,-47.0717,-11.3879,-90.7273,-1.5736,131.5815,-40.3047,127.5786,-60.2065,-60.0625,-61.6277,-64.9076,20.4604,-5.8576
-130.2496,-87.1786,16.8623,51.5080,127.5622,3.3223,-1.6277,-5.8454,-51.3478,-20.6120,62.6321,2.4903,126.6067,-48.4591,-120.0821,-67.4625,-26.6862,22.2784,15.2080
-102.9233,-52.4260,11.6479,48.4944,91.0484,63.7215,-23.0134,-46.5544,-35.8878,-35.7237,17.7044,52.6575,86.1687,-11.3796,-132.5141,-110.4456,28.2239,27.3056,-7.0032
5.8221,26.0334,-0.7522,38.6625,71.6981,105.9308,-46.2362,-49.9362,-28.5592,-56.0750,26.0662,44.0123,56.4640,45.5843,-81.0255,-114.1089,-13.3244,8.7105,-15.5233
21.6666,-21.3492,-31.8006,0.3961,56.0159,76.1395,-1.2653,0.0437,37.7643,-82.6765,23.4262,6.1490,56.6529,33.4863,13.2360,-78.8177,-87.9727,-25.8029,-8.2507
-82.6544,-118.9341,-45.5149,-31.6205,17.8160,36.3501,48.3990,20.9702,100.1868,-38.7679,14.9322,2.3021,79.4351,-54.7028,61.3379,-38.3703,-76.3566,-42.9970,-19.2631
-117.8142,-81.2422,-17.4779,-19.6814,0.4208,22.1028,33.6215,-9.1256,46.7834,49.2970,36.8674,23.3005,103.0799,-101.7515,25.9818,8.0084,-22.2982,-37.7192,-38.6484
-67.0554,13.6252,17.0768,10.1339,13.8697,7.3177,-8.1166,-34.2622,-26.0592,77.1937,41.9063,30.5948,81.0234,-71.6662,12.2532,17.4148,-6.4776,-20.0225,-56.4862
-66.2405,23.0485,25.3555,13.3846,24.3496,7.6895,-19.6147,-24.7081,45.2742,58.9605,1.8851,7.3421,17.3945,-27.6145,66.2987,-29.9456,-10.7700,8.2366,-78.0524
-95.9344,-11.5097,15.0793,-8.4552,34.6232,40.7316,-6.5086,4.1955,178.7646,59.4262,-24.1271,-46.7083,-13.0811,18.6296,93.5362,-25.8349,-25.2881,24.5002,-85.6977
-92.4811,-54.7246,-11.9854,-33.0767,46.6200,65.7212,-5.7346,26.0747,213.8291,74.2868,-12.8574,-92.1562,8.4212,71.7552,89.0270,76.0569,-66.5148,10.1745,-78.9489
-106.5484,-123.2445,-53.4075,-41.2890,38.2060,68.1841,-24.1909,23.8395,201.7181,88.9948,-7.8298,-87.3527,23.4795,79.7735,139.8046,135.4023,-95.7762,6.7184,-89.2216
-130.4425,-141.5126,-60.5544,-7.5122,14.5106,76.0340,-33.1541,-2.3495,216.0376,73.3948,-25.0388,-62.1097,15.6384,28.4245,200.0830,72.8038,-86.0042,48.7388,-112.7526
-85.9700,-69.5320,-3.9157,55.2230,-5.7122,82.7897,-20.8221,-46.0851,170.2625,-17.4928,-39.3352,-45.6915,15.4595,-17.1040,170.9254,0.7343,-66.2339,81.6327,-115.7628
-14.3281,1.5311,47.8470,73.3981,-14.7822,76.2615,-8.0124,-84.9114,62.0253,-115.1624,-22.9001,-13.6929,22.0042,-13.7339,94.0760,6.7799,-38.4059,48.4504,-93.8428
-5.1571,14.5743,21.0185,13.6885,-15.1654,71.8053,-7.1277,-79.4564,28.8157,-119.3468,26.4563,4.8444,12.9517,14.2618,61.7162,44.5865,9.8150,-11.6646,-67.2904
-34.1667,-18.0572,-43.3324,-53.1241,-40.2975,56.6333,-17.9909,-44.2574,57.3819,-91.6998,62.9447,-35.8504,-17.0470,28.5983,89.1780,63.4244,46.9814,-34.8424,-58.8666
-36.1486,-77.5774,-64.6260,-53.3811,-96.7932,18.1411,-39.8150,-45.9121,33.1483,-108.1173,52.9100,-56.8472,-52.8434,21.5753,139.8029,68.7417,52.6692,-24.0652,-80.7804
-11.1495,-91.3133,-49.0242,-16.7984,-115.1593,-1.1986,-52.9257,-84.7544,17.4012,-92.4595,31.0962,3.2775,-64.8065,10.0756,161.0538,73.6385,38.1532,-20.7400,-111.9231
-0.0129,-12.0150,-46.8601,-25.9137,-84.2790,4.4060,-46.3035,-109.1772,106.2214,-10.9793,17.6433,48.6379,-45.4864,-1.4915,139.6786,85.2918,3.6039,-48.6373,-123.9394
-30.8686,57.0093,-62.5468,-94.7846,-94.0083,-30.4569,-45.7998,-127.5228,204.5109,36.7800,-10.1238,38.3043,-25.2020,-20.7288,126.0952,115.5569,-35.5134,-101.8943,-115.4870
-88.8538,15.7014,-84.8554,-160.3317,-148.8737,-101.8002,-48.4230,-148.1707,211.7448,16.7004,-18.7875,55.7342,-18.7767,-26.5858,135.4432,164.8397,-50.5991,-152.6228,-80.0051
-134.0353,-73.5032,-123.9470,-187.8573,-160.2008,-122.0515,-13.5194,-116.6428,174.3588,-7.2961,33.2371,78.3970,-15.3712,4.3317,133.3113,196.8192,-57.2555,-174.3058,-14.6249
-140.1647,-103.7343,-164.6647,-199.2450,-127.4502,-76.2791,33.7516,-47.8350,130.8406,-3.5497,82.5706,32.6681,-18.6535,43.0515,129.3441,165.6268,-69.6231,-165.5350,25.0408
-87.0735,-63.9284,-164.0148,-191.4488,-108.9255,-29.5912,19.8438,-44.3003,68.5191,18.6816,72.8743,0.7738,-24.3454,58.4242,131.6808,96.7401,-60.5535,-141.5875,-11.3492
11.0133,-28.0329,-117.5308,-141.7296,-99.9416,-3.1731,-45.4365,-112.7459,22.8502,28.6383,55.3541,52.5587,-9.5678,70.0946,105.9074,72.6389,-42.1229,-112.5699,-81.4682
60.2583,-50.0484,-60.3552,-81.9578,-72.0687,25.0466,-80.1400,-158.5777,23.0626,-1.5817,56.8954,92.2405,13.4987,82.8933,76.1837,100.4877,-50.6725,-78.2933,-119.3762
-2.6933,-71.6304,-13.3802,-45.8314,-20.7036,52.3151,-52.5482,-154.0228,32.2589,-23.4328,31.5936,61.6827,18.5160,57.5632,78.9760,101.2188,-45.5708,-36.3797,-114.9369
-109.2196,-30.5496,24.1198,-1.0055,30.4579,65.3558,-9.5924,-143.1494,21.1984,1.5903,-19.3418,17.0676,20.2050,-2.5380,52.5610,48.6576,15.5970,12.6063,-83.5272
-171.2688,-4.4235,57.6523,70.7616,27.2174,69.3088,-3.3754,-134.7153,-14.0063,-16.1805,-49.8397,-12.1899,24.7951,-32.4354,-24.5727,-4.4336,68.1437,69.9412,-45.4225
-157.9696,-47.6531,89.3912,131.9532,-16.9190,75.7729,-19.7478,-97.6987,-76.2498,-116.3956,-47.1488,-16.7438,4.0366,-5.7381,-66.9622,-23.5290,46.9204,127.2790,-15.0162
-56.6176,-58.3647,104.1930,159.9902,-3.5751,87.0468,-4.5151,-23.2468,-128.8725,-160.7048,-15.9735,15.3319,-36.1818,19.8693,-69.3931,-11.4401,-3.9341,144.6908,30.1089
55.4790,-7.0711,87.8524,142.0822,59.7100,75.9133,30.4876,39.9761,-123.8460,-77.0372,23.7309,33.7279,-66.0841,-17.1870,-83.0017,27.5386,-18.6198,92.9800,89.3675
36.3952,-12.9283,58.3045,59.8451,59.3403,-1.1656,16.9099,26.3293,-71.1887,21.2338,25.6082,8.0056,-92.8086,-92.5350,-43.5854,79.2041,-7.0362,15.7826,93.0488
-73.8918,-91.5352,28.4240,-35.0729,0.9441,-124.9885,-36.4884,-44.9105,7.8300,65.5677,-14.8322,-9.9823,-116.8100,-118.4407,84.8855,114.5339,-15.5462,-29.1506,32.3618
-105.5025,-145.2162,-22.0260,-72.0873,-26.3786,-201.1146,-51.2077,-78.2656,108.7082,103.3636,-48.5990,-11.1860,-101.8985,-58.6954,177.3463,120.8147,-50.2975,-57.2829,11.9930
-82.6832,-158.7118,-86.4241,-96.4114,-32.3437,-183.3931,-12.2173,-45.0435,176.5584,131.7625,-53.0597,-24.4769,-50.3603,19.3307,166.8987,124.5793,-73.6447,-96.5183,70.3266
-131.8017,-153.9547,-122.9616,-164.1925,-57.8893,-139.6321,33.0685,-8.4684,158.1389,104.8943,-45.4643,-12.8177,-15.2908,30.9422,137.1219,155.9851,-62.8316,-116.0310,122.9266
-186.3936,-112.1262,-128.6364,-195.7410,-80.7192,-142.4084,59.7105,-3.6099,114.7270,60.6652,-52.9368,31.2827,-17.4730,-26.7692,126.6985,180.0240,-35.4494,-95.2562,130.6772
-141.7604,-63.3725,-122.7000,-127.8250,-81.0091,-164.7598,66.5909,-8.4109,125.3641,67.1919,-90.3312,37.9936,-23.9338,-85.3083,100.9543,140.1679,-16.1106,-61.2197,131.4643
-70.3264,-66.8676,-87.4866,-46.9178,-55.5472,-131.3471,62.4868,-7.7397,138.2078,96.6768,-111.9581,7.5682,-2.2948,-84.8228,63.4132,77.6005,-18.4994,-20.7573,125.5263
-39.3960,-98.1130,-20.4537,-19.9361,-0.6314,-28.1919,69.3963,-4.9177,65.4322,68.3412,-63.6792,3.9605,41.0518,-27.2996,12.9197,56.8926,-35.5944,40.1878,98.7979
-4.8609,-82.2423,32.2894,11.5335,58.0586,76.1022,91.2627,-5.4888,-54.2876,-15.2984,-4.3323,30.5104,68.4953,34.4103,-78.0949,21.1441,-24.0368,103.4497,91.5173
32.9896,-0.4864,47.3232,80.2913,98.4438,108.2119,112.7864,-10.8788,-113.9751,-76.6959,-10.3007,57.3216,54.6432,45.7549,-158.7946,-68.2963,30.0918,138.1685,128.6753
40.8108,70.4290,31.6648,121.2362,108.9506,66.6333,125.3887,-3.5288,-92.0583,-91.4165,-25.0726,55.2438,17.0007,-3.6544,-135.3814,-98.1331,56.5337,133.0880,171.3431
53.5037,39.7757,-16.0896,94.3055,52.0869,11.9448,110.1777,34.5908,-46.6453,-80.1988,3.1549,-9.3503,-10.9976,-65.0075,-35.3036,-29.4639,19.8283,97.0586,191.5746
75.7146,-53.7684,-59.2246,45.1708,-38.3323,-2.0045,59.4552,91.8766,-4.9138,-4.5412,11.5052,-95.6599,-18.9722,-79.5284,14.9317,0.9398,-5.1158,62.9402,208.6458
43.0464,-92.7757,-38.1110,19.4226,-46.5366,25.8631,28.5832,152.7295,49.2264,159.1918,-4.8421,-120.1062,-17.5475,-58.0254,-12.5880,-43.0667,13.8629,51.4783,231.9381
-29.0759,-70.9767,9.4756,3.7765,17.2376,51.4539,67.0542,211.4080,112.1875,301.7580,19.9082,-91.2212,-11.1993,-52.8493,-11.8880,-51.5778,-3.3238,40.7545,234.9314
-46.6696,-55.3228,-5.4780,-16.4164,43.6834,39.3763,135.0996,242.6793,166.1322,312.4987,28.4771,-53.1271,15.1639,-51.2587,63.7962,-19.9090,-86.8057,30.3588,202.5179
-9.6419,-54.3360,-55.6462,-8.9205,48.0447,15.0771,174.6067,228.9333,206.4449,239.5973,-53.3181,-12.2805,63.6882,-13.5669,128.3221,-10.4418,-154.7477,56.4388,166.1991
-16.6164,-69.9222,-50.6002,37.8809,74.9190,27.9665,180.3559,206.1732,218.3024,197.6554,-119.5095,-17.1734,90.1062,14.6237,135.0809,14.4349,-144.8198,98.6888,161.6830
-87.5166,-99.1400,-10.9559,64.9786,63.0095,67.9426,164.7492,211.8095,201.4785,221.1628,-88.4355,-89.3363,61.2706,-9.8854,141.8178,69.6326,-87.8278,97.3557,171.7090
-115.3756,-73.1503,-22.2818,31.5540,21.6043,86.9538,148.9237,224.1557,213.8630,265.4302,-82.7314,-120.6879,20.9445,-13.5690,160.4347,83.3951,-50.0324,56.3356,159.6006
-47.3849,18.0363,-77.2666,-18.4813,36.0623,77.3367,168.0689,208.7214,280.6361,282.0546,-165.5727,-60.0707,18.8037,46.5866,136.0134,62.0122,-38.3959,13.3511,135.5329
7.9939,90.9796,-95.6366,-31.6826,60.1319,49.1810,211.7753,174.7306,321.6513,274.7316,-184.8815,-3.7278,28.4958,72.6770,75.3593,67.2420,11.6203,-17.8879,123.4919
-30.1577,132.1383,-52.9736,-12.2657,25.1184,-3.6307,218.4251,148.7363,279.8961,260.1563,-58.6614,11.0639,13.2874,15.6733,36.7674,78.7294,101.7117,-18.2313,101.6185
-63.8546,156.9873,-2.4525,4.6305,-0.6643,-46.3900,166.2603,136.5383,210.5703,202.4895,66.6543,30.5490,-8.4505,-25.0430,45.2947,69.5249,124.7776,9.1958,53.6662
-12.8490,133.1490,9.1916,-4.3133,19.3570,-22.1648,108.3204,136.0630,173.9995,103.5104,61.9043,55.3631,-16.3044,5.0921,90.8591,61.8323,58.8264,14.5294,28.0185
31.7328,123.9771,-6.7053,-20.7898,30.4396,42.4982,96.6853,151.4591,169.9871,64.2600,-12.8117,96.8861,-18.2149,37.5647,127.7506,41.7787,23.7380,3.3339,60.1648
12.3826,199.3564,-11.3343,2.1613,34.8951,83.2034,103.7909,167.4209,172.8097,96.3993,-51.8606,166.9726,-10.2149,32.7507,106.6072,4.3356,56.5002,38.9564,92.1258
18.2533,234.1086,16.1564,63.8635,50.2674,108.7420,62.5795,147.7410,137.7239,70.9581,-42.2090,175.1866,20.7526,21.0472,60.3647,9.9374,63.7453,103.0566,62.4385
72.0455,162.2181,64.5030,104.7124,47.1657,135.5494,-6.6096,97.7589,59.6760,-18.8276,-18.4172,87.5150,57.6889,16.9064,53.1577,57.2178,14.1626,125.0256,23.8244
75.9743,130.3943,97.1952,99.9643,46.8910,129.3616,-8.5167,75.6871,25.7307,-41.5856,-10.7174,30.3742,62.0333,24.4068,73.1988,69.0441,-37.9513,114.7149,59.7480
23.5999,157.8494,94.5227,89.0559,78.7318,108.3741,60.1764,96.4745,63.9115,-6.6153,-44.0628,53.0233,22.8681,58.4902,90.2413,45.1609,-53.1435,116.8952,129.3370
1.2884,135.1952,95.0483,109.3692,96.7997,132.3656,110.8131,103.5540,61.6295,-23.7721,-91.9119,66.8479,-17.2153,94.8107,98.9608,32.6276,-11.8400,131.1823,132.6648
0.2814,122.7367,136.0961,157.6911,95.1430,167.4747,127.4099,80.3677,-13.9316,-65.9718,-84.7772,49.8030,-10.8198,90.9666,63.5916,14.5696,61.1430,149.8291,90.0754
-35.0527,160.7813,174.0944,191.1364,116.4337,151.4045,145.6187,83.0161,-45.5349,-59.7270,-41.9552,33.9862,21.8831,63.9187,-13.3027,-14.4754,93.6731,161.8347,100.1219
-50.9187,138.6066,155.9977,166.1285,122.1588,120.4387,137.9796,122.4232,-12.4608,-47.5837,-59.7916,15.2721,22.5530,54.9493,-49.8424,-10.0526,87.1682,138.7537,162.8053
16.4929,115.1271,118.0216,111.7727,74.4744,107.4317,94.3468,134.0476,-14.3244,-70.2257,-113.1174,21.7744,-14.2345,58.6738,-47.7389,10.6685,103.4269,92.6454,201.3367
94.2863,204.1286,116.7119,96.2474,31.5537,68.9072,76.9587,98.7839,-47.5801,-67.3439,-86.3063,68.6649,-47.3103,58.9990,-87.2476,-4.8328,120.4384,65.7892,202.3089
94.9895,239.2504,137.4882,106.8228,18.2251,12.7764,89.1134,77.8723,-42.7950,7.0106,-18.7441,86.2503,-56.3138,61.2531,-120.8952,-20.6163,94.4199,56.7792,201.1796
53.0817,116.6313,141.7376,82.9235,-0.3455,2.6407,75.5748,97.6446,-26.2385,92.4237,-38.3389,62.4934,-44.2677,52.5985,-49.9804,18.4910,65.3662,48.9817,197.6416
