Fp1,Fp2,F3,F4,C3,C4,P3,P4,O1,O2,F7,F8,T7,T8,P7,P8,Fz,Cz,Pz
24.2158,-92.0009,33.0185,-1.5109,51.0700,27.4694,2.9231,33.2694,-18.1294,29.5836,-12.9078,-91.7604,3.7806,-19.2160,59.5490,4.1557,-10.9355,75.7000,11.9908
-50.9066,-112.3807,67.3417,83.9016,50.8798,110.6467,-29.9380,73.0201,-10.2575,-16.7599,-115.7737,-62.5564,43.4249,79.9288,77.8052,-4.0228,-47.4821,65.0458,38.4574
-112.4845,-85.2191,53.3585,100.2386,1.0219,152.8355,-42.2030,78.9303,42.9542,-169.7738,-164.3528,-68.7673,68.9738,138.1492,82.2442,-97.1475,-43.2858,24.0781,39.1259
-184.1885,9.1577,17.6966,74.9761,-56.1257,111.1864,-6.2741,24.4359,113.7125,-255.4663,-165.4832,-131.6756,76.1049,100.3404,84.7015,-160.1993,-50.3445,-7.9872,15.4307
-166.6319,19.9584,-32.3657,69.4316,-55.6721,60.6838,59.9141,4.5005,148.9924,-141.0467,-176.9452,-168.0322,81.7977,81.7355,87.0473,-106.0235,-74.9915,-0.8620,29.4837
-97.4604,-112.8449,-99.3021,62.1329,-5.4075,72.6717,114.2228,70.5577,172.5554,28.7401,-190.6175,-147.5328,66.6696,134.0301,89.6492,-67.4053,-62.5447,-5.8569,84.9541
-163.3525,-145.6548,-127.5816,12.3295,30.6135,90.3626,145.0384,121.0906,213.8116,103.5063,-187.7094,-109.6754,46.7578,120.1661,96.7033,-109.5994,-53.0346,-78.5143,113.9833
-268.3389,-2.4196,-110.3128,-54.7575,5.7055,36.0401,157.7722,109.5163,223.0901,117.1212,-174.1793,-61.7183,71.7151,20.3151,95.5129,-65.7313,-82.4189,-152.0066,95.2182
-173.1055,-26.7720,-125.9406,-78.3885,-66.5054,-36.0626,130.8186,128.6241,177.9357,109.6860,-142.9008,-21.6138,118.9662,10.2693,72.9024,95.9264,-85.1804,-148.4681,67.1037
5.1184,-239.1644,-176.7322,-61.3424,-122.0824,-52.6318,60.6845,171.3628,133.4648,94.7169,-93.6012,-12.7980,142.5367,82.9872,41.1468,156.4566,-64.7250,-132.1142,52.6553
5.1510,-150.3181,-171.3678,-78.4435,-106.8952,-70.9651,12.0292,123.2633,113.5245,122.3965,-51.7149,24.6645,156.5600,51.1403,15.7342,71.6818,-73.2981,-154.0075,51.6257
-115.0071,212.3387,-93.3474,-140.9166,-56.5606,-133.8409,28.8898,25.4171,106.7131,149.7229,-34.8627,123.5003,154.1478,-41.7029,-3.4598,46.0732,-54.2144,-143.2871,50.2754
-122.8050,260.5669,-35.6925,-163.8535,-93.0232,-152.3312,51.5952,0.3433,128.0591,87.0222,-28.2089,191.3260,101.2238,-15.0855,-18.5797,114.6022,4.0644,-113.2572,18.6122
28.9399,13.7371,-53.1455,-120.9304,-248.6908,-96.0241,16.7654,7.1094,152.8768,20.9585,4.4618,170.9192,57.1852,71.0787,-30.6489,127.0418,7.7165,-153.2347,-40.0395
153.5869,-31.6638,-65.0542,-71.9913,-344.9731,-72.9432,-40.4569,-31.6381,109.1135,74.4539,55.5785,117.2469,105.6666,70.7627,-39.9644,97.8884,2.2416,-188.3475,-79.7978
95.3393,112.2953,7.6433,-46.0029,-242.7103,-126.5100,-68.8474,-74.7790,9.1274,153.5230,56.8242,101.8262,188.3206,21.3500,-38.1980,126.5423,88.5800,-135.9989,-96.7327
7.9712,270.6388,52.5925,-51.7435,-103.6259,-181.3161,-81.1264,-113.6474,-55.9791,110.6828,9.5833,197.2816,193.5862,-2.0328,-22.1315,131.6592,174.9157,-117.3900,-131.0676
94.2424,544.0536,-59.5549,-93.4650,-111.8636,-184.4340,-86.7499,-183.7696,-51.8581,-17.1811,0.5921,397.6715,152.4209,10.1714,-4.5164,38.3648,181.7792,-167.7151,-170.7067
163.3323,691.0820,-180.1788,-97.3586,-154.5596,-135.9533,-64.7732,-212.0608,-15.7401,-88.6364,10.3057,509.1055,182.3120,68.6188,9.1159,-23.4228,192.9474,-140.8305,-171.5962
22.8948,406.5252,-129.7402,-18.7050,-115.3132,-71.6644,-39.4424,-147.0948,7.6175,-43.2832,-47.4861,404.4906,273.2754,116.3300,26.2347,24.3778,215.6487,-80.1915,-163.7258
-38.5123,170.1942,-57.1879,38.3192,-131.4335,-55.7833,-61.9020,-97.6203,-7.9271,19.3660,-101.5335,274.6927,292.5050,89.0166,43.6024,59.6541,206.0814,-136.0008,-208.1237
136.1386,372.9518,-112.8857,23.8431,-247.9423,-72.5727,-119.0863,-128.8768,-57.5469,-44.9139,-59.1143,315.5385,229.7238,95.1479,54.2709,13.7457,241.7339,-190.4133,-272.2664
194.7971,505.7149,-125.5212,46.9730,-268.9352,-43.0499,-169.9834,-172.1484,-137.5804,-196.0960,-20.1408,424.9433,230.0521,207.0972,66.3038,-34.4442,310.0938,-117.6992,-281.3660
100.3048,406.3884,-22.5609,116.1029,-162.8001,-16.5973,-228.2724,-214.8141,-265.6730,-269.7621,-54.8894,464.3522,292.6185,258.9401,80.8080,-53.2559,283.2344,-79.3713,-261.7849
261.4225,679.0610,-37.7092,102.3180,-136.5153,-86.3869,-308.1675,-294.1351,-388.5154,-263.1756,-60.3158,484.2657,244.8476,180.8855,79.7834,-92.7891,240.6313,-149.9731,-288.8233
554.8085,1200.9471,-199.4089,18.1000,-236.2070,-154.9361,-355.7717,-353.3143,-393.2085,-277.8942,-28.0578,527.1988,129.4794,148.9818,59.8417,-163.0375,306.1654,-160.4382,-341.0761
487.4709,1191.2338,-242.5308,-9.4487,-301.7451,-109.4507,-328.9852,-347.0439,-305.7776,-292.2105,-72.2337,519.1734,179.0712,198.1845,38.9581,-234.7012,328.8289,-90.2104,-367.6421
233.9246,806.0761,-145.7253,15.2986,-287.0793,-58.8566,-279.9569,-350.9304,-271.0391,-277.7679,-158.7167,439.7368,327.5016,170.1345,18.0562,-295.8956,227.1045,-83.8477,-405.9317
258.9808,781.9067,-130.7403,9.1334,-306.4448,-102.7620,-275.1984,-411.1135,-296.6123,-306.1257,-184.0998,380.7530,293.8474,70.6991,-15.6964,-352.1758,215.9157,-140.2185,-464.3262
382.2606,1013.4397,-200.3227,-21.7899,-410.6375,-147.7082,-297.7335,-457.9846,-288.2326,-358.9482,-199.4463,392.5393,138.3634,32.2739,-43.5071,-412.2712,349.6553,-181.4739,-455.8717
291.8043,978.7665,-223.7445,-26.6128,-509.1428,-140.0361,-311.9137,-443.2947,-290.2886,-335.9467,-261.7241,398.3312,141.0252,50.2671,-28.8080,-460.9286,415.8428,-207.6144,-393.0954
247.2513,773.6095,-271.9767,3.8291,-520.4346,-149.4450,-352.0487,-413.9426,-392.9192,-273.8522,-288.7224,324.0146,262.2702,60.5123,22.0529,-463.4520,378.7718,-210.7995,-399.2834
439.4626,745.8912,-430.2574,45.6779,-492.6680,-174.5143,-440.0289,-421.5255,-512.0235,-279.4107,-248.4110,234.1369,285.0748,71.0594,67.5463,-429.6087,368.1273,-192.7829,-457.9058
504.5495,846.9075,-542.0040,67.1233,-495.0515,-169.5612,-501.0721,-451.4390,-523.6725,-350.8457,-248.2326,225.5869,246.6277,88.1699,92.0067,-399.5323,356.8512,-221.5506,-458.4587
265.4556,825.6863,-469.6642,54.4983,-497.2033,-184.9605,-490.0357,-458.6873,-475.1354,-427.9889,-332.3161,255.2097,274.1803,93.8423,107.3649,-368.3639,264.4966,-300.0991,-436.4435
99.1803,598.9525,-346.6198,14.3225,-480.8983,-258.8631,-490.7116,-435.7332,-476.4850,-463.1725,-392.7218,210.8727,308.9149,87.4210,114.0050,-324.2189,134.5077,-356.8420,-462.3139
182.7730,303.4023,-323.4442,-51.8234,-499.8489,-321.7747,-558.4953,-421.9375,-523.6761,-424.6584,-354.6971,81.5184,295.8624,63.4725,107.6686,-299.2091,20.7128,-390.1457,-482.4480
201.5753,143.9677,-325.6388,-121.4419,-528.9125,-328.6328,-608.3873,-449.1295,-541.1769,-346.4065,-299.6887,-46.1818,308.1614,21.5489,98.7603,-295.2115,-62.1134,-426.1885,-485.0898
29.1474,147.5363,-265.9504,-139.6013,-483.5430,-320.9296,-566.3865,-498.3339,-496.5255,-292.9158,-320.1957,-101.6301,340.8762,-11.7004,92.7664,-256.9110,-104.2564,-434.8079,-522.7689
-94.3744,111.4840,-223.6445,-98.7044,-382.7364,-321.7550,-469.8784,-518.1461,-419.3290,-260.1006,-377.8577,-111.2594,309.3703,-24.6254,82.0916,-161.4950,-163.2100,-409.8367,-517.5392
-130.1558,-119.7358,-238.4002,-60.9843,-274.1103,-307.7581,-370.2109,-482.4829,-356.1719,-212.0371,-401.1974,-167.4267,258.1180,-28.9469,65.5149,-54.3296,-297.0400,-383.9367,-390.5746
-245.5166,-439.1774,-211.7053,-69.0183,-153.6128,-279.5852,-291.9677,-419.7634,-317.0232,-142.7067,-387.8465,-284.8160,277.5073,-35.6296,45.9495,-1.6032,-428.8637,-350.6685,-260.0685
-361.3153,-636.6371,-127.2837,-107.7550,-80.2180,-261.2383,-255.9237,-367.0142,-260.7654,-68.0759,-346.5918,-381.2915,305.7963,-64.8867,20.6366,-18.3657,-473.0467,-291.1559,-217.0741
-346.8018,-689.7100,-76.8646,-143.7931,-101.0640,-240.8983,-224.6289,-320.5873,-155.1405,-47.6627,-296.0677,-434.7724,259.9771,-116.4661,-8.3441,-26.1807,-478.6930,-218.8546,-171.0103
-359.8574,-742.8981,-51.2609,-144.7498,-107.8563,-186.1305,-136.6739,-265.2042,-39.6744,-117.7174,-288.2313,-482.3014,204.3952,-139.0389,-36.5483,31.8008,-493.8443,-154.3396,-81.4659
-476.1227,-836.3774,13.8043,-93.2082,-45.1797,-118.0510,-43.6140,-205.4219,14.3962,-162.6351,-281.4801,-505.4474,199.1595,-101.2708,-68.6902,67.9786,-474.3773,-115.2126,-19.4433
-461.2968,-886.6509,70.0730,-16.4861,-28.2506,-92.2818,-37.3018,-146.8035,2.8483,-71.0514,-165.1297,-501.1985,183.6115,-34.5040,-104.2613,16.1205,-413.3896,-99.3427,22.0609
-277.9272,-889.2222,62.4085,23.7604,-64.3615,-93.2489,-58.7876,-97.6422,-4.2538,29.7006,-12.6189,-504.5884,136.2365,25.9100,-130.5072,-10.9589,-376.3510,-66.3720,113.6533
-247.3154,-882.8969,47.7115,2.0060,-12.6851,-47.8335,17.6417,-63.6169,43.3144,-24.0917,-12.6368,-467.0285,120.8635,60.7308,-143.5526,56.1082,-385.4415,4.8449,269.1319
-465.3592,-841.2535,72.0845,-20.5458,122.6178,38.7334,166.1342,-10.1776,126.8067,-129.5889,-129.6596,-380.9542,114.5509,46.5934,-149.8387,91.6759,-398.7383,80.7976,447.6861
-593.7260,-791.3476,100.3072,23.8721,198.2613,78.5805,255.6265,84.8513,201.3970,-93.0628,-165.0430,-398.5868,26.0470,-18.7611,-150.8983,35.9596,-384.0178,122.9997,559.1238
-415.2691,-820.1822,111.3564,87.9714,160.1986,44.6237,246.1537,157.5775,237.8582,53.8721,-78.5184,-532.6543,-103.9565,-93.2072,-150.7335,19.1290,-348.7275,111.5509,530.6070
-189.4437,-896.6917,126.7374,78.9352,69.4668,1.6304,207.9229,152.9496,235.1498,136.0366,16.6690,-565.8896,-130.2667,-114.3452,-156.4066,99.2727,-322.9019,47.0636,439.8495
-239.9613,-886.9672,153.2069,10.9935,31.0238,-11.5947,207.5780,122.6102,232.9007,107.2284,44.5551,-444.5696,-26.3487,-72.1601,-159.7333,159.7758,-319.4391,-33.3338,413.9970
-434.2860,-695.3853,164.1571,-51.7849,102.0052,-29.0469,260.2285,137.4676,282.4986,83.5560,20.9250,-325.1105,61.7113,-55.5254,-152.1751,135.1597,-306.8197,-92.7742,439.8785
-391.3445,-386.8135,123.2760,-106.1451,178.9041,-73.7475,347.1576,204.8869,376.3448,148.0024,21.8772,-262.4043,4.4499,-114.5401,-153.2249,117.8756,-258.4986,-120.4456,455.0147
-105.8939,-249.6330,33.7277,-138.7116,133.5508,-104.0289,430.1713,286.5264,450.1924,227.2313,74.1368,-253.3441,-128.3986,-118.9607,-182.7600,180.6907,-209.7088,-101.3263,465.5020
47.2755,-444.3562,-39.9623,-103.7899,43.9077,-74.8935,483.7263,320.1271,478.5377,208.3727,79.2069,-327.7614,-158.8918,35.7997,-221.5463,234.9994,-204.5827,-51.5675,466.9817
-84.6256,-649.5801,-41.2684,-34.9517,56.5762,-2.9179,528.6679,299.9445,504.6430,116.9060,-14.9808,-386.6667,-71.2900,207.5882,-241.9857,185.4177,-221.3900,-36.2545,454.0409
-255.6254,-587.7535,11.3369,-9.2036,142.3918,68.0465,581.7770,314.6093,543.2549,81.2085,-99.3037,-331.3347,-12.8824,244.4536,-251.4474,132.0084,-210.9460,-55.4410,472.3823
-248.3769,-493.2571,59.7476,-33.6561,188.3121,115.1224,593.5355,365.8013,538.7454,141.9231,-113.0365,-256.7170,-17.3751,206.6683,-262.5681,201.2872,-167.2558,-41.6084,494.7688
-121.6735,-473.2263,76.6615,-83.8718,170.5228,118.2767,527.2864,316.9688,472.0840,208.1057,-124.6976,-188.6151,7.9844,156.0815,-260.9572,284.3718,-115.5713,-5.9500,424.4850
-23.8151,-268.2956,81.5053,-130.0031,141.4701,69.8039,442.9313,172.5088,400.4500,224.1436,-126.4406,-43.8847,59.4890,72.9721,-246.8036,240.6281,-74.7404,-2.6833,297.7677
15.6905,-47.2793,91.7286,-106.3343,156.3566,20.6613,395.4866,120.8224,345.9643,253.7281,-51.0124,25.8888,93.7643,51.9109,-251.9427,176.8050,-54.9645,-4.8920,236.8539
60.8318,-217.6175,86.7689,-14.3512,200.3694,23.5132,358.8391,203.1156,294.2002,316.1869,36.0493,-120.9485,156.2257,168.7276,-274.3542,216.4942,-55.9341,12.1294,234.3241
127.4768,-460.1797,69.2840,33.3192,194.1819,44.3407,326.4776,258.0255,291.2809,304.8238,49.7918,-192.6978,208.4706,247.0538,-272.6509,273.1273,-63.6565,6.6962,201.0277
177.1380,-279.5040,101.6038,-4.7593,136.3755,32.1998,316.2983,200.6511,334.6851,204.1429,63.3424,44.2093,127.3407,158.1567,-250.5925,272.3050,-64.4010,-14.7034,121.6235
218.3618,12.5575,192.5174,-36.5396,114.3716,21.7112,264.5733,108.2466,272.7449,155.3416,148.1334,273.5078,16.6618,91.2241,-247.9759,257.5670,-46.5768,0.4052,40.6230
259.5996,5.5252,254.1061,-2.7962,136.8447,63.2727,124.7781,82.7174,59.4325,166.8745,228.9345,197.6974,91.6102,179.7069,-252.7956,209.8510,-1.7820,40.5176,-2.7929
253.2480,-46.3882,252.7847,64.6221,151.8425,122.2804,-2.2675,119.7798,-106.8925,82.6827,254.2968,51.3763,242.9989,238.9595,-231.0404,88.1506,51.8617,69.9066,-18.0558
229.3686,89.5153,257.8124,122.1575,183.0112,131.9768,-30.6552,88.2624,-118.7069,-77.7657,294.7711,140.0407,201.4758,144.8998,-199.4760,-30.8838,85.5930,88.0152,-66.2333
267.6794,209.5975,303.6675,143.6611,247.6212,91.3560,-28.2496,-58.1149,-110.7819,-132.9684,366.7651,350.1118,16.3105,56.6506,-175.6037,-73.8604,110.6146,91.6694,-148.6775
299.6787,196.8580,347.4409,139.4539,268.1295,67.8429,-65.3985,-127.9419,-154.2369,-84.6063,388.1650,386.2958,-84.4237,84.1511,-134.8146,-78.2447,153.1273,99.3537,-180.6283
253.7568,136.0035,345.7078,161.1485,211.0681,121.6334,-113.0457,-2.7044,-175.9179,-87.7892,376.2973,222.2413,-94.8775,118.0988,-70.5933,-107.5659,195.5797,155.6079,-156.2179
229.9810,78.1584,294.6798,218.6882,153.4219,219.3048,-135.2225,107.8933,-168.6717,-177.0334,433.4810,117.6128,-131.5445,73.5354,-5.7274,-173.6285,213.9564,210.6557,-160.7652
224.5610,115.0293,241.6557,249.2114,140.3653,249.2229,-132.7499,11.3766,-160.7848,-274.7009,517.0224,228.2005,-185.9157,-0.5571,51.2627,-218.8785,224.6892,158.9881,-198.4096
101.4367,289.2711,233.2500,217.3045,121.6126,182.5487,-126.0148,-158.2845,-139.9071,-341.8668,526.6304,407.6002,-215.5431,-40.4910,92.4572,-211.9025,231.8119,53.3264,-216.9520
3.0760,405.1234,224.8797,180.3113,60.7822,144.3105,-153.1487,-197.7382,-165.2948,-409.8582,557.4356,489.2728,-260.4154,-7.3141,115.4134,-262.3344,211.4678,49.4344,-230.2373
146.3721,318.5989,164.5559,215.5320,11.2390,212.5643,-217.9994,-126.5190,-273.8431,-498.1103,715.0546,488.8383,-351.8176,78.8185,155.1583,-400.9843,191.8045,128.3905,-243.0123
276.7664,185.1524,122.6145,299.7964,37.2457,270.5234,-270.9969,-106.0674,-327.8247,-503.0223,845.3778,449.9091,-454.8751,91.3276,221.7851,-400.4125,233.7151,131.4365,-205.4481
85.6483,190.8465,153.9892,318.7175,104.3168,218.7639,-285.7488,-191.9812,-261.0347,-350.0356,801.4986,416.0802,-528.5040,-18.0725,266.2275,-206.7045,311.3608,44.0914,-129.7321
-152.8102,315.5735,161.6182,238.0699,126.6674,157.7498,-276.1448,-223.0001,-224.1979,-260.5100,714.7158,477.6563,-568.7064,-89.3596,280.8046,-141.9585,342.8214,-18.2596,-76.5112
-120.2195,397.2163,82.8106,158.9235,95.1399,166.0491,-251.5695,-72.7831,-265.1061,-415.6353,714.2198,555.0413,-596.2252,-43.7381,307.4899,-279.7437,329.1712,-53.1119,-43.0238
-80.6496,292.8062,18.8012,138.0160,58.3605,132.8031,-217.9340,75.9146,-244.2984,-500.3176,706.6886,448.5927,-612.0432,-40.6507,328.7471,-300.3401,321.4518,-139.1860,-18.5177
-272.5734,97.9669,33.1604,114.8783,24.4725,2.6407,-173.9128,40.2219,-144.2283,-265.9523,621.7377,278.4510,-593.0230,-140.8747,305.6403,-188.5321,298.7206,-246.7249,-49.0206
-366.9410,123.3755,28.9456,47.0556,-23.6856,-107.2340,-120.3964,-19.9413,-74.3293,-105.9017,560.8539,356.1576,-568.4022,-207.8309,268.1787,-191.8473,230.5436,-309.8941,-128.5415
-160.7053,421.3538,-68.6118,-52.4722,-70.3668,-166.0298,-97.4931,7.8568,-42.5887,-265.6279,594.4156,593.5964,-605.5381,-236.3945,236.3228,-176.6937,173.8125,-350.6128,-159.7112
-45.0077,596.2662,-182.2606,-155.2735,-76.3310,-252.9174,-112.8373,-67.7430,-12.9862,-279.7895,628.8440,631.1479,-665.5692,-311.5915,175.9091,37.6628,166.2474,-365.9852,-105.1414
-229.4192,397.8136,-223.4162,-187.4139,-24.8340,-301.3083,-99.6281,-234.5165,-16.2943,32.7589,558.5811,437.7683,-646.4370,-326.2665,99.1678,152.2333,152.3992,-307.9016,-41.6252
-350.0490,148.1899,-226.1571,-113.4974,41.3887,-211.1624,-57.0495,-195.4874,-37.4128,125.6196,442.0500,272.1847,-596.4712,-207.7621,52.2868,0.1627,112.1133,-245.7231,-3.8281
-297.8811,188.1114,-241.2809,-45.2205,70.3605,-116.7458,-28.1957,7.6876,30.5243,-129.3446,385.3196,256.4781,-637.3748,-164.7683,18.4174,-59.0440,86.8227,-280.0302,68.3529
-432.4647,312.8261,-236.3551,-78.0987,91.2588,-171.8436,68.5528,49.3054,228.8800,-138.6498,320.3340,319.9113,-712.9420,-321.2290,-30.3204,119.9190,53.1415,-341.4695,158.5596
-679.8441,237.7447,-220.3189,-151.5553,144.3065,-268.6234,250.5997,-41.3714,414.6729,234.3492,167.0071,339.9506,-706.8785,-461.8994,-69.7570,237.6472,-31.3738,-333.2950,156.1838
-590.7966,112.4597,-274.1353,-199.9798,190.3907,-252.8764,301.9156,14.3236,400.4445,471.6813,77.5101,208.9025,-674.8087,-391.9836,-92.1191,244.6153,-122.5036,-302.1658,87.2620
-321.9449,50.3011,-358.2405,-218.9150,236.3835,-165.7195,169.8034,210.6788,248.2800,444.7301,140.2562,-49.3901,-671.9573,-213.7438,-124.2714,365.0209,-193.3133,-289.4733,91.2709
-321.0946,-144.5241,-353.3018,-172.3843,363.5989,-110.2548,119.8522,324.5632,219.9478,500.7726,140.4547,-238.3376,-598.8436,-139.1246,-167.5384,527.9341,-276.9301,-263.4542,133.5740
-428.0352,-321.1349,-284.5335,-66.0319,530.8585,-107.6603,217.9504,273.5572,339.0508,652.6874,-15.3149,-197.4083,-449.9992,-233.4149,-210.0858,517.0499,-331.2268,-246.5347,96.4548
-409.2075,-36.3965,-206.1366,2.2753,631.1459,-128.0034,246.4009,163.1054,371.6942,642.2189,-130.3204,-5.9132,-385.8799,-356.3404,-251.4490,409.0801,-301.7151,-264.2581,85.3119
-507.8673,451.0453,-62.0717,7.1105,702.8912,-125.0249,198.5674,130.5576,297.3416,542.2330,-166.0507,99.7168,-435.5775,-338.2931,-275.2795,374.2112,-271.1170,-250.7547,218.3305
-673.2402,433.0125,84.3636,21.9203,787.9380,-73.6704,213.6606,194.8798,284.5954,546.3981,-236.7248,-2.8849,-469.2657,-218.9708,-266.7454,389.2036,-300.8467,-164.3602,316.6979
-505.5145,0.6354,83.8310,73.6020,813.5361,3.1135,211.6248,256.2655,284.2280,517.1562,-259.3333,-184.0301,-439.8818,-161.0566,-241.3772,391.9109,-300.7502,-48.0853,231.3011
-227.3527,-175.7459,52.0799,144.0202,817.5895,80.2846,131.8158,255.8535,202.8772,332.0288,-188.8980,-231.5795,-374.4422,-174.9991,-209.9672,395.5797,-231.1940,46.5398,136.4200
-302.6584,1.1436,157.2488,215.5059,897.5204,132.5085,126.5539,208.6459,189.6233,231.4290,-181.9171,-106.6128,-276.8586,-164.7943,-169.9922,374.7924,-168.3776,70.6157,152.4220
-432.4289,171.1024,230.7533,241.6499,922.5234,111.0167,195.4402,115.0831,278.0867,334.3593,-186.9526,43.0477,-186.3751,-132.1319,-135.4886,285.8221,-115.7447,10.4775,121.8141
-200.3708,264.9380,127.7344,208.3446,753.4303,24.4179,145.2081,7.1939,238.9581,361.5412,-18.6109,77.8287,-145.5173,-127.5024,-114.2966,200.6443,-28.1825,-64.9746,-13.2855
85.8210,386.2967,44.6650,174.8438,555.1675,-42.2525,4.9758,-42.2056,82.9277,235.8826,170.7537,5.1301,-139.2424,-141.6735,-91.3949,241.1514,47.1016,-110.3658,-72.3508
77.0084,424.8908,84.8269,172.7730,497.2983,-49.2893,-8.4532,-36.4467,93.5916,268.3102,160.0320,-73.4140,-174.6583,-141.8165,-68.2529,369.5388,59.0331,-137.1805,20.8954
-58.6089,216.8950,90.2672,186.9516,478.4704,-22.1087,122.8141,-5.0804,266.4380,454.7597,65.8911,-121.6863,-227.9140,-107.0584,-58.7961,401.2768,38.8692,-94.7992,124.1988
-114.4150,-127.9887,42.7506,207.4795,390.1365,20.3450,217.9925,69.4656,323.2719,405.6863,26.9880,-191.3095,-167.4832,-53.1994,-49.5388,291.5822,20.4728,42.4055,114.0593
-76.4959,-262.2246,54.5608,194.0511,298.2386,52.7224,184.1436,128.7988,217.4027,137.6713,-1.2880,-261.5978,2.6286,-38.9129,-23.5236,214.8393,12.6273,145.8410,32.5059
23.2530,-48.4739,81.5442,119.5705,270.9167,53.6879,112.8058,92.3279,139.8414,65.7885,-21.0850,-233.0340,73.5888,-63.5068,6.3259,243.6212,15.9174,137.8415,21.5617
58.6770,208.6992,52.7170,55.2109,271.5043,48.1016,120.7309,56.1085,167.8702,216.8491,-32.4554,-130.1982,11.2745,-55.1301,29.0633,227.5949,12.4743,118.3034,139.7635
-47.2597,233.1885,9.2801,46.6031,231.7046,41.2223,173.2923,123.8199,212.8628,278.2547,-95.0726,-85.3674,2.8623,-13.8185,58.7295,121.4567,15.3298,137.3316,254.3678
-132.8477,125.6517,-22.3808,34.4284,157.4265,9.2158,156.7042,191.4205,190.5470,232.4447,-135.4691,-106.0687,82.8182,9.0040,99.3578,64.6577,54.3387,131.1267,229.0203
-72.2700,34.6478,-25.8435,10.3264,131.3459,-8.0263,84.4291,167.4428,115.7032,231.6553,-76.6808,-95.8539,143.2647,30.0450,124.3449,55.4053,75.3729,102.4500,134.0887
47.8217,11.4311,14.1940,24.7695,148.9407,24.5835,58.7406,122.7532,76.5777,188.7062,-41.2231,-53.6097,170.1530,57.1734,116.8569,-27.5079,25.1849,103.4231,91.4065
131.6086,134.8941,9.8921,37.2171,98.3556,48.8371,89.6192,94.6640,112.1620,37.0748,-78.0725,-43.6651,174.1731,39.5676,102.2629,-112.0554,-25.3408,124.7434,75.2744
118.5324,275.6932,-59.9584,-6.4447,5.9095,44.8776,115.3046,61.1184,149.7024,-21.0103,-69.0507,-59.3651,159.4234,-3.1122,102.0890,-80.2428,-21.9178,136.8094,33.8317
-2.6917,179.4397,-21.5817,-48.9914,17.1430,64.8767,102.6958,63.8139,123.7071,113.8698,-33.7682,-49.9817,199.3858,5.3631,91.6955,-52.7773,-11.7159,126.9800,-7.0857
-57.4833,5.0613,152.5593,-23.9137,91.4350,87.9096,51.5037,109.1291,63.6591,223.8848,-59.4651,3.7318,284.1388,54.8925,59.1205,-138.1138,5.1571,113.7910,-46.0042
57.5715,56.7829,239.7581,59.5974,79.1697,83.6555,1.8819,118.9993,12.0694,122.1044,-82.2680,83.2600,316.3517,77.2427,44.9372,-197.0988,58.1380,165.1144,-87.4634
92.8073,208.7658,198.7568,150.3591,25.2480,120.0037,5.6771,92.2505,-22.3749,-99.2447,-88.4713,143.4092,334.0604,54.7462,62.5601,-142.8132,83.1792,274.0256,-55.8061
-110.8150,265.0698,222.0314,182.3539,47.3492,199.3816,35.6843,101.4725,-22.6937,-226.7305,-162.1769,138.8833,368.5174,39.6679,70.0023,-102.9370,46.3175,309.3666,58.9106
-244.4411,243.9565,321.4822,157.0329,85.6653,212.7806,15.6267,140.3308,-4.5091,-157.2741,-221.8686,65.8986,315.1621,89.9392,58.3962,-134.9472,24.0587,233.9809,102.7470
-58.4627,94.2658,336.8974,160.3025,26.4729,145.6345,-70.2442,141.4146,-41.5762,-0.7758,-138.3896,-17.4098,257.5728,136.6047,54.9126,-149.1343,42.3392,157.1508,-6.0967
180.3017,-49.5821,264.5703,180.7226,-105.3264,68.3348,-156.7802,85.0998,-121.3027,38.8712,1.4586,-22.6097,372.0079,32.2782,49.4038,-124.7476,54.8081,115.5571,-131.9176
176.0099,168.4503,208.4730,106.8903,-199.2994,-2.0558,-150.6843,22.6664,-114.3813,-44.9626,61.7361,55.6634,468.3914,-151.6288,30.6061,-106.8320,51.5642,82.9101,-152.7545
108.0281,494.1957,154.8340,-26.9682,-197.4250,-28.5152,-47.3113,26.6350,-13.2727,-52.0520,48.2079,90.4462,352.9454,-170.0094,26.5784,-85.7323,13.5081,118.5962,-113.2033
204.0753,340.3510,41.2661,-92.9076,-140.8168,48.0223,34.5578,98.6352,39.3086,62.0669,7.1672,-3.8738,282.8282,-27.4783,32.5026,-55.1765,-90.0387,242.6724,-50.5714
216.4379,-64.6207,-79.2820,-123.7302,-83.9818,163.2845,74.7294,159.7781,56.8647,117.9709,-54.3554,-142.4504,377.2979,67.7356,11.5416,-42.0899,-191.7191,335.7336,77.5624
-77.7044,-198.6303,-113.3371,-201.2189,-21.8989,223.2555,195.9184,171.0778,179.0177,71.0595,-138.3491,-215.8270,331.0287,100.9748,-16.2699,-40.4028,-198.9409,323.1602,216.0900
-260.6549,-203.8319,-96.5290,-250.9024,15.0604,256.9555,314.5135,157.4135,297.0501,63.2543,-194.3908,-199.8947,123.9946,138.5005,-12.9471,-46.6394,-122.5682,263.4856,227.8050
27.5020,-214.9340,-120.1385,-201.3373,-51.9905,296.4104,199.9796,125.0734,194.2204,107.0347,-122.8435,-109.0579,57.3926,95.4451,-2.1090,-69.2024,-19.7789,226.8808,142.6020
270.2216,-59.4569,-117.5050,-125.8666,-163.2733,308.6870,-9.5736,97.2238,10.4735,87.1163,10.0575,-37.7502,101.3199,-1.2182,-5.2344,-37.4720,54.2492,237.0013,124.6680
-49.8745,10.6414,29.2838,-88.9424,-170.9110,306.5228,19.3715,133.9456,27.6383,16.3088,-43.4644,-101.6467,94.6896,29.3271,6.1794,101.0709,45.3290,274.2310,175.7980
-403.2358,-188.5192,188.6780,-71.1012,-118.5777,303.1183,189.8141,201.0698,160.1821,-3.5590,-249.8217,-182.3905,129.5560,115.0683,35.4793,210.0239,-11.9555,280.1103,156.8195
-120.5006,-151.5069,128.1687,-60.9330,-170.1870,245.4754,191.5673,193.3832,165.9900,28.6069,-248.8054,-65.2808,172.5872,41.1047,47.8366,149.5910,-20.7959,238.6110,83.8099
389.1995,202.1788,-65.4328,-40.2787,-308.9987,158.9868,80.9006,133.9105,88.1023,32.9742,-15.9566,120.4367,67.1562,-75.7684,41.4746,40.3007,13.5500,215.8019,102.5052
334.9760,181.4550,-92.8434,55.9836,-381.0092,158.3966,80.4299,131.3990,94.0306,-21.5165,59.2303,76.3353,2.7005,7.9122,38.5192,63.0075,21.3669,253.7886,200.2426
-191.6392,-270.2095,85.9141,224.0180,-350.9538,230.5639,165.2590,161.9805,169.7482,-53.1820,-112.2829,-124.6270,164.7829,181.7993,32.5512,153.4195,16.4825,295.1293,216.6643
-430.6298,-464.4113,229.8146,322.4901,-343.5136,229.8245,177.7489,111.6950,185.8232,30.8047,-197.9882,-166.1059,287.5932,182.6353,8.4467,167.9684,45.9506,258.6813,106.5599
-60.1401,-205.2952,203.1357,246.1001,-459.8147,109.1446,56.7979,-10.7132,75.6693,134.3476,-38.4988,12.5390,185.3811,29.8799,-22.5607,145.5869,95.2155,161.9469,-7.1766
402.7404,156.0120,124.9505,100.9619,-599.9341,-10.2431,-95.3556,-75.5757,-66.3989,88.1379,158.6628,207.7042,72.5319,-59.5298,-42.8083,161.1917,117.7719,119.1347,-3.0279
347.1491,327.7886,150.1470,72.2084,-572.9473,-1.8654,-86.4851,-16.6557,-61.2974,-5.4632,158.0806,238.6613,65.2283,4.2867,-57.7584,166.4630,83.5380,171.7935,116.9933
-52.6737,167.5838,247.7372,159.7256,-414.7776,103.7981,73.3808,91.2968,70.1054,66.3126,-18.0582,103.4246,59.9511,116.8158,-82.7475,161.5215,27.7646,211.3242,234.0519
-180.1955,-147.4212,267.6888,204.1222,-343.6135,159.1779,141.6471,139.4717,119.4516,195.8939,-133.8619,-7.0178,47.2292,150.9102,-108.8479,231.0482,37.5832,166.3394,238.4544
-10.5321,-223.7685,183.7620,140.3403,-392.4760,111.7771,83.0371,111.3786,87.6631,177.2029,-85.7785,60.8908,45.9394,112.1584,-112.4508,305.4213,102.5834,107.7960,169.0891
26.9868,-82.6270,113.9963,47.1237,-440.9183,62.4240,95.1460,73.4296,141.2087,113.7666,-37.6734,175.8371,20.8349,77.2843,-102.2800,230.4762,109.7320,81.7668,141.8260
-25.7461,-9.8950,96.9232,-16.8644,-502.7804,67.6005,144.6404,72.7827,191.5581,138.6120,-44.6247,152.4249,37.6925,40.3700,-110.0365,86.2340,58.0264,60.0307,154.7239
131.7061,28.7668,66.7093,-50.8933,-601.5016,73.4978,57.8249,88.4512,62.3873,133.5252,57.0778,59.9136,136.7943,-25.9166,-131.6470,64.0999,56.8940,76.4374,122.9528
292.9077,80.8522,47.8078,-26.2294,-593.4200,80.8987,-66.9108,78.0026,-98.0042,43.2450,216.4643,15.0238,185.4020,-36.1116,-135.4080,119.0960,109.8807,172.6187,65.4941
138.6301,-30.1284,122.9470,86.6306,-429.9749,150.7758,-64.9892,46.2467,-82.2906,-10.4730,186.3551,-30.2449,129.4828,73.7358,-117.6820,110.6532,135.4278,269.5285,70.1792
-104.4368,-234.0583,232.6525,220.3908,-297.4045,244.1443,-13.7528,41.8123,9.2356,-3.2360,10.3511,-94.5841,89.4677,178.7260,-96.3885,102.2703,118.8258,277.7066,129.1669
-109.4454,-292.2067,241.8404,253.3527,-313.0789,255.6584,-7.0612,76.6408,21.6987,24.1413,-70.9372,-107.2655,112.7016,136.1810,-75.7504,187.3873,79.7613,219.0919,166.0091
21.1926,-217.0993,156.5597,169.3577,-371.6628,180.1359,-5.4312,104.5952,-10.3839,90.0916,-36.1816,-80.3248,140.2799,15.5205,-54.1546,248.7557,30.8623,167.4685,157.1263
75.2620,-86.4494,85.6981,84.2416,-357.1150,115.3789,2.2346,110.1574,-26.6169,116.3231,5.8047,-61.3565,147.5161,-17.9991,-31.3966,159.4184,10.0784,184.3160,134.5063
34.9506,17.5816,55.7739,68.5731,-289.6554,124.5219,10.0153,130.7988,-17.9034,10.8396,13.5975,-40.5518,124.2467,44.6609,6.5111,7.3053,15.0504,263.6534,137.7369
-56.0659,-113.1245,15.6724,62.5235,-243.2145,150.6030,59.3176,162.8718,32.1817,-73.1791,-45.2884,-46.2674,67.3213,73.9912,74.1470,-56.7653,-7.1059,290.9675,179.8925
-131.2713,-358.7738,-34.3339,30.4465,-232.9534,93.3845,116.3914,153.8245,76.9501,20.4082,-140.9511,-108.2863,28.0728,19.3699,154.8438,-22.8268,-26.8058,196.9666,212.9714
-105.9629,-278.9398,-41.9182,36.6971,-223.0620,-21.9165,85.7020,98.9358,26.5371,142.7211,-153.6211,-133.6259,29.4094,-34.7918,208.3293,27.7861,24.4483,94.1780,177.2502
-24.4042,38.7451,1.3878,102.6700,-205.0948,-58.6517,-20.0957,44.1976,-85.2965,134.3945,-73.9596,-45.0377,16.2128,-25.0357,215.7483,49.1943,83.3741,86.1974,93.6952
14.8884,97.7798,53.8671,166.9490,-190.0406,11.2783,-97.9421,10.8195,-138.9581,96.8343,2.3403,71.9240,-32.8825,18.7393,200.5701,32.6090,57.4889,102.5040,24.1297
32.9265,-79.1691,92.8967,206.3623,-158.4671,76.3479,-98.9744,-1.9184,-117.8426,115.5965,41.3585,108.9751,-55.5419,69.2741,189.9498,-27.4314,19.3992,76.9587,-17.3820
42.3379,-129.5550,121.0646,230.1353,-118.8354,91.0545,-63.4195,22.0823,-95.3606,78.5701,11.0339,69.0757,-10.4631,126.8500,177.1877,-88.7921,74.0870,63.5894,-37.9121
-12.0366,-38.8412,120.2808,202.0172,-129.7583,96.5958,-46.3671,80.4718,-87.6562,-63.5211,-103.6449,11.7975,33.9241,148.2193,152.5050,-69.7095,151.5863,71.3919,-41.8152
-47.2234,42.9197,62.4086,103.0959,-183.2041,73.5278,-40.8699,110.2345,-57.3560,-159.2863,-154.8079,-6.9403,-12.7302,88.1250,134.0275,23.3643,128.4820,21.8138,-66.7747
49.9150,102.6032,-32.5073,-9.0445,-199.9460,-8.1506,-12.3197,52.3071,-17.5408,-94.1917,-48.6264,43.8051,-90.5481,-15.9203,128.7605,89.4985,35.9009,-80.3498,-128.3218
127.7212,124.6350,-90.7039,-71.2863,-161.2342,-82.4137,20.2624,-46.9155,-6.1081,45.2194,34.1795,129.9993,-66.2394,-94.9291,113.3570,90.5262,-12.7192,-134.2641,-156.0940
11.7431,78.0076,-60.9579,-63.0184,-107.8857,-93.7865,36.8059,-74.5390,2.9691,133.6160,-43.5578,152.6936,10.6764,-110.3543,82.5618,65.7696,2.3673,-102.2134,-98.6725
-138.7150,-36.4053,16.2432,6.7575,-61.7382,-75.4258,60.7767,-3.8411,32.9062,164.6659,-149.5111,47.5341,-4.7551,-41.4639,57.8291,33.5798,29.7182,-41.4430,-17.3265
-108.4649,-186.0129,50.7712,83.1938,-38.1916,-53.5720,61.3612,75.6712,24.7642,154.7481,-160.2325,-87.1571,-68.5058,66.5020,41.3741,23.0495,59.1272,-12.9255,9.0364
28.2986,-182.9664,12.6834,81.3030,-50.3231,-33.6861,-8.8435,91.7613,-37.3555,66.6156,-111.5911,-65.2646,-71.2943,94.0649,18.5270,63.5013,105.7871,-40.0655,-14.0529
108.5545,86.3773,-51.0859,-17.5496,-83.6510,-50.4530,-69.5092,67.8872,-64.2412,-67.7082,-67.1517,94.7187,-63.7826,20.4100,-6.4587,87.0044,140.6756,-96.7424,-31.1478
114.9456,297.8535,-106.4017,-122.3618,-121.6959,-90.7528,-37.2080,60.9934,-33.7733,-123.9244,-80.1673,153.0986,-82.8795,-28.1618,-17.7057,59.2772,117.6553,-111.6537,-13.2523
97.9374,162.9780,-161.7713,-138.1655,-151.9416,-82.8376,20.3694,80.0883,-11.8126,-55.8329,-141.8623,40.4766,-60.2449,0.6535,-12.8038,82.7518,51.6291,-65.7641,12.6552
79.1885,-42.4424,-202.0245,-89.7244,-158.9799,-41.1783,54.2657,85.1814,24.6614,49.8982,-142.9990,-46.0003,-33.5397,23.1185,-4.8438,133.8311,20.4857,-44.3476,8.0026
18.2906,-30.6765,-177.8043,-68.1790,-156.2761,-46.3882,123.7279,63.8411,126.5311,92.9108,-90.8177,-19.7396,-78.6888,15.2054,-10.8704,47.8119,58.3445,-90.6453,-13.5234
-133.7523,29.8994,-85.4305,-74.7555,-149.0376,-78.9916,205.0533,61.2482,207.1022,62.8479,-148.8504,1.8818,-95.7567,32.1651,-36.1778,-73.4022,82.5325,-112.6399,-21.7474
-265.2075,-11.5065,10.4912,-34.4055,-93.1344,-60.9514,192.5408,89.2781,168.4747,37.1158,-297.7073,-19.0180,-2.2650,71.6155,-71.3983,11.5051,20.5193,-45.9350,-30.0069
-198.5290,-67.0536,50.4893,52.5613,-0.4942,1.7189,96.8798,101.8283,53.5776,35.0437,-331.5327,-20.3093,79.0863,118.3819,-104.8755,153.3517,-46.3889,32.9682,-41.8991
-13.6101,-105.7512,20.3121,106.7648,25.5464,51.3132,18.6229,105.2840,-39.2883,-55.2208,-237.2652,-5.1592,45.0440,190.9124,-123.5697,71.7604,-22.7313,37.9854,-31.1304
56.6644,-93.1054,-62.7097,87.3955,-51.2543,48.1776,3.8426,137.2680,-39.2331,-225.2968,-176.9374,9.2484,-42.7460,226.8993,-119.1565,-69.0460,21.0213,-21.9022,-21.8777
-17.8748,52.9241,-130.3630,19.6940,-144.7724,-15.7790,33.4413,150.9231,47.9942,-239.7562,-186.9642,35.1264,-89.6661,147.5938,-107.5178,0.3279,-12.3272,-82.7764,-43.6062
-129.2616,165.1917,-94.2874,-33.4604,-162.6316,-67.3253,49.7246,113.0020,77.4091,-43.2118,-202.9448,31.6725,-48.7608,47.6523,-106.8278,126.2989,-89.2322,-75.9958,-36.7459
-217.7265,17.1425,13.3489,-5.7952,-81.7347,-17.1517,2.8760,98.7301,-52.9250,92.0387,-209.9180,-30.3466,47.0289,58.2224,-104.2245,78.9551,-159.2745,2.1457,25.3231
-227.1039,-227.5579,53.4327,90.1965,34.7344,72.1381,-66.1572,125.1679,-183.9319,38.5567,-221.4924,-88.7887,89.1607,121.6555,-89.2247,-33.9053,-218.4832,66.4141,49.5656
-177.1326,-292.8141,18.2297,164.3040,94.7794,85.5097,-79.1987,119.6235,-142.0749,-37.4500,-253.3216,-110.0915,58.5647,140.3378,-78.3370,-41.5525,-231.8236,82.3295,6.4722
-194.7358,-229.6938,45.3899,170.3557,102.4550,70.8152,-50.4199,113.5301,-43.0744,-50.5208,-295.4789,-134.9483,55.0325,144.5810,-69.5729,17.1701,-194.9185,111.6785,-7.8190
-253.3495,-192.1772,136.2808,124.2875,110.1555,101.1386,-42.6329,172.1428,-52.5652,-43.0884,-285.8138,-158.3592,82.7995,141.7193,-42.5585,41.2000,-180.2909,146.1379,38.1466
-227.5992,-184.0012,152.0182,38.5383,89.0031,99.2758,-42.3027,220.9319,-93.1447,3.9235,-232.2054,-137.2229,60.7797,73.5712,-11.3288,4.6498,-203.6218,123.8611,94.1437
-205.2703,-199.5432,97.5873,-40.2037,40.0780,39.0251,5.8231,209.3965,-46.7004,66.9455,-230.5336,-96.5120,21.8358,6.1332,2.0030,-58.3181,-219.6236,107.5108,152.5911
-253.9386,-224.3667,80.9493,-33.0622,61.8454,45.8525,72.0056,207.9917,14.0169,52.6901,-252.3138,-97.5627,36.7545,64.2845,13.0405,-87.2176,-225.1875,167.5784,186.5490
-185.2978,-148.9405,62.9350,44.7247,137.8856,138.9211,66.9173,199.8088,-4.0325,-15.7551,-185.2855,-140.8779,72.5514,180.9683,31.8284,-60.4422,-198.2400,204.1920,134.5457
-4.9080,11.3468,-33.7220,90.6825,142.9409,187.8170,20.6831,114.6382,-23.3751,-51.2851,-93.6415,-165.7695,88.3005,183.3605,37.6423,-13.5154,-111.9155,140.4372,66.2076
1.4490,48.9516,-119.8131,61.5462,100.2652,163.7688,73.7318,39.0185,56.0770,-29.2233,-101.7999,-123.9091,70.2309,70.9473,24.1473,23.7645,-58.7700,82.6507,100.1627
-121.0863,-61.4018,-99.1311,2.0251,102.1661,148.5504,195.9886,53.9290,149.6931,43.7799,-144.8447,-23.8317,-20.3509,-3.0869,2.7896,24.7164,-83.8528,115.4589,156.4514
-77.6832,-79.3447,-24.2904,-27.7623,106.6243,162.2948,176.9240,58.8200,109.8223,67.1751,-141.9860,105.6818,-123.9175,41.9953,-22.3805,-45.4160,-45.5047,174.0993,104.0402
11.0344,60.5740,57.0232,-0.3699,93.8027,175.7292,24.6904,-4.4474,-4.9608,-74.5296,-189.0715,250.7577,-83.9703,136.6934,-40.2386,-141.5560,78.3747,182.6963,40.6273
-170.9307,151.4597,168.2232,56.7986,154.7293,174.2029,4.1564,-47.4118,0.0543,-200.2583,-355.4772,374.5725,67.1922,169.9002,-41.1910,-149.7675,101.0671,138.2896,103.5427
-483.6832,125.2787,256.2334,108.0064,268.3813,149.3294,166.9278,-40.4070,134.5207,-60.6489,-521.4988,422.0027,111.6993,136.2670,-40.4217,-60.0117,17.8125,85.4890,188.6817
-561.0782,97.8661,222.3118,165.5590,302.9094,131.7873,270.0414,-28.4802,205.5644,135.1781,-533.8806,392.3878,15.4659,153.0107,-40.4541,3.0105,10.6957,73.9657,146.4113
-382.8698,51.4470,110.2540,217.6323,244.4737,162.3071,198.3644,-3.8091,115.0466,58.9902,-392.2451,325.0320,-34.0756,272.6860,-20.7301,-25.4395,70.9875,83.0089,50.2513
-197.8550,-58.4205,58.2666,194.2285,171.8212,190.8328,75.2902,30.5843,-23.3524,-125.9048,-254.3130,248.8785,28.1385,367.4689,2.2652,-54.6456,77.7234,54.7502,44.2315
-144.3766,-75.8310,90.5177,103.6023,116.0698,156.9848,8.7809,24.4525,-62.2973,-133.7583,-251.0205,216.2790,64.8799,333.2159,-9.3352,-5.7565,59.2120,29.8811,114.8100
-169.8852,55.8208,128.8436,50.3250,90.3811,119.5076,3.1568,-3.8188,-2.6948,-78.5305,-314.9995,272.7151,-13.0045,263.2730,-37.1784,45.9149,56.0890,82.0197,175.7398
-195.0881,115.0004,152.8029,62.3356,109.7364,137.0017,21.8277,13.7619,31.8606,-129.8940,-316.6694,352.2070,-132.9561,258.2896,-38.2202,9.6706,23.8570,148.5003,220.7030
-220.3926,24.7540,177.9736,66.7887,140.5233,152.3172,29.8272,68.0830,-3.4549,-169.7075,-274.9279,344.9491,-182.4486,264.1155,-23.7796,-57.3693,-26.6715,124.5686,274.1583
-234.6916,-1.7849,153.4311,25.1797,137.3779,122.6803,46.4948,94.7615,-0.7186,-78.2746,-246.8416,260.3618,-131.5672,234.6322,-29.2279,-70.9791,-70.5507,39.0273,304.0393
-164.2965,106.6645,55.0996,-39.1074,103.6318,84.7700,99.6127,77.9770,83.4337,57.8644,-200.9942,197.4801,-43.5549,206.9575,-51.6886,-57.5467,-127.1423,-19.4229,273.8093
-44.3483,163.6427,-16.3055,-87.6051,72.0205,39.1055,131.7759,57.7457,117.9788,116.1264,-143.0177,195.0135,7.4697,160.5755,-68.2550,-40.6777,-128.0953,-33.5777,208.1222
-17.0715,78.5805,12.1177,-84.0484,58.6487,-36.3948,86.6979,49.7064,28.2707,80.6153,-106.9362,204.5917,18.4108,77.4858,-73.0690,7.3379,1.5995,-31.8789,137.7996
-38.3619,-4.4546,56.4163,-36.7282,40.0324,-81.9881,-4.0232,5.9105,-90.1751,6.5847,-23.5361,193.7773,22.4938,64.3907,-74.2806,34.9962,150.8122,-34.5536,46.6191
75.8206,86.4495,14.2901,-4.7118,-14.3437,-45.7581,-105.1754,-96.0824,-154.9019,-85.4700,123.7664,203.3245,12.4965,144.5696,-77.4699,-19.9510,192.8440,-46.3618,-59.2223
254.3304,307.9648,-92.0504,-12.1527,-76.7922,-1.9812,-183.2678,-185.7555,-168.9817,-197.6841,184.1797,249.0711,-17.8610,153.2088,-75.4819,-73.1764,177.6931,-50.3734,-113.1911
240.5302,397.9245,-164.4131,-19.1242,-79.4396,-28.5031,-173.7901,-214.4132,-152.2977,-232.9143,113.3189,252.6667,-20.3281,58.4079,-57.0078,-54.2966,180.5268,-28.7846,-101.5818
52.2573,240.7820,-141.2146,5.4317,-13.1896,-69.8214,-120.6143,-232.1730,-161.8347,-128.1500,71.9688,195.4119,21.3289,37.5016,-29.2156,-56.7698,202.8666,0.8568,-109.8717
-42.1743,94.1847,-74.3123,41.6935,41.7313,-54.4869,-158.0844,-268.2353,-235.7102,-55.3708,124.5124,190.4893,45.4679,103.0830,-10.9511,-118.9300,236.7309,-0.7949,-173.2800
42.0211,182.2880,-78.1145,49.4624,17.2093,-36.2410,-246.4005,-289.0452,-273.6572,-115.1827,163.4635,252.9216,27.4462,68.2935,-1.8310,-126.0022,223.4860,-43.2750,-214.4851
148.3957,322.9427,-154.4457,22.2666,-33.2033,-83.1055,-220.6662,-293.4876,-183.5091,-94.3574,148.3817,241.4720,12.2557,-70.8834,13.6432,-71.1195,95.9928,-78.0229,-200.1613
178.8923,252.7142,-200.6864,7.1436,-9.1792,-128.8152,-102.1313,-285.5983,-70.9095,49.8735,141.5117,131.6554,14.0780,-114.4242,35.7809,-95.6965,-52.3737,-47.5626,-200.1235
167.2556,26.6808,-215.5968,42.1974,60.3949,-82.7941,-47.0371,-236.5804,-73.7126,4.2638,157.0390,42.7569,23.6039,-11.2877,53.5228,-199.6014,-79.7042,24.6019,-245.1140
133.2653,-111.5808,-263.0049,92.5730,81.1483,-3.6495,-84.2535,-189.6804,-157.0210,-244.5269,154.0180,8.7832,55.0012,67.6929,70.8551,-221.9167,-25.4012,55.9167,-284.3088
84.8538,-32.0668,-286.6581,95.0881,89.6516,-4.2418,-136.2737,-217.7599,-215.2894,-322.2097,126.3023,10.9951,76.6375,11.9026,98.2692,-137.1761,-1.5613,28.4514,-286.9609
79.6566,187.2817,-235.0019,38.3928,148.2036,-54.0824,-152.0878,-255.5688,-212.6796,-202.4668,115.4775,75.4503,39.1416,-63.5916,123.4236,-98.9014,-18.4400,-2.2169,-258.8994
122.8003,358.5692,-206.2784,-31.7103,176.7536,-42.9270,-123.6629,-213.7741,-168.8719,-186.0440,139.9094,136.4176,4.1200,-19.6109,124.6756,-160.7980,-57.0630,-7.2191,-209.3609
120.7407,331.9394,-236.6835,-60.1816,138.1004,23.6248,-101.0176,-159.5449,-131.2250,-235.6738,152.5895,64.9233,43.8149,61.8168,111.1222,-184.2316,-108.3009,7.8063,-177.0773
53.2457,54.7349,-205.6446,-34.4724,139.4358,59.0997,-145.0986,-152.2590,-142.1112,-136.2522,126.1044,-96.2855,84.9336,43.3288,109.0011,-88.7417,-123.2256,41.1149,-198.1053
38.2834,-331.1496,-91.6396,-4.0560,184.4356,50.1703,-207.1483,-117.2142,-178.3069,-3.2178,117.3102,-185.4123,57.6086,4.3337,114.3340,1.0053,-97.2562,55.3665,-237.1189
134.2795,-416.6178,-24.4687,-38.0095,166.0816,17.1799,-199.0758,-56.2315,-180.3215,-5.3903,155.6693,-148.3762,32.7214,34.0233,106.4663,-33.0884,-96.6823,-6.3441,-246.9286
222.6937,4.0257,-45.9550,-152.3823,113.4859,-65.1844,-151.9309,-82.3757,-140.6596,-44.6592,182.8485,-52.8465,59.2235,1.5068,92.5834,-112.9327,-105.6906,-105.2259,-239.4402
172.4561,413.2513,-74.7665,-265.1513,98.4125,-159.5768,-133.4068,-158.2473,-104.8044,-60.9654,176.0919,-3.6472,77.7253,-125.3279,89.5280,-108.9869,-41.2630,-130.4917,-229.6786
48.6946,220.5169,-72.9900,-253.1569,64.5213,-150.3406,-119.8065,-137.3742,-103.5697,-118.7134,176.5721,-56.3797,56.9732,-136.2763,90.2207,-31.6517,59.1062,-74.0198,-212.7585
51.3226,-254.9762,-73.7876,-120.9570,3.3472,-63.8146,-89.7599,-62.0199,-118.6528,-132.5596,187.2592,-117.6050,26.9487,-17.2558,86.1849,20.3012,85.9976,-42.3486,-213.4432
203.1817,-301.0534,-84.6290,-35.8442,13.4517,-67.3126,-88.6807,-86.7687,-115.6295,-33.1508,183.2538,-67.1061,2.6930,0.1086,81.9315,0.3346,56.3229,-76.0612,-247.0735
272.9290,53.1076,-58.7976,-88.9634,86.5642,-164.3531,-120.7375,-176.9543,-101.6758,2.6136,162.5329,13.1254,-14.2062,-83.2549,69.9507,-48.8432,60.5762,-107.2518,-266.9048
161.1525,256.0703,15.9749,-170.8228,124.0815,-186.0914,-135.6679,-179.4670,-114.7239,-86.6762,126.9034,-30.3579,-21.5162,-75.2857,39.3310,-64.8068,89.0002,-106.0422,-234.3272
78.4577,156.6911,56.4855,-184.6871,108.2676,-109.5591,-139.7333,-94.2695,-157.6533,-95.0720,102.4575,-133.6882,-13.7957,-3.8258,4.1305,-57.7320,87.7981,-115.8391,-180.9551
135.1203,35.7707,13.8204,-161.4451,74.0812,-66.5521,-183.1844,-45.6124,-206.2961,-23.1215,121.7148,-121.8857,34.5560,0.3868,-17.9659,-76.9035,96.9226,-144.7538,-166.9872
163.1541,33.1333,-13.5070,-109.7803,53.4974,-78.5419,-257.4118,-77.6740,-260.9745,-92.9738,140.0086,-15.8134,108.4791,-19.0592,-30.5584,-95.4912,161.3481,-161.9074,-220.6054
120.7133,3.2331,46.6245,-7.9293,75.4548,-71.0986,-302.9525,-126.5199,-311.6032,-228.5008,122.2947,3.6903,124.8384,1.0828,-38.0736,-70.3171,191.6545,-172.7024,-301.5133
177.9460,-105.3193,95.6055,71.1833,105.4377,-54.7316,-291.0576,-133.5928,-305.0735,-195.3846,135.4499,-101.1318,65.9727,1.2197,-36.2913,-66.0736,97.7847,-188.4187,-330.8655
314.0239,-65.1934,55.8439,51.1266,91.7867,-74.0420,-246.0081,-118.0453,-235.2900,-86.9045,171.6855,-167.3078,12.5658,-53.6054,-29.2248,-129.6766,-13.2691,-181.1358,-292.9344
313.6815,174.7115,9.4086,-7.4454,76.5717,-90.5617,-214.7111,-138.2579,-192.9481,-68.5893,118.4034,-115.0669,-1.8994,-101.0928,-23.8811,-162.3388,13.1176,-133.8412,-241.8102
154.4211,250.2684,26.7892,-5.5647,99.0730,-46.9303,-228.1291,-188.4818,-238.4621,-51.6618,34.2757,-66.6314,4.6402,-82.5301,-18.5818,-104.4115,100.0686,-70.3434,-202.8630
39.2885,33.5817,51.4122,45.8586,103.5992,28.3102,-267.5175,-202.7529,-300.5220,-10.7285,90.5235,-99.7183,42.8710,-27.3166,-14.9980,-59.4166,55.7314,-29.0873,-181.3767
112.3423,-125.3025,10.1091,58.2589,59.5879,44.3138,-276.7887,-178.3466,-279.4125,-49.1276,228.2581,-157.0553,71.6265,-5.9618,-21.8235,-97.3250,-92.6802,-39.7874,-214.2300
295.6774,-154.0204,-77.4362,7.8140,7.0503,-23.2795,-229.0856,-167.2818,-183.9525,-87.3175,268.0764,-232.5027,9.2671,6.1798,-38.8834,-147.2047,-144.7094,-82.2608,-289.4835
354.4576,-271.4994,-111.1742,-19.4164,-21.6089,-81.1718,-161.7380,-161.9235,-101.1300,-63.5653,215.1467,-320.0505,-74.3051,75.4844,-54.1573,-149.3811,-50.9739,-103.8227,-320.2113
175.7158,-262.2239,-43.7168,14.2655,-5.0127,-77.1876,-125.0906,-145.6358,-79.4242,-106.4054,144.4766,-297.6076,-36.7056,116.9344,-57.3505,-135.8779,50.6222,-127.3506,-273.7515
-36.4493,48.9127,12.6135,2.9995,37.7550,-96.6914,-117.0242,-154.1576,-85.2185,-125.5928,62.8070,-184.9617,47.9898,36.0778,-52.3487,-146.4033,60.7071,-206.6473,-199.3495
-28.6863,151.6376,-56.6519,-94.5864,22.6270,-165.4555,-99.4117,-152.8600,-63.3283,68.8611,36.8872,-193.9230,-6.2850,-42.0526,-55.8399,-161.3056,-7.8493,-264.4028,-135.1954
144.7711,-148.0258,-163.8876,-146.3456,-55.0079,-167.9681,-75.3772,-67.7451,-33.3365,212.2427,120.7047,-296.5467,-140.6281,-29.5690,-75.1366,-140.3385,-99.2250,-201.8068,-95.8892
239.2076,-203.1192,-165.7712,-104.6234,-91.1134,-96.9705,-91.8331,12.6578,-65.3917,34.6835,182.0709,-247.5494,-136.4283,-68.6554,-97.3384,-125.6730,-139.1917,-108.9136,-76.7036
146.5636,145.4314,-92.8898,-90.5301,-71.8156,-90.4118,-132.8112,-25.9476,-116.0921,-138.2087,103.7513,-93.6105,-11.4317,-181.3567,-115.5365,-206.3526,-89.6346,-109.1984,-37.4282
-19.8943,226.9834,-58.7588,-130.7421,-75.3347,-152.2596,-103.8335,-75.2072,-50.2202,-42.6622,-11.0452,-81.6469,15.1636,-188.3752,-138.5564,-317.5141,-17.3832,-145.5689,16.7269
-62.8947,-92.5852,-88.8555,-134.6294,-100.8041,-160.5212,4.4982,-33.9632,89.4149,49.4378,-34.5005,-178.2766,-78.3193,-100.1677,-161.9025,-290.7344,-8.0484,-138.3998,13.7748
65.1439,-251.2544,-132.5916,-108.5583,-108.6393,-119.1784,67.8876,-36.7603,106.5445,7.8099,7.3355,-187.7035,-106.6665,-79.7308,-173.0205,-164.2347,-50.0398,-130.6508,-41.7713
172.6579,-100.3267,-131.2757,-110.0125,-104.3523,-117.4653,29.4463,-146.2104,13.2650,26.4568,37.0386,-113.2386,-36.3811,-112.1325,-186.0939,-126.6197,-86.3437,-142.9288,-63.5465
117.3913,51.0650,-84.2596,-112.1320,-75.8929,-148.7046,-24.0201,-186.4910,-7.8754,82.3856,31.4140,-71.5231,5.1070,-111.8587,-217.0848,-177.0464,-87.4834,-128.6702,-41.2197
44.5553,66.3954,-69.8717,-78.2008,-26.1606,-149.9485,-47.1601,-88.9194,22.4895,70.4867,22.0929,-94.0290,1.0135,-87.3956,-243.8548,-195.5587,-36.8781,-103.5322,-18.9804
107.5689,-31.1376,-116.2705,-19.6964,-33.8141,-100.6115,-79.5996,-4.7955,-16.9075,84.7346,46.3742,-144.0300,-6.2677,-32.6154,-245.9629,-192.3149,40.3801,-115.0635,11.2411
189.1146,-156.6712,-136.9554,36.7290,-117.0027,-33.1845,-100.7393,-17.9931,-48.1466,78.4505,72.3945,-167.5868,-57.9440,24.9993,-243.1682,-189.3607,65.7983,-135.4558,37.6013
156.4087,-110.9259,-92.0056,48.3099,-165.5037,-10.6053,-78.8548,-82.5606,-14.2086,-74.8037,47.8519,-137.7115,-118.9228,-17.0663,-252.9204,-132.9940,26.6382,-114.4502,-0.4922
117.2286,110.3773,-53.6938,15.1124,-109.4198,-40.0749,-88.8732,-161.4429,-53.5723,-186.0929,18.1143,-88.8616,-78.6148,-97.9366,-265.2562,-69.7451,6.5886,-59.8154,-75.0214
168.6322,200.6351,-58.1548,13.9032,-13.7868,-45.8087,-159.3439,-213.7894,-156.4674,-110.4804,36.7637,-58.1125,-14.3570,-53.2914,-275.0148,-79.3477,36.0122,-13.1380,-84.5375
159.9149,24.9616,-57.8157,53.7359,30.4870,-12.1910,-167.4374,-197.2973,-128.0633,-48.4101,35.0810,-45.0224,-59.3428,35.7598,-282.0074,-85.0616,51.7882,-1.6435,-28.3407
-24.1403,-171.2981,-14.7857,42.9547,22.9477,-11.9497,-72.5530,-141.9372,-10.9208,-57.4840,-38.0728,-46.4327,-101.1447,-6.6535,-276.7775,-18.6478,17.3205,-16.4746,0.6012
-171.1007,-177.8073,50.5082,-30.2522,32.8668,-41.9950,-24.6389,-89.6982,-14.4426,14.4073,-88.0672,-63.3193,-25.1036,-90.7932,-268.3218,40.9713,-42.5465,-32.2438,-27.2197
-43.8997,-83.6912,56.6978,-84.7234,62.5668,-35.0863,-93.7613,-42.5602,-95.3047,78.6127,-36.1509,-95.1475,19.2318,-58.9960,-278.1734,50.2336,-87.6547,-52.9519,-48.5270
194.7469,-41.3639,-57.9885,-94.8051,23.2229,-11.9637,-135.9890,-19.2819,-73.0341,11.1211,45.0398,-131.8711,-66.4262,13.4327,-292.1224,51.2631,-84.5576,-92.7556,-8.3521
197.9016,-49.4511,-195.1432,-85.5157,-76.1658,-22.2820,-39.4869,-13.4430,42.0917,-32.4186,42.7130,-135.9645,-133.8757,5.0102,-282.6968,54.0899,-50.3142,-118.5933,74.9253
-57.9611,-70.9664,-182.1470,-67.6583,-92.8679,-26.8558,103.3873,35.8744,140.4724,26.0091,-55.0514,-99.9644,-97.8762,-37.9218,-261.4302,56.8411,-43.8702,-87.5842,140.6072
-285.0792,-104.8671,-32.2898,-56.3376,-0.7210,11.9701,152.2854,97.6381,179.1499,65.3578,-150.2049,-71.2034,-51.8642,-39.8673,-248.0814,42.4822,-58.7329,-28.6085,152.3063
-274.8166,-69.3090,69.3185,-63.7126,53.3836,45.2260,101.4769,64.6666,146.9132,84.4257,-140.9294,-52.8539,-50.1832,-30.3691,-234.8406,-27.4760,-40.5926,-15.4811,118.4230
-66.8690,47.2277,25.7965,-80.6847,-2.8336,31.3589,42.3309,-18.0837,78.2211,108.7080,-42.0571,-28.8700,-67.5463,-42.8160,-218.0529,-53.8683,-18.5412,-63.5997,74.4833
132.2946,18.4215,-85.6999,-95.8639,-82.8519,7.2474,32.9573,-10.0849,60.1117,46.3585,46.6785,-56.2604,-82.3784,-31.7549,-206.8568,90.4084,-48.9487,-108.4087,65.6159
126.6056,-178.4349,-144.4171,-96.5631,-98.9832,11.6321,62.2268,61.1390,109.8603,-48.6219,66.9255,-127.9120,-63.3768,14.7817,-199.0039,229.3087,-82.0248,-102.6252,106.0009
-46.1486,-162.5976,-119.8147,-94.7082,-64.2701,12.8816,96.1251,75.8214,162.0528,-36.7252,17.5051,-124.0782,-11.0717,12.5982,-195.9328,138.1646,-53.5878,-78.6505,157.5792
-144.7706,120.2417,-90.5420,-132.0471,-62.0399,-23.9021,115.3428,57.9271,187.5931,-9.3662,-66.4713,-46.7130,3.2456,-48.9901,-206.9775,-8.4553,-9.4412,-71.3690,189.1167
-73.9129,217.5923,-104.7426,-178.2921,-122.2926,-52.0197,127.0529,84.9420,204.9280,-57.8131,-99.1766,-3.8309,-36.4804,-53.1344,-217.4767,18.0654,-15.7011,-52.4399,204.1425
3.4451,42.0636,-82.8112,-148.1803,-143.7351,-27.2915,152.4386,115.0918,220.4080,-25.7064,-47.4468,13.4014,-39.5662,4.6056,-207.4112,76.4250,-51.9816,-1.9894,189.5532
-17.7043,-22.4715,13.0104,-67.5275,-62.4177,-10.5889,187.1288,88.2084,229.2598,115.0572,0.5114,48.2841,30.7476,-10.2758,-189.4503,20.6074,-41.8090,36.0635,129.7672
-13.7428,154.4132,55.8845,-18.3541,-5.8816,-51.1377,184.1027,31.2213,210.1644,92.1388,21.0264,105.3975,84.6810,-78.4831,-177.2708,-39.4525,81.0265,21.5739,49.1635
140.4263,459.5007,-22.2312,25.4201,-83.7786,-74.2988,86.1973,-33.2468,100.0644,-191.0907,119.6584,256.9713,57.4575,-40.0285,-155.2072,-67.3226,309.7778,-20.2293,-48.4052
388.9286,788.2631,-90.0193,100.8484,-196.2175,-20.7425,-118.5260,-118.9342,-134.2167,-440.5493,282.2145,455.0077,9.1085,103.7075,-108.5954,-148.0008,549.1636,-29.9913,-185.7919
591.9320,894.4715,-53.5164,160.0699,-235.9307,40.9393,-341.0158,-201.2058,-372.7769,-423.4446,356.5654,467.8578,-4.0772,200.2732,-39.2950,-244.3481,719.4122,-1.9177,-310.6798
657.2305,782.2291,3.9664,181.7279,-262.0671,26.5144,-435.4402,-254.8462,-428.2213,-306.4087,339.6962,358.6411,-46.3171,159.4973,48.0296,-309.5898,836.4927,-25.1319,-352.8125
593.8436,958.6679,-1.3053,167.6748,-346.7026,-71.6201,-389.5358,-318.9418,-336.8199,-347.9073,359.6957,472.3183,-173.0831,-7.8481,145.0397,-399.2382,936.4748,-158.8524,-369.8099
541.0573,1488.8052,-66.1810,78.0528,-453.0833,-211.3796,-372.3337,-419.3083,-351.5457,-493.7659,419.1572,766.8644,-305.2687,-201.6737,243.7966,-494.6860,998.2258,-308.1870,-450.6415
617.1758,1754.2338,-172.1770,-61.8080,-525.5729,-327.9873,-477.5651,-514.0933,-526.4410,-556.7657,430.9937,871.1089,-368.3390,-282.8997,342.8669,-524.8902,983.1749,-370.0187,-558.5760
674.3245,1598.5758,-260.0230,-160.6781,-564.7543,-375.5953,-597.6869,-563.4557,-641.3792,-580.6373,382.1431,713.7534,-398.9394,-245.8254,435.9148,-514.6595,892.3220,-386.1722,-624.0578
509.5078,1370.7524,-250.7075,-205.0179,-595.1712,-366.9153,-653.9611,-562.5197,-638.6945,-667.0909,309.0905,484.2109,-417.3018,-210.1390,519.7220,-500.9637,762.4586,-399.2172,-654.8931
324.8225,1045.6853,-206.5457,-222.6014,-617.2189,-347.1359,-701.6685,-536.2750,-679.2084,-714.3052,263.0141,316.5298,-402.3878,-234.8989,601.3101,-498.7328,622.9876,-375.7171,-664.3027
422.6683,639.9641,-263.0793,-232.6227,-613.0417,-369.7975,-748.2501,-554.6095,-749.7859,-678.7008,281.5646,296.2285,-402.8251,-326.2707,666.5098,-561.3773,472.5581,-359.1968,-633.4988
512.2560,604.7905,-358.6685,-307.0643,-587.2728,-455.6228,-724.1747,-643.0607,-710.5406,-720.0784,259.8504,346.5907,-452.6866,-486.3568,693.6153,-659.0904,306.6004,-410.2043,-564.1011
127.5272,871.3539,-316.2975,-453.1365,-555.8159,-525.1602,-624.7353,-706.3081,-607.3989,-843.0344,31.9286,255.2570,-476.1823,-623.5491,710.5027,-678.6150,124.4950,-443.0118,-481.8566
-416.2591,810.6439,-191.8973,-542.0923,-520.2055,-501.7490,-503.7512,-695.6494,-531.8528,-845.5732,-313.7944,97.7082,-441.1999,-646.4424,756.3853,-647.4724,-85.8292,-401.7370,-429.9101
-465.7273,394.7708,-209.3822,-545.8802,-504.2898,-457.9810,-411.4119,-703.2485,-446.0338,-705.1356,-491.9032,98.3842,-415.4527,-609.2621,812.6095,-663.0124,-290.4594,-386.8566,-440.3181
-198.9819,69.1023,-350.1505,-556.4977,-520.2305,-467.1158,-383.5461,-734.1310,-360.0884,-594.1996,-471.0807,96.4274,-400.5383,-539.1951,851.4529,-664.4708,-408.5745,-419.1822,-444.7539
-300.2173,-110.2457,-350.5047,-541.5509,-490.0629,-456.6429,-386.4783,-665.1654,-336.7435,-590.2385,-514.1292,-115.0613,-341.5711,-380.1656,880.5920,-573.3398,-461.7821,-407.4605,-350.2324
-713.5790,-208.6469,-154.3360,-455.8464,-384.6011,-400.3773,-370.3692,-541.1661,-347.0654,-654.9074,-681.4536,-266.7486,-284.5532,-255.4160,891.3527,-476.0456,-547.1686,-385.1943,-242.2053
-775.4931,-87.0777,-38.2999,-415.9272,-344.5168,-395.8370,-396.5767,-545.1671,-384.1450,-725.6382,-705.6946,-117.5651,-316.1345,-352.8827,868.1025,-470.3381,-614.8288,-431.6206,-261.0596
-444.6574,184.9255,-154.5343,-452.0063,-417.2150,-440.6503,-480.6223,-655.5074,-461.1297,-715.2924,-518.3898,65.4751,-391.8400,-528.3945,846.4243,-518.6638,-565.8439,-480.8273,-313.6579
-363.9514,366.8221,-268.6100,-432.8759,-413.8310,-437.2096,-458.3839,-705.0033,-448.7687,-599.1064,-427.7152,4.2559,-373.6284,-516.4250,857.6464,-512.0135,-518.1203,-469.0139,-249.0616
-639.4663,440.4385,-188.3899,-361.8203,-284.9832,-397.4234,-314.4333,-680.4419,-312.2453,-495.1562,-527.2031,-149.0972,-241.6798,-398.4009,871.3668,-398.7726,-607.8597,-444.9690,-182.4981
-626.4332,498.3331,-109.7887,-348.3095,-258.1780,-379.5739,-297.4496,-654.5249,-282.5736,-536.7527,-492.6377,-118.9299,-162.2852,-386.2070,864.2255,-276.5765,-708.9728,-428.2995,-250.4144
-204.9162,579.8836,-206.2628,-374.7393,-386.4011,-363.8688,-428.7508,-612.7006,-404.4498,-667.7648,-253.5472,74.3860,-242.3361,-406.1288,856.8575,-265.8770,-699.9178,-395.2624,-281.4305
-82.9642,690.7518,-286.8694,-398.9975,-426.4013,-343.9795,-412.5331,-540.9185,-389.6105,-647.2159,-175.8151,166.9669,-335.1355,-322.6706,861.3245,-288.6073,-701.4987,-360.9626,-110.1272
-440.8076,705.8628,-230.0657,-451.7958,-299.3070,-349.7021,-201.1467,-467.5581,-175.7173,-391.2390,-327.0040,81.8487,-287.5472,-260.0421,874.6343,-214.4203,-793.9026,-315.5878,93.3474
-611.7532,509.7519,-239.3996,-504.3669,-199.0904,-351.0520,-54.6173,-367.8422,-28.8182,-178.6575,-355.4154,37.2124,-196.3785,-341.0261,892.6013,-116.3366,-864.1506,-222.6483,150.1134
-404.3889,269.7717,-356.4192,-500.1403,-208.8409,-301.1049,-41.9281,-216.4991,-30.8313,-189.1323,-209.8106,65.8490,-191.1568,-412.0955,885.3261,-85.5312,-846.8312,-134.1982,164.4657
-300.7248,215.2698,-347.6280,-471.7989,-223.6228,-226.1877,-32.1645,-76.7318,-27.0036,-147.3672,-157.0936,-42.9645,-216.7887,-322.6662,827.6239,-45.2730,-795.5284,-143.0607,235.4808
-355.3908,329.3963,-234.0732,-459.0084,-205.3893,-194.9200,-0.0986,-14.0709,48.7190,98.0021,-186.5567,-149.1801,-197.1046,-195.0043,750.8729,30.3366,-754.0538,-231.4491,260.6447
-276.8588,449.4611,-246.6601,-444.6969,-200.0718,-234.8600,55.7598,-17.0774,181.4662,219.2856,-128.3934,68.2863,-145.8517,-180.6580,691.0117,61.4156,-746.4849,-279.1845,190.7909
-182.3387,427.0794,-313.4191,-407.0248,-196.8390,-278.9120,192.0407,-37.4909,350.7565,112.2421,-55.8559,348.6070,-89.3620,-213.8996,632.1540,80.0382,-759.6129,-213.5467,136.2265
-213.9944,259.0746,-234.2900,-332.3294,-165.1791,-235.9701,336.8536,-30.4382,446.6322,130.2320,-58.4245,238.5778,-67.7164,-184.1802,558.7500,158.1718,-716.2723,-107.5046,152.7240
-186.5284,127.8679,-94.4195,-240.7531,-120.4189,-138.6712,376.3137,18.3371,402.4873,328.5381,-55.0132,-42.1109,-87.9117,-117.3704,494.1120,234.3946,-610.6768,-75.3641,191.9635
-129.8204,86.6353,-31.2716,-189.9852,-68.9447,-87.5679,383.6817,77.1083,358.2861,412.1050,-42.0869,-56.7901,-52.4049,-87.8652,455.3688,249.7183,-543.0256,-87.0824,238.4715
-215.0276,1.8507,-3.5019,-175.3460,2.2157,-73.2476,447.2253,126.1157,434.3788,384.3850,-74.6581,77.8700,53.5393,-119.5403,432.5739,253.9397,-546.2844,-25.5441,301.5858
-244.4732,-45.4387,7.8424,-130.8538,80.0740,-25.0680,478.4364,205.3207,521.8179,398.3236,-85.6923,67.2425,81.8802,-159.4245,417.3087,300.3626,-568.8677,115.0387,354.2044
-123.7873,21.7974,13.2158,-34.6644,163.4801,72.1479,433.1156,354.4885,503.8700,387.5313,-72.3393,-71.5760,30.3358,-88.9827,406.1233,395.3373,-586.3607,267.6915,395.9446
-211.8290,-139.6000,135.6494,94.6739,290.7516,215.5571,435.5214,533.3955,463.9244,405.8905,-161.0063,-227.0163,88.8943,107.7273,381.6945,487.4010,-572.9172,410.6920,460.2241
-513.4413,-583.4808,344.5935,205.1430,447.6913,360.0692,519.8931,641.3438,490.7863,625.7490,-295.1619,-326.5063,259.9222,255.4385,322.3370,488.0227,-504.5452,499.7134,511.2301
-463.6387,-657.3764,382.2725,206.3524,533.5895,399.9722,547.7620,634.6907,507.0652,838.3722,-254.9121,-273.1382,333.1266,254.9047,230.7834,427.1749,-442.1725,480.6636,489.4935
10.7104,-197.5253,198.8647,119.8107,507.9283,356.5798,496.8733,594.2559,484.3713,745.6461,-61.7880,-113.5404,263.2297,244.3215,132.4365,440.3089,-432.1288,431.2624,462.1479
215.1163,23.9059,67.3096,97.0760,485.5681,384.0894,530.8441,603.9487,551.6812,519.0732,16.0042,-21.8204,228.8668,331.3984,42.7493,522.6136,-401.1442,464.3329,521.9153
-133.3360,-296.6406,146.3024,171.6119,573.0687,489.4296,654.0166,623.3488,669.6419,429.8704,-93.8554,-12.2567,334.7091,433.5736,-38.2024,554.9404,-299.2669,533.7845,573.1462
-390.7511,-566.9558,278.3061,239.8546,684.1728,537.8259,636.8585,598.5523,605.3152,440.5391,-150.9056,-2.3522,473.0103,461.4459,-102.8490,539.1060,-188.5826,526.9814,489.7274
-144.9303,-558.6044,290.0057,272.5856,677.1055,507.0524,470.5814,584.0517,444.2804,511.1164,-33.6973,-47.1832,498.7098,423.2409,-147.2034,547.6833,-116.8562,447.6035,390.6589
72.2894,-655.5135,247.9211,296.4017,605.5131,470.6540,456.5264,617.1772,511.0265,678.5644,51.7277,-176.7049,435.9227,384.7583,-192.2427,579.4312,-58.1770,390.6781,414.6296
-55.7987,-883.5065,288.6338,316.8033,609.1043,461.4686,605.7917,623.4852,655.3514,786.0162,14.6742,-220.7273,400.1394,423.2419,-255.3495,610.5152,24.3735,408.7176,410.8276
48.4846,-906.0800,352.2720,367.1189,643.7299,477.1857,551.6567,552.7554,467.6913,686.2231,86.5824,-86.5468,395.3537,495.5796,-327.1097,612.5813,132.4139,445.6302,251.3652
496.5990,-771.1901,335.0923,431.2888,603.6848,476.2029,289.9888,456.2109,151.0040,530.5974,293.8231,29.0887,389.6137,458.6282,-399.0746,546.9844,212.4688,430.4046,135.9543
490.1245,-794.7255,349.2084,441.4290,567.4031,429.9787,228.6660,395.4655,174.0917,498.4431,337.5807,-45.9220,442.8727,352.6452,-476.8064,470.5712,219.8005,413.0439,193.2921
28.2760,-963.5104,472.7861,467.2977,614.8195,421.6805,372.8409,394.7661,357.0225,530.4564,229.5119,-170.0827,537.8235,360.7406,-566.4854,476.9313,213.5614,457.9732,222.4800
47.4212,-1032.9751,512.0331,575.7780,633.1344,485.9162,356.0088,442.4372,297.1487,498.4286,268.1233,-150.4780,542.3041,441.0499,-679.9663,515.4016,272.8225,474.5540,134.6385
504.0152,-1012.3573,392.7702,600.7215,567.9700,485.9947,207.4197,481.6888,145.4360,387.6056,368.3522,-54.5931,468.7309,419.9543,-829.7297,489.6127,374.9356,386.7664,115.5223
535.3129,-1110.8822,351.5570,470.2686,544.1528,387.5210,198.2584,480.8519,152.0870,269.5364,263.7677,-35.7566,436.9719,351.8181,-1005.3619,424.2407,471.9548,313.2161,200.1984
205.1839,-1303.2059,454.4746,411.1196,590.2163,347.0120,246.2972,483.0592,181.0185,209.9261,94.0694,-88.2382,428.4093,371.3529,-1178.2969,357.2515,552.0453,347.7738,228.5785
76.4366,-1370.2451,485.9789,494.5287,611.6799,387.0311,203.0412,495.3166,149.4451,194.1914,57.1110,-130.8797,391.0522,423.8464,-1316.9916,261.2656,580.6926,388.5482,190.2475
46.6491,-1326.9420,397.5791,508.1465,610.2416,371.0029,197.4945,440.2841,176.0687,171.2860,27.8230,-111.6319,369.0871,429.6933,-1396.8132,153.9708,552.0526,331.4397,171.6029
-15.7922,-1359.2073,309.6193,395.3563,596.6777,279.0323,257.0850,308.5037,208.5882,161.9340,-38.1505,-23.5913,353.9532,406.6722,-1428.3798,104.0591,543.2751,212.8645,147.5127
126.9784,-1423.1526,218.3924,283.6282,495.6476,181.9350,219.0859,209.4360,144.5946,198.1926,-1.5456,17.3511,305.1962,337.3343,-1449.3241,138.1723,586.1113,131.8483,89.5630
354.7673,-1381.0341,114.1414,208.5887,351.4984,108.4067,110.3698,197.9208,78.1237,212.9893,100.5273,-108.3198,279.3412,217.2665,-1466.6270,223.1114,619.9627,144.2420,39.4252
373.6182,-1341.3868,81.1794,174.4940,307.0146,82.6081,54.0238,201.9664,49.3140,151.6566,169.5520,-266.3575,293.8929,147.1307,-1463.1277,271.3368,613.4912,171.8636,16.0662
306.0417,-1404.3796,108.6294,192.8608,338.3568,78.8877,5.7145,170.3304,-33.0100,93.0530,238.0933,-247.4874,285.4835,163.7244,-1444.8691,205.1140,585.2511,78.9061,21.8447
327.1333,-1363.5023,118.3493,179.8944,325.7212,16.8210,-69.5501,140.2677,-140.7448,108.6112,273.0870,-121.3780,269.5652,169.2298,-1413.6302,81.7230,552.9077,-83.4766,33.7689
427.3902,-1081.6168,108.2808,113.7577,257.0117,-62.5648,-107.0299,124.6010,-179.0325,129.6654,241.4288,-76.8337,257.8299,117.2318,-1351.3457,30.9133,537.1985,-141.8252,-19.4745
536.7582,-845.6492,86.5122,100.4174,167.9577,-57.0915,-89.6680,83.9141,-131.7817,87.2829,251.7017,-131.5707,179.2360,72.4488,-1274.9905,62.7942,524.4717,-112.4953,-105.6995
392.0824,-945.3690,65.4451,129.8101,88.7263,-16.7870,-8.2942,35.4177,-3.4441,44.6962,256.8346,-225.8485,80.3967,78.7396,-1213.5438,93.5405,470.9698,-124.4714,-101.0892
-0.9267,-1141.2532,83.5143,104.3151,51.9553,-29.3133,118.2982,38.0097,113.5675,71.0398,106.0187,-298.9744,72.3525,84.8203,-1139.0670,100.1141,405.1294,-158.7376,-50.4385
-15.7562,-999.7078,84.0064,56.6379,7.9658,-67.5541,137.0411,79.4106,64.0065,122.3438,-13.3536,-254.4226,81.6309,14.3005,-1023.2363,111.9002,380.3930,-160.9444,-77.7905
424.8263,-651.8311,21.3757,49.6430,-86.9453,-94.3903,14.2030,128.4546,-61.4749,145.2630,114.1045,-150.8296,17.9596,-82.0885,-900.4053,129.3568,360.4250,-165.8537,-102.8396
523.5980,-620.2949,20.3002,72.5306,-138.6623,-82.4049,-49.1540,214.6171,-48.0297,154.9420,251.2399,-210.2250,-44.1299,-51.9230,-798.5625,129.2842,311.4271,-159.0208,-34.1255
306.5237,-858.0209,78.9405,116.5675,-133.4660,-4.4426,-21.0119,307.0638,10.9285,156.8256,209.6421,-409.6611,-92.8246,67.4184,-703.6741,101.2674,260.7604,-113.0492,-0.2422
603.4671,-789.0289,-17.6338,113.3604,-202.4202,30.9965,-61.2028,290.3914,-57.5040,135.0845,223.7117,-462.7504,-188.9076,47.4553,-617.0585,66.7080,192.3208,-104.6430,-72.9268
1118.1241,-412.9355,-195.2313,-15.0086,-281.6606,-77.8450,-108.2661,183.6251,-113.2597,101.8978,365.6906,-324.1207,-228.3168,-95.8645,-550.7565,60.8277,102.2095,-140.8572,-123.5129
977.1359,-298.0828,-141.0298,-127.5353,-207.7050,-171.4529,-42.0788,133.5685,-41.8130,57.2088,382.8433,-237.3988,-134.2585,-104.9467,-491.6424,75.7464,73.6202,-113.6415,-104.9722
609.0608,-424.6813,47.2744,-68.3467,-131.8900,-110.0457,-6.5645,143.4426,-4.2118,11.7724,278.3857,-275.9998,-77.7640,-1.8653,-431.4060,70.7700,102.4277,-51.6184,-92.7631
763.5121,-291.1693,42.4925,13.4066,-243.3905,-48.4762,-77.8604,111.0982,-50.3297,50.7010,269.3222,-298.4223,-149.5592,-29.1627,-375.9044,50.3714,86.2259,-64.6785,-76.4605
975.5385,-34.4720,-54.5436,-27.9206,-352.5898,-76.7485,-90.1706,81.1730,-43.9181,170.8302,292.6223,-280.0628,-183.9294,-121.2316,-318.0600,46.2720,50.1412,-87.1248,-15.4885
756.9208,-119.8106,-1.3948,-54.0936,-287.6480,-45.0004,-19.9198,140.8291,10.4909,200.6310,191.4068,-288.9202,-130.6161,-63.6570,-256.9944,37.4975,62.4244,-32.8456,43.2811
622.2978,-322.8376,56.7909,16.8319,-230.0596,54.1340,6.3167,206.5457,37.9288,114.5981,91.1151,-272.4721,-172.0938,41.5266,-206.4543,-5.0068,49.3698,6.9549,52.8732
901.7419,-242.9429,-40.5984,73.4315,-297.7636,71.2538,0.2929,180.1791,50.3204,104.3252,149.2163,-197.2099,-348.0376,36.2698,-158.6986,-33.2185,-13.7318,-3.3249,7.0011
1145.6907,-122.4250,-111.5915,110.8602,-340.3992,55.5176,-16.4788,116.2371,2.6386,160.1960,251.9211,-197.4400,-438.7798,35.2097,-95.7272,-0.8963,-13.3395,54.7869,-84.4421
1062.3778,-182.5409,-31.1347,191.4786,-288.8509,122.3331,-94.0477,73.4536,-120.1318,75.2832,222.1743,-308.9811,-317.6479,80.5671,-23.6768,27.8023,48.9869,159.3794,-150.4007
834.0699,-102.2935,53.8856,226.9284,-243.2691,161.2579,-141.7135,29.8345,-145.9276,-73.1742,91.4661,-326.4517,-156.6027,-2.9555,45.8567,-12.2386,65.7231,141.6454,-119.8553
615.8029,192.7646,56.6490,147.8413,-239.6356,57.5616,-58.1219,1.9753,-24.7752,-32.7127,7.7696,-166.4321,-154.8366,-186.2273,112.0249,-44.0971,39.6531,30.5082,-44.1832
454.8293,273.3750,45.1559,47.8711,-218.7013,-67.2987,44.3056,38.8925,46.9214,119.0567,3.8345,-44.0948,-238.7874,-226.5094,174.8864,12.9446,-2.4056,19.4728,-9.4902
427.1386,40.4416,27.9013,4.8372,-155.8938,-67.5850,70.7329,113.4110,32.2760,146.4056,1.8351,-97.2473,-229.5667,-108.2004,239.8457,72.1347,-89.7437,106.4891,-2.8358
514.6285,-125.5796,-34.2695,5.1048,-110.4350,15.2635,81.5642,158.4287,76.8544,107.9827,-6.9839,-186.7753,-160.6218,-20.0703,302.8451,44.8872,-162.4024,121.0932,26.1757
561.7612,-43.4560,-89.5736,30.9253,-135.7111,60.3365,88.5842,151.4246,133.6436,166.8016,24.4354,-193.3199,-162.2521,-24.2861,336.6116,14.5660,-146.6830,55.2372,82.0344
447.0485,112.7713,-50.6114,65.0941,-155.1090,39.4307,73.8601,110.0722,94.4494,247.9115,45.2279,-193.2166,-188.0679,-60.7910,340.5572,55.8200,-119.5467,50.4540,139.8988
228.3498,147.8936,70.9984,91.2121,-85.6892,21.7527,98.4986,73.8297,78.8212,220.0316,-6.7731,-264.9443,-138.0941,-78.5556,354.2028,101.3272,-138.2272,117.2796,162.8922
110.3031,34.3998,142.7301,101.6859,-45.3684,37.1586,157.3488,75.0881,177.9687,138.9806,-46.8206,-322.5826,-71.6535,-52.8725,381.4157,111.7663,-132.0712,132.5475,134.3625
190.8072,-30.3832,44.8163,49.1267,-137.1043,12.5028,187.0373,88.6853,264.2637,119.7578,-2.9991,-219.8714,-63.1821,-37.9591,385.8764,124.5706,-101.9678,60.8380,104.6957
242.4287,136.3868,-131.4982,-80.5405,-180.5976,-79.8168,235.4584,75.4415,279.5211,164.4729,12.6052,-1.7882,-47.1229,-97.7408,370.4163,126.5801,-121.4087,-10.7000,139.4909
-34.5906,307.4323,-131.6331,-150.6474,-20.1179,-116.6691,327.4359,69.9319,308.4482,197.6228,-103.3953,79.1943,28.3624,-124.1609,366.8263,109.7344,-145.3260,-5.4842,221.8452
-482.7045,142.8572,95.6431,-33.8673,167.8089,-5.2926,335.7591,119.9619,316.0273,166.7811,-247.5882,-56.8098,81.9004,3.3034,371.8977,125.0132,-95.1169,64.5587,261.5212
-548.2667,-144.2790,260.2965,156.7395,171.6550,136.5296,205.2630,171.4744,193.4092,84.7359,-245.1428,-156.8295,41.7006,131.1455,366.5466,143.2972,-15.3509,102.7390,203.7694
-91.3556,-63.5839,136.7156,192.2681,36.2848,129.5003,59.3776,139.8630,25.8507,14.9370,-73.7519,-67.3926,-32.7878,45.9400,352.2091,102.7665,24.6371,32.9832,110.8231
274.7527,312.9278,-102.2041,39.0070,-77.8927,-7.5159,14.4381,61.5902,11.9733,22.8854,90.9651,34.7947,-42.0745,-155.9783,336.3636,82.8106,15.4912,-55.7975,99.7545
43.3276,442.5981,-161.4864,-100.0079,-61.0714,-83.2496,90.3542,47.0040,165.2383,113.5531,48.3684,10.7041,27.6769,-219.2962,327.2031,138.7536,-50.2362,-1.7129,186.1360
-449.3288,154.1537,-33.7378,-62.6531,86.9886,-6.2829,238.7655,106.2382,311.3563,209.7569,-157.9644,-73.4553,114.0941,-100.2855,331.4660,137.4163,-160.2837,170.2301,265.5495
-618.0592,-160.9510,74.0721,62.2014,231.6302,108.5404,356.4637,146.5507,351.4690,233.0819,-254.4335,-168.2141,153.0241,28.9383,333.3034,29.3411,-248.6436,281.0534,270.9719
-432.5443,-192.0678,62.0401,99.8772,262.8084,149.7859,373.3152,133.3127,341.5165,196.3449,-122.4824,-239.5102,119.9054,40.0239,315.0432,-12.2918,-280.0479,273.1161,250.5990
-197.8688,-72.4447,-0.1811,55.4348,235.8495,155.0915,317.8729,129.8452,315.5910,163.9792,44.6395,-203.8239,58.8082,-20.7189,294.2372,81.1659,-282.8791,227.4157,278.3857
-103.7296,-0.4627,-28.1771,35.0708,232.9352,165.7409,250.1788,173.4109,244.1819,170.8835,68.0925,-110.6474,65.4695,-49.2160,292.7424,157.7796,-263.9572,183.2592,362.6428
-255.7289,34.3538,3.2851,43.6760,260.1953,143.0268,213.0291,230.4864,182.5530,216.6119,-11.5127,-101.4921,164.1057,-37.6904,297.3538,144.2322,-198.5869,153.9062,435.4373
-589.7031,9.1206,78.5359,57.9611,311.6543,105.2020,226.0106,276.1529,225.9720,256.4350,-101.3301,-142.1932,243.3250,-26.2626,289.9138,121.0411,-115.7608,186.4425,421.5600
-746.4966,-107.6903,134.9789,108.2743,338.3321,119.8418,269.4246,309.4198,329.6993,230.1743,-151.7174,-117.5792,204.2844,-0.9747,277.5901,105.3479,-84.3358,242.2525,347.3974
-546.8590,-81.4094,102.3139,156.1560,265.3488,147.9805,331.7473,312.0651,388.4291,184.9843,-124.0548,-63.7793,101.2212,41.7097,270.9809,51.4427,-97.4879,210.2151,319.6856
-326.0737,200.6216,22.5317,136.0610,159.5107,126.3190,413.7067,285.9017,397.3956,224.5116,-60.2845,-45.3399,48.3574,66.2635,270.0623,3.6899,-73.9657,129.6572,358.5979
-365.3221,367.0836,30.3180,124.2529,156.6155,118.0094,435.9337,271.8658,365.6402,289.3757,-45.4868,-7.8071,65.6241,90.4362,277.4427,20.2409,8.9415,145.1601,369.1218
-479.9833,248.6577,145.3615,194.7673,229.8893,168.2505,321.8486,264.4488,255.8577,240.5783,-49.5555,92.0069,92.4911,129.7726,291.3968,45.9593,95.5286,220.9312,310.5204
-491.0806,229.1268,233.1537,238.4217,265.7589,186.5764,164.2265,210.7735,116.9082,130.0303,-21.6674,181.7981,95.3593,119.8465,291.3050,35.4814,157.4313,207.8150,248.2068
-477.3829,399.8620,222.4671,175.9630,235.4400,140.3006,87.9713,124.6934,56.1593,87.6678,-14.5913,175.1955,87.1384,65.5005,266.0365,58.3746,192.1874,143.8352,206.4410
-402.5182,394.5727,178.4150,121.8397,149.8727,124.5610,58.2252,59.5237,60.1429,76.5660,2.0496,105.4923,69.9474,62.0321,243.8882,133.5156,170.1991,155.9512,119.4796
-184.2487,258.5332,160.1713,157.1328,52.1608,142.4348,12.6729,-10.6211,41.4534,31.2929,139.0390,88.7114,50.6536,74.1812,250.0960,147.5688,109.6630,188.0883,-22.4363
-75.2793,330.4794,184.8024,208.3508,43.3014,95.3738,-15.2021,-116.0930,-3.2934,6.4001,272.9489,136.5403,87.4677,1.1189,259.1209,72.1367,99.5825,145.0503,-113.6982
-274.4908,467.7765,254.3951,227.5738,121.1894,20.3813,-15.8707,-179.7495,-33.7227,12.7511,196.2540,144.5289,186.6066,-70.5029,244.3625,39.3867,160.2386,105.9288,-94.3604
-460.2617,389.9748,302.5803,242.2788,155.1109,44.9058,-35.3404,-148.5596,-51.0555,-20.4320,44.3392,107.1597,221.9765,-12.3182,233.0316,92.2167,219.8400,133.9846,-53.5143
-347.0751,271.7043,265.3278,243.6073,117.9182,128.3493,-69.2516,-108.3333,-54.0266,-83.2711,55.8725,122.0807,140.5128,96.2630,250.9102,98.4760,241.4681,134.7731,-81.5488
-181.7723,346.8432,208.0001,207.5182,89.8779,122.8710,-76.3172,-129.1741,-24.0362,-122.9934,136.5277,187.3975,94.1780,131.5369,271.9207,-0.6380,225.5811,66.7943,-131.0437
-204.1138,506.9415,200.6951,154.9062,67.8489,40.0180,-50.2744,-159.7485,16.0147,-144.7980,115.3881,236.3078,164.3718,120.1261,270.0033,-77.5098,155.1670,13.2718,-117.3411
-272.2531,546.6682,189.1815,108.4071,24.3303,16.6014,-13.2995,-160.3627,24.4668,-131.8797,58.9897,275.5900,204.2098,120.6761,245.1349,-31.6932,63.6996,0.3932,-54.5723
-266.8894,454.4289,130.1149,79.1171,2.6948,72.0938,10.4847,-165.6386,12.0642,-48.9556,47.5574,318.3371,130.7869,125.9724,182.7583,52.7542,42.3539,-9.6340,-19.1901
-252.5471,431.5581,63.4845,90.4173,1.2282,103.0205,16.6854,-179.2310,13.7440,50.6468,41.1114,329.6106,64.3291,123.8685,81.5974,66.7633,102.1535,-4.2180,-47.1550
-289.1482,557.0031,29.5661,141.9770,-10.0067,80.0267,25.9728,-151.8212,27.6601,103.3062,8.2504,279.0963,77.3876,121.6860,5.9434,64.5204,144.6157,35.2293,-97.6517
-434.5201,539.6505,69.4904,194.0430,29.7883,79.3081,46.0963,-66.5651,48.0148,122.7466,-82.3799,162.0849,108.5442,138.3041,12.1818,116.1067,100.3845,76.2527,-110.2156
-598.5143,279.3045,162.7596,205.4518,123.1908,119.5586,60.0527,27.8326,86.1746,104.8253,-188.5100,70.4268,127.1811,183.5316,60.6204,109.3942,19.1953,76.9494,-99.9058
-477.9689,217.3019,148.4359,152.4763,127.6164,118.8269,47.7891,61.5437,98.8671,35.0791,-105.9725,154.3757,154.6195,199.7768,80.8713,-25.7760,4.0958,20.6242,-117.7962
-141.1478,483.3103,-11.8585,62.5722,33.0524,58.0146,-5.6740,32.4432,21.2862,-12.3100,151.7424,336.3208,184.9270,128.1954,67.5745,-104.0160,71.8598,-38.5640,-116.8099
-103.2318,586.1029,-88.3285,24.1604,16.3876,39.2309,-72.3546,31.2785,-82.1743,8.3147,202.0388,352.5678,194.1543,47.9521,48.2216,-20.7066,119.2157,0.8839,-32.8320
-355.3082,398.6194,-7.1675,61.2018,82.5484,94.7066,-89.2203,90.2734,-90.8723,22.0745,-24.9580,199.2814,162.7059,59.7937,24.3431,41.7968,70.4478,107.4898,35.8041
-322.2061,268.7785,0.7150,65.0296,41.9630,98.8114,-74.1077,93.6452,-48.0782,10.4046,-65.4966,97.0996,104.4027,71.1309,-2.3492,16.9599,-20.0583,117.1802,-26.2078
-24.2170,195.4042,-105.0631,-28.1560,-100.5651,-10.8704,-93.9933,-15.0608,-54.2401,46.4348,225.2901,58.0217,85.6335,-43.3576,-10.4921,59.3079,-79.1854,15.3986,-127.0711
-24.2694,19.9447,-100.5768,-112.4788,-137.4681,-101.1756,-93.1892,-103.0171,-36.8351,102.9132,403.4845,-41.4777,124.2413,-150.9138,-3.8917,132.9438,-115.2998,-36.9342,-143.3747
-287.8076,-128.7071,24.2103,-78.9634,-26.7143,-63.6882,2.6708,-86.2903,71.7787,111.2980,273.0894,-165.1227,147.1119,-56.3619,-11.6027,88.5909,-145.4264,3.2247,-133.9918
-347.4856,-222.0443,85.7845,26.1391,75.9226,15.1746,81.8510,-62.0727,126.8363,124.0250,144.7405,-227.5674,143.8093,119.7897,-25.2509,30.0870,-138.8714,31.6252,-159.2200
-252.9054,-294.3598,80.8766,92.1992,87.4042,29.8476,36.1379,-78.1390,38.0660,141.7770,160.6087,-213.3729,185.6794,138.1115,-11.0691,65.2270,-75.5257,18.2274,-137.7165
-311.4051,-133.4226,101.1479,88.0617,47.9943,22.2652,-29.6437,-55.9208,-41.3205,30.8226,133.1802,-115.5777,232.4715,64.1393,15.5396,58.6798,11.2635,10.0047,-45.4039
-384.8370,193.1839,113.5838,62.6122,-3.6688,53.7915,-22.7615,-6.3110,-12.1100,-157.5925,43.5173,-4.9371,159.7013,75.9399,11.4525,-24.7761,61.3454,3.2175,9.3003
-212.9453,289.5555,58.0405,47.8394,-49.8752,66.8771,-8.2353,-21.4127,27.5331,-163.6763,71.0863,12.6424,0.4974,84.5594,-16.8801,-45.0755,44.0667,-36.1403,3.9415
21.6313,216.7410,-57.4457,11.8060,-72.5158,1.2733,8.0180,-54.0599,40.6169,40.0082,181.4637,-6.8563,-74.3123,-15.9029,-34.3665,-13.4570,-9.4653,-105.8459,54.7790
-26.9778,226.9027,-174.5815,-58.7452,-71.5504,-62.3246,98.0923,16.7929,98.0268,208.0856,155.8006,13.2120,-7.5484,-61.0750,-35.3492,-12.5372,-54.5384,-158.6762,200.8073
-305.3324,125.9921,-195.8635,-95.9972,-50.6402,-13.1039,194.0227,154.3611,167.4673,233.3676,-17.1113,-20.8127,94.3455,39.4648,-29.4993,-4.5275,-85.5002,-132.4611,326.9906
-446.0580,-131.3819,-102.8480,-58.1242,-4.2221,103.9343,172.9421,221.7744,157.9628,196.9515,-126.2180,-137.0855,123.2501,109.3245,-22.7266,2.6270,-96.9948,-29.9595,342.3860
-314.8850,-186.9314,-18.5731,-4.2738,51.0230,161.6207,89.7138,191.9529,99.9278,131.0281,-83.6187,-184.1374,52.8201,80.1073,-23.2176,-38.1138,-69.4945,66.7591,295.3430
-144.2642,-31.8152,-21.5491,15.7003,81.5785,149.7038,80.0771,141.0791,79.0083,38.8186,-10.6902,-105.7481,-74.6700,63.9603,-23.0751,-57.5331,-33.9451,103.6101,263.5846
-133.1104,100.1921,-60.4843,17.3272,82.3964,136.4861,145.2488,112.9910,106.4134,-37.5194,-5.1098,1.3242,-150.0300,45.9505,-7.8336,-39.0922,-45.3066,89.5599,237.6966
-244.4328,246.0661,-91.8114,3.7156,78.3145,111.8850,193.6339,98.1332,154.5683,-81.0386,-38.2877,63.0718,-80.5163,-33.2913,3.4333,-53.1928,-84.2560,42.0857,179.3952
-359.6959,304.1357,-104.6808,-20.5581,84.6937,46.9111,189.9124,91.5001,197.6301,-49.4970,-47.4977,41.4628,61.7539,-77.1457,-5.6965,-29.1784,-90.8997,0.1815,104.4808
-359.2198,51.3471,-79.6781,-4.6087,81.9291,7.1502,156.6120,97.5459,187.5790,98.2772,2.6267,-42.3755,114.0462,-29.0845,-5.0408,79.9311,-57.2520,11.4260,45.3476
-210.6067,-209.1932,-40.4384,54.9699,44.6880,44.0086,100.5935,98.2865,99.5897,213.7549,79.2962,-60.5242,64.4713,31.3536,19.8966,107.6059,-6.2446,46.3303,14.6542
-97.2443,-114.1149,-9.0044,80.7536,5.2163,91.8360,28.5247,70.8784,0.4238,143.4622,83.4302,30.9076,23.4358,71.3481,36.0814,15.0392,48.3419,43.9671,30.0398
-166.1907,79.9900,52.8985,40.9030,18.0900,84.1792,-10.5190,38.8445,-20.8889,48.0715,2.1612,94.1263,8.1526,87.1013,32.4236,-17.2831,84.5844,20.8230,80.4337
-238.2643,107.9065,113.9678,-15.0023,37.3944,43.5453,2.0870,45.2752,10.9279,82.4548,-29.4141,60.5477,-15.2936,39.5000,25.9902,25.7829,92.6346,13.2628,85.6554
-118.2728,131.6637,64.7510,-46.5859,-30.1365,4.3710,-5.5945,64.3669,-11.9313,55.6822,60.2063,41.7002,-7.9499,-19.7992,13.3659,35.9360,97.1804,7.4828,-2.8821
56.3584,220.2534,-62.2629,-52.9732,-123.1936,-30.2175,-65.5331,28.9276,-96.0867,-127.7309,153.9650,107.1286,38.3726,-5.6078,-0.4840,47.9327,101.6458,8.4865,-102.9706
59.1154,245.9042,-101.4764,-43.7837,-84.8563,-43.1040,-80.2713,-42.8032,-119.7427,-208.8043,126.0237,172.4719,68.6010,45.4264,9.4745,59.9522,72.8225,46.6573,-111.0658
-107.3520,203.8262,-12.1575,-16.5007,57.9650,-13.4390,1.8596,-70.6834,-37.0035,-102.3725,11.4425,155.7401,86.2685,88.9970,29.7951,-16.9058,18.7997,94.8562,-58.1676
-264.0042,148.4349,81.4020,38.8466,120.7183,29.1064,67.3926,-67.1639,38.9244,-41.2452,-57.0339,113.3543,94.9409,130.0559,31.4178,-78.9297,-0.9013,104.7960,-47.6251
-272.1955,106.5084,94.3199,84.1793,71.3576,31.5572,20.9070,-114.8064,13.8089,-73.5797,-26.1322,139.1277,46.0554,110.4898,34.0034,13.5997,37.1664,94.5237,-90.6033
-192.5102,87.6887,80.1249,55.2292,55.9437,2.6447,-71.9567,-192.5106,-72.5760,-59.4566,11.2224,177.2950,-3.4971,31.5362,56.9015,119.1216,90.3802,103.2234,-124.3076
-163.9563,23.2172,99.8681,-8.1309,114.5290,1.4445,-112.7584,-196.7177,-138.1012,-42.7904,-12.3275,113.7986,42.1953,28.8856,71.4010,64.3329,101.1117,111.5809,-143.3113
-133.4663,-53.2641,80.6437,-17.9002,122.3580,21.3441,-91.4057,-123.0256,-137.9198,-110.2830,-1.4907,23.9210,94.8477,91.6844,60.9467,-69.7315,41.0717,78.1584,-174.9864
-1.1157,26.5475,-58.8690,-29.6270,37.9371,-10.2948,-39.5794,-52.4550,-74.4806,-169.4891,94.9505,54.1070,61.0765,57.7657,44.7972,-125.1360,-56.5713,14.2727,-179.3902
81.7439,164.7803,-198.4969,-126.7671,-14.1468,-80.9083,8.7032,8.9657,-17.9917,-147.2928,135.4067,137.0843,46.3870,-32.4174,29.1826,-53.2629,-100.9644,-36.4251,-115.6911
-32.5085,114.2071,-168.0436,-199.1708,34.5695,-99.0431,5.1030,100.6422,-45.5188,-82.4155,57.6810,131.3952,96.6390,-21.4064,6.7920,73.9113,-40.9826,-69.7582,-39.9107
-182.9799,-4.3146,-32.3061,-130.5434,84.3787,-80.9657,-64.8367,167.7209,-127.2788,-8.7030,8.2544,83.1548,89.8184,24.3533,-15.9136,106.2911,58.6053,-107.2983,-24.1763
-169.7897,56.9404,32.8362,-37.4065,54.1719,-127.5608,-138.2494,129.5051,-178.8871,19.3434,44.0863,98.0541,17.5909,-30.7686,-29.0872,8.7505,105.8679,-132.0941,-65.4582
-15.9058,222.3243,7.2053,-57.8188,0.2474,-217.8137,-155.6753,36.8539,-189.0684,-33.3882,61.9277,155.2335,-18.2749,-109.3612,-30.8716,-68.8511,99.5568,-117.2004,-126.8706
128.4706,296.9769,-30.3724,-114.8588,-26.2689,-238.5442,-146.9697,-4.1578,-184.5328,-83.4708,56.3662,177.3583,-21.7149,-76.5894,-29.9383,-66.8904,93.9266,-83.8704,-177.4393
124.7483,186.4600,-37.1853,-79.2716,-55.5949,-174.4129,-167.9710,-6.5249,-172.5550,-101.5544,99.3458,137.9748,-12.4766,41.1521,-46.1641,-91.7868,109.8172,-64.7237,-198.5432
20.1098,-51.0949,0.0326,22.0309,-76.3202,-101.0109,-208.2759,-45.1219,-190.2314,-165.5434,149.8284,105.8997,45.0632,122.2109,-81.7017,-141.0124,125.5659,-68.8990,-199.0697
8.7476,-108.7438,51.2840,72.5827,-21.7816,-73.7216,-222.1775,-95.2614,-247.8183,-197.9906,125.3471,177.8644,100.0316,95.7388,-106.0404,-101.2453,104.1281,-99.3837,-174.2812
24.4457,144.6485,69.4730,36.8451,88.1921,-99.9684,-185.8602,-81.5197,-237.7071,-74.5344,17.0115,273.1815,86.0773,6.9149,-98.8713,1.5015,31.6878,-126.4308,-101.7526
-127.2614,297.4281,71.6303,-6.1555,144.3562,-124.3525,-105.2334,-25.5011,-109.0701,43.8664,-119.8642,200.5302,53.0588,-35.2955,-77.7542,46.5271,-45.5515,-99.3628,-43.5374
-186.9666,103.6281,60.1999,1.7243,94.1220,-74.2173,-32.3792,-11.6642,-5.0315,-12.5956,-163.2343,28.0771,25.1690,1.4613,-71.2703,21.1091,-75.0229,-45.0496,-87.6763
105.5775,-66.6087,-18.5931,13.4722,7.4460,13.4661,-17.6535,-57.5539,-7.7999,-77.4313,-60.5315,15.6070,-30.5327,43.5030,-88.1287,0.3679,-73.2611,-33.9309,-156.2669
262.4457,12.4676,-97.0279,-5.1875,1.9157,38.2805,-4.9674,-105.9745,2.0907,-18.2836,4.5061,147.6650,-44.8690,28.0142,-106.5308,17.1721,-77.2136,-48.3942,-115.8774
-134.5606,104.8650,-25.8090,-10.5079,99.3716,12.1131,77.0507,-98.1744,58.8797,1.3343,-124.7852,176.4156,46.3202,-26.0394,-98.1244,32.1125,-85.1110,-37.5759,-28.9043
-532.3851,69.0436,136.3623,9.5883,175.3692,15.5812,136.8751,-26.7933,40.0039,-79.9450,-265.3745,65.8971,130.5963,-45.8790,-70.9894,11.9316,-93.2734,-25.3664,-27.4458
-361.3646,-48.9198,192.7175,33.8214,136.7693,44.6053,60.0120,42.4598,-39.0085,-95.8546,-198.3035,-5.6188,90.5540,2.2766,-50.6979,-9.4999,-91.0518,-35.3025,-74.7924
46.2544,-153.3866,126.0165,72.2738,72.9358,51.7293,-62.3500,39.8898,-57.1813,-31.9690,-40.8952,42.6649,-18.0984,30.8714,-31.3376,-12.5842,-43.7205,-43.4669,-75.4673
190.5760,-28.6522,60.1470,78.1289,86.8125,28.6291,-88.2240,5.0373,-54.0129,-38.8307,-2.7941,142.8677,-62.4167,-49.6488,-9.8487,-42.7891,15.9270,-51.4222,-38.4272
64.9381,265.4022,44.9981,-10.4957,123.2578,-17.9663,-48.2381,26.3832,-98.6067,-109.7015,-70.7207,197.2453,24.8420,-139.4012,-21.0728,-84.5443,5.4623,-59.7191,-10.1779
-140.5562,261.6574,58.8429,-75.0412,114.6398,-50.5981,-29.8797,68.8502,-109.9328,-121.5645,-126.0001,158.0629,160.7537,-83.8527,-67.5099,-66.7883,-32.9234,-35.1512,-16.4490
-203.4007,-60.0365,53.1439,12.8582,89.3143,-14.8056,-40.6215,18.5671,-65.1774,-92.2688,-98.9064,94.7462,162.6439,47.4055,-91.6979,-34.4094,7.7520,-5.3799,-73.3870
24.0976,-156.0182,-26.8739,110.0040,46.1056,40.0414,-65.3678,-115.5236,-64.0839,-141.7713,19.8119,116.9442,17.4592,65.6058,-69.4369,-59.7768,79.4070,-28.6751,-148.8462
255.3837,45.0307,-117.8791,58.7866,-31.1425,13.3029,-82.7822,-208.2466,-95.8649,-255.5074,124.0874,176.7992,-46.3161,-27.6763,-40.0592,-74.9623,74.9578,-58.6545,-183.2457
105.8732,118.3426,-72.6749,-26.5330,-50.8798,-51.8995,-59.2280,-195.3420,-81.3505,-262.7633,75.1859,128.0853,68.2550,-74.4952,-29.3276,-46.6988,33.6485,-34.4609,-165.3112
-180.2032,54.5998,63.5430,-35.2585,31.0161,-48.5199,-17.5554,-118.7036,-54.9943,-114.4385,-63.6715,9.9319,148.8168,-31.1378,-25.4315,-68.2392,25.3972,-14.8955,-113.4584
-102.6914,115.8607,54.6479,-51.2112,64.3956,-15.0364,-8.3208,-44.5765,-55.3636,-17.9976,-96.3282,12.9583,48.3771,3.1831,-17.3784,-105.9200,21.7051,-49.3877,-50.1366
211.8899,178.6931,-141.0961,-105.4087,-35.3367,-34.7911,-32.6177,-12.9350,-57.0387,-110.1499,-6.6460,126.9924,-70.5568,-8.3821,1.0357,-27.4788,12.0843,-78.0543,-21.0681
259.2380,37.1991,-266.5765,-119.2691,-101.0780,-63.7734,-74.6485,-23.1394,-77.3341,-216.2722,43.8591,140.0863,-37.8691,5.1998,37.7277,83.5018,22.0569,-65.4240,-40.4458
1.2610,-115.0465,-168.0985,-96.0116,-14.3380,-44.1966,-99.9651,-42.9265,-100.7443,-181.6204,-10.1017,38.7784,51.0967,48.7328,79.3234,51.7209,15.7833,-52.8335,-58.2383
-169.9335,-22.3036,-28.6210,-91.8899,68.0581,-16.9743,-55.8833,-49.8346,-57.9823,-127.1426,-75.3160,29.4022,32.7831,31.9644,87.9681,-61.3733,-13.3908,-56.6847,-49.6730
-81.3820,174.9520,-46.6441,-113.7027,-11.0396,-18.0204,-6.7491,-46.6720,-30.3756,-150.7930,-68.7845,113.9730,-61.2542,-41.9893,49.6450,-101.1887,14.8037,-60.1761,-40.0523
66.4860,164.0361,-135.8613,-149.4406,-142.6646,-26.2193,-64.0842,-39.5940,-115.7050,-154.5426,-25.3296,85.3411,-113.8922,-56.4243,11.7647,-77.1131,89.3430,-63.5825,-34.0931
68.2516,-19.4547,-129.4201,-160.3411,-137.3652,-27.9633,-124.0442,-32.5746,-151.2202,-100.0671,-41.1364,-38.0356,-135.7958,18.7945,29.1969,-51.2852,89.2729,-66.5716,-25.8785
-44.0741,-44.8338,-59.7609,-110.9295,-15.9385,-23.6596,-45.6355,-34.5548,-41.1279,-76.8073,-117.8947,-30.4744,-179.6956,83.6401,78.9340,-25.2567,18.6988,-67.8863,-35.2794
-83.3649,146.9596,-49.6268,-68.2612,37.3438,-22.0880,3.8934,-58.0617,-40.8229,-124.0418,-117.7061,125.7838,-184.5745,59.2273,100.4870,-29.0832,14.3360,-80.1407,-73.1612
53.0262,267.3629,-101.1581,-93.3399,-54.9610,-49.4147,-145.4256,-103.8431,-249.9518,-225.4773,17.0429,229.9657,-94.7405,-34.4844,104.2508,-92.7974,92.7775,-82.6642,-119.8725
207.9271,196.8584,-132.7198,-112.2098,-169.0361,-84.0544,-282.6729,-131.4290,-356.9248,-332.4493,112.0513,169.2493,-3.3042,-119.8760,135.9535,-152.6908,123.6962,-29.7227,-130.9813
163.2171,125.3151,-116.4061,-83.0682,-181.8725,-59.6964,-205.9929,-93.2538,-234.7222,-334.8966,30.5280,18.9839,-36.2516,-149.9028,174.3540,-164.5453,81.8980,42.1585,-68.2217
46.6721,237.5369,-108.7088,-81.3567,-156.8854,-2.6334,-104.2831,-30.5718,-158.4708,-235.0869,-66.9653,-30.0769,-198.6123,-157.1805,180.9087,-199.5488,130.2633,28.6644,6.2539
179.5346,550.6429,-163.2500,-102.6695,-216.3644,-8.2107,-193.4778,-34.2113,-276.5111,-216.4416,14.6410,147.4804,-382.0844,-152.0536,183.8227,-290.7507,369.8441,-69.0129,-44.3160
481.1639,863.7156,-228.7333,-52.1629,-319.4017,-54.8608,-393.7932,-92.6893,-451.3266,-335.1756,171.1078,385.7409,-463.0890,-67.6134,213.4358,-347.6384,644.6754,-119.9513,-217.7454
560.0159,863.9778,-216.2441,54.1408,-344.9609,-48.1802,-542.5835,-126.5811,-572.9701,-423.1239,186.8794,398.8536,-432.0031,60.5037,242.2081,-331.3262,729.9750,-75.0981,-346.3070
377.1432,558.1799,-165.8045,105.0795,-327.1120,-21.5179,-571.8844,-144.6597,-599.7086,-392.1177,63.3385,217.7012,-411.1535,65.0543,251.1312,-319.4931,614.3447,-50.7426,-347.6823
220.8718,334.0976,-186.0919,49.8334,-388.8822,-77.2592,-480.6929,-197.4354,-488.5441,-307.7939,-61.1952,97.7750,-465.6258,-78.0898,261.3181,-330.9765,437.7065,-117.8313,-306.0931
164.8638,396.5851,-262.2297,-66.4000,-496.0941,-189.1848,-355.8181,-257.5611,-320.3954,-231.3481,-137.8367,71.5511,-508.8246,-215.8292,276.1546,-315.6011,264.7986,-178.5168,-293.3539
86.9483,534.7726,-300.1823,-145.4676,-508.7581,-240.3643,-309.9786,-281.2729,-257.3814,-245.4247,-194.0917,6.0581,-473.2739,-276.0280,273.8553,-313.3938,95.3853,-146.9829,-286.5924
-24.3093,465.8590,-274.3529,-141.0691,-424.2967,-195.3513,-337.1485,-263.0432,-318.9109,-389.7514,-243.1931,-70.2219,-408.4087,-283.0538,254.5470,-364.4411,-27.6771,-74.6836,-238.4929
-125.8402,117.4178,-212.5257,-123.4657,-352.7568,-123.0983,-357.5570,-187.2436,-378.9916,-473.9694,-290.9061,-72.2471,-381.0733,-227.8735,239.4659,-371.1378,-81.2634,-25.0660,-135.9427
-206.0930,-278.8533,-159.4978,-132.5411,-319.8073,-92.3048,-336.7387,-80.6000,-342.1037,-332.0597,-329.9135,-74.3628,-411.6082,-139.5325,235.6364,-299.7903,-118.6916,0.2584,-30.7215
-234.5898,-368.6435,-165.3316,-100.9166,-280.0010,-104.3371,-280.8012,-48.7964,-240.8984,-159.9957,-331.0536,-155.3474,-445.7637,-112.1535,230.7391,-283.4555,-167.8486,-10.7042,-1.6669
-226.1461,-146.7633,-203.6827,-42.5679,-242.1826,-130.0543,-228.6907,-119.4084,-191.4801,-181.1842,-309.8619,-229.8556,-369.4229,-177.7797,214.8061,-350.0412,-181.5450,-73.2510,-48.1963
-217.4838,57.9324,-206.3783,-62.6454,-244.5939,-174.4068,-240.0465,-194.8454,-239.2403,-261.8754,-315.0220,-191.5497,-206.6931,-295.1521,191.6429,-386.2824,-129.4473,-150.2937,-99.2204
-146.7829,99.9143,-195.8933,-128.9476,-281.3619,-245.5212,-314.0269,-229.4921,-310.0792,-229.6386,-307.7637,-79.7666,-175.5707,-390.8156,169.3252,-396.8419,-47.7317,-192.1937,-131.2689
0.9166,17.3843,-204.7138,-140.5927,-316.0306,-294.5449,-402.1187,-250.9841,-368.1335,-182.4673,-217.1387,-23.8640,-335.1972,-372.0018,149.8139,-421.6696,12.1855,-178.6510,-167.4685
69.8492,-213.6787,-170.2842,-150.4282,-311.1238,-279.0662,-481.5352,-234.1799,-442.5210,-227.5491,-129.3730,-87.3508,-433.1947,-260.1747,129.2048,-366.5671,24.3592,-123.3652,-191.2679
-32.0626,-440.7946,-87.4306,-233.4117,-255.6238,-237.0993,-509.5378,-168.3316,-467.2273,-294.1915,-184.9690,-201.5174,-313.8703,-209.7565,103.1633,-243.8286,-16.2119,-91.9503,-172.3642
-197.9857,-386.6443,-53.8618,-313.2867,-189.5698,-216.5202,-425.7472,-137.0317,-355.7795,-303.5149,-310.1712,-258.4786,-156.2997,-257.3586,77.0114,-228.7205,-96.7381,-129.2946,-134.9966
-295.7810,-170.4424,-68.7903,-313.8934,-145.7796,-205.9538,-278.7949,-167.9566,-205.9017,-254.3715,-336.0757,-253.9848,-141.3915,-279.8756,61.4327,-291.0905,-181.0539,-157.6694,-116.5988
-283.6510,-132.1750,-42.4851,-268.4085,-93.4719,-180.9611,-190.6067,-178.8639,-176.0470,-186.8338,-293.5027,-274.7749,-193.5316,-238.7347,45.5629,-236.6500,-229.8538,-92.1858,-103.7990
-205.5861,-269.6089,15.6078,-218.1594,-15.0996,-137.9405,-196.4095,-148.7511,-252.3043,-162.3786,-289.3785,-342.8282,-171.3222,-195.4508,8.2329,-111.4146,-240.4080,-4.7087,-70.2823
-147.8503,-399.7178,41.5051,-178.2252,36.9982,-82.9657,-249.3919,-136.9092,-305.2649,-167.8708,-279.6673,-375.9304,-90.0163,-162.9368,-32.6187,-89.4548,-241.2734,-9.4115,-32.7311
-141.5838,-467.6135,39.9405,-156.9608,30.3718,-43.0028,-288.7500,-141.0270,-257.2446,-124.9603,-235.5036,-330.9962,-58.6429,-142.6576,-43.2457,-126.9320,-242.3673,-89.9793,-16.3157
-182.7574,-416.0136,36.7819,-135.1265,2.2363,-47.7464,-251.2316,-123.5644,-143.0082,-85.0157,-246.6673,-270.5330,-93.2680,-150.7026,-38.1890,-108.3459,-230.0279,-170.3635,-17.0513
-274.7698,-233.7959,26.4991,-112.6036,-14.9479,-85.2160,-151.8885,-102.8380,-75.2797,-165.8610,-276.5908,-259.2034,-92.9713,-153.8870,-44.5349,-77.2970,-210.0126,-224.1341,-39.8550
-290.5672,-100.2459,-19.6734,-128.3576,-23.8524,-125.8632,-93.1742,-89.0943,-92.1562,-276.1410,-172.3712,-310.3763,-16.5615,-147.5722,-47.9619,-89.7791,-211.8103,-244.6693,-94.7624
-77.9603,-149.8787,-128.8953,-174.6185,-24.2215,-161.6024,-87.7743,-50.0004,-87.5032,-228.3914,25.9963,-412.6209,43.8323,-187.8218,-41.8460,-84.9786,-255.1467,-235.9321,-134.8594
184.1587,-331.4986,-239.9296,-218.9862,-17.5900,-191.2240,-48.9217,7.1246,-15.2082,-54.6613,147.1314,-494.2992,36.5382,-238.5612,-48.3035,-0.0099,-323.5429,-246.5467,-104.3555
196.4368,-527.9962,-237.8953,-283.1255,-24.4807,-221.7667,13.5425,45.0506,24.5879,85.2256,167.1763,-456.5984,33.5810,-203.8974,-59.7442,122.5215,-351.4014,-321.6320,-32.0649
33.3317,-560.9523,-162.4602,-358.0186,-60.9478,-276.4156,32.9493,62.8561,23.9936,148.0272,138.2333,-328.2616,70.1993,-130.4457,-55.3515,165.4445,-279.8915,-432.1013,22.8193
-68.0185,-349.3909,-166.4393,-373.7240,-121.4366,-346.0182,54.9723,56.2203,95.4494,154.4328,60.3681,-233.3468,84.8276,-136.9060,-52.1608,89.5807,-163.8935,-487.0141,41.4731
-85.9332,-159.9001,-242.1702,-338.5149,-184.4375,-370.8198,123.0473,7.4150,199.3528,98.6408,0.6169,-206.1190,53.6022,-196.9531,-61.0576,18.9897,-127.5439,-418.2381,9.1535
-26.5704,-252.3566,-262.9333,-315.0363,-222.3396,-318.1339,152.8380,-41.2146,193.8330,28.9842,53.3818,-222.2219,21.5303,-200.0807,-63.1276,41.8790,-178.3324,-273.4861,-55.8216
118.3594,-423.0362,-217.5575,-290.9318,-217.2297,-245.2485,112.2213,-42.9684,134.2035,43.6820,133.1649,-280.7333,13.5575,-152.9170,-61.8505,56.9582,-208.0597,-189.0135,-61.3968
153.6274,-364.1463,-152.9061,-262.1598,-166.6454,-238.8154,102.8981,-50.9863,167.7838,149.0839,86.2117,-292.6003,24.0683,-152.5854,-70.8957,3.5475,-182.6895,-215.1255,16.5318
-14.8547,-157.8214,-55.1938,-278.4753,-82.6745,-286.7290,141.0556,-111.7252,226.7668,230.2716,-39.4273,-156.2656,46.3034,-198.7184,-77.9622,-6.3706,-155.1682,-243.1345,67.0978
-114.1434,-60.1955,46.5592,-284.9023,-2.3406,-277.6941,115.4499,-150.8453,166.5132,206.3101,-67.6777,-18.8881,62.6637,-183.1845,-83.0180,50.0423,-133.4745,-172.9471,34.8353
8.6168,-135.4215,66.9467,-182.4276,30.3966,-180.9191,36.6780,-112.0181,76.3789,147.8475,32.5295,-92.9900,52.3137,-86.7265,-98.2470,45.8135,-106.8688,-59.4157,-7.6790
125.8374,-278.2173,13.4721,-49.9600,11.3036,-106.5912,54.9694,-69.9204,120.7672,142.6157,115.9391,-261.0089,15.8248,-16.4383,-106.6585,-24.1271,-99.1752,-19.8702,-21.4141
93.9916,-356.1733,-18.7180,-8.3824,-21.8777,-105.6469,165.7427,-99.0555,206.8695,117.4900,83.0002,-264.8463,-18.5937,-2.9386,-102.8141,-59.2734,-83.1597,-63.3913,-41.3971
45.2954,-307.3813,21.0636,3.8892,-23.4832,-93.7984,177.7201,-172.3746,146.1978,-18.8702,20.5824,-134.1948,-10.7717,28.3753,-111.4450,-82.9552,-12.6103,-82.9436,-81.2458
85.1831,-199.2593,94.8179,56.8125,30.4406,-40.0893,49.8211,-231.5693,6.6588,-176.0760,55.6787,-60.2299,37.9184,74.3257,-120.4897,-147.8322,46.1354,-18.9541,-123.5025
175.4708,-125.4547,120.3555,72.1646,102.4010,-4.7143,-39.2296,-252.3161,-36.7584,-250.2220,153.0423,-49.2557,73.3886,76.4734,-104.4370,-178.0749,28.0559,40.7075,-143.3250
234.0115,-53.7843,67.4687,19.6575,114.9655,9.2412,-28.3896,-256.0403,-22.5773,-282.7967,191.2520,3.9877,79.9470,57.7864,-93.9762,-133.4592,8.7866,11.6006,-126.7672
216.9364,80.1468,11.2057,-10.6438,70.8873,29.6023,-37.8888,-283.4298,-43.9586,-274.3559,153.5008,77.4280,92.7957,41.5114,-110.1852,-107.2238,29.8268,-19.9116,-105.7729
154.7982,156.2318,21.2568,2.5632,64.8540,37.9486,-59.4829,-306.8111,-18.7236,-154.5054,92.3606,73.3078,94.1315,-10.9971,-116.3742,-127.5601,9.2603,54.9887,-93.9488
61.7155,9.9203,59.0151,-3.5172,118.9277,52.7464,24.0609,-251.4702,98.2699,-10.5776,15.7433,6.4363,52.1635,-75.2222,-106.2405,-107.5919,-47.5875,150.5984,-40.4897
-55.9917,-184.7381,53.4663,-42.3611,134.3593,112.7243,136.5319,-154.9911,175.8283,9.4810,-55.8175,-24.9739,20.3984,-72.2786,-114.2498,-45.8933,-48.8581,122.5455,28.2767
-33.4578,-111.2001,-17.6918,-86.0612,51.0944,159.9579,129.4467,-125.0300,157.8220,-42.3463,-44.8846,-15.9333,14.7773,-4.4458,-132.6221,-28.8838,-25.2047,6.9494,6.1828
201.0725,60.2064,-124.3009,-102.8209,-65.0274,136.9270,93.7106,-131.6532,147.9188,-43.8729,46.4381,-34.6121,-53.6559,67.4533,-134.0702,-35.8842,-42.5341,-65.3849,-55.1642
279.2282,-86.2283,-166.5440,-52.0547,-109.2377,102.5966,181.3311,-82.3809,202.0118,4.0354,68.9279,-59.1532,-159.3983,96.1181,-124.2785,17.9980,-56.4013,-61.3000,-2.2108
-64.1630,-359.2007,-54.8718,43.8899,-43.5400,109.6364,296.5497,-35.7713,268.2706,72.2645,-73.3081,-34.4763,-146.1541,59.7167,-110.8032,89.0742,-54.2772,-17.1725,108.2780
-404.9902,-247.0814,134.4282,100.5390,68.9827,128.8859,268.2053,-83.9449,275.1997,140.5370,-240.9779,-10.3087,-32.4413,8.8860,-99.5378,82.0678,-81.2959,38.6460,98.8665
-298.0564,112.3069,234.5777,109.9929,129.5759,132.0791,152.2390,-148.6472,206.9746,149.3093,-243.8207,-21.5854,2.0884,13.6990,-109.7944,31.8265,-91.0178,66.8042,2.2162
4.2449,214.7429,206.6429,128.7180,114.5000,106.1119,134.1118,-109.9471,160.3376,109.7512,-123.2162,-5.2529,-57.1483,31.8353,-128.9270,12.7236,-52.8904,43.7683,-18.9126
100.2136,61.7429,133.0089,143.7547,67.7671,56.3063,225.8589,2.2271,204.9408,103.7316,-40.5542,21.7959,-76.8891,12.1270,-123.6774,15.2068,-46.2709,10.5960,40.2442
34.6908,-65.9472,84.9899,122.3018,14.5430,38.9543,250.2288,74.2663,224.7154,112.1652,-15.2835,-29.2683,-36.2107,27.1188,-108.3492,46.3730,-59.1194,14.0034,59.4338
-19.6394,-128.1914,100.4267,102.0334,-24.7256,66.7694,157.7576,57.4989,159.9214,74.1271,-9.1333,-96.6129,-11.5895,90.3073,-107.1754,131.9527,-11.3995,47.8461,6.2371
-40.7573,-121.8158,164.9741,103.7762,-9.4769,77.1811,126.6872,5.5292,157.3640,29.8000,-54.8744,-56.5174,-15.1404,73.0578,-102.2478,169.0300,20.9164,89.1828,-32.8772
-16.1118,0.3635,199.0217,99.8564,48.4630,86.2168,194.9888,-1.5286,199.2534,5.8408,-107.1310,47.9985,11.0655,-26.5746,-91.6027,52.0490,-25.5149,125.4266,2.8496
38.8705,101.6891,175.4742,108.9287,94.5914,157.3493,153.0118,37.7500,82.7419,-41.6769,-63.9398,107.3556,96.2509,-37.8042,-97.3914,-91.3723,-35.5894,146.6169,61.4408
40.6379,64.5150,161.4875,149.5659,128.9537,226.3797,8.1545,77.7351,-69.8877,-78.0954,-3.1032,95.3896,160.0122,80.0985,-98.5236,-65.6698,0.7341,154.5135,79.4245
-2.1630,-17.7150,165.2318,148.6338,161.8159,215.3077,28.6809,129.5761,28.9735,-27.8736,-46.7103,18.3551,101.2806,185.3765,-69.3274,90.7234,-37.1448,152.9108,79.3559
0.2879,-77.6312,102.8222,63.5304,137.3110,183.2264,171.4884,191.5953,216.0768,59.4808,-90.8033,-66.6909,4.2479,190.0235,-41.4848,180.6617,-57.8631,133.6107,76.8696
68.7205,-81.3351,-30.2958,-5.3763,44.4153,171.3266,129.4073,178.3494,156.0148,83.4910,-12.1805,-26.9280,27.6415,132.2115,-38.0949,114.5920,85.9581,107.2226,35.1775
146.9446,88.2696,-113.9945,41.3136,-7.3401,141.8505,-45.0887,84.0024,-35.5781,35.2634,72.5578,161.3956,93.0070,85.2857,-33.9321,-8.3495,239.4350,99.0275,-10.8072
129.1141,354.8076,-62.7761,152.3771,50.6075,128.9503,-57.6396,33.1176,-64.9964,-47.1699,10.4085,329.9365,44.8503,98.9047,-23.2957,-36.3055,220.6896,99.2114,11.2452
-28.7930,430.7629,62.8193,213.8034,129.8462,176.2254,63.1287,60.7814,37.7817,-133.4154,-147.5035,327.4178,-10.7235,152.2122,-28.4240,26.2656,130.7801,91.7623,50.2739
-140.0979,277.7767,128.1147,204.0568,130.6707,210.5185,105.9234,85.9661,87.5522,-155.1441,-231.0962,185.1897,57.4728,165.8929,-47.2990,29.2210,86.1024,101.6690,30.4153
-47.9507,101.5452,93.2624,186.4950,92.1541,186.7383,71.7375,94.1158,56.9124,-42.0346,-170.1111,53.8885,117.3495,123.0547,-66.3428,-39.6891,56.4413,128.9167,6.4254
14.6983,-24.1117,59.9794,190.1427,92.6027,168.0819,52.6193,93.9112,40.6315,123.6263,-103.5479,37.5012,66.5894,109.4479,-82.4272,-21.3395,51.9028,115.3801,32.0510
-154.3074,-77.6577,91.3088,179.3800,91.8133,170.0804,43.7995,32.1249,76.5169,130.9276,-176.3969,87.7679,11.0544,168.7229,-84.7674,80.8934,91.2575,53.2874,63.9285
-247.3516,37.0500,92.1201,131.8852,19.6775,137.8828,16.6455,-57.2706,67.5101,-29.3655,-256.3397,104.7269,-13.2619,197.9773,-68.8951,85.1239,89.7165,22.3812,97.2585
-25.2511,219.4803,-8.3074,60.2037,-47.4053,69.9795,-26.8115,-49.2031,-36.4317,-70.6374,-163.6011,92.7744,-63.0044,89.7751,-54.7124,-11.1426,16.6708,76.3638,176.2027
154.6031,199.6599,-102.8656,-18.5164,4.3080,27.4153,-38.1598,51.1227,-79.5155,94.1279,-50.6549,84.8892,-87.0112,-59.5169,-52.8098,-45.9465,-49.1926,187.9374,270.6578
9.0443,-23.2103,-78.9454,-51.0474,112.6135,72.5485,37.1827,128.9967,15.8849,133.4770,-117.5287,45.8284,-51.4902,-46.0596,-52.8399,-20.6384,-85.9651,296.7919,325.4267
-176.8046,-175.3424,16.9215,20.0596,156.0321,194.0201,127.7294,151.9501,76.8575,-62.8942,-238.0465,-8.9597,-35.6330,114.2812,-53.2291,-48.7726,-125.4416,341.2620,350.8590
-190.5421,-148.4085,89.2825,121.4314,162.7082,258.9600,140.0694,151.7666,69.2501,-94.1001,-265.3161,-7.5951,-35.8345,183.4406,-57.2902,-89.2226,-152.1249,291.5153,360.8657
-207.9717,-96.3679,102.4774,113.2832,184.3731,170.5267,160.6438,145.9237,169.4192,186.7715,-271.9208,18.3566,11.1300,85.1594,-59.4743,-26.4509,-155.3618,190.9904,333.5477
-243.9118,-95.8188,51.1872,20.7505,152.9453,35.6926,248.6131,154.7827,309.3935,340.0859,-270.9520,10.5231,43.5778,4.1532,-62.3905,98.9930,-159.0264,117.9021,269.3473
-124.1199,-26.7406,-12.9780,-9.7231,58.5180,-1.9663,252.6593,169.1855,264.8616,152.9235,-189.6255,12.9945,1.8648,33.9090,-69.9603,151.1178,-154.1694,114.1636,208.2437
39.7995,99.1993,18.9756,50.2014,34.0420,38.9496,120.8657,154.8330,103.8607,1.0975,-98.4896,21.8904,-30.0713,52.5228,-68.7645,113.4884,-115.9800,169.5311,189.5177
65.7463,37.0544,134.8492,119.9523,116.4668,92.3605,20.0298,141.9891,9.3858,117.8362,-73.5875,-32.7960,12.3710,13.0441,-55.6660,85.5790,-63.7334,224.8043,211.2840
63.8420,-210.9426,163.9765,157.1904,170.9870,151.6650,17.2263,164.6712,-13.6709,243.6536,-59.4333,-73.2608,71.1288,23.5629,-47.5347,94.0296,-39.2388,219.4826,231.5596
86.8981,-266.8125,57.8031,151.2440,143.8508,197.1641,51.6708,170.9308,36.1137,188.7063,-49.4710,-9.7959,80.7920,93.8908,-40.7325,79.6416,-57.3150,191.2215,228.9048
-12.5775,-52.8390,-9.3027,106.1245,147.9989,212.4046,123.1462,146.7934,160.2783,123.1460,-80.2972,9.6503,54.6895,111.9164,-20.5457,69.0123,-87.7388,224.9670,216.2204
-141.0734,47.8162,50.4509,72.2514,222.7054,224.1851,183.7337,154.5270,204.2062,168.4630,-96.3052,-103.5716,61.7100,73.3551,-4.4557,131.7533,-84.6017,268.9996,184.8710
-70.1285,-26.4858,94.4990,67.4278,235.1582,207.2053,126.1336,170.3906,103.7222,176.9722,-83.0233,-117.1790,125.6762,65.9732,-5.4272,191.6312,-47.7613,188.1364,136.7383
51.5019,53.9622,31.7955,32.3448,129.5460,106.1807,27.4817,132.8681,27.8710,76.9985,-120.9541,95.0104,164.3632,86.4295,8.7477,156.2650,-24.5069,18.2481,133.9800
-45.8482,186.8208,-30.1438,-43.5813,67.1985,-10.4956,51.3022,108.7965,73.4134,59.5369,-204.7868,277.6640,127.4378,99.6176,51.1629,130.6186,-44.4805,-64.2080,189.7175
-256.5670,-21.6661,-9.8472,-78.6504,158.0221,-21.1504,148.0471,156.9427,159.3475,209.2627,-260.7026,256.6731,97.3854,147.5054,78.8690,216.9733,-85.4404,-25.0824,211.5141
-369.0006,-375.1771,30.8487,-31.4567,252.9771,46.5912,161.5947,182.7834,199.1627,315.6395,-279.0570,200.6824,126.1887,215.2814,72.3577,302.3309,-93.4900,3.5439,158.4788
-403.0602,-361.5438,39.5840,33.4262,200.6681,61.7923,85.5419,121.3232,150.9702,280.0510,-268.4872,223.8868,154.0441,192.6930,68.3669,275.1138,-47.7473,-40.7365,98.1424
-381.3868,-41.6247,35.9071,34.3170,94.3919,-4.8743,17.0701,53.4658,54.3745,262.7323,-227.4003,214.0293,153.7890,103.3288,87.2831,203.1522,-9.2650,-82.0036,60.9295
-227.7995,137.9214,20.9007,-16.6244,64.2906,-56.2790,-8.6777,49.5666,4.9517,258.4535,-174.8028,154.7984,142.0956,113.0158,111.2121,178.2418,-28.1048,-55.0755,15.3212
-6.5686,47.4457,-25.6133,-26.6030,55.3557,-35.7139,-41.4830,78.7061,-24.4935,109.2074,-109.7565,186.7746,97.4081,223.5322,133.8968,203.3037,-43.8382,-4.7713,-26.9117
100.8494,-74.5975,-79.5225,19.3731,-14.4356,-16.5898,-102.9915,68.0623,-95.1252,-29.0058,-52.2439,317.3701,32.3567,238.6186,163.8313,231.8891,-9.7152,-18.1956,-34.1516
49.4789,37.8618,-90.7572,17.7848,-86.9070,-67.8779,-121.3783,-22.2655,-112.5266,92.4155,-71.7352,402.1202,1.9483,92.6788,195.7431,211.7731,3.4508,-85.5942,-30.5675
-26.9716,360.8557,-57.1566,-46.6219,-85.4754,-120.5750,-69.2723,-117.9341,-48.9679,280.2767,-124.7652,395.3480,-16.1422,-39.7030,219.8693,158.7294,-36.4347,-101.2296,-42.9744
7.6057,521.6912,-49.0814,-51.5911,-60.9209,-92.4783,-38.0737,-85.2361,-33.1585,246.0660,-83.5957,384.2879,-75.7872,-14.1367,234.3270,139.2141,-57.0407,-47.8537,-31.6118
103.1443,326.6386,-122.5404,17.6257,-111.8645,-40.5689,-43.3398,61.8327,-32.2306,141.2078,-3.6801,404.6899,-150.4431,95.8802,238.9005,136.7539,-52.6511,-37.4773,49.6814
66.1048,112.4336,-202.2479,44.2846,-204.5440,-39.7836,4.5646,177.3445,59.3092,201.4862,-38.9037,383.3363,-186.3129,149.4244,237.6341,120.6061,-88.2855,-87.2679,155.0170
-127.7423,128.1213,-162.4016,21.7272,-196.4498,-44.8540,67.7896,221.0395,113.7059,323.6955,-146.0770,269.7670,-169.3954,144.8026,234.8933,168.3327,-144.7712,-69.6227,189.2782
-252.4157,123.3896,-45.2446,29.1242,-86.9369,-2.0521,37.7439,259.7779,42.4678,358.0433,-186.6851,128.1161,-123.2830,162.5092,222.1189,271.8423,-170.1075,40.0499,155.7638
-177.9146,-26.3393,-18.3196,43.8045,-45.7791,51.5237,-39.2977,294.5917,-15.0878,348.9779,-154.0298,50.9378,-101.3698,189.1155,188.5122,264.6462,-182.6473,126.2486,141.5678
-24.9753,-59.8756,-98.5480,26.8990,-98.5704,81.5784,-78.6425,287.2928,-35.9083,330.6425,-106.1993,47.4126,-119.0922,164.9772,138.3296,146.2735,-189.8763,163.7713,138.9329
67.8238,69.7106,-138.1434,41.6623,-79.9425,116.2100,-97.7114,245.0166,-96.0006,271.3376,-72.8850,79.4835,-125.9928,131.6947,85.7520,106.6563,-161.1352,216.8018,67.1901
56.0751,139.4280,-77.0150,124.8864,28.8879,176.2295,-101.2342,175.1992,-105.8893,213.3694,-62.8500,122.9508,-104.8608,141.9645,43.8100,163.9628,-120.5020,263.1159,-26.9638
-42.4853,152.8123,0.4595,207.5871,77.7989,229.8218,-83.8963,98.9013,-51.9508,218.1383,-41.7985,134.3786,-79.8789,135.0860,15.4267,190.6264,-115.0799,251.4318,-30.2262
-97.1071,215.9416,20.7655,220.4946,44.9723,236.0577,-89.3345,92.7923,-76.1727,263.7952,8.5633,79.2802,-50.6037,81.8076,-9.4977,194.1317,-127.5396,219.1245,14.8849
5.2201,208.5405,-20.0682,166.9017,12.5422,211.9842,-86.8520,172.5927,-105.3719,297.3268,32.7021,20.0582,-40.0275,77.6023,-37.3151,232.5234,-122.8948,201.9579,-8.4419
121.6853,42.2082,-86.1945,109.1382,-16.2389,210.5160,-9.6694,230.4983,3.6714,287.5257,23.0645,32.4643,-63.2628,137.4806,-65.4709,275.2260,-113.0424,171.1795,-76.0064
45.4132,-129.4783,-119.1938,98.1740,-39.2066,210.2104,85.0228,199.5094,111.9595,253.0584,42.7455,62.6088,-36.2648,126.1933,-99.3389,313.4235,-126.5042,116.7368,-93.1225
-132.3358,-177.5156,-99.7088,93.8767,-22.7288,143.4679,145.2969,149.4527,113.2740,285.8148,77.9773,15.3959,59.8438,22.5304,-136.8874,352.2474,-161.1768,68.1573,-65.4504
-164.3174,-139.5661,-75.0219,43.1660,-8.0864,62.7314,203.5756,148.3583,124.7593,405.2860,87.6220,-68.7309,99.1023,-0.2779,-152.4780,327.0898,-176.6891,49.3810,-62.4951
-19.3299,-51.7537,-65.7122,6.7085,-15.3187,78.7000,198.5629,153.6698,122.7855,426.6189,119.6406,-44.4462,83.9922,121.7667,-143.6693,228.2827,-133.9446,65.6678,-105.4537
142.7853,101.6945,-36.1855,51.1451,26.6582,139.1767,73.9135,104.4536,6.9064,236.0490,189.9017,133.3516,137.2485,211.4900,-146.4306,151.2513,-48.2418,88.4233,-152.5806
218.9281,241.1306,8.8437,113.9983,96.1105,128.7122,-21.5743,35.1464,-75.2440,71.1729,226.3025,280.3908,196.8449,157.3191,-166.1081,145.2416,24.2436,89.9947,-157.3314
203.3851,207.4107,31.1387,133.9252,94.5594,109.5101,17.7263,10.7443,-0.3723,144.0834,208.9834,184.3743,169.8639,105.3857,-171.0996,170.4183,50.9147,105.6404,-138.4667
121.7160,55.6764,58.2739,163.2722,66.2446,176.0501,75.8203,-1.0797,90.0176,222.5176,171.3159,-27.3941,172.7178,170.8290,-164.0352,157.8221,55.1128,147.6264,-161.2635
60.8869,73.8132,131.9795,238.3365,96.7589,223.5244,78.1640,-60.3395,94.0038,76.5101,130.3580,-15.8552,224.8881,213.9030,-165.7980,69.2836,86.7292,136.3018,-218.7097
126.5056,274.3526,202.7462,298.5597,126.4040,137.5726,71.3279,-97.9410,61.3708,-33.2745,128.3997,196.1287,146.2279,119.5738,-157.5360,1.3563,139.3873,68.1166,-212.5158
249.6797,302.0278,218.2067,297.6123,110.8873,20.4100,60.1157,-15.3487,18.1494,134.4305,167.2010,237.9963,-20.8501,21.3864,-125.5094,83.1658,136.0470,65.0544,-101.3365
224.8027,113.9504,231.8044,280.2716,125.3550,6.1784,47.1115,105.3723,-12.9167,308.7177,140.5471,49.3256,-30.6494,31.5927,-99.5719,202.0928,77.1318,125.9432,12.5785
68.3908,95.4894,283.2343,307.2382,170.0578,50.1654,45.3553,108.3048,-11.3343,225.4262,45.4561,-32.4208,113.3509,54.8874,-88.9024,155.0457,85.1081,107.8424,8.0449
50.5834,298.0161,288.5461,352.3480,144.0438,57.9338,-1.6015,22.9962,-30.3738,47.5492,60.0209,125.7502,192.4748,33.1646,-66.2409,28.9157,180.8581,19.3521,-80.2849
223.1164,343.1521,194.0316,342.6929,53.8417,52.5552,-72.2780,6.9761,-68.9543,-39.4921,221.0875,280.5745,126.0830,51.9818,-35.7319,23.8520,218.5005,12.4252,-103.1379
308.2085,142.4030,102.0379,288.0204,24.9067,95.9050,-50.5572,89.4269,-64.2692,-48.0409,323.2384,229.6797,30.7971,117.5520,-25.0991,89.7170,148.6189,96.9365,-30.8150
201.3908,2.5759,101.1687,242.3289,101.9349,156.2610,6.3755,148.8466,-62.4899,14.8874,266.4224,52.4045,52.4192,125.8204,-24.5713,103.3795,84.1718,149.0968,3.2882
140.2661,91.9788,123.2639,179.6609,172.0847,160.1645,-29.3135,112.1798,-97.9608,78.5343,196.7720,-33.4670,162.2031,69.4070,-11.1507,104.8490,72.8436,125.7668,-45.9739
245.0659,231.8581,100.6975,95.0426,125.8797,126.4257,-65.6216,43.9721,-77.8734,10.9361,232.2886,57.9039,172.8151,57.3425,3.1444,135.4734,74.0283,77.3712,-63.1933
304.9224,138.1424,99.2806,96.2262,37.5827,133.1466,-14.7567,21.2513,-15.4794,-76.6335,293.3831,162.5820,95.7572,142.6024,3.8057,154.4035,94.1635,47.1707,-22.2331
167.3412,-148.3292,166.5834,189.0091,55.0539,163.0427,-1.9296,17.8581,-24.3598,-17.1868,267.5316,123.1041,159.2437,235.4601,6.8629,145.4704,133.6669,35.7551,-33.8101
45.8005,-172.0370,202.2752,206.2729,132.4554,126.8860,-66.7231,-16.9133,-56.0498,31.4137,201.6299,58.6967,315.4209,213.0293,24.0858,102.0456,145.6548,-0.4835,-103.5895
193.7714,212.2950,109.8621,99.6567,104.0286,38.6789,-78.6925,-50.5352,-25.1772,-53.7001,219.9024,135.8195,290.7831,112.3594,43.2538,48.1843,139.7766,-81.0725,-118.1439
403.8724,431.8166,-26.6330,-0.1894,-10.4610,-7.6592,-14.6064,-39.9584,15.0288,-51.5022,290.1609,255.0036,147.3022,88.7076,58.0307,84.9573,152.4897,-132.0134,-56.0332
278.3037,132.6655,-48.8161,-42.1417,-63.3322,-18.3912,49.8509,-18.7212,51.0723,112.9930,267.2175,234.7401,140.0294,130.5347,70.7324,186.8861,160.8527,-99.0744,2.6456
-7.3959,-190.8101,32.6258,-77.5617,-62.0320,-69.2311,77.6814,-16.7951,97.5890,190.5865,184.8391,111.6234,215.9511,74.2136,68.5778,167.0230,168.7873,-64.5254,12.1220
68.6705,-96.2632,49.3470,-117.7108,-108.8498,-141.2399,35.0515,-7.9357,61.3407,104.9582,209.3400,72.2513,216.0819,-50.8859,45.4289,41.8516,221.3913,-111.2973,-7.4634
377.0320,188.1071,-48.6698,-162.6415,-180.7469,-169.2601,-26.0394,3.7143,-18.5738,3.5874,287.3009,206.5236,190.7974,-60.2354,26.0640,23.8848,270.0680,-183.8334,-4.1342
344.7100,382.2648,-115.1071,-215.2474,-196.2982,-182.4044,39.8449,-22.5707,48.8129,-78.1735,222.1130,392.9164,195.1207,19.3100,21.7403,88.1088,236.8987,-201.2920,43.0208
34.4049,445.7630,-62.3088,-232.8312,-166.3276,-227.0023,176.5466,-63.3245,183.3995,-135.4691,72.9745,431.7089,204.1705,37.2261,7.7566,63.6039,183.7018,-172.8286,75.4333
-83.1872,237.8215,29.8558,-201.1898,-142.5848,-234.2630,175.2551,-53.8040,159.4011,-85.2003,51.5033,290.0907,243.1967,49.1936,-13.4947,33.0568,206.7437,-129.4480,49.9575
-39.2059,-257.4449,96.4430,-150.7462,-137.4549,-131.6744,81.0639,-11.4718,82.1754,42.0638,125.2129,104.0464,280.9104,149.4929,-0.5036,110.8056,262.6192,-82.6135,17.2999
-40.5223,-554.2522,132.2519,-78.9509,-146.0469,-12.6289,73.3412,-24.5554,117.8820,119.6122,137.5939,-7.3184,239.4198,198.9038,49.7002,127.0601,265.1228,-70.4912,8.8008
56.6827,-226.4273,93.9031,-25.5152,-160.3633,-22.9908,87.4256,-103.7833,110.2224,89.1465,125.6553,22.6040,202.4728,79.1677,103.9581,-12.2229,229.0245,-108.4317,-3.4132
248.6613,356.0488,-7.9562,-77.7587,-162.6459,-129.2744,20.4134,-141.3678,-15.8624,-49.9570,164.8828,172.9978,248.2190,-54.2491,171.5151,-82.8394,204.8163,-123.5341,9.6252
267.2947,480.1911,-54.2004,-169.8036,-148.9666,-175.9704,-5.1592,-73.9462,-39.3055,-197.3519,174.5607,252.6679,240.9009,-40.2451,274.6005,15.7853,186.5054,-67.8452,86.1316
164.3565,167.8962,-14.1958,-154.4670,-127.1589,-124.8947,80.4575,8.9553,78.0667,-183.2731,117.1137,149.4085,124.2618,52.3314,369.9529,60.5409,162.6037,-15.0923,154.8111
116.7024,64.0307,25.8925,-72.0981,-83.7088,-52.6756,145.0864,14.5219,131.8562,-61.8414,73.0790,58.1221,68.5129,112.5896,406.7563,-63.2196,170.1675,-20.8817,147.9625
5.2010,262.9516,61.9458,-32.0713,-12.9518,17.0485,126.6201,-19.5273,102.3311,-48.3029,41.9492,125.8850,127.6943,128.4998,415.9831,-180.4876,220.3438,-19.8585,106.4300
-140.8614,259.2670,126.6985,-1.3165,33.1204,89.9582,87.3367,-44.4375,82.1739,-110.8843,-11.3497,199.7647,163.4699,86.3225,450.6167,-158.9333,231.9488,24.6669,73.4107
-57.8829,59.8798,142.3168,34.6290,10.6734,112.7383,40.5094,-72.4209,23.6054,-94.8710,-8.7618,179.2586,138.3095,-7.7278,497.3167,-69.5680,137.0251,42.7192,51.5309
130.9240,87.2896,56.2022,-8.5052,-29.3296,65.6815,0.3481,-58.9846,-54.7525,-56.7975,73.0910,138.4422,132.3502,-44.5016,523.9214,-6.9049,5.1486,8.9295,55.1941
126.9657,182.9863,-53.3847,-113.0406,-28.7425,17.8203,33.6603,45.5749,-13.8557,-30.6686,113.8489,55.5440,159.4656,26.7430,548.6546,23.2592,-45.7670,-16.4981,67.4106
55.7318,13.3306,-113.9549,-168.8486,-34.5878,11.2079,100.2155,127.7356,85.1584,90.0146,80.0022,-75.5169,179.4003,87.8421,590.3292,55.0829,-7.3483,-11.8064,43.5588
88.4954,-127.9852,-99.4122,-140.3904,-96.0469,29.6772,73.4905,62.7345,58.8452,187.8580,58.8601,-73.5321,163.5395,72.3907,618.5126,97.8320,44.2214,8.4689,2.1906
98.3237,-13.1912,-1.2249,-40.3994,-148.7545,66.2887,-26.6985,-56.0592,-44.1782,67.5404,61.6179,92.0706,95.6949,73.1562,626.5543,109.7987,56.9444,54.7652,-21.8243
77.3179,37.9310,87.3481,101.6026,-124.4558,100.7778,-69.0029,-88.5070,-74.9906,-87.7338,48.9551,178.6767,20.3320,118.0613,669.7695,60.0331,30.0443,113.2735,-47.8747
112.5166,11.8955,65.3191,206.1376,-54.2403,103.3450,-52.2150,-75.7711,-75.1497,-77.1093,29.6595,92.5266,24.9959,113.6763,751.7508,3.4401,5.5416,150.1054,-76.7211
64.4715,249.5132,26.8512,241.9063,3.9001,108.1400,-76.0498,-101.3351,-128.3027,-100.6330,9.5161,0.3520,97.4207,54.8644,785.0139,2.3303,30.7265,174.3613,-89.7792
-66.5619,507.1285,87.5105,260.1352,8.3127,143.7007,-142.4478,-131.6105,-179.2499,-230.8970,23.3463,-2.4123,117.9543,31.9690,742.6321,27.7017,83.2426,179.5071,-121.3026
-14.1332,283.0419,144.6711,267.5808,-74.2803,147.2719,-187.4694,-119.2346,-181.0957,-165.7202,142.1893,21.3866,43.3318,58.1109,703.3088,46.0076,98.6988,124.0946,-174.1809
180.5589,-155.4116,92.4444,236.0271,-194.7042,89.2081,-200.3268,-80.3418,-175.8235,79.8443,284.4054,26.5051,-28.3604,78.9589,691.5283,83.6521,77.4934,44.0567,-172.0626
238.1616,-181.3924,19.3296,189.4902,-236.8998,40.1597,-165.6271,-28.1077,-163.2992,104.8865,273.6899,34.2990,-21.4793,82.7698,652.3735,117.9148,64.1372,11.1131,-104.9675
190.2469,133.5410,-2.3126,152.2629,-190.1880,27.4173,-47.3776,29.9332,-85.8524,-83.7826,150.1964,49.5067,9.4900,92.6775,598.5718,87.1355,58.7161,-2.6098,-49.3876
164.5378,236.0508,-21.7425,128.3574,-156.0709,7.3989,89.6913,54.1265,47.6072,-105.1665,84.1854,22.3814,-3.9286,100.4477,589.4705,37.2783,38.6859,-37.5157,-24.0471
91.2501,64.3570,-47.2051,130.8353,-159.3553,-15.5327,137.5464,38.8313,138.6657,56.7547,78.8206,-62.2460,-38.0590,54.9569,595.7317,38.6862,1.0713,-39.7766,4.6148
20.6254,23.5840,-48.0830,120.5295,-125.4122,-5.9844,123.2054,57.2510,118.5762,141.3512,79.7192,-130.9393,-52.6519,-52.0159,549.7657,33.9723,-52.6227,28.4043,38.9161
75.2342,106.0898,-50.1106,55.4095,-35.0274,34.2852,137.0692,143.9619,60.5192,137.5348,121.5838,-162.6806,-51.4348,-120.3687,455.7019,-7.4219,-100.2295,126.4935,74.7702
86.8952,-53.1063,-53.3955,8.5644,46.2388,91.7710,172.3810,207.9785,101.0623,129.2502,149.8281,-223.4778,-24.4157,-84.7410,349.3394,12.5216,-104.8339,208.6247,111.5416
-90.2699,-279.1010,-8.2965,25.4716,73.3611,134.9600,188.5380,172.6945,215.1607,46.3440,45.4085,-274.1117,40.0861,-35.3635,257.1267,79.9052,-88.4604,233.6275,136.2825
-232.5765,-146.6546,61.8143,19.1386,63.4744,118.1549,190.6042,107.9880,230.9348,-84.6332,-99.1873,-224.8600,80.1582,-34.2320,221.8331,40.5179,-100.1323,185.3449,165.7605
-130.9408,87.8443,90.8251,-14.4751,53.8577,67.6622,191.3543,95.5451,150.6445,-95.0767,-73.2661,-154.0741,29.3272,-15.1648,257.4555,-92.3500,-102.3043,128.5009,218.5203
122.8164,80.3285,104.3967,20.0917,72.1923,46.8980,237.3898,91.4153,196.8124,10.0329,118.8678,-150.4097,-54.4270,14.8457,315.3447,-170.6009,-25.7528,118.4623,249.8461
339.5916,123.0044,171.2933,70.3316,131.5278,42.5238,373.5217,52.6750,404.1913,73.5221,275.1880,-147.7422,-43.1537,-14.3160,371.2089,-183.7579,92.2854,120.9029,227.0204
377.3493,235.5838,272.9093,34.9309,209.7267,26.6011,475.2967,32.7473,483.7871,62.0918,278.6352,-139.0811,80.2209,-38.7359,452.8568,-142.5983,155.4645,108.9080,186.4478
245.9428,14.6339,329.2583,-16.5974,246.4510,21.8883,364.3911,46.5912,275.8504,53.1173,215.5499,-176.2784,183.1521,-8.2108,550.1184,19.6050,142.1662,86.4222,148.7207
156.9105,-165.9416,314.1904,-27.3878,213.5557,8.5505,135.3698,28.5615,22.6938,60.2295,217.6592,-157.9113,169.4377,-29.4632,617.4376,146.6471,101.1384,29.3412,109.2403
191.5376,204.5738,275.8798,-68.2366,167.7612,-46.3522,43.7792,-28.4841,-14.0339,32.4723,255.4442,-47.1216,117.8733,-103.0753,654.0492,-20.8660,70.0918,-36.7073,94.5185
159.2867,416.3310,255.5382,-114.2710,173.8654,-72.2600,110.0916,-63.2855,75.6094,-13.6186,213.9914,-26.5086,116.2328,-84.2592,663.8093,-275.3188,57.6514,-46.8699,101.6986
36.0013,-58.0808,240.1535,-81.6732,215.6335,-22.1194,154.1404,-62.8914,71.3337,36.6713,136.6067,-112.4255,81.7898,-13.4447,591.4462,-210.5130,75.5322,-63.8702,79.2022
54.4155,-246.8870,204.0805,-62.8765,236.2083,4.9826,107.7431,-74.3101,-22.8852,175.4083,155.0445,-102.2117,-47.8717,-57.3523,412.6136,-40.2969,135.5485,-170.9970,27.8578
232.5148,421.2230,145.9933,-157.0334,219.3852,-47.1170,44.8673,-129.6406,-60.3238,136.0759,241.0134,-9.1750,-121.2204,-176.4574,205.3338,-269.5744,197.4223,-243.5533,-13.4292
349.9802,939.2831,86.3748,-230.7529,205.2503,-73.2202,29.4391,-190.7185,-20.6964,-229.2882,289.2825,-7.1334,-16.7915,-205.3485,31.0325,-699.8179,188.7634,-140.7718,-51.4161
335.5107,601.6453,67.0823,-146.6131,246.5331,-0.0566,59.0867,-181.0329,0.7073,-613.8194,303.8375,-82.4510,133.9450,-122.4773,-149.8303,-709.8724,124.6313,19.0409,-82.7392
267.4880,27.8611,98.1432,-23.4154,321.1801,87.2997,87.0517,-118.7253,-9.5985,-671.5558,302.8878,-152.1200,168.8196,-62.3073,-356.8115,-318.3726,101.7252,42.7676,-54.5982
215.4736,-83.2534,93.8709,-52.7407,319.5061,77.6792,95.5878,-116.6436,31.8728,-507.5099,269.9245,-206.0116,97.4238,-144.0934,-517.3271,-85.7830,147.4555,-60.7358,31.2961
285.6901,264.3545,-7.2255,-197.3583,210.0750,-7.8320,108.3280,-179.6651,105.4711,-422.4187,287.7914,-180.0686,-11.0023,-273.4729,-598.1105,-188.9816,232.7093,-143.1030,81.1166
530.4928,678.2128,-92.8161,-232.0959,131.8034,-36.6995,64.8631,-208.5075,23.3956,-492.3969,454.5876,-70.7121,-99.1340,-230.0489,-668.6113,-331.0338,383.7411,-114.3478,21.1513
798.2283,810.3947,-41.5614,-73.9571,181.6503,32.2472,-130.9186,-226.5139,-288.4055,-600.7844,685.7733,-60.7757,-106.4229,-85.4119,-773.9870,-347.7990,569.3091,-32.1105,-104.4778
901.9180,688.5112,55.5118,79.3936,235.2850,57.1687,-364.7373,-309.7383,-569.1292,-607.5483,818.2080,-229.9492,-65.6537,-139.7795,-882.7682,-318.5378,620.7267,-14.4670,-178.3930
821.7938,485.4662,62.3869,57.0001,144.8821,-34.6366,-418.7450,-368.5747,-549.8904,-475.7903,808.1416,-433.5334,-83.9787,-324.4602,-976.3567,-256.6250,484.7301,-51.0174,-171.8010
653.7712,133.8721,31.2412,-27.4962,-16.3121,-88.7127,-336.0868,-316.2990,-374.3842,-361.9381,710.5051,-588.4960,-150.8598,-315.4115,-1063.4211,-134.1716,331.4339,-32.8274,-190.5938
520.5618,-216.9525,51.8437,-16.2782,-82.4651,-25.8659,-321.7332,-274.8770,-345.8642,-416.2598,598.7899,-708.4208,-175.0286,-214.3168,-1132.2821,-68.8627,258.5152,18.8811,-276.8067
485.0548,-94.1787,68.5799,30.0726,-53.3778,-8.1721,-372.7162,-347.1637,-428.2944,-540.1963,520.6337,-716.0793,-183.4335,-332.2035,-1183.4218,-154.7921,176.8628,-1.7940,-307.6114
446.2657,338.2991,25.6905,2.3497,-40.7035,-103.0241,-353.2360,-424.6482,-398.7393,-569.0834,441.6418,-583.7521,-239.3307,-521.5270,-1255.7467,-255.4235,46.9444,-62.2478,-207.7208
292.3333,382.8847,-19.4445,-68.8737,-54.7289,-154.2270,-272.6703,-390.8443,-280.0010,-499.6651,315.3288,-490.3196,-272.8355,-473.7197,-1377.5056,-231.3174,-63.0293,-83.8726,-76.7275
154.2562,45.4456,-40.8096,-118.0337,-49.3843,-115.5450,-225.3183,-288.4110,-231.5700,-377.6556,215.5041,-550.1581,-226.4004,-301.0061,-1543.8320,-174.0924,-128.8234,-111.3660,-17.2741
216.4989,-144.6444,-91.0659,-140.7042,-76.2082,-120.7888,-220.9756,-211.4338,-237.5725,-228.7603,230.1568,-608.9953,-203.5958,-257.2175,-1723.2728,-172.1084,-176.8874,-173.8375,-14.2854
341.3216,-160.3800,-156.5231,-154.5023,-169.8120,-191.1806,-215.2995,-183.8120,-211.8945,-126.5170,274.7654,-529.3768,-268.9807,-309.2069,-1846.2224,-117.1338,-224.2108,-199.8527,-11.3876
252.3776,-213.7122,-159.9374,-171.4743,-224.0508,-218.6228,-202.1525,-166.5375,-195.3135,-103.6443,214.3631,-426.9608,-298.4655,-313.4357,-1843.2194,29.4139,-279.2719,-184.5251,12.5337
3.6839,-236.2812,-117.0372,-177.7066,-193.9066,-190.7227,-221.9756,-127.4826,-234.7453,-93.3339,82.4846,-430.2333,-212.1439,-261.5773,-1711.7825,108.0444,-317.7575,-200.4275,30.7666
-138.2948,-249.5219,-129.6571,-142.5905,-199.3330,-181.1112,-272.2616,-65.9815,-252.3482,-42.7759,-11.2090,-474.5364,-143.7308,-212.9528,-1505.1549,79.8070,-317.7004,-237.8280,13.4684
-154.1187,-398.4337,-224.7998,-89.2496,-266.9813,-203.5915,-264.3141,26.5743,-192.7604,60.2363,-64.0362,-491.3734,-202.0059,-183.2510,-1285.9395,111.2092,-334.8778,-235.3963,-15.5745
-190.2495,-516.4988,-310.1844,-65.0639,-263.7397,-222.0469,-196.2572,125.1813,-161.6196,195.5180,-108.5422,-498.0566,-277.7952,-144.2225,-1103.8475,230.4950,-401.8871,-198.3762,-44.5746
-212.7410,-382.1068,-300.8142,-45.6001,-165.3017,-224.4963,-218.0059,127.8951,-252.2288,254.5985,-113.6548,-435.3680,-256.2725,-87.1150,-968.4298,270.9692,-438.3144,-155.4926,-124.6765
-162.6864,-199.3560,-237.0708,2.8557,-81.9347,-217.7011,-330.9469,36.1258,-343.9857,161.8845,-81.6638,-266.6074,-204.7627,-43.7417,-862.6083,215.7058,-402.7891,-96.6907,-231.1015
-176.1696,-296.1147,-227.0985,34.7062,-45.7942,-196.0872,-335.4714,26.8155,-294.6884,29.5856,-79.7565,-155.4045,-199.3664,-28.7700,-801.9268,250.2853,-361.5152,-20.4727,-245.7480
-294.0450,-555.0775,-269.2980,12.1757,-16.6812,-154.8401,-237.1788,132.0716,-203.4929,9.0436,-116.4187,-201.4790,-185.7717,-42.7616,-819.0128,414.0132,-338.8802,41.0534,-175.6883
-331.5758,-568.6463,-240.2291,-23.1861,24.6121,-114.0181,-235.1009,152.6175,-204.4180,108.9972,-144.7198,-260.8079,-129.8629,-87.3359,-909.2589,493.4465,-295.4094,75.8218,-134.3141
-251.9959,-338.2964,-106.5959,-20.4124,108.1755,-88.6386,-280.3333,59.4415,-206.9652,240.9518,-163.3531,-270.0944,-90.0457,-88.6670,-1052.6473,372.7723,-215.6086,108.1132,-102.9134
-217.2603,-302.1803,10.1007,17.4225,230.8387,-62.1891,-192.5369,45.4452,-124.6471,297.1463,-177.2527,-327.7741,-78.2881,5.4202,-1219.6099,243.8998,-101.5993,126.9597,-4.6492
-231.3635,-511.0617,30.9459,20.6364,295.2191,-47.5088,-51.4278,116.3309,-49.1446,238.7547,-151.4213,-381.0534,-55.1086,36.6376,-1331.2720,275.7215,-8.9398,66.0476,87.9006
-181.6672,-557.7621,-5.5727,-90.3708,240.5720,-99.9196,10.8362,109.3603,-1.4223,177.4905,-92.1847,-311.3273,-52.9304,-124.9783,-1324.7695,316.2948,-40.7947,-72.5940,82.4713
