Fp1,Fp2,F3,F4,C3,C4,P3,P4,O1,O2,F7,F8,T7,T8,P7,P8,Fz,Cz,Pz
37.1972,156.8856,46.6612,59.9869,66.6614,92.5618,-27.1993,121.0474,-10.3878,62.6149,3.9604,180.2306,38.4181,153.9119,73.5896,128.8164,16.0895,118.0044,-22.5073
-14.1807,110.3489,21.3911,10.2135,46.6332,36.5589,48.8125,53.4819,-23.3914,149.3100,-126.9727,173.1614,-46.6961,124.7754,-36.7541,142.8733,-130.8842,92.4041,-106.0349
-51.4687,129.2126,-14.1916,9.2167,4.5434,157.4312,26.0602,89.7728,-0.7970,228.1438,-155.4142,176.0591,-67.4732,142.2735,-127.8557,153.3176,-130.1832,115.5151,-37.9396
-36.7628,129.1676,-42.3172,38.2620,-30.9010,94.3712,112.7169,173.5218,71.3754,308.8489,-154.3012,153.7787,-77.5773,181.7356,-147.0957,169.9621,-108.0910,118.8968,73.4515
-48.0366,68.2478,-82.7175,27.5497,-75.9989,28.2656,190.0562,210.8251,128.5363,396.5803,-200.7921,120.9058,-140.3066,172.2389,-158.6139,201.5741,-161.0125,71.3761,74.2896
-96.7039,40.4718,-115.9069,-4.4061,-118.0437,139.8019,97.6465,207.3291,114.5520,449.7807,-204.0799,118.1770,-191.0144,129.6541,-194.3548,210.7535,-210.1025,29.4269,20.3430
-126.8591,53.5451,-125.7231,-9.6262,-128.2569,57.3869,61.0427,192.5433,68.2999,440.3455,-158.3438,137.8874,-187.8598,129.6106,-194.1034,183.7539,-238.1825,28.1637,-7.3966
-131.9173,34.6685,-145.1323,-10.1391,-149.5017,-63.0626,86.0149,156.8833,32.0203,376.6606,-154.3964,140.1131,-187.3880,151.0862,-150.9815,149.0646,-264.1613,33.4591,-48.8490
-113.7499,19.1364,-169.8114,-11.8117,-207.0991,110.7445,-28.9234,105.1392,-18.4917,309.9276,-160.6556,104.9429,-209.0178,126.5189,-143.2155,129.4993,-243.9593,38.4795,-105.7614
-83.3985,54.3639,-156.3536,32.0496,-218.2384,130.4342,-86.3019,87.2292,-70.6399,330.3428,-136.9711,52.6874,-204.5693,109.2726,-165.8168,152.7989,-210.9409,85.7423,-113.2103
-94.3355,83.3439,-124.1585,98.2238,-148.2803,-11.4767,-1.5897,132.9488,-72.7310,442.2128,-151.6514,33.2872,-167.8096,166.5040,-138.6753,217.6418,-233.7856,142.8636,-94.2212
-130.7153,70.1204,-127.4616,96.5545,-106.6352,172.4571,-59.8773,170.0528,-71.3072,492.5746,-207.3842,62.6306,-151.4729,190.1836,-102.9281,240.0159,-264.9964,101.4167,-133.5287
-138.0125,17.8868,-166.2003,10.3010,-161.8216,158.5553,-164.7764,85.5108,-142.9361,362.5473,-242.9046,70.2057,-180.1790,56.6763,-160.2614,160.1720,-276.7131,-53.8953,-230.8494
-181.0785,-112.7061,-206.8213,-91.4097,-236.6753,-302.7488,-138.1343,-103.8415,-228.2758,137.4867,-287.8753,-21.4101,-218.3628,-146.3204,-260.2387,34.8796,-328.6207,-224.0927,-305.4971
-301.4311,-297.9526,-230.1676,-148.7553,-260.9003,-315.0121,-216.7568,-259.1555,-237.0738,-28.1725,-372.7720,-168.2199,-235.2940,-257.2540,-299.4112,-61.3752,-405.6736,-337.5811,-304.6105
-385.5244,-417.2043,-239.3508,-156.6819,-259.6161,-144.1469,-269.5513,-314.2123,-199.8463,-100.1606,-445.6539,-241.6994,-242.8142,-262.3693,-299.7709,-110.4322,-451.6519,-383.5699,-248.9066
-405.7361,-440.8954,-250.8421,-153.9934,-260.8132,-547.8297,-38.1076,-318.2215,-162.3489,-130.8214,-486.9407,-210.6270,-242.1509,-245.6985,-292.7596,-120.1787,-475.5938,-380.8580,-185.9945
-455.5133,-447.3616,-252.3229,-163.2518,-246.7678,-513.4476,1.4123,-306.0211,-97.1356,-140.0506,-514.5746,-178.2884,-214.6396,-245.4219,-242.2719,-116.2725,-464.5360,-376.3525,-129.7139
-478.4772,-448.6586,-205.0284,-152.3817,-203.0526,48.6299,-166.9932,-267.9655,-1.5736,-116.4993,-510.8693,-185.3322,-182.8092,-225.6965,-179.6186,-109.5128,-398.8354,-358.6783,-79.0846
-384.4522,-396.2311,-125.5584,-117.4682,-143.5794,-454.8873,164.9803,-215.3256,65.5569,-92.8962,-465.4572,-141.6514,-174.9946,-149.3504,-172.0968,-76.4934,-337.8337,-252.3783,-64.1876
-289.4826,-303.0597,-73.7234,-116.4441,-94.7396,-753.6480,359.9097,-182.0402,58.2711,-124.4001,-377.6045,-58.1684,-160.2135,-77.2366,-180.6531,-48.7777,-296.8533,-117.7778,-94.8652
-264.5753,-222.9773,-50.8067,-135.8614,-67.3241,1309.2410,-589.7278,-173.4445,-5.7015,-175.8117,-224.4462,-91.7848,-122.6213,-106.5860,-141.9921,-99.6579,-218.9349,-110.4567,-103.2264
-176.8144,-169.1134,-25.0462,-87.1981,-41.1245,2969.4783,-1352.7957,-146.2643,-39.5512,-155.4744,-45.5902,-222.5455,-103.0156,-173.5317,-76.2442,-198.1858,-133.5827,-175.2733,-32.6357
-13.9538,-131.5959,-15.8905,-0.5505,-14.0787,1316.4811,-547.0248,-74.8666,12.3663,-105.7139,43.6345,-234.3205,-104.8064,-130.9352,-25.7948,-252.6347,-98.2290,-149.1425,63.5189
48.6715,-142.5089,-46.0775,-9.1818,-37.5292,-678.7544,390.8361,-28.4950,66.8655,-168.1578,-8.5025,-128.0376,-100.5032,-38.9244,-18.0938,-257.0584,-81.8996,-107.9068,103.2336
-29.8342,-242.8976,-80.4975,-122.5177,-115.9461,-337.1298,181.8993,-79.9004,52.0756,-306.9304,-136.0950,-126.5167,-109.5937,-66.5284,-52.5106,-244.5073,-80.9238,-189.9741,103.9135
-127.8595,-373.3385,-78.1960,-224.6235,-142.2006,146.5257,-59.9030,-162.2762,71.6698,-328.2806,-230.3608,-241.3835,-129.2633,-154.1000,-60.3994,-221.3154,-124.6771,-283.7277,140.0553
-179.3674,-419.3351,-41.2631,-259.5011,-55.6246,-415.8109,281.1260,-171.6949,192.9104,-213.1534,-238.0872,-291.7179,-103.1642,-129.1911,-4.7277,-207.2548,-149.1907,-267.6696,212.0626
-195.4698,-388.3120,2.4427,-254.5083,47.0701,-422.7473,366.0200,-140.8552,272.5703,-125.7271,-216.5501,-263.7655,-48.9536,-34.9735,30.5431,-192.7740,-110.1625,-240.4431,247.4754
-193.1134,-373.5944,28.3210,-241.2166,80.6871,-44.7274,183.3595,-153.8303,216.6619,-107.9212,-231.8003,-251.7825,-44.5614,-20.6955,-8.0827,-121.4919,-82.8130,-273.4258,213.8658
-185.8895,-380.1255,32.6002,-248.2613,88.4197,-327.4573,250.9161,-209.7946,138.5858,-82.2747,-246.5350,-247.2361,-86.1567,-82.5314,-58.8746,-20.5013,-100.0579,-297.6581,144.4739
-176.6707,-377.4445,22.9560,-283.6818,100.0359,-494.1024,266.9221,-272.6974,122.0481,-62.1239,-232.1641,-246.3984,-126.5227,-133.7784,-89.7729,14.0100,-113.1667,-294.8542,72.0595
-173.0503,-394.8104,5.2946,-304.3541,80.8566,-209.4641,112.3061,-313.8161,122.0327,-72.9630,-235.7041,-290.1640,-163.9254,-141.1385,-125.8506,-11.3328,-115.8052,-289.8102,19.6908
-184.3607,-416.3210,1.2912,-277.5504,57.7867,-256.5075,167.7053,-299.4311,120.2985,-47.5754,-242.1893,-329.7509,-187.3656,-105.5456,-153.6388,-14.1124,-114.4590,-257.8205,16.7751
-178.4053,-387.0926,29.3548,-236.1731,83.3110,-382.4561,265.7761,-253.2133,130.9657,5.1868,-210.3801,-321.7499,-176.1741,-64.3690,-160.5622,10.9719,-92.3812,-217.8071,49.2522
-135.5140,-347.7761,57.3068,-216.7991,117.0229,-190.4818,164.2126,-241.1794,126.9055,-4.7150,-196.1392,-330.9540,-164.4716,-73.0727,-168.3600,13.4025,-80.0908,-214.5807,55.0335
-101.7965,-338.8691,52.4635,-201.5604,119.8117,-200.9177,141.9049,-244.7547,101.5771,-25.3327,-193.2377,-358.8078,-168.7218,-102.0885,-171.6238,-7.4108,-106.6222,-199.2257,19.3079
-89.4025,-302.4330,45.6843,-166.3712,138.8691,-333.0407,208.3320,-204.1960,83.5237,35.9158,-95.7578,-325.9882,-140.3980,-76.8877,-166.0443,-10.3466,-131.7762,-142.7232,-6.2206
-59.8616,-240.2293,60.4762,-132.6664,182.6927,-173.5001,136.2776,-157.1378,67.3336,76.5018,24.9445,-260.7248,-85.9349,-19.4337,-179.0261,1.9756,-125.8985,-126.1064,2.6834
-37.5932,-220.2524,63.4408,-124.0506,189.4481,-142.3868,101.3899,-162.0531,39.2788,-6.4918,3.8993,-223.6921,-80.2727,1.2196,-194.1753,-29.5781,-95.5558,-163.1971,17.9125
-50.5343,-203.6010,49.0822,-115.9365,161.8755,-325.5291,187.1118,-180.6443,16.6015,-109.8574,-75.2720,-174.6181,-120.4088,-5.2062,-169.7766,-111.2712,-41.8026,-163.5755,23.8143
-40.0350,-145.1123,58.0111,-84.9574,157.0507,-227.1508,173.9337,-171.2032,6.9151,-161.1719,-57.1034,-119.8128,-129.1320,8.3476,-130.2578,-159.2822,0.7085,-120.4573,32.7025
-0.9682,-124.8414,86.4552,-59.2336,170.9090,-70.5614,127.8892,-164.0088,-6.1836,-238.8881,-16.7355,-138.5696,-97.8000,44.7870,-127.7767,-147.7434,-13.5897,-98.1625,44.5534
-18.8306,-165.3559,89.8315,-57.9298,169.0893,-166.8716,164.9637,-173.5998,-41.5003,-341.8470,-38.8291,-192.2896,-87.1982,69.8837,-172.8171,-159.5327,-54.0219,-92.8938,40.0994
-71.8757,-171.4110,66.4226,-51.7386,164.6730,-170.4273,114.2593,-177.4188,-100.1163,-385.7693,-47.5601,-193.2113,-115.2114,43.6775,-232.5840,-230.7586,-67.4202,-84.6301,16.4002
-53.8153,-132.1767,53.2008,-35.3865,181.4205,-91.4164,8.8033,-190.2740,-140.6548,-393.6212,-33.3003,-182.0352,-146.9266,-23.8914,-246.9743,-304.8401,-54.4539,-100.6337,-5.4330
2.5380,-125.5386,55.9482,-48.5175,200.3068,-204.0307,34.4598,-238.2532,-132.9006,-415.9838,-73.6063,-217.8921,-166.3348,-56.2794,-210.7496,-333.3761,-35.4663,-147.8167,-23.8716
-9.9651,-177.8372,44.8674,-102.5910,191.9583,-264.4934,70.2726,-296.6605,-124.0707,-427.9725,-124.4665,-279.8329,-174.2474,-28.4712,-200.6457,-304.4026,-32.3294,-211.1728,-53.1523
-46.8775,-266.4754,27.9433,-169.3410,184.3223,-218.0483,38.5114,-337.3081,-138.7485,-438.0787,-78.8196,-356.5591,-141.3040,-4.4422,-213.7793,-242.7665,-45.0586,-284.2311,-50.8402
5.7328,-328.2411,59.5297,-214.0898,247.3832,-338.0461,111.4449,-361.5125,-115.0360,-470.1950,51.2532,-419.6008,-50.7334,28.9355,-161.0610,-187.0862,-24.0076,-321.8140,42.8895
99.3665,-294.4805,121.0922,-201.6091,382.2070,-414.4397,265.8469,-350.8315,-59.4493,-461.8593,150.2549,-388.4718,38.4948,175.2481,-84.1501,-94.4688,23.4612,-286.7247,168.8236
103.3724,-215.1273,108.1522,-131.4552,513.9044,-273.3615,349.5228,-289.5096,-61.7024,-372.8834,147.6807,-271.4761,71.7213,422.6780,-71.6647,100.4637,21.0145,-227.4393,216.4000
75.0634,-142.4491,29.4515,-24.0386,639.1428,-205.7289,406.3572,-212.7807,-88.9967,-244.3335,146.1944,-142.0545,102.7396,678.9089,-28.4126,350.9375,26.2908,-148.0677,225.4041
198.1666,50.5051,33.9926,168.7290,827.4861,-138.6842,483.4828,-121.3707,-36.8377,-80.6998,310.9514,23.9601,207.7877,987.3011,115.9396,611.4265,166.8274,41.6173,314.9105
446.6589,400.1047,139.6295,466.1247,1046.3220,160.0434,549.0829,43.2714,48.0232,107.6673,574.1385,228.1483,350.7182,1408.4871,214.1112,891.9169,348.8319,276.5351,462.1387
606.5049,645.3625,184.2324,692.4833,1180.9659,366.4467,633.3205,230.4511,73.3775,214.1978,706.5530,331.5111,443.8131,1782.6954,217.9040,1084.8447,398.2524,332.1057,561.8344
643.7236,643.4407,116.6870,700.2734,1221.9871,310.6143,709.3829,291.8267,88.2127,189.3866,705.7603,302.0526,490.4036,1913.3676,287.2684,1110.0189,384.0714,221.2298,611.5173
706.7250,606.9316,65.4194,652.8991,1255.9916,322.1284,716.1758,248.6103,141.1394,131.9497,747.7949,310.2781,569.8175,1852.4398,421.6971,1157.7101,447.3843,210.6774,672.9749
797.5967,685.3253,99.6898,747.5204,1325.3519,438.8242,730.7263,271.6081,170.9034,130.9620,827.6579,426.9485,699.8683,1767.8708,452.6562,1358.5215,533.6406,351.9952,762.5263
797.3911,766.2909,155.0957,879.4247,1403.7150,474.6862,795.1954,371.3908,164.3418,185.3347,812.6700,533.6220,795.8124,1705.5980,397.7139,1538.3817,548.0421,429.1908,861.4371
713.2228,779.8893,167.2988,898.5431,1436.4266,492.7365,834.8133,416.0233,181.9721,258.2174,691.0090,565.6002,799.5429,1641.8375,394.4518,1618.1910,515.2489,383.4650,933.1245
612.6823,780.2639,129.8747,875.7981,1387.7836,498.2533,856.3570,393.2488,203.5159,300.9835,528.6368,563.7715,772.1489,1584.4292,424.2655,1726.1534,469.4499,355.0105,933.7358
492.4029,762.1127,62.3169,870.9626,1286.0883,419.1165,874.4195,372.1118,162.2431,302.6985,382.9988,533.0339,778.7831,1531.0463,398.8319,1831.6748,392.5793,354.8652,868.8022
369.3006,674.8450,-17.1741,792.2313,1168.1721,354.7525,823.0900,338.3648,82.9240,302.3206,312.8376,444.9087,778.3940,1465.1162,318.3113,1820.0806,275.6952,273.7912,786.2222
288.8712,527.8826,-93.5464,624.6042,1028.6042,287.9121,740.9868,264.2592,36.5235,286.8540,297.5873,321.0672,730.6348,1402.5941,221.3135,1748.1169,159.7321,131.8676,716.4313
230.2903,383.6308,-129.1390,487.0389,900.8242,131.1375,706.2440,180.3802,38.5591,210.8694,244.0813,225.4292,689.5051,1358.9659,164.3429,1673.1569,121.9592,42.7092,678.3746
172.0353,306.3329,-98.6621,425.9436,840.0952,43.3010,673.5315,101.5179,62.9856,109.6980,150.3246,189.7408,697.4863,1317.1136,208.8298,1586.5214,167.6760,21.1693,677.7179
139.9781,278.6411,-66.5588,370.2000,785.5956,60.6427,632.6694,19.8811,81.1566,24.9367,87.8041,161.4014,711.0693,1266.6948,300.6772,1538.7916,179.9047,-5.4522,672.4816
113.4429,207.7551,-109.8107,273.5173,645.8124,-16.6558,622.0350,-49.9674,79.9842,-60.9181,46.8696,77.1739,674.5961,1216.9220,303.3019,1496.6550,101.3627,-69.0283,632.5649
50.5697,94.4603,-185.7971,176.2073,474.1842,-131.5067,584.9834,-90.1162,85.3158,-106.8771,-29.2076,-22.5041,578.6628,1171.7662,203.7184,1360.2928,27.5881,-135.0974,601.1013
-10.9799,29.7714,-213.8380,124.3849,360.9050,-140.5370,522.6640,-89.6689,129.8940,-51.5465,-115.3429,-70.5739,469.2218,1133.5438,118.5222,1220.4008,13.1908,-171.0059,616.5976
-17.6802,-3.0631,-200.4217,87.6335,288.5981,-161.1038,521.0106,-55.0289,190.2072,35.4673,-117.1803,-100.4227,421.7646,1104.1641,105.3669,1169.1562,5.3919,-181.8251,651.4207
13.6994,-66.6976,-177.8242,24.2037,225.3665,-209.3855,532.2605,-29.3889,215.3792,66.8282,-9.6880,-151.6895,437.6259,1071.9741,119.1062,1095.9276,-4.1735,-172.7774,661.1999
35.1758,-100.8835,-151.1287,-20.4657,176.3573,-160.5243,493.6112,-33.6313,197.9550,61.3435,75.8466,-179.2898,423.6591,1030.9753,113.5581,988.4850,6.4704,-136.0186,612.9656
18.9177,-74.3150,-135.5775,-8.3826,117.4170,-103.2323,457.4150,-43.6432,155.6148,20.6619,15.8801,-162.5337,342.8027,995.3719,73.1241,921.8486,-0.3784,-92.7129,500.7556
-10.8181,-76.7006,-118.0061,1.0287,44.4299,-107.7060,394.1383,-64.9876,93.5025,-68.5285,-81.3723,-135.0215,260.9071,967.9016,-7.5818,764.5694,-29.4415,-65.8380,386.1374
13.5610,-89.2694,-48.8031,-2.0834,15.9166,-61.7379,269.6493,-97.6408,39.0955,-112.8223,-48.1253,-92.7010,217.2132,930.4703,-99.2984,488.8490,-17.8719,-20.3851,334.7704
96.4757,-0.2825,48.0288,60.9860,42.5696,8.7830,213.8004,-76.1960,42.7275,-51.1697,38.3838,-32.4682,193.9008,886.3353,-140.1448,349.0016,36.7625,64.6038,322.6953
153.1513,117.9114,94.7325,151.9915,51.2724,21.9432,249.9547,0.5760,104.3019,29.2531,28.4458,2.4215,179.2635,862.1784,-110.3100,332.1048,68.1942,122.0148,302.5196
150.2873,114.1560,90.2803,146.1033,-11.9654,40.2098,243.6519,33.7929,175.1086,76.7108,-11.6483,7.4870,148.0234,840.7203,-62.5058,150.0802,48.5764,98.0315,274.3425
145.0429,32.5565,69.6033,66.2856,-137.8207,40.1926,200.1439,6.6616,230.0050,123.5121,24.3692,8.9747,67.6381,747.3756,-49.4084,-157.8035,6.6549,29.5638,221.6578
163.2967,-22.5833,17.2861,2.5020,-290.9178,-52.2885,144.3769,-23.5451,258.7910,131.9043,68.8940,-15.8634,-32.5048,549.9804,-60.7389,-386.9490,-19.4446,-40.6155,115.3213
169.7661,-76.7342,-57.3067,-70.9007,-451.8129,-143.5440,-9.3759,-75.2207,235.3181,64.2893,38.9659,-81.8320,-106.9655,309.0562,-57.6620,-610.6809,-25.0747,-102.9165,-8.3410
146.3137,-148.4665,-89.2297,-167.0687,-623.9359,-180.1888,-181.5559,-156.7868,168.3638,6.6677,-20.2442,-152.6947,-174.6499,73.1467,-47.4532,-887.3557,-37.7732,-129.4776,-109.5041
122.3445,-176.5292,-59.2653,-203.0961,-770.5445,-215.2876,-238.0565,-195.3496,108.3688,28.5617,-19.4081,-200.7517,-255.6853,-182.0361,-83.9351,-1078.1642,-46.1808,-98.4409,-212.1336
141.5245,-149.6599,-3.5357,-164.7303,-810.9133,-203.9633,-288.3174,-187.1588,73.2696,85.2584,63.4848,-202.1671,-308.7603,-445.3369,-166.9050,-1178.7809,-7.5581,-39.5045,-312.8049
196.4971,-115.3272,55.1874,-122.9766,-759.1613,-143.7211,-385.7645,-195.9591,50.2334,116.6057,131.1601,-155.5676,-305.4974,-638.8286,-204.2425,-1288.6090,42.7442,3.1009,-364.4622
214.9063,-111.3231,94.3836,-112.2988,-743.1595,-143.8521,-388.7076,-215.0792,34.8034,87.4413,70.2780,-158.8293,-293.3425,-767.9328,-157.9966,-1381.3323,29.8037,2.7828,-388.6722
165.6323,-172.1486,82.3215,-153.0568,-817.0264,-186.4928,-341.6409,-231.5832,-1.1451,-2.8753,-61.6071,-280.8683,-333.3868,-947.1987,-129.5635,-1450.4122,-32.8989,-49.0571,-445.3707
104.4777,-280.6798,31.1866,-254.0665,-910.7774,-226.0007,-394.5951,-284.0203,-86.5871,-79.9743,-129.0493,-413.4951,-412.8355,-1218.6598,-183.6667,-1558.9049,-102.7027,-126.4775,-524.6273
62.4653,-348.2233,-15.6295,-347.8685,-979.4930,-323.6878,-488.1615,-352.6412,-174.9445,-97.8982,-139.4464,-463.3663,-468.5320,-1488.0894,-239.1391,-1665.5667,-189.8394,-186.7897,-593.2265
17.0713,-362.1277,-50.5925,-390.7115,-1046.3137,-416.8091,-552.4966,-385.1362,-216.1588,-129.4470,-147.7128,-505.5092,-492.0966,-1665.7323,-244.2504,-1697.4963,-273.8949,-221.0022,-656.8932
-23.6316,-411.1155,-92.2873,-436.1770,-1117.9923,-404.8585,-604.4430,-403.1004,-250.0183,-217.5867,-134.8935,-585.2837,-529.4095,-1754.6858,-257.4636,-1682.6848,-301.5334,-250.7132,-709.5435
-47.4735,-494.1835,-129.4585,-493.1790,-1154.7480,-400.5333,-587.3911,-427.6037,-299.9043,-288.3149,-135.7684,-628.8061,-568.5400,-1787.5940,-287.4361,-1680.3772,-293.8538,-284.0576,-724.6445
-82.8790,-511.2628,-130.9255,-498.3857,-1104.9286,-459.6936,-524.7460,-424.0467,-308.0824,-291.4553,-197.8261,-603.2514,-552.9058,-1748.6730,-277.0230,-1704.2902,-297.9785,-294.5322,-700.7066
-126.5590,-452.2692,-106.0834,-456.1372,-967.4153,-449.1456,-513.6632,-383.4562,-278.7693,-256.9762,-231.3073,-538.9950,-498.0815,-1608.5061,-249.5597,-1680.1071,-300.1308,-256.2450,-655.1918
-144.2367,-398.5114,-106.0988,-418.0020,-819.3234,-377.8469,-474.4420,-332.9622,-296.9016,-228.2057,-191.6039,-471.1808,-461.0586,-1426.1470,-277.1617,-1523.1903,-295.5172,-213.8401,-621.8259
-149.3319,-388.6383,-146.5447,-396.2877,-726.6323,-361.7763,-395.9182,-302.1331,-354.8806,-248.4547,-188.1255,-456.5081,-444.7327,-1302.1094,-353.8103,-1334.8414,-315.9285,-241.2646,-636.0882
-159.1017,-407.2868,-182.8290,-394.2099,-669.7388,-367.0751,-401.3349,-312.6518,-382.3839,-301.6980,-219.7124,-474.3301,-432.7370,-1199.6489,-414.3023,-1245.9963,-345.6241,-290.6616,-658.4274
-149.8475,-412.4503,-188.9194,-384.8314,-611.0622,-331.7269,-214.6419,-316.4770,-440.6511,-276.2091,-166.5788,-392.6929,-423.7010,-1000.8975,-412.0132,-1128.4425,-337.6824,-239.0740,-608.9385
-126.4389,-352.5384,-186.5330,-303.7982,-542.8453,-265.3995,493.2950,-237.1379,-630.6719,-148.0369,-70.5463,-215.8427,-397.4026,-749.5599,-354.2447,-883.7548,-297.3254,-123.1204,-505.6952
-114.8433,-256.9394,-182.5293,-195.3529,-450.0494,-188.2540,1223.7354,-124.8837,-835.1340,-54.7310,-50.5879,-115.2577,-349.9255,-576.8886,-289.8610,-697.7410,-264.5414,-103.6851,-420.8190
-102.6620,-228.3628,-172.6794,-184.4335,-335.7222,-175.7266,1309.4675,-83.3329,-832.7601,-46.5628,-86.8278,-110.2264,-317.3351,-451.1455,-231.5741,-629.7861,-252.9704,-188.6255,-352.4488
-94.8769,-273.9607,-187.9224,-240.2574,-249.9099,-244.9446,1017.5716,-84.8241,-654.6292,-21.7490,-130.8001,-70.8613,-299.7494,-297.6226,-152.7546,-507.6453,-243.1701,-237.9377,-289.6949
-126.0326,-302.0067,-237.2482,-234.0530,-211.2250,-250.7081,914.2220,-61.4651,-539.4329,30.8617,-176.1013,-13.7413,-267.8683,-192.4665,-94.7238,-350.8409,-226.9586,-213.8537,-262.3975
-170.2758,-301.6458,-271.8707,-189.7413,-176.1399,-165.8115,938.1183,-31.9697,-553.3177,29.3673,-176.9356,-26.7420,-242.3392,-152.9129,-116.3499,-248.8799,-241.6491,-201.0570,-234.2791
-178.2342,-330.4254,-281.9772,-198.4522,-120.8936,-135.1475,852.7053,-9.3555,-559.2414,-10.7476,-130.5883,-42.0302,-245.7875,-15.3081,-154.6228,-68.0301,-304.2626,-232.2899,-150.2352
-161.1835,-367.2635,-308.8422,-220.2812,-65.1632,-159.3605,722.1121,15.0064,-520.3827,-45.5038,-93.9263,17.3450,-243.2283,258.7352,-145.0807,179.2418,-339.3417,-261.1477,-75.1840
-123.2143,-358.4225,-328.7409,-190.7281,-12.5655,-164.1703,613.9036,-2.8649,-511.5603,-99.4497,-31.3665,77.4755,-212.5873,497.8856,-165.3521,236.5078,-283.2520,-257.1460,-75.0347
-37.6882,-315.3100,-286.6381,-137.7160,61.2769,-185.4645,505.7777,-68.2963,-510.9832,-144.0761,86.6092,95.7831,-171.2321,650.4606,-261.7857,133.0486,-196.8135,-222.7464,-94.9611
54.6851,-247.1564,-225.6236,-73.7678,156.9505,-180.5442,422.3698,-99.5277,-471.5466,-114.7995,147.0537,174.7100,-116.7102,833.4360,-339.2587,122.4565,-155.6326,-148.7378,-105.5509
94.5765,-129.9043,-210.1379,39.5362,229.0711,-65.7857,343.7733,-66.7485,-449.5334,-61.1424,126.5739,363.7539,-40.1186,1043.8640,-348.6582,182.8397,-135.8197,-30.4075,-143.9208
127.3710,9.3428,-199.0796,184.5707,247.7564,59.1103,237.2161,-23.3910,-454.8707,-56.3276,176.6548,530.4092,37.1233,1151.0079,-343.0405,174.5416,-88.1366,78.2466,-173.8448
217.5468,111.8508,-147.5637,284.5658,247.9430,122.6274,172.2948,-10.5693,-398.4738,-82.4510,314.9351,541.1266,95.6735,1130.1244,-326.7538,141.0644,-4.3374,109.2695,-150.0330
323.5812,166.6786,-101.1707,300.6122,254.8828,201.8343,179.9859,-42.8391,-283.1618,-135.3134,392.8839,454.2550,138.7166,1072.4258,-263.1389,108.8836,95.0145,86.0710,-122.6807
372.6983,176.7700,-79.4394,274.6873,230.6640,265.8445,195.6983,-97.7425,-190.0865,-214.9011,380.0799,411.6566,181.4479,1044.1444,-174.7191,32.2180,154.9615,91.4015,-99.3426
364.5715,144.6602,-29.1733,287.7399,175.7325,255.6188,199.5723,-100.0889,-109.8704,-216.5529,357.2021,430.5117,242.8799,1055.4427,-103.9208,-15.7443,146.2920,145.1760,-20.6490
348.9902,127.6384,55.5529,359.2162,157.9680,265.7739,194.3540,-26.1758,-15.3847,-89.1378,342.8399,441.1100,307.5488,1062.1515,-55.1511,33.4322,134.8904,200.8450,65.2517
361.3120,163.0406,120.3391,404.7122,170.9098,304.6888,149.6321,49.1683,43.8658,37.1993,323.2175,419.5158,321.2842,965.0079,-6.5407,92.6080,163.8466,211.5692,74.4620
379.4192,174.8948,139.6496,355.0524,124.1952,266.4283,87.2896,79.5655,69.2853,75.1009,291.2237,356.1262,270.9035,719.2385,73.2002,88.8272,163.3635,156.1185,61.7543
347.0800,106.2622,116.9093,257.0764,-0.1542,193.4548,60.2263,96.0645,132.5232,84.9755,221.2408,239.8211,204.2488,407.8602,184.0968,45.2134,107.3501,72.0542,89.5638
268.1883,32.3258,77.7770,178.4215,-130.6283,148.4402,57.4744,108.0444,222.7727,79.7855,135.1699,130.5685,156.7582,106.5902,280.2406,-40.0072,83.8075,31.8917,100.5604
214.8720,14.7857,88.2938,113.8917,-215.1098,71.9546,31.4128,71.5848,266.5980,19.7424,102.9592,80.3272,128.7661,-197.4239,333.7885,-189.2766,123.8477,35.7762,54.8136
215.2093,10.0485,162.1507,57.3386,-259.5878,-12.5009,-59.1177,-27.3717,258.3712,-32.1795,124.1398,31.9880,104.0686,-454.8924,345.2938,-351.2062,159.3224,33.2111,-11.2384
223.8745,-5.3101,210.7874,35.1873,-314.1573,-54.5590,-206.3922,-116.8468,243.9964,-1.8902,135.1194,-60.2926,47.5804,-556.5354,303.0795,-440.7706,160.0808,28.1374,-67.5250
204.8991,2.1166,193.5196,23.9409,-417.9067,-146.3442,-310.7727,-119.5554,253.9081,62.7163,107.6949,-153.4552,-47.2540,-589.9838,224.3394,-472.7357,151.3955,32.5790,-83.8550
167.3928,38.2982,184.8989,-12.2244,-521.5524,-279.7902,-316.0018,-77.2305,292.8808,97.5104,61.4074,-220.2515,-106.0825,-771.2714,166.2275,-560.8351,155.9915,36.3917,-48.8264
147.0596,98.6763,235.0571,-12.3933,-548.6808,-284.2284,-317.6608,-80.3641,332.6060,110.3776,41.1402,-263.6036,-48.6932,-1059.0468,144.4979,-721.9687,192.2991,82.7993,-35.3165
173.7067,173.5488,319.9630,62.3555,-519.5593,-175.5828,-370.1229,-103.6144,342.8904,118.5884,72.0084,-279.8780,105.5972,-1235.8589,148.7851,-824.2385,236.3447,169.6428,-90.2028
218.5977,182.9333,410.8374,86.0265,-502.2614,-137.3108,-385.8635,-84.4541,344.4968,123.4692,102.3100,-315.0024,264.7175,-1331.2920,200.6423,-828.3925,227.8439,170.6911,-139.5525
225.6989,82.8009,470.3255,-19.5186,-512.2377,-189.2293,-346.4641,-67.0239,369.2179,132.1874,85.5489,-406.2245,364.7152,-1512.6550,280.9033,-845.7621,194.2231,85.5061,-137.0309
212.9389,-4.0515,475.1275,-93.2791,-539.6409,-210.3066,-343.0108,-83.1464,400.1746,151.7720,78.7545,-478.3069,410.5574,-1716.5096,316.7220,-897.0384,220.3017,94.0582,-136.8857
225.6012,29.8306,479.4875,-19.2103,-578.8874,-151.2334,-383.6024,-70.4771,410.2030,189.1147,120.1997,-469.7272,428.3578,-1819.8165,314.2253,-912.3265,268.2833,198.5638,-157.5363
222.8539,94.6952,518.2994,46.6739,-623.1424,-67.3385,-411.1456,-26.8901,411.0356,238.2683,125.4897,-428.2995,404.1019,-1912.4373,343.6527,-920.2529,241.7746,213.8115,-165.1221
161.1618,83.9412,520.7360,-24.6715,-698.8180,-40.7633,-434.2160,-18.7039,425.0135,264.3635,36.8616,-387.0178,304.2096,-2085.5415,390.3741,-964.8275,182.1171,129.3352,-176.3786
92.7013,36.4501,452.8788,-133.0676,-839.1020,-84.6690,-472.4902,-40.4509,436.6476,245.3248,-76.2681,-356.9759,141.2704,-2277.8621,378.1045,-1009.6510,175.2832,58.3155,-230.9631
50.0568,0.0465,386.9492,-210.2970,-1010.0197,-140.1983,-504.3654,-68.3689,404.9314,193.2609,-145.4223,-397.1606,-28.8440,-2462.0730,290.2673,-1065.2231,178.1657,-8.4141,-323.6954
-9.7936,-49.5851,356.9797,-313.1828,-1149.3169,-178.6032,-533.5920,-127.2829,331.5249,115.2064,-186.1933,-485.8317,-160.2331,-2652.8435,166.5940,-1160.6501,128.1544,-75.8191,-427.2336
-81.2297,-104.9950,335.9216,-405.9177,-1228.3164,-196.4532,-581.6642,-196.4294,268.1095,18.6546,-222.9474,-502.2383,-244.9497,-2780.2236,51.1460,-1224.8862,74.1822,-72.3611,-516.3333
-115.8904,-120.6731,334.2851,-406.1270,-1230.3506,-172.2993,-626.8643,-226.8006,235.1899,-65.6755,-236.4394,-444.5531,-309.1828,-2807.3318,-22.5266,-1219.3389,69.6703,-39.2709,-573.1751
-135.6041,-108.8151,353.3352,-380.0176,-1162.8491,-135.2793,-629.9005,-230.5637,217.5335,-117.9270,-211.9780,-421.2379,-373.0346,-2803.1047,-49.3038,-1206.9932,76.1562,-70.0946,-596.3241
-179.9502,-133.8203,334.1884,-421.1322,-1079.2991,-135.7433,-584.9207,-217.8389,226.2102,-139.9464,-190.0320,-454.1778,-420.4548,-2791.1831,-45.6833,-1191.1406,36.3115,-129.8722,-587.3925
-231.4871,-220.6523,253.3326,-491.9216,-1015.1344,-149.3937,-531.1196,-179.6026,245.9481,-142.5564,-216.3812,-498.5812,-448.9514,-2742.3779,-29.1249,-1127.0590,-48.6075,-166.7210,-564.2712
-280.8008,-310.5346,159.4338,-529.7330,-959.6661,-153.0558,-528.2220,-161.1770,206.4543,-156.1312,-265.6458,-526.9420,-490.4586,-2680.9260,-33.7110,-1041.9644,-126.8361,-197.5745,-570.5657
-341.6161,-333.6302,102.4979,-530.6484,-897.3531,-159.9632,-581.1773,-180.0993,122.3731,-179.5077,-304.6215,-510.1211,-533.9528,-2621.5767,-80.6741,-953.3802,-154.8441,-206.2983,-596.5333
-399.8265,-310.4276,94.0701,-507.4721,-815.4338,-140.5115,-613.8766,-168.6307,96.3462,-153.6556,-367.1442,-464.0413,-533.4800,-2525.4841,-114.9535,-832.7971,-150.1026,-179.5579,-575.5220
-437.9698,-301.5934,93.5031,-484.5137,-723.6589,-97.5405,-581.3434,-117.7512,127.2553,-94.9478,-433.4343,-443.6117,-501.9771,-2394.4653,-74.1845,-719.9930,-151.8875,-167.3781,-523.6777
-440.9873,-301.5133,51.8762,-472.6690,-659.3864,-98.6974,-539.8175,-97.4617,132.8103,-111.6823,-385.8965,-419.5900,-469.0341,-2266.4893,0.3417,-675.8022,-149.2439,-179.0808,-527.0069
-383.6080,-293.8971,11.9404,-442.0638,-599.7743,-119.1517,-535.3428,-114.8624,120.8961,-187.7502,-240.2167,-344.6492,-413.2054,-2141.6375,40.3246,-661.2761,-120.7717,-177.7720,-569.9024
-308.7372,-298.4062,48.1788,-394.5807,-479.7846,-89.7803,-520.4971,-124.0678,135.9566,-180.6680,-180.8100,-281.2876,-342.9923,-2011.3640,72.9684,-607.2017,-90.5241,-167.6119,-561.4138
-299.6909,-281.5920,110.1282,-366.3878,-337.6997,-54.1654,-450.2766,-104.6719,168.9354,-75.9708,-240.7093,-272.9868,-308.2982,-1891.3456,140.0259,-513.5720,-77.5809,-156.6385,-495.9499
-323.9603,-216.4301,97.1803,-344.1057,-262.9551,-56.6712,-361.0825,-52.5562,224.3822,15.4353,-257.2415,-267.1721,-300.2530,-1795.8191,178.7218,-423.9176,-79.0490,-148.6785,-435.0943
-309.1207,-202.6461,25.0591,-321.7549,-242.1077,-70.8368,-303.8962,-0.1533,293.7046,63.5269,-201.7433,-253.0906,-300.4025,-1719.4091,115.7649,-367.7890,-112.4136,-178.5220,-405.2249
-307.8896,-282.2947,-31.3627,-346.1576,-222.1456,-101.9807,-283.5004,1.3028,309.5146,94.9389,-198.4860,-244.6998,-339.0729,-1620.1632,10.5004,-330.9994,-156.8670,-219.5166,-388.6650
-346.3035,-313.2039,-37.8443,-388.6995,-183.7764,-128.2094,-277.0433,-17.5317,292.6370,83.3093,-226.7861,-196.3448,-366.7485,-1460.3010,-17.0117,-289.3212,-121.9164,-195.8368,-342.7170
-305.8605,-251.3315,22.8252,-364.4630,-84.8225,-89.6983,-247.4231,-4.7018,348.2111,16.2808,-159.1631,-124.2749,-276.0484,-1291.4878,45.8820,-266.4383,-4.3443,-147.5834,-247.6520
-167.5842,-240.5809,121.7414,-306.8786,63.0647,-53.9879,-174.3381,-7.8834,429.9854,-51.8136,-41.9606,-114.9825,-129.1080,-1180.8881,106.4211,-285.3637,57.4602,-156.0739,-168.8659
-91.1736,-292.9131,160.8148,-294.9551,135.7575,-99.8371,-113.7254,-64.0210,393.4611,-64.4339,-22.5338,-148.8557,-93.8371,-1084.8413,98.1633,-303.0530,-7.2025,-177.4149,-178.0412
-140.8685,-276.2315,103.3631,-294.1002,99.3981,-134.5295,-143.4007,-108.8474,257.6809,-4.2986,-78.8794,-151.7198,-167.2901,-953.6655,30.6378,-270.0440,-110.0454,-162.4694,-237.7325
-221.6895,-208.8315,23.8156,-258.3475,67.8757,-100.1520,-240.3389,-110.7624,136.3724,96.9451,-91.3398,-135.6221,-227.0009,-835.8247,-55.6013,-186.9973,-177.1598,-148.2218,-277.2527
-271.9937,-192.8693,-27.6654,-221.0036,73.5099,-71.3705,-319.4555,-107.9896,43.6443,173.3922,-82.8944,-114.9417,-258.2793,-746.2591,-122.0531,-91.7138,-227.6613,-130.3797,-302.0643
-297.4196,-202.6601,-71.6178,-194.4485,51.7624,-50.8379,-358.3095,-103.1917,-31.8839,194.9588,-143.9725,-71.2565,-309.5925,-635.4526,-150.0475,-40.1644,-266.1856,-82.2987,-332.9044
-309.2666,-191.3810,-114.2877,-158.7492,20.9250,-9.1958,-375.3787,-81.2499,-51.0458,186.8885,-222.3245,-41.1674,-350.4740,-531.4417,-151.6263,-27.8764,-257.5190,-43.8167,-339.1330
-321.4888,-177.5249,-127.6309,-120.3841,39.0478,10.2106,-360.2321,-52.2094,-17.9836,175.1387,-210.4577,-41.2316,-324.4031,-478.9108,-142.1901,32.6143,-202.8940,-17.4000,-292.5917
-313.3515,-140.2580,-91.2712,-68.7976,96.6727,34.4275,-310.9282,-5.3421,14.7052,178.0119,-135.8785,-9.8419,-244.5339,-407.8019,-117.4790,144.9567,-147.0962,37.5526,-210.3604
-255.4866,-62.2920,-27.1724,5.1567,163.8724,104.2434,-259.7257,64.7312,25.3970,213.1476,-89.3903,55.6232,-169.0654,-264.3921,-73.0356,205.1429,-131.5093,70.7190,-129.2746
-211.5738,-16.3679,-10.4657,39.3290,202.7353,121.4118,-230.8774,116.9063,13.2438,264.4000,-91.6044,92.1889,-139.2059,-117.2037,-18.6707,212.9404,-172.2845,32.5731,-79.2741
-252.3959,-44.4994,-88.8423,-1.0463,164.8653,57.8428,-233.7286,133.6151,-23.4307,295.9228,-132.9264,101.8911,-159.8777,-14.9453,20.5021,241.3665,-250.4149,-8.4097,-72.0809
-318.2934,-85.3771,-196.3426,-41.5974,79.0037,35.3894,-268.7411,137.1594,-72.2768,297.0375,-198.4937,110.6740,-213.9284,71.1471,4.7607,246.5432,-317.0452,-9.0677,-96.2354
-338.6302,-87.6482,-242.4679,-29.1674,23.3897,61.2524,-309.6139,127.0761,-123.3179,277.4133,-241.0437,103.2383,-278.0229,142.9366,-73.0749,190.5117,-338.3838,-10.2077,-122.1825
-352.2818,-71.4395,-243.0334,-7.2709,0.4850,57.4794,-329.9890,98.0964,-173.9616,254.5557,-260.3368,91.9500,-331.1693,181.6367,-153.6702,162.1393,-339.3329,-14.4618,-127.2746
-396.1854,-79.4851,-270.5610,-16.3036,-31.5163,46.9071,-338.6387,61.5538,-214.1238,233.8492,-315.4536,100.4333,-370.3542,209.8963,-195.7592,186.3065,-374.2373,-13.3776,-131.0028
-438.0928,-115.2214,-338.4327,-41.5220,-74.5868,35.7232,-352.9102,16.1877,-243.1988,184.2052,-377.0279,98.7278,-401.0602,243.1796,-237.0560,197.0427,-438.1598,-41.0731,-168.9663
-445.4561,-122.9779,-392.9661,-48.5025,-109.9852,-5.7471,-373.7409,-17.4746,-262.6089,106.6451,-349.0112,77.0739,-397.6447,258.4080,-290.3070,215.8922,-455.5495,-72.8266,-219.2500
-403.9956,-72.1817,-376.0688,-12.7275,-103.7441,-7.9715,-386.9742,6.6189,-249.9572,73.8202,-247.6691,79.4641,-327.6158,256.4139,-291.1122,266.2433,-391.7469,-44.9900,-224.6493
-316.2015,-17.1458,-284.4852,49.6226,-17.8753,55.8853,-360.5272,66.5254,-196.9557,90.6523,-154.8011,114.3822,-217.6378,284.2695,-226.0338,265.1779,-297.1571,13.8526,-179.4834
-216.7718,7.0962,-173.8332,93.7450,111.8374,95.2565,-280.4066,96.2500,-129.0475,61.7815,-73.3104,152.0637,-121.2268,368.7675,-164.2212,202.6254,-209.0322,42.8366,-113.0930
-134.8839,24.5203,-92.9827,104.5122,202.5827,102.1683,-188.1195,100.8958,-56.2791,-5.0186,1.1454,178.1658,-47.6884,458.9226,-118.3898,182.2606,-125.8487,44.4993,-37.2299
-85.0299,11.4422,-53.9739,85.3149,235.0989,105.4951,-126.9433,113.7038,17.7854,4.0984,16.0647,170.6573,9.9112,474.2623,-46.7497,225.9258,-85.4829,17.5511,26.7619
-87.9124,-61.7148,-64.8639,25.5636,233.3576,41.6179,-91.3878,114.3178,57.4086,67.1581,-27.8042,107.0738,38.4916,418.4127,16.6962,269.4902,-122.2201,-53.4739,55.0671
-116.3846,-125.6232,-110.6599,-52.0677,205.1591,-62.3515,-67.1889,94.1357,48.6388,58.9485,-59.8053,23.0461,43.7468,376.8599,20.5627,292.6220,-173.3988,-120.7877,71.0959
-108.9808,-133.7369,-130.5100,-91.4437,180.0284,-86.4422,-55.3697,85.2317,32.3532,-4.9388,-49.9974,-18.1425,54.1314,381.7184,21.0600,318.5484,-167.0487,-132.4799,95.4347
-83.1724,-144.7948,-102.1246,-92.7424,198.7965,-72.2603,-51.8154,80.8308,33.8062,-17.9596,-19.4630,-10.0604,72.0855,380.9167,74.4889,376.1968,-130.2164,-127.6500,98.4372
-86.8096,-170.6541,-82.9727,-106.2206,236.7354,-119.5578,-52.1124,45.3487,39.3185,16.7025,13.2272,-2.9499,73.9879,357.0579,120.4599,463.3434,-110.5904,-164.3870,72.2060
-87.9698,-152.8920,-103.1081,-134.1095,234.7305,-173.3215,-50.1795,-10.5054,44.4217,31.3680,32.0726,-14.7877,46.7861,357.6897,107.7158,510.5144,-96.7640,-214.2701,53.4413
-63.2728,-105.7049,-115.4024,-131.3627,196.4476,-172.1876,-35.4688,-50.8057,49.4080,12.9322,23.5364,7.2294,3.6830,397.1598,80.6395,474.8383,-66.5426,-208.0429,53.8011
-48.8371,-83.2733,-90.7692,-90.1374,180.6556,-149.2488,-29.4342,-67.9784,36.3038,-30.8241,-3.2078,73.4315,-24.7822,432.3654,64.7002,412.5669,-18.1760,-148.4478,59.0220
-31.6426,-78.7496,-62.1143,-52.4619,205.7383,-116.6830,-64.3774,-69.2097,-2.2149,-89.9086,-11.0942,85.9739,-25.3111,445.1490,36.3050,367.1183,36.5943,-102.4624,62.5304
13.9678,-73.3833,-56.3409,-41.3181,221.5550,-77.7253,-111.2594,-50.2800,-43.6307,-109.4889,35.5419,17.8518,-17.1283,472.9915,9.3939,327.7615,59.7711,-89.2897,56.2835
37.2676,-67.6183,-57.8545,-28.5089,202.8244,-57.2860,-119.8380,-5.0119,-56.9306,-52.0113,104.7878,-0.0589,-8.5965,536.1146,3.4718,309.9262,32.3849,-69.6962,55.7585
28.1266,-41.6459,-44.3574,10.1504,201.0416,-34.4557,-93.6800,56.6527,-27.0200,25.8769,112.3095,75.2719,20.6884,586.1442,-2.7232,307.2408,9.2875,-41.4480,104.0650
46.6720,16.1747,-21.8213,53.5873,239.0559,6.2844,-48.1679,109.7759,30.2006,57.3463,50.0952,114.0639,70.0336,572.5195,-0.0709,254.6176,37.4497,-28.7636,185.2980
65.3225,81.3226,-21.0057,81.8294,253.1729,29.4977,11.5924,136.7437,78.9643,58.5981,-6.3917,85.0549,103.8245,523.0158,37.4130,159.5015,70.2585,-10.5283,228.1796
22.0182,122.3760,-56.9545,104.6311,212.9781,37.6025,47.7356,142.5106,98.3383,64.9544,-26.7498,96.3657,100.7865,500.3047,68.3547,117.8366,50.4010,26.5935,224.0130
-27.6974,114.2521,-98.6838,117.0282,170.5245,51.4415,46.2860,140.4440,92.5895,72.3796,-23.2220,146.1390,73.2390,513.5287,60.2060,168.0220,2.5051,40.8938,218.8960
-31.5768,68.0574,-110.4274,99.9141,151.8980,43.2025,61.0008,132.3495,78.4963,90.2585,6.1269,148.3547,39.8955,525.9403,62.8353,260.9678,-19.9855,16.1374,217.6361
-41.6584,47.5809,-107.1189,71.5179,137.6473,10.4227,97.6468,109.2675,73.8733,135.9437,22.0440,122.1104,9.7897,518.1769,95.2327,326.4578,-10.0549,-12.0575,204.1880
-66.8044,81.5338,-115.6851,70.7903,136.5617,-8.8850,88.5650,72.5896,75.1127,167.4433,-14.8788,119.5898,-5.6221,515.3097,104.9360,321.8324,6.6547,-15.5430,188.9141
-53.3579,125.2682,-109.4335,105.9244,167.5270,-4.1198,37.6093,48.8065,58.7464,142.4812,-42.0484,130.1391,11.8355,560.1458,76.8659,284.4998,17.3872,21.0495,177.2478
-26.1951,151.8881,-55.9400,152.8764,216.0476,33.8063,16.7755,62.8275,26.8663,103.3392,-23.0292,159.4140,52.8463,644.4650,30.5260,283.5868,31.5088,87.3142,166.4793
-35.7197,167.7316,6.4330,176.7928,257.6949,99.0858,25.0232,101.8162,4.7813,97.1068,-35.0327,214.3690,69.0589,692.7787,-36.9767,307.4132,52.5125,119.4077,167.5055
-45.2307,158.1945,23.8313,160.7006,274.4374,123.9947,12.4968,128.2209,-13.6187,95.5883,-73.3607,232.1209,39.9779,663.1739,-100.2764,315.9644,61.4549,84.8161,173.4183
-20.0541,120.9851,8.8748,124.8220,259.8754,85.0056,-15.6937,114.7069,-47.7380,60.6242,-36.8843,171.4417,6.4922,600.4387,-115.5527,319.1017,43.0934,36.4387,158.4688
-1.6536,77.7834,-5.0327,90.6437,232.3537,42.8584,-31.8897,64.0445,-75.1305,-6.0303,41.7155,80.4648,2.3158,545.7336,-99.2042,299.3518,7.6922,9.5139,129.2025
-16.5972,26.9885,-19.3624,56.1283,210.1045,15.2118,-36.9123,16.8481,-72.6104,-81.0548,56.4268,16.7381,18.0251,497.9002,-79.7572,231.8445,-23.6064,-12.3652,112.2855
-32.1280,-17.2895,-33.8332,30.3491,193.9548,-7.8073,-35.1311,14.4712,-69.9734,-115.2720,25.3664,3.8683,35.0449,477.5916,-53.2391,200.6719,-35.2266,-21.4689,110.3970
-25.8341,-13.0242,-38.3282,25.2475,188.1640,3.8268,-29.4827,45.4044,-89.2387,-69.4092,-0.9523,36.8785,34.2084,504.1945,-42.4144,282.8514,-30.8726,-15.8465,120.6722
-12.1620,10.6480,-46.4708,16.4552,191.1002,19.8886,-21.6835,74.5769,-87.9700,12.6971,-18.0611,67.4328,15.8180,530.2441,-50.2765,395.8179,-36.8052,-39.8339,150.9111
3.9817,-14.5113,-63.6652,-16.0741,187.9929,-29.0227,10.4321,93.3171,-31.1577,45.1538,11.5090,51.2725,24.1813,505.5529,-4.1685,431.5745,-57.9901,-93.4748,188.4850
33.9959,-62.4337,-67.2307,-46.1428,176.7066,-94.0598,71.9073,93.1751,33.9809,7.3044,73.8783,6.8525,70.3796,457.0691,92.9250,396.3766,-60.4069,-111.0660,204.2844
56.0979,-66.7602,-59.3129,-39.0213,152.6584,-86.6225,108.8282,72.0448,38.9096,-41.7094,66.0102,-21.7344,98.7093,444.8630,118.8889,342.1147,-38.2702,-67.7946,197.6025
32.6068,-34.8056,-59.3226,12.6445,109.0643,-26.1500,85.8565,73.3896,-9.5466,-40.2247,7.7269,-8.2592,105.0922,489.1998,54.6892,306.5251,-28.2632,-10.5340,189.0161
-7.2009,0.4013,-56.1941,71.6061,85.7319,25.3759,43.6388,105.3401,-53.8708,-12.4504,16.5638,42.2977,136.2009,548.4097,12.2683,299.8352,-34.1243,2.9976,171.4568
-5.4583,28.2405,-48.7677,72.5320,111.2199,31.8756,21.7822,96.4049,-71.4826,-38.0914,53.5259,76.0009,161.1368,555.1647,21.0077,280.9834,-35.1047,-36.9922,125.3247
7.9883,33.8587,-63.3493,23.5717,126.7133,-11.0930,19.2328,42.7500,-69.6488,-95.2977,15.9392,52.6463,143.7230,507.0992,38.5582,233.3153,-47.4193,-66.2192,76.3592
-20.8461,25.3383,-84.3258,15.0212,98.4487,-39.6646,44.0780,33.0478,-41.9521,-82.4902,-48.7231,18.5391,143.5820,471.5778,81.3236,214.0964,-76.3276,-28.9647,63.6561
-46.3684,35.7978,-73.8237,55.5466,85.4681,-9.5296,84.8207,58.3745,-5.9304,-37.9388,-72.0513,18.2941,164.6514,454.7478,131.3647,224.7382,-82.4496,15.2057,60.4657
-28.9616,43.8941,-55.0199,55.9608,96.8513,1.4130,71.7902,20.1472,-17.3232,-86.1014,-88.9669,18.2399,112.2189,386.9023,100.2347,183.5472,-71.5991,-21.4077,18.4993
-47.5437,-9.7913,-72.5944,-4.7203,69.9493,-65.9700,-8.7202,-71.8264,-73.6549,-183.0232,-128.6744,-1.6240,0.3195,278.9522,22.1758,103.1259,-102.7394,-110.4680,-35.6536
-147.8750,-116.1126,-116.7770,-82.8414,13.7611,-148.6460,-57.3145,-128.7743,-100.4054,-207.9667,-183.4653,-20.6992,-64.3260,225.1677,35.1958,88.4887,-172.5664,-172.1968,-47.4461
-237.5367,-201.0119,-147.8725,-163.7758,-15.1151,-197.9590,-32.3057,-146.3606,-87.2080,-186.5357,-245.4564,-56.8016,-86.3837,226.2302,114.5929,130.2766,-213.1002,-200.8334,-28.8856
-248.8351,-227.3160,-145.3499,-214.2386,-19.4538,-233.0988,-30.2693,-179.8615,-106.7362,-184.8845,-277.9446,-117.1232,-128.3679,187.3244,100.7199,112.0922,-199.1564,-237.4355,-26.4919
-235.2986,-231.0097,-130.9454,-206.0899,-24.5802,-262.2909,-102.3822,-246.0908,-170.5289,-200.2784,-263.0417,-144.5034,-175.0016,96.2129,-13.7958,19.9286,-170.9875,-287.9178,-59.5567
-243.3212,-251.3330,-148.7346,-203.5171,-33.1300,-283.5117,-166.2164,-315.4423,-213.9866,-245.0025,-235.2759,-131.3622,-188.2487,45.9408,-89.2359,-41.8230,-169.2673,-306.5610,-119.4088
-239.6747,-264.6387,-180.3194,-230.6059,-34.3210,-285.7096,-163.7113,-341.3177,-219.2560,-292.9064,-193.5299,-139.4715,-143.5389,83.1744,-80.8907,-33.5246,-178.7153,-255.3994,-168.9648
-195.5124,-230.3857,-157.8681,-193.5137,-4.0946,-240.6083,-139.7932,-314.9056,-215.8008,-250.2801,-129.2702,-158.4015,-31.1187,153.7352,-51.8837,-23.5346,-142.1331,-176.1613,-173.9470
-138.3835,-161.0008,-104.5240,-85.9306,37.4704,-170.4592,-139.7457,-281.2855,-204.2131,-157.1177,-99.8425,-125.0003,67.1362,201.4696,-32.9260,-45.0192,-56.4905,-132.6072,-159.1611
-105.8112,-84.4797,-98.4099,-17.1506,25.1803,-122.8547,-152.2698,-255.4094,-185.3551,-148.5566,-111.7910,-60.5057,61.7769,230.1771,-36.6541,-50.4279,2.1788,-105.1301,-154.3056
-100.3846,-12.4207,-104.3278,-1.7134,-7.2299,-86.5413,-146.7051,-211.9927,-185.1424,-188.6098,-99.3288,-29.1292,27.4161,246.8802,-85.7678,-27.7584,3.3192,-64.2723,-123.7959
-100.5874,17.5969,-51.9946,8.9907,42.0031,-62.2397,-109.7284,-174.0675,-191.1133,-170.0622,-75.0838,-31.6800,68.3886,224.8147,-133.2493,-29.2243,-1.8937,-51.2442,-55.4536
-86.9627,-11.8688,9.0832,2.2320,139.5531,-83.8138,-62.2919,-172.6073,-162.0178,-136.5879,-61.5436,-36.6032,127.3163,168.8428,-112.6542,-67.5674,2.6434,-62.3105,-14.2348
-47.1880,-33.1748,27.7784,-4.0070,185.9324,-102.5448,-26.5486,-165.8970,-104.5092,-139.6833,9.0909,-30.4039,128.1434,140.6922,-67.1018,-97.7632,-0.1481,-33.9571,-11.5478
10.0109,-9.2256,51.4165,29.9751,200.7698,-62.8239,22.7762,-123.2865,-46.5102,-126.7889,106.3413,-11.8598,107.5135,166.2557,-54.5707,-91.5158,19.3202,0.2310,31.5200
40.4333,-4.9634,87.5558,39.6526,221.9247,-28.6909,108.9539,-74.7767,17.7265,-87.9153,93.6914,3.7178,93.1872,201.3172,-27.5752,-53.0731,61.5820,-26.7436,131.2787
20.5348,-36.8501,82.1618,-11.2563,212.9847,-35.9941,190.4947,-26.9884,81.9506,-68.9273,15.2000,7.7610,69.2439,225.5807,32.9795,-5.1483,66.0255,-48.7212,205.5126
4.8799,-29.9703,55.2474,-17.1629,184.1154,-12.4795,220.4224,22.0955,104.9280,-85.9660,29.5632,32.4906,58.9364,269.2437,45.5170,14.3326,50.8300,4.9169,210.1844
47.3470,25.7497,61.2262,61.8368,181.5273,50.8781,202.6691,32.9381,76.2568,-145.7983,110.0889,89.9863,81.5603,331.2563,-5.2474,0.0980,87.3330,68.3815,188.7005
102.1229,63.9087,83.5100,123.3122,189.9040,90.8809,158.9450,12.0277,32.6931,-206.9195,136.2421,121.6825,111.2160,374.3516,-40.2540,-1.3762,134.8149,85.5776,184.1604
99.3061,66.0717,95.4372,124.5997,205.5065,106.1291,117.7672,18.9016,4.0782,-183.9462,106.8772,92.9024,137.1053,390.8011,-40.5605,35.4438,129.8947,92.2718,180.9899
68.2676,64.7771,111.4530,117.7619,252.6789,115.2336,107.5055,38.3186,-8.9299,-116.2060,69.1297,63.9342,158.5443,394.8182,-37.9218,83.1456,129.8533,105.2459,148.6722
81.2933,83.4513,131.6212,124.2499,287.5685,109.4651,110.1694,17.5622,-19.2292,-111.4691,50.6221,87.4670,155.9226,390.6063,-20.7086,117.4269,164.1395,112.6684,106.0692
122.4868,119.4720,135.1655,136.1526,267.9397,109.0499,95.8641,-4.8676,-31.2754,-123.7855,86.1041,115.3635,135.3081,386.3619,17.9110,145.4524,152.1204,123.9467,94.4665
125.9087,141.9785,118.0740,152.2030,233.3454,125.3194,81.6725,27.5563,-35.1821,-78.4140,151.9729,84.8205,119.2501,380.2612,42.1847,177.3428,97.9597,132.5316,103.4827
107.7289,140.2771,93.4148,166.2082,205.4234,129.4753,72.8341,78.4547,-36.9472,-51.7840,177.9035,34.0872,99.9766,349.3073,35.9432,195.2451,102.3083,128.2076,99.6753
128.8199,152.2536,81.0105,177.4401,174.2108,124.7947,49.7829,98.2987,-50.6717,-78.7639,163.5724,44.6134,80.0172,311.5977,22.8193,170.7599,148.7642,129.1867,100.0595
156.4655,173.5914,83.6008,171.9801,172.4477,119.8248,52.0112,104.9891,-45.9778,-66.7066,142.3201,100.5106,84.8820,318.1561,30.1695,131.4668,143.3347,122.7698,127.6432
122.8491,146.6211,76.4149,124.9715,203.8951,82.4348,109.4389,119.8732,0.8024,-17.3019,113.7768,113.7480,101.3108,345.1671,48.7436,144.1082,104.7235,88.6943,148.8730
75.8336,92.8679,62.1448,80.4376,215.7629,37.3253,144.0566,123.9615,31.8974,-15.8007,102.3605,79.6568,104.9331,332.8180,30.9647,196.6555,98.6603,85.1065,134.6744
90.2559,92.3415,81.0596,106.2577,215.5851,60.2130,116.4467,116.0683,14.7019,-30.1111,128.7656,71.7733,121.3441,320.5235,-14.4843,214.6381,107.3805,145.9527,113.8545
118.3751,137.0398,127.9876,162.3321,245.0918,129.4988,109.8080,132.1181,12.5378,15.8979,139.5513,90.7740,163.3697,365.9233,-4.2704,193.5927,104.2426,181.4936,114.1538
107.0598,165.4852,143.0180,175.5996,266.7725,158.6311,136.3711,165.3565,27.1699,80.4788,112.4083,80.2132,177.4669,403.4162,46.2384,165.9278,113.4215,139.4500,109.5026
116.6112,170.6476,97.8432,167.0067,226.7260,140.7016,98.8175,150.1385,-26.5931,70.1437,120.0209,63.6705,128.1797,368.7039,13.2581,113.0291,139.2086,105.8745,57.9293
183.4887,171.5288,29.8191,172.6084,152.4048,126.7081,-2.2705,78.7923,-124.1298,-29.3505,198.9767,93.9416,65.2276,327.4795,-94.5550,45.4259,161.9983,135.7656,-26.3158
245.1529,178.1110,6.0846,181.9604,117.5781,134.2785,-68.3639,23.4573,-165.7838,-136.1711,282.9034,127.6833,53.3653,327.9851,-143.8863,20.7190,189.5812,171.2300,-69.8162
260.1546,202.7580,57.7006,201.9211,167.1623,144.9714,-73.8895,-0.8823,-170.2030,-165.7413,282.8912,106.3786,84.4442,311.0332,-121.9967,22.5912,225.6165,178.0660,-41.6741
237.1367,233.4023,130.2643,234.9541,261.1581,143.2125,-56.7476,-34.9576,-188.7677,-137.2234,182.4147,64.5343,103.6320,257.5367,-110.0077,5.5858,241.5954,187.8871,-4.7869
188.0577,243.7768,151.5413,241.2562,301.7192,139.8060,-41.2424,-40.8388,-182.6044,-119.0160,87.8702,45.4016,91.3816,227.1739,-114.4164,5.7022,221.1052,198.5733,-2.6341
154.7640,232.7911,125.5352,210.5918,259.6013,142.1444,-47.6149,27.5661,-152.5826,-105.9866,112.8328,31.6023,62.8865,230.9845,-116.3174,42.8301,174.5388,171.0229,5.2148
163.1761,191.7834,82.9112,172.1535,190.3227,119.2300,-69.2917,89.8494,-161.6901,-79.7562,184.9053,12.5114,18.4656,231.4268,-131.6677,60.5497,117.0259,114.5366,30.0657
158.7670,114.8338,30.1376,137.8398,125.9887,68.3482,-71.4578,76.2639,-186.1543,-85.3422,163.6524,-0.4994,-31.8298,229.1944,-159.4202,49.0624,74.9238,83.7022,21.0098
124.8109,66.3998,2.4119,123.3823,78.8242,52.3833,-65.0628,54.8374,-172.8578,-121.0114,105.9845,-15.4297,-43.6504,245.0081,-192.6851,47.3491,71.4774,98.6455,-17.6088
129.7861,105.6967,23.7862,142.8197,78.8243,84.9564,-72.3385,74.6738,-149.9925,-111.1219,133.7690,-21.5565,-7.5739,273.6264,-212.4655,44.4882,85.5227,124.4959,-31.0033
162.9068,184.2408,36.3460,160.1241,107.2994,98.8786,-53.1525,79.1311,-127.3775,-55.3221,177.4682,26.2061,31.7404,289.6448,-160.5923,29.1030,81.8181,128.5699,-26.2969
152.2412,235.2097,15.6055,152.7933,117.6339,77.7175,0.0179,39.9671,-76.4332,-29.3266,146.3135,121.6774,56.9675,268.3349,-61.8805,32.5905,73.1530,119.5244,-49.3853
147.3170,257.7828,33.0506,160.1676,129.8398,71.6739,9.6260,-9.5527,-43.1068,-39.8084,133.5598,190.1774,84.7116,224.6612,-36.0775,48.2654,92.7912,124.1893,-96.5253
219.7472,261.8189,101.2186,193.9939,171.8493,93.2416,-40.7923,-56.2306,-72.8192,-34.2814,205.9119,193.2975,108.5716,208.8067,-70.6217,32.8757,136.1520,150.3745,-130.2111
286.3271,260.7567,144.5068,218.3334,207.7191,117.3548,-69.3163,-97.6766,-104.6448,-21.3970,250.5728,177.6532,118.4230,223.6984,-40.4938,-15.1564,176.7062,179.3838,-129.7210
261.6808,283.7373,142.0742,225.6207,203.3416,130.5824,-46.4798,-121.0050,-88.5208,-55.2844,202.6141,192.7872,119.7866,225.8540,36.3920,-56.1419,198.5042,185.4800,-99.0159
205.3733,297.1928,119.4771,217.1960,157.3861,125.2555,-21.0739,-125.6035,-56.0736,-109.4367,162.6349,211.2069,100.6702,217.5564,63.9208,-41.0353,191.5729,160.3419,-53.0530
176.1913,235.2597,80.0007,172.0202,90.7821,103.6775,-8.5509,-98.4703,-22.9664,-78.0204,189.0155,179.5223,56.0885,226.9961,65.1807,46.9925,160.8099,119.5495,7.1936
156.3954,143.1295,54.8298,109.1822,67.5928,81.0524,20.4523,-15.5369,25.9969,51.3797,209.9465,122.0944,19.9799,236.6383,79.2438,142.3422,135.5312,90.0261,84.7192
156.4913,125.3713,76.8860,85.4022,114.4185,66.4256,75.6597,96.6392,82.0917,152.4205,190.5459,104.6237,11.5408,231.3199,74.2524,168.7588,133.5092,92.6674,148.3624
191.1962,178.1559,101.0314,112.1877,152.2021,76.4856,140.5704,183.4029,131.9835,162.6505,179.1458,120.1680,18.7657,239.6121,61.5447,152.2547,140.8388,124.9392,170.4764
199.2015,219.6221,88.8963,151.8715,133.6290,127.2215,198.7313,232.0979,170.2057,158.8189,172.9586,126.1847,47.5990,275.1389,76.1442,162.3136,142.0510,161.3014,178.2210
141.9881,212.1056,72.1185,166.5938,107.0056,183.7514,238.9258,256.6967,190.8116,177.5154,126.0566,125.1930,103.4945,312.8384,94.5307,208.3833,130.0704,178.5907,194.6821
84.8889,162.9035,59.5766,140.1359,85.5853,187.8539,252.6038,262.4877,210.5201,180.2113,71.4084,98.6274,160.5274,316.2917,112.7662,260.6878,98.6234,167.5915,198.8932
85.1595,103.0130,40.8322,97.3825,60.7276,134.7450,248.0921,247.7070,242.8735,183.8391,67.2118,13.2043,201.8129,263.4638,153.5270,282.9226,68.7089,136.8176,189.0589
118.5550,98.9868,58.4630,95.2662,91.1332,80.5363,254.3374,207.4773,257.1515,210.5862,94.4939,-38.3983,224.3031,196.1805,173.1750,250.4096,87.6390,132.5204,183.5589
161.3307,184.8039,127.7060,158.8740,185.5048,93.8963,269.1201,157.9643,228.4720,204.0758,134.4621,57.6346,214.8327,194.5719,132.2793,199.1357,161.0596,193.4156,167.0821
217.2576,284.9442,186.0075,241.6559,250.7150,175.9080,240.8912,136.3889,178.6229,145.3855,198.7819,197.5311,193.9657,247.2123,84.9573,180.6045,226.9880,260.5152,137.2626
247.8072,294.9006,200.5771,266.4051,257.7973,226.4318,170.3944,137.9170,140.1680,101.1949,221.9417,208.0648,208.8881,258.5280,88.2541,171.6052,225.9216,244.2345,135.4603
201.8102,220.1949,187.9285,210.7300,255.3823,179.0305,141.8819,125.5417,132.2182,107.5342,139.3461,126.1131,232.8889,203.5936,125.3940,137.7497,164.8839,173.9396,160.1646
112.1083,152.7813,142.7356,136.9552,235.6306,108.5023,175.5102,112.1448,147.7287,141.8342,45.4031,67.7330,190.6188,144.2048,140.0850,110.9869,98.8782,133.0703,162.8588
50.2960,128.8058,72.5258,103.6210,170.7431,89.7132,191.6965,127.0512,153.1907,165.4532,39.3317,18.8855,94.6559,122.0612,90.4914,111.2074,65.3892,110.6474,150.1854
18.2021,101.0184,22.1719,86.2527,87.6517,84.4467,169.7319,146.4841,142.8774,142.7479,45.2044,-51.6603,25.6236,131.6232,9.9615,108.4504,49.0103,65.9917,164.3468
-14.9863,43.1393,0.0887,39.3567,15.7473,53.3681,164.3649,150.4191,139.8534,102.1751,-12.4160,-102.2181,3.1235,143.0822,-17.1697,103.7050,18.2381,17.8579,189.8862
-35.6410,-16.9917,-21.9140,-28.7293,-28.0908,10.5647,177.4656,151.0319,132.7337,110.4175,-65.8950,-118.5367,-6.4277,128.5874,17.9327,125.0762,-24.9086,-28.7884,187.6147
-31.3131,-62.6849,-48.8203,-83.6280,-27.4382,-38.3400,179.1073,132.4912,111.9034,139.1279,-65.5457,-118.3707,-5.5487,100.0558,52.5450,152.4002,-61.4470,-84.0505,168.0975
-29.6835,-94.1861,-73.5454,-98.0844,-13.6610,-71.3095,179.5467,85.8959,110.6086,125.0410,-58.2006,-100.2165,17.2643,79.9874,64.8840,144.0402,-86.6742,-96.4668,161.4484
-43.9516,-89.7146,-83.6676,-65.7959,-24.5434,-47.8002,178.5101,60.7100,118.6697,113.0015,-73.8790,-79.2096,41.9890,66.8327,52.3925,115.1040,-90.3320,-40.0272,168.6754
-54.7737,-44.7551,-48.1852,-27.4113,-19.3918,3.4188,157.9131,75.4006,85.9039,135.4272,-99.3864,-68.1643,50.4197,78.4658,-5.1015,118.7670,-56.8186,7.0581,173.2767
-45.5465,-16.0093,23.3452,-27.3835,38.5009,18.3031,133.4673,75.8723,38.3709,105.4099,-113.4340,-54.4533,52.9822,111.7674,-67.2602,149.4401,-12.9662,-7.6529,161.6919
-13.4347,-51.3760,64.6126,-51.0712,90.5075,-5.6512,114.9353,39.8894,30.0706,0.5830,-85.9184,-72.0322,55.1871,83.6600,-60.2965,133.7003,-10.2858,-38.7404,133.3943
17.7885,-110.0756,56.8282,-70.3411,84.1684,-35.8204,94.5932,8.1731,40.6106,-63.7590,-28.4545,-141.0741,51.5804,-2.7576,2.1272,67.1332,-41.5010,-46.7564,110.9088
8.2933,-118.4107,48.8268,-84.5411,57.4822,-46.2793,100.6052,5.2959,44.3653,-33.9698,-4.9268,-156.1204,49.1704,3.4885,49.3698,57.4765,-46.2165,-40.3669,118.9350
-30.0648,-79.1265,49.4280,-85.8096,48.9765,-30.0152,136.2129,16.1352,54.7000,20.5712,-29.2241,-60.4876,43.9335,103.0867,51.3470,137.5865,-11.3188,-39.6739,145.2051
-45.7817,-58.7182,19.6721,-84.2377,32.5588,-34.4011,144.2859,17.3659,66.4734,47.2844,-56.9552,10.9237,14.8219,101.1230,30.2649,187.3952,8.2154,-72.4046,153.3712
-44.4035,-82.1505,-32.9586,-123.3919,-9.2929,-96.1261,132.9201,-2.5276,78.1989,55.0195,-76.8652,-27.6538,-14.4132,-12.5001,39.6695,143.1521,-12.6274,-140.8802,139.1119
-64.5850,-116.2131,-62.5145,-186.8281,-40.2311,-160.0524,158.4505,-36.8015,100.3716,52.2881,-95.5083,-81.9502,7.9371,-61.5925,95.1558,87.7801,-28.0992,-201.5962,128.1805
-86.6246,-146.9891,-67.3470,-214.4572,-44.7383,-192.5100,169.6558,-84.6017,94.5988,17.7536,-92.4444,-104.8796,57.2952,-65.3927,118.5946,60.5357,-17.7257,-236.1155,113.7156
-75.2122,-189.8977,-81.4860,-228.7566,-65.7728,-242.0460,102.1086,-160.8551,41.2380,-75.7415,-65.4804,-145.5388,63.8745,-160.2330,65.0886,-5.3718,-33.5112,-263.0042,62.9574
-47.7685,-234.0632,-109.0291,-270.0605,-117.5954,-294.6213,30.9773,-250.1013,2.8930,-204.6539,-44.7384,-176.2712,33.3771,-266.6217,20.8110,-116.9433,-90.6097,-272.3899,-8.0461
-33.9933,-250.0393,-129.2831,-282.7898,-152.6304,-287.5676,18.9297,-305.1385,0.6010,-289.2091,-54.4219,-154.7937,6.8841,-244.6260,40.2872,-184.6742,-119.8611,-258.4493,-48.3091
-45.1052,-234.7457,-144.1339,-237.1277,-154.2935,-260.4917,9.4437,-308.2480,-9.7832,-280.1792,-99.5453,-141.8588,-29.0613,-165.9403,54.3635,-167.9754,-98.2471,-259.9701,-52.8774
-80.6982,-209.3772,-170.4267,-209.6850,-156.7355,-266.6454,-9.1610,-275.4942,-14.1113,-211.6372,-144.0079,-168.6416,-79.0120,-143.3000,27.4760,-127.4073,-90.8476,-279.4001,-47.8871
-103.7264,-191.8117,-195.4606,-225.7866,-168.0553,-257.8790,13.2030,-224.2825,5.9554,-153.1728,-129.2596,-171.4438,-97.9441,-135.8958,-0.7740,-119.0075,-107.7685,-263.5903,-29.8467
-70.6300,-169.4445,-180.5197,-209.6951,-168.2623,-205.5523,44.3676,-170.2130,-1.8722,-139.8693,-70.9397,-126.3370,-77.3999,-78.2741,-31.5121,-115.8697,-83.2690,-198.9688,8.2770
-11.5720,-107.2507,-126.6020,-136.3016,-138.1381,-140.9545,42.2852,-106.0569,-31.0291,-141.7066,-43.6285,-65.7114,-49.8108,8.3945,-72.5375,-75.5087,-22.1117,-120.3088,47.7293
8.8780,-23.7338,-112.7927,-65.0967,-57.9015,-61.3359,52.8596,-8.8684,-13.2892,-116.4437,-52.1993,-0.1285,-18.9990,75.7404,-69.2997,-32.0861,5.1744,-54.9474,80.3434
-9.2951,-1.0889,-207.3113,-37.7487,33.3973,15.7125,88.7171,82.3343,25.6480,-90.1875,-52.0102,49.0681,10.7134,87.1409,-5.1387,-43.6704,-6.8557,-29.1230,108.7647
-27.9615,-54.4190,-334.8281,-48.1061,48.1665,21.7979,104.3807,92.8241,38.9430,-101.9976,-55.8957,42.4699,14.8869,37.3089,53.7740,-91.8520,-20.5974,-51.9475,122.1232
-45.4256,-94.9787,-341.9160,-70.0419,13.8722,-24.0268,123.3040,43.9768,77.4219,-107.4505,-91.3743,1.0141,13.7061,-10.2685,78.7899,-117.3706,-37.8847,-71.3866,128.5996
-76.4587,-74.8069,-222.3122,-69.8600,46.5982,-28.5949,180.7223,22.9161,150.2379,-64.7688,-130.2587,-14.2119,44.3767,11.7819,108.7646,-105.7028,-56.0770,-33.8471,152.0797
-101.7226,-32.3048,-121.6350,-28.7853,124.4656,19.9968,212.9555,37.6050,167.5385,-25.0691,-135.8041,11.7336,75.1295,68.4858,137.6133,-82.4453,-42.1297,36.5330,167.5671
-83.1996,13.6114,-97.1583,35.7655,141.5543,72.4337,169.3201,34.4133,107.0922,-22.4449,-100.0292,49.7166,55.7722,83.2076,98.8536,-70.4320,2.2490,86.5991,131.3219
-18.9488,72.2086,-72.2344,85.9081,126.8280,107.6780,100.3633,2.6921,30.9632,-19.6997,-36.8927,71.9202,6.6895,72.7119,-7.0841,-64.2958,47.7025,109.5363,66.6763
45.4035,115.2392,-22.3826,105.3740,150.4772,119.5836,52.3072,-33.7586,-31.1668,-21.4732,9.9335,72.9258,-16.6096,96.0330,-74.5477,-43.1391,92.8970,122.8495,22.4990
73.2413,113.5561,7.0647,115.5841,168.6434,117.1242,20.4632,-62.0790,-66.8174,-65.2489,7.6030,70.8466,3.2224,121.2471,-39.9038,-28.6464,136.2777,124.3722,-7.5758
75.8790,91.9115,22.1680,128.6514,149.9289,122.6847,6.4205,-71.9945,-58.9370,-98.9460,-15.1413,71.7778,33.3727,93.2739,25.0042,-55.5824,150.0568,110.3675,-40.1650
75.6548,86.3416,45.1435,119.7373,146.9464,122.4206,6.1459,-50.3941,-37.9438,-33.3458,-17.7850,51.3252,29.6157,57.8005,36.8364,-64.9656,123.0756,98.0569,-49.5775
72.3192,86.0010,51.4032,84.6298,163.4946,99.0667,-4.7518,1.4954,-39.0367,109.0626,2.7640,8.0370,-3.8748,61.7868,13.7648,11.7619,72.5831,90.8358,-25.6663
61.0903,53.2927,35.8405,54.9260,147.2244,72.2028,-22.5054,50.8334,-39.6605,217.6794,41.3994,-14.8752,-16.1960,49.5950,7.5450,88.2153,23.0404,58.9613,-10.2430
46.5754,-2.2771,18.2398,28.5574,95.7063,31.8143,-25.4753,49.6172,-18.6410,241.7238,82.7621,4.8143,8.6086,-6.8188,36.3017,61.2971,0.8663,-3.2845,-31.1952
37.7978,-25.2722,-17.3298,-19.4240,41.2011,-43.8502,-19.5513,3.7253,3.3963,225.5803,89.9571,31.6946,29.7569,-42.2231,95.4145,10.7256,1.5537,-57.7749,-60.7617
39.1605,-25.3364,-70.5852,-70.8346,-6.4508,-101.4109,-15.7146,-28.2721,9.0200,192.7524,62.6993,18.0978,18.3046,-47.1889,134.1064,34.8939,-17.9572,-92.6009,-73.4670
37.6575,-74.0072,-91.6614,-99.6231,-50.0556,-100.6957,-18.5075,-45.2126,-6.0071,105.1251,39.5404,-37.4221,-15.2409,-80.1431,81.3315,65.9852,-57.9606,-123.5326,-93.1249
23.1006,-142.2097,-74.0189,-111.1851,-81.4224,-96.3293,-46.6798,-92.7548,-44.1145,-3.8996,18.8252,-81.5162,-50.0190,-113.7848,-30.9306,37.8218,-67.0750,-128.3326,-134.8864
11.9143,-128.9234,-65.2419,-104.2925,-83.0110,-112.2539,-89.6111,-134.0463,-81.1706,-13.3558,-23.8743,-72.8856,-74.9667,-80.6958,-85.2622,21.3657,-49.5686,-97.8790,-151.3446
6.5936,-67.1070,-76.6934,-84.0996,-69.8620,-108.9505,-93.1210,-107.8518,-81.7006,76.0398,-58.2228,-41.3787,-97.4806,-33.1035,-54.3440,57.9094,-50.7185,-94.2132,-110.8424
-11.0298,-60.0912,-85.6856,-83.2112,-87.3374,-107.6544,-59.9917,-71.6326,-61.1239,113.3306,-37.5555,-28.0468,-123.3880,-66.8928,-26.5950,62.1473,-44.5165,-136.4883,-72.8175
-12.2361,-73.7303,-79.6382,-94.2348,-109.1449,-143.5445,-61.7499,-97.2318,-74.5566,41.7244,21.8855,-17.1841,-126.7741,-145.6498,-51.8320,-11.0042,10.4504,-147.8987,-88.8115
39.0176,-35.6231,-45.4248,-74.9731,-63.0161,-158.6470,-103.7234,-132.7846,-125.6834,-50.5089,64.1635,4.8628,-88.3792,-153.8504,-71.9630,-64.0468,69.8594,-101.9063,-106.2770
88.7314,6.0171,14.3432,-38.3248,3.6834,-110.7838,-114.7519,-123.3853,-149.0762,-118.7714,59.7759,11.7081,-36.4119,-83.5535,-15.7019,-22.3114,95.3423,-58.4902,-76.5495
78.3470,11.0721,66.2901,-13.7847,4.6746,-53.2479,-82.2876,-106.4457,-113.8136,-181.6547,28.5018,6.6621,8.2865,-39.6919,93.4653,18.6249,123.9463,-31.0359,-49.6211
52.7532,32.5769,101.0679,24.1939,10.1559,-14.5402,-56.0990,-100.6795,-71.8540,-217.4268,14.4485,20.2728,64.6584,-62.4948,163.3709,-48.2221,160.5686,12.0951,-62.3189
59.1477,83.3161,139.6469,84.1085,91.3869,34.0843,-43.4498,-79.0768,-63.1349,-211.7605,29.3344,38.2072,129.3346,-73.1383,162.2879,-146.9512,163.8935,58.6966,-61.6817
73.6536,122.2651,176.2654,125.7338,150.6402,85.5175,-16.6962,-52.8874,-60.1606,-207.1246,40.3020,42.5909,163.8128,-22.7321,146.5428,-164.2623,157.1034,101.3175,-11.3402
88.4514,159.9123,197.1931,150.2174,143.1003,122.4618,25.1383,-33.6596,-36.9187,-214.2110,37.0908,69.2021,154.1577,45.1416,144.2739,-141.9817,185.2937,169.1805,52.5694
113.4086,214.9960,218.2350,191.5904,168.8145,170.1278,64.6664,7.8989,-1.6926,-192.5192,48.8168,130.0612,119.7154,93.7640,117.1723,-142.1497,213.9609,234.3462,97.9163
114.4431,241.1303,239.1473,226.5475,215.8422,219.0456,83.9358,56.9992,34.6427,-146.4408,68.5284,166.7551,82.1815,113.3625,52.7432,-127.3766,201.0533,227.2956,123.6965
77.7853,195.7582,229.8496,205.9948,170.9277,213.5348,78.3272,64.7810,54.7301,-123.8016,56.6868,139.3499,51.7093,90.8762,-5.1785,-102.5533,169.6170,171.7898,129.7787
50.1268,117.0504,194.3225,147.1342,79.8747,171.8369,78.6505,61.4384,45.9536,-115.1505,37.6513,80.5148,20.6100,66.4638,-20.1759,-126.6367,144.0328,157.6567,126.2101
60.8216,87.0303,174.3052,116.7070,65.5704,166.8835,101.1164,101.2453,35.3394,-61.9368,74.2457,43.2040,-13.1754,88.5423,0.5113,-158.4144,124.0950,182.3655,124.9617
94.8635,120.0739,177.5184,128.5656,95.6618,173.1007,103.5632,142.2511,45.6984,31.8164,139.1845,39.6319,-24.1187,90.3653,27.9413,-125.5234,110.0804,154.9222,111.4192
114.1137,120.9446,159.0871,112.6028,69.2034,104.2169,75.5291,131.6841,57.4945,102.1731,139.9282,26.9657,-8.7769,2.9007,55.1562,-63.2541,79.5630,54.0295,83.8706
70.2257,29.9014,90.1855,28.7965,-10.1838,-12.0013,77.8404,111.7526,64.5556,133.8802,66.9274,-37.0877,-7.0215,-100.4173,95.3480,-28.2084,13.9883,-36.8850,78.5674
-20.9230,-60.7058,11.2701,-53.7932,-76.4191,-73.6358,118.7182,119.4031,82.6679,147.2847,-0.5107,-117.3640,-23.4065,-149.6813,122.7335,-20.9326,-44.5621,-62.4450,101.0179
-70.4662,-64.0066,-22.6715,-74.7202,-107.1080,-73.0091,131.4162,111.9258,98.5030,116.7501,-13.7324,-137.9371,-15.0783,-173.1086,95.1336,-37.3845,-57.9744,-56.8877,105.1528
-55.3776,-37.9981,-24.8129,-71.1372,-129.9124,-65.8928,102.4960,70.8314,94.8321,35.8097,13.1989,-91.7943,16.4223,-166.6290,48.6354,-63.2990,-45.1156,-58.2526,72.9546
-33.4709,-39.3323,-38.6104,-69.7393,-155.1380,-58.0953,77.1135,38.9531,82.8719,-18.2268,50.7346,-38.4778,23.9490,-116.9394,44.9296,-67.4755,-14.3843,-61.2898,37.8274
-17.8356,-28.0843,-56.6570,-44.7592,-149.3802,-43.1333,72.5900,27.9854,73.1049,7.7161,72.7262,-15.1398,-1.8801,-89.3761,53.4071,-47.1177,27.3367,-57.8104,23.6655
-0.1071,7.9205,-53.0046,-9.3105,-110.0739,-33.9792,83.5510,23.2391,72.8955,84.0262,71.1130,-11.3006,-31.5509,-87.3271,26.7364,-1.1788,23.9710,-38.1279,18.6019
-8.4091,31.6024,-35.6273,15.0227,-89.8114,-7.1606,86.9603,44.0629,76.6078,169.4477,62.3996,-4.9703,-48.0389,-32.5621,4.9500,69.6863,-27.4214,11.7372,-3.5207
-27.4624,45.6547,-16.9096,53.2171,-101.6889,51.3120,36.8493,83.5166,43.2979,222.7204,46.9263,1.4057,-50.8704,36.3741,26.9834,107.0948,-43.4056,60.3491,-52.6772
-21.1346,56.4765,-1.0206,88.4609,-103.6209,85.2276,-40.9088,85.0056,-15.2391,224.7344,9.0079,-16.8601,-33.6108,38.4974,65.8871,90.9526,-14.8396,63.9608,-91.6481
-28.7370,42.4608,8.4808,74.3435,-74.3845,71.5962,-44.4691,58.8463,-4.6578,236.9792,-25.5356,-48.2292,20.7055,39.0806,102.2917,106.2168,-3.3092,53.8525,-65.7571
-58.8985,14.5800,36.0680,50.6580,-18.9558,66.0546,27.3903,76.2468,70.4762,275.7619,-15.1259,-43.0422,105.0999,90.6655,134.1014,157.3850,11.8047,71.3269,11.6807
-31.5789,-11.6546,92.2635,58.4041,33.1284,80.9608,59.8906,117.9990,79.7713,226.6565,25.9664,-15.2652,162.0585,109.1397,140.0322,129.5783,56.0542,73.2477,63.7759
40.4659,-54.7381,112.0609,42.9423,29.6427,74.8992,19.3903,104.1580,8.6104,81.7995,63.3531,-28.7796,155.4179,75.0229,123.1723,30.7621,58.1738,28.2267,57.7307
52.7334,-88.4089,59.1515,-5.1297,-0.1309,52.3588,-15.9197,53.9182,-23.7746,14.2637,93.7955,-54.2740,133.5123,73.8709,115.8681,-3.0702,10.7106,-3.5548,39.8420
19.0890,-61.8343,9.6715,-8.8048,35.2992,37.7161,-5.4890,44.7333,5.8897,68.0776,102.0635,-17.2884,128.2671,114.2931,115.7753,56.0092,8.4862,14.5448,54.9077
17.9914,-18.1617,9.6345,29.8743,94.6976,28.6316,20.3801,74.4056,29.0091,110.0871,61.5421,35.3498,85.4753,152.7913,97.0834,121.5543,45.7516,37.1725,93.1635
25.2736,-21.9936,3.1975,41.1849,70.6493,35.2516,34.7851,96.1312,39.7335,103.5392,3.6303,24.6334,-4.3691,193.8382,59.0675,131.5381,40.4672,37.5274,121.2037
7.0458,-37.9196,-22.5230,26.0249,23.0454,54.0716,37.9275,101.4329,54.4357,94.8188,-20.6532,-4.0957,-56.8524,218.1833,20.3617,76.2268,11.0223,32.7542,120.5224
-6.7002,-33.2607,-16.7321,14.9345,46.8641,40.8365,34.9918,93.6693,43.8151,64.1812,-29.1078,-3.3151,-50.2118,175.0831,3.0134,8.6699,-6.7440,20.3756,92.6810
-29.9865,-57.0840,3.8581,-3.3226,61.6111,-1.9657,19.4971,66.7221,2.9223,20.8342,-54.3585,-25.8939,-57.3246,84.2798,5.6120,5.3877,-56.4413,-8.6302,49.6432
-85.6362,-115.3747,-18.3665,-35.8481,-5.8690,-29.6171,-12.0424,27.7536,-31.8163,20.0085,-61.1999,-75.6314,-102.6154,12.1717,-16.5726,43.9356,-131.6278,-39.9327,-0.2902
-108.7155,-142.8065,-76.8529,-73.7810,-80.8678,-59.1913,-43.1760,-16.3315,-50.8737,28.7665,-22.6109,-84.2202,-144.9363,-19.3985,-80.8661,40.7726,-166.3372,-69.2909,-60.7704
-74.1780,-133.6186,-131.2629,-110.0259,-123.3308,-115.1626,-76.8265,-72.8062,-81.4814,-4.0286,-5.3267,-77.5456,-165.8262,-43.6090,-136.5928,-15.7566,-171.5214,-103.8657,-131.4629
-68.4246,-135.1748,-158.5848,-124.2418,-169.4581,-150.2791,-142.1675,-142.7084,-144.1781,-50.9890,-66.6694,-117.7867,-168.8137,-102.2011,-169.1237,-101.7387,-179.1415,-125.2601,-189.3453
-113.9620,-137.6933,-149.4049,-114.0464,-198.3464,-145.6383,-213.3231,-214.1000,-217.5570,-98.5422,-135.0848,-136.8330,-156.8409,-175.7442,-227.7541,-196.7322,-155.2157,-111.5209,-212.0204
-130.1002,-107.2114,-123.4904,-107.0791,-187.3134,-142.0525,-225.5308,-262.8798,-251.5855,-149.0685,-125.8919,-64.4011,-141.2607,-196.4710,-294.1474,-231.6225,-105.7413,-80.1306,-207.5101
-108.3755,-71.2924,-111.3086,-101.3989,-188.7023,-129.7236,-189.6967,-260.1922,-232.2733,-163.0446,-101.9837,10.1069,-118.3367,-171.0680,-282.0270,-180.4839,-96.9094,-65.3394,-187.0764
-116.5518,-73.1336,-107.6850,-85.4549,-232.0876,-80.8046,-158.8517,-215.5273,-190.7821,-150.6403,-148.3477,5.2312,-81.2241,-165.2008,-196.5149,-135.8804,-124.1592,-69.3938,-144.5202
-145.9941,-92.3560,-102.3049,-82.7740,-283.3729,-40.2958,-133.3214,-178.5372,-146.0258,-161.5326,-180.7683,0.2760,-65.3882,-160.8887,-135.2980,-136.4297,-125.8104,-62.9357,-100.9147
-126.2055,-71.9249,-98.8330,-81.0376,-301.9730,-38.0837,-111.7858,-169.1212,-107.6253,-162.3759,-94.2802,61.6970,-88.2701,-114.7127,-130.0848,-110.5769,-84.4369,-28.6317,-101.7203
-47.9032,-0.1851,-71.8258,-33.0443,-263.1255,-27.5486,-115.6745,-166.2015,-96.5833,-128.2818,21.1029,106.3050,-93.4313,-83.4030,-122.2973,-65.1734,-15.5754,14.9424,-133.1409
35.0365,66.2304,-7.5283,28.9108,-192.0741,10.0252,-118.0547,-158.5090,-104.3375,-117.8911,39.8098,65.6789,-56.1703,-105.9807,-87.4764,-70.7185,51.0547,41.2478,-131.3668
74.2948,74.0067,41.1889,37.2962,-151.6462,35.4850,-89.3139,-137.5412,-99.6558,-114.9889,7.9611,14.5072,-39.0544,-112.9479,-71.8713,-84.5202,70.0543,45.3817,-88.5772
52.8916,45.2122,44.8729,9.5830,-136.0749,34.4010,-60.1752,-86.3430,-78.5054,-51.0281,-2.1805,30.2472,-63.7000,-71.0406,-96.1885,-35.7258,49.4091,32.6640,-49.7747
-3.0906,28.9688,50.2274,-9.2730,-95.4649,26.6791,-40.2831,-26.3960,-44.7665,6.2481,-27.8784,68.7733,-62.2675,-29.8004,-109.5918,20.0385,47.0782,8.8419,-27.7764
-34.7928,14.7138,78.2174,-19.9594,-57.7614,25.5755,-9.2560,-4.7556,-6.2960,-27.2617,-71.8223,63.9653,-1.4680,-8.4517,-67.1136,10.7120,61.2141,-9.7148,-14.0419
-15.7658,-23.2973,94.9532,-24.2012,-64.6404,27.7160,0.8169,-19.9564,-1.2889,-70.0339,-54.8762,32.3558,67.5862,0.2697,11.2209,-29.4087,50.6612,-11.4659,-17.6483
21.0692,-49.7902,89.3907,-21.9470,-73.0539,15.0798,-30.3239,-34.1745,-30.8972,-34.6457,22.3375,12.4509,92.3818,-10.0549,76.2283,-46.4657,35.1268,-9.0589,-30.8331
44.8756,-33.8710,72.7028,-25.5865,-52.1496,-11.6590,-51.2045,-32.5753,-34.4272,31.5561,66.8480,-1.3356,73.2494,-12.2945,94.4239,-45.9952,44.4172,-9.3922,-24.7002
57.2600,-6.2782,51.3085,-16.4869,-38.3348,-10.6091,-40.4894,-14.1607,-3.8287,69.7803,43.1127,-14.9184,47.0939,18.6913,69.0665,-42.2316,50.7453,5.5514,2.4506
55.9739,22.5105,45.5496,21.1996,-40.9482,31.2125,-21.5031,23.4570,13.2505,82.6334,7.4245,-3.9548,40.4640,41.5233,40.7200,-26.3363,36.7192,35.2744,30.0139
42.6172,72.3527,56.2571,47.3757,-36.2559,60.0821,11.1774,60.1573,20.1486,82.8167,17.1260,37.4746,34.0150,32.4434,24.6418,-8.9010,21.5267,47.0635,45.6474
46.5421,95.8230,45.7966,39.4381,-32.9587,47.9659,39.1895,63.9401,29.1724,76.2155,54.6358,69.5701,4.5636,31.4037,-16.7510,-23.2075,-0.7168,33.2705,40.2522
66.7333,41.3742,14.5624,23.4938,-49.1522,36.2876,18.6904,33.3160,10.2942,58.4965,46.1709,54.2111,-17.9441,44.4698,-70.8008,-57.0972,-45.9213,25.1343,14.6170
46.0152,-18.4341,-1.6310,5.8672,-79.8139,52.6257,-5.8789,6.1578,-16.2477,37.1673,-22.1064,11.0056,-4.3129,40.0091,-56.4841,-52.2113,-94.2418,34.8947,-9.3620
-31.1851,-1.8390,-17.9302,-6.5350,-107.9816,71.7071,27.3790,21.1457,1.3478,60.7484,-68.4867,-0.5221,10.2701,29.4377,13.4227,-6.0765,-122.0757,42.9311,-18.2457
-96.1371,39.5865,-55.3202,13.2817,-109.2145,65.8049,64.1169,63.3933,27.6515,126.7208,-48.3228,32.0599,-6.9714,26.7599,20.9247,22.2029,-127.4040,41.2956,-22.5318
-95.7905,42.7677,-70.6015,31.8406,-81.3617,37.1114,48.5294,76.1027,9.2453,135.4309,-8.1987,45.9854,-26.5215,5.6621,-57.8779,28.9086,-118.7676,36.2352,-31.6305
-55.7294,35.0887,-49.3035,-0.3320,-61.2426,10.6573,24.2345,51.4949,-22.1557,61.4974,18.9784,0.7315,-22.1530,-25.6166,-129.6837,54.2606,-122.3500,23.4478,-42.3101
-27.2856,24.7659,-49.6928,-37.8844,-68.5075,5.9858,15.1119,42.1162,-31.1355,10.3594,34.1627,-55.8034,-11.3243,-23.6338,-150.6289,69.1224,-154.7751,0.5463,-44.9434
-28.5217,-20.7095,-82.2147,-39.2513,-93.5141,6.2719,-6.8200,56.6259,-31.4250,12.0427,19.6694,-68.3934,-4.2170,-7.4039,-148.5864,27.1672,-180.1505,-22.9113,-36.8767
-34.9804,-69.9665,-93.1655,-52.9785,-137.7907,-13.6647,-27.3830,50.6043,-27.8486,-22.7350,-13.7952,-50.6217,2.0514,-30.9541,-139.1129,-29.8435,-161.9155,-41.8224,-39.0047
-15.1610,-67.0751,-78.9715,-82.0408,-175.6291,-34.4615,-24.3172,24.1466,-22.6016,-104.0016,-13.4431,-33.8800,-11.4424,-74.4279,-128.8532,-54.8190,-121.3007,-49.1571,-67.4939
18.2874,-25.1781,-72.3969,-61.3584,-148.0829,-23.6122,-22.5010,11.1396,-32.6525,-139.7123,26.2502,-11.4753,-50.1428,-76.0099,-125.3950,-73.0571,-86.4760,-29.8086,-91.7204
27.2848,13.6235,-58.1243,-10.8327,-73.1697,2.1622,-28.4045,8.5713,-42.5919,-100.6462,66.5944,26.3606,-73.5985,-43.1148,-113.4834,-86.0560,-54.6195,5.7857,-76.3693
19.9088,24.0265,-14.3917,-0.2470,-30.4117,6.0214,-20.4131,5.5671,-25.3569,-42.2579,93.1454,53.0272,-57.5830,-42.2781,-88.7346,-54.0028,-27.1844,21.5913,-46.3786
41.8467,1.3064,37.1382,-10.8533,-12.2635,-7.0554,-18.0482,4.4869,-7.0687,-5.7044,105.2351,39.8351,-34.4633,-95.9484,-78.1951,-18.3409,-3.8184,15.3069,-53.3539
100.3407,-8.5459,82.9197,6.2412,41.9556,-5.5331,-52.4203,-14.8469,-28.3019,0.0470,112.3279,9.9773,-31.0187,-151.5695,-83.5293,-56.9682,30.5317,23.9495,-99.1356
146.5693,28.0157,124.3202,34.6059,99.0420,17.4942,-89.9885,-51.1941,-66.6063,-28.8521,134.7608,9.7168,-28.0315,-159.3037,-67.3694,-115.1080,56.9063,53.0415,-125.1568
131.2343,39.4731,129.1279,37.4992,87.9240,40.2053,-70.0903,-49.2140,-57.6911,-74.0923,139.0708,25.1257,-8.5667,-137.2936,-16.7720,-83.1678,41.1211,59.5682,-80.8448
69.3072,-19.6915,83.2424,11.3159,37.7354,42.8973,-5.0142,-3.7292,4.1827,-92.0342,82.6234,5.5833,10.9123,-128.3448,29.5472,-10.8531,12.3250,25.5421,-5.5891
34.3277,-47.2380,51.2994,-11.3174,24.4185,25.3377,23.3554,15.8596,35.6859,-65.8949,28.1209,-28.5642,12.9821,-129.3873,28.6536,-25.3048,11.0717,-5.1944,11.1175
49.8854,9.0337,75.9784,5.6367,44.0052,1.1794,-15.1960,-2.5683,-7.2270,-30.4155,27.9570,-20.4019,-0.5274,-118.0899,-8.4353,-95.3600,1.2463,0.7676,-29.1083
40.8600,28.4097,88.3674,28.2955,32.2054,-19.0680,-52.3874,-6.8853,-41.8897,-17.8358,-4.4076,-2.3898,-23.8348,-109.6713,-28.9159,-103.0682,-54.0721,1.5269,-45.9159
-36.0312,-46.7140,23.5857,-16.6998,-31.0845,-43.8928,-37.4599,5.4142,-3.2252,-13.0428,-107.0468,-41.4845,-53.7905,-123.6384,-17.2555,-56.1803,-117.3926,-55.2519,-29.4388
-113.2634,-113.6469,-70.2561,-110.8358,-103.3897,-92.1917,-7.3686,10.5595,45.1194,14.2799,-163.8847,-106.1345,-85.1953,-140.4466,-12.2524,-12.8754,-159.4605,-142.1433,-19.6780
-136.8237,-135.2202,-126.7846,-176.6551,-153.5137,-157.8870,-4.8118,23.2417,44.4661,67.4201,-130.2835,-133.8898,-109.1685,-139.7933,-32.9566,63.3605,-196.8321,-194.0368,-0.0378
-134.3922,-174.8412,-147.2713,-207.1990,-185.7258,-198.7106,-26.6549,40.7944,21.4566,123.3885,-93.0037,-144.6275,-111.0331,-124.4940,-60.8064,182.3150,-210.2110,-191.7014,31.3572
-120.5228,-208.1925,-134.3580,-214.2981,-184.3630,-180.9486,-53.5132,33.0131,-5.5541,149.5253,-79.7118,-166.5478,-86.5962,-94.4630,-91.7728,240.5993,-159.4686,-150.3664,17.8969
-81.1035,-167.0506,-75.6012,-167.4628,-126.6237,-123.0108,-58.5362,14.2332,-32.8693,129.4431,-68.9384,-162.4952,-62.1669,-58.3754,-126.3508,196.7057,-81.3161,-94.1238,-27.1873
-45.5682,-96.8803,-13.6243,-97.1321,-59.2467,-74.2546,-34.1117,11.8010,-34.4040,82.3586,-83.4997,-110.0767,-57.6856,-36.0978,-133.5146,141.2215,-54.6048,-61.0861,-36.2864
-51.4462,-72.6228,-0.5779,-77.5333,-47.8429,-54.7616,-20.5725,9.8256,-28.4093,38.3370,-99.6501,-47.7436,-44.5647,-10.2292,-92.4088,127.7101,-87.7312,-56.6367,-32.0301
-78.3199,-74.9191,-8.0801,-75.9045,-60.7356,-36.1995,-38.2491,6.8283,-54.0870,10.6709,-61.6136,-7.3817,1.8392,39.9473,-31.6245,116.9914,-119.1283,-33.4137,-58.2996
-85.4755,-58.7299,10.9863,-22.3670,-29.1100,3.5011,-49.1694,25.2275,-72.6093,-0.0520,-22.5627,16.5317,49.8804,63.6166,17.2629,92.8446,-104.3512,20.7676,-69.0091
-63.2855,-25.9552,41.2714,35.9186,20.4308,35.4663,-33.9910,37.0453,-41.1457,-10.2013,-49.1133,25.9319,74.0673,16.9505,63.5495,80.7007,-62.9697,57.2369,-36.2865
-34.9032,-3.4279,53.6141,34.7834,19.5101,31.2289,-9.2501,9.7061,1.9726,-39.6184,-85.0688,1.4217,93.2566,-46.2271,116.9327,70.7306,-49.1457,52.0572,-4.8411
-32.5752,-17.5598,45.2785,13.8845,-20.4618,14.5930,18.0720,-9.9963,24.1114,-61.9853,-76.3361,-58.9762,97.9936,-72.0180,134.4244,26.1221,-78.7807,22.3728,14.0476
-45.9006,-49.1630,16.9263,19.0312,-44.9635,9.1724,29.3712,20.0184,32.8133,-30.3499,-49.2252,-102.2696,48.5954,-78.5249,68.3624,-42.7086,-98.6310,-9.0408,32.1762
-25.3021,-26.1507,-11.6701,38.9022,-44.2094,2.4744,5.1374,49.1697,20.6569,30.4762,-16.1133,-71.2610,-35.2218,-76.2125,-40.2000,-83.6765,-58.8018,-8.3891,20.7647
21.3536,55.2981,-5.6284,64.7538,-37.1798,-4.8959,-26.9602,23.6763,-9.5214,41.3730,6.2941,0.1654,-99.3116,-62.8795,-100.1857,-95.5665,6.0534,22.9244,-22.3069
24.5887,94.6542,18.5431,76.1232,-33.0911,-8.8828,-50.5880,-29.6465,-40.3601,-18.1243,-38.0699,24.6554,-140.5950,-74.8285,-96.2138,-131.2893,17.5314,15.9505,-59.2025
-27.5107,51.2293,11.7777,29.1696,-39.5046,-40.4970,-89.3603,-64.4629,-81.1090,-87.5076,-133.4502,-2.2698,-170.2028,-113.4215,-77.7083,-172.4465,-38.7982,-46.1963,-91.7506
-79.6083,-5.1299,-17.6978,-49.1404,-58.4720,-90.7082,-121.5460,-77.5844,-113.6707,-112.6490,-191.5282,-11.3449,-170.4187,-116.2671,-58.5042,-132.9492,-97.0245,-84.0639,-126.3682
-100.3183,-35.0107,-26.9895,-73.6801,-73.9766,-90.0219,-110.8108,-83.4376,-96.9010,-108.1829,-175.6574,14.2269,-146.3980,-70.6449,-31.0122,-33.2170,-99.5425,-70.6293,-129.2951
-75.7202,-40.8704,-16.3174,-36.5836,-69.7878,-41.2616,-92.1744,-78.7864,-76.4374,-114.8157,-89.2141,38.4906,-118.0552,-26.5394,-14.6259,4.3879,-54.6194,-52.9213,-105.7084
16.4041,15.7113,-4.3909,8.3945,-41.8320,-16.3711,-93.2864,-55.5908,-114.0728,-125.2002,59.5365,55.0773,-70.5323,-9.2011,-15.0224,-47.4054,6.3096,-24.6498,-104.8822
152.7005,134.9732,19.7191,64.3394,6.1895,-6.0909,-98.6568,-30.7405,-160.2928,-118.2177,216.0883,71.8730,-10.6727,-22.0771,-11.0434,-106.9258,81.2171,41.1240,-130.8314
278.3914,227.1319,64.9353,157.9051,52.3484,42.3031,-135.8600,-29.6445,-171.4920,-122.2853,337.4469,75.1029,7.8805,-56.0955,3.7746,-127.2150,169.3475,108.4194,-159.0834
377.6420,256.7026,104.2978,249.5209,66.9702,100.7312,-208.0154,-38.8410,-188.7861,-139.2972,431.6956,66.0299,-13.6738,-68.0800,32.4539,-114.7764,229.8831,148.5201,-186.3279
438.5741,277.5286,104.5743,280.4167,52.5939,126.1471,-224.2422,-28.1535,-202.4479,-110.5373,459.4769,59.8976,-14.0976,-51.9634,80.6115,-87.8987,224.2870,165.1872,-202.4742
421.1918,284.3970,66.8430,246.6523,25.5132,126.6014,-168.2539,-14.4727,-165.3014,-61.3659,378.7932,41.6426,9.7314,-60.8809,115.9097,-70.9308,174.8144,138.7707,-197.4624
336.0811,224.9854,20.2729,180.7828,-27.0215,103.4771,-138.2671,-25.8597,-118.2766,-76.8522,271.9685,5.1808,7.2570,-85.5456,100.4470,-49.6296,128.7030,84.2782,-180.5553
249.4658,142.4793,-14.2192,121.0466,-95.3203,71.3528,-138.7523,-29.6374,-96.3577,-84.4268,216.0891,-3.1984,-28.6149,-58.3986,53.5695,15.5954,91.4907,74.0787,-134.6077
186.7834,121.7706,-29.3581,100.9683,-112.3471,80.6562,-89.8384,16.2029,-49.1979,42.8865,173.5091,34.5669,-63.4766,8.7527,13.2652,97.7015,51.1289,111.7114,-41.5173
136.9973,143.9126,-17.7602,118.6333,-64.5627,117.3296,-13.9105,89.2664,22.5386,215.2453,136.6663,58.5444,-70.1568,51.6317,-10.0408,147.5193,25.6288,128.4517,40.8461
99.7758,133.9320,0.2315,131.7424,-39.2994,117.3804,17.1911,142.7321,50.6424,281.7418,114.2838,36.1418,-44.2741,61.1637,-11.4578,177.6438,19.8072,109.2326,47.6818
50.9422,91.7756,-17.8579,113.3726,-72.2673,93.0225,12.0678,151.1623,37.8197,282.9213,19.5737,16.4104,-14.2104,51.9447,4.1369,175.6568,0.5283,83.9465,3.0130
-20.6534,77.0989,-45.8155,88.9642,-81.4284,86.4386,7.1480,105.4483,34.9603,282.5071,-117.5211,25.9344,-3.7410,23.5707,11.2135,90.3988,-19.8396,68.1395,-42.4324
-31.9075,105.5214,-6.3950,96.2757,-22.5940,86.1251,13.1958,38.7206,43.7387,231.4979,-84.0130,32.5540,18.5321,-2.5805,6.5229,-15.8396,19.4562,84.7111,-68.4229
70.4119,130.0814,75.9597,124.8656,38.2899,91.1956,33.2480,14.9467,48.2473,146.8129,112.8990,34.9613,74.3257,2.2620,8.8932,-26.8448,96.9288,129.6468,-55.0468
171.1324,119.1486,97.6669,126.0748,45.8900,107.3190,49.8033,32.2592,49.8850,114.5800,200.7278,55.9543,103.8784,30.5656,5.6818,17.3768,119.5207,133.1183,-13.7395
156.0605,96.6658,53.1839,86.8313,13.5901,89.9138,40.2631,27.0225,44.2127,122.4932,120.7405,63.8172,54.9277,44.6369,-24.7147,7.3152,80.2841,64.0589,-2.5282
84.2536,83.3609,9.5222,47.5072,-34.9219,30.1504,19.0125,-5.4238,33.5715,128.2028,57.9676,26.6741,-27.2627,12.4356,-54.6312,-27.8946,42.9704,-8.6216,-21.7504
38.7606,61.6917,-27.7570,30.8220,-79.3331,-6.1522,9.4096,-14.8887,36.0702,141.7554,46.6748,-10.2853,-75.4921,-43.0686,-45.9512,-13.4397,18.3597,-24.5905,-7.3409
1.2349,35.4334,-59.9232,20.6233,-90.6481,-7.1635,23.3651,0.7855,57.4281,136.2441,-3.3101,0.0898,-88.6058,-61.0469,-19.8790,10.0930,5.4002,-1.4980,39.6153
-34.3853,41.2767,-45.2122,21.1419,-66.2387,-5.9314,64.1252,14.7121,85.5210,100.1920,-72.9644,31.5183,-94.9123,-43.7844,-23.5434,-8.6851,31.0868,20.8252,66.1949
-35.9603,66.1490,0.3828,46.5287,-31.0304,17.5006,104.6580,35.9976,106.2745,115.8811,-114.2255,39.5565,-85.4087,-35.1771,-45.1020,-14.1536,59.3260,34.1755,82.2654
-26.8206,53.4368,28.8040,63.3328,11.3079,67.2738,126.7370,69.7103,119.6571,182.2226,-122.1276,20.4844,-26.6433,-13.5854,-31.8210,36.9525,42.0173,57.0124,115.3434
-25.2611,14.0180,68.3810,45.8479,70.1964,98.9257,161.5366,88.7773,140.7745,172.6850,-64.1440,2.4804,69.0034,28.7053,10.3718,77.3473,45.3019,88.9386,132.2364
19.1808,18.2730,130.0376,41.0526,120.4290,114.7562,206.1860,85.5764,163.8970,86.5907,46.2093,11.8670,137.7311,14.0233,29.8849,56.3894,119.1429,98.4580,114.0377
108.2254,68.3676,140.8633,81.1383,128.1163,131.6826,208.0550,78.3843,162.7449,49.0980,124.9801,33.6468,158.3730,-45.4974,38.1848,27.3566,173.0141,90.8930,96.2238
164.6688,94.5658,104.1010,116.8882,113.9054,127.1772,179.8876,75.3371,147.9374,66.4385,162.3566,32.7131,175.4869,-25.8686,76.9640,27.4695,154.2353,109.6487,88.7569
159.5619,73.3429,109.7613,108.3806,123.1074,118.0105,168.9105,81.7037,147.0031,73.1203,174.9400,25.5190,195.5874,55.3269,107.7463,30.1501,128.4491,128.3096,78.2447
117.0547,34.7364,137.5793,71.0479,138.6475,122.5238,154.4832,101.2241,144.7633,96.4296,98.4094,41.9808,173.1015,59.4753,85.9901,48.3611,101.7915,76.1026,88.9327
46.3589,-19.4586,93.6418,12.2953,99.4731,80.3379,130.1124,117.7047,134.5060,142.1423,-42.1211,42.8917,109.8636,-4.2558,65.2120,94.7686,25.9943,-14.0671,134.7645
-22.7387,-86.4811,1.4284,-54.3333,6.6413,0.4879,148.6361,127.3069,150.8565,125.8575,-92.6412,3.5489,44.7577,-22.4666,85.1242,93.7887,-47.5756,-43.7896,179.4013
-54.4098,-105.6479,-53.9012,-69.4534,-68.9163,-2.2511,198.2440,157.6809,186.9687,60.4426,-53.7614,-8.3522,-18.5543,11.4583,91.5147,33.5306,-49.2863,-9.6070,206.0166
-77.4447,-51.1186,-63.7356,-17.1412,-84.3237,56.2965,214.1296,206.0150,199.3513,63.1814,-75.7452,30.5900,-72.9869,38.0769,65.5444,34.9383,-11.5860,15.4594,229.5535
-106.8279,-3.0434,-50.6678,26.8969,-56.8654,51.7938,200.0968,220.9289,194.6037,123.0678,-148.4517,34.5514,-81.4994,37.3197,60.3967,112.2043,20.8406,4.7740,235.4306
-84.7464,-20.4696,-19.4276,15.0970,-13.3543,2.9048,186.1282,180.9531,188.1068,118.5163,-150.2634,-19.8896,-44.5753,10.6431,74.4241,138.5483,44.1441,-11.2151,204.5040
-17.8629,-49.4368,8.1957,-11.2661,28.9255,-3.2047,161.5513,120.0847,152.9366,55.5792,-114.5811,-42.9388,-4.0865,-21.2496,58.9995,102.9553,44.3273,-5.2500,156.0337
-3.0684,-35.4188,14.8946,-12.6268,51.9412,9.2463,125.1937,66.7216,96.7933,38.6677,-133.1417,-3.4529,14.9330,-30.2882,31.8769,84.9161,22.2918,17.2415,106.3688
-51.3761,-8.4408,10.6401,2.3540,46.0727,14.6903,91.3621,23.4093,69.9641,52.1989,-152.6181,31.4067,14.1239,-30.2456,51.4521,63.9163,0.8895,30.5615,61.2377
-83.8726,-13.4129,-5.6860,10.3771,15.9191,42.6140,65.4267,-4.1493,74.8856,4.7625,-105.8640,34.6403,21.5358,-35.1472,121.6708,18.5824,-27.5271,23.1539,48.4441
-89.7684,-48.6281,-33.9483,-9.6007,-20.8265,58.5698,66.8817,-9.4094,79.7205,-77.2628,-66.1408,48.0273,62.3358,-21.2298,185.3115,1.3364,-57.8463,4.7624,71.5227
-106.3296,-75.8577,-46.4141,-47.1206,-36.0448,25.1381,91.1656,0.2663,77.4105,-105.5556,-102.7715,81.9153,86.3033,6.7325,177.8902,-4.0224,-50.6884,-13.2329,83.9138
-120.3636,-58.2283,-40.1821,-52.6870,-25.0608,-1.6918,86.3485,18.5538,68.0547,-90.8259,-150.0358,88.8997,31.2232,16.0353,95.9689,-29.7392,-29.7022,-21.0850,70.3601
-121.7260,-18.7777,-50.4152,-29.3979,-25.5222,3.2334,56.6601,48.6038,60.3036,-84.5272,-144.1576,45.1184,-44.1157,9.4361,19.4833,-7.0293,-56.0868,-26.3357,65.4495
-141.9825,-25.6344,-83.3666,-53.6003,-59.6913,-12.1594,66.2883,80.1908,81.5139,-76.8908,-135.8948,-6.1940,-56.8209,-7.7274,13.3569,58.5241,-105.3710,-62.5584,76.4854
-172.3327,-84.9857,-109.5900,-129.6318,-93.7640,-56.0564,101.1244,81.0585,116.1939,-65.6280,-153.2692,-30.1039,-52.6314,-49.2179,32.3398,34.6326,-123.1942,-125.5613,81.3821
-164.0489,-138.0888,-114.9671,-164.3136,-101.2252,-99.2164,92.3710,39.3248,110.1347,-80.6954,-123.1684,-57.4404,-89.9152,-95.3816,0.9700,-77.4026,-124.8052,-154.1373,76.9787
-131.5511,-163.1053,-113.6250,-139.6970,-114.4446,-135.0695,54.1432,-0.7555,72.3901,-83.7229,-56.1892,-100.2713,-121.4864,-116.3294,-55.0670,-131.7014,-131.1540,-129.2397,67.2811
-141.9752,-165.5169,-128.1903,-127.5158,-156.7696,-135.0719,44.3176,4.5270,57.8904,-7.0172,-92.1670,-101.0718,-113.7729,-115.1870,-55.6247,-91.7740,-122.1717,-94.5747,48.0393
-188.8314,-120.5407,-148.4084,-117.7699,-173.2115,-74.9486,47.8493,18.4097,50.5713,99.1201,-219.9479,-39.7872,-94.8106,-87.7734,-14.7700,-42.6112,-82.6346,-59.0649,15.2453
-172.2727,-24.2463,-114.0526,-36.6165,-101.4886,0.9977,7.8952,-21.9218,-6.7127,122.8188,-223.3325,37.9685,-53.2123,-26.2858,-23.2310,-40.4950,-3.1889,7.3093,-38.5319
-44.7060,82.7417,-3.3440,90.1923,20.5709,59.9138,-70.5777,-90.1491,-86.8776,71.7242,-41.9515,133.3395,26.4284,39.8343,-81.1583,-78.7935,113.4605,100.3190,-101.3336
98.5174,175.7395,104.0392,173.1058,103.3682,119.9544,-114.0450,-108.6442,-106.8374,53.9850,118.2878,262.3102,86.3570,85.9768,-89.6797,-98.2193,214.2943,179.0940,-127.2374
143.1702,235.5268,138.6018,190.7540,129.5854,158.4197,-85.4113,-67.2458,-59.7146,110.4011,128.9304,340.9067,88.4009,110.9369,-25.0013,-42.5433,246.5351,196.5628,-97.3724
108.2449,223.2716,129.7740,163.1369,132.3416,141.7022,-39.9531,-6.7853,-6.9722,175.6626,87.5363,296.7269,71.9460,102.3688,41.1080,51.6558,219.9503,142.4891,-45.0005
88.3471,150.9359,118.8241,104.5156,108.3892,118.6883,-18.0857,55.8765,37.6269,186.5563,84.6589,210.8390,66.1426,76.9374,89.3048,116.0439,171.7391,87.7892,4.8833
105.6212,89.7166,104.8458,59.8574,65.2404,129.1218,24.2000,107.8177,98.9401,158.9990,89.0991,182.2011,66.1301,80.2980,144.5499,146.5299,133.2462,94.9175,45.9802
110.4205,67.5663,97.8451,59.4777,60.5332,117.7982,97.1076,127.4293,149.6711,154.0116,70.7714,182.2081,76.9873,86.0281,171.1508,147.2122,115.8643,106.7540,68.7768
84.1634,51.7076,105.7194,56.3209,95.7284,52.8644,136.7908,131.4602,155.3203,189.9090,59.9960,156.3611,91.3277,39.7151,140.6987,113.7396,89.0503,63.3688,89.6922
62.7279,29.2155,103.9392,24.5499,103.1668,-3.1240,138.2414,144.7552,153.0782,213.0349,85.4943,119.0237,85.2975,-9.9084,106.6455,92.2195,45.5425,28.1720,126.5243
70.1979,28.5999,96.8478,23.4618,89.3707,-1.6764,152.1426,142.6226,172.5678,181.1200,124.0729,91.9393,74.3530,5.0802,99.7350,103.5788,49.1481,56.9671,143.9208
86.1163,69.4366,122.5911,74.8148,124.4364,33.2538,165.2716,110.4625,176.3937,132.8419,127.4307,79.2907,100.1599,48.3382,84.1718,83.2215,116.9918,100.0344,125.3465
97.6874,127.5104,175.4593,123.1429,195.5817,73.2486,147.7346,87.3887,155.2401,105.2151,102.0013,101.8290,161.6730,78.0085,59.2892,1.5173,179.8749,129.0827,122.9307
128.6057,167.5059,227.1651,157.9904,239.5200,123.9340,130.4433,83.9558,148.5576,51.4280,102.9147,163.6435,214.4048,120.8396,65.7925,-81.8630,222.0036,185.5135,146.4645
170.6334,198.7994,283.7836,212.8641,263.7226,190.3874,131.3987,66.9589,153.0893,-45.4187,129.4350,223.1621,229.5262,172.5991,104.3000,-113.5216,272.1303,264.9970,141.4301
168.3659,240.1960,335.8015,260.0439,303.2512,247.7740,128.0751,54.5503,142.9883,-82.1737,140.7954,244.3493,221.8206,185.7458,142.0583,-92.1226,284.0043,299.6562,117.2625
126.2596,251.2788,341.4348,251.8598,337.7747,259.5430,119.7227,93.6533,130.8553,-7.0751,152.8912,225.7873,208.2808,166.1485,154.2495,-54.5524,227.4875,257.9319,133.3290
109.1013,196.1247,301.7903,203.5350,325.5757,220.0752,111.2688,150.1718,122.1228,64.6191,164.4186,176.8251,167.8530,148.7675,131.9750,-43.0543,176.8214,181.1007,176.5669
105.5602,123.0887,248.8561,144.6441,257.3596,162.0262,95.4885,154.5009,109.8445,52.3475,95.5287,120.1128,96.1632,120.5217,102.4301,-39.3076,160.9887,124.4553,194.2195
53.0736,80.2693,181.6896,83.6201,167.0359,117.6929,95.1259,120.8341,122.6545,28.9111,-33.7274,89.8455,57.3023,67.7398,112.8422,0.9144,117.1402,95.7245,183.0149
-14.9454,41.0051,111.5527,45.0936,109.2253,95.3685,126.2168,107.4435,164.7195,29.5136,-59.9639,80.5045,93.9914,30.7755,162.2221,43.1951,48.7881,73.6340,161.2196
-21.1194,-14.9375,89.6651,40.5813,96.3344,85.1573,152.4842,112.6688,185.2345,-5.8168,49.7171,49.2701,154.6061,31.2970,207.0313,36.9405,20.3218,58.1089,133.5729
15.0925,-53.6492,111.6991,32.0466,85.3156,63.7332,161.7810,102.4689,186.6792,-48.8908,129.0583,0.7215,189.0099,24.0548,237.2178,21.7216,20.0944,43.9324,111.8675
30.2747,-52.3552,102.2680,0.6445,52.1424,17.8784,189.8605,81.3146,218.3936,-17.0056,94.9108,-7.8347,209.7969,-9.3673,277.0132,32.4565,-0.1826,5.3833,103.0840
20.9383,-25.9121,40.9461,-15.8738,16.0738,-23.4802,215.9295,59.5214,239.8137,30.0195,42.1292,34.1449,215.7285,-18.6976,313.6618,11.6795,-22.6360,-29.6409,79.9200
15.0047,10.4212,-4.7394,6.4489,-2.0164,-21.3110,164.0655,9.2771,165.6375,-15.7940,43.4476,74.0453,189.6696,1.6792,294.5936,-73.3943,-4.6704,-1.5412,7.6487
25.6822,54.0696,11.3201,44.1330,16.9998,12.5211,38.5312,-76.8781,27.8808,-103.9569,67.8232,83.5486,163.4818,-3.3178,212.9708,-149.0597,44.7290,58.7557,-94.3456
46.6199,89.5747,57.7265,67.7268,70.6634,36.4331,-62.5502,-140.6181,-62.0210,-126.3749,74.7300,78.1551,156.8038,-15.2556,130.6706,-150.8732,76.4794,74.5705,-151.9899
53.5212,80.0756,78.3621,68.2516,93.9148,43.6740,-90.2802,-136.9514,-73.9234,-101.0786,62.8848,68.5765,121.9564,24.9515,81.7843,-123.9295,68.2659,56.0436,-133.2650
47.4077,30.3376,56.4541,60.7830,42.5795,58.2083,-97.5155,-99.2130,-69.1444,-93.2791,54.8775,63.3902,47.0646,74.4851,35.4696,-126.8823,60.3141,56.5211,-94.2105
65.0468,19.6122,31.1808,69.9901,-10.1684,89.6844,-118.6033,-68.9221,-81.5509,-78.7222,64.9280,82.2564,-4.4868,81.9784,-14.6772,-117.8680,89.8330,80.1280,-73.8436
94.3106,73.7398,42.9791,86.3871,11.1133,119.4170,-110.5687,-38.2368,-77.9175,-13.2721,66.9716,116.2072,-13.9279,99.2730,-38.3803,-63.4293,117.0748,96.9378,-45.4542
71.5229,88.0695,58.4482,65.5117,47.0590,110.5736,-66.6034,-7.9893,-43.7234,52.9562,26.4441,117.4469,-31.0242,121.7880,-45.4905,-52.9256,81.9065,66.5060,-18.4162
-7.4338,-0.1072,13.2640,-3.8922,11.0263,47.5842,-49.8114,-6.5477,-22.1356,43.5237,-44.5690,62.9927,-61.2687,54.7630,-49.0001,-116.8708,-10.9760,-15.6795,-31.1425
-85.0764,-99.8011,-63.6343,-70.6229,-56.8168,-18.0061,-61.0126,-24.4193,-28.1605,-14.8633,-104.1788,0.8636,-56.6509,-55.2892,-19.2423,-121.8603,-104.8053,-64.1420,-44.6497
-129.8368,-119.8254,-77.0973,-81.1968,-61.2263,-21.2974,-39.9877,-32.5733,-26.4869,-43.3315,-125.4902,-0.9036,-17.6520,-68.7641,17.7655,-49.5742,-134.1464,-21.8938,-21.7828
-139.2321,-77.2568,-27.7495,-47.2010,-9.5704,12.1260,-12.1696,-53.7171,-27.2279,-50.2844,-117.4719,46.0199,-2.2903,-23.0069,-16.4461,-63.0895,-80.8225,21.6301,-28.0935
-123.1714,-40.3064,-15.1767,-35.7660,2.0161,6.8978,-45.8601,-113.5349,-71.0804,-91.1315,-121.8255,51.8359,-28.7763,-35.3932,-92.8389,-150.0030,-27.0538,-16.8471,-95.0822
-114.2690,-74.7735,-70.4756,-86.3965,-62.7148,-44.2488,-105.9443,-171.4456,-125.8631,-143.3841,-147.9390,-20.4404,-40.8485,-75.1751,-110.6387,-130.6073,-56.5255,-85.7282,-141.9554
-122.7605,-170.6048,-120.6021,-159.3096,-127.4844,-102.2093,-122.5825,-188.3138,-142.1927,-157.1935,-140.2404,-104.4337,1.6521,-85.1088,-76.9179,-41.2459,-116.2886,-129.8145,-131.5190
-126.7114,-220.3587,-121.6488,-194.6464,-121.2345,-150.2565,-114.3968,-184.7911,-149.7112,-149.0267,-96.0743,-143.3800,47.0280,-97.7859,-64.9155,-42.0045,-121.3091,-158.5869,-115.9710
-140.3406,-188.7310,-107.1860,-186.3709,-77.9403,-165.0185,-126.5224,-173.5513,-180.2901,-137.8027,-108.7463,-145.4143,24.8346,-102.9539,-80.5958,-76.1341,-106.2355,-163.8977,-112.9290
-182.3843,-164.5093,-109.2786,-166.5635,-68.0510,-133.8612,-153.5288,-132.5883,-204.1358,-101.9567,-186.5714,-123.2487,-44.6372,-68.3970,-103.7241,-24.4845,-123.6722,-147.3573,-99.5304
-203.3577,-166.5408,-119.4344,-164.3554,-93.3158,-121.7803,-171.6852,-78.1943,-201.7608,-59.4112,-209.1681,-100.9409,-92.4457,-75.1267,-137.0220,41.2440,-141.4949,-158.8744,-81.3956
-170.2057,-147.7235,-120.1020,-190.3285,-113.1840,-179.9352,-172.4882,-67.2877,-187.6920,-70.2979,-148.2419,-133.8378,-108.4849,-183.6590,-156.0594,12.1400,-141.1118,-201.6905,-77.2271
-136.9900,-158.0522,-112.5697,-222.6443,-123.7516,-244.1016,-168.6734,-115.1806,-175.3780,-149.6774,-107.5326,-220.7526,-123.4794,-297.6567,-131.1346,-96.4292,-149.4490,-226.2906,-97.9968
-144.3571,-233.1585,-116.6685,-236.7634,-143.1402,-257.7565,-177.2313,-180.0070,-182.9163,-253.3917,-118.8186,-293.2502,-137.3148,-339.1033,-97.5792,-206.4220,-161.0629,-233.3751,-139.8488
-171.3550,-285.8746,-139.8624,-252.7848,-156.1861,-263.6288,-182.6322,-219.8214,-206.3126,-318.9395,-129.7219,-333.5157,-139.1324,-366.0798,-112.7451,-247.3065,-169.2800,-252.3027,-167.0536
-202.0972,-285.1052,-157.6484,-284.5665,-143.4053,-282.3262,-171.4405,-224.3354,-203.1169,-310.3384,-146.9676,-369.8730,-144.1926,-414.8982,-163.2218,-221.4864,-198.0290,-268.3668,-163.3048
-222.8857,-287.8599,-154.4495,-288.7711,-132.3150,-276.1900,-176.7241,-206.7664,-177.9757,-259.5424,-189.2974,-384.6638,-162.0716,-420.4272,-181.9833,-202.2182,-229.5389,-259.4778,-164.6264
-212.6056,-287.1855,-149.8177,-253.6355,-146.0806,-255.0726,-203.9122,-185.4239,-185.9485,-217.7994,-202.8433,-361.5964,-175.4138,-348.0796,-158.2906,-195.9463,-234.0028,-238.4132,-179.0719
-202.6082,-278.2412,-155.9872,-243.7347,-152.8901,-253.1234,-206.7612,-170.3206,-218.3601,-183.6844,-167.5622,-344.7239,-171.0257,-264.4110,-152.7514,-154.1071,-254.5025,-229.4439,-177.3199
-233.9958,-314.4467,-168.7044,-282.8570,-146.7272,-256.8644,-197.0532,-167.0002,-232.9165,-160.4293,-154.2452,-358.5657,-160.5353,-244.0384,-172.3076,-114.8002,-314.9662,-241.2119,-177.6106
-263.2846,-357.3134,-198.1373,-314.0085,-182.7896,-258.0363,-226.2862,-178.0096,-252.1239,-181.6901,-197.4995,-369.9936,-165.3036,-278.4023,-162.4044,-117.9622,-340.5396,-253.5573,-205.2339
-238.4646,-321.8643,-235.8005,-303.1238,-252.4860,-265.5816,-265.9781,-188.4030,-286.6850,-203.8847,-243.9863,-355.6329,-187.5775,-306.0473,-155.9932,-104.7576,-292.1333,-239.7533,-223.2731
-196.2653,-250.2824,-239.8416,-267.7095,-267.9324,-255.1098,-267.2305,-179.0397,-282.7834,-150.7229,-249.0051,-318.8045,-202.1203,-300.4062,-220.0892,-65.0327,-238.7654,-211.6433,-211.8488
-178.1597,-214.7720,-213.2666,-227.5810,-222.9446,-223.3786,-250.2299,-162.1485,-239.2323,-83.7714,-212.4340,-267.0108,-193.0625,-280.9770,-269.8217,-60.9708,-222.2121,-197.9274,-202.9808
-154.0107,-199.7967,-199.1218,-198.1870,-189.8604,-213.0166,-228.2549,-163.7706,-216.9213,-106.6093,-133.6236,-223.6364,-178.1486,-262.2080,-205.9259,-70.9834,-198.2319,-195.4822,-199.5871
-93.6016,-183.2117,-185.0133,-180.4747,-167.8997,-218.1754,-193.6401,-175.4645,-219.9891,-158.7337,-26.6502,-211.6656,-169.3150,-252.4866,-130.6805,-47.9622,-144.7616,-193.0406,-186.2117
-27.1635,-157.3468,-148.3597,-160.2184,-128.1911,-204.4710,-188.9917,-168.6170,-215.4454,-125.4549,39.5669,-215.1680,-157.6950,-266.8773,-152.3362,-22.6348,-108.1575,-198.4800,-177.6351
-14.0428,-122.0405,-146.7471,-158.5235,-129.6565,-202.4805,-230.1664,-145.2854,-207.3017,-39.8431,-2.4299,-201.3259,-158.4126,-291.7206,-180.5716,-2.8836,-126.5460,-214.6463,-175.8454
-82.1819,-131.7770,-216.8761,-199.1477,-215.2748,-234.3760,-249.8477,-134.5454,-199.5276,-6.6781,-122.6359,-171.7462,-192.1179,-295.1481,-133.0197,23.7747,-174.9930,-230.7172,-173.4677
-182.7419,-187.7442,-282.9954,-225.0660,-305.4582,-246.3720,-230.1786,-146.5217,-184.4958,-41.3649,-208.5294,-163.7160,-221.2400,-281.6295,-84.7308,-1.4105,-202.7540,-229.8394,-193.5845
-230.8035,-184.0782,-278.7467,-182.3503,-309.6353,-213.9619,-225.8397,-154.2556,-178.9062,-75.8716,-190.9168,-192.8134,-199.8501,-263.6698,-96.0064,-80.7702,-202.3177,-197.5107,-224.8950
-211.2084,-122.9556,-237.1743,-131.6330,-244.4664,-176.9034,-228.2727,-128.9864,-182.2412,-60.4825,-123.1019,-213.5506,-159.5238,-225.1641,-125.5474,-103.7701,-207.2192,-155.6893,-211.9683
-177.7448,-122.5482,-212.0172,-142.0282,-196.8905,-152.5073,-196.3135,-91.7225,-163.8173,-32.1718,-107.7155,-186.4384,-153.3512,-176.8174,-129.0841,-61.7947,-222.7976,-148.9896,-168.8248
-158.2895,-163.4121,-220.2641,-178.6858,-214.8047,-136.3705,-165.3756,-91.8896,-136.2257,-55.2242,-160.2043,-153.4838,-168.0761,-153.3985,-106.0704,-63.9227,-220.9969,-165.2124,-156.6183
-148.6532,-151.6861,-245.8204,-182.9137,-243.5695,-128.6708,-170.6370,-116.0878,-137.3007,-98.1414,-193.7075,-157.3885,-164.5386,-131.1106,-90.2782,-103.7547,-202.7242,-144.1077,-163.2508
-152.1692,-117.1754,-243.5686,-143.3758,-212.4560,-101.9050,-175.3490,-94.3919,-149.7995,-88.3857,-147.2379,-148.4879,-142.5187,-72.7851,-113.8797,-79.1730,-187.0132,-74.4918,-148.7536
-148.1592,-92.0884,-196.1253,-71.0473,-158.5524,-42.0723,-161.6403,-26.7909,-141.9756,-57.5000,-60.5816,-79.6126,-121.2831,-19.5603,-153.3251,2.9379,-158.3190,-5.1694,-128.9724
-102.8971,-36.8668,-143.9203,1.6716,-140.6790,8.6924,-158.5194,7.1262,-130.9220,-62.4875,-0.7051,0.6029,-103.5321,-7.5182,-171.7098,51.9243,-102.5612,28.6182,-121.3609
-49.7171,23.3030,-105.6796,39.0680,-114.7393,34.8304,-161.0225,-11.1198,-129.9191,-61.5525,6.6588,38.0554,-77.3010,12.6334,-171.1790,47.8495,-50.5660,36.7419,-113.9631
-49.0993,44.7562,-66.9379,49.2855,-54.2158,63.9108,-138.4566,-19.3282,-111.0160,-25.9125,-31.6818,52.1265,-42.9793,67.9854,-141.5502,44.4423,-26.8847,40.1616,-103.5140
-73.7807,52.5922,-56.3617,47.4306,-36.3856,75.3601,-101.1005,0.8328,-67.1509,-5.3335,-64.8459,77.0329,-31.1233,105.8350,-86.3241,67.0370,-16.8650,29.1797,-86.3337
-51.5259,42.7618,-95.6723,25.2122,-79.4848,39.1700,-84.5243,12.7268,-40.2750,5.9764,-20.1714,106.2062,-59.4981,96.3417,-85.5292,77.9587,-8.7524,-9.1855,-65.3142
11.2180,9.2197,-129.7164,9.2987,-102.3182,1.6780,-96.3964,17.2096,-52.8006,58.5328,74.2919,108.0939,-89.1215,62.4251,-162.1925,55.2030,-2.3004,-33.1589,-71.4551
51.7753,20.9927,-121.2496,33.7837,-88.4207,5.4790,-107.3509,42.7142,-62.5993,111.4970,97.2984,74.4126,-86.5771,20.6938,-211.0605,46.9705,16.4591,-7.0444,-90.8063
53.0988,72.1159,-95.1867,52.5923,-80.2439,19.1676,-85.7068,75.0438,-31.6897,100.8924,39.0958,52.3568,-80.5570,-8.8942,-186.7486,77.5665,53.7985,14.5535,-56.9214
49.6095,67.9258,-52.2631,17.1954,-65.9605,12.2921,-44.0486,71.5784,2.1721,52.6484,24.5829,84.0383,-89.4030,-0.6742,-145.9290,80.7505,85.4939,-13.7613,8.2907
63.6537,27.3969,4.5197,-21.7828,-30.2323,-7.6814,-22.9393,26.3046,-3.7657,12.1898,78.6124,128.1326,-83.9421,25.4755,-92.3108,26.3441,84.8870,-39.7564,12.0311
72.4940,20.2771,20.1949,-10.5474,-1.7247,-28.8632,-17.3664,-11.7889,-11.4715,-8.5839,80.4238,126.6599,-65.5031,31.0917,-23.7882,-7.8848,55.1996,-30.3569,-30.3104
39.1970,19.7803,1.3158,23.5670,16.6130,-29.3092,6.4178,-1.2261,8.7166,-6.7184,-14.6721,99.8984,-60.9078,16.2752,-11.9413,10.0179,33.6083,-14.8464,-39.1285
-20.8073,27.9999,26.9886,54.7809,46.1136,9.4692,22.4302,22.2113,-0.9220,-16.0146,-107.2122,90.4088,-47.0958,-0.8464,-54.8605,-0.9221,55.9047,21.9263,-32.0591
-43.5496,85.6418,83.9791,92.1922,78.7859,62.4013,-6.2768,7.6348,-55.2783,-66.7292,-114.5002,91.7934,-4.6974,4.1768,-66.7605,-58.3095,98.4658,92.7899,-38.1718
-12.0911,116.2068,98.5388,114.9765,97.7860,91.9801,-17.7791,-1.5523,-61.9912,-96.7881,-51.3460,82.8986,20.0470,51.1780,-59.3389,-54.4989,101.9860,124.5786,4.6131
28.5517,62.1298,100.3009,95.5657,103.6441,90.6291,51.3458,50.7520,3.9020,-60.8319,29.8611,58.6475,8.8598,87.1404,-87.3030,40.9598,70.1293,92.4017,96.0457
63.2832,25.9406,144.4735,62.2170,112.4004,70.8004,120.1753,101.6270,43.6228,-39.8168,82.1119,27.4640,16.9775,44.6482,-100.1050,106.6727,57.9607,76.3001,121.8179
96.0375,53.2136,179.7767,53.5430,139.6340,61.3819,97.7166,84.7236,25.1294,-71.2593,73.2819,13.0234,64.3622,-2.7732,-48.2216,86.4682,65.8340,96.8416,73.4439
76.6582,54.4441,151.7912,57.4001,152.8974,82.8634,64.8360,68.2711,34.8260,-52.1246,9.8313,24.5186,101.0249,55.9546,19.1648,85.1258,54.9320,98.0794,86.3608
-9.1655,19.1974,97.8680,45.9544,108.7153,102.4555,131.4958,119.5340,110.1559,50.7167,-59.7533,42.6058,98.2211,152.7291,59.7265,163.0557,35.7317,79.1850,191.9776
-54.4098,14.8199,67.7525,27.0713,59.3418,87.8573,237.2205,183.1184,190.8291,120.3859,-84.1450,58.7502,82.5378,163.6278,86.0959,232.1227,38.5721,69.7184,263.5050
8.5267,35.4033,71.1177,27.7813,75.7413,73.2304,268.1574,200.6480,230.8870,99.1304,-48.7860,72.1333,90.9693,128.7380,113.6020,217.8610,53.5025,65.4188,239.5120
85.5704,49.4115,92.9436,49.4651,105.4229,87.5471,238.8857,188.3532,243.2992,63.1859,17.4732,71.8501,129.2619,138.5947,158.2119,153.0025,62.7796,70.8736,196.4404
85.7154,61.3064,98.8060,66.9168,83.8152,104.7666,224.3392,168.4216,253.4283,70.4457,65.1280,76.9249,158.6524,173.3444,224.4943,96.7274,69.9623,93.1955,187.7529
53.5037,74.2055,84.4106,73.7537,64.4257,116.0409,233.5775,157.5540,263.8985,98.7618,71.4271,109.8664,148.0490,186.5884,271.3837,79.7905,85.9563,115.1946,179.2054
60.6327,105.5118,101.4721,97.0713,99.5379,136.4409,233.8914,175.1545,258.3675,121.3003,76.6866,124.9544,135.3550,178.0456,259.3212,94.2476,121.9486,141.0892,148.2744
108.5371,163.6524,160.3069,144.7563,158.4138,150.5568,213.2634,193.8571,233.3435,139.4629,130.0990,87.2978,164.1850,151.0908,210.2304,99.8610,160.2896,173.4544,117.0565
157.0431,187.8250,192.0298,174.8593,202.8626,149.5099,183.5584,172.2105,206.4948,152.4700,194.8487,58.2993,194.2967,112.9014,174.4695,84.9070,155.9093,166.5357,86.6981
162.6958,145.6676,168.0782,152.6444,201.6672,147.7626,158.6567,121.6335,180.8939,143.2533,192.0244,83.3578,168.4802,72.5158,159.7388,65.8108,120.5132,110.9004,41.0586
117.9576,99.7600,138.6128,97.7143,144.0643,122.1769,134.8023,61.6445,147.2200,104.4805,130.4812,110.3937,108.4391,20.3579,125.9993,30.7690,108.8026,59.8438,6.8351
62.1520,63.6759,118.4312,36.0292,87.5288,49.6009,103.3853,-0.3015,120.4441,60.2452,81.7408,86.3318,60.8168,-24.4321,66.6337,-2.3454,93.8887,17.4303,21.9185
14.3544,-23.5564,60.9534,-37.7153,55.9606,-20.6928,80.0797,-21.5955,113.0673,36.7812,61.8473,17.3959,20.6485,-26.4346,38.2835,25.9248,18.6959,-44.0951,59.5162
-36.4675,-121.9978,-31.9896,-101.7907,-14.1331,-40.9674,77.1625,12.1991,100.5538,31.8664,41.7105,-57.8474,-31.3617,-20.0197,49.5825,72.3764,-61.5187,-82.2744,61.8796
-66.7753,-113.3657,-88.5088,-96.5522,-102.1864,-33.8243,69.1570,31.0517,68.0889,35.5049,7.0915,-91.3519,-78.2883,-45.9706,27.4973,44.0867,-77.6490,-56.7157,27.1189
-59.8295,-14.6463,-82.7180,-35.6698,-106.7994,-27.2985,41.8216,2.9161,41.3631,38.4563,-43.7490,-83.7101,-91.6053,-59.7136,-31.9607,-3.6057,-80.2659,-17.5616,-1.6445
-58.3352,31.4061,-70.5339,-14.5150,-60.4760,-20.9408,26.7577,-17.3090,40.0661,16.6926,-77.9324,-93.5635,-72.8858,-37.8657,-41.1021,11.2925,-111.1439,-16.5978,-7.8752
-65.6698,-23.9655,-74.0789,-48.7268,-56.4453,-22.6442,34.9940,-25.3175,47.2555,-34.9702,-35.3200,-123.1365,-51.6183,-37.3667,3.7357,20.6242,-114.4548,-38.3637,-19.2725
-22.7340,-84.8329,-48.3347,-58.4938,-54.5935,-41.5771,18.9405,-77.8249,25.4117,-80.6560,66.5158,-107.6138,-48.2319,-69.1014,9.2367,-18.1459,-77.1584,-58.6647,-68.7737
48.3195,-84.6428,-8.1115,-43.3964,-19.6016,-70.6437,-52.8835,-159.1132,-47.9015,-103.4591,129.2212,-46.9653,-56.0652,-84.7784,-48.1351,-34.0897,-63.3907,-78.3909,-146.4644
49.6226,-73.3457,-37.5089,-74.5708,-40.3676,-97.1123,-135.0488,-203.5400,-133.3999,-121.9693,97.3429,-4.2372,-65.7250,-82.4022,-97.9492,-26.4199,-86.9722,-99.4041,-192.5986
-28.5599,-94.6674,-126.1689,-123.8834,-134.8477,-102.8965,-158.5837,-203.3623,-152.4799,-121.5741,-11.0145,-2.6931,-76.6350,-81.2610,-90.9820,-30.0243,-109.2711,-114.1031,-163.7016
-102.4237,-104.8066,-165.6862,-115.9774,-187.6330,-87.2288,-113.9081,-178.1058,-91.8739,-66.3585,-126.1037,-26.8314,-76.7758,-72.9002,-53.4683,13.0153,-116.3280,-111.7677,-88.5096
-115.2380,-71.4215,-128.6058,-85.7408,-147.2608,-84.7258,-45.8181,-122.3545,-22.3944,14.9487,-139.6431,-49.5308,-53.7205,-65.9443,-44.5977,99.7471,-109.5664,-93.6266,-24.8702
-75.5600,-37.3429,-85.4257,-92.2295,-78.1843,-103.5641,7.4027,-49.1109,3.2924,56.9079,-40.8297,-43.3503,-24.4902,-77.0275,-73.6774,119.3768,-96.1830,-76.9066,0.1185
-36.1589,-39.9130,-68.5399,-96.5737,-41.2712,-100.6889,28.5098,-0.2412,-0.6087,61.8099,24.4295,-36.8433,-14.1905,-93.4336,-95.8936,69.3920,-95.8438,-66.4542,-9.7536
-45.6370,-60.3926,-54.4655,-63.7378,-37.4227,-61.8973,14.7044,12.5437,1.2344,85.7830,-19.9960,-80.4152,-20.0693,-105.8893,-108.2571,47.4483,-99.7454,-44.1496,-22.4699
-83.9081,-70.0650,-24.3881,-34.7703,-23.9360,-16.3781,1.0545,20.2183,21.7296,134.0819,-77.2652,-139.0457,-20.8361,-106.6657,-137.3149,71.9645,-80.2300,-2.0278,3.8965
-95.1251,-69.2886,28.3652,-32.6075,24.4323,23.5846,29.7886,45.3828,42.1456,152.6840,-81.7883,-149.6951,-0.6525,-74.5049,-138.1694,101.7674,-52.6361,36.9831,56.7376
-68.9177,-73.9543,84.5096,-35.9704,69.1827,49.6111,78.7356,71.7388,49.0579,127.2904,-55.3358,-126.9504,34.0230,-30.4164,-70.9716,106.2977,-47.7431,43.9042,85.1960
-26.8571,-72.8745,98.9947,-37.3647,81.7552,46.1350,105.3295,75.5940,69.9808,112.7414,-0.9336,-103.2841,47.5948,-14.8273,-8.6060,76.3604,-55.9178,27.7138,94.8683
6.9111,-34.0261,67.6530,-33.6408,92.1705,36.9023,120.1927,65.9885,108.8166,137.8953,38.2023,-81.2291,13.4963,-5.4908,-15.8276,60.3965,-55.9764,28.5381,116.7479
2.7034,17.2642,33.9478,-18.4480,98.5715,44.9873,119.6590,58.8062,96.6771,157.1243,-11.3979,-72.7964,-43.7878,15.1666,-56.9908,86.6309,-47.3285,42.6775,113.7775
-24.2557,19.4655,17.0690,-8.6236,62.9180,34.2836,59.0390,37.0411,7.9567,134.5444,-82.8249,-67.2179,-81.6095,2.2692,-95.9122,77.9681,-35.6483,22.2699,52.0571
-14.5498,3.3284,12.0900,-6.6447,18.6383,-8.8020,-26.2121,-7.7792,-68.6086,99.2652,-59.2873,-28.4919,-87.3483,-38.3117,-120.9714,3.3084,-16.3696,-16.5562,-9.6759
31.0236,41.7805,24.9745,17.2210,24.7490,-29.1769,-43.8879,-37.1341,-69.6078,79.5201,21.1566,16.9962,-70.5153,-40.4712,-105.0142,-50.4353,31.5107,-8.9626,-20.9168
61.8379,89.0176,39.8068,53.9914,47.8770,-7.0399,-18.1639,-29.9811,-43.9767,56.1935,74.8500,21.8562,-53.3112,-7.8213,-65.2994,-45.4588,104.6111,23.4758,-21.9965
76.8111,65.8042,17.3026,58.1964,22.6348,11.8821,-43.4794,-25.0932,-46.4512,15.2743,98.3416,8.5228,-62.5499,17.2676,-46.4148,-7.0675,136.7235,13.7617,-48.9359
88.4691,20.3982,-38.4106,33.4350,-37.3900,2.6462,-102.7599,-46.4227,-66.5894,-9.3462,84.7417,-1.1693,-86.1016,38.6514,-30.6251,56.2379,97.2624,-16.0963,-72.6257
81.1352,26.5747,-77.7525,19.7787,-67.0936,-22.9598,-114.6068,-59.1403,-74.1110,19.7169,44.1283,-20.6770,-85.9071,42.3257,-9.6071,79.7053,67.5678,-16.2013,-66.9576
75.9779,55.5475,-73.2119,22.3647,-38.0355,-49.2741,-79.1538,-41.4075,-56.2168,78.3160,41.2767,-25.5387,-74.4129,-2.4813,-25.3565,16.0267,88.4615,-6.8554,-48.5931
92.3316,49.5000,-47.4052,18.2533,2.7706,-58.2570,-43.9614,-26.6172,-24.5199,106.0507,54.1080,-13.9969,-86.2155,-54.0115,-37.3953,-11.6413,70.2910,-17.7556,-44.4696
73.4122,-11.5579,-44.8800,-11.9984,-11.9054,-54.7139,-16.9445,-39.6411,4.7476,103.1152,1.6840,-64.2462,-93.1929,-70.5413,28.7840,86.1818,-23.1944,-48.7697,-56.1970
-0.1708,-107.4477,-81.3733,-72.1669,-66.6997,-70.9983,12.9975,-56.1074,39.4113,123.3909,-67.5944,-182.0831,-63.1793,-91.5345,92.3880,182.0978,-98.4363,-94.8565,-55.0332
-49.4068,-164.3031,-116.9528,-127.5532,-84.8060,-103.3805,35.4191,-58.3532,71.5076,148.5479,-71.5896,-252.9395,-36.2779,-131.2462,41.6191,160.6020,-103.1248,-120.9529,-27.1443
-42.3477,-140.1092,-103.4962,-134.6139,-52.7428,-112.9554,34.3022,-72.9666,58.0533,94.9516,-52.2862,-222.8843,-36.9691,-139.2637,-43.5367,63.3050,-70.8472,-98.5351,-2.5853
-18.6682,-103.7426,-45.9039,-110.1722,-13.6175,-100.3744,22.4288,-111.7717,12.5979,-23.4047,-41.5829,-148.9594,-25.5743,-105.1435,-42.8290,-28.8593,-22.2525,-77.4504,7.5089
25.7960,-107.7105,14.7232,-101.1232,29.5384,-95.3944,29.7248,-132.2851,4.8136,-93.6669,11.9677,-87.0322,-5.7322,-58.8027,-14.2426,-48.4503,20.1134,-95.4957,40.2816
92.2442,-109.2055,49.3348,-107.0793,86.7323,-95.2819,50.9078,-105.0025,32.5225,-82.1549,93.4193,-66.1611,-25.6749,-13.7236,-48.2264,-7.0873,21.8920,-105.8575,97.5967
111.7438,-96.9956,53.5897,-103.9944,127.2013,-82.4823,61.3323,-63.6459,49.5508,-58.2492,114.2760,-93.3105,-52.3337,5.8438,-68.9077,-21.1144,14.6623,-90.8944,131.5154
64.8615,-103.6130,43.7847,-91.2759,136.5278,-66.6211,82.9928,-45.9182,77.9313,-57.5504,55.0636,-125.2259,-16.4268,-16.4877,24.9781,-86.6026,47.8954,-86.9378,135.6421
25.1719,-102.0844,35.1605,-75.7312,133.7500,-69.0479,135.4188,-41.7359,131.5800,-59.8927,-15.7509,-121.1273,39.9365,-36.5574,144.2967,-63.8713,82.7095,-88.2697,138.1510
18.6712,-80.1249,8.8369,-72.6597,101.3899,-89.9430,159.0531,-27.4243,149.2185,-57.8897,-38.3654,-98.6924,24.0708,-15.7252,132.9115,24.7341,54.9173,-88.6104,127.2359
-8.8195,-99.0243,-60.3173,-103.4162,15.2622,-106.6047,110.4221,-1.3142,111.8509,-42.4827,-32.7758,-83.6455,-45.4244,21.1585,28.8331,70.4573,-22.2928,-112.0884,88.7202
-68.9591,-145.2940,-133.4583,-134.4371,-55.9431,-102.1364,51.2687,22.9201,67.8985,9.6160,-41.2676,-66.5243,-67.6311,46.8990,-8.2514,114.3260,-78.9136,-116.8596,56.5941
-97.6590,-117.7736,-130.4090,-101.0834,-13.6183,-83.1700,38.9188,27.0276,31.5830,63.4283,-26.0608,-24.5503,-6.7472,61.2283,43.9175,150.4417,-56.7033,-59.8248,50.6488
-59.3695,-19.1625,-49.3252,-25.8132,104.5491,-57.9595,44.1047,4.1552,2.3000,38.5963,32.3453,46.4913,72.6229,69.5314,96.6071,75.4202,26.5060,-14.4119,45.1914
-9.3302,43.9975,8.7927,14.3621,161.7650,-24.5553,36.8399,-22.6856,2.3115,-47.8188,32.2040,105.6636,97.4935,100.0788,123.1310,-22.1656,81.2626,-16.2996,36.8540
-4.2155,37.7802,-7.7421,29.3108,139.8220,14.4375,37.3613,-18.5235,16.6014,-80.0305,-34.5247,101.1410,73.0539,175.7769,129.3804,-13.8113,75.3282,26.8564,57.5979
-4.6223,19.5465,-10.3474,77.8695,156.3742,62.7382,63.3859,27.3029,18.3816,-39.5635,-8.1344,54.6573,62.7356,255.3425,108.2068,15.5214,77.7361,122.8570,107.6041
37.9812,35.3844,68.2086,140.4981,242.5813,126.7821,100.1982,96.7776,29.0020,-28.2161,98.9873,40.0869,93.1580,296.0582,100.1877,53.0207,113.1820,164.2687,148.3506
67.8385,84.2157,135.2863,165.1664,299.0269,174.7524,125.0493,163.9837,53.1422,-49.8094,90.6909,81.9157,122.7387,328.3307,127.0480,189.5429,121.6560,150.4016,166.3708
34.3837,134.6459,107.6769,162.5790,298.5298,173.9008,145.3172,207.2005,66.7986,-10.3364,-2.7103,149.5398,111.4566,381.2953,125.5985,264.4881,98.3080,160.0823,185.4119
11.6860,163.0751,71.5188,166.9727,327.7422,159.4901,185.4695,206.7374,85.2699,42.4058,15.3291,208.2908,73.9284,420.7908,86.2221,138.5676,107.5619,179.9523,206.8671
70.4429,188.0450,109.4491,189.2764,415.7012,167.0970,213.3554,155.3659,102.4734,-14.0926,122.1393,233.6238,53.2875,422.4040,79.1196,50.9602,161.9330,175.1099,194.0077
161.3126,233.8595,154.8822,238.4496,500.1672,165.4746,169.6596,83.2806,63.9147,-101.5655,180.2930,231.0612,66.7067,417.3787,96.3622,129.3546,219.9778,180.1384,141.0474
224.0307,285.3490,161.1458,311.2024,551.4041,146.4048,98.6893,37.0046,3.1198,-71.7563,203.2695,231.7641,82.9452,439.1963,89.0894,147.3337,271.6584,210.7178,104.9477
274.1325,322.0688,196.1844,375.3079,599.8101,154.1608,98.9881,19.9843,9.1107,2.8036,250.4957,244.0919,68.7143,491.5410,86.3651,82.9158,339.7163,236.1313,133.4937
331.6410,351.8176,273.3788,409.8709,659.4183,181.3461,152.8795,8.5465,47.9325,-6.7867,313.2915,267.9320,50.4089,570.9861,101.4608,142.2219,420.6091,244.9002,207.6295
380.1379,395.4100,314.2441,434.2639,702.5085,188.8160,181.9349,16.6416,47.2938,-36.8332,372.9731,327.2481,78.1625,676.9877,92.0223,232.8372,478.8947,250.3800,282.5778
417.4619,479.6418,314.0283,489.3420,724.6861,204.8114,199.8824,63.5059,53.1423,-7.2683,414.3229,417.7573,143.9471,796.2929,76.6977,156.0013,513.5869,281.0884,343.9379
471.0924,604.7644,339.0730,590.4955,784.6745,263.4921,248.0268,115.1535,99.0759,19.5789,448.9739,493.4987,201.1596,907.6626,91.9688,63.3948,568.2303,352.4408,401.1019
539.7692,701.6409,380.3191,683.0018,902.7146,328.3155,295.6039,144.7335,115.1371,17.4201,503.3546,536.2020,238.5385,1018.7565,100.0791,163.7349,632.0828,412.3559,456.0168
569.0961,719.9818,381.3264,706.1708,985.0480,369.9265,317.1541,183.9136,94.2279,59.9330,519.1551,555.6218,284.9096,1158.6410,90.6445,343.2020,643.9814,422.8309,502.5462
539.3528,727.8107,360.8692,708.8629,980.4290,411.0103,348.8128,252.9703,119.4732,149.8553,461.0750,556.4499,367.5577,1303.7986,117.9380,415.4214,627.2423,454.8086,547.2385
521.1594,776.7985,371.0854,760.8706,979.5737,458.7468,412.1082,326.4910,188.5398,208.4686,448.8600,563.2562,472.3245,1384.8668,178.8554,414.2517,641.8744,536.9174,602.2062
558.7872,773.7811,391.0936,792.3669,1017.5751,485.9821,469.1076,383.2531,223.2516,216.0281,519.5329,596.5894,542.2518,1398.4939,219.8095,453.6024,639.0756,556.8222,655.3307
593.2789,667.3871,373.9189,726.4688,1005.0533,476.3389,481.9352,412.1023,222.9405,221.6368,532.6832,619.6304,560.8630,1404.2875,234.7975,521.1613,577.5966,481.2910,681.2666
575.8273,577.0956,341.7134,651.1726,945.0643,442.3961,468.8718,406.4324,236.5030,256.8458,474.0925,589.9334,586.1439,1404.2324,242.0544,544.0709,527.3396,433.4995,672.9012
508.8173,556.0361,328.3225,635.3441,915.9161,410.0902,450.5580,393.9264,235.0243,294.2505,421.6154,514.2899,621.9231,1358.5867,228.9703,524.3139,475.4624,436.6114,627.8904
374.5043,489.3954,294.0168,580.9368,863.1926,384.9858,382.3628,395.9773,154.3392,275.3817,295.8371,420.0846,583.2927,1285.7640,176.3184,468.9809,323.2687,379.0493,547.8055
210.4945,358.0106,210.6494,444.5770,724.7718,344.0152,254.1309,371.3781,36.1049,190.3318,107.7898,344.1979,473.4999,1217.6919,113.4022,332.3525,153.0898,265.0541,476.8178
138.1972,271.3023,143.1010,333.2678,599.5524,277.9968,174.3360,290.6906,-5.9330,100.1577,74.8117,309.8836,401.4707,1138.4382,114.7420,179.2094,116.4881,196.7022,462.8892
147.4029,201.9876,134.9406,276.6269,544.2200,203.5322,190.0819,205.2349,35.9370,43.8590,164.4489,271.3206,383.1872,1050.9619,178.8696,165.8182,136.4852,164.6465,478.4313
96.5877,54.6681,132.9951,195.8350,473.4370,135.8183,192.0828,166.1833,68.3342,-5.1641,123.2575,184.1233,352.1472,984.2177,189.3084,247.9755,94.6795,109.6048,471.2106
6.9933,-78.6207,109.7288,100.6910,373.4514,95.7091,149.4149,158.2442,80.9157,-55.5186,12.2862,108.2441,325.4050,917.8254,127.8794,242.7487,66.9862,59.1176,452.5872
17.4945,-78.8470,109.3645,57.5229,306.7758,92.5662,161.2966,151.5847,132.3561,-63.1760,41.7981,109.9485,340.5104,823.9459,138.1055,169.7215,97.9028,34.9057,449.5382
90.8187,-36.9429,133.1966,40.8669,244.3880,81.0517,206.1046,139.8002,184.0830,-17.8567,113.6719,143.1389,347.8073,724.0563,236.3347,164.6739,94.7152,0.3885,442.2602
111.6189,-64.6871,133.7375,1.2999,145.0258,29.2844,177.4514,120.2150,164.1141,10.8547,91.6478,132.5829,317.8400,617.1262,264.4564,196.9026,54.9619,-33.7702,400.3682
109.8516,-114.3878,109.3220,-40.9991,49.3324,-13.5067,106.8032,86.4573,108.3292,-35.6421,80.5977,71.3695,283.9497,473.3588,197.2775,158.3607,44.2884,-35.5877,313.8857
130.5900,-136.3504,89.8652,-65.6615,-22.5866,-21.8402,57.8571,36.9720,66.2149,-108.6689,123.9444,-1.8466,238.1923,322.2059,144.2273,40.4887,31.9641,-44.7076,206.3159
133.6553,-161.0630,90.3138,-91.2180,-77.0040,-44.5288,12.5522,-13.5444,31.9952,-117.3872,125.0038,-40.6938,172.8882,210.3498,120.5608,-79.0228,8.7621,-77.2211,149.1036
126.4294,-184.9765,122.9551,-114.2514,-88.8290,-73.8915,7.7790,-31.7353,41.2874,-65.4213,93.3394,-32.8924,151.3155,128.3661,119.0805,-100.9034,36.6787,-62.9015,175.8204
138.1935,-177.6171,172.5510,-108.0413,-84.5315,-46.3849,78.1479,-3.7276,113.6377,-27.7430,73.9753,-26.5696,180.5771,71.1013,183.5100,-45.7678,74.3330,-1.1585,205.4157
124.6459,-170.2345,187.7762,-95.1994,-129.2521,-0.9684,121.1436,34.1153,157.0208,-27.3875,36.3117,-61.9163,169.0322,35.8260,247.4977,-82.2979,35.4054,-4.4014,171.4660
79.0988,-215.6978,155.4959,-151.2271,-195.7800,-42.8651,100.0473,32.5819,136.7090,-42.8695,7.1291,-125.8410,90.4106,-54.2437,207.0216,-242.9909,-38.2205,-112.0827,127.1241
41.9923,-301.7338,94.6369,-294.3618,-247.3655,-172.1302,108.9203,-27.3662,135.9275,-79.4286,-5.8806,-212.6575,-2.7480,-250.8209,121.2347,-366.2214,-98.5727,-241.0678,95.1342
-51.6463,-353.8021,-17.0082,-427.3395,-355.6461,-301.3117,93.1372,-134.4373,124.3569,-137.3001,-140.5791,-333.8055,-114.9737,-471.2851,55.5010,-405.8900,-198.2306,-333.7555,-13.5709
-260.8097,-330.2390,-178.8171,-469.1762,-545.8285,-383.7776,-69.2925,-248.0451,-6.1610,-175.7964,-406.5716,-461.3999,-260.3693,-622.0668,-52.9759,-413.4757,-335.8598,-397.8565,-209.2451
-447.8794,-297.4043,-301.0470,-472.5948,-703.1975,-429.0729,-252.3020,-316.7299,-165.0042,-170.0286,-563.7123,-545.0282,-364.1531,-691.0226,-180.6936,-354.9216,-426.2501,-434.0716,-351.8090
-470.2627,-334.2277,-334.7858,-507.3461,-761.1882,-454.0972,-294.2224,-335.6396,-198.7676,-160.5355,-509.1734,-559.0479,-378.2649,-685.0656,-199.5925,-305.9982,-452.4751,-444.2393,-373.4428
-406.6194,-399.8083,-356.0453,-544.8958,-783.0558,-473.2608,-298.5791,-356.0111,-190.7500,-211.1328,-415.9736,-516.1163,-381.8484,-653.3781,-140.9171,-428.0870,-464.3235,-464.5358,-384.8426
-395.8894,-425.0836,-432.0220,-559.4739,-814.0470,-504.6263,-382.3782,-411.8497,-281.8841,-300.8881,-400.7190,-473.1231,-454.3121,-679.3886,-154.0992,-579.5437,-490.3683,-520.6599,-478.6363
-448.6752,-439.7589,-535.5926,-585.1844,-829.8317,-548.3648,-470.3628,-470.6757,-407.0578,-310.5499,-430.7487,-470.7267,-559.1902,-708.5086,-247.3429,-506.7986,-542.3454,-582.0794,-590.6229
-517.1251,-471.3577,-621.8292,-608.8192,-814.7980,-565.8253,-511.7775,-484.5350,-464.3113,-213.2401,-496.3426,-460.0685,-615.1128,-606.5280,-314.4943,-307.5235,-600.3314,-594.8408,-632.8013
-561.0515,-472.4070,-665.7315,-577.1191,-766.1326,-533.3035,-546.9798,-468.7915,-489.1543,-158.2581,-556.8921,-391.3654,-596.7620,-433.9978,-326.7300,-190.1139,-603.1000,-558.5510,-625.0195
-538.2573,-438.9231,-652.3967,-514.8185,-669.9195,-502.5402,-558.8577,-479.1159,-522.1714,-214.8478,-503.3711,-317.0986,-542.2213,-345.6224,-342.9832,-144.3458,-553.0740,-537.0930,-616.4794
-475.3342,-426.0027,-620.9247,-485.0742,-550.3815,-518.7844,-526.6888,-508.5982,-541.2144,-257.7997,-381.4898,-294.6693,-507.0354,-294.1967,-386.4949,-137.4496,-543.4020,-558.0667,-601.4395
-466.9817,-435.6692,-640.5377,-481.8001,-472.9848,-533.2597,-506.2262,-494.6651,-552.3694,-245.0974,-360.5026,-297.2516,-505.0634,-173.3091,-396.7511,-164.3789,-603.0134,-568.8184,-576.9417
-505.1845,-435.3934,-691.5636,-462.8535,-438.6221,-502.4871,-510.8453,-443.2936,-572.1260,-280.7841,-400.8255,-290.4512,-484.6128,-57.6883,-334.1335,-137.2639,-630.7475,-544.0647,-557.5992
-462.8846,-415.5598,-682.0491,-412.3945,-359.3965,-457.1392,-473.5941,-420.3091,-567.8138,-349.0505,-326.8660,-265.2530,-395.1293,-5.5897,-274.6709,-79.3786,-545.1444,-514.4304,-509.0450
-323.1435,-350.2249,-598.6897,-325.8946,-203.8681,-395.9721,-373.2651,-410.8342,-519.2721,-353.9979,-196.1535,-200.0900,-263.8595,111.6801,-295.6832,-100.7002,-405.5448,-456.0472,-400.4057
-227.2661,-224.0342,-515.6437,-210.8505,-58.0957,-288.2356,-270.1002,-343.9868,-465.9458,-338.4917,-186.9793,-103.2719,-156.4337,375.4676,-342.4543,-105.2421,-324.0439,-330.2769,-285.0481
-228.8526,-97.0307,-465.9300,-102.5434,29.2791,-186.8844,-208.0719,-243.7975,-447.8514,-353.7803,-241.1877,-20.5655,-90.6853,676.6239,-339.5538,5.7638,-305.7633,-211.4476,-206.2531
-213.0230,-22.7853,-423.9944,-25.7491,118.1702,-145.9245,-150.9412,-194.3909,-457.0896,-344.5758,-193.2878,51.0600,-48.2337,905.2188,-321.8737,75.1722,-259.3149,-174.4341,-132.1570
-119.7633,19.8128,-384.0706,28.8127,225.1392,-112.8555,-52.0160,-193.8328,-460.8760,-330.2783,-72.5875,137.2595,-25.7519,1077.7488,-344.7054,37.4590,-166.8585,-154.7782,-64.4738
-37.0996,36.6855,-360.3072,65.4509,277.8552,-51.7866,46.0048,-175.6501,-441.9572,-373.3165,1.5575,196.5942,-11.4178,1245.1793,-386.2133,65.5648,-121.5905,-92.2495,-42.9047
-20.6674,6.0134,-346.7810,77.5626,270.7061,-3.0534,83.2225,-117.9330,-399.6887,-383.7310,22.7862,200.6729,34.3317,1390.3132,-396.0227,186.5543,-151.4061,-34.6750,-26.2759
-12.0279,-13.3103,-326.5206,95.0041,280.9543,38.8006,109.3439,-45.7561,-328.3232,-283.6382,43.7867,230.3420,122.2099,1445.3397,-353.3446,257.4362,-158.0475,2.4787,48.4111
26.5913,58.0166,-285.5269,159.4001,316.6049,103.8828,182.9076,13.3512,-238.2949,-189.1920,84.5895,348.1058,216.8501,1400.2189,-281.1860,262.7864,-92.9834,60.7387,147.8746
62.4433,163.6279,-220.4515,238.8936,317.6147,150.8739,246.8323,42.4699,-172.7650,-187.2531,134.7452,467.7274,301.1752,1334.4650,-230.2534,264.3488,-23.3647,118.9701,225.2947
96.1048,205.5474,-150.5912,267.8777,286.8483,161.1287,264.2501,51.8993,-136.6465,-194.7077,177.5479,487.8495,392.6450,1295.5315,-210.1200,268.6490,18.7701,146.7217,294.7553
167.9218,220.4981,-89.7193,266.9859,275.2745,191.8138,302.3972,73.1715,-72.4991,-153.8115,230.8346,460.9086,486.5792,1250.5767,-166.6987,280.4308,66.5925,179.6562,350.5959
252.8299,265.2919,-30.8638,291.6852,269.0921,245.1057,372.1288,114.0176,29.1672,-108.5342,312.2028,486.3658,542.8088,1191.8751,-66.8374,279.2337,99.3112,219.7824,366.2255
284.2360,273.8854,6.7714,308.0686,210.4581,263.8112,402.4796,156.6555,107.2100,-78.9815,356.6781,524.9667,538.1654,1147.0836,52.0463,226.3192,84.8561,226.7791,369.0846
276.2256,226.8208,-1.4422,276.3348,110.2808,256.7109,392.0462,197.6795,148.1625,-39.0871,312.7847,482.4627,499.9271,1107.5699,138.0241,165.2071,83.6714,227.1462,385.2163
287.7718,241.6500,-9.3207,255.3037,38.3211,265.0220,382.9975,242.0474,189.5567,23.4610,252.9909,396.2728,477.4584,1072.4395,188.3188,142.5048,137.1154,257.5133,381.1453
299.2443,332.3334,35.2899,279.5433,6.6715,276.0301,366.9329,277.7984,234.0096,102.1048,230.2809,364.3501,488.0096,1053.9038,245.7396,144.7416,180.3292,281.7179,346.0841
269.7135,366.5364,95.9114,288.9749,-34.6739,273.0027,348.3730,296.1301,277.8277,185.3621,199.8760,370.8349,499.8821,973.5556,328.9904,198.6353,191.3330,281.3676,323.2119
249.8004,333.5224,133.8481,260.6523,-91.9488,262.8397,351.4171,298.6156,327.2924,256.5385,174.9769,339.3771,469.9960,734.6637,390.6842,270.9428,229.3071,277.6022,315.2169
290.4991,325.6223,173.9347,224.9921,-130.2405,225.6982,333.9440,265.0602,339.0364,285.0540,206.3119,263.8626,388.9864,398.0096,392.4944,190.9171,272.6109,248.2105,267.4745
340.1948,312.5939,212.7301,171.5829,-158.8497,150.1652,260.2920,181.1600,293.4126,246.9760,236.4672,172.8538,293.4077,118.9720,369.9485,-32.1132,257.1676,191.6855,169.1527
347.5565,248.6609,218.0732,105.3231,-205.8823,90.2549,190.2417,97.9021,272.7593,183.1919,218.7648,73.6383,231.5087,-20.3541,362.7240,-148.7917,232.4626,178.1460,82.8671
335.4336,219.7797,214.6006,80.2815,-259.3648,91.3251,163.5740,70.5127,312.7337,167.5434,213.5136,-4.8400,205.4080,-40.2347,360.2956,-107.3823,253.9050,209.7673,48.5705
319.4253,261.5726,227.9499,87.6200,-306.6225,115.3435,131.0565,66.0833,330.4259,201.2036,220.4232,-20.2770,175.9292,-47.5074,350.2429,-84.7024,264.9596,207.2388,30.9461
