Fp1,Fp2,F3,F4,C3,C4,P3,P4,O1,O2,F7,F8,T7,T8,P7,P8,Fz,Cz,Pz
-3.1006,35.0587,35.0467,-21.3126,19.4242,-45.4714,-62.5892,-87.2609,-46.5768,-104.0326,-1.6811,42.9812,-40.3236,28.7644,-45.5413,-43.3502,34.5252,8.7153,-72.3296
-27.1991,41.3353,14.6548,-75.9526,56.2873,-101.5819,-104.2741,-138.0662,-83.7701,-77.3111,-14.3791,23.3658,-42.5609,-47.8846,-66.5241,-63.7670,-17.2954,-11.2540,-7.1327
-54.5911,-41.3706,-33.4329,-148.4298,111.9255,-98.1584,-30.2850,-104.3459,-69.2607,8.9721,-25.3592,20.5406,25.2960,-68.0055,-49.4502,-81.1387,-55.6817,-18.8541,141.7941
-74.7093,-112.6412,-69.0744,-157.2504,121.5407,-47.1270,28.9021,-13.6600,-54.1251,51.9416,-67.6474,1.4066,58.5581,-70.8902,-37.9157,-72.0406,-92.7680,27.8457,276.7179
-103.4215,-132.8214,-67.2131,-109.6261,117.4364,-25.9711,-41.1119,25.7068,-84.1080,41.5779,-114.6048,-70.8309,40.0614,-90.8400,-36.3632,-53.7397,-156.5821,105.9465,324.1459
-125.9017,-164.5677,-39.6008,-41.0669,170.0401,6.3209,-112.1752,5.8286,-117.5264,48.5737,-102.0380,-145.7249,66.1311,-55.2578,5.8142,-71.8282,-187.4098,191.8074,292.2532
-117.8407,-187.3360,-23.2386,32.7082,218.8051,99.3596,-60.8960,-12.8458,-95.0997,56.1828,-57.5608,-164.0559,129.9086,-19.1620,91.9762,-76.4807,-161.4234,263.3212,229.7403
-87.7309,-145.6118,-35.9500,74.0511,177.8116,165.2684,38.8736,-40.3239,-5.1114,1.7806,-40.5020,-148.3518,141.8327,-87.1779,157.5442,-7.6999,-149.6929,266.2158,171.5990
-64.2903,-85.2084,-56.8282,73.2170,100.7615,138.4098,90.2721,-96.8645,82.0449,-81.1522,-38.6774,-118.0725,104.9453,-143.1915,161.4926,46.1737,-163.5181,209.3492,103.2320
-78.2450,-70.4627,-79.9448,63.8251,58.9111,78.6081,99.1985,-107.4571,78.8613,-84.2011,-54.8686,-61.7875,63.1663,-71.9034,136.0627,10.6585,-162.4660,165.9254,17.1458
-128.1055,-97.6763,-132.0100,48.9309,12.1266,41.0148,117.8227,-5.3975,62.4043,45.0091,-110.0360,-36.1270,3.0219,14.5758,122.3249,-5.5180,-170.9591,133.4935,-18.0924
-144.5290,-116.2913,-183.6633,47.8817,-59.4451,32.1942,188.9817,123.9035,180.9401,206.4659,-116.3237,-85.5565,-60.5764,32.8668,110.5109,84.2749,-177.0873,82.4995,38.7380
-58.8903,-67.2368,-134.3256,102.9946,-64.5658,49.6889,272.7789,124.0036,319.2702,222.0257,1.1354,-109.5328,-59.0798,32.9092,86.0652,170.3951,-94.3319,53.6061,105.1918
83.4758,13.1585,22.4302,138.5873,28.6847,56.9216,255.5610,-9.8649,250.3772,79.7733,120.1497,-44.6763,-0.8901,12.9441,74.3306,136.1065,38.5611,35.7016,108.2103
153.9508,0.3619,125.4539,64.7690,77.2047,19.6275,141.8261,-107.5907,95.4390,-30.5444,112.7023,-24.3015,19.1682,-42.6349,94.9853,43.6395,83.5821,-35.1449,71.5075
102.4377,-88.1908,68.8990,-14.3184,-23.4646,-41.5228,75.1053,-91.2237,114.1827,-26.4856,50.9837,-121.9286,-29.4262,-90.1495,125.2767,12.5408,55.3863,-101.9387,5.4764
21.7573,-90.4940,-31.1168,-6.1517,-135.9200,-95.4316,87.1479,-75.5293,198.0036,-19.7980,26.6536,-170.6278,-68.0478,-112.5231,121.6335,25.9069,57.0419,-97.5540,-74.6084
-7.1580,9.9607,-55.8988,-22.3447,-108.4715,-93.5205,74.6992,-74.2904,124.2632,-14.1166,0.7371,-38.5722,-37.4213,-71.1099,57.3067,-0.3806,43.5664,-107.2993,-49.7865
-50.7870,80.8526,-80.6271,-111.4746,-51.8437,12.2692,28.3242,51.7089,9.8977,104.2184,-57.3089,155.8992,10.6563,73.5077,-33.4534,-18.8408,-70.8560,-167.1550,117.3224
-166.5621,73.2372,-155.3991,-161.9037,-103.1373,113.1565,7.5672,199.7312,19.3343,234.8654,-114.2532,226.9791,-8.0045,164.6387,-90.8487,47.0705,-197.7742,-180.7193,217.9673
-236.4478,19.3120,-158.8031,-155.3113,-146.9099,47.4292,-26.1895,106.5509,29.4697,170.4961,-163.0088,143.1487,-85.6034,47.3151,-135.2263,84.5942,-205.3052,-147.2563,94.7663
-170.7874,-32.1783,-73.6621,-124.4843,-96.7817,-64.4190,-103.5308,-75.2563,-52.9493,-3.8295,-191.5360,39.8893,-132.6737,-81.2596,-196.4412,19.1326,-134.3727,-108.9862,-76.2944
-94.0818,3.3453,-71.5799,-6.6689,-115.5685,23.2498,-127.5537,26.5440,-82.5113,-57.0644,-150.3168,73.2150,-96.1639,30.7841,-176.4392,55.7636,-100.7964,22.0904,-56.8074
-99.9034,112.6182,-169.8695,158.8285,-244.4008,234.0800,-41.8037,286.3922,12.0745,6.7455,-55.7594,216.4950,-14.1259,268.6669,-25.2926,276.4094,-110.6237,239.4364,98.4843
-81.2660,151.9873,-180.3641,228.8126,-237.3105,328.5134,60.8008,333.2080,100.8871,82.5220,13.0402,285.7149,54.9606,401.8566,92.0991,386.7881,-115.9224,351.8687,171.7421
19.8054,120.4975,-53.1580,259.0465,-5.6037,328.9128,85.0253,238.7302,95.2719,170.2758,53.2454,241.7809,114.5615,415.7167,78.0689,259.3606,-107.7826,339.5218,96.3531
108.1537,178.4689,85.3501,381.7599,213.2418,378.7868,24.5483,223.4214,27.2545,204.2731,121.9142,244.3672,194.3397,373.8662,67.8903,168.7039,-49.1784,377.2838,-25.6044
152.5619,328.7458,171.2438,504.2679,254.6980,447.4265,-84.0366,185.7360,-59.2955,96.1197,202.4780,331.5659,256.3022,290.3034,109.9900,238.1746,91.7927,469.8940,-102.9573
202.2746,415.5610,209.2485,514.4743,211.6294,457.8535,-162.4387,76.6365,-116.7432,6.3139,233.6455,358.1783,237.9844,216.0143,91.8558,286.6169,198.7375,491.9489,-126.2694
235.6577,382.7230,197.8087,490.2049,202.5782,434.9835,-126.8395,86.5149,-95.8762,103.2765,227.8574,293.2143,181.9658,217.0534,52.0944,251.8745,147.8260,453.4683,-111.0686
218.9094,279.7467,179.0126,471.1148,222.1443,405.3763,-15.8285,195.7445,-23.1871,211.5704,233.4811,246.9242,177.9371,267.1418,106.0817,210.8578,40.6740,407.0958,-58.4249
185.9108,161.4719,185.2554,389.4472,201.3044,356.3995,46.9755,210.2653,30.0460,149.9768,235.6248,221.9574,203.8327,269.4243,166.6494,164.4248,30.2473,335.2433,26.4506
165.6798,93.4868,173.3666,281.3291,123.9175,286.8598,59.3887,181.4093,63.2866,76.7073,208.2601,143.9848,199.0696,179.7156,145.3559,128.4270,89.2544,273.4448,121.2774
172.9295,109.7322,148.9432,249.5584,93.0454,204.1118,135.1218,230.2843,128.9637,144.2969,193.1894,64.6446,209.1931,71.2176,165.3330,132.9043,157.8843,279.8788,209.7171
226.6724,177.2465,185.5049,289.6358,200.7995,135.9278,281.7318,264.7224,225.8090,234.5433,222.5288,79.1079,271.3611,38.7105,283.7897,110.2536,238.7392,297.6987,294.7805
287.7693,241.0044,261.9283,320.4574,347.3698,123.7232,379.8458,221.7752,300.8366,230.5445,252.1646,141.1332,306.1220,79.5122,347.7485,62.6943,278.7637,250.5625,370.9516
302.1197,230.8291,294.4217,269.8037,368.8557,149.5952,378.6451,192.2531,325.7009,176.0403,253.2019,143.7992,278.0523,131.4307,285.7444,88.8775,264.7969,161.1892,406.3875
297.6648,128.4861,289.5311,132.8403,287.6175,159.4686,334.9440,199.9740,307.7047,136.4451,256.8406,82.5512,264.1559,140.9296,226.4743,127.3446,302.0292,77.2309,384.7065
313.6595,54.5519,292.1739,21.5679,235.7702,156.2330,291.6321,187.9782,266.5353,122.0023,271.2935,25.1395,284.1647,77.2066,263.6139,65.5521,374.3693,17.1956,346.6395
335.5832,86.7278,298.2978,33.9909,236.8472,171.6008,259.0949,138.3338,232.3840,84.1306,281.8257,11.0561,287.2665,-0.6586,316.9392,-7.4246,349.8843,-4.4614,344.5355
357.2566,110.9449,306.3870,99.6467,243.6694,201.2486,252.3739,56.2996,216.0647,-11.9073,308.2424,36.8253,289.5235,16.7472,266.2559,-10.4374,275.0342,-0.0326,363.8264
373.2876,65.0314,323.7992,109.2311,259.4735,221.5785,255.7302,-7.1033,191.2390,-62.5986,346.8146,68.1913,317.2941,89.6421,135.2797,-17.2643,266.8293,-17.0052,346.8454
358.3216,46.0447,327.5368,64.9131,280.2363,195.8064,235.0850,20.4093,156.7278,22.4183,344.5792,55.2148,317.8318,74.4240,67.9507,-27.8166,276.6498,-83.2920,292.3197
338.5133,50.2074,307.3610,-7.8434,252.8269,83.7925,205.8378,74.0331,149.6836,100.5782,298.8658,-13.4119,271.9497,-28.4886,117.9604,-3.4316,266.1332,-179.3716,262.4776
342.0863,-21.4796,280.7823,-107.1247,184.3563,-86.9699,194.4113,26.5504,162.4100,23.4054,251.9352,-92.8632,237.6745,-114.0443,188.8854,-47.8562,273.1076,-263.9025,285.8770
304.6528,-135.7121,244.5464,-190.5151,149.3063,-231.0062,178.4103,-88.7323,153.9769,-111.6897,197.3250,-146.8820,220.2910,-153.9835,203.6133,-185.8552,223.3945,-317.8506,322.7979
201.6486,-232.4839,187.4538,-230.6308,137.7356,-309.8804,143.7407,-159.4427,130.3479,-174.1087,126.6323,-181.6621,170.6419,-174.8912,175.8243,-250.0090,84.9378,-349.1396,334.0827
132.2925,-330.2257,123.1892,-256.0922,72.1141,-335.0526,113.7084,-161.4060,100.1730,-169.3887,85.5946,-201.7728,104.5239,-207.2132,134.9401,-192.9522,21.5987,-334.1939,317.1450
135.9927,-349.8951,73.0514,-252.2430,-8.8575,-296.4434,91.6413,-106.3194,47.4844,-118.9423,88.2634,-188.4534,80.4858,-247.4212,113.0584,-129.1843,81.8077,-235.3026,274.1539
138.5940,-201.1791,53.2102,-182.0301,-0.9290,-196.8513,77.2574,-19.8675,26.3702,-48.2765,90.9053,-132.1961,94.7107,-193.5588,132.6856,-73.8930,115.8338,-116.6256,213.9155
111.8097,-37.0445,59.4110,-110.6582,50.1991,-114.4032,99.6757,27.6918,100.1865,-3.4835,66.0951,-61.5083,82.4304,-26.6236,154.9702,-2.7974,84.5251,-99.3879,171.3844
74.9486,-45.2450,51.4692,-131.9517,24.7652,-126.5492,141.3016,17.1897,177.1713,30.3966,9.1879,-41.3198,9.1694,39.2192,133.0477,-1.9259,32.0303,-178.8412,157.1654
20.7660,-158.0499,3.6377,-224.2915,-50.1615,-198.9454,132.1847,-12.6997,137.8678,36.4947,-60.8391,-119.9784,-65.9305,-101.6233,75.1764,-110.5831,-60.9534,-260.8046,127.3104
-30.8071,-242.1435,-58.9436,-310.2564,-86.7369,-240.9543,74.7223,-73.1620,46.1665,-71.1566,-86.9021,-257.0698,-65.1447,-262.4382,4.4735,-237.6988,-121.2251,-335.9624,64.8168
-53.1103,-305.8889,-110.2256,-366.3240,-108.7670,-249.9010,35.8831,-171.5204,14.0142,-227.2387,-66.2531,-356.1991,-28.7864,-350.1710,-43.5409,-314.1295,-59.6860,-430.1416,14.4815
-78.7198,-375.4012,-141.9853,-397.7240,-148.6638,-289.9696,20.4296,-252.9950,16.7849,-284.7945,-71.4214,-380.7202,-45.9893,-437.0766,-27.4420,-338.4354,-10.2509,-486.9854,-11.5964
-107.2907,-412.5430,-138.8376,-394.0547,-152.1444,-346.9428,-3.4569,-296.1884,2.9578,-286.3057,-102.4082,-367.4299,-73.8544,-442.9441,6.4753,-321.2198,-84.1524,-459.6061,-46.5502
-94.0453,-388.0309,-107.4917,-346.9789,-104.4252,-348.8110,-8.7934,-296.8689,-0.7393,-283.4064,-102.2396,-344.8112,-34.0913,-311.5955,-19.3488,-288.2583,-159.0648,-388.3443,-64.6773
-83.5997,-309.5488,-83.5990,-271.9767,-69.2404,-309.1092,32.0388,-210.7193,27.2963,-175.3974,-107.1809,-315.2550,-7.8116,-248.0340,-64.3847,-257.5384,-174.0878,-312.8490,-16.0970
-125.0151,-214.0976,-75.7896,-210.1877,-70.5673,-295.4105,67.2944,-88.6103,55.6410,-26.1149,-153.7466,-285.3243,-86.4027,-338.8960,-74.2918,-225.3135,-185.8944,-251.0007,46.7562
-129.7440,-150.9750,-73.4429,-205.8835,-83.6605,-308.8138,35.0951,-84.6910,44.2840,-58.0275,-168.5018,-267.7833,-177.3844,-405.3849,-97.1904,-219.8612,-132.7751,-254.4188,36.7540
-49.5426,-153.7008,-87.2742,-272.5609,-105.9462,-332.9996,-44.4709,-220.3569,-6.2198,-235.2693,-138.2908,-288.3674,-181.0665,-411.6769,-122.7129,-270.9408,-2.2447,-348.1851,-25.1822
3.2969,-242.4298,-114.7260,-389.8135,-141.3573,-400.6212,-101.0107,-363.2943,-41.4542,-354.5890,-146.6187,-374.9871,-151.9859,-467.2820,-71.8366,-342.9110,31.7678,-470.9761,-65.5750
-22.1318,-381.2839,-121.7533,-510.6332,-173.5072,-501.8193,-111.6161,-437.1365,-40.0016,-401.6810,-166.8650,-503.6209,-142.0722,-522.8926,-19.4199,-402.5101,-51.6898,-555.4766,-64.6715
-40.7434,-460.9799,-94.2675,-570.6115,-187.9508,-554.0892,-112.7412,-468.7608,-54.6263,-450.3585,-124.7438,-605.0559,-123.4935,-518.8447,-82.0433,-462.6410,-72.2305,-587.6365,-27.1766
-26.6925,-458.8978,-55.1443,-551.0125,-178.2554,-526.0067,-106.5901,-500.2522,-68.6675,-492.0876,-93.0331,-633.1644,-109.9386,-534.2906,-154.2013,-502.4046,-11.9950,-580.2305,34.4594
-24.2467,-467.2283,-35.2853,-514.8486,-146.2926,-474.6126,-58.4432,-538.7941,-7.0228,-507.2927,-129.7401,-580.8168,-129.7393,-562.6678,-104.8085,-482.6177,16.8775,-568.5704,65.1753
-20.8769,-458.3854,-43.9640,-509.1102,-110.9710,-450.2899,-17.9927,-548.3195,40.8317,-480.7812,-120.8093,-482.1159,-126.8502,-517.7130,-32.1595,-437.8519,34.1149,-575.6389,32.1652
13.0816,-340.5135,-47.7374,-493.7350,-87.4044,-449.8606,-67.8387,-520.5034,-48.9450,-424.4020,-6.0943,-419.1096,-62.1000,-448.5613,-41.3378,-423.1677,81.3179,-547.4449,-14.6430
59.6584,-235.7694,-20.2592,-436.1771,-75.6424,-445.9661,-133.8931,-504.5932,-126.8113,-408.1952,86.6656,-424.0672,-10.4599,-430.9419,-60.1629,-419.6562,79.1819,-445.3670,-37.1781
78.1390,-272.9302,-12.3738,-378.6133,-89.3248,-425.7481,-90.1712,-487.3013,-28.2784,-408.3480,53.8971,-412.5198,-44.4251,-421.5199,-49.7361,-374.4446,-11.8597,-370.9587,-68.2789
30.3507,-294.5755,-71.0381,-361.8757,-146.5925,-414.2961,-8.5833,-408.6749,73.3927,-335.8321,-41.9133,-335.8765,-118.9140,-392.2875,-78.0718,-282.8643,-80.8468,-420.8607,-111.2690
-43.1361,-194.1001,-122.2665,-375.4764,-208.4870,-437.9777,-20.8234,-326.2350,8.6855,-267.5503,-70.6390,-285.1256,-132.6727,-381.0129,-126.1550,-214.0080,-16.1871,-505.8193,-106.8750
-14.0665,-157.9102,-69.1184,-385.6958,-187.4498,-466.2164,-63.4134,-321.3769,-67.5639,-289.1840,15.6245,-319.2432,-57.0501,-381.1169,-118.7683,-248.5899,107.1717,-504.5527,-49.8416
113.7067,-265.5539,46.0805,-360.6068,-70.8317,-454.4829,-32.0105,-334.0568,-27.5280,-287.5104,118.5555,-356.6141,26.0667,-366.1765,-103.9558,-344.1727,103.9912,-453.9767,-12.6729
152.9755,-340.2547,99.2087,-312.0867,21.9730,-423.6618,22.6445,-312.3314,21.6693,-222.2351,119.1183,-329.0327,32.9102,-358.4697,-145.0322,-356.2469,-17.7969,-421.1074,-19.0800
50.0515,-301.6365,52.4583,-289.8978,-6.7572,-409.2083,44.2714,-307.0499,27.8839,-206.6668,48.4234,-266.8213,-8.9755,-361.3617,-155.9251,-267.6663,-57.2390,-366.0170,-13.4539
-36.2906,-212.3744,-19.0844,-265.0166,-89.1344,-368.0597,57.5024,-312.1248,41.0753,-215.0448,-0.9429,-194.7057,-25.0115,-316.4924,-65.3476,-211.0188,4.8351,-244.9484,19.4727
-35.0705,-96.6152,-37.1350,-143.8885,-111.4300,-241.8220,40.8132,-286.7957,24.4991,-181.0428,-30.7285,-104.0727,-9.0500,-205.3511,17.0153,-218.1189,5.5312,-83.4967,18.5739
-11.2178,-11.1058,-2.8224,32.6117,-77.7349,-85.3702,-36.5266,-275.8610,-44.4742,-191.8595,-46.0026,-21.7877,13.3007,-120.0496,-14.2391,-205.0631,-29.2504,71.6836,-48.5190
17.6432,-23.5295,33.3521,109.1760,-45.2709,-21.5163,-111.7295,-290.6044,-87.9769,-246.9522,-2.7790,10.1498,44.7948,-140.2009,-76.6772,-178.6539,24.0895,149.6595,-142.0034
33.7738,-54.0203,40.1268,60.4698,-34.3388,-74.3643,-138.1468,-276.5059,-98.0064,-237.7059,48.1576,-6.9743,67.3083,-193.5739,-49.0132,-184.7627,69.8505,89.9068,-216.5847
-22.1654,-31.7175,12.4901,-10.3066,-67.2758,-147.9243,-147.7056,-257.8007,-129.2130,-205.3587,9.2215,-48.8322,37.6537,-170.9642,40.3907,-171.4482,-8.4429,-34.8545,-251.0455
-104.3690,-29.3179,-38.5270,-48.4474,-135.2604,-163.8836,-146.6705,-253.4972,-151.3796,-186.9402,-71.3287,-96.6894,-29.4483,-107.4161,73.4381,-116.3860,-108.3356,-69.0867,-237.6993
-119.3343,-38.1380,-73.8775,-28.7387,-145.2237,-124.2664,-126.7380,-183.1365,-139.5283,-93.5042,-84.0614,-118.8135,-64.9859,-88.4985,0.9027,-85.1056,-126.5428,21.2091,-202.2807
-90.3048,45.9783,-67.1402,75.0985,-59.1291,-52.4806,-124.0233,-49.3550,-146.2416,28.7823,-34.6806,-78.4272,-37.2024,-82.1452,-109.5921,-68.0262,-92.0037,133.6068,-177.2157
-56.2288,161.8352,-47.9889,194.3860,17.7367,38.6755,-140.7293,56.6097,-160.5729,87.3269,15.3825,14.1726,13.3692,-7.1573,-169.9747,-2.8934,-44.4202,196.5611,-138.0620
-4.7716,184.6977,-44.6902,250.1028,7.6011,139.8461,-136.3469,155.7814,-120.0982,178.1324,35.6027,101.5068,22.6293,136.1982,-183.7261,88.2273,-33.1816,233.2989,-54.9935
10.2618,179.6759,-47.4633,294.8540,-36.4043,250.8283,-115.1972,286.0568,-60.7115,317.9069,15.3102,152.8400,-21.8977,262.2575,-187.9564,180.3242,-93.7211,279.6945,22.1170
-44.6274,254.2345,-60.7560,366.3893,-52.8864,351.1057,-90.4045,371.2780,-46.7977,375.7342,-13.1707,189.8797,-60.5833,272.6907,-148.3495,283.3054,-149.0043,315.9464,32.5651
-66.4700,360.0639,-83.2364,390.2523,-39.2157,384.0003,-55.7134,400.1306,-51.2960,413.3881,-2.3264,227.0509,-41.0325,190.7359,-61.8434,332.7962,-142.9780,318.9326,-4.4133
-15.7244,411.4256,-60.3852,375.0387,1.4669,349.3238,-50.5151,449.6663,-38.1864,524.3329,26.0472,258.6936,16.2783,186.9598,-28.0920,305.3687,-136.8699,353.6023,-47.7463
7.4846,410.0294,17.4576,427.1462,64.7800,347.9886,-84.5108,491.8763,-23.3304,563.9069,30.3500,304.9266,64.5081,339.4379,-53.3699,333.5266,-130.3164,497.5296,-90.8881
-14.0888,409.6678,60.8032,537.8328,122.4098,445.0086,-69.7138,482.5856,-13.8631,503.0229,17.5339,379.9179,82.9341,503.5530,-16.9556,449.9754,-72.0314,682.9272,-116.3153
-16.5013,455.1686,33.4126,627.9683,138.0545,574.6462,1.5072,503.3820,-10.0815,526.1938,-9.6203,441.3345,64.1942,543.6289,65.2678,501.5403,-34.6078,777.3730,-95.1536
-12.3166,526.0773,15.6348,692.4122,93.2472,640.6211,22.5533,585.2804,-23.0052,605.3809,-43.4432,458.2142,15.4802,493.7753,63.6721,480.7079,-68.8370,772.1588,-41.3516
-11.7123,555.7003,43.5863,704.6512,15.3580,610.6544,10.7761,627.5250,-26.6007,583.8074,-38.2927,458.3085,-32.9091,439.4189,3.1690,529.8838,-72.1983,716.6992,10.5892
14.0268,525.1191,48.2467,605.5421,-37.5108,501.0451,65.3210,591.6702,10.3536,530.5054,-15.2231,440.1009,-65.1047,424.1464,-18.9936,593.2390,-16.3888,604.2695,57.4192
19.7362,444.8681,-5.5640,462.8943,-49.1704,368.0329,124.9251,554.8655,54.9268,555.8069,-51.3201,356.0008,-91.5824,434.7258,-17.6415,520.7409,-6.2682,475.1321,110.0457
-25.7344,310.0394,-63.1447,385.9949,-52.4646,287.0193,104.2706,582.3710,73.4809,619.6491,-107.6580,235.0864,-110.3251,400.9335,6.0595,407.3145,-53.7886,429.1356,158.4252
-58.6512,194.9327,-81.7582,352.9242,-67.0809,273.2280,85.9496,663.6923,83.6494,680.4122,-101.1883,187.9590,-108.0120,311.2379,78.6051,425.2864,-85.9398,458.1420,176.3687
-74.0488,225.9381,-83.5891,333.9702,-95.6270,285.0015,110.9216,725.7005,82.6923,713.8995,-88.2187,251.7476,-95.2456,266.2418,92.9408,517.4681,-91.4654,478.8042,150.0050
-105.7168,361.3377,-92.9796,381.2612,-135.9541,315.3798,87.3025,724.8381,55.6567,704.8141,-128.1217,338.8423,-95.2606,312.4447,-18.6208,545.5037,-79.9644,488.4354,103.0177
-90.8766,416.3855,-96.0315,455.7950,-156.9854,374.0179,33.5662,719.9884,43.2017,718.2266,-139.4866,352.6348,-104.6675,369.7018,-100.5206,523.8053,-58.1843,498.5160,76.4154
-26.7436,339.9237,-88.3669,424.4772,-137.7395,402.9563,41.5457,740.5903,55.1480,744.7816,-82.4464,278.4711,-97.1243,362.8829,-55.2812,526.9376,-71.4264,449.5211,69.7662
-25.8689,243.4428,-98.5023,284.9565,-115.9503,338.7649,43.4134,705.2469,23.1525,675.0645,-42.7513,163.6092,-71.8262,291.5010,-3.4151,533.5891,-115.6066,331.0012,48.3062
-60.4120,185.1330,-120.3562,170.0382,-114.2201,226.4540,-29.1028,606.9655,-39.2850,571.2571,-49.7954,68.2348,-65.5892,218.0872,-12.0296,477.0906,-107.3987,237.4623,21.1149
-14.9925,129.7476,-91.9568,157.9590,-82.7748,165.9916,-61.9397,545.4926,-33.8040,552.3503,-48.9739,45.0988,-84.4245,224.1347,-22.2934,377.8828,-26.9759,239.9843,38.3505
52.7080,91.3959,3.4544,222.1949,10.5770,186.5947,-6.4112,506.9579,9.5752,508.8487,-30.1982,111.5658,-74.3069,288.7519,-28.9042,330.2671,48.8296,294.3825,94.9723
60.0989,141.4014,88.3262,288.1197,106.2353,237.0990,11.3290,409.0896,-12.9313,370.4667,-13.4201,207.4085,-15.7299,303.8901,-47.2380,350.4482,63.0823,286.4882,123.8360
60.7920,250.8185,93.4095,281.5516,119.7468,255.9626,-28.6825,322.3544,-52.2857,305.1723,-0.9013,232.1008,29.7676,252.4316,-49.6017,351.5356,31.1589,172.1524,101.9664
54.4230,278.6694,41.1389,205.0313,45.5442,231.7413,-8.3972,352.7607,-13.1288,368.3318,-10.8795,163.6012,20.9756,194.4900,-46.7644,301.6447,5.9582,58.7929,72.9985
-3.6961,191.8878,-10.4339,143.1702,-39.4511,216.6356,76.8676,439.1298,63.4573,424.5339,-49.2752,79.3511,-13.7889,145.1041,-45.8038,257.5975,4.3013,45.6857,56.1754
-34.0416,114.1770,-47.3824,133.5445,-79.2092,249.0264,151.5216,479.6692,129.7562,443.8706,-74.3033,39.3407,-46.6931,122.5652,-12.4185,234.5902,-29.8060,59.5264,35.1858
-6.5344,79.1338,-85.8093,121.9091,-94.6225,287.0031,211.6328,470.2073,195.2899,456.5881,-65.6457,35.4730,-66.8417,146.6352,5.5287,206.5659,-117.9578,16.5569,25.3039
-26.9951,14.3849,-117.1647,86.8308,-107.5047,298.9150,227.3162,410.0840,190.6831,400.5921,-52.3713,59.2900,-60.3605,161.9265,-51.0317,193.8287,-170.0999,-11.2828,39.5386
-77.3578,-3.6058,-118.7167,83.0012,-103.3445,333.3244,134.2175,278.6199,68.2466,264.8270,-51.3079,112.7562,-49.1753,150.5465,-92.0772,207.6763,-123.5884,31.8059,35.7706
-55.8928,122.4676,-106.5081,118.6770,-99.0382,385.5056,13.8488,139.5227,-45.9358,144.5452,-57.1267,148.2148,-71.0612,157.5921,-68.1393,189.6044,-50.4475,59.2280,5.9846
-31.8888,200.6425,-120.8725,115.1789,-126.8095,345.1353,-8.3891,87.3521,-60.4234,97.4502,-70.1731,97.6927,-101.1718,124.3404,-101.1402,105.1177,-46.0967,9.5099,16.6303
-85.1965,38.9092,-160.8233,31.9434,-157.3843,194.7122,5.4532,97.5768,-54.2054,95.0004,-84.0669,-19.4166,-91.7544,12.2472,-195.3827,16.0787,-114.8689,-63.1519,68.4745
-124.9765,-155.9958,-187.7883,-71.6197,-146.2874,70.0894,-37.4503,82.6416,-66.7357,82.4174,-82.6411,-91.6290,-53.7239,-31.5501,-178.0744,1.5974,-183.4419,-93.4584,70.4952
-105.1706,-128.5938,-188.0531,-122.6592,-102.5129,50.6617,-57.4093,62.2157,-52.3878,74.0181,-64.6443,-53.2584,-24.2303,27.3700,-47.7883,54.4925,-182.9745,-53.6471,9.6200
-96.6143,4.2721,-183.6978,-94.3554,-60.0593,92.2187,1.5351,110.5417,-26.8778,140.7051,-50.3591,31.5491,-24.8265,8.4006,17.1455,99.3026,-141.1618,51.4653,-37.6477
-99.8722,50.7648,-185.8700,7.1940,-47.9796,162.0083,39.4703,179.6470,-1.2419,226.4447,-61.9677,76.5257,-62.0899,-66.8440,-14.7944,105.6172,-139.6226,165.9478,-61.7409
-81.5192,56.0532,-171.4215,124.4208,-61.1938,245.1863,17.2554,173.0626,58.8982,203.9574,-92.9478,91.1546,-97.5196,9.6765,-30.5433,114.9693,-167.5473,219.4311,-106.3801
-84.7047,82.8812,-128.1625,160.4072,-47.8212,283.1729,12.3912,126.4163,92.9973,139.5062,-115.6153,107.0445,-83.6857,170.4492,11.1792,136.9784,-164.0575,186.0789,-155.0388
-124.1179,72.3438,-101.6193,94.9935,-15.2527,249.9976,28.4787,107.7120,37.7405,134.6946,-131.9432,86.8381,-61.4415,183.1108,73.9994,123.7764,-155.6915,102.1981,-170.5949
-141.8125,12.0885,-127.6447,22.1628,-47.0376,198.5640,17.7773,70.4597,-6.9829,82.1516,-159.9774,14.6238,-93.6938,69.4288,113.8039,59.0692,-168.3632,50.4533,-162.2170
-110.5969,-44.0663,-148.0057,8.4352,-116.0069,173.1408,11.0115,-10.1648,24.3236,-47.6518,-176.1121,-34.7562,-137.6514,-7.2099,97.6806,-28.8503,-143.8815,57.7245,-147.3675
-56.5747,-81.6220,-109.3367,8.8809,-109.1455,166.9129,27.1328,-59.1482,25.4608,-93.6444,-159.4924,-16.2363,-131.1162,-19.9707,54.2611,-98.2356,-89.3124,30.8189,-131.8485
-28.4439,-97.5823,-75.9766,-24.0973,-68.6477,155.8864,6.6254,-67.1825,-49.1170,-66.9735,-145.5587,8.1637,-109.4759,-26.3361,38.6721,-90.9803,-90.8596,-72.1513,-117.4773
-63.3208,-77.0864,-103.7914,-55.6494,-99.7683,122.4104,-63.9334,-85.8894,-115.8596,-77.9655,-149.6370,-17.9244,-118.2538,-46.8312,29.4851,-16.0741,-127.6847,-134.3790,-83.3675
-118.7508,-35.0233,-134.4450,-48.8415,-141.0265,78.8941,-122.2078,-78.1419,-146.1969,-46.6997,-136.9842,-57.9690,-138.6649,-41.4003,-8.9302,7.7017,-116.6770,-109.1904,-26.9954
-117.7962,0.4789,-134.7353,-39.1473,-131.6588,52.6290,-134.8278,-25.2035,-156.3302,18.8398,-114.5465,-59.2306,-153.5809,27.6680,-33.7152,-59.0217,-84.4633,-126.3356,-5.0709
-74.7635,0.2891,-151.8789,-69.5892,-165.0480,25.0388,-118.5450,-33.6320,-132.6768,-69.7438,-120.6996,-43.1906,-166.5159,67.1609,-23.8472,-102.8215,-84.3441,-238.1632,-37.2444
-59.9875,-62.5589,-181.3980,-124.8909,-258.6130,-45.7249,-101.9288,-136.2136,-101.8472,-245.4088,-141.2171,-65.1461,-170.0495,-46.6125,-37.6817,-93.1376,-83.3235,-341.0081,-52.1888
-89.8641,-144.2180,-180.8145,-184.3924,-285.7661,-153.0747,-104.0155,-221.1582,-97.7138,-293.3553,-148.6861,-118.5371,-163.0246,-216.4165,-85.0323,-133.8307,-65.9018,-387.6874,-20.7506
-121.5865,-166.1950,-159.1695,-258.6362,-202.3543,-258.6949,-115.4282,-258.4593,-97.8265,-291.5429,-137.9050,-153.1367,-138.8429,-257.8296,-98.0507,-232.5444,-72.6711,-411.5054,-16.7697
-86.3680,-159.0585,-107.5908,-320.8503,-63.1451,-326.9229,-132.0252,-332.9076,-123.1201,-371.9560,-78.2100,-173.5656,-71.7359,-203.3324,-57.2246,-308.4236,-80.9839,-405.5606,-78.9848
33.5956,-196.5373,-2.0960,-310.1231,85.1351,-329.7526,-174.5836,-446.1225,-205.8518,-439.2193,27.9739,-218.0187,13.1907,-191.2867,-12.1842,-371.8688,-22.1607,-369.5347,-149.1530
128.1686,-236.1895,82.3160,-250.5108,166.0958,-296.4923,-211.8458,-510.2869,-247.8280,-443.1085,85.5828,-265.0934,45.6418,-237.7449,6.6655,-440.2372,69.0135,-345.7571,-179.4675
101.2572,-227.4192,75.5921,-235.8048,137.1394,-298.4143,-181.0724,-493.9925,-173.2095,-442.3424,55.1916,-278.6402,31.9613,-296.9742,11.0589,-431.9547,75.2086,-333.7931,-175.7957
34.3970,-230.1133,50.6158,-272.5468,99.1528,-327.6667,-119.7330,-444.4275,-91.0771,-422.2314,26.6105,-279.7911,40.8500,-336.4482,17.5845,-335.4656,-12.2404,-306.0000,-141.1494
23.9366,-255.4119,65.0265,-282.3832,130.3905,-315.0786,-110.4372,-413.8167,-89.9354,-397.5836,34.7505,-278.5573,70.6387,-317.0029,22.9692,-273.6139,-60.1488,-271.6344,-90.4096
16.8267,-214.3756,50.2920,-245.4361,144.0274,-261.5667,-136.3089,-392.9732,-104.4760,-399.5208,0.6117,-251.2903,62.8159,-241.6610,15.3213,-283.8065,-4.9494,-234.5571,-76.8980
-33.0939,-119.0381,-19.2006,-201.4227,69.3824,-207.0211,-133.4697,-315.7185,-72.5551,-315.3317,-91.3715,-223.2566,6.7567,-161.9146,12.3844,-258.9023,50.4035,-185.2980,-97.5470
-68.4804,-84.5136,-63.1470,-156.7458,-10.4554,-149.8320,-70.1977,-184.1104,11.5982,-137.8228,-158.3353,-224.0908,-51.7955,-122.9483,46.1191,-172.4209,30.8376,-148.9910,-62.4275
-58.3139,-135.4721,-34.6996,-106.5556,16.5001,-106.0315,52.1209,-122.2463,117.9451,-94.3081,-148.4351,-213.0061,-51.7359,-160.6169,97.6339,-139.3588,0.4403,-143.3896,32.5950
-20.0266,-214.0292,35.0410,-89.2858,150.0015,-115.1381,132.4258,-195.0686,127.5284,-221.3868,-68.0856,-187.0002,30.2829,-242.9960,123.7838,-198.7833,2.8548,-145.6723,56.0849
38.5651,-277.1507,89.9063,-136.2510,271.2921,-156.6353,59.8062,-290.0898,-6.7553,-292.8177,36.8502,-215.7434,119.4464,-254.2735,130.7028,-248.9149,-1.9814,-150.2398,-22.7200
73.5503,-280.8835,93.5012,-208.6385,273.3655,-196.0628,-42.6401,-301.4792,-97.0115,-263.9344,79.6294,-282.3730,118.7547,-194.3991,131.5638,-243.9715,-8.7911,-166.2977,-66.5784
43.2605,-231.8773,77.1952,-239.2379,201.4628,-253.3318,3.5791,-285.0689,-23.9062,-280.8485,41.1675,-298.3332,59.5631,-215.4633,103.8847,-243.0949,18.3979,-170.0884,-32.7172
12.2916,-231.4093,90.1430,-223.7929,163.8292,-326.5669,71.2845,-318.1481,34.6949,-354.8459,32.2003,-277.8755,43.2496,-336.6591,65.3590,-254.7928,39.6766,-146.3247,-30.5755
45.3891,-301.5758,103.5649,-213.0211,159.5188,-361.7475,-21.2215,-361.5829,-49.3381,-398.8272,107.1312,-284.2025,69.7332,-399.0330,69.6222,-249.0455,19.2893,-120.6900,-81.8841
82.4196,-319.7039,88.6739,-203.7060,152.1816,-339.6353,-150.1611,-360.0301,-149.9817,-389.9213,152.5448,-292.1427,68.5773,-347.1146,96.3577,-261.7500,14.8669,-104.5254,-113.3413
68.0499,-243.4565,96.0342,-143.8246,166.5265,-298.1417,-176.0212,-341.4573,-176.9229,-345.7891,93.2121,-270.4336,21.5849,-289.7724,88.6813,-298.4609,67.6204,-88.2259,-135.8426
48.7015,-169.2902,126.6996,-74.3063,170.2996,-286.3798,-175.3700,-345.9791,-166.4682,-308.6241,18.8364,-251.3445,-50.1476,-306.6552,57.7307,-288.3409,113.2745,-98.0616,-172.5287
44.1723,-138.9536,99.6639,-100.3502,81.4602,-321.9374,-161.9908,-359.0414,-112.1623,-313.9806,5.4385,-238.6273,-116.1541,-350.2903,23.0840,-239.1110,73.7663,-169.8761,-154.3695
12.5754,-123.2230,24.9446,-196.2304,-49.7877,-350.8065,-80.0514,-341.5318,-40.1276,-314.5121,14.0932,-205.0260,-128.8523,-312.1440,-35.1400,-209.4815,-22.9517,-261.0526,-68.5829
-18.2683,-115.5984,-2.1143,-232.9650,-111.0728,-304.7993,-47.4449,-268.8584,-61.2264,-261.8031,15.3208,-165.0186,-93.9818,-176.0818,-84.8240,-156.7378,-57.4762,-271.7747,-7.4724
18.3105,-75.8195,22.2175,-180.8804,-124.7735,-211.5829,-142.0667,-166.2344,-154.1909,-198.9576,28.8477,-126.4173,-80.5965,-55.0618,-64.7933,-56.3925,20.3738,-184.3173,2.3874
69.2933,34.8415,25.8606,-100.7487,-152.9412,-134.9748,-198.0256,-93.6612,-173.1821,-141.2156,44.3713,-58.2764,-81.0933,10.6322,-14.3636,1.2936,86.6753,-101.2258,22.5421
26.6428,108.3847,-10.9068,-23.9911,-148.3811,-61.9906,-110.9097,-28.5962,-89.8894,-13.7468,36.2356,29.6979,-18.7624,106.4340,-11.7841,15.9541,10.0567,-87.4537,88.2589
-79.5490,37.6123,-60.3061,19.8579,-74.6905,27.7778,20.9158,116.5605,22.5412,178.9919,8.7988,91.9280,69.7790,217.4778,-29.2440,102.5336,-133.8931,-75.3931,189.7545
-126.9252,-43.3938,-90.8958,6.8785,-4.1493,102.0751,113.9656,276.9824,107.2535,288.2299,-23.2840,131.6128,77.6541,255.4542,5.0678,249.6143,-168.1004,2.4424,265.9113
-82.6168,52.6315,-68.8955,14.9662,16.8682,161.6445,124.6113,284.9356,100.9138,239.0092,-23.0284,181.3928,38.5973,283.1766,70.0265,335.0892,-64.9743,119.1737,222.6361
-2.2615,249.8267,6.1315,140.4918,41.4536,237.8654,28.5339,194.6449,21.2635,167.0376,54.0455,244.9490,63.2088,375.1819,86.3668,328.9003,45.4752,245.5006,77.1393
60.0391,340.2489,81.5455,330.6766,100.9061,313.2458,-52.5750,211.6832,14.3266,210.7900,151.7467,314.3647,129.9072,436.0704,47.5031,298.8647,64.7868,377.3102,-28.9042
67.3235,312.1099,112.1008,454.6309,147.2213,364.4670,-6.0035,327.8612,91.9839,322.1833,151.7235,380.5680,145.5645,412.7928,33.1834,324.1847,37.6685,461.9579,-36.9155
41.1317,320.5906,106.0968,471.3182,148.3418,397.8249,42.4157,396.2918,77.3668,406.9475,73.1006,416.7734,115.6371,391.0236,67.6001,415.0312,64.5439,456.9519,-22.0408
60.3563,409.6463,92.9138,426.2136,123.7008,400.0065,-30.6493,405.6124,-44.4854,438.0332,47.9941,412.5930,103.1668,394.5329,56.4389,450.1922,127.8760,418.7377,-33.8089
110.0039,468.9091,77.0087,376.7208,80.6849,379.0857,-111.6195,382.4926,-93.1354,374.9671,96.6392,399.0436,120.5142,393.3581,-33.9024,350.5295,117.1508,408.4980,-49.0641
83.9161,445.3312,48.8085,362.8623,26.3805,396.8759,-86.4532,312.7566,-28.9003,257.4223,123.4365,400.6365,139.9186,410.4686,-80.6483,256.2061,44.0467,404.2471,-37.2477
6.8576,402.4879,23.7777,379.2844,6.7883,451.3220,-15.0483,283.2258,38.0755,266.7997,92.8681,411.6700,134.3337,426.9890,-38.9360,284.4559,31.1752,385.5256,5.2162
3.1497,380.1713,23.3087,388.9066,27.7496,466.8154,17.6536,348.5767,58.5214,390.6104,59.4252,431.6699,100.5761,399.7705,-41.2191,330.3229,84.7126,386.3478,31.7912
57.3073,391.1976,29.4377,384.7002,22.0034,444.1031,-7.0653,368.8202,27.9669,377.4902,81.3509,460.5114,74.5732,378.7025,-116.7178,332.9892,126.0168,410.6129,-2.5457
79.6253,479.4480,18.6698,381.6549,-27.6069,435.6008,-59.9656,297.9218,-31.7014,247.4323,152.1431,470.1050,78.8903,394.2138,-128.1836,385.5467,166.5891,394.9124,-46.1643
85.9395,578.8516,9.6531,371.3871,-60.8335,416.6415,-69.8743,302.1820,-21.6831,276.3675,182.8520,447.7770,76.9483,402.8146,-65.0940,461.2816,208.9193,308.2911,-27.0357
100.8400,521.1688,24.4230,352.2589,-51.1705,365.9747,4.0129,395.6069,88.0295,427.7234,124.8759,428.7088,48.4173,423.8236,-35.6767,433.5516,172.7807,227.6825,25.7024
95.7061,365.5349,53.5792,350.1913,-11.2465,356.1337,119.0361,405.9333,180.0027,447.2909,80.9358,424.8772,38.9324,461.5423,-17.8471,350.2267,100.7744,235.9150,63.2845
100.2642,367.3872,79.1329,361.0760,45.4024,412.9974,206.3929,327.7468,189.4893,354.4641,130.7856,396.7552,67.7565,416.9780,29.2695,338.5196,136.2112,281.2112,93.3093
138.9939,508.0627,85.6408,351.9197,68.5175,441.3260,218.7048,293.0638,170.0824,313.0795,171.9433,345.0703,85.5178,314.5493,9.3461,366.9458,225.7962,266.2101,107.6205
142.3418,521.6266,80.4705,341.8339,34.9653,394.4299,166.4562,327.1181,152.5759,342.8141,129.6628,323.9539,68.8143,307.8426,-71.9239,350.2337,204.3322,237.7706,99.4553
102.1215,391.5797,107.0845,381.6402,23.7358,360.2604,126.6551,390.0701,136.3285,405.4694,103.3962,335.2218,56.5855,373.5249,-42.5905,320.2245,121.6702,304.4542,114.6069
102.0327,324.0628,163.3891,445.3423,72.5531,408.6431,120.8811,441.2174,125.2314,438.3798,143.5053,330.3387,78.5235,394.2768,94.3047,336.6146,127.8624,421.5863,144.8966
132.2397,349.1760,176.1669,456.4288,107.6271,483.3082,86.9008,417.8431,95.6192,376.0171,164.5482,312.5385,122.1863,417.1302,151.2581,364.2724,191.8347,465.1147,113.7998
130.4292,374.4716,141.8124,425.2454,114.6730,498.2235,42.7172,340.1031,58.0497,310.5572,149.1712,325.5633,155.1284,469.5162,106.4090,344.7871,219.9744,438.7221,32.6851
128.3406,404.5354,143.5807,433.7588,139.8796,450.3713,56.3772,305.1914,68.8245,338.5824,152.0432,370.7859,147.6229,434.3192,69.6359,312.6537,220.7495,425.0506,-20.5566
146.5268,423.8244,174.1093,476.6454,137.8936,393.6781,79.9325,316.1871,104.5631,356.3872,142.9433,404.7177,108.5663,327.2977,25.4589,332.9521,185.8410,428.0362,-39.9312
122.6474,346.6172,142.2267,451.8334,73.6466,359.9956,65.1582,322.7735,106.5106,316.0311,78.5961,384.5043,82.3819,301.0118,-52.3278,368.4582,81.6876,396.5447,-45.0666
50.4700,210.5641,54.7107,330.2912,26.3871,344.1823,66.2701,334.6649,92.8233,314.5600,11.4492,314.0811,75.3055,349.9491,-59.4230,342.1824,-5.6444,325.5297,-28.0188
-4.9352,156.9389,-7.4801,212.8374,16.6415,330.5200,60.2283,336.1606,60.0799,311.7978,-4.8376,260.4811,48.5606,359.7716,20.6890,271.0247,13.4222,260.5649,-24.9553
-17.2093,214.9501,-28.3342,185.7572,-18.7342,302.1283,-25.9355,290.8062,-22.9018,243.6173,19.8282,264.4649,6.1253,295.2856,37.5130,206.7002,56.1185,234.1085,-69.3500
8.4396,283.6684,-24.9889,212.7561,-42.7381,245.0298,-107.9513,247.3217,-81.9656,228.9100,59.0868,265.1553,-7.2078,156.5743,-50.9305,159.3325,28.8646,220.6170,-102.7232
55.3585,273.6273,8.0717,206.4779,5.6338,166.7320,-103.5571,230.8889,-71.8841,273.8049,77.1278,206.6734,5.1292,4.7679,-111.5812,147.4356,-12.5075,170.4955,-79.7188
73.7065,196.1953,44.0849,148.1446,55.4433,104.9174,-99.5462,180.1260,-83.9105,224.6076,49.1612,137.3509,8.6892,-7.8095,-88.6839,163.2750,-8.9247,82.2968,-40.8543
44.6328,146.1586,37.3746,92.3204,53.5443,94.2149,-110.1492,122.1143,-102.9664,147.3657,8.2229,116.2375,11.8212,110.9802,-58.9270,137.7608,10.2529,1.8667,-0.6654
11.6578,165.4984,6.6712,79.6319,67.8982,118.8245,-27.2938,154.7142,-12.5054,199.7133,-6.1570,131.2078,30.5343,157.5730,-50.3133,85.7647,25.4712,-21.4678,74.4888
-0.3693,169.8282,3.3544,102.2107,119.2427,139.7743,100.0186,244.0882,103.7573,284.3386,0.1763,154.3773,43.4881,104.4496,-23.1570,102.4034,30.8605,53.2349,168.8163
2.8907,117.5977,23.7033,151.6585,138.3447,173.6115,138.0837,281.3743,106.8870,266.7196,18.4966,180.8699,44.6321,117.8089,11.7083,154.5776,10.1340,216.0615,232.3852
23.9854,119.4765,31.6004,226.6172,112.2137,255.4368,130.8061,245.7251,89.8589,193.0856,42.0820,212.9712,57.9626,190.8223,20.8926,148.9934,9.8467,364.6136,253.2221
41.5923,229.9227,34.0847,287.4267,95.1761,326.6038,169.5271,180.3938,144.0486,127.7717,49.7466,243.0209,79.7151,190.6353,34.7779,131.4752,68.9351,397.4995,245.8746
28.9350,313.9806,62.0803,285.3327,111.7246,301.4021,218.7142,144.1493,181.6301,114.4168,55.8694,234.0789,90.4877,151.8200,76.4105,150.0703,96.0261,330.1570,220.7742
18.2680,263.5836,92.2582,231.1205,135.5928,223.1734,243.7582,181.6337,181.5832,183.6655,89.8988,169.4268,100.6161,159.8226,86.0253,137.8309,33.2599,244.7186,176.3907
37.1539,149.6207,68.6012,162.4671,127.5739,181.5206,260.6195,252.0512,199.6372,248.5346,118.6525,117.3529,114.4610,158.7391,39.0670,105.5914,-11.4495,178.2880,103.9484
43.1376,67.0627,5.1124,86.3148,89.3779,147.2401,233.4407,281.7919,175.0496,244.8136,109.5727,130.1294,107.5715,111.9738,21.5526,138.4674,10.3281,118.8228,18.2258
16.0256,25.5853,-23.7563,18.7658,69.6050,73.0914,124.4978,257.3468,77.0705,229.1037,102.5728,149.6811,76.2989,101.0337,53.0131,170.4115,-2.0225,69.4475,-51.0233
4.8235,27.0795,0.1876,2.3649,75.7697,23.5201,-15.7490,161.6869,13.7410,147.2619,117.4960,134.4263,40.2626,144.5845,10.8550,98.1555,-51.8175,63.3288,-109.7046
23.8588,67.7431,23.0361,26.7976,56.7440,32.2781,-115.6942,-16.8193,5.8350,-72.8205,113.7303,121.1219,3.5903,135.2553,-119.6830,16.8516,-34.1569,91.9072,-171.6224
20.8821,83.3863,11.4271,27.4229,17.4939,11.6565,-161.8459,-164.5266,-35.9328,-217.4945,79.6020,98.6453,-26.4817,15.9537,-172.0249,41.5883,28.0725,72.6892,-204.8052
-17.1371,38.2038,-10.6913,-7.5632,22.6698,-66.8431,-173.4976,-166.4406,-92.3253,-116.6315,36.3972,34.0598,-34.1991,-102.7449,-109.7140,73.7921,39.3788,-22.0187,-176.0282
-23.0834,-15.9821,-2.3477,-31.8692,59.0699,-107.8649,-142.4780,-99.5717,-71.7530,2.0526,-0.9502,-16.6297,-40.3495,-75.5819,-85.3741,-9.6837,23.6572,-91.4942,-99.3934
43.9235,-57.1044,44.7973,-39.0498,44.1948,-81.7802,-41.4854,-90.7647,20.2918,-51.1420,-1.2289,-18.0018,-73.1150,39.3485,-121.6514,-126.6288,43.9442,-80.2964,-16.1584
114.9058,-111.6204,89.0124,-56.7302,-16.0935,-69.3353,94.1117,-128.2913,109.6424,-120.1031,32.0924,-26.1458,-98.6610,30.0151,-110.5941,-147.6907,80.6823,-70.7597,29.2348
110.2840,-128.7013,94.4768,-73.0106,-26.1467,-95.0693,176.5558,-149.7041,149.6269,-94.9790,25.2287,-51.5844,-68.0156,-122.4008,-79.3509,-110.8324,106.7402,-103.4648,31.0826
77.4743,-46.6630,89.5562,-67.9675,28.4413,-105.8863,183.6270,-137.3405,136.0310,-73.3309,-15.9021,-61.3139,2.3207,-211.7430,-80.4498,-105.0374,151.3310,-121.1520,43.4960
108.2821,50.1275,114.0780,-61.2040,52.2544,-92.7791,154.7197,-90.6307,89.3759,-80.1364,24.4191,-79.7240,68.3682,-177.4539,-14.2823,-112.5875,231.4063,-117.6393,85.3227
169.5061,47.7763,151.2234,-54.8897,15.9031,-77.8116,114.2352,-44.2852,50.4707,-64.2676,140.3239,-104.0351,117.7366,-142.0085,131.7464,-117.1717,272.4395,-114.5746,99.6651
171.1430,-23.8257,165.4832,-22.7567,7.7095,-42.9270,107.6511,-62.2802,79.4224,-63.9711,185.7342,-81.8734,143.1464,-106.3833,186.0832,-160.3024,180.8835,-73.5231,76.1220
135.5305,-65.0383,155.4913,11.6962,56.3271,9.3386,159.1140,-140.2346,167.8699,-112.3177,139.1662,-43.8652,126.4426,-16.6080,105.9860,-196.1927,47.2836,-4.6687,53.5175
137.0092,-1.4803,141.8123,16.9139,68.3019,26.8952,148.0319,-198.0366,164.7402,-146.2601,112.4034,-33.1892,75.4805,23.0554,22.2929,-151.4683,83.9752,26.2445,-9.5900
156.3634,189.1637,130.7398,46.4902,-5.1834,20.1526,-23.7257,-179.6965,-18.8817,-116.7892,114.8802,9.5977,16.9375,-31.7519,-16.6550,-103.6003,235.8666,54.0779,-149.6096
133.2542,376.0167,91.7221,126.2463,-102.7889,58.7162,-211.7456,-99.3219,-212.5939,-55.5896,66.0351,86.5995,-44.4947,-24.7390,-28.5716,-114.5971,208.6908,127.8814,-258.2739
80.1940,363.9637,6.2849,147.3862,-162.3423,117.0378,-251.4072,-19.8457,-245.7742,-21.0364,-20.0775,93.9293,-101.5181,77.3957,-3.8152,-79.4061,12.8317,163.8661,-244.1827
51.1637,211.1704,-55.2773,57.0479,-155.9019,102.5527,-209.6582,-7.9199,-203.6514,-44.5493,-58.8581,44.0141,-114.2384,102.8192,-6.8343,19.7167,-30.4242,123.6168,-179.1450
63.7737,159.1099,-17.0295,-11.6710,-75.5477,34.4033,-197.1616,-64.6061,-201.8435,-99.9794,-39.3659,45.4624,-78.9698,23.8547,-99.0585,45.8267,109.4385,116.4582,-133.4743
93.6819,217.0383,63.6055,29.6771,20.2513,9.0703,-193.4699,-107.4192,-207.6875,-108.2127,-23.6421,78.4700,-65.0970,0.7994,-177.3411,-2.0380,146.2457,171.4984,-75.4659
99.9888,198.9870,90.3116,86.4823,49.7494,39.9917,-169.2003,-70.3182,-199.4702,-31.9695,-44.6699,62.2000,-100.1320,75.5917,-161.5978,-20.2052,19.2811,198.7466,3.5579
58.3791,100.0278,74.4170,91.9043,18.9115,84.0034,-133.8084,-3.6955,-192.3813,35.8751,-79.5975,27.7304,-120.0940,126.0844,-145.8743,-28.3098,-65.9583,201.1496,71.7139
0.4222,64.6883,53.8491,106.8611,-15.8009,129.1960,-74.0746,-1.1932,-151.7940,-5.6255,-107.9807,35.7581,-107.1474,86.4751,-173.0401,-54.6904,-13.6076,240.2475,136.6371
-10.1890,122.0255,29.4580,161.3299,-32.7584,166.2858,-11.5522,-45.8263,-97.7781,-76.8425,-120.5774,70.7554,-113.2496,34.0089,-158.6985,-55.0367,99.4113,284.7838,195.4255
37.1521,198.7564,42.3130,216.8310,-21.9294,183.9204,-12.4984,-46.9407,-104.1500,-46.7506,-79.0475,93.7755,-108.3983,55.5819,-100.0106,-54.0496,160.7578,291.4326,207.8071
81.3463,228.0318,105.2507,248.6687,7.9842,191.0586,-51.8448,6.4840,-116.0775,36.0738,16.3932,86.9752,-31.0952,98.2661,-65.5074,-58.9490,96.2451,267.7000,189.6603
66.8876,175.5934,108.3564,223.0013,-5.3010,166.7722,-5.1863,85.3234,-18.8890,97.2736,56.8911,56.6415,39.0366,52.7914,-37.6176,9.9244,-34.2961,199.9115,193.1888
-3.3251,100.1825,-1.1750,122.0428,-73.6166,93.7551,159.2044,208.5437,146.2899,202.3897,-12.7243,40.9425,19.5388,-28.2910,23.8963,92.1330,-83.4090,111.2470,189.5327
-81.5027,101.1719,-96.8229,39.7303,-89.4244,54.9574,284.0085,326.9012,232.7628,322.1551,-66.6049,73.3909,6.9012,4.5561,84.1743,70.6008,-40.3225,104.8573,112.2517
-106.3153,150.9468,-80.7095,69.6158,8.8670,123.1110,223.1723,322.5475,181.2729,305.4297,-15.2193,144.5890,72.5459,142.3975,106.6811,72.9620,-25.5278,188.6391,-7.9837
-59.3527,166.8408,-14.6220,148.6028,109.1494,224.0036,80.5954,242.1627,77.7585,216.3272,42.4331,218.0801,111.1952,262.8901,116.7199,224.6816,-71.5040,240.8388,-71.7198
-4.9063,183.9113,14.6053,186.2445,79.8942,279.4315,60.8983,239.6072,47.2442,228.7884,32.8058,259.0197,75.2164,332.7888,148.5964,360.2962,-106.3009,228.8770,-50.0777
-13.2555,235.9259,-18.4843,201.3755,-44.1925,321.1833,137.2466,286.0856,94.8421,271.4890,14.8559,266.7402,59.2181,370.6456,175.8287,363.3614,-94.0452,228.8398,-5.1843
-69.0777,238.0235,-94.3554,208.5744,-131.0892,352.9771,134.5524,269.7321,121.1719,239.2366,7.3453,278.3520,78.1454,372.3232,142.8459,361.5294,-70.2180,241.6678,15.3363
-122.9433,176.5935,-147.8549,183.8616,-134.3075,333.9808,44.5691,247.2033,96.6406,251.5199,-23.9391,308.4311,61.2471,366.7761,75.5572,410.0693,-91.4222,225.2719,25.2371
-160.7136,177.9529,-137.8920,182.6632,-106.3185,319.9801,-21.4134,301.1545,68.7096,367.4923,-51.8939,339.7151,17.4252,382.3738,55.5636,443.1860,-160.7309,222.9362,37.6975
-170.4937,271.2139,-119.6773,260.3110,-84.4563,377.0791,-38.5116,375.6061,48.3061,459.9944,-61.8144,380.7250,-16.9361,397.6920,78.0305,479.6397,-200.9635,273.5787,31.2760
-144.0587,339.9634,-143.0574,338.9748,-73.2076,437.1936,-34.8333,425.5289,33.2438,489.4273,-92.3945,437.9841,-49.7179,416.1575,91.8853,538.1035,-166.1814,329.2413,-5.2230
-120.3369,349.6912,-158.5638,358.0514,-83.9270,437.7213,-30.4119,483.9550,29.8049,528.1336,-124.4074,472.0490,-59.8605,452.8602,106.9440,561.0303,-112.9693,369.6539,-46.2479
-129.6487,374.4487,-120.2767,391.1491,-97.3759,438.5998,-41.4594,553.0316,19.3938,590.0309,-121.3064,464.2247,-30.8073,466.0288,113.7547,546.1080,-96.3665,431.9882,-55.6857
-141.0172,407.5220,-69.0334,462.4511,-72.1085,469.6738,-24.6515,603.8146,24.9578,637.7973,-119.8803,437.8911,-12.4898,434.9249,88.6711,523.9597,-112.3442,489.1504,-27.7615
-122.8580,372.6420,-41.6527,480.8893,-29.9125,461.0637,45.9283,612.5602,78.7469,618.6012,-119.1841,397.1366,-15.8514,390.3716,116.2918,485.3428,-144.1480,471.5916,-14.1057
-73.9082,297.9976,-6.0060,438.3158,-6.3593,391.8678,57.4828,554.2585,86.4927,515.4467,-54.3410,357.3579,11.1019,346.3898,224.5585,451.5265,-143.4722,399.7942,-69.0084
-0.8718,286.3934,58.2312,424.1284,34.5227,333.3699,-54.0809,450.4633,-24.8516,414.3817,45.0029,368.9671,58.9628,345.7511,244.3087,435.4739,-51.1746,351.1790,-148.2370
60.0168,349.4489,105.2183,443.7853,90.8992,329.3067,-155.8120,354.7669,-129.2251,357.8022,89.3359,421.9962,74.4375,426.6693,118.1962,383.0500,86.9725,345.2964,-155.5495
71.3003,425.8601,106.0326,442.0317,78.4652,357.6765,-147.6600,277.7659,-111.9599,280.2817,90.9568,453.3265,55.7029,475.0506,27.9545,310.3294,163.9927,358.2178,-93.8481
64.9745,481.5576,102.2321,425.4724,10.8404,393.9694,-84.3433,234.0208,-30.9495,225.3242,106.6984,456.8444,29.9167,397.2857,50.3789,308.7974,159.7171,367.1423,-41.8534
78.2914,463.6890,111.5931,399.1662,-4.9716,419.5500,-34.1869,252.2240,20.2991,271.8966,125.9125,441.6614,29.8821,333.0372,94.9242,362.5001,112.6512,328.2265,-11.3096
76.9668,318.8777,81.4391,318.3235,8.1006,388.4211,-53.1382,272.8615,-25.1150,285.6194,113.6831,371.7426,74.3633,360.8058,138.1753,379.4954,47.6811,209.8250,33.5213
34.8799,159.3647,-0.8798,195.3899,-54.0113,275.8654,-145.4290,225.8234,-148.3624,175.0389,52.5269,270.4156,95.3033,314.8045,164.8584,333.5599,6.2040,65.3176,78.5460
-29.8200,153.5713,-81.6156,94.5713,-151.4103,145.6414,-170.5824,167.5099,-169.0520,118.8142,-58.2158,229.7775,19.8834,162.9734,122.0718,244.2732,-2.3954,-23.5666,98.5028
-124.0466,210.0606,-157.4242,1.5791,-170.8900,67.0213,-63.9477,162.8024,-33.5393,201.3044,-184.9947,254.9794,-76.8120,93.5156,88.3436,159.8201,-52.9183,-60.4133,111.8828
-240.8128,123.7841,-258.4343,-131.7117,-117.7296,8.9860,19.0869,181.4297,35.9288,262.3796,-291.1351,271.9048,-93.3175,133.3506,135.4780,142.7144,-158.6257,-97.0436,134.2077
-305.2701,-22.2772,-327.6975,-241.5667,-63.3209,-53.2925,32.4272,197.5078,-1.6123,234.3860,-352.3511,271.5194,-67.2321,167.4821,137.4751,155.6936,-204.8172,-119.7460,156.6377
-277.0872,-27.3469,-286.1778,-220.1698,-26.1460,-41.3978,100.2307,214.7638,60.6133,203.8525,-323.0406,283.7790,-52.7969,196.5485,35.2120,118.5934,-148.6969,-75.9871,178.6532
-206.0371,32.9014,-174.9208,-98.5743,-3.5951,57.6204,160.2675,224.4359,143.9994,210.3926,-217.1224,279.2944,-30.7384,210.7233,-41.8822,86.9328,-97.2879,11.4038,196.4897
-149.4484,8.5078,-105.3711,-16.9490,-22.1044,112.5690,85.7842,223.0989,36.9789,206.2976,-167.4217,229.3312,-23.4415,133.7841,-61.0381,134.2437,-116.3551,54.9934,187.4382
-140.9845,-26.4241,-123.8320,-32.0895,-94.9999,79.1152,12.4647,176.8777,-76.6998,103.3027,-237.7624,173.7319,-80.4210,38.9935,-79.4873,170.9938,-151.2854,18.2058,154.0281
-189.7690,-11.7953,-183.9043,-77.5429,-168.9021,62.8553,63.1982,62.2243,13.2475,-63.1116,-315.5240,139.9471,-163.9609,42.9285,-45.9815,116.6103,-154.6696,-55.0141,143.3021
-242.2477,-41.7248,-210.3201,-99.6848,-167.4248,87.4481,118.3940,-1.8522,110.2288,-63.8128,-313.1150,97.9494,-205.7177,82.3975,54.6432,57.1349,-141.1191,-106.7302,184.0206
-240.3227,-98.0015,-182.1645,-107.4354,-98.1202,80.5753,125.1343,82.6954,67.6594,131.8304,-272.8621,55.5147,-187.3145,82.9418,119.5283,69.4639,-131.2534,-102.8570,242.2497
-207.3717,-68.6175,-144.4935,-92.3309,-41.9680,59.2591,151.7804,190.9712,31.2728,238.5510,-234.7753,75.7451,-120.5526,78.9595,119.8002,106.5177,-132.7088,-41.1911,270.4484
-186.2858,6.2598,-125.2816,-26.6183,-29.4650,78.0926,142.5324,222.3319,33.3016,203.3255,-199.9124,151.9428,-55.9120,71.6656,85.8296,133.8272,-149.9137,40.0698,257.8853
-179.1550,57.0579,-115.4605,59.9347,-36.8418,108.4768,51.6373,242.9205,-27.2946,218.5698,-184.0281,197.5263,-58.5535,61.8847,8.8662,183.1060,-177.8678,98.5302,204.4320
-198.2211,105.4487,-133.7825,101.5002,-75.9727,118.0192,-4.4586,231.3062,-100.7583,201.8382,-191.2506,177.9852,-123.3888,97.0548,-60.3624,238.7465,-206.5638,119.4777,112.7764
-254.2812,87.4094,-195.1118,74.3456,-156.0393,104.5828,23.1018,152.0945,-102.2795,64.5964,-214.7153,122.3766,-202.3487,119.1397,-55.1412,228.7662,-226.0924,84.4473,34.0694
-301.9200,-45.2959,-245.9250,3.8810,-218.0338,42.0253,53.7729,169.3116,-61.6089,67.7825,-263.5733,48.3902,-265.2710,56.8693,-24.8646,160.5190,-226.6604,-8.3035,24.9658
-304.8638,-112.5629,-244.9586,-56.7432,-215.6362,-47.4994,66.6973,318.3332,-17.0299,255.2736,-323.3614,-11.4549,-277.2010,16.9078,-19.4730,137.9094,-220.6422,-79.6963,55.3415
-293.2642,-25.1434,-232.1501,-59.7545,-186.4282,-79.2824,79.4358,382.0009,16.3239,331.8185,-359.0275,-16.1275,-244.3831,61.1189,-33.8492,195.9438,-235.5167,-58.8845,68.0423
-283.8861,12.9346,-239.5125,-25.2881,-189.2783,-51.3990,72.1308,359.7573,28.5505,323.8537,-351.8408,4.8707,-242.6838,74.2724,-98.7970,246.7276,-255.8926,-2.7815,77.0885
-245.0212,-49.7513,-239.3444,-8.8481,-228.8430,-23.7299,57.0375,424.1071,29.2450,413.1551,-284.0709,20.8719,-268.1565,61.4378,-174.0960,242.2914,-243.8823,16.0051,100.1814
-195.4302,-16.0310,-221.9507,3.2319,-258.5867,12.2265,52.3701,469.2812,-7.9322,429.6245,-196.1107,70.9221,-238.0351,135.3746,-152.3353,239.2588,-232.7080,27.4430,96.8054
-220.7327,73.5691,-225.5597,47.5174,-255.5147,54.4305,24.4091,356.6195,-91.4708,282.6151,-213.2563,124.9286,-206.4506,200.4815,-118.6004,259.8287,-277.9604,51.2741,40.8867
-318.3919,17.5095,-264.3491,80.8184,-263.5579,35.0465,-30.6360,226.1312,-123.9459,175.2952,-334.7489,84.6013,-284.3885,124.7312,-208.4150,246.2103,-325.2188,47.4445,-57.2386
-351.7202,-76.8538,-289.8671,62.7503,-294.8591,-24.6583,-73.5880,134.9860,-83.6944,92.7743,-372.8042,6.5796,-383.1284,30.4407,-277.8181,176.7349,-292.6075,31.8018,-179.9131
-270.2585,-17.2809,-259.8283,37.4731,-278.4299,-25.2742,-107.7388,-14.2183,-103.8681,-69.9105,-275.5585,26.7989,-364.2513,41.2826,-187.3548,105.4379,-236.0434,36.4405,-265.8344
-219.4794,68.8134,-217.4318,29.2833,-222.4172,15.9508,-155.5063,-119.5630,-198.3259,-135.9126,-216.3076,88.0513,-295.9583,68.7306,-114.1401,71.4178,-246.5574,6.8031,-261.8562
-281.4839,12.5778,-230.3062,4.8524,-244.9172,7.5926,-197.6725,-69.0368,-224.1338,-53.5451,-259.1562,56.8945,-288.4518,39.2128,-187.1951,36.9235,-284.4307,-76.4627,-235.4658
-322.0880,-90.0599,-268.5946,-22.0749,-332.6702,-45.9423,-202.2964,-4.2799,-164.8795,-13.9736,-275.0411,-23.0944,-297.2552,-5.4205,-251.4765,-33.0738,-282.1375,-119.7116,-266.0415
-256.5132,-95.0027,-258.3729,-7.9506,-338.0744,-84.8595,-184.8321,-0.7914,-140.1198,5.4492,-208.1241,-44.3016,-262.3862,-36.8423,-207.3625,-62.6219,-259.5841,-78.9226,-302.6674
-194.5763,-10.8371,-217.3506,23.4887,-267.5179,-86.6442,-213.1866,19.1586,-195.6338,61.4437,-149.6120,-11.6734,-225.1237,-45.5842,-150.6134,20.3116,-230.5309,-11.1763,-299.5210
-199.9193,63.3336,-199.3179,27.1924,-254.8241,-54.0892,-297.6082,4.2764,-270.2901,-9.5674,-177.9106,18.4707,-234.9373,-35.1447,-147.4829,99.1932,-180.3125,48.2369,-313.1806
-198.9562,38.9106,-181.3881,15.1939,-280.6111,-22.2505,-330.5470,-82.7019,-290.7376,-137.6440,-253.2584,11.5557,-274.8962,-49.4208,-163.7735,42.2866,-158.8800,87.6553,-345.5087
-166.8394,-56.7827,-132.0981,19.6461,-228.5355,-36.1483,-268.0588,-105.5614,-259.9872,-76.1884,-256.7667,-33.2464,-280.4346,-78.5006,-144.1625,-44.1010,-208.4563,84.2530,-319.5038
-144.9765,-102.6932,-83.8570,36.5070,-125.2293,-68.0826,-205.9378,-59.9967,-227.7716,10.5142,-165.6523,-73.7448,-213.6431,-76.2866,-78.7849,-26.3946,-253.8008,61.9225,-244.6046
-128.1629,-77.1600,-63.9269,26.4684,-77.1210,-66.8342,-147.9960,-78.2649,-153.2062,-104.4128,-115.0207,-91.8847,-133.4378,-94.3637,-40.6556,12.1703,-217.2510,49.8652,-189.5682
-104.1261,-65.2800,-63.7806,-32.4104,-82.1040,-52.1383,-11.7295,-92.1775,-0.1480,-167.7530,-153.5480,-113.4534,-112.3302,-145.9769,-55.5488,-10.5680,-143.7881,14.5821,-152.0638
-95.3847,-87.9003,-79.0865,-88.3305,-64.0724,-33.5483,110.7907,13.2347,85.8199,5.5593,-137.7397,-113.2294,-104.6565,-87.3574,-10.8215,-35.7237,-113.8763,-32.9818,-115.2909
-98.7520,-109.0596,-90.6482,-76.9793,-5.4629,39.2566,97.4623,102.3154,28.0210,118.2417,-6.6206,-56.0448,-28.5808,88.5601,116.1652,-55.5596,-125.9550,-9.1538,-114.2426
-81.6145,-106.1925,-58.5095,-28.1840,47.9780,144.4118,42.5697,24.9784,-4.6363,-22.0474,122.8207,-4.9537,85.6958,147.0944,167.3282,-94.3483,-117.2206,75.4147,-159.6759
-27.9385,-51.9296,8.1433,-2.0986,73.1582,180.5823,7.8438,-131.1832,19.2028,-197.6767,178.2081,-15.4543,150.0493,10.5752,98.8876,-77.8923,-58.5163,117.8316,-213.1587
36.1160,14.8035,41.3999,8.2503,90.0894,132.3443,-103.9030,-214.2626,-73.0540,-218.7170,172.8149,-42.9931,138.3098,-120.2116,36.6437,-7.4900,4.6355,88.3698,-247.4738
45.5736,-15.6395,1.1632,-7.8183,93.6686,65.8619,-234.7961,-194.7321,-198.9138,-143.6986,117.1670,-64.9686,86.0008,-127.2202,6.0362,-12.4523,26.6732,15.5700,-255.1699
-8.7747,-123.5531,-74.1420,-108.0341,50.3986,-4.1006,-220.9221,-136.0582,-137.0592,-79.4985,57.6832,-112.5132,32.0530,-93.3442,-42.8127,-88.7603,25.0178,-80.4153,-236.8884
-40.0159,-167.1185,-121.6488,-240.8053,-20.5635,-81.7318,-134.6589,-93.7365,-3.0831,-44.4986,20.0312,-165.3255,-24.8469,-89.7715,-56.1732,-107.2522,10.5946,-125.8450,-217.1913
-28.8307,-116.1455,-139.4537,-259.6669,-72.3250,-112.7106,-131.4622,-49.6404,-7.3742,-5.5696,-54.6500,-178.1291,-110.3230,-105.9806,-10.3317,-48.4825,-39.1808,-56.0676,-225.2271
-55.0778,-40.8149,-164.0112,-152.0861,-113.9440,-72.2051,-166.6434,26.8327,-57.1469,43.0977,-126.1774,-150.0198,-196.6490,-111.2875,-6.7689,34.6628,-83.9286,36.8544,-250.5536
-84.7834,27.3111,-165.4291,-55.2952,-142.7241,-29.4846,-146.3870,89.8410,-13.4984,75.5300,-54.3402,-96.5587,-208.3554,-83.8234,-61.9523,114.4522,-51.5932,36.5772,-251.7441
-10.0084,70.1698,-82.5658,-36.9525,-84.4816,-32.0960,-78.3518,86.7281,55.3600,82.3484,105.0668,-44.1377,-127.1921,-50.0600,-58.8090,128.3744,31.1823,8.3799,-214.1336
110.9533,102.5402,40.0465,-29.1991,64.7377,-31.1878,-2.8417,42.0808,54.2768,63.8579,177.9951,-23.1411,-8.9868,-56.4489,27.5335,41.4774,107.3780,59.2017,-174.6536
167.7395,204.6170,107.9250,28.2966,175.6624,9.6582,23.3814,7.4850,-6.1145,34.3429,202.8620,-19.5178,83.1677,-82.8442,93.9821,-65.5937,199.0238,133.1802,-168.3203
210.0039,362.1577,132.6588,104.3375,176.1461,42.4739,-24.9081,-2.1786,-55.8141,19.2307,291.6398,-18.2631,108.8502,-94.9477,97.7216,-120.3365,301.2953,141.5170,-178.8121
297.3764,442.9753,177.7514,151.4084,154.4261,34.9428,-77.2776,-30.2769,-50.2585,-34.7540,367.1420,-47.1761,83.2189,-125.0076,84.3639,-132.3177,339.3123,134.1615,-178.1229
377.4716,417.7477,239.8990,179.1876,196.3973,28.1003,-90.6305,-120.1762,-40.1175,-165.6733,354.2475,-96.2083,76.4885,-179.3783,55.8161,-123.4463,327.3506,170.9956,-167.7630
423.2560,376.2736,292.9936,192.3074,254.4834,36.9508,-98.4599,-193.9402,-70.4299,-223.1978,341.7569,-116.5629,103.5287,-182.6557,-20.0756,-130.8245,364.1515,169.5723,-149.7913
444.0600,363.8839,321.5641,134.2035,242.4120,12.0974,-96.3133,-165.8470,-93.7478,-150.2542,376.5041,-114.3136,95.7261,-122.7560,-92.5277,-187.7063,442.0254,39.9094,-123.0015
411.6006,366.2063,287.0944,-7.0825,170.8437,-60.2345,-85.8870,-163.9370,-108.0117,-188.1826,371.6512,-116.0534,33.4563,-125.8044,-81.7175,-243.4051,454.4549,-138.0535,-110.3316
337.9505,321.3590,192.4829,-140.3498,114.9754,-137.4882,-110.5512,-304.3645,-135.8580,-368.9815,264.9944,-128.8690,-32.1547,-271.7578,-28.5888,-245.3638,361.4519,-220.2518,-124.1261
264.2130,128.5504,109.1456,-219.1760,89.3151,-204.7963,-127.5955,-413.4283,-94.4774,-384.5123,96.4766,-201.7400,-91.5241,-425.3070,-37.4023,-242.0280,203.9528,-206.4700,-136.2819
161.9362,-192.4179,54.2571,-297.5837,50.2572,-276.9420,-102.7817,-381.2957,-12.4804,-277.9067,-37.8747,-357.5395,-163.6336,-413.7032,-109.1071,-288.7471,31.0725,-206.1436,-124.0047
35.4007,-454.2177,-9.0995,-376.5496,4.7258,-348.9423,-135.3796,-407.4212,-63.5347,-383.1849,-68.5725,-486.6156,-216.5859,-322.4136,-169.3913,-377.2569,-92.7239,-259.9874,-95.1069
-20.2657,-522.9565,-42.7087,-392.7590,-0.8669,-407.9188,-204.2101,-538.9230,-143.4855,-554.8365,-29.2573,-490.6091,-212.1477,-358.6910,-193.1337,-478.0940,-108.6340,-326.6493,-66.1239
2.2009,-466.2576,-2.1581,-370.8429,17.1604,-441.0066,-134.7953,-547.0382,-15.1627,-479.1416,-3.6687,-435.1156,-169.1627,-476.9976,-196.1726,-537.8599,-59.8932,-392.0162,-54.6769
4.3801,-467.2228,31.6376,-387.6023,5.4239,-435.6572,1.2813,-455.9297,130.0564,-394.8377,-20.1651,-429.8801,-134.7589,-500.7993,-183.5289,-518.4937,-58.8602,-474.3149,-64.6854
-31.5910,-604.3152,-14.0930,-429.7710,-26.8355,-427.1231,-33.3689,-523.0320,4.8239,-573.9879,-67.2500,-480.6624,-133.2949,-490.0051,-163.3611,-482.9575,-106.8001,-560.7330,-82.0939
-48.0866,-700.9985,-61.7959,-447.0925,-30.5406,-475.5133,-188.6323,-722.5030,-196.6451,-767.9489,-116.5515,-525.5013,-144.9282,-566.0590,-159.6573,-513.6071,-94.7592,-621.1198,-119.6212
-42.8958,-606.3788,-41.0838,-468.9612,-9.2727,-568.1499,-278.6386,-855.7648,-228.8842,-793.5491,-115.5089,-542.0121,-140.6886,-621.4623,-197.6356,-593.5308,-44.8093,-657.9479,-200.7144
-76.6177,-580.1495,-43.4310,-568.5821,-25.5627,-655.7911,-338.1055,-925.1730,-232.6380,-824.1859,-94.4706,-589.8748,-143.9149,-589.9204,-273.5835,-667.0725,-140.4105,-709.0652,-279.7500
-225.8480,-944.2036,-186.5821,-774.1652,-130.2589,-757.7769,-430.3819,-972.6823,-317.6933,-884.4843,-192.4938,-730.4002,-198.8437,-629.5368,-335.1034,-718.0527,-432.9957,-816.0064,-289.6130
-511.3287,-1515.3617,-443.6752,-1039.5717,-313.8941,-907.9003,-480.0933,-945.3195,-361.8665,-863.4143,-434.7406,-933.0704,-295.6375,-792.0953,-344.1886,-763.5270,-760.3090,-974.0380,-263.1806
-823.5147,-1920.8925,-692.7823,-1269.1823,-517.2714,-1067.5995,-482.4298,-909.9306,-347.9834,-869.8149,-653.4612,-1129.9297,-397.3658,-942.8234,-340.6693,-837.8223,-1006.2160,-1103.3121,-287.1902
-1016.2448,-2125.6704,-846.4859,-1392.0883,-660.3236,-1178.5450,-511.1186,-979.4242,-377.1970,-980.5840,-729.5087,-1275.4626,-480.3645,-1030.1844,-376.0282,-933.7421,-1175.1848,-1121.6664,-360.5230
-1053.5985,-2209.0730,-884.4962,-1419.3501,-680.3598,-1216.9528,-556.4431,-1083.1747,-461.1760,-1050.6505,-715.7949,-1311.4583,-513.3068,-1061.1211,-452.5903,-989.4252,-1236.1628,-1062.5463,-406.8491
-987.9957,-2149.5654,-840.2955,-1422.1439,-610.4542,-1197.3324,-606.4142,-1158.3717,-563.4392,-1078.3759,-693.8340,-1249.7378,-496.3779,-1024.0089,-556.2767,-1003.3123,-1177.1498,-1053.0490,-410.6354
-906.7091,-2062.1355,-795.2018,-1474.0322,-578.2639,-1196.5797,-697.3867,-1297.5198,-644.1311,-1222.9248,-689.1493,-1242.6415,-492.8611,-1034.1046,-637.9055,-1030.0148,-1124.9712,-1147.9574,-441.5967
-902.0920,-2100.4116,-808.3045,-1583.6809,-630.4135,-1282.2292,-783.6778,-1469.0129,-659.8442,-1402.0480,-708.1732,-1350.7738,-527.3462,-1176.1731,-615.1608,-1056.0187,-1162.8850,-1257.2118,-521.2030
-948.5652,-2168.7415,-829.0456,-1664.1359,-661.9900,-1381.6576,-787.8030,-1493.4482,-651.6569,-1415.8058,-731.5992,-1419.1799,-548.3248,-1262.3258,-507.7864,-1064.8284,-1174.1686,-1280.5042,-566.0382
-913.6601,-2133.3623,-768.8613,-1634.1202,-616.8596,-1373.1884,-750.3748,-1408.5309,-683.4233,-1361.4147,-704.4589,-1369.5052,-529.9397,-1167.9677,-432.4390,-1117.3005,-1048.1750,-1239.7404,-526.9828
-784.5645,-2028.8013,-646.2920,-1529.7506,-562.3307,-1280.6895,-739.6329,-1414.4264,-707.3780,-1435.1194,-597.1309,-1313.7510,-473.2342,-1096.7205,-406.2792,-1213.9309,-856.5151,-1209.7668,-458.9804
-669.9272,-1884.1566,-535.6100,-1432.9973,-496.3378,-1214.5112,-707.9061,-1488.8365,-651.0833,-1537.1962,-451.8617,-1290.1565,-352.6242,-1175.6117,-348.1747,-1279.1228,-692.3889,-1197.1859,-384.4437
-575.1276,-1719.9602,-423.0105,-1370.6343,-346.9977,-1209.8312,-574.8801,-1490.1576,-518.6293,-1508.5162,-341.6759,-1240.7644,-196.7838,-1258.4841,-242.7579,-1317.9337,-524.0047,-1189.5144,-257.7668
-437.2263,-1643.6797,-268.0892,-1354.5081,-170.5544,-1255.9703,-368.1536,-1471.3375,-352.3588,-1457.5496,-287.9133,-1215.2712,-102.4674,-1289.3915,-124.0096,-1369.5538,-317.4387,-1230.7799,-96.1674
-288.2909,-1663.2587,-118.7608,-1383.3790,-69.7063,-1347.8932,-179.3828,-1505.5426,-212.3712,-1477.7505,-239.4952,-1278.2881,-80.8390,-1357.5531,-9.2769,-1415.4371,-136.4706,-1315.0992,40.0536
-165.1156,-1653.8711,-17.7662,-1381.2703,1.5465,-1428.2064,-34.7722,-1491.8829,-123.7467,-1446.9939,-147.2677,-1347.8657,-45.7986,-1423.0894,55.0882,-1466.2714,-22.3814,-1328.4250,143.0865
-35.8570,-1600.9302,70.9601,-1304.9233,111.6794,-1424.5687,87.8865,-1420.5160,-30.6985,-1380.7368,-32.2859,-1341.4324,30.5765,-1401.6918,44.1208,-1528.2201,67.8544,-1247.6106,191.5355
65.4568,-1573.4552,139.5578,-1257.2935,194.0840,-1364.8904,165.3701,-1440.3984,78.9232,-1454.6946,43.1021,-1307.2576,96.4976,-1359.8358,38.8179,-1517.8082,130.6692,-1226.0605,149.9084
65.7259,-1546.3402,123.4606,-1311.4725,186.8531,-1332.0156,182.0404,-1518.0182,138.9276,-1567.3972,57.2653,-1306.2777,116.0525,-1372.0166,109.0458,-1429.8435,111.4259,-1329.7090,92.1834
32.0504,-1482.9274,59.8411,-1359.7236,150.9432,-1336.1719,199.9865,-1470.5997,163.5644,-1487.4521,60.5518,-1314.1835,100.6098,-1388.1084,201.9464,-1379.4036,68.5077,-1414.1736,115.0875
85.5761,-1418.2832,55.5099,-1311.9309,163.5008,-1326.8665,256.1301,-1328.2858,216.4744,-1323.9208,102.8336,-1280.4384,95.1220,-1348.1793,238.8715,-1358.4047,107.7239,-1388.6224,183.8074
191.0764,-1369.2362,110.3902,-1246.0531,224.5646,-1279.3777,312.3095,-1249.4545,268.3079,-1278.9960,154.1856,-1204.4054,133.3409,-1263.4982,218.2876,-1272.4988,173.9275,-1332.6573,236.0046
236.8029,-1321.7101,154.1616,-1222.4001,279.0355,-1209.5465,353.8365,-1223.9817,282.9424,-1264.9365,170.2714,-1129.7753,177.8503,-1166.3781,195.9868,-1175.6106,164.2671,-1290.5177,275.0812
223.8220,-1279.1167,177.3659,-1182.3181,278.2915,-1150.4415,378.8741,-1161.3636,291.3544,-1166.3026,189.9127,-1082.0331,176.5718,-1079.9878,210.5327,-1146.1434,137.6298,-1227.0887,290.0399
212.2509,-1240.6503,193.6557,-1114.4934,244.6669,-1133.2738,358.9599,-1056.6375,305.9732,-1043.0059,251.9294,-1047.2910,168.0199,-1032.8296,224.2397,-1120.4695,172.5730,-1161.3927,277.4836
197.3596,-1189.1410,193.9100,-1079.6108,240.8454,-1146.5090,337.8640,-950.6182,328.3041,-961.1414,299.7585,-1005.0964,218.6614,-1033.8932,189.3119,-1054.5724,210.0325,-1119.8553,277.9047
167.4538,-1104.5786,194.2171,-1060.3341,252.6539,-1129.0271,382.4583,-908.1681,363.5396,-974.8311,291.1920,-934.9486,297.0379,-1023.4122,157.2692,-988.5438,206.5283,-1081.2994,272.4379
166.9366,-982.9974,210.1174,-1010.8184,207.8772,-1051.5223,423.9164,-943.6212,369.2236,-1058.1653,278.1721,-835.3765,323.2301,-942.6808,194.7081,-918.8744,221.4292,-1068.0918,225.6301
212.8707,-854.7457,222.8556,-973.3148,128.1848,-956.1518,406.4017,-907.6260,355.6158,-969.6667,296.0917,-757.6385,297.7471,-852.6982,263.5009,-836.9957,291.2457,-1079.5702,203.7842
263.6462,-721.6501,249.2410,-951.4996,124.3173,-862.6057,435.0250,-706.3661,405.2111,-643.9871,320.5523,-722.2360,291.9957,-817.9449,307.4702,-774.5723,392.4071,-997.7259,239.2232
303.2465,-539.3620,316.4958,-839.4453,209.2581,-730.5532,523.7023,-528.7291,455.4367,-450.7565,341.0111,-652.9933,334.4678,-749.1746,313.2867,-704.9044,475.1119,-807.0517,249.8024
337.7956,-358.1223,359.5807,-636.0372,247.7938,-579.0233,511.7980,-539.6783,381.3627,-564.5126,348.7951,-521.1905,370.7161,-601.5583,259.7455,-595.2293,466.0808,-681.3474,215.1372
341.0301,-294.0270,323.9718,-500.5512,160.0564,-500.0756,395.6288,-600.1345,293.4427,-655.7672,323.1426,-417.3448,349.5849,-521.4286,189.0204,-508.2306,366.0315,-654.9009,171.5898
312.3918,-304.3518,291.1709,-484.2732,61.1563,-494.3633,338.9884,-546.0941,331.0467,-534.4308,290.1230,-383.7435,295.7534,-549.9568,197.1349,-480.0104,292.6393,-567.0175,84.9310
297.4251,-266.7580,321.6740,-457.7112,81.3236,-468.9115,332.3710,-426.4040,346.5341,-384.3844,274.1004,-373.7730,254.2873,-533.4108,216.6138,-464.0217,306.2090,-410.4441,-16.8497
293.8744,-220.9001,338.7924,-365.8494,161.1918,-420.9795,250.8152,-357.3019,202.9458,-334.8901,233.0056,-386.4191,221.1056,-475.3665,109.1295,-464.9408,337.5702,-324.6070,-14.7027
272.7776,-254.4913,300.9666,-323.7541,185.4136,-434.5352,141.1144,-409.6559,57.6009,-399.9145,167.8477,-441.6660,177.2872,-520.0840,-15.4911,-515.8148,329.4759,-321.3112,51.1636
257.4131,-338.0583,264.8850,-421.2915,182.3321,-524.6438,109.6496,-568.2049,50.8326,-563.7491,151.5137,-511.1556,128.4021,-610.2825,8.1117,-573.5473,272.2579,-364.9568,33.7429
239.3625,-440.7260,224.7024,-593.2068,212.4734,-648.3036,106.8244,-685.0844,81.9657,-657.2986,168.1847,-593.8586,81.4313,-626.4234,48.9949,-610.7802,162.0087,-490.0663,-44.0619
159.7245,-553.4857,131.5034,-709.8066,222.1384,-784.3431,63.5590,-681.4796,55.7766,-606.9357,137.6819,-700.6811,42.1061,-661.0076,-42.5386,-672.0588,57.5417,-642.2669,-83.0358
67.9746,-614.4594,43.0607,-723.1581,160.5487,-912.0513,44.7443,-711.3943,34.7459,-661.2947,92.1854,-777.4866,23.4170,-802.6299,-127.8466,-762.1484,36.6359,-734.9259,-96.4626
63.0452,-638.9785,33.9124,-690.5883,71.0559,-1030.4971,97.2745,-866.3950,68.7147,-921.6113,91.2855,-826.7936,11.6418,-971.1265,-102.3062,-854.5143,55.6881,-852.4910,-107.3667
80.0649,-728.0209,46.1376,-666.5533,-9.6436,-1182.7003,115.0347,-981.0215,82.6593,-1114.9807,69.0303,-962.8039,-24.1263,-1115.9276,-96.5287,-981.1587,25.0503,-1050.8552,-108.3575
17.3483,-840.6896,0.1314,-641.0748,-75.4388,-1341.5458,11.7015,-953.0249,8.2273,-1104.2734,-14.5593,-1191.7509,-60.8203,-1235.6882,-151.5276,-1146.3735,-30.5163,-1170.0610,-143.3380
-49.7318,-855.5863,-62.0968,-608.0469,-85.0019,-1397.1487,-97.0588,-899.9761,-79.7097,-1042.0870,-51.8037,-1353.8677,-35.6117,-1265.1907,-136.0309,-1250.4934,-43.0379,-1129.4875,-204.9387
-43.2793,-807.3580,-66.8377,-592.9716,-22.4640,-1342.1208,-61.2768,-885.2250,-68.5072,-1008.6563,16.2148,-1369.1769,46.9297,-1204.3071,-38.7349,-1232.2727,-33.8504,-1072.2440,-193.2907
-40.5672,-781.8593,-38.0783,-589.6981,34.6780,-1281.6857,56.5907,-848.5067,19.5285,-978.0858,91.0637,-1320.4573,98.0901,-1159.2683,22.5065,-1167.0260,-57.7400,-1066.7805,-112.3333
-76.7914,-755.9939,-42.1198,-570.0554,17.3769,-1250.0470,100.7269,-798.4773,91.4651,-958.3070,95.5296,-1279.6841,68.2108,-1149.0834,24.3949,-1134.7314,-93.9090,-1034.0376,-88.3725
-74.0526,-712.6055,-69.2668,-541.6019,-36.2933,-1212.1903,66.3667,-785.5687,110.3690,-931.3184,65.5930,-1236.6801,20.4823,-1110.2941,33.4146,-1114.2562,-81.0446,-972.6947,-159.2012
-31.5451,-689.6819,-59.6762,-521.3014,-52.1850,-1175.7200,32.0609,-778.8855,60.4582,-883.0097,47.4887,-1182.1530,25.6687,-1052.9048,68.2648,-1071.9723,-31.3838,-941.9141,-231.9013
-12.7427,-682.1134,-14.4570,-504.4848,-26.1491,-1150.0439,7.5581,-743.2482,-31.1371,-853.5364,49.7916,-1136.5170,48.6595,-1018.5607,79.7037,-1032.7656,-8.8016,-923.9063,-216.6763
3.8258,-666.3188,14.2860,-490.0571,-2.5739,-1112.7823,-1.0538,-707.2281,-41.8502,-829.6142,60.1689,-1105.8597,24.4869,-996.1501,28.6153,-1008.8406,7.1631,-892.9127,-112.9363
46.6076,-649.7278,20.2398,-478.0402,11.1806,-1073.2152,43.5166,-688.5468,57.0216,-781.5020,43.0584,-1074.1311,-23.5504,-968.8669,-39.5706,-973.3536,77.5638,-865.8323,-2.8326
64.1300,-629.4565,33.3707,-460.8844,41.6095,-1047.3691,101.5973,-670.0761,101.6035,-756.6768,-0.9515,-1037.2014,-33.7199,-938.3370,-54.4230,-931.3969,142.0575,-834.5335,39.8156
48.9573,-603.2111,56.5027,-445.1336,84.8238,-1013.5109,81.7524,-646.6674,12.4637,-756.4501,4.1273,-1004.6358,2.3403,-903.0762,-54.5298,-904.8327,118.2082,-792.5341,20.5768
69.3938,-587.2466,86.7280,-434.5982,119.7058,-972.2210,-15.6125,-623.6703,-84.3674,-723.6481,82.8380,-972.7296,55.9875,-866.0515,-114.0136,-872.5958,74.5372,-771.9587,-24.5290
119.0203,-570.8409,123.0312,-416.1352,151.0932,-945.4247,-100.1607,-603.0151,-103.5008,-689.3868,131.6065,-935.9384,92.5283,-832.9673,-177.2179,-828.0333,76.5446,-768.1144,-55.1147
113.9429,-540.7141,125.3311,-398.8212,175.2370,-913.7421,-112.5526,-590.0015,-87.0240,-687.7216,78.2565,-903.2183,87.1039,-808.5423,-164.7355,-807.6973,52.3099,-740.0095,-9.7126
53.0188,-522.0737,71.1677,-398.1121,163.9970,-868.6367,-80.7931,-579.6182,-72.1901,-664.7319,-5.3416,-871.3000,62.8426,-795.8873,-127.6106,-801.4422,-14.7516,-699.2721,89.3495
19.0643,-518.0095,16.2282,-392.3172,118.0688,-847.6978,-70.4505,-559.3313,-75.1417,-624.1506,-30.7616,-832.3680,52.8691,-775.3624,-119.4309,-769.7924,-29.3514,-680.8870,101.8962
25.6885,-499.8653,-0.3494,-373.2101,65.1592,-844.5469,-97.7670,-539.6011,-98.4209,-617.9023,-2.5340,-807.1948,34.4394,-734.2505,-103.1543,-738.9792,13.8840,-669.7097,-13.8114
14.9639,-478.6853,-7.0105,-367.2237,23.7665,-814.1312,-118.6936,-532.9295,-99.0707,-611.5057,35.8019,-800.6202,-1.6122,-705.6211,-77.4349,-733.8528,37.4736,-643.5773,-122.3040
-3.1609,-478.4285,-3.5465,-365.8762,10.8745,-771.8953,-108.0868,-518.2845,-71.3340,-580.8845,54.7765,-775.9484,-8.0115,-699.8902,-79.6420,-711.5897,28.9264,-618.0726,-140.5900
24.1220,-478.2208,29.0243,-347.9146,9.5972,-754.0182,-98.8071,-484.5007,-78.5610,-569.9760,41.5241,-732.3424,4.0347,-677.0934,-89.5480,-665.5228,8.9731,-604.7566,-134.1842
46.2396,-459.3693,34.8432,-338.1284,-46.2938,-740.8472,-140.1422,-461.7616,-139.0071,-564.8943,8.7716,-709.6562,-30.9868,-641.5225,-104.1864,-642.6278,-4.6735,-592.5601,-160.0213
-15.1843,-439.4060,-26.7201,-340.5106,-147.4943,-713.0130,-241.8994,-460.2376,-217.2370,-535.9403,-28.9990,-701.0941,-86.3135,-630.3495,-166.6516,-635.8364,23.9474,-576.5481,-197.6389
-88.8119,-430.5245,-77.6746,-322.6755,-183.1264,-688.7477,-339.1057,-452.0767,-284.3531,-521.7290,-84.1934,-675.0402,-97.1405,-623.3996,-248.4123,-614.7364,67.4845,-560.8830,-213.1527
-72.7099,-425.1320,-60.4048,-306.7169,-136.7799,-674.0024,-348.9693,-436.1880,-291.0816,-520.0413,-151.4237,-645.1572,-101.5305,-598.7719,-296.3807,-597.2574,48.0752,-546.6636,-194.0088
-33.3521,-416.1955,-44.6011,-321.6133,-116.9525,-659.3617,-293.5146,-431.1344,-225.3712,-491.8710,-177.5544,-631.2394,-143.3634,-583.6473,-321.7757,-588.8644,-12.5804,-532.8564,-162.9180
-65.6036,-404.5650,-83.5085,-321.2582,-147.5008,-645.1561,-263.8470,-424.3924,-183.9330,-472.4157,-133.1425,-621.4706,-168.3282,-576.1443,-293.5830,-568.7152,-40.5198,-517.0276,-159.9579
-115.4433,-396.3604,-121.3472,-290.2003,-151.9849,-629.3605,-262.3500,-408.4500,-211.6524,-481.1402,-75.4219,-604.2611,-144.5493,-553.7141,-177.2664,-549.6898,-41.8782,-501.4500,-176.0716
-117.6405,-390.3255,-109.5732,-285.5083,-119.9523,-611.7018,-231.9221,-402.0069,-213.9215,-469.1528,-86.4204,-577.4329,-125.8186,-536.9435,-99.8836,-541.9713,-36.1607,-495.4763,-162.4429
-98.4421,-378.9726,-71.1314,-302.9579,-95.2178,-599.0286,-189.0127,-397.5745,-155.1069,-445.7210,-148.5789,-549.8436,-140.6782,-530.9209,-140.0186,-524.6072,-12.9698,-494.4771,-115.0840
-57.9103,-369.0313,-31.0037,-290.2932,-82.8656,-584.7809,-168.7435,-380.4540,-106.9363,-448.1040,-148.5414,-542.7216,-152.3919,-509.0025,-125.6436,-502.7712,8.0433,-480.4551,-76.2485
17.6116,-365.4820,2.5913,-267.2961,-78.4461,-564.8290,-140.5498,-371.9402,-78.3189,-444.3788,-59.1706,-546.4377,-127.9112,-489.1939,13.9382,-493.9331,27.9244,-457.7520,-62.6482
55.4912,-353.9281,7.8070,-267.8331,-82.6433,-552.1709,-94.1754,-371.9592,-45.3109,-421.4622,-5.4814,-529.5979,-78.3825,-492.0792,74.5916,-486.3690,67.3239,-446.7205,-51.9668
14.5437,-339.0493,-16.3186,-270.4986,-72.4330,-541.4290,-76.7244,-353.5038,-45.5145,-408.7087,-47.8009,-504.5324,-45.6021,-485.2052,3.2549,-477.2291,62.1987,-444.0233,-30.3029
-26.9038,-345.2485,-27.4694,-270.6053,-39.9110,-519.4305,-87.6368,-339.8712,-60.0433,-394.5262,-79.4128,-496.1882,-44.8972,-463.8434,-26.6761,-470.0226,-14.8916,-435.4705,-4.0558
-21.3011,-358.7258,-1.8404,-279.9886,-3.4010,-503.9881,-62.7435,-354.0995,-9.2234,-379.3630,-44.4994,-490.6165,-33.8945,-459.6425,-16.2225,-447.9938,-30.9959,-423.0256,40.0640
5.1443,-347.3565,39.4560,-273.7561,38.5886,-503.5728,15.4186,-351.5702,59.7547,-391.6103,-11.6646,-480.7656,14.3605,-459.0943,-59.3662,-425.2672,66.2636,-406.9163,117.5691
63.1769,-325.3556,80.9033,-249.7242,80.6620,-495.8252,77.5671,-321.6644,40.0255,-394.3386,13.8373,-472.6638,60.8260,-440.5160,-50.5815,-429.3318,129.1815,-387.0361,176.0038
144.1605,-323.1329,119.5573,-244.2108,84.2213,-479.7057,68.0526,-317.2653,-15.4944,-361.7267,66.5626,-451.6941,66.2896,-421.4228,64.4767,-426.7017,93.5848,-382.2487,159.1249
159.2125,-331.2437,134.9296,-252.6936,38.5963,-465.6555,38.0945,-332.1947,1.2904,-354.6570,74.7463,-429.3770,32.3630,-407.8793,129.7523,-398.0115,65.1182,-393.0291,127.3003
97.9661,-324.9564,119.7921,-253.0494,-27.0971,-446.0871,56.5877,-320.6901,42.3664,-376.4098,6.3508,-432.9695,-17.1465,-398.7401,102.5553,-392.8238,90.8918,-386.4952,142.5010
59.9791,-305.9325,97.8113,-256.2195,-92.1394,-436.6019,68.2912,-299.2591,13.7610,-362.5625,-26.8867,-430.2861,-39.8183,-405.9696,60.1693,-409.8028,116.0221,-363.1193,122.2756
47.5896,-296.3397,61.8426,-255.5169,-139.6721,-450.6536,0.5982,-295.1034,-42.7953,-334.8513,-3.3956,-401.8190,-27.6229,-406.5239,-37.1005,-395.9276,81.5079,-359.1560,20.2229
-37.7186,-305.3840,-22.8335,-234.2803,-162.4864,-446.1887,-59.5307,-298.5469,-36.1021,-338.6267,-42.5538,-397.6159,-45.4361,-380.5632,-145.7853,-373.2891,-44.6661,-369.3345,-36.2821
-177.4139,-312.7528,-121.7745,-222.4632,-185.8406,-416.2496,-16.1628,-305.4478,25.7101,-343.4167,-138.0608,-414.1545,-105.9922,-370.9734,-80.1097,-377.4236,-180.1804,-361.3373,3.6367
-238.2751,-301.3882,-146.2880,-235.4121,-202.4875,-415.7590,38.1873,-302.1939,65.3279,-339.6419,-162.1245,-398.4139,-109.4471,-388.0438,66.7162,-370.6238,-168.4958,-342.1416,3.4451
-183.5466,-285.1472,-88.3425,-238.8264,-155.8581,-423.8705,3.8372,-276.3855,43.0875,-343.2293,-116.4286,-378.8687,-26.2570,-379.6970,21.2808,-346.0163,-50.5363,-335.4878,-73.3324
-119.0587,-278.2238,-37.2529,-232.3107,-65.1578,-389.7495,-42.7348,-267.2367,-1.4055,-325.5424,-98.6686,-384.7096,34.7573,-353.3061,-126.5984,-343.8903,-28.2014,-341.2200,-83.8408
-124.7040,-279.5019,-46.1417,-241.2924,-24.6953,-378.5665,-22.3925,-283.9789,2.5327,-300.9146,-105.7949,-369.6626,23.8654,-351.2859,-124.0820,-349.5622,-97.6446,-342.2557,27.2538
-142.0320,-288.7712,-67.4741,-248.0541,-32.1173,-417.7861,23.1499,-279.0555,58.1393,-319.6587,-67.6752,-350.1086,15.5322,-356.2364,-54.4009,-347.2164,-82.9124,-321.0211,167.6066
-85.2578,-292.4698,-42.5211,-241.8086,8.0616,-372.1372,60.3655,-274.5849,85.7317,-334.9947,18.8070,-366.2924,57.1455,-361.1150,-62.2814,-357.2597,14.9728,-300.3815,266.7206
4.0256,-282.9620,12.1500,-241.9618,107.3369,-192.2379,92.2842,-298.8854,42.4002,-309.4187,97.9778,-318.5160,124.8286,-361.2348,-18.8361,-316.9521,62.3461,-325.6989,309.3567
32.2786,-295.7953,47.2634,-231.8461,183.9438,-7.3670,91.9675,-282.0669,-7.1758,-319.4264,139.4947,-135.2704,189.4903,-248.2547,140.2588,-142.1343,48.1985,-331.6717,306.5456
16.4933,-315.6057,58.1766,-204.7280,199.5258,130.6688,82.6652,-245.3593,21.6305,-328.8151,161.1098,64.1373,223.2465,18.0212,243.2400,87.4726,31.6402,-181.9149,319.5611
20.1386,-225.1163,68.1523,-215.7834,183.1655,272.0426,149.0965,-281.5587,134.7650,-137.3179,174.1436,198.9566,213.7621,243.2134,220.7283,247.3807,19.5872,81.1033,384.2490
29.9868,-0.1283,83.7449,-251.0611,161.5118,395.8712,260.9521,-240.3937,257.0317,255.6655,159.1338,339.9562,196.6130,301.6616,177.4706,376.7338,27.6679,278.5676,424.6019
32.8363,221.4656,105.8838,-189.1801,133.2499,490.8089,284.2132,31.0412,295.6058,550.2009,125.6704,512.2943,197.9643,367.5909,161.2308,557.0314,78.5196,389.5152,358.2283
66.7581,388.9813,127.5722,-2.7060,83.2241,616.2915,207.0016,259.9497,232.9048,551.5208,113.9368,677.7442,182.8773,583.9484,159.8250,738.2166,127.5166,497.2771,227.4188
118.4741,583.3334,125.5937,183.3130,6.0672,746.3046,136.0233,207.2209,142.0896,427.3784,115.8317,838.8534,123.0705,815.8939,181.0047,840.9662,132.8768,579.4804,141.7432
134.1715,772.5989,114.9011,295.0111,-70.3009,817.7015,97.9550,148.3446,76.1640,442.6633,100.8000,964.2532,57.7585,916.8254,199.0940,881.3851,126.7212,640.9298,141.4042
122.7298,855.8692,138.3582,393.4639,-102.2767,888.2706,55.4936,305.9965,26.8124,599.4673,81.9887,1004.0345,40.9539,928.7640,169.2536,906.3820,129.5826,776.0540,168.1973
108.3567,886.8055,160.7415,525.1901,-84.8114,992.3133,35.8752,451.7905,8.1783,701.7092,56.8066,1023.3774,68.9033,935.8786,92.2059,930.5255,110.2595,920.7869,156.7198
72.2963,950.3083,115.1450,639.1315,-65.1804,1046.2037,61.8941,460.1133,38.0144,694.5430,-1.5034,1091.5986,91.4266,966.9472,2.0521,976.8702,73.3406,932.7339,111.1330
30.2558,999.2161,53.8450,694.8972,-74.6738,1063.5747,85.0453,505.0472,69.5837,707.1207,-40.0186,1148.8014,83.4685,1039.4138,-32.8563,1068.2942,70.3218,920.6393,70.0230
43.3575,1023.9380,74.5488,753.5480,-61.4854,1164.7983,110.0238,604.8280,88.0539,792.7506,11.9719,1165.9137,74.9322,1147.5062,47.0024,1155.3551,113.0051,1054.1062,51.3092
115.3933,1106.4147,148.1895,879.0449,38.2141,1325.7131,200.2608,646.5846,151.7650,882.5692,93.5970,1218.6290,97.0102,1248.1261,168.0943,1167.3685,159.2966,1213.6013,66.0192
172.1397,1212.1912,176.9834,1006.3416,166.4983,1411.6671,311.5955,690.1757,240.2701,953.5913,106.0869,1303.6342,139.2299,1298.3638,198.6257,1140.1357,167.4771,1234.7631,115.4771
152.2880,1231.0853,136.2422,1032.3085,209.2000,1407.6740,349.2848,794.2805,268.7674,1032.4949,77.0408,1327.5419,185.3109,1274.4717,162.7368,1161.2371,123.8587,1226.4000,166.1627
94.8181,1192.1062,76.7997,997.1173,195.6020,1406.3849,350.6568,885.5858,264.0538,1114.5372,92.4206,1293.7554,242.6795,1216.8558,165.3108,1226.9135,59.8350,1338.4930,196.9921
107.3611,1185.4115,74.3355,1021.4376,250.7497,1463.0183,380.1520,964.3282,289.3281,1188.0975,166.4723,1294.4039,303.8809,1242.3212,180.2576,1291.2229,46.9883,1495.8182,224.1940
202.4958,1211.4773,157.1005,1111.0757,358.5867,1550.2594,387.7459,1073.7094,301.4427,1244.6689,246.6752,1351.2729,323.5628,1379.4423,150.9487,1348.7516,113.5327,1551.8798,241.1544
255.2531,1258.0168,237.3763,1177.9585,388.6034,1594.6486,371.7805,1160.8329,293.7842,1277.7003,273.7493,1405.1353,277.7196,1477.2882,166.6115,1371.7292,184.5588,1505.0710,241.0778
205.7977,1326.5837,217.5954,1192.6270,324.7013,1576.2715,433.5855,1219.0353,356.6482,1326.7513,238.0790,1426.6852,218.6540,1434.2262,314.0251,1344.8553,177.8395,1464.3950,271.2367
152.6464,1365.4137,147.2298,1196.2733,258.1471,1573.8925,524.0388,1313.8925,445.6464,1417.2087,196.3620,1453.7075,215.8495,1360.2710,481.6948,1354.2776,132.2053,1490.7638,325.4107
181.9218,1374.3027,145.7415,1229.8296,229.1232,1634.7637,464.3579,1398.3011,397.2126,1482.7859,202.1504,1518.2051,258.8651,1379.2970,492.3904,1432.9485,161.2812,1538.5896,306.9614
271.9727,1448.8002,236.0327,1304.5808,236.2890,1692.1118,300.4356,1392.0551,255.6890,1478.3788,250.3503,1586.3329,284.6756,1466.0109,353.6068,1477.2487,284.1697,1555.2322,232.3424
359.7782,1569.3846,340.2610,1381.2201,278.1779,1680.2654,266.5553,1357.7378,238.3346,1463.0049,304.3642,1611.4816,277.9581,1546.3577,247.2018,1475.8979,384.2856,1547.0007,245.4117
381.8497,1593.2557,372.1584,1397.6649,299.0914,1614.8164,370.0175,1377.9810,344.5935,1485.8927,324.5473,1609.1554,268.0182,1581.9377,281.6566,1513.1812,376.5342,1513.1158,338.4176
329.7049,1523.3872,327.4713,1358.1644,243.3654,1547.6848,391.2183,1422.6901,362.6505,1524.7855,288.3282,1615.9485,261.4709,1570.3097,359.7362,1527.4105,328.0974,1445.4235,354.9678
282.6988,1482.1881,293.6344,1322.5027,157.7162,1526.7539,292.1111,1442.9486,270.8170,1540.1595,220.6737,1617.2781,249.2845,1553.1843,351.1927,1460.9337,328.9482,1393.7664,286.1426
282.3347,1464.5206,309.3637,1305.6176,104.2223,1553.0602,242.2842,1444.9725,246.7735,1509.2733,168.8540,1580.7307,237.4775,1547.7169,287.5686,1463.0957,346.8892,1394.0929,248.7717
276.5912,1412.8801,305.3644,1283.7262,70.7963,1571.1929,260.7601,1460.2601,286.8258,1476.2283,151.1061,1520.7594,228.6485,1522.1232,263.6505,1572.2356,322.1592,1399.0343,250.5960
249.6413,1382.0352,258.0593,1260.2856,53.9970,1558.4519,227.5496,1510.6835,242.2326,1526.0880,152.5136,1485.6954,212.8173,1519.5354,264.0598,1588.0031,282.0805,1368.5197,251.4075
227.8462,1405.1613,219.1399,1238.8745,67.0892,1534.9745,194.7747,1565.2734,178.7684,1612.4512,138.3512,1504.4449,179.9143,1593.3499,240.0502,1493.1642,263.2557,1314.0767,281.8209
195.0969,1423.6750,181.6231,1202.1427,61.4395,1481.3560,268.6047,1569.7238,234.0425,1601.8512,97.0238,1555.8007,127.1217,1621.0510,232.8938,1475.7415,251.9027,1256.7773,322.1440
164.9631,1437.2153,129.5315,1161.4449,12.9280,1397.6273,313.6127,1554.1888,276.8587,1547.1809,82.9841,1579.7111,75.9854,1511.7686,270.4319,1508.4791,240.0839,1234.2152,303.5596
187.1985,1466.0697,113.9750,1135.7511,-8.2608,1361.0405,208.6492,1587.6096,183.2794,1594.8364,129.2262,1539.9977,60.9038,1438.8385,276.5121,1454.1636,222.6365,1249.3960,275.6833
220.3390,1430.6454,119.9347,1097.0929,13.2633,1384.9596,138.5727,1614.5596,136.1402,1640.3042,164.5468,1477.1163,78.8923,1512.4163,210.9664,1400.4551,176.4433,1218.5135,305.5032
198.9568,1311.1482,68.9852,1034.7296,-1.3094,1395.3237,221.0918,1520.6763,236.1480,1489.8625,136.7488,1455.9691,96.9209,1564.5699,154.8310,1441.1357,115.3653,1127.8235,305.5237
150.3200,1253.6598,-8.2308,1007.8945,-51.0973,1403.2686,255.1210,1365.1868,283.5670,1283.0911,97.5613,1470.7719,102.0729,1519.7434,160.4315,1459.8367,79.9662,1104.8298,212.9265
99.5974,1333.3105,-40.5082,1047.8363,-52.2981,1465.1115,160.8884,1336.6754,210.4431,1309.2787,79.2826,1462.9250,100.0180,1498.0757,169.3472,1403.7178,75.8339,1190.7939,138.2132
52.5714,1414.5162,-44.7217,1094.9287,6.6917,1526.6053,143.1714,1455.2462,187.0776,1510.7766,64.6150,1414.7947,107.1557,1485.3365,149.0347,1390.3641,95.8386,1272.8462,159.0243
70.0580,1359.2291,-24.0017,1090.7943,81.5140,1525.2856,256.8759,1540.0157,247.8532,1590.3643,81.3415,1359.7878,149.4418,1409.1255,156.8361,1439.8767,124.0836,1285.5984,212.7925
138.6522,1224.8300,41.3281,1053.9180,156.6994,1496.7582,347.6177,1503.1284,293.1352,1492.5945,146.3671,1332.8153,210.6544,1377.2324,212.0516,1425.5529,118.4635,1246.4806,251.2980
145.0171,1179.2051,88.0678,1040.9789,213.1013,1463.7211,374.9908,1436.7177,304.8812,1396.5181,200.1608,1351.1912,238.7799,1439.0717,242.3861,1305.6287,98.2848,1183.9298,268.5720
105.1022,1251.7622,83.0890,1075.8623,218.7739,1420.1086,366.2477,1398.2396,277.2122,1363.2327,201.9420,1378.5906,229.3347,1454.4280,203.5327,1210.8855,129.6199,1169.3573,236.9263
118.0284,1272.4614,94.4959,1117.4899,175.7572,1404.7002,285.4205,1366.6616,211.6978,1330.5989,161.6286,1328.7458,196.9485,1384.5922,150.4047,1269.3517,162.3667,1229.8239,176.6370
146.2049,1161.7244,129.8915,1115.8619,118.6007,1411.8112,178.0892,1360.5598,188.0905,1307.3690,97.8771,1211.7428,126.0784,1317.6449,151.1918,1394.3036,118.8666,1254.3036,143.9409
140.0145,1087.1351,146.7695,1097.9736,102.6775,1366.7355,132.9261,1369.4590,190.5974,1313.4318,60.2157,1163.9719,62.5645,1269.7921,187.5641,1386.6719,87.5794,1185.9259,114.5515
140.0956,1137.0562,170.5592,1112.8254,155.5629,1279.5955,118.5061,1325.9923,122.3953,1311.0854,61.3986,1204.8654,85.3675,1257.5502,188.4044,1281.9847,142.8201,1117.2604,62.2680
112.6076,1160.6580,186.4946,1125.0089,190.6525,1226.1409,107.7088,1279.7645,64.6350,1311.3230,16.8726,1185.9146,128.9148,1302.8628,149.1174,1291.7238,186.2192,1088.5947,49.1111
49.8258,1139.7549,144.1297,1104.5815,114.6108,1203.9758,129.9730,1320.0627,110.0682,1329.8925,-61.3506,1090.2842,82.4358,1290.1898,136.3012,1369.2068,208.4552,1074.2605,75.6979
136.1880,1288.6678,149.8176,1136.8337,27.1546,1190.2113,121.9865,1347.0793,117.0684,1299.7222,-5.8915,1065.8214,15.0271,1168.8081,157.7679,1295.7303,362.9607,1115.4266,54.5155
440.3227,1643.6241,320.6699,1275.1632,82.1170,1213.0676,48.6892,1263.8500,17.7233,1220.7075,207.3349,1119.6884,36.2692,1117.5160,155.7152,1148.9863,659.3537,1206.0248,12.3340
762.8801,1999.0717,548.4301,1426.4449,220.6288,1257.1522,33.1847,1193.7468,-26.5959,1170.4601,423.6499,1146.5004,106.3389,1199.4629,141.2856,1141.5660,967.0110,1255.0977,50.2815
1029.1359,2240.5012,721.3096,1527.5128,309.5502,1272.8718,104.5370,1207.3617,14.1682,1111.7267,621.0326,1192.4807,186.7554,1231.4144,160.2805,1179.6243,1276.8789,1292.6139,130.9217
1366.0598,2361.3086,915.8754,1642.3153,398.8131,1296.7299,135.3567,1195.7960,21.4241,1023.2405,886.0692,1337.2512,324.4774,1177.0988,169.2610,1105.2037,1629.4323,1417.1862,171.0266
1738.3624,2328.8328,1167.5415,1792.4633,590.1363,1398.8101,128.8129,1164.4084,33.5474,1046.2944,1169.9325,1484.7567,504.0638,1213.1473,156.0373,1039.5894,1947.2285,1572.8844,214.8339
1970.6024,2197.3374,1371.1722,1900.2748,818.5876,1549.8491,183.5557,1210.0258,123.5904,1170.9778,1370.6262,1542.0049,659.6631,1358.4524,233.9207,1082.6470,2130.2373,1648.2727,305.5190
2023.7733,2098.2146,1457.2963,1921.9229,948.1125,1642.2224,261.3814,1263.3549,206.7128,1188.9883,1463.1482,1560.8412,772.0627,1436.3715,398.3644,1121.4498,2135.0728,1644.0504,383.5004
1946.0050,2036.2501,1423.7843,1867.4114,947.9322,1603.4387,295.5513,1247.8816,233.6544,1130.5438,1419.5676,1560.1239,807.5731,1363.0861,452.8290,1134.2188,1958.0288,1600.2488,423.3277
1759.8700,1946.4103,1290.3022,1746.8229,879.7391,1470.5631,311.0345,1246.1156,266.3292,1176.2269,1250.9200,1482.2363,738.2443,1227.6827,356.7392,1185.6334,1681.6497,1545.9789,455.8938
1522.5273,1853.4998,1129.5135,1606.8871,794.7415,1357.9683,310.6969,1276.4650,308.4786,1228.2380,1084.6273,1358.5431,643.7567,1157.7743,302.5181,1171.2316,1429.3645,1508.6019,462.0352
1308.6582,1782.1205,999.7384,1517.4116,697.6514,1320.4788,278.9976,1253.7825,304.6076,1149.3658,989.9601,1282.4862,595.1958,1196.8066,349.3129,1032.4540,1235.5820,1456.5613,434.3358
1145.1664,1697.1617,884.2317,1481.3893,600.6497,1299.6663,236.2113,1193.9293,229.1551,1073.8738,894.6638,1263.0054,543.0432,1264.4916,350.5968,947.2635,1079.7067,1360.6289,439.2628
1028.3875,1610.9395,783.3669,1454.1029,546.8611,1239.8972,163.2946,1148.9482,107.9594,1078.8641,768.4805,1252.5743,456.7837,1240.1700,252.8764,972.2674,965.9467,1283.5688,487.6071
923.1502,1555.1788,718.1730,1415.9265,523.5741,1159.7783,62.0252,1099.0675,38.3625,1057.6382,661.5043,1226.8021,390.6903,1095.0312,154.3495,949.0941,878.7315,1250.9475,508.5251
785.3110,1497.2753,645.0728,1358.6116,452.7179,1096.6044,32.3933,1060.3844,75.3452,1020.2250,573.1044,1164.8357,363.3892,922.0333,124.9051,894.9478,765.9450,1192.2869,495.8640
631.3184,1424.8572,526.5462,1269.4403,337.5120,1067.8882,80.5235,1051.4834,109.7745,1016.6053,474.1765,1052.9614,341.2170,844.3443,143.5275,934.4304,598.2837,1100.4370,488.6306
501.4403,1374.9719,408.5131,1159.3684,273.3819,1059.8639,81.4514,1002.2695,63.5840,955.9745,383.8412,933.9247,311.2498,887.5181,141.6284,942.9992,413.2364,1031.5657,453.6063
404.7306,1327.7179,341.0758,1055.6206,283.8781,1022.5170,50.9374,906.0897,38.3950,833.8033,326.9849,870.4874,285.9936,948.6611,92.4254,797.3543,308.0568,976.1934,365.8027
349.5308,1238.0887,320.4512,973.7695,312.2243,932.8644,109.8358,857.7905,88.8836,782.5201,297.0655,856.7119,285.8338,915.2825,72.6697,676.3055,312.1471,911.6019,287.8354
315.8777,1129.2644,309.6591,911.2828,336.1076,833.1122,207.8549,864.4122,134.2324,819.7454,276.9090,833.2542,305.6833,775.5370,123.5175,698.0682,306.4221,855.4723,251.9114
255.5460,1015.5947,277.8076,855.6422,349.7179,764.0955,238.3352,859.1341,159.6460,858.3796,261.6782,784.2433,302.4790,613.3843,147.8653,701.6414,229.1892,800.8929,224.1444
210.2678,870.6136,259.9158,811.0378,336.9250,730.7115,257.1725,814.6524,204.1065,819.4827,269.8896,745.6620,283.5029,544.4741,110.0766,613.1799,189.2188,749.1017,211.9420
245.6807,755.2452,303.1038,787.1942,334.4153,721.9255,315.7787,694.4930,231.4058,638.7014,294.5890,726.2964,303.6656,593.8480,119.3355,550.6823,205.7578,734.0610,230.1538
270.6989,755.6216,334.3774,741.8453,380.0011,701.9220,336.5075,500.9507,228.7314,403.2410,266.5732,697.9159,322.9364,638.0892,197.1047,534.3640,152.9324,720.7475,226.3719
179.6638,766.2148,259.9617,625.9603,412.0246,652.0717,299.2239,360.5596,249.1809,316.0174,159.7795,645.1705,266.6591,592.9807,259.1112,488.8152,44.3363,643.8227,187.6608
53.9327,623.2470,143.4154,487.3508,354.2773,616.7559,271.4669,342.9153,275.5017,364.6651,54.8185,567.3156,195.9017,542.4185,310.4348,417.2745,-8.9461,532.0350,171.7966
-5.5555,421.0785,79.3853,402.5745,228.3566,603.2830,230.1184,355.7566,234.7279,376.5980,4.4927,478.6269,179.6762,532.6984,352.4506,353.5031,-39.7603,433.7025,156.1225
-32.9887,358.7013,37.1968,357.5450,105.6372,544.9980,105.5325,332.7262,120.3758,341.7733,-29.0290,423.6898,149.2869,481.3151,281.7393,318.9044,-98.6578,343.1208,66.8057
-68.5288,369.6709,-20.2345,308.7536,35.0957,451.6324,-50.8343,282.3395,-8.0853,297.2184,-59.8625,412.4246,76.2655,391.1961,123.7935,345.3950,-141.6169,276.9896,-46.3579
-110.6812,267.9324,-69.9166,249.3895,19.7861,397.7024,-134.9031,192.5244,-75.8787,182.0937,-66.3990,374.3384,43.7026,345.0759,61.8510,390.6154,-202.4122,252.3195,-79.7613
-183.4430,102.3075,-123.0590,166.7979,9.6424,351.8550,-142.9021,99.5694,-58.7966,61.5930,-80.4491,267.4421,47.1253,307.4857,113.7971,362.6014,-330.6262,229.6445,-44.6678
-277.0289,22.6266,-193.0592,76.9602,-34.0188,259.4067,-136.1353,88.3639,-41.1167,83.1639,-143.3528,156.9555,7.9474,221.3855,117.3647,279.1822,-414.3521,203.7358,-7.9116
-323.9503,7.2691,-234.6684,46.6689,-81.5964,195.1545,-137.5695,144.9172,-91.6139,185.7289,-216.1521,118.6013,-46.4283,148.8754,23.0799,218.6120,-375.9438,207.4915,13.5439
-301.0538,-12.4708,-223.9764,66.0720,-100.2515,214.5990,-126.9541,211.1381,-120.4303,235.2847,-223.4508,150.0982,-53.9476,136.7499,-76.1132,188.5129,-317.1030,207.8676,26.7643
-249.1370,-15.7703,-186.2865,56.4906,-89.8782,240.8814,-78.8559,298.8497,-31.9543,268.4675,-156.7473,195.5013,-37.6653,157.2734,-106.2104,190.0022,-307.2562,175.8748,47.6547
-223.3905,-21.7048,-151.1689,39.2994,-33.9950,226.4621,-0.3221,391.9496,82.1065,348.2446,-101.9363,193.8167,-18.7264,190.4366,-56.9458,244.0354,-314.1695,160.2931,84.7801
-262.8147,-82.3305,-156.6976,75.6812,55.7357,200.6645,38.5993,418.5580,77.1121,413.9174,-140.7123,137.6424,13.3450,188.2790,12.0524,296.0190,-320.8524,166.7496,85.0666
-329.3026,-134.2957,-195.6946,107.5539,94.2968,155.5738,-20.0297,363.6206,-22.1422,368.4027,-224.2180,100.5430,19.6217,111.2630,10.1710,272.8592,-299.4235,140.2943,11.8203
-331.8057,-99.4930,-182.6932,72.9489,52.8410,89.5463,-102.0105,249.8739,-70.4121,199.6000,-241.2740,142.4076,-34.6713,56.4605,-59.0475,199.5584,-233.3623,92.8765,-55.0565
-271.8252,-49.9299,-108.7761,27.7499,20.6851,68.6133,-85.6686,108.2919,-11.0349,39.6063,-203.9575,218.4800,-91.3605,121.3754,-113.3210,145.4294,-209.8326,79.6746,-48.7784
-240.7223,-97.0549,-79.6228,19.7157,49.6201,119.2783,-1.5572,27.9342,62.5271,24.1951,-200.1275,246.2538,-73.4072,232.5922,-128.9638,141.4693,-281.6911,117.9399,-32.1885
-268.5007,-227.3592,-110.0930,25.2257,82.7583,183.7951,13.5353,52.2437,45.5795,76.8405,-211.5002,209.1563,6.7676,291.5681,-123.3958,171.6625,-361.6399,202.8615,-60.8318
-312.6337,-330.4408,-123.2045,26.7764,69.9116,199.5395,-65.2630,91.2627,-47.0860,68.8529,-187.2607,153.8515,58.4004,288.7221,-77.9677,179.9249,-395.8732,283.0031,-96.1179
-354.1068,-319.5112,-146.8192,3.2466,18.4877,139.6176,-131.7303,87.3976,-107.8124,67.1992,-199.2843,128.4232,11.8973,224.3951,-2.7725,143.1932,-428.8175,270.3959,-113.7537
-404.5526,-229.7663,-242.9234,-72.4188,-54.8875,40.8658,-112.9297,89.1089,-63.5790,129.6404,-305.8726,138.7280,-97.6113,138.3307,22.1101,126.6760,-474.8425,176.7878,-128.1561
-456.7842,-188.3517,-341.2212,-157.7839,-132.9893,-9.3366,-56.6780,105.9320,13.9509,150.1718,-395.7442,156.5517,-172.5828,118.5948,-49.0423,165.5216,-511.8141,101.2205,-126.0280
-473.4382,-233.0186,-359.3997,-183.6863,-190.8385,6.4638,-68.0387,103.9172,-29.9744,114.9187,-368.6243,160.2872,-177.3970,140.8753,-154.1765,177.7373,-523.3515,76.9123,-98.7015
-442.5952,-264.1861,-336.3943,-149.3137,-214.0606,28.6178,-157.9745,104.0758,-179.7542,125.2611,-318.4869,140.3525,-159.4315,101.1392,-196.4110,104.7721,-488.7384,89.6075,-64.7817
-432.4692,-241.3034,-336.1275,-101.4754,-209.1765,49.6419,-195.2798,143.8995,-215.9764,163.8833,-364.2342,90.1386,-166.5984,22.2220,-170.4723,34.6974,-442.8988,124.4545,-22.1448
-502.8983,-251.5916,-372.5389,-99.7880,-204.7045,76.2807,-104.6210,233.2227,-78.2645,194.6865,-452.8154,33.0023,-206.1460,5.6511,-169.7539,84.2739,-464.0835,99.2605,24.5489
-587.2434,-321.3514,-429.2640,-167.9850,-221.7910,54.5057,7.2743,356.3491,34.4727,283.6563,-474.0860,13.1528,-246.6989,56.3194,-229.0554,210.5707,-534.5232,-20.1597,35.3380
-585.9857,-345.1769,-448.8038,-206.5108,-231.0782,13.5807,56.1880,442.5356,49.4964,401.2014,-426.4323,37.8594,-236.6040,109.6171,-251.5172,248.5930,-564.7110,-77.7186,9.4199
-506.8506,-262.5505,-383.4530,-109.9849,-198.8643,73.2992,92.4133,442.3343,79.9545,435.7944,-363.2895,75.9954,-170.3638,131.0572,-175.0701,174.3928,-526.7073,21.2345,-10.8293
-417.5996,-161.1436,-289.7872,27.5293,-160.5130,187.7358,108.7100,422.9093,91.5549,422.9200,-313.9001,93.1582,-116.2025,131.3421,-82.0225,161.6860,-447.8480,110.2823,-27.6509
-373.8354,-145.0567,-258.4514,60.9119,-163.3456,189.0006,39.7472,431.8778,3.4683,431.6857,-310.4301,65.2633,-130.0795,137.2348,-59.5934,253.9611,-381.9708,73.8018,-63.8751
-399.6905,-191.0863,-281.6531,36.2982,-185.7967,104.4013,-31.5244,394.9634,-42.5050,385.8479,-352.0154,11.1655,-183.5978,144.9259,-90.9161,255.5624,-383.0960,37.4901,-97.0201
-435.0126,-212.4415,-298.1209,38.3330,-191.3234,78.8895,1.0011,285.4373,39.1630,245.9938,-354.8334,-15.8954,-209.8576,127.7194,-126.6291,113.6480,-403.3897,63.6382,-118.7372
-407.3980,-206.6341,-302.9873,9.0824,-190.9211,73.4732,38.6238,195.6236,73.3407,130.2774,-282.6049,-17.7775,-189.6029,92.4976,-141.3246,40.2943,-370.9342,45.9045,-168.7115
-378.6345,-228.5690,-326.2777,-82.7855,-202.5771,-15.9485,-25.9109,171.5469,-8.0850,114.8319,-240.8257,-41.7078,-171.4531,58.3771,-126.5747,120.8929,-367.6148,-12.1401,-245.9851
-422.8324,-265.7265,-363.9773,-144.3943,-220.1390,-112.6057,-97.4479,165.3065,-49.8535,136.2680,-299.6258,-73.8300,-202.6892,25.7327,-111.7825,194.0958,-462.7933,-1.4759,-293.8349
-457.6709,-269.7354,-385.3129,-136.8137,-236.1718,-120.7339,-84.7104,143.7273,-11.2190,146.0820,-361.9697,-70.4626,-257.1715,9.5034,-141.2523,160.6885,-519.0458,38.2487,-294.2755
-412.7599,-251.3223,-371.4311,-130.6214,-245.0293,-116.6049,-54.9780,118.3688,16.3772,171.6460,-332.1277,-48.5295,-276.8709,9.3185,-188.6491,77.7448,-444.4743,2.2193,-285.7306
-364.9393,-243.0975,-330.5836,-168.2756,-234.0494,-166.5505,-69.8128,100.9598,16.6849,186.1035,-260.2274,-40.1816,-260.6248,-12.0322,-178.2121,6.1457,-368.1736,-60.9974,-291.3443
-361.1632,-257.6887,-297.6894,-218.0827,-200.9760,-188.8822,-107.7874,81.6091,-15.6099,111.5896,-226.8228,-52.6117,-243.8526,-43.6021,-119.3845,-31.2638,-379.2003,-71.6933,-291.6197
-353.7742,-315.9451,-304.9883,-241.9748,-170.7294,-138.2915,-155.2850,57.6644,-100.8914,12.0584,-219.6134,-102.5644,-228.0141,-50.6306,-114.0093,-39.7515,-409.2516,-79.6309,-265.4130
-335.4014,-398.0186,-331.1555,-241.4109,-168.9838,-91.7632,-197.7805,63.4799,-159.7960,29.8337,-187.2066,-173.9644,-194.0340,-57.7177,-180.6801,-45.6489,-410.3781,-118.2700,-229.5411
-323.5319,-405.9740,-315.6683,-232.3732,-168.0029,-70.6582,-198.0072,89.6253,-148.3631,84.9440,-128.4565,-195.9244,-143.6146,-56.4826,-202.1526,-44.3307,-381.5354,-107.6693,-222.5354
-299.8822,-298.2120,-250.5723,-193.2199,-111.7948,-11.1251,-175.8761,40.2101,-172.9489,-0.6149,-84.7779,-153.0584,-91.3307,-10.5101,-128.7838,-36.1388,-317.7254,-27.0185,-248.5140
-278.4352,-175.9316,-200.7243,-111.2202,-27.6689,62.9150,-182.0585,-79.5604,-246.3863,-120.1519,-77.4182,-110.2037,-50.6592,-8.3141,-70.4537,-64.5102,-272.3240,20.0410,-265.2774
-287.1411,-148.6350,-204.9345,-65.6990,-10.3572,63.0623,-178.1158,-107.1119,-214.8719,-74.7515,-93.9128,-107.0414,-35.4185,-104.3681,-95.6968,-105.3102,-299.7709,-19.0218,-236.3699
-289.3368,-211.4756,-229.4713,-122.5542,-60.4218,4.5133,-104.1232,-13.2798,-69.9787,33.7957,-129.5310,-136.7786,-54.3146,-146.2946,-136.7428,-81.7636,-340.2396,-81.6291,-165.7937
-258.6857,-286.3286,-238.6748,-197.2346,-92.0259,-41.2207,-31.0684,28.4763,-1.3101,30.0515,-184.2444,-178.7445,-101.6535,-76.3532,-143.0835,-38.2155,-325.6755,-115.3633,-95.7643
-241.9775,-306.4981,-238.6241,-189.0923,-103.6405,-66.0410,-66.4240,-45.2225,-74.4148,-43.6097,-227.1268,-195.6128,-151.1638,-42.1958,-119.2244,-69.0337,-296.4326,-121.0032,-87.4565
-266.9889,-271.1477,-241.4165,-140.8762,-146.3806,-67.2479,-158.9587,-125.2977,-151.5606,-121.8896,-231.9443,-179.2896,-172.3439,-48.1533,-55.1987,-136.1806,-296.5695,-97.3712,-153.3054
-290.1516,-239.5114,-234.0059,-120.1901,-171.0114,-35.4027,-179.3039,-156.0076,-145.5891,-192.1590,-219.1009,-169.2845,-167.8697,-16.9437,-2.2501,-165.0091,-283.6920,-50.6685,-218.7711
-262.2661,-245.4022,-191.1437,-101.6418,-112.5816,-42.5976,-133.1019,-156.1849,-118.1775,-175.3378,-207.6728,-168.8518,-159.9341,-69.9892,-55.0442,-167.3459,-215.4694,-12.1451,-224.3818
-193.6731,-256.0524,-122.4718,-68.9998,-41.6428,-134.7213,-117.5430,-136.9690,-121.9501,-90.4082,-182.5817,-154.2801,-140.9764,-218.9034,-158.2186,-162.3074,-134.4354,1.7990,-207.2965
-145.2126,-236.6250,-90.9422,-77.6316,-61.5834,-205.3709,-142.9358,-124.4104,-125.7595,-80.8320,-138.9642,-159.9376,-105.4905,-219.5263,-181.4999,-147.0437,-106.4139,-10.2004,-203.5457
-138.5690,-182.4285,-126.6631,-149.3889,-149.2269,-184.0663,-158.9055,-125.6629,-114.0278,-119.0310,-96.1430,-204.8273,-96.2465,-78.4787,-149.9896,-132.3647,-107.1170,-56.7327,-186.5060
-114.0413,-91.0815,-157.4839,-206.1719,-202.5158,-169.1720,-171.4575,-127.3755,-125.0637,-111.5357,-58.4348,-217.5874,-127.4414,-48.3799,-129.9301,-117.3747,-50.7108,-112.3920,-169.6532
-26.6562,24.3777,-110.2065,-161.2216,-176.3174,-212.2921,-205.6506,-177.0424,-173.0158,-167.5348,9.8963,-169.1676,-127.8030,-102.6842,-82.5741,-120.0056,73.3321,-118.3259,-201.0009
105.5753,124.5148,-14.3584,-47.4497,-119.1568,-223.8066,-229.7959,-262.2311,-220.3660,-303.2862,156.2843,-146.0314,-51.5751,-101.5224,-36.3471,-175.8428,197.0415,-79.3207,-223.1702
255.7242,184.7183,64.6047,16.6428,-90.8329,-173.3187,-196.6800,-226.0284,-218.3057,-273.6729,341.0572,-199.3542,40.0035,-135.0324,-79.8387,-223.4794,273.5753,-66.8249,-145.1186
361.9483,203.2824,100.2491,1.6635,-72.9933,-122.2132,-111.7159,-60.7750,-144.2527,-51.8835,422.3553,-254.6575,80.0728,-193.5248,-118.9825,-184.3364,280.1736,-91.4903,-34.6035
343.8500,175.8329,94.6841,-10.7862,-13.1098,-78.2690,-31.1369,8.5667,-48.0573,63.3993,358.9336,-228.9812,86.9954,-105.7490,-26.8606,-136.9899,220.4023,-88.0524,-21.7888
256.4966,104.3262,87.9204,9.4718,75.9390,-30.4283,7.2465,-70.0448,-10.0875,-18.2967,297.6622,-155.8496,107.3426,16.7951,79.3305,-156.1886,167.3152,-39.5315,-72.9227
225.2883,8.6674,128.8630,24.0639,150.1007,-17.9639,48.7723,-110.7680,5.4599,-91.7997,310.7689,-134.0623,149.3228,-37.3298,80.2175,-157.4063,160.8884,6.8677,-64.2413
217.4058,-69.6739,186.9440,49.1845,208.1009,-35.9591,140.0175,-95.2549,88.1450,-95.1564,281.5262,-163.9975,195.5775,-144.8960,88.9501,-127.7483,132.3036,40.5928,-0.9138
158.0682,-67.7618,205.9120,123.7345,251.3226,-26.4302,185.7950,-179.6483,145.2015,-168.8069,185.0075,-141.4705,222.3519,-158.6073,155.3168,-192.0904,75.5279,84.4722,16.9084
135.5481,14.5930,220.7242,212.4276,257.9678,-1.8780,62.7733,-344.6759,21.3269,-336.7107,160.6724,-56.4135,205.9721,-178.6367,132.1698,-325.4997,97.0512,113.9162,-15.6585
198.5312,45.4683,272.2944,251.0396,233.0833,-23.6038,-130.6796,-423.2896,-169.6687,-441.1828,222.6786,-24.6584,153.5975,-219.6219,12.1597,-370.6502,187.1860,88.4099,1.1430
213.7770,-76.2613,306.1891,210.5977,201.4821,-83.7925,-181.9767,-373.6517,-198.4721,-383.4935,232.1624,-74.5876,108.5208,-181.9876,-30.7859,-327.6568,205.2242,28.3213,100.1581
134.6909,-240.9249,287.4409,106.6991,173.0433,-133.0177,-106.8177,-296.8650,-113.8848,-272.8711,153.9729,-120.3794,91.8917,-140.8797,15.2509,-303.5020,122.9992,-25.9133,173.9648
79.5725,-290.8391,261.5190,5.4349,154.0491,-174.5233,-104.9694,-285.2013,-116.9395,-270.2517,69.0514,-139.2274,80.2542,-184.5733,12.4230,-305.5879,42.9313,-85.6264,122.2747
72.8775,-260.8294,230.5493,-56.0373,127.5825,-245.6287,-195.5952,-338.6381,-191.2137,-355.5348,15.7577,-161.4024,61.6885,-233.6890,-37.3186,-306.0487,21.0533,-188.5220,-7.7689
28.6241,-283.5429,140.7522,-144.9922,46.3218,-343.1748,-193.4870,-381.7360,-173.3282,-381.8531,-21.1583,-183.8500,43.6253,-269.2924,-42.5887,-329.2826,20.6693,-333.1605,-106.1525
-62.3528,-390.3664,2.2362,-302.2788,-80.8388,-418.7876,-47.8123,-356.3669,-42.3848,-315.2907,-67.8516,-237.6395,7.0656,-339.8309,-17.7981,-364.3465,-26.1235,-448.5070,-139.4501
-146.7047,-519.3094,-112.0598,-430.1275,-167.3878,-435.5809,71.9257,-293.7799,71.2110,-273.8610,-130.3639,-352.1446,-50.5134,-358.6223,-3.4401,-354.6564,-134.9632,-440.8135,-132.6041
-188.9816,-584.5888,-158.0656,-439.3694,-160.1349,-403.5677,51.7730,-285.5780,64.8637,-347.2563,-149.6174,-427.1028,-70.3925,-284.8087,18.5033,-307.6819,-226.6434,-329.0281,-111.0603
-172.6294,-535.8493,-156.2551,-376.9253,-96.1520,-368.3196,-30.3622,-382.1629,-33.4928,-468.8358,-89.9737,-379.7127,-36.3279,-274.8049,29.3618,-292.5476,-243.5716,-270.6489,-103.0337
-140.9588,-456.6009,-168.4008,-341.9675,-55.0873,-379.6913,-71.1607,-498.9354,-103.1041,-498.7378,-48.6807,-317.2040,-25.8981,-378.9478,-3.0391,-324.3674,-241.1659,-342.5216,-107.2845
-163.9531,-477.7091,-219.3255,-386.2716,-86.5683,-442.1784,-67.4328,-498.0226,-76.9828,-426.2025,-113.5762,-340.1208,-74.9369,-431.7351,-35.6864,-349.6923,-259.4534,-425.3365,-83.0068
-211.2974,-544.9323,-252.7405,-476.3673,-149.1706,-497.9160,-59.9645,-411.7381,-28.6142,-379.9087,-217.2086,-380.1940,-136.2617,-375.1263,-57.0638,-353.6595,-258.3595,-436.4647,-44.3847
-216.5335,-514.5475,-233.3586,-521.4314,-167.4413,-513.5813,-78.5752,-399.1356,-54.0616,-403.0345,-269.4271,-384.5686,-193.4423,-340.4000,-121.5047,-365.0452,-243.7976,-467.2078,-66.8232
-216.9774,-445.3229,-216.4641,-511.8611,-166.7569,-531.6394,-131.7749,-456.5242,-125.4289,-418.7309,-270.5248,-400.6697,-243.9857,-382.6071,-175.8394,-357.4655,-268.2805,-562.9138,-149.6843
-255.0098,-483.7831,-243.3931,-543.6401,-222.9072,-560.7196,-183.2009,-460.3950,-147.7842,-428.7030,-246.5923,-423.0146,-238.5921,-416.3184,-121.4451,-315.1911,-320.3603,-630.6523,-206.6230
-284.9686,-577.3835,-292.2747,-628.8503,-311.2814,-541.0527,-186.6599,-443.6903,-109.2801,-485.5086,-242.8833,-402.9839,-190.6501,-398.6818,-47.5079,-342.6848,-359.7996,-650.9016,-205.4545
-301.6452,-605.3870,-353.1245,-670.7122,-369.1562,-485.3233,-165.1378,-501.8739,-88.1108,-537.5576,-309.0447,-371.1850,-192.0124,-378.9740,-86.0514,-485.7638,-377.2588,-707.8054,-195.5250
-353.0857,-598.6359,-411.2515,-652.2253,-408.1962,-465.7312,-186.8239,-570.0194,-138.9311,-537.1746,-373.4864,-368.8069,-236.7797,-379.8450,-160.2419,-583.5352,-365.6866,-786.5284,-214.1195
-388.2247,-595.2739,-408.3473,-621.6683,-432.6426,-458.7313,-265.6786,-557.3105,-234.6916,-527.0845,-315.3516,-368.8969,-235.9242,-381.3766,-164.5257,-528.4565,-331.4121,-780.9711,-248.4195
-326.5888,-527.6232,-334.8682,-551.8451,-397.8349,-420.6835,-337.5426,-499.2330,-298.8624,-497.5232,-195.5363,-360.4955,-192.4999,-419.2458,-156.1437,-448.1003,-295.2169,-671.4716,-271.8306
-233.3607,-397.3365,-257.0404,-416.1684,-313.1376,-406.9113,-327.5856,-456.6116,-264.7380,-420.3678,-165.7718,-365.5050,-161.2863,-518.8306,-167.6997,-456.3241,-244.2945,-529.8095,-279.8275
-204.8785,-317.9782,-207.8694,-281.3402,-240.1169,-418.1609,-233.5015,-457.5234,-151.0016,-397.3220,-200.4055,-360.1611,-139.2803,-552.7012,-129.7538,-492.9854,-178.6437,-412.9655,-277.3914
-196.9815,-328.3185,-174.0459,-209.5625,-205.6959,-358.2137,-139.0996,-499.0563,-75.4686,-488.6313,-180.9018,-324.4323,-125.5792,-425.8806,-67.3953,-484.0945,-150.1301,-326.8300,-240.9664
-150.9480,-352.2005,-156.1261,-195.0363,-194.8002,-257.3390,-109.3485,-501.3508,-101.4976,-547.2206,-127.5127,-314.8919,-133.2717,-314.0922,-86.8481,-431.3760,-161.1211,-238.1271,-151.6326
-124.1972,-330.9798,-142.3908,-195.4247,-163.2915,-232.0096,-105.8459,-405.5688,-123.6172,-449.4997,-118.9789,-362.1313,-129.1841,-376.6998,-174.3206,-368.2184,-146.0424,-132.7279,-54.1583
-149.7532,-280.8994,-106.1441,-155.5358,-78.9513,-246.6948,-71.1889,-285.8421,-48.7789,-281.1904,-129.8974,-389.4939,-108.2412,-448.3571,-219.4060,-337.9562,-91.5449,-71.5618,6.6739
-147.6040,-250.6675,-63.6172,-89.9102,-0.3985,-226.6781,-28.4268,-214.9692,17.6820,-181.7020,-113.9666,-337.1057,-121.9640,-379.1044,-192.3765,-337.2644,-49.1353,-108.0777,51.7538
-85.9201,-267.0031,-47.6942,-109.2442,-3.8238,-233.7770,-23.4273,-181.1552,-46.4982,-192.3416,-110.4616,-264.0345,-158.4439,-309.5734,-171.9851,-312.7770,-61.0606,-190.1878,83.9869
-60.7598,-313.7410,-62.9968,-240.9127,-49.7676,-291.0830,-39.8730,-191.0867,-147.9389,-256.8550,-165.3110,-253.3848,-171.5463,-314.8915,-201.5036,-264.7144,-135.5029,-254.0387,67.0382
-137.5317,-366.9802,-118.8338,-365.4446,-83.3170,-315.8109,-29.0288,-228.2316,-123.8318,-272.2590,-246.6385,-311.9901,-194.5020,-276.1642,-200.6353,-221.6296,-228.8334,-332.3325,32.7397
-249.9049,-421.7763,-219.9687,-429.5041,-160.2701,-325.5231,13.3667,-198.5249,-1.7510,-206.2279,-291.1411,-398.2736,-247.6783,-230.0853,-113.6945,-161.2110,-283.7198,-459.3069,32.9896
-305.4383,-464.7232,-319.9963,-501.5297,-307.8939,-389.2808,39.1014,-109.2372,61.0754,-140.6477,-282.1194,-457.0000,-271.8063,-295.6607,-40.9034,-103.3173,-311.4942,-569.9540,19.9809
-297.6007,-472.8947,-364.9118,-581.2927,-414.2647,-438.0424,27.9663,-91.2556,19.2029,-134.0569,-255.3199,-436.8100,-257.1475,-359.9800,-53.2404,-117.9001,-334.4684,-585.3878,-42.5283
-280.2337,-454.5699,-351.1804,-596.8730,-388.9251,-405.0939,23.2022,-170.6958,-30.9878,-174.8312,-236.6300,-367.5002,-245.9029,-318.2702,-68.6390,-176.4242,-324.6101,-514.4777,-83.4470
-283.3289,-443.5768,-314.3393,-558.3857,-304.2862,-362.8287,27.1497,-262.9586,-37.1208,-264.1431,-208.1323,-358.7940,-226.2481,-293.5503,-68.7571,-217.3013,-311.3065,-425.9736,-90.8835
-291.1338,-449.1770,-304.0633,-518.3179,-295.4155,-354.1737,-27.1887,-312.8734,-51.5919,-346.5438,-165.8096,-424.7248,-204.7566,-322.2238,-122.1630,-264.3604,-357.0109,-384.8522,-152.7030
-284.7955,-435.2479,-330.3222,-471.9465,-376.8077,-348.2123,-115.4058,-279.3142,-81.8916,-295.0905,-148.4435,-430.3810,-236.7964,-302.1858,-150.6389,-294.1895,-383.4314,-414.6203,-245.0306
-256.7874,-366.4705,-322.6161,-416.1206,-420.1182,-380.0214,-124.6755,-193.4515,-64.8817,-177.9722,-157.0398,-322.1721,-281.2501,-295.4928,-74.5452,-245.5939,-285.8655,-464.2213,-252.2638
-194.3080,-282.5759,-232.2688,-378.0847,-341.5272,-468.4365,-73.9452,-215.8728,-26.4618,-237.2012,-141.7380,-236.4700,-253.4036,-385.3144,-36.9036,-219.8639,-144.4796,-445.4103,-200.9386
-113.4847,-262.4501,-127.0043,-343.5532,-226.3584,-506.2565,-71.4213,-357.9840,-47.6352,-418.0807,-113.7541,-262.7529,-210.7544,-436.7611,-104.4052,-318.7663,-74.1937,-361.4933,-197.8795
-76.3847,-279.9053,-86.6450,-288.5455,-182.6731,-442.5569,-86.7910,-376.5312,-83.7891,-391.0168,-135.3681,-304.1296,-245.1829,-378.0972,-112.1039,-405.3234,-53.0941,-326.2432,-215.5880
-99.0546,-224.8261,-102.3488,-254.1497,-197.0042,-379.6217,-53.2343,-214.4060,-59.8546,-175.5523,-182.4537,-276.7906,-304.8554,-353.8664,-39.8421,-359.9258,-45.8043,-379.4128,-188.6331
-114.7387,-116.8176,-129.7706,-265.4429,-214.6529,-368.7589,-49.3884,-149.7506,-49.9724,-147.0566,-180.6067,-239.2409,-307.1355,-419.6157,-38.7295,-288.8355,-60.7065,-406.2623,-180.0574
-90.0287,-109.8994,-129.3763,-262.4231,-207.0599,-345.2292,-128.1526,-302.2764,-128.6627,-354.7829,-148.9108,-254.4296,-260.2940,-464.6688,-74.2378,-269.8985,-77.7342,-347.8092,-241.5700
-67.5149,-232.2543,-80.9010,-226.3455,-145.4278,-307.7408,-193.0694,-452.8946,-204.8551,-477.8411,-145.0826,-302.5976,-195.1735,-421.5780,-44.5602,-259.7184,-99.5407,-320.2842,-287.2104
-72.8873,-340.2536,-39.5683,-245.3918,-61.2847,-325.1271,-188.6634,-463.1491,-179.5829,-439.1660,-155.2224,-350.6878,-138.0132,-316.8267,-28.3549,-275.7111,-157.0211,-389.1541,-258.1707
-104.2985,-375.0049,-77.2358,-348.8927,-57.1365,-367.6494,-157.7041,-435.6795,-94.3904,-435.8614,-164.3318,-386.1339,-118.9978,-251.3444,-56.3923,-330.5635,-214.0065,-431.2612,-212.4435
-169.5434,-429.9512,-150.6888,-431.3493,-135.6055,-344.9940,-108.3053,-422.9388,-44.3357,-459.4857,-191.5280,-407.5358,-108.3184,-326.1297,-22.4233,-339.0629,-233.6574,-361.8015,-174.7119
-228.9462,-526.1331,-164.4535,-422.1750,-160.3809,-282.9021,-43.5886,-341.0669,-66.1323,-344.8223,-196.3829,-427.3854,-53.4193,-441.5014,43.0487,-295.3481,-246.3794,-275.0399,-114.8736
-213.6669,-560.2651,-116.4080,-364.3988,-75.8463,-271.7283,-11.4247,-199.4986,-105.0875,-166.6139,-135.0445,-434.1841,7.2067,-398.7655,20.1685,-282.2425,-240.9748,-258.8568,-76.3027
-156.8078,-504.2303,-71.0718,-297.5026,-15.2592,-292.7012,-13.8017,-147.0747,-85.3029,-145.6406,-84.3889,-385.9673,4.4142,-245.4482,-55.4003,-283.3799,-181.7765,-289.6327,-111.8680
-146.4938,-417.7057,-70.6026,-233.7301,-97.8636,-277.8326,-26.5748,-228.4327,-52.5804,-270.1369,-116.1567,-291.0968,-40.7834,-177.7812,-87.1431,-249.1387,-115.9799,-338.6678,-160.5102
-163.6801,-289.8091,-113.5860,-217.8409,-228.2334,-257.3370,-72.8989,-296.6802,-106.2869,-336.2543,-158.6871,-216.6775,-69.5465,-209.1147,-60.6847,-210.0770,-72.0057,-386.0155,-158.3949
-148.7941,-133.2821,-160.3617,-260.3073,-247.5307,-271.2218,-131.7996,-263.5678,-174.0058,-295.3766,-153.1048,-201.3378,-80.9478,-240.3174,1.7864,-169.3820,-18.6238,-380.5260,-138.0739
-143.8419,-109.9466,-185.8017,-292.6558,-211.1201,-266.6631,-128.7980,-230.7660,-118.1749,-282.8962,-165.8000,-232.1744,-109.1167,-239.6612,41.6005,-111.4010,-7.5599,-333.3629,-123.9299
-188.5130,-257.9270,-210.1475,-279.9748,-263.6522,-232.1952,-89.4245,-261.3460,-13.6307,-319.4207,-227.0630,-266.5009,-159.9529,-205.5001,8.9507,-99.2120,-81.1245,-332.5638,-105.3748
-209.4259,-336.6481,-220.3759,-263.8292,-325.5327,-241.1740,-89.7515,-272.7347,-7.3316,-286.5900,-270.7500,-250.5687,-198.4923,-161.7213,-22.9353,-138.7450,-118.4556,-390.9426,-107.9069
-164.9497,-234.9671,-180.6747,-271.0161,-256.5733,-276.4589,-93.1389,-244.5012,-47.2830,-213.5440,-279.9414,-196.9826,-195.3550,-147.4063,15.1143,-134.6228,-55.6279,-434.4862,-130.4293
-136.4061,-160.4726,-146.5163,-287.1190,-161.2452,-256.6636,-51.0047,-246.8696,-31.5197,-232.3915,-281.5842,-189.9091,-166.3765,-145.1239,43.4342,-105.6694,-18.9969,-427.5154,-117.1416
-155.9220,-211.3515,-167.5499,-289.3896,-149.0028,-224.6195,-25.1448,-252.4039,-4.7571,-273.1331,-231.0855,-233.7065,-126.2718,-170.0829,13.0819,-140.5574,-52.6932,-368.0000,-77.8583
-126.6098,-235.0114,-148.6044,-254.7664,-103.0118,-250.7349,-40.6003,-195.5176,-12.1923,-192.4399,-96.1547,-235.8482,-56.6802,-261.9030,6.2206,-172.2209,-50.3382,-265.2579,-64.0504
-15.6644,-193.0114,-38.6875,-198.9919,7.8561,-268.9111,-21.6727,-130.5908,-2.8756,-84.5214,34.4112,-181.6259,25.3596,-287.2927,47.2032,-120.1229,0.4828,-202.8863,-46.3237
57.7615,-189.2701,29.7363,-182.0385,33.8724,-223.7641,29.5712,-128.4146,32.7449,-107.7189,74.2285,-143.1749,70.8698,-144.7755,76.4241,-71.8401,27.3176,-242.6065,3.3828
15.9058,-213.2205,-15.3627,-208.7175,-5.9293,-179.0047,22.1517,-173.6711,38.8344,-215.4625,50.5440,-140.4757,92.8040,-61.1636,97.4154,-92.2440,25.9362,-280.2476,30.5381
-62.2647,-208.4462,-63.9282,-207.0705,30.7899,-168.4939,-32.7652,-235.0183,3.4736,-284.7459,16.3885,-149.8862,121.5122,-183.6277,131.6552,-135.7056,9.8586,-216.7189,18.2547
-80.0109,-182.2632,-41.2868,-145.6165,97.2538,-168.9521,-49.0924,-271.3517,-44.6915,-274.2999,-7.9742,-156.0051,119.6237,-261.8974,136.6486,-197.1234,-6.2019,-146.2149,8.8938
-39.3319,-111.9112,12.7294,-73.3822,99.7352,-190.0464,-43.4229,-238.1016,-80.8361,-214.5938,-0.0134,-126.0037,75.9114,-163.7540,96.6630,-251.7939,39.9635,-157.3971,2.9790
8.1832,-12.6850,63.5862,-36.0349,97.4683,-201.6190,-68.4252,-183.5122,-67.1311,-190.2349,30.1165,-64.3010,53.7304,-90.7039,57.4993,-206.7416,134.8108,-163.0197,3.8631
32.0310,-1.7943,99.8518,-25.1141,129.5206,-135.6403,-71.2068,-180.6205,1.9861,-225.7471,29.9179,-50.3809,59.6838,-93.0263,34.4122,-124.4296,171.1482,-95.5037,46.0221
47.2030,-86.3408,121.3925,-11.2144,146.3069,-52.5229,-17.2054,-189.5434,42.6427,-228.2645,11.0201,-108.5584,42.4804,-59.7948,-0.9806,-157.0725,149.7483,-23.8048,97.8907
90.8704,-148.1622,154.7983,-5.7793,140.9328,-64.0578,9.1076,-152.9958,-2.6936,-179.4570,35.3839,-169.9115,21.9761,-63.8676,-54.5872,-216.8619,152.7463,-0.7399,123.1259
146.0147,-178.7712,188.0154,-50.8628,138.4681,-125.3407,-6.9403,-96.1419,-43.1975,-146.6316,75.9269,-203.6022,38.4434,-154.1843,-100.1974,-142.9143,162.0668,-9.6467,178.3230
153.2183,-215.9441,182.9396,-113.1484,167.4483,-140.4825,39.9114,-52.1914,13.0153,-96.7783,70.9514,-225.0132,58.6662,-194.4273,-123.2019,-43.3743,156.4777,-30.8346,254.4811
138.3176,-199.1985,181.0760,-97.2131,255.2921,-126.9191,117.0554,-47.6790,72.9611,-26.3253,72.1502,-225.2882,61.4675,-180.2391,-133.5858,-66.0140,205.4397,-32.3429,224.6972
188.9381,-133.6676,223.7254,-28.3601,321.4625,-114.6858,65.4110,-93.7617,10.0248,-45.3506,153.6178,-214.0931,84.6484,-207.8284,-125.1423,-130.9115,285.9252,-5.2553,102.7521
277.8680,-126.7590,241.9161,-43.7879,264.2699,-93.7689,-67.2970,-117.4275,-103.5803,-113.1883,269.6823,-221.2812,137.5773,-195.1167,-72.6963,-149.0124,267.2589,-16.5277,61.4415
284.9583,-179.3637,187.9906,-156.0406,174.9717,-104.1783,-74.1816,-93.4391,-122.8913,-120.6291,329.7745,-234.7184,182.4545,-98.0458,5.7312,-141.9924,141.6835,-89.5513,124.4490
189.1982,-215.4738,111.8293,-243.4970,163.9415,-172.0701,38.6510,-124.1972,-55.7698,-138.5196,291.1091,-249.5987,177.9832,-88.8699,63.0490,-103.6155,21.4785,-141.1278,149.5943
78.7338,-227.4801,38.0089,-262.2951,130.9016,-224.9587,96.9873,-167.0727,20.3217,-135.0221,160.7439,-287.6953,102.4452,-224.3600,92.9919,-60.6700,-33.7743,-138.8347,99.9165
13.4706,-218.7092,-30.7138,-254.6809,-0.0290,-208.4619,80.6880,-55.5249,89.9625,34.3567,32.3250,-307.7932,3.5277,-319.0111,92.8684,-105.4824,-25.0601,-135.9749,63.2905
-8.8574,-190.5691,-48.5423,-228.4393,-110.2850,-154.8745,69.8980,71.0617,117.8215,126.8986,21.4340,-260.1798,-29.9514,-246.5918,43.7000,-191.6677,5.3376,-136.6825,64.7632
-13.3751,-199.4781,-32.6762,-195.5253,-123.6307,-101.3545,34.1694,-63.7248,46.5779,-138.1694,79.7298,-205.8400,-5.4091,-98.3126,6.4505,-194.0728,-36.0563,-131.0657,53.1651
-33.6327,-246.5052,-68.3784,-211.2892,-102.9381,-80.1975,-52.6829,-311.2509,-58.2334,-410.8961,58.9327,-218.3912,-5.3273,-65.5167,63.7572,-163.2025,-153.1143,-179.6622,26.1742
-84.0807,-242.6896,-137.3922,-279.2722,-101.6301,-132.4623,-81.2309,-337.7291,-69.7647,-315.9629,-38.9025,-267.2452,-32.8789,-219.5694,141.5813,-205.9568,-198.9083,-285.8889,52.8457
-128.5966,-180.9803,-145.2323,-323.1814,-114.9780,-224.7961,12.1325,-186.9908,2.1819,-108.3601,-94.1401,-297.1654,-38.2421,-384.4921,114.5908,-272.5586,-102.1099,-326.4730,165.7660
-106.7373,-149.3843,-78.9407,-278.3129,-83.1363,-254.0585,122.1247,-91.1348,55.6292,-61.8176,-69.3638,-293.4005,-23.3101,-374.3178,28.2277,-286.9460,15.3585,-230.2481,280.6502
-12.5903,-175.6815,17.2301,-160.5720,48.7912,-187.7673,159.7281,-90.6440,79.2462,-78.7725,-1.8418,-257.7973,-0.7011,-270.0565,-1.7484,-265.1301,40.8162,-89.9333,286.2123
70.3012,-215.1850,97.9347,-61.4192,177.5212,-103.8643,181.7534,-106.3821,137.4433,-92.1450,65.3841,-219.0072,27.2088,-217.2217,24.9177,-221.3768,8.6042,-30.8270,201.0523
71.4289,-227.6781,102.6468,-51.3919,158.0607,-73.7433,238.9138,-56.9891,218.8762,-77.8776,73.8834,-206.5768,22.6407,-182.9426,49.2343,-153.4195,-1.4509,-53.4527,141.7974
36.4456,-195.0146,39.1616,-78.3528,77.1825,-71.7651,260.2213,62.6808,227.1191,20.4736,20.4030,-193.3319,-20.4810,-134.7653,31.8650,-93.4723,32.7902,-54.8640,149.2697
37.8554,-123.6399,16.0815,-54.0515,102.7513,-37.3495,197.7125,103.6656,141.1006,60.0662,-3.0301,-152.8349,-35.6756,-145.3297,-45.1725,-78.0040,78.6313,6.9120,165.5064
72.7417,-43.7416,80.1270,-8.9766,190.7639,-1.2226,135.2138,20.9260,74.3806,-16.6249,52.3201,-120.6937,-4.3824,-211.3755,-128.2171,-117.9548,99.7840,50.3290,159.5121
127.8031,-4.0146,157.0301,-17.8447,222.1953,-44.0707,131.7968,6.8557,93.3092,21.2307,122.3740,-123.2754,17.1021,-241.6709,-139.9877,-174.3160,102.1176,17.6852,153.1448
183.2930,-43.4945,182.7184,-50.1122,204.6476,-125.3894,112.6678,63.5236,105.9671,108.4524,133.7263,-129.6787,12.0982,-199.2920,-119.5793,-172.0378,103.5012,-42.7607,138.4705
156.0358,-113.0302,152.6282,-52.7575,173.2374,-134.5868,29.4789,-46.6548,45.1632,-61.0908,76.8629,-108.9353,4.4987,-120.9291,-147.4783,-127.1650,88.3107,-86.6295,75.0479
56.6214,-111.3957,95.2551,-62.9134,118.0224,-104.0979,-53.0767,-265.4382,-20.8772,-312.2738,16.3876,-73.2874,-4.6638,-90.0907,-197.6045,-141.5554,62.7430,-110.3354,-32.1351
53.8785,-46.9578,72.3340,-96.0340,46.8734,-137.0205,-109.6759,-326.8411,-59.9770,-331.2557,42.4519,-63.1535,-11.8281,-163.1175,-228.8242,-205.6484,74.7033,-102.0006,-121.4725
163.8595,-9.2238,100.3604,-78.7373,-6.6864,-182.8583,-171.3251,-261.7151,-113.9963,-258.2824,128.6724,-91.5599,-7.7856,-254.2526,-253.2101,-218.5630,105.2307,-94.3503,-137.9514
180.2518,-17.9109,98.5204,-15.2810,-7.3120,-139.9427,-175.5899,-214.8240,-131.9561,-216.8643,138.1087,-106.1791,-9.9820,-233.4048,-220.4638,-183.4882,71.5911,-148.4358,-82.3604
56.6679,-57.1820,21.7063,-30.5955,34.7151,-68.2584,-64.5439,-163.1252,-51.4368,-128.2780,40.2371,-67.6560,-25.9823,-119.6234,-83.7668,-159.0348,-23.4772,-220.5287,-17.9281
-45.4545,-103.4840,-67.8963,-137.5635,31.5727,-76.0741,31.6090,-134.4746,18.7768,-105.8620,-61.4828,-29.4346,-45.0070,-31.7824,31.2771,-133.2251,-100.8265,-234.6739,-12.8485
-85.4065,-76.2872,-121.4636,-181.8489,-50.7005,-137.3722,-8.9912,-160.3876,-19.4788,-151.1626,-118.7140,-46.8317,-83.7968,-35.5268,-1.4570,-85.5537,-137.6301,-230.9051,-49.0536
-116.4822,0.4427,-140.7560,-111.1136,-112.2079,-168.0939,-69.8963,-100.1308,-60.5510,-32.5192,-149.6912,-85.6132,-142.4067,-91.3198,-84.9585,-22.2289,-143.7496,-239.5768,-48.2640
-94.7720,-39.7210,-106.0146,-43.6766,-88.7008,-136.2909,-33.0543,14.2240,-20.3243,77.0887,-141.9986,-98.8535,-158.6353,-81.7762,-88.3149,39.8792,-96.9881,-189.1519,-6.4960
-9.7216,-158.7443,-13.2915,-16.3184,-22.5527,-44.1471,-9.4908,-61.0153,-1.1582,-115.4954,-96.2875,-88.8315,-101.8740,24.5242,-53.9776,35.9325,-16.9708,-86.3441,8.8618
51.7648,-129.0958,75.0946,39.5775,57.8881,61.0831,-88.1315,-248.0116,-63.8601,-306.1671,-48.9173,-63.1733,-32.2230,81.1664,-43.1943,-45.2023,25.3089,-43.6668,-8.7614
68.8656,10.2236,100.5491,76.2030,112.4987,77.2954,-146.1364,-267.4021,-115.6046,-221.4323,-17.1584,-34.2361,-11.9923,17.3531,-26.7170,-82.6633,23.2248,-87.0139,-18.7724
58.4784,36.4432,57.6412,1.4545,57.3117,-29.1421,-105.3383,-181.7906,-105.7666,-144.4097,-19.2588,-40.6072,-38.2567,-32.7098,-14.9849,-52.7396,21.5671,-155.2794,-34.0399
-0.6963,-31.9025,-18.3503,-102.7701,-71.5655,-149.7735,-66.5517,-170.4348,-78.2602,-180.4477,-62.2842,-88.2870,-73.5362,-23.8829,-55.1348,-85.5795,14.1978,-218.3977,-75.3211
-55.4717,-70.5238,-61.8307,-122.4528,-135.9986,-192.0050,-76.5033,-169.8856,-42.0663,-127.3832,-91.1380,-118.7617,-96.2184,-61.7271,-111.0895,-153.3565,-16.5745,-264.3737,-111.9478
-37.7305,-98.9670,-47.4083,-117.9264,-130.4829,-214.8601,-65.7101,-142.9930,6.1793,-74.4371,-88.1144,-91.7415,-122.3066,-120.5688,-133.0707,-107.4166,-39.8254,-290.2849,-124.7671
-25.0694,-117.3919,-41.1210,-171.0656,-161.9889,-283.0872,-40.7161,-165.4055,11.0668,-134.4558,-119.0735,-55.7869,-167.5700,-106.7324,-149.6740,-23.4507,-48.8157,-314.4121,-123.3610
-78.9869,-87.6954,-86.2937,-231.8548,-251.1993,-316.5328,-67.2748,-175.1967,-48.8851,-129.7525,-171.7495,-80.6974,-198.9679,-88.4602,-179.4987,-61.2164,-81.7994,-315.2618,-100.3914
-114.8381,-73.8397,-127.6172,-240.8611,-322.8505,-248.1854,-107.8680,-102.8391,-99.9284,-45.4867,-163.3237,-140.7948,-178.7833,-145.5208,-184.9839,-143.0612,-123.7940,-264.6742,-54.6446
-107.4291,-88.2849,-129.9969,-209.2232,-308.7239,-176.9913,-86.4627,-38.0964,-81.9149,-27.7023,-127.0082,-147.8559,-127.0627,-222.2975,-150.2204,-134.8504,-113.0087,-212.4505,-4.0952
-121.6234,-52.7610,-123.9226,-158.9687,-219.1431,-188.1665,-33.2852,-24.7228,-30.5492,-23.4777,-134.8751,-91.9710,-83.6541,-255.5896,-99.5216,-77.9156,-56.1637,-198.0216,43.7383
-117.5244,-19.4343,-104.2044,-118.9909,-147.5866,-210.1902,-26.7674,-17.4073,-18.3062,-1.8999,-134.8003,-36.1337,-59.2836,-217.4234,-66.0884,-46.2554,-22.0733,-191.4457,64.7246
-42.2689,-63.1512,-53.7901,-114.9676,-138.2464,-185.0022,-67.0691,-24.3819,-52.8627,-30.9735,-76.9747,0.7838,-47.7672,-115.9463,-70.7253,-45.7541,-28.0900,-191.9071,31.9469
17.3969,-80.2900,-18.6944,-108.8369,-113.9236,-150.5474,-85.3490,-41.8439,-58.8275,-30.8137,-13.4970,35.2925,-29.3241,-50.2415,-81.5678,-72.4177,-18.8536,-198.1868,-8.6722
10.2890,-0.5010,-13.0953,-50.0403,-29.8129,-103.8916,-52.8630,-42.0011,-0.2412,-0.9082,30.7535,68.3937,21.4533,-49.9235,-59.0580,-91.0982,47.6715,-145.0612,-6.5679
15.6857,87.6132,20.7683,25.8534,59.0559,-27.2056,-27.0220,-63.2755,33.5166,-84.4610,78.5912,120.2186,93.4279,13.7979,-42.8966,-58.3078,135.4421,-52.4838,0.4992
55.8504,135.5617,73.4321,46.2922,116.7025,9.3498,-41.2969,-90.7467,-7.9535,-151.5693,115.6199,191.9983,140.3770,140.8264,-52.1948,-11.6091,160.3239,-38.2801,-11.0462
68.4659,149.5583,74.1271,14.5601,126.4891,-21.8497,-26.8373,-39.9280,-6.1054,-22.0150,132.5967,207.7357,129.4388,155.4473,-2.7553,-4.2964,95.3327,-84.9126,-1.4557
59.4529,108.5196,41.2842,-0.2959,58.8828,-37.3498,45.3395,39.7211,97.6609,105.3039,143.3110,139.1460,75.6509,49.6898,109.2204,-10.7090,24.9307,-78.7267,15.9528
