Fp1,Fp2,F3,F4,C3,C4,P3,P4,O1,O2,F7,F8,T7,T8,P7,P8,Fz,Cz,Pz
-76.4015,-256.5307,0.0124,-70.6696,-27.1050,-9.7963,-21.4230,-61.2655,-28.6167,-79.1139,-32.5603,-134.1190,-32.9495,-17.9079,-42.9795,2.9068,-142.8018,-28.0111,-30.4506
252.1674,231.3493,191.1049,209.3721,11.6302,127.8182,-48.4703,-66.7408,-59.2909,-271.7435,181.9175,108.9236,299.7065,-38.9632,-76.5909,-20.6896,304.3335,113.4274,-25.7720
365.1657,473.7603,211.0995,331.2756,9.5436,175.3597,-87.7857,-61.5241,-109.4484,-263.9472,247.5351,248.0410,407.6617,-31.6461,-50.2070,-32.5913,508.2181,180.9306,-23.1084
292.5789,435.5173,166.3507,289.3451,102.3048,123.8473,-101.1406,-30.9591,-146.8056,-65.9922,170.4247,216.7796,289.5937,-26.6683,-23.8304,-24.9811,390.4999,144.3472,1.4564
291.2882,428.5241,203.7185,270.6919,214.0797,94.0159,-91.7772,9.0417,-162.5764,22.4813,144.5612,185.5234,237.7621,-23.7199,-17.2111,-31.9534,348.3561,102.3023,59.4421
322.5725,458.5080,210.9002,268.2054,187.9393,115.0322,-65.2252,44.8711,-143.9397,-28.1528,175.6269,176.5989,258.9092,-14.4121,16.8777,-54.0775,420.1183,101.7354,110.6812
268.9598,399.7431,146.4174,228.2356,115.0467,118.6469,-27.8693,76.2850,-96.7297,-31.0668,172.0302,107.5622,212.2721,-45.3599,22.0889,-43.3958,369.2027,129.5718,115.1048
238.0876,351.6243,137.1693,217.4707,127.4282,86.9312,-20.7240,88.4176,-83.4243,15.0243,169.7641,54.5820,151.6438,-107.8649,-61.6868,-13.2490,285.8419,164.9768,96.5248
296.7458,386.4023,167.9133,226.8864,156.3028,62.5702,-52.6337,70.5601,-126.7794,17.0723,205.2633,89.5447,150.7774,-125.6069,-152.2054,-30.3283,333.0685,165.9867,99.6495
338.8510,412.5580,150.7248,189.9310,144.1826,64.1144,-64.6577,47.6775,-152.9068,-3.6554,224.6370,127.7904,168.9611,-106.0855,-169.9120,-75.7338,379.9419,133.6566,114.4708
312.8257,403.4236,133.2238,155.2440,147.6694,70.1587,-36.3312,42.2900,-127.4222,-13.0508,207.9002,129.9157,174.5142,-89.7651,-106.0499,-82.3446,321.5634,125.7924,100.1469
261.5995,405.9189,137.3463,161.0993,157.2352,61.3569,-13.5529,35.6595,-104.5537,-31.8351,186.5559,144.6736,150.1315,-38.5555,36.8373,-76.8303,263.2558,124.9190,63.2011
224.4819,414.0066,105.6183,154.2710,118.0326,43.2415,3.3867,10.8543,-85.2913,-66.5406,181.0809,155.8241,94.2579,36.9946,157.5826,-104.8351,274.0073,73.1990,54.0897
237.7232,412.5244,84.2075,141.3807,75.5560,36.3663,54.5676,-4.4197,-20.8917,-97.0697,207.7339,141.4895,69.9135,49.4860,131.6439,-117.3716,320.9175,36.9044,83.7412
295.4218,411.9736,145.6263,167.9123,108.6430,60.6560,98.6939,12.0963,33.6988,-97.8110,256.8155,146.5835,97.9701,16.0455,47.8064,-88.7043,363.7914,107.2279,94.1853
337.3568,425.4217,236.9989,214.2054,210.9793,121.3337,49.4390,26.4204,-22.4909,-72.8812,286.2862,172.4888,129.2879,15.7607,36.3005,-83.6304,363.6905,230.8478,37.6203
346.4993,471.0376,297.6151,274.0161,312.0305,195.8156,-66.7231,14.9699,-146.5916,-57.7545,297.2957,177.9412,167.5738,30.8743,22.1478,-104.6633,325.6782,325.2821,-44.0752
343.5962,529.9709,330.4766,356.4833,355.1525,250.8872,-120.4567,30.1854,-189.9912,-26.3626,327.4412,167.4004,214.5533,40.6893,-30.5310,-70.0561,299.6786,386.7282,-52.4293
324.4312,546.1761,324.6117,397.3336,346.0502,279.5220,-47.8433,110.0963,-94.4157,68.7379,368.0424,145.5831,209.7418,93.5756,-3.3068,19.0693,287.8765,396.4419,51.0240
302.4417,511.0305,284.4974,359.7400,318.5425,295.8970,90.0135,192.0111,54.6162,140.0716,376.6472,105.9028,171.7748,177.4543,73.9473,78.0092,270.0783,335.2761,185.3569
297.0735,447.7346,254.3033,313.5391,272.8011,306.5418,204.3965,215.2178,146.3633,97.8846,332.9333,83.7839,169.2708,225.2671,73.5088,84.2087,260.5416,271.0792,239.6131
278.0396,370.3569,236.9171,306.8901,214.0129,312.4538,255.2980,215.4966,165.0885,55.3331,255.1448,86.7488,164.9681,234.5592,65.7610,85.9277,256.4431,254.1905,203.3865
243.7693,336.4023,208.2872,316.5511,184.3426,311.0602,248.5756,233.1392,172.0688,118.9289,200.3457,76.3701,125.0073,229.9630,145.7098,116.0611,250.0083,237.4216,144.9418
238.1673,380.9443,169.1913,312.1759,175.0739,284.2700,211.8410,242.4020,181.6467,183.7398,200.0563,80.0588,101.5109,202.7103,220.5743,163.8268,258.2236,182.3832,83.5951
230.5235,411.2704,101.9348,253.7667,118.7872,212.5477,154.8265,223.1152,139.3530,160.4671,201.2234,128.3096,82.0548,146.2162,220.3842,188.5160,248.0604,92.8923,-7.9694
166.5912,356.9697,-6.3471,130.2689,14.2106,94.7569,61.6818,187.7653,41.0407,115.7556,158.6352,142.7079,22.8617,66.1328,186.8023,159.9210,178.4901,-22.2709,-96.3776
96.2998,293.3791,-98.5579,19.4974,-69.1492,-38.3708,-40.8813,131.1604,-42.5842,79.8271,106.4579,94.7227,-23.5786,-11.5481,131.0999,90.1087,110.8004,-98.6382,-116.1184
71.1850,275.0182,-132.1009,-17.6129,-105.4215,-115.1448,-85.9636,44.0925,-77.1270,3.6818,63.3336,91.8649,-42.3948,-36.3427,77.9874,-4.6501,95.3736,-75.1958,-84.3410
47.2149,257.2669,-148.7586,-24.6431,-127.7221,-99.1483,-82.6120,-48.3389,-89.1536,-95.2956,6.0282,151.7749,-101.2027,-13.6700,81.4622,-115.8833,73.2535,-37.9481,-66.6492
-0.3372,224.9494,-177.4445,-49.9813,-158.9577,-75.9259,-95.6739,-109.3529,-91.9360,-149.6685,-45.2347,153.6151,-166.0458,-8.1412,85.5632,-188.4956,18.4332,-88.4175,-67.2165
-34.8151,195.7828,-187.1040,-85.3729,-180.4435,-134.3189,-98.3356,-118.5753,-73.8983,-135.8991,-67.0043,76.6035,-158.5440,-32.3630,25.3401,-166.1997,-19.2850,-152.7991,-48.9448
-52.4855,161.0317,-167.9838,-116.8782,-162.8282,-216.0272,-28.7928,-76.3453,-33.0100,-65.2187,-93.9391,18.8388,-132.0715,-66.8884,-12.2034,-92.6007,-33.4335,-149.0755,-12.1242
-74.3518,134.9501,-154.8885,-137.3364,-126.8138,-239.1417,52.2127,-5.3308,18.9756,35.5349,-125.5639,10.5928,-146.9623,-126.0624,39.2898,-42.3717,-44.8346,-150.7983,13.1302
-91.6192,131.7608,-174.3581,-144.1140,-131.7085,-231.6875,63.7099,63.3357,62.8512,120.0913,-110.0751,16.1211,-151.9017,-176.6137,95.7252,-7.2526,-53.3113,-200.4115,12.6832
-103.8564,107.8627,-222.0977,-146.0960,-184.4979,-211.0992,54.7397,104.9005,88.4927,148.9984,-74.1309,24.2971,-123.5249,-145.4310,96.0399,35.7806,-80.0829,-215.9206,-2.4957
-134.8403,55.1444,-273.0914,-138.2912,-241.4999,-151.4017,74.8544,108.5324,102.5010,119.8536,-98.1172,23.2427,-119.1692,-67.6162,79.5030,49.8192,-122.3132,-183.2970,-21.2381
-181.0528,32.0262,-309.4702,-124.5361,-296.9148,-119.5492,57.6753,91.8473,87.4736,67.2090,-169.8676,-0.9025,-168.4330,-42.3249,73.7422,21.1526,-123.5702,-180.3897,-64.1511
-206.7573,46.2382,-343.1357,-137.9863,-366.7343,-177.2120,-38.2115,73.5516,5.6274,17.8934,-213.8017,-16.8304,-243.0800,-75.9185,71.2298,-3.5945,-90.8368,-200.2398,-158.6471
-191.6431,78.4589,-378.9553,-147.0639,-414.9594,-211.4670,-145.2183,28.8007,-117.2400,-41.5362,-212.6841,10.0085,-291.8105,-110.8953,65.4713,-14.4069,-83.4969,-165.2755,-272.2433
-152.3801,172.6062,-378.2159,-62.7199,-385.2114,-122.0459,-205.2108,-58.8023,-199.0804,-108.1097,-196.2957,69.2612,-281.8872,-116.1285,41.3671,-61.4186,-80.3962,-70.6367,-341.8452
-117.0758,328.9037,-316.2825,81.6866,-280.9120,-10.6536,-227.5104,-140.0555,-210.6917,-134.6924,-178.3912,143.4043,-240.4116,-94.3682,-6.6619,-149.2500,-44.4567,13.2920,-365.7938
-97.0870,429.5202,-242.5491,149.3918,-179.2508,10.5713,-228.7034,-169.9352,-186.6798,-111.8656,-163.7528,221.9266,-205.6941,-75.3242,-48.7750,-189.2014,-25.2630,27.7388,-374.3253
-97.1096,399.4752,-218.8177,118.9723,-159.4612,-18.3658,-216.3918,-151.0981,-158.3196,-73.9689,-161.2340,271.5540,-175.5322,-67.2139,-55.1047,-111.3092,-55.7973,-15.3520,-351.4569
-121.0259,305.0323,-236.6688,79.1534,-207.0417,-32.0188,-207.1413,-86.5093,-147.9420,-27.9634,-166.9442,259.2413,-163.3847,-34.6952,-43.7635,8.6109,-94.1656,-44.6955,-290.6634
-148.1698,235.6249,-255.5846,59.7591,-244.2048,-25.8704,-209.7040,-11.8648,-164.4057,1.7144,-167.4744,196.0801,-190.6561,1.7646,-60.9223,29.1551,-115.3457,-31.1437,-250.5102
-153.5069,205.6942,-267.6783,36.2833,-254.9909,-5.7752,-216.4788,-13.3400,-179.9876,-43.8703,-157.8426,125.7026,-208.6692,-19.6081,-92.2775,-46.2717,-124.1106,-20.2456,-263.1863
-149.3710,188.8709,-266.6552,11.4985,-264.1158,18.5198,-224.7479,-87.0420,-182.6642,-130.5089,-141.0997,84.3493,-169.8045,-57.1652,-66.2604,-85.4199,-117.0502,-19.1532,-283.8599
-150.7166,178.9673,-229.0961,3.9289,-239.0645,28.4755,-241.8692,-120.9449,-201.4672,-152.9749,-127.7054,73.8090,-116.6985,-45.9473,-6.3977,-62.0781,-105.9246,16.5568,-279.3105
-142.7978,194.2296,-172.2281,31.4004,-157.7932,22.9100,-258.8236,-87.2744,-223.2616,-108.7417,-140.6870,65.0709,-97.5454,-42.1022,-24.2346,-72.7344,-101.1962,69.0021,-261.2678
-123.0312,227.4396,-136.0347,98.3731,-75.1906,9.9282,-241.6929,-57.9192,-193.8875,-68.1496,-184.7618,45.3674,-103.1244,-81.2039,-95.3060,-119.9682,-79.0969,94.3729,-228.0892
-98.1993,238.2025,-102.5645,163.5362,-20.3585,5.9537,-174.9341,-39.7082,-123.0812,-38.4357,-208.9726,44.8452,-109.9307,-87.8855,-83.1472,-111.6469,-28.1168,119.9853,-167.6079
-48.4176,224.6515,-40.1174,187.5491,33.7750,43.5066,-84.0251,7.3495,-58.4625,0.2514,-161.4327,81.5530,-87.3779,-40.0368,3.3519,-53.7035,32.6780,167.1838,-91.1931
28.1208,232.2166,23.7810,200.7069,85.8908,123.2442,12.0086,64.5012,10.3676,34.1024,-72.8069,124.5815,-22.6598,22.8052,54.6192,-26.9760,101.9529,202.6042,-8.2877
99.6316,269.2658,71.4629,245.6449,129.6791,199.1897,114.5870,99.7321,102.3741,50.7880,-7.6536,157.3675,35.4039,111.1075,70.2230,-29.6416,188.5869,228.6422,80.4442
160.2815,297.3368,129.5343,297.9257,184.8617,237.8568,196.1682,113.6151,177.8485,52.0284,26.1748,201.2871,57.0143,195.7468,80.5768,-10.9884,262.0275,255.9373,146.2591
197.8410,289.1467,175.0569,297.5145,221.8086,229.0901,217.3321,111.5028,202.9361,56.8307,38.1778,231.2334,80.7916,192.7758,48.7062,28.6727,260.1244,223.3233,157.2985
153.6951,229.3952,146.4372,218.7747,184.1644,166.7430,188.8329,118.2589,192.1061,101.4681,13.8442,183.2614,102.8300,130.4757,0.4561,71.1003,158.2505,100.2253,139.5339
36.9738,126.1824,54.1015,94.4382,89.7841,70.9153,147.0820,162.0098,163.0853,176.6585,-19.6166,84.8411,75.2675,90.7615,25.8134,108.6049,25.6466,-52.0826,150.3204
-44.6661,43.1036,-43.0913,-20.3150,-6.2535,-30.9883,110.9380,217.2590,129.8672,235.1672,-12.9537,30.6574,30.0128,53.3882,110.1995,123.4031,-44.0084,-198.6176,199.0143
-59.2901,9.5533,-126.0794,-114.0979,-87.6114,-141.4079,96.1914,255.2918,113.9449,276.7682,-4.1656,17.1212,16.7321,-0.7277,145.5769,132.7778,-67.7330,-333.9509,242.7554
-87.2676,-47.8655,-201.8936,-209.3073,-160.6942,-245.2727,102.1576,289.9739,111.3284,305.5731,-55.7184,-29.0310,-8.6620,-27.6474,81.1163,184.2149,-120.6569,-393.5826,256.9147
-146.9232,-146.9101,-260.3096,-278.9144,-229.0902,-292.4939,101.3155,305.8806,103.0123,281.7213,-117.9457,-85.0931,-69.7402,-47.2725,-10.6337,238.7978,-168.4746,-346.2977,263.3733
-159.1164,-157.6569,-270.9588,-261.1806,-265.0822,-271.1282,99.5299,268.6697,105.3574,227.3994,-110.8407,-70.9657,-87.6283,-99.5516,-1.8665,203.4422,-122.5340,-269.2649,271.2312
-86.9154,-18.1144,-210.8998,-163.0240,-209.1549,-209.4908,124.3747,208.3658,135.8319,215.2977,-58.3127,3.7102,-25.2071,-127.1672,108.2932,107.7195,-7.5975,-206.5490,235.2796
14.0031,140.8352,-116.0526,-54.4577,-79.2785,-119.1294,136.0379,156.3602,151.7106,214.1390,-18.2697,70.5863,48.0180,-77.7513,152.1508,64.8672,82.2385,-117.0641,121.1448
68.5267,204.3685,-55.7765,26.5350,10.9771,-14.7259,81.1262,87.8308,109.0519,156.3900,7.1274,104.3981,83.3664,13.8355,61.4397,79.3886,111.3270,-12.7226,-20.4628
56.6074,206.8484,-34.1560,81.8971,25.5178,64.7489,4.3419,19.7726,48.6352,92.9041,23.1456,120.5872,103.1169,96.0398,-19.2889,80.0890,102.8614,32.7422,-104.3579
29.2232,203.4500,-12.6628,102.1180,34.9815,95.2684,-33.4263,6.7000,29.3536,80.8868,23.4481,146.5965,123.2702,118.9878,-19.5114,66.2922,103.1956,15.3923,-114.9413
41.8174,199.8188,3.0800,82.7226,56.5198,79.1340,-64.9683,19.3156,18.4355,68.1814,28.2745,190.8730,133.4117,60.7865,-40.4659,65.7878,141.5337,1.0178,-98.9527
77.7886,193.2897,7.2558,56.0239,52.7381,37.0602,-121.0336,7.5889,-38.3737,30.5804,42.5453,194.8034,131.9164,-3.6435,-89.8161,66.7446,173.5265,11.0179,-70.3158
79.5455,154.9763,20.6560,42.0810,32.0109,1.6079,-143.6960,17.3735,-89.1273,37.4558,25.2825,101.9108,116.5515,2.2048,-61.4315,78.9179,142.8145,-4.6286,2.9841
35.2446,67.0010,15.9774,7.8998,10.9261,-31.6543,-96.3353,81.7608,-61.0737,103.6245,-27.9775,-10.8689,77.0595,38.9181,15.0245,119.6996,81.2793,-80.0479,108.4875
-13.7623,15.4219,-35.6363,-63.8546,-17.0370,-99.1798,-40.4057,123.5899,-8.7889,143.6061,-64.7719,-8.1823,29.1771,37.3055,2.6347,134.5499,45.3065,-168.2724,171.8016
-36.7228,72.8092,-83.5318,-123.9333,-40.4584,-180.4855,-30.7033,84.6677,-16.4572,105.1985,-79.3094,103.5489,2.7109,-18.7696,-109.2602,73.2926,32.7616,-205.5099,168.4566
-47.5497,135.0713,-101.1281,-140.4410,-61.2991,-218.9238,-40.5418,12.7136,-42.6392,33.6798,-120.3465,189.2679,-12.6468,-105.0623,-200.5617,-14.5583,27.1944,-201.4479,162.3539
-70.0936,85.4755,-132.6341,-149.7535,-99.2254,-221.6112,-37.7449,-34.5629,-19.4675,-6.1904,-180.6055,177.3320,-42.3894,-143.2787,-198.6785,-62.2330,15.6122,-193.3775,186.9531
-94.9257,2.3201,-171.0142,-165.5501,-124.7118,-220.3064,-37.8084,-49.6996,12.3314,-4.8245,-202.1889,122.6020,-71.3488,-89.7418,-153.5898,-66.3495,-24.0030,-174.6180,196.6856
-97.6338,0.0008,-177.8558,-151.5262,-116.0308,-201.5183,-50.0080,-44.8423,-3.4818,-2.5291,-184.0186,95.9200,-83.8238,-50.7372,-143.3248,-49.1444,-63.3830,-140.8493,172.2950
-74.7521,31.0519,-176.4291,-113.3844,-121.5120,-161.3039,-58.5549,-51.7283,-39.0197,-47.6866,-165.7243,101.8011,-91.6021,-105.7768,-155.4001,-36.6963,-41.0134,-107.5271,147.3689
-32.3623,15.0758,-160.7437,-85.6374,-135.3277,-125.8393,-64.3253,-106.0051,-51.6222,-145.7108,-141.1400,113.7004,-71.4721,-140.6056,-120.1016,-49.1441,27.0228,-52.1470,118.8636
21.4002,-11.5231,-73.6618,-50.1128,-66.9665,-97.2271,-69.3069,-178.9879,-41.3253,-228.5485,-94.7233,123.5758,9.5476,-72.1468,-40.5590,-64.8725,74.1635,38.6351,63.6521
63.4459,6.4397,45.9566,9.1681,80.8384,-68.9616,-51.6899,-203.5032,-20.9509,-228.6720,-60.0042,124.5241,103.0865,-1.9525,1.7534,-65.2360,90.6038,109.6245,20.7680
86.7219,41.6786,113.8475,54.8764,199.4239,-44.6601,-11.0189,-184.0693,1.9440,-182.5564,-52.5095,100.6121,149.4197,-1.4286,-33.0924,-83.1753,107.7426,136.3922,39.8668
118.6145,50.2466,157.3373,82.9397,250.7015,-7.2010,31.8796,-171.2800,31.5078,-157.0291,-27.3607,68.4298,172.5551,-18.4559,-77.4643,-114.4606,146.4348,165.5553,105.0588
161.8039,40.2970,218.3410,127.1991,275.4006,44.2430,85.5534,-139.6380,79.6526,-120.2510,32.6489,62.8441,193.8486,-18.5471,-23.8050,-84.5244,205.0306,199.2162,187.2249
179.3298,40.6535,247.7904,162.5392,280.8208,71.0396,148.1004,-34.6117,131.9325,-29.9480,80.8098,66.8823,190.0896,4.8588,126.3560,12.3170,239.2604,205.0970,282.3866
168.5212,55.5713,233.9704,155.6441,262.8458,77.5054,184.3097,85.5106,167.1605,48.2393,97.7220,43.6960,190.9369,63.8336,234.3536,78.6352,215.5909,215.3932,360.0909
168.1858,73.9590,239.7321,149.7706,259.1203,100.4621,215.9872,110.4583,208.6788,45.4117,122.3262,25.5772,241.1853,106.3352,227.3507,62.4539,184.4508,245.1909,373.1418
182.6494,93.2302,262.3908,162.2880,284.7213,108.7062,290.1149,43.3556,273.0583,-14.5403,166.2464,64.9563,290.3237,70.2861,201.7700,9.2374,183.5250,223.1233,329.5007
173.4735,105.8563,237.1044,129.1506,286.9184,62.6187,342.2360,-29.7070,308.9253,-80.9959,184.0506,126.3856,275.4227,0.8206,216.1906,-29.4343,158.0022,133.6408,277.8603
129.0604,93.3869,160.5639,49.9861,225.4674,14.5615,288.9146,-74.4554,272.6617,-117.3680,154.3510,132.8464,221.0490,-25.5783,201.7048,-42.9267,100.8380,64.4685,239.0377
95.9486,69.8033,91.4879,18.6089,142.7234,23.6776,195.7875,-103.1526,204.5770,-115.2592,121.8675,85.6532,171.6015,-5.7899,166.0796,-43.2822,101.2869,57.4042,207.0341
121.9888,79.8376,73.0321,58.8843,101.7707,73.9978,166.0937,-106.2073,173.1703,-122.7334,127.9125,49.8045,145.5635,29.9121,198.6576,-41.8199,171.6509,84.3147,188.7277
183.5222,122.0361,104.5697,101.1071,105.4559,132.8046,189.9519,-73.7898,194.8096,-151.2254,155.7259,52.4074,158.5207,57.8498,253.0886,-33.5790,231.4642,138.3011,196.5045
219.2126,152.2051,156.3652,120.2409,133.4305,179.6092,223.3329,-31.4176,230.4771,-119.0382,178.4915,67.6118,197.8078,64.0560,233.1770,-19.1034,262.4529,204.7084,220.3607
228.1405,175.0944,201.4548,148.2891,192.2568,195.6177,260.3607,0.0386,246.2946,-7.3144,203.0118,75.6331,229.6584,62.5911,213.4687,-19.3409,288.3067,237.2185,242.4770
249.8003,227.8190,232.7127,186.1913,268.0160,195.0080,295.3586,41.6002,261.4370,94.8824,235.9789,76.3405,252.6126,66.5422,277.9898,-29.4407,288.8239,238.5020,262.6987
275.0910,284.1671,250.3853,210.8254,310.8033,200.2495,322.9286,107.7246,294.3638,149.1668,265.5474,68.3042,274.1541,57.4159,307.7816,-15.5980,267.2297,241.2513,275.2639
276.4318,289.5508,256.4499,215.7150,304.2208,189.0312,332.0450,150.4273,301.9151,163.5914,282.4906,60.2112,282.1131,22.7812,204.1665,13.2210,264.7078,226.4845,252.5587
265.7970,261.1276,254.2467,199.5956,274.1351,148.0396,293.9202,114.9053,259.2417,105.8795,273.4882,69.0677,275.9350,-29.4446,115.6455,7.8659,267.7549,186.7414,193.2305
254.4498,253.8899,246.7471,181.3695,246.1506,117.6847,231.9469,24.4942,218.7627,-7.0570,236.1549,85.0573,260.2223,-81.0801,186.8827,-45.6611,251.5685,174.5109,137.1317
248.1035,270.7069,253.5926,204.5247,250.5308,124.3951,214.0109,-56.3381,212.5864,-91.3831,221.8526,87.0571,239.2499,-88.3122,284.7402,-109.9793,261.7134,192.5876,109.5119
277.1124,278.7322,293.2175,252.8519,298.0893,148.2849,246.5759,-87.4153,228.5151,-111.2836,264.8938,77.1117,243.4930,-31.7878,219.8026,-125.2763,316.8992,180.1411,121.0043
325.6298,269.4707,329.0261,245.8175,333.9284,167.0123,310.6270,-36.7545,293.2564,-55.3475,292.0918,54.0685,271.3695,27.7305,69.2065,-55.8548,347.3334,140.4722,195.6271
324.2687,258.9922,310.0275,183.4870,309.1442,170.1239,416.4850,84.0972,408.2776,72.4193,242.3343,23.3982,260.0343,35.2162,37.5928,41.7017,328.8038,120.6533,305.5218
291.8448,264.9059,261.4557,158.0677,262.4528,159.6655,507.8040,167.7089,478.2198,163.5739,193.0938,46.0110,209.3718,12.2142,126.9604,62.9640,334.4761,104.4150,362.9850
317.6590,297.1172,245.7996,183.9677,251.1606,154.0308,507.9355,154.2266,463.2642,145.9203,218.6486,154.1883,197.4168,-2.1459,178.2736,8.5082,395.9348,70.8620,363.0403
384.1606,340.9057,274.0122,189.1443,277.5185,156.5734,484.4274,146.0661,451.1502,129.8174,260.6803,261.9898,231.7363,21.6892,153.2253,-20.7599,450.9690,54.4121,389.5965
401.7778,354.9486,319.6862,164.7375,314.8732,151.6764,521.3221,211.5345,482.8064,174.8319,256.0166,294.8007,254.8939,93.0051,159.6614,17.9989,455.6698,52.6083,438.3097
369.1558,317.4965,352.0818,146.6305,323.3866,140.0171,545.9924,260.5961,502.3722,174.5722,223.9075,291.7844,248.9912,150.4262,236.1415,82.5883,434.2794,23.4934,429.7885
335.5682,262.5305,344.6610,118.2852,276.9704,124.5354,506.2554,256.3486,494.1587,132.1702,181.8775,286.9720,216.7955,148.6946,292.8808,133.7936,408.9870,-7.8532,386.0146
309.9744,236.2854,320.5895,76.4581,234.7411,100.7194,485.1472,283.6331,489.1934,177.3437,141.0373,267.0719,186.1860,156.3581,280.1664,151.6075,369.9635,0.4630,382.4787
293.5510,231.0087,333.5083,71.3739,279.3062,97.4582,505.4502,334.9438,483.7020,275.9214,137.5973,255.4595,219.4779,201.5150,268.1043,134.5493,318.6677,15.7707,389.5510
279.3978,204.5363,362.9744,103.4796,357.4654,143.9016,491.1856,323.0316,458.3783,289.3841,142.5713,255.9500,270.2315,197.3402,306.8139,123.2546,272.8135,18.7617,347.2665
232.7010,155.3465,345.3437,128.5836,341.2606,205.3301,436.8027,289.2153,411.6499,241.3624,80.0959,212.0390,216.8693,155.6579,343.7433,154.7608,231.5466,49.8753,299.2718
170.2504,121.4834,306.3985,157.8158,250.9012,249.4076,394.0185,328.8411,358.4916,244.7820,1.4843,138.5970,127.9754,196.5163,342.4227,213.1739,191.5587,102.7141,310.4796
162.6209,108.3926,317.7906,210.5184,230.6460,303.7560,371.9448,398.4710,332.5550,288.7708,32.8188,110.7149,164.3559,309.3183,335.2593,262.3801,179.5852,133.2080,349.6719
206.1317,85.4806,362.3851,245.4127,302.6880,363.7653,361.5508,398.6223,336.9704,272.6898,137.4763,113.4366,253.1602,382.9496,322.6366,270.1825,206.0387,152.7876,347.2654
221.5908,52.0817,372.0769,235.5004,333.7663,360.6540,344.6425,329.0791,317.2045,176.9684,160.5590,94.5407,241.5162,364.4225,269.2635,216.4135,214.1021,163.8292,295.5444
175.4639,31.4631,327.0632,201.8884,254.5769,271.9221,281.8472,247.1096,246.7459,97.3968,86.9822,64.2368,188.6295,220.5358,177.9987,138.8965,151.0944,110.5139,232.4988
101.2395,13.2593,239.5147,152.3155,138.4124,148.0551,177.1245,182.2343,156.8461,93.5874,48.8337,33.3529,184.6624,-4.8680,76.5777,107.5682,63.8164,-0.2910,172.6858
53.9428,-12.8420,136.5982,95.5775,57.1138,35.1796,82.7119,138.4510,62.2309,100.1913,108.0151,15.6162,181.8378,-103.5941,30.3589,120.7676,45.4716,-80.1867,103.2527
81.5688,-3.9320,81.1027,71.9599,18.0826,-41.8115,16.7210,101.7553,-34.1719,59.5410,189.6944,50.8674,174.7181,0.0389,118.6604,116.2208,107.9388,-96.3015,16.5559
165.5742,59.0638,104.9527,91.6887,29.1080,-71.5994,-46.8207,34.5052,-109.9895,-11.4056,217.1871,88.8498,216.0115,58.7713,243.9462,70.4388,175.1236,-84.6214,-100.6760
220.2443,105.8493,153.2547,116.7966,81.0928,-79.5694,-124.9390,-87.1201,-173.1023,-129.3792,208.0489,47.7182,271.4317,-90.7591,203.8175,-0.4740,194.0588,-69.2138,-257.6938
212.4843,88.8133,173.5986,125.5074,105.8520,-97.6087,-199.1573,-223.5550,-244.3898,-295.4987,214.0025,11.6961,309.8085,-264.3482,68.8089,-86.3349,193.8269,-68.1203,-396.4897
198.9172,74.6825,177.0074,125.0289,66.5277,-112.5060,-235.8361,-301.1735,-295.3415,-393.4944,235.6958,73.9269,357.2062,-276.6444,62.7722,-166.3394,224.1191,-89.9890,-437.2892
222.1833,131.7539,175.6972,126.2432,31.2425,-95.1680,-246.4085,-305.4020,-309.7636,-371.3592,263.8013,119.7337,375.8568,-183.2988,118.1083,-211.7805,282.6263,-93.1202,-409.5009
271.3240,216.9635,181.7455,142.6185,79.4007,-52.7075,-273.1794,-294.3422,-319.4770,-346.9664,335.4638,63.5019,350.4068,-105.9807,90.8680,-229.9848,332.9143,-48.9590,-397.7635
324.8706,247.4811,237.6173,168.2538,190.7460,-20.8673,-291.7934,-309.1487,-320.8060,-383.0151,442.8280,24.5865,388.4073,-104.5640,109.8888,-250.3953,359.0326,-9.8731,-385.7158
356.8163,208.3933,320.6394,165.2724,271.3667,-22.3677,-256.0960,-334.3641,-294.6575,-415.9574,482.6530,65.3463,495.9914,-164.7376,201.3962,-273.5947,364.0652,-24.8830,-315.3628
350.3823,146.2740,331.5767,117.3851,269.2372,-36.7858,-216.4652,-339.3710,-279.3830,-416.4939,423.4128,89.2680,519.2642,-172.3218,148.6525,-274.6648,348.9933,-60.1562,-218.8117
331.0274,105.1201,278.9429,58.9656,234.6730,-28.1297,-224.0952,-307.4379,-288.2768,-388.3148,379.7229,56.5843,445.9666,-59.4993,28.2556,-249.5584,329.1844,-64.8502,-152.6947
324.4767,92.7661,275.1927,26.7230,230.2373,-11.9350,-229.0276,-258.0894,-274.1402,-335.2144,406.5176,14.4219,418.2538,33.3466,90.7329,-231.6470,326.3112,-42.5225,-121.5417
311.3773,98.2966,307.9593,27.9344,227.7890,-29.7962,-219.2564,-241.2065,-254.2152,-316.0486,411.4845,-13.2235,437.6605,-36.2427,138.0784,-242.7887,320.4518,-17.6178,-127.3601
273.9743,121.6013,271.8820,59.2067,185.4929,-50.1844,-259.7386,-254.9510,-292.3777,-338.5608,342.4021,-7.0610,388.0201,-153.6747,-96.1574,-249.1310,272.0673,11.4646,-163.4696
223.1448,161.0145,188.0291,111.8262,136.9498,-10.1662,-324.5574,-243.4492,-355.1872,-314.0249,244.5567,41.8054,257.8586,-142.6611,-319.1302,-224.0869,196.7198,43.4712,-186.0299
161.5901,194.1190,133.4319,154.0415,97.8978,47.2063,-331.5186,-218.9342,-366.4485,-263.5136,140.2437,98.4874,114.4682,-65.4758,-236.2603,-219.1120,144.5335,40.1551,-186.4384
93.9368,207.3869,81.2015,147.5769,28.4870,27.8010,-309.9524,-239.5153,-342.3589,-282.4970,51.4149,155.8476,2.8207,-61.1605,-120.2751,-271.6281,119.0021,-7.9892,-194.9324
51.4625,215.1812,16.0902,107.4442,-42.0581,-34.7678,-322.4784,-266.1055,-334.2355,-301.2465,32.9108,238.4989,-40.8195,-58.1287,-234.4624,-306.1538,91.5745,-22.3046,-195.3223
45.4047,224.8436,12.8749,103.1842,-40.4524,-19.3809,-338.5306,-227.0580,-331.4823,-232.7702,40.3652,327.4888,-19.3047,49.9242,-388.2790,-255.9413,65.4199,48.4325,-166.2533
41.1536,220.2876,73.7015,150.9979,-3.2171,78.0013,-321.8634,-165.8769,-307.2775,-175.3913,-34.2413,405.7471,-4.3667,137.2805,-387.9234,-188.0594,54.9785,112.0444,-143.8926
12.5888,190.9049,94.6266,167.4773,-15.6766,133.8183,-296.6606,-152.3692,-275.3965,-179.6066,-147.4112,489.4384,-42.4777,83.6677,-312.0422,-174.3443,42.9016,66.8473,-135.7179
-26.5613,149.8214,40.2103,95.2575,-57.4012,82.5571,-274.5981,-156.4444,-253.3696,-138.8001,-180.6441,547.1558,-97.3945,26.3565,-268.1765,-166.6683,12.6909,-37.0538,-96.3233
-52.1366,117.8935,-12.9581,-11.3060,-59.8270,-9.4955,-239.9217,-132.3831,-227.7558,-53.2181,-167.1502,535.2916,-125.2565,65.9862,-297.3861,-123.0835,-17.4348,-97.3488,-43.0151
-58.5236,92.7282,-7.4731,-77.4905,-29.0575,-53.3699,-209.8069,-109.3041,-198.6528,-40.8912,-190.9596,494.5952,-143.5354,68.1788,-403.9990,-105.8802,-35.6467,-102.7327,-56.0519
-68.6744,54.3826,14.5432,-87.7427,-22.9988,-36.6375,-230.6502,-133.1315,-214.6883,-102.8940,-227.2474,477.3175,-198.0349,-12.5839,-476.7920,-150.0841,-70.8158,-84.8971,-157.3936
-113.8377,19.3455,-19.7350,-61.5009,-69.1258,-7.6703,-299.7854,-193.3849,-290.1123,-159.4220,-258.4122,464.4797,-266.9200,-38.7552,-409.3719,-183.8974,-136.1183,-54.8902,-276.2678
-180.4844,27.8080,-87.8875,-37.2523,-126.9648,-1.4917,-329.1192,-229.2042,-330.6553,-188.4008,-308.9666,426.7419,-257.8472,-0.7222,-317.6759,-152.3186,-174.5215,-31.5204,-311.9755
-205.9338,52.6599,-95.3539,-51.4483,-125.9442,-1.8108,-248.3352,-203.3237,-249.7096,-179.6329,-314.1262,369.1747,-168.2063,-0.2257,-346.8303,-95.4279,-136.9563,-30.0567,-232.4137
-159.4417,23.8040,-38.7122,-88.7038,-57.6741,11.4173,-118.6966,-154.6766,-106.6146,-113.0491,-217.6268,304.8617,-127.7573,-30.2764,-372.1402,-69.6200,-83.0579,-31.0876,-131.8822
-95.3334,-52.1247,-2.9994,-110.0880,8.9575,9.7347,-51.0574,-125.7330,-23.7329,-19.3316,-121.2305,235.2179,-174.8341,-62.2358,-230.8223,-74.6199,-94.0100,-21.8162,-113.1250
-81.2305,-108.8708,1.5181,-109.5720,21.3161,-23.3654,-61.0335,-88.1166,-33.2262,51.8231,-109.3599,150.0330,-181.7732,-79.9169,-66.7821,-67.6997,-125.0763,-14.7055,-136.8905
-92.2199,-111.6008,29.6405,-79.3690,4.0430,-23.2374,-91.1212,-15.2313,-78.7564,101.0419,-107.6724,65.8114,-104.1342,14.6092,-88.9750,-27.2665,-87.8727,3.6759,-115.4587
-50.1165,-53.1972,78.8825,1.0385,22.1190,60.1513,-97.4481,62.9375,-103.5335,163.3249,-64.6688,33.2931,-60.6700,179.2051,-218.6774,3.9557,-18.9301,66.4645,-64.5647
25.4334,34.6334,110.9498,97.1955,84.1769,154.4872,-74.8658,126.2799,-101.6782,240.2143,-43.6755,47.0955,-104.3514,167.3266,-281.1570,-8.4638,-9.2130,151.1149,-25.6340
24.9755,62.7584,103.6591,143.6861,95.8640,171.4721,-57.8668,176.9785,-102.6810,282.1874,-75.5090,45.9946,-161.9949,-18.0754,-266.7711,-5.1765,-51.1653,185.7330,24.2080
-57.4972,18.0681,44.3913,142.5646,-1.6199,141.0917,-64.6795,196.5373,-106.1730,268.9835,-120.1067,38.5190,-200.9723,-82.7988,-219.8553,55.0818,-86.7597,157.3891,84.9198
-101.6673,21.5175,-27.5829,149.2387,-96.2988,131.9634,-47.7500,179.9453,-78.7721,252.1259,-150.4045,69.2108,-245.2963,29.3170,-165.5622,81.9441,-100.7059,142.4433,106.4254
-72.4534,115.8146,-43.5544,183.1459,-76.0456,140.2960,12.6348,155.7831,-25.2439,264.5710,-157.8040,97.9709,-278.1518,112.0959,-155.9955,26.1272,-99.5257,181.0243,79.2819
-64.7842,173.6094,-24.6198,204.8648,-19.9390,136.0109,58.2635,144.0302,24.2937,286.0269,-149.2274,81.0624,-273.1825,88.6959,-173.0117,9.9735,-106.6183,200.3218,30.7408
-114.8910,120.6533,-36.4628,170.0316,-32.0802,112.1711,69.9149,159.1748,68.7940,313.3821,-157.3014,57.9779,-253.1484,3.5215,-157.9315,102.3998,-154.5936,139.1188,-26.7508
-153.0340,48.0709,-58.3213,103.8704,-67.3195,63.6567,75.9498,207.6186,93.4696,340.6433,-175.8705,53.6132,-249.0828,-87.2544,-158.5393,184.5137,-198.8547,61.5999,-73.2432
-133.5264,51.7370,-47.9886,88.0105,-62.6304,10.7701,58.0527,246.1846,67.8542,330.6407,-154.3159,44.5237,-262.5715,-71.3367,-174.0671,179.7978,-155.3033,54.3925,-96.3519
-76.2651,114.1273,-30.1299,135.4898,-39.5842,7.1761,15.2283,234.8094,24.8708,297.6111,-105.7174,25.0276,-283.8422,40.9637,-98.2154,163.6044,-61.8727,95.2206,-130.7432
-26.9875,149.8072,-29.4231,167.0135,-31.9773,53.1967,0.0093,208.1106,8.9444,285.5815,-101.2130,-10.2387,-310.3823,67.9755,-9.2505,186.3057,-29.1185,105.0428,-184.8748
-31.3063,105.9652,-44.9898,144.0571,-57.1573,76.2291,-2.0311,209.2900,-6.8338,276.3971,-144.7949,-72.3908,-347.9317,-3.8207,-34.1651,223.2291,-57.9469,55.2501,-201.1264
-82.1732,24.2462,-84.6347,92.2509,-104.4047,30.1884,-37.0815,229.4827,-34.4647,270.9307,-175.4446,-142.8767,-394.9322,-36.3911,-18.4238,265.6647,-85.2874,-28.5556,-168.9959
-123.6258,-30.6849,-133.4881,10.2567,-122.3880,-66.4497,-67.3570,253.4656,-36.2535,320.9308,-175.6049,-216.3704,-431.3307,-63.1236,86.9621,301.0876,-119.0116,-109.1503,-147.9881
-155.2458,-74.7437,-169.2214,-91.2653,-117.8422,-174.4130,-69.9581,273.4706,-26.3793,381.0563,-187.4597,-294.0497,-448.6383,-139.9706,17.1682,297.9843,-188.1776,-158.5107,-144.7314
-226.6859,-135.4845,-214.1993,-141.5207,-163.8890,-246.6672,-85.7013,267.6773,-38.9600,355.0562,-241.9804,-321.3576,-474.3167,-158.1146,-168.7593,258.7945,-273.9981,-171.2126,-131.6414
-314.9715,-166.1649,-277.1096,-125.8579,-247.4643,-247.0420,-94.0650,222.9697,-44.6152,273.7469,-310.7583,-281.1818,-528.7280,-110.1998,-119.9759,200.1512,-347.6352,-164.7789,-154.3888
-348.3482,-145.1209,-321.7535,-113.9456,-299.5527,-195.4996,-66.2290,147.3477,-31.6564,204.4164,-331.1750,-253.8620,-580.5401,-111.5967,34.5404,145.7175,-379.8482,-154.4947,-244.9659
-325.0040,-130.2685,-339.9102,-115.0715,-334.7366,-145.1743,-70.8142,67.0354,-38.5978,128.9061,-291.7296,-267.3700,-585.6754,-135.1094,-19.5454,146.2505,-345.3847,-133.8798,-326.0190
-284.8603,-134.9759,-343.1943,-75.5756,-365.6179,-121.3554,-133.8673,21.5171,-63.0629,57.9073,-254.6249,-272.6577,-553.0609,-138.9853,-105.9533,175.1956,-270.3636,-95.7421,-348.0471
-229.0829,-98.7509,-322.1748,-11.6518,-338.9519,-120.4368,-174.2450,9.5394,-78.8983,52.4925,-247.1532,-271.4755,-523.0829,-196.3819,-60.7251,129.4184,-197.5949,-63.8759,-357.7617
-153.5183,-15.2929,-291.5200,13.4805,-272.7966,-127.9872,-154.4747,-8.7696,-77.7547,96.7638,-210.9061,-268.5449,-490.8219,-259.4437,-89.8744,48.7022,-126.8696,-65.6320,-351.4182
-89.5084,42.5502,-272.3313,-3.2019,-236.6434,-118.8235,-106.6368,-18.8004,-33.7834,127.4919,-125.8538,-222.2760,-424.7025,-209.8438,-177.3361,65.2120,-64.9529,-80.1957,-285.6032
-63.1795,39.9050,-239.4514,-22.3369,-211.9623,-83.4331,-71.7181,11.1682,29.8082,125.2442,-69.2636,-157.4020,-355.6669,-118.6120,-134.4550,115.9374,-42.7113,-71.9443,-229.4002
-61.9300,27.3826,-193.4398,-27.2413,-171.0350,-47.5736,-99.9236,30.6686,17.9926,100.7115,-77.9519,-129.8409,-342.2006,-81.7605,-93.2225,69.6201,-46.6567,-52.4949,-255.2724
-61.1730,44.6385,-179.0363,-25.3477,-157.0032,-35.1734,-165.4986,10.6093,-49.2102,83.9155,-86.1697,-120.1159,-359.7971,-63.5392,-110.9401,12.0044,-44.1821,-41.5289,-273.7498
-59.5450,53.3525,-181.6639,-20.0726,-170.8146,-37.0972,-163.1107,18.6839,-44.7634,94.4575,-60.0025,-123.6633,-344.7531,-75.1539,22.5656,45.3789,-41.8132,-18.8077,-204.0179
-65.6130,31.5507,-159.3992,1.3828,-160.5797,-32.1219,-107.1151,64.2042,13.2774,97.1351,-46.1561,-156.9626,-302.5404,-131.3298,174.1851,84.3076,-39.0433,19.0271,-129.6782
-64.2685,35.3456,-139.4339,36.8358,-131.0673,-16.0758,-99.0878,77.9418,15.3894,82.8693,-50.1204,-146.8709,-263.2998,-122.7983,50.6235,95.5359,-22.8338,28.8370,-119.4450
-42.2582,70.6877,-151.9585,46.0803,-120.6933,-4.9672,-109.9305,69.9905,-11.8527,99.9929,-25.0461,-64.4645,-220.6483,-43.8028,-133.6649,148.5385,-21.1517,-6.6924,-121.7721
-24.3924,60.3322,-171.6500,16.1511,-129.5249,-11.4350,-87.5177,78.1331,-10.7732,124.8483,6.1887,-13.5169,-183.4171,-30.2850,-84.0761,169.5046,-42.0151,-49.2005,-110.6226
-21.6758,19.6538,-170.9434,-1.4894,-123.9339,-20.1767,-95.3020,67.0704,-21.5728,93.7387,-15.5166,-8.1132,-162.7403,-62.2138,50.7073,73.0708,-27.5310,-59.2385,-105.9261
2.1536,39.6463,-129.3658,16.4008,-69.4921,-7.4483,-130.6994,44.2722,-44.7566,53.4907,-45.0062,25.8645,-113.4956,-41.0147,117.6998,-0.3050,36.1320,-37.1755,-79.4999
54.4402,80.8771,-50.3821,26.7218,1.3981,20.6573,-122.8563,64.6039,-38.2753,59.7721,6.4876,22.3996,-25.5441,-34.1433,150.7025,51.3250,89.4572,-20.9646,-26.9402
91.4370,47.8232,-7.6669,9.8568,-5.7484,37.3503,-125.7848,84.6391,-38.8488,53.8297,104.6367,-79.7749,16.9792,-83.7245,87.5434,86.0308,110.7969,-41.3520,-14.4602
98.6280,-13.2935,-49.2284,-14.2110,-91.3700,27.9479,-165.0621,56.7773,-50.2550,15.2037,142.9814,-142.6682,-13.1524,-74.0141,-37.0708,27.8033,118.1823,-72.8665,-36.9845
96.1518,-30.5213,-110.4361,-44.7598,-141.8410,-4.4254,-110.4632,57.3369,9.0759,29.6667,115.3503,-77.7493,-26.8254,15.4764,-4.6651,12.4902,101.9341,-80.9435,-2.3099
82.4655,-55.8994,-134.7047,-88.6465,-119.6234,-47.1021,33.4995,123.1248,109.9171,114.6638,98.8872,0.9285,22.3690,77.5288,146.3542,101.8549,59.7861,-92.2874,93.0516
50.4141,-135.5334,-142.6075,-145.4396,-90.5474,-88.3729,94.0885,169.5952,141.7952,178.0378,114.2963,0.1576,93.6682,96.8275,197.8996,186.5759,19.6581,-131.5790,154.9255
15.3546,-210.2228,-138.9133,-213.7361,-81.3461,-122.4160,77.0917,160.4267,138.3962,160.2915,121.7817,-59.0257,166.5332,108.5906,210.0178,186.2032,-4.3751,-154.4079,155.5722
-2.5665,-212.4161,-110.9838,-246.9659,-73.1463,-133.2793,111.2398,132.1209,183.3992,90.6702,114.3173,-120.6169,233.0490,82.8989,306.3945,120.5396,-4.9328,-130.1913,144.6530
13.4575,-148.5488,-76.5807,-195.9135,-54.4271,-104.6205,145.9226,85.3776,214.0192,24.9057,122.9270,-110.5285,261.2699,29.6699,339.5758,44.3232,27.8362,-92.1553,129.1121
61.1886,-92.8766,-30.9232,-123.3772,-6.0393,-60.5378,81.4015,22.5970,154.8813,-25.5794,160.6407,-32.0176,275.0374,23.3373,199.2318,12.3102,72.4160,-53.0219,74.3922
105.1478,-99.4795,45.0163,-104.3518,67.3103,-37.1881,-16.1544,-22.5203,66.3955,-85.0603,215.1415,-6.5104,338.3227,58.2777,55.9555,27.6352,102.3581,7.1720,-8.1421
121.7360,-111.5057,111.2817,-83.0445,117.8906,-24.8477,-61.3118,-56.4323,20.6227,-133.0087,257.5961,-59.1909,418.3066,62.8417,86.0199,29.6624,115.6720,57.3401,-67.3310
116.7429,-71.5061,120.0060,-33.3918,126.5501,-15.0726,-64.9399,-92.3100,9.1733,-125.3114,243.7606,-71.5887,423.4803,53.7730,236.0324,-2.4810,96.5798,41.4260,-78.4378
87.2571,-49.8918,87.7836,-54.1778,116.9662,-40.0503,-37.1191,-93.6254,14.3128,-93.3528,170.5715,-24.8185,363.4842,109.2371,316.3297,-8.3022,46.6049,-19.4918,-56.6022
50.5568,-84.3265,61.1597,-126.8848,113.6971,-85.7085,10.0481,-59.3430,25.4381,-89.2935,111.8000,-7.7993,321.2522,192.5443,227.0239,43.5026,30.1183,-50.1398,-36.7255
59.1666,-80.1693,71.6103,-107.6491,133.5620,-86.1863,10.0920,-53.2845,8.9753,-98.5085,115.2463,-21.2932,319.6485,176.9701,79.2943,86.9793,64.6430,-37.3480,-47.4097
103.2736,-29.5544,103.4275,-41.0932,149.1389,-58.5067,-54.0022,-94.1041,-39.2230,-117.4161,126.1379,-20.7667,324.1802,68.8469,43.6037,44.2462,73.3874,-39.4363,-74.0274
113.0108,-42.0634,100.6758,-75.9513,108.1862,-80.7333,-97.5290,-135.2028,-69.3198,-174.6343,97.2830,-29.6117,308.6703,3.7043,114.2372,-67.1879,47.0240,-68.7815,-85.1809
91.1784,-94.2580,72.4853,-127.0180,55.7915,-127.8553,-85.1980,-155.8536,-65.7332,-232.3620,74.1264,-63.5823,274.4964,4.4185,136.2731,-149.9434,68.6859,-60.7709,-104.6790
92.7665,-74.1010,97.0264,-46.8641,83.3231,-111.4280,-97.2433,-175.7315,-80.9125,-235.1878,103.5846,-86.9444,264.0563,-17.9688,33.3534,-149.9250,129.0662,-4.2349,-160.7554
113.2903,-19.9303,162.4468,54.9780,153.2076,-49.8221,-156.8284,-197.9591,-129.9152,-209.5461,173.2596,-88.6269,320.6888,-61.3022,-71.6065,-124.0696,138.5993,21.8931,-185.5991
134.7981,-30.8122,186.6996,37.7304,183.5181,-27.4327,-154.5896,-200.8320,-136.7800,-191.7339,257.0904,-94.8574,401.8015,-70.5579,-13.6351,-143.3963,118.8109,4.5215,-100.6653
181.3083,-73.0501,193.5818,-7.5438,210.3937,-39.2459,-40.1946,-172.8533,-42.8722,-168.0566,319.5922,-108.6327,429.5151,-62.5890,145.3844,-175.8657,168.7887,27.3389,58.6208
249.2345,-63.0805,250.1180,12.5425,274.7179,-18.0550,94.6661,-122.0367,102.5100,-129.3187,325.7764,-95.2141,418.4229,-47.9722,195.1719,-147.3802,277.7683,94.8392,217.3124
296.7276,-7.3725,306.9487,23.0768,315.5801,34.5054,187.2061,-62.2414,204.2370,-86.2622,308.0078,-47.0802,425.0950,-9.2741,131.3363,-78.7061,336.4482,115.0638,339.2675
306.9474,22.9367,291.6790,-10.5797,291.4120,57.9996,249.5129,-17.9918,224.1500,-61.3674,323.1436,-23.1371,436.1026,17.6761,111.2561,-56.0153,301.6487,77.1273,383.4102
289.5093,-5.9227,238.6552,-7.7858,241.8352,50.3179,262.3072,-19.3171,202.2192,-84.2798,348.6639,-52.4544,424.3640,29.0951,134.5700,-91.9573,243.8356,58.2667,346.2082
263.4763,-33.8457,209.5938,42.3584,209.5971,71.4840,229.5132,-58.5925,195.3190,-135.4476,333.2874,-68.6838,403.7164,91.3296,131.7025,-124.2496,232.7671,74.4226,310.5082
244.6614,5.3432,204.1576,63.3469,202.8043,120.1018,224.9173,-91.3906,206.0080,-155.9529,284.0158,-33.1501,370.2028,173.7755,147.9528,-127.5377,243.3036,79.6282,315.8677
218.8260,61.3988,196.3536,40.1757,207.1818,119.0711,252.9440,-97.9016,203.0357,-132.7503,227.8772,2.5670,325.2551,174.9271,175.3108,-125.5321,220.4355,65.8585,314.5535
179.8322,57.7418,186.4534,14.8650,214.8244,54.7467,250.5652,-87.6183,188.1667,-88.9028,185.5854,6.6709,318.4326,117.7774,142.2901,-122.4276,181.8124,54.0988,304.0669
159.2957,26.5792,194.2095,-10.9224,232.4755,0.6139,219.1304,-64.9592,161.8156,-56.1215,185.0961,-15.2148,346.7175,85.0284,99.1040,-102.7248,168.1999,37.6876,304.9668
147.0537,7.0675,208.7042,-52.7214,227.0006,-13.1947,165.5694,-48.6155,87.0495,-87.4872,208.0111,-61.4712,339.5602,74.8932,65.7309,-67.7638,148.4317,2.6848,267.2988
89.3548,-40.0760,180.6747,-87.8044,152.5425,-15.7055,73.2289,-63.4407,-15.8082,-168.6361,185.5127,-83.7198,292.0222,68.2176,-36.1488,-38.2170,71.7013,-31.3702,174.6834
-1.8282,-106.2042,95.4334,-100.9839,51.5094,-13.8176,18.0319,-89.4623,-63.2773,-198.0549,94.2224,-51.5122,233.5050,70.7971,-100.5238,-43.7183,-41.3639,-39.7815,89.1148
-74.0863,-119.0222,-5.0987,-116.0023,-19.2648,-16.5319,56.0841,-97.1348,-53.4301,-156.8860,-28.1746,-50.1061,133.8040,77.4722,-2.5012,-79.1436,-127.2074,-39.3266,30.0265
-121.7890,-89.2888,-83.0714,-130.8820,-84.7807,-48.2558,85.0710,-90.0413,-42.2565,-105.3385,-137.5336,-112.0723,13.3894,111.1939,27.2738,-73.9297,-153.4807,-52.2403,-5.1177
-153.7456,-82.9827,-122.4064,-113.6094,-141.5091,-75.3728,55.9568,-61.1570,-16.2019,-39.5509,-201.0517,-132.3033,-43.1164,171.4847,-180.3669,-2.2964,-150.8252,-55.1123,5.3124
-184.2840,-88.5632,-135.6326,-89.6225,-155.9803,-55.0675,54.4967,-16.7974,27.7867,14.8145,-234.0100,-93.8129,-77.0077,154.8837,-319.0072,29.7575,-181.3039,-32.5114,6.4155
-238.3614,-66.0859,-178.9702,-105.1138,-198.2721,-23.9744,72.8180,-18.7500,27.5139,-24.1218,-286.6712,-80.8182,-180.1718,46.8939,-181.6317,-42.2553,-241.9246,-9.6885,-52.5612
-262.8229,-44.1912,-254.6524,-108.4005,-295.9824,3.2935,52.3979,-62.5090,-2.1791,-77.9859,-326.9769,-78.6380,-263.6508,41.6169,-52.4469,-96.7004,-254.8875,31.9459,-68.3659
-195.8607,-58.5797,-261.5168,-35.7342,-305.6671,78.4863,39.9593,-48.3788,-9.3454,-24.3346,-278.1457,-59.7499,-210.3192,216.0526,-135.2550,-30.0003,-209.3908,131.9900,-1.2376
-134.3487,-81.5970,-170.5467,40.3647,-189.3361,157.6371,17.4599,10.2599,-60.1945,16.2386,-193.8550,-76.0887,-110.2154,322.9521,-252.4668,56.0909,-176.1767,215.5279,-13.7315
-161.0970,-82.5439,-91.2211,41.3706,-107.1278,130.1916,-102.8680,-16.7811,-186.5494,-79.1846,-181.9138,-101.0115,-86.6872,156.7546,-276.3224,32.9065,-141.5884,183.2537,-143.8029
-156.8954,-72.5794,-74.8546,36.9989,-104.6653,40.8461,-228.6253,-128.0013,-265.7075,-171.7290,-207.7891,-85.8077,-104.4127,-106.6021,-296.5051,-61.3255,-47.7502,98.5554,-219.7243
-72.8664,-40.9773,-70.9105,75.9790,-95.8624,10.8137,-245.3001,-207.2443,-265.5579,-163.1609,-188.1359,-103.5817,-101.3210,-169.3438,-370.9748,-121.2725,14.2263,65.3928,-214.9600
-63.0650,50.4457,-76.6485,61.1173,-96.0117,9.0071,-253.5670,-233.5928,-299.0526,-153.9330,-150.6178,-142.3951,-91.6272,-49.4088,-453.7018,-125.8875,-61.2205,52.3511,-248.2283
-140.4782,162.7195,-106.5223,-34.7996,-125.7211,-39.4544,-306.8773,-245.6507,-354.7687,-171.1933,-150.2223,-64.3185,-93.7826,-5.3896,-480.9774,-125.9468,-153.1804,23.3225,-289.0630
-142.5956,197.0533,-107.4378,-78.7639,-111.1279,-75.7472,-294.6130,-234.7593,-333.9090,-160.4840,-180.9730,69.8140,-110.5076,-94.4069,-435.3308,-154.4584,-118.7396,28.7057,-252.1790
-82.2013,147.2769,-66.0971,-24.5060,-74.4545,-40.8500,-229.9692,-203.3445,-277.5341,-157.3275,-215.3798,75.7521,-144.6744,-122.0544,-386.0731,-176.3647,-55.8058,59.3924,-192.7500
-78.7342,99.5931,-45.8289,22.0073,-104.7000,11.9723,-201.7985,-170.2309,-244.4334,-168.5962,-215.2533,1.5936,-168.9584,-41.4115,-380.5193,-139.1212,-68.2695,51.2485,-163.8157
-77.6368,109.5798,-52.6467,29.4279,-135.0809,45.2092,-150.1400,-119.8335,-176.9875,-124.2806,-160.7870,-0.9331,-147.5675,-25.7312,-349.6505,-69.5082,-52.1904,29.5083,-124.8652
-9.6200,187.6663,-37.7963,57.2100,-73.1399,79.3281,-53.4428,-65.7456,-84.9475,-49.9227,-111.3214,57.6198,-100.3524,-109.1036,-287.6338,-46.7964,32.1910,35.7942,-69.5684
24.4050,287.7272,-23.8049,72.4649,-17.4408,97.2635,-30.7463,-52.3049,-76.5650,-20.0994,-134.1102,105.0358,-93.8854,-135.9318,-316.7090,-79.9083,31.4008,26.5296,-40.6399
-43.1475,279.9313,-73.7708,12.2161,-82.3758,75.8939,-89.6556,-52.8805,-140.5412,-16.1901,-204.4928,100.8861,-153.4355,-70.0537,-412.2414,-102.1658,-77.1522,-6.6906,-58.3870
-127.4875,134.7467,-160.2724,-53.7203,-186.0002,56.6316,-135.1442,-25.7290,-170.8124,-10.1632,-256.0252,23.4018,-207.1850,-31.7118,-388.4261,-79.6990,-118.9631,3.4760,-123.0466
-156.9442,38.8440,-183.7926,-45.2116,-197.9344,65.6606,-171.5770,-15.8041,-165.0239,-23.5473,-261.1819,-53.4862,-182.4720,-71.7375,-250.2345,-50.8650,-64.8234,46.2079,-197.9986
-155.7224,93.9436,-130.6031,-30.4363,-151.3165,53.6640,-215.2885,-52.1119,-183.1765,-48.4639,-247.7413,-48.8875,-131.3227,-121.5102,-192.2208,-58.4339,-64.3367,29.2102,-215.2005
-174.3585,136.0436,-113.5279,-87.0080,-162.6477,-7.2007,-210.8161,-65.0703,-201.3193,-51.0015,-273.2221,-37.2153,-135.5506,-105.8582,-251.0826,-79.2858,-149.8308,-51.7343,-163.3304
-232.1126,69.5379,-198.0797,-159.1216,-233.9868,-55.2712,-152.4627,-10.4347,-155.0850,-20.4815,-333.5083,-85.4406,-160.1241,-22.0398,-288.5329,-58.1162,-221.3546,-98.7353,-93.0872
-298.1164,48.7670,-299.1083,-178.3561,-286.7253,-31.2893,-80.1554,52.2494,-57.2566,23.2354,-348.3233,-123.0866,-149.7184,47.0855,-235.5024,-11.7546,-241.2037,-70.0055,-47.4732
-327.6767,159.3150,-332.1283,-169.2961,-316.8808,20.0790,-10.0649,51.6529,16.4106,27.7189,-309.0832,-128.2664,-128.3148,13.5491,-129.5407,-8.4949,-234.2637,-37.1592,-54.4140
-311.6636,243.4176,-320.4904,-167.5617,-339.2939,8.8546,29.9968,-10.6533,35.4606,-28.1451,-286.1017,-148.5931,-97.9908,-90.0232,-25.4312,-29.0265,-218.0763,-59.1498,-103.2626
-262.1993,154.4845,-290.5729,-171.9076,-297.7106,-62.2311,51.7001,-66.0264,55.7313,-77.0349,-264.0294,-153.6103,-32.9038,-117.1459,52.3980,7.2912,-214.8915,-89.9879,-114.7012
-207.0860,-27.2473,-236.4423,-184.6925,-206.5947,-106.6738,135.0038,-43.6933,134.0615,-55.7040,-197.4813,-128.0909,21.4953,-3.6663,148.9363,79.0157,-219.7223,-81.5090,-44.4473
-197.1129,-104.1629,-201.2785,-199.7879,-186.2993,-102.9792,255.5393,43.1393,237.6461,14.1598,-162.5673,-133.4281,20.5163,81.8093,285.9857,98.8439,-199.6345,-80.1193,30.8408
-237.6647,-17.2368,-235.0354,-195.4240,-250.0860,-115.0780,276.2531,102.0035,275.1902,73.3044,-220.2331,-155.6244,-15.3160,-45.5386,331.5800,75.4340,-185.9793,-117.9815,22.5221
-269.5807,94.6870,-312.0962,-184.7729,-305.4519,-153.2200,187.2686,86.3925,208.5098,82.1767,-284.6831,-137.2360,-81.0214,-242.2553,179.8732,72.3292,-230.6678,-140.2085,-49.5258
-273.3246,126.8463,-382.0670,-196.8524,-344.5785,-160.7913,109.6077,54.5295,104.3757,66.5404,-289.2154,-103.7059,-157.3673,-239.9023,-25.9484,78.9386,-285.2578,-136.7162,-100.7120
-287.4651,127.9130,-424.3466,-215.8296,-391.1867,-141.8649,79.5404,61.8997,51.2527,91.2247,-279.2810,-76.6033,-170.8532,-128.0921,-96.8175,58.8329,-290.3796,-163.8960,-92.6434
-314.6259,116.2228,-431.9447,-212.0713,-399.2121,-144.7418,51.2706,83.5629,51.7636,138.0618,-286.4314,-54.9690,-129.8902,-148.4155,-42.8451,44.9912,-286.2956,-188.9531,-59.5687
-314.8862,49.6710,-406.2144,-185.7084,-356.1749,-147.0839,35.0492,101.7691,63.0442,160.8168,-289.9270,-101.0560,-111.8382,-200.2755,54.6456,85.6974,-295.6701,-139.0765,-27.3197
-270.0529,10.4088,-352.4663,-149.2193,-304.0828,-113.1138,61.7213,153.4693,85.9198,213.6006,-271.4622,-199.7732,-99.2977,-116.4527,154.0691,147.0763,-266.8035,-78.8592,25.2398
-209.4359,92.4614,-284.7761,-128.3277,-257.7067,-95.7750,82.7427,218.9394,110.6398,280.1152,-230.3998,-199.8621,-65.5969,-59.4668,177.6340,148.5311,-215.6608,-103.9937,83.8660
-195.8952,174.1088,-251.0216,-147.1960,-239.0363,-138.1106,35.5254,224.7227,85.9189,234.9287,-212.2379,-103.2429,-75.4070,-140.8614,81.1965,94.8658,-223.2725,-157.9415,102.5003
-249.3015,115.6706,-278.0626,-171.2109,-264.6012,-176.2841,-24.7218,212.4219,43.3559,181.0675,-261.7665,-104.0313,-125.9192,-170.8124,-49.6056,86.7822,-277.2401,-151.3860,116.7617
-297.6144,9.5310,-309.4446,-152.7323,-274.5643,-154.7827,5.8168,277.4667,75.1248,311.0372,-306.0921,-210.7879,-138.5349,-84.8812,-119.3958,152.5515,-303.8817,-110.0865,172.0772
-289.2608,-14.1717,-291.3046,-121.4715,-231.5341,-112.0009,84.9563,342.1346,140.4247,425.3261,-254.6474,-216.2794,-117.9615,-35.3057,-105.6277,189.2952,-308.4945,-78.7124,194.9477
-269.3941,-1.5428,-247.1098,-117.3544,-186.9042,-82.3616,87.4479,284.2844,126.8553,288.7155,-180.6585,-109.9711,-81.3758,-26.6478,-16.0022,144.5034,-327.8668,-52.5471,152.4092
-267.0580,-29.1343,-208.5629,-115.2029,-166.6729,-48.4877,42.8707,203.3001,72.5837,159.9524,-186.4711,-102.6208,-12.0160,29.6743,96.7494,100.9969,-330.5590,-44.3407,166.8700
-256.8930,-57.7454,-177.5908,-109.6689,-156.5110,-14.7532,63.0823,234.1357,81.2129,254.8782,-216.7583,-193.0020,14.3763,76.1805,157.1293,118.6911,-289.6053,-59.9419,269.6125
-252.1118,-36.3694,-152.7393,-135.9448,-157.1148,-7.2908,104.3164,283.4145,116.6118,305.0762,-197.2414,-155.4754,-41.9107,40.3756,147.5170,153.7348,-259.1570,-45.3491,308.8770
-263.5269,3.8216,-116.8500,-166.9850,-136.6960,-12.6206,68.7255,241.7792,94.5269,184.2604,-154.2282,-2.6735,-42.6410,-31.1047,99.2811,158.4312,-276.6087,23.8168,240.0686
-233.1263,36.5077,-61.5166,-149.5575,-69.6789,-0.0254,10.5340,194.5802,49.0201,159.5789,-87.7306,37.3439,57.9599,-48.1467,86.4335,135.1245,-281.7146,88.2782,197.9424
-147.9251,97.7035,-21.8711,-108.7668,-7.8234,32.7067,17.3403,215.9308,54.0655,283.5344,20.0015,2.5965,123.1425,47.0229,173.1054,110.7343,-217.6204,110.2068,230.0321
-78.4081,172.5310,-3.9318,-78.7031,31.7927,76.6313,53.4027,235.4188,85.8673,323.8832,66.3951,86.8436,150.4931,195.7576,246.7133,111.4318,-115.5623,129.7636,241.9933
-37.8292,180.1463,37.8430,-29.1661,93.0322,125.1801,59.5223,200.2356,73.7387,234.8429,-15.5611,185.2485,243.0920,266.0682,168.5639,124.2403,-22.6188,181.4794,193.4499
21.8281,166.2490,102.9692,41.9090,149.7382,157.6705,52.4679,140.2781,36.9280,140.7872,-55.1647,154.6157,340.6917,252.1946,86.7034,114.9788,42.2012,232.4564,140.9371
87.3612,258.6044,149.6589,71.8896,163.7899,154.1370,61.1015,86.5559,53.4272,96.4431,89.9885,170.6294,389.1267,218.1063,126.6201,101.7477,56.8730,228.0069,119.4831
122.2931,362.1427,176.3466,48.2032,174.0878,136.7514,62.9346,53.9212,91.4705,92.8992,240.6814,294.6979,513.6035,157.2606,64.7395,113.4159,57.8587,175.2325,103.5771
166.9256,284.7226,201.9951,46.1512,190.9453,160.5539,22.8453,35.6914,46.2155,67.8411,220.6951,293.3790,746.9905,154.6938,-131.3581,107.7833,152.3789,146.8051,73.1953
269.6992,170.3303,230.8493,105.0459,202.2084,225.5304,-33.1736,0.6265,-44.7435,-22.4111,208.5909,205.2887,920.6049,307.4560,-105.7582,48.3242,317.8943,167.2401,48.7954
374.1836,310.8827,248.5495,143.3514,238.4007,238.6361,-44.3150,-37.6464,-62.5603,-72.1299,356.3000,291.4395,935.8488,395.5780,102.8522,-16.5129,371.1804,162.8791,45.5162
377.8758,599.1011,215.2838,77.2784,258.9759,151.2992,-20.0013,-20.3902,-36.4936,6.7252,429.6653,428.1469,884.2368,224.8042,58.5432,-28.6043,279.7983,100.2178,58.5590
296.9413,690.8267,154.0671,-12.8446,215.1705,71.7325,-13.4451,51.5211,-44.3264,111.9768,288.1657,377.9942,905.7006,74.0517,-170.0666,16.2577,239.4184,61.6660,103.9280
277.8813,575.2741,184.3715,24.6164,227.3112,104.3438,-14.0729,104.8459,-39.1977,130.4756,237.1265,320.1485,1021.1691,163.0361,-179.7692,74.9367,341.1475,99.9554,173.6193
390.1253,517.1295,315.9505,164.8018,352.2225,177.5319,5.4244,86.9308,-0.3373,54.7392,446.9577,435.8069,1085.9745,232.6382,-19.0488,71.6698,455.2020,162.3393,191.7819
511.1576,591.3808,396.7640,240.4359,414.9712,184.1512,24.8240,22.1295,3.1127,-73.6813,608.0556,540.7587,992.9426,134.9816,76.2121,-7.0731,478.6640,207.2231,145.9903
513.8437,652.5336,385.9189,208.1464,367.2388,153.1385,50.5735,-12.4055,1.5914,-132.8893,528.0344,513.1073,855.2415,78.4225,116.9147,-59.6049,447.9250,245.8023,134.9009
448.9559,648.1006,391.6440,184.8082,376.8205,156.8820,107.1355,19.0594,69.3330,-41.6868,424.4923,478.0149,802.0386,120.0915,89.6959,-36.2015,435.8442,289.6472,171.6323
439.0457,678.0037,431.4839,253.9581,461.2870,206.2595,154.6998,58.8064,134.7164,55.5003,427.8683,508.7365,781.6243,146.6081,-27.9039,-21.7229,483.6973,365.5318,160.2813
505.9475,785.4080,457.1474,383.1399,511.6162,288.5316,158.2834,59.0009,116.9209,34.3239,429.3243,590.1775,735.6454,174.6166,-64.5834,-41.0074,571.3821,478.3007,112.3340
585.1932,897.1865,487.3684,488.5983,533.1874,372.2093,139.5337,60.2319,73.9857,15.1158,423.0251,711.4243,696.8376,202.5285,9.1785,-12.0150,641.5291,541.5724,116.3845
631.8718,972.0109,510.4370,525.3637,529.3238,415.0914,107.3386,94.1047,66.2959,70.7962,474.8351,819.3372,653.2359,187.2747,37.2739,55.8283,696.4778,513.3674,147.0885
657.8881,1049.0360,482.4778,535.1775,466.4867,437.6706,80.0156,127.7531,80.5590,92.7152,519.7361,885.9949,573.0822,232.1376,59.8599,74.8195,769.9197,500.9386,141.3028
694.1369,1164.6510,459.3172,573.6545,424.7535,478.3406,85.2065,143.5848,86.0473,69.0653,523.3532,936.0941,497.3025,338.5505,108.7008,55.5420,834.2495,555.5945,114.5482
756.7609,1320.3066,494.1357,631.3033,455.7537,506.9363,56.9436,156.3219,42.9454,90.4784,575.5773,938.2288,456.6200,306.6267,19.7440,58.4827,890.6870,576.9088,71.0071
850.8939,1458.4159,529.5104,697.0065,483.3523,510.5994,-42.3195,174.8771,-27.7193,142.2184,697.0624,891.8247,435.5238,181.3240,-112.8739,81.2226,1009.1250,533.4275,1.2877
952.7265,1477.6898,538.6266,772.0068,505.2051,533.7131,-79.6256,213.3070,-27.3214,174.9076,814.0941,880.9379,426.2733,213.4117,-35.3228,112.2685,1143.7646,495.6212,-32.9833
998.4359,1400.6976,559.8589,787.6224,557.2159,556.5731,-9.0330,266.0847,24.5030,199.5683,885.3073,867.7052,402.2082,353.1367,109.2407,157.5568,1156.3091,457.8987,-1.5200
973.5880,1365.9668,575.7577,707.0973,560.5112,529.6049,7.3547,289.3050,0.0046,221.0450,895.7968,742.4601,333.1208,394.8290,114.8478,197.3284,1075.9564,403.0055,19.2534
946.8278,1351.2198,547.4404,637.0866,491.3903,494.0225,-65.1506,280.3347,-71.2873,245.7341,853.0723,567.0843,248.4749,370.3572,125.8672,215.9090,1026.3176,388.4798,-18.0589
921.6703,1232.0474,479.4225,626.6636,425.3067,467.9134,-105.5444,274.7889,-86.5704,276.1020,806.3279,425.1097,179.0505,340.5755,167.5408,211.5317,960.8036,381.3375,-84.7100
811.6520,1086.3235,377.5047,559.8398,332.9131,371.9048,-152.9240,242.9117,-123.4377,251.5027,761.3265,249.3505,116.4088,224.7155,59.1204,167.5878,792.1564,276.7762,-169.8756
631.4314,1005.6849,255.7676,400.8887,169.1461,214.0596,-282.2570,145.8216,-256.4305,147.6974,682.6168,22.4676,53.9868,65.2483,-79.4464,108.6282,599.8396,125.5294,-270.9885
479.4962,831.7786,127.1239,252.9472,9.8861,106.8329,-374.1484,43.5665,-365.0149,40.2711,593.7377,-176.2202,-42.8257,15.5382,-49.6024,94.9164,432.8308,40.9306,-356.9343
334.1099,484.2749,-41.8260,141.4177,-118.1777,57.8922,-378.1448,-6.1170,-385.9156,-29.6079,511.5311,-343.8527,-203.3874,41.7536,-6.9806,92.4693,187.0799,-5.1271,-423.4503
127.7629,152.1337,-229.6640,32.1053,-250.3177,-4.8256,-436.7755,-42.9055,-431.1853,-79.4502,385.4412,-507.2199,-348.7723,-14.6179,-114.5152,12.3127,-124.5939,-58.1675,-498.0430
-77.0156,-55.9547,-332.9476,-43.8704,-341.0688,-73.9765,-575.8456,-101.3934,-545.5461,-107.9153,228.3320,-658.6998,-418.0435,-160.6257,-281.0259,-112.6537,-325.7310,-88.4449,-590.2736
-217.1399,-212.6611,-364.1432,-80.0279,-385.3731,-117.7870,-683.3517,-154.6566,-657.7964,-136.2458,102.5058,-823.0592,-491.0074,-253.1258,-403.0674,-173.6808,-412.0431,-116.5927,-696.6268
-350.1859,-389.5206,-432.7713,-113.1128,-460.3043,-142.8081,-751.7467,-182.9599,-733.7769,-184.4639,-31.7768,-993.5331,-590.2568,-207.5216,-422.2836,-153.8391,-557.4117,-167.1999,-790.2625
-493.6762,-643.2006,-508.5714,-128.5457,-529.4312,-134.4591,-797.6818,-182.2762,-752.4341,-194.3964,-190.5934,-1111.3190,-614.0991,-101.8009,-347.1591,-105.2092,-745.0827,-175.8365,-796.8437
-559.2251,-882.3723,-492.3848,-139.3901,-505.8932,-103.6364,-737.8248,-143.0204,-663.8856,-146.0739,-233.2839,-1164.9410,-565.3431,-64.0078,-339.2051,-57.0023,-777.4683,-140.3256,-677.3574
-508.0396,-857.1530,-411.7608,-198.2643,-419.7352,-121.6795,-563.2551,-82.1949,-493.6737,-109.4321,-117.9247,-1113.8103,-535.5135,-102.9504,-401.4129,-24.5704,-639.0013,-142.3905,-506.8285
-392.7335,-661.4783,-320.6197,-238.3543,-306.6752,-179.2108,-401.0302,-36.2501,-342.6050,-89.7150,-21.4475,-916.6581,-517.7042,-125.0236,-292.5053,-15.5996,-495.7184,-157.8705,-379.1933
-270.7381,-673.6102,-210.5331,-187.6836,-165.7328,-186.1895,-312.0483,-19.7630,-248.3433,-56.6334,-18.1980,-750.0806,-485.8920,-89.8891,-61.3933,-21.0070,-413.7922,-130.9232,-289.6625
-194.9998,-779.4310,-118.1788,-168.0162,-68.2441,-164.9604,-236.4460,-34.5063,-170.3555,-70.7589,-1.5214,-765.5225,-477.8087,-65.7765,-7.4020,-44.8796,-380.3549,-140.5649,-202.7390
-222.0426,-623.7704,-111.3321,-271.4174,-79.3070,-218.8423,-161.8027,-77.5885,-107.3179,-147.8921,4.7732,-772.0814,-502.6785,-133.4605,-51.4923,-86.0242,-441.7974,-237.8504,-159.1277
-346.1693,-484.6774,-190.2879,-376.5056,-177.9954,-332.0143,-154.4973,-120.1476,-102.3200,-180.8899,-114.6268,-666.8038,-560.9883,-261.8989,67.8552,-102.8693,-569.7079,-328.2841,-178.5952
-463.3960,-741.8609,-303.5403,-414.0028,-316.0857,-408.7609,-178.8879,-128.1805,-112.4861,-140.6738,-253.0123,-687.0216,-660.3278,-329.7252,231.0125,-84.5516,-612.2309,-360.3672,-142.5280
-468.1639,-1036.9961,-368.3769,-471.1992,-393.4329,-437.1365,-97.9933,-117.5876,-36.0201,-130.7808,-238.3712,-839.2998,-721.4991,-314.1550,233.1330,-98.0816,-547.2912,-379.2115,27.0017
-394.3769,-986.8685,-319.7807,-546.6876,-322.6820,-464.1068,56.1402,-156.3169,85.3337,-210.9486,-170.3922,-830.8967,-696.1722,-329.5091,156.7668,-183.5235,-516.4496,-388.5670,179.7544
-373.6892,-850.9099,-220.0022,-560.1063,-205.0785,-500.8210,100.5374,-277.3435,114.2930,-331.0157,-225.3788,-684.3659,-698.5811,-414.3294,87.7055,-284.1043,-549.6182,-374.8329,166.5334
-435.8477,-857.0702,-183.3261,-551.7300,-183.1631,-536.6992,55.0589,-402.0894,79.7544,-404.1981,-345.5913,-622.3895,-788.2905,-486.3128,6.9406,-333.2610,-554.3268,-366.6204,82.0460
-491.7343,-859.1969,-204.6236,-582.3113,-212.5071,-566.3251,81.1676,-427.4024,98.7981,-395.4677,-410.4395,-589.5699,-853.0638,-519.3907,-18.7751,-329.2308,-533.3134,-356.6480,52.6512
-496.4789,-825.7916,-208.5341,-580.4857,-203.8811,-564.8449,124.5562,-374.5971,126.1678,-357.4630,-434.6250,-508.8618,-820.6329,-528.5142,19.5340,-304.5861,-520.7166,-309.9255,49.8439
-446.8725,-828.3746,-157.2847,-482.9524,-143.3947,-498.0509,81.3949,-335.1347,97.1924,-339.4145,-418.5606,-480.2663,-708.2383,-470.6856,-8.3115,-289.4803,-436.9803,-246.4600,68.9273
-321.5160,-773.6166,-48.3050,-366.2024,-23.6056,-381.6852,69.1677,-314.1235,97.6240,-319.3329,-315.0893,-446.4684,-538.0646,-357.4588,-79.7950,-295.7826,-268.6875,-195.7877,149.1895
-194.0592,-642.4869,52.1787,-315.3871,80.6980,-284.6599,128.5697,-262.9825,142.9245,-275.9144,-209.1841,-290.9061,-399.7534,-285.0626,-36.5938,-293.2875,-185.9174,-156.5099,196.5696
-191.9804,-568.1433,56.8397,-272.4689,60.9789,-242.3323,104.9383,-189.3282,125.7910,-206.9018,-228.3418,-160.7665,-365.2873,-266.4317,77.4481,-242.5942,-255.3889,-144.2845,137.3479
-253.8887,-544.3573,17.7032,-131.5698,10.2744,-216.4631,25.7617,-131.5237,72.5436,-116.6044,-308.5164,-165.8663,-336.4913,-240.8534,85.7546,-176.8753,-294.7076,-164.3080,90.2654
-229.3088,-452.0993,24.3930,50.8036,42.7716,-179.2744,38.7965,-110.9646,74.0435,-77.3182,-299.9665,-149.3990,-251.4348,-209.4084,-4.4597,-166.6630,-205.5000,-180.2317,109.0692
-174.2578,-282.0500,5.7767,107.3047,30.3646,-160.3401,61.2877,-125.1143,68.0483,-116.3854,-209.6494,-44.7245,-220.9785,-199.5928,-65.7582,-185.8308,-148.5732,-192.4523,77.2350
-209.3289,-137.7950,-95.4824,36.8537,-97.5342,-163.9213,-5.8299,-119.4674,2.7504,-90.5474,-158.4259,29.5658,-262.0262,-197.4680,-103.4429,-145.9121,-208.1256,-229.2665,3.3101
-258.4495,-139.5824,-164.1001,2.2528,-183.7888,-138.2911,-55.8399,-47.9549,-39.5828,36.9299,-193.7086,45.4081,-263.9645,-171.4218,-196.8698,-69.7888,-226.0866,-243.3461,16.4906
-229.9766,-281.0988,-145.4343,48.1106,-186.4768,-68.1785,-46.5220,26.2830,-29.4602,67.7751,-250.1310,37.1385,-246.0651,-101.2210,-278.3337,-50.4494,-139.8912,-173.3085,86.4968
-200.3498,-381.1760,-126.1430,88.1416,-187.2590,0.2568,-30.1072,32.5069,3.8543,-14.1627,-255.2690,-11.6928,-266.6136,-32.4793,-209.7105,-65.6913,-105.2463,-68.2812,117.6058
-216.5514,-340.5358,-106.9200,109.3850,-124.3802,40.1138,49.2882,14.5073,89.4824,-5.0651,-227.6280,-49.9214,-251.7084,-45.4382,-51.0661,-49.5696,-153.3152,-10.8403,146.3081
-198.5801,-267.5359,-25.9265,134.2087,29.7268,63.1791,184.6051,3.7103,195.7398,34.7939,-229.9004,1.5262,-190.7359,-87.3512,12.5760,-54.2027,-134.5311,2.8916,197.6360
-127.5758,-234.1992,65.2067,120.6342,130.3181,73.0542,235.4222,-51.8629,218.7513,-83.9523,-247.9079,81.9302,-191.7469,-35.0627,-4.3487,-115.5152,-51.2284,15.2327,210.5716
-80.5421,-208.8688,105.0733,77.0978,148.2878,68.1640,207.8596,-128.9833,179.5027,-202.5668,-223.5534,101.3072,-241.9213,59.0997,44.0743,-133.9132,-28.5732,41.1462,188.5463
-69.9898,-190.5434,129.1579,85.8954,187.5751,68.0458,194.0046,-136.4669,157.1852,-125.2362,-171.3074,107.4115,-241.2536,70.2693,106.8776,-79.7964,-21.7616,88.9925,170.0515
-40.9981,-150.5026,150.2888,151.1562,221.1932,87.5191,151.4769,-101.4413,125.6964,-34.7377,-138.0659,173.8030,-204.7699,34.0549,48.1376,-63.4870,53.7936,150.0047,132.2353
-5.5408,-61.7637,130.4512,204.9448,167.4178,104.1922,81.0098,-112.3414,76.6199,-107.3967,-123.2968,243.6841,-189.0956,18.8459,-36.9281,-92.5491,89.3198,175.3597,86.3090
-26.5580,-44.7633,79.8701,218.5996,67.3432,89.6285,79.1081,-150.4168,70.7942,-214.6953,-114.6347,209.6478,-177.2777,7.4629,8.6584,-68.8523,11.9028,142.1244,80.9797
-70.9833,-147.3117,46.2699,194.2740,10.2203,59.5652,97.5102,-166.5471,78.2987,-247.6275,-90.9914,98.2809,-136.2224,19.8057,89.1692,-25.6401,-27.6087,93.4049,80.6011
-27.6163,-179.5456,59.9267,153.4680,49.3144,50.3451,53.3221,-182.0394,32.2532,-250.7161,-6.0355,54.6685,-45.7513,68.1161,36.6472,-52.7036,71.2647,53.7501,42.5923
99.5079,-81.5873,123.8511,147.9024,160.0794,54.5506,26.1298,-196.3943,-19.9634,-227.4636,118.7902,123.2460,88.4268,76.6283,-71.0878,-91.0213,191.6572,-8.2352,18.3450
187.4720,-49.3265,194.4951,177.1033,225.6720,37.2720,54.7356,-158.6023,-20.4479,-157.1523,194.6495,199.3538,196.3585,52.1016,-33.5889,-53.4984,224.0881,-80.1606,37.6607
207.8486,-131.7566,218.5934,179.9596,203.5788,10.1658,74.8246,-71.6587,8.2751,-77.4718,215.3133,226.8261,238.8235,82.1356,151.3846,31.3677,205.3662,-84.2072,66.0604
232.2674,-187.3568,214.1823,162.5830,194.3166,24.2673,124.7205,12.2882,57.8977,-11.2839,234.6943,243.4232,281.3941,131.7857,285.9801,126.2432,205.0304,-9.2401,106.2071
253.2097,-198.4496,235.0766,184.6563,234.9337,90.5806,247.4659,78.6904,139.3922,43.9489,238.9257,254.8971,357.5053,139.7069,265.6471,214.4423,235.2213,57.4218,168.1605
232.8489,-211.5237,282.7108,224.3382,268.2572,156.3289,348.0317,135.3559,223.6616,82.7982,218.3736,262.2201,410.4157,151.2553,214.7512,229.5401,259.1748,66.1609,216.2645
220.3885,-181.7088,319.7435,214.9491,302.2355,161.5198,384.3764,165.0749,288.1882,118.4288,216.0051,299.8633,428.2294,160.4705,250.3139,163.8459,237.8736,50.4883,246.2510
224.1252,-134.7331,316.2015,164.4118,340.6672,103.4779,411.2572,155.6393,327.5544,145.1533,195.6106,319.6956,446.5728,119.4779,278.0559,129.6438,186.7239,31.1109,275.2283
167.5770,-183.7799,262.6625,119.4981,313.7880,39.0986,410.4744,126.8032,318.2751,118.4544,97.8252,233.0525,436.2905,98.2054,202.5929,169.3605,149.6483,-6.7586,269.5889
77.0407,-298.8350,187.9497,87.9223,234.1090,12.4438,363.5964,99.3867,278.2679,53.4306,15.0258,94.5202,357.4272,131.2448,151.8823,192.9529,121.8869,-57.0322,227.1516
50.8402,-347.0122,136.4638,61.8402,180.9778,5.7046,339.9041,80.4727,273.3069,25.6431,32.9440,32.1972,248.3377,123.8140,247.9474,164.2880,78.2616,-103.9964,216.5808
53.5896,-327.6300,104.5268,41.7607,132.6786,-14.5836,350.4849,83.8653,303.8507,53.2019,35.2143,58.6631,152.7802,84.8981,348.8313,143.3016,44.3478,-152.3420,248.6250
4.5603,-334.6115,55.4319,16.1890,43.0234,-47.6307,336.3674,114.5468,307.9026,88.6660,-68.8748,94.9787,64.7115,110.1265,271.4876,145.5865,54.1261,-194.7414,265.5298
-46.4482,-361.0806,-7.0343,-20.2534,-38.6120,-70.9387,291.0230,133.3134,268.4066,92.1836,-154.0238,75.6118,-12.8119,150.7066,89.5789,128.0470,72.7543,-201.9685,244.5023
-44.2987,-331.5723,-47.9229,-40.3404,-65.9038,-62.3270,225.3207,103.3700,210.6945,67.8958,-128.2889,-1.1156,-63.8666,120.8329,-1.5122,83.0213,28.3449,-169.6411,184.5849
-53.3492,-274.4491,-70.2689,-26.9066,-66.2041,-27.2348,148.8003,67.9998,154.4395,71.6564,-98.1890,-50.6939,-107.3655,51.7374,41.1533,52.5432,-87.7775,-132.1175,104.6238
-122.9170,-283.5547,-108.1849,-11.7366,-82.5782,-15.9843,123.2304,94.5507,127.7612,141.1362,-147.7882,-9.7459,-161.6250,-20.9920,117.6652,71.7316,-198.6712,-124.4439,85.5712
-196.9159,-339.3851,-156.5294,-26.3591,-129.2573,-54.6814,165.7998,153.7261,150.1998,213.6084,-215.3023,45.0239,-204.2036,-72.1700,147.5988,115.4305,-240.1478,-148.9749,146.4051
-213.5211,-358.1675,-170.8787,-54.9449,-168.8703,-90.5166,198.8697,160.2522,194.0623,210.8916,-248.2186,24.8072,-220.8871,-44.1185,120.2031,114.2240,-228.0585,-174.1356,173.9936
-178.9053,-355.0033,-143.1787,-70.9047,-155.2519,-76.2160,199.8401,110.7183,223.3359,152.9779,-260.5346,-26.2363,-225.3793,25.1247,47.9239,56.9632,-190.9631,-166.8178,124.9738
-135.7845,-357.0167,-114.4932,-68.0826,-124.5317,-27.5420,216.4294,70.4610,235.8235,91.9451,-243.1272,-36.9615,-213.8312,44.8761,-46.4440,16.7957,-133.2977,-129.0752,85.2090
-116.2716,-307.6630,-109.5027,-41.5471,-135.0733,38.6880,232.2392,56.2237,232.2477,36.1965,-193.9930,-8.9492,-188.3016,49.8591,-96.3850,27.8542,-101.3968,-92.2648,67.4003
-121.7166,-229.0995,-115.7851,6.0126,-147.0307,107.5304,204.0663,34.2995,201.7556,-3.1965,-182.0374,35.5670,-190.5771,83.3513,-36.2064,39.3917,-137.2944,-77.0196,24.6914
-129.5812,-222.4696,-108.2169,50.7274,-93.5730,140.6519,157.6938,0.3660,157.0480,-8.3444,-236.4838,70.7450,-212.0570,99.9870,70.2696,26.9799,-167.7088,-71.9039,7.1883
-117.1549,-239.3054,-59.4467,74.3514,3.3776,150.5072,127.2820,-22.2424,125.9490,-7.7216,-262.8915,76.3757,-170.5929,133.7003,70.4168,25.3423,-123.3012,-55.7895,50.3419
-89.3701,-184.9694,22.2307,68.8027,75.8493,182.0143,102.5621,-33.1643,106.2286,-38.5618,-194.5722,80.9280,-74.4503,227.0761,-36.0229,37.7682,-84.5350,-32.0793,74.6174
-75.1166,-153.4365,75.4952,33.0254,93.8336,189.1817,82.3365,-44.7068,88.3810,-78.7437,-113.3077,94.7008,-42.0002,247.6387,-83.2016,27.4616,-106.5170,-17.1321,51.0262
-71.8250,-214.0095,74.3553,5.3029,81.4955,118.8957,96.4851,-49.4097,103.2666,-85.9948,-105.4157,72.3556,-91.0676,132.3652,-32.3105,-4.6739,-89.5445,-2.1981,40.3222
-51.8468,-227.4466,64.1613,15.4562,71.5522,50.2920,152.5246,-41.4665,167.9517,-73.5433,-131.8869,40.0041,-125.8831,52.2823,-19.9369,-15.4700,-25.3733,27.6178,44.9167
-56.8638,-150.8397,57.4059,8.3820,50.4111,52.7377,198.1699,-39.6712,220.8654,-78.8934,-148.9546,72.0005,-141.4865,79.7563,-65.9716,13.5327,-73.6454,56.0369,31.1121
-140.7171,-146.2115,23.5972,-45.4029,8.8036,71.0431,183.5647,-49.7944,205.2957,-82.8019,-206.1649,107.0813,-200.9286,88.4692,-38.7992,46.2740,-214.7473,72.5210,13.0843
-212.6771,-242.5603,-7.0843,-58.6532,-0.9730,75.1076,144.9548,-42.0356,160.4196,-45.6583,-311.9571,46.7542,-266.0151,58.3478,64.0837,38.7260,-222.4210,91.8259,-4.1046
-173.9982,-295.0150,8.4326,-9.5358,28.1586,84.3313,134.8666,-4.6108,141.0291,9.1070,-352.3086,-25.6585,-267.9818,67.4721,104.7511,6.2046,-109.7348,92.8285,-30.2460
-131.0348,-262.9358,21.7205,-10.0532,21.5368,51.9715,120.6540,32.1383,131.5385,52.1459,-266.3931,4.0746,-238.1817,79.5424,64.5145,7.0211,-122.5408,45.0065,-39.5879
-185.0326,-199.5641,-14.7213,-63.7608,-19.6981,-20.5957,75.6730,56.5469,103.1704,108.5878,-174.1602,60.4371,-221.3968,51.5547,48.8455,47.9482,-242.5497,7.0337,-27.5650
-221.3689,-132.3229,-51.8863,-48.6816,-30.1328,-10.0841,45.8555,84.4994,60.7229,157.1373,-196.1145,36.9917,-202.3721,48.2466,79.3407,70.1736,-239.6368,40.8358,-27.9574
-175.5606,-124.1891,-49.6931,13.4535,-42.2931,87.3794,25.1502,90.2861,10.5250,117.1429,-257.8301,-11.4960,-190.0197,95.6806,96.6679,47.7540,-155.7929,68.2091,-41.8249
-164.0532,-180.4060,-50.2659,-1.0946,-105.8251,113.5209,-40.7215,34.0951,-43.3353,11.9157,-230.0362,18.8384,-229.0273,138.6260,97.6796,20.0243,-170.7350,6.7938,-59.5964
-187.4729,-138.0464,-79.9715,-59.9877,-154.8260,48.6953,-112.8563,-38.9698,-94.1407,-42.5629,-159.2800,134.5969,-301.6638,155.3637,101.4191,10.9407,-187.4460,-49.3968,-90.0748
-135.0031,24.1887,-95.6044,-48.6914,-133.0421,31.5875,-138.8936,-48.1195,-148.7227,-15.8416,-167.6495,246.2933,-328.2371,160.9783,66.0686,2.4945,-88.4319,8.2383,-109.0544
-78.9359,49.1786,-70.3863,16.4500,-89.1473,81.5470,-168.3069,-3.9393,-198.8631,42.7285,-218.3345,238.4393,-278.0522,156.1013,-27.4504,-3.0283,-53.0222,101.7103,-96.4749
-131.9976,-102.0994,-49.7831,44.1793,-81.4168,100.7076,-218.5923,28.8569,-215.5974,98.7230,-195.6262,111.2960,-216.6353,135.6267,-99.7473,18.5594,-179.6078,114.0654,-88.8160
-196.0246,-126.8018,-77.8993,11.4887,-121.2234,73.6970,-234.2562,36.0699,-217.0613,110.9307,-127.6354,31.2647,-215.6663,102.6333,-81.6387,49.5456,-264.0797,74.3945,-99.0153
-186.5430,-3.9904,-123.6786,-38.8865,-177.4069,44.0750,-240.4107,25.8161,-250.4706,59.0790,-117.5657,97.1511,-251.1255,75.8315,-6.1228,50.7965,-224.4444,49.8169,-105.9535
-187.5976,-43.1523,-142.7814,-71.2401,-203.6977,1.7184,-286.8607,-7.3403,-296.2385,5.0726,-149.7352,177.3151,-252.7183,63.3690,65.7164,37.2181,-217.2458,23.1038,-129.7074
-219.2149,-198.9682,-156.6006,-97.1025,-217.6300,-69.0413,-307.9857,-32.4875,-301.3792,-6.5999,-153.8608,139.6374,-222.7932,29.1093,106.4254,42.5172,-266.9457,-16.6917,-164.8170
-215.7595,-159.8790,-187.8871,-127.3826,-258.5833,-120.2178,-257.7184,-17.2868,-270.8312,-14.5452,-156.2225,40.4693,-213.6297,-27.0074,95.5944,43.0578,-271.3941,-20.6179,-144.9807
-212.0997,-37.6105,-204.6455,-127.8581,-281.4160,-105.6396,-214.0308,-5.2292,-234.9577,-29.0123,-201.6223,-41.1856,-228.3250,-28.8658,37.8105,19.3743,-253.3580,10.5527,-79.9483
-244.2625,-128.4333,-203.3257,-113.2088,-258.3725,-72.0280,-215.2008,-27.6303,-198.9009,-10.5386,-230.3665,-109.8784,-231.8960,15.7163,-9.6572,20.5463,-253.5373,1.3804,-43.7379
-240.7507,-292.3452,-219.2626,-169.4875,-248.1927,-103.4346,-200.7220,-27.3630,-166.1408,28.3864,-180.8592,-145.5799,-207.7977,-8.2545,0.6864,58.1148,-223.1825,-68.0740,-31.8233
-193.1810,-302.5992,-227.0366,-279.1159,-241.4972,-182.3800,-151.9695,7.6424,-138.7521,36.3318,-119.8377,-131.2874,-162.7587,-99.4155,54.1499,56.5507,-181.0655,-130.5898,-19.7194
-188.0602,-300.4051,-190.2419,-331.6841,-196.9415,-226.5345,-113.3890,-2.2039,-110.4645,-0.6516,-132.1629,-136.9841,-132.5738,-152.3194,98.3215,2.8304,-197.9485,-158.1294,-39.5215
-231.4356,-378.7840,-166.7193,-343.6156,-203.2503,-254.3129,-104.5703,-56.5877,-99.1120,-53.2052,-171.7243,-185.7917,-157.1912,-182.6228,88.3905,-22.7856,-246.5087,-200.9109,-80.1685
-258.1458,-352.3089,-207.2244,-391.7076,-296.2513,-330.2431,-112.7971,-67.8666,-121.0087,-71.0976,-157.6764,-185.4090,-204.4372,-250.3933,43.8538,-10.7880,-265.4977,-274.8860,-95.7794
-244.4424,-207.7933,-254.8137,-413.2417,-328.8083,-388.7003,-121.4351,-42.8652,-140.3831,-38.6975,-119.8756,-115.6192,-202.2483,-287.1345,33.8938,-16.5119,-249.1367,-319.7475,-105.2190
-204.9194,-165.5776,-257.3125,-350.7378,-266.3423,-339.8948,-121.0622,-51.0286,-124.3525,-14.9462,-121.0243,-85.9588,-161.7120,-246.2166,49.9029,-20.3606,-221.4827,-299.8873,-120.6324
-187.2082,-268.8723,-246.0918,-301.5850,-252.8953,-257.9509,-112.5972,-69.6942,-92.7342,-36.1461,-150.6246,-146.5778,-151.3189,-206.7527,16.9944,6.1202,-235.5647,-263.6899,-102.8666
-238.9851,-366.1276,-257.4230,-324.6991,-298.1775,-247.3851,-76.5104,-47.3660,-51.4015,-38.5319,-189.6020,-214.0919,-173.2096,-197.6701,-35.3342,11.3805,-303.8847,-271.2565,-64.1287
-304.4397,-361.1194,-287.7395,-346.0673,-298.6777,-271.0448,14.4057,-4.6969,24.8384,26.5498,-237.0813,-200.7945,-186.9888,-181.6383,-23.6296,-7.1872,-326.0271,-310.7916,-45.9495
-289.5772,-270.7981,-311.8770,-324.3836,-275.1761,-268.6843,110.3893,33.2161,104.3017,101.7197,-242.0220,-129.5411,-200.6508,-195.3737,14.3662,17.7215,-257.9386,-317.3939,-36.2782
-221.6742,-201.5537,-291.9655,-280.6827,-268.0582,-259.9606,119.2857,65.7875,114.2171,118.9909,-171.8855,-108.8716,-225.9115,-254.5023,20.0444,51.6257,-201.6178,-260.0706,-28.0478
-171.8703,-232.1467,-211.0179,-212.7688,-214.6168,-244.3734,58.5727,73.9426,66.6081,90.8731,-103.6150,-173.7396,-210.4622,-262.7458,27.4401,14.0696,-178.2635,-174.3969,-29.3259
-124.0679,-257.2975,-94.5711,-130.1430,-99.5975,-183.6129,37.8179,63.4587,47.2131,71.4054,-93.1087,-208.3603,-118.1290,-194.0677,25.5399,-33.5728,-95.4943,-107.9626,-10.4337
-55.9661,-154.3484,15.2211,-71.9031,5.6024,-105.7544,82.4848,69.6375,73.0211,80.1083,-75.6007,-141.2741,-17.2871,-145.7270,-26.9284,-7.3147,20.3337,-82.8040,18.3143
10.7516,-17.5252,70.1816,-50.5278,64.9384,-81.3387,117.0616,76.0994,84.2310,89.3830,-9.7332,-87.2918,12.8112,-143.7311,-46.6171,27.2544,80.5122,-104.7762,-0.2998
77.6118,8.5683,49.2758,-62.4791,83.3924,-111.3361,110.1469,56.4909,69.5336,80.7522,47.0301,-136.9868,11.0042,-134.8931,16.4611,4.3470,115.6941,-144.7407,-34.7107
131.0186,-67.3748,14.6872,-103.8841,75.2976,-133.4055,97.9159,42.3994,64.6609,60.3814,64.7065,-192.8764,56.1424,-130.4176,41.4437,-21.8720,153.2908,-145.5586,-27.1574
119.0151,-161.1087,33.9536,-145.1947,68.4242,-117.4172,76.9168,28.7344,46.5553,6.7471,76.5202,-155.2210,118.7473,-154.7960,-10.7390,-25.2555,136.2292,-111.0819,-36.0503
66.2856,-183.2700,62.7100,-161.4943,58.3545,-94.6663,3.2369,-44.6132,-28.8637,-94.7229,91.5478,-76.6056,121.5749,-168.2929,-19.1674,-51.3404,76.1587,-107.9205,-112.2638
53.1791,-100.5441,31.2942,-158.3865,18.1583,-93.8203,-100.2742,-147.6663,-120.6739,-177.2611,97.9303,-53.8453,79.4752,-160.3937,29.0037,-87.7993,45.8772,-141.7259,-193.5142
71.2355,-32.3937,-29.6980,-138.0026,-27.8144,-96.6339,-153.3279,-189.7162,-164.0947,-184.5858,104.8811,-96.7666,53.5241,-169.7425,33.4580,-93.6547,51.0143,-154.1197,-239.5012
70.1603,-70.3348,-57.8698,-101.9435,-35.0732,-81.1279,-144.2392,-184.5014,-171.2433,-166.7618,110.2941,-123.6211,49.6198,-186.5047,-11.9829,-102.0757,68.3648,-131.1093,-266.5471
63.4445,-87.8764,-42.6223,-66.4329,-1.5580,-58.6150,-135.9977,-197.1151,-174.4122,-174.2599,91.9046,-79.6099,43.1322,-177.6784,-48.7743,-144.0762,83.1516,-80.0785,-256.8520
62.2422,0.6777,1.0863,-36.4187,51.3669,-39.0451,-145.4179,-211.5167,-163.9086,-187.7614,57.1674,-45.2827,9.6923,-159.1791,-42.5535,-176.9913,60.9061,22.9537,-212.9863
42.8417,65.1765,40.1402,-11.3154,91.3645,-14.0294,-132.2966,-198.1668,-137.8636,-199.9974,42.2471,-87.8733,-71.7365,-150.6936,12.9664,-174.8355,12.2645,152.1197,-193.2525
19.5191,44.2759,40.2403,10.4455,89.6158,18.1825,-98.6028,-186.2419,-117.7200,-217.8754,52.9827,-92.2056,-161.3234,-147.7236,43.2351,-167.3247,-5.5363,232.2348,-200.3118
17.7976,40.7734,30.8282,60.7488,67.3136,61.1081,-80.0630,-183.4739,-101.7997,-214.1570,58.6648,7.4315,-186.0102,-148.6119,-20.5409,-164.0373,8.0362,271.5472,-180.2877
26.5638,81.0797,65.2781,150.4457,68.4576,125.1010,-60.4618,-151.7846,-69.1525,-177.8480,55.1927,48.7226,-167.6572,-123.0054,-74.8360,-147.3050,33.8456,332.5690,-124.0711
51.2408,105.7707,127.4756,217.4954,105.8152,187.9384,-4.5014,-87.6393,-13.7180,-125.2460,70.1839,-21.7383,-173.9185,-36.7723,-15.6425,-117.9525,88.9373,395.0146,-55.7745
106.6905,109.3746,176.1723,221.5788,176.8716,202.8353,57.8750,-26.4115,43.5980,-52.9401,90.1925,-11.9867,-168.4473,40.0950,50.2162,-75.9425,143.7082,398.9019,7.2359
159.5271,107.3583,213.8724,196.8649,255.6956,161.7473,77.3887,20.8852,64.8267,26.9343,84.8091,93.5762,-97.1143,12.0807,17.2167,-12.7627,153.4993,346.2548,44.5352
181.1907,109.2795,239.3864,163.7175,282.2192,106.3749,71.7210,69.0018,46.3578,77.8746,101.6253,80.2300,-26.4448,-58.6518,-36.4912,42.9997,161.5639,268.0486,62.7585
187.6363,123.5945,224.7694,116.4022,243.9594,79.9434,83.4452,114.9327,38.8158,100.9099,184.1800,-31.7826,-24.0275,-47.8965,-32.6529,49.0209,192.0683,190.6587,96.8916
181.8392,108.6002,175.4134,74.2225,194.4571,84.0242,102.8158,132.2506,61.9041,103.3133,249.5257,-11.9739,-49.9269,20.2952,-6.6564,20.3826,183.0591,150.6167,139.4209
161.2155,52.0219,137.0198,45.9581,162.1127,82.8104,102.3268,108.5483,73.2561,68.8322,230.3478,124.8890,-77.3503,53.0672,-7.8552,4.3089,134.6975,155.3737,149.5640
154.4789,38.4279,139.0785,28.0142,150.6126,69.1082,98.4972,71.8099,71.9428,34.9439,198.7068,172.4135,-135.3965,54.6750,-37.1790,11.4917,112.7989,167.2650,129.1472
165.1541,80.9132,166.3647,45.5532,178.3712,85.3446,125.0122,66.5669,112.7484,65.9132,184.4829,112.1408,-194.8589,66.8643,-45.3513,29.5541,115.3957,159.2349,111.5299
165.0102,93.4097,179.1457,87.2320,222.4747,128.3803,179.5285,104.1300,186.6061,138.6143,121.1583,83.7608,-197.4632,88.5803,-3.5692,56.3640,122.0951,128.2750,103.6285
160.4115,91.2177,157.1497,83.8354,223.0046,125.8076,221.8206,145.1696,215.5939,184.1821,64.3658,127.3266,-173.2551,114.8437,14.3414,83.8356,143.1779,79.0646,84.6526
155.5594,134.0047,115.1158,25.7432,174.7734,63.9325,208.0269,141.8061,173.3277,178.1857,121.7841,164.8758,-176.7120,128.1856,-35.0914,92.6830,138.6942,34.9191,46.4143
117.7364,157.5026,71.9021,-28.5447,119.9831,13.5547,139.9746,100.6245,112.3033,130.6977,183.3199,140.8100,-182.4923,96.4274,-54.8415,71.9478,83.6860,14.6070,17.5618
63.3127,111.5001,34.5144,-56.9182,81.2315,5.7419,79.7225,77.4207,84.0232,85.4818,102.5703,94.9168,-158.3774,60.2175,-8.2149,33.2376,54.4858,8.2146,27.9029
50.3318,62.7852,6.2354,-71.0598,51.9147,12.9767,76.7760,95.4849,88.8930,90.6445,4.2223,103.2350,-134.2416,91.7447,7.9939,23.8886,81.0777,7.7840,63.4278
66.6922,46.1765,-14.9229,-77.1678,16.5160,22.5307,103.0996,115.0812,94.8674,108.4922,42.3796,149.5710,-118.4928,152.6953,-20.0801,79.0124,92.4841,4.5744,95.2958
70.9693,39.5688,-20.7938,-82.3986,-7.1202,26.7392,101.8335,96.2369,78.9898,69.5558,101.4132,130.7502,-68.7489,161.9918,-32.9116,129.2125,91.4093,-18.6422,108.6278
88.2526,48.9804,9.1243,-69.2302,29.2582,7.8733,60.8351,37.0724,44.4604,-3.8994,55.2386,32.7562,-1.8083,134.7186,-42.5896,73.3656,145.0935,-31.5802,84.8049
139.1697,73.6311,50.8862,-20.9338,99.5423,-27.1895,12.8114,-39.4460,13.5103,-53.3582,15.9808,-15.6958,0.4477,101.4929,-35.6173,-36.5786,212.8749,2.7564,40.2323
173.9817,95.8838,45.8636,10.0933,110.8475,-61.3818,-0.6560,-87.8500,15.3005,-62.9502,77.0246,57.4540,-59.3946,40.9131,27.5264,-59.2488,203.7879,21.4204,41.4428
157.3829,94.5605,5.2521,-16.8057,61.4857,-87.5745,25.8673,-70.0098,48.0195,-23.9424,126.1891,125.6342,-79.9018,-13.2506,61.6183,8.4805,142.8416,-36.5574,84.8657
124.9249,20.2530,-7.3402,-49.5636,22.3924,-92.6045,41.2650,-5.6980,60.1148,46.5370,88.4050,44.0852,-30.8365,0.7930,9.9334,65.8625,131.2457,-101.1857,87.4838
125.4069,-82.2765,2.1262,-55.6237,-5.7754,-88.7437,6.3306,60.5251,25.6689,91.8360,55.8508,-105.9934,9.7685,28.9761,-17.5304,92.0874,192.1149,-118.4264,58.7620
152.2767,-59.0774,-15.9920,-66.6890,-42.5849,-112.0458,-47.2714,114.6113,-11.8209,110.8350,68.4464,-133.8814,4.1851,-4.4721,9.2959,118.5697,233.3190,-143.2738,77.1357
148.6249,44.1287,-47.7222,-70.0607,-48.7171,-131.8481,-83.6824,143.2370,-29.1508,142.8499,48.2205,-44.2085,-4.8037,-39.7675,-13.9776,135.5617,191.0572,-168.8664,103.3743
108.6818,30.0626,-42.2925,-28.6046,-4.4364,-85.5752,-115.7336,125.9438,-56.6449,165.4704,5.7630,3.4357,7.5340,-7.6497,-78.4761,132.7055,158.4457,-120.2973,54.3192
120.3459,-3.8772,9.9952,35.0956,68.1097,-13.7476,-150.0748,91.8274,-95.0798,158.4550,38.0050,-23.7862,33.1715,29.6030,-116.5744,117.8372,233.9378,-36.4256,-17.0732
209.5850,142.5176,75.3670,88.8329,146.9269,2.7973,-168.7174,89.8994,-117.4039,164.4170,122.5216,-32.1512,76.2251,7.5556,-148.7195,92.3638,319.0011,2.3619,-15.9701
260.7437,268.4800,107.3817,118.5088,182.2534,-13.7783,-162.3868,103.9512,-118.1601,180.3301,163.8919,8.0254,126.8952,-27.1361,-140.3659,74.2082,285.6929,26.4923,44.0795
214.5499,149.5816,90.3308,102.0056,140.7506,-3.5521,-119.4135,81.9740,-80.7446,145.9712,168.5371,61.1449,156.0855,-18.3302,-30.3754,61.4279,210.9418,65.0723,101.3900
163.1656,30.1313,57.9425,63.6689,77.7142,29.5366,-44.2023,19.9095,-3.5467,63.4092,171.0419,97.3397,172.5086,16.1566,55.4399,1.5732,210.7432,74.3397,127.9783
158.9869,121.6900,34.9133,59.4629,41.6631,62.4907,4.5203,-41.2839,42.1794,-9.3365,144.8820,91.0113,201.7272,36.2338,-16.1378,-84.1910,236.9344,60.9661,118.5839
153.4304,200.9466,13.3982,70.3016,21.8915,78.4324,-2.2691,-67.7878,28.1565,-35.8423,109.5586,65.5907,221.6950,33.6904,-124.6437,-89.2312,218.7684,66.5318,88.0429
138.7559,115.2388,10.0617,52.7861,40.1434,51.3939,1.4942,-57.5913,38.0031,-11.5158,112.4190,75.8915,210.2375,32.5885,-110.3537,-21.7692,185.2656,70.5041,60.6496
136.1584,28.2725,48.5287,33.1889,110.9892,2.6728,55.1322,-30.8262,94.0077,29.3913,107.6161,84.9589,209.9641,61.3027,-22.3899,8.4404,164.8621,66.3628,34.0601
121.3153,27.8522,100.0941,34.8002,173.3762,-1.6872,98.2413,-8.4321,111.0555,33.3396,75.4396,37.5083,257.7937,116.7039,31.3308,0.0037,151.0887,96.2431,-12.4305
105.0596,59.6628,134.8905,44.9303,203.4118,45.2891,89.3829,-8.4221,79.0366,-5.1821,104.5572,16.0196,309.7988,167.3681,62.0188,8.5587,150.9391,145.0764,-82.8980
131.9945,130.2403,167.2915,78.9646,231.8120,93.1761,62.0119,-34.8435,61.1479,-50.0700,177.0076,90.9193,315.6574,188.4728,117.8939,3.8307,159.0976,167.1252,-150.5799
158.1322,205.4693,195.9539,132.6395,231.6245,123.3302,36.6760,-51.9899,43.2383,-76.6152,154.8852,161.5522,301.4733,169.0441,158.4909,-22.7428,154.4396,175.0334,-180.1180
122.8328,187.8776,188.3827,149.2137,181.7425,138.3109,-10.0039,-31.1916,-21.0355,-75.9257,68.2991,153.2587,302.8344,114.3248,120.8479,-10.7993,142.4188,169.8557,-181.2390
86.8353,128.9889,137.3919,126.0354,133.0067,116.4401,-90.1794,-15.0106,-108.0779,-56.4417,73.3496,144.2176,292.1421,64.5368,67.6242,20.3936,138.5728,109.9450,-190.1543
116.0648,145.9558,72.7543,112.1317,101.1155,52.8096,-173.7500,-36.8856,-173.5219,-33.9152,144.0329,163.8670,249.7529,61.5061,100.9631,7.0644,147.1189,18.6687,-178.4245
150.6844,189.7618,38.6043,100.8054,74.7889,-3.6485,-213.8085,-42.4353,-204.3425,-4.5537,135.2429,129.6021,216.9731,86.0248,151.9433,-15.8694,169.0902,-26.3747,-95.1610
133.9229,160.1118,56.7249,74.4603,86.3808,-0.7029,-203.6392,-7.3353,-208.4349,13.9085,53.9163,48.1450,207.8160,87.8803,90.6845,-3.9288,192.9092,-10.0625,8.7727
124.6795,99.8118,90.6836,80.1243,117.0291,54.3233,-177.1848,-6.9028,-199.5979,-23.4214,16.0866,38.0662,184.9947,71.8522,-34.9064,-4.7165,215.8468,30.0380,52.8435
177.3038,114.4617,107.0143,147.7876,113.3638,114.5490,-135.6729,-70.2898,-161.3737,-95.4431,52.2528,116.5066,171.0515,83.1242,-108.5836,-50.9517,256.2765,75.3472,60.5934
237.6771,220.0990,140.3863,228.9077,126.2914,165.1269,-59.5841,-131.4161,-75.3254,-151.2300,101.2199,158.2146,226.4733,117.4700,-118.7202,-103.1835,292.6036,125.2727,71.0530
244.8801,326.3275,204.6269,276.6446,197.9216,224.0301,2.5236,-171.0698,-9.3771,-219.1422,122.7027,121.5082,307.6128,124.7268,-78.2000,-135.8805,295.7189,182.0275,34.6490
239.6416,347.4435,243.2101,313.0581,250.9865,277.5342,-18.6612,-237.7435,-44.6316,-313.3421,150.1369,135.7380,329.2139,96.1680,-10.0055,-171.9913,316.8052,240.2854,-85.2359
274.7311,328.5799,243.3392,367.7924,260.7039,288.5882,-102.5747,-332.6519,-136.4839,-361.4987,217.9441,248.5459,322.6302,66.5866,5.8324,-236.5546,368.7581,270.6491,-232.4859
300.5070,365.5071,248.2584,393.1451,283.0551,256.0982,-181.4596,-403.5868,-196.2876,-348.3834,269.6036,297.2339,352.2567,37.7942,-23.4566,-301.7411,347.0562,256.5992,-334.2891
262.5844,407.2825,254.3341,337.2456,299.7713,202.3997,-226.0655,-420.6410,-219.9938,-329.4465,236.1276,203.1414,380.9854,-13.6031,-3.9065,-290.9500,249.4707,229.3101,-369.5879
213.9637,338.9040,243.6385,267.7847,283.2686,145.3631,-235.6724,-399.1487,-231.5105,-306.9215,163.7579,119.7706,365.6843,-69.2339,27.3383,-200.0234,209.4202,211.7441,-366.2878
196.0611,219.9606,230.4795,254.9130,259.7569,107.1015,-225.5222,-378.1899,-226.8257,-294.3711,134.5943,124.4904,339.7235,-90.8741,-18.0484,-147.1419,208.4350,179.9262,-359.9763
154.1091,190.0886,192.5714,218.6505,196.6178,84.8996,-215.2242,-375.1859,-206.1852,-346.4637,141.8634,111.8621,316.4200,-74.7978,-75.6616,-191.3505,126.8324,123.1153,-337.9657
84.6647,213.0536,110.7234,111.3668,85.5125,48.9207,-184.9701,-362.2974,-165.4231,-401.3796,146.8452,77.1045,268.4588,-33.8763,-68.4199,-230.1759,37.7386,76.5063,-263.6133
67.7096,166.6245,52.7200,56.3093,42.2915,16.2507,-113.5769,-315.2829,-102.8339,-346.1658,140.9966,114.8096,214.1979,9.9701,-28.7115,-184.7920,52.4280,63.7438,-160.7798
94.7801,91.8315,53.0859,95.9843,83.6321,25.7896,-45.7840,-245.4514,-55.4649,-227.1862,113.2734,167.9581,194.0578,14.6898,21.4061,-122.3775,78.9460,65.2208,-86.8078
89.3359,112.4827,43.2975,102.7855,80.7048,45.6707,-23.1651,-164.5642,-41.1055,-146.6279,71.9042,129.0339,207.1489,-10.3608,54.5392,-118.0998,45.1517,64.1323,-36.1903
64.8170,182.4431,8.9573,52.2652,35.8315,40.7843,-11.8685,-77.1158,-21.8548,-92.8957,59.3574,55.4052,235.5223,14.8179,4.3283,-142.9310,25.3611,73.4726,36.2664
61.4988,151.8315,10.4476,38.4881,45.3575,51.0315,23.4485,1.0494,14.4986,-38.3597,74.9362,54.2827,259.6331,94.1948,-74.4153,-135.9151,17.2189,94.2591,128.0270
48.6903,53.0559,34.6663,54.4780,70.3948,87.5868,67.5606,55.5014,46.8914,-9.1891,75.7913,122.8136,260.2175,121.7403,-59.3522,-100.7543,-25.0233,101.9356,199.3968
19.4183,57.6843,33.6541,57.6339,53.6727,103.3221,113.8824,77.2268,92.5461,-8.9555,59.6688,174.4307,256.9012,71.2704,15.2550,-86.5218,-23.3887,105.0788,245.4062
11.4337,142.6179,32.6144,80.0701,46.3330,108.2822,186.3786,67.2034,176.6620,-13.3627,45.7927,122.5697,275.8438,39.0053,59.3598,-91.6780,39.8886,137.1362,298.1664
7.0506,122.4380,54.9880,106.9220,66.1595,127.8182,285.2202,59.2173,276.1149,2.7000,27.6740,4.6229,286.5318,58.9232,79.5089,-65.0955,41.2572,158.0733,352.8595
-22.8830,30.0304,68.2769,80.2026,78.1525,107.3977,359.0453,78.7408,343.1200,54.3191,14.6646,-24.0425,271.6505,72.5847,63.0153,-19.0682,-20.4406,90.2707,354.7236
-46.4544,57.8746,55.0453,24.3476,85.9994,30.5504,356.2794,97.5555,340.1186,103.0657,30.0246,52.5384,275.5563,63.2142,-6.3506,-8.4422,-39.7526,-24.5918,299.1378
-52.3114,136.4031,18.8218,-20.7830,74.0594,-20.9789,300.0128,100.3100,281.7877,111.3732,43.4887,76.6325,287.5205,41.2389,-32.1312,0.2518,-46.3439,-71.3745,259.3238
-73.1932,55.5191,-43.3280,-62.2317,11.5672,-29.3587,260.5074,113.9357,242.7936,121.9907,5.4074,22.2255,228.7927,-21.6794,19.2290,59.0067,-94.8288,-60.8540,264.5916
-104.2834,-85.0300,-111.9847,-90.1693,-63.4010,-61.4180,247.7430,128.0516,247.3423,150.3744,-65.6064,-6.9694,113.8046,-104.7584,25.7784,102.6028,-120.3782,-94.7157,262.5257
-128.9073,-66.2347,-169.5323,-114.6131,-131.0094,-111.2213,216.7793,113.1267,227.8689,135.4641,-115.6942,-39.0591,40.2353,-116.1661,-36.8377,69.3954,-110.8408,-170.9202,230.3961
-163.0985,9.0419,-235.2360,-176.1260,-230.9600,-118.5909,160.4208,97.7553,159.4663,94.7042,-137.8483,-124.3649,19.4101,-54.3046,-58.7966,25.3908,-136.2813,-208.4858,202.1084
-195.2056,-45.3524,-300.9686,-230.7016,-321.1762,-91.7127,101.0193,105.0972,95.3702,111.0485,-148.8553,-157.9138,-6.5816,-31.6949,-39.2739,31.7931,-182.5881,-196.3603,196.6475
-195.2619,-134.4041,-312.3589,-209.8876,-307.8706,-71.4248,51.9333,104.9779,62.1559,164.5899,-140.9850,-98.9517,-34.0777,-83.6470,-59.8885,58.9241,-207.6333,-167.1152,213.5943
-189.2903,-140.7840,-258.7351,-154.6904,-217.5569,-58.5350,45.3225,97.7421,63.1695,183.7155,-130.2162,-74.7732,-29.3464,-123.1607,-111.4545,78.6062,-225.8833,-114.6405,243.6565
-205.5416,-140.2524,-190.7857,-114.0683,-147.6354,-39.0645,98.8752,111.5504,111.2525,167.1974,-169.1249,-128.6580,-10.2438,-107.9085,-151.6818,86.4788,-214.6059,-43.1065,254.6149
-208.6260,-142.8306,-143.4128,-73.8993,-118.6071,-10.0909,164.1348,131.2809,171.7044,143.1729,-232.9110,-164.0603,-1.5909,-82.1498,-171.8312,74.5015,-159.3039,-1.4829,244.6913
-175.4374,-73.0958,-106.2567,-55.5513,-93.3430,19.9161,201.1779,146.6475,196.7392,133.4481,-224.1497,-129.7216,12.0069,-53.4290,-138.3518,67.6754,-143.0671,-5.1952,259.4649
-139.5980,-24.1986,-58.0495,-69.6448,-58.5065,37.8106,224.7165,173.3587,207.7382,143.0037,-156.7082,-56.1886,40.9510,11.6837,-33.7429,91.4319,-179.5218,-5.2629,291.1463
-118.2112,-96.3399,-3.5358,-47.4691,-34.1885,57.2183,237.0625,179.4830,228.5952,126.9767,-139.4993,-3.8206,56.9495,81.9667,79.2358,110.4996,-158.1718,29.5375,275.3130
-89.9227,-151.7358,29.3833,16.6761,-30.5667,96.1181,231.9326,136.7537,234.6165,80.1197,-156.6526,-19.5203,36.5953,85.5799,141.3540,100.0403,-74.7256,65.8068,216.5059
-50.2493,-81.3567,38.3004,45.2020,-17.1102,115.1550,231.9348,106.6357,226.6512,84.4722,-112.2876,-57.8922,15.3341,19.2782,159.4261,94.6852,-41.3652,68.4413,182.4456
-20.7099,-20.8675,51.8689,39.2862,23.3913,79.0351,236.4907,137.2572,230.2909,145.8811,-40.1132,-53.5956,46.6553,-44.1743,155.5760,111.1468,-67.7395,54.6812,185.3900
-9.6528,-72.5899,68.3263,40.7598,50.5074,43.5030,224.5491,177.6687,238.0512,176.0921,-13.3456,-59.6081,96.9907,-31.8260,149.6768,129.7590,-78.1309,45.0103,181.4509
-2.6210,-134.7805,55.9950,23.1145,39.3010,56.2488,209.1404,176.0160,233.9678,166.2358,5.6686,-111.3166,74.1006,47.2591,162.5041,142.9790,-62.8143,15.7712,148.5496
3.5556,-110.8888,17.9571,-18.9091,10.1399,62.5076,185.2440,142.1601,205.3598,142.1822,29.4974,-102.6172,-8.5433,84.7895,163.8353,138.1073,-56.8899,-34.4192,97.5528
-2.9329,-41.1739,-3.5294,-29.2359,-25.6869,29.7658,122.7183,99.9996,137.1219,68.0680,-1.9218,-5.7473,-32.3151,23.8969,98.4189,95.1458,-48.7937,-39.0904,47.3693
8.3730,-5.0414,27.9965,10.3882,-34.5194,24.5376,63.5862,64.8480,63.9634,-22.3713,-41.5681,43.9482,28.9243,-17.7636,12.3194,39.1715,26.6072,20.4173,13.3363
89.7451,6.0797,98.3607,68.3224,29.6416,63.7911,62.2750,39.3086,42.7799,-32.0200,12.9373,12.7754,74.1796,52.5589,21.6803,17.2093,175.1700,39.8558,-3.1528
186.3368,89.9574,121.0328,95.9432,93.3758,60.5737,70.6086,14.3704,56.5407,13.8024,105.9334,17.6483,48.5460,115.4944,108.8755,29.3015,238.1135,-48.5419,-18.1324
169.8396,237.9977,36.8981,54.0078,44.7910,-7.3134,40.6572,4.5149,54.1089,37.4122,106.4422,91.9584,-7.3184,80.5492,124.2158,41.2505,101.4197,-145.4104,-49.6408
62.9161,265.7971,-58.3058,-2.5702,-44.5505,-47.8978,8.1657,28.6255,29.4939,53.7987,14.1094,156.5863,-50.3868,68.8600,42.1140,41.4376,-32.3033,-140.9388,-87.4026
30.1374,138.2353,-39.2306,19.0898,-39.9195,-20.7467,-11.4430,54.7942,-6.2444,72.8135,-65.9420,153.6736,-57.1929,123.4329,6.0216,47.4269,52.5571,-83.6921,-95.5508
95.2783,81.2432,30.1276,65.0778,3.0138,5.0228,-36.8988,45.8173,-38.1318,58.3942,-55.3058,78.0008,-25.4315,86.5483,75.2053,61.1551,165.4274,-73.2875,-76.1995
102.4463,148.3407,2.2228,19.5425,-46.0919,-24.2206,-52.6966,17.8848,-46.4940,25.3130,18.7311,-16.2446,-9.6222,-57.0508,146.0950,51.0478,52.9846,-111.0962,-81.5684
-11.1836,131.3749,-105.6680,-76.3702,-165.7318,-87.6185,-63.3620,-7.5243,-55.7814,-4.8530,36.0862,-49.9130,-51.4619,-120.2865,137.2886,9.6655,-135.6522,-151.1875,-125.2843
-123.8950,33.1828,-167.0314,-118.5825,-240.0780,-139.7110,-99.8641,-35.1427,-89.9895,-51.0943,-49.0203,-34.4898,-90.2271,-65.9449,70.6474,-19.5998,-165.7487,-177.5672,-163.8924
-126.7575,45.2456,-150.5457,-116.2639,-221.1990,-144.1538,-127.5654,-59.6892,-104.1508,-89.0983,-113.5602,-32.7976,-56.8915,-26.8381,6.4743,-14.1938,-108.0012,-184.5469,-177.9298
-60.2027,88.7100,-117.3072,-119.2483,-169.3615,-111.0552,-105.9852,-67.1267,-82.0448,-72.3662,-65.6564,-23.7580,13.6922,-34.3333,1.6644,3.7430,-105.6097,-184.1936,-171.1370
-34.4361,-16.2972,-105.7764,-138.4651,-167.6769,-113.7825,-89.3279,-56.6200,-83.7231,-24.3048,13.5360,15.5399,56.4938,-41.7272,52.0646,16.0391,-138.9560,-213.9798,-133.6216
-71.7828,-138.2926,-106.7666,-173.7638,-200.1277,-178.7535,-136.1680,-39.8953,-124.5139,-4.5079,43.6381,13.1710,62.8601,-57.4456,72.1497,-6.1746,-143.6393,-257.9630,-89.0618
-75.4234,-99.1629,-97.6216,-194.4033,-191.7770,-213.5579,-211.4580,-41.3608,-163.9742,-42.8543,58.1479,-50.1696,53.9631,-70.2267,21.8188,-81.6644,-91.4164,-246.6829,-70.2392
3.6170,-9.7599,-72.3200,-169.8783,-159.9851,-164.2791,-230.6001,-57.7790,-175.6172,-98.8300,76.4893,-85.8361,55.9946,-49.0965,-33.8209,-123.0334,-4.9335,-190.0906,-28.0551
63.1097,-11.3232,-47.9320,-149.2589,-163.8651,-129.0476,-145.4280,-29.4446,-120.0277,-68.8839,63.6744,-65.6899,75.9579,-48.7964,-49.5431,-43.0630,31.9461,-177.8651,74.6562
34.5287,-43.6107,-34.7158,-171.2315,-167.0150,-183.2428,-18.8627,55.6821,-3.4029,50.8632,38.8028,-37.2578,68.6907,-111.6545,-45.4329,56.0137,15.7162,-218.2607,141.3167
22.0236,-12.6214,-21.6459,-175.1136,-121.9996,-243.8727,25.1029,98.9351,54.8713,104.1782,64.0741,-6.4339,17.9190,-160.7586,-29.1334,40.9823,48.0489,-225.2724,90.1750
100.4296,74.4393,-2.4335,-129.6811,-65.0522,-224.2240,-8.4904,43.5296,17.7104,26.6039,125.1037,22.0873,7.5196,-146.3053,-5.7088,-24.6910,123.6913,-172.3817,1.4345
171.8627,141.7633,15.5757,-93.3648,-24.7349,-163.5894,3.1050,-28.0738,17.6300,-52.4300,136.7695,10.9472,77.8617,-130.3712,-4.9499,-41.4364,156.7610,-122.6491,-21.3105
161.6131,116.1371,21.0138,-83.6919,5.8220,-124.9325,73.0295,-31.0884,93.5163,-43.6172,80.5909,-19.5418,124.6869,-140.7397,-21.0782,-38.0523,170.7797,-111.6713,20.6240
128.7326,24.1440,-1.5309,-69.0893,7.8752,-109.4181,120.4120,25.0340,140.4047,22.7632,38.3904,-26.3660,79.0582,-126.7700,-19.3107,-30.0543,182.2820,-108.0074,97.2983
105.3869,-37.2748,-49.9162,-68.5107,-22.4560,-110.6487,148.0515,93.3177,145.8330,98.5681,45.1757,-31.9382,23.5470,-85.5522,-9.8929,8.9677,123.5905,-87.8294,183.0187
66.0507,-45.0833,-82.2218,-95.8168,-49.9429,-136.1553,167.7291,116.6939,148.2057,101.0968,34.2180,-39.2215,28.1835,-70.9392,-19.0168,18.0347,55.7210,-72.5694,203.5913
49.2083,-30.9135,-59.8369,-95.0000,-59.2410,-166.6429,114.8784,47.8494,95.9102,-15.0506,-8.1565,-8.5045,51.8614,-92.8938,-31.3395,-50.8638,89.1594,-79.0329,107.5495
80.9194,4.8842,-5.8894,-50.4267,-49.0448,-174.6238,3.4079,-69.2213,-5.4818,-118.6730,-16.2840,14.9036,51.0711,-120.3459,-33.3036,-110.9466,112.5563,-85.0301,-28.4297
72.3101,36.6078,20.5724,-32.6758,-18.5730,-166.0599,-62.7902,-124.2648,-57.7230,-87.7345,-16.1505,-35.6229,31.5180,-139.7954,-41.4894,-92.7935,10.7404,-70.7104,-87.6896
-18.2191,11.0791,2.7756,-62.9678,-1.6519,-150.5976,-79.5657,-87.5678,-68.0988,-8.9410,-86.2036,-98.6076,-2.9453,-139.9956,-49.5179,-42.9872,-83.7390,-51.0635,-72.2398
-92.3454,-67.4908,-19.6565,-79.2939,-22.4483,-115.3488,-114.5659,-34.8997,-104.2837,19.9030,-167.3632,-110.9718,-52.2888,-102.1750,-35.1888,-13.0261,-88.4378,-42.2847,-63.1267
-103.2039,-169.2692,-16.8237,-72.4570,-55.1490,-74.5762,-151.1245,-19.2174,-131.6940,33.4466,-163.2207,-127.3458,-94.6936,-53.0136,-39.9813,-8.8200,-118.4411,-41.3878,-68.9440
-115.0333,-255.4277,-6.8488,-98.1412,-88.4645,-74.5877,-138.5949,-7.7286,-112.5318,53.3392,-121.9467,-161.2466,-96.6388,-48.5427,-121.9167,-10.5050,-175.8465,-50.2229,-47.4587
-131.6448,-243.6111,-14.9840,-144.0653,-126.8125,-103.5593,-97.6005,37.6475,-93.1391,67.4890,-106.4940,-145.0974,-46.6901,-74.5711,-200.4364,21.7123,-159.8680,-75.5829,-26.2560
-111.9055,-144.2087,-40.8529,-148.1292,-143.8347,-96.0545,-82.8438,83.6395,-100.9170,99.1232,-79.2610,-103.3115,7.7848,-58.7664,-125.2972,71.0590,-145.3259,-113.7217,-44.8080
-110.1023,-104.5319,-77.2006,-129.0459,-141.3772,-55.4200,-109.1808,81.0016,-116.8813,127.6024,-46.2111,-108.8165,2.4468,4.7999,49.5346,57.0724,-220.0989,-154.9161,-44.3555
-168.6661,-143.3923,-113.3290,-141.5574,-155.4543,-38.2159,-122.1946,56.1201,-112.8110,108.4755,-70.7263,-123.8548,-38.6729,53.3319,105.8319,-11.8598,-261.4222,-176.7742,30.4991
-201.7807,-121.0534,-127.7039,-160.9479,-163.9471,-30.6627,-51.0372,62.2909,-48.9525,88.3653,-115.7225,-96.5537,-33.7845,67.6492,16.3301,-40.0328,-192.3825,-155.3395,116.6359
-162.1986,-46.4788,-110.4383,-142.0233,-127.9592,1.5017,69.0742,76.1818,53.2151,104.5597,-100.8048,-69.1238,25.0227,71.6875,-41.7651,-19.6872,-132.7721,-111.5258,135.2759
-119.2461,-35.1307,-61.7897,-96.3990,-72.2858,13.0830,117.2190,48.4191,95.1571,92.8300,-44.7776,-63.9048,89.4697,52.7799,-11.7149,-9.2782,-122.3223,-81.9037,89.4873
-82.3118,-24.2620,22.9251,-39.1679,-18.6643,-15.1571,69.7756,3.8957,59.8645,30.8359,10.3237,-43.0032,143.7325,-3.4953,31.1320,-3.0624,-63.1152,-44.3585,13.0022
-2.2376,77.8231,116.0760,26.6695,41.5475,-2.7115,22.9609,-13.3032,32.2664,-19.9419,72.5597,-8.2837,175.8448,-39.0567,88.8490,11.8471,22.4568,28.3687,-53.9611
60.1311,141.8392,160.3263,72.4614,87.2236,79.1402,25.7413,-18.4870,37.1839,-42.5068,119.3108,14.2329,167.6323,7.9175,168.2986,2.1820,27.2485,85.8500,-63.9153
32.7856,54.1471,149.8111,83.2616,100.1907,143.8814,42.6559,-29.4037,43.2727,-50.2548,108.8276,35.7960,149.0281,86.0872,184.9631,-19.7326,-2.9995,77.9881,-23.5349
-4.3766,-39.9298,124.5466,76.0665,96.8534,133.6383,60.6906,-24.9366,63.7917,-19.4459,69.3634,57.1761,146.3322,88.2617,135.9944,-6.8465,29.6387,41.7909,14.8406
18.3547,7.7968,95.5379,55.6365,83.3882,81.3326,95.9750,-5.4870,100.8716,37.5309,46.2683,54.5139,131.1921,23.4458,130.6560,22.7114,60.9194,35.8699,29.7206
30.2873,89.3728,74.5397,35.9773,75.9869,42.0515,116.3754,-2.1734,100.8473,49.7939,37.1191,44.5331,104.2500,9.0270,175.2776,28.7885,10.7655,63.8448,14.7562
4.3375,56.1196,98.6920,45.2577,96.8683,44.3661,67.0875,-20.1241,41.4880,-7.2079,44.1434,70.6785,100.0927,73.7424,168.8153,23.6621,-26.9384,81.3723,-43.9015
13.8033,-14.5396,140.6955,56.8397,93.6021,60.4754,-24.0261,-44.6171,-29.9786,-84.0361,70.5159,121.1137,99.3967,125.1180,96.9072,25.4223,32.4505,39.2641,-114.1106
45.1692,3.9305,121.2423,33.6096,20.3326,37.5574,-57.6266,-73.9058,-49.7218,-127.4729,74.6352,125.2851,84.2446,123.0127,43.5966,26.9012,86.7161,-51.3183,-145.8141
21.9182,29.2803,42.7069,7.9724,-47.9335,-6.1918,-8.2444,-100.2571,-0.8808,-120.5393,44.6996,52.3803,89.9907,98.3879,53.3419,26.4770,36.4379,-120.1654,-151.5693
-25.0336,-49.8266,-26.4292,-5.4677,-56.8160,-21.0254,39.9645,-105.7046,54.5707,-83.2815,29.9692,-26.1460,96.5098,42.7278,90.9215,20.0222,-54.7570,-142.7796,-158.4779
-41.6262,-145.4699,-64.1345,-46.9672,-66.8258,-36.8247,40.1179,-92.9186,55.2318,-54.2349,23.9985,-39.1891,43.0524,-29.1830,114.5467,-2.2354,-110.5509,-153.2553,-148.4548
-71.8450,-172.8108,-85.9568,-95.2781,-100.8380,-84.7309,34.5809,-76.3894,33.5465,-48.7921,-21.4208,-30.2883,-28.9040,-37.3628,119.3396,-20.5784,-139.5091,-153.9573,-118.8581
-129.3646,-192.4159,-103.7271,-101.7648,-123.2010,-113.4646,35.9339,-57.4306,33.6874,-43.8114,-59.4831,-54.1152,-50.5415,-3.0615,90.3425,-6.9565,-139.3385,-142.6395,-101.1933
-143.1075,-193.4223,-134.6527,-105.2225,-155.3879,-107.9965,16.2497,-36.2992,30.4430,-21.8833,-32.6534,-61.5998,-59.9068,-28.7155,13.2582,27.2130,-100.7803,-157.7686,-90.1258
-110.4029,-116.7392,-171.8065,-134.1209,-204.6937,-111.1786,7.2608,-13.4573,24.3008,-5.5290,-14.8452,-23.7746,-91.1643,-67.4431,-19.6325,55.6794,-69.6701,-182.4715,-50.8766
-94.6125,-72.9228,-177.9835,-131.2507,-210.2224,-93.4894,45.3897,18.5422,52.7906,-13.1963,-63.6352,-7.1938,-96.4685,-14.0714,90.0839,69.9006,-63.5052,-149.9673,1.7051
-85.9536,-118.2213,-154.6491,-83.2932,-175.5702,-20.1430,65.8158,41.1518,68.5335,-18.6124,-94.2130,-25.3008,-74.1044,54.7170,205.8528,59.0020,-37.0640,-88.2788,7.1016
-51.3071,-68.1707,-138.4838,-42.9698,-159.9831,30.1487,1.5825,18.8371,4.4939,-3.0942,-56.7449,-17.2492,-79.1033,39.1104,119.9202,20.6288,1.8273,-68.7986,-48.5572
-31.9893,102.2880,-136.3864,-21.5085,-147.7892,9.8941,-92.5798,-16.3591,-84.8366,14.2222,-20.2630,4.8060,-100.7968,19.5716,-74.5025,1.0386,-1.4036,-63.6975,-101.7890
-55.7326,136.9694,-137.0602,-9.5078,-109.4501,-0.4181,-136.9755,5.6109,-126.6396,33.2197,-13.2795,-17.2951,-95.4923,64.8722,-136.8245,46.1524,-26.6158,-32.7669,-114.5188
-78.8408,-4.1638,-134.9613,-13.8454,-85.8811,40.2846,-148.3089,51.0504,-148.7195,54.5637,-9.5678,-74.4007,-80.3726,97.6874,-70.5984,109.5809,-23.5281,-15.3334,-135.1509
-84.8461,-83.5779,-120.9726,-15.7773,-104.0828,70.7339,-167.0856,26.2943,-173.2929,26.9233,-34.7315,-123.8012,-94.4611,69.3121,-27.3872,97.7402,-23.7147,-19.9271,-174.8779
-106.7534,-44.4016,-108.8114,-9.3622,-137.8168,60.2053,-169.8909,-35.2642,-161.4229,-46.3350,-98.4422,-132.4114,-136.8985,21.5423,-39.6989,14.9618,-72.3126,7.1344,-148.7683
-140.6316,-19.2942,-120.0506,-23.6734,-157.3390,39.7738,-143.5592,-24.2749,-124.2835,-59.5815,-137.6371,-84.6662,-170.2996,-16.3536,-77.7352,-35.7921,-127.9822,73.6483,-56.6361
-146.5038,-24.5459,-116.9407,-34.2547,-130.3799,42.7557,-142.8152,33.9340,-129.6126,0.1886,-125.3318,-28.5232,-152.4166,-27.9476,-132.2818,-18.5693,-133.1496,142.6256,-33.1825
-113.7074,2.9324,-54.9666,5.6090,-44.5111,86.7268,-190.8216,25.6043,-185.7231,13.1656,-90.6083,-11.9488,-90.2143,0.1786,-166.1033,-15.9765,-106.9793,195.7211,-104.1982
-65.2454,61.9646,31.0673,61.7602,55.3354,150.7697,-228.1049,-46.7091,-231.4227,-44.9479,-42.5247,7.8551,-35.3535,44.6567,-164.6256,-75.7389,-88.1713,227.4395,-127.0662
-23.2690,117.6230,102.9958,98.7066,137.0532,199.6996,-216.2395,-89.4541,-222.3779,-85.6483,4.6495,41.3260,6.1102,96.5738,-166.6084,-130.2326,-49.4437,249.5751,-40.5747
13.4183,132.4613,180.1150,148.1829,224.3057,251.8995,-174.4168,-77.8889,-169.3165,-90.8335,18.9333,13.0507,68.2320,162.8121,-170.1535,-121.1192,38.9427,286.1479,64.3180
59.4728,103.9564,252.0858,202.4673,306.5310,317.5047,-110.2055,-50.0101,-111.4523,-85.0441,19.8069,-43.4668,126.4959,185.2750,-141.9502,-82.2205,109.6235,317.1922,123.2198
102.2116,85.9298,273.0922,207.7721,323.8428,333.6009,-35.5530,-15.5803,-66.8921,-47.1805,53.5813,-18.1600,134.6575,130.3730,-82.4097,-51.5774,82.0967,302.9752,154.9488
106.4429,78.2317,256.0464,174.3925,278.5062,288.6181,14.4523,35.3889,-11.9746,16.4581,110.5172,23.9819,122.8683,96.5385,7.5939,-15.1430,5.5575,257.2531,189.1689
78.7278,27.6526,247.7265,144.6725,246.3279,258.2699,60.9779,92.0185,68.5192,70.9623,143.9683,-36.8120,137.4634,142.4276,102.9234,30.7559,-14.0231,215.4456,238.4805
69.3402,-15.3870,258.9217,121.9382,265.5303,237.7265,136.7191,138.3530,133.3695,124.4651,141.8970,-114.1337,157.4203,165.2561,117.8674,58.0961,26.9154,189.6581,277.8938
102.5614,29.4883,284.9055,114.1799,302.8118,163.5812,166.1990,174.5299,135.1756,176.8509,152.4310,-94.6636,154.5924,106.2061,42.5573,60.4641,68.0330,192.5365,265.1644
155.5432,92.0717,311.0882,142.0620,324.9538,97.2804,95.4486,208.8895,92.9497,207.0650,209.6819,-60.7427,142.3674,57.2633,-8.8854,64.6158,91.1814,216.9503,227.8062
184.4480,74.5530,298.9042,185.3104,322.5249,126.6360,32.0122,246.8642,57.0738,241.0100,227.4682,-102.5830,119.8422,61.2627,15.2719,98.4455,89.1087,214.6978,221.4767
156.5325,24.4017,236.9075,198.9701,270.8220,171.8667,45.6161,282.4036,30.3329,286.0110,121.6845,-163.7198,62.4504,38.3162,52.6414,164.6063,50.1612,171.7347,204.1917
101.1396,20.0201,159.2178,165.7034,165.2655,126.8110,39.7205,288.0856,-10.2010,278.2831,25.3039,-186.5850,-12.3209,-33.2054,61.1263,218.3763,19.7898,132.2389,112.0178
88.0417,34.0593,98.6595,116.2178,82.0094,50.1232,-24.2043,235.5523,-43.4285,205.1434,91.1293,-189.0221,-48.0965,-65.3100,31.6879,201.7031,42.1136,114.9863,2.2636
116.4205,10.4950,83.6961,105.3530,92.6793,43.0079,-47.6396,152.3035,-31.9946,140.2161,186.0414,-180.8545,-26.8306,-17.4467,-39.9400,134.5583,67.7193,104.7151,-37.8470
129.6381,-20.6020,129.3656,140.8996,160.1130,96.4521,-7.3860,117.9385,4.5148,126.5588,151.8609,-149.2812,13.9222,49.3730,-94.2353,102.9402,56.9664,117.1222,-26.9370
145.2943,14.6826,188.3766,181.5321,216.0727,156.4725,14.5586,151.0795,15.1218,139.3394,121.3373,-96.3598,41.1391,87.1394,-65.0325,127.3684,78.3766,172.1466,-17.9946
211.1716,101.2436,200.8512,220.8331,246.8209,200.7728,-4.3077,163.5421,-2.6112,128.0242,210.9024,-32.9236,52.7236,112.9647,0.5917,138.3940,165.2976,224.0292,-11.9055
269.5727,155.2042,177.8059,261.0403,239.4567,217.4476,-14.6762,100.3490,-3.8801,69.0335,274.7391,34.4762,50.0613,144.9619,19.4582,99.0227,217.1003,204.0468,-4.6515
245.4426,170.7927,147.2033,248.6416,179.8423,203.0803,17.1018,30.4049,35.6994,11.7035,222.6454,101.1835,38.7141,176.4229,0.1606,52.4741,175.2807,127.7491,-8.0008
186.0498,179.6957,103.5153,178.0135,112.9489,174.1391,78.7728,18.5351,89.0169,-1.9890,160.3824,151.4004,39.6608,197.5022,-3.9603,39.1698,129.4738,83.8285,-10.5108
156.2537,145.4689,71.5664,133.3093,88.2964,140.1085,112.9988,30.2187,111.1312,-18.9031,138.8063,163.3999,55.7037,184.7731,16.5983,43.9096,136.8238,101.6107,0.5056
123.4544,84.4042,89.6938,130.2564,102.7054,101.0264,79.1943,26.7593,89.7342,-53.1062,130.0126,149.4864,63.2129,125.1834,29.7645,37.0455,121.6103,122.2725,4.3077
59.9500,74.1663,116.1749,112.6459,139.5574,74.3458,22.8963,18.7430,54.9093,-43.7182,138.8602,133.9846,54.0880,68.4884,10.0133,21.7979,44.6088,122.3839,-14.9902
12.8956,52.5278,91.2315,100.8034,168.8529,75.2883,7.0515,-2.0753,42.6120,-17.4911,121.3718,86.0207,34.9631,60.3027,-11.8403,14.4787,-14.4948,136.9098,-36.9570
5.2620,-40.5685,51.6070,123.1125,155.4768,80.0601,22.3401,-56.3784,57.4490,-52.9236,29.7309,-9.6716,5.9365,58.8807,19.7054,2.9634,-8.7058,152.6778,-42.5133
-1.5462,-51.6176,59.3102,117.3573,129.6393,58.5404,27.0104,-118.3526,68.8293,-117.5117,-37.1848,-61.8703,-15.2412,30.3182,75.3643,-26.0350,11.0191,130.2406,-44.3099
-21.2303,48.0688,90.7873,68.6638,130.5945,30.7927,8.3368,-154.6538,51.5848,-162.6381,7.1129,-17.6463,-5.9552,24.0800,64.5572,-46.2798,7.5639,96.4560,-55.0341
-23.8297,18.7102,88.8802,42.7450,112.9697,33.8604,-4.7037,-165.7665,33.9031,-200.4555,63.1119,14.8126,10.8115,52.7131,-11.4963,-44.9813,-4.0639,78.4326,-52.7163
-8.2157,-131.4826,45.4837,24.0308,48.3617,44.1669,33.2802,-147.1045,60.6563,-187.0459,29.1606,-34.9688,3.1486,43.3760,-62.1203,-57.4448,-15.7288,38.7931,-10.3332
-17.6584,-122.0739,-17.8802,-42.6418,-13.7872,6.6880,100.0674,-94.0234,106.6677,-98.0825,-54.7760,-61.2365,-22.1373,-31.0498,-48.4700,-84.5118,-29.8165,-30.1171,45.2950
-72.2124,5.5495,-83.4869,-104.7445,-69.4669,-63.8506,110.7295,-46.4691,109.4301,-41.9217,-127.8479,-4.7003,-66.6122,-113.5636,3.1277,-81.5003,-40.5093,-75.5382,48.0519
-131.3608,0.8709,-134.1160,-98.7688,-150.5351,-98.4406,65.8716,-43.6105,75.2080,-58.0301,-172.9427,23.6423,-140.3043,-152.1345,67.0264,-62.8021,-50.8599,-83.3244,-16.2761
-153.1238,-60.7581,-166.5684,-68.9253,-219.1419,-89.9296,43.9429,-58.5289,47.8141,-43.2850,-186.4449,-22.1212,-199.3674,-137.6969,92.9965,-71.0699,-75.8619,-95.4874,-81.1234
-162.6520,-12.5981,-202.3923,-76.0895,-247.0965,-103.0060,39.1091,-38.9232,22.2920,18.5106,-196.9932,-27.1286,-205.4167,-108.1265,17.3803,-65.7388,-130.9133,-140.4538,-87.9500
-212.0760,17.6501,-251.4948,-124.6216,-273.7375,-169.1017,7.1352,18.5806,-10.7111,57.4574,-234.8532,36.8162,-209.7205,-127.5535,-119.0033,-2.2921,-215.7464,-199.6396,-58.1736
-287.7867,-87.1065,-288.8137,-190.5302,-306.8621,-248.8496,-15.0923,65.4892,-27.5469,74.5992,-273.9769,36.0122,-265.3193,-199.5679,-185.8419,58.5370,-281.9255,-221.8539,-52.2540
-317.1637,-183.1833,-291.3481,-224.8644,-326.7243,-292.9738,-13.6316,60.3541,-37.2189,74.1526,-279.9142,-72.0842,-327.4208,-260.4980,-150.4290,51.9474,-266.8576,-189.0399,-92.5264
-271.4589,-140.3905,-268.9478,-194.7148,-340.0057,-290.5602,-42.7138,26.4517,-66.1384,44.7917,-261.0362,-155.8163,-324.4880,-278.9131,-117.6622,4.6473,-196.0005,-155.3258,-144.9001
-213.2572,-30.3897,-246.7825,-150.8972,-328.3016,-265.4020,-84.6209,25.2659,-86.6758,48.2046,-237.8804,-123.5693,-265.1609,-260.4776,-147.0451,-33.0323,-165.8610,-155.4069,-163.9997
-215.7318,11.0951,-242.9081,-153.9620,-281.3865,-240.1307,-84.9383,59.2838,-76.6418,97.4422,-221.0575,-30.1982,-225.5221,-204.5443,-173.9361,-38.1211,-206.7162,-150.3729,-149.1635
-263.1594,-33.2982,-256.1624,-167.8770,-256.1684,-205.9750,-83.3155,65.9644,-75.9633,101.4973,-213.0873,24.6450,-240.5168,-151.1770,-155.8801,-11.7764,-251.8525,-126.3459,-139.1659
-274.9160,-47.2159,-257.6269,-132.2910,-259.9315,-152.3654,-119.4824,24.3802,-103.8931,55.7450,-207.4492,-3.0526,-243.7566,-160.6702,-155.2565,9.6692,-234.4302,-112.6003,-147.1024
-214.5783,13.1065,-219.4718,-72.7213,-230.3994,-105.7822,-151.8500,-19.1095,-129.0336,24.1635,-197.9366,-56.7170,-180.6490,-201.2754,-215.0886,5.2451,-149.4140,-92.9950,-147.6003
-118.6616,35.6836,-153.2615,-45.0784,-179.2863,-83.2879,-164.3953,-33.6491,-143.3011,-11.6454,-169.6634,-42.4349,-117.8833,-185.2860,-268.1246,10.2886,-38.6128,-46.9191,-136.4517
-29.2434,3.8782,-81.3474,-36.8541,-132.3314,-51.6612,-181.5628,-31.1619,-164.1811,-52.6037,-106.3744,16.2544,-111.2488,-94.5985,-239.3139,25.8329,51.2568,-9.9384,-136.3759
35.6041,43.5313,-2.7944,-5.2080,-34.0967,3.2233,-196.0945,-33.1178,-193.1078,-50.0173,-45.1176,34.3263,-92.0400,22.8167,-160.7788,-4.4783,93.4659,8.1687,-141.6773
62.9908,133.4737,66.8757,38.2002,92.5880,40.0984,-198.8462,-56.5185,-216.3260,-49.5978,-38.7866,63.1122,-31.2384,108.6656,-118.0601,-65.1039,80.9586,34.6475,-120.5504
54.0036,139.1039,87.0755,54.2619,129.7656,40.0389,-178.1114,-87.7984,-196.1920,-89.7560,-56.2575,154.9240,-16.0717,119.0605,-130.5534,-72.9743,39.0232,46.9117,-60.2637
23.7542,82.0453,59.8248,40.1578,81.8106,23.2875,-92.8021,-78.2809,-102.9296,-84.3230,-50.5832,161.2906,-57.1924,70.6337,-142.6038,-22.7618,9.8970,19.9271,27.3342
-26.6743,39.0791,24.2303,2.5139,32.6828,-12.1362,27.3437,-20.8801,5.7400,-16.1403,-61.5088,10.2661,-66.6567,26.5536,-103.7860,26.8832,-24.1856,-8.5993,111.0500
-93.1396,-32.3861,-21.9957,-62.2629,-32.4952,-63.5761,77.1200,30.9668,44.2641,22.8176,-108.6070,-94.4072,-50.1401,10.1080,-25.7194,62.4961,-109.0118,-20.7396,145.8202
-141.5011,-151.3815,-102.9070,-117.4458,-138.3726,-88.8121,51.2559,60.0704,30.3589,29.7301,-126.5613,-59.0900,-75.0131,6.4216,22.9424,92.2866,-184.6572,-47.1317,121.2284
-155.4101,-227.8892,-190.1522,-122.6403,-230.9290,-85.9144,39.6889,97.4034,29.2305,50.4348,-117.0502,-70.9238,-117.3551,7.8220,-4.0321,101.2106,-169.9981,-88.5971,81.9311
-171.0014,-191.5108,-235.9779,-120.0533,-276.7956,-106.5138,59.6246,134.4248,41.7812,69.6163,-163.7683,-192.5924,-132.2663,-6.2636,-42.3272,94.1115,-141.7379,-117.8173,61.7850
-210.4091,-82.5885,-240.8949,-152.0536,-277.6675,-145.0380,69.8221,139.7242,52.2115,94.1641,-244.3963,-251.3060,-140.8494,-45.2459,-0.3517,95.9811,-185.8883,-120.5247,48.2195
-235.4494,-37.2891,-230.2685,-166.8592,-233.7370,-146.4777,65.9941,125.3411,68.9121,127.8556,-252.9289,-176.9043,-147.7610,-62.7128,66.1112,101.1949,-214.8601,-94.3541,30.7064
-212.1285,-116.5070,-214.2006,-138.4221,-187.5727,-115.2184,57.7566,109.8700,77.4654,108.0822,-201.6283,-75.4711,-126.4474,-36.3113,44.5403,89.5349,-161.2889,-70.7240,21.3642
-166.8240,-162.4851,-202.2043,-131.9280,-184.2795,-94.7452,49.3788,87.7766,63.8157,48.0560,-186.2561,-49.2883,-98.6454,-20.4785,-1.6297,67.9894,-109.7798,-97.4303,20.0136
-142.7432,-70.4064,-210.1023,-160.4356,-208.2368,-101.1883,41.3425,67.5056,42.8456,34.6251,-201.4063,-119.2848,-100.9611,-52.5208,43.7172,56.6297,-101.0056,-159.4947,10.3538
-140.2066,-31.1886,-233.1182,-170.9285,-240.9236,-145.8406,8.3168,61.0903,10.6943,52.9874,-176.8016,-198.6580,-111.0860,-112.7536,95.2609,59.8506,-90.3467,-203.7251,-6.6561
-129.9780,-164.9483,-243.3595,-178.4308,-264.6837,-220.9073,-39.3162,60.1384,-26.7468,63.9368,-123.5328,-195.0336,-87.8478,-171.2050,43.7635,65.4716,-86.4866,-218.7061,-8.1375
-101.7021,-263.7040,-226.4642,-213.2296,-230.1259,-262.2661,-31.4513,63.6941,-14.1305,100.0576,-86.5456,-178.8672,-38.9803,-188.6088,-3.8329,55.9337,-91.0746,-211.0680,14.3124
-71.1422,-190.2660,-198.1130,-225.3101,-151.8932,-238.5119,20.3816,62.2396,41.1456,124.2990,-45.6826,-216.7769,-4.9086,-159.8024,50.5218,24.7800,-62.4982,-185.7571,31.0024
-55.0033,-84.6120,-174.2613,-198.1502,-114.3604,-212.0921,15.8527,21.1153,40.3724,72.1926,2.9161,-181.5811,2.1135,-163.8167,101.0660,-9.3131,-44.2427,-172.9936,7.3078
-57.7816,-52.4443,-153.9728,-188.9212,-124.5779,-221.7840,-49.8040,-41.4682,-32.9416,17.8728,1.5553,-35.0460,7.2300,-227.1251,67.0757,-19.4756,-80.6266,-176.7776,-48.7893
-66.3430,-61.4149,-141.3029,-184.7854,-129.2593,-215.2373,-100.5846,-58.8264,-88.6158,19.8687,-28.9903,31.9492,16.9173,-238.8640,13.3984,-9.5322,-81.5913,-157.8135,-97.7695
-55.4427,-70.7909,-142.0270,-131.3349,-126.5427,-157.0190,-129.9398,-41.6126,-97.4627,-1.0794,5.0011,-20.7831,8.3370,-155.1017,-19.9291,-9.9471,-6.9098,-126.3754,-111.3980
-20.6588,-24.4592,-134.2409,-79.1553,-124.2084,-91.0808,-151.9943,-49.0500,-100.5046,-62.5149,74.1445,-12.1671,-8.7709,-89.4316,-48.2506,-25.1627,40.6679,-117.9070,-87.4872
14.1159,74.4018,-91.5157,-88.3339,-103.0049,-61.9985,-143.6624,-58.8370,-106.2893,-81.0775,80.2674,75.5735,8.2087,-90.3175,-77.7799,-31.1042,31.6467,-85.7644,-49.5180
42.4212,87.5797,-20.9511,-83.7936,-52.5796,-45.6829,-129.4705,-33.2272,-110.6094,-47.6891,69.4858,94.6341,71.8695,-77.1663,-134.6060,-34.7496,37.5146,22.1790,-30.3493
81.1818,-9.9100,59.4614,12.8717,46.2293,10.9857,-141.0850,-25.8033,-117.1213,-19.9748,119.0475,45.6791,153.1779,-29.6035,-188.6424,-69.8290,68.6511,148.3950,-34.6355
122.3702,-15.0360,134.1597,135.4270,177.4680,95.1767,-127.2372,-81.8750,-101.5782,-42.5373,158.3867,62.1497,198.0216,1.0758,-131.0618,-129.7119,109.5799,213.1855,-42.9121
147.0718,156.4929,171.5173,189.4573,238.5597,132.5123,-70.9654,-150.8573,-65.3412,-128.0737,142.9656,187.6000,166.4789,19.5512,-26.9410,-166.2384,168.6294,221.8410,-47.9687
170.4532,292.7702,164.2940,192.8628,196.3844,119.6910,-50.4568,-172.3106,-61.1344,-194.3343,153.0598,304.4489,113.2469,49.7081,-92.1748,-142.3860,206.0519,219.8524,-43.6887
201.2287,217.2650,158.5600,206.9885,159.2571,139.9024,-78.8786,-143.1358,-84.5499,-154.2432,184.2478,263.4454,135.3056,79.7607,-262.8102,-66.3514,193.0126,221.4857,-14.4848
206.8109,68.9221,174.1883,222.1512,170.5788,196.7679,-79.1936,-97.4836,-72.1725,-99.7328,160.5789,122.2447,206.3806,118.2336,-249.8940,-8.3869,172.3281,206.6105,26.2216
176.9983,86.9301,174.6977,193.2544,167.8992,199.6788,-40.7946,-78.6331,-32.4448,-139.4218,141.9379,110.1482,232.6056,170.3634,-73.5667,-38.8707,156.5187,166.8268,47.3376
155.3767,229.1463,160.5505,142.0637,163.3637,143.0267,-19.8374,-90.1545,-23.1570,-176.6033,201.7432,251.1468,233.9290,186.1363,-2.3153,-108.8430,141.4746,137.3633,56.1600
175.5984,254.2860,178.2103,137.7446,207.0668,108.5143,-19.9377,-84.9424,-30.8109,-115.8547,255.7555,337.0574,270.5877,148.4144,-44.9149,-102.3898,179.0627,140.2026,77.7519
223.0022,154.7808,223.7588,179.4338,260.5927,111.8280,6.1092,-47.0184,-1.6526,-42.2567,243.4044,316.2206,321.5179,111.3046,-24.9151,-23.1999,251.6644,139.1017,110.1399
256.3892,128.4242,251.0704,191.2231,281.9643,117.7703,82.1195,-15.6598,70.7619,-27.7695,228.0279,295.3059,386.2281,95.1206,42.1858,22.0611,256.3390,119.5384,140.0946
244.5201,168.2191,249.1774,153.3982,284.5893,127.6418,179.0307,-9.3793,152.3361,-38.2757,230.7581,253.7847,493.5663,85.9402,68.0745,-4.7816,211.9398,124.2115,151.3956
214.3818,151.7647,233.3483,138.8495,270.2014,142.7167,237.8938,-11.7701,199.7504,-50.4821,235.2854,153.4955,573.8132,110.3768,108.3078,-57.5873,230.7306,161.4074,130.4393
235.2681,153.9253,217.0425,186.2685,242.5307,146.9501,233.1711,-13.8125,193.5836,-55.9349,284.2644,111.9508,562.3293,158.3690,191.7159,-83.7101,307.2415,192.8798,105.1168
305.4980,220.9757,221.3957,231.6534,229.6681,144.4275,199.6819,-11.8060,173.7278,-45.0133,358.2036,194.1212,535.1985,141.8859,245.6279,-48.6817,355.3471,203.0775,115.5447
339.7146,207.2195,253.2097,207.5734,242.3116,126.9979,185.5931,-8.2017,189.4681,-46.1212,356.8045,278.8114,557.4481,52.9942,284.8186,18.0142,348.8331,184.2629,146.8947
320.8075,126.5290,291.6623,141.5858,288.4723,78.3616,216.3125,-19.0121,229.3407,-59.0299,307.0617,241.8693,588.5787,-7.9775,354.6873,35.8630,325.2545,131.5764,169.1672
335.0971,148.6031,326.2031,113.1099,367.4828,44.0969,277.3888,-40.8636,256.5743,-40.1466,332.2731,113.5885,604.7618,-15.2177,362.5366,6.9715,350.7698,93.6420,182.4582
403.2141,207.8054,353.4976,143.5198,416.6159,68.6051,305.5911,-57.0850,256.3555,-17.4329,411.5027,51.6082,599.2032,-19.4971,272.5430,4.3916,425.8907,110.7601,173.4978
424.5737,156.8072,346.6880,168.5167,382.1526,102.4778,269.0202,-76.8308,227.7142,-47.2524,417.6670,145.9107,532.3835,-2.9730,239.6014,14.5892,427.0377,136.5227,137.9335
348.5914,94.0469,294.7898,132.0279,299.1978,101.9029,227.7906,-96.5594,197.4385,-89.6641,336.1049,250.4200,438.2456,51.2129,288.9575,-16.1611,313.4323,126.6216,129.2680
256.5899,113.6006,234.1121,74.6200,218.6331,104.5695,214.4281,-76.0563,195.2374,-80.2248,257.5094,196.9857,405.3575,60.0985,242.1726,-36.9996,240.0009,104.5970,163.5593
217.3703,112.8624,195.4530,73.1090,166.4207,120.6750,167.1383,-17.1208,179.3539,-19.2737,224.7339,91.4279,412.2673,-3.1877,139.6638,11.7248,271.6022,84.6483,170.7502
201.5024,70.8703,177.3662,115.3918,169.9089,111.1259,84.3054,24.0312,107.5889,66.6460,204.9887,108.9767,387.0443,-28.9376,207.5518,63.3533,272.6241,62.0646,126.4918
184.7586,92.6598,178.3023,126.0086,210.2544,94.0386,56.1809,28.9549,48.3678,132.8066,175.6671,192.8001,354.1888,33.6312,339.9540,34.9029,198.6784,70.3280,80.7953
187.4746,148.7111,191.2213,97.7726,230.0832,106.3722,69.3933,24.6955,48.5400,134.9048,165.5005,217.2343,359.1563,95.8582,254.3759,-31.3408,143.3932,121.9987,35.4207
180.7954,125.5352,185.9875,84.3428,217.5936,109.4012,5.2876,18.2475,10.0588,97.8211,190.9254,181.9553,377.4070,88.1725,72.3248,-31.2848,106.4778,154.6539,-43.6993
121.7126,49.5090,151.7665,91.8351,182.3680,72.8395,-134.8561,0.2829,-112.8681,63.6040,207.4793,111.2668,370.2423,32.4916,75.6639,48.0301,49.4164,133.1555,-123.2232
75.8840,15.9976,129.6322,97.6937,137.1353,52.5812,-206.5696,-23.6221,-182.3639,18.6995,181.4987,21.7479,330.7638,-18.0623,161.8772,103.4869,42.9372,118.7589,-135.3790
112.8468,4.3304,159.3687,115.5074,139.9300,83.0420,-126.5580,-42.0967,-106.1561,-36.2319,142.1137,-23.1017,298.4340,-16.6625,143.5070,62.2283,109.1263,160.5921,-73.4026
146.1723,-56.6092,214.2274,137.0182,194.7612,112.6400,27.8860,-50.1847,17.2855,-66.7848,114.6295,0.0833,336.9395,30.3705,135.6202,-20.8701,129.1004,203.4376,1.4375
88.8456,-107.7751,233.1702,119.1656,209.2637,108.3850,120.7330,-50.9564,82.9312,-71.5755,98.5490,32.0492,423.7821,52.4832,201.1480,-73.8237,57.2248,182.0222,38.3512
35.8907,-36.8820,214.9493,93.5215,191.7958,106.9929,119.2548,-44.9349,103.3526,-49.8755,116.2015,29.7706,458.3153,28.2936,172.9418,-97.3095,15.1918,139.4067,66.8247
90.3233,91.3018,218.9821,130.5266,245.5595,130.2142,120.1360,-17.2945,113.8119,8.2816,168.0045,10.1227,425.8995,22.5161,53.3383,-87.9339,90.4033,152.4675,127.4607
180.8760,120.3353,255.2272,187.8377,322.5765,151.6632,175.9218,30.5750,116.8279,51.4124,187.2643,16.2334,380.4858,54.4520,36.4327,-30.9487,198.6455,192.6399,166.6989
202.7694,68.9666,257.8919,176.0989,302.2496,155.2733,204.2044,60.5453,120.8848,40.8553,137.8551,63.8639,308.5281,73.2380,139.0901,29.1391,211.8173,176.2010,139.5723
154.7751,44.9174,199.6762,114.3906,224.2046,142.7129,156.4531,55.7456,128.5195,30.8306,65.2861,105.8728,204.9685,78.1008,226.6404,57.5715,128.3226,103.0689,113.2759
74.5121,30.5251,135.7515,62.6532,168.9967,106.4578,95.1779,38.9515,95.1625,31.8565,11.2787,111.4282,144.9419,112.1643,220.0048,76.2670,41.9242,39.5755,102.7237
1.8822,-9.4632,107.2153,26.0537,117.2724,61.4828,27.0082,10.0636,-25.5607,-19.7568,-13.1849,121.5663,136.1413,165.1578,91.7643,65.1250,-0.2783,11.3847,16.4921
-23.3738,-28.9847,84.3369,9.3488,64.7632,38.2110,-99.4533,-41.1875,-181.3649,-85.9661,-10.2111,141.7464,90.1582,196.4885,-84.7424,-4.2280,-20.0315,-20.8823,-110.6964
-29.1901,-25.2149,19.9508,2.2084,25.8506,7.6308,-212.4051,-82.7072,-246.0664,-79.5238,-31.2483,132.5149,-17.2956,192.5658,-150.7211,-59.2310,-37.9957,-103.4689,-139.9685
-74.2891,-26.8634,-82.5768,-58.4150,-44.8172,-69.1264,-202.8099,-96.4708,-194.0769,-54.7073,-120.3852,124.5476,-133.4549,147.3138,-122.9952,-47.9141,-61.4493,-209.8560,-101.8924
-133.3282,-16.6879,-158.4399,-154.5342,-136.3115,-128.4962,-132.6101,-112.5518,-136.4045,-83.4117,-217.1569,140.5569,-214.5205,72.0556,-148.4267,-40.2319,-96.5781,-251.1222,-109.3932
-157.2483,-24.8499,-157.4682,-174.8724,-156.3017,-106.9157,-111.5167,-124.3973,-126.5728,-90.8651,-261.6688,108.4784,-228.8605,26.4619,-166.4845,-67.3934,-140.2344,-219.4136,-114.3861
-176.0115,-107.8436,-125.8320,-139.1718,-116.9978,-78.9585,-105.9730,-90.7738,-106.3835,-35.8550,-293.7349,20.1614,-199.1320,46.4746,-59.3156,-65.3087,-184.8207,-210.5663,-50.5067
-212.3098,-210.5134,-133.6487,-170.4512,-122.9171,-109.5959,-66.1631,-42.0592,-77.4191,-28.9595,-315.5942,-30.8062,-216.2682,74.7428,14.6064,-31.9948,-208.1718,-236.2935,1.2421
-220.3250,-247.5210,-151.9122,-229.9926,-172.0240,-122.5866,-52.4993,-53.0263,-102.2270,-114.4699,-268.2020,-22.9576,-282.1863,52.4201,-93.4633,-35.8242,-185.8798,-208.9924,-18.8301
-190.0830,-210.9909,-123.6350,-197.6050,-168.2851,-76.9831,-101.2556,-123.7952,-150.8748,-183.0971,-206.7275,2.6618,-283.4991,21.0607,-201.2155,-92.2739,-153.6124,-147.4491,-57.5459
-163.0773,-125.1235,-85.2228,-130.9520,-94.8242,-55.5481,-147.1409,-188.1785,-157.8678,-182.4811,-215.3808,35.1924,-211.5096,34.4815,-137.7177,-159.8747,-156.7367,-151.0267,-70.2668
-139.7366,-64.7850,-86.2534,-141.4589,-41.6308,-84.4100,-140.4541,-204.9320,-140.9137,-177.4102,-213.3759,45.2360,-192.4642,41.5943,-34.8073,-190.3121,-151.9288,-200.2988,-44.8468
-114.2505,-105.0421,-101.5819,-175.0847,-74.0597,-107.2277,-102.2017,-185.5577,-117.6562,-189.3937,-145.1700,20.3939,-266.2564,-28.7532,-45.0459,-162.7848,-116.4231,-213.9538,18.8583
-129.8180,-156.6896,-115.6115,-148.1883,-149.3736,-129.2724,-59.9606,-164.1103,-63.0422,-183.2255,-143.9738,12.0289,-348.0720,-142.8611,-120.8059,-121.9004,-128.0230,-199.2910,70.3815
-181.0140,-114.3700,-149.3645,-102.4261,-200.6138,-170.2391,-16.5162,-157.9597,-3.3282,-169.5357,-248.1340,-6.6203,-386.5706,-227.2482,-162.6060,-118.7614,-175.7197,-189.4866,73.3343
-184.4446,-73.4027,-177.6282,-92.5889,-233.2965,-184.9333,26.6103,-152.8985,18.2067,-164.6406,-292.9951,-103.6195,-405.0599,-259.1340,-143.2048,-128.4814,-144.5546,-178.9294,68.3705
-128.8606,-101.3961,-173.3357,-103.0554,-269.7551,-174.0088,45.6947,-129.4232,20.6975,-135.0188,-239.6501,-168.7559,-443.2491,-224.5834,-105.2892,-115.7876,-75.5978,-178.1560,71.0587
-104.9347,-89.9632,-189.0653,-111.1781,-297.4425,-194.8244,10.1197,-81.3847,9.7169,-67.0875,-227.1844,-70.8526,-522.5426,-129.0860,-122.8315,-91.5816,-100.4177,-197.7279,39.4819
