Fp1,Fp2,F3,F4,C3,C4,P3,P4,O1,O2,F7,F8,T7,T8,P7,P8,Fz,Cz,Pz
686.0024,157.1900,537.5142,81.8347,594.1713,138.4512,553.1865,90.6763,559.5961,80.5156,679.9142,263.2597,638.3699,141.7098,623.6135,77.6477,482.4890,76.6011,543.0674
364.1447,-504.8976,549.1123,-139.4307,687.4250,-93.0584,722.0970,-327.5392,997.0125,-345.3590,684.0615,476.0354,684.5666,44.7622,825.4684,-172.0642,722.1267,-164.1713,790.5148
165.1653,-817.3499,532.5903,-221.2461,705.7644,-180.1325,809.2988,-457.6932,1120.7871,-537.3361,593.5964,558.7662,604.1218,-90.3604,871.6766,-270.3807,794.2542,-257.9340,912.1418
158.1829,-666.1985,488.4166,-183.8132,669.8226,-104.8693,840.4305,-271.3590,1079.0101,-381.9895,491.3209,491.1519,508.9326,-43.1020,854.5095,-122.9006,718.4387,-164.1009,942.3972
145.6593,-539.3965,407.6348,-244.7050,630.7109,-80.0050,883.0352,-176.6147,1112.1740,-248.1966,418.7288,428.7479,513.0223,72.4413,900.2871,4.1951,628.1992,-120.7287,956.7585
103.7528,-592.3861,327.3655,-387.3089,588.5847,-150.3678,871.3361,-259.0120,1055.6849,-274.9166,374.6157,420.0737,579.0035,21.1918,943.7352,-49.6022,525.4291,-211.5867,875.0858
74.9398,-624.9975,234.4360,-472.0167,450.3465,-237.1435,712.8434,-339.4468,860.3129,-303.7841,318.0844,400.5147,578.5631,-79.7851,892.5872,-160.9552,362.9577,-326.8520,649.5851
5.5112,-573.3169,108.7068,-462.5484,243.5399,-285.0416,525.2600,-379.2098,783.7942,-297.9180,250.3292,363.0056,511.2758,-26.5982,809.3077,-192.6398,246.4783,-373.3546,465.9146
-79.8765,-531.7021,72.0614,-369.2332,198.0019,-239.6213,505.0812,-388.6436,851.6240,-305.9197,252.3651,346.7536,491.2654,57.0801,777.4188,-168.0741,296.3029,-332.2875,487.8787
-100.6849,-519.0320,182.4345,-236.6737,339.6718,-118.8427,567.8347,-322.5919,831.5685,-278.3849,328.5784,333.5291,498.3319,31.6399,722.3955,-141.1775,409.8754,-222.6292,571.3651
-9.5594,-408.1187,304.0914,-119.6357,444.5707,3.4794,526.2663,-175.4564,735.3938,-169.7081,427.3966,298.4410,459.7979,28.4210,595.5258,-64.5024,457.2776,-60.8164,555.4694
227.1797,-155.1541,398.1060,1.1404,507.0650,120.5045,480.0540,10.8053,756.6373,-27.4280,567.0016,282.2634,455.6252,103.9422,545.2677,73.3948,507.5054,113.1745,553.6729
491.6974,66.4624,522.0152,120.8724,622.5910,213.8931,535.4086,162.4393,813.7991,79.1331,695.6369,289.4682,513.0835,127.3045,615.2343,161.8946,591.1330,218.4505,640.7457
626.9752,204.8513,594.5495,179.0810,658.8760,236.3666,548.1374,233.7557,699.3127,137.7309,732.5463,253.6538,551.0444,125.6652,637.6381,188.5847,608.1036,255.6683,691.5654
735.5137,381.7923,580.9929,195.4122,604.0115,239.0629,512.0680,275.9559,524.3456,191.2932,781.7801,200.5325,636.9114,203.5888,626.7915,242.0220,586.6539,291.4624,682.6620
868.4133,485.6303,562.5829,206.0730,613.1765,268.2031,535.1413,304.3609,481.0945,276.0993,861.4139,217.1428,778.8422,259.5909,704.9754,257.5603,581.9800,300.5013,648.0150
838.3068,439.2457,490.3617,217.2310,571.3325,314.5404,467.3815,287.5496,465.5214,417.8163,811.7094,238.8505,769.8543,243.1466,718.3248,204.3323,507.1715,307.7668,519.8514
745.4121,532.4352,381.7416,314.1992,418.6224,444.2909,300.9235,317.7972,414.6885,604.3789,756.0902,171.5192,680.5548,292.9429,578.3584,270.2051,425.3957,444.2716,404.3485
782.0773,667.7795,429.2950,447.8207,439.2328,579.5385,353.3864,389.7964,479.0097,646.8680,831.5311,135.6720,756.3159,347.5406,535.1841,391.7411,505.4334,558.1631,487.9880
639.0438,274.3837,548.3114,335.3859,629.0032,426.0464,570.4775,237.0264,619.9954,334.2664,721.5682,282.4796,803.9861,212.7996,670.9286,218.5342,644.3667,338.8390,637.6154
269.0352,-455.1858,564.1038,1.0505,752.9127,58.6493,682.2841,-152.8090,784.2465,-154.0346,467.2938,546.3998,691.5763,21.9825,858.9008,-150.8639,768.2809,-38.9414,764.1741
284.4020,-745.6439,686.1846,-167.1396,948.1156,-87.9298,869.4547,-408.3574,1167.5443,-428.2013,648.2614,748.8841,781.8199,-10.5190,1118.4966,-284.1811,1008.9460,-186.0424,1022.2456
557.4446,-630.8647,841.5306,-146.6277,1083.6156,-33.2412,1062.0907,-443.6113,1464.7603,-462.8832,928.9058,717.3041,921.5185,-5.4055,1187.1954,-223.2500,1066.2457,-203.1517,1096.6111
186.1590,-565.9604,436.7504,-226.8533,528.7595,-129.1934,626.5163,-496.2090,919.3012,-465.1474,339.8992,384.1276,410.3931,-67.7127,561.0875,-241.7895,476.6672,-307.3434,476.5289
-630.6688,-419.2517,-374.1757,-326.1318,-446.1973,-290.1882,-237.8563,-551.8417,-149.3313,-420.4795,-706.4224,-9.6244,-477.1626,-46.9075,-393.6624,-243.7831,-306.9475,-341.0573,-363.3861
-887.9926,-117.3989,-701.5490,-243.2177,-793.2671,-284.1256,-540.7469,-484.4795,-567.6465,-282.5920,-1028.6638,-134.1403,-789.0873,56.2020,-737.1475,-145.8141,-509.8364,-249.8628,-584.0018
-678.1635,-24.1240,-532.7645,-146.8954,-549.7288,-262.1982,-322.6328,-399.3664,-319.0485,-195.6559,-789.6456,-77.9436,-584.5483,50.8016,-507.5063,-143.1169,-341.5470,-243.4800,-411.5991
-685.1099,-109.5422,-532.8702,-160.8288,-514.4279,-330.3873,-380.6758,-352.6745,-302.1662,-199.8922,-772.9478,-134.4362,-511.2573,-46.1313,-423.7785,-240.4416,-346.9389,-278.0599,-467.2899
-781.6642,-60.7822,-626.7855,-119.6699,-610.7944,-315.1282,-625.7590,-266.7253,-525.9548,-175.5446,-827.8251,-223.6512,-540.1187,-77.8534,-542.3160,-252.9667,-384.0300,-172.5728,-605.3506
-687.7998,26.1885,-462.5422,-2.2282,-452.8825,-194.7953,-587.3755,-193.7614,-503.9107,-119.6715,-668.0616,-117.7401,-479.5797,-23.9544,-563.9976,-194.0232,-269.7367,-38.2544,-538.4628
-642.9303,18.6454,-313.2613,53.4910,-328.5170,-106.6863,-466.5304,-183.8757,-410.5648,-100.8624,-583.6989,64.5241,-500.5955,66.8181,-542.5410,-146.5675,-236.4587,-25.3117,-438.4264
-699.5048,38.9750,-381.5919,63.6539,-414.9440,-73.1823,-472.3871,-165.2180,-455.5995,-108.8656,-624.1672,104.0605,-552.0812,147.1734,-515.6406,-107.2456,-296.5424,-71.5571,-401.6761
-642.6221,65.9401,-419.0307,80.9282,-444.9936,-92.5279,-434.7599,-162.2607,-426.8051,-123.4984,-560.0252,41.3577,-465.9520,147.9751,-432.0043,-115.4716,-261.0816,-116.7835,-357.1649
-535.9214,54.2915,-390.5338,76.6343,-429.0504,-163.0455,-401.9088,-216.9424,-360.3681,-116.9936,-495.5739,-13.3108,-428.6110,78.9019,-447.4943,-167.1071,-218.7861,-146.6154,-381.5965
-492.9063,134.6836,-426.9608,74.1013,-499.6886,-196.5281,-494.2284,-230.4211,-428.1768,-60.1357,-543.0306,-51.5801,-520.5261,14.6298,-556.2892,-177.5887,-253.4684,-122.5708,-467.3181
-448.6816,240.3336,-430.9334,89.3654,-514.4244,-178.2169,-555.5854,-196.9787,-468.8754,-33.7006,-574.3239,-61.3269,-528.2323,-27.4927,-519.5214,-176.0674,-253.7073,-89.3601,-478.7871
-431.1639,195.2206,-386.5102,63.1356,-465.5051,-178.0674,-531.2141,-216.7453,-411.8321,-94.4764,-600.9044,-32.1505,-472.9923,-26.8811,-404.6589,-192.1029,-244.7577,-109.7275,-460.8310
-483.7450,111.6428,-422.4676,-1.3091,-499.3279,-175.0907,-497.6994,-243.2826,-398.3959,-125.3582,-680.9051,-9.7202,-509.5112,47.6239,-413.9845,-130.0147,-298.1649,-140.1173,-480.6094
-525.0814,112.3721,-478.2731,-51.7330,-536.7255,-159.6539,-404.1146,-237.8555,-366.8852,-75.7516,-711.2134,-14.1086,-568.0024,115.9659,-464.1569,-36.4665,-325.0025,-154.5068,-476.9796
-560.2745,126.6475,-484.8491,-75.6814,-512.2874,-189.3819,-331.7043,-311.1108,-287.9301,-62.3865,-686.7478,-22.7156,-603.6080,105.7715,-498.5491,-63.6575,-314.8413,-159.2081,-494.9005
-617.1547,167.0680,-521.6671,-42.5399,-521.3569,-212.1304,-441.8305,-452.6790,-342.1942,-98.3322,-671.0562,-38.4821,-661.5826,79.0173,-594.9163,-134.0570,-333.8430,-100.0399,-579.0680
-593.9976,240.0934,-552.7997,40.2945,-532.6167,-166.7537,-568.2246,-530.2415,-462.5047,-95.8321,-613.7518,-65.3763,-667.1899,61.8649,-654.8478,-120.3166,-320.5147,-4.6434,-591.7631
-500.5758,214.0742,-517.6646,55.4537,-514.9858,-137.4640,-540.3087,-543.8605,-440.1964,-83.4522,-565.5474,-74.2049,-622.3311,19.6861,-608.0111,-98.0141,-289.0572,2.5349,-515.8904
-480.9115,115.2816,-522.4739,-41.0621,-573.9385,-159.8468,-512.5870,-534.0021,-375.5698,-107.6830,-628.9787,-61.7223,-641.1457,9.1515,-590.8454,-99.1295,-370.7479,-59.8929,-500.6900
-527.8126,83.7489,-570.9315,-147.0668,-641.5717,-180.5549,-530.6227,-481.0462,-382.0404,-115.7769,-670.9832,-76.1579,-647.0310,53.9237,-598.9177,-50.8735,-484.5791,-84.7674,-516.5044
-547.8005,91.2413,-536.6137,-193.4757,-571.2172,-223.5729,-459.5471,-431.4197,-347.1497,-83.6585,-581.6777,-143.4390,-561.0501,53.4294,-529.6595,-8.5514,-461.9033,-86.4649,-462.2776
-532.0984,102.0900,-468.9094,-180.9952,-474.7579,-278.8001,-383.0526,-423.9575,-276.1273,-43.7905,-499.1606,-220.5735,-541.9058,-4.2737,-487.9065,-42.6733,-372.7410,-100.6323,-416.0149
-480.4285,145.6678,-461.0227,-116.7911,-470.6986,-254.0651,-430.9153,-403.0722,-275.7292,-15.9613,-491.2837,-259.2892,-624.0652,-50.4191,-545.0961,-93.2105,-325.8077,-87.9096,-439.9060
-417.6097,149.0703,-442.9496,-42.9025,-478.0311,-187.4681,-525.9376,-372.3240,-310.6873,-19.4812,-492.3999,-263.1485,-630.2482,-123.3401,-579.2155,-132.9855,-284.2087,-43.1153,-476.2726
-424.2417,105.4153,-398.3265,5.1487,-478.9818,-166.4283,-610.9488,-368.6279,-354.5734,-32.8651,-522.4059,-236.7175,-566.7476,-226.1035,-557.0007,-164.1054,-255.3215,0.1461,-500.3260
-488.1752,113.3965,-411.6310,30.0590,-514.4854,-146.0327,-662.5042,-342.8538,-414.6642,-12.1349,-579.9213,-170.3800,-554.6055,-230.8840,-527.5343,-127.2875,-281.9505,19.3939,-493.9610
-533.6314,92.7010,-452.6899,1.0646,-519.8987,-114.9472,-589.4298,-302.3998,-401.3200,-22.4112,-582.9774,-116.0582,-545.9249,-134.6575,-482.5273,-59.1873,-300.5215,-6.0825,-433.8537
-562.6971,-30.9171,-439.0444,-66.7199,-478.2629,-123.3535,-467.5210,-313.4042,-332.3974,-112.7224,-543.4837,-134.6068,-502.9744,-70.3580,-482.1966,-61.9580,-269.4243,-29.9526,-394.1477
-585.6060,-87.8441,-387.3527,-53.8731,-451.6413,-100.0405,-472.6144,-314.7498,-355.5875,-148.8645,-514.7229,-172.5124,-520.3315,-40.7432,-564.5735,-73.8806,-246.5024,20.6567,-428.0940
-594.0370,-46.1205,-356.1414,38.9157,-435.2377,-5.6058,-527.7119,-256.1335,-436.6766,-75.9909,-499.6721,-153.4185,-604.8300,27.8847,-590.0585,-7.4252,-257.1225,75.2163,-464.5014
-626.2264,-82.7495,-383.3594,62.6882,-433.7040,36.1807,-485.1425,-229.7024,-451.4089,-60.4108,-527.7800,-104.4333,-645.7050,96.3047,-508.5752,50.6446,-280.1410,29.2005,-459.8690
-682.7373,-156.1205,-452.8693,4.5190,-471.0203,-8.4020,-418.2907,-235.5968,-430.2155,-133.2005,-584.1324,-60.0257,-590.5086,107.8210,-447.4532,29.3652,-310.1057,-47.9550,-435.1588
-722.1351,-132.1625,-487.8106,-34.1238,-472.2973,-42.6212,-404.3531,-164.8645,-407.4684,-125.6965,-580.6403,-2.8801,-488.9152,97.3603,-419.4941,-3.3747,-331.7925,-55.7783,-387.4431
-755.9667,-89.7946,-473.3322,-51.2426,-413.0140,-51.7242,-398.5503,-46.2548,-366.1837,-36.9964,-533.7332,43.4803,-427.4066,104.9015,-376.3585,2.8846,-332.8633,-23.5950,-337.8448
-750.3827,-75.3281,-468.3937,-55.8308,-400.2585,-48.3798,-407.0897,32.8004,-369.4554,-5.3935,-495.8587,42.6355,-428.9291,110.4562,-383.4930,33.7340,-330.3833,5.9264,-319.6320
-632.6002,-15.5548,-459.5707,-3.8968,-438.3769,-10.7815,-444.0373,84.4239,-421.0106,-14.1639,-411.8720,26.8250,-428.1110,82.5768,-422.6036,70.6227,-325.8118,30.8207,-297.4550
-495.7370,51.3728,-416.8592,57.1216,-435.0953,0.0080,-435.9158,102.6830,-413.3400,7.8723,-311.9554,28.8034,-416.0078,53.7915,-394.2104,92.2689,-308.8901,32.0066,-255.3463
-468.0738,76.4789,-401.3150,53.1468,-411.2823,-57.2549,-353.9223,50.7590,-353.7079,15.5308,-323.2050,38.9696,-466.3180,94.7120,-374.1311,97.8316,-292.3399,8.9954,-232.8095
-481.4240,92.5668,-430.7814,17.7729,-419.3510,-90.7003,-268.1486,-28.7469,-320.4180,-20.5161,-391.0527,48.8974,-553.6276,163.1546,-440.7982,95.4609,-284.2601,-18.3107,-223.9938
-461.4405,62.8319,-443.0367,-19.8265,-436.9505,-73.6695,-252.5378,-92.0783,-302.4237,-52.8562,-388.5324,38.1922,-560.0232,124.8220,-457.8442,54.0791,-283.7084,-47.8592,-228.9290
-450.9807,-7.0766,-443.3463,-64.7973,-457.8764,-85.3313,-323.7878,-140.9769,-313.1150,-67.6400,-360.7348,-5.9262,-470.8318,-3.6545,-368.4884,-23.0270,-291.8569,-51.2530,-297.7807
-435.2270,4.0373,-457.8027,-52.9442,-481.8107,-105.1250,-419.9308,-154.5072,-388.0669,-88.1937,-360.4673,-43.5800,-392.4180,-72.0316,-348.1724,-66.9342,-280.6576,-2.0440,-399.3195
-388.6149,69.2013,-435.4041,44.5543,-471.9833,-59.9271,-474.7021,-144.2267,-449.8982,-123.4245,-340.7627,-61.8998,-406.1305,-63.6677,-469.3653,-65.2983,-223.5671,59.4817,-446.8337
-368.3408,68.3065,-351.3423,131.6451,-416.5921,19.6909,-505.9801,-152.1658,-448.4384,-161.0026,-301.0008,-93.4544,-465.3895,-70.6181,-567.2627,-62.4009,-156.4809,108.3151,-442.1618
-358.3362,40.8797,-248.5940,143.5448,-312.9343,69.8029,-524.2633,-130.3962,-442.7462,-154.6668,-257.5302,-105.1812,-449.2297,-100.2200,-522.7672,-63.4310,-122.5350,156.3136,-415.7377
-307.2211,28.1047,-158.3111,116.5073,-171.8660,72.3423,-487.5822,-32.6341,-426.2300,-79.9931,-190.5804,-53.8618,-358.6489,-122.8544,-428.2614,-71.8519,-104.4757,170.7798,-363.3238
-272.0467,-3.0472,-99.4498,100.5872,-81.5109,45.8130,-427.0988,67.2802,-372.2029,-7.3898,-139.3990,4.9806,-325.9160,-136.1465,-413.6999,-97.4585,-65.4370,152.7782,-308.6621
-246.1422,34.9231,-67.2233,132.1076,-70.5418,45.3328,-404.4283,125.3867,-360.9714,-6.6542,-126.4873,27.1355,-357.6361,-106.6003,-449.3405,-96.0511,2.6499,176.2952,-263.6974
-123.1633,193.7734,-12.6903,198.8114,-33.8992,82.9487,-389.0115,187.2930,-409.9542,-43.4683,-81.8578,31.9667,-339.3551,-42.6385,-433.4529,-58.2182,74.1645,222.9019,-207.7514
53.9605,329.7385,54.7734,224.1320,29.0539,86.3276,-368.4182,243.9276,-428.3308,-69.8982,-13.9769,2.9216,-293.3795,-38.5232,-387.3265,-55.6316,104.0766,208.7448,-182.2463
160.2999,377.1753,57.4184,185.0554,-3.9039,32.3494,-388.0504,251.6426,-416.0671,-100.7996,-7.7940,-51.2590,-290.3764,-97.8352,-388.0396,-88.7824,73.9199,159.2546,-223.1859
175.6806,378.7269,-8.9654,126.8521,-116.5404,-28.2594,-408.8226,217.7844,-418.3186,-140.1322,-40.5401,-53.6044,-264.7154,-115.7863,-417.6171,-86.8311,4.3196,112.9460,-270.3455
89.0373,285.6586,-83.4835,47.1544,-213.8136,-90.1053,-383.0836,143.0538,-397.5557,-148.0521,-59.9962,-22.3446,-217.7452,-87.4695,-442.4234,-70.1919,-82.2435,33.4558,-309.5557
-35.7175,177.5205,-141.2495,-47.3627,-302.3827,-154.7187,-381.0763,37.8154,-354.7381,-112.3473,-89.6845,-38.5202,-279.2242,-94.6381,-473.0960,-99.4105,-157.2715,-37.6909,-400.6925
69.3991,347.6797,-177.9640,-74.2499,-376.1106,-174.4022,-441.7118,-28.2696,-364.2668,-87.6861,-108.3260,-60.1931,-404.5472,-127.6822,-490.7439,-142.1060,-188.4564,-21.6082,-508.2827
526.0200,852.1344,-198.1433,-19.9563,-381.7113,-153.6978,-504.1603,-33.4960,-437.9496,-134.9036,-55.2089,-21.9980,-420.8438,-118.2365,-505.6320,-145.7067,-184.7022,24.1182,-550.3840
1071.2751,1385.7788,-214.6205,40.2369,-349.2569,-142.1580,-544.2995,-23.6075,-533.7178,-224.6059,45.7888,47.2172,-357.8263,-61.4873,-580.1458,-128.3228,-170.2355,28.2677,-542.4199
1424.2952,1667.6630,-199.5420,99.4966,-326.5395,-124.8703,-565.2681,7.0328,-608.7009,-259.1642,136.6702,137.6475,-346.0447,4.7559,-658.6320,-124.6083,-146.8604,26.3363,-520.1573
1532.9991,1660.8740,-147.6279,176.4448,-311.7387,-78.3248,-543.1940,70.1200,-609.5455,-223.8087,193.4402,231.4546,-350.9781,51.2807,-625.7059,-128.2869,-140.3189,20.5500,-482.9307
1442.3125,1545.4932,-132.1846,210.3661,-330.4973,-47.9288,-505.8252,101.3573,-556.5620,-211.1920,204.3519,230.3020,-301.3274,50.9301,-542.3714,-116.7414,-174.9777,-30.4171,-457.7066
1235.0020,1504.3984,-158.1971,173.9432,-371.8663,-70.8248,-498.4821,69.6465,-540.4288,-260.7069,179.5240,139.3932,-257.3067,-2.6057,-523.3983,-104.8144,-194.8183,-87.2606,-453.1187
969.2023,1411.2994,-145.1377,119.9364,-352.5546,-118.1370,-480.4231,26.1985,-543.1146,-317.1371,115.4274,74.6721,-276.3779,-62.7774,-525.5658,-133.9138,-151.3404,-104.9457,-420.5414
607.5580,1021.6569,-117.2516,51.4711,-287.4815,-147.2733,-408.6385,-10.3135,-475.3521,-355.6363,-20.4898,11.9171,-308.4716,-76.1524,-498.3848,-192.7245,-97.5854,-115.9617,-351.3290
201.2655,455.2895,-146.6592,-56.3122,-264.0477,-163.8357,-327.1927,-70.5426,-374.1801,-391.3089,-169.4294,-128.3503,-303.8765,-65.4770,-484.6577,-231.4593,-80.1810,-141.0554,-289.8045
-83.8608,10.8863,-188.0797,-144.3377,-266.8497,-205.9154,-294.3783,-139.2586,-327.2378,-397.1895,-232.6431,-265.8725,-287.8507,-100.8204,-463.0843,-249.8209,-76.8477,-159.8208,-247.5145
-261.6815,-282.4891,-202.9247,-151.6106,-258.4865,-247.2433,-305.8693,-141.4272,-317.7041,-346.6175,-264.8365,-324.5405,-285.5284,-173.6141,-377.4339,-249.8576,-82.7689,-155.2493,-198.0993
-463.9781,-505.1680,-234.0326,-123.1694,-257.3672,-205.3549,-296.4109,-42.0372,-308.1495,-276.5224,-343.4514,-352.6991,-278.4356,-193.9516,-298.6945,-185.2428,-114.3660,-111.0619,-128.8369
-647.6514,-639.7386,-260.7893,-132.6231,-234.5168,-102.0602,-228.5582,66.9694,-310.2097,-225.4798,-388.6460,-361.4993,-284.8380,-127.6075,-325.3968,-77.6479,-163.6171,-43.8808,-78.4679
-748.3185,-738.1736,-245.6177,-186.6445,-171.3206,-48.4077,-177.0660,70.4501,-311.3840,-186.0919,-367.4367,-336.0499,-352.6428,-31.0943,-408.8545,-24.4747,-229.0423,-15.3819,-103.1646
-861.6755,-872.0813,-252.4634,-254.6326,-143.6898,-61.8848,-209.1738,13.2594,-283.7516,-156.8696,-388.5165,-333.9728,-418.0202,29.5381,-424.9734,-41.2869,-311.0121,-44.4013,-168.6004
-1017.6160,-976.4106,-313.0666,-324.3106,-178.1388,-100.3521,-259.3077,5.5564,-243.9834,-158.9547,-458.9714,-372.5757,-363.9860,14.2111,-351.2625,-76.1073,-381.8308,-93.8521,-182.8639
-1125.6887,-1027.4647,-367.5377,-391.5748,-223.3934,-172.7900,-275.9887,12.3799,-226.7264,-181.5465,-485.9009,-409.4579,-248.7921,-72.9552,-289.9843,-116.4789,-426.7171,-143.3230,-154.4524
-1191.6812,-1100.6998,-404.2824,-428.6863,-279.7167,-254.8091,-308.1440,-33.7101,-248.7830,-182.0789,-487.4995,-454.2417,-235.2117,-169.4847,-320.6575,-148.0170,-450.2335,-179.9249,-142.6132
-1266.8068,-1171.5776,-442.0709,-408.5235,-345.9810,-283.2605,-349.8660,-67.7969,-288.2466,-156.9021,-513.3231,-497.5331,-319.8423,-219.9870,-389.0317,-146.5715,-444.3254,-184.4853,-124.7470
-1307.4418,-1178.2737,-452.3596,-356.1958,-373.9120,-267.6188,-347.5909,-43.2720,-285.4814,-150.5083,-520.2818,-473.7477,-367.3137,-215.0998,-394.2038,-137.8333,-425.4417,-171.1651,-94.1397
-1292.1909,-1164.3735,-439.3417,-322.4221,-374.4149,-223.1355,-330.4462,-13.2473,-237.3037,-169.3345,-495.9244,-395.1833,-329.2742,-154.1407,-323.5260,-129.5111,-424.3950,-152.6040,-106.0577
-1287.8821,-1154.0203,-434.5250,-303.2988,-368.5779,-131.0690,-321.2129,27.8221,-213.9656,-151.5589,-497.2192,-317.8149,-270.0410,-69.6761,-248.2843,-87.0389,-409.0387,-105.7277,-129.9424
-1324.3436,-1117.1536,-408.0744,-248.1439,-310.9574,-54.9508,-276.8036,109.8144,-203.7880,-75.9462,-527.9382,-237.2421,-271.6819,-30.8364,-241.3931,-38.5561,-336.4270,-41.0834,-101.6955
-1342.5870,-1083.4835,-337.2228,-149.3405,-216.7111,-54.8413,-200.6445,140.0123,-130.6599,-31.5172,-531.0557,-170.5523,-345.5890,-33.4316,-293.0692,-35.4059,-235.4894,-13.8354,-67.6203
-1265.4730,-1078.4264,-252.5176,-65.1107,-155.7830,-62.4858,-117.0913,39.2407,-58.8272,-94.4354,-468.1013,-160.5948,-388.9917,-27.9172,-299.8124,-62.4809,-139.7645,-46.6379,-51.4429
-1098.1489,-1075.1281,-159.3577,-47.2220,-104.3746,-61.5025,-17.9708,-104.9134,-85.8393,-199.3948,-357.1614,-186.5761,-311.9214,-61.2711,-207.0829,-113.3987,-49.7888,-122.0519,20.7608
-957.8898,-1097.6212,-63.3459,-97.1481,-34.0765,-143.4917,52.0271,-176.5228,-90.1314,-238.7977,-267.8717,-249.3137,-168.9052,-181.3761,-83.3460,-191.3641,-0.2672,-217.3190,126.1637
-926.9744,-1168.5026,-15.6586,-196.3741,-12.7248,-286.0450,49.2840,-179.1984,41.1651,-227.7357,-238.6277,-379.7715,-49.9908,-289.1028,13.8408,-232.1100,-33.7026,-307.0776,137.6859
-934.6211,-1203.7532,-21.2439,-312.2838,-59.3691,-384.5428,22.3158,-181.2822,116.2104,-236.4727,-211.4088,-480.1606,27.4716,-291.3185,72.4325,-220.4704,-120.2196,-367.3562,37.7662
-896.3222,-1142.2131,-25.9433,-378.6484,-103.5558,-431.1960,-18.7828,-197.4283,-19.6484,-227.7335,-134.2147,-444.1646,53.6146,-249.3454,53.9896,-243.4465,-198.2171,-375.5379,-77.8486
-848.5311,-1051.3756,-21.3411,-365.6753,-114.8648,-436.0849,-111.0233,-162.0344,-162.0852,-140.7673,-67.4876,-374.7967,30.2752,-241.9877,-0.1798,-299.3300,-255.4473,-324.5807,-151.5417
-851.0153,-1002.8789,-42.5461,-334.1925,-110.8366,-384.2054,-185.7070,-57.0934,-143.4896,-57.4768,-96.4350,-389.0262,14.8382,-244.7177,27.4481,-292.0477,-320.1117,-259.7793,-196.1934
-887.2860,-975.7047,-108.1553,-313.2196,-122.9145,-326.4207,-188.7024,2.8045,-115.5533,-62.9120,-203.6088,-403.8065,21.1280,-200.7652,70.9345,-220.4505,-395.5062,-223.1534,-238.9379
-906.4566,-907.8799,-210.9402,-231.8913,-190.6202,-280.4331,-200.2725,-35.9497,-168.4868,-50.1120,-298.2814,-324.3145,-4.8850,-106.3205,-27.2497,-134.8495,-438.9995,-169.7766,-264.1815
-880.8780,-772.3917,-301.4374,-82.4562,-278.2827,-175.8584,-233.9807,-34.9594,-183.4901,78.2034,-332.7762,-192.7114,-64.6256,-14.0631,-165.7064,-29.1706,-434.8379,-60.2965,-237.1736
-823.1519,-616.2345,-325.8102,26.7163,-307.2657,-31.1772,-220.4095,71.8715,-167.5696,174.9022,-328.2907,-73.8102,-118.1624,39.6410,-170.1018,71.8212,-431.3944,37.7141,-203.6820
-763.8361,-518.1201,-308.5209,53.0389,-306.1216,58.1340,-205.1995,129.6675,-211.9502,101.4821,-299.5438,0.5698,-167.0066,86.5905,-141.2600,109.8541,-444.3310,61.8812,-232.6020
-717.1288,-497.3971,-304.0939,43.1302,-335.8259,80.2013,-234.4783,58.2763,-222.6220,-0.1206,-256.5455,10.8107,-217.1708,135.7998,-204.0347,100.7645,-437.6474,39.3151,-270.4673
-695.8173,-511.4139,-315.0785,0.9176,-359.5408,51.9940,-232.5700,-16.1709,-138.3901,24.3589,-265.7105,-22.6563,-255.7480,131.9460,-253.3442,85.4508,-432.2603,1.5876,-251.8472
-706.5610,-515.8268,-328.6880,-50.2065,-353.3319,-11.8625,-197.3470,-25.6669,-112.5765,63.7233,-347.0209,-61.8973,-280.2997,94.9405,-231.4833,68.5924,-449.5788,-29.1639,-246.7653
-701.7927,-480.4372,-324.5752,-3.6065,-345.1660,-14.6189,-203.7011,-34.6516,-188.8682,-7.0884,-376.0932,-81.5380,-283.7927,111.0270,-248.5150,70.1487,-399.9243,4.7668,-297.6154
-628.6674,-398.5566,-254.5839,154.1866,-298.7725,96.0002,-210.8895,-42.7998,-221.4966,-80.5870,-278.5269,-39.4948,-270.0687,153.4076,-311.3224,100.3136,-240.3810,114.6788,-308.1823
-515.6558,-308.5989,-137.6524,284.5378,-193.2267,214.6327,-162.9536,9.1105,-191.8371,-42.6602,-169.8665,68.3182,-271.4016,148.8447,-308.0332,125.7440,-97.0941,214.2552,-234.3898
-429.4319,-264.6606,-72.3251,297.2086,-111.5562,257.2285,-101.4640,93.4885,-165.0580,25.7733,-144.9154,145.5222,-280.1205,142.3872,-242.5466,150.0323,-60.7222,235.6737,-150.2256
-403.4124,-280.8260,-75.7097,231.2262,-79.5128,250.1431,-31.0447,149.3296,-80.1343,42.2959,-161.2773,113.2374,-260.8348,174.9115,-201.4719,200.6341,-74.1024,208.1932,-83.5838
-429.2746,-317.2022,-76.5284,152.0065,-37.8513,218.8448,58.5942,186.0288,55.0199,71.3907,-195.7013,11.4736,-239.3712,175.6656,-174.3959,231.7004,-91.7042,188.0906,-4.4801
-444.7297,-320.3645,-64.0214,99.3296,-10.0794,182.2648,87.9808,216.3489,71.6073,146.8869,-247.6264,-86.1644,-239.8256,114.5783,-108.6871,189.1407,-121.3930,175.1543,57.4349
-388.7142,-286.7370,-70.0185,75.2657,-44.0179,155.2097,33.9140,186.8632,-39.8804,158.6227,-249.9000,-148.1711,-225.0476,44.9552,-59.5277,103.3961,-141.5117,118.9403,41.7207
-301.3936,-267.5844,-83.8350,40.0368,-87.5701,90.5032,-16.6921,61.6640,-95.2877,36.0682,-198.6877,-174.5947,-209.0680,-20.0447,-110.9150,19.9259,-142.3107,4.7272,-37.4850
-254.7173,-305.6733,-101.6022,-28.9812,-105.1507,-20.7856,-36.1117,-93.2422,-50.6767,-120.5611,-193.5674,-203.1920,-257.3805,-90.9835,-204.3189,-51.6614,-153.4302,-101.3931,-95.3020
-245.1356,-408.4692,-142.9575,-117.2541,-131.4082,-91.8029,-45.9572,-183.3542,-21.0461,-195.9001,-241.0125,-275.6639,-348.7257,-152.6431,-236.4744,-95.1440,-177.7372,-142.1308,-81.7928
-265.4873,-545.6609,-187.9079,-208.0793,-150.8490,-103.9664,-27.1618,-195.4321,-37.4076,-199.7838,-258.6773,-355.8817,-404.6894,-217.6544,-238.8400,-95.2490,-195.0197,-139.0096,-41.3937
-326.9302,-621.6905,-201.6804,-256.1171,-118.4152,-119.0298,1.9686,-160.0751,-38.2421,-163.9832,-254.9601,-364.6696,-396.1085,-296.3522,-245.8494,-63.3732,-193.1946,-116.4245,-29.8583
-371.1224,-548.4569,-185.5403,-201.6197,-54.6451,-119.7282,-8.6924,-73.3471,0.7329,-57.3002,-277.4392,-297.2665,-340.2207,-337.5064,-185.8642,-12.9087,-162.3176,-55.4989,-38.8541
-350.8748,-378.1441,-147.9951,-72.6801,0.6101,-60.4193,-42.0429,45.7482,46.0545,104.3728,-288.0761,-219.9869,-290.6320,-310.1379,-102.5049,43.4899,-125.3512,36.2155,-60.7602
-323.0479,-239.5761,-93.7578,38.3024,31.5564,19.9943,-73.2772,110.5723,41.2297,214.4815,-241.0228,-172.8644,-291.8725,-248.3534,-149.8006,82.2988,-122.1553,113.1044,-109.9770
-314.4055,-175.5186,-44.5042,90.5055,31.5214,78.1964,-107.8673,93.9521,-25.9675,221.8042,-161.4285,-151.9713,-293.8863,-175.5313,-262.8661,101.4993,-129.8139,162.1758,-137.4979
-273.0659,-167.2320,-19.8034,88.1795,25.6628,125.8294,-104.2370,89.1593,-71.7430,191.9879,-104.2194,-156.5892,-245.7591,-105.7089,-252.6627,128.4459,-111.6588,203.6724,-84.0758
-213.2001,-211.8176,-31.8333,49.7738,28.3430,174.5300,-45.7930,137.3056,-31.7245,175.5768,-124.0429,-181.5139,-214.2961,-86.9063,-169.5724,160.2990,-103.2959,231.6591,-16.1979
-199.3936,-271.1487,-95.8260,32.6175,-18.8970,208.6616,-26.4975,134.9986,11.2372,129.3728,-233.6514,-196.9057,-250.6328,-135.5903,-170.6595,144.0836,-130.5491,215.5624,-42.4611
-224.4677,-282.1721,-189.4899,61.1462,-134.0665,190.8707,-96.1623,21.4667,-44.7682,21.4530,-360.9142,-203.4934,-307.6837,-194.0867,-241.0199,62.9502,-151.7153,162.2021,-139.3558
-252.0982,-254.1084,-247.3196,69.3633,-217.8829,119.4047,-163.2387,-89.2952,-142.5461,-57.8851,-434.0771,-244.9354,-369.4068,-207.1212,-300.5343,-2.3780,-150.1268,130.9487,-191.0007
-274.0082,-228.0543,-243.3159,25.7514,-217.1852,77.5636,-152.3509,-72.7578,-165.2601,12.6462,-466.4964,-305.8006,-435.5591,-173.8737,-305.6169,21.1831,-158.3025,147.2649,-151.5481
-280.3610,-196.4768,-221.2364,-13.4787,-205.0217,97.7315,-113.5534,30.2532,-127.8784,174.8144,-476.6356,-310.1141,-438.5709,-127.1107,-231.1165,76.7963,-193.7999,145.0508,-92.8306
-270.3535,-157.9499,-219.1290,-27.5786,-221.6895,76.6742,-128.2565,97.2356,-123.8861,221.6813,-429.8792,-258.1544,-372.3964,-111.6207,-165.4798,71.5744,-241.9651,74.4487,-97.1153
-245.8208,-136.4029,-218.9717,-30.5743,-216.9769,-13.2976,-189.4250,89.4908,-156.6748,107.3557,-335.6145,-215.7405,-326.3948,-147.0200,-214.1139,26.5860,-252.3400,5.2754,-137.6678
-194.2107,-111.8519,-188.4772,15.2525,-170.8892,-46.6481,-215.3436,58.5014,-158.9862,11.3449,-279.1578,-187.7187,-312.6631,-183.6068,-277.2156,16.8445,-184.7635,21.9418,-126.5399
-161.6783,-62.4825,-140.0437,105.4506,-119.0095,13.2549,-172.0275,57.8544,-122.2947,15.4721,-295.5070,-160.2379,-283.2316,-154.9985,-239.2104,54.4224,-109.6307,89.1111,-56.5314
-212.3352,-37.5629,-125.4360,127.5291,-85.6186,65.5369,-109.6151,95.1691,-98.0976,5.2722,-330.6655,-174.6707,-256.2239,-83.1036,-188.7413,109.2505,-134.4907,110.4177,8.3645
-266.3285,-78.4620,-171.1006,29.2952,-83.5017,62.6651,-56.4644,124.2317,-108.0738,-56.9545,-354.5902,-232.2946,-248.5644,-38.2780,-187.8538,144.9396,-226.0707,52.2331,44.0099
-215.0101,-162.6780,-239.6780,-103.8607,-120.1986,20.8193,4.2942,82.9829,-119.9854,-93.0353,-379.9235,-278.1730,-237.9032,-15.6184,-172.0242,125.8837,-275.2041,-42.1123,71.2583
-146.9125,-270.2672,-270.3788,-199.5719,-163.8759,-47.2945,54.8607,-19.8577,-97.9031,-123.8483,-374.7504,-322.1469,-235.7066,9.1266,-155.3990,66.5252,-260.3094,-105.2450,114.9640
-172.2820,-361.1399,-234.0041,-242.5823,-158.1026,-93.6478,72.6746,-88.2151,-56.4933,-206.4870,-308.4236,-393.1308,-231.4489,-30.5029,-160.2186,15.0140,-192.6102,-95.3491,195.5459
-189.5309,-333.8946,-145.3229,-192.3596,-87.8764,-83.3716,74.6205,-53.2614,-52.6162,-272.3573,-253.8085,-433.9250,-174.5825,-159.5041,-103.3958,-25.9640,-61.1516,-30.8161,283.1823
-96.5726,-183.4931,-58.6977,-49.8470,-14.6173,-58.6645,48.6876,36.6214,-98.7063,-267.3416,-292.0193,-405.9712,-112.3357,-248.1764,-15.7353,-63.0168,67.4940,22.6813,297.3514
4.9365,-67.9299,-42.2287,71.4234,-30.4586,-47.0217,-26.1322,80.4482,-132.2139,-245.0198,-378.5197,-361.0946,-142.6921,-214.9470,-43.1110,-60.8585,88.0568,19.5740,209.3260
4.6238,-56.7396,-108.1202,102.7999,-146.8948,-32.8637,-101.6986,45.3273,-123.2087,-201.8088,-425.7729,-315.5338,-244.0981,-136.7211,-159.0999,-17.3358,19.4927,-12.9796,66.8805
-59.5112,-25.7282,-180.2812,122.7348,-255.1570,-28.6731,-142.3788,-9.9146,-123.6876,-86.1178,-418.2733,-230.4485,-338.3215,-50.2883,-230.6878,26.3697,-42.0276,-14.8425,-76.9358
-115.0075,82.0040,-184.7702,185.7696,-264.0361,-34.0017,-181.2596,-22.0476,-155.0979,28.5863,-379.3487,-134.9431,-396.3930,64.7793,-256.5663,69.0627,-82.0207,15.8462,-180.2834
-130.4761,163.7621,-150.1447,227.9032,-220.3451,-10.6264,-222.5882,-4.0481,-167.9322,40.1860,-334.0566,-96.4826,-396.6871,120.2763,-292.4095,109.5943,-129.9849,34.3053,-217.2544
-91.1271,182.2968,-142.4287,228.7457,-204.3605,38.5276,-245.6220,-12.2036,-157.8677,-7.0662,-306.2124,-96.9622,-362.5184,56.6134,-344.7805,95.0106,-143.8342,48.3290,-211.6687
-26.9019,200.5760,-143.1243,261.0921,-205.0591,91.7788,-273.8389,-60.2497,-189.3189,-35.2138,-285.4264,-65.6682,-390.5567,-3.4282,-416.6210,23.1746,-70.8567,94.1349,-208.2759
-8.9374,206.8777,-107.6120,314.0289,-193.6750,148.4700,-299.1664,-119.6262,-258.4884,-65.9851,-258.2627,-7.1319,-475.9171,12.5610,-476.7131,-29.4869,31.5072,122.9601,-226.3866
-62.2530,140.2498,-90.3156,261.9002,-198.7740,145.2664,-267.8460,-181.8136,-261.4091,-131.5554,-271.2191,-18.1080,-487.3290,6.8276,-460.6739,-41.9449,45.5767,46.7979,-266.5705
-143.1583,20.2345,-169.0435,56.3336,-238.0975,0.9676,-206.7782,-256.2470,-167.2773,-198.3254,-364.6609,-152.5043,-409.8734,-54.1985,-383.0371,-67.5031,-60.9115,-117.8473,-308.1825
-201.0984,-85.9711,-305.6020,-188.9935,-293.6653,-212.5717,-188.9083,-324.2664,-102.6754,-221.2168,-489.5644,-312.0511,-366.8304,-95.5567,-311.0577,-119.6781,-208.9214,-262.3261,-323.0634
-211.8821,-135.3988,-408.4393,-325.0244,-365.8784,-339.4400,-213.0587,-357.3638,-156.8478,-197.8179,-556.1221,-365.9864,-394.5448,-112.0107,-267.8791,-164.1066,-299.4669,-314.5342,-329.6537
-173.9172,-125.3832,-441.9720,-309.2134,-443.3568,-350.0410,-257.9868,-366.7756,-233.2509,-171.1196,-501.4516,-338.7873,-426.1473,-142.5148,-259.8313,-190.7959,-286.3834,-295.3826,-363.3654
-107.3639,-106.0768,-392.6860,-223.4868,-467.5197,-331.1912,-324.2209,-382.2486,-235.1717,-177.7074,-336.8521,-340.5050,-433.9334,-177.4963,-283.2426,-212.9933,-201.0800,-276.2675,-404.7454
-40.8640,-116.1089,-261.9732,-171.6686,-412.0998,-338.5299,-365.6097,-397.4770,-225.3558,-197.7087,-190.2247,-381.9822,-423.0452,-207.1069,-290.0638,-231.9588,-116.9803,-289.8445,-409.6069
13.1607,-111.8167,-119.9344,-175.2481,-310.6225,-347.7687,-337.0288,-386.0209,-247.2744,-213.7773,-187.9135,-403.4000,-379.6310,-226.5845,-260.5287,-242.0105,-56.4458,-288.3686,-356.8170
54.2170,-64.6229,-29.6768,-196.3426,-181.0357,-313.6624,-275.8322,-353.4664,-225.8115,-260.7740,-279.0868,-387.5463,-315.3010,-214.8617,-250.3860,-241.1578,6.8420,-228.4416,-253.3457
74.2404,-29.8770,32.6399,-209.8999,-39.8836,-244.9367,-220.4678,-319.2954,-165.2639,-322.8289,-330.3476,-342.7647,-271.3000,-183.4759,-287.9931,-218.1613,48.7500,-147.1297,-152.0546
69.9328,-22.5366,77.4764,-196.2426,43.1380,-185.2620,-157.1691,-272.9455,-160.2259,-302.1557,-328.2278,-277.7807,-249.8553,-154.0789,-300.8666,-163.0731,33.5958,-96.2162,-105.5358
55.1111,12.1557,54.4983,-138.9345,22.9492,-133.9356,-104.6715,-211.4716,-186.4865,-192.1258,-330.7442,-223.6105,-221.9014,-122.3270,-213.5431,-111.5137,13.7613,-75.0620,-95.4009
41.7106,68.2993,-19.8945,-73.3526,-49.1482,-79.4159,-115.1425,-179.3232,-173.7302,-124.0716,-336.5692,-202.9757,-201.1517,-117.1397,-94.8859,-120.2079,32.4811,-66.4881,-100.5731
39.3866,94.3450,-57.6833,-54.1226,-102.5434,-59.3189,-173.3195,-200.5680,-179.8685,-162.9494,-324.9382,-211.4241,-229.8880,-161.9881,-99.7608,-168.6670,31.9447,-66.1513,-139.5459
59.6421,93.2257,-52.3217,-79.8805,-119.8068,-76.0791,-202.9344,-219.7968,-239.3665,-218.1980,-312.9743,-242.6754,-282.8198,-191.0169,-209.0760,-172.3849,-21.6307,-74.4837,-171.5104
69.5472,72.3297,-82.3213,-135.2614,-123.8658,-77.1733,-176.9295,-177.2757,-253.2897,-210.2156,-325.3212,-273.0812,-270.2815,-166.6903,-220.2260,-119.4429,-96.9878,-110.2809,-147.7306
-0.2931,3.3261,-189.6229,-249.2473,-172.7312,-98.1841,-155.8848,-110.3281,-198.6327,-184.7064,-378.7871,-279.2915,-169.0704,-155.2088,-93.4895,-88.4100,-209.1207,-199.9110,-148.7291
-134.2611,-91.6831,-354.9269,-415.0802,-319.9302,-226.8180,-192.2956,-126.6173,-179.6291,-211.5070,-469.8252,-298.6765,-71.0787,-174.5434,-23.3073,-124.8568,-353.1296,-321.6034,-241.3256
-218.9669,-139.2496,-518.7599,-526.9299,-513.0496,-395.9435,-249.0849,-263.2691,-219.6195,-267.1363,-551.5849,-356.1945,-70.5799,-173.3183,-96.7165,-195.3538,-421.1198,-396.2343,-336.8271
-209.5253,-118.8149,-596.4003,-499.4438,-609.6360,-436.8391,-280.6578,-397.8969,-257.1156,-274.7682,-574.0854,-379.9448,-157.6584,-165.7856,-200.1643,-240.2670,-390.5167,-358.4087,-368.6947
-174.3439,-78.4118,-565.2624,-397.5220,-542.6017,-322.1713,-314.0550,-375.5662,-288.5179,-211.6246,-531.7057,-332.3314,-231.4770,-177.1519,-248.4118,-219.2508,-393.6492,-237.7149,-370.8073
-156.3515,-66.2107,-504.4598,-352.9662,-399.8332,-174.3008,-350.1969,-226.4100,-317.5512,-129.4092,-450.7068,-294.0917,-212.2464,-154.9448,-242.6018,-147.2088,-463.7147,-145.6331,-328.7992
-136.2378,-80.9033,-473.9666,-382.3919,-315.1889,-88.6336,-315.2704,-123.5212,-289.8324,-90.0105,-376.5693,-297.8395,-148.8577,-79.5536,-197.8630,-82.3660,-477.0819,-148.7846,-228.6633
-110.4320,-73.0512,-451.2504,-388.4109,-334.6389,-75.4452,-213.4823,-125.7411,-202.8881,-100.3252,-359.9875,-274.3764,-147.4501,-15.8697,-145.2900,-51.5528,-400.7292,-200.8973,-169.2487
-89.5481,-9.3012,-433.7093,-325.3594,-406.2548,-112.5905,-162.6314,-140.1479,-139.5690,-95.2460,-405.4824,-217.8327,-184.1736,-7.0908,-94.8757,-39.5310,-334.3481,-234.8838,-208.5484
-74.5309,77.1980,-463.7355,-246.4878,-458.5493,-164.9009,-206.8683,-107.9477,-131.5611,-8.8754,-461.5990,-183.6190,-144.4978,-34.4478,-22.1060,-39.8932,-326.4404,-237.6214,-267.5966
-88.6491,130.1814,-526.0793,-202.5019,-456.4428,-183.1415,-260.1909,-38.0009,-126.4006,124.2427,-483.7039,-156.6007,-41.4342,-49.9065,55.7707,-41.6489,-348.5466,-215.5230,-277.5993
-151.5283,126.6898,-549.9459,-204.6169,-400.3374,-144.9295,-250.3367,69.3800,-109.0012,207.2422,-463.3688,-111.7988,21.2298,-10.3846,110.1316,-11.4896,-379.0457,-181.0145,-241.1946
-219.0025,84.7526,-506.0480,-242.9060,-307.9499,-92.3372,-190.8235,171.2410,-119.0074,210.7555,-395.6343,-89.2863,46.5034,58.7490,144.4963,47.4277,-390.7232,-154.6201,-187.8220
-227.8114,60.8751,-411.2796,-258.4936,-196.4981,-76.9831,-136.0419,175.0789,-142.5886,170.2340,-278.2318,-85.5235,80.0422,84.6367,121.3234,80.5494,-336.6399,-118.7740,-171.4522
-172.5503,103.3730,-284.0793,-184.9702,-72.3918,-70.5096,-112.4043,87.4265,-122.2094,109.1103,-160.8283,-40.9331,79.0224,70.4058,35.9233,64.8333,-205.6843,-40.6997,-193.2466
-95.5210,174.7179,-160.6637,-57.7517,38.3977,-1.6281,-72.3727,16.5679,-65.8174,48.9083,-130.9528,23.1529,25.4734,86.3480,7.4517,51.5499,-46.6410,49.3153,-166.1393
-36.6040,196.1914,-94.0335,29.7055,73.3466,125.7389,24.9513,-8.9270,-21.4106,3.5154,-194.4731,40.7060,-17.8685,137.9197,55.2239,90.2076,73.8649,104.6845,-84.1066
-3.2427,173.0607,-90.4381,62.5255,11.7190,237.2222,102.3893,-51.9012,6.4066,-51.3165,-239.4049,39.5456,-48.7588,159.2500,29.8696,144.0656,123.2191,141.4470,-51.6402
20.8715,174.1453,-101.6196,89.0667,-72.7538,294.6504,78.0950,-104.9894,14.1750,-94.4380,-197.6720,80.1768,-101.6934,121.8162,-57.1569,154.3445,117.0695,184.2639,-68.5338
37.2250,211.0579,-98.1960,135.6297,-108.8286,319.8736,25.7620,-85.7029,-12.3120,-42.4556,-136.0521,140.8921,-113.1108,73.3098,-37.7435,160.9006,94.1359,222.8639,-33.2760
40.0055,246.4028,-93.0329,211.0433,-107.9333,334.6149,40.6863,14.7918,-24.7900,84.5335,-107.2113,183.7701,-33.4985,66.9603,48.4798,218.4513,93.6393,261.6557,40.9387
57.8913,291.2666,-83.8747,311.8306,-95.3983,343.7438,68.4113,112.6553,11.5737,169.1425,-64.5354,233.9030,44.8070,90.4593,42.7019,257.1528,140.4802,317.4336,64.5060
115.5104,380.5489,-40.7522,395.0945,-64.0558,359.2535,38.1074,167.2602,21.8490,198.6764,12.8809,304.2433,51.2477,103.4378,-7.9667,223.1673,208.0284,373.9363,56.9498
175.9342,459.5866,25.5568,404.5169,-29.3754,373.5789,-4.4254,225.9836,-33.2617,226.2356,76.6180,322.4231,58.4796,101.5834,20.1446,206.8961,221.6315,394.6607,86.5751
198.2905,420.8567,55.0176,315.9832,-17.8317,324.4610,-20.7567,302.1662,-69.7358,215.5367,108.6752,221.4747,129.1326,73.8404,97.9044,234.2561,155.4594,346.6035,118.7614
193.2687,277.5909,30.0981,161.5138,-1.7244,173.7437,-45.8952,314.2722,-55.5318,151.2880,125.1595,74.1784,206.6424,-10.8244,137.5823,190.6773,78.2870,221.5704,78.5496
167.2610,164.1325,-3.8188,31.5860,45.9913,7.9626,-74.8976,218.2448,-51.6062,122.6541,119.8881,28.1392,212.5981,-106.3245,111.7445,81.2552,47.6898,78.3276,-6.0821
111.1210,135.6709,-25.5384,-10.3445,74.4016,-50.8044,-63.7304,100.8262,-51.1156,148.3455,94.7721,86.1260,148.0721,-131.9819,62.9159,31.4850,31.0549,0.0683,-44.4992
63.3942,125.7776,-52.4081,-14.9975,27.1770,-8.6590,-36.9636,46.6949,-12.9602,146.1006,72.1886,98.6526,77.9460,-118.5708,67.0116,28.9610,-11.1318,-12.0402,-35.8708
69.2921,107.9354,-78.1449,-44.1584,-69.6321,43.9057,-44.8716,19.7043,12.8846,108.6440,51.4500,22.0879,42.6113,-124.2651,101.9814,-4.8598,-45.4994,-13.1278,-50.3836
93.6442,118.3622,-93.6397,-47.9346,-155.5804,74.6992,-62.9891,-20.8451,-17.5905,96.9378,21.3347,-16.8477,15.1942,-108.8649,64.2866,-28.0841,-34.0172,-6.7044,-68.4092
75.6910,142.6734,-124.6485,23.0235,-200.4643,100.7792,-45.2906,-10.2765,-46.5128,121.8396,-9.8453,39.9256,-13.2740,-64.1577,-7.9183,1.5008,-4.4839,39.0219,-13.5249
29.0546,148.4151,-162.2761,109.4246,-192.7677,131.4606,-8.9606,95.3156,-26.2948,165.0511,-24.4206,114.1382,11.6084,-58.2648,8.4149,46.3853,8.7313,110.2363,66.7345
11.1338,166.9167,-141.1853,163.7113,-140.0977,177.3802,4.4914,200.7542,0.5593,210.1900,1.3357,174.0192,83.7819,-52.5447,60.1274,98.2609,18.8466,157.6597,63.9496
35.8786,217.9839,-51.1745,215.7347,-83.9122,219.7031,-0.4855,204.6750,-3.8497,233.4515,75.6756,247.6109,112.6906,51.0823,30.3553,152.8611,40.5311,152.5002,12.8441
67.2001,244.2471,35.4545,253.1241,-54.4761,198.1213,20.4119,145.5907,13.4067,244.0833,156.0391,289.6887,92.3373,181.1134,-34.1128,167.3649,64.6703,100.3090,17.3265
77.2914,197.1211,74.8716,214.9428,-38.5919,108.7026,82.7440,103.3178,105.2666,256.4661,200.5033,242.3022,102.4893,189.2312,-58.6654,152.7791,88.6324,30.6471,56.6210
80.2070,112.9023,90.6392,122.1309,-18.9469,22.3683,131.8299,73.5242,188.9737,232.1478,226.7316,159.8042,145.2355,95.9333,-61.0285,138.3710,107.5701,-15.1186,54.0038
91.2309,70.0462,106.2378,57.3569,7.5535,-23.7749,111.3429,42.8705,153.3538,177.2076,246.4855,130.0058,175.3188,27.3575,-38.9365,89.8794,103.9348,-14.3261,18.1068
82.7314,101.7589,109.9270,43.2835,41.2688,-39.2845,45.4125,45.7915,62.5921,174.1078,225.1276,155.9978,193.6710,14.8576,0.1393,12.0001,86.2921,5.4257,-19.3236
37.3077,158.3537,78.3083,52.2035,51.5306,-23.3150,-16.4833,56.7267,30.7586,199.9824,167.3433,191.1031,176.0983,5.1461,-28.2049,-35.9364,77.6370,-7.8737,-72.4740
-0.0841,167.9006,12.8997,67.0740,-7.8340,6.1991,-66.1890,-7.2580,14.2425,135.3993,130.2801,210.3316,93.9752,-10.8439,-123.5783,-60.8340,66.8957,-57.1626,-128.9421
3.6929,120.0963,-46.7053,66.7950,-104.0569,10.1026,-74.3784,-116.3066,-18.4342,14.5784,128.2464,213.6368,28.8289,14.2420,-168.4701,-77.1683,47.0636,-92.1505,-128.4604
17.7994,52.0840,-65.5337,38.8745,-146.7357,-4.8731,-1.3056,-150.2345,23.5214,-18.5406,135.1583,205.5950,44.1613,75.5470,-145.2048,-50.9970,48.0563,-91.2263,-59.3310
30.5749,5.2109,-47.2640,29.8327,-125.8273,-9.0241,73.1719,-104.6835,91.9086,10.9876,160.5589,195.4977,62.1634,87.9657,-140.6117,-24.4896,76.2324,-74.1061,13.0377
74.7550,37.1855,0.5380,88.4234,-95.6774,-8.4975,31.8427,-71.2998,32.6522,-16.5099,221.9465,204.3671,55.0882,15.7146,-156.6876,-61.2175,105.8833,-40.6159,41.7307
131.9111,168.4871,68.3773,164.7316,-56.0375,-13.0694,-59.7745,-51.9860,-62.2044,-45.1333,278.3051,234.4180,107.8150,-67.9597,-135.6575,-81.6208,127.3615,5.9100,56.1248
145.4594,290.3785,105.8877,162.1254,1.2087,-16.8552,-43.1711,3.3086,-3.7876,39.7679,278.8758,243.1026,198.7476,-95.6440,-77.9691,-2.9309,125.7331,15.3037,90.5985
132.9398,273.9386,85.4180,75.8270,18.1206,-29.6997,74.2338,47.6319,117.8137,138.4517,250.0062,214.8141,227.9414,-74.0263,-6.0967,93.8334,89.8966,-34.8057,107.9104
151.2602,167.7192,72.1016,-1.2954,-21.0323,-54.6300,158.0232,9.2490,129.4987,85.8323,259.7540,213.6061,216.2499,-39.8155,58.4823,110.1858,75.6012,-89.7056,64.4627
183.4166,122.1178,119.4302,0.8956,-37.3983,-61.4714,159.4152,-61.1775,80.7159,-39.8949,307.3782,269.0636,206.4273,-34.5225,65.5334,66.0260,123.5983,-95.8001,22.2036
172.8563,155.6867,174.9667,60.2485,2.9431,-26.1828,135.7112,-49.5692,72.7471,-43.4120,319.2938,305.4756,160.6172,-70.3652,17.8895,34.4728,160.0922,-40.3762,80.8002
121.9462,173.0066,186.4690,111.4537,50.6218,48.8566,131.9465,71.5768,89.8398,70.1057,270.0482,279.9821,120.6427,-102.8044,4.3819,56.8702,130.3257,72.2153,204.9814
81.3395,149.8298,185.8597,121.7183,87.6764,141.1372,128.2551,221.0400,100.8845,160.9151,229.2600,243.2046,178.3527,-116.9479,45.8807,91.0371,95.2918,185.0225,267.0745
77.5877,124.0211,196.1952,90.0495,127.4323,194.1867,96.1296,300.5320,98.6297,199.5663,246.8568,208.2420,266.2779,-161.8202,72.1632,64.2455,83.8690,205.7732,260.9181
87.2542,87.2363,181.8417,14.1022,148.3128,161.4685,74.7040,286.8937,84.8992,224.4506,273.8552,143.0534,277.2865,-231.4856,101.5107,14.2404,54.8807,141.4110,288.6331
77.0400,39.4250,132.2974,-74.2592,140.1429,81.7243,105.3847,236.1589,94.5969,212.4934,252.5115,85.3938,258.3497,-261.9450,192.1378,20.7154,32.6222,95.6819,342.6728
60.5713,40.2997,88.3786,-89.2057,131.6024,26.4953,121.8254,198.8338,127.2865,152.7625,209.0117,90.6021,258.7095,-251.6290,240.7688,39.6991,58.5909,98.5059,328.4063
82.3824,93.9906,73.4548,-4.0661,128.6570,-3.4326,71.6342,179.2413,121.6052,94.3515,196.4210,130.8770,230.7676,-233.5618,148.2267,17.5134,80.6761,85.6162,273.6071
140.1321,124.2272,70.5658,81.4833,114.6222,-38.7844,45.7272,183.0028,69.2188,61.9688,209.4683,160.4894,187.8394,-207.3193,57.3741,6.8892,62.6893,38.8867,264.9622
182.0451,118.5241,62.1526,83.1410,88.2954,-62.4465,86.0137,203.9132,24.7314,51.8617,215.4004,170.3902,184.5750,-189.6435,83.4359,16.2768,47.7517,-4.2888,247.2194
179.5262,127.6482,48.3633,36.1350,43.0001,-65.5644,75.3875,161.5883,13.2961,54.9781,212.2094,143.1338,168.0082,-202.4225,67.1289,-9.0952,30.3941,-45.0281,130.6759
142.3010,133.6315,29.5160,-13.0540,-24.0947,-92.5773,-7.9019,3.9152,24.4874,21.6290,203.0309,76.8261,89.7394,-211.8785,-74.3886,-39.5169,-33.8415,-96.4648,-5.8949
84.8728,84.8248,-4.2023,-75.2290,-76.6932,-136.1035,-28.7315,-139.2367,32.5508,-53.6999,167.0462,19.9905,32.8968,-192.8828,-134.1691,-32.2880,-104.6399,-118.9124,-26.4514
21.0747,0.2444,-54.4405,-134.8230,-93.2775,-106.8820,24.0571,-103.0017,17.9691,-64.0515,101.4727,-2.8627,54.9031,-169.9045,-24.6992,-22.8645,-118.9500,-77.3021,55.4165
-30.9438,-60.4967,-87.8689,-132.7994,-98.2182,7.6681,27.7903,45.6357,5.3711,15.1965,49.3343,-11.4534,86.5246,-155.6350,52.1108,-18.9641,-82.2033,0.2525,120.0948
-51.7400,-48.1313,-55.6210,-48.3354,-87.2783,103.5582,-28.5355,113.3449,-2.9520,48.4320,47.5226,2.1118,76.9291,-159.6193,7.4601,-7.4348,-9.8721,70.8718,112.7607
-33.5434,39.3468,31.3439,70.4630,-35.0422,127.4250,-66.7160,79.9925,-53.9102,6.0668,73.0805,44.6696,62.0155,-195.5046,-10.1370,-23.4097,75.3336,112.0257,91.6196
-2.4486,106.3775,83.2383,134.0047,16.9161,106.0457,-63.1886,53.9649,-98.3618,7.4803,74.3455,63.0362,63.6138,-213.8732,59.1898,-47.2362,98.4108,96.8482,113.9531
9.9114,69.0624,40.1621,78.8276,9.0577,24.6918,-20.9731,39.5578,-37.0086,35.6004,50.1844,29.4977,57.7737,-163.5488,104.5446,-20.1757,28.0463,16.5134,128.5938
18.9260,-2.7659,-40.7725,-51.2281,-32.6535,-119.4371,36.6697,-15.3129,53.1968,-22.1562,58.7450,4.0112,39.8942,-94.1570,66.1740,9.3042,-62.9370,-74.4195,77.7873
42.1285,-30.1719,-63.4832,-149.4534,-41.7359,-224.1369,44.3307,-65.6665,36.1110,-106.2425,124.8474,25.3490,33.1848,-62.1383,7.3510,-13.0139,-106.6036,-107.2545,35.4239
51.6141,-53.7376,-2.1029,-165.9537,1.7923,-224.2104,-1.3917,-52.8949,-35.9559,-116.3343,197.5072,51.0050,41.2803,-51.1316,0.3951,-37.4251,-82.3468,-80.9657,69.6024
53.5802,-57.2119,108.3162,-102.5038,70.2680,-183.9947,-28.0091,-14.4730,-50.9152,-118.8147,236.3948,56.2504,47.4168,-51.1677,40.3132,-51.8296,16.2080,-50.5002,98.1327
85.7703,28.7611,196.1747,10.6865,100.0812,-157.5429,-17.4062,-1.0898,-1.2771,-147.5254,242.7587,62.4688,51.7258,-58.2907,71.6445,-79.2170,108.9791,-66.6097,72.5978
87.2742,80.9490,157.7143,51.5931,24.8248,-147.2026,16.5759,-6.3749,95.2848,-103.2923,183.4623,46.2103,66.7726,-26.0873,81.0897,-51.3593,55.1751,-149.3869,93.3053
-18.3130,-55.8784,-30.1919,-95.8438,-136.5819,-181.1276,108.7762,-24.2304,195.6546,-13.4325,34.4314,-35.2111,85.3173,50.4542,97.0876,43.0749,-128.4140,-274.7600,177.3254
-136.7480,-243.3330,-224.2720,-329.2357,-276.8598,-245.1525,229.4431,-76.0535,212.0560,-29.2286,-104.2150,-122.8865,93.0658,103.0187,103.0381,69.7403,-264.7948,-367.3990,179.5753
-146.7027,-280.0048,-269.1335,-424.7479,-310.3532,-248.5220,241.0404,-154.3683,146.8198,-129.1588,-106.7915,-111.7714,93.5466,93.2402,64.8572,-6.4004,-271.4767,-350.2541,57.0438
-106.4985,-226.9917,-169.4719,-333.1445,-231.6255,-170.6424,106.6150,-192.6099,63.0907,-173.4062,-1.7029,-19.2204,82.7503,43.2309,3.8549,-66.7593,-201.4553,-228.5644,-39.4684
-102.9902,-201.0409,-26.9470,-183.5601,-92.3725,-81.2431,-26.4428,-134.1200,-41.4476,-165.7841,86.7187,54.4869,46.9306,0.1078,-46.5537,-70.1709,-85.9523,-92.3676,6.8199
-107.9644,-165.5778,76.1916,-72.4564,31.6981,-15.8573,-40.5875,-29.0721,-125.1641,-172.1159,98.5276,99.6715,11.9965,6.6184,-61.8832,-70.4696,45.7620,-11.8147,125.8950
-116.0104,-95.1388,95.5160,-14.1145,89.7679,15.3172,3.0743,15.7009,-89.3530,-147.9954,53.9037,163.8343,16.0311,33.0183,-10.7526,-78.0012,104.3698,21.7161,169.2818
-162.4662,-44.0249,50.5330,-6.7263,88.0369,-7.0189,2.8396,0.1475,13.2704,-49.5102,5.1163,199.7106,30.7488,13.8828,58.7959,-69.0715,66.0411,21.5185,110.1436
-185.2242,-26.4179,20.6416,-31.5410,56.2927,-55.2595,-25.1223,11.3924,49.1147,57.7560,1.0937,130.6760,6.7105,-16.0702,41.3889,-38.4669,22.3111,-40.0713,54.8078
-115.2500,-19.1298,50.8612,-39.3750,23.2568,-95.0053,-27.5179,39.6602,22.8636,90.7429,42.6910,19.0124,-31.3300,0.7467,-25.0141,-13.1255,37.2084,-149.0495,39.1021
-19.8330,-10.9386,122.3617,3.6030,22.6611,-146.3345,-34.6542,-3.7000,1.0068,38.7947,96.8569,-6.2081,-35.9590,2.5204,-5.4537,-39.7554,94.3240,-233.2591,-5.9953
16.7319,-1.7308,193.3969,61.1948,48.3964,-204.3485,-66.5574,-107.8527,11.7161,-23.6905,137.1584,54.5533,-34.9676,-43.9714,76.0696,-96.0223,157.9411,-280.4599,-51.3516
15.1664,-23.5951,197.4371,57.9656,34.2850,-221.9003,-51.0076,-180.0658,72.0832,-4.6079,131.2314,102.3031,-77.5125,-40.1437,103.0214,-97.2212,177.7970,-343.5635,-5.2709
21.9066,-87.1070,101.6694,-10.8186,-45.3105,-197.2403,28.5656,-185.7591,115.4347,55.5881,75.4593,109.5927,-129.5329,28.9468,98.0397,-50.9362,114.5373,-412.8011,65.3866
34.6475,-121.0649,-4.8997,-70.5943,-118.6512,-148.0051,73.8665,-149.3708,58.9430,23.2672,46.5431,110.3973,-107.0579,46.1294,132.3180,-28.4671,5.8165,-428.6011,52.0945
27.7163,-100.1611,-23.1677,-94.2697,-119.6019,-74.1818,53.9446,-99.7858,8.0737,-71.4283,95.2208,91.9856,6.0758,-0.4534,166.0663,-13.9494,-81.1673,-405.0918,12.8345
-0.4946,-99.6186,10.9053,-114.6963,-71.7284,-20.9342,35.3142,-69.1663,61.0653,-67.1776,153.0632,45.8013,121.1513,-18.5422,153.6984,13.2382,-126.4580,-403.6123,4.8728
-4.5343,-111.1538,30.1243,-110.0585,-32.6823,-33.3931,16.8816,-72.7459,66.3596,21.3868,162.5654,38.2059,140.1614,-11.9032,126.0795,-6.8899,-119.9851,-418.9502,-45.9096
43.3234,-45.0370,50.4088,-39.0892,-18.3214,-68.0813,-43.1304,-98.3464,-58.1202,43.9543,168.5033,94.2264,77.1141,-41.5971,97.6391,-75.0442,-47.7616,-399.0979,-151.6114
84.7234,48.6123,87.2117,48.0077,-2.0196,-80.9609,-103.6259,-132.7576,-128.9914,-5.4692,204.6902,133.9475,40.3804,-86.0019,58.4155,-121.0678,55.8239,-338.0739,-218.4540
72.0254,46.8105,120.5830,86.7776,41.3083,-85.1276,-120.6911,-144.7271,-82.3629,-41.0557,240.1527,128.3504,88.0525,-89.1772,50.4585,-144.2430,140.5603,-277.9177,-223.0073
52.7592,-16.4224,149.7166,93.0921,91.0968,-72.7925,-133.5004,-96.6576,-81.7743,-61.6215,247.2339,139.3083,167.0286,-54.5520,110.2642,-166.1933,180.2718,-249.3682,-219.0852
51.6332,-40.8085,149.7360,71.8078,88.0187,-53.5448,-172.9385,-29.8664,-154.7746,-78.3294,222.3854,150.8133,207.9481,-18.9772,178.3045,-158.5941,128.1418,-258.7666,-244.1757
18.8112,-41.7175,69.4296,-27.8543,6.1581,-107.2241,-200.7998,-27.0405,-169.5317,-68.6552,185.0951,90.2693,198.0797,14.0663,181.0316,-130.9593,-39.4673,-313.5026,-297.4191
-37.0163,-61.3402,-56.0023,-189.6879,-107.0377,-236.4510,-170.3225,-74.9767,-111.2808,-58.8077,164.5287,14.3028,146.5554,69.2121,142.5097,-118.2560,-222.7364,-398.5090,-312.8983
-47.8751,-68.6646,-137.3510,-294.8986,-188.2134,-312.2798,-83.7979,-102.7642,-57.9824,-71.8073,131.2889,31.8034,61.1538,132.6151,112.4338,-91.7747,-292.6057,-439.6474,-230.7338
-27.5809,-50.4994,-170.3877,-263.4247,-222.3327,-260.4874,8.0429,-114.9105,-12.7440,-73.5601,31.4786,107.9438,-28.6443,166.8526,74.7778,-29.8769,-248.7522,-380.8714,-131.2935
-43.1590,-48.1612,-196.9268,-149.2751,-218.6991,-132.4584,72.1223,-145.5096,50.7715,-59.4566,-83.6099,151.9846,-79.6112,207.9305,39.6410,34.9732,-163.9925,-268.1446,-106.7310
-85.1797,-63.9979,-198.2237,-54.3498,-161.1829,10.7378,136.5915,-148.6986,83.3914,-36.7050,-109.0069,170.9724,-67.3065,312.8498,79.9959,101.7778,-72.5206,-157.6602,-82.6041
-97.4732,-52.2318,-145.3995,-0.3237,-45.5504,135.2917,200.2713,-57.0380,23.6363,37.2392,-50.5642,188.0708,-4.4285,417.2819,164.1451,184.3546,-4.9345,-38.2717,3.8968
-81.3112,-9.1590,-74.5436,41.2576,56.5202,198.5715,190.0068,91.3374,-61.8261,144.1120,1.0616,169.4938,58.7777,422.0099,166.1328,236.3415,-10.1594,56.4302,52.9435
-81.7393,18.0634,-43.9365,38.6760,61.2339,164.5293,99.5346,164.2442,-50.5310,183.5459,2.2152,115.6071,75.2033,359.9079,106.2144,205.2593,-78.8441,37.2335,8.5942
-100.7036,15.2795,-61.5497,-37.1935,-3.2721,49.6313,19.8447,96.0894,7.4842,141.6216,-21.1229,89.3432,52.5939,313.9302,105.4322,103.4904,-131.3461,-55.0320,-47.9107
-88.8406,22.0344,-74.9123,-85.2057,-33.5166,-45.6395,-21.8175,-10.6272,-25.7994,98.5773,-23.5937,131.9494,32.4709,286.0984,137.5787,-2.4066,-108.7056,-72.0800,-81.7631
-40.5282,57.4675,-42.6464,-2.7580,-6.0020,-16.3646,-77.0048,-28.8506,-97.0524,100.4181,1.7420,217.0218,37.0595,252.9729,122.5364,-44.8702,-42.5312,2.7905,-131.6777
-24.4868,88.3371,-4.1862,118.8202,8.8688,86.9045,-140.3326,10.5148,-81.7410,149.4060,14.4524,269.7261,67.1446,226.0604,116.4391,-30.8742,-21.7832,52.2489,-187.0843
-67.2279,83.0430,-15.8612,124.2660,-27.8446,113.3304,-157.6197,10.9757,-30.1172,201.4544,6.4009,237.9640,96.4107,223.8708,155.8119,-21.0045,-78.8269,22.6936,-214.8306
-101.9257,50.1513,-52.9735,30.1552,-88.8713,48.3928,-125.6281,-21.0994,-11.0474,171.9803,16.2907,166.5089,70.4158,245.9252,150.7422,-14.4699,-139.6537,-37.1760,-218.6084
-83.3178,25.5102,-60.9644,-32.1889,-140.3091,3.6427,-89.5162,-37.2332,4.1242,86.6043,38.9646,139.2273,-4.5947,245.2466,85.9379,14.1784,-135.1562,-58.9463,-200.1934
-48.4273,39.4295,-40.7987,-9.2297,-152.0944,11.4768,-84.6404,-30.5216,-20.0940,85.2775,38.1649,158.4932,-36.8693,168.7431,60.9658,16.8988,-98.3673,-9.2472,-157.3003
-48.3459,74.6884,-15.9098,48.3945,-100.0463,32.6150,-102.0373,20.2848,-108.2825,190.4074,21.4997,174.5219,-1.7967,74.0135,99.3512,-18.4982,-81.0264,69.3011,-107.8716
-94.9526,73.6304,5.3704,71.8222,-14.2162,67.7930,-101.1133,119.4906,-138.9097,295.6107,-2.8116,177.9512,13.4644,67.8927,137.2421,-8.7235,-69.2008,104.6313,-62.6313
-142.6841,19.9434,12.2655,35.0172,41.0719,109.8004,-67.3178,186.4591,-57.4625,357.7065,-40.8776,168.9589,-17.5470,124.8673,143.1543,56.7369,-51.2115,105.5113,-20.1102
-118.8822,-32.8376,15.6201,-26.9915,60.6447,118.5104,-11.8420,182.4712,60.3574,381.9968,-44.9766,120.1839,-22.2393,153.8821,130.7499,109.9570,-51.4714,127.0361,14.6332
-40.2108,-44.5902,56.2268,-50.5377,89.5481,108.4707,65.9635,184.5451,189.6550,352.4756,15.3381,40.4917,15.0441,163.1767,125.9330,156.4974,-50.1859,165.5258,39.6417
-13.8739,-33.8915,127.1727,-2.1816,127.6386,129.9344,127.7850,220.7968,257.9586,304.3425,63.2175,-6.1554,41.0846,186.1644,134.1833,199.0718,2.2312,196.5649,48.7028
-64.1484,-17.4090,156.4809,93.0646,137.4365,175.2097,99.1587,227.0886,139.0594,288.8203,32.4358,20.1658,51.3511,192.2888,131.8157,166.9361,74.0930,229.0062,23.2378
-115.5655,25.1447,106.1579,170.5195,117.1711,200.2592,6.3811,205.6609,-30.3269,285.5560,-42.7477,89.3761,82.7618,170.6707,146.6387,89.1646,87.5637,258.5409,-26.4678
-141.9394,95.7834,23.9652,184.0459,86.8339,194.2638,-39.4281,218.7526,-21.0697,293.0805,-104.2943,135.9103,147.1533,150.4168,248.2888,81.9439,52.5162,267.6870,-52.8946
-150.2741,135.7620,-20.2791,146.7831,54.5309,180.2000,-15.0272,257.1824,56.1286,349.3767,-108.4734,119.3375,221.5919,139.1016,378.1117,124.3583,34.9095,262.4606,-33.3344
-110.4598,90.2044,-8.1227,98.9795,41.7216,181.2808,25.0978,272.4966,35.1683,400.9182,-44.8303,63.9224,251.3272,136.9265,378.9095,124.4042,37.1494,248.1999,4.5279
-38.0041,1.7612,27.8334,73.6988,67.9900,196.4839,57.7137,253.6470,30.5942,354.4894,20.2733,30.8268,206.8713,141.8697,249.1272,104.7585,34.9635,234.4057,22.2848
11.1467,-33.9767,58.0961,100.5261,106.2463,207.7493,60.7983,202.1378,78.0685,223.9690,48.4741,45.1154,153.4203,139.5395,148.0247,103.1390,58.0952,252.5456,8.7694
59.8321,-0.2061,93.2489,171.0948,134.6160,212.0187,21.4222,136.6334,36.6509,87.2230,115.3718,78.7484,161.9752,149.6057,147.4508,83.5350,127.6790,291.5930,-6.2674
141.7410,45.0428,160.5663,221.4188,184.0919,211.3648,3.4578,100.4699,-27.8005,5.9819,240.4078,100.5238,192.8919,183.1007,165.7210,47.9375,201.6292,295.4926,18.8660
197.1756,73.1967,249.9862,219.6052,252.7135,184.7088,43.9091,85.7750,24.3667,6.8843,310.2443,111.2593,176.4705,178.8164,122.3980,31.6231,243.2879,260.1762,78.1586
189.6326,86.6477,299.6498,200.1672,265.8910,123.8229,78.2963,42.5968,96.1549,29.0002,279.2079,135.2661,121.7215,134.1450,43.9587,17.4305,246.8969,212.3281,119.9031
172.2428,79.2602,260.0569,169.6085,193.8671,64.1546,82.0337,-17.4780,103.8664,-15.9127,219.0031,180.6748,74.7523,145.2897,10.6534,-4.8359,196.8250,138.4156,119.4135
166.3669,66.4713,166.6402,96.5015,107.2366,36.6927,96.2844,-49.5863,111.5733,-94.1177,167.4688,198.4930,66.4188,194.1400,34.9352,-11.6136,102.6169,57.9059,106.7333
135.0947,60.5489,88.7099,-8.6673,69.1949,30.0034,99.8661,-60.8674,95.3215,-123.1592,123.7188,118.2013,104.5653,162.3103,55.6585,-15.0230,13.3350,34.7133,106.0233
65.5422,14.8721,18.5904,-119.5761,54.3800,11.0890,64.1611,-65.4512,24.8544,-123.0668,94.7586,-43.1605,151.7248,79.9412,52.0768,-28.4427,-67.9920,37.7899,89.3253
-16.0208,-82.1414,-78.4651,-227.1556,6.7523,-42.6260,38.0953,-54.9575,1.8802,-135.0829,52.5372,-165.2151,157.8798,47.3913,46.0941,-31.8602,-161.2558,-14.9293,28.0419
-57.5023,-135.3453,-143.5024,-278.0958,-61.8074,-107.8773,27.1256,-56.2670,27.9520,-139.4685,-14.4889,-166.4374,119.7692,25.8148,16.5473,-44.4685,-198.8109,-67.5749,-41.7114
-23.7750,-94.5530,-103.9685,-218.1479,-68.9060,-116.9247,-21.1088,-85.7973,-0.8391,-137.6446,-39.8888,-94.0700,62.2947,-19.2268,-43.4270,-87.3836,-111.8665,-8.6833,-60.3040
34.1920,-42.4840,-7.0298,-110.7873,23.0726,-51.6543,-59.0457,-87.0188,-40.5651,-149.9255,8.1586,-28.9595,16.9032,-9.2720,-70.6384,-101.8015,20.1371,103.4131,-28.1488
49.3697,-38.3526,62.5519,-64.5193,138.5383,-1.9434,-6.2313,-48.9389,-17.8902,-153.9142,67.2628,8.1837,11.0100,44.1397,-53.8975,-69.7736,78.5699,120.2258,9.0919
41.8809,-46.3200,89.7890,-89.5713,190.6728,-47.9829,71.7188,-58.6085,7.7154,-147.3265,81.9058,14.2853,8.3522,28.6297,-60.5769,-83.9575,68.1582,40.5017,31.7478
27.3096,-66.1670,72.8869,-140.5940,174.5042,-138.3541,69.4732,-130.1764,23.2989,-170.6902,40.4384,-31.2192,-46.2101,-54.7299,-88.4979,-167.0259,38.2138,-27.0504,48.4995
-37.4738,-148.9616,2.0282,-202.0105,109.3258,-183.3431,13.9022,-174.2469,76.7323,-215.6800,-41.5309,-119.6689,-92.9288,-132.9486,-65.8121,-225.2161,-15.3845,-66.0475,54.9130
-120.8372,-264.3348,-81.6174,-259.6673,6.7060,-203.2927,-21.4374,-179.2408,117.4932,-225.9517,-104.1233,-207.5087,-49.3866,-201.7595,14.3307,-235.0931,-80.1514,-137.1756,33.5512
-138.5865,-313.5380,-132.4006,-284.6604,-80.5783,-262.1644,-29.8099,-199.4505,119.1747,-179.4880,-109.5991,-259.6624,9.0078,-249.9795,88.6603,-246.0220,-105.4710,-210.2420,-5.2074
-116.4434,-276.5122,-157.6494,-266.7974,-97.6286,-317.7270,-12.6283,-203.3584,162.0677,-105.4885,-101.0608,-254.8722,-17.5192,-232.7786,103.4100,-231.6741,-85.8568,-190.5639,-6.5929
-121.6950,-231.7147,-158.4432,-219.7210,-56.3550,-286.0928,52.0771,-150.5105,231.2107,-63.1312,-110.2429,-196.0591,-64.6688,-179.8033,57.2415,-155.4596,-54.5339,-96.6362,60.0634
-134.9223,-234.1905,-121.0962,-172.2197,8.2001,-194.1951,138.0111,-96.3587,215.8954,-93.8247,-116.2444,-123.1177,-38.4719,-142.4490,13.4290,-78.8416,-17.0044,-34.6697,138.2565
-134.0742,-251.2949,-77.0168,-141.8886,75.7733,-115.1938,183.3413,-63.0043,125.3308,-158.2002,-119.1447,-48.9261,31.2621,-88.1716,29.5873,-49.2514,30.2594,-16.6005,166.8135
-140.5049,-231.7488,-60.9498,-106.5500,114.7466,-44.2210,185.2255,-4.6567,68.3051,-186.3344,-124.5187,54.6669,72.0754,2.6556,69.7986,-31.5510,63.6183,11.0124,155.8069
-139.2239,-187.1567,-52.4083,-60.8418,114.3059,15.3230,185.2422,33.1345,98.9482,-182.2426,-104.8764,141.5121,58.7276,51.4330,74.8887,-20.7772,64.7227,10.8837,89.4668
-107.6529,-164.6664,-22.2358,-61.5729,108.1350,-17.0775,178.2535,-35.3302,180.2454,-184.6744,-58.3523,108.8069,21.3722,-4.4687,64.3688,-54.6413,43.6993,-77.3148,-94.1444
-65.9762,-163.8680,31.0845,-127.0372,99.6488,-148.2764,133.4439,-149.8497,209.4852,-171.3068,-7.4649,-6.7586,19.7230,-112.8996,78.3010,-114.9363,14.2898,-193.0493,-337.2858
-22.5041,-139.4377,91.2519,-179.6498,55.2387,-255.4056,73.7082,-191.4522,128.5440,-101.7870,50.3333,-48.4979,48.7540,-175.0339,106.4609,-155.1080,-15.1373,-242.2596,-489.5744
16.6444,-84.1840,116.7815,-168.1765,-7.2026,-266.6981,35.2087,-156.0858,24.9750,-13.8012,95.4116,6.8986,35.3606,-161.5993,120.5137,-172.2095,-27.1881,-223.1234,-541.1395
19.6165,-45.3529,83.6236,-127.9645,-33.5081,-236.1783,3.3334,-102.7877,-13.4556,8.8291,91.5789,32.8256,-14.6392,-127.0995,101.0832,-175.0095,-2.1841,-174.0046,-594.4844
10.7374,-50.3053,38.7013,-92.9343,-22.6320,-224.9268,-27.8752,-76.9874,-41.4558,-52.3256,74.0956,-13.0755,-34.9115,-115.0403,45.6668,-167.5799,51.0337,-133.2947,-655.6736
44.1761,-76.7239,22.8243,-75.8275,-22.2827,-251.9037,-24.9782,-117.9424,-96.2512,-143.5499,84.1165,-51.3899,-44.3548,-108.5666,-15.3021,-173.1297,82.6921,-157.9485,-671.1810
75.6959,-101.0380,6.4012,-105.0124,-60.2355,-318.5258,2.5078,-200.0516,-93.6192,-231.7081,76.9654,-56.0880,-63.1905,-100.9388,-47.8754,-191.7165,46.7632,-239.0180,-653.4453
44.8840,-121.7264,-20.7080,-179.2736,-104.0505,-386.7141,1.3904,-232.8619,-13.6420,-303.0049,33.3880,-88.6774,-24.6023,-121.4430,-51.2941,-189.3594,-36.1355,-271.7659,-628.9921
8.6876,-133.3083,-16.3653,-247.7391,-82.9681,-399.4963,-28.6267,-191.9680,38.0916,-295.2129,23.0197,-166.3336,52.5785,-159.3363,-46.4857,-173.2314,-94.5325,-214.3054,-592.8048
27.0168,-121.8049,18.4357,-276.0232,21.7320,-347.4341,-41.7125,-119.5557,24.3342,-178.2588,71.2709,-220.0986,49.3188,-170.5283,-60.8092,-177.2265,-98.0971,-135.6877,-545.7922
54.8639,-90.7226,41.2218,-263.3200,133.9381,-254.9452,-30.3680,-30.9205,16.5957,-52.5818,123.3194,-200.4565,-15.1124,-156.8664,-97.5032,-178.3304,-83.8910,-69.9839,-488.6342
46.5291,-68.1165,52.7006,-212.3138,182.8850,-144.3910,-25.4449,35.8117,28.3384,-22.9972,154.4744,-147.7967,-16.0959,-137.7570,-105.8237,-143.5151,-68.5539,-7.1530,-432.4192
20.7981,-81.6897,78.9681,-142.9126,183.9540,-58.3802,-41.0903,6.2796,-0.2090,-76.8996,180.2475,-120.4222,42.8130,-105.5701,-59.2242,-113.5752,-15.1009,8.0766,-417.0958
5.0766,-125.1029,115.7069,-96.8504,171.0895,-46.0670,-58.3216,-94.5715,-51.2618,-163.4805,195.2990,-111.9516,79.9939,-85.6311,-19.3592,-133.7015,67.5637,-47.4835,-431.4862
10.7909,-159.1992,136.2345,-103.2713,130.8756,-104.7676,-53.3227,-163.9727,-38.6508,-235.3063,181.1876,-103.5267,90.4075,-130.5252,-22.4133,-167.9288,90.0195,-107.0542,-411.2083
25.6422,-162.2959,110.1837,-165.5895,44.2264,-187.7649,-39.8441,-184.1977,21.7754,-237.3528,129.3792,-132.9095,92.3012,-211.7136,-17.6050,-164.3771,11.5857,-145.6245,-370.2522
18.6401,-152.7502,38.7220,-257.1285,-59.5517,-255.0495,-48.7512,-198.8085,31.0503,-200.8481,54.9110,-219.2108,76.8788,-238.9662,5.8870,-136.3910,-89.2319,-207.6616,-365.7289
-1.8868,-150.7342,-17.1571,-320.7665,-124.6390,-291.4524,-54.1128,-205.8744,4.9638,-206.1816,10.1593,-286.0564,52.5340,-193.5930,-3.2803,-121.0851,-130.6653,-267.7997,-357.5693
1.9540,-162.5039,-18.6591,-312.9605,-140.6239,-305.9948,-3.7681,-188.3153,41.5170,-206.5733,32.2036,-259.0352,25.6292,-134.6051,-32.5042,-114.5589,-117.2864,-265.4868,-289.4608
23.1045,-191.8906,-9.3780,-236.6013,-144.1477,-312.7859,73.8495,-145.0433,103.3830,-131.5605,83.2940,-178.4756,-5.1750,-102.0983,-25.1516,-99.6506,-75.8454,-225.6925,-212.3664
33.7387,-217.4280,-4.7792,-122.1584,-123.5877,-296.1094,97.6168,-70.8993,72.9387,-70.9554,106.3666,-130.9957,-3.8545,-100.0324,12.7044,-95.7211,-5.5303,-174.4199,-187.4112
39.4389,-196.2139,58.0447,-14.8297,-17.0279,-221.7312,50.9983,19.7328,-22.3164,-90.1648,106.7605,-123.7784,54.4762,-125.3392,52.9492,-119.9080,81.3084,-71.6612,-187.0872
46.2117,-127.2622,179.3679,42.4130,157.9751,-92.2394,-12.7107,100.2992,-75.9174,-96.7382,120.3817,-101.1769,127.7190,-154.1964,98.1508,-136.9079,150.2226,63.8811,-160.0047
49.2807,-58.9853,263.6453,51.2695,300.0810,39.0498,-43.1907,157.5947,-97.2286,-75.0779,141.8437,-48.4377,170.1524,-147.8927,121.6304,-113.0993,183.8618,147.2442,-108.7416
63.5091,-31.9598,272.2666,47.5627,354.4537,121.1860,-27.1021,152.0716,-130.9218,-116.7002,145.7136,-12.2132,178.2182,-103.5256,81.9641,-68.0288,183.4877,168.3937,-90.4727
92.7895,-52.4420,248.9144,50.1847,322.4051,152.4641,7.8016,67.6262,-121.0560,-168.0351,148.2298,-24.9387,164.5018,-57.1967,26.0460,-22.4562,152.8205,170.7409,-137.5156
109.9577,-79.5430,210.3224,68.2001,217.0198,154.3506,26.1208,4.8200,-26.3598,-106.2324,175.6366,-47.6966,146.4877,-30.4322,41.0949,21.3317,117.9022,154.2746,-180.9808
104.5928,-47.7039,162.5316,119.3867,109.3664,124.0370,35.4671,22.2456,64.6824,2.4026,193.9794,-3.8529,117.0262,-15.2767,90.0949,28.2538,130.2135,116.9598,-158.8466
96.6818,30.3995,155.4660,199.7189,78.4538,63.3272,52.1454,-11.2492,51.9891,3.3232,162.2959,128.2055,38.1470,-0.9377,48.8387,-29.7571,206.6210,79.2696,-146.2649
106.8804,64.3079,195.1788,272.5830,81.0705,15.2448,53.6728,-164.8704,-31.6898,-104.4191,118.6712,267.4352,-57.4561,24.8507,-60.5860,-97.5034,285.9058,28.0541,-201.1958
128.8459,35.1233,194.6525,285.2091,25.1026,-9.7204,42.5489,-273.9001,-57.2555,-184.7854,102.5511,302.3170,-63.7937,69.7065,-71.3251,-106.2901,285.8188,-57.8854,-224.8658
112.9706,-3.7676,101.9086,189.9321,-78.8584,-73.0589,70.7200,-239.8201,41.0093,-145.1788,74.8359,207.9919,22.5135,105.8532,34.7920,-69.2517,197.1362,-154.5946,-161.2197
29.2276,-57.0061,-13.6770,12.6816,-155.2461,-182.3888,127.1901,-188.5379,162.3121,-52.7920,22.7236,59.2378,90.3924,100.0769,96.5821,-37.3856,85.0090,-217.5733,-106.4702
-64.6497,-140.4061,-56.3229,-129.3465,-146.8063,-241.6955,125.1135,-183.5410,152.6302,-36.2258,2.1892,-55.1228,108.6555,76.5011,87.2454,-30.7564,10.3845,-203.2241,-93.7386
-108.0603,-194.2129,-7.9255,-155.8628,-28.0868,-203.2388,56.4224,-127.4505,31.2863,-76.6347,12.2021,-90.6640,138.8324,75.4729,121.5952,-38.2985,-7.5041,-99.7024,-45.8218
-106.9470,-179.4244,80.8366,-97.4403,143.0325,-125.4832,8.9543,-14.2784,-38.8261,-66.6311,6.2622,-58.7086,173.7724,77.8914,147.8383,-39.3644,20.0157,18.4607,16.3552
-47.0247,-115.8140,143.8723,-3.8491,240.1377,-51.6271,-4.5560,32.2766,-32.1696,-32.7040,16.2932,-15.1896,147.7852,52.8039,34.8159,-36.3858,58.1797,73.0460,-7.2236
92.1152,2.1562,154.3908,102.7107,224.4261,22.3290,-60.3042,-18.7815,-78.4061,-45.7845,83.4061,3.8545,69.3642,21.6492,-107.7102,-50.2266,82.5424,108.4807,-90.6416
231.5511,163.6936,156.8569,191.7141,183.8957,89.1706,-143.8617,-65.7033,-174.1622,-48.4903,153.3211,30.5313,11.5355,11.8700,-104.2333,-51.9929,115.8560,197.8307,-105.0279
305.0119,305.0638,203.8822,255.7501,191.7193,154.2063,-144.7737,-32.1048,-177.3332,-6.7329,175.2707,96.3505,8.2349,30.7270,-32.0402,17.6866,177.1079,307.3888,-0.5073
362.4033,413.7084,257.7690,316.3832,227.6153,232.8372,-56.1938,53.2910,-94.1700,0.9971,167.9743,162.9046,28.5176,93.1428,-20.5284,131.3289,219.7471,373.1414,141.0925
402.1879,498.4214,230.6139,349.1866,222.0642,280.5432,4.4715,109.7340,-51.7550,-31.4755,141.3062,184.9887,30.3106,173.5369,-5.2830,194.0766,196.8792,383.2559,209.8006
344.3125,486.2398,121.3460,318.9685,136.3760,251.3474,-1.8792,95.7691,-42.3691,-44.5809,96.1120,179.4470,8.5906,189.9480,68.5716,181.8220,145.1783,339.6820,204.8343
230.0521,346.4245,23.0040,268.5809,21.1981,199.7654,9.1134,46.0540,6.6118,-74.1811,61.5087,180.0349,-17.1664,136.3376,100.3055,151.2743,127.6004,276.7639,229.8814
153.7991,180.1160,-1.2930,253.7079,-37.9940,199.5602,75.5754,15.5687,53.7514,-154.6080,41.6594,186.5576,-38.7501,112.5412,33.7298,151.0673,141.9239,270.6051,316.5396
76.6450,61.1020,25.2115,261.2750,-24.4279,236.2632,135.7540,19.5104,60.5619,-206.4976,12.7027,181.7855,-51.5176,151.0551,-47.0526,189.2221,140.4764,314.2191,366.4051
-44.8329,-19.6260,40.1585,255.1021,32.4693,260.7504,142.7887,50.2402,74.4959,-171.7985,-25.3024,149.2428,-44.2927,175.9726,-59.5380,235.0146,96.5793,308.6595,334.8486
-143.3847,-55.4569,5.2793,213.2263,114.0551,256.2474,113.9591,108.0968,93.2228,-92.0574,-67.2557,76.7055,-23.2272,161.1971,-8.9664,246.0617,24.9560,245.2835,313.0905
-176.1077,-50.6917,-50.2610,136.0946,181.1646,230.9857,78.2919,183.8547,72.1397,-30.9007,-94.3721,-22.8185,-2.7512,153.4272,37.4460,227.3764,-36.5464,227.4305,355.0160
-147.0747,-37.1550,-55.8543,78.2612,199.5922,215.1794,46.1879,248.9475,37.4403,-7.7312,-45.9379,-98.4493,21.8935,160.9367,28.0575,221.1762,-57.2064,291.3971,395.1073
-51.6849,1.8676,6.8263,94.9134,206.6693,236.1431,21.3490,290.1090,28.5271,48.1114,69.9057,-92.1867,45.5159,167.6810,11.2764,238.3582,-32.7693,369.3589,397.0076
38.5102,68.0738,84.5331,165.0440,233.8440,281.0670,12.4981,314.6848,47.2929,202.6323,134.1061,8.7912,44.8975,185.4750,61.4052,254.6003,23.4524,412.9632,410.9159
42.7198,94.3509,136.3595,251.9695,235.1665,330.9905,23.9333,301.3003,98.6514,332.7145,111.9033,152.1982,36.6552,198.8461,129.7184,247.9925,90.4022,419.0975,439.4326
37.8532,79.3260,158.5067,337.5330,178.6928,371.7345,37.9649,217.1665,144.8383,293.3948,104.0050,252.6895,58.0048,167.5322,134.1945,219.4474,128.1347,371.4540,418.9753
94.7989,92.9430,142.2389,357.2602,93.4240,351.1400,41.5843,121.0384,129.9299,215.1816,137.1411,254.7543,87.9490,119.2396,131.3175,207.4564,97.0493,273.2407,370.8646
121.6006,134.3885,97.7572,279.5211,11.2647,253.3740,60.7238,127.9837,110.7333,253.3683,139.5052,192.3555,88.3649,113.2421,191.3426,239.9962,24.6763,197.0857,384.6276
90.5392,169.0962,79.7027,211.8438,-33.0788,175.1666,103.1871,211.5915,150.8403,251.0653,111.4973,163.8859,79.1572,124.6516,220.7992,259.6095,6.2557,196.0058,427.3244
106.1966,190.5997,113.9557,237.1286,-6.6614,176.1082,113.4042,212.3781,164.7499,69.1159,103.6396,192.4014,88.7573,90.2046,131.8695,197.5481,77.8659,212.3237,382.2684
146.6059,154.6073,147.3028,266.3297,53.9670,176.1403,65.9800,105.8539,90.5946,-95.5007,101.4104,179.8528,110.3780,29.1147,36.5117,100.0265,137.7337,175.8485,272.1570
91.4427,47.9681,114.1948,209.3482,72.1441,132.5830,18.6968,42.7121,8.8219,-69.7993,74.5650,90.4257,142.7064,12.1258,52.0833,60.8282,81.7557,117.5992,215.5150
-37.2878,-34.0069,20.3104,118.9584,34.2953,116.6323,4.4325,69.9520,-33.6484,16.0059,34.8768,33.7750,171.5154,47.9230,78.8474,80.5567,-40.1383,84.6827,211.2019
-144.1065,-54.3183,-58.9665,70.5489,-10.9182,134.3809,-14.5307,60.5170,-53.1896,9.1618,-4.5352,52.0453,137.1919,74.8592,-14.9238,90.4401,-109.3053,58.1897,182.7274
-200.2492,-77.9515,-61.8782,63.9966,-21.1692,113.9568,-45.6179,-34.2741,-26.0785,-59.7383,-35.4614,39.6041,27.8493,49.7034,-143.4543,62.4650,-99.8097,42.1816,143.4540
-180.3456,-92.1888,-13.4753,72.1051,0.2704,73.1333,-44.6832,-104.6454,22.4098,-103.8934,-49.6131,-41.0844,-73.8862,-3.9662,-150.4613,35.1467,-50.8928,76.5600,143.1828
-81.9357,-55.5371,18.8286,74.6788,10.3294,68.3314,-11.0184,-91.9709,10.2596,-91.4467,-63.2420,-113.0976,-113.2655,-43.9603,-65.3720,41.5656,14.9360,118.9473,165.4794
5.7621,-30.7917,23.7595,59.1321,-5.4304,59.3739,3.6012,-69.8950,-30.8251,-59.7299,-78.8185,-148.5121,-117.9665,-66.0035,-14.0443,42.7805,64.1556,94.5121,180.8242
22.4854,-45.9017,30.0853,31.1287,-9.5188,10.4203,-19.4993,-87.2470,-21.0567,-62.7017,-65.9218,-150.9442,-110.5003,-83.1492,-10.3256,-8.0615,58.7154,42.0798,197.1788
1.2577,-43.0518,29.5707,7.8434,-2.9754,-16.7096,-42.1590,-100.3395,3.3424,-76.3832,-42.1947,-98.8563,-91.6658,-90.8699,-11.1484,-62.7596,28.2376,37.7061,230.0290
-36.9823,-46.0161,4.2027,0.2563,-20.2676,5.6308,-28.0568,-92.1423,-10.7766,-69.5449,-62.1398,-50.4622,-81.3327,-88.6915,-39.0249,-63.5419,30.0690,50.9211,276.8434
-77.3117,-102.9995,-14.5636,-6.6376,-14.2127,6.7950,11.7058,-119.6546,-36.0034,-117.5877,-97.7684,-84.6474,-81.3251,-87.4202,-107.9414,-66.2954,59.5612,18.2651,305.1829
-61.8097,-145.5741,13.0076,-51.2832,77.6451,-46.6015,38.6458,-202.6272,-34.6818,-250.6138,-74.2179,-129.1044,-69.2617,-81.2509,-161.0648,-125.7790,81.1750,-40.5525,285.8210
3.9963,-138.7112,67.3759,-138.3038,185.0816,-97.8995,30.1497,-278.2451,5.8390,-346.7878,-15.4084,-107.1149,-64.7012,-75.8173,-170.9321,-186.9793,77.8149,-73.0290,250.8920
28.3262,-170.6980,83.9483,-228.1118,202.3957,-115.5040,-11.8947,-303.2820,41.5058,-344.0854,-14.0381,-111.5437,-98.4616,-111.4182,-173.0537,-216.2432,29.6966,-80.1763,238.3937
-15.5212,-268.0227,25.1363,-313.5192,137.1375,-144.5430,-68.8756,-307.7566,-9.0845,-312.4537,-87.5765,-200.4837,-140.8130,-183.1406,-173.3212,-254.4532,-69.3284,-109.1453,209.3766
-73.8588,-347.8128,-82.0945,-407.8462,35.3675,-215.1838,-111.4189,-325.1543,-89.2034,-267.8275,-171.5913,-264.0992,-159.6361,-213.9032,-147.4064,-286.0482,-178.5126,-184.8806,130.3134
-128.4489,-356.3140,-189.9089,-464.0040,-88.4595,-278.6433,-126.6542,-340.2454,-58.8008,-189.6741,-219.2220,-239.8546,-172.3199,-176.5426,-114.3618,-261.6445,-253.2436,-261.2709,57.3973
-183.2530,-295.8705,-272.7870,-437.0523,-186.4567,-279.4977,-132.9027,-317.5889,10.3255,-133.2395,-236.6178,-200.3596,-181.0911,-140.0422,-110.0259,-220.2613,-280.3911,-275.4486,43.6928
-202.4333,-201.7808,-297.2265,-363.0074,-201.2685,-237.4881,-144.4234,-253.3777,-39.2073,-114.5422,-236.8168,-186.0213,-167.7218,-144.6734,-128.7906,-212.4462,-254.7469,-235.0655,66.6723
-163.1740,-143.6516,-228.4843,-270.9331,-159.0354,-197.1803,-149.3177,-196.3543,-114.2933,-82.1593,-209.2241,-156.3964,-157.9128,-143.7441,-151.2751,-203.5863,-183.1891,-181.1059,85.8523
-105.5731,-144.7726,-114.0185,-151.7775,-130.9948,-151.1663,-138.1955,-190.6100,-72.2778,-62.3994,-159.2697,-94.8365,-179.8846,-105.5523,-172.5855,-166.5415,-99.8427,-114.8597,88.2271
-78.1867,-145.3014,-51.9609,-55.5284,-136.2062,-81.6903,-119.4761,-195.0579,-7.9384,-82.0692,-133.7914,-54.9168,-198.1222,-75.6653,-174.7888,-135.9351,-31.9711,-40.5141,101.2756
-83.9347,-113.1908,-57.1971,-44.2315,-132.8394,-15.0390,-100.3920,-136.8708,-18.5134,-58.5316,-154.3744,-95.0987,-170.7330,-97.9122,-140.1617,-125.6090,14.4263,4.6178,167.7337
-105.7708,-90.9066,-76.2497,-71.2921,-76.7068,28.8348,-73.5266,-40.5097,-23.5209,19.3977,-175.5730,-167.5279,-111.6423,-130.1817,-102.9995,-107.5478,32.9325,19.4991,248.7427
-138.5850,-103.7343,-89.0824,-55.1833,20.2631,75.2550,-25.6027,5.7682,25.8016,45.2602,-157.8133,-150.9847,-59.2926,-98.6927,-107.7828,-68.9203,29.3217,41.0038,250.5575
-160.8334,-115.0814,-85.2688,3.3310,96.8230,137.3561,30.5185,-5.9607,62.6219,24.0013,-111.3005,-45.9001,-34.9628,-17.2017,-115.3151,-24.6851,31.9728,67.6383,195.5023
-124.2251,-81.8900,-31.9915,64.0074,123.8995,182.1111,57.1233,-6.9899,39.0262,42.5870,-43.5605,29.0280,-23.0200,39.3224,-57.0459,7.0658,59.7536,76.8612,187.1959
-32.7301,-10.4943,57.6354,112.7023,130.1993,187.4035,55.4480,24.0160,-15.0050,65.1482,36.8057,54.6988,13.5309,63.1105,17.1570,25.3705,104.3733,84.0461,217.0100
21.2309,53.5538,115.9302,148.1629,126.2988,181.8308,62.8979,45.1358,-24.2222,39.0114,67.7548,94.7190,61.6667,89.2482,-1.0143,49.0927,137.4779,111.3114,216.5842
-22.3117,79.2693,99.7138,157.5432,87.7317,191.2691,70.0155,52.2809,25.3669,34.3743,1.8661,114.2559,60.9502,93.0617,-68.9890,85.2072,127.1959,144.1961,206.6116
-98.0994,61.9026,28.8917,121.6807,32.4246,181.8027,42.6797,100.5285,31.3196,88.8603,-97.5694,55.3552,15.9698,54.0716,-51.9480,105.3172,82.0093,153.1591,204.7228
-123.5888,6.2164,-23.5043,63.5221,19.5937,111.6805,-1.9678,193.8650,-45.9063,138.3096,-130.6097,-17.1638,0.8529,25.9431,27.1993,80.8708,54.7041,122.6519,152.9050
-123.8423,-50.7873,3.7898,48.7994,50.5018,11.8781,-44.7474,246.3127,-93.5133,168.2224,-91.9356,-20.4309,31.8493,28.8137,45.7342,28.3366,58.8850,58.3811,55.6306
-161.1297,-59.8102,69.3233,69.7352,58.4730,-54.2287,-94.8091,215.3330,-59.0538,217.6741,-49.4121,27.0813,47.8687,15.9263,19.1762,-5.3974,48.9200,-9.2040,0.8033
-201.6492,-30.5159,90.6996,48.3484,24.3622,-64.0004,-117.7663,165.1965,-12.2940,258.5699,-32.2997,69.2467,7.5455,-9.0680,16.7288,-3.1224,23.4117,-31.7393,12.2272
-163.4021,3.5433,81.8753,14.9404,9.7511,-9.5633,-89.5972,136.0711,4.1730,226.5982,-16.5545,78.9861,-74.0029,-10.2507,-20.8471,3.0787,36.3123,26.3012,36.8796
-79.0279,39.1206,87.0595,54.1092,39.9404,102.0377,-82.8176,103.1823,-32.8710,128.9624,-4.9010,50.5509,-144.8723,-10.1316,-126.7763,-2.9784,71.9704,137.1153,49.8031
-73.8032,34.8326,64.4896,75.1561,59.4372,185.9851,-122.6892,97.5862,-115.1539,61.3479,-42.0608,-7.9645,-151.7994,-18.5684,-174.0680,17.3388,40.7196,198.3678,74.8451
-167.7848,-71.8737,-18.6016,-47.4707,36.4323,154.3449,-105.1651,166.5776,-111.5635,114.8923,-129.9479,-70.9358,-101.6892,13.4657,-93.4566,81.8317,-66.1576,134.8115,133.1286
-249.2837,-217.8941,-96.7410,-185.3439,5.8706,56.3012,3.0300,241.3479,29.4388,244.0780,-196.4399,-94.4967,-49.2552,87.3037,4.0247,141.6518,-136.1054,14.6950,200.7451
-254.6619,-264.8214,-95.5348,-139.4434,2.9227,11.6725,92.3757,246.0651,120.0945,293.1765,-183.7821,-50.0986,-15.8940,137.3892,18.7475,159.3996,-86.4953,-15.6405,229.1992
-211.6182,-186.7808,-1.3424,45.6407,44.8111,61.1206,103.0873,231.4496,50.6509,209.7785,-105.8841,34.6799,2.7706,139.4544,-30.6719,157.0821,42.6767,84.1078,232.1620
-133.1631,-58.9334,136.0434,209.2164,131.4497,169.1949,91.5436,242.6997,-32.3759,111.7536,-14.6843,117.3896,-5.5596,142.4008,-83.5943,159.6018,171.8531,208.0262,276.1862
-37.3828,48.2488,208.4141,297.4107,200.5993,266.3307,106.7572,234.1739,-20.2577,102.1365,22.9026,185.0024,-28.5408,192.7679,-83.0228,155.5401,257.3737,248.4526,346.9024
4.5120,85.8693,160.4542,304.8616,179.9347,267.9930,127.8472,198.7198,29.5178,160.8782,-35.4948,213.7832,-27.5485,251.0632,-20.1012,128.6503,260.0284,200.2069,353.9594
-32.7669,49.1791,65.4272,209.1603,90.8677,159.7816,110.1034,176.0111,63.1829,227.8605,-136.2182,177.6104,-10.2871,230.7823,32.6539,98.0027,146.7152,101.7625,282.6693
-93.8571,-22.2979,-22.0174,41.2817,-8.0528,15.3204,65.8145,144.5429,89.1982,276.7701,-188.9565,106.9569,-9.5572,162.5012,26.6155,95.5377,-28.9767,-31.1119,199.3427
-145.5284,-99.2127,-129.6652,-96.6662,-105.2931,-106.1682,50.8783,79.9383,129.6800,305.2369,-201.4879,51.7489,-25.1141,156.9097,0.7465,85.8016,-141.7454,-154.8965,126.8173
-185.0730,-137.3184,-216.9423,-110.7057,-180.1981,-175.1272,32.6627,15.7471,157.5676,294.1236,-231.2479,34.6703,-64.0069,163.5875,-26.8842,-3.4516,-135.5871,-187.8890,36.3750
-186.1321,-88.7171,-201.9245,-22.3539,-193.7124,-161.7906,-51.5895,-51.4397,106.6242,208.3806,-259.1574,51.4732,-140.7589,71.8465,-78.1716,-121.2619,-70.6887,-131.2233,-59.3748
-139.9432,-30.4845,-129.0583,21.7537,-162.5686,-100.2929,-99.7750,-147.1604,53.1122,82.6427,-244.9768,32.6405,-210.6968,-6.5935,-120.1570,-138.9931,-20.7792,-82.4939,-92.1208
-75.3271,-77.5660,-82.4204,-52.6823,-118.6664,-56.8789,-21.3486,-195.4059,143.7613,35.5603,-206.6171,-76.3635,-219.4087,41.7060,-111.9015,-84.1549,-7.9866,-70.2519,-28.6859
-19.2767,-158.6655,-49.1205,-131.0698,-58.2787,-16.3358,27.4875,-110.4495,241.8322,109.7012,-160.1799,-165.8953,-183.0963,63.1880,-80.1740,-81.4396,-30.5652,-40.7205,67.5392
-17.4170,-159.4785,-25.5434,-136.3365,-14.2449,26.0437,-48.7953,24.6926,140.9525,195.8530,-111.6912,-137.1946,-138.3927,-24.2072,-43.3704,-115.8641,-74.6491,-21.1667,118.4322
-94.7434,-146.5426,-55.9956,-154.1602,-35.0914,-9.8692,-81.2469,68.9608,32.9550,191.7501,-98.8055,-97.2159,-96.4925,-52.7655,19.8626,-116.7833,-102.6368,-68.8401,134.4867
-145.4791,-161.2647,-102.3698,-184.3676,-74.5128,-93.9920,-27.2531,47.1497,112.5468,118.5308,-118.0115,-95.8564,-73.6657,-3.7759,81.1030,-109.8402,-86.0370,-101.7511,146.1176
-50.5566,-79.3694,-88.1492,-98.2934,-61.6357,-78.2215,-41.3837,70.3300,133.8975,40.6063,-110.5930,-35.3218,-80.0611,-22.2786,59.9266,-95.8881,-40.7096,-35.7183,119.9007
108.4711,88.3327,-34.1563,45.2110,-13.8646,1.8052,-71.5891,98.3251,-32.9208,-29.2970,-89.0021,-38.5798,-104.7660,-51.6041,-70.4779,-53.0621,-1.4537,12.2378,53.7456
169.9579,132.9948,-2.0797,34.2780,26.9489,-35.7898,1.6039,2.6862,-108.2742,-101.8571,-113.5529,-325.7750,-142.9751,-7.5928,-222.0276,-80.4972,12.7614,-78.5720,11.8885
133.6570,43.9638,-6.0325,-89.5363,39.0826,-150.7247,12.9440,-152.9389,-10.9171,-112.5325,-151.1628,-713.4568,-166.9942,-1.2822,-254.1584,-197.4702,0.5382,-166.1451,-3.6818
96.0512,65.6121,-26.8647,-61.3021,-1.7414,-114.3623,-138.7213,-149.3784,34.8173,32.5474,-129.7014,-889.2119,-121.8779,-5.1230,-141.2579,-187.0915,-11.7792,-40.7823,-28.7830
95.7832,257.6527,-16.7405,152.2690,-50.0984,102.4623,-220.2088,35.1902,-44.3223,223.0731,-69.6286,-946.9565,-40.0717,143.2127,-30.6113,21.1276,21.0165,218.1369,-17.4624
139.8162,376.0086,52.5147,288.8374,-12.6911,261.7776,-114.6282,162.9726,-197.0429,188.8640,-43.1572,-1095.5300,-35.9290,306.1350,-37.6977,164.2302,92.3800,320.5432,52.1341
222.4041,289.1871,114.3652,202.0026,67.1579,176.7397,-3.5790,82.4139,-326.3247,-56.3570,-83.7643,-1282.9033,-119.0618,265.7283,-100.8379,83.1496,134.9153,169.3921,87.1542
286.8867,174.8019,114.0294,49.8673,65.3143,-50.4634,7.9389,-89.8696,-202.5174,-182.5245,-156.7145,-1439.1223,-172.5230,157.6722,-132.9695,-74.2427,133.2113,-14.3316,49.2125
292.1293,177.0597,123.7130,25.3566,20.9543,-158.6147,-29.4870,-168.6507,114.6755,-95.5992,-169.5329,-1581.5520,-132.5777,142.2504,-130.1461,-163.3272,147.1147,-12.2048,15.0730
269.7700,205.4767,183.4067,116.4104,46.7465,-59.8998,-81.4453,-102.1681,164.7276,-16.0690,-97.0846,-1625.7179,-49.5211,137.7868,-96.6755,-156.6537,177.4190,127.4119,11.7973
257.4262,233.5893,182.0159,222.2141,82.0739,98.9033,-101.5264,47.1763,-85.0446,33.5129,-67.4188,-1502.4028,-4.3752,186.7693,-68.8086,-21.6249,149.0854,252.4065,1.8810
272.5318,422.2129,64.9369,328.8712,20.3057,212.9581,-64.9546,216.7339,-137.9058,220.0648,-156.8012,-1309.3551,-40.2261,434.9659,-133.5111,213.6555,53.2214,347.8154,-13.7383
350.1369,790.9202,-43.6677,440.6504,-67.5739,310.8086,-56.1401,397.3673,50.3297,456.9665,-219.1236,-1142.1310,-113.9826,707.7563,-257.3084,410.6271,-44.5459,460.4821,-30.5727
517.0759,1177.5096,-51.4984,498.7038,-67.2803,382.8642,-113.8745,579.0602,40.7911,541.0197,-112.9310,-985.8865,-125.9014,739.1752,-287.3896,481.2107,-108.4254,557.2008,-56.9170
773.0056,1555.9630,-14.6468,501.3384,-4.6408,399.9305,-157.5267,701.8875,-177.6973,531.9144,78.9152,-787.3139,-58.0531,622.5668,-212.7534,461.0725,-116.4151,597.7649,-56.3512
1119.5959,1944.2194,21.9918,549.1604,47.1800,423.1938,-156.1836,732.4750,-233.1784,559.1153,216.1173,-515.4792,0.0156,564.6566,-181.8199,423.8051,-33.5257,619.8768,-18.7355
1517.8737,2154.8005,95.5281,694.9885,82.6611,500.9003,-145.4688,732.2562,-103.4509,572.1870,297.8532,-206.1489,-3.6313,570.3094,-257.0351,439.1487,109.7260,698.8254,-8.2885
1841.3883,2088.0957,209.0241,907.2255,124.8469,633.4579,-128.5945,785.8935,-89.9159,571.9927,385.9843,107.1375,-33.9698,649.2260,-351.6959,564.3988,226.8557,889.9713,-33.0951
1969.0333,1957.1100,297.4120,1146.9567,176.8112,854.7875,-103.2631,919.3989,-273.8570,695.5518,474.3571,458.9787,-49.8913,875.6521,-346.4228,784.5801,276.7082,1135.0071,-26.6343
1881.1494,1903.2877,302.1334,1307.9313,207.6664,1081.9810,-62.9089,1073.4364,-409.0409,879.7239,497.7561,757.1132,-22.3443,1100.6559,-208.6188,963.3951,255.8602,1220.9097,5.2419
1621.6334,1835.4960,209.8758,1229.5472,162.6943,1069.6705,5.7208,1101.1704,-312.4097,848.4420,422.1022,785.6057,55.3261,1050.6340,-90.9866,940.9971,165.6925,1023.5009,-3.5208
1250.3187,1753.0178,78.1673,948.5958,47.3967,794.7933,44.2720,910.1862,-133.9013,585.5998,294.6377,607.7912,102.5459,777.1237,-177.0866,758.8201,56.9343,733.3092,-58.0485
846.9523,1711.2998,15.7826,721.8354,-43.8870,554.6156,8.9591,637.7158,-72.9361,420.5824,173.5435,517.1802,24.0737,610.9893,-349.5901,648.0134,-2.6368,601.4653,-123.5989
480.6097,1563.0112,36.6982,676.5333,-63.3728,509.6419,-18.1476,495.5345,-68.4027,499.2183,50.5061,558.3712,-123.3825,645.8232,-325.4224,677.5759,-11.8125,606.0667,-177.0273
174.9059,1196.0873,15.0609,694.7107,-79.3620,543.1855,-1.0570,480.4793,-49.7164,589.6722,-84.7859,598.8438,-199.6044,654.0159,-138.5961,678.2615,-7.4222,601.7968,-188.6518
-73.1016,788.7594,-104.5775,676.9396,-142.8400,577.2025,-10.8447,468.9036,-93.5074,555.3424,-185.4949,632.5900,-196.4629,537.5297,-52.4248,618.4823,-18.9867,580.7253,-152.9221
-273.4132,528.0131,-206.6997,650.9305,-202.6476,622.0702,-11.5918,478.7846,-117.2227,549.8432,-225.2592,657.0695,-195.7425,469.9372,-60.9574,656.5897,-67.3530,591.1364,-109.0386
-433.3860,389.1497,-209.7780,638.4307,-202.0967,645.5321,74.3146,589.3832,3.9810,625.2307,-238.9884,681.2730,-184.6626,558.2642,25.2702,778.8423,-122.5655,617.0460,-75.4766
-538.3080,306.0892,-174.4790,620.7474,-159.7203,651.6757,150.2072,733.7455,62.8333,639.5192,-257.7386,824.8375,-126.3959,701.2979,143.5237,827.0192,-132.2964,634.4102,-48.2601
-577.0003,250.6147,-158.4430,583.7888,-131.8695,664.9665,126.1615,765.3874,-81.4342,576.9037,-282.3446,956.9045,-97.7977,760.5542,114.2349,796.2147,-128.2276,616.2684,-59.5774
-587.4546,162.4060,-160.3759,515.1374,-150.1611,603.0135,85.2632,636.6518,-131.4115,522.3923,-301.9492,771.0519,-147.2085,653.5939,11.8027,737.5456,-155.1216,523.8796,-127.0811
-617.6030,18.3130,-180.3223,440.7433,-188.4717,440.4823,76.8604,439.8142,50.0768,464.1234,-302.6305,494.2560,-178.1291,418.2682,-7.5836,622.1293,-148.8355,412.5164,-179.8720
-664.6475,-118.5001,-187.6722,427.8929,-188.4099,341.3334,64.7556,332.7849,155.5502,425.2195,-293.3597,577.5827,-143.3996,248.7079,-2.4205,520.9874,-71.8709,398.9953,-134.2593
-709.3405,-203.8215,-144.5459,464.2468,-141.6906,388.0543,75.3248,391.3554,82.4308,478.3084,-297.9051,768.0663,-129.7841,242.8520,-54.9792,553.4870,-24.8297,464.1188,-13.7077
-756.4065,-251.3837,-118.9806,448.2726,-107.0981,441.2966,113.6905,509.6352,63.4434,518.0363,-308.6434,606.1875,-147.4288,240.7448,-73.2270,624.1496,-70.5611,474.9229,67.1647
-800.1259,-281.9231,-191.5393,346.9355,-125.4875,392.6536,103.2962,529.5962,98.1898,411.0345,-317.1541,335.2563,-116.8462,146.0603,-23.4414,576.2338,-145.2419,393.9276,33.1531
-818.1233,-325.0674,-288.0655,218.9900,-178.3850,278.6012,45.7810,441.9872,0.5343,274.8741,-350.3393,311.5921,-81.8583,97.4725,-44.6744,459.8068,-199.5384,289.7505,-69.0344
-819.8263,-407.3890,-309.7049,102.0223,-233.6873,151.9550,1.6047,348.3649,-147.2990,262.1854,-412.0815,347.1888,-143.2857,146.3158,-164.3100,374.0541,-236.4507,203.8733,-151.4508
-840.5289,-496.1237,-311.1645,12.5126,-278.7102,56.6817,-44.5160,286.7838,-151.0106,311.8918,-473.7609,290.6616,-255.6700,161.7341,-225.7819,302.4191,-255.5686,138.0478,-205.8909
-889.4074,-536.5386,-372.8217,-21.6307,-317.6106,29.8991,-97.9561,221.4845,-68.8482,311.2268,-528.2402,300.8102,-323.5840,105.4989,-180.9015,238.2680,-278.5680,87.2025,-259.0372
-948.2097,-547.8694,-455.6378,-27.0330,-357.9110,28.0693,-101.5547,146.2436,-59.7320,238.8711,-564.1545,338.8006,-341.8231,44.7426,-135.9737,210.3851,-322.6582,26.2586,-274.0115
-995.2604,-588.7477,-493.7167,-68.0915,-382.6757,-11.7754,-55.2458,90.7313,-96.0728,136.0936,-556.1598,244.3293,-315.4980,-6.9651,-121.4157,189.0788,-343.2972,-47.2463,-219.2896
-994.0986,-635.8981,-474.1377,-128.2329,-358.8071,-60.2261,-18.3200,67.7447,-80.3479,81.0684,-522.4035,130.6646,-248.1059,-44.3666,-100.0132,143.3646,-314.7838,-78.4661,-154.3487
-905.1550,-610.8776,-399.8704,-145.3181,-296.6944,-70.2801,-29.6135,74.5501,-76.4379,72.7889,-484.6151,121.1036,-206.6666,-57.9402,-95.4432,95.6280,-277.3742,-46.8859,-131.9217
-756.2097,-535.8616,-301.0630,-149.3405,-250.1309,-62.5770,-86.0651,97.8101,-167.9264,8.7372,-424.5364,107.8675,-210.6411,-88.8458,-100.6576,64.5382,-252.0557,-22.8730,-116.1238
-652.2354,-526.0837,-244.6194,-217.6113,-240.1806,-66.6641,-113.2467,95.7362,-237.8981,-88.8035,-363.8702,43.1184,-183.5344,-126.2593,-50.2426,50.5830,-238.2394,-66.9617,-86.7869
-648.8436,-594.1945,-243.5014,-322.4844,-232.8026,-93.4278,-50.2945,35.8643,-177.8088,-91.5018,-330.8593,26.6186,-122.8950,-113.1680,19.7992,34.1405,-246.5452,-151.1795,-98.3581
-660.7979,-618.1570,-222.1135,-354.4793,-191.2526,-151.8644,13.5886,-54.3678,-89.1457,-32.4890,-252.3125,74.6559,-100.8074,-111.2967,31.6061,-26.9871,-230.8321,-211.1966,-157.0622
-581.8735,-541.6858,-131.7377,-272.3392,-116.6902,-200.3425,-7.5240,-125.3794,-36.5135,-5.3307,-92.9503,120.2600,-90.4351,-187.5343,43.9672,-108.8038,-130.9301,-208.6309,-174.5812
-439.2126,-433.2363,-33.1353,-134.2912,-50.9769,-166.3505,-39.1311,-153.9730,19.8950,35.3254,28.4438,149.2834,-27.5810,-238.8920,115.3377,-127.7584,-12.7740,-150.3770,-119.9210
-322.4569,-334.3702,-10.9212,-18.7968,-41.7517,-73.4795,-47.8481,-133.3728,-16.0761,79.3277,49.9091,180.3364,46.5318,-204.1322,154.4140,-99.6760,14.9483,-98.8455,-79.6433
-238.1628,-242.1964,-56.6771,9.3232,-81.3882,-35.6566,-87.2861,-86.6654,-165.8845,8.2208,57.1287,210.2757,90.6932,-191.0181,122.4763,-103.8010,-28.8262,-124.1341,-84.8852
-159.0858,-215.1521,-95.6214,-81.1601,-105.0364,-101.9243,-64.1513,-72.5082,-159.2816,-131.2042,79.8807,221.1802,149.8872,-209.9233,127.4854,-113.5804,-62.9650,-215.0914,-43.4351
-124.8641,-292.9993,-92.6890,-221.8519,-77.6172,-203.5898,99.5781,-106.1432,52.8085,-190.1667,76.3766,202.8881,226.1521,-143.9378,183.7951,-84.5766,-66.3125,-287.2915,50.5283
-159.6890,-371.6570,-60.7286,-273.7320,-35.3202,-244.6032,203.0880,-139.1137,138.8466,-185.0723,80.9532,165.7912,248.7647,-43.2231,184.1901,-75.0940,-42.8777,-280.9601,52.4276
-183.6365,-349.6259,-0.2612,-195.8976,-7.1593,-191.4095,117.7598,-151.7110,61.2665,-195.4921,133.4927,113.1930,208.6452,-68.9290,141.1730,-99.4788,9.0138,-212.2190,-56.7283
-131.8214,-305.4897,82.1966,-105.9894,32.4820,-109.3544,52.5665,-158.9705,86.5431,-201.1667,185.2252,35.8009,164.2375,-193.4442,149.5269,-87.2724,62.2035,-155.3542,-88.0279
-70.0575,-360.3112,135.6903,-118.0650,85.7466,-107.4942,132.5476,-149.2515,155.6599,-171.3387,189.5799,-36.8652,139.0542,-275.1514,178.2180,-71.2899,85.9067,-186.5332,31.2082
-78.5517,-482.5388,126.4681,-207.4429,101.9012,-199.5527,199.9403,-131.5135,110.1394,-127.7884,152.6752,-66.5732,127.9338,-305.6938,165.7951,-147.7076,92.6390,-295.6451,138.1134
-109.5494,-565.9822,95.3686,-287.2119,88.6780,-279.5744,183.1387,-152.4912,113.1801,-122.7978,111.6138,-81.9168,151.7645,-349.1699,179.0436,-271.0763,111.2263,-380.1678,135.5770
-80.7563,-582.0946,92.4156,-344.2102,123.7959,-287.1831,168.8048,-192.5120,202.7167,-194.0246,121.5912,-121.5817,218.8698,-393.2483,265.9312,-332.0773,130.1045,-380.3159,112.2301
-34.2337,-566.5130,104.5556,-418.8105,194.6631,-281.9772,155.4402,-193.1891,168.1001,-269.6570,168.8236,-167.1276,273.2347,-418.9465,324.8420,-334.1868,112.3081,-345.3256,119.2002
-57.8829,-552.7298,102.8478,-474.0649,209.0950,-300.9236,119.7999,-193.6954,88.3409,-268.3155,169.9259,-196.5210,250.4964,-464.6797,272.7259,-333.0961,85.1352,-327.0744,113.0405
-110.7164,-554.6558,109.8929,-416.3306,195.1652,-300.7052,136.4525,-267.3293,141.1261,-289.5737,139.9912,-198.6911,165.3676,-527.2512,182.7195,-347.5919,133.4830,-328.1298,108.6375
-84.9843,-560.5819,157.3611,-286.2893,248.6979,-288.4912,217.5857,-379.7501,159.7871,-412.6630,165.1871,-151.0883,89.4758,-548.8843,159.0530,-383.2230,244.9585,-365.1234,154.9639
16.3176,-560.7739,217.6579,-250.6013,309.4261,-333.0366,273.8853,-455.7848,92.6892,-491.5993,218.4530,-92.5083,58.2998,-546.0678,191.9114,-415.1088,294.1783,-451.8647,211.7377
112.4327,-573.3762,242.7901,-345.3034,265.2387,-426.3870,282.2548,-493.7399,189.4132,-465.5696,242.9288,-110.8193,49.0839,-586.8256,194.2302,-402.0402,241.7363,-547.5263,214.9744
174.8460,-595.8844,228.4578,-456.1361,177.3177,-499.0342,290.5217,-520.2739,352.4177,-491.1167,275.1841,-184.1050,34.0995,-638.5554,133.0486,-381.9544,167.5269,-615.8602,193.4410
202.0227,-595.0012,176.9626,-557.6363,138.0056,-538.6044,303.8452,-520.1938,258.5613,-560.2298,294.9277,-204.9626,12.1830,-619.4847,81.9993,-410.6919,91.1964,-657.4037,204.2501
172.7138,-569.7224,68.6204,-673.6987,85.7815,-554.6812,284.5357,-462.0416,90.0769,-480.1133,213.0213,-156.8649,-1.9743,-545.9952,120.4164,-419.3485,-20.6927,-647.4888,211.3217
106.8038,-516.2230,-58.6949,-675.8971,-25.2385,-510.0173,213.7969,-361.1999,177.5115,-264.5213,85.3656,-65.4904,-2.6286,-458.3409,213.4201,-321.9421,-105.5392,-557.8698,130.4799
57.1263,-381.4719,-104.0272,-456.2548,-100.7779,-386.1606,125.0322,-282.4771,315.6957,-92.4919,41.5633,113.2249,-7.7339,-335.2112,260.1771,-182.0652,-75.7137,-417.9630,-11.3825
26.4524,-186.7509,-42.6913,-157.2819,-77.3018,-216.7085,79.1732,-233.2349,230.7113,-1.1329,65.5900,347.5639,-28.9811,-205.4375,232.1981,-87.2044,30.5152,-254.9028,-68.5909
-0.8559,-58.8600,49.8072,46.3547,4.9821,-29.6889,88.1022,-112.9759,108.0155,87.9639,92.6266,478.9456,-37.7306,-133.7757,191.6449,-0.7140,120.0240,-60.9664,21.0206
0.4623,-20.0070,139.0530,171.1985,117.5890,144.9776,114.7353,119.1026,137.0651,216.7724,148.7430,491.3976,1.2359,-63.8157,208.7907,113.4146,177.7958,122.7058,145.6652
40.6880,43.7655,241.1342,253.4352,241.4183,254.2061,151.2670,334.1812,195.8893,358.3827,239.8611,538.1296,81.9941,67.6714,304.4651,196.3209,223.8828,215.0284,200.2227
84.2658,144.8690,292.4975,229.2542,298.0359,276.9223,197.0542,417.9398,207.7662,424.3576,294.7472,607.3959,163.8361,153.2562,427.6788,218.7538,212.6590,197.3495,203.7150
111.4594,174.4274,204.5966,94.6318,230.1607,235.0206,206.5343,407.2472,234.6620,371.4404,279.6095,552.9542,202.9610,114.6083,488.3557,228.2842,92.6498,115.8445,184.0396
129.7673,121.6774,54.0852,-27.7040,104.5815,159.9021,168.6368,360.5037,237.6764,286.3288,238.6338,445.5221,187.9422,69.2776,446.1068,243.9481,-48.9274,38.6309,128.4975
137.8562,89.8536,16.8797,-19.1441,46.1210,114.5428,140.0091,287.4234,158.2260,254.6005,224.4357,449.8774,146.8007,89.2524,333.1385,243.0005,-55.4815,41.1812,71.5850
136.1535,124.5898,104.2872,117.1182,84.7902,154.9382,129.9608,228.0133,72.3368,260.8621,238.5240,495.9988,95.0940,84.0878,205.7867,223.1460,54.4681,124.2793,62.2415
132.0406,164.0401,160.1268,242.2807,126.0466,221.2241,91.3926,213.9402,36.2839,255.8169,234.3533,484.5759,33.2391,34.1534,134.8107,188.8966,105.9284,173.8287,73.3653
119.2618,135.5876,115.1483,217.2707,95.0035,204.9910,46.0360,196.6351,12.4037,202.2206,191.4179,511.6265,10.8291,21.9028,168.9217,142.1868,48.5615,117.2746,69.4990
95.4442,60.7055,44.4133,71.4681,35.8539,121.0623,62.7453,144.8130,19.2843,128.2206,146.4926,580.1320,56.2654,30.7435,240.8189,112.9698,-14.9832,31.9736,75.3049
73.2234,29.5489,-11.4255,-73.8230,6.2726,61.8922,121.7182,106.6541,104.8243,132.7195,117.9752,527.6731,66.0060,-0.8575,229.3466,120.3762,-47.9428,2.2496,97.6813
51.2305,47.7346,-82.3137,-192.7495,-21.6502,38.2284,143.0643,97.9370,197.9911,188.8571,84.7267,377.5313,-36.7301,-22.2823,145.1519,131.1566,-90.0267,-7.0027,90.7523
20.2141,28.8106,-151.5529,-296.6490,-80.1192,-0.6231,120.3539,52.8740,203.4974,132.6044,49.0491,297.3151,-132.5988,13.6922,94.2608,115.2210,-130.7578,-57.9450,30.7753
-8.6779,-26.3322,-161.8409,-313.4845,-132.9393,-59.7754,109.5425,-68.3231,164.9954,-19.2416,32.0745,302.5857,-108.0904,36.6165,83.8604,79.1340,-131.1437,-132.7385,-50.6515
-17.8845,-28.3126,-98.4182,-203.6126,-128.5255,-99.0003,122.8036,-209.4775,175.7824,-80.4379,41.8707,364.2252,-39.4092,-7.2244,49.9672,25.4647,-70.1481,-172.9388,-98.1046
7.1943,40.8019,11.4800,-51.3051,-54.9558,-87.2875,116.6387,-274.3049,216.2369,-41.9105,92.5487,495.1514,-5.8624,-76.6919,8.6897,-44.8305,52.2127,-150.9646,-82.0630
86.9500,149.2307,120.3498,71.8572,48.3923,-26.2883,57.0701,-215.9123,191.5340,-29.6492,191.0635,568.0175,33.4297,-133.5077,8.5919,-101.7513,170.4977,-74.7750,-37.0892
207.9049,267.7764,182.3388,165.5754,119.4708,49.4917,-34.1390,-78.8236,79.6598,-56.1751,303.5387,468.8796,90.5882,-171.1511,26.4896,-117.6520,205.0703,16.6108,-3.1822
302.4514,292.9463,202.7005,178.2341,151.3029,85.1189,-79.5039,32.9728,-30.9168,-94.9913,379.5954,333.2667,125.0810,-182.3824,34.3501,-108.5212,175.0661,44.5786,49.1208
341.5087,169.5782,208.8226,27.1567,187.5980,29.0923,-32.9238,40.2558,-60.2158,-161.0231,391.7240,262.6192,154.4510,-199.3935,57.4798,-127.9470,121.3404,-50.4955,123.6891
389.1113,75.4672,185.7603,-219.9507,216.8813,-117.0790,22.6611,-54.0563,-36.8270,-225.0235,362.4459,169.3108,200.9937,-270.0237,94.3174,-220.6736,21.8176,-219.2951,122.0278
483.4813,162.4409,136.7910,-372.0573,189.6698,-260.2968,-14.3605,-190.8654,-20.8312,-272.9249,351.1926,96.0574,226.1817,-347.4838,102.3755,-349.4669,-81.4035,-346.0498,19.5132
547.4998,270.6332,126.5517,-359.5791,133.3745,-299.8695,-81.5034,-313.6491,-18.9817,-346.8324,363.1196,160.2999,212.2748,-348.0110,84.0477,-413.0757,-71.4693,-379.7725,-47.3626
513.6523,221.4405,180.4330,-278.8893,117.8532,-255.9576,-77.6996,-380.2514,-55.3856,-420.1189,351.7628,219.4034,187.6773,-312.3817,62.3817,-390.6074,49.7314,-342.1455,-24.2606
443.9836,117.9949,261.8283,-189.0036,153.7094,-215.2182,-70.0624,-362.5468,-158.3679,-433.3820,351.1049,119.1506,177.7525,-337.1959,16.0334,-361.3436,166.7765,-257.2517,-33.1075
418.2377,87.1768,344.8119,-81.7441,205.1109,-191.2963,-127.6084,-287.0639,-225.1032,-405.7451,409.2216,7.4192,207.0706,-393.7238,-36.3844,-347.9441,215.5038,-166.7740,-105.0053
403.7820,51.4430,376.3757,-41.9907,224.7728,-161.7904,-144.4099,-228.0685,-143.2711,-361.5112,416.2016,4.7765,263.5020,-389.4397,-7.0818,-308.7996,183.9348,-135.0847,-104.8010
340.1931,-61.5776,277.9820,-174.4955,170.4951,-159.4559,-62.9201,-225.6178,-20.9250,-321.5964,269.4040,-18.2650,262.4185,-331.7498,79.1220,-273.1936,76.2133,-179.1757,-7.3374
244.0528,-175.1135,90.5830,-386.9488,60.9411,-210.4327,6.0615,-274.3524,-18.0109,-360.2371,86.4074,-115.1860,172.0514,-287.4237,75.3443,-294.5892,-37.2374,-270.5430,36.6457
152.6031,-215.2553,-47.6601,-488.3756,-35.1735,-279.7336,22.1061,-373.8974,-83.3159,-468.4745,1.8260,-156.8346,95.0374,-286.4371,-6.4414,-348.5346,-73.0424,-389.6349,-35.4341
72.6687,-215.9524,-86.0088,-450.8713,-86.9186,-346.7351,38.0025,-503.1345,-101.4132,-535.1785,-18.1906,-128.5067,105.5191,-357.4702,5.4495,-426.2038,-39.8527,-512.9791,-110.4426
23.2307,-259.4893,-55.4641,-390.6336,-97.5978,-429.8165,12.3096,-613.5508,-76.2899,-568.0411,-2.9427,-171.3479,136.4889,-517.5402,97.4451,-567.3314,10.3021,-612.6067,-100.4344
38.8629,-384.2545,34.8525,-389.8620,-56.1588,-518.8042,-64.6195,-717.3728,-33.5668,-665.3859,85.8521,-311.4218,116.4329,-684.4725,82.6396,-725.3572,69.4519,-691.4764,-49.9782
126.3959,-533.7081,156.3858,-460.4716,25.6917,-589.3180,-57.6858,-866.0900,13.8283,-814.5834,200.7279,-404.3353,75.9253,-754.6035,-38.1503,-813.0160,144.2765,-758.1029,-29.1130
253.1440,-619.7739,238.5253,-579.5781,95.5533,-668.6324,43.4012,-1016.0877,19.3052,-938.9084,250.1281,-388.9086,69.7807,-753.8390,-89.9936,-860.1854,202.2439,-809.2112,-34.1971
349.4785,-635.6354,244.0919,-693.8545,117.9767,-779.0380,67.7130,-1050.0857,-6.1895,-971.5349,231.6984,-393.1353,108.2968,-760.0495,-25.4091,-912.9370,195.0018,-846.8919,-21.5383
350.2423,-619.3024,180.6137,-739.8953,95.7485,-839.0363,-7.1202,-917.5017,-4.1626,-834.4017,182.2470,-477.1299,182.3346,-746.4525,87.1476,-892.5375,122.4842,-833.0894,12.3009
270.5887,-561.7354,81.7287,-684.8664,50.1557,-747.6502,-38.8073,-674.1512,11.2891,-573.8698,118.9108,-504.6067,272.5381,-656.6766,215.8387,-741.8649,33.9809,-716.4934,24.5616
178.2595,-473.8831,8.7873,-564.3951,4.8874,-558.1972,-8.1707,-441.4035,27.3739,-382.3174,63.2392,-429.3367,326.3919,-537.6323,299.4405,-558.2086,-38.2933,-565.1776,-2.9522
106.5846,-428.3079,-2.6805,-457.1282,-30.1053,-418.6475,-4.8432,-320.7637,63.5223,-319.6823,33.6139,-384.2412,292.1873,-457.0259,243.7459,-455.1128,-78.2937,-484.3640,-35.8641
70.5281,-414.0508,32.1449,-373.4659,-43.2930,-352.0866,-47.8905,-287.0749,36.2453,-274.7913,40.8971,-367.4724,195.3979,-393.5647,97.2866,-425.7911,-54.3818,-424.7508,-52.2297
80.4180,-322.5033,87.3611,-254.2245,-17.2280,-272.8597,-108.0671,-243.8794,-91.7013,-218.4195,82.3156,-264.0815,132.7125,-312.6270,27.7590,-391.9742,5.0668,-306.2508,-70.8284
91.2673,-166.9125,114.4161,-122.4448,20.8620,-175.2789,-154.1964,-178.8134,-132.1003,-200.7384,107.6103,-165.0242,157.5554,-246.8058,88.2005,-308.4612,9.0140,-195.2563,-82.2449
65.8786,-100.3027,67.7363,-77.0838,28.7373,-117.8674,-139.1486,-136.9637,-15.5013,-208.5438,77.2120,-199.3486,203.8099,-230.0546,157.1918,-215.7818,-33.9916,-161.4585,-43.7044
50.8843,-163.8676,-2.6551,-125.6964,37.7275,-105.8944,-60.9782,-128.8667,29.0877,-227.0726,27.0022,-236.6602,167.3338,-229.6797,118.8632,-187.6869,-36.9280,-177.7295,18.8543
62.1726,-239.2322,-31.3332,-194.9248,75.3311,-131.4795,16.5585,-168.0100,-57.2514,-274.2497,-18.1628,-162.1668,50.5597,-191.7457,10.6527,-220.2799,-28.1537,-232.7504,18.6245
36.1994,-246.1815,-64.1297,-245.2164,67.3932,-194.4777,41.8142,-244.4258,-59.3557,-321.6060,-75.9079,-112.7472,-32.8265,-125.0270,-45.2542,-244.6570,-82.5534,-307.9633,-44.4777
-17.8966,-196.0551,-130.9926,-258.2357,-23.8395,-235.2145,9.6507,-264.9602,17.8769,-331.5361,-116.7258,-175.9624,-19.6618,-99.8133,-19.6442,-237.5172,-149.0255,-332.2742,-72.6317
-23.5462,-117.3041,-158.8909,-230.6713,-109.5082,-210.7666,-35.9452,-206.2902,-17.4667,-314.5054,-113.2660,-238.7356,12.3479,-133.0385,-3.2645,-218.0931,-159.4554,-312.4740,-32.2998
6.8598,-58.3612,-136.5495,-190.7599,-139.1116,-176.8068,-30.9761,-187.7047,-100.1597,-281.6903,-110.4475,-226.2434,-18.6756,-136.5408,-59.2534,-180.7354,-136.9318,-300.2326,2.4673
18.4070,-60.5797,-126.8329,-129.3297,-159.7832,-169.3560,-0.8691,-242.2315,-72.0004,-238.3107,-115.2751,-183.0858,-71.7159,-73.9257,-144.0061,-128.7893,-103.4318,-255.2416,-25.3591
14.2277,-99.2133,-111.3689,-50.9760,-177.4844,-170.3571,-36.4238,-268.1454,-27.0755,-216.9155,-88.2876,-166.7040,-85.6518,-57.4378,-179.9265,-113.2169,-75.1093,-186.1476,-89.4796
-6.4589,-151.9372,-58.7154,-77.6281,-152.8215,-214.6500,-104.3899,-260.1250,-80.6064,-255.3353,-65.4724,-213.9874,-80.7666,-152.8978,-149.8615,-167.7431,-87.5614,-210.2784,-119.5170
-48.8668,-240.9980,-25.0315,-251.5691,-97.0345,-313.8516,-86.4863,-291.9990,-140.0585,-362.0384,-80.5526,-316.3034,-72.3216,-267.1050,-115.5758,-255.0029,-104.7852,-304.3707,-68.5905
-70.0242,-342.2504,-34.4700,-394.9584,-46.3271,-371.6398,-7.1619,-331.2635,-116.7186,-485.4445,-74.0176,-427.1906,-33.1898,-348.9218,-122.8774,-310.5775,-77.8996,-330.7641,19.5690
-71.6356,-405.2572,-44.4526,-407.6384,-13.4941,-352.6346,17.0450,-322.8193,-59.1157,-529.4622,-34.8868,-527.9719,10.7444,-443.2186,-124.3174,-319.3891,-59.7401,-303.5883,47.8909
-112.1865,-441.3009,-46.4736,-391.2574,5.5577,-328.1859,-17.2663,-308.3276,-35.5633,-459.7921,-32.8234,-586.3732,-0.7519,-489.8177,-97.5327,-317.2194,-63.8393,-284.4931,3.1504
-158.2851,-439.7078,-33.9816,-359.9549,32.4401,-295.3866,-44.3159,-318.0291,-57.2627,-343.5111,-59.1631,-538.6324,-50.8482,-388.7147,-120.8372,-305.6278,-14.5767,-220.8029,-48.6288
-129.5691,-345.7017,25.7131,-251.0994,69.5644,-219.5886,-55.6500,-321.0019,-89.2781,-269.8781,-44.7276,-421.3914,-73.8290,-236.2031,-189.2438,-247.5743,48.9981,-129.9096,-95.2778
-57.6120,-216.5518,107.8326,-161.2507,82.7462,-168.4611,-70.7415,-301.9971,-118.7411,-288.7147,16.2111,-335.7915,-51.0256,-181.9006,-179.8460,-181.4237,35.1838,-105.6223,-147.9790
-11.5120,-158.4282,161.4171,-159.2517,86.7022,-155.8910,-95.0007,-248.0014,-181.2990,-341.6941,82.6114,-271.1360,-11.2281,-179.7210,-104.1542,-181.9867,16.5478,-85.5830,-140.5102
12.1672,-127.4268,179.1819,-110.8858,129.9569,-69.0516,-117.9433,-139.5414,-228.1573,-277.7382,104.4249,-188.1432,11.0227,-131.4362,-92.1324,-191.5956,69.5157,23.8440,-30.7574
28.5482,-54.1935,149.7016,28.3553,166.6574,92.3237,-97.5206,-27.8109,-144.8353,-108.1326,52.5149,-145.1221,3.2272,-73.6492,-137.2631,-116.7370,112.0566,125.0406,97.0343
43.4606,-8.2749,82.2341,115.2168,129.9376,182.0959,-22.0222,-3.6043,-13.3171,-56.8672,-14.6137,-152.9729,-18.7668,-61.5818,-164.4790,-37.6027,105.1916,117.6740,142.2597
73.0986,-21.9156,57.4080,116.6597,80.5192,159.7819,26.4284,-69.3093,-23.4085,-160.9604,-19.0904,-123.7704,-40.9559,-63.9635,-183.5992,-48.9698,113.0968,77.4376,83.2237
93.8578,3.2759,101.8733,134.7782,87.4146,129.0708,-18.6199,-125.4323,-110.6675,-184.8208,20.6511,-37.9796,-49.4398,-35.8934,-168.2640,-51.1975,126.4453,99.1459,-47.0262
82.3375,98.6646,137.8200,185.7966,93.1311,156.9232,-107.8620,-87.7256,-104.6022,-51.3751,60.6365,52.7947,-16.6783,19.3772,-83.4247,34.0122,95.8977,167.6723,-172.1264
80.7144,184.3753,123.7904,210.9084,40.3508,204.1064,-168.2027,11.7382,-60.0094,94.3891,92.2479,120.0898,27.0810,58.2171,-44.2816,100.0887,29.0291,202.5621,-224.8811
85.5639,213.3440,63.2936,179.7034,-41.6850,195.1334,-180.9074,75.0033,-46.8714,195.3138,72.8269,122.2367,2.7675,59.5536,-98.9665,103.2619,-76.9585,148.0572,-229.2139
18.4588,192.0857,-67.0585,100.2561,-128.5354,128.1093,-143.5768,87.4156,9.4601,247.8154,-28.6197,50.4907,-51.9287,75.4880,-80.7396,144.0670,-208.9881,63.0882,-229.2879
-92.7223,152.1200,-228.0569,32.0381,-209.7887,92.3237,-78.4677,105.3923,51.0589,203.7587,-146.5479,17.0528,-25.9974,128.6539,27.0126,213.4492,-279.7741,47.0768,-207.9064
-130.0026,139.6131,-310.7236,20.9848,-244.1473,112.3626,-52.3053,105.0249,-38.7494,134.4362,-215.7005,93.7600,17.9160,142.0799,9.4731,196.4044,-259.8764,64.6062,-178.1893
-105.7644,136.4665,-301.7581,17.7176,-221.8740,97.7060,-84.6425,35.5421,-120.9102,149.5000,-248.3533,184.5223,-62.1031,106.2770,-121.5563,115.0565,-220.0433,37.2646,-190.8064
-128.5049,82.5856,-279.3287,-11.5002,-189.7151,33.7816,-103.2109,-19.5134,-63.8635,186.8973,-272.6828,205.3011,-188.7894,121.1304,-118.9780,87.6658,-196.7020,21.1600,-201.6364
-194.1339,7.5661,-274.2239,-18.0456,-174.1567,13.4817,-69.1544,40.3650,-5.8788,189.1923,-294.7364,185.9099,-195.4492,169.5017,16.8368,127.0184,-186.8473,75.3105,-143.0978
-203.7734,-22.4258,-266.3841,-0.8901,-159.3524,49.3661,-49.9150,147.5708,-13.0083,217.8284,-281.0145,145.3409,-119.2369,137.7444,53.3328,159.3140,-191.4050,143.0005,-75.4535
-133.2808,-27.0957,-230.6406,2.8829,-122.9408,90.7195,-90.6549,191.5413,11.1821,245.4584,-189.1678,84.7345,-80.4245,69.7407,-51.7499,150.8359,-168.5419,193.1366,-59.3185
-69.7134,-33.7479,-153.6903,23.8276,-53.8074,148.4298,-113.2212,190.8089,18.2027,208.4897,-84.9955,56.1588,-73.7941,88.1523,-131.7934,138.8153,-99.1024,238.3801,-24.2047
-89.7711,-17.8459,-76.6180,57.8375,28.0974,210.6837,-38.8798,207.4145,-36.0598,177.5186,-67.3533,70.5116,-54.5660,160.8389,-103.1037,171.1355,-56.4893,236.5279,67.6885
-155.2119,8.3908,-49.9293,32.5935,81.1445,214.6898,64.0704,230.4707,-13.8306,164.3662,-69.6411,54.6785,-19.6215,192.5959,-42.0830,215.8746,-68.4843,193.1551,126.1281
-177.9377,12.1436,-39.6285,-8.5110,100.4187,190.8621,74.3588,223.2265,44.6408,74.7451,-1.1935,-7.4306,27.6002,177.8196,-48.8010,194.5618,-66.8442,199.3604,113.2069
-143.8834,16.3873,4.2835,40.2005,119.6854,205.9116,10.8194,193.3983,-56.6145,-18.1956,49.5861,-43.3764,39.3251,138.4759,-131.4292,131.3307,-35.5287,242.5213,113.2675
-83.1671,37.0027,51.7717,115.9608,143.9454,206.6600,-7.1059,171.1682,-191.1012,9.7790,25.8606,-36.2214,-34.4156,90.5687,-206.5361,116.4324,-14.6319,215.6915,159.0421
-5.8538,37.2819,56.5494,92.2341,133.3418,133.9815,39.2895,145.0163,-131.9659,37.4499,27.2129,-54.2259,-107.8672,69.6939,-199.1329,125.7790,-5.8781,114.4256,167.4292
44.7009,-3.3220,12.4905,-2.0207,61.9523,41.0894,58.8971,73.3086,-17.1702,-60.1204,56.3262,-124.5516,-73.5909,75.2073,-127.7363,77.2002,-14.3516,8.4697,96.9458
14.8708,-61.7790,-67.7325,-77.3089,-34.6017,-34.8256,23.3384,-19.7566,-10.9347,-146.0743,11.5895,-190.9350,-3.7065,73.2523,-74.1177,-2.2556,-54.8663,-78.0749,24.7136
-56.5850,-102.7194,-148.7875,-121.0485,-96.7911,-117.0213,-11.4231,-61.9191,-8.7388,-109.5091,-79.5269,-209.7361,-11.1186,61.6685,-82.1935,-53.7644,-91.1010,-136.5529,-0.9311
-111.3239,-113.5088,-199.6258,-134.6204,-125.4030,-178.0484,-36.4494,-76.3873,7.0844,-66.0529,-145.1408,-197.4578,-57.0645,38.8960,-114.1986,-94.3535,-101.1440,-163.7627,-52.3793
-160.9949,-128.2536,-221.5219,-100.0428,-161.2730,-170.6693,-81.1518,-145.2438,-58.3432,-97.6213,-194.6203,-161.0987,-78.1200,-0.9713,-125.0685,-123.6525,-110.0187,-184.4646,-164.7562
-189.4833,-163.3737,-189.8820,-30.4322,-186.5260,-116.6179,-110.9987,-232.2144,-115.6103,-126.3693,-194.3381,-74.8219,-100.3864,-7.5348,-130.5412,-100.2707,-96.2994,-188.6908,-234.8713
-149.2041,-158.4208,-86.6474,40.3331,-163.2177,-58.2379,-86.8226,-242.1291,-100.1059,-117.2025,-110.3231,37.3865,-123.0802,51.3451,-144.9495,-49.9534,-33.2366,-150.5529,-204.6212
-89.2438,-84.9438,-8.4929,84.6138,-136.4439,-24.5647,-56.5540,-200.9807,-134.3872,-138.8047,-48.5015,90.3264,-101.4632,100.0178,-138.9697,-35.3765,13.5895,-121.7644,-171.6780
-80.3396,-15.0424,-50.5709,84.0441,-159.3529,-51.1063,-62.2991,-183.2958,-195.5955,-187.0481,-92.7320,45.8334,-68.5387,73.7384,-118.6090,-51.4584,-6.0163,-147.7120,-199.6981
-86.3163,4.9812,-137.1249,55.8084,-191.3250,-115.3451,-62.2271,-166.5917,-130.7106,-151.5862,-172.6765,-42.2373,-94.5736,25.9241,-121.4081,-50.4671,-32.7618,-156.4602,-206.9007
-69.6558,-1.2496,-150.7341,47.5171,-181.6251,-121.1442,-27.2821,-110.4664,-8.5819,-22.7379,-207.7918,-96.3097,-162.8683,22.2607,-126.2696,-9.7874,-8.6712,-81.7355,-129.2288
-60.7461,-23.1257,-93.3815,79.9967,-130.8678,-38.7845,12.9690,-55.4254,15.6004,41.1417,-168.9225,-79.4428,-198.3189,33.0820,-101.2550,44.3552,55.1610,16.7144,-24.5660
-53.0750,-39.7200,-7.4098,124.4693,-32.6372,41.8100,42.0347,-51.5311,-24.8176,-46.7095,-55.4447,-26.8168,-160.2356,-6.8961,-71.5552,46.0254,131.2514,54.7262,28.3899
-15.8871,-15.2295,83.2497,130.9592,91.0358,42.4466,55.8099,-91.2921,-47.1822,-169.4511,46.3543,-24.2371,-77.5923,-86.7039,-51.4379,-21.6235,188.8301,31.3600,22.7021
20.5742,4.8499,133.1693,79.8299,147.3675,-18.1499,43.2881,-141.7484,-43.2910,-211.7179,51.9705,-96.9255,-39.6207,-123.3511,-42.6381,-74.0787,203.1371,-7.1544,2.6593
25.9238,-36.3332,125.7155,17.6805,104.8880,-80.9615,35.3022,-181.5318,-18.1139,-204.6390,13.1352,-166.5229,-106.6397,-87.4484,-93.6497,-57.4773,188.9346,-31.1793,-5.8004
18.0203,-79.2703,105.2667,0.2907,47.4826,-115.2409,62.0452,-205.4197,-2.2994,-201.8215,-8.4880,-179.0407,-213.3897,-41.9780,-196.3863,-36.3500,168.3576,-43.3946,-17.4069
10.5642,-68.1408,93.5430,4.4045,26.1748,-125.2803,75.5991,-211.4323,-13.9353,-192.1056,-39.4758,-171.6489,-250.5337,-24.8890,-231.0279,-64.2515,137.9086,-61.8122,-31.7919
5.6997,-59.8430,65.8790,-31.1400,8.0920,-125.3756,36.3170,-199.8814,-12.8977,-162.9539,-83.8249,-170.0371,-215.3911,-20.9599,-157.4950,-110.3071,95.9449,-98.5431,-33.3680
-4.8404,-94.4371,5.8560,-100.7318,-34.3255,-128.4886,-19.0249,-197.2049,-15.8420,-135.8305,-119.5424,-156.6837,-175.1020,-39.4192,-92.4721,-151.4339,43.2207,-158.4148,-59.9460
-52.8439,-134.4298,-76.5985,-146.0114,-101.9647,-150.4372,-71.2859,-230.3767,-62.9717,-139.5088,-151.7044,-146.1071,-147.1144,-66.9530,-112.5345,-190.4053,-28.1174,-223.4739,-137.8830
-121.9548,-154.9410,-141.5220,-142.6256,-166.3141,-183.1219,-134.3176,-262.4219,-87.2095,-172.6364,-145.1167,-155.2219,-114.3493,-42.1321,-155.0464,-203.9375,-98.4995,-231.7069,-186.8884
-137.7328,-153.4591,-139.2288,-116.6087,-163.9418,-178.5735,-184.2522,-239.0908,-77.6478,-196.4469,-73.3208,-150.5624,-84.4864,2.4209,-149.3075,-185.0683,-125.0871,-150.9435,-153.7314
-101.0849,-131.2951,-75.1396,-102.5290,-102.1587,-128.6760,-209.7073,-192.3219,-136.5576,-198.6153,-12.1346,-132.8255,-76.9268,-29.4729,-121.2576,-172.7398,-104.1402,-65.6211,-118.3283
-83.4300,-113.3568,-9.8263,-116.5499,-83.2404,-108.7647,-228.9422,-185.3479,-201.4774,-206.7203,-7.3968,-158.9823,-98.8944,-90.3599,-131.8011,-179.6359,-78.2711,-69.8754,-120.0593
-85.1143,-104.7458,3.5187,-155.9514,-129.1646,-152.5433,-204.1916,-192.3421,-132.6113,-200.6113,-23.4108,-218.1833,-135.4600,-76.1682,-166.7979,-171.1810,-84.9477,-116.2188,-83.2663
-76.1557,-86.8533,-53.9587,-201.1933,-158.4294,-184.4773,-119.8275,-150.4376,-42.5438,-135.0825,-84.0059,-240.1449,-153.1678,-42.4959,-163.8658,-135.4164,-121.7315,-112.3292,-1.3367
-100.4336,-90.3289,-145.1306,-217.5087,-161.6434,-159.2728,-80.5525,-76.2218,-71.3387,-45.4276,-198.1116,-226.7272,-144.3709,-75.4699,-128.6083,-106.9915,-152.3163,-79.5727,36.4272
-181.5096,-139.7403,-190.6006,-185.5171,-181.0558,-119.1559,-140.8178,-32.9074,-108.0618,6.7765,-252.2578,-213.4890,-136.6230,-118.3696,-109.1136,-112.8793,-147.5026,-64.6017,1.8271
-240.8223,-170.7627,-165.2868,-128.1567,-176.4715,-67.0464,-206.3808,-34.5204,-81.6075,19.3239,-210.1310,-175.5770,-134.7244,-106.8432,-101.5444,-130.2102,-106.1497,-25.4971,-62.3360
-205.6248,-137.2025,-105.9608,-71.7141,-109.0388,25.9604,-221.8205,-48.3164,-91.7766,1.5020,-169.8901,-118.4754,-124.6340,-68.4413,-99.4475,-124.1093,-34.2333,50.2399,-111.9066
-102.2740,-85.4833,-24.4013,-21.0437,-34.8632,92.8592,-224.0411,-58.0138,-134.6744,-32.5954,-145.2044,-120.0636,-121.3117,-27.4602,-120.3677,-109.7070,39.9413,79.2515,-118.2055
-21.9417,-52.8983,46.5427,-5.6956,-2.5543,55.0299,-210.4710,-81.0383,-136.6297,-41.4384,-102.9773,-173.9445,-128.4176,3.4268,-127.2827,-120.8290,48.4756,41.5177,-113.4452
-39.9146,-42.0282,8.0894,-57.4325,-8.9699,-26.6292,-178.9990,-121.4193,-142.0201,-35.1116,-113.4015,-177.3195,-113.9908,-15.1263,-95.4955,-144.8942,-30.8680,17.8744,-154.2879
-141.6797,-76.0371,-143.5607,-123.3724,-55.8128,-53.9046,-183.8473,-136.6429,-173.8757,-57.8946,-198.0961,-116.6522,-80.9332,-65.7708,-86.5786,-157.9051,-114.4544,26.8289,-189.9241
-236.3662,-141.7496,-259.5146,-118.0869,-111.5338,-29.5020,-207.4710,-94.8695,-166.8878,-80.8649,-256.3264,-58.5699,-61.9894,-57.0058,-103.3506,-162.0395,-116.0202,23.8489,-144.5019
-266.4904,-158.5845,-242.4247,-34.1421,-104.7787,13.3886,-174.3125,-37.2855,-126.3961,-78.0631,-247.3868,8.9496,-48.9937,42.6325,-83.3636,-139.8730,-44.9440,34.0877,-96.2277
-246.5444,-84.3408,-135.0782,95.6604,-33.6228,77.5271,-123.9715,-6.2392,-108.1087,-83.8013,-194.7200,120.4808,-23.9274,158.3701,-71.0586,-71.0149,33.9847,101.8553,-140.3957
-199.6824,38.2225,-10.9616,237.4333,33.2172,155.3191,-149.3680,44.3274,-120.5489,-57.5239,-96.7303,213.9026,-0.1806,224.6744,-110.2831,8.9443,59.4542,190.5471,-191.4065
-135.1839,158.4969,64.4913,310.9801,53.2497,230.6773,-215.4442,160.0460,-149.0993,61.2298,-6.0446,244.4642,14.2060,263.0701,-112.5506,74.9368,9.4121,255.2990,-136.4319
-63.4496,278.3244,53.3545,284.5247,23.0323,304.4092,-217.5717,273.0745,-141.4733,173.9898,15.2564,283.9474,11.4094,311.8332,-69.1260,158.1562,-56.0007,297.5656,-23.7127
8.4401,421.9653,6.3320,282.7437,-27.1514,364.7495,-135.4027,302.9332,-50.7266,189.9851,24.8270,378.8696,-21.9370,347.4616,-75.2060,247.6895,-51.7282,314.4662,48.3320
60.8856,543.2812,-17.6625,387.3844,-33.2228,396.1902,-27.4727,292.4343,47.4533,204.2859,53.3350,458.9592,-42.5668,347.0125,-74.4521,290.2329,4.1075,311.0656,73.1608
58.8667,520.4768,-47.7754,456.5208,18.7595,404.4804,49.5035,318.0251,71.4397,274.4982,10.7403,456.7769,3.6857,351.3333,19.0545,295.4340,21.2142,313.6242,87.2487
3.5265,329.7361,-90.0455,367.7923,73.3279,387.5180,68.9664,352.5227,67.8489,305.9100,-87.7017,386.3156,72.1918,372.9169,94.0342,287.0470,-7.4243,313.3076,86.0522
-54.4413,131.1482,-61.8678,247.1997,112.9761,351.7754,28.1669,330.9856,58.5421,271.4990,-97.1621,290.6025,93.2306,351.7224,71.5371,240.1848,-7.0387,299.7039,41.9213
-68.5979,69.7119,52.5814,238.3665,152.7062,337.1089,-45.3811,267.9684,8.2493,241.4053,-15.9038,207.3389,73.3836,281.2117,39.0670,180.9484,34.2816,307.8885,-23.9646
-32.8323,113.3106,145.6121,263.4150,159.5275,335.3190,-82.9231,223.7093,-5.2876,232.0882,18.0562,157.6994,35.0972,234.5834,31.7882,179.7191,54.9982,322.8554,-42.2523
13.2858,161.3898,139.4518,207.0852,115.0505,287.5274,-33.8546,220.0623,92.3376,247.2667,-35.5750,123.5608,1.7216,231.7409,48.1558,211.6019,37.0405,273.3709,4.0381
7.2776,165.8850,51.1714,127.3524,53.9086,213.6056,46.5878,233.8179,184.1932,313.0725,-113.0975,84.7869,29.9930,218.9600,144.0625,210.3947,2.1162,178.8524,50.9384
-67.7416,113.3523,-85.9204,112.3699,-23.5398,173.6146,60.3313,234.5609,157.5074,390.1140,-176.7867,60.9669,103.7448,158.6812,246.7779,193.0239,-70.0643,113.4543,52.7722
-162.2719,16.2182,-233.7271,115.1883,-119.2197,134.7705,4.9492,218.8549,90.2920,428.1843,-219.0032,59.5148,117.0832,59.4486,206.7779,181.4814,-179.5382,66.5645,15.1785
-226.6798,-65.8874,-305.4049,85.7336,-158.1840,72.6510,-56.8667,206.8657,89.5962,440.9880,-219.7372,59.2107,59.0841,-20.3471,88.1677,147.9934,-227.8394,28.7244,-51.4756
-235.2918,-59.4580,-229.7796,95.8583,-102.2944,70.8781,-102.5163,197.2075,127.5020,409.6964,-155.4728,83.8991,23.2210,-12.4654,36.4386,106.5066,-148.4047,65.8423,-110.9632
-165.0825,54.8438,-67.5759,187.7829,-24.9405,155.9138,-125.5887,171.3856,105.4575,294.5933,-42.1806,164.8860,35.4166,54.7723,31.7007,96.3630,-19.8346,165.7807,-102.3744
-35.1190,204.2358,36.5135,266.7860,20.5889,232.0866,-95.8345,152.3304,25.1738,173.3064,43.6618,226.2803,59.4961,82.5608,31.0741,102.6590,66.3897,217.1952,-27.1920
73.4578,281.4407,31.4652,257.4429,44.6548,247.0674,-11.1979,170.6769,20.7105,150.8195,40.0664,165.2576,81.5552,42.2600,53.9648,103.8027,106.0262,188.0471,53.0932
98.4450,263.7328,-17.4007,184.8090,40.3433,209.0971,77.4508,182.4687,115.5182,180.3024,-19.9937,10.1258,89.8650,-28.2794,75.0402,97.2724,90.7405,127.9467,100.6318
50.3151,205.0540,-67.6909,52.9143,13.1094,102.1025,114.5644,133.0100,133.8534,155.2413,-65.7205,-146.0385,90.4060,-102.6779,87.5951,57.0934,3.2184,53.4558,104.7640
-24.5702,109.5952,-117.3309,-144.1832,7.2458,-38.1228,90.4565,61.6125,47.5123,86.6736,-70.1227,-271.3713,102.3957,-154.8444,114.0621,-8.3433,-89.4972,-15.8737,72.7246
-77.1527,-51.1027,-123.3947,-299.3592,23.6960,-110.9778,54.0369,33.0567,50.4925,59.4966,-37.2527,-340.6377,75.3937,-168.4892,94.3173,-23.2363,-102.2789,-25.1670,55.5260
-69.5825,-206.3502,-59.0297,-287.6107,28.3028,-96.8427,55.5141,37.3832,139.0477,91.0952,8.5878,-303.4461,-21.5427,-154.1354,28.0494,33.2541,-38.4240,30.1635,87.6594
1.9878,-227.0498,15.7531,-128.4100,25.9742,-42.5370,83.1947,47.1396,133.1915,128.0059,29.5135,-175.8580,-79.7874,-90.0767,47.0481,96.4766,64.4584,102.8387,131.0462
109.8147,-83.0292,54.5743,80.1462,35.4038,51.4911,106.5405,88.2552,97.4150,159.1476,25.9072,-21.5043,-37.3904,40.8257,137.2642,144.3673,178.9253,179.7861,158.5289
210.0865,149.2515,86.7818,268.9693,64.1847,170.7553,124.8033,188.8712,164.9341,235.8543,20.6401,133.1695,0.6619,160.1656,146.1554,213.1296,247.1645,273.8966,190.0327
254.3818,384.7852,125.5639,377.3381,119.5648,245.7189,124.8895,313.8095,185.3500,341.7123,8.4605,246.2029,-5.7778,202.4368,90.1042,296.4466,223.4187,355.7541,200.6108
228.5805,544.3131,141.4744,360.5004,162.4672,256.6898,90.3989,376.6486,55.3083,370.7860,6.4346,243.3692,21.6019,213.3138,60.2885,341.3978,136.8353,359.2377,134.8952
162.7583,536.8442,126.3393,240.8304,134.3831,229.9524,60.5518,319.3192,-15.3847,314.4417,57.1202,148.2842,51.4385,219.6268,21.9808,322.5046,42.7608,266.5385,31.3324
78.3918,349.4462,91.8197,99.6917,68.6224,162.9741,71.5518,196.1779,88.6147,297.7520,121.5392,80.1636,-2.0518,190.0200,-11.8103,264.2800,-17.8660,155.7682,-4.3287
-6.6846,133.0026,51.3363,41.7558,35.0202,83.0768,84.7145,123.2735,178.4269,341.2405,120.5252,93.6749,-69.5379,151.4699,39.1368,198.9588,-10.4168,106.9592,45.5181
-26.3958,68.5646,32.2158,116.1104,19.5372,57.6293,58.5787,123.2985,121.7436,307.4035,79.6873,156.2318,-49.4022,142.7314,99.1409,131.1277,51.5532,98.3070,93.2872
64.0385,146.0232,36.6633,230.5345,-6.5512,73.7036,19.5043,126.8963,30.9857,169.0744,70.3189,230.0688,18.1324,132.0160,65.9807,73.9102,91.6587,76.2723,89.9950
187.5577,209.8315,15.8630,251.1158,-27.4987,59.6175,20.6725,114.5188,39.6463,78.4130,78.4497,272.6350,58.7156,119.2834,21.3091,74.4405,52.9132,41.8665,82.0317
230.2034,196.2780,-62.2199,166.4136,-63.4577,11.9694,83.5926,108.2716,115.6312,93.1889,64.3722,245.0911,72.6255,164.2738,46.9006,130.1667,-53.8681,-10.9558,96.4233
179.7113,160.0493,-170.9117,25.1469,-141.4485,-38.2561,165.8137,79.2124,136.7132,97.7514,44.4752,157.7980,83.5178,258.8214,85.8968,161.8676,-181.3767,-103.2240,86.8231
102.7135,127.6027,-255.0777,-157.0531,-206.5861,-96.0263,192.9690,18.1755,83.0989,57.1653,51.3483,36.1335,90.9811,314.7301,92.7116,146.8051,-270.0509,-176.2568,53.8930
60.6723,91.1526,-251.8153,-309.4191,-200.9752,-140.0551,167.2064,-4.1657,64.1344,74.9083,102.4154,-105.6319,72.6923,263.6491,92.5796,143.9253,-269.9622,-152.2985,78.9618
79.2577,62.5367,-136.4921,-331.1970,-134.0423,-119.4439,164.2814,34.1002,138.6711,150.0267,186.0071,-215.3093,28.1651,122.8366,120.2630,149.5971,-176.4762,-68.9855,169.1721
130.3344,29.6388,21.7117,-254.4464,-22.7927,-56.1277,193.6398,63.6654,243.3553,159.6969,243.2217,-228.7432,23.2385,4.1448,197.2887,105.3958,-28.9622,-14.0310,227.2396
164.3897,-27.6500,130.3639,-168.4819,101.2056,-21.6336,195.9904,60.2024,294.5164,102.3744,237.6624,-144.2490,104.1137,-1.3238,284.8093,31.6388,115.8405,-3.5422,212.1610
187.7217,-60.4213,180.3537,-55.0522,169.5040,-15.5533,168.6997,59.5646,248.2271,82.4832,209.6574,3.8065,202.9257,61.8386,307.9688,-7.9426,209.0149,0.5887,174.6852
232.0076,-12.7769,206.9403,111.5387,172.0440,23.2441,154.0045,66.3836,141.9013,95.2865,191.3261,168.7780,240.6489,124.8998,270.2706,0.9168,243.3040,42.0837,151.2233
271.6991,86.2254,217.7105,251.9347,162.4159,105.2959,155.8142,84.5556,95.1495,84.1355,172.0250,258.5696,228.7073,192.7924,212.3638,53.5915,249.1943,126.6971,149.0544
282.7506,181.8927,221.4627,288.7640,150.5184,169.7924,165.9863,132.7868,144.1053,95.5629,177.1024,210.5576,189.7566,229.6086,128.4622,131.0435,241.5381,180.3994,174.5816
307.7464,255.7830,237.1030,219.4757,129.2816,167.3152,189.5702,162.0515,192.8203,162.0448,227.8486,85.5468,110.2285,172.1875,53.2075,173.6929,205.4508,147.1157,206.6858
351.1420,292.2163,245.2511,86.7302,127.1623,126.0233,204.7182,129.3449,208.3949,210.2759,248.5626,-26.2388,8.3910,83.8973,66.5789,169.0999,136.2924,106.2358,222.6444
335.8584,279.7597,211.2963,-23.1090,131.3581,121.2931,186.4287,128.3361,231.0938,220.1169,170.1676,-105.6017,-54.1193,61.9154,152.7960,186.3911,58.6851,146.0928,242.9424
