Fp1,Fp2,F3,F4,C3,C4,P3,P4,O1,O2,F7,F8,T7,T8,P7,P8,Fz,Cz,Pz
-161.5107,-231.2116,-105.3731,-132.0350,-0.7195,-35.8593,149.6786,30.9354,284.1958,57.6776,-11.4097,-84.3863,49.1015,-33.6886,121.9258,9.2871,-161.8484,3.4969,145.5204
-35.1898,-62.2557,27.0760,74.2866,84.1984,101.2280,80.4414,78.2431,61.5632,-76.1208,49.8184,57.7508,40.7036,40.9502,26.4974,-11.9451,78.7790,104.0449,138.2554
193.5817,289.1346,232.0652,394.2480,155.1575,288.0627,-157.5397,120.7136,-446.3537,-103.6997,111.1265,282.7957,20.6631,163.2148,-119.6104,-34.1247,351.3466,294.3253,8.0888
320.0649,499.4799,332.4737,562.5045,184.4267,418.2951,-238.5548,220.2433,-616.0297,34.9463,106.3354,391.2847,25.0959,266.6763,-103.4041,13.4016,393.7999,378.8345,-64.8392
266.2961,456.6242,263.6239,518.6098,162.6389,423.5143,-103.7093,302.4420,-209.9746,180.9892,63.3715,336.3475,50.4706,277.7790,58.8785,113.3457,264.2160,301.3120,-49.6569
187.2740,379.5365,181.8848,447.1581,103.6249,337.2711,-22.8945,277.1118,221.4470,254.0369,68.7465,272.7211,69.9723,240.1021,173.8191,203.2065,197.4173,214.6793,-77.5600
199.7565,377.6852,209.1852,436.8456,78.6306,256.2396,-32.0040,238.1900,358.6348,319.4734,137.0331,279.3904,100.7211,244.7679,211.5981,273.1889,229.1510,191.7583,-104.1586
235.6864,336.5177,251.0689,382.6326,121.5374,204.2317,51.4284,251.6074,473.2440,388.1577,186.0757,271.5446,144.8779,244.9291,249.6896,317.1047,234.8125,149.0026,-12.8513
225.1352,237.4648,207.7958,253.4945,147.8161,144.2077,173.0880,237.2722,590.1094,407.0901,153.9840,217.7468,137.6533,185.1086,250.9888,319.0683,196.2269,68.4190,113.5589
196.4675,180.2955,138.0049,164.1821,99.4763,103.0527,174.0311,201.9940,450.7970,384.4159,76.5163,189.9532,63.6634,159.8220,170.6415,304.6929,189.8880,30.3168,173.5092
181.5440,154.2772,111.2426,150.3420,57.1475,115.8143,127.5134,223.5385,187.2536,347.7668,33.0713,201.7301,9.6394,211.5970,74.4431,284.7269,216.9927,44.6796,224.8862
195.8289,119.8811,127.6550,155.0390,83.1639,145.6906,112.2885,259.1919,-2.7040,256.9431,60.7963,221.5052,17.9215,261.5251,-3.3866,239.9973,237.4662,54.7462,279.7663
234.9216,140.7766,172.5780,182.4446,103.4566,175.9902,20.6916,254.5631,-310.3633,84.4783,115.8151,252.5343,30.6062,303.3868,-100.0363,201.1158,258.1447,51.4036,239.7850
222.7983,202.4384,182.1901,221.6363,52.6732,213.9773,-143.5250,231.7612,-723.2306,-90.8161,118.2818,260.6600,17.2781,332.9429,-188.2278,185.7482,266.2249,60.0773,122.5968
144.3857,203.3688,117.8804,220.1762,-10.3777,229.6919,-226.9988,187.3247,-903.7084,-183.4409,71.6733,223.0063,1.1754,280.5669,-217.2634,140.8063,246.7464,97.4711,57.3876
136.2210,204.6263,102.1181,252.7315,-11.5355,250.7261,-244.6430,145.8114,-903.4706,-213.5119,63.7523,233.1312,-25.5325,228.7077,-228.4094,74.2092,274.2032,173.9320,57.6517
209.6440,288.7153,196.6397,373.4972,33.1381,329.1542,-275.3170,173.2289,-923.6705,-212.2857,99.0030,299.5986,-63.9065,278.7726,-246.2458,40.6633,355.2442,251.1929,45.3141
183.4070,317.1908,229.5027,409.6676,63.0853,380.5195,-244.6171,216.3432,-777.2323,-147.1673,93.3755,266.6703,-66.7267,281.5571,-209.2350,1.6607,329.0083,243.9546,19.5265
82.1544,224.3101,145.3158,287.6885,42.4694,337.8654,-190.9059,210.0557,-501.4784,-28.0307,66.8554,154.5466,-39.1851,186.8816,-130.2051,-33.0449,147.8053,133.0075,4.4655
92.5269,139.7344,108.7405,170.9801,-14.8412,277.9599,-254.0352,225.0262,-418.7050,91.4211,104.2607,136.6811,-23.0850,194.1019,-76.9695,62.9532,-58.4505,-5.3356,-17.4870
91.2487,-5.2069,75.5855,23.6893,-49.7172,160.1094,-235.3212,218.6249,-218.7528,191.3509,143.5054,109.8245,30.5323,205.4401,20.1181,200.2476,-275.8151,-105.5233,-8.8164
-114.8931,-317.5592,-121.6260,-284.6714,-33.7662,-118.0981,71.7962,15.7926,404.4504,171.2151,70.3483,-110.6711,130.5540,-60.1377,198.2092,97.2987,-493.9650,-160.0120,51.1465
-275.6733,-470.2243,-291.0645,-471.6148,-26.4211,-345.7511,283.0931,-280.1382,664.2564,-84.2185,-53.2728,-307.3741,109.0784,-362.3649,237.1269,-176.3021,-467.9793,-180.6898,22.3664
-128.8888,-215.3570,-176.8217,-272.2636,-66.3517,-284.6098,62.8154,-375.5337,60.2146,-348.8166,-92.9587,-213.1117,-82.4410,-305.1389,13.9813,-240.9647,-134.8833,-182.8962,-152.7706
79.7901,59.6959,34.9899,-11.3110,-82.1811,-135.7001,-186.4058,-271.6598,-459.0984,-257.1106,-53.6253,-11.4254,-205.4411,-80.9128,-202.7415,-50.9398,135.1641,-180.2360,-256.4217
82.8136,34.5283,86.1051,-3.7533,-39.0694,-140.1488,-122.3928,-171.5457,-269.4755,67.2664,-30.4186,35.2214,-155.4165,-17.5106,-200.2664,93.5997,128.4275,-178.6422,-182.5198
7.8272,-36.8385,44.3547,-61.0453,-42.2750,-173.2597,-71.9723,-121.9725,-66.1479,212.3891,-71.0684,-13.4185,-147.8262,-22.3939,-147.4866,90.7361,43.1746,-191.0144,-146.9645
-14.1809,15.5536,0.3120,-44.8503,-145.7508,-134.7507,-232.5822,-92.0510,-205.9300,158.2504,-144.4288,-48.7725,-260.6936,3.5879,-192.0235,61.9782,-2.0759,-217.4508,-239.8173
-36.5604,27.0054,-68.0040,-77.7859,-224.0549,-133.5829,-305.9854,-93.4213,-223.5044,109.5398,-170.0089,-92.7199,-283.6289,-41.6172,-218.1196,21.6024,-61.5905,-211.0992,-268.7632
-44.2114,7.1922,-80.5228,-113.0526,-172.1799,-150.6294,-191.2840,-93.8020,-93.7205,25.4856,-110.5297,-123.2170,-151.4453,-119.2716,-158.9580,-81.9871,-71.7920,-132.5695,-185.4880
2.5812,82.7549,13.0802,-31.6672,-61.4720,-83.2263,-103.8914,-75.4462,-138.9043,-154.7530,-35.4992,-100.7514,-51.0186,-127.2935,-112.9356,-205.1351,9.3679,-23.7108,-149.8092
44.4337,169.7755,85.3755,69.2642,-1.6806,7.0870,-100.0898,-87.9941,-257.4991,-299.7755,-13.3892,-69.3804,-69.7080,-118.8969,-125.3101,-295.1822,71.1794,44.0406,-191.9445
76.3467,203.7147,88.2128,119.9852,3.5782,56.7154,-114.0443,-111.3719,-325.8968,-360.6909,-16.1577,-42.5509,-109.2415,-107.9229,-144.0185,-346.9305,95.9188,69.6836,-215.5366
132.0738,250.1733,115.4371,180.1662,11.2153,104.8705,-134.4851,-85.7264,-415.7093,-402.0058,-9.9314,8.6821,-98.0631,-40.4339,-126.8186,-342.1986,155.9967,95.3665,-189.2746
137.8408,264.9158,157.4815,209.9413,43.9829,123.6823,-104.4877,-59.8213,-377.0408,-390.6863,-16.0883,31.9086,-54.3122,5.4143,-74.2443,-275.0376,203.8056,97.8896,-129.6988
92.0941,151.4507,141.7564,111.0469,74.6823,68.7413,-4.8337,-85.9048,-110.6596,-272.7267,-31.4356,-26.5907,-1.3402,-33.2641,-23.4278,-160.0576,179.4964,15.7814,-75.7243
32.8115,29.3064,54.0496,-21.2298,24.4129,-43.3473,16.4707,-152.4872,99.5640,-119.0057,-70.6568,-144.8105,9.9012,-92.8694,-37.6487,-24.3539,77.5683,-149.6271,-123.5877
-57.5905,-23.2683,-73.8670,-101.5630,-111.1503,-170.4542,-76.8971,-217.9313,116.4402,16.9298,-161.2286,-244.6733,-56.6342,-115.6061,-91.6891,99.2187,-82.8812,-275.3220,-240.3128
-101.6480,-125.0257,-145.9538,-197.9088,-190.0292,-217.1314,-109.2911,-185.5296,122.8738,152.9109,-218.4608,-237.3015,-122.6818,-79.2142,-85.0288,186.8244,-172.1904,-240.6668,-225.8640
-101.4555,-155.3548,-113.0266,-192.2339,-161.2223,-161.2107,-50.1219,-49.9172,127.6312,225.3222,-176.0001,-175.9500,-119.6474,-29.0148,-51.3519,188.4122,-114.9537,-138.5255,-72.4021
-98.2312,4.5897,-29.0505,-31.9172,-91.3134,-87.4704,0.2001,75.2926,47.3191,208.6264,-85.1763,-147.8104,-64.2053,-5.1572,-56.2439,121.9032,-9.8540,-80.3820,49.9954
36.4024,114.7747,70.3114,34.8021,13.2502,12.0632,38.9253,167.4296,-44.1231,176.4257,11.8896,-63.1397,4.5818,71.7351,-39.5760,90.5536,91.7010,19.5818,107.5702
193.1272,199.1674,140.1398,88.8258,91.8034,144.4460,21.4913,223.8362,-179.5651,49.8771,65.3068,91.1098,17.4267,174.6581,-46.8727,39.0703,182.8965,146.5677,102.5098
188.5789,409.8714,160.5700,292.6602,92.1624,216.3719,-60.0324,194.2023,-384.7775,-221.3465,61.1219,171.3579,0.6455,162.9921,-154.2588,-122.6535,230.9459,168.3660,42.1410
253.5035,432.9298,213.5874,306.5840,143.9400,233.4028,-34.1783,132.9991,-452.7286,-412.8290,93.3188,187.6597,64.5617,100.7457,-182.4071,-245.4113,288.9043,155.1053,58.6235
355.6664,279.8456,256.2973,156.4116,230.0221,231.4967,60.3923,75.1199,-387.9503,-436.1794,120.7133,188.0129,95.8080,83.1248,-52.2122,-246.0721,342.2471,159.4201,112.3493
213.4597,350.3910,186.3163,251.1978,179.4616,178.0779,12.0669,-5.4803,-393.1380,-403.1988,40.5278,140.8613,-11.0709,64.8203,20.8623,-216.9472,295.1309,87.8078,25.3868
150.6796,400.8961,133.2868,310.6415,100.5432,135.8035,-71.1024,-11.5035,-345.8773,-253.7984,-8.9280,142.1440,-32.1885,97.3420,-10.7290,-114.1178,241.5383,13.6865,-73.6500
283.1476,226.6377,143.7321,123.7581,99.7841,118.9693,-55.7594,47.8945,-136.5984,-29.6662,15.9540,188.1043,52.4606,161.5340,-36.8996,36.8253,229.7715,-6.4584,-40.2432
142.4637,201.6347,65.1402,102.6454,31.0597,24.6531,-67.3145,22.2104,16.5622,55.4659,-58.0820,101.1196,-17.9425,90.8672,-82.8949,65.0051,119.5335,-90.3114,-17.8092
-51.5331,194.8491,-11.8850,110.4329,-48.0255,-63.4826,-58.2189,21.6282,81.9132,120.6801,-139.0102,-16.3059,-100.4616,4.1259,-117.2525,86.4519,-0.5281,-157.3560,-1.9634
57.6340,-14.9076,16.7026,-112.3082,-10.1562,-58.2984,61.8505,134.7236,163.2901,280.2854,-96.4187,-12.2413,19.3249,53.9900,-74.3348,211.7930,14.4186,-114.2066,96.5880
34.1945,-3.6475,-17.6901,-123.9619,-15.0101,-89.6746,91.1040,132.6233,117.5077,250.7956,-113.9507,-45.1713,76.1888,39.9325,-50.8325,202.2962,15.1462,-129.5123,112.7650
-84.2532,138.4682,-65.4028,27.0695,-73.4536,-125.0435,-8.0424,25.3579,-62.0250,17.8283,-187.7398,-100.9526,-45.6177,-53.7852,-67.4769,71.5977,-18.3344,-168.6041,20.3820
106.1359,23.2912,28.6167,-64.5044,-39.8331,-54.8851,-60.7723,26.7289,-178.8054,-110.9644,-139.5780,-18.0965,-121.2487,-16.5047,-67.1669,86.0299,49.0288,-72.0307,-17.7535
183.1727,61.9668,74.5456,-26.0138,-24.4344,-26.9364,-111.6450,10.8571,-269.7480,-177.9483,-99.7755,37.7414,-141.8048,21.4621,-111.7902,126.0896,103.1233,-22.5490,-65.6310
35.0658,307.1728,30.2975,203.2979,-38.0133,-62.5569,-158.8349,-106.8379,-369.3303,-301.1482,-131.1708,-3.9681,-123.7795,-60.2266,-156.8247,34.4409,99.8740,-94.2126,-144.6274
152.4408,226.6138,90.8303,115.3023,62.1978,-16.2249,-78.2433,-135.6953,-338.9229,-337.6425,-80.0555,41.9693,7.7695,-75.1030,-111.6360,-17.3578,157.8893,-75.4414,-110.4746
217.4012,120.1576,110.3112,6.0995,104.5742,4.1002,-20.4584,-96.3761,-239.8525,-269.8687,-56.9192,75.9293,52.7828,-31.1118,-102.3101,11.7548,147.8818,-34.0681,-64.5451
-25.6263,276.4554,-19.7894,149.4102,-2.4711,-54.1760,-81.2634,-78.4262,-185.5319,-166.9779,-144.5242,-11.1962,-64.3428,-45.2025,-138.9364,26.3579,20.0089,-99.7178,-116.8082
-26.0369,217.1773,-56.3857,65.5895,-29.5781,-43.7081,-87.4819,-8.4992,-123.6387,-29.0050,-140.3449,-26.7870,-79.3667,-44.9617,-80.4864,33.8487,-6.3966,-120.4912,-134.1452
88.2769,77.7130,-29.0419,-91.5892,-31.8523,-55.2931,-102.5844,12.0787,-115.2926,17.6732,-96.3220,-0.1228,-43.1664,-73.7978,-46.9705,-32.2876,4.6089,-100.5546,-145.9236
-98.3344,222.6858,-117.2534,63.5113,-159.6837,-146.5694,-236.9704,-78.4402,-188.2664,-20.9060,-178.0452,-80.3224,-144.8258,-178.8325,-120.9752,-149.0228,-109.7169,-144.9613,-241.4223
-161.7429,213.8411,-172.1997,78.4908,-213.7163,-114.7249,-275.5613,-71.7670,-171.2053,47.5442,-224.3453,-119.5608,-186.6900,-185.8300,-128.6009,-126.6602,-182.1931,-133.4048,-280.3398
-45.8837,27.5404,-163.6818,-101.5785,-169.5145,-43.0851,-202.4975,-15.8320,-133.2788,83.6523,-187.4854,-86.1779,-121.2427,-124.0350,-110.5264,-50.5570,-155.2861,-83.7793,-258.2725
-149.3902,112.4225,-231.0524,-17.0585,-215.2154,-117.7281,-234.1709,-103.2488,-257.5109,-81.4308,-219.6745,-121.1943,-179.0681,-154.9214,-174.9652,-72.8452,-147.0160,-135.2663,-276.0465
-159.3768,171.9189,-227.9466,53.3610,-221.6924,-145.4724,-256.9265,-160.2279,-353.7151,-184.6814,-226.0511,-132.5296,-241.5209,-159.0247,-156.3878,-25.1530,-76.9737,-164.3947,-204.2770
46.5200,21.9501,-93.4598,-105.0526,-99.8712,-71.1394,-132.8324,-85.5835,-256.4326,-110.9369,-134.1075,-89.2879,-122.8861,-91.9100,-67.2904,119.1677,43.5171,-115.0547,-41.6656
6.0123,74.2022,-51.6591,-79.7666,-53.9392,-106.3674,-40.8488,-74.2297,-144.5962,-47.0937,-102.8305,-133.9133,-26.8730,-102.9666,-100.1162,163.6763,45.4581,-133.9826,-4.8163
-87.5680,160.4803,-77.7561,29.8415,-77.4271,-150.4966,-42.4072,-94.5108,-96.4884,42.3271,-121.4550,-157.9752,-81.0137,-104.1125,-132.3093,170.0633,27.8214,-155.8229,-52.3642
50.4969,6.6672,-30.3085,-46.7872,-54.2544,-80.0945,-53.2772,-49.2050,-63.1702,144.6969,-102.0622,-65.7808,-159.1164,-24.9050,-80.3390,187.3334,99.3420,-100.3400,-68.2975
25.8008,13.6588,-12.5461,12.9146,-74.0051,-77.9419,-119.5508,-87.2766,-135.8810,22.3421,-113.0762,-40.6309,-199.6292,-46.3198,-140.5680,39.6366,120.4946,-92.0118,-143.3436
-101.3951,190.1478,-24.8147,209.0740,-90.4791,-89.2040,-196.8862,-162.3520,-312.0849,-198.0244,-101.0595,-52.7079,-153.1696,-107.2371,-231.0582,-177.2554,114.0245,-60.2674,-220.6665
19.6241,168.6688,35.5539,215.5231,8.4433,70.8110,-176.1658,-90.1144,-455.7810,-246.6617,-4.8169,51.5885,-29.8377,-33.8761,-138.0011,-255.1122,170.0047,99.2580,-179.0146
35.5660,160.5629,53.4921,208.0170,49.3195,176.5050,-153.7317,-27.4271,-549.3645,-275.5908,-1.1805,85.5117,-26.7311,-9.1233,-32.6664,-310.5164,131.9848,147.4808,-163.5975
-131.7942,242.9010,8.6300,234.1963,-26.1919,71.5556,-169.4001,-97.0598,-566.3248,-354.0576,-85.1776,-44.0350,-138.0113,-111.2812,-49.5881,-346.7413,2.6773,10.0419,-210.3067
-30.4098,106.7514,44.4477,55.6918,-23.9106,-11.9829,-113.8040,-110.5005,-455.1449,-252.1262,-49.7929,-104.3366,-125.7049,-100.2778,-47.7661,-152.5906,-15.3007,-51.3439,-147.4366
98.7955,-22.6602,63.2372,-62.6631,15.1314,-25.2940,-47.4784,-54.0039,-337.9906,-41.6889,4.4525,-89.7544,-33.4312,-5.4362,-56.7900,135.9773,6.8326,-39.0676,-51.5059
-59.6340,67.1119,-19.5512,35.9458,-11.1084,-89.1816,-32.7190,-61.0682,-268.4403,68.2202,-65.4488,-140.5515,-29.3619,-6.9831,-131.7412,263.7636,-19.7369,-95.9652,-44.0082
-83.0609,51.1276,-12.8212,2.7382,42.9967,-101.6482,39.4860,-47.8370,-136.5589,155.9228,-83.6857,-135.4978,-31.2578,14.6156,-94.0073,292.1545,63.2874,-93.6331,7.9445
90.2065,18.8641,106.4958,-41.0619,166.5535,-14.0092,114.7269,32.8214,-36.7907,212.3508,11.7268,-8.8360,4.8406,116.2383,39.1280,249.2609,229.3899,8.5124,97.4162
125.9819,248.2583,188.5975,181.2305,192.6615,59.9608,73.1125,74.3454,-116.0702,96.8658,81.8712,110.0798,9.0574,133.4010,49.9275,56.7095,315.1515,66.8904,77.9694
216.4033,418.4230,272.6140,331.7032,213.5668,140.4117,56.1183,94.2510,-216.3990,-61.0259,154.4307,223.5524,61.8533,87.8456,-8.5802,-150.3882,387.4774,133.9420,49.4901
424.3001,434.2227,358.1231,329.9436,309.3288,240.0356,133.0404,120.1121,-214.3803,-122.9383,253.1559,364.0253,175.5919,84.3313,8.0333,-259.5163,470.1521,259.9200,83.8907
424.4435,602.8633,332.5565,495.2133,319.9881,255.3831,122.1334,64.6182,-237.2363,-198.0918,271.7592,460.3439,192.3952,62.8872,34.5144,-355.0914,456.1082,288.1260,13.8925
372.4250,728.4183,292.9156,622.6090,227.8853,221.7374,-8.7384,-55.6218,-323.8684,-326.8924,256.0492,537.4229,137.3355,13.2571,5.4456,-446.1942,425.7084,209.5265,-174.4439
450.0630,624.9009,330.4745,519.0870,163.0267,212.0402,-131.1893,-167.6420,-408.8713,-456.2377,276.8639,609.8146,122.7942,-14.3914,-54.6167,-520.7671,434.2914,154.9059,-322.4409
361.8796,588.2958,315.9232,478.7645,123.2454,171.7981,-210.1743,-269.8188,-476.1295,-583.0065,239.9914,574.5989,78.0731,-49.5808,-100.7718,-626.0955,347.7170,102.3880,-384.4379
169.0243,557.9785,235.7269,443.4579,89.2508,122.2040,-217.3101,-294.3386,-422.9765,-601.6794,151.5837,473.4869,-14.6423,-48.2286,-57.7731,-634.4015,200.0254,23.0928,-348.9832
142.5374,326.4745,171.3628,210.5027,68.0172,109.8503,-137.5670,-197.4096,-172.0175,-422.0360,102.6763,420.3580,-50.5442,45.9733,23.3778,-427.3338,109.6121,-32.3192,-222.7621
69.5533,172.8723,60.6886,58.1953,7.7184,51.3352,-55.1160,-95.4429,121.3166,-179.8856,42.6726,359.4147,-45.3578,113.7915,6.3153,-176.7627,8.4475,-85.9662,-110.9328
-94.6869,147.3812,-61.9407,41.9669,-41.3170,-34.5815,30.0564,-29.4153,310.1157,6.5357,-30.7261,270.5805,-36.7617,96.9638,-21.6765,-17.8521,-81.3759,-129.2106,-21.6200
-72.0714,21.2962,-58.9892,-60.8434,7.3053,-31.2647,163.5016,62.1821,393.6688,142.5398,-22.0201,236.2633,19.8927,100.2001,48.7947,114.4905,-35.5462,-92.9489,102.0020
2.5372,13.9946,-0.2265,-44.5869,54.9589,3.2686,234.3662,123.7271,352.5999,188.3065,23.4354,223.3068,86.6491,123.4554,64.5902,207.6525,49.6107,-31.4596,154.3616
-22.5911,202.3369,32.4642,163.1559,42.4847,-2.2429,186.6985,110.6698,218.0807,152.1182,44.8144,198.2277,105.3049,101.6017,-18.8461,212.2558,83.5841,-10.9133,83.1088
45.7282,223.9360,114.3665,208.4708,69.9170,20.3322,134.6093,89.6122,104.5986,112.6886,92.5166,206.5464,102.0923,68.9563,-25.9427,177.9023,159.1686,12.2409,28.7449
125.5079,175.0544,201.0489,147.2551,112.4749,54.7302,91.5835,56.7388,9.1965,58.7042,133.3837,182.5847,54.5848,33.5132,11.5740,123.9979,233.2113,25.4014,17.4409
75.9575,317.2353,195.6095,194.4005,74.2607,31.9156,3.2954,-6.7156,-99.2455,12.2876,116.8477,87.2420,-52.8199,-27.4431,-45.0455,72.3468,199.7893,-7.9717,-35.1950
114.6902,382.7762,159.5134,143.1077,3.0025,-9.6159,-63.1793,-47.2758,-144.5906,41.7696,110.3389,41.3855,-122.7424,-68.7506,-125.7405,74.2142,151.2146,-37.9322,-88.1475
210.2058,287.0407,112.4715,10.9090,-60.2299,-64.6791,-73.3798,-100.2850,-141.3061,34.9920,108.0178,42.1942,-128.8517,-91.3186,-178.2065,47.5429,147.0782,-80.8171,-106.4477
151.2724,286.7934,34.6313,48.9659,-121.8731,-153.4960,-85.1018,-205.1103,-173.2249,-82.8593,56.2075,-9.1586,-141.8797,-130.4498,-246.2953,-55.6129,132.9138,-182.5320,-139.7302
120.4964,279.2323,28.7395,78.3133,-129.7216,-189.7847,-109.5934,-257.1764,-188.0120,-140.8371,32.2665,-33.1305,-163.0596,-130.3110,-261.7256,-74.4345,134.9017,-242.4832,-174.7348
169.0070,177.7158,76.1381,-12.9257,-110.2240,-150.9694,-149.8698,-231.5760,-154.8032,-95.1154,59.5553,17.3589,-183.3705,-69.9032,-212.3563,34.5933,138.1828,-200.6745,-193.1721
68.3767,183.4900,38.8278,7.8417,-125.5998,-119.4324,-186.2102,-204.5019,-152.6617,-82.8047,56.5404,11.0194,-201.0288,-12.3080,-219.4358,124.7523,76.0270,-149.8606,-194.7395
-18.4512,178.2188,7.1006,43.8142,-82.1596,-82.8172,-124.5992,-118.7334,-159.8491,-53.7082,64.3544,-60.4119,-142.6575,45.6790,-240.1505,199.0170,36.2638,-110.5771,-103.9314
64.4884,24.8117,75.3904,-71.4286,29.5144,-18.9075,-12.8857,45.6756,-122.1143,70.8373,118.8818,-89.6195,-40.3211,114.6111,-158.8307,318.2497,47.5905,-49.1056,37.3648
34.8804,-7.8784,72.7777,-108.8474,20.5549,7.1959,-29.0615,128.7328,-102.0973,158.0757,111.3216,-89.7138,-40.6151,140.9644,-63.0879,374.8757,-31.8977,-25.2928,31.9103
-100.7945,79.8137,-41.1908,-39.7769,-109.4780,6.5300,-137.7981,97.2310,-99.5967,144.1806,42.0573,-89.3009,-94.0131,127.2772,-44.8326,307.2578,-141.3123,-48.1930,-93.9697
-82.4460,52.3773,-80.3692,-48.9064,-168.5399,28.5814,-170.4836,74.0980,-31.0314,110.7539,17.8863,-67.6516,-57.8177,95.4484,-37.2011,195.2290,-97.4569,-31.0896,-123.7412
-44.1702,79.1607,-35.2018,3.7992,-136.6861,48.3469,-121.4695,69.0598,71.4573,72.8191,13.9865,-57.8042,-3.0738,30.6600,3.5478,90.1263,16.1523,35.7949,-56.5071
-77.1901,240.0367,-7.4280,159.2126,-96.6039,81.3486,-47.0734,51.9522,134.1068,35.1482,-9.4656,-55.7573,-23.5671,-2.3717,50.2978,24.4938,63.5165,96.6544,-22.5140
-5.4178,262.5562,27.3082,178.4608,-51.8878,132.9138,29.9850,56.9945,156.9608,21.5206,-5.6014,-15.8460,-44.0025,39.2527,73.7327,16.6073,87.3729,115.3998,-10.0705
73.4366,196.0188,76.5761,123.0141,-10.3269,107.5405,58.3153,66.0388,147.3424,1.9471,21.3111,4.6423,-7.0262,52.2257,54.0071,21.4792,100.6189,78.9535,34.9147
49.1571,215.8595,110.7878,139.2343,27.5363,32.9821,69.9569,71.7630,150.3957,35.6804,55.5797,-32.5050,63.5809,23.4036,35.6579,61.8549,97.3634,42.9822,103.1719
86.5156,173.8484,149.0912,100.4576,67.4656,37.7112,130.5253,130.0240,225.2452,212.9996,95.7423,-60.2099,111.2422,55.8847,50.9976,191.0105,124.3275,56.6883,160.0430
108.9026,79.4029,130.4077,24.8414,21.2036,54.0293,133.1874,188.5977,298.5010,399.7255,53.1175,-84.0664,35.5149,88.7653,14.0110,302.0973,100.8878,37.8348,144.3803
-28.1660,83.4342,-2.4754,12.9343,-118.9916,-18.5293,11.9030,148.7301,288.9747,431.5397,-73.9877,-135.9903,-132.2515,28.8201,-83.0660,287.2703,-31.9382,-60.3024,57.9326
-104.6409,44.6155,-120.1903,-53.9759,-182.1204,-81.1248,-74.2216,62.7089,259.4263,358.9321,-124.6158,-144.1127,-202.8504,-22.9510,-105.6777,196.7815,-109.6662,-129.2809,4.5476
-68.8907,-41.3385,-134.4118,-122.4202,-124.9979,-77.7702,-55.1956,26.9631,239.3726,258.8537,-97.6206,-98.9329,-159.6417,-5.5213,-57.0771,74.4585,-76.4371,-112.6268,17.1922
-119.9947,34.1844,-126.9117,-37.4530,-70.6914,-67.1799,-34.1185,55.3609,177.3801,160.0301,-125.7315,-71.6387,-129.4120,9.5125,-52.7394,-44.6411,-69.7396,-61.4053,45.2801
-146.3898,113.3002,-112.0745,17.6213,-32.5678,-25.3284,-30.4519,116.5273,102.4123,100.7090,-152.8947,-35.0491,-81.3142,31.1718,-75.2613,-77.1873,-57.0904,1.6282,80.5411
-46.2096,32.4631,-49.6579,-26.9973,17.5732,49.3011,-39.7724,124.8872,42.3095,4.0249,-96.1990,29.9849,3.8700,77.0131,-73.4674,-71.9648,44.0665,48.7936,82.9574
-3.6440,35.4143,9.3515,55.0561,27.3465,73.0043,-111.8529,30.0672,-49.8117,-186.0232,-46.3588,51.8620,-5.4040,72.3859,-56.2011,-115.7683,111.8125,56.3978,-6.3828
5.5028,161.8316,51.4087,182.9778,20.7657,77.1608,-169.6198,-59.2815,-129.3831,-297.7443,-32.1527,51.3349,-72.4298,35.2221,7.5383,-97.9829,105.3753,87.9878,-96.5789
71.3681,189.6200,116.9519,174.6884,63.0818,126.0310,-109.2609,-56.2619,-98.9843,-249.4879,7.2839,93.7381,-25.4684,49.3845,87.3444,32.1976,141.1640,143.6612,-82.9384
41.0605,174.8142,159.9094,167.8470,103.3228,142.2949,-21.4447,-42.0722,4.1455,-197.4545,27.3739,116.6066,70.5881,66.5721,62.8070,100.4749,178.2463,101.1761,-42.8040
-13.6908,191.4869,131.1738,147.9073,79.3691,65.3885,-29.1390,-79.9392,77.1896,-162.8773,-9.9024,57.8746,43.6019,3.0969,-47.9971,44.0325,113.0042,-45.5448,-59.2154
92.8528,124.5873,52.0921,-28.6699,-2.5718,-57.7772,-115.7436,-125.7326,71.9766,-48.4896,-56.4876,-41.7339,-83.0245,-115.9143,-147.7681,-37.0643,9.2410,-163.0560,-80.1107
141.5709,37.4471,-55.4844,-145.6072,-105.5102,-158.4428,-188.1041,-127.9475,0.8756,79.3280,-110.8034,-129.7363,-186.3665,-206.4060,-239.5799,-109.2912,-52.3607,-177.4577,-46.3220
7.6022,16.5486,-125.4988,-82.9261,-125.7752,-148.6720,-141.3056,-52.7162,-55.9865,150.1983,-158.9586,-155.4594,-188.2978,-191.4470,-278.6052,-132.1551,-59.4914,-96.5035,40.9717
-62.9127,-43.4708,-84.6364,-83.4519,-14.8413,-33.5125,11.5606,63.9287,-54.2686,186.4093,-135.7432,-113.0190,-96.2025,-95.7014,-184.4533,-58.8274,-7.3864,6.0806,130.2493
-67.7736,-113.9815,-7.4414,-151.8785,87.8229,24.0177,108.9117,110.3516,-60.8269,151.9669,-84.8376,-96.0416,-32.7888,-50.4035,-67.7571,9.2337,35.2442,16.1791,150.2359
-129.8351,-115.9228,12.5622,-140.2836,100.0399,-15.6676,122.5611,83.6921,-81.1891,75.8472,-81.4054,-133.7725,-52.0564,-72.2851,-51.3644,11.6661,8.6268,-37.2937,125.9324
-100.1227,-144.9171,25.2908,-152.0209,125.1401,-15.2727,183.9632,81.1437,-40.0281,61.3239,-75.0038,-144.4332,-29.5000,-50.6531,-53.9660,37.2875,0.8938,-15.4843,139.5125
-5.0201,-157.7492,64.9465,-176.7656,186.9943,29.9692,266.8747,96.9296,13.6600,36.6179,-38.8741,-128.2802,61.1434,1.8872,-10.6151,71.8502,63.7392,68.3310,167.1915
-47.0195,-51.7281,87.9124,-76.1786,212.1277,44.6810,270.7154,89.0016,7.8704,-64.3686,-27.1006,-127.7855,91.2637,2.5105,28.4908,46.4151,116.1840,114.3427,162.3427
-88.2751,1.5191,107.1471,9.7096,226.0125,75.5710,263.8737,90.6692,21.1825,-100.8831,-18.2451,-101.4148,86.7482,-6.5161,50.3455,34.5399,151.5894,134.6676,161.8207
12.4857,-50.6686,143.5151,-8.8979,252.0363,122.7663,280.5865,96.7968,80.3326,-50.9392,26.6081,-57.1268,150.4292,24.8612,52.3356,62.5012,220.7381,149.2696,159.5301
91.8899,-0.4400,156.3993,19.6632,231.8374,111.1275,222.3541,79.7278,86.0900,-43.7795,53.0158,-59.6136,169.7639,53.6309,28.4011,42.5401,263.1559,123.9384,110.7017
110.5796,101.3806,127.7691,50.9079,165.8855,84.7736,105.6231,69.8498,42.0482,-37.9348,21.1267,-73.4305,35.2967,41.9791,32.9771,-15.1137,214.1208,79.2852,51.7789
127.0244,90.8339,62.6057,-9.4467,90.3847,84.2578,20.8364,52.0436,14.3667,25.2445,-40.7095,-56.6476,-90.9420,-22.6805,43.5105,-60.0613,112.1293,50.2889,5.7600
59.4472,89.0124,-28.7650,-6.9385,7.2369,59.6837,-45.4082,14.6957,-26.2396,70.7267,-95.3861,-39.7845,-62.5567,-99.2270,-30.0634,-88.6753,1.0352,44.7581,-57.4257
-30.2680,157.9979,-83.1314,81.7005,-41.0634,62.9594,-88.0448,57.9425,-83.6228,135.0229,-107.5557,-5.9622,3.5543,-75.8643,-104.0817,-42.4117,-93.1567,95.8335,-95.9782
-13.0727,173.7627,-65.6639,109.1115,-23.0254,141.4799,-47.1686,167.8694,-97.9160,240.2465,-71.9426,40.1045,-7.7255,23.3237,-56.2096,61.1648,-124.0608,169.9230,-66.3095
12.0980,144.9476,-17.1763,97.1157,13.7856,162.2855,48.0865,165.9304,-86.7617,191.5034,-11.0629,4.5606,-12.4783,27.8495,15.8524,69.2043,-80.1925,153.0275,-22.0240
19.8169,90.1086,49.3391,53.7979,48.1189,69.3530,120.1566,50.2901,-103.8479,-34.8882,72.4010,-94.7108,39.0074,-55.7665,8.5634,-6.7724,-21.9810,45.8756,-6.7637
93.4386,-31.3305,105.0159,-79.2704,69.6440,-22.7656,118.7593,-27.5392,-146.8747,-191.4381,129.4735,-146.8934,35.5888,-77.0210,-11.8424,-37.7077,-33.1165,-55.8913,-35.2365
101.7881,-89.1036,67.4079,-162.8409,26.9480,-83.1395,29.0023,-61.3738,-186.4612,-216.5074,89.6934,-162.8537,-37.1180,-46.8463,-10.0373,-75.2422,-119.2990,-120.6825,-119.0781
12.3717,-24.1138,-13.3444,-120.2697,-31.4483,-125.9871,-47.7623,-91.7515,-163.8638,-216.0130,36.6647,-167.7590,-23.6648,-41.2379,-15.4757,-162.7992,-165.2935,-130.2712,-172.0137
36.4330,-4.6308,-1.8603,-93.9044,-5.4253,-95.3257,1.7274,-77.0870,-59.6771,-184.0624,80.2455,-109.3666,87.5749,-26.7373,1.2627,-189.9035,-97.8197,-72.6823,-119.7967
129.6588,-20.8555,66.3842,-68.5488,49.2128,-30.6978,85.8377,-46.3722,5.6789,-149.6008,128.2411,-39.2118,123.2261,0.1140,51.1513,-178.8351,-10.1779,-24.4044,-70.3032
126.9238,53.2515,90.1958,24.4851,46.8281,-27.8301,69.4222,-63.5737,-50.0178,-195.0415,96.1470,-45.5122,58.1436,-5.7269,83.3519,-223.0910,9.6039,-30.3265,-104.3698
131.8049,106.6607,79.9065,42.9132,19.8410,-53.6423,-0.8665,-100.4356,-121.6504,-249.8983,67.4485,-68.9352,25.9272,-20.5075,73.0863,-224.1837,-13.4332,-50.8585,-135.6154
144.4611,57.7257,26.7340,-34.1373,-27.3395,-82.7483,-46.6133,-141.3262,-122.5118,-233.1250,46.8930,-75.9487,43.8330,-36.7164,28.3369,-123.2320,-71.3860,-102.2136,-135.6667
8.6185,-1.7024,-93.0021,-77.4356,-110.8732,-158.4737,-59.9902,-183.3085,-77.5322,-163.9026,-44.4495,-145.7880,36.6783,-79.4147,-8.1949,-30.6313,-164.2627,-182.3748,-145.4653
-135.6031,-86.3597,-186.2714,-129.5777,-156.9294,-202.9251,-16.1939,-137.4776,13.3611,-6.0122,-135.2608,-243.5490,-5.2329,-77.5273,18.2264,58.4244,-219.6502,-173.8533,-107.0146
-126.5476,-180.4574,-191.4375,-182.7366,-142.1778,-114.9674,69.4100,21.9886,120.0446,216.8474,-131.3987,-247.0456,-48.8834,31.8755,60.8110,197.7370,-211.1925,-53.8776,4.9490
-94.0592,-132.6256,-163.0189,-103.7126,-116.6048,20.9477,129.2808,169.5516,143.5166,313.9417,-76.9651,-175.7635,-40.0657,149.2787,51.1101,252.8363,-189.8872,50.1226,95.7683
-66.8941,-10.5792,-118.0096,0.7419,-57.5890,79.0315,161.9147,199.1521,103.5818,220.2294,-8.0821,-131.7940,49.5055,141.5464,52.1080,127.7502,-166.1163,79.2183,115.6146
27.1604,11.4286,-64.6531,5.2221,15.1995,48.1740,162.6687,103.3705,91.3019,57.2003,69.5479,-133.3825,121.8747,8.6063,95.0413,-60.1958,-146.2827,57.0197,62.4763
80.8969,19.3814,-54.2591,52.0532,0.5646,-26.4735,86.4250,-46.8751,55.0828,-117.7900,103.8336,-127.9810,96.7495,-128.6608,80.6766,-198.2888,-154.8969,4.2364,-66.7550
88.7103,94.8131,-43.4375,145.4270,-50.4185,-85.9616,-8.0406,-143.7046,-68.8103,-283.8536,102.3326,-79.1997,57.8873,-163.9520,8.5325,-273.9662,-144.5905,-37.1490,-191.2034
165.4120,119.1147,22.9017,119.0494,-33.3147,-117.9673,-60.2245,-209.0879,-197.9106,-391.9120,114.6795,-24.4556,51.9964,-142.6523,-26.3325,-306.6651,-93.9767,-80.9846,-254.4620
195.6120,64.4388,52.1524,40.9836,-32.2422,-180.8085,-152.8085,-354.3481,-276.4387,-485.6786,102.1762,-13.3352,22.3495,-157.2347,-46.6783,-341.7632,-84.5723,-188.6286,-336.3976
94.6095,-2.1651,-4.0525,20.8997,-103.1333,-241.9982,-277.8848,-492.9581,-332.2610,-600.0004,48.8201,6.5510,5.8222,-145.3268,-76.8462,-379.9153,-117.2643,-268.6442,-435.0985
18.5098,-79.0614,-47.1624,11.8840,-123.0307,-183.0387,-265.7765,-453.0522,-313.3284,-643.6718,26.4704,87.5048,41.6481,-39.5229,-28.2305,-363.0476,-103.7804,-191.1771,-417.6590
-18.3899,-136.3349,-34.5419,47.4227,-48.1266,-41.6350,-93.4225,-304.3159,-146.0745,-586.1079,35.9510,149.1161,49.9075,44.8479,82.4562,-299.5098,-51.9070,-54.1874,-276.0209
-98.7927,-153.4706,8.8003,122.9536,47.1872,37.4004,98.8989,-188.4137,93.2615,-482.7215,25.2923,132.9907,51.2203,43.0203,117.2673,-212.8315,-3.6513,7.1397,-109.6354
-121.9680,-182.0657,77.2138,97.2825,135.5478,46.5769,237.3106,-78.0063,257.2633,-311.3275,9.5791,100.7461,133.5948,64.4591,74.8243,-48.9882,48.3162,39.5118,39.7593
-72.9325,-194.8413,106.3844,38.6228,179.0879,52.7517,295.7888,42.2008,295.0648,-75.6802,1.2802,77.3308,194.4380,123.6885,62.5263,166.8999,71.0649,77.6975,131.8456
-70.5909,-156.0357,59.5009,90.5515,144.5006,50.5414,264.8972,108.3397,255.1608,113.5759,-9.3266,41.1703,150.1539,115.7067,82.4023,297.3572,65.8706,75.0499,147.4080
-60.9581,-138.6797,42.9879,126.2021,115.1312,31.8103,209.8815,136.4592,191.3716,220.8837,4.3993,21.0328,123.1725,46.9820,60.3453,303.8004,115.7879,54.6424,160.1369
-6.3048,-136.7737,87.5298,78.4256,123.6878,18.0715,147.6709,152.1484,110.6692,292.8855,25.0107,7.6189,123.9145,-19.8629,-9.0792,249.7425,175.4356,39.1166,174.0804
-28.9227,-101.2893,79.4522,76.3400,71.2053,-4.6324,22.2283,111.5743,7.1705,324.7295,-2.5004,-47.5547,32.8201,-82.9857,-68.7694,171.5050,123.5995,-17.8208,106.5751
-97.3849,-114.8003,15.9095,74.8145,-37.6113,-57.0006,-104.8603,30.6676,-83.3457,327.1506,-47.4106,-89.0643,-71.8276,-107.8666,-99.9459,120.9893,22.6830,-105.3661,2.4668
-114.0428,-169.0322,-29.7402,-6.2130,-104.9388,-120.5816,-126.8802,-31.1170,-109.7778,352.5621,-70.5996,-52.8098,-71.7804,-55.6053,-131.8793,153.6013,-37.0451,-182.2028,-48.5166
-159.2717,-142.4854,-97.2501,-61.3932,-152.8634,-172.0077,-94.9778,-82.1264,-67.2680,371.0767,-103.3173,-13.3730,-50.1754,2.5400,-146.7528,211.3104,-125.5891,-265.6023,-91.6935
-231.8368,-113.8398,-198.3465,-102.9975,-224.4440,-213.9815,-96.1906,-131.4182,5.1653,311.3039,-131.7272,-42.0890,-61.2639,-6.2815,-97.3904,193.9730,-246.0159,-331.5692,-152.1479
-208.0544,-162.4313,-235.1395,-198.1396,-255.6176,-247.3681,-111.3223,-142.9426,64.3626,192.2646,-117.6200,-83.9840,-60.2490,-39.6058,-29.5929,105.5378,-286.3747,-308.1305,-159.7471
-135.3529,-129.8219,-189.5079,-198.2630,-218.1389,-226.4707,-113.3915,-102.0464,91.2669,92.2127,-99.7673,-68.1477,-76.8911,-28.0732,-14.8529,23.9813,-259.1278,-210.0930,-123.5942
-95.6158,-3.7289,-128.4780,-78.2926,-161.3378,-117.4220,-99.5800,-24.5002,93.0854,50.9244,-88.7565,-5.4510,-88.3792,22.3692,-22.1032,-5.8344,-238.9158,-106.1112,-94.8087
-43.9924,32.1780,-68.1441,-34.9602,-93.9067,-4.6812,-46.8617,53.1449,73.0107,40.3322,-34.3182,32.5557,13.9564,44.2550,-19.0606,-8.6914,-200.2632,-20.7333,-35.4358
4.8331,17.3813,-2.8149,-44.6429,-3.4756,22.4536,28.6112,98.5723,17.2085,24.3146,39.9302,10.1493,144.5770,14.0677,-27.9332,-12.5778,-121.2146,49.1276,67.8797
31.2096,72.4121,63.7712,32.6721,78.9878,42.0834,66.2008,144.6071,-81.5301,38.3598,83.4636,5.5378,122.9134,14.2185,-15.5697,25.9585,-23.6749,114.4888,138.4311
108.3980,122.8929,142.4973,130.4817,118.3070,132.1948,44.8571,209.0693,-207.8033,109.3816,117.9651,85.6954,5.7771,85.4585,29.7429,124.6254,92.0205,168.0277,139.5735
193.9914,137.2961,215.4491,191.8398,114.2103,189.1955,-5.7782,208.1713,-317.1598,141.4747,153.1645,157.4866,-50.6192,113.2659,16.7077,168.0753,188.5046,161.8276,108.0345
200.0186,163.3914,251.7557,235.8566,98.8423,136.7392,-38.3741,108.7269,-351.8215,58.9653,166.1103,118.8641,-38.9386,24.0123,-52.0740,77.2198,219.9106,96.8347,80.2068
199.4646,135.0477,261.0372,190.9868,98.0973,64.1779,-28.1161,4.2238,-292.3426,-39.4283,159.7419,26.2343,-7.9690,-80.1796,-69.7846,-30.6759,226.0763,47.1952,66.4769
206.6223,38.9302,238.1471,80.4948,86.5299,31.3835,-6.8785,-49.6046,-165.6124,-34.1019,115.9384,-34.5276,14.9134,-111.9788,-55.8289,-25.3458,214.9923,29.7949,53.7111
116.2188,-37.0300,154.3646,23.7965,33.2760,2.5612,-1.6065,-69.1957,-12.0398,44.4814,17.2130,-66.5052,-5.7452,-112.5456,-64.0234,38.5106,114.4793,-9.0279,36.2904
-19.3090,-120.9558,27.9208,-42.1612,-41.0483,-40.6621,9.0692,-58.9464,105.6530,91.0889,-78.0957,-92.6892,-50.4651,-129.3984,-33.6217,31.8584,-49.0641,-81.1046,37.4924
-95.0961,-231.1760,-99.1059,-163.9800,-107.8559,-94.7038,17.9340,-42.9351,136.0139,65.2071,-129.2701,-112.5100,-62.5275,-150.0423,16.5114,-51.5958,-164.3880,-141.8089,51.0926
-149.2693,-253.3024,-186.3838,-190.4464,-153.9962,-130.1659,-8.5436,-45.0767,111.9214,20.3720,-153.2146,-109.8649,-53.6140,-140.4130,-8.0255,-101.1430,-207.1599,-138.6516,34.3312
-172.1557,-175.2105,-185.0937,-114.8134,-159.7048,-96.0804,-51.2996,-36.8765,69.9091,3.0706,-120.9863,-72.7494,-60.9472,-95.4605,-36.8545,-74.4983,-203.3838,-72.4864,-6.1475
-100.6393,-89.5564,-118.9560,-88.4164,-130.5600,-41.2987,-83.6716,-30.9197,-33.4688,-36.4351,-26.7855,-45.0103,-75.1411,-68.0222,3.0392,-64.7421,-157.9762,-33.3273,-22.4131
-8.3079,-18.9776,-77.6579,-94.3316,-95.3553,-49.6463,-110.8534,-61.9407,-185.8906,-122.2132,29.9531,-64.8318,-79.8873,-75.5002,-4.0106,-101.6170,-101.2960,-58.5127,-4.1356
41.6532,15.6057,-64.8678,-54.3777,-55.7674,-45.0005,-118.0845,-55.9242,-283.9300,-151.7523,15.6052,-58.8225,-77.7112,-34.5134,-81.0666,-74.2244,-52.7309,-37.4840,24.4172
103.3185,22.2224,-28.1702,14.8127,-17.6014,56.1699,-107.1133,34.0247,-314.9144,-87.7262,11.6828,35.1768,-80.4761,69.8298,-81.9795,29.0394,13.7973,67.3726,39.0053
176.4477,98.3881,13.1028,115.4394,-5.3150,142.5865,-118.6279,96.9220,-328.4314,-48.3349,32.6829,133.8096,-92.9944,117.1548,-16.8921,73.7968,84.4850,123.5055,34.4852
217.0472,203.8877,36.7905,207.1428,-5.5105,121.9354,-132.1710,71.1139,-283.1553,-84.2468,34.1853,153.3873,-84.0338,75.5349,-12.4652,33.0759,113.4623,88.8588,31.1063
223.6011,195.9676,59.5969,197.9531,-4.8933,74.5993,-98.9260,29.8582,-164.4608,-126.7780,30.0157,126.3934,-42.0503,41.8104,-39.6283,-10.7227,103.3112,62.0989,25.2506
174.7495,134.6717,52.8861,146.1150,-31.0842,55.4580,-57.4801,2.1331,-69.0231,-147.7055,28.8811,95.6562,-31.3440,33.4660,-39.2677,-42.1677,67.9581,51.0533,-12.8330
88.5312,115.6742,0.4700,133.3715,-73.5595,32.7138,-52.8761,-26.0486,-23.3302,-129.8770,1.3611,65.9759,-84.3180,5.6035,-74.4689,-48.8273,8.4522,0.9431,-49.5880
50.4352,58.7713,-40.7232,94.3309,-91.1617,19.2154,-54.3795,-19.9050,33.8959,-28.0106,-42.2757,56.6458,-138.4152,-4.1977,-145.9115,14.9280,-33.9261,-38.2516,-21.2246
45.5999,-19.9428,-50.2944,46.8841,-89.1517,47.4343,-38.6433,29.6189,88.5135,102.2161,-71.5968,85.3591,-144.7384,43.5741,-145.6903,90.1054,-15.0390,-0.0289,43.2542
11.1742,2.2404,-48.6744,97.3800,-68.5412,98.4396,-15.3742,87.3153,88.8072,149.7070,-72.6862,133.1287,-108.4747,92.6575,-68.6072,82.8926,40.4454,76.4385,73.3899
-7.7225,52.8711,-20.8840,172.8744,-19.9871,134.9217,-0.2443,125.9888,36.4980,114.9182,-30.5709,148.9135,-59.1363,77.1913,-21.0035,14.7631,70.7476,112.5263,61.5142
-1.9568,13.0651,0.2406,158.2348,-1.3229,123.8328,-26.9252,97.1287,-39.5061,48.6622,19.5041,87.0493,-57.2330,-1.4005,-28.5879,-72.6284,38.7170,84.6567,20.4170
-54.4356,-70.5378,-71.1348,92.1604,-41.5952,66.6659,-72.7685,-6.5208,-70.0353,-42.0912,1.3893,-18.7880,-98.4436,-88.2226,-20.9766,-170.2968,-39.1001,46.0747,-38.1379
-148.5715,-156.8717,-216.9561,18.5204,-62.3045,24.6554,-43.9287,-72.8987,-2.9068,-122.5091,-63.9540,-77.8528,-68.9930,-115.6791,14.9056,-207.7046,-108.0261,59.3291,-62.6793
-201.5135,-227.1333,-344.2142,-39.5945,-34.2133,37.3636,52.8479,-26.7102,77.9587,-125.8798,-79.2961,-68.8626,40.1247,-64.5394,16.6205,-126.9832,-142.6495,104.7239,-15.7097
-205.2680,-201.9052,-423.0237,-28.9227,-13.6763,74.1263,114.0690,68.6562,98.4964,-46.8185,-40.4224,-36.5263,77.8130,19.8694,-13.6878,9.1996,-154.7994,128.7594,74.4285
-174.7741,-120.9573,-459.7313,-1.3010,-4.4437,97.5119,129.8813,144.7871,149.6005,53.0856,-27.4605,-4.5643,-0.0498,81.5829,-1.1166,115.0635,-135.3552,124.1856,154.9197
-129.8958,-105.0349,-459.9295,-30.7277,3.0945,88.8010,140.9010,175.5509,272.1188,116.5667,-59.0035,4.7952,-80.4135,98.5674,50.4955,162.9458,-78.8806,85.9245,177.8730
-92.7138,-93.3060,-445.2269,-34.2154,-21.3573,53.5801,121.5878,144.3624,333.1041,151.9149,-67.5597,-15.3669,-97.7486,98.8850,61.3063,158.5199,-22.4461,22.0714,131.4077
-6.3270,22.8559,-407.4931,39.2711,-42.7582,40.3126,68.9747,97.4325,256.8261,193.5199,-7.6979,1.1977,-62.7952,125.8199,19.2626,131.2973,15.8558,2.9870,68.2728
157.3644,187.4796,-332.3381,109.7042,-10.1559,69.6776,19.3695,87.9629,98.9627,190.5089,68.0909,86.9382,-8.6777,161.7905,-33.9706,88.1693,59.0656,45.6940,30.1095
299.3091,332.7771,-264.7243,171.7387,26.3574,102.2897,-34.0722,79.0098,-89.3761,69.0502,90.6359,166.4481,4.2615,159.4925,-89.4976,-3.9641,120.2812,78.1581,-1.0758
383.8510,458.5220,-221.3688,254.6407,35.3373,133.0018,-80.4415,51.5124,-247.2920,-106.9444,87.7364,201.0325,-28.3125,136.5612,-129.9735,-119.1260,195.3185,102.2703,-25.6796
462.5515,538.0824,-159.0491,297.4129,59.5372,181.3300,-85.3901,56.7999,-294.9186,-223.5440,102.2316,228.8887,-46.3151,126.2305,-116.9762,-177.8303,244.7483,163.7990,-24.9482
486.9183,569.2374,-110.8877,290.6163,71.2454,207.5523,-85.6972,85.6136,-229.8082,-265.4924,86.9676,237.4313,-53.1600,105.8870,-60.6217,-161.4968,188.5034,200.8556,-26.5415
419.3305,583.5670,-150.5491,271.3340,16.3719,178.5193,-93.2190,88.1738,-88.1169,-231.2660,25.7511,186.1051,-64.6578,70.8676,3.2479,-87.9843,32.5674,158.8332,-43.7554
354.6909,552.9214,-229.6218,189.5436,-46.2478,120.5532,-31.3514,80.1103,107.6856,-103.1380,-3.3400,98.2903,-28.7246,58.9734,61.8890,26.3565,-89.1913,95.4865,-28.8636
330.5214,455.3596,-250.3526,44.2999,-49.1979,49.6407,82.2538,78.3263,278.8352,45.7164,11.4053,17.7880,32.0867,68.7276,90.4269,109.5770,-101.2585,37.5315,37.4237
310.7064,339.6870,-212.6317,-56.9940,-21.2005,-19.5730,132.7328,66.7044,340.0634,124.3714,8.4418,-28.5480,30.8591,70.2902,59.0913,107.3109,-60.4563,-37.1894,112.5956
327.0978,251.0475,-164.8240,-82.5538,-0.7103,-47.2789,109.4156,58.8470,308.0953,129.7986,7.3679,-23.7894,4.0869,60.5024,-7.0510,73.2992,-13.9148,-81.3668,146.9388
374.0293,227.8399,-120.1160,-62.2127,11.4889,-34.8626,63.8798,62.2266,227.5958,79.1712,49.3522,11.3697,16.0633,51.0020,-48.7000,46.9524,38.7545,-45.7273,115.0914
382.3095,295.8950,-68.5706,6.5584,26.0325,-1.0390,-8.4473,59.6465,107.0590,4.9136,87.3744,50.8108,23.0894,60.9298,-46.4458,-8.4395,76.4347,37.0591,47.8303
371.9262,384.5464,-18.1702,79.0016,52.2850,68.4704,-90.2307,66.3911,-18.2567,-33.9635,88.9470,102.6143,15.7293,88.1844,-42.4177,-93.4298,82.0994,120.8613,6.8130
365.6080,404.3587,-7.2939,104.7481,68.7808,139.9016,-134.1967,82.6712,-99.5918,-68.3870,85.5240,148.7935,24.4360,80.1482,-69.1163,-174.8695,73.1614,178.0937,-10.9223
315.9325,378.8775,-34.4080,127.4451,57.9291,159.3987,-141.8604,72.3296,-123.7075,-158.7031,82.9324,158.9378,-1.0462,38.1001,-77.7712,-239.6721,69.3489,204.4263,-35.3897
271.4078,374.9744,-20.0788,177.3525,69.1399,183.0877,-108.5825,69.1057,-87.4736,-228.7525,78.0998,171.3085,-44.8762,62.5619,-25.6150,-241.1319,92.7735,246.6948,-17.5472
310.1329,410.3239,62.0972,231.8739,132.0684,272.7386,-10.1751,141.0671,2.5897,-193.1960,91.8623,215.3390,7.0305,176.5505,28.4836,-135.3932,157.4984,320.2380,92.0326
357.2411,450.3548,130.8193,286.1768,192.1122,355.7333,116.9923,258.5942,135.4867,-74.9579,99.6198,232.0382,107.2876,270.4216,55.1777,31.5509,225.3611,351.6481,239.7654
339.2945,419.5627,147.1857,291.5967,218.1970,348.2107,221.4734,341.8422,314.0016,125.1627,64.8282,178.0474,119.3067,279.5597,120.4790,198.5878,237.7194,295.2885,337.3496
297.2503,307.2864,140.3697,193.7766,213.7500,254.3385,274.8757,342.4136,468.1104,365.7286,24.6515,84.4131,82.1673,228.8474,195.3523,332.8467,183.5684,181.3196,322.6469
249.1859,225.3210,102.4490,71.6712,138.7469,106.1328,212.9146,232.7841,457.6346,443.6593,6.3872,-8.8765,61.5655,138.6528,168.9036,360.2699,98.7163,37.3391,171.1967
206.5254,228.3081,41.2338,2.3791,2.8342,-45.3097,24.4805,41.0083,276.2522,263.3821,-30.1876,-75.3969,14.2421,26.2523,80.9139,233.6880,31.6910,-112.4581,-49.1897
219.6543,235.5421,13.6985,-63.3460,-92.4776,-157.9854,-158.2799,-162.3231,68.1082,-13.0523,-77.1812,-111.2020,-17.6327,-90.0579,28.9801,26.3110,7.3874,-233.2508,-230.7441
254.8756,209.9442,10.7441,-128.1327,-120.3046,-258.9645,-239.3428,-356.3285,-89.4878,-259.2047,-71.9549,-138.6060,29.1942,-211.0208,-20.9179,-169.1455,2.4439,-312.2095,-358.1362
246.3541,202.4457,-6.8473,-128.7984,-146.2194,-349.1280,-278.6836,-520.3837,-208.0682,-475.2436,-35.6225,-146.2236,32.3329,-306.3874,-73.4635,-316.9807,-15.4010,-337.8571,-465.6655
227.3756,228.5286,-6.7262,-96.4186,-180.2933,-366.0801,-334.2527,-586.5080,-272.3235,-607.7098,-43.6892,-112.7845,-83.4262,-342.7861,-46.9828,-385.1256,-40.5585,-313.6053,-532.2683
224.4461,250.6625,18.1118,-83.5221,-189.6823,-336.4113,-367.1910,-569.6398,-273.5019,-610.0533,-80.1867,-80.9443,-165.1960,-356.7014,8.9872,-350.3725,-52.3758,-299.4182,-529.2622
212.0638,218.5148,19.9567,-81.3081,-172.7387,-339.5713,-331.9734,-551.3940,-233.8081,-535.1681,-74.6332,-69.4605,-124.5334,-354.5754,-6.2848,-228.2327,-47.2058,-315.6170,-474.4048
205.4276,121.4461,19.0354,-106.7755,-131.6005,-336.8148,-239.3323,-506.0015,-154.2466,-421.2870,-31.6001,-26.8220,-53.8820,-267.3460,-28.3538,-52.6597,-40.4914,-300.6509,-394.3549
195.3428,35.1479,47.7597,-165.9940,-79.0017,-278.7684,-139.0754,-383.5943,-49.2263,-294.5199,-3.0108,26.3770,-1.1529,-125.9089,8.0407,104.3694,-56.8784,-254.3462,-305.4781
130.8401,-7.6109,56.8643,-210.7242,-48.7745,-237.8520,-62.1625,-268.3243,42.0869,-221.8726,-0.1689,15.8396,44.7912,-62.4810,27.8109,154.8668,-92.9108,-234.9319,-210.5745
52.5741,-93.8615,31.8302,-238.1457,-29.4511,-247.8853,17.4624,-230.8912,116.8159,-189.4863,-13.2520,-18.9146,57.0456,-86.6877,2.4263,110.6701,-106.2857,-216.5754,-93.8380
28.2325,-209.5035,29.3666,-243.7803,21.6607,-220.0427,119.1330,-192.9532,176.7810,-110.5647,-34.2230,2.8133,53.6704,-89.6348,-4.3775,69.0991,-72.2080,-145.8905,46.0532
40.1381,-200.7557,66.2274,-160.2948,101.9168,-105.6039,211.4062,-79.4198,204.0204,4.6531,-23.1523,61.7499,86.7976,-38.3207,21.1725,62.0502,-3.4301,-39.9841,181.0841
79.9552,-67.1981,135.0451,-21.3690,183.1529,31.5726,274.7114,56.6354,214.8890,78.6663,49.8330,119.0148,127.6453,4.8880,57.4152,30.8049,76.3432,66.9291,267.0139
146.1909,41.4222,227.5411,54.0639,241.5357,104.1158,301.1632,116.0995,207.8561,79.3525,137.7471,173.5266,141.6047,-9.7023,91.3545,-66.1773,128.6365,129.8279,255.3765
172.4403,89.0648,277.4121,80.4881,252.5210,88.9893,256.5930,74.9915,123.6246,7.8009,185.7249,201.4226,162.8133,-66.6441,90.1439,-187.9259,131.2729,106.5979,161.7363
153.9418,121.6439,247.3005,123.5869,225.4496,54.4774,152.2455,10.0135,-19.3837,-84.7835,196.9751,183.7571,184.6859,-104.5322,50.0000,-246.0434,116.1807,62.7286,81.5139
150.6947,136.3852,196.4099,140.7900,181.2050,66.1956,53.6585,-6.4348,-115.2593,-112.8211,161.2570,140.1001,145.1273,-92.5887,5.5960,-205.7861,90.7172,76.6972,46.4974
114.0204,130.1387,139.9330,108.4662,92.6203,79.5547,-20.1897,-3.1927,-136.2266,-91.4483,49.1844,77.8830,50.6071,-66.5174,-38.3883,-121.7279,13.7032,72.2785,-7.1713
-11.6870,81.9862,42.0956,59.1002,-42.0534,22.5977,-68.6934,-30.3484,-110.0952,-94.7253,-89.0537,-4.6196,-22.5941,-64.7716,-68.2308,-40.8162,-81.7460,-30.9354,-75.8141
-135.3650,-57.3044,-40.5147,-36.7159,-144.6304,-85.8398,-55.4768,-63.3174,-17.6559,-71.2704,-167.8064,-96.0214,-32.1417,-91.6981,-46.0494,44.7549,-119.3156,-161.4254,-84.9486
-186.1428,-224.1082,-47.4860,-176.6748,-173.4352,-183.5905,1.4156,-60.2717,121.7259,74.4068,-186.9611,-188.5307,-14.6682,-131.6085,-0.1112,122.5891,-131.8796,-237.0914,-30.8404
-206.6763,-285.5796,-35.3321,-249.2575,-169.0441,-226.4391,37.9419,-12.7777,220.7315,272.4089,-190.6418,-248.4114,-38.0585,-149.1506,25.3442,148.9144,-174.1151,-238.4807,43.3743
-218.5193,-238.8773,-39.3993,-205.8840,-156.0652,-190.8649,63.1124,65.5608,249.9805,358.8885,-181.7699,-232.6128,-93.2622,-136.7316,49.8316,107.4165,-187.1844,-153.5568,112.3645
-214.9688,-168.7085,-12.9006,-122.0085,-125.1969,-109.0984,97.4853,114.2390,240.6303,288.2800,-150.3249,-176.1218,-88.9355,-143.3663,60.5193,6.4321,-128.3799,-43.9604,134.9415
-207.5455,-116.3172,41.0713,-61.9959,-79.6210,-47.1889,89.9350,74.9470,194.6555,150.7345,-106.1653,-133.6275,-17.5306,-175.8638,22.0276,-125.7548,-60.0416,-7.9414,93.2295
-181.3556,-96.2676,72.0483,-26.9249,-37.1381,-16.2099,24.1885,-0.3204,95.5090,31.9193,-67.1583,-83.9441,13.4070,-174.4399,-3.1091,-225.3474,-26.6885,-8.6527,28.6812
-138.5896,-96.4654,70.2544,8.9214,-31.8845,10.8655,-48.4885,-26.4375,-44.8186,-57.4475,-48.2934,-23.8546,-17.3626,-135.6261,30.3162,-248.5872,-25.0321,31.7372,-38.2966
-127.6466,-87.5391,49.2852,47.7212,-74.1177,25.1181,-105.9192,-30.6809,-168.9199,-120.8398,-40.2304,-14.2966,-20.2978,-114.8524,47.8049,-214.1629,-60.1122,52.8483,-106.1021
-151.2108,-108.1444,28.9328,35.5439,-106.9942,-9.2525,-146.5069,-88.1326,-206.2502,-135.9671,-33.3044,-64.8772,-3.2147,-127.7444,25.3600,-148.2326,-110.2878,-21.2412,-151.8313
-191.4923,-203.8149,17.4836,-50.6514,-114.2511,-105.6402,-164.7086,-190.9537,-164.6036,-98.8060,-68.0990,-133.9836,-58.3193,-155.2842,17.5891,-50.0054,-147.2947,-145.3134,-197.1711
-271.0998,-312.2858,-29.1378,-136.2747,-170.1391,-212.8418,-179.6008,-260.5435,-99.3128,-20.0482,-156.0845,-199.4061,-147.0726,-166.3334,2.0322,70.5881,-193.2379,-231.1819,-249.0509
-357.1845,-359.7135,-113.9626,-157.8597,-252.4131,-232.6664,-161.4832,-227.3765,23.7459,97.9732,-201.1383,-224.8210,-133.6916,-127.5989,-42.1786,163.2643,-230.6667,-212.0405,-187.5473
-367.8169,-353.3260,-128.2820,-119.2068,-215.8964,-136.7076,-23.3945,-92.4835,235.8992,205.6246,-141.8165,-185.2866,-11.7340,-62.6867,-36.1629,172.0703,-175.0126,-77.7402,43.3180
-310.4003,-313.8816,-30.6524,-31.5018,-58.5864,1.0142,190.3025,75.1406,399.5086,241.3775,-58.7667,-122.0304,81.5213,-0.2963,36.6535,126.1061,-34.8907,77.9379,278.7927
-247.6003,-262.4040,64.7676,63.1630,50.2578,121.1073,301.1369,218.0837,383.0986,246.7198,-22.2484,-53.3320,63.6188,103.3490,90.2601,128.8503,73.9644,159.5181,372.0436
-202.9712,-234.8146,95.4673,100.6714,50.8846,202.8761,256.0169,305.1648,258.3382,257.9495,9.3142,36.7458,15.6448,217.2753,98.1036,175.4320,104.0177,178.6625,344.5399
-180.9984,-222.8578,123.9232,95.0403,41.0728,207.3120,170.0270,277.1547,129.0922,172.7869,69.6227,86.1266,63.1087,193.1343,87.6547,131.1294,102.5533,165.7046,234.9725
-166.8885,-203.1532,167.2271,84.1653,60.7810,133.4999,110.4622,115.1173,-19.9841,-45.8685,113.0634,38.9400,175.6342,35.4763,61.7946,-6.3535,98.0623,109.1435,71.5036
-151.8171,-204.8426,171.5197,41.0068,44.7307,39.7555,29.2819,-78.1419,-199.4849,-232.8495,89.0970,-33.4672,182.1188,-77.9975,37.0537,-67.3041,76.1072,22.6732,-78.7081
-190.0964,-246.3249,127.6046,-29.7726,-36.3609,-45.2746,-111.0908,-196.6125,-348.6100,-282.6140,10.4359,-71.3860,30.1499,-102.7880,21.6944,-15.5265,29.1274,-56.5010,-198.5753
-283.9969,-298.8584,71.7741,-70.3299,-123.5505,-108.8981,-250.9088,-245.4417,-407.7227,-287.3021,-52.7294,-110.4503,-119.7711,-127.9469,-11.2556,0.9347,-20.5374,-104.2511,-299.6793
-325.2762,-346.0839,36.0752,-85.0343,-155.0862,-120.8620,-284.7723,-269.9854,-347.2294,-316.0142,-53.0625,-151.9325,-137.0057,-159.1568,-27.6634,-64.8858,-45.4400,-105.5235,-337.1122
-298.8002,-376.1969,39.5206,-104.2261,-136.2788,-110.1748,-199.9869,-289.8361,-200.5559,-318.2068,-27.8134,-159.8522,-72.3281,-166.2456,27.6703,-111.0379,-50.6047,-87.4970,-313.9600
-305.1824,-371.2275,69.6130,-113.1436,-102.1501,-123.5509,-106.5089,-306.5914,-80.5559,-265.6526,-23.2124,-152.8666,-2.3398,-168.7384,81.8824,-105.5911,-42.8990,-92.7056,-290.2671
-340.0296,-357.2999,102.6049,-106.7647,-53.7828,-108.5636,-74.3327,-279.8846,-61.8183,-203.0360,-19.9217,-141.3543,69.3814,-150.0721,46.2805,-114.1160,15.7733,-70.7524,-218.2785
-327.8347,-359.3100,155.2670,-63.7775,27.0408,-0.7202,-41.6179,-146.2050,-100.9609,-161.0838,4.6406,-79.8484,120.5818,-64.1966,-7.6548,-137.4642,146.9745,63.8861,-23.6391
-278.9901,-333.5328,245.2203,75.8901,136.4698,174.5399,59.3191,85.1641,-125.6811,-101.7071,43.2159,47.3975,113.0228,84.8476,17.9350,-102.8139,298.6724,274.5231,216.8528
-217.9238,-244.1806,336.7627,268.2868,254.2107,364.5273,206.1756,318.0189,-113.3234,15.3329,105.9799,191.9591,86.0785,250.8833,91.2099,-20.2291,416.3595,444.7047,394.8399
-142.3717,-126.4204,400.2479,387.0299,358.4228,503.3059,341.6169,458.9771,-77.5228,122.6475,192.9014,289.6816,112.9308,353.3819,149.4158,-0.1035,492.2887,517.1602,493.7551
-96.4736,-32.1615,451.9233,426.1500,430.4738,523.1760,420.8426,485.1903,-44.8400,124.4173,258.9562,315.4578,198.8301,339.0922,182.7144,-55.8904,520.9627,507.3172,505.1513
-107.4069,3.8302,482.3497,441.1202,458.5165,465.0164,418.9736,444.3572,-29.5467,83.8254,273.6884,305.2792,279.4148,286.4962,182.3784,-45.5900,484.7454,449.5706,430.4125
-142.4095,-36.4277,439.0373,385.2782,420.1448,405.0612,349.0473,393.4153,-21.1389,131.0699,243.2538,274.6310,274.4648,280.3397,143.6076,87.1692,375.5071,351.9701,328.1452
-191.0784,-138.0177,319.1341,224.5416,298.1043,296.4300,245.0262,333.9828,-10.5723,235.3587,179.3131,170.5523,167.8800,249.0137,101.1992,201.1583,211.9187,201.8365,227.5575
-245.8463,-264.5249,191.4099,42.7162,141.4551,111.6611,132.9614,238.5581,2.5177,285.6960,108.6743,6.6146,56.9648,130.1874,86.8934,189.9226,58.8700,39.9702,115.7305
-282.2839,-378.7886,101.2729,-82.5286,32.1745,-32.4145,43.6570,118.1062,21.0042,272.4636,54.3769,-105.4317,34.0476,10.9601,93.7716,113.9285,-25.4601,-56.7980,18.2012
-334.6073,-447.4236,36.5207,-136.6865,-16.3954,-78.0273,0.3667,16.7698,27.1071,222.7400,3.5154,-141.4013,50.0670,-46.9010,102.5996,42.5025,-63.6450,-86.9187,-44.9333
-419.3891,-461.4163,-8.6980,-122.3782,-42.3173,-96.0007,-23.3395,-40.7934,-15.8248,129.9755,-44.5630,-171.0166,16.2758,-85.4730,99.8973,-28.9910,-95.4070,-94.9441,-103.0080
-460.9763,-435.8838,-30.5869,-83.0291,-64.6031,-105.3191,-67.8635,-65.9461,-102.0041,35.2855,-75.8847,-192.5753,-49.1460,-116.8241,72.2389,-93.4724,-113.3016,-85.3592,-153.8197
-455.5904,-392.0616,-60.6635,-80.7871,-94.9364,-83.1876,-108.8174,-66.5068,-159.5292,22.1814,-121.5529,-174.3280,-92.0227,-105.2161,12.7892,-110.0137,-130.6739,-70.1215,-144.5140
-489.5298,-373.2757,-114.5111,-111.1648,-132.6138,-60.5954,-85.3804,-12.1407,-122.8727,105.5399,-191.7298,-143.9969,-115.6405,-31.0102,-56.0065,-53.0941,-166.4805,-70.0359,-51.7594
-534.2119,-412.2163,-140.9692,-130.9251,-134.7675,-40.5148,-6.7039,105.3162,-34.8492,202.8272,-216.1057,-106.7710,-126.4882,96.3428,-80.9969,59.1596,-161.9309,-51.4569,74.3850
-505.7245,-468.1672,-111.9532,-133.0446,-85.4963,2.8577,43.7499,199.4982,-24.6870,215.3804,-169.8522,-55.0134,-102.3183,203.4814,-42.2437,163.7455,-91.2038,-23.5420,139.2326
-454.8250,-497.1161,-81.6093,-140.5896,-43.3496,21.9766,22.8723,183.9153,-128.7529,142.3229,-122.4897,-49.9844,-41.9489,204.2619,-5.1898,208.6883,-56.4771,-74.7608,108.0135
-462.6144,-523.7787,-93.2224,-173.9237,-48.7904,-25.1374,-21.0465,103.5018,-222.9427,88.5482,-108.5164,-107.1632,17.7421,137.9324,-26.7510,205.4855,-117.5348,-175.4056,59.7503
-510.8311,-552.5953,-130.3397,-219.2317,-75.7780,-86.5342,-31.2091,54.5114,-205.9213,120.1779,-111.5233,-134.6816,28.5804,101.2088,-44.1897,181.0743,-200.2282,-186.8139,50.8667
-560.7599,-543.8067,-173.9484,-224.6087,-98.3612,-114.3237,-12.4129,42.4780,-116.1098,184.1981,-133.7141,-108.3721,-12.1533,80.0273,14.9252,126.1679,-249.9668,-121.7762,28.8382
-592.4415,-513.3248,-207.5459,-176.8778,-111.1833,-117.3672,-3.3266,15.9167,-25.9634,186.9531,-149.7203,-104.8489,-28.0194,20.1039,80.0235,20.5170,-279.0905,-102.2313,-33.3825
-590.2619,-496.4670,-200.3511,-128.8150,-103.6887,-106.4600,-24.9988,-41.3665,23.6234,77.5238,-109.3819,-133.5249,30.0637,-39.4627,64.9401,-126.1578,-272.3684,-111.1325,-83.2017
-571.3330,-463.9014,-149.8342,-96.4526,-72.1603,-82.7289,-53.4516,-94.5535,8.6445,-89.9399,-39.1407,-132.4719,87.6537,-29.4319,44.6420,-236.9937,-204.6058,-60.2880,-91.8361
-540.5225,-395.4857,-84.1168,-35.3740,-24.9411,-37.6684,-39.3234,-85.8208,-30.1216,-172.2847,-0.4464,-86.6009,77.7654,45.7284,106.3758,-214.9751,-102.0499,22.4217,-60.4005
-463.7243,-321.9980,-20.6645,48.7550,26.5684,34.6059,16.2172,-10.8624,-25.6746,-136.1503,13.9746,-30.1703,50.1462,108.8458,162.1191,-103.5452,-16.7455,67.1333,2.3927
-356.9502,-261.6590,27.9140,88.8770,62.1557,86.1365,52.6189,42.1563,-7.2003,-110.4149,32.1091,-6.9804,41.3383,88.4867,112.9736,-55.9033,22.6034,71.8776,43.0957
-275.3967,-233.2399,55.0713,61.8329,73.9997,65.2935,51.5800,19.4674,-21.9688,-114.6050,47.1818,-50.2298,20.7797,15.2404,32.5686,-70.5091,42.7841,47.6213,44.9278
-230.3422,-258.9628,75.0534,7.7932,83.4710,8.9293,52.7506,-4.2926,-14.6373,-18.9232,55.6872,-135.8804,14.9530,-17.3394,7.8085,-4.5553,85.4196,-9.9919,76.0780
-240.6170,-298.8699,77.2777,-41.3786,94.7144,-30.7173,54.9093,32.8865,46.3595,149.0011,51.5744,-197.5907,64.4735,-4.8521,-8.4685,126.4379,111.9597,-74.8730,127.3456
-336.5815,-316.1548,29.2977,-87.5503,78.4835,-69.2660,25.4504,65.4814,85.0118,219.9285,10.5729,-210.4984,91.4188,-17.2330,-49.0486,166.8726,67.8730,-108.2922,109.2259
-447.3198,-349.1093,-37.8754,-127.9233,32.9200,-110.0125,-14.2811,28.1674,64.6922,178.3764,-52.4391,-194.1066,19.9613,-53.0981,-46.3830,99.3555,17.1633,-107.4511,55.5395
-475.2100,-388.2601,-67.1213,-133.3751,-4.1443,-109.0695,-28.8891,-29.0706,26.1006,116.9326,-82.9838,-151.2643,-74.2348,-56.0824,9.7590,29.7613,28.2329,-88.7142,53.3502
-457.3076,-357.3631,-75.6859,-86.8977,-13.2284,-66.3193,-31.4599,-35.8464,-21.1262,41.2292,-65.2564,-71.1627,-89.0598,-24.1945,30.9805,-16.7653,38.1174,-55.2595,55.3330
-471.5368,-292.3593,-84.9786,-25.7039,-5.8652,-38.3132,-32.1941,-17.1458,-69.4970,-62.5533,-25.1624,25.7248,-32.5311,-1.3075,4.2178,-92.8910,7.2495,-20.4474,11.4470
-485.4925,-300.0075,-53.0098,-4.9621,13.0081,-55.5826,-12.8378,-43.4757,-64.5855,-147.7893,25.0000,92.8399,39.7733,-11.9508,16.6896,-201.1836,2.2626,-22.7296,-14.8948
-437.4311,-352.3475,11.3415,-27.8976,45.5872,-89.4100,16.7939,-109.3212,-2.4702,-169.0315,79.8844,114.4396,87.0613,-35.7637,67.8683,-261.4919,20.6088,-67.9441,-10.1937
-359.0795,-363.3671,26.0419,-55.8040,65.8645,-96.5033,10.7182,-137.0536,41.3875,-113.7318,108.1777,124.5782,70.5427,-28.4783,48.3117,-198.6704,-11.9293,-103.0626,-37.5608
-325.1706,-361.2439,-10.7726,-69.4450,38.4479,-72.4767,-55.5138,-94.7431,15.0197,-24.1357,84.3971,146.0104,-14.0078,22.1715,-44.0854,-48.9647,-70.0068,-92.3495,-82.5528
-336.5415,-385.6131,-18.6531,-74.9935,-11.0228,-39.8535,-141.6863,-26.8070,-65.9460,22.5775,41.8524,158.7295,-99.2957,87.5506,-73.0275,86.3376,-84.8243,-63.2971,-91.6329
-328.1091,-387.7271,10.4560,-77.6302,-21.3617,-12.2896,-171.7063,24.1451,-139.8104,40.3354,32.4514,148.0616,-111.0702,136.7606,-10.4464,176.9477,-77.5230,-58.0523,-73.9671
-294.3988,-361.5139,8.3463,-92.5656,-8.8555,-21.0671,-133.4548,42.6099,-138.1391,109.1624,37.4759,110.6509,-68.6115,133.7150,19.1877,233.9940,-92.8761,-92.7417,-45.1804
-299.4981,-370.9051,-45.5417,-140.8265,-37.7465,-96.7633,-100.9188,21.8018,-67.1091,193.9159,5.9799,33.8084,-60.7084,60.7771,-17.9833,221.9283,-127.7369,-142.7908,-12.0215
-333.1163,-395.5185,-98.7824,-190.8201,-81.6823,-174.7223,-104.1869,-16.7113,-12.4389,188.7040,-34.0952,-45.6413,-95.5289,-23.6849,-41.5959,133.7183,-159.8121,-147.8900,-11.3190
-323.6816,-356.0422,-103.0556,-169.0316,-68.6278,-163.3373,-80.0854,-37.9658,-10.3570,98.1125,-26.1997,-48.7446,-73.8645,-60.2697,-49.1962,31.6461,-158.4804,-89.8024,-33.1012
-299.0733,-274.1814,-71.5390,-77.2071,-21.9815,-103.7930,-1.9257,-36.0851,1.7314,5.1515,-2.0697,9.7736,21.6350,-77.1445,-61.2478,-56.9346,-119.4499,-25.7549,-4.1173
-321.5041,-216.7528,-50.2548,-7.9749,-0.6182,-81.6093,75.0445,-14.4085,61.8148,-53.5548,-11.0322,38.1927,65.8542,-99.6391,-10.3827,-151.2298,-89.7280,11.2904,70.1996
-329.2979,-165.3491,-42.8444,-2.0304,10.0324,-73.4350,110.8635,13.2244,107.7087,-109.8009,-14.9862,34.6296,7.7955,-106.3719,89.0275,-250.8969,-75.6697,39.0644,96.9066
-257.1683,-97.2827,-9.7300,-1.7977,34.4538,-42.8650,106.2717,-5.4139,77.5627,-212.8587,28.0571,59.9799,-42.4112,-113.9823,113.4792,-346.2605,-17.6554,47.4548,57.5561
-171.2164,-59.2519,59.3434,31.0322,59.0017,-19.9394,70.5053,-76.0435,11.5459,-328.5619,84.7816,96.8498,-8.6283,-129.9436,79.8599,-399.8755,84.6323,28.7228,20.5506
-131.5765,-69.1636,129.5423,64.5796,79.0076,-8.8103,26.3951,-109.8422,-17.8718,-344.8043,117.9905,99.3066,55.3551,-97.0650,83.5064,-330.5211,157.9065,12.2345,2.6272
-109.9778,-103.7050,163.0165,59.9561,79.6269,1.4322,-15.6321,-69.3345,-22.6800,-243.4879,125.1754,82.3995,72.3938,-25.0810,55.5724,-134.4028,167.7065,-19.5037,-28.5796
-103.2142,-172.3139,140.3328,9.2232,29.9934,-22.1942,-68.1241,-23.6180,-43.0416,-107.7878,98.0974,59.7087,11.0024,1.1247,-54.5633,68.4990,132.3976,-92.0309,-44.4669
-142.8986,-251.0993,78.7376,-54.3612,-34.6478,-71.2975,-101.5174,-0.4015,-34.5857,35.2760,39.2355,16.7735,-88.7844,-17.6628,-97.2287,176.2335,82.5783,-128.0668,0.5539
-211.4550,-263.9455,31.1318,-67.7881,-46.5299,-83.7622,-69.3421,31.0732,50.9653,160.3669,-8.4471,-24.3587,-116.7515,-34.5996,-16.8867,174.8661,51.5144,-71.2479,52.2509
-270.1129,-233.2154,21.2814,-20.1397,-23.7958,-58.4612,-12.3425,41.8389,148.3585,165.1924,-11.4944,-32.5122,-40.1949,-68.3878,33.6119,89.7549,33.8160,-1.0961,31.2256
-298.5282,-250.1278,18.7088,18.6043,-24.5482,-40.2716,-4.1153,-13.5267,170.1694,32.1231,8.8503,-32.9664,15.5225,-124.9124,11.3007,-39.0094,-5.8409,22.2493,-33.4417
-274.0426,-284.0293,7.8800,6.5664,-42.4671,-39.6904,-31.2440,-102.8350,119.2769,-147.0740,17.0024,-58.5041,-19.8580,-171.4314,12.0708,-186.0879,-45.9937,31.8883,-80.4455
-203.9765,-244.2183,13.6392,-10.6740,-41.1282,-45.2166,-40.9784,-171.6798,33.1777,-327.7015,20.2858,-84.2015,-33.1198,-202.1269,26.8105,-330.0800,-35.4067,43.4300,-120.7689
-145.3000,-149.2766,46.0322,18.5096,-9.4582,-30.2771,-28.9510,-196.8130,-71.9847,-461.5854,46.3252,-64.6468,40.1667,-181.6834,15.6493,-387.3635,10.5273,64.6604,-159.5333
-125.0291,-67.4629,79.7813,83.0008,36.7784,24.9138,-22.3328,-173.5675,-175.8825,-465.0203,77.7580,-1.4018,82.5982,-71.9773,29.0693,-306.1220,46.5087,111.8075,-164.9846
-110.8887,-28.3133,87.4877,124.2950,51.0356,66.9372,-49.8659,-134.9682,-253.5922,-382.7230,75.2832,50.8365,29.5829,27.0054,52.6202,-191.5856,61.7876,115.2008,-157.9767
-88.0078,-49.3368,68.6266,92.8797,7.2292,33.4903,-109.8506,-127.6569,-274.5351,-307.8556,51.1573,38.8338,-5.1727,7.2534,16.3153,-139.8548,51.5616,10.5116,-164.4957
-82.1608,-111.5359,43.4792,7.9914,-42.5327,-39.3401,-137.0041,-135.6073,-196.1483,-197.6908,31.5051,-29.2384,48.0380,-46.3236,-19.1300,-85.9637,13.1211,-105.6864,-134.2196
-97.6478,-153.8613,12.7548,-61.0386,-48.2354,-81.4974,-83.0598,-106.9112,-39.5663,-43.8375,-5.1793,-87.5516,93.3188,-21.1704,18.0336,20.2765,-35.4622,-121.4957,-55.4194
-104.1462,-161.1706,-42.3530,-87.1184,-38.6272,-68.6003,-7.6542,-36.5058,85.6228,33.7306,-58.2268,-90.3122,57.9221,33.3882,42.0019,106.3099,-85.1792,-71.0382,-2.4836
-94.8812,-159.5080,-97.8785,-97.7685,-41.4496,-13.1040,17.8331,36.7076,120.3507,29.7723,-75.8550,-69.1533,5.4727,37.8062,-1.1903,121.1020,-124.1956,-24.6206,19.6541
-99.5816,-149.7394,-101.2930,-104.6445,-33.8753,21.6855,26.6147,72.0735,123.2710,49.1174,-63.2552,-76.2401,-2.0287,6.0564,-15.0740,87.2210,-113.6647,-6.3142,70.7511
-120.2825,-127.7376,-61.5791,-97.9458,-13.9123,-15.6055,71.4096,53.1715,144.8690,80.1195,-73.3884,-95.2409,8.8514,-17.7979,35.1416,37.4875,-56.5376,-30.1782,115.4832
-109.7470,-95.6977,-24.9938,-86.3147,-9.9393,-63.9461,111.0207,1.1049,148.0894,58.7857,-80.4794,-85.3287,7.7206,-25.1794,64.3905,-5.6394,-12.2639,-73.1119,84.0137
-48.5969,-58.8918,11.0248,-84.0238,-16.2814,-67.8076,77.9821,-56.5243,87.9250,-12.2886,-27.9415,-72.6326,8.1038,-47.4062,55.1206,-60.2697,6.5160,-86.8842,15.2316
15.7218,-56.1570,60.0737,-81.8948,1.6760,-72.5713,-2.4816,-106.6573,-16.2096,-111.8804,46.7383,-81.5332,27.9099,-85.8475,51.1857,-132.4315,36.7606,-69.1387,-24.7338
44.0985,-89.3662,91.4892,-60.8698,46.0514,-68.8456,-50.8401,-121.4939,-110.3511,-164.2455,72.7833,-55.2867,63.2784,-61.4645,24.4519,-119.9268,66.6325,-40.4002,-50.0227
45.5644,-82.7100,78.9288,-32.6721,61.3183,-9.4087,-65.9816,-86.6880,-162.8745,-77.4923,44.8597,16.5442,73.6337,42.3320,-47.2643,21.3965,49.9201,-29.3975,-88.6221
17.1767,-48.3322,31.9893,-42.9350,-0.3920,11.5889,-105.0657,-43.3668,-163.6386,82.0717,-8.8242,31.9430,17.9711,104.6135,-85.1891,136.6430,-10.4949,-78.6255,-111.2520
-59.3023,-87.7429,-25.5222,-101.7489,-83.2675,-68.8800,-133.0079,-12.0068,-92.0304,209.2903,-64.0354,-37.0581,-52.0513,82.9274,-36.6181,148.6001,-69.4254,-142.9763,-69.2816
-143.5818,-153.7860,-67.0383,-152.2445,-92.9313,-113.1833,-65.0610,38.1170,44.9305,328.3682,-100.5392,-88.3365,-48.7052,66.8530,35.0618,176.1211,-99.6188,-123.2209,29.0223
-161.2289,-124.4714,-89.2588,-155.6890,-56.9046,-69.2060,41.6852,77.5703,160.2547,383.8693,-113.7811,-86.6535,-7.2349,45.6648,56.6577,205.1887,-107.5148,-68.2208,99.7767
-107.6863,-54.1123,-102.6467,-130.9905,-52.0974,-71.3842,62.5837,32.7607,177.5932,230.1905,-93.8704,-89.4629,-7.7906,-53.4238,20.1698,91.9048,-90.4257,-80.9220,87.2757
-36.2508,-30.9030,-66.7142,-83.3479,-27.8811,-120.2398,31.8961,-59.1927,135.2251,-21.8020,-23.2086,-93.0980,-11.8214,-148.7227,-41.6285,-83.5867,-18.6547,-85.4547,51.7328
33.0479,4.2438,48.0984,-11.9919,72.6642,-93.1000,48.7259,-91.7217,89.9693,-128.6877,59.1612,-65.6034,21.0343,-139.3446,-70.7375,-141.2203,87.4369,1.6204,56.8996
101.5023,79.4402,145.5521,32.1765,143.0634,-28.7160,60.5216,-64.9860,10.1105,-123.2390,83.1528,-41.5532,25.2453,-91.9445,-43.1848,-123.2280,139.9147,73.1252,52.7382
139.9056,127.3204,130.1813,27.2629,94.9191,-24.7948,-21.0287,-65.8152,-119.9486,-152.0709,56.4473,-39.9612,-12.8369,-90.4779,-21.4026,-128.2591,124.0959,53.4392,-19.5183
131.4827,139.0199,68.3156,36.5935,17.2556,-45.4625,-132.7049,-122.3531,-200.0921,-174.3788,37.0755,-24.4020,-33.4886,-115.0070,-37.5925,-121.7244,118.9540,23.8166,-115.1209
103.3015,127.3048,50.7769,84.2721,-2.0826,-48.6361,-159.7617,-175.5674,-130.4188,-123.7121,38.6364,7.0954,-51.3106,-118.6200,-19.5422,-87.4438,127.3317,26.6767,-147.9660
70.2025,75.9305,52.1768,110.6132,18.8987,-45.7115,-77.5733,-146.6669,49.5363,-19.1590,51.8327,31.2994,-70.1849,-52.4397,41.9220,-39.5595,92.4752,45.2280,-73.5171
28.6253,46.5219,38.7080,105.1166,68.9761,5.2594,60.9654,-2.8356,206.7568,155.7313,69.8784,63.0908,-14.9862,103.0559,45.9009,75.1021,59.8054,117.8093,78.2100
6.6172,105.7141,30.9284,130.9200,133.1860,134.1582,159.7217,206.3103,257.4579,365.2754,66.4831,111.2966,67.9597,258.4665,-2.0898,224.9882,87.3667,244.4958,204.3802
29.4028,189.3607,37.2833,196.4182,146.1585,258.0270,150.7242,371.1940,223.3463,444.6023,50.6699,145.4699,49.6185,297.4705,8.3637,252.9239,109.7377,328.9422,234.9445
72.7354,226.5855,61.7073,229.9260,117.5792,282.3348,93.8679,400.5045,161.5211,328.3023,80.6599,143.0537,-5.1959,214.3313,55.8961,131.4212,86.3745,317.5331,217.0837
120.1036,230.4308,107.8272,193.1523,136.5443,211.6897,92.2128,297.6912,91.8245,144.0408,144.5274,108.0193,33.4402,88.0519,41.6534,-2.1488,88.9438,243.5511,210.6358
189.5033,211.2748,135.4854,130.2145,186.4298,113.6054,118.6944,153.4365,10.7713,4.5344,162.3139,57.9581,88.0628,-3.8411,-2.1184,-74.3445,130.2199,141.6602,191.3960
263.0889,190.4962,120.0826,79.8949,164.6163,23.8132,69.0317,37.9597,-82.9136,-90.4057,129.1251,13.5545,48.5331,-40.4977,-15.9713,-108.5910,130.3837,26.2857,121.6145
280.6660,212.6440,86.9628,20.5653,64.3416,-73.2641,-64.4639,-52.3436,-184.6507,-162.6878,91.6871,-23.0170,-32.1407,-64.4546,-50.5327,-108.0910,71.0506,-77.1668,5.8225
225.1014,251.3855,33.0023,-40.5837,-33.8333,-151.9745,-189.2431,-115.6093,-252.2782,-198.0480,43.4490,-53.2640,-86.6728,-86.4750,-114.3997,-63.8743,9.9051,-118.8671,-121.1778
156.0843,263.4455,-29.6549,-37.3761,-70.3648,-141.6108,-227.9900,-126.7870,-221.5799,-161.0163,-3.4370,-58.5149,-102.1755,-63.7087,-111.5992,3.7297,-5.8862,-75.1874,-190.4311
144.7332,266.8615,-16.0113,14.6257,-33.5296,-73.7458,-179.7585,-112.4158,-97.7582,-43.8530,18.3249,-46.4919,-54.4366,-19.6349,-28.0475,74.7468,25.1911,-19.8990,-164.2861
183.3467,245.5692,66.0781,15.7952,24.4794,-43.8824,-98.9843,-97.8136,45.2770,104.0239,86.8138,-55.3848,26.1984,-1.4600,38.8448,142.1396,42.3552,-26.4107,-109.8384
191.0322,177.9623,82.0584,-24.4941,29.1741,-24.3667,-30.2431,-42.3449,162.3048,215.5671,96.3755,-69.6877,64.7675,41.4767,45.6633,185.6061,-9.6853,-32.4067,-94.7133
140.0548,144.5661,17.7675,-14.7746,-3.3950,37.9289,22.4603,35.1391,247.7136,247.1799,45.5544,-47.3984,59.4896,117.7055,24.0520,169.9617,-70.8756,16.4047,-85.7821
100.9511,177.3726,-13.2830,20.2305,-6.6071,62.5995,60.5887,37.9149,293.7047,189.8543,22.1417,-23.2850,22.4688,115.4179,-9.5966,88.4180,-52.3250,31.5480,-40.2636
113.8625,181.1424,-3.8425,8.6192,7.2415,11.9365,80.7705,-9.1028,300.8141,86.2269,34.6458,-44.2329,-64.2702,35.5239,-44.6197,-9.0362,15.0686,-16.6281,34.5628
137.9911,145.8566,-9.4368,-9.6773,5.7413,-8.6426,98.3508,13.9479,262.3194,5.4186,39.5956,-62.6371,-131.4932,12.8188,-49.9821,-63.2797,61.4213,-10.5902,132.0161
155.5624,152.1413,5.0801,13.7698,26.9248,40.2266,118.7486,90.2246,153.2261,-20.7606,54.5448,-25.0921,-91.5370,56.6540,-29.2308,-60.4913,92.5888,73.3108,218.0576
182.4699,181.1214,65.1233,42.5629,85.0969,91.1348,113.0607,113.5299,5.2252,-19.4410,103.0810,26.3666,0.1816,76.5700,-31.4564,-21.0362,124.8163,124.0557,223.0500
205.1198,192.1169,116.4700,56.3840,125.6814,114.9783,71.2667,77.4640,-102.5149,-52.4241,142.3641,39.5752,57.0985,68.0153,-70.0193,17.4132,139.6674,108.6904,156.1332
222.9695,222.4880,127.6916,67.5699,128.1708,103.5759,29.1209,31.0150,-152.5797,-125.6900,127.8768,42.8793,76.7760,53.0019,-99.2520,27.1449,130.0088,79.4938,97.6715
257.2480,260.5875,96.5269,59.5226,116.3372,56.2563,17.5337,-3.8824,-152.1695,-118.4345,71.1433,82.7957,58.0181,32.7170,-92.7393,46.4518,94.4649,54.2030,66.4386
267.5055,254.0368,18.6087,30.1635,89.0781,32.2369,29.3843,-5.3441,-57.9228,37.6187,9.4112,140.4863,20.5457,57.1953,-68.2514,118.1400,26.2904,21.6757,32.6633
202.8941,223.0546,-66.6621,0.2182,38.4282,36.2267,37.3716,11.8169,112.2346,179.3456,-30.9860,166.2660,36.7860,130.6576,-27.0087,175.2667,-58.3384,-35.1040,-1.8617
116.0102,185.7119,-123.1961,-40.6423,-19.9756,-11.1642,33.9542,-2.3586,241.6771,168.3103,-49.0659,161.0807,81.9131,149.1093,42.8987,144.8856,-133.8407,-109.0479,-28.5950
87.4207,132.3220,-170.3884,-87.0011,-62.9566,-80.5331,50.5267,-24.2820,288.9372,118.0491,-59.9986,160.5731,60.2962,75.0323,112.0544,81.7386,-183.6377,-128.5471,-46.1562
112.0556,116.4544,-193.7330,-90.8676,-69.6756,-73.9086,97.1505,-2.9448,299.8963,108.4719,-62.2478,164.9616,9.6745,-6.7682,143.4089,35.9861,-194.2710,-66.8810,-45.4679
149.7629,166.0395,-156.2294,-47.7974,-52.1783,-29.1786,114.2075,23.1878,252.0285,43.1982,-43.8595,163.2766,12.6716,-36.3181,138.4586,-28.5613,-178.2289,-17.1113,-41.0625
188.7843,205.6824,-108.0494,-7.5587,-55.0454,-20.1186,66.9170,17.6977,112.3932,-48.3385,-19.8939,176.0578,21.9856,-22.0048,94.3468,-80.7581,-157.1080,-28.5169,-37.3330
219.7790,198.9086,-100.8156,-7.4166,-68.1297,-17.8190,17.8852,25.5017,-44.1720,-29.5873,-14.3228,193.3341,-6.1289,6.1737,0.0990,-37.1563,-120.0513,-44.1506,13.5771
219.3318,174.5811,-99.4692,-62.3794,-43.0874,-9.7361,11.8527,64.0557,-154.6315,43.6409,-27.6499,162.9536,-18.6416,25.1920,-103.0677,69.6710,-90.0600,-52.3331,97.1920
175.4147,118.4864,-102.5838,-154.8978,-17.8868,-31.9213,-0.2301,94.2661,-239.9115,71.1029,-55.5319,88.2241,-9.5833,51.4844,-154.5545,165.6024,-136.6722,-82.9851,106.0174
121.2737,37.7334,-142.3352,-227.3498,-52.4837,-74.7727,-50.2776,92.7755,-273.6894,121.3484,-86.8319,16.3871,-34.0742,77.7433,-150.5023,244.7103,-219.7069,-106.4928,26.1726
118.3477,14.1177,-154.2462,-238.5958,-92.9391,-117.6376,-102.2311,43.3851,-200.7031,206.8474,-87.8542,-42.0699,-97.4915,20.2341,-125.2540,267.0919,-206.7604,-96.9025,-46.1363
165.4251,76.7197,-84.1456,-179.3140,-84.6328,-143.2607,-139.1996,-45.1281,-95.4601,213.0623,-59.3146,-67.6044,-170.2110,-115.9728,-112.9991,174.7421,-104.9782,-73.2496,-93.1889
189.3483,164.9730,-21.8978,-65.8040,-83.1609,-112.5536,-170.7593,-105.3764,-71.4815,143.0187,-57.2581,-25.9214,-215.5719,-188.8123,-138.8923,29.1508,-45.5505,-47.2838,-149.7741
163.2949,211.0530,-45.8274,14.1354,-112.5035,-61.3064,-167.1215,-109.6443,-77.6570,85.5728,-92.1883,29.6282,-184.7759,-163.6388,-180.4469,-78.9376,-61.4712,-38.1553,-161.5931
127.0695,177.9682,-103.8210,-10.7195,-105.1741,-56.5911,-86.0234,-91.9415,5.0267,45.8758,-101.5051,33.9223,-86.2880,-126.6692,-168.2595,-143.5472,-89.3968,-43.4651,-75.7424
107.7939,107.2998,-125.3904,-50.0412,-43.7234,-28.8951,51.8807,-37.2172,140.6647,8.4129,-61.3710,45.9727,11.5138,-64.3532,-70.5868,-154.5384,-94.9214,0.1076,39.9032
136.5228,98.2969,-88.1288,-1.5223,20.1792,75.0959,159.4686,56.6538,192.2491,-34.3822,-11.4912,112.0923,77.3092,47.5465,63.6351,-97.9046,-68.1827,79.2364,88.4419
234.4703,154.6180,-5.7682,67.1564,56.6984,131.6429,165.9274,101.1925,129.5311,-104.5033,28.6151,154.2913,110.9252,109.8734,151.3642,-32.8256,-17.2772,95.5467,59.1922
311.1891,190.3483,57.9968,91.5300,58.0712,101.9448,111.7613,94.4301,49.5920,-123.0740,60.6465,143.9588,104.3556,102.2445,154.8711,15.2110,15.6455,81.8749,28.1264
271.8248,190.7455,58.1841,118.7438,39.4588,112.3508,104.3408,143.3481,36.6857,17.8345,69.1542,141.9621,85.5264,113.0933,129.9883,97.9271,12.9125,114.7902,67.4534
204.9065,185.8183,29.0844,110.9974,38.2710,131.9363,145.9135,206.2612,86.7573,221.1135,54.4292,118.3249,85.2903,101.1189,136.4784,190.9145,-20.5382,83.8424,127.3968
233.3177,169.2281,-11.6496,-25.8363,26.9331,20.2011,126.7907,143.1880,143.6116,308.3470,35.7295,2.9774,70.7285,-10.2141,114.0556,208.4420,-107.7086,-79.5034,98.3925
309.6334,172.1210,-86.4113,-201.6056,-51.6884,-143.8446,28.9597,1.7766,168.9990,276.3783,7.4379,-142.1972,25.4673,-126.9436,4.3402,149.0460,-223.0897,-195.7081,7.0055
357.8109,242.5273,-145.3387,-248.5947,-132.6114,-198.4437,-32.8326,-75.0326,175.0473,209.1795,-31.9276,-215.5289,-3.5417,-168.3763,-74.9977,52.2461,-260.5435,-154.2279,-41.1163
404.8541,349.5646,-112.2132,-157.6259,-113.6331,-155.8298,-8.1543,-83.8917,174.2068,139.1434,-46.5436,-198.4640,-1.8206,-185.0035,-12.1755,-63.1431,-181.7297,-58.2157,-62.8812
455.1542,466.3913,-19.7138,-4.0580,-42.0358,-68.5710,24.4560,-77.3913,138.5960,78.7910,-23.6255,-97.2679,12.9092,-173.2043,76.6527,-149.9586,-61.9018,38.0317,-110.5531
469.0594,600.4232,55.6517,150.3312,-6.8095,49.9943,13.1821,-61.0766,72.6808,10.9303,6.2028,47.9771,59.9672,-102.8414,52.9342,-185.2910,41.9810,129.8600,-119.5520
482.4988,674.0470,114.1004,225.3301,24.9809,126.8552,5.9382,-55.8239,43.5624,-81.6636,37.9819,127.4167,124.3944,-56.2660,-15.0816,-212.4522,138.2531,140.9817,-43.1995
545.1645,619.6285,188.1851,216.2874,95.1528,138.2220,41.3279,-67.0691,58.1641,-131.3282,87.3968,104.6862,120.9161,-67.1885,-31.5670,-223.1479,240.9139,104.6692,47.9589
598.1066,535.7516,261.1482,231.7702,149.8164,173.3759,74.0201,-47.8276,41.0859,-93.4301,123.0354,75.7066,33.9576,-41.2292,-35.9452,-163.3939,328.2343,150.5682,99.2465
555.1775,510.0857,275.3924,286.9200,147.9888,232.3600,59.6718,1.5486,-6.0052,-34.2219,100.7929,90.5017,-38.7718,34.6703,-49.9999,-65.2624,338.2656,213.9652,121.0596
432.1509,463.7984,201.8117,269.0850,122.1873,223.7687,47.6799,30.8018,-2.0510,7.9849,39.7142,90.9874,-28.4640,83.5073,-17.8813,9.5078,252.8095,150.9047,126.6522
315.3836,333.3608,98.4698,164.6970,104.8091,160.6149,105.0538,26.9614,50.9049,37.3070,-11.3345,48.1403,35.9111,102.7194,36.4622,55.7594,165.8170,25.5788,134.8461
249.4779,184.3217,45.2922,67.0044,90.5229,90.9421,185.3033,-13.5396,98.4418,11.5391,-42.1068,-7.1195,88.5104,105.0495,30.4164,52.0964,142.6431,-53.1459,142.6487
209.1034,94.4939,29.4464,-0.8110,57.9265,-11.8373,180.7700,-89.7037,142.1201,-40.4521,-68.0788,-60.8218,75.6593,58.0920,-4.1282,-15.9325,116.2910,-112.6502,100.7907
169.4446,82.5225,1.3490,-55.4266,-2.5413,-113.6476,73.5159,-149.1112,146.6460,-29.0164,-94.8899,-111.1906,-8.9277,-9.7151,7.6186,-82.2375,52.7958,-161.9176,5.6199
131.5964,92.3559,-24.4920,-73.0444,-70.7869,-128.7990,-66.4590,-181.0661,24.0371,-30.0994,-121.3022,-144.4560,-97.7053,-50.2130,9.7219,-120.5977,12.9017,-171.9269,-93.5144
79.2761,26.9940,-40.2931,-73.6437,-123.1782,-104.9872,-178.9272,-247.7552,-170.4985,-146.7022,-140.9603,-160.8112,-116.7851,-94.0730,-59.6194,-175.7375,-17.6590,-191.5808,-187.2387
14.2255,-88.5645,-81.1962,-112.8839,-160.4371,-129.5713,-234.5165,-322.0558,-267.6776,-241.7948,-143.8550,-166.4070,-85.6127,-141.7998,-102.6257,-200.2075,-92.6929,-239.5854,-260.7651
-0.6558,-111.8491,-122.3435,-155.1327,-184.2797,-156.8412,-238.3645,-326.6148,-250.0398,-199.0388,-142.3040,-153.1690,-85.9139,-139.8429,-50.3181,-132.3360,-143.8696,-257.2599,-275.2619
43.9256,-48.1634,-117.3317,-143.5195,-196.2845,-158.3705,-245.9689,-336.9212,-237.2245,-167.0431,-164.9509,-139.6364,-144.1441,-141.7222,-17.9328,-77.7530,-113.3730,-267.3167,-286.7782
50.0412,-54.9520,-112.3470,-137.0615,-216.9568,-223.5422,-287.6779,-447.4241,-243.5836,-240.6956,-202.2344,-180.1087,-204.2176,-240.0597,-74.8829,-120.1255,-87.2042,-323.1132,-348.5300
-18.6212,-143.5484,-141.0299,-190.3220,-237.4566,-344.4572,-299.1033,-546.4830,-184.7454,-293.3153,-207.8074,-272.7751,-203.4074,-362.3767,-126.2820,-150.8427,-108.8455,-350.7802,-341.0635
-77.0328,-175.4988,-136.2523,-221.6637,-209.1840,-371.7997,-223.7990,-506.0548,-61.5265,-268.2028,-176.0417,-319.0933,-146.4916,-373.9647,-137.4640,-113.0548,-101.1699,-279.6006,-193.6210
-75.4276,-119.7232,-84.3375,-163.4730,-143.3987,-267.0009,-124.7852,-385.9567,36.3140,-233.2166,-154.9260,-247.6740,-115.5408,-274.4935,-162.5428,-103.2406,-55.5667,-172.9794,-60.8812
-41.4128,-59.1465,-65.1685,-83.4423,-111.8025,-139.2744,-89.4258,-258.7675,57.4964,-167.3483,-160.6808,-123.2026,-173.0456,-134.3919,-164.6796,-119.9655,-41.4394,-91.4932,-26.7758
0.7576,-34.7381,-79.7520,-47.7572,-112.5016,-50.6007,-96.2922,-112.2943,23.1454,-29.5996,-149.4231,-55.8906,-245.6590,-5.3429,-105.1011,-70.7724,-44.6265,-30.6459,13.8315
29.5288,-32.8394,-58.0240,-31.8408,-77.8573,-0.4039,-86.0203,-5.3390,-37.4699,76.9774,-96.0210,-59.6117,-216.0192,48.8784,-59.6219,-11.8676,-8.7601,-10.0311,53.0996
33.6297,-17.6038,-13.8159,-3.4647,-20.3661,1.9523,-90.1848,-22.6440,-124.4959,40.6288,-36.6821,-66.2145,-123.8346,18.5286,-63.0880,-44.3847,40.4597,-32.0407,-23.8626
43.9027,54.0793,-3.3365,51.7627,-18.3844,-1.1059,-157.8849,-91.3130,-227.8021,-81.0443,-13.8498,-19.0225,-91.5897,8.4500,-83.2570,-93.6138,50.4682,-31.4150,-151.9128
66.6488,164.2537,-13.6351,144.4037,-71.0460,61.6405,-224.3869,-90.8642,-299.3067,-147.5693,-33.9328,83.9682,-108.2248,75.3530,-139.8487,-52.7131,31.7191,11.9747,-194.4470
64.8629,240.7342,-18.5989,225.1913,-107.5159,151.3576,-212.5425,-46.3721,-304.8646,-122.6317,-86.4474,179.1802,-114.4058,126.5981,-196.9069,36.5557,21.7273,43.5896,-189.8939
49.2149,258.7928,-33.8834,222.1476,-112.1309,172.2881,-181.4244,-38.5590,-261.1175,-90.6356,-145.8118,183.3518,-158.1786,96.3751,-148.2715,103.4927,23.9365,41.1475,-216.1697
56.9916,230.5208,-55.0141,151.0139,-117.5890,113.8655,-196.1342,-77.0508,-201.7269,-117.1275,-157.7249,93.3013,-238.0410,36.7090,-53.7379,140.3036,18.2254,2.3246,-231.3065
70.7550,139.9737,-52.6165,60.5831,-112.8531,4.2275,-178.7560,-158.5482,-153.2365,-183.9060,-96.7859,-25.4118,-221.1917,-35.7093,-42.6766,118.1378,-1.0749,-101.8860,-193.1558
66.0716,-1.1516,-46.6270,-57.0786,-70.8394,-131.4515,-73.8788,-267.7725,-123.1257,-240.6921,-26.9249,-137.4591,-88.9014,-149.9392,-45.3358,27.1271,-33.5776,-219.9335,-136.5880
21.7478,-96.9598,-98.0118,-164.5679,-35.6397,-209.2182,5.5035,-307.6868,-90.3938,-228.4151,-30.2554,-221.9457,1.7816,-228.8323,2.5379,-31.8649,-105.7665,-220.6826,-107.9563
-74.2843,-91.8976,-195.6943,-187.9212,-55.0342,-163.0830,-18.1719,-202.6214,-45.7408,-112.2125,-79.4581,-219.6525,-8.6748,-172.7491,-6.4992,12.1258,-213.4117,-99.1977,-115.4221
-154.5348,-32.2028,-246.2787,-156.2845,-89.7857,-72.0396,-55.9422,-49.7354,-24.9094,9.3357,-87.3809,-139.1026,-24.1036,-72.0465,-63.3160,46.1510,-277.9991,-6.3708,-119.6737
-125.3682,19.9407,-209.0418,-143.4818,-85.9061,-27.9766,-35.7185,15.0594,-28.3809,4.4073,-51.2693,-79.0667,3.9234,-61.4871,-25.3161,-30.6786,-245.2752,-2.9156,-67.8397
-32.7236,50.3471,-154.4424,-111.9518,-62.0175,8.8549,-3.3659,27.3761,-2.3655,-52.2651,-37.8391,-47.3925,18.1334,-62.2935,55.9997,-97.5499,-160.2733,10.3448,20.6755
12.4565,88.2310,-141.1190,-2.3655,-53.9084,88.9455,-2.9852,91.4072,38.7557,-7.2891,-60.8459,42.1438,-33.3634,48.6249,37.2854,-18.2314,-80.5844,80.6555,68.9983
19.7306,155.6316,-135.6832,117.9211,-57.7062,171.8318,-23.0241,174.7019,30.3859,85.4296,-75.4867,156.7002,-115.7801,183.2489,-34.7581,124.2739,-13.9136,129.9176,64.4108
40.6697,198.0854,-105.5710,148.6236,-62.7895,206.5218,-35.6747,187.1251,8.0089,114.3011,-67.3116,170.0412,-146.2421,219.7005,-65.3691,206.5484,32.7980,109.9386,69.4955
50.1544,147.3474,-77.5564,101.3139,-64.9191,182.2660,-10.5572,157.0675,44.1074,145.2803,-67.9594,86.7460,-122.7833,209.3234,-67.1232,259.3680,47.1665,63.7133,111.8952
35.3202,63.7829,-67.6021,58.8067,-52.7346,127.0674,46.8052,167.5988,94.7421,240.7753,-89.1275,18.9989,-113.1612,210.6852,-52.1890,318.6503,46.4570,41.7160,150.6912
28.9369,57.7427,-58.4504,61.2821,-27.0321,105.8713,84.2555,212.8406,95.6511,317.5170,-95.6803,-0.9735,-93.2044,180.7132,-25.2882,320.4251,53.7784,60.8745,155.3037
32.9279,99.3250,-45.3484,78.4136,2.7505,136.6303,88.8835,241.7774,86.6920,328.1543,-66.5533,-14.8750,-10.5004,129.1342,-18.6732,240.0733,67.5631,106.1744,151.6004
40.1233,97.2797,-32.8230,64.7572,35.0901,152.9486,94.6760,252.7219,102.8205,296.6521,-41.8100,-26.5045,39.8654,115.2721,-12.8390,124.6412,58.7039,128.6274,158.3803
48.6597,73.4178,-35.7176,12.7613,41.5197,123.6736,90.4903,251.7049,107.2588,194.0047,-60.5353,-13.8510,-18.5749,104.3657,11.2012,2.1270,-15.8609,97.7542,140.6176
19.1799,75.9962,-95.5847,-56.0959,-14.7740,87.4666,56.8195,213.7373,105.0480,37.4605,-92.8769,8.8948,-68.3676,50.7159,4.5407,-80.1326,-139.7676,54.6168,99.4009
-50.3931,66.9025,-201.3336,-114.8742,-81.6042,57.5838,56.7733,158.7171,148.6293,-31.0153,-93.3042,11.4193,-26.8871,8.3231,-14.6001,-52.0317,-208.3716,59.4103,119.7558
-83.6924,29.2855,-245.4283,-124.2638,-59.4683,39.0628,142.3626,162.7007,219.4416,53.5906,-68.6720,8.4056,29.7174,13.3340,31.9774,50.8667,-163.5068,112.9374,223.6966
-59.7923,18.4225,-173.8964,-59.1417,39.0283,73.6836,243.0448,238.5816,257.7195,193.8578,-43.2456,56.5791,74.2034,34.5231,102.0839,135.9491,-73.4594,172.3633,306.2071
-30.2303,50.3211,-77.8061,42.6240,114.8359,159.0098,273.6770,316.4655,273.1900,308.2802,-17.9346,167.0979,132.4738,82.9376,114.1687,215.3526,-5.8938,213.8647,310.9319
3.6625,94.7325,-38.5982,118.2493,145.7634,235.9458,261.8834,364.3266,296.0641,387.9339,12.3116,265.9332,149.1849,176.2035,106.5228,319.8432,46.8700,242.0059,293.8227
53.0138,148.9511,-19.5178,157.2968,177.9896,279.7821,268.7385,402.8556,279.0916,400.8935,50.7604,299.7492,115.2958,249.0671,120.9786,367.5017,94.4027,259.3162,275.5117
82.3766,207.3085,28.4361,194.5987,213.5339,299.9700,277.8353,419.6778,166.2525,322.2615,93.7928,316.9500,119.8300,258.9937,119.8617,297.0145,146.0592,273.3719,232.8978
109.6554,247.7331,94.6558,257.9228,233.5857,311.9665,252.1958,396.1922,4.6409,203.3031,116.9133,366.9552,158.1895,253.3587,99.8524,169.8139,235.0565,313.6830,199.1935
187.0706,286.0470,161.6675,336.1956,254.0993,340.3160,219.5708,356.3758,-104.5974,98.3551,112.5481,404.3174,155.7967,245.2421,106.1077,46.7768,326.3394,370.1350,192.4431
263.3599,327.5547,215.1529,367.4796,272.8481,348.6467,217.1780,295.7338,-115.9987,-1.4267,112.9358,371.8936,136.5650,191.6794,150.5422,-60.2860,316.8295,357.1543,157.4456
259.8764,319.2599,221.7840,298.6896,252.8248,258.2917,224.8009,183.3062,-47.0725,-105.0830,122.1261,292.2150,153.8632,113.9761,197.6859,-120.0411,205.2468,247.1100,93.1812
207.5917,265.3672,170.3762,182.5273,198.3003,126.6161,226.6722,80.5339,55.0448,-169.7986,98.4845,219.2290,195.2315,82.7773,189.0287,-112.5504,111.0992,160.5142,76.8714
167.3047,257.0526,96.8512,126.8928,157.3308,102.9938,252.5685,94.6094,133.4944,-143.8553,41.6042,173.3912,232.2940,113.6298,131.0073,-53.1913,90.9344,191.8106,124.6926
146.4835,300.3453,42.1107,136.6315,146.4208,173.6783,292.1676,204.8074,175.4195,-22.4509,2.3975,146.8213,229.6649,169.7685,129.2368,68.6882,86.3759,260.0682,179.5974
146.6935,296.1874,21.9106,124.7022,143.7457,202.0633,273.2178,286.3250,209.3546,135.3862,1.1673,121.8465,167.2638,204.7432,194.4383,237.4271,58.4342,254.5167,201.1588
162.4808,229.6120,25.1242,75.6475,129.0006,168.7812,176.8435,281.8368,206.4972,242.9612,15.5121,93.4695,92.4033,185.9570,182.4914,339.6083,38.8925,194.1693,176.3946
162.1534,185.6250,18.3571,60.6772,90.3982,141.7743,75.7597,248.0174,110.2073,275.7005,25.6071,87.8993,39.3266,140.2749,73.8037,305.0770,42.5559,159.7249,123.4324
147.9746,197.8061,-14.3171,98.6712,40.5641,133.6874,35.3551,258.7005,-17.9055,286.8902,32.0457,121.0108,8.2466,123.4495,14.4129,206.3131,35.7673,179.3034,92.5291
162.2125,247.5235,-38.5095,134.1532,22.6312,134.8248,44.4552,293.3396,-74.8058,275.0665,55.1452,156.4884,56.2664,114.6487,24.0249,98.1929,11.1459,207.3133,77.1071
213.4125,328.8192,-20.6708,140.5592,39.6324,134.8783,35.0370,240.3854,-110.1222,139.5911,100.2108,155.6957,164.4112,52.1266,17.2576,-61.8071,2.3839,169.6369,-3.2106
255.0892,392.6184,10.5270,133.0574,24.5283,85.0924,-44.5583,58.6688,-215.3559,-135.8754,120.9009,127.8734,145.2592,-41.3926,19.7622,-264.3431,0.8088,59.7953,-162.3841
226.5876,356.6751,0.7202,105.5300,-54.6383,-23.0670,-147.0726,-140.1165,-306.4730,-399.0491,79.6404,91.3835,-33.0222,-105.7538,54.3703,-418.0708,-39.9703,-42.3084,-296.2091
121.8809,236.3671,-53.9190,46.9698,-134.8536,-112.8531,-162.2906,-248.1275,-248.7454,-522.6763,15.0362,46.2689,-137.7182,-147.6972,42.8664,-479.9333,-94.7828,-91.6463,-304.5352
28.2829,125.4529,-99.1622,-16.6185,-154.3745,-138.3306,-71.3117,-266.6528,-84.3489,-522.4235,-19.6445,4.4110,-84.2832,-166.3818,-13.5647,-451.6215,-86.4394,-112.0692,-190.1456
26.1751,55.9273,-86.5632,-53.0719,-125.1125,-123.7494,16.2624,-211.8659,44.3378,-449.0116,-24.8642,-18.3731,-32.4330,-101.1121,-49.6945,-319.4655,-22.3233,-100.1562,-49.6199
78.4629,11.1136,-35.2532,-53.3359,-85.0924,-83.4294,9.4930,-103.3580,77.8981,-348.4605,-20.0415,-32.2548,-34.8052,28.2224,-97.6705,-133.6430,21.7078,-47.4817,14.8584
118.0875,5.9212,-3.7992,-26.9041,-50.4152,-32.4590,-58.1970,-33.4204,39.2038,-302.9686,-8.9693,-43.6634,-20.5998,92.4181,-161.2029,-18.0424,34.2820,-12.9169,1.6149
152.6277,42.8210,6.5952,-8.4039,-19.0676,-17.0992,-99.4719,-59.8523,-48.5174,-337.3655,12.1534,-33.3681,-10.4034,55.1722,-140.2435,3.1053,55.9596,-29.7806,-25.9073
189.7230,84.1407,42.6243,-17.9409,5.1742,-35.7803,-106.9922,-105.6744,-180.7292,-356.5697,43.4168,1.4060,-38.4496,24.5258,-55.8566,38.7169,75.7976,-40.2509,-71.3724
196.6734,119.1200,78.5590,-9.1139,-7.8198,-28.8230,-154.4148,-93.8829,-334.9565,-290.7303,61.0591,30.2062,-60.7884,54.5713,-40.7035,130.5614,55.6158,-10.1929,-160.1280
189.2693,160.2599,46.8131,46.6457,-68.0511,7.1607,-238.5233,-54.2553,-435.0697,-197.2020,44.6974,27.7367,-52.2039,77.8506,-72.9395,182.5419,17.0564,16.2064,-217.7773
219.4487,196.1750,-5.6383,82.3583,-104.4315,14.0362,-244.7536,-43.5324,-407.1277,-159.9664,36.2309,-0.9673,-15.1290,48.3387,-39.3500,132.4526,11.9839,1.7750,-189.5728
269.7488,228.5723,14.1752,60.8090,-59.5483,-16.2523,-157.5478,-80.8451,-280.0999,-171.6645,72.5554,-24.6950,39.6499,-3.2599,32.7175,49.4447,28.2494,-40.7559,-168.6311
272.0585,273.4623,53.8268,45.9249,-10.5962,-42.0477,-110.1392,-139.8137,-139.6011,-135.8851,94.6940,-20.2842,53.3254,-40.8706,58.7428,24.9353,2.9915,-73.6314,-211.2859
208.6537,287.6803,16.4415,50.4460,-46.8427,-57.4847,-128.1907,-146.2228,-3.3538,13.2378,53.5375,-18.8967,14.9639,-51.9273,43.4506,63.8399,-69.7734,-73.8805,-206.8798
131.5978,214.7605,-47.9544,3.7940,-109.4756,-77.8878,-90.9515,-62.6529,134.3862,191.0025,1.6711,-66.7292,7.5604,-45.2094,14.7629,105.6115,-127.3406,-68.1190,-94.3886
97.7383,96.7662,-67.1882,-84.8690,-108.7381,-84.6854,-0.2563,44.2200,203.0755,262.5809,-24.4061,-133.0557,26.3672,-47.5074,-13.2029,103.7014,-141.9587,-81.1180,21.6793
107.1581,27.6285,-81.6551,-132.3911,-68.9469,-58.3886,22.2522,108.4314,146.8852,253.7039,-44.1195,-148.6131,-19.4942,-55.4283,-17.1731,69.6833,-130.2736,-71.5180,77.0006
126.3181,46.2123,-91.0186,-114.3819,-30.1835,-13.2336,-17.0460,148.4462,26.1736,273.8539,-28.0385,-115.2271,-82.0540,-31.1045,-24.8337,41.2787,-69.5727,-10.4079,121.3918
156.8556,135.3911,-16.0799,-44.0714,30.9687,36.5796,-30.4011,184.7286,-90.4123,285.8185,43.5908,-72.2025,-43.5670,20.4743,-78.9920,25.6901,55.8960,55.3000,154.0934
208.4530,233.1643,106.7799,64.8278,105.2670,84.6906,-34.4926,192.9085,-210.1974,196.1171,86.6218,-17.1976,44.8498,56.3311,-118.8859,18.2120,165.3066,95.3743,122.5793
235.9710,248.7086,161.1649,148.1502,136.2631,109.2516,-71.4572,167.1694,-312.4618,76.8452,57.7325,40.9083,57.4845,75.1708,-82.4327,49.6833,184.5756,123.6748,57.6260
212.3579,173.7995,151.7188,147.6740,119.5265,95.1051,-106.9486,129.5607,-327.0942,52.4930,39.2842,45.8014,12.4875,89.2061,-39.5439,136.5104,156.4600,114.0363,14.3640
196.9428,107.0001,137.3692,87.9054,87.3177,43.2830,-121.0204,71.9196,-274.3146,82.5414,64.5299,-22.8750,4.4115,63.2549,-42.3164,216.3050,129.2248,28.8658,-43.4022
218.7895,81.8223,93.0483,-1.3278,30.5398,-56.3307,-141.5188,-41.7556,-247.8365,52.8401,54.9826,-124.1706,25.0293,-19.3593,-37.3594,224.2821,65.7166,-102.2977,-154.2516
200.1246,15.5883,1.6344,-114.9832,-65.5130,-184.0138,-170.8569,-186.7960,-239.6459,-15.0777,-21.7535,-214.5329,-10.8042,-92.7751,-35.9820,197.8246,-51.9810,-212.6250,-249.7951
99.4479,-102.9119,-82.7514,-202.9367,-158.4299,-254.6783,-177.8815,-238.9195,-152.6271,22.2111,-102.1527,-255.8565,-95.2121,-80.9092,-91.8611,222.6325,-165.3810,-245.8719,-233.8545
7.6894,-163.0890,-129.7208,-231.1212,-190.5683,-230.0975,-125.3198,-124.2848,34.3884,228.1632,-127.5835,-230.2747,-114.6795,3.5636,-116.8222,303.4841,-230.9588,-200.4649,-107.5726
11.0916,-124.0097,-153.6620,-251.0730,-163.2426,-189.1247,-10.4911,32.2946,241.0742,450.7984,-102.1064,-189.2257,-54.6049,61.8284,-27.5357,347.0480,-262.0085,-163.9412,27.5029
64.6100,-67.9610,-164.2782,-281.0119,-128.1136,-185.6192,79.8002,75.8353,356.2596,465.5902,-75.1978,-186.3189,-39.0601,22.6694,59.8151,267.6889,-272.1553,-185.0536,73.5712
81.0581,-36.3849,-162.2861,-254.2380,-112.2000,-160.6378,58.4130,52.5045,295.4704,266.7532,-73.9559,-178.9057,-83.6776,-58.1907,40.3536,87.8822,-246.5188,-165.1984,38.8725
64.9415,9.4749,-130.7068,-153.0135,-91.6993,-74.9769,-18.3286,70.7614,110.9023,69.5137,-59.2455,-114.5990,-66.1249,-83.8799,-14.3297,-77.9086,-182.8707,-47.3539,2.9692
70.1513,66.3515,-64.7874,-41.1961,-57.5386,15.4923,-49.8406,100.8988,-13.0413,12.1251,-12.8385,-40.7529,0.4542,-60.1628,-39.9362,-127.8282,-134.3638,59.8541,-14.1812
84.0624,93.8077,-32.2963,34.1670,-50.3272,62.8577,-57.2029,106.3001,-6.3742,56.4213,-3.0997,-16.4405,-19.0635,-31.4463,-47.4669,-36.5716,-159.9576,94.1915,-52.9954
59.1785,108.6784,-83.7393,59.2927,-91.2568,73.1561,-93.2636,129.0347,10.1766,139.6581,-63.6648,-24.6733,-111.8080,16.5905,-21.9484,138.2807,-228.3336,103.6218,-106.2279
10.6700,123.9167,-148.5726,27.3677,-140.8221,41.8061,-128.8922,123.7022,-11.4087,192.8853,-115.7560,-48.9685,-159.3256,51.3010,19.9646,260.7858,-253.8367,55.3923,-141.8233
-21.2914,75.2520,-158.2547,-41.8811,-159.6363,-45.5562,-138.7900,-1.4632,22.8230,118.7859,-97.9285,-108.6088,-137.3952,-18.4728,21.0582,216.3386,-218.8674,-89.6708,-176.3484
-39.4614,-44.6339,-140.8112,-103.6053,-145.0180,-146.7987,-135.0387,-161.0088,114.2296,-40.7289,-46.2458,-176.0835,-68.2787,-141.3055,15.3035,67.8236,-158.0539,-194.1099,-199.2128
-41.2995,-109.0518,-104.0420,-113.0327,-95.4770,-176.0901,-91.8642,-192.7429,167.4877,-95.5346,-2.1252,-182.9001,39.9636,-158.0895,46.2674,-13.8321,-76.3519,-140.2163,-139.0450
-1.1352,-50.6532,-20.3061,-53.8926,-11.7846,-106.3592,5.0105,-100.8612,186.0583,-0.2645,39.3238,-125.4159,125.0174,-67.3110,52.8447,2.0280,8.8808,-29.0653,-3.5351
60.3089,31.0656,62.4590,18.1713,63.1901,-17.3104,91.4529,10.8394,224.6273,89.1258,80.4595,-71.7845,126.0110,-0.0076,34.5988,-2.1199,37.9008,18.1267,106.6852
95.1947,52.9062,84.2186,17.9154,77.1628,5.5332,124.1305,97.8236,256.2571,95.3881,106.9964,-65.1105,73.7952,6.8980,77.7631,-73.8502,4.7269,23.8760,160.3997
103.5347,55.9671,76.2078,-39.4927,47.9799,-14.9650,134.5116,145.2814,230.6813,71.9235,117.8984,-81.2398,26.3284,0.4787,131.8224,-156.7782,-17.2316,38.4986,188.8387
108.8801,86.3047,83.7237,-44.0864,45.3140,-4.5028,125.5756,129.9868,131.9367,3.4095,125.5641,-74.7140,19.6566,-4.9662,87.0447,-230.7200,20.2212,69.2879,156.1811
119.9565,134.6846,102.7374,47.7716,78.8957,40.5604,52.8313,52.3693,-28.7655,-167.0577,129.0097,-31.4077,58.2125,-18.7969,8.5175,-327.8546,86.4239,107.5433,25.8549
141.5182,180.2872,113.9207,148.5475,76.9553,65.2123,-71.6043,-69.2818,-171.0791,-362.4067,109.6560,15.8610,58.1875,-63.7452,-2.0034,-441.5859,112.3837,108.4476,-128.2693
147.9092,184.0528,89.4342,144.7163,6.6475,28.2797,-171.3880,-198.8406,-197.0126,-420.5986,65.1699,7.4838,-45.5663,-158.9211,8.5995,-486.4995,58.6173,26.7333,-219.9938
92.4814,112.2325,30.7728,24.3599,-66.4013,-76.2426,-196.4158,-274.7128,-116.6964,-275.9795,23.1744,-87.8143,-123.8686,-237.7261,-16.0715,-355.7996,-29.5937,-98.8513,-253.3417
-1.2640,6.1679,0.8390,-101.6098,-83.7021,-192.9197,-155.8160,-270.4778,7.2225,-25.3698,0.6018,-218.6100,-40.4538,-202.4352,-35.1058,-72.2373,-68.4470,-180.0558,-257.4894
-60.7404,-70.8398,13.1708,-126.1608,-68.9992,-222.3663,-83.6926,-218.0958,158.0370,152.6803,-14.3287,-282.9682,79.4023,-78.7301,-6.6617,165.9179,-49.4197,-168.6259,-223.2817
-79.5106,-120.4033,0.3386,-74.6775,-48.6676,-141.3154,2.4094,-131.9580,298.7831,178.4788,-27.2603,-241.8206,63.9054,33.0913,51.7550,217.6664,-22.5091,-72.8657,-118.5219
-85.9655,-149.6884,-24.1866,-29.1990,8.8222,-24.6643,111.0831,10.3129,362.3608,156.8196,-26.9140,-152.8027,-5.9274,107.3791,85.7040,167.6377,12.2785,64.3330,72.7534
-56.1381,-118.1473,27.4163,16.1534,118.7288,82.4761,224.8827,189.8245,344.0463,189.5443,0.9195,-67.1399,19.2967,165.6855,70.6909,124.1225,85.1154,190.6871,279.1425
25.6199,-19.1421,131.3147,100.7454,222.9484,175.8739,270.8258,314.6249,264.1438,207.7291,69.9232,28.6499,104.4935,196.0034,58.7033,49.7128,173.2132,259.6177,354.7528
111.4668,81.3996,193.0686,180.5061,259.7381,205.1242,209.0223,296.5565,122.5376,127.4657,161.0643,140.7808,152.4279,179.5469,69.4486,-80.3564,233.5003,235.1503,258.3298
164.5967,130.2931,207.4581,193.1783,236.6244,141.5297,98.5943,156.5501,-30.1423,5.5114,208.6304,230.0675,151.1519,120.8184,31.6424,-192.6937,260.2468,136.4289,116.4369
192.3511,141.8493,202.8820,156.6785,188.5888,55.4767,3.5398,10.2613,-135.8452,-91.3064,179.9739,267.9634,107.9903,41.0244,-48.0827,-259.5308,253.8371,43.6388,22.5067
194.5885,146.6649,161.3687,111.3556,112.2046,-0.8413,-82.5706,-82.3797,-217.0175,-180.5650,119.2979,257.0786,22.0755,-21.6361,-68.4741,-302.7024,197.2035,-16.0524,-68.0616
160.2920,126.1271,90.3627,47.0516,0.6521,-63.2896,-161.8560,-166.2362,-268.8577,-254.9177,66.8679,203.8085,-70.9571,-47.3599,-37.3212,-284.1604,95.4479,-100.7567,-184.6505
97.3778,39.2690,29.4895,-57.3130,-101.3907,-155.4388,-201.2979,-264.5786,-224.7085,-274.1659,14.0326,117.7813,-136.4078,-75.9869,-34.0457,-190.8854,-10.4049,-224.4676,-272.4510
25.0392,-92.5421,-22.8238,-184.6612,-154.9226,-259.5172,-211.2344,-346.5335,-118.7783,-268.6382,-48.8621,12.4500,-167.9182,-155.2863,-55.2759,-114.5603,-88.5422,-332.3329,-308.7814
-39.2650,-197.5063,-80.7977,-288.7928,-189.5358,-352.6829,-225.5537,-404.0240,-36.2949,-266.7779,-115.8946,-92.5959,-158.6393,-247.4036,-92.1859,-85.1068,-142.9323,-386.3246,-317.7093
-81.7592,-244.3640,-121.7847,-317.6280,-228.1358,-366.4041,-210.2092,-404.7304,67.7552,-190.5498,-173.1738,-145.7936,-130.1652,-243.8235,-147.3680,0.5036,-176.4127,-347.0372,-276.0715
-95.5107,-237.8875,-120.6021,-250.7313,-219.2639,-240.0454,-119.5903,-279.3603,222.8109,-13.7455,-187.8019,-109.4671,-127.2568,-114.0474,-143.1819,148.5128,-160.4729,-189.8464,-151.5601
-73.4899,-171.3240,-72.9355,-136.8102,-127.2114,-58.8778,-0.8320,-88.6623,275.9333,93.4901,-141.9739,-44.5471,-119.4852,14.6129,-64.7912,182.2277,-79.5920,-7.1037,-3.9397
-8.6411,-65.9622,14.2568,-45.6251,-7.5339,50.0349,68.4145,10.7430,131.7951,3.7889,-66.0722,-30.7666,-48.9697,27.5665,-29.6365,30.2328,24.3819,100.8481,74.8254
86.1710,30.4770,112.0927,21.3517,73.1118,112.0394,85.2776,32.9463,-63.0860,-114.2458,7.0343,-31.3356,21.7782,-2.9362,-55.3117,-119.9044,93.0154,185.3495,88.2058
171.5271,113.9779,176.9296,95.5953,111.3593,188.0491,91.9853,111.4053,-149.3637,-41.8752,66.8507,13.2820,16.5884,28.6103,-59.1115,-110.8488,107.8848,281.4597,104.2784
205.2639,179.0886,192.6307,141.2003,128.9859,210.6461,107.0210,216.6240,-133.0430,137.3698,99.4654,44.1851,19.1097,65.7476,-56.2045,-32.9283,90.8662,280.9086,136.8073
185.9274,174.1962,191.4540,111.0953,134.4034,138.8785,124.9790,231.6704,-75.1240,215.8292,109.0753,1.6140,99.1539,37.9814,-53.9246,-6.5407,83.2590,173.5866,147.7986
165.9337,120.6765,217.5204,67.2071,128.6913,77.9479,131.1726,185.7806,-19.2401,202.0661,122.6726,-39.8403,137.3264,16.4481,13.1002,1.5477,111.3243,114.1570,126.2689
178.0324,117.3084,261.4503,99.0744,104.4305,93.7805,104.9470,155.4151,-11.1974,193.5393,125.1141,-0.4278,59.4688,50.9721,80.7035,20.9659,144.3798,127.8902,85.8987
175.7966,152.5630,265.8056,166.7946,57.0326,113.9487,50.5430,116.0770,-38.6294,151.8918,79.8778,67.4362,1.4790,64.6588,47.9628,-1.2221,128.7262,88.4114,37.2239
120.5057,127.5930,218.2761,163.4777,10.4254,83.9039,20.2270,52.2597,-23.8889,51.8051,20.5851,73.3963,45.2488,15.1304,3.9312,-54.7312,70.8511,-5.5190,11.4427
61.8462,58.1017,171.5879,83.0268,-5.4401,39.9830,56.9004,16.7132,40.9082,-18.9454,8.9077,17.8339,71.0059,-33.6886,26.1920,-70.3858,24.9956,-48.4362,35.9533
45.2107,27.0271,153.8599,13.1960,4.4135,19.9884,118.9172,24.3250,67.7083,-38.2252,31.5767,-32.3618,6.0028,-25.5084,31.7711,-43.0250,7.5372,-39.1125,77.6536
39.7445,17.5258,148.0016,-0.0794,16.0987,21.8504,134.1288,42.9142,29.2672,-57.8744,36.3639,-40.8732,-52.5925,29.3263,5.0420,1.9143,-9.8685,-36.8668,98.4381
27.8334,-23.8862,149.7220,-2.5102,21.6431,26.3439,115.2085,60.8099,6.3694,-63.5345,19.1331,-36.1982,-41.5085,78.2826,6.6853,42.2259,-34.4065,-35.2236,119.9150
41.3081,-73.5184,163.7539,-40.3099,25.4355,23.5319,114.2907,79.7099,33.0405,-48.4975,13.2837,-46.9437,-26.4025,78.0311,0.1205,19.9418,-34.6859,-7.1982,152.8187
77.7371,-81.5737,178.5329,-67.7919,37.5717,38.4013,106.5253,100.5505,35.7475,-61.9021,39.1162,-50.0221,-37.2530,52.1533,-37.4322,-66.9744,8.4695,42.4021,161.4300
102.1602,-37.9118,180.0826,-20.0917,72.8396,85.8982,59.2175,118.8244,-15.8160,-73.6329,88.1513,-33.1433,2.0278,38.0712,-49.1859,-125.2510,64.8694,93.9552,144.1231
114.0673,24.7972,144.1398,49.3905,116.0239,107.9407,28.5584,100.5132,-35.7605,-21.7222,129.5478,-38.7093,95.7976,1.2382,-38.6444,-135.4241,81.4298,108.6496,125.9462
116.4664,42.3011,46.2752,33.6149,110.2394,51.6847,46.8603,32.5532,34.5740,50.4473,127.4650,-84.8364,101.9768,-76.9919,-19.8246,-144.0856,32.6686,58.5293,89.8208
80.9482,-17.3738,-80.0439,-57.3885,34.7571,-36.2249,52.2243,-24.3685,135.3539,105.1249,72.5506,-136.8670,-19.5584,-126.2421,38.9830,-93.7346,-55.3769,-13.5122,31.7085
14.2633,-97.8603,-166.7337,-129.3832,-42.8784,-91.2547,23.7352,-31.8890,193.2271,168.4729,12.5943,-179.5870,-83.2992,-124.6210,84.0040,46.8064,-110.5159,-39.7914,1.3108
-21.8471,-120.3443,-195.0030,-139.2874,-54.4117,-115.2318,8.4079,-36.6268,207.3117,196.2266,19.2073,-206.5840,2.8883,-142.6565,60.5703,136.4369,-72.7085,-22.3735,11.0426
-9.5500,-79.7821,-190.8089,-93.4768,-24.5925,-119.7685,-3.6902,-59.1535,198.1182,153.0679,79.5257,-183.6796,67.5564,-181.5880,46.8551,115.4236,12.9696,-20.8304,15.9381
-12.1701,-40.4784,-186.6122,-21.3283,-20.9918,-108.4701,-51.6104,-60.6218,160.6105,142.7312,90.5632,-130.4302,16.5939,-170.6445,51.5377,112.0474,32.4356,-70.9707,-7.1013
-63.2946,-52.5220,-211.7722,11.3282,-58.3674,-117.8287,-103.8756,-47.6227,93.2812,196.6059,24.2328,-124.8778,-18.7462,-118.3268,-15.7501,143.1250,-23.1127,-143.4312,-49.3041
-97.8168,-85.0574,-246.8770,-19.6776,-93.0412,-153.3397,-107.8295,-51.4177,25.0186,171.4134,-27.1533,-154.9200,3.1927,-73.8170,-78.8159,94.9106,-42.3458,-172.4417,-75.3859
-61.2098,-77.6867,-236.6245,-52.7303,-80.7136,-146.0703,-52.5873,-38.6907,-11.3721,35.9675,-25.4698,-125.8385,-13.0421,-14.8130,-18.1943,9.6381,8.3939,-132.7757,-25.6747
-10.4827,-48.1116,-205.1193,-52.9108,-30.2354,-67.9224,33.4838,16.0570,-25.1225,-61.2834,-30.3309,-33.9329,-41.1354,76.5553,65.7510,4.1448,35.6453,-67.8371,72.9080
-16.6344,-46.5477,-227.7804,-41.2061,4.4480,18.6590,81.9340,59.3960,-52.7133,-68.0019,-46.2085,40.1020,-6.7316,139.4413,70.0266,24.5284,-4.2235,-15.8250,94.3452
-44.4738,-40.8237,-272.8225,-1.5893,12.1823,74.3229,69.2008,56.4024,-78.8075,-64.1312,-19.5941,74.8524,40.4915,130.9695,62.0573,-23.0692,-37.6391,32.1934,35.6879
-25.9083,5.3130,-246.4175,75.1904,49.4683,114.6611,87.0766,42.1794,-34.3832,-73.0844,36.2037,99.5032,71.7868,90.0524,74.8730,-93.1229,-2.5195,71.2184,45.3040
24.9910,26.4794,-162.0591,115.8673,120.8799,128.8323,173.5706,36.3975,84.2420,-60.3680,68.7763,113.0800,118.2162,63.0644,83.3407,-112.8935,62.7043,67.6013,137.3528
48.1013,-25.3679,-101.8775,77.7443,142.1422,94.2410,203.4566,22.6572,171.5784,-28.2683,69.2620,105.9923,123.6495,50.6782,106.4897,-83.9699,77.7169,30.2385,161.2169
23.7803,-88.7115,-83.3762,28.8337,93.3436,47.1564,113.8831,11.3645,144.2722,0.4787,52.3691,89.7081,61.0743,48.1680,103.1395,-32.2670,37.3080,13.5289,93.2225
-14.2883,-111.4755,-72.3902,35.5662,67.0724,47.1329,23.9137,35.8741,51.7217,24.4772,41.8923,76.9119,31.7358,77.6234,29.3730,25.7286,28.1144,43.8457,61.9000
-20.0308,-110.5844,-46.9081,84.6725,104.7396,98.9724,20.0746,98.3618,0.7182,57.7415,62.5975,79.1603,44.1446,143.8023,-5.0607,86.7261,87.6699,94.3513,104.8938
5.6095,-101.3752,-12.1663,121.3885,135.3841,146.0627,56.1315,154.6679,12.9465,93.8355,87.1278,93.2874,7.9223,189.7768,46.1685,146.6253,129.4328,112.7979,145.9354
11.2873,-96.3391,-3.6668,93.2752,105.5727,125.2611,73.2011,150.3216,20.2239,98.3259,69.4351,79.3652,-32.1053,156.9133,43.5748,172.9350,85.7947,63.2903,139.9956
-20.0906,-116.6912,-49.4089,2.7247,35.1496,37.6508,39.7495,82.5716,-12.8166,75.7623,22.8197,13.7369,-12.9822,71.6807,-26.4581,150.3642,0.2386,-30.6116,83.9735
-50.1532,-146.1304,-123.1102,-83.7053,-49.2945,-48.1176,-39.8039,2.7595,-40.1714,69.9225,-26.5198,-65.0181,-21.4707,-3.3426,-26.7840,106.8125,-82.3937,-109.2787,-13.8668
-67.0044,-160.6671,-176.8967,-127.7997,-127.1222,-87.6231,-82.2514,-63.7758,-18.3728,59.4313,-72.7556,-118.8654,-68.1822,-67.3266,19.7446,38.3948,-156.6815,-142.4673,-101.6768
-82.0342,-167.4372,-180.2475,-144.1761,-155.9318,-93.1517,-28.8631,-123.4356,42.5994,1.3778,-71.7214,-148.5062,-34.4458,-133.5020,14.1472,-63.4818,-181.4987,-118.8612,-118.2925
-65.4179,-143.5294,-117.6461,-122.9224,-114.0930,-61.9889,46.8255,-136.6923,111.6070,-48.2734,-1.6157,-144.6701,41.2679,-154.4757,1.4278,-125.8147,-131.6986,-34.0800,-69.1256
-4.0418,-61.9471,-22.2492,-58.1665,-45.8639,11.0515,63.1901,-67.3296,148.7032,-42.7821,57.4976,-102.8932,26.9224,-108.4726,16.1189,-108.3261,-74.4266,49.6391,-3.6758
39.0971,6.8839,29.8405,-4.6993,-7.5362,68.2663,50.4145,19.0524,125.9426,-33.6569,58.8966,-63.2246,-20.1948,-57.7829,3.5917,-76.7231,-65.7965,60.5863,44.6835
16.3940,-3.2899,25.8740,21.2654,-2.4660,76.6688,54.3850,54.8723,72.1252,-8.7635,56.9695,-31.0413,-0.8192,-21.2730,-13.8365,-26.0821,-72.3176,52.1286,52.7146
-41.2359,-11.5911,21.8782,78.6605,-20.7120,99.4980,34.6455,77.4175,9.6647,89.7694,46.0564,45.6405,0.1482,56.1828,8.7679,103.6514,-64.0617,94.7900,-2.4048
-86.7059,63.7517,27.3575,154.7758,-79.3307,149.6356,-72.0269,103.5123,-114.4267,140.0894,-24.9678,132.2490,-88.0828,134.8583,11.8577,189.0537,-58.4559,112.1455,-99.6113
-95.3904,135.4097,30.4679,157.9092,-151.3899,135.2761,-222.9529,63.5044,-297.7887,-14.5392,-74.6712,118.6571,-148.2484,97.9238,-40.1267,64.7749,-51.3550,44.8954,-162.8789
-68.2681,89.6919,87.4104,86.4004,-153.3371,49.4614,-275.5016,-39.3427,-399.9142,-254.9428,-8.7772,29.0030,-82.9618,-23.2010,-88.8839,-151.3241,-22.7274,-5.3635,-141.3439
-48.9661,-28.9883,216.3715,20.6561,-81.5149,-5.9335,-177.0340,-99.8117,-340.6581,-346.7189,79.7585,-10.5696,17.7080,-84.9933,-93.1712,-231.7534,1.7233,13.7259,-68.9088
-72.4218,-92.4720,309.9045,-14.2533,-26.5434,-12.6555,-44.1333,-77.1314,-211.8829,-255.9624,79.5169,-0.5373,37.7036,-65.5807,-44.7212,-167.8377,-12.0976,23.4464,-5.0940
-100.8096,-53.5609,301.7895,-21.6690,-14.3221,-22.1461,31.1225,-18.2494,-96.3658,-89.0921,42.2257,-15.5916,8.8262,-33.2938,40.8007,-58.8936,-33.4004,20.7443,31.3543
-82.0081,22.2266,263.7691,22.7848,-7.3980,-20.3768,70.2389,34.2365,16.8109,69.8514,29.8955,-28.2701,6.7074,-2.0893,80.6905,61.8446,-5.5727,47.5562,36.8288
-15.2885,51.9773,243.4541,90.7995,-22.9729,4.6123,65.8115,47.2924,117.6648,166.7013,17.4899,-2.5775,-0.0733,13.1537,26.7632,143.2570,66.1235,36.6386,16.8391
82.8443,39.1885,207.4890,115.8194,-56.3956,21.3525,7.9223,24.0922,167.6700,194.4069,13.5283,22.9806,-39.7906,-5.4406,-42.8604,133.2486,135.4906,-15.9849,27.7338
192.6233,52.6737,177.8766,125.0068,-18.7839,66.9253,-6.0696,38.7617,158.1711,187.0095,52.0726,63.3338,-26.1966,19.5013,-64.4633,88.3385,195.3719,26.1292,116.6340
277.1447,112.0334,208.0500,180.1872,89.7620,175.7656,58.9057,117.2916,81.5766,140.9849,97.5367,152.5148,54.0602,122.0033,-65.6194,60.8023,258.4302,149.9008,226.8479
328.8593,177.1797,251.2242,235.6405,153.8387,249.4693,89.4824,181.8571,-39.6122,53.6745,120.0288,209.0388,64.6081,172.3861,-49.9288,9.5211,301.7584,195.9287,274.6650
372.9851,234.6611,243.4285,241.1449,161.0783,233.4159,68.7883,202.5184,-113.6976,-6.4133,150.7537,186.0904,-5.5771,115.3422,-4.4874,-61.4507,312.4689,187.9720,266.2146
396.3835,290.6431,223.1557,257.6243,193.3082,233.6428,93.3677,215.7292,-108.9928,-9.8868,181.4023,179.3713,-3.7982,65.9070,19.3138,-91.1859,320.3614,244.2562,233.9989
372.7114,317.5848,223.9094,302.8320,229.4339,272.3165,118.5398,179.5556,-109.6744,-44.2642,166.8233,202.0257,70.7975,46.0292,1.2210,-105.4263,321.8164,281.1231,151.0458
334.9086,297.4263,192.2508,275.7719,196.7211,218.7156,37.5269,38.8655,-145.2522,-165.3900,129.7953,147.5137,81.4338,-19.9863,-2.0072,-146.3784,267.5308,175.3133,0.5773
312.8363,254.4325,101.8971,151.4902,117.6970,62.4042,-88.6020,-127.1397,-138.9874,-276.3344,107.1668,44.5861,39.2317,-71.7848,1.7756,-136.8154,159.1090,7.0800,-154.5633
269.9362,204.1198,0.4589,28.7683,51.5788,-59.2356,-146.8642,-204.2021,-55.4799,-230.3603,63.4184,15.9111,34.6026,-27.8990,-52.4867,-7.9725,59.8092,-92.0600,-218.2565
189.6854,154.8221,-73.5403,-43.6355,21.7386,-93.7624,-116.7765,-167.5510,68.8201,-6.6568,-11.0335,48.4800,47.9186,36.1712,-123.3664,159.2472,14.5590,-96.2208,-129.6394
119.5830,141.3359,-104.2107,-72.1776,43.0038,-71.8787,2.8272,-35.7683,194.0012,247.6927,-37.0121,82.9657,59.0701,71.0478,-118.0711,244.0801,26.0382,-21.3013,80.7448
81.8692,168.8118,-83.0963,-24.9526,103.1426,11.9772,168.1721,141.2104,265.0924,364.5766,19.4519,152.3905,105.1360,137.4991,-59.9953,219.3048,71.2856,96.7323,274.5726
56.3451,189.7979,-42.0228,88.0012,156.5478,136.6400,247.4939,268.8999,232.2997,320.7177,83.0075,262.6199,145.1638,217.4012,-21.2154,136.2888,113.8370,193.7939,323.2407
44.2711,185.8961,-19.6435,172.6891,184.7238,215.5155,198.6758,295.5193,119.3018,196.7861,91.3423,343.6478,112.8269,226.9802,1.7221,54.4313,128.5230,233.2182,241.6236
35.2343,162.7398,-13.9719,175.5892,186.1635,195.5832,124.6872,231.2898,-13.7141,33.8687,59.0904,354.8788,60.7994,158.0504,16.6271,-26.2008,98.5910,200.2244,121.7695
-33.6393,76.5343,-39.8335,108.0363,137.6888,90.3166,68.3821,84.2294,-128.9668,-152.9770,9.4846,289.3168,61.2567,24.5621,-9.7246,-148.1004,5.8141,84.8324,-7.6665
-184.7923,-100.9835,-134.6860,-20.5053,35.7068,-60.4161,-28.1331,-106.9848,-198.2822,-295.9870,-58.0460,156.7260,65.9532,-154.2138,-60.1942,-268.8014,-125.7914,-73.7536,-156.9311
-349.9576,-307.5989,-264.3994,-175.8786,-89.6678,-213.4651,-165.6000,-269.3702,-218.3691,-341.9585,-142.3374,17.6210,-8.7939,-283.6144,-88.4032,-265.2386,-235.3681,-222.6634,-295.8651
-477.5651,-481.3098,-352.7162,-307.1469,-211.1009,-352.0459,-277.5579,-391.0502,-212.8597,-328.2656,-233.5238,-80.7387,-134.7909,-308.9393,-121.3475,-127.1631,-310.0678,-351.7701,-392.1278
-586.6831,-615.6071,-392.5503,-407.9682,-296.3515,-463.0248,-326.0029,-479.8954,-167.3314,-298.8129,-306.9519,-150.0413,-197.4881,-298.0874,-195.5832,12.5561,-372.7900,-432.0703,-446.4145
-683.1623,-690.6987,-408.8168,-455.0629,-316.3632,-482.8877,-306.7133,-478.1322,-59.8272,-232.0093,-325.2777,-177.0454,-168.8813,-283.5672,-266.6348,63.8334,-395.7804,-412.8937,-438.9175
-725.7482,-684.7307,-376.1075,-383.6688,-277.9534,-377.5564,-224.3168,-371.5012,56.0923,-122.3125,-279.7607,-127.0922,-146.1761,-222.1144,-287.5045,35.6776,-332.6095,-314.3298,-333.2528
-687.1149,-624.8857,-269.8072,-223.4164,-187.9822,-227.9522,-100.3895,-243.4758,120.5894,-37.8250,-199.4670,-30.8788,-150.3166,-136.7737,-263.9394,-49.6245,-200.7278,-187.8394,-162.5365
-589.1801,-534.8865,-131.8694,-91.9081,-48.3361,-112.2796,18.4572,-135.5909,132.8880,-33.0282,-109.4860,53.8320,-80.6335,-95.6389,-200.4163,-165.9935,-65.7513,-44.1222,-27.9241
-493.5532,-423.8843,-30.8038,-25.1434,75.9476,-14.1044,72.0040,-37.6606,74.1599,-81.7026,-31.9130,105.3460,37.8609,-101.4371,-119.5751,-274.0577,18.1903,80.2516,10.1805
-457.5250,-337.8357,10.8416,15.8202,108.6944,68.9596,42.0348,12.4295,-67.5291,-133.2319,-3.0171,122.3946,52.2568,-115.8427,-86.8211,-343.5010,48.8443,122.4349,-13.7585
-465.0581,-296.9924,27.4307,33.4688,78.3068,88.4326,-7.9629,-5.3596,-190.5837,-166.7463,-24.7148,124.4696,-19.7355,-104.2515,-107.2598,-332.7451,71.3437,96.2593,-33.0724
-451.5006,-258.4005,47.4199,16.8216,59.8914,51.4960,-3.5167,-37.7764,-183.7101,-175.1551,-46.3511,122.7310,-15.5133,-49.8754,-107.3656,-222.3328,103.0180,55.2990,-25.2816
-417.4477,-230.1728,53.1033,-27.2321,64.8818,10.0722,58.7881,-54.1379,-63.8691,-143.1103,-44.8694,80.5014,83.7974,19.9288,-73.8434,-74.4564,107.1723,4.7877,-7.8382
-422.9832,-266.7139,28.6644,-102.1197,64.1764,-30.8959,130.8020,-55.2150,105.1530,-44.7862,-59.8774,5.4351,157.8969,82.7376,-66.8143,79.8540,68.0702,-58.5168,7.5471
-474.4634,-336.3021,-18.1312,-195.4294,29.3110,-85.9049,156.6540,-23.8785,267.0597,121.5332,-117.5787,-26.7961,121.0061,158.7759,-94.5210,299.0644,1.5549,-121.5777,14.7883
-520.5125,-373.2777,-84.7528,-270.5508,-51.6250,-136.3031,108.7647,16.7481,323.6743,277.3945,-177.2988,-32.0805,-18.0803,220.9139,-110.8666,517.5253,-78.1288,-175.5284,-1.6774
-523.6036,-379.1925,-129.3365,-303.3004,-124.8804,-154.4599,33.8612,18.3997,236.0440,320.7966,-175.3443,-83.1150,-124.5738,196.0122,-105.1735,526.7186,-111.9847,-173.0267,-30.9364
-471.1161,-341.9997,-74.3786,-260.9676,-113.2332,-117.6549,3.5500,7.1492,104.2037,256.2002,-100.8395,-113.6672,-66.2990,101.8927,-103.9869,306.9744,-40.4800,-64.8004,-29.2649
-381.7170,-229.6958,44.2221,-127.5341,-38.1627,-18.0040,4.6877,20.1753,-4.5712,152.5538,-13.0729,-31.6326,45.0847,27.8231,-121.7921,61.2392,64.4133,79.9403,1.7829
-307.0976,-104.8312,100.1404,15.3102,13.8190,95.8386,-24.3242,22.7455,-128.4658,19.6592,35.1075,88.2366,24.5299,3.8301,-147.6794,-106.2848,98.3407,145.8116,1.0904
-267.9893,-45.8071,94.3325,73.9930,21.5453,146.7735,-80.9878,-2.9565,-245.6591,-132.6695,62.9991,151.6311,-40.4167,0.4816,-163.0748,-229.1871,89.4217,133.0537,-50.6290
-247.9325,-30.3743,109.9699,60.0837,14.0068,117.9652,-124.4934,-28.5700,-275.4357,-237.8760,98.8963,165.6977,2.3040,-23.0411,-165.1741,-309.7486,72.6177,98.3692,-100.0199
-262.0669,-43.9215,109.0828,3.6926,-9.3990,56.5236,-147.7300,-55.3532,-230.2414,-280.7889,108.7123,122.1560,42.7668,-84.8508,-158.2781,-344.8201,-1.9710,47.0163,-105.3658
-318.2383,-115.3535,35.3764,-82.7217,-56.3912,11.5644,-151.2618,-75.6357,-164.2200,-281.9846,63.5693,28.4147,-43.4711,-114.9233,-133.8828,-328.3540,-94.4989,-3.3125,-71.8519
-357.7018,-191.8297,-34.4560,-116.6947,-102.3901,10.5387,-120.5832,-40.6609,-75.0442,-194.2176,4.9842,-10.7273,-145.8667,-30.2346,-98.2028,-193.2342,-92.0221,-3.9039,-19.4811
-349.9293,-207.9888,-36.2771,-61.5732,-119.7014,45.2009,-60.5140,38.9600,26.1382,-26.7180,-23.4499,30.2737,-148.9192,98.8169,-82.0124,20.0571,-33.0420,22.0643,26.1550
-339.2307,-215.6884,-10.6278,-44.1016,-110.0935,60.9197,-0.6760,89.7095,101.0463,93.5541,-33.0432,32.4439,-91.5538,148.1537,-89.2769,127.8704,-26.1722,5.9147,45.6741
-333.0652,-250.9299,12.0829,-123.8015,-91.5606,24.2567,28.8621,91.0549,149.4289,152.2221,-46.1012,-37.4130,-42.1801,148.6117,-92.2218,133.8130,-37.4611,-36.8649,50.1905
-290.4863,-244.4955,34.6613,-160.9172,-63.2537,-7.9708,22.2047,86.8554,155.5989,251.8687,-56.9571,-77.9432,-23.9275,188.2204,-69.5618,230.2939,9.3902,-30.1092,60.2549
-217.5386,-181.7856,66.8667,-82.2840,-6.3539,32.5201,18.2180,115.4903,78.5009,347.2065,-40.2324,-42.0458,5.6449,240.8106,-1.0780,385.7416,86.6219,32.9827,70.6154
-145.5147,-136.0081,144.6809,2.9434,67.1948,103.3232,49.7332,161.4475,-32.7630,321.3124,15.8013,20.1128,109.3634,250.2143,108.5720,387.7643,135.9596,80.1246,51.1426
-88.9640,-127.1184,232.6476,16.6480,104.8414,104.0897,62.6363,148.8190,-88.4839,220.8932,62.8065,37.4265,202.6655,221.2610,189.9348,251.6134,126.6035,63.8455,-25.8138
-88.9580,-136.7102,206.1154,-18.1879,74.5678,25.7801,-11.3331,48.4270,-96.9064,137.1441,27.8917,-30.8396,139.7718,162.3015,192.6586,159.2636,49.5141,7.8119,-130.0076
-173.6035,-185.7434,75.0095,-79.7606,3.1043,-53.8091,-107.2862,-39.2817,-75.5659,81.6257,-71.1303,-130.9836,12.7823,83.3959,153.8727,153.2135,-44.9803,-48.8968,-165.6387
-281.0293,-272.4096,-13.3820,-150.6077,-54.7837,-98.7255,-100.0699,-37.7644,26.9801,89.3044,-141.5505,-165.7130,10.8773,28.7360,104.5044,183.5356,-99.3633,-101.6302,-96.5264
-337.1364,-345.2136,-46.7717,-211.1283,-75.4934,-137.3115,-9.8786,-14.4010,169.0609,158.8493,-160.3143,-150.2237,60.4527,16.4088,40.1648,224.0357,-144.3322,-159.5897,-15.1018
-344.4361,-375.6457,-113.2358,-269.7794,-94.6760,-177.1934,32.2200,-22.2103,205.8512,175.0416,-174.4164,-164.0942,-1.7736,9.6132,1.6121,212.8532,-218.3439,-211.6922,8.6190
-331.5941,-363.6651,-175.2287,-312.7165,-142.3096,-191.7097,-0.2423,-16.0112,129.3236,114.8134,-179.7730,-188.5944,-102.7039,-22.7952,10.9601,107.7095,-271.5614,-233.2668,22.5874
-311.6657,-315.4909,-166.8097,-297.0795,-173.8923,-177.6994,-24.4710,6.8426,61.6632,84.3791,-144.8739,-167.0515,-112.1958,-71.8090,-2.2459,-19.5890,-259.8033,-217.2526,49.3181
-294.6931,-266.2802,-140.7283,-238.8712,-156.3938,-156.7974,-29.2714,-4.2626,16.5425,76.8512,-104.6269,-120.8831,-79.5440,-100.4508,-62.7330,-98.2069,-223.0677,-190.4602,20.4870
-266.8690,-241.0885,-141.4700,-192.2449,-151.2237,-136.6585,-80.0441,-42.2061,-75.9320,9.3434,-97.6719,-84.5494,-84.0494,-81.2188,-91.7639,-142.3162,-205.0802,-184.8395,-77.3894
-205.7652,-206.6518,-133.5583,-165.3748,-190.1541,-121.0375,-168.0723,-79.9249,-186.8848,-84.2293,-84.6392,-59.0463,-103.1068,-42.3380,-62.4214,-157.1988,-195.2777,-195.5116,-167.8849
-145.1488,-153.4386,-102.4821,-150.5335,-202.6042,-129.9165,-219.7556,-123.0534,-252.0067,-149.7264,-37.7747,-58.5249,-110.5557,-32.9023,-21.5586,-118.8789,-181.3983,-199.1057,-218.6808
-145.7650,-149.1066,-81.0580,-156.7797,-170.0652,-163.2238,-226.8920,-157.3909,-290.9197,-198.8190,-18.1333,-84.6337,-121.4205,-43.7525,20.0842,-46.2588,-186.4939,-193.6463,-258.0882
-202.2053,-216.9632,-105.1457,-171.2904,-160.6572,-178.0697,-226.7305,-160.0517,-308.6924,-208.3769,-68.4389,-104.5349,-125.1409,-39.5115,57.0234,12.7770,-220.9735,-175.6502,-274.8876
-246.3048,-270.5284,-165.8789,-173.9600,-167.2099,-148.8418,-199.4098,-140.4881,-241.1110,-170.1366,-125.0743,-117.4745,-77.9624,-34.9419,56.4068,24.4877,-240.8894,-128.6855,-226.0489
-235.2661,-255.7847,-179.2775,-170.3425,-126.2961,-110.0934,-110.4772,-106.9361,-97.0378,-155.0961,-120.9978,-149.9355,19.7741,-60.8465,40.1368,-23.1398,-203.1432,-76.8622,-123.6404
-195.7490,-236.9227,-100.3776,-163.5208,-61.7960,-97.5304,-1.0284,-74.0955,21.4610,-161.9619,-86.9793,-186.5748,83.6845,-104.7862,56.8063,-94.7046,-129.6294,-68.8106,-31.0021
-173.4955,-263.5237,-19.1414,-151.7113,-27.5932,-98.4688,66.0521,-77.0363,87.4622,-110.8624,-80.5267,-198.1329,43.8519,-133.7193,87.9446,-127.3628,-70.5271,-85.4402,16.4949
-172.3041,-280.0939,-0.4259,-143.1803,-13.6656,-88.0783,90.2835,-91.4954,154.7824,-22.9471,-98.2714,-185.9401,-48.1855,-127.3151,103.2359,-113.8334,-55.3805,-57.8090,32.2963
-182.0086,-234.4987,10.4992,-117.8739,-7.9536,-50.2322,92.4366,-47.8887,195.3838,30.3688,-110.4244,-142.0344,-96.5715,-83.5411,110.7337,-98.2234,-88.8699,26.9889,27.4152
-212.0196,-149.2680,29.3972,-37.6321,-13.3643,29.2747,59.0508,34.4792,123.1151,52.3719,-105.1806,-51.2616,-82.7264,-29.9099,92.2158,-103.8188,-117.8546,114.4409,-5.7663
-231.4831,-46.9851,25.0190,76.7741,-5.6029,114.9477,-17.0673,62.9179,-42.2570,18.9250,-73.4201,44.3850,-45.4810,-11.7614,23.7279,-146.1691,-60.7504,146.3049,-59.4691
-169.7502,64.9895,45.0333,157.7912,13.5240,123.3248,-101.7949,-2.8627,-202.1971,-141.3246,-12.7060,78.1600,-30.8745,-47.1613,-46.1646,-255.5650,58.8715,99.7703,-111.9883
-39.9646,138.5301,108.9135,173.4900,13.9404,47.1802,-154.7342,-131.9621,-316.4139,-369.4072,55.0440,54.3740,-55.3430,-110.6056,-58.7365,-403.8419,140.0362,12.0024,-146.7729
60.3772,140.6021,134.5265,147.2292,24.4696,-17.9699,-162.3629,-247.9616,-392.2604,-499.5256,103.6103,28.7657,-58.2048,-163.4641,-33.2287,-493.9523,175.0855,-37.0881,-146.2020
91.0121,121.6053,111.8805,131.6080,69.9581,-17.3278,-148.3132,-262.5361,-429.6144,-480.6227,115.7270,20.3429,-5.7577,-180.4001,-16.5187,-480.7502,204.9597,-11.5888,-123.5046
81.8817,130.3451,101.5272,165.2915,76.6425,14.9354,-159.0597,-173.8446,-432.7674,-393.0903,85.2505,20.2776,-3.4464,-146.8172,-10.5286,-398.7178,190.2555,39.6379,-134.6288
49.0061,140.6127,77.6000,214.7820,6.2778,48.7817,-184.0782,-64.7499,-363.9846,-265.1439,42.1996,34.5533,-90.3328,-65.2677,12.4611,-254.6587,118.6795,54.7373,-162.0959
5.7347,115.3740,19.5801,205.0788,-41.2809,74.5441,-125.0445,29.8783,-130.9834,-41.3698,29.0417,40.3779,-98.8912,18.0703,68.3134,-38.0016,73.2483,30.8158,-85.5406
-19.2148,55.5866,-4.9292,131.6376,3.5569,69.7133,56.0749,124.4526,230.7731,240.4001,34.8377,-12.2416,35.9141,46.1823,148.2290,168.2362,77.3517,8.0640,112.4072
-22.7754,-14.8535,4.0854,66.5551,68.2138,41.1250,233.0218,189.2712,486.8325,406.0861,27.3236,-85.8609,130.9173,36.9552,220.6908,253.5496,82.1154,11.6540,268.5337
-15.7475,-53.2846,-10.8371,55.6517,79.1048,29.2959,274.5836,193.7339,475.3665,371.4331,24.0817,-75.8326,94.4152,55.8939,242.8664,231.0019,99.1357,29.9734,270.4485
2.8228,-37.4186,-10.1247,83.0458,61.2065,37.8856,204.7765,162.3792,300.5858,245.9807,43.6597,3.3719,41.7214,91.6164,207.8893,178.7593,147.1269,44.5502,188.6150
20.3770,-5.3223,40.4181,114.8383,58.2926,40.5950,122.5882,116.2318,146.9052,130.5743,54.8526,29.1790,36.8248,78.8330,179.8584,116.2508,179.8792,53.7853,130.4495
22.7698,17.0513,65.7231,133.1335,73.2995,41.2278,84.9980,60.2594,67.5642,23.5332,47.6743,-9.0149,65.3427,35.6702,202.3451,54.3597,183.6749,62.4223,117.1696
17.0275,61.5948,44.3492,152.2270,97.2500,59.1451,89.3890,18.6684,14.4823,-54.7838,55.3208,-3.5878,142.4067,34.3448,202.6682,29.4200,187.2679,76.7393,101.9438
-4.0745,114.9182,45.5571,189.7844,118.8941,88.3800,71.8001,-3.5269,-62.3115,-87.5272,68.2328,60.7023,210.3537,63.5774,128.2425,18.6861,175.8994,94.7949,35.7598
-53.3324,93.5442,60.4347,200.4673,110.5764,96.0010,-13.6610,-33.2408,-160.0205,-134.7955,38.7762,83.4628,164.5081,52.8268,85.2510,-16.6188,129.9262,79.6113,-53.0288
-104.0413,-11.0025,28.5757,115.7376,60.9190,43.0778,-81.4867,-73.2971,-209.7469,-191.5785,-21.4470,25.0576,60.5433,-5.6113,149.7951,-21.3069,63.5166,2.6795,-81.7089
-130.3261,-98.4513,-20.6330,-18.8678,16.0926,-57.3748,-32.9982,-100.3463,-164.6310,-163.4525,-46.0932,-36.4947,31.8901,-50.7422,210.4572,52.8996,-12.4692,-73.5479,-45.9822
-139.5560,-106.4587,-26.2220,-64.4232,33.8374,-109.3399,60.5643,-88.3681,-90.1426,-64.5646,-8.2617,-22.8331,74.4803,-35.5208,183.2701,131.2203,-58.2914,-53.7700,-4.8542
-123.7674,-73.1630,4.0194,15.4476,104.0591,-40.4185,93.3380,-8.0396,-70.9285,15.1277,54.9332,47.2225,129.5666,27.2527,140.6939,142.0923,-18.0746,53.9105,58.5613
-67.4913,-51.6474,42.7388,110.5120,180.1722,89.0960,123.9760,129.7106,-66.0050,89.2990,106.3977,103.3301,204.8451,94.7782,122.5236,123.0450,72.0007,161.3442,196.1714
4.9126,-46.7426,93.7325,146.5777,260.3182,177.5591,243.8939,260.9999,27.7422,191.4093,151.0022,141.1072,276.0223,160.1251,105.5768,118.5827,141.1586,228.2236,361.4599
64.1809,-21.2196,155.1639,177.3074,349.8408,228.9175,390.8490,352.8846,193.0016,262.5831,193.2801,221.8727,262.6752,244.2760,137.1676,110.3758,210.8057,277.5601,450.7682
110.4454,68.9704,202.2715,264.5558,399.4536,303.5131,439.3363,411.1750,291.8410,253.8175,201.3745,348.2233,169.8776,314.8289,224.7041,71.9755,307.1671,320.2993,420.6318
148.7042,208.8340,228.6242,377.9726,379.6227,376.2169,369.4277,406.7110,262.7025,176.8838,167.5224,441.5421,105.2657,306.4291,250.2187,5.7793,380.0449,326.9051,317.2299
179.4297,305.0005,254.4203,437.2885,337.0068,361.4151,271.6534,319.8060,195.8075,62.7972,143.6340,450.2284,125.8528,230.5908,187.9180,-55.6914,397.8116,271.1168,225.8241
191.7641,297.0272,268.7067,397.2526,301.3243,256.6248,218.5198,201.6550,161.1952,-33.0755,153.6491,383.9635,165.6102,152.6420,149.7517,-80.8599,364.0889,179.7900,165.6342
168.4208,245.7280,230.3098,290.1883,241.6190,147.0867,171.5584,89.3677,113.4663,-81.7217,154.7369,270.3365,150.9176,81.3468,144.5488,-94.9786,270.5677,99.1843,76.1908
130.8480,222.4829,151.2093,188.9865,150.7089,71.6882,74.0316,-23.6396,45.3538,-103.7967,122.2002,153.9857,103.3400,-0.6344,88.6448,-123.5652,148.7177,21.3667,-34.1061
101.8214,189.9100,73.5847,119.0534,58.4939,-0.4122,-22.0689,-89.3345,44.8791,-60.5474,67.9963,81.0465,57.4145,-50.6754,13.7519,-95.0887,41.6809,-71.8746,-73.0237
38.8511,103.8821,-23.7971,52.7647,-25.0031,-65.5790,-47.8154,-47.8642,123.9643,89.1683,-7.5507,45.0105,-8.5693,-24.9469,6.2261,44.8075,-74.6862,-129.0350,-40.6533
-57.6627,17.2391,-148.2177,-14.4689,-82.3292,-84.6090,-28.4497,35.1622,196.3027,224.5048,-77.8253,5.9497,-69.6967,34.3414,47.0355,185.2230,-184.3610,-112.0744,-10.6199
-83.1921,-30.9231,-204.6397,-67.4883,-72.5852,-73.0682,10.0400,50.0051,236.7608,225.4350,-83.1268,-44.1758,-51.4200,54.4080,66.6125,198.1018,-191.0039,-81.6639,24.4831
-19.4257,-76.1832,-147.4914,-111.9716,-12.2468,-74.3937,67.7198,13.5645,250.2966,170.5373,-36.8274,-78.6399,7.9275,26.2272,41.4188,130.3267,-108.0987,-85.3612,74.2697
24.3532,-106.3250,-73.5393,-127.3314,25.9198,-72.5807,73.2573,6.6957,164.9832,137.5897,-14.7578,-69.3842,1.2930,-3.0249,-2.3669,92.6606,-48.6969,-79.8764,67.0502
27.8657,-65.4945,-49.1547,-69.9298,24.5360,-26.5475,-17.5612,24.2097,-38.3214,63.3053,-18.9020,-12.0421,-49.1702,3.6415,-12.8554,87.7024,-8.8549,-34.4414,6.3265
53.1228,13.1824,-31.0400,28.7741,33.4721,49.5795,-102.1675,13.3051,-233.9044,-70.5279,9.4225,61.2721,-46.0609,32.6748,12.8860,58.8054,76.3147,24.4190,-10.6853
84.3102,64.0801,15.4640,96.4498,75.8818,100.0855,-104.8305,-28.5990,-328.8107,-201.5408,71.9810,109.6880,7.1103,31.8286,4.1808,-4.3250,161.2068,71.4080,13.8182
