Fp1,Fp2,F3,F4,C3,C4,P3,P4,O1,O2,F7,F8,T7,T8,P7,P8,Fz,Cz,Pz
123.5686,55.8309,80.5604,36.1301,92.3727,41.5672,-34.4199,-71.9520,-69.0108,-125.6611,56.9997,11.6281,49.2927,19.4371,19.6377,-15.8198,69.4940,49.8299,-102.3429
134.6563,-2.2004,34.1815,-53.8120,47.0609,0.2180,-50.1693,-128.6364,-109.5290,-159.2578,1.9807,-42.8143,-8.1731,-20.3788,-42.9044,-85.2443,-15.4482,-25.6698,-79.7713
172.4226,20.3299,22.9342,-37.9779,45.3832,35.2516,36.4833,-4.5648,-16.8466,-2.6402,23.5697,-1.9870,19.6791,41.7386,-10.4102,-11.7114,-35.2526,-19.8782,83.5239
194.3719,33.8019,56.3593,2.2925,63.0103,61.4891,175.6424,189.2422,126.3040,208.0296,41.8699,39.6509,67.8092,107.2779,47.1546,114.1121,-13.0260,-48.5065,267.4640
135.5060,-41.5051,44.1434,-37.7373,24.6893,11.8260,236.5854,284.0497,210.1881,336.7281,-21.2721,12.4136,44.2207,89.3796,48.8673,174.0345,-71.3544,-156.5344,360.0499
61.1014,-130.6330,-50.3260,-117.4740,-63.2348,-55.5195,202.5262,281.5047,222.6711,385.9578,-78.5421,-56.9939,-9.1196,39.1103,16.4247,180.9198,-211.6817,-260.6986,340.7518
59.6655,-183.8042,-154.3226,-201.8240,-153.4722,-123.2019,113.3386,196.6004,143.7631,299.7874,-75.3102,-142.5584,-50.0933,-14.6753,-43.5923,117.3272,-318.9613,-319.2865,208.8065
67.6475,-220.1862,-207.6048,-272.3508,-214.3990,-196.4327,-7.6654,21.2990,3.6095,65.1540,-88.3188,-186.9421,-98.7513,-97.8801,-123.9267,-47.9600,-333.3630,-311.1773,34.0991
5.6593,-197.5497,-208.1205,-234.7277,-199.0981,-190.8852,-87.6664,-152.9306,-67.5426,-139.0462,-130.1899,-123.3789,-126.9318,-159.1161,-154.8732,-196.3019,-267.4855,-204.9075,-73.8519
-60.1240,-88.5523,-151.8337,-83.4416,-98.8727,-96.2055,-84.9273,-255.7565,-61.3781,-230.4528,-120.1335,-11.9507,-107.4034,-145.5386,-141.6764,-231.5353,-141.4127,-59.5345,-136.4188
-57.8141,21.8169,-47.5845,37.4633,5.8646,-39.6001,-85.6029,-335.6769,-112.8792,-327.5290,-57.5425,44.7359,-92.7854,-127.4160,-164.7659,-248.9454,-9.0612,36.4308,-228.3549
-46.5616,56.3822,35.7996,70.9682,56.3860,-48.2710,-136.2743,-396.4808,-221.6328,-419.4866,-25.3912,54.6201,-102.3834,-153.3596,-188.2871,-293.4738,45.4374,83.5018,-290.7128
-107.8127,14.5893,31.0994,69.0698,73.6919,-33.2964,-158.2629,-357.9146,-262.9477,-361.1654,-61.7903,37.7455,-91.5550,-141.8915,-136.3060,-245.4011,2.2902,98.2025,-249.7522
-228.6874,-81.6195,-45.9821,21.2705,58.6443,1.2190,-131.9916,-202.7819,-227.1956,-166.4776,-133.1365,-31.3432,-71.7947,-58.8530,-76.2670,-93.9047,-85.1163,71.0172,-164.4198
-345.1911,-180.7594,-139.3186,-68.2470,-21.3618,0.6222,-120.0266,4.4007,-175.8715,51.4466,-197.2499,-99.0706,-90.0218,1.3110,-81.9450,14.5558,-185.6619,23.8008,-94.6708
-431.1944,-227.3091,-236.0428,-107.3465,-143.9733,-15.5354,-102.1050,184.6367,-92.4069,252.7782,-257.2487,-90.5858,-138.6214,-0.1416,-101.3734,47.2199,-300.5432,-30.7490,-16.0232
-505.8295,-244.9286,-341.1751,-92.4351,-246.5276,-30.7117,-21.6080,279.4838,42.3688,388.9100,-331.1996,-62.5308,-190.4692,6.8091,-100.6437,94.0322,-390.5799,-101.7762,79.3800
-562.6387,-284.5120,-410.0870,-120.9360,-289.8336,-56.4673,77.4474,293.0929,161.6928,394.4868,-378.4319,-89.2541,-224.7152,37.2395,-109.9691,145.3951,-398.9875,-147.8097,159.9434
-559.4309,-328.0466,-390.5287,-186.9310,-258.7260,-61.2383,115.9873,259.3718,181.7813,302.5080,-348.2748,-121.2611,-213.1714,39.3784,-120.3078,119.2931,-335.9338,-134.7864,197.6843
-508.2146,-324.0217,-304.0521,-190.8042,-173.5667,-24.6427,76.8673,177.2438,87.3830,188.6712,-278.8858,-94.5364,-172.3032,27.4702,-123.2558,36.8789,-254.4143,-98.1328,155.6534
-470.5073,-246.4004,-215.4659,-104.3607,-96.3756,20.9628,-14.1221,67.7173,-56.1726,83.1268,-232.6063,-26.0113,-150.5390,41.4231,-146.5849,-22.0619,-173.9409,-45.5915,31.8996
-443.9681,-113.5328,-156.6345,17.6576,-57.9600,61.9770,-105.2490,-10.7912,-159.2155,-1.5295,-203.7381,47.2754,-134.6911,39.9355,-162.3223,-60.2176,-97.4034,41.4454,-84.5295
-386.7746,-2.9520,-124.3959,106.4038,-33.0370,91.6339,-137.7922,-60.5921,-178.9740,-67.5370,-175.7738,91.1192,-94.0442,-12.9636,-125.9637,-114.1248,-52.4219,101.8511,-111.8488
-326.5121,13.8614,-107.6287,110.2606,-23.7705,70.1252,-103.4509,-99.2952,-126.2864,-112.0062,-158.1801,61.8431,-69.4229,-61.2564,-78.3422,-140.6499,-61.8998,68.1239,-76.5819
-310.1180,-45.9145,-101.4251,25.8773,-69.0174,-3.7291,-43.7185,-71.8910,-42.0602,-80.1664,-149.2062,-38.7580,-96.0966,-68.3566,-60.7571,-89.9408,-116.4840,-34.5723,-42.1569
-319.9810,-129.8658,-125.3546,-101.7138,-157.3643,-82.3436,2.6430,27.3822,22.5406,36.2701,-163.1913,-143.7982,-139.3923,-80.9345,-52.5004,-23.5610,-188.9094,-157.8580,-20.2626
-322.6568,-209.6105,-190.4970,-210.7378,-232.9124,-146.3156,25.8186,105.2819,62.5172,139.4956,-218.0731,-193.6589,-173.5074,-114.6961,-57.7323,-15.7937,-240.2373,-256.3578,9.6433
-299.1031,-243.9445,-238.7431,-246.6438,-266.2898,-183.1833,49.8311,136.1360,116.8122,187.7713,-251.7395,-187.8405,-201.1024,-119.9501,-87.6799,-21.6440,-238.3360,-267.8182,63.9086
-229.8860,-207.2299,-200.9519,-208.9422,-245.5784,-160.9740,94.1251,168.0981,164.9595,237.0557,-197.9008,-157.9953,-198.3312,-85.2989,-97.4016,11.8337,-196.8125,-204.4962,138.0469
-139.9227,-146.1587,-107.6464,-156.9253,-168.9530,-99.1580,115.4033,184.1249,136.8002,271.3163,-109.8428,-120.6933,-153.2732,-51.3210,-81.3919,29.0268,-154.5691,-156.5850,189.9891
-76.4205,-104.6966,-44.8174,-123.4370,-94.0122,-63.0771,58.5184,146.8271,42.7496,217.4015,-60.3963,-81.9815,-110.8573,-39.1987,-98.6085,-11.4168,-117.7327,-152.1760,176.9478
-18.2685,-66.2702,-32.4741,-93.6759,-87.8564,-71.1892,-40.8322,74.8926,-35.1303,98.6661,-33.0652,-64.6080,-108.1133,-49.5471,-137.0642,-60.7565,-71.2970,-151.4861,121.3637
67.5065,-17.2451,-32.0553,-67.5717,-120.0506,-89.6726,-94.1779,-18.4789,-56.6544,-16.1787,-5.2438,-71.9532,-127.7585,-82.9104,-137.8598,-102.7218,-27.2307,-133.4700,77.5238
146.6455,38.8270,-25.5038,-44.4726,-121.7599,-91.9244,-77.0096,-123.9361,-38.6356,-120.2771,11.0413,-58.5812,-140.1526,-123.1495,-125.0007,-166.6759,-5.3170,-91.3474,44.8506
206.6792,108.6083,-16.2624,-3.7359,-95.5044,-84.7076,-29.8927,-193.5051,-7.7141,-207.7681,22.7922,-8.9773,-131.7106,-148.5039,-128.6297,-211.8684,16.5140,-41.7532,6.3411
276.3712,162.1893,7.9656,33.1461,-57.0934,-89.7216,25.1295,-198.5800,34.5742,-220.7158,33.2260,22.7893,-93.8123,-147.4846,-92.3756,-171.7756,69.0457,-36.3249,11.9856
319.1429,145.1549,50.8394,23.4840,6.9842,-94.5924,97.3957,-134.6083,108.7054,-112.3372,32.3795,9.6889,-31.7842,-102.0151,-1.9955,-61.2493,106.8586,-75.8312,95.2993
297.0388,78.6016,63.5805,-21.3409,45.1742,-68.0882,158.8280,17.9094,176.1382,88.2731,41.5017,-20.0704,13.2116,-15.5998,46.5390,64.7546,44.0960,-113.4862,174.1716
272.6554,30.8867,-1.4687,-77.7872,-20.6933,-39.9347,137.8793,205.9149,144.4414,272.7316,60.9608,-61.3979,-6.8367,50.3779,-3.3185,157.4952,-93.6495,-153.2127,177.7849
280.4418,12.1978,-91.4740,-132.3659,-138.7049,-49.9505,33.4688,295.6263,36.1741,337.7513,41.1417,-107.0250,-73.4595,49.6889,-88.9144,163.1683,-173.4454,-194.9864,159.7288
262.0673,9.0349,-113.6894,-131.7365,-202.4324,-50.5893,-52.8778,251.3662,-23.7940,288.8470,-12.9329,-101.6905,-110.8593,13.6371,-132.5673,80.7774,-155.9821,-186.8133,151.0893
211.9584,41.7667,-94.1990,-63.7444,-227.8133,-18.6238,-75.4607,160.0924,-35.6681,200.7762,-43.2317,-42.4135,-102.4535,-23.7867,-129.5113,-13.5546,-134.7459,-151.2997,78.2208
170.7684,95.0410,-119.4301,-19.0436,-264.0105,-34.1651,-103.5246,77.2968,-92.9959,113.5817,-48.6897,-6.6878,-106.4563,-67.8338,-119.5025,-65.7754,-146.0989,-157.3680,-56.4339
107.9902,101.6341,-150.7395,-30.7260,-257.4934,-98.4826,-157.8194,10.5829,-169.0332,44.0783,-47.2114,-15.2442,-129.1879,-98.8812,-119.0403,-85.1238,-131.6381,-149.4467,-130.9288
13.6800,60.4608,-97.7677,-21.9816,-174.6334,-99.9823,-177.7787,-28.8772,-193.8636,3.4456,-16.5647,-21.9624,-122.7117,-95.0318,-113.6151,-95.4645,-84.1452,-59.3220,-120.4444
-32.5769,47.8037,-5.3936,17.6015,-95.0750,-44.0276,-176.4221,-65.2119,-208.1119,-50.1199,25.4849,-28.9845,-105.7212,-105.8624,-110.3443,-127.0931,-44.8097,22.7588,-129.7403
-18.6318,72.5496,31.6130,29.2548,-62.8062,-36.7549,-204.2203,-122.7434,-241.2594,-144.2314,26.2672,-53.9926,-119.9998,-162.3565,-127.4044,-184.1485,-10.8763,26.8122,-176.1696
-33.9758,54.0134,23.4262,25.1757,-17.4865,-61.0508,-194.7411,-141.6740,-223.7815,-188.2714,-6.7112,-61.8910,-122.1652,-177.2593,-126.9840,-188.9341,15.4728,33.5193,-153.6174
-111.7014,-33.6176,2.2365,24.6936,56.2196,-36.1832,-67.3119,-63.6570,-114.2339,-88.7962,-54.4663,-45.6857,-76.7749,-79.6753,-67.2933,-76.5324,-8.9082,64.0859,-26.9495
-209.9248,-130.2890,-57.8870,-14.3486,78.6220,13.9510,109.2347,60.8657,54.4746,95.6844,-131.0397,-49.7292,-40.0284,48.5642,2.3676,84.9462,-81.7303,25.0151,108.5150
-295.3759,-202.6022,-144.5284,-73.3880,20.5134,39.1738,223.7593,151.6552,229.1727,244.4085,-194.3438,-66.6872,-44.0534,95.6281,21.4717,180.1352,-147.8190,-69.9983,170.8711
-341.6562,-252.9174,-186.3908,-76.9646,-45.1532,47.5809,252.0163,187.0161,324.8806,311.2044,-180.9960,-53.4021,-60.7048,67.8299,12.9832,173.8451,-177.1457,-107.1590,165.3710
-335.5381,-251.0275,-159.2844,-38.4764,-68.7489,44.1532,192.0800,167.8753,266.5506,288.6738,-125.1254,-25.9691,-94.7401,30.0338,-1.8665,96.6747,-162.6433,-79.0843,113.6544
-298.5363,-187.9911,-96.6445,-15.7275,-73.4190,32.5522,53.0598,102.3255,100.2190,177.4574,-77.5815,-18.5912,-136.4778,8.8702,-43.0605,9.4121,-100.8274,-54.8617,37.8381
-246.6217,-129.7931,-19.7585,3.4913,-59.9568,41.9607,-69.1296,42.7022,-42.0663,50.3782,-17.3493,-16.3131,-114.5722,6.9525,-80.9945,-19.4119,-16.2685,-30.8682,10.5584
-190.3609,-111.2488,65.8895,42.3168,5.0317,73.0455,-91.4429,46.1975,-98.6272,6.6398,49.2571,1.9767,-39.8052,24.8262,-78.8015,11.7758,67.3315,27.9857,69.8240
-153.7597,-78.3500,141.5251,80.7453,94.7936,103.9492,-82.7165,89.3950,-125.7423,29.2630,79.9803,33.3214,-12.4864,44.0980,-86.4158,32.2554,158.4496,101.5510,117.2993
-119.5408,-4.3142,182.2873,108.9687,144.2647,136.8427,-128.8770,96.9728,-178.2287,20.0124,95.2461,69.1152,-27.8935,40.7730,-128.2083,5.4823,238.9596,152.3971,69.9715
-64.0034,52.5205,173.7299,124.6522,144.4246,156.5847,-160.6722,59.3404,-201.1508,-26.3933,103.7471,81.0922,-13.7039,13.8927,-126.3955,-33.6287,243.1539,161.6521,8.4955
-44.5138,41.6042,118.8818,100.1561,117.5134,124.4310,-86.2248,37.0700,-109.0074,-25.1912,54.3205,39.4171,3.8063,-20.4180,-48.8781,-43.4765,158.5814,117.9521,21.8781
-67.9076,-19.5247,59.7073,27.2059,88.7077,51.7260,59.6077,49.9067,85.2721,44.2241,5.2408,-30.4646,18.6319,-48.0928,59.1735,-16.8859,91.7635,36.6835,103.8483
2.5815,-85.3683,79.3196,-57.9404,125.8535,-13.7490,238.4307,68.3043,319.2170,129.1449,97.5888,-88.7607,132.1305,-64.8298,202.7611,21.1974,154.8851,-46.3601,274.6088
199.4694,-130.1444,204.3499,-126.4243,243.4685,-58.7496,455.2445,90.9100,539.9850,198.8557,279.0208,-149.2092,315.0375,-77.5919,369.0380,36.1210,290.9321,-128.7707,510.0898
353.7746,-151.1780,315.2203,-188.4288,300.5891,-105.7000,596.6284,106.3068,635.8011,222.1221,358.3394,-220.0537,377.8724,-103.2982,430.7153,10.6911,326.8111,-226.2231,611.2293
397.1024,-147.8946,293.4288,-255.6290,201.1119,-180.4479,527.2034,53.9341,531.9232,149.9117,327.9745,-254.5138,296.3560,-157.2199,341.3106,-57.0222,239.3661,-308.5118,488.0001
438.6498,-126.7553,222.2576,-294.6216,76.3570,-266.6987,366.1321,-51.3460,375.4784,26.6916,320.1893,-233.5038,236.0563,-223.6841,252.0834,-144.8159,183.0998,-322.4473,364.2115
501.8717,-111.5996,232.4859,-261.6092,66.5214,-286.2123,317.1876,-91.1688,333.4903,-28.2846,336.1970,-199.9179,249.2270,-248.4023,260.2632,-187.6232,202.7876,-258.3555,390.8317
532.1035,-92.7007,267.9417,-183.2747,122.6095,-207.1176,325.8121,-37.0266,320.5247,-12.5054,316.4642,-174.1504,261.4067,-202.8598,270.5445,-154.1492,197.4718,-153.2197,413.6393
582.5823,-16.9949,256.9625,-120.7358,169.5908,-113.2851,251.5260,9.1890,217.6650,-26.2547,325.5123,-134.1495,260.0429,-133.0905,209.7727,-108.9665,178.2700,-57.9666,327.4439
691.3853,98.6588,283.8050,-66.3882,216.6857,-59.5933,149.5080,5.8071,103.5009,-66.1784,408.9069,-73.7695,257.7772,-82.1843,140.2872,-88.7503,220.8004,-0.0077,223.0275
753.8333,157.8811,362.2612,8.2873,252.9085,0.4627,114.8181,-0.3614,65.6271,-50.2675,456.7140,-4.6103,237.2097,-23.5864,130.5671,-33.6811,255.5374,37.9566,135.8731
704.5907,152.0538,359.5557,66.9684,253.9222,73.5882,139.0631,-3.0374,94.1920,4.2145,393.1265,64.9656,229.7632,58.1019,182.9644,59.0445,219.3105,77.9699,46.8803
613.5441,171.8322,276.4463,93.3259,253.1542,113.7302,230.9397,-6.7158,198.6932,41.9915,305.7895,118.2966,262.3503,118.5084,255.3036,106.6217,199.6184,111.6234,26.9856
542.3997,230.4693,248.9181,135.9337,268.5848,138.8237,384.9903,34.3859,350.4530,98.1020,281.7949,145.6572,275.4515,139.7830,284.5002,107.2486,227.3283,128.1797,108.0276
496.3269,268.8415,279.0563,187.5102,259.1502,166.3395,479.0630,116.6591,425.1332,184.8155,292.2524,162.6685,237.8078,147.2706,251.6596,119.6571,228.4911,119.4651,196.6506
481.2252,295.1111,280.3044,189.4284,203.3592,147.3379,432.1481,169.3037,374.4391,217.2329,282.2782,173.4569,194.5882,136.5540,205.4388,131.9441,218.2213,75.1171,225.5168
478.7865,334.1705,259.8639,160.5281,127.9358,96.2166,324.2212,184.3778,276.9331,178.2574,243.6219,159.0756,160.0334,103.7116,182.5172,126.2182,241.3515,35.2820,213.8967
444.4338,346.8140,244.7369,157.7454,74.3308,98.9530,245.2177,200.7465,194.6402,151.9671,194.8941,132.8960,132.4261,94.3136,175.1259,127.6769,250.9530,63.1810,195.0457
387.0121,331.2044,217.1216,179.6900,73.6112,148.6131,187.0709,180.5270,131.4170,128.5726,160.9149,140.2505,139.1516,116.3534,165.0655,104.1244,248.6836,126.3215,173.9882
365.5847,338.4374,202.7136,203.6835,120.9009,159.3518,116.2056,61.2077,68.0957,6.1844,161.4265,174.9798,158.4872,100.2419,132.5228,7.1022,307.5001,139.1933,120.0311
400.1218,344.0009,246.8395,212.7740,193.1774,111.3861,45.6896,-108.3137,-10.0232,-188.7164,199.2742,178.6247,150.7013,30.4742,89.9910,-100.1747,399.9139,109.8187,35.2382
441.5953,292.3463,318.0999,189.3424,274.5832,56.7674,23.1873,-203.8948,-57.2365,-299.8341,246.8789,145.3175,150.8325,-3.6249,93.6969,-123.3531,434.9255,92.0340,-3.1286
416.6055,212.7338,333.2893,153.1637,310.8906,36.4887,60.5728,-183.4568,-13.6905,-262.8884,239.6713,124.4350,172.4441,37.2811,145.7578,-66.9379,379.7944,62.9930,11.5556
293.7574,137.9543,237.2573,122.5758,232.0930,34.0352,101.9996,-133.8360,74.3278,-162.8368,141.5809,109.7710,155.1455,67.4922,170.6371,2.1076,229.7572,-15.2674,-26.7680
126.0548,48.8233,63.8025,60.7507,73.0859,-1.5268,101.5551,-130.4981,112.6086,-83.2907,19.0428,54.7010,92.9897,30.4828,134.1433,31.3599,31.4659,-106.7832,-109.2828
-1.5312,-34.1539,-72.2831,-30.8498,-54.6576,-66.2949,82.9989,-115.0597,109.1459,-13.3852,-44.8974,-18.9874,31.9405,-9.8934,76.4367,25.3987,-98.0312,-164.2780,-85.9889
-72.1966,-79.0082,-114.8214,-89.1153,-117.0338,-100.0507,85.4746,-12.8970,141.4135,87.2421,-75.0925,-63.9509,-28.0695,-7.3401,36.9530,41.9739,-139.0267,-194.7398,54.6081
-123.7433,-112.8940,-130.4899,-112.5609,-162.7493,-101.9887,99.3306,100.2505,200.2113,183.5408,-122.4893,-91.0585,-81.8105,-8.0885,20.6438,86.1835,-184.4158,-219.1218,144.3625
-149.1508,-128.3814,-151.2093,-129.1257,-208.1186,-117.0794,72.2877,102.6807,172.0649,178.1352,-139.5194,-99.6483,-89.2458,-29.5049,2.6775,76.3581,-218.2527,-226.3307,99.8359
-106.9888,-79.4900,-113.5716,-102.6691,-204.9473,-123.2973,-19.6442,14.1541,25.0141,50.5647,-74.5631,-58.1478,-51.4621,-33.1748,-28.9653,-6.4185,-145.5618,-190.9781,13.2999
-19.1645,-15.8464,-20.4104,-36.3329,-116.6210,-83.3383,-114.1152,-69.8988,-100.1589,-93.8636,10.8884,-8.0744,0.6783,-31.9791,-34.1991,-77.8285,-17.0355,-115.4250,-23.8387
45.9471,-12.0942,41.4498,-4.3772,7.8817,-36.3105,-141.7973,-127.8808,-115.8308,-170.3191,43.9713,-11.3098,46.5307,-59.2855,-0.3484,-103.6177,45.5396,-38.3134,-36.7076
72.2110,-30.5858,55.8849,-1.3123,88.1975,-22.3162,-124.2381,-176.3598,-118.9682,-201.7154,52.4635,-20.1380,68.4935,-78.8633,22.0618,-116.5854,50.0527,6.0558,-69.9729
79.9569,-25.6045,60.7037,31.9488,123.6611,-17.9959,-93.8167,-190.2241,-139.5354,-209.1587,75.5582,23.2253,86.7603,-54.5874,39.9716,-102.7837,57.2646,22.7738,-98.8002
54.5261,-29.4453,42.4690,58.7757,142.0245,-6.3863,-32.9380,-153.8919,-71.5168,-169.9688,74.9337,54.5754,124.0602,-25.8725,92.8838,-49.6862,46.2745,27.9301,-122.3577
-7.0854,-53.9926,-5.5851,9.7211,105.8066,-19.7634,23.0307,-119.7717,38.2971,-116.4856,22.3709,-0.1439,115.5301,-45.0320,113.1573,-26.6915,-7.8931,8.1059,-196.3104
-47.0361,-73.4608,-42.2797,-83.1971,8.0109,-77.2284,2.9237,-135.9777,35.3140,-99.7891,-36.4536,-90.7378,16.6680,-102.9831,43.1351,-65.4231,-57.5995,-45.1791,-277.8676
-42.5441,-83.6367,-69.3960,-119.2377,-72.2405,-122.0548,-53.9178,-151.8286,-26.2266,-71.2653,-73.7114,-107.8002,-83.5472,-123.5523,-32.2609,-79.6759,-58.3754,-84.2070,-238.6461
-47.9540,-71.7914,-114.4374,-45.7379,-100.3062,-78.5947,-56.2295,-81.0017,-5.8013,23.2798,-111.8569,-22.3749,-114.5256,-49.0353,-56.2375,-21.6062,-25.9055,-53.7114,-78.2476
-73.9040,-25.3362,-134.9757,62.0591,-104.1465,14.5537,-20.8254,46.5369,40.5956,101.5981,-133.6206,64.2550,-115.6769,35.8684,-80.1953,15.8271,2.7050,24.7367,75.0389
-62.8770,13.7615,-85.3606,69.5325,-80.3065,32.4581,-24.1712,99.3528,1.2210,58.0080,-93.2297,36.2352,-105.6725,-5.8533,-102.8661,-51.4032,14.3754,81.4950,135.1183
-0.6446,18.5619,0.6640,-15.9235,-25.5940,-34.7625,-65.1616,31.2881,-85.0376,-66.9159,-5.8989,-61.1081,-58.2174,-119.2557,-76.5182,-156.5246,40.0347,99.1358,108.6728
75.2526,34.0551,83.3508,-41.9238,45.8814,-57.5821,-67.6130,-52.1100,-116.9064,-142.8705,76.7668,-71.3378,13.4339,-122.1349,-24.5393,-169.5760,122.3712,125.4557,75.7922
130.1728,88.7372,152.9192,46.1753,148.7650,28.1215,6.3209,-46.8137,-62.0412,-111.5419,122.5460,37.9283,71.6435,-0.3547,14.4108,-64.3471,231.6204,185.3114,101.0527
130.3307,149.3705,183.7204,147.3870,246.2014,145.1286,82.1936,18.7481,13.2424,-32.9340,114.4827,142.2878,83.3419,106.2688,31.8103,59.1509,275.0442,224.9032,107.3783
82.5175,173.7933,170.2462,179.0469,241.7634,196.9024,67.8754,56.2990,12.4555,18.7418,78.4172,151.6062,40.8587,139.2308,11.3419,109.8769,223.0055,181.9318,13.9320
45.8680,131.2033,147.4189,134.6179,154.1841,156.2905,-1.1917,53.8131,-46.7914,59.1501,72.0568,93.2080,4.2951,135.5708,-21.6437,113.3557,128.0016,79.9915,-80.5600
24.7641,25.8169,114.9693,40.3846,79.7835,67.1922,-36.8412,56.6781,-66.7241,121.2361,84.5801,29.9294,15.0156,115.2668,-11.7229,132.3216,20.0897,-16.9880,-98.5191
-27.9930,-71.7603,43.4835,-46.1412,-1.0041,0.7762,-50.6816,69.6524,-48.8516,154.1528,53.1865,-14.6205,7.5582,82.5639,3.9552,141.7874,-99.7951,-94.3104,-109.2518
-93.9319,-99.2334,-55.0556,-84.6070,-127.3274,-15.6972,-71.8177,83.6211,-38.5670,130.9385,-19.3450,-53.0167,-55.1104,49.8721,-44.0296,95.5589,-196.4728,-141.6100,-88.6555
-127.3511,-71.5286,-139.3274,-83.7032,-210.6787,-3.3162,-50.3609,123.7933,-0.5319,123.7794,-75.5334,-71.8990,-103.5548,29.4734,-108.5878,44.5261,-220.5743,-114.5691,40.0850
-132.3974,-14.9376,-162.0492,-34.5355,-185.9052,26.9045,10.7372,174.8224,49.3542,146.2850,-78.8007,-23.0166,-108.6916,40.9729,-114.5820,55.0935,-159.9165,-25.9296,150.8189
-110.8422,55.9069,-96.5503,57.0948,-113.3462,71.6630,23.8532,182.6852,16.6751,130.6673,-33.5386,68.5994,-107.2173,83.5249,-90.4639,97.1704,-67.0333,50.4423,132.4730
-73.1546,74.7136,-14.9008,89.3521,-53.7269,104.1288,-3.9167,173.0740,-53.5794,104.7645,2.2267,91.9942,-89.0812,109.8354,-80.9391,116.3408,-43.3229,89.9804,112.7375
-78.9197,-1.9723,-27.0296,2.8787,-25.1855,99.9095,9.9892,194.1282,-36.2562,128.5408,-24.8792,21.2735,-45.2937,87.0953,-65.5538,109.1157,-117.0766,104.7173,152.1845
-127.6455,-81.4912,-100.8823,-90.2219,-36.0080,67.0152,43.2025,195.7152,24.8675,138.3721,-66.8491,-44.4833,-23.5365,42.5508,-32.4626,85.1589,-182.4252,89.6809,137.1159
-141.2251,-66.7532,-120.2012,-85.8180,-48.7495,38.7123,39.3805,152.2997,31.5985,100.6273,-59.3879,-53.2286,-25.0311,16.1319,-7.8103,61.3023,-172.6287,71.0631,79.1916
-127.6902,-23.5154,-99.1902,-45.5774,-34.5476,39.7582,40.1867,144.0600,24.5400,109.0419,-50.3432,-51.0932,-9.9093,15.7419,-2.8264,64.7896,-170.4761,77.9898,68.7620
-163.7119,-47.9427,-131.6136,-51.7011,-51.4024,53.1013,64.5062,188.1232,43.6048,184.3538,-96.6327,-64.1055,-10.2438,29.6470,-12.5892,87.1564,-229.5383,82.4570,61.0591
-223.2101,-87.3085,-186.1385,-67.2989,-115.9939,65.7625,63.3907,226.4337,58.4900,255.9504,-147.3622,-62.1210,-56.1809,59.4969,-25.6849,116.5497,-259.5007,94.9984,39.4558
-224.0629,-54.5279,-160.8073,-28.8838,-132.6587,114.9325,63.8730,272.4138,91.4396,317.4153,-144.4856,-16.9651,-80.2518,116.7397,-15.8539,172.5903,-196.4806,157.3792,71.8615
-178.7422,12.0921,-89.9114,35.6939,-93.0506,177.6602,89.1186,307.5428,125.7321,331.9583,-121.5261,54.2764,-54.8860,157.7594,0.7794,203.7324,-126.2034,172.8706,82.2338
-146.7487,32.7072,-101.1882,42.3354,-122.7300,126.3976,28.2857,204.7628,39.4601,189.8330,-142.4410,77.4683,-65.8613,93.2997,-45.6656,107.2626,-143.6183,28.1518,-34.6123
-130.6991,2.0335,-188.1636,-31.0123,-226.3265,-45.9167,-133.2905,-14.1240,-137.5643,-41.3904,-205.2550,4.9516,-133.0319,-48.8568,-144.4742,-50.9963,-201.7233,-144.1823,-160.7898
-114.8248,-41.5875,-219.4184,-102.7615,-258.0346,-146.6565,-209.1588,-133.2894,-211.1407,-140.0170,-234.1999,-79.7840,-155.4773,-98.4728,-186.6020,-80.2270,-199.4214,-149.2522,-171.1574
-113.6410,-50.9180,-170.9344,-91.9225,-195.4524,-84.6265,-152.0476,-88.6814,-170.4700,-79.2705,-190.8919,-68.5704,-105.7465,-3.6490,-153.3802,18.9188,-149.9524,-46.6103,-151.9874
-129.4166,5.0243,-143.9697,-28.8441,-167.0034,-4.4490,-129.2460,-27.5766,-162.4910,-19.5441,-153.6810,-5.0229,-78.5933,66.3960,-140.3400,63.6069,-138.0426,-5.9103,-180.2720
-141.0561,68.5385,-170.8055,-5.0448,-213.7575,-18.1226,-179.8754,-18.9208,-185.4236,-11.7815,-193.5760,3.3557,-119.3268,3.8521,-170.0165,5.0090,-168.8669,-39.2591,-197.0478
-154.3200,53.1573,-202.1224,-40.3773,-262.8038,-60.6914,-195.3394,-8.7809,-165.4774,5.5555,-252.8622,-36.3779,-173.2334,-72.9271,-180.6020,-36.5536,-192.6455,-58.6721,-174.1076
-190.7529,0.9601,-225.1317,-63.3805,-278.9029,-49.9076,-169.0130,24.7759,-139.0578,42.7391,-260.2690,-53.6992,-196.8083,-44.3060,-165.9028,-0.2155,-201.0148,-23.9814,-144.0125
-234.3340,1.9425,-246.7344,-24.6505,-274.9518,11.8522,-155.3026,69.6823,-138.3640,67.9334,-244.5737,-29.8789,-202.2454,36.1204,-165.9691,57.3544,-203.7582,33.2183,-120.3634
-250.9947,12.3033,-257.6766,27.3174,-262.6123,71.1252,-153.0842,101.2614,-136.0104,56.5763,-244.8770,17.8458,-212.2667,67.0737,-187.5715,67.2811,-205.3930,42.5562,-120.0743
-233.1104,-30.6301,-265.2609,26.9513,-268.4393,67.6965,-166.6727,68.2318,-135.7278,0.5410,-241.8169,55.9016,-228.0836,33.9895,-214.0427,13.6501,-220.3070,-11.6535,-139.9932
-191.6637,-49.4683,-263.5952,-3.1431,-297.3252,9.2830,-191.2051,-4.3113,-137.5606,-45.3713,-218.6510,43.9497,-231.9838,-15.0064,-227.5918,-46.3260,-230.8494,-42.7715,-127.9100
-155.7346,13.5027,-230.2958,-4.6102,-298.4192,-23.0238,-182.6950,-4.5599,-129.4156,-8.7515,-191.2074,2.8093,-220.2858,-34.3961,-223.9378,-38.6053,-206.7171,-2.0055,-90.2687
-159.4637,72.2353,-201.6229,15.0585,-258.3990,-5.7528,-160.2739,70.8923,-148.0856,75.0711,-178.4722,-10.4432,-221.5316,-22.7718,-224.5271,17.7647,-184.8821,34.1112,-92.0533
-180.3579,57.3696,-216.4581,10.1851,-232.6664,-0.6403,-166.4693,108.8965,-174.0242,118.2636,-181.9403,-16.1962,-242.9377,-17.5255,-222.5574,48.4138,-199.1286,10.9154,-105.1338
-164.9569,-0.7565,-222.4617,-30.4317,-228.3323,-23.1892,-150.7018,93.7618,-116.5218,125.4673,-180.2683,-60.3925,-241.6142,-31.3485,-181.2039,51.9402,-200.0289,-18.0584,-66.7474
-126.3573,-49.1292,-181.9470,-70.5393,-201.2985,-25.5217,-102.7847,92.1654,-37.5270,136.9481,-161.2258,-87.0733,-207.2198,-34.6102,-139.1854,57.6346,-159.9103,-5.6148,-46.0962
-110.1130,-26.2983,-145.7242,-52.0347,-166.8170,-0.3205,-120.9220,83.9672,-82.5394,125.2663,-149.4454,-33.3698,-192.8387,-18.2389,-164.7411,39.2143,-114.7246,34.4776,-116.3464
-108.2058,77.7654,-133.0110,25.7880,-156.1902,22.2635,-188.6019,39.8878,-173.2311,85.5475,-159.5940,31.0055,-207.8150,-2.3157,-199.6204,4.6591,-73.4192,85.1581,-177.2923
-101.8990,146.4629,-111.9104,74.7763,-135.8983,45.0728,-178.6556,35.9640,-150.8649,91.3971,-168.7531,27.3669,-198.3099,19.1805,-158.9366,27.9564,-39.0723,131.5002,-131.0808
-96.5253,113.8699,-90.4124,63.2637,-94.8892,86.5341,-120.1673,101.4239,-88.8444,150.2060,-159.6485,13.6258,-165.1890,59.5044,-106.4428,93.5696,-29.0075,152.1352,-67.2997
-70.7695,98.6922,-65.1096,82.7348,-76.9547,132.1467,-125.8175,135.6833,-100.7739,167.2088,-120.5887,62.5507,-151.5769,92.5681,-114.0795,104.6066,8.1195,154.6471,-79.3421
-6.2617,169.2741,9.9748,159.9634,-70.0285,153.7220,-146.6197,98.2337,-105.5860,123.0215,-39.4280,131.2188,-131.1617,101.9420,-115.0555,78.8355,106.7154,156.0393,-98.3264
56.2452,216.5072,100.5310,196.1031,-33.6467,149.1574,-103.2317,68.3089,-51.6589,98.4732,34.2155,155.1395,-75.8947,113.9505,-68.6367,103.0837,163.0125,137.5001,-62.7277
84.3944,187.7055,112.1230,160.4004,-1.7823,133.9208,-63.3889,77.1829,-37.2791,108.9820,31.0075,139.0547,-49.0066,131.2438,-43.2182,139.9866,110.8108,94.6063,-31.3304
96.5495,154.8322,54.9489,116.2653,-1.3291,116.6441,-72.0205,90.9908,-74.9231,109.6529,-7.1391,104.2959,-70.3969,126.0654,-47.5471,120.1610,37.0073,77.6018,-34.4259
98.6825,129.9729,10.8343,75.3954,6.7905,105.7307,-58.6328,109.9439,-68.2183,112.5062,3.5825,60.8544,-48.3034,106.5298,-20.1742,97.5694,-12.8570,101.7569,-35.1582
91.2047,80.5334,-4.7682,32.3007,15.5456,109.7223,-13.8749,125.5646,-16.3020,135.9773,38.1445,35.7892,34.2190,93.4436,24.9326,117.8177,-69.7681,107.8333,-39.7089
102.9367,44.5559,-13.6930,30.3959,-15.9435,114.5204,0.3935,110.8333,23.6159,153.7644,38.5993,47.1273,74.4878,82.4468,42.0023,130.3814,-93.7112,76.3294,-52.5036
118.4382,48.5687,-21.4805,58.0195,-54.8821,101.0323,-0.6309,111.0950,52.9863,169.8048,15.0008,71.1099,40.8995,90.7744,40.8052,131.0760,-75.8431,51.3608,-32.6312
89.4362,52.5345,-54.5603,40.3273,-78.6130,78.6332,11.8961,155.4463,51.3032,184.3163,-22.6552,71.9257,-6.7977,129.0859,17.1751,151.1073,-120.5415,21.1030,-12.4208
61.2544,37.5232,-122.8760,-27.2072,-132.1703,53.0132,-13.2792,148.8184,-21.7880,135.6577,-66.7908,38.9879,-44.1232,133.6977,-39.7625,133.4347,-223.5995,-53.3783,-48.8974
96.4174,8.5271,-162.5277,-82.3408,-187.9333,8.8634,-77.9368,54.7254,-95.7763,37.2851,-65.0935,0.6525,-56.5984,75.9908,-62.3291,55.2851,-247.2040,-112.0864,-70.2600
119.1741,-35.8828,-132.9791,-90.2186,-170.8880,-36.0696,-98.9168,-10.0114,-85.6427,-4.8722,-25.0608,0.9172,-16.6210,35.6902,-14.9677,13.3754,-186.6292,-97.3922,-35.4538
61.0421,-58.1914,-100.0847,-61.6576,-136.1301,-53.4077,-83.9952,-16.0021,-59.4456,-7.0857,-34.8669,26.4815,23.5816,27.0040,2.8484,17.6026,-162.4779,-91.4035,-66.9622
11.7586,-34.2680,-130.3934,-48.3644,-170.4193,-85.7694,-114.9299,-71.0306,-96.4298,-69.3194,-95.3673,2.9883,-10.2518,-41.7672,-59.9605,-37.8324,-198.8460,-160.6779,-177.2870
28.6212,-27.5602,-191.1226,-96.5480,-214.0384,-176.5510,-159.0085,-167.3883,-127.0979,-140.1637,-127.2665,-80.8196,-74.0852,-150.0833,-98.1755,-133.5124,-236.0286,-217.9387,-196.0339
32.8964,-61.0549,-214.3386,-157.6570,-195.6590,-253.8201,-139.5303,-182.7847,-97.3047,-112.9384,-123.4707,-128.0223,-91.7040,-172.1279,-63.7961,-148.9809,-245.8282,-184.2896,-119.7742
4.1317,-45.5545,-187.2800,-141.0033,-171.4922,-221.2083,-116.5140,-102.4050,-95.5811,-32.1989,-111.2644,-72.0673,-87.9494,-102.1523,-58.1925,-82.0785,-229.9575,-107.0562,-116.5866
2.3708,43.1445,-150.3406,-49.9326,-192.7209,-104.3360,-173.1785,-10.4131,-176.6995,17.3346,-85.7088,30.9992,-110.5406,-24.7101,-120.3128,-8.2363,-206.0522,-47.0731,-178.5051
15.5679,114.3593,-141.1115,41.4513,-218.5310,-3.5738,-241.9480,38.6711,-244.4201,37.6012,-72.2749,90.9687,-136.3802,36.6975,-154.9402,43.9138,-186.0673,-13.7214,-172.1116
23.2404,129.7978,-148.9666,80.7699,-211.0568,27.6817,-220.1966,32.6122,-204.5464,38.0378,-82.2763,81.5479,-121.6540,65.6698,-115.3169,51.7721,-150.3467,-9.1191,-105.1174
77.3531,116.9210,-133.4658,48.8401,-180.6001,5.2520,-137.6033,2.1064,-106.5857,18.2170,-48.4084,34.3076,-70.8266,28.9328,-66.6054,6.4467,-105.6164,-25.5277,-57.1171
171.8424,77.6502,-90.0694,-21.6403,-150.8338,-26.1938,-92.7971,-3.6816,-69.4922,3.1008,34.6795,-2.1471,-41.2243,-22.7364,-65.0925,-34.3194,-91.1960,-37.2334,-44.8178
224.6535,37.7701,-55.6020,-52.0537,-140.6385,-35.3259,-113.9796,1.6921,-115.9305,-7.1301,67.5207,6.3222,-71.1361,-16.6287,-95.8949,-32.2047,-93.7912,-29.4356,-68.5181
221.7301,49.0406,-48.6775,-19.0985,-145.7901,-18.2297,-147.5528,-14.6180,-150.6388,-20.0364,32.2089,51.0520,-104.6937,22.6038,-110.5863,-15.3099,-87.0875,-3.1731,-110.2476
198.7710,76.6352,-62.8958,19.5187,-143.7800,15.8787,-145.7571,-22.7425,-124.9178,-11.1324,1.4976,78.2105,-76.6834,41.7165,-83.2303,-1.1081,-99.8991,21.5814,-123.8774
158.1840,53.5481,-92.5512,20.8683,-127.8146,37.8271,-118.3466,-9.4603,-98.6894,-1.4027,-13.0744,43.6354,-30.0843,29.9025,-43.9756,3.3636,-120.4425,18.9510,-107.1379
126.3880,16.3737,-102.1956,-1.0243,-96.3726,15.1951,-86.2532,-11.1046,-83.0624,-34.2534,-16.3246,-14.4725,-17.5410,-4.9615,-32.4718,-17.0152,-78.4153,12.0731,-75.1075
157.5046,35.0131,-40.3765,-2.4384,-41.6082,-15.7986,-46.5474,-10.0288,-25.2618,-52.1800,31.0424,-9.4793,-4.6552,-19.6201,-33.8105,-27.6634,14.8290,48.0431,-21.4175
232.9971,102.0970,60.9395,48.7610,18.0982,15.9235,-17.6316,29.8958,17.8195,6.9749,98.9475,60.2499,12.6498,24.7695,-25.4623,8.8899,83.5226,112.8411,8.6755
283.5374,176.4455,107.0047,114.4374,52.7202,81.8704,-31.9670,57.1770,-42.7263,64.4103,110.2904,101.9885,-17.2881,64.9206,-32.7231,42.7979,111.4198,156.0729,-36.4456
290.0892,219.5567,83.6028,119.3342,60.3433,88.6590,-71.1473,15.6669,-127.9185,28.3358,88.2378,77.2894,-65.4610,29.4736,-67.6242,21.7422,113.6773,147.2987,-103.4366
281.6663,194.8318,55.7258,69.4456,42.8207,36.6362,-98.8899,-59.9803,-135.0991,-62.5305,86.7883,39.3121,-69.1094,-24.0856,-91.8609,-27.5247,95.6448,71.1029,-130.1784
276.5400,132.8518,51.1354,32.7506,-0.8994,0.5776,-114.7720,-109.3534,-118.1455,-118.3794,80.4520,25.0243,-57.2653,-25.0074,-83.2638,-66.3897,87.8617,-23.5134,-137.8900
266.1564,122.7633,62.6432,29.1206,-40.4463,7.5762,-116.1413,-104.7758,-130.2676,-100.0139,66.0508,34.8682,-60.1916,-4.3630,-62.3420,-66.4548,102.6385,-24.7184,-139.2723
243.9953,175.4282,90.9619,43.4301,-46.1174,39.1697,-96.9370,-54.8024,-130.4708,-37.8143,90.2988,68.7107,-38.7170,8.1588,-48.9614,-5.6920,106.7882,66.6883,-118.3146
230.6713,202.8434,112.2343,67.2525,-22.1223,72.9806,-70.5892,-2.7488,-103.3950,5.0997,120.4645,95.9297,10.1076,33.0343,-38.2371,60.9553,101.1655,122.0639,-79.2862
238.8108,164.8768,104.9922,80.9238,32.4084,86.1592,-16.1016,33.3793,-46.6994,27.6074,96.1611,87.8245,47.0580,65.1695,-6.8178,60.5091,109.7982,117.7843,-13.8439
240.4660,128.1583,100.8519,84.7569,104.5963,85.4386,77.4003,80.2235,43.5407,76.6166,62.2260,83.3427,71.7598,81.8143,45.9587,38.2338,105.1592,141.4494,57.8679
215.6503,145.5718,107.0128,101.0523,127.5528,93.5730,116.6749,121.7286,78.9185,120.2008,63.1642,98.9111,85.0242,79.1400,74.4970,59.0307,60.8396,175.4753,55.2763
175.7632,159.9301,75.3448,95.9750,79.1471,84.9490,65.7420,109.7245,27.5497,99.5054,44.5645,69.3216,70.6860,51.9711,67.3422,72.5389,4.0951,132.7769,1.1441
124.7585,99.5571,16.3131,30.7799,39.1673,32.0743,57.9475,62.4729,38.7202,61.6231,-4.4579,-2.9262,50.9385,17.0142,76.5236,40.1535,-34.9262,36.1238,19.7670
81.3415,21.7868,-4.6144,-25.7785,47.9937,-9.8118,123.8883,33.1699,129.3020,67.1139,-4.4521,-8.5824,46.0651,25.7459,94.5180,29.6690,-37.2800,-20.0732,86.1626
90.0011,37.5489,15.8244,7.5966,52.2707,22.7402,111.0268,39.2808,104.0198,85.0581,50.5967,77.0131,40.5938,85.2625,62.9612,74.9945,6.5141,5.5347,78.3956
138.9722,123.4783,49.9852,94.0115,44.4415,92.7413,20.6133,68.0934,-14.3154,78.9376,89.2334,149.6591,46.3728,133.1950,29.6782,108.3893,62.6454,70.1436,33.6710
182.5567,167.8747,105.4008,148.7062,76.5832,116.2429,7.7067,63.9118,-9.6115,41.8041,113.5008,144.4271,71.0513,117.3597,65.6278,73.0395,102.9468,80.7748,43.9641
243.6432,157.7142,163.0890,136.0520,130.1946,75.6651,47.2957,-20.8450,69.7737,-30.8900,162.1550,96.7961,59.9167,48.8106,93.0900,-4.0345,152.3598,10.1779,68.6192
333.1645,156.9086,185.5102,81.5113,143.4752,25.7958,29.1756,-107.0515,53.2758,-84.7434,196.3225,63.3315,1.4777,-9.2738,41.9424,-50.4248,206.3321,-48.1676,62.6880
361.3013,171.8464,195.4935,59.4232,129.5868,9.9213,8.8823,-92.8634,15.5219,-59.0888,173.8562,65.5523,-30.3426,-5.5054,-3.1447,-35.9842,214.6782,-35.9122,56.1537
284.3658,170.5575,205.7770,101.1412,132.1245,12.2324,32.6794,-36.5535,38.1038,-10.9426,129.9360,80.7109,-12.7837,27.1703,5.2640,-10.8353,178.1683,-10.7116,44.7744
186.1252,154.1322,162.9492,128.2613,131.9939,6.2234,22.1446,-28.8430,25.1282,-5.9191,98.2988,77.5483,7.8649,19.0000,5.7168,-19.3853,131.0131,-5.2633,13.0588
133.4264,139.6590,77.6801,85.7454,101.4405,-5.1807,-8.4248,-39.5195,-7.4376,-4.8759,73.4503,59.4621,21.6144,-29.9115,8.9706,-44.6189,88.7544,7.3432,-3.3273
123.2412,137.3740,55.2882,39.7297,84.1175,-21.0008,31.8199,-42.7461,47.8649,4.2765,69.7062,41.8750,43.2714,-69.1910,63.2939,-75.6110,97.7277,26.5144,8.6773
150.1671,147.3527,124.9541,50.2609,135.0191,-34.1399,98.1768,-60.1072,106.6075,-18.2076,103.6627,32.8423,68.1244,-70.2872,109.5595,-102.0851,179.7721,54.7536,21.6326
184.7092,148.1415,189.7755,87.9149,210.8949,-9.6709,95.9954,-56.0198,63.1843,-31.9754,142.4577,49.3123,87.8167,-34.8168,92.7121,-71.6597,225.0689,91.5957,21.0974
176.9736,117.0168,171.0605,100.5824,204.3836,31.4547,42.4775,-22.3265,13.4493,-1.0030,149.3630,71.6734,79.1382,-5.4083,57.1695,-5.4536,141.9992,57.4920,0.7558
137.1423,45.6033,95.4797,44.6200,97.8769,0.8166,-5.4777,-40.7224,27.4138,-2.9547,131.3217,29.1614,32.8381,-35.9864,34.2369,-17.8459,15.4294,-81.4638,-27.8555
99.2796,-67.4834,29.1354,-84.9514,-12.5797,-96.1825,-35.0433,-109.2200,19.0141,-68.8079,101.3542,-77.6080,3.8807,-94.2274,12.4205,-100.3997,-65.7240,-202.8168,-37.2450
53.0796,-172.6014,-17.6294,-193.5684,-68.8542,-146.4321,-59.1724,-126.9500,-45.2648,-107.1734,51.5352,-140.5990,16.4095,-99.6357,-1.6788,-121.8027,-134.8134,-213.3945,-36.5242
2.3120,-171.6493,-66.2003,-171.2475,-89.0736,-108.3173,-72.5409,-72.7874,-76.3707,-67.5587,-9.4860,-94.0538,13.7333,-54.4180,1.4308,-70.9489,-174.1607,-149.5593,-19.8208
-16.2040,-60.7263,-74.9835,-40.0444,-51.7380,-26.7926,-14.0425,12.7733,-3.4512,14.9055,-32.9933,8.9299,0.8167,-4.3227,33.6084,-26.5435,-99.8635,-41.4053,66.0065
-4.8769,29.3125,-6.7770,71.2034,57.4076,59.1898,123.1309,104.6837,127.7237,98.1291,9.6219,71.1140,28.3757,37.9158,89.4811,16.3922,5.7079,65.0308,167.8930
6.4226,11.7930,33.8154,61.1776,113.2808,81.7738,179.8010,137.9949,180.1685,135.8388,54.4468,35.3278,29.2357,36.6269,84.6545,56.8049,-40.3224,46.1896,149.7370
6.0327,-64.3007,-57.6145,-58.9454,11.4650,-15.9100,73.5368,74.9616,107.3619,109.0350,9.7428,-62.8926,-57.7576,-39.8214,-16.9428,28.1430,-202.3897,-104.6400,49.9655
-28.5156,-134.0813,-180.6057,-182.2536,-126.4701,-153.6711,-10.0686,-3.6587,49.3875,63.7413,-106.2941,-138.4737,-126.0179,-131.8206,-80.7963,-49.3715,-279.0282,-227.6925,14.2210
-119.0141,-193.3040,-203.7188,-229.7740,-150.9098,-225.2124,38.7360,-50.3689,82.5840,24.1764,-192.1821,-176.7930,-107.3891,-182.3286,-32.3074,-93.6696,-237.4657,-255.7635,17.2818
-223.1622,-244.1362,-181.5715,-221.5132,-119.7906,-244.4181,48.2213,-110.2652,71.9144,-28.1217,-203.5424,-202.8210,-90.5374,-205.6756,2.8509,-106.7071,-206.5916,-253.0628,-28.8191
-264.1123,-255.4440,-188.2611,-183.9160,-126.6452,-216.1418,-54.0991,-142.2104,-37.9423,-55.7662,-159.5023,-172.0359,-100.8566,-176.7233,-34.7078,-95.0137,-212.1097,-215.3988,-65.0119
-217.0163,-192.5462,-165.3172,-103.2052,-124.4962,-85.9454,-104.8572,-60.7961,-100.5097,-11.2322,-80.3234,-61.4569,-79.7312,-57.3092,-58.2553,-16.4982,-175.6343,-102.5962,-33.7003
-124.6971,-76.9339,-79.2268,-3.3545,-69.3635,82.1147,-61.8251,57.1382,-61.6879,52.7407,-9.3794,40.1179,-64.6626,68.3570,-63.4385,75.1917,-88.9157,19.5642,5.9886
-49.3245,5.3059,2.5130,61.1098,-4.3308,146.8037,-33.1948,81.3047,-20.1295,64.4452,6.5068,68.4210,-92.2375,98.6452,-86.6729,74.8197,-6.1563,59.7925,26.1542
-23.4442,1.2503,37.8123,73.8849,45.9615,106.5094,-10.1081,37.7777,5.5628,36.1454,-9.4411,50.0173,-82.1716,63.5097,-63.1727,18.6621,42.0537,26.6838,55.7602
-37.3501,-36.6951,42.8244,52.1016,80.0431,57.5685,51.1182,15.9580,54.6844,9.6287,-13.7682,16.3831,-16.9296,31.4329,10.8035,2.9481,49.5851,-1.2892,79.8137
-57.9486,-31.6822,39.7476,45.4152,82.1107,44.1485,84.2940,25.3481,87.2383,8.3681,-12.3597,13.9727,9.4189,21.6569,35.2368,16.8812,40.5447,28.0802,85.2162
-49.5608,11.1071,42.3148,92.8518,74.7309,66.1801,69.6101,49.5512,73.8761,47.9023,-7.9497,74.3813,-13.8679,42.8047,18.8942,28.9914,47.8900,76.0344,105.0678
-6.8567,23.4580,33.5253,111.8058,82.0941,88.0657,65.9778,91.8939,49.7825,107.2757,10.0800,96.0007,-15.8862,72.5882,30.2614,65.0421,44.9819,61.6217,138.7544
27.3418,-24.2183,-2.8933,7.7081,65.4651,44.7312,59.0300,124.4574,24.1580,127.4019,16.2531,-6.7697,11.2016,53.2188,28.6235,99.9011,11.3096,-10.0329,143.3049
25.0404,-65.4490,-18.0504,-105.7416,23.8872,-46.3977,27.4587,94.5491,4.7441,80.4019,1.6074,-99.4141,35.2964,-14.2058,-9.0694,58.6633,19.8845,-56.5561,111.3966
20.3774,-19.6202,20.7716,-63.8365,24.9067,-87.9916,33.0252,4.8341,33.7502,2.1778,2.2799,-47.4736,42.1110,-67.5167,-11.0616,-36.0461,102.1375,-45.2329,75.8391
38.6815,75.5472,57.3443,65.9929,60.5933,-60.1425,71.2523,-70.3997,78.7985,-50.9780,17.2092,53.3949,19.6708,-76.6297,22.6265,-79.4363,160.9943,-5.4209,50.9126
59.8106,116.1839,67.3404,119.0749,61.5623,-26.0933,44.7778,-78.9570,47.1435,-57.6753,26.0500,79.9441,-14.9506,-56.2979,24.2859,-44.6729,145.4900,31.8150,17.1681
83.0841,97.5602,92.9551,78.1092,36.6360,-8.8261,-42.8515,-48.7448,-41.2578,-36.7919,55.1248,52.7053,-20.7545,-25.8529,1.3783,3.2506,115.3804,44.1363,-23.6523
114.1147,87.4262,117.2541,25.9753,30.5750,17.9168,-88.3534,-7.6721,-77.0964,0.3605,98.1602,29.3001,-0.6181,14.6347,-12.2845,36.0295,102.9907,51.5364,-24.1459
116.7856,103.5325,110.8359,44.4254,48.8529,72.8437,-65.3043,56.8113,-43.8789,53.7783,103.4022,58.7527,23.3040,80.3734,-24.2508,78.9273,115.1946,107.5999,21.1994
96.2423,141.0722,132.7185,154.1754,98.8002,133.6496,-25.4436,97.9269,-13.6452,73.5950,101.0839,159.3198,52.4572,133.2966,-24.5081,102.9386,179.5018,168.3280,38.1813
124.5134,189.2643,196.2008,232.6557,155.6840,124.6161,4.6401,26.7672,-10.4922,-2.6894,143.9529,222.6239,67.6321,84.8506,2.5222,41.4679,247.7062,112.9637,0.0995
192.5289,176.3171,211.5534,155.2999,147.3211,15.8559,23.5582,-109.0173,-2.9924,-123.6947,165.8231,142.7914,53.5546,-41.9820,33.6225,-65.0408,239.4250,-24.6356,-25.2560
197.2849,79.7690,174.6987,21.1739,98.7662,-77.9527,30.7084,-149.2615,18.5119,-158.7775,115.5459,20.4623,59.1563,-98.2797,56.6028,-93.8839,199.2617,-63.4400,-4.9922
124.6393,20.6808,179.5404,-6.4169,111.6651,-49.3730,36.7832,-57.7457,35.5677,-78.2491,86.6170,3.2164,107.4798,-37.8670,78.9766,-29.0035,202.1330,30.5593,28.5632
71.8264,63.0317,229.6820,43.3971,158.4280,24.8590,41.9087,38.6026,34.0884,12.5816,134.2934,55.8529,130.2753,27.3631,78.9358,27.2703,217.7039,98.4663,58.5827
80.8033,107.5376,253.0824,75.9087,142.2381,26.8409,24.7897,45.1096,11.3871,25.8947,167.6700,76.6880,87.1938,24.8303,35.4202,23.5203,220.2325,65.8924,66.6211
96.7799,108.3921,231.5061,96.7065,92.2082,-11.3259,-9.1526,-3.5614,-15.3906,-11.8615,129.7410,60.5307,27.0070,-10.4249,-21.2475,-3.3193,229.1332,28.9567,27.1449
76.5423,116.4076,179.2368,111.3365,68.1647,-11.4757,-15.9833,-36.8934,-8.9520,-35.2273,73.0518,38.3557,-3.5113,-34.7559,-32.4778,-23.2462,205.2358,39.5387,-15.8296
36.5726,94.8710,110.9053,86.0965,38.7388,7.9871,28.2923,-42.8768,45.2389,-36.0213,30.6458,13.9740,2.9432,-31.5810,28.5755,-27.2345,126.7987,33.3370,4.0212
9.7691,7.5388,70.0209,46.3812,6.5038,16.3651,99.9734,-33.6059,113.4480,-22.1016,-6.7094,3.2019,43.1321,4.9151,114.7448,4.3044,80.7047,11.0478,70.8019
8.3520,-26.7788,81.0968,51.7688,37.8854,55.2616,160.9956,19.9024,157.9643,43.2488,-16.8525,38.7245,95.8976,70.3881,154.2423,74.1149,112.9402,63.1179,137.6295
23.0874,51.0376,108.4358,103.4919,115.5883,140.0800,187.6568,126.1202,173.3017,151.9535,14.2473,110.1324,128.1165,150.8818,147.6482,149.4843,151.4613,160.1685,190.3255
38.0107,101.5748,115.9148,146.2452,156.0118,191.6689,175.9357,202.7619,162.6345,202.5844,39.0604,144.8319,124.1329,204.5589,130.3215,189.7655,146.0469,162.7355,212.6051
47.9636,57.3882,101.1043,132.0276,141.4038,157.9994,143.9409,194.1541,129.7672,166.2351,28.1114,105.9019,89.7069,187.6249,89.9381,178.9059,116.5465,83.1425,199.9859
59.5753,25.3672,73.7060,79.7318,105.9986,109.0889,119.1011,165.8367,100.9342,146.1380,22.3574,64.4244,52.3567,137.4900,36.1199,150.6858,76.6101,62.8644,179.3945
59.9459,32.2273,46.7799,45.1459,63.1625,113.6456,107.8611,164.9500,99.7671,176.3367,36.3607,73.6117,40.8429,131.0476,30.7934,160.2323,26.3459,94.9198,148.5012
17.2640,0.1292,24.6103,31.7551,14.7846,127.7692,93.7364,147.5005,111.4944,180.0442,22.8634,75.1921,47.1019,163.4056,69.6243,202.2808,-15.3787,75.4002,94.4790
-43.3163,-38.3014,11.4128,26.8489,-16.5677,115.8034,74.2730,119.3384,114.9700,158.6644,-8.1062,50.2913,54.8359,189.3143,94.2821,216.3820,-13.3404,49.1778,66.0748
-37.9986,-3.5518,34.1558,65.8981,0.2104,137.4302,72.7334,137.5059,116.5970,168.2455,10.6827,73.6112,71.0407,204.6582,104.6961,184.8997,44.6553,92.0855,102.3614
36.3979,44.6712,83.2132,126.6373,51.8800,194.5983,99.4071,162.0274,124.3268,160.1414,55.2438,123.6266,79.2516,185.3732,107.9057,137.5125,98.1833,109.8090,156.9393
77.1117,19.5064,83.7923,105.3831,74.1927,176.1198,131.8350,121.7745,133.2646,84.9579,52.9939,87.6815,56.0251,94.9793,79.8036,81.9376,78.9991,31.8725,182.8154
40.8483,-28.0804,29.0213,15.6119,50.4155,69.8110,148.5834,67.1178,143.0755,27.8350,39.5891,-12.5663,43.9845,-0.8054,58.6848,32.2894,37.8652,-18.0364,189.1036
-10.4082,-11.3623,19.8071,-3.7593,46.2109,16.8721,147.7574,75.0831,143.0393,52.4746,70.0193,-44.9800,75.4152,-6.2786,90.6209,35.6851,69.3527,38.3041,179.4543
-25.5148,55.2986,84.1040,69.0179,85.9969,61.7892,124.4352,101.6080,106.1017,74.3484,96.7349,20.1193,90.3230,39.3688,116.5172,72.0265,143.3425,76.7396,137.5118
13.1647,101.1076,127.9820,116.6669,109.9094,76.6094,77.0139,56.3180,42.0372,6.0951,98.7785,93.2665,63.7319,33.4506,89.2235,43.1710,165.9140,3.6396,69.2466
96.9886,88.9089,104.7775,86.3034,86.7195,4.2982,31.5135,-57.5477,-0.7170,-112.9233,120.4419,96.4759,65.3444,-21.7345,58.2898,-55.7396,123.1434,-92.1931,-0.8423
135.4792,40.6851,56.7299,31.9941,43.1277,-48.9969,5.9731,-145.6444,-16.0545,-180.3395,121.3099,41.3140,100.9111,-44.6461,43.6774,-103.4979,57.2953,-116.4022,-53.4710
55.6666,5.4152,12.9682,5.4358,-1.3511,-22.6481,-22.8470,-142.6560,-39.9071,-154.0872,47.9060,6.4841,92.9939,-8.2157,21.2894,-53.7432,8.3327,-105.9253,-84.7197
-50.6353,-6.8336,-18.3056,7.9411,-34.0239,4.4281,-67.8157,-101.7760,-69.7406,-105.8453,-19.5024,22.9986,42.7726,29.0894,12.7628,-3.1501,1.4359,-120.4238,-108.0850
-70.4877,-28.6477,-24.1600,16.3018,-41.1557,-20.9571,-99.8032,-112.1251,-84.5994,-127.3346,-20.8863,34.7006,15.2535,14.8907,24.7414,-17.3649,11.5554,-135.2013,-127.6046
-44.5476,-67.9173,-14.9769,17.2838,-30.9766,-49.8843,-99.9993,-153.4697,-98.4810,-185.8307,-14.8454,12.8829,12.2255,-23.9336,18.4625,-52.9167,-3.6919,-110.0980,-119.4023
-33.1256,-101.9247,-3.2441,6.1829,-9.0333,-55.3612,-75.9916,-148.2532,-99.2731,-182.4467,-5.8388,-17.2521,7.0835,-43.0802,3.5468,-73.9017,-26.6745,-71.5424,-71.3401
-3.7135,-114.7378,22.6556,-24.8651,27.1969,-68.9384,-31.2309,-109.4459,-46.0993,-129.0189,45.6056,-56.2876,11.2572,-58.7089,5.7224,-98.2281,-28.2686,-56.2905,-16.1573
45.1610,-86.9111,46.7046,-51.7493,49.2951,-86.0863,12.2945,-94.6390,10.8406,-107.5918,71.2774,-91.0543,27.5365,-87.3748,1.3548,-119.7805,-26.7193,-45.8865,2.6363
49.6915,-19.1713,24.6339,-34.7994,31.9548,-79.1098,9.4904,-93.1447,-18.8706,-114.8084,21.0578,-77.3084,31.3970,-97.9052,-6.2659,-109.3136,-31.5977,-19.9881,-26.2314
4.2197,23.7667,-29.1744,-7.9760,3.1159,-73.2171,-26.8218,-87.2772,-84.0070,-109.1987,-15.5033,-49.9434,25.8014,-93.1092,16.9912,-90.6001,-28.9020,-6.9815,-77.8689
-30.0522,-4.3665,-48.3042,-30.1930,-6.9452,-94.3673,-32.2261,-112.0571,-77.5832,-113.9921,12.4198,-73.6583,42.9325,-115.4673,49.3746,-111.8111,-27.4600,-31.2660,-114.5367
-25.2816,-57.5723,-24.9183,-72.0891,-12.2490,-112.8907,-16.1958,-159.9846,-42.9020,-143.0541,34.6139,-113.3370,76.0501,-146.5627,53.1866,-152.8360,-44.1695,-69.8751,-120.0836
-6.1071,-89.5375,-13.9352,-93.6380,-28.5528,-109.1561,-37.2142,-159.4702,-54.4461,-144.7959,18.4186,-127.8335,71.0440,-136.0923,32.0343,-151.0123,-74.5499,-86.6680,-99.0922
7.2888,-100.3107,-22.3516,-112.4030,-38.6219,-94.9647,-53.3513,-98.8666,-42.8304,-97.6757,5.3974,-137.3687,20.4146,-95.9010,-5.0109,-101.2950,-91.4595,-66.7849,-44.5250
13.3803,-75.0419,-8.7137,-105.1013,-19.1006,-62.8671,11.5068,-42.4428,35.1796,-45.8869,5.9944,-119.1483,-9.1335,-58.2631,-36.0963,-51.8235,-63.1365,-22.0755,38.2517
0.2333,-26.5584,14.1072,-46.6960,21.8119,-20.8415,100.4855,-18.6142,85.8465,-16.9502,0.7866,-59.6662,12.3711,-23.7204,-21.5807,-22.5421,-14.4565,12.0317,95.7628
-28.2752,-20.8207,4.2522,-18.2559,44.0858,-17.8710,117.4808,-6.4957,82.4395,0.7687,-2.3620,-39.4234,40.1011,-1.8633,21.3602,-1.6770,-11.8366,4.3722,90.4447
-22.4840,-42.7038,-12.2647,-54.0667,22.3248,-49.3877,82.6244,6.2887,86.8488,20.5989,5.5492,-70.4312,44.7553,-1.4308,33.0870,9.5292,-40.3962,-30.7117,60.3946
22.9482,-6.0759,5.1494,-49.3592,-15.6759,-42.1740,52.0164,40.8608,70.9098,60.0534,3.1672,-55.7378,30.4675,12.1266,14.2748,17.7884,-27.8193,-36.1087,56.5350
30.4935,67.3964,29.5369,22.5956,-22.2231,18.4755,31.6863,112.6153,10.4644,117.9426,-15.3580,3.6997,2.2647,53.0611,10.3725,47.5360,11.6680,15.7307,69.7640
-7.5642,90.2097,32.1373,61.6113,8.0644,60.2922,26.6414,150.3872,-9.4622,130.9851,-13.1195,19.3125,-5.5042,63.2923,24.7099,73.0246,19.8694,62.2086,54.0565
-6.0145,63.4430,31.9739,40.2942,39.6922,34.5299,37.4067,77.7789,20.9495,57.9497,21.5630,-18.5011,35.9679,4.9812,31.8590,35.4336,9.7638,31.7052,1.6989
21.5549,21.0917,33.6502,-0.6048,49.4703,-27.4019,42.9579,-23.7196,30.8316,-18.1487,43.2610,-73.8754,78.0366,-63.7374,34.7826,-34.6460,7.3313,-21.4000,-29.2017
-1.5619,-26.3130,21.9579,-46.6557,46.0785,-57.3267,50.8418,-26.5158,47.0728,-6.9274,37.5957,-112.1593,73.4936,-68.7078,46.5995,-43.9130,-3.8514,9.7123,-5.3704
-20.4184,-34.5777,13.9796,-51.3206,43.5815,-21.7151,68.8110,28.1654,75.7490,40.6735,40.8701,-74.9989,55.2287,-15.1540,51.2923,6.2925,-21.6568,92.7835,13.5629
15.2223,6.9715,21.3354,14.8990,41.1025,41.3945,60.7245,38.7802,29.4345,44.5584,31.0293,15.0984,45.1194,41.6180,35.3147,39.0146,-21.8679,115.2149,-4.2014
-5.1721,28.9919,7.2420,64.2988,26.0240,75.0165,28.0762,34.7455,-30.5622,34.6061,-42.6451,42.0086,14.5736,66.1391,22.8845,41.8201,-2.7237,79.9475,7.5433
-77.2379,26.4307,-26.4804,38.8923,-1.6656,70.6026,27.8579,60.3014,31.0322,47.0696,-96.4085,-7.8465,-17.4444,51.2911,29.3111,47.5260,28.3935,48.9213,52.2065
24.6426,61.6340,14.0441,8.2973,-6.3584,42.5455,59.0303,56.4538,108.5035,43.9177,7.1459,-40.9611,9.7524,13.8648,30.6745,53.5606,59.9200,6.3064,35.5337
311.7377,109.0753,154.2012,11.4127,28.8321,-4.0928,53.5550,1.3629,46.6104,18.4207,192.9617,-30.5244,76.0427,-6.7742,12.9834,54.4325,60.5188,-58.7916,-44.9912
453.9236,111.2342,222.6401,14.6344,24.0507,-48.9226,-21.4467,-40.4890,-61.4284,8.7485,225.9785,-2.3014,77.3470,-1.3432,-19.3671,54.7609,7.0188,-101.6973,-102.5192
290.0292,89.3275,74.3643,17.0222,-97.4625,-71.5282,-122.7764,-53.4401,-101.1830,3.9731,57.7262,33.6987,-26.2255,-8.6549,-67.4593,34.1774,-82.2455,-126.4840,-122.3263
44.0615,61.3004,-146.6385,23.2935,-240.3604,-79.5419,-172.4077,-64.3116,-121.5133,-13.0299,-109.5383,45.7387,-129.7341,-32.7017,-99.2125,-4.1973,-151.9895,-145.6034,-134.1141
-69.3400,29.8694,-206.8070,19.8530,-249.1215,-68.8334,-145.6788,-54.5686,-137.0190,-7.3139,-129.8146,25.7856,-116.7615,-27.3456,-70.5351,-9.3995,-153.5678,-93.0254,-134.1875
-75.9377,45.5276,-123.5083,29.6203,-143.7918,-23.7476,-100.1523,-15.0400,-96.9104,24.3230,-66.7240,28.2753,-22.7530,8.9092,-18.0314,27.6158,-102.5337,33.9566,-120.7129
-65.0319,91.6236,-58.5677,53.5855,-49.2026,27.1138,-73.2290,18.4084,-40.4092,35.3501,-24.6917,59.0254,34.3296,36.1082,-5.2393,59.9364,-58.9311,115.6042,-91.4968
-65.5173,62.0784,-43.0732,44.7952,2.3825,48.9801,-45.0653,32.5735,-30.2252,21.4343,-20.3519,68.5594,25.4320,51.0644,-12.7919,69.3878,-43.4077,110.8573,-43.4535
-74.6208,-26.6941,-31.9815,20.8810,20.3237,56.8623,-34.0476,33.5447,-43.9358,11.7806,-34.8323,62.2869,-3.7025,59.1909,-9.4075,63.9397,-41.0079,86.5785,-18.5153
-78.0608,-51.2765,-45.6309,28.1294,-27.2636,59.1392,-76.9342,19.5471,-53.7067,14.6466,-58.2882,61.3241,-39.7420,45.6722,-27.3778,41.9151,-60.4140,55.1769,-35.3630
-70.7419,-16.0061,-92.0046,29.8241,-102.7880,38.7006,-121.7612,18.4213,-68.3153,36.0881,-75.3819,47.5659,-81.6672,27.5694,-69.9247,24.7974,-96.9274,14.7679,-26.1547
-58.4679,-16.1609,-110.0832,4.2388,-95.1849,17.9274,-91.9776,51.9188,-65.2805,66.7449,-72.1330,32.4236,-92.9257,24.0297,-81.6894,33.5680,-96.0573,19.1492,48.9516
-32.1678,-49.5943,-69.4979,3.4315,-6.7776,26.8390,-6.9065,77.0547,-7.5815,67.4712,-48.4537,34.3657,-54.4971,6.7393,-50.4993,28.6358,-35.1507,54.1509,137.5685
5.0015,-48.7626,-8.0772,21.2733,49.1729,37.6087,55.9475,64.5745,65.0710,42.0700,-9.7794,13.7011,-3.7331,-22.1823,-12.6541,-18.8004,34.7335,50.9677,176.5681
25.1186,2.9556,35.9329,7.7857,45.7003,25.9885,53.2838,47.9649,62.3790,31.6094,30.7422,-39.1808,14.7006,-19.4631,15.2783,-52.1107,71.2091,37.3162,136.5494
29.2153,57.2827,55.6769,-11.6820,49.8218,14.8855,13.3396,37.4807,-7.5384,22.4918,47.9579,-64.3769,0.3494,-5.4380,28.5353,-28.0379,87.5809,51.6654,49.6222
33.4168,49.5824,59.3318,-10.8831,73.1264,6.0967,5.6642,9.4650,-29.6120,-9.9250,29.1370,-46.0849,-9.5902,-20.8398,24.9246,2.8204,102.2429,29.0418,6.0258
17.9266,-16.4823,49.7794,-27.2521,72.0054,-21.9192,30.4053,-23.4743,16.0909,-31.8561,-4.2568,-28.0972,1.2372,-29.8748,19.1524,-5.0142,97.3801,-47.9529,14.1811
-23.6444,-67.3837,21.4065,-58.1566,42.5976,-44.3134,9.9571,-38.1382,25.8356,-33.7145,-20.4743,-26.6233,-3.1207,-6.6448,9.5054,-17.5935,54.6003,-85.7002,-11.4792
-55.3464,-78.8307,-12.6310,-55.4526,15.0747,-21.0367,-43.0020,-39.4950,-1.8074,-47.5578,-15.8293,-22.7716,-41.4001,10.9607,-16.8581,-4.2967,11.7897,-53.3313,-52.5565
-63.7567,-76.0246,-22.7378,-19.4081,5.0701,29.7667,-27.7623,-26.1515,19.8720,-48.9877,-7.0594,3.7646,-66.8051,19.9548,-32.2761,5.2477,21.2002,-12.9290,-24.8947
-61.3075,-44.6720,-11.3373,20.9303,12.3298,64.5107,38.2334,5.1323,48.5175,-6.3408,-1.2655,49.8462,-52.0704,45.8206,-12.6256,-4.4955,55.7722,13.7402,21.2139
-52.5047,3.1460,-0.0810,53.1847,35.6062,82.4184,66.0383,39.3646,29.9043,35.0998,-1.0449,76.2291,-30.4358,68.0106,14.7891,8.7338,64.9933,52.3961,24.6777
-55.2112,0.1039,24.4242,65.7020,81.5147,104.1041,98.9455,72.7542,67.4156,46.1250,-4.9567,64.5571,-4.2556,67.8382,41.0508,54.3127,81.6881,96.2210,56.2192
-67.4984,-34.9567,72.8859,48.7064,143.0679,105.4583,186.1235,92.2773,168.3773,45.1994,18.4303,43.5445,55.5781,48.9074,80.3769,54.7431,127.5435,93.7612,114.0375
-36.9423,-28.8888,104.8492,-1.3834,169.0309,40.5301,207.0897,52.6156,148.6108,4.0374,84.2547,14.1426,113.8857,-0.8911,91.6493,-30.6049,129.3563,11.4497,84.7560
23.0522,-17.0715,94.4922,-70.7607,124.5262,-59.8047,98.2580,-35.2449,9.0705,-89.6148,117.0957,-38.9677,118.6219,-53.1212,50.0124,-112.4978,74.1355,-89.4620,3.6272
11.0158,-51.7011,71.7777,-101.3228,65.6102,-101.4644,18.0460,-85.8701,-33.7584,-149.7649,48.3641,-71.3812,94.7712,-50.1579,30.4118,-113.5589,54.9676,-108.1624,-2.3242
-68.8495,-74.6023,57.5914,-62.6210,56.3656,-68.5591,62.8175,-81.3338,36.1929,-142.2894,-34.7358,-50.2365,78.1287,-30.4342,67.3374,-100.2748,80.6719,-62.1906,23.8972
-94.0138,-48.7886,45.5358,-22.1638,68.3683,-40.4370,98.3873,-97.7486,50.3106,-152.4238,-9.3456,-19.2558,54.0957,-62.2379,71.0016,-148.7045,74.0927,-50.8294,-20.1756
-50.7196,-27.5485,38.5463,-29.4971,51.8944,-51.8681,26.0794,-159.2452,-4.3791,-202.1205,69.0735,-9.4581,19.4615,-100.1066,-2.0310,-201.3611,37.3985,-82.1680,-89.2607
-37.5077,-41.0469,30.0260,-49.9519,13.1710,-65.7169,-59.0467,-202.3546,-35.8745,-212.2278,67.6861,-19.9210,-7.4546,-91.2105,-68.3951,-182.0008,6.9774,-109.9741,-102.0541
-65.9848,-84.0327,4.3796,-80.6439,-24.9628,-71.7941,-58.7443,-185.7762,-31.3965,-168.4206,0.0779,-66.3502,-30.2489,-77.3251,-65.4329,-126.3304,-30.6839,-140.6738,-65.1829
-74.0118,-143.1714,-15.0307,-133.1573,-38.1055,-89.1547,2.3105,-138.3245,9.7366,-133.3753,-35.2028,-118.3735,-44.2308,-81.7240,-23.1234,-105.4665,-52.9505,-162.4732,-11.8611
-60.5110,-155.7601,-3.3516,-139.2804,-2.0359,-109.6097,57.7994,-109.2005,76.4980,-133.2027,-21.2358,-110.1793,-29.0009,-86.9167,10.5186,-132.3557,-13.2988,-130.8480,28.1554
-49.5368,-89.5382,20.1458,-80.2391,57.8705,-116.8281,69.6931,-109.8569,85.8938,-149.3238,12.7242,-67.1831,0.5213,-108.7647,16.0241,-180.3034,57.8954,-68.7503,34.8751
-17.9896,-29.5419,62.1914,-50.5486,110.0587,-106.6200,54.8854,-108.8285,38.9686,-159.6288,62.5087,-53.1697,25.0985,-132.3939,8.2904,-207.4301,122.4464,-20.7000,47.6963
41.6620,-43.2252,142.6413,-69.8214,178.2360,-77.3779,75.2231,-88.7274,52.4462,-149.1234,102.0732,-54.1714,61.0571,-104.5425,19.7841,-180.6245,182.0880,15.5433,107.8095
69.9593,-89.1075,176.6380,-75.0360,237.0092,-51.0962,130.8917,-68.8907,117.6196,-121.2219,85.8787,-57.9662,95.2813,-53.2457,46.5963,-123.7614,187.2903,20.1516,161.8868
21.3129,-132.9425,82.8544,-87.4623,198.1988,-57.5003,139.2027,-53.1235,119.9018,-86.1683,28.5504,-92.2053,83.3935,-36.1042,55.8363,-89.2871,98.3815,-23.1722,145.2549
-49.7782,-180.8051,-25.2122,-137.3053,105.0821,-72.8540,98.0329,-24.1208,91.2364,-45.5489,-6.4807,-127.9134,47.7689,-26.0965,52.6094,-78.1508,5.5129,-48.9349,103.2789
-58.6376,-203.1292,-13.0533,-158.8388,94.5590,-49.1570,108.1389,10.8189,131.9743,-10.1609,3.4292,-121.5572,49.7648,3.3983,63.7601,-56.5731,-1.1699,-17.1899,116.5942
-25.0354,-167.6085,41.4910,-119.3266,146.5618,7.5456,178.8320,40.3407,197.9505,12.5022,20.3767,-92.1169,81.2670,24.5650,84.7241,-23.6374,41.3671,25.8198,169.0581
-24.6031,-89.0202,33.0471,-55.5016,150.9868,58.4269,208.6940,73.3932,202.8320,36.7599,15.4733,-44.7702,92.1194,40.4830,96.7125,-1.4137,76.9036,65.7432,178.8689
-37.0712,-0.7122,16.7012,20.1431,123.6157,90.1252,157.4433,99.7557,152.8375,58.8001,12.0208,27.4013,66.1351,66.5592,82.6245,9.6839,98.6233,114.4023,123.7139
-12.4362,49.6514,34.3134,78.8455,120.5487,110.8152,75.7773,109.4528,86.7932,66.5861,23.4635,69.0596,16.3225,86.0487,36.8246,33.7701,107.8592,142.6650,78.0838
-11.3335,29.8871,45.4349,84.1406,141.1629,134.3217,45.1594,139.2690,72.2582,88.7408,9.6540,63.9321,-14.6183,113.7265,15.3539,80.8847,139.1078,163.4661,125.4749
-66.4356,-0.8650,82.3414,98.0406,215.1509,167.0565,136.8498,192.1954,173.9473,120.7023,-21.6921,85.5367,30.2344,161.9172,80.0656,104.3652,230.0363,208.8622,237.9465
-39.0406,47.2206,177.2808,164.3156,328.1723,183.7885,278.1881,185.4879,276.3079,78.3900,29.0193,132.6805,126.8338,165.5152,162.5725,48.0726,311.8829,209.9231,268.2826
163.5813,155.9377,236.3841,187.1900,343.5797,155.1665,271.0729,86.9131,193.8318,-51.4164,179.0764,122.3444,176.8051,96.9192,151.6647,-43.5445,290.4010,132.2212,130.7586
390.9263,227.7611,216.1956,126.2091,235.5899,103.5089,117.8393,-7.3556,19.9240,-147.6406,290.7827,65.9841,157.4814,35.3429,90.9188,-68.4199,206.1944,88.7851,-42.3753
453.4027,213.2878,199.6099,79.7035,161.1490,75.2133,52.0627,-14.0385,-7.1830,-131.0878,284.0131,33.7861,136.3399,24.7133,87.8681,-29.0113,151.3524,110.4882,-67.3357
369.9378,138.1199,196.4520,66.8953,162.7961,66.3608,118.1035,23.7209,73.0774,-63.1861,238.6487,13.2272,132.6567,25.7623,116.3810,-11.0634,127.5305,70.3713,15.1897
290.4662,58.3202,155.0412,19.4155,129.4111,33.7377,124.3565,16.3723,74.0822,-39.0666,217.4639,-26.7239,109.7526,13.6039,98.9668,-33.1079,110.9989,-46.1126,37.7827
286.0441,20.9903,121.1643,-29.9012,59.6188,-24.1378,50.3598,-44.9042,35.3374,-79.0017,190.8039,-50.5255,77.1371,-11.4489,57.5380,-60.7944,119.5009,-104.5792,1.6312
297.0833,30.5325,129.9161,-20.8896,42.2796,-53.3989,52.1066,-79.8330,74.7526,-117.8804,153.3101,-36.2607,73.7999,-41.1477,48.5589,-87.6527,140.3740,-63.1193,21.6918
251.8565,46.4068,113.8295,-7.5879,69.5510,-30.4864,123.9656,-37.9813,121.5639,-99.6234,131.7458,-27.7336,89.4063,-46.3538,68.9282,-101.4492,126.8477,3.0861,83.3718
175.7984,25.5153,66.6385,-40.6430,91.0521,-4.1984,146.9454,19.8053,91.3911,-76.5038,116.7862,-57.0319,93.2105,-33.9957,86.8929,-86.7686,91.6885,44.5865,103.4903
143.1304,-25.2019,65.6763,-70.5022,113.7169,-11.8616,135.0261,23.0449,58.4347,-106.2142,114.3533,-86.1039,101.9656,-44.9114,95.6350,-76.2181,92.5010,60.8297,104.0565
162.4712,-48.5755,107.3065,-57.8624,148.0135,-25.9524,153.8229,-3.0656,82.4832,-123.5403,159.0296,-69.0367,141.9755,-58.2781,118.3212,-89.8737,122.3279,60.5004,122.6176
182.3845,-24.2645,123.3459,-41.7539,167.0146,-32.7606,165.8462,-30.2157,106.3546,-93.2615,209.3461,-41.2430,173.5372,-47.7652,155.5933,-102.1959,112.8113,33.3350,104.2847
177.6721,-14.0002,99.5094,-68.2592,139.1353,-65.3307,127.7720,-95.4658,95.1726,-113.9711,187.1999,-68.5969,145.3239,-70.6295,153.7623,-122.6810,55.8519,-45.0557,28.9705
163.6708,-53.3303,66.2186,-124.5740,72.2293,-117.7444,80.0888,-183.5425,83.2017,-196.8407,129.6109,-125.3542,95.1609,-139.0238,91.9469,-166.2363,23.2614,-135.0838,-23.4538
150.9286,-83.7992,53.8043,-153.8145,25.4152,-136.0972,54.0016,-205.6081,73.6381,-211.0482,126.5277,-134.8837,86.4454,-160.0306,38.6325,-175.9367,39.9881,-146.6709,-22.3266
136.7371,-68.7029,68.6195,-129.4839,31.8692,-109.2836,33.9632,-150.4630,47.3041,-141.2390,160.9828,-97.1607,105.5505,-112.0969,49.0326,-125.0088,47.6405,-93.0991,-24.4623
125.8188,-59.5953,74.5667,-99.2188,44.1111,-80.6503,40.3125,-94.9792,45.4930,-95.2429,170.1203,-71.1552,127.2124,-78.5513,100.5390,-81.1443,15.8688,-80.0664,-37.4778
120.0892,-94.6032,51.5492,-121.4057,25.4312,-90.6439,99.8985,-81.9457,100.2045,-96.8028,161.7821,-94.1079,160.4837,-90.8023,147.5428,-85.3826,-23.1131,-124.6293,-28.7928
101.6345,-144.1837,40.4280,-178.6533,3.7926,-146.0859,145.2498,-117.5090,135.0458,-129.1308,159.1194,-154.9307,170.9518,-117.3175,149.0985,-123.6142,-38.2657,-152.6303,-38.8372
69.1221,-161.0180,66.7745,-190.8817,-2.8901,-197.2467,106.4820,-196.3447,86.0112,-209.1051,158.2376,-173.5973,130.6887,-135.1456,101.4606,-183.0466,-8.5821,-131.6765,-100.9682
66.0632,-115.3022,106.3644,-117.1802,10.0451,-172.7286,49.7525,-253.6507,29.1727,-273.0826,179.6428,-84.2027,114.8211,-116.3111,77.2453,-204.2558,68.0038,-82.8570,-133.1770
117.0364,-31.3202,151.2159,-22.1315,74.1284,-89.4073,62.3198,-224.7142,42.6623,-236.6536,235.5275,20.4735,169.9956,-57.8772,124.5967,-133.0138,141.8476,-36.1840,-68.9734
179.2577,11.5236,203.9865,8.5371,176.3990,-36.6670,108.6230,-149.5371,78.3224,-162.1372,275.2476,12.9250,218.5574,-14.6165,180.7774,-57.5691,177.3165,-14.4878,27.9810
208.0051,-15.2651,232.0365,-9.8679,241.6951,-28.9050,128.0284,-93.3780,81.0073,-135.3359,257.2931,-46.2031,210.2021,-10.0662,182.3759,-69.2997,199.9182,-5.4736,84.6340
204.4571,-53.7355,218.4715,-19.5969,251.3784,-12.7657,132.1260,-51.4814,80.1607,-120.9918,211.7134,-44.4314,175.3941,-10.3176,147.8342,-90.4720,213.2345,8.8944,117.0729
177.4780,-73.6979,199.3845,-27.8757,253.9451,4.8976,146.4618,-18.9250,113.0136,-90.8102,181.4050,-16.2533,123.6210,-7.6191,117.3521,-58.9464,195.7902,2.5660,160.4234
145.3952,-94.2379,199.4947,-37.1396,262.3357,-6.9823,189.6570,-11.0410,184.1903,-73.7404,168.1385,-1.9103,82.9841,-2.7778,124.1831,-39.1327,183.0916,-29.4812,212.4985
145.8606,-97.0861,194.8196,-6.4745,259.2154,-10.7857,273.5017,8.4352,275.0109,-42.6021,149.6820,37.8166,119.0262,34.3478,174.2839,-18.0651,198.2509,-36.0974,249.5776
159.4776,-65.0335,153.3592,28.0469,245.5608,18.1975,343.4107,60.5306,331.1990,27.5342,112.3639,63.9033,184.0272,80.7488,209.0588,68.5233,177.3724,-17.5774,241.8823
124.2372,-50.7130,76.8461,-11.5614,212.2490,20.1864,331.5185,68.9535,318.6704,58.7418,76.4641,4.1875,167.3406,60.0710,197.4325,119.2859,92.9608,-39.4499,181.7010
69.8271,-90.5468,5.1718,-84.6278,148.7297,-39.6564,265.5025,-9.2906,268.2063,-1.5038,75.1269,-75.5997,114.6806,-18.0941,198.0507,36.1061,19.6932,-105.7671,103.7271
61.4895,-145.3220,-24.4075,-111.9877,94.0688,-105.0828,203.2779,-88.5801,204.0139,-77.4415,86.3620,-87.4813,132.4037,-58.4337,223.5694,-49.4193,11.8208,-149.9531,55.5511
45.7187,-177.5723,-14.9684,-110.1749,97.1562,-124.5660,157.8807,-96.3731,139.4137,-86.8957,58.8348,-60.3474,171.2063,-24.9226,215.3512,-13.6796,49.7182,-136.8730,60.5820
-17.7721,-173.3794,17.3929,-93.1932,142.7383,-109.1605,146.1757,-71.3893,127.3830,-48.4153,25.2501,-31.7007,153.2580,23.3182,188.5996,51.2300,96.3616,-90.5403,87.0152
-11.3521,-107.9902,63.1494,-40.7137,167.8396,-88.1973,159.3421,-71.5558,159.9030,-33.8984,65.3715,-2.8418,135.1790,20.5006,188.2334,41.5503,114.7789,-59.3830,58.8655
114.1091,-3.8396,93.2298,-9.0110,140.5320,-85.2649,138.0336,-108.7378,141.9364,-83.0602,151.0815,-6.3563,164.4428,-37.7764,182.0420,-20.9269,92.1409,-66.3575,-28.2653
202.3097,49.1457,91.9018,-42.6602,105.1688,-105.5965,99.7656,-166.1932,81.4472,-162.3076,182.5592,-40.9156,183.9053,-96.8154,168.1158,-91.4171,68.3749,-67.3949,-70.1133
160.7119,22.9362,95.8157,-57.3199,123.3547,-104.0139,114.8635,-193.7114,73.7736,-193.4047,150.9418,-37.0314,169.4956,-97.8541,195.1339,-124.3805,70.2962,-11.9720,-31.2102
78.9513,-6.5023,112.3972,-2.8261,168.3588,-38.1000,136.0778,-143.0930,90.1181,-141.8139,108.1877,13.3925,164.0600,-35.1606,217.5031,-74.7899,61.3337,57.9574,-5.8968
19.1414,-8.1901,80.4720,31.5513,154.1019,32.9763,98.8502,-55.2449,67.0137,-64.6979,55.9168,37.8689,163.8724,34.4148,175.8924,6.6173,9.5995,55.7098,-21.7660
-21.7127,-45.9219,-7.5055,-15.0581,73.7267,14.4997,76.5770,-26.0779,72.5483,-44.8216,2.6783,7.3010,137.2724,38.6256,140.5076,23.4643,-58.8922,-24.1958,-7.4856
-14.5782,-127.7528,-70.0389,-89.7987,3.6727,-64.9132,110.8855,-72.7457,127.3166,-86.1165,-0.0248,-42.7053,114.8665,-26.1661,156.4825,-15.9504,-97.5373,-102.0131,24.1638
18.0944,-159.5028,-68.9456,-123.7650,-16.4798,-95.4303,115.3376,-122.7184,120.1512,-116.2014,36.6188,-69.6145,133.2287,-78.8242,146.4920,-46.8277,-85.9664,-113.0160,10.5165
5.3205,-101.7888,-37.0674,-95.9715,-3.5966,-63.2306,72.2013,-126.3622,55.6125,-101.6381,57.6539,-51.7351,153.4158,-73.9726,94.7628,-67.1218,-39.8186,-71.6225,-6.6239
-10.4792,-33.5258,16.0084,-46.7228,26.5842,-43.4164,58.1433,-97.6367,59.4300,-84.0043,78.6139,-13.8446,130.1922,-60.5430,76.3338,-89.1545,13.6380,-35.4394,32.4783
40.2880,-14.3708,90.9390,-31.6389,58.8166,-49.7477,82.7391,-54.1258,120.1899,-74.7581,118.0456,4.7663,91.4447,-55.2893,89.1190,-80.4127,61.3803,-20.9180,95.7869
87.0725,-7.7708,141.3080,-23.1754,77.7162,-26.0693,111.0319,7.7643,134.8856,-33.1725,126.9361,24.0712,80.7584,-8.9755,82.3039,-30.3287,95.7669,2.6189,146.6084
68.2812,24.7776,136.2837,33.0135,96.7441,38.0073,135.9128,73.3852,114.7341,29.7477,106.9077,73.5803,92.4726,56.3649,72.6674,16.7924,113.7825,42.2942,183.7314
47.8188,55.9818,114.1902,88.6817,129.4194,87.5847,141.0527,107.6249,120.4237,64.9490,115.9101,109.1786,104.6641,72.1726,82.7421,32.0121,128.2670,72.9623,187.2202
47.9695,49.0699,106.7760,82.7533,148.2186,88.0133,122.1324,103.8977,139.7359,79.7901,129.1253,89.6703,108.8132,62.5568,84.4659,36.6194,130.2277,77.1581,146.9630
25.1388,16.0947,88.5691,51.9616,123.0116,61.6751,107.1239,83.5429,143.6355,88.7144,104.6427,53.4240,101.7769,67.8491,73.2664,49.2719,85.8972,41.6475,89.6933
13.4066,-6.3219,46.5756,26.3106,66.3375,35.4634,95.2668,48.0164,134.9492,59.4369,93.5009,37.4132,98.7796,49.4418,83.8821,54.0790,18.2616,-26.5081,36.7108
47.4978,-10.8610,16.3534,-8.7817,12.0594,7.2514,80.6231,-5.2821,119.2961,7.1202,105.9323,24.9776,112.5886,12.2228,115.5836,48.2127,-10.0810,-66.3577,-0.3429
61.2906,-20.2498,7.8964,-23.5769,-17.2818,-13.4145,84.4846,-40.2682,99.3922,-1.3117,67.9149,8.9753,107.8755,21.7635,126.8855,61.8560,-7.8075,-34.5778,-18.8135
24.0375,-39.3141,-15.5162,-5.0715,-15.6200,0.2896,87.4385,-32.3056,83.2808,19.8990,1.4520,11.3650,67.5632,51.0227,112.4831,90.7909,-17.0075,20.9173,-35.7180
-6.7263,-44.2755,-44.4968,-3.6601,10.5023,30.2212,70.9003,-14.6307,85.0322,8.6363,-1.0679,43.2122,62.2823,43.4892,120.1603,92.1478,-12.3859,45.1744,-33.0628
-9.4010,-25.1491,-18.3765,-2.8920,45.6791,38.0289,86.4440,-3.7766,108.1905,-6.6737,41.3113,93.1021,126.0940,58.4009,158.7423,80.7107,30.0944,50.7846,25.4950
3.3325,0.0774,48.8407,46.6839,64.9582,46.5001,119.9576,31.9317,111.2207,23.3695,63.8514,125.6468,163.2142,134.3213,161.1937,110.5616,59.5636,44.8275,79.9783
42.7879,12.3173,73.6047,71.4484,47.0120,76.0578,73.2523,73.9786,53.9678,44.7214,79.9603,103.1197,113.3654,175.0978,102.2882,152.0479,44.4731,1.0954,46.9649
90.6734,6.3573,56.9401,8.6426,12.7449,68.6229,-15.0096,53.4461,-13.0645,1.9780,105.1006,49.8671,61.4249,129.0376,55.8884,132.7672,34.8903,-55.3144,-12.4102
115.4245,1.1652,76.7331,-33.5725,18.5503,9.9182,-14.6834,-14.2732,-11.6038,-44.5539,123.5359,42.8236,72.8466,78.0261,67.2748,79.4797,81.0834,-58.0036,-0.3661
145.4753,34.8623,132.9911,28.7385,73.0054,-7.2512,40.7315,-40.0600,36.9190,-28.9671,145.5442,100.9771,91.0637,79.9238,84.1562,72.7890,162.9710,-12.5006,37.7694
189.2292,106.2697,159.1670,107.6222,106.4178,44.4818,30.9169,-12.7748,52.1920,7.0508,159.6435,151.3796,63.5577,102.7121,56.2772,108.8373,214.1876,6.4758,19.3461
182.0678,152.3431,149.4884,117.9146,71.2121,74.7241,-35.3269,2.5038,14.1348,5.1447,125.7928,133.5027,17.2689,107.8006,6.3039,127.7726,203.1342,-22.2018,-25.5785
119.4683,130.3343,144.0792,83.5418,23.5478,53.1867,-69.3950,-3.2657,-20.7849,-8.9650,79.8037,80.8685,-2.5655,92.4694,1.6269,122.7906,178.4866,-35.2614,-19.7435
85.0160,76.0391,149.6022,54.6199,47.7269,48.2379,-14.3685,23.7351,16.0727,17.1829,89.0897,72.4183,32.3444,93.6247,84.3483,136.2287,191.2141,15.6156,57.6821
102.0145,54.3970,156.5516,71.2833,134.5404,88.9567,122.8395,94.7004,119.3582,77.9467,127.7909,125.0141,116.0313,147.1993,192.0337,178.2428,217.1576,100.3107,159.5461
123.6223,89.2316,167.4093,133.7503,198.0802,132.8776,239.3905,147.8211,197.4008,119.7237,140.2988,169.2177,183.8966,203.3438,214.0402,200.2328,228.9256,153.5265,218.6316
144.4292,137.9856,182.0462,166.8380,202.1891,140.6766,246.0528,132.4310,204.4559,107.7328,142.0100,154.8452,183.6844,187.3744,166.7474,172.4879,253.8357,146.4859,228.7613
176.1660,135.4337,204.4222,134.2467,198.1291,124.9899,206.8060,88.1659,200.9639,74.3704,164.2410,127.3242,157.8582,146.1923,159.3911,150.5777,296.9762,114.7297,234.4648
185.8226,86.8036,241.6560,113.4649,222.4897,136.4490,196.5654,88.0773,210.0981,78.3942,197.0279,139.3241,165.6465,166.4929,189.7287,185.3769,320.9799,108.9358,229.3249
164.4018,60.0776,278.5304,142.0866,241.1294,173.7163,165.6255,117.1577,172.4987,109.1315,217.4155,159.7475,182.4548,206.5552,179.7961,223.1531,315.7578,114.1083,186.5119
157.5542,60.8404,288.8752,143.3619,224.5417,160.7947,103.4192,111.3168,98.4027,110.6023,210.8405,142.7334,167.9025,186.3010,149.0297,208.4525,280.2420,79.7637,155.0387
165.0901,30.4956,256.9125,83.2881,190.6133,88.0246,97.6184,90.4933,79.4604,96.8185,177.9753,101.4649,151.3919,130.5583,157.7573,183.8535,193.8103,30.2305,178.1830
129.8501,-25.5835,182.9875,29.3918,153.4181,43.4773,151.5759,103.4072,130.9595,109.4029,141.5466,62.2493,166.8076,87.3979,188.8907,175.2980,95.4828,29.2343,205.1928
62.3298,-43.1541,119.0497,28.2945,120.6469,52.4491,183.0995,108.9733,173.7879,109.8833,131.0774,38.6241,184.6718,54.1328,202.5852,138.6126,81.0580,64.7330,193.0933
44.5613,-0.0365,144.0891,65.6139,122.8107,70.9037,170.2218,75.7204,151.5957,76.2950,157.4043,55.9063,170.2151,44.0821,187.0974,92.4224,152.4258,101.2523,162.4719
85.7109,83.0197,224.6977,117.9470,148.5281,101.2570,125.0993,66.2574,81.7102,81.5295,184.0576,108.5658,134.3432,66.5498,140.1452,103.0759,189.4351,147.5205,114.0657
106.2430,163.8497,217.9550,154.8315,120.7943,131.3524,48.5450,92.3660,28.6138,130.9552,150.5155,138.3680,98.3300,66.5125,92.2383,137.0272,124.2678,170.9790,41.3096
76.2970,178.3118,99.7131,146.3628,32.0282,100.2601,-7.4194,78.1369,41.1789,126.7320,75.1086,123.5335,72.0531,21.5968,85.1109,127.8269,38.0535,121.7365,-1.0064
42.8746,115.9792,18.2050,107.7959,-14.4761,35.4713,16.1901,23.4846,92.9977,68.2625,51.1480,102.9300,65.7468,-3.2644,98.5523,105.3481,32.6843,61.8977,26.6224
33.6074,45.4568,53.5605,80.3767,29.3073,15.9595,77.8339,-15.5340,118.2932,31.3778,92.5978,86.9290,77.3741,9.7213,92.1432,99.7630,97.3474,54.6602,67.6323
46.8880,3.0305,126.9333,67.6779,91.3314,11.2932,87.4885,-66.7980,91.7234,-16.1532,126.8702,52.1336,87.0689,-7.5422,74.7932,65.3959,160.8325,26.2445,53.8922
88.1251,-28.2854,169.0647,40.4734,106.5840,-33.7525,21.3889,-153.1243,28.3352,-111.6183,134.1927,8.6753,79.5739,-69.5428,56.8132,-4.1674,184.9909,-60.6610,-0.9857
119.8763,-38.7836,169.5105,-5.3768,68.8661,-80.4129,-63.9084,-190.4694,-40.1428,-152.8749,119.8135,-18.8692,53.6186,-113.3634,26.5197,-45.9748,150.5674,-108.6317,-37.5332
61.9176,-27.7329,102.9025,-37.1141,-6.4549,-94.3754,-84.1572,-130.4680,-58.4656,-74.7744,49.0404,-28.8499,29.2072,-110.0870,7.0931,-34.7231,60.1490,-79.7355,-20.0512
-72.7152,-32.4370,0.3046,-31.5267,-62.4864,-85.7464,-7.2047,-41.1765,6.6361,30.0695,-31.0976,-18.5664,42.4812,-81.5867,34.8095,0.1461,-17.4489,-35.9588,39.9452
-148.6026,-39.5174,-22.2033,-6.6510,-43.9788,-48.8738,89.8873,11.2580,98.7235,75.4286,-4.0757,5.3735,81.9310,-54.5088,82.7717,22.9058,-33.0025,-7.4815,84.7884
-99.4481,-21.1590,42.1860,0.2233,-9.5601,-14.8740,93.4758,6.8736,117.7294,62.2214,86.0313,3.8727,76.1314,-58.7275,84.1924,6.7676,-45.9041,-25.6455,55.1112
-37.2197,-39.5836,56.7497,-32.6341,-53.7863,-48.6577,-3.9799,-60.9603,42.0707,1.2066,74.9358,-41.6641,11.6409,-104.8313,26.2414,-40.6579,-98.6450,-128.2610,-28.9330
-79.1566,-128.6072,-11.2571,-100.5761,-141.1286,-131.0253,-101.7519,-157.0253,-49.8521,-86.2598,-41.7159,-103.7162,-32.2140,-166.1085,-25.6218,-90.3382,-129.9851,-242.0905,-85.6272
-175.6856,-193.0973,-55.8454,-172.2774,-179.1319,-201.2172,-140.4108,-229.0396,-98.0946,-156.8646,-127.9127,-160.4857,-20.5768,-227.0246,-21.1783,-145.9117,-118.2766,-275.2489,-99.8765
-218.3923,-184.8770,-61.3896,-207.1037,-171.0732,-254.7430,-166.6040,-274.5956,-139.4413,-199.9841,-141.0678,-197.8580,-5.2045,-280.4906,-7.5401,-200.4931,-128.4978,-261.6975,-129.6227
-211.4638,-178.7063,-96.9651,-195.6227,-163.1470,-279.1061,-219.7000,-297.9586,-209.8721,-223.6926,-133.4349,-183.3205,-13.7081,-279.8382,-44.2792,-194.1979,-172.4590,-243.3949,-169.9270
-211.7091,-195.1808,-136.0258,-165.4068,-160.3394,-247.5450,-256.4265,-280.0462,-249.3223,-213.7261,-122.0120,-121.5672,-31.0778,-211.0042,-90.2620,-122.2275,-202.8464,-211.2946,-161.6124
-209.3966,-189.6880,-125.8996,-144.9706,-164.3058,-205.1453,-234.9194,-241.3981,-202.2951,-167.3521,-103.1923,-85.0327,-56.5841,-154.8329,-83.8108,-68.1816,-209.5610,-214.5182,-115.4387
-188.9337,-197.5139,-118.5543,-149.7504,-173.7418,-195.5727,-165.3481,-209.2474,-114.6700,-105.9881,-104.1743,-117.4763,-73.4192,-156.3341,-44.4228,-58.6575,-199.0668,-271.6282,-64.3503
-189.3412,-254.1657,-155.8745,-175.2098,-155.9154,-185.2343,-61.0296,-149.2898,-39.5248,-45.5156,-137.1864,-165.9259,-44.7604,-154.6709,-2.1447,-46.4662,-174.2350,-268.6120,13.4093
-217.0619,-272.2663,-183.6650,-178.2975,-107.1764,-162.3326,38.4234,-58.7039,20.7736,-5.1926,-164.0328,-164.4756,3.5450,-131.3379,37.6212,-39.6489,-160.0076,-155.3299,86.5862
-220.7707,-187.8405,-162.5841,-123.3257,-68.2206,-154.8908,44.9555,-17.6024,36.0113,-5.7866,-148.1711,-127.9051,7.1907,-146.1866,32.6996,-72.9174,-147.7218,-38.2467,71.9935
-185.5380,-83.4259,-109.9431,-45.8594,-42.7339,-143.2636,-43.3321,-44.7519,-20.9896,-31.2950,-104.1370,-99.5008,-23.4599,-183.4221,-27.6026,-108.9258,-95.2611,17.6573,18.1354
-144.5146,-44.4541,-49.7664,5.1450,-5.0429,-101.1764,-98.6366,-51.3082,-81.9163,-33.1136,-66.9765,-60.4332,-27.0426,-160.4904,-55.9126,-98.6117,-34.9539,48.3592,44.9297
-119.8586,-49.9029,-23.8684,37.6782,31.9210,-45.7580,-58.7502,7.8023,-78.7161,20.5819,-48.5074,10.9459,-1.6871,-80.6057,-13.6677,-48.3203,-29.8975,69.7703,120.3059
-116.9725,-63.5267,-53.4738,47.6096,47.8441,10.0443,0.1200,73.5144,-42.3233,98.2162,-48.7369,45.3447,6.2123,-13.3343,23.7854,17.1022,-52.6955,59.3999,138.9560
-120.9049,-86.0759,-72.9855,-4.2688,52.2877,40.4674,33.0168,80.5889,2.9512,119.7495,-59.8259,-8.4623,-3.9710,17.0247,32.6586,64.2544,-56.3262,4.7372,111.8681
-98.3449,-93.8896,-30.5636,-67.9187,53.2416,10.4754,79.7927,35.6319,87.0932,71.8794,-49.1662,-51.5521,17.3851,26.9764,72.9913,65.6187,-47.1931,-51.6482,100.4035
-54.5649,-45.2329,27.6123,-23.0756,65.6215,-16.6906,152.2256,10.9563,187.2518,55.7242,-0.7222,16.0977,82.7998,38.7639,146.5231,60.1869,-8.4294,-12.4934,120.3646
-20.6232,42.3386,69.7013,116.2133,113.6362,49.0106,217.3566,56.5239,246.5499,127.1158,51.7373,115.4877,135.5594,67.2006,202.1239,96.5179,68.8784,110.5799,171.3053
17.7146,96.1678,107.3914,192.9699,159.3197,132.6365,248.4715,111.5134,271.6895,192.3465,77.7128,123.0823,128.7713,83.1571,220.9734,125.0294,98.8216,140.9773,218.7398
60.3089,69.5852,100.4149,132.7784,136.7343,105.6111,229.2531,91.0651,275.1760,164.3830,70.6122,56.5962,88.0077,53.4084,198.2036,85.4617,37.0308,23.1545,214.9360
41.7668,-4.1318,41.1010,29.2083,84.7450,21.1731,184.3492,40.2951,236.7683,95.2362,29.0016,8.3118,65.1141,25.7884,152.6199,34.0808,-10.6020,-70.6348,203.7487
-17.7063,-24.2193,37.2171,3.5025,89.2224,8.6534,179.6453,57.0275,193.8408,73.3635,8.4932,23.9336,79.0348,56.4588,147.7948,44.6250,30.3812,-56.3820,243.3624
35.3106,76.9493,124.2459,70.9192,124.5148,52.4731,212.7031,115.7316,193.8815,100.0913,97.3618,90.1478,122.8871,101.0621,188.2685,85.8220,90.0037,-31.2219,265.4854
249.5051,219.7829,198.3303,143.7541,129.4587,67.0497,202.4839,129.3074,177.0907,118.7320,260.5147,147.8227,180.2169,104.5996,199.2333,109.1498,116.6848,-19.6246,201.7529
469.3434,261.5382,235.5163,151.6153,141.4866,61.4907,141.2785,104.7118,99.1767,110.6844,365.9271,150.7489,225.3218,98.9958,174.9910,139.4750,150.6975,29.6732,118.3977
559.2275,209.5257,293.4884,132.0170,182.9019,85.1733,107.6511,100.1678,46.2255,119.4523,378.0963,130.5578,237.3079,117.1291,172.6807,193.8904,187.6686,67.7024,83.2734
538.4875,179.3522,310.0267,137.7629,170.0078,117.2220,111.0733,120.2458,61.5408,165.4098,341.4370,122.4255,212.8203,136.1407,167.4743,221.6132,159.7085,29.8145,79.9189
465.2310,170.5728,211.2562,130.7634,76.1513,116.9304,92.6124,141.0736,70.3684,199.0360,261.7736,101.2955,166.5801,143.8771,112.9059,193.2307,78.0937,-36.9008,98.3737
363.4909,123.7645,101.9628,82.4063,-3.0311,100.7101,60.7747,154.0345,64.5008,195.3191,169.5455,75.3350,124.9614,146.8421,65.5121,162.3042,31.1303,-62.1451,132.4320
270.2690,99.0101,85.1088,53.5093,-24.6771,90.9289,66.1107,158.0684,97.9454,200.6172,136.9315,93.1443,102.8634,138.4597,79.7192,182.4592,28.2188,-36.7391,138.7479
221.4655,135.2537,94.4502,68.5371,-35.9352,73.4416,92.1977,171.9786,122.4145,235.9674,148.4006,123.6481,94.7685,131.0226,106.8213,227.9100,3.0703,14.6372,120.4251
200.0630,130.3935,74.2476,76.7692,-34.9154,57.6806,99.2934,217.2009,87.8902,263.8976,139.4384,107.7124,94.0955,141.1028,101.8903,237.4949,-27.4899,68.7367,131.3228
179.7401,76.3034,76.9931,82.8421,8.3131,74.3417,99.0933,253.8814,70.9242,252.8827,129.1823,81.4714,94.5472,133.0317,88.5260,189.7318,16.2316,122.8080,162.8227
180.7175,106.7774,112.2963,125.7162,51.8488,99.7132,108.2442,220.7113,108.3603,191.2682,149.5772,87.3659,90.9251,78.9811,83.9865,111.1366,106.9619,167.8680,168.6011
213.7931,197.8617,125.7055,159.3221,54.9774,93.4704,112.5866,142.8458,120.3117,100.9094,162.6384,85.1166,93.2240,27.0452,74.6620,45.0370,144.9488,160.2134,156.2367
230.2836,196.3232,112.0245,127.3084,44.3725,67.9606,97.6924,95.4738,82.1381,57.4338,145.5737,55.8803,90.5951,19.3933,51.6894,18.7883,122.5330,93.7831,142.3191
197.8495,121.6688,93.5932,63.9643,30.9602,38.6909,55.5935,92.3170,42.4445,94.9858,115.6585,36.7913,43.2726,32.6441,21.7491,26.7292,89.0753,32.7342,118.0628
151.1505,76.2893,64.6237,14.5958,-3.8744,9.3894,3.7250,104.2489,13.8192,145.5550,70.2628,26.4107,-20.8153,48.0364,12.9517,49.8937,46.2565,5.5542,108.1985
117.3720,31.1645,34.4421,-14.1210,-35.1678,15.8075,-0.3764,117.7907,13.1687,154.9652,20.4163,4.1912,-22.6505,69.3011,40.8959,75.5307,3.2658,-18.7544,137.2977
87.2466,-25.9384,27.2500,-6.9253,-36.1790,52.7454,45.1819,110.8851,61.8288,144.8747,8.4197,-4.5019,10.2670,70.9495,55.6915,85.8867,-4.8179,-44.3291,153.9112
68.5430,-17.5660,24.5054,24.3920,-42.2710,41.3661,49.0564,62.9314,92.8885,134.4276,26.7100,8.5462,-5.2663,32.1237,12.5434,69.3274,-13.4287,-64.1614,103.9014
61.3290,23.5800,-12.6635,14.6052,-85.3274,-30.3646,-15.5759,3.5299,47.5457,119.8940,20.6934,-2.0540,-37.1745,-20.8564,-37.5689,41.1686,-80.7019,-98.3950,16.3180
28.6875,6.6310,-79.0229,-50.1486,-138.4249,-93.3340,-62.6178,-33.4555,-8.2785,102.7526,-18.1499,-48.1049,-38.7411,-68.4139,-40.7729,11.3260,-154.5661,-131.3516,-54.2567
-19.9121,-13.6206,-123.4792,-101.0336,-159.7284,-130.6981,-58.2422,-56.0913,-13.9562,79.6612,-49.4512,-82.5041,-67.2226,-112.5937,-32.2783,-27.5516,-146.8067,-117.8376,-81.6863
-27.8838,24.9703,-108.1201,-101.8425,-136.2395,-144.8527,-42.2387,-57.4303,0.6243,61.4670,-56.9744,-82.0623,-118.7318,-122.1680,-38.0027,-50.0061,-86.3467,-70.9415,-48.8661
-13.9962,36.0506,-66.9048,-81.3861,-93.7814,-92.7259,-6.9162,-3.9672,22.8573,81.1031,-67.5199,-67.3108,-97.6056,-60.8420,-19.7080,-12.3773,-65.4729,-28.7189,37.6281
-40.5719,-24.2823,-67.3995,-47.0540,-68.5218,13.2881,62.5913,100.1807,72.6433,144.8624,-99.2443,-37.6517,-28.8211,44.4470,25.4122,74.4370,-88.1554,27.5273,134.2854
-82.5793,-53.1351,-97.9836,25.7759,-48.4016,100.6657,123.3748,216.9079,131.2176,231.1956,-121.7523,28.3983,-10.9795,135.5487,51.0498,159.8720,-75.3215,119.1940,206.5876
-83.7368,4.1645,-83.2875,111.8953,-0.8444,148.7859,156.6391,305.2400,167.5759,306.0232,-101.4201,99.4339,-22.0651,181.5392,51.6727,210.7480,-0.8865,187.9186,242.5455
-63.6617,68.6469,-21.8299,131.3161,44.6350,158.9602,177.9525,322.3480,172.1354,315.7479,-62.5307,107.7920,-16.8086,178.7375,56.9851,214.7742,62.7719,161.1509,235.1033
-58.9088,68.2286,18.2404,65.7382,43.1562,124.0097,173.2354,275.6163,157.0197,268.1007,-44.2449,61.3857,-29.2033,150.5191,72.0869,188.0659,59.9246,76.9970,202.7768
-65.2330,28.7243,22.1995,8.4609,15.1998,92.2379,147.3950,234.8043,163.7836,255.6479,-39.1476,37.6511,-48.9331,135.7533,83.9899,171.7745,24.9601,41.7249,177.3481
-79.9625,16.3850,17.0758,25.7853,-14.6598,98.3658,137.5692,224.3052,195.9030,290.9539,-31.2436,53.6718,-32.6684,140.5918,87.9620,177.1278,-6.2787,62.4918,159.5457
-102.8766,37.0872,-1.3238,59.0122,-54.7585,103.2593,132.9147,214.6303,187.6376,293.3046,-25.3770,62.6334,-14.2691,147.1315,91.6745,189.3639,-44.9291,64.9783,147.9924
-113.0406,33.2482,-24.0705,56.2562,-72.9318,113.6548,112.3855,218.8594,134.0270,266.4698,-13.5500,62.8813,-9.7662,158.9801,102.8012,209.2750,-67.8558,58.5041,155.9051
-100.8366,-6.0598,-9.1522,66.1896,-27.7722,158.1628,102.9902,238.1587,111.0975,248.9708,8.4119,81.1118,27.4970,170.0160,108.4771,213.5321,-28.0685,84.9103,158.4877
-78.4833,-24.3213,33.5654,108.2641,36.7833,161.2124,106.2649,206.6514,122.1504,197.2855,14.4041,96.4884,68.2530,146.1948,97.5150,165.3179,43.5217,84.0739,128.7927
-57.4064,-7.1025,49.2004,118.8707,56.1045,89.5856,92.2469,128.9287,109.1302,122.6296,1.2457,87.6047,46.7864,98.1771,89.2162,106.7571,83.5149,26.6058,99.9444
-50.4715,11.5426,39.1431,84.0778,39.4172,50.2563,68.6550,88.4957,71.2591,101.9887,0.6814,76.1870,5.5942,78.4438,86.9049,93.1152,95.5323,5.9076,81.0218
-66.7859,23.8649,41.8297,53.2468,20.3672,68.3058,41.3635,76.7924,30.0631,96.3634,8.2569,67.4927,5.6372,85.8119,63.5548,83.9620,88.1567,36.3135,32.0986
-106.6231,14.8072,32.3678,29.0217,-3.1427,63.0848,1.8562,52.1649,-2.1112,60.9271,-16.7792,42.4027,15.0105,81.7928,33.6668,56.7257,15.9790,25.6922,-12.6405
-176.2771,-46.4277,-45.8294,-5.8837,-47.2507,58.7611,-12.7402,73.3033,7.2236,83.8165,-80.1163,13.5874,-1.6735,69.9500,32.9102,66.0560,-115.6345,-4.1416,5.6336
-252.3161,-109.6613,-157.7390,-20.7575,-103.3812,94.6040,11.6025,138.6775,35.6751,154.2884,-139.9357,5.3743,-24.8774,60.3007,33.7550,83.0508,-197.3225,26.7919,25.7468
-270.1094,-91.1237,-195.1699,-1.9314,-127.6694,83.4062,9.6988,112.6584,2.2284,117.2262,-156.6033,7.4370,-35.4100,25.9679,-3.8457,19.0015,-156.0022,66.6305,-22.4177
-212.7135,-16.5352,-128.4604,13.8879,-89.7333,2.0834,-39.0059,-18.2592,-82.0296,-14.1514,-127.8287,3.3124,-31.2051,-35.9046,-56.2466,-79.6765,-52.0975,53.5533,-85.2340
-138.0783,32.9387,-42.4762,17.6170,-30.4984,-41.7428,-86.8984,-96.0898,-138.5966,-75.9384,-88.4199,4.1060,-27.8831,-76.3175,-92.8692,-105.8355,24.2793,45.8421,-109.1446
-100.6182,50.8564,-10.8344,41.8080,-10.3188,-14.1182,-135.1022,-55.1057,-169.4205,-35.1027,-83.2424,29.7844,-63.3092,-54.2609,-122.7140,-61.4362,56.5127,88.9698,-119.2005
-113.9809,75.2633,-24.2855,94.6199,-24.1515,40.9644,-191.5622,28.0387,-197.9160,37.1824,-120.5170,80.2796,-134.5887,18.2961,-151.3103,6.6175,58.9775,148.9572,-128.3394
-161.5191,102.5662,-57.1420,140.4403,-42.6111,108.6801,-209.1219,88.3832,-199.6921,93.1624,-162.0648,120.8482,-181.7628,77.8367,-170.7029,64.0211,25.2535,187.0895,-135.0334
-211.2405,87.5385,-115.3258,138.1611,-73.5723,146.2711,-194.6348,95.7447,-200.5634,92.5940,-186.4070,108.5260,-188.8418,69.3489,-184.8750,62.3556,-45.3569,176.0348,-156.7825
-244.4110,18.8413,-184.3014,93.2762,-111.1987,113.9262,-203.1001,47.5931,-242.3232,51.4924,-211.7305,59.0058,-196.6096,28.8635,-198.2447,24.6583,-121.6528,121.2425,-170.6369
-254.3852,-32.4426,-212.3123,59.9230,-119.2923,70.4276,-216.7231,-6.2366,-268.6950,30.5139,-226.9048,37.8654,-205.6427,23.6515,-208.8020,26.1741,-157.8321,70.9071,-147.6369
-230.2334,-9.1241,-186.8717,57.8533,-111.9303,49.0960,-217.0241,-44.2253,-242.0863,-2.2328,-196.1147,52.7874,-196.6550,17.8809,-221.5708,20.9410,-137.5974,24.0422,-140.3396
-177.2630,30.2530,-149.1293,37.4261,-135.9265,-8.6861,-244.1344,-97.8812,-230.2605,-81.3151,-143.2088,34.5496,-197.2202,-51.8674,-233.3798,-61.6906,-108.6984,-59.0013,-185.6585
-129.0108,10.0567,-129.7179,-34.0263,-177.6838,-97.7304,-273.9176,-148.8908,-252.4657,-115.0328,-119.9293,-44.5618,-216.1238,-132.6873,-226.0475,-130.1616,-143.7716,-145.2518,-226.8184
-124.3824,-50.7059,-149.3036,-120.1162,-202.1748,-157.1483,-251.3849,-161.4288,-245.7703,-78.2034,-127.8012,-122.9487,-213.3563,-162.1346,-199.3799,-117.3698,-244.2481,-185.8587,-241.0646
-166.3025,-100.1481,-212.9242,-164.7604,-219.2222,-199.1421,-214.4231,-170.5553,-199.7735,-82.1861,-148.6841,-146.8648,-187.2072,-183.9895,-169.7362,-120.9353,-321.9355,-203.8902,-262.3368
-202.3767,-122.1285,-261.7596,-157.8440,-239.1466,-241.3074,-200.9612,-197.0064,-157.6085,-132.8754,-168.0673,-144.5813,-169.8165,-223.0025,-142.5309,-167.3802,-322.5950,-227.9321,-264.1632
-201.0273,-135.1547,-264.4328,-160.8719,-266.2109,-257.8196,-199.7066,-206.8213,-154.1113,-140.2265,-163.6634,-167.5273,-160.1039,-232.2710,-130.5149,-167.1856,-312.7062,-262.0955,-223.8598
-194.5399,-164.9033,-278.6146,-216.4988,-304.0975,-255.0119,-222.2059,-197.8480,-187.3277,-117.0390,-149.9306,-192.1052,-146.3169,-204.8105,-142.5873,-133.2834,-336.1110,-287.7149,-190.3364
-175.0201,-170.7727,-276.7387,-235.7271,-281.3383,-221.9827,-218.8301,-166.2998,-175.6497,-94.3590,-153.3568,-150.3002,-122.2517,-153.4310,-132.3567,-115.8955,-289.3376,-224.5547,-151.3854
-107.0391,-88.2993,-165.3898,-134.2689,-146.0913,-116.5509,-109.4989,-82.8883,-70.0930,-36.3211,-133.1008,-62.0505,-79.4214,-65.4433,-66.0115,-67.3241,-136.3393,-63.9377,-65.9483
-55.5749,7.9000,-45.8570,-21.3390,-32.7323,-7.1902,1.7682,-6.2550,14.1263,25.8651,-60.9337,-22.1066,-44.0190,6.4278,-5.7301,4.8506,-53.8215,31.1497,-18.1100
-69.7760,-1.9971,-62.6670,-26.3577,-55.2970,1.7056,-15.0346,-14.0015,-7.4366,24.3789,-4.4091,-41.8649,-39.9105,-6.3975,2.2580,14.6399,-117.0808,-6.4589,-57.2146
-70.1845,-54.8602,-102.4709,-82.8697,-89.9379,-36.2367,-62.4066,-44.6666,-48.7799,-9.3827,-8.7262,-55.8495,-31.3215,-48.8931,3.0020,-19.3316,-152.0267,-29.5019,-74.2940
-34.3115,-35.3359,-44.6211,-85.9411,-35.8775,-32.2762,-45.7751,-37.9371,-59.0027,-25.4886,-17.8599,-56.5655,-5.0997,-52.8227,11.6902,-33.8440,-83.1156,10.2567,-38.2248
-16.8560,14.8742,10.7415,-41.6231,19.8094,-14.0220,-18.0003,-49.0045,-51.9249,-26.9141,24.8589,-56.4446,7.8092,-47.3319,6.0223,-38.5221,-15.9594,17.9158,-24.0569
9.4008,35.6792,13.7868,29.5746,36.0213,0.8910,19.4570,-68.7680,9.7434,-6.8171,88.4371,-15.1323,20.8142,-33.8857,18.2633,-20.4016,31.1194,18.7156,-8.2908
26.0478,58.7329,19.5221,101.2477,40.5559,36.4061,48.2423,-28.5588,65.7598,25.4882,88.4833,58.8599,32.9913,13.7165,49.7974,32.2928,64.7477,63.7789,16.6417
-50.6444,89.3246,-2.3129,116.9692,6.4142,55.7427,-16.0271,12.9010,14.6945,32.0699,22.6429,96.9453,2.6613,37.0843,46.0584,41.0443,21.6157,81.6968,-26.4635
-109.3518,112.6852,-26.0854,112.1559,-13.6417,52.8183,-57.6501,-0.2368,-14.0923,32.2320,14.3195,111.3665,-11.7091,17.5719,36.7731,2.2516,-8.8301,82.3181,-60.8045
-29.4553,150.5782,47.4358,160.8257,65.2148,96.2180,49.8663,19.5816,65.9489,51.6611,92.2479,148.5007,48.2238,40.4098,59.1519,19.3233,94.1135,141.2233,22.0385
15.7312,165.3320,112.6374,192.5355,123.7656,151.2953,101.4182,85.0655,54.5217,43.1724,99.7067,155.1833,59.8122,86.4091,36.8554,51.2620,168.3814,167.8028,86.8894
-72.3693,102.7008,35.4547,127.4328,49.1204,115.9824,-15.6369,87.8523,-65.2249,3.6947,0.0586,89.2390,-40.6810,53.1485,-38.8161,-11.9665,79.0162,99.4327,41.3271
-87.3509,41.6724,-32.2213,55.9714,-16.0432,46.0373,-45.2780,56.9074,-35.4354,17.9015,-33.4258,33.6534,-85.6992,-4.1271,-47.1329,-67.9953,18.0070,83.4861,43.8030
23.1379,58.5042,32.9457,51.0059,27.0664,54.5199,87.4928,98.0417,115.7546,90.5932,31.8493,44.5825,-1.1145,15.8716,24.9024,4.6444,90.7207,147.6814,134.5643
73.9969,62.7098,77.5802,31.6219,56.5449,75.0597,155.4536,137.5028,159.6315,108.8772,42.1458,45.5684,68.5587,35.3374,68.0251,72.8372,119.4119,113.9129,152.0697
62.8426,-17.6480,26.7650,-48.1921,23.3788,-2.1803,118.5500,65.2632,126.5094,23.2055,-11.8862,-24.4024,62.0918,-25.2785,49.6807,14.4710,52.2550,-18.4928,82.8509
95.0455,-89.4158,6.7748,-112.0913,9.6522,-95.5032,71.9428,-30.5306,87.1906,-63.9876,-23.1041,-99.7042,40.8301,-66.6062,6.7343,-46.5705,20.0712,-75.4089,35.2882
104.1505,-78.0492,38.3858,-102.1168,12.1442,-72.3688,-6.7912,-32.2487,-23.7244,-47.7354,-21.5054,-95.9967,4.6584,-15.0953,-31.2839,-10.8974,24.2562,-51.0554,8.7073
39.2690,-44.2142,28.4376,-46.8054,-15.3009,8.8478,-69.7703,9.7348,-112.9165,19.4301,-67.7928,-36.6952,-38.4398,38.3183,-26.7257,27.4214,-7.0058,-60.2925,-19.0164
-14.3429,-44.1218,-21.2521,-6.3799,-50.1521,9.9816,-35.6210,17.1237,-66.2338,34.3333,-96.3059,-4.5230,-28.7256,24.9385,8.2318,12.9595,-50.1261,-103.5726,-20.6293
-33.1285,-49.4194,-50.0386,-7.3965,-71.5213,-47.4787,-16.2434,20.6337,-30.7883,34.7719,-66.4629,-15.4226,0.6637,3.6985,0.9925,19.9942,-81.7987,-115.8709,-15.0180
-57.2267,-32.6737,-45.6397,-19.6113,-76.3512,-52.3663,-83.1459,52.1117,-91.4304,87.8931,-40.2597,-22.0125,-18.5360,21.4682,-48.5504,63.9099,-109.9910,-89.7845,-23.7185
-80.4962,-15.3973,-40.4898,-12.5092,-59.4661,-7.8122,-129.2273,69.7376,-117.4272,123.9293,-51.1679,-8.3967,-54.5914,44.9335,-78.7833,76.9533,-118.3937,-62.9487,-25.3757
-98.9455,-20.6488,-65.8589,3.7323,-52.5762,19.5090,-131.8356,55.2867,-91.1727,99.2950,-73.9225,10.2882,-76.1439,58.0952,-82.3530,62.6205,-121.0277,-62.9974,-33.5146
-98.8343,-32.9856,-81.0694,28.6239,-53.2406,38.7850,-122.0016,43.9806,-76.3041,85.4150,-71.0002,38.9896,-93.2322,83.6067,-61.5299,69.3712,-127.8258,-60.5841,-64.0309
-46.4662,-15.7453,-27.0999,73.3131,1.4917,73.7054,-54.5041,31.2167,-36.1488,67.8835,-12.8791,75.8216,-65.9719,99.9181,-4.5982,67.6345,-86.0686,-9.8601,-83.7498
-6.8126,32.8970,25.9474,103.9974,67.8321,90.8875,7.1316,-8.2741,-1.3142,1.5487,47.5600,94.7995,2.4992,72.5756,34.3328,30.9356,-19.7005,44.9295,-81.5204
-54.2368,61.0452,-8.9739,90.3376,36.5462,79.9240,-22.7086,-20.1579,-28.9120,8.4609,17.6375,95.0253,13.1120,49.9689,17.6455,33.7580,-23.8866,31.1460,-56.1286
-95.7092,42.8158,-51.1980,74.2657,-32.4556,79.5937,-29.0930,50.0800,-30.5983,136.3340,-47.9096,102.2796,-31.9856,84.9453,6.8048,101.3631,-48.1961,-2.6644,12.0063
-55.9744,34.8092,-24.6846,100.0528,-22.9808,98.7007,18.6291,124.6148,-7.9316,184.6571,-28.7357,118.6617,-26.2531,115.4785,16.9493,119.5547,8.8982,28.4648,67.0862
-33.7746,76.6475,-6.4372,135.7994,9.8745,103.3334,-27.5084,101.4774,-73.7657,77.0307,19.7630,116.7377,17.6636,69.2691,-3.3500,39.0544,71.4520,82.3400,40.1738
-64.0800,109.0707,-26.5151,123.1733,-1.3952,69.5208,-94.2456,11.2559,-117.3699,-16.4499,-4.4234,77.5758,13.7445,-5.4611,-13.2521,-36.2243,54.6300,79.5499,-6.8307
-48.9002,84.5531,-14.3018,62.0222,3.7990,14.4677,-19.3778,-62.7723,-14.9332,-45.2944,-30.9962,27.4094,-17.3681,-35.6127,37.2385,-53.2544,34.5812,52.0914,-17.6948
11.9663,53.4517,27.3823,13.6111,43.0926,-10.2366,58.0353,-98.9648,55.7065,-85.4749,12.6619,20.2957,-15.7840,-27.8216,70.1942,-60.1137,57.2978,64.4328,-37.7098
48.5655,59.8837,66.0839,23.6429,67.0858,21.3982,16.9869,-91.9053,-4.8930,-79.4938,57.2433,58.6199,12.6289,-4.6366,36.0637,-45.5993,76.5890,97.9657,-37.6339
65.5688,75.0475,112.5055,66.4770,86.3467,68.9205,-14.4556,-29.7441,-49.1657,20.7047,58.9877,81.6440,32.3966,30.4862,-7.2572,20.1292,94.2340,109.1818,38.5784
47.9307,71.6642,109.6017,87.4789,89.8019,81.4724,-30.2217,46.8174,-64.4926,102.5141,44.0073,56.5262,14.9654,40.2297,-40.9892,55.2898,92.5265,96.6660,84.2910
-25.5034,54.3903,20.3580,62.9549,20.0329,44.1384,-103.1009,69.2732,-99.8822,101.7936,8.8324,3.6879,-17.6568,-18.3648,-64.9353,-9.9702,6.6507,59.3734,24.7161
-47.1624,29.8845,-20.3138,1.3608,-54.8739,-38.2709,-97.8615,19.5358,-45.2863,56.0736,-14.2460,-56.0342,6.3239,-121.1719,-31.5030,-107.2697,-81.8837,-7.4920,-25.4626
42.4799,10.3435,61.9537,-60.1091,-22.6083,-128.7386,10.1616,-65.2593,50.8882,-31.7957,35.2186,-100.6538,66.9785,-199.2712,20.0025,-156.5513,-38.5724,-63.2502,-19.4058
103.5247,0.7581,117.9284,-73.8811,46.3130,-165.0934,16.4470,-126.3710,3.7008,-114.8158,86.8940,-103.2054,56.6237,-203.1463,-3.5468,-156.6293,47.2017,-69.3368,-33.8148
56.9400,-16.0871,63.0305,-49.0962,34.0911,-137.4874,-45.2803,-122.0411,-61.4670,-87.8789,41.6026,-75.6339,-3.5243,-133.1708,-44.3889,-113.9910,26.8754,-59.2702,-43.1036
5.9794,-40.7412,2.7507,-44.3858,-11.1087,-93.0858,18.4847,-72.3404,36.7053,3.0970,-30.2962,-54.1858,5.0250,-42.4547,-5.7528,-39.6591,-38.3898,-72.0202,-0.6785
-9.2622,-56.3827,-22.2547,-68.9145,-20.4168,-59.5482,113.4694,-31.4687,129.4537,24.0600,-45.3992,-45.9630,56.3140,13.8784,47.9341,21.0749,-59.0739,-81.4964,24.1654
-48.9578,-66.3404,-77.8366,-76.7381,-35.3717,-35.1181,102.0942,-9.4762,104.0430,2.2529,-65.3484,-34.6158,45.0487,42.4536,46.8284,58.2065,-74.4043,-60.6628,22.8587
-86.6312,-74.5951,-141.7494,-58.5369,-58.7885,-21.4670,104.8912,9.6181,125.7607,16.2559,-109.7942,-12.4855,2.5268,66.7703,46.2073,94.0834,-76.5821,-36.1705,60.1679
-49.2562,-82.1629,-130.7508,-56.1697,-26.0033,-27.3576,170.3816,3.5139,193.6238,3.1177,-87.3488,-4.9791,10.7039,53.4329,61.5957,93.6247,-14.4364,-42.8613,84.6479
44.4566,-115.9618,-54.0342,-96.7419,28.1709,-62.2402,162.0048,-41.7082,158.1309,-66.7181,-11.3190,-53.0599,40.6694,-15.1721,38.4941,34.3835,40.1867,-75.5273,48.7155
125.1086,-161.6729,12.7943,-144.2746,14.7689,-97.3013,82.6869,-73.6325,98.3908,-72.8841,5.6123,-115.6799,38.4549,-56.7670,8.4403,6.0976,32.4477,-85.0565,41.1295
165.9686,-138.4944,51.0251,-123.0032,-19.0561,-64.8863,53.8422,-53.4159,118.8668,6.4906,-20.3391,-86.8837,38.0073,-9.3690,42.1273,59.4636,61.2014,-34.8773,71.7959
191.6821,-61.4128,109.0832,-33.2357,32.9464,15.1638,83.1197,-26.7841,122.3466,21.9906,9.0037,-2.7518,89.9885,41.1182,110.3276,84.2686,151.8579,20.5710,41.2685
218.5152,-57.7664,185.2737,12.3687,131.1317,29.1265,127.0724,-36.5110,87.9632,-51.8111,58.6079,-17.1365,161.5303,1.6105,145.3530,16.6328,173.1989,8.5661,-4.8366
204.7439,-118.2345,190.7514,-25.0351,159.8232,-15.1624,169.6947,-40.1540,107.3428,-59.4962,35.2904,-94.1012,179.4996,-51.3810,138.8609,-21.3070,105.5049,-15.2699,46.5585
121.9826,-93.9896,106.0476,-27.4155,120.4068,11.8752,167.4789,13.0086,124.7325,32.9955,-15.8885,-54.5487,144.5933,-2.9654,106.5572,45.2993,68.7568,36.3294,126.3208
37.9904,4.6563,47.5264,47.0074,93.5641,96.7603,110.7256,89.6769,61.4745,88.9494,-3.9654,59.0172,116.9443,89.8112,55.7680,98.0030,73.0329,98.2140,123.2261
20.4408,26.1171,75.6742,74.0906,97.2712,106.4914,63.3711,115.5880,4.8578,62.9120,28.8694,61.9317,96.3748,97.6153,10.7830,52.7810,47.7458,70.4313,83.6394
33.2174,-24.5144,106.7296,14.4557,96.7135,47.5204,47.6498,67.3366,12.5457,31.5632,2.7247,-12.5450,42.4170,36.5977,2.8585,-2.5360,23.2436,2.5054,64.2589
24.8312,-27.2484,90.8716,-17.7801,84.7272,23.1908,35.9972,-4.8753,22.5557,20.4096,-41.2664,-13.5633,-4.5131,21.2401,32.3874,6.8955,41.8421,-11.9198,25.7174
13.0542,7.4372,83.4529,21.4654,87.4207,43.5416,37.8332,-28.3795,20.9920,16.2028,-24.4810,42.9018,21.0827,76.6326,65.6448,38.7525,57.1991,21.0558,-31.2628
22.0804,8.4214,104.6693,66.0695,110.3274,67.2166,43.4771,6.6766,18.9375,31.7275,33.3286,73.1449,73.4342,124.7726,63.2444,51.3410,52.6120,46.1366,-51.2819
37.4749,7.9907,109.4067,86.3111,112.3300,80.0804,-1.2064,37.2022,-21.2665,53.2544,64.3799,83.6465,69.2890,114.2301,22.0652,56.3369,62.9203,40.6100,-36.8817
45.1922,42.6806,98.7357,97.6521,83.1583,73.7178,-49.2722,41.0443,-48.4974,67.9598,56.4379,91.2629,37.0627,83.9363,-4.5639,63.3682,74.5647,40.7400,-4.7813
48.3487,63.0645,116.1273,107.3406,94.8863,69.0675,9.9960,64.3703,27.7534,94.0982,46.7121,92.7397,58.2015,86.5517,28.2801,60.8480,72.4644,95.8022,57.7566
49.7937,47.6005,146.1625,124.8701,161.4308,94.5684,100.9929,83.8806,90.9446,80.1145,59.1017,108.3606,117.0908,95.0190,74.0980,26.8963,89.7873,161.1174,93.2077
49.4528,47.3841,136.2869,145.4297,172.8633,111.1764,48.3515,26.6604,-15.5761,-18.5465,78.4796,128.3662,124.7889,66.6320,60.3833,-29.6713,123.6480,157.9558,29.7188
48.1674,85.4939,104.9632,148.9518,108.9258,94.9764,-77.6773,-41.0309,-150.1531,-70.8550,84.2626,120.4308,67.7925,51.4045,15.2809,-39.9078,140.1385,133.5995,-50.2014
48.9172,128.5826,116.2246,146.8900,93.2556,100.7018,-80.0302,-8.4188,-118.2894,11.4125,90.9307,110.2030,28.9180,92.2444,6.5790,16.9312,146.7021,143.1694,-44.5529
60.5759,141.9154,161.6826,149.5454,138.4366,120.1012,-18.9804,37.5113,-45.7381,65.8941,118.0753,123.3107,47.4918,110.9711,11.2898,47.5382,148.3372,103.4323,-28.8929
84.5870,112.7185,175.2969,128.9468,135.3727,79.8744,-55.4774,-19.6541,-91.4477,3.4085,135.1480,124.1782,63.9959,64.6028,-12.7964,19.8071,129.3851,8.2729,-63.6623
92.0204,62.1679,135.4398,92.1381,91.5537,23.3482,-103.8287,-68.8088,-124.1760,-21.8284,98.1957,101.1882,36.6980,42.1385,-28.3828,24.8147,108.2114,9.3433,-42.2391
50.9669,42.1703,67.7114,84.3582,78.5293,38.2319,-38.6614,-4.7100,-36.2952,22.4911,28.5883,80.8820,1.2091,61.8515,-12.7755,57.1107,92.7311,106.5780,58.2643
-13.1059,65.2410,1.6733,87.3855,65.1672,69.5054,47.5042,49.9696,40.2689,-1.3873,-14.0839,51.1566,-14.2441,27.2329,-7.9914,13.4518,50.1202,131.7138,105.9822
-42.3855,69.2710,-38.6373,50.5158,18.4339,39.4237,67.7930,16.5399,43.5274,-49.1780,-22.6247,3.7860,-24.1056,-49.2257,-17.0273,-65.0083,-10.0392,64.8494,85.9088
-33.0287,11.7144,-61.2817,-9.5147,-31.6309,-8.5042,66.3392,1.1976,60.3843,1.0922,-32.5221,-24.3705,-30.1283,-76.2641,-6.0873,-69.7936,-53.5393,-2.8819,81.3170
-20.5918,-60.8377,-91.9650,-61.6604,-92.5987,-41.7543,38.3950,23.3129,68.5885,54.2746,-44.4551,-42.3273,-20.4160,-88.3127,8.0870,-45.5402,-100.5884,-78.8749,57.1371
-11.5710,-98.6934,-112.6750,-123.5834,-170.4741,-100.5684,-32.3824,-13.1810,8.1926,15.7853,-42.8987,-100.3833,-7.1874,-138.9091,4.3904,-56.9475,-160.0286,-169.6933,-16.3933
-12.7140,-122.4385,-112.9254,-189.1233,-214.4795,-170.7048,-59.8564,-78.0768,-26.2525,-12.9346,-58.6025,-170.1599,-11.7128,-158.5667,7.5997,-57.1364,-194.1438,-214.9353,-42.4776
-49.8197,-149.1567,-146.3707,-211.9900,-226.8964,-199.5536,-16.9696,-86.4155,32.8521,10.5763,-113.0623,-185.8303,-38.3068,-126.8885,20.0197,-44.3880,-210.1190,-222.6797,-5.3616
-89.2878,-147.7449,-202.5804,-195.2414,-242.5465,-200.0451,18.4977,-76.8660,96.0937,4.2227,-146.4174,-165.2131,-66.1542,-128.1571,21.7120,-57.7973,-228.4011,-230.8513,6.0070
-67.9176,-120.6078,-179.1035,-181.1466,-215.1238,-189.2883,42.0779,-83.7080,110.3691,-13.1320,-110.2003,-151.7514,-59.0958,-141.0738,28.1514,-34.1100,-205.6952,-210.9917,7.5247
-20.1389,-121.3018,-90.0576,-170.4522,-130.8038,-140.2994,85.0821,-57.0560,117.3101,18.7657,-59.2472,-129.7157,-19.6031,-74.8900,40.6362,47.9918,-135.0150,-172.1934,47.7483
-14.9104,-157.5022,-57.6171,-148.0411,-83.3509,-75.3862,99.1340,-11.5756,123.2910,38.9091,-45.0580,-92.9034,-1.8419,9.1343,24.4247,70.2970,-83.8476,-173.5716,67.3102
-21.2132,-175.8838,-72.0918,-132.8357,-94.1694,-55.7351,68.0173,-8.1041,110.6488,4.7906,-32.8400,-75.2895,-23.0562,3.1799,-5.5168,16.2776,-60.8786,-191.3812,43.2427
1.3332,-152.9439,-42.0199,-132.1909,-80.1684,-65.3180,54.6204,-14.8759,97.1435,-11.5567,-5.8971,-76.2837,-27.4945,-36.1427,3.8583,9.4936,-20.0559,-167.4612,43.1266
9.3880,-121.3097,3.0079,-120.3158,-27.4048,-50.2971,78.9248,12.8719,99.8805,17.7568,-0.4830,-76.4530,23.1449,-16.2831,46.2061,55.9332,28.7861,-116.7837,72.8736
-8.2985,-109.5971,5.8625,-97.6323,16.6074,-25.5899,111.7400,34.7708,119.3507,30.6110,-5.6146,-90.2996,91.4750,17.8087,74.3017,64.3680,58.8542,-62.9873,89.6649
-2.7656,-107.2904,11.0900,-87.0856,54.4113,-25.7874,133.9800,20.0840,141.5127,1.0124,16.0775,-103.1067,114.8998,-1.7990,76.8037,36.8555,81.9211,-1.2001,90.0505
13.9889,-86.6766,51.3809,-69.9925,102.4140,-33.9994,122.8435,-7.8870,129.6562,-37.7450,43.8462,-62.5603,78.2292,-43.2483,70.1558,3.9449,100.7543,50.1376,66.4961
0.6343,-42.5829,87.6478,-20.0027,145.5276,-28.6061,80.0497,-29.9892,83.1851,-49.4681,51.4029,3.2254,37.1062,-51.1049,63.5757,-38.7539,108.8567,83.3406,30.2789
-26.0430,-4.9169,95.7919,26.1429,178.4505,-9.5012,66.5096,-15.1186,70.2283,-11.6651,48.1397,11.1630,58.8026,-21.8978,69.5652,-39.6601,117.5097,127.3442,54.0082
-57.3388,6.2225,83.0995,34.7282,216.1047,30.6954,120.4249,64.8315,122.7912,53.5927,27.5029,-20.3350,126.8930,18.5948,103.2270,31.8263,129.9678,180.3175,132.2132
-103.8456,19.9543,68.8537,57.2281,263.9872,83.5459,185.0257,146.9294,167.2962,80.3219,-2.7370,-4.3520,156.6480,48.6346,141.0038,82.1283,151.7650,214.9454,149.9095
-116.5156,60.1162,88.3097,134.7478,300.9217,118.0885,184.0446,149.0784,145.7331,56.2699,15.1596,60.2914,125.6483,71.4370,138.4941,62.8055,200.8640,232.1033,97.2152
-61.1247,89.2922,141.6755,200.7312,295.3262,137.5903,142.5355,108.7415,126.8053,43.7494,84.6307,110.4381,108.6870,105.0327,120.7984,57.6784,253.7428,225.6386,84.4646
-1.1232,75.6757,178.4278,190.4133,253.7856,159.2746,147.0818,99.3115,170.7427,56.6651,122.1114,125.0658,147.9161,133.6732,152.4202,89.2001,266.3556,175.9321,114.2784
7.7852,50.7749,171.4655,144.1439,213.2457,154.7096,178.9560,105.4152,182.0460,43.2372,91.2005,113.3528,179.8247,122.9966,198.3864,85.3566,251.8210,117.8324,99.5432
-16.9512,38.7491,138.5134,113.9223,181.1188,116.1228,142.8514,99.9012,87.3475,11.9104,46.6926,78.6560,144.0513,95.2371,172.6726,59.4514,241.3571,102.3931,60.1245
-42.2069,19.7427,111.5205,87.7059,157.3186,101.3729,68.1760,98.5122,8.9078,13.1046,36.9095,39.8482,78.7317,97.3809,100.6129,76.3803,224.7610,97.8495,57.8902
-37.5761,-7.3856,121.3592,56.0489,166.2636,112.5411,53.0385,84.1604,34.8668,15.9278,54.8239,22.7637,52.2490,102.8342,59.1547,95.0469,194.5176,45.4777,57.5382
-9.0735,-20.9067,145.0409,37.7098,186.7737,73.3288,65.0792,33.2327,55.9719,-23.8750,61.6079,29.9162,71.1201,60.9097,48.5845,48.5084,160.0032,-24.2584,31.2382
-23.2829,-19.2855,107.1983,29.1129,153.5152,-7.8314,38.6012,-15.5613,15.9286,-57.0246,29.1830,41.1124,93.7807,3.3589,49.0460,-19.9655,106.7255,-51.0629,12.5688
-82.7744,-15.8205,8.3823,4.3158,69.7088,-49.5652,5.7169,-48.2051,-0.1967,-55.8477,-17.9914,15.0021,86.9974,-26.8741,55.6303,-52.4072,23.0385,-70.0188,-23.3960
-96.1951,-38.3779,-64.3306,-53.0787,-9.4774,-77.4379,-27.8519,-112.0950,8.8304,-81.1068,-43.1557,-74.3468,52.1882,-70.1975,34.6451,-86.9066,-65.0231,-143.7126,-99.1334
-58.7303,-103.0463,-87.7502,-127.8517,-75.3236,-161.1375,-85.2450,-190.3302,-14.1657,-134.7101,-62.9145,-163.7651,12.2008,-144.7946,-9.9387,-156.8260,-123.0848,-221.0283,-125.1378
-45.2770,-145.3281,-98.2010,-162.0958,-122.9874,-232.8147,-99.0096,-214.8074,-35.2403,-152.3366,-82.3097,-154.4904,-19.1870,-173.5591,-22.0813,-201.4044,-122.5135,-212.6913,-78.8264
-31.6828,-96.6515,-71.6684,-117.8851,-104.6518,-195.2046,-51.4782,-206.6403,-47.8366,-155.7039,-45.8910,-63.3844,-34.4315,-125.9579,-17.0042,-178.1712,-48.9018,-141.6792,-78.6058
31.0314,-15.3103,18.9004,-40.3720,-19.8607,-94.6674,-49.3246,-214.1606,-92.0175,-191.5237,37.6638,5.5898,-20.6352,-71.5720,-42.6268,-144.2412,53.1049,-73.5403,-125.8028
80.1522,18.7347,112.8618,16.0879,63.6330,-16.4574,-83.4474,-192.2960,-96.3064,-200.9504,67.3722,23.9935,11.0990,-37.8500,-55.5772,-139.1780,105.3514,-7.0838,-89.3811
67.6591,32.4794,148.6871,54.6658,110.5360,31.3050,-41.6905,-112.4712,-21.0587,-141.7748,26.5994,32.8458,26.5077,-0.3263,-19.9536,-122.3813,89.4070,53.6228,11.5059
32.4250,45.9199,131.7757,71.2236,127.4132,44.6833,22.3235,-48.0962,-4.3730,-89.5755,0.2254,31.3570,19.1632,6.9624,5.1625,-90.1382,43.3748,73.4930,46.5066
-10.4532,16.3735,88.3056,43.4255,112.9297,13.0951,11.5340,-34.6784,-74.6781,-87.1743,8.2145,-1.2662,9.2238,-39.3302,0.3680,-91.5503,-5.1044,72.7070,26.0804
-55.6795,-39.8929,49.0177,0.6816,83.2784,-16.9330,5.3465,-20.9293,-66.7968,-73.8370,10.7463,-38.0833,3.3449,-63.0065,11.1777,-101.7171,-41.2347,77.1481,34.0582
-57.2598,-67.2175,37.5870,-14.0572,69.8993,-9.2334,40.1467,-3.2019,6.9192,-31.9293,15.2749,-36.6183,-2.2919,-19.7888,14.7796,-60.5684,-50.7320,49.1406,51.4039
-15.5364,-67.4901,39.1581,-5.2989,62.9431,4.5007,-1.8450,-28.8109,-29.8780,-32.8875,39.5409,7.0121,-13.7284,24.3857,-31.9674,-9.0423,-29.5295,-4.3095,31.5516
25.7344,-40.5123,45.8190,25.1874,41.9424,10.1209,-101.3432,-77.0763,-122.5407,-96.5257,66.2289,56.0291,-35.0429,27.4454,-74.3728,-11.4205,26.5668,-5.7912,4.0184
67.0155,37.6900,81.7236,86.0984,37.0357,30.7902,-95.0939,-83.8073,-86.0426,-137.9940,85.8431,74.2564,-35.6032,19.7225,-52.3826,-32.0040,106.6552,53.5552,17.8149
100.6762,126.3722,125.6069,137.2349,75.8140,51.0184,6.0233,-43.2680,22.2847,-100.1776,95.0876,74.3493,15.9149,12.5746,-6.0007,-24.2371,157.3732,108.7396,73.3424
84.0537,153.3646,119.6385,131.9188,115.7345,43.2292,57.5331,5.2857,42.0600,-33.7308,83.7299,83.8733,66.9831,2.6740,6.7240,-4.1251,143.1071,112.7791,133.4662
43.4085,105.2560,72.7878,84.6496,102.9153,28.3579,61.3600,45.9679,31.5518,18.1130,64.6257,75.8454,48.7020,15.4120,0.3966,33.3541,99.4675,47.4567,183.9056
40.8092,12.5904,30.1078,28.8831,53.5988,29.8830,116.2253,94.8227,131.0417,92.0096,43.6713,22.9921,0.1410,53.6339,21.8270,111.8342,57.7783,-42.8834,248.2646
45.9370,-81.3082,-17.1552,-31.3427,14.7115,35.2267,200.3990,157.8573,278.7164,179.8307,-5.7932,-35.6100,-13.1089,79.2086,67.3151,187.8562,-1.3548,-68.2261,306.8634
6.5938,-146.1391,-75.1180,-103.0925,-8.4633,25.9466,216.6483,201.3062,310.5695,201.9754,-64.1517,-75.8516,-11.1416,71.1602,85.0352,203.3254,-61.2647,-50.1306,301.6705
-25.5444,-184.1980,-88.8571,-168.1774,-23.0943,-8.9216,172.4272,190.8020,232.4082,168.7656,-62.3681,-116.3717,-13.0108,39.8847,65.6729,167.3766,-53.6115,-82.6885,255.6407
17.8287,-170.2856,-33.9822,-169.9972,-12.9630,-61.7502,148.8498,140.6699,177.8907,147.4698,-1.0820,-121.0375,11.6675,5.1524,58.8248,105.8910,19.6467,-123.4940,217.9115
95.8580,-72.7795,31.3147,-88.1437,6.7900,-94.7915,139.9846,69.4603,167.1295,85.9326,56.0775,-52.3881,46.5962,-20.4773,71.4918,20.7497,72.2384,-94.2968,142.9087
129.6690,18.5478,59.1039,-15.4689,-9.2314,-92.4412,94.3767,-34.7107,131.0708,-67.2828,92.0438,9.5535,49.5332,-54.4272,59.0475,-69.0561,70.1642,-65.1369,28.6769
121.5973,-4.9391,56.8668,-37.5426,-45.2820,-86.4968,64.3780,-135.3575,100.3294,-186.3822,113.7236,-10.7576,40.7720,-107.8754,29.7157,-122.8051,55.5019,-80.9705,-3.5126
112.6122,-76.0182,27.3352,-94.4515,-52.2695,-87.5343,116.0955,-148.4732,134.6916,-169.9490,94.6306,-58.3262,42.5950,-129.3080,33.8837,-114.5909,36.0663,-65.3777,58.2225
96.9328,-96.0525,-28.5891,-110.7698,-47.7077,-76.4809,178.2063,-89.3804,175.9711,-118.9182,42.2392,-76.4057,39.3291,-85.5763,68.9127,-57.7924,-8.8326,-37.8780,78.1266
69.3757,-103.3845,-64.9035,-122.0781,-60.7008,-70.3654,165.9164,-64.7259,162.1393,-123.2215,15.9887,-83.6417,47.4525,-46.7011,93.8811,-9.0460,-42.3940,-85.3150,30.8941
64.5431,-121.4357,-54.4189,-150.1462,-63.8397,-90.2858,109.9824,-85.3087,127.4605,-116.4612,19.6630,-83.0685,78.6595,-63.5449,93.4833,-6.6136,-30.7237,-142.3151,-1.5828
72.8708,-108.2968,-48.0022,-154.1925,-57.7819,-106.4520,51.6085,-71.5390,97.2297,-54.1515,2.3908,-76.5129,80.4783,-76.9573,76.5318,-15.5238,-19.3498,-125.3998,-15.9532
54.9848,-94.1959,-68.2706,-149.9691,-76.2767,-107.4180,0.8647,-33.2515,64.9149,-10.7404,-15.8899,-103.6624,41.3814,-64.6592,55.0164,-12.2240,-27.3897,-105.6816,-30.6371
62.6483,-103.6176,-49.2492,-172.9758,-82.1028,-133.6097,-2.0725,-44.7878,53.4354,-38.8198,31.3828,-147.5662,24.7724,-100.4754,36.9271,-42.5102,3.3439,-130.1628,-15.2981
149.4997,-79.5589,21.1611,-188.1638,-38.9225,-184.0639,40.2503,-81.5791,66.6404,-75.5232,108.9330,-152.3955,40.4192,-178.6292,29.9540,-98.0516,60.5552,-137.1945,20.8169
219.6659,-48.6424,50.3347,-182.5083,-14.7599,-202.6981,63.0746,-63.2508,81.7565,-40.0905,119.0341,-147.7259,49.7611,-189.9729,47.6374,-91.8944,51.9887,-118.1717,54.4772
187.0887,-94.3786,9.8197,-193.0366,-44.9036,-171.9792,71.3865,-4.0985,104.6410,29.2163,77.4951,-171.2260,63.1905,-121.7352,78.8747,-37.1167,-7.6666,-111.2377,100.7205
138.9356,-152.3245,-16.6234,-193.5788,-51.3025,-121.8356,98.0328,19.9089,111.5612,24.9709,79.7359,-163.2732,86.8501,-73.6871,80.9852,-40.4001,-15.3229,-100.2269,119.9617
160.3775,-110.7518,15.3008,-137.3679,-4.4591,-77.5492,82.9772,-6.6923,52.1925,-45.3670,128.4740,-92.0417,90.6858,-74.8213,51.0042,-94.6791,32.9988,-73.6762,53.1321
204.2449,0.8863,70.2177,-62.1109,38.7129,-56.9644,-2.7565,-38.6134,-26.0678,-71.8370,162.5678,-21.9872,93.5745,-65.3690,29.5345,-103.2217,73.9827,-41.8218,-36.6832
222.3962,96.0731,121.2496,-11.4420,69.9149,-52.7202,-62.5133,-31.7912,-44.3452,-26.0700,181.9437,13.7564,122.0237,-23.7683,22.4312,-57.8664,107.7762,23.8538,-54.4341
220.0775,134.5323,160.7755,31.1661,111.0879,-13.4240,-33.6144,30.5728,-25.5825,41.3329,199.9405,43.7854,131.6631,27.5784,28.3123,-0.3147,145.8263,118.2011,-12.3916
191.6167,120.0376,173.9602,71.4668,137.4957,72.1084,33.7440,113.7198,2.5333,107.3608,183.8970,76.9091,110.9663,79.3719,77.3828,66.8946,156.0515,156.6130,39.6985
150.5747,101.7970,160.1314,83.7280,144.4990,117.8524,80.5825,135.5485,58.0954,128.6499,142.3274,92.4036,119.8102,104.9643,140.3036,103.5820,138.0304,98.5106,75.8932
136.9998,85.7682,132.5404,41.3847,153.5798,56.3115,86.8697,56.1820,93.0324,50.5379,130.9678,52.4831,147.5145,56.8044,137.7533,44.7233,120.4448,-4.7099,74.6825
139.8339,5.1050,99.4871,-63.0169,129.4995,-53.3991,66.9107,-51.7422,66.9158,-51.4797,137.3493,-52.5152,125.2523,-36.3807,84.3374,-53.6564,90.0226,-87.0728,60.5872
123.9263,-94.4467,73.1026,-152.3562,54.8165,-97.7675,64.3738,-73.6266,59.6950,-43.9863,108.1009,-116.8232,69.8598,-58.9889,56.5056,-64.8811,39.1943,-92.5708,87.0871
103.2940,-76.6057,63.6455,-107.4270,8.0764,-32.5640,86.8545,14.9266,104.6064,55.8910,65.1975,-32.3018,35.2130,34.2869,59.8899,15.4112,17.0509,-4.1819,133.8526
106.6416,21.2757,70.7671,40.5769,27.7064,88.0332,86.8482,119.4954,100.1603,120.6695,67.8754,106.3387,16.4946,136.8230,61.2110,77.3821,51.4464,100.1716,133.0493
134.4813,69.8942,96.8975,136.2418,46.0582,167.1251,36.0068,137.5007,6.0645,88.3037,113.0007,140.6768,16.6231,147.0901,48.0714,67.2356,104.2907,128.5051,72.3962
161.8607,86.7251,125.6551,137.9697,32.1562,157.2370,-49.1603,74.3856,-95.3335,0.9611,145.9962,102.2622,52.9387,111.1678,14.4675,37.9570,134.1801,92.0410,-3.1993
150.7132,101.6805,118.3372,113.7093,27.8530,99.2799,-115.7676,8.5247,-135.1869,-60.4971,133.1997,87.2128,79.8711,100.9792,-9.7698,32.6674,137.1853,50.4844,-40.6130
112.6694,63.4025,91.4284,80.0088,43.2858,47.4896,-97.0640,-36.6601,-102.5535,-75.7325,109.0268,69.9566,65.6668,73.6537,14.5795,2.1422,134.8337,22.6190,-30.2182
115.2842,27.6178,107.2928,40.9806,57.1366,4.1868,-21.9876,-94.6034,-40.5545,-107.6402,130.0988,30.0999,61.2777,-7.6033,42.7877,-87.8323,145.6803,12.4552,-27.2436
154.8900,71.9899,149.6717,33.3166,66.8201,-32.4105,-2.2257,-147.8940,-20.2600,-161.9857,169.5193,19.9625,80.8494,-60.0955,32.1712,-144.8201,153.8379,29.1259,-52.7284
150.6928,93.8329,149.5589,37.5367,72.9773,-31.3150,-19.8942,-136.7508,-20.8458,-147.5880,158.7046,28.7405,79.5320,-29.0806,45.9554,-90.5824,137.6263,65.8700,-35.1613
98.2138,33.5005,127.4662,26.9940,84.2609,20.6720,45.2748,-54.2068,41.7925,-47.0646,125.6188,18.8071,76.2956,25.2842,103.9920,-3.4430,124.9888,120.8306,54.1723
62.6715,21.5044,149.1195,53.1534,118.0885,95.9136,154.9334,61.5356,136.9834,63.7636,129.8246,37.6252,104.5386,74.2460,121.3470,44.7686,146.0398,188.6017,143.1640
56.3161,82.8221,187.7567,112.7125,145.8535,155.7450,179.3369,164.6767,177.7390,150.3210,132.3148,97.7976,112.2197,136.1389,98.1856,97.2186,161.8148,208.0103,184.5291
58.1680,85.0372,169.8969,107.3012,118.7805,161.6347,144.7895,187.1059,178.5504,184.9290,95.3955,108.6773,73.4781,144.4318,106.9304,131.1663,127.9976,130.0874,177.6072
64.3790,34.1234,101.4863,47.2390,64.9569,110.6095,143.3926,115.3201,174.7789,132.7162,69.4102,55.9572,54.9040,57.9756,116.3081,72.0498,84.7754,36.0451,126.2258
61.7369,38.8412,53.8927,50.2779,54.0924,72.7275,169.3030,62.2850,164.9200,78.3967,69.8825,42.3012,81.1827,10.1808,91.6481,20.8830,97.5899,33.8463,96.6762
38.0223,70.2959,50.2548,108.3345,76.5941,93.7429,193.4373,97.1227,186.4556,110.5425,45.5657,89.1539,99.0549,85.9430,102.9208,98.4660,139.5336,67.5604,144.8258
-7.1985,41.6428,29.7835,108.9160,63.5920,101.9947,199.8324,122.1008,230.7152,136.0556,-8.5932,100.3238,82.8224,145.6896,146.9789,176.0889,122.2565,25.9060,180.3175
-78.4134,-22.8594,-38.8274,52.6627,13.4830,49.2865,158.6143,89.6213,194.5874,91.4480,-54.1810,47.0799,51.6662,101.2533,125.2736,128.3807,47.8851,-22.2496,132.5003
-135.8401,-45.4413,-77.9140,36.7757,1.9538,29.8533,100.7681,104.7578,82.3100,88.6375,-65.4925,21.4816,31.3848,74.3073,53.7585,81.1264,18.0508,46.2647,91.9283
-108.4810,-5.1467,-31.6154,75.3755,57.2325,90.6860,84.1353,161.8856,18.7342,127.6558,-22.1551,68.8044,41.4829,105.3601,21.9235,111.4812,58.8498,133.0820,88.3151
-24.2999,37.9494,25.2376,83.2141,110.4007,101.8261,77.4771,105.2336,25.5112,60.1334,49.2694,95.8359,57.7610,62.5759,24.4626,92.0749,82.5544,69.5125,32.4303
11.1925,7.3020,22.8860,16.6946,104.8435,-6.1071,49.6902,-51.5877,45.0174,-67.5945,65.8873,28.2444,33.8648,-51.2785,27.8320,2.9064,50.4382,-60.8990,-40.6484
-21.6723,-73.8093,-2.7052,-57.2637,75.8948,-92.5374,44.7328,-122.4011,73.4732,-79.6622,15.5984,-50.6344,-4.9728,-72.0424,34.0218,-22.6325,5.8705,-69.8869,-31.5799
-65.9379,-110.1493,-22.8913,-68.2773,69.4226,-51.5990,54.8498,-74.5846,86.4706,-12.2450,-22.6788,-46.3824,0.0598,11.6003,17.6191,19.6049,-37.9008,2.3706,4.2371
-102.4034,-90.7298,-54.9438,-50.0522,66.3473,22.5380,27.8479,-29.7612,40.5238,3.8490,-22.8922,-14.8575,28.0862,53.1389,-20.7138,33.7438,-85.5369,10.8122,-3.4970
-121.0057,-71.3491,-66.5467,-53.4471,53.2994,25.9939,2.5144,-18.1381,-9.2804,1.5571,-20.0926,-30.8022,34.6206,16.6892,-12.7701,19.7036,-101.0586,-14.3589,-3.1393
-79.8065,-52.1973,-14.6141,-48.9317,69.3750,-16.3794,31.5264,1.1370,-6.9894,32.9097,-10.2967,-57.9142,38.2853,-27.5635,43.0818,3.4708,-69.5278,7.7410,25.1595
-1.6105,-29.8680,43.8832,-28.0603,107.9383,-62.8248,61.5514,2.7155,-8.7909,26.1888,5.5480,-70.4552,39.4677,-76.2230,60.9269,-45.3385,-36.4128,9.5848,36.0008
16.0685,-44.2895,27.9511,-46.2932,96.6906,-113.8296,31.4076,-37.2659,-46.1525,-43.1440,-18.9245,-100.3882,-1.5449,-142.4507,18.6159,-118.1854,-39.6666,-62.1175,25.9126
-20.4886,-63.0805,-21.9760,-77.2588,43.3676,-141.5139,-30.0041,-66.4198,-60.1518,-81.2957,-64.4821,-114.7960,-46.3026,-165.3074,-28.0492,-155.1706,-53.0524,-107.0046,6.8236
7.3774,-12.9524,-11.2189,-44.5161,29.9276,-115.1327,-66.4948,-52.2589,-38.8012,-53.0944,-60.4289,-72.2009,-35.6259,-125.6977,-53.3638,-138.0690,-17.8386,-73.4697,-7.8291
83.8745,48.9763,39.7927,-7.0609,39.6136,-78.8518,-60.5650,-38.4953,-28.3921,-34.0767,-38.9111,-49.4666,-31.5273,-100.8427,-65.6322,-100.7912,61.0854,-61.1808,19.0943
74.7041,31.8349,40.2957,-52.4547,4.4256,-86.1634,-33.8550,-56.0891,-29.3068,-58.7077,-67.8977,-99.8934,-83.0944,-115.5896,-62.7728,-84.2151,92.3848,-106.2330,51.6689
33.0509,6.3153,-5.4204,-100.7172,-36.9242,-107.2424,-33.3552,-75.8033,-35.3090,-76.1389,-92.9969,-130.8179,-101.5515,-112.1300,-56.1245,-101.8923,30.9034,-116.9399,2.2030
114.5239,55.7672,-34.9961,-67.4844,-39.1575,-90.0455,-85.1868,-74.1738,-81.4663,-68.1097,-55.8115,-86.3979,-59.8411,-88.0363,-76.1032,-121.4885,-49.4801,-74.3497,-83.7910
215.4644,86.6139,-54.4219,-35.3387,-47.0979,-48.1817,-140.3565,-64.4564,-143.4632,-71.0069,-27.0192,-49.4935,-60.1018,-84.4420,-112.9060,-108.4315,-80.6603,-54.9941,-85.2524
139.6447,17.0393,-83.4880,-71.0004,-61.5771,-27.2688,-125.0636,-53.6859,-132.0485,-85.9481,-57.9285,-68.2273,-99.9922,-82.4684,-115.5406,-81.7302,-79.7285,-71.7359,-19.3745
-8.9104,-48.8634,-88.8218,-104.1746,-38.8317,-38.1408,-55.5079,-39.5635,-50.2466,-90.0754,-86.5142,-88.4978,-83.4301,-63.6689,-77.0542,-80.1165,-70.8270,-81.3690,19.2908
-26.4911,-17.2486,-58.7626,-83.2862,-12.7818,-49.0278,-7.9833,-34.2568,12.3420,-90.2552,-69.4913,-80.4770,-35.8363,-61.6517,-43.2817,-96.9829,-45.6813,-67.2703,31.2302
42.1608,41.7615,-15.5346,-38.0653,-1.3577,-21.5319,21.0553,-36.1936,43.0161,-78.3038,-31.6168,-64.3406,-23.8418,-64.3026,-24.4995,-86.6236,-0.9632,-22.5999,63.5091
69.8660,45.9373,34.1627,3.5411,40.4417,34.7474,77.4060,-24.5199,79.0998,-38.7267,-0.0548,-43.3066,-16.3636,-24.9429,3.9532,-29.7111,45.1853,26.0760,104.0958
51.0663,11.6428,55.3692,19.8446,64.5589,64.5730,110.5619,-3.7917,84.9684,-17.0583,-1.0852,-19.7292,-1.5265,26.8619,28.4742,29.1926,54.5922,13.7872,112.3569
10.2968,-15.4602,13.5896,0.9136,7.3099,54.9716,68.3381,14.4735,37.7908,-36.3215,-34.9279,-18.3997,-12.6355,46.0080,27.3530,43.1144,15.8315,-32.6444,82.8542
-10.7537,0.7302,-17.2049,-9.5110,-29.9395,52.5176,32.8865,41.0335,7.0025,-35.0969,-40.3681,-38.0966,-14.9999,53.3141,21.1668,29.6157,-1.1632,-13.8178,49.0472
51.8469,69.4707,41.0817,19.5109,40.0721,71.9657,63.1016,56.7251,14.2285,-13.0509,8.3015,-39.3000,22.0028,55.9025,20.7709,12.6490,65.0180,56.1481,41.1010
138.1292,129.7085,125.1962,55.6287,136.5833,95.0689,76.6274,31.8438,-2.1244,-36.0286,50.9916,-1.0775,56.5908,45.9366,12.8559,-18.7368,157.3861,107.3185,52.0562
137.8378,125.2717,160.2930,90.6077,203.3092,141.5009,41.0867,17.3734,-30.6144,-59.8651,61.2049,56.8802,83.6524,75.4128,13.5113,-31.6393,199.2979,170.8203,62.4620
102.6763,105.1309,169.6433,148.4315,258.6624,211.8028,37.2580,60.9171,-15.0813,-21.6303,72.6852,107.2875,121.1162,149.5108,37.9513,16.5932,204.4393,247.0357,62.4593
113.9290,125.4059,162.4050,186.6998,252.8448,226.7665,57.5655,83.5012,-3.3500,-7.8229,80.4060,126.4555,123.8390,160.1850,54.7356,53.8433,191.4206,220.0809,31.1080
112.1877,138.2936,122.2782,142.4722,155.7597,143.1612,17.4730,15.0129,-46.9501,-70.5335,61.5769,91.5397,83.4954,73.9528,43.3336,3.3879,134.5969,75.6453,-27.2386
64.0884,89.5055,87.0935,52.6402,59.4759,33.3576,-33.4143,-67.4908,-54.9604,-104.4977,35.2624,22.5816,69.0888,-2.8945,35.3193,-59.4962,52.5000,-43.5051,-35.2330
28.6477,15.5861,64.2168,6.9692,34.4966,-16.2591,25.5584,-73.6523,50.5132,-65.2447,8.6435,-5.8280,93.5712,-7.8423,66.0623,-48.1329,-1.8448,-51.4001,44.7619
3.4137,-17.5281,1.3936,28.5261,55.8452,14.6914,149.1410,-16.8120,156.5363,-18.0494,-29.3680,35.9353,114.9270,28.9507,123.0172,4.2292,-32.7405,21.9097,101.1250
-36.8696,11.4316,-75.7552,65.7221,72.9176,90.0466,176.0252,53.5527,119.4698,25.8571,-52.1246,74.2729,120.7568,76.4989,146.4420,54.5133,-68.8309,108.8947,37.3762
-66.2216,60.3149,-94.4052,63.0316,43.5739,132.5741,96.0261,99.1044,9.8369,68.7563,-46.7746,45.2962,100.8572,99.7680,108.7763,89.2120,-92.9685,130.0325,-41.6168
-114.1857,56.4664,-75.7780,22.5766,-1.5850,102.0175,70.1251,109.2132,12.8664,75.7874,-51.4509,-10.2031,66.1110,77.9826,75.9594,81.8057,-86.2026,75.4935,0.4030
-199.5578,2.6816,-67.2662,-6.4108,26.7656,57.6637,147.4288,119.1035,122.6234,72.8718,-62.4927,-29.1166,74.9524,57.6735,93.9787,57.5100,-72.9214,29.7634,87.0993
-202.4867,-19.7361,-56.0004,-14.9998,87.7792,39.0766,169.5838,117.0381,150.1307,69.4223,-35.4003,-22.5031,107.1297,56.2251,89.5792,51.6872,-75.8965,2.0293,66.8691
-86.9690,-18.9944,-43.0674,-53.5746,54.7676,-10.1019,65.2461,27.4428,53.6156,-13.3778,5.5673,-41.0375,75.5288,14.8611,25.0042,4.7874,-80.4703,-83.3287,-20.9267
-21.7073,-88.1022,-40.3687,-123.8900,-18.7158,-86.8287,-5.4651,-99.0519,1.6923,-131.8791,13.0607,-90.2196,22.2497,-46.4277,-0.1670,-85.3855,-64.4644,-172.9657,-33.5816
-68.1851,-184.2648,-21.1515,-145.5713,-7.0114,-90.4953,45.1436,-107.4448,54.4220,-128.4647,12.2339,-109.3821,38.2693,-31.9201,52.9595,-92.8300,-38.1151,-140.0859,18.1465
-85.2752,-166.8772,7.2134,-86.2591,31.6755,-24.9590,83.8158,-25.7535,80.5224,-46.0720,30.3604,-59.1477,66.1921,25.4115,80.9270,-30.2725,-23.2104,-39.0062,21.4038
-25.3247,-67.5293,8.2741,-32.8322,22.9785,-11.3144,41.1169,-26.7217,32.7811,-55.6840,45.7002,-14.7146,49.9054,5.0869,45.4656,-51.3323,-8.7437,-24.7510,-14.6492
12.9134,-43.6764,6.9419,-69.8989,24.5971,-78.6828,9.1837,-112.0762,3.4087,-131.8820,52.2126,-69.4510,57.8741,-82.4120,18.6822,-130.1181,9.9414,-94.8521,-4.2716
-3.8859,-101.2496,21.2177,-155.4304,31.4321,-148.9417,22.6055,-141.5172,27.5701,-149.6316,54.9919,-165.5401,92.1267,-136.5301,25.9435,-136.0850,-4.8593,-133.6665,34.2737
-19.3540,-123.9993,11.7333,-188.5988,-10.9880,-179.0948,46.3336,-94.7331,70.5231,-122.1542,40.7209,-181.2213,81.2271,-142.0071,49.7228,-115.0848,-41.5741,-113.5303,33.4021
5.0579,-96.2772,-2.0616,-155.4940,-30.5840,-173.0387,81.5020,-65.3524,101.8475,-114.8139,26.9145,-134.1690,61.9991,-142.8538,86.6455,-147.1612,-17.9480,-92.0042,5.2786
59.8675,-77.5488,37.6565,-116.8335,22.3456,-139.9381,95.6422,-87.2534,75.0889,-123.2448,45.3080,-115.6766,82.3546,-143.1522,95.4412,-168.8954,71.1922,-79.1139,-5.3113
99.2314,-59.3465,93.4377,-89.0267,65.7152,-103.5002,48.7483,-101.5104,-0.8105,-111.9085,74.0251,-118.7849,85.5360,-131.6048,47.2831,-146.0845,138.1126,-26.7778,14.0634
91.7029,-7.4491,105.8373,-46.7306,78.0850,-73.6441,3.8891,-55.3399,-25.5825,-56.7260,81.0045,-93.7025,58.1158,-118.6347,3.1359,-133.6325,152.2987,63.6555,53.8840
67.7233,53.0976,98.2536,0.5048,105.6957,-29.5314,8.6385,18.3011,13.5880,20.0051,69.3971,-53.8876,48.7347,-100.2464,-1.5122,-121.9253,146.6469,127.4522,85.2166
55.2696,78.8433,87.0302,29.7322,117.8071,24.9953,16.3775,62.6866,25.0301,69.6538,35.6872,-29.4270,37.5233,-52.9962,-13.2970,-68.9911,129.6492,142.3726,100.7458
32.1982,51.9281,46.8080,38.4226,97.9935,56.9123,26.4915,93.2792,18.0747,99.5835,-11.8971,-26.5881,7.2397,6.4393,-34.0874,-10.5200,109.3320,134.1064,134.9994
9.8845,-22.0818,5.3339,13.8054,102.3275,56.6449,69.9309,114.1522,61.8501,113.9711,-18.0773,-46.8752,9.7557,20.3781,-16.3041,2.8023,110.3365,90.3969,169.6554
41.6569,-100.3579,14.8219,-44.0333,128.4536,31.5085,102.8941,54.3888,114.4092,50.9731,29.2656,-71.0518,45.6865,-20.9021,30.6887,-25.7431,125.7591,7.0420,145.0412
