Fp1,Fp2,F3,F4,C3,C4,P3,P4,O1,O2,F7,F8,T7,T8,P7,P8,Fz,Cz,Pz
-39.7560,-53.0297,-49.9248,-38.8958,-81.9590,-49.9138,-114.4849,-13.0506,-8.1047,-16.8898,1.2675,-55.7053,7.0211,-93.9205,-65.7194,8.9596,-138.2722,-29.4446,-91.5789
-48.4823,-71.3889,-87.9653,3.6695,-56.0249,10.2697,-8.2438,112.6607,-48.0715,-9.0760,-64.1213,-14.0104,-114.4108,77.6012,35.5895,-3.8155,-99.1100,-109.9764,-54.0307
-49.7681,-56.6401,-119.5020,16.0836,-90.8530,-14.4699,-51.5160,76.4995,-135.8630,-28.5835,-112.4730,11.5208,-190.6127,122.4434,35.9108,-25.4258,-82.1689,-177.4093,-143.2590
-47.4808,-44.4840,-123.1548,-18.4923,-154.4664,-83.6487,-219.4056,-77.4477,-322.0947,-92.0584,-142.8098,15.9470,-205.4452,59.9907,-7.2167,-62.9979,-80.9670,-185.0488,-256.5565
-37.1626,-67.6391,-82.8351,-47.7104,-130.0907,-111.4562,-210.9975,-131.8089,-331.6998,-77.7570,-119.5405,33.6351,-169.1823,59.9502,36.1961,-96.3820,-48.2518,-138.4500,-169.0209
-16.8859,-104.8475,-13.2451,-69.0206,-11.6601,-99.1897,54.9939,-53.9213,-32.0736,41.2883,-39.5059,40.0539,-84.1268,74.5304,126.2868,-98.9987,-8.3488,-83.3563,63.0579
5.5203,-117.4391,47.1095,-91.8663,105.1977,-59.0026,301.5073,28.5772,194.3360,87.8088,6.9941,-18.0749,-21.3152,20.6846,166.3983,-94.8220,20.3138,-30.4687,197.3690
44.3973,-73.9820,96.1015,-55.1298,188.7459,27.9362,355.1029,77.3267,122.2377,52.9584,6.0747,-54.4717,-6.5940,0.9039,149.5590,-94.8285,94.4565,66.7250,222.6102
114.1099,5.9168,150.8721,48.7841,258.5155,139.2580,341.1218,149.1599,11.0580,108.1785,27.6856,26.2387,29.8478,66.1845,126.1556,-41.5571,210.3674,181.5034,284.5316
169.4626,40.0322,187.3577,121.1490,290.0344,217.5204,345.4840,232.2049,-4.9065,180.5788,46.0231,67.2208,71.3068,115.5039,147.8643,53.1066,274.4335,201.0458,341.1709
164.5624,5.1929,178.9082,113.9205,258.1669,227.4567,277.1596,237.8198,-50.9920,100.9999,26.6835,-0.8306,45.7694,101.4852,165.9078,73.1749,267.3369,123.6353,268.9582
141.2048,-22.2091,152.4621,67.7489,198.4634,177.3423,129.9241,158.6632,-120.2729,-23.6683,36.5655,29.6284,4.8893,74.0157,107.8663,16.6537,252.6271,65.1487,136.9149
143.7050,-11.6319,142.0184,23.0111,154.6602,120.0281,26.7663,90.8355,-150.0494,-78.2661,64.9917,79.2960,6.8753,77.1263,83.7870,3.8458,234.1063,43.9772,62.2158
124.1532,-10.0384,125.9028,7.3796,109.1611,85.6449,-19.1834,63.9529,-178.7362,-131.5175,14.9216,-15.9853,-11.9585,109.5546,121.9098,29.7460,171.2419,-29.7704,-1.6436
47.6014,-27.2292,58.3760,4.8028,15.7154,24.3163,-88.8007,9.7108,-204.2756,-152.5196,-79.0333,25.3661,-79.2540,122.0753,31.2166,6.4336,85.9603,-170.5159,-105.4456
-26.4678,-43.8776,-41.0198,-47.1032,-92.9903,-87.9955,-153.9912,-89.8761,-211.6811,-93.8841,-117.1483,124.4834,-123.6869,85.6220,-54.4293,-28.5524,27.3715,-277.0432,-172.9770
-57.5018,-66.6370,-93.5680,-124.7511,-112.3009,-171.5152,-126.1336,-177.2705,-200.8091,-92.7941,-112.6353,-82.3799,-114.3864,51.2055,103.6230,-28.5759,-18.4948,-266.0171,-158.0178
-89.7466,-90.3318,-101.2283,-155.1300,-36.8529,-172.9418,5.1086,-198.8265,-63.9205,-136.5243,-110.6151,-64.6417,-77.5486,52.5953,159.0235,-51.6839,-95.6324,-171.1836,-75.7503
-150.3832,-108.7734,-151.5033,-185.6392,18.1325,-130.2641,200.2044,-119.7273,203.3875,-25.6173,-114.7127,266.6590,-31.4746,54.8699,22.1099,-79.9136,-173.2676,-72.1302,107.0786
-182.1683,-133.9772,-205.7408,-232.7777,29.6781,-52.6389,371.6780,44.2539,330.4216,156.7552,-126.3744,-125.4205,-4.2433,51.0927,238.4855,-36.3002,-151.1320,17.2971,329.7018
-125.1648,-125.9864,-126.1231,-148.8936,71.7031,72.7369,374.6612,195.6304,190.3174,181.4908,-109.4845,-391.8121,-15.6467,51.4680,380.5133,7.3978,-24.8810,86.6373,356.7759
-34.5858,-54.0176,6.8143,42.0607,87.8436,158.5592,186.9900,241.7377,12.3481,103.2485,-34.9015,1195.7753,-33.0417,22.0725,-429.7234,-25.2079,40.3311,64.9916,136.9034
-34.7700,-31.1591,-32.0174,61.7161,-23.2894,110.2780,-7.4766,171.9027,-48.8948,23.0780,12.3253,2576.7148,-31.6053,-27.9414,-1159.5862,-41.6934,-54.8766,-49.5600,-48.3782
-116.4467,-153.4778,-185.7897,-125.8143,-143.5291,-12.4945,-56.7270,36.2451,-78.4549,-105.2132,-37.3374,1161.2683,-35.2801,-34.6658,-507.6668,-10.8261,-154.6281,-157.5322,-27.6444
-137.1673,-288.5478,-204.7490,-247.5633,-107.0753,-95.2597,-3.3212,-79.1368,-107.7598,-187.4779,-107.1144,-653.8107,-48.8763,-0.5804,355.3900,-36.8656,-108.7289,-207.3100,45.3942
-87.2038,-276.0943,-104.6982,-224.2444,-5.2769,-117.2514,47.0500,-99.3657,-97.8532,-94.5727,-126.6371,-320.8079,-49.8011,35.8146,153.8857,-98.8359,-40.2762,-200.2172,43.3214
-98.3644,-188.6542,-82.4991,-203.0598,-0.8118,-97.8763,56.4543,-38.2436,-95.0942,28.4499,-118.0787,233.5799,-49.0039,70.6816,-180.8207,-96.5351,-93.2977,-136.2225,33.8072
-158.1291,-178.5465,-135.3830,-210.2263,-49.1719,-53.6122,51.1163,21.9607,-112.6069,29.9129,-96.4805,-262.5805,-57.7496,69.4446,39.6354,-73.4571,-165.3855,-84.5189,72.2726
-144.4768,-232.4851,-156.1556,-210.4340,-52.0054,-41.6751,69.3904,27.9860,-81.2118,-5.2775,-89.3857,-311.1208,-53.5528,15.6545,113.9921,-79.5780,-145.1864,-119.5692,121.6639
-90.4995,-234.5896,-166.0114,-251.7475,-44.4379,-87.7018,85.9495,-5.1822,-35.2240,-4.5108,-141.6661,47.2966,-57.2572,0.1659,-47.9939,-43.6027,-112.5996,-182.2974,129.1796
-84.7580,-161.6902,-185.2744,-306.8076,-74.5135,-121.4756,30.5688,-33.2045,-66.7930,0.9765,-181.1424,-180.6239,-115.5538,57.5726,-19.6931,35.5052,-117.4829,-203.9809,73.5867
-74.1214,-110.9131,-148.9567,-282.3672,-105.6457,-105.2520,-71.6362,-41.4184,-121.0492,12.1333,-116.3483,-286.9637,-176.0635,88.6041,-22.2484,50.9362,-84.9501,-228.0865,12.6000
-22.9398,-140.2662,-72.7347,-211.1259,-104.5753,-95.6610,-109.8463,-49.0907,-106.1464,17.5731,-48.3558,24.7091,-158.9442,66.3039,-122.5216,-14.3178,-19.1340,-269.7355,17.1432
-19.8742,-167.0526,-49.2786,-162.5432,-92.2466,-111.6404,-62.7865,-56.0386,-71.1686,-17.2572,-98.8115,-7.8483,-112.9175,49.5808,-44.7397,-67.3036,1.5825,-260.5500,42.2558
-82.4710,-116.7189,-81.1274,-103.6629,-92.6961,-100.7307,-2.8561,-39.7984,-74.7706,-59.7717,-179.2453,-110.3520,-111.2071,35.1532,18.7050,-43.5700,1.3888,-181.5943,34.6432
-111.2678,-56.4569,-98.0582,-16.5979,-82.6857,-47.6661,45.6057,-1.9272,-79.3604,-77.3687,-168.2975,116.3097,-108.0240,39.7697,-52.4255,21.3202,48.1938,-90.2184,60.2710
-63.0780,-35.0881,-66.1611,45.5986,-15.5597,6.3155,100.7176,32.0753,-61.1063,-83.2822,-85.5053,140.4509,-51.1379,105.1809,20.2896,32.7613,123.0219,-34.7036,140.0592
22.6529,22.1416,5.5456,67.8799,87.2413,27.4470,147.9458,44.4815,-42.7502,-70.7763,9.7856,13.8825,7.8624,145.9207,117.2340,-27.9151,175.2729,-15.9360,172.6027
100.6234,120.8709,78.9208,78.6518,132.5807,19.7881,164.0320,40.0588,-40.0173,-52.6589,59.7117,161.9199,8.1781,105.5983,11.8737,-66.8361,187.0166,-5.1405,131.8250
130.8334,154.7251,108.2200,91.7584,93.9018,16.4892,143.9102,39.2440,-60.6764,-58.9279,16.7012,224.6404,-28.8745,89.7602,-22.8436,-34.8527,163.8009,6.1972,98.6743
114.3383,121.8446,99.0454,113.0026,50.9414,33.2954,104.9270,45.4965,-78.3115,-41.7277,-46.5614,88.6339,-42.2774,108.6612,92.5212,13.6746,144.5272,-5.0095,99.3078
100.8846,109.2629,90.3041,130.7840,51.2491,40.2398,94.2700,38.2308,-42.1632,21.7741,-25.4016,139.7845,-12.1897,74.8614,89.5308,27.6887,159.0520,-30.4404,100.7945
104.3582,106.2598,88.9328,122.8504,57.8384,16.0626,116.9418,19.6690,18.4579,44.2904,30.9545,173.8194,22.5426,52.5422,60.4517,-12.2557,173.1266,-35.6080,83.6040
114.4973,73.9285,93.5896,112.3414,48.8403,-19.4188,107.9460,12.4505,26.9149,14.7639,45.3681,19.8140,29.1846,71.2070,155.7238,-79.6719,166.0458,-28.6676,43.0519
157.7349,64.4656,117.1261,130.0452,47.1021,-49.0689,66.9213,6.7068,3.0221,22.9024,56.4391,50.0856,23.8680,11.9778,177.1385,-77.6499,171.8752,-21.5806,5.7173
211.8037,113.5347,137.2500,138.5603,55.2544,-64.5016,71.8562,-13.3338,11.1019,53.6222,68.3522,166.3516,25.3386,-47.7129,120.1093,-1.3229,176.6433,6.2077,-1.7881
190.6569,169.7412,118.0888,97.9651,51.3419,-54.0005,111.9895,-30.7645,33.5091,35.6383,21.3534,69.2804,32.9441,37.3663,177.2305,8.8798,133.7334,26.4629,-15.9336
108.8350,177.2030,82.3336,46.7961,35.4822,-35.1545,116.4170,-43.6430,37.6772,-3.3121,-36.6112,40.6490,53.3054,79.4661,254.9992,-55.6893,83.3219,-7.2816,-52.0334
67.1390,125.6028,69.8218,41.7953,28.2074,-22.5419,107.9242,-54.3016,48.4798,-20.6091,-25.5822,156.5219,73.3341,-32.6682,252.2684,-50.1111,85.7607,-34.6410,-45.4380
76.0633,67.4698,68.2180,90.7443,35.5872,24.4447,127.1507,-12.1039,71.3042,-17.2998,-0.8227,138.2985,58.1977,-10.5494,269.7779,6.3150,117.2081,16.8354,14.8653
95.2510,90.9013,57.9738,170.0526,45.8225,107.9178,136.9061,90.0182,72.7846,20.0614,-18.7628,138.3744,28.2429,181.7461,281.7014,-5.9502,155.8725,82.1897,55.8334
139.1869,186.4353,61.1161,239.4192,54.5547,138.0631,125.0721,144.2928,51.5978,68.1562,-9.0279,254.3914,34.0394,181.1910,227.6808,-29.2270,222.7293,83.8194,55.9206
195.3541,239.7710,98.3074,253.3992,70.1278,90.8644,122.7161,102.7847,29.3961,64.4002,65.6770,203.6755,54.7116,17.1807,201.8276,17.9522,287.2916,67.1864,44.6076
210.1500,218.1107,149.6395,212.2952,92.1114,63.1307,115.8791,59.7329,11.1843,26.9339,113.2371,107.6635,43.3676,60.7168,214.8062,65.1968,294.8859,78.8360,26.4112
194.4278,190.7996,177.1035,168.7045,104.7095,89.1066,92.2998,52.1902,2.6561,12.7752,70.0834,210.1423,15.5037,232.5573,199.1908,72.4308,257.4809,72.2533,5.3196
174.0509,171.6872,164.0137,153.3279,94.1328,95.6233,70.6393,7.3704,1.1895,6.3889,11.0398,244.2380,0.3323,199.6989,167.4081,71.7958,207.6640,19.0767,-17.5330
126.0618,134.3142,129.9278,145.3832,65.1818,71.3501,28.8955,-62.9983,-25.2915,-16.5086,33.4686,118.2299,-1.4458,54.1083,95.8641,45.4157,158.1731,-17.9988,-54.5264
77.8919,116.2291,104.7450,135.4651,48.0554,87.8631,-31.5013,-60.0860,-79.2346,-35.2328,109.4559,100.2442,15.0924,71.0459,2.3559,12.4451,140.7601,24.3074,-62.6137
95.1689,152.3101,99.6630,140.4262,77.2670,151.5625,-21.8630,14.7774,-96.5397,-43.3978,134.2370,130.4370,45.4891,199.1893,27.0785,35.6758,174.0794,112.2597,13.0581
144.5467,194.5063,116.0018,138.7847,147.7392,184.0408,81.6202,67.2735,-37.6303,-49.5604,92.3901,87.0885,67.8831,241.3825,125.7512,63.6200,225.6935,155.9069,120.2445
151.6771,187.5597,148.2190,101.4275,219.5819,147.8723,187.3392,62.2972,42.9076,-44.5074,60.7763,124.4376,84.6674,189.3704,127.0539,41.0631,272.3596,140.0348,178.1776
130.9795,150.8988,173.0425,87.4031,268.1661,105.1714,253.1240,45.6974,79.2754,-19.9043,60.7495,202.7448,98.3928,150.6025,99.3986,42.9906,320.3408,135.2912,191.5211
126.3484,142.5793,181.2006,159.8159,285.5844,127.3038,297.9742,57.1435,80.1655,14.0610,50.1113,192.9308,81.8427,153.0999,130.7820,82.9400,358.7077,158.3690,181.3663
134.4289,171.6177,192.4823,244.5686,262.1049,180.8060,299.6178,77.7581,73.6876,21.4746,36.6143,209.7624,37.9056,153.0202,106.4778,73.7343,370.3914,150.3552,146.6925
141.8258,189.9242,206.1433,249.8757,221.0101,174.3189,257.0427,63.9187,47.2458,-21.6788,61.5422,242.8475,8.6028,162.1180,33.9910,33.3674,365.2822,113.5395,114.8603
154.0198,182.7563,211.5215,227.3461,216.7052,114.9875,229.9919,24.3637,6.0350,-66.2672,114.9324,184.4648,13.5958,212.4439,37.8946,24.2640,372.9948,110.0797,111.3139
190.7579,175.1935,241.7380,237.4981,256.0955,100.8384,232.3686,11.9617,2.1645,-67.3544,155.7118,160.9795,51.3450,215.4634,65.6995,27.5521,417.3535,135.6440,142.0783
246.8603,137.0926,299.2316,223.4941,291.0437,156.4404,234.1579,39.2565,46.2406,-63.6786,154.3209,182.3300,95.4021,103.0697,51.4873,63.9485,464.4453,148.2124,222.4422
245.5949,45.6228,295.1520,162.1993,295.9283,211.5293,243.4093,84.6335,81.1554,-51.4763,96.9462,105.3526,77.6413,31.9679,34.4852,154.9322,432.0865,160.6870,312.6848
146.5716,-0.4608,201.9673,126.5520,281.2881,222.9438,262.2079,142.3329,74.7430,26.8411,20.3002,62.8255,-4.8078,124.5661,-17.4222,180.9124,326.1427,181.5536,325.8495
69.1868,61.7778,142.2269,131.2446,259.9064,198.2200,256.2526,180.1587,46.4737,90.4908,11.0516,142.0710,-42.5328,214.1082,-96.5939,91.7319,265.7230,172.3764,278.6964
123.5087,130.7611,199.6723,141.4242,253.4595,151.3125,226.3253,144.4779,8.9393,26.6956,98.9337,155.8860,8.4926,165.2798,-90.4953,29.6386,301.7008,143.4691,250.0000
227.7037,157.3880,296.1185,191.5659,277.6095,110.7597,197.1349,66.6280,-34.4126,-65.0490,198.3193,150.3063,61.6632,102.1764,-35.5586,31.5378,355.3773,152.2013,213.0483
275.5953,229.7822,333.7970,280.8346,300.1099,95.3717,157.6647,32.1313,-64.7074,-70.1394,221.1943,268.2564,73.7755,107.5496,-24.2482,-4.5275,359.4609,174.5161,134.8915
295.2683,333.2529,308.2323,285.8368,281.9348,71.0123,115.6189,45.5442,-65.8198,-69.8379,193.9030,320.7258,83.5540,115.9511,14.3852,-22.8525,313.3963,138.7160,112.5986
321.7127,365.4448,254.3141,157.0366,243.8003,18.7856,134.6743,63.9233,-29.4948,-92.8425,178.3847,231.8796,92.6553,128.5842,95.4008,73.4387,233.7350,79.1684,201.4201
334.1609,382.3941,191.2695,23.8306,222.3263,-10.9104,227.5484,91.2917,39.3614,-26.9835,142.6649,199.4117,83.7795,145.2888,125.2859,149.4405,151.4841,81.1426,282.9946
352.6814,500.4990,122.3886,-3.6714,204.1916,3.7895,297.0485,118.8760,90.1744,93.6194,50.5868,210.6802,79.4224,78.3376,137.3421,69.3551,104.5140,114.6512,244.8491
425.0541,686.3556,62.1604,52.2429,170.4044,12.0961,265.7694,90.3439,71.8893,112.2517,1.9233,203.9088,89.9769,-5.6328,159.0576,-54.0340,110.3321,106.5482,129.8641
555.9573,866.4630,60.2071,148.1990,148.0699,4.4698,185.7452,8.2824,13.8825,34.6507,81.9498,304.2504,98.9343,58.7882,99.0649,-84.7112,167.0211,93.5133,37.5563
704.8744,1019.4742,133.6639,260.5545,154.6389,34.8292,128.9011,-46.7547,-35.0330,-21.0614,180.6209,439.1103,96.3848,171.4075,-0.2041,-41.1209,227.3500,123.7334,-9.8691
783.3809,1089.2162,198.8831,336.9089,152.0846,108.6468,66.1312,-27.4073,-91.0623,-19.4932,177.4467,441.5932,73.8448,150.2383,-19.7094,34.1561,219.7846,146.0703,-43.2753
715.4058,1041.2910,183.4624,346.0306,119.0208,189.1321,-17.7182,49.3622,-155.1333,16.0443,134.4424,418.7995,54.1139,128.9826,0.0626,112.2191,169.4447,149.4964,-37.7710
553.0829,932.8972,143.9289,328.6194,107.5224,282.6439,-23.1468,151.6112,-162.0768,62.2495,131.1628,423.6371,92.3422,254.5673,27.8919,130.1144,173.7084,211.3419,57.1310
420.1326,792.7269,164.7975,330.0870,163.7236,387.4948,85.4270,234.5036,-100.1046,93.9806,143.3842,353.6620,166.2867,328.7851,106.3829,90.6344,235.3860,309.1255,169.5915
359.3223,617.5654,240.0228,352.0777,245.5228,438.8081,166.0597,244.2868,-46.6298,110.2919,163.0115,308.0177,180.0631,213.2643,142.8949,78.7496,294.0562,329.8856,168.2849
334.2926,471.0262,312.9105,378.4162,277.3675,410.4653,117.6906,183.1282,-40.4626,118.4156,180.9171,350.0997,111.0528,126.8497,52.8194,99.0599,348.8397,284.1735,87.9037
293.7635,370.2664,327.0700,378.4823,245.3592,363.2553,27.9286,129.6374,-44.5151,112.2226,112.2020,303.4330,11.4428,204.4331,-44.5815,82.0924,384.8698,265.2082,70.5572
196.3045,232.1390,251.2608,321.0168,197.8000,336.3947,10.6945,145.4047,-26.1045,113.2982,-37.7942,176.8677,-76.7211,267.9973,-48.1491,43.8449,339.2858,268.1378,118.9122
57.8143,59.3793,127.7132,223.1084,174.6211,307.8684,68.7740,188.8561,18.4782,133.4733,-129.3643,111.1288,-104.6742,195.4327,2.6535,37.0289,228.9680,242.9955,132.8231
-74.0045,-78.5493,22.9613,116.8499,157.2036,258.7896,131.1821,175.8530,71.9128,115.6958,-141.3890,7.8815,-66.6057,57.7809,54.2905,21.6095,122.1644,193.4836,95.8095
-196.9357,-215.3899,-69.7235,-5.2282,100.2838,188.9219,121.4130,105.0453,88.9426,41.3531,-184.0626,-173.6636,-72.6209,-64.9824,49.1583,-35.0258,20.5078,134.8657,47.7159
-297.5006,-359.4185,-171.6572,-115.7203,11.7370,125.1327,41.4702,49.1373,43.9983,-5.6243,-251.5451,-248.8199,-176.3253,-85.0002,-26.5334,-70.1338,-77.2547,91.8469,-4.8242
-334.2800,-407.6780,-242.2845,-131.4286,-54.6063,123.1390,-15.4933,37.9899,-24.9088,11.0362,-260.2286,-199.9185,-250.1387,32.2250,-75.6589,-65.2680,-143.7023,91.1558,-56.5959
-373.0445,-398.5058,-269.1832,-82.5481,-91.6226,156.5652,-14.2090,37.8757,-66.1697,21.5646,-238.1076,-168.9703,-216.0041,96.4742,-66.8662,-81.7452,-215.8467,71.7374,-85.6875
-510.2399,-497.8875,-308.7027,-128.9599,-133.5746,102.1012,-20.2093,28.2183,-63.3319,-0.5680,-247.2720,-198.2776,-174.5194,-32.5515,-77.3920,-114.3961,-327.0308,-31.9684,-83.0560
-652.7311,-651.1863,-368.8705,-298.3250,-167.4579,-40.2256,-40.1663,15.7679,-25.7189,2.3746,-267.3526,-293.4116,-181.3849,-141.5685,-89.9484,-121.6494,-405.8852,-130.3534,-58.9543
-653.8525,-661.8256,-388.8081,-424.5224,-161.2867,-114.0115,-14.9548,-2.6161,10.9214,43.9284,-266.8456,-398.7604,-166.3065,-70.6736,-54.7910,-133.4773,-406.4448,-125.7344,-44.9553
-565.9003,-565.3975,-354.0455,-419.3665,-144.5698,-88.5686,29.7233,-26.7264,5.6016,67.1640,-248.0331,-388.8511,-116.5029,-34.2280,-32.8155,-148.7269,-389.0530,-91.1276,-63.4986
-518.3030,-540.3264,-315.1421,-368.8236,-156.7186,-92.8658,29.5679,-30.5362,-19.0387,56.5869,-221.2540,-324.3278,-95.3369,-149.6595,-46.6137,-106.2394,-390.2283,-98.6126,-81.0779
-525.6387,-590.5023,-297.4967,-336.3066,-176.7819,-147.1529,17.6108,1.3547,6.1368,59.8407,-205.2431,-336.6407,-101.1883,-206.3494,-40.1312,-52.4284,-382.4716,-96.4625,-59.1239
-536.5309,-605.9585,-269.6212,-303.0683,-169.6045,-170.6973,57.9338,30.9944,82.3952,79.1899,-185.5553,-342.6407,-77.0969,-138.8789,-14.7303,-84.3257,-355.5819,-84.5375,-22.9806
-506.2768,-576.1783,-207.8588,-290.3269,-133.6900,-183.5029,122.9120,-0.9729,125.3567,57.2040,-117.7805,-300.3889,-18.4872,-118.6370,19.0506,-159.5122,-322.8303,-135.3572,-17.1855
-450.6441,-568.0289,-158.5056,-337.9809,-95.8525,-229.4923,123.5874,-85.3860,82.7571,7.8527,-54.8727,-336.7749,9.4708,-151.0323,59.4258,-200.2603,-308.6832,-208.7618,-56.7885
-472.0797,-591.2318,-185.1293,-389.5722,-103.3941,-257.9288,29.7178,-131.2658,6.5767,25.7336,-107.8275,-405.6567,-42.6694,-129.2857,43.5437,-213.8408,-338.6890,-206.7083,-136.3461
-575.8809,-573.5598,-254.5423,-353.9247,-172.0513,-253.9930,-73.5040,-98.2188,-19.0658,114.7854,-218.9734,-363.6003,-117.8628,-122.4313,-9.8356,-183.4722,-372.2931,-162.6947,-217.2936
-589.2507,-484.0920,-268.4358,-254.9347,-241.0633,-280.5910,-100.7941,-74.2721,7.7406,154.3327,-213.9678,-281.8128,-116.1564,-215.3849,6.2710,-110.0613,-335.3179,-179.3536,-248.9226
-460.1099,-424.5063,-217.4545,-205.5243,-256.3510,-339.7791,-101.4182,-129.4524,12.1242,79.6439,-99.8074,-262.9616,-61.1186,-314.3367,34.4663,-109.7713,-251.0483,-267.2154,-227.4659
-354.1600,-471.9274,-189.5551,-247.8939,-244.4951,-378.6157,-139.9549,-189.6670,-29.8222,-25.1227,-51.9940,-273.2751,-59.2698,-298.3491,-26.3101,-194.5038,-208.6250,-358.9637,-165.4429
-334.0559,-523.8682,-227.8260,-315.6341,-243.9003,-370.0419,-148.6197,-163.4073,-48.7274,-37.4727,-123.3989,-294.2744,-107.5536,-156.9638,-66.5313,-197.9007,-230.9547,-398.1219,-61.5150
-313.0189,-492.4437,-287.0442,-353.6249,-257.6776,-289.7402,-83.9949,-72.6245,-8.3707,60.3118,-202.1161,-323.0953,-131.4071,6.8228,-19.8927,-97.3180,-282.1761,-369.6556,40.4653
-300.3710,-472.0057,-312.4965,-372.8304,-281.7037,-149.2113,-34.3046,26.3907,27.8213,159.6016,-220.4239,-338.5352,-141.8712,41.3144,-16.0188,-35.4145,-326.5069,-294.8253,87.2510
-335.9391,-514.8524,-286.7092,-372.5616,-282.6324,-35.2845,-26.2639,112.3067,8.6198,161.8514,-211.9396,-366.3018,-164.4899,-46.0856,-58.4533,-14.3329,-329.8501,-209.0989,105.4637
-351.4508,-511.0909,-225.5087,-324.3157,-219.1078,16.8072,2.1168,152.6225,-32.6440,105.8562,-191.9885,-379.9360,-143.6550,-59.1973,-24.2764,36.3735,-290.6740,-144.5440,116.5770
-326.6219,-435.9739,-164.5483,-254.7104,-141.3789,60.2024,16.3613,129.1998,-54.0520,77.6858,-130.2050,-309.3148,-59.7583,53.3147,44.0702,55.3443,-256.7578,-129.0928,76.0745
-321.3976,-401.9290,-132.1998,-231.4497,-130.5768,87.8972,-29.5293,91.3371,-60.5246,67.8630,-44.7351,-223.5797,16.4373,114.1921,60.1777,11.1065,-256.7054,-163.1309,8.2996
-309.8172,-415.9925,-131.9153,-254.0447,-153.0474,59.1225,-54.5083,78.4195,-71.2707,36.9205,-18.3678,-200.4277,39.6587,62.7597,62.3895,-3.8114,-265.9596,-196.2323,3.0574
-252.1296,-384.5446,-147.4149,-257.4473,-137.6994,33.5045,-28.4260,70.5535,-90.0540,16.9950,-79.4356,-179.4809,18.8258,29.3910,51.4574,34.6523,-250.7567,-172.7899,40.5093
-208.7767,-311.7150,-146.4403,-218.1449,-98.6484,61.5556,-29.3730,67.5470,-98.1193,39.4256,-130.9223,-160.3188,-23.6336,68.6481,-7.6176,55.9116,-193.8753,-100.7343,47.2153
-190.3166,-257.1908,-94.2225,-167.1248,-46.6642,79.7195,-32.0841,91.1805,-69.4671,68.1695,-68.3808,-179.5261,-32.6331,124.0673,-47.1775,25.6786,-93.4390,-39.0756,59.9660
-119.2505,-203.4893,10.7611,-109.8686,50.1241,63.5510,37.9368,113.3741,-17.0421,66.5849,63.3276,-127.7202,24.1158,154.7713,-22.9146,-26.4236,33.4333,-18.3819,123.9623
-12.3328,-116.8856,118.5400,-19.5320,145.9007,76.6916,101.4247,107.2447,12.8832,47.8087,126.4268,25.3754,75.9629,135.2938,10.2529,-10.2753,147.0629,-13.8240,170.4779
38.5467,-30.4371,161.4089,87.3847,149.6243,117.0177,63.8483,102.2329,6.6792,35.6262,91.4266,120.1153,57.6229,92.4126,29.7093,110.5310,194.0173,-8.8161,142.2596
29.7982,8.2759,123.2397,145.9068,73.6000,126.6060,-20.7226,100.2549,-18.7254,19.2501,55.6184,116.2883,9.9743,116.8561,26.2391,164.5871,166.7349,-23.0337,79.0868
17.7045,3.0195,69.6722,133.2825,4.8165,110.5002,-82.0985,63.4007,-60.8303,-23.6460,64.1964,101.6896,-24.9608,183.4257,-36.5471,23.5928,146.3260,-42.8022,28.0476
26.2780,-1.6672,74.2405,100.2523,0.3064,101.2132,-102.7395,22.8066,-101.4113,-63.7379,70.8396,86.0665,-50.9943,162.1105,-97.2129,-100.3909,192.2912,-10.4968,8.2077
56.6035,28.5291,128.2828,97.5328,68.7170,114.7676,-56.3457,43.4118,-96.7885,-46.2111,68.8951,102.4648,-37.4900,93.4114,-57.0236,-11.9251,236.9534,71.0303,31.5325
90.5116,89.4076,174.6540,129.5088,155.7413,174.4244,25.9596,94.4775,-56.0079,12.6912,94.1996,194.3600,29.1678,124.8189,27.8082,105.0720,210.1259,121.4055,69.8515
97.9719,149.5454,192.8356,171.3376,179.5011,249.4623,52.7785,100.4153,-31.2751,49.8457,130.4918,240.8723,80.9476,197.6397,51.6172,65.3197,163.5827,97.7024,75.8709
86.4084,164.2265,184.0452,183.1923,139.9319,249.0618,23.1192,61.3314,-18.5549,47.3110,145.4335,165.2184,83.2405,174.6117,36.3576,-0.2550,153.9981,31.7472,57.5680
78.9098,109.8854,125.7841,140.2099,88.0080,168.3100,-3.9426,17.2046,14.4762,12.3467,129.9795,103.7945,64.3932,126.1177,31.3179,34.2532,143.0414,-40.8681,45.7334
62.3729,37.6151,15.5067,63.5966,18.1016,81.9176,-38.7664,-24.0287,45.3559,-43.5262,45.8640,120.8958,5.6850,132.7281,19.9425,79.2166,93.9683,-109.1683,27.4685
30.8311,20.8673,-85.3907,-20.7983,-63.3402,-15.2916,-81.7167,-66.6271,56.3318,-71.0451,-101.4405,117.1719,-97.4939,81.0674,6.8928,35.8224,36.7542,-166.9682,-7.2311
17.5327,45.2593,-109.6939,-105.2950,-82.8506,-157.8248,-67.5135,-112.3242,83.6323,-55.6999,-177.9128,68.1917,-151.1098,-54.7260,22.7365,-81.0003,15.1164,-203.1496,-25.1992
33.4800,61.0570,-59.8730,-140.2265,-36.6589,-269.3936,-1.1046,-165.6565,124.6844,-58.7535,-113.9736,33.8302,-117.6726,-94.4038,44.9010,-184.9035,46.7804,-195.2973,-19.1288
46.0469,83.5738,1.6878,-71.9283,-6.4105,-270.3327,41.5135,-201.6132,123.7705,-81.0850,-42.9971,34.7948,-78.4540,-3.1771,45.7376,-193.3944,105.5489,-136.4135,-27.9475
34.1443,116.0233,18.6053,30.2165,0.2931,-213.1590,61.5181,-175.8712,88.1391,-57.5759,-63.6590,61.4459,-56.1263,37.4966,62.8907,-133.9447,129.4107,-75.5054,-44.5280
11.7321,105.0019,-10.6647,41.6820,31.2973,-178.5634,109.7345,-100.3589,84.9769,-14.9092,-90.0691,78.7116,-4.7864,-19.5385,126.6841,-84.5852,95.9756,-67.6459,-7.9374
2.8722,61.2378,-38.5634,-30.2446,66.8182,-168.2408,170.6510,-41.5289,126.2748,-14.0907,-61.8267,63.5290,49.3111,-46.2495,187.8811,-38.8279,52.9363,-88.7636,75.1219
16.3142,52.5808,-23.8212,-75.1923,77.3538,-154.3175,199.6101,-25.8992,161.4360,-19.8179,-38.8839,60.7845,62.9880,-10.4957,188.1011,-12.3210,47.4122,-67.8380,120.3583
43.9729,75.1736,30.5042,-41.3854,95.5834,-113.1630,202.9326,-16.1848,156.8387,-9.2410,-32.9801,84.1665,61.8312,19.9667,142.4147,-75.9740,90.0119,12.9169,112.0473
87.8972,93.9416,111.0931,36.3125,147.3934,-22.8888,222.7790,9.6031,134.0446,-25.6104,25.4454,83.6273,70.2157,31.9812,109.4275,-138.7176,175.0853,98.7741,129.0823
160.1394,119.6195,219.0323,99.7279,218.3830,91.7077,277.6649,30.0775,149.0263,-46.0520,146.3733,76.4754,97.9047,39.2497,121.2114,-58.9186,264.7263,134.8172,197.5459
229.6548,145.5504,311.3192,119.7740,275.6401,172.4888,323.8488,49.1806,209.5143,-14.3399,240.9390,109.8558,156.3281,46.9713,146.7976,51.2974,289.8036,132.9886,252.5090
230.9685,147.7697,303.0034,124.7435,269.4724,213.1631,302.7461,109.1132,230.1703,41.6475,226.1449,146.4077,186.7322,90.2327,116.1141,47.8970,229.6588,139.6181,263.6811
164.7101,140.7180,207.0664,141.9159,199.1238,241.5571,236.0264,199.6369,161.4740,82.5167,141.3837,142.2952,129.5961,163.5542,25.2605,28.7898,158.2925,145.7876,271.0601
105.7213,110.1042,147.7863,136.0098,146.3771,237.1186,188.8782,241.8167,90.4474,107.7742,102.5832,106.0034,60.4703,181.7517,-29.2780,56.9055,158.8865,109.7361,285.3016
81.3334,17.3091,157.9073,95.5014,143.6514,170.3676,156.8349,200.2477,86.6213,99.8758,109.3746,67.4805,53.6053,120.8971,-5.6718,46.4612,212.3247,59.4604,258.6075
46.4061,-69.5075,142.8091,91.4451,130.8412,83.3399,108.3654,125.7948,86.7494,69.9345,66.8838,89.2700,51.1260,67.0902,13.9417,34.9661,237.7500,55.7063,173.5863
-1.0416,-45.2694,93.3820,151.6252,107.8008,39.1587,75.4794,71.2127,53.5611,68.4288,22.2589,177.5358,28.9245,68.8540,-6.9678,69.5067,227.9169,82.6276,95.2338
1.5608,57.2943,97.9914,206.7296,140.7260,46.5678,87.0266,48.7925,52.0301,76.8124,84.2232,220.9352,44.5175,82.6057,-8.6823,14.9916,235.5379,97.1834,97.1309
64.3346,143.1257,137.6648,223.2837,205.6157,96.4464,111.0833,58.3616,87.3419,54.0022,148.3190,194.4048,68.6672,80.5643,7.4717,-98.1087,252.8527,117.6895,156.7699
115.7652,189.7682,122.2920,244.8573,218.0556,190.7155,124.6774,84.4249,87.1587,39.1693,75.7093,211.0582,44.6269,96.0903,-13.8792,-17.5655,245.8946,158.1512,177.9854
112.4408,192.5252,78.4395,283.0656,175.7143,281.8995,125.7096,92.6571,56.1464,48.4672,-5.4287,267.1426,28.3978,144.5650,-51.7145,182.7527,242.5431,172.2506,122.8558
90.8455,136.9069,80.0902,292.8555,131.5619,283.0345,96.1385,69.1369,48.0473,28.8776,45.8656,247.9701,57.9930,174.2169,-53.3462,160.1092,253.6870,139.0152,53.8946
96.2511,68.8976,102.9116,256.2003,106.9291,191.4703,61.4942,38.7832,53.0192,-2.6752,99.5439,160.7265,78.2929,142.0725,-12.1991,-43.9992,232.6361,108.4724,34.1644
122.5636,53.6615,101.1055,211.5557,99.2553,103.8052,89.0008,37.5044,57.0494,21.2153,43.7065,93.6975,83.1909,84.5469,57.5556,-94.4223,188.5479,114.3122,52.6466
132.6638,82.4483,86.7192,191.7578,95.0888,66.9621,153.5631,64.8043,81.0867,74.6091,7.9864,75.9159,104.7186,42.9910,112.3313,29.1566,165.9442,116.6477,52.9364
108.4962,106.1481,64.3782,178.3361,70.2411,26.1313,157.5930,63.7870,94.7736,82.3693,71.5735,92.1834,106.9738,7.0919,104.1051,94.0736,134.8164,74.8089,-3.0750
74.9861,119.5919,27.5391,158.6534,24.5468,-43.8880,100.4518,-3.3007,49.3273,30.7126,105.8836,105.8712,62.9196,-1.2738,64.5307,44.9923,82.6568,24.1609,-87.0485
72.0179,156.6742,11.3782,173.5863,-15.7052,-82.7753,54.1124,-80.3291,-19.5146,-42.0514,35.4681,102.6106,2.3604,48.3255,38.3679,-25.3699,80.8596,11.3882,-126.8133
97.8700,203.9373,35.5716,217.8727,-38.6581,-65.6900,13.2495,-107.8960,-60.6168,-85.7451,-53.1238,112.4952,-68.5744,69.5501,1.1212,-78.6973,119.8685,-0.1692,-106.8789
102.3447,180.1434,46.5285,189.8901,-56.0288,-55.5982,-64.2953,-116.2488,-93.1354,-80.4707,-99.6578,99.6612,-139.7986,-7.0272,-42.1248,-89.1682,92.0228,-49.7364,-92.5241
54.8289,69.8348,-1.3579,63.4658,-83.3289,-86.3413,-147.2862,-128.1141,-129.8742,-59.4493,-121.8969,15.0848,-157.4450,-60.2537,-48.0685,-17.6474,-4.0809,-75.8704,-120.6011
-6.5691,-13.7652,-65.3045,-35.8027,-118.1177,-109.4338,-184.1171,-109.5936,-138.3859,-42.8857,-106.1532,-30.1871,-122.2210,2.7178,-47.3339,74.7607,-70.5934,-35.9657,-151.5651
-26.7981,-0.8812,-79.0284,-27.9006,-127.2089,-94.8021,-174.2965,-84.7871,-118.9052,-15.5499,-43.3446,54.1592,-94.9998,72.9370,-65.2692,54.7982,-82.0977,-3.7649,-151.4772
-15.7673,37.7157,-55.8015,27.9602,-82.8598,-69.8416,-136.1060,-106.4909,-108.6555,1.8508,-8.9554,144.5867,-83.4721,89.3236,-47.4473,-72.3856,-70.3684,-14.3443,-131.8245
-25.2020,42.9865,-52.7048,71.5125,-13.0885,-37.2453,-95.0112,-119.6532,-119.2199,-15.6453,-38.8318,152.6048,-55.9975,126.6433,-3.9558,-123.4315,-47.8083,-0.2657,-109.1339
-48.8156,42.8686,-55.1465,92.4871,25.8945,28.6202,-87.6232,-59.1901,-139.9572,-24.3958,-32.2559,142.6680,-13.8321,156.3215,-9.5817,-18.1906,-36.2837,40.3561,-92.4993
-25.2025,55.3593,-3.9807,82.9605,18.8121,98.4919,-105.8747,9.4571,-160.6857,3.0101,64.5928,118.9414,26.7556,100.4747,-43.6172,63.3989,-46.4879,40.2225,-87.5446
49.8051,70.7878,76.3111,63.0195,-3.8371,113.2423,-106.3972,12.0101,-169.7795,11.8791,143.8633,60.0043,48.7855,44.1068,-51.8246,-14.6594,-40.7753,13.8142,-85.6030
108.5813,90.0583,108.5763,61.6018,-21.4464,76.9368,-102.2784,-27.5073,-168.3378,-32.3704,143.8896,30.5367,36.9962,68.8347,-54.6061,-104.3314,-9.9971,-1.1046,-83.5670
118.0228,105.8650,93.7130,49.3987,-47.8270,33.9641,-132.8074,-76.2065,-161.8924,-87.0403,141.6047,25.3322,10.5459,95.1858,-61.3153,-60.0981,0.6035,-35.2799,-95.8169
103.0704,110.2703,78.0178,1.9284,-83.4729,-0.9958,-161.4749,-117.4654,-135.3926,-102.0512,141.8252,-19.6558,-9.8099,71.0143,-54.6473,14.3723,-22.7159,-76.0397,-116.1712
70.5716,93.9367,46.0356,-45.7683,-93.8365,-25.2891,-140.6007,-114.4266,-94.5362,-70.0138,55.7063,-71.4580,-45.9750,32.2252,-57.5200,6.2600,-62.3366,-59.1350,-122.9408
3.4225,27.5331,-39.7435,-81.8108,-86.1186,-29.9462,-115.5710,-77.8479,-90.3860,-22.8448,-76.3399,-111.1656,-98.0934,-18.8480,-71.3895,-33.5615,-123.8987,-15.8888,-129.2319
-80.7494,-49.2379,-148.4008,-119.4993,-118.7346,-31.3971,-131.0886,-64.7057,-134.9104,-0.0930,-121.9197,-164.0030,-115.9636,-53.6812,-60.6103,-68.6085,-190.5861,-15.3651,-151.7461
-134.6767,-29.1789,-202.1508,-122.0498,-170.2530,-46.4069,-140.5503,-69.0454,-168.1129,-8.7441,-82.6236,-154.5639,-87.0479,-11.5874,-39.5471,-121.5510,-199.6930,-25.3053,-158.0664
-138.7878,52.9512,-169.5246,-73.3082,-151.7109,-45.8958,-124.1521,-53.9041,-158.5996,-34.4912,-62.6499,-67.0034,-60.6884,39.2355,-40.0495,-147.4903,-141.5202,-4.6717,-130.0998
-120.5891,48.7064,-113.3675,-45.1090,-91.8355,-8.2513,-148.1627,-39.1386,-139.9889,-63.5611,-97.5244,-58.7321,-72.5165,3.4542,-54.1502,-107.2360,-96.7118,5.6890,-115.2272
-109.0568,-25.9915,-107.0198,-86.0279,-92.4986,24.2396,-210.0808,-40.1174,-126.5999,-67.4095,-136.1439,-157.0070,-99.9041,-48.5075,-64.1812,-59.3945,-120.3914,-16.9744,-132.2478
-84.6951,-52.8017,-113.5501,-153.8105,-115.4860,7.9671,-196.7086,-32.6175,-90.7025,-33.7758,-115.3381,-208.4267,-83.2316,-45.0810,-30.9709,-44.5116,-159.8028,-38.8122,-120.3270
-23.3378,-47.5970,-59.0112,-189.0717,-66.3704,-35.4439,-75.8021,-28.6438,-28.0239,-4.2355,-39.7262,-176.2004,-6.7985,-40.8752,63.7625,-45.6858,-136.2645,-42.4735,-56.4588
28.8824,-40.7776,13.7583,-156.8784,1.7645,-63.2590,35.0619,-59.2789,21.3074,-12.2675,3.7074,-114.5098,46.3047,-33.3998,117.7465,-77.2569,-56.0801,-33.2039,-17.9003
25.6409,26.4939,32.7407,-59.9401,5.4022,-79.0671,45.6526,-108.7938,17.9496,-44.2991,-19.0335,-27.2332,5.1859,24.7967,49.6298,-137.4218,20.7747,-22.5382,-59.1024
25.9054,107.5525,45.1637,35.0951,-6.1979,-114.6717,2.6685,-153.9237,-26.3443,-83.4334,-28.4441,33.5600,-66.3505,49.4428,-32.3956,-148.4707,74.0289,-30.0914,-117.6919
87.6735,88.5985,94.9719,61.5170,22.5798,-155.8527,-8.4140,-179.0474,-50.3909,-102.7778,0.6919,15.8401,-76.5546,-17.3796,-26.0276,-75.5214,104.7103,-35.7290,-100.8676
131.5038,23.6077,99.6860,31.7068,47.5875,-134.9361,23.9062,-137.3311,-26.6107,-70.1508,-10.9036,-14.6853,-50.4027,-50.8607,-6.0689,-2.2952,81.9585,8.0252,-12.1384
72.0807,17.2792,8.4129,-4.6170,33.6667,-32.3071,43.0164,-26.9211,-14.1172,-26.1000,-68.0648,-22.1539,-59.2770,21.1976,-47.4539,-23.4420,5.6316,77.6658,49.0717
-18.3488,45.9167,-85.2158,-6.5868,13.3615,70.9442,3.0684,41.6955,-63.7705,-37.2772,-84.1048,-29.4486,-104.8754,103.0887,-114.5077,-119.7300,-43.5013,112.7187,8.8498
-24.9536,88.4171,-89.6780,61.0240,21.3429,99.4454,-72.5261,-10.9040,-125.3697,-76.3208,-41.1827,17.1258,-141.9086,130.1461,-155.5314,-159.3952,-4.9546,127.0568,-84.7042
46.6828,154.7467,-27.6336,163.9035,59.0441,67.8519,-120.6582,-106.2758,-130.6361,-87.5070,3.0288,101.7164,-144.1545,94.5766,-136.8590,-73.2259,75.4726,145.2381,-126.7351
115.7058,157.0506,31.9425,174.4446,96.4942,13.4415,-119.5539,-135.2176,-98.9747,-84.2194,7.7509,60.3732,-126.6829,-22.0375,-72.8380,-5.8093,108.8939,113.5481,-100.4484
122.5206,47.2420,43.4597,34.9659,83.9598,-45.0291,-111.4488,-105.2913,-87.1989,-76.5551,-27.1097,-112.2714,-125.7902,-116.6913,-55.1656,-97.4202,47.4566,11.2598,-79.5580
53.7705,-39.8765,-8.2310,-127.4443,-4.6677,-63.3535,-144.8579,-71.1990,-98.9325,-39.2970,-55.8541,-203.9646,-153.2625,-35.8665,-113.8380,-191.6281,-89.1167,-75.8630,-100.3430
-37.4140,-7.5778,-98.4057,-163.6001,-136.2234,-22.4945,-210.4744,-37.1317,-93.8973,8.9202,-45.0672,-122.8519,-193.6307,114.0375,-154.8572,-89.0772,-207.7375,-103.5364,-125.6704
-65.1747,50.2746,-164.0088,-104.8229,-232.1547,-1.7124,-245.1455,-18.2291,-54.1704,13.8077,-57.8338,5.8335,-241.6635,104.4912,-139.4913,66.8748,-213.3913,-145.7554,-127.0435
-20.1950,43.3260,-157.3399,-91.0423,-239.5284,-66.2862,-220.1358,-75.8380,-22.8216,-47.1445,-137.3757,45.4284,-291.7770,-8.7989,-144.5170,46.4575,-134.8143,-239.1203,-122.9779
23.9783,6.4646,-105.6797,-152.5357,-197.1489,-147.5326,-188.9636,-194.8226,-56.9740,-142.6530,-171.0730,-16.4474,-312.1987,-29.3992,-206.6133,-79.6267,-93.1921,-292.8446,-137.3671
25.6435,-21.9468,-79.0422,-196.6775,-166.6087,-149.0228,-182.4883,-249.7674,-127.3042,-190.8731,-74.4890,-85.0807,-273.1704,14.6569,-254.8882,-153.7023,-127.5117,-228.7896,-154.4238
1.4944,-60.1769,-98.3734,-190.4230,-125.8636,-82.2131,-137.3529,-178.9983,-133.7608,-140.2318,27.5127,-97.4157,-178.8425,15.9832,-195.7684,-184.7270,-174.1299,-98.3667,-124.2640
-38.6847,-100.3182,-136.2745,-193.6010,-52.8577,-20.9807,-29.5677,-64.2016,-54.4936,-53.8560,7.7208,-97.9235,-68.4697,8.5347,-35.2122,-169.8660,-208.8028,-4.5545,-36.9208
-87.6432,-98.1964,-182.3162,-208.7949,-19.3570,-7.1315,44.5278,6.2662,17.9952,-11.3187,-53.9488,-102.2729,4.4447,7.2151,87.9561,-65.5765,-251.7395,9.6858,29.7893
-112.0681,-65.8399,-224.7407,-171.8325,-56.4664,-26.3141,17.5867,16.4521,11.9650,-6.1397,-31.9856,-61.3019,18.3544,-23.2275,69.1494,11.0174,-258.3512,-28.5537,5.2781
-93.5792,-56.4436,-222.9668,-84.9833,-83.8861,-23.9174,-64.5933,-23.1188,-49.1278,-27.5440,38.6793,-9.6028,-11.9022,-0.6841,-24.9970,-54.6455,-169.1942,-60.7808,-63.8266
-47.4244,-52.6336,-168.1328,-12.2277,-65.9174,28.1578,-138.2443,-72.6258,-99.8984,-78.8687,32.5749,-13.1908,-80.2313,104.6706,-85.6720,-128.6440,-34.3201,-51.8185,-81.0199
7.4288,-21.6863,-99.8075,9.1778,-44.0134,72.8501,-149.3035,-70.3250,-94.2363,-94.5331,-80.6892,-40.1792,-163.4985,112.5786,-85.7728,-68.8504,40.2506,-33.9769,-32.4402
38.4205,-29.1559,-48.0969,-30.9768,-25.4338,44.7517,-58.8071,-20.8896,-48.8147,-32.7113,-179.1844,-62.2880,-187.9057,-17.3855,-43.6586,37.6746,25.1688,-50.9353,15.9000
18.5189,-89.6476,-19.2644,-98.0099,-12.3203,-27.3853,55.0255,11.3536,-30.4468,17.3873,-124.3312,-81.9333,-125.7348,-42.9770,-14.0908,83.7535,-14.7400,-74.9650,12.5211
5.0805,-61.6402,7.3941,-95.3581,-23.2760,-78.1504,68.7532,5.0832,-51.4326,-28.9911,46.9686,-35.7197,-47.1521,99.3574,-27.2726,74.9448,12.9810,-67.4582,-22.0296
74.2002,76.3150,72.2163,-1.3068,-11.3923,-101.8829,24.6657,-18.0997,-52.0263,-136.0972,147.3930,74.1533,-4.8529,166.9505,-1.0972,-5.9814,129.4705,-63.5276,-24.7561
162.9380,129.0791,147.3336,68.0514,49.4577,-116.7819,25.9886,-46.5661,-30.6650,-219.7739,94.4177,109.4358,12.8237,69.7482,83.3257,-139.5823,226.8269,-93.5366,11.7649
152.7634,46.6683,140.6009,47.9382,61.2919,-113.0322,10.7255,-62.1653,-49.3146,-213.9811,8.3111,40.5642,6.4428,-32.8121,78.8223,-159.7985,191.8629,-113.9359,17.1872
62.6864,-8.1587,47.2870,4.3669,-20.9645,-91.2157,-83.0947,-44.9398,-89.2892,-115.0463,-6.4997,-13.1823,-25.2795,-61.0347,-22.4587,-14.4324,60.7571,-98.6600,-30.4916
-24.3589,-10.0250,-52.8452,-32.0139,-91.4944,-77.1118,-122.0755,-10.9084,-71.7335,-13.2081,-7.1777,-17.1988,-41.0294,-34.8238,-22.9145,68.5434,-63.6495,-80.7160,-54.7344
-100.1880,-54.9672,-129.7083,-91.0765,-90.0188,-76.8814,-14.2693,17.6014,-3.0803,23.0089,-51.5065,-15.2448,-8.2085,50.4503,105.1320,-43.6031,-146.1877,-63.2011,-20.8088
-149.0174,-87.3817,-168.4169,-129.6008,-59.5938,-75.4493,105.9994,44.1293,46.6954,39.4614,-72.5947,-3.2695,56.0772,117.4771,195.4662,-139.3609,-165.0062,-12.4499,4.4589
-117.8047,-23.4818,-123.7236,-77.8884,-12.2743,-65.2402,108.8949,67.3235,50.8799,71.7866,-15.3179,20.7013,105.8401,70.0019,188.7817,-50.0562,-84.7167,58.7511,-15.3722
-35.8285,59.4712,-24.3235,36.4070,51.5037,-39.1987,42.1460,72.7894,26.5036,71.9789,63.1087,46.2849,99.3340,19.5097,122.8543,58.2777,52.5463,98.0448,-27.7138
31.8855,90.9455,53.1974,134.9778,91.4989,6.3526,6.7154,62.3311,11.9812,29.7896,96.1802,87.8808,55.9235,107.6587,50.1542,25.7070,158.2803,83.1189,11.8795
85.2863,97.9381,101.2190,166.2641,99.0032,45.8367,38.8655,60.9609,52.5385,15.2383,75.9287,110.9685,41.1151,218.4427,71.1024,-26.8462,190.5411,33.2213,85.1321
96.6798,73.0016,109.4372,113.1940,78.2182,47.9484,97.4037,98.1050,135.0618,77.3570,17.7034,59.3576,46.1134,187.8891,154.1909,21.6162,131.5845,-26.7860,146.7547
17.0460,13.0559,35.1648,22.6597,-0.9151,17.8842,104.0500,161.0447,193.7893,185.4469,-37.8452,-21.8820,5.1610,81.3107,113.5135,78.6524,0.8056,-92.2140,159.0042
-66.4079,7.8692,-65.4571,-23.5218,-108.4698,-22.7776,55.0446,178.8279,207.2255,256.3056,-46.9022,-51.9398,-54.5674,33.3090,-14.6209,57.6474,-101.7804,-157.8590,113.7631
-42.9346,88.1722,-98.2529,-16.4316,-154.5248,-63.5786,30.7801,117.9086,197.9172,239.7734,-28.5848,-25.1754,-51.2868,56.7051,-6.5590,6.1466,-111.2604,-180.0602,41.6395
18.5645,136.4674,-78.1164,0.3608,-126.3712,-79.1199,43.2374,49.3560,168.4266,180.4473,-16.4781,27.5908,3.8648,111.5069,96.1507,-38.5726,-72.9128,-112.4179,-9.7690
22.4182,81.3380,-37.5077,32.9917,-69.3326,-24.3588,26.4630,49.4918,124.2139,139.0274,11.0208,71.9158,47.9160,163.1994,91.2729,-62.8436,-22.2491,27.1411,-5.3326
11.6979,20.2656,27.1553,97.3893,3.0258,107.8280,-8.7287,113.3532,93.1273,109.8011,60.8512,84.0555,72.4000,181.4188,22.7646,-5.4598,44.5010,178.6218,57.9276
23.4881,49.1606,59.4495,154.8763,74.2538,254.0321,15.1793,198.4661,90.3462,84.0993,91.7504,92.6916,105.2966,179.3934,50.8757,113.8284,99.9823,291.0723,152.9116
29.6957,108.9974,34.5186,185.3087,133.2986,332.8023,110.4278,257.8326,127.7225,84.0617,85.7336,117.5558,157.4842,181.8246,168.7470,147.9421,148.4621,329.8430,247.3537
47.8582,110.2955,43.9434,218.8321,213.8544,323.9633,220.8166,256.2219,201.3593,101.5106,46.1491,118.0910,193.4818,173.9307,265.1512,59.2775,227.1690,307.7913,304.7060
87.0513,82.9489,105.8290,247.5784,294.1562,272.8787,285.8670,221.9662,240.4923,116.1300,-2.9986,86.9807,161.7550,159.9531,251.7689,-11.1494,273.3460,285.7428,286.7115
92.0445,73.1749,133.4488,221.2345,290.9304,215.3975,284.9254,207.2109,200.3170,136.6335,29.6275,58.6573,101.2763,161.4743,144.8965,1.8310,213.4550,278.5988,220.0025
66.6532,39.8844,139.3376,141.1680,236.0272,151.1553,272.0631,202.6859,166.5437,158.3898,164.6805,26.0571,109.1405,136.1527,91.7979,12.4931,132.4312,248.5535,194.7300
63.2265,-19.0576,177.0018,67.0087,234.8620,97.9909,295.3299,184.1141,199.8773,161.8308,230.9781,-4.9521,160.7176,53.4620,156.3646,-9.3229,118.7440,198.2785,217.2978
57.9437,-25.4098,189.4789,39.6323,246.3658,78.7261,287.9356,154.8278,205.4983,143.9898,127.2609,11.9046,150.7042,-7.1052,194.8010,-14.4151,116.8026,135.0560,186.9742
29.5961,22.6574,148.7392,50.2631,165.1286,52.3822,188.1844,92.5586,124.6808,98.5597,22.7785,59.2250,91.6097,21.2095,120.0846,-31.4906,97.1163,23.8359,88.9761
36.0284,55.0235,128.5586,64.9917,51.1417,-21.4241,84.8893,2.5571,56.2288,45.7697,71.0540,81.9688,65.2428,83.6255,42.4143,-97.3193,108.2521,-92.2998,34.7864
77.4155,48.6808,138.1495,48.7538,26.0047,-87.9676,65.4974,-23.4501,57.1133,44.4364,174.4063,68.4810,73.7752,99.8042,44.4073,-112.7058,99.3326,-107.1519,59.3170
65.2028,-15.9462,111.0034,-18.3844,50.8035,-93.9111,66.6974,36.0930,52.7411,73.6077,171.5135,-4.4652,83.5000,55.2843,74.5224,-15.2958,-25.5199,-54.5476,73.3342
-21.3941,-142.4853,31.2860,-116.0095,22.7878,-76.3416,33.7645,76.0449,17.3249,52.9990,40.7040,-134.3250,81.0912,-1.0078,75.3784,50.4668,-197.5663,-37.8878,46.4707
-104.3285,-210.5050,-61.8612,-176.5628,-20.9347,-46.7666,39.8523,76.5773,23.3483,22.6859,-96.4076,-201.5945,59.3693,8.8772,58.9624,-15.9945,-250.9975,-1.1068,57.0634
-113.2735,-134.9951,-101.1173,-143.9634,21.7158,51.1142,121.9786,121.0441,86.0454,63.5234,-86.5129,-134.5090,52.2517,96.9622,74.0444,-63.2792,-141.3163,135.3101,136.6722
-50.2291,-35.8730,-37.3094,-40.4581,129.5694,196.6255,179.3635,182.6628,127.7164,109.6710,49.2240,-35.1026,90.3241,175.2246,116.4477,25.5137,25.7450,260.1541,202.5159
13.2036,-9.9341,65.2309,65.7325,199.4900,286.5829,131.3195,176.8126,99.8917,93.5187,118.3029,18.3053,111.6304,182.1425,108.5411,106.9498,127.8125,259.2056,181.2922
21.5022,17.7682,110.4706,134.7400,208.1593,287.0778,45.5562,145.5881,43.4043,86.2414,76.6248,61.6738,77.6917,142.0372,49.9204,59.3076,137.1294,203.9639,114.8188
13.2547,71.7940,122.6835,157.6711,202.7551,244.5690,32.2289,153.5449,25.9041,111.8191,68.5888,91.3298,69.3803,100.5780,46.9966,-7.5188,111.2427,181.7182,88.9652
33.4337,81.7403,149.4232,146.2925,196.8354,198.9796,85.5089,162.1401,57.0780,90.5789,109.7442,78.0628,121.5535,120.6604,109.1916,4.6501,103.7984,166.7486,110.7700
48.9093,67.1941,156.3794,147.1135,179.3856,166.2955,108.2724,140.1339,83.0990,29.4680,102.8385,78.5809,154.5265,218.8268,133.3618,24.3831,126.4442,126.2909,120.4301
40.3276,83.7920,134.1876,185.9849,152.4416,131.0910,60.4302,103.7003,63.5030,2.0352,76.6679,137.2397,128.0218,250.9048,88.8068,6.0500,164.3002,70.3407,82.0012
39.8439,104.5687,108.9545,212.7234,102.4855,66.0508,-6.6475,41.1682,16.6489,-3.3749,68.8396,192.7445,67.0733,113.8685,17.2661,18.7492,178.4127,9.9809,9.8212
40.3952,105.0268,53.5404,178.7592,18.4948,3.4596,-52.2735,-34.7324,-23.0790,-27.9919,12.3125,178.8787,-7.1292,-14.0792,-45.1619,67.3042,139.6891,-42.0014,-52.6445
18.8655,92.8579,-32.4111,107.1110,-63.7223,-8.6403,-90.0044,-60.7273,-48.1690,-59.3424,-57.2514,109.1846,-50.7267,41.9377,-65.7482,40.7199,67.2315,-75.7093,-68.0489
2.5317,66.0979,-77.6206,38.1029,-108.1948,1.7604,-126.7163,-36.6044,-61.3029,-73.1099,-26.8841,48.5192,-37.6331,155.8044,-68.8409,-76.7860,-2.2956,-83.2631,-48.9361
-1.7014,64.8024,-63.3864,5.5601,-113.5622,12.4443,-130.9222,-9.2036,-51.8650,-49.2535,32.0772,50.7707,-22.6761,173.1897,-94.1848,-113.7467,-24.7018,-33.3257,-26.1981
-25.6059,120.2518,-29.3799,54.4102,-75.9369,67.4297,-84.6180,33.7782,-20.4734,10.1089,-11.2853,100.2742,-30.8543,140.6543,-71.5551,24.3025,44.2631,71.4040,6.5113
-46.9691,153.5211,7.4351,162.3397,-14.7056,150.2047,-43.6887,93.6260,-16.6479,42.5906,-79.8487,129.6749,-18.5766,115.0370,7.2709,147.9303,138.9937,149.3962,26.9310
-24.6934,115.6934,18.4411,214.3317,-1.6556,177.1100,-93.0754,102.7113,-92.8121,10.1184,-44.8492,108.3522,-11.6958,100.5763,-35.9756,69.9437,105.5832,155.4557,-37.8608
6.4302,84.6855,-24.2554,156.3559,-60.3685,148.4130,-209.0280,53.3595,-202.7842,-32.0112,31.6020,59.2743,-69.5569,125.4456,-213.7166,-71.8833,-50.5294,140.0520,-151.8585
-3.1044,78.5307,-71.9241,68.1831,-112.8350,120.7618,-256.5870,21.6670,-234.6734,-42.8190,20.6543,9.4064,-133.9485,137.2308,-277.7089,-68.6843,-147.1965,136.7126,-164.9023
-32.2581,27.7290,-62.9529,40.0073,-89.5499,104.5493,-180.0157,32.9929,-168.1827,-41.6877,-48.6947,-17.5346,-114.9272,63.0497,-177.3696,11.6554,-106.6476,142.4773,-60.3148
-29.1955,-21.0865,3.6520,90.6311,0.5344,117.1003,-65.0150,62.0962,-89.4384,-16.7714,-33.6269,1.2973,-33.6713,12.9455,-107.6726,21.0100,-7.1773,187.5547,17.2938
22.9041,36.3975,102.4873,183.4603,109.1951,171.6132,18.5990,102.1086,-55.0583,44.0135,91.8887,56.4577,41.7571,84.4498,-104.8883,-18.0250,89.8066,257.0949,8.6209
88.1784,151.1939,177.8871,236.2339,177.7356,184.9107,71.9788,119.9526,-58.6589,69.7361,180.7415,99.1937,84.9203,144.2574,-76.9992,-60.0096,143.4648,247.7940,-17.3819
115.8229,207.3753,169.2914,188.8786,171.7399,98.2211,87.9952,73.9209,-84.6435,11.6327,144.6835,89.2462,97.2657,92.2215,-39.4285,-102.6017,103.7455,138.0101,-24.0438
110.3465,198.2626,111.0126,90.7595,119.6107,6.8097,73.3587,12.9800,-101.8256,-58.9685,72.6141,49.7142,85.7137,12.3438,-19.3271,-70.3832,6.5438,38.2676,-23.8794
111.9588,159.2413,72.6233,28.9592,65.2333,-4.7447,71.1444,5.8845,-83.0671,-75.5169,33.2639,40.3855,52.4488,-33.7454,-9.0605,33.1727,-53.5383,4.4506,-14.0131
111.2268,79.2814,44.5670,13.5414,18.4723,10.5854,75.6270,20.9579,-58.8389,-78.7631,-0.1027,61.0564,9.4030,-12.1882,-46.4209,20.4756,-45.3380,-8.8479,4.8863
83.2287,-15.2123,19.1007,15.3600,-13.5939,2.5241,52.6002,11.0009,-57.6181,-105.5489,-1.7694,56.8709,-6.3769,110.6934,-107.6011,-139.8578,2.4401,-14.2341,17.5820
60.2245,-33.0816,22.3864,21.8715,-25.3528,-4.7802,29.3389,2.4871,-48.2961,-100.8275,43.9279,25.3697,2.2431,173.4226,-111.9550,-200.2501,34.4876,7.9515,16.9967
66.7714,41.0349,10.7859,10.6908,-39.7287,-2.1475,26.7432,16.1705,-22.9737,-27.8834,26.6366,2.4804,-23.4189,10.8355,-96.6371,-69.1378,1.6517,33.2250,7.7534
69.9849,105.5224,-46.9960,-24.6282,-62.1144,5.0628,9.2107,35.7705,-17.4566,45.7487,-77.6891,-22.0687,-76.6306,-157.7254,-113.1598,33.2593,-45.1306,47.5215,14.7178
58.4159,109.3071,-65.9971,-38.4782,-55.3455,38.0352,-9.1729,67.1879,-15.4563,63.7557,-105.7619,-54.3472,-78.5216,-67.7988,-93.1595,-22.8771,-16.0792,79.9355,58.2097
62.1909,108.8057,-12.6543,-17.5990,-5.1967,82.1016,23.2757,110.3882,19.7190,71.5232,-3.7895,-56.7601,-19.8634,103.3177,-20.7696,-111.5574,41.8783,110.2721,102.3365
80.2926,105.8615,21.8559,-26.9557,49.1802,70.1181,67.7587,127.1138,49.1182,101.2841,78.3095,-38.0874,38.0299,90.5510,23.6805,-117.8562,29.9605,71.7901,101.1899
80.9307,42.6368,1.4948,-92.6247,55.7345,-7.8451,55.4819,109.1395,31.1827,100.6962,61.4153,-43.4263,58.2166,-19.4313,22.1779,-57.4499,-24.2152,-17.8702,72.7517
54.4311,-25.5000,-33.0964,-144.0245,-1.9885,-67.1372,17.7019,88.1395,8.4352,55.9186,13.1114,-55.6928,31.8813,-41.4724,-7.1553,16.3239,-57.6688,-63.0801,54.4456
15.2408,-13.1448,-71.8737,-135.7972,-69.8521,-59.4520,22.7056,64.7580,24.9826,29.0748,-21.9293,-50.6878,-10.9830,23.2400,-48.1537,30.8643,-74.8426,-45.3914,49.1566
-23.1026,5.2678,-94.6289,-114.5624,-78.7088,-52.6846,66.2864,25.3487,54.6696,30.7989,-58.0810,-59.7692,-12.4628,74.4020,-37.2344,-41.8482,-70.7611,-36.1489,45.0398
-61.3249,-45.6679,-72.9158,-111.9819,-54.2863,-90.6662,92.3230,-0.0482,59.1903,25.3430,-99.0532,-74.4690,2.1972,32.4268,11.3501,-73.1096,-39.5205,-43.9251,26.1015
-93.3944,-67.9109,-46.4391,-86.7233,-57.1192,-88.0714,75.9642,25.3981,48.9997,42.3473,-115.4709,-40.4237,-26.8697,-53.1608,-2.5557,42.8352,-22.5855,-2.0684,-3.8294
-76.7214,2.5784,-33.8826,-28.9590,-47.2033,-5.4215,67.9392,83.6354,67.2816,110.1924,-68.9710,17.4100,-30.4695,-16.1965,-24.8320,146.2486,-22.3014,73.3006,-0.2950
5.4972,61.5272,9.7015,-6.5832,18.3579,35.4735,116.9882,116.4934,119.1062,152.3584,10.0887,23.7449,59.0632,126.9731,50.6542,59.3162,-4.5427,82.4641,38.2911
76.1321,40.5047,51.7082,-47.1537,58.7133,-28.6052,162.8740,90.0892,137.6711,103.0191,30.4652,-22.8980,132.0285,136.1788,116.4344,-76.2437,3.6460,20.1967,46.7832
72.3364,-7.6557,28.1202,-87.7970,25.2197,-89.6012,137.4864,33.0996,84.2267,19.0302,0.8162,-70.5488,110.4342,-30.6443,81.3226,-63.0794,-9.5761,-19.0033,30.9177
50.9307,-43.1265,7.5697,-78.8760,12.8582,-82.6036,108.9490,-1.4285,31.2483,-26.6168,25.7454,-80.0644,95.7766,-133.4887,71.1794,5.3614,22.9698,-6.8199,66.1045
71.1817,-59.4250,64.1088,-20.6849,72.2421,-43.4347,142.0431,9.3738,42.4202,-33.2292,97.2229,-20.5950,135.0759,-46.9957,124.8522,-1.4708,104.7635,15.9445,133.4523
99.3031,-33.0220,124.7536,85.2314,118.4669,32.8342,159.8627,66.5096,67.1547,-2.7234,113.3913,105.0819,142.4589,116.6384,122.5847,0.5291,148.3204,44.9323,151.6378
109.4291,41.8218,123.4501,201.9615,100.6638,118.9766,114.5096,145.6466,56.8006,72.9958,78.5432,226.3535,99.9427,209.9352,79.6031,58.4204,136.5659,76.1185,121.0535
125.3329,133.9774,106.6114,248.1734,64.8743,104.0855,77.5956,171.4193,44.1899,130.3017,58.3958,266.2673,60.3177,166.7359,86.8176,70.0596,134.2894,72.5336,83.9467
140.7109,191.0223,108.4062,213.4158,45.0902,14.2090,66.4241,108.2543,38.9115,81.4019,39.8367,215.6859,31.7836,59.2980,104.1351,26.0055,162.7770,54.4905,54.7280
131.1727,162.1696,106.2690,167.0642,33.7186,3.8404,27.9842,44.0476,3.0209,-39.0536,9.8571,125.8036,27.0090,36.4620,86.5175,13.0300,178.9435,74.8751,47.3619
107.5580,78.1353,91.5468,134.6965,22.0901,71.7583,-12.5639,51.5536,-46.3779,-94.3743,26.4151,67.2639,64.3434,98.4296,61.0531,41.8442,142.9159,99.3418,50.2550
89.3270,49.4192,77.0378,105.3215,9.0435,108.9004,-5.7842,73.5694,-52.9581,-26.2966,104.2530,81.0864,93.6123,127.7418,25.0203,87.9248,73.0571,71.5463,21.2255
89.3979,97.0322,75.2880,92.9391,4.2181,112.9483,10.0648,56.1775,-23.4195,77.7162,160.4628,122.8572,82.3259,125.4436,-5.4721,113.5906,23.2805,19.8765,-26.3822
108.9741,103.6673,79.7733,69.9626,7.4762,89.2960,-9.4950,26.8740,-9.9134,111.1806,126.1878,95.5936,76.5026,130.8525,19.3802,40.3763,-9.7744,-25.0315,-48.1561
106.1852,12.0148,53.8153,-16.2627,-9.8506,-5.1127,-40.9458,-4.6262,-24.7278,70.6197,44.8067,-10.4416,83.1856,84.0992,54.7314,-76.4672,-66.1698,-73.7020,-59.0351
52.5621,-69.3753,-5.0884,-106.3767,-47.5193,-101.8582,-56.6039,-45.5780,-44.1196,18.7252,20.0053,-79.5756,59.1092,2.3421,29.0230,-57.5717,-109.7252,-92.5873,-87.6430
-1.4803,-46.3787,-34.6244,-98.9498,-60.1561,-115.0530,-71.2294,-68.4095,-68.1577,-23.2109,68.9672,-40.1511,18.9821,-8.6450,-24.5930,66.8945,-91.8458,-50.7225,-125.2778
-14.4906,-4.7039,-4.5037,-27.2775,-41.7854,-110.7504,-107.6796,-77.1385,-110.5536,-74.2386,104.5585,29.8218,4.8568,21.8429,-59.4140,99.5322,-58.1809,-5.4210,-157.6354
-5.6029,-52.7417,48.3694,18.1708,-24.4040,-120.1064,-144.2671,-96.1446,-140.9189,-108.3851,96.2357,51.3671,14.9325,32.6005,-71.8542,43.8907,-38.6196,2.7025,-160.0920
29.4529,-89.6263,91.4982,37.6902,-5.3286,-57.8582,-134.3942,-89.0191,-121.5286,-77.4346,100.5860,58.9913,31.4537,90.4459,-51.8690,26.1674,2.6493,7.5336,-122.2865
87.7390,25.2310,103.0227,56.2133,17.3273,29.5641,-99.9832,-46.4435,-85.9386,-10.0569,107.0040,79.2485,33.2026,175.4373,-30.4255,30.7026,33.8870,6.9235,-88.8748
89.8243,156.8639,71.2845,53.6018,21.3985,15.2438,-99.0611,-31.4678,-65.8216,31.5884,63.8952,66.4973,11.3005,156.8946,-47.8132,33.3279,7.9488,-20.3552,-58.7677
17.8535,97.5591,41.9811,30.0482,29.2228,-26.4959,-91.8914,-27.7558,-6.3861,59.2016,30.0041,21.6080,11.0452,92.5220,-43.8212,96.1237,-11.5936,-22.9704,24.7791
-31.2718,-49.3547,44.6222,12.4455,54.7812,27.9043,-33.6112,35.6667,90.5599,103.9285,65.9138,-4.2994,46.9807,118.2674,8.4444,169.4652,-10.3291,22.2335,82.1508
-48.3201,-85.9839,9.5328,-7.7245,18.8858,85.9496,-29.2913,101.8603,87.2369,133.4625,81.0802,-28.2551,30.3513,144.4295,-0.5615,123.7265,-102.2955,40.1281,-21.4754
-120.3738,-88.3243,-99.5969,-64.0754,-109.7676,28.6573,-141.6250,74.7555,-46.4245,116.1773,-5.6298,-97.5241,-71.0464,65.8801,-82.3278,-20.1733,-278.1996,-7.1563,-182.1476
-221.5685,-191.4113,-194.8490,-169.3505,-215.2889,-82.5448,-220.1634,-8.2152,-128.1539,70.1451,-119.3063,-191.3741,-140.8583,-13.8575,-86.8132,-127.0706,-377.4346,-75.7527,-203.1388
-275.3641,-323.7800,-221.1636,-290.5251,-221.8899,-154.7690,-161.7775,-63.3152,-60.2401,28.4948,-173.3688,-267.0829,-106.8432,-41.9347,10.6463,-114.5131,-375.5943,-127.7947,-128.3282
-324.0062,-397.3283,-232.5879,-352.0178,-198.0493,-173.2910,-80.6927,-57.2884,27.0690,37.4657,-178.1006,-304.6704,-43.2559,-99.0018,73.8562,-2.8863,-380.2258,-131.8458,-100.8015
-391.7503,-420.3492,-256.9460,-311.3102,-204.2734,-143.8184,-74.6933,6.9776,22.4415,108.7424,-168.3192,-279.5826,-27.9498,-136.3227,52.2182,80.9306,-389.3046,-86.4067,-117.3615
-380.9690,-375.9790,-254.5986,-224.4756,-225.2386,-113.0543,-108.3330,46.1623,-31.0000,144.1816,-168.6054,-205.4022,-66.1938,-61.0181,0.3181,19.2862,-326.7968,-80.2698,-141.0077
-264.3989,-280.2663,-212.3231,-170.5226,-239.7673,-158.7202,-147.2837,-32.5994,-72.3477,62.3293,-188.5320,-156.7952,-127.7362,3.6139,-51.3026,-108.2618,-209.9969,-152.8297,-184.3220
-141.5287,-227.7005,-159.8520,-153.1241,-230.3355,-260.9706,-184.6290,-153.6073,-100.9816,-59.0872,-192.0800,-157.9951,-159.9676,-69.2734,-93.0717,-129.4752,-112.0230,-193.1129,-221.5635
-68.0018,-218.4816,-127.0268,-139.7176,-199.5767,-318.8661,-211.7680,-195.6830,-130.9383,-127.0099,-164.7294,-147.6342,-149.9897,-147.7365,-122.5584,-63.6162,-70.3115,-155.7126,-233.5457
-46.5104,-179.4570,-130.2987,-134.3700,-196.9902,-300.2328,-238.6634,-203.1935,-148.9790,-151.3613,-166.8951,-105.3708,-159.6108,-96.8936,-153.1865,-62.5964,-82.2016,-143.3259,-240.7284
-98.9125,-149.3494,-157.1841,-152.8724,-226.1390,-242.8912,-226.7530,-223.7269,-102.7942,-125.3426,-212.9083,-93.5434,-192.3320,-28.8309,-154.9183,-122.1359,-105.8213,-163.0551,-199.6653
-187.8167,-192.1750,-171.2098,-175.2390,-212.4361,-171.1055,-104.7926,-176.2879,24.0915,-36.3031,-224.5575,-150.2627,-160.9740,-67.6200,-81.5537,-112.5947,-100.0897,-122.6602,-71.7111
-224.6565,-259.6525,-161.1321,-181.3858,-143.9151,-111.1504,56.4460,-69.4537,132.2789,21.8946,-185.4553,-236.6024,-77.3642,-125.6206,6.9996,-41.5691,-98.0646,-65.2837,41.7605
-221.0785,-305.6914,-151.7937,-207.2578,-91.2271,-92.8457,112.1862,-24.3863,130.6163,-4.5417,-163.4079,-296.3922,-50.2064,-88.9991,8.4505,-22.5359,-153.1470,-73.2719,55.7200
-250.0973,-348.4399,-152.8011,-285.3792,-66.0270,-83.5226,94.0198,-20.2347,87.4200,-18.9578,-149.8555,-315.3567,-57.7836,-12.1237,-32.6833,-34.9783,-223.6230,-72.2839,56.8173
-286.9113,-376.6394,-133.5752,-348.8398,-22.6251,-29.5118,126.8201,44.9157,101.1621,19.0515,-76.7297,-314.9758,10.0805,10.7681,14.7837,8.1360,-228.7873,-5.0464,121.1322
-264.2523,-362.7828,-73.5984,-316.1219,35.3518,31.2450,184.7374,110.8584,127.9166,20.8528,21.5746,-304.0451,116.0516,-1.6774,127.3083,39.6120,-186.1291,35.0269,160.2173
-203.7017,-317.1808,-14.1960,-232.3965,69.5839,18.8835,164.1175,66.7543,89.3163,-34.5658,51.7765,-261.1221,143.4320,-3.9868,154.9997,-15.1579,-163.1977,6.2619,89.0842
-160.0050,-245.7267,-7.5498,-177.5978,68.0912,-46.7720,72.8390,-34.5337,26.2445,-76.5027,21.7745,-183.4458,106.8591,-18.6187,89.8219,-36.9416,-145.3858,-18.4998,-16.5802
-128.0649,-149.7225,-27.8402,-130.8467,46.4514,-80.3591,0.6948,-78.6297,19.2683,-78.5527,3.2119,-117.5477,84.0756,-55.8783,66.4087,41.5190,-88.4496,-22.2682,-47.5823
-80.6113,-66.8718,-14.4890,-71.0760,31.0018,-72.7958,-5.0440,-63.9670,54.1745,-64.6200,3.4981,-100.4912,73.9960,-58.2535,98.8666,59.7791,-25.9195,-33.2170,-27.4608
-25.1109,-33.2669,25.1180,-44.8744,26.9547,-75.2903,17.4547,-54.9856,59.3140,-63.4566,-3.1092,-102.5571,59.5665,2.5153,85.6256,-45.1701,6.3266,-26.9933,-36.5751
9.3203,-43.3041,51.4501,-43.2179,13.4610,-88.8303,11.2944,-64.9082,26.0068,-84.1418,1.5094,-79.1886,61.0733,51.3365,44.5298,-94.5230,38.0422,-4.5803,-61.5050
9.9101,-69.3115,68.3195,-22.3795,-0.5821,-85.8169,-0.0212,-66.3928,11.3827,-92.8462,28.0249,-51.2618,68.6550,2.7625,63.1411,-15.0470,66.6482,-17.4543,-48.4725
-0.4003,-77.3454,79.2917,-23.3930,12.1507,-79.3711,35.4981,-65.9511,27.1009,-86.1058,35.9372,-60.8676,53.9195,-89.8513,95.2963,45.1987,54.6565,-49.5549,-13.8220
10.5147,-37.9969,61.4059,-55.7071,29.2324,-73.7324,73.6172,-76.9111,19.3197,-114.7435,9.9544,-74.2601,32.8176,-82.2844,56.2800,14.0524,41.9304,-38.7561,15.6341
36.4893,45.0770,24.7142,-26.7242,22.6665,-30.8198,55.3732,-49.0120,-17.5841,-140.7918,-9.1278,-37.0256,23.7866,16.9853,-1.8844,-19.3549,69.9618,5.0609,54.4239
49.7795,114.5946,4.2092,49.6432,18.5456,43.2580,39.1583,48.0986,-19.5404,-78.9371,-3.0099,6.3326,14.5944,36.6778,13.3527,-14.4820,80.9187,37.1910,89.6987
57.6539,95.4362,8.2064,52.0255,33.8032,85.1711,87.1100,123.2592,31.1470,-1.7706,7.7445,-12.0958,13.2019,-39.4941,86.2477,-23.8665,61.1528,57.2445,98.3406
81.3453,5.6900,33.2031,9.7926,49.8879,84.7789,140.9996,101.1129,81.3538,-9.0935,20.8597,-43.1651,32.9086,-34.3323,126.8043,-36.4699,86.1932,70.3555,105.2204
96.7434,-27.3451,66.6997,30.1579,64.0999,87.3308,137.2485,53.9841,99.5248,-19.4062,41.8934,-10.3623,43.0423,69.4902,90.5669,21.5650,128.6101,59.3810,111.4616
69.2949,34.7818,75.5681,56.8463,69.8958,84.3716,109.1752,46.2454,98.3610,13.0580,57.0794,48.6463,31.2299,97.7808,41.3097,100.2005,97.2380,21.9037,82.5858
24.6426,66.8233,58.6016,12.4229,43.8600,30.3226,99.9882,17.9586,85.7786,-35.2904,66.5857,69.0347,37.1516,21.9104,53.0153,52.4575,44.9594,-33.6714,45.2772
15.0139,22.0330,44.5161,-27.2152,-2.4329,-56.7253,86.4420,-59.9430,58.0821,-155.2656,73.7839,67.5358,50.8513,-26.5981,72.6014,-87.0967,55.3194,-106.9326,34.1122
47.9755,15.7453,19.9158,-15.2151,-48.7460,-122.3335,42.8627,-114.7868,31.3624,-161.1159,49.6880,71.1320,12.1851,-13.4030,33.2914,-116.8591,70.9360,-178.3705,14.2929
100.5835,77.2068,-24.9931,-19.6469,-96.5258,-154.1315,14.2831,-115.2418,44.8774,-41.3002,-0.5221,65.3891,-48.4932,-0.2219,14.4934,-15.0664,44.7858,-207.6935,-14.4856
146.3709,105.1730,-37.0833,-48.5448,-110.3624,-155.1983,43.4364,-106.8347,101.6239,37.7176,-9.3266,46.7228,-41.4916,-4.9327,69.4864,39.5843,26.5373,-183.1499,-11.8018
138.1443,88.3914,-3.8284,-46.1057,-65.7920,-116.7597,63.2570,-109.3966,130.1808,37.5529,28.8282,28.3795,13.8772,-15.3370,91.5317,-13.0433,17.7208,-140.6617,-16.3900
51.4116,89.2014,9.1829,-26.0202,-34.5981,-67.9448,9.2956,-105.9276,90.8171,39.5123,33.7059,12.9336,33.9797,-27.7020,50.4109,-75.6322,-12.7165,-129.0822,-52.5056
-50.0294,73.4592,-18.8169,-39.8758,-59.5756,-67.9632,-28.4787,-94.8972,62.3616,48.6870,-12.8642,-6.6862,24.6575,-33.8161,56.1165,-92.1591,-35.6661,-166.5569,-40.1896
-93.9826,-12.6313,-64.3074,-102.2212,-84.5939,-125.6729,14.1816,-90.3409,92.6189,24.9185,-60.6429,-53.5074,16.8973,-40.6102,85.2423,-72.1786,-62.2604,-226.9646,13.0895
-112.9455,-109.4609,-146.7181,-191.4187,-118.3420,-197.5997,4.3954,-105.4197,91.2501,-4.8723,-121.6974,-133.6452,-36.4363,-66.5825,16.2550,-39.2034,-153.0134,-276.2965,-13.0401
-167.9748,-143.2176,-261.4472,-256.9875,-214.0337,-253.9188,-113.0017,-140.8342,25.2319,7.9112,-222.7896,-189.9348,-140.4384,-94.4068,-80.3710,-31.1259,-262.3943,-313.6123,-90.2948
-224.6948,-143.0319,-333.5552,-277.2295,-285.9838,-288.4980,-150.8825,-173.0814,11.4502,42.6399,-288.1562,-180.9237,-184.1258,-93.3624,-53.3047,-48.3555,-298.1703,-345.7198,-79.7052
-217.1378,-161.9679,-333.9636,-290.1801,-246.9630,-294.4098,-45.8042,-176.6359,73.8797,44.6483,-247.7538,-151.5615,-121.2109,-82.2240,33.9250,-51.4587,-283.7518,-344.6093,-14.0774
-157.9801,-166.1124,-303.9135,-287.8758,-193.6331,-270.2648,-3.3242,-154.9290,76.5239,21.6469,-168.8920,-126.5961,-61.4294,-89.2075,19.5328,-40.4519,-272.0467,-282.4652,-22.9289
-87.3473,-93.1384,-249.2540,-210.7199,-195.8871,-223.6451,-95.3544,-132.0740,-7.5034,11.3192,-134.3909,-61.9644,-77.3878,-76.4574,-71.1727,-27.5896,-226.9048,-189.5198,-75.0144
-0.5892,17.6757,-148.9509,-90.4676,-163.3487,-160.3542,-150.2610,-124.6789,-50.5001,-11.0169,-110.0718,30.0491,-92.8422,-9.4212,-87.8573,2.3507,-119.3780,-125.2811,-61.2343
81.8789,69.4820,-44.2062,-6.6323,-87.3292,-96.4001,-117.6371,-122.1324,-27.9333,-59.2197,-52.3752,76.3946,-49.8467,52.2304,-20.3374,21.8985,-17.8671,-105.2647,-13.7443
79.3303,68.8619,-10.4305,53.2692,-83.5203,-63.7395,-116.2724,-98.4164,-41.1872,-62.9518,-12.2045,78.0946,-11.6518,52.7421,3.5109,3.4969,-6.6247,-96.1002,-37.1351
-7.2919,102.0559,-45.9156,112.1534,-135.6304,-75.9668,-149.4653,-58.1415,-95.1525,-16.0820,-24.1603,94.2113,-18.8289,45.3555,-27.9211,14.7423,-69.6268,-77.0132,-108.8425
-40.9528,172.0014,-58.8743,127.7208,-122.8160,-106.8724,-133.6679,-42.5047,-103.0612,-25.1517,-29.8844,130.9249,-15.9424,85.3922,-1.7395,85.9443,-108.2381,-71.1185,-122.2589
41.8791,207.5854,-6.7850,107.0047,-66.7025,-122.0738,-110.2766,-70.5103,-77.6402,-102.6596,-3.0586,157.2174,10.5196,128.6013,53.0313,122.9028,-86.4045,-99.7930,-86.5669
117.4258,195.2248,24.5833,110.1521,-76.9748,-114.8314,-157.7441,-113.5966,-102.7623,-148.9119,-4.9608,171.5016,-3.7345,128.6364,10.5578,91.1684,-70.3399,-132.9978,-99.4931
89.1649,181.1359,-23.5832,137.3672,-135.1835,-97.3248,-222.7585,-136.7139,-159.4095,-153.1452,-51.0684,188.8938,-56.3882,116.9768,-65.7430,70.0774,-79.8818,-126.0435,-147.0389
34.8414,187.1154,-65.5406,169.9966,-140.7635,-76.5967,-222.3951,-133.3643,-166.4102,-165.6375,-79.7876,198.1605,-72.2982,128.4695,-48.0119,89.9995,-52.2018,-87.7008,-142.2497
45.8041,190.6807,-27.7607,226.0459,-88.0108,-59.4848,-178.9155,-122.2005,-137.1017,-163.7970,-74.3596,171.8207,-40.1112,149.5789,-0.7678,121.9507,17.1104,-58.5834,-104.7812
106.7616,171.1834,42.1805,286.1400,-44.8931,-55.9982,-138.1884,-117.6812,-130.3538,-136.8108,-57.7002,129.8679,0.4911,164.7851,12.0470,161.3640,74.7601,-42.6124,-92.5133
170.1796,155.7393,101.0859,303.8497,-21.4713,-54.7049,-91.9336,-111.0198,-129.6170,-136.2262,-13.5067,139.3984,43.8726,188.1948,61.4490,213.1766,114.0800,-19.1100,-84.6794
194.7556,179.8844,152.5628,293.8492,16.6985,-38.3507,-46.8502,-98.1285,-106.3055,-153.3338,45.2244,204.1737,74.5672,231.1185,112.7661,284.6453,142.3339,6.2123,-77.3815
159.0606,211.6450,180.4169,299.8471,58.7767,-30.9407,-30.0327,-91.1768,-81.9649,-124.8092,51.9554,247.0165,61.9997,265.3309,72.7441,367.3786,164.3284,19.7437,-93.1662
128.5530,207.6581,204.2010,333.2506,84.5994,-54.8238,-10.6035,-78.2246,-47.4462,-55.6364,28.8874,238.2519,49.4068,268.2873,39.2544,421.7495,234.5923,30.2573,-71.8082
179.9594,191.9003,274.9059,370.8359,120.4459,-75.1526,43.2250,-42.8626,20.7270,-10.9810,70.5504,203.9477,88.7230,285.8454,91.3736,484.4167,353.3284,35.5276,22.0867
244.9041,167.4685,333.0760,340.9245,159.0846,-86.6022,78.6331,-18.6526,63.2329,-29.1148,151.8191,131.4351,120.6323,326.8381,95.1639,600.3863,390.5742,12.1809,89.7532
200.5305,86.3074,275.4114,190.9287,132.3909,-152.3662,56.9444,-28.0844,32.4367,-77.9540,157.7753,35.9524,80.8006,257.0103,8.6215,573.8894,279.1471,-29.3082,69.5823
71.7162,-8.3473,147.7836,20.1088,44.4697,-250.9273,30.8701,-26.7647,4.0678,-78.3319,82.4268,20.2261,22.0302,18.6647,-20.0033,220.9512,132.8230,-42.4421,28.2346
-9.1161,-15.4918,72.3114,-14.8302,-4.6783,-262.5569,43.6702,4.7976,45.5653,-10.6704,23.7368,111.3905,9.3881,-181.3208,38.9976,-180.5501,79.3489,-17.0768,25.1461
21.4897,35.0776,74.4326,66.6154,23.9488,-184.0781,78.9628,25.9676,104.9453,46.4650,30.3849,200.7768,25.8382,-177.4545,74.4770,-274.2778,120.6526,6.6220,65.9066
105.0138,48.0021,98.7044,118.1671,60.8582,-127.2696,105.9216,32.2241,115.7598,50.5124,56.8917,234.2852,33.4727,-102.3853,50.2680,-198.6545,160.8071,1.6363,121.1917
136.6389,28.2725,82.9377,94.3055,44.8122,-114.1376,79.4116,52.9688,81.0821,54.2743,37.8045,257.5776,18.2868,-97.1181,2.7631,-210.8476,107.0259,-21.7492,119.7119
85.6143,5.0533,13.5305,43.6656,-13.0609,-117.2841,-8.3835,75.8132,42.5109,81.2526,-19.3018,265.5830,-10.5995,-104.5877,-28.9215,-225.9995,-11.4329,-50.6085,61.4313
27.7726,-45.9946,-40.1373,-25.8744,-67.6847,-155.5929,-65.2798,77.1433,38.6093,82.3173,-42.3410,216.9922,-22.5544,-89.1312,-21.6156,-160.8402,-84.5068,-80.2235,48.7233
11.0428,-112.4227,-38.7822,-118.5473,-90.8873,-129.2669,-33.0893,60.2739,60.2094,42.9038,-24.9862,140.3100,-13.3299,-82.5180,-8.8678,-147.8498,-106.0793,-94.5976,90.7736
-19.3297,-154.2708,-53.9816,-191.5117,-88.8664,131.4231,16.1451,32.9142,71.3336,25.7336,-41.2746,58.5407,-10.7567,-33.2975,-7.3648,-209.5271,-147.6465,-84.3751,103.5686
-93.9000,-200.6041,-110.1652,-225.6947,-79.8270,479.4149,33.5172,15.2833,90.2627,76.8013,-91.4754,-78.0282,-7.0705,61.9059,32.0431,-234.1630,-195.9660,-81.1413,101.6428
-161.5300,-290.6418,-131.9122,-253.5723,-76.7596,553.6788,46.4720,22.3380,123.8572,129.9588,-99.4959,-258.7199,11.0929,73.7776,75.5639,-215.4633,-215.3407,-106.2623,117.3329
-194.4084,-361.4662,-121.5722,-267.4476,-87.0914,365.8681,44.0420,26.5819,87.3040,88.6580,-70.3469,-350.6810,8.6235,-3.5265,41.3992,-189.6706,-228.9553,-95.7490,91.0055
-201.7499,-297.6509,-134.6480,-212.5812,-83.2977,265.5258,31.2756,24.8757,-21.7421,9.8515,-73.6875,-280.6910,-9.4191,-26.6685,7.3871,-153.5191,-212.4216,10.5830,41.8800
-173.3592,-106.4140,-122.6849,-105.9513,-18.2386,327.5938,77.3407,55.4493,-51.2676,27.8573,-103.6067,-160.8118,15.2828,10.0187,62.0345,-139.3138,-125.2594,131.2706,57.6710
-124.0826,25.1437,-47.8855,-42.8729,75.0838,326.1754,146.8694,84.7218,19.0779,93.2396,-87.1655,-129.6455,58.8122,2.3339,93.9483,-149.9157,-44.8133,152.7573,75.2725
-100.6513,-31.3364,3.6638,-51.0702,99.1885,223.0358,118.7377,54.1000,15.7355,59.7423,0.9822,-177.4013,54.0675,-36.1548,21.5327,-126.7061,-42.9370,112.4732,5.2221
-97.1730,-130.9003,-17.1839,-59.2228,46.8901,164.9823,25.4306,21.5584,-80.6966,-27.7928,78.1510,-239.3881,30.0587,-47.5089,-40.3976,-87.2966,-57.3875,92.9287,-58.0883
-83.8391,-95.6837,-61.7129,-35.4329,5.1023,144.7850,5.9442,46.6721,-88.6180,-35.5056,30.1541,-329.9191,28.6699,-57.3890,-1.8548,-83.5051,-40.3311,62.9332,-25.4594
-87.4894,-7.0548,-109.0453,-23.0517,2.3009,69.0311,67.5027,62.2646,19.7099,17.5683,-107.8970,-445.6447,13.0739,-82.2261,83.2359,-71.6072,-39.5286,-3.7879,19.2602
-126.4019,1.8866,-158.5842,-29.1078,-12.5281,-24.9339,93.9708,25.2728,68.6892,53.6072,-168.5053,-492.8958,-26.2960,-94.6330,111.7292,-22.7880,-77.6216,-39.1672,-11.5122
-146.5345,-14.9617,-177.6689,-16.7523,-60.9267,-70.6067,16.7717,-13.4747,-9.5061,57.0777,-126.8700,-438.3997,-50.0163,-97.6121,32.2529,0.1560,-116.2132,-21.9939,-84.7160
-109.1128,5.5748,-161.2382,7.9265,-97.4601,-84.7111,-91.3681,-38.9291,-89.5488,20.6536,-117.3106,-353.9823,-56.5713,-95.5628,-47.3110,-17.7414,-116.4952,1.2995,-115.4687
-61.4688,20.5019,-136.1927,16.8403,-76.0667,-79.0714,-96.3602,-49.7262,-78.6296,-20.3837,-139.0354,-268.2869,-50.6230,-70.9799,5.1434,-24.0191,-82.9342,34.3310,-68.3448
-70.0622,8.9586,-123.8042,8.4007,-31.1131,-50.1627,-25.2557,-2.1116,-41.7631,2.1830,-83.4143,-179.6031,-28.9200,-47.5094,57.3408,-15.9380,-82.8763,74.5314,-17.0639
-121.4128,-26.6116,-150.9495,-27.7873,-40.9402,-37.9987,-38.9002,66.1869,-56.5991,35.5898,-1.3725,-146.1626,-32.8441,-58.4405,-50.1416,-19.2352,-144.0125,64.9669,-35.6040
-132.0690,-73.8852,-194.2929,-88.6903,-82.6567,-57.4779,-105.3016,60.3995,-73.6905,-2.6266,10.1572,-165.5535,-64.9047,-73.5695,-135.6152,-19.7062,-165.4218,36.1508,-56.6589
-76.6611,-33.8165,-166.4992,-101.3363,-53.3084,-58.0023,-61.0914,15.8760,-39.0024,-33.9621,25.9530,-129.5261,-55.8547,-59.6320,-60.8679,-5.2718,-90.0572,84.3500,-21.5637
-28.7395,120.8148,-66.2309,-24.1272,38.3154,-15.7847,16.4260,21.9937,-23.7586,4.3110,107.6710,-19.6190,-23.1927,-37.5951,-46.2990,0.9630,-9.6808,174.9542,-11.2874
-9.4573,211.7234,18.3877,54.8356,99.6885,34.8878,-18.2027,45.9305,-62.7807,10.5889,151.3130,69.5841,-43.6445,-23.7599,-157.6582,-16.3190,42.8643,203.2779,-36.6183
56.1778,146.7048,80.8197,48.1860,138.0561,57.3330,-39.0975,30.5324,-51.8809,-50.7515,108.3325,100.3150,-70.6295,-11.5208,-162.1315,-36.6541,126.2524,177.9698,-0.4454
153.4553,70.8770,150.1588,-8.9089,191.5859,34.7210,48.1877,6.9837,26.3667,-89.1131,89.9065,95.3721,-36.3335,-13.1736,-86.2156,-34.3324,183.9974,151.9533,50.0310
171.1054,67.8118,172.9945,-51.6473,204.4665,-12.4541,80.5539,4.5576,41.7502,-100.3007,154.2633,100.2603,0.8793,-28.4097,-126.1864,-17.0160,143.8249,122.1383,11.7680
126.3893,74.5212,140.6788,-67.9513,159.9291,-32.9346,27.1547,8.3843,-12.4055,-115.7421,214.2776,210.2602,7.5427,-20.9533,-162.2332,-9.6798,107.9653,100.8944,-34.4973
132.7982,89.4625,140.0940,-59.9410,143.2808,-24.4099,55.2110,14.9746,-4.0343,-72.1606,208.4650,417.5404,36.8587,6.2593,-65.6028,-15.6436,156.6561,116.0136,-10.0843
179.1350,140.1434,187.0041,-40.4193,178.7083,-34.5889,139.1204,26.6263,70.8965,24.8547,202.7211,533.6357,72.0820,5.3769,-16.8133,-22.2209,209.9944,135.8264,5.4265
196.7175,182.3251,231.0867,-39.8080,207.5943,-61.4041,136.6298,34.2688,103.7540,58.4459,246.7543,486.6049,58.1050,-16.5413,-83.0952,-15.0674,232.2498,128.1502,-14.4142
206.1382,191.6959,267.0814,-53.3954,205.2508,-66.3514,77.8285,38.5510,73.5204,35.0338,259.3387,425.4566,19.5956,-16.2079,-115.1986,14.1504,260.4957,124.2848,-21.1841
202.9933,164.1692,270.0826,-58.4622,172.1508,-53.5751,23.0301,55.9100,29.1600,71.8989,193.1000,399.4905,-12.6618,-15.0991,-125.9487,34.2237,252.1514,146.6454,-46.1205
127.0580,69.8139,198.8035,-84.3736,116.1114,-38.5478,-36.1876,103.1692,7.1109,152.9590,148.4397,315.3705,-36.7822,-41.7250,-166.7487,12.8641,178.5045,150.6474,-83.8559
31.5332,-49.1703,111.6883,-166.7831,75.8405,-32.2661,-52.9897,147.9551,28.0031,155.8383,148.1911,197.2424,-36.7006,-45.0117,-128.4390,17.1578,106.2256,74.2793,-60.7050
6.6479,-115.7671,60.8518,-275.7146,39.5177,-81.3083,-40.9478,103.3413,44.8708,70.0410,67.1409,113.9094,-53.4178,1.9563,-63.2379,135.9295,39.9977,-70.6610,-54.6980
-16.1154,-156.9727,-18.9060,-361.3101,-55.4078,-186.6408,-119.3840,-34.1515,-24.6820,0.2123,-64.6681,20.3343,-141.6014,36.1292,-150.7357,310.3392,-65.8456,-177.9799,-185.7269
-109.1929,-201.8149,-128.7097,-400.0098,-161.5121,-251.6687,-235.7913,-140.2260,-135.1146,-7.6633,-73.4523,-72.8761,-206.6797,40.3744,-254.4934,425.7935,-141.0997,-182.4208,-337.3118
-173.4650,-194.3063,-153.7887,-377.8448,-169.3140,-239.8561,-224.0268,-161.0347,-161.8179,-15.7544,1.2029,-62.6115,-154.6589,82.6102,-170.4568,506.8788,-108.2728,-161.5534,-351.7666
-144.5580,-138.0474,-100.7567,-311.9502,-120.9149,-229.4485,-148.0611,-173.8788,-120.2599,-63.8637,-6.4142,21.2673,-108.2674,166.8978,-96.8189,624.4621,-52.6972,-186.7464,-304.1811
-122.1609,-111.6272,-98.8892,-268.6794,-135.9044,-248.3185,-163.3008,-205.3282,-119.0510,-102.7578,-68.4851,49.2428,-179.7978,213.3750,-231.4577,724.1701,-76.8281,-204.4559,-312.6045
-148.6397,-137.0430,-151.5612,-287.4865,-192.0932,-253.5267,-208.9625,-216.8544,-151.3764,-110.1813,-88.3764,-1.4683,-246.4488,205.7177,-339.1742,744.9794,-129.1723,-182.6991,-332.7755
-136.6626,-177.2891,-149.4525,-313.0347,-190.0860,-241.8745,-178.5114,-214.4340,-140.3531,-134.2458,-71.1743,-59.1522,-191.5399,219.6150,-220.5325,768.3692,-115.8222,-170.8357,-290.1519
-81.7263,-167.6920,-88.0163,-258.5800,-140.6724,-213.1555,-132.6994,-190.1790,-107.8888,-160.3414,-24.2312,-52.7047,-110.5894,278.3723,-89.0691,831.5814,-60.0553,-162.6963,-212.9954
-83.6868,-68.3110,-74.3752,-137.2735,-139.7751,-154.2264,-154.4693,-124.3001,-129.9903,-119.4697,-2.7348,24.5307,-128.1161,281.0607,-141.3976,761.7711,-51.8506,-128.5699,-180.2910
-139.4511,21.1687,-145.2516,-68.7264,-211.4847,-120.6188,-220.9786,-93.9912,-193.3690,-54.6353,-99.5461,65.3166,-208.3185,166.0765,-240.4500,487.4977,-95.5624,-114.9378,-209.1148
-133.5628,-6.0459,-200.1467,-98.3815,-258.2198,-135.7271,-255.9481,-136.9101,-210.8746,-60.2859,-187.3498,1.0582,-224.6267,66.7098,-217.1332,288.0974,-105.3405,-122.7401,-210.2204
-41.6693,-44.0377,-156.5493,-108.4396,-198.4709,-95.1642,-201.6259,-130.2426,-142.4693,-93.1362,-107.5352,-43.5756,-145.9249,117.2491,-107.4414,349.4464,-56.2061,-76.9198,-117.0283
28.1144,12.3876,-93.4908,-23.0575,-106.7864,24.6360,-94.8062,-35.3210,-41.1320,-62.5698,-50.3924,24.4057,-86.7741,206.1918,-19.5839,410.5554,-23.4180,-8.9253,-10.4649
15.8084,48.2712,-115.9884,55.4321,-97.0162,93.8517,-40.7524,19.7562,5.0064,-9.6031,-153.4389,73.0283,-112.0954,182.4777,-15.4021,277.1686,-46.8836,-3.0462,23.4363
-17.2021,4.0232,-161.6376,51.1600,-130.3072,96.8216,-53.9296,26.3098,-35.9364,-6.7041,-144.1746,-11.2494,-115.5075,125.7730,-92.1036,177.4405,-84.1169,-2.7434,36.7890
-30.5373,0.6941,-127.1874,33.8323,-111.7590,134.6040,-50.9677,89.2091,-90.3476,-12.4045,52.0823,-148.3320,-25.6948,135.6641,-135.8136,233.9948,-98.7269,56.1781,80.6485
-58.0834,48.7125,-61.8817,34.9805,-62.4813,157.9315,-2.8899,157.7895,-61.0402,31.2303,92.4565,-238.5046,68.0781,126.8435,-25.4744,230.5518,-89.0235,87.0951,106.7574
-81.4825,48.1731,-44.8440,15.9931,-33.5239,75.1536,44.8315,124.8165,14.0846,80.0658,-59.9184,-262.4030,98.6728,50.6070,136.3828,107.4775,-66.9316,42.9789,82.9129
-42.5471,26.2623,-37.5279,32.8858,-16.3673,-9.0500,48.3237,41.4079,1.0232,64.5374,-101.2008,-225.5864,86.3414,0.6047,138.2209,29.1558,-50.5147,24.1664,28.3152
16.8365,45.6383,8.1775,148.3724,-16.7472,12.3270,3.1131,-7.0900,-85.9712,-0.2776,-40.7208,-158.9691,46.6598,8.6211,36.2088,3.7575,-24.2223,74.8500,-30.9564
40.7436,86.3149,71.3341,256.7797,-32.0718,53.3996,-29.6022,-20.0181,-87.8509,-49.9848,-31.8666,-98.0189,34.0810,20.4889,56.1745,-40.1954,38.6234,107.9433,-39.3680
103.6430,161.3085,129.1204,240.1613,-6.2911,30.4125,-1.1674,-12.2670,0.8334,-68.7390,25.4661,-49.0800,96.9662,24.8663,153.6804,-58.4913,91.3876,63.1633,24.7280
250.5875,283.7190,164.5183,155.2272,48.0090,-13.2980,23.0931,-18.7974,30.3834,-84.5326,113.3282,-24.8316,130.2389,22.6249,135.3030,-51.4238,91.0159,-16.1352,79.3513
366.8943,375.0243,162.2295,107.3030,56.1016,-24.1714,3.8856,-71.1924,1.7561,-95.9295,35.0522,-3.5857,62.4610,4.7559,81.2955,-78.3419,99.0726,-39.8830,80.2081
380.8661,401.2399,154.4448,108.1333,51.3055,13.3134,31.2350,-99.1220,24.1719,-86.7066,-75.9588,94.9979,41.7533,6.6592,142.4685,-98.8275,139.2350,27.9695,83.6213
348.4127,403.7478,164.6371,127.0973,98.1133,74.9967,112.7747,-49.4163,50.3861,-76.3162,9.2212,242.3519,135.4507,42.7885,195.5090,-73.2635,132.0324,102.5841,93.3591
282.6061,363.1933,156.8122,146.7755,144.2648,97.6928,147.4783,-7.1938,14.9195,-65.5250,114.4423,294.7423,188.3997,66.7085,149.0954,-49.7782,101.2877,96.8619,89.2314
192.1824,274.1590,143.1817,160.4233,165.5499,87.2303,177.7219,-3.0906,31.1122,-13.1050,86.0520,255.8079,171.9403,76.6459,158.1439,-30.8165,158.5405,67.8567,144.1267
177.4318,223.2283,181.7115,167.0366,220.0958,109.7070,271.3092,53.3784,136.3661,53.4672,114.2742,256.4804,210.9337,107.7561,241.9586,17.3650,240.9832,88.2348,250.9796
213.4358,218.6176,213.2976,147.6971,255.2545,130.3384,289.9261,138.8835,165.0158,49.9949,209.2806,284.7173,255.3609,124.2146,230.7783,51.9186,204.2725,103.4451,253.7725
122.6804,171.2236,138.2487,80.1869,186.5409,82.6527,180.1031,138.0155,87.5696,6.3193,165.3352,252.7786,189.2620,80.4173,148.1020,32.9031,102.8491,73.3905,138.1662
-52.2032,86.6342,35.2822,-1.5749,109.5751,25.0827,128.7740,77.1302,70.5370,21.9560,107.2830,206.6826,96.8825,18.5128,108.0997,3.5164,65.5476,52.8064,59.5625
-63.9822,48.6979,47.7449,-29.7215,112.4615,14.0570,151.6105,40.9121,118.8564,57.9519,246.1423,221.8960,77.9426,-8.6293,44.8579,-4.4787,75.0595,55.8737,40.7861
98.3218,88.5306,143.1814,24.1612,102.9745,9.6072,75.9270,10.6729,89.1939,12.7496,373.4500,282.6407,78.1932,-7.0389,-42.4043,-18.0502,91.2518,61.1197,0.0941
222.6615,181.3798,200.9992,129.5397,47.8659,9.9993,-16.7007,-21.2520,12.3129,-61.8394,281.2681,353.0525,59.5976,9.5844,-8.5688,-41.8663,137.6702,90.3603,-30.7394
230.0476,231.8972,190.7044,193.1585,40.0122,38.9326,47.6140,-9.0828,11.3865,-63.6922,158.3200,360.8556,49.4767,32.1054,80.6955,-38.5986,164.4538,110.8093,-3.5987
170.5764,129.9112,130.3450,118.9207,56.0979,54.0988,136.5472,24.3321,43.4615,-30.9327,144.2841,228.5579,36.6178,32.3221,35.7392,-7.1922,95.9666,51.9777,37.3863
77.9131,-45.2655,41.4444,-43.6312,18.6938,54.2862,110.6014,47.0254,25.4224,-22.8421,116.7180,56.1573,17.7575,12.1507,-63.3800,19.1415,-2.9807,-18.2196,74.9837
4.6899,-106.7874,-16.4035,-140.6486,3.6254,90.9858,100.6203,98.1901,17.1584,3.5940,54.2218,20.1506,28.6089,13.9076,-40.2330,42.6512,-36.8141,-1.4444,121.9771
-20.7150,-84.1615,-10.5200,-152.2209,75.6535,121.7499,158.0060,153.7205,74.6146,52.3696,49.2617,59.5017,69.2244,34.9531,62.8994,64.1461,-35.7958,32.0599,139.2057
-41.8624,-126.6113,20.5160,-170.4692,138.2975,83.9101,149.0540,126.5578,126.3971,54.5622,84.8764,1.7673,120.6711,29.1638,134.5579,53.8980,-43.9058,10.0226,108.4045
-56.4870,-188.7813,51.7078,-174.1077,128.2814,29.5102,72.2020,60.1876,113.2087,41.8917,145.0741,-99.6620,159.9638,-6.7154,124.4933,21.0082,-36.3022,3.8912,56.5193
-35.7304,-167.5564,75.4760,-104.4515,88.9841,1.7005,17.0597,58.1195,79.3709,95.8916,228.0204,-105.8318,121.0224,-37.1944,12.4756,8.7805,-25.8446,26.4171,-10.4129
-40.9478,-138.3149,42.9173,-52.8579,29.8205,-36.6078,-28.8566,71.9852,80.1667,156.2294,180.9121,-76.8962,-8.6513,-49.2545,-90.2287,9.7717,-52.0464,-9.8336,-52.7693
-109.5078,-178.4052,-53.1793,-101.7165,-41.7018,-72.0721,-51.1657,23.8917,116.2979,144.7460,-58.8093,-120.1289,-126.6822,-55.5271,-61.1053,-6.8058,-76.4564,-63.8437,-6.6004
-170.0933,-213.2126,-126.4513,-157.4869,-61.7725,-58.8306,0.4288,-8.2563,158.5202,141.3360,-242.0242,-179.8975,-177.6454,-67.9039,-35.7893,-20.2909,-60.2136,-25.3122,69.0089
-184.2163,-190.2785,-132.8152,-143.6583,-35.9226,-36.5178,46.7668,37.0347,173.7713,192.2030,-215.0396,-188.6002,-202.0494,-84.2389,-135.3894,-9.1683,-47.4444,42.8750,69.2684
-168.2506,-174.6557,-121.5951,-137.2524,-31.6476,-53.8637,26.3543,56.4806,150.0472,177.2319,-165.1500,-206.5724,-190.4931,-92.1523,-163.3029,-6.6300,-54.8852,16.0374,34.9886
-122.3773,-223.3445,-118.4989,-193.6694,-30.5091,-80.2712,28.1161,-11.7564,105.9660,59.3634,-201.3305,-270.5427,-117.4313,-90.7381,-26.9756,-29.2800,-40.4691,-62.8954,41.4056
-95.5815,-303.3605,-110.6809,-249.9568,3.0319,-84.3378,65.9505,-68.6461,52.0245,-23.1579,-189.5943,-291.9086,-58.9338,-89.5914,20.0402,-38.3254,-28.0212,-90.1388,41.4806
-137.2695,-324.3900,-118.2794,-252.2776,9.1610,-75.5876,42.4785,-61.5803,-18.6084,-21.2752,-115.5679,-216.2498,-74.8264,-86.9179,-105.4766,-22.4622,-70.2373,-83.2430,-11.5075
-163.1199,-237.0648,-154.2678,-221.5257,-44.2083,-61.2355,-21.4892,-74.5928,-86.4618,-37.5676,-114.5655,-129.2760,-102.0559,-79.1529,-160.1965,-21.5335,-119.1981,-105.5538,-81.3954
-106.4101,-115.0163,-179.7418,-186.4607,-94.4353,-49.8488,-55.5567,-141.9402,-126.1139,-103.2344,-165.7770,-101.7422,-84.0968,-71.2244,-72.8302,-42.7287,-123.2074,-140.5992,-153.8814
-65.8366,-56.2517,-169.6361,-143.2242,-117.4926,-52.8809,-108.7331,-186.0053,-165.6892,-145.3804,-150.5114,-77.9160,-56.7712,-62.1837,-34.1589,-51.8938,-139.2751,-134.6245,-241.7621
-106.0744,-32.2054,-146.2380,-82.4079,-147.6091,-57.9059,-209.4044,-174.3268,-238.2355,-145.0649,-97.1559,-24.7760,-68.7805,-53.7630,-121.0272,-45.7200,-184.5372,-86.9970,-310.7389
-144.0879,18.2747,-127.1765,-19.5723,-172.6784,-53.6547,-279.1770,-161.2498,-299.5643,-151.3307,-109.2792,-23.4064,-122.6046,-55.0483,-217.3130,-46.7796,-158.4971,-43.6053,-314.2211
-128.5767,41.4447,-101.5838,19.4003,-156.8166,-51.3402,-282.2596,-165.9111,-286.5629,-176.4834,-175.9078,-101.4008,-176.7010,-56.8251,-219.1771,-53.7794,-48.1556,-25.8405,-251.0692
-109.0252,-4.7464,-61.7393,35.5949,-116.5155,-51.0654,-258.7790,-148.4107,-227.1159,-173.5884,-191.3782,-152.4850,-183.7339,-46.6968,-167.2964,-53.2417,6.3237,-8.9341,-174.8159
-131.4236,-27.3228,-32.7198,53.7075,-94.3509,-38.5213,-245.2490,-100.3701,-205.7629,-113.7617,-122.2266,-109.6142,-159.3415,-39.9955,-183.9626,-44.8594,-50.4303,22.0211,-161.2095
-179.3864,29.6690,-48.5072,94.8083,-105.7884,-13.7980,-257.9100,-53.9998,-235.9940,-44.6354,-84.7553,-31.8546,-157.7007,-45.0765,-247.6977,-36.4759,-102.8365,43.7058,-207.7533
-174.6493,78.8207,-89.3509,164.1062,-134.9182,7.9576,-273.1405,-22.2447,-250.9829,-28.8794,-162.3348,11.8506,-175.0447,-42.4590,-213.6620,-35.2734,-73.5082,36.6906,-229.5136
-77.2548,68.1543,-100.4533,228.9318,-164.2714,5.6149,-266.7521,-9.1573,-227.1280,-51.9920,-226.3094,4.8967,-180.1860,-32.1264,-138.5992,-36.5311,-17.6558,4.0180,-212.7838
12.6639,52.0685,-85.4182,235.3058,-196.4496,-23.2295,-286.4202,-32.0173,-213.0450,-60.5474,-160.0266,-42.8194,-191.6541,-35.0524,-188.4610,-30.5337,14.6677,-44.1009,-209.7505
3.4599,48.5898,-87.6256,194.5357,-222.7547,-36.0431,-338.1170,-66.3962,-213.5305,-42.1808,-93.6951,-84.0817,-214.7836,-42.0391,-251.7205,-25.6444,34.4013,-79.0714,-190.0992
-45.7854,35.4885,-99.9048,179.9821,-212.8983,-2.3391,-327.6624,-47.9473,-184.8781,-9.0895,-131.3540,-65.1504,-199.3166,-31.9313,-166.5755,-29.1802,34.6748,-69.3490,-119.7470
-79.6169,39.5236,-98.1580,212.3671,-176.9780,38.4597,-262.7225,20.2229,-154.6119,21.5792,-139.5749,-8.5279,-139.4978,-20.7212,-80.6007,-30.3958,9.8896,-29.8116,-68.4025
-106.5529,69.1442,-90.0244,250.4235,-150.4007,50.3029,-243.6151,66.9854,-167.4051,21.1901,-62.3699,19.0507,-95.3854,-28.3259,-100.7603,-33.4517,21.5977,3.8316,-50.8968
-63.1911,88.8485,-59.6365,265.6653,-113.1281,52.6690,-229.2573,72.4988,-159.4214,2.6615,-38.7770,2.5972,-83.9546,-35.3190,-73.8255,-45.2894,99.0878,25.1869,-1.2145
70.7983,120.9814,5.2236,232.5074,-53.6356,37.5239,-159.6025,60.7366,-82.7274,18.5325,-78.5216,-36.1189,-68.7562,-27.7391,6.2952,-42.7069,138.8430,22.3147,25.8820
133.7969,174.3239,33.7698,138.8892,-43.1567,-38.8414,-139.5972,17.1904,-21.5629,54.6579,-66.7199,-83.8068,-44.2522,-27.2938,-4.9828,-23.8325,56.0223,-25.1942,-49.6493
39.7983,139.0295,-19.5287,51.5260,-104.4683,-140.5293,-192.5390,-50.3841,-19.6173,48.1971,-35.6063,-113.9920,-30.7177,-35.7503,-26.2487,-21.2914,-61.6627,-74.0313,-121.7470
-72.6369,-16.4857,-78.5072,29.3632,-147.7448,-172.6993,-178.7469,-71.8168,-8.0335,14.8972,-55.1258,-113.1764,-21.1454,-28.6969,51.0456,-27.7222,-102.8902,-65.8536,-93.3613
-100.8288,-124.0791,-93.1250,10.9491,-133.6449,-132.4173,-105.4028,-43.6237,18.1339,13.6630,-77.7478,-127.7441,2.1830,-19.0380,112.0861,-18.1951,-97.7784,-44.1855,-51.3811
-80.6057,-92.7696,-108.2120,-55.1502,-116.2248,-104.6547,-90.7786,-46.8736,10.2810,30.6101,-87.2643,-176.1530,38.8355,-30.6804,122.3985,-14.9224,-102.4665,-81.3081,-47.5703
-39.9584,-51.8302,-115.9281,-93.8372,-109.0329,-116.2076,-103.6574,-88.0219,2.3414,23.2348,-87.8995,-179.6433,82.2453,-36.1394,170.0679,-28.4739,-96.9376,-143.9624,-27.8969
-6.9807,-88.6662,-68.8811,-54.4748,-92.1157,-113.7253,-103.0057,-96.0904,10.7021,6.8669,-8.0273,-99.7594,115.9931,-19.0302,175.8300,-32.5923,-89.7919,-162.6364,-15.7310
-32.1349,-126.1421,-24.6767,-4.7840,-88.7817,-77.7151,-145.2488,-58.8492,-22.9283,12.9956,97.1680,-31.1919,108.7643,-18.2420,85.6556,-33.2319,-124.6544,-143.2862,-48.6709
-81.6956,-114.9459,-46.4286,9.3983,-102.8631,-55.4632,-175.3256,-16.9954,-70.8500,22.9735,68.2378,-46.5494,69.0536,-29.7233,67.9657,-35.6773,-156.3259,-120.9091,-62.4616
-80.3339,-100.4591,-61.3690,23.3214,-91.3006,-78.1887,-110.7414,-2.3195,-63.0980,-10.0006,-3.3512,-88.1270,64.5896,-8.7541,151.0095,-16.1888,-119.1233,-105.3349,-50.2253
-33.7421,-95.9286,-11.4579,49.5326,-55.2412,-129.1582,-66.3304,-47.8211,-58.9378,-91.5469,52.4531,-92.0186,111.8026,-8.9937,149.4722,-26.5252,-61.7817,-105.8735,-86.9114
24.1452,-57.5623,28.4137,59.1971,-35.9167,-187.2319,-117.8276,-140.4025,-112.0502,-163.9303,93.6383,-70.1734,124.1092,-108.2828,68.7498,-135.9958,-36.7713,-118.6939,-133.0760
93.1617,23.5050,25.3690,57.6498,-22.4650,-221.6939,-119.3083,-190.0001,-138.4437,-175.9061,13.8272,-36.3366,72.7665,-207.9076,60.6571,-240.5987,14.6439,-106.4648,-98.1525
157.8296,88.2632,69.1083,81.5050,34.4706,-184.2261,-10.3445,-158.2419,-97.8386,-146.7267,48.4090,9.2142,71.7725,-163.8080,103.3028,-200.6378,123.6783,-51.4515,-23.2393
182.3994,84.6003,175.9156,127.5307,128.7008,-95.8291,66.9149,-112.6998,-55.8253,-120.3866,248.2944,33.3790,172.0229,-53.6303,124.5167,-103.7410,204.6182,9.3312,17.6378
150.4576,40.5680,224.5166,143.2518,180.1983,-57.2285,42.1176,-93.5588,-27.4028,-101.4853,305.4442,14.9400,245.2255,-39.9608,159.7633,-99.7816,193.9366,25.8632,33.4056
83.0045,9.2970,159.4201,104.9249,135.6073,-88.2431,-19.2416,-75.8033,1.4165,-71.7429,179.1512,-18.1304,212.5881,-82.6766,197.6595,-128.6474,125.2513,-12.6356,35.8645
37.7191,-17.6789,73.9678,54.8235,54.5891,-96.3717,-62.2301,-56.8109,-2.6189,-30.2962,145.6103,-53.8731,177.3950,-62.5893,182.6145,-85.2844,49.5083,-62.7706,23.9700
40.8167,-56.7652,49.9431,27.8741,24.5089,-62.6147,-60.9687,-46.4449,-26.3593,-8.0527,222.0118,-108.2371,208.5687,-36.2119,153.7114,-45.9798,6.1102,-72.6272,27.2880
51.0458,-71.6751,71.2125,17.6449,36.5495,-61.0534,-16.3364,-30.3654,-16.6129,-38.3096,229.1466,-150.1007,226.8586,-85.6348,155.4392,-87.7408,29.6536,-46.1262,48.9539
57.8841,-47.8295,105.9143,39.1060,51.5647,-74.3620,26.7700,-10.5371,10.5516,-87.0005,184.4130,-118.1017,188.9115,-97.2383,162.3044,-104.3897,101.2312,-15.8630,63.7330
93.1768,-12.5038,139.0604,112.1764,86.0255,-18.6688,43.7323,3.2953,28.2785,-71.4102,157.3092,-14.7893,151.1506,19.4654,162.6967,-15.9667,161.6896,17.3932,82.5756
125.9383,41.9391,144.7567,194.9542,123.3464,69.1209,36.7223,23.4945,50.1657,11.7469,115.3659,96.9233,117.5772,108.0547,132.4354,56.6692,195.6139,42.7589,102.4183
125.2790,120.1117,130.3309,248.2305,98.4430,81.9500,-9.8377,34.6983,53.5847,74.7025,88.3901,169.0085,36.2621,51.1748,17.6204,20.7323,224.8821,16.2152,78.8204
153.5925,162.1688,145.0048,287.5081,35.1312,21.6260,-74.8878,3.9133,24.9821,70.3844,108.9796,186.3907,-62.5432,5.1309,-118.3828,-12.0814,248.1170,-42.9793,27.2942
231.7761,131.8982,179.4854,294.5663,14.7933,-31.8477,-101.7096,-35.3363,22.9585,31.9391,100.8830,148.6977,-99.1772,72.9973,-140.2352,38.7049,256.1581,-55.4550,13.8828
276.3926,68.3988,165.5648,225.8196,26.5683,-47.7709,-99.6591,-32.4661,53.9070,5.5415,60.7398,74.1726,-77.6690,95.7833,-75.9896,64.8482,255.1981,-25.9502,32.2219
254.7473,17.4243,103.2692,125.3062,19.4001,-51.2485,-104.3624,-20.9377,52.1791,9.6593,58.2105,-1.5794,-57.2181,0.2257,-51.2441,7.3015,234.8820,-34.0688,22.7163
203.5227,5.9374,57.7713,62.4270,8.3575,-72.6577,-88.3349,-50.5055,29.7610,16.5702,51.0168,-47.4407,-42.8537,-52.1547,-49.3859,-29.6640,171.4964,-82.4273,-23.3574
126.5544,27.5294,44.4958,22.0747,14.1301,-106.0466,-34.5122,-85.8411,39.7646,-10.9841,22.3447,-56.7371,2.7869,-0.9652,14.8499,-3.7446,74.6051,-102.1087,-57.7846
40.5390,18.3873,37.2445,-15.0630,21.7917,-93.4570,19.0515,-64.5076,61.2938,-35.1851,67.2423,-55.1641,83.0280,30.7019,110.3670,7.0539,-11.2424,-74.6386,-29.9243
4.9330,-39.6011,35.4482,-20.8794,30.5720,-9.9702,58.1030,4.9012,76.9213,2.0009,131.6343,-72.8117,158.1330,6.7389,167.3500,-11.0895,-47.5246,-39.7181,53.0947
25.5850,-60.4959,39.5682,-4.0949,38.1454,61.0348,86.6877,56.4897,105.3261,53.4426,66.0834,-91.1983,184.4666,4.0400,187.2020,-1.4047,-31.9632,-31.2896,109.8786
53.3238,-14.8365,35.3125,4.0743,21.9177,39.2881,77.7882,48.0638,111.6487,43.2286,-35.9820,-67.1069,150.9973,39.8641,174.9958,35.5194,5.1736,-56.7921,87.8290
63.6682,20.3126,30.4023,12.7416,-13.6435,-33.3920,17.8221,-4.9545,65.7048,-5.3964,11.3700,-21.8753,93.2198,58.5882,108.5004,48.0935,34.6678,-96.1710,29.8370
57.1341,25.4416,28.8369,18.2058,-49.7881,-85.9325,-70.9754,-73.8116,12.3957,-43.4053,135.8263,-15.7479,42.5964,17.4486,-1.6985,9.2086,40.0149,-118.5159,-34.3165
34.2110,32.8091,-7.7336,-0.9019,-95.1530,-126.7635,-162.9800,-148.7806,-38.6589,-74.4375,134.9152,-34.0491,-33.1001,-41.6931,-113.5135,-38.7244,-4.1902,-121.3622,-135.8061
-9.6497,6.7082,-102.1278,-26.0402,-148.6539,-186.1559,-220.1904,-212.2248,-119.5760,-100.5070,-37.5844,-34.2488,-156.9078,-35.1202,-176.8737,-31.2078,-108.6034,-132.9571,-249.2957
-77.6904,-66.1132,-208.4788,-67.1613,-185.8979,-260.0035,-210.7262,-245.0772,-178.9273,-113.6114,-242.9568,-71.4485,-237.0070,-25.8397,-153.2774,-25.0015,-224.6636,-171.3611,-291.5194
-133.7503,-105.9738,-262.1674,-171.3347,-201.3490,-327.2146,-166.6362,-258.5539,-159.0856,-124.1706,-292.1866,-188.7822,-176.5912,-146.7942,-85.3674,-122.2212,-282.6777,-211.0777,-252.2452
-131.3153,-87.2930,-239.8113,-259.2942,-185.4478,-330.7586,-136.2797,-247.4595,-114.6291,-127.2468,-164.8757,-260.6728,-44.8208,-263.1185,-58.3283,-209.1791,-246.6584,-192.7287,-175.6663
-93.8492,-72.4798,-153.4099,-184.6118,-101.6032,-204.8251,-102.0642,-171.2369,-88.3461,-111.2497,-39.4266,-170.7121,31.7331,-143.5895,-51.7926,-112.3993,-116.0124,-93.0109,-65.9351
-55.7269,-69.6507,-34.3935,-3.7571,33.6673,3.1818,-41.3788,-47.7374,-46.6981,-91.8301,15.2849,-25.1731,53.6014,70.9358,-11.3314,45.7905,38.3321,24.0194,56.6909
-5.1290,-39.0981,52.6551,88.4656,116.6109,150.9988,-15.0070,40.3831,-19.0772,-70.2379,74.4759,24.5635,48.9818,115.8061,-12.6321,75.1411,79.1937,75.7468,104.3950
9.3036,-10.0211,34.2551,56.2900,74.6064,180.0104,-88.2263,57.4614,-72.9001,-36.3643,48.9564,-0.8383,-36.7322,69.5223,-106.3970,57.7938,-20.7102,55.1670,37.0861
-77.2742,-47.4988,-66.8398,5.7871,-33.4517,150.9477,-202.8993,23.9388,-156.9331,-23.4591,-126.1501,-27.8761,-176.7683,67.4704,-175.9831,79.1037,-103.9108,19.6356,-62.8597
-162.2610,-134.0298,-102.5294,-6.7376,-87.2440,127.1900,-240.2756,-27.8390,-182.1272,-49.6273,-169.8210,-49.5846,-222.9487,27.4211,-179.1819,48.7381,-57.5587,31.6758,-96.9565
-122.0579,-174.6361,10.7614,28.0382,-46.9211,137.0368,-195.2482,-33.8984,-169.2989,-64.7882,38.8886,-46.7414,-169.1367,-18.4260,-222.9407,3.8490,39.0514,103.2607,-56.3759
-52.9649,-136.3047,136.5028,96.4705,21.0787,173.4799,-164.3241,31.1571,-164.8228,-43.1227,103.5578,-4.6621,-176.1627,71.0195,-279.1600,67.6997,80.3663,158.2060,1.9159
-84.9479,-109.8090,107.3611,117.1282,46.6981,167.9435,-174.3472,71.2967,-157.5733,-20.7415,-131.8760,15.0146,-258.4738,171.0442,-234.8987,137.6688,59.1509,123.1547,19.3541
-159.7467,-149.3395,-20.9272,45.2434,24.1089,75.8101,-163.2583,20.4099,-151.5602,-12.6789,-232.2284,-16.2475,-256.7469,102.6891,-168.0228,83.2204,2.2603,51.9956,-26.6868
-193.9384,-159.0201,-92.5788,-34.7291,-20.8273,-36.1167,-98.7589,-41.4391,-157.7567,-3.7617,-54.4879,-39.3110,-142.1598,-27.4196,-153.3716,-8.1052,-57.4575,25.3821,-100.0394
-211.5605,-80.8529,-106.8869,-62.6017,-62.7470,-102.9422,9.1357,-59.3923,-132.3513,2.7441,-15.0112,-45.0054,-40.7894,-87.8580,-57.5451,-61.3895,-92.0490,9.0443,-135.6170
-242.3906,-33.0998,-149.0703,-96.5763,-81.6334,-144.0131,137.8906,-77.9728,-62.0412,-1.4388,-192.7786,-78.2690,13.7526,-111.1155,132.2904,-107.5162,-143.4882,-31.5695,-120.2980
-292.8304,-104.0878,-208.6208,-170.0886,-90.8274,-157.4145,221.8006,-86.8182,-5.5449,-9.9803,-206.0756,-118.7079,74.3843,-114.7522,201.6484,-121.0709,-266.2536,-46.5271,-97.3569
-364.4753,-200.6563,-244.4969,-242.6776,-131.7423,-121.8497,211.7537,-40.7316,33.0621,-10.8437,-52.4616,-139.0742,105.1615,-114.8780,121.8421,-99.9129,-399.1413,-44.9116,-77.7673
-407.0117,-218.0321,-270.4732,-297.6414,-199.4376,-96.2845,160.1431,13.3202,97.6745,2.4649,-71.6095,-173.1654,53.5741,-154.8023,79.0807,-107.0076,-426.9350,-82.6022,-31.6579
-370.5523,-174.9891,-262.6655,-322.5028,-224.6436,-110.3650,118.1475,29.1007,136.1893,14.3508,-197.3051,-207.4083,-9.2280,-158.6049,85.6651,-98.6219,-332.7112,-98.3764,26.5947
-280.7632,-124.5721,-174.3008,-275.7079,-171.9681,-77.7038,45.5294,36.6240,74.3792,14.1032,-144.3716,-181.1828,-15.7995,-82.8191,23.0464,-30.1573,-192.7754,-27.9951,46.1376
-169.2160,-66.5996,-70.3005,-177.1706,-99.4613,16.8114,-66.0868,37.2348,-22.5094,32.4253,-47.5887,-117.9855,-28.7740,-64.0943,-62.3039,-4.6783,-72.0528,39.9992,22.8425
-42.9763,20.6962,-28.7148,-93.0208,-64.4291,72.1302,-129.2841,15.2723,-56.0916,75.7458,-130.0491,-70.9908,-86.0242,-103.3495,-61.1527,-30.8957,19.4578,45.0096,-11.5662
51.2514,99.7745,16.5646,-30.4025,-28.9599,80.4308,-95.6105,11.3294,-46.3708,86.7972,-167.7423,-22.1938,-98.7080,-35.1242,-11.9871,13.9802,83.5193,56.0883,-39.1516
65.5605,76.6519,111.1560,4.8368,54.9201,107.8579,-17.3841,32.2334,-36.1294,52.8728,36.9742,23.2673,-25.1960,67.6766,10.1646,74.5745,89.9972,83.9911,-34.3888
14.5052,-48.7409,148.4966,-26.5752,137.3152,138.3906,55.7456,45.8324,5.5004,40.5628,189.8788,11.2255,53.6399,46.5052,45.8206,39.9689,38.0210,83.8111,31.0871
-69.8708,-140.5436,98.8274,-68.6040,159.5781,166.9663,131.3794,91.5152,94.2593,75.9788,71.5337,-33.2725,97.8031,38.8621,147.1754,29.3513,6.8174,98.1931,120.7775
-149.6683,-136.0474,86.3278,-35.1334,154.6468,236.1578,197.2376,176.3064,171.5871,113.6809,-52.6195,-49.1988,135.0154,139.8932,225.8574,113.4956,31.6022,131.5143,149.9049
-156.1288,-119.9575,119.2656,-9.5645,149.3101,274.8874,177.8391,183.9269,174.9832,109.2685,3.0809,-68.2267,130.7447,138.1274,159.5506,124.9707,39.3722,82.0623,93.3627
-65.5381,-125.5774,88.1652,-87.7652,110.8006,202.6665,61.2147,90.6491,115.7165,52.0555,41.5034,-116.9075,48.8603,-3.6262,24.2974,36.5795,22.7191,-24.3273,20.7052
54.8186,-91.2885,38.1233,-138.7935,67.1093,131.9581,-5.3517,38.2050,79.2595,-4.0765,-17.2411,-118.4175,-19.4954,-25.9900,8.4028,32.8835,75.5247,-26.5385,10.9587
131.4502,-24.1130,76.4450,-29.2046,83.8521,167.0790,75.3124,78.4707,112.0845,24.1428,0.0536,-36.5746,9.3811,92.0661,93.6900,114.7990,167.6830,90.7557,47.8443
132.8430,3.9965,115.8098,125.9304,106.8701,220.9726,157.6880,124.7189,132.6734,103.7423,79.2124,45.3151,50.2706,115.9986,107.2341,120.8848,150.5673,197.6797,32.3500
50.2345,-22.4960,32.9955,176.8349,47.5345,222.4763,109.5581,142.1879,72.2526,119.5217,22.1133,64.9637,-2.5004,28.7400,50.1129,57.7087,26.7738,230.7610,-57.6286
-79.1448,-70.8773,-102.4866,137.6620,-36.4443,197.0731,56.7385,141.1465,20.7042,84.4060,-155.0126,36.3123,-84.4564,-10.1916,47.4400,32.5549,-50.2090,194.9769,-93.3465
-182.9525,-125.4696,-176.0609,50.2961,-43.7286,130.3292,122.1614,104.6285,66.5348,95.0244,-252.6418,-36.8844,-74.1811,-0.3332,85.0625,34.5285,-27.9232,102.0303,14.8134
-243.5246,-207.8367,-185.9185,-79.2815,9.0354,36.8336,212.7670,65.1701,139.6078,124.1692,-216.1548,-147.6059,4.9314,-40.2403,88.0762,3.0056,9.3403,3.4822,163.7157
-286.0329,-318.9221,-160.4898,-186.3517,64.3853,2.4053,249.7825,78.5687,164.8446,93.5645,-164.2256,-218.0110,41.7173,-123.4176,77.8299,-57.5324,16.3159,-43.6337,231.1277
-260.9629,-337.2331,-102.1454,-182.8391,119.7488,30.3474,279.4784,119.5477,175.0915,46.9015,-156.2871,-167.0947,27.5468,-162.0789,66.9785,-98.6912,48.5163,-21.2025,257.4295
-94.7082,-143.0620,-9.0752,-54.4565,183.1664,110.6139,302.3531,163.0383,185.7480,64.9556,-94.6986,-18.4883,43.3193,-94.1297,18.9404,-59.7072,145.8053,78.0603,311.7899
120.4998,118.0713,122.3184,130.2510,242.1556,295.4753,290.5577,244.1766,166.1741,129.2870,89.0891,119.8306,101.2179,54.5646,-31.7711,66.6373,235.0832,210.1843,347.3730
194.1061,200.1018,248.0810,254.5414,277.0064,421.2896,286.1137,334.8815,138.3300,172.0464,258.7180,163.6335,150.8147,179.6205,-17.6174,162.7913,225.6898,269.6377,317.1196
124.8729,136.2986,277.8358,257.0692,263.1877,184.3076,288.3220,344.9935,135.1666,167.7354,252.9177,129.9353,188.6890,214.9618,44.7694,111.6742,155.7154,228.4299,263.4884
78.3903,87.7888,205.0148,206.2233,192.2016,-291.4820,230.8182,271.2403,127.9126,133.7124,128.3034,107.3853,211.2698,205.1106,95.9871,-15.1118,109.3494,150.5798,208.5829
84.3676,38.4318,108.2977,168.2670,83.9695,-556.1539,128.6510,183.6071,93.1826,87.4032,21.5361,132.2584,161.7307,205.7294,106.4376,-62.3912,60.8512,56.2545,119.6087
43.2703,-15.5350,11.3958,107.7818,-28.9177,-534.5715,48.8497,114.8303,56.4553,40.2691,-43.9585,135.2596,60.2088,184.2276,75.0868,-43.4826,-42.4873,-45.4573,17.3195
-29.2973,29.6924,-90.1869,14.4773,-104.0060,-498.1790,-4.9692,62.4494,36.3053,19.8566,-59.0796,60.6862,23.4707,91.8018,27.2085,-79.7202,-157.6712,-88.9183,-36.7096
-41.2219,112.1753,-137.5503,-54.6608,-114.0385,-516.0574,-43.4763,22.8726,22.9579,30.0593,8.3613,-27.1721,66.5497,-10.9603,-3.0997,-147.1125,-218.5620,-71.6098,-47.8261
30.2047,147.1963,-101.1217,-80.3712,-79.4650,-484.7100,-48.6256,-8.8206,8.8789,17.6844,90.7812,-22.9542,92.8371,-6.6682,-1.8788,-133.9134,-195.7696,-64.6341,-52.1185
199.8842,325.6213,-40.3145,-50.8569,-26.5987,-421.1967,-25.0215,-33.7524,5.2774,-29.7871,101.5757,98.5374,85.1708,90.2303,28.6419,-81.6613,-82.2864,-64.7983,-39.7620
458.9680,716.0804,13.5317,69.3342,39.6098,-372.1960,8.4313,-57.5084,23.9872,-49.3789,92.5520,288.8766,91.2431,150.4309,63.5513,-96.7072,63.6440,-39.8427,-10.3431
677.4503,989.9822,91.1766,226.5275,94.8472,-301.3284,46.9402,-78.3800,44.7912,-40.9876,163.7254,481.8744,106.5160,164.0665,70.8848,-118.7417,167.0836,-23.9293,13.1192
769.7266,1018.1115,193.1746,320.1953,125.2027,-179.5146,83.4150,-57.2431,45.8658,-57.5246,303.8005,610.9298,135.5936,241.0936,84.8991,-41.1240,255.2236,-10.1792,67.2053
818.5988,1096.1392,282.3191,362.2131,170.9804,-10.0257,125.1456,29.8019,65.5370,-46.7222,393.3069,649.8462,212.6172,379.0058,171.9715,77.8256,360.8593,59.4410,189.4716
857.1521,1289.6818,338.8210,412.7471,243.7096,175.1216,190.5859,143.5125,136.2948,60.4552,354.8311,651.8523,292.3623,478.7774,287.8397,141.9602,415.2558,149.3567,302.3195
805.0952,1300.0006,361.5550,463.8316,288.5187,299.0009,243.1270,243.4906,188.2830,180.5427,293.1552,666.4850,298.5383,511.2910,307.6149,170.5918,396.6906,187.0181,318.2616
687.4417,1056.2644,351.4614,486.6973,278.2388,327.4420,214.7544,304.0951,150.8446,208.5247,333.8518,640.5630,248.6591,466.0039,217.3663,183.0710,374.6764,186.1420,270.2184
602.8498,780.5350,316.3261,456.4345,236.3200,303.4648,118.5238,287.2159,79.8864,173.4472,359.3333,514.0059,200.5951,338.5201,140.5950,151.4745,347.1322,170.8953,212.7461
535.0385,582.8759,280.3168,368.6547,192.7325,259.7357,41.1481,222.9779,55.0213,150.6926,238.6491,354.9594,175.5886,250.1954,156.0073,125.3965,281.4236,140.6981,138.7802
430.7663,433.8658,265.4317,304.2957,175.6153,216.8936,9.1286,200.7302,53.3754,170.5444,139.3008,255.1605,173.6447,281.5963,189.6103,158.4027,229.6427,128.0882,53.5603
310.7133,305.2844,246.0224,312.0015,165.2766,191.3373,-38.0353,204.1596,29.6435,207.9455,180.1778,185.2299,165.4563,269.6929,146.7050,166.8834,204.4067,127.1299,-14.8877
198.1887,154.1724,180.4068,288.5229,104.9042,135.9210,-107.6325,155.7911,7.1121,191.5674,172.8332,101.2732,124.7449,107.0624,78.4340,95.7692,142.6891,77.7758,-60.0252
95.8130,-13.6647,105.7341,184.2205,31.1893,33.0640,-113.1084,92.5974,10.6187,119.5209,78.7402,48.9540,95.0888,-12.1845,81.9736,46.5780,63.1022,6.6985,-66.2567
13.7612,-117.6305,89.4862,112.1490,26.6600,-18.4186,-42.8993,77.1454,7.3025,99.8696,101.9649,36.3329,105.9023,23.4774,110.5468,72.6009,21.7480,-10.0710,-26.5539
-56.1595,-159.3530,97.1670,103.5284,39.9208,15.1987,-3.9354,74.7135,-28.1125,150.5685,161.1291,-7.3250,96.4975,14.3658,76.0442,86.9070,-8.8258,4.8930,4.2782
-104.5214,-209.5919,60.4028,73.5409,-7.9149,36.9683,-26.5170,63.6913,-60.3318,157.5615,25.3770,-77.4502,43.2081,-117.1763,20.4180,46.5998,-36.8570,4.7246,-9.5984
-85.4630,-252.9333,16.0689,44.9289,-52.3666,32.9304,-41.4664,65.5585,-53.2583,108.8666,-151.7448,-105.1894,5.0660,-162.6510,-5.0926,13.8358,-12.8935,7.4669,-22.7684
-29.4174,-264.6962,16.3424,75.2088,-48.4961,67.1564,-59.7627,52.3291,-31.2556,92.7810,-168.6506,-106.7865,-17.6993,-75.9285,-38.6696,39.0660,39.2701,9.0845,-9.2385
-35.5553,-307.0351,11.7797,94.6566,-72.6419,100.6111,-112.0240,9.9514,-31.9211,85.9247,-207.4030,-129.6955,-72.9882,-54.2194,-65.7520,96.8549,55.1270,-12.3591,3.5577
-101.1371,-391.5407,-34.3699,60.8078,-119.0163,90.1877,-105.5058,-10.1844,-41.7504,27.9209,-349.8699,-140.9893,-119.2068,-122.6832,-27.2921,114.6784,47.1941,-15.1464,20.1949
-127.7842,-435.4414,-55.7594,42.9076,-92.0480,103.5870,-7.4169,8.3603,-34.1426,-12.6329,-325.7765,-110.8172,-87.8892,-137.0678,16.7596,72.1874,48.5133,26.7833,52.3187
-91.4541,-406.2798,-10.6085,51.0013,-20.9960,156.2719,40.6716,41.2634,-28.8741,23.4219,-105.7617,-79.3286,-21.8528,-117.5531,-19.0275,43.3226,44.0478,59.5629,57.8793
-62.9289,-344.1715,37.1294,28.1236,0.0269,169.4678,-12.3437,76.8730,-58.7904,58.8558,-14.5513,-82.2439,-7.3686,-171.8234,-78.6277,64.6007,15.8990,49.2223,22.0755
-83.2113,-285.0796,27.5855,-13.1267,-14.0303,140.2908,-56.4151,82.5110,-116.8934,41.9230,-116.6499,-121.5507,-41.2612,-249.0156,-83.8568,78.1427,-26.5414,20.5725,-6.6971
-110.2067,-256.5699,-14.8832,-27.7930,-27.7360,125.7134,-84.2636,45.1336,-173.4715,44.1710,-161.3504,-179.7168,-66.1591,-237.4471,-75.6451,66.4331,-56.2896,-12.7473,-25.2748
-98.9883,-264.9615,-47.3515,-26.1473,-74.7398,108.4111,-170.4996,13.1383,-205.9726,98.0828,-108.0271,-208.6308,-85.3584,-136.3626,-115.1963,64.6559,-60.6277,-63.8929,-79.2865
-82.2440,-286.6507,-78.2244,-49.9348,-161.3203,37.6721,-251.6146,-23.1978,-200.7609,110.0763,-150.0543,-190.2773,-150.7346,-30.5240,-173.1085,54.4844,-78.4960,-147.5804,-151.4657
-106.0530,-328.0300,-137.6040,-126.8304,-246.7785,-75.1061,-246.0600,-119.3107,-163.9756,27.7376,-298.3445,-179.1349,-247.7625,-19.5598,-190.4391,19.5518,-142.3905,-255.0746,-191.1389
-138.4414,-392.3124,-213.0451,-229.0259,-313.6141,-167.0803,-218.0083,-212.0236,-124.2897,-53.6036,-358.2848,-196.5293,-297.1845,-129.7464,-187.2915,9.3532,-210.6285,-325.4900,-209.9904
-141.9088,-400.1458,-260.3177,-284.9461,-354.9828,-188.7441,-217.1876,-219.6374,-101.2696,-62.2033,-282.3979,-197.7032,-292.0418,-242.7571,-239.5227,33.4024,-243.6360,-306.5626,-230.0091
-142.4589,-315.4480,-274.4825,-280.3426,-366.5560,-160.1944,-201.7870,-211.0074,-91.2749,-77.4425,-246.0814,-189.0580,-312.4207,-241.1246,-339.5310,23.5556,-257.1607,-251.6896,-229.0188
-135.9040,-252.7228,-287.9995,-260.0113,-371.5659,-142.1105,-183.9511,-252.4481,-90.1049,-157.2514,-330.8985,-211.2065,-374.7763,-197.4277,-385.6821,-43.8620,-252.2417,-250.2809,-213.0294
-79.9685,-275.9729,-292.9127,-231.5232,-374.6113,-145.2946,-205.6377,-291.0314,-101.2560,-219.5157,-374.5110,-228.0599,-394.8010,-233.9568,-348.9729,-94.6826,-223.2325,-284.4569,-220.9994
-19.1880,-277.3988,-251.0138,-200.0321,-343.0864,-138.1893,-226.8842,-296.9805,-120.9135,-212.0393,-262.0420,-196.0941,-327.0832,-280.4707,-300.1638,-66.2833,-210.9263,-268.2809,-238.8977
-32.8516,-211.5040,-184.0624,-209.9544,-278.1847,-113.6853,-211.3877,-291.2516,-133.8308,-194.3120,-142.0154,-156.8097,-232.6021,-218.9184,-261.1452,-15.9236,-230.5356,-194.7482,-234.4414
-91.8586,-194.7365,-154.8154,-244.3481,-221.4619,-80.9143,-194.8630,-273.0460,-130.9661,-196.1794,-163.7135,-150.3590,-182.7217,-153.8651,-206.4682,-35.4889,-236.4975,-138.8144,-235.4901
-120.4523,-252.1693,-163.6753,-234.4214,-192.4134,-48.2657,-196.7652,-266.5842,-125.5358,-190.6874,-214.6979,-152.8958,-166.6287,-218.7877,-162.6188,-86.2787,-208.2102,-125.7557,-263.7293
-98.6739,-242.1533,-152.1578,-180.6242,-175.4084,-19.2636,-196.2152,-283.6954,-130.9373,-175.2087,-134.9344,-130.9532,-129.6767,-260.0244,-151.5194,-72.5672,-153.9467,-95.3545,-273.2026
-27.3072,-121.6552,-93.4210,-110.9086,-140.3444,34.1639,-188.0395,-256.7846,-132.5323,-155.0001,1.2182,-71.6513,-77.5212,-106.3884,-141.5597,-25.6643,-69.5544,-30.5080,-235.2863
72.5305,-31.8697,-24.9007,-28.7397,-85.1845,108.0228,-187.9927,-190.7178,-123.6978,-141.1685,21.0993,-3.4887,-79.4554,48.3784,-130.6675,-17.6248,9.7225,-12.6799,-194.8517
129.0527,-51.2964,-7.9449,9.7872,-70.4999,109.0841,-212.3749,-189.8281,-133.7660,-164.6254,-80.9432,3.3300,-149.1300,-34.7402,-137.8281,-4.3617,18.8172,-77.2251,-195.4618
106.8915,-82.1690,-58.9175,-44.9909,-132.1621,14.3170,-249.2030,-231.3025,-163.1984,-199.1675,-167.9624,-55.2408,-205.5620,-196.0543,-137.2637,54.1270,-35.5246,-146.7549,-215.5886
64.1585,-53.8979,-115.6508,-124.4874,-199.7625,-46.0186,-261.0007,-213.2543,-168.2692,-197.1352,-145.0258,-89.9724,-198.2665,-158.3937,-134.1465,81.1605,-91.5816,-176.8363,-208.5444
60.1136,-39.8402,-120.6766,-159.6993,-216.4501,-9.3075,-267.0663,-178.1951,-156.5958,-199.7111,-47.7141,-69.5190,-184.3972,22.2051,-188.4974,35.4928,-124.0273,-197.5413,-181.6678
79.2892,-74.8425,-116.8515,-169.5082,-234.1526,34.4684,-328.4994,-190.4353,-180.6125,-216.2690,-12.4077,-42.5136,-233.6606,99.3200,-278.6728,-10.8520,-147.1303,-194.1126,-195.8990
64.1128,-58.7875,-166.7460,-154.0769,-286.0087,40.1118,-403.8970,-191.7339,-221.5313,-157.0312,-125.1774,-3.4357,-321.7839,8.0951,-308.7617,-21.1436,-179.8830,-140.1725,-257.2789
-10.6394,37.8921,-225.5457,-97.6832,-313.4297,46.3895,-389.3588,-158.6936,-214.1916,-57.0489,-262.0838,70.5175,-354.6378,-90.5003,-263.7635,-36.6499,-218.6695,-87.4826,-280.4237
-100.8131,88.6525,-214.5003,-38.9085,-278.5189,65.7396,-300.0563,-129.7307,-163.4155,-52.4562,-231.6348,115.7427,-277.1400,-46.0345,-195.0270,-49.6100,-226.3980,-62.4983,-230.9862
-153.8729,43.7224,-155.9116,5.6574,-212.1455,102.1611,-226.8670,-84.1176,-121.6022,-86.9042,-85.7792,84.8997,-141.7005,74.4386,-120.6985,-1.6614,-196.7959,-27.5347,-191.7089
-172.6201,15.3019,-122.7099,45.0403,-157.5056,142.3324,-189.0090,-32.3889,-102.9419,-32.5172,-34.9958,31.6211,-49.1728,87.6272,-61.2495,76.4822,-179.7914,-15.2768,-204.2336
-167.7980,52.7220,-128.3718,24.5608,-144.3179,112.0315,-166.7085,-46.7364,-86.7551,24.5132,-95.5686,-5.0974,-34.6763,-22.5151,-48.1627,69.5880,-179.6795,-73.3018,-199.7844
-135.9567,69.8601,-144.8746,-71.6968,-162.5255,10.3321,-153.0327,-92.7067,-56.2650,-21.2307,-134.3524,-44.1702,-58.2464,-113.7063,-45.1338,-37.4930,-146.4527,-115.2144,-154.4042
-114.2129,28.7211,-153.8362,-130.3109,-163.4699,-44.1048,-133.4112,-89.5096,-21.4610,-78.5393,-150.3320,-59.7489,-85.8739,-123.0116,-11.6972,-107.9433,-90.7401,-69.4368,-135.1234
-131.7793,-9.3406,-145.2855,-77.9606,-145.6721,-13.0533,-129.6397,-75.1884,-17.4115,-63.9788,-198.7828,3.3341,-118.0753,-83.5994,-11.1487,-54.8751,-51.8500,-26.1661,-157.8373
-141.0766,-5.0163,-122.9445,20.4019,-154.3651,34.2020,-183.8442,-90.7679,-53.7078,-24.1819,-211.0368,107.2711,-152.6750,-28.9724,-91.9259,29.1535,-4.7685,-44.8067,-167.8107
-109.0096,22.3586,-99.4133,87.8749,-171.8534,82.2981,-242.7594,-93.8002,-97.0450,-7.7465,-136.6991,145.3008,-167.9586,0.4740,-164.8793,27.8240,62.3163,-42.7175,-148.3296
-65.0722,45.2761,-64.6196,108.9640,-141.9666,137.9532,-220.2628,-75.8022,-124.9240,-30.4852,-70.2595,96.5217,-154.4295,15.8542,-148.2774,-39.4426,103.9205,21.0425,-112.0120
-15.0086,54.6742,-9.1422,106.8224,-75.3955,161.7843,-144.2365,-42.5001,-129.4422,-76.9961,-94.0482,55.2162,-137.3947,75.0792,-89.5297,-90.2613,122.7041,89.1139,-42.6441
34.5107,60.0636,38.2102,112.1850,-6.2333,156.4386,-77.2510,34.9098,-95.1238,-84.2790,-145.3304,77.1255,-121.6761,99.9197,-41.9456,-91.7358,151.9522,131.2890,46.5783
23.0359,68.2371,57.1148,104.6751,67.9369,144.8531,-15.4995,91.9594,-51.3512,-52.2887,-100.3018,101.2949,-52.9632,-27.6658,6.0146,-51.9641,146.5283,137.3520,72.9813
-51.7933,69.3654,60.5403,39.9957,119.1965,87.8912,25.0419,20.2137,-58.4830,-54.6609,36.0781,79.3257,64.4007,-178.2142,37.5997,-9.8351,55.7649,74.3618,-10.0825
-115.6925,53.6086,33.9258,-48.6085,87.4967,-11.5924,-3.1227,-117.5203,-93.4660,-80.3064,76.4397,54.5813,99.8865,-164.4867,15.5390,-39.9042,-66.2434,-33.8915,-128.0607
-157.2317,7.1996,-41.9536,-96.7273,-14.7785,-66.8552,-76.8454,-178.8911,-86.7672,-76.7338,-63.8333,54.2057,3.5335,-70.0985,-37.3525,-154.3565,-132.4725,-107.5951,-174.2434
-193.6678,-77.3212,-101.1808,-97.0308,-103.6454,-52.7427,-138.5391,-159.7455,-63.2455,-78.2822,-155.3440,49.9260,-76.8268,-46.2181,-88.0374,-227.3121,-115.2280,-117.0635,-142.8428
-175.1523,-138.7830,-68.4658,-46.5865,-124.3350,-11.4718,-175.3472,-119.3770,-87.3805,-92.5918,-36.9644,52.0579,-55.0784,-58.6162,-134.6902,-143.0211,-41.5652,-77.5903,-105.8800
-105.0687,-98.4836,-1.2459,51.7316,-93.9839,53.9854,-182.7485,-55.7712,-126.1012,-52.3751,52.0188,90.1770,-48.3710,-29.9973,-147.2474,22.8661,22.1118,3.2523,-88.4713
-84.6159,-9.4440,-8.4902,118.2710,-69.2535,134.1919,-155.6145,28.6789,-101.4204,27.6818,-82.5984,122.6343,-116.1915,48.8068,-102.0489,97.3838,16.1345,83.2168,-53.4091
-127.9714,9.9046,-75.4968,83.2164,-75.6267,159.8425,-113.7546,82.1609,-8.2015,78.1453,-207.2545,90.8721,-147.4877,130.4319,-57.6039,29.3226,-38.6764,86.3038,7.9960
-145.4380,-28.4465,-107.2680,-26.0907,-74.1454,81.6014,-59.6543,57.2490,89.1134,100.6536,-115.3477,10.9136,-105.0842,94.8709,-71.5499,-94.7132,-78.8164,5.0445,53.9556
-118.9400,-46.7899,-95.8422,-152.3284,-52.9449,-72.2371,2.4134,-40.4419,120.2775,92.7196,-5.9027,-53.8711,-101.9196,-66.5828,-122.2181,-177.5369,-99.8714,-89.9542,45.6410
-96.3015,-63.3676,-118.4704,-229.0759,-84.2308,-213.6798,3.5963,-139.1957,71.6145,25.4263,-90.1079,-60.9940,-186.1696,-147.1948,-178.3669,-177.7482,-132.8653,-157.8898,-19.1351
-82.2475,-103.7161,-188.8264,-194.6302,-182.4538,-260.8384,-83.4797,-172.9871,6.1446,-48.5589,-231.7630,-27.9131,-260.3979,-81.6562,-226.9162,-119.4379,-156.1779,-214.0364,-90.1436
-71.9564,-111.5353,-221.8705,-100.5555,-229.6322,-222.7119,-146.8330,-161.0749,-16.5353,-70.5811,-210.1812,-7.4744,-231.5489,-53.5717,-230.7692,-59.1905,-132.1179,-249.2535,-98.1077
-86.4197,-78.5882,-173.4613,-49.0951,-163.2151,-150.7222,-102.0290,-135.1076,-7.8159,-79.6136,-66.2355,-1.2477,-127.2312,-61.8207,-169.8022,-21.4306,-94.1429,-212.6895,-46.5285
-111.5507,-69.4842,-108.0456,-27.3527,-69.9564,-28.5233,-27.1648,-68.2432,5.1849,-91.5218,9.5433,22.5603,-34.6018,58.4620,-80.3090,-7.7853,-92.7743,-91.0285,4.6900
-104.0314,-75.7711,-68.8397,-3.0914,-4.2752,140.5553,-0.7035,34.2562,27.0904,-51.5053,9.9902,22.3449,32.6078,185.2559,-1.9748,-18.4230,-94.8405,54.0534,54.3598
-65.2978,-49.2251,-10.9469,-30.5452,79.2885,241.6754,28.9711,102.0046,58.0006,30.0825,76.3943,-40.5705,113.7752,123.5872,54.6792,-7.3401,-51.6398,145.5178,121.8988
-30.7156,-34.6933,66.9873,-97.9028,170.8735,215.9154,107.5549,101.5088,84.2700,77.2778,165.1467,-77.6463,167.7770,43.8772,91.4397,36.8742,-5.0687,157.1779,147.3681
-7.2739,-78.8822,92.7313,-113.1152,198.0682,151.8203,166.2425,55.4437,99.0866,65.0017,127.1479,-29.2950,132.4891,113.7350,102.3172,-7.7574,3.3069,118.4177,95.4448
13.6233,-105.9166,71.7325,-77.0062,166.4693,109.7350,136.7820,-4.8292,90.5008,21.9935,60.2543,7.8588,74.4193,121.6944,63.3850,-157.6330,26.4077,81.3744,40.7217
12.2288,-40.6328,73.7322,-26.2076,130.0286,70.8643,60.8995,-33.7570,54.1342,-12.9859,109.5794,-5.8438,72.9055,-47.2261,-11.3622,-174.7473,85.9330,83.4398,19.3942
-24.7698,58.7452,74.9755,69.9620,85.2729,60.1908,13.4106,-1.7994,21.8593,-6.3851,135.6932,35.5068,76.3423,-109.2756,-39.5411,4.5306,102.3488,115.3571,-19.1530
-56.1440,99.8619,17.5603,177.1205,22.6693,95.5265,-1.8650,52.4847,17.9992,31.6148,50.8794,134.6884,52.9286,69.7044,3.4289,71.2966,50.4447,124.4391,-60.9386
-43.1246,74.5891,-45.5617,182.6545,-14.4569,90.0930,-7.2700,68.0190,20.8833,50.8037,37.3313,161.9271,72.6947,187.3708,44.8501,-85.4282,6.4036,76.2430,-49.4967
-10.3594,18.8321,-42.2715,88.1611,1.7469,-10.7532,21.3539,28.2354,16.6442,32.9540,108.6252,115.0047,134.1143,55.4301,76.1357,-154.8820,1.6446,10.9708,-25.7776
12.2640,-28.7439,1.0255,8.9984,42.7486,-111.8066,87.5534,-34.8439,21.8081,7.1339,87.5305,106.3145,157.4157,-79.9989,129.3158,-14.4432,6.8530,-5.1604,-50.7660
33.8448,-5.8873,42.1082,13.8465,69.3817,-116.1906,111.9167,-74.4669,21.0009,-11.6266,63.4656,138.6903,144.6359,-6.4169,119.8766,58.5280,27.2833,21.3342,-95.4129
53.0156,109.1336,82.9646,85.2953,67.7421,-62.9515,46.7695,-91.3928,-23.7372,-45.2591,181.3560,147.1281,132.6450,114.1245,8.9759,-65.2617,73.6932,35.3420,-121.7752
54.7464,215.5293,111.8468,166.1693,54.8018,-14.6860,-32.1402,-120.9631,-84.4313,-95.4315,242.1783,147.3314,98.2542,80.1574,-52.7087,-175.5937,116.5986,44.6774,-127.1206
44.1572,207.4623,98.8616,219.1286,49.4198,65.7780,-48.4494,-117.3143,-93.2659,-106.5511,94.2469,165.3511,39.5575,-24.0363,-12.3262,-124.1419,130.5538,100.8492,-92.1176
21.0306,144.9841,34.8986,256.4546,28.7364,210.5560,-32.8337,4.8443,-59.5278,-43.1762,-59.4032,168.4736,-2.9945,-0.5195,-17.1470,-11.5348,101.7878,181.1759,-17.4933
-5.4616,157.2470,-57.4697,263.6516,-29.8112,331.3203,-30.5982,183.2211,-47.5679,36.4924,-69.4900,151.1460,-29.3621,177.9797,-83.8435,19.0362,28.7056,205.1720,53.2120
18.9950,226.6213,-111.1186,186.4567,-78.9968,340.3382,-23.8603,270.7095,-53.7612,63.8062,-25.1704,133.6128,-57.5763,330.4945,-85.3185,-21.3035,-30.8811,155.8015,111.2208
93.6808,229.3352,-71.8777,63.7618,-65.1750,282.3253,1.6732,260.2532,-29.9454,51.7010,4.1616,86.2684,-77.8702,275.8947,-44.1459,5.4228,-18.8305,98.7869,168.5104
113.9866,131.9362,1.6377,8.9314,-14.4520,239.4518,24.5481,240.6405,3.6664,39.3085,13.0688,8.9001,-77.9641,106.3564,-43.6590,138.2137,18.1862,96.6573,187.4433
46.2365,10.7816,16.6845,37.3558,24.8350,224.1828,44.0661,226.9005,0.6760,40.9520,5.1687,-10.7314,-38.3603,94.5799,-24.4978,203.8842,4.9993,137.5132,147.5205
-11.4574,-60.9377,-5.5700,70.9714,47.9191,215.0834,84.4931,193.3374,-8.0270,61.9111,25.3353,42.2269,54.0432,239.3079,61.9331,70.3968,-47.3237,144.8995,105.4264
-16.9187,-56.9751,-5.1390,54.7742,59.9672,183.8280,146.3439,150.0719,21.5911,69.8761,61.0057,53.3517,149.6726,257.3212,145.1345,-112.3162,-97.2147,83.4604,104.4606
-22.5945,0.0875,0.7098,-15.4416,63.9616,117.9950,199.5568,115.8782,49.8242,15.5582,61.9091,-10.2450,189.4073,105.2636,170.0991,-119.5450,-129.5677,23.9790,122.7961
-24.6496,39.5618,4.5377,-80.4316,78.3854,77.1169,210.2500,102.4973,26.4903,-69.5138,108.1490,-42.6587,185.3941,21.8961,139.8326,9.5032,-115.4792,31.9224,136.0676
21.9442,13.8883,54.5934,-58.4805,106.1145,111.9877,170.2979,100.3810,-21.3899,-117.6922,236.5289,-2.6229,168.1084,58.5735,88.0015,39.3627,-36.0474,67.2896,135.5186
87.8263,-32.9456,138.8544,31.0482,125.4760,154.9077,114.8480,64.2212,-49.9355,-134.4408,275.2744,46.8694,140.9974,66.7728,72.6401,-90.2624,61.8714,72.8481,102.9018
109.9690,-28.2593,180.3884,97.6983,125.6462,134.3336,88.0809,-10.9676,-58.9077,-139.2012,172.0176,75.3147,110.9021,24.1227,82.6502,-172.4588,116.3548,47.1981,44.7944
78.4588,24.8137,150.3130,111.4970,102.0378,79.9039,94.1178,-58.2829,-50.2700,-113.3609,103.9194,76.3556,72.4000,0.7929,52.7298,-89.9169,111.8814,-6.3112,17.0562
28.6110,53.6535,73.4582,77.1460,49.5399,18.9149,106.0718,-46.3516,-15.6999,-74.0198,102.4233,31.3589,9.5085,21.7917,13.5727,-14.6466,64.0774,-75.2974,51.1496
1.7173,9.5666,-16.5012,-1.3863,-11.5860,-51.1009,93.3657,-14.7120,13.4287,-49.1706,47.3805,-15.6072,-52.4116,95.7430,10.3708,-84.9051,1.1224,-115.0214,87.7209
2.1483,-69.7916,-81.4793,-67.9592,-56.6533,-97.2408,34.3730,0.8833,-8.7571,-13.5498,-35.2142,-10.9352,-86.1331,140.4042,-20.8793,-179.4902,-50.1251,-124.3507,53.1784
-11.9663,-102.3129,-115.7420,-79.4772,-87.2523,-119.1553,-44.0656,-17.1196,-56.9271,32.1938,-76.6734,-5.2651,-102.5220,18.0360,-78.2259,-184.6685,-86.8858,-141.4004,-23.0079
-52.3650,-67.3476,-144.0326,-64.3769,-94.1875,-148.3307,-65.1020,-61.8642,-58.8736,48.8715,-101.3057,-37.5962,-79.6243,-167.3959,-55.0606,-159.8959,-104.1612,-139.8825,-51.8265
-71.8475,-28.3129,-140.0308,-27.6128,-47.2418,-122.6739,0.8622,-68.6570,-5.5063,60.7238,-70.4240,-36.5336,15.6962,-140.0411,20.3582,-150.2622,-72.7265,-74.4388,-9.8383
-54.7107,-30.9613,-61.5387,31.1682,48.7247,16.4288,92.3004,8.4879,46.1118,103.8964,52.0115,21.6766,121.0908,98.1144,38.1877,-129.5259,-3.7659,25.2531,66.9786
-39.8209,-44.3879,35.1910,46.0925,143.9974,171.0713,148.5205,114.8586,63.2693,137.9140,143.1275,55.5814,149.1965,265.2392,24.1949,-100.0994,30.1470,118.3324,144.8872
-30.4735,-22.9770,69.4875,16.1094,191.1853,235.7244,172.6768,176.7038,58.2331,134.9207,132.5828,40.9718,111.4268,221.0411,27.4699,-69.5658,8.9478,184.0571,181.1494
14.8620,39.9542,69.9929,12.6468,178.5393,226.6309,191.0867,183.8426,52.9437,123.7205,109.0730,31.1540,63.9975,94.5222,21.7556,-42.9189,9.9578,168.6712,152.8626
91.0040,111.8598,87.2749,-21.1858,128.3925,176.3296,199.0399,157.5132,60.9091,109.3373,91.6150,40.9011,29.1722,57.0523,23.4641,-50.4629,66.8813,69.9738,105.0323
132.7444,132.8395,82.6573,-161.7769,54.7663,111.4758,146.5376,125.4761,59.4064,86.6502,44.7167,52.9749,2.6915,114.2843,29.1856,-71.8759,99.4955,-7.6692,70.0050
112.3097,87.4881,32.7099,-283.4834,-46.4239,77.1074,15.7214,105.2640,12.1699,76.2552,32.5337,64.0963,-37.9673,130.5591,-38.6015,-71.0676,66.7255,-25.1927,25.0344
85.2213,59.9406,4.0954,-276.1638,-129.1519,44.2517,-83.4738,70.7553,-40.2084,67.5017,55.6094,73.9058,-96.5373,70.4543,-124.3487,-104.7822,47.3467,-59.0420,-13.9900
99.1811,111.2886,24.0615,-239.6842,-126.0565,-35.4041,-44.1936,2.0648,-29.8935,31.6321,7.1618,95.1395,-129.1748,58.1240,-96.3690,-182.9792,75.4579,-117.0168,-26.0872
114.9552,170.0886,22.5708,-243.7334,-83.6346,-108.8877,31.5562,-63.3061,-7.0254,-17.9942,-59.7039,133.4914,-118.6987,88.4202,-32.8447,-190.2316,68.2816,-134.2524,-80.1903
80.3479,169.8730,-31.3215,-227.4287,-99.8547,-152.8063,-7.7597,-102.6513,-55.6745,-65.9729,-8.9522,145.5853,-99.1411,4.7917,-61.6175,-124.5703,1.2529,-123.0994,-197.7143
13.8928,151.0870,-79.7632,-189.2798,-144.6396,-218.0326,-96.2352,-138.0384,-129.3960,-114.8346,68.0942,104.8009,-79.7906,-116.8156,-102.4071,-120.1919,-49.9446,-119.9152,-262.6194
-52.5003,117.2658,-98.9406,-180.9706,-145.3021,-237.7748,-114.9020,-154.7601,-157.4156,-140.7153,22.6092,46.0780,-63.5239,-20.8086,-87.7999,-186.0917,-85.0372,-101.8069,-224.3426
-122.2860,5.4576,-133.1342,-207.4454,-142.3196,-126.8510,-118.2480,-114.7998,-164.7423,-119.1537,-60.8645,-23.3179,-82.8560,211.4785,-98.9550,-224.7544,-168.1124,-79.8017,-164.3620
-183.5819,-137.7568,-189.1586,-270.6333,-169.9159,-14.3683,-154.7688,-46.3472,-162.3205,-59.1309,-72.1753,-125.3942,-123.4727,215.7239,-139.0779,-199.5597,-257.9138,-93.8656,-114.7090
-214.0668,-192.2743,-216.3540,-334.4376,-164.8494,-20.6607,-149.6546,-5.1004,-125.7003,16.4898,-76.6514,-208.4601,-139.0691,-28.7428,-140.8370,-111.8023,-265.1213,-97.0412,-56.8547
-225.6334,-159.8725,-190.0328,-302.8762,-110.7793,-32.1559,-99.3073,12.3856,-87.3681,63.6213,-107.5675,-200.8450,-141.8661,-131.8931,-125.9924,-21.4573,-199.6619,-40.7716,-20.2846
-219.3354,-118.5028,-134.7869,-196.9766,-65.8133,28.3932,-73.4306,32.1488,-59.6449,49.5827,-102.6440,-134.4286,-142.1022,59.9650,-102.8583,-45.7544,-117.9820,0.1548,-7.2436
-174.9687,-93.2626,-91.5278,-154.4619,-44.9863,44.1912,-54.5304,33.5237,-7.5606,16.6709,-93.3677,-91.6385,-119.3905,216.5576,-52.8820,-149.7402,-57.9734,-45.5181,8.9560
-127.8407,-102.0559,-88.2852,-189.3034,-48.1246,-45.9348,-29.8368,-18.5295,13.9329,-1.1497,-126.5269,-93.7086,-119.6003,96.6135,-63.5035,-188.3842,-55.9552,-124.7739,-12.8342
-123.8559,-145.9483,-101.2623,-194.3791,-96.7612,-160.0371,-54.8293,-100.7564,-48.8960,-45.1718,-114.8039,-103.3320,-173.3503,-74.7087,-153.0332,-190.3062,-83.0373,-168.8213,-84.2761
-116.8614,-126.8123,-82.1855,-132.0163,-152.8568,-231.0576,-92.9660,-146.9234,-91.0168,-98.0283,-38.2817,-80.8840,-187.4187,-65.6507,-151.0354,-238.8343,-63.1195,-179.1397,-129.6089
-67.9438,10.0599,-59.2654,-49.0585,-162.6441,-251.5815,-65.7624,-139.6698,-54.0181,-75.1141,-36.2009,-32.3232,-127.8450,-15.7144,-29.9795,-250.3277,-44.3543,-176.4282,-148.8925
-57.9915,126.6502,-102.1157,-22.0088,-162.5385,-255.3815,-31.8902,-128.1511,-49.4214,-11.4323,-117.6769,-18.8224,-97.2030,-63.4067,12.6206,-198.3005,-133.2822,-180.0030,-197.7138
-137.8817,91.7299,-177.0766,-110.5727,-191.2973,-302.5276,-57.6044,-141.6793,-95.6867,-7.9270,-127.2924,-84.3122,-106.5600,-103.1020,-55.5167,-212.4557,-257.2215,-202.1764,-225.5307
-203.9862,-13.4473,-192.2201,-238.1658,-203.4026,-378.6156,-85.0811,-160.8777,-82.8203,-36.3897,-56.3186,-184.0223,-74.9544,-116.1257,-74.3703,-292.2228,-265.0647,-198.5912,-186.9901
-168.6061,-51.1767,-147.8342,-234.2393,-155.4098,-378.3625,-76.7415,-167.4037,-20.7066,-32.3926,-25.1756,-224.7114,-32.1372,-193.0625,-26.9502,-316.2901,-164.9660,-109.6128,-136.7571
-97.1303,-26.6685,-86.9921,-78.7473,-49.9060,-247.6321,-44.8370,-141.3412,21.0500,-31.9474,-24.4520,-172.3768,-22.6738,-212.1814,1.1548,-286.5524,-39.2202,31.9865,-64.3701
-65.4955,-21.4417,-2.8859,67.7272,88.6110,-46.3549,35.1109,-59.4940,63.7605,-52.3091,25.2214,-101.9999,16.1536,-44.8337,21.9442,-251.2382,72.0212,133.9259,66.6519
-46.1302,-64.7714,79.2192,84.2450,182.9765,115.5045,116.1796,38.9960,86.8696,-40.0356,98.6251,-111.0118,74.8289,115.0713,36.3471,-192.2700,93.9301,160.7817,135.9268
-16.7659,-135.5531,82.0853,-4.0430,158.0679,162.8203,81.9845,78.3865,25.8701,-2.0508,113.8350,-190.4980,45.5425,80.4342,-8.8084,-133.2541,-9.1660,139.9332,57.9845
-22.6660,-196.9341,12.2852,-92.6028,67.8016,134.4183,-19.0301,59.9118,-51.8136,2.3905,26.7263,-257.3970,-48.0670,-25.0424,-59.7289,-128.4736,-108.9714,106.5379,-30.4161
-72.4656,-206.2096,-38.7221,-107.5807,22.5477,127.6958,-37.8033,34.1272,-58.2666,-20.7847,-101.7127,-284.9395,-78.3719,-65.8458,-37.6352,-170.6960,-102.0070,79.2397,-37.0518
-106.1443,-161.6055,-33.6930,-77.8158,20.2855,132.9657,-3.1212,-2.1757,-44.8584,-28.9051,-103.6016,-283.6921,-33.0980,-77.2314,-16.1001,-230.9931,-63.7827,40.1305,-58.0400
