Fp1,Fp2,F3,F4,C3,C4,P3,P4,O1,O2,F7,F8,T7,T8,P7,P8,Fz,Cz,Pz
72.0622,144.4226,49.7839,-70.6489,-33.5534,-133.7710,-123.1690,-164.7089,-62.2627,-206.4974,19.7490,-19.7064,-49.3950,-86.1638,-102.8736,-81.2267,8.1783,-166.7107,-91.5692
-162.1991,-306.6065,-39.9939,-208.5273,-129.4779,-197.1397,-63.2378,-59.1327,65.6698,85.0724,-147.3528,-243.4017,-157.9041,-177.2278,-150.8867,-104.2327,-129.0554,-209.6851,-10.7904
-419.0134,-697.9539,-158.5673,-300.5404,-168.8029,-188.8959,65.1765,0.2957,134.4136,204.5098,-303.0533,-340.5618,-181.1549,-239.0670,-154.5596,-160.6843,-214.3072,-154.2335,95.0463
-270.2313,-387.6810,-131.9414,-166.6942,-41.3799,-30.7560,141.9888,43.9773,80.8684,128.9491,-167.7772,-131.6172,-38.8461,-93.7147,-46.2522,-87.8722,-129.4724,24.0106,124.4865
204.7598,346.6058,74.7831,118.8469,205.4388,203.6118,172.5000,200.4227,70.2466,189.1467,186.5064,179.1652,131.9577,183.9725,94.4711,112.2418,61.2208,244.7519,149.7096
468.1818,681.1632,233.3837,293.8108,351.3738,333.1047,193.9284,340.3270,138.1879,329.3024,368.3808,304.3159,189.6008,290.1020,144.7842,185.5314,170.2117,365.8568,190.5409
385.2541,556.6832,206.7204,281.0037,275.4614,294.9371,128.1772,276.7728,101.5834,280.7007,262.7081,246.3907,154.7224,149.2349,98.7124,71.1741,141.2575,333.1745,117.0785
259.1526,483.0031,149.9304,252.1256,149.6121,238.6002,9.9169,176.9845,-13.6702,210.5523,139.9760,197.2461,112.2542,32.2724,38.0360,19.7661,104.6201,276.7194,-13.6218
202.5088,517.8564,180.1629,292.1762,162.9204,261.7198,7.5784,219.9178,16.6864,309.4094,161.1885,232.3165,102.9269,87.7806,21.9545,99.7544,140.6642,273.3772,-14.1118
167.4487,441.2479,222.1787,277.0186,235.4444,221.0590,93.1169,199.2659,145.4051,323.2070,220.5502,264.0589,113.6332,124.6776,40.1970,81.8451,190.4122,182.8067,52.2090
203.4192,327.3421,235.7517,150.9380,209.7073,33.9427,107.7945,-17.1083,132.4180,132.7644,228.4791,224.9243,102.7986,21.9419,37.5696,-61.2984,202.3046,-17.8442,40.3197
243.6861,275.1735,207.1734,40.9304,93.1126,-91.2967,79.5066,-155.5456,2.9279,22.7948,181.6922,145.8927,59.0898,-53.6978,-2.3148,-77.8462,162.1815,-86.3946,29.8816
136.8259,200.6756,70.0059,8.4365,-11.6412,-15.7468,114.7804,-60.3118,-21.6020,83.0025,74.4929,65.8407,28.1593,-8.0875,-17.4722,56.5484,66.8811,30.0499,96.6088
-11.5713,124.2959,-78.5173,-37.2402,-19.2544,66.9970,184.7704,35.8004,94.4306,88.1039,-23.1539,-1.1046,54.0810,14.3065,36.2345,83.8677,0.1534,74.9674,144.0395
-21.0829,121.5172,-52.2733,-113.4831,65.4206,-1.4161,213.1489,-21.5475,183.0118,-40.4684,-5.5030,-23.5082,113.9256,-54.1092,95.3969,-50.9718,43.6858,-22.7153,112.6842
35.7429,126.2409,54.8036,-120.6714,107.6165,-91.2022,158.6943,-112.1054,126.8873,-175.1258,60.2837,6.2688,115.0407,-105.8232,62.0629,-141.5638,113.9058,-74.7820,31.3689
43.9897,115.7990,56.3191,-53.4799,35.7636,-88.1734,18.5866,-149.6122,-18.8614,-218.3327,38.7198,40.7722,1.7172,-101.5691,-57.0270,-114.3796,115.4024,-48.4366,-72.5895
28.0044,133.4978,30.5526,-22.9753,-28.1578,-72.8991,-133.1252,-180.7806,-150.8013,-197.5780,-14.3284,48.3108,-119.9507,-95.7261,-144.4279,-83.0900,92.0975,-62.2510,-156.3120
-21.5820,81.2425,60.2654,-78.0022,-19.2306,-118.9520,-235.0463,-242.3206,-258.9341,-228.6004,-4.1429,21.3709,-117.7766,-102.7920,-135.8032,-110.2672,62.3875,-128.7428,-216.8067
-131.7249,-97.7759,59.5514,-163.9619,-20.0889,-204.6947,-304.6571,-313.6326,-317.1306,-300.4370,-27.8018,-64.9867,-80.0319,-140.4632,-117.7435,-182.7740,-0.9257,-217.9966,-288.5150
-212.4494,-239.8270,55.3019,-215.9250,-26.2180,-284.8885,-316.4034,-324.0701,-212.5977,-232.3723,-152.2363,-190.3866,-153.5159,-226.6627,-162.5655,-257.7516,-27.7362,-317.7024,-296.7006
-203.2040,-261.8563,77.7675,-217.4594,-25.0917,-300.9042,-249.2664,-228.4638,-22.7870,-63.9273,-228.4943,-268.7695,-234.8318,-266.7934,-179.9924,-229.9679,-19.7160,-349.7563,-192.8236
-171.4605,-264.9922,-55.9058,-200.4386,-150.2139,-242.0761,-215.2980,-116.5364,-27.8302,-53.2368,-161.6817,-261.3739,-174.9076,-168.2766,-94.1017,-68.2148,-136.5544,-288.8280,-139.9453
-149.4211,-249.6492,-322.9862,-183.8890,-366.9766,-195.0361,-256.9875,-95.8381,-213.7686,-141.3450,-63.2196,-202.8462,-87.1765,-20.0486,-10.6616,69.0582,-350.7128,-237.0155,-225.5993
-91.9046,-147.0784,-389.9807,-135.4082,-420.2943,-200.6173,-257.5481,-123.2940,-274.9670,-74.0616,-14.6434,-130.6929,-108.7650,40.6060,-33.7798,66.2998,-426.9534,-225.8694,-296.1062
-10.4884,-35.2892,-243.7605,-53.3179,-313.6972,-183.6812,-218.8423,-118.1451,-198.2253,42.1877,21.5817,-78.8462,-143.6777,22.4692,-91.4761,20.6339,-344.6495,-186.2739,-284.9623
20.1973,-11.9003,-182.1220,-3.2322,-253.9572,-109.0994,-220.7592,-86.4378,-202.3594,2.8121,50.4390,-63.1620,-89.8779,13.3085,-73.1428,23.6835,-264.2581,-112.5308,-260.1097
-24.8796,-56.3680,-187.2390,-3.6989,-193.3739,-33.1566,-171.9110,-44.9441,-234.6095,-60.6103,44.7649,-51.8978,-5.2578,45.9632,18.6861,30.8989,-192.0099,-30.2763,-185.9246
-79.2962,-116.3289,-82.4174,6.3509,-38.5935,18.0163,-35.6561,-1.6504,-161.1371,-19.5061,26.0594,-30.5679,55.0930,90.0763,110.3775,27.0640,-88.1495,62.8479,-64.5925
-57.9130,-113.9682,18.8504,58.4578,54.3681,70.0588,24.3842,24.1282,-93.6954,38.5497,20.0681,-19.1006,97.6546,104.2430,146.4705,57.2883,-16.4738,128.3513,-17.4070
33.9215,13.7975,16.3287,123.6464,41.5850,126.6919,6.9937,60.9189,-81.7417,92.4066,32.6662,3.6397,114.7151,85.5988,135.7412,94.7906,34.0958,145.2908,-5.4442
92.1291,145.0914,35.6701,165.0706,82.7431,155.8906,63.2308,114.6430,-15.2483,138.4937,61.3593,53.2724,111.0658,65.8110,131.3845,88.4667,113.4015,164.6673,69.8354
42.4821,110.8727,69.7976,164.1184,135.0908,130.7272,117.1696,95.1014,31.3463,74.6772,61.2578,79.6660,112.2535,55.2823,153.0360,63.7046,130.3739,178.1769,82.6900
-54.9260,-6.3100,5.0245,139.5584,70.6721,78.0251,58.8592,3.5186,-45.9994,-36.7366,10.9222,72.7313,112.6881,38.1987,176.0834,34.8292,39.4609,137.3003,-27.3764
-77.5775,-30.9271,-64.9293,119.4842,12.8597,61.4577,39.1698,-17.8223,-70.4750,-31.4705,-12.6600,72.5709,98.2770,9.9010,181.3448,-39.9237,-31.5907,102.3278,-59.4920
-19.1728,3.0120,-45.3980,83.5861,56.3515,86.5245,128.2576,50.1448,55.1296,33.6036,18.5757,50.1835,65.3365,-17.2385,147.6616,-115.0268,-33.5382,131.7710,38.1561
-5.6914,-9.5144,-45.7747,22.5747,58.0275,97.0473,142.8346,87.8695,105.6207,52.3918,8.7830,-13.8057,9.0706,-13.3398,68.2733,-58.7085,-42.6345,151.8791,81.0331
-75.7815,-47.7822,-97.5608,-6.1277,-25.4300,80.4490,37.2405,76.3484,-13.2413,69.3750,-57.7493,-34.8646,-31.0776,40.3080,6.9447,100.0502,-52.5384,113.0888,33.3209
-110.2904,-79.5778,-90.4019,8.2327,-65.2701,66.6436,-34.4817,62.5968,-102.4727,84.0882,-83.6509,5.0164,-7.0303,84.2436,13.2074,138.0622,-33.7707,71.2235,-12.2764
-64.3003,-107.5132,-41.0345,-2.2165,-48.5201,45.7417,-44.3853,25.3342,-90.6635,53.4136,-67.0054,6.1164,25.4664,34.5252,22.3489,-25.4723,-43.4890,50.5462,-67.5342
-24.3203,-77.2269,-37.1979,-30.3862,-48.0080,-1.6824,-67.9914,-34.9754,-107.2860,23.1881,-62.8330,-33.7657,-2.9244,-74.7517,-16.5687,-184.0083,-73.3272,29.9946,-131.5468
0.5499,22.0472,-37.0988,-3.4970,-50.2036,-47.3522,-85.6434,-69.5096,-159.4439,-7.6527,-35.3773,-28.0782,-31.6236,-136.8614,-41.1143,-175.9475,-38.0837,17.9080,-130.4444
54.2533,63.7660,10.8992,47.0073,-31.0395,-61.2937,-56.3761,-75.8801,-127.0497,-56.9296,16.0612,-10.6644,-4.3404,-140.2406,-24.5146,-112.5774,30.2549,9.3198,-75.3790
90.2197,-23.1107,60.0473,33.3169,-7.8154,-49.5595,-2.4876,-53.6114,6.7955,-14.3768,9.3502,-58.3248,8.7963,-143.0146,-30.2878,-116.8666,46.1928,-16.6791,-11.9772
102.4985,-125.4783,91.0859,-15.3115,28.5623,-22.4216,66.0616,18.5782,151.2027,122.7361,-27.1617,-100.2773,-27.5820,-137.4027,-57.7431,-104.8956,53.6718,-24.9038,81.8897
151.8073,-134.6143,126.5780,0.1775,84.5606,27.6412,154.2658,99.0236,245.2813,187.1532,-9.0150,-41.1364,-44.6487,-77.7508,-47.1983,-0.5516,112.3232,27.7526,189.3847
152.7939,-99.6319,131.3671,82.8237,127.2330,112.4312,224.7808,154.5034,295.6205,199.8573,4.8344,50.8129,-25.7063,12.6788,-19.2281,85.3317,152.5103,111.4417,252.2120
19.4750,-102.3077,83.4081,139.2107,138.1968,209.8864,244.5237,230.2952,324.0356,287.8291,-43.0042,65.5026,-14.1321,70.5472,-17.3504,61.0979,121.4566,171.5581,289.4714
-74.1708,-117.5057,51.1905,122.1548,131.4811,256.1991,239.7247,307.5215,324.4172,347.2982,-63.9357,42.3014,-0.9206,97.0458,-7.3118,33.8896,93.5274,192.5937,331.6383
-2.5354,-96.4944,65.0205,84.8936,121.9212,229.2217,238.1498,303.5008,281.6898,281.2103,-30.7461,68.1860,22.3177,146.5462,28.0036,121.6434,109.3885,186.3310,345.0858
49.2556,-79.7862,57.1726,62.3070,110.9744,190.3589,221.0528,254.1962,215.7434,212.5015,-31.8286,91.7654,18.1135,213.2578,41.9057,236.7729,100.4686,169.1823,329.2187
-26.7648,-102.5774,23.2803,15.8595,98.3687,182.5259,195.5348,243.1086,175.3332,188.0739,-48.2841,36.1486,10.6189,229.4747,45.0918,229.7721,64.5328,154.2767,327.9692
-65.5749,-91.8748,54.8591,-23.7613,109.3352,185.6957,217.8660,244.6952,194.6294,156.5690,3.9588,-12.6934,69.4077,194.5524,96.7239,142.6829,100.0277,149.3800,331.3763
-4.6479,-2.1172,146.9908,48.1699,158.1979,198.3519,271.6031,237.1290,260.6463,193.6574,76.7623,42.9371,161.3962,176.2558,162.4297,116.9188,194.7681,155.4835,306.8773
27.4443,75.7074,185.1457,182.5312,187.6040,225.2499,271.7228,258.8265,312.0891,308.5660,91.9306,118.0283,193.4509,176.6304,166.0112,142.4187,217.1474,162.1356,269.7183
9.6999,80.7893,150.8773,212.6702,160.5154,221.4072,232.3860,270.5298,292.6457,334.0099,78.4244,120.3172,168.8113,151.0789,143.6893,135.2654,156.3967,167.6131,231.8740
20.2180,87.3533,131.4289,151.0298,146.5160,178.1030,218.2118,213.4401,211.3289,244.3420,71.9104,114.1772,153.2693,128.3525,164.1840,138.3304,125.5110,185.9995,172.2473
43.5213,131.3054,149.1169,134.3629,176.7943,155.8021,180.9197,148.6115,123.2196,167.8360,70.2854,145.3038,152.7981,155.0102,179.5680,195.3391,141.6478,196.7010,104.4795
46.6789,134.2577,158.7286,144.4236,177.6536,154.2731,96.1162,129.1607,72.4102,112.5615,93.2168,146.3361,137.9618,187.6645,134.3559,208.3172,137.9848,157.9950,82.4236
83.8901,69.9054,145.9922,91.3051,147.8899,115.2578,79.4141,103.9897,71.7187,46.7769,128.2041,88.7355,121.1700,156.9215,97.6826,125.6002,117.5983,101.2904,108.8279
161.3861,12.3540,120.7324,16.8067,155.0747,63.9478,140.4257,64.8832,93.0731,35.0539,111.5098,15.9351,124.6340,69.7272,117.1480,42.0442,107.4171,93.2481,118.0050
147.8374,-1.7830,94.7508,-10.2731,147.0913,65.7782,118.6533,65.3955,78.7798,84.3438,44.8423,-36.1475,116.3585,2.3620,101.8107,16.7790,79.3314,108.4410,77.0470
-12.9955,-8.2437,84.7119,-8.3099,45.2941,89.1061,-3.7291,82.2627,14.4338,110.4554,4.6772,-36.2328,52.8985,18.7641,2.4724,26.1932,32.7651,76.7427,32.5682
-114.0755,-28.1336,82.2899,-3.2034,-62.1013,66.2828,-67.3279,65.4602,-32.9315,91.7211,32.1716,7.1966,-22.6815,77.8873,-71.9514,51.0973,19.6521,11.0384,26.2240
24.0893,-37.6508,67.9396,-6.8581,-67.5607,10.7905,-31.1173,43.4115,-11.2596,69.7252,95.4180,16.2577,-16.7928,72.1998,-40.8924,43.2159,34.5633,-30.7293,25.6153
189.7678,-6.0581,36.4801,-38.6668,-42.4564,-32.3918,-12.3921,35.4771,13.4994,57.8604,113.4011,-28.4627,55.3357,1.7397,22.7747,-18.9739,-0.0316,-45.1479,-25.8015
110.1547,53.3559,-38.1312,-71.9399,-99.7003,-65.5330,-76.8010,4.4267,-52.0039,33.4794,32.2232,-47.7773,75.9155,-24.9234,37.8010,-25.0134,-106.0610,-72.2944,-115.0762
-46.4973,65.0174,-151.1830,-69.7962,-191.5793,-103.9498,-150.9846,-40.9817,-150.1246,-13.4004,-70.7960,-15.9967,24.1240,11.4520,22.7752,61.4579,-192.1832,-127.4421,-156.1821
-7.4177,-19.6405,-202.7948,-68.1351,-194.7045,-127.7223,-134.4516,-54.8867,-143.4150,-39.1011,-79.9606,14.8927,-16.7586,31.7622,3.8386,77.0170,-184.8327,-165.0359,-122.5240
77.6885,-122.3820,-165.0902,-96.7698,-129.3667,-106.2183,-70.7848,-44.8915,-64.1117,-3.3424,-46.9079,28.1096,-57.2643,27.5099,-47.1379,-3.8616,-154.1465,-129.5092,-114.9723
-29.2222,-132.7077,-166.6601,-109.1753,-130.4096,-52.0238,-88.9693,-27.0765,-54.5704,51.2592,-98.7175,35.2344,-155.3055,44.4633,-127.3028,12.7760,-185.4908,-59.4106,-173.4426
-198.0063,-84.8650,-231.4581,-89.5381,-189.2654,-29.1653,-140.0862,5.8725,-80.4430,69.6813,-193.3248,21.9583,-219.4375,53.2289,-160.4291,107.5829,-210.9378,-57.2776,-162.7590
-229.6967,-109.0362,-220.7913,-98.8131,-152.5773,-81.3059,-76.9885,8.4663,-21.7931,48.1596,-205.5598,-26.3854,-150.1652,-7.9515,-106.1197,55.5798,-157.1827,-125.4763,-39.1008
-181.7329,-215.0285,-136.4277,-149.6960,-22.8903,-156.7866,22.2771,-56.3992,39.2347,-18.8486,-150.3985,-93.0889,-59.4205,-109.2122,-33.4437,-93.2231,-105.4713,-153.8158,23.2320
-157.0903,-274.3370,-104.5669,-162.4775,38.9012,-161.5070,10.4002,-98.6060,-14.0715,-96.6113,-111.8552,-125.0200,-74.6176,-142.8093,-17.4064,-102.0052,-99.8002,-92.0112,-25.7976
-149.3418,-232.6961,-96.9473,-99.0037,12.8798,-91.8725,-20.5465,-41.6477,-68.0103,-88.5250,-93.8761,-82.8585,-125.8782,-62.1195,-43.5833,3.2604,-52.1804,-11.3982,-17.7300
-156.7836,-174.1706,-43.4559,-37.9287,-8.0553,-38.0111,17.6022,24.1542,-20.4487,-14.2329,-79.3164,-19.1606,-133.8996,37.6827,-77.1743,57.9158,18.2315,14.7617,52.1174
-183.5633,-144.1545,-24.9674,-44.6988,-32.1997,-41.8882,5.8814,9.9237,6.6761,-3.8554,-77.4167,-8.1609,-138.8974,38.3496,-116.9802,62.7196,1.1772,-2.7415,14.0794
-178.0038,-101.3311,-65.4549,-60.7483,-63.2266,-50.7292,-74.6970,-33.5197,-56.8082,-58.2873,-53.4972,-26.8712,-133.8902,-40.0064,-130.8199,38.6265,-34.5905,-16.9925,-92.7078
-113.7393,-70.1804,-46.4251,-32.8510,-20.4994,-38.9299,-86.5495,-65.1394,-97.4136,-91.9785,27.4234,-40.3885,-58.8351,-98.9774,-72.6756,-54.2431,24.0383,-25.5724,-102.0374
-56.7271,-121.1484,24.6572,-31.0517,58.2292,-59.0691,-43.3157,-113.7331,-71.4313,-112.2428,87.4600,-79.4823,32.0800,-111.1944,8.7805,-127.9527,68.5778,-63.1444,-57.6070
-73.9191,-197.0447,15.0932,-91.5765,46.0979,-124.2918,-51.2247,-155.3609,-52.3509,-124.9803,34.0646,-124.9971,43.4435,-98.7378,19.4625,-79.8478,-10.2219,-127.4191,-76.8072
-110.7205,-182.7035,-60.8788,-114.2475,-33.4219,-164.2398,-92.5864,-150.1017,-60.6434,-100.3807,-54.1749,-112.0874,-1.0287,-70.5884,-34.4126,-15.9190,-96.0042,-176.8188,-116.1264
-54.9988,-105.9833,-83.8220,-56.1024,-89.7515,-148.8690,-132.8488,-141.0618,-86.3251,-100.4507,-26.7591,-65.1766,-34.2577,-52.0489,-77.9244,-41.8022,-85.9813,-195.2023,-121.3684
57.7448,-65.4704,-49.0512,-3.6659,-129.4957,-126.6012,-179.3551,-155.1212,-136.9812,-153.5198,78.8209,-35.4776,-51.9526,-61.9421,-90.8633,-69.6538,-50.4941,-183.5003,-137.1368
73.8363,-42.3634,-30.6248,22.1933,-146.7007,-105.9349,-185.5162,-137.9576,-166.3494,-141.5811,91.7208,-7.0179,-61.4044,-62.9475,-88.7048,-32.8153,-54.4454,-122.0233,-170.4355
-8.5112,32.2247,-50.0667,76.1074,-101.7346,-39.8116,-133.4771,-66.7106,-133.1002,-34.9207,-0.1145,22.7316,-44.0934,-18.8197,-51.7703,25.1167,-83.4278,-16.1003,-170.0824
-43.4194,103.2575,-77.1425,120.6771,-42.5962,61.1948,-71.7887,23.1197,-79.8794,49.8275,-51.8349,35.4237,9.4875,56.6984,37.3039,110.0411,-112.5152,84.7593,-118.2691
-0.7450,55.3243,-62.6634,94.9728,-3.3802,141.1622,13.4400,114.5482,-23.3179,94.1298,-16.8982,45.7226,87.2002,127.4395,137.6223,211.0449,-93.5384,160.2845,-24.2774
37.5561,-70.1051,18.7011,56.9760,78.3086,199.4062,124.1503,193.8703,63.8336,158.0196,35.2044,37.9975,155.9533,146.5081,184.1893,207.7969,0.9832,227.0188,79.5234
48.0115,-91.5112,106.3008,83.4570,177.3089,247.0139,150.2591,223.0263,119.3340,204.9938,74.0015,0.5420,175.2529,92.1786,156.7634,84.2784,90.9329,267.6362,118.2076
31.9345,23.4576,114.0995,157.4683,172.3038,235.5719,65.0575,189.8053,68.1295,185.4252,89.9585,14.4373,140.8851,18.1629,97.0541,-13.8365,92.0509,247.5313,57.2542
-22.4912,88.0905,56.9862,217.0585,77.9439,150.7944,-10.0997,124.2701,-16.6288,132.7476,53.7779,88.3614,82.8579,-16.6522,52.1185,-32.9439,36.4780,182.2678,-31.6362
-70.2954,12.3874,7.3722,198.1364,11.0161,70.2732,-29.7279,66.6375,-35.7086,90.2263,-2.7233,79.2263,16.9075,-23.7093,15.9220,-25.8465,-17.3848,115.0110,-60.6215
-80.1440,-84.1887,-35.3089,74.2145,-21.6917,34.7956,-46.8083,40.2586,-22.8058,76.6264,-27.8912,-38.0113,-55.7337,-23.3420,-35.4818,16.0451,-73.6419,56.5861,-32.9209
-108.4559,-147.9130,-111.3687,-82.4018,-82.3393,-7.4746,-67.8727,27.1965,-38.7892,86.6295,-62.9520,-123.6470,-125.6576,-16.8869,-88.7367,73.6272,-147.3040,-7.7265,-17.8464
-172.1074,-224.8536,-195.3197,-175.8885,-163.1454,-72.3194,-85.4743,6.3954,-62.3793,92.1536,-149.4297,-151.4089,-187.3572,-30.5480,-136.5188,49.2645,-225.8728,-70.3567,-41.4197
-206.1712,-243.3568,-234.4090,-201.5026,-214.1397,-97.6842,-103.2395,15.3230,-52.3100,103.4152,-224.1000,-190.4702,-237.2909,-66.2544,-199.3005,-33.3868,-277.2909,-93.0002,-40.2317
-194.9559,-145.5459,-230.6543,-196.1173,-204.8935,-63.2915,-69.4619,78.0449,8.9935,142.4778,-227.1536,-207.2421,-255.8193,-70.8496,-239.9740,-53.7481,-266.6613,-66.3998,42.9365
-171.6319,-61.9478,-210.3517,-175.9310,-136.8560,-28.4305,33.4044,127.6149,112.2157,165.0255,-180.6911,-161.6646,-227.2490,-31.8986,-187.1183,-15.5842,-212.3098,-45.6321,153.2246
-134.2437,-50.1965,-183.4024,-165.1457,-57.1253,-33.2847,108.1180,115.1493,185.0597,145.4690,-123.9900,-102.9942,-161.3922,8.0812,-83.2931,22.0841,-178.3366,-67.4558,185.7957
-92.5454,-5.4667,-159.7320,-161.6376,-20.1786,-51.2596,94.3488,82.8644,153.2130,121.7610,-85.6750,-50.1097,-81.0079,34.2265,-36.2447,70.0388,-161.9422,-86.5481,126.2544
-76.8931,46.0389,-127.7234,-114.5252,-23.2627,-53.6205,50.8230,44.5629,60.0397,73.2739,-67.6695,2.3500,-14.1404,39.5507,-39.1973,80.8315,-95.0296,-71.7830,48.8908
-30.6679,27.4510,-45.7249,-29.8237,-25.7467,-59.6634,21.4345,-43.2047,-0.7502,-40.6241,-9.3655,12.1741,14.9217,-5.5576,-31.6660,-30.3961,18.4893,-68.4446,-4.9585
124.8399,60.6659,69.8639,27.7138,-8.3243,-88.1841,-13.2409,-153.1444,-31.7130,-155.5196,117.7422,-3.4130,13.7194,-82.2407,-37.9710,-177.9182,102.2997,-87.6870,-60.0365
289.3541,185.4912,134.1929,70.4252,13.0524,-107.8763,-50.3774,-208.4511,-81.5279,-220.6205,216.6907,43.9599,12.3154,-124.4031,-67.6749,-212.4918,138.0331,-75.8151,-117.2263
288.1529,207.9816,129.5292,152.0358,13.5174,-92.3034,-66.7724,-219.2382,-139.2464,-281.9243,201.3607,141.6002,14.9789,-114.4391,-57.3833,-160.2966,170.5021,-37.1292,-129.6382
185.3511,128.8705,130.9321,235.2786,4.4866,-60.5393,-71.9388,-230.7118,-174.7461,-321.7673,131.6699,189.5663,2.2548,-85.7609,-21.2230,-115.3567,211.7719,-13.0947,-94.6482
179.0941,163.0900,172.6401,260.9300,28.6594,-9.6379,-73.7078,-196.8679,-169.5822,-250.9499,103.6192,174.8801,-19.3472,-56.2959,-29.8231,-73.5783,234.5862,34.1204,-61.9713
221.4993,267.1194,207.5831,252.1819,76.3979,77.0346,-48.2541,-77.0342,-95.9509,-99.9454,112.3291,166.2534,-22.2334,-25.7935,-46.7201,-30.8124,227.0456,123.0854,-37.9803
150.6227,247.5371,189.5066,239.3905,80.2842,131.2518,-2.2595,25.3991,7.0273,-9.4451,89.7018,181.3163,-12.7831,-5.6553,-22.3478,-40.9476,195.3038,153.0034,-4.3746
67.8951,172.3171,122.6344,210.1524,35.4209,90.5576,15.6058,11.0995,32.6642,-33.7691,12.7260,171.4005,-20.7096,-6.7196,-9.6482,-98.4138,143.3338,93.6452,11.0747
109.5271,185.0125,58.5284,171.1006,15.3199,46.8849,14.2722,-24.2253,-2.8173,-68.5289,-51.4787,119.9172,-31.8091,-4.3325,-4.3719,-115.1651,85.4184,71.3093,9.7262
128.6768,216.2712,43.8205,133.7466,37.6696,84.3661,53.4773,38.5666,28.0917,-6.6104,-23.6167,81.0028,-5.5327,39.7658,71.3460,-36.8950,51.2220,111.1895,52.5325
43.6009,160.8031,56.6283,76.5101,42.9997,106.9912,102.5091,111.4710,102.6644,73.5687,59.2549,85.5132,44.4066,103.7054,155.9250,88.3828,48.4615,82.9777,121.3930
18.8809,49.3452,56.8225,12.8790,17.7743,47.3612,75.2343,81.2717,85.4485,31.8513,71.7990,85.6959,74.7897,126.8898,139.6980,162.6871,45.7093,-6.0301,125.0592
34.8607,-19.1354,54.7829,-1.6392,9.8234,10.4016,5.3849,33.4458,3.6490,-49.7244,-25.3985,60.8876,92.3033,112.7377,94.7620,141.1190,19.5496,-12.3381,65.1775
-74.7290,14.0638,38.8284,13.4194,22.3390,35.5209,-18.3461,49.5009,-27.6906,-11.4414,-132.1086,54.7846,110.1331,92.1976,105.4660,51.6138,-18.6256,34.6089,8.3687
-174.2621,54.8615,-38.6838,-30.9765,6.3692,13.2782,-20.5016,31.4424,-31.3468,50.3191,-143.5398,47.5930,88.8355,31.9959,88.1537,-60.6637,-63.5401,-12.0479,-36.6241
-90.2467,-33.8737,-128.5575,-132.2182,-40.4794,-64.6768,-37.2711,-59.0450,-47.4525,-9.2731,-78.7820,-22.3241,28.0580,-60.8737,18.3918,-122.3032,-119.3932,-107.4618,-68.0398
13.9435,-137.1073,-129.8534,-167.0646,-56.9771,-73.1755,-4.2441,-81.8776,-3.1303,-59.0863,-50.5551,-90.8126,17.4042,-70.3272,23.2198,-57.4676,-150.6393,-93.6527,-56.5207
21.7152,-48.6517,-70.6135,-71.4147,-7.3001,9.9070,92.4133,13.1726,114.2611,32.6539,-102.6600,-48.6672,89.6766,23.3570,111.9348,54.0045,-112.3272,12.4981,-18.3467
24.6657,107.9849,-31.8321,49.0194,74.1924,81.0464,161.3578,98.0421,203.9543,126.6651,-138.4018,48.0400,148.0100,72.3963,149.5743,37.3969,-26.4346,74.1669,20.3941
-46.3451,86.1913,1.1224,57.3112,132.0757,92.6212,173.7230,107.8791,231.3347,106.3089,-95.4112,69.8933,125.2825,27.1585,117.9143,-62.8835,39.7644,65.3922,74.0291
-250.6227,-45.5513,22.7315,-34.3451,137.5123,86.0793,175.7301,105.6683,234.2674,69.8323,-79.7388,26.9305,73.8335,13.8209,106.0564,-37.9761,39.3223,56.1073,118.0317
-337.0010,-99.8067,-41.6041,-112.6610,92.7446,83.9450,166.5282,116.8256,208.0003,85.2468,-170.9407,5.7996,38.7116,75.6461,108.1367,95.4382,-26.4058,60.3626,107.1105
-195.1351,-89.9533,-136.8235,-126.4022,33.5292,65.6795,131.1998,110.6575,148.2708,90.4475,-239.4064,12.8374,-4.9897,110.4528,60.8432,143.4660,-78.7503,45.0619,84.6225
-73.2706,-78.7309,-106.3454,-93.4566,13.3606,45.5677,99.6683,101.0063,94.9446,65.4193,-147.1466,21.9665,-51.9391,86.8618,-9.8454,103.2891,-19.3048,35.1489,105.9050
-69.4013,-44.4326,28.0156,-25.1731,41.3880,70.8934,79.1526,112.5358,60.3822,58.5821,13.0327,58.2002,-51.1623,83.4387,-31.6862,110.7395,103.7987,71.1012,125.2227
-52.7575,12.8253,95.5446,45.6012,59.6646,108.2660,37.7221,101.5425,27.4449,60.9277,63.5075,116.1133,-10.3562,116.9337,-5.7486,168.9996,132.3796,90.8519,90.7729
-21.8928,59.4947,60.0233,54.9232,23.5399,67.0199,-18.5874,30.4578,5.0501,14.1084,13.9085,104.5489,6.8761,106.2768,4.0547,192.6748,57.3525,21.9065,36.8455
-17.8216,58.7283,23.1500,1.6085,-31.9255,-22.9517,-43.4361,-32.3384,3.4678,-53.7547,9.4512,-13.4734,-16.7929,10.0023,-31.1805,138.0654,13.7342,-53.3170,14.7729
-8.0936,-26.9670,15.6757,-50.7694,-54.4978,-48.8300,-30.6432,-9.6917,5.4002,-35.6354,62.8082,-123.0256,-50.1788,-100.2331,-76.2340,8.5169,13.6609,-37.6275,26.4914
-61.8993,-132.0381,-16.9278,-77.8411,-60.9294,-33.7202,-32.9593,39.0358,-1.8705,53.6733,31.1324,-118.5754,-85.9150,-133.5869,-103.3420,-107.8924,-36.7796,-21.5647,34.2243
-202.6474,-122.0964,-84.8254,-99.2176,-94.1164,-79.3639,-69.2877,11.5796,-10.2782,64.9646,-112.4280,-64.4158,-133.1217,-105.4906,-127.6783,-106.6351,-112.9054,-98.9599,7.5351
-233.0347,-25.4627,-135.2776,-121.7870,-134.1518,-150.9280,-76.5049,-58.7336,-8.6240,-9.8847,-196.5109,-74.2197,-169.0955,-102.7463,-145.7958,-43.5803,-131.7539,-163.3044,-27.1464
-85.5125,-3.0424,-127.3733,-150.9035,-135.4840,-156.2093,-26.8545,-72.7074,7.5299,-19.6766,-129.2934,-138.7727,-163.9980,-137.2082,-123.6679,-31.1516,-115.8450,-126.4185,-25.7705
32.2759,-91.4964,-72.7115,-186.8328,-112.1221,-121.3967,9.3770,-40.9773,37.3352,28.3404,-35.0918,-181.3721,-132.1086,-140.9779,-73.1252,-40.8633,-101.8605,-87.5583,-3.7431
17.5392,-191.2546,-24.3476,-199.3891,-102.8420,-116.3098,1.3277,-49.7938,66.7610,-20.9076,-26.9487,-181.2132,-115.1303,-110.4501,-47.1767,-43.1915,-68.2971,-112.8967,-6.5832
-45.5831,-215.9585,-35.9649,-177.0079,-112.2193,-142.8596,-13.5311,-116.6334,51.1712,-146.2558,-75.7819,-159.3121,-128.8879,-114.0403,-59.3053,-95.6720,-52.7722,-129.8872,-60.9261
-124.3493,-144.6757,-107.1004,-147.6102,-147.2657,-168.4593,-65.2081,-173.8563,-42.8522,-187.1075,-137.9084,-123.4617,-154.7258,-140.1936,-92.4923,-135.0935,-119.3274,-114.5781,-170.8318
-195.5686,-61.6602,-168.8845,-123.5191,-209.8526,-170.6396,-174.0186,-169.8925,-149.0996,-135.1100,-182.3672,-90.3812,-166.4289,-108.6469,-135.6603,-55.0824,-193.2653,-129.6012,-264.0177
-167.7940,-104.3999,-149.9212,-117.7930,-225.1458,-162.9711,-211.8682,-147.0658,-157.0404,-117.6163,-126.3910,-106.5977,-131.9465,-54.4052,-136.4058,10.1786,-147.0652,-185.7980,-232.1597
-38.5562,-245.9433,-51.3894,-159.7386,-123.8755,-183.5739,-105.6669,-176.9927,-79.3476,-180.7475,58.2273,-175.0213,-21.1590,-92.0548,-30.9209,-91.5353,-12.0717,-230.4715,-126.5691
87.6243,-289.1676,60.1245,-195.9667,12.6906,-208.2655,-0.4506,-227.7925,-25.0458,-241.3531,248.5026,-199.9897,122.0459,-176.4911,110.4198,-202.4049,71.1010,-220.6143,-110.2725
160.3503,-158.8298,112.5721,-118.9816,49.3671,-171.1419,-12.3248,-211.4017,-31.4642,-214.6040,305.3091,-112.0095,172.0273,-147.1487,131.9388,-146.5306,52.0811,-156.4420,-169.8168
205.3559,0.3112,82.4530,30.4642,-6.3361,-96.6170,-63.2403,-144.7960,-60.3878,-142.0127,226.5999,-5.9471,92.5834,-22.2011,42.6108,-39.9963,4.0518,-87.7134,-154.5947
240.9274,42.8766,30.2309,88.0325,-39.2908,-55.1544,-55.9423,-103.2065,-68.6753,-126.5744,124.7245,-10.3481,25.1217,26.5968,10.1187,-20.5830,7.8793,-55.1838,-55.6452
249.8411,-20.2859,44.7154,25.8094,8.7896,-31.7812,12.6156,-78.0746,-16.7583,-142.7140,101.3136,-80.1925,72.8257,-18.6126,74.7984,-33.6175,64.8073,-33.5028,32.6394
213.1630,-81.4320,107.6702,-22.1695,93.3649,7.5588,87.1322,-39.3645,54.7104,-92.5420,140.1374,-85.7270,139.4634,-26.9008,113.6100,-36.6416,113.2161,2.6873,86.4302
159.6225,-72.8843,116.1951,9.9564,131.2320,29.0845,89.1923,-20.4932,30.5354,-23.9675,149.5543,-28.7567,125.3768,7.0071,89.6377,-79.9076,116.1357,26.3528,94.1937
134.1468,-29.6843,70.7431,52.9603,91.9093,13.3351,16.1727,-34.1229,-66.5309,-39.4668,121.0594,-9.1693,91.1853,-22.6528,78.0368,-148.6253,99.7865,25.8136,27.0825
121.4301,-8.9128,64.1439,56.9545,32.6756,0.8496,-38.0355,-41.9356,-95.1549,-83.3405,121.0982,-41.0700,99.0674,-91.3695,83.6055,-163.4599,92.3186,27.5490,-61.9430
83.8444,-11.5769,85.4509,62.0425,10.8707,20.0900,-44.4291,-35.3151,-64.4989,-69.9423,129.5724,-38.5940,107.1932,-77.6924,70.3339,-106.8219,86.1407,34.8345,-96.1052
29.2796,-37.8521,62.6664,93.2052,18.3366,48.1307,-38.7336,-28.7676,-51.6913,-48.4541,78.7876,22.3903,100.8344,4.6740,76.6445,-31.0380,78.9182,26.2697,-73.4297
-15.8872,-96.0997,39.9543,96.4389,46.6794,46.4486,22.1802,-6.3212,25.2794,-39.8292,17.6624,42.3973,119.2869,33.9566,118.4512,14.3424,79.6375,4.8365,-1.9325
-18.7349,-116.9130,71.7460,35.2085,98.6377,24.2968,150.2577,52.5786,199.1967,56.7501,30.5208,-29.9546,135.9187,-3.2644,124.0743,21.2809,72.2602,-3.1842,105.6709
47.2542,-33.3928,74.3810,-38.4824,118.6571,24.8013,211.9121,120.7205,295.7375,233.3811,69.9431,-90.0476,88.0988,-29.5147,67.7477,-2.6957,39.2536,-0.7620,160.1947
120.0557,61.2081,-7.5302,-74.7127,55.8801,13.1636,138.5783,120.3221,238.1758,292.7107,48.6583,-80.8290,-5.2406,-54.1074,0.1824,-64.9421,-7.8062,-40.3185,98.8102
100.5894,37.3501,-84.2018,-98.9806,-42.0178,-80.7490,31.2309,17.6134,149.2556,158.0185,-13.7572,-113.9901,-79.1275,-120.6324,-61.8792,-134.0989,-66.9530,-135.7674,-4.5439
22.6496,-47.3587,-106.3102,-141.1318,-108.9834,-177.5126,-27.4907,-76.3391,91.3884,42.0283,-60.3296,-215.4874,-119.5672,-154.8579,-123.6350,-122.7330,-145.8518,-193.7534,-51.6741
2.4116,-57.7410,-132.7161,-177.6415,-136.3759,-148.8143,-34.2609,-38.3304,59.6172,110.4361,-86.7832,-236.1266,-150.1972,-91.0889,-156.1074,-29.2965,-199.8004,-150.4939,-28.4267
41.9174,-33.0545,-164.6968,-179.8103,-128.2144,-69.3935,-0.8508,52.2262,92.5968,195.0659,-94.3404,-167.1109,-170.8191,-40.2328,-149.6093,12.7834,-171.4269,-97.9286,30.9714
44.7613,-104.2621,-144.0831,-161.9639,-103.6964,-80.3645,17.6549,40.3989,143.4607,98.2249,-69.9606,-175.1580,-162.4829,-105.5154,-130.1027,-60.4868,-94.6227,-121.4453,67.4458
-17.8440,-218.6791,-93.1702,-156.1264,-107.6662,-133.5116,-27.6735,-45.0670,95.8973,-56.8508,-42.3628,-250.6024,-143.8600,-180.2943,-116.5504,-133.3198,-52.0628,-145.8125,24.4558
-70.8354,-195.9020,-73.1936,-136.5367,-131.6798,-116.7068,-90.2185,-77.9906,-21.0519,-67.9142,-61.9756,-224.7132,-162.8234,-134.2104,-131.8651,-95.3971,-51.1833,-84.0670,-66.6406
-60.5419,-52.8113,-70.6074,-28.7788,-121.2241,-35.3125,-114.4108,-42.0318,-83.4708,24.4807,-111.0755,-104.6317,-193.5906,-25.4516,-162.8080,3.8170,-31.0473,20.9729,-101.2092
-38.1069,3.3314,-31.7274,129.9943,-61.4424,52.6897,-81.3727,6.1295,-41.5773,95.3248,-112.2428,-27.8915,-134.8712,29.3671,-108.9877,57.0922,38.8780,87.5019,-33.5025
-58.2015,-75.6333,42.7060,173.7975,33.9532,87.7933,34.6292,27.3395,80.8518,122.7140,-56.0689,-9.8633,8.6459,27.9134,51.1808,56.7157,112.7303,91.8321,65.7535
-98.7404,-137.4409,73.8860,84.8944,118.7377,36.5493,148.4874,5.8672,171.9818,98.9505,-45.8549,8.6418,79.0112,33.7183,137.8968,77.5340,115.1422,69.9478,91.4556
-160.1057,-121.7546,9.8029,63.5610,107.3555,-10.5782,98.7997,-15.2343,100.8066,28.9985,-134.7791,38.3004,9.7312,79.9810,44.9397,135.4459,58.6342,85.8214,36.0331
-246.1425,-92.8388,-46.9630,171.0464,33.9992,52.1405,-27.6205,23.6132,-38.4678,-0.4401,-192.6252,84.7001,-51.3075,146.2003,-44.2583,154.0343,62.0876,147.8143,14.4529
-231.2993,-58.6765,26.8772,220.4478,58.4531,142.9415,1.4023,77.4928,-35.2645,53.1947,-83.9413,148.4414,13.0581,178.2048,34.1363,99.1667,155.1871,184.8225,94.1709
-56.7848,-2.3997,138.4877,143.1158,172.9219,139.2448,112.4581,71.2626,50.7323,108.1879,90.8795,178.9899,107.2954,155.6300,145.0312,37.7310,197.6471,159.6495,175.9312
60.5706,28.3884,128.4896,73.0540,201.1887,81.1862,90.7058,33.1491,30.8190,88.2611,136.6031,137.4024,114.1344,113.9925,126.2832,12.4198,129.5428,105.7304,162.7483
-19.8593,3.6660,54.8820,29.2829,129.7202,26.4728,13.6882,-4.5660,-30.1905,5.9552,72.9505,54.4576,81.9762,64.8157,60.8439,-19.1288,79.2956,48.7553,108.0922
-94.1120,-37.1469,47.9533,-62.8517,82.4340,-41.6503,16.7505,-71.5852,-18.6267,-75.2758,63.1097,-8.1529,88.2645,-9.0674,59.9072,-71.5354,98.7289,9.7050,68.6058
-26.8800,-54.2464,65.6535,-123.1974,56.8952,-83.3565,-11.3006,-134.1584,-45.1965,-106.9923,111.4758,-15.0484,86.7111,-62.0488,58.1224,-79.4058,83.1308,14.2755,13.5527
13.9525,-51.8813,25.8318,-77.6654,4.7044,-55.8259,-114.7269,-119.5481,-147.8739,-106.3792,94.8184,11.1503,31.8376,-30.7707,10.0504,-11.1722,17.9918,39.7556,-25.4568
-38.9418,-51.4212,-29.2212,-39.2454,-12.2321,-9.2380,-114.9974,-45.9256,-148.7506,-88.7487,22.3787,25.1756,5.2479,41.9173,17.8447,56.7312,-6.4352,73.8606,35.7863
-33.5911,-40.0840,-38.3108,-63.1561,41.7561,49.1807,15.3656,40.8525,-27.7647,-8.1074,12.3578,30.5518,75.1783,72.1565,115.6980,51.3444,-0.9276,158.2197,137.1693
33.4782,12.9597,-23.4668,-60.8963,91.4977,144.4905,75.8848,120.1880,18.7445,101.9448,67.2155,50.1091,162.2798,71.9111,179.4257,25.2464,-30.3470,243.3805,142.3911
14.5792,71.3928,-38.0367,-45.6176,90.4649,176.8601,5.3085,130.7358,-45.1737,110.2161,79.2311,61.0602,168.5153,85.1874,149.0614,52.7886,-70.0202,199.8754,74.9104
-80.5925,65.4444,-91.9709,-97.2628,68.3479,76.8146,-50.8834,48.1305,-72.5090,27.5381,9.5247,38.8118,115.3413,71.9335,108.7375,70.4093,-86.2167,58.4941,52.5219
-136.7947,19.7414,-142.2068,-169.1177,35.4246,-34.1444,-30.4045,-36.7780,-29.9704,-15.5989,-86.9014,-5.4648,65.9807,-4.1493,99.1085,-0.4905,-113.0630,-24.7882,66.0602
-146.9776,7.3908,-167.3278,-198.0406,-26.8938,-58.2985,-20.8572,-57.3117,-2.4403,-17.1912,-164.8775,-58.2477,29.7278,-61.5246,65.6294,-66.5015,-171.4577,-24.1574,29.2210
-170.8173,7.0814,-206.1645,-205.9473,-92.8087,-40.8532,-54.7420,-34.6278,-8.4302,-23.5241,-209.8275,-94.1217,-3.6054,-20.3383,6.9351,-15.0748,-225.3078,-11.5156,-33.5689
-228.1404,-50.9030,-249.5958,-196.7059,-106.0098,-16.6418,-61.4484,12.6769,-7.9947,12.9269,-191.3159,-82.8150,-23.8962,54.7159,-6.6285,89.3639,-216.1120,4.7108,-25.0796
-278.0164,-131.5642,-204.7806,-156.0616,-65.8182,10.8609,-26.5582,57.5179,-2.8501,67.7577,-88.2088,-44.8269,-14.4123,73.4117,35.8829,144.8403,-115.4673,30.7736,40.3501
-240.1993,-109.7369,-66.2621,-90.3857,-24.8279,16.5781,-22.3082,51.1457,-32.6399,37.7066,38.6852,-7.7949,23.4636,61.7662,62.5231,142.8800,11.9903,39.1323,40.7325
-116.4527,30.8120,34.9340,5.7393,-7.7935,6.1865,-67.2559,3.8719,-100.9125,-39.7755,84.6872,31.7099,48.0146,52.9826,27.3923,80.3392,61.8606,24.0238,-44.3840
-33.4655,112.9666,32.4430,74.4982,-4.0260,-4.5155,-92.9512,-32.6536,-134.8137,-56.2911,42.4180,27.3601,18.8334,9.4665,-29.4791,-18.3249,30.8914,-8.8884,-73.7595
-47.9607,10.7666,-7.6446,8.3961,-14.0398,-24.8852,-60.4827,-32.0516,-74.0460,-9.9462,1.3399,-65.7727,-27.7729,-47.6113,-47.9274,-50.5592,-20.3321,-54.4461,16.1629
-75.2210,-139.5069,-54.3144,-141.6982,-48.9092,-41.0741,-26.2974,2.0894,-0.8090,51.4457,-24.8373,-157.9324,-39.9805,-49.9359,-36.4752,-15.5036,-98.7653,-91.9615,70.4184
-70.5327,-165.9687,-145.1131,-224.9559,-117.6814,-61.5675,-69.5859,11.0294,-41.0946,68.0130,-105.3139,-162.0345,-55.6090,-42.7074,-48.4377,-36.3690,-213.4334,-135.5719,-30.5272
-59.7127,-114.7641,-243.6136,-239.8718,-207.9879,-131.3022,-163.5461,-57.4959,-131.7248,-10.0320,-201.5737,-146.2657,-112.2166,-91.1327,-86.9441,-92.4564,-278.7653,-202.0107,-148.1707
-32.1501,-85.8503,-252.8298,-241.7050,-247.3986,-192.9114,-180.1132,-118.6346,-102.8555,-92.5839,-192.6082,-154.7566,-145.0998,-113.5765,-107.7463,-48.0279,-226.5377,-216.3707,-114.8736
9.3057,-61.5770,-165.7077,-179.8406,-180.3488,-147.7838,-88.8248,-77.2579,5.0754,-66.6358,-95.8336,-107.8874,-117.0727,-40.2932,-107.4878,51.2750,-112.9195,-134.8013,-11.8665
22.7264,-24.0116,-71.0332,-52.9238,-98.2585,-55.8171,-35.1577,-15.2051,-10.5539,-16.4002,-28.8457,-8.4206,-104.8350,30.6390,-125.8216,47.6929,-38.9279,-59.6624,-6.0179
25.6389,-0.2748,-37.9177,29.3603,-118.8495,-18.1218,-103.4432,-17.0310,-145.9285,-24.4048,-8.3748,22.8218,-142.8531,6.9506,-162.4035,-54.0544,-38.0525,-45.7796,-68.2162
47.3020,20.4399,-59.5319,29.3652,-173.0161,0.3364,-172.2879,-7.0625,-196.2286,5.3128,4.3552,-39.1585,-156.2185,-63.3412,-166.1586,-136.3742,-58.3028,-10.5123,-64.4153
44.1962,53.3768,-69.5271,7.3465,-135.5305,37.6094,-138.3466,53.1519,-125.6673,78.7616,1.7493,-85.5301,-110.6758,-99.6749,-114.7292,-145.7738,-27.9598,55.9171,3.0894
21.2505,88.1922,-2.4763,24.2618,-52.8864,55.6332,-74.2201,75.5032,-84.1310,58.0860,28.0416,-29.3438,-53.7575,-67.6582,-48.0164,-87.4677,65.5149,76.4739,42.4789
75.8529,126.5051,133.6694,122.5781,-8.6148,64.1857,-45.7838,40.2727,-90.1592,-33.3543,158.5448,100.8804,-0.4812,25.1902,-4.7968,10.8347,181.1156,74.4323,56.9794
209.5178,148.7876,265.0446,259.1713,44.3721,101.7894,0.6522,27.3246,-49.7343,-55.6891,301.6584,192.3609,65.3643,120.5163,22.1673,94.0510,267.3081,106.3655,98.5497
282.4653,129.1881,322.4084,294.0987,124.6861,140.7705,75.6057,58.3410,-0.5674,-15.9429,288.9030,174.4807,111.6065,154.1559,45.2311,116.8370,262.4757,122.6987,127.8085
215.2757,102.0623,282.1395,188.0123,145.6623,142.2049,97.2085,80.2254,-10.1775,7.3271,160.4401,98.0423,107.6051,117.5958,63.2318,71.7247,151.6972,80.6213,93.6234
83.6292,79.1897,182.1370,67.3914,103.7770,108.2489,66.7712,67.0760,-0.8572,15.4757,80.1728,38.9104,89.3917,50.3994,89.5873,-5.1668,28.6365,31.8814,47.7748
-15.3132,20.2895,88.2909,20.6870,73.5255,62.8276,61.7909,52.8373,50.9971,30.7921,40.6731,10.5594,71.9599,21.4220,105.5824,-37.0371,-37.0952,15.0453,23.1575
-80.0003,-27.4966,5.0574,17.8031,25.8638,39.8520,41.2902,61.6651,9.8522,39.7905,-65.3452,10.9291,-0.8536,73.0005,38.8406,16.6139,-107.7050,2.9277,-46.9780
-141.8268,3.2006,-94.7195,26.4590,-81.3602,34.8099,-66.7879,47.6394,-119.5054,1.0836,-188.8942,30.2048,-116.7465,140.1384,-86.9918,97.6387,-200.8432,-34.3533,-149.5619
-164.2601,34.5479,-150.6435,40.2954,-147.1914,2.1294,-135.8135,-21.3543,-140.8080,-103.3004,-205.6553,26.4913,-152.3607,130.5639,-120.7791,124.2081,-203.7517,-84.1362,-152.8274
-101.0747,1.1372,-102.1060,36.9947,-94.8320,-45.1215,-37.2580,-77.8634,-44.3518,-187.8370,-142.8187,-10.4977,-83.5507,59.6580,-36.6358,73.2449,-107.6615,-101.8654,-61.4542
-9.5672,-19.2935,-41.6387,12.7935,-21.7874,-53.1967,68.7653,-71.6244,-33.6677,-168.8063,-102.3776,-43.5904,-46.2254,-10.9911,7.8204,-22.0210,-67.1194,-76.7899,-42.1189
12.1448,9.2494,-63.9073,13.3266,-21.9325,-31.7241,15.8771,-47.3996,-122.5804,-112.9671,-72.3221,-46.1972,-81.4372,-48.1285,-33.1452,-81.2831,-125.6336,-51.3356,-121.8968
-23.2324,47.9939,-86.2892,76.6506,-47.8682,0.4149,-48.8075,-13.7557,-124.8399,-82.1201,1.8855,4.5980,-65.9832,-5.2387,-34.6788,-37.3836,-147.4581,-27.6714,-148.8884
-0.8244,109.8279,-19.0509,160.8434,-33.6829,61.1147,10.0312,61.7596,-38.1333,-21.7781,80.6167,98.1611,22.3627,99.3026,19.0533,53.0055,-66.4727,28.6321,-79.1495
132.3767,162.4851,70.3217,175.4300,5.0953,105.6795,42.6971,111.5175,-38.6807,33.5948,113.5587,129.7216,55.3818,124.6980,12.4938,62.8889,20.0866,62.0983,-33.3597
265.8263,120.6568,98.7832,106.8009,15.8814,63.5710,-46.2885,58.8510,-136.1309,-26.1316,127.7877,39.7989,7.7550,27.7314,-55.3210,-18.4299,21.2342,-2.3992,-72.9808
253.0100,51.1805,82.5106,40.6633,-27.9636,-15.6242,-116.1867,-20.8733,-179.8891,-121.8032,132.9772,-57.2165,-18.1676,-48.9951,-74.4198,-81.1069,-29.0291,-88.8571,-125.0466
133.1304,63.7034,65.9245,26.2476,-84.5473,-33.9192,-93.7302,-23.3982,-142.5406,-96.7974,87.1627,-58.4174,0.1123,-38.0911,-28.0689,-70.9239,-41.6310,-90.3237,-112.7640
75.6301,84.2584,75.0667,23.4903,-75.2959,2.7906,-57.0268,29.4619,-114.0946,-1.7559,10.0117,-21.5428,5.1962,-20.4390,1.7313,-34.4333,0.8780,-57.3517,-46.8961
102.2322,42.8413,105.1487,2.6679,-1.5579,27.9834,-28.3370,64.6066,-91.9943,23.0042,-18.5529,-15.1524,-1.2515,-18.8906,-7.1033,2.0371,31.4494,-70.7730,3.7677
100.8519,19.2357,107.2645,-19.2826,55.0824,13.5746,26.2374,58.8689,-7.1110,-24.3441,12.2034,-25.8864,18.0305,-0.0393,15.4178,55.2914,8.8795,-94.4657,4.9837
83.2393,33.9750,63.0819,-26.6499,72.0047,-25.1142,102.1944,35.6451,105.7822,-58.0061,31.6411,-37.6468,49.4057,4.7783,88.9469,83.4546,-26.6239,-90.4611,-1.7958
135.7607,37.7954,23.9835,-6.5582,93.2694,-50.7838,173.9720,28.0272,140.8365,-36.1326,-11.7231,-41.2629,46.4510,-24.6508,111.4839,22.4434,-30.6479,-87.3292,13.3681
196.8369,70.9464,13.1653,40.8566,111.6153,-31.4723,189.4473,41.0717,86.8892,2.9810,-96.2683,-31.7853,-8.4052,-53.2076,23.7734,-72.1259,-13.8677,-74.8012,12.6491
167.4408,136.7209,6.8328,66.7565,94.1462,30.5420,127.0900,63.4099,41.8677,2.5762,-141.7275,-49.8042,-67.2927,-77.1862,-60.0444,-95.9373,4.6236,-11.3004,-1.6324
116.8864,140.8368,28.4361,34.9886,87.0129,104.5734,97.8926,103.7412,73.7222,-11.5026,-85.9664,-102.4112,-51.7846,-90.3647,-25.7542,-59.6366,43.3891,69.7629,52.5867
155.6876,109.1747,114.6748,2.5694,152.9235,150.8598,182.8427,155.2248,137.5148,18.5690,22.3415,-103.2800,35.5648,-41.0316,66.3456,-9.4833,115.8463,103.1889,169.5697
235.6562,144.3221,212.7385,42.5628,247.2720,148.9369,260.4145,176.8306,149.7123,63.6638,70.8232,-18.9030,93.2466,45.6231,105.9595,58.5851,170.5982,91.1959,212.3917
229.8941,191.0511,238.1170,117.4494,272.5830,120.7138,230.2608,159.6925,110.3117,83.5988,38.8418,55.2195,67.8755,59.9635,81.5496,83.2307,142.9762,69.8043,139.9322
134.3009,161.2540,194.2603,126.5030,225.8218,97.0477,189.4217,139.3307,90.5469,108.4151,15.2440,51.1395,27.9724,-1.0318,41.0018,9.9375,62.9867,56.3958,87.5138
82.7482,129.7627,152.8459,63.5887,188.9720,90.2607,206.1704,148.4834,100.6285,142.3580,58.2381,15.5215,38.4659,-19.9910,30.6774,-26.1293,14.8251,69.1462,124.4804
148.7539,171.3058,147.4695,23.8104,181.2941,111.1719,197.7690,197.8963,70.5807,152.5323,126.1768,-0.1151,63.5212,26.3794,56.1534,63.5022,1.9590,101.8066,140.8441
230.6853,214.2358,143.3540,46.0656,140.2798,139.4955,124.7354,243.9585,-9.0985,145.8170,151.1589,-13.6675,53.7336,23.8663,60.5772,101.7384,-23.2879,94.7569,67.9289
211.6487,181.3828,110.2665,71.6225,66.7679,120.3513,63.5020,219.2908,-55.1264,125.7435,114.5465,-49.8345,38.6323,-63.7661,25.9504,4.4783,-52.4297,34.9439,-4.5578
103.4082,101.6152,66.2491,71.5316,36.7522,69.9623,67.4376,160.1977,-40.7013,89.4893,39.1221,-80.5189,58.3627,-111.4386,25.4303,-36.1973,-72.7416,8.7137,-13.9185
-35.7030,44.0074,27.1924,73.6727,47.9773,69.6451,100.2126,161.6643,-32.6398,84.2215,-41.9333,-67.8140,78.9769,-47.9712,73.9803,33.3712,-110.7066,56.8570,-12.1450
-142.3676,36.9454,-1.5239,83.1938,42.0571,125.1815,112.0807,205.3865,-39.7503,121.5796,-86.3463,-18.1114,62.6693,24.6279,94.5833,42.2103,-124.0913,116.4630,-7.4754
-124.5225,56.1183,30.7986,115.7298,64.7916,194.5048,135.6147,233.0002,16.9992,155.0973,-67.4708,55.8055,49.9128,40.1791,87.4637,-9.0980,-22.5110,171.2838,67.8705
-6.4328,70.1672,157.6187,216.8433,182.0950,285.3844,232.3990,276.4388,140.0928,192.2771,-21.7900,155.2590,82.5440,83.7768,116.4935,25.9123,150.6609,255.8178,184.8962
49.8777,81.0743,290.1966,337.3344,300.8228,367.2448,331.7375,331.8453,215.7259,226.5975,-0.9876,232.4203,122.4463,182.4417,150.9393,119.4569,245.5724,306.0022,213.9485
33.7280,97.0408,318.5352,355.1718,301.6304,356.6180,299.7751,322.6090,178.1314,182.4899,14.8661,227.2914,116.9089,230.2736,123.0430,158.3343,216.4402,249.7372,134.3289
96.2238,102.9102,265.0402,274.4423,237.1030,286.1767,179.5000,274.9969,84.0264,102.7936,56.0927,183.6441,71.8940,203.0238,61.4157,154.5672,147.6741,175.0189,75.7343
200.8882,90.0602,220.8466,213.0032,210.8311,266.7898,119.9685,272.6380,10.5490,110.0239,82.5366,181.4005,31.4788,189.0034,30.8609,165.8456,116.2707,176.8713,114.1467
179.5076,82.3831,218.9596,221.9431,215.1608,287.1361,126.9389,284.7050,-12.7573,151.4719,81.7662,203.0445,27.8797,188.0742,26.6370,177.4052,132.4668,185.9960,168.0971
103.0036,110.8725,236.8569,267.7967,207.1203,259.4987,118.5770,250.8725,7.3618,117.0122,114.8118,195.4699,38.0633,113.8670,-4.3728,118.5772,154.6206,121.5219,137.8120
152.5213,161.2441,231.2410,292.2378,176.1528,173.9770,81.3921,183.6380,21.5696,46.4471,163.4055,150.6871,9.9295,-23.9729,-66.1485,-24.0005,120.0068,17.3936,32.7583
248.7736,164.7975,165.8473,232.5732,101.1559,72.5262,22.0250,94.8913,-24.5874,-23.1272,123.3620,71.6690,-37.5070,-105.6760,-78.2389,-107.7551,16.3740,-80.1979,-78.2745
210.9798,94.2408,67.6264,113.0703,-9.4966,-5.4163,-46.2890,4.1394,-98.7156,-110.4661,8.6840,-3.5708,-44.2216,-58.3669,-8.5275,-20.8276,-81.5084,-146.6160,-143.1124
97.8503,31.8807,7.9956,53.3991,-76.5346,-19.8589,-63.5308,-29.8366,-117.6638,-149.6093,-50.8442,-6.7170,-42.3940,43.2187,26.8589,81.1542,-92.4514,-140.9359,-132.0943
67.3676,45.4749,11.0789,80.1059,-55.3540,18.4107,-30.6155,-17.6129,-83.3617,-112.9260,-18.2295,25.5109,-81.6104,63.7501,-49.3262,24.2505,-30.1753,-84.8116,-72.8999
99.2146,67.6539,44.6310,87.6240,5.6131,37.5610,-25.0121,-34.3438,-66.9970,-102.4494,31.4954,-9.9373,-88.6527,-15.2941,-122.4915,-87.9028,13.1360,-71.1991,-60.7722
99.0867,15.5812,74.2331,32.5202,57.4014,0.9031,-38.5934,-77.8501,-78.1711,-136.3425,53.5398,-87.3775,-8.7367,-100.0815,-90.2731,-130.8336,-16.3135,-113.9065,-122.3170
87.8791,-62.3563,79.6144,-18.9817,96.0571,-49.4830,-1.1425,-87.6605,-56.8734,-133.9378,63.5630,-115.4592,66.6269,-147.1919,-13.0983,-162.3768,-71.1310,-124.6292,-149.2056
105.5303,-70.8047,67.8919,-22.2361,124.1838,-48.6444,75.6476,-42.7981,31.0494,-91.9629,78.4436,-111.8695,74.3014,-163.9976,44.6650,-180.1642,-80.3799,-60.5763,-81.0956
102.4725,-21.2616,76.1842,-0.6497,151.0436,20.2432,143.3483,40.7173,140.6917,-35.7182,86.1911,-118.7403,62.5638,-119.8108,84.2449,-105.0077,-42.2697,21.8101,-9.5912
59.0621,-6.8881,115.7666,2.3544,188.6754,99.4969,180.7116,112.3839,178.2876,16.5462,62.6542,-98.8641,51.1850,-27.3059,90.3715,-9.6296,8.5924,61.1918,-0.1853
36.9279,-50.9646,156.0170,-5.5081,219.5620,132.2953,167.7704,120.9690,121.8509,3.0562,25.2216,-30.1339,43.5092,24.8080,80.4286,13.3233,72.8926,72.1461,5.0417
38.7688,-70.8111,185.5766,55.9250,228.5137,147.1056,139.6197,109.9275,83.4722,-32.6996,23.5510,52.5429,88.7751,23.5603,113.9604,27.5406,160.8852,109.1754,47.1594
12.6082,-21.9662,214.4373,198.5818,234.7501,189.5419,167.8288,155.2842,132.4525,43.3331,41.6390,116.0093,149.8328,31.6834,152.9411,70.0197,236.6221,166.6378,91.7510
-8.9368,35.2397,223.1732,290.3586,238.3644,233.4306,207.9037,224.5387,159.4004,162.9738,12.5901,137.1485,110.9836,49.3436,105.0879,80.1633,250.9478,180.8451,110.0204
15.8829,66.8736,192.3432,264.9022,209.5645,240.5184,166.1895,243.5538,86.8179,162.4753,-49.7252,118.3443,-6.1072,55.4437,-5.7535,62.6384,207.7336,138.3713,92.2472
16.2633,97.7799,148.3797,214.2130,151.1474,216.4948,84.5929,212.6098,22.7397,101.0855,-75.2734,88.6915,-83.4297,68.2210,-95.0027,62.1435,152.3115,85.2436,47.2557
-46.5720,86.9873,118.8863,167.9232,88.8379,176.3377,46.4960,169.3544,40.4925,87.9640,-71.0256,36.4475,-111.8872,72.1091,-140.6988,72.3618,116.8293,43.9395,39.3770
-87.7093,-10.9802,98.1879,72.2078,36.9727,143.3358,49.0435,155.0690,68.1706,81.9300,-84.7910,-49.7797,-131.6759,57.3160,-140.2140,99.5601,107.0722,19.7591,107.7217
-79.1376,-103.2551,82.2413,-9.4052,25.1465,146.2852,87.4189,194.8066,77.2415,81.1645,-103.7492,-96.0658,-118.1305,78.3173,-88.1172,141.9537,103.0268,29.7191,162.6274
-92.9268,-96.5605,70.3934,6.3074,60.0145,168.5741,141.9849,229.4211,86.4243,122.5690,-100.8990,-65.8513,-73.9263,112.7551,-31.3912,122.6952,62.3237,58.0302,101.5690
-124.8927,-49.4886,49.4213,42.1487,74.6291,172.7630,119.9208,187.8257,37.9896,124.8203,-85.8740,-48.2828,-50.7660,57.4029,-22.9565,12.7551,-9.9130,64.7107,-16.1102
-113.7883,-41.7281,34.6952,19.0295,49.8396,154.7434,31.2017,118.0069,-57.6131,52.8453,-54.9065,-87.1254,-35.8406,-53.3369,-39.4366,-87.9609,-29.9170,42.6376,-42.9516
-96.0835,-82.2404,59.6513,-22.9762,76.6284,115.0385,25.9764,89.1413,-59.9694,-3.9084,-4.1654,-114.6366,14.2785,-92.1713,-23.2041,-92.5142,26.5064,5.0628,40.5506
-140.6982,-159.0132,89.0104,-51.1243,166.3883,65.2869,117.7280,79.0283,35.4403,-29.3045,7.8375,-95.8825,65.9416,-58.1074,26.7500,-21.5243,55.8806,-21.2112,105.4229
-210.7544,-190.4559,60.3903,-40.5248,206.5378,64.0308,173.4884,78.4471,82.6725,-43.3373,-61.7503,-35.4962,71.2770,-2.4996,66.1999,67.1148,12.3142,9.3056,82.7691
-225.9137,-74.2433,10.5344,64.8264,186.0791,124.6514,188.0153,116.6902,75.8737,-2.6276,-133.9643,72.4374,67.3653,88.9049,96.3050,135.8534,-12.4206,76.7164,61.8910
-180.6055,98.6708,9.8629,202.6928,189.9669,162.8014,232.5645,154.7259,100.3538,48.1746,-110.2017,160.8991,101.9497,174.1997,150.3911,156.1358,15.9277,90.2098,106.3423
-118.0444,147.4218,31.7114,229.4831,187.7575,138.9298,249.3553,148.5973,106.5395,23.2439,-24.8219,146.1730,130.3373,162.5287,179.8631,110.6443,29.3854,41.4045,130.7206
-45.8622,103.6752,44.7063,168.9357,130.7903,113.9757,186.7448,134.7628,47.2216,-15.4626,31.5491,92.4947,104.7478,90.3980,118.2196,32.5657,32.6602,11.6507,76.1987
44.6530,104.8000,104.1032,148.6965,124.4736,118.9763,141.2428,125.2572,12.1713,-15.4833,57.1004,97.8385,99.2663,60.2244,54.7200,-0.7072,76.4351,28.0724,21.3856
99.8444,147.6127,209.8867,176.8187,226.5177,137.7281,174.7561,97.3747,26.5589,-33.3657,81.9723,122.6628,183.0195,77.6395,104.2723,34.2503,116.6895,82.0912,14.5071
62.1051,198.1582,261.2897,213.9552,302.6660,190.7526,209.0533,105.3929,3.3291,-32.6715,87.3492,120.2122,255.7613,107.7866,176.9306,71.6702,109.5294,181.4655,6.1099
14.2101,274.5634,246.8402,269.2654,279.9196,276.9846,186.5740,181.3234,-48.9659,31.4610,91.6124,133.1920,219.6996,145.1106,153.9747,68.9648,115.6990,254.6920,-3.6412
99.2144,303.2708,265.5513,299.4474,260.6380,312.0722,146.7873,217.1192,-55.0864,22.5866,153.5373,152.5691,169.7259,160.8027,117.1560,54.8905,176.1394,206.5572,35.0576
282.0057,212.1894,328.1758,239.6317,291.4441,245.8983,131.3766,145.3089,-37.8395,-104.7048,224.4331,114.9305,189.7796,127.8796,149.1089,47.8997,230.5872,104.6909,90.4127
382.6122,126.3843,341.6469,136.8495,296.0834,144.0788,138.1283,62.6849,-33.2795,-158.2285,201.6746,55.3315,188.0744,78.7342,166.7506,43.3392,209.6039,65.4363,91.4453
339.5229,169.8583,271.2570,80.3337,239.9177,80.5528,144.3857,42.6605,-0.5265,-77.0394,123.8796,54.4462,116.3967,44.9446,121.7136,47.4100,109.5152,41.6846,40.0472
253.9257,241.5880,166.8209,77.1965,155.3529,43.1453,125.1295,34.3020,50.1720,-24.1105,91.0685,83.0813,61.4600,12.7034,81.2828,43.7587,-9.3709,-41.7414,-16.2839
209.4221,222.3217,73.7940,68.7845,69.9257,-13.0689,84.7886,-0.7514,39.3603,-51.0745,75.2155,53.0524,32.3533,-32.3173,56.6191,6.3573,-83.9138,-130.4521,-45.4953
202.8792,167.3540,-0.1871,1.8939,10.3966,-90.9104,63.7229,-39.9002,-12.5247,-62.5616,11.4790,-35.2883,-41.0841,-83.6261,-6.2743,-45.7659,-128.0921,-184.8802,-41.4885
202.4549,143.3136,-63.8175,-90.0496,-17.6085,-160.1477,70.9206,-72.2977,-2.4905,-41.9893,-62.4439,-95.8564,-127.6908,-119.5363,-96.8752,-86.6986,-181.7820,-247.9624,-29.9685
169.8069,112.5208,-105.3493,-105.4897,-53.2063,-199.2801,56.6591,-101.2787,54.0526,-60.1996,-91.2358,-83.0356,-156.8751,-111.9175,-153.4687,-112.7622,-204.6586,-306.0699,-38.9420
96.2695,63.1362,-87.2090,-46.9753,-97.1984,-204.0176,6.6915,-126.6705,39.9275,-153.8605,-71.2595,-41.0823,-148.3285,-66.1950,-156.5773,-102.7769,-141.4313,-300.6306,-48.4054
78.3136,58.3384,-2.6642,-12.9249,-84.0057,-174.6022,-8.8018,-148.6335,-42.1374,-264.5708,-5.0000,-9.0265,-148.4814,-18.6501,-154.5968,-49.5426,-19.3097,-241.0904,-12.8202
228.0471,117.4911,107.6881,15.4753,3.2521,-110.9308,44.7121,-137.1641,-67.2302,-273.0227,83.7863,33.2192,-161.7516,19.8183,-190.5894,-0.9042,110.7480,-155.3220,69.6868
445.1175,195.8886,216.1335,110.7439,98.6657,-14.1297,93.5018,-62.6422,-15.4430,-161.6258,149.0315,83.9223,-156.0480,51.7908,-205.4114,7.0302,224.9056,-35.7438,139.1205
493.2984,291.3488,317.9369,202.7767,162.1769,104.1748,92.4589,27.0337,14.0591,-60.8820,201.3071,110.4901,-83.9829,65.3390,-121.2964,-0.8700,309.3989,96.2230,143.2748
393.2734,431.6049,398.4888,233.9899,220.5368,213.3254,109.9447,76.4032,15.0433,-34.7658,278.4914,134.8974,31.9312,84.4997,-8.1233,27.8366,381.8949,191.1234,125.0065
407.4330,543.9299,451.0730,282.8195,290.4540,279.5496,185.4458,112.9649,65.8212,-12.9117,346.4011,177.4177,100.8245,147.9858,32.1924,108.0112,453.3560,225.9969,162.8032
536.1334,501.4962,472.2731,332.1340,332.1510,285.3795,246.9057,145.9001,139.0545,14.1998,337.4919,178.8427,118.2207,201.3992,58.2070,156.9562,456.7133,190.2908,213.9285
500.1635,345.5868,427.8197,271.2092,300.0249,231.5418,241.3781,120.9866,155.7529,-5.5245,247.1853,125.9411,141.3855,158.4089,128.3858,89.8028,352.2480,101.7349,171.8990
301.8315,276.3332,315.8153,171.3405,218.4449,148.9770,210.4136,63.8515,147.1787,-17.9146,145.6330,99.6803,129.4711,62.3883,141.6731,-10.8176,227.7998,36.9814,76.1121
230.4382,350.2271,218.1990,161.3191,163.5616,93.7242,199.4345,60.7098,155.8644,45.8105,120.6889,104.7041,49.9924,21.4485,56.3944,-21.9661,157.3069,34.2775,49.4262
299.3102,391.7728,181.3441,164.6040,148.2317,85.0043,190.6033,86.0513,120.0459,103.0897,164.6835,70.9697,3.6074,30.9018,1.0387,-0.5208,97.5496,32.7823,67.7776
267.2552,295.4826,139.7278,94.4571,101.9832,81.8555,137.2325,66.4047,19.8170,60.7705,154.5084,22.4455,31.3713,15.9893,27.2260,-29.1460,8.8677,-2.9888,23.4969
126.0955,198.2186,58.1285,38.3093,14.0716,54.4915,43.3440,28.7528,-40.3960,-11.8099,62.3711,14.9834,46.9361,-22.6745,40.8697,-51.7739,-65.8383,-28.1881,-62.8575
58.0454,237.3951,17.7678,50.1087,-22.1633,21.5286,-9.1023,12.9103,-8.6569,-22.6585,41.6271,12.3562,47.5193,-38.5613,13.7041,-49.2285,-74.7876,-31.8340,-101.0998
93.6535,339.0614,63.4673,66.6468,25.2327,4.4775,16.5799,-4.2311,22.3223,-22.4911,141.8623,-7.8097,82.9677,-39.3707,2.8875,-73.3667,-33.2908,-48.6171,-101.8743
145.9044,368.5755,105.9000,64.9171,66.7292,4.8720,30.0084,-17.9162,-23.5841,-73.8434,187.6876,-4.9586,87.1220,-54.9220,11.9444,-83.6506,-12.7064,-62.1810,-127.5558
156.6860,319.0119,74.5990,62.5115,62.3749,16.9278,-3.7335,-4.7170,-74.3026,-102.7797,100.0112,10.1980,30.3416,-64.9912,24.9594,-51.0228,-33.6495,-34.1754,-158.9193
96.0222,246.6389,32.3739,54.8784,80.0767,35.5430,31.8905,11.1925,-24.0696,-40.9141,28.4893,3.1028,30.6886,-39.7761,71.7987,-49.9058,-27.0876,20.9790,-136.9571
14.2789,172.2052,34.6499,56.8658,130.4629,67.0491,143.4702,19.4018,73.9891,30.0698,51.2234,-5.8483,111.6781,-9.9874,136.9655,-71.5829,10.0622,66.9579,-91.3285
14.7772,115.0405,17.8829,68.7654,128.0719,101.9275,151.0738,28.4969,66.3894,22.1459,59.8339,-15.5650,133.5473,-21.9143,135.5197,-47.3494,-20.6162,72.5503,-102.5042
76.8326,92.3529,-54.8745,42.3005,56.1049,84.7512,33.2962,6.4706,-37.8462,-23.5204,-2.0578,-50.5329,57.4362,-53.3229,59.7849,-21.6782,-104.4855,13.8956,-140.8409
96.1539,68.8160,-98.8061,-26.2204,-0.8499,0.3633,-10.1730,-32.8238,-66.2778,-41.7448,-60.4682,-85.5865,0.7008,-55.1627,20.2479,-17.6671,-131.5627,-66.9333,-102.0127
57.7662,17.0651,-84.3878,-101.7943,-7.6255,-64.1532,66.0885,-6.7007,16.5821,-20.8125,-78.9181,-117.8576,20.0145,-47.1844,74.5723,22.2818,-153.6882,-83.8283,-15.2416
-19.0728,-19.6693,-121.4095,-188.1708,-22.7688,-56.6959,99.2982,67.0741,66.0955,43.4362,-98.4546,-185.6857,45.5467,-84.4746,132.6726,29.2432,-284.3405,-42.9715,-9.3333
-117.4689,-6.3695,-236.7091,-250.5341,-83.9268,-43.8905,46.4142,85.5894,33.1576,116.0491,-114.5396,-235.3181,19.5832,-164.0370,106.4082,-94.4091,-417.3809,-33.4821,-74.7032
-106.0229,42.1728,-274.7126,-210.9660,-143.4467,-70.0118,17.4307,46.5581,5.8291,108.9968,-57.0050,-197.9280,-10.1615,-238.5166,51.8854,-240.3384,-382.8835,-77.4360,-96.0225
108.1400,126.8381,-150.2901,-120.1175,-139.8456,-100.1346,34.4805,1.9494,-1.3113,11.4254,79.3641,-153.8568,29.8486,-275.9023,63.3397,-275.5268,-238.3702,-123.7640,-79.1733
328.5128,237.3617,-5.0820,-96.3068,-94.7179,-125.9129,18.3017,-55.7845,-54.5896,-80.8824,179.5093,-165.3341,97.1815,-266.4895,103.7028,-233.5159,-150.5321,-144.4411,-114.1066
319.4054,293.9997,16.6500,-92.1291,-83.7792,-149.3513,-49.4162,-109.3996,-147.2071,-109.0765,157.1754,-133.9543,85.0057,-228.7027,69.9085,-187.1868,-141.8167,-135.0271,-182.2940
176.8921,254.7523,-15.5341,5.8623,-102.8718,-125.5481,-99.3495,-107.2919,-194.7585,-100.0838,83.0471,-25.3271,17.9815,-200.3564,-13.8386,-177.0082,-106.8655,-98.0711,-184.5697
128.7784,193.5094,39.3484,140.0510,-64.6250,-55.7198,-72.4640,-69.6203,-141.4846,-87.9054,61.5607,58.4000,17.3787,-169.6518,-18.8524,-193.2804,6.4404,-57.2557,-97.9260
173.1536,166.2228,159.6635,203.3300,39.2297,2.3177,14.1871,-27.9656,-23.0522,-74.3649,77.5551,111.2004,89.0502,-80.4910,75.1465,-131.7980,123.4104,-10.8517,6.8357
183.5260,132.9903,229.2943,238.6083,120.6799,60.5155,104.5206,40.1959,71.7630,-38.1319,80.7475,194.1687,146.1885,48.0996,154.3040,16.3604,179.7202,70.3576,78.3292
151.6209,70.3382,246.2783,296.9970,160.5249,152.4639,177.3512,110.6447,121.6410,27.4248,88.5256,234.1738,169.1372,119.0149,166.1279,79.6872,227.7959,145.0600,142.7784
125.4241,11.0214,271.6395,287.2375,208.2702,210.8283,231.7523,119.9864,176.3667,72.6078,96.5571,162.1970,173.8398,114.3994,161.7576,40.9595,275.4969,134.5996,208.4349
82.9372,-27.6661,259.2411,163.2104,238.7533,178.3711,242.8248,86.6802,208.7242,53.5846,44.0480,90.6068,145.9467,131.9108,156.3020,89.5191,211.8830,71.3781,204.2450
-7.8807,-33.9643,152.8226,66.1373,197.5872,125.8643,203.5244,71.2760,141.8039,16.3316,-56.8696,116.1502,101.2330,219.3474,129.5648,222.0532,56.0467,52.4597,123.3479
-109.0970,2.5561,43.2832,90.5300,116.7614,124.2833,139.8719,86.3931,28.1729,19.7041,-111.2198,149.6403,74.4429,286.6255,106.5130,250.2462,-19.9264,78.6262,75.5556
-144.9390,14.1234,25.0481,114.5208,38.5985,143.9337,52.8052,115.7657,-29.5128,33.6276,-84.6251,95.1738,47.8718,252.2781,89.7706,167.4396,-4.6785,88.0812,72.4794
-81.1177,-67.4441,43.3333,52.1893,-44.2700,144.8884,-55.0763,123.4017,-71.0769,8.0893,-27.1572,14.0205,0.8214,180.6467,32.0736,114.5865,-19.6121,67.3612,-3.9489
23.1747,-145.2159,31.8615,26.4260,-101.6104,123.4556,-133.7484,67.9330,-167.5230,-39.1110,16.2087,2.9930,-44.7901,152.8587,-51.8831,112.0164,-47.8181,19.0974,-145.0576
63.9214,-99.0120,12.9843,98.6294,-94.2295,61.8633,-167.2035,-30.2081,-257.5174,-74.6744,21.8295,31.6976,-76.3257,101.7975,-100.9963,59.8940,-41.4344,-63.4179,-221.7971
21.8150,-26.2223,-4.0439,130.1421,-73.8452,-35.1956,-190.1387,-105.0064,-265.1958,-102.1208,-14.7998,15.2820,-80.8337,-27.3225,-101.0025,-65.7579,-65.2056,-122.0215,-219.7147
-20.2958,-53.5784,-25.0367,82.5314,-76.5569,-77.4600,-175.5374,-112.6282,-217.0874,-114.1562,-37.0669,-7.1738,-19.7043,-86.3819,-41.4321,-109.7543,-100.8959,-72.8136,-194.0364
-12.2592,-68.8688,-7.1379,99.4324,-38.3599,-1.9438,-88.8680,-54.8764,-172.6017,-91.5986,13.9002,58.6779,76.2393,27.1578,63.5554,33.7689,-57.5972,33.4492,-146.8597
10.1080,33.2342,38.5711,176.9948,31.0650,79.9388,-31.9666,-17.8695,-173.1593,-87.7928,74.9583,135.6539,92.3615,123.3348,89.2333,148.5269,-19.9788,39.3314,-123.1242
12.9383,88.0612,17.1621,140.6788,14.1161,21.1007,-100.0751,-100.5245,-222.5206,-177.3773,32.8425,73.9891,4.6978,40.1352,-19.4548,27.7366,-98.9284,-79.9138,-170.9659
-1.1997,-36.1163,-64.4868,-5.3071,-66.4012,-106.4754,-178.8682,-216.7003,-250.6095,-284.6752,-80.2101,-50.7809,-73.0522,-59.8931,-99.5671,-107.5578,-174.6840,-167.1965,-188.3461
-31.6963,-191.4951,-90.5429,-80.0462,-60.1908,-126.0126,-127.7324,-199.1228,-203.8514,-263.8926,-135.4851,-58.3704,-78.9433,-15.3762,-55.3449,-36.9694,-137.3089,-144.7244,-98.3646
-79.9210,-251.5954,-66.0799,-64.2327,4.2175,-73.3082,-34.0032,-112.1113,-148.2683,-161.5964,-138.7320,-3.3042,-83.1576,53.8325,-28.5098,40.8239,-125.7601,-133.5431,-26.4752
-144.3475,-288.0938,-114.7410,-111.8558,-41.0623,-108.7259,-49.4651,-118.2771,-153.2704,-127.4176,-204.2703,-54.5875,-140.3821,25.4918,-100.0653,-12.3151,-256.6146,-213.6114,-59.2259
-218.6517,-325.2001,-242.5300,-254.7322,-184.1758,-206.0826,-134.3722,-160.0458,-177.1174,-133.5964,-321.9056,-177.9457,-216.3329,-32.5638,-179.7810,-33.3349,-397.7298,-289.4819,-106.3310
-261.5352,-300.0834,-330.3491,-348.7014,-280.6716,-245.1923,-185.3852,-146.9077,-184.3726,-108.6247,-381.2898,-239.4067,-287.9786,-74.3596,-254.4247,-32.8115,-406.9285,-302.5919,-142.9382
-247.3123,-259.5963,-338.3249,-308.8512,-319.9542,-258.5493,-237.8860,-184.6114,-226.5395,-152.9678,-384.5771,-241.4809,-369.5724,-152.0112,-374.2270,-167.7335,-351.6100,-326.3759,-247.9117
-244.7194,-278.1316,-332.9794,-224.1259,-365.0839,-305.8571,-333.8318,-308.6679,-314.1519,-298.2390,-400.6337,-247.8105,-423.5143,-261.6043,-454.5230,-325.0030,-339.9685,-372.9828,-371.6936
-300.7355,-310.8260,-341.6014,-206.0346,-381.9876,-320.9169,-381.9818,-357.8454,-357.0637,-363.4710,-392.1155,-261.1947,-387.4505,-336.6146,-398.8069,-339.3103,-328.1469,-360.5952,-381.1857
-324.0918,-318.7919,-313.8186,-241.0490,-323.4725,-268.6570,-322.0177,-276.7469,-296.0323,-271.8087,-310.9696,-266.1147,-290.8752,-340.1775,-283.4939,-275.6332,-243.8086,-284.2085,-276.2572
-261.0886,-323.2227,-218.0824,-251.4537,-212.9502,-205.7715,-219.5326,-167.9177,-176.8182,-135.1654,-239.5476,-245.6268,-218.0990,-283.0311,-226.5057,-206.1054,-138.9746,-195.5434,-141.8558
-217.9109,-297.9041,-100.8950,-212.1804,-77.0866,-134.2273,-105.8158,-59.0518,-59.6121,2.9300,-247.5853,-181.1876,-185.1454,-227.1067,-220.4687,-149.8999,-71.9819,-93.2511,-11.0384
-249.4616,-244.6397,-30.5734,-149.9396,46.9184,-33.5775,36.9355,60.4811,44.3607,135.1120,-266.1389,-113.5382,-155.1701,-226.7836,-191.8413,-165.4573,-4.4631,3.1640,97.0496
-264.1194,-260.1894,-6.6607,-100.1163,97.0343,36.8488,141.3774,122.5939,125.4687,172.3179,-232.8599,-99.3850,-112.0337,-231.7824,-120.4306,-193.2346,69.3997,31.7391,143.7388
-225.1311,-331.1507,24.2018,-85.6014,91.2980,49.6607,154.2038,115.7042,165.3093,130.0518,-188.2710,-109.2303,-56.0848,-176.2033,-48.9561,-129.8041,83.9610,20.4985,135.2133
-189.0859,-302.4480,59.7063,-90.9050,101.4307,62.4404,149.6384,125.9930,183.8271,130.7925,-164.8190,-100.2705,-5.4017,-116.4683,-11.4805,-65.8628,39.9971,39.2532,119.5057
-157.0796,-178.4961,42.1767,-92.1381,104.7173,75.0382,157.6068,158.0628,200.2991,147.1605,-142.2430,-109.6813,-1.2123,-118.5747,-5.6796,-67.1311,-5.7056,44.6089,120.6758
-108.2018,-142.2601,-18.9518,-112.9148,50.6942,33.7499,111.3466,135.5237,179.6604,96.0859,-119.3927,-152.4650,-46.9607,-126.4600,-38.6295,-22.4352,-46.0461,-20.1643,129.2702
-80.7192,-212.1501,-54.8570,-162.6905,-11.5561,-27.9409,37.8203,72.3010,114.0151,60.0859,-114.3860,-162.5568,-106.2836,-85.4346,-118.8598,52.0829,-91.1851,-88.1542,114.0801
-84.2609,-213.6689,-70.1504,-177.9159,-48.6264,-41.5364,2.9742,47.3567,65.3337,103.6092,-126.9234,-125.6522,-175.5714,-47.9612,-205.5461,31.3082,-139.3002,-107.3989,31.9144
-77.0083,-111.8525,-120.1687,-137.0958,-118.8022,-38.0765,-53.8172,53.9670,49.0388,122.8255,-153.2748,-117.1876,-248.8582,-65.9479,-254.9323,-29.1302,-201.7726,-144.6610,-102.5385
-59.9018,-55.9762,-187.8535,-125.4882,-222.1191,-88.4698,-150.8192,27.0967,23.6147,65.3054,-188.7670,-164.5942,-272.8912,-111.7631,-270.5361,-52.3670,-252.4131,-233.1729,-184.6550
-55.2716,-94.0279,-223.2746,-189.7765,-275.2710,-176.7949,-162.9904,-28.3512,18.2972,17.0245,-218.2272,-214.5998,-252.5860,-147.3672,-257.4109,-99.9194,-246.6811,-300.6109,-150.3544
-51.5417,-122.6213,-228.0187,-261.9818,-258.4596,-222.8613,-78.3865,-53.1991,81.6758,23.4790,-234.8956,-237.4253,-262.1220,-176.0577,-224.3822,-151.1440,-216.8287,-299.2356,-72.3008
-54.3813,-106.3521,-201.6037,-272.1221,-208.0970,-188.1775,-27.8468,-34.8454,149.1736,47.5029,-230.4626,-242.9951,-284.3730,-194.6892,-210.3986,-119.5658,-187.9166,-250.5176,-29.4675
-81.6782,-101.6082,-126.6672,-211.3287,-131.1039,-107.6653,-20.1167,-2.4385,143.3088,61.7059,-186.6890,-217.0884,-241.2794,-153.0212,-209.8919,-47.6955,-108.6511,-171.7265,3.6549
-90.5989,-85.3695,-45.7784,-98.5647,-50.7892,-27.0178,18.6602,38.0700,102.9018,72.3021,-126.7708,-136.1497,-170.2795,-29.2538,-170.7831,12.4806,-4.8700,-70.7521,54.5230
-27.4550,36.6420,-12.4677,20.5165,-9.1498,46.0286,64.3183,96.0554,98.4126,108.9202,-95.5028,-27.3005,-142.7609,88.2319,-97.8137,72.1566,32.0284,29.1616,98.0310
88.1236,281.9192,8.0833,93.0054,33.1882,111.4315,107.9083,161.5488,146.4967,182.8288,-56.7931,55.6980,-100.2590,117.4045,-10.9956,97.1755,42.8956,113.0537,145.3001
221.0599,592.1246,68.1183,130.0667,141.6686,154.6232,206.2898,213.2574,219.7734,235.2603,57.2092,115.9621,21.5008,131.3828,116.9244,108.7477,105.4740,172.6127,209.1972
388.1172,930.0992,140.1529,195.5197,250.5751,178.4313,297.5825,230.1685,238.2730,206.5682,196.7987,206.0615,146.3813,218.2893,242.1445,196.3141,159.2683,187.5534,216.4138
591.1310,1278.1283,171.0461,301.1728,234.7607,197.8758,257.1046,205.8662,148.0166,128.8840,256.5987,315.1685,187.7471,297.1072,258.1110,282.8789,159.6345,162.4957,130.9892
758.1726,1573.1683,166.0609,382.5885,131.3134,208.9820,138.9895,172.0363,47.7232,74.1660,255.5742,362.4528,187.2897,281.5772,201.6675,249.7556,178.7780,147.7656,57.1177
827.9180,1716.2429,190.0526,407.8704,110.7575,218.5053,104.8488,167.8104,65.0723,74.8085,297.1106,347.3727,232.3720,260.3972,212.9172,213.6324,247.2748,179.3057,72.5811
839.2475,1681.7540,288.8717,434.3568,211.1598,253.8309,172.6224,190.7186,141.7258,123.0495,393.7925,356.8576,320.1853,301.0127,293.8114,273.7535,324.3011,231.5316,108.1999
848.9532,1550.3802,393.4432,486.5055,282.3921,294.3203,208.0185,211.3973,133.4572,172.3971,457.5482,376.7091,359.7086,288.8054,322.8155,272.7889,368.9643,248.6996,80.5897
810.6028,1343.3507,389.1172,470.7826,236.2725,273.8866,124.3352,196.1786,38.0223,159.0619,433.2613,303.9149,303.1261,154.1216,254.0936,123.5784,326.6292,203.4848,4.0500
663.8892,992.1022,311.3398,337.2390,163.0398,189.3432,10.0278,123.2721,-34.8645,80.2665,368.0195,169.7763,222.9978,30.0610,164.6972,-5.4988,224.9286,131.7585,-54.7035
490.4006,613.3025,300.5607,210.2679,149.2790,123.3852,7.3091,38.9916,-29.6349,7.7122,344.7403,107.2914,197.6518,29.8662,143.5192,10.3802,213.6581,107.0510,-49.6202
410.9024,459.4668,355.8279,208.5549,166.5891,133.1738,85.1551,26.0009,14.4345,-6.5800,370.9425,126.0997,201.2861,81.1419,177.5115,98.8204,304.7715,150.5162,-1.4790
388.0547,435.4065,354.9386,274.6043,172.1734,175.7372,98.8286,63.8903,37.3508,9.9765,373.3512,150.1440,191.1474,85.8617,181.0310,147.7250,324.1663,190.8055,27.7665
313.7899,211.9421,282.8276,304.5222,164.6305,171.1901,56.2929,55.3954,33.0336,7.7204,308.7886,168.1796,178.5652,53.4499,144.4207,114.7829,241.1496,162.4743,29.6450
212.6954,-102.1168,223.9752,278.9253,147.9516,110.1103,67.9043,-0.1510,32.6619,-13.1120,215.7048,167.4257,154.9147,12.7605,122.0283,33.3657,184.9071,96.0078,40.6877
170.7560,-125.1923,199.0848,199.1571,125.2544,45.2262,90.1024,-32.6074,22.8614,-34.1546,147.5018,96.4353,90.9934,-42.1341,78.0677,-28.5553,157.9534,39.9247,45.1967
149.5957,34.8586,164.7462,73.6601,81.3198,-12.1379,8.2070,-49.9512,-39.9425,-67.6373,119.3282,-6.3127,8.5524,-86.7614,-49.3451,-45.5350,86.7807,-29.5474,10.0671
55.4242,-23.7955,94.9446,-21.4423,-14.6972,-83.7373,-129.0642,-85.4529,-134.0476,-95.0005,103.6955,-42.0234,-60.9736,-76.2903,-184.5692,-33.6046,1.7549,-121.7462,-30.9304
-86.1820,-280.7896,-8.2186,-26.4652,-123.4011,-124.6299,-198.0513,-93.0876,-189.4711,-55.8189,41.2797,-12.0070,-116.4567,-21.8049,-219.5266,-1.0209,-65.1280,-158.7761,-44.5095
-189.5869,-462.5609,-118.9273,-9.3340,-156.6678,-86.9951,-190.3930,-45.1588,-191.5096,9.7513,-82.2487,7.8416,-141.2240,25.0106,-175.7814,31.5726,-133.7670,-114.1444,-61.6206
-260.1170,-532.7067,-191.1012,-66.7659,-125.8489,-45.5803,-172.1677,-19.6839,-191.8027,-21.3733,-172.9213,-20.6692,-126.6217,31.9723,-134.9174,28.4558,-165.3423,-90.0853,-100.7361
-328.3831,-549.8107,-187.2337,-158.6928,-107.8993,-72.6192,-178.7560,-70.3283,-224.9134,-117.9920,-142.5439,-82.8832,-101.9034,4.0381,-130.7157,-2.0022,-115.9116,-122.6997,-130.4522
-339.0404,-503.7770,-109.1919,-156.5365,-88.5421,-82.0049,-196.2855,-112.6117,-247.4503,-114.0319,-49.5541,-120.5705,-64.0017,-14.5260,-139.6909,-13.9634,-36.3227,-93.2873,-127.5061
-273.3478,-486.8271,-20.8713,-52.4732,-17.1982,5.4603,-173.2856,-53.2004,-184.7310,3.1972,-16.6572,-94.9032,0.5164,11.6692,-110.3678,8.1223,5.9520,30.8750,-90.4679
-248.7950,-597.0571,-5.9654,5.3596,67.9643,95.6525,-77.9936,46.5706,-48.7860,89.0547,-65.1661,-74.1184,31.4026,40.1819,-43.0945,38.0341,-3.4296,101.7665,-24.2224
-327.5836,-712.2744,-53.6203,-55.9743,113.7920,94.2672,43.1223,72.6716,63.4665,94.9556,-119.5392,-121.1858,-0.4183,21.7602,1.4875,55.2631,-37.0900,60.0336,48.2274
-391.9643,-675.2604,-66.0790,-121.6893,133.5762,58.7706,121.1690,59.9261,113.3887,95.4913,-119.1372,-157.5725,-10.7315,-1.5936,24.0375,69.1745,-40.4891,37.3525,105.8298
-350.0061,-547.0997,-21.7709,-103.8779,140.7784,61.6401,147.4069,114.5159,143.4675,139.0937,-77.0287,-122.2261,28.3218,5.4600,64.2046,79.7773,-13.9210,96.9721,151.4421
-273.3286,-499.3105,-5.7266,-72.5925,114.1553,83.8635,146.5702,197.8939,158.3638,203.3073,-58.6217,-100.0935,25.7535,-5.6129,67.4610,57.1398,-37.1807,129.3177,171.2789
-249.4683,-584.1688,-52.6768,-76.2965,48.2584,86.6929,116.6976,192.3460,126.2174,217.6248,-99.5731,-132.3395,-38.3014,-37.1462,-10.2526,9.2738,-108.6459,66.6834,132.2763
-287.8753,-675.9703,-92.3627,-58.8343,-20.3997,63.2028,53.0651,114.6727,68.2796,140.5860,-153.3218,-134.0205,-75.2253,-21.8031,-65.8289,-1.4212,-113.2925,-3.0255,59.8659
-367.3738,-625.3787,-63.9630,-9.8209,-30.2511,47.8859,6.5774,80.6026,35.1166,63.4398,-158.4762,-82.4634,-44.6824,30.8288,-16.4199,41.1038,-23.7914,27.0021,35.3759
-420.0310,-465.9608,10.1042,23.1408,44.3228,101.8484,38.0994,123.5084,43.4538,92.1874,-113.5063,-44.0404,19.3413,68.7589,65.8444,94.8746,69.7884,138.7294,76.4394
-363.7200,-374.3281,70.0276,47.8620,137.4529,199.9557,100.5167,165.8199,70.7972,138.8444,-49.6823,-27.5242,75.8921,110.9467,101.8228,147.5807,121.0487,204.8681,103.2368
-245.8645,-426.9412,85.9371,76.9638,162.3358,214.1846,85.4199,128.3534,63.4319,63.2795,-5.9449,0.7349,93.5167,156.1437,105.1290,191.7383,127.1450,150.6179,60.9711
-196.3610,-517.7249,61.3595,66.9834,122.5749,118.2293,12.7508,30.5907,-6.7415,-70.0917,-27.1598,34.7565,84.1536,142.5694,112.1326,179.4984,66.4952,61.2872,-6.1421
-228.4069,-504.8015,2.6720,10.6566,82.1893,38.0982,-0.0273,-36.7115,-81.6470,-133.6446,-94.5854,50.4311,97.6583,85.9828,137.6142,107.2260,-25.6474,39.4219,-42.2793
-267.9019,-384.3578,-67.0324,-50.8284,72.0691,21.5479,41.0479,-53.2170,-101.3772,-156.4070,-116.6274,24.7238,127.7849,57.7203,165.8470,41.7993,-69.7887,38.4048,-60.7682
-302.2318,-302.7954,-108.7429,-116.1171,68.6607,-17.9870,26.0994,-83.1027,-102.4952,-185.2422,-73.5584,-44.0098,117.2102,44.5962,154.9232,17.8513,-91.8620,-29.3902,-100.1401
-330.7806,-334.9377,-143.1735,-185.5576,16.1418,-110.2092,-65.8982,-135.7825,-142.6210,-175.9835,-59.0890,-93.2747,55.2383,-0.3887,86.2961,7.5250,-186.2125,-144.6302,-167.1039
-307.7616,-368.4398,-230.6976,-207.0753,-110.2058,-201.5732,-174.6887,-174.3092,-206.1970,-157.9451,-123.5602,-69.2952,-30.2923,-59.7721,-20.8803,-15.4161,-323.6346,-248.2246,-235.5958
-252.8967,-354.4117,-329.0957,-163.1591,-236.6017,-267.0760,-247.3887,-214.4390,-232.9751,-214.0089,-208.3475,-15.9946,-113.2509,-84.0984,-121.4171,-35.8727,-374.5811,-306.9933,-257.2776
-241.7013,-382.6355,-325.5265,-99.8762,-268.3450,-288.3753,-232.8462,-250.9295,-187.3060,-275.0728,-231.8423,13.2975,-143.2168,-37.7042,-138.5250,-20.6720,-313.9073,-286.0906,-210.1412
-234.9865,-370.7435,-220.5997,-33.0037,-222.9284,-236.1439,-147.6212,-225.7563,-117.9441,-240.0052,-134.5216,39.5671,-87.0720,50.7001,-50.1246,7.8671,-236.9495,-197.8848,-157.4603
-115.0608,-149.2397,-106.8226,48.9708,-176.0356,-148.3479,-107.9932,-167.0824,-120.0070,-194.0966,73.2728,83.6415,2.5444,82.0172,40.2862,-5.7836,-183.1055,-116.3680,-170.9220
105.1521,118.5833,-17.7276,107.0850,-133.4041,-89.0643,-141.4549,-148.9469,-171.1891,-220.8982,252.4468,121.5144,55.8713,46.5544,52.6343,-15.6852,-109.2595,-62.6609,-206.4264
280.9855,161.7911,47.7634,91.4534,-69.2304,-49.9063,-133.7918,-134.6711,-146.3968,-217.7335,273.4429,126.5177,64.0783,52.9867,36.4431,47.0359,-32.9778,-5.4386,-178.1700
308.9864,82.2021,59.2939,25.1889,-10.4819,-8.9625,-61.1405,-77.7346,-56.8429,-127.5371,190.0310,84.8191,39.4021,86.3343,29.4569,73.3821,-29.0099,38.9684,-110.4972
197.7684,95.3060,15.4039,-23.0233,6.7839,9.0779,-25.7979,-34.7829,-35.7752,-57.4181,109.7479,13.2472,-6.8138,19.9606,5.0617,-40.9560,-87.3047,53.8606,-85.2146
50.3458,143.8186,-42.5687,-23.4233,-7.0740,7.3780,-48.4998,-28.0278,-83.6113,-42.6537,22.8127,-38.1970,-41.9761,-93.4585,-15.8583,-144.0178,-134.3174,73.8332,-107.0493
-0.3758,126.8138,-98.5527,-11.2297,-28.1322,29.1521,-70.5083,-6.0550,-104.1662,-16.2523,-83.3439,-59.8928,-53.1947,-105.7219,-4.7652,-105.4416,-163.7036,98.6915,-130.9379
41.4000,82.9232,-159.0558,-31.5163,-51.0650,69.9953,-83.8365,23.1053,-102.1041,-5.3333,-146.7563,-82.5867,-75.4150,-64.3291,-8.6029,-65.6395,-205.2226,97.8874,-140.9276
14.1420,25.0373,-209.5194,-64.6840,-70.5179,81.6562,-82.6545,19.6523,-99.6184,-57.6097,-163.4223,-84.6540,-122.0883,-79.2753,-47.1400,-118.8459,-224.6109,89.9120,-126.2873
-109.5572,-33.4592,-210.4481,-48.4543,-65.4094,51.5498,-23.0225,5.1860,-37.8039,-91.4047,-170.2911,-39.6008,-140.2152,-105.5825,-60.1629,-143.5212,-175.0098,83.4142,-64.5693
-127.2071,-4.2380,-136.7774,7.8487,-25.0920,15.5671,80.7576,13.6678,74.9420,-33.5077,-124.6920,-14.3876,-81.6038,-94.8018,-20.9463,-100.9308,-97.0952,51.8278,22.0361
24.1305,92.8235,-47.1486,19.0224,14.5462,11.9215,152.1949,57.7106,135.6381,72.2952,-17.4960,-55.7841,11.8545,-89.3434,27.2630,-84.6299,-78.1752,33.0827,73.6415
125.6155,119.2018,-38.0913,-22.1168,3.8237,42.9798,158.1317,137.1204,132.6346,173.3018,42.1011,-79.3853,48.5348,-77.6116,41.3910,-87.3303,-119.5526,73.7541,85.3932
72.5844,54.8944,-71.5998,-11.5931,-36.8536,77.3174,138.7672,200.3171,154.6295,240.4233,19.4537,-19.5803,17.6604,-16.8732,14.9117,-54.8033,-115.4654,105.4570,109.0308
27.4462,6.0533,-22.2840,77.6794,-34.6342,90.1374,144.5244,193.7779,215.6461,238.0941,12.3481,47.7596,2.3208,43.7446,-19.1893,-27.5089,-19.1551,68.1642,144.3348
63.8981,28.6291,71.6243,129.4050,9.8962,84.2188,159.8283,151.8544,226.7889,187.3965,55.0839,45.9947,39.3753,48.4113,-17.5336,-35.9738,58.1601,36.9884,134.1701
72.1433,91.1452,75.8670,97.8128,23.3445,81.8024,128.5755,131.0292,138.9232,145.6825,101.6832,22.2257,77.1006,29.7912,23.9941,-38.6653,33.9258,74.4912,78.1261
39.6480,124.0901,27.8642,86.1918,-3.0762,100.1557,64.5126,119.5839,15.4480,105.2330,145.8642,42.1619,87.3944,31.3058,74.2804,-15.1919,1.4173,114.9181,28.7641
59.5776,86.6176,37.8486,120.0492,-6.0361,115.8873,31.4448,88.9050,-66.3111,42.4520,164.7605,68.7917,90.6214,42.6036,98.4653,11.6854,36.4819,91.3997,-3.2879
108.5035,7.1803,59.3227,81.0786,18.5660,84.4586,20.7827,46.1667,-102.3396,-4.7890,95.6219,32.3285,78.9971,31.9804,77.6227,17.8846,60.9689,46.9762,-14.6384
85.8890,-72.6696,27.0503,-34.8878,31.9525,38.2756,15.5306,29.2058,-87.9799,1.2592,-29.0195,-37.5542,32.1004,-1.3136,35.1055,7.1196,37.3668,69.6014,33.5394
-20.8360,-125.0798,6.6812,-68.3385,65.4437,67.8220,76.0719,76.1130,3.3885,55.7894,-113.4549,-53.8453,-27.7866,-18.3392,5.7907,11.7259,39.0881,166.9885,108.8486
-140.9685,-112.3634,24.2664,7.9878,143.6625,155.9215,175.2118,153.1174,92.8735,132.1081,-144.2999,-25.7853,-58.0819,-14.9346,-12.1071,15.5096,59.1488,239.9161,115.2564
-189.4047,-62.2697,7.0288,34.9366,184.2380,186.6649,171.4465,178.4142,68.5564,172.9488,-138.5954,-39.9548,-29.1775,-50.1536,-2.4744,-45.2703,32.8235,216.6386,72.8576
-132.7528,-57.5582,-28.3882,-30.0372,147.3018,140.7859,86.1385,152.4461,8.8835,135.5848,-82.8049,-91.6892,50.2079,-119.8490,67.2091,-124.2608,16.5881,158.3813,78.8676
-45.0382,-65.8753,10.0242,-50.8157,127.9695,99.3207,79.0312,125.9575,42.9453,63.4517,-23.1895,-87.2612,110.3166,-124.2127,127.7364,-97.5882,75.2487,140.0423,102.2153
-11.5500,-5.0934,93.8645,18.7353,159.2390,88.4534,120.8857,90.4516,80.8771,27.6581,-24.9395,-8.0189,95.8048,-42.0220,84.0269,6.0758,120.4015,132.4471,52.1240
-7.0334,58.1730,115.2062,84.1518,146.9237,84.8658,70.4252,49.9794,6.4713,39.2765,-42.4333,75.0528,48.2367,32.9950,-5.5518,58.3219,78.8416,100.0792,-34.6341
11.6914,56.0859,71.3782,116.7110,77.5680,82.1544,-26.6734,42.0966,-78.8956,57.8873,-17.6416,122.3748,19.0615,58.4929,-48.4704,53.4343,31.1488,67.2542,-80.1634
20.0118,83.2856,43.4840,160.3645,33.8574,58.6160,-61.4784,18.9047,-82.7616,24.1351,1.1498,141.5642,-15.7045,65.7920,-78.1771,40.2018,39.6608,34.8377,-102.7661
32.4682,173.7017,53.0983,179.5848,15.7176,2.3005,-75.0691,-64.9436,-89.1790,-78.5722,-15.2114,131.8850,-67.6324,56.4466,-118.1712,1.4525,47.6796,-14.0335,-135.2284
95.4561,200.0235,56.4074,113.5400,-19.0931,-39.2908,-116.3207,-123.0345,-138.0484,-166.3568,-9.4788,94.1506,-95.3170,27.8838,-124.1206,-39.0149,20.8213,-47.9227,-154.9899
138.4451,124.1911,31.1391,16.0359,-44.1558,-46.5208,-141.5263,-110.6068,-156.0120,-160.7315,16.1369,48.2079,-103.6666,12.8425,-125.2515,-23.8612,-4.3661,-51.3533,-154.4413
67.1565,55.3879,-16.6921,-22.9675,-60.1703,-67.2613,-144.6299,-111.1686,-134.8303,-108.6587,-27.2117,10.1124,-146.4788,4.4907,-173.7456,-10.1954,-31.5850,-65.6469,-168.2916
-40.6350,58.2584,-93.4612,-16.2441,-127.3996,-106.0294,-163.1568,-136.4704,-124.6684,-80.0646,-153.0931,-15.3829,-222.3095,-42.0982,-227.8717,-66.2795,-99.0968,-96.0957,-213.2646
-58.8186,101.0376,-183.2997,-28.6434,-224.1121,-115.5660,-186.2016,-122.0840,-128.4735,-63.5225,-249.8278,-34.7956,-270.1296,-110.2468,-249.0037,-119.5391,-167.8912,-100.8917,-243.4724
-15.7934,113.2980,-213.2774,-71.5053,-252.4380,-97.3306,-191.2912,-91.9903,-137.3742,-44.3751,-220.2487,-65.7775,-248.6578,-140.8276,-245.8100,-113.0148,-154.9645,-80.8357,-190.8421
7.6367,49.2954,-145.8279,-108.9917,-186.9949,-80.6677,-178.1869,-83.7015,-145.8433,-37.6029,-107.1544,-98.4971,-176.3002,-127.0319,-205.7233,-111.1152,-69.7208,-62.7307,-76.2972
15.0096,-29.3998,-55.8142,-104.9222,-90.9416,-55.4387,-136.3039,-57.2068,-116.5559,-27.3208,-37.7871,-88.5330,-109.8865,-90.8872,-147.1194,-116.3960,1.7597,-31.6258,-5.5298
11.0773,-30.6595,-23.3990,-55.5980,-25.6479,-3.6758,-66.9151,0.5934,-36.3634,10.0191,-48.1691,-32.3998,-76.1697,-26.4425,-114.9644,-48.6224,31.9182,30.2341,-0.3376
-27.1267,7.3039,-24.6962,-6.1330,-0.8014,61.5932,1.4175,58.4006,47.9563,62.7973,-53.0293,16.4678,-49.3771,45.3994,-78.4811,41.8280,58.1300,87.6137,15.4650
-56.1066,2.4097,-14.5915,6.5022,6.6212,103.8734,39.9270,100.6514,86.9665,103.0866,-15.0209,36.7933,-32.2527,55.1988,-32.7884,36.2289,80.4007,92.4811,36.4865
-28.4098,-15.8403,-13.8781,8.6616,-6.5421,88.7852,19.9840,99.2795,64.7373,100.3072,7.6983,52.6654,-64.0093,-0.4706,-65.0829,-11.3995,64.8751,41.8741,3.3604
-1.2676,3.2741,-37.3135,14.5287,-55.6363,25.4739,-45.2992,47.6201,11.0508,53.6206,3.9818,58.1057,-108.2189,-38.8942,-140.6443,5.0883,19.2405,-33.5704,-33.3905
-16.8228,35.7611,-48.4002,-19.7138,-94.6919,-46.3784,-72.5141,-0.3289,-16.8088,10.3566,16.2576,36.9422,-86.2802,-37.6495,-117.6880,14.2410,-20.7626,-106.5817,-15.9985
-11.1640,56.3947,-36.9832,-74.5099,-79.9366,-109.0392,-39.3917,-33.6579,-16.0968,-13.7839,23.4413,27.1087,-34.5121,-46.3189,-38.6939,-50.6139,-38.8532,-151.8527,-9.1777
24.7360,62.7702,-34.2401,-50.2270,-64.2508,-135.7368,-31.4136,-75.4371,-24.1743,-44.8061,-4.6361,60.2715,-45.7427,-49.6368,-42.5395,-62.0442,-29.6827,-139.7989,-33.8520
12.4592,47.4583,-36.8040,45.9682,-85.1085,-84.3852,-51.9934,-66.3295,-11.9810,-45.9182,-14.0357,96.5055,-94.5563,-7.6837,-85.4269,44.9657,3.5289,-73.9353,-1.6394
-7.9755,35.3674,-16.9723,93.7333,-83.1321,-4.0851,-9.6823,21.1041,50.2403,26.3722,28.3563,99.5620,-105.0728,27.1331,-80.7001,114.6753,38.0447,-7.9365,74.1364
77.3399,65.0951,13.4612,79.5545,-36.5499,6.8421,66.7658,79.9433,88.4339,96.2784,67.1903,96.5897,-96.1295,16.1857,-80.8141,70.0812,63.9547,16.9537,87.2517
198.7267,120.6371,38.6407,96.5168,11.6570,-18.9501,87.0830,66.2206,71.5165,91.7001,82.5510,113.2644,-95.8861,24.5682,-100.5293,47.2994,98.0318,21.1403,69.3529
200.8435,167.2435,80.9672,139.5729,68.8557,13.6455,102.0352,71.6398,100.0704,81.1621,117.9179,130.2083,-56.0799,74.5941,-57.0346,109.9947,137.5199,46.3277,122.0791
128.0707,205.0396,135.0998,134.1738,141.7946,80.1366,171.3296,130.2757,193.1716,139.1753,154.8045,126.4925,20.6818,103.6255,31.9326,150.6538,153.1896,105.2727,197.6393
118.6325,233.8786,150.0786,109.7432,176.5436,131.9431,217.7616,195.7016,228.7947,224.8039,128.1897,108.8560,43.7077,113.7904,68.3193,128.3915,145.5900,182.4276,202.8411
151.7475,232.3568,131.4316,137.1733,177.9069,206.8120,211.1234,252.1954,185.5747,265.8762,59.1080,92.6596,9.5748,155.2812,62.0947,133.1685,153.6627,248.3012,187.3462
137.0307,186.9857,141.8493,175.1605,202.5805,290.6014,225.0620,282.9309,165.2705,243.8916,26.1153,73.3059,16.7075,201.3931,82.5564,195.6462,187.9815,269.6887,224.6098
86.1843,105.7225,170.0434,139.5119,212.8138,296.1085,232.9768,265.1830,165.7825,195.2598,34.5572,28.2504,61.2123,202.1651,100.9532,227.4887,198.6033,231.5452,257.4372
50.4571,27.7884,143.3304,54.4814,141.4542,237.7595,151.0200,237.6834,106.8303,173.8149,31.6701,-27.2900,37.9887,165.6299,50.5566,175.7295,148.0265,163.7666,217.6562
40.4151,18.6813,73.7173,19.8002,31.0899,199.4409,45.1383,233.3902,29.2692,186.4148,10.2289,-32.5314,-44.0502,112.5887,-22.9442,107.0463,81.2560,120.8314,157.5146
48.7055,97.9392,32.1981,55.2548,-40.5290,171.6704,23.9388,212.6676,30.0481,194.7679,-1.7029,10.4108,-77.3294,54.8466,-24.4206,81.4676,52.7482,99.7873,138.2078
51.1143,183.7450,6.4262,69.1464,-67.7807,103.6416,43.2165,142.4481,74.5239,173.8320,-13.3806,16.2040,-65.3590,9.7884,10.1542,57.0877,24.9498,35.5669,108.3561
18.4378,182.1212,-57.6746,12.3918,-97.9135,15.5095,4.1830,43.3989,54.6273,112.9390,-47.1540,-29.9005,-98.1440,-16.9762,-36.0487,12.3498,-56.6628,-64.6853,3.8623
-37.7083,118.9574,-134.7124,-36.9348,-175.7069,-45.9359,-94.4940,-33.7205,-35.4073,32.6249,-78.5261,-48.2562,-171.3114,-18.1483,-151.2067,12.7770,-149.9653,-105.3754,-125.0168
-82.4305,78.3752,-180.4665,-32.9723,-281.5504,-67.1219,-188.1770,-36.8150,-106.3146,5.7837,-78.5288,-36.2176,-215.3617,7.5228,-222.9105,53.1896,-197.2183,-89.8344,-186.0216
-98.9480,38.7077,-217.7215,-60.1236,-339.7177,-66.3288,-221.7650,7.6686,-110.6953,38.3360,-79.6474,-69.3211,-218.2818,6.3780,-220.9762,33.1393,-225.0166,-124.8077,-172.8942
-99.2319,-49.5435,-255.0752,-141.0363,-327.4348,-81.3275,-188.3149,1.9197,-83.3249,31.9061,-126.6493,-127.6446,-185.5652,-52.3906,-170.8055,-49.1879,-254.6945,-193.0334,-140.3811
-131.6762,-91.0902,-246.9750,-156.2078,-274.5934,-119.2565,-129.5900,-59.2025,-58.3013,-23.4962,-194.4440,-126.2467,-96.1505,-92.8666,-65.4913,-99.8085,-241.4289,-180.5098,-111.4738
-209.9643,-8.5500,-196.5690,-84.9183,-179.1669,-132.9679,-70.5781,-79.2639,-22.6843,-32.3748,-218.3078,-82.1486,22.6756,-68.7590,56.7735,-95.4798,-179.0005,-109.7763,-72.8740
-232.9306,66.0615,-152.9176,-54.1796,-65.0681,-94.8378,1.3020,-36.0695,29.3400,6.6154,-188.9366,-68.3443,99.0395,-41.2592,118.3343,-56.1143,-121.2122,-72.4428,-21.0942
-137.2467,34.4387,-102.1515,-67.9640,-2.5660,-32.0429,74.9406,16.3495,72.9417,40.6830,-165.5005,-65.3335,117.5465,-16.6726,136.0646,25.1570,-70.7608,-39.5519,32.2583
-49.7038,3.6579,-11.5633,-5.1508,29.9474,28.2851,129.9615,64.2784,110.0820,88.3153,-179.4592,-4.0585,115.5950,64.7957,168.6708,109.1698,12.3656,29.4070,83.3728
-68.5312,10.8931,72.4742,106.9517,99.9627,69.9819,175.7202,100.6747,155.4032,121.4378,-175.0369,95.4940,110.0380,145.8666,183.0654,123.5361,102.1463,74.0595,127.7490
-84.4021,-33.7173,100.1454,138.5571,149.6982,75.7045,183.6242,90.8617,158.4415,70.8025,-106.7323,134.5794,102.9732,118.3828,136.4241,64.2251,125.3962,71.4304,130.3923
-35.2208,-66.3385,92.6691,105.8306,109.6630,65.3990,105.7871,53.2906,76.1365,13.7732,-35.5338,78.7555,104.5721,29.8219,79.6031,-15.1023,73.4250,71.8609,64.2517
-33.6245,10.9508,73.1852,103.3204,52.6694,75.1992,12.3802,44.2794,-6.7636,44.3148,-21.4353,15.6783,105.4305,0.0067,62.8820,-47.1960,23.1813,70.5751,-9.1241
-82.5924,55.5590,55.3973,124.4712,45.1714,85.8181,9.4294,57.5747,-2.4172,72.9581,-10.2260,25.3807,83.4718,34.0259,53.6358,10.3635,45.1820,39.0369,-0.6713
-50.3994,-42.1978,81.7973,128.4747,45.1534,66.2453,37.6540,50.4248,16.8191,33.4251,37.1680,63.9088,50.0110,70.0333,12.0044,98.1168,110.1364,14.0497,50.3063
16.4365,-114.4197,134.6836,118.2387,26.6597,45.0955,-9.7236,30.3278,-31.6064,14.7252,44.5950,56.5012,39.3961,89.3334,-30.1051,121.4113,122.7214,19.7789,33.4564
-29.2318,-59.7133,121.5784,80.3831,11.0937,41.6249,-67.1998,27.4140,-72.6406,25.0494,-11.1903,13.6357,60.3619,90.1196,-12.1940,98.4174,62.4903,13.0348,-29.8234
-120.6110,-27.4814,47.8123,2.8955,0.8179,8.7056,-34.8498,18.5147,-38.1254,-30.2213,-32.8043,-31.5913,87.8804,48.1712,49.8500,78.3173,7.8503,-35.7758,-42.1209
-130.4780,-85.4232,6.9065,-68.4527,-11.2969,-73.9372,13.8096,-37.9475,-8.5432,-116.5959,-12.3074,-80.2318,84.3494,-44.6743,59.1954,25.8246,-10.5490,-103.9212,-41.9172
-133.7571,-101.6688,-18.5349,-97.5227,-43.5027,-152.2276,-32.1559,-114.3557,-51.1842,-135.1284,-63.7167,-111.5798,22.5335,-147.8984,-27.8774,-68.1630,-52.2006,-158.9524,-127.0878
-189.6070,-24.3267,-96.3154,-107.3536,-114.1623,-196.6781,-129.7062,-160.2185,-113.1085,-118.3243,-188.0134,-108.4429,-80.3641,-210.8673,-133.9360,-146.1858,-129.9958,-193.8699,-239.2811
-172.8559,21.4818,-166.5290,-127.3149,-174.4804,-236.5280,-170.5321,-195.4739,-135.7651,-135.0004,-260.8218,-120.7261,-162.8254,-227.4382,-172.0361,-187.9457,-182.6194,-227.3186,-249.5388
-68.9382,-52.1243,-170.6693,-168.1961,-176.4928,-266.5650,-141.2932,-230.1355,-117.3477,-152.8211,-248.2994,-170.5572,-186.8261,-215.1458,-148.5923,-179.9582,-201.3933,-252.0948,-174.0970
-56.4474,-149.9539,-179.8195,-213.4920,-170.0850,-233.3047,-106.9177,-194.6918,-84.5957,-123.0209,-210.0733,-181.2388,-164.3712,-165.3830,-114.3106,-95.7467,-225.9272,-212.4129,-121.6145
-141.6921,-134.3735,-207.1121,-204.4647,-175.6564,-138.4846,-99.3683,-97.4022,-82.1220,-79.3630,-158.0254,-114.4113,-96.8845,-80.7948,-75.5198,-3.0986,-222.8633,-107.3434,-111.5155
-128.6343,-43.4891,-148.7831,-129.0399,-117.7502,-66.3807,-85.4804,-70.4639,-112.4042,-94.9590,-83.1184,-51.9242,14.5663,-22.7753,-8.0861,6.5859,-132.7165,-41.5576,-83.4693
-12.6960,-18.8846,-12.9675,-80.5372,-3.6174,-76.8783,-43.0496,-142.0620,-115.0537,-182.3331,-16.2558,-56.3659,94.4632,-32.8842,60.3405,-26.4482,-8.4229,-71.5205,-26.2815
25.8960,-67.1120,70.3967,-103.4348,63.6387,-120.4571,-13.5605,-193.9777,-90.5702,-260.6084,28.9094,-71.5678,78.7822,-52.8861,67.2367,-20.8724,49.2623,-107.1133,1.7932
0.0676,-93.0256,74.6413,-104.1141,72.6257,-100.4545,-36.4280,-172.1842,-108.7871,-245.6693,64.3106,-25.0571,46.5961,-12.0049,32.4511,22.5195,48.7299,-59.6320,-29.2275
69.4595,-71.1865,72.5110,-38.2753,78.3212,-13.3501,-76.6097,-112.9105,-144.6311,-152.1928,75.2701,48.6802,86.9378,51.8913,34.9264,58.8660,64.2523,23.3251,-60.9610
193.1702,-20.6282,84.0669,-3.7628,81.4764,39.9053,-64.9159,-43.5724,-106.1122,-67.4305,53.7997,52.7038,133.4548,49.1611,69.2773,36.8726,105.1194,51.2274,-19.5438
202.7012,30.3034,98.3550,-42.8489,91.4270,19.5156,16.1162,-1.1624,-16.2421,-47.4448,30.3279,-15.3757,120.0226,-10.9910,88.1999,-35.0055,142.3088,33.1448,77.6149
117.0304,19.4187,129.4232,-60.1288,142.1715,13.6847,101.9081,4.1724,26.4862,-60.4944,21.4774,-42.1167,119.5053,-32.3684,118.2753,-48.2287,177.5127,41.3356,145.7731
86.3367,-33.0403,160.6601,-9.1323,186.3267,67.3351,107.9559,37.8076,2.7483,-35.4033,25.0503,20.7009,161.2739,6.9441,159.7551,22.6080,199.5413,75.2251,151.3145
128.7116,-20.4307,144.9341,37.8919,147.5956,97.4530,42.7219,104.3460,-35.2711,32.3088,51.4747,83.3775,150.5302,30.0981,132.2811,51.6454,165.3404,65.8279,138.0013
131.8286,34.5714,76.5874,36.4180,45.5972,55.8865,-3.7056,120.2457,-38.8386,82.7294,74.7216,85.0413,68.3658,2.0433,44.5130,11.0413,70.7028,3.2095,133.8754
43.3659,35.3688,-10.5857,15.9409,-53.7574,-1.9405,-12.9823,87.8375,-4.3961,97.7958,34.5041,64.3158,1.9506,-44.3389,-4.2075,-9.0768,-35.3388,-55.2670,106.0298
-57.8456,33.3156,-78.0018,-11.5375,-115.6385,-41.2382,-40.5818,62.1269,15.7356,88.6537,-39.1335,33.9173,-18.1899,-99.2016,-1.8242,-32.7367,-100.0151,-74.8655,41.3570
-65.5423,86.9713,-84.3805,-51.4312,-107.2556,-55.6081,-50.1578,24.7294,10.8248,39.0362,-34.3679,-24.5282,2.6180,-152.3468,19.9035,-104.0341,-88.3517,-33.4828,8.9602
27.3021,129.9863,-18.8582,-67.5567,-6.8553,-4.5221,46.3748,-2.1803,66.7861,-8.9694,64.2855,-59.7046,86.5550,-145.9737,81.1587,-124.3919,-9.2842,79.0441,70.6740
150.7799,191.7401,69.0781,-27.9914,134.2848,87.2603,193.6816,52.0313,196.5735,19.2629,156.9477,-15.1579,179.0010,-66.1638,147.5457,-52.6839,75.4498,171.4605,169.8132
282.4847,392.6683,132.4536,40.1032,222.3922,110.6327,257.6055,112.6920,272.3761,50.7899,192.7211,77.3403,174.9289,16.8534,142.0786,7.4197,131.4160,145.5198,201.9603
449.2375,691.9343,185.0132,107.8086,228.7458,70.7816,233.7701,73.1492,250.0697,-15.3942,209.2283,170.9564,107.7465,56.3885,103.4752,20.4490,189.5780,92.6872,164.5315
637.5593,999.9393,247.7896,181.8868,219.2982,90.6628,210.5109,22.8679,226.1907,-71.6119,244.7373,254.1043,100.4316,73.3011,113.4374,42.9366,259.6356,148.2263,135.6356
818.2132,1349.5632,302.5490,252.8577,254.7836,174.4397,213.4699,62.0915,216.6311,-9.2936,319.1946,307.0984,162.1227,96.7254,155.0333,89.2644,306.2593,238.3123,142.2128
988.8888,1686.4980,340.8228,299.1031,306.7068,214.1283,209.8695,108.7859,152.3886,51.8816,427.9310,328.8480,218.7425,131.4906,189.9211,131.2256,325.6833,240.7129,145.6204
1108.9634,1828.5249,375.7317,338.0642,316.9499,196.4361,178.9485,91.0953,64.1223,20.5525,504.1446,355.2629,248.3624,154.6207,210.8230,129.1671,334.3117,204.7399,117.8790
1112.4625,1750.3684,380.2858,370.0767,277.1589,170.8671,122.4249,53.8375,21.9478,-16.5214,486.7768,371.0806,248.3607,139.4389,183.8621,84.2109,310.5737,180.2733,62.7030
1017.3002,1562.6859,316.6800,322.4523,199.7628,109.8377,57.7519,13.6632,0.0805,-39.8876,410.2151,310.6191,186.6786,95.5695,100.7082,71.1251,237.9457,97.2368,0.4432
890.1571,1278.8634,225.2641,166.0708,98.5120,-8.2447,5.9341,-47.8449,-29.2263,-114.1432,330.8923,178.9734,78.0058,35.5407,24.8572,73.7767,147.8292,-36.0022,-42.0999
731.8211,890.1572,166.5772,4.0573,17.6507,-103.5797,-24.7122,-105.4520,-33.9809,-190.3636,241.8522,56.2736,3.0025,-50.4344,-4.6261,-25.4179,72.7431,-105.1917,-63.9457
500.7272,500.4221,110.5186,-66.3714,-23.2577,-118.3275,-38.7060,-139.9973,-29.2367,-196.4282,130.4799,-8.3748,-11.5124,-123.9259,-16.3236,-150.1944,9.4223,-100.1153,-90.9443
200.9758,195.8893,6.2176,-83.0286,-78.8956,-110.0762,-55.9708,-154.5722,-55.4197,-158.2787,13.7062,-30.2937,-44.5400,-126.0287,-54.2612,-121.7414,-65.3385,-103.8031,-112.8517
-82.2532,-67.6999,-106.0737,-131.6792,-173.9630,-144.3534,-91.6700,-140.4267,-61.5021,-100.1627,-101.7851,-57.8854,-149.1922,-100.5122,-140.1827,-44.9196,-153.7125,-141.4420,-79.6455
-225.2398,-356.6098,-165.2603,-229.0058,-237.7753,-208.0838,-113.8075,-121.1053,5.2846,-46.4825,-194.6572,-127.4347,-249.0385,-124.1217,-225.9365,-101.4242,-208.7936,-201.8786,7.1799
-223.9837,-623.2192,-188.3133,-334.6039,-223.4410,-268.1520,-84.2354,-134.1903,64.3818,-59.1910,-222.4244,-211.6546,-254.5905,-168.7478,-219.4427,-183.9760,-203.0335,-270.8048,69.1447
-247.0329,-758.9597,-214.8974,-398.1853,-184.5883,-309.0914,-39.3648,-146.1846,23.6871,-103.4602,-206.4704,-251.1632,-198.1781,-179.7672,-129.2406,-174.3270,-196.5666,-289.6096,46.3614
-378.8442,-785.0908,-230.2327,-384.9681,-182.8126,-300.9127,-43.3398,-117.6616,-58.6985,-85.6895,-206.8972,-244.3395,-150.7442,-162.5418,-66.9636,-161.6306,-223.4058,-238.6942,-32.1371
-482.6764,-856.9229,-200.4720,-310.9595,-207.0352,-237.3266,-88.5265,-92.6516,-72.8817,-53.2103,-206.9770,-230.8553,-111.8928,-126.7809,-77.5627,-164.6064,-205.1019,-202.5296,-86.8700
-474.9902,-1013.5499,-136.0746,-240.3589,-205.5366,-186.0847,-111.2028,-104.9891,-19.2225,-84.1857,-162.7719,-213.5118,-73.2284,-93.9075,-104.3827,-125.2197,-111.0803,-215.2110,-66.6619
-451.3841,-1102.4875,-77.8867,-208.6510,-151.1310,-186.5846,-71.6754,-107.3293,30.3217,-106.4838,-105.7508,-175.8656,-61.5394,-101.7660,-97.0012,-110.0538,-34.5105,-189.0623,8.6687
-441.2106,-1006.4911,-37.7128,-169.6061,-69.3804,-161.4082,-0.6475,-62.7126,42.1218,-53.8838,-73.4566,-126.5567,-63.3584,-100.8927,-59.6397,-126.7986,-10.6946,-87.2439,75.0443
-380.2094,-785.0759,2.8676,-66.5231,-3.0693,-50.9406,34.1208,10.4141,32.4985,22.6239,-47.7445,-77.9787,-31.7402,-14.8808,-28.1589,-52.2517,22.1032,15.9972,104.9271
-318.3540,-615.8827,40.1295,50.4483,45.2019,65.7286,40.8127,88.0377,42.3838,88.8554,-27.2206,-40.0867,28.5282,86.5629,-8.0251,71.4626,64.5920,68.1296,138.5186
-332.2981,-652.2865,58.1813,63.2745,97.0755,93.1590,97.9861,140.4545,101.9003,131.7962,-31.9773,-33.5098,76.1661,89.6971,42.6536,81.4630,74.9877,68.8984,199.7891
-358.2446,-827.0627,68.5387,-29.8990,134.5482,49.2960,172.9894,130.6232,166.4984,101.5376,-40.3086,-56.3401,91.1889,25.8313,98.7012,1.0023,73.3068,29.0938,230.4156
-338.9415,-895.6885,69.2521,-95.0150,117.2165,10.7252,141.7923,75.7605,152.4248,25.2439,-26.1524,-77.9282,74.0826,-13.3493,66.6739,-42.3725,78.2314,5.8783,178.6063
-323.9780,-795.1898,38.2765,-73.6399,67.1151,24.4235,44.9512,38.9156,75.8195,1.4226,-1.6418,-87.5040,45.6097,-5.4975,-13.4853,-28.1550,71.0095,54.1800,99.6719
-333.8482,-695.3563,12.9415,-48.3441,59.1277,76.8999,42.1071,36.9037,43.7342,30.8481,19.4185,-86.1310,38.4540,29.5714,-5.3305,6.9096,66.8013,120.1499,78.5315
-349.2629,-656.6226,42.3277,-52.0406,108.6865,113.7170,118.4205,48.7674,88.3916,63.2024,24.4903,-51.4456,54.3071,57.0500,62.9505,38.6324,90.4317,145.3219,115.3824
-384.8324,-608.9276,82.5105,-14.4572,162.2010,132.7490,154.1135,98.0382,146.3722,124.5919,6.4080,12.9927,75.4723,53.6716,75.9597,49.6543,130.0521,195.9450,172.8548
-408.1806,-571.3126,99.4413,65.8935,212.2341,199.3392,177.8180,201.2301,185.2365,213.6972,14.5011,45.7140,105.5971,49.6680,70.4445,45.6130,175.3806,309.9667,240.2964
-338.5259,-544.1486,146.2519,102.6295,285.8228,299.9120,248.1236,275.7359,211.3531,236.7304,95.1328,21.9617,142.7594,64.9546,114.4478,36.2088,204.8543,376.5835,280.9395
-204.8183,-433.9047,204.0335,80.0742,328.2503,322.5303,284.9399,240.2647,208.2357,159.7663,183.5901,6.5587,167.9449,68.9147,161.5631,27.4893,184.7586,323.4919,248.9848
-130.0375,-291.9607,181.9944,50.7986,284.2338,240.5100,255.2660,144.4927,190.7022,61.4927,190.5648,39.7431,189.6543,60.0120,199.4821,30.1815,155.4851,228.1345,196.2226
-159.0760,-276.7968,120.8785,16.0621,232.1855,144.0759,261.0473,76.2199,219.2400,8.4309,133.7461,58.8037,220.1316,50.2268,263.5502,7.7854,165.6618,156.3599,195.2627
-231.0839,-361.4847,103.7100,-43.7698,226.4793,85.2921,295.1826,36.7719,259.4656,-9.7048,72.5080,9.9050,224.2328,9.2716,284.2310,-60.1674,136.6802,87.0005,180.6827
-279.6688,-414.3583,63.3080,-92.7646,162.1995,42.8704,212.4153,-5.7901,184.7078,-42.7453,26.5830,-53.3694,178.1363,-36.4254,201.9744,-68.5723,7.4795,7.7577,66.2795
-301.0127,-419.6823,-44.0805,-106.7694,1.7005,-9.6279,20.1369,-57.0064,4.5183,-111.7115,6.3178,-68.2826,122.8309,-7.6652,112.9559,23.4104,-115.1291,-69.5892,-68.8420
-336.8028,-401.9127,-117.0560,-133.9281,-116.1774,-84.6918,-108.3805,-119.4078,-121.5272,-163.5033,-8.1840,-72.0695,87.0870,49.9162,87.4228,54.3504,-152.7118,-142.8532,-122.0055
-384.9823,-360.6524,-141.6449,-205.8364,-141.2767,-160.0341,-137.7856,-177.9717,-157.3690,-151.8197,-77.0304,-120.0290,36.8684,29.1527,54.0331,-35.4975,-179.1553,-194.8178,-147.9301
-391.4747,-330.6209,-210.9418,-266.6425,-176.1082,-191.7413,-188.4909,-204.8039,-210.5080,-140.0673,-179.7971,-175.4526,-43.9255,-32.9806,-17.9659,-88.5216,-227.4866,-216.9069,-216.5623
-359.9553,-311.1121,-286.7575,-254.3070,-236.6359,-194.4512,-268.8647,-219.2153,-272.6544,-192.8091,-210.9261,-172.1618,-108.3132,-51.5617,-63.9908,-63.0918,-240.4216,-243.5689,-280.9901
-335.8367,-246.5412,-285.2848,-197.5102,-264.1028,-214.9511,-294.1507,-244.7513,-258.2205,-230.1313,-160.3640,-121.8523,-129.6825,-55.1178,-87.6606,-70.5822,-232.4866,-286.4548,-305.2269
-300.3956,-173.2724,-269.6020,-176.0160,-289.9116,-238.1884,-305.6397,-241.7588,-228.5893,-156.3813,-123.0236,-86.3289,-146.5394,-78.6899,-148.8337,-108.7653,-255.0111,-308.7953,-312.5377
-247.3506,-184.1744,-290.8777,-205.5647,-333.1553,-234.5082,-361.0280,-190.3240,-248.5305,-35.1956,-125.1459,-90.1797,-176.2963,-87.3339,-205.8455,-118.6464,-267.0417,-298.0740,-277.9312
-243.4866,-248.4367,-278.4375,-223.1899,-317.9399,-221.5327,-351.2375,-137.9812,-207.1326,25.7925,-124.4244,-112.0019,-177.1699,-78.5390,-180.5949,-121.6104,-219.9617,-269.9975,-177.8569
-267.6619,-258.3212,-219.0105,-199.7348,-235.9707,-203.9589,-218.1062,-104.5586,-68.4877,38.2632,-119.7138,-131.0112,-138.7042,-86.6483,-123.6872,-113.0134,-155.7337,-225.9642,-84.5564
-215.8154,-198.1953,-172.7510,-183.0098,-161.6134,-169.2232,-105.0836,-76.1118,9.9369,40.5453,-109.9066,-140.0522,-98.0908,-101.6032,-109.9164,-71.6268,-115.9639,-176.0043,-45.4606
-129.8072,-141.3068,-123.1281,-179.5119,-91.5826,-133.8736,-67.8632,-69.1613,-4.1406,-3.6037,-62.4270,-122.2253,-53.8151,-91.1921,-78.9707,-48.1377,-68.2251,-129.2248,-3.1419
-120.3786,-123.1195,-35.8280,-108.4750,17.1604,-87.4679,15.0529,-73.1913,32.4228,-86.9273,-4.3561,-62.7094,7.0011,-49.7425,13.5345,-46.6524,20.7457,-54.5883,71.9137
-111.1824,-93.4439,50.4602,35.1743,136.2236,3.6258,146.0072,-36.3308,131.5877,-108.4973,17.3057,3.4822,48.8856,0.0563,75.6813,-7.9277,121.1306,44.4324,141.5891
20.4113,-23.7752,117.1264,112.8942,229.8906,81.4172,219.0608,18.6176,193.9291,-43.7205,58.4555,15.5967,79.6394,15.8800,91.4551,32.3532,185.0649,82.2384,197.4919
184.3037,11.7110,184.8371,54.1167,293.4583,57.5192,258.5320,19.8405,218.6369,11.8086,162.3991,-24.7903,153.7413,-18.2422,161.2981,5.9352,201.3985,27.3861,234.2687
223.6730,-24.2953,219.1643,-23.6091,294.3668,-23.4237,301.4703,-14.6262,228.5310,21.1305,216.5513,-63.6624,210.2928,-62.3633,232.0025,-51.6151,174.0635,-28.4791,209.5789
149.1214,-33.6605,175.4545,-17.6417,218.7147,-58.8998,278.8881,-20.8262,211.0010,34.9170,144.0479,-84.5707,150.0666,-84.7183,173.1948,-86.7569,105.4579,-25.3184,142.8432
72.3963,24.5993,93.7457,12.0536,129.3669,-56.1129,211.8319,-12.7280,208.8249,38.6627,67.2733,-104.7077,53.2754,-104.4913,79.0359,-100.5255,34.7085,-25.7329,105.4398
55.0397,39.9263,41.3326,-7.6988,76.2660,-80.0821,185.3551,-38.8570,226.9994,-20.3515,73.3748,-117.5300,32.7486,-139.2685,76.4596,-106.4685,13.8780,-81.6068,89.2205
71.6553,-23.4725,32.1843,-33.3665,45.9405,-117.2972,149.5491,-77.1777,185.6843,-78.4126,63.4264,-107.9130,22.9794,-162.8923,61.6783,-115.4890,34.0423,-124.2188,62.1697
58.7363,-51.2484,50.7537,1.6019,36.9294,-93.9727,81.3864,-52.9236,120.2800,-25.3402,2.8519,-73.7903,-25.8457,-127.4286,-19.5164,-98.9272,57.1044,-68.3645,68.8438
30.1583,15.9151,78.4428,77.0803,60.3358,1.0917,86.7738,45.2699,126.5242,98.9173,11.7452,-20.0952,-26.1305,-26.8323,-28.9230,-15.9101,70.3498,34.6187,101.2374
85.2943,128.6773,79.7901,112.3115,68.7589,74.2995,113.8760,111.3598,111.0020,135.8418,91.0816,17.0014,11.3450,56.1852,20.7286,52.2244,45.8474,55.1716,46.8609
222.4011,249.7523,28.3118,67.7622,6.0726,51.6406,-6.6765,57.9384,-36.3029,33.2166,95.7130,0.4355,-28.8723,40.0628,-32.1832,6.6909,-30.5249,-8.5522,-96.4734
314.3484,382.2217,-40.6258,8.6962,-87.2049,-4.7840,-182.5486,-34.4014,-186.3621,-77.1491,24.5773,-26.1901,-114.6105,-19.2847,-138.7980,-52.7262,-77.4028,-31.5315,-178.8508
356.6442,555.8216,-54.9872,21.2625,-117.4017,-7.7623,-200.1762,-46.1786,-199.2439,-78.7959,17.5348,-4.2300,-135.2157,-12.6062,-144.0781,-12.2910,-28.3565,11.7884,-142.4230
499.4204,831.4409,1.6352,83.0778,-69.1908,14.7298,-110.2462,-12.6817,-136.3442,-42.2445,98.8637,33.1442,-99.0396,46.1730,-84.1982,44.0543,49.0720,29.1693,-75.3135
772.2878,1242.9103,77.8927,127.9434,-4.8132,24.8464,-59.7506,-5.1713,-73.4856,-61.0099,187.8859,61.3100,-37.6353,90.9343,-40.2902,71.7130,92.4867,30.4639,-22.4010
1029.3058,1727.8091,143.4149,179.5937,52.2685,75.3220,-12.5390,30.8045,2.9010,-50.1172,261.8450,143.1655,64.3406,149.5005,29.3264,164.1579,142.1780,107.3822,43.8081
1180.3727,2126.6963,213.4569,273.8058,129.7690,175.0727,77.9324,127.2660,74.0044,66.7476,325.6468,277.5896,157.7363,243.2137,129.5663,270.1804,208.9996,213.6672,102.9016
1257.7749,2285.8977,277.4978,351.2834,208.3197,232.3018,128.8628,177.4500,86.6668,150.9846,352.2343,357.8052,179.1808,276.2468,180.0488,228.6089,241.4709,234.8613,107.8214
1290.3525,2231.6243,293.6135,360.3136,232.4239,213.4163,111.6760,125.5688,51.2909,94.3327,345.8487,354.6699,169.8649,191.8376,169.1208,77.0802,236.9196,201.5793,86.8681
1273.2557,2135.9084,265.8896,341.4373,218.5341,184.8494,118.9625,70.0256,43.3077,25.4493,342.9276,345.1821,184.3300,102.5994,157.1392,-19.8303,230.6502,199.4120,106.5502
1203.0524,2037.8721,251.0835,351.4046,226.4327,189.8310,188.6175,83.7905,103.3550,45.6392,338.8333,373.5708,202.5408,132.3945,164.6375,-0.4083,240.0129,218.0872,159.4774
1078.0564,1831.7783,280.8887,414.7754,247.7758,232.7194,233.0625,133.7096,149.1163,77.7622,308.1480,432.9638,199.8986,252.8886,166.3544,122.8827,284.4874,257.9166,189.5767
930.5309,1542.6898,328.5674,504.6624,249.1511,324.0960,196.8380,209.0926,99.5165,112.6463,266.4284,483.9960,188.3481,359.1234,155.0072,286.0331,356.0554,360.3443,214.6860
813.1357,1284.2810,353.4409,514.8835,259.9601,423.9897,169.9031,326.1633,66.8589,234.0807,248.1840,439.6980,187.7416,386.0358,154.9268,345.6169,391.5499,448.2625,285.9898
690.8536,1017.5119,342.0218,391.2072,292.1242,438.3666,223.3591,406.2186,167.4715,364.7400,247.9504,286.1931,196.2377,316.6193,163.3493,249.0265,354.8798,402.6864,328.8466
479.4538,654.4919,298.9214,254.3688,276.4787,351.9044,246.1153,347.5570,252.3141,344.3799,218.6884,156.0558,173.7269,191.7162,130.9260,122.6934,276.0164,283.6442,230.0046
220.2006,238.6735,230.1536,210.2971,191.0110,253.8575,146.8348,201.7341,174.9373,206.6528,134.6413,128.9410,101.5859,97.0449,50.4969,58.5659,194.9596,208.6155,71.8300
26.0768,-138.2527,149.2547,179.8870,114.5985,185.5254,41.3423,97.0303,70.1155,97.0502,28.0826,116.2885,26.1230,51.4208,-27.8564,13.4303,130.3493,135.2043,18.3180
-111.3193,-398.4777,69.3671,84.9561,72.3235,95.0748,8.9719,42.4496,38.9965,40.5589,-58.5653,48.0206,-36.8731,-1.7799,-99.3590,-22.6853,69.1165,13.2266,34.8441
-252.6710,-505.6517,-6.4128,-10.1551,3.7752,-12.2162,-48.6697,-13.7258,-32.5305,-10.5503,-105.9271,-25.2149,-111.3645,-47.1143,-168.9965,9.0823,-7.7106,-55.8234,5.2675
-363.6908,-580.9293,-58.1160,-45.2665,-72.4447,-44.4378,-131.2514,-42.3776,-141.0974,-46.8724,-97.4004,-50.8292,-141.9551,-21.6780,-166.9279,71.7424,-65.0151,-23.2531,-34.9046
-420.4965,-759.3792,-64.5234,-41.4119,-76.3019,-8.2538,-120.5689,-32.2108,-150.6075,-57.3841,-57.3766,-32.0760,-86.3916,16.5889,-89.1073,45.7234,-81.7480,-14.6289,-47.3734
-491.0286,-935.9996,-73.9118,-37.2349,-52.6063,-36.2607,-88.2841,-74.2740,-126.9861,-92.4440,-75.2475,-9.6879,-53.8314,-27.3548,-68.3621,-59.3146,-136.8004,-104.6387,-118.1988
-609.5237,-995.5248,-158.0412,-89.0735,-109.7838,-157.6787,-178.5434,-190.4459,-207.1028,-173.0097,-179.9155,-51.7229,-108.4122,-98.8036,-139.2628,-95.9807,-259.8215,-202.6489,-242.1014
-748.2468,-1080.5021,-280.5158,-213.8564,-206.7435,-240.1756,-285.0141,-260.2933,-291.2785,-226.9081,-275.8262,-153.3029,-137.1141,-98.4845,-164.3595,-23.2243,-331.1909,-222.6072,-279.9320
-880.9249,-1271.3434,-332.3434,-294.7109,-217.1981,-212.4700,-247.4626,-223.2940,-247.3185,-204.2153,-283.9760,-193.9520,-86.9907,-45.8713,-86.7134,31.1827,-281.0731,-177.4434,-211.6035
-930.0234,-1369.5886,-279.0992,-230.8726,-136.0873,-142.6168,-145.1865,-158.8481,-165.7030,-163.7201,-217.6089,-126.1743,-38.9226,1.0458,-5.4610,-0.6222,-181.2791,-106.8303,-145.7285
-826.7812,-1274.4829,-174.9794,-109.9114,-53.5063,-78.3410,-113.8117,-118.5517,-172.0296,-146.0493,-120.1815,-60.7686,-10.1740,33.7592,7.1955,-29.6041,-92.3270,-33.9338,-120.4413
-691.4292,-1152.9288,-92.0619,-44.8591,-20.2765,-1.5078,-142.6349,-66.5224,-232.2115,-96.6488,-61.0488,-58.9902,21.1326,55.7835,-25.3306,13.9993,-36.4121,30.0520,-108.1216
-677.3047,-1105.3727,-68.7524,-3.9677,-31.5077,68.9274,-170.3737,-1.4413,-249.0227,-20.3802,-83.1378,-54.0366,22.6721,69.3171,-43.1440,74.3711,-29.6103,74.0822,-91.9614
-692.6580,-1053.2301,-54.1927,48.9387,-43.9895,80.3853,-154.1251,14.0536,-193.2861,-17.6035,-88.1085,-33.4060,26.9791,63.9759,-3.9169,71.2062,-5.3786,68.4701,-44.0841
-602.9425,-971.0883,29.8779,54.2851,-7.4448,35.8431,-82.0537,-34.9499,-118.0613,-80.4848,12.8188,-58.4329,89.6638,18.8720,53.5378,14.0427,87.9103,9.8082,24.9554
-519.8862,-932.8292,125.0609,1.4076,49.4947,-7.9091,-28.6297,-74.4578,-85.8403,-87.0299,87.6833,-101.7979,120.1870,-18.0654,47.0935,-12.7030,136.5944,-34.8890,37.1917
-564.2735,-950.1052,102.6236,-23.6576,45.1811,-20.2945,-52.8138,-53.3548,-80.3858,-21.7948,2.8424,-89.1562,47.7032,11.2271,-9.5668,17.3680,59.0692,-28.3973,-17.1800
-614.9723,-945.0139,-10.1827,2.2338,-19.3468,-33.3308,-73.5295,-24.7953,-41.1648,29.4697,-123.1546,-54.4357,-20.3730,22.5070,-32.4369,21.0832,-32.9546,-34.5968,-56.7463
-564.0323,-887.2601,-86.0883,-5.9004,-76.1393,-79.2439,-26.8259,-44.6727,28.8718,46.6157,-151.1616,-74.1524,-31.6709,-65.2643,-19.0520,-30.5371,-64.7526,-86.0144,-62.0625
-518.1818,-849.3206,-106.0032,-82.1740,-104.9869,-121.8551,6.5784,-69.2555,81.2140,55.2188,-142.1837,-130.3176,-72.1143,-140.7383,-29.6107,-48.9629,-98.2225,-115.0766,-69.1829
-556.1725,-861.9019,-118.4197,-147.9007,-112.9592,-120.6588,-14.6279,-52.6598,113.0495,56.2170,-166.3214,-169.9471,-130.6286,-125.0292,-64.9793,-33.1584,-139.2154,-103.2026,-56.5542
-575.5278,-831.7369,-128.2861,-165.3424,-95.7304,-124.1525,-6.3855,-40.9480,152.4939,58.3172,-180.5150,-202.4969,-128.0154,-133.0437,-80.0221,-82.9748,-150.1312,-123.8601,-11.0858
-507.3340,-717.9585,-142.9417,-199.6508,-92.6129,-181.3376,44.7857,-66.5213,184.8530,63.4414,-163.1615,-241.2884,-113.6768,-201.2544,-72.0980,-157.3326,-176.0838,-181.6444,-0.4706
-440.4571,-621.5045,-175.6012,-253.9362,-148.4779,-227.0303,39.8407,-77.2300,162.9256,50.9490,-146.3519,-243.0167,-153.4758,-208.1899,-88.3377,-144.8059,-238.0949,-192.8876,-53.8723
-441.1254,-586.8286,-193.8140,-236.7123,-215.3342,-196.2331,-34.8087,-47.5408,90.6997,38.4303,-147.5244,-183.8315,-197.9255,-147.0695,-150.0001,-102.3730,-270.9315,-147.9486,-96.5937
-439.8875,-534.1918,-181.1317,-161.2063,-224.2702,-147.1563,-76.6385,-25.5204,38.9329,46.2986,-165.9977,-119.3386,-204.4643,-115.5250,-197.6736,-105.0239,-251.3816,-120.9161,-74.3323
-377.6443,-440.4470,-166.5355,-138.0700,-196.2427,-135.8106,-45.3275,-30.6191,43.9713,37.5202,-169.3430,-100.7925,-184.5163,-102.6941,-161.8955,-79.7452,-209.8888,-121.0947,-28.8470
-306.2581,-355.5146,-146.4588,-146.5172,-174.7710,-108.0896,-8.4545,-17.7592,64.4279,22.8550,-115.9923,-89.4421,-133.7869,-59.4241,-72.0143,-7.7576,-152.2754,-85.4742,-10.9074
-264.4549,-274.6858,-98.9706,-80.7543,-145.7832,-27.9719,-8.3018,38.7392,72.8475,76.6496,-38.9382,-28.6538,-71.6099,-10.6269,-11.1374,30.1618,-85.8386,-12.3922,-9.0621
-198.1415,-178.4492,-45.6545,20.1008,-96.4594,38.2127,-13.5441,91.3250,73.9974,159.4193,5.6291,43.8273,-44.9879,21.6174,1.7722,49.5868,-33.6152,27.4674,-4.7009
-77.5887,-96.8741,-5.8967,48.1203,-56.2294,43.4666,-5.1806,79.8144,40.6305,157.4445,32.2449,53.9592,-40.0264,33.6174,2.4454,81.4993,-1.6217,17.3245,-18.7018
30.0255,-45.4743,25.6606,26.9029,-40.6068,29.8895,4.0703,30.6475,-14.0192,102.2457,54.2493,25.2177,-19.9797,21.2495,15.5290,62.3559,3.8559,17.6812,-46.8157
50.0584,-10.1275,32.8464,36.3793,-27.5548,41.4565,24.7859,25.0139,5.8425,94.2630,51.8879,34.2752,1.1768,30.0590,47.6433,21.4930,-19.3719,56.1253,-39.5481
-17.0811,16.8170,9.6851,72.8680,-4.6801,74.1055,54.4386,58.5562,86.8591,100.0106,51.6788,74.4560,10.8995,78.5624,78.9558,55.6111,-42.1323,97.7234,-5.7268
-95.3420,49.1897,-2.4000,96.6677,13.9169,109.6390,40.6365,56.1223,74.0924,50.5599,70.3910,92.7905,16.5097,95.7719,70.9328,92.2429,-38.2199,121.3953,-7.7531
-92.5267,87.4458,23.6836,103.0030,28.2373,130.8068,-10.2994,22.7426,-40.0937,-10.0160,66.5351,97.8125,15.0312,89.1752,38.5833,57.9747,-3.9091,132.5939,-25.2272
-9.8520,104.0436,68.6299,110.2830,57.1030,131.5319,-9.0100,19.4793,-84.1515,-22.9145,63.0659,112.0065,36.9800,158.0342,51.2203,81.2571,48.1003,130.1254,4.8930
50.4334,104.0735,104.2832,136.1059,90.4939,138.2077,47.8708,40.9537,-26.6078,5.9330,116.0777,119.2945,118.2126,261.8321,123.8762,199.7569,75.1459,133.5944,50.3065
38.8299,108.3077,115.7551,176.9305,105.8255,174.1946,74.8846,69.9938,5.6788,71.6662,164.6707,131.4201,198.2914,278.5730,188.1182,239.0660,70.8517,171.7673,69.7266
10.0959,85.0759,116.1833,207.6122,121.4766,206.7366,79.9622,127.3065,3.6267,155.0954,148.6504,159.3303,195.0520,236.2833,177.7023,161.9699,99.5143,198.1164,104.7042
0.1495,25.1108,124.9053,199.1592,134.6077,183.4374,104.0410,165.0087,39.7503,175.3892,127.6539,129.0557,121.8343,198.2984,81.2111,102.9610,139.1093,134.3261,138.3593
-0.7037,-4.2067,108.5211,121.2312,70.6054,106.1906,65.4316,102.5801,55.5641,93.9422,116.6287,11.0003,12.7990,124.3093,-61.3628,78.4001,74.4595,11.7205,83.7172
19.6955,17.5749,34.6427,-12.5436,-74.6349,22.3328,-72.9647,-8.8451,-23.0120,-10.1696,60.8533,-71.7538,-117.2443,37.8872,-174.6296,43.8084,-51.6526,-69.9369,-22.1702
52.7638,27.0223,-39.0788,-104.5870,-173.3757,-40.8329,-168.4640,-67.7921,-100.1928,-59.5769,-5.0274,-49.0780,-200.4846,23.7441,-207.1967,31.8458,-81.8951,-101.1152,-70.2347
38.0483,0.9295,-59.7762,-96.3469,-172.9631,-94.7489,-146.0172,-94.2175,-75.2509,-72.5340,-41.9906,-24.9700,-203.4654,12.9103,-195.0333,8.3659,-37.6522,-137.7538,-75.6799
-27.3647,-26.3260,-64.9257,-70.1718,-169.4875,-146.5431,-122.4453,-138.2820,-37.2731,-88.2088,-94.9425,-59.0909,-217.0835,-93.9492,-214.9929,-88.5955,-30.9834,-174.8433,-99.2843
-53.1642,-41.4241,-69.7796,-100.0199,-206.0608,-176.1046,-176.7159,-174.7331,-113.4582,-114.9074,-133.1398,-90.1164,-279.6148,-204.5065,-272.4740,-163.2578,-35.1721,-179.5399,-134.7057
9.2576,-48.0181,-46.0326,-137.8102,-233.1789,-178.3872,-268.0866,-203.7685,-261.6707,-162.9397,-90.6832,-121.2496,-290.6951,-224.7613,-295.4795,-148.9670,-19.6342,-174.9757,-194.9945
90.3721,-39.9051,-33.4864,-133.0639,-246.2041,-176.9841,-350.2546,-252.5687,-347.5126,-213.4441,-47.6010,-187.7223,-218.3681,-227.0624,-242.0910,-156.5865,-35.8164,-177.3363,-279.7967
106.7927,-15.3034,-58.5283,-90.3253,-237.8362,-161.3030,-358.0350,-258.6338,-322.8206,-203.3995,-63.0124,-202.9525,-147.2094,-245.2751,-147.4352,-195.2258,-42.4486,-141.1802,-284.1381
79.0611,21.9532,-37.0234,-14.5171,-142.4654,-94.9544,-242.4446,-168.8217,-241.2964,-140.4847,-42.2023,-111.5574,-91.5684,-212.6794,-57.8132,-144.2218,28.5979,-54.6138,-176.1505
82.4646,65.8780,51.6588,55.8261,13.0782,-9.6278,-100.1411,-71.9623,-167.2778,-106.6101,27.2255,-34.6637,-2.6315,-152.7352,16.7985,-75.9212,95.7365,19.7783,-88.3782
121.2819,112.7826,101.3620,69.8176,110.2208,35.4481,-39.2950,-38.0444,-117.8909,-87.8339,56.9924,-55.2774,95.7277,-126.7754,81.4061,-122.5922,96.9466,58.3439,-63.2359
153.0334,175.6686,96.7107,64.8640,141.1955,67.8592,-1.7548,4.1834,-69.7023,-7.3595,84.7866,-86.2333,157.5492,-83.9457,138.1729,-153.1062,111.2488,98.6844,-0.4580
183.7485,251.2160,115.8460,74.5560,175.5719,117.0369,67.7894,78.4686,-9.1565,74.5074,144.4678,-71.0996,187.9180,-4.9948,182.4400,-46.8557,147.6058,120.3897,82.2437
212.7566,293.1232,124.5752,35.1062,191.0967,110.6387,109.2823,86.6466,44.5688,53.0727,118.5128,-66.5558,188.5922,16.3255,199.8281,29.7057,114.7186,69.7798,80.5620
193.5849,279.0804,58.7317,-46.1581,152.6406,26.6947,123.4645,21.5023,78.4537,-11.1069,7.0181,-83.8491,158.7182,-22.6375,191.1107,-26.1285,33.3285,1.3484,42.5649
155.8420,248.1484,-1.9206,-54.9719,114.9564,-21.6662,153.9047,-7.6278,90.6777,-27.2256,-24.9428,-67.1664,130.0649,-21.0634,176.7645,-60.3798,2.6399,6.5134,61.2650
177.4179,246.1087,16.7792,5.0066,104.1010,9.6372,128.8598,9.1820,55.2531,-44.4449,11.4612,-15.5118,108.0548,15.7922,150.6507,-2.7149,22.1687,42.3361,75.3920
204.9791,296.8110,38.8353,25.9280,68.2383,21.9144,10.3508,-10.6446,-32.8817,-101.3112,-32.4287,16.4237,59.9139,12.1766,87.7014,31.6453,21.9181,10.2590,12.9716
153.1616,373.7676,-6.0020,-10.4416,-2.2732,-39.0170,-84.3604,-69.2303,-109.5971,-141.1638,-117.7713,-7.3936,-8.8461,-36.8835,10.1272,-18.8995,-30.3083,-80.1210,-59.2120
100.8585,371.5982,-71.2611,-78.4288,-56.9274,-127.6024,-96.5830,-120.9128,-132.4101,-153.9572,-118.4042,-78.0070,-61.4203,-120.5824,-28.0014,-123.1261,-106.7573,-158.3614,-72.2495
123.7850,242.6689,-100.7706,-162.5397,-70.7991,-191.6632,-95.8145,-160.7854,-146.3512,-170.1309,-83.2846,-132.9653,-84.4301,-211.2598,-14.8980,-213.1145,-142.1446,-182.5549,-63.6141
124.2339,119.1009,-96.4610,-167.5973,-54.8646,-186.6657,-102.7662,-167.6298,-181.7305,-163.5372,-118.6734,-103.0389,-79.0749,-199.5927,17.9603,-188.9964,-109.3325,-132.6547,-83.5942
46.1300,114.8967,-74.7528,-46.1140,-26.7783,-112.5232,-93.3743,-120.6584,-191.3914,-129.0978,-186.7878,-13.6012,-60.4791,-65.3589,36.7990,-68.1661,-58.2317,-49.4292,-113.1759
3.6319,144.5800,-40.1268,54.2827,-5.0970,-52.7241,-82.3225,-78.6732,-145.3268,-109.4466,-187.3783,41.2964,-62.0412,39.5007,18.8534,5.0638,-25.7195,-23.7566,-105.0693
62.2880,117.1738,0.5437,36.6294,0.6396,-42.2492,-68.4689,-76.0190,-89.8852,-83.9911,-120.6704,41.8889,-86.1778,58.8123,-33.0008,27.0456,-0.3744,-42.6229,-62.3983
131.0351,88.4496,15.1787,11.3140,-9.5911,-15.6555,-51.9779,-45.9398,-75.8139,-16.4108,-77.1665,44.7064,-101.5836,89.0462,-79.8666,90.3133,0.1215,-10.7296,-38.2682
118.5369,99.3240,-30.7963,30.3407,-29.2657,26.1676,-64.9480,26.7430,-79.0997,45.6000,-94.2871,61.9662,-92.0395,116.2613,-74.8920,116.4409,-45.0024,42.4927,-39.0319
45.8835,116.5770,-101.7713,15.7260,-36.5376,19.0069,-65.5440,62.0332,-35.7135,65.4803,-101.9934,67.9055,-51.4102,65.8922,-13.4965,34.7687,-83.7686,22.3324,-10.9510
6.5465,152.1063,-117.6871,-3.8546,-21.5623,-3.8800,0.8079,40.1206,37.3788,64.7175,-49.0649,74.0304,1.8940,17.0334,37.9223,-18.5967,-68.2360,-23.4694,32.5222
55.0833,213.7038,-77.7346,41.3372,-10.6652,5.9313,39.7894,3.9935,43.8939,28.3159,19.6024,85.6622,-1.7586,38.1979,7.2317,1.6519,-35.0027,-13.3889,15.0670
142.8335,232.2908,-48.2419,63.6305,-15.9221,-3.3401,-19.1166,-36.0361,-15.2305,-46.9778,55.3979,73.2228,-70.8905,48.6646,-69.2576,-20.7877,-31.4759,2.6732,-40.0216
205.3435,198.6031,-41.1507,4.9539,-13.9591,-39.6622,-59.7498,-60.3938,-27.3377,-82.3988,52.7838,62.7774,-95.5569,31.2357,-93.6164,-36.4991,-47.4190,-16.0309,-46.1115
241.9716,198.5517,-24.6786,-7.3393,-7.9986,-31.8623,-29.5259,-48.3128,12.5659,-65.7582,11.2437,113.9648,-39.6622,48.0837,-67.1304,41.5008,-49.4448,-20.0834,-34.8001
238.4619,245.6023,-0.6666,77.3203,-24.8483,-2.7361,-37.1188,-54.8992,1.6219,-88.9497,-40.0217,171.1699,-10.6343,40.2761,-56.5577,51.2328,-27.7687,-14.2346,-81.6114
161.0566,274.3213,19.2327,116.9405,-41.9280,-21.2566,-77.0507,-96.3052,-38.3438,-133.2192,-47.1220,128.6182,-36.3575,-42.0949,-48.5550,-78.3960,-3.7030,-34.0762,-128.2710
77.4817,265.2151,40.8676,58.6494,-12.3924,-43.7755,-38.9874,-80.0245,-7.4402,-88.2822,-8.9765,42.4732,-22.9437,-74.6759,-8.2061,-113.3473,6.8163,-31.4800,-97.5429
97.4744,222.0827,62.1372,24.2121,47.5357,-20.3083,29.7805,-14.1452,44.2484,-10.6565,41.3185,51.7587,33.4123,4.0622,20.5875,11.5938,24.0920,5.9965,-60.8305
192.5164,155.1975,80.1540,62.8002,75.6571,-2.5632,18.4474,-28.9233,8.4525,-38.4852,85.1754,121.1207,49.4168,59.8738,11.7637,61.2398,53.2466,-3.4793,-99.2946
231.9908,143.3634,86.8160,86.1941,52.8707,-19.3331,-28.5694,-101.8971,-62.9951,-101.6203,82.9643,98.3074,21.9825,13.2080,10.5391,-25.6176,48.0212,-57.6200,-144.0652
163.1740,211.6628,46.7243,39.9961,18.3094,-34.4927,-23.9708,-95.7392,-49.0479,-57.6263,9.7508,-22.0653,-3.0751,-61.2179,27.6706,-90.5406,-7.9363,-77.0119,-110.1145
67.2795,215.1980,-39.5021,-45.5477,-1.3913,-49.6138,13.4303,-42.3921,37.1035,11.3102,-74.6206,-105.6520,-22.0720,-101.9147,30.0510,-100.8003,-62.7815,-79.4955,-47.5110
49.3942,82.9496,-99.6038,-115.4674,-24.6175,-75.3243,33.2169,-45.6276,79.5929,-25.0313,-103.9193,-91.0271,-30.5879,-98.5016,23.1926,-97.3639,-79.1132,-95.2644,-32.6122
90.4421,-9.0319,-92.2805,-114.3915,-46.6647,-58.3915,37.2120,-44.8992,40.9000,-68.0289,-70.2627,-29.5837,-7.3757,-33.9352,35.0358,-33.4478,-55.2670,-48.0753,-28.0544
87.0682,56.3897,-47.5850,-48.1264,-10.1416,28.6269,62.6261,27.7699,15.1210,-6.6179,12.8311,24.7430,41.8804,64.9200,70.2254,72.8421,14.1592,66.1448,31.5968
61.6793,133.4411,12.0192,-7.2950,87.0961,104.1479,119.8471,76.6369,64.5453,42.6797,84.3181,52.9049,95.2308,116.4296,111.7577,113.7639,96.9824,105.5760,105.9629
132.9335,107.0470,67.6704,-26.1931,147.1519,76.3787,151.6323,30.0013,101.1771,-19.5461,76.7474,51.3859,128.0108,88.0203,122.7877,85.8692,120.3583,22.9599,118.0649
261.0763,74.6707,75.1895,-29.7067,118.1757,-24.5261,116.0687,-37.4551,52.4793,-79.3045,63.3885,35.9921,115.1084,30.2862,85.5100,47.5702,79.5488,-53.8858,84.7161
298.1233,112.1538,43.9195,4.1215,70.5697,-74.1948,70.1800,-51.4008,1.7305,-40.0960,135.8683,31.9457,70.9676,-1.5925,36.6675,-18.6142,41.1743,-24.3657,67.7924
240.6435,152.7195,37.3009,17.7859,64.1512,-11.2702,65.6558,-7.7443,12.2472,37.3820,185.1183,49.2262,36.5900,-0.6530,4.6519,-98.0740,29.5003,79.9472,74.1655
175.5134,151.0220,59.5771,22.8637,75.4189,84.6992,72.7671,71.0095,25.6154,89.9824,108.0301,81.8851,21.2592,15.0507,-16.0183,-92.0416,30.9436,160.8539,98.4124
130.1783,144.4090,75.8544,55.2330,92.1335,107.1236,94.5783,119.5760,43.5208,99.8445,34.8147,107.5822,27.0648,27.2010,-0.4276,-16.1308,63.8403,144.2630,163.8264
132.8181,146.0323,101.5437,65.2115,143.1469,61.7512,180.0558,84.6337,136.7593,50.0781,69.6272,96.4524,67.6339,16.5265,65.7710,-13.2942,133.7061,70.7022,249.9902
193.6102,113.4196,148.6391,43.9577,217.2978,38.8860,284.6753,38.1553,243.5819,-2.7732,109.3511,59.9868,106.8614,-8.9407,113.5774,-77.2848,188.3574,59.1455,286.5071
223.8265,38.2318,172.1152,61.5678,254.7512,76.7902,300.4893,71.5261,231.7648,26.0761,88.9792,44.8885,87.7544,-6.1985,90.1622,-47.6040,181.2776,114.9470,247.6731
187.9909,12.0245,142.2628,71.1976,223.3740,102.7449,215.0070,117.9784,117.6337,82.5069,81.9381,41.4104,34.0427,14.3669,39.7167,53.5582,118.4268,108.6269,168.5829
172.5931,115.4855,84.8966,-25.2498,151.8956,37.9144,114.3590,69.6164,27.4398,62.4114,124.9294,-4.8438,10.4238,-26.8420,8.8698,21.5054,39.9282,-1.3022,91.5068
179.5478,236.4457,44.1685,-123.2338,89.7094,-68.5260,63.2680,-26.0714,21.0530,1.6850,180.8519,-69.5862,21.6277,-126.5280,-4.6591,-138.5849,-4.1584,-100.2748,45.5922
134.9869,186.4082,49.6325,-74.1846,55.4172,-104.3753,42.5309,-62.1661,46.6128,-19.7713,206.7162,-81.6611,36.9646,-173.7450,-1.6511,-202.2386,1.9980,-103.1531,29.5132
98.6650,21.3271,79.0362,22.9074,34.5122,-73.7828,5.2974,-40.8607,26.2582,-18.4269,174.6696,-63.1970,46.1778,-138.2662,13.1476,-128.9731,12.4768,-52.0104,12.3563
151.7406,-25.9582,68.4827,9.4268,13.9769,-63.6282,-26.3625,-16.3814,-27.0044,-19.1117,116.0502,-72.3761,45.7620,-102.2439,15.1026,-84.0190,-17.8015,-18.7282,-15.7457
197.0770,73.3066,3.6824,-62.1102,-10.8889,-72.9405,-5.9862,1.2837,-36.6781,1.8739,82.2620,-79.6765,34.2740,-97.9883,-0.2851,-107.2348,-76.5005,-19.1039,-42.0864
122.6535,133.7201,-67.2479,-87.3425,-43.4732,-55.0940,17.2057,12.7224,-14.9390,35.3553,43.7834,-59.2611,27.9849,-95.2050,-9.0819,-116.0686,-134.3322,-32.8615,-70.9066
-14.4781,75.6844,-120.2805,-88.2630,-66.9255,-45.1171,-14.0297,13.0480,-18.5883,48.4979,-26.6626,-62.0077,38.4759,-94.6596,10.4849,-111.4678,-179.4727,-44.6130,-98.0337
-107.6145,-4.8358,-160.4292,-84.7256,-64.5326,-69.9733,-34.7212,24.6168,-2.8766,57.6222,-71.6103,-82.4200,43.1390,-100.2683,46.1327,-113.5970,-194.8045,-38.5252,-105.9648
-133.9626,-7.8064,-173.2363,-28.5810,-74.7122,-57.7376,-11.6825,64.3393,51.4523,93.1457,-78.5435,-45.7417,5.5323,-79.0763,36.9740,-64.1507,-163.4073,9.2367,-116.3179
-119.4775,79.3471,-147.7479,63.5413,-139.7492,27.1271,-47.1794,108.0444,35.0055,138.5479,-96.0268,30.0610,-68.8395,-8.6258,-48.9680,56.5411,-99.6503,83.8166,-144.6956
-81.0053,178.8345,-100.4544,99.1185,-206.8544,100.1432,-147.9936,126.2309,-58.4420,157.3745,-102.0564,59.7745,-123.1781,82.2626,-136.3386,161.8270,-43.1624,117.6484,-143.4345
-32.7246,189.9745,-56.2182,60.6241,-197.7864,94.0692,-166.6942,111.6120,-85.0137,147.2276,-72.5899,41.1970,-119.5833,117.8261,-140.7385,157.9164,-24.2955,84.3583,-102.3646
-19.5344,117.4456,-36.9153,38.6708,-147.0835,51.9420,-93.2798,77.3363,-38.1031,135.5766,-58.8687,27.3295,-82.0232,58.7437,-85.2010,57.8941,-29.3549,42.9396,-92.8378
-69.4364,64.8230,-38.8551,86.5087,-142.3631,36.8525,-81.6837,55.6818,-35.1683,127.7783,-54.9138,41.9343,-53.4896,-6.5503,-44.1759,-9.7944,-16.7127,33.7374,-133.6472
-98.3446,87.5286,-37.7492,138.1946,-179.6356,40.8275,-151.3011,58.2005,-63.8481,99.0098,-13.7083,83.8490,-62.4762,15.4544,-65.6695,30.7728,1.8647,20.5863,-168.3493
-21.8337,136.9309,-51.9775,126.7307,-201.9094,20.7866,-180.0666,46.9890,-59.4687,51.8307,5.8696,116.6341,-110.7815,63.2367,-140.1712,83.8096,-34.5579,-24.4318,-179.9689
52.0792,133.0455,-111.7053,92.7577,-207.7405,-17.5477,-152.2179,4.8426,-58.0853,25.2743,-42.9495,100.3750,-142.5181,69.7352,-168.8245,80.5602,-110.6075,-64.2373,-179.5163
-14.3447,57.6073,-165.3028,88.9078,-210.6809,-22.9881,-140.0527,-16.6630,-67.2155,37.9444,-79.2570,73.1369,-99.2298,96.1770,-77.1477,105.4667,-145.3823,-49.0771,-151.8988
-134.4705,-18.7978,-159.8153,75.8562,-181.1678,14.1558,-127.1600,21.0093,-29.5718,79.3306,-76.0194,72.5417,-23.7833,143.7101,38.9606,156.5724,-145.1725,16.0386,-105.2663
-177.8655,-41.0461,-144.8299,20.7281,-117.4534,47.9074,-62.6667,84.7322,27.6446,134.6742,-109.8278,50.2551,7.7614,121.8590,67.1557,118.1684,-164.2087,70.5711,-65.6466
-192.9813,-46.7225,-155.9228,-12.0349,-74.3938,58.1219,4.6845,124.6364,35.2301,172.4934,-174.7634,8.7143,7.4566,68.0897,54.7457,47.2876,-165.4031,71.9627,-29.5504
-232.6637,-55.1865,-153.9222,14.9305,-75.2126,58.9084,-0.8018,115.9741,4.8071,154.9851,-208.8064,17.7405,-1.5995,56.6138,43.1117,61.5910,-130.7999,40.2188,-18.4608
-254.1831,-30.2452,-166.0056,8.8045,-103.2111,35.0288,-61.0650,55.9577,-30.2280,84.8289,-240.3496,16.4381,-60.8402,7.8982,-31.8875,57.4840,-165.3516,-3.8714,-72.0979
-282.1109,-27.1918,-256.9607,-100.3961,-165.5021,-31.8038,-114.9904,-20.9516,-64.5081,7.5433,-304.9123,-92.0363,-169.9758,-99.3101,-154.0138,-40.9928,-283.1531,-64.2654,-140.7698
