Fp1,Fp2,F3,F4,C3,C4,P3,P4,O1,O2,F7,F8,T7,T8,P7,P8,Fz,Cz,Pz
140.1333,-100.6365,41.8835,-164.5006,-33.2290,-217.4945,-45.6945,-206.3339,69.3282,-187.7075,72.6940,-130.4242,40.5208,-181.3470,-24.4653,-92.3945,12.5580,-156.2863,-36.7672
197.2540,-91.6416,47.3074,-152.4690,-7.2404,-201.6037,-34.4260,-188.1597,92.2114,-154.4239,86.7637,-85.8182,58.6642,-135.7110,-15.2079,-127.5022,40.6542,-134.3233,0.9715
167.5557,-85.4328,14.7075,-138.9967,28.2621,-181.2353,-0.4348,-141.9732,70.8489,-67.1049,61.5207,-62.6110,39.9557,-102.4215,-68.6670,-149.3362,37.0328,-100.4350,38.8476
69.8194,-95.7755,-2.9785,-130.1034,40.8910,-149.1743,-4.1196,-96.6198,-15.6336,-1.4737,77.8338,-72.3815,22.6478,-106.0053,-116.7178,-68.2503,5.6407,-67.3002,17.9369
-12.2124,-144.9881,4.9855,-163.6607,18.1015,-168.2323,-44.3893,-103.2276,-66.0939,-43.0478,90.2664,-76.3407,17.8952,-118.7591,-123.6595,3.8175,-31.8104,-97.1708,-35.3639
-70.5527,-210.4297,-11.9148,-223.6047,-9.9489,-247.4696,-56.7657,-160.2199,-17.7410,-125.0444,35.3221,-87.3638,-8.9197,-137.1698,-158.0742,-52.8143,-69.5975,-176.8026,-69.1304
-129.7122,-240.2706,-43.3845,-247.6457,-27.8533,-286.4428,-47.7293,-210.1744,28.1454,-107.3550,-20.5709,-119.2176,-54.7536,-167.0705,-202.8586,-176.3319,-101.7310,-201.2380,-90.6963
-167.8275,-228.9229,-49.6597,-221.8490,-50.8136,-242.3545,-58.9961,-194.8445,18.0738,-14.0432,-32.1563,-108.9330,-88.4095,-159.3641,-155.3320,-240.7280,-118.4024,-148.7463,-99.9946
-171.7668,-235.5829,-64.2008,-191.8510,-81.6110,-190.8794,-75.6015,-119.9344,47.5369,29.3031,-45.5914,-67.9692,-108.6993,-115.4500,-46.9098,-193.5538,-133.0201,-121.6022,-74.8484
-165.8466,-292.1970,-104.3499,-201.9334,-104.3929,-185.4040,-89.4689,-70.3036,109.4324,27.3481,-65.9373,-105.8193,-126.1842,-130.2029,-16.3398,-96.6631,-157.9620,-170.2008,-54.7031
-163.7225,-323.3270,-114.0645,-233.7252,-107.3889,-187.9023,-118.5118,-93.0936,72.5134,20.4314,-64.3468,-178.8831,-139.0639,-196.5314,-91.2828,-74.6236,-171.8195,-204.6410,-88.9614
-160.4126,-237.3540,-87.6611,-193.0384,-97.1701,-136.1856,-141.0410,-111.3007,-33.7681,-48.6549,-44.8975,-131.5701,-142.2274,-181.4286,-175.8654,-132.5024,-153.1122,-132.9975,-140.6520
-140.5256,-80.3876,-64.4008,-37.5444,-98.1400,-38.2139,-146.5637,-68.8176,-71.5396,-139.3557,-4.6916,-10.7569,-131.8351,-75.4884,-212.1554,-140.4663,-101.4717,-16.1940,-156.7174
-90.1761,0.5129,-21.0913,95.3584,-107.2543,3.9149,-160.1936,-44.1513,-58.1237,-125.9758,42.0521,17.8036,-112.7532,-11.9188,-226.4332,-83.6705,-26.4423,8.2768,-132.6980
-40.7804,-54.7779,50.1633,51.3311,-69.1720,-62.8221,-138.0996,-83.0438,-62.7880,-97.2946,47.7728,-25.6071,-82.0517,-25.5239,-227.5810,-73.8706,34.7714,-57.2850,-60.7894
-33.7812,-147.0628,88.9883,-90.1629,36.3440,-127.0984,-22.9908,-93.4435,-38.9153,-182.8229,32.1491,-24.7424,-21.4818,-34.5900,-187.8219,-88.7730,47.7213,-82.5313,48.6532
-41.7689,-150.5917,95.4159,-136.6718,136.7710,-94.1945,100.7162,-32.7960,25.6713,-217.4368,41.9080,12.2380,34.3437,-23.5508,-147.8403,-26.4012,49.0303,-43.2144,119.1983
-36.1977,-79.0571,114.1055,-80.8839,170.0017,-51.3613,122.0972,-1.5796,52.7960,-65.9225,37.3838,21.0252,19.1165,-49.0026,-164.3490,38.6134,77.2033,-36.3035,103.7445
-54.8621,-43.9143,108.0089,-49.1040,153.8538,-79.7776,78.0496,-53.9005,40.7133,80.1841,0.9649,-9.2378,-19.7001,-107.4696,-158.3170,-13.4456,79.2775,-73.8700,42.7325
-90.0006,-42.5217,44.2354,-52.7135,104.1038,-105.3079,32.4014,-99.3772,34.3736,77.2420,-4.3455,-47.4534,12.2157,-125.4636,-63.2644,-99.0616,16.1282,-86.4732,-24.6708
-61.7175,41.7148,-13.1680,-21.2613,18.4109,-74.1645,-33.4019,-70.3858,-1.7124,-1.4177,14.8746,-33.0208,60.9601,-67.0382,-4.9827,-116.6027,-41.0534,-69.8046,-76.8604
42.8533,196.0202,-8.1269,30.2372,-34.2487,-45.2890,-88.8336,-34.8103,-87.9333,-123.5359,23.3361,54.2234,53.6400,19.3583,-49.5885,-151.7132,-19.3832,-43.1783,-69.3565
178.0584,290.1499,58.8003,63.8886,21.2916,-39.4570,-56.3148,-54.0732,-157.1849,-225.2838,80.9925,133.3770,72.5619,73.9274,-58.2234,-217.9624,68.3800,12.8100,-17.6517
323.9758,327.5415,151.6934,106.9055,104.6715,-9.7957,3.3106,-60.0660,-173.4227,-161.9999,173.5374,139.7753,142.5590,86.3664,-12.9204,-119.4444,158.9148,68.5938,-14.0201
417.9294,376.0735,168.9459,132.9535,75.4931,25.8953,-28.2766,-4.6270,-158.7159,-37.6727,159.2974,98.7444,134.5017,53.8283,-44.5497,140.7771,171.4082,55.3063,-60.0586
379.9247,351.8675,57.8252,55.3318,-25.6121,-3.9485,-85.9323,15.6425,-109.4706,-49.0692,48.5357,31.7811,50.6572,-27.5689,-90.9274,233.2447,84.0595,-9.3138,-53.3984
274.5774,200.0413,-54.7521,-64.9454,-48.8055,-78.1379,-42.2936,-38.6881,-31.4014,-56.7187,-1.8030,-29.4373,27.8627,-87.1212,-39.8074,55.8678,-4.5613,-42.5069,10.2016
220.5522,78.3034,-60.2689,-71.8026,-7.9118,-92.6620,22.1169,-39.4028,0.4159,50.4348,17.8255,-2.3543,47.2700,-38.2073,-16.4819,-86.3952,-19.6029,-20.9223,25.0890
192.1071,73.8155,-38.8617,-21.3136,-38.8104,-60.5983,-35.9985,19.3345,-73.9079,10.1639,13.0489,76.3473,21.2062,46.7750,-84.4479,-45.4123,-31.4259,-9.3869,-35.9443
125.7130,33.4316,-59.2161,-107.2412,-140.5324,-135.2735,-147.5994,-60.3656,-200.7030,-248.6725,-9.1902,35.7136,7.4714,0.5095,-84.6599,-10.3363,-99.2930,-83.9393,-107.9593
61.2621,-125.9063,-69.7989,-288.6948,-195.9130,-328.0269,-177.5432,-292.9505,-264.0642,-411.0846,-15.6140,-129.8770,48.1650,-173.4133,-25.8020,-77.1322,-157.4191,-221.7363,-156.8750
25.2939,-266.7053,-58.1256,-358.2369,-176.9086,-432.4935,-154.2377,-434.0486,-217.9281,-397.4169,-30.6010,-238.2976,65.1587,-298.0110,-73.8626,-171.3294,-155.9103,-303.7304,-174.7271
-26.4295,-297.1985,-62.4248,-316.5090,-142.0984,-365.5309,-130.9485,-385.3793,-115.5364,-390.6522,-56.9829,-245.0838,40.9088,-298.4838,-143.1804,-267.8047,-143.0305,-285.4347,-140.2245
-101.6280,-297.1445,-83.1718,-317.7015,-128.2739,-278.3490,-63.8967,-275.9064,-6.9994,-367.4236,-84.1322,-262.0380,19.4709,-275.9372,-56.1312,-314.8797,-170.1104,-252.7353,-71.6042
-161.2669,-332.0281,-120.8096,-355.6418,-144.6169,-243.6237,29.3831,-185.3969,105.8786,-271.4015,-125.6772,-297.6723,-18.4629,-292.7069,78.5353,-245.8084,-222.0511,-246.9817,-22.6614
-176.0098,-351.3888,-153.3613,-318.1344,-164.5390,-190.5959,62.2746,-124.2198,196.7548,-227.9295,-161.8918,-276.2872,-70.0323,-281.2307,86.0469,-183.2208,-230.8784,-208.8415,-2.4127
-137.7940,-302.4206,-110.4351,-215.0790,-129.2381,-130.7859,53.9496,-126.1503,207.9798,-212.2614,-153.2054,-208.8053,-71.5939,-204.5181,34.1077,-236.4063,-154.9186,-127.3065,6.5402
-87.6298,-228.4979,-17.3616,-131.4036,-48.4769,-115.6234,60.5950,-159.7943,134.8537,-83.2209,-105.0895,-149.8059,-30.0682,-143.7144,43.9431,-249.0011,-58.3029,-71.6453,-10.4825
-83.5627,-203.8986,17.0771,-88.8772,3.6393,-101.1427,45.8952,-147.3128,40.3830,48.6528,-46.9234,-116.2874,-4.1166,-157.8694,76.9881,-105.1968,-20.2886,-76.7702,-42.4516
-97.5971,-214.9515,5.4662,-69.1811,20.8629,-73.5549,2.1047,-105.8203,-0.4132,38.5173,-7.5783,-116.1539,0.4959,-180.3517,58.3517,29.3697,-7.4296,-108.8221,-28.6099
-69.9090,-183.6789,19.1537,-51.3307,40.1340,-77.9468,-2.9712,-88.8126,47.9196,12.5895,-8.0219,-126.1214,-10.0955,-128.5718,22.7470,-8.3746,26.9917,-116.3632,24.9870
-34.3985,-98.1509,18.6561,-5.4780,40.1514,-70.7918,27.9773,-80.1038,138.1961,77.0175,-28.3268,-87.9017,-42.9982,-31.5241,40.2344,-144.6476,42.6764,-86.8846,36.0706
-38.1283,-30.1399,-24.8101,54.9808,7.2175,-9.6352,36.9249,-60.2962,178.2518,130.5188,-41.3988,-24.5120,-72.5251,17.4496,84.3169,-172.4493,26.1636,-63.7220,-2.6802
-42.8349,-20.3502,-46.2786,77.8646,-17.7251,34.2080,23.2241,-36.0440,144.1514,129.3450,-53.3563,-16.6992,-81.0209,1.5732,86.8821,3.9113,23.6700,-59.0123,-19.7803
-24.6237,-33.5604,-33.7525,77.4364,-27.2386,48.1105,2.5632,2.7255,86.9361,139.0864,-46.5167,-32.7661,-88.5870,5.2504,68.5844,185.9199,33.1469,-14.5956,-5.3381
-20.7582,-41.2394,-21.7276,104.8353,-35.2024,102.3753,-24.6172,35.8442,38.9537,133.3616,5.2608,5.2378,-93.4642,66.5230,60.0462,126.1221,38.0755,59.7097,0.9950
-34.1196,-55.5797,11.5118,126.5545,-9.5042,154.8601,-37.4026,27.6576,0.8506,66.0653,52.8531,47.3255,-76.7610,107.1789,13.0255,-40.7205,64.2163,75.5142,8.2672
-41.7306,-62.5533,57.8046,87.7397,50.7852,131.8256,-32.7268,26.9470,-14.3932,34.1724,47.0954,27.1437,-49.8229,84.7798,-43.8393,-31.3567,90.8429,51.0132,40.5873
-64.2137,-31.8539,53.3102,22.3194,81.9400,93.4677,-13.5365,86.2897,13.7968,112.1017,20.0000,-10.2667,-33.6646,59.6304,0.0817,89.7746,63.5969,65.2153,86.4603
-115.3214,5.9163,6.7866,-13.3930,72.2485,102.9436,60.4468,153.7895,77.2256,176.2931,-4.8443,-34.1246,-40.9095,55.8022,85.2339,149.7996,9.2965,86.1426,125.6682
-165.7498,12.6960,-31.2055,-2.9599,66.1996,136.4904,151.6408,188.7954,109.8605,111.2404,-33.6909,-58.0970,-71.1800,51.2121,69.9789,193.9547,-23.4223,87.0907,125.4397
-198.1868,17.6972,-60.2406,54.3003,59.8819,175.0953,124.6329,212.7710,48.8173,13.6936,-31.5364,-42.8620,-81.8759,74.3364,32.0521,195.7216,-45.8134,126.8389,64.7524
-196.0578,32.8315,-57.6045,117.4585,38.0082,191.1331,5.5627,199.6348,-39.2608,4.1103,21.6773,14.3765,-29.2418,121.6629,95.9539,50.3232,-42.9760,169.0905,15.0303
-121.0630,21.6087,14.8233,126.3539,40.9167,149.1711,-22.9655,133.7926,-40.6146,35.7628,78.3630,34.6465,50.3136,116.2839,149.9464,-59.2187,23.1430,134.4202,52.6648
-2.6799,11.7254,84.9285,105.6078,80.0699,104.8085,39.5625,99.4389,-11.0064,33.6022,94.7595,25.6353,83.2960,67.5190,76.4179,48.5321,94.6435,108.4588,107.5266
59.1253,58.3078,62.1380,118.0422,102.7835,125.9737,48.5998,136.1740,-58.7926,15.9065,64.2993,60.7569,66.7653,66.0536,-8.8607,167.4313,94.6042,176.8724,95.5459
48.0977,101.8997,9.3422,134.3627,104.2354,164.0628,31.0863,168.1985,-96.2820,5.9120,18.9495,99.9152,61.7214,101.0462,20.5645,123.3364,64.9356,231.8774,76.8533
40.6053,58.8593,27.0424,88.6129,130.6691,143.4384,78.6639,142.7856,-24.2301,-4.4768,23.0065,69.7803,91.7935,83.1436,95.7025,46.6270,62.3433,170.4993,84.4375
52.2712,-7.6969,76.0763,9.8612,155.3958,69.3815,108.4428,81.1387,41.6341,-5.2407,63.9255,10.1203,106.1456,5.1519,96.1886,8.3911,53.3260,53.4917,39.9247
42.9061,8.2669,73.4210,-14.9677,110.4949,8.8796,47.2761,33.5648,20.4523,12.4987,49.3654,-14.1333,67.1783,-47.3248,40.9199,-27.2624,23.4182,-11.8341,-28.5185
25.9574,60.8116,33.3903,19.1627,23.5225,21.0429,-11.6380,41.9079,16.5412,29.7097,-9.3368,0.6357,10.6466,-10.1911,31.8686,-3.3014,12.1131,10.0793,-17.1459
22.5769,37.9730,1.5628,27.5998,-31.3104,63.9471,-22.3190,64.9145,38.6228,25.8009,-27.0014,38.7083,-36.0579,70.4320,52.2320,63.9580,3.2347,49.7413,3.2298
0.8794,-25.0159,-27.9307,-10.3986,-61.5688,43.4277,-59.6919,24.3911,-24.9922,2.6465,-28.1841,76.2131,-88.2026,93.9960,1.0340,60.9659,-38.6166,20.0635,-72.1413
-44.5514,-10.6540,-58.3690,-18.5848,-96.3303,-11.6817,-126.3821,-40.3698,-120.1043,-11.5941,-55.1241,85.2360,-112.0431,57.5785,-57.7035,25.0715,-69.5714,-26.6935,-139.5278
-74.6486,51.6885,-61.0937,2.5500,-92.8850,-14.0316,-140.8410,-42.9426,-113.0102,-0.8769,-57.0502,72.2277,-62.9370,41.1956,5.1078,36.9968,-52.7490,5.1745,-89.4025
-86.6594,36.4506,-37.4974,-28.6537,-23.5537,6.5275,-77.1691,-8.9294,-40.8325,5.9147,-33.9497,55.2921,0.2211,49.9985,78.7984,28.7432,-30.4519,53.3233,2.5054
-97.3658,-52.1566,-23.6600,-82.5887,52.1609,0.3801,27.5783,2.5374,19.4866,0.1850,-41.4511,23.0106,19.7200,25.4799,30.3958,-49.1294,-29.3512,27.6734,49.8378
-92.3762,-99.2976,-26.5833,-70.8790,74.8195,-0.4731,109.4932,0.3515,87.3339,26.0019,-48.0467,-18.2258,41.4494,-19.5652,8.4149,-104.9652,-31.3518,-13.7282,47.4612
-65.8625,-59.5694,-23.8297,-34.6234,44.6822,1.5199,105.9453,-2.6049,140.9904,56.7057,-20.9564,-18.1347,73.8476,-26.8040,91.2383,-50.5737,-37.1073,-16.8535,3.0784
-30.4374,15.5483,-7.4673,-40.7847,-5.0092,-22.2836,49.3343,-16.4637,128.6813,-2.8592,-4.7874,30.9378,57.8452,-2.1424,74.1938,45.0197,-38.1077,-29.9733,-25.3881
16.4006,60.0355,13.3517,-45.7636,-18.3415,-28.6392,42.8706,-30.2020,99.4314,-94.1179,-4.4485,64.3740,23.1531,13.6756,-54.0185,15.6865,-3.1730,-52.9867,26.3699
60.2626,37.0807,19.6602,-36.0128,30.8687,-3.7494,89.2055,-22.1414,101.6960,-54.8521,-6.2319,47.7811,32.6035,20.2044,-38.0676,-118.5388,37.8611,-33.5268,100.7441
72.4683,-27.1284,-2.4840,-63.3993,78.7872,1.1973,107.0181,11.8628,101.1842,59.1046,-38.2027,17.8974,48.2844,27.1119,92.1157,-139.1988,30.0542,-4.4721,122.4548
75.1651,-51.9390,-25.8187,-87.9455,66.6643,-4.4723,96.6695,39.4753,97.0874,54.4090,-54.6838,-6.1286,36.8603,4.6422,69.4154,-40.8394,6.2064,-34.1516,114.2796
95.1180,-6.9663,-21.5114,-55.9901,27.3108,-6.7584,95.7708,18.4785,106.1933,-41.3347,-1.8956,-42.4899,33.8884,-57.9086,-66.0667,7.8658,10.0789,-99.1498,91.1567
95.2175,38.0892,-24.4750,-39.1418,-7.5946,-49.3851,73.9637,-11.1200,76.1068,-74.6750,18.5848,-62.4580,40.0074,-81.2163,-75.1812,82.9865,0.7607,-118.4082,56.4455
50.6209,13.5069,-55.7044,-67.7385,-37.1002,-82.6917,39.5565,15.2208,12.2166,-63.0291,-47.6197,-24.4438,36.4649,-9.4781,18.2271,218.9019,-30.6224,-79.1568,67.6012
-10.6701,-60.8922,-59.7761,-51.0342,-24.9920,-17.2786,60.1469,26.6384,16.5642,-68.6066,-66.1252,13.1514,30.1970,45.3286,26.1451,133.7382,-18.9071,-61.0860,98.1459
-70.4479,-105.2744,-27.0586,11.9544,15.2053,58.1976,84.4005,-44.2103,71.2511,-23.0787,-1.8584,-17.2107,-9.3757,-26.8407,-55.0507,-112.9864,18.8442,-88.6816,42.8715
-97.5665,-59.7007,-18.8433,30.0809,-4.8735,30.4869,12.3853,-69.2918,42.0352,82.4767,22.8683,-43.2075,-88.3490,-110.9193,-89.2979,-84.5744,3.1437,-56.1305,-45.9273
-41.6418,47.5730,-11.0852,17.3977,-52.3558,-20.7587,-68.5298,23.9762,-55.1412,114.7399,13.6159,8.4282,-115.0462,-72.8392,-53.3269,102.2089,-27.3400,63.1042,-43.2117
49.0772,107.4489,63.5139,27.2585,-10.0346,-10.6952,-27.6021,74.4579,-70.3774,45.5912,46.3857,51.9603,-66.2341,-3.2515,-42.3633,29.3043,13.4585,116.2302,3.9105
65.6704,58.8173,137.3582,30.4195,64.9878,15.8083,54.7448,26.4632,17.7774,16.7769,59.4744,22.9570,-42.5340,2.5243,-60.4449,-85.9425,77.2618,59.2774,16.2275
16.4638,-18.4425,110.7681,32.6733,46.9810,44.2500,56.6119,41.5473,90.3005,85.6561,9.7037,14.5113,-64.0638,17.0605,-5.2856,68.6310,75.7961,53.5439,31.4472
-17.9521,-15.0319,37.7555,83.5317,-9.2112,92.8366,16.5728,122.0659,75.8759,126.6608,-16.4333,67.8845,-58.0019,57.8912,101.4887,191.3674,38.7079,126.6082,42.7610
-18.1419,54.8856,20.6445,117.0030,-10.0968,98.2468,-5.9551,90.1136,4.4441,43.0557,18.1139,83.9585,-20.8432,42.8401,115.8591,54.2557,33.5466,105.4431,7.5531
20.4893,98.6124,54.0442,48.0304,16.1285,23.9384,-8.0135,-45.6224,-56.0279,-85.5142,61.3621,36.1876,13.0237,-1.3181,28.5818,-113.9617,55.7595,-31.8745,-5.6447
88.6330,83.6140,76.0785,-32.7984,41.4622,-54.1985,21.6264,-116.6354,-67.4132,-138.0613,78.5581,6.1656,39.4127,-6.3794,-50.9668,-172.0552,67.7199,-104.3211,28.5288
101.5032,45.6998,65.3417,-9.7506,60.3228,-81.9151,32.5168,-94.1434,-64.9915,-116.1051,57.2995,4.4513,42.2010,-9.4607,-92.7534,-127.9962,55.5990,-48.4314,3.2853
35.6096,11.6311,53.9629,44.6999,35.2859,-91.6536,-42.6090,-76.5468,-93.2144,-91.8122,19.3443,-16.1330,26.5521,-26.3234,-96.7267,13.0723,34.8172,1.8310,-80.4118
-5.1675,-10.3232,61.0313,18.2491,-9.9478,-108.8116,-112.5774,-98.3670,-117.5423,-88.2302,8.8626,-40.8402,28.1720,-10.2020,-43.9025,77.5842,19.5801,-37.1007,-109.8351
-0.1636,-8.3282,30.7336,-35.6285,-30.2747,-105.9963,-96.9926,-104.3630,-99.1794,-74.7474,-6.0424,-42.2075,24.6360,13.8298,-1.5475,-28.5224,-16.3027,-74.6209,-108.1676
-35.9265,3.9314,-63.4472,-18.7517,-74.3423,-63.6090,-115.1917,-63.7470,-83.0259,-16.1236,-63.9142,-42.1428,-6.5264,0.5706,-22.5322,-112.6314,-87.2955,-26.1795,-156.6742
-93.9778,-12.2807,-121.2926,31.5931,-140.3923,-25.4243,-208.8087,-40.4345,-108.1354,73.3808,-87.7778,-51.2369,-16.9320,-19.5777,-32.4780,-111.1716,-129.3600,35.9656,-204.8426
-102.6201,-47.8861,-94.0483,39.6458,-133.7596,-32.2614,-234.0925,-78.8898,-137.2794,106.9095,-44.1844,-46.1753,-17.5747,-20.9623,-24.1357,-93.1218,-100.9823,40.2502,-196.0786
-96.5079,-49.9395,-88.0225,30.6474,-86.9436,-30.2234,-185.8433,-88.5837,-131.7205,40.9290,-41.8585,-26.1329,-66.1130,-9.9880,-78.7409,11.9271,-69.7043,47.0086,-167.1962
-107.3615,-26.1552,-140.1523,32.6610,-95.1102,24.7815,-169.1340,-9.6007,-96.6575,-30.9904,-108.6104,-23.0507,-95.6192,12.3236,-127.1210,91.6126,-88.2849,65.4367,-133.6981
-100.5488,-35.8131,-169.9591,-4.5227,-115.2558,51.5028,-139.3209,50.9170,-64.8014,-31.8573,-140.5377,-46.3097,-42.8424,18.2643,-69.3484,-46.0957,-127.1134,8.5414,-94.3768
-95.8711,-68.7930,-187.9749,-71.6930,-119.9391,4.6556,-78.8412,34.9597,-77.8185,-22.0907,-117.9145,-55.6221,-12.2972,0.0187,-7.5356,-127.2078,-169.5884,-67.7000,-90.2891
-127.0678,-72.3507,-228.6391,-79.5400,-165.8987,-23.8940,-98.9435,38.7856,-123.8137,-47.1139,-102.0255,-30.5281,-58.5256,7.2870,-30.6068,46.4943,-206.5327,-41.5880,-109.0580
-151.6960,-64.2050,-210.7812,-41.9922,-191.8388,-6.3540,-156.8829,85.3961,-142.2986,-55.0487,-90.1765,-28.0149,-79.2709,19.9981,-62.6982,108.4677,-197.0359,10.0488,-92.5524
-141.8010,-74.4699,-126.6446,-50.7596,-129.5784,-27.2855,-134.9114,87.7567,-138.6001,-31.5987,-57.3197,-91.0204,-51.0668,-36.3326,-82.9006,-24.7004,-160.3128,-9.8662,-78.3329
-102.8205,-56.0446,-92.3207,-85.7734,-94.0620,-81.6545,-126.1145,37.7914,-158.0353,-15.0187,-15.3743,-159.8936,-44.1699,-115.4170,-128.6890,-5.1774,-158.1034,-25.7709,-131.0648
-13.6968,19.5171,-104.6326,-81.5267,-140.6084,-93.8862,-206.9003,-11.6103,-171.5290,4.4957,19.6010,-163.9691,-44.1322,-126.1132,-134.4305,86.0032,-161.8600,-24.6403,-194.6017
76.8095,79.7072,-88.7015,-76.3602,-163.0526,-82.5114,-248.5681,-43.8394,-156.1481,35.0836,9.8731,-119.8239,-37.5043,-94.5305,-75.4665,49.6817,-131.8650,-88.3585,-197.9460
54.8343,64.0073,-99.8065,-99.9055,-159.4500,-86.8234,-209.0788,-36.4934,-156.4709,37.4019,-78.3958,-72.8670,-90.8424,-62.6959,-53.9925,89.5848,-130.7919,-135.8322,-181.6683
-50.7242,17.5482,-174.5112,-87.0426,-187.2670,-66.2048,-181.0411,15.4798,-148.9185,20.2954,-181.9762,-34.9261,-183.2908,-12.2120,-89.7450,141.5536,-179.6531,-50.1534,-189.6309
-109.3638,1.9114,-212.2882,-28.9156,-176.8781,-9.1068,-160.8139,40.9356,-82.8836,31.6586,-210.6138,-12.0222,-212.2156,33.4696,-105.1983,-58.4992,-191.4635,76.4673,-194.0031
-115.2881,11.4145,-175.5369,8.3958,-117.7068,24.9814,-132.8619,-0.2334,-44.8899,58.3065,-177.4967,-8.9529,-183.7821,32.7650,-93.0894,-192.0348,-144.4230,125.1152,-184.2102
-124.2546,25.7743,-127.6850,41.8720,-111.9869,28.4841,-143.6911,-38.4085,-93.5493,74.6060,-129.9042,-5.1494,-162.2308,11.4178,-76.9945,-2.6319,-95.3018,117.7316,-168.1009
-107.7734,41.3208,-74.7381,111.9037,-126.6264,53.1223,-142.8103,-8.2824,-107.6695,97.0671,-62.5002,12.9249,-132.6429,-4.0199,-54.4299,117.8022,-46.0232,94.1620,-114.0720
-55.1477,30.5187,-7.8095,141.7452,-76.3601,89.8407,-82.4414,51.8532,-46.8906,112.3177,1.7216,21.6388,-86.5390,-19.2450,-60.4164,53.5544,4.8927,72.5899,-40.5790
-35.8135,-15.9746,19.4226,79.5260,-35.7908,75.3643,-56.7318,51.2099,-38.4814,86.9969,-7.8843,3.6836,-81.0687,-22.1052,-109.8034,63.1717,7.1131,66.8984,-43.1206
-81.2700,-38.6235,-6.8067,22.3055,-62.6803,10.2681,-81.2947,-35.2172,-76.0337,44.9614,-79.3773,-20.6804,-117.5185,-19.1356,-140.8519,-29.8943,-29.1090,30.4516,-111.3290
-144.5480,-14.4751,-25.7444,33.0312,-79.1376,-38.2033,-54.1375,-116.5297,-32.0407,32.2744,-107.2794,-33.7325,-125.1366,-43.3942,-128.6696,-292.0831,-36.9914,-51.3886,-117.7115
-162.0715,-10.1855,0.2261,45.8344,-61.0041,-44.1592,-12.3829,-103.3214,53.0312,68.1810,-56.0158,-42.1845,-96.3638,-74.1652,-107.8904,-231.7085,-16.5860,-82.7277,-56.3476
-111.4462,-37.0991,44.6316,32.0210,-58.8494,-41.1840,-55.9255,-42.7017,59.7880,125.0929,-8.8511,-42.4805,-92.8463,-68.9934,-88.3593,136.0737,-3.5902,-36.8059,-41.5655
-47.8587,-24.4742,56.0963,33.6152,-65.7691,-46.8137,-130.8125,-33.6237,11.9803,96.4696,-16.9349,-19.9492,-117.4979,-44.0699,-84.5731,216.8359,7.6074,-16.4664,-78.8236
-28.9646,20.6440,26.2067,39.9696,-55.8771,-54.4397,-158.6457,-76.1017,-28.6755,-61.2135,-31.0103,8.4270,-115.1299,-33.0505,-115.7024,14.4749,22.2598,-57.5772,-96.6083
-22.0153,30.7748,0.6253,20.7020,-43.8095,-67.6242,-160.2085,-109.1668,-65.4537,-161.1345,-26.0249,7.6578,-94.8214,-43.2479,-129.2514,-68.7268,22.7028,-87.9054,-104.7657
8.2216,26.5343,-5.1210,8.8664,-40.9858,-70.0442,-147.1454,-99.6252,-76.1798,-41.1796,-37.4596,-13.5456,-104.9105,-57.9451,-82.4452,-62.6437,8.8154,-51.0518,-103.8063
34.6724,58.8423,-3.6334,31.9599,-24.8038,-24.0105,-85.5336,-36.5063,-22.4423,129.1561,-42.3320,-8.1812,-100.4541,-26.4471,-26.6892,-62.9125,7.5521,44.8572,-27.2783
56.6313,91.0008,27.4401,50.0194,36.6823,49.7360,34.7401,55.1233,63.6609,127.5367,0.6775,33.6621,-21.7537,59.2791,11.7273,39.8303,35.5037,110.0223,82.1024
68.5147,73.7773,54.7363,14.0906,97.4195,76.9598,149.0607,106.2667,110.4001,43.3720,15.3210,62.9320,44.1191,102.9333,69.4202,155.8422,43.6158,57.4872,89.8565
9.9111,29.5239,-8.2420,-62.6098,53.1753,38.9853,152.2430,94.7071,87.5550,63.5819,-56.0594,46.4264,9.5253,56.8703,124.2745,169.5741,-29.9843,-27.9149,20.0958
-72.1218,-5.6351,-90.6106,-105.5828,-41.6398,-11.0364,74.0440,69.4357,43.2528,153.0318,-94.8807,18.3300,-25.5278,9.1891,114.8953,182.2301,-112.4588,-14.1302,15.1468
-42.1128,-29.1156,-58.8438,-73.0998,-16.4425,-35.2198,73.5921,49.3193,46.4305,165.2337,-20.0113,19.7897,28.6854,10.4343,45.9629,144.8567,-82.3591,28.3939,72.0767
54.2050,-41.6558,2.2925,-24.8855,79.3666,-40.8580,137.9913,14.8623,75.6187,77.9433,52.4665,35.1742,77.6190,19.1141,-24.5500,-45.2867,-2.2021,-11.2626,86.2341
68.6177,-31.7117,-21.6548,-17.2472,72.1373,-40.0293,113.8275,-9.7774,69.0461,3.1653,45.4257,35.9940,64.9139,33.7882,-31.1972,-141.1184,2.4046,-59.2442,66.6118
23.2705,-7.3482,-35.1855,-18.5416,16.5990,-29.4197,49.8492,8.9457,56.4605,21.9650,32.6280,29.7988,76.6704,61.4628,44.7281,37.3302,-23.8588,-49.7320,71.5571
-9.7991,-10.4590,0.2596,-20.2888,21.7074,-8.2038,71.5416,41.4588,71.2762,64.9113,35.4325,23.7393,118.7374,53.7301,119.5669,206.9710,-25.5216,-42.8328,64.8428
-59.3371,-60.4941,-31.1666,-62.9749,13.1034,4.0890,99.1779,45.4746,51.4579,26.6613,10.0901,4.7047,112.2746,17.5173,112.1659,122.9089,-61.4915,-25.9518,22.3703
-97.0778,-100.0621,-92.3423,-91.9783,-16.8533,4.7401,73.9086,34.4647,-11.9675,-53.5790,-6.5245,-10.0985,89.2800,19.9002,66.0617,-64.1670,-97.9430,64.2742,16.1747
-59.6321,-61.9367,-63.5982,-21.0212,34.9267,39.8365,91.5651,44.6016,-29.8671,-75.3444,11.8557,19.9000,105.7153,54.2885,46.6196,-132.8519,-37.6139,150.1389,65.1805
-21.4760,17.3496,-22.8270,59.2410,103.5874,101.7003,130.4865,63.5427,4.0866,-61.1587,-0.2057,58.6383,103.4975,53.5323,46.1681,-60.3268,39.6345,121.2544,85.3350
-43.7365,49.7187,-53.8847,8.3111,84.0202,84.2991,92.6993,46.3805,11.1433,-79.9572,-41.6519,17.1175,57.8798,-4.6387,53.2059,37.7490,19.2541,22.5449,50.8622
-42.7380,35.4772,-60.8663,-104.5627,45.8136,-24.4927,34.1814,-0.9639,-21.1717,-103.2575,-24.8634,-78.0796,42.4767,-78.2964,58.8023,49.1944,-31.7798,-32.1890,17.0703
8.9861,37.3297,1.1558,-120.4040,27.9484,-82.8310,4.7630,-28.8734,-55.8924,-77.9359,44.5754,-99.2691,61.5534,-100.7459,41.6119,-23.3864,-34.0447,-12.1504,-13.6266
39.3768,65.1030,54.5144,-25.1789,-17.8569,-34.2843,-47.3718,-27.7215,-80.1155,-23.1382,82.4358,-24.4497,53.5504,-45.9264,36.9798,-78.2393,-13.1635,37.2457,-65.0571
52.3585,78.4095,78.5217,97.0967,-37.7748,31.3210,-86.6299,-18.7207,-91.0374,-6.6334,78.2787,50.9387,40.2504,39.0306,64.8983,-48.8274,26.7305,69.3035,-89.5558
76.7893,52.9832,89.6173,169.4686,5.1048,73.4105,-66.7024,-2.9181,-99.4365,-81.2808,74.1599,82.6417,65.1240,92.0979,39.1353,8.3847,85.2082,69.5223,-57.6410
70.1982,9.3907,72.4453,148.8232,22.3033,108.4393,-64.7436,9.4645,-115.0267,-186.9288,78.0888,85.9521,82.6841,82.7009,-45.1145,-1.9258,104.4031,46.8382,-29.1107
39.8065,-7.3444,57.5949,86.5126,16.2968,105.5607,-79.2852,-3.7351,-99.2128,-182.9676,83.9169,60.1754,62.7124,24.4065,-44.9272,-38.6282,88.0398,25.7233,-21.8754
47.2704,12.4274,90.6016,81.0162,66.2838,71.8724,-20.2553,-19.0900,-35.5548,-85.3146,87.9381,42.1017,56.6059,6.0427,37.2361,5.6496,103.6036,39.8779,15.3726
62.7243,45.4020,132.5672,135.1185,115.1848,91.9972,42.7336,6.0768,1.1707,-49.8986,73.8666,101.2676,67.3334,95.2585,37.7893,54.9247,139.0497,89.5191,56.1265
33.8608,86.8580,126.2210,182.0490,93.9181,164.4349,10.8874,56.9461,-30.7617,-79.9563,46.9014,187.4180,30.5784,181.9782,-30.1571,-3.9468,144.2573,113.9120,45.7914
17.9062,108.8055,84.5335,179.1805,61.7673,174.3731,-21.4870,79.3976,-56.3928,-91.6957,40.9425,163.1378,-36.7156,130.4760,-35.0469,-33.6576,135.0078,64.5108,48.9172
65.7765,62.9500,53.4211,113.6649,48.1540,93.4536,12.8615,59.5785,-28.1972,-135.1268,56.1548,54.3353,-53.8726,35.2251,-33.8896,67.5533,128.5110,-4.6384,106.0162
109.7352,-1.6558,47.4414,37.1177,23.1945,32.6134,17.7098,38.6119,-9.0236,-191.9549,57.4049,32.4090,-26.1178,43.7796,-111.0841,102.0607,98.9467,1.2521,104.6629
87.1509,-10.7839,37.8695,29.4121,15.7513,45.0373,-26.0877,42.9558,-39.4885,-106.3344,39.8600,99.5076,-12.3300,81.1995,-139.5114,-20.0723,45.7702,62.5478,4.0441
41.0909,-10.8248,3.9796,53.7493,40.0325,48.0999,-31.4060,49.1644,-73.2749,47.0027,21.9160,89.9116,-17.4622,43.0609,-45.6590,-98.6242,3.6405,66.8003,-68.7314
28.0576,-30.5824,-26.7088,23.7616,41.7707,-2.1166,-10.5361,46.0475,-77.3434,34.6002,1.5863,-1.1348,-28.1706,3.5067,18.0854,-57.4384,-10.4818,-2.4253,-62.8700
35.5428,-12.0756,-35.8777,-36.0906,10.4516,-44.8810,-23.3191,52.5300,-63.5433,-83.2633,-19.3841,-37.4908,-42.9879,0.5754,-13.3182,-12.7746,-12.6506,-63.3930,-48.8663
28.8050,1.7858,-50.7911,-86.2997,-20.9419,-63.6900,-45.9773,51.5243,-39.4196,-105.0974,-32.1330,-32.1698,-45.7241,-47.0891,-22.1919,3.4682,-30.6534,-105.3851,-45.9377
4.4534,-43.6435,-79.6971,-140.0299,-51.6204,-93.9278,-57.0912,21.4343,-23.1619,-74.3151,-58.0310,-68.4855,-50.6242,-106.1928,9.1683,2.2277,-66.0266,-147.1751,-51.1327
-20.0479,-22.8191,-98.0026,-148.7143,-78.3393,-100.0239,-73.0810,12.6046,-30.1489,-86.0071,-94.5041,-90.6496,-84.1524,-80.2636,13.6042,-30.2284,-87.3647,-119.8715,-79.7968
-27.6080,109.6599,-90.1488,-77.8873,-79.6201,-51.3760,-63.8273,62.3422,-14.5533,-66.8084,-75.9189,-53.1071,-86.8186,-36.0190,35.4991,-46.1587,-78.9950,-16.0968,-75.1408
-12.3539,167.0655,-38.5419,-24.1406,-48.6284,-21.5022,-6.8683,102.2122,46.2671,-1.2879,5.3412,-35.3476,-6.9044,-53.9961,87.1094,-45.4649,-48.7209,28.7752,-5.1856
11.0588,81.0721,52.2894,-42.2263,19.2082,-49.5009,43.1378,61.9907,73.0439,-10.5296,62.4365,-58.3173,79.9765,-59.1999,64.0033,-99.1773,7.8114,-24.4979,42.9684
21.5353,-6.0011,115.2319,-57.2154,103.3741,-64.5386,57.4932,-12.4572,40.3739,-102.7731,70.9137,-51.6312,116.3765,-9.5702,-7.5412,-148.8523,76.7023,-50.8786,51.7558
13.7392,-29.9174,107.6011,-33.5011,141.5705,-28.3961,72.7634,-19.5828,44.5436,-131.7706,79.2101,-11.5614,135.8989,25.6050,3.7643,-104.4402,103.2386,-0.3045,96.0595
-5.8869,-19.4603,68.1661,-3.7584,119.4755,16.1312,84.0700,54.2634,95.0650,-41.9986,68.2837,12.7013,118.1561,28.3712,53.1709,-38.8118,71.4545,47.9997,132.7543
-20.4621,17.7561,30.1977,14.9767,90.2754,33.1330,61.8217,106.3126,87.7607,38.5644,11.2961,9.0604,47.4442,29.2335,38.0394,-17.6866,34.4667,39.2612,96.4737
-2.8695,14.5580,5.0709,-15.2027,81.2525,3.4399,50.8233,61.0243,30.2452,-6.6382,-19.8722,-16.5346,36.0834,18.1988,28.2038,-18.5040,30.2780,-25.6413,78.3064
42.0395,-93.3890,21.8394,-111.3787,93.6599,-73.2354,95.9004,-18.0081,16.6147,-127.8661,15.9949,-48.0942,121.0886,-6.2518,85.4596,-53.8365,48.3251,-105.2994,135.7694
64.3484,-196.4471,60.3159,-172.9083,131.6068,-130.8073,145.4859,-36.2287,37.3832,-206.3386,52.7286,-55.7956,167.8945,-26.6000,131.7427,-70.6341,68.9687,-116.3701,170.7898
43.6672,-157.8902,57.1925,-130.0501,150.5053,-117.3856,148.5514,-15.7460,55.3009,-193.5657,55.3441,-49.2214,135.4915,-58.1823,128.4948,8.9272,68.1724,-59.6599,125.9751
17.2565,-33.8066,23.1941,-77.8993,97.6027,-91.6049,126.7592,-35.1667,104.3067,-107.8414,52.9452,-61.8191,114.5105,-105.5520,98.9968,27.5808,23.4968,-50.4332,45.3667
8.2126,27.7812,7.0496,-101.0736,12.0112,-116.8362,93.0355,-100.2147,161.0507,-20.2184,49.1947,-88.7528,105.8559,-141.5338,32.0459,-146.8681,-39.8191,-116.9526,-31.0131
6.4017,-12.1580,6.1892,-153.0121,-33.5805,-158.7837,43.9498,-156.3690,145.8542,-30.0881,47.1893,-117.4004,71.0648,-161.3336,-34.4153,-284.0361,-63.0718,-168.9971,-70.5868
13.5733,-70.4197,19.4499,-181.6352,-32.6991,-168.5136,10.3379,-168.6647,78.9064,-124.6666,69.0807,-147.2066,46.1013,-158.6476,-37.7630,-208.4328,-37.8314,-179.5196,-62.7968
29.8253,-79.8079,46.9812,-187.1549,-20.9461,-147.8020,-8.2287,-150.2187,22.7564,-172.5099,81.6377,-149.4808,22.1532,-108.4931,-38.2079,-107.9421,-11.6317,-176.2238,-44.0200
29.1997,-79.3303,33.6611,-167.5657,-27.5175,-110.7771,-45.8927,-131.6009,-24.4325,-139.3167,31.4202,-110.3269,-37.6356,-45.6962,-83.3428,-116.8733,-7.8771,-145.0043,-20.5674
-7.5721,-111.8561,-38.7984,-134.6849,-54.5767,-74.9087,-62.4835,-109.5940,-46.0813,-108.9794,-54.6098,-79.1873,-65.7212,-38.9337,-70.4321,-129.5737,-20.0537,-96.2577,18.7884
-65.4231,-135.3106,-98.2871,-122.4773,-71.7266,-61.1538,-16.4660,-65.5352,-5.7607,-92.2015,-105.3347,-87.9638,-20.9476,-68.6223,30.2390,-71.0036,-52.8532,-72.2479,39.6136
-95.2895,-142.5673,-93.7452,-124.4797,-61.2874,-57.7206,25.2529,-25.3403,58.6656,-45.9592,-89.4661,-102.5663,14.8638,-64.1491,82.4125,31.9631,-76.9272,-62.3658,48.7711
-61.1314,-189.1484,-32.2482,-96.1839,-39.4983,-38.2171,28.7594,-19.3906,108.4805,2.5081,-31.1691,-97.4594,16.6398,-33.1986,36.6987,83.3229,-34.5625,-56.4044,82.6515
-20.3209,-238.0669,50.3627,-35.2419,-15.9406,-14.6536,50.2075,-27.5692,154.6246,24.5880,13.6479,-90.8879,42.1606,-41.5164,-8.0111,-27.6778,34.7735,-73.7417,79.2718
-54.8970,-212.7118,84.5976,4.1010,4.0184,-11.5988,71.1762,-34.7448,164.1954,46.7604,24.6060,-104.2771,80.2299,-99.5229,5.9126,-194.9556,37.3859,-67.6742,13.1770
-106.5769,-155.1851,60.8076,-3.5530,9.9573,-12.3666,47.6725,-40.7434,110.0997,73.2946,41.8499,-135.8200,99.4939,-141.8937,47.3388,-203.0654,5.2873,9.6890,6.8875
-71.7029,-123.0735,63.5002,-17.7141,20.8820,6.7990,44.1971,-10.7033,55.1228,76.8075,68.6133,-153.9378,116.7606,-116.6170,61.5052,-114.7116,19.2666,75.2164,77.5607
-17.4964,-101.4720,82.1738,-25.7753,43.7964,13.2586,73.5146,45.5432,21.8561,38.8021,45.1626,-129.2106,101.2071,-61.4041,19.3466,-94.2866,34.6367,35.8885,86.2323
-55.3472,-110.4163,9.1567,-77.6907,29.4750,-39.8029,48.2548,31.2046,-42.4363,-41.8468,-34.4117,-93.7096,14.9120,-55.4292,-32.3583,-78.9988,-1.6847,-62.8250,34.7511
-115.2167,-159.0093,-111.8671,-160.8262,-27.6087,-120.8808,4.7601,-73.2830,-114.4551,-114.5523,-108.0778,-101.6344,-69.3412,-107.0592,-42.5611,-26.7501,-25.2034,-126.9527,28.8899
-85.0062,-153.8250,-140.4664,-180.2720,-54.7754,-153.6213,27.5994,-162.8876,-136.4013,-115.7814,-138.5812,-127.3870,-84.1180,-149.2996,-56.9752,-33.9328,4.8164,-126.6534,30.2698
-3.7432,-64.5926,-89.9381,-116.6327,-35.8547,-129.9467,27.5986,-185.9875,-138.2793,-82.7911,-116.0853,-107.0853,-76.7641,-139.3420,-102.2040,-68.5756,38.1146,-93.8482,-28.6786
48.2493,1.9171,-51.1817,-46.0269,-33.2603,-101.6479,-73.7578,-188.6841,-151.9844,-98.5260,-46.9385,-64.0517,-82.5499,-104.6927,-105.1153,-73.0117,55.3277,-87.6102,-98.2095
71.6296,-3.7373,-25.3407,-7.6111,-65.6608,-90.4119,-172.9507,-200.7837,-161.3029,-150.8066,18.6741,-66.2694,-61.9199,-90.3264,-57.6209,-122.2831,82.3471,-120.3430,-136.5091
88.2530,-31.6811,7.8328,6.8317,-88.3518,-89.3782,-187.7681,-217.8617,-166.1359,-171.6512,44.9101,-96.5001,-9.7084,-100.9289,-45.0943,-175.7845,116.1945,-131.8793,-141.4208
90.2625,-64.9683,36.4480,-6.9465,-69.6903,-105.1367,-145.7423,-230.5702,-146.3606,-140.3427,50.9092,-103.2814,22.6784,-117.7555,-71.8547,-119.0430,137.1953,-103.4693,-96.2959
66.9255,-105.0915,56.5239,-43.1620,-31.7039,-134.5148,-78.6314,-217.2402,-78.9360,-97.5004,41.5274,-111.2459,12.1843,-141.0400,-79.1832,-40.2155,138.8689,-97.6395,-39.4257
40.6940,-115.7707,56.1986,-80.7855,-27.1980,-155.1824,-41.7874,-179.8215,-34.2417,-115.6203,8.1090,-137.5843,-17.7920,-162.7639,-66.5095,-25.1550,125.5378,-141.3332,-34.5852
51.3890,-85.0406,26.5490,-115.4198,-64.7757,-170.2778,-82.7954,-167.2854,-63.6660,-192.6620,-26.3456,-120.9262,-49.6390,-145.6960,-51.6833,-1.4332,103.2041,-200.3373,-71.1692
70.6797,-52.3246,-13.8676,-139.4955,-100.6846,-201.0405,-145.5519,-208.2803,-103.0851,-199.2992,-61.1646,-62.5582,-94.0122,-98.8770,-44.3831,12.4004,57.2623,-250.0767,-126.1997
23.7546,-46.4692,-63.1670,-141.9897,-130.0064,-231.0849,-177.6832,-258.2098,-128.4973,-89.0160,-107.0388,-56.3353,-149.4026,-86.5012,-73.7778,-36.2128,-18.9265,-271.2436,-182.2452
-54.0603,-53.4093,-113.5172,-149.5658,-173.9628,-232.4138,-195.4900,-254.7484,-164.4800,-20.8831,-110.3747,-103.2701,-179.0805,-113.4068,-122.4035,-68.9537,-75.0623,-256.2541,-176.0835
-63.0047,-54.7917,-120.9307,-190.4654,-199.4266,-232.6356,-180.7728,-217.7524,-155.5115,-91.1096,-54.6460,-120.8062,-169.0281,-129.0165,-132.7529,-93.9333,-75.7936,-241.4448,-117.1879
-26.5792,-62.3103,-96.3552,-224.2852,-182.4445,-257.7011,-136.2857,-222.0433,-100.1944,-175.7560,-28.9197,-107.7274,-151.9810,-129.2596,-114.6226,-156.5648,-57.2955,-232.9586,-100.2817
-3.6973,-74.2950,-84.0954,-192.8870,-151.4283,-249.9929,-127.8967,-250.2046,-101.2361,-172.5418,-50.3971,-88.0972,-139.2465,-122.6497,-99.0411,-108.5347,-29.2529,-189.4895,-102.5321
40.2037,-61.9220,-53.8880,-136.1351,-105.0931,-176.1030,-126.8201,-226.9588,-124.7798,-134.2656,-37.7891,-48.4216,-116.5532,-94.4703,-67.6520,46.7120,26.1141,-144.0433,-52.4743
78.3682,-49.0101,-7.6595,-151.7637,-46.6713,-123.6966,-74.9888,-195.7978,-70.8237,-113.2179,-12.5092,-44.6437,-101.9295,-78.3638,-36.7608,38.6780,52.0502,-153.7970,-21.5020
26.7275,-73.2696,-25.4464,-217.8315,-26.6915,-139.2367,-42.4370,-220.2186,-26.2370,-106.8368,-49.1144,-115.6684,-104.9155,-106.3081,-43.8400,-87.3350,26.1019,-149.5095,-41.0254
-25.1604,-80.9641,-61.8329,-205.2482,-9.3586,-130.6828,-30.3387,-212.8922,-56.5875,-132.7734,-88.4059,-144.7952,-83.9698,-120.4333,-41.9615,-56.5044,53.8913,-69.1437,11.7209
45.1204,-55.6852,-0.2067,-105.9094,85.9595,-59.6922,73.2638,-125.1854,-25.9385,-181.6304,-49.8564,-75.1360,-25.8827,-83.1622,12.7046,-1.6422,159.7552,-1.8754,136.1489
127.0431,-100.0094,91.2815,-40.4834,173.9017,-7.9234,182.2779,-68.3751,88.9832,-170.5963,15.9424,-29.5782,18.5938,-39.9397,66.7344,-129.6703,217.6574,1.5046,178.3905
103.1291,-190.8961,99.4623,-25.5581,141.3702,5.0332,129.9990,-74.1959,122.4569,-80.9514,41.4342,-41.3862,16.0760,-4.4610,78.5942,-200.7408,197.1340,15.7435,126.2077
71.9681,-162.8571,88.6507,16.4080,82.1546,30.8810,27.9630,-65.9059,53.6833,-31.0500,43.2508,-12.1713,-6.9495,37.4736,69.0129,-62.4584,190.8029,46.3830,87.4929
102.2433,-46.4013,123.3427,62.1751,100.3777,55.0704,34.8779,-62.5940,0.8037,-84.7707,61.6512,38.1214,-7.7637,44.5366,46.3206,26.3851,206.7232,37.1923,72.0417
111.2033,-17.7976,149.7000,45.6633,123.3664,39.3747,63.6578,-95.0194,-19.1429,-128.5952,105.7227,16.8058,12.9871,-11.1985,12.5732,-23.1607,183.3138,22.5417,37.0214
76.3537,-53.6927,147.3060,1.1026,95.8927,2.8168,41.6247,-100.1860,-27.9373,-66.3710,138.1080,-51.9407,10.6085,-77.0391,-14.0413,-26.0649,122.7078,33.3635,1.2166
61.9979,-31.9398,132.2253,-21.3348,73.9613,-25.8220,51.6425,-76.7732,5.1520,26.7592,116.7804,-91.8205,-14.2559,-80.0707,-25.3749,-0.9862,71.3797,17.4774,8.7737
86.0412,10.5215,92.0766,-40.1081,80.6968,-36.7159,107.0744,-76.2253,67.6975,45.8429,74.3064,-78.3201,-4.1145,-10.7399,-5.1278,-71.1835,61.1622,-30.5557,70.0353
132.8561,11.1259,62.7183,-63.0644,91.5708,-31.7911,141.4908,-65.8176,111.0831,-1.2072,60.0491,-32.8176,20.8250,41.8704,46.2144,-120.8198,89.6665,-52.0730,134.4927
181.1219,24.8881,92.1870,-43.2390,106.7546,-19.4259,145.7992,-25.0416,124.4810,-33.0292,52.9550,-1.3241,-10.9856,7.8604,58.8472,-29.8068,130.1736,-14.3125,139.7101
201.4119,89.0493,148.3385,51.4980,142.5159,21.0052,136.6586,2.5450,111.4354,5.2725,53.7968,11.3019,-39.0985,-22.0365,10.3614,42.8381,187.3738,79.8939,111.6348
211.8551,147.3217,203.8712,164.3128,210.5066,91.3246,130.8547,21.6419,88.9246,61.9028,110.8541,43.3372,34.1621,36.2966,5.4315,-45.0928,272.8185,165.0134,108.1070
243.5163,144.0693,261.1603,195.9937,280.4206,115.6646,141.6798,42.3307,84.9860,48.5517,182.5798,77.0510,130.0124,84.6370,78.4182,-101.4204,331.3175,160.1464,106.4511
262.5353,103.5636,278.3474,159.4137,288.0140,80.4110,135.7124,38.6593,85.5032,20.4867,196.5094,83.4792,142.5564,63.3586,106.5048,57.8743,326.8773,124.4709,87.5195
248.2421,104.3065,253.0987,163.5546,251.5183,84.9817,112.1901,48.7172,81.6385,75.8946,202.1370,97.3765,133.3774,62.5126,59.7751,194.5292,318.3494,156.7889,97.7375
237.9718,153.8569,252.6265,202.4226,246.1208,127.6268,137.0859,98.3383,111.3353,111.5828,245.4500,112.1263,169.6929,84.2185,81.8433,57.3574,335.9181,197.6713,135.3693
231.1414,167.8083,267.3397,187.0730,255.1342,123.6104,197.7080,110.9607,159.2100,18.3362,260.9106,96.3884,206.1950,75.1354,201.6175,-128.6154,343.7730,193.9412,156.6827
208.6536,143.8701,249.8145,165.4695,246.1020,134.6432,231.6311,86.9864,172.1869,-39.4046,233.5291,117.8813,218.5039,109.7660,245.3135,-112.4878,356.5940,224.1386,182.9771
211.9624,167.5679,245.7927,216.4282,269.9996,219.7265,266.7024,119.1879,180.6274,72.4301,226.8911,191.3501,224.9256,188.9771,155.3714,-25.0692,405.2907,272.1670,232.7827
262.8293,211.4841,284.1673,257.6213,315.3777,243.3623,308.6498,167.1080,207.4930,167.2590,231.7893,194.4368,214.9392,171.7316,106.6291,36.0151,439.9480,239.2231,249.6142
305.6996,199.2151,303.3015,230.8672,301.5359,166.1904,285.2646,142.2506,182.9379,105.0898,213.6676,135.7363,199.0136,96.4794,174.1468,107.9082,408.2458,195.8247,202.5044
292.0808,187.7272,280.7733,223.5320,254.0353,164.0858,224.3471,110.5494,114.8064,61.0861,203.1178,149.1176,203.3698,113.1040,207.5269,65.6691,336.6735,236.5919,138.4609
227.0322,216.1845,246.1988,239.2474,226.1860,245.8054,206.4932,134.3181,113.2991,157.7537,201.8547,185.0721,199.2457,146.1626,159.3382,-56.0636,276.0309,255.9767,111.3555
156.7101,193.5302,205.9219,180.7281,181.0395,216.2882,192.7049,144.2973,168.3596,238.8066,172.7426,125.1157,169.5125,78.1959,153.5563,22.0034,246.2093,168.6860,129.9727
141.9873,117.9679,179.5571,84.5457,129.5903,70.5566,150.8353,108.5262,174.8262,186.1967,143.5275,46.0653,152.9059,5.0459,169.2608,161.8265,242.7683,72.4863,158.1525
180.5702,88.7412,191.0733,45.1760,136.0002,-28.2347,153.8403,67.2644,151.0565,95.7311,157.1235,27.5577,159.0068,-2.3490,105.1601,31.0893,261.3819,36.1213,167.5049
199.9133,78.9530,201.5384,21.8859,159.0737,-55.6087,213.9052,27.3391,180.0681,58.6762,181.6940,3.0937,167.0523,-15.5043,74.7920,-105.4558,285.1795,14.6279,173.8292
157.8107,25.0703,152.2296,-37.8063,129.2059,-70.8544,249.3148,10.8436,232.2296,64.7034,160.7244,-33.0151,165.3849,-33.6585,174.9676,64.1693,245.6072,-5.5134,169.0645
65.6345,-14.0338,33.5889,-91.5197,63.7568,-67.0147,221.6651,50.7661,237.2560,107.2139,82.0700,-25.9019,119.4817,-14.9320,232.0338,203.7670,108.9620,-2.0663,118.2451
-33.9601,-17.2674,-85.9393,-118.6680,-3.6932,-49.2262,165.9309,87.7407,216.9341,166.3769,0.9327,-21.0887,36.1461,-12.1370,156.8388,77.5732,9.4213,1.9295,67.1120
-60.5324,-51.7310,-87.4042,-129.4758,-34.7384,-50.8370,139.8741,60.5751,219.9266,166.5297,-4.9479,-50.1371,10.9369,-41.9743,109.0036,-24.4739,86.8728,-24.5482,72.2794
-4.5939,-108.2947,20.5601,-109.3712,-1.3705,-71.8555,140.1657,1.0504,218.4503,86.5668,35.2544,-67.3544,47.6879,-58.0929,117.4692,-4.7373,229.5305,-74.4398,61.2961
3.1249,-158.3551,57.9810,-94.6758,13.0194,-122.6807,83.0103,-73.3862,167.5704,4.9857,12.6649,-100.4970,17.7239,-100.4369,64.0666,-42.3257,239.0947,-123.9853,-24.3583
-110.1404,-255.9783,-30.0496,-145.9184,-61.0788,-200.8345,-20.7632,-156.8900,105.9058,-13.8905,-62.3451,-182.4386,-84.4576,-194.6973,-3.9154,-103.1220,132.1273,-154.2439,-90.4288
-251.9324,-402.2898,-101.2499,-216.8096,-131.2241,-233.1200,-49.1159,-168.5464,93.0643,26.8661,-97.8920,-221.4669,-127.0072,-230.0210,-5.7975,-106.0371,38.1967,-165.9199,-73.5217
-348.0406,-507.7282,-125.7321,-231.5593,-144.8394,-204.8048,-27.5289,-94.1444,96.8744,86.6439,-111.4807,-179.6077,-98.6879,-167.9450,-6.6178,-102.6498,-6.7528,-177.5798,-52.6090
-401.9242,-526.9478,-180.6361,-214.7132,-175.8879,-206.2369,-67.7090,-60.6292,65.8417,97.3030,-145.0463,-157.6702,-83.4797,-134.2599,-9.4189,-88.3882,-12.9368,-186.0603,-82.8862
-400.6877,-475.1010,-208.3608,-209.1756,-199.5962,-237.7422,-91.4408,-108.3506,38.5277,29.8556,-148.9973,-182.8484,-68.7831,-164.6829,49.7193,-108.0389,11.9719,-158.5419,-116.4605
-372.0555,-402.6324,-159.4683,-201.6087,-134.6976,-202.1688,-7.4479,-127.3805,52.7648,-36.3241,-126.9907,-179.1441,-19.5101,-147.7002,102.7561,-235.1815,35.8026,-90.9048,-95.3321
-381.9118,-386.0533,-133.7261,-185.3706,-42.3262,-118.5294,76.6137,-83.9424,60.6949,-27.2806,-150.8630,-145.1665,12.0334,-74.4602,85.0594,-277.3914,57.7002,-35.5165,-18.4802
-388.1397,-417.7852,-154.0404,-172.7507,2.4297,-89.2517,94.1825,-57.9692,29.1725,-2.1003,-189.9556,-139.9107,-11.4348,-61.1767,54.5511,-90.4893,93.9706,-38.6470,45.3056
-335.2954,-416.7174,-156.5351,-160.2045,6.8193,-109.3678,85.0570,-63.5505,-12.2596,-35.9585,-189.2527,-163.3844,-56.4564,-115.1563,21.9047,73.8218,87.2442,-80.0896,30.0872
-315.9777,-391.3245,-197.2143,-146.4590,-60.1083,-110.9866,7.5715,-34.8939,-42.2115,-63.2346,-204.6666,-171.9822,-98.0003,-125.0926,-36.1987,49.9262,-8.4850,-109.3769,-24.1213
-389.8819,-388.1127,-313.3367,-143.0841,-192.2844,-98.5454,-116.0898,30.9132,-37.8720,29.1039,-258.5549,-149.8431,-141.5126,-77.9679,-71.4456,-10.2513,-126.7528,-117.9955,-47.2256
-445.2117,-372.1996,-387.7695,-164.4947,-278.8709,-120.6174,-136.3804,45.2161,34.4264,202.2197,-279.7870,-137.8923,-191.1068,-79.1639,-91.8229,-60.5261,-196.0646,-142.3451,-59.3705
-407.1663,-338.8258,-372.6349,-214.5258,-306.0586,-189.5194,-92.7390,-40.3346,129.0440,276.6272,-267.7423,-180.6955,-241.6382,-153.5391,-143.6528,-140.3628,-211.1661,-205.9321,-91.8230
-340.4444,-334.3169,-346.6455,-252.9725,-351.9427,-263.2354,-144.7585,-144.5882,148.0634,171.9042,-275.9215,-230.3437,-279.2996,-203.1189,-160.4920,-155.4265,-180.1922,-273.7940,-124.8140
-301.2141,-327.0906,-332.3130,-238.9243,-392.8347,-284.1651,-234.2474,-173.6922,87.3575,29.6017,-282.7637,-212.9328,-303.1077,-184.2794,-127.4343,-111.2440,-150.9876,-287.6945,-167.4309
-288.1056,-301.2285,-324.2755,-225.1541,-405.6911,-258.0122,-264.6288,-158.9716,25.4358,-9.0481,-261.7434,-181.5554,-330.9088,-170.0193,-158.2556,-97.6466,-197.2505,-268.4124,-227.6704
-286.8784,-328.7940,-348.8364,-281.0534,-445.5385,-250.6759,-301.0941,-162.9467,-1.7713,-3.4901,-246.4960,-216.0701,-350.2104,-195.4029,-217.8233,-58.4034,-275.0712,-295.4552,-240.3831
-265.1824,-372.4845,-360.1703,-346.3234,-457.4470,-273.0977,-322.2144,-155.4928,-10.7823,-25.6019,-242.5392,-243.6876,-324.5916,-186.6862,-171.2667,-24.0919,-262.7807,-333.1492,-171.9243
-209.3759,-306.3629,-294.5415,-316.3892,-349.4776,-263.3136,-233.0053,-106.0271,-7.8660,5.7371,-218.1202,-174.1305,-267.3880,-107.6033,-95.5630,-116.1412,-168.3671,-262.4547,-87.1117
-153.4101,-171.8721,-201.6000,-210.7044,-216.7860,-202.2820,-126.2291,-59.4976,18.2456,108.2824,-171.6433,-78.7681,-220.5617,-42.5609,-114.7336,-162.2912,-97.8150,-139.9364,-44.4285
-114.1669,-108.4087,-149.2042,-133.3238,-171.3414,-147.8415,-109.6133,-47.3068,60.6087,136.7119,-118.8846,-56.5508,-180.4217,-57.5085,-140.7439,-10.5401,-68.8272,-143.1583,-47.2182
-82.6470,-136.3007,-135.6687,-139.9163,-162.7687,-153.5472,-115.4061,-61.4470,74.0533,45.6303,-74.3647,-90.4330,-132.9713,-105.5855,-89.0566,58.3645,-53.0075,-248.6260,-82.9836
-74.1356,-200.7095,-157.9127,-200.6952,-158.9841,-209.5858,-119.0552,-103.7789,19.4499,-50.4170,-56.5424,-135.4079,-106.7547,-138.0889,-33.8328,-93.3837,-104.3652,-294.1260,-127.0999
-91.6312,-245.1200,-205.2458,-247.1171,-202.4139,-250.4606,-179.7167,-153.0143,-72.6594,-115.4311,-60.4565,-176.8331,-119.3955,-166.6470,-30.8257,-156.4629,-256.9793,-275.8270,-149.9686
-93.7563,-220.5852,-223.8109,-245.2465,-249.1154,-224.2062,-237.0640,-161.0588,-132.6062,-195.1125,-65.3620,-181.6727,-136.6611,-174.1440,-59.1602,-55.0475,-392.8776,-266.1353,-131.8328
-58.5569,-162.0593,-189.8113,-206.1220,-215.8942,-156.2123,-196.6065,-126.7401,-126.9898,-239.0528,-68.6212,-134.2081,-128.6289,-127.1362,-82.0199,-44.0843,-381.8811,-220.2985,-65.1493
-13.5706,-124.5854,-140.0036,-130.1801,-120.9970,-98.3345,-102.1144,-83.2481,-65.0779,-162.5653,-71.4437,-83.6056,-112.8014,-73.8363,-56.9600,-89.9842,-270.3633,-106.7453,9.4225
13.2229,-60.9413,-111.2920,-34.1548,-38.2897,-55.9022,-44.5900,-45.8603,11.9768,-9.9537,-75.9599,-67.2082,-114.8832,-69.4829,-16.8035,-7.6455,-192.2500,-10.9976,27.8529
23.8695,30.2431,-107.7602,1.1761,-5.5019,-33.0840,-43.6560,-32.4091,41.2238,82.5167,-87.5915,-64.5614,-121.5605,-78.2317,-36.7148,69.2460,-186.8758,1.3944,4.3639
31.7982,30.1531,-104.8786,-62.8685,-6.3850,-60.8315,-54.5887,-55.0293,11.9227,45.2056,-75.2505,-69.1501,-99.3646,-74.6030,-43.8650,-7.9079,-213.9888,-47.1390,-4.9464
38.4025,-58.1339,-79.8923,-144.7487,-1.4290,-116.9219,-28.5821,-84.4600,-11.5317,-49.5272,-12.4187,-99.2252,-44.4227,-91.4340,66.0063,-84.0268,-231.8648,-90.6630,-8.9760
46.1456,-97.4309,-38.6769,-163.7229,12.9049,-129.4670,11.8423,-94.8951,2.2927,-90.8325,42.7002,-123.0165,14.4820,-104.2365,178.4429,-40.6208,-197.4814,-64.9236,-26.7251
75.6031,-75.9457,12.3723,-128.6330,17.5185,-87.9081,13.8219,-99.7598,14.0735,-74.4056,41.6129,-92.5188,50.0755,-64.8299,153.3328,6.4246,-113.1193,-3.1733,-34.4804
127.6042,-67.6314,64.8647,-83.3135,22.8437,-49.0659,-2.5611,-113.9242,12.7673,-44.9836,43.0521,-41.3448,55.1137,-27.5149,72.3771,-21.7771,-54.1799,-17.2947,-36.1428
170.5644,-46.5778,82.9403,-56.6937,26.4836,-43.3459,-3.2975,-134.1123,30.0212,18.6051,89.1834,-22.0590,49.0092,-44.2858,45.9430,-44.9154,-44.4988,-95.0308,-45.0401
202.3895,35.3910,73.3921,-26.8462,9.0476,-41.9355,-5.2001,-134.5997,48.6720,105.4970,130.5821,7.9437,63.6363,-39.2307,51.8719,8.1935,-16.0360,-102.3833,-32.4553
240.2257,141.6529,91.5370,58.0809,8.5741,-4.3691,-1.3249,-82.3032,17.3468,105.7493,136.7039,95.5820,92.1714,46.3077,63.1680,88.0975,46.3744,-28.8756,-2.1026
256.4128,191.2310,112.0284,144.8825,51.2127,51.2098,20.9090,-13.6037,-41.0614,-15.1919,117.8967,167.3512,88.4143,127.1979,72.6654,85.0535,86.9571,-0.3007,10.4201
229.1327,127.7138,74.9423,108.3619,67.6191,50.4966,23.9831,-5.7631,-39.9352,-128.8134,69.4913,144.9915,42.5650,111.2920,40.7869,-22.4350,91.4114,-53.1885,22.5280
182.5555,20.6643,25.6657,-11.6294,16.9143,-14.9781,11.2957,-26.0250,39.0277,-90.9405,11.4156,82.5187,-9.0731,36.3977,-24.1582,-105.1660,65.8363,-93.8970,40.8086
120.5725,22.9717,3.1383,-61.9841,-49.0169,-57.2729,22.4245,8.0286,124.6754,107.3256,-20.0423,56.9035,-49.3259,-8.7063,-58.8006,-54.9185,3.7217,-71.2961,24.4672
55.1031,106.7047,-40.4990,-58.5746,-91.9832,-56.6067,32.0895,37.5621,184.7571,289.8381,-39.8613,43.3538,-74.5022,-21.0681,-29.5308,33.5033,-49.7853,-56.6334,0.2530
47.9182,89.7237,-80.0822,-110.5249,-94.6425,-88.7355,32.1328,-20.5157,239.4787,242.7891,-52.7889,3.8683,-62.7334,-54.3155,67.0843,15.9753,-49.3168,-105.6888,17.3302
79.6348,-16.4369,-51.7169,-171.4033,-42.1774,-136.4704,55.5354,-78.4740,237.2602,9.5388,-17.4443,-23.9192,-21.7386,-86.0312,165.8528,-45.2930,-34.0364,-135.7688,17.9580
55.6514,-47.2604,-16.2920,-149.2469,3.3478,-108.8918,36.9662,-53.9843,116.6202,-153.9912,46.7196,-8.7735,0.0190,-55.3154,119.0044,-21.5430,-28.9849,-73.8284,-41.6942
15.9133,-5.4889,-10.4765,-86.9835,-15.0543,-42.9796,-68.5090,-39.3578,-19.8883,-158.2573,80.0373,10.2061,-6.6927,-13.3029,-74.9007,4.7245,7.3917,-12.3117,-90.2184
57.4761,13.1745,45.6387,-51.0198,-25.4273,-34.7219,-128.0987,-96.2854,-35.2158,-114.4754,97.3759,5.4960,-5.1979,-37.0342,-189.7806,-84.9199,65.6451,-28.9111,-96.6113
100.2132,23.1331,114.4644,-35.3139,20.9134,-59.0093,-83.8468,-141.5077,8.7316,-85.7122,113.8807,13.0394,5.5956,-62.6425,-122.2579,-168.8322,82.3519,-49.2344,-115.4337
42.3838,45.4436,67.7766,-34.7672,38.5312,-69.5260,-73.7645,-138.9369,-7.4631,-98.2205,78.8059,41.6426,-9.3784,-30.6069,-38.7921,-119.2217,50.5224,-51.1137,-144.3823
-24.2045,50.7700,-36.9011,-53.1074,-14.3908,-102.1306,-122.9489,-135.0915,-35.0442,-162.8189,7.8045,31.5899,-44.0010,-24.4010,-34.3743,-42.7716,12.7202,-102.7749,-132.1105
-3.6479,59.5959,-64.6481,-61.9705,-67.8606,-144.5839,-108.3055,-108.4135,10.5601,-153.3033,-8.1925,-23.2384,-46.2414,-66.4539,-10.9793,-22.2702,3.4825,-147.3306,-79.1003
40.4762,79.0969,-40.1730,-42.3317,-76.9484,-126.1051,-36.0944,-23.8699,84.5573,-3.9790,26.6035,-36.2126,0.1316,-52.9045,42.0138,6.7744,27.6193,-102.5349,-21.2357
42.7906,47.6864,-27.8415,-20.9053,-47.1379,-71.1548,4.7766,45.7829,116.6341,90.5372,34.6901,14.1422,44.6752,7.8233,26.5845,13.3968,46.7065,-57.8008,11.1914
38.0018,-18.7513,-7.6861,-29.2672,6.8390,-46.9909,16.5303,32.4379,93.2066,12.1834,28.3687,48.2901,54.8287,22.8585,-18.1906,-59.1808,46.0838,-66.1551,8.3848
72.0246,-11.7040,35.9579,-37.0647,48.4839,-23.7183,11.5360,-10.4500,15.5534,-85.0936,70.7494,56.5848,70.8066,33.1807,14.4187,-76.5690,81.4826,-20.0424,-1.2804
124.3669,82.8685,90.8420,27.3932,59.4461,35.1149,-22.1882,-10.0891,-72.6390,-118.3568,133.7654,100.7302,113.2279,87.5711,67.4335,37.7433,149.6680,80.7617,3.1292
117.7474,147.2742,129.6853,127.4625,56.6304,67.2361,-50.1329,16.0067,-95.5696,-160.9538,133.8711,139.8979,121.5568,91.0192,30.2610,112.7658,149.2636,91.5978,-4.2028
29.8106,102.8712,94.2575,112.8792,31.3657,24.4300,-61.2791,8.9547,-75.3152,-188.7231,67.7991,89.8332,66.8577,19.1714,-50.1100,47.4855,64.8091,-0.3342,-39.3040
-37.5041,29.8084,-4.2848,-12.5502,-19.4288,-32.4753,-90.7188,-35.9424,-105.4749,-140.0483,16.5947,13.1995,16.3357,0.9410,-66.4176,-36.6803,-5.8422,-61.6169,-79.4643
-11.9416,56.8194,-57.5043,-55.9689,-46.4783,-31.6004,-112.5593,-60.1148,-169.2577,-63.8804,18.9308,19.5253,15.3345,53.6697,-20.7699,-36.9880,-19.7274,-23.6567,-97.5686
41.5112,151.0116,-31.0921,13.3877,-28.1679,4.8070,-83.8009,-30.9351,-172.0642,-24.6003,22.0175,60.3966,29.0610,44.9763,14.6118,19.9275,3.1206,57.8890,-75.0603
65.0361,167.3116,5.2380,32.0369,5.6715,20.7110,-50.6901,4.9111,-137.1603,-63.9920,-14.5729,33.1003,31.7084,-32.7153,-5.4220,37.3037,50.6503,100.0568,-30.0860
63.4101,102.2501,16.7210,3.7801,37.9278,39.3113,-71.4232,13.1535,-156.8150,-162.8905,-54.0879,-18.6074,31.8560,-35.0428,-63.6040,-56.2218,84.0091,108.3137,-17.1635
18.4634,65.6637,11.7230,62.0280,51.1738,105.5822,-116.0205,37.1496,-188.9955,-157.7175,-56.7332,4.3814,23.8860,64.9614,-92.2769,-150.9229,75.2102,142.5568,-30.1472
-43.6418,59.8279,1.0805,136.7041,34.9893,146.0759,-114.4982,86.1376,-134.2973,-3.8796,-36.1434,64.3023,5.9372,119.9481,-66.6638,-77.7180,75.1275,154.3712,-5.0526
-36.4794,46.3634,13.0843,89.6312,32.6508,67.0121,-55.7946,85.7908,-55.6656,47.0378,-25.2748,62.0461,1.5117,65.0792,-42.6478,73.0188,113.3669,65.3230,45.8320
15.5546,80.1566,41.9656,9.8746,58.9205,-45.7013,-4.1876,26.5142,-70.0192,-99.2538,-36.4622,21.9959,20.0091,19.0191,-33.7700,114.1653,140.5260,-24.8603,57.1874
26.4817,167.6259,48.9032,23.6780,59.1061,-53.4650,-0.4425,-2.3351,-119.2858,-190.6908,-43.8723,26.4953,44.4974,50.1695,-0.6088,93.3880,136.2244,-8.5490,33.2219
32.7215,214.1203,58.1562,61.9585,31.7625,1.3580,-11.2216,19.2843,-109.6329,-138.3994,-15.1518,50.3444,54.4527,67.1983,11.9006,78.8617,125.7883,17.6635,1.5545
76.0483,204.3809,90.9417,47.8007,15.8703,16.4692,-32.8227,17.6430,-109.0026,-110.4552,13.4496,35.6725,32.9871,28.9784,-42.2213,-11.3244,109.6758,-17.3461,-52.1774
90.6463,206.3968,78.7442,40.2080,-18.1875,12.0251,-98.2009,-23.1302,-158.7166,-118.7309,-22.0364,20.8529,-12.2282,13.6965,-68.7036,-118.3682,94.0334,-29.3393,-113.7206
73.2755,229.7498,17.7061,77.4852,-69.1358,21.2675,-144.2364,-45.0202,-139.5760,-88.3063,-83.4630,41.6384,-39.0592,37.6023,-19.4406,-94.3547,110.2036,-7.1449,-123.7062
94.2516,243.4502,16.1157,111.8663,-47.4602,20.9731,-88.0284,-18.8659,-22.7796,-78.3101,-80.9973,57.5168,-25.2477,53.5013,-1.5634,-24.4079,154.7414,-2.6814,-53.4006
124.9513,234.8705,78.7173,118.7347,45.7400,31.4470,8.7429,42.5447,49.9992,-77.5146,-27.3457,66.4654,-0.6637,78.0327,-25.4299,1.5145,192.0127,30.5052,66.8137
115.1650,205.3659,97.5210,112.4162,105.0541,73.9941,60.2694,113.5602,38.3089,4.2294,2.8745,102.1393,5.9792,122.2116,20.1790,104.2827,199.6812,96.6039,164.2794
113.5327,189.0932,59.4895,94.9641,105.5604,96.8551,86.1289,157.0005,47.0180,100.8191,-7.6544,122.8995,3.7931,135.4403,100.5623,250.0637,176.1091,102.0833,184.1719
141.6369,206.9447,25.3008,66.2140,85.5016,79.0748,95.9916,153.6667,108.2100,130.7859,-40.7128,91.1537,3.3430,111.0764,111.3377,220.8125,139.6617,49.2207,154.0917
144.3588,205.3338,-7.6089,22.7607,42.1413,49.3402,65.6710,118.7971,166.2329,130.9257,-78.7210,57.7241,-6.8591,80.7365,99.9419,64.4676,105.3682,-0.2175,119.1917
115.1908,168.7999,-48.8379,-44.1575,-7.0983,-1.2911,30.8217,74.6446,189.7473,87.1836,-85.4836,48.9600,-25.5168,48.9836,117.3135,0.6569,71.4509,-38.8195,70.5866
99.5173,181.7070,-50.3627,-84.1105,-10.9004,-45.6708,20.0498,51.7344,164.7943,18.8304,-43.1226,46.9573,-21.9483,46.1090,97.7184,39.1576,66.8047,-13.8072,20.5251
110.0147,262.7958,8.2589,-11.5286,23.8719,0.8382,4.5345,76.1516,91.2657,74.5658,17.4581,81.5870,11.9485,92.4696,27.3938,108.1769,124.5340,109.8910,9.5137
124.6813,317.7624,79.0712,135.7430,61.0916,105.4058,-11.0102,114.8530,4.0910,206.2607,65.4618,151.8337,37.5223,119.7623,-34.5349,187.4850,198.0078,210.2554,13.4795
119.1784,304.8788,127.8262,214.8445,108.7043,153.4852,3.7385,120.0527,-66.9571,190.4245,95.0806,178.1573,41.2456,105.5524,-59.3856,175.4171,240.6553,225.2479,9.6791
107.7176,280.8971,182.7261,216.6803,179.0474,166.5454,47.1075,123.5253,-95.6136,96.0920,116.3219,165.7109,63.8911,135.3315,-12.0775,62.3410,295.3907,272.3360,41.7177
141.1804,302.7080,265.1140,274.7659,243.8197,229.1349,109.7094,170.0480,-54.2524,132.8430,152.0011,207.1794,112.3751,214.4317,92.6705,48.2386,362.5160,364.5087,88.6144
205.3022,363.7664,320.8368,388.5644,250.9053,300.8503,146.1472,215.4212,7.3223,198.3659,193.8870,285.7037,138.3370,250.8568,118.0691,149.9285,344.8471,368.0316,71.5620
218.8132,391.5142,293.9833,399.7835,171.4065,302.6016,97.5543,209.1635,12.5207,153.9044,195.3257,297.7534,130.9099,224.9556,36.6013,162.4754,232.9465,277.9709,31.7428
176.9431,346.7452,224.3781,281.6909,61.1512,244.7981,39.0252,189.1480,9.5479,147.4265,156.6220,234.3115,120.6475,175.9006,24.5911,125.6741,154.8170,207.6059,60.5644
136.0375,303.3081,174.8463,180.6841,18.8492,181.2514,90.6328,206.0107,75.2371,260.5212,124.1950,183.1601,109.7467,140.6255,142.4401,205.6448,199.9000,195.3229,120.5987
82.0356,298.0770,131.0920,153.1814,40.5698,147.2738,180.5359,240.4418,145.5446,336.5804,95.6274,202.6100,92.8330,169.1625,242.0074,273.1024,322.7564,199.4781,129.8275
-7.6166,245.3146,66.3797,112.2431,30.0329,125.9769,173.9992,244.7423,145.2968,311.5649,47.1064,240.6254,79.5604,222.1095,235.8879,199.6025,403.8375,166.5550,90.6301
-65.6521,155.7644,15.8394,37.4723,-26.3812,67.2373,115.6599,215.3749,124.2432,265.6806,10.9752,193.4204,58.5087,176.9642,161.0402,161.3817,385.5272,102.8108,50.0915
-44.7990,168.3421,21.7477,21.2024,-43.1525,3.5972,98.0819,193.0849,118.7223,221.7179,18.5246,88.7061,33.5936,72.9707,85.6849,227.5296,352.7076,98.0772,45.4825
-4.2904,261.0313,70.6176,87.2282,2.4126,25.7549,89.9371,187.2905,83.3770,179.6454,42.5921,69.7431,49.1553,66.0893,95.6513,215.0219,380.2232,159.2721,59.2759
-2.0268,267.6446,104.7452,128.6129,37.5912,107.9869,43.5824,150.3525,19.6946,152.3024,50.1880,119.9256,93.9425,125.0077,164.8024,109.9058,384.8526,162.6223,21.0573
-15.3594,172.2575,84.0692,76.0883,26.4667,165.7177,-14.3943,82.9804,-20.1665,92.9171,33.7277,75.7002,101.9407,116.9592,127.6586,63.3930,304.8287,99.8863,-52.3998
-14.4899,85.1455,36.1167,5.7172,9.2995,219.4052,-42.5054,68.7347,-37.6087,7.3396,-2.9951,-47.5164,76.0994,69.3267,-10.5889,85.0809,232.4007,93.8579,-53.2821
-25.0757,56.4392,2.3334,3.5642,4.1934,284.6966,-29.7310,126.8621,-53.3373,22.5469,-39.7145,-87.4716,60.0428,60.4366,-45.4309,141.0120,215.5357,139.7578,11.7764
-62.9657,91.7820,-21.6772,42.3103,-7.0643,292.4717,4.5001,176.5497,-41.6116,156.0676,-52.1221,-41.9370,50.8629,73.3071,29.9385,227.4785,202.4222,154.1913,49.8926
-73.2869,158.4957,-18.2078,76.2579,4.5612,264.2662,39.5094,194.4035,4.5296,232.2930,-34.3214,-19.0960,58.6439,95.5574,35.6819,221.2654,205.3758,166.1222,72.8075
-29.2699,161.4218,45.8213,107.5438,64.2516,289.9183,69.1079,221.6749,25.5877,159.7421,-0.0643,-27.7989,101.1799,129.9476,-15.3894,76.1074,227.3133,193.3886,102.2766
-21.6859,72.4619,89.6858,94.2096,90.7179,315.1415,68.6637,225.5415,-9.4236,63.2294,11.1456,-43.6758,113.6629,129.5162,10.4732,6.4081,173.5566,147.5882,75.3960
-128.1901,-48.8471,17.2890,-17.7699,21.1250,238.9750,31.6945,144.4421,-34.6567,56.1515,-32.4247,-87.3908,57.0742,82.5059,74.2329,114.2787,55.8616,7.1773,22.8941
-291.5686,-191.1537,-85.7955,-155.7703,-57.7896,104.1852,13.4849,14.5942,-1.6187,84.0068,-93.5583,-135.4135,16.8834,38.7602,68.8200,201.2879,0.4053,-134.9867,38.7390
-419.7315,-326.9254,-112.2749,-210.9434,-75.5827,-28.1972,14.7500,-86.0484,18.1940,63.3136,-118.9925,-132.0006,27.2609,14.4204,0.7608,138.8650,-13.5955,-213.8423,52.6506
-474.5210,-354.5280,-133.8837,-208.2457,-95.8825,-180.7479,-38.6757,-133.5365,-36.5155,8.7960,-130.5139,-95.3735,8.5682,-0.5430,-78.6547,11.3307,-87.9453,-235.9862,-28.0133
-454.0281,-309.2774,-209.3084,-215.5643,-145.9458,-320.0937,-116.8121,-140.1542,-88.9229,-37.8593,-163.8128,-95.0022,-40.1652,-5.7921,-121.4185,-80.2993,-185.1549,-226.9861,-102.2077
-423.3706,-350.4197,-252.4742,-211.0837,-164.9948,-351.0601,-129.7858,-127.5518,-63.3534,-61.4456,-193.5180,-145.5333,-48.5131,-16.9873,-86.1285,-69.9046,-257.1337,-193.1212,-82.2075
-465.6217,-454.2757,-238.5278,-167.0631,-153.5947,-279.3580,-107.0196,-115.3399,-13.7396,-34.2314,-196.7603,-178.0212,-33.6495,-28.4812,-22.1431,27.8921,-353.5068,-132.0473,-44.4127
-523.1479,-476.2506,-243.7389,-122.0527,-147.7002,-201.7034,-79.8674,-96.4780,-2.6143,32.3629,-184.7053,-139.2708,-23.5930,-2.5479,-21.8721,86.9409,-444.2825,-85.0289,-26.5561
-478.9221,-439.2866,-259.6220,-109.6669,-126.7154,-168.6284,-5.0573,-61.7215,-16.0134,45.6302,-156.0876,-92.3391,18.1184,35.5542,-62.1008,82.5627,-433.3059,-94.4674,14.6240
-376.3259,-427.7378,-231.7014,-121.2521,-95.9787,-162.1421,55.0128,-30.7236,-36.4169,-16.7499,-119.5867,-119.9405,60.9185,21.0936,-56.0774,85.7070,-364.6262,-110.2158,52.8203
-328.7531,-405.8290,-195.3207,-129.1290,-92.1845,-153.3030,28.7880,-13.4577,-42.8395,-42.4120,-111.2487,-172.4456,35.2292,-25.5881,-10.9445,14.6881,-341.8130,-74.0424,65.1965
-321.6176,-348.1675,-189.1426,-93.9310,-81.6604,-119.9462,42.9857,14.0754,6.1796,22.6036,-128.0692,-154.1844,-3.7300,-29.7382,13.1537,-144.5668,-336.6465,-17.7978,115.0187
-291.4779,-286.1606,-172.5408,-2.3374,-37.6534,-47.9293,164.4701,66.5625,84.3849,106.6685,-126.8289,-78.2468,19.7066,21.8469,19.9176,-131.7125,-284.0598,29.5362,193.8056
-246.1303,-214.0918,-125.7869,85.5786,-19.6588,30.5702,226.5649,110.2358,120.5822,160.0499,-99.3200,-24.3027,43.3680,64.3652,43.1678,74.3819,-224.9444,58.2683,195.6024
-211.7314,-171.2176,-101.3811,89.2946,-47.9332,35.3026,164.1097,82.9329,118.6527,164.5688,-75.9769,-45.7141,7.1017,27.4318,59.4156,120.3559,-214.0886,12.4083,111.4162
-192.2485,-228.9025,-130.5709,22.9308,-69.7728,-44.5235,101.3999,-17.7289,102.0177,85.8156,-76.3377,-129.2071,-22.8804,-59.9352,24.3940,-18.2460,-212.6291,-76.7137,35.9409
-181.4289,-293.6028,-164.9456,-1.3254,-74.0314,-93.3766,68.9898,-88.8509,38.1179,-19.8159,-89.2266,-171.2291,4.2295,-79.1232,-25.4679,-40.2764,-165.8931,-63.8436,10.4613
-155.7350,-232.4546,-144.2595,72.0538,-69.0003,-40.0663,39.0014,-55.6328,-50.8458,-33.9678,-83.9532,-98.0413,32.9835,-4.3620,-11.6678,-19.8529,-94.4777,37.5061,23.1144
-105.1241,-132.3849,-78.2970,150.4191,-28.5654,29.1449,63.8577,6.2396,-73.1519,14.0032,-52.9783,-2.3874,17.2144,53.9352,37.4339,-159.9725,-37.1056,56.0017,68.6561
-57.5576,-118.4045,-21.6165,137.2206,25.2528,31.1996,117.5255,0.3836,-28.1131,1.9450,-31.2261,4.4437,-10.8905,38.0788,21.5164,-218.5122,8.8758,-25.2311,106.6141
-40.8293,-135.4882,-6.5321,73.3185,23.6696,-3.2997,96.9752,-42.1576,5.4292,-44.2683,-44.2245,-37.1172,-18.2120,-4.0734,-34.6082,-19.4333,25.9932,-84.5515,85.8265
-63.0909,-124.7483,-43.5227,40.8900,-31.1367,-29.0013,34.0260,-43.9894,17.9157,-6.0806,-81.0412,-50.0492,-23.5698,-28.7455,-16.1431,127.0587,-25.7260,-84.4569,42.5537
-99.2847,-106.8485,-118.7108,52.2275,-76.3596,-27.3523,18.4919,12.7182,42.4868,103.5296,-118.0099,-24.9187,-42.1023,-9.4622,55.0626,59.2428,-99.3880,-44.6378,41.8559
-86.1127,-58.0020,-170.3592,83.4283,-85.0595,11.3429,32.4057,90.5872,61.6808,164.6493,-121.6598,18.3859,-47.6090,43.7150,55.9141,-3.4481,-105.6196,12.5510,55.3893
-16.0426,6.9288,-158.1063,89.7298,-73.2019,43.5238,34.0088,118.5468,53.6183,132.5978,-83.0617,21.1431,-32.8466,48.0767,-14.9386,-18.7231,-61.1482,32.9559,30.5477
35.1532,-1.2462,-114.4638,40.0940,-55.7510,32.0454,25.3056,71.0283,37.6645,66.4396,-52.8567,-43.0174,-26.2007,-5.5990,-61.6211,-89.9770,-18.5062,28.0613,-0.3524
51.1161,-30.0683,-58.6767,17.2713,-29.9759,36.2861,5.4396,27.9450,19.9959,11.6046,-49.6270,-62.1711,-15.6166,-6.8204,-61.7589,-79.3870,47.3449,71.8996,-4.9834
80.2573,44.8095,12.1111,109.6414,3.6406,90.0335,-26.3323,37.1358,-25.4530,-35.6043,-19.3579,26.2695,23.5157,43.3871,-53.2263,77.6583,120.2598,127.0670,-33.4027
94.6503,145.1660,36.8644,214.3756,17.9740,123.2152,-77.2522,32.3839,-98.4920,-43.6417,22.0668,87.5088,32.2697,30.5802,-54.4585,134.0070,110.5694,112.5214,-107.5107
56.0216,145.0584,-17.7066,193.9641,1.6221,107.0576,-150.6495,-3.1729,-151.6520,25.7553,-8.0445,46.6576,-36.1790,-20.2221,-83.6406,21.4803,41.7220,72.4567,-150.7876
28.2029,108.4845,-54.2023,106.7508,-4.7888,77.4278,-182.1283,-8.0958,-152.1869,84.8745,-69.9678,6.7120,-93.7847,-14.7794,-141.6286,-32.9199,24.7495,58.1433,-114.7326
48.7407,98.5815,-11.2559,59.2749,18.4579,31.7607,-128.4437,-3.3941,-129.8126,19.9441,-62.3134,5.2594,-66.6246,1.6584,-166.4049,-17.7598,53.2744,38.2167,-63.8143
64.6554,62.0773,26.8486,40.6111,29.5310,-17.9914,-80.7999,-35.0106,-131.0352,-102.8435,-25.7891,-16.8199,-31.1778,-34.8020,-123.8730,-95.7471,54.2123,18.2435,-70.6187
64.5691,10.8268,3.5485,17.5508,5.0485,-34.7179,-113.7394,-57.5853,-162.6885,-171.6428,-42.2343,-57.3414,-57.7341,-92.1850,-91.6919,-154.5174,31.4929,4.6737,-115.5243
74.6143,-3.7594,-29.9302,-23.4732,-34.2413,-61.5044,-168.7473,-65.3523,-208.2436,-224.9779,-70.5199,-95.3031,-101.3452,-147.1372,-128.9458,-43.0615,3.6118,-65.0134,-146.1105
72.4532,-13.7178,-42.4849,-85.6617,-76.9312,-119.5812,-201.1431,-116.0835,-244.3673,-271.0865,-65.8887,-115.1388,-130.6398,-173.4297,-157.6459,30.5133,-37.6618,-156.1980,-171.8553
48.6449,-14.6532,-55.7906,-92.9874,-122.2508,-113.9552,-237.8535,-162.7756,-237.5888,-190.3952,-70.7948,-62.6299,-174.4177,-119.0293,-112.6486,-98.7239,-67.8812,-142.9870,-229.5272
34.9715,45.1865,-75.1899,-4.6079,-166.6582,-49.3032,-281.3368,-143.2604,-192.5439,-18.4651,-93.8670,21.9272,-222.0576,-47.6488,-85.1093,-185.3044,-75.2687,-74.7856,-291.7759
41.5187,99.6652,-81.0322,37.1082,-200.4964,-72.8606,-313.3948,-148.3645,-163.0209,25.0389,-82.1646,11.5869,-227.2922,-75.2409,-148.2285,-68.7416,-87.7420,-115.7168,-298.3563
68.2391,58.8072,-58.3100,-70.6298,-190.0942,-186.4610,-320.0280,-244.0288,-162.3889,-110.3066,-34.8463,-65.9578,-189.5412,-155.3738,-188.4123,1.4549,-92.7139,-233.7781,-258.4420
96.8867,-25.8293,-36.6081,-198.4512,-140.2567,-243.3310,-287.4294,-323.6068,-153.9066,-254.4850,-17.5695,-99.4799,-153.0505,-184.5836,-109.8676,-114.6869,-79.7271,-261.6285,-232.0124
61.3220,-76.7489,-77.5915,-219.1547,-135.7619,-208.6581,-255.0921,-297.1633,-139.2479,-289.2413,-65.0527,-117.7025,-151.8618,-183.1677,-31.3028,-187.7419,-107.2309,-182.1946,-233.1722
-30.3264,-87.9223,-158.0682,-181.0950,-186.3401,-150.8501,-259.6131,-209.8750,-136.1595,-230.8085,-123.0562,-152.3229,-170.2884,-187.0458,-67.7920,-97.5203,-170.9639,-114.1727,-225.8046
-54.1414,-64.9661,-169.5492,-164.2326,-175.1335,-111.0500,-233.0302,-137.4690,-115.7781,-151.8106,-116.8766,-138.6879,-161.9866,-177.6544,-130.1487,-8.1474,-169.0043,-107.3687,-185.0838
18.9159,-37.2266,-101.7235,-178.3708,-82.9963,-108.3932,-144.3889,-117.4741,-71.0349,-120.1617,-69.1611,-96.1180,-123.3348,-165.4500,-125.8674,-1.4034,-93.4348,-103.4004,-125.0297
71.2902,-38.9952,-50.2304,-171.8263,-14.4356,-105.7069,-90.7971,-130.5809,-46.1964,-113.1528,-53.8846,-80.0782,-92.8107,-146.8658,-102.5158,-20.0933,-32.0229,-45.1701,-82.5509
51.8125,-30.5588,-25.6414,-78.9258,32.2987,-25.6131,-90.4065,-114.2073,-40.7363,-61.1476,-50.6088,-30.6660,-72.1364,-77.4678,-77.8934,-81.2426,9.3560,50.1889,-67.3645
17.7813,5.7201,32.5788,49.1207,114.2924,86.8718,-59.0334,-59.5831,-17.2784,-13.3511,-2.0118,63.4856,-41.3686,11.6727,-18.2032,-170.1118,57.6801,121.8431,-49.2604
2.6823,6.5900,97.0873,83.6472,161.5706,112.0441,-26.2109,-17.9528,2.7614,-56.6516,51.0665,104.6160,-19.2004,47.9065,8.6470,-139.0237,67.5431,134.8478,-30.2720
14.8847,-7.7669,102.4146,46.5300,126.7719,65.0899,-61.1355,-5.3587,-18.8696,-112.2437,58.2901,97.0458,-18.1758,42.3644,-53.1906,30.6360,38.7502,100.1325,-49.9456
69.8194,50.3752,74.8133,54.2267,105.3131,34.6171,-99.4359,-22.1285,-59.7554,-65.7125,55.4316,111.6256,-18.4712,30.4864,-95.8226,135.8604,49.8481,56.8120,-87.2691
138.2756,137.8037,77.6753,93.9936,136.0984,33.9142,-84.3186,-70.6945,-86.9263,13.8901,62.5741,120.4734,-26.9349,15.8764,-44.0416,66.7593,101.3921,57.0587,-83.6091
165.5700,160.9245,104.9983,109.8647,154.5255,61.7254,-59.3550,-81.0026,-94.2735,17.9380,54.6992,98.7123,-51.7058,24.4067,13.4512,-43.5684,130.7921,124.9902,-50.1010
145.9403,140.7135,108.5385,123.7105,163.8089,118.8492,-30.9303,-3.0717,-63.0136,8.0872,46.7343,87.8634,-51.0116,54.6849,19.8930,-49.1395,139.7743,212.9528,-20.8374
106.9772,115.4532,81.8976,123.2041,188.5070,147.8984,19.0435,68.9010,18.9798,88.8769,50.7804,82.7823,-18.2227,48.8433,14.9938,24.3294,136.3907,243.7311,15.7545
59.4315,77.9011,62.0941,79.5596,165.4614,132.2567,43.7376,71.5380,114.6219,211.6539,34.1641,64.5575,-14.4051,21.5437,7.6545,59.4903,88.4749,205.5297,51.5038
5.1991,45.7095,62.4114,51.8625,76.7957,137.0718,30.6610,88.3942,184.6590,265.7239,10.7111,67.0420,-41.0452,43.4588,11.5531,16.7984,28.7784,159.4081,63.8952
-32.2089,13.9456,62.5803,64.8495,16.3373,158.6019,42.5177,138.4213,228.0068,261.3353,25.7286,92.1001,-31.4638,83.1735,66.8994,-11.3152,22.0011,143.2826,84.9162
-18.0145,-44.3687,63.1095,60.6488,28.1386,130.5361,96.1002,134.1405,238.1772,276.8441,54.6644,105.2260,9.4291,71.7345,107.4093,59.1609,36.7646,131.2612,127.0480
40.4566,-60.9759,78.5595,50.8961,57.5150,78.0536,147.2224,100.6093,195.8667,307.1839,62.4978,106.0931,18.0058,43.1842,46.9862,145.7355,25.8587,116.3028,144.4198
89.5001,29.6034,93.9660,80.2368,70.7096,75.8131,164.9703,128.6227,128.5965,311.0100,67.6168,97.5152,-3.6220,46.6565,-28.9670,115.5908,20.8517,141.4370,136.8353
101.5918,142.7256,87.9051,110.9406,78.8996,119.4199,143.4519,171.4930,94.5750,308.7139,57.5403,80.1340,-10.3262,54.6343,-24.2324,24.0346,24.1173,193.2927,125.9814
89.2329,185.9394,56.0022,112.5179,75.2821,149.7181,102.5279,141.6501,94.2940,294.5274,-4.6704,76.8744,-3.0641,42.2896,-9.5964,24.4892,-13.0858,180.7987,82.0521
53.5315,169.8052,2.6362,93.2319,45.9251,128.6207,74.3321,80.7465,86.4362,208.2308,-74.0714,77.2653,-4.7284,29.9978,-30.1227,92.9213,-68.0453,86.7847,33.5805
2.0172,108.7164,-36.9252,31.8094,10.5243,74.0723,66.8251,74.8852,84.0154,107.1269,-81.8384,61.3483,-7.3040,37.7154,-7.2838,104.2500,-91.6373,15.6215,65.8511
-26.6482,34.3874,-22.1615,-35.3588,-2.1281,53.5949,88.3571,124.7799,126.7872,140.2059,-45.1646,68.2329,12.2996,66.3429,65.2974,87.3348,-104.6378,38.6159,133.0439
-10.6873,29.1044,25.9664,-6.6146,13.3680,98.4646,155.5420,168.4240,185.4807,273.9341,-0.2276,105.6551,62.9919,95.7429,112.3809,121.7065,-98.4314,108.8201,138.7948
42.3573,77.8968,80.1496,96.4670,60.7375,156.2345,234.6883,171.3727,208.2544,301.5990,64.8090,118.2328,127.9654,102.0489,130.7406,140.5137,-10.0279,158.0018,142.3303
107.3500,79.0966,161.4251,161.1752,140.8273,180.9583,273.8282,169.6119,205.1199,169.1090,137.3892,113.4199,170.6534,96.1570,138.4979,94.4646,117.5656,186.0354,209.1084
125.9992,40.5473,247.0517,177.8531,209.9153,187.4634,279.0741,198.0624,192.0575,49.8873,171.0609,129.6266,179.5217,101.1077,118.4955,84.9824,169.4467,223.3736,252.0060
84.0381,32.9320,278.8560,186.8041,229.2681,193.4671,270.1856,215.7149,151.8424,60.4940,177.1289,141.4019,191.2874,113.8235,110.2068,153.0271,158.0528,255.8799,227.3946
71.6671,36.4184,288.7367,170.2176,244.6734,195.6746,243.2909,192.3515,105.8587,104.7375,199.6424,144.0710,226.6046,128.2217,158.1483,201.2775,173.4276,242.9570,218.7384
122.6021,13.4910,317.6713,126.7794,289.0935,187.0109,217.2537,179.3917,95.3627,76.7382,209.7008,151.9909,244.2928,132.9803,192.2229,187.1702,203.4681,194.5445,239.4195
137.8402,-19.4750,301.5696,90.6913,283.7776,155.1654,211.4876,192.9239,92.8925,42.5929,158.6467,109.0234,213.7711,101.3900,141.1574,146.0423,184.8385,150.5457,221.1362
101.1646,-45.9198,221.0931,66.6352,191.5787,106.7625,206.0002,174.2049,59.1846,67.5376,103.4128,25.0795,172.0763,60.1243,57.0296,91.7186,137.1792,112.1571,169.1151
127.5696,-28.9478,174.6305,59.0344,121.3068,79.3246,189.9668,128.5009,22.6657,56.4602,133.6501,26.7382,156.5171,76.7595,20.3033,60.1309,120.4048,88.6054,131.3277
223.7982,71.1917,196.5138,81.5916,141.0258,89.9448,172.6713,122.1988,7.7433,-20.8725,216.7984,105.5535,157.2441,123.2162,53.5750,93.2634,130.4339,121.5605,110.1723
266.7421,176.0384,213.8393,98.4630,177.1569,112.3923,149.4379,140.5630,-8.7098,-21.3279,250.3862,114.4137,165.9652,102.2506,129.8831,135.5150,108.6230,172.1041,96.0708
214.6797,172.9692,179.6491,64.7738,167.6470,111.7179,125.2428,117.7586,-34.9933,44.4873,210.6474,45.4467,180.0293,22.1278,159.6665,110.9619,37.7909,144.5015,84.6273
137.1206,113.6800,106.4952,10.1583,126.9220,76.3612,107.0587,60.1275,-70.3862,-24.6330,149.8792,2.8851,168.5057,-18.5551,69.7050,30.0023,-15.2907,70.2187,60.3330
103.2610,114.4016,50.0951,2.1855,75.8012,40.5468,71.8185,19.7752,-130.3225,-190.1245,120.2308,12.1770,127.7491,14.1409,-53.5901,-61.7818,2.2050,63.8420,27.1624
136.1921,152.5499,70.5586,48.6660,41.9719,49.7690,34.6667,12.8077,-174.3249,-196.1498,143.4590,56.6720,111.9960,72.8624,-63.0519,-105.1426,39.7570,116.1428,9.8698
196.1609,151.6714,123.7717,79.8403,51.5550,74.9601,62.1391,20.3703,-119.4391,-46.1311,179.6638,108.6583,134.7798,101.6281,24.3790,-54.0546,36.6668,125.0818,14.7388
210.7710,124.2600,114.1833,47.3742,76.4450,47.2467,140.7881,19.3578,7.7043,25.9767,153.5398,96.7617,140.0164,74.5270,83.6442,16.2670,21.8374,64.2872,31.3832
160.9642,100.3312,66.4408,5.1085,79.7284,-13.7806,174.2617,9.8147,75.3002,-28.2534,69.6053,27.4592,104.8460,28.7867,82.8417,12.8256,31.8266,1.9077,49.1409
90.3798,72.1583,54.6695,21.7334,69.9422,-26.0669,136.5881,25.7358,41.8079,-54.5116,15.4806,10.7866,63.0354,31.9163,65.2402,13.1561,44.6145,17.4158,58.9617
53.3549,67.8992,66.4005,76.5809,62.6252,24.3840,91.2230,82.3808,-1.5713,30.2917,33.5179,66.1893,48.8416,73.6942,51.6358,93.4067,49.4526,105.1347,63.1433
74.3449,118.2634,86.8254,115.7972,66.9036,78.3380,83.9906,130.9949,-2.1530,137.4881,87.6157,97.9922,83.8306,77.1157,63.5020,140.0202,53.8034,154.4005,67.3719
103.4155,155.6502,118.7629,111.1474,85.3199,83.3668,103.9257,123.6356,-8.5504,133.2412,122.6622,60.6052,139.3633,31.5227,98.8442,69.7924,32.3180,110.6565,66.8031
73.8061,110.3789,103.6499,53.7678,85.3732,40.1414,116.9584,90.7757,-38.7107,39.0466,98.0236,-4.3103,130.7277,6.2017,86.3375,-20.9827,-7.0930,60.8891,70.2982
29.3150,44.8709,39.5753,-4.4850,60.0824,2.7809,118.7016,86.3217,-36.1596,-7.6663,30.9172,-33.9737,56.4962,30.3009,21.0738,-44.0225,9.4273,54.3066,102.4681
42.1387,38.5933,26.0321,5.3737,68.2443,8.7585,133.2846,95.3571,2.1375,-12.4124,-8.3693,-6.0948,22.3973,56.6953,15.4239,-2.5736,80.1350,41.3434,147.5402
55.6772,63.8466,48.8283,41.4113,105.1656,26.8274,130.0350,78.9238,1.0918,-53.8339,-12.2854,24.9320,42.6715,51.0978,70.4451,68.7944,89.7879,36.8731,141.3648
6.9874,100.4445,-2.3362,41.7947,82.6695,36.2314,53.8733,62.3477,-49.8738,-44.6993,-44.7622,20.5287,32.7681,46.2888,57.6934,95.0693,4.1508,85.7020,62.2556
-28.8937,179.1370,-85.8886,56.8792,15.7711,65.3711,-24.1583,79.7459,-72.4491,47.3174,-94.6823,33.7417,14.6111,76.1619,11.1237,42.5989,-56.8915,123.1050,-7.8985
10.8999,235.6608,-80.4776,92.2148,15.8287,90.9001,15.6203,90.8060,-37.0606,35.9518,-79.3283,71.0318,64.6768,98.9542,63.7510,-5.6635,-16.6565,91.5186,19.0243
69.7168,173.5951,1.1546,49.9207,84.4489,48.0884,118.8608,54.1295,7.6060,-89.8833,9.1610,44.4031,131.9284,56.2514,126.7447,-11.9617,51.1697,40.1053,96.1767
102.0731,73.8577,84.3298,-41.0278,123.0007,-36.3189,147.5090,5.6330,29.8553,-106.3026,100.8839,-36.9541,142.1214,-16.1353,62.6284,-34.2710,70.4181,-1.5449,104.7266
121.7402,71.5751,134.7107,-54.4822,93.1431,-82.7536,108.5526,-15.5540,31.1665,-19.3578,138.9313,-61.8400,121.6676,-39.5699,-9.3988,-49.9709,53.9606,-51.8273,40.1043
122.6957,113.5299,118.2670,-22.8397,24.7761,-92.4961,72.9864,-29.4459,5.1911,-8.0322,108.4899,-28.4363,84.2722,-28.8192,17.4961,-11.1494,16.6817,-95.4970,-11.0710
93.2156,86.3298,42.6702,-46.3025,-44.3299,-107.7062,25.6400,-60.6147,-46.9687,-42.6639,53.5656,-23.8499,14.1818,-46.6405,9.5870,0.2980,-39.1911,-113.6397,-32.5378
59.3711,32.6494,-10.9078,-86.9743,-77.0999,-118.3142,-38.1242,-94.5018,-95.9188,-38.2070,43.9554,-43.3157,-30.8745,-61.9865,-76.9272,-64.5139,-65.2679,-103.9073,-56.7011
49.0469,40.0123,-8.3033,-86.4512,-67.4204,-107.2221,-55.3066,-102.4958,-106.1342,-38.6864,70.9501,-21.1101,-13.3213,-13.2583,-82.8619,-116.2287,-46.9344,-77.0492,-74.7579
56.3190,69.9899,-7.3850,-85.6297,-62.7354,-111.6317,-28.7188,-95.1235,-71.7990,-42.6252,66.4302,22.9388,-3.2890,33.3491,7.6944,-123.8962,-58.0703,-112.1437,-92.9008
56.6186,40.8940,-50.2818,-116.5887,-110.5631,-167.6637,-42.6125,-132.8598,-33.4990,-37.6835,28.6497,1.0007,-32.5046,-26.6379,44.1707,-123.0048,-110.8527,-243.9697,-139.9926
44.9284,-27.2360,-99.8145,-148.3478,-192.6915,-233.7964,-113.4546,-216.2494,-32.7653,-86.4268,6.9702,-89.3922,-49.6497,-133.9972,-2.9346,-66.3671,-120.5067,-325.3920,-174.8549
40.5395,-56.7241,-88.7470,-154.7199,-233.5874,-240.1939,-163.3822,-233.0035,-54.3244,-130.4960,8.7904,-131.3299,-56.6867,-147.7728,-50.4282,35.4462,-89.9031,-271.0970,-142.4618
39.1507,-50.6923,-19.3928,-149.3608,-198.0321,-202.3206,-143.2807,-148.9956,-61.1267,-65.5100,17.4572,-71.5934,-82.1271,-75.8615,-55.6201,32.2228,-95.8285,-228.4401,-80.8671
14.9916,-67.5091,16.4857,-153.1598,-148.4492,-181.7270,-84.6303,-90.5748,-42.8877,10.5317,24.0036,-9.0541,-87.0600,-29.1315,-19.4207,-77.0565,-110.3751,-250.7600,-49.0474
-23.1409,-78.7952,-25.5310,-135.7616,-136.6004,-158.2363,-32.3943,-98.1253,8.0750,5.5611,11.4079,0.0398,-59.3474,-21.3791,22.2326,-102.1284,-85.7160,-198.0826,-47.5590
-60.7364,-30.3642,-77.0813,-67.7763,-127.7573,-100.8274,0.2863,-75.3870,76.9622,-1.2548,-19.0584,15.4552,-57.5931,-7.7490,35.8899,-33.0910,-94.0199,-104.4257,-65.3130
-109.5605,3.3072,-95.1441,-35.3439,-117.3477,-87.8095,6.8982,-48.4749,95.4962,-0.3115,-38.0795,22.6053,-83.8975,-20.0831,50.9091,-46.2474,-171.5899,-135.3516,-98.1781
-140.0074,-48.2318,-108.7900,-114.7299,-155.4637,-163.3857,-13.6678,-110.2255,49.7513,-30.0217,-39.6911,-44.3359,-88.1931,-87.0258,64.6801,-119.4345,-224.6229,-217.6913,-125.0889
-110.1805,-96.9249,-112.7467,-200.2192,-208.6756,-226.8994,-29.8880,-175.9418,27.4340,-7.6273,-41.5859,-114.5901,-88.2732,-139.1790,15.4103,-98.7722,-208.8301,-207.2857,-124.0530
-64.4446,-83.7516,-89.4488,-195.1881,-209.9475,-224.0192,-17.3283,-159.0371,56.7532,59.2296,-46.0270,-104.6592,-120.1013,-125.0993,-51.7924,-69.2834,-176.8717,-194.1472,-91.0711
-47.7208,-81.7200,-77.9068,-176.4890,-197.9969,-221.9938,-6.7366,-156.9729,63.8549,33.4484,-53.7521,-75.4216,-147.6425,-92.0709,-41.6583,-169.8383,-148.7197,-256.3926,-55.5646
-32.3156,-100.4293,-96.1475,-181.5052,-209.5476,-224.1940,-27.4904,-193.8566,31.8317,-49.0952,-69.1082,-65.7926,-142.1508,-79.9037,-9.3492,-220.2142,-122.4371,-269.2564,-58.9019
-27.5593,-87.9768,-105.1922,-144.0977,-190.9953,-173.4048,-52.8805,-148.4036,9.2270,-60.3076,-69.2061,-29.0139,-132.2016,-67.6327,-28.6242,-43.7413,-116.8195,-186.0618,-70.9191
-54.6536,-83.4777,-88.3271,-95.0417,-142.8514,-112.8915,-58.4197,-57.8224,-4.3391,-34.9142,-33.9741,8.2453,-120.7402,-52.0235,-40.2850,120.3434,-114.3241,-135.7599,-38.2245
-46.3877,-103.1989,-66.3157,-98.5891,-132.9367,-115.2688,-68.3882,-75.9394,-30.1053,-40.6873,3.5840,-1.2855,-88.2465,-57.8823,-23.9774,24.3436,-95.0928,-165.5359,-26.4762
2.2995,-76.4032,-64.7161,-98.4866,-152.1074,-145.1081,-99.9056,-160.1288,-57.8807,-52.8412,1.1352,-1.6626,-66.3057,-65.3768,-37.0431,-141.6229,-87.7668,-176.8676,-95.7490
-15.1639,-20.5669,-88.6078,-45.2667,-153.6279,-126.1259,-116.6543,-154.1826,-70.8872,-23.9483,-23.5698,44.3407,-79.0501,-27.8759,-54.3944,-127.5117,-79.4424,-100.0616,-122.7418
-69.0106,1.1139,-85.2892,27.7886,-135.5674,-48.0542,-74.8089,-56.6401,-40.7797,81.6584,-21.5882,82.6465,-82.8135,29.5484,-45.2161,-20.7708,-22.1313,16.4959,-26.4787
-30.2470,19.4082,-16.3308,80.1660,-86.1843,19.1606,0.8585,7.8337,21.5029,160.8696,5.1161,76.8481,-64.0191,21.5791,-66.5074,7.6815,39.3660,58.7743,44.7130
48.2461,25.0921,42.9957,52.6442,-10.9961,-3.2036,22.8026,-37.8238,9.5466,20.8606,11.5630,37.9356,-68.9735,-50.8815,-114.1966,-35.2918,38.0852,-9.2648,1.6301
50.1961,-36.8379,30.8793,-53.1149,20.6577,-70.1574,-41.8829,-132.4854,-93.2310,-189.4807,-2.9625,3.7673,-81.0444,-71.2957,-108.1578,-56.5781,18.4602,-68.1577,-33.2884
23.3811,-76.3264,14.7836,-90.5122,1.1639,-56.1113,-105.0592,-136.5172,-106.4953,-108.3780,-0.0105,25.9137,-42.2482,1.2004,-37.9344,3.1285,32.3283,-20.7151,-3.3511
22.1903,-20.9692,38.2996,-17.2279,10.3090,19.4548,-78.4693,-44.1097,33.7766,131.8470,16.0377,72.4104,10.2542,48.6962,52.6632,79.9847,45.3097,41.8669,13.2677
3.9298,-13.0652,51.5653,-3.9291,54.4739,25.0778,1.9423,-12.8468,129.8899,109.6696,22.6905,50.2257,18.6366,-2.8563,107.8387,31.5318,35.1134,12.2205,12.8009
-24.4809,-121.7976,43.3925,-100.9790,75.8411,-39.1136,55.1908,-80.7517,87.4341,-82.0755,37.0949,-17.9541,27.2030,-70.1356,64.5365,-82.9631,14.4208,-46.8731,43.2389
-33.2169,-190.0298,28.7169,-171.6592,84.6791,-81.9098,83.3176,-101.5039,56.2218,-80.3447,54.1025,-43.7314,62.5400,-81.6357,-26.2403,-40.4122,-27.2226,-41.1585,87.5694
-57.4850,-151.6738,-12.5184,-171.7675,111.9879,-84.8756,129.3316,-26.4901,103.3717,64.1005,33.1210,-42.4605,59.6132,-69.6689,-36.0616,109.2238,-68.6043,6.0112,125.7966
-88.0264,-116.6941,-45.9814,-128.3355,130.6737,-44.8626,166.6135,37.9577,128.2209,115.2266,2.4100,-45.3817,19.3019,-60.2826,7.5591,105.6006,-54.7334,42.8108,145.2944
-69.4680,-130.0933,-20.1585,-41.8905,115.3152,29.3141,133.2228,39.8714,105.4015,80.7805,23.8084,-18.5246,20.8954,-49.5371,1.7466,-30.9585,-12.7421,59.9508,104.5691
-28.2242,-146.2483,14.2966,-0.9119,81.2990,37.4853,61.1053,14.3279,108.9113,60.5353,73.7541,18.3315,56.1974,-55.0236,0.6255,-79.3206,-5.7490,47.6996,35.5806
-14.0053,-132.8674,23.2863,-53.7542,56.4480,-37.8188,50.0493,-5.1706,154.8676,72.8607,104.5920,22.7209,67.1883,-62.9030,68.6417,-24.3841,-1.8934,19.4399,35.0597
-26.3429,-76.3063,51.3780,-50.3645,53.8436,-40.2788,87.9179,7.3160,181.6072,88.1641,108.7906,41.1647,64.0570,-22.8232,117.3263,19.2773,38.0890,37.4137,82.2225
-71.6450,-5.8422,56.8538,66.4988,47.8854,68.4366,60.8275,50.5430,129.4732,60.9659,61.6025,95.7157,52.5887,49.4430,92.7245,32.9664,60.4544,119.5576,75.6138
-121.1556,30.0083,-14.6695,143.2368,20.2709,138.1259,-16.4513,93.8556,30.2418,21.3693,-12.9869,126.6507,14.2977,91.6290,58.7712,45.1288,43.0424,198.7650,33.3332
-96.1568,41.8462,-44.8426,141.2193,17.7268,137.6887,-7.7946,141.1423,4.0126,46.4827,-0.6025,129.9560,1.5920,96.3076,41.2094,84.4105,43.9843,220.9425,45.6046
-28.5423,41.3432,39.6885,145.2514,59.9407,158.4218,78.1280,196.6251,70.9398,88.1018,83.6443,139.1672,48.6895,87.7246,13.8812,154.4080,59.7257,194.4690,98.2297
-28.9562,13.8597,87.1146,134.6893,79.8866,174.3234,100.5400,210.7762,87.8289,69.7294,71.1127,132.1450,69.8933,78.1375,-18.6801,169.8227,40.6006,147.5499,109.0497
-67.1851,14.0250,23.9541,104.1663,58.9123,135.3244,45.8205,175.1022,1.4593,44.1343,-29.9616,118.5435,24.9568,91.8279,-40.0056,97.2112,28.6941,115.0308,65.0919
-41.1184,80.5016,-1.4528,126.8581,53.1623,111.2652,2.5658,147.4841,-61.1757,36.4555,-36.2809,146.4027,3.6663,126.9651,-45.5887,54.8594,70.4581,121.2073,13.4829
14.8636,123.4957,65.8889,155.1846,48.8085,129.5887,-30.3814,130.0391,-51.2652,-8.7986,52.2876,172.7155,39.0038,128.0627,-46.2448,75.8648,91.9462,132.4097,-26.3186
16.6763,105.1579,93.7216,112.0689,0.1701,123.0276,-77.4698,88.8553,-56.7484,-70.8061,84.4238,138.1519,61.2921,89.2619,-55.5961,47.2331,45.5347,101.7095,-56.1722
-12.3890,121.7121,29.3670,75.9689,-45.3437,98.3785,-76.5291,59.0598,-75.9675,-111.5834,52.6219,99.0852,56.5628,77.3437,-41.3110,-12.9031,13.6354,55.7590,-50.4088
-12.4615,190.4762,-35.6954,100.3170,-40.7309,105.5822,-1.4886,70.5361,-26.9193,-139.5806,38.9003,110.3194,67.0657,96.2069,9.8217,14.9156,32.4783,44.1685,-7.8887
13.0523,217.2907,-40.5387,104.5148,-24.5986,99.2724,61.8391,68.4880,56.4100,-103.3352,41.2386,116.0438,82.5273,74.7832,16.7551,66.2688,21.7834,41.9792,1.7179
21.0118,158.6216,-14.9115,50.4060,-25.4403,25.9997,42.9864,14.8781,77.3819,6.1185,33.1586,61.1760,67.7936,4.6842,-33.0014,-1.2816,-36.3370,1.1790,-49.5953
-8.8818,43.6308,-5.8368,-11.7964,-33.3955,-57.5018,-29.5215,-41.4958,43.6785,68.5689,21.4019,-10.8839,32.9718,-43.1338,-24.4594,-114.6088,-56.5657,-43.3084,-81.0708
-37.6231,-45.0743,-13.7270,-20.6736,-46.4286,-63.9096,-82.9895,-40.5528,15.1970,51.7071,12.4968,-16.4778,11.5866,-25.4225,32.0252,-99.5901,-6.0918,-18.3867,-47.0126
-15.8638,-22.4173,0.8089,52.2679,-44.3349,10.7021,-82.1371,14.3096,-18.1322,8.6580,19.8330,51.4961,7.6371,29.0775,5.3843,8.8297,57.7417,52.6041,-8.9763
26.6876,45.3005,40.1640,124.5849,-14.3240,88.9277,-60.8879,65.6040,-88.2951,-92.3804,34.6653,97.8275,-7.1493,61.0627,-64.8313,37.6595,80.4757,66.2100,-4.4322
20.4839,29.4089,48.3359,92.4219,-1.8469,100.8274,-58.6255,73.2904,-150.2071,-187.9398,10.4787,68.5995,-33.8488,49.5413,-51.8144,8.9853,59.9801,7.0161,-5.6866
-23.3131,-16.6936,7.2488,23.9356,-20.1160,57.6421,-49.2022,53.2671,-128.3505,-113.9886,-32.1665,35.9245,-31.6511,33.9755,3.7470,81.4089,38.0915,-39.6344,-8.3717
-26.3094,-0.1496,-27.3715,4.6754,-17.3509,2.8251,-7.5958,15.0278,-35.9634,16.2133,-21.7629,34.9753,-12.4072,33.5730,21.7956,162.5111,41.9019,-69.0838,-22.0995
30.7240,3.7971,-22.2382,-38.9600,-6.2355,-58.2694,16.4000,-51.2582,40.7955,-20.0294,10.1331,-2.4073,-40.8756,10.3049,28.1206,45.4856,36.7320,-136.5081,-32.0887
71.5084,-40.9071,-4.0370,-99.6325,-43.7817,-97.2723,-14.7501,-88.1878,70.7267,-79.2466,-7.9674,-58.5951,-90.5739,-27.8799,33.0711,-102.6303,3.9478,-161.1928,-39.3668
33.0019,-40.8860,8.8839,-48.9824,-89.1977,-52.0865,-55.4161,-31.7260,92.2877,59.4268,-39.9944,-42.2256,-79.5896,-20.9181,14.7057,-13.2796,-3.3605,-56.3680,-49.6347
-34.7164,-6.3969,22.5006,35.8633,-74.6296,30.8336,-59.2276,41.3023,115.2934,239.9508,-42.4671,-2.8446,-46.4175,4.8624,-9.9082,114.3068,30.3801,31.1766,-34.3943
-41.4568,-13.6216,28.7333,-12.5362,-35.9734,26.0471,-37.0782,26.4011,117.8098,232.2412,-51.4243,-31.1780,-69.2803,-20.4455,-33.7905,20.3936,43.1941,-35.1526,11.6288
-0.3844,-23.9567,20.9492,-97.7531,-30.3508,-48.6416,-17.5664,-22.5928,106.9494,101.2254,-70.0041,-49.8613,-101.7743,-47.3147,-42.8838,-75.9221,14.6878,-107.0256,35.3087
8.3205,-7.3780,14.0904,-64.2342,-45.9063,-63.8740,-22.5094,-16.1078,87.2080,33.8016,-66.3932,18.0728,-91.2287,-1.0709,4.6997,18.4827,-16.7839,-50.8397,1.0514
-22.3793,-8.3057,7.5114,15.0532,-59.6147,-16.9471,-50.4796,14.2615,36.8168,78.3751,-66.2610,77.3307,-82.8560,54.1889,52.3593,95.9519,-23.3583,11.5921,-53.8653
-37.2181,-6.9913,-8.3820,38.6836,-64.3657,-6.6648,-55.6332,25.9687,-20.5706,109.8100,-73.8815,55.2578,-79.9422,43.4597,4.6537,71.4734,33.0757,-8.1746,-59.7329
-12.0033,25.0155,1.5975,25.7409,-41.8036,-41.4348,-4.7949,39.1745,-23.4029,12.3836,-29.0508,19.3959,-29.3727,16.2954,-66.0243,90.8965,166.2017,-31.8335,-1.8055
34.9720,39.8576,61.4799,-2.2366,5.1859,-61.4258,55.7571,43.2937,17.1899,-105.8360,47.7085,16.2941,32.6727,23.0269,-44.4003,91.0547,280.1625,-32.0000,47.6934
62.6288,35.9628,102.1601,-20.2262,37.6217,-51.2509,60.4754,19.8559,29.0272,-85.7888,57.8113,22.7424,42.5999,39.4573,22.5294,-2.3139,290.4856,-27.0228,35.5267
42.9664,48.9211,63.0942,4.6709,37.7872,-25.6182,16.5601,18.2195,-1.3857,-10.0421,3.6560,31.8223,36.5904,49.8658,58.5073,12.3566,257.1152,18.5595,10.2343
18.2801,48.3924,4.0866,17.5067,25.7004,-3.1273,-21.7327,58.6966,-30.1450,-4.6942,-22.4078,32.0710,55.5120,51.3742,67.3601,161.0734,247.5237,70.4718,14.1845
41.7738,35.1340,-2.5619,-27.6631,17.2058,-6.7501,-25.7488,75.0568,-46.4564,-11.6445,3.3601,3.8610,68.9903,37.0341,44.7447,167.5267,238.6318,52.4592,15.1643
69.3901,55.3311,26.2389,-57.0217,16.6909,-22.6889,0.1333,43.5296,-66.1431,-5.8063,28.9884,-11.5373,69.4669,40.1242,7.0801,20.1534,234.6750,21.4190,13.5388
48.0459,76.7167,63.1354,-23.5045,35.0996,-14.6195,36.7174,24.3961,-73.8960,-42.3045,27.3405,23.9411,85.7952,71.2985,14.0178,-24.2756,270.2521,46.1711,40.7145
43.8680,88.3703,102.7445,27.1940,67.6818,6.3835,49.5269,40.0112,-48.3074,-57.4497,20.8298,57.5283,104.2644,65.3216,43.2917,39.3539,307.7106,63.8852,49.8525
121.5528,157.8369,111.3268,73.6194,76.0416,6.2114,17.0501,39.3433,-15.0157,-24.2148,36.1688,46.5509,95.3985,16.6703,32.4129,41.5414,305.4399,33.4957,-0.2818
199.4277,217.7165,78.3940,97.2933,44.2537,-17.2359,-27.2665,-10.7889,-20.7144,-65.9431,63.9644,30.4428,68.3019,2.1962,10.1231,3.2771,285.9667,-5.8209,-36.7287
171.5124,129.1718,46.7536,46.2631,14.9016,-54.6872,-36.8095,-71.2605,-65.4563,-144.4548,63.4332,25.0746,32.7196,10.2139,9.8472,13.0355,248.8299,-42.0924,-4.9086
72.9793,-14.6691,18.7459,-41.0690,9.8640,-86.1945,-27.6453,-72.6567,-94.8636,-74.4458,13.4549,-1.5390,-17.5456,-18.5469,12.1625,32.1969,168.7626,-58.8943,31.9613
10.0062,-34.1888,-41.6144,-66.0239,-15.3831,-78.0011,-42.0113,-13.6505,-70.7494,78.7918,-57.0891,-35.3479,-60.0636,-36.8551,37.2831,28.8039,76.9792,-43.3812,10.4675
6.6768,25.1953,-115.8726,-52.3860,-76.2475,-53.1842,-74.4996,11.5842,-29.4812,98.0625,-98.0275,-46.0721,-60.0865,-6.6030,85.7029,35.4490,15.2524,-70.9613,-55.2753
20.3400,40.6683,-155.8712,-84.9211,-114.9642,-71.9068,-108.3106,-53.5480,-35.6454,-5.2908,-82.9076,-56.8426,-33.1676,2.9673,69.5081,14.1132,-12.3197,-154.8825,-114.2947
42.6858,23.7008,-140.9617,-130.5000,-93.3732,-109.5682,-148.6996,-136.2897,-91.1861,-89.8642,-34.6573,-77.9294,-21.7130,-25.7246,-25.0825,-97.5126,7.4412,-163.4989,-119.7790
77.4460,18.2511,-75.7415,-108.2501,-30.1961,-101.2269,-170.2214,-159.6222,-138.3646,-130.0816,-4.7368,-79.3591,-23.9270,-37.4032,-88.9541,-195.8519,64.4987,-79.3203,-84.6016
77.9890,32.6816,-18.3919,-40.6945,35.6105,-69.3724,-141.2298,-143.2090,-134.2761,-131.3392,-13.8175,-71.3315,-20.5168,-44.6487,-76.3226,-111.7612,77.8532,-33.9757,-76.2578
25.5084,73.1145,-41.9256,-2.0222,47.1332,-56.1715,-99.0542,-111.1908,-75.6277,-45.8698,-37.3083,-78.5969,-30.9719,-63.1320,-40.1775,77.0533,12.2227,-30.2468,-92.8169
-7.8791,97.6046,-101.9099,3.3338,-11.0747,-36.1419,-80.2179,-50.4897,13.6220,97.7739,-49.8553,-67.8344,-53.9544,-37.2992,-9.1882,115.0938,-44.2019,7.0004,-60.4169
16.9150,58.2507,-95.8951,18.6317,-52.5458,-0.8432,-54.3543,9.9230,81.9559,159.5118,-49.8234,-26.5014,-39.5363,23.7922,20.4323,-23.1254,-26.7986,18.9908,7.3008
38.2924,5.6328,-46.8648,37.2265,-31.4139,12.4273,-26.5746,23.2238,88.7055,79.1932,-52.8100,-18.1835,-11.2566,38.4550,32.8284,-117.7008,-2.5651,-39.7879,19.6159
25.1188,1.0815,-35.6648,15.6121,-38.5179,0.2100,-53.6656,-0.4478,54.4744,-7.2599,-74.3203,-67.6834,-58.8668,2.8714,5.1499,-82.1451,-38.1899,-78.8500,-27.0073
19.0678,19.6648,-40.1779,-26.9224,-101.8495,-18.4595,-113.7756,-38.1879,16.4298,23.0431,-96.3203,-111.8262,-146.5831,-31.6226,-51.6720,-34.2413,-77.6806,-57.5157,-67.8330
24.5226,33.6851,-15.7260,-27.3574,-108.2408,-31.5446,-139.7255,-83.8380,-32.0184,61.9950,-84.9273,-104.6786,-150.8365,-45.7861,-79.1488,-65.4377,-50.4726,-30.7623,-91.7643
7.5772,35.7330,-1.9879,0.0457,-39.5245,-11.9030,-138.2141,-106.0795,-91.5930,-30.8530,-67.1589,-73.7424,-90.7784,-37.4541,-46.0593,-169.0562,-3.0079,-15.4373,-103.3342
-28.1182,-13.4576,-34.5869,-14.0387,-5.5460,26.6857,-122.4613,-88.5205,-117.3176,-160.4300,-97.3982,-73.3969,-68.9341,-38.0625,-14.0344,-264.3063,-11.8152,-6.0493,-70.4445
-62.5585,-102.5010,-74.7245,-61.5451,-14.8412,20.9862,-64.1757,-67.0546,-92.5849,-174.6279,-139.0953,-117.7449,-68.3340,-85.2575,-24.0908,-240.3933,-55.5648,-8.0478,-9.9927
-90.0774,-136.3373,-82.5767,-74.1086,2.0354,-4.5607,0.6580,-48.8483,-64.5649,-110.2318,-120.2981,-150.4692,-39.6348,-121.2869,-19.9055,-115.1887,-82.1278,14.1425,8.3078
-102.8447,-90.5889,-77.1108,-37.9119,22.6157,34.4217,10.1209,-4.6019,-62.3137,-47.4719,-72.9974,-125.1328,-23.9631,-88.7051,4.6024,-19.2239,-95.5548,76.9741,-5.2030
-103.7662,-49.5693,-88.8740,5.6308,12.7284,95.6862,4.3226,38.1431,-58.2441,28.7747,-61.7848,-91.4105,-39.9249,-58.3391,-21.6931,13.5142,-96.9252,109.9712,16.2188
-106.3689,-65.9419,-96.4755,17.3641,10.5477,76.9726,24.3725,29.1654,-37.8805,77.3260,-61.9535,-100.9857,-51.3683,-69.8226,-77.1879,-4.7120,-75.2803,61.6049,42.4699
-113.5736,-129.4134,-76.9539,-22.2246,12.3677,4.9906,13.3576,-10.8491,-31.9132,-0.9954,-49.9810,-116.7838,-72.4889,-54.9628,-95.0205,-112.0346,-81.7568,-13.0126,9.8194
-146.2116,-217.6606,-89.1753,-82.0772,-24.8590,-36.4281,-35.4633,-29.4455,-47.4677,-113.2073,-81.8665,-116.1987,-116.3213,-27.1428,-107.3443,-197.3174,-155.1453,-25.2843,-22.0112
-221.2301,-267.2547,-171.2364,-87.7088,-63.9547,-27.7290,-35.4612,-10.4403,-36.1510,-35.6855,-165.1255,-126.5959,-125.9365,-45.3444,-122.4994,-74.4338,-214.2385,32.5946,15.1597
-270.0307,-216.9603,-213.5991,-33.5476,-48.0779,33.8021,18.9657,17.4436,17.0773,171.4668,-201.6666,-125.5828,-83.1420,-42.9271,-70.3892,112.9092,-176.3438,64.9322,51.8565
-213.6282,-131.6095,-124.0798,-6.5655,1.6143,135.4774,50.6801,-6.2482,42.5244,172.8021,-137.3031,-95.3615,-41.1863,16.0694,-0.0011,69.5315,-87.4093,6.6176,36.7321
-107.4067,-118.9582,0.1840,-29.8612,55.3288,216.9180,54.9716,-85.8046,-0.2323,-82.0762,-40.0449,-96.6478,-15.4216,30.1592,-21.9888,-115.8688,-22.5057,-56.1755,38.9851
-65.5167,-150.0939,43.7631,-20.9447,112.1657,253.7960,73.5193,-118.1250,-44.3871,-248.7605,4.7586,-134.6290,15.6904,-15.0733,-64.2838,-139.3490,12.2126,-26.5240,72.0457
-97.0038,-147.5761,28.5810,36.6206,140.8172,271.4340,84.6243,-55.7822,-40.4722,-181.3363,-10.9114,-138.4099,40.4362,-31.5612,-26.3913,5.5624,18.5035,34.2333,63.2008
-128.8674,-147.6902,-4.7617,57.5761,110.8998,261.5118,41.2586,-6.5290,-42.5005,-100.2597,-38.5096,-122.8228,34.8604,-31.2695,-17.3534,95.8681,-15.3774,34.0592,23.5816
-121.2965,-188.0024,-49.4320,27.8202,55.6511,224.4370,-48.7485,-38.9125,-92.4664,-107.4307,-44.1660,-133.2738,-2.5174,-47.2078,-121.5152,39.4317,-53.3507,-0.3738,9.5000
-97.8843,-193.4321,-64.6362,20.2845,22.4603,206.9122,-124.5558,-78.8991,-151.9410,-116.6926,-41.2994,-122.4693,-48.8650,-30.8669,-194.9887,-58.6082,-45.9437,-16.9717,1.2855
-100.8480,-129.9946,-45.8991,34.6433,16.4577,196.3237,-129.4950,-80.9609,-181.5013,-156.4164,-54.5557,-81.5951,-72.2662,-0.2249,-144.7751,-71.7172,-25.3822,-23.2941,-15.4906
-129.1156,-84.1473,-64.5164,3.5748,21.1916,132.1968,-78.3654,-85.7304,-164.9770,-228.8550,-81.7083,-80.5798,-85.1856,-22.4501,-90.0067,-26.2717,-62.8367,-40.7472,-10.9015
-141.9041,-100.2047,-128.1158,-72.2073,22.5878,40.9009,-37.5710,-100.5348,-92.5153,-190.1640,-111.0935,-102.0304,-124.5581,-58.9162,-96.3071,-30.6731,-137.8694,-69.8148,2.5167
-136.1743,-120.3738,-158.1037,-127.1301,14.6344,0.2798,-26.9354,-96.8198,-13.1877,-73.1964,-137.8959,-91.8169,-156.1158,-62.7595,-89.0268,-53.5859,-162.1370,-71.7888,2.5017
-138.9908,-94.9993,-124.9074,-112.6191,4.1180,25.8133,-24.9482,-72.1432,-3.8709,-57.7935,-144.7344,-84.9056,-132.3956,-59.8453,-70.8255,-22.1139,-124.8897,-11.7221,1.0610
-127.4473,-29.4972,-69.6201,-38.6682,-2.6425,80.2074,-40.3320,-37.7240,-42.9982,-114.1369,-112.4788,-88.5854,-102.0279,-40.5785,-92.0205,-21.4807,-89.7643,34.1793,-17.8264
-77.2357,16.1584,-40.2872,6.8294,-7.3722,105.7821,-70.0586,-18.3777,-47.5478,-135.3307,-57.2482,-68.2443,-98.8870,-11.0187,-76.1240,-69.1204,-77.1856,-22.5244,-58.8229
-47.8693,-39.7363,-66.5758,-47.1873,-7.4350,64.2221,-72.8484,-34.2891,-19.0747,-148.7599,-19.0748,-82.3986,-63.4222,-47.2062,17.1776,-11.9426,-79.2284,-84.8894,-66.4906
-90.5095,-157.1088,-124.1341,-116.3208,-3.7083,10.3787,-65.0561,-44.1048,-21.9470,-131.7199,-17.0738,-152.4229,-0.8952,-108.5470,38.7429,97.1266,-111.3560,-28.9910,-45.0558
-143.5323,-165.6068,-145.9597,-78.3227,-9.1735,23.5299,-101.3340,-8.2009,-63.3364,-37.0568,-29.6128,-156.0083,5.9900,-68.9528,-75.8500,50.9381,-146.6105,57.2658,-59.9729
-133.5392,-25.3442,-121.3337,13.9700,-24.1977,72.1407,-142.7502,24.8749,-91.6882,33.5375,-25.8467,-69.0752,-23.7685,20.6751,-158.9912,-47.9138,-136.4521,64.4822,-86.8090
-95.8995,90.7096,-103.5240,40.9983,-29.6392,86.2511,-112.4137,13.1463,-74.6226,32.3856,-16.6621,-9.7315,-20.0977,44.9888,-123.5027,-4.3973,-118.9202,61.4651,-66.8453
-93.4947,74.5326,-101.0864,19.5449,-11.7099,76.9487,-30.6531,0.8581,-30.9090,39.8821,-26.6857,16.6340,-2.9391,57.3973,-76.1984,50.6788,-126.9647,99.5371,-22.5266
-96.3675,24.4234,-62.6674,19.1819,28.9364,73.1695,42.2695,22.0120,2.0110,41.8378,-20.7765,63.9238,10.3469,100.8545,-51.1810,22.3250,-86.7054,112.2847,26.2073
-48.2911,48.6628,19.8796,44.3037,73.0802,72.7510,85.9102,50.8087,13.9669,25.1320,35.9941,74.0527,47.4159,92.6257,7.2045,87.7311,15.4742,97.7132,74.8508
13.2786,113.1133,76.7582,89.9887,81.4956,87.8874,79.4134,68.0851,16.2538,69.9306,74.0095,39.3045,67.7513,51.8293,58.4475,217.6729,68.3202,109.5205,63.9835
24.6564,125.7313,63.0332,145.7830,41.3104,115.6586,24.2486,78.7427,13.5584,108.4236,34.6688,55.2353,41.5123,80.5604,65.6244,168.1209,46.9642,107.6871,-2.1508
15.2109,73.8266,34.8838,160.8846,-2.4619,114.4496,-14.3484,86.4093,16.5439,46.6786,9.7284,98.0578,55.0269,125.5127,92.3069,20.7684,25.4556,45.9981,-22.4401
25.4137,26.3521,44.0083,118.8325,-17.0780,71.5006,-10.0808,84.1568,31.7030,24.3559,69.4923,72.1164,124.5785,82.2764,124.7854,27.1371,-7.8916,-19.0568,-4.1230
10.6248,14.7903,36.8692,57.4348,-33.2559,5.2929,-15.4425,52.5508,28.5525,79.8073,105.0822,7.3621,122.7444,-4.3379,81.2625,109.5805,-81.7925,-38.5455,-35.8364
-43.2683,1.5008,-16.6161,2.5456,-65.5054,-67.7462,-32.7376,2.9755,-2.5481,30.5078,40.6669,-34.1590,33.9002,-46.4200,25.6403,88.7989,-119.7736,-37.7293,-73.2827
-61.9753,-7.2466,-34.7101,-16.9761,-69.0296,-100.9283,-11.6568,-8.4609,-9.7529,-58.8057,-11.0934,-46.2066,-5.1626,-25.8810,59.4071,48.6135,-88.4176,-37.6486,-41.7468
-29.3639,37.1664,1.6577,17.8397,-41.1087,-67.2394,18.5604,19.3676,17.4415,6.4197,29.9647,-2.2394,31.2304,40.2430,105.2657,91.2034,-70.0626,-42.4651,-7.8611
-10.4077,89.6123,-5.9905,36.2715,-51.5125,-45.0755,-0.9796,14.7042,21.1725,73.5057,72.3881,69.3315,42.4993,85.6230,69.6169,107.2903,-94.8499,-74.8613,-28.6740
-11.5081,62.0325,-61.4911,-26.6141,-105.3992,-102.9910,-24.7962,-33.0225,0.1704,-25.7983,45.5759,55.4434,18.2256,43.3057,27.4487,8.8533,-100.3110,-130.1755,-42.6049
10.1528,-6.2308,-54.9343,-87.8829,-107.4664,-174.9659,12.0632,-61.0397,2.7114,-108.9099,15.7456,-22.2715,29.5391,-24.6906,54.3403,-91.5589,-55.6278,-150.1807,-18.4329
50.5728,-9.7509,26.1141,-44.3406,-28.4703,-179.9055,55.9532,-54.1149,8.2927,-58.4885,47.7918,-18.9751,70.9445,-21.3524,86.7919,-56.5561,14.6654,-99.6542,-7.9768
86.5573,51.5470,96.1505,60.1631,37.7883,-130.7689,29.6055,-39.8511,-28.5738,-10.8411,105.0837,59.4069,78.4408,15.8406,58.1370,73.7633,78.7495,-17.4208,-29.7680
105.8504,98.6601,119.4271,120.7714,40.3075,-62.3304,-19.1662,-17.4998,-84.3775,-18.2079,115.1750,95.1259,47.5561,23.1326,2.6033,149.8481,107.9975,38.3347,-38.8344
85.9513,100.0676,102.2732,106.4394,35.4201,-0.6831,0.3809,15.6364,-109.0348,-20.1411,63.4734,81.6634,32.0445,35.1445,-20.4243,109.5196,88.2893,52.4562,-8.1774
30.9716,86.8883,48.6816,56.9146,45.8377,8.3181,60.4413,34.7631,-75.3459,3.1916,0.8238,63.8273,51.2027,60.4769,-1.7051,3.3628,30.9563,41.8072,25.1842
-23.8396,72.4674,-12.0805,20.7627,27.4731,-38.1658,74.0108,19.1559,11.3881,57.0809,-31.8125,28.9651,68.0791,34.5953,29.0619,-88.1801,-29.2816,24.3173,25.7918
-69.1675,19.8016,-43.7799,-0.6048,-0.2416,-73.8042,60.1430,-15.7664,91.5313,87.9691,-38.7098,-12.2885,68.7430,-30.6547,45.0689,-72.6698,-47.9957,16.6950,33.7069
-95.2055,-67.6758,-36.8887,-37.7548,29.0869,-66.8107,89.0253,-20.5765,108.5082,29.9686,-21.3666,-22.9543,83.2136,-52.3823,47.5091,46.9461,-24.3041,19.9301,79.2366
-68.9355,-103.4194,0.8396,-77.1694,84.0377,-59.9036,115.9946,17.6258,78.1356,-24.0535,21.4959,-25.9870,100.3528,-30.5336,54.2935,94.8477,-8.2054,9.0481,95.3431
-12.2883,-62.9105,43.1753,-85.2692,83.7401,-76.5074,61.6834,41.6720,33.6793,3.3704,52.8967,-47.1973,75.1540,-20.1841,68.1023,16.5770,-16.3944,-13.6681,52.2561
2.7483,-33.9541,59.4484,-78.8861,46.8453,-74.8285,-9.6189,45.6470,2.7459,18.7353,43.4164,-42.9103,33.3299,-4.3841,64.0111,26.8278,-24.6992,-0.2111,36.0797
-42.1048,-37.6168,45.1064,-71.5399,28.5940,-29.9057,1.9969,94.6709,34.9907,18.5111,13.7564,15.2118,27.5299,51.6008,19.9942,158.8580,-35.4829,43.0364,70.4019
-98.1877,-13.7895,11.6855,-45.6299,2.9927,3.2710,40.7525,140.0063,98.4190,68.2436,-13.5001,64.5203,27.3222,89.1304,-38.5669,149.9481,-45.4112,31.6654,66.2895
-102.2414,13.0708,-8.5530,-26.2561,-52.6233,-26.1254,5.6025,72.8738,73.0396,41.8746,-18.6595,38.8884,-0.1119,43.2938,-55.9697,10.5655,-23.5234,-37.1316,3.4989
-32.4486,6.4941,28.2389,-31.7173,-88.8647,-71.3978,-70.6242,-24.4420,-22.1296,-98.4756,27.7149,-13.3319,-8.4248,-19.3168,-23.6246,4.5772,8.6166,-49.5317,-53.9479
37.2700,28.7144,89.3771,-1.3846,-90.3984,-75.8602,-105.1702,-19.8600,-51.0671,-126.4879,88.9722,6.5636,11.7244,3.5265,3.9633,40.4888,13.4677,11.9623,-83.7513
42.1152,79.8769,107.1194,75.2075,-88.0403,-70.1000,-88.9173,4.0357,-35.4853,-29.7380,99.5000,77.2413,13.7636,69.0355,-7.6368,-88.8463,35.3568,29.1688,-86.5650
67.6580,78.3694,132.6893,111.2926,-54.4534,-70.1205,-37.8385,-31.4044,-71.4974,-30.3720,111.2527,98.6304,33.4593,69.9234,-23.8573,-140.4021,96.7189,-1.5552,-49.4415
171.4199,57.7732,217.6545,97.0740,26.2673,-20.3843,31.7583,-4.0823,-98.3858,-70.8477,184.8443,92.4488,111.4200,39.0117,-10.4552,80.5914,117.3760,45.6372,1.3420
207.8505,79.2855,236.6359,109.6635,62.8787,67.7583,60.8004,122.0388,-69.3628,6.3979,209.8971,152.3742,143.6458,80.9278,-2.3043,221.4320,80.4238,146.8981,28.5262
100.8302,79.1248,120.9915,148.6986,13.8037,107.5249,22.6680,193.9379,-73.6521,56.9319,107.5794,230.8626,65.9089,159.1930,-35.1187,54.1320,80.2110,159.3191,44.7163
15.9132,44.6942,32.4050,154.0784,-15.1328,90.8268,-4.0866,167.6779,-90.5807,-12.1786,21.8005,203.7224,9.0883,150.4269,-55.4023,-100.2067,118.2202,106.0625,67.0166
32.8190,42.5867,47.0564,105.2769,27.8180,56.9113,34.1355,134.5502,-9.2658,-22.1782,46.2286,76.0679,42.8948,47.5008,-12.2493,-36.6167,80.1669,93.4175,81.6348
19.1652,8.8415,22.7549,12.5880,49.7936,-7.3134,64.0319,112.8948,90.2480,60.3392,49.4787,-46.5981,44.2020,-53.8258,20.6001,35.1086,-44.9985,84.3417,79.3164
-52.2183,-97.6231,-74.7256,-64.4632,5.4632,-73.4461,33.0575,93.7618,84.4366,85.7736,-31.9073,-91.1465,-22.1459,-96.8551,-30.1444,0.4987,-129.3215,50.3425,64.2930
-65.6153,-112.3811,-113.5047,-43.4263,-38.0435,-65.0678,12.9171,99.1683,58.8189,63.6677,-75.1342,-58.5464,-38.0738,-95.8717,-93.1362,-40.2844,-109.8318,69.5307,38.4517
-28.3832,-0.8463,-70.7414,28.9159,-39.6938,-24.3670,40.1075,80.8326,78.9239,60.7666,-42.8492,-24.6378,-1.9648,-94.1236,-95.5736,-72.2407,-69.2816,97.1778,4.0518
-25.7847,19.9794,-29.6103,27.8542,-16.0178,-42.7743,34.6357,6.3430,42.4413,29.7465,-28.4939,-51.4986,-7.8247,-109.1729,-75.8290,-101.6816,-80.7023,29.1037,-25.7072
-31.7566,-80.7090,-10.3229,-24.0232,11.7093,-69.2850,-19.5895,-26.0738,-40.9952,-8.9318,-40.6838,-77.5046,-22.7936,-92.9470,-44.5137,-47.2019,-98.9400,-27.0534,-28.1750
4.8183,-99.6593,-1.4861,-22.6379,14.5493,-33.5227,-23.8732,23.9632,-34.2814,16.4347,-27.8673,-22.9526,7.2870,-9.3801,14.8728,51.0549,-70.1217,27.6848,-5.1145
50.3933,-19.0002,-9.3791,16.6830,-13.3514,-1.4782,32.8804,49.9744,23.5501,26.2624,-22.4873,64.7923,8.7531,71.4309,9.4020,44.9212,-28.9204,43.5108,11.6575
66.3512,17.8675,-24.8054,44.2743,-30.3482,-15.6217,51.5168,23.9198,4.5660,-54.0466,-53.0417,107.3915,-44.1263,69.9527,-98.7748,-33.1464,-6.7697,-38.6199,24.7645
65.0666,3.6641,-34.3943,78.6545,-18.2889,-7.1292,30.4596,28.7766,-27.4627,-115.0668,-52.8653,102.6817,-48.2945,20.8582,-135.5457,-33.0446,28.3382,-51.4631,63.0305
73.3182,-6.5136,-16.3409,100.5868,8.3430,35.4154,57.9652,57.4996,27.3744,-79.0033,12.9398,72.7142,22.5767,-2.5888,-14.6461,24.1185,80.6768,11.4565,96.5781
94.1157,-21.5297,48.9389,68.7493,56.3847,43.9053,112.8387,50.2677,78.0647,-26.6398,76.9554,43.1408,77.7474,8.9187,79.1784,26.0848,103.2286,-2.4243,80.5732
88.5262,-28.8896,90.1415,25.6117,94.0175,7.6105,90.2274,33.7799,34.4385,-4.7532,81.7467,31.0017,75.6783,20.4464,33.7164,-1.2527,72.8488,-65.9642,31.5248
29.7248,-16.3938,14.3938,-0.7169,44.0044,-41.6503,-13.0740,27.4585,-18.1059,14.7770,36.6605,-0.7349,39.6833,-2.1056,-13.3390,1.3610,5.4419,-80.6126,-32.0247
-28.1596,-20.0491,-105.3445,-44.3576,-53.8115,-82.0513,-91.4799,-8.3676,0.7108,8.3095,-27.1221,-44.7723,-9.4427,-39.8316,25.3079,-17.3369,-49.4848,-69.3118,-84.1765
-27.0400,-25.5250,-126.3397,-64.3198,-68.5469,-70.8811,-70.2576,-42.1160,41.4555,-30.4599,-65.0957,-10.3804,-33.0969,-23.4534,53.4567,-68.9498,-32.5370,-39.1275,-46.9259
-0.2871,-1.8966,-63.7922,-12.1824,-9.0727,-10.9764,11.5473,-16.4303,55.1115,-29.2288,-41.4684,60.4697,-5.5705,23.2672,14.4873,-65.6647,22.0692,3.7869,53.3973
3.8210,-9.0950,-20.2188,9.4993,9.5114,-1.0805,51.0634,1.5915,64.8520,3.0376,3.2994,12.2373,22.7671,-17.6104,-18.8774,-18.7174,11.5592,-31.1450,64.2560
1.1055,-72.5911,-18.0426,-67.1010,-22.5992,-68.9683,25.0949,-50.8255,97.0079,-12.4432,-1.4015,-98.2683,-3.0714,-116.2052,1.6867,-19.3992,-48.3789,-108.9337,-3.7852
18.4850,-100.6516,-30.5573,-109.9239,-47.1319,-100.0608,22.2502,-84.1650,147.4406,-13.6394,-37.5566,-87.7528,-59.5937,-117.7860,23.5533,-23.4873,-50.3812,-86.0536,1.6741
51.1217,-59.1291,-36.7305,-41.9932,-56.0071,-49.3493,69.1951,-39.7337,181.2725,90.1222,-45.7494,-8.7080,-95.4686,-43.3580,4.2094,28.0477,-4.2840,-22.9096,43.5241
70.9856,-27.2181,-23.8663,7.1517,-51.6970,-22.6519,62.8833,-10.9023,144.6732,172.3272,-42.8538,-13.4542,-98.3663,-28.4810,-7.5454,3.1107,-5.4361,-64.7703,-1.9883
43.0053,-57.7451,-24.5485,-51.5025,-49.3915,-81.0200,-36.1231,-47.4307,47.4901,83.3975,-66.3939,-64.8068,-94.0969,-60.2069,18.2641,-160.4556,-61.9235,-160.8423,-57.1343
-18.0815,-141.0770,-73.7241,-146.6286,-94.0130,-160.3500,-115.5262,-81.0127,-7.3789,-78.1682,-93.7806,-94.7723,-111.2889,-89.4825,17.4736,-222.6657,-113.9437,-217.2531,-22.9768
-46.9502,-220.2236,-121.6403,-193.8078,-138.5671,-185.2763,-83.3592,-74.1985,48.2154,-125.3378,-105.2801,-122.2430,-130.7021,-144.2687,-15.2303,-23.5101,-126.5908,-205.2671,28.2049
-39.2633,-201.0410,-111.5822,-152.7393,-78.0965,-124.5395,22.1256,-28.5897,160.9850,-5.8180,-107.9116,-95.6561,-103.1740,-151.3609,8.3033,178.4528,-97.9958,-70.0924,40.7616
-45.8605,-95.1795,-70.0201,-35.6900,33.2155,-3.1150,106.6552,57.2602,235.6812,184.3299,-76.7326,11.3597,-43.0462,-35.1611,51.6196,91.5218,-47.8717,103.6975,45.4974
-42.2463,-47.7116,-20.7648,49.3474,63.9334,77.0710,112.7561,108.7345,224.6279,253.2392,-1.0954,56.5315,-11.9584,44.4909,5.0273,-128.8778,9.5643,98.4598,43.2204
17.4611,-88.8715,47.1052,30.3139,44.6461,46.1110,59.5317,57.9444,145.3041,136.9445,57.4832,-5.6034,-9.6944,-21.0230,-41.4310,-123.5164,67.7853,-34.1496,39.2290
70.8484,-96.5888,85.0879,-6.7495,45.4637,-20.7515,-0.2442,0.1158,67.1063,50.3181,53.2064,-15.4083,-3.7643,-47.9402,36.1365,98.3947,78.3178,-67.5934,48.4447
51.8108,-74.1805,29.7442,-2.5343,5.2512,-36.8382,-58.8917,17.8052,49.4197,106.7886,5.5417,47.0955,-21.4053,37.3377,109.0286,188.5859,7.7073,-61.0772,26.0370
-3.7617,-147.2357,-74.1602,-42.6030,-87.3977,-54.1953,-107.2520,14.3204,85.8752,95.5351,-63.9282,13.7299,-81.8477,27.8821,66.7394,25.5131,-75.2155,-155.3345,-25.4364
-69.2680,-291.0174,-133.4832,-148.0074,-116.2558,-130.3789,-77.2679,-51.4961,139.3771,-10.3330,-125.2975,-127.6110,-119.3938,-122.7447,50.2766,-138.4473,-110.3056,-212.2825,-18.2685
-144.5262,-357.7860,-124.7349,-202.6106,-63.8589,-187.4280,25.9891,-54.9823,178.3652,75.3098,-125.8945,-222.9820,-86.8753,-217.4974,112.4450,-126.6626,-125.7401,-124.4692,41.5679
-141.5229,-283.4618,-68.5924,-155.5478,-26.0355,-147.6195,77.3019,31.5464,170.9193,309.2303,-72.9103,-209.4360,-37.1643,-188.2701,97.9573,-28.4653,-110.4375,-23.8657,61.5918
11.4637,-80.2977,17.4135,-61.1014,-7.9994,-66.2874,41.5927,88.0788,120.4991,316.6846,-26.8473,-120.1310,-21.4463,-113.9301,7.1176,55.0939,-22.7340,29.1947,23.1904
215.1954,193.2812,99.4497,43.4942,41.3299,-22.2322,11.9549,66.4438,66.4897,95.6574,3.7373,-0.5499,-9.8659,-32.7868,-10.0600,73.9840,71.2659,89.9646,-46.8721
351.0862,389.6321,144.2107,127.7764,94.4789,-3.7920,-3.6794,10.7760,7.5196,-18.5509,44.0920,64.1809,27.6673,7.3163,18.2865,-25.2387,94.5283,125.9903,-120.5382
440.8312,415.8255,155.5704,148.4028,111.1700,32.1772,-59.5376,-25.5675,-69.5688,62.3258,88.2835,28.3893,60.6685,-30.7818,-14.0435,-133.1747,82.9949,125.7630,-132.2027
524.3820,375.2660,154.7010,130.4644,109.0179,88.3510,-92.7308,20.7506,-114.6218,170.5818,136.8728,-18.3701,75.7117,-58.6275,-59.0683,-67.7948,84.4446,170.4992,-67.6351
566.3401,382.0293,161.5171,144.1424,112.6181,140.5616,-34.7109,133.6398,-109.9234,189.3120,195.4194,14.0678,116.9216,-3.1254,-56.4064,62.4653,124.4067,244.2494,-4.3468
536.3252,381.8976,187.2647,189.2452,127.9068,159.6946,32.4281,185.8393,-126.7047,123.8371,220.6185,81.7975,180.7613,65.9826,-37.0146,42.4239,239.8817,253.6075,13.3829
438.0042,298.4708,195.3842,199.0450,136.5514,124.7256,25.4576,133.4989,-171.0714,67.3448,179.1671,100.1478,182.7748,82.9876,-3.5790,-12.9783,363.6441,201.1782,-14.7560
297.1933,174.4813,129.8522,136.6713,95.7796,45.8183,-14.2744,61.0419,-167.0561,66.2087,106.0269,56.2352,105.5082,56.7487,27.8903,77.3290,362.1620,133.5157,-87.8164
184.3092,88.5294,24.3525,47.1688,13.3195,-39.7503,-37.3089,6.7121,-128.6821,43.2358,39.1273,-6.3980,44.5528,-0.3223,-28.7557,152.1859,270.9942,61.4016,-141.4352
143.8448,75.0575,-23.8194,11.4045,-41.6036,-97.1358,-46.2030,-31.8612,-113.2211,20.5996,-10.7371,-35.6087,44.5811,-43.3905,-141.6651,29.2327,221.8032,13.3786,-122.8418
125.9071,123.0082,-4.3884,35.9319,-56.5241,-110.2269,-31.9480,-16.1385,-71.3703,122.4278,-28.5130,-15.7336,49.4832,-18.5807,-152.9616,-135.5173,209.4405,13.8475,-100.1650
97.2384,170.3291,20.5928,48.9844,-78.5627,-90.1234,14.7593,36.7722,38.1831,245.9779,-14.5172,10.3060,41.4032,18.4507,-62.8294,-134.4921,187.3705,23.5967,-103.6829
101.0454,154.6408,45.0898,25.1047,-99.1435,-73.8196,68.7341,49.0220,139.4040,211.3555,10.6136,-3.3823,52.2325,-15.7683,-18.6479,-27.1208,184.1033,-2.8099,-60.9754
128.4151,88.6725,78.2784,-5.2359,-82.4250,-86.4288,104.7294,24.3288,183.0365,132.3689,36.0697,-47.9631,59.4249,-78.4316,-27.1254,13.5589,174.4778,-49.0698,-1.0634
107.0550,26.7595,68.0324,-44.8278,-54.5731,-106.7163,108.5973,15.7762,199.4893,146.4841,40.3984,-82.2603,34.6037,-85.5170,4.8342,-29.1466,100.1768,-63.2896,-20.9853
44.2889,-4.2094,2.9021,-84.4973,-52.9363,-96.0287,60.9264,16.3373,174.9960,137.7542,5.3935,-74.6841,20.1052,-40.0658,37.3214,-34.2489,18.0187,-33.8397,-84.4034
10.7759,-5.4376,-42.7050,-71.1481,-68.3112,-53.4066,-29.9022,1.9677,77.3086,54.5026,-25.8965,-31.9108,34.1836,2.7486,-2.9537,16.2955,-4.6608,-13.9541,-122.6462
7.3089,-2.9001,-51.2996,-36.9140,-84.2557,-19.4936,-108.9702,-25.0286,-41.4304,-0.1754,-23.3456,-14.8108,18.0095,-9.0009,-40.8572,8.1779,-19.7113,-32.8727,-156.0235
-23.2467,-29.3247,-88.3037,-76.9335,-97.3345,-23.9051,-138.1331,-53.0091,-112.9905,-31.1151,-42.5996,-67.0340,-45.6185,-78.2729,-0.0235,-50.7487,-72.1201,-41.3564,-173.5935
-87.7607,-58.6211,-151.3273,-157.8044,-102.3548,-47.5635,-141.4481,-52.3274,-132.8270,-56.6058,-93.0395,-127.3595,-89.8431,-120.6808,47.6558,-59.3616,-109.6299,-18.5263,-130.2207
-123.0328,-37.0649,-159.7821,-181.1060,-91.9997,-61.6360,-139.7228,-24.5430,-110.1138,-15.1768,-89.6959,-119.8332,-76.9394,-79.3406,31.6184,-89.4488,-92.1293,-27.2344,-56.5289
-88.2080,2.7144,-100.8026,-179.9273,-57.5083,-81.9404,-92.7770,-35.4013,-48.3625,8.5662,-33.1601,-88.0252,-43.1322,-36.7605,3.6161,-188.4059,-66.5557,-96.7471,-3.1981
-45.6670,-12.9853,-53.4365,-219.4651,-18.3412,-127.1459,8.4347,-94.9200,16.2060,-95.2624,-19.4086,-98.9876,-22.5641,-66.9000,31.2884,-140.0196,-92.6228,-166.9945,14.2498
-75.3991,-58.2032,-65.7869,-240.6535,-29.4505,-153.2939,65.2889,-128.2505,44.4708,-184.2541,-47.3644,-108.7634,-9.9878,-99.6829,101.2740,92.9443,-142.9790,-176.0957,-10.1221
-127.7373,-55.5153,-92.2489,-190.4579,-82.1057,-119.2311,18.5343,-120.9069,44.2034,-130.2262,-41.8975,-75.6987,0.8589,-71.8768,143.6503,160.2625,-139.7912,-131.2159,-35.0171
-102.2753,-17.0586,-75.4251,-136.6052,-90.4796,-73.3801,-34.7312,-111.4842,39.1850,-53.9983,-9.0114,-61.4588,0.1399,-40.3907,112.2951,-49.5281,-91.1543,-97.8178,-11.6958
-22.9617,-4.3231,-34.4033,-132.9703,-53.4282,-69.1733,-17.8744,-80.5676,23.2591,-50.6164,13.9475,-84.1780,-8.6281,-44.3060,65.5102,-214.9219,-68.7509,-108.7078,15.5408
29.1575,-10.9149,-13.1249,-128.2233,-55.0371,-63.1507,-1.4974,-20.3269,-13.2758,-80.5647,35.6084,-62.6500,-7.9219,-36.6311,92.3241,-171.1727,-62.1360,-100.7981,-0.8737
48.7397,5.7622,1.9160,-69.7115,-79.4150,-8.8065,-28.1935,7.9494,-49.1312,-135.2002,39.9802,4.1365,-7.0596,-2.6152,134.9209,-47.7179,-24.1272,-32.4827,-28.1438
47.9921,37.2457,35.3246,13.8823,-49.0453,43.6448,-32.1213,-15.3696,-68.5036,-192.4062,4.2567,26.7186,-23.4870,17.9370,82.8704,55.6725,18.3205,24.9391,-47.5427
20.9560,48.4139,74.0840,66.1901,12.0319,45.5809,1.6817,-49.4493,-82.1468,-191.9168,-12.3598,18.8380,-19.5626,28.2761,25.2516,65.2490,53.8746,33.8159,-50.3814
2.2737,48.2023,119.0600,85.5520,63.2488,42.1103,30.0437,-70.8174,-73.6787,-163.1584,42.1631,66.9762,47.9093,68.1183,110.9858,-50.0380,124.1357,59.8531,4.5155
8.1957,75.9148,170.5284,118.5684,135.5708,83.0200,66.5570,-51.6775,-19.3874,-141.3450,112.0940,144.8903,122.7123,133.9085,242.0040,-119.8519,190.4332,114.7471,72.0616
-10.9516,125.6159,170.5335,173.3155,194.8535,137.9435,104.7224,29.1957,20.0931,-82.9966,134.6641,165.6797,114.7768,178.2439,234.8552,-37.4754,175.9222,129.9706,61.0035
-54.5687,136.8684,99.6900,190.4585,155.7940,153.3734,74.4617,105.5722,-18.6596,-20.5216,118.0339,130.6145,47.3510,160.4044,134.4609,25.4380,121.2569,82.9761,29.8588
-58.5463,83.5181,47.1256,135.1340,73.5975,122.3068,5.4049,102.6471,-59.9986,-36.3663,76.9029,84.9007,11.4641,90.0190,83.7553,-22.2492,105.8678,5.2527,71.5341
-23.1337,20.1845,62.8960,64.9019,65.1175,75.6721,10.1907,64.3071,-24.6859,-94.3883,33.7015,49.0182,22.5121,40.4530,85.7283,-40.8582,115.2766,-48.7937,122.2716
4.9237,-3.1727,90.3240,51.6920,100.1944,45.3594,67.1614,64.4706,5.7269,-142.3213,49.3855,47.7492,38.3553,63.1884,82.2649,27.0905,99.9043,-30.8991,113.2285
15.2679,-10.9671,98.2692,73.5831,87.4194,37.2452,61.8386,78.3157,-38.9378,-188.1351,118.8303,76.8583,46.9417,99.8752,66.1072,105.8453,46.6177,2.6263,80.6383
4.3672,-31.0418,101.3159,56.4161,38.4076,32.5055,-3.8743,50.3064,-78.0269,-171.5844,140.3148,79.8034,44.9928,84.6991,43.4416,134.5899,-23.7813,-37.3256,40.4542
-22.1948,-39.3898,79.5255,0.5485,5.3653,18.8680,-48.8436,3.5303,-65.7248,-63.7575,84.1180,53.3839,14.8936,62.8427,27.2352,63.5659,-64.8130,-90.7510,1.3011
-24.9300,-36.6282,33.1377,-34.0895,-7.8397,0.3869,-56.3962,-4.0655,-62.6418,-2.9466,37.6582,45.9746,-23.0082,68.8600,37.1479,-53.7701,-64.3661,-79.5794,13.4279
-13.6103,-71.7082,13.8497,-50.9943,-14.9986,-23.8513,-50.0796,16.0337,-66.3736,-41.3932,40.9288,18.1020,-24.1079,27.6419,55.0897,-49.7515,-75.8656,-75.2363,42.9073
-56.3221,-134.9076,14.7854,-90.5866,-22.6807,-51.8509,-36.9905,7.5392,-35.0811,-30.3017,43.6468,-85.1357,0.6249,-80.0831,56.2302,61.7964,-124.8552,-96.0765,10.8214
-151.2613,-147.3701,-20.0583,-113.8813,-27.1301,-53.4946,-21.0112,-12.0181,-18.4493,60.7213,20.2764,-160.5735,10.7058,-137.7664,53.4243,91.5154,-167.9075,-33.8629,-24.4623
-221.1789,-90.6601,-65.0868,-70.4572,-7.8476,-4.9445,8.3242,24.1537,-40.5795,86.5642,-6.6550,-99.1543,17.8314,-84.9968,63.3832,14.3777,-168.8710,79.5566,24.0547
-220.2814,-29.2430,-50.7762,-16.5005,35.5308,51.7469,68.3973,80.0657,-20.6371,30.1004,-14.3906,-2.0860,45.1095,-2.8544,93.4221,-71.6093,-130.1228,93.2339,90.9348
-153.9784,-6.4866,6.5785,-15.3044,67.0220,45.8775,124.1189,53.5408,41.9451,-6.2500,8.4426,1.5999,57.2602,25.9574,126.7528,-136.6039,-78.7899,11.7668,89.7549
-67.5043,-18.9450,39.8787,-27.1365,64.6478,-11.3058,114.7408,-31.2606,40.3684,-27.0171,35.2028,-28.7671,25.6593,-2.7651,89.6816,-120.7439,-54.4205,-49.6315,54.6860
-30.6384,-49.3567,38.0645,-4.4665,38.8118,-24.7670,52.3055,-53.4692,-16.7276,-75.0996,21.9858,-11.0892,-7.3418,-35.6226,-30.9626,1.2972,-60.2885,-47.7758,36.6870
-58.5265,-61.9844,26.6465,33.3612,4.7410,44.1481,6.4380,0.0746,-9.9430,-93.4736,-5.3415,15.5813,-7.0870,-4.7458,-92.6390,52.6642,-69.6453,-8.6260,17.5053
-106.9962,-40.4328,-4.3652,62.5236,-24.8394,116.7107,-4.4739,29.2720,60.4099,-41.9437,-2.9348,32.4725,-5.9181,72.3214,-18.9809,-71.5571,-88.6876,3.8099,-26.9822
-154.0971,-29.5611,-67.9388,79.4199,-44.3435,122.0284,-20.2660,-8.5600,79.0197,9.3086,-13.4823,70.7750,-29.1748,91.8512,51.3787,-186.7494,-119.0154,-38.7245,-69.4452
-186.2550,-52.1981,-114.2403,81.7462,-57.2366,95.7483,-40.5528,-42.5192,27.0273,8.0775,-60.0863,85.7431,-52.6071,33.9772,26.1306,-135.4013,-125.6040,-38.5832,-60.7724
-178.4110,-56.6464,-95.6446,81.0229,-52.2993,100.6818,-11.0441,1.7803,7.6547,9.7195,-66.7861,35.5165,-61.9639,-12.3051,-1.9236,-6.0830,-116.7242,58.5406,4.3421
-162.6476,-31.5130,-60.3230,74.3974,-16.6221,126.0093,73.1345,85.1587,74.0620,58.8102,-28.7119,-9.9756,-72.6155,-11.5456,15.7308,34.8491,-126.9407,118.8002,80.7119
-188.2929,-45.2894,-71.2786,21.0506,23.4848,115.3530,138.6378,93.7881,151.0359,85.0955,-41.5167,-11.0151,-86.3490,6.3630,29.0318,-77.0678,-134.8006,62.9729,127.7430
-220.5505,-105.8456,-97.6994,-75.3242,35.7043,55.8832,137.8612,7.9603,144.7789,29.1646,-88.5585,-25.1825,-88.1324,31.8950,43.7495,-205.2451,-128.6473,6.6095,128.2531
-212.0867,-129.5560,-94.6194,-129.2407,33.7864,4.6185,98.7371,-67.7333,66.8917,-26.4855,-72.2414,-53.2416,-76.6810,36.3396,58.8649,-144.4601,-135.1264,19.0445,85.8075
-181.1870,-84.4445,-80.9545,-87.0404,41.4808,15.7089,56.3256,-75.4120,0.9916,-9.3550,-24.2331,-40.2350,-67.0490,-10.0813,9.4388,24.6546,-127.1539,42.1068,39.6443
-142.1051,-29.8716,-61.9026,0.1488,50.5554,65.1637,20.8713,-61.6508,-23.7155,-1.7322,-20.1305,-10.1945,-67.7469,-36.7311,-64.5587,42.7532,-80.9152,60.0822,18.8722
-93.9479,-10.0617,-14.3254,56.6340,50.1336,99.3580,4.9707,-51.7277,-45.4314,-52.8651,-17.3433,-6.0401,-62.6338,21.9968,-49.9414,-66.5367,-49.1192,94.5625,0.4885
-52.4213,-5.1302,38.3583,70.6825,51.2460,116.6692,4.6058,-30.8422,-71.2678,-64.4394,29.4566,-2.8735,-30.6158,80.7743,14.9904,-124.6670,-32.8952,107.9816,-22.8480
8.3442,18.3442,65.6522,72.6394,63.5732,121.8072,-13.9642,-29.4538,-76.0119,-23.9618,69.9235,4.6153,10.5377,45.6982,22.7451,-153.3562,19.5498,63.8495,-30.4404
112.3941,60.7224,80.5833,69.8044,73.1983,86.5552,-53.2945,-73.1392,-83.9210,-54.7427,62.7737,-16.5864,21.2529,-30.3920,-4.2967,-166.8686,61.8899,1.2033,-43.6003
176.8377,95.8486,80.7960,52.0344,61.1519,36.6652,-62.9754,-100.1228,-120.9804,-149.2850,23.7055,-51.3665,5.5256,-62.5007,-11.4005,-75.5708,46.8073,-10.5660,-62.0032
142.6916,108.0237,56.1510,34.4450,42.8515,41.4751,-17.5412,-53.7350,-127.9164,-183.5963,-17.9993,-64.4872,0.5205,-45.7609,-19.3119,11.4113,44.0451,28.0140,-20.1700
103.2928,111.3342,48.1177,36.9361,54.6831,79.0331,36.0045,14.9943,-63.7836,-154.8033,-24.7526,-44.9384,16.2258,1.8513,-27.8759,-38.6154,76.2860,39.9955,57.9810
125.7587,129.7331,85.7280,60.0892,92.5803,82.0090,47.2964,36.7894,-6.1344,-122.0289,16.4902,24.8609,45.2053,67.8225,-5.2893,-64.6192,87.2811,17.8823,67.8968
141.1546,160.5224,136.5549,116.1614,124.8454,81.5292,42.3777,36.3608,-13.7885,-93.0816,67.2740,120.5518,88.4099,116.0577,27.4458,30.2806,107.9897,49.5372,44.2342
118.4637,163.5647,177.9314,201.8367,156.5504,132.1064,74.5095,65.5208,-34.8459,-109.1715,106.3686,158.0773,127.2579,127.6461,30.8963,73.9428,172.4081,127.1938,89.5069
112.9017,117.7166,202.2648,250.2866,192.4484,194.9162,111.6009,104.1807,-42.7305,-159.0014,144.6678,136.5290,131.9693,139.1962,1.5334,41.5579,192.1953,155.0871,139.8292
121.4038,79.2453,176.1018,221.6435,182.1687,215.2788,73.3356,112.7894,-72.0537,-92.7840,157.7409,138.4823,110.8964,176.4326,-36.0213,73.6111,121.0578,137.1936,89.0948
96.2872,98.8779,96.6534,164.6543,99.9202,180.9632,-23.2324,95.3573,-103.0677,69.8984,115.0884,146.4940,86.9968,188.7934,-35.1312,119.6553,28.1429,94.1635,-6.9249
56.4626,110.1185,6.2728,103.5373,0.3494,87.1887,-93.2883,45.3002,-111.4690,72.2030,41.1795,83.0711,49.8861,116.9015,4.8267,78.6116,-43.3207,-30.0218,-64.4227
47.9590,40.9759,-78.2437,16.2948,-69.0464,-25.3870,-135.6061,-53.6096,-144.6338,-102.4040,-28.2196,-10.3349,-11.1729,1.5741,-2.0389,14.0501,-85.6122,-176.2816,-102.1268
57.7408,-38.3482,-147.6438,-62.1616,-112.7681,-81.8447,-192.5855,-141.9464,-192.9365,-186.3049,-86.9807,-52.4664,-78.1058,-60.2066,-82.1767,-18.8921,-93.4401,-207.3873,-134.3563
42.0835,-41.2702,-167.5348,-91.8890,-133.5921,-88.0303,-225.4675,-145.0714,-179.4994,-135.1081,-132.7492,-60.2792,-138.1588,-49.7425,-146.1194,-11.4730,-109.1646,-164.3437,-131.4289
9.0947,-6.2318,-135.7364,-98.1486,-124.1100,-89.9942,-186.6278,-99.8263,-138.9179,-124.1292,-149.7611,-58.4832,-180.4572,-18.5872,-167.4078,53.9622,-129.7941,-139.2480,-95.4231
22.8448,16.0489,-73.7819,-77.0538,-83.4714,-65.5992,-114.1755,-79.0303,-148.9299,-160.7084,-113.8495,-20.6687,-170.1410,12.6432,-192.6315,81.1312,-60.7675,-95.6842,-46.1203
97.3776,37.7654,17.6528,-11.5446,-11.9162,-13.6258,-52.7342,-73.0883,-148.4370,-159.3291,-32.9598,29.2582,-106.9226,43.9209,-182.6822,4.8527,72.2950,-52.2863,10.0736
138.3080,42.3813,84.8917,18.5056,49.5620,-8.7915,-9.9334,-61.5036,-75.8327,-137.9577,10.8483,21.9287,-64.7625,48.5261,-111.0572,-14.6722,98.8774,-86.0801,41.9516
69.0812,7.6638,31.5183,-43.8759,27.6688,-63.5615,-7.3247,-71.5978,-6.5839,-103.7901,-39.7929,-37.3558,-86.2977,19.0318,-77.6967,76.3843,-14.6889,-130.7544,13.6349
-44.0681,-16.5020,-101.8420,-118.4673,-56.3020,-113.6477,-39.7575,-97.1526,15.8924,-45.2482,-102.3524,-70.1159,-112.3015,-10.5319,-101.3225,94.6057,-128.1415,-118.1834,-42.5713
-86.3373,-4.7876,-158.8024,-140.8377,-91.4113,-137.4678,-49.4938,-91.3438,28.7608,-16.2639,-86.5646,-45.4866,-100.8590,-24.3219,-74.7725,48.2342,-160.5942,-107.7357,-59.2475
-49.0652,-14.1306,-107.9073,-135.1818,-62.3817,-137.1971,-32.5177,-55.0745,2.0404,-21.4881,-49.9427,-32.3900,-103.2509,-42.5343,-32.9631,81.7017,-142.4686,-103.4507,-37.2008
-10.0398,-55.6871,-56.1338,-114.7397,-57.8402,-107.7634,-39.6448,-33.0093,-81.2876,-12.2180,-66.6848,-89.3334,-135.8916,-77.4986,-93.4681,75.9466,-117.0615,-79.2018,-32.8526
-3.3830,-53.0858,-49.2056,-91.8534,-90.3567,-90.3305,-56.1983,-39.9717,-112.4864,-1.8495,-86.5530,-142.1213,-126.7991,-105.7212,-170.1625,-38.3012,-108.1529,-94.9068,-53.2925
18.5173,29.9377,-47.8159,-84.4439,-101.8219,-102.6870,-46.4765,-45.7204,-52.6186,20.1314,-52.8344,-92.8236,-71.5384,-88.9463,-136.4447,-6.0034,-106.6557,-121.0142,-61.6222
