Fp1,Fp2,F3,F4,C3,C4,P3,P4,O1,O2,F7,F8,T7,T8,P7,P8,Fz,Cz,Pz
-33.3255,-17.8278,-26.0141,-47.6247,-55.9644,-73.2215,-34.2285,-59.0627,15.9135,37.5991,-38.0190,0.1069,19.7870,-4.8801,28.0008,18.5436,38.8502,-6.3139,46.1487
-58.7371,-183.3892,-2.1325,-86.0190,62.4476,-74.4239,103.1212,10.9461,106.2883,98.6725,35.8208,-191.6299,-10.0961,-121.1945,71.5689,-27.3458,-128.1773,-25.1335,-36.6602
-49.1406,-216.7236,42.3079,-66.5435,127.3601,-12.4470,194.9148,78.9410,215.1263,163.5214,78.0308,-213.9265,-0.9938,-141.5040,171.9847,-77.7738,-184.6281,-23.1164,-50.8270
-45.2760,-67.6975,36.0296,-33.2486,68.6506,8.2977,172.0824,59.6639,186.9610,166.5974,60.2486,-134.3030,26.7055,-104.9414,217.8032,-106.9625,-128.3335,-32.0771,-73.6210
-35.3755,-97.7400,4.0391,-23.2380,95.0959,-0.4342,128.3228,35.7774,114.9545,153.1263,85.1360,-147.3729,59.6337,-113.5208,215.4240,-45.9412,-92.9767,-31.8684,-118.1466
30.8058,-137.7157,17.8948,-33.5702,119.5863,10.4366,106.4446,50.0179,107.2505,146.8491,127.2173,-217.3579,78.9563,-148.1534,222.9460,73.1515,-99.2735,-44.1387,-134.7834
96.1329,-15.0335,47.2571,-41.9299,39.9076,11.9297,67.2824,42.3642,87.9838,105.3228,123.7692,-203.5997,83.0696,-94.4553,213.4934,127.7808,-76.5837,-75.3849,-125.6840
62.8075,-70.1464,37.7097,-37.9672,72.8134,5.7488,32.4137,18.6133,48.7845,32.7247,124.9302,-142.2706,85.8605,26.1078,174.7160,69.6973,-35.7284,-74.6328,-105.1182
11.8177,-146.1797,30.5509,-36.3196,155.4695,23.7522,30.1244,25.9776,57.6655,-20.3508,119.3226,-124.5441,53.4259,66.6279,139.7020,-27.5045,-18.4324,-66.6065,-75.0739
80.9553,59.6826,57.5631,-31.4829,78.0359,38.6076,29.4792,57.1691,47.4474,-34.5696,60.3465,-115.9278,-18.0130,24.8467,101.8819,-33.5028,3.8701,-101.3899,-57.2442
168.9159,73.8934,68.7515,-10.7884,58.9722,22.3840,32.9881,88.2883,-22.1274,-28.4010,32.6480,-89.2320,-38.5987,7.4268,61.8750,83.7905,31.9680,-132.4704,-63.4281
120.4015,-120.5927,59.2699,-7.9979,150.4531,-11.2167,58.7749,91.5595,-48.2257,-36.4069,70.5613,-78.9048,5.9984,2.6520,37.5383,157.9579,9.0620,-140.9850,-88.3929
55.8985,59.1049,83.8890,-22.2523,84.0525,-35.8913,60.6166,54.4209,-31.5054,-73.0848,90.5247,-48.0053,29.2069,-17.3058,-12.3227,84.3047,-29.5210,-157.6280,-121.6015
116.5583,201.0007,118.4482,7.1871,42.0189,-17.1237,17.8155,26.7645,-70.8775,-112.3784,111.7951,15.9949,42.7172,-6.5862,-100.1753,22.8099,-1.3630,-140.2246,-133.9198
171.1318,-64.2334,100.9273,53.0918,166.3501,27.3581,-17.9683,34.0290,-127.9694,-140.8611,156.6301,8.7974,93.0596,-4.9060,-149.1956,46.4708,40.4865,-94.5477,-126.7812
122.8103,-5.2851,65.2421,51.9417,88.0152,36.9629,-27.7077,36.4423,-118.1537,-158.3268,124.0396,-43.6657,107.1285,-36.5237,-135.6063,-11.4841,24.8362,-102.8191,-132.0850
88.3040,206.0758,63.8797,60.0539,-47.9503,39.2022,-24.2634,35.6238,-70.9706,-126.1567,52.2024,1.4708,56.6509,4.0199,-102.8794,-119.4087,17.8005,-109.2500,-128.3959
92.5796,-115.3414,70.3885,91.6378,135.0373,66.1152,7.0005,32.1952,-46.8151,-59.1669,73.0886,48.1604,23.5457,49.7511,-63.2193,-68.7299,30.9873,-57.3920,-114.0429
61.2162,-83.7154,71.2793,52.1257,158.0270,38.7902,49.7649,-19.3228,-70.0733,-65.5536,101.6646,-46.9486,7.9721,-67.4855,-52.8957,44.6353,-28.7344,-64.0722,-142.7020
49.4590,420.0098,89.7800,4.5311,-75.3949,-18.6746,57.6160,-45.8106,-102.2950,-128.4693,65.0226,-94.7963,-16.4248,-157.5069,-103.1039,34.2879,-91.6221,-89.6076,-130.3051
68.5881,-102.4898,90.1698,55.5544,158.8275,20.1761,42.1170,44.6601,-46.0659,-93.3548,91.2812,7.7553,5.7472,-21.0227,-120.5061,8.7647,-34.6872,39.9879,23.9371
3.6262,-555.1703,44.5214,45.0502,308.3340,51.9604,26.4629,88.8516,53.8574,-1.5378,131.0999,-24.1591,22.1881,43.3321,-63.5778,5.2314,-1.7993,141.4840,106.8640
-74.9818,1217.7427,24.8824,-106.6118,-618.0953,-56.8310,-13.9947,-40.9404,5.5693,-51.8870,9.3264,-222.8593,-81.5109,-133.0491,-74.2965,-125.6560,-123.0178,-10.8614,-65.2309
-3.4570,2846.2903,66.6195,-119.9609,-1363.4667,-85.8123,-60.9242,-98.4072,-156.6824,-183.9813,-114.1539,-212.3168,-184.7344,-170.0961,-183.0783,-229.4409,-189.2733,-109.0772,-200.2586
108.1805,1447.7917,99.7793,86.1740,-579.8651,122.1718,-39.2715,87.7823,-186.5071,-168.3783,-19.0869,10.9475,-115.6699,53.2461,-213.2465,-57.6491,-59.4083,110.0902,-46.6563
99.8793,-441.2381,110.3670,191.1293,374.1325,295.0790,58.6503,268.1081,-73.4364,-50.0850,134.3444,70.8020,18.8336,165.0945,-120.0334,166.0240,67.2059,313.6438,142.8969
77.2202,-183.5533,150.5874,101.1287,248.0685,260.5013,164.2962,256.7395,-4.6344,-28.8686,161.9678,-35.4750,62.7602,99.4404,-38.2454,157.6267,79.0225,256.6622,160.7889
136.7413,314.2386,189.0303,45.0732,32.4560,209.2697,227.7466,203.0596,3.8820,-71.5234,148.6267,-48.3195,60.4662,103.0897,-10.7197,82.6338,95.4733,175.2699,157.6723
176.4990,-199.7950,174.4689,63.1898,287.2314,226.5896,240.6605,206.8423,29.6432,-48.9001,156.2197,7.7214,71.3368,143.0660,13.2159,119.7030,115.8612,185.6535,172.9038
134.9222,-268.0431,149.3668,52.8405,291.8575,211.7838,219.3068,200.1506,49.8616,-1.7895,142.1634,15.7505,73.5922,114.3786,48.1816,154.7632,55.9075,149.2480,89.2747
62.1377,113.8603,134.6251,47.0025,91.1275,173.6125,188.4260,179.6261,51.7854,15.4587,117.4160,17.9088,66.7150,123.5509,94.2216,131.0125,-15.0341,80.9062,-7.3511
10.0744,-36.0580,89.1318,46.1531,148.0139,137.3038,154.1156,173.1628,62.4142,57.6142,98.2738,2.0849,56.7918,148.1704,125.1820,120.7044,-36.5129,52.9287,-1.7565
26.0479,-141.3997,54.8244,-16.2128,185.6026,58.9566,121.3850,143.2966,58.7095,107.1507,107.3984,-76.3712,60.1903,52.0318,95.0806,106.4399,-56.8112,10.3318,13.3694
84.2376,93.1865,104.7149,-59.5067,104.3678,-4.7409,105.2497,91.1949,30.3466,63.5962,192.9207,-119.9863,116.8974,-54.2304,43.9142,45.0798,-53.9834,-37.7568,-28.1740
85.3478,8.4786,174.4672,-0.5941,169.8059,5.2233,80.2174,54.0508,-5.3271,-57.3166,259.7681,-73.5601,158.4973,-27.5489,31.7101,-42.8402,3.8728,-40.2150,-71.8502
63.5081,-111.2385,171.4777,68.1371,180.8046,11.2253,16.9497,17.5637,-68.4202,-150.3902,172.9102,-22.0021,74.0558,21.8287,14.6689,-111.8568,34.3063,-48.9954,-100.8796
131.9902,126.7175,140.2977,90.9570,22.6508,-3.5630,-23.0246,-20.7923,-133.7827,-183.2564,44.3504,8.0354,-48.4311,7.3743,-33.5876,-81.1626,22.3545,-58.1170,-105.6142
222.3271,184.3408,149.6310,128.0777,16.0192,34.1642,25.8775,-22.0486,-120.5202,-177.4464,30.8314,44.0390,-65.9644,10.2511,-54.3034,39.8728,55.0979,2.2649,-59.7472
214.0270,62.7471,171.2299,164.6250,104.9788,76.0257,105.4371,5.0726,-45.5395,-142.3992,56.4917,42.6145,-42.9663,18.4682,-52.3975,60.5166,101.8391,51.6216,-11.5485
160.8658,183.4236,166.8244,134.5570,52.5737,31.6554,136.2236,14.2999,9.4298,-106.3252,41.0970,-26.8398,-68.3958,-74.5382,-79.3025,-84.7977,72.3287,-2.1558,-0.5796
131.0348,205.3915,143.6431,54.7300,25.5898,-62.6926,133.6767,-4.1268,29.0943,-106.2077,42.1932,-124.3981,-77.5653,-221.1118,-98.8329,-193.8028,-1.8595,-71.8757,6.5121
100.2383,-12.4124,100.8911,-33.1968,73.0258,-147.7153,128.0143,-39.7895,20.0430,-138.1011,58.8726,-208.5425,-39.8666,-279.0457,-65.1828,-170.3610,-70.9384,-97.6227,0.7994
81.1728,-55.1902,32.9627,-116.8168,22.9500,-213.4710,116.8486,-88.4995,-2.5158,-174.5740,39.3005,-248.0990,-18.0719,-256.1592,-7.6620,-141.9123,-145.8127,-144.6608,-38.9019
74.9843,-66.5987,-40.4411,-174.9251,-20.2571,-241.5438,117.1868,-133.0876,27.9582,-188.4937,-8.5844,-242.6434,-24.3391,-261.0970,45.6709,-146.9899,-200.6552,-207.0551,-60.8305
10.2998,-251.4990,-100.4124,-194.0295,4.4533,-239.1502,132.2267,-154.9269,107.7327,-159.3100,-85.1084,-244.6947,-49.8049,-286.4992,82.7217,-123.7418,-211.7258,-227.0233,-57.5733
-92.4093,-249.8742,-141.4291,-191.0842,-64.7489,-250.1900,120.3496,-167.1319,125.8878,-112.4809,-175.3971,-273.0060,-113.9403,-272.1247,81.2160,-119.9263,-222.0785,-243.5779,-88.0110
-137.7982,-106.2907,-163.2668,-195.4971,-144.8203,-278.1628,67.6712,-196.5628,48.5518,-102.5613,-217.6369,-299.5544,-189.6539,-290.6909,52.2536,-201.6934,-247.4145,-293.9987,-141.7695
-146.0134,-179.3835,-184.8598,-232.9812,-126.8337,-296.7366,-2.2781,-229.5278,-52.4740,-122.9816,-242.4207,-335.0455,-242.6316,-406.7419,21.1189,-314.4098,-271.0314,-322.3823,-181.3842
-171.4989,-264.9280,-218.3646,-283.2846,-171.4274,-292.0118,-74.9158,-219.5097,-124.6289,-117.8752,-297.7845,-379.2904,-288.2872,-492.8910,-7.2435,-373.4655,-305.6490,-296.0796,-213.7067
-175.7866,-195.8409,-222.9217,-283.9297,-236.7997,-251.2005,-117.6184,-165.6199,-135.4039,-83.8902,-281.9217,-374.7720,-306.2418,-438.5152,-6.6166,-343.8126,-317.3794,-251.2254,-210.5308
-150.7813,-201.4169,-164.6215,-230.3955,-152.3587,-183.7195,-99.7678,-117.0173,-86.9037,-69.2690,-170.7682,-323.4510,-265.8365,-321.8319,23.7993,-242.0809,-249.1634,-211.7219,-149.1546
-146.0300,-234.6097,-101.4824,-186.0260,-89.1452,-125.7256,-64.4301,-92.2235,-58.5568,-94.0997,-139.0378,-295.7035,-231.1153,-228.4215,11.9246,-150.5534,-169.4594,-181.7563,-99.0223
-135.9859,-184.3313,-106.6951,-179.1430,-151.6723,-97.6541,-56.2814,-85.7916,-77.8430,-135.9940,-207.1837,-301.0231,-247.6044,-177.0609,-49.5482,-155.8964,-169.4844,-178.7629,-102.1117
-77.9595,-212.0935,-148.0843,-191.4976,-139.8985,-109.4698,-46.4089,-114.0234,-77.0041,-166.8454,-199.4720,-301.6552,-243.1506,-199.1387,-77.8283,-247.7715,-193.0065,-199.8451,-116.2921
-27.1573,-249.8868,-151.4493,-204.5672,-71.6695,-147.3820,-29.6534,-152.5567,-64.4741,-174.5278,-119.0770,-291.6920,-189.0358,-250.5026,-79.9053,-320.8168,-172.1801,-198.6807,-122.8338
-37.1811,-158.4086,-119.5296,-195.4810,-88.0829,-145.1744,-39.6411,-134.4831,-100.7989,-162.5168,-97.2867,-274.9746,-165.4122,-238.7816,-121.1415,-273.5653,-140.5853,-146.5453,-107.8727
-63.2422,-116.3685,-81.5626,-159.9377,-65.6548,-82.9268,-35.7641,-78.3216,-139.4256,-138.7381,-93.9719,-249.2810,-185.9186,-204.1610,-165.6373,-132.0549,-104.6291,-82.5968,-39.2071
-42.0658,-127.8060,-16.8695,-131.0910,36.4365,-34.6740,24.6025,-59.4452,-129.7201,-121.4651,-25.8307,-216.4189,-167.9430,-190.8741,-168.9881,-56.1627,-44.2726,-56.1354,23.0096
21.0652,-36.6741,62.7132,-126.2078,57.5151,-30.0443,66.0245,-65.3329,-122.9703,-140.8344,38.1241,-179.6970,-107.7741,-133.0776,-167.9304,-142.7326,-25.1354,-64.0020,-8.8929
61.9379,-17.6962,65.6927,-140.1494,16.5408,-36.5374,26.8319,-58.2077,-141.9220,-189.6939,15.4572,-178.4338,-101.1455,-99.7105,-166.8168,-288.5215,-97.5858,-97.0141,-93.3607
23.9305,-142.7136,-40.4509,-181.3890,-14.1491,-75.8940,-34.1963,-83.8504,-158.7300,-213.2870,-71.8115,-252.0319,-170.7177,-230.5894,-149.4057,-336.4176,-196.5368,-165.7442,-161.7036
-75.3637,-180.3357,-153.7749,-238.7098,-85.8085,-158.7706,-59.7206,-159.4821,-179.6246,-193.3664,-146.9810,-332.3176,-216.0455,-386.4939,-157.5531,-267.2678,-256.0789,-230.9113,-214.8568
-156.7695,-179.3773,-177.5716,-275.5027,-120.1236,-207.1946,-45.3287,-202.8269,-171.0764,-164.6682,-137.5097,-326.3074,-170.6366,-369.3164,-176.1489,-187.6015,-270.8799,-225.7937,-218.6071
-167.1153,-266.7700,-135.5764,-284.1454,-37.6009,-186.0206,11.3332,-174.2260,-72.0081,-132.0710,-61.9876,-273.8932,-96.9517,-277.2438,-125.3983,-184.7412,-246.7061,-168.2820,-149.2832
-131.0568,-260.9030,-102.1696,-268.8064,5.4811,-149.5352,66.4250,-136.9334,37.6086,-82.0310,-24.0335,-252.0237,-72.8189,-239.7220,-47.8004,-229.3928,-219.1044,-128.5712,-110.4933
-112.9433,-167.3578,-102.6412,-230.4189,-46.3749,-130.7670,51.9648,-142.8178,21.8200,-54.0669,-44.5063,-249.3018,-87.3742,-222.5733,-49.6172,-253.8098,-237.2672,-127.6148,-175.5152
-141.8970,-190.7269,-123.9370,-216.6038,-60.0754,-141.9958,-9.7026,-180.0607,-91.3821,-89.6490,-63.6681,-258.0500,-106.4667,-251.3323,-105.0405,-269.5985,-285.4712,-165.6039,-267.9050
-193.3887,-236.3910,-171.7155,-271.0026,-74.5963,-203.7398,-74.7294,-222.6780,-187.1353,-157.6403,-105.8927,-306.4714,-138.9465,-345.8381,-146.7664,-274.1912,-331.7639,-246.0677,-324.2024
-239.9797,-216.0048,-253.9107,-348.2035,-182.4485,-277.9463,-165.6965,-248.7138,-232.9706,-195.3415,-205.1196,-361.4694,-191.3741,-355.5785,-191.2995,-178.7038,-388.5755,-315.4328,-352.0511
-267.1995,-249.1631,-316.0461,-384.6024,-264.5768,-289.1310,-238.9193,-224.2314,-241.1775,-165.8928,-260.3580,-355.0831,-231.3703,-212.8433,-228.6411,-14.0957,-430.6692,-302.2460,-324.4702
-252.6958,-251.6647,-285.5707,-364.4551,-228.2230,-219.2548,-183.7926,-126.8557,-209.6839,-76.0901,-194.4426,-265.9037,-218.0952,-43.9596,-194.2977,39.2047,-398.0944,-219.3697,-227.9331
-209.6499,-135.6594,-200.0916,-283.2232,-151.3393,-110.1283,-44.9692,3.9003,-145.4700,18.1787,-102.5088,-128.4142,-151.5681,60.0515,-102.4334,-33.2284,-324.6868,-137.3045,-130.4008
-203.4447,-94.8100,-171.2581,-181.1619,-103.3340,-27.1576,27.4491,88.8284,-67.4334,69.6319,-82.2198,-41.5583,-91.6838,62.9488,-32.1003,-61.4030,-300.2047,-104.3478,-78.3175
-251.5963,-159.1209,-212.7617,-151.0358,-103.5719,-13.6103,29.2523,104.5216,-12.1582,94.2644,-96.3051,-82.0631,-88.6684,-43.5008,-8.1047,7.8532,-327.6663,-128.3169,-53.8424
-295.2871,-177.1905,-247.7426,-193.5458,-135.1808,-34.6736,39.4936,95.3449,-20.9262,109.0382,-94.4711,-159.1558,-110.4269,-115.6352,-4.8797,105.9226,-348.7821,-170.8209,-52.0963
-300.8748,-202.1974,-254.8785,-205.6260,-139.0667,-37.0326,37.2698,88.7328,-64.7740,99.2502,-104.8864,-135.9918,-118.0781,-36.0395,-9.5412,186.1700,-337.9691,-175.3000,-75.3702
-287.5920,-246.3164,-256.4599,-156.8810,-126.3855,-33.1149,-2.9677,84.0301,-61.6740,97.5742,-145.1894,-51.1047,-138.9419,69.1731,-23.7612,191.1424,-299.3349,-138.5388,-95.6969
-277.5117,-181.4794,-235.0755,-99.8766,-139.8101,-36.9204,-20.1974,91.4237,-2.9402,152.6140,-162.5834,-8.2668,-171.1501,95.7918,-37.3721,117.9053,-252.1616,-101.8590,-103.3376
-278.6732,-94.6557,-186.8896,-50.9862,-127.8782,-28.8146,-6.4240,96.3191,35.8600,205.7795,-120.5797,0.0689,-155.4405,113.4877,-30.9752,68.7720,-228.6545,-84.4084,-128.8274
-263.4463,-90.3667,-159.1243,-17.5631,-85.7502,-27.7040,-38.0473,57.8073,12.6937,174.5261,-69.8125,-8.4140,-105.9902,100.1893,-11.9112,44.9862,-232.0320,-81.6618,-181.8175
-198.4055,-59.2539,-164.8938,-28.3999,-93.9929,-49.4554,-104.1113,-3.0547,-26.9944,123.2081,-63.5167,-56.3353,-89.7376,-20.3469,-8.8680,-13.7547,-229.8251,-74.6456,-217.2261
-138.5617,-3.9716,-160.1745,-47.7894,-106.6500,-39.3960,-94.9086,-13.9992,-17.9660,160.1313,-66.9221,-88.1922,-83.3752,-119.1219,-8.3672,9.4656,-199.1215,-24.9989,-188.0806
-149.4948,8.3116,-116.1022,-5.5232,-42.4563,27.1119,-1.7076,31.9205,28.8224,226.9803,-32.3716,-41.4646,-37.5837,-55.6319,23.2632,148.6353,-135.9747,57.8773,-116.1301
-155.0592,71.0402,-44.0171,72.8185,19.4305,91.9795,48.6440,65.3818,41.9209,185.4141,11.5180,14.0264,-0.5513,67.7743,47.5758,151.0895,-47.7813,96.6342,-67.2836
-70.5699,145.2046,22.5986,108.7752,26.6727,122.6694,9.2873,47.0260,13.4095,59.2671,23.5553,13.8889,-23.3496,112.2051,4.7448,-20.2198,38.6360,82.1549,-54.2127
28.0689,106.0177,54.0368,115.6359,52.3394,155.0709,-8.5583,28.4133,10.5301,10.2627,15.6433,34.7677,-64.4257,108.4009,-64.4602,-55.7741,102.9711,113.9728,-30.7020
65.8694,99.8510,70.2948,175.1008,104.3161,233.2131,65.3077,88.6578,54.7459,100.6306,12.6756,136.6113,-71.2698,143.8334,-69.9708,88.9892,156.0052,226.3240,26.2148
93.5702,214.7961,120.6472,291.4874,154.6028,355.7291,166.3833,216.0643,109.6719,228.6828,32.6412,244.3450,-35.9030,235.3389,-1.9805,190.4148,203.1543,327.8217,103.0952
132.6355,269.6388,195.4574,373.9655,234.8394,452.3554,237.5154,307.6873,145.6718,285.3175,87.6711,289.1844,31.9682,326.8516,66.1356,267.5493,222.9064,360.3492,171.3056
137.4771,263.8617,236.3158,377.8759,301.1743,459.2767,265.4763,309.1222,127.5167,262.7653,136.8241,306.1145,92.3163,347.1516,58.1039,374.5853,205.9466,355.7409,176.4055
123.5848,318.3738,228.2224,367.3166,269.6791,415.5263,210.6028,269.2290,53.8606,227.6144,118.4415,330.8216,89.6789,290.2477,-28.2834,325.1021,172.8499,334.2739,102.5848
129.1122,330.6055,196.9775,388.9158,192.1235,380.5175,93.6736,246.3497,11.8294,246.5334,57.1647,330.1089,30.3786,210.6576,-107.8264,137.5562,138.0797,294.0622,34.2793
127.5604,269.7582,147.8641,392.3466,139.9601,341.0731,28.6448,252.9855,42.6278,304.0097,19.2039,275.5374,-25.1920,145.7185,-113.8274,89.6567,88.3409,263.1051,33.3727
95.1495,263.5094,81.1475,341.6766,88.5920,298.5696,44.1666,270.2584,73.6786,308.2545,-3.2184,197.6051,-42.0499,101.9694,-66.7214,156.5170,18.1844,256.3299,43.1781
56.1590,248.6101,30.0872,281.1185,55.6372,285.7661,78.0592,260.6006,93.2550,235.1747,-30.1813,142.7913,-16.5687,81.7075,12.0465,106.1721,-34.2414,247.5051,22.3426
38.5561,164.6007,28.4534,240.6988,98.8815,270.1087,141.3177,218.2909,152.1566,176.2947,-19.4735,129.7763,48.9889,86.7419,122.0443,-11.3416,-37.5554,232.2121,17.2801
52.0917,158.7106,59.5355,206.6783,170.5539,221.9941,234.8568,194.3522,186.1934,183.9648,28.2359,146.1493,120.3828,109.6046,198.1621,-32.9153,-35.6041,233.4103,29.8658
72.4364,225.1219,70.9696,192.3057,181.1960,200.4819,246.8512,215.0083,125.9905,209.0027,38.9372,157.6372,142.5731,113.8894,177.0107,29.4463,-84.0863,244.9651,0.1716
55.9723,221.6239,40.6709,211.3749,132.7892,234.6246,152.4621,250.5495,53.9076,215.8648,9.0411,140.9094,116.5246,76.5772,111.2250,123.2931,-151.6893,245.6723,-53.4346
10.0689,182.5113,-0.3040,214.1372,87.1469,268.5346,82.4288,285.2250,25.6973,210.2708,8.3986,108.1201,99.0771,59.4523,69.1327,184.5115,-179.0167,236.7576,-43.4999
-18.4739,136.3214,-17.8339,160.5513,80.1793,274.1555,93.0860,323.1053,-8.0077,193.2435,42.4291,77.1551,112.8351,115.3416,37.4740,122.5247,-169.2325,230.7811,48.5958
-14.2417,40.3823,-6.4613,109.6163,95.3335,278.3545,124.5552,361.8598,-23.7945,197.6876,74.2041,67.8432,131.3296,184.7205,6.4627,32.0669,-139.9348,248.5904,148.1581
19.0963,25.0369,29.7803,151.8350,105.3870,309.6519,143.9105,415.3129,19.9053,263.0283,111.0301,136.3300,143.7038,233.1586,-10.5599,84.9200,-82.4118,304.8386,175.2951
69.6329,178.7141,77.6228,287.4409,116.2850,373.3561,135.0830,475.6018,46.6208,336.9483,150.4246,300.6573,151.7579,308.1924,-33.7141,201.8930,-10.3074,358.0415,125.2198
94.3204,331.3582,111.4953,417.2953,124.2498,417.7627,88.7420,479.8429,28.3740,343.0250,159.4541,443.7487,135.1005,365.7637,-50.5117,238.6337,43.7797,347.2052,67.7542
79.6780,374.5176,127.4238,447.4682,100.8878,390.1053,60.4900,418.1424,42.4539,307.6368,151.1398,445.0322,93.6902,331.0248,-7.0789,254.8894,65.4091,296.9760,50.3147
67.8205,371.1596,139.7741,393.5579,68.9447,350.6570,76.2581,372.7777,67.7968,297.3898,152.0207,363.8483,67.9175,292.9303,51.0949,294.2126,49.5443,290.4096,46.4822
67.2886,354.7779,139.9261,354.1258,74.1500,372.5860,72.0075,376.0596,36.2441,307.6957,136.4082,328.8474,66.5563,321.1310,16.3800,287.3676,21.1267,338.2230,35.3482
58.0069,348.5774,114.4553,364.9616,91.4157,390.8397,31.6782,365.0179,5.7749,274.7002,91.5259,334.7090,51.3386,305.1017,-86.9738,258.1691,28.6213,362.9264,27.4630
52.3502,346.6226,72.4359,353.6711,74.2234,335.7070,3.1598,296.7458,30.6597,148.7432,43.0983,305.7635,10.0364,219.0220,-138.6403,246.3543,44.5764,311.1523,-5.0573
30.4662,263.7645,16.6372,286.0434,24.1541,270.7784,-14.9808,196.7441,72.2431,-19.2537,-7.1103,253.3758,-27.3879,187.1914,-107.9561,195.4475,0.7110,227.8878,-81.7449
-49.9041,151.9935,-41.6848,242.4111,-30.5620,257.1175,-28.1266,115.1539,123.1357,-92.6048,-46.9299,234.6443,-33.3432,197.3508,-60.5267,137.4746,-52.0184,191.3510,-130.6161
-117.8166,159.0252,-45.1060,269.3048,-42.4871,256.0058,-7.5099,84.2163,165.3056,-36.6042,-30.2455,242.3248,-7.6876,156.8650,-49.2448,139.0381,-20.5899,191.4180,-97.9096
-62.1001,227.5412,34.1515,292.4113,7.6392,226.7950,20.2010,96.6572,127.5507,28.3888,23.7261,232.5729,16.9426,135.1135,-63.9660,95.6092,46.8865,157.6299,-45.4938
80.5659,253.7136,124.3331,262.0691,52.9645,184.7343,17.4902,131.6874,68.3089,40.1912,49.4187,207.3319,13.1058,196.0339,-44.5616,-20.7945,68.5343,105.9273,-27.8132
186.2198,292.3470,147.2828,235.4055,49.4243,167.8806,17.6424,176.5643,107.7787,57.0185,55.6333,202.0759,9.6065,233.1642,31.0046,-2.1603,75.7730,109.7566,-18.5443
199.2704,330.1743,112.2132,251.0226,46.3648,194.7449,22.7013,202.0076,154.8836,86.4987,71.8776,214.9754,43.8078,190.8393,81.4912,183.3631,99.1609,143.6329,-11.2765
140.1830,296.7397,70.9307,272.4708,63.8237,226.7527,-10.8175,195.9280,73.3686,88.2467,78.2472,208.7014,101.8485,152.9313,44.4205,283.2248,111.1406,135.6211,-28.5941
71.4700,275.1779,55.7741,279.1404,84.6908,210.7743,-43.0278,198.4014,-38.6661,92.3437,91.6283,185.0843,168.4320,158.7141,-2.0589,218.8875,124.5576,107.0110,-46.3763
42.4719,307.3110,65.6202,283.9094,126.8811,160.9127,-21.8103,215.2205,-65.9684,127.2392,137.1535,190.3240,232.7720,184.8550,29.0433,154.5195,144.4089,96.1120,-47.1072
21.1082,300.0547,66.3228,282.1310,144.8411,125.1604,-3.8564,212.4832,-75.9527,156.3645,145.7074,230.6162,233.0846,226.8137,87.5819,153.7408,109.8298,79.7725,-66.4863
-21.1701,276.5857,36.4866,270.9020,65.0210,121.6269,-25.6168,232.6181,-103.0430,183.4216,89.7856,256.8744,154.2970,256.1433,98.9411,182.5169,27.8706,75.7951,-101.7025
-30.5995,305.1558,7.1045,266.5203,-19.6700,154.8582,-24.0778,316.2869,-79.6678,253.5616,72.3723,246.6351,105.0193,248.3498,92.9877,257.7999,-17.3892,135.8545,-102.2269
-4.6269,315.5639,4.3570,269.4551,0.2247,208.9996,16.5993,373.0109,-22.9808,328.6835,116.0701,229.1022,129.4668,255.6333,114.0347,346.3025,-23.0346,210.5448,-78.5713
-15.2074,274.2356,8.3298,268.5406,35.8410,237.7214,35.9007,336.0943,-1.5006,312.2358,120.8022,225.2858,127.2799,304.0376,127.7093,370.1761,-25.7137,213.5130,-80.8398
-25.4297,242.3926,14.1158,267.0391,23.5391,233.0130,25.3918,271.0129,-5.3778,192.5788,94.0300,228.3258,86.1169,336.2565,99.3941,354.8746,6.7526,172.5101,-97.7927
49.8793,231.4508,45.3202,271.6786,53.5604,232.0337,26.6547,214.8058,-10.5007,73.1827,122.5885,240.0700,115.0851,341.9665,62.8031,337.1111,69.2768,161.0809,-98.5690
130.0995,238.6222,81.1952,282.0112,113.8616,233.0626,41.7235,152.9147,-20.4654,44.4385,164.4772,265.9873,187.6140,348.9179,52.6249,266.0672,78.6168,166.9238,-105.4470
103.9146,243.0285,68.8232,283.3829,88.8503,200.7395,40.3915,122.3676,-21.7939,61.4363,132.2891,276.9382,163.0513,300.4223,47.0091,164.3273,24.7412,137.6484,-135.2763
48.6006,175.5043,14.3834,249.6484,3.2833,136.3880,14.6367,119.7671,-22.9376,27.9842,59.0679,238.4202,52.0166,172.1467,19.0513,134.3252,-23.3631,83.5206,-157.3146
67.9906,98.3002,-20.2848,192.5111,-43.3618,77.7737,-14.7337,79.7443,-54.9236,-28.8727,21.3737,171.2719,-8.7099,89.7341,-11.3130,128.4832,-39.1731,58.1652,-160.7865
114.7318,124.9690,-1.6974,160.6638,-33.9949,54.0518,-32.0957,30.5321,-86.9413,-31.0474,41.4580,113.2202,25.2993,114.2665,-9.3611,22.1470,-19.7343,61.4622,-167.7374
143.7860,143.1158,52.0521,149.0327,16.0811,47.9549,-43.3598,21.4834,-72.3065,-32.8423,102.3389,48.7063,91.0189,119.3021,22.6846,-95.4997,46.1606,30.8512,-163.3381
200.8433,50.0838,109.8599,104.8321,74.8789,13.4920,-46.8160,-10.7106,-44.1237,-113.1093,153.4404,-32.8139,126.8457,37.9244,43.5559,-44.1007,112.4006,-47.8536,-116.6366
259.7273,-6.8367,146.6125,34.7167,87.9445,-41.9993,-34.4089,-82.1791,-50.8543,-192.7844,150.5711,-72.6768,115.1282,-34.1598,17.8628,93.3032,109.6603,-110.6526,-63.2719
218.0801,29.5584,142.3905,-6.2078,62.2382,-68.3137,-34.6624,-106.3969,-80.2057,-172.7421,115.9389,-44.8569,81.1018,-50.7735,-34.7564,83.9100,52.7836,-130.1527,-63.5079
102.5181,44.6792,99.4082,4.5267,32.1235,-70.2384,-73.5441,-92.1468,-103.3210,-107.5232,82.4047,-18.9163,52.4096,-58.0545,-58.9831,-67.8703,13.6675,-139.6007,-100.5543
50.3966,74.1932,53.2148,61.0058,-10.7011,-72.1211,-101.5768,-109.6875,-99.7355,-91.3903,38.7632,-26.3223,20.0643,-60.2472,-43.4502,-171.2218,26.4245,-141.5411,-113.1635
85.8284,169.0030,36.7400,129.4646,-37.5966,-51.6492,-53.0214,-129.1987,-38.5449,-127.0539,-9.2104,-14.4907,-12.3352,-60.2874,-22.6531,-175.0777,70.5808,-126.3810,-85.4908
124.4200,186.9105,38.9184,140.5108,-0.8467,-26.5994,54.6804,-121.2314,86.7030,-180.8177,-22.7508,6.4829,-1.5025,-105.7197,8.3957,-155.4672,109.2910,-131.1387,-33.3181
147.2960,84.4124,30.7492,78.7340,48.4509,-60.7234,145.0627,-133.4336,223.1017,-241.3309,4.9542,-33.7845,52.4845,-174.7544,83.5868,-128.9983,132.2341,-172.7347,27.8610
171.8166,-5.9506,19.7110,14.3404,49.6150,-129.5772,166.3715,-169.2484,297.7507,-296.0371,40.6669,-98.6613,85.6719,-185.4969,165.7528,-105.7068,154.4532,-207.9899,60.0974
160.1922,-52.0610,32.2849,-14.4316,35.2636,-156.3675,133.8147,-183.1920,279.6935,-306.0843,42.1558,-93.4800,65.2886,-126.0993,171.5656,-135.4904,165.7229,-203.2246,39.7997
119.5516,-85.6901,54.0114,-34.7961,27.7218,-136.5107,102.2918,-157.7345,199.1772,-227.0058,-9.3238,-55.7860,16.4416,-51.3717,94.4194,-171.3442,144.0481,-165.7029,18.0818
124.2784,-88.3479,49.0330,-55.3603,14.1902,-102.6589,89.1292,-90.1106,113.8608,-81.0325,-60.0486,-87.3449,-27.0903,-32.2026,9.3144,-110.2630,118.5808,-128.6626,46.8265
153.5733,-97.6495,32.7301,-67.8145,25.4393,-88.6770,70.9296,-20.4409,56.2310,26.4646,-33.0816,-161.8601,-29.0081,-111.4713,-26.1147,6.6767,123.0791,-128.6451,86.3631
123.9248,-141.1640,47.8616,-87.2814,66.6332,-133.0584,50.9665,-22.4897,11.9464,32.8565,39.4568,-192.3482,22.3283,-200.1433,-18.2502,54.4923,121.4646,-149.4873,77.0274
70.4911,-150.8198,74.5036,-123.3456,65.9050,-195.6822,27.1205,-70.9685,-51.4134,-3.6896,49.5419,-199.6408,55.6584,-169.2373,-7.4591,13.7808,76.0516,-152.7661,32.6214
71.3594,-141.3592,56.6324,-172.3938,-9.4823,-204.6576,-43.8564,-90.4134,-125.9323,-17.6315,-19.9880,-245.9885,-5.5186,-98.5242,-15.1035,-64.0957,15.3259,-176.9341,-10.3957
90.4045,-200.9480,4.1411,-231.6801,-106.6578,-212.0654,-140.9092,-119.7704,-157.9253,-26.2184,-92.4056,-299.0187,-112.2128,-151.8567,-30.3689,-147.6502,-36.0207,-257.8276,-63.0202
62.6284,-280.0628,-34.9113,-275.4881,-169.2324,-272.4795,-179.2390,-202.3625,-141.8719,-54.7439,-132.9503,-296.8070,-169.7059,-267.4795,-58.4074,-192.4771,-95.4402,-308.8183,-144.4724
-5.9516,-271.2361,-66.1260,-269.8955,-184.7697,-284.3052,-167.8290,-250.3553,-149.2625,-77.3244,-165.7960,-248.1059,-189.3876,-287.0653,-120.1506,-152.6024,-155.3886,-252.7493,-219.7412
-80.9061,-176.9405,-108.4240,-212.8792,-174.4182,-184.0073,-171.5588,-204.9725,-192.8010,-70.3105,-187.9980,-175.8652,-214.8624,-206.8105,-176.9370,-44.8311,-174.2814,-144.3568,-231.4750
-117.2149,-58.2322,-129.1966,-118.4647,-154.1833,-67.4047,-171.7311,-132.4781,-194.4766,-50.4959,-172.2115,-72.8989,-209.4514,-84.9394,-160.8500,60.5763,-142.5628,-52.0499,-189.6780
-86.1066,24.9848,-105.7025,-13.8036,-119.5741,2.9055,-154.7779,-89.3624,-158.5033,-38.2206,-136.9233,32.5007,-157.6209,31.1091,-98.3599,79.7284,-89.9708,9.5511,-165.0785
-33.6058,47.6354,-67.2788,50.3892,-93.0054,44.6958,-179.1250,-76.4001,-180.8900,-33.9351,-120.8840,81.1140,-125.1941,52.8710,-78.6979,-16.6423,-43.4884,28.9043,-176.3427
-12.0202,57.3782,-39.2603,59.2739,-104.8551,54.0420,-236.3931,-84.7368,-252.2828,-50.1071,-101.4292,72.1393,-124.3081,-16.5502,-115.4961,-120.8730,-20.2604,32.5683,-178.0426
-12.6179,77.0885,-25.5285,53.4391,-115.1863,54.0635,-251.1696,-85.0234,-271.5957,-105.1593,-37.4484,56.9794,-94.9738,-52.6195,-152.5427,-91.7939,-29.1139,72.7148,-164.0087
-34.3385,68.9222,-21.9610,56.5982,-75.0605,82.1791,-213.5849,-57.8971,-225.8263,-153.1825,40.6386,68.2439,-33.5098,-34.4065,-150.2766,33.3264,-42.4604,123.1221,-150.1775
-68.6011,61.1186,0.3308,72.3597,-9.4007,98.0750,-143.9934,-19.6107,-164.9324,-111.6451,92.6245,110.4098,30.2035,-15.3265,-96.4240,96.2839,-8.9091,140.4588,-95.8481
-49.8958,106.2242,49.6186,114.2017,54.7459,93.3037,-47.0352,36.0199,-98.6992,-0.1616,133.7664,158.0683,98.1607,51.0631,-11.7745,62.3350,60.2027,158.6462,5.0038
7.7222,160.8581,69.7558,149.4354,108.8412,128.7544,27.4037,107.2196,-39.4479,67.4435,146.8768,147.5416,132.0828,148.2628,41.4601,17.8379,78.0623,183.8154,57.6430
-5.3543,180.1683,40.8251,117.0682,111.6224,154.8456,41.4104,124.1342,-12.4363,46.2047,91.0347,51.4575,89.1741,119.9552,31.3478,-14.2317,20.6783,163.2236,28.8462
-65.1964,173.5892,29.2664,45.3478,75.0676,89.6358,38.8645,63.4141,0.3500,-13.1522,31.7186,-58.5934,45.2205,-31.5710,-7.8887,-60.7355,-15.4387,117.4479,13.5304
-44.3991,134.2075,56.5647,14.3643,81.3198,26.9428,42.7963,11.1693,10.1438,-63.1853,43.3848,-97.7608,64.8006,-118.9789,-53.4306,-73.5939,25.8586,104.5130,53.1872
30.7688,83.7687,67.6921,20.7708,114.8990,51.2805,24.1712,6.4103,-16.9598,-75.5686,53.4748,-73.2040,61.6770,-90.0719,-118.8671,-22.0874,71.0632,93.9086,78.0359
45.6508,62.8864,54.3320,8.8057,92.0334,56.5711,-8.6970,-15.0658,-79.3391,-43.9753,8.0999,-53.7764,-10.4606,-52.3681,-187.5542,-31.9367,67.6916,37.4816,56.0988
11.6622,28.1540,47.7841,-26.2527,39.3236,-22.4303,-37.1016,-78.4244,-121.8613,-21.8940,-9.2556,-81.5026,-58.5536,-78.4373,-210.0364,-194.9805,65.6792,-40.2768,29.7763
2.0661,-33.7886,35.0509,-59.0329,9.9867,-102.9824,-67.1970,-135.0593,-105.7375,-47.8181,5.3567,-142.5020,-66.7029,-182.9758,-165.2140,-338.8533,84.4184,-101.5277,21.4508
28.0375,-34.3627,3.0340,-93.5505,-36.8629,-153.5254,-74.2097,-168.0162,-35.4013,-66.3941,-47.7767,-196.6489,-113.7694,-316.6404,-80.9291,-277.7703,65.8286,-135.9707,10.9922
55.8927,10.3067,-28.1144,-143.1275,-104.5445,-199.6474,-48.5811,-205.9196,32.7179,-32.9874,-120.6836,-217.8298,-164.5186,-353.0313,-16.7885,-144.8716,1.7126,-146.0323,-18.7506
36.3907,-14.3462,-56.0611,-185.1634,-125.2268,-206.2498,-45.6940,-241.3279,22.8762,-2.1977,-99.7227,-210.9073,-143.7363,-257.9760,-23.6987,-150.3625,-40.4243,-151.1175,-49.1247
-28.8643,-94.7818,-81.6680,-185.7933,-113.8844,-169.3512,-74.6561,-229.8376,-46.0888,-32.2479,-57.3932,-205.4018,-115.9689,-175.1532,-88.3747,-238.5937,-34.3166,-165.2196,-42.5967
-55.0153,-149.3497,-87.9884,-166.7727,-132.6918,-164.4139,-73.8959,-187.2293,-65.4057,-102.3923,-94.1768,-230.0661,-148.4054,-218.9277,-139.7964,-285.7942,-19.4527,-176.7142,-7.5842
-21.2963,-154.7149,-83.7849,-171.4574,-149.8256,-205.6738,-25.3833,-189.2563,3.1144,-155.9610,-128.2043,-265.0631,-169.9837,-314.6979,-126.6078,-319.9728,-11.1248,-176.9021,10.2107
-5.0140,-91.3951,-74.4423,-172.3990,-107.6814,-226.6896,46.5217,-232.5110,94.7047,-164.1007,-81.2747,-247.6730,-121.5498,-317.9879,-63.1745,-339.1815,12.0929,-167.4006,14.7340
-0.9834,-14.4670,-32.9442,-139.9679,-41.1311,-204.9616,111.1578,-235.2899,152.6419,-154.6036,-25.3503,-176.8568,-61.6014,-215.2647,-3.0302,-273.1854,29.3944,-157.6451,30.3112
40.8929,-58.7655,10.1945,-141.3970,-20.9029,-180.9096,107.2162,-205.7177,159.6959,-174.4053,-24.3630,-140.4463,-51.8805,-141.9392,14.0558,-176.7248,-9.2213,-170.2165,20.0237
51.4331,-177.7103,-9.6336,-205.5129,-44.8109,-181.6714,29.9343,-214.0475,123.0720,-212.2718,-50.0693,-169.3785,-75.2217,-170.7488,-5.4762,-144.1300,-71.1647,-190.5594,-34.1647
-13.9278,-199.8145,-42.1593,-228.2515,-46.5425,-189.1310,-17.9639,-228.4301,81.2817,-222.3419,-62.5278,-178.1603,-84.2060,-187.3837,-23.9107,-151.5032,-60.8772,-165.8804,-61.3826
-56.4597,-153.7919,0.1493,-164.2949,-1.4978,-173.0019,5.8436,-195.0396,57.3457,-206.9315,-39.5478,-120.7764,-61.2788,-107.4030,-11.1214,-169.7901,19.0737,-111.6306,-20.7781
-44.9611,-143.7554,64.6713,-107.0616,39.1202,-138.2251,33.0755,-164.6081,36.3229,-184.4663,11.8852,-68.4654,-20.8018,-49.1253,38.0911,-197.3557,62.4052,-94.8375,34.2179
-61.0079,-120.8282,62.8622,-102.1252,50.1717,-117.7428,43.3786,-164.7046,21.5324,-136.4757,43.4856,-72.5878,31.8272,-105.3021,100.2880,-167.5429,32.4267,-106.5390,54.5165
-92.4323,-84.0364,22.2613,-108.2294,63.8140,-123.3463,55.3181,-138.9743,17.6471,-69.1466,37.5314,-87.5213,99.2099,-154.8502,132.7033,-69.7105,-7.0405,-104.8560,39.4715
-74.4948,-131.7863,-13.9261,-117.1321,64.3155,-140.7362,28.5827,-90.9889,-11.7559,-36.5589,28.9356,-76.3736,138.5574,-87.7174,117.1047,-20.8111,-23.6587,-111.1497,6.2951
-42.5630,-208.0517,-63.2728,-131.7576,2.3248,-158.6008,-40.5585,-76.6703,-65.6170,-54.8656,16.3976,-74.9609,95.5643,-7.0555,82.0774,-70.1004,-39.4869,-139.7550,-13.6257
-43.8219,-191.3113,-116.4454,-131.4849,-79.4459,-176.0301,-71.1634,-89.9910,-84.0691,-82.9444,-31.0966,-110.4046,6.5716,-52.0836,61.2684,-142.6534,-58.2586,-157.9035,-3.1661
-69.7252,-126.3977,-139.3986,-129.0656,-93.6339,-193.9705,-34.6154,-106.6839,-62.0720,-94.5584,-82.0838,-146.0592,-35.7819,-179.2030,61.9555,-165.9517,-67.4521,-153.0442,19.4302
-121.7469,-88.2660,-141.3588,-134.8785,-46.8494,-198.0998,15.1011,-120.3183,-40.3916,-101.8046,-80.2708,-146.8062,-14.9528,-237.9207,74.1797,-94.1006,-63.9501,-126.7171,45.2061
-169.0684,-61.1249,-128.9976,-122.9669,-9.6553,-164.9027,36.3906,-99.8785,-11.0489,-116.6455,-34.7711,-128.1615,6.3979,-165.4424,72.7971,44.3587,-46.1775,-84.2416,74.4385
-137.4221,-55.9748,-76.0932,-110.4226,-4.4932,-104.2455,23.7985,-44.8497,24.0035,-125.5898,22.6112,-103.9234,-2.2067,-12.6513,38.9855,110.9193,-24.9864,-63.9760,90.5707
-50.7863,-95.4155,9.6712,-128.5523,9.9203,-46.0741,6.7780,-2.0004,17.8730,-108.5389,94.3412,-61.2498,-3.6713,139.1259,4.7072,58.3987,-16.7182,-59.2888,108.3686
-15.5708,-136.9288,79.3003,-140.5845,71.5918,7.4310,40.1168,30.9752,2.1073,-74.2787,157.1538,-23.2987,27.9098,188.4958,19.2025,-1.9076,-13.8233,-2.2472,156.9252
-50.8285,-166.1666,100.3984,-135.9724,149.1983,39.4213,122.8727,65.7879,56.5206,-49.9367,143.3717,-49.3475,50.9017,55.4550,62.9092,-40.4595,-15.4165,74.3223,188.0437
-93.3485,-219.3342,72.3699,-169.1359,172.4109,4.7398,177.6020,50.9964,124.2075,-44.0991,55.6294,-139.3771,24.6058,-168.6267,61.3554,-108.6684,-42.2684,64.7337,147.8965
-105.5943,-274.5388,26.0611,-217.5918,135.3748,-62.9526,148.3984,-10.2254,83.5123,-58.6061,0.1775,-213.0567,-11.1951,-256.4615,-14.0055,-146.5681,-70.4823,1.6287,90.9793
-86.4006,-275.0727,11.7485,-203.7789,92.3352,-74.8398,59.9870,-39.0084,-23.4605,-100.3779,33.4018,-202.8821,-7.5614,-134.2098,-107.7436,-116.5203,-48.4707,-15.9616,72.8366
-55.4787,-231.2368,35.9328,-152.1456,63.6631,-46.9330,-17.1728,-43.1205,-59.5882,-147.2268,81.6573,-131.7283,1.4790,18.5164,-144.3631,-117.4998,-1.5395,-14.9964,53.1831
-33.1705,-199.7565,46.4948,-137.6396,41.2228,-57.9817,-33.8502,-77.7019,-20.4809,-162.5711,75.8465,-91.7286,-24.9142,12.8612,-106.3023,-155.3166,2.6879,-49.7729,13.2656
-9.2992,-203.2932,14.0089,-166.5765,30.2615,-104.3069,-3.6296,-102.0233,6.3344,-149.7594,37.1369,-131.3662,-56.7202,-129.6630,-36.2973,-124.2657,-33.0178,-91.3897,7.9094
11.3470,-215.2510,-38.3004,-213.0244,12.7327,-152.5165,35.4075,-81.1823,18.5311,-129.1569,-14.2824,-180.9111,-76.0269,-223.3856,20.8657,-59.2453,-67.1590,-127.2445,51.2645
-6.1742,-208.1634,-90.5531,-246.3435,-40.2113,-199.6455,63.6860,-72.1520,56.3298,-105.1045,-84.0988,-160.1319,-115.3272,-155.4478,39.5521,-72.4141,-88.3053,-163.1087,86.7752
-37.4126,-186.9438,-126.5365,-219.0301,-91.9674,-204.0233,53.7578,-86.5513,70.1196,-104.9590,-118.5671,-104.8094,-156.4156,-41.6861,2.2292,-134.3551,-78.6189,-150.7348,72.2055
-29.7891,-162.8452,-100.0701,-134.2265,-74.2829,-132.8695,-0.5799,-74.5057,-4.2306,-166.0909,-50.1239,-78.9570,-124.2624,-34.1463,-67.7539,-149.8492,-15.3388,-86.5201,26.9286
-21.5476,-141.8680,-2.0351,-61.9714,7.1690,-57.4571,-32.1542,-59.7758,-106.7680,-253.7391,74.1381,-63.9451,-17.9316,-70.6316,-105.4807,-100.9605,58.6023,-56.1820,4.0284
-60.0060,-146.8938,79.6134,-47.7643,72.9645,-50.6822,-10.2095,-92.2635,-138.0918,-284.1438,138.3622,-38.6635,61.3052,-43.4779,-97.4638,-25.1390,72.6379,-89.1870,15.7241
-89.5824,-184.8790,72.9796,-83.8381,70.3152,-89.6042,-9.9872,-132.8850,-117.0024,-239.8257,107.2295,-34.1607,39.6569,-24.2477,-97.8135,37.1524,34.0591,-130.7130,18.2513
-64.8148,-214.0124,30.4211,-138.6233,33.1238,-129.1174,-50.2889,-130.8987,-116.0296,-184.8497,38.7827,-47.4126,-41.6412,-64.2825,-115.3308,71.5760,9.7098,-152.6688,6.4111
-23.3810,-192.4628,22.0630,-156.2239,18.3327,-138.0770,-46.7167,-109.1829,-116.9352,-161.9673,-15.6823,-32.9943,-100.0754,-58.9182,-97.7091,72.5008,28.3677,-148.5487,21.9340
5.6944,-113.8175,21.7871,-94.8943,17.3300,-83.9335,6.9482,-92.2210,-70.6156,-142.1389,-56.1513,15.4851,-118.8789,7.8153,-42.3906,8.6979,60.8259,-96.4047,42.7076
2.7348,-13.2497,-6.0777,9.4913,0.6325,5.0247,32.2904,-61.0771,-18.5376,-103.5913,-88.2427,59.4226,-118.3225,20.9757,-5.9044,-86.9225,68.4683,-24.1238,17.9289
-61.4559,18.2307,-32.8694,70.0806,-8.3243,43.3560,17.6880,-19.9726,-19.1297,-89.3103,-88.7717,53.8067,-84.3120,-18.4070,-8.4231,-89.3515,35.5099,-8.7618,-18.8784
-126.2093,-74.4949,-48.3245,35.7217,-4.9303,4.3987,-8.1542,-13.4826,-34.8245,-117.1558,-56.6230,-16.8176,-27.9001,-23.9920,-22.2674,11.3406,-24.5817,-66.4354,-28.5057
-97.3581,-202.1022,-83.4146,-61.9066,-47.8500,-66.9304,-46.5686,-52.9433,-6.8703,-119.9192,-51.5179,-105.7436,-31.4124,-25.2908,-33.1886,67.5760,-74.6635,-138.9480,-44.0486
-24.9799,-252.9433,-124.8146,-146.0980,-137.3833,-143.8433,-70.8460,-104.2793,39.8201,-72.1983,-107.1203,-163.0069,-118.9798,-103.0195,-42.9598,13.0607,-85.4027,-195.4472,-66.1949
-6.8725,-246.6777,-126.8758,-184.3524,-182.8339,-226.7456,-39.2542,-158.5501,51.8241,-66.0671,-153.2066,-203.8948,-187.8827,-233.2999,-32.6549,-92.3226,-70.3359,-248.9516,-55.3891
-15.7943,-238.3630,-91.6450,-196.8012,-146.4017,-287.5353,16.3692,-221.3354,23.2856,-158.4900,-110.2011,-232.6275,-157.0536,-307.2650,15.1597,-189.8644,-64.1584,-272.5966,-44.3270
-16.7170,-213.8452,-57.0029,-181.3276,-86.4630,-275.4338,28.7763,-243.8493,-32.1047,-262.3487,-7.6064,-204.7261,-61.5835,-252.4843,65.2197,-214.6846,-70.2560,-218.2893,-75.9209
-50.9242,-164.8902,-45.8623,-131.6817,-48.9958,-193.6610,-8.4663,-192.0616,-96.3873,-272.3038,69.2421,-139.9571,36.3237,-131.3121,67.2556,-148.3980,-71.4665,-133.7095,-106.2153
-97.6272,-135.2575,-51.8893,-105.5633,-18.4632,-130.8639,-40.3750,-146.2357,-121.0747,-208.4022,96.0310,-122.0243,108.9873,-85.0153,39.6988,-100.3801,-74.9808,-124.3921,-101.3666
-98.9221,-168.6417,-42.8809,-155.0958,28.5829,-161.3406,-26.7745,-187.9802,-76.3712,-180.1122,108.1865,-175.0766,140.3998,-158.2486,31.4786,-126.5557,-88.9425,-187.1118,-91.5112
-87.3340,-250.4382,-2.2068,-232.0358,72.3542,-244.3484,1.1521,-262.4651,-10.6864,-235.3695,123.1255,-261.4156,129.6565,-272.9979,30.1844,-151.1284,-84.1157,-224.0091,-82.4408
-72.3146,-281.4898,38.2103,-242.2297,73.1141,-282.5935,-0.3840,-277.9012,14.2829,-287.6844,122.9049,-316.7927,97.5226,-337.1821,11.6945,-181.0197,-37.0090,-195.6586,-62.8827
10.9642,-190.7224,53.5184,-148.4845,43.1568,-230.1728,-3.8527,-233.2731,3.4624,-246.5375,103.5535,-257.4066,63.1613,-291.5255,8.5797,-258.7070,27.5843,-127.1361,-54.2533
107.4657,-75.7163,61.4356,-13.4497,35.6727,-117.5267,18.4850,-172.1076,-5.5010,-165.1168,86.1238,-109.3582,39.3005,-173.8699,31.9201,-272.9505,73.6211,-48.2770,-50.5718
90.3488,-61.2162,65.0311,37.4393,52.0182,-38.6226,24.2569,-129.4463,-1.9857,-142.3683,70.7124,-40.9037,31.4871,-126.8161,37.9240,-175.1022,85.0967,-23.8186,-24.4634
12.3124,-100.3840,42.2511,-46.5833,44.3069,-75.0937,-3.8790,-140.1321,-10.7162,-164.8230,35.9092,-107.1200,21.7921,-175.2789,18.8962,-112.6324,54.9754,-107.8563,-18.9168
-2.8917,-112.7885,-5.7758,-170.9607,-8.4173,-180.1895,-41.6875,-205.5044,-63.3930,-174.1220,-16.6546,-168.7425,-21.0217,-174.2870,-4.8918,-124.5788,-1.9272,-231.8249,-84.4729
8.8604,-134.6530,-62.0615,-229.7449,-96.7112,-236.7157,-110.9800,-277.3943,-137.0472,-171.3952,-74.4305,-154.2598,-105.5417,-112.9645,-49.0090,-110.0337,-39.7901,-279.7381,-166.7400
-16.7525,-177.1905,-104.4191,-211.3468,-190.9376,-220.2773,-198.0732,-308.4183,-155.9331,-165.2592,-139.5335,-131.5679,-197.6104,-139.6516,-106.4385,-98.6746,-34.6079,-241.3286,-189.4738
-39.1075,-172.7201,-100.5951,-145.4239,-236.4897,-178.3949,-206.2067,-281.0055,-111.7979,-144.4577,-194.1477,-129.5808,-246.6625,-240.8808,-135.0378,-143.8402,-22.1152,-179.8731,-162.1627
-44.6684,-121.5789,-66.2736,-84.3738,-218.0632,-135.4169,-142.2974,-215.3437,-84.4474,-122.0372,-202.4778,-130.8449,-246.6384,-266.4831,-148.6683,-158.1429,-43.7527,-131.0148,-119.7817
-65.7291,-84.4169,-62.8913,-91.1971,-181.6023,-113.6372,-116.2569,-163.0501,-97.8609,-109.9893,-170.0058,-137.8243,-234.4713,-191.6144,-175.8624,-122.7767,-79.3608,-97.3576,-65.0220
-81.1616,-74.8532,-82.1020,-131.3365,-147.6991,-112.0754,-113.9947,-135.9290,-106.9700,-91.5796,-130.7986,-119.1394,-214.0906,-77.6129,-184.2427,-124.3926,-74.9392,-67.1704,-5.9151
-80.1342,-85.1146,-66.0983,-110.4208,-102.7700,-68.9815,-54.0607,-87.1244,-112.1926,-60.0676,-102.6554,-54.3545,-166.2758,27.1110,-170.4114,-129.2814,-27.9812,-30.8004,43.4652
-89.6080,-113.8095,-41.5675,-58.0276,-61.4120,12.9360,24.9331,-20.0865,-117.9098,-33.8301,-110.4518,-19.7526,-128.3972,38.1166,-180.3405,-56.5257,4.7568,-4.0296,83.4182
-81.6337,-134.6541,-61.1529,-70.2226,-38.6921,36.6147,62.3561,-4.4369,-80.5572,-45.9667,-169.6091,-61.4382,-141.6657,-61.2550,-195.5497,40.7282,-3.2666,4.5253,97.6080
-36.4761,-125.1776,-79.1177,-108.8524,-23.5741,6.2266,75.3803,-39.1737,-26.1735,-112.4080,-218.3004,-95.8332,-160.3871,-114.4133,-180.4295,74.4265,-8.2803,20.6140,77.0993
-14.0738,-94.2169,-45.2328,-70.3378,-12.0383,31.4682,76.0011,-38.1101,-29.5202,-162.4217,-184.5618,-47.4978,-135.9839,-5.6402,-177.5053,24.9597,28.1856,55.5958,84.8303
-26.8722,-54.6251,-3.9283,34.1134,9.4910,114.7524,77.6592,28.4539,-45.1039,-96.4146,-110.2664,53.3927,-101.5340,148.4556,-202.4743,-65.9073,80.6665,92.8659,169.9315
-32.7876,-21.2246,5.2535,117.8993,57.2273,166.5435,110.4271,98.6476,2.8671,44.0445,-82.5682,134.7149,-82.0355,166.8919,-195.8494,-82.5328,106.0084,125.9934,249.4679
-58.7579,-11.0700,10.6913,137.7925,94.9781,171.2860,133.9168,124.8000,55.2335,126.3047,-87.8863,151.6995,-46.1377,65.6970,-143.9389,34.2642,103.1254,144.9445,230.4689
-100.6306,-17.6943,32.9433,111.7142,95.6869,167.2425,105.7628,126.8120,59.8359,129.2710,-58.4861,134.9140,5.3804,38.2696,-76.5307,150.8382,101.9474,133.6986,167.4977
-56.5055,-15.9991,58.0666,92.0050,98.3095,170.0896,80.3342,135.2800,73.9482,109.6280,-6.7295,160.4080,28.5046,150.8329,1.8420,139.9956,117.5444,117.8365,142.6494
56.1395,15.7812,80.6856,114.4354,110.8885,187.3973,80.5721,140.9633,100.0330,65.3262,10.1523,217.7645,22.0921,219.5809,59.0576,70.4643,138.4534,132.5071,131.9684
97.9158,76.7601,110.5293,157.1670,106.2824,213.5450,65.1579,137.0856,85.4908,5.0135,9.1669,231.2742,28.1996,155.9512,62.2771,43.2648,157.2911,160.0279,120.4319
82.6730,133.9303,151.9366,188.6281,121.4952,232.5278,69.6982,163.2887,80.2514,13.7043,41.4753,225.8123,57.6542,149.8189,73.2664,62.4483,179.2717,180.1578,153.1184
117.6625,167.0208,190.7973,210.8197,177.3632,253.3402,135.4040,234.9525,138.7365,128.9266,83.3294,263.8930,83.9266,269.0063,141.7383,114.1112,184.5823,206.5476,199.5650
149.5836,178.4837,202.1561,212.1865,204.8260,268.9702,197.9974,284.1078,187.2776,265.4022,97.3786,278.7212,106.5699,304.2727,198.5738,175.5894,134.6232,219.2219,184.0215
87.1818,131.1745,183.4602,156.6870,186.5469,236.9937,219.7498,254.0639,167.1793,310.2962,122.8745,202.9430,157.1580,208.3545,188.1066,197.8954,44.4647,173.2598,135.0917
4.6727,14.3931,159.4512,54.5632,182.5584,163.7209,221.6316,173.9822,128.7837,236.6411,169.6442,120.4161,222.4224,160.8867,151.8956,159.3543,-14.5950,89.5541,106.3731
1.7798,-60.7705,147.5277,-25.8097,190.8995,94.3415,176.1486,82.8856,114.2051,116.5886,162.4831,95.9537,242.9622,156.7540,136.3530,51.9739,-10.4565,29.9199,61.1600
51.5497,-30.1647,146.0423,-36.4451,180.5158,28.2859,94.2123,-8.3784,105.0330,29.3226,105.6782,69.6750,217.8170,75.3663,148.3964,-104.2515,17.1428,12.1084,-11.9811
83.6415,5.8044,143.5342,3.6048,172.3726,-22.8475,60.4022,-60.9608,68.0951,-9.2119,93.2351,41.1251,198.5750,12.4129,158.0460,-180.9407,34.6303,27.2856,-39.2652
75.8898,5.5494,132.6376,51.7982,171.9964,8.6457,66.5477,-35.2016,-2.3889,2.7636,109.6623,96.5753,182.2740,77.3143,114.0269,-75.1219,61.1244,75.2933,6.4808
55.2084,45.3688,131.1125,91.3008,167.3305,107.9966,67.4493,33.9211,-33.7943,69.0901,77.4432,198.4546,149.2433,134.9404,47.0374,98.2631,108.3512,128.0332,74.2818
56.5576,84.8674,143.4011,104.6500,171.2858,142.7199,121.5559,70.4081,51.2853,126.4625,39.1137,205.2178,141.8018,64.1190,54.8389,157.2106,122.1472,127.1899,116.7948
60.4553,30.9005,110.4570,54.3736,152.5050,52.4898,218.9510,39.7515,177.3780,100.9478,40.8115,103.4171,170.3052,-27.4716,116.0951,77.4132,48.2081,53.8759,103.0259
18.5608,-43.4868,0.8869,-48.3158,67.4255,-72.5470,224.3602,-27.7154,213.6568,29.9391,11.4652,9.6816,166.8154,-12.9231,121.9441,-60.8870,-64.4988,-43.7818,38.1011
-48.2088,-61.7483,-100.0168,-123.9136,-27.9561,-137.3371,134.9595,-72.3499,181.3781,-4.1075,-61.4865,-17.8470,112.9398,55.8394,75.8915,-157.9756,-118.2135,-104.4526,-12.9160
-63.4652,-90.4369,-109.8560,-130.1923,-74.1510,-140.9999,64.5656,-75.6283,156.8009,4.4353,-81.6983,-16.9671,63.1528,44.0290,39.1548,-118.0034,-101.6189,-111.4982,-17.4712
8.8036,-130.0061,-51.0251,-102.6216,-93.3690,-121.7430,15.7833,-74.3111,115.1940,16.9326,-28.4453,-24.4293,49.4564,-57.2342,3.6959,17.6709,-61.0542,-93.1599,-16.6057
129.2653,-79.0578,36.0573,-70.9657,-74.0340,-94.6033,-37.1102,-77.1096,34.9249,15.9443,39.0261,-34.7135,80.0197,-98.9998,-22.7868,68.2559,-3.6634,-75.6819,-22.8256
202.7359,40.3855,122.2918,-35.5188,7.3914,-63.2607,-45.5336,-51.9231,-39.6454,10.7307,90.5169,-25.4341,141.9731,-6.5223,-2.7478,-23.1762,51.1622,-54.9213,-14.8467
162.2816,100.3786,147.4444,-10.3075,72.8950,-43.9644,-27.0719,-16.7314,-87.4682,22.3846,105.7475,1.7330,179.0944,84.0066,34.4177,-112.1570,44.1958,-25.5770,-13.6312
67.1954,56.7986,112.5814,-8.4219,72.2644,-48.2613,-37.2402,-15.4632,-92.0861,39.6608,90.9183,11.3205,180.2555,53.0517,67.3396,-89.2293,-6.5333,-9.3111,-27.1094
25.8837,-18.3648,100.9177,-19.3286,65.9506,-65.5192,-30.9124,-19.5925,-31.7739,27.6500,94.6680,-9.5087,188.1498,-23.7257,125.3292,7.3393,-21.4999,-21.5020,-13.1186
45.4254,-20.6117,105.5747,-31.3508,60.8342,-82.9027,16.7405,8.2575,24.9724,7.1163,89.6071,-30.1350,163.4087,-58.9746,157.8365,94.8523,-11.6391,-40.7508,24.0392
70.5672,55.8378,46.9331,-41.8829,12.2629,-101.0080,39.3955,21.1534,12.5195,14.5577,15.9152,-48.7017,62.5664,-88.9267,101.2399,102.8889,-33.4231,-50.6701,36.7843
82.3281,82.3053,-30.7795,-56.7118,-29.7652,-123.6171,41.9534,-17.8738,9.7399,19.7894,-45.8363,-90.8002,-4.0800,-124.1563,43.0223,-6.6894,-57.7412,-69.8043,28.6891
81.1606,9.8774,-35.6161,-80.7148,-14.3551,-150.1005,78.9697,-54.2421,65.5308,14.0631,-13.4337,-121.2665,38.2790,-98.5521,63.9553,-168.6658,-47.2060,-100.5389,20.2456
83.4234,-38.1763,-13.7187,-88.7059,3.2982,-171.1143,104.9282,-47.1409,72.1629,42.7196,17.9882,-92.6689,70.1502,-38.7689,85.1639,-234.7565,-42.2060,-109.3559,-0.8134
114.6976,-13.3644,-35.5797,-60.8663,-17.2956,-175.8125,65.8130,-41.2415,-7.5808,70.8747,-20.6685,-53.7054,22.8594,-67.1381,53.5326,-133.8564,-71.8328,-94.1457,-31.8476
126.1470,-2.1012,-63.3804,-42.7308,-57.1942,-176.9646,-3.1890,-74.1702,-63.7474,33.1154,-52.0585,-68.1067,-16.7018,-176.9470,24.5765,29.1214,-113.1946,-97.9928,-67.0654
51.5342,-6.6330,-73.2854,-69.5284,-115.1662,-192.6611,-77.9961,-109.7412,-65.8608,-13.9038,-60.4869,-107.2760,-34.1746,-217.4525,7.5397,78.6390,-148.8446,-133.8020,-125.6180
-36.0720,18.0744,-105.9433,-89.5897,-176.8708,-201.2029,-154.2004,-103.1530,-76.4277,-11.0723,-103.4302,-128.2720,-81.7967,-156.4083,-12.7986,-36.5209,-167.5458,-168.3781,-180.2575
-25.8658,13.4677,-151.2581,-71.2699,-200.1017,-177.1552,-177.9050,-71.2676,-81.6376,-11.2533,-143.5877,-134.3322,-104.2940,-119.1061,19.5876,-191.3906,-168.7989,-179.0234,-175.8022
33.8302,-45.9384,-164.3919,-64.7325,-188.7610,-144.3794,-133.3726,-60.8642,-41.4654,-27.0113,-132.3925,-120.6918,-56.3839,-137.2099,114.6007,-237.1289,-184.6498,-168.8925,-142.2925
33.4407,-76.2686,-150.9595,-85.9884,-165.1173,-130.3525,-88.0795,-75.6608,12.5882,-6.2651,-107.4106,-93.3579,-17.8944,-139.1337,184.3888,-166.3829,-211.9854,-153.8694,-133.7222
-19.6501,-57.3682,-121.8592,-98.8906,-119.9576,-127.6399,-70.8636,-80.5379,42.5521,17.6302,-79.8531,-99.1672,-26.4927,-143.4291,183.2229,-101.8827,-197.2399,-153.2229,-121.2342
-46.5794,-48.4256,-70.6481,-110.9368,-68.7357,-124.7061,-56.5480,-61.2303,30.1006,-3.6972,-27.2469,-135.7993,-19.6033,-163.5873,134.1488,-130.4256,-147.6713,-148.5544,-84.6321
-9.9035,-59.2872,-31.1497,-131.4938,-42.7501,-101.8027,-49.7517,-24.3372,-29.0119,-11.3625,23.4621,-139.8879,22.7566,-104.0854,65.5653,-178.0723,-120.2019,-88.3962,-62.5703
55.0057,-71.7585,-31.5461,-117.9555,-19.7492,-38.5898,-44.0557,27.8046,-62.7995,38.2686,58.0289,-107.5413,69.6664,-6.9658,27.7625,-117.8912,-104.7853,12.2520,-46.8652
77.5760,-84.8500,-27.6344,-74.4798,25.3503,20.4093,-1.2911,60.1270,-8.0266,80.6092,99.3187,-91.7306,117.4972,-51.1862,48.8004,2.0959,-68.1042,62.5756,-16.5929
47.5279,-89.7890,12.5965,-59.5966,68.8880,19.8044,41.7052,17.7143,40.1536,46.9726,134.5661,-91.2272,170.2339,-156.6479,69.7731,4.9011,-32.4690,42.3369,-31.4862
20.1506,-82.3300,51.4422,-51.4060,103.7611,17.3140,4.9806,-59.5830,-17.4809,-45.7269,153.1221,-57.0329,217.2513,-72.1554,53.1980,-99.8902,-1.3926,48.1096,-101.1052
1.6935,-52.7629,74.3717,20.2462,151.8610,95.1878,-72.7042,-56.6759,-88.2052,-103.8861,173.1329,21.6250,240.2040,133.4935,41.1039,-101.1806,60.0652,138.1942,-113.1314
-28.7501,17.5616,114.0908,119.4946,198.0081,199.4650,-86.5388,25.9463,-71.9336,-57.8155,170.9154,95.0274,213.5312,185.4246,19.7373,36.1317,129.5719,235.0359,-37.9811
-19.6790,76.1475,158.6260,148.5539,206.9369,228.0507,-44.3752,62.0416,-43.5944,25.2704,134.4522,103.6638,156.6973,76.6877,-64.7230,99.2455,153.2402,240.7146,14.5438
48.6340,46.3346,165.1217,104.3344,186.0982,186.1611,-18.5686,15.7786,-70.1187,37.8962,128.3288,53.9142,139.7945,-7.0729,-139.7006,13.3921,141.5405,174.3017,6.2429
82.6333,-27.7991,146.2602,62.8887,169.7835,135.3444,-7.7475,-20.6182,-86.9067,-2.0109,165.2318,15.8629,168.0330,-10.0254,-104.4924,-58.3361,134.4766,123.6042,-0.4781
43.8601,-59.2109,131.1788,58.5892,164.1561,97.9153,6.6588,-10.8997,-62.6435,-39.5461,167.8493,24.0373,173.1682,32.4887,-33.2737,-39.1564,134.9677,111.3528,1.4855
3.9434,-42.6689,100.7351,76.2152,145.4585,83.7534,-9.1806,5.8989,-58.3519,-78.5787,122.6024,57.0924,147.2605,111.0468,-42.4164,4.3829,128.9938,111.7353,-12.8640
-19.8415,20.6331,49.8606,118.2314,112.0314,118.4006,-51.1260,50.1984,-90.4258,-66.7925,85.9690,108.0554,135.5380,183.8471,-81.7435,76.9260,114.8610,151.4058,-10.4665
-56.7743,112.4919,28.2227,185.3073,102.3711,193.2685,-53.1908,151.9678,-101.8104,55.1297,69.5154,162.1273,124.9688,180.8516,-55.1136,175.5309,108.0119,243.5757,35.7666
-58.5331,118.6312,59.5942,216.7827,134.2607,235.8439,0.7969,228.6472,-54.8146,167.7751,61.0475,162.9171,85.4140,102.5233,6.4769,171.0887,131.5872,285.8304,101.6255
15.4695,6.6412,106.0588,155.9783,170.1436,183.2778,60.9628,195.0782,19.5853,122.7052,66.1979,103.0885,52.4821,31.3085,29.5518,60.5638,175.0760,203.2206,153.5693
94.5535,-75.0037,130.5954,58.4583,174.8746,76.8308,89.0546,103.7694,43.1430,-20.6948,75.7253,50.3503,60.3567,36.8275,10.3151,28.9744,191.2032,93.1691,148.4690
101.3972,-48.3855,126.7720,23.0342,156.3350,13.0922,74.4108,44.1580,-12.1154,-123.1042,82.1908,40.5789,75.9932,85.7059,-22.2514,82.5777,160.3368,59.8605,70.1980
43.4688,7.5912,100.5346,43.1907,133.2784,9.7305,32.0987,25.4570,-59.1508,-140.2449,89.3750,51.4346,65.2968,89.8510,-44.2627,61.0490,102.2310,56.5934,-2.7822
-31.6955,40.7032,58.7541,39.3484,105.0141,9.3798,0.4523,30.7955,-31.1919,-85.3589,71.9086,50.2101,43.6364,41.3915,-40.7607,31.0560,25.3283,16.0625,-3.5908
-79.5893,22.6525,-3.4445,-13.6564,51.4608,-22.9662,-18.3563,48.5284,-3.9917,-20.4732,14.6195,-1.1417,21.5311,0.0926,-31.8660,125.1526,-65.4536,-48.7030,8.3093
-79.5986,-85.4340,-85.3143,-87.1445,-36.2310,-87.8566,-52.8881,41.0724,-37.9457,-29.8952,-47.1705,-102.2377,-25.4645,-21.2124,-42.3645,153.2182,-133.6618,-119.7393,-15.3122
-59.3819,-189.6494,-142.2969,-153.9383,-110.8270,-157.0446,-74.5469,2.7147,-48.0848,-73.6072,-94.4358,-175.5483,-93.5309,-41.1183,-44.8254,-47.4771,-150.8392,-174.7901,-16.5960
-69.1076,-153.8998,-136.6018,-184.6268,-110.8733,-169.0093,-41.2022,-13.6871,14.3809,-41.1239,-135.7480,-165.2411,-127.5257,-53.9028,-16.2759,-208.1902,-144.4209,-165.6431,10.2877
-123.4661,-44.9001,-108.3188,-163.9177,-60.4984,-122.3974,-1.4235,-2.7990,47.0207,29.8999,-149.2256,-107.4790,-106.9476,-62.1844,-1.3823,-98.1158,-153.3067,-118.1147,-10.0861
-175.2701,-2.2324,-101.8365,-122.6786,-37.3392,-104.2050,-15.2899,-16.2565,-10.1150,23.3013,-123.5026,-56.0897,-79.1373,-73.0833,-32.9760,61.9072,-163.1154,-116.8677,-58.9811
-152.6569,-17.6016,-85.8130,-102.3722,-53.9522,-139.0030,-53.4613,-48.2494,-72.7241,-39.7062,-97.3837,-44.7462,-70.6098,-71.2494,-73.4799,42.8220,-141.3102,-155.9756,-58.9509
-53.3102,-45.7467,-40.2001,-119.6018,-67.7542,-165.3983,-79.1557,-61.1241,-79.7026,-70.4812,-85.6904,-94.4818,-58.7748,-60.6058,-94.8705,-46.5238,-110.6323,-177.9060,-41.6940
28.0813,-84.5568,-17.2020,-170.6276,-67.9383,-176.8897,-105.2570,-76.6087,-69.0992,-64.7375,-59.3546,-159.1383,-43.4886,-56.2178,-112.6173,-63.8478,-112.0169,-187.0151,-67.1959
21.3142,-84.3420,-40.9660,-207.6392,-70.6978,-184.5830,-120.2582,-100.4770,-57.5896,-28.3685,-13.4816,-153.8181,-43.3213,-39.6403,-117.4208,-23.5290,-120.9866,-168.3652,-87.1084
-29.3895,-24.5048,-62.0611,-160.9529,-69.7369,-129.3532,-86.2755,-67.9309,-8.5487,74.0485,30.4045,-86.0640,-41.4594,-12.7502,-79.1324,35.6219,-90.5033,-69.1581,-42.5962
-53.7959,8.1877,-50.4283,-53.5623,-45.4047,-17.6791,-15.7904,23.3860,68.2164,191.1980,56.2086,-38.8846,-25.2009,-11.2568,-18.9566,60.8305,-37.5878,48.4693,31.1569
-58.7394,-16.2074,-37.5308,10.5987,-10.4990,38.0659,34.8930,75.4637,106.9644,198.3697,41.1390,-34.6920,-29.4761,-21.1013,2.0638,9.0259,-5.7545,70.0272,69.1445
-89.9832,-22.3949,-58.7174,10.1939,-14.8595,18.1765,28.7095,49.8470,84.3858,106.0541,-34.3875,-32.0640,-84.4206,-11.5413,-39.6866,-32.7076,-2.2735,27.5947,44.4232
-147.4512,-7.1289,-107.2845,3.7358,-76.5278,-0.7853,-22.7253,6.0259,40.8042,44.7467,-143.4247,-20.9242,-172.0749,-11.3978,-103.8704,10.6950,-19.8126,-1.1124,-22.5684
-191.4452,-43.7643,-143.5206,-19.0156,-144.5727,-24.4058,-75.5609,-31.0658,0.9837,21.1508,-214.7272,-35.7488,-246.1679,-37.4319,-133.7178,40.0734,-50.3713,-53.7318,-79.0880
-218.6418,-125.2141,-149.1087,-89.1823,-185.6781,-89.1257,-105.7350,-86.8305,-39.9157,-53.7010,-206.7273,-88.1010,-268.4480,-60.3994,-115.8036,-5.8017,-79.5974,-141.4530,-102.1324
-258.8240,-172.4371,-158.7234,-132.2829,-231.0087,-140.8768,-122.4067,-139.0355,-53.1868,-121.6200,-172.7064,-130.0465,-249.9333,-84.4805,-77.5393,-40.2762,-105.5702,-167.1177,-111.9834
-280.0845,-149.0598,-190.7040,-83.2142,-275.3019,-129.6066,-115.8288,-134.1792,-9.3935,-67.8410,-186.2525,-113.1728,-238.6229,-116.9867,-37.3173,-56.2048,-112.0238,-109.4205,-100.1963
-220.5434,-80.2910,-192.9023,-9.5236,-256.1959,-79.2590,-62.4624,-75.8859,32.1003,27.8072,-212.3175,-55.7940,-238.6395,-103.5826,1.2717,-106.5328,-57.6349,-48.7541,-50.0746
-130.1488,-6.6388,-134.1326,26.1055,-179.3177,-12.8041,6.6766,-14.1526,-2.4096,31.3743,-180.2242,3.9130,-211.0024,-15.6222,23.5040,-100.2570,27.5810,-0.7816,-13.5993
-101.8586,47.6642,-74.5035,58.2526,-117.6857,51.8712,28.6855,15.9149,-65.1706,-11.2846,-130.2153,63.6284,-158.3530,83.6649,19.8805,22.1838,53.8689,57.1953,-31.0079
-92.4977,75.1845,-63.7090,97.6521,-85.0611,76.7856,1.2379,2.5030,-63.6433,-19.9865,-110.2281,112.5388,-106.8949,116.0940,4.2011,120.4168,37.9363,86.4561,-44.5134
-25.1632,75.7714,-60.8481,111.5700,-45.8091,66.2718,-14.3825,-44.4802,-8.4216,-31.7857,-59.7712,131.2212,-46.2677,64.7989,-4.7096,121.5054,67.6110,68.9804,-15.8690
44.1771,69.8575,-24.5810,124.1424,-12.3654,61.1728,15.2757,-85.1092,42.9611,-64.3622,23.6304,145.0565,6.4616,-14.7314,4.7492,114.2222,113.1462,49.6938,-2.4787
65.0299,88.0756,11.8880,162.6139,-25.4563,57.2204,44.0432,-89.9785,89.8646,-65.7928,21.9606,163.6945,-20.4825,-50.8216,17.9240,84.9614,97.7989,46.2100,-28.5790
93.8351,118.8845,12.0509,180.2266,-74.8337,34.1800,25.1362,-80.0812,135.4505,-34.1510,-68.4889,138.3507,-122.2013,-46.3423,-10.8883,-34.7992,61.2054,52.9904,-37.8703
123.7916,127.4773,-0.1817,152.7196,-100.3960,21.0922,7.9046,-80.5900,148.4170,-15.9742,-107.4315,71.0732,-184.7828,-46.0616,-74.2968,-133.6633,61.4450,79.1681,-16.1271
80.8315,128.0108,8.6755,125.6655,-67.5393,42.2009,51.3164,-80.1754,139.0162,-39.2984,-53.9884,29.8598,-148.4207,-38.7958,-78.5946,-96.6835,77.5095,92.8245,-6.0805
14.0664,149.4504,33.4555,120.4837,-16.1546,62.1121,95.4763,-78.2484,157.2040,-104.0570,14.7339,31.3427,-72.7420,-13.0930,7.6539,-10.7867,108.1653,57.3776,-2.5604
15.4509,165.3129,62.3923,126.6928,3.8596,50.8816,77.1645,-90.6083,197.6299,-155.4060,63.0905,56.1450,-16.6095,-10.5099,86.8308,34.3863,169.9075,33.2835,32.1925
42.7424,147.3015,95.9405,152.9663,12.7973,45.2493,60.3551,-81.3962,209.2319,-122.1424,84.7195,105.0378,20.6640,-15.9722,101.6180,71.0693,203.2147,83.2173,77.1016
40.7544,123.3974,116.7666,182.1303,38.1802,84.5542,85.2429,-5.8826,187.5884,-24.2283,62.9923,138.4536,39.7561,36.0185,109.1393,102.9515,164.0505,144.2801,88.2484
47.6233,114.5609,104.4373,167.1429,45.7653,129.3226,83.3587,79.9119,175.8452,71.8660,29.8105,114.5081,30.2245,110.9467,140.3009,88.7489,120.8018,137.1816,91.8372
55.7605,95.0452,78.1060,119.5651,26.2814,123.0906,62.7534,91.8077,191.1274,154.6106,20.4978,94.6797,5.1717,126.9891,158.8242,38.4179,130.9254,90.2595,142.4097
6.3122,58.3961,64.4751,92.3609,31.6703,99.2484,109.9919,63.8569,201.7881,218.0099,2.9509,136.9551,-20.7056,105.5224,154.5260,-4.4388,147.9997,68.2224,215.1933
-54.3898,40.4118,55.0513,87.3525,61.6846,119.1702,176.6041,78.7050,171.4822,243.0535,-32.3803,181.0301,-50.2888,105.8250,145.5034,22.6917,125.0127,85.6303,237.3783
-38.6933,46.4762,42.8251,71.3148,64.0271,151.6631,153.1460,121.1980,110.0001,265.1800,-33.0320,169.9843,-69.6089,123.2489,139.3358,159.5714,92.8835,111.4982,209.1004
22.5302,30.8927,39.5947,33.6163,50.9871,136.7652,85.4035,129.4351,70.8143,304.6090,0.9355,123.5317,-54.3124,138.6259,145.8371,300.4298,90.5500,101.8609,189.8346
49.6591,-21.4670,36.1671,-17.9006,66.6339,96.2260,66.7727,103.9101,78.7599,295.7043,20.0698,55.7318,-13.0758,149.0970,153.6127,294.5312,94.4791,57.4816,181.0652
39.0426,-61.1713,23.5574,-60.2529,94.5349,72.0611,65.8201,73.1874,88.2416,214.9095,42.8423,-12.2866,33.0017,143.7784,122.7758,184.5836,68.5772,31.0248,137.4350
26.2278,-59.1498,31.5230,-65.5728,106.3907,49.8503,34.2521,37.3258,63.1411,141.2234,107.3393,-30.0169,73.5240,117.4916,64.8605,101.5722,37.8893,27.3543,74.7797
23.0191,-59.8031,66.7638,-52.0569,104.0059,9.8502,7.6613,-2.3226,43.0368,119.2812,155.1042,-21.4265,75.4431,74.9607,40.8707,39.7579,36.9816,-8.2813,51.0373
19.8407,-100.6279,78.4621,-63.5938,73.6927,-31.7059,7.1621,-19.0816,56.4548,109.6075,117.2925,-55.3200,16.0249,36.0545,55.2446,-21.5367,37.0458,-59.7747,64.0075
-3.2684,-134.9895,46.6760,-78.5077,12.9390,-44.4349,-4.6606,8.6631,59.4428,90.7790,44.0230,-85.2008,-50.0793,45.9108,64.8153,2.0465,16.0523,-45.8383,64.7118
-56.6779,-94.5332,9.0833,-39.8128,-28.1445,-12.6972,-37.9449,61.1591,42.3276,97.8681,9.7405,-23.6103,-69.9413,90.0403,67.0203,111.5759,1.5367,16.8370,38.3048
-127.4081,-6.2166,-32.0637,15.9320,-36.0135,19.7760,-54.9920,85.8303,64.3269,141.9276,-25.6011,61.9633,-85.3526,70.5663,71.6685,166.2986,-32.0661,17.1472,3.8780
-195.8770,19.7007,-117.2270,-7.1512,-79.7528,-17.6641,-46.2322,66.7671,118.2670,154.4356,-127.0591,41.0307,-140.4341,-13.3567,49.9069,99.9162,-138.8871,-63.9264,-23.9842
-231.6819,-47.4193,-225.4446,-85.1093,-180.7761,-84.6293,-48.4585,56.9382,133.1210,89.1006,-235.4001,-51.3699,-196.8161,-39.2054,-1.8534,-6.2749,-244.6467,-112.2255,-32.6306
-197.8191,-88.9418,-265.6164,-85.3542,-246.9704,-59.4706,-64.4464,89.7562,121.4744,35.8007,-237.6714,-72.7712,-208.2750,-3.0572,-28.4366,-58.7217,-226.2601,-56.2352,-10.7669
-112.3149,-21.7018,-196.2563,14.3712,-212.4663,46.9404,-47.8134,124.4343,127.4499,75.3069,-133.0165,-5.8634,-173.0081,-11.1627,-11.1674,-35.9022,-112.6628,29.2533,30.5867
-40.3370,65.5382,-84.5216,94.4248,-134.9467,104.9082,-9.2101,133.8269,97.5778,107.6148,-27.7512,48.2644,-114.9760,-22.4495,-9.8046,25.7594,-17.6812,46.9179,61.2481
4.0482,87.0983,-17.4347,100.9194,-90.2598,88.4753,-19.7452,138.9721,-0.2842,40.3176,2.3947,65.3091,-80.3028,65.5771,-52.3614,84.7385,20.4042,6.7409,56.1493
50.2501,97.6098,-4.1090,87.7727,-70.8201,67.7735,-70.6010,130.1104,-73.9514,-27.4058,-14.8935,97.9089,-80.5257,166.0511,-75.4491,125.2653,14.6864,-33.9120,14.1460
87.8061,132.2344,-5.2432,63.7994,-49.1052,49.2439,-83.5635,89.3908,-71.2810,-13.9869,-11.4344,124.2515,-56.7446,158.6445,-38.8070,121.8278,-17.9857,-57.2867,-35.2103
96.6300,135.4220,-10.0178,5.7682,-49.3578,13.8635,-62.7267,64.2191,-54.6359,10.8510,13.0671,88.7998,-2.8639,100.3804,-1.0195,55.0347,-50.3485,-55.0964,-60.7698
93.9330,119.7702,-25.3829,-33.5358,-88.4916,-7.3114,-66.9183,80.9562,-50.6928,15.0172,3.7551,26.3750,1.8473,42.0054,-10.5649,-12.1162,-76.2044,-27.8964,-69.1698
91.0052,157.4163,-33.9125,-10.4050,-118.2234,-15.4867,-78.0787,82.0659,-26.3577,41.9571,-27.9005,-13.5018,-34.6628,-68.5885,-23.9633,-9.2601,-91.8471,-22.2990,-73.7932
98.3201,225.5472,-19.4489,18.2413,-90.5238,-51.1802,-41.9697,52.9251,15.7446,77.3556,-20.1866,-46.0686,-26.6497,-169.7779,7.7396,9.6148,-61.5763,-52.2390,-47.1080
142.6706,260.6551,-0.8481,7.6643,-33.6496,-80.4345,30.1834,57.6997,63.5079,100.9332,-2.2520,-59.0227,-2.6317,-123.2798,67.3920,-29.7540,-3.3579,-50.2684,21.6071
187.6513,274.3314,-6.0084,3.2021,-10.9421,-29.5253,82.2573,103.7634,116.1231,137.2145,-41.5210,-4.7955,-39.7657,19.9262,113.8902,-71.3216,8.6590,13.6233,72.0288
171.2544,298.8957,-29.9423,50.4265,-28.2424,82.2878,83.1676,141.5123,133.1470,162.6086,-82.6809,94.2273,-89.9602,109.2929,120.1604,-42.4475,-5.5554,90.9430,68.6411
158.4816,344.0975,-31.8616,133.5594,-30.2541,172.8097,63.1713,170.6972,92.4544,149.0066,-44.8382,184.9351,-83.2965,130.8387,79.0715,12.7110,30.7238,156.6152,67.2094
242.2698,413.2873,15.4214,208.2292,14.6348,212.8013,79.0513,199.7337,46.0635,143.9430,17.9899,260.6915,-45.5810,121.9154,15.0345,47.8722,90.0834,209.3475,105.5359
352.8780,465.9752,81.9179,247.0269,79.2260,223.9700,127.9883,196.1459,25.8431,157.9946,46.6747,304.7752,3.2024,79.9201,-30.2549,106.5497,123.5222,226.6490,147.8844
396.5010,461.8902,127.3229,268.2464,132.6033,227.0630,163.9850,176.5533,14.1860,148.0035,95.2719,292.6323,74.7640,76.7027,-26.0048,184.6532,173.0819,228.2614,179.6754
411.9612,450.5036,161.6546,301.1216,167.9065,246.6826,187.5826,208.3927,15.9407,152.9450,173.3498,269.5359,129.4998,185.1124,29.2354,170.3695,246.1080,265.3437,216.4771
418.8429,458.3073,194.2904,322.8525,178.1165,291.9846,210.0495,278.0643,25.4503,210.6680,191.7891,278.7632,131.5067,292.8198,88.0397,54.8386,271.7841,309.5566,234.2799
365.2892,402.1854,187.8414,297.4156,167.0307,310.2962,200.9491,301.0148,2.1864,222.5461,141.4901,273.6135,112.7030,257.4672,95.9013,27.5477,239.4984,291.7267,213.6913
280.0214,273.0029,129.9937,233.4516,153.8878,242.3318,159.1099,252.8321,-42.5675,120.2763,101.4594,207.1032,98.0443,138.1050,69.6056,165.9936,186.2013,207.9992,172.6013
215.2152,181.3587,61.3281,136.1689,125.3052,113.0247,110.1315,167.7023,-69.5294,-3.5201,78.3896,101.2388,77.7081,60.8040,53.8147,227.3896,103.5117,91.1831,98.4860
136.0383,135.6631,2.0256,10.4275,54.2930,-3.2401,37.3972,70.5733,-94.9357,-63.6265,30.6478,0.7362,53.5386,34.3962,41.7905,46.5573,4.4420,-14.6017,-12.3104
50.1597,56.2571,-49.7729,-68.2804,-28.3351,-62.5348,-43.5324,0.5549,-115.3359,-77.7062,-24.8387,-46.6831,20.6544,28.5365,34.9851,-104.8411,-47.7614,-42.6244,-82.1802
22.7613,-27.7901,-72.8604,-52.2849,-74.5250,-61.8531,-59.8925,-3.2539,-82.6665,-69.3077,-56.8832,-29.8992,-35.6131,35.9158,67.1128,35.1629,-47.4074,-3.1490,-71.4207
13.8357,-61.9017,-60.8681,-29.7116,-84.5748,-34.7163,-23.1208,22.3166,-31.2325,-47.1406,-63.7473,-19.9611,-82.0415,26.6879,105.9767,235.0219,-45.0981,-0.8787,-45.9734
-36.0255,-89.4407,-43.3880,-60.5174,-64.2510,-23.0247,-6.4888,24.5652,-38.6699,-32.1766,-40.1753,-50.4650,-68.8493,11.1039,88.0421,207.0806,-52.6392,-50.0770,-31.8133
-65.0587,-124.2336,-38.4252,-73.5238,-21.5423,-17.1379,-6.1062,25.9264,-84.7752,-27.6093,-11.0882,-43.2309,-20.5711,67.6125,31.0983,101.3000,-57.9931,-60.5982,-2.0855
-47.9349,-127.0300,-56.3945,-55.8538,-16.2519,5.6511,-12.8936,33.7556,-124.6301,-36.2332,-38.6998,11.0607,-6.5283,173.3924,-27.9559,100.0137,-77.6836,-36.3514,-8.4313
-70.3757,-133.6856,-112.2874,-86.5146,-75.7365,12.3876,-70.4119,-8.2068,-169.1271,-77.2939,-108.2522,3.9865,-33.7741,169.8604,-89.8609,63.2713,-126.5487,-47.5657,-96.0959
-143.5656,-182.7817,-173.7516,-138.8971,-125.4677,-11.9819,-147.7113,-88.3465,-194.4528,-133.1339,-131.5638,-68.4978,-46.0471,12.9173,-124.2191,-54.3520,-178.8683,-64.7834,-180.4671
-189.6894,-218.5226,-180.6055,-127.6909,-117.7256,-16.8879,-172.3558,-128.0329,-171.0630,-169.5245,-99.7368,-96.1357,-22.3492,-122.5171,-116.2108,-53.1252,-187.6549,-33.0856,-188.2422
-184.3938,-204.8349,-131.1682,-78.6874,-86.8528,17.0525,-165.5841,-118.8200,-163.1746,-194.7721,-68.4904,-60.8390,4.9774,-86.8200,-123.8137,50.2742,-137.8843,25.0014,-157.5030
-137.3887,-164.7050,-60.9391,-37.0930,-31.3527,66.5243,-150.1434,-84.5310,-197.4914,-209.8273,-28.2351,-12.8026,32.3803,45.2564,-143.7677,35.6308,-68.9950,88.5958,-116.1855
-59.5905,-96.8135,12.5402,16.2256,62.2010,131.3701,-89.8406,-14.0690,-176.2874,-183.4009,34.4778,49.2963,76.4833,115.4514,-108.0267,-57.2955,-23.4681,146.9470,-53.7352
-9.7249,-24.2857,56.7330,58.1853,119.0433,183.4393,-17.9869,49.7698,-74.0449,-121.1038,52.8629,108.1627,95.0886,106.3766,-62.3563,-41.1159,-4.5649,155.3726,-1.5355
-23.1742,-29.7093,40.0831,39.1540,94.7311,159.2956,7.8816,36.4772,3.2981,-60.8178,11.7805,95.5775,59.2816,91.6248,-86.1466,23.2576,-8.5901,117.2331,11.2349
-51.8235,-127.8828,7.4431,-20.9524,71.1571,76.4762,28.6493,-16.6138,25.4985,-18.9404,4.3294,-1.4268,44.8924,55.8427,-113.4434,-3.6200,-35.6383,77.4945,9.3524
-76.4515,-238.1339,17.2433,-89.2777,94.1507,9.5766,59.6427,-34.8258,60.9747,5.7377,56.7186,-122.8510,94.7394,-41.4609,-75.6748,-42.0074,-66.8927,18.5210,13.4561
-139.8854,-315.2881,27.5284,-163.6541,93.8250,-39.1898,40.4408,-36.2326,106.6084,22.8846,80.5348,-210.6863,116.3870,-125.3880,-32.3668,-4.3228,-97.9878,-69.5854,18.6031
-226.2227,-370.9971,-29.6590,-226.6051,38.1821,-107.6497,3.2382,-65.5540,107.1470,36.6350,33.5755,-246.6001,51.6893,-133.8299,-18.8913,-7.4494,-145.0398,-125.7412,15.9788
-251.2074,-384.7283,-114.1736,-260.5139,-17.6447,-178.8586,21.4369,-110.6342,79.4437,32.4133,-38.4188,-247.2387,-29.6976,-129.3885,3.8093,-111.2513,-178.8729,-134.4957,-9.2111
-183.6551,-324.6282,-138.0701,-260.7094,-45.5711,-208.5536,38.0678,-132.9433,69.5142,26.3604,-93.4218,-229.7137,-75.3367,-145.2255,35.4979,-144.4600,-157.5109,-130.6262,-43.8651
-96.9846,-235.0981,-107.8188,-215.8094,-67.1073,-183.9702,-3.7694,-111.1229,68.6870,55.7197,-118.2510,-200.8989,-104.1873,-147.8596,55.3202,-22.8835,-118.9787,-116.2553,-49.6390
-82.1746,-191.1034,-99.2759,-156.9291,-93.3453,-139.7224,-30.9515,-76.6266,56.1110,86.7626,-123.7496,-192.9229,-127.1363,-172.3640,72.1791,62.2167,-120.0249,-125.4789,-50.0855
-120.5981,-189.4113,-126.5632,-146.6225,-119.1873,-136.2681,-5.0302,-88.2703,48.3963,73.4843,-134.9106,-225.2135,-143.0996,-238.8800,88.6617,-9.4095,-135.4512,-194.9479,-90.8932
-114.6171,-186.5120,-133.2476,-170.3007,-132.8801,-180.4839,11.0370,-124.7290,58.6388,62.3345,-132.7379,-237.9535,-148.6040,-247.1121,107.3922,-80.0041,-114.5348,-222.3534,-114.2730
-55.7998,-180.4255,-92.9040,-163.7304,-115.7922,-197.6598,2.7187,-107.0408,58.6363,80.3678,-82.6223,-174.8262,-126.5812,-156.1406,122.3208,-42.5094,-58.4276,-115.3748,-52.8782
-18.5465,-154.0865,-35.5618,-119.4699,-73.6499,-141.0680,12.2325,-46.3314,21.4253,70.9920,-34.8366,-84.6355,-97.7242,-69.3829,91.1035,-17.8780,-3.0778,8.4467,15.2993
-12.4478,-72.4488,-0.6530,-72.5498,-47.3196,-68.2394,32.6199,-24.8815,-28.5139,43.0692,-57.3135,-51.5353,-103.4564,-57.5270,27.8418,-72.5835,9.6381,13.3474,-10.0184
-17.6708,-6.2299,-16.4447,-63.3520,-59.3965,-59.7873,30.3263,-62.5287,-49.9256,50.0206,-109.9274,-85.8428,-119.2156,-92.5717,6.9003,-111.8790,-25.1680,-56.4579,-80.2159
-57.0371,-41.5203,-69.5332,-101.1586,-79.3081,-106.3186,7.5808,-109.6444,-46.1695,36.8054,-125.9062,-113.2197,-113.7264,-113.1766,1.3886,-89.3256,-42.9667,-100.5853,-90.8936
-94.8170,-76.6246,-84.3816,-94.2403,-64.9781,-107.8452,-5.7204,-101.8395,-41.5239,-35.4750,-108.9790,-51.7313,-107.8094,-60.9031,-47.2380,-36.2729,4.1871,-68.9797,-29.3654
-53.4245,20.2322,-17.4059,39.2138,-11.8393,0.6247,21.4683,-5.5188,-26.0915,-60.9440,-56.4318,70.4590,-67.7625,38.9527,-50.8477,35.2449,73.9781,42.2636,51.9512
32.7995,170.1195,71.3108,197.4511,52.9286,147.9987,78.8672,120.4002,14.6525,4.4601,48.9698,142.9054,57.7248,95.6168,41.0139,86.9337,118.9132,157.6251,111.5634
87.3218,246.0928,121.7199,247.2394,98.5354,216.6354,105.3170,177.2442,49.3902,47.2604,143.4210,157.2050,169.9221,121.3913,78.5915,71.8777,143.2699,194.6588,131.7544
118.1223,259.3276,148.0350,223.1863,113.8813,187.9391,84.4371,153.3623,49.4440,19.1157,157.7912,191.1913,160.9056,175.3958,-4.9039,30.4213,143.8174,173.6056,116.0762
126.9322,246.3181,160.5994,192.2319,126.3708,123.0198,85.6374,96.1607,52.5173,-10.0565,144.5758,222.4199,129.6630,191.8468,-54.5440,13.1252,116.2715,133.4850,88.9243
87.5690,217.3474,145.7910,147.7286,165.3690,74.7777,130.0880,33.1086,94.7661,-29.3740,169.2136,188.3861,184.6637,118.4251,1.8142,7.2442,91.1858,70.4347,67.8668
51.2701,202.3707,117.9102,110.6368,192.2612,56.4611,127.7489,-10.1516,118.2545,-83.3591,180.6489,132.3255,234.2921,39.5753,45.6677,14.3948,75.7382,16.7964,38.0384
73.9352,188.4386,91.1083,107.5506,152.1799,35.7110,41.1457,-27.7637,59.6775,-138.6477,137.2281,103.3571,200.2465,9.9244,16.5786,33.4477,57.3127,9.6712,-6.1057
124.6087,163.6692,76.3822,123.2611,93.5635,11.6596,-26.6969,-34.8248,-16.5694,-119.8067,125.7973,97.0838,175.6213,28.5282,-10.5201,20.9191,78.2399,33.5845,-12.7935
173.2546,196.2453,117.4321,177.0918,96.2099,70.7094,-11.7161,13.4954,-24.0304,-38.0099,199.0664,138.2001,209.6664,118.2920,7.7991,4.6279,156.9604,84.5814,47.3972
205.4407,262.9361,194.0606,252.1376,114.5515,204.6504,-2.7026,132.0860,-18.7351,13.2836,233.2956,202.0412,197.1333,197.6185,12.6133,41.2097,199.0986,137.2570,95.4163
177.0136,231.0585,186.7160,233.8711,65.9536,228.9027,-69.9410,186.4169,-80.2746,-10.5363,130.2112,180.5234,89.8819,141.1163,-47.6128,41.6398,142.1998,104.5074,62.6944
102.2742,135.2722,76.2334,116.4265,-8.2695,88.6213,-148.1800,107.8907,-147.1320,-55.1039,13.7298,81.0544,-2.0910,36.3818,-113.5974,-58.4307,61.1632,-3.8205,10.0755
50.3061,104.2920,-12.2474,23.8223,-44.7825,-35.0426,-186.6927,30.5112,-148.0142,-81.2236,7.3064,15.0062,-10.5938,15.7564,-106.6967,-91.1258,20.4968,-76.9039,-5.6791
19.0072,86.6680,-38.9610,-27.4018,-89.6107,-59.8281,-237.3082,16.6838,-131.3020,-115.3744,-1.5777,-10.1994,-31.7266,16.8262,-80.2465,37.2595,-5.9002,-111.8269,-36.6824
-6.9552,23.3455,-73.3996,-70.3212,-181.1765,-74.6412,-324.5686,-21.4457,-137.5076,-145.0392,-121.7458,-31.4424,-137.3729,12.2398,-117.5533,111.6165,-27.4738,-157.1989,-108.5278
8.4218,-7.1426,-112.6442,-65.2983,-256.7744,-99.4157,-397.8975,-78.6378,-146.9901,-133.1644,-221.8843,-42.9926,-223.3661,60.9098,-165.1819,-5.4414,-33.3250,-173.4249,-166.9594
22.2295,-35.4465,-119.3656,-73.2246,-271.7336,-124.4743,-432.9896,-100.7065,-179.0225,-124.9666,-191.2079,-100.6654,-194.4982,43.2132,-161.8779,-119.2981,-63.8489,-172.5658,-197.4573
-44.5143,-144.7401,-128.3385,-184.1960,-264.3074,-194.7444,-440.5086,-133.4704,-227.4397,-144.2188,-149.8400,-216.7209,-137.3329,-132.5861,-163.1877,-80.8341,-129.6339,-218.4672,-214.2677
-116.1708,-219.0642,-149.4822,-266.7719,-260.4276,-257.8199,-410.6608,-173.7070,-203.8993,-119.2381,-188.3290,-245.9544,-146.6571,-256.9419,-191.9136,-29.8010,-155.0640,-242.7753,-185.9287
-94.0122,-178.1803,-130.0649,-214.6382,-233.6864,-226.2420,-352.2118,-147.5585,-130.2514,-71.3013,-203.8856,-155.5693,-162.3328,-179.5754,-203.8927,-71.0352,-108.2870,-187.7699,-116.2401
-55.9068,-145.0906,-68.9325,-167.2260,-173.8976,-163.4833,-310.5316,-94.8012,-153.1982,-113.4255,-129.7939,-97.6292,-118.5929,-32.4275,-221.6513,-86.6669,-48.4895,-155.3010,-72.1442
-84.5612,-137.7369,-14.1728,-168.4177,-118.6628,-131.6841,-285.4095,-83.4026,-252.8179,-202.2355,-53.3783,-89.5749,-66.7898,69.9731,-254.0894,-37.3841,-3.6954,-172.0899,-62.2902
-111.9775,-57.9348,11.9641,-85.7073,-99.8030,-74.5859,-223.9218,-72.4199,-258.3215,-204.4295,-45.2482,-36.0541,-54.7280,100.3460,-218.0068,-63.1276,41.8729,-136.3160,-42.1532
-78.9305,28.5949,7.9656,33.4665,-94.1950,-0.6285,-124.6303,-43.7675,-171.9089,-142.2932,-61.9759,17.7681,-44.0358,25.2197,-116.6116,-135.3559,66.9290,-64.2657,-13.8574
-25.0169,20.8833,3.6270,36.0764,-63.0591,12.9044,-56.3648,-36.8555,-128.9200,-112.3664,-40.4133,2.3324,0.5687,-65.0350,-52.0646,-46.8941,64.8247,-45.1256,14.5987
10.5335,-25.5143,44.6031,-30.7158,-21.8899,-13.9629,-51.2131,-31.3874,-118.0024,-120.1490,2.3841,-41.7584,43.1239,-45.1431,-24.7414,149.7723,84.9601,-52.4367,63.2813
13.8312,-55.1592,93.5150,-62.0034,-11.4720,-29.8950,-55.9773,-14.8370,-60.7116,-141.1771,7.2678,-93.2936,39.9028,19.9537,13.3037,178.2267,114.7352,-39.0350,91.8973
-23.9651,-78.3863,75.6624,-82.7434,-21.6441,-49.7386,-28.0274,-45.3763,-19.7337,-173.5957,-4.8502,-152.2675,27.1926,40.6056,24.4050,12.5573,70.1166,-36.8699,30.1796
-73.5760,-84.6243,22.1540,-120.6003,-21.4093,-78.2680,-14.4929,-120.4710,-78.3946,-197.4667,27.3331,-177.6945,60.3835,34.6648,-0.4545,-149.7691,-37.8687,-76.4275,-86.8312
-89.8862,-90.5632,-9.2982,-154.8252,-32.3396,-104.3874,-70.1158,-168.2337,-178.4716,-199.7474,41.3278,-189.2058,77.3652,-38.2570,-15.2212,-241.8514,-109.6376,-150.8528,-158.0645
-72.1544,-134.2144,-49.1412,-194.5712,-84.1488,-151.0800,-150.6612,-180.0327,-225.5318,-205.7770,-46.3453,-240.4925,-1.8262,-197.3396,-46.6772,-273.5911,-121.8983,-220.8770,-144.9489
-51.9986,-177.9649,-90.5532,-236.9842,-126.0821,-204.2759,-165.9530,-178.0147,-203.9218,-229.7755,-114.8188,-281.9827,-62.6899,-280.7170,-103.1573,-191.4431,-103.6048,-215.4704,-66.4077
-39.0468,-167.4482,-45.6551,-233.5573,-70.6097,-194.0950,-85.9100,-135.3911,-128.1235,-237.6831,-13.9849,-248.7905,47.8497,-185.9040,-81.4729,-46.7305,-32.7850,-121.1057,45.1605
2.3024,-117.9055,77.2331,-175.4500,77.2395,-121.9369,56.9781,-61.3618,-11.6047,-198.9453,154.8062,-187.1819,227.0793,-51.6009,39.4495,-23.7723,75.8035,-29.6366,134.2655
91.2718,-84.9868,165.8555,-124.7480,203.3500,-85.1591,189.9305,-37.3353,83.9948,-151.2738,214.9053,-172.7125,281.2364,-44.9086,132.7588,-175.1111,119.6550,-23.7696,150.2897
152.9080,-118.9699,168.9339,-131.3276,216.6269,-128.2736,220.2893,-87.3782,71.6488,-153.0621,168.4636,-212.1847,225.9262,-174.6095,134.4667,-329.3833,71.1696,-82.6064,103.9214
109.0728,-193.9637,107.4085,-176.3552,141.8536,-182.5151,145.0043,-147.5168,-32.8309,-198.1002,86.7655,-261.8519,158.3006,-316.9950,90.5150,-318.5859,27.8800,-136.9244,60.1075
23.3848,-201.7842,24.1244,-216.1239,63.3157,-191.8664,91.7880,-179.9992,-79.9432,-245.6546,3.0445,-284.7397,81.3306,-337.3914,34.0584,-195.4441,42.3128,-154.5828,70.6228
9.7789,-116.3585,-0.8904,-224.8677,44.2017,-178.7081,144.4705,-182.8196,21.4983,-265.8742,-17.7508,-277.2385,35.9384,-239.6344,-7.3505,-139.9917,71.6509,-135.8495,112.4975
69.7857,-41.8978,69.4597,-182.1230,103.8060,-154.1218,230.8208,-143.9581,156.1661,-239.5623,62.5001,-238.4453,110.7554,-149.7189,5.4385,-189.1833,94.7234,-78.1480,117.1996
143.3877,-33.8182,157.0596,-99.1413,196.2472,-102.8760,257.5446,-103.0309,178.7903,-216.0164,170.2566,-163.0229,249.0497,-136.7257,49.1396,-222.1195,127.0418,-8.3977,72.6908
194.3883,-44.3759,193.5478,-41.6123,235.5747,-61.0489,219.6730,-128.0444,130.5509,-268.7697,229.2007,-84.2552,309.4313,-162.1708,62.6774,-189.1949,149.8102,8.4098,28.3856
190.3833,-37.3709,195.8474,-40.0193,196.4517,-70.6967,149.3697,-177.7053,115.9486,-326.1677,229.0074,-37.2305,268.2645,-159.5763,35.0253,-159.8176,131.7708,-39.8261,2.4306
134.5107,-17.1413,165.1283,-51.9515,126.9681,-104.3195,84.9828,-174.1336,114.3803,-281.8914,164.7631,-2.9897,179.1184,-97.8790,-5.6810,-179.8443,89.8645,-97.6529,-14.6657
91.7897,3.6763,91.1495,-58.2980,59.2903,-131.3065,69.7947,-162.3504,79.7889,-218.0278,57.6182,26.7454,71.6350,-39.5362,-31.8159,-214.0000,74.2891,-134.7419,-2.3335
108.7496,12.7958,47.2873,-63.6660,17.5138,-153.2321,102.9110,-188.8376,56.6137,-216.2644,-5.3150,22.8158,-3.8389,-76.8018,-26.7887,-194.1255,111.7542,-141.4625,49.1489
180.5879,32.8572,104.1285,-35.8870,52.3110,-145.9300,141.5004,-176.3755,70.8672,-180.9112,40.4080,-3.2148,15.7674,-159.7095,-2.6921,-115.9083,173.9589,-99.3632,103.3706
267.3158,81.0529,200.3446,18.2604,152.4493,-95.3555,159.4930,-89.6959,77.3082,-94.4834,151.3732,-10.1013,112.1815,-152.4175,25.0346,-59.0926,202.4196,-46.0259,126.4959
287.2031,107.2494,225.9670,32.3444,211.2951,-53.1262,149.8845,-22.6696,70.2357,-77.5806,213.8703,4.8449,192.1292,-62.6268,71.6298,-42.9351,169.7034,-45.9376,103.3529
212.2675,83.4305,161.7900,10.1080,162.7111,-55.7913,111.1276,-35.5123,85.9084,-106.3204,156.8842,25.7219,176.6440,-13.3699,122.3821,-26.4652,101.3372,-84.3382,33.8565
147.1388,54.8339,74.1401,-5.4595,55.8561,-91.9104,63.7664,-102.7057,99.1311,-87.1513,32.6575,23.8212,65.9421,-52.1352,109.8449,-101.2758,43.8491,-125.6147,-32.1225
170.9114,25.6851,35.8870,-47.4728,-17.7204,-162.5150,30.6868,-192.3748,55.1791,-86.5763,-52.4428,-39.8763,-49.7588,-141.6520,35.6951,-323.2967,37.0963,-169.4222,-31.0309
224.4825,-27.2451,66.5081,-109.2135,1.9107,-224.7574,15.5240,-244.5512,-19.9083,-135.6504,-62.7876,-116.7109,-72.4519,-227.6543,1.6636,-421.0339,92.3909,-160.9807,28.3839
248.9733,-48.4172,122.1187,-94.6065,97.7199,-181.4937,36.4169,-199.9260,-41.3145,-120.7536,-14.9029,-106.0219,-3.0005,-256.5822,49.5380,-200.3867,169.9798,-63.1296,93.2928
248.8442,-6.5872,155.5106,-24.0944,177.7391,-65.6200,111.6011,-117.1703,6.2606,-59.5953,71.6908,-40.6374,82.9289,-221.3064,103.1500,18.5200,212.8764,10.2011,139.4671
219.7586,19.9179,164.6927,-11.9170,178.3793,-19.0569,179.1223,-87.5163,28.1799,-85.9046,129.6179,-26.9879,127.7029,-161.6032,104.3949,-60.7495,211.1933,-17.8675,157.1868
174.7359,-13.7468,153.5560,-39.1216,118.3513,-43.0411,133.2874,-90.6849,-46.4079,-168.3485,87.8826,-53.3828,96.8679,-107.2708,68.7355,-219.4903,189.1839,-55.2286,135.1942
140.4656,-70.5561,100.4670,-42.2201,21.7742,-51.0500,-14.7875,-100.0592,-142.1160,-199.8636,-19.3454,-68.2016,-25.2514,-88.3234,7.5931,-234.9185,152.2115,-70.1789,87.8755
85.6350,-127.9558,15.1162,-59.9452,-84.3723,-70.7445,-115.5886,-150.6478,-149.1451,-193.5683,-105.5465,-89.7225,-161.3260,-124.0037,-65.2398,-228.4298,108.9598,-118.9513,53.7118
8.3741,-165.3022,-29.7524,-85.7576,-105.7519,-120.8105,-69.2695,-194.3011,-88.7701,-174.6336,-116.0039,-113.3403,-161.5310,-165.6424,-76.2856,-245.9166,101.9290,-133.5470,74.8966
-18.0954,-160.7288,13.8499,-61.8543,15.0640,-115.3715,63.0555,-135.5576,-30.6328,-117.6933,-19.8308,-110.8539,6.6945,-160.8979,23.4397,-169.3535,139.9539,-61.4137,163.9540
-9.4352,-159.5902,87.1777,-55.1036,167.9827,-60.1458,177.4043,-30.1980,39.0472,-50.1377,125.7515,-108.3414,184.7103,-123.0491,151.4655,-61.6386,157.3396,-32.0890,254.5002
-39.0939,-195.5827,98.1667,-124.4766,199.8684,-51.8645,236.6985,-7.8459,120.3805,-34.6910,169.2407,-115.9036,217.5325,-72.1606,185.8616,-65.0880,116.4825,-95.0667,251.0760
-47.4997,-211.7690,44.9441,-167.3039,101.4868,-81.7204,220.8326,-76.5464,132.8950,-99.1638,69.4543,-118.9598,109.6188,-45.4171,120.0853,-148.1107,68.4014,-134.2690,151.2970
10.0601,-186.5401,-15.6929,-135.8085,-32.5541,-107.1730,109.4735,-175.0271,59.7732,-221.4762,-66.8447,-155.2599,-64.6395,-117.8739,32.1209,-236.6714,40.8843,-139.6558,29.2295
-1.9439,-180.0845,-73.1626,-121.8770,-131.9501,-157.2419,-36.1201,-267.5844,-16.1050,-302.9067,-183.4823,-212.1835,-239.0916,-245.4379,-38.9949,-298.6577,-6.0010,-169.6910,-65.6338
-121.5009,-196.0409,-127.0415,-139.2291,-160.3264,-207.5144,-98.1614,-308.6514,-51.8942,-257.8318,-254.3221,-191.4831,-302.8725,-267.0530,-89.2741,-263.5771,-52.7014,-164.7050,-100.1548
-160.5119,-165.7727,-120.7187,-128.9835,-95.9546,-195.6562,-39.8630,-268.4311,-59.5635,-153.7735,-184.0637,-110.6011,-176.3795,-176.3740,-89.7810,-136.2357,-24.5353,-100.7331,-48.7462
-59.6176,-70.9962,-36.6733,-106.1846,21.5884,-157.1117,61.3954,-184.6036,-40.5938,-95.0540,6.1995,-80.0884,29.5395,-117.8716,-37.0909,-58.2326,39.7709,-57.0938,35.6853
12.5645,16.8515,33.7146,-87.8187,93.2048,-133.3476,110.5071,-107.8767,-24.4560,-68.4027,124.0709,-85.3346,125.3862,-122.3437,-3.4520,-98.3110,30.3362,-38.2304,59.6986
-9.1065,11.8683,20.1126,-61.3991,68.2640,-106.5591,78.7958,-77.6291,-57.4826,-58.7156,93.5725,-69.2616,83.8300,-137.3417,-38.3471,-166.1440,-33.0854,-26.5398,11.4778
-31.7813,-63.1514,-33.8460,-66.5441,-2.5590,-102.9079,9.2079,-122.6983,-108.1147,-99.7086,12.7524,-67.2708,0.6006,-171.6012,-87.7726,-158.6993,-52.4154,-56.9288,-51.2895
-42.5883,-65.5186,-64.9183,-90.4911,-54.2675,-106.8837,-40.8043,-167.9745,-106.6924,-119.2076,-65.5063,-54.2069,-75.1775,-174.2537,-88.3202,-49.2790,-31.5827,-34.3091,-83.7496
-91.5727,76.7251,-64.2509,-6.8980,-69.2391,23.0141,-45.5674,-62.4164,-52.4606,7.1201,-127.0499,75.3212,-119.1653,-18.7772,-47.9949,123.2925,-25.9338,184.1735,-72.7307
-137.4114,266.4619,-42.7908,204.4623,-39.1126,295.5202,-0.9511,187.9183,4.8147,238.3811,-105.7849,288.0677,-80.8396,250.0390,14.9103,291.4614,-33.8454,476.6182,-47.9701
-115.6760,387.2624,-10.8767,381.2233,31.9912,491.5335,78.5716,385.0374,29.8705,412.9378,1.1391,429.4828,29.5728,420.8632,96.8191,404.2571,-48.0695,602.5439,-52.8609
-49.4771,395.4373,19.8565,404.8264,94.0539,494.9924,155.4422,407.9311,38.3695,451.6709,96.4049,427.7176,118.8708,410.3317,164.0197,429.1777,-72.7043,549.7468,-53.8709
4.1496,306.9712,43.4489,323.7807,111.0088,417.5516,218.9715,343.2568,99.4508,398.9251,114.7326,340.2147,119.6168,330.6615,190.7619,367.8960,-72.6493,463.0023,15.6415
23.0217,239.3526,46.0962,260.3343,101.8978,368.2777,286.1077,313.7758,219.4486,328.8743,59.2598,286.4123,41.8785,286.6891,192.4341,289.5662,-31.3310,429.6505,115.1833
14.2812,300.3276,17.0981,285.7968,75.5792,368.7649,320.5554,327.5036,268.9505,268.7674,-28.6327,331.5826,-61.0077,274.8351,159.7933,252.0146,6.4157,449.9735,155.0002
-0.2789,384.7517,-17.2820,347.9598,29.9888,408.0727,276.1248,334.7475,184.1217,217.0776,-80.5418,393.6946,-124.3911,269.1298,76.5719,243.0822,19.0847,457.7192,151.5606
-6.2198,338.3208,-28.5420,346.7708,17.1090,425.0278,214.7347,330.3323,104.4188,205.1112,-71.4733,383.6294,-107.6747,291.2433,2.7668,264.9854,27.7164,403.7618,173.9910
-13.7484,231.5994,-22.4467,292.2050,79.4356,376.4370,220.6833,335.1984,129.2333,248.2743,-35.8783,361.0014,-22.3955,353.9862,-1.5320,317.6240,33.1237,341.6750,212.3983
-24.4631,199.2084,2.1570,268.5861,157.8702,325.9732,253.7456,332.1034,156.4283,281.9981,15.3291,381.4722,82.4934,394.8562,31.6779,322.9261,33.8735,313.0506,209.7275
-19.1247,198.0515,45.9713,267.0705,164.7570,310.0164,233.6453,281.6353,116.0046,256.7845,73.1674,364.3817,143.5565,326.7200,61.8562,245.7764,42.2220,259.2608,150.7250
-10.3737,145.2755,63.7068,218.1381,93.0703,255.3137,174.3571,184.2043,99.5943,207.7789,82.6796,263.0720,114.3195,156.9737,84.2878,149.3544,40.0898,166.9351,76.8787
-33.9779,88.8363,37.7247,148.0358,10.5575,167.0364,137.9337,98.4689,155.3717,173.2500,40.7406,166.9039,27.2495,28.1182,80.3705,54.4884,12.7293,125.0234,51.4810
-73.9518,81.4731,23.9646,120.9643,-10.4602,148.5042,148.4831,79.2125,201.3633,153.8435,17.5429,135.5671,-13.8172,59.6906,72.8783,-29.0573,-12.5039,156.3566,85.9314
-84.7657,53.6224,33.7910,91.7086,31.2280,169.2287,182.7767,103.7813,186.8995,147.4437,25.9187,113.2738,40.0431,156.0469,131.6841,-10.1603,-35.7917,168.8836,113.4829
-67.5849,-54.1097,10.3026,2.7445,59.1959,118.1779,190.7620,116.3753,151.5923,154.1232,17.9370,58.0490,113.4533,141.4756,220.6808,116.7678,-93.4339,107.7970,85.9454
-52.5843,-161.4067,-51.1899,-88.6302,18.9679,23.5284,140.5704,105.6484,121.0433,171.0455,-19.9864,-2.8463,109.0273,34.7914,230.1830,193.5758,-178.3691,4.5756,28.5357
-61.7888,-186.5244,-117.8960,-142.5416,-67.8434,-57.9885,56.9738,63.6571,74.8340,181.9412,-80.1175,-56.7462,23.3313,-47.1962,173.9469,119.0630,-254.2095,-108.1573,-28.2249
-110.7070,-179.4430,-187.6098,-202.7512,-159.3838,-152.4087,-3.7828,-18.6061,18.3860,161.0559,-149.6247,-100.9521,-78.3858,-102.1512,126.7657,-39.5980,-295.6197,-189.3178,-65.1963
-164.1615,-181.8156,-222.3612,-236.7215,-215.9995,-200.3891,-14.3869,-66.0559,-6.6433,124.2240,-177.8539,-97.8061,-149.6595,-128.3862,60.0849,-153.7933,-267.6078,-162.8039,-49.5435
-136.0203,-134.6367,-160.0271,-167.4412,-191.6111,-103.7687,-8.2975,-5.3578,-0.9939,104.7381,-129.3571,-52.6967,-175.6128,-59.5891,-50.0032,-132.1397,-167.4523,-35.6919,4.6868
-16.6163,-42.3242,-35.4519,-61.4156,-84.8480,46.0712,-21.0751,90.1666,-9.5380,75.1462,-36.2059,-22.1618,-135.7478,54.4399,-109.9196,1.6959,-61.5679,62.8983,31.7714
98.8141,-9.5389,65.4542,-29.4246,41.6556,104.9580,-9.1717,116.8164,-24.8986,11.9780,57.1907,7.1517,-25.6700,90.0688,-53.8822,116.4983,0.4448,58.7300,18.6614
149.3181,-48.4967,114.4988,-48.0095,115.3293,90.6554,61.6787,82.7948,-5.3598,-32.6821,117.0992,64.2692,85.1145,52.1788,50.1384,131.5834,17.6936,6.3015,-3.8502
148.1181,-71.2882,106.1673,-59.9985,93.2655,51.1586,98.9414,23.5841,16.2926,-38.5790,101.3078,75.2398,96.8719,10.5291,105.6813,67.2907,-13.4717,-39.2436,-42.6505
111.5219,-65.2771,52.8202,-69.8749,-0.1342,-19.1681,40.8693,-46.5719,-5.6030,-56.8111,21.5432,6.4867,11.3795,-24.6069,96.1614,-51.6432,-62.4698,-68.6535,-91.4183
65.7146,-68.2056,24.0087,-58.5686,-68.3882,-60.0338,-0.8056,-73.4053,-17.3348,-80.4723,-31.5217,-31.8054,-56.1275,-50.0676,71.0853,-157.2618,-62.7849,-66.7451,-92.0307
47.7715,-37.0420,48.8221,5.2109,-54.6358,-9.7409,48.0185,-21.5264,22.2870,-52.6003,-4.7948,16.3817,-34.5465,-45.0707,63.4654,-120.6890,-22.1202,-28.4086,-34.7484
50.0783,60.3954,69.8728,64.9759,-6.1785,54.3615,99.3137,38.4370,42.5223,-12.1182,52.3175,59.9214,23.2740,-14.3096,54.3577,19.9394,2.5308,12.5065,13.7046
63.5422,129.5934,72.0574,49.6377,29.6292,45.7307,107.9503,25.2503,5.0556,-40.3961,81.4692,39.5091,63.3666,17.0489,39.8836,59.4567,16.4066,17.0736,8.9282
121.2308,103.4368,93.4761,8.0549,58.4115,21.9727,112.5662,-21.5575,-29.8882,-82.9324,92.2697,9.1198,114.0375,23.5448,54.4137,5.7239,33.2412,-11.2169,-33.1988
191.2979,55.3499,109.4043,14.1132,67.1616,42.1038,89.3493,-21.8622,-47.4416,-38.2000,105.8343,6.3887,175.5307,-4.0938,85.2702,52.3879,15.5809,-37.8175,-79.4308
167.2323,32.6070,71.6154,8.1020,28.2848,23.8947,20.5884,-15.5471,-89.4155,25.1769,86.4158,-26.4406,161.7148,-55.0748,73.6488,129.0155,-38.9126,-66.3815,-112.6222
51.3047,9.4632,2.2742,-61.9572,-40.9992,-72.7174,-41.6483,-70.3747,-131.2575,-0.4392,1.3546,-121.0725,42.2339,-111.3372,8.7307,35.8763,-76.7141,-114.7202,-135.7159
-30.0998,39.2571,-51.1726,-66.3332,-98.9869,-102.2811,-91.5586,-100.8476,-126.5126,-28.3500,-85.3671,-165.9591,-88.4547,-123.6988,-79.4800,-79.0911,-66.5284,-112.8416,-143.4047
-24.7131,163.0063,-65.8078,76.1130,-109.2066,17.2869,-125.7602,-15.9820,-104.2937,35.3782,-81.7612,-63.6182,-149.5588,-40.2706,-163.0767,8.7589,-14.3689,5.2280,-114.1251
6.4766,257.0646,-31.7176,210.7405,-50.4993,151.4766,-74.8042,102.6448,-95.4976,103.5917,-0.1034,88.3918,-143.5388,90.4924,-195.3452,147.4665,48.2284,149.5351,-53.8766
23.6912,236.8126,35.4902,233.5693,46.7709,213.3289,27.9843,189.6417,-68.0397,141.3582,95.6356,168.7014,-73.1952,172.0043,-146.5272,156.8069,76.9388,211.3477,5.3230
38.1875,208.6704,100.5964,243.7469,123.9624,266.2487,66.0045,286.0472,-10.4516,224.2386,195.2310,215.0288,53.5541,200.3447,-52.4096,166.3477,70.2140,217.8854,45.7232
43.9761,243.1954,135.2879,265.2008,156.8483,289.9858,66.9878,324.4059,29.0686,273.5193,269.4948,253.9303,152.1718,194.8318,38.6131,241.9110,57.3742,198.2218,44.4914
13.7626,256.1116,110.6231,205.9996,132.1535,200.7556,87.1841,203.6579,26.5765,170.5876,235.1936,210.3650,136.3795,119.7875,89.5588,213.6434,31.9748,122.4436,-15.8468
-44.9997,192.3964,30.5198,109.6070,39.3707,69.7396,47.4603,43.4000,17.3465,31.8552,106.3544,111.8520,31.7318,16.7875,69.6774,60.4358,-7.2937,41.8831,-83.6726
-74.3382,119.3866,-37.0914,96.8379,-64.4671,29.2478,-42.9301,0.2881,27.7156,-3.1857,11.4788,95.0392,-67.4392,4.2347,26.6239,-6.2779,-17.6813,44.8204,-98.6967
-35.2382,134.1427,-55.1177,168.2362,-102.7818,95.5913,-42.3611,43.1865,44.0850,39.6872,8.9449,186.3893,-96.2491,101.2148,43.5812,115.8925,5.7673,108.8734,-84.9340
28.1788,239.1163,-64.5018,254.4575,-89.1679,207.5438,35.9325,117.9499,59.6326,141.7099,46.5511,290.8896,-48.3027,240.1378,83.6117,281.1724,18.1160,161.3438,-76.6643
47.3002,296.6949,-76.0995,285.5348,-75.4417,262.9108,68.1847,191.6223,72.6499,235.6244,75.0277,320.1630,29.3537,341.5973,66.2944,283.7299,11.4837,166.4128,-66.5064
18.3156,216.4086,-61.3228,221.2254,-66.2002,184.8248,47.8913,149.9359,39.1328,134.6433,74.0686,247.5819,72.6130,295.8240,24.1700,110.6174,6.4144,114.9546,-78.5012
-20.2880,130.8764,-49.0503,140.3293,-65.5582,60.2175,1.1549,-6.4368,-60.0097,-104.2358,37.1163,139.1242,55.6519,103.3190,-4.2254,-29.4481,0.7917,53.0989,-125.0105
-40.6348,154.5070,-72.6497,121.0779,-94.2021,3.3986,-69.6713,-99.7105,-122.5360,-183.0410,-12.1395,70.3534,-5.4575,-48.9242,-45.0790,-4.9973,-12.7758,37.6431,-132.6944
-35.6536,160.3709,-95.7607,71.8596,-126.8347,-47.3055,-90.8836,-94.9229,-54.2962,-95.3004,-48.2793,0.5177,-68.6675,-72.5738,-60.6745,67.2951,-41.6410,29.8674,-71.2177
-41.7949,60.5769,-96.1339,-55.2047,-109.6816,-129.0455,-37.6121,-96.0793,49.1571,-53.6152,-58.4406,-94.8164,-69.7054,-65.6707,-10.2880,67.1963,-84.7360,-2.1928,-12.5965
-107.0928,-28.0324,-90.3807,-121.7380,-30.4971,-117.4006,-0.5078,-69.3388,46.2495,-28.1345,-21.5558,-113.0938,12.6459,-37.8270,19.8865,28.9338,-94.1792,15.5142,30.9561
-182.0881,-81.3343,-61.8296,-96.3106,70.3149,-5.7203,17.3990,27.9012,-3.6423,51.8110,36.6206,-52.3643,101.1416,45.8815,-9.1883,2.1511,-32.8616,91.6709,113.6793
-152.3640,-196.2482,-6.9513,-109.9552,132.5321,52.4621,77.3696,82.6084,41.2887,44.6577,35.0253,-55.1507,115.3961,72.6497,2.7815,-0.1863,44.7336,119.7670,193.8932
-22.3219,-298.5311,19.9256,-160.9921,128.2353,29.4483,111.6427,46.6122,139.9658,-67.3144,-32.0709,-118.3050,69.2299,10.3857,65.1161,8.1961,66.3784,76.1385,185.2954
66.5866,-271.2864,4.9249,-173.8192,86.0087,-14.7159,56.5687,-9.0666,154.4396,-118.0042,-90.9107,-134.1962,3.8241,-8.0659,75.2294,-46.7048,35.0756,9.0067,114.8620
30.2362,-223.6197,-3.6971,-200.7350,43.2502,-102.1966,-2.6000,-74.6323,100.1946,-96.5325,-127.0275,-143.4319,-70.8581,-14.0350,46.3200,-154.0618,-1.2757,-93.3588,73.4969
-56.5748,-255.9791,12.7504,-243.1455,19.7694,-198.6754,-2.3545,-133.3516,84.9220,-68.4731,-149.1331,-183.4649,-115.5359,-118.4314,59.5365,-169.1812,1.8600,-195.2524,88.1739
-72.5282,-248.4802,47.9829,-183.9375,41.3135,-184.1603,22.5010,-104.3106,97.1658,5.0696,-98.0038,-143.7375,-65.1314,-170.5294,90.7906,-99.7771,50.5727,-182.1219,118.6178
2.1776,-151.4834,104.7422,-62.7007,108.2916,-87.9854,50.7537,-26.5072,73.1250,79.6802,22.5339,-31.6376,65.6771,-48.1057,96.9375,-109.5391,91.0808,-78.9934,133.0917
81.1950,-129.4262,150.3021,-49.8037,167.0116,-62.7612,74.6361,-20.4475,58.1569,44.7624,74.7965,-21.2108,165.1903,13.2504,97.8451,-180.6832,85.8105,-41.5320,154.7239
97.6955,-238.1749,135.8019,-137.9786,170.9752,-130.1085,70.4543,-69.2955,83.2685,-36.7864,-11.3163,-130.7494,139.8054,-146.5105,76.5900,-192.4833,64.3643,-106.8386,195.7268
75.8335,-307.4894,73.4075,-182.6643,114.4718,-178.9590,27.5288,-91.7762,36.5394,-63.7859,-139.1023,-210.1855,20.5491,-291.2004,-8.0809,-188.2028,37.2378,-188.4103,187.1734
56.4570,-263.3985,13.4771,-167.0843,15.2095,-168.2694,-62.2478,-104.4406,-119.0297,-86.3779,-213.1054,-218.3310,-73.1615,-240.4323,-108.3926,-226.1588,-18.8020,-244.7349,97.5183
25.2892,-256.7799,-24.1564,-199.6976,-74.5448,-191.0494,-168.0363,-160.3063,-212.8519,-146.6714,-248.8707,-241.8517,-96.0120,-181.9718,-150.3458,-269.1900,-78.7510,-291.3046,20.9835
-42.0816,-360.9621,-56.7712,-311.2097,-114.5319,-313.2634,-210.7200,-258.0979,-159.1180,-196.8741,-293.9835,-315.4510,-128.8778,-295.7491,-158.0101,-319.8638,-113.3417,-338.2635,-0.8430
-114.7482,-426.8030,-101.5108,-391.4768,-139.7162,-427.9806,-208.1133,-342.5759,-104.1407,-216.0282,-341.0273,-369.5479,-206.9029,-438.0520,-189.5472,-355.5998,-142.8945,-375.9756,-49.5106
-132.3346,-374.5258,-132.8023,-363.9701,-171.2711,-417.9425,-248.2507,-359.7679,-127.0203,-213.4169,-345.1826,-338.4056,-239.1029,-403.5094,-215.7823,-330.6052,-160.5150,-376.3440,-119.0372
-85.6403,-336.4183,-108.7241,-317.5271,-161.3130,-366.8242,-280.7006,-338.5073,-127.6099,-199.8542,-303.1181,-271.7401,-189.8143,-255.0695,-175.8604,-356.2466,-141.1312,-332.4499,-111.7797
-25.0445,-365.0644,-52.9067,-331.4742,-117.1202,-370.6489,-224.4130,-330.9472,-93.9505,-207.1474,-259.1053,-252.5439,-147.3709,-185.2066,-100.6290,-457.8692,-116.2250,-280.0638,-54.2458
20.6273,-332.6038,-18.8186,-325.0799,-100.7671,-342.3004,-169.8375,-301.9253,-125.1983,-232.1774,-215.2396,-244.0600,-136.9781,-219.5214,-66.0284,-385.0810,-101.0777,-237.5620,-38.4637
59.3122,-227.8417,7.4141,-249.2700,-88.9943,-245.8337,-180.2322,-241.9409,-179.2778,-233.2145,-140.6354,-187.9677,-87.1230,-262.0009,-70.5014,-124.9472,-63.3236,-191.3587,-50.0703
68.4089,-194.3622,44.8056,-192.2040,-39.2805,-204.0300,-151.9434,-239.7075,-126.9419,-222.4670,-81.5094,-143.0857,-12.4877,-263.8296,-73.6351,-31.7278,-25.8338,-154.1798,-51.0968
32.6271,-235.7532,50.7912,-168.7582,-1.1446,-222.7258,-57.6557,-285.6696,-9.2323,-234.2131,-104.8607,-138.7756,-3.4946,-195.7762,-92.3344,-159.9455,-18.9953,-142.0961,-49.1561
11.0855,-219.9326,27.6325,-94.3351,3.6384,-183.1586,6.3312,-259.1133,36.3052,-242.1988,-155.4657,-101.1416,-45.6946,-72.7427,-144.8851,-226.6474,10.8973,-117.7724,-17.6379
26.3822,-127.5688,34.7308,9.8611,29.2437,-96.7042,40.8077,-159.7831,28.8071,-210.0024,-139.9908,-34.4433,-45.1905,-24.6918,-173.0732,-188.9189,72.5799,-45.8830,59.4863
3.3345,-39.3392,53.4293,59.3722,67.1165,-37.0266,104.2097,-69.4526,81.2345,-151.2586,-80.2334,-1.0315,7.8680,-84.9118,-118.2547,-139.8468,82.9830,33.8809,122.8503
-66.0920,7.0296,30.9737,65.7383,63.5193,11.7706,152.3253,9.2494,152.3398,-110.6245,-45.4671,36.7036,41.2818,-79.1790,-28.4255,-17.2456,42.4897,53.8296,134.8798
-90.3100,9.2546,2.0836,69.0886,32.4136,41.5912,112.8412,61.7379,103.9339,-119.8168,-42.1525,91.1844,18.6541,40.7496,-15.3205,118.8218,25.3898,14.3305,103.5741
-50.7578,-9.7345,4.9261,63.7493,5.0124,8.6345,-3.4456,35.0520,-29.1192,-155.7344,-43.5512,70.1538,-21.5391,98.7280,-88.9403,94.6285,20.8229,-17.2227,16.4812
0.5942,14.1620,15.3487,58.7890,-12.9355,-28.8323,-115.1518,-20.9516,-82.1856,-174.5697,-26.6167,-1.4142,-19.5013,56.9574,-113.1182,-0.8825,-1.9268,-4.9544,-95.3776
35.8996,87.9833,34.0713,67.0480,3.2662,-1.3156,-133.1234,-28.0509,-37.2217,-175.0584,17.3119,9.7614,32.0518,44.1713,-16.6671,0.2390,-5.9003,14.7287,-136.9741
5.0843,115.9745,61.8339,58.9277,49.6261,33.2721,-60.0284,-15.9783,9.4321,-152.9820,53.5543,73.3444,78.7982,52.6130,87.8953,37.9686,-2.6047,7.5644,-94.6407
-101.9134,58.4302,38.4607,25.4125,65.8681,13.3074,6.9491,-11.2024,51.5272,-86.5748,46.9988,75.1398,86.1043,19.7754,125.9040,54.1645,-54.0525,-10.4303,-52.1934
-148.1720,15.1544,-38.3307,12.2603,32.0848,-11.2147,16.4661,18.9870,92.3460,-22.0478,22.2307,62.2447,78.2211,24.3241,158.8924,91.6623,-122.5868,-20.2325,-52.5695
-68.9261,42.1355,-79.8804,34.4828,-20.9903,7.3208,-8.4233,45.2964,68.6024,-16.5007,5.9472,96.3143,72.0331,94.9891,176.9711,87.5481,-128.2966,-32.5926,-78.6587
-13.0226,54.5205,-62.6892,47.5183,-72.0861,29.4384,-46.1729,20.6479,32.4922,-27.6200,-10.9968,90.3843,58.3132,110.4712,141.0603,2.8217,-102.4955,-45.7906,-110.4384
-38.1426,21.8464,-34.6763,35.4950,-83.6546,21.6172,-57.8721,-6.6937,93.4157,-16.4642,-10.8194,21.0208,58.4325,41.4037,165.3124,-22.2673,-108.9416,-24.2418,-124.0476
-16.0503,22.4394,-7.7790,27.6272,-32.7496,11.3131,-18.6962,-3.2311,144.6980,-24.2524,25.0960,6.1084,89.5283,1.3483,261.2566,51.3866,-117.0698,29.8936,-109.0865
49.1493,35.4336,5.6222,22.7473,10.4819,15.9814,-7.2690,-14.3533,38.6535,-60.3097,38.8853,65.2365,94.1493,50.2826,199.1364,75.3288,-80.5541,43.3448,-89.5924
31.9342,-9.1474,-24.1126,13.9338,-18.1227,26.6097,-82.3362,-23.6293,-93.2330,-94.4075,-20.7409,101.3723,22.5847,140.9590,-33.7439,44.2599,-35.4011,-8.5241,-85.7804
-36.8815,-24.4920,-67.7393,34.4362,-72.4613,48.6050,-157.5574,18.8192,-79.5374,-128.8100,-102.2137,89.0002,-67.9255,175.0342,-154.1190,93.5688,-37.8873,-46.1763,-98.6112
-67.7261,38.5724,-91.3859,58.0858,-100.6205,56.9189,-165.2925,37.9051,-21.6564,-139.6322,-141.7470,50.3674,-100.4397,85.8516,-118.6842,164.1141,-79.6432,-38.3778,-119.3864
-85.4211,30.1222,-119.8203,7.4961,-112.2233,4.3435,-158.5500,-27.7948,-71.5536,-88.5601,-147.4878,-5.6581,-84.6795,-29.9119,-105.7906,94.3471,-104.5014,-40.7714,-111.2291
-91.5523,-62.7524,-134.8705,-54.5653,-103.2294,-51.4792,-162.0341,-54.2177,-168.4327,-33.1445,-135.2279,-23.4218,-59.7615,-13.8078,-81.8440,-26.4096,-69.5534,-39.0516,-41.2273
-35.0080,-43.0060,-79.0044,-7.7203,-61.7958,-17.5964,-135.1463,38.9680,-176.7319,-42.9760,-98.4339,13.1979,-25.6838,75.7639,17.6237,0.0649,11.5585,10.4478,53.4877
36.5449,75.8090,-1.9890,64.8610,-21.8848,37.5258,-84.0734,114.6564,-110.1188,-70.0772,-59.6790,6.2275,16.8382,64.7016,49.4260,102.3438,67.9158,37.2764,105.7928
43.1701,86.2823,-0.6377,23.5811,-15.4076,1.7380,-52.2818,76.1859,-117.1351,-46.2622,-52.3554,-65.3091,38.3969,-25.5967,-16.7524,80.0789,50.9765,-10.9066,111.4336
7.4150,-16.8475,-45.8232,-62.7718,-26.0594,-73.2170,-44.4443,11.2394,-235.9649,10.7745,-69.5664,-96.0734,17.2591,-73.4872,-67.4506,-29.5474,15.3154,-58.2480,123.2833
-8.4070,-92.2747,-44.0022,-84.5587,-16.7839,-100.3634,-24.3663,-15.3696,-274.6596,46.5144,-86.8249,-71.3065,-31.9591,-77.9937,-161.9017,-73.0453,37.7958,-62.6593,164.5566
16.6378,-95.9836,9.8691,-69.2304,28.8220,-86.6273,37.2800,-25.7036,-132.5482,30.0518,-84.8715,-55.3370,-57.4519,-62.0921,-324.8780,-73.8677,82.9942,-50.8452,186.1203
49.9134,-54.0527,55.6514,-50.5702,79.7126,-37.1311,105.7426,-19.2066,-15.5716,-3.5068,-41.1444,-36.6461,-14.8389,-11.3127,-333.7715,-112.0028,79.2595,-16.0862,145.0546
29.9502,-49.7341,63.7919,-52.0285,95.5903,10.0584,114.3017,-18.6224,-40.8588,28.3549,29.7330,-28.1305,53.3076,10.4133,-151.1334,-146.3424,57.1847,-4.1239,93.1655
-36.4282,-182.0965,46.3511,-152.6241,85.2531,-73.0259,69.4201,-92.3148,-40.7955,108.7413,59.4987,-122.0625,46.5929,-79.7216,-52.2270,-162.6328,54.5681,-113.3399,88.2888
-80.6453,-354.9961,14.7312,-318.9315,58.2175,-272.9377,20.1258,-208.0951,5.7309,134.2171,21.4680,-284.8736,-44.3944,-232.3936,-109.4551,-219.8441,20.1296,-277.9629,78.2529
-109.3460,-398.2104,-33.5313,-398.9288,-5.6844,-390.7492,-30.9148,-265.4292,-55.8717,110.3771,-23.2050,-370.2393,-119.2584,-326.9896,-118.4401,-277.5100,-45.1859,-351.4316,14.8495
-148.7469,-392.0218,-77.6835,-398.8370,-67.3408,-389.7411,-63.5483,-284.8863,-113.3999,104.0336,-26.2149,-379.3616,-126.3763,-324.2748,-16.3592,-261.9351,-51.1988,-373.2710,-29.5226
-125.8976,-470.2800,-70.9748,-432.3233,-56.1115,-418.2552,-15.3638,-339.0528,14.7311,98.9100,-9.5331,-424.0317,-112.2341,-303.4732,102.8667,-235.0293,-3.0596,-427.5333,4.4332
-31.3428,-541.9418,-17.0449,-474.7957,-5.9529,-479.8567,95.7545,-387.9638,160.0861,96.8738,1.4482,-503.7192,-106.0027,-365.6360,209.8890,-273.0386,3.1522,-449.7498,59.7898
2.3064,-543.6840,13.8893,-483.7744,4.4229,-477.2138,179.1832,-381.3412,153.0690,134.4787,4.5578,-551.1876,-97.3539,-484.2018,278.8472,-334.6460,-44.0449,-419.0265,66.5537
-47.0485,-551.1646,-17.3466,-507.4250,-22.5401,-446.4154,192.9369,-369.7259,130.7650,148.6870,-12.2492,-558.4866,-107.2652,-531.1929,249.7114,-367.3090,-91.0598,-414.1218,11.1612
-53.0808,-515.6294,-71.3036,-501.4251,-60.0692,-442.5472,145.0977,-393.7781,159.4796,87.2487,-42.3787,-527.9333,-138.6259,-486.5658,172.9401,-381.9423,-111.8839,-409.5003,-76.6314
4.7552,-354.3372,-86.4875,-381.3829,-97.5677,-413.3916,66.6222,-415.6361,125.4211,21.6109,-40.4093,-448.0098,-118.8801,-435.2636,161.8364,-388.9369,-87.9799,-350.4804,-130.5020
49.6396,-188.0653,-46.8373,-235.6113,-104.4848,-337.1093,2.8952,-389.0288,57.3104,-9.0249,-0.6703,-344.9372,-31.5716,-372.9907,189.8977,-360.6819,-44.7345,-307.8491,-129.2864
77.4359,-137.4294,-11.4004,-181.1800,-98.5986,-272.0541,-61.0624,-312.1100,51.5486,-21.3467,17.7541,-258.6389,6.0913,-276.7067,127.6707,-291.3982,-67.8134,-320.9621,-143.4081
104.8895,-149.9287,-43.5265,-182.9863,-141.3849,-253.8110,-164.6214,-243.7681,56.2241,10.5448,-7.6361,-207.2588,-63.4589,-248.2894,-28.8260,-266.9947,-146.8050,-322.5121,-198.8787
117.3198,-158.9021,-90.7239,-175.9206,-188.6086,-257.9710,-244.2816,-244.3380,21.2598,49.8667,-27.7315,-191.8319,-122.4025,-308.9092,-136.8622,-346.7440,-157.8502,-279.6041,-220.8595
137.4308,-135.6877,-49.0144,-139.9588,-146.0540,-218.1630,-229.4399,-259.3229,-19.9447,7.5189,-10.0758,-177.4604,-85.7020,-285.5457,-134.6790,-392.8173,-71.8415,-187.0790,-169.1320
176.4476,-64.8780,60.2414,-64.4989,-47.4414,-103.0522,-170.0996,-191.6998,-48.8452,-55.7557,21.0997,-124.7066,-38.0353,-135.6419,-111.4600,-282.2888,18.2513,-45.1643,-76.8562
179.6539,-13.9818,135.0618,-1.6604,24.1312,-3.9634,-104.0715,-88.1836,-25.8251,-34.7675,32.6466,-67.8015,-53.5383,-61.3915,-110.7111,-171.3769,51.1569,48.6605,10.9877
129.1709,-34.2744,152.4872,-21.1631,66.8372,-14.1243,-2.9447,-60.0481,67.0702,7.4301,18.7274,-62.9205,-74.9791,-141.5818,-76.1410,-192.1666,23.3128,18.6526,39.3486
83.5847,-44.8375,142.5908,-72.4965,93.1601,-58.6024,92.0550,-79.6738,125.4664,-7.0248,0.7674,-74.8116,-48.7188,-194.0729,-11.5966,-190.4527,-28.6948,-26.6790,7.0647
98.1827,-2.3125,120.7067,-61.7716,101.2531,-22.1146,133.0751,-55.2744,120.8280,-23.0305,-0.4367,-36.7863,-10.0856,-107.2542,25.4663,-96.3542,-26.3711,19.9217,16.1953
175.6250,18.1977,114.7837,-2.6290,114.2234,55.6502,181.4799,-3.1326,189.8597,0.7390,0.1130,14.0273,-3.4349,-15.9007,38.9479,-66.3589,30.9650,95.4524,101.0596
235.9778,11.3615,129.0342,45.7712,127.0481,89.6490,261.5992,28.1050,320.9628,35.6273,-19.4411,6.9176,-27.5694,-39.7044,34.2549,-86.4467,41.7114,141.3513,154.1301
181.5932,57.0695,123.4955,89.0992,122.8246,124.6223,302.2489,83.6794,331.5901,77.4779,-29.7995,2.3642,-40.6452,-56.2195,-8.9256,-12.4948,5.4902,209.7329,145.2588
70.2815,139.0877,117.7722,154.0323,150.2843,227.8971,307.6871,197.4383,237.7100,121.2432,10.6278,97.3980,11.2369,80.1356,-35.4864,70.0074,32.8166,305.5243,168.9247
54.6790,158.6702,161.7209,205.5563,224.1142,316.9555,339.0286,270.6920,221.9712,124.9421,75.5478,209.5033,111.5160,236.4474,7.7772,44.9806,110.5169,331.6160,225.7117
118.7598,95.8962,199.7836,180.7795,259.6598,271.1256,367.0050,209.8104,288.1485,82.0006,104.6149,192.5134,170.9565,203.1930,54.4082,21.6927,127.2644,247.4823,227.6630
124.7587,26.4162,173.6134,94.8621,240.5993,141.7815,348.9037,92.5872,304.9973,35.5536,100.7077,97.2745,175.4075,59.8702,68.3665,77.6836,95.6226,146.3170,190.8893
73.1594,5.1160,158.7543,36.9761,255.7643,69.8471,325.6424,50.1896,264.2331,16.8741,123.6012,63.0677,206.5181,6.6142,123.4916,141.7034,100.0374,113.9955,196.9450
58.2759,12.1948,203.9705,38.3781,305.4534,58.7279,318.9906,74.2270,249.5317,21.8701,181.7544,81.2045,260.8176,28.3428,205.4205,161.2265,121.4786,97.1532,229.4929
77.7194,7.0540,222.1912,33.3069,285.2906,9.8527,269.0849,65.3035,264.7748,12.3672,196.9044,74.5044,235.0220,14.5727,190.3181,80.1339,100.5905,5.6722,197.8492
76.6275,-27.3456,167.5910,-25.7664,168.1330,-87.6975,133.4135,-11.5170,240.1169,-47.0386,119.2688,25.6962,126.5100,-42.5080,75.2796,-101.1429,58.6799,-125.2993,81.4142
45.5639,-84.8467,98.8947,-100.1814,39.4792,-161.9819,-29.2803,-101.1715,161.4995,-121.6066,11.5614,-65.4246,44.5965,-118.3340,-5.8317,-176.7487,37.9625,-201.1709,-28.3762
-9.5080,-130.2677,36.0707,-129.6525,-29.5358,-182.5695,-112.2033,-141.3688,92.1573,-145.9259,-50.9599,-156.0533,18.1531,-177.1167,14.2090,-46.0945,21.5652,-216.3886,-52.8146
-77.2410,-136.0725,-44.5120,-112.4793,-56.5871,-174.0234,-95.2731,-136.9004,54.2117,-126.2684,-83.0701,-149.6654,-17.9647,-154.3702,80.1513,65.4881,-18.3315,-213.3363,-41.6263
-121.7858,-126.2720,-115.4545,-92.6348,-91.2351,-154.2348,-68.2648,-125.2763,6.4435,-104.1569,-112.5094,-57.4034,-70.2657,-67.5667,122.8317,38.2266,-62.9332,-188.8844,-78.0491
-122.4110,-104.1834,-133.8393,-78.2313,-125.7422,-117.2231,-85.9790,-90.3540,-39.4202,-74.3082,-106.3300,2.2981,-83.4527,6.8019,136.1480,5.0259,-82.1080,-144.4352,-137.0585
-101.5244,-43.8637,-109.0916,-51.7074,-127.6247,-81.8968,-102.9180,-32.3547,-36.3830,-46.4924,-62.5817,-0.9523,-61.6856,44.5532,154.4253,-35.1154,-76.8518,-138.7608,-151.7066
-92.4954,-13.5594,-88.6076,-48.7810,-125.4484,-98.8022,-83.0479,-40.7939,-19.0087,-78.2339,-62.2018,-10.1765,-68.9877,32.2303,177.8247,-118.9651,-56.7204,-199.1063,-125.6419
-92.4317,-68.6039,-110.6912,-79.3997,-152.2091,-134.9237,-55.6836,-107.4117,-43.1488,-156.2218,-136.1967,9.9338,-113.8375,1.7679,167.5467,-61.5567,-29.1677,-238.2450,-97.7505
-57.5187,-72.1765,-150.4720,-47.6834,-166.2498,-71.8496,-53.0412,-77.7008,-80.3922,-188.1314,-180.3994,77.6968,-120.0847,67.8000,130.0968,150.0290,-18.0858,-163.6789,-89.1834
18.7288,56.0332,-136.0384,63.5188,-132.7331,69.6845,-68.9867,37.5830,-81.0787,-146.5423,-106.7763,156.4447,-44.9180,180.9655,120.9815,234.2158,-29.5718,-40.8921,-99.0662
60.2523,142.2280,-66.2757,116.3153,-90.4451,119.0245,-78.2429,57.5044,-56.5634,-88.5690,4.3488,151.2560,39.9804,135.6394,136.6461,165.4273,-35.4238,-10.2248,-109.4585
26.1869,100.2764,-22.7434,75.5267,-85.0350,51.7291,-89.4257,-9.2305,-73.9231,-80.5804,37.1287,75.6238,53.6104,-7.4242,102.7520,144.9627,-37.4301,-70.1830,-133.4896
-4.6666,70.8763,-26.3180,56.1814,-121.9074,3.1613,-138.7574,-32.0674,-182.9633,-166.9276,31.2194,43.6557,21.2325,-7.4273,8.8051,111.1762,-51.1571,-112.4180,-198.3296
34.4700,82.1832,-17.3984,76.7542,-163.2853,3.0277,-185.7872,-48.9580,-296.1815,-297.9024,63.9964,62.9804,-0.8782,79.5196,-47.9815,-35.7448,-30.0970,-101.1599,-235.5961
92.0503,48.1695,17.6204,78.2882,-139.0778,6.0718,-145.2295,-100.2951,-268.8363,-347.5705,83.3310,70.3681,-10.2134,68.1997,-18.1309,-118.9776,51.5639,-49.7392,-160.4723
95.6172,27.6945,45.6508,90.2648,-35.5818,51.3601,-59.5702,-84.0375,-167.1984,-314.9875,59.9706,82.6326,8.7102,27.2857,8.3637,-53.8170,123.4854,50.6602,-51.5567
52.2771,72.6367,76.3750,138.3093,70.1159,143.7021,-28.2118,0.9846,-177.2606,-307.9486,91.3910,113.4064,82.3445,53.1924,-39.0005,13.6026,153.2476,155.4496,-22.6842
27.6804,76.7551,127.4019,168.6955,127.7100,184.2397,-20.7162,46.4107,-257.7122,-312.0102,175.4025,107.1412,143.2622,65.0293,-94.1912,38.4833,181.0229,182.4979,-26.3710
74.0843,15.5288,167.3229,158.3493,153.0884,146.9433,5.1934,63.2824,-264.4564,-265.7097,176.0704,63.5426,113.1829,42.0862,-106.0243,57.1072,182.9484,149.0671,6.6123
158.6049,4.3753,182.4135,134.0044,155.8473,119.6190,-6.6695,103.1007,-259.4801,-231.9205,110.7164,60.6169,58.4919,71.1810,-128.9521,45.7750,143.5545,140.8496,40.6408
191.1105,67.2279,209.4614,126.7659,155.8821,150.5988,-39.6590,130.9711,-315.9884,-235.5013,119.7705,123.7499,71.7725,151.0818,-175.6789,53.5195,166.7172,173.6630,63.3810
160.3584,131.7785,246.4978,170.1156,182.3454,200.9443,-18.4092,137.4205,-325.2207,-194.8682,172.6706,187.8169,104.3728,206.0531,-190.5060,133.4787,270.2835,204.7867,96.4413
139.6852,182.6718,236.5384,239.4571,191.2147,227.9773,2.6992,151.4952,-260.6620,-127.7017,150.0302,203.4277,83.3920,202.3419,-184.8480,205.6544,304.1897,221.3223,93.3804
140.3795,243.4776,171.6930,266.1375,134.3020,243.4109,-36.8517,161.5911,-246.7543,-116.6306,86.1908,210.5670,41.9242,174.7102,-193.8518,233.6078,234.2096,239.0690,28.5617
112.0973,295.3533,105.1997,270.8281,64.9332,276.3172,-72.3370,174.0496,-287.7093,-129.2896,58.7569,249.8324,21.2084,188.3408,-182.3808,239.5207,183.8715,260.0698,-29.3524
64.4707,294.2783,55.2276,305.7555,26.1772,302.1769,-87.2267,216.0749,-290.6427,-101.6114,32.8186,270.3900,-1.2174,228.8720,-144.4528,166.7041,169.0395,270.1182,-35.9982
35.9209,243.2097,3.4381,312.4597,-21.0852,279.1066,-125.1136,254.1484,-261.2804,-43.2823,-28.1664,235.3709,-43.6659,207.9890,-132.8253,63.8883,120.6977,257.0992,-22.5427
10.5027,207.3587,-39.3510,246.1518,-83.7998,232.3795,-145.4490,249.3250,-233.4840,12.7382,-91.2111,205.4970,-95.6028,136.4947,-135.4814,91.4581,63.0931,222.8676,-32.4126
-36.8079,221.0122,-69.6023,194.8207,-135.7837,206.2625,-141.4073,219.4330,-192.6111,37.3673,-142.6038,209.8649,-147.9428,95.7724,-107.9639,181.8901,24.5577,192.2526,-89.5836
-108.5157,239.8493,-130.0674,212.1659,-194.3213,189.1086,-191.1995,182.0831,-152.9289,39.9705,-204.7406,195.1307,-198.3366,62.2979,-76.9706,160.0938,-39.3793,191.6096,-166.9830
-205.2617,224.7649,-226.4939,218.6015,-256.4044,154.9371,-262.0432,141.5643,-142.1053,71.9593,-274.4806,135.7528,-252.6695,-12.4009,-69.9695,71.7823,-131.4844,193.3433,-206.0984
-283.4024,174.2474,-299.3846,149.9602,-287.4038,99.2655,-270.7742,117.7205,-149.5548,116.1490,-318.0991,36.6856,-305.0436,-78.1670,-64.5890,-1.3239,-212.2199,145.8834,-208.6446
-278.5205,94.9042,-329.6219,44.8111,-307.8155,32.0475,-265.3396,120.9391,-155.9837,113.2627,-323.0536,-88.7820,-322.7516,-99.5987,-60.4429,-82.1570,-279.0125,83.2981,-201.2190
-230.3124,39.8169,-359.3443,-27.1760,-341.1920,-3.0371,-281.1950,145.8727,-132.4992,98.6417,-330.9732,-156.7635,-312.2057,-103.7968,-65.4299,-110.9368,-325.5036,86.4007,-159.8544
-231.6198,65.7264,-395.8226,-33.1607,-353.4951,28.9947,-258.2061,184.7511,-64.4466,123.0411,-367.4628,-109.6426,-329.0242,-92.7186,-52.1676,-38.4240,-329.1355,139.5809,-101.9018
-262.5530,116.4569,-399.3513,8.5671,-330.1685,86.7458,-208.1202,212.4871,-7.4783,150.0147,-361.8977,-44.9249,-353.7855,-72.0372,-23.9969,37.6768,-295.2709,179.4235,-95.9509
-252.2616,129.3727,-347.0195,69.1018,-276.0771,127.6065,-176.6211,212.7292,2.3254,155.5576,-258.6570,-41.3083,-299.8942,-61.2156,-27.3802,74.0743,-220.7620,220.6728,-107.5287
-215.4708,169.1642,-247.8481,150.1978,-175.1261,175.7226,-126.7295,208.1092,21.0647,150.0663,-141.5700,-17.9512,-186.8502,-23.0606,-65.6039,91.7785,-101.5304,278.1029,-61.0097
-176.3831,253.6235,-143.9682,227.6399,-75.4149,226.7726,-66.5024,211.4769,64.3604,115.3073,-96.8371,64.5206,-124.9540,47.8661,-99.8770,38.2583,-8.4403,288.4616,-14.8019
-114.7596,255.7015,-102.7296,223.1169,-69.1053,224.8939,-71.8426,205.8088,63.0532,70.6291,-90.3653,105.6332,-140.2906,75.5918,-119.8739,-46.3868,-16.3106,230.0783,-43.0892
-71.4347,134.4900,-141.8285,126.1586,-135.2397,178.8428,-126.4076,193.6783,7.2499,64.0046,-97.7132,64.5741,-180.7602,80.8206,-142.5631,-28.1925,-84.0413,170.3169,-80.4064
-109.6225,12.3757,-193.1002,40.8070,-178.5550,153.7046,-157.7082,199.2356,-35.5823,67.5538,-146.6679,31.5215,-217.7016,160.0816,-167.1347,58.7231,-114.3606,150.5885,-51.0976
-167.2571,-19.5606,-192.1487,41.5597,-171.9908,167.8481,-147.5424,232.0564,-29.4787,61.3639,-189.2715,81.0567,-228.5766,255.0714,-175.3823,130.8779,-71.8365,157.4878,15.0914
-148.5146,27.2242,-153.6962,91.7457,-135.7200,198.5461,-106.4262,273.3622,4.5697,99.3781,-158.6583,188.5328,-194.1912,250.4312,-174.6078,228.3966,-3.2439,174.6035,59.2641
-97.2169,91.5085,-128.1356,125.3794,-94.1924,219.6790,-74.3790,282.1814,25.4694,169.3296,-98.0120,267.6441,-145.0676,200.8963,-189.0028,305.2602,16.7732,183.6983,56.5766
-103.4160,110.2485,-127.7778,124.6805,-78.4059,204.7234,-92.4432,249.7991,28.7500,197.8670,-61.0444,266.3339,-107.1598,200.7337,-186.2144,266.7879,-18.1452,179.2838,22.5352
-140.0773,109.8665,-121.2685,120.1404,-72.6379,166.0947,-111.0525,225.7105,59.0331,194.4275,-31.0009,233.7322,-63.2787,232.8744,-117.6439,218.2634,-34.5724,180.5526,-1.7827
-130.2807,158.4015,-92.1474,140.0044,-39.3950,153.3383,-84.9099,226.2859,106.1102,199.2191,-15.1887,237.3987,-26.5266,274.8936,-45.9442,249.1878,-9.2144,181.6634,-4.1808
-86.8843,194.4305,-73.0764,156.8138,-9.9420,165.8421,-72.3343,206.0871,109.7335,199.1459,-38.8197,255.2175,-28.8879,301.8645,-54.6838,248.2004,0.6897,153.0318,1.8334
-91.9018,132.4461,-93.8371,124.6648,-23.8005,141.1357,-95.1637,162.7504,111.2773,181.7006,-71.0103,228.1855,-48.2369,223.3893,-79.1167,184.0178,-22.0304,96.4661,17.5805
-172.8578,62.1819,-132.4967,62.0959,-57.4855,56.4723,-111.9532,135.7629,165.9929,149.4677,-90.4764,154.1189,-67.0038,54.3253,-48.5680,152.3985,-45.5380,42.4020,22.5664
-243.2516,88.6065,-147.6541,32.1950,-83.6609,-14.3251,-137.5689,124.3043,170.6071,122.9674,-104.7953,90.8325,-100.8860,-25.7216,-39.1506,147.8179,-50.3550,39.3290,-4.9610
-187.3399,166.9478,-105.2002,70.2385,-66.1629,23.0549,-153.8098,130.8053,68.2303,151.3389,-64.6737,108.4318,-98.3430,52.6392,-78.5932,133.2099,4.8952,132.7863,-2.3463
-9.3188,255.3411,14.3155,169.6205,45.4287,154.3386,-82.5796,184.7527,7.6630,213.0798,58.7301,203.1906,1.3754,153.0492,-64.8270,139.2401,139.1048,275.2307,80.6378
147.1764,354.5564,154.5863,277.9640,189.1790,261.4839,23.2829,262.5955,58.2598,237.2509,159.7904,277.6657,108.0125,178.8642,2.0824,178.4957,245.7632,352.3549,167.3281
159.0423,381.1747,197.2041,309.3248,233.8956,281.8943,70.0697,311.9975,106.3856,261.3791,145.5509,275.3931,105.7035,174.1613,25.9815,259.2585,219.7146,344.5860,197.8616
56.4587,276.4359,120.0653,229.5500,186.7629,251.9546,117.9078,317.6455,127.8406,313.4521,83.2281,234.4838,59.6539,183.3624,30.7023,338.1340,116.4629,306.3114,214.6627
-40.9077,142.7291,28.4511,102.7194,138.1549,187.1582,178.8481,268.0800,177.6761,284.0807,60.6620,174.1726,72.0576,191.3127,71.1299,264.7828,32.1088,235.8920,215.3327
-72.7205,91.9826,-17.7644,15.5775,93.0162,85.8428,133.9940,179.4232,189.5339,181.6379,47.6858,95.6424,85.3693,171.9538,80.3912,72.6531,-21.2221,141.2252,157.5014
-68.8899,106.7514,-54.3977,-4.8802,43.6396,10.3201,30.8704,123.8526,106.7902,157.5261,-1.9060,55.5859,32.0024,117.9654,12.7869,26.4364,-44.7543,97.2781,93.5085
-64.2929,119.2221,-86.8182,9.4357,33.1414,5.4452,28.8751,114.3537,16.6487,157.7569,-41.9039,81.9104,-9.2337,67.1153,-70.2564,146.6734,-33.0471,125.5563,78.6900
-51.3913,113.0385,-74.6516,28.3657,60.7004,41.8548,77.2809,102.7935,-10.9783,41.4553,-13.0178,133.4932,29.0415,85.1849,-126.5865,218.3828,-10.6204,181.7099,62.9488
-10.4720,132.7547,-24.0712,69.0798,86.4309,108.3145,46.7747,111.0076,1.4266,-81.5146,46.4405,197.5050,70.2879,172.1487,-163.0148,240.7405,21.8739,242.1641,16.1959
56.9235,194.1997,22.1614,140.2208,95.0593,193.0381,-29.4932,151.0747,21.3142,-102.2072,55.2157,252.8889,41.6380,243.7104,-182.6284,277.7148,82.3795,270.9399,-7.4697
113.6226,218.3038,55.7817,182.1705,86.5080,228.7713,-72.4625,146.5161,19.7441,-127.6655,30.7214,226.7597,6.2756,245.5638,-187.7247,211.5647,139.4621,250.7625,21.6384
115.3762,176.9481,102.7591,175.0665,99.0009,228.7064,-43.1771,118.6974,-1.5331,-157.1796,69.6829,160.9841,52.9332,223.2442,-159.9755,74.8344,171.1739,275.8853,78.4512
89.4016,191.8600,169.5940,214.8719,173.1123,296.7984,74.5818,180.5287,2.4172,-62.7462,172.7872,205.7256,147.0261,247.3054,-88.5351,74.1143,204.7579,389.5968,131.2832
115.3354,299.4884,213.0402,328.1241,235.0770,395.9885,189.1591,277.3286,24.5338,74.3901,223.0896,336.2314,176.7893,308.7316,-42.0322,178.8184,226.3287,444.3214,158.5612
185.3777,334.1380,192.0554,371.8006,199.0863,379.6453,200.5171,273.8000,35.6049,99.2019,173.0465,366.1929,114.1667,330.5844,-49.6692,236.5917,200.2540,350.5154,171.7063
208.8252,224.3770,142.4054,279.6958,133.7476,272.7425,182.6776,216.4062,80.7826,64.2300,105.8593,271.3953,47.6315,288.4086,0.6750,266.0072,160.9170,241.9214,191.1663
170.1113,124.6670,123.4452,192.2609,119.5376,235.2643,206.2621,211.9261,152.3343,62.3956,86.4277,208.2461,45.5447,253.8807,137.6367,279.0410,139.7754,238.0089,185.9335
120.2017,137.9202,116.2983,206.4264,117.6520,298.3468,196.2360,239.6180,143.0235,78.3259,96.2209,237.4645,77.9690,270.8377,196.4486,220.2858,107.2830,291.9221,137.7982
60.8284,178.6492,82.1341,238.4237,110.7206,358.9055,150.5253,256.4153,70.5919,103.8743,116.6600,271.3138,105.9843,288.7019,115.8058,151.3056,69.5588,325.8723,111.6367
-0.4848,160.2217,55.8932,225.1139,128.8431,359.4688,152.3502,274.8060,59.0399,150.2340,146.7857,263.8437,140.1817,285.4003,49.8375,150.1229,68.7588,323.0393,141.0050
-6.1439,123.4262,68.7187,226.7683,137.9794,344.6008,155.4655,302.5338,88.5706,199.1728,157.3820,275.2209,168.7304,313.4287,83.7410,197.5034,93.6984,306.1662,159.8676
34.4557,147.4564,80.8142,281.4157,115.1445,376.7545,104.4183,336.8840,82.7655,237.5154,131.8524,344.6294,149.7795,375.2605,136.3293,269.7782,126.3767,307.0860,140.5080
63.0450,216.2733,81.4663,345.5107,113.9667,442.9172,91.1932,364.2359,90.4703,249.0740,116.0830,423.7519,113.6557,420.1954,148.8348,310.3795,189.9400,327.2208,144.3784
100.8026,243.4399,127.2507,389.7782,158.8676,481.2186,149.4557,361.2745,123.8861,224.2433,151.3498,459.2668,141.5906,448.3549,134.5254,268.5407,277.3057,355.5833,181.5613
164.2806,226.9164,225.0037,423.8652,227.5079,484.8246,170.4299,341.8751,84.3371,190.5960,208.5442,437.9034,221.7199,454.9224,106.3919,246.4726,346.8757,397.1720,173.7319
183.4487,234.6804,304.0093,440.2091,291.4312,476.1089,113.1900,308.4857,-14.1388,142.4920,244.7169,356.3095,266.2309,384.1016,88.2603,298.9561,380.1259,407.9355,93.5431
159.6515,240.2450,330.2172,420.8898,298.5866,428.1224,49.1413,221.6043,-38.8883,64.6299,268.9732,261.5749,268.9048,270.9101,106.6482,296.0478,371.0773,336.1831,26.9175
184.6706,190.7959,340.2991,385.5099,259.5537,348.2331,42.6228,139.2741,33.4815,35.4301,304.6945,251.8509,293.7658,241.0752,138.1071,244.4522,333.2015,273.2639,53.0882
232.4518,164.8088,351.0362,375.8315,272.8767,324.7160,113.2478,182.4828,112.8995,91.6150,332.1821,328.7385,329.5469,308.9397,139.4656,275.4862,307.2689,331.3095,127.3801
193.0248,224.4556,329.1411,397.3837,326.9365,371.0604,212.1949,295.4757,153.9248,129.0503,318.8649,385.3235,317.5802,375.7880,108.4762,295.4873,284.9284,413.3194,152.1476
96.9826,278.7041,274.7894,408.1885,313.0670,380.4491,259.2216,318.2697,186.3366,113.6608,286.4391,378.4283,290.0866,380.1092,84.0135,205.3153,231.2349,370.3578,127.1300
73.2517,264.3532,248.4453,369.0959,268.3629,296.4289,268.4264,243.7195,241.4139,111.4748,295.5621,335.1902,319.9225,305.9104,108.6335,156.8564,197.8293,247.4759,122.9256
146.6170,226.8967,270.8914,289.3346,286.0247,179.4554,297.3541,152.4170,288.6804,90.6684,350.2553,258.9506,376.0729,183.6052,173.9138,172.8114,229.1066,155.5798,133.0842
219.6974,179.3607,281.7248,210.4983,300.1371,100.7318,304.3560,64.0365,272.3997,19.8647,370.5874,176.3405,372.8018,100.3619,217.4966,89.0495,232.9920,101.7672,89.5228
201.1640,121.3525,242.3326,151.8676,243.9228,65.0222,243.1991,-3.9313,221.6272,-6.2776,303.2840,117.7216,309.9419,53.4303,213.5329,-9.4759,145.4853,62.7400,4.5230
113.9560,101.7603,183.1701,94.8680,184.5113,25.3150,180.7185,-35.4126,212.2303,28.1308,200.0492,30.2338,247.0400,-44.4674,194.6324,41.4177,55.7586,30.1352,-39.1596
70.8214,100.6846,123.5631,27.8456,148.8736,-39.9502,171.6443,-66.9233,225.2337,28.9590,126.3756,-90.5675,195.7357,-130.9432,157.2345,99.5191,20.7993,-18.5704,-22.9345
106.4028,47.9374,54.3377,-27.5004,92.2065,-87.7285,175.4861,-102.0263,206.1826,4.2512,68.5185,-137.0483,129.3079,-93.3183,77.6266,30.3778,-17.9763,-76.0057,-5.2291
121.1541,-11.9975,-4.8860,-55.3770,31.1236,-102.9187,160.1584,-107.0981,189.7834,1.5841,1.5392,-111.1076,55.3440,-39.4537,18.9159,-45.3897,-77.5565,-115.6982,-16.7958
55.1073,-7.1071,-28.8236,-75.0962,-2.6593,-136.8198,137.4408,-105.5275,200.1599,-15.9798,-35.7143,-119.1525,15.5299,-80.6276,53.5064,-71.5952,-115.1259,-154.6724,-31.3955
-22.5431,5.6425,-29.0686,-108.5608,-23.5791,-185.2983,105.1248,-118.5197,173.8904,-51.3327,-9.2504,-140.3748,24.2789,-105.9444,120.6252,-120.7445,-132.5081,-199.6093,-32.8103
-33.9132,-38.3413,-19.2183,-153.2447,-32.3599,-188.6056,55.1610,-122.5495,97.0291,-72.7763,42.1555,-132.8339,41.8655,-86.4175,123.6897,-167.4677,-145.2065,-214.4588,-39.3548
26.9803,-96.6669,-0.1205,-193.9967,-29.4508,-166.7237,2.4455,-136.3022,38.2556,-110.5994,70.6806,-176.8716,31.5087,-148.2545,80.5971,-163.3106,-139.7101,-201.3878,-56.6973
