Fp1,Fp2,F3,F4,C3,C4,P3,P4,O1,O2,F7,F8,T7,T8,P7,P8,Fz,Cz,Pz
-55.2479,-9.2113,-54.0616,-54.6856,-37.8804,-21.8372,37.4322,43.0253,2.9979,28.8507,136.4495,-37.4802,-29.5470,-36.4399,27.4709,21.0979,-74.1905,-62.3722,0.8185
46.5073,61.4231,8.3805,48.9354,-87.0129,70.8672,-72.9602,-29.4294,-77.8711,-90.6896,-243.6608,1.2355,47.3603,60.3123,-12.4931,-58.4150,-36.9326,31.1085,-83.5017
103.7747,92.4044,79.7468,111.9152,-75.3915,97.9163,-149.4814,-89.1783,-101.3186,-51.1127,-400.9876,24.4266,95.4186,93.4884,-48.0743,-115.2077,16.8539,93.5954,-125.3874
159.7050,150.6637,170.9724,106.3921,62.3118,58.1279,-90.3826,-69.0137,-32.4843,77.4142,-317.8591,41.4082,135.4419,75.2364,-30.1881,-130.2434,43.8046,111.3644,-124.6139
219.9212,221.7403,237.8497,106.1428,168.0085,46.4590,-16.7446,-28.8507,-2.1973,58.6843,-297.6837,58.5910,172.9537,86.7940,1.1229,-156.5664,45.9562,125.0248,-147.5722
219.2642,214.0921,210.1591,128.7340,135.8837,71.1160,-46.2501,-41.6650,-55.9287,-44.2632,-345.4162,58.3123,145.5838,101.2733,-13.7122,-188.3905,35.8177,123.5943,-184.0366
163.3864,169.1368,112.1007,108.5970,69.5450,53.5658,-98.1888,-87.1222,-99.1595,-61.1455,-324.4773,44.8982,62.5740,72.8900,-35.3132,-189.7068,-5.9813,82.7909,-191.8931
102.2783,177.3053,18.5695,60.8518,37.8813,-6.3943,-101.7027,-114.1320,-96.8743,-23.9920,-303.6719,46.0962,10.9947,48.8680,-32.9345,-174.1144,-64.1616,34.8955,-184.2005
51.6091,200.1845,-51.4033,60.3990,-1.5415,-31.5116,-115.0401,-97.6543,-85.2057,17.1030,-327.4415,48.6023,2.3883,45.2865,-60.9618,-159.0406,-86.4737,17.5785,-159.6264
43.0915,179.2258,-92.6680,73.3000,-34.0921,-6.2896,-143.5361,-43.4952,-69.3368,64.0115,-322.8401,11.6950,-8.0617,29.3879,-117.5310,-142.1617,-75.7423,38.7832,-88.1623
96.4853,133.7418,-77.0164,35.1360,-10.2305,33.8451,-110.6572,12.6889,-39.0469,62.6330,-306.7341,-48.1814,-5.8490,41.4237,-126.0064,-125.9334,-64.1538,93.9488,7.0333
146.6379,76.6466,-24.7472,0.1945,45.4140,89.9827,-15.7831,56.0752,19.1121,39.4232,-311.3129,-74.1752,36.3974,99.6406,-80.1638,-97.3941,-45.4765,137.8155,83.0215
135.4628,16.7236,-0.9448,10.4931,84.7966,139.1389,71.9791,104.5705,104.2883,80.4352,-290.4160,-62.4358,82.6449,106.0790,-26.5279,-55.3988,-32.8128,115.5115,130.3554
90.7640,0.1328,-21.5585,-1.1926,94.6149,109.7516,114.4589,133.2563,149.1080,109.4830,-262.2134,-58.5241,90.9504,34.1591,19.3428,-46.4441,-57.8374,73.5572,130.2358
63.4662,30.7026,-33.5548,-44.2376,96.2840,33.0503,116.3412,101.4446,114.5762,55.3664,-273.8387,-81.1153,76.6093,-10.8854,32.9516,-75.5618,-66.3036,108.4216,82.2469
94.2066,55.2366,29.6563,-40.6640,139.6710,29.1445,112.6718,48.5063,70.1531,28.1732,-280.7585,-103.4551,80.0047,-0.8930,-2.5501,-80.6102,17.3551,202.3214,51.6785
191.6641,52.9554,183.2596,9.3933,230.0074,86.7107,126.3841,28.9677,47.8925,54.0856,-263.4565,-88.7353,109.1269,1.6194,-39.5085,-59.7340,147.0453,265.5586,68.4110
280.7829,34.8260,350.4400,53.9369,299.2917,98.3620,119.3421,26.6308,10.0926,28.9665,-266.5771,-36.3013,136.7775,-2.0519,-45.8834,-68.3745,232.1064,287.0459,82.0170
289.1194,7.3290,425.6535,92.4060,316.6107,77.4985,77.6167,25.9065,-6.0736,-19.0448,-274.7053,-2.8905,149.8556,7.2771,-40.8292,-95.0548,260.8732,298.0099,77.4763
256.0696,-5.3712,390.4926,107.6955,312.1748,91.3893,73.1810,37.1132,32.5793,-24.7274,-262.3749,-35.2572,161.3834,-0.9863,-12.0140,-95.5345,247.3782,287.6941,86.5725
227.0731,6.6560,303.4388,65.4447,285.7884,112.5211,122.6685,35.6882,52.1951,-40.3616,-261.1705,-95.7842,164.6791,-18.8164,49.5378,-75.4157,188.3937,255.2430,99.2382
167.2776,-3.5102,206.3356,17.7212,230.4668,116.4882,131.9957,12.7646,41.9828,-53.8938,-268.1722,-124.4839,143.4617,-7.4689,91.3298,-45.4100,109.8186,225.9298,88.7470
82.5408,-55.9303,119.3333,28.9144,179.5619,126.8023,65.2786,12.9404,64.2906,-5.6490,-260.3510,-122.8198,122.2186,16.2689,96.5384,-11.4608,53.8709,191.2495,55.8773
48.6281,-86.0058,73.9612,69.7161,138.3107,119.6469,-8.0198,36.5281,67.5417,21.5392,-258.7558,-108.5672,128.4304,30.6902,99.9667,-11.7291,42.1762,145.7679,9.8414
75.7887,-50.9986,80.5917,100.2658,86.7327,90.1177,-46.4307,39.4745,6.7642,-29.9295,-256.9546,-73.9490,141.9634,47.5123,83.9828,-53.0168,74.0636,128.0412,-19.3892
104.9394,3.1585,106.6994,122.6296,54.0097,94.8124,-64.4903,29.8015,-23.5404,-63.9040,-228.5885,-31.2387,135.3700,53.6334,29.3228,-83.1021,109.4029,140.2766,-10.2769
114.4553,38.4570,120.8841,135.0963,65.0005,100.2057,-75.3353,25.6726,-7.6129,-57.2218,-209.5319,-7.3790,101.4398,43.5451,-13.0015,-77.3726,106.5351,134.4044,-4.9219
121.5548,72.6477,123.2619,151.7214,77.6202,33.6791,-85.2897,4.4496,-28.9134,-86.1117,-221.1735,4.1951,41.4404,58.1682,-26.4730,-48.8183,97.4701,103.9605,-18.0224
138.2119,92.9818,121.8973,180.9989,51.0199,-29.3197,-86.6355,-26.1705,-45.3799,-137.3376,-220.9838,16.0245,-11.8278,88.7741,-53.6023,-2.4420,120.7152,70.3412,3.8262
168.7603,55.6507,113.0309,163.4296,-4.6736,-12.5024,-70.9720,-41.8889,-10.1232,-162.2013,-208.6283,17.5241,-19.3162,69.3921,-88.6335,38.5022,135.4440,31.8471,29.4860
193.5494,-8.1089,102.0099,81.5970,-51.3034,4.8499,-67.4813,-67.1549,-4.6032,-161.8866,-214.8929,7.0432,-6.2878,14.0650,-100.8556,50.3266,117.5363,18.3861,-15.7705
179.0839,-25.7465,110.9318,34.7465,-47.8685,-6.6290,-77.8630,-94.8094,-3.6732,-117.3721,-217.4690,-4.0123,-5.9916,11.5875,-94.7284,62.4170,113.9680,65.2617,-45.4191
142.9434,-3.5571,131.6667,62.5697,-1.6094,30.7487,-40.1793,-61.1973,87.4819,-30.7804,-206.3689,-11.4087,15.1632,79.1488,-63.5203,88.8504,129.6969,99.2392,30.3585
136.2571,16.2038,111.9851,86.5301,14.9541,79.7483,25.1103,12.2368,137.7752,26.5822,-209.2482,-13.4041,59.6592,138.5122,-12.1704,88.9657,114.9711,35.1734,69.0375
146.0273,29.3158,34.3421,85.4151,-43.2972,52.6070,0.4522,32.4481,15.8550,27.6520,-213.8744,-24.2974,54.6424,124.1886,2.1342,69.7523,59.7613,-51.9306,-47.6612
114.2410,7.2174,-44.2341,97.4336,-132.8511,11.5578,-101.9755,3.3186,-98.1173,6.8762,-204.2462,-74.1188,3.7070,52.0332,-19.8495,77.3850,-19.3579,-49.6694,-176.3971
51.9714,-75.7613,-72.3124,96.8172,-182.3156,23.4335,-139.1325,-5.4579,-49.1501,-21.9862,-204.0413,-145.3158,4.6494,-14.1269,-3.9702,82.0321,-105.6618,-0.7924,-192.9910
21.2984,-130.6055,-66.3034,66.2069,-166.5497,22.2798,-98.7943,-0.1177,12.7911,-42.9708,-210.1125,-168.1096,61.2518,-33.3759,33.5151,43.0083,-156.3907,3.0107,-181.6384
18.8974,-83.0603,-70.7869,54.7454,-120.5288,-20.9688,-94.1773,-17.2552,-42.7236,-35.0362,-202.2983,-120.8415,72.8258,-4.6059,7.9700,14.5038,-160.6308,-16.0238,-202.1893
-3.0183,-36.2654,-99.3348,64.9027,-82.8886,-34.5160,-129.7545,-30.3232,-125.6861,-13.8491,-199.2704,-64.4710,24.9279,52.0266,-59.3577,41.1915,-163.9572,3.6686,-193.3974
-33.4324,-83.5304,-116.9497,62.4990,-38.7384,9.0264,-126.8152,-11.0491,-150.7061,9.6006,-206.2934,-50.8554,6.0591,89.9845,-90.1841,75.7987,-156.3533,49.0154,-139.2452
-34.3948,-133.1314,-80.5251,83.9424,18.0750,68.7864,-100.6171,8.0745,-140.3871,27.6013,-200.4635,-52.6530,41.1305,80.2846,-89.7718,81.3535,-76.5559,72.4636,-87.7269
-13.0221,-97.3823,-5.0610,159.3735,37.1642,113.8975,-101.6327,2.6315,-109.7164,10.3363,-194.8767,-15.5902,64.0568,77.0554,-86.2509,75.7522,57.1491,69.6878,-44.1476
23.7054,-35.2637,57.6930,221.0961,22.8677,136.4903,-88.4855,10.3780,-38.9963,-10.8367,-202.5304,40.5951,50.6466,125.6593,-51.1323,67.8406,177.1433,77.8466,19.3385
89.3159,-9.2550,103.8576,214.5896,43.4020,143.6030,-18.2741,56.8632,60.1568,17.6578,-198.8764,42.7254,55.1446,160.4277,22.5674,62.0535,266.6077,118.9463,101.6636
159.8271,-1.7870,159.8055,186.7839,79.6003,147.6743,55.8896,93.8528,135.7493,37.8256,-190.3725,4.9423,106.6651,139.2434,79.3485,77.7941,324.4755,169.2401,171.8077
204.8117,8.7322,208.8697,194.7755,79.6557,149.3964,90.2224,85.0771,169.4726,14.1993,-199.1006,29.4267,164.8278,141.4850,87.6355,105.7252,342.3955,194.5916,207.6458
238.3799,18.2051,215.5454,220.5982,93.4148,140.4604,117.3865,75.7819,198.2659,37.9299,-199.1696,129.7455,189.1259,201.0757,75.8621,114.0254,338.6858,182.1036,210.6235
252.7042,16.5331,171.1408,212.8175,129.3771,96.1034,130.8464,87.5849,205.4592,92.2941,-179.5271,205.5380,174.0548,235.9317,63.4101,95.9201,312.1522,131.6638,167.3849
209.3089,-3.4009,83.9379,159.0176,94.5065,5.6415,68.7048,58.7914,125.4994,48.9806,-173.0738,207.2408,123.3018,206.7382,32.3863,60.3820,224.9162,71.1237,61.1783
128.5620,-35.7275,-10.9062,83.4269,18.7525,-57.2532,-35.4788,-18.6105,16.6659,-33.6826,-176.4320,169.4601,59.2535,150.3752,-15.4398,23.9623,87.4120,51.0476,-44.8799
55.9974,-75.0534,-58.7881,6.3177,18.6861,-19.9463,-73.4805,-56.3104,1.6801,-26.6041,-162.7578,112.0392,26.5579,91.7162,-45.4437,17.0900,-31.2587,71.4122,-54.9409
0.7906,-111.1257,-44.9411,-35.8731,52.7634,55.1491,-40.5191,-27.7545,44.7896,-14.3313,-149.0121,41.3343,35.6301,64.2661,-50.0332,32.6318,-66.4878,92.6477,15.3741
5.1617,-100.5813,17.3054,17.2329,45.3942,96.4702,-10.6801,1.0117,47.9843,-85.2737,-151.8676,-4.1210,53.0368,97.2157,-51.3068,16.5947,12.7071,126.4699,75.7051
114.1692,-31.8343,129.7935,147.0301,63.9083,147.7463,-0.2652,5.4925,31.6377,-128.2169,-152.5508,13.1714,63.2617,135.5164,-53.2224,-35.2885,158.3036,187.1398,90.4736
248.4220,24.4465,263.8206,237.7768,129.7007,206.2942,-2.0243,11.8458,12.8108,-76.1058,-148.3026,85.8992,75.0052,125.1142,-56.9021,-62.7901,259.3956,212.9745,66.2303
302.1205,35.2028,352.0999,248.3492,149.8884,184.3997,-31.1925,13.7991,-48.9911,-18.2300,-149.8836,164.1606,78.3494,116.5104,-76.5539,-44.6286,283.0530,169.3141,12.2555
292.5518,58.4313,361.5798,255.9390,105.8545,104.2164,-74.9473,-14.5319,-117.1768,-14.0951,-149.4409,209.4958,56.2877,155.5056,-101.9594,-11.2287,277.0978,103.8846,-56.8864
259.4393,104.5787,293.1312,280.2854,28.5635,43.7223,-128.2423,-76.3466,-150.1590,-48.2118,-146.1003,241.3976,18.7049,198.1677,-115.0076,21.1550,231.5686,37.2914,-157.2138
199.3268,114.2096,181.8153,257.8174,-74.6891,-26.5945,-201.4208,-144.3870,-183.4315,-84.7388,-147.4672,259.8860,-4.0122,199.0122,-119.3566,42.2723,143.7715,-21.2644,-274.8088
168.0823,89.7229,137.4746,197.7903,-106.0238,-104.9255,-204.3068,-165.1734,-172.1859,-77.7132,-147.2653,199.5906,13.6709,159.2519,-89.1935,40.4569,122.8002,-5.4502,-278.6454
218.1701,93.0990,206.7412,173.1243,18.2226,-94.5393,-52.3396,-126.5456,-41.3755,-51.0547,-144.0089,96.5947,65.9192,97.8140,5.4346,35.8787,204.3237,66.2597,-115.4584
277.5952,151.7272,249.2910,188.0687,161.2514,-19.4367,111.2192,-101.5651,95.3566,-84.6832,-144.9387,112.7525,112.2280,46.3484,91.9053,29.9026,251.3461,57.8981,25.8334
287.8877,248.7600,175.1581,192.5107,180.8203,2.4519,113.6239,-135.9915,103.3247,-157.3999,-145.4661,245.6263,120.1570,21.4091,78.8649,-28.7938,204.0314,-35.9832,1.7456
310.4056,343.0460,111.1556,168.9583,150.4852,-15.4635,43.5546,-175.2389,57.6329,-188.5390,-142.1835,313.5904,94.3437,4.9515,10.9201,-124.9753,171.5160,-80.1606,-63.5630
373.4755,401.4381,130.7170,140.6148,138.7894,-11.0385,35.4310,-179.7897,53.3569,-188.5901,-142.5129,307.9283,53.4057,-9.0008,-29.6946,-153.8103,204.4031,-67.8876,-45.0140
405.4514,435.1963,128.9552,140.0934,93.4691,-24.4924,28.0610,-184.3288,57.0252,-197.7707,-143.8157,371.3711,8.4088,-13.2210,-52.5728,-104.9597,236.4397,-95.7457,-1.5879
353.6820,438.4022,70.8615,160.8317,25.0093,-79.9416,-30.1463,-206.2438,48.6349,-216.2815,-140.6589,457.6012,-36.1894,-20.6977,-66.3480,-81.9990,230.3014,-153.4378,2.5866
228.0174,354.2894,14.2135,136.1840,-27.6427,-131.5762,-72.2791,-223.6705,34.3823,-252.0518,-140.3410,419.8231,-78.7929,-29.2862,-44.3475,-99.7301,186.0839,-198.9510,-23.1778
73.6799,193.5976,-69.9085,34.9706,-125.2117,-185.0269,-108.3545,-233.7219,-28.8420,-271.2744,-142.1825,311.2348,-113.5305,-23.3197,-29.8712,-84.2359,94.5090,-270.6763,-74.2256
-49.4960,50.5058,-198.8815,-70.2154,-273.3256,-274.2809,-205.9539,-248.9736,-140.1817,-204.4095,-139.4622,266.1562,-140.4309,-24.3286,-79.7304,-51.0589,-23.4126,-365.7158,-125.9270
-141.4854,-57.5608,-287.4846,-124.1121,-354.5293,-359.4388,-315.3175,-273.1623,-229.5411,-116.4658,-138.4852,265.7727,-177.0895,-39.6822,-147.0539,-61.1308,-138.6582,-412.4393,-140.6891
-265.7660,-197.1242,-328.1336,-178.5475,-335.5550,-375.0302,-347.7611,-298.9326,-261.9755,-138.2429,-140.5229,227.7083,-215.1687,-29.7913,-177.2107,-76.7337,-264.2521,-402.8553,-140.6228
-419.8047,-361.0694,-393.4815,-264.6354,-290.7175,-314.2926,-299.6736,-301.9392,-229.1723,-218.4197,-138.5936,154.7027,-203.5532,-3.1739,-193.3418,-46.4576,-392.0212,-378.0723,-150.6872
-523.1945,-459.4633,-445.9976,-312.4969,-235.8782,-227.0426,-203.8013,-272.6516,-132.5153,-228.2869,-136.9341,102.8664,-136.7336,-5.7387,-188.3788,-17.8323,-465.0576,-344.0435,-158.0952
-543.7186,-455.1316,-413.0035,-284.4476,-165.1913,-167.6541,-114.5127,-243.7521,-47.5159,-204.1060,-138.9096,95.7688,-82.0297,-13.5286,-110.8435,-35.1314,-465.2390,-303.5681,-191.0718
-506.3336,-416.3077,-338.8128,-242.7603,-140.3446,-138.5635,-109.3116,-234.2901,-57.3704,-225.1049,-137.9729,90.5131,-68.2259,4.9717,-4.9903,-53.9203,-422.7751,-269.0381,-267.6524
-427.9362,-423.9591,-280.4047,-226.0513,-174.1582,-114.5985,-178.8928,-221.9410,-133.3767,-238.3269,-135.7039,42.4697,-52.8871,13.3553,18.6873,-34.9134,-346.8027,-228.7311,-300.7935
-336.7409,-454.0005,-227.0103,-197.7860,-172.8921,-111.4404,-221.0858,-199.3185,-196.6251,-196.0221,-137.4439,-6.7486,-18.9063,6.4783,-43.4862,-11.0752,-249.3243,-183.3169,-241.8823
-275.4646,-420.7444,-181.5367,-147.3200,-98.0667,-142.4441,-196.5212,-182.4112,-220.3996,-165.4420,-137.4732,-0.8029,4.4356,16.9264,-105.5710,-22.8242,-186.3802,-156.0901,-189.9619
-247.5057,-337.2995,-156.9112,-117.5382,-34.9051,-166.3679,-154.8102,-174.9188,-211.0852,-185.4625,-134.8302,20.5850,6.1966,9.4354,-137.4738,-61.8094,-184.5329,-132.5116,-202.5925
-229.8972,-297.3066,-134.1694,-123.2147,-37.8018,-164.5782,-114.4934,-172.1931,-171.4321,-183.5585,-136.1783,-0.9218,1.4198,-42.9296,-145.3799,-95.1938,-190.0703,-81.5833,-186.7261
-223.0262,-309.5764,-116.8897,-135.8845,-51.6109,-159.1142,-50.0849,-156.8432,-106.9842,-110.2649,-136.9916,-50.0538,-1.2322,-74.8829,-100.7699,-104.8789,-161.6971,-23.6429,-89.6713
-243.4001,-311.6535,-134.1641,-142.1101,-36.5510,-132.2316,19.2404,-110.0470,-38.5875,-36.0520,-134.3593,-99.9293,-5.9000,-64.3115,-26.6238,-94.0222,-147.6099,-0.0219,-3.9674
-297.3283,-295.9597,-180.5202,-155.9796,-38.2537,-73.9968,30.0118,-70.3490,0.8848,-38.1591,-135.1151,-144.8920,-19.3093,-69.9186,-11.9196,-74.2084,-201.5711,-16.6135,-7.3603
-364.1485,-287.8133,-229.0046,-177.1245,-85.6757,-46.0744,-30.8746,-86.2010,-1.1416,-71.1459,-136.5078,-158.2432,-35.4933,-76.5607,-46.2068,-49.9985,-275.4210,-50.3624,-58.7303
-394.4605,-279.6841,-254.3151,-168.2749,-136.2460,-65.3623,-96.9922,-111.2286,-24.9819,-49.1103,-134.2828,-124.3358,-45.7070,-20.0036,-37.9122,-9.0601,-270.8052,-69.0322,-95.1222
-359.8461,-262.9131,-225.8111,-104.3394,-148.6472,-58.7193,-110.5332,-87.0125,-46.2130,16.1049,-134.2702,-81.2985,-63.4412,60.4999,-8.3844,54.3128,-168.5049,-50.7269,-105.3738
-284.8434,-248.4083,-140.5009,-34.1755,-114.6290,-12.8493,-85.8175,-54.0020,-40.5088,70.6515,-136.0929,-68.7968,-91.4780,84.4671,-26.4726,101.6357,-39.7677,-8.1758,-91.3823
-192.3407,-234.9148,-33.4060,-25.2951,-41.5838,-4.9877,-61.2239,-49.3836,-6.8136,109.6122,-134.5222,-73.4588,-94.4821,59.6423,-45.5398,92.8553,44.3119,21.3375,-64.5417
-82.7436,-198.9398,60.9420,-62.4833,26.1380,-61.2742,-46.4819,-41.5282,-1.5170,117.2420,-133.6989,-54.8564,-62.2398,28.1800,-32.7485,66.3127,59.4287,9.4733,-69.5484
5.5344,-130.2953,106.0358,-93.1811,37.6301,-122.8823,-35.2996,-33.0896,-46.4468,61.2642,-135.8009,-15.1611,-30.1009,-4.2640,-52.3606,77.1563,23.7465,-33.3176,-118.2530
16.4395,-73.7105,73.4929,-109.3067,13.7946,-137.4821,-26.1311,-50.8375,-65.2770,-12.4677,-134.9497,-8.2762,-9.9878,-26.4421,-86.2830,81.4623,-8.2745,-47.5577,-149.4819
-27.9903,-77.0653,0.0981,-95.3360,6.3078,-100.3841,-25.3651,-55.1274,-34.5370,-49.3273,-133.4965,-45.2546,2.1622,-11.4259,-58.9612,17.9333,3.9117,11.9524,-122.2036
-58.1566,-100.5168,-43.6413,-33.4816,13.6098,-30.4000,-35.1457,-11.1529,-31.2554,-97.8160,-135.6290,-66.2824,-12.7007,25.2138,-24.7880,-58.8313,26.3375,95.4736,-58.5031
-62.1513,-93.0766,-34.8234,-0.2250,23.2914,49.6977,-36.5624,46.1316,-56.0109,-175.0997,-135.4828,-53.4942,-33.5840,34.4462,-45.8816,-70.3827,6.0155,118.9370,23.7507
-56.9268,-94.6913,13.4741,-56.7347,55.6308,107.8992,-16.2333,90.6761,-43.1551,-172.7368,-133.7248,-41.8429,1.4355,15.7907,-52.2637,-40.0394,-28.4439,88.2698,108.5345
-19.4640,-115.4674,76.4510,-101.6600,108.0108,110.1163,10.8154,121.5526,-10.2644,-63.3563,-135.5603,-15.4802,78.6428,20.3879,-13.5324,-22.3878,-11.4295,69.2280,156.3073
56.9212,-73.7330,114.7642,-49.5293,144.1870,66.5908,41.2120,120.0624,14.0185,15.2571,-136.1276,42.5730,123.0454,52.6980,6.7691,-27.7003,47.7250,76.9704,167.6141
126.0879,26.4523,127.7190,13.3610,145.3288,32.3554,77.0224,94.5459,54.6469,3.1686,-134.3790,71.5574,114.0080,58.9263,5.3691,-46.1991,89.5087,84.9068,182.0339
158.3215,67.0015,150.1448,9.7414,120.7725,32.8694,91.1914,92.4958,101.6128,1.6114,-135.6152,42.5794,77.8133,42.1234,17.4804,-39.3792,92.4335,91.4151,211.7701
146.7984,-10.4416,162.7053,-28.1817,107.2388,55.5996,104.6929,130.2473,158.2327,57.7446,-136.9066,6.1903,48.2014,66.1396,46.6548,30.1012,72.3261,112.2282,268.7395
91.1340,-152.6114,141.1000,-61.6865,143.6826,101.7377,180.9841,182.4339,254.3370,99.8809,-135.3645,-14.5315,72.0692,121.5224,103.5679,98.9863,64.0976,144.0498,349.3785
76.0802,-219.2450,151.9712,-29.1419,196.2769,159.8092,256.0657,212.1913,287.9549,91.3046,-135.8845,-17.9465,140.7003,134.1890,146.9725,78.2832,120.7221,171.3447,367.0570
198.1273,-91.3872,233.4523,121.3226,195.5470,194.5781,221.2181,200.4728,173.0925,72.0464,-137.8146,9.7551,176.1982,104.0348,102.8401,18.8731,239.9258,194.4348,295.4493
344.2915,89.1883,305.4595,270.8636,172.3130,221.7438,169.0119,196.4807,84.6933,81.9501,-136.6001,17.7797,179.7130,91.0656,50.3801,18.5169,329.5403,230.1966,273.8654
330.7474,79.4220,325.6697,283.8594,211.4545,276.7326,221.9919,256.7321,154.9202,129.8121,-136.4907,-40.9322,233.8527,104.0253,107.3304,47.0973,334.7651,275.6390,351.2687
237.6705,2.0157,338.5229,246.9128,288.2920,317.4422,281.6273,318.1099,216.1219,182.7277,-138.8026,-80.8344,314.3285,114.6783,188.4683,40.7409,308.5218,294.9717,376.1583
237.0737,109.2665,334.0521,251.3036,309.8647,300.5167,265.6200,293.1163,166.9007,189.5990,-138.0538,-33.9408,314.8783,119.5471,196.0645,33.3030,296.9276,268.8180,293.5063
253.4346,245.0908,285.9047,223.1293,260.2455,271.7659,252.5240,231.8870,123.9066,161.3657,-137.4993,17.7698,243.9251,123.6819,189.7499,61.9010,284.8770,220.5662,208.6081
171.2574,216.0265,252.8271,168.8165,184.4828,260.9959,218.3240,210.7200,101.6019,152.0599,-139.8227,18.0340,192.0950,121.3034,166.2908,92.7015,258.9391,171.5667,146.1369
72.0532,221.0193,239.6889,164.3132,117.1676,223.4386,92.4473,203.3167,42.3858,159.9140,-139.7255,13.4595,173.8962,108.9942,68.3009,108.6347,197.1210,121.7090,81.9075
1.0716,315.7379,143.4319,110.8124,83.3046,147.0729,7.4776,186.6529,16.5764,162.8556,-138.8754,5.5164,150.5342,86.1247,-8.5380,135.3604,67.0531,81.4359,66.8234
-88.5065,226.6617,-19.5393,-60.2598,81.0443,76.0210,42.4204,183.9945,41.4176,185.9112,-140.8991,-37.2772,117.6248,54.9773,0.9145,166.7058,-84.1264,65.3575,99.2541
-116.3726,36.7475,-92.0728,-188.2181,67.2964,33.5619,50.3450,180.0517,36.3008,218.5490,-141.6074,-75.5779,88.3946,23.0007,0.5734,165.0394,-174.9564,60.7417,113.8071
-43.1539,113.5434,-53.3600,-197.7746,12.4371,20.0291,26.7462,160.2362,29.7269,193.5267,-140.5634,-73.9016,63.9022,-3.8715,-13.6909,124.4083,-221.6459,47.3162,120.9811
-34.6233,361.5354,-35.9836,-192.4707,-71.9522,33.3268,115.1330,152.4958,47.7444,120.1601,-142.1392,-67.1400,44.5649,-17.9067,19.9360,74.7328,-256.5837,29.8413,128.2629
-100.6104,442.0606,-64.1999,-161.5938,-153.4447,54.9983,218.5789,149.3898,13.4167,73.7254,-143.6342,-87.5660,33.9113,-22.6444,19.9311,36.6966,-224.4485,22.8274,86.8272
-26.6501,416.1444,-41.0427,-55.7192,-183.1240,65.0569,180.8543,124.5817,-36.2107,52.1095,-142.5236,-121.3830,30.9412,-50.0638,-40.6844,5.9289,-122.9013,23.6026,28.2935
157.1686,493.6069,37.9150,18.0970,-146.5222,52.4826,105.1426,93.9723,-30.1960,7.4741,-143.6449,-133.4830,18.0899,-105.0290,-49.4392,-20.5419,-59.5939,15.5395,-4.3789
215.3856,618.6203,72.4836,22.5567,-122.5450,12.5722,61.5357,51.9785,-82.1677,-43.1568,-145.7131,-111.6007,-31.0017,-126.6385,-45.4772,-32.9892,-65.5511,-12.7376,-78.3473
165.8969,672.7375,21.3702,65.3358,-177.6782,-21.1715,-50.0323,-17.5214,-216.8090,-56.1368,-144.7766,-94.0983,-100.5151,-84.5199,-129.9975,-31.3324,-69.7220,-49.6280,-186.6830
162.8484,664.1229,-60.1443,124.6922,-240.3276,-4.4428,-161.4249,-51.2995,-233.9497,-26.4242,-145.4550,-105.1539,-129.7036,-41.9304,-178.8914,-24.0099,-63.0564,-55.9267,-204.1877
177.8810,635.4374,-111.5564,101.5637,-216.5265,35.8087,-113.7707,-10.8193,-106.7270,10.4669,-147.7914,-111.6102,-101.7178,-52.4248,-85.4244,-7.9007,-81.1258,2.9638,-140.5263
165.0060,624.4324,-120.9159,51.0837,-142.7006,48.8988,0.9486,22.3625,-15.1243,-7.8500,-147.3317,-111.8013,-68.7489,-88.4559,17.5846,9.7949,-102.3046,102.3266,-105.8628
176.0998,633.3655,-107.7686,43.9201,-95.2754,52.8820,33.3010,9.8294,20.6304,-73.5094,-147.5452,-136.7632,-58.4016,-106.8874,36.2347,1.1532,-104.6477,166.8629,-87.4878
188.8301,617.3926,-88.9868,35.2172,-65.6273,73.6017,34.6314,22.9418,62.6255,-60.1438,-149.9141,-146.0002,-41.1933,-93.9311,28.1099,-31.0566,-99.9230,164.7417,-43.2950
163.9402,593.9533,-66.9271,21.6697,-23.1105,83.0609,51.8533,65.3487,45.7353,60.8176,-150.1612,-102.3416,-14.1474,-61.3345,17.0038,-50.9311,-67.2915,140.2826,-21.1266
160.8511,622.4393,-40.4734,56.7417,12.3200,65.3679,21.9743,55.2478,-37.3387,112.1987,-149.8874,-71.8811,-20.8580,-54.0344,1.9845,-55.2112,12.5969,121.0199,-41.4825
186.0362,664.3071,-3.8222,118.8182,17.2751,40.2315,-43.2682,-5.7815,-76.5374,26.2203,-152.1481,-89.9958,-59.5136,-94.8299,1.9238,-63.2665,91.5930,84.2105,-74.7538
181.3340,637.4136,59.7362,157.6019,3.2185,24.4818,-64.0580,-33.9870,-54.7598,-18.2508,-153.1256,-95.5527,-65.2982,-118.6157,-11.4574,-62.1139,121.4014,38.6296,-105.0625
182.6309,542.0774,146.5925,171.8491,-5.4508,36.1662,-35.9099,-0.2981,-28.0755,41.5933,-152.4740,-70.2421,-20.6543,-66.2137,-38.0699,-39.6496,115.8230,15.9559,-97.1369
222.2317,442.2986,208.0375,173.2780,1.6571,65.4578,-4.1223,44.1033,-1.9702,44.6375,-154.5348,-47.4629,11.9284,0.3535,-17.9967,-17.8612,108.7975,-11.1122,-48.0193
222.6027,394.6644,197.9556,168.4451,0.9051,50.4100,6.6112,46.0815,20.7393,-26.9488,-156.1174,-21.2698,2.9902,-2.6237,25.8513,-0.6351,115.3858,-71.6182,-38.1321
151.2263,366.6691,125.5461,148.4617,-41.8850,-16.1358,-9.0284,9.9450,30.1139,-15.5334,-155.3744,8.4773,-9.1539,-39.9264,32.4788,30.6192,116.0865,-115.3032,-81.4901
49.1615,248.0809,27.5124,89.1985,-107.5047,-45.9640,-43.3466,-23.4652,34.1821,70.7480,-157.0947,13.2966,-24.6155,-34.6388,27.5171,55.1424,62.7899,-93.0011,-101.2482
-78.2520,58.9942,-71.6111,29.1396,-133.7992,-0.1881,-86.5409,-35.7119,6.2374,101.4411,-159.1247,5.0591,-85.0312,2.7325,16.8485,39.9978,-35.6052,-17.8514,-99.1221
-176.0226,-22.6009,-132.9697,53.9314,-97.0024,65.7851,-126.4793,-32.3686,-65.8222,85.1614,-158.6149,17.4804,-155.9225,22.6606,-38.6115,10.1910,-67.9214,85.7575,-109.9979
-131.4922,35.2012,-96.8239,153.5107,-26.9146,108.9832,-138.0911,-27.8831,-111.8694,65.0457,-159.8187,57.9282,-157.9568,21.2452,-87.7955,3.6803,41.5753,172.4587,-88.2380
5.1632,63.0886,27.0974,229.9724,36.9970,114.0615,-119.9670,-59.4597,-92.8733,-4.0113,-162.1807,110.0160,-106.7863,6.5651,-74.5691,-4.4156,198.9943,177.5835,-34.1914
56.2888,-13.1429,112.6131,237.8466,59.7229,77.6670,-109.3882,-133.8799,-59.0085,-97.1497,-162.1496,124.3285,-80.9892,-27.0220,-56.8330,-58.5364,245.9822,132.3546,-29.8278
-11.2201,-111.1957,61.6412,207.4999,25.8591,53.8944,-129.2225,-183.3859,-48.9035,-141.0634,-162.7537,78.7004,-90.7287,-56.3258,-72.9537,-139.8624,165.6330,135.9561,-75.2554
-93.6945,-167.9294,-42.0033,184.9778,-31.5652,86.3990,-167.3269,-172.0604,-59.3142,-171.8520,-165.3556,45.1952,-96.3769,-49.1783,-81.3251,-182.7083,91.0201,178.9972,-100.0497
-132.9363,-172.8732,-51.3532,186.4996,-59.0035,118.8667,-191.8956,-144.5867,-69.7316,-187.7397,-165.8858,63.3340,-100.1781,-22.7121,-71.1741,-158.0436,111.7856,183.2544,-83.8320
-127.7203,-149.6712,18.3837,172.0130,-42.4856,103.9969,-173.9372,-117.4983,-60.4419,-90.7022,-165.9563,66.8586,-126.4906,-8.2060,-68.8528,-105.0224,163.8281,159.6749,-50.6884
-100.6943,-163.6079,41.3641,105.9976,-13.9245,79.5402,-142.7645,-88.8989,-71.1094,32.5388,-168.6614,44.9318,-156.5328,-2.0157,-88.8586,-74.7019,144.4593,142.9846,-50.0450
-102.3443,-233.0656,-11.5423,21.6896,-4.5985,56.2541,-148.4294,-108.6838,-132.4542,1.7113,-169.7232,52.4140,-145.2913,2.1646,-118.1272,-66.9853,46.3272,99.5157,-112.4168
-146.9032,-295.0771,-85.7614,-50.2125,-9.1158,3.9001,-150.5394,-170.9936,-154.4390,-72.9838,-169.5052,61.2129,-89.9610,-1.0563,-98.7912,-51.3334,-74.0199,20.7070,-178.6259
-200.0795,-306.0215,-162.4661,-120.3578,-12.9972,-59.9715,-112.3821,-200.4143,-103.8291,-25.6072,-172.0528,43.6837,-45.7126,-6.6075,-30.7433,-31.5521,-177.9008,-48.0730,-216.2139
-254.1281,-284.2165,-225.4537,-174.0462,-39.3776,-118.1729,-127.0785,-220.9142,-120.6944,-12.7278,-173.6317,54.2491,-55.8590,-17.9361,-29.6681,-35.4813,-256.3057,-92.3922,-293.0779
-312.4783,-286.0460,-242.8057,-204.9649,-106.0937,-186.3251,-230.2626,-286.8646,-226.5318,-138.2996,-173.4051,73.7031,-96.3456,-43.0823,-104.2400,-50.8444,-318.9402,-118.3267,-372.6320
-351.8277,-359.0317,-246.9195,-255.0770,-164.9749,-227.1685,-289.9333,-320.4841,-250.9412,-184.0415,-175.5121,34.8283,-126.2501,-55.2095,-106.6941,-44.5575,-372.4591,-126.4093,-323.7090
-372.5870,-445.7564,-277.3629,-298.5626,-172.7244,-192.9489,-257.0957,-271.2923,-171.8818,-90.5551,-177.6351,-2.8998,-148.5040,-33.9600,-40.0711,-34.8116,-388.3733,-134.2365,-199.5128
-389.4349,-447.8586,-281.5534,-247.8887,-158.1756,-121.6511,-220.8439,-217.6717,-111.7641,-62.1758,-177.5855,18.0482,-174.0462,-10.4432,-45.1825,-55.9141,-335.8169,-122.4520,-126.2196
-373.0667,-417.2614,-218.1218,-130.0397,-139.3909,-55.7471,-174.3255,-172.4151,-60.0618,-78.4318,-179.0914,21.3908,-178.5003,-5.3777,-90.8082,-75.8818,-234.8606,-43.4698,-47.0560
-296.5239,-441.8522,-131.0230,-52.9946,-90.5779,4.2619,-69.9115,-99.8552,17.1488,8.4331,-181.7396,-18.9367,-137.9566,-9.9691,-71.9329,-53.7859,-124.9175,39.7758,65.6681
-173.6124,-417.3358,-40.6408,-33.2733,-33.4384,22.2056,4.1705,-74.9756,30.1066,69.6729,-181.9581,-28.1579,-71.8008,-34.6855,-40.7295,-35.9715,-26.1217,26.1814,80.3321
-19.8930,-239.7391,58.9348,-14.2710,-12.3833,-6.7236,-17.4983,-118.1990,-32.4471,-21.2616,-182.8973,-3.9944,-26.2210,-62.3063,-55.2397,-82.6915,46.7096,-8.4329,9.2494
130.0604,-35.9176,126.6761,48.9083,5.4071,18.1546,-52.4884,-105.5258,-61.7095,-115.6471,-185.9062,3.8072,-15.7138,-32.3875,-72.0906,-157.0193,109.3270,66.3858,7.1398
231.7443,53.6492,172.3564,169.1937,71.8666,136.0497,-32.4852,-28.0196,-25.3977,-125.2815,-186.4780,-4.4214,11.3016,33.2531,-74.7640,-182.0993,214.9998,190.7489,57.6435
316.6830,40.1826,272.1898,285.9397,166.1065,247.9217,23.9280,4.9685,38.2033,-118.5567,-187.0163,-27.2075,95.9945,46.3297,-58.9332,-144.0709,346.4582,246.2229,53.9660
408.3402,-73.3158,381.3525,322.0646,227.7050,290.5936,67.8122,13.6476,88.2136,-66.4217,-190.0694,-65.6624,169.9254,20.2674,-5.0302,-82.2382,387.5180,252.7607,9.5367
393.1779,-256.3920,368.4849,302.1019,210.6892,282.2688,42.4651,55.9240,66.3765,42.9851,-191.1427,-82.5782,148.5839,33.0493,24.4405,-33.0011,283.9572,251.5605,-37.0899
215.3655,-302.0648,236.5540,250.4695,134.2241,228.4427,-22.9888,75.5468,6.1913,81.6558,-191.4318,-65.6422,89.0529,79.0302,-13.7401,0.7040,124.6493,215.3339,-60.4614
56.6044,-112.9335,89.8614,115.4505,98.6126,155.4173,-14.5416,60.7102,27.0626,47.5107,-194.2098,-44.9628,92.7994,115.7109,-26.5089,39.1474,25.2875,158.7310,0.0358
72.2397,40.3955,11.3188,-20.6888,141.5789,114.1068,52.8505,65.7365,97.6126,69.5316,-195.9405,-37.7443,129.0874,134.7061,27.2263,71.3440,31.3263,130.8808,103.9941
160.9490,-44.9550,68.6896,20.5517,161.1928,82.8592,59.1541,52.0904,94.5897,122.8579,-196.0789,-50.3322,127.4921,115.8663,65.0196,64.8825,102.5467,109.8222,129.8420
173.2902,-111.3463,197.6284,128.5018,111.1757,22.4040,26.3591,-9.3128,67.0047,113.1628,-198.4073,-61.7150,116.0733,54.3483,70.2541,48.9867,117.7484,52.4962,101.5878
108.2428,74.4317,168.0235,15.3968,75.9281,-34.9292,32.8124,-38.5579,107.5262,77.2093,-200.8330,-29.8434,120.9972,-2.2055,78.7624,63.4327,-1.2590,-16.5072,112.1993
37.9837,254.7838,-41.5763,-245.4852,80.9347,-64.6269,36.8633,-22.7256,156.5980,68.2399,-200.9099,0.6791,101.4657,-41.4217,64.7484,47.5438,-135.8892,-38.5294,141.6011
38.9249,193.7414,-125.5148,-314.9756,94.7378,-65.8594,38.6519,-23.7317,179.9693,79.6354,-202.7675,-50.2598,69.9226,-88.6490,32.6703,-43.9122,-107.6651,15.8234,179.3132
147.6609,145.8267,40.6051,-161.0775,159.5416,-1.7850,113.6263,-4.6928,232.5706,107.8586,-205.7178,-124.2718,86.2243,-110.2688,31.3805,-115.1754,45.0392,115.2157,267.1680
285.1168,312.2905,213.4877,-37.6191,264.0247,102.9459,194.7995,76.3529,275.2076,112.7661,-205.9121,-124.3273,125.4238,-68.7095,44.1116,-102.1483,142.6635,185.8746,344.2408
350.2524,444.6813,245.5714,-24.4690,289.1336,143.6836,183.6969,138.7872,252.3647,58.0626,-207.3362,-85.9412,123.1841,-10.3487,52.8515,-83.1735,157.1357,196.7812,333.3270
362.2538,409.9297,240.1093,-7.2151,233.6938,121.2746,158.4827,133.2088,236.7520,23.3491,-210.5171,-59.2135,89.9823,12.2522,82.0306,-89.8025,182.6735,178.8100,277.2780
373.0814,441.1812,241.4960,40.2756,199.8009,111.6376,168.7148,109.8935,259.3057,66.5103,-211.0996,-26.1654,63.2223,1.8161,91.6432,-62.4529,210.7989,139.2208,206.7670
370.4763,582.0654,204.1499,52.7455,165.5495,79.6964,124.6762,83.0896,248.3064,98.9485,-212.1028,-7.6083,46.2398,-24.1151,46.2938,-24.6225,182.6617,60.1752,109.2066
357.0839,618.9910,157.5008,24.9025,74.6562,-13.4946,46.0872,34.4979,224.1317,66.7544,-215.2337,-22.2298,38.9856,-38.6013,23.8037,-30.8351,144.3726,-31.0183,42.7665
363.5495,569.6483,133.3485,4.2120,-5.3300,-82.1311,35.8579,-11.4413,244.9725,35.8395,-216.4396,-13.9484,38.1463,-20.5546,54.8903,-27.6436,149.3344,-94.8830,28.8343
382.8401,584.0980,111.6073,16.9656,-18.6489,-87.3967,42.1303,-43.9716,229.0474,28.9691,-217.0287,23.4831,35.1671,0.9904,56.3703,14.5428,155.1903,-125.4335,-7.1496
400.1973,591.7529,109.6585,44.0520,7.9051,-86.8078,0.2079,-74.9292,119.0499,0.7640,-219.9561,28.8688,49.5932,0.6952,21.7358,21.0319,134.5299,-116.5583,-42.2304
393.5344,501.2446,131.1296,27.6150,56.3927,-67.1207,-1.6596,-74.2423,35.7946,-46.4834,-221.8443,4.3350,83.2717,5.7013,17.6065,-11.0922,107.9775,-84.8916,7.5144
303.1755,377.6537,102.3797,-62.8103,85.5542,0.4284,57.8926,-21.4960,54.6901,-62.4236,-222.1208,-23.1547,85.9202,25.5011,23.5656,6.7808,42.7336,-92.5485,74.0260
142.5060,246.0276,-0.7620,-172.2241,46.2530,39.5295,64.3866,42.3001,77.4162,-14.7809,-224.7820,-67.3902,56.5858,34.4662,8.5843,77.4806,-91.9520,-140.7771,69.2195
26.0614,99.7279,-101.1382,-238.6184,4.7183,9.1967,17.6805,84.0961,47.0917,69.0735,-227.1894,-105.2970,56.1706,30.4860,24.9532,127.8392,-219.4689,-152.9962,56.0356
-13.0807,21.1355,-136.8732,-271.9846,30.4423,-24.7412,20.3569,99.6524,30.5812,110.4420,-227.4113,-96.4869,66.5317,13.7015,72.7865,131.7339,-258.8986,-119.7288,68.8564
-42.0088,38.4071,-110.8007,-277.2558,52.5926,-32.5719,48.9715,74.3247,44.0857,77.8486,-229.7640,-68.8566,17.2328,-29.6971,65.4903,98.7326,-228.4164,-90.1077,42.6113
-71.7286,80.6063,-64.5972,-211.0476,28.7239,-30.3774,21.4976,22.1326,32.9125,27.3812,-232.3931,-54.4441,-51.4213,-69.3257,-1.6901,43.3434,-167.1575,-43.6294,-1.4245
-89.8160,114.1316,-49.0090,-86.7748,28.2774,-1.8995,-20.9525,-1.7239,6.8707,-3.2029,-232.8937,-40.5678,-45.7836,-60.9516,-34.8178,0.1547,-85.8578,45.2845,5.5237
-133.6131,114.8199,-57.0534,10.0036,49.5676,42.6092,-8.5232,9.0220,7.0866,-31.0260,-234.9192,-28.3251,14.0605,-30.4903,-3.4705,-9.0755,-8.7968,117.5163,19.5530
-191.8876,60.0932,-36.6273,46.9918,35.6407,54.4370,23.8905,3.9918,11.8433,-55.8814,-237.4622,-23.2701,46.7559,-26.5604,25.6242,7.2581,41.4564,142.1845,-7.1810
-205.3774,19.0898,7.3358,63.8705,38.1104,33.9647,30.5403,-23.2618,8.9469,-63.9876,-238.4316,-5.2246,50.5307,-36.3065,12.0858,34.9513,72.9633,160.9498,-17.0886
-175.1204,25.8608,43.5404,84.6303,116.9598,10.5202,42.6403,-30.1973,36.9992,-58.6293,-240.3216,33.7792,76.6925,-18.8348,-7.6656,45.6669,99.0456,171.5381,25.6576
-122.1832,8.9531,94.9416,106.1096,200.8384,-5.5257,79.7473,-10.9394,79.3411,-38.5980,-242.4955,85.0840,121.6041,26.8188,0.1597,22.7871,128.7642,144.6393,74.8735
-57.5361,-10.2842,162.1147,124.1637,202.5028,6.6949,95.9196,4.2682,76.1244,-12.3072,-243.7262,134.5118,122.7141,68.8585,19.1124,8.1115,164.7080,115.3900,99.9381
-34.6111,11.6920,196.3655,131.3145,144.5569,54.3553,72.1588,14.8345,54.1419,-1.0817,-246.2089,152.4327,64.4379,100.8971,29.8050,34.2523,191.4191,115.8827,116.2382
-57.6438,-63.5544,206.5620,131.2033,108.9584,101.5867,58.6172,43.3375,77.2085,4.9905,-247.7408,135.3032,25.6985,146.5832,38.0771,68.8634,198.7918,113.3232,139.5648
-52.5749,-259.2261,208.2013,125.4924,122.6497,128.6739,83.3183,82.0225,115.7854,17.5673,-248.0897,116.9766,59.4778,187.4252,49.1059,93.8223,173.8554,75.1201,154.4008
-56.7058,-298.9360,128.4426,83.5317,119.7153,131.4510,110.0949,98.4971,110.4227,18.6948,-252.9725,112.8867,105.2315,174.6007,63.3043,120.7991,73.8653,-6.6803,116.2637
-169.5735,-116.6158,-37.1885,9.1308,57.3759,85.3036,109.6826,85.1364,77.8130,24.5935,-254.0987,129.7077,104.4161,135.0051,81.9740,126.4625,-81.0306,-117.0261,27.9483
-304.1397,-31.6532,-146.9835,-17.0846,7.0256,20.0287,92.3515,73.2223,61.0409,76.0732,-249.2367,168.4999,79.0346,128.5845,90.2812,105.3364,-164.6272,-183.4115,-23.8661
-321.4124,-159.4170,-148.4767,33.5405,13.6405,19.2895,69.8251,96.4349,62.5443,153.5542,-261.4308,179.6078,41.4533,129.5944,72.4167,102.1036,-134.5639,-154.5434,-0.6837
-276.7906,-259.4359,-145.4047,67.1278,3.6818,66.1245,47.2073,141.0705,58.4096,202.7245,-269.0807,149.7377,-10.7238,107.9296,43.9923,105.4552,-107.5795,-104.3234,15.9958
-250.4447,-237.5929,-167.6881,13.5401,-49.6740,48.4473,30.4249,145.3913,27.1546,192.3775,-221.5639,153.9008,-29.9789,105.8141,28.3869,67.5293,-137.1767,-121.5702,-31.0629
-202.1191,-220.0988,-154.4358,-68.2066,-81.6824,-59.0374,4.7294,75.4503,-28.3965,117.9158,-176.1081,186.3479,-13.3615,111.2232,18.5719,27.8331,-143.9020,-179.0795,-103.5567
-149.6496,-229.1989,-134.2862,-81.4525,-97.9498,-166.2159,-52.1472,-24.8020,-89.7676,25.8909,-216.4543,163.5050,-44.4027,66.1236,-11.3833,36.3183,-108.7262,-214.3183,-173.1051
-171.9370,-222.8415,-162.0192,-10.1968,-144.0543,-197.7110,-122.5035,-99.3408,-152.6473,-30.7622,-248.6660,130.5729,-119.9869,21.1420,-62.8663,40.6415,-89.5690,-213.1236,-242.8748
-225.2111,-240.2150,-173.1658,75.5146,-175.9512,-162.6655,-163.1150,-146.5963,-200.6540,-81.2828,-160.5541,162.2961,-127.7147,36.8171,-90.6065,-7.3497,-76.5834,-175.3221,-294.8620
-215.5397,-265.4868,-99.6973,116.0581,-149.7974,-122.4199,-161.4291,-180.0304,-198.4566,-144.0889,-81.8959,188.3564,-49.1298,44.0660,-60.6315,-69.8868,-29.6225,-114.6100,-323.7928
-151.4049,-220.6273,-6.6783,132.8806,-104.5286,-112.4786,-134.8167,-194.0817,-163.1731,-150.0147,-156.4905,168.0403,12.4314,-3.8592,-21.0552,-107.2229,24.5476,-69.3235,-334.5906
-92.6568,-154.3855,9.7250,149.4380,-72.0026,-112.2417,-94.1888,-193.7027,-134.5076,-95.5198,-243.4409,153.1074,-9.0427,-54.1293,-32.0094,-109.5049,41.8352,-56.3158,-287.3628
-80.5562,-171.6102,-47.1356,114.6823,-53.3444,-107.8063,-47.1387,-182.6071,-84.0924,-57.4806,-165.9826,108.7706,-86.2813,-86.1782,-62.0566,-70.9424,12.9429,-66.8629,-173.4448
-121.7388,-252.8524,-107.2101,3.2297,-58.6913,-109.3313,-15.7722,-139.6623,-6.3265,-24.0416,-23.7387,15.7675,-143.2588,-90.5764,-57.2350,-15.5570,-51.6427,-85.8617,-78.1961
-166.7360,-344.4062,-129.1476,-113.7535,-74.4563,-99.3283,-15.6021,-75.0171,15.1216,30.2164,-9.9798,-18.3706,-124.5946,-31.1445,-29.3805,18.4549,-120.9684,-80.4681,-51.7819
-175.4982,-447.8029,-127.2907,-169.4417,-74.1331,-71.9617,-31.7120,-48.3611,-26.3155,34.6647,-117.8061,2.3798,-67.1314,24.6696,2.4758,25.5083,-157.0093,-47.5076,-48.4706
-172.8092,-512.3975,-121.6200,-156.6235,-65.8346,-69.1768,-39.7035,-79.6412,-38.3779,-12.4708,-175.9343,-25.1516,-43.1001,-11.1900,35.0433,12.4714,-146.6762,-41.8224,-46.2071
-170.4267,-472.5068,-105.1231,-94.7759,-58.4370,-84.5035,-34.7015,-120.7143,-31.0400,-38.5010,-92.5759,-33.3393,-50.5484,-51.2958,34.0914,-12.0864,-104.2313,-74.1681,-63.7408
-154.9722,-400.0974,-87.5783,-40.0611,-54.1557,-62.6702,-32.4836,-132.1503,-74.3381,-76.0172,10.8000,42.5189,-64.9854,-15.3027,-10.1130,-29.3840,-71.1748,-88.3205,-82.3997
-152.2905,-391.6699,-103.2052,-36.7868,-76.8962,-23.7052,-58.4716,-110.7087,-122.2682,-124.9297,-20.5000,57.4142,-100.5429,-2.3088,-49.0344,-41.1614,-80.9171,-73.8585,-85.2731
-162.5451,-396.7351,-127.6291,-37.2253,-111.7186,-14.9144,-113.2113,-63.6307,-117.3502,-52.0981,-111.3132,-33.7828,-132.6526,-45.5141,-63.7556,-44.0271,-84.7635,-56.4313,-82.4348
-123.1762,-343.0264,-80.9358,-0.6823,-95.7361,-8.0079,-136.6404,-20.8638,-97.1317,88.9427,-92.0842,-61.7426,-106.5690,-34.3943,-65.8864,-1.0496,-4.6551,-30.8127,-45.9622
-25.2212,-267.9626,43.7028,21.4006,-29.7913,6.4859,-77.3798,-28.9722,-78.7785,48.9476,-14.7086,28.2797,-42.3619,23.3501,-44.1178,56.9247,130.9013,-17.7203,34.6514
69.9492,-220.1873,154.1739,14.9703,22.7322,-18.1143,-1.5555,-89.3295,-63.5354,-147.4553,-15.4440,134.0688,-0.0055,28.1161,-25.6778,40.5770,223.0546,-42.0311,75.3582
118.8050,-202.6967,180.5413,31.5655,42.2702,-58.3120,-8.3590,-144.0121,-99.2548,-215.9210,-29.3694,188.2064,4.7505,7.6535,-61.7288,-10.1067,233.7316,-37.8534,34.1684
98.4114,-216.8567,139.1525,49.4147,53.1130,-56.7684,-52.2483,-142.3710,-140.3308,-105.3671,31.5401,152.5706,-13.8946,21.3028,-102.2873,12.3462,189.1023,30.5800,5.6865
28.4366,-241.6418,87.5478,24.1298,73.1548,-45.5970,-19.0803,-95.2063,-65.7240,-20.2581,75.8851,58.9880,-25.1791,33.1539,-70.5858,54.3364,139.6071,66.7418,52.4487
-0.5134,-244.2956,69.3531,8.6674,106.0765,-60.7944,63.1741,-57.5894,65.4913,-45.1944,47.4938,49.3586,-5.4281,28.4707,-14.0426,22.2972,143.1030,33.6214,100.9609
42.8200,-234.0487,84.8214,44.0345,130.5883,-65.4740,83.3349,-65.9048,87.3050,-90.5426,35.7490,137.7285,13.0178,35.0348,-1.0239,-19.3793,194.9175,24.1025,82.5865
80.8655,-213.1365,108.0887,83.2772,127.3394,-47.9287,48.3405,-98.7207,19.1257,-100.7348,71.6345,162.1679,12.7911,28.0772,2.8404,-18.5962,225.3999,57.1346,29.9268
89.7722,-165.0961,134.7878,106.3442,117.2857,-30.2501,38.0452,-111.7480,-14.6698,-105.6481,99.1640,91.5218,45.0438,-13.3278,31.1725,-42.6409,215.3134,71.9388,4.0485
108.6570,-135.1383,162.9456,129.9753,109.0572,1.3905,45.8599,-94.1951,-4.2735,-120.5582,117.8312,43.6993,94.4456,-49.4717,44.5746,-89.3906,198.4245,81.8486,22.6636
106.7643,-165.1636,148.8679,124.4120,79.2475,41.3051,26.8721,-57.3790,14.6726,-104.4866,144.5921,38.4325,64.9384,-56.0183,16.9115,-87.9843,162.1958,104.3164,60.3219
55.1854,-209.0683,69.0245,60.8652,43.2004,47.0120,13.0939,5.0706,46.8467,-33.3601,154.1682,21.7096,-25.1133,-45.1774,-15.5777,-55.0692,78.1141,90.7898,86.0035
10.0181,-246.6679,-19.2828,-31.5904,31.8302,31.6372,50.1692,89.3107,73.9698,48.0257,149.1757,-8.1002,-56.4828,-24.7376,-7.2421,-20.3830,-23.8142,51.7035,98.9371
-6.9039,-297.6952,-59.9594,-99.1732,32.7055,34.8469,99.2212,142.5844,71.6942,85.6602,151.9460,-32.0430,-2.3309,-3.9951,24.5755,26.7666,-95.5741,50.1361,107.4927
-30.3250,-290.6018,-64.7740,-92.3485,44.9693,42.5669,98.1419,122.4948,50.5493,63.5279,155.9564,-27.4100,76.1810,13.5837,12.9430,33.4829,-118.0239,70.8824,95.8384
-48.9305,-179.9731,-51.8361,-18.4360,76.4981,46.7626,53.9607,64.5313,6.4519,-9.7831,168.7264,7.9931,121.7061,39.6416,-38.8086,-26.2950,-94.8416,69.4994,56.8237
-44.8773,-89.0596,-23.6874,37.0338,74.0604,69.6161,5.7447,22.7619,-62.6699,-85.5793,202.5527,10.1687,88.3338,58.0777,-49.5232,-51.1904,-48.5977,58.6448,17.0503
-38.2399,-93.2396,-14.9395,38.5651,12.7701,84.3086,-38.0956,-2.7689,-110.0667,-99.5182,225.2405,-35.7015,0.7869,37.4779,-21.2104,-14.4228,1.9376,56.9252,-2.6491
-20.7898,-89.9341,-49.4557,54.8426,-28.5203,58.7485,-71.7324,-15.2796,-110.5797,-54.7818,219.8940,-39.6253,-38.3136,-0.0778,-33.9372,-20.7856,52.4316,67.0137,-5.6576
12.1047,-21.6463,-77.6917,110.8746,-6.0970,45.7454,-73.1415,13.3672,-99.8534,-0.3688,221.4719,13.3108,-2.3022,-1.6772,-72.5458,-68.5839,85.1914,91.0281,1.3019
19.2911,46.7776,-47.2682,150.4922,27.5927,89.8413,-52.1872,68.6382,-100.5887,32.5841,242.5727,41.9581,35.7288,39.2478,-68.1897,-69.2121,91.1443,100.7638,12.3401
15.8493,73.2961,17.2127,151.5956,37.4056,129.0865,-45.9297,90.7609,-102.7974,17.3512,267.8533,42.8168,40.4602,76.4114,-48.6891,-48.0044,84.0509,75.6033,22.9969
56.5076,50.5511,58.0900,116.1334,19.9379,101.0220,-59.9936,73.2088,-105.3094,-25.5402,303.5736,48.3574,21.5726,63.9033,-70.6461,-50.3256,35.8920,51.8299,30.9562
93.5179,-13.3951,51.1147,28.6472,-32.2364,44.8245,-80.2830,57.2805,-114.7926,-13.0100,336.9869,19.5759,-14.6807,12.1622,-116.3327,-29.2277,-78.8090,45.6287,26.0626
57.0636,-64.3649,12.7833,-75.0888,-85.0969,13.7957,-106.7823,49.1786,-135.4882,34.5234,331.3629,-51.3665,-42.1956,-19.8401,-141.6575,18.3290,-170.3107,21.1783,8.8235
4.4967,-92.0551,-19.9687,-129.8892,-99.8601,-15.0083,-126.3412,33.7397,-166.2984,-3.1014,303.7019,-103.4526,-57.5660,-9.6478,-123.1620,33.8231,-151.7715,-22.9853,1.2851
11.3249,-134.6935,-24.1075,-130.0334,-101.1484,-64.4173,-118.3081,15.8356,-190.5160,-97.2335,294.8683,-118.9418,-91.7924,4.4784,-78.3944,15.9551,-81.8454,-50.6060,0.8376
52.5859,-128.9570,-2.7603,-84.6715,-98.3928,-79.6825,-97.8646,-1.1013,-197.9666,-122.0771,295.6004,-118.0205,-104.0430,0.7415,-65.1750,-24.6194,-16.3705,-42.7206,-17.2751
92.9885,-13.5946,45.1081,6.8723,-51.2287,-18.1581,-79.2346,-12.2283,-196.1562,-103.0266,295.8449,-102.8597,-35.4118,-5.4135,-80.6963,-92.1264,79.0789,9.8633,-32.3163
133.0455,80.6357,113.1000,83.6144,30.5150,66.6090,-37.4821,3.4860,-174.7309,-103.6221,318.4828,-89.3208,49.7094,-7.5523,-50.7154,-119.9210,169.0928,85.9826,-4.1496
145.0780,45.3582,147.6898,85.2412,91.4158,117.0156,31.3239,43.5693,-119.4773,-69.8451,349.5207,-93.6112,79.3136,-3.3320,17.7293,-62.1215,171.5571,125.0690,50.1634
102.2185,2.6188,107.5130,55.1831,110.7205,143.3861,86.0960,80.6608,-55.5493,-4.9169,343.9825,-93.9047,90.1483,14.5090,57.1096,-6.3851,125.0781,117.8225,90.1789
41.0999,56.1215,34.6867,47.3292,87.0397,143.8964,102.8294,110.9570,-9.8524,6.0089,313.1135,-77.9209,93.1831,34.3555,86.3926,-12.7025,92.0416,105.3087,104.6321
11.0680,117.4279,-15.4656,40.9412,35.5701,93.5997,93.0862,137.4815,24.1880,-2.1123,300.8404,-64.3643,60.7727,47.6779,128.7176,-14.1239,44.7501,76.7717,89.4877
10.0109,114.8287,-46.2025,18.2897,6.7896,30.1807,77.6894,142.8417,44.2409,43.3835,306.4526,-58.9204,51.7009,61.5109,125.4582,15.3219,-11.6617,12.8408,52.9584
8.4372,93.7873,-68.3017,-10.8609,6.9947,3.8560,68.6018,126.3520,28.5826,83.0484,311.1660,-50.5235,95.5066,57.5969,77.1988,17.2755,-34.5790,-42.8195,25.3911
-1.4600,88.2715,-75.5165,-46.1980,-16.1717,-3.0276,46.4033,105.7064,-22.0536,59.2679,317.4241,-29.0054,98.1519,25.0437,53.1342,-6.9063,-51.6264,-65.3226,8.1938
2.9395,97.2669,-75.1760,-53.0060,-52.6401,3.3341,-2.1852,82.4842,-71.5620,17.3999,318.0762,6.8244,46.3901,12.8862,48.1421,-7.5585,-56.4854,-66.3205,-13.5829
44.5233,127.6964,-57.8193,17.6401,-38.7781,46.9807,-24.3309,62.6147,-69.8066,-9.5419,298.9582,32.3449,46.2054,43.9548,39.4823,5.6674,22.4831,-28.9887,-16.2186
106.1070,152.5579,-7.5087,108.3414,7.9860,72.8447,10.4109,55.9787,-13.1600,-32.0283,278.8712,21.2876,87.5129,57.1825,57.3009,-3.2890,116.6555,18.0623,-1.2457
129.3262,118.9461,14.4547,99.6433,8.0686,9.1586,29.7486,33.8856,24.0965,-51.8741,281.1071,-13.3112,67.8205,26.8696,78.3763,-25.3892,76.5699,-12.6104,-27.5268
75.8376,31.3412,-59.8642,-12.9476,-54.1621,-88.3899,2.9202,-23.5039,6.4408,-65.3607,285.7929,-42.5661,8.1071,11.6631,58.7434,-24.3877,-52.7638,-91.9554,-83.8683
-20.8253,-55.2727,-166.4686,-126.8988,-121.7224,-132.6128,6.3179,-64.5817,8.0844,-51.9815,265.9731,-54.7990,-11.6440,29.3001,51.1342,15.3170,-128.8927,-102.2126,-82.0643
-96.9147,-113.9415,-209.4801,-189.7949,-145.0073,-135.0435,43.9630,-43.2170,48.2156,3.8528,232.3654,-53.2246,-9.3762,25.9925,82.1549,67.0689,-158.0297,-54.5380,-23.5735
-131.2350,-151.7110,-205.3757,-223.3882,-114.8664,-122.2196,37.1758,5.8048,34.5263,53.4384,205.7413,-56.8586,-17.9910,-16.5977,65.6596,90.0991,-190.1993,-31.8806,10.0651
-134.3642,-165.4747,-188.2923,-233.3955,-43.1034,-86.5903,9.1830,30.2235,-22.8266,50.8971,191.6665,-78.5651,0.8507,-65.2118,-18.9230,78.8934,-186.9806,-14.9848,10.2396
-110.3740,-152.6730,-143.2520,-206.4761,38.0301,-58.5069,25.2679,21.5441,-9.3926,24.8354,189.1551,-96.4860,57.1247,-96.3670,-71.0468,53.6987,-143.3291,21.4203,12.9222
-78.8703,-135.2433,-105.2012,-164.9956,66.4266,-62.8122,41.4332,-8.5215,42.3033,-2.7395,186.1254,-86.3059,80.5848,-94.1083,-41.2038,29.2295,-110.5568,22.4167,7.2941
-69.1922,-121.5906,-117.1071,-137.5267,18.8328,-49.0411,20.4572,-39.8295,19.7432,-35.8771,165.4372,-49.7927,27.3339,-45.2310,13.5495,25.1548,-78.6549,-9.7396,2.2308
-67.7328,-95.9680,-119.3861,-111.9189,-29.2453,13.0586,19.6907,-34.9404,-7.5611,-26.0854,135.7330,-4.9879,-54.4522,21.2660,27.9008,50.4030,-26.9613,-9.2194,49.7902
-47.9754,-74.2223,-70.3729,-81.1082,-18.6801,71.1175,52.2245,22.9389,83.4484,69.0632,118.8926,13.0456,-98.9857,54.4448,-0.2212,76.5100,-6.8318,0.5293,127.4194
-20.4480,-79.7762,-36.3726,-64.7757,-7.5785,87.4329,61.7667,87.9888,211.2906,183.5823,111.2648,-0.7546,-94.6627,47.4696,-20.0649,87.7680,-42.5561,-41.0921,144.0106
9.4791,-76.5210,-36.1911,-44.3239,-44.2509,82.5822,33.3979,98.3718,229.8763,204.4741,104.8582,14.8305,-67.1426,25.4640,-17.5784,101.1832,-78.0338,-87.5301,89.5626
43.2244,-33.7847,-9.9638,12.6860,-84.1666,70.1682,-14.5341,66.8273,159.0850,106.5746,106.4655,71.0125,-56.3659,-3.8558,-42.1195,102.0635,-84.4814,-71.7710,43.3362
46.9198,14.4117,29.1952,60.3547,-106.2539,42.1983,-58.8167,57.7256,96.3893,-3.1698,101.0426,85.9444,-96.7006,-34.8611,-87.3242,65.7854,-91.3141,-35.0453,40.1690
24.7737,46.4200,34.5256,45.2561,-126.7395,4.9465,-56.6602,68.6656,63.9848,-19.7477,73.8126,51.0611,-152.3365,-46.2545,-86.3799,29.2124,-97.0222,-34.7519,43.4297
43.3967,63.2968,38.6027,18.7736,-112.3507,-22.7809,-16.9596,39.6382,40.6671,-7.6439,60.0952,37.6148,-134.3614,-33.5362,-61.1076,26.3279,-62.0542,-42.8096,27.4519
92.4270,44.1465,63.7395,39.6087,-50.7894,-31.9461,-8.8300,-24.1248,16.5919,-68.3900,77.9929,34.2500,-43.9257,-13.8240,-74.9364,25.7013,9.6943,-33.1464,-5.5411
99.9002,21.2599,76.3962,69.0497,1.3094,-31.0546,-35.3893,-69.1053,-18.6694,-118.0820,77.9244,13.6579,18.0699,-0.6277,-83.3478,10.5268,65.2107,-42.8062,-60.9413
88.3463,56.9696,86.7338,68.3601,31.2777,-38.5694,-50.0845,-98.0080,-62.4417,-70.8063,41.1091,28.0768,19.1102,-8.3199,-32.4972,3.6544,79.1600,-74.9072,-135.1029
92.8206,89.7055,108.3093,59.9244,65.6124,-63.9206,-69.1042,-134.8732,-86.8964,-40.5695,12.4003,65.3972,20.6737,-36.9929,23.9581,-0.8495,76.1431,-76.9835,-195.5972
49.0259,45.4922,83.8391,48.4602,76.4904,-94.6787,-111.7113,-160.2485,-91.3194,-80.9579,-1.1757,55.1206,40.8800,-45.6587,37.0174,-7.1789,77.2474,-55.4340,-218.4864
-45.2143,8.6750,4.6848,19.6948,43.2209,-107.4954,-143.1517,-162.6160,-115.4071,-73.8612,-24.4946,37.2448,40.1095,-18.8885,19.4387,16.0086,76.6129,-66.0033,-207.7085
-91.4569,18.2407,-51.9635,-8.2633,-6.8795,-101.9968,-160.0718,-164.9720,-152.9686,-40.3569,-34.8724,55.9678,14.4091,-13.4527,-25.3784,45.5404,65.7073,-95.1548,-172.4948
-88.7143,-28.1060,-68.9327,-24.5658,-67.1788,-111.8164,-177.0222,-179.1293,-139.4896,-107.6993,-13.5183,47.2790,2.0826,-48.3347,-75.0822,9.9047,46.1133,-90.4883,-128.8728
-91.1045,-87.1030,-72.2354,-34.7442,-109.1790,-140.9992,-157.6951,-192.1677,-80.5869,-189.5297,3.9727,12.0671,18.4018,-65.1180,-72.1167,-73.4682,40.3085,-48.3560,-94.9192
-53.2862,-7.5978,-17.1005,-7.4122,-59.2592,-126.0262,-95.7394,-167.5772,-60.7617,-150.4287,-1.3201,18.7608,26.1583,-63.9766,-24.7400,-121.2995,88.2837,25.6986,-54.9244
38.1661,128.1509,110.9095,74.0633,56.1273,-43.5759,-43.0271,-78.4130,-74.5910,-85.8788,-9.5117,27.8524,-5.4455,-98.8558,4.8851,-125.4717,180.6281,122.5382,11.4958
95.7084,152.9897,209.6324,143.8900,126.0795,21.7774,-0.9659,15.6262,-31.4224,-96.0400,-9.8556,-1.2097,-23.2693,-128.8035,11.9667,-128.6611,234.3355,172.6717,69.2141
119.1569,131.9377,222.2583,148.3211,146.6366,21.2353,60.3075,34.4727,53.6481,-88.0481,4.4269,-0.2084,35.0936,-84.3961,29.0522,-124.9733,205.7874,137.0679,77.6536
175.8268,162.6434,218.9334,130.4342,176.8199,20.9697,112.6200,21.9932,88.8125,1.6181,33.4936,41.5597,108.2523,-15.7482,55.8529,-93.4702,154.3622,89.1411,59.5993
222.4928,174.5143,242.8431,141.2021,181.6523,52.3416,120.4124,53.0615,83.2732,76.6974,49.1506,64.1253,101.2957,15.9138,72.2196,-49.4933,136.5778,79.2608,49.6975
197.4193,134.7102,242.5447,161.4598,114.2161,65.8654,85.8883,87.7650,85.9583,51.3507,45.5647,77.0646,42.3452,53.2417,59.5023,-4.7021,137.2007,66.9598,50.8150
137.9664,108.9830,184.4775,158.7893,23.6954,66.8048,21.6375,91.0535,65.5698,-17.6449,53.9985,91.9831,0.9096,119.1795,17.4394,45.1860,127.5678,41.7251,72.9122
71.7952,95.0274,108.1091,134.7845,-31.7622,95.3698,-25.2147,114.1313,14.6601,-6.2703,68.3886,85.9119,-21.1332,160.1511,-19.6193,81.7336,93.2697,22.1456,114.7974
-1.9404,61.0142,61.0883,96.5678,-55.5339,113.3485,-6.1826,151.7426,-6.4279,97.0822,62.5381,96.9428,-31.8790,161.0137,-31.8747,84.6365,30.2436,-20.4540,125.8913
-31.3468,37.5026,46.8736,52.7102,-63.4154,85.3893,33.2084,146.4742,0.6900,166.7525,60.3201,133.0691,-34.9406,152.4823,-42.4377,78.6892,-22.0214,-76.5652,84.0511
1.4947,42.1305,44.1017,37.0545,-42.6077,65.0894,37.3518,124.5227,5.2721,145.3331,79.4601,115.8798,-49.8782,136.6929,-51.6077,92.8588,-17.7185,-73.5743,49.1255
25.0520,56.7694,44.0369,70.6187,27.0511,89.8329,58.0412,127.1474,58.8264,108.3726,89.0841,62.9729,-41.4065,113.3562,-21.5240,93.4378,15.6010,-16.6164,68.0544
14.3444,77.0824,48.2134,111.7141,117.5636,125.9886,137.0965,127.6894,171.5771,84.7378,85.9262,61.8282,37.1395,103.3405,56.7982,39.2955,34.5297,22.1046,105.4836
23.6883,95.3034,52.1191,109.9062,157.1690,143.5782,209.2110,118.2412,225.2425,35.4760,95.4812,76.5773,119.7870,107.5265,148.2751,-16.5798,59.5901,27.5061,100.4282
62.0648,103.1846,54.1964,82.2620,130.8215,127.9896,214.4441,107.1783,166.2347,-16.1668,110.2539,57.1792,132.9885,110.3548,199.4757,8.3620,96.0298,7.1512,33.1735
74.5135,109.7808,48.9277,63.5445,95.7986,64.6321,156.9989,60.1352,87.5639,-21.0253,125.9543,57.4050,115.1123,98.7041,165.7476,77.6394,85.0987,-46.8918,-56.0336
29.6444,102.9749,9.9010,30.2143,67.3388,-24.4864,61.2073,-15.1199,42.1782,24.4523,156.5616,73.5512,85.2047,53.9736,69.7759,89.8958,13.5733,-92.4263,-100.6530
-40.9090,67.8390,-64.6249,-38.3681,9.0559,-98.1015,-19.2145,-55.6204,-6.8305,101.3750,177.5233,39.4306,6.8155,-11.8265,-6.1320,51.2154,-54.9322,-88.8366,-93.0567
-79.6036,27.6826,-119.8766,-86.6995,-69.5306,-140.3429,-37.9581,-59.5748,-48.6723,148.3067,168.3922,-11.9316,-70.1357,-45.1736,-21.6190,33.3817,-88.1133,-81.4336,-99.0793
-82.8916,-7.8000,-126.5421,-65.2431,-121.3510,-143.7604,-31.7436,-60.2476,-40.0273,101.2524,166.1585,-25.0940,-71.4776,-38.1039,3.9402,19.9812,-110.3850,-103.2804,-152.4742
-111.9107,-41.0839,-133.1447,-20.4450,-130.5968,-110.7957,-47.4445,-52.8089,-11.9970,6.6372,182.0474,-29.3085,-33.8520,-48.2160,50.7403,-37.1458,-140.7357,-103.6827,-210.5103
-186.3374,-31.5558,-172.0324,-19.2880,-114.7835,-67.6575,-62.1712,-43.7149,-14.0239,-53.2888,181.4982,-50.2463,-10.7600,-93.6424,89.1925,-96.9888,-179.7274,-45.5722,-231.8472
-238.7981,25.3476,-187.3065,-45.6518,-98.4759,-20.3421,-58.3245,-38.0196,-25.5926,-66.9323,173.2478,-81.5431,-2.1996,-122.5766,80.9030,-108.6739,-205.3722,43.0850,-209.4837
-202.2594,63.4868,-114.3024,-45.3550,-80.9559,33.9443,-49.2490,-2.0909,-9.6061,-24.3119,181.8248,-111.6419,-21.8229,-103.9510,38.5174,-96.6366,-168.4448,107.5024,-139.4881
-73.5442,90.0077,18.8765,-22.5040,-32.5854,48.6017,-13.2925,39.1098,27.8187,54.0031,193.7617,-88.9673,-59.9000,-66.9839,3.9451,-77.9132,-63.2670,95.5042,-41.0478
89.1835,172.2349,114.3626,-17.5443,38.1461,-4.5600,61.4196,15.3985,58.6254,55.1740,220.3130,0.9466,-51.5777,-45.1497,-11.3562,-32.9309,31.4658,16.4789,24.2820
192.3486,256.4746,115.2111,-31.1419,74.7409,-72.6553,110.2000,-41.2732,48.4627,-34.3843,287.4217,64.3272,7.7641,-39.2630,-6.5982,10.2861,40.0124,-52.7949,15.2707
188.4210,229.7465,53.1265,-46.5024,52.3342,-120.8890,71.9731,-64.5816,-16.0368,-80.1525,354.2512,48.9628,50.5215,-40.5243,6.6821,4.5123,-34.6877,-85.3086,-37.2936
125.3772,117.2497,-14.4347,-80.8884,-15.7037,-161.5323,-22.3766,-80.5858,-75.3771,-58.5901,373.9956,9.0149,45.0452,-47.3562,-11.8396,-23.7995,-124.6247,-114.8634,-68.4578
70.3704,31.6958,-50.7088,-135.6012,-101.3856,-160.0752,-87.1612,-103.5659,-59.2727,-49.3603,369.9728,-30.7904,-0.0588,-51.7985,-50.5479,-27.3596,-139.7664,-122.0402,-48.1771
47.7649,14.4610,-32.1980,-161.8254,-137.5066,-89.9765,-78.1238,-95.0787,-9.6305,-32.3395,366.2072,-69.5945,-53.9949,-46.9399,-41.3258,-22.0670,-62.4215,-76.9216,-6.5387
57.0557,23.8521,12.8473,-147.2316,-91.3710,-25.2199,-41.2914,-76.0567,-16.5362,13.5575,354.3429,-65.4757,-56.3907,-46.9997,0.5198,-34.3291,-2.4398,-30.3530,14.3858
69.3562,1.2058,6.7574,-136.1151,-33.5283,-13.5726,-35.0131,-65.2327,-58.5777,31.5766,339.1931,-39.9737,-4.6591,-59.9152,-3.3111,-44.1217,-32.5216,-7.1554,27.9492
51.4256,-53.9788,-45.3126,-123.2686,0.7772,12.2647,-26.2680,-6.1380,-50.2234,34.6679,319.4090,-69.9874,25.3912,-67.7872,-34.7859,-35.9319,-44.2191,47.4870,74.5064
32.6747,-53.6396,-47.3054,-67.7905,61.2392,81.1350,34.1628,81.5194,6.0695,50.1949,289.6793,-112.6803,10.1644,-66.7921,-31.4019,-38.6035,56.1961,115.9989,134.4282
54.2628,59.8449,2.1552,-10.4638,111.0357,110.9599,92.4012,90.4274,40.3288,22.4900,278.2439,-56.4441,-16.5426,-63.5622,-21.8389,-75.7935,163.6088,99.5668,153.4369
79.1827,200.3934,5.2880,-21.8843,61.5694,53.6870,81.2162,26.5921,19.7033,-26.2832,286.2599,74.8925,-59.6710,-40.4469,-43.5836,-112.9121,166.9772,-1.9186,137.2663
60.6002,240.0301,-48.3556,-82.5807,-33.6229,-34.7378,34.9353,-14.2647,-34.9396,-15.9295,262.9199,148.9073,-108.7269,-14.4832,-55.4107,-92.4764,109.0987,-86.0215,124.6571
19.2987,161.3574,-95.3448,-142.0564,-75.5684,-85.9354,9.4122,-18.9894,-73.8262,-0.6015,207.3277,105.1602,-100.7179,-49.6313,-31.6989,-24.8522,29.8839,-102.5437,107.2904
-16.6700,50.1430,-127.7972,-194.9356,-84.6946,-87.9510,-0.3884,-27.1721,-65.8134,-35.7754,175.2229,11.9101,-38.8848,-118.0017,-3.4034,8.3374,-88.5367,-83.9478,70.4931
-45.4570,-3.9239,-150.1550,-219.5091,-100.0170,-66.8307,-15.7249,-45.5095,-46.7923,-52.3102,170.8259,-29.4360,-2.4044,-110.8416,7.2528,-30.7697,-184.9616,-74.2228,47.1283
-55.6217,8.2671,-138.2131,-176.5576,-107.9304,-41.7310,-34.9095,-66.3107,-47.3544,-44.5949,156.1665,-3.8515,-19.9313,-44.8407,-8.0037,-90.6428,-184.4252,-88.0742,56.4888
-44.8835,12.8397,-107.7794,-97.6847,-111.4289,-12.1745,-33.8797,-72.9742,-15.7375,-68.1750,131.7024,21.8845,-51.6251,-34.1505,-40.9343,-123.3569,-137.7232,-100.2822,69.3308
-37.4325,-24.6925,-82.2599,-47.4468,-104.7438,14.3092,10.3299,-60.3311,69.1423,-83.6337,114.9497,10.5987,-55.2117,-69.7067,-40.7392,-129.1059,-105.1424,-80.6575,63.3970
-47.6995,-28.3244,-40.2288,-24.0734,-65.4347,20.6221,65.1034,-70.2701,119.8250,-79.2119,103.4047,-14.7631,-22.7025,-67.1693,11.7847,-113.1975,-59.7855,-46.7093,33.8930
-73.3548,50.4714,6.3997,7.7597,-31.5137,14.9836,73.7882,-110.5669,89.6443,-112.5705,93.7389,-26.2128,5.8689,-39.3037,51.9494,-93.8817,-4.1412,-32.4988,-18.3929
-96.9741,128.3376,18.2296,49.8374,-36.7211,25.6147,55.2571,-108.6323,46.2594,-124.1072,85.8360,-9.3861,-6.1799,-19.2648,37.7448,-101.4435,26.2440,-29.4048,-44.0569
-76.2364,131.0357,26.4519,91.2547,-33.2836,65.8146,64.2442,-35.7438,42.4847,-34.0340,83.6012,20.7168,-30.2035,25.6931,7.2412,-105.2509,68.8459,-14.2802,16.2553
-2.8210,109.4524,64.9548,127.2453,3.7047,123.6814,95.2516,51.1088,72.6593,70.6771,96.8807,18.0056,-24.8623,86.0800,-3.0518,-48.5269,147.1867,9.4462,118.1886
54.7181,116.6030,85.9707,142.3524,43.4901,165.2441,126.8714,113.4360,125.6528,98.9581,117.0549,-18.1193,8.2648,104.6751,15.5949,31.9399,183.3292,36.3557,170.1100
46.8406,116.4008,66.2682,133.0315,87.4116,168.5888,162.4455,146.7157,162.8566,77.8489,127.6801,-30.4842,56.0289,99.0152,61.8723,62.7174,140.8103,71.1945,177.8832
18.0947,93.9256,51.6666,130.8637,132.4193,165.0201,181.5948,149.1952,143.1149,43.1647,134.6937,-3.8009,89.2422,116.4611,95.2410,56.2703,91.7706,101.8976,189.8165
19.8053,96.0377,46.4051,151.0293,130.1055,179.9132,166.4485,149.3326,103.1650,31.5774,135.1666,25.7177,62.8816,127.8823,81.3254,45.5671,72.4029,104.5048,184.1245
26.8371,110.9996,13.6972,146.9963,71.4200,164.5044,136.5437,162.9774,87.2225,75.0628,106.2472,39.7432,-5.6435,94.5471,59.1160,23.0313,43.8970,73.9408,138.7081
-3.9895,72.1165,-32.5083,73.2318,-5.3720,83.5193,83.8526,144.9414,63.3694,118.2375,67.2320,28.4054,-56.4700,42.1747,55.8404,22.5474,0.2786,27.1979,91.0042
-54.5965,-8.0024,-47.7596,-32.2171,-68.7829,-7.5213,-4.9495,82.2588,17.3240,120.1135,62.1258,-18.3042,-81.2539,2.0439,36.1872,84.2801,-27.8848,-12.0320,54.9085
-79.4693,-60.4806,-24.4484,-91.7456,-80.2452,-57.4869,-62.1240,30.2971,-7.4162,127.8273,73.3772,-71.8255,-80.3356,-23.6773,12.7567,143.3753,-46.1851,-26.9145,7.1105
-87.1562,-78.1019,-2.0089,-93.9666,-35.8536,-81.1700,-33.6460,5.4849,-8.9077,132.7705,62.3069,-92.0402,-29.6889,-30.0991,33.4669,132.7685,-80.0465,-19.5123,-35.4686
-116.6082,-88.1605,-26.5795,-85.5093,-4.1753,-88.8137,18.5144,-15.6902,-11.8384,97.0172,46.9099,-72.9338,30.5462,-19.4613,55.0842,92.8726,-116.3530,-2.0121,-29.1455
-147.4316,-91.1503,-76.9285,-86.5887,-8.3588,-69.4753,41.7745,-14.1028,10.6184,78.6579,48.8199,-34.7243,36.1948,-16.8388,30.0475,56.8843,-113.0741,25.6417,35.8733
-130.7274,-94.2515,-81.5208,-88.9390,6.0774,-33.9913,80.1786,24.0879,72.0394,96.1605,50.7931,-19.3564,15.6355,-29.1821,23.5733,17.1120,-66.7111,62.1124,126.5150
-89.5173,-107.0686,-49.7406,-95.4157,36.2013,-1.8804,151.6396,54.3380,120.3790,76.7672,47.4974,-54.0867,14.8494,-32.8661,67.0804,22.2665,-34.3715,77.0680,176.7669
-84.4582,-112.6423,-61.4381,-98.8163,31.8716,14.8433,186.6380,47.4635,119.5655,32.7181,51.4509,-95.8070,17.8575,-27.5177,80.1647,78.8628,-52.7697,47.1794,144.4667
-118.1878,-116.2985,-112.3421,-74.9313,3.5103,9.8615,135.0872,25.9755,87.2131,17.6890,57.9457,-95.6497,18.8054,-43.7907,44.1249,72.9361,-80.8051,8.7099,77.0425
-146.4985,-135.3268,-131.4548,-31.1191,-21.4960,-2.0365,37.3966,11.2928,46.6886,5.0145,63.1559,-76.5453,14.5066,-80.3024,22.2104,-10.5561,-72.9036,11.1603,33.4935
-124.2452,-122.3229,-107.1408,1.4242,-41.8955,-10.0565,-28.6861,-0.0798,11.8558,-8.5135,76.4406,-63.9950,-28.4603,-97.2126,4.0905,-39.4540,-33.6829,42.0552,-11.7041
-28.9569,-36.3331,-51.8270,25.1720,-33.2777,-28.4948,-31.6349,-25.0393,-3.3594,-5.2192,93.9290,-43.7008,-69.9971,-81.3188,-42.4495,-11.5686,34.3380,66.0142,-75.0523
91.8470,54.5729,47.2456,55.3116,19.2410,-43.7208,4.9646,-65.5041,13.3595,-36.2145,107.7060,-23.7603,-30.4461,-55.9617,-60.7681,-39.8845,124.8886,88.2686,-92.1428
148.8387,71.4731,151.5552,65.0519,76.1099,-27.1187,58.3300,-78.1095,61.3717,-84.6884,117.6297,-25.1625,37.3020,-36.9232,-22.9899,-79.7446,171.4165,112.9651,-41.7704
133.0465,30.3999,192.7490,27.1626,106.6531,-8.1136,110.5739,-29.3118,102.7534,-54.5630,113.5118,-44.1778,44.5070,-29.2578,5.9803,-26.3323,130.1320,116.4628,11.7561
121.8206,-17.2142,194.8850,-19.4011,124.1182,-9.2965,125.0143,33.5259,96.0038,20.1960,101.2746,-79.4358,41.3907,-32.3891,8.4773,52.8630,78.9818,111.5944,49.3714
167.3479,-27.7725,235.4290,-13.4673,154.7090,18.9420,106.8002,57.5511,71.2126,47.5871,116.0741,-108.2371,78.5637,-27.4979,23.8990,59.7114,108.4443,140.1153,108.7227
258.9967,39.3685,308.6097,41.6341,211.3688,87.1696,120.0877,72.7180,80.2116,39.1552,158.4245,-79.9616,96.4592,-14.7411,32.6309,19.9915,184.3680,185.7754,178.8722
344.8594,156.9527,337.4744,91.0953,261.8638,137.1988,174.0677,113.8519,101.7385,5.2412,190.0921,-22.2559,83.8650,-26.5565,13.8386,-28.6115,218.1855,201.2259,221.3714
369.3302,230.5792,295.2368,106.5659,264.0233,163.0690,209.8278,148.8735,108.2167,-39.4989,210.6981,-17.3945,99.6571,-46.0723,24.6659,-62.8547,197.9521,193.4449,239.1550
359.2955,235.5468,241.9231,101.9577,244.1929,183.7920,214.3031,149.1627,126.3801,-1.9051,247.9025,-42.2645,126.2575,-15.8948,81.3946,-31.9522,179.0229,183.0435,239.8901
402.2560,250.8244,231.6119,90.7511,229.2945,160.4255,205.6445,130.3726,145.4332,83.8346,292.1241,-15.8566,116.6362,35.1142,106.0640,29.8606,188.2910,143.6914,208.1677
479.1870,318.8211,228.9349,69.0520,173.4110,88.6925,165.0365,101.3997,123.7422,63.2663,323.1855,42.2193,89.7230,26.1665,74.9569,27.3310,181.7423,62.6652,146.0287
471.0546,371.4734,169.2540,32.6690,79.9376,31.5414,99.3408,58.5779,97.4196,-10.4578,343.4952,66.7902,57.0324,-20.6331,52.7621,-0.8333,108.1099,-11.1397,78.7048
356.6188,334.1528,59.9770,-8.3052,34.6159,7.6151,57.6148,20.1410,101.0105,10.8463,339.4830,55.9771,7.6063,-24.7066,50.1631,41.1657,-3.8963,-26.3698,31.6450
224.8778,229.8074,-48.7137,-34.9449,42.1710,7.9668,40.4788,10.8869,70.6952,56.3722,296.3205,27.7190,-26.0238,7.1911,16.6778,106.4945,-76.3611,15.8678,27.7445
127.1310,126.8813,-128.7536,-44.6904,29.6800,47.3389,14.8848,29.0647,-13.6349,30.8609,247.1687,-17.1365,-27.9474,16.4829,-34.7515,109.8600,-87.0269,71.2853,62.4750
73.3036,49.1646,-149.2237,-52.5450,-11.6561,82.0002,-21.8748,46.6812,-65.5630,-1.1946,224.7308,-61.6941,-41.2034,-7.6064,-46.7075,70.0936,-68.0138,91.3535,86.3956
80.0175,4.7268,-82.4234,-52.1722,-47.4760,46.2920,-68.5709,38.4970,-64.0200,-13.6862,212.4710,-79.9208,-71.3158,-39.6495,-27.0661,26.7872,-34.0206,68.3812,66.9634
114.2172,8.2922,26.4475,-25.2457,-59.4195,-10.4442,-110.4418,15.5476,-69.0208,-28.1516,192.3448,-69.8861,-71.6263,-54.0478,-19.0787,0.1593,4.3754,36.3988,37.4940
104.5015,12.8780,92.4210,3.1539,-30.5598,-13.7089,-93.1447,6.2253,-69.5022,-12.3914,172.3165,-59.2378,-27.4521,-41.6793,-11.8179,22.7761,14.9480,18.1511,31.7179
53.5906,-35.4216,99.8631,5.4953,16.9765,5.1562,-20.7637,-0.2160,-38.1387,-9.4355,156.6177,-68.7619,43.9027,-25.3364,21.3673,74.4295,3.9062,4.3693,18.0618
30.3966,-70.4332,99.7444,24.2020,30.5582,3.0323,6.6366,-31.9126,-49.9260,-76.8885,149.3312,-66.8934,110.9173,-22.4102,47.8025,91.5807,19.2626,-21.0820,-46.4333
50.2724,-25.7181,110.6005,87.2020,10.7494,-15.6315,-64.4219,-66.7171,-154.6450,-110.0477,159.8308,-21.6290,116.2828,-10.4976,18.2527,71.6885,50.6361,-65.8162,-143.4937
55.0533,11.5042,90.6794,124.1502,-24.3261,-56.3107,-171.4676,-68.0728,-261.8558,-52.8201,169.0857,21.7271,53.4732,25.1637,-51.5273,42.6674,35.0498,-107.2385,-218.3594
3.8901,-34.2751,22.0307,87.8932,-74.3118,-90.0407,-224.3979,-53.7367,-280.9297,-25.7011,150.0501,20.3643,7.6129,59.9893,-96.5605,15.7829,-22.4749,-92.4307,-232.7441
-83.7227,-92.5862,-40.0467,39.3797,-88.2938,-52.4235,-181.2417,-47.2677,-230.3047,-54.4426,116.0887,14.8311,20.7798,68.2725,-88.8966,33.3467,-61.7241,-18.6865,-173.8257
-174.9958,-117.8438,-61.3914,19.0736,-41.7348,20.3761,-81.1169,-27.8977,-148.9299,-55.1365,84.6284,29.6964,25.5290,52.4701,-68.9287,104.0482,-85.9702,35.0291,-66.6518
-253.3374,-160.6722,-96.7039,-15.7706,-29.9647,31.5111,-19.4658,6.1607,-48.4520,-45.6603,44.8043,28.7788,-21.1494,44.5308,-72.6770,143.8204,-135.5053,17.6296,20.6970
-288.8599,-230.8645,-169.1490,-80.8475,-95.2509,-14.2133,-32.0002,16.1707,26.7015,-35.9276,4.1222,10.7059,-70.9785,69.3802,-72.5373,133.3038,-189.4378,-42.7786,39.0923
-257.0239,-291.0921,-203.5264,-139.7401,-152.1873,-68.8923,-68.9584,-1.5544,20.9583,45.2793,-8.2324,-3.9448,-80.8961,83.7859,-43.8851,155.8442,-219.5609,-125.5061,2.6747
-207.9480,-323.1635,-178.6025,-182.3025,-184.7842,-148.0494,-114.6587,-19.3037,-49.3543,154.1494,-0.2259,-34.0126,-65.2837,30.6980,-31.7077,204.0161,-261.8940,-226.4831,-61.3351
-221.2077,-307.4697,-174.0144,-214.4341,-241.6060,-245.6035,-194.0812,-47.0727,-119.0675,174.6677,-8.3169,-73.9051,-55.4557,-45.8516,-69.3027,195.7014,-323.4876,-287.8483,-139.0280
-279.9696,-252.8315,-204.5607,-211.3074,-275.1144,-291.4011,-260.6328,-97.6366,-148.3023,114.6057,-38.9700,-82.0894,-68.9570,-69.8960,-105.2881,145.7289,-327.5962,-252.9876,-189.0660
-295.8822,-207.8964,-209.3557,-154.0143,-235.6689,-244.7854,-233.2331,-129.2402,-124.0790,43.0276,-74.2852,-63.5518,-97.2326,-56.9510,-91.3541,105.6523,-247.9377,-159.4247,-173.5179
-254.2110,-175.0731,-197.5396,-80.2413,-171.9819,-128.2400,-128.6687,-109.1513,-57.3442,-5.4662,-104.1758,-49.2661,-109.9765,-40.1600,-47.9406,77.7179,-180.2057,-87.9964,-128.8718
-232.3174,-154.5577,-216.3556,-58.1383,-125.3400,-7.1316,-40.9964,-66.8134,-5.3831,-22.2944,-121.5735,-47.9344,-87.5884,-4.9232,1.9451,91.0332,-204.3347,-75.4614,-113.0951
-280.1381,-199.3485,-255.0457,-97.9297,-112.1420,41.3531,-17.6475,-31.3912,-11.9173,-44.2669,-127.4584,-67.5485,-41.4868,28.1002,50.5898,159.1210,-278.8500,-103.5035,-121.0747
-359.5586,-256.3175,-306.7589,-123.0372,-155.1367,17.6243,-31.7923,1.6647,-39.7463,-73.8546,-142.0273,-90.7708,-16.0680,23.7024,59.0134,200.6688,-324.4836,-116.3906,-128.5703
-408.5025,-195.6542,-387.3196,-87.8989,-206.7796,0.6760,-55.5324,25.9941,-48.3157,-29.6774,-178.9117,-76.2661,-62.0787,16.4949,4.9812,182.7158,-328.3134,-74.7386,-142.0229
-416.3324,-95.1263,-444.3665,-56.3035,-200.8478,13.6295,-89.8340,29.1335,-59.7097,68.3424,-219.6606,-50.9474,-154.0568,24.8995,-60.2427,180.0269,-314.2542,-14.4235,-149.7107
-401.7849,-126.9917,-401.6234,-72.4829,-162.9397,10.9988,-113.9999,25.7867,-69.7556,98.5818,-232.5138,-73.6545,-186.0791,1.5125,-81.8313,200.2396,-270.6840,6.5563,-122.3376
-349.9498,-213.9796,-279.6872,-79.1189,-120.8508,-14.8846,-94.0513,20.0650,-31.4656,76.3657,-212.2107,-115.3718,-128.1367,-49.4230,-65.4519,173.6228,-179.0706,-11.2949,-90.2033
-246.0863,-196.4289,-158.8301,-50.8361,-69.1921,-49.5075,-65.3975,-17.9161,21.7812,69.0599,-183.2431,-121.6259,-74.5121,-79.8422,-40.8502,107.4544,-81.7548,-41.8646,-111.8505
-142.1007,-133.8412,-76.1984,-38.5622,-61.4024,-102.4149,-90.3442,-86.3700,11.5324,23.5898,-162.3107,-108.2171,-68.2097,-101.1301,-28.7796,54.2526,-33.1377,-68.7073,-163.2076
-92.9744,-122.5770,-22.7822,-42.3246,-112.3322,-146.8624,-135.4186,-127.7832,-27.7464,-45.7761,-144.7182,-99.9026,-55.8881,-120.2895,-35.4664,11.7678,-13.7544,-62.0860,-169.1262
-74.5536,-118.1987,10.9398,-23.5543,-125.3682,-126.4297,-133.1364,-108.2229,-12.6339,-28.9384,-132.0109,-93.4417,-45.3067,-94.1998,-43.4746,-29.4829,11.8386,-16.8229,-128.0090
-54.5672,-99.7531,16.3413,-8.3483,-79.7898,-50.9235,-107.5344,-58.3938,26.5514,22.1310,-135.6973,-90.7849,-87.5778,-39.2614,-41.6393,-43.0674,13.4580,19.2197,-93.3830
-63.2748,-108.4415,-16.5510,-28.3625,-56.1653,13.8576,-98.5686,-19.9570,19.9631,-2.6566,-146.6828,-83.2068,-135.1309,-20.2269,-48.4711,-10.9127,-33.3360,23.8341,-68.1055
-117.6614,-125.4943,-74.0573,-58.4641,-55.8836,24.6430,-78.4789,-7.0289,-6.6802,-33.6637,-149.2179,-60.9291,-123.6635,-30.4606,-65.9132,40.4214,-92.1313,16.3877,-32.3544
-174.8648,-121.2204,-136.6233,-87.5824,-46.2904,-18.6007,-44.0691,-17.9922,-8.2331,2.0546,-156.4009,-44.0882,-93.2296,-30.3720,-67.4398,46.2626,-147.0506,-12.7159,-21.3632
-208.4025,-120.8948,-200.5904,-124.3572,-59.7166,-75.0490,-44.4881,-39.2621,-10.8757,36.5527,-177.5833,-37.9189,-84.1699,-26.5271,-55.5897,-15.7468,-214.1801,-66.3131,-60.0083
-232.3289,-140.8981,-246.8985,-145.8874,-95.3527,-96.8485,-77.9363,-47.3790,-32.6368,31.0064,-191.7474,-30.0925,-70.0409,-26.1459,-53.0361,-57.4966,-259.7618,-100.2086,-95.6427
-239.9518,-166.3591,-242.8722,-144.8841,-118.2043,-96.5743,-94.3559,-35.1459,-32.6159,20.9002,-191.0280,-39.6285,-52.7620,-13.1153,-43.9530,-2.0503,-238.2299,-115.3224,-95.6684
-210.1501,-168.9877,-199.6487,-142.4014,-144.5436,-116.1532,-82.9345,-23.1966,-2.4390,24.1512,-188.7709,-61.8711,-60.1233,17.3435,-9.1078,78.1875,-173.4361,-150.8869,-110.0598
-160.7729,-120.6902,-157.2034,-118.7589,-169.8568,-135.9834,-73.3775,-35.6375,-1.6805,40.9732,-183.0914,-45.7859,-77.9699,56.4455,13.7657,74.5997,-105.5639,-162.7988,-161.3116
-122.6131,-51.9042,-122.8467,-59.2340,-158.2688,-110.6011,-87.6503,-67.9746,-50.4303,45.4078,-171.8712,-0.5751,-94.4676,77.6269,-14.3003,-1.9824,-37.6255,-97.6115,-188.5988
-89.3529,-22.7819,-84.5505,-23.1575,-137.0046,-52.4614,-110.0579,-75.3495,-80.4180,24.0419,-170.2984,16.7405,-108.7352,57.7540,-56.3496,-68.7450,19.6570,-25.3439,-149.2282
-51.9092,-21.4277,-43.7422,-42.0023,-125.1457,1.5586,-100.4428,-16.9365,-49.8164,47.9405,-171.3824,11.2474,-81.6545,36.6684,-49.0958,-72.2641,38.3252,-19.1720,-75.2914
-40.7566,-26.4529,-9.6227,-54.9339,-87.1235,43.5423,-67.1218,70.2916,-13.4525,128.9058,-152.6825,8.9024,-16.0329,63.2461,-1.8531,-22.1176,11.9109,-36.7383,-15.6290
-75.1156,-77.9153,-0.6324,-31.0123,-51.9746,72.6954,-61.8757,103.4268,-10.5956,149.0279,-133.7156,-2.8399,0.1565,102.1175,24.0305,19.9808,-39.4766,-31.6662,14.3927
-115.5302,-151.4810,-24.6279,-19.8987,-64.6473,84.5941,-58.5388,80.1078,11.2385,109.0413,-145.6106,-19.3848,-48.8019,110.4409,21.1543,16.5208,-76.8172,-16.4070,31.5814
-123.9264,-153.1565,-50.8815,-44.1925,-66.6196,85.2979,19.2330,74.0498,82.7406,132.4651,-175.5010,-23.2839,-64.8104,111.8394,34.6134,-6.4250,-76.3059,-2.1374,48.5813
-122.7108,-104.0780,-65.0235,-67.3937,-25.4538,76.6035,122.7039,97.8068,136.3531,179.1541,-205.1161,-26.7519,-16.5274,109.8596,61.7922,-31.7885,-73.3763,-12.7022,39.7025
-141.6519,-96.6429,-95.1570,-65.7288,-4.3673,53.3822,126.4703,99.1867,113.5712,145.7588,-233.5233,-32.3784,24.6092,79.5558,60.9852,-58.7028,-97.5018,-69.6378,-18.2813
-152.6655,-104.8361,-115.1253,-45.0149,-11.5591,20.9809,40.9631,72.8761,43.8757,107.9937,-239.4589,-29.0605,26.8430,50.2171,42.0970,-53.7633,-100.0901,-111.7619,-92.5460
-107.6153,-54.7666,-52.0428,-18.0194,-7.8493,-17.3274,-23.2295,42.9630,-19.8056,134.8822,-206.8517,-25.5344,16.1797,40.8913,34.5698,-24.1673,-51.0003,-81.5249,-142.1228
-14.1005,21.5197,64.0083,-3.5217,-8.5860,-56.1783,-40.5957,2.9291,-50.7035,148.8390,-173.6604,-28.1537,6.9319,10.6270,17.2532,-31.6552,-1.0253,-29.8798,-161.9787
63.1324,45.1838,128.1847,-3.4826,-5.6730,-51.6407,-41.9747,-18.6974,-33.5697,126.4492,-178.4963,-51.9554,9.6628,-18.8373,-13.3348,-53.5487,33.1028,6.1177,-136.2630
72.8321,-0.4379,124.1887,8.4863,43.1727,31.9400,-5.5313,40.0031,22.5108,123.3413,-199.2181,-109.7857,29.6857,27.3293,-2.5813,-26.9454,77.0051,52.1059,-49.8094
26.7286,-60.8527,88.9142,28.2502,92.8023,126.9390,68.7124,136.9744,73.9261,129.4448,-202.9775,-113.8647,35.2606,103.7201,50.9235,-11.9717,78.1847,60.0647,42.8518
-34.1136,-66.2529,9.8537,6.2727,68.9577,122.4821,93.5027,154.7378,86.9566,112.5375,-197.9582,27.1064,0.2652,92.7250,69.7472,-76.5363,-18.5367,-19.9220,77.3816
-93.0951,-30.4595,-94.1240,-57.1752,-9.2626,25.8684,29.0418,84.3620,66.8100,70.8581,-203.7746,193.9161,-49.3808,8.6142,25.9006,-142.4603,-135.7816,-87.9648,74.3547
-148.6360,-46.8918,-143.3740,-92.8962,-81.0148,-54.5007,-38.4912,11.9503,36.7645,5.5059,-226.8594,216.8103,-80.3496,-35.0439,-25.6305,-140.5185,-180.8154,-75.5064,79.3864
-189.5457,-126.3927,-139.5715,-83.6816,-102.7729,-79.3982,-40.6665,-34.8790,21.7565,-40.5578,-267.0254,150.9761,-95.7488,-14.2222,-36.6392,-122.1141,-168.9255,-81.3997,91.6732
-208.4684,-165.2190,-150.2943,-79.7300,-52.8363,-99.4204,-10.0496,-72.2551,41.3502,-32.5612,-312.9598,118.0889,-103.8326,-3.4687,-4.9436,-122.4052,-128.8482,-125.0816,105.7503
-204.1587,-118.3142,-145.8532,-76.2709,26.6355,-121.8054,24.9743,-79.2054,84.4414,-37.5812,-337.1817,98.2635,-84.3546,-34.8238,42.2140,-127.6367,-58.7877,-79.0226,120.3620
-166.8057,-46.2343,-60.7048,-31.2123,71.6317,-95.5330,69.1644,-51.0784,105.0829,-94.7494,-320.8796,71.8155,-19.9793,-60.0971,71.5411,-160.5952,4.9363,45.3449,108.2398
-94.9592,9.9206,45.3605,16.8103,93.3197,-19.9801,93.4083,-31.2631,74.0214,-126.6113,-285.7654,79.9977,53.0904,-56.2747,80.1673,-220.8741,34.8991,98.5464,71.8161
-12.9627,49.8529,86.0332,10.1452,127.3588,46.1284,92.0276,-27.6283,21.6364,-100.9512,-271.0852,88.2863,77.4944,-64.7653,80.9887,-236.6636,65.0229,68.1571,70.6065
46.0637,51.7051,93.6012,-16.6652,159.1774,69.9568,121.4247,-3.8650,5.1149,-69.4706,-273.9129,48.9076,61.6652,-88.7725,59.2497,-188.6483,99.4219,46.6494,127.4099
63.8649,12.9191,116.3033,-17.7033,176.4758,60.7367,175.6648,36.7899,45.7959,-43.3846,-255.1492,17.9347,60.2778,-76.1825,19.0110,-160.9420,99.5463,50.8242,202.3898
58.2414,1.3593,131.8718,-10.2387,190.9475,31.7437,187.0629,61.7671,110.8344,-17.4937,-212.0171,36.3091,74.3078,-40.4420,8.3592,-205.4312,86.7232,71.1449,274.6236
69.6185,64.9978,141.0388,-1.5940,183.9242,-2.4383,162.5485,75.2889,135.5701,-15.8259,-184.7523,47.6899,62.1553,-45.8281,17.6652,-255.1490,105.1133,104.4136,329.4702
94.9193,133.9928,161.7114,17.4493,115.6563,-22.7469,122.6772,87.1684,77.3825,-28.8029,-181.0672,13.7655,22.7572,-74.7894,-17.6179,-224.5093,124.5759,87.1422,307.6310
94.0959,114.5350,147.1548,21.5061,-3.3511,-26.9308,29.2087,72.6114,-16.6625,-33.2237,-172.5482,-25.2711,-13.0675,-68.2334,-67.1752,-135.3369,110.8456,6.3023,200.4479
78.1420,46.1689,89.4051,10.8118,-83.8033,-35.6221,-66.1252,29.7147,-46.9153,-45.9959,-159.9050,-22.4003,-27.3814,-39.1642,-45.3002,-77.9809,98.7148,-23.3810,107.4112
77.8964,41.0995,80.7826,29.7545,-47.3420,-63.2833,-54.2861,-0.5341,-5.6248,-78.7270,-157.3414,12.4855,-14.6676,-25.2039,6.5632,-86.6126,110.2742,40.4555,81.3181
60.8924,103.9574,130.1874,68.9276,49.2126,-80.2508,6.5469,-7.8317,19.4692,-112.2255,-151.1914,31.5106,5.5895,-31.3741,-7.8801,-129.8907,118.7493,100.1729,59.1793
20.5336,150.2281,129.4527,81.0178,89.7523,-28.2886,19.1084,-13.4687,15.0038,-116.3299,-136.7595,22.9397,-1.1828,-57.4548,-48.2576,-170.1024,122.5619,127.3642,32.1880
34.8682,142.9217,67.7564,71.8761,78.7203,90.0120,59.9953,-4.6060,53.6385,-78.1779,-129.5547,15.3324,-17.0036,-70.2550,-29.1652,-170.6436,133.6100,177.6653,75.9291
99.5692,91.5125,20.6553,57.2033,75.1524,178.4831,157.5916,28.9364,122.2239,-55.0783,-116.2269,5.1186,4.0505,-15.9811,7.3371,-129.7290,113.6795,220.1396,156.7459
89.0391,14.5331,-28.6090,21.0369,51.8362,165.1729,172.5002,44.5145,134.2602,-98.1471,-79.7710,-17.5667,35.9512,67.9258,-9.6903,-103.6833,36.9396,197.2681,158.1296
-12.2745,-30.2903,-97.1196,-19.0317,3.3332,95.5486,104.6998,25.8061,101.4655,-125.9529,-53.1012,-6.3063,26.9454,98.7079,-37.8879,-107.0375,-30.4359,148.4245,104.2344
-58.6439,-2.5091,-90.4745,-26.2076,2.5429,47.1795,103.4932,15.9522,98.4332,-75.5941,-52.9095,60.1190,7.3400,96.6821,-11.4736,-90.6117,-10.1613,107.1775,96.3262
23.3927,44.9140,8.5404,-12.9904,34.4293,28.1938,136.0368,19.7786,106.0066,-40.9672,-35.1124,124.1842,25.8836,120.5956,41.0076,-63.2668,72.7849,39.5525,95.1628
140.3892,55.0987,71.8556,-3.8044,10.5043,7.2178,70.9238,2.8739,58.2542,-54.4301,3.0884,149.1434,55.6384,146.6335,56.7352,-56.7224,127.2834,-43.0919,16.2322
183.3119,46.4906,57.7257,-1.4629,-49.8518,-29.8795,-31.7544,-15.6193,-27.6209,-25.2214,6.7322,146.3477,64.3589,138.0491,32.8462,-25.2317,122.1284,-72.9027,-82.6096
156.5387,44.9408,57.7552,-11.7831,-57.7805,-67.6491,-50.0555,0.0632,-86.5639,19.0935,-14.3957,111.5995,80.0659,101.2286,10.4592,31.8057,119.1766,-21.2357,-104.6785
143.8185,56.8933,108.3461,-12.7016,14.3130,-63.6062,-8.2327,28.8073,-94.6048,4.1046,-4.5972,50.1839,120.4538,44.7643,18.2107,27.6140,171.6531,83.9317,-57.3688
178.5228,96.3441,170.7244,41.9713,127.4436,0.7406,27.2208,41.7511,-69.3807,-4.3030,16.1623,7.5136,151.1858,10.0341,53.3239,-22.7627,236.2539,169.9518,5.7328
202.2797,143.6570,221.3783,128.4032,188.2152,69.4253,42.0432,36.5992,-50.4635,2.5172,4.3560,22.8522,144.9268,53.9906,82.9011,-36.4506,239.6986,156.8450,42.3380
182.5453,158.5306,230.2098,173.0843,131.4828,86.2954,28.2825,14.5697,-73.9943,-65.7218,-6.8339,97.3523,118.0066,125.5392,63.3426,-40.3700,192.5290,67.8448,27.0168
164.1252,159.8234,174.0991,168.6464,50.1180,78.4462,-1.8794,5.3615,-117.5531,-123.6573,13.1916,176.2491,106.2189,125.1472,-1.7542,-53.9516,157.8380,14.2378,-4.9917
165.8253,177.7067,114.1530,157.5500,63.8109,83.0224,-10.5542,39.2775,-125.9748,-60.2326,31.3958,183.7476,126.0468,77.6722,-42.7148,-13.9279,153.4778,22.2135,-5.4523
165.5144,184.4938,127.0027,159.2398,111.5702,74.6700,-7.4099,61.8503,-116.2514,-20.6930,33.4268,144.1276,150.4101,63.3743,-21.4114,30.8614,162.0568,14.7942,-15.1010
171.9708,174.1953,178.3241,178.1759,82.2650,32.2096,-45.1333,12.3402,-153.8185,-104.5094,27.6874,148.8586,138.8586,71.5640,8.7347,-15.9270,174.1238,-46.6498,-82.5497
175.1892,186.7179,172.6489,194.6707,-7.0258,-26.3429,-129.5970,-55.5768,-217.3823,-154.7679,-5.2198,176.0414,95.6734,69.8366,13.1972,-66.6756,169.7235,-140.0782,-153.6906
123.0580,204.5175,89.8458,159.3878,-106.3141,-98.4346,-203.6398,-79.2711,-228.5655,-117.1998,-50.7681,146.9375,54.4898,75.9949,30.0562,-22.7616,130.4891,-236.7850,-182.2267
36.5525,173.4465,-6.5268,75.6321,-202.5215,-189.6004,-236.7005,-99.8471,-209.8767,-120.3247,-56.4351,98.2788,18.9297,80.0865,40.7903,29.2769,73.1597,-300.4432,-219.4017
-4.3368,111.8327,-67.9529,8.8890,-259.6284,-273.4568,-268.8311,-152.3581,-237.1227,-145.0504,-42.6673,83.8623,-18.6956,40.1653,-29.3435,25.9819,9.3047,-312.5025,-281.5345
0.2783,70.5839,-101.2607,-20.1241,-251.8368,-313.5181,-299.2219,-180.1872,-256.9355,-77.0920,-66.4906,60.4223,-36.4919,-30.8408,-127.4330,20.2825,-67.4274,-287.9698,-279.9825
-3.1728,43.1372,-118.4283,-45.5815,-203.3087,-279.1555,-232.5364,-122.2856,-161.5267,28.7269,-102.1298,6.1183,-27.3119,-85.1122,-117.8947,16.6061,-124.2162,-225.0590,-165.2625
-20.0978,0.0503,-119.0872,-78.5074,-138.3587,-165.8386,-69.0620,3.4551,-10.7927,66.2902,-112.4303,-44.3454,-24.1214,-113.3418,-20.1713,4.9728,-128.1822,-132.2499,-21.7024
-36.3944,-51.6824,-124.3664,-109.4894,-80.0646,-50.5066,21.5713,106.8513,40.8503,65.1916,-128.9798,-89.1674,-34.2170,-130.7094,34.5325,27.1780,-120.2143,-71.5304,35.8766
-54.7362,-83.1740,-148.7051,-132.0275,-58.5744,-17.5089,-32.3149,114.9996,-13.7499,77.6459,-152.3571,-125.7234,-30.0112,-132.0413,21.1636,45.9108,-132.8179,-48.6772,-5.6232
-66.2874,-76.5036,-154.2480,-115.4149,-67.2571,-9.9363,-102.5006,76.9738,-69.0707,58.2088,-143.7861,-128.4715,-18.4425,-106.1020,-9.0610,-8.3059,-117.3235,17.3862,-68.1651
-49.5673,-36.6943,-101.6230,-25.5522,-74.4466,73.2665,-110.7233,88.7685,-96.1347,-32.8839,-130.0239,-113.1990,-22.8036,-78.3693,-47.9392,-71.7745,-37.6547,126.2068,-91.2583
19.6941,18.1467,6.1580,113.5303,-45.6568,178.5142,-93.5744,129.7822,-117.9296,-115.3095,-136.7255,-93.1379,-17.3191,-90.7174,-79.4722,-71.4240,82.1335,190.2904,-71.0532
143.8444,75.4632,151.3049,223.1353,58.3219,195.2711,-45.6184,127.4682,-106.2412,-105.0211,-107.9018,-45.0009,28.4141,-123.9134,-60.2085,-60.1615,213.6509,203.0044,-15.8848
257.1635,124.3969,284.2881,239.7753,200.4738,141.5238,34.5580,96.6933,-47.8509,-74.8081,-28.6690,5.3182,93.4416,-113.9240,-3.9965,-85.6393,307.7263,206.5127,46.4139
288.7220,150.9313,327.9214,190.0633,263.5351,86.8539,68.6629,65.5628,-4.0702,-106.7222,29.0206,11.1868,149.0119,-72.5743,41.1724,-125.1744,301.6492,184.5643,49.3435
259.9825,158.0574,285.0867,173.1526,219.8543,45.7581,32.3135,19.2746,-14.1579,-112.9378,44.5153,-5.3108,178.5696,-79.4114,68.8320,-152.5181,226.3855,133.0277,-25.0342
215.3921,166.4845,230.4342,221.2354,141.4434,29.4450,-12.4961,-10.5425,-41.2420,-51.6067,57.4320,-13.7114,157.2593,-128.2887,83.3580,-127.8948,172.2617,82.4694,-101.7019
152.5147,183.7391,174.8160,247.3393,48.0492,41.7289,-40.1976,9.8050,-52.4099,-58.3011,63.2394,-13.0972,94.9742,-127.2360,73.4737,-43.0785,144.7498,23.1051,-130.6678
96.7448,189.6961,100.2339,196.0116,-47.2510,39.2855,-58.3581,25.1673,-57.5940,-134.0186,50.5555,6.4982,43.1621,-63.3148,47.1129,7.5403,102.8797,-34.9476,-143.3781
87.4490,155.6546,56.9469,124.5087,-67.9368,11.8109,-58.9396,4.8095,-60.4027,-106.6199,50.1981,18.1528,14.8500,-19.0890,24.8596,-29.8236,59.6539,-29.0410,-153.7081
88.7537,80.4324,65.1235,77.2831,-16.6241,0.8627,-46.0276,-0.5378,-49.2203,-8.3906,65.1677,-21.4978,-0.4187,-34.9891,19.4254,-68.9254,27.7578,25.5864,-138.2355
69.6585,2.3513,69.1824,32.5833,17.1725,4.2047,-23.5183,10.7884,-30.9582,-10.2469,67.4380,-66.6316,29.4051,-73.9890,39.2900,-56.3420,-11.4081,52.1717,-117.7978
70.3629,-42.2974,66.0933,-1.4734,30.8625,-3.2536,7.9446,-0.9103,-22.6081,-64.1909,61.8890,-66.9990,96.5864,-91.2572,68.3843,-46.8352,-44.8103,55.0714,-128.2298
87.3024,-48.1626,81.7271,6.7302,65.7215,-0.8035,21.8647,-9.7434,-27.8515,-53.8251,62.4062,-60.7753,107.6482,-68.3722,74.1938,-61.6381,-48.1475,69.2405,-136.6409
68.9703,-17.2906,70.9478,31.1989,88.0146,24.5993,30.1334,10.8387,-39.7126,-37.2380,59.2504,-54.1229,46.6607,-25.3597,60.4223,-64.7792,-26.7076,83.8921,-89.6062
39.7176,32.2995,27.3031,40.3447,83.5047,56.3640,81.8408,31.9093,-34.2527,-51.5399,53.2248,-24.4350,20.1023,-15.9430,52.2598,-44.0769,19.6555,115.7115,-2.1984
45.9771,49.7464,27.0525,61.7252,94.8441,95.3672,134.8730,50.1498,18.4861,-31.6969,55.0048,-29.5960,53.4960,-51.7588,47.8586,-1.8743,81.6681,179.5211,70.5297
55.5557,24.9032,62.8883,109.2225,104.5513,127.9323,116.6182,78.6992,87.1387,-2.6825,52.9997,-66.7771,44.7889,-67.0435,36.2850,47.5493,116.7668,207.1484,105.7569
33.1837,14.6306,58.0930,143.8419,61.3789,120.7155,59.8740,88.1683,77.5972,-19.5102,36.9038,-19.8350,-40.8565,-27.9466,9.5151,61.4733,116.7922,157.5621,111.5535
-6.7084,29.7486,21.7516,150.4862,-15.2051,90.6227,-13.0162,68.9699,-34.8280,-19.5278,18.8078,87.5789,-122.4817,4.9260,-47.6781,38.9448,105.7393,79.7026,93.3159
-48.3678,23.9253,-9.1555,150.0441,-77.4202,57.3319,-130.4242,50.3484,-146.6431,40.0039,6.4692,118.6939,-148.7330,-6.8811,-111.4571,32.1147,72.9737,-1.8812,60.1919
-61.0429,14.0401,-36.4449,138.9911,-107.6972,-12.2448,-197.1264,24.2942,-157.2950,87.5397,-3.5667,101.3524,-142.1054,-17.1736,-124.1295,37.7690,33.5082,-79.6071,37.5989
-6.4990,35.6874,-19.3601,110.1645,-96.3237,-94.9258,-107.6998,-27.4696,-75.7645,70.9472,-14.6023,121.6776,-124.4264,-5.2132,-92.2898,4.5302,48.1808,-95.9656,37.8187
66.7076,28.3315,53.5530,83.9905,-43.2848,-103.8139,23.1130,-70.4634,27.1069,17.6889,-27.9410,117.2244,-99.9714,-10.1884,-69.7573,-43.3309,83.5392,-43.5045,43.6634
61.2976,-48.2312,74.7310,55.2382,28.3800,-45.0639,71.2059,-67.5818,88.9418,-25.5263,-35.5022,46.6961,-84.6217,-31.6365,-53.3238,-32.3424,41.6036,12.4776,48.6317
-16.9689,-108.8940,10.2832,-4.3644,91.3566,5.7899,104.8981,-25.9526,87.4822,-30.5302,-30.8354,-9.1431,-93.0102,-37.6921,-20.6485,18.5467,-48.1849,58.7799,71.2484
-77.8104,-111.6322,-31.6639,-73.6065,124.8016,35.2117,153.5031,23.1221,61.1574,-9.3834,-31.2825,-23.0559,-112.1121,-40.8294,-4.6303,23.1027,-90.5135,104.8530,107.5529
-93.8497,-136.6692,-44.5792,-117.7976,122.3848,49.4515,139.1154,47.0820,65.9637,4.3623,-57.2976,-34.2073,-119.1335,-43.4712,-26.9476,-13.4676,-101.4040,113.5573,127.5363
-112.8279,-198.1370,-117.1541,-152.3457,94.0489,38.1235,99.0248,49.3398,102.8735,11.2425,-93.6103,-40.9089,-116.5164,-8.8747,-51.6831,-4.2852,-127.3073,93.5029,136.1971
-145.9577,-210.7668,-191.1608,-170.1653,47.7473,37.3877,109.7854,67.8823,135.3995,39.7288,-103.6181,-44.1228,-122.9722,37.7740,-57.6400,57.8283,-135.9569,91.8047,175.0650
-141.3052,-175.9756,-161.0294,-121.1421,-4.8064,69.7531,105.6077,97.1040,142.0005,95.3734,-82.3881,-59.9263,-143.5612,29.6916,-64.8864,102.4781,-103.9813,82.2234,246.9746
-78.9228,-164.9911,-87.5957,-32.3458,-39.2367,79.8300,40.1336,91.0798,113.5155,133.7827,-64.5905,-59.4266,-167.2481,-10.4846,-84.2207,117.4246,-48.6179,45.1613,292.9695
-12.7114,-151.1557,-52.2029,19.6358,-36.7595,43.7307,-2.8191,51.3002,64.2968,94.3085,-70.1965,-22.5567,-162.7666,-18.6755,-101.6964,125.6556,35.0585,37.8557,262.2565
16.6953,-70.1009,-9.5664,55.6761,20.4210,2.1197,16.7404,8.2323,48.1678,6.8484,-70.3052,13.5985,-91.3932,-5.1397,-98.9408,104.3465,133.6449,56.1162,170.8076
35.3048,38.1224,74.7158,124.2620,128.6805,-31.5902,52.2558,-33.5362,91.8602,-13.4087,-35.8406,16.5763,14.0514,-1.2387,-72.7985,62.4810,187.9407,29.0872,72.9715
68.5334,104.6294,159.9201,173.8065,206.9707,-49.5656,82.7268,-59.2698,148.5985,41.9830,11.3892,-9.5252,48.2966,-8.0124,-37.3174,65.8754,177.1058,-29.1016,2.6870
92.0269,123.3370,212.3661,160.9237,182.2079,-25.2807,100.6402,-49.1533,170.7844,65.9981,40.6322,-41.9321,-2.7411,-37.5567,3.2437,115.3634,129.5768,-60.3529,-29.6630
68.5162,83.1977,204.8618,125.9233,120.9886,12.5439,93.4645,-23.3260,167.2161,62.2263,50.6302,-65.9041,-19.2293,-70.4134,52.9799,164.0811,63.1774,-60.0141,-14.7702
-0.8474,-24.2748,134.5421,71.4548,111.8976,22.4733,89.2717,5.9209,158.0660,108.5522,38.8538,-98.9922,47.6833,-36.0345,91.7096,214.9172,0.2025,-28.2894,34.1770
-51.2023,-107.4996,78.5505,-25.1639,108.5935,24.4335,100.0782,45.3601,132.1330,146.0941,12.3529,-128.0954,99.3220,49.5147,93.4499,248.4332,-27.9989,12.3409,65.1400
-14.6400,-66.9956,82.4500,-88.9847,48.0168,15.6863,72.0570,50.6114,70.2960,99.0402,6.7627,-76.2581,71.5760,73.7532,56.2052,204.8772,-33.4702,-16.0510,39.0850
57.5423,42.6050,66.9488,-53.2892,-34.7215,-34.1953,-11.0315,-14.6597,-9.2160,42.4458,20.1130,51.9072,6.3818,21.8333,-13.0618,128.4060,-49.6357,-106.4224,-20.8455
47.7294,101.7590,-16.2783,6.1971,-101.1006,-77.5221,-76.8310,-88.0029,-56.1223,25.9372,7.3316,137.3658,-58.1511,1.1845,-87.1285,117.1796,-67.5237,-149.0266,-62.0548
-24.0535,96.5986,-85.9983,9.2127,-146.2373,-72.4928,-80.0305,-114.2714,-64.2710,-23.2848,-21.1914,144.0395,-106.4475,55.4852,-119.0684,139.8502,-50.1838,-125.0706,-68.7968
-28.7935,80.0910,-75.2355,-5.4764,-142.3506,-75.6421,-63.2563,-131.1985,-85.3476,-117.0549,-16.1344,138.8582,-105.9222,110.3343,-117.6148,115.5177,18.6006,-90.5349,-68.9785
44.4026,72.3491,-13.7768,11.9675,-70.4481,-97.5451,-53.3965,-162.7979,-115.6475,-177.9583,10.4403,132.1407,-53.6691,94.9662,-126.9844,73.9680,107.9264,-20.2413,-74.4150
87.9910,71.2069,46.4129,42.1417,44.8858,-70.0015,-1.3222,-178.2045,-85.5520,-183.2133,25.7190,106.1807,10.5710,25.2807,-116.0025,70.4084,149.7393,96.1785,-57.8680
63.2494,75.4982,76.3003,58.4349,158.0029,-10.7922,99.6556,-174.4195,-12.9722,-167.4113,37.0398,86.5088,62.5366,-28.6407,-46.2682,78.0309,120.4187,157.1583,-18.5797
31.1012,88.6353,84.7864,65.4185,212.3192,13.3111,149.7042,-164.6105,6.6025,-161.7079,35.2685,70.5590,93.6681,-32.5708,16.1378,56.2682,89.3724,121.5088,-1.2676
45.6636,120.8792,115.3367,69.5117,193.1559,24.6217,107.8349,-127.4225,-16.1921,-172.7715,7.1175,44.8284,95.4775,-16.1090,22.6014,22.3058,109.7583,78.1283,-3.5720
91.7276,143.1151,163.8847,52.8284,157.6213,55.0369,73.2726,-50.3604,4.9889,-147.0850,-6.9734,38.6083,85.7393,1.1432,19.9974,24.3054,125.3321,72.7549,37.0483
102.5411,98.0717,164.8929,-4.9432,130.1108,74.1839,90.7526,41.9180,53.6837,-35.1888,11.2685,40.5730,82.6719,32.1276,14.8979,73.9457,70.2120,59.8924,127.4386
48.7264,19.9604,107.2808,-70.9183,80.7037,69.0494,80.6730,115.0262,61.5829,85.6939,20.6096,19.0119,69.3083,63.3814,-20.0805,124.6566,-27.2678,20.1776,200.2044
-17.6101,7.4807,43.2037,-85.8796,34.7813,38.8704,23.9232,129.7070,43.2408,96.1151,14.8910,25.2215,45.1263,72.4146,-32.3594,145.8288,-106.5956,-17.4326,204.1611
-55.5224,48.3241,-14.9158,-63.2111,25.3444,-39.5045,-27.1663,66.0837,26.9910,13.9916,16.2295,78.7785,42.7479,68.2344,-1.1973,156.9225,-148.5935,-33.0105,125.6186
-79.8867,55.7536,-72.3640,-55.4115,8.2745,-130.9558,-81.2272,-31.0100,-8.3459,-39.2220,4.2780,92.9490,55.6092,45.2093,-7.0265,152.1903,-149.3409,-27.8860,-7.7936
-87.2568,37.6105,-96.0078,-47.0937,-23.8794,-153.4787,-128.7000,-92.3160,-47.3849,-8.3534,-23.7306,53.9234,38.4312,-4.7754,-49.3976,116.2472,-107.5147,-14.5120,-105.6435
-70.7659,39.4602,-87.4539,-14.7240,-20.5154,-103.7456,-96.9614,-99.5664,-43.8947,40.0266,-32.6416,39.5323,-16.7518,-26.9195,-47.6839,98.7410,-57.7838,-5.4999,-110.2514
-74.6646,35.5969,-101.2784,-6.9820,-11.0346,-43.0167,-23.9600,-72.9171,-13.5950,28.5908,-42.4494,44.9326,-77.9724,12.2641,-28.7130,124.4623,-46.2378,-3.0912,-74.3258
-114.4956,11.0981,-143.8076,-42.7192,-42.6130,-1.3149,-18.9316,-28.5855,8.7371,-7.9370,-83.9493,23.6312,-114.9106,46.5782,-45.2205,139.5816,-68.0403,-6.0830,-48.1699
-142.5430,-8.4687,-174.8917,-57.8267,-68.0167,20.3398,-45.4550,8.2652,29.7790,7.7015,-111.3247,-1.0117,-104.7044,37.6673,-46.7250,145.2822,-88.0379,-11.6660,-31.1730
-146.6625,-40.1966,-188.5125,-26.5695,-66.5499,23.8564,-25.5472,0.2121,35.4009,41.7706,-97.2915,-5.8888,-52.6403,34.7315,-22.2869,180.5063,-105.0820,-15.0712,-67.8521
-147.3072,-88.8314,-189.2702,1.2621,-82.9990,14.4433,-17.9250,-47.0670,-2.9759,21.5149,-81.1290,3.0317,-9.8119,48.2136,-29.2443,190.3025,-130.9519,-24.7734,-176.3250
-126.6991,-85.1894,-157.8998,-6.0158,-97.5859,-14.8038,-59.0280,-71.0660,-45.9379,-13.8744,-69.7017,33.9735,-11.1340,40.7222,-34.2358,146.8055,-141.5733,-51.4289,-242.9569
-81.8797,-15.1155,-104.0110,-33.7325,-75.6604,-69.5106,-66.9981,-47.8766,-55.0123,-7.4423,-50.3442,64.1751,-25.0954,19.5708,1.3548,142.6604,-121.3209,-81.4800,-203.9536
-55.2728,32.2032,-69.8936,-50.1415,-57.4337,-123.7580,-31.6347,-42.0614,-75.4367,1.2626,-53.5978,54.4641,-17.0061,0.5109,-6.0209,191.8589,-104.9932,-93.1338,-160.9247
-58.8488,11.1915,-64.7005,-32.6404,-51.9993,-141.0185,-37.1389,-87.7436,-119.5984,-22.5727,-79.1523,26.5607,-9.3299,-22.4251,-76.8103,200.2859,-116.2091,-78.7102,-168.2043
-71.9426,-38.1374,-65.3891,-7.2047,-23.4903,-106.1075,-84.7921,-113.8729,-112.5780,-52.1481,-78.9360,10.5298,-22.7031,-24.3150,-96.4295,172.2182,-131.1502,-44.4162,-154.5947
-82.0302,-81.5821,-62.4232,-15.5265,0.7327,-37.9466,-102.1523,-76.5173,-42.7520,-67.8393,-58.9124,6.4530,-21.1012,1.3221,-44.8954,166.2799,-133.4373,-16.8610,-100.9026
-67.7330,-108.2024,-55.7841,-37.3106,-6.3228,14.1162,-62.7777,-34.6433,19.6594,-60.2991,-54.5042,31.7655,12.2341,5.7159,-7.9584,157.7749,-132.6472,-17.4073,-49.1374
-29.2176,-118.6971,-36.2722,-39.4490,-5.4140,27.8578,7.3931,-21.5839,63.9988,-36.8472,-55.8775,61.9793,20.7124,-0.2703,16.9947,143.1599,-130.9638,-20.3868,-5.1821
-13.5319,-136.6975,2.4059,-45.9900,4.1439,35.4306,58.3625,-0.8182,107.3513,-48.6891,-62.7036,19.9111,-14.2280,36.9974,63.8869,169.6799,-117.4811,-4.5330,10.2448
-18.9791,-158.0799,51.5375,-64.4107,-14.2581,42.2757,52.7569,23.3577,107.5307,-90.6407,-87.8442,-62.1668,-9.1350,65.9764,84.3905,207.4601,-69.9737,-8.9475,-27.3981
19.5777,-130.6936,92.8272,-57.5170,-32.7589,6.4219,17.5199,11.9666,60.2461,-81.4490,-90.6151,-68.5553,66.3771,28.0560,62.4392,205.3344,21.5723,-58.0747,-62.6947
95.9490,-48.6564,103.6441,-40.5699,-22.0417,-71.3805,-8.3642,-24.3733,23.4864,-44.1149,-47.8258,-1.6058,106.0774,5.0954,50.5657,185.0160,98.4877,-115.2425,-62.7090
132.1283,17.2064,64.5262,-61.5080,-22.7835,-146.4061,-35.5999,-62.5763,-2.4952,-74.7798,-18.9668,59.3540,54.5024,46.2844,44.9022,163.7153,87.0748,-155.0742,-80.4113
108.1504,13.1451,-11.1660,-100.5208,-49.0292,-190.2643,-49.3287,-96.6078,-18.6982,-109.0195,-40.4307,88.0830,5.6373,56.3215,18.7598,143.9176,24.1059,-167.4766,-97.8171
61.1924,-53.0098,-62.4497,-119.9505,-45.3096,-175.8353,2.0743,-87.0885,49.1032,-19.8882,-73.5532,59.2188,15.3751,13.2335,15.1735,152.5660,-4.9239,-120.3093,-34.8411
20.7419,-139.2128,-46.3843,-133.2456,8.0563,-101.6392,78.7108,-8.4228,167.2603,116.1743,-89.4522,-37.3280,16.8895,12.7409,47.9028,165.0466,-10.7064,-38.9364,62.7371
19.6127,-184.1064,-8.0034,-149.4416,40.9032,-44.0324,73.9363,73.3760,161.3474,138.0908,-80.9410,-119.7022,-16.2700,38.8731,46.3925,136.2093,-36.8186,-17.8620,93.5245
68.5103,-149.5620,-13.0426,-159.3566,-10.9878,-58.3652,-15.2692,82.1029,12.5587,55.5458,-26.3030,-138.7558,-24.7455,-0.0625,-5.5618,106.5974,-65.6520,-63.6119,68.0633
103.6891,-71.6609,-50.0870,-170.9107,-94.9828,-94.0433,-97.7600,29.9624,-106.3098,-16.0264,63.9496,-154.0026,7.4213,-59.8379,-33.0308,95.4885,-103.8002,-81.6480,12.1117
62.0869,-12.9355,-86.8473,-165.9136,-115.2953,-101.1872,-135.3030,-25.5665,-127.5149,-21.7251,145.6398,-189.1320,39.1829,-58.5959,-6.6241,44.8203,-193.0784,-49.1340,-109.8682
-8.1974,16.2790,-132.7137,-109.2441,-98.4025,-89.9869,-155.5382,-47.5426,-127.6738,26.6956,215.7102,-213.8283,49.6473,-39.5466,21.4666,-15.5092,-280.8301,-27.4847,-258.6196
3.5905,35.7158,-154.7449,-41.9748,-117.2962,-60.1564,-166.1527,-29.3604,-137.3088,77.3044,291.3788,-243.8844,41.8436,-46.7381,17.1729,-16.6993,-259.2986,-30.0607,-316.7486
124.9628,43.7523,-73.2558,-23.8837,-107.5616,-12.5020,-138.4678,9.9027,-127.2011,65.5985,342.6795,-277.1358,41.6217,-40.9477,2.3827,-30.1361,-125.7586,-24.3824,-253.1125
265.5808,38.0729,85.6178,-12.9389,3.3658,20.3622,-56.6951,47.8764,-75.5743,-7.5654,338.2495,-264.4136,85.0769,-23.1924,6.9556,-108.0469,33.8351,-5.7813,-135.1289
335.7426,31.5191,198.2587,42.2628,111.6848,37.7200,45.8514,74.6815,19.3670,-73.0984,321.5908,-232.1550,135.6361,-33.5436,34.7858,-147.0095,155.6278,17.5640,-24.9067
339.4472,16.0557,226.6345,88.0289,121.3007,59.5708,110.1354,82.9511,97.1740,-74.6133,358.0893,-241.7410,118.7990,-44.1649,60.6572,-116.6031,213.7323,41.5407,46.7273
315.5494,-27.6089,222.9201,72.3644,98.9562,57.6274,105.5900,81.4974,77.3063,1.3362,423.9510,-255.9703,67.6890,-25.1516,48.1398,-113.0356,202.9367,43.9582,71.6562
258.8135,-80.1238,189.7386,28.9143,80.4954,15.8972,35.0227,90.0166,-17.6583,111.5196,431.4430,-227.0424,56.6131,-18.7839,-8.6784,-133.6405,139.0002,13.2498,63.5630
156.5299,-111.7599,101.0995,-10.8374,1.6222,-13.6137,-78.7053,87.9942,-104.1593,149.1647,364.1250,-198.9032,42.0614,-39.1883,-66.7023,-124.6949,50.0340,-15.4298,42.2552
37.2022,-136.1050,-2.9925,-47.2529,-112.2984,1.9306,-164.2835,52.9292,-141.1276,74.2344,297.5870,-200.0510,-20.4852,-34.7554,-82.1975,-137.2369,-27.7721,-8.9350,39.2292
-60.6501,-168.1441,-67.2569,-62.4101,-163.9346,30.0965,-147.4516,40.2305,-110.3621,14.0096,274.9591,-184.7790,-49.2689,10.3693,-68.4950,-182.3620,-73.7783,7.9224,84.2840
-123.3378,-188.9372,-96.1951,-55.1344,-168.7555,35.0284,-83.3923,92.5351,-44.1020,63.1884,260.0956,-136.1213,-20.5054,58.3555,-71.3699,-170.0402,-103.0569,-6.2385,145.9660
-156.1956,-202.8098,-114.9985,-62.7396,-206.1734,13.4559,-105.5146,137.4583,-45.6957,112.1096,224.3158,-97.7083,-47.5683,78.9657,-101.3088,-116.1631,-116.0718,-36.2545,162.5013
-163.2713,-230.0675,-122.5273,-85.9008,-251.7059,-6.2210,-195.8983,123.0394,-116.9670,83.1682,180.6376,-93.0843,-142.0167,58.0680,-134.4834,-127.5623,-85.7755,-29.5211,147.1561
-138.0657,-228.2434,-105.7462,-84.7257,-206.7416,14.4789,-195.9964,124.6795,-126.2670,101.2172,146.3125,-100.2926,-173.2190,1.2683,-154.7818,-186.4309,-36.1838,25.5205,156.2216
-91.2827,-151.2014,-61.1326,-55.0836,-57.7503,68.6305,-71.6544,188.3403,-46.8666,207.1191,135.9718,-101.6657,-105.9983,-52.8813,-148.0577,-201.3202,-24.3446,93.6863,174.9554
-63.8291,-57.2034,-12.0811,-27.5621,88.6522,107.2397,49.2003,236.3979,27.3007,237.0067,144.0833,-103.2899,-15.2243,-70.3057,-95.3924,-181.9994,-47.1765,149.8874,151.8050
-72.6065,-27.2645,-8.9996,-24.6595,146.9146,109.4732,99.2247,218.6554,79.2160,162.1733,135.8113,-103.0564,67.1565,-47.4429,-15.0124,-185.1696,-77.9809,189.9435,103.1385
-94.0897,-47.0840,-65.7049,-47.2806,148.6207,95.7776,120.0994,189.9921,126.1515,143.0828,111.2475,-86.9782,118.6399,2.5762,39.4511,-199.3982,-108.7084,213.3171,85.9298
-118.3760,-65.2276,-112.5850,-56.9598,147.0714,94.5492,130.6213,198.6667,130.7367,183.9353,110.5807,-66.5376,96.2845,42.3582,51.8821,-187.9239,-89.1886,230.0725,113.0157
-132.0511,-65.5730,-82.5000,-13.3333,143.4010,125.4866,128.2077,231.5063,116.9426,169.4371,124.0154,-65.0596,51.1106,36.0163,59.3773,-161.2245,14.5292,246.8670,157.3393
-87.4231,-37.8344,-14.0429,42.7140,152.4237,172.9125,144.4854,266.3131,147.6729,153.8495,109.5309,-70.1127,78.1026,10.8925,84.0702,-154.9532,111.3628,242.9111,190.4730
0.6226,17.8463,7.2360,40.6545,182.2186,190.0019,171.0209,288.0058,171.9870,213.2446,87.6375,-56.6451,142.2313,14.4625,101.5944,-171.1284,103.5644,196.8006,181.6326
27.6276,61.4505,-34.5620,-2.9726,156.9325,160.0987,137.4985,280.0728,122.0383,242.4095,89.4865,-26.0577,139.3401,36.7980,82.7042,-174.1295,16.0795,111.7313,111.2913
-39.9345,63.9277,-98.7474,-32.5641,29.0553,105.5024,32.4620,247.8890,49.1113,184.1063,80.1271,13.8028,61.8959,55.7838,35.0531,-152.4950,-86.0497,4.6209,12.5314
-113.5715,52.0530,-149.8900,-37.1283,-112.2687,49.1069,-71.8664,214.9522,13.7163,142.4528,39.2538,51.6619,-27.8288,71.9337,-9.7485,-145.4011,-142.8656,-82.8537,-51.2548
-124.2598,67.2402,-155.1697,-3.0299,-172.5728,21.6531,-128.7289,182.8218,5.9415,143.0881,1.7007,60.6007,-87.9610,55.0556,-38.8783,-178.6825,-87.6955,-95.6294,-64.3506
-86.1364,111.4432,-108.4777,79.5308,-161.3896,47.2183,-146.7403,138.9078,6.5501,100.8617,-26.1177,35.1562,-103.7132,-13.7295,-53.3156,-225.2129,38.6585,-36.6386,-57.0674
-45.9709,148.3209,-67.8599,147.9074,-119.1278,94.9800,-135.4103,101.0366,-4.5758,8.3234,-66.3113,0.2510,-90.0993,-63.8435,-34.5034,-254.7476,103.8230,38.1773,-34.4024
-40.6791,162.4321,-70.6230,157.1549,-67.4485,118.3643,-98.6835,96.1128,-38.2976,-74.7668,-106.3515,-24.2379,-78.2644,-36.6815,15.6483,-269.3589,103.4770,105.8925,13.3764
-47.5044,188.1187,-59.9371,163.2827,-19.2021,116.9486,-51.1574,101.4696,-56.6484,-115.0461,-122.6227,-13.0108,-64.0855,16.6276,35.3884,-276.1460,135.9778,167.0131,56.3982
-0.4516,224.5182,8.4098,196.8938,34.5150,106.9797,-1.8627,79.8901,-32.6603,-98.2127,-115.6904,50.0427,-26.0238,42.8356,-0.6601,-270.4936,186.8558,190.4641,71.0833
84.8839,197.0750,85.0068,210.5646,97.9789,95.2436,53.1611,55.5028,10.8222,-46.8360,-94.0174,112.2808,20.9637,62.8922,-18.7362,-250.1555,183.5494,163.1092,90.7100
114.9022,98.3827,122.9815,208.8827,142.6235,96.4323,108.7972,69.8494,62.2689,-16.3359,-76.6738,118.1769,50.8614,93.1532,21.7326,-217.3317,142.2228,124.4445,134.1479
75.2056,38.3776,134.8240,235.2182,149.6433,113.1835,135.4293,97.8149,107.2660,-16.8136,-84.6847,105.3759,56.9531,122.9544,61.4617,-171.0624,98.4545,91.2541,157.8842
33.0911,60.6035,132.6728,249.0647,125.1996,121.8002,110.0608,91.7902,102.2016,-25.4156,-101.9758,114.9647,32.7834,159.3786,76.4067,-113.4173,61.2741,37.4019,128.4369
9.4051,79.1380,125.0027,198.4770,80.5517,104.0652,65.3433,54.5194,61.2417,-43.1084,-109.3202,115.8221,-7.8488,196.0671,103.7002,-60.0401,61.9725,-26.8492,63.2329
-9.7849,52.0171,140.7627,127.1477,46.8832,62.0738,54.2362,8.2416,51.3594,-63.4283,-126.1743,102.3780,-14.3181,190.7165,123.7161,-36.2360,92.4126,-47.0052,-5.7224
-3.8717,37.5917,174.7087,83.4519,48.8081,19.8488,67.4576,-35.0307,79.5213,-65.8055,-150.2162,108.1017,29.6991,127.3005,105.8333,-52.7344,84.0783,-11.8490,-43.5880
34.2641,67.1597,168.4218,47.1102,56.7055,7.4681,68.5903,-55.4045,111.7183,-55.8737,-142.3579,108.0500,68.8274,42.5113,105.2959,-85.1018,28.9380,13.7352,-28.9124
56.8410,96.5210,89.4740,7.0854,34.9540,5.9488,68.9242,-52.6456,128.6909,-49.1395,-109.0752,68.1736,55.9317,-16.5610,148.9386,-98.6331,-18.0385,-27.2849,5.5478
32.2545,81.2666,-13.0569,-6.9985,-10.0064,-28.5614,65.9635,-58.1671,93.0710,-53.7467,-95.4964,34.4754,13.1465,-25.8325,157.1765,-98.1618,-34.5536,-98.0464,12.2535
1.5831,54.2884,-46.4314,6.0197,-54.9266,-74.7635,12.5700,-71.1608,-2.6259,-70.2352,-102.2439,53.2095,-10.5092,-2.9734,91.4390,-117.5910,-18.8653,-123.0133,-0.2641
16.4176,98.1184,22.1177,0.7146,-63.4371,-91.7921,-62.9743,-64.8349,-83.6108,-77.6199,-97.0413,91.0261,-0.1371,2.8208,15.3620,-152.8334,17.6591,-105.8474,-7.3242
54.3796,189.4476,106.0740,-40.6556,-16.8275,-101.6819,-74.0677,-61.3942,-118.9311,-85.7167,-73.0190,95.0252,19.2471,-27.7527,-26.7110,-161.0230,23.4787,-103.9872,-28.1091
64.6374,183.0163,110.8967,-58.4322,24.9560,-116.8185,-46.9441,-92.2426,-169.5312,-141.7704,-39.9299,65.2378,28.5821,-56.3313,-41.8244,-137.7758,-9.1951,-123.6652,-75.9280
67.7214,68.8471,74.2813,3.8094,15.2912,-106.4348,-60.8534,-122.8556,-231.0251,-197.1225,-7.5473,49.4851,52.8910,-44.5724,-32.2905,-129.1626,-11.9218,-134.5438,-113.9072
97.1210,30.1262,87.4802,93.1207,20.0991,-84.1851,-69.1793,-116.6729,-218.8155,-159.1887,8.3464,73.8990,117.1739,-10.6480,-3.9861,-161.8976,32.4965,-127.2408,-116.3527
99.5287,119.8433,142.7833,120.1621,78.7739,-79.0704,-6.2823,-99.3484,-134.1511,-100.9608,5.2750,98.7677,178.4181,-3.4939,29.9601,-216.1192,68.5542,-96.3256,-113.4768
45.5342,179.3731,171.8586,96.5466,115.2903,-68.3470,59.0129,-96.5099,-69.5196,-125.9298,-0.7779,95.3567,173.0697,-27.9652,68.2378,-250.2257,77.7099,-45.4519,-130.7053
25.7115,140.9987,152.8027,76.5411,94.4200,-51.5317,58.8371,-95.5489,-65.5575,-148.4319,-0.2361,100.2517,119.1485,-34.1914,92.2239,-230.8063,78.2355,-8.2354,-136.2237
81.7376,86.1160,110.7234,50.7854,66.1919,-55.9878,29.9401,-88.0979,-82.2862,-113.2763,2.4514,120.8583,89.8766,-6.1510,76.5798,-179.3534,71.5029,2.8840,-104.7094
114.1722,51.1600,81.8384,10.2439,41.3429,-56.1881,-9.4803,-82.9788,-88.4208,-133.7216,-6.2087,114.2612,104.4016,4.6623,48.0234,-159.4239,57.4012,4.8403,-86.8852
75.2821,50.0512,81.1393,-10.9363,15.3822,-42.3880,-81.1134,-91.0115,-103.5652,-199.7245,-29.3704,99.2888,122.6336,-15.5963,39.9979,-170.4947,40.7685,-8.2010,-129.1457
48.8068,122.3669,84.9124,-10.3322,34.1520,-56.0955,-149.3810,-113.2717,-139.7661,-167.9279,-40.0961,123.1465,118.2474,-6.5339,25.8316,-151.8613,37.4082,-25.7732,-173.4267
78.0995,197.8910,86.8184,-7.1524,99.2958,-69.1169,-174.7171,-120.3568,-159.9578,-78.6517,-23.0512,146.8989,92.1701,39.1746,-9.2142,-118.0497,80.2632,-6.0087,-152.4196
110.2173,164.0278,115.0373,7.2158,137.2885,-36.8165,-183.1477,-88.4989,-146.4919,-62.0088,-14.5432,119.4989,57.8651,44.0248,-22.8379,-129.5065,141.7314,18.9589,-114.6486
119.3022,86.0529,141.0036,14.6361,112.6361,-32.5960,-196.9231,-61.4847,-142.9534,-82.0359,-32.0714,65.3359,43.1416,-19.6729,-11.8101,-148.1500,128.6428,-22.1993,-131.0396
133.0412,86.4983,96.7195,-24.7055,55.5382,-104.5670,-220.1893,-84.1775,-171.8150,-74.1124,-20.5326,6.3912,46.7526,-96.8683,-31.3300,-108.8367,33.9692,-89.6041,-175.1261
145.5983,118.0341,3.9758,-84.4988,-3.3429,-167.0101,-271.7843,-115.0076,-196.1391,-63.6588,46.7315,-65.8528,16.9315,-141.9069,-82.7065,-55.8407,-55.3260,-109.1790,-194.3813
102.7025,91.1925,-68.3896,-121.7425,-56.6826,-176.8016,-311.3344,-112.6169,-183.5145,-46.5503,103.4491,-126.9392,-54.9823,-137.4553,-101.4786,-46.1068,-113.5163,-110.4184,-182.3772
-9.0554,37.0247,-128.7512,-156.6149,-109.1305,-173.9430,-259.1217,-108.4251,-136.8583,-16.5838,95.7381,-141.0840,-101.1109,-87.6859,-71.2633,-44.2734,-163.5607,-119.2396,-144.5901
-113.5100,-7.8504,-199.6814,-197.7074,-153.9347,-149.5957,-168.7304,-109.8713,-97.2785,-17.0816,48.8643,-114.4958,-102.7332,-50.6478,-49.4334,-15.9677,-187.6290,-90.0788,-105.5070
-141.3829,-69.4974,-235.3762,-206.7700,-166.1576,-102.9978,-173.1658,-81.3209,-116.5607,-26.6179,8.0527,-88.4504,-114.3023,-68.3002,-70.7233,11.2082,-186.0124,-30.4806,-100.8458
-121.7272,-130.2797,-201.0202,-178.7140,-137.0647,-86.5404,-237.7398,-45.3045,-153.0611,-3.1955,-4.5650,-102.3697,-130.6799,-79.0140,-100.0177,11.8929,-184.6235,12.0849,-94.5966
-104.3109,-133.5157,-128.9166,-134.1711,-79.8577,-75.6569,-211.9817,-42.4398,-105.0684,2.6106,5.5054,-131.4965,-102.6488,-38.1372,-94.8305,-5.0703,-155.8649,48.8046,-34.4874
-87.2262,-92.1590,-71.2225,-75.4880,-14.1663,-17.9215,-94.2014,-41.9895,3.3297,-18.5833,5.2144,-108.7401,-60.4688,-29.4831,-60.7275,-9.3775,-93.8887,71.7912,20.1586
-83.5346,-70.7881,-61.7175,-33.7673,16.7312,24.3457,-6.4761,-17.6197,80.6454,7.5133,-25.1777,-65.9043,-53.5673,-105.7476,-21.4502,19.1726,-76.9403,35.9349,8.2088
-120.9404,-88.7048,-90.3206,-55.0209,-9.2150,0.5525,22.2048,2.6828,154.4728,63.9274,-60.8386,-100.0182,-55.3115,-170.5468,19.1211,47.7994,-121.8595,-11.8408,6.1191
-155.8579,-109.2879,-110.2119,-106.2650,-29.2185,-17.0976,49.5645,23.8118,243.5524,99.9143,-77.1656,-171.6843,-46.8546,-146.8644,53.0318,46.1037,-138.7032,0.0334,76.3100
-130.3793,-100.1651,-105.7467,-109.0802,1.4229,16.4973,81.4123,79.7812,248.6191,169.9393,-80.3222,-166.8463,-60.4867,-87.4972,56.4063,58.7681,-88.4916,22.5887,146.1076
-68.2207,-65.1884,-93.1985,-56.0700,24.3415,59.7849,86.0140,146.0598,179.3876,269.2396,-78.4240,-107.9896,-93.0108,-46.3912,35.3407,112.7921,-19.7726,4.7041,164.8581
-15.6730,-23.5887,-64.1130,-8.1428,13.7592,88.1853,76.4038,174.7994,163.3437,272.8330,-77.6082,-74.3756,-109.6283,-12.9878,31.3913,148.9467,29.7387,-2.0953,175.6671
8.4998,6.7424,-27.5573,3.2317,24.7382,95.8122,78.8955,169.2193,167.7609,184.5604,-82.5997,-54.1705,-103.1359,18.1728,49.2620,137.8947,48.6590,18.5645,188.5687
-16.3150,5.4175,-36.4067,18.1284,44.1156,73.4030,70.5164,154.9178,94.7462,148.9948,-77.4298,-25.4853,-69.3651,44.4027,37.6024,118.0806,29.4346,9.0208,174.5990
-75.8442,-19.0574,-85.1334,68.3050,11.6620,44.8560,26.6648,138.1469,30.1168,191.4953,-59.1255,-0.4341,-13.9499,66.2502,-12.2200,101.7975,-18.9251,-38.5376,147.4733
-112.5033,-12.3721,-105.9870,91.2349,-36.6525,22.3788,-6.0462,114.6943,60.3950,209.7196,-56.6348,29.8836,14.0739,53.2552,-21.4179,90.3412,-73.6321,-88.3546,120.6532
-121.1978,38.7343,-97.3776,27.0474,-44.2483,-17.8856,22.5536,81.4685,99.4677,163.8133,-69.6895,49.4042,-9.4859,2.9154,45.0183,103.5856,-104.6799,-122.8829,73.6583
-142.7670,58.3989,-109.9983,-45.5078,-42.9843,-53.6603,62.0123,45.0876,91.7699,104.1069,-70.9019,23.4637,-45.7345,-14.6185,96.6966,110.3236,-95.0171,-114.9212,11.6410
-166.3129,6.8424,-132.1269,-29.7166,-54.0915,-40.9609,49.6918,24.4894,89.5769,83.1246,-77.4312,-6.5587,-56.9732,16.4218,71.7218,75.0251,-75.7348,-56.5778,-36.8871
-154.3878,-37.3778,-112.5477,26.0964,-30.3398,-2.7367,36.2047,27.6872,103.4978,102.0275,-107.5191,4.3130,-23.0418,21.5152,44.3826,47.7184,-75.3846,-4.7158,-64.0259
-108.3977,-0.1614,-45.9079,51.3774,37.4862,37.7749,62.8330,38.8979,104.3898,112.1815,-102.8457,22.3941,51.1529,-1.4286,63.8551,54.5402,-59.5200,12.3881,-66.9307
-42.2259,87.1039,28.2085,79.3124,85.8934,109.2023,45.2380,47.7062,80.2188,85.3446,-18.2870,36.8098,97.5147,19.4087,60.1534,34.2039,-8.0401,45.1122,-40.2492
29.9839,151.3318,69.0291,123.0618,76.2466,196.7949,-40.4745,71.8815,16.0711,52.8883,88.7179,60.0533,76.9079,69.8249,12.1101,-19.4598,39.8438,107.5932,9.3867
84.2896,151.2282,79.6739,128.6886,51.9952,235.9693,-63.3461,118.4260,-56.8961,35.7519,150.8513,44.8614,61.2237,96.1214,-5.8658,-41.8955,77.1564,135.8817,73.2964
128.2612,98.7634,113.3125,104.5687,69.0920,209.9452,13.2586,140.6191,-71.5005,12.4890,174.7297,0.3875,89.9393,118.2026,10.7947,-30.2908,126.3276,99.9506,126.4469
193.2842,60.3401,192.1393,103.1830,107.9339,145.2801,65.4508,95.0561,-42.8230,-19.3151,192.5669,22.3027,106.6308,133.2039,13.2897,-24.4968,155.8470,54.0126,123.2305
264.8216,82.6794,264.5236,111.3228,124.0987,68.7085,67.9774,18.9182,-22.0937,-43.0837,208.8206,86.1287,114.9573,83.8197,32.7447,-32.9595,141.7485,48.9629,57.1677
291.2153,123.8852,287.5959,103.8013,131.7188,8.5302,89.7590,-41.1170,-8.5962,-77.9216,208.9281,84.9870,156.9533,4.3592,85.9020,-60.0948,125.0310,54.9708,-38.5551
252.4954,131.7128,273.1292,105.2504,132.0995,-36.3108,76.5434,-107.5380,-31.6908,-140.0137,189.4461,53.5010,169.8123,-15.2868,86.6791,-95.4266,115.8428,21.3299,-142.2899
182.1241,121.6216,230.9865,116.7291,79.4999,-83.4566,-20.7135,-173.9865,-113.4049,-178.1419,164.2768,65.0447,105.3983,0.3012,14.9699,-100.2304,78.6474,-16.4507,-203.3351
133.1048,110.9196,157.6720,92.4189,8.6061,-97.3662,-74.9467,-163.2485,-143.8238,-144.4007,138.1310,69.4224,43.8038,-24.3162,-26.8570,-86.2977,29.9845,7.0340,-152.8345
116.3180,81.4224,76.4741,16.5734,-2.2623,-53.3002,-26.0064,-83.5883,-60.1135,-90.9928,100.4892,38.5287,30.7311,-65.7994,-12.9783,-97.3910,8.2868,51.8941,-45.9984
85.6300,31.6143,16.7326,-72.7574,1.0910,-20.6926,-4.4864,-43.5283,8.0729,-83.8760,61.0768,18.9397,22.0631,-60.9593,-15.5520,-102.5689,-5.6454,48.0220,-9.9696
17.8956,-32.7410,-24.1329,-131.3120,-35.0543,-39.3180,-36.1544,-50.8663,2.9462,-72.8460,38.5583,-15.5031,21.0144,-13.5653,-17.0365,-48.2780,-36.6098,41.0663,-23.5575
-48.2965,-108.0987,-62.4851,-150.5041,-30.7358,-44.1700,2.9739,-18.7677,36.8694,3.8253,13.0606,-90.8834,47.1405,22.4974,55.9769,33.6922,-67.0055,76.0489,6.9742
-88.6900,-139.5542,-110.4056,-157.1924,15.3135,-27.4878,76.4842,28.0426,91.0251,64.8234,-29.1460,-108.6212,44.1017,3.7976,138.8294,72.7148,-87.9105,55.4739,26.3034
-124.1266,-92.6529,-181.0042,-169.0010,-41.3237,-73.0326,25.7959,-8.9369,14.6309,18.6910,-54.1095,-18.5328,-27.1933,-44.0024,92.9499,47.2001,-116.6996,-85.1461,-48.5756
-162.9179,-64.3549,-260.2720,-169.7029,-186.7877,-164.7705,-117.5701,-102.2960,-144.5311,-64.8812,-57.1018,59.1714,-120.9110,-44.3810,-59.2566,-4.3802,-148.0962,-213.4218,-137.6610
-185.3702,-132.2309,-280.7674,-136.9085,-243.7315,-187.5997,-190.2127,-145.1268,-194.5636,-94.4785,-77.1082,21.2707,-176.2093,-5.9774,-156.0862,-28.2306,-139.4977,-190.3126,-143.6937
-172.9022,-187.0035,-194.0748,-57.5725,-194.7662,-126.7849,-158.9023,-122.2622,-122.6721,-107.3558,-107.1757,-76.0378,-165.4615,-25.5242,-143.3967,-28.9008,-65.3411,-74.8338,-93.8741
-131.4483,-122.4114,-68.3757,58.9237,-154.1975,-66.4102,-95.4457,-86.0305,-58.9358,-142.7538,-112.4521,-111.2500,-116.3704,-92.0846,-120.5638,-49.4925,28.7181,-11.7702,-34.9260
-101.2425,-29.1484,-20.6071,147.7857,-123.6616,-36.4735,-34.0086,-54.4994,-39.1479,-146.1088,-116.3985,-41.2095,-96.2667,-86.7023,-140.3329,-61.5859,68.9523,-35.3176,11.9622
-104.9411,-19.3727,-52.4898,139.2775,-56.2826,-15.1390,15.0354,-25.8170,-20.0360,-87.1058,-156.3455,49.1134,-114.8939,-12.1692,-146.1050,-13.8378,51.1719,-68.4249,14.4777
-104.2973,-59.3581,-71.2419,61.1802,8.5692,1.1604,39.7331,-3.7325,1.7082,-23.9890,-207.9157,48.9077,-122.4781,20.8436,-113.5109,40.9484,31.9768,-47.5036,4.7330
-75.8489,-92.4672,-50.6408,1.1189,36.1190,26.2745,63.4845,30.3184,19.1046,-7.2193,-235.7357,-22.9046,-112.5922,14.3615,-82.6217,47.7416,39.3687,11.7145,63.7341
-52.4590,-125.8116,-32.9919,-20.1147,55.0687,75.6607,110.9193,89.8138,46.2170,-1.5462,-242.5109,-59.6399,-98.5835,37.7555,-62.8296,66.1035,59.0353,57.2089,160.4722
-39.0639,-153.2855,-19.6407,-49.0716,77.7601,100.3064,151.2684,135.4234,69.4860,59.7341,-237.3755,-41.1137,-58.3634,56.2821,-39.3266,130.6158,71.0410,69.5763,202.5665
-11.5610,-155.7574,11.0199,-103.3798,80.8069,57.7930,152.5128,132.7726,77.9993,152.1639,-223.8574,-28.1993,-10.1394,28.4124,-18.4508,171.7406,66.3281,69.4578,216.6111
10.9414,-151.6339,45.3416,-142.6076,59.6922,12.9695,145.5032,115.3292,110.5105,170.0486,-205.5396,-33.7466,-9.9355,15.0902,4.7529,152.5378,65.6821,74.6316,258.3726
15.6620,-147.0789,70.3835,-125.5045,41.6239,27.1196,158.5056,112.9204,159.4633,97.8607,-182.4013,-25.5334,-41.3653,34.3784,36.2436,108.3517,92.7161,72.2488,258.9799
27.7221,-113.3801,87.2807,-68.2376,42.0597,43.3641,152.4029,93.0925,144.0789,35.2165,-162.2397,3.4897,-47.3641,21.2319,50.2605,75.6232,115.1782,41.0250,165.5749
34.5187,-58.0934,87.5974,-21.1491,34.7315,13.3501,105.8611,47.2284,79.3061,25.2255,-152.2875,46.6111,-19.3656,-1.4779,45.4568,85.1646,96.6311,-6.4718,71.3260
18.4704,-26.3963,80.9947,0.0132,-2.3476,-14.8585,74.0800,25.1084,66.8537,30.8341,-137.1205,98.3968,19.5382,31.3847,45.4697,125.1233,64.9701,-37.7881,46.2352
11.0976,-32.2459,80.3238,-0.4088,-42.0672,-26.3974,75.8823,26.2019,75.8285,40.7197,-105.5115,125.2205,26.5718,49.4456,22.7068,128.2485,36.8810,-54.8078,24.4720
-3.1185,-63.9023,52.2340,-39.2169,-52.7940,-62.0625,55.4128,-1.9306,19.9837,47.0292,-81.8334,89.9401,-26.1269,-15.8083,-34.9226,104.3497,-13.2518,-77.3897,-36.2256
-68.2813,-117.6132,-11.1361,-100.0783,-34.4360,-95.5619,17.7096,-43.3167,-14.5714,29.0557,-83.1308,20.4555,-65.3693,-67.1371,-45.8110,128.6807,-62.4001,-101.0559,-83.3601
-121.5588,-162.9497,-46.8774,-129.9871,-3.2016,-99.6585,18.8448,-60.4067,46.8807,12.5677,-82.7025,-10.3344,-15.5966,-50.5754,15.4674,148.4350,-86.2994,-136.4487,-124.0235
-107.6850,-137.3284,-50.6203,-143.1743,-2.6663,-151.5122,17.4559,-108.5293,61.3452,0.5750,-60.2756,15.4168,40.5266,-71.9190,40.2717,59.8921,-151.4834,-208.4608,-238.5146
-112.4331,-43.4103,-91.5619,-184.8879,-64.1387,-271.9785,-44.1345,-218.6712,-41.5529,-64.3689,-32.3169,40.9715,8.6469,-145.3402,-9.2995,-58.9789,-267.8419,-263.8344,-384.6375
-168.5351,14.6929,-135.0594,-209.8593,-120.9887,-329.1418,-85.4975,-283.1143,-92.2810,-150.7603,-14.0672,27.5858,-36.5545,-146.8349,-30.9763,-69.6811,-297.2489,-217.0829,-407.8717
-171.4438,-27.5480,-71.5295,-169.2593,-92.9478,-258.5622,-34.9092,-232.3254,-28.5928,-162.4599,-5.1261,2.5473,-10.8377,-72.3300,10.7728,-7.7555,-182.8529,-100.4002,-297.9224
-109.5909,-92.7920,63.2128,-116.2911,-21.5003,-162.4328,21.2243,-157.8833,-8.7491,-135.3441,-9.6891,3.6414,34.4537,-21.5036,42.1683,19.0006,-57.2097,-7.0083,-203.4352
-79.8102,-92.8836,126.7450,-80.6211,19.0195,-104.4763,11.4571,-127.7552,-75.6625,-156.7874,-33.0815,32.2247,44.2258,9.0996,49.0559,4.4932,-11.1021,56.7416,-157.2605
-85.8667,-59.6644,94.4479,-17.1471,25.4236,-38.2916,2.1615,-77.8162,-95.6253,-189.1025,-58.5159,59.7841,37.1759,55.9288,77.3873,-2.5902,12.6325,116.2225,-46.0831
-79.7385,-39.4211,53.9893,54.1203,5.7359,42.1141,49.7460,27.0278,-20.7642,-167.1646,-63.5669,51.6988,30.2192,71.4829,111.1394,23.3105,54.7812,153.2085,129.5507
-72.5764,2.0681,50.4198,73.2233,-13.7610,86.3984,126.7668,119.6320,76.6509,-95.2831,-58.4285,8.0254,25.2759,35.1910,110.7240,79.5586,80.6811,177.0594,237.9785
-62.1185,59.0701,71.9556,69.4286,33.6127,96.6334,205.3651,163.6026,147.1702,3.4742,-62.3802,-28.3398,28.3998,1.5782,95.7476,136.3509,79.8517,211.2332,253.9378
-32.8813,43.1511,100.2144,74.7344,122.6878,106.3344,269.2374,196.4450,189.0424,76.8837,-63.9068,-39.7649,34.3465,0.2412,91.8795,177.5390,73.2565,206.4193,264.8608
-32.2118,-50.0745,95.8952,40.9092,149.5555,98.2878,295.1583,231.0769,221.2420,98.9310,-51.0582,-57.5145,41.1646,16.0666,89.9760,228.0110,52.8386,119.5209,284.3138
-86.3909,-113.0829,24.7308,-29.0570,123.5424,36.6957,285.2806,239.0130,254.3334,167.1080,-44.1449,-83.2601,48.8346,23.0240,91.4436,289.2166,10.3959,6.6655,260.5646
-135.2265,-100.9618,-66.5195,-50.4061,110.5051,-54.2134,249.3989,215.9533,245.5578,301.8738,-55.6049,-74.8979,35.2492,1.8040,95.9729,316.2401,-12.1708,-63.2381,196.1857
-126.6705,-59.4853,-87.6611,-5.1292,78.6028,-102.9063,184.3330,184.3101,154.3193,310.4279,-58.1829,-31.8188,1.7399,-19.4656,68.2647,294.0002,24.8538,-82.2429,131.4311
-61.7785,-5.3301,-29.1978,55.6785,19.3895,-73.6487,119.8091,167.2116,33.8243,138.8338,-30.2029,6.4747,-4.0058,0.1363,6.1613,258.6655,86.6358,-66.1621,93.3598
25.9499,66.7572,35.0641,119.0979,12.7732,2.2712,95.6176,190.0745,-31.8305,25.0264,10.1839,43.5737,28.8148,40.1288,-32.2727,236.3118,112.1417,-34.8393,101.3742
70.8234,118.0328,62.4258,179.7968,54.6626,77.8148,92.6648,251.4192,-35.9231,71.8168,32.2920,109.6820,46.0505,81.3039,-34.1159,216.9946,102.1844,1.4949,144.5385
51.6108,114.3533,71.8999,195.7906,66.1141,125.4704,84.1334,301.4072,-16.4811,99.0767,26.9269,180.1862,13.0385,141.8117,-43.5065,186.0192,89.2465,57.4342,174.9575
40.1565,75.6591,79.8700,167.7192,48.9941,129.2535,91.4318,307.2060,18.7817,29.9742,19.1516,196.3749,-32.2842,179.5622,-48.3005,156.2453,74.1043,120.2175,168.4040
75.6371,41.5176,90.4604,157.3164,41.7956,101.2837,114.6000,298.5529,72.4725,-4.3529,30.4635,154.3120,-15.0923,147.0592,-10.3314,157.8011,61.6080,146.2742,140.1986
106.9516,36.2665,116.6093,176.7371,47.0119,80.2623,110.9090,303.8297,109.0005,47.5601,37.5576,108.6303,77.3658,116.2810,29.8088,192.4212,78.7964,139.7437,101.2769
108.0773,43.7159,141.7051,161.1170,65.9003,64.8537,75.3826,301.5053,86.0885,93.6246,25.0829,97.5862,137.6490,140.9844,30.4777,229.2468,107.8404,120.0619,46.4939
96.8792,16.4396,117.3982,89.8363,69.7667,9.8933,37.4018,267.3300,21.4773,80.0500,22.0466,115.4130,75.1329,147.1444,32.3071,248.3529,100.6982,59.4536,-36.1539
63.2842,-31.1543,46.6205,38.1340,20.2472,-79.4637,-3.3732,215.9803,-29.9263,45.1043,29.8469,143.0287,-18.6077,109.2087,59.0951,246.5244,71.3910,-24.1504,-142.0895
11.0798,-16.7598,-4.2966,53.4715,-22.9062,-132.1356,-46.8277,178.5329,-51.1711,25.9691,17.2904,156.3777,0.6409,96.4686,74.1137,223.1258,69.6836,-46.3966,-209.9588
-8.9570,53.0326,-1.5837,72.7852,6.7261,-111.7568,-53.6541,171.9010,-55.4788,9.4481,4.5251,130.6618,96.9242,108.0181,65.9421,193.0031,90.8621,-11.4181,-176.6037
17.2568,73.3827,16.9166,35.1425,46.0464,-63.7051,-11.8603,194.4511,-49.5338,-9.3194,17.1144,78.6940,128.4769,99.8092,44.6520,168.0837,98.2066,-2.4182,-87.2502
42.1879,33.5337,6.5129,-18.7075,35.0148,-43.9721,21.2098,228.5117,-52.5348,4.8151,5.0983,40.9837,71.9639,88.0777,6.3853,128.5798,85.7655,-19.0156,-38.3328
28.9244,10.7824,-29.8573,-34.2741,13.8550,-46.7953,6.9147,243.7610,-68.9216,36.9340,-51.1472,20.1746,12.8296,76.6004,-18.2597,66.0811,65.4235,-10.0140,-29.5645
-10.8233,-6.6136,-55.9055,-26.7621,1.9590,-34.7619,-3.4757,225.6295,-43.3368,13.1273,-84.9499,-7.4351,-6.9732,48.2237,3.7853,14.0354,41.8432,19.6309,4.4349
-34.8172,-57.1907,-49.5737,-22.0717,-8.6898,-14.2683,45.2795,205.3481,45.1081,-57.5171,-81.2312,-30.2521,-5.5976,37.8270,32.6342,-5.3794,23.9069,60.1375,65.6176
-16.7231,-72.8768,-19.5782,-16.9340,18.4672,-20.8419,107.4108,219.3978,110.8845,-92.0593,-83.0673,-24.5751,13.7869,54.0159,31.0888,-2.8725,27.3711,110.5420,96.9681
27.1895,-17.5368,26.9465,-14.7268,75.1429,-51.7048,100.3773,243.1943,86.9077,-83.7677,-75.5717,0.6959,50.6927,47.0579,24.1430,13.0588,56.4936,117.5926,62.1240
79.3643,26.5463,91.4355,-18.1265,84.9421,-87.7328,25.0733,225.5063,1.4864,-72.4968,-36.8099,24.4366,57.0250,21.7712,15.3451,28.9621,93.9400,56.5618,-24.4388
138.6869,39.6054,148.9789,-4.8735,38.7373,-133.5951,-57.8595,171.2335,-104.3741,-51.7562,0.3931,27.9534,5.5092,6.1220,-20.5986,18.3450,118.5627,2.1457,-107.0815
175.4912,84.5851,162.9315,37.4731,-4.6348,-171.1562,-110.5740,124.9656,-187.2843,-30.7340,32.6989,2.5625,-31.6817,-29.3610,-66.4701,-13.4182,128.9082,3.8722,-137.1955
156.2282,127.3555,128.3797,84.4062,-23.0774,-161.1191,-118.0312,102.1852,-179.9121,-52.6368,79.9816,-18.7247,2.7238,-74.5170,-93.0019,-30.2415,126.4023,18.4916,-120.2912
105.5619,103.8002,61.2438,106.1095,-29.1174,-121.3646,-76.1287,98.0979,-89.2628,-112.2213,99.7275,2.8803,38.5049,-66.4213,-92.9489,-29.8588,99.2512,14.2906,-79.4476
61.3281,79.7701,-11.0232,105.9176,-37.0008,-97.4677,-10.0969,119.8230,-9.0429,-165.3124,62.4980,43.0898,13.6537,-25.1143,-56.3946,-51.4159,59.0214,8.6054,-13.9350
26.4314,123.4909,-46.2274,113.4917,-54.0989,-84.9710,41.3402,156.6395,13.1884,-173.1068,22.5477,57.9480,-15.1534,-12.4906,-6.7709,-108.0265,35.1094,13.9703,51.5069
9.3029,185.8533,-47.2800,137.0606,-61.6604,-69.3296,46.9762,172.5988,-8.9190,-123.9436,14.2443,48.2213,-7.3054,-16.2766,-1.7250,-154.5345,10.6488,36.9957,51.9834
21.2587,226.9457,-64.8731,151.7313,-47.8777,-51.4300,-3.6703,167.2166,-62.5171,-82.4080,14.9791,28.2979,1.5153,-12.9213,-36.5818,-149.2797,-33.9659,82.4578,-16.1685
50.4725,261.3521,-73.7689,153.7213,-25.8713,-2.5346,-56.4235,180.2116,-102.0556,-104.3406,19.2392,12.4101,16.8781,-15.1863,-55.6639,-116.0607,-33.3765,127.7775,-55.8870
108.0219,271.8424,6.8603,157.5298,18.6865,76.7656,-31.8617,211.9924,-74.9873,-108.8079,37.0113,23.3715,63.1309,-15.8207,-40.2800,-91.5130,62.8861,142.6749,-0.1668
211.0064,244.2753,126.2654,132.0640,83.6739,108.3039,42.0442,216.1868,-17.8994,-44.9766,65.4295,37.6811,85.1918,-5.0922,4.7070,-58.9025,168.2120,129.3043,84.7013
305.8464,215.3980,149.4087,56.3332,95.7158,74.0320,67.0014,188.3007,9.8663,-31.4180,99.0969,4.0127,39.9336,1.8831,57.8650,-18.4507,190.4491,121.8946,104.4966
344.5886,223.4771,97.0447,8.4341,46.1846,59.1044,47.6440,174.1661,26.3336,-101.5892,136.6340,-44.1929,-17.0026,1.3489,66.8226,-35.4196,178.6093,146.8611,82.4979
392.6832,306.9051,110.7553,57.7218,37.6353,78.2778,57.7778,180.9177,48.9082,-115.9493,190.1855,-24.5454,-24.5790,-10.7100,36.6029,-116.1269,211.6184,174.3686,97.2840
