Fp1,Fp2,F3,F4,C3,C4,P3,P4,O1,O2,F7,F8,T7,T8,P7,P8,Fz,Cz,Pz
-189.7691,-143.3582,-62.5653,-58.7061,-178.4491,-33.1633,-64.4215,-97.6355,-17.4348,-151.5735,-99.6033,-153.3413,-39.0279,-51.2171,-1.7786,-17.3665,-80.7604,-56.1372,-75.6426
-106.7922,-158.4265,-91.4364,-61.5761,-113.6868,-50.1620,-12.3727,-51.3406,-22.1538,-15.7943,-79.0633,-110.9847,40.9460,-34.7338,-65.7686,-30.0903,-76.7702,22.1990,-15.8155
36.8610,-143.7540,-51.9843,-26.1981,80.1005,-40.9427,68.3155,39.1415,7.1127,157.1163,-81.3500,-11.2872,55.4741,13.3225,-95.5539,-22.3617,-19.0288,106.2780,88.7851
66.9904,-99.9197,8.6998,-7.2464,230.9724,-19.2795,151.0822,93.8808,64.0193,143.8170,-99.2831,49.1407,68.6867,31.7145,-62.2694,-34.5713,25.6965,144.2470,165.5717
-9.0662,-64.2172,8.9777,-37.6900,231.1028,-19.9490,165.1759,122.0222,63.8171,54.3174,-108.0372,50.3862,90.9203,1.2175,-12.8131,-83.2026,9.0623,162.3761,245.6538
-5.5927,-75.6523,3.5573,-61.8600,177.0817,-9.4454,117.2863,220.1654,13.2309,99.2835,-97.1614,32.1282,93.0993,0.3750,-1.7218,-91.6797,-9.6241,215.5690,354.3578
94.6286,-98.4674,69.5722,-35.4287,176.5334,31.1149,126.1642,323.0931,28.3963,180.6326,-52.2024,6.8868,114.6634,51.2853,-11.9449,-23.4535,26.2647,273.2389,365.1237
149.1934,-37.8958,146.2010,21.5231,216.1449,36.1161,191.4920,249.0671,70.1722,138.1655,42.7128,9.1924,165.6115,87.0635,-0.2854,36.2676,78.5195,240.2250,182.0784
150.4761,99.1818,159.6681,85.0056,225.9402,3.5901,162.3422,52.3110,-16.1307,58.2106,153.0483,66.5221,175.0307,96.0467,10.7339,21.4904,96.9060,107.1767,-64.2657
198.5459,187.6565,134.4910,142.3937,161.2244,26.2588,29.1668,-22.0719,-169.8812,66.9391,215.7610,120.2092,126.6541,105.5939,-23.9968,-26.3888,87.0400,-18.7443,-184.3709
276.9601,183.6082,90.9552,182.3196,46.4636,100.6712,-67.8549,62.9272,-197.3616,125.4877,218.5453,135.6558,78.7405,99.2165,-64.3377,-46.4155,72.9664,-61.7250,-156.5759
281.2178,159.9627,28.0196,212.0320,-49.8597,131.7854,-106.7357,135.8532,-105.3724,150.5340,186.0694,163.1754,55.6936,87.1704,-44.3146,-26.4135,72.6638,-54.0866,-68.7322
192.4919,154.4968,-5.3159,225.5571,-93.5326,110.4421,-139.2633,140.4772,-35.8735,144.0113,125.2568,198.3810,42.0872,107.9056,-7.7868,3.8516,88.1157,-40.4273,32.9205
105.0152,168.3887,5.8086,193.8821,-79.8845,88.6942,-120.0703,153.0343,-26.8119,156.3764,53.3342,192.9273,29.7312,132.6265,-26.7140,6.7316,88.9710,-2.9702,147.7606
109.8079,216.6044,-2.4741,143.0418,1.6653,77.8425,-31.5018,196.9045,-30.3769,189.6596,17.6849,183.6413,28.0443,124.5794,-45.6641,-5.8514,61.5680,86.4739,252.5027
183.5782,253.4882,-26.9814,134.5084,122.7201,79.7052,43.6430,244.2032,-17.1829,202.3019,35.1097,196.0906,63.0789,101.4511,-0.6096,11.2908,45.2046,206.5937,296.1545
222.0719,215.6081,11.0125,151.3724,234.0063,93.2335,95.1308,277.6732,-10.8571,208.6680,72.8668,161.9634,128.7065,66.2548,20.5769,47.6895,59.2782,309.2049,271.5061
192.4567,156.9517,99.5789,146.5335,341.0786,101.1444,184.7876,281.3029,-66.1284,236.9274,107.6998,90.9028,163.5005,42.6151,-48.9941,54.2244,82.8933,364.4207,255.4616
170.2850,165.6679,159.3151,155.8067,428.0326,128.3169,274.2578,265.2575,-152.4599,218.6661,144.8047,98.3999,150.3310,105.5101,-94.4189,27.1045,134.7574,353.7169,304.7092
203.4596,232.2136,181.9843,212.6333,397.7962,192.5716,259.4562,259.8116,-149.4366,123.6260,178.5437,185.8256,145.7031,211.9868,-36.5248,0.6451,224.9824,257.8110,338.6290
247.5643,300.3109,180.7463,247.4144,234.5334,216.9224,126.8232,247.2134,-45.1061,76.6765,178.4181,234.3663,154.7579,219.2092,17.2206,14.0990,255.1492,99.3451,244.1884
253.4872,308.5282,124.0709,201.7004,66.8632,162.2934,-30.2980,191.3435,40.8718,132.0793,123.2154,215.7132,126.1139,153.5365,-0.9894,79.9818,160.8050,-51.1584,59.2038
215.0062,216.1618,34.5929,131.5739,-20.3331,120.6629,-112.9909,106.3069,44.3236,160.7439,42.8694,201.5440,78.3352,155.7002,-6.3004,124.0580,62.1333,-155.7735,-84.7089
134.7620,102.9632,-5.6523,106.0175,-54.7331,135.8430,-118.5720,24.5012,-11.8582,100.7412,5.0991,210.8380,64.6677,199.7374,31.2053,71.0116,64.9728,-221.9605,-140.7537
42.7429,77.9028,-5.7426,104.2207,-67.4501,136.6808,-121.4908,-25.9663,-74.1833,44.1749,30.6569,201.4335,60.9199,176.9327,23.9159,-1.6615,78.2113,-229.0633,-142.5601
16.9992,87.1744,-47.5815,80.4850,-74.2035,103.4836,-141.1876,-15.3260,-76.2289,39.3098,52.6710,165.8788,28.5376,118.7976,-56.6303,4.4134,31.8511,-155.7937,-101.1917
82.8144,52.5722,-107.7643,47.9912,-70.6274,79.2683,-120.4302,28.9928,-48.5026,41.3943,13.9813,135.7860,-1.3465,99.2495,-135.4529,19.0930,34.8197,-48.4342,-7.1828
147.5855,48.3340,-84.7574,29.7664,16.9143,51.4141,-24.7518,44.2304,-82.8143,23.7049,-37.4525,123.6033,7.6382,85.7267,-149.3782,-27.2792,124.5531,46.7700,121.3329
139.5005,110.1541,1.8285,0.5344,207.6738,-5.7762,129.4503,48.6026,-101.9120,7.1631,-28.6912,123.9188,45.3886,22.9881,-104.6914,-52.9040,151.1022,128.3580,226.8776
115.5147,130.0275,29.4605,-39.7301,345.5584,-59.6465,267.9162,78.3614,-3.0761,6.0236,13.2552,138.2853,92.9206,-56.3809,-52.7567,-19.0539,67.4163,156.6152,232.9962
132.4383,70.6305,-17.2055,-30.6013,308.5355,-76.3133,275.0245,61.7984,60.0575,-27.4439,21.2317,149.3440,137.2191,-67.9224,-23.7147,-5.8287,22.8194,80.6967,132.1118
151.8986,12.6603,-37.8821,19.9301,202.8246,-66.4191,166.4377,-49.2256,-11.9709,-128.7810,15.6986,127.4136,163.5581,-1.7795,10.9126,-29.4565,73.0955,-45.2338,36.5912
150.1855,9.7988,-2.4592,18.7880,160.0969,-63.7063,107.3106,-151.1748,-26.6691,-187.1284,48.7877,96.0949,166.4112,36.5563,56.2098,-38.8777,105.6359,-134.9639,26.5201
157.6550,76.5759,26.4749,-31.5198,132.3920,-87.9128,106.6582,-162.6835,28.3999,-107.8742,89.5341,103.9722,138.6860,-16.7621,46.6454,-38.9333,72.7855,-191.7158,12.9617
172.3838,180.1582,21.9961,-41.6984,40.2077,-116.3251,-0.8384,-150.0123,-93.5628,-41.1177,92.9416,135.9175,72.9223,-85.2373,-30.3558,-51.2231,28.2871,-229.6237,-91.4789
186.3099,220.2497,2.3100,-34.0325,-64.4115,-126.4627,-175.2159,-171.6689,-293.2289,-105.9166,93.4165,151.9286,5.6332,-109.3406,-89.0125,-68.6264,-11.1730,-205.8266,-179.0674
223.7680,177.2586,-19.9470,-88.0114,-90.6235,-141.0066,-192.3263,-181.1033,-244.6091,-121.2626,121.0569,150.7453,-7.0286,-124.1137,-89.4952,-82.5274,-40.5643,-117.1664,-112.2226
252.7722,144.3896,-14.6493,-154.0355,-37.6813,-159.3403,-48.7248,-133.8319,-56.4425,9.4852,137.7431,125.9105,24.8641,-124.3300,-73.0353,-69.7854,-28.6662,-32.0225,31.3531
209.8337,143.6466,29.5612,-143.7874,24.9980,-137.4208,60.8961,-51.7526,-7.9026,76.4426,115.9264,74.1864,50.2390,-79.0251,-47.4612,-33.2078,-9.0156,11.8243,73.7840
131.5488,143.0615,43.0654,-75.1022,61.3357,-84.3743,80.4182,32.7134,9.4132,36.7680,66.4141,41.8094,68.5718,-39.9783,1.2470,-26.9463,-40.8810,53.2561,13.8824
86.7510,173.7766,-7.1804,5.0533,123.5410,-37.0668,109.4672,118.5823,117.2502,126.7251,5.1277,42.9192,102.6463,-33.4488,29.7851,-22.8386,-74.6091,138.2990,0.9571
64.1283,212.4224,-18.1232,74.9944,260.7141,25.0691,207.1347,206.4052,122.0303,325.0494,-24.4135,36.9056,134.2290,5.2771,6.0448,63.6508,-24.8352,232.4941,80.1886
63.2936,172.1453,76.6108,102.3563,399.4570,94.4734,320.7033,253.8448,7.1385,341.9728,10.7580,39.4949,151.9413,73.0036,-15.0192,146.1290,85.8431,247.9998,153.1995
124.2239,107.2261,175.4727,94.5389,435.9487,104.2883,351.5766,213.7070,45.0577,170.6668,59.4828,73.2671,180.9105,93.1592,22.5394,82.1312,171.6316,186.6723,167.0611
205.8663,129.2696,181.1389,95.0980,399.5367,69.3822,290.5006,116.9159,217.4630,65.4539,81.0798,74.6693,210.5620,70.4894,85.7204,-29.8447,176.1017,147.1461,147.4491
219.6186,181.4447,131.8525,83.1865,361.6731,53.4626,229.1024,40.5080,228.3972,72.6340,109.2756,34.2670,199.2512,44.1464,113.9224,-25.3463,97.8188,146.9685,89.6274
154.2435,162.5406,82.7875,31.0508,286.4472,26.0442,192.9896,13.5358,98.2423,64.9410,104.1748,30.9441,162.6560,-1.7233,116.5672,31.6154,16.9384,115.8754,16.5228
62.3519,101.7773,32.2857,-5.4879,153.3368,-31.4424,138.4363,29.0100,99.6216,62.4077,-16.0355,43.2927,146.7512,-41.4557,134.1636,29.4065,23.6482,66.8925,26.3552
19.8969,63.6757,-9.2735,-3.4517,58.9069,-32.3416,91.7788,73.1481,201.9527,134.2045,-129.1624,14.5291,141.6435,-8.1184,130.9072,14.7698,67.4066,53.2171,99.6806
72.9379,65.4061,-29.3704,-25.4210,35.5923,31.2212,66.3372,98.5636,146.8236,188.0999,-42.8355,14.2133,113.6100,55.4500,46.9448,37.0449,21.7403,30.6916,82.6394
125.5876,87.2813,-75.4145,-81.1108,-6.8647,44.7358,0.6589,83.1735,-38.3157,154.0391,143.4633,50.9094,70.4538,49.6575,-53.0326,57.4640,-105.6308,-30.8300,-17.8975
46.9537,71.7726,-185.6793,-121.5872,-69.4470,-6.8047,-59.5290,86.2943,-86.7973,140.4983,188.6399,-1.7979,39.6112,-1.0101,-53.7391,56.4195,-196.1780,-59.4845,-45.0998
-80.9205,18.2949,-293.1428,-142.1718,-59.9207,-27.1551,-15.4188,125.0676,38.2058,188.2857,104.2243,-114.3868,32.4368,-12.3520,3.9248,40.1115,-200.4676,-42.3677,-8.5621
-88.7977,18.0884,-300.9215,-142.7980,-5.2052,-10.6026,45.0182,118.7027,119.3719,171.0159,54.8999,-127.9372,39.9139,-9.4468,-9.8529,8.8641,-156.8653,-63.1366,-26.7248
-19.0935,67.4786,-226.8320,-105.1684,-6.4867,-28.9815,6.6880,51.6289,56.8479,88.1025,57.3232,-75.8883,33.5078,-48.4492,-83.8449,-2.7660,-114.6368,-138.3041,-78.4726
-7.8069,50.9270,-176.9598,-72.7070,-58.8433,-74.1877,-58.3605,6.8614,-37.0726,87.1132,46.9946,-86.0938,-0.5727,-74.0932,-108.9142,28.1520,-113.5119,-211.3764,-118.7406
-24.7842,-17.8788,-183.4159,-92.7847,-102.2325,-83.8338,-90.1780,7.2105,-44.6451,150.6357,46.3155,-124.6881,-29.9628,-35.5638,-79.6076,47.0289,-150.2521,-246.4835,-179.7090
30.3163,-8.6894,-169.7316,-111.0398,-107.2579,-60.3836,-118.6941,16.1200,32.2585,151.5027,95.9647,-119.4205,-20.5600,-10.8840,-69.1979,10.0191,-161.0363,-205.2451,-198.0005
136.4506,85.6597,-93.0359,-67.6836,-44.5247,-47.2785,-88.2191,34.7850,86.1995,118.8528,160.1891,-89.4758,17.6529,-47.4927,-79.8225,-34.9785,-114.3729,-77.2965,-92.4066
184.4021,153.5118,-17.8424,-2.6133,61.1940,-40.8455,22.0386,47.8228,26.5346,118.3325,170.7053,-51.2786,53.2059,-65.7126,-60.3927,-33.4166,-71.0924,38.8745,24.4914
110.3622,130.9933,-11.3436,22.1225,115.4204,-22.0079,81.6756,14.9051,-58.8595,105.8898,108.8463,-17.3407,67.5647,-46.9735,-18.3732,-13.8971,-88.8989,64.3785,55.1927
-19.3280,46.0667,-45.7329,-4.3394,121.4994,-22.7045,81.4750,-14.6650,-9.8587,76.2813,38.5576,-17.7936,71.2518,-62.7811,-5.6433,-28.9270,-137.0756,74.3607,95.1555
-72.7040,-21.2906,-50.1044,-60.3161,168.7285,-60.0969,146.0101,27.2844,111.5338,56.4107,38.1642,-19.2198,90.4815,-79.5986,-16.9518,-56.6861,-157.0540,130.5859,153.3253
-30.8742,-19.2103,-17.6369,-98.4444,210.8750,-77.5293,199.5905,65.4123,92.5410,2.9859,91.5140,17.8486,110.2680,-34.7775,-7.8150,-41.3236,-143.5542,139.1102,87.2813
19.7213,15.8544,-6.5806,-69.0437,136.9836,-49.0278,85.0772,0.8479,-66.2533,-42.7567,116.7646,50.0276,77.2744,-10.2290,-10.0490,-2.2303,-119.5334,39.2528,-63.6912
61.8472,38.1262,-32.1364,12.2245,16.5452,-25.1554,-93.3888,-92.5023,-150.7316,27.6594,94.0066,58.4433,-0.8721,-49.5308,-87.0719,3.6341,-87.5941,-57.2426,-108.4609
120.4381,57.8286,-32.9692,66.0729,-10.2512,-10.8825,-146.0674,-84.7339,-88.5378,124.1784,72.5369,79.6916,-49.0663,-40.5841,-177.5553,-11.1609,-55.0487,-56.5844,-45.8526
149.6915,75.1114,15.3465,51.4727,36.5630,34.7328,-84.5697,6.6231,-43.4341,103.2201,74.8577,94.9074,-41.9025,33.7527,-173.4856,-14.9303,-47.1484,-19.2915,-12.9631
126.9002,81.6506,55.6989,30.6223,69.9899,76.9298,-8.7907,79.0776,-118.3827,51.3463,80.5767,81.5007,-19.3928,57.3372,-113.1921,-30.1982,-46.3166,-3.2706,-18.7767
107.5563,110.9538,68.4497,78.2766,85.2938,65.1246,31.4209,103.8696,-175.5612,56.5311,86.9515,87.5011,-0.9404,26.1125,-82.7290,-53.7707,2.3425,31.6065,7.1923
113.9050,159.8415,104.5194,147.4328,95.0343,37.8081,19.4321,113.0825,-94.9964,26.7253,118.0825,120.0973,20.3488,10.8067,-49.2262,-35.5593,81.4545,93.7156,44.4767
140.4805,165.0438,163.6216,137.6894,90.7291,32.6782,-2.1039,114.4184,-19.9060,-35.9397,172.8093,121.3275,42.3142,1.4935,5.8512,11.4204,105.2853,134.2617,26.6222
201.8276,127.2217,185.1584,78.9823,100.7683,32.0505,22.7948,99.8771,-76.4840,-5.2440,212.5516,83.5873,63.5443,1.5664,6.4845,29.0507,64.9325,169.3326,-29.6210
246.2569,106.1610,165.8646,73.9480,147.9850,39.7839,54.6358,80.7922,-99.7471,86.6589,214.9957,40.9598,82.5573,43.6123,-30.1928,22.4640,41.6618,229.9261,-42.9592
200.0621,103.3436,153.3293,101.4569,187.7433,57.9760,43.6352,63.1784,10.5636,112.0007,190.9611,10.0977,92.0580,65.9674,-11.9903,24.3062,62.9969,248.8320,1.2586
126.7722,86.1363,153.7715,84.9988,186.5305,48.5646,38.4323,39.6812,40.2443,72.4762,149.0319,7.8418,98.7658,18.9215,12.0180,25.4680,78.3378,187.9816,35.6741
128.8376,65.4276,146.0449,60.9457,182.3109,22.5427,76.2100,26.0289,-94.2953,34.5827,110.0757,32.2593,109.4973,-16.8607,-35.7442,14.8048,73.7094,137.5625,40.7724
171.5222,72.3743,134.7110,77.7609,188.1093,29.9771,96.8759,36.3827,-163.4536,12.6538,115.7436,53.1442,107.6795,10.8711,-63.9350,0.2608,88.2275,131.6776,51.9635
174.2459,114.6889,129.1525,80.3265,138.5916,49.9169,46.0751,31.5470,-93.9007,-16.4701,149.6432,72.1042,84.2367,44.6097,-12.5061,-22.8920,125.0496,82.6067,48.9751
140.7601,165.2519,120.3645,50.4865,24.9011,45.9984,-35.8844,-13.4983,-51.2534,-71.2495,150.0029,104.9066,50.9183,53.5548,-3.3298,-55.9794,148.6799,-3.2994,18.2893
132.1408,184.8661,108.1936,65.0859,-35.9054,48.8534,-57.8421,-33.2190,-59.3916,-98.6402,144.5833,130.1190,14.3716,61.2769,-83.9177,-68.9245,159.2188,-11.8628,37.1793
205.8397,170.0419,112.9939,119.6109,15.3729,67.8147,9.3040,20.0669,-33.7143,-24.4310,202.0218,131.6078,-12.0415,61.6155,-124.8751,-32.7809,178.1252,42.9298,116.8354
318.4896,135.9258,133.0980,112.7222,69.8276,56.4357,80.3539,67.8019,4.3459,77.3143,258.3280,114.4554,-5.4691,30.1968,-71.5035,26.2434,180.2423,38.2372,142.8165
312.8044,78.8569,121.2584,45.6533,49.7301,11.6374,72.4817,33.5905,23.9126,86.4278,214.2457,80.8230,24.0871,-16.0529,-11.6321,40.0535,134.5238,-22.4439,89.3880
166.4632,16.1470,58.7730,20.8704,31.5620,-17.1728,28.2518,-19.4952,20.4970,66.8063,132.7687,60.5775,42.5768,-24.7831,-3.6433,-3.4695,79.5857,-21.6570,53.7991
83.9060,-23.6267,17.0909,44.3388,64.0173,-3.0780,24.1452,-1.9711,-23.5925,101.5000,116.6224,75.0458,37.5014,13.2688,-40.7197,-32.6121,63.5129,67.2545,60.0607
145.3212,-50.5694,50.5921,38.6266,84.0229,36.4155,41.8706,60.0937,-36.3754,92.9878,126.2793,76.5929,16.2948,35.2722,-94.3387,-14.0168,69.4250,150.8189,60.3613
164.3756,-38.1526,91.8301,25.0515,70.8604,58.3601,31.0787,97.0720,21.5353,11.0708,98.7807,56.0288,-3.8850,25.8499,-104.9259,5.0919,79.5209,160.0656,56.4868
53.7501,66.0566,72.4985,78.2552,70.1060,42.7604,8.3893,103.3663,25.8454,15.2141,68.6473,81.9725,-0.6109,46.3513,-50.0370,12.0272,107.3509,123.9284,61.4216
-33.3330,166.4888,38.8354,139.4030,81.0609,19.2731,20.0928,95.6612,20.6314,126.5855,58.6229,130.4962,23.9854,64.8763,5.3459,33.3694,122.0910,91.6118,52.4156
-4.7980,132.2923,34.6492,98.3694,77.6642,-0.2699,55.6015,58.7165,220.0814,161.3679,34.1135,109.2074,47.5267,-2.5812,16.4836,42.6609,78.8598,45.0596,11.1047
69.8472,63.8531,20.5647,7.4179,54.2044,-38.5958,43.2116,-7.4444,461.4991,79.0807,9.9247,65.4922,58.4334,-69.1949,0.6089,13.1124,15.8919,-51.4454,-64.3489
136.3674,96.2628,-14.6526,-7.3149,-8.0621,-62.1470,-42.9445,-60.6957,418.5856,20.3467,36.8254,96.9686,40.2133,-18.4136,-41.3903,-19.6927,-6.6256,-152.3394,-137.7836
169.0565,126.1508,-19.8193,39.1246,-89.6332,-17.6005,-112.3718,-79.3556,276.3898,10.6205,81.7439,146.3185,-12.9968,55.5928,-91.1208,-33.0437,8.3926,-173.7903,-145.6934
122.4800,68.8587,22.7623,63.2761,-96.7446,43.7326,-85.8255,-93.8132,326.5352,-39.9302,64.0719,128.3356,-47.1325,46.9087,-84.7648,-38.0248,47.8516,-115.5376,-116.7155
49.0915,47.7135,85.9659,74.1276,-4.6831,40.0699,-21.1134,-126.8822,355.2348,-116.8425,10.4960,101.5124,-19.8612,12.6839,-43.9183,-37.4096,104.3422,-54.0215,-149.5094
94.9441,103.9792,142.0070,99.8913,84.0204,-3.3113,1.1066,-152.9596,182.6762,-148.7297,43.4035,141.1606,21.4202,-6.2694,-55.9951,-47.9462,133.7851,-30.9131,-220.5423
259.2534,121.4162,165.4458,102.5745,101.5518,-18.7954,-10.1941,-143.2575,62.5333,-147.6966,177.3983,196.7855,36.3157,-17.1950,-81.1834,-72.0744,119.8014,-17.1066,-224.6068
349.1476,92.2819,160.8034,71.6774,86.4850,0.4574,-34.3131,-108.4888,114.3849,-111.5711,260.7069,182.6011,54.1207,15.2208,-26.9067,-63.8380,113.1285,20.0314,-176.4516
268.7909,97.0814,165.4701,64.0121,83.2414,30.1120,-58.1960,-68.0579,179.4296,15.7665,207.0617,120.6735,82.3100,54.0673,44.9393,-33.6346,133.8317,68.0113,-149.3330
162.9344,116.7541,174.3175,102.9521,98.2834,56.9784,-27.3120,-18.7100,257.0519,161.1239,134.7018,108.4120,95.9349,33.9983,46.1238,-44.0013,144.7096,95.0881,-128.7079
172.4563,98.7833,146.2332,141.2752,118.0558,77.2459,47.8247,29.4523,392.5634,165.1771,155.1293,156.0584,103.3611,42.0724,35.5954,-52.2235,123.3406,78.6952,-97.6091
229.5073,48.4483,92.1008,130.7471,102.5804,93.4989,51.1146,35.1936,431.7113,58.4222,200.6332,172.8471,104.9046,125.8323,57.6076,17.1515,69.1312,6.9251,-101.1497
213.2357,-14.5853,48.4283,71.4886,29.6870,103.9475,-36.3928,-4.4011,301.5653,9.1858,184.6444,136.5309,75.0872,152.3741,48.3820,103.7708,1.6755,-89.5310,-141.6497
146.3324,-52.8916,9.0058,-1.1396,-48.0764,104.2548,-90.6531,-29.8920,141.0596,51.7153,142.6318,110.9139,36.7088,102.9326,10.9556,119.5502,-28.5590,-132.2212,-171.0879
115.3881,-21.2719,-28.0506,-50.9384,-66.1716,95.7106,-67.2942,-20.3937,69.3297,97.8018,121.3133,110.0794,28.2685,93.6919,12.6755,67.7530,-14.0511,-93.4766,-185.4444
121.1270,57.8421,-32.9626,-56.2610,-35.0558,69.3962,-38.1052,-21.5773,101.2339,75.4471,109.6852,121.9148,31.1367,83.8350,25.2699,-11.7480,-10.0681,-32.5703,-197.3311
104.7293,112.3583,-17.1334,-21.2546,2.7239,29.0605,-15.3492,-22.2903,144.4328,-23.3732,110.4538,153.5773,28.4561,14.2125,3.8712,-35.9673,-32.5934,17.8170,-160.4612
50.3743,94.0435,-34.4573,3.0781,47.0948,18.4274,41.3230,48.6880,59.5195,-79.0210,124.1423,142.3337,36.8151,1.1450,-8.9594,50.7180,-54.7002,74.2220,-29.2658
1.9188,10.9892,-92.8260,-33.1680,100.3854,44.4028,100.8624,160.3331,-84.3698,16.1146,97.8118,42.6711,46.1891,69.9411,-7.6870,110.8098,-73.3961,108.0512,130.2620
-10.1264,-58.8371,-143.5746,-90.8279,120.1389,45.0273,109.9179,198.4425,-70.1231,108.3589,7.5086,-24.2534,41.8712,88.9158,-36.0235,19.6480,-74.4742,90.5578,192.3357
-19.8123,-52.4500,-150.0907,-98.9501,95.7607,6.1151,90.8692,157.5244,74.9510,53.7753,-82.1966,20.1514,47.9182,46.7221,-41.6999,-65.8138,-41.5542,65.8813,146.0780
-54.1029,-24.1384,-113.4666,-73.9575,82.1461,-17.2829,87.5114,119.1292,159.8597,43.3862,-104.5844,49.8094,71.6213,14.5448,39.9466,-10.5395,-17.7303,44.4939,93.4799
-57.2713,-29.3959,-48.9479,-55.8979,77.5641,-11.8402,87.6638,89.6617,178.5731,167.1554,-56.0221,4.0505,83.5100,-1.3940,133.0292,44.0291,-15.1006,-23.5020,67.6498
10.1891,-13.5383,14.1117,-22.1685,17.4153,-0.5295,66.9575,46.9173,186.5760,170.7278,26.3128,-13.6071,72.7123,28.9609,147.9777,16.5202,20.7813,-107.0556,34.4285
72.2068,38.1669,23.1775,16.5832,-55.8136,12.2164,45.7419,36.4828,135.5072,55.4541,83.8802,3.0022,51.3785,95.6841,109.2584,9.5508,56.4368,-133.7196,28.4218
57.8289,46.1633,-37.6090,-1.1485,-38.1730,5.6819,43.6529,67.0378,65.1540,102.2859,79.5763,-21.0677,31.0175,73.3831,56.2000,4.2838,19.4169,-127.7972,67.6945
13.1561,17.4010,-84.9848,-40.7550,27.5091,-23.2721,39.0218,62.1664,82.3434,173.2572,53.2418,-35.0392,21.6038,-18.5940,0.3107,-73.8329,-5.3931,-111.1005,73.5411
-0.1691,34.9057,-28.4889,-8.1748,53.6397,-6.9845,35.7406,15.7924,116.8288,-15.0744,63.9513,20.4683,21.7449,-2.3771,-20.1975,-111.0255,78.0477,-24.2449,59.7486
13.2269,86.2820,86.7893,68.9740,95.0026,71.9024,82.0712,20.8994,26.5294,-191.9349,98.4238,76.3377,31.6123,100.5720,2.2945,-18.9595,167.1623,105.7094,131.1393
38.8127,110.7844,139.1674,88.1307,171.3066,117.9675,151.2781,89.3298,-152.9844,-73.4165,114.0984,73.2832,61.4483,126.2130,17.8533,80.6738,152.4741,144.7652,209.8763
66.4011,112.2223,103.0502,43.7701,156.6475,81.0033,138.5553,110.1443,-261.2216,35.7257,109.7689,30.6554,82.1892,82.9024,16.5261,84.9419,98.7998,72.0739,141.4845
74.6312,116.0879,61.0043,18.0679,47.3136,18.4589,47.9567,27.3198,-217.1745,-88.0260,98.6799,-17.0843,49.5976,45.5590,12.8719,27.7070,93.7677,4.1224,23.7149
83.6992,140.2843,83.1981,59.1594,-1.2985,-19.3572,2.8228,-70.5623,-108.7492,-171.7941,94.1211,-23.1925,-1.5135,-2.9222,-25.3114,-34.7205,137.9435,0.8131,27.7750
140.0189,191.8253,153.5618,119.2380,19.2890,-29.8551,24.4313,-87.1353,-66.2527,-78.0205,122.1750,18.2023,-12.3728,-41.6699,-77.7953,-50.8841,186.2746,5.8204,76.2879
207.2373,207.7836,185.6712,104.9513,-10.0667,-29.8760,13.8954,-53.8492,-57.3096,-2.2750,163.5432,21.2069,-4.7155,-24.4415,-39.6877,-0.3473,167.0350,-43.6296,39.2045
179.1221,115.2925,120.2430,14.0726,-76.1085,-40.2169,-38.7074,-52.4656,19.1839,-14.2062,146.3994,-57.6634,-7.2971,-0.7688,79.5703,48.7898,64.6406,-123.5543,-21.8522
24.6638,-29.6994,6.7572,-49.0670,-96.3451,-44.7807,-50.1366,-75.9588,85.6337,-35.3945,64.3446,-139.5634,5.7748,-11.1407,125.3572,34.9805,-28.5997,-155.7361,-27.6544
-154.6411,-106.8773,-73.9320,-50.0863,-80.6642,-24.6657,-19.6616,-74.7380,27.6812,-51.5630,-10.7218,-151.1892,27.2403,-22.0982,52.8028,-5.8678,-68.0461,-129.3997,-19.2877
-231.4406,-96.9474,-118.2080,-67.7429,-60.0566,-34.2213,-14.1346,-59.9549,-56.1205,-28.0438,-51.4808,-105.4943,19.3675,-33.3510,-10.2923,-15.4340,-111.0970,-104.6033,-28.9010
-192.7160,-70.0221,-147.0576,-121.7624,-42.9281,-97.7675,-34.8737,-44.3491,-51.8158,69.5347,-75.4854,-64.9205,1.4598,-62.8880,5.2663,11.7968,-152.0406,-82.0169,-27.4094
-137.8396,-67.0369,-138.8954,-143.4114,-51.8067,-117.3357,-36.6179,7.0308,-43.6758,145.8242,-69.5993,-79.1786,0.1518,-77.0524,27.6041,32.4357,-126.8853,-24.0195,-1.9068
-125.1956,-69.4473,-86.4427,-115.1444,-58.7371,-46.2825,-6.5787,78.2417,-102.9337,135.1709,-43.3462,-111.0668,-6.0434,-52.0716,5.8236,9.7229,-50.2943,26.5157,30.7778
-107.1272,-68.8213,-27.1910,-82.2657,-4.0006,13.9347,39.3895,106.5595,-134.0966,123.5162,-55.4394,-101.9792,-15.1338,-15.8395,-14.1554,-12.4461,31.3498,34.9378,54.9899
-58.6365,-100.0041,0.9288,-68.6944,64.9310,1.3023,65.9566,113.3784,-67.7962,161.6882,-97.3290,-109.5636,7.7646,-4.9583,9.7558,26.4633,90.9026,69.0346,61.5475
-42.0867,-149.1131,-19.3293,-60.7603,54.7270,-23.7722,34.1634,152.3168,6.7842,188.9529,-93.1646,-164.7127,52.9944,-20.1095,45.1224,78.1558,75.0283,139.3154,39.3084
-90.2035,-126.5677,-67.3450,-28.8528,-7.6746,-9.9982,-30.9980,173.9014,-14.2433,180.3962,-55.5307,-116.9615,74.7703,-12.2081,44.2906,73.8478,-10.2112,135.2189,-16.0344
-155.9907,-42.8704,-99.3476,20.4526,-42.1217,29.3155,-60.6995,122.8639,-81.1185,172.0835,-81.1712,84.7877,53.7096,33.2701,23.0554,49.1613,-62.6465,30.3204,-64.3051
-202.7267,-39.4953,-127.6429,20.8609,-54.9154,52.7136,-59.7737,61.5432,-75.9593,176.1132,-183.7866,220.1489,10.4513,42.9067,28.9505,51.3075,-61.4801,-64.0464,-48.6226
-225.9912,-127.8431,-185.1989,-34.4859,-82.0098,28.3009,-81.8668,46.4448,-37.0847,193.8118,-266.0232,166.2726,-16.4422,5.8278,52.5894,73.7688,-71.3598,-89.2183,5.3890
-207.9597,-154.5721,-208.2526,-48.9972,-93.3560,-11.4305,-97.5396,26.9584,-82.8969,223.5932,-250.6691,76.9256,-10.5123,9.7534,47.3589,112.7972,-67.7948,-99.4365,28.1220
-147.6220,-100.4040,-136.4561,-16.5467,-51.4952,-19.5640,-48.6423,-31.9461,-135.7926,198.1252,-157.6072,54.0387,8.1943,26.8903,22.5907,137.7756,-20.0419,-142.0519,33.2314
-89.7558,-104.7135,-69.9404,-63.9235,-8.5183,-43.9206,4.9921,-78.3646,-62.9246,63.5981,-66.6890,30.0559,22.9348,-44.9436,22.7017,99.9280,-18.7007,-193.6339,53.6474
-70.3273,-187.3508,-117.2457,-201.0493,-49.6282,-129.3303,-32.2369,-80.0977,2.5997,-65.9991,-46.3578,-14.4108,27.7580,-137.2658,41.1230,38.1757,-99.2601,-201.8227,46.2363
-93.4759,-238.0800,-207.0964,-281.9483,-139.3487,-191.1902,-114.8843,-68.1014,-109.5730,-54.5229,-104.7197,-29.8586,8.0912,-144.8393,46.7908,5.9755,-157.5959,-147.6017,10.3900
-155.8389,-221.3275,-220.7332,-254.0306,-147.9516,-164.9825,-120.4327,-50.0476,-260.8687,8.3337,-184.2401,-11.1497,-23.3150,-135.9844,42.9423,-34.6692,-149.0521,-54.0488,26.7194
-213.4998,-175.1049,-155.3878,-194.6655,-65.1646,-123.0543,-44.3515,3.3957,-257.3848,-11.2216,-209.7358,28.6750,-30.4666,-159.9485,29.9463,-86.2057,-120.4902,49.6043,93.7555
-182.1090,-110.7661,-67.8872,-135.7042,-21.1208,-116.4847,-6.8574,68.0594,-161.6926,-32.6760,-161.0667,75.8920,-23.6524,-147.6239,-13.5487,-80.6255,-65.3821,118.8813,134.9846
-64.8870,-40.3940,1.2918,-60.8257,-62.5478,-103.4456,-76.3384,67.6552,-109.8502,9.0234,-88.2366,93.4243,-30.9261,-111.7242,-73.7598,-39.1022,27.1733,100.5874,144.5260
15.9741,-2.8688,40.3308,1.9965,-97.4519,-73.7695,-165.0551,-1.1693,-115.8595,-1.0518,-42.9959,75.5416,-34.2627,-103.3886,-103.3562,-29.9951,86.3645,37.4845,143.6414
5.8550,-5.5641,73.2824,21.3160,-68.8288,-53.9910,-146.4772,-43.6369,-143.6848,-55.7965,-33.4748,60.4797,-20.6994,-62.6591,-83.8623,-32.5864,76.5807,51.4750,113.1626
-0.7581,-4.8411,107.8559,19.1315,-15.0311,-29.0044,-42.5054,-9.0033,-146.0357,-6.7083,-47.6622,69.1276,-9.3970,17.5928,-36.3941,-17.7962,64.7108,139.7185,73.7511
59.1076,29.8518,107.7964,36.2837,20.6042,11.2348,15.0767,42.0523,-63.0596,96.4894,-56.1085,100.6167,3.8877,34.7999,3.5371,-0.9509,96.3040,166.7709,75.4360
116.4420,65.8673,78.9508,85.7747,32.9663,35.1986,3.4667,51.7194,90.3106,121.1588,-20.3203,137.9187,26.0994,6.0758,12.2541,32.2793,126.9033,96.6927,106.7047
104.1799,60.1937,71.6530,129.7649,41.4454,33.6225,23.4626,45.3611,197.6482,123.5008,32.3805,139.0228,35.8777,34.3159,8.8707,78.4260,103.8880,27.9417,136.4404
46.5202,34.3474,73.0192,104.2998,67.1040,25.3236,95.9501,63.0803,165.2827,141.9200,31.4087,98.2530,40.3411,83.0720,26.7928,82.7518,35.5955,22.9606,160.5005
6.9505,22.7150,42.2137,9.2996,103.7933,10.6045,140.7930,91.3176,62.1218,100.4823,3.7164,66.3592,60.6614,65.9441,55.9753,51.3076,-32.6456,68.7004,161.5917
32.8845,-1.1060,8.3592,-66.4475,123.2592,-3.8175,139.8322,89.1646,52.8525,47.6874,34.7962,62.5019,72.5758,19.3617,75.8527,37.0515,-70.7397,123.9138,125.9370
97.5780,-50.0077,3.4782,-58.3000,101.9547,15.3517,126.1064,46.0917,131.9699,55.9307,92.5755,62.4897,63.0076,12.0977,92.0663,35.4132,-75.7132,129.1696,64.3877
101.6447,-70.4808,4.7487,-4.5691,41.2107,59.8201,74.6806,-4.1087,110.3610,41.2478,86.4023,63.5801,52.9122,35.7263,87.3395,34.5689,-54.2617,75.6855,-19.8892
28.6327,-49.5454,7.8060,24.7739,-10.4169,62.4101,-21.0156,-29.6329,-39.8424,1.5135,34.4082,65.7216,30.8698,45.2633,43.4936,54.8654,-27.1078,36.2145,-92.0175
-15.8350,-45.5355,16.9346,15.9353,-2.5462,12.7497,-76.7341,-34.5660,-130.4561,50.9158,-12.5750,52.5009,-4.1485,20.4795,10.9746,80.2659,-28.5556,44.6775,-79.7211
-7.3146,-68.3609,-9.5405,1.6091,29.0525,-2.5800,-58.3129,-26.6396,-100.3410,126.6845,-71.9719,38.7727,-7.3577,-6.4444,12.7128,76.1249,-55.7803,55.2459,-7.0737
-16.7519,-60.8060,-65.0848,13.7981,21.9256,45.3252,-41.5126,-10.6608,-69.1917,93.0056,-118.4362,49.3392,2.2030,10.2664,-29.8991,40.1736,-49.4287,48.6003,10.4300
-2.1051,4.2689,-62.6644,58.7470,3.1640,65.0697,-49.5740,-26.4454,-95.0849,-10.1612,-72.5829,65.4957,-36.8178,53.7262,-124.5263,-13.8690,18.5651,39.4157,-49.9674
98.7243,91.5934,-1.8215,105.6887,13.6859,24.6593,-21.1017,-94.6430,-141.3508,-99.4098,25.8535,64.8912,-82.9744,75.2708,-144.1596,-42.4170,76.2706,16.1186,-107.5847
157.5045,127.9249,15.9858,110.9480,21.3437,9.6113,34.6946,-143.3659,-152.6886,-135.6720,46.8128,52.8118,-69.8768,67.3743,-54.1751,-4.3325,49.3031,-14.0520,-113.5111
83.6762,62.2850,-4.0160,71.7292,27.5335,32.9421,59.0768,-105.1670,-89.7714,-65.6992,-17.4809,27.1874,-30.5168,39.9764,28.3505,45.2719,-10.9404,-4.6559,-63.0978
39.6836,-40.6343,45.9032,21.5025,93.1313,16.4188,84.7240,-18.5607,-15.6290,57.2790,-58.0525,-10.2608,8.8333,9.7368,42.5235,38.8166,-7.2045,54.6831,30.5613
116.3415,-57.8198,145.2204,-20.2249,192.4228,-21.9750,153.4629,64.4132,-13.1876,107.3997,-36.3832,-26.1428,64.1171,19.0420,23.2009,21.3209,34.4107,127.3952,115.4258
136.6605,1.0831,156.2760,-34.0281,219.8683,-2.7935,191.5367,139.9568,-23.8135,103.2928,-12.7841,0.6943,84.0156,64.1929,-9.6243,34.0357,17.5801,162.8349,135.0330
24.5211,19.3522,59.0376,9.7370,142.1962,42.2963,135.2659,162.5365,-13.9030,93.4400,-20.9969,44.6784,33.4616,76.8655,-23.9763,30.9769,-52.0266,98.6224,67.0519
-35.8530,-12.2114,-34.7387,69.1196,16.5888,32.8224,33.2445,73.4784,-62.7344,40.4556,-29.1958,67.0694,-5.0486,39.7374,24.8988,7.0466,-102.1621,-55.6422,-68.7430
38.0328,-8.1774,-69.9186,51.5375,-88.6663,-21.6635,-66.6829,-55.5366,-98.3345,22.3856,-19.7805,58.4785,5.3848,0.6487,78.7420,6.5730,-122.5093,-154.5693,-173.0037
93.8425,24.5149,-82.3045,-12.9853,-140.1612,-57.6616,-148.9462,-90.3666,0.6651,129.3802,-26.7701,50.0809,-13.4658,-14.3860,40.7254,14.0404,-124.0641,-104.7761,-145.8078
41.4048,18.3164,-92.0535,-0.3002,-158.3200,-40.1538,-165.8797,-37.8141,83.8253,194.5727,-66.6957,69.3756,-74.0380,-0.9803,-48.0074,2.3559,-87.6682,-32.8605,-57.3641
-30.3707,-3.7048,-84.5963,72.7695,-170.7879,2.1879,-125.9976,-23.4153,18.0770,82.7624,-89.9338,84.9350,-104.2637,24.1008,-81.7373,-5.8563,-35.9350,-74.7893,-51.8540
-41.3241,13.7746,-59.0629,77.4600,-156.4474,-2.7715,-119.9217,-88.8653,-63.0244,-46.4087,-49.5817,58.9251,-98.1980,10.3144,-70.1393,1.3351,-25.2863,-144.0154,-108.1592
-12.5626,35.0749,-40.4297,14.9616,-107.4069,-54.9024,-135.1488,-142.8103,-121.3353,-66.8713,19.2714,24.8382,-93.4139,-29.9978,-85.7926,12.1000,-59.7359,-109.8874,-116.1519
11.2706,7.4583,-60.4086,-20.1452,-70.8923,-67.1642,-76.1685,-111.4999,-196.7413,-32.9141,39.7927,13.5627,-86.3012,-25.4644,-120.1500,14.7542,-111.5521,-25.2112,-69.7623
12.4876,-32.4562,-109.2244,-31.8613,-66.3497,-34.5520,6.2482,-33.8713,-102.5121,37.0296,-2.2268,-14.1718,-74.3431,-4.6548,-110.7644,-6.6633,-152.1438,9.5662,-6.8833
-11.3782,-23.5470,-118.2896,-58.9430,-75.5277,-28.9654,-4.0681,22.0863,150.9526,102.9932,-37.9771,-53.4215,-67.4982,-27.6614,-50.1314,-29.9781,-131.1860,16.1081,59.7019
-51.9470,25.2458,-58.0315,-54.3797,-105.7046,-21.4371,-58.7056,45.1831,171.2652,53.5474,-15.5160,-22.3041,-49.9390,-19.0865,7.7724,-10.1154,-50.1603,30.1710,77.3613
-85.9322,59.7480,0.3350,10.2324,-138.6836,38.5379,-55.7094,41.3302,-49.2773,-48.1981,23.0083,62.9600,-20.3953,60.6859,21.3559,20.6125,-2.1537,17.0014,10.4380
-91.3715,55.6540,8.6325,62.9838,-104.5673,71.1566,-8.4602,9.9564,-97.1860,-40.1827,17.9208,81.2456,-8.1430,84.6177,-4.8769,5.0535,-14.6102,-22.7486,-71.5612
-60.5105,51.9346,26.4769,47.3110,-2.6344,32.8789,47.5823,-14.0895,12.8583,18.0814,-2.4144,32.2628,-11.6081,23.9150,-46.5458,-29.1087,13.5681,-37.7476,-98.3794
15.4497,102.1879,96.4582,8.9533,75.0484,19.3078,97.9352,-8.6295,12.1261,-20.3245,26.4539,42.3043,-7.0878,13.3007,-72.3612,-48.4946,131.1493,-26.2403,-84.4146
136.2222,186.6013,165.5351,24.6555,81.3442,48.6525,98.5151,-24.3263,43.7327,-102.7892,100.3711,133.6343,1.0763,53.1221,-49.6379,-67.3711,256.4648,-11.1553,-55.7825
247.9075,240.1252,194.2238,97.9386,67.1054,28.7700,74.5983,-80.1889,222.0298,-103.9939,168.1524,207.7874,12.0525,32.2137,4.7825,-64.6451,313.0796,20.0019,-13.5969
277.3160,262.1767,214.5963,153.5754,96.6692,-23.1565,117.8893,-102.8788,237.9749,-51.3501,197.6558,224.3631,43.4538,-9.6691,20.8978,-23.9466,308.7873,51.3040,30.1028
235.6815,272.8433,247.5579,137.7555,158.7702,-16.1444,181.5585,-72.5299,-6.3730,-69.6081,185.9784,215.9283,74.4900,10.5507,-14.4283,-3.6056,289.0282,24.2345,42.1688
208.3374,225.6047,260.3030,85.1491,165.2081,22.4309,137.5461,-70.1972,-185.8127,-178.3461,166.0814,194.3171,66.6590,36.5210,-19.5182,-29.7928,276.6149,-61.9307,-15.5205
225.9939,128.4439,216.6833,56.9593,70.4986,11.1624,25.9205,-119.6701,-147.5637,-232.2874,180.6145,161.9439,39.8350,17.5068,48.2211,-52.6008,243.5375,-141.7808,-129.3478
220.2260,98.0600,122.5517,65.5303,-48.8260,-40.8431,-32.1818,-154.4427,-50.1489,-142.3041,200.7767,135.4928,31.2077,-8.9302,111.2323,-47.8856,156.5242,-170.4989,-213.7517
126.9367,144.0639,19.8458,80.1138,-110.7839,-70.6835,-45.4478,-144.2263,-32.2929,-39.3137,152.9940,115.3806,19.9185,-26.8191,82.4797,-28.6011,44.9703,-150.6353,-225.7926
1.5061,146.6792,-51.9089,64.7976,-118.8144,-43.4999,-54.8576,-114.7097,-93.9362,-36.7460,58.5474,102.6206,-15.9436,-22.9800,-11.0887,-10.7301,-31.1001,-116.0307,-208.1048
-23.1421,111.3653,-79.3794,25.1714,-80.2968,18.8227,-26.4804,-87.3823,-122.1929,-49.5489,23.6680,113.9620,-37.9719,26.3474,-65.3808,-17.2171,-50.3284,-103.8937,-167.4276
64.8954,126.2424,-71.2705,7.6230,-5.7283,45.3126,25.7455,-73.3308,-49.7268,-30.7060,63.1096,133.9102,-23.8692,49.3557,-37.8582,-27.2929,-35.8367,-106.5186,-91.2751
105.9421,135.8302,-61.5486,7.0267,16.0823,-1.8865,16.8178,-70.3022,-26.6262,-68.4714,71.6221,129.1653,-16.0851,-22.3505,-0.0087,-2.9498,-38.0482,-96.1475,-58.3597
19.9897,76.4302,-89.0849,-30.7394,-61.8254,-68.2216,-61.1159,-65.0535,-156.3245,-147.3706,6.4772,112.7020,-38.0468,-89.8707,-19.9260,3.5867,-84.6812,-91.3038,-108.5910
-70.4899,28.9891,-139.5435,-73.9553,-132.3752,-85.7433,-119.6763,-59.2943,-243.3943,-140.2283,-43.0851,104.6989,-58.8135,-54.9337,-57.7575,-45.1572,-128.4277,-112.9358,-137.1042
-89.3204,19.2561,-169.7655,-51.1800,-111.2425,-55.4066,-106.2590,-43.3032,-144.2541,-33.5399,-23.9180,82.4188,-61.0839,10.0490,-55.2212,-54.8712,-131.6954,-134.8389,-103.6680
-114.8863,-19.8062,-194.7734,-15.8996,-76.6832,-19.9004,-76.9296,8.7531,-21.9324,64.0160,-7.4008,44.6294,-60.1937,20.4654,-44.8581,8.4668,-146.4184,-149.1911,-98.7527
-153.2616,-46.3299,-244.5432,-45.4409,-109.7537,-16.9020,-110.2405,60.7063,-35.9893,67.7202,-34.9608,32.3104,-68.2412,-12.9288,-74.9527,35.6987,-188.9904,-163.2243,-106.4488
-123.8141,-14.9593,-268.3427,-85.9754,-152.3141,-54.8493,-156.8195,51.3540,-131.7057,-0.4443,-44.4849,40.0823,-82.2402,-71.3971,-115.9092,3.3377,-179.0732,-119.2784,-22.1205
-71.3421,-22.5005,-204.7064,-85.6820,-110.1241,-94.8705,-86.8469,24.0288,-157.6282,-36.8389,-20.3052,14.5409,-78.3155,-119.0820,-116.5472,-10.5706,-100.3026,13.0904,102.5953
-74.3881,-73.8548,-84.5357,-78.9682,-4.3683,-85.8653,67.2308,51.0336,-28.7819,-16.1974,-17.7576,-45.1339,-37.8619,-93.9407,-77.4742,-13.2636,-26.3616,123.4884,139.9739
-67.3099,-27.4700,23.4165,-57.5950,48.6782,-28.5090,118.2575,85.9344,104.8401,-36.8275,-17.5723,-76.7027,-1.9644,-28.9874,-37.1128,-34.4269,28.2352,124.9022,107.8359
-6.6461,94.5908,90.5663,-3.9039,14.1819,28.9346,34.5908,71.0570,13.1344,-100.5084,25.9437,-44.8393,-13.6820,-12.2098,-29.4156,-32.3469,86.6669,114.9841,84.0275
29.7387,131.0806,122.0364,14.9284,8.5532,51.8910,-18.0337,70.4246,-157.2398,-73.2158,56.5324,9.1007,-24.0238,-20.0387,-48.3661,-1.4800,124.0145,198.8525,68.7794
44.8330,73.2605,144.4725,-12.2501,106.2072,48.1731,27.1888,139.2626,-72.7316,60.4310,37.4045,12.4454,13.5358,9.1724,-56.5929,28.2042,143.5034,297.3635,62.2472
109.9319,3.0199,185.8125,-7.8399,211.0562,34.6483,77.9595,205.0426,134.3828,172.8145,41.4387,-48.9825,41.9747,25.9671,-49.7004,63.0834,186.5908,289.3121,92.9224
158.7471,-63.6646,237.9985,12.6764,238.1733,2.8229,92.1642,185.7815,108.1818,194.0179,84.1105,-110.7319,25.9819,-26.7680,-53.3154,70.2587,225.7266,206.3303,121.6169
106.4210,-84.5864,268.3868,-6.1835,229.3615,-50.0327,96.7983,106.8860,-37.6551,136.1477,90.8433,-120.3035,22.3530,-91.0306,-47.7362,9.4437,208.6852,143.7323,79.4695
41.6689,-10.9291,243.0072,-14.1082,197.4712,-84.6928,76.6767,43.4142,-3.4842,50.1449,63.0603,-96.4955,43.6666,-95.0470,-0.6984,-39.9266,158.0684,93.7134,-5.1285
60.7956,84.9193,146.8610,15.3421,98.3886,-71.6804,28.1990,20.8806,116.1377,21.8310,51.5870,-75.4713,42.8946,-60.6102,45.1591,-9.6165,120.3955,15.9439,-45.3927
105.1737,124.6801,49.1293,30.9853,-7.5569,-40.6503,6.3091,14.6023,123.2861,59.5630,45.1558,-69.3022,33.7377,-48.4922,37.0238,23.9794,113.9580,-22.3784,-30.6452
89.3063,126.1838,61.8489,50.6032,-11.0669,-25.9348,23.8679,19.0506,81.9433,74.2546,34.4277,-85.3631,47.8614,-70.1205,6.0102,7.4099,139.0901,51.6403,-10.0926
22.9735,89.8374,155.4517,89.2478,60.1424,-20.4357,46.9724,51.8247,60.7572,46.7402,26.8899,-117.7033,53.7880,-83.9471,-2.2876,-9.7043,156.6810,163.2186,19.5418
-10.1865,15.3331,186.8763,68.1563,108.1722,-10.6703,90.9144,88.1348,15.1010,25.6602,-17.1150,-136.4414,38.4239,-60.4495,0.9275,-15.9912,126.7743,213.9976,87.3196
52.1646,-12.6739,149.8653,4.5828,128.0939,6.5313,164.7318,90.9665,-12.1264,-2.7819,-85.9264,-132.4163,39.8483,-24.6803,5.9619,-32.8278,81.7100,240.6992,150.0242
122.1832,22.3862,151.2202,2.7492,161.4943,31.3539,196.1840,90.9278,15.5021,-53.2439,-83.1743,-135.1397,63.9280,-14.4349,29.5243,-31.1881,54.3314,287.7373,156.9177
53.2566,10.6874,170.1143,11.8122,197.7256,42.8608,162.6852,118.7425,-6.6121,-73.0725,-21.0819,-165.6601,89.6454,-23.9937,63.7324,-6.1303,17.7681,297.4881,155.1703
-73.8101,-45.6709,129.7395,-48.4449,225.6517,25.9080,167.8049,133.3679,-81.7922,-39.5672,-17.1788,-204.8234,113.8710,-19.1221,83.6155,-2.3652,-15.4455,266.1704,197.6589
-47.2096,-10.6187,102.1560,-78.7202,289.7464,17.2860,263.8662,125.1262,-43.0418,10.7013,-64.6365,-210.7334,129.1374,14.0778,85.6564,-16.4169,2.0125,291.5492,239.0475
76.6174,107.4047,157.3163,-20.5411,403.4138,50.1052,352.9803,152.4842,109.6754,48.3833,-69.4911,-167.3338,136.3253,56.7484,87.3306,-1.7242,24.6858,368.7315,237.5093
61.6828,142.9505,178.6113,23.8015,469.3483,96.1786,344.7857,215.6124,175.4568,66.4683,-51.5689,-124.9599,159.9550,89.9394,122.0145,50.1840,-14.2124,367.8070,232.5262
-84.2908,46.3722,79.4270,27.7448,395.7731,128.3591,268.9137,258.5603,111.5247,78.3868,-74.2981,-146.5875,185.1083,118.5563,188.3372,100.7120,-57.6544,264.3264,244.0958
-161.2700,-59.0059,-5.6500,42.7468,259.2598,157.5271,204.3921,276.9277,48.0277,95.6324,-96.3537,-200.1810,163.5644,138.0472,188.4621,104.0986,-27.1493,179.8584,232.9409
-109.4387,-72.6312,43.9971,37.5155,208.9838,175.1311,193.6578,276.6977,2.5493,90.6711,-56.4946,-192.9157,104.5215,121.0310,55.9927,62.9693,36.3181,173.9532,193.9062
-10.8822,-22.7087,126.6056,10.1350,232.0251,158.4881,204.1724,225.3956,-63.5576,46.6186,11.6915,-126.6726,57.6248,81.6795,-75.0559,35.1455,57.5065,173.8331,169.2926
57.8053,11.6270,117.0815,23.2250,193.5381,125.9226,157.7401,137.2256,-68.7952,-10.5021,36.4521,-102.5317,38.5217,70.4867,-43.7490,41.5458,34.3792,128.6147,170.6585
50.1568,1.3259,66.4106,30.1464,83.8677,101.5469,52.1201,76.4044,19.1243,-66.1569,5.9072,-148.8569,40.7220,75.6768,70.7934,40.0307,-1.2903,86.5721,168.5193
-11.9795,-29.1421,60.8886,-29.5829,25.7203,73.1339,-14.8688,58.4173,86.3410,-94.2534,-30.6031,-172.2245,50.9459,53.3437,103.0303,22.9899,-31.3507,77.9564,143.0772
-47.3288,-51.0741,68.2456,-66.3539,58.9586,40.2700,-0.3274,52.7427,90.4053,-46.4710,-36.4044,-120.2428,43.6185,30.0884,73.4173,25.3446,-43.9287,54.4039,99.2572
-42.4445,-41.4022,35.8949,-28.7916,100.6482,29.9693,31.9036,41.0952,75.8412,31.0369,-26.2889,-71.0957,24.6305,35.5059,71.9586,41.0641,-40.2948,15.1040,49.1219
-48.3432,8.3385,-5.5019,-5.2486,100.5551,39.6437,41.2178,28.6345,25.6129,39.8006,-21.0761,-93.9911,26.1393,29.9348,74.2662,35.7747,-36.9768,47.7156,11.9024
-60.0013,57.0956,-6.2229,-13.6733,93.0550,43.2251,49.2757,41.8872,-23.7823,0.6544,-17.0163,-130.2691,34.5778,8.7235,47.1380,6.2890,-33.7970,153.5907,16.9830
-42.1459,60.2161,30.6966,14.7286,101.3026,49.1625,64.6355,84.1767,32.5274,-22.4374,-12.1665,-103.7323,16.8681,21.3964,24.2417,-18.1174,-12.4702,196.9681,66.1948
-13.0725,46.8394,55.6556,65.0902,89.4713,76.6412,72.5452,100.6307,113.7573,-42.9096,-6.1660,-50.3891,-4.9835,51.1047,14.1970,-4.5610,15.8507,114.4963,111.7440
-11.6124,56.1796,17.2529,85.9613,28.9208,97.9119,58.2790,71.1413,70.5617,-42.6772,3.8454,-37.0508,-0.6080,48.0505,8.4905,33.1144,14.0889,10.4028,121.7821
-40.5336,59.8330,-63.6140,89.7813,-41.7937,78.4527,20.1209,58.7854,3.4458,30.2416,-8.3557,-45.4336,4.0404,32.6253,24.2485,37.8996,-9.7334,-6.0583,122.7942
-67.0464,46.0896,-101.2451,98.9995,-63.1825,45.8937,-0.8986,88.8103,50.1879,122.5978,-64.5014,-34.0390,-15.7295,32.3963,44.6410,12.2211,-10.2808,65.4476,132.8412
-72.7889,59.6901,-75.2038,116.3182,-36.3693,47.1822,31.5155,115.6027,115.2910,153.5197,-118.3709,-19.7073,-27.4588,28.5508,45.8840,8.5062,6.2934,168.6153,137.8325
-94.2413,90.3469,-40.8999,133.9930,-0.1626,69.3818,74.7677,129.9935,112.5921,136.7481,-114.8823,-22.2313,0.6753,21.9705,58.0146,2.1742,5.4239,257.7457,148.8680
-133.8105,83.0271,7.5127,122.6892,53.1879,78.1350,91.7357,157.6889,96.8245,116.8574,-73.3243,-24.5201,39.6045,35.4707,71.9444,-41.2657,13.4761,324.2218,179.4761
-98.4315,63.5543,106.4078,90.7640,151.4642,92.8373,127.1165,197.2112,78.7897,125.9359,-41.7423,-23.9566,49.8273,66.0744,40.7884,-39.6690,57.1725,376.6035,203.9500
18.4303,81.2910,185.7173,94.6519,247.1035,134.6887,189.2576,233.9329,68.1148,164.0178,-32.3963,-22.8519,55.9764,95.8971,22.4803,51.6009,84.4674,390.9986,212.3147
66.2665,93.6038,162.5682,120.1207,264.7776,151.5949,210.2466,233.5500,122.6195,158.8445,-42.2569,14.5602,95.9488,101.8982,74.7857,116.5712,69.2740,339.6590,211.9048
6.0108,56.6360,94.5318,98.4997,232.0188,101.0134,185.2392,162.8731,165.6612,88.9624,-76.7965,87.2673,129.7248,79.4569,92.0510,81.0534,74.0639,252.1823,180.1992
-30.5314,12.1229,80.2394,51.1328,225.3170,51.1406,170.0572,79.2688,105.0033,48.3340,-122.7227,117.7745,105.7142,77.6251,15.1841,23.1011,122.4967,160.1677,140.9138
-12.8621,-7.0671,116.5713,53.4376,215.1050,81.9638,158.6309,56.1538,61.5434,55.9426,-127.4170,96.3798,64.5113,119.6256,-19.6581,5.6820,159.9958,48.0386,170.4180
-6.0675,-18.4574,138.0218,104.5774,128.9755,145.1263,118.2705,47.5763,102.6520,47.4205,-59.4580,119.4506,59.3892,142.2381,41.9091,14.1454,160.5579,-60.2582,222.1265
17.9400,-20.7535,98.2495,140.5509,17.3087,141.5309,61.5987,7.4822,78.8771,47.5880,11.3686,188.1900,62.3569,111.5098,67.3681,35.6517,132.9487,-90.5497,160.2326
64.4151,-4.4145,9.8022,112.6087,-27.1447,72.8750,2.1694,-15.5418,-18.7501,61.8982,-3.5984,183.1682,44.8917,63.8159,15.5637,50.0307,75.9044,-52.2624,8.6505
45.0866,11.9170,-52.9239,43.3269,-37.0636,7.8738,-50.8751,-32.7119,-29.0019,1.7357,-62.5728,101.6419,31.5456,6.0382,-18.3512,28.7039,25.1087,-33.3539,-85.1775
-18.7622,16.2007,-39.1911,21.3223,-80.7041,-22.4003,-66.8335,-96.8533,9.1591,-96.6664,-77.4986,59.2969,24.8806,-46.8552,-15.1407,-11.2619,39.5859,-45.5519,-79.8355
-31.8704,2.0588,20.4686,65.8184,-113.5368,-10.7865,-54.5103,-130.4115,-43.7466,-116.5869,-67.3107,59.6155,3.9018,-26.6412,-10.0744,-45.1525,100.8167,-24.2492,-29.6485
-25.2301,-39.5996,89.1108,78.2684,-71.6289,44.1579,-65.7959,-69.9716,-117.6035,-89.9606,-62.8386,35.4892,-12.8758,46.1414,18.4064,-75.0658,136.3823,39.4419,17.9811
-39.6141,-64.7831,158.6783,31.1863,13.2488,94.2062,-91.0459,-18.9697,-96.2362,-70.4699,-31.0421,23.7040,-1.6089,72.7922,62.0396,-76.5345,129.9047,99.3706,19.6464
-21.1275,-23.9370,195.9117,18.7178,85.6438,92.8296,-64.8656,-24.7249,-30.6853,-35.7004,-2.2158,52.8929,22.0225,69.0380,45.9025,-28.0960,119.2092,141.3413,-17.7632
19.3956,15.5054,174.5154,50.0379,131.2648,80.5948,19.0164,3.3838,2.1799,-29.3695,-26.2554,43.0057,33.0167,95.3848,-33.7980,20.2009,123.5769,160.5443,-24.1076
20.3863,-38.7001,123.2950,35.1097,132.7986,101.8904,82.5251,62.3131,9.1687,-45.7731,-35.6486,-15.5717,21.5754,101.8700,-75.0041,22.3364,116.8504,117.5547,1.9279
8.2589,-131.2936,67.4288,-29.4007,71.4865,115.3054,56.6741,71.6605,20.6476,34.5415,0.9704,-26.0423,-2.7964,67.1303,-16.0357,5.4762,62.7715,14.4393,-3.3922
-0.1755,-153.7509,3.4431,-76.0092,-21.7997,95.5424,-25.3888,54.4342,47.3489,134.5863,-3.8682,13.2540,-13.7910,67.6341,61.0211,-0.6304,-21.2166,-60.8071,-25.8635
-41.9637,-111.6105,-59.6731,-79.0763,-82.2755,92.4678,-60.1069,51.6898,54.2944,76.3717,-37.2503,20.4808,-7.3925,92.8151,37.3377,2.3019,-71.2173,-54.2293,-14.1468
-79.1268,-66.0802,-112.1584,-32.7871,-76.5735,114.0499,-18.7339,38.7738,0.1828,-16.8905,-32.9095,-1.2629,-5.5351,69.0780,-50.0192,18.2845,-69.3382,-22.8919,11.0412
-67.2810,-37.0099,-146.5724,43.5797,-42.2414,106.9910,13.3371,20.3556,-74.9558,10.0584,-86.8905,0.4788,-6.2353,40.6662,-60.7815,36.5510,-58.6778,-21.7018,0.5781
-53.0487,-23.7350,-136.5540,78.5029,-52.0560,73.6334,-29.6990,7.0302,-115.1166,6.5870,-221.9379,28.3254,-2.9213,70.3634,-4.9851,26.5748,-57.5284,-24.8382,-69.0513
-29.5760,-12.0434,-80.5357,53.0331,-104.4851,59.5791,-116.5472,-28.7133,-140.5733,-89.1657,-212.1961,59.0986,-19.5013,95.8426,-14.1954,-1.5755,-51.7647,-14.4773,-178.1239
44.9904,20.8885,-28.9753,35.0272,-123.5517,58.9656,-189.5821,-55.4621,-170.6109,-100.1450,-15.5555,64.0040,-51.2419,58.2029,-73.0979,-12.1028,-50.4574,-28.8905,-245.4812
78.4581,50.6362,-19.6741,43.7226,-104.3919,38.8972,-226.6834,-36.3013,-182.7858,-41.8932,88.8885,23.6665,-58.6324,-0.1734,-62.3259,-11.3817,-71.3451,-92.6976,-246.4444
-0.1792,29.5967,-59.1958,23.6377,-126.5496,-5.9638,-249.4087,-52.1870,-178.7885,-65.6019,18.1006,-33.1321,-52.9795,-33.8387,-6.4771,-23.1077,-108.1747,-188.2457,-281.5175
-67.6482,-29.6716,-129.9988,-40.9566,-188.0939,-63.3001,-283.8584,-145.4831,-156.1594,-94.5425,-10.3026,-74.8517,-70.1746,-45.0692,-11.2956,-35.6329,-145.0259,-280.4935,-369.5939
-41.6376,-70.2088,-175.3382,-99.5083,-219.6781,-104.6222,-307.2329,-203.9443,-112.9176,-12.0470,65.4542,-93.9162,-96.3282,-45.8462,-68.0509,-26.2347,-169.9544,-330.9822,-379.9055
-9.4048,-58.9377,-168.2741,-102.9957,-240.9227,-105.1459,-290.6637,-172.3645,-116.9437,98.6472,105.4663,-56.5673,-120.3695,-47.4045,-117.0335,3.8071,-180.6328,-333.6187,-288.2631
-21.1325,-20.2247,-175.1790,-66.8446,-304.0127,-91.7417,-271.6139,-138.1057,-195.3795,130.5141,62.9334,8.1305,-151.9145,-53.1817,-149.6010,32.6630,-190.0728,-312.3185,-200.8240
-32.4825,-34.1289,-220.5195,-68.3584,-339.0027,-100.0740,-251.3694,-138.0269,-223.1614,71.5520,-4.8150,-48.9316,-148.5507,-53.8485,-140.5828,29.5125,-202.5657,-261.4011,-128.0935
-34.8562,-136.8484,-238.4049,-129.3886,-275.8558,-109.4490,-166.1874,-126.4551,-138.2092,-26.5287,-44.1992,-220.3256,-82.0876,-49.7907,-67.7994,-16.5112,-218.0945,-194.0848,-55.6923
-49.1528,-221.2794,-248.0580,-156.5868,-227.2182,-100.6200,-93.3276,-115.3175,-87.8293,-80.8991,-18.0381,-231.9340,-37.0725,-53.0668,-12.5253,-66.4901,-254.9004,-207.2716,-72.7192
-70.6099,-179.6938,-315.9435,-102.8289,-319.4907,-107.8802,-185.3429,-159.1734,-165.3925,-108.0126,30.8059,19.7928,-84.4774,-75.0502,-55.6717,-76.7448,-299.8235,-327.7328,-175.1174
-91.8427,-101.6297,-354.3594,-70.2688,-444.6460,-156.2775,-330.4353,-249.7852,-242.1034,-191.6729,-2.8231,248.9299,-159.3373,-123.2559,-139.2473,-72.5803,-305.2873,-412.4347,-229.1421
-118.9351,-145.3833,-268.8480,-141.7321,-408.6341,-224.1436,-300.9728,-324.0314,-208.6069,-273.7892,-114.3939,225.9727,-176.7021,-180.3140,-164.0583,-111.1319,-286.3323,-372.7361,-221.7064
-152.6752,-289.4117,-148.1986,-254.6365,-216.4200,-277.2805,-161.7177,-349.5538,-135.6530,-279.1730,-176.8248,76.9388,-137.9799,-210.7929,-127.2990,-176.6203,-289.5147,-301.9208,-232.5822
-163.9458,-381.6440,-73.8150,-310.5846,-25.3150,-289.9132,-89.5753,-357.0440,-109.9730,-290.5598,-123.7045,-1.0570,-75.0471,-209.5988,-77.5038,-196.9273,-285.8852,-267.1439,-239.0380
-117.5443,-351.7313,-25.1089,-279.5401,66.9322,-260.9383,-40.3628,-361.3673,-109.5404,-307.7219,-36.1867,12.7159,-9.9618,-189.1983,-37.9790,-156.9195,-253.4800,-228.9045,-204.5521
-69.7402,-265.4654,-52.5821,-194.0432,51.0074,-215.3019,26.2787,-313.2043,-88.9909,-218.8283,-42.4970,53.7477,28.2747,-143.2802,-16.5789,-106.6228,-259.7407,-205.4225,-181.8805
-130.3944,-227.2041,-198.6253,-124.9479,-60.9936,-161.3205,-24.8783,-210.7625,-63.0214,-124.7505,-153.1284,71.8720,17.7974,-86.4623,-21.0898,-75.6912,-305.3232,-254.8035,-175.1055
-236.5529,-256.0890,-305.6621,-109.8641,-201.5085,-91.7965,-181.8770,-137.0141,-67.9777,-179.1160,-219.4176,47.2235,-34.0514,-54.5099,-56.2994,-61.8169,-279.8620,-312.2330,-108.1045
-204.6166,-260.2531,-236.2670,-94.0099,-248.6418,-28.7952,-226.4645,-102.8322,-104.3987,-242.5996,-145.1979,14.7463,-85.2023,-32.4692,-117.0885,-63.2093,-178.1894,-261.1528,28.5126
-74.5793,-191.4216,-121.9571,-38.8819,-167.6764,-5.4431,-113.7066,-52.7241,-125.2885,-165.6255,-53.3246,14.9532,-83.3420,1.6656,-148.6547,-64.7216,-127.6466,-128.3342,150.5270
-61.1704,-152.8598,-142.9538,-25.6106,-73.5144,-36.3041,-17.1579,-39.7390,-66.3957,-75.0002,-82.4098,16.8349,-36.4381,-5.0807,-79.3403,-53.7086,-170.5756,-55.5648,174.0739
-160.3785,-222.8667,-249.2504,-109.9065,-80.4388,-119.6461,-21.9079,-128.1572,60.2427,-83.6916,-160.8865,-20.3891,-12.5858,-78.2097,32.6390,-60.3863,-224.6946,-92.0127,90.2549
-174.2380,-295.6766,-261.2612,-187.8380,-159.9975,-198.5081,-72.0102,-204.4152,128.4422,-108.7348,-149.2374,-60.2786,-31.5897,-129.9719,31.1599,-99.5490,-221.1387,-129.2206,-16.2314
-64.0049,-261.2369,-127.1808,-169.2567,-205.2092,-185.4915,-120.3277,-151.1789,74.3838,-65.5513,-52.0720,-59.6616,-47.9229,-106.5875,-73.8457,-111.1060,-159.3703,-83.5066,-60.4228
33.5143,-184.5702,13.4615,-130.2862,-174.0200,-104.6207,-145.8948,-45.4260,29.8676,29.7896,28.7444,-50.4215,-43.5990,-73.4650,-100.8840,-51.7085,-93.4496,-29.0424,-56.8684
45.9179,-156.8095,23.3244,-135.6183,-111.5455,-71.3065,-131.5319,-1.2513,97.7824,96.7427,36.9291,-67.9385,-27.1240,-69.6683,-12.7055,20.8566,-82.5445,-54.4558,-58.7975
10.4825,-153.7743,-47.7775,-119.4867,-70.9529,-99.3653,-90.6602,-21.5200,155.6854,69.0742,4.9921,-88.4122,9.7245,-57.2830,49.2278,33.3561,-107.2042,-117.2804,-70.7174
-31.5449,-148.2435,-72.8192,-70.3076,-60.2192,-107.6320,-39.0838,-61.7491,86.7269,6.1949,0.3958,-94.7348,48.5943,-38.7158,40.2886,-0.3231,-104.5715,-140.4384,-73.9168
-60.3009,-158.7798,-41.9506,-65.6539,-52.7252,-78.7584,27.3111,-67.7762,-15.0999,2.5486,39.9810,-98.7915,56.7704,-42.4226,28.6396,-13.8119,-80.6473,-117.6675,-57.9863
-40.5619,-148.7409,-3.9824,-76.7180,-32.9836,-49.5837,76.9934,-18.7306,-23.0016,27.7177,83.5408,-88.1779,60.3833,-38.7247,22.5830,16.0074,-78.9421,-87.5111,-34.4457
41.5274,-85.6439,33.3168,-45.7107,-30.6032,-43.1915,52.2141,2.4549,61.8344,37.4323,100.9432,-66.5043,82.0434,-18.8795,10.4073,40.9724,-97.9443,-101.7063,-44.7262
96.8735,-48.6705,32.1091,-60.0896,-76.9913,-81.5514,-24.6161,-57.1540,164.1395,49.8238,83.3707,-81.2356,76.1830,-34.0718,20.7112,19.8260,-120.0682,-154.3775,-80.3826
20.1751,-81.3698,-56.4076,-140.6310,-134.4003,-140.2267,-58.2442,-98.4113,193.5941,20.2810,30.1542,-106.3287,39.6688,-70.2453,39.4193,-6.5198,-133.7472,-153.0670,-68.0005
-116.6941,-89.4411,-163.8430,-131.5959,-145.9103,-146.6911,-30.2368,-73.1631,127.1415,-74.5581,-27.8571,-54.7974,39.1442,-72.6089,36.3158,10.9815,-117.9779,-105.9257,-23.7809
-151.0995,-39.1779,-170.2368,-39.8608,-130.4668,-118.7580,-16.5740,-86.1285,51.9954,-123.9079,-58.6985,30.3676,66.7247,-83.5859,36.4394,25.7825,-85.3264,-148.5736,-41.9989
-97.0469,-22.1996,-64.1099,-51.6640,-120.6242,-135.6210,-30.9739,-145.4137,2.4946,-105.4604,-66.5944,32.6682,61.5330,-132.6840,43.9995,-16.1831,-81.2796,-231.0414,-95.9940
-80.1606,-42.3920,65.6923,-128.7462,-78.7723,-161.4006,-15.6814,-135.6088,-82.7707,-136.2722,-36.6728,-5.6550,54.2998,-120.1876,35.1175,-58.3633,-105.0322,-166.2814,-105.0508
-90.8574,-12.5052,122.6655,-99.9066,-1.2875,-128.0661,2.0991,-93.3849,-156.3992,-197.9933,50.2692,23.2886,87.8339,-29.5575,32.7966,-42.5744,-124.3469,-53.3858,-122.6981
-61.5345,54.2400,69.1317,-32.9307,21.3740,-98.1076,-48.4037,-141.9890,-120.2719,-187.4340,115.9159,69.2351,103.0956,-10.1082,33.9031,-30.0885,-140.2824,-117.7848,-192.1820
-39.1969,95.9127,-34.9987,-41.8945,-34.2788,-124.0026,-104.1636,-209.3091,-53.5292,-156.2190,71.4506,38.3053,68.3163,-86.9275,-1.1320,-79.1330,-149.3881,-243.2268,-208.8154
-74.5157,128.1137,-99.0111,-40.2233,-77.3400,-127.1731,-66.9114,-163.8257,-44.3246,-174.2864,-9.3355,-23.3575,60.1796,-108.0466,-8.6826,-126.6422,-119.7703,-223.8846,-135.8194
-115.0286,160.9701,-101.1602,3.7813,-77.9673,-65.4788,-4.1174,-75.0008,-4.0640,-183.8980,-0.8642,-31.8634,107.7112,-39.0902,73.6225,-102.0015,-47.6570,-155.6033,-80.8341
-107.2739,167.1680,-51.8090,-0.7890,-77.9754,-6.5558,-9.3442,-50.3389,97.3559,-147.7386,72.5331,0.0176,147.6667,18.8014,131.2515,-35.6351,47.2268,-132.5451,-60.9539
-49.1210,163.3610,56.0978,-11.5142,-48.0112,12.7072,-9.9109,-36.3628,147.2374,-81.9924,119.6520,5.1846,165.3816,39.7935,79.6084,10.1891,153.2775,-56.9198,0.6000
41.9572,161.1810,180.2007,42.7127,35.7560,12.4944,54.1798,18.7957,146.0341,16.5728,138.3639,-50.7226,194.7301,41.6495,32.9969,16.8820,231.1096,30.9634,63.7012
107.2732,135.2784,220.3662,72.9467,71.8742,-4.1428,72.2251,46.0254,197.5835,98.4751,156.4621,-129.2517,218.1086,8.6029,66.9853,1.2359,229.4686,-5.4933,36.4498
87.8392,117.0629,136.5835,46.3597,-1.7174,-32.7422,-10.4166,5.6014,284.7050,98.5837,151.7190,-165.4082,209.5003,-22.7716,110.0161,0.5555,167.6703,-75.8050,-38.8591
27.8535,142.4040,14.2066,59.6385,-81.0561,-49.7888,-58.1698,-49.0724,306.2920,70.7283,114.3759,-158.0682,192.1408,-4.8291,126.8269,34.4973,113.7942,-55.5662,-62.8895
11.8963,150.2820,-20.5760,92.6583,-83.7980,-49.2771,-2.3451,-78.7695,235.7043,73.0577,74.9352,-142.0674,181.7983,15.6974,132.8470,55.6417,90.8081,-27.6509,-33.5155
16.6885,103.3916,41.2198,54.1983,-64.6193,-33.9695,36.7089,-89.7175,145.3695,50.3070,35.0184,-111.3468,174.7913,10.1126,120.8128,14.3573,72.2205,-47.7784,-15.8950
-32.1298,55.0426,67.2070,-8.6540,-61.5175,0.6012,-1.1063,-96.8378,110.3980,-18.8414,-26.7729,-63.0366,187.1790,35.3069,119.9683,-40.3933,40.8721,-54.2761,-45.7763
-91.4558,20.9893,-6.8216,-21.1772,-39.7747,40.6163,-19.0173,-113.5688,77.8765,-70.8003,-75.9102,-24.9802,214.6249,85.3907,149.1467,-33.3951,16.0730,-60.6080,-99.9365
-49.5518,-6.5782,-62.2955,-5.1667,-10.0441,60.8710,20.9149,-119.2839,-25.5507,-91.5987,-58.5397,-0.6112,215.0298,88.4752,148.4231,5.6289,32.0888,-86.3563,-122.6371
66.0204,20.1771,-16.5849,19.4832,-10.9489,62.9877,42.4421,-70.2380,-70.0643,-100.3750,-8.6846,6.5977,181.2371,66.3652,109.6884,-0.1335,84.1985,-51.5735,-89.4489
109.9880,93.6550,42.8542,47.6925,-10.9089,75.6036,23.5645,5.6513,43.9710,-70.2308,5.3096,-19.2882,141.0570,89.9788,87.3312,-41.2311,120.2067,43.6356,-42.5983
67.8842,131.7371,54.6163,40.8115,15.8675,109.2202,5.9493,27.1607,107.5192,-6.0035,6.0451,-39.5666,95.8421,125.9566,61.9414,-47.6711,110.5721,92.9033,-32.7746
67.5480,124.6004,55.3543,-0.7570,7.6529,118.1095,-11.5339,-4.6868,11.0149,23.0682,32.8743,-34.9324,51.5817,96.4391,29.8351,-0.3728,75.6684,84.5285,-45.6398
121.7591,96.4940,22.6248,-32.6188,-57.1509,58.0734,-31.9118,-16.4731,-11.9480,0.3662,28.6988,-79.0124,42.0668,27.3367,55.7905,46.8116,35.2846,83.5813,-27.5901
114.1089,24.9974,-75.0172,-55.4457,-84.6946,-15.7816,-18.3370,11.5689,78.2003,-4.2132,-36.4843,-169.5146,51.9757,5.5976,81.1347,42.6185,1.8785,92.3669,28.3039
41.1628,-53.1737,-135.4310,-88.7327,-29.7708,-18.9518,21.6119,42.9250,53.9769,50.0939,-68.6123,-195.9048,28.7172,30.2342,15.9504,17.4566,4.6901,77.7101,72.7239
9.2559,-73.7011,-76.6353,-110.0784,25.6889,17.0934,38.1880,55.2785,-11.8904,99.7978,-22.8918,-165.6930,-5.0655,27.5308,-15.5099,38.9340,45.4973,28.4773,72.3135
29.6127,-87.2827,5.5927,-92.8006,33.1569,20.6203,27.7495,43.0021,53.4838,60.0626,5.6788,-164.8704,7.0465,-1.9603,69.6498,74.1369,69.0420,-32.3281,37.8354
32.0916,-120.8410,5.9974,-47.1350,39.8794,20.3686,12.7558,15.6862,52.1862,-38.3629,-37.4082,-155.3199,24.9842,7.1785,87.6015,30.1637,40.5829,-42.4790,-0.9633
5.4246,-68.5023,-32.0161,-8.8369,64.8679,55.1937,5.5264,10.0187,-91.7817,-71.3830,-83.8503,-97.4199,-19.0321,49.3612,-24.5844,-47.6616,6.0716,10.7996,-4.3838
-8.8822,77.0472,-23.6526,12.2052,82.8909,86.2805,31.4438,45.7712,-68.2752,0.6769,-71.5408,-57.1642,-80.7177,81.5081,-59.9391,-32.3438,26.2461,50.8913,34.9428
23.7532,176.0769,31.4218,65.2471,98.2971,106.9338,74.8425,92.9960,98.6595,75.4620,-3.3910,-36.8707,-85.8898,118.1754,15.8633,40.3465,90.9035,55.9498,47.2345
109.9601,200.5067,82.0054,158.9856,105.3044,150.8400,56.9186,111.5074,26.9672,60.2093,90.4503,-0.1570,-67.6218,146.1252,12.1974,41.7295,147.2612,83.9144,-7.7311
210.0163,226.2244,118.0939,193.3399,78.9338,169.7619,-16.6808,90.3774,-212.8183,-17.6541,166.1768,-6.2324,-86.1659,102.8070,-80.7468,-7.5776,189.6945,121.9243,-39.5519
278.7146,244.2891,179.8593,136.6919,61.1276,106.8945,-32.8362,52.6731,-247.9168,-85.3373,202.8823,-44.7369,-114.3053,25.9162,-113.6338,-13.9531,248.4760,122.7507,17.1993
313.6926,232.2596,251.3996,114.1751,94.7651,32.4766,28.7457,37.9309,-113.6897,-120.0125,221.6095,-0.5622,-111.8123,8.7786,-70.0877,7.0095,292.9152,124.1143,78.7280
307.1848,232.8796,230.4680,171.6562,115.5883,36.1223,76.8881,58.2034,-43.2311,-124.4096,222.7929,77.7818,-103.9187,32.8885,-24.7972,6.7407,256.3909,151.8454,91.4332
244.5303,237.5208,99.0821,195.4225,89.9339,94.6717,94.6200,86.3269,-36.1876,-90.6961,187.5053,51.3092,-109.9234,52.3051,-9.3298,-2.5982,175.1043,166.7987,120.7232
180.7312,202.5550,5.7916,155.3792,109.7516,149.3805,127.8094,108.4887,-49.2384,-41.7891,148.6538,-22.8533,-103.6577,93.2862,-24.8988,-2.0356,163.5342,185.7648,166.0360
173.0013,160.5007,57.1644,140.6045,194.7336,185.4860,152.9191,141.0549,-93.2169,-15.9419,146.6563,-40.4448,-81.8006,136.8254,-31.3542,22.9073,223.5278,233.1440,153.2580
171.9790,132.6147,161.3736,147.1393,232.5508,194.3015,136.4198,181.4669,-102.1573,19.9355,152.9596,-60.9891,-70.6624,125.7272,7.9602,78.5685,229.4362,224.8042,116.5069
126.3245,60.4804,179.5073,99.6934,205.4734,167.0848,123.2393,201.7322,-61.7223,106.5951,128.9320,-125.0484,-66.7541,96.7380,34.3230,112.4088,134.9853,128.3777,129.4974
80.8311,-48.7434,101.5794,25.5037,205.7740,132.2784,151.2206,197.4984,-31.0288,167.2654,82.2832,-156.7427,-51.5524,96.7972,7.0551,85.1115,46.3290,77.1484,155.0049
65.9495,-81.8577,11.4982,6.7142,226.4358,127.3923,184.4726,194.2730,36.6002,129.6784,29.1226,-130.3976,-34.4915,89.3943,2.7727,50.2531,53.7202,136.5257,156.0272
56.6136,-6.7495,-20.5014,37.8767,191.5280,137.9517,179.5048,195.4921,148.6564,71.2408,-9.8035,-88.0639,-32.0803,64.7419,44.4250,43.8263,113.4756,180.5325,170.4829
63.7108,57.0006,10.1909,48.3378,113.2009,111.4864,132.7246,162.6921,156.8143,55.7020,-3.1759,-48.6227,-47.1672,52.5206,44.1123,29.1866,132.9062,130.8655,178.2991
88.1635,21.6283,42.8502,16.6680,38.0841,44.7058,62.4566,82.2780,60.6671,20.2728,32.1524,-22.1884,-76.4597,28.5525,0.1170,7.8411,87.8853,86.2558,114.5763
60.0485,-37.5908,17.0388,-0.0451,-27.5869,3.6891,-3.8331,15.0491,33.6251,-37.3252,41.3943,-7.2083,-99.3084,-21.2578,1.0197,10.9391,26.4727,121.2004,13.0466
-20.8706,-20.1844,-53.1508,42.1806,-61.7840,17.9632,-39.2717,9.2945,68.4274,-20.8426,21.3651,15.4688,-89.2639,-50.2617,46.0631,14.9724,1.5364,158.5309,-50.1926
-44.8082,30.8876,-106.9808,100.8295,-37.4436,37.1166,-31.9607,18.8381,46.4892,60.9807,4.0886,27.7174,-58.6270,-45.2275,70.8413,2.8850,20.7022,130.1328,-73.1782
2.0294,23.1130,-112.6826,121.7253,26.9531,44.1478,17.6728,3.8038,15.5867,105.3167,-19.0572,15.9539,-40.6955,-29.8609,63.8879,-1.5896,59.2550,109.6248,-72.5601
11.5856,-10.0020,-63.2390,128.9382,111.2976,87.4859,94.4287,22.9627,36.0597,94.7630,-61.9237,30.3106,-35.3817,1.9625,43.5485,0.9127,111.8271,175.6367,-32.9608
-20.6285,22.7657,44.8367,162.0814,189.5276,155.9908,151.9986,114.7286,57.4681,92.7966,-89.1615,88.5309,-27.9324,50.4414,33.7171,17.8752,185.0840,250.0445,37.3529
3.9287,99.7593,158.4833,192.7386,187.7189,175.5475,140.9415,200.2295,105.6855,141.0000,-71.8196,133.9521,-29.1788,90.3344,64.4428,82.9120,238.1262,203.8066,97.0036
71.2404,122.6563,176.6027,173.5275,93.3637,147.2763,75.7585,201.8869,203.0013,218.4152,-38.7235,139.1326,-50.6787,112.7834,103.8734,152.0094,220.2052,50.1940,115.1916
84.4490,69.5248,88.9105,113.9803,13.5741,131.7557,19.9404,147.6036,192.0979,251.9567,-28.9027,122.6771,-77.9869,111.4502,82.9042,147.5084,165.9592,-90.1535,82.1953
46.8278,12.3233,5.5144,61.1173,-5.5511,120.3587,-9.3597,101.6998,31.7921,211.0271,-43.6894,101.5662,-93.4793,74.8378,29.9535,106.2767,138.1039,-147.1312,8.4817
12.0611,4.1737,-7.5884,31.0973,-44.7581,69.7644,-42.3878,77.7349,-38.9391,150.0742,-64.7550,100.9044,-97.9384,19.7351,28.0797,95.7109,112.6333,-136.2543,-80.2161
-30.0262,13.7644,4.4410,0.6495,-124.5100,10.4818,-76.3634,45.4203,53.0317,89.9601,-75.3201,119.3651,-104.9056,-23.2481,49.3078,81.9892,51.3482,-107.1728,-154.1902
-70.7705,-6.5701,2.1538,-28.0223,-166.9431,-3.1493,-95.4407,-6.7484,66.4723,18.2705,-57.5902,111.5597,-121.2868,-35.4175,9.7880,37.0800,1.4629,-96.3722,-173.6776
-50.8166,-41.0949,-8.0999,-24.9540,-146.8508,8.1685,-112.6363,-38.5047,-69.2877,2.4666,-14.6843,86.3781,-132.2085,-26.6007,-58.9973,12.3549,-1.5554,-86.9162,-122.0407
5.1131,-53.5520,-30.6168,-14.5756,-93.5534,-8.3124,-104.8244,-23.1733,-149.9893,58.7314,11.0623,100.2581,-123.2408,-49.8632,-71.8026,17.7343,-0.9079,-43.3925,-60.1795
10.5074,-42.5847,-52.4752,-41.0146,-22.5020,-47.6340,-37.1972,-4.3027,-117.3026,52.5919,-0.6111,132.7471,-112.3130,-109.9749,-56.8687,0.5096,-5.8219,9.1179,-50.8922
-14.2737,-6.4663,-22.5181,-57.8164,29.9794,-64.7147,17.6956,-11.7016,-84.1560,-35.2969,1.5568,134.2696,-119.7471,-109.4417,-91.9236,-35.6283,31.1351,25.3503,-43.3785
12.6495,54.2243,64.8951,-8.0518,46.9185,-43.8781,-10.3199,-6.4584,-56.4318,-47.8451,51.7413,135.4209,-123.2398,-33.8199,-140.6255,-38.1306,95.0174,20.3121,31.2739
69.3490,97.2085,149.5348,52.4097,88.0574,-9.8405,-30.7277,15.1789,-25.8018,11.9370,93.7713,165.0223,-95.4334,-13.7868,-118.8989,-17.1100,116.5507,15.2126,105.9584
81.0080,99.3119,184.5853,62.3426,149.9354,6.8589,23.7887,3.8883,-76.8975,0.3404,85.7585,181.2022,-63.0544,-66.1867,-56.5897,-24.9443,85.7403,-10.7630,89.1280
56.6198,88.4280,163.7102,49.4731,124.7211,-1.6942,47.7591,-15.5709,-158.6066,-34.7262,76.6654,162.2583,-72.2108,-66.2859,-37.2676,-37.5877,48.6431,-53.4935,43.2652
49.3122,64.5274,104.3605,27.7777,16.2492,-16.0730,-11.0739,17.5657,-116.8621,22.7621,98.2704,139.2635,-114.7754,-25.1229,-58.6677,9.3994,26.4568,-85.2737,61.2938
63.6352,24.7336,44.8468,-16.9468,-60.4160,-22.4391,-64.2487,45.7668,-22.3551,74.0258,111.3122,133.3362,-143.5870,-51.5421,-81.1485,64.8705,4.4824,-119.7461,76.2703
72.0381,24.8869,13.5762,-47.3705,-108.9138,-43.2386,-97.1334,-22.2871,-57.0933,3.1013,104.7145,138.3849,-145.9524,-113.6751,-102.1061,23.7320,-19.6682,-158.4247,1.0437
55.7386,58.3830,5.4680,-51.4531,-178.3637,-91.4903,-148.0827,-124.8440,-160.1356,-99.2257,106.6146,126.6692,-144.3497,-129.5050,-99.3735,-62.2384,-21.9971,-148.8317,-71.7805
9.2685,28.4846,1.3882,-82.2301,-188.5815,-121.0958,-152.0382,-135.1700,-151.2962,-119.3736,101.5414,73.2743,-137.9855,-121.5427,-46.6665,-70.9782,-8.3037,-89.2609,-29.8114
-52.8046,-46.5173,-28.6489,-119.0266,-109.9228,-97.7478,-83.6359,-68.4586,-34.4173,-73.3185,61.6372,18.1015,-113.4538,-121.7649,-3.0657,-37.0400,-30.7142,-54.2477,43.4140
-102.0260,-49.5620,-104.2165,-89.2907,-65.5473,-72.5791,-43.3491,-38.8055,59.3698,-19.8391,10.5696,26.1130,-95.2664,-120.4238,-25.1724,-34.6096,-89.6324,-72.1650,26.8641
-125.6940,-3.8096,-181.0435,-39.8658,-80.5630,-97.2888,-49.4237,-72.8383,50.1880,-7.1040,-21.4076,67.7087,-109.3914,-124.1679,-53.0532,-18.4229,-112.7699,-101.8016,-30.1363
-129.8630,-12.7634,-192.7052,-60.8721,-57.0574,-129.8995,-27.6051,-98.6508,-25.5057,-48.4385,-29.3207,57.1464,-129.4033,-127.6960,-31.6217,8.7934,-81.0167,-110.0185,-34.5151
-114.5088,-48.1945,-134.1373,-108.0522,-9.7470,-104.0747,5.6684,-76.6898,-27.8080,-74.3880,-5.5884,-6.0150,-124.8254,-105.9254,-11.5786,-30.0196,-33.4685,-82.1641,2.8150
-81.8851,-39.7247,-41.8347,-94.0625,-0.5548,-30.1817,12.3361,-38.6373,81.8767,-25.2665,36.4487,-51.1666,-107.6982,-68.1471,-27.8464,-68.6420,28.0361,-27.0918,47.8577
-65.5637,-15.6309,27.5327,-41.9926,11.3515,22.4855,29.9825,-17.9523,106.8866,36.2645,48.0812,-46.2038,-94.8168,-39.8756,-43.1322,-13.7264,73.6659,0.9528,87.2948
-90.1883,-5.5280,4.5475,-16.5205,27.5291,8.4367,47.8326,-9.8844,-38.0840,39.2350,21.1708,-5.2863,-91.8106,-39.4552,-40.6285,34.8785,29.2973,-22.8447,89.6187
-101.9582,20.6893,-74.3108,-16.0440,-13.0331,-42.5548,17.6965,4.7176,-91.5557,32.3566,12.2572,49.4036,-104.6106,-72.7443,-26.3400,4.8261,-41.7406,-46.5159,65.2385
-34.9121,66.2022,-72.2692,-6.0894,-59.1597,-65.2540,-14.8867,17.3359,82.3805,65.5217,49.7758,84.8240,-113.9275,-93.6444,2.0278,-3.4792,-8.4999,-50.6821,60.9179
52.9690,89.3552,-3.9078,15.0926,-59.3206,-55.2861,-23.3769,-11.0578,188.3238,76.9799,83.9758,82.1426,-102.2614,-71.6544,1.6206,18.5276,46.7176,-83.0301,43.8152
45.9618,61.0864,-30.1084,20.4646,-105.9020,-59.0636,-85.2887,-67.4301,36.4224,29.0589,58.3237,70.3577,-109.3539,-69.5591,-62.8225,-17.4336,-23.8153,-118.6898,-16.8514
-35.5993,-4.7313,-128.9194,-2.0568,-199.3773,-67.5285,-177.0033,-53.3532,-112.3142,5.8247,-6.7454,70.4499,-152.1084,-94.3122,-108.1296,-45.7854,-118.3741,-54.6390,-26.6385
-75.2611,-53.3363,-126.2901,-30.3941,-177.0370,-36.1273,-151.5997,55.1307,-51.8294,49.5598,-38.3269,54.4056,-158.4020,-47.7944,-58.5074,9.2128,-93.9839,99.7207,53.6939
-62.6175,-44.5213,-44.3530,-36.3643,-41.2763,9.8379,-21.4950,126.1577,41.2117,71.0213,-20.3530,31.4818,-104.2154,35.4078,-2.9086,41.6724,-45.4795,195.2163,102.0629
-76.3571,-0.8128,-41.1967,-15.6993,26.7056,13.7080,41.6074,91.1895,9.4400,32.3016,-17.1569,70.2429,-73.3525,10.8919,-32.3127,1.0448,-76.9599,155.4766,73.9617
-118.6576,42.4413,-100.2597,14.0776,5.1415,-20.5821,7.8135,47.5855,-37.8352,22.0198,-62.5901,163.5558,-85.8806,-76.1873,-66.6736,-6.1694,-114.5133,72.3235,56.0940
-128.4506,77.1482,-99.0473,29.8345,13.3597,-58.8631,-4.3031,34.3092,-8.3185,70.1135,-115.7662,223.2183,-70.5459,-77.7528,-31.6362,33.0488,-111.7510,45.1683,47.0499
-97.4071,86.2150,-39.0363,22.4294,54.4272,-80.1122,24.7876,-2.4818,31.4803,97.0962,-147.3212,239.4116,-40.9647,-30.4167,-19.4045,32.2898,-117.2536,58.0942,16.9716
-53.3630,57.9501,5.3785,7.4957,60.0131,-69.0872,31.1891,-8.4745,34.1520,75.7635,-156.2026,257.4194,-65.8875,-32.7815,-90.6337,8.2809,-106.7894,68.4487,57.8526
5.8166,32.8283,21.7164,8.9433,30.1221,-41.5305,37.3208,62.7187,13.0385,52.5977,-116.9037,243.7648,-101.5106,-40.6709,-122.2425,19.1639,-18.3727,79.1206,169.3279
77.6898,54.1212,34.8483,35.8064,-24.7302,-32.9819,65.8463,70.5208,-41.3031,36.0953,-37.4018,173.1701,-77.1370,-3.3462,-37.4229,35.7866,92.3211,65.8329,173.1445
111.8347,92.6666,39.8008,67.0097,-111.3997,-31.1890,24.9757,-35.7766,-109.7426,3.6705,-7.3009,113.6467,-49.6970,24.9690,27.7716,21.0308,115.2664,-11.9068,49.2741
73.9167,71.4161,15.4768,58.7558,-184.4879,-9.8070,-108.9395,-62.9984,-128.0312,-36.3806,-65.4150,83.9965,-85.3971,7.1705,-25.8820,-9.7335,57.5465,-86.6850,-22.5879
21.9599,-26.8197,0.0232,10.9983,-170.1007,7.4752,-182.1525,52.3183,-103.4129,-51.5190,-114.9114,40.7880,-118.1073,-14.0827,-79.3569,-37.9257,38.4938,-44.1957,-23.3951
37.4187,-100.0476,77.7231,-2.1014,-45.4279,13.5476,-104.7113,134.5079,-99.8102,-15.1644,-72.1333,29.6598,-70.5976,6.4488,-44.9351,-49.4803,100.9001,91.3874,-78.5434
86.5249,-55.9382,216.9390,50.7941,136.3506,43.5969,25.7595,129.1153,-115.6634,44.0092,3.1821,89.5272,10.5897,51.6965,-24.2950,-29.4554,132.1096,201.3373,-146.4362
58.2264,27.4428,266.4421,89.3173,275.1523,75.6729,127.7729,124.8191,-116.3138,33.2645,8.7054,116.3894,47.8511,64.0691,-62.0144,3.2728,68.9751,234.5803,-111.0088
-46.2748,27.6468,214.5798,65.2982,308.7353,57.6044,202.4337,97.0848,-108.1708,-73.0636,-47.3791,58.4098,53.7191,35.0884,-55.9514,2.4486,27.1880,195.2877,-35.8074
-91.8169,-12.9669,217.5775,44.9127,261.7440,26.1797,207.3381,16.5158,-90.9229,-152.3369,-66.0974,28.6059,73.1519,19.2347,-4.8679,-38.6684,79.4026,105.1357,-29.1495
-8.5305,-9.2513,299.8321,67.9335,180.0113,36.0331,124.3558,-10.6918,-50.6568,-94.1699,-6.3626,73.0649,90.0907,34.4247,-7.9643,-54.5191,125.0108,44.7559,-49.7591
105.0970,-8.5371,324.2362,82.4374,100.7444,48.8701,61.2139,43.5178,2.4306,45.5762,47.8581,92.0973,79.2404,53.5775,-24.4823,7.5735,106.7131,71.4157,-32.9059
121.7375,-46.2646,266.1799,62.7848,89.5146,38.3212,93.7911,75.2145,88.3070,142.7002,5.1421,45.5219,78.8867,81.3330,39.8690,82.3759,94.4528,122.5178,-8.5651
49.6657,-47.8672,222.2567,54.1551,159.8520,68.4634,157.5957,80.5326,224.7555,158.2683,-91.9278,11.0250,119.8307,121.6992,115.7960,73.8349,113.2473,133.6315,2.0621
-4.8749,-5.9927,210.8919,89.4309,204.1261,153.8334,185.4177,130.8974,300.7036,124.2878,-120.7938,45.3199,154.6155,143.0065,111.2476,24.1362,125.5702,124.7377,31.5357
-12.5986,-12.9673,182.6797,133.7920,150.5047,199.4665,181.4427,179.6452,208.6242,71.0292,-56.2535,102.3241,140.5558,146.4204,83.5549,39.3804,115.0427,100.9302,70.3347
-47.8807,-78.0970,124.8501,116.0726,67.5274,163.0388,149.7796,153.0400,62.0684,39.2998,3.0917,89.4951,107.2837,161.3296,92.1390,101.3538,59.7135,56.5170,65.9986
-109.9805,-119.6675,61.8499,31.8475,18.9550,129.0218,85.8620,103.0671,19.2745,67.7309,-2.2282,12.8664,85.5508,180.7634,92.6034,119.4104,-22.0452,58.6725,21.0562
-94.6524,-108.1300,36.9711,-18.8051,-3.0288,159.9237,12.6916,95.1730,24.6586,92.3994,-14.9363,-13.6955,65.7132,184.1896,54.7638,84.9186,-37.9370,133.1979,-18.5828
-13.8532,-89.7242,55.5653,19.6743,15.4680,193.2530,-34.2140,88.0762,-27.2859,8.2097,3.3684,21.4756,45.7812,156.1165,9.9494,49.5929,-3.3151,168.5965,-46.7430
-6.0502,-109.2551,34.0361,64.9266,75.7749,144.6901,-35.6593,28.0795,-66.2175,-105.9353,-6.7656,13.0013,34.9672,84.9626,-11.6735,38.9411,-53.2579,86.1482,-72.0953
-73.9780,-149.0205,-70.1108,46.7924,107.3319,33.4064,-6.4729,-53.1236,1.7793,-76.8554,-63.3592,-15.9559,29.6939,15.2669,-1.1716,41.2544,-177.7715,-34.5445,-65.8688
-95.4392,-154.9776,-163.3202,-7.7748,88.3318,-53.4382,23.6584,-93.5629,90.8427,35.7357,-86.7913,26.1958,30.7995,-1.6625,14.2068,27.4652,-248.4056,-83.5065,-20.6489
-79.9591,-143.6282,-186.1386,-81.8278,80.5660,-74.2470,50.0735,-78.2144,57.4361,58.2727,-63.2841,47.5091,32.6526,-10.8470,-16.5333,-9.3223,-268.6841,-50.3645,21.1447
-115.5066,-186.7864,-203.4316,-162.7800,77.2834,-55.5851,62.1307,-27.3606,-63.6553,41.4695,-71.7592,-53.0095,7.2920,-46.2987,-73.9782,-35.1224,-290.7026,-3.4689,53.5553
-163.8374,-256.9985,-249.7411,-178.9412,7.8395,-27.3898,26.0338,36.3934,-97.0511,80.6014,-110.0019,-150.9829,-38.4341,-38.9954,-71.5038,-28.4705,-266.6220,-2.4072,107.5277
-165.8091,-253.5602,-293.1394,-122.9010,-103.0373,8.1732,-24.9988,85.9876,0.0131,79.1894,-107.1492,-143.3858,-54.4376,18.8437,-3.0332,-2.1925,-198.2585,-28.3558,157.5212
-159.0174,-185.0914,-318.7359,-92.4054,-150.4077,45.6494,-7.4284,102.6924,81.7706,20.8537,-78.3239,-118.3931,-36.8196,38.5125,35.6821,33.5110,-163.3836,-21.1758,155.5002
-137.6579,-146.5707,-286.0700,-101.6124,-91.2727,63.0068,54.6398,93.7571,76.2794,36.1212,-71.9258,-115.8211,-27.0170,26.7218,2.3355,58.6240,-142.4703,14.4569,110.0296
-52.8145,-158.9046,-157.9711,-68.5302,17.7158,60.5937,62.0457,64.2947,67.7596,76.4117,-65.1807,-77.4210,-26.5069,59.5729,-36.2015,42.5757,-90.4698,23.8716,44.3485
27.0379,-167.2210,-27.3285,-2.2871,84.8372,73.6257,16.9821,18.4859,88.0072,35.2667,-36.3086,-32.0475,-17.5502,115.3650,-25.9810,6.8124,-62.2367,3.3602,-19.6563
18.8978,-132.6737,4.6499,23.1188,78.2679,105.4155,-11.0549,-3.2164,86.5383,19.0681,-1.0504,-21.7810,-17.5208,126.2802,-4.7825,-3.3482,-76.6070,-16.1458,-34.4921
-20.4175,-71.2824,-7.8574,11.2265,59.8687,92.8056,-10.7346,13.2851,69.9956,54.6473,35.2937,14.7950,-28.5855,75.3575,-15.2226,-2.6831,-76.0512,-40.8561,-11.3689
-34.1421,-39.9049,-5.7761,-2.8866,76.3818,4.3081,7.3346,0.3137,71.1660,-4.4120,43.8261,97.1366,-18.1980,-9.7221,-16.4771,-13.9528,-68.2143,-81.3372,-22.5679
-49.0442,-57.4798,-17.2539,-16.7530,81.5148,-82.0408,41.9689,-59.8056,97.8073,-62.0800,-6.8217,143.1714,9.9506,-47.9540,36.8778,-0.5412,-80.8028,-104.6181,-42.6790
-48.9861,-68.1348,-12.0437,-17.8600,33.7277,-89.2243,47.6579,-77.7535,158.0061,70.4924,-51.9568,111.0091,19.5253,1.1326,92.9075,49.4649,-77.7828,-88.0484,-11.4320
-13.5183,-48.3024,41.6384,-6.0179,-38.7012,-65.1820,-18.1909,-50.0985,188.0098,200.4030,-24.1836,33.1590,4.9946,20.1746,79.9612,70.0985,-64.1319,-78.0465,-16.7531
-16.3052,-47.5820,42.0555,-18.3951,-100.8202,-92.2507,-107.8447,-89.4460,111.0771,99.6572,20.4217,-43.3923,-22.2347,-74.0221,16.5421,22.8102,-81.8261,-129.8404,-117.4580
-79.5592,-73.8166,-53.9778,-47.7637,-130.3845,-145.4463,-140.9602,-184.5233,40.3626,-48.4621,28.4511,-71.7937,-60.4881,-153.5274,-38.7745,-35.5952,-101.7818,-208.4653,-169.1423
-110.4450,-83.4371,-123.9595,-50.1210,-120.5786,-151.3923,-117.8909,-203.6677,93.6151,-55.1734,33.4578,-42.4324,-94.4646,-121.8665,-59.2737,-45.3814,-111.7333,-234.6271,-108.4946
-83.3530,-77.4672,-124.0518,-48.0035,-123.6395,-119.0281,-116.3873,-147.2781,114.6698,-40.6425,34.1791,-2.3269,-108.8119,-75.1004,-42.1769,-34.8221,-161.1980,-214.5089,-82.1362
-60.9883,-77.9620,-137.2265,-83.7589,-177.4436,-108.0708,-174.8166,-126.3433,-17.6947,-96.9811,-7.0606,1.6823,-120.0989,-79.6489,-21.0925,-53.4531,-215.5075,-201.1171,-118.3201
-69.9681,-84.0129,-177.6218,-126.1664,-212.9416,-125.5613,-219.4074,-151.4971,-120.0248,-149.5457,-75.5370,-48.7072,-137.7207,-91.5380,-41.6318,-74.4197,-213.7872,-162.6201,-90.1387
-130.6648,-105.0154,-216.0351,-140.0747,-167.7307,-136.4457,-166.7191,-155.7789,-71.9504,-157.4268,-151.2093,-131.6705,-131.3626,-97.8398,-67.7219,-64.7447,-221.9797,-46.5002,-23.3281
-235.6011,-123.4101,-238.2402,-132.5892,-78.4477,-128.2815,-52.5527,-122.7799,-5.5765,-133.7512,-207.1636,-165.6674,-83.9467,-98.6015,-38.1817,-74.5857,-256.0613,88.8979,-29.8207
-239.3395,-74.1807,-156.1160,-80.1736,20.4649,-107.6157,35.5749,-76.8869,-5.0291,-102.1869,-161.5858,-100.3370,-29.2122,-70.5634,-4.8727,-122.3854,-171.1912,149.7873,-67.0062
-44.9755,30.7464,56.6065,30.0657,113.2185,-72.1200,77.4667,-47.2499,-48.6280,-97.1870,-19.9623,-0.0000,-6.8395,-39.4555,-34.9097,-118.1619,41.9069,126.6199,-58.8098
167.6465,88.8510,206.9089,111.9865,134.1890,-22.4609,82.7169,-52.7084,-123.0040,-91.3419,70.3060,62.6378,-16.5198,-21.5277,-70.8079,-37.9864,174.5522,63.5664,-33.8946
184.5704,69.1912,159.4470,100.7833,63.6519,19.4526,44.7299,-66.5636,-140.1772,-59.1958,42.4327,80.9921,-30.9995,14.3387,-61.1960,5.6662,141.6842,0.8451,-21.7961
54.1673,27.1423,37.8255,60.9807,-12.1953,17.3572,-6.9526,-57.6144,-43.8716,-76.2860,-34.4571,39.6861,-29.4779,15.7082,-51.6101,-36.9909,61.5107,-44.8550,-18.8875
-67.1904,-11.3964,-43.7990,41.8169,-37.8031,-40.8600,-9.1008,-45.0942,30.8948,-140.9429,-113.5766,-52.1762,-0.8093,-76.9651,-40.5529,-85.8685,3.2317,-73.0643,-10.0887
-122.5367,-40.2289,-104.0556,0.9565,-24.6544,-95.8776,56.4347,-26.3543,25.9939,-114.3415,-146.3266,-93.6903,61.5475,-139.8907,16.5160,-82.4720,-40.4255,-43.9562,60.0517
-98.0389,-42.5272,-110.4009,-52.1171,28.3430,-65.5410,133.5025,42.4999,70.5209,13.2935,-60.2743,-47.9571,137.2153,-64.1014,62.4856,-39.9088,-41.0111,72.0861,173.9489
-0.5457,-44.5546,-29.8170,-60.7484,91.5856,17.8204,144.4646,120.2317,132.9355,105.8508,74.1129,-33.2751,183.1577,16.8659,40.6028,4.0566,-10.0778,166.5171,180.4206
80.4728,-79.8935,32.9292,-64.0217,101.5157,27.1870,84.2655,104.6655,52.3934,115.6406,100.2730,-111.8287,187.8927,-20.7118,19.3596,6.0012,-26.4296,137.7629,40.0723
61.7730,-108.2049,7.4631,-105.0204,87.3103,-46.2405,36.8192,17.0285,-88.6922,73.8167,20.7281,-178.8909,178.0553,-74.1292,34.1756,-20.6149,-81.3606,103.6343,-75.6481
-7.6717,-79.2300,-17.5575,-103.3312,130.7434,-62.5464,54.9893,-27.0532,-92.9287,18.1383,-51.5848,-149.5488,172.3403,-39.1074,26.3071,-5.8603,-69.0693,171.4829,-55.8246
-12.1136,-13.7319,29.1864,-22.8917,207.3555,22.1719,101.8685,-11.4646,17.1888,14.5169,-65.6505,-72.4511,185.3649,25.3173,11.8053,39.0484,28.4713,204.0781,24.8722
65.6416,41.6220,90.9781,25.5227,221.5973,79.3197,134.9581,-8.5972,81.1980,32.3244,-11.6367,-34.3322,227.9917,36.9971,44.5988,30.8164,94.6750,110.0299,68.8225
116.0391,52.8418,84.7717,-11.1022,140.2636,33.2933,131.1874,-33.5016,20.6956,-40.4735,77.3957,-71.8615,254.4889,-4.2013,70.0071,-24.2130,46.4707,24.1040,54.5917
60.0432,-5.8245,7.6125,-56.2952,19.9685,-39.8114,73.7023,-47.5624,-86.8786,-125.6168,100.0512,-153.1280,214.4994,-50.3495,47.6762,-60.9478,-51.6530,3.1910,21.9262
-43.8347,-103.9921,-62.2276,-75.3375,-51.0210,-72.3164,11.7900,-37.1059,-93.2566,-64.9527,35.2646,-204.3226,157.8151,-63.4201,36.2933,-77.8923,-93.2185,-44.0561,13.0818
-109.7031,-155.6699,-76.3820,-89.6405,-61.7147,-79.4228,-2.8232,-6.7742,-19.5824,44.4515,-12.1394,-194.9085,140.7461,-59.2572,28.3408,-78.5312,-81.4714,-98.5358,3.2799
-124.6991,-142.7346,-90.5336,-85.9316,-95.1842,-71.0625,-40.5444,37.2969,-29.4828,54.8394,3.7792,-172.9017,116.0084,-64.1994,-31.2648,-36.6016,-91.6617,-87.4541,-21.5322
-85.7986,-144.0872,-142.2672,-75.2465,-160.1054,-38.6107,-145.0024,69.6084,-87.1395,53.3007,30.5681,-184.8164,65.2847,-49.6325,-75.6055,10.1044,-134.1199,-58.7627,7.6991
-1.9679,-184.1941,-167.9546,-96.5764,-159.4431,-5.6235,-197.7517,67.5531,-45.0816,105.7300,38.5450,-214.8674,60.7350,-1.1778,-41.7644,7.7221,-157.7437,-44.9869,75.2733
38.4538,-183.0907,-143.8672,-107.5124,-96.7456,9.4414,-147.1686,44.2602,5.4590,112.0217,24.4172,-219.6928,95.6407,31.2859,-11.5897,0.3804,-144.2682,-2.9306,54.8767
-14.3468,-110.2374,-134.4671,-57.6056,-73.8250,26.6829,-110.0262,22.9048,-46.3155,62.4387,-13.1762,-182.9667,92.3226,32.7678,-23.8991,35.6097,-108.6098,38.4657,-21.6570
-63.4132,-39.3232,-141.8191,-8.8994,-86.5801,40.0424,-112.5336,7.4741,-59.4928,32.9425,-49.1765,-133.8874,74.7321,36.5366,-6.4671,59.9962,-49.8665,32.9305,-0.4990
-25.0587,-12.3166,-99.4827,-12.8356,-70.4425,7.2889,-64.3853,-3.7342,35.3843,-1.2744,-73.8048,-117.4969,92.6984,24.1435,27.8758,24.4070,30.1003,27.7547,86.9274
50.5034,-1.2416,-10.6273,-18.2422,-39.9716,-52.1953,7.3064,-6.8070,93.4955,-44.6719,-88.4860,-141.0556,102.8074,-32.3217,10.1637,-36.6545,89.1694,42.9635,119.3709
100.3011,-1.1729,56.4000,-5.4719,-11.8071,-58.6785,16.8735,9.4579,67.6319,0.1259,-40.8670,-167.3845,96.1981,-78.1971,-21.2144,-76.8760,80.3310,29.9907,140.5005
118.5198,-18.2725,61.6777,-18.6459,24.1576,-5.0717,-5.6388,64.7132,23.7889,135.2738,72.3018,-161.9089,116.8631,-53.5229,-24.1803,-72.5113,22.1444,-4.6809,212.4147
95.9158,-27.8673,13.5675,-51.0768,19.1143,29.4792,-10.7046,147.5970,-20.6517,229.5538,118.7896,-128.5510,114.2314,14.2774,-44.2351,-13.0139,-23.4912,-27.0452,261.6650
28.1278,-46.9433,-51.6311,-73.4261,-43.4208,18.9157,-7.2379,192.6772,-18.5112,208.6851,38.0756,-105.1217,45.9559,60.4777,-72.3754,56.7347,-47.3177,-44.3900,248.7046
-45.7119,-115.7248,-96.7442,-98.9390,-62.1977,18.9172,25.4454,171.6609,60.8427,142.9496,-37.1378,-116.8358,18.8758,62.7423,-41.6164,69.2655,-74.2051,-33.3458,234.7539
-78.0732,-171.0228,-101.3066,-108.1582,16.3116,49.9721,101.0536,155.0600,120.5602,155.7487,-16.8390,-132.0735,91.5253,51.6961,18.1312,47.4866,-70.0377,36.8153,236.0318
-56.3992,-120.0707,-54.6711,-49.7167,104.9521,72.5197,142.6610,188.5609,118.5721,244.3539,20.1939,-104.2823,149.4793,57.7023,29.6378,56.8724,-3.5431,102.8886,205.8226
-9.9278,-0.6771,24.6723,46.4285,125.0289,73.6239,94.3960,211.3472,119.6949,255.7786,19.0646,-42.5346,123.9471,64.5889,6.2848,67.1583,67.8504,106.4720,140.6875
27.4123,100.9838,89.0166,109.7370,106.9048,75.9635,33.3355,192.8082,118.6846,159.0972,25.9780,18.2187,88.3294,54.8611,3.4485,25.1483,110.0378,104.6217,100.5709
66.7308,166.4443,131.5895,144.1760,131.3752,78.9993,66.4670,191.3366,118.6345,127.3503,50.5002,67.8228,96.0306,48.0640,25.5417,-13.4700,167.7274,144.2660,120.4110
124.3034,178.4188,180.9620,177.3115,219.2939,71.8950,171.3615,205.8865,182.2486,192.9987,53.6237,90.1871,124.2053,44.2398,42.1458,7.1190,229.5013,171.1069,142.7405
163.7892,129.2905,222.2166,192.5443,271.8011,77.1287,215.3707,168.5289,225.7356,185.3830,43.6071,69.0317,140.3228,34.8868,31.3709,37.1114,243.3572,146.4451,110.1494
163.7696,101.1975,233.1316,193.1012,194.2679,114.0709,143.7694,101.8690,136.1404,99.5603,39.8250,49.1755,119.6185,65.9876,-4.6487,46.5916,245.4292,104.8545,70.6426
164.1891,142.0200,229.1209,210.8147,60.9466,148.9263,56.8963,77.9623,32.6274,82.4915,20.1688,84.6396,63.2256,144.8482,-42.3836,67.4915,265.9656,69.3920,69.7274
181.8234,162.2457,195.1493,220.3225,-0.1610,144.4346,36.0089,80.5524,46.5950,105.8986,-4.8803,137.5548,12.3998,181.2253,-44.2582,71.3597,245.5360,38.9587,72.8342
187.2590,104.2444,114.3655,166.1125,-6.0841,122.5055,34.0006,75.6904,114.0206,73.1206,14.1494,133.0791,2.1963,146.4216,15.9637,20.4633,177.8242,37.7464,84.7131
165.1170,38.4246,54.2891,68.8670,-29.2533,103.6310,14.3312,79.8515,153.7688,43.5599,54.4039,76.1628,27.4073,101.1742,87.4577,-19.3482,115.4900,68.2363,117.7036
100.4813,15.5150,53.5539,-0.2697,-52.3268,43.5620,11.9922,70.7131,126.9776,60.4260,45.4088,31.4664,53.5754,35.5435,77.5102,1.3189,32.2192,74.5268,79.0772
-23.8710,7.7864,31.3793,-28.1310,-53.9829,-69.7965,18.0655,19.3912,36.0349,60.9183,-6.1095,26.8575,52.8226,-70.6588,28.9580,29.5944,-90.3417,40.6735,-44.0416
-161.3934,-3.8582,-55.3052,-56.5481,-74.8767,-142.6399,-7.0860,-11.2502,28.4825,49.3411,-52.4614,30.4026,43.9154,-122.8881,76.2466,33.1566,-165.3283,27.3034,-98.6383
-229.3568,-15.9312,-134.1299,-93.1353,-113.7150,-113.8324,-33.1301,12.4427,154.7942,55.5090,-88.4856,8.4908,53.3219,-75.8330,170.1497,25.9620,-151.8687,50.9150,-62.4325
-207.4466,-24.5115,-152.5740,-99.6788,-103.9965,-56.7456,-19.6253,10.9124,176.9221,38.6372,-103.9262,-24.6763,57.0481,-26.8574,157.8005,6.9485,-116.5625,61.1865,-76.5068
-148.9470,-16.2665,-137.2513,-67.4880,-38.5966,-47.3783,2.8819,-44.3169,26.3635,24.1626,-81.9033,-30.7130,47.1374,-24.8738,100.1230,8.9158,-111.0452,44.4977,-146.8980
-118.5800,6.0500,-140.1054,-40.2238,-8.8163,-63.8555,-8.2506,-94.3891,-31.8394,56.9732,-57.8600,2.6413,56.7670,-23.3485,119.1965,58.9774,-140.9739,0.4980,-188.0157
-118.0583,18.5440,-185.3401,-45.7985,-70.3701,-66.4590,-47.1926,-139.2155,48.8795,30.8722,-55.7366,49.0924,50.8414,-6.5847,112.0662,75.2706,-169.2173,-101.2802,-204.4003
-82.0386,12.9597,-213.6648,-62.1297,-143.5737,-43.3696,-71.7748,-186.5092,60.5010,-76.4717,-65.7420,48.7301,-17.4975,26.6815,-1.2981,13.6831,-114.6926,-211.9210,-177.1567
-4.7023,-18.0645,-150.3577,-67.1559,-134.5095,13.7223,-52.1263,-163.2369,25.0190,-56.5419,-123.6454,-38.8597,-63.1474,80.7107,-64.8806,-15.6440,8.5040,-234.3138,-79.3355
25.4864,-71.1477,-62.3761,-63.2518,-95.9470,74.5743,-33.2881,-77.2711,60.6890,97.1996,-201.0255,-131.8900,-20.7715,98.2995,4.7071,28.7502,60.1457,-219.2130,-38.8438
-2.4717,-64.3608,-71.9038,-45.0646,-134.8446,74.4062,-88.3484,-61.8330,74.4835,88.3049,-127.3977,-95.1829,12.7485,43.6507,76.4139,31.2755,-6.0383,-265.4021,-140.6340
11.8881,83.8752,-141.0681,-4.7658,-219.2426,12.1751,-179.1604,-138.2923,1.3398,-108.5454,115.4615,29.3135,-12.6409,-16.2037,66.7184,-36.2638,-90.9732,-285.5744,-252.3069
99.9773,294.3912,-146.8147,39.9091,-226.3954,-39.0097,-197.0258,-179.0849,-92.5568,-187.0690,294.3150,60.8776,-15.2095,-28.0078,8.5860,-70.4746,-123.8416,-171.2220,-286.9110
201.4760,407.0345,-79.6859,71.1153,-131.5236,-31.9336,-144.9651,-133.2230,-198.0107,-89.7047,324.3466,-33.7951,9.0998,-7.1353,-65.2472,-42.5561,-86.5712,-24.7460,-300.6068
283.3653,392.0924,-11.5132,89.0876,-30.1219,10.3707,-114.9114,-67.8372,-265.9643,-13.8190,363.9566,-139.6679,-4.6035,28.2179,-112.7230,-13.9636,22.5146,25.7172,-270.3298
334.1418,342.5253,19.5781,81.4472,-2.5123,33.6514,-120.5338,-31.0193,-184.2043,15.7722,442.9807,-208.7493,-26.7239,41.2946,-112.1321,-13.7461,127.1529,18.8851,-153.0415
335.1526,315.4126,17.8023,35.5440,-28.3475,9.5444,-108.7395,-22.9635,-33.3105,43.5242,441.7158,-242.6480,-11.6990,-3.0162,-101.9130,-23.4505,137.3725,27.4592,-62.9683
289.5436,282.6541,7.3309,-20.2590,-47.3270,-31.2206,-75.9227,-30.5947,22.3774,-7.8567,369.2528,-222.5315,21.1325,-49.5370,-75.3629,-9.7579,74.9832,46.2703,-87.8653
207.9827,198.1833,7.3004,-53.5776,-54.6886,-35.3906,-56.2652,-30.9431,10.0289,-88.6023,317.0940,-197.6827,63.9575,-29.6088,-11.6732,34.5284,11.1969,37.1155,-124.2602
132.7098,75.1670,12.7388,-74.8083,-69.3296,5.3038,-55.6147,-20.8764,4.6697,-42.8680,300.1140,-219.7699,97.9241,29.0986,5.6163,58.5049,-20.2177,-32.1211,-75.3071
153.6006,-2.6161,13.9362,-92.6829,-72.2033,46.2487,-60.9308,-30.2503,0.6890,46.1718,297.6852,-205.1450,83.1704,70.8277,-47.5190,24.1170,-10.0749,-132.6889,-7.0999
252.7082,25.5334,-0.3458,-78.9974,-71.0719,39.7504,-68.3216,-67.8460,17.1250,10.2558,282.2921,-102.1172,60.2621,66.8804,-47.7154,-33.6167,18.5954,-174.2690,-3.7004
266.6386,107.6706,-36.1858,-21.8136,-108.2032,-2.4693,-77.4653,-92.9343,19.0363,-80.2177,231.2426,-28.8895,71.3705,7.4426,4.4198,-72.7729,34.9598,-133.6690,-20.9447
141.6391,139.6107,-53.8769,35.7684,-140.3250,-12.0435,-82.8908,-64.4007,-83.3935,-118.1522,181.5367,-57.6326,55.4676,-51.3376,-22.3570,-87.5883,46.9477,-63.2698,9.1289
14.4617,95.6425,-13.6363,40.4440,-91.9430,20.3707,-70.1637,2.9503,-181.4116,-129.9711,160.6394,-108.7199,8.3977,-39.7688,-71.8962,-81.4806,48.4000,33.0931,34.3051
-15.8038,35.9490,47.3046,-6.0934,-7.0531,16.1470,-14.6492,57.8617,-98.7222,-83.3449,139.8307,-129.8526,21.7865,6.4384,-2.4004,-65.1924,24.9589,153.2185,0.7520
16.3191,1.8725,77.5227,-43.9474,45.4123,-25.1627,86.2571,85.7503,58.5247,44.6352,130.5025,-133.9447,78.9272,25.2230,101.2492,-47.1030,30.2811,213.3058,-8.7679
42.5257,-8.8100,69.6283,-26.8401,77.5491,-8.6778,167.4842,105.7276,105.2913,93.9560,143.9439,-108.5141,95.6231,26.2865,100.4883,-28.9573,87.2703,175.6740,40.3080
34.8449,32.5224,18.2957,29.6366,69.2088,48.6273,144.8062,109.5486,87.6723,1.2348,122.4485,-52.8193,88.8038,18.1628,56.0404,-32.8207,124.3386,123.5419,29.3316
33.3504,147.3458,-42.4636,94.3520,-0.5426,54.1361,48.5880,105.6220,77.0867,-44.2584,83.5846,3.9865,82.2233,13.1752,56.4468,-46.5746,140.9211,132.1137,-42.3190
71.8972,232.7261,-26.3094,152.0659,-17.4153,57.4382,15.4577,158.1386,26.9924,32.0009,103.9769,48.2026,57.2267,70.5314,78.4279,-2.6491,196.0444,188.8320,-20.3353
83.5705,176.7516,56.6830,169.0885,73.6358,133.5205,76.5121,250.2684,-37.7645,74.8730,119.5264,51.9651,58.5528,165.8694,106.0866,68.2173,233.5600,218.4517,67.5728
28.4173,75.5759,109.3898,127.5518,108.1192,187.4840,87.2463,250.1044,-60.3668,23.4923,55.3496,3.5821,91.8640,185.1088,134.1847,50.2280,204.5890,139.1207,49.5002
-11.3630,93.0396,130.2210,85.8836,0.3482,142.4398,-28.1171,135.6474,-104.1951,-32.4994,0.5866,-16.9609,52.7975,129.6698,111.2651,-9.8375,187.7332,-23.9384,-49.2150
-23.1834,177.5724,149.5808,92.1218,-95.4865,93.1701,-133.3255,51.0242,-180.7488,-39.7600,-4.9729,39.8023,-48.9211,97.7912,51.8271,29.8257,179.4987,-135.6823,-77.3200
-91.0831,177.9579,102.9205,96.3301,-79.6279,106.4799,-106.9875,74.6187,-158.4720,18.5165,-43.6747,86.0461,-75.7054,103.9009,46.2797,116.8997,84.8642,-136.2297,-14.9106
-170.4492,99.5407,-3.1606,49.7684,-20.0776,124.2537,-17.8399,143.0840,-27.3199,131.0278,-94.3705,59.8270,-27.8098,109.4947,82.0322,123.9031,-34.6667,-95.3918,69.1858
-166.5621,30.7451,-32.7748,-12.6894,44.8298,104.3058,42.1161,178.9216,38.2267,197.1953,-90.1875,24.9071,-7.0448,103.2379,65.2153,95.6371,-57.0769,-70.2734,110.7630
-143.8985,4.0265,31.7774,-47.8574,117.6625,56.6845,81.4344,134.6605,-30.4585,146.8269,-83.6204,35.1213,-10.7752,72.8601,19.2048,95.7841,-22.7292,-57.6020,63.3276
-168.6075,33.5123,69.6018,-49.0428,151.9922,-0.5927,91.9310,17.3763,-124.6123,53.4059,-106.1046,74.3579,-8.1844,28.0638,34.1133,72.3999,-4.8520,-37.9377,-24.4852
-174.5698,91.8814,55.6602,-22.7172,139.6911,-37.4222,43.0431,-75.3916,-180.5902,2.3315,-111.4987,111.9651,-32.6336,-2.2756,70.7148,22.8738,6.0255,12.7092,-55.8388
-144.5488,86.8046,49.0697,-3.0914,138.0222,-53.2219,1.7749,-76.0887,-208.5171,-12.9884,-109.5898,109.4716,-81.4511,-38.7055,37.5817,-0.7503,-4.5956,77.1438,-33.7696
-142.4964,18.3901,45.8526,-18.4920,152.8354,-76.5918,32.9246,-33.3441,-153.0807,-10.5786,-121.8694,58.7247,-112.0035,-85.0597,-19.7689,-26.6258,-44.2927,101.0541,7.3394
-154.0749,3.8686,37.1275,-21.5189,141.6505,-75.8124,62.0148,12.1561,6.7571,25.5210,-127.9348,29.4548,-120.7114,-74.4702,-13.2954,-60.4917,-36.1607,94.5839,84.9511
-116.3115,71.1182,66.3458,33.2521,96.6337,-9.2676,18.8244,64.5931,104.0985,84.3972,-129.2595,78.6415,-117.2114,-5.0316,11.0837,-24.3385,40.5514,92.9942,141.0231
-31.0201,133.7045,123.9332,83.3708,31.8815,59.4120,-51.8131,76.7332,-2.4818,105.1421,-90.9502,156.2788,-116.9772,30.6345,-28.4568,55.4763,74.1563,53.6264,67.6174
39.2273,143.3486,132.2609,50.7517,-35.4778,49.2304,-115.7827,21.9458,-178.0428,64.6185,25.3988,165.0622,-156.1843,-6.7706,-96.8299,56.4838,-6.2558,-31.3100,-76.7234
26.2899,96.9718,77.5820,-36.8947,-69.7493,-19.9139,-168.1905,-22.3151,-217.6460,41.4020,92.4390,77.1871,-214.6038,-74.7782,-122.7960,-7.9799,-114.0358,-70.0654,-131.2876
-54.1313,9.0856,33.7555,-101.4921,-55.8069,-87.4246,-155.7914,-23.0067,-137.5837,76.9469,5.9657,-20.1077,-221.9500,-119.4970,-108.2333,-32.8144,-136.8766,-56.0011,-99.0149
-99.0102,-48.4158,37.4863,-107.1444,-27.9494,-122.4275,-84.6917,-52.6164,-61.2008,61.9524,-79.7049,-23.8045,-184.8100,-112.8447,-84.3146,-30.0326,-103.6430,-70.2953,-114.8329
-81.6910,-30.8789,48.5239,-62.7545,-17.0971,-114.0436,-53.1316,-107.2035,-20.7355,-39.2745,-49.5617,36.6834,-163.1088,-85.2917,-68.9738,-52.6281,-104.4458,-61.5867,-176.7379
-69.7156,-0.9268,48.0563,-4.7468,-8.9009,-65.1293,-55.8758,-72.3940,-3.4063,-52.2035,-29.8726,65.7193,-145.6189,-67.2974,-72.3146,-47.4695,-104.2233,75.7606,-127.1700
-57.9548,-3.5081,63.4426,15.7518,31.6904,9.5265,5.6647,69.0879,4.2698,73.9169,-77.9778,70.7265,-92.0348,-20.9739,-68.3069,15.3810,-37.7291,255.7734,57.3357
-1.4609,-3.5310,89.7861,-22.2856,106.7122,70.1636,109.2503,172.8077,36.7439,130.4154,-96.7773,90.3398,-31.7634,36.2960,-19.7577,40.6270,13.7918,315.8135,178.4491
63.8663,7.9334,104.1333,-67.5925,150.2052,57.8101,148.8528,133.8991,69.2659,48.6889,-68.3084,88.7477,-13.6941,7.1107,34.1742,-16.6759,-1.8844,264.2536,133.0368
109.5685,22.8609,123.4674,-36.4125,93.0371,-8.8179,105.0614,38.0336,40.6372,-5.3863,-29.0542,79.4096,-29.5196,-70.0379,19.7492,-66.7019,30.7414,204.7168,70.5740
155.8637,75.0226,145.5464,67.2179,-15.6973,-22.9975,35.0952,26.6941,20.9396,2.0525,16.0387,124.4934,-45.1821,-58.0681,-41.3438,-57.6635,134.6120,158.2055,109.5902
173.3916,140.6087,124.7980,125.8202,-57.2728,43.9590,9.6478,94.9455,109.6879,-11.4677,25.0977,155.8994,-49.7240,27.6696,-63.8642,-29.0964,173.4663,105.8678,184.4082
138.3544,131.7641,73.3435,79.8610,-24.1207,109.1738,64.6845,151.1252,201.0573,14.3854,-2.8722,89.9154,-44.3566,86.3271,-33.0187,10.3549,140.8572,76.3804,226.3254
113.1122,77.1034,57.2093,28.1269,6.1539,121.0986,141.4457,174.7560,161.2566,104.3962,8.7835,40.6852,-21.6898,88.9194,8.4184,60.6472,133.0401,82.5389,211.9958
134.7829,97.8686,80.3033,52.7098,40.2279,79.2365,167.6577,162.9456,87.4616,94.4137,32.1429,125.2359,22.3506,18.2224,52.4013,60.5722,113.4957,68.9627,116.0345
152.7794,176.8780,86.2176,85.8164,106.9696,2.4403,161.6123,86.2323,93.0705,-44.8613,-15.5913,234.3014,74.9690,-83.5934,97.2032,-1.4401,29.2820,14.3767,26.0372
115.0635,178.8070,44.9737,58.1884,134.1964,-27.9506,154.2528,22.4709,107.1628,-95.9777,-78.2649,227.2243,117.0811,-71.2782,96.0460,-36.5500,-48.6655,0.5852,79.5662
27.5250,93.3420,-9.9584,17.5297,103.0526,39.3758,156.6436,89.5766,89.5601,29.6249,-90.0118,153.3895,134.8964,54.2543,25.8953,-2.6581,-65.6334,81.6714,206.5781
-38.2453,48.1761,-3.0538,20.0619,126.2336,119.7923,206.8303,203.1678,88.2274,146.9234,-86.5540,140.0305,125.3483,117.0855,-59.4958,38.5025,-28.2971,180.0236,229.9577
-14.3739,92.3416,85.7324,52.3483,206.9254,146.0080,264.0441,199.0486,57.8592,101.6546,-53.4109,203.7699,105.4386,82.6652,-89.5259,25.7758,56.8756,216.4222,161.4149
54.9890,142.4137,163.6526,90.3506,214.7540,157.4308,223.5901,128.4708,-1.9401,-16.2752,35.2994,251.2922,105.0555,47.6648,-37.1555,-32.7231,131.5135,224.5965,124.5746
90.5897,142.3032,158.4616,126.6649,162.0757,152.6658,144.5822,134.6912,58.7384,-20.2966,83.2539,231.3696,135.8014,22.8043,49.2119,-68.7570,134.6276,242.3779,130.8154
111.7607,135.5108,126.5534,152.0872,154.6970,107.8072,146.4022,188.3616,191.9434,105.1002,47.3984,213.6278,167.5536,14.0990,54.5294,-30.3013,124.4673,225.6222,111.1076
148.4843,172.3177,145.1577,169.1246,146.8391,88.8389,144.4465,177.1335,141.1755,181.5904,42.8635,252.4452,146.7321,56.4539,-55.5861,33.2269,170.8855,147.1074,33.4937
170.8230,251.6597,213.8893,191.6079,74.4424,109.2126,50.5553,91.2058,-55.1539,104.1364,119.2562,291.6022,66.2364,78.1976,-144.7535,42.0764,231.3631,66.6778,-69.8328
186.7994,347.7104,286.1470,220.8821,28.5005,76.6003,-17.9770,6.6460,-130.9997,-22.6259,185.8271,305.2407,2.7157,30.6495,-112.0903,4.8901,249.2176,54.5499,-128.6781
217.7787,414.5944,312.8687,251.1373,73.1147,13.4967,7.7647,-3.6580,-105.3950,-82.0895,189.8667,344.2108,19.4729,8.7128,-40.5722,-33.3539,231.1571,104.3504,-111.9457
221.6337,398.3808,292.9540,271.8133,147.0632,30.9353,49.5749,46.9723,-140.0889,-88.4459,161.9475,374.5595,71.3999,40.2665,-5.8398,-53.6173,196.1712,142.9306,-69.1456
184.4154,304.8887,266.6427,253.3261,196.6299,86.6246,88.2700,53.9398,-168.9443,-76.3605,125.9315,307.0497,93.0005,43.7632,19.4182,-29.9472,139.9082,120.9125,-65.0947
138.2958,211.3952,218.3313,184.1089,190.2102,75.3505,122.3371,-14.4810,-113.3032,-30.8663,89.3202,185.8797,91.6613,23.3462,19.7058,24.2198,56.0375,70.0379,-107.7322
74.7124,176.8320,123.9370,117.1302,111.4156,38.4154,81.5198,-54.8603,-52.6102,38.2305,75.9245,128.8735,79.5727,24.6990,-24.1601,36.7558,-9.3016,37.4293,-135.8091
12.2494,179.2236,64.0603,105.2958,28.6490,49.0487,-14.0008,-26.2179,-16.7208,65.1685,97.8275,150.5346,49.1082,28.1741,-33.8628,1.5932,6.4361,17.3745,-94.5576
17.7825,157.0891,83.6809,107.6078,-6.1945,68.3210,-71.0584,-9.8320,-12.6312,1.4617,113.1295,188.7764,32.4392,28.1574,4.0493,-26.4456,41.3509,-4.7003,-45.4338
55.2174,94.8453,86.7471,56.8250,-46.9876,46.6318,-95.7176,-23.8018,-101.5141,-99.5954,79.9944,202.8718,42.9585,25.3608,-7.1806,-48.0646,-16.4460,-25.8262,-78.5041
28.0213,44.7531,30.4078,-7.0856,-109.4508,7.6870,-124.7440,-17.1166,-194.4208,-125.6078,37.8886,185.0716,32.3324,-12.3114,-63.3104,-65.0351,-104.9371,-65.2848,-133.0075
-41.9102,46.2200,-26.7887,3.4265,-150.5650,-11.7183,-146.7630,-20.9335,-154.4614,-72.1626,29.7441,152.8244,2.4595,-45.4417,-81.6889,-43.4851,-104.3585,-131.2821,-119.2184
-78.1540,67.0908,-85.8473,60.7846,-188.1119,-10.9466,-165.3337,-87.1504,-97.7826,-55.2812,8.4898,127.9759,4.0175,-10.7068,-75.1699,-17.4596,-68.2387,-180.0024,-102.6470
-85.5187,64.3683,-146.5483,56.9492,-211.8588,-18.3232,-162.3270,-168.5170,-150.4556,-105.9781,-47.1857,108.5071,14.2456,20.3989,-79.8369,-36.7200,-78.7762,-194.2686,-137.3976
-104.4406,37.1342,-139.3043,-28.5327,-148.8357,-57.6344,-106.8922,-203.9596,-182.6038,-124.7504,-66.6397,83.7515,-2.4823,-40.7865,-80.2711,-64.1303,-94.9501,-209.5518,-148.0546
-135.6821,-3.3281,-88.6612,-112.9094,-51.6041,-108.2577,-68.6206,-193.1978,-119.1232,-73.1135,-38.3672,48.3633,-4.5634,-126.9538,-85.9605,-70.8451,-86.9696,-213.4112,-122.5022
-134.6264,-37.9321,-89.3630,-129.2633,-37.6087,-116.3293,-105.2831,-138.5831,-74.7007,-23.3905,-30.2576,2.5866,23.7077,-125.1258,-103.6420,-70.0533,-68.0971,-157.7631,-118.7901
-68.8155,-35.7756,-126.1345,-83.4680,-64.4005,-56.6137,-130.5159,-49.3603,-69.4724,-14.6264,-45.3561,-29.9076,41.5026,-35.2490,-106.9757,-48.8595,-27.8359,-73.7525,-89.7401
-6.7510,-6.7939,-151.1452,-25.7506,-47.2664,26.0308,-86.3895,17.4560,-47.9334,-12.0196,-46.5108,-25.6723,53.3797,39.6491,-100.9169,-32.2355,-3.9645,-35.2248,0.4079
-44.6675,5.1169,-175.5466,-8.5181,-38.6765,45.3413,-43.0658,14.2246,-54.9206,-4.7458,-47.0538,-1.9431,75.5801,7.2768,-77.4872,-63.9994,-50.0508,-54.8995,42.0973
-135.2671,-8.6613,-186.3712,-55.0284,-99.1260,-30.1270,-51.5094,-51.3561,-100.7962,-32.5760,-60.1176,17.3645,75.1443,-93.0913,-19.5070,-84.5144,-116.2847,-109.9023,-13.9103
-153.0882,-35.0953,-180.6285,-136.3966,-180.0436,-120.8684,-90.8334,-133.6881,-112.2500,-77.6916,-66.5180,28.5678,49.5012,-137.1099,-9.9920,-55.8748,-139.8390,-173.9830,-51.4496
-87.0806,-72.6632,-197.0722,-171.5902,-199.8037,-131.1639,-115.1906,-158.8858,-94.3577,-38.8762,-56.1687,20.9337,43.8720,-95.8250,-78.5576,-53.5722,-120.9762,-194.7256,-9.1034
-34.4603,-109.8814,-199.3004,-107.5281,-132.1607,-76.5247,-83.7468,-99.4301,-88.7433,65.8340,-43.9079,-6.7245,67.0169,-38.9900,-77.7112,-75.0505,-55.0571,-150.9625,25.7702
-65.4710,-143.3651,-137.3357,-15.6460,-37.7588,-44.4022,-26.3289,-51.9739,-72.6843,45.7139,-62.6871,-27.8863,87.0144,-5.7943,5.1552,-63.3403,22.9214,-90.6157,-6.7093
-136.9895,-173.7912,-74.5827,-2.2909,15.3301,-55.0600,-2.3744,-92.9055,-43.5013,-115.5478,-102.8531,-27.3643,78.4720,-2.8478,-12.6146,-73.7133,38.4187,-38.9128,-48.4700
-142.0132,-150.3536,-57.9995,-43.2633,46.8371,-52.9408,0.2523,-131.7204,-38.2753,-164.5756,-102.0508,-6.7850,52.4816,-34.3499,-101.8513,-109.8807,28.1886,7.2697,-44.9457
-83.0381,-65.2724,-51.3510,-67.0981,64.4018,-28.6894,-11.4541,-91.2027,-53.6884,-43.3713,-96.3433,16.9132,58.4643,-74.8029,-76.9118,-84.9748,66.4985,-0.1186,-21.2875
-69.9356,-45.1752,-52.8006,-101.4920,13.5094,-31.8130,-53.3219,-54.0710,-52.1164,3.6225,-190.5617,-5.9783,102.6561,-89.8317,10.3118,-65.0534,101.4568,-63.3044,6.0897
-109.0296,-142.0523,-67.4707,-156.6080,-55.4195,-48.7767,-50.6557,-64.4170,-7.9099,-74.4865,-308.5826,-68.0780,120.1056,-61.2997,25.1138,-117.0018,81.1880,-74.2875,45.9806
-123.5115,-207.1447,-72.2342,-153.4626,-33.5261,-25.0247,27.6251,-49.7599,38.9644,-81.9558,-298.2379,-62.2642,94.4526,-3.4126,16.5134,-106.0214,52.0072,-25.2136,36.8036
-119.0820,-156.6951,-93.4903,-98.1274,32.3174,-4.3457,60.0137,-24.3040,-3.0961,-13.1833,-217.6511,19.7885,69.9118,10.2184,33.2075,-23.3562,43.5294,-41.4385,-58.5778
-112.9986,-94.7744,-131.0785,-81.0217,56.7498,-42.9145,23.4228,-58.3333,-102.3028,-9.4240,-178.1713,28.8301,63.0621,-43.4391,43.2264,-34.0674,51.5238,-98.4877,-117.4419
-97.6365,-82.6398,-117.3960,-95.1182,71.7393,-61.8636,22.5964,-90.3774,-105.9049,-40.4823,-149.6822,-57.4487,121.7597,-60.4175,58.7482,-82.7906,61.4346,-69.6526,-61.3497
-125.8280,-76.4702,-75.9734,-90.8203,77.5532,-12.8855,29.0650,-61.4313,-28.1899,-26.6044,-116.8510,-61.8205,292.3703,-14.8398,57.1255,-53.2994,26.8869,-34.1221,-11.5052
-178.3398,-64.5688,-73.8311,-83.2371,25.4574,3.3092,-19.2681,-54.9941,-31.3657,-22.7954,-90.8740,78.8278,432.8713,-11.2498,-16.6488,-65.9207,-24.7714,-109.2995,-36.6571
-149.6901,-52.5200,-74.2112,-63.6969,-34.0605,-31.2194,-46.6062,-97.4586,-94.4647,-76.6970,-33.9374,211.5219,388.2317,-26.6148,-82.4130,-136.6612,2.9458,-161.4015,-42.9548
-104.3402,-28.8590,-57.4242,-13.3381,-32.4539,-16.1600,-12.6549,-91.3422,-67.2440,-130.2499,-14.2069,231.5155,303.0103,26.3967,-41.4171,-104.6560,81.7679,-85.4593,8.4457
-138.5277,-11.7773,-50.3539,14.3871,21.7486,14.0713,53.8906,-21.7384,32.5384,-104.1917,-107.7189,217.0415,364.0299,56.9882,44.2841,-51.5779,126.6367,-25.7657,77.5575
-127.6139,-0.7824,-3.1556,14.3989,96.7065,-13.3986,147.8230,45.5964,85.4857,-0.8689,-165.1193,257.3488,453.4200,12.5246,75.9333,-119.2047,163.6972,-33.3775,147.4072
-33.8464,34.0627,81.3459,51.5063,128.5410,5.0112,188.6236,103.3164,80.4061,60.2912,-95.7411,298.2436,409.6246,26.1375,41.1564,-149.7908,198.9299,30.5306,178.5345
-11.6791,54.1956,100.7149,86.5228,101.2861,103.0902,144.5841,145.0031,83.3200,21.7594,-55.4984,249.4688,303.1753,88.0379,-2.2557,-51.7505,172.5368,136.2868,162.3210
-29.5269,10.4531,62.5025,46.5250,134.8991,108.4706,179.8229,134.0570,126.1299,25.2411,-93.0210,154.9477,241.0281,52.5537,25.4404,-2.1686,106.5943,124.2911,168.8716
-12.5528,-49.9912,12.8998,-12.0331,230.6275,3.8128,287.3211,94.7949,165.9051,109.9609,-125.8392,103.6448,215.5682,-8.1776,88.3375,-43.7375,44.0900,45.3830,182.4455
-102.5812,-80.0890,-73.5939,-32.1565,200.7141,-19.2336,235.7677,66.3000,130.7898,65.6828,-179.8706,67.5290,191.2675,34.7979,59.9838,-58.3077,-0.7587,48.2351,148.0455
-234.7713,-96.0352,-100.4504,-41.4078,70.8305,52.0193,94.3326,40.0322,41.8723,-111.2501,-204.0363,9.3912,147.0208,78.7610,-18.4464,-55.6938,38.3708,111.0838,155.3860
-130.3022,-90.4354,23.4075,-30.9744,60.6175,63.4741,102.5138,36.4479,4.4495,-132.2010,-87.9140,-10.2275,98.7655,37.6920,-7.5095,-72.3913,138.0825,156.0301,245.0186
93.8119,-38.9472,126.6045,16.4194,150.4046,18.7598,169.5227,80.0857,48.8135,9.6262,21.0935,25.1387,96.0518,12.0020,45.0077,-69.6587,158.6271,190.5201,279.2548
141.4343,37.9993,104.8550,57.5865,184.9430,26.6485,158.2980,112.9028,105.8150,29.5814,0.3850,58.0353,119.1694,43.7322,37.9716,-67.0173,108.8141,208.3326,209.1018
73.6505,90.5045,70.0354,73.4996,161.7316,75.3311,149.3809,92.8791,115.8120,-74.1807,1.5654,80.4800,102.6643,56.1962,18.0971,-79.5501,50.3442,164.7798,108.7994
-8.5959,62.8303,-23.1810,56.4593,99.0542,82.1871,119.0650,70.0294,73.4335,-74.4402,19.1827,77.8786,60.2114,31.8377,14.4659,-46.3852,-82.5253,79.1746,17.3888
-136.3746,-32.5732,-217.1437,-21.0814,13.1169,39.5060,25.0976,81.4320,24.4142,37.0822,-79.2523,7.8755,23.5902,26.1911,-15.0167,13.5432,-201.1893,25.5743,20.2540
-159.9382,-84.8543,-265.2620,-94.3126,9.9848,13.7981,31.7066,115.7793,35.2715,129.1330,-137.9669,-62.5531,-28.4721,64.4779,-39.2397,22.2953,-130.9941,39.0919,158.1650
-30.3400,-80.6012,-122.0285,-91.2184,75.9416,46.0508,148.5858,168.0846,123.0391,172.8476,-78.2573,-72.2078,-74.5969,101.7756,-12.2593,11.8493,-39.4735,92.8916,252.8945
-17.3164,-140.6581,-63.5063,-92.2939,83.2337,93.4949,187.9503,220.4143,225.4544,178.6490,-122.4326,-111.1218,-67.6891,91.1047,34.9763,44.7492,-102.6577,139.8183,209.0565
-135.8819,-222.9306,-87.3099,-130.9612,57.4676,104.8204,162.5616,233.4199,238.8551,163.0949,-218.7400,-170.8239,-44.2521,71.9746,47.4392,72.6186,-113.0607,139.1190,151.5896
-98.8026,-160.9927,-16.1304,-92.4771,54.9247,97.5132,145.7689,189.7380,137.6320,174.9884,-126.3137,-83.5227,-60.5935,86.9945,-2.1794,23.8487,18.3942,76.8662,88.1205
76.6146,-31.6020,62.0199,3.3032,34.2395,93.2814,91.7387,102.2766,50.8378,186.3247,-0.9881,103.1532,-112.6785,91.7550,-50.5828,-58.4963,88.0857,9.0118,-18.6201
154.2983,-27.5421,80.6357,19.1711,41.4820,71.7428,66.7220,17.9287,55.0882,117.6202,-55.1040,153.7549,-172.0913,73.8645,-16.7139,-70.8835,84.6628,14.7805,-39.4626
88.3791,-92.5480,123.0730,-9.7687,107.0475,30.5031,111.7712,-1.2353,47.6453,43.1825,-149.4763,74.0192,-200.2819,58.7125,10.3562,-18.6399,97.9772,63.7623,15.8502
-37.6763,-95.2166,130.5559,-1.4155,114.0167,-20.4662,86.9977,29.3297,48.1918,116.5971,-173.0434,45.9231,-170.3193,-13.7635,-47.7542,-8.4711,63.8241,56.8148,2.2171
-89.8558,-90.7917,83.3824,-15.1594,66.0855,-85.7880,17.7636,30.1402,179.2671,254.7162,-157.3651,73.8571,-118.6466,-127.3287,-53.3716,-58.0214,28.6547,6.4723,-12.4584
6.6972,-131.2708,101.3388,-55.3862,51.7488,-119.1961,16.8944,12.3664,234.6548,213.7799,-82.5627,73.4332,-107.9777,-115.6614,3.5245,-87.9107,71.8760,2.1701,11.9833
62.8790,-158.0043,105.2745,-49.6527,-7.6816,-77.0310,-37.2030,38.9183,9.2533,7.8729,-28.7502,61.7466,-148.4294,-14.0096,-63.5467,-90.9186,56.3899,25.9413,-52.9763
-53.3845,-182.6385,2.5773,-61.5823,-109.6383,-50.2740,-145.1542,41.0233,-160.4631,-125.2314,-91.9950,43.8178,-192.5005,-39.7549,-171.6095,-111.3815,-26.6157,-13.3143,-99.1315
-126.4353,-243.6328,-34.8207,-148.3400,-96.2653,-112.3842,-103.1346,-59.7206,-36.6350,-145.4043,-139.2616,8.9616,-210.6862,-120.6764,-130.7526,-133.5551,0.3546,-99.8685,20.1086
-44.2369,-245.9091,27.8053,-180.5071,-32.5171,-143.2312,-21.5692,-148.7486,28.8172,-169.0641,-87.9017,43.2575,-237.5086,-39.4899,-82.9516,-140.1932,81.8634,-132.9385,87.2564
29.0410,-120.4396,28.5748,-84.3684,-57.2913,-55.9675,-96.3424,-124.3686,-96.1485,-156.4170,-27.6534,155.6770,-269.8265,89.1234,-140.5806,-147.5981,98.3398,-102.6977,-1.6129
53.3469,2.2057,11.8049,18.1344,-72.7151,31.0428,-148.0252,-80.5954,-96.1716,-72.3875,55.8676,191.3608,-237.7420,73.2960,-156.6373,-141.6345,120.1374,-82.8659,-21.7120
75.9955,-22.1371,35.3796,24.1773,-50.0705,18.9994,-72.0513,-86.2347,19.8021,-88.5782,155.4742,116.7277,-180.5347,2.2439,-125.4298,-125.9415,121.6518,-78.7292,27.5945
71.5928,-122.2743,0.2138,-37.8777,-97.1892,-59.7752,-56.1449,-97.0462,47.7763,-263.5471,160.1557,69.3303,-191.9030,-47.7492,-123.0868,-146.1642,47.4441,-55.4818,-9.2228
123.4551,-110.4352,-4.8993,-72.8840,-136.3795,-153.8568,-119.4332,-102.9761,77.7854,-356.1022,164.2404,91.2475,-206.6990,-136.7050,-102.0226,-169.4792,46.0129,-42.6169,-31.3449
258.4630,25.6460,124.3861,-23.1981,-105.5056,-196.6667,-166.8195,-90.3415,97.2766,-210.5017,265.6963,115.1548,-185.9432,-190.7635,-141.1131,-135.9023,119.4583,-58.4217,31.5313
288.5710,83.6961,185.6817,15.8527,-120.0801,-161.3694,-209.9807,-40.8319,1.9205,-4.8531,288.1989,86.7867,-228.5421,-135.5290,-247.7194,-112.4450,83.9188,-69.8301,66.0423
221.4076,-10.2475,106.3309,-59.1885,-125.0996,-138.2907,-152.2235,-30.2356,68.9644,58.7664,216.0817,-19.1403,-253.9334,-95.9942,-138.7333,-142.3339,11.9280,-83.5413,92.3180
241.1556,-78.4259,87.1430,-137.4660,-16.1359,-156.8072,41.0084,-66.5868,377.6065,23.4001,236.5325,-121.1186,-123.7281,-121.1608,109.4553,-118.6174,39.7784,-115.9649,161.8101
266.9527,-64.6295,123.9002,-124.6412,36.8998,-143.0847,117.2627,-53.8091,427.7891,-24.8959,263.6064,-103.4534,-16.5645,-117.7994,77.8607,-38.4098,50.1549,-148.2228,176.0412
200.6594,-103.4396,100.3454,-126.9995,-35.5611,-124.5220,24.1047,-38.7964,115.2861,-131.7409,204.4427,-36.0458,-71.0736,-108.6718,-102.6564,-40.5461,3.2481,-183.5770,126.8530
192.5531,-138.3396,88.0342,-132.1146,-41.0768,-135.6573,9.8828,-85.5942,-59.5033,-261.3771,241.7932,-23.1676,-100.0679,-133.8082,-90.1388,-88.9400,21.9009,-196.9543,109.7972
273.3765,-32.9098,108.6229,-11.6277,33.6165,-98.7838,81.5987,-85.4830,27.4255,-247.0557,350.5386,-1.1149,-36.5966,-120.1950,-59.8466,-57.3867,98.1666,-133.8898,127.6670
334.1241,80.4342,115.6414,116.5831,77.5195,-44.0360,101.7063,-28.9290,119.5766,-95.9993,323.1645,59.4371,6.2061,-82.1181,-92.7522,-11.5935,172.4304,-48.7301,159.8082
370.6262,87.5474,171.2012,110.5259,126.1110,-62.0843,115.3663,-12.2815,186.7241,26.8070,238.3762,100.0936,63.3175,-88.1357,29.4250,-12.1205,208.9935,0.8000,178.5898
324.0301,97.3252,218.5489,93.1471,139.6233,-75.2181,99.9017,28.6034,226.9186,102.3765,193.4934,130.7136,130.7452,-85.2967,119.5937,26.3074,119.8908,72.1734,115.0651
166.2186,100.0971,138.3784,113.5792,44.3238,-40.5364,-10.0213,104.5551,145.3148,185.1695,107.8958,130.9767,100.3057,-52.1269,-20.4574,89.2243,-16.4196,136.7219,18.5701
104.4895,30.3554,76.1903,73.0551,-13.0678,-37.0996,-53.6055,86.6302,42.6606,203.1998,65.3159,70.2706,67.6066,-46.7504,-73.8444,94.0125,-1.6142,114.0594,-13.7923
188.9778,26.9408,148.0160,41.8977,32.8506,-8.6282,38.2840,49.8167,29.1593,105.8262,148.4608,59.7088,127.9666,-27.1874,33.3991,70.5396,97.7443,103.3685,-18.9558
231.2384,121.4363,210.2500,101.6661,59.7205,111.9418,104.7913,126.2318,59.7358,4.9712,207.6472,132.4346,144.8980,63.3771,21.5531,40.2440,144.3343,171.4559,5.9906
233.4594,148.9751,203.8048,159.0686,94.4258,197.9785,124.2944,196.2944,129.2132,8.4780,198.7669,160.7302,101.7377,158.1078,-28.7542,4.3524,188.1800,194.8623,86.1959
232.2978,127.0020,165.3110,189.5830,163.0009,181.0204,161.6318,168.1691,192.8254,67.0890,180.3515,144.3538,122.2364,186.0568,24.3842,28.4408,193.4537,149.4949,86.7178
129.9723,144.1628,75.7376,224.0975,146.3940,149.1541,182.6109,133.0017,177.4898,117.7746,102.6567,138.5106,159.3458,167.2383,50.2643,89.8119,102.5432,121.0975,14.9271
28.1628,119.1513,28.5915,195.0139,106.6684,139.2760,193.7420,129.5552,179.5630,219.3693,15.4060,95.1975,151.2602,170.1603,55.2211,98.2047,55.7459,88.0293,56.2123
51.0990,64.9478,89.6323,135.0705,159.3861,145.1685,188.7785,142.0604,199.0147,330.4870,21.5369,82.6409,142.2370,222.7290,66.1132,76.2017,83.0971,59.1748,121.2237
70.8005,106.5352,121.0688,161.2788,194.1795,166.8673,133.5886,160.7930,85.0993,247.0249,59.5844,183.9746,115.4827,247.9226,-12.8825,49.4975,76.4948,113.3338,63.9768
75.6981,185.5433,95.6890,206.8334,174.5235,156.2189,140.0345,139.4351,-35.9280,49.6932,99.9383,225.6712,87.8589,189.9869,-44.3237,6.3882,84.0014,171.1573,38.3110
136.9845,192.0979,93.6202,168.4954,181.2908,119.1131,226.2724,108.4290,10.7474,69.5860,147.2460,101.3353,124.4394,133.6968,50.1388,19.5015,110.3182,124.6063,77.0214
96.0887,148.9560,42.1405,97.5066,156.8427,127.1145,213.7459,131.3599,54.4606,221.8088,95.0731,-20.7212,146.5605,140.2098,38.7978,85.0409,53.9079,74.5534,26.5055
-49.6609,88.8129,-51.3800,42.8579,114.9957,152.7975,143.0383,141.5961,6.7085,175.3351,-13.7259,-48.7367,112.3525,152.6927,-39.0656,81.2156,3.2405,126.9318,-10.7733
-73.9878,48.2668,-62.7630,20.1949,154.9254,149.0365,166.3806,128.7626,40.1506,63.0320,-27.5078,-41.0529,122.4153,154.6238,29.8461,41.5527,30.8482,191.2087,85.2921
-48.8614,48.3425,-68.8176,45.1086,146.0687,161.0031,170.3317,182.5018,155.3775,125.4129,-28.2331,-27.3794,138.7538,182.3276,86.6672,63.6742,9.9593,148.8704,154.7280
-138.1412,-3.2336,-133.4706,32.0796,-1.6756,163.7003,71.9830,200.4696,215.8278,158.6101,-97.5741,-34.1711,76.2013,190.4258,21.4473,78.3318,-51.5120,22.1112,107.5341
-209.5384,-101.8516,-125.7610,-55.7441,-118.9792,81.2608,-12.0883,65.2251,209.6251,35.3313,-122.9841,-43.1921,27.5031,109.7895,24.2927,41.4381,-63.1762,-84.3861,30.4671
-194.4034,-110.7393,-72.2430,-95.8597,-168.7797,-6.0550,-46.9759,-50.4155,170.5242,-13.3125,-113.7287,-14.7743,22.8428,3.8076,80.0415,18.6202,-91.2195,-109.3616,-13.4895
-182.0405,-99.4522,-84.1039,-79.8067,-211.1715,0.4659,-14.7732,-38.0291,144.3585,40.2877,-159.0515,-38.8061,-17.2425,15.3612,42.4408,-1.7379,-103.4564,-70.0684,25.0879
-125.0900,-162.5208,-62.9752,-87.7856,-127.1801,39.8032,110.7730,-55.0656,147.4258,4.2053,-175.3549,-122.8875,-42.5538,130.1787,-19.9514,-42.2843,9.3353,-10.7116,96.6565
-22.7529,-108.9999,2.1414,-53.6062,48.2635,56.8050,157.8387,-125.9437,87.1958,-81.0187,-95.7585,-106.1804,-14.3223,154.5886,-33.8059,-50.7536,93.9686,32.3087,43.7060
-8.2749,77.5683,-40.2824,-6.1864,80.6086,48.4828,40.4328,-126.2631,-28.9352,-93.3130,-0.3799,-44.4923,-18.9215,28.8925,-28.0771,-37.1698,10.0318,40.8397,-93.7432
-36.1466,110.1848,-106.0341,-87.5655,24.5140,-28.5981,-50.3471,-93.2897,-77.2129,-76.9936,48.3191,-86.7065,-46.8680,-77.8197,-11.5211,-40.5236,-67.2907,24.9861,-136.1670
7.0557,33.4087,-44.5108,-152.6397,55.6323,-107.5175,-56.6115,-77.1438,-97.3391,-60.8824,41.9929,-90.3892,-30.9472,-80.0107,-4.0162,-27.7958,-26.0606,-0.4533,-105.8234
41.5798,90.1709,9.0023,-56.4413,68.0884,-65.0163,-79.3914,-28.3250,-153.9765,-30.7575,-11.0386,12.8194,-12.6278,-72.4902,-1.6943,-3.2283,4.5742,-16.2337,-123.7611
13.4886,158.2794,-36.0891,-7.6733,-5.6257,-9.3171,-80.6815,-11.9571,-141.9423,-41.8254,-60.3410,29.4828,-19.7047,-92.0453,24.7905,-14.8227,-6.0073,4.5474,-169.1707
9.3049,118.6888,-19.5208,-41.0213,-31.9660,-35.1010,-53.8272,-71.1080,-49.9333,-78.8788,-55.8396,-15.5535,-16.2501,-72.1843,28.3965,-26.7577,34.5162,21.5581,-159.4157
34.0460,103.2412,103.4234,35.1450,-33.4478,-1.4205,-90.0880,-76.8864,-17.9616,-61.1168,-41.6130,41.0578,-7.8883,-22.4688,-4.2967,4.7031,87.3137,-35.6181,-100.1628
42.9090,74.1524,219.3721,80.5745,-81.9282,38.5738,-134.3767,-50.7120,-84.3813,-48.8778,-114.7362,140.3027,-3.5621,-52.6525,-2.0261,26.0377,70.9632,-110.3176,-76.7935
78.3499,-1.6308,304.1833,-10.4450,-62.7838,-75.3753,-126.3272,-107.7672,-172.3053,-87.6223,-202.7322,213.6814,4.9959,-153.7086,15.2087,8.2058,30.0527,-103.2113,-91.9389
127.0252,21.1795,317.7468,-14.2045,-9.0361,-121.7927,-150.6121,-120.3336,-173.6987,-48.0527,-110.6448,200.8427,-20.1016,-132.3831,-36.2099,9.3008,17.4531,-61.9933,-22.6630
129.2117,5.6467,217.1498,9.1385,-69.0281,-3.9362,-178.2919,-49.0437,-49.3911,38.8731,59.2587,16.7851,-72.5530,21.8429,-114.5096,30.8856,40.0702,-67.9715,111.7633
162.1050,-111.7095,159.6071,-48.0306,-55.3915,-15.9708,-87.9337,-57.7074,20.6386,-44.3628,4.9806,-12.4386,-32.7511,31.1541,-77.8545,23.9204,105.9611,-80.6541,104.8937
251.9732,26.6498,205.4315,81.2046,191.5867,-81.1099,72.6033,-51.1816,-83.2928,-240.7553,-193.1658,349.4953,141.4350,-146.6384,79.0665,34.1423,152.0651,-70.7065,-21.3454
307.5099,235.3074,223.5021,227.8671,436.1929,-13.9041,245.5023,5.0697,-70.6938,-322.4087,-179.1158,463.1571,326.2321,-238.4900,158.7508,117.6985,200.8743,-98.6987,56.0864
421.7763,50.3199,336.9941,76.6930,583.5854,-105.1723,424.1037,-136.4422,198.8965,-260.8246,67.7255,48.4783,438.5980,-194.6710,59.5481,228.6228,426.1071,-151.1153,366.7040
617.3539,11.6648,577.1768,183.8679,670.7671,-247.9173,400.5844,-235.1281,268.5132,-104.6063,251.2840,-29.1114,457.9871,-163.3324,-32.7204,294.3929,643.3261,-152.4423,470.0232
544.5659,427.2534,463.6781,585.0363,445.0922,-60.3615,84.0729,-2.0769,-32.1828,12.2682,218.1299,388.0461,276.6287,-129.5490,0.4424,208.4669,410.5734,-85.9960,173.5714
190.4303,402.7259,13.4573,308.4436,4.8485,-60.7637,-128.8746,-23.1973,-157.3712,-102.8038,96.8422,435.7645,-86.0646,-38.1159,-24.6843,-87.4154,-19.6807,124.2357,-134.4603
65.6294,102.1848,-43.6862,-84.6568,-84.3225,-379.4005,11.0472,-353.0138,81.5857,-143.6992,75.4155,287.4218,-298.9233,144.8147,-152.5278,-301.6242,8.0128,455.8697,-133.1471
96.8476,628.4163,145.0727,606.6475,15.6174,69.2161,135.0368,26.9090,214.6168,280.8049,90.2964,546.4318,-193.7948,421.5895,-138.7993,-109.8069,263.9729,453.6582,17.4736
-268.8038,991.9600,-213.9607,917.2120,-265.8449,915.7526,-33.1030,765.7247,92.5070,570.9060,-52.9422,444.7410,-94.7358,468.6681,-1.0870,136.3734,50.1886,-57.9855,52.7588
-678.0190,-146.0128,-660.8039,-468.3326,-521.3476,440.6708,-189.2931,409.6385,11.3613,139.6162,-189.4407,-421.5006,-228.5890,94.2198,-19.1552,-59.2708,-379.6309,-281.6304,-38.0739
-391.7113,-1127.1404,-313.8803,-1302.3005,-196.5907,-645.8716,-15.6726,-447.5311,123.9717,-226.1891,-47.3901,-798.0596,-285.3730,-138.7766,-141.8244,-312.2135,-232.7765,184.6640,-32.7901
139.4341,-478.6950,221.3196,-247.7639,172.9464,-391.4644,314.5035,-267.5198,380.7889,80.3521,130.0452,-321.4595,-22.4063,104.9715,-114.8811,-77.8819,365.6393,384.2649,217.9508
61.8020,142.7711,97.9361,417.3524,99.5508,413.2133,361.1444,351.5691,471.3762,307.1458,89.3051,-168.2493,212.7892,235.1555,8.9878,228.9749,478.5987,-69.9154,406.6197
-358.8393,-274.9945,-264.1488,-189.7250,-67.7893,242.1533,-25.3062,301.9513,12.8009,159.7262,88.9621,-418.9026,43.7955,11.0073,48.6259,95.0713,-237.5418,-180.9346,113.2694
-509.9955,-426.8712,-432.5860,-376.8500,-181.0424,-121.6682,-441.8358,94.3205,-583.6820,263.1103,154.1110,-243.0996,-289.3548,-84.7551,25.6982,-123.0869,-1000.4927,161.7351,-378.5412
-476.1731,-93.1259,-609.2991,-63.6314,-370.2718,84.5643,-440.8863,163.5648,-464.1471,460.4616,-38.1282,37.5015,-362.0771,5.0174,0.5818,-78.9402,-977.3447,58.5946,-426.0907
-388.3476,-109.3677,-622.6426,-119.3753,-362.8926,193.9021,-171.3951,132.7199,120.3037,296.6624,-261.8657,-7.2930,-277.7994,88.4218,-74.2302,-44.7572,-404.3361,-117.7415,-98.1692
-155.3895,-91.1876,-285.6028,28.3758,-119.5710,107.8819,-68.8162,97.2275,160.4518,202.9169,-122.0217,149.8268,-319.0730,258.6588,-148.3615,-132.9987,-151.1929,338.5382,3.4263
-42.3018,186.2990,-91.6447,430.6039,-116.4805,186.7023,-168.2934,231.5434,-341.5412,324.4015,104.5710,390.9420,-284.0690,271.3206,6.2667,-97.4000,-493.8857,577.1990,-298.0196
-202.7062,83.4306,-188.3068,325.5662,-306.4133,203.6214,-191.7448,284.6670,-522.1579,198.9689,105.3147,110.0518,30.2894,-47.1505,364.7739,64.8323,-811.7023,120.0712,-578.5134
-185.7764,-105.4639,-88.2047,210.3984,-200.0502,196.3520,-38.5807,313.3192,-141.4511,44.3765,34.5709,-121.3270,237.7682,-121.7828,434.4994,157.5037,-461.0853,-68.0009,-357.9510
112.4628,34.3446,124.3575,424.2849,61.7292,291.7523,95.3189,317.6651,237.3110,154.6443,-8.4331,157.2825,82.7662,119.7801,47.9797,137.3454,213.1541,95.8516,185.6288
178.4040,-56.2320,24.1947,247.4084,66.5785,148.9767,21.9904,68.1295,187.0101,151.3186,-9.0641,198.9474,-82.2301,80.3593,-204.7413,61.6505,300.8634,-33.4054,297.7928
49.7375,-97.3875,-68.3609,173.6451,-2.7181,98.9277,-56.7416,71.4609,-11.6475,170.4368,94.6323,61.9488,-90.6697,73.4612,-78.0613,31.5239,-2.2113,86.9272,-12.0179
206.1221,548.2321,196.8250,875.7117,124.9563,562.9618,148.2849,582.7540,122.2172,524.9710,154.2896,480.2576,-104.8416,457.6158,-74.2596,123.1002,287.5802,593.6847,109.7344
380.9001,748.0478,336.3463,966.2181,226.6034,557.0841,284.2423,517.8062,287.0121,450.7708,146.5538,605.1120,17.9808,329.9406,-182.6811,203.9037,684.5549,283.9223,445.4508
140.4776,-189.1899,92.4705,-147.8529,142.1162,-314.2471,-89.2600,-335.1438,-107.9062,-284.3331,305.6425,-339.8273,294.8558,-419.5532,50.0034,120.9890,111.6929,-566.6393,32.4480
-8.1605,-663.8992,108.9525,-622.4699,146.3378,-588.0540,-350.4452,-495.1476,-490.7026,-439.3774,449.2071,-950.5359,290.2105,-437.2050,226.1214,9.2812,-308.4720,-344.0190,-430.3515
380.7390,-39.6458,668.9777,98.6820,391.5151,101.6322,216.6687,284.7327,-2.5638,181.6304,312.6666,-443.8410,114.6292,244.0755,-87.1196,69.6237,777.6891,532.4584,244.5573
690.4344,188.3609,1050.5197,385.3625,575.8998,272.0515,838.3715,544.2986,564.5549,234.7275,271.6926,-242.8620,366.9164,185.8997,-172.5043,220.7478,1720.9756,463.4333,959.4442
445.7968,-406.7148,785.7120,-238.8322,438.1972,-429.4682,538.8483,-114.0610,131.7101,-484.6973,496.5723,-871.8619,806.1454,-575.7698,351.2021,231.6225,849.6440,-290.0999,328.0769
162.2731,-777.3608,360.0454,-765.1255,173.5636,-929.7591,-34.1777,-714.9803,-453.6760,-899.5240,501.1035,-1124.9568,745.8760,-888.6116,591.6423,66.1780,-219.4851,-598.4586,-472.1858
239.2373,-610.8895,243.8243,-739.4586,101.0570,-810.4596,47.4263,-693.6484,-137.4071,-730.6530,246.9095,-628.6945,355.2411,-636.3834,162.9987,-80.4845,118.3628,-440.6723,-78.4396
362.6768,-240.9948,286.6136,-353.9615,174.6384,-393.2124,315.5450,-256.5544,298.0863,-485.2039,162.1364,-79.8008,144.9562,-314.8914,-177.5365,-86.3018,722.0112,-212.9382,544.5742
317.1431,154.8203,269.3758,76.9241,164.5265,16.8155,170.1789,106.6526,110.8141,-353.7096,180.1546,237.3799,77.3605,-11.3566,-114.1651,-50.2524,547.8204,-11.7373,357.7292
250.3837,358.1819,220.4820,252.7475,95.1026,191.3150,41.8882,107.1223,-36.2472,-232.5705,94.7902,398.1009,-15.0963,220.7182,-87.1443,-60.7271,284.4351,103.2899,63.0118
232.8582,438.9009,193.2056,324.0370,102.8933,266.9810,182.5038,73.6035,114.3370,-9.0310,65.5778,482.1824,-105.5313,325.2254,-234.6029,-49.1529,351.3871,193.8884,204.1778
216.3885,631.2703,181.0257,463.7643,88.4152,452.9634,95.7482,253.2448,-26.7449,269.2940,55.8452,593.8341,-196.8971,420.7859,-308.4754,7.9487,323.3543,267.4474,143.0440
89.4604,605.7333,65.6989,334.7611,-93.0386,417.9085,-247.3895,236.4399,-325.7426,309.4738,-173.1468,544.8976,-230.4306,394.9006,-144.9714,9.6902,-21.9721,136.3881,-351.7069
-252.8340,243.3960,-289.1744,-29.3919,-283.7054,89.4200,-230.0588,-23.0083,-208.9449,124.1661,-487.5171,243.4867,-107.1347,160.4646,206.6329,-46.1853,-619.6581,4.1323,-591.0060
-596.9507,105.5298,-638.5138,-121.3131,-255.1854,-10.9744,152.6714,-44.9519,129.7410,94.8286,-628.4980,103.6521,45.1736,17.3562,442.1772,-50.1844,-1133.6641,140.3893,-308.7464
-648.2994,158.0471,-577.7073,-82.9658,-119.4560,34.7992,209.6755,-6.0248,254.8890,143.1413,-624.0986,156.1531,74.0984,-7.2555,358.0557,-13.6757,-1053.3309,115.9365,-55.7795
-536.8096,-57.5263,-270.5451,-281.7646,-105.4062,-202.8582,-166.4528,-279.2190,221.0744,-51.2431,-586.5543,-12.4960,51.7913,-165.6976,209.6203,-28.0824,-567.9580,-278.9051,-153.8127
-457.3089,-215.0427,-149.7960,-409.5695,-152.7466,-392.2611,-315.5454,-480.6549,179.8000,-270.6357,-526.3226,-194.9878,63.6582,-276.2886,210.5757,-69.2184,-318.6453,-466.4316,-271.8270
-331.5307,-78.7830,-156.6581,-305.4276,-140.8984,-285.2149,-32.2645,-419.4420,117.4367,-304.8640,-416.4062,-69.1207,90.1964,-182.4767,197.0033,-81.2487,-257.2032,-369.6053,-173.8775
-232.6908,-124.2468,-116.2700,-353.4459,-166.0635,-267.1423,139.9617,-481.5475,23.2928,-357.7172,-301.5204,-16.9900,93.6993,-150.2655,107.0112,-94.3709,-134.1364,-473.6663,-112.0550
-303.7387,-306.0166,-182.3718,-549.1281,-249.4248,-306.6912,-68.5455,-601.5398,-87.3837,-381.7815,-280.1578,-224.8212,20.2940,-160.3916,44.5826,-117.7777,-209.3354,-602.7698,-256.9695
-323.4397,-215.5667,-321.5157,-552.7125,-250.4535,-172.8463,-392.8522,-528.0900,-142.1941,-228.9282,-255.1839,-361.8566,-125.0098,-50.4208,-50.4785,-114.1494,-419.0928,-444.8449,-383.5770
-141.4761,-73.2332,-296.9661,-409.6290,-211.4505,-129.6524,-666.7454,-445.3912,-74.9481,-146.8873,-45.4858,-378.7162,-246.7075,-50.6542,-197.4575,-99.7434,-343.6811,-306.1215,-341.3153
