Fp1,Fp2,F3,F4,C3,C4,P3,P4,O1,O2,F7,F8,T7,T8,P7,P8,Fz,Cz,Pz
-359.1892,-560.0297,-97.1643,-164.0381,-176.6007,-129.5179,-162.6138,-24.2127,-115.7059,-37.7192,-26.9350,-179.7355,-25.4401,-88.0751,-63.3512,33.2838,-167.1499,-146.5660,-40.1779
-255.0929,-452.7907,-35.8943,-29.1208,-54.4658,-61.4549,25.7668,67.1256,-789.0442,25.0910,23.6871,-111.3019,-1.3935,-51.8224,-69.9860,15.3817,-223.9466,-119.1416,26.1655
-277.8136,-359.5680,-36.2471,12.1444,-15.1958,-47.7882,176.3677,115.5996,-638.0956,58.5747,37.1682,-42.7268,9.3564,-53.9794,-71.9737,-31.5191,-165.7924,-15.6977,85.2728
-326.7228,-283.9185,-9.9384,41.1476,12.2424,-31.6976,257.1920,148.5540,-299.0451,78.4088,41.9331,-12.9378,48.0278,-35.1951,-53.0969,-64.2484,-119.9579,34.5270,69.7840
-293.7143,-238.1772,30.2392,108.5005,63.4540,1.5316,328.7866,155.1561,-377.6513,121.8053,24.6808,-5.9350,66.4522,59.6371,8.6870,-87.7540,-115.0754,20.2332,57.3283
-215.6628,-185.0878,10.9397,140.7263,107.0562,34.3745,430.7583,168.4232,-393.0557,194.9547,-19.2665,31.5272,30.9875,140.9946,79.8010,-87.2771,-46.3969,61.2104,148.0148
-135.7279,-75.0872,-14.0177,134.1860,171.6478,108.6069,530.1664,259.2711,-176.1337,252.4092,-40.8438,102.9988,0.5349,148.4427,98.4522,-31.2700,39.6539,152.2282,261.0814
-71.0866,6.0212,5.0895,137.3762,264.1271,217.1077,563.2670,352.8133,-120.2314,250.5331,-28.4231,146.1227,12.4930,157.9827,64.8436,33.1280,48.9930,219.1283,274.2857
-25.7038,-5.1363,17.8221,150.5486,343.4899,296.2633,534.0907,350.4971,-153.9547,217.9589,-3.2715,147.8224,55.8009,216.1888,34.2653,59.6427,66.5459,312.1088,245.4248
34.9700,3.5557,39.0792,196.8990,433.0856,369.7435,505.3070,331.1678,-86.8662,199.3177,49.5935,166.3440,122.7983,291.3476,43.2325,82.3833,157.7902,460.1806,273.2931
110.2829,93.0841,135.8526,296.1749,536.0892,462.6938,483.4525,353.5953,-95.0107,172.1279,124.2276,205.9448,170.7842,352.1688,83.9030,98.9725,232.1525,540.3115,310.8970
158.0050,179.8952,242.9005,373.4227,555.5650,485.6187,436.2187,327.7088,-162.9161,118.0443,163.6377,215.9287,152.5628,341.7870,111.7051,73.1422,244.7606,487.7626,291.8451
172.7247,223.8952,231.3676,366.7128,465.3271,406.7650,382.4722,236.6559,-137.7324,86.7965,144.0610,203.3353,105.7083,236.4690,82.6852,60.0021,225.2153,407.5495,238.3693
158.0082,245.3357,120.5189,320.5417,361.9777,336.1666,347.6235,174.5167,-144.1501,108.5275,98.4668,210.3290,79.8674,152.8570,29.5252,97.1976,167.0125,383.9794,165.8496
127.2570,252.7572,53.1593,290.0096,295.4594,327.3341,325.0980,170.3146,-196.4838,151.5660,68.6604,228.4850,58.0859,173.3541,37.0436,101.2278,98.6047,374.1340,81.7916
130.5373,258.5668,78.7334,266.7432,236.6110,307.9783,319.2168,192.6879,-125.4524,185.6362,70.8658,213.3304,33.8839,190.3934,102.6938,52.1726,66.8967,314.2951,36.7177
154.2502,241.9962,96.4357,209.7592,174.5575,227.2991,304.8305,203.9460,-26.4720,195.6357,76.6882,133.2363,32.0044,120.9421,137.5567,40.1290,22.1828,208.1019,20.8665
132.5741,172.3128,41.2224,100.9319,115.8307,108.9803,217.4683,159.3099,-38.1349,180.7841,48.4802,3.1030,33.7955,28.5459,118.9324,59.1442,-67.2636,100.1810,-41.4673
81.1425,95.7856,-35.3652,-18.3566,43.2000,-12.7680,83.8260,86.8892,-62.2660,179.2152,-9.2344,-107.7241,-2.3170,-62.7450,100.5672,37.5602,-142.8805,17.3649,-129.3380
44.2047,62.8600,-99.5392,-87.7064,-50.3837,-108.7478,8.0197,66.2547,-72.6813,211.0740,-65.6146,-142.3874,-67.0235,-170.3468,97.1782,12.0754,-205.7944,-32.5602,-163.0685
28.8208,70.5560,-146.1367,-97.6478,-118.8124,-143.4515,-9.1897,88.5866,-107.0264,227.6001,-83.7179,-108.4432,-106.8558,-210.3761,83.5884,31.5875,-282.0449,-34.0024,-158.9853
59.2361,113.3167,-123.4083,-78.5720,-111.6606,-114.0047,-42.3359,106.6055,-65.2104,196.5856,-46.5727,-36.2775,-92.5565,-135.0167,52.6526,49.6341,-304.4026,-1.4141,-148.3981
104.8198,137.4573,-54.6234,-62.5557,-54.5963,-78.0639,-60.2673,124.8087,34.3947,153.1134,-16.2037,37.7533,-63.3847,-60.0277,10.2615,40.2368,-257.7467,4.6008,-90.7034
69.2398,81.7878,-61.3901,-70.5258,-13.0216,-86.0713,11.3714,115.2935,47.5782,118.1266,-56.1316,55.1561,-66.4130,-71.4183,-22.8692,20.0879,-224.2686,-31.5115,-4.9600
-20.1611,22.8148,-134.4749,-88.6835,-6.1385,-108.6558,97.6484,48.1971,23.3091,78.1202,-101.9835,1.0169,-74.1434,-111.8145,-20.8425,-25.3633,-205.1997,-62.7889,15.7309
-55.3101,31.8419,-160.9306,-89.9896,-31.5557,-97.4543,61.7048,4.4540,36.6485,48.7591,-89.0556,-56.6629,-56.8084,-125.1074,-5.6235,-65.4751,-173.0945,-79.1768,-34.6118
-41.5932,26.6877,-162.7431,-90.7153,-96.6598,-71.2261,-65.7256,30.6549,9.6728,46.8742,-87.8855,-69.2971,-65.4041,-124.0708,-16.6386,-23.9511,-186.0393,-104.4809,-94.4975
-18.5571,-20.9577,-197.9909,-111.6700,-170.4886,-64.9780,-149.7240,31.3778,-43.2789,33.1858,-130.7413,-68.8470,-122.4398,-119.6382,-38.4650,55.4492,-229.0444,-128.0294,-148.6366
28.7746,-29.3326,-197.2962,-117.6041,-203.4765,-62.8890,-165.2512,-21.9895,-48.6819,-15.7972,-133.3927,-76.5723,-154.2858,-91.1343,-40.5333,65.1255,-188.8464,-132.4417,-168.4005
72.6643,-11.8601,-137.9246,-79.0625,-190.1932,-45.3342,-147.4286,-21.7550,-54.9371,-36.9731,-91.4474,-65.5080,-119.1594,-24.1566,-24.9983,33.5429,-75.3161,-116.1117,-90.8933
63.3211,-23.2674,-106.2526,-32.6648,-145.7617,-24.7905,-75.2362,60.0598,-54.6302,20.0859,-78.8500,-48.3406,-57.8429,39.0661,5.3616,41.1866,2.7406,-76.1955,41.2972
20.0820,-22.7443,-91.5588,-11.9577,-92.5257,-8.2292,8.9618,134.0929,12.4215,91.1995,-81.6571,-62.4835,-9.6979,50.5932,42.3126,59.1805,37.9447,-37.6725,99.8832
-3.8546,6.6085,-16.6036,9.7461,-72.6879,-0.2012,-8.6717,151.0094,52.4771,89.4920,-68.1494,-70.4449,-0.0774,57.3218,56.8937,45.4772,89.9316,-33.1907,63.5310
38.8040,17.2369,74.4825,50.1819,-86.5709,-27.4904,-85.8876,119.3955,21.8958,27.0991,-69.3161,-35.1358,-38.7426,96.4020,53.4042,28.1852,158.0762,-43.9041,13.0224
140.4766,11.8740,103.4399,57.3909,-88.7685,-88.5989,-85.1586,46.5125,49.0933,-32.3274,-65.9681,-21.7297,-71.5682,79.9842,68.1686,18.0903,198.1577,-49.7573,-33.9389
196.0251,16.1472,100.2805,-12.4858,-76.6957,-121.7885,-45.6353,-51.1016,113.1309,-64.4330,-11.1071,-59.5655,-45.6870,-5.5907,95.1164,4.8846,187.5173,-61.5380,-103.2095
150.6041,17.3174,117.0370,-104.4028,-64.6104,-87.6891,-68.5953,-140.4160,82.8813,-71.2331,51.0251,-59.0602,5.6341,-23.2907,100.6414,10.2300,149.1030,-59.9176,-140.9312
100.3785,5.3197,147.5209,-132.5424,-24.7654,-27.6844,-91.9545,-179.7909,32.9206,-48.4106,77.8393,6.5900,45.9625,28.3162,95.7409,32.9038,116.2905,-34.4765,-89.4058
106.7818,-11.9906,173.6501,-96.6579,37.4946,9.1696,-63.2868,-141.6451,61.4801,-4.8816,105.7908,55.8171,93.7159,18.3937,116.5406,36.4753,85.6796,-24.3254,-20.8237
109.1853,-10.5510,183.1970,-46.3465,74.2719,32.7131,-66.9671,-68.6135,85.3641,25.5786,136.8564,70.6859,136.3775,-19.4800,148.8575,18.2241,65.0119,-8.9416,-28.7954
84.2551,36.9410,166.7549,9.6547,98.6996,72.2948,-104.7970,-32.3525,69.5829,18.2633,134.3879,87.9716,133.2456,10.6927,132.7240,-6.8959,99.4755,69.1118,-65.7025
63.8277,87.1627,135.1624,63.0251,139.9542,123.1588,-73.9771,-24.5003,89.3486,-4.1106,112.2127,89.8626,102.9863,58.2135,65.5733,-31.1046,158.0850,140.2646,-44.1798
32.1899,62.2552,94.3302,54.2410,146.0408,138.2694,-1.2779,-8.4566,143.9402,2.7607,76.3253,63.9162,79.5213,86.6265,32.3865,-19.6181,132.5918,92.8249,1.7220
-13.8500,-4.5152,39.4815,-30.7036,77.8233,63.8699,3.5925,-12.6698,177.9521,31.2899,10.5898,41.3493,47.0215,106.6012,63.5238,31.9442,32.8476,-33.1753,1.1069
-1.8465,-3.2773,11.0630,-89.9310,-7.9939,-70.8273,-51.2481,-47.1671,174.0860,29.7150,-17.5302,43.1838,5.0529,40.8479,72.1781,44.8225,3.8194,-116.5281,-27.6599
108.4400,85.4718,61.9960,-38.8718,-58.0181,-139.8079,-101.1021,-62.8059,140.5341,-14.8728,57.1095,85.7450,-6.6825,-80.1076,15.5921,-15.7934,91.7009,-111.3498,-45.1214
239.5202,173.7292,147.0394,55.6578,-80.9026,-88.7886,-139.2475,-60.2965,112.1067,-72.2382,141.4145,141.1181,12.2842,-65.9332,-44.0105,-68.9112,169.4775,-61.8765,-57.3203
274.4480,176.1725,164.5422,77.3494,-86.1107,-23.1846,-164.1125,-70.6330,101.1283,-115.0826,125.0223,117.4771,22.8006,55.3363,-77.9871,-53.1659,136.6694,-46.9006,-58.8977
205.1322,102.7643,115.5525,35.3980,-66.1614,-23.4032,-155.7584,-62.7713,69.8663,-119.8765,61.8084,36.9517,22.0648,86.6980,-95.5533,-4.8632,58.3969,-80.6751,-25.1467
150.4892,51.0075,91.9920,25.9310,-26.5849,-31.6891,-114.6418,-28.0295,47.7203,-97.5708,50.1703,37.5762,42.4150,74.3811,-60.7997,11.4365,44.1479,-92.2703,37.2445
164.6114,60.3619,109.5566,60.8955,16.1561,-13.3335,-46.8357,-26.0447,87.5033,-108.1437,85.9782,92.9880,93.6759,132.7114,14.9882,-38.4229,70.8214,-75.1367,98.8253
147.0206,61.5669,92.1365,65.3614,45.7048,-22.9561,25.5567,-52.6001,111.3031,-147.4599,118.8862,72.6675,144.4135,130.9571,43.0909,-114.4658,45.3340,-92.0520,128.5029
46.4891,42.1188,19.9150,29.7804,51.0771,-57.4249,49.4663,-41.5960,66.2631,-125.3084,111.8877,29.3054,147.4961,-2.5825,17.7853,-111.5058,-10.6352,-102.0660,111.1982
-53.3397,60.0398,-46.6422,19.9089,36.3552,-55.2906,27.6763,-6.4882,50.5930,-38.4013,40.3745,34.2062,84.8807,-95.7632,5.8737,-8.6034,-14.2785,-44.1856,89.3310
-115.7851,71.7374,-80.7759,32.5848,17.4529,-35.3460,28.4799,-10.6450,82.9004,8.0557,-62.5283,-19.2151,-6.1869,-80.6859,1.2982,70.0423,6.2805,-10.0796,106.8119
-164.8806,6.4103,-105.0033,-0.6996,3.2376,-54.5955,42.0975,-56.6500,56.5590,-24.8336,-115.6858,-136.7510,-66.1391,-68.5959,-19.2515,44.7902,-15.0718,-70.5233,105.3765
-155.1216,-59.1807,-125.5710,-56.4377,-20.1851,-88.9748,-10.8221,-116.6883,-28.1708,-94.6265,-102.5632,-152.4521,-72.7398,-71.5460,-30.6354,-7.7697,-39.6994,-126.8970,17.5304
-67.5507,-30.2719,-137.4477,-32.4335,-64.6898,-79.2708,-105.5969,-183.4573,-93.6663,-173.3219,-80.7255,-56.8899,-51.6126,-21.6713,-51.0970,-12.9668,-10.8757,-97.6535,-90.3815
0.9376,47.4529,-132.6690,68.5798,-85.9614,-16.1791,-140.8600,-235.4524,-136.1380,-225.0563,-65.0450,30.1995,-27.1328,52.8972,-104.9551,-13.1069,45.0682,-11.2180,-120.2680
3.2314,89.8626,-76.2539,132.0848,-21.5534,69.5649,-111.0980,-222.3151,-154.4335,-208.1065,-17.8985,102.4767,12.4451,87.2776,-126.7162,-59.1478,85.9226,88.3083,-74.4896
-4.6044,73.3507,36.1520,114.4537,95.4342,136.5514,-75.1268,-118.4924,-128.0918,-139.5867,51.1312,157.1449,77.0920,77.3648,-95.2481,-104.1196,101.3181,141.7054,13.1148
-11.2150,21.6915,129.1224,84.9103,167.7637,163.3427,-34.8288,19.1651,-94.5750,-56.9661,90.9427,128.9517,129.4947,54.3460,-103.8819,-69.8974,95.0436,116.9821,115.1084
-40.4122,-6.8053,141.1792,90.2645,167.8665,167.4523,16.4891,86.0182,-76.9387,13.3303,91.4805,68.8124,122.4118,43.0973,-165.3522,27.8515,81.0655,84.5355,156.8377
-66.0781,5.0211,85.0909,95.0260,113.9186,148.8626,41.0934,52.8069,-50.5925,23.7182,62.4366,59.5585,52.6463,29.5903,-183.1120,89.9730,41.1507,63.8849,93.0032
-78.9755,0.5212,-17.1219,51.9229,-3.0822,66.3515,29.7577,-14.8033,-26.1690,-22.3339,-12.9698,45.6504,-51.5375,-24.0524,-151.5329,67.4216,-65.2696,-34.8866,-7.4557
-104.1802,-14.9997,-130.6095,-26.7385,-139.1375,-64.2574,10.6522,-74.6254,-15.0043,-48.0468,-109.1773,1.5619,-141.7735,-102.2685,-140.8894,5.4329,-177.3135,-168.3570,-61.0299
-113.4829,33.3465,-171.2793,-68.6487,-189.6301,-145.6045,-14.0044,-127.7654,-4.1360,-58.8022,-134.2662,8.7271,-155.0665,-142.5167,-141.5096,-47.9832,-169.1291,-176.9527,-57.3695
-66.7332,114.9018,-114.2709,-28.4686,-150.7955,-135.1740,-45.7131,-150.1677,-20.8128,-119.4017,-64.8898,48.7699,-92.3785,-134.8456,-118.4123,-81.5269,-59.2634,-85.5879,-24.8874
-5.1266,127.0250,-55.1086,27.5300,-118.7224,-100.8058,-67.4064,-136.4650,-66.2696,-167.6348,1.0400,23.5378,-45.5544,-136.5458,-103.0657,-84.4567,5.9493,-44.8291,-10.7996
9.5553,73.3241,-61.5136,-1.7387,-119.4278,-104.8636,-84.8784,-135.7010,-69.4005,-123.3823,-9.3382,-50.7517,-63.3018,-173.8306,-107.7777,-62.4657,-32.0410,-69.2555,-42.6159
-18.6240,18.2237,-93.0218,-106.2719,-106.6173,-127.9301,-88.5055,-157.0214,-24.8095,-68.4662,-56.1726,-103.0049,-84.7635,-190.1108,-85.3377,-50.2721,-120.0000,-91.9400,-63.8056
-48.8156,-27.1182,-113.8465,-192.8398,-70.2132,-125.0014,-14.5251,-156.6021,3.5674,-68.2209,-77.5911,-129.4475,-65.5943,-143.6186,-36.5672,-58.4828,-207.5604,-89.8138,-17.2743
-56.7034,-55.4269,-141.8924,-215.7799,-27.9909,-94.6420,127.3164,-131.5797,19.7203,-48.3853,-68.1715,-146.6885,-40.1587,-101.5467,-34.3448,-67.5815,-257.4532,-46.2413,43.7147
-50.2793,-51.3326,-176.6497,-193.3038,10.5457,-69.4224,205.5154,-97.7205,32.5922,3.5199,-52.3274,-166.8135,-29.6138,-118.3611,-100.7105,-69.6557,-244.0818,25.1852,63.1170
-48.3939,-52.2157,-187.5072,-156.9866,35.0195,-49.8182,167.5336,-32.2816,-12.3042,9.8889,-41.0895,-206.6392,-17.3663,-110.7188,-156.0533,-62.4666,-191.7748,65.9906,96.2832
-44.6878,-87.6243,-165.0137,-134.8201,49.9734,3.6521,119.2688,56.2042,-91.7427,-12.1116,-31.0609,-239.0959,-12.8002,-29.7086,-136.2784,-45.1121,-134.8508,74.7273,188.1569
-41.6332,-121.4133,-135.6664,-127.1493,64.3842,71.3335,127.7123,98.4868,-108.3056,-6.6247,-37.5702,-227.8642,-44.8763,5.9881,-83.9132,-32.9969,-79.5788,79.0218,261.2347
-83.5790,-127.2291,-133.4886,-104.8489,55.9947,58.0219,131.7259,60.6403,-72.6654,-8.4886,-88.4871,-206.1276,-109.3454,-66.3010,-64.2515,-30.0345,-44.0460,48.6706,219.5760
-163.2318,-120.7116,-153.4603,-62.1121,11.4748,-39.8345,71.4175,-14.8046,-83.2887,-37.8130,-150.7769,-212.4716,-161.9059,-130.5914,-70.1357,-25.8932,-42.7899,-8.7817,71.4140
-185.7086,-104.1664,-145.3137,-18.0290,-44.5638,-85.1661,-44.2573,-69.5252,-166.4214,-48.7555,-146.5384,-218.5136,-157.9331,-114.8108,-73.8320,-35.9323,-32.3677,-17.8820,-91.7915
-119.9474,-65.1175,-79.7496,31.6849,-97.0020,-20.1348,-163.8961,-86.8194,-254.7471,-51.7081,-85.4699,-191.4285,-110.2046,-74.4580,-86.8627,-68.1792,33.6453,17.0979,-186.1284
-50.0869,-10.0443,15.2965,100.0123,-133.8600,44.7120,-217.1163,-96.6664,-278.8295,-96.1777,-53.6254,-127.9391,-84.3741,-37.8782,-116.7228,-87.8370,129.8443,31.7300,-198.0420
-24.0718,48.1504,93.7183,178.5689,-126.8987,52.6993,-193.3698,-124.7103,-240.6260,-150.4531,-63.8424,-13.5406,-107.1160,8.7272,-143.1343,-83.6166,199.7150,41.8243,-174.5474
-20.6711,101.9373,113.7831,250.5784,-99.7410,87.4456,-173.0138,-152.4524,-195.5334,-147.3596,-75.0357,130.6073,-139.9983,44.9121,-155.7991,-81.8679,213.1862,84.0148,-162.0164
-47.2061,128.1026,58.2856,278.2088,-105.6584,162.5843,-185.2699,-156.9139,-157.9305,-95.1656,-96.6700,182.7831,-156.9049,38.9762,-155.3228,-77.0978,174.1496,121.8963,-166.4718
-91.8460,93.7104,-10.8047,211.0862,-100.9471,167.1855,-149.2325,-144.8916,-90.5601,-52.1260,-118.2267,46.2677,-151.7515,-26.6184,-133.1010,-61.9659,128.8717,123.2559,-158.7926
-78.0105,3.8871,1.9563,71.4806,-9.4495,66.7973,-39.6598,-130.1808,-8.2251,-43.6253,-74.2987,-179.3962,-96.8209,-131.2180,-90.1745,-74.0661,121.9775,105.1956,-111.6948
-7.7713,-80.7807,86.1305,-43.2369,105.8367,-50.7649,48.9039,-133.5120,16.8957,-60.3052,11.5073,-297.1343,1.6986,-195.0055,-47.8728,-113.9859,116.3934,78.8666,-47.3750
13.1998,-103.7992,137.6040,-74.5813,124.5348,-111.4953,57.9681,-169.0244,-33.1204,-98.2121,43.7406,-254.7052,75.7765,-179.3835,-23.7600,-124.0451,51.6245,50.7157,-23.0397
-35.3231,-69.7675,114.2212,-38.9909,63.8347,-86.5966,33.8463,-189.5026,-94.6805,-142.8522,37.3064,-147.0975,97.4748,-133.5295,-18.0029,-98.5042,-35.2117,43.4160,-49.6273
-71.9325,-20.5996,66.6606,14.4395,28.5110,12.4903,30.2038,-137.1111,-100.3618,-145.7509,65.6870,-53.0769,108.2204,-76.7504,-20.6700,-83.8389,-77.8839,59.4287,-70.5363
-81.3927,-1.8185,34.8046,16.1150,44.2848,90.1517,60.7714,-39.6208,-54.0719,-86.8549,95.3681,-19.3675,123.2720,-13.2824,-19.6492,-73.4614,-110.0093,71.8312,-32.8096
-109.1920,-44.0063,4.0092,-67.6094,65.1030,68.7830,125.7669,47.0423,-17.8061,-15.3385,61.4354,-77.3846,115.0134,-14.5194,-6.0764,-27.8936,-180.4619,68.8108,53.7863
-158.4859,-111.6339,-54.8473,-165.0320,73.9385,19.9599,200.7843,109.6766,-8.8127,32.6006,-11.8547,-153.9040,75.0761,-72.4095,17.9830,28.9342,-240.1674,70.2846,121.0439
-216.2567,-127.2545,-139.5315,-182.4126,79.2321,29.5513,232.0241,125.0473,12.9259,67.8200,-77.2382,-140.9450,17.1088,-67.3053,37.2958,31.4053,-241.9169,88.3794,110.3134
-264.3473,-90.7758,-208.3647,-123.2117,58.9302,51.4003,197.0266,75.9170,36.3934,71.1657,-121.1283,-85.2572,-40.2017,-20.0519,43.6229,-24.2236,-225.8605,95.2829,51.2866
-256.9905,-71.7989,-231.5201,-55.8689,-4.4305,35.2321,140.6816,24.0793,9.7081,20.6968,-134.9312,-94.7394,-68.4577,-49.1118,48.9076,-61.6801,-223.3070,67.8538,19.1131
-213.6320,-83.7075,-222.2254,-30.2551,-60.6898,13.0326,112.0927,28.4217,-53.6373,-22.1694,-126.2573,-129.1549,-59.6646,-88.5988,46.6933,-28.4008,-201.8571,40.3172,20.2205
-212.4988,-83.8989,-183.9980,-40.1541,-53.8234,-10.1753,100.2510,59.7022,-105.6711,-1.6470,-115.5772,-96.6551,-45.6832,-27.3489,-0.8687,36.0652,-133.8318,40.6812,15.8006
-223.4426,-65.7106,-108.9923,-27.5666,-20.6636,-59.1461,71.6649,74.4488,-133.0493,29.6363,-102.0797,-25.1902,-55.5647,39.1653,-83.0761,76.0329,-35.2986,19.2123,3.6050
-165.0823,-52.0235,-55.0875,24.2063,-34.7515,-114.4239,21.3975,46.5646,-129.0736,8.8330,-95.5890,12.1775,-88.0490,14.1662,-122.0264,83.2402,37.4465,-62.1684,-27.6808
-96.8318,-47.2108,-91.3856,35.3675,-92.8300,-162.9697,-49.8683,-50.3815,-116.6030,-40.3402,-118.6493,2.8957,-124.5239,-20.9750,-91.2492,51.4467,12.9690,-140.2838,-111.0555
-108.0698,-45.2537,-169.0821,-32.8377,-140.4568,-198.1371,-138.3563,-156.2279,-155.8706,-65.7180,-139.8555,-27.5747,-136.0522,-9.3425,-49.2964,-13.5481,-102.1038,-145.8152,-198.1537
-143.6628,-35.9897,-186.7112,-91.3250,-142.2283,-156.8354,-196.5466,-149.3685,-216.6676,-56.6806,-112.3232,-43.1319,-100.9174,11.0822,-27.5499,-52.3479,-187.6411,-96.8315,-204.4568
-135.6666,-8.7623,-124.8445,-68.0687,-76.9118,-27.1560,-174.7565,-51.2495,-207.7348,-47.9747,-59.1672,-24.7349,-35.1941,58.8216,-7.4078,-46.4980,-147.2154,-28.7523,-156.4059
-111.8331,25.9840,-12.5674,5.9435,43.1766,92.4040,-97.8322,-0.7095,-156.8320,-65.8009,-27.0904,4.1938,15.1162,157.4094,6.7419,-52.6178,-19.7723,66.9320,-119.5780
-90.1696,47.8667,114.9393,84.9477,142.3620,171.4968,-28.5086,-3.4475,-133.0897,-59.0606,-26.9898,25.1927,16.8858,219.2150,5.4418,-54.0431,93.0362,179.5273,-69.8338
-71.7397,51.5773,180.0546,136.9444,161.4556,262.3926,7.0583,46.6511,-97.6202,26.8893,-51.6421,47.3756,-19.0112,170.6360,12.1540,15.2548,136.5728,238.3927,11.0654
-93.6019,44.0076,135.8106,128.6887,122.5315,306.5222,20.4589,133.6316,-28.2360,120.8100,-66.4178,63.4455,-47.4017,76.9757,35.2364,82.5137,111.5388,188.6873,67.3583
-143.0375,37.8657,44.8543,74.2199,62.9462,218.0222,45.2073,154.3689,9.8904,136.6279,-41.4542,61.4342,-43.5176,37.3137,54.6182,42.1229,31.6678,72.7771,90.2710
-153.5924,40.8217,-31.1130,18.9263,-0.0905,93.9380,100.6525,121.9572,4.5326,130.9635,-35.2091,53.1511,-36.5365,51.2946,64.9877,-28.6574,-72.9268,-4.3714,119.5580
-131.7566,40.7303,-94.7584,-13.6982,-31.9086,76.9384,128.8929,122.3699,-18.6411,163.5211,-97.3504,51.9224,-54.8062,61.2878,67.3252,-19.2317,-126.8973,7.3409,110.5376
-125.0739,30.8194,-113.6222,6.2219,-19.7813,143.0871,55.1654,137.3826,-87.3467,167.0938,-129.2478,78.9728,-65.1924,66.5608,52.0352,16.4499,-80.9384,48.6687,-4.8002
-120.0983,28.9674,-52.6420,81.1406,-16.6605,183.0568,-75.5178,83.2464,-184.6484,101.1799,-40.2437,144.0887,-16.6993,96.8421,19.8772,-0.3231,-18.0893,35.4007,-163.1546
-104.1655,36.8576,14.6288,119.0275,-55.6860,142.1761,-149.5298,-22.2499,-247.2892,27.7312,82.0462,183.5908,74.5599,107.4097,-22.9463,-38.5643,-45.0960,-23.5996,-242.3534
-104.8342,39.9857,20.3688,67.7928,-91.4016,49.1970,-151.1303,-72.3912,-300.2165,-11.9289,132.4048,155.0759,129.6591,47.7690,-72.8708,-46.5506,-100.4688,-39.0352,-225.1839
-107.1532,56.8675,18.8675,24.4248,-80.4594,0.9457,-150.6514,-29.1016,-362.8460,-8.5365,130.6462,143.8375,105.0545,-12.5713,-110.0747,-10.0133,-68.8176,19.8983,-177.5135
-76.1152,96.4905,46.0541,47.2602,-38.8584,45.6049,-171.2124,37.9069,-350.0958,48.5133,109.1781,185.0845,50.6174,-0.4430,-112.0048,56.3739,-3.9136,70.7537,-138.3307
-48.3497,104.6769,39.3272,44.1601,-3.7370,93.2527,-168.4812,51.3992,-248.0157,95.1276,63.8453,154.6908,25.9979,20.7589,-75.2515,95.9949,-16.6018,50.1486,-113.2394
-77.6231,49.7896,-22.3349,-30.6652,-1.4933,62.7484,-111.2440,-3.9017,-162.7632,46.0627,20.7186,22.5642,6.0068,-12.3102,-13.0178,70.1666,-80.1613,6.7691,-114.4130
-139.0190,-14.5912,-75.9345,-89.8386,-36.2062,-0.8235,-34.2278,-88.3248,-130.0631,-54.4391,-1.4635,-54.5019,-44.2302,-49.2313,28.2211,13.8157,-121.2318,-7.3714,-142.6246
-160.7107,-35.4068,-80.3309,-80.6879,-76.2402,-49.3701,-4.8959,-150.9742,-115.0933,-110.2600,-17.2142,-7.2510,-67.2208,-58.2629,2.7172,-34.0498,-132.3378,-19.7046,-168.9978
-104.8778,-12.7792,-42.6649,-49.0339,-81.5579,-90.6526,-29.4557,-179.8377,-137.9183,-118.7009,-7.8646,67.6328,-5.9924,-80.9813,-44.4490,-61.5257,-118.3538,-46.7876,-172.6317
-5.9676,31.6015,9.1703,-41.2784,-49.1349,-106.9929,-38.8330,-187.4920,-189.3167,-110.0334,42.5280,98.7100,81.0702,-112.5624,-40.1897,-47.8133,-88.3285,-53.8594,-155.4312
52.5086,54.2442,40.2432,-60.3365,-2.6857,-85.4879,3.9774,-155.7082,-178.9052,-83.3658,82.8657,78.7602,112.3411,-94.6577,-19.6619,-11.1129,-72.5909,-35.9878,-110.2770
28.3872,22.6233,51.8718,-81.5750,42.7526,-62.4232,65.5542,-74.5108,-100.2325,-52.3374,74.5742,23.1759,94.1263,-22.0655,-33.2806,-11.7423,-63.9453,-17.6946,-40.0668
-36.5290,-21.5697,57.9165,-78.3283,72.9419,-47.8059,122.5588,-0.4455,-46.3537,-23.0487,34.0609,-2.8432,60.5135,36.5190,-20.4641,-37.7658,-48.0614,6.2272,6.4317
-96.5848,-30.7003,11.4664,-62.8834,61.1075,-24.1258,175.4187,29.1725,-34.3415,32.4232,-33.8843,20.3993,10.4261,7.2159,51.1232,-28.7089,-73.4475,37.2989,-0.0521
-151.4765,-33.5592,-111.5988,-82.7163,-2.6596,-14.0405,190.3466,58.4925,-14.7123,99.6522,-118.9138,-15.2622,-52.4598,-103.8218,92.0999,-3.2484,-164.4912,37.6034,-15.0316
-196.3481,-60.8686,-219.8458,-168.0292,-95.1404,-46.7584,133.9773,103.6920,-4.1498,125.6870,-176.0012,-163.4290,-111.8043,-199.9581,56.1600,-4.2302,-270.0580,-25.6794,-6.1623
-215.6609,-98.6733,-256.6454,-295.4042,-192.7700,-122.0828,51.1605,112.5484,-30.1973,116.4586,-207.6347,-295.5480,-174.9414,-219.6041,4.6816,0.9270,-358.7850,-138.1376,-6.1472
-220.4775,-138.3523,-301.9446,-377.5037,-278.5612,-215.5995,18.1066,76.4037,-39.9995,108.7414,-255.8389,-284.3928,-244.6330,-206.2544,-20.2768,36.4278,-407.0887,-228.1438,-32.8918
-217.0143,-144.5001,-381.7966,-321.4585,-311.3579,-246.0402,28.3921,35.7886,-21.1343,85.7167,-289.9127,-166.6653,-279.1318,-189.4593,-29.8282,51.6383,-342.2310,-214.7721,-65.7809
-180.3590,-52.6171,-375.4072,-145.4956,-261.8644,-149.6372,10.1137,-9.7605,-60.7258,27.8496,-250.9727,-60.3153,-242.4368,-132.8707,-47.7490,11.9423,-160.4379,-112.7772,-96.7239
-113.0220,88.2841,-224.4955,33.9650,-174.5083,-12.1984,-36.3934,-63.3120,-150.1166,-13.1923,-164.8241,-18.3956,-164.9658,-56.4791,-97.3410,-39.6943,20.4842,-11.9454,-104.3059
-68.3625,135.5288,-45.9769,145.6158,-106.0827,53.9490,-26.0290,-69.0336,-151.0833,21.4585,-94.0069,7.6052,-104.4709,-42.3650,-140.3836,-40.7695,114.6006,62.1077,-47.9047
-75.8254,74.0044,24.9562,186.8530,-47.9657,76.7808,48.8883,1.3012,-52.0810,97.4754,-64.3494,64.6635,-79.3649,-90.8637,-95.5555,3.6561,121.1567,119.6613,39.7995
-96.3255,18.3326,-24.4368,154.9206,-2.8243,89.2181,86.2469,81.1851,2.0657,125.2044,-78.8405,97.3996,-83.4751,-121.7215,3.6878,16.7212,49.7952,106.9956,71.7894
-86.9376,14.8466,-103.8855,82.8733,-32.2617,45.0182,50.9483,100.7860,-27.8390,94.0391,-107.8313,50.9634,-118.3113,-101.6037,34.7318,-25.4956,-49.9067,27.6527,45.8212
-67.8102,31.6992,-114.4834,59.9619,-120.3442,-9.1931,21.9602,75.8087,-54.7908,78.3675,-101.0649,10.7671,-160.7437,-50.3110,-4.7167,-35.0826,-76.5837,9.7157,34.1418
-80.8487,58.3938,-46.6182,115.0153,-137.4980,29.5107,45.6251,58.3849,-61.0111,91.5694,-71.7436,76.8250,-162.5855,28.5946,-11.6754,24.4194,-8.3637,80.2073,55.5167
-120.3922,72.5450,7.0553,167.7197,-46.2601,98.3334,90.7550,55.2545,-64.5544,73.2654,-75.8085,187.0702,-126.7967,123.7694,37.5536,59.1116,56.5802,103.4436,73.6873
-152.4460,35.9367,-24.9459,149.9261,27.3446,79.3893,115.3134,54.2602,-38.5053,43.3466,-97.0837,227.1009,-100.5484,179.1830,81.0849,33.7020,40.1561,44.6335,75.2360
-157.9098,-10.8732,-86.7956,99.6274,5.7772,24.5219,86.9546,83.3350,-26.0561,78.8532,-72.4949,201.7386,-80.7092,156.8236,74.2455,25.6390,-16.3461,18.7931,71.3982
-132.0538,-1.4486,-85.0902,95.2245,-38.1185,22.9351,23.6230,157.7696,-99.8174,145.6393,-10.0214,164.2046,-36.5900,83.7471,24.9412,38.4247,-28.7918,54.3787,73.0395
-100.9223,19.4763,-43.7781,134.1341,-34.0133,34.6458,14.0798,228.6038,-177.7797,164.4517,21.5619,100.6002,1.0409,1.2296,-7.1160,15.3793,-0.4410,71.5615,97.1992
-112.6496,-26.5714,-41.6175,139.2554,5.3442,26.0312,88.4843,267.5776,-137.9189,171.1015,0.6919,2.6039,-1.4638,-55.3221,33.1766,-1.7324,11.7961,62.9441,157.5193
-146.5368,-96.8899,-31.0708,96.1854,73.2906,63.0528,169.5247,304.4842,-25.9129,212.6659,-8.9702,-52.9187,4.0632,-26.9044,119.1887,27.4588,36.2204,95.1911,239.0454
-128.5025,-104.1437,78.9175,77.9284,186.0288,170.7771,231.7531,331.5372,55.9627,228.1995,50.5415,-8.6262,55.8865,101.5320,185.4011,26.4266,122.2060,180.2363,306.9380
-80.1590,-61.3758,199.7313,103.5171,304.0005,271.4860,317.5776,315.6887,99.6337,184.9608,122.9982,74.2216,96.2386,236.5309,200.0424,-27.6330,187.6101,258.2742,344.2636
-81.3121,-24.2188,191.9804,119.8910,353.9778,311.1985,381.2411,293.8538,117.9703,150.2507,111.9099,122.4312,79.2891,298.1721,154.9350,-31.0397,159.5547,275.4839,365.6035
-98.6666,3.0766,137.6355,124.9201,328.7354,321.5971,353.6193,300.3246,110.3567,153.4886,58.5881,156.8966,63.2233,311.8511,89.3829,49.5073,135.6212,237.7923,383.9601
-58.6452,19.8813,181.4766,143.7027,287.5814,327.3040,303.6464,290.6200,102.7030,157.6488,83.5878,194.9870,104.1759,294.1633,90.5442,127.0849,172.8862,187.7947,384.2300
5.2721,6.2400,254.2692,138.2570,265.7621,296.9343,313.2071,245.5206,89.7288,152.3340,165.1385,182.6448,150.8102,220.1081,150.9183,141.1784,163.8341,140.0729,345.7152
51.4871,-25.9099,241.4970,80.9416,236.3963,225.3832,313.2549,194.4233,47.1813,138.2458,179.2474,108.9366,131.7237,132.9152,154.1707,93.7674,88.2243,80.1278,270.0479
92.9978,-58.5644,203.6633,17.3957,171.2206,167.8536,221.8708,128.5405,19.1735,104.6038,113.7848,36.5319,75.4327,86.8088,85.8377,22.4357,54.0589,22.0843,182.0152
77.5412,-99.2419,208.7933,-18.1949,101.1200,152.0078,88.4353,60.4432,30.0695,77.9206,48.7424,-10.1811,53.1346,49.1158,55.0855,-5.0434,48.3984,5.8566,112.6461
-48.9879,-132.4691,206.2642,-37.2277,75.5516,151.7449,-21.0927,55.7177,4.9903,76.1812,15.2992,-40.9339,63.1480,21.3166,82.2768,16.6604,-7.4282,35.8823,60.0649
-181.7106,-144.2167,177.6120,-49.1639,82.3018,152.3094,-114.2729,85.4067,-72.5685,52.2509,14.4517,-36.2367,61.9263,63.5347,83.1876,10.4445,-58.9079,65.6565,-9.5935
-198.6462,-171.2463,164.7829,-60.5050,70.6905,146.8164,-173.9639,54.1562,-92.8687,-7.5508,49.4275,0.9370,44.5017,115.8544,39.3064,-21.6788,-46.0972,53.2872,-77.3458
-140.8086,-202.1005,154.1191,-65.5674,41.8494,119.2007,-138.0048,-2.0246,-15.5169,-38.9396,77.4672,38.6006,20.5608,77.7992,15.2638,4.0155,-25.7355,21.9003,-65.1089
-93.4788,-161.8205,115.2280,-37.8399,36.5356,91.3363,-27.8982,14.7444,70.9879,-20.2218,53.1193,83.8280,-13.6808,32.8368,50.6861,65.7397,-33.2062,26.5399,33.9095
-81.6933,-96.2146,66.4631,-0.5725,48.4148,82.5105,59.0340,80.3189,129.9576,6.6032,-0.8649,126.2891,-44.5195,89.0494,118.0427,77.1482,-50.6155,47.3391,137.3903
-129.4329,-140.1156,18.3309,-22.1108,37.8796,34.7457,106.4774,127.5903,206.1310,35.9888,-48.7242,96.6101,-57.1000,146.0119,163.8155,60.0868,-90.3726,5.5422,200.9133
-223.7501,-263.5442,-26.9538,-97.7287,12.4314,-87.7774,168.5095,154.6398,288.1859,79.6995,-76.9075,-1.2802,-56.5997,85.0673,174.4895,68.1781,-137.5736,-89.9963,230.6732
-274.1761,-311.1497,-30.2682,-153.5861,13.8113,-214.8277,229.4969,164.7761,312.1235,102.4359,-50.2016,-61.6496,-22.6381,-20.6029,168.2471,74.9174,-143.2244,-145.1925,224.9765
-242.8037,-241.0001,19.1104,-149.0340,41.2550,-291.9094,243.2061,156.5533,263.7008,77.6435,35.8703,-33.2444,59.1593,-56.0383,130.1658,62.9788,-130.1494,-138.5996,207.3669
-191.9045,-118.8038,56.9870,-83.2558,45.9747,-338.0162,238.7556,147.4326,184.1803,32.4405,93.8924,47.4330,118.0991,-17.7233,66.5593,47.9082,-134.0762,-132.8775,203.4249
-162.3998,-17.5276,34.5303,13.3968,3.4192,-353.4789,246.3969,117.4277,122.8670,0.4410,65.3068,142.5550,96.2461,42.7972,65.3581,11.7685,-116.3702,-152.7927,169.5392
-152.3774,-6.7734,-20.8522,67.1954,-45.7983,-335.1872,232.5640,42.3756,118.4737,-3.9465,13.3803,214.9825,56.6876,81.0481,138.8316,-23.4011,-73.2306,-168.7133,89.4727
-171.5321,-61.7357,-57.4067,56.9545,-48.9813,-322.1420,190.8600,-21.7378,162.8080,16.6185,1.1005,228.1988,53.1269,81.0832,153.2728,19.8625,-57.7989,-151.7903,44.9951
-192.9901,-54.9271,-44.7709,61.5534,-8.2189,-313.3675,167.1936,-27.3210,188.5863,31.6962,5.3976,190.0715,40.1542,71.8570,72.1118,109.7075,-34.5768,-94.1905,68.0869
-147.9886,23.0907,22.3175,111.9974,41.7452,-274.1764,179.4081,-20.9901,159.9269,13.7675,6.3326,130.7860,9.0326,82.7189,21.6071,127.5320,66.9832,-27.6552,95.4250
-44.3392,54.9451,108.3403,138.6299,86.5115,-228.6815,202.6499,-33.6049,113.7522,-18.3708,23.1187,82.4412,10.9438,103.3582,25.8246,76.6940,176.3803,10.2237,103.9630
21.9939,41.3587,143.3832,120.4874,124.2850,-190.3417,197.3061,-19.8316,69.8752,-29.9612,49.8090,89.9463,27.8808,109.9151,-3.4891,48.6787,181.9018,51.4227,108.9269
9.4168,55.9998,104.8125,112.1105,156.8645,-117.5693,148.9577,31.2365,13.4580,-25.8286,69.5310,146.2980,25.8002,91.5391,-33.5752,42.0701,126.8828,130.2846,100.0782
-23.1005,56.4563,63.0494,121.6709,193.5459,-50.7093,111.5838,52.5107,-26.9337,-43.7949,89.8467,180.9961,48.2840,73.1883,0.4605,5.6016,113.7087,178.5660,85.9753
-39.0569,18.8971,66.0715,118.3132,202.6429,-74.4334,111.7575,8.6215,-18.1784,-86.4373,87.3944,182.4931,86.4440,108.1608,15.1770,-32.0364,122.2375,147.9921,64.3063
-83.4492,37.6696,50.0347,118.1968,137.0403,-117.7323,72.5168,-21.4260,-5.9758,-78.8712,22.6346,187.8077,47.8910,181.8503,-37.5885,-3.7907,95.3610,133.5108,5.2766
-161.4039,109.3438,-17.5913,147.6978,68.9232,-62.4646,0.1017,59.4455,-23.3973,31.2838,-43.6508,155.6535,-25.3631,198.3076,-50.0446,86.0768,90.8945,202.0564,-6.3792
-169.5355,113.9477,-35.4319,175.1337,125.5578,18.2700,32.7904,195.1852,-12.8573,145.0619,3.0169,48.2884,26.6304,139.0059,3.9616,151.2578,170.7502,250.8902,139.1886
-48.2832,60.8352,45.6465,152.9703,253.0986,-9.2975,142.7798,228.0644,34.4467,127.1585,141.1827,-44.4098,177.6593,91.4274,6.6325,123.4511,240.5725,183.5470,299.7325
95.5135,50.0824,108.4184,87.1038,278.8322,-111.9922,143.4694,138.2623,26.0185,19.2968,225.3566,-47.2621,225.1370,73.8111,-64.2716,41.6199,186.7308,59.7204,269.7281
124.6531,57.4825,71.5702,20.9116,189.0303,-188.7721,57.3290,51.1872,-57.0261,-39.8422,189.8466,-16.5523,133.3728,19.9580,-114.5035,-16.3248,74.7756,-24.6296,149.5393
40.2515,5.1824,4.1639,-23.3418,99.5851,-226.0879,53.5492,20.2775,-113.9284,-27.3392,101.3546,-6.6471,63.8491,-55.2461,-112.9774,-41.3959,29.0112,-55.4480,133.2356
-61.5401,-85.1561,-35.1709,-49.8426,47.2289,-238.0925,111.5410,12.5159,-79.6509,7.1999,30.6284,-12.3920,67.3962,-60.4863,-81.5688,-37.4151,27.8670,-57.1287,173.5637
-115.0532,-158.0635,-67.5718,-59.3355,17.1422,-207.0478,124.8776,34.8811,11.7075,61.5641,-10.9860,-56.7284,46.9537,14.1123,-25.2172,28.4903,-10.4424,-38.6652,161.8851
-121.6151,-199.3288,-89.4780,-57.5014,27.7683,-141.8313,103.4603,85.2588,86.8656,119.7247,-28.3285,-140.8569,-2.4151,73.5073,8.2477,119.6197,-58.5183,0.1714,122.0305
-115.6986,-200.4023,-64.3455,-57.1359,68.3328,-98.7766,56.7104,100.5403,80.4075,126.4020,-14.6157,-179.8233,-0.1916,45.2641,-39.8931,135.6189,-41.4857,42.8565,85.6953
-119.1303,-168.7192,0.2025,-44.3818,98.7127,-121.4622,-22.2728,60.0222,-0.9776,85.2330,25.1994,-143.1981,29.7476,-32.7211,-115.4145,74.2485,29.9569,44.0928,57.1358
-128.3452,-148.3684,52.1237,-13.0392,113.0862,-190.0324,-58.0109,7.8802,-53.1656,51.0788,48.3225,-124.0517,14.9855,-74.7936,-122.8142,20.8164,80.0697,-19.4278,65.6706
-136.7001,-158.0216,46.8082,-22.7379,103.7878,-240.6978,-26.4676,-23.0147,-13.8892,46.0549,10.7350,-169.9307,-22.8202,-71.8073,-80.3678,7.9663,58.8579,-97.2946,97.4233
-139.8288,-175.2068,-13.1028,-115.8036,50.0730,-245.1558,-3.8034,-14.9554,43.8337,62.2256,-58.5459,-213.1045,-48.9245,-77.9651,-58.9304,12.7722,-19.2573,-132.9424,113.5251
-136.1429,-197.4718,-77.5053,-217.2263,-19.6854,-233.7687,13.7211,25.5364,47.7999,80.6860,-83.4838,-209.8972,-79.5112,-92.1837,-49.9336,3.9681,-91.8685,-139.9649,126.0517
-140.7067,-230.1010,-104.5584,-228.7153,-62.8481,-216.6610,70.1386,43.2475,31.3139,73.5496,-56.6406,-186.1268,-92.9593,-72.6268,-15.7190,-50.7729,-102.3932,-142.8428,124.3379
-158.2493,-244.3833,-103.8821,-164.0149,-93.9851,-168.8010,102.2242,9.8246,35.8932,46.3142,-45.6727,-156.5945,-69.9915,-43.4331,17.2291,-124.2561,-58.3616,-131.0890,68.0993
-162.8814,-231.2144,-114.9398,-112.3290,-145.6031,-116.5707,52.7521,-39.3380,27.0832,37.9570,-84.9328,-131.4182,-80.3169,-66.4188,7.1663,-131.9653,-30.0692,-119.1929,-9.5424
-158.4276,-224.9675,-160.7677,-124.2350,-210.8558,-119.0051,-42.4255,-84.8764,-35.9689,61.4903,-142.3763,-142.1567,-148.9745,-143.7856,-29.8364,-63.9808,-62.5053,-135.2050,-65.3083
-186.7388,-225.6912,-205.0071,-166.2756,-247.6195,-162.9265,-142.2689,-125.6940,-118.0692,102.1873,-170.0120,-175.5697,-183.4376,-219.2363,-52.5262,1.9544,-104.5410,-153.3538,-113.3330
-238.1318,-212.4641,-177.5373,-172.5711,-219.7553,-201.6556,-199.5734,-136.7874,-143.6570,139.3158,-140.7825,-179.2286,-149.8791,-236.7406,-47.5130,22.5075,-90.4872,-155.9348,-128.4004
-259.1662,-224.3108,-96.1316,-145.3341,-158.7907,-241.0939,-181.6555,-128.0691,-90.2603,138.1116,-81.3998,-162.3706,-111.7211,-194.6910,-18.0450,2.8675,-55.8552,-187.6136,-78.1186
-240.7524,-268.6278,-71.0741,-140.8648,-135.1076,-263.0368,-161.8275,-138.5193,-17.3601,94.1673,-56.9570,-163.6254,-80.7647,-150.6953,29.6570,-46.1449,-59.1822,-241.9526,-26.8980
-205.7846,-235.3221,-122.6873,-136.2529,-144.7965,-182.2997,-192.9037,-133.4892,13.2736,68.3471,-72.5888,-144.2373,-40.6383,-127.4163,67.2274,-83.6533,-55.1294,-222.6579,-16.8399
-174.1576,-90.9994,-140.5425,-54.5213,-132.8216,3.1664,-186.8041,-50.9525,20.6813,103.5508,-62.3741,-58.3820,-19.6361,-75.8122,66.8833,-63.5477,8.7987,-99.1972,5.2193
-177.7409,-1.0334,-66.3735,63.2119,-94.3056,167.1742,-97.5208,76.0667,58.6843,163.5573,-12.5436,29.8643,-2.5465,0.1590,54.0481,-4.5024,68.7347,36.9797,50.7136
-218.4660,-80.4233,34.1690,93.3728,-39.0541,226.5041,-3.5763,161.2182,122.6453,194.3929,16.2946,33.5539,50.9415,23.4399,68.0854,32.5701,54.9657,104.2152,85.8146
-243.4058,-219.5400,82.4693,31.0818,35.4558,209.5018,52.8068,175.0198,161.9476,182.8325,4.5278,-20.7396,88.6881,3.7448,83.0779,12.3643,8.2066,106.6386,118.5176
-222.1839,-269.2599,73.1097,-8.7633,87.1876,171.2871,73.2838,158.5706,158.4252,150.9503,-2.0840,-36.8966,71.2432,27.4756,59.7406,-42.8130,4.5882,94.4487,133.1205
-162.9257,-201.1610,74.5004,36.9842,97.3890,169.2459,42.5576,156.6689,135.7523,121.2290,22.4405,22.9828,73.4544,82.9771,29.2232,-66.1115,65.5412,106.3765,91.9235
-74.2066,-71.7107,131.6327,110.6792,118.6443,228.4451,0.6184,142.2192,95.1150,81.7360,48.6550,99.2055,111.8761,93.5262,19.8170,-33.7160,143.5817,120.1705,30.0156
-14.1078,12.9509,156.0248,112.3971,127.9302,262.9362,-12.9517,61.0156,13.8432,25.3151,29.1471,108.4306,86.5911,67.1751,-4.2558,-9.2372,153.0973,89.5091,-23.0483
-55.8590,-23.1803,54.6067,29.6300,50.4921,186.1442,-51.8582,-33.1268,-81.8927,3.1006,-36.8650,51.1180,-9.1541,46.9424,-34.6157,-27.0480,76.3418,52.3285,-94.6179
-141.7524,-105.4662,-66.5859,-33.4270,-35.3830,71.2417,-116.2043,-41.8949,-130.4572,34.9254,-80.8265,7.2336,-67.4364,16.7948,-3.4135,-36.3417,1.3571,79.6768,-150.5528
-157.2451,-110.5770,-59.9055,-19.0423,-19.2176,20.9538,-118.3165,-13.8707,-132.5724,39.7964,-59.5107,14.5580,-62.7766,-23.0451,55.6325,-22.4942,-21.4945,119.6717,-145.9147
-122.9661,-62.2821,7.7161,-12.3493,22.8221,12.0826,-84.8694,-57.8708,-153.0152,-22.0325,-29.7568,34.0129,-53.6606,-10.8090,31.2254,-21.8753,-35.4005,79.4942,-151.0475
-118.1432,-59.4572,1.8855,-67.2109,7.2864,17.1512,-112.9709,-136.8688,-213.1562,-76.8416,-41.9791,34.9031,-44.9308,59.6223,-56.5851,-12.2876,-50.0533,11.4116,-205.3519
-130.6561,-101.6765,-48.0165,-106.6166,-5.8868,56.5450,-168.9168,-161.8037,-260.4965,-94.1228,-50.8645,14.7780,-9.6411,88.3335,-88.7167,28.9645,-44.8235,2.1998,-218.5690
-133.9405,-128.3737,-67.1952,-100.2593,-9.6607,67.9597,-172.1899,-159.2984,-253.1510,-132.0795,-25.5138,-32.0096,23.9118,14.0442,-58.2819,26.6044,-67.5991,-8.3545,-164.7108
-157.3101,-124.6285,-89.9502,-117.3792,-79.7863,-10.2599,-143.4238,-193.3531,-210.1553,-201.3509,-20.9401,-83.0613,7.3248,-87.3331,-44.5024,-65.7922,-145.4545,-86.9887,-145.1702
-207.1293,-105.0742,-159.0450,-148.4565,-187.3510,-86.1087,-139.8311,-261.6568,-181.5244,-251.1026,-63.7835,-96.4854,-50.1874,-138.3423,-47.1165,-155.7313,-208.7484,-153.7252,-209.1692
-247.3964,-85.4429,-228.0701,-125.6487,-254.9304,-90.6741,-168.8761,-322.8099,-183.7374,-253.6763,-97.9554,-90.2249,-92.7002,-180.9435,-14.2522,-154.4896,-226.3143,-146.0629,-288.0190
-254.2233,-95.2872,-234.0125,-96.5648,-274.3661,-112.4722,-164.0130,-326.9883,-164.7796,-208.2495,-82.1904,-111.9611,-89.2966,-240.8297,43.3834,-106.1922,-238.9758,-131.6755,-287.0945
-226.7510,-141.5631,-176.2773,-124.2300,-223.3858,-170.2286,-36.6751,-261.6996,-79.9162,-140.3476,-38.7508,-132.5751,-55.3222,-229.6031,76.5241,-91.1097,-222.5232,-138.8125,-188.5244
-185.2053,-166.0546,-96.1548,-121.9790,-89.4211,-142.0247,150.7799,-194.8188,23.7377,-103.3864,-6.0628,-83.5414,-14.2601,-122.0826,77.1664,-106.1700,-124.2501,-102.9745,-87.9009
-155.5451,-117.7126,-23.6094,-25.6186,17.9571,-21.3956,204.1702,-184.7436,74.5252,-107.0870,-1.4924,14.0955,9.0266,-24.9914,78.0955,-111.0326,-8.1488,-38.8664,-66.1891
-140.7799,-53.4041,21.5501,40.9663,3.0529,56.9233,94.2108,-199.6538,74.7063,-111.1305,-12.9974,58.3355,-11.0634,20.4778,96.5595,-117.5312,20.8970,-34.1783,-71.3734
-146.2778,-64.8203,14.1019,-20.6145,-65.6581,44.4485,-8.5233,-199.8786,60.0051,-109.2641,-15.3122,6.3777,-47.0129,47.3003,107.1528,-149.2443,-27.7263,-76.1891,-49.8571
-191.2393,-132.4132,-30.9916,-112.4077,-87.8184,-9.3178,-21.9040,-194.7345,38.1553,-117.1188,-8.2129,-70.6870,-40.3046,-4.7034,83.8304,-164.5243,-81.7588,-89.0918,-47.8921
-261.8617,-187.3750,-63.6996,-144.4749,-73.2022,-79.1349,-11.5181,-187.5116,21.7024,-115.0127,-18.2554,-106.5157,-17.2448,-170.1245,41.1901,-121.8835,-128.6019,-80.2274,-80.9308
-319.4597,-240.4892,-99.3267,-179.4292,-82.0755,-144.9789,-20.9934,-167.7480,23.7763,-90.0434,-64.9175,-137.4145,-56.9734,-301.2449,-0.7302,-68.1708,-192.6336,-93.8853,-108.2897
-340.5066,-292.0751,-191.8568,-262.2757,-130.6524,-176.0458,-42.4823,-143.7679,8.8992,-68.4819,-150.2110,-207.7303,-147.4122,-285.9355,-45.8927,-59.9772,-258.8943,-125.5824,-141.5098
-316.4048,-270.9521,-300.0728,-327.7203,-182.5244,-173.6822,-66.1013,-117.8551,-52.6768,-65.7491,-245.5866,-263.6505,-212.2941,-202.4678,-79.1427,-69.1340,-293.7351,-159.6891,-182.0147
-280.1476,-194.8255,-331.1898,-325.6519,-198.9509,-127.6427,-75.5853,-63.6375,-119.3895,-59.8317,-275.3595,-239.8193,-219.5842,-117.5750,-60.9679,-44.0269,-294.9567,-170.4799,-162.2977
-282.4127,-161.2639,-269.2489,-266.9888,-179.1208,-16.5102,-61.1938,32.2354,-135.9355,-25.8989,-193.4814,-163.7639,-170.7339,-15.5237,1.0299,10.1784,-266.3066,-116.7951,-80.1301
-269.7036,-140.5095,-154.8906,-171.8118,-141.9551,80.7639,-35.9153,115.4894,-106.4237,8.1000,-80.6023,-98.9511,-100.8467,52.0608,36.8200,45.5487,-196.3235,-47.1730,-27.7031
-148.8204,-51.6789,-41.4553,-76.0483,-107.7693,53.2082,-31.1007,97.6893,-75.7528,-34.5284,-51.6612,-66.0247,-86.9795,18.6387,-0.1368,22.8422,-96.0232,-64.4368,-49.5859
8.9915,40.7581,26.2813,-7.7746,-88.8713,-30.8132,-68.4894,-12.6520,-64.7450,-156.6982,-75.5914,-44.4061,-113.8995,-55.0090,-63.1944,-35.6922,13.0236,-121.5034,-102.9073
70.9834,57.3362,91.9851,56.9288,-48.5878,-0.2365,-93.5746,-95.0876,-51.5459,-239.7622,-32.4622,-4.3096,-59.0244,-58.2276,-69.0778,-64.1565,130.4447,-91.9686,-124.5653
64.7771,38.9693,214.2499,114.7759,43.0021,134.1631,-40.1286,-99.5998,-16.1892,-214.8781,67.4774,38.0779,67.0103,38.4770,-25.2828,-57.6747,214.8473,-23.7557,-92.0280
55.4593,11.7262,295.6578,105.2005,104.2731,201.0995,13.0154,-92.1063,35.2476,-152.2874,103.9637,25.6152,110.0612,156.0456,-22.2528,-66.4072,188.5096,-33.7486,-52.5189
2.5584,-43.9138,233.6414,40.7273,70.1323,149.6734,-28.0983,-84.6842,101.1487,-115.9691,63.2359,-28.1701,61.5890,160.1844,-75.5289,-77.6502,83.2319,-70.4751,-48.6919
-88.4271,-92.7972,131.9811,0.2710,34.7627,92.6638,-65.5793,-42.5698,178.4732,-101.9223,33.6626,-47.7929,46.7075,31.5897,-106.7167,-49.7303,15.7621,-54.9054,-48.1038
-122.3510,-104.9620,99.3892,-17.2017,59.5034,101.7608,-11.4899,-18.3296,225.9009,-106.1312,30.5727,-41.8157,60.3758,-66.6213,-98.6323,-16.8993,-0.9031,-44.7904,-31.8289
-76.5133,-93.2228,81.1081,-45.1344,57.6541,136.6504,36.2412,-52.5176,222.8467,-104.4059,18.2808,-59.7537,25.7264,-35.3157,-99.9951,-19.8223,-19.3855,-68.6137,-35.7487
-11.9334,-42.9222,53.3941,-54.5410,18.3519,140.0960,37.8414,-79.4991,210.5912,-69.7437,14.0385,-60.5720,-16.9289,16.9706,-100.1983,-34.0252,-28.7151,-70.8455,-51.2313
1.8776,12.1752,53.3530,-66.8711,20.1797,85.6032,74.8784,-76.2533,191.1799,-54.5712,14.4778,-24.3405,-21.2378,2.0918,-68.6505,-44.9470,-53.9788,-86.8808,-40.7167
-89.8222,-39.1017,17.6293,-168.7765,7.9482,-17.1023,121.8231,-84.4120,138.5539,-86.9337,-31.2763,-33.9456,-35.4832,-28.6327,-36.8199,-65.6876,-171.0004,-186.5421,-17.7481
-224.6907,-176.2011,-89.8889,-322.5620,-95.9919,-110.8583,122.4365,-78.4929,114.7087,-92.4164,-93.7076,-95.6218,-70.2917,-43.8297,-26.2180,-86.7163,-309.8168,-304.5137,0.3761
-236.4155,-239.2454,-163.2087,-397.0422,-203.8601,-152.3073,120.5975,-47.3327,146.7291,-77.3162,-101.7612,-122.4000,-86.3534,-59.9484,-21.3686,-97.7954,-323.7857,-354.7638,7.1286
-107.6856,-190.1655,-159.2372,-376.2954,-237.9465,-167.0925,90.4045,-58.4760,119.5329,-122.8039,-80.5973,-126.1948,-96.4478,-59.6405,-33.3687,-84.3510,-234.6274,-351.8556,-19.2180
6.3388,-122.7337,-133.1688,-319.9473,-228.6279,-172.5993,-13.4960,-84.4757,17.5180,-138.9145,-59.2299,-149.8105,-96.1640,-45.3848,-62.5269,-14.6786,-142.7627,-302.5116,-42.3888
39.8091,-80.5272,-74.6446,-236.0960,-179.1223,-135.3345,-72.6623,-37.7885,-9.9161,-13.4858,-0.0287,-129.0070,-39.3952,-43.5214,-78.4589,63.8265,-62.2524,-203.8187,-17.9002
33.3668,-66.8909,-0.5820,-154.4438,-123.0637,-69.3282,-51.4146,10.2380,30.2081,89.4137,48.2613,-60.1695,20.6559,-30.0418,-97.8455,47.2522,-23.7917,-145.5703,-22.4718
-11.5304,-88.9407,-19.2563,-143.7130,-161.7049,-41.1523,-97.4201,-33.3157,0.5441,7.4515,-3.6730,-52.6978,-0.8877,-6.0530,-126.7416,-28.4052,-67.9335,-178.6320,-86.0441
-67.5048,-107.0686,-105.2919,-182.2638,-238.3247,-45.3271,-164.0669,-73.5949,-31.0892,-98.8958,-68.0605,-84.5593,-32.0259,-30.9082,-84.8363,-28.3950,-93.9172,-191.4908,-71.6937
-57.3560,-86.5556,-110.1032,-193.2061,-185.9479,-22.6902,-77.9277,-38.0204,50.5167,-75.6961,-25.0602,-35.3108,19.1904,-75.3201,31.7434,36.3393,-4.2132,-110.7921,28.6245
-0.2199,-56.3963,-34.1303,-180.0133,-46.9056,20.7495,44.6821,-37.6213,126.4904,-48.5516,40.8497,48.7879,79.2314,-54.8871,89.9011,42.0356,109.2060,-31.0700,32.2098
26.6121,-29.4894,19.7523,-173.2006,16.0441,51.7579,35.9663,-131.5314,100.1654,-108.1587,38.7132,58.5450,80.3295,-12.0620,49.8354,-26.1668,141.6955,-13.4780,-70.0694
22.6923,12.9129,48.6379,-147.3823,10.3326,91.2148,13.2381,-215.1720,58.0912,-150.4722,44.8926,52.7588,81.9515,-25.7362,1.2568,-74.0868,125.6593,7.3641,-129.2133
-0.6528,47.9654,70.6060,-101.9027,17.4589,150.7891,37.5872,-217.7637,10.8398,-148.3525,87.6893,111.3234,93.4165,-48.4122,-34.6630,-52.1683,100.6597,50.7631,-148.4404
-53.2696,50.7350,44.1389,-86.0521,26.6994,192.2120,-26.5189,-173.3619,-82.8750,-174.4929,86.7375,170.2952,56.0712,-20.0785,-63.9613,-11.3196,61.6800,68.8211,-172.9239
-76.6881,54.5119,-17.6344,-92.3042,22.6517,207.8977,-136.3705,-107.0318,-116.7139,-170.7405,52.8105,178.3413,10.6473,39.0657,-18.3561,-24.0616,27.6169,96.7639,-134.4777
-28.8280,94.3328,-39.5945,-62.4525,23.6435,238.7013,-142.0037,-10.8339,-50.6077,-51.0037,49.7926,197.7102,25.2142,119.5427,75.8567,-65.1996,15.8193,193.0652,-61.4728
16.6230,158.8385,11.0951,1.3657,35.6480,299.0412,-109.6962,92.2670,-29.8063,71.2613,65.5236,270.7185,64.9931,198.1624,79.2497,-46.9282,36.2311,287.4170,-67.3812
25.7539,206.2180,114.5127,46.6662,88.8106,360.0334,-115.1376,143.6197,-67.6040,53.6692,103.5475,345.9685,102.1359,188.8669,12.7786,11.4756,112.0584,289.1633,-87.4771
64.5345,188.3281,210.0662,52.6055,193.3488,388.2985,-69.7022,125.0124,-40.9474,-21.3603,183.1186,346.4602,157.1270,99.1130,28.2375,22.3262,188.7764,242.5034,-7.6394
116.5845,107.6544,219.9801,27.3700,255.2616,364.2475,4.8618,97.4133,-2.0165,-4.3697,222.4213,250.9202,183.2135,63.2527,104.6987,16.0129,162.3638,221.2769,86.9778
108.8402,50.2759,160.2145,-7.0478,206.2683,295.7991,-20.7028,103.4998,-52.0317,66.6857,174.0231,137.7932,141.3582,114.0554,111.7626,60.9581,81.8598,210.6130,87.1630
100.4894,83.2921,141.2514,-2.9578,126.2498,223.2544,-92.3641,100.3421,-96.0271,72.7568,147.9989,113.4264,116.9386,149.1131,75.9979,97.6511,90.2029,185.8545,49.6056
161.8692,141.3042,183.3735,49.3165,96.4986,179.3506,-87.1028,70.4608,-48.9603,22.5200,198.2728,163.3683,162.1588,131.8144,78.0895,64.3518,153.7311,155.0287,41.5645
192.7442,112.5101,177.7388,78.1143,79.9229,150.1096,-55.0888,67.3289,-5.7833,-8.1506,216.7050,176.4686,187.9988,92.9323,50.5134,17.0266,119.8949,102.6550,23.9477
116.2893,18.7870,79.9938,42.2723,31.1655,98.7362,-76.8986,85.6292,-35.1631,-6.7464,142.3928,123.7853,135.2976,19.6916,-63.6634,-1.7448,-6.4400,28.4074,-32.5476
42.5470,-16.1623,-18.3166,-1.4730,-21.8264,25.7357,-115.3790,69.8044,-65.8552,8.3986,40.5121,77.5716,58.1375,-58.7789,-142.7513,-13.1568,-85.5264,-12.4271,-73.3788
51.4684,25.0077,-41.3121,-7.7581,-41.0057,-18.1354,-132.6227,49.6880,-35.9849,25.3372,-17.0179,74.1213,10.8996,-39.2664,-85.1154,-11.0458,-61.6843,2.1125,-52.5907
68.0696,45.1837,-12.0531,7.0769,-22.5109,1.9886,-140.6496,72.2727,19.0745,19.6619,4.5717,89.2294,10.4136,55.9252,12.6092,9.9509,7.2469,33.7896,-15.5474
51.8595,28.3280,27.6393,35.8386,21.0794,52.0044,-124.8671,90.2138,32.7278,1.9819,81.3373,103.5505,51.6881,60.7629,27.4304,13.7844,54.9353,62.7264,-17.2266
51.7657,30.0623,61.1328,63.3936,62.9762,75.2399,-65.9919,72.3175,0.4816,20.5710,115.4874,94.3393,80.1300,-55.7628,-17.9196,-4.1686,50.7959,79.2088,-16.1885
59.4312,15.6790,62.3174,34.1415,66.0549,58.5003,2.8954,66.4062,-13.0164,55.4994,58.9848,31.3690,50.9720,-129.9211,-49.3962,-13.0615,2.1104,57.1714,37.7059
28.8447,-60.0897,20.6915,-49.0434,29.2329,22.7916,44.2737,80.3322,16.3433,44.0765,-15.3888,-58.7985,10.1442,-86.0371,-45.4590,-7.2131,-52.2945,19.3767,91.2047
-6.3706,-120.4499,-16.5349,-104.6450,-2.7614,-10.4197,64.5642,70.6496,41.0240,10.5881,-36.4545,-102.8157,16.2552,-38.7019,-7.9221,5.9258,-74.4461,18.1132,85.9293
17.9667,-102.4521,-1.3390,-97.3463,-8.3100,-25.5495,75.3198,39.0846,46.6270,11.7594,-1.7102,-75.2213,55.5636,-59.1853,42.9245,18.8345,-51.3671,36.7010,55.7186
95.0537,-55.2972,60.9590,-49.4281,-1.3809,-16.0369,70.0141,20.0655,52.9943,27.4130,66.4158,-13.8671,96.2249,-63.3787,66.2546,23.1339,11.3822,40.4757,51.2405
152.2552,-22.9443,140.9781,25.3633,34.2125,17.7838,57.9735,32.2608,41.1904,39.1687,118.5572,32.1899,130.3275,6.6127,63.2103,41.3241,88.4851,63.0906,76.2576
127.6717,-16.8810,191.6223,80.8980,104.3564,70.3930,46.2743,72.4744,-6.6094,78.2122,114.3490,13.2350,145.9343,70.9070,64.4087,83.3128,124.2712,122.2265,91.6235
49.6271,-56.9827,145.6991,49.0702,124.5580,109.8019,-2.4573,98.5985,-66.2783,120.8201,87.6137,-94.1926,128.8326,48.5136,56.3050,92.8648,71.1007,155.0184,47.5387
2.3245,-105.2609,4.2364,-40.9561,42.2030,99.6905,-87.7242,79.0969,-103.9606,106.4568,63.2700,-225.5271,79.8359,-17.7508,20.6031,55.0662,-39.7883,120.1149,-12.1818
-1.1935,-100.0277,-120.6158,-86.1847,-40.0653,69.5258,-108.1526,61.2449,-82.7526,56.6935,-1.7542,-273.2479,14.3969,-35.1894,-12.5047,49.3225,-110.8925,65.8416,25.4280
1.7138,-66.0572,-133.2193,-43.6976,-25.8058,82.0867,-21.4083,77.1054,-1.5260,26.4771,-93.8027,-207.3256,-35.4714,7.5118,-18.3843,92.9686,-88.1423,59.5094,126.6042
30.8616,-29.4587,-69.2466,57.6284,31.8704,127.8717,61.5312,76.3145,53.6603,16.5356,-129.1957,-82.3660,-49.7205,43.4774,-0.3095,105.2503,-12.7652,104.1185,148.8765
93.4421,41.9679,-34.4267,163.8499,56.3341,151.7434,73.8771,63.3049,29.8921,26.3117,-106.8497,36.4404,-51.5587,42.5304,28.9222,69.4498,53.5168,139.0741,110.7351
127.2411,110.4557,-66.2161,216.2310,38.2872,146.8150,82.7383,113.0651,6.5927,69.2015,-86.4253,99.4146,-62.4441,50.9294,27.1390,45.4927,91.9676,121.8259,116.4891
125.2115,100.8404,-95.9916,205.5491,-18.2052,124.1808,102.6274,187.2869,43.2901,113.5690,-67.0376,92.3414,-65.7465,86.0593,-12.4232,50.7766,96.3513,80.1827,117.6527
117.6316,45.7630,-71.6023,167.0890,-87.3674,64.8744,63.7217,170.3988,95.3433,127.9330,-43.3853,51.3568,-58.2621,78.7999,-2.1355,67.5997,51.9637,44.6198,39.6211
54.5646,0.0065,-50.6307,103.0658,-127.8448,-23.4999,-27.1601,80.0650,122.3660,136.2264,-56.2278,3.4451,-68.7383,-5.8610,71.9867,87.0115,-20.8678,2.8577,-56.2382
-56.7645,-44.4638,-79.0667,22.8950,-156.9088,-89.2592,-109.1624,24.3462,98.4262,150.8654,-101.7962,-56.4927,-104.3843,-87.8966,76.7500,84.2043,-58.2310,-26.4220,-101.9891
-82.3994,-63.0945,-96.8961,0.4257,-189.0280,-102.6092,-170.2577,33.0457,8.2871,148.5955,-132.1309,-101.1469,-141.1122,-98.5607,-13.0834,44.9405,-27.6932,2.8568,-85.8395
-10.6204,-30.6330,-77.1507,54.6337,-163.7049,-70.5749,-194.9754,76.0361,-63.6379,131.6822,-138.6980,-100.0405,-154.8957,-79.1197,-57.2863,1.0197,29.7699,57.5336,-2.4061
30.5032,-8.7485,-69.7633,97.6328,-76.4268,-17.1924,-154.9636,115.1594,-28.6313,108.1798,-128.8582,-95.2180,-134.3309,-81.5276,-31.5931,-28.4108,69.5718,67.9628,86.0442
33.6199,-26.1451,-48.5399,99.6304,-19.7536,19.0014,-86.4320,95.1995,42.5923,57.4685,-97.3960,-105.3766,-94.3036,-87.5282,-33.4850,-64.3898,103.5661,57.6039,92.2422
57.6454,-25.7785,34.0462,135.3870,-10.8048,27.9665,-41.5412,14.5095,47.5501,-9.1365,-67.0350,-51.7310,-64.7471,-69.2063,-46.3116,-107.7088,155.7044,87.6098,48.1923
61.0808,0.6416,94.0421,224.3526,14.4487,42.8404,-21.8218,-54.6150,3.5322,-45.8519,-56.0708,78.1117,-42.2800,-30.1017,-8.8444,-123.1928,218.4799,131.2921,16.7657
37.1761,19.6030,78.0357,293.9203,49.6601,57.3872,-24.9863,-87.3529,-49.1117,-50.2264,-30.6926,160.0432,-4.2867,7.1464,33.9187,-87.3706,269.9963,121.2142,-20.4626
44.3833,40.9223,86.0148,296.3221,50.9257,22.1950,-49.7788,-109.7166,-89.9509,-40.3787,26.1302,133.5247,34.3223,1.0115,48.5516,-17.7083,280.0756,59.4799,-54.1047
44.3419,54.5862,145.6872,246.5065,33.7460,-42.2452,-72.7806,-95.9912,-82.3273,-5.4551,73.8324,71.7893,52.1003,-50.2672,63.1626,37.1358,230.2315,2.8019,-42.0652
1.5790,22.2254,159.8992,178.5971,24.8845,-62.8712,-93.8596,-34.7078,-51.4654,35.7585,84.7779,23.0400,67.8205,-63.9052,63.3748,44.4317,166.3518,-24.5444,-17.6931
-8.8742,-29.0734,124.7198,120.3532,22.5120,-44.0048,-107.7171,3.8617,-41.1390,39.2803,70.6119,-19.4165,88.9028,-7.0986,49.3852,24.9778,146.8674,-48.6153,-2.7124
12.1611,-48.2120,89.0832,88.8866,17.6787,-42.6738,-51.4166,5.7109,10.6902,38.1201,45.5383,-38.3265,85.2457,19.2572,85.4057,16.5234,141.5845,-79.3279,41.0738
-13.3057,-42.8440,21.7840,94.4702,-15.0228,-62.1843,71.7129,36.8490,133.9571,88.2908,25.2863,-40.0783,55.8228,-33.0179,160.9718,25.9227,103.6958,-91.3827,72.2533
-38.4681,-38.4299,-50.5055,121.7048,-84.7353,-83.8856,136.7438,71.7069,219.9773,141.6136,24.1608,-74.1467,36.9311,-67.6207,195.4177,43.3260,65.9765,-96.6842,24.2824
1.2422,-43.4510,-33.5882,108.3802,-138.6955,-118.5307,97.6988,35.4807,216.8591,132.4347,31.0989,-126.7166,35.0665,-46.5079,191.2997,58.1800,44.3786,-132.2288,-32.2726
31.3915,-59.0487,25.8515,22.8102,-134.8003,-152.5026,45.0351,-22.4289,191.3989,94.6213,34.4089,-128.1580,30.1432,-45.9527,187.9373,54.9689,2.0888,-155.8302,-22.8198
2.1839,-65.3819,32.8377,-47.4780,-96.1750,-144.1808,6.7308,-34.5955,164.5414,63.5966,49.2669,-70.3624,27.0158,-68.7692,158.3291,35.2605,-22.3759,-104.6687,-17.0931
-28.1056,-49.4944,42.6685,-2.7223,-50.1212,-99.7884,-70.2907,-54.8257,120.9516,14.0028,74.9638,-4.1432,36.6476,-54.7060,92.4556,22.3211,35.2502,-34.1404,-71.2666
-32.7025,-37.5761,98.4834,109.3418,-12.6151,-50.4319,-155.9819,-99.9264,77.9961,-34.3476,74.2040,32.8459,38.6828,-29.6965,40.7552,26.0645,107.3673,-15.7382,-113.1000
-34.1020,-41.3352,115.3959,173.0168,-2.8632,23.4636,-167.2240,-75.0055,18.1470,-28.0844,40.4963,31.0173,19.3198,-30.7864,18.3653,40.7907,104.9564,12.6233,-77.1385
-45.4178,-36.7760,80.7109,170.7356,7.1140,131.5681,-115.6048,18.4054,-64.6197,2.7015,27.8689,12.3674,13.0250,-15.7956,-8.4246,61.2180,67.5851,105.7085,-8.6273
-70.7855,-23.8589,75.6640,142.4393,56.3821,190.8262,-92.3260,54.7359,-108.3322,4.5443,67.5876,6.0925,54.0168,21.1137,-52.6227,71.7979,45.1192,168.9582,7.3673
-72.0971,-30.6935,94.1949,89.8765,96.6809,134.4548,-140.0965,4.2618,-117.6784,-2.0270,114.5368,-3.9660,110.3515,21.4348,-94.5336,62.6160,33.1884,124.8639,-31.3886
-6.1625,-54.2880,100.9686,44.1367,78.3717,46.8440,-190.9038,-54.3831,-141.7654,-5.2540,126.4560,-31.5995,121.0381,-16.7676,-108.0246,52.3463,77.2322,56.1490,-41.0013
77.9476,-43.7344,140.8414,89.5472,59.6652,52.2614,-160.5460,-93.9921,-127.5481,-40.4386,126.1772,-24.6247,81.7202,-45.5173,-91.1404,47.5556,190.7792,59.2302,-5.2378
121.2536,30.5394,201.8065,200.8746,70.0512,123.9612,-100.2367,-127.1362,-57.1447,-85.8198,126.7947,36.4355,34.0549,-48.6937,-78.7085,30.5004,228.5424,94.7082,-15.9931
142.9870,95.7566,164.6913,218.2167,24.7515,135.2969,-120.1260,-131.1945,-43.3980,-82.2033,87.7698,64.4096,-7.5437,-43.0862,-95.3463,18.4198,81.5600,68.6176,-84.7268
141.3686,59.1784,3.8194,89.3352,-83.3840,43.4886,-176.2225,-101.0150,-98.5102,-49.9721,7.9006,-1.0646,-53.1980,-70.1897,-124.9412,39.2635,-124.1553,-18.8555,-113.9142
90.0612,-24.4816,-144.0402,-42.2018,-124.5203,-81.4585,-165.8593,-80.6513,-114.6984,-42.2285,-45.6653,-97.7044,-91.1136,-148.3245,-148.8177,55.3727,-203.2444,-76.1542,-106.4295
31.1711,-33.6013,-161.7616,-62.4414,-63.3119,-148.7489,-147.2536,-99.4166,-103.8789,-48.3163,-44.5633,-139.7156,-103.8750,-198.9523,-156.1231,29.9908,-146.2112,-59.8289,-141.1350
2.5526,15.8741,-77.1412,-16.8144,-10.7721,-119.1029,-178.5252,-141.4617,-116.6525,-49.3468,-25.7742,-108.3276,-96.4529,-154.6521,-124.6989,8.6808,-69.6663,-32.1635,-162.8778
-10.9326,36.4971,7.5158,10.2243,-3.5418,-45.3613,-137.7900,-168.7310,-84.7218,-64.4249,-9.3870,-41.9934,-72.6190,-85.4852,-51.9746,21.3827,-49.1444,-42.5804,-79.5892
-4.6247,19.0918,30.7943,-13.0382,25.4346,-18.3698,20.0519,-155.7991,-4.1325,-83.3055,8.7242,-4.5310,-32.7744,-60.3346,24.5455,17.0416,-78.5150,-54.7765,26.3543
6.3700,-16.4375,-0.7392,-69.1868,67.0553,-38.8654,124.6894,-126.7686,21.3385,-67.5298,19.3531,-24.5617,-2.8780,-48.4767,61.7554,-25.6444,-134.5869,-44.0877,34.8419
-27.0019,-56.1708,-52.1614,-98.8405,57.6508,-40.0583,103.1342,-124.0111,2.7157,-32.6829,21.3241,-60.7858,-7.7827,-54.2018,34.7459,-65.8023,-202.2965,-43.2342,-2.6100
-70.4089,-62.8244,-95.2160,-70.0116,26.9028,-24.3617,82.4761,-134.0160,19.5595,-27.1126,17.2230,-71.3757,-33.2094,-99.0198,-43.2887,-90.9964,-238.9401,-56.3945,21.8232
-61.7152,-33.1415,-130.5203,-30.4388,34.8227,-32.1880,118.9492,-112.0218,50.2114,-40.9005,-17.0364,-62.2514,-59.8288,-104.3197,-106.3188,-96.2191,-213.2836,-54.8864,92.5450
-42.0800,-3.0239,-193.8879,-27.2475,46.9122,-49.5696,157.8898,-56.6064,70.0393,-20.3819,-84.4092,-56.6782,-93.4564,-53.7898,-102.1791,-49.5995,-193.0202,-57.0429,134.4868
-56.3190,5.6243,-305.0009,-68.1706,2.2966,-81.3668,195.2860,4.1860,116.9327,38.9062,-136.1448,-92.3809,-133.6016,-73.6309,-61.3077,4.5685,-262.6802,-99.3908,138.5445
-70.3851,-37.1769,-407.3878,-154.1833,-85.1307,-166.4215,234.3982,50.7511,166.9910,79.2521,-145.0195,-183.5666,-163.0579,-157.3518,-39.4415,-25.6081,-365.5182,-156.7642,136.3857
-72.8159,-118.0047,-420.2854,-223.6172,-157.2642,-251.6172,224.5312,65.4002,156.5598,65.9958,-136.4167,-243.7803,-174.9415,-152.2645,-43.1034,-89.1701,-376.9152,-176.4781,128.4287
-86.1278,-130.6684,-344.3408,-183.4377,-174.2570,-254.8132,153.1806,48.5428,98.4194,34.8865,-126.6544,-191.9216,-165.0642,-87.5128,-56.5552,-61.7651,-284.8672,-157.9248,97.5580
-94.0502,-48.9411,-249.8902,-85.2249,-145.5434,-223.9212,57.6106,24.4311,35.9569,26.7865,-105.2849,-104.6039,-124.2972,-112.5064,-75.8712,14.8677,-168.6862,-142.6862,45.8826
-79.2842,16.0384,-187.6624,-61.9671,-125.9946,-233.5818,-34.8669,-8.9165,-10.4007,23.7200,-74.4603,-87.8190,-78.5820,-184.4390,-92.7185,22.0121,-95.7753,-148.7300,-18.9164
-59.5192,23.7591,-160.7789,-101.1422,-137.3486,-249.5761,-90.6983,-63.8075,-25.5498,-4.1508,-49.1161,-113.0420,-75.4513,-172.7604,-98.6672,-9.5302,-104.8447,-148.7004,-85.0404
-38.9327,20.6009,-135.2974,-109.0510,-124.3605,-232.0471,-84.6410,-102.0148,-29.2867,-41.4572,-26.0331,-113.6175,-97.9924,-92.0189,-105.1749,-0.8739,-158.1980,-112.0818,-111.7894
-3.5516,2.4113,-69.2054,-79.3722,-59.0562,-196.0367,-43.8342,-96.7537,-56.6298,-62.1387,7.6751,-78.6439,-85.0821,-19.6949,-123.4494,14.2906,-149.4244,-56.8408,-74.9369
28.4140,-28.2211,12.4445,-40.8626,-7.8934,-143.7868,-6.8615,-91.4082,-82.5547,-61.3825,30.0372,-21.4597,-52.0110,6.9758,-135.4294,1.9642,-90.9027,-43.3934,-24.6502
10.9725,-35.5795,27.5758,-18.5229,-24.2178,-101.1553,7.8082,-91.0146,-59.7557,-34.7097,-2.2171,7.1909,-62.9537,-11.3865,-110.9099,1.1682,-122.9217,-97.6385,-12.1293
-59.1753,-39.2597,-28.2741,-57.6211,-71.0063,-126.5842,-4.5663,-26.7162,-1.5862,10.5875,-67.8779,-31.8180,-95.9157,-5.9735,-53.1405,12.4682,-240.2029,-156.4787,-11.7061
-118.2925,-47.8448,-72.2308,-121.0857,-92.2935,-186.4449,-11.4837,86.4688,37.7433,36.4507,-91.4774,-63.6047,-89.5606,54.8221,-8.0138,1.5577,-280.9049,-143.4343,1.5853
-114.9162,-20.4098,-69.5831,-98.7954,-73.3167,-189.8832,10.7378,137.9375,34.5720,26.0621,-69.2706,-22.6312,-69.4116,60.6329,-15.9924,-13.9985,-212.9559,-83.4598,1.1625
-69.6235,12.5608,-40.1121,-5.3659,-28.0708,-144.2431,20.0666,117.1345,23.0973,18.1704,-65.6496,6.3155,-74.3961,-20.1511,-65.4167,-14.6523,-138.8365,-52.7218,-5.3883
-28.6619,-5.1887,11.3171,41.2405,11.0226,-100.6897,6.2692,119.7243,45.5367,43.7928,-85.1543,-46.3463,-70.4549,-35.7174,-100.7472,-13.9114,-88.3149,-41.3380,17.2546
-10.0115,-29.5471,55.5944,21.9575,18.0103,-40.6932,17.1927,159.9059,73.1856,72.8613,-84.5651,-104.9583,-53.7934,45.8315,-83.1277,1.7535,-43.7543,3.2409,29.1999
-7.4814,-16.0658,50.5602,-1.4465,1.2341,45.4134,12.4329,169.6773,46.2394,57.7788,-67.1854,-102.9033,-75.1095,81.7819,-48.9313,37.1007,-23.0992,43.1630,-20.8991
-10.7687,-4.0633,31.0492,-14.1921,-23.7057,98.2750,-76.6641,136.7647,-10.9823,3.3522,-53.2080,-67.3861,-106.5972,51.7820,-61.2513,42.3095,-14.6017,17.3448,-77.4173
-12.5933,-11.5132,51.2814,-23.1010,-38.6829,88.8361,-150.7713,88.9351,-36.5985,-39.2021,-33.7654,-23.5312,-70.7584,33.6146,-87.4420,12.9527,13.7878,-25.7376,-72.9383
-7.8543,-13.1079,86.3019,-17.9540,-2.3434,64.6187,-85.0488,22.9340,-36.0153,-53.6442,-9.1864,22.0738,11.4224,9.7404,-40.6530,7.7784,47.5477,-16.6117,-43.4684
-5.2842,-20.3838,88.9277,-18.7407,74.8714,59.2378,42.6421,-49.1010,-31.5516,-79.2354,2.8536,38.1849,62.0308,-29.5569,42.8386,21.2453,64.8096,2.6314,-36.5224
-17.9438,-47.4509,49.2985,-58.8733,98.7393,33.4823,99.8789,-75.8962,-29.9024,-112.7442,-5.4058,12.7410,67.9694,-43.3048,50.9219,10.3032,64.1883,-28.9795,-31.5679
-19.8861,-56.5617,-11.4346,-101.7142,43.5053,-45.0761,82.2410,-37.9488,-62.2071,-86.5814,-21.6248,-11.3552,60.8157,-64.8598,1.9045,8.7281,57.7775,-65.1488,-15.0979
21.4397,-17.9882,-19.5422,-57.5217,2.4929,-103.3858,30.2497,30.9560,-115.6285,-2.2610,5.2241,8.3308,67.1079,-90.1576,-12.2348,36.3108,91.7919,-36.0032,-8.4930
72.4111,46.2267,80.1454,83.5742,15.2810,-43.2869,-18.3812,81.4209,-109.5705,45.9357,111.8975,68.9982,106.4146,-12.7822,-2.8586,17.5402,173.0196,29.6829,-7.8882
81.9234,91.3740,186.6340,204.4940,26.4008,92.6960,-14.7085,71.1078,-48.7417,29.2739,212.8914,153.6687,156.2440,126.1170,-6.1789,-51.0636,201.9401,57.6374,1.1465
56.3886,87.9552,151.9474,213.5918,21.4715,168.1629,7.6525,5.0620,-32.5036,14.4174,185.3495,249.7397,153.5706,159.5654,17.5640,-45.5837,132.0066,37.5128,5.3060
14.3952,50.5106,12.2560,154.3329,24.5321,138.5260,-22.4659,-46.5542,-56.1249,31.8472,62.2929,293.3884,85.4508,107.1971,77.7193,51.9600,63.9994,13.6807,15.3680
-31.8467,15.1728,-74.8521,83.6263,28.2742,69.0744,-32.9820,-33.9387,-11.1612,63.2404,-26.3266,188.3589,13.8897,85.5016,121.1137,103.3081,48.7676,16.7515,77.1770
-29.3384,-10.9175,-49.8951,-5.9866,43.5826,33.3121,79.3112,0.0414,115.0108,94.8593,-38.1577,-24.9058,-10.1845,56.1584,124.3938,64.8978,21.0725,49.9880,173.3538
46.4096,-27.9744,27.2589,-72.8275,95.1406,64.9787,219.0459,-14.1937,216.3116,81.7050,-3.4805,-154.1761,4.4798,-18.0017,89.7938,25.2297,-15.3023,103.8574,218.6350
119.0567,-17.6368,69.1577,-42.7701,142.2551,131.2435,237.1306,-74.2290,205.1392,0.7801,42.1776,-120.7157,20.2209,-45.8280,35.0225,-7.3361,-11.0794,156.4962,189.6858
118.4634,16.4427,14.2420,35.4874,128.8775,160.3137,161.5568,-113.1618,98.9662,-44.0930,38.7308,-52.0879,5.7650,-7.6871,17.6782,-74.7827,-34.4686,188.8630,138.3186
53.6023,55.9987,-111.2210,62.1354,60.8131,144.2334,84.9290,-86.3519,12.6176,27.7431,-34.1112,-39.5124,-42.5482,23.8131,47.7970,-101.1251,-145.0188,197.0933,75.7185
-49.8631,96.4117,-198.2193,48.1913,-29.3910,120.9451,16.8420,-29.2314,40.5179,102.3779,-100.5602,-45.0916,-94.4163,45.3989,65.0939,-29.6408,-229.5516,168.7992,-8.9590
-134.9074,95.5679,-182.2679,30.9928,-94.6035,67.4394,-37.8467,-17.7458,136.4716,62.5905,-113.8793,-61.7386,-111.5733,55.7757,67.1130,18.4646,-179.7241,86.9504,-53.0265
-106.5969,3.8679,-100.7320,-23.2077,-74.0679,-43.4182,-47.4193,-76.9259,176.0427,-21.6883,-113.7522,-119.0444,-83.0443,-5.3729,81.5279,-39.1801,-73.0913,-18.6836,-11.0803
11.4710,-112.2214,-15.3280,-114.5060,11.9478,-152.4894,-39.4510,-162.1813,113.2289,-63.3997,-106.9223,-177.7052,-34.7531,-111.3736,67.0029,-96.4351,-28.3431,-82.8476,30.1818
65.3164,-136.7423,38.1582,-169.9623,59.3322,-203.2185,-66.0738,-224.2348,3.4403,-90.4773,-65.8145,-191.5801,-6.2753,-164.1475,16.8070,-96.1138,-40.8672,-85.6549,-10.9688
6.6759,-75.7502,44.4646,-148.3470,30.3007,-207.4071,-103.0579,-250.1001,-85.1717,-119.8779,-29.0563,-168.7742,-11.9102,-156.4084,-17.1979,-121.5417,-55.8608,-63.4461,-71.2685
-58.5161,-9.9198,16.4841,-69.8011,-20.2508,-183.8338,-100.5697,-254.4574,-124.6551,-127.0559,-39.7563,-105.1866,-30.4911,-129.7132,-60.3412,-163.8273,-65.0284,-46.5301,-81.3575
-71.0465,32.2427,-10.2272,22.9587,-59.0285,-152.1969,-81.7095,-263.5384,-131.4709,-136.7520,-58.9758,-2.9366,-42.2432,-92.0381,-131.6006,-124.5806,-64.3184,-47.0865,-92.1228
-64.5466,43.3183,-4.2394,75.1730,-88.2810,-144.1599,-85.1002,-289.0043,-130.4206,-172.9446,-51.8446,60.0499,-54.1680,-74.6112,-152.6135,-45.5933,-24.1070,-78.1711,-132.2392
-50.8187,9.2607,43.3511,56.7344,-88.8188,-146.8206,-72.3612,-304.3055,-107.9118,-195.9628,-47.2792,17.0069,-68.3972,-92.3157,-137.2842,-30.0331,42.4141,-119.5157,-114.0543
-17.6430,-34.4113,99.8406,6.2481,-36.1718,-124.5141,-2.9017,-267.2444,-47.2472,-180.5489,-54.8803,-76.6616,-56.8046,-76.8460,-171.1894,-35.8555,70.3667,-104.6151,-2.8774
12.9662,-32.4361,114.1648,-4.2890,58.2053,-81.9150,74.6768,-173.0414,16.2672,-152.1867,-36.8673,-105.3824,-4.0258,-11.5130,-171.7292,2.5835,48.0148,-9.5499,96.5000
15.0862,8.5416,101.5558,51.5755,151.8832,-20.6696,116.4487,-72.6780,37.0167,-128.0727,15.9947,-28.6198,56.2157,22.1022,-66.2741,20.4713,40.5140,90.1906,120.2786
4.0084,39.7162,136.9017,123.1411,214.1813,67.5423,153.0703,-20.5832,24.0945,-103.5640,65.9692,79.3239,88.5176,20.5244,-12.6319,-30.1956,79.9706,124.8152,133.8970
9.3694,40.6860,221.5239,145.9375,262.6159,139.5633,187.4016,1.0359,27.4544,-69.1706,87.7254,120.8001,101.0774,48.8984,-71.2189,-71.6263,120.8570,133.1368,181.0379
27.6639,29.9506,264.1007,124.1064,319.0250,167.5386,195.1020,59.1352,79.0901,-14.8521,89.8323,91.2755,106.8813,73.9663,-55.0145,-47.4676,115.1350,169.7387,229.0633
37.7885,20.7823,227.2982,92.4598,342.3124,196.1990,224.2196,151.9751,160.6740,45.5012,82.9190,61.7655,94.4176,46.2331,68.3707,-12.6056,67.0784,194.8457,273.2654
51.5575,5.1022,175.4363,52.8994,296.2162,231.8291,290.6931,208.7471,217.1181,87.3601,70.8675,70.2262,68.2194,30.5282,124.5249,-12.5945,22.7231,175.6292,325.2621
82.4611,-5.6477,161.7430,28.3244,241.1128,229.6009,299.5385,221.6754,212.4998,123.0992,61.9589,101.6674,50.3360,76.3966,100.2158,1.5018,26.9359,176.0887,351.0342
88.2260,9.5434,173.1454,55.7408,233.7658,203.9640,240.5975,235.9563,173.6460,163.7456,49.9289,131.4453,32.0693,130.7748,98.7610,70.4839,68.7122,209.7686,337.9928
47.1681,17.0119,184.9763,81.8307,215.6428,171.6548,212.3658,226.4384,143.6685,166.6121,15.4607,131.5608,0.8990,145.5988,102.6828,123.1368,94.6908,174.8878,309.7575
24.0367,-15.4868,187.7898,47.0286,127.6936,94.0444,194.3811,158.9662,122.1134,108.6413,-24.0584,95.6857,-11.5781,112.4752,95.2096,85.3599,89.2699,65.3162,249.8935
47.2419,-32.2258,163.4235,18.3829,23.7060,10.0275,124.5373,99.8651,92.1526,52.2887,-30.2238,66.3821,10.5926,45.9436,123.4799,29.0615,74.4793,12.2185,154.6217
50.7369,2.6528,91.8163,41.9712,-39.0446,10.5212,85.8738,90.8476,55.9762,59.4594,-18.4135,77.1183,19.8001,16.2712,132.9275,50.2689,47.9893,25.0798,78.4745
15.6880,23.3053,-3.6150,42.0292,-88.9298,46.8210,103.6736,60.3404,18.1996,100.7552,-23.9980,107.7680,-7.3999,61.6960,57.8807,87.4601,2.4638,-18.0013,21.0560
-5.6365,9.9225,-52.9682,10.2943,-138.0023,21.4182,54.1162,-5.6391,-16.4406,110.7091,-22.7540,125.1962,-16.7519,98.2971,-7.1500,58.9570,-38.7122,-98.1495,-55.0515
-10.7116,26.2972,-29.4242,22.8211,-134.5122,-20.2045,-33.4082,-12.7781,-22.1747,90.8235,4.8342,102.7956,22.0632,68.4769,15.1694,34.9762,-60.9853,-91.8523,-91.4187
-18.4635,55.2961,-12.6002,46.9923,-78.2751,-12.4601,-6.7283,48.2655,12.8002,96.8863,3.1493,29.6567,47.2435,34.1520,44.0308,74.2819,-77.7389,-27.4141,-51.4588
-6.8877,32.1733,-82.7519,20.1447,-51.7854,-2.7179,66.1512,79.8821,40.8763,128.2307,-60.7492,-45.0205,-1.5615,19.6001,30.5121,92.9754,-104.0857,-16.4848,-47.3604
4.1654,-0.1990,-199.8400,-11.5365,-97.4793,-32.6739,28.6189,51.8131,21.9132,117.2928,-127.3831,-66.9844,-88.8413,-21.0996,39.0098,47.0189,-159.3761,-52.1648,-132.8924
-33.1211,11.2461,-283.8279,-40.2323,-166.1721,-82.3512,-54.9625,24.3887,-7.5875,64.6592,-138.9072,-84.0350,-131.0550,-59.4829,75.1210,9.9161,-248.0875,-78.1910,-193.6824
-67.3520,13.2697,-323.3057,-119.0594,-200.2323,-130.2748,-77.1214,47.2764,-10.8580,55.3248,-104.0210,-152.8235,-101.6979,-28.3412,53.8425,2.0076,-307.5739,-86.6528,-172.3022
-22.5333,-20.3115,-312.6806,-170.8339,-192.7647,-128.6634,-91.0176,115.2548,-19.8814,96.1273,-57.1281,-188.4626,-53.0951,54.8782,-39.8107,-22.5082,-261.3268,-64.6307,-135.9509
42.0748,-31.1500,-231.1799,-96.7197,-168.3297,-43.6333,-128.2305,162.6704,-58.1300,106.1248,-35.5529,-96.1030,-46.9814,122.8016,-107.5151,-39.9646,-139.6397,-25.8130,-109.9021
15.8754,-12.9622,-150.7074,2.7620,-150.5193,31.6946,-119.9623,128.7788,-81.6692,81.7416,-66.3215,29.9294,-84.6650,116.8863,-69.1867,-5.4561,-55.7661,-49.8843,-76.7490
-85.1760,-14.3466,-170.5149,-3.4719,-139.2755,-2.1408,-61.7934,60.6927,-62.0946,80.1822,-119.8031,35.1054,-106.6873,25.8455,35.1148,44.2582,-64.0148,-138.9187,-58.1041
-145.1137,-31.7628,-237.8643,-76.4404,-119.0005,-72.8902,-26.5084,39.4736,-39.7997,80.6714,-127.0897,-62.3868,-65.9501,-47.8318,97.8521,56.7093,-114.6187,-176.3392,-63.1670
-107.7424,-38.5541,-238.9418,-136.3509,-95.6503,-68.4998,-47.4115,39.5099,-45.4282,40.5054,-68.0334,-135.1640,5.3797,3.4023,71.4906,29.4318,-133.6534,-115.6919,-71.8160
-31.4542,-39.7899,-184.6343,-157.3877,-80.7208,-5.3058,-94.1833,9.6723,-52.6792,-9.1245,8.8198,-137.3529,41.7348,101.6643,9.3441,-20.7672,-91.1214,-28.2606,-79.8925
10.5536,-37.4889,-126.2727,-115.4782,-49.4092,59.4534,-111.8174,-18.4926,-32.1305,-45.4798,55.0256,-106.0278,44.8529,105.4611,-13.1813,-59.1849,-8.1191,35.4030,-77.6902
11.8986,-27.2056,-54.4720,-39.3108,12.2657,100.2537,-81.2424,-23.9475,0.0184,-89.0568,65.1053,-78.8610,61.7661,40.8922,16.2369,-42.9147,60.0597,63.3127,-56.2098
-11.9012,-17.2791,6.3080,-13.7221,61.5876,81.7922,-44.1682,-32.3082,0.2405,-113.4445,57.7882,-81.3262,87.8755,12.6432,45.1026,10.5525,71.6127,45.7962,-39.2432
-48.5992,-2.9857,19.5265,-31.2444,74.1680,15.7872,-29.1756,-20.3075,-42.1722,-80.5401,62.3630,-102.2528,96.5109,29.2952,28.2649,41.5375,53.6002,26.3999,-33.5366
-46.1835,21.3537,52.0628,-9.5728,79.5377,-12.8806,-29.6872,36.5659,-92.2805,-39.9228,109.8723,-88.3613,110.8877,43.3540,-10.0872,42.4878,60.0425,52.5054,-38.9239
15.0818,31.3064,134.8843,43.6187,66.5679,8.3031,-78.9211,70.7923,-129.0405,-57.9050,173.9111,-38.8254,134.7962,27.2869,-13.6693,42.2798,74.5241,64.9069,-118.1943
37.3524,17.2967,137.6489,63.5012,-18.5864,-0.1381,-211.5939,22.5633,-166.4234,-117.1704,162.4798,-15.5514,107.2937,-7.0582,12.3550,36.7181,48.7341,-6.4015,-289.9933
-41.0844,4.2335,3.8789,53.0468,-146.9290,-46.4459,-364.5576,-75.9598,-198.1989,-171.3845,61.1116,-13.5669,21.7463,-6.4488,3.9316,18.1409,16.0613,-109.3182,-422.2530
-114.1500,-7.9354,-110.3028,35.7875,-220.4718,-73.9928,-442.1685,-176.8798,-189.2784,-209.7352,-9.7424,24.4571,-38.9796,30.9770,-56.1797,4.6998,30.4972,-165.4228,-413.6462
-92.1373,-35.8393,-104.6271,-7.3690,-217.5781,-88.2393,-431.5796,-244.7126,-146.7177,-227.4503,6.2169,71.0196,-42.3607,24.4469,-108.7227,-9.1142,40.7547,-173.6322,-353.2726
-44.7906,-53.7852,-81.1476,-69.6898,-203.5728,-105.7542,-389.7603,-242.6040,-119.2146,-212.8879,7.6132,73.8705,-40.1160,-22.7743,-114.1177,-42.7896,-17.8933,-149.6082,-356.8156
-37.3921,-33.3269,-117.7800,-91.8372,-211.8196,-87.6227,-363.8192,-193.1539,-111.3984,-173.9083,-46.3283,78.2521,-51.1175,-4.9041,-95.7284,-67.4333,-88.1289,-104.4584,-389.6328
-30.7822,-2.1918,-148.2779,-50.7915,-205.3741,-39.1516,-326.0976,-149.7452,-81.8562,-126.0969,-54.1808,120.6506,-38.8335,74.5787,-66.4978,-50.5973,-92.4612,-78.6350,-356.4902
-8.9375,4.0418,-119.6880,-5.4354,-147.7485,-26.7865,-213.7462,-91.8382,-23.7861,-66.7016,8.8202,134.4928,11.8466,113.4682,-10.9992,-21.2891,-59.7148,-82.1798,-259.1171
-9.5359,-6.5171,-68.2793,-20.1600,-57.7819,-56.5593,-69.6438,5.1291,16.0363,7.8434,48.5008,76.6685,77.4556,104.0843,45.2407,-3.2486,-43.5067,-73.7501,-174.6921
-25.8838,-17.4373,-27.9496,-75.3952,11.8980,-80.3400,-10.2015,76.0934,5.8779,76.0262,42.6163,0.2726,122.8422,92.9915,60.0205,30.2962,-32.7642,-51.8629,-122.3544
-23.0530,-24.6501,4.0154,-89.1008,32.5769,-82.0536,-16.2755,90.7029,-23.2984,110.9940,40.9147,-28.5721,125.5734,77.2743,59.1975,77.8202,-1.0404,-50.4591,-59.0919
-10.6619,-17.7608,22.8738,-29.3497,19.9831,-63.2593,19.2124,115.6983,-28.6453,110.3635,40.2822,10.6724,105.6074,73.1420,86.5974,99.3326,46.9789,-61.4173,-5.8834
-11.1963,-5.3767,20.3016,33.9837,-5.0119,-44.5589,48.4262,150.1070,-14.2295,81.3473,25.3833,60.6359,98.9737,97.7879,116.6160,91.4149,87.5134,-78.0136,-31.5008
-7.3378,-20.0530,19.0028,22.5562,-47.4674,-81.2463,-40.6079,109.4699,-8.3599,28.2326,17.4764,20.1078,91.5947,86.7707,106.8942,64.8658,92.2467,-126.6382,-112.1659
14.9953,-53.1389,43.7721,-44.1062,-108.6024,-152.6873,-169.2646,12.8298,-32.2146,-23.7856,12.0202,-86.9147,47.2839,18.4155,57.1283,11.9701,61.7288,-174.4245,-169.8132
21.1008,-57.6928,70.4157,-80.2011,-152.6533,-146.7641,-198.0155,-38.5343,-105.5481,-48.6750,-5.1883,-108.9373,-5.5595,-14.0038,-25.3738,-33.4034,46.9257,-149.3365,-198.5989
-1.4388,-22.1241,69.0765,-37.2943,-145.0354,-56.8733,-171.5335,-35.0855,-205.9314,-65.6638,-1.7618,-19.9521,-0.4675,16.4855,-116.1195,-30.2365,93.6771,-77.7175,-209.8880
6.4527,32.3515,67.5942,55.1804,-109.6913,1.4849,-177.1796,-20.0311,-229.6107,-87.4214,38.7969,51.0521,60.1427,31.4323,-146.8237,-25.3147,175.4829,-44.3967,-169.6118
62.1121,81.3074,88.9208,120.4526,-90.6938,-1.3399,-149.9773,11.2854,-119.2769,-73.1845,74.4471,55.2090,102.8387,18.7645,-85.8479,-63.1241,216.6248,-57.3205,-89.8989
94.6334,88.4441,89.4373,103.0090,-78.9126,-17.6306,-47.9625,33.8827,19.6290,-28.7363,74.5992,42.9065,85.9658,14.2546,9.2492,-97.6499,183.0461,-83.2575,-45.5097
89.4817,57.7293,49.4026,39.9214,-54.7676,-57.7620,-3.9733,-8.2936,68.7607,-34.5139,50.3779,36.1685,35.1147,-16.6315,65.2508,-115.6052,120.1940,-116.8859,-69.5209
105.3738,64.0862,23.9758,24.1122,-54.3301,-108.3405,-91.9999,-63.8788,57.0291,-92.1841,19.5276,60.0787,-22.2693,-87.1337,47.6941,-160.7770,90.3398,-135.6027,-130.6952
136.7080,130.7219,38.8537,67.3660,-98.5524,-93.6383,-168.3057,-48.3705,54.8316,-118.5104,1.2482,130.1547,-75.2984,-115.2764,-36.5804,-194.5088,115.5800,-116.2695,-178.0479
161.1812,178.0598,64.2185,87.6762,-134.5751,-37.9639,-123.8607,-18.6015,44.4097,-115.7654,13.4968,159.7215,-85.4111,-64.7546,-128.4509,-166.9337,184.2479,-99.6765,-175.8748
224.9331,170.3100,98.0807,51.7303,-128.9569,-35.7718,-59.4751,-50.2819,-5.0977,-143.3138,46.6857,87.3597,-30.0747,-16.6688,-167.3139,-155.4359,250.7598,-109.7000,-138.7772
310.2081,162.2276,135.2155,12.0819,-110.3908,-65.4720,-73.3162,-72.7740,-55.0776,-168.5487,66.1006,7.5342,25.7787,-44.0746,-160.6229,-206.7076,255.1584,-89.0277,-93.1638
313.5983,169.7268,113.1261,-1.1209,-86.0776,-59.7607,-111.9597,-18.8673,-57.8791,-130.8681,43.2453,-8.8950,19.8866,-117.8339,-134.0209,-219.3865,201.3653,-27.4592,-17.7783
234.2771,147.3740,16.1423,-13.7571,-48.8968,-53.5471,-113.1079,48.3171,-19.8124,-54.6674,-11.7931,-36.5209,-1.2641,-155.0854,-79.7182,-146.1244,146.2884,-17.6936,80.8540
165.7197,81.9127,-67.5660,-46.3041,-36.0042,-93.6322,-86.4104,71.8665,6.7659,-0.1634,-47.1809,-118.8928,17.5926,-121.0273,-16.9353,-75.1820,102.6607,-93.1388,119.5818
141.4753,5.8291,-80.7501,-86.9995,-57.4753,-143.0291,-49.0724,62.1453,-22.8643,-15.8457,-32.6391,-182.7089,37.7440,-62.6798,4.7896,-52.2080,70.8288,-150.6965,68.2512
154.1154,-26.5468,-64.2083,-94.2284,-55.6419,-143.9406,-19.8976,17.8151,-75.9098,-113.3478,-1.7093,-170.2581,26.2758,-23.8469,-11.7070,-54.6914,99.6377,-98.1858,2.8067
199.1529,39.8895,-41.6947,-27.4504,-5.5212,-76.8832,-5.4765,-41.4375,-79.2321,-204.3355,18.3736,-95.9099,26.7133,14.9698,-29.1913,-92.0968,186.9723,23.9635,-14.2158
234.4154,167.0364,20.8970,74.2829,60.1475,12.8436,34.6313,-55.8905,-35.6313,-193.8162,47.6933,0.6553,60.9133,60.0348,-43.9222,-146.0086,250.9110,104.0953,17.5359
232.9668,224.6203,104.3303,115.9557,118.6661,40.5456,93.6074,-34.1702,-7.8476,-141.9647,79.9175,74.8591,91.7324,76.4227,-59.2386,-138.5492,264.6779,89.3969,68.3935
222.8748,186.7969,116.5034,91.6636,142.2045,5.7799,80.1887,-37.5406,-9.3081,-147.7930,70.8261,104.6172,98.1988,79.9552,-57.0487,-72.9114,254.5791,29.2735,81.5685
194.5848,160.9628,28.2948,81.8879,96.9123,-5.2549,-10.2423,-60.0076,-10.7958,-163.6097,21.1327,101.8770,83.4536,108.9392,-28.5983,-42.3382,207.3158,0.8019,33.4791
120.4026,162.7129,-74.6848,99.9220,28.7387,22.4645,-53.5604,-64.0402,-4.1465,-112.1885,-26.0418,70.5874,49.6369,112.5992,19.4076,-57.4071,136.9069,25.9610,-14.3373
64.4054,115.8421,-120.2603,92.0050,22.7146,36.7122,3.6085,-61.6835,21.8607,-40.9781,-49.2142,12.8931,24.2716,41.0083,67.5464,-40.1118,105.0659,71.6089,-20.7777
82.3557,55.7358,-136.3815,53.6597,65.5547,33.8949,77.9536,-71.8114,79.9281,-24.9725,-48.1653,-35.7056,31.4480,-29.1456,75.6132,7.6663,86.3924,88.8873,-27.1934
95.6575,45.3155,-156.1448,10.5841,91.2115,15.5662,97.6638,-87.2487,129.1306,-58.8528,-29.8558,-49.7934,38.4661,-30.6046,33.3237,5.8898,18.4202,59.8709,-33.5071
40.1992,22.2450,-131.3185,-36.2845,121.6403,-31.0830,92.4502,-94.5689,142.9922,-96.8806,-6.3406,-40.2545,32.0463,-28.3033,-1.2347,-42.7934,-29.1584,40.3041,35.2904
-8.3856,-24.5115,-23.4708,-60.9361,220.8785,-38.8487,136.2953,-71.0170,180.4003,-106.6670,26.9096,-0.8043,73.9281,-59.8645,20.5320,-65.8574,30.3182,99.5354,171.6232
5.1695,13.3731,93.7221,-23.1350,354.0424,47.9286,226.9387,-17.5096,260.9897,-95.0729,63.0909,80.5371,167.1474,-43.4407,71.9352,-69.1580,115.1643,200.4980,246.6932
18.6562,112.2688,128.5257,38.3036,413.8327,136.5471,270.4749,16.2694,285.0385,-97.3736,58.5622,151.6574,203.2478,36.0068,106.3345,-94.7045,113.5140,241.4154,193.4801
4.2973,131.9573,112.5222,35.6031,370.3984,137.2519,247.8257,10.2834,196.9449,-113.8502,18.7045,134.0527,148.6865,61.0912,113.2464,-97.4276,64.2110,201.0862,108.0971
14.6743,80.7676,126.0308,-48.3829,299.3142,95.7021,249.7275,3.0408,94.6642,-110.1865,13.8373,33.3860,106.2731,2.8480,99.3002,-45.5647,50.2664,132.1675,98.6835
47.1480,55.2419,143.3181,-131.5531,261.3504,68.1568,269.1905,15.2289,72.0542,-80.5504,43.8117,-41.0859,122.7554,-4.6036,68.4868,-9.8254,66.7231,80.2758,141.4571
54.7394,56.3285,101.5308,-113.5499,245.8481,70.9215,220.0762,47.4712,95.1947,-32.1346,42.8563,7.2580,133.4303,95.6265,29.5607,-4.7640,90.4938,88.9356,177.1251
48.4569,61.3594,48.5494,0.8065,236.8742,127.1932,170.0668,111.6843,112.6500,40.7544,18.7165,123.4663,110.9927,174.3638,-4.6040,37.9455,131.8516,162.5641,223.7381
33.4496,64.6012,52.6599,76.9698,234.5434,183.9610,221.5571,181.7548,141.0199,109.3393,4.8804,149.6419,78.6086,148.1581,-28.8866,73.5062,159.6511,214.3540,291.8916
-27.1441,20.2501,55.7858,30.2136,214.6604,139.6667,276.5559,208.5625,189.7064,133.1564,-37.6165,55.2656,26.0574,111.4561,-47.1112,19.6110,116.9726,194.9961,337.9173
-87.4030,-57.3670,-19.5624,-40.5510,161.5716,51.1771,238.7175,209.7097,213.7184,138.7531,-114.2012,-13.3867,-38.2326,131.0330,-53.1843,-23.9875,36.1062,185.9094,361.3170
-61.7714,-68.9670,-124.4776,-16.0157,105.9597,72.7940,200.4488,237.9114,179.1949,166.7900,-152.3445,35.1963,-61.1078,132.8396,-27.7122,47.1815,4.6250,233.9085,383.6028
-2.0052,-4.4946,-165.4011,76.3877,72.0622,190.5253,214.6743,290.5201,109.3133,185.3049,-135.6977,137.1806,-43.5942,92.5808,20.6415,122.9662,33.1311,266.1737,364.6269
2.7947,60.6137,-118.3210,165.3384,62.2991,258.7931,208.5112,315.3202,39.8174,152.8544,-97.5856,221.6728,-25.7573,92.7139,45.4160,102.8228,76.8459,250.1056,297.5003
-8.1472,96.1968,-21.6092,225.6771,89.7210,221.7152,184.7123,270.5920,-10.8191,110.5946,-28.2637,258.0078,3.2331,123.7640,36.4828,66.5559,106.5189,227.0291,262.1676
-4.0669,82.8317,41.4706,208.6064,132.8113,127.9222,203.1421,203.5302,-15.7970,143.3539,46.3603,197.0695,46.4686,80.6939,46.0593,73.9862,65.6150,191.0705,288.0861
-39.6040,13.5712,-3.9541,81.0480,126.9215,38.1170,236.7238,236.8136,41.0904,260.4470,40.2622,53.6656,54.3997,-37.5015,92.8242,87.7476,-79.3390,127.7696,326.9691
-89.0926,-32.6003,-117.5149,-63.5176,70.2222,-7.7472,233.0352,357.7418,107.2703,351.3350,-35.3754,-45.5890,22.7875,-137.0959,120.0919,95.5952,-211.6488,80.4421,345.8146
-86.2585,-10.6727,-182.5291,-98.4007,26.8937,-11.1077,183.1491,376.7585,100.0996,324.9053,-77.5550,-28.7643,-1.3527,-161.7691,95.7125,86.3294,-205.0294,58.5989,313.6718
-83.0539,15.9224,-161.4040,-24.0669,14.1398,3.6077,107.0662,259.2906,33.8664,258.3405,-63.9202,31.4481,-8.3171,-95.9460,61.3767,36.6569,-124.9992,32.1645,221.1925
-105.6526,34.8826,-102.3941,60.4514,7.7066,25.8584,79.1151,199.5306,9.9390,263.9315,-44.5336,48.9772,-0.5856,10.5264,46.7616,11.1350,-79.0040,21.7228,145.0683
-68.9501,82.4044,-45.5757,73.5787,2.5673,20.1578,143.6333,229.9382,45.7336,278.3962,-33.5175,15.1835,27.6730,28.4142,34.3200,65.9502,-51.9030,30.1357,119.9267
-7.5555,102.5055,-17.0862,7.2337,-18.8542,-61.1584,191.3655,173.4570,46.6661,188.5687,-29.1962,-34.6758,35.1501,-57.1988,25.7522,112.5365,-38.3972,-5.1764,61.4210
-45.2126,57.5888,-31.3772,-71.3980,-69.4948,-161.4832,120.5319,34.2191,-29.1773,53.9342,-34.8994,-47.7356,3.6121,-86.1138,35.3707,84.0652,-72.4425,-70.2318,-36.5101
-105.1389,19.4293,-54.9015,-90.5799,-96.2225,-163.7087,19.9853,-16.7117,-115.2163,-5.9770,-24.0648,8.1892,6.8360,-1.9251,30.1259,62.5131,-91.5892,-77.9419,-65.3813
-43.8073,7.4242,-41.5168,-60.5406,-62.1362,-83.2134,-0.2893,20.9424,-154.2207,0.0192,16.0234,83.5616,62.3997,70.3508,-8.8329,98.3582,-39.4810,-50.0367,-21.5253
48.7723,-15.2726,11.7889,-45.5331,-27.1989,-51.7874,16.1417,40.6314,-160.4539,11.0194,43.4387,80.8783,73.7955,78.8777,-20.8646,127.4910,2.8334,-75.2471,5.2770
31.0755,-7.5350,73.6629,-81.3857,-46.2396,-125.3259,-9.9205,46.4791,-164.8896,12.9627,29.9480,-33.7372,19.7738,68.4461,19.5006,120.6938,-24.8907,-144.7591,-2.9543
-31.7586,45.6665,96.6838,-153.6554,-92.6767,-248.9784,-80.5384,46.5748,-183.0566,-10.5737,2.3776,-180.7731,-10.5429,18.0245,28.9799,113.4067,-76.3710,-208.7105,-36.6458
-28.9747,61.5925,58.5146,-207.3981,-127.7340,-351.4473,-163.9837,-19.2387,-219.9100,-74.3200,-7.6184,-234.6481,9.0442,-73.9315,-32.8909,103.8101,-117.1540,-257.5411,-99.5148
21.7582,27.6186,18.5944,-187.8165,-132.8684,-374.0256,-222.4893,-118.0087,-260.7961,-135.5658,3.3721,-154.9821,34.6426,-112.4771,-88.6578,63.7188,-120.5472,-256.2266,-132.1694
62.6678,6.3529,49.8560,-111.0768,-88.8752,-292.5406,-214.7174,-134.5769,-283.2524,-149.2715,23.6306,-33.0885,56.4733,-73.4699,-94.7730,8.8340,-48.0702,-176.3763,-86.3061
65.7713,-5.0206,124.0693,-40.6427,-14.8412,-165.7411,-137.5989,-63.0787,-273.6080,-131.3625,44.5240,32.5608,71.8427,-34.0611,-86.2667,-21.5132,44.1246,-86.7710,-18.9551
28.8243,-11.2763,168.6037,5.6504,22.7593,-80.2782,-41.4179,0.7380,-229.7466,-106.1534,65.2115,47.3989,59.2842,-24.9790,-50.3354,-24.7367,67.4645,-55.3631,11.5379
-5.1561,26.7204,167.2794,35.8647,-9.5870,-52.0896,11.6847,12.7634,-176.2153,-66.1987,71.9384,55.9644,26.9809,-41.8154,46.3328,-31.7409,46.1070,-53.4831,1.1566
-1.5330,69.5673,126.9821,29.6305,-74.5018,-54.9262,-5.5965,-4.9166,-146.4067,-26.2115,44.9371,65.1160,-3.1518,-93.5695,128.5291,-54.6288,25.6760,-50.5280,-60.9946
3.2417,51.3977,65.1679,3.4112,-114.0226,-80.9280,-75.6826,-48.7871,-137.7105,-37.7602,10.9171,73.4872,-22.0324,-136.6105,89.7571,-84.6023,7.2110,-59.6179,-157.6308
-20.2983,19.4604,46.1089,23.3777,-106.2227,-104.2887,-160.6327,-135.4522,-126.9040,-104.3138,16.7123,75.8574,-11.7969,-123.2089,-42.1850,-126.9024,39.5910,-65.2829,-224.5325
-28.8203,25.4791,91.7478,80.8301,-76.6599,-89.5363,-212.5005,-234.5571,-105.5928,-153.9833,36.7125,43.1668,18.7399,-102.5222,-136.9068,-165.6391,127.1551,-48.5962,-242.7489
12.4263,25.8702,114.9380,89.1221,-62.2695,-81.5331,-189.4926,-280.8310,-53.6471,-146.4851,6.0783,-22.6107,10.2285,-125.6152,-119.1037,-148.3801,141.9702,-49.8471,-231.3489
59.8458,4.6808,58.4319,29.5392,-77.1884,-147.8504,-116.8159,-261.4063,47.2189,-118.6462,-67.1598,-72.0100,-59.2915,-152.4945,-34.1331,-86.4329,56.9889,-99.0117,-186.0857
47.8457,4.4099,-16.8729,-30.7242,-118.0804,-225.2362,-74.0671,-212.9066,124.0579,-86.9799,-121.8489,-83.7029,-137.6438,-139.4300,25.4686,-53.7178,14.5748,-144.1452,-130.3699
-19.9371,17.6844,-56.4127,-45.4155,-165.7682,-198.3909,-87.5734,-149.5490,72.7057,-38.1188,-134.1516,-70.1970,-176.7126,-96.9636,28.2488,-47.4139,46.1530,-118.9944,-112.4411
-65.3165,18.6616,-81.0155,-12.9389,-184.4588,-97.5552,-122.5280,-81.4086,-65.5873,-14.8832,-119.1694,-25.8974,-168.7469,-51.1751,9.7925,-22.3359,54.2249,-38.0775,-115.6043
-41.9453,44.7222,-105.2453,53.5676,-170.6778,-34.7006,-158.3849,-38.6777,-150.6422,-38.4044,-102.4493,46.1922,-137.7897,-23.3251,-8.4678,-11.6116,34.7022,22.8221,-100.2354
-10.6771,120.5750,-119.5205,114.6216,-173.1615,-20.8852,-178.5562,-6.9529,-138.3352,-15.6158,-111.4662,110.7923,-134.1332,-9.2410,-33.7357,-27.3857,12.0333,28.6904,-80.0061
-39.6850,174.3647,-138.4601,116.2769,-212.9193,-6.2417,-161.0659,47.1021,-81.2153,87.3943,-132.4686,145.1676,-165.0471,17.6621,-51.5293,-3.3389,-62.9794,10.7896,-62.5100
-84.5590,117.2197,-171.3525,42.7597,-245.9509,6.8602,-129.3605,71.1762,-13.7216,133.8969,-105.2042,141.5177,-161.9468,42.8284,-37.0547,34.3794,-155.5100,-18.8570,-32.7206
-64.9459,-26.2337,-187.1760,-64.2489,-240.3374,0.5059,-116.4540,6.9928,34.9577,46.1991,-19.5480,89.0182,-97.4552,24.8297,-3.2914,-7.5344,-161.3468,-79.6904,-26.3867
-0.1917,-132.7608,-168.5482,-139.2292,-214.8766,-18.1298,-109.5940,-78.3112,18.5802,-65.2614,45.0818,11.1989,-42.3333,-21.1876,4.5930,-77.6842,-126.3974,-139.7740,-84.1713
30.0548,-137.7056,-149.6076,-157.4170,-195.7814,-52.1115,-102.4605,-105.9566,-35.4191,-105.3485,33.2568,-44.0566,-43.6753,-49.2401,-38.7659,-76.1420,-163.8839,-156.0541,-161.0517
16.3095,-96.6356,-158.4332,-156.8505,-190.4880,-100.6796,-103.7273,-116.1253,-41.4402,-102.8708,-4.2172,-64.7964,-63.0547,-51.4771,-93.7859,-47.4743,-229.5925,-164.8659,-192.7059
16.7057,-62.3304,-169.0659,-159.9317,-184.4985,-130.9269,-93.0751,-152.8318,-4.7786,-94.8308,-3.0967,-54.7188,-65.0584,-40.9122,-95.3874,-48.0561,-212.5606,-187.2005,-182.8995
38.5071,-21.1338,-149.6735,-125.3911,-151.2662,-117.2789,-72.2078,-166.0280,-3.7914,-79.7074,8.4847,-9.1045,-64.7386,-31.8200,-57.9250,-34.9622,-118.6713,-156.2122,-152.8040
24.9967,27.0986,-114.9274,-38.9323,-96.3660,-69.7009,-70.1708,-116.4430,-42.3169,-53.3470,-22.5611,36.8530,-80.7044,-42.9480,-54.8850,-1.7415,-26.0593,-67.1993,-98.2804
-21.1503,57.0280,-87.2344,37.3323,-57.4893,-20.8186,-58.5629,-47.3982,-71.6912,-16.1755,-60.5638,40.3835,-94.9864,-66.3056,-84.9793,16.6746,25.3077,-16.8084,-43.5355
-24.2390,73.4709,-45.4946,67.2454,-33.7696,-4.8652,-0.6151,-6.4864,-96.2526,7.6915,-32.7030,35.6882,-62.7372,-62.5028,-88.3365,50.6680,52.9139,-21.9096,-29.8351
23.6028,86.9482,38.7689,82.0529,9.0083,-15.9975,71.2210,14.4078,-111.2433,-5.2944,48.5029,66.1195,25.4672,-3.8858,-60.3633,111.1891,96.3072,-16.8607,-28.6387
57.1704,97.3655,142.5850,92.5620,49.0368,-16.0266,129.0134,38.6728,-50.0077,-12.8575,105.9601,92.2405,100.1214,87.7434,-21.9869,131.0407,145.7182,-16.0072,6.7118
83.6336,129.7921,209.8442,83.9297,27.3080,-11.8220,164.5155,57.1822,66.9980,28.9770,107.3521,78.8662,93.6621,127.6676,21.5933,94.8524,138.9942,-57.8710,24.5773
156.3481,195.4398,218.9807,84.3917,-34.0658,-28.6681,141.0579,49.3414,110.7706,74.5944,92.6624,72.8554,47.4422,56.8593,27.0131,60.5405,88.3647,-69.0351,-19.4663
233.4775,255.5494,215.9946,127.4031,-31.5668,-11.5760,87.4467,30.9300,71.2845,76.7750,117.7199,114.0660,55.9082,-31.2614,-23.9283,52.3591,99.3632,26.4445,-24.8875
239.1156,285.4338,256.9851,186.3901,74.9947,91.5627,96.9705,39.6950,76.6136,66.0593,180.5052,167.1035,121.8845,-4.3749,-45.2241,62.0020,185.1196,160.8607,78.6886
196.6147,284.5060,309.6107,216.7090,189.3461,196.5853,146.5473,79.6244,153.0512,66.7585,205.4918,177.9899,153.8159,90.9334,1.1118,79.5002,220.4811,214.4553,175.7137
175.4665,236.8675,290.8443,207.4519,207.5329,206.1725,149.4189,115.0182,202.3042,59.3940,154.4747,141.8540,110.2564,129.9957,25.3001,73.0803,161.3624,175.3398,175.9128
199.4555,169.8549,225.1921,174.9855,164.6447,169.4244,132.8443,109.2987,189.9327,43.0102,106.8092,114.8898,59.6020,117.6978,-0.2274,35.1150,125.6435,130.1809,146.2533
253.7631,160.3704,219.5992,159.6043,152.3615,167.6146,132.9981,65.7154,157.5966,39.1455,127.1661,150.2720,58.1809,99.1367,-4.5416,18.1740,177.7355,129.8577,122.2598
293.5739,202.2280,261.8914,192.8059,150.2822,178.0894,106.9438,39.3137,131.5737,57.4388,152.0069,203.1472,62.5892,51.6955,7.8193,51.2610,228.4638,137.6764,81.9417
278.4426,207.3749,246.2918,231.7936,94.3230,167.9060,75.8952,64.0336,143.1479,83.5817,125.8565,175.2999,33.8049,-13.1317,-6.5907,88.5656,214.6842,130.3226,92.9695
244.6704,164.6158,192.0553,209.9569,41.5536,177.4916,97.8428,83.6710,205.2115,80.7122,105.5370,77.2146,19.3736,-44.4497,-12.0661,71.6280,183.7786,148.4558,189.7694
248.8167,148.1389,199.6936,157.1730,76.1897,226.7410,126.9274,44.0980,249.4320,43.3021,130.5233,25.2737,50.6009,-46.6510,3.9597,-7.1274,166.8392,193.7504,245.2898
262.5078,185.6670,244.6038,154.7668,145.4983,259.5714,119.6126,-3.1948,221.1504,25.7996,156.6425,61.8127,85.0677,-32.1087,-8.0024,-88.5869,145.8196,208.7256,189.1681
244.8862,223.7305,248.8091,196.4004,170.4143,238.4244,121.3473,4.3580,161.7326,52.9612,163.0507,105.4841,103.5289,5.8516,-27.7699,-95.5494,132.7933,196.9801,125.4010
228.9111,198.8934,241.0708,213.5775,182.6867,203.0660,148.3946,40.3475,122.6389,85.7762,168.5636,86.2657,124.5855,29.8806,-6.0694,-28.2218,139.9227,212.0478,125.7812
234.0094,120.5582,253.9894,189.1164,217.6698,199.7245,176.8820,64.7158,103.7402,103.4656,161.3813,27.0824,130.4784,22.2334,23.2867,39.1771,133.4886,246.3215,147.4330
221.0280,77.8119,233.8855,147.4054,244.2923,220.2580,196.8677,74.0792,80.8575,96.3254,128.4032,-6.6524,109.1002,35.6173,43.4623,64.9059,104.1702,271.1224,149.1524
182.1794,110.4443,175.4809,105.4320,265.4233,236.1864,165.3862,52.5057,26.1204,36.7133,94.6230,24.6788,102.4266,77.2391,99.4840,61.6239,82.1747,300.5627,116.3569
151.0235,135.5602,150.0275,88.7663,303.6327,240.1780,70.7958,-4.5477,-48.8275,-33.7192,80.7788,108.1482,123.4652,103.3060,157.6514,42.0545,65.3185,326.6512,49.7463
131.9755,91.9900,159.4491,107.2180,305.5356,243.0609,8.4366,-47.4899,-77.4351,-31.1824,88.4550,184.8101,133.6447,125.8438,141.7280,23.5011,41.2444,320.9503,-8.3368
108.0675,34.5522,150.4425,118.5342,231.2286,262.9576,19.1266,-37.0019,-47.3137,27.1639,117.6234,191.6792,128.9176,149.0197,93.5999,31.3466,34.2846,311.1142,-27.5271
80.6625,9.7818,136.2183,101.8793,150.5128,295.1441,25.9190,6.8451,-25.8664,79.7647,149.9877,125.6718,131.0167,115.5594,86.8469,53.1404,54.3310,326.2023,-30.7818
72.3749,0.8347,152.2150,100.3734,126.5651,292.8502,13.8435,49.9444,-21.6997,126.8205,156.8258,64.1376,130.5246,47.8337,87.8178,55.8067,80.0215,332.0961,-28.7381
111.0960,13.3997,169.4953,123.9907,135.7131,245.9191,37.8914,87.4904,6.7067,147.0192,134.3000,80.3553,123.1505,59.2192,62.2605,45.3359,100.8260,307.0796,-2.3198
170.0075,45.4427,142.4182,116.4885,149.7470,219.3231,89.3089,128.4733,31.1019,101.6327,93.9769,135.0164,123.3592,157.3493,54.5071,37.3072,98.0665,268.6187,39.0848
159.6761,32.5314,75.7978,55.5798,157.9915,214.3690,130.9632,143.6788,13.5493,52.0026,55.0266,125.3540,121.5939,208.6768,62.6061,7.8455,52.9643,209.6902,53.7172
70.8462,-30.3034,27.6773,-13.6878,135.9571,135.4686,138.2850,73.1484,-19.6503,53.2145,55.7678,48.7898,112.8568,122.1755,17.0707,-48.5511,21.7063,127.2874,15.1304
19.0291,-43.8510,58.6067,-37.5777,96.6299,-4.3713,73.0109,-60.2898,-49.7291,39.1203,106.8655,-1.3579,120.7531,-37.4139,-66.7471,-70.8059,75.0364,64.7709,-51.3582
51.5706,16.8552,137.8343,4.4393,85.4056,-71.8913,-35.1913,-143.4636,-74.1072,-16.2482,153.0823,-12.7336,136.8047,-137.3699,-82.5213,-31.1777,160.0502,44.9796,-92.4042
75.0728,53.7430,153.8345,65.1914,86.4838,-58.4475,-88.3434,-148.8960,-64.7900,-37.6908,141.8780,-59.0173,125.7932,-133.8246,-8.8016,-9.7490,169.1210,48.1582,-101.0053
41.7392,30.8484,76.5732,63.6909,63.0601,-54.8438,-70.2730,-145.3550,-31.9405,-15.9000,90.3683,-117.0225,99.2345,-82.7058,43.5062,-57.0147,100.8991,68.8848,-97.2117
21.2429,18.2017,-4.9825,6.1362,52.1790,-38.5069,-27.3406,-118.8700,-20.9637,-4.6636,49.7267,-92.2234,85.8398,-28.1889,-1.7046,-86.5415,24.5818,93.4457,-52.1262
56.3177,27.4163,-39.9380,-41.4444,72.9436,15.4788,23.1886,-33.2405,-18.3893,-3.8908,41.6363,-35.7465,67.7093,3.1550,-74.7634,-37.6367,-35.8686,65.5407,28.5083
97.8358,-6.1133,-59.5143,-96.4384,42.8066,-3.1194,27.3966,8.5231,-20.9277,-6.4227,41.3244,-84.2133,20.4705,-30.1330,-86.2316,6.5322,-88.3014,-30.8445,36.4010
81.9255,-71.7588,-79.1743,-182.7092,-77.1540,-108.4187,-71.3497,-71.6030,-93.9268,-33.0809,15.0130,-186.0745,-40.7107,-92.7306,-74.0663,-8.3052,-122.3410,-122.5877,-62.8352
6.8365,-92.3561,-92.4230,-201.7372,-184.1468,-138.5946,-201.4555,-169.5858,-215.2928,-67.8114,-22.6050,-160.5527,-81.1368,-86.7248,-110.0397,-15.8776,-128.0239,-144.8826,-160.2047
-46.5466,-66.0583,-102.3745,-100.6251,-181.8100,-60.8050,-264.3076,-193.0610,-265.6013,-77.1213,-27.0665,-4.3850,-75.8183,-24.8295,-146.3628,9.0489,-111.0424,-115.4543,-197.0577
-4.5367,-43.3862,-92.3402,3.2856,-99.8476,-13.6525,-256.6315,-170.4520,-221.1810,-52.9105,-4.2546,115.5685,-35.7188,0.0290,-109.5524,16.9883,-76.4376,-80.2180,-190.6186
82.2645,-17.9727,-51.4472,29.6136,-17.3508,-25.8603,-185.8392,-114.8202,-144.0864,0.0941,2.6596,111.6130,-3.5360,-23.8657,-55.4495,2.7145,-37.4661,-58.0234,-121.4235
111.5083,22.4897,-18.9227,27.4148,14.1678,-27.2483,-80.7794,-44.0982,-63.9147,40.0807,-9.8009,20.4298,-4.0431,-66.4461,-64.3364,-28.3246,-29.8507,-57.2364,-36.5820
78.4728,27.2633,-23.7430,9.1202,-32.3627,-37.1030,-55.6981,-51.6646,-26.6362,16.8619,-20.1663,-87.9852,-33.6811,-111.1126,-89.2183,-92.6566,-73.5294,-79.2863,-64.9990
43.5626,-28.1181,-37.9741,-49.9724,-127.8550,-78.0135,-135.7789,-145.7885,-81.3634,-38.8055,-25.6666,-138.3910,-80.2338,-109.5155,-58.9148,-131.2453,-128.7127,-98.5750,-173.6450
41.4966,-93.8229,-27.8417,-110.4798,-177.6677,-89.5408,-185.0975,-206.8983,-151.0095,-76.0376,-19.6962,-123.5520,-106.1782,-70.1445,-6.2569,-84.0170,-140.1351,-99.8623,-209.7345
77.7159,-134.6672,6.4031,-150.8573,-134.7928,-73.5642,-157.0131,-199.1369,-136.0770,-104.6158,3.0727,-136.1724,-78.3809,-90.4758,11.6843,-30.0754,-116.3220,-109.4647,-192.7925
102.1655,-151.6430,29.3939,-192.6033,-69.4603,-100.9651,-167.6423,-192.2709,-99.2674,-115.5500,14.5530,-202.5437,-36.6222,-157.7744,-11.0974,-34.0337,-99.0195,-129.5129,-232.8377
38.0117,-139.1787,1.6227,-200.7902,-57.3712,-151.2831,-262.0893,-195.2330,-141.7804,-88.3095,-4.2093,-232.0315,-38.4283,-156.3940,-67.6574,-22.2241,-83.2063,-124.1189,-288.4090
-74.1683,-123.0587,-52.0789,-163.4978,-83.1438,-163.8456,-339.7736,-170.7694,-229.5448,-78.7733,-33.4022,-220.7881,-66.6755,-95.8341,-125.3179,24.7148,-56.3329,-120.0190,-278.4462
-118.9953,-153.3776,-72.8193,-167.2766,-109.8015,-176.2136,-320.6501,-130.0297,-272.2986,-109.2332,-62.2262,-256.7041,-82.6486,-59.1983,-113.9612,20.3482,-54.0545,-172.8477,-234.2235
-99.2900,-193.4913,-72.6122,-215.8176,-136.1812,-225.9495,-247.2453,-104.4972,-241.9703,-107.7699,-82.4425,-297.0859,-85.7748,-48.6138,-31.1390,-28.2071,-82.0268,-222.5511,-203.1304
-78.8828,-156.8708,-84.8969,-194.3636,-151.5391,-240.6553,-216.7127,-116.0983,-176.0222,-82.6538,-58.8510,-233.9696,-72.5477,-63.1783,28.0171,-43.5709,-84.9853,-181.2431,-195.7413
-53.9403,-79.8373,-84.1584,-111.5354,-139.3394,-173.6900,-251.3871,-166.8913,-133.1293,-112.2312,-2.0752,-124.1721,-52.4939,-105.7451,6.0186,-37.3236,-66.6416,-108.5453,-215.3216
-61.3267,-87.5388,-76.3179,-95.7476,-112.4532,-108.0318,-274.7528,-203.1674,-130.4328,-163.1042,17.0238,-81.8137,-84.0967,-106.4430,-53.5617,-44.4171,-91.9829,-87.9352,-214.0706
-179.1169,-194.3407,-104.9777,-146.3337,-70.8479,-113.5881,-229.8336,-181.5596,-132.0318,-174.0709,-5.2126,-77.9065,-177.9614,-61.4449,-88.2385,-53.7835,-134.4443,-69.4328,-139.1553
-336.3679,-297.1410,-119.6239,-150.7520,-4.5622,-134.7239,-150.7055,-153.3512,-127.2238,-176.0768,-0.4659,-52.6854,-248.8806,-67.9790,-80.8110,-84.0020,-103.8251,-12.9279,-50.5121
-402.0058,-338.4810,-57.1837,-89.3018,34.4124,-104.5541,-106.7061,-161.5900,-143.6307,-169.7192,29.6496,-39.4461,-254.1486,-109.6667,-59.4055,-144.9545,-21.1194,20.4158,-38.1572
-406.7317,-357.3774,10.2775,-39.6139,-7.4775,-53.7565,-130.4434,-153.9421,-164.2829,-120.4618,23.8933,-60.7843,-254.0582,-99.0667,-59.8225,-167.7117,9.3243,17.2068,-82.2270
-439.8116,-410.2863,4.6602,-54.3397,-81.0581,-37.6235,-173.1095,-110.2404,-148.6753,-80.4575,-18.8286,-93.4903,-286.5726,-81.6245,-70.2283,-118.8541,-44.6657,23.2624,-124.6339
-500.0416,-500.5023,-49.8892,-116.2116,-122.4251,-49.7236,-159.3810,-106.4002,-113.5047,-91.2239,-63.7868,-149.3913,-322.0421,-115.8428,-54.9281,-63.5588,-131.1622,20.8897,-165.3589
-567.4141,-567.1970,-123.3772,-159.8306,-149.1101,-52.4145,-124.5348,-163.1736,-89.5787,-101.4493,-105.6970,-223.9268,-344.9142,-140.7897,-32.8372,-45.7431,-178.8280,-3.2451,-200.2932
-611.4274,-555.9092,-174.7154,-140.7369,-172.9792,-32.1974,-145.0853,-189.0659,-67.5544,-89.0363,-135.1685,-240.9270,-358.9248,-126.8241,-49.1033,-42.1426,-145.2094,11.5071,-180.1293
-573.3843,-505.3776,-146.4121,-99.9939,-165.0663,-18.0094,-153.7490,-135.8761,-35.6741,-59.8072,-143.7601,-179.3378,-354.1019,-119.9599,-94.1729,-30.8214,-83.1800,59.7358,-87.4321
-495.6428,-498.9249,-110.4808,-106.9894,-138.9322,-53.7865,-73.5981,-65.4564,1.2296,21.7112,-161.2411,-125.5008,-340.9124,-125.4963,-128.1742,-7.8975,-92.1771,50.0384,20.1347
-478.6079,-531.6628,-170.2560,-149.2299,-126.9910,-116.7659,1.8660,-19.6751,41.6185,125.2717,-193.9008,-116.1115,-341.5627,-124.8122,-136.3861,19.8556,-151.9418,-7.1153,78.2007
-477.7101,-516.0797,-227.6445,-151.5215,-117.4849,-117.7733,15.1857,33.6295,81.5659,156.9961,-197.6736,-90.4501,-335.5188,-112.6321,-124.6340,27.3552,-157.3611,-4.7516,85.9673
-410.4044,-423.8862,-167.8777,-98.7559,-97.2233,-48.8957,50.3465,83.6509,108.4704,122.5180,-167.3642,-42.8194,-298.7766,-73.3440,-108.4021,-0.7818,-111.5209,60.5769,75.4236
-350.4680,-332.1040,-81.3105,-63.0492,-62.9977,-11.9185,90.3189,61.1700,117.3463,77.6114,-137.4277,-39.7917,-245.2659,-24.6788,-91.7242,-46.3095,-85.9795,89.1959,53.6998
-351.7919,-300.5032,-41.4140,-81.0293,1.5509,-39.3506,54.9574,-8.6340,109.9647,20.9446,-99.2160,-63.8593,-179.1069,-6.8540,-49.3350,-67.9763,-73.2479,50.6852,32.2733
-314.6668,-291.0580,2.1215,-95.8307,65.7212,-61.5935,35.9597,-11.1639,96.3227,-13.6814,-39.9404,-35.7354,-100.7737,-9.5328,17.4305,-28.0160,-59.9822,-0.2398,55.0141
-215.6978,-260.3178,21.8782,-81.6603,68.3912,-71.5036,113.9809,62.0549,106.6198,26.3246,2.9910,7.5014,-47.6829,-23.4876,62.7862,50.7406,-86.6648,-42.5818,127.2807
-176.2094,-234.8936,-22.1800,-95.7995,37.4783,-114.8382,183.8024,117.4047,144.4612,80.6398,12.6864,-34.3024,-32.6722,-57.8049,87.0080,85.1863,-124.8104,-98.6363,190.3294
-222.3406,-230.4906,-43.4403,-137.7448,34.6699,-150.8329,206.0881,150.0459,155.6459,89.9687,7.2467,-119.9912,-21.4634,-61.8963,132.1560,55.0726,-104.4785,-148.1508,212.0873
-257.3634,-208.6748,-30.2449,-129.7561,29.4230,-112.9240,257.9358,217.2103,110.0471,116.6362,-26.2681,-132.1890,-20.6731,-13.7157,177.4109,39.0803,-70.4710,-137.9369,213.5735
-249.5813,-169.0610,-84.7944,-76.8072,-6.5139,-28.7884,291.7476,275.9014,53.1416,175.6038,-80.7752,-84.7240,-53.3315,16.9676,175.3223,68.4630,-92.0847,-76.7807,203.5165
-229.4942,-158.0125,-169.6393,-56.2715,-11.7417,42.3667,228.5539,250.4071,25.4223,166.4164,-82.8744,-60.8256,-68.7165,41.5412,139.1947,76.6146,-118.1513,-35.4965,179.1971
-184.8162,-165.9859,-175.1518,-73.5996,36.4292,81.2435,146.7614,179.1876,5.6193,73.8972,-16.2863,-50.4641,-24.5886,128.3105,90.4505,34.4504,-103.7609,-44.9803,158.2067
-108.2228,-143.9558,-141.1545,-91.0940,68.3018,77.0133,113.6447,142.9727,-21.3375,16.4704,30.5806,-21.1212,22.6661,192.6991,35.4740,3.4364,-101.2247,-65.7328,149.6028
-57.9180,-96.7958,-131.2106,-101.6890,44.8261,39.8389,87.4655,148.1082,-24.9694,64.8549,8.0844,-6.3088,20.5799,150.2099,22.8074,34.4747,-119.7745,-60.4659,147.3826
-79.6285,-55.9116,-114.2571,-87.8116,3.5408,20.5044,70.1130,163.6068,1.3831,158.9186,-44.7372,-7.9450,-4.4676,107.5874,73.0027,98.6267,-104.5502,-35.8144,154.3625
-137.2541,-19.0378,-90.8696,-46.8583,-7.5103,37.1560,91.2022,171.3504,24.9169,201.3251,-91.4424,26.9001,-20.6706,117.1257,108.0365,127.6817,-72.2253,-11.2966,156.6001
-170.3263,25.0383,-87.5479,-24.5775,17.9623,59.0710,109.8743,158.5956,39.0092,173.2081,-110.3755,90.6737,-21.6581,82.5135,81.3089,105.2298,-77.8220,16.7031,123.9394
-165.8949,76.3859,-70.8338,-0.1602,34.4852,91.3091,95.6376,132.7344,59.6216,138.2478,-77.4324,130.5224,-2.4170,38.7357,51.2725,90.1451,-94.8319,68.1921,66.0912
-140.3993,126.9390,-31.3274,99.9526,10.9978,155.2398,68.6384,112.4992,75.6266,131.2001,-21.3650,144.0716,19.3522,97.7930,50.1346,109.0736,-64.0246,127.4539,11.6310
-101.8223,149.6755,-3.9235,214.0260,-7.4880,189.7762,42.4049,74.4215,72.7765,104.9972,-1.4881,143.5627,19.3195,167.3466,40.3121,94.8834,15.8934,128.2820,-44.1634
-53.8470,137.8816,24.7696,216.5363,10.5574,113.9999,31.3457,-17.4081,74.0367,17.8229,-8.1408,115.7874,17.6064,112.9608,19.1152,12.3520,110.8411,47.3787,-92.7190
9.6027,135.9092,68.6163,143.4867,8.2305,-30.0579,25.8405,-118.9561,86.7904,-94.5340,5.7533,72.6662,36.9192,2.9059,16.1317,-60.3862,179.9811,-43.4785,-95.5804
100.6168,160.1773,77.2457,91.3707,-54.0691,-137.4815,-30.4565,-141.7518,62.6295,-153.6972,20.0897,31.9510,45.2189,-68.3531,10.5037,-63.5515,174.5747,-92.9937,-63.4649
182.8500,168.1926,18.5332,33.2887,-134.8091,-192.1168,-116.4671,-83.5135,-14.9952,-123.6982,-16.1715,-23.7721,10.6723,-128.6639,-32.2867,-45.4592,82.9387,-135.7281,-38.7353
191.2078,149.5603,-71.5842,-57.3899,-188.3916,-213.4715,-129.5374,-24.7715,-73.8165,-60.0814,-85.7047,-75.6099,-40.2330,-182.5402,-78.2714,-54.4699,-37.9566,-173.4549,-15.5234
147.4939,124.7065,-135.3889,-117.5666,-190.8298,-162.3420,-86.3988,-10.5571,-51.5544,-33.6203,-127.8007,-68.5200,-67.3492,-173.7622,-67.0515,-66.8714,-119.5349,-147.1423,8.9874
142.9710,71.6375,-134.2376,-138.1639,-126.4044,-54.9384,-90.4699,-27.9678,11.9049,-29.4490,-120.4714,-31.8906,-64.2806,-109.9227,-12.1920,-64.6659,-138.6839,-71.0415,2.3883
182.4806,-11.0442,-76.1584,-160.1405,-23.8235,-2.0486,-107.1528,-57.2050,42.5375,-19.0115,-83.2669,-36.0667,-41.5674,-48.7756,13.2813,-71.1954,-94.3755,-17.6776,-1.7016
178.6784,-53.4621,2.7669,-138.6075,65.1666,-8.0957,-40.0960,-58.8778,36.6536,-32.5568,-43.1635,-52.4553,-15.0418,-4.9923,-19.6195,-80.5703,7.9315,11.0864,65.9340
106.2758,-31.9223,83.3528,-32.9066,121.4750,37.1275,65.1621,13.1484,29.9533,-46.9035,-23.8556,-32.8898,-9.8980,26.4290,-78.1092,-50.6867,114.1674,34.5087,165.2552
39.3700,-9.7215,134.5604,67.3602,137.4026,122.0735,116.0280,121.6619,32.5045,10.7586,-21.0241,-22.6989,-28.1647,26.5984,-125.1432,12.4390,151.5382,23.0265,215.8607
34.5244,-17.4607,121.3336,83.7221,118.5925,155.9748,115.1658,181.1843,48.5265,90.3823,10.3402,-46.4422,-27.2373,10.4333,-121.7929,56.7261,131.3370,-1.1678,222.9705
63.1339,-27.0728,93.8439,74.5556,110.8398,176.0439,79.4585,191.1768,75.2639,92.2265,84.7923,-47.1933,17.8148,38.6486,-45.4985,72.6353,121.0070,25.8430,186.2442
71.1714,-24.0159,125.1337,105.9871,122.3429,220.8954,3.1374,179.1941,74.8541,51.0831,137.0170,-17.1251,60.6990,97.1176,34.1211,78.0424,129.0036,56.2688,70.0918
44.9536,-11.9905,177.3894,149.5593,93.4567,195.6930,-59.3141,86.3969,28.5568,19.3360,117.0150,-0.8728,53.8984,94.6711,22.0464,53.5959,134.4796,3.2578,-64.8582
2.0776,5.2264,188.7064,171.8185,20.5903,88.5222,-54.3647,-95.1941,-27.8972,-45.5198,74.8119,19.7933,29.9124,46.0592,-39.8816,10.6420,158.9381,-86.5586,-129.7956
-39.8108,6.7190,182.1505,182.8057,-20.5387,24.2109,-31.3684,-212.7145,-80.3544,-129.0776,71.4186,71.0318,42.8506,59.3589,-38.3920,26.5449,190.1384,-140.0009,-152.1549
-64.4622,-26.8242,176.1330,169.7500,-1.6310,10.2139,-40.2159,-175.3304,-139.1812,-154.4839,82.1070,107.2789,76.2741,124.6558,18.3582,95.4123,162.7147,-190.9677,-162.5429
-68.4221,-74.1304,140.5572,109.6473,27.3718,-38.9113,-54.2122,-98.3711,-156.4536,-141.0192,56.7077,101.5770,75.9452,158.3798,39.1923,103.0207,84.7352,-255.3904,-136.4385
-83.0171,-94.1468,62.9143,41.9571,10.3148,-90.0815,-84.2279,-78.4558,-110.8144,-127.0991,-0.8360,76.2002,32.6753,170.4474,10.9755,32.0464,14.8754,-280.2157,-133.5172
-128.5515,-78.7810,-53.8502,13.0165,-62.8612,-92.7285,-168.3556,-62.9086,-93.9205,-71.1697,-54.7541,22.0068,-17.6945,164.9731,-9.2005,-14.4887,-59.6955,-278.5501,-205.0915
-158.5363,-62.9988,-178.2319,-7.8619,-128.5084,-94.8875,-227.9112,-30.1264,-133.7144,10.0344,-78.2802,-57.8948,-42.3802,93.2248,-0.9508,-6.6777,-143.2304,-292.5865,-234.8373
-122.5646,-73.3653,-222.5520,-44.9512,-109.5567,-93.0280,-181.1024,-42.9317,-129.7479,24.8613,-65.3681,-87.8556,-34.0867,22.6476,-6.5883,9.9331,-156.2999,-271.5951,-157.7572
-55.1562,-85.5113,-163.3715,-40.7677,-33.3272,-34.2685,-121.0217,-93.8808,-74.6034,-26.9028,-38.1655,-29.5337,-11.5204,43.7912,-57.5508,32.4889,-89.0276,-195.1383,-98.2514
-33.7063,-71.4238,-101.0287,22.1627,7.4219,15.9111,-127.5300,-123.1267,-59.1846,-79.0482,-29.9814,56.1063,-2.4469,64.5849,-103.6230,50.2115,-48.9645,-174.3463,-102.4783
-78.7096,-56.0792,-103.7505,49.7682,-9.5308,-31.0474,-108.5506,-148.0618,-56.1799,-118.5524,-56.2190,104.2679,-19.5098,1.8262,-83.6342,17.6315,-83.8871,-257.0999,-81.6634
-134.6400,-67.3556,-141.9050,-11.9254,-40.0448,-120.9344,-37.6290,-190.5578,5.4017,-138.2292,-108.3725,87.5102,-55.6520,-53.5204,-39.3455,-37.5343,-137.9190,-321.5252,-45.1497
-140.5127,-81.9457,-178.4513,-95.8284,-51.5153,-159.7193,-29.3226,-174.4377,62.7143,-98.8937,-153.6940,3.1523,-89.0940,-53.0651,-34.5286,-49.3936,-170.5322,-280.1231,-38.4297
-109.9300,-72.8363,-192.0295,-146.2610,-50.3658,-136.7295,-75.8868,-49.7059,58.1631,-3.9718,-159.0009,-88.0437,-98.4528,-45.6325,-41.6269,-31.3669,-181.0212,-195.6766,0.0599
-96.6789,-44.7048,-177.0891,-170.0157,-75.2942,-80.4422,-74.6911,96.2498,43.2410,88.9464,-139.7339,-104.7236,-90.6792,-16.1448,-43.2678,-9.6498,-164.4783,-133.7471,78.8545
-84.8277,-8.2604,-148.3973,-142.0560,-117.4330,-15.9397,-58.4806,161.4370,33.3981,129.8992,-136.0470,-58.1532,-90.1091,26.7793,-78.9227,37.0012,-98.5015,-75.0272,120.5240
-33.2332,16.9230,-80.7857,-38.6860,-84.8326,38.9695,-71.1958,159.1942,11.6666,121.1348,-141.1947,-18.7801,-98.8288,-5.1876,-103.7692,81.7648,37.8589,-5.3732,145.2079
5.0384,8.9106,43.8815,63.1713,30.7614,80.5354,-35.4342,166.1024,16.9521,119.0703,-123.4638,-7.8117,-100.5833,-73.3025,-39.9901,69.7268,191.4641,41.0141,196.7967
-10.0172,-8.4875,139.5537,85.5331,94.6173,98.3751,42.4596,213.8036,37.7146,152.2393,-82.1506,-6.9707,-78.7019,-44.7905,39.3043,35.8995,250.6922,49.8135,213.9828
15.0659,2.6721,157.2625,73.3816,63.3793,90.0908,51.4718,258.4920,7.1143,163.4436,-25.4075,-7.1394,-18.4089,64.9047,32.2205,31.8596,216.6267,52.5371,179.5872
121.7642,26.4356,180.1780,88.0665,38.9810,94.3068,5.2957,239.6639,-37.1318,116.4423,34.3586,-2.3791,56.3761,146.3048,-7.1994,24.3243,205.7115,76.0627,156.2640
189.0321,47.0015,214.3143,106.9807,40.5911,129.5469,-18.7728,165.5592,-26.9253,69.8089,56.8168,17.4602,88.3992,152.9474,-15.2877,-2.9586,236.2490,118.7330,125.5235
162.0946,95.4467,169.6493,122.2986,15.2023,154.7520,-45.0274,97.8797,-21.8697,59.2959,38.1381,64.7203,85.4206,80.6356,-39.4922,-1.7259,227.8360,164.1520,52.3513
137.1571,159.3842,102.9411,169.1919,5.3313,146.2021,-83.5678,52.7618,-74.1041,37.4375,42.1302,133.3917,111.5627,-20.7332,-83.9448,20.1000,184.7758,179.8786,8.2547
162.8324,167.8637,132.5412,212.7766,47.7210,122.6087,-65.5090,10.5261,-108.0925,-16.0813,90.1508,162.6749,162.5022,-53.7546,-71.6349,12.6071,162.1864,136.5859,40.5952
202.7175,110.7544,195.4934,180.2301,75.0492,94.8016,24.7529,-9.5716,-74.7985,-56.0649,125.5019,94.1523,188.9452,-17.9260,-4.2534,7.6398,143.5634,54.2499,94.4002
231.9535,44.5430,177.8266,88.0166,58.5852,68.8143,138.2709,-7.0375,-18.8778,-60.9826,121.6862,-18.9880,195.9123,6.8989,40.6453,47.1349,98.1619,-18.6194,121.6521
210.2496,6.0974,102.8779,8.6511,38.5059,49.5609,226.3202,-35.0656,32.4934,-60.6368,105.8677,-60.5801,195.5807,17.3833,46.6646,67.2924,38.5598,-60.6836,106.9995
112.4637,21.7593,39.5174,-19.1923,12.8487,23.6397,234.8099,-74.3488,81.4980,-75.2362,88.0630,-5.1606,171.7439,42.1083,54.8984,14.6336,-19.3697,-61.8285,44.7729
21.9000,95.7524,15.6869,-1.3534,-28.9094,-6.5194,155.2816,-48.8741,107.6044,-84.2593,66.6747,58.4737,146.6706,44.2651,77.8178,-44.2439,-59.9599,-22.6640,-25.9216
25.7281,142.9279,34.1598,5.9650,-53.9687,-27.8089,54.9762,-0.0624,89.8778,-67.3112,61.9783,41.0163,151.3812,-5.7047,100.7939,-47.2940,-64.1251,-1.7299,-57.8279
93.3773,93.2127,67.9320,-42.5898,-42.8665,-57.3787,-10.8891,-1.0849,46.6055,-43.4148,83.6845,-38.6544,162.9892,-66.2464,121.1149,-25.2785,-27.7299,-33.0255,-40.3598
151.1800,29.9522,99.5798,-72.5830,7.8006,-70.5872,-7.9674,27.7501,23.4563,-31.2191,105.0412,-69.2335,166.8340,-54.3284,132.2592,-0.9718,41.7474,-25.9579,36.6506
148.4999,49.2958,134.2846,-2.5937,93.0348,14.8930,94.1722,144.9490,32.3021,-11.0532,96.5336,-7.2960,178.9682,67.1862,113.9468,40.8805,99.7944,74.2025,146.3261
72.6097,94.7673,133.4352,74.9967,153.1820,164.6881,228.2346,220.1089,37.2213,20.0381,70.2533,51.1469,184.9728,181.1551,85.3082,69.7139,78.8580,142.8046,191.7251
2.4573,88.8320,70.5130,49.7105,138.9838,226.4215,289.7505,177.8527,42.8496,26.7273,65.9286,43.1772,173.1469,146.3831,100.7884,45.5700,3.7103,93.6778,139.1768
24.6751,65.4786,4.6730,-8.7529,96.5425,173.2249,308.1349,126.6764,101.2138,8.2012,81.1116,38.8581,170.8237,60.4794,146.4170,4.1104,-33.8087,42.6520,66.2476
81.6432,65.0209,-34.0744,-15.5651,81.6205,113.1860,338.0950,114.2293,184.1364,-1.2460,73.4709,77.2601,179.5397,87.4735,155.0549,-11.1351,-42.5001,73.8084,15.3571
73.9464,72.9180,-75.2595,-9.8476,85.2328,73.5415,313.6223,75.1231,220.6831,-1.9265,49.5471,93.6736,176.4532,121.1514,140.5786,-18.5605,-78.7381,93.3665,-40.0889
28.8825,99.0983,-88.9999,-0.9485,84.0606,18.6423,204.1758,15.4276,248.2660,-12.3822,49.6249,67.9939,171.0165,21.6762,148.5834,-27.2212,-95.2342,43.4831,-105.1734
18.2400,158.3239,-45.5203,62.0421,67.7909,-1.4443,100.8789,-27.4844,303.8379,-30.8616,57.2182,56.4032,174.3436,-57.3852,131.3705,-11.5745,-45.0368,5.3239,-157.8074
45.7948,201.9405,0.6944,140.1219,47.3270,65.3152,66.6048,-76.0174,312.7959,-54.4380,45.0092,72.2207,177.9185,27.5512,64.1544,11.6814,16.9048,21.8663,-159.8083
84.4094,189.4102,30.9263,147.2493,54.5502,137.4497,98.3863,-106.6204,275.5339,-68.3728,39.5822,74.1179,180.1206,125.2440,29.6425,-1.3892,47.6898,29.8864,-78.2457
105.3809,156.6224,71.0291,83.1408,66.3315,104.1497,165.8659,-73.5497,281.4703,-49.8043,43.8764,38.2190,166.6493,90.1172,38.4670,-42.7264,46.0881,-7.8468,17.4070
94.0342,145.6548,86.3908,3.6261,23.4204,-8.5859,182.1573,-46.7918,278.5868,-28.9043,30.3818,-16.3749,129.4727,3.7073,13.0630,-77.6072,-0.5201,-44.1074,11.8889
78.8484,147.9243,76.5811,-37.1815,-35.0625,-81.6463,104.0439,-87.4979,177.1978,-43.9186,37.3126,-43.8004,112.4385,-32.9374,-12.8719,-97.4261,-54.8665,-31.5691,-60.8447
78.3771,142.1505,103.9494,-14.2169,-41.7917,-70.4975,19.7118,-115.7929,78.4056,-55.5713,95.5362,-29.3273,123.1660,-27.5557,26.3594,-98.4155,-59.8026,13.6972,-86.9639
77.3737,128.1895,120.6171,22.0727,-46.5934,-30.9476,-13.6864,-86.7208,74.4740,-38.9458,123.7745,-18.2146,92.1245,-11.7842,51.2924,-76.3983,-53.9137,60.9765,-76.5830
92.5955,119.3063,47.5589,14.5812,-73.2668,5.4025,-29.8197,-70.9068,69.4621,-47.6574,64.8249,-38.0334,23.2326,-11.5920,5.3712,-48.0675,-71.3212,126.5933,-73.1283
122.4916,117.7262,-38.6099,2.1054,-16.9637,58.5788,-6.7455,-70.3066,21.6572,-68.2942,-11.3029,-62.6881,-0.0031,-44.7716,-19.1386,-20.3755,-57.7525,222.1742,-25.4711
81.2531,100.3866,-81.3124,24.3544,125.4888,110.0704,68.4637,-15.2300,20.5546,-6.7588,-50.4412,-78.7353,6.4431,-79.9272,7.5937,17.6993,-34.9532,295.1455,58.3156
-40.1647,65.7566,-168.1985,33.6937,187.1430,121.8668,77.3538,56.4161,48.5838,107.2147,-83.8133,-73.6012,-29.7106,-68.3201,-4.0739,38.6850,-88.1779,314.2598,56.8886
-94.1781,75.8512,-281.0692,20.0967,111.2445,127.9922,-39.6939,58.2066,11.2989,139.2652,-111.2629,3.7877,-64.5470,-19.6031,-59.5305,0.1041,-142.0590,335.5584,-46.3406
-18.5026,164.4749,-260.5346,58.0737,37.3091,185.2798,-163.0516,23.9657,-62.3913,83.9238,-85.6869,145.0036,-18.1945,14.3540,-82.2220,-59.6022,-65.8627,384.9213,-130.2779
50.1457,243.3484,-110.7801,149.1526,60.6925,261.0287,-215.0520,22.7206,-101.2106,46.4715,-21.9788,236.9437,71.0016,24.1029,-71.2520,-58.4514,61.9297,379.5781,-158.5389
8.7770,211.9331,-15.1817,182.8040,107.7542,254.3187,-263.1486,18.1678,-128.3627,44.5145,2.8243,204.2265,112.7375,42.5458,-72.9366,0.2701,81.0589,256.5406,-205.1462
-76.3238,106.2699,-46.5923,101.1930,74.4643,120.4789,-349.1067,-35.7539,-174.7231,28.5990,-34.3562,95.9180,88.2753,48.4723,-90.0156,46.7026,5.9043,80.8886,-271.4105
-108.2435,33.0088,-95.1527,-14.3009,-21.2673,-57.5532,-416.7282,-92.3104,-202.6072,8.1652,-59.9523,9.3388,50.9579,-12.1417,-108.9846,57.9101,-51.8391,-42.4202,-290.3150
-70.3752,19.1935,-58.0206,-63.0698,-82.0387,-159.7792,-414.8905,-126.0079,-193.0809,-2.5451,-13.8979,-4.6828,57.6862,-82.6109,-130.9920,45.5103,-68.1674,-93.2941,-282.0078
1.5093,17.4884,28.5717,-62.3118,-88.6400,-187.9019,-374.5894,-200.3239,-194.8827,-50.7632,50.8512,17.5011,101.4894,-60.1530,-150.7521,-3.9028,-82.4847,-117.8901,-311.2102
54.4980,4.2775,60.0425,-85.1756,-99.8754,-228.9196,-368.0235,-311.8357,-237.4518,-133.6486,54.8595,8.5119,122.3159,-6.0318,-149.2328,-71.6646,-103.0151,-133.1725,-335.9304
37.0186,-4.1437,4.5125,-121.0581,-122.0858,-283.2806,-392.3909,-338.4073,-270.8809,-149.5121,11.1841,-23.4861,93.3732,-50.2408,-111.7177,-83.4634,-125.6494,-126.2123,-274.6997
-45.7701,-1.7021,-91.6719,-125.5790,-133.6623,-293.3712,-359.7684,-243.7602,-244.7739,-59.2889,-26.3225,-29.1887,43.6260,-143.8296,-52.9138,-30.5747,-172.1785,-117.7115,-153.1894
-100.7793,3.4268,-178.1721,-116.4998,-157.4562,-266.2486,-232.4851,-141.2053,-186.9283,38.3997,-34.3133,-20.0423,9.8101,-153.7211,-13.5242,4.0077,-228.8062,-121.6944,-41.4847
-56.6788,20.1335,-205.2113,-94.6186,-177.4988,-215.2110,-61.6093,-95.3410,-129.2136,55.1642,-1.2778,-15.0833,10.4770,-87.2026,-16.8056,-5.8655,-221.6617,-91.8838,38.7740
9.7222,50.5564,-155.6579,-37.2304,-142.5940,-136.3006,92.9305,-71.7882,-57.3049,1.5119,45.0331,7.7956,25.9115,-34.8495,-44.6732,-2.6519,-150.2128,-26.5328,60.2573
-11.3709,48.2758,-98.3097,-23.9110,-94.3502,-110.8219,173.0966,-74.3916,-7.0445,-75.4548,38.6993,19.2877,15.0317,-38.7438,-53.3118,13.5514,-124.5750,-13.7041,5.2693
-66.5852,-15.3937,-86.8199,-119.7536,-94.0846,-199.2790,153.2751,-114.7663,-37.7005,-116.7607,-1.3960,-37.1705,-8.9832,-96.6279,-11.4911,-14.5364,-172.6794,-63.2056,-53.9379
-45.6096,-68.6471,-82.7802,-195.4332,-106.3370,-280.7247,109.8968,-117.9090,-94.5794,-72.7957,9.0652,-116.4391,-1.0998,-160.2619,48.8412,-63.3457,-194.9350,-73.7451,-52.8157
16.6019,-30.4916,-67.5835,-133.2952,-112.5200,-239.6953,108.6025,-44.1265,-92.8919,11.4105,51.6768,-133.2555,19.7842,-153.9719,61.6784,-54.5571,-156.1602,-26.4932,-32.0622
45.4768,55.8425,-55.0000,-27.1744,-139.9862,-148.5061,100.3491,21.5328,-56.2420,43.9660,55.9285,-83.3238,23.5433,-74.2072,29.4251,2.3859,-100.4732,6.1668,-23.9483
68.0661,85.4003,0.5524,20.0192,-132.8547,-89.0082,76.2753,24.0295,-22.5057,33.0995,47.7288,-5.6408,40.7407,10.1062,2.0083,32.1826,-23.4163,25.1222,0.0845
98.2028,37.1930,103.5985,33.2253,-43.9530,-36.2634,101.8067,17.6422,21.7409,42.0783,60.0566,58.3120,65.4218,55.5304,-21.1765,25.1027,69.7449,75.0510,25.2733
93.5790,-18.5239,160.7942,41.3698,42.3046,14.6454,122.0435,29.4620,49.0737,61.6044,50.7119,69.8823,42.5982,54.6939,-46.6086,32.3434,113.8895,138.2266,7.3228
80.0168,-14.4185,158.7059,59.1805,72.8563,36.1258,37.5520,4.5984,33.7212,54.8489,17.3951,53.3829,0.5641,7.3785,-41.0124,55.3547,105.5935,180.3388,-46.4038
107.0630,42.6734,164.7402,100.2900,93.8694,33.2503,-79.5859,-82.9091,28.1570,21.9086,7.6378,58.4721,0.5287,-60.7398,-19.0695,39.7778,96.4905,184.7096,-117.9419
131.0058,74.4324,154.3022,91.7025,90.5220,-8.1806,-134.3924,-172.7716,33.7358,-27.4522,12.6403,52.0759,8.8640,-111.8612,-20.7383,-17.6314,75.5279,134.4870,-196.1617
99.3846,24.8217,83.3357,-24.2145,17.5150,-102.1305,-182.4608,-190.4953,-18.9696,-52.9822,-0.3809,-8.7477,-13.7236,-133.8621,-14.0992,-44.1206,19.5040,60.0137,-232.1358
37.6240,-59.7629,1.1619,-144.2971,-72.2963,-180.7742,-253.0658,-132.3482,-101.2329,1.4258,-30.0412,-75.4171,-38.3021,-129.2741,8.6418,-4.2768,-38.3834,17.2183,-196.7369
-15.8156,-93.4570,-59.3215,-167.2088,-123.2302,-185.3966,-281.2781,-64.8494,-138.9907,89.2365,-71.5415,-98.8653,-61.0596,-100.5060,-17.5401,39.8089,-71.6258,-10.0800,-141.3365
-43.8925,-49.4506,-109.0254,-129.2027,-160.6852,-159.9365,-300.3534,-49.3770,-167.3819,102.4054,-109.2703,-88.4141,-96.8261,-61.6668,-68.6782,29.1316,-85.6408,-61.5587,-138.8322
-39.7243,51.2890,-128.7140,-70.1761,-211.1797,-156.4674,-399.4403,-85.6491,-231.6592,50.9879,-123.5361,-46.0364,-118.5028,-40.0838,-66.9671,-2.8910,-98.3790,-104.9137,-216.2185
-30.5440,163.3467,-130.9461,0.8035,-267.1252,-163.1334,-505.3878,-126.2253,-281.7549,28.6298,-140.0638,17.3974,-126.3331,-56.2938,-66.5606,3.4285,-127.7429,-89.9568,-311.7098
-41.3539,200.3816,-148.0448,30.3922,-280.0996,-148.8759,-464.5508,-125.8144,-280.8866,45.2413,-159.1841,49.1540,-133.9653,-89.2235,-125.1647,35.5780,-129.8466,-17.9151,-296.1701
-27.9716,116.4862,-118.3560,1.7300,-173.7674,-100.6799,-288.1696,-90.2157,-257.7586,36.9402,-109.6538,31.1509,-83.3578,-83.6272,-146.5993,29.3832,-37.4145,65.5405,-145.9670
65.9796,8.2703,1.8601,-28.7635,13.5959,-42.0153,-132.1515,-70.8284,-226.4621,-27.6160,3.5845,7.2056,33.2541,-31.3074,-80.6901,-37.4238,96.3439,104.0212,-0.0973
212.7094,12.5326,119.0209,-28.6746,132.7997,-4.6391,-68.6857,-74.5612,-183.1199,-113.7582,75.3597,23.7871,102.5380,11.8113,-22.8330,-108.8585,175.4809,115.1834,69.5791
332.9144,141.4935,167.1999,19.8751,167.5279,40.3568,-23.0353,-36.8036,-138.5408,-146.8826,87.6147,104.8292,97.6022,27.9260,-4.2926,-115.5842,232.0033,185.8498,133.7815
405.3521,323.2701,190.6373,136.5098,223.9293,128.6798,48.9543,59.0366,-98.3097,-94.8428,108.6055,230.7395,115.7031,63.6649,31.3898,-57.1415,310.5083,295.9600,194.7265
492.8380,507.6738,209.3655,258.4068,288.2622,208.7617,82.0674,131.5316,-64.4763,-22.9225,134.0311,338.4377,159.2549,131.9200,62.8237,10.8530,351.6616,326.9773,186.1395
634.3599,640.1908,213.0798,297.4734,293.1852,228.2738,65.2803,121.7045,-37.1085,-5.9002,124.7683,395.6436,162.3605,187.9958,39.8921,57.5912,340.4366,289.3398,151.0432
759.0018,657.3503,226.5729,263.3372,295.4947,218.0173,89.2787,58.5361,-10.4269,-42.8470,108.9819,406.7982,162.7489,205.2943,2.1207,93.3754,338.0877,280.4353,156.3244
786.1241,579.7062,253.2923,202.1721,339.2273,204.9749,162.3153,-9.2438,-2.0183,-97.9383,117.7300,356.3633,199.2677,199.6994,9.3620,113.7430,346.9322,280.7690,169.2047
753.7549,509.1709,267.4310,144.9440,355.0244,193.4650,199.5139,-44.0529,-24.4651,-129.1518,126.8656,272.9745,207.1188,191.2453,51.9380,97.6162,344.4309,251.0833,180.2072
735.8541,510.2314,258.8761,148.3853,322.3604,222.0428,199.9243,-7.6639,-34.1302,-95.5634,109.7705,259.8430,166.7829,183.9710,77.0688,66.2971,332.6726,241.9569,229.1304
709.5321,549.7330,201.5519,208.4471,293.8251,271.6806,204.7675,82.7031,0.9053,-27.3249,71.0697,331.5616,141.6333,179.0587,63.2040,69.7768,267.7068,235.4173,264.6591
620.5825,534.8777,91.0941,213.6057,258.7355,229.7872,171.9873,126.0516,44.4494,-6.0971,29.8651,363.5981,127.4944,181.1969,47.0261,103.8871,133.2216,144.9557,203.9285
490.0597,405.1487,5.8154,115.4945,175.4048,73.6121,89.8517,52.7652,90.1880,-34.6330,-9.3822,279.2119,68.6538,173.3106,43.2963,116.6080,22.6249,2.3660,83.8487
361.5233,216.1527,-17.4134,-9.8443,65.8320,-85.3263,45.1499,-66.8546,188.2007,-47.1259,-65.9682,136.8862,-17.8774,120.6939,10.5597,98.7527,-19.4163,-107.0320,-2.1895
243.2133,90.4757,-49.3294,-94.0693,-20.1593,-180.9887,56.9065,-114.7094,303.0558,-30.9547,-136.8587,30.0611,-84.6728,31.2349,-25.0325,83.1289,-49.0944,-176.0392,-23.7208
155.1753,66.9780,-110.8447,-118.2729,-59.7202,-227.0325,45.1410,-91.6378,324.3303,-18.5327,-180.2970,-0.1953,-134.1291,-47.2588,18.5382,64.0879,-66.9974,-190.8530,-9.5011
127.9428,75.6570,-134.9054,-95.4171,-64.0129,-214.7834,-3.3639,-79.6002,243.9496,-8.2797,-172.9704,5.5005,-164.1613,-94.4127,84.0828,13.4063,-52.1750,-125.9520,-5.8899
138.8965,58.7105,-99.8954,-77.2187,-59.2800,-141.7637,-32.4705,-86.2765,141.4439,22.0487,-118.3369,-24.6469,-136.7714,-107.9974,52.6971,-43.0450,-57.3480,-42.5988,-28.0487
140.0308,21.5219,-32.6548,-79.9417,-42.2731,-65.8636,-39.2688,-77.1474,45.3574,63.2467,-25.5758,-83.2203,-58.7750,-82.2239,-3.1456,-51.8613,-82.7889,-1.8004,-37.3710
126.7765,-18.8567,55.0744,-68.1803,2.1206,-37.7926,-40.9483,-87.0581,-23.0236,74.6806,52.0370,-111.9360,-3.5495,-51.2095,55.3169,-13.9690,-64.1357,12.7336,-13.1314
110.5613,-53.1423,132.8993,-64.0041,34.9344,-53.8143,-1.1411,-143.7925,17.4529,38.7582,53.6866,-115.1710,-12.4660,-44.8504,170.8786,17.9576,-37.1261,-0.3730,7.6835
80.6603,-71.3949,154.1163,-100.6096,12.2008,-85.2567,89.8222,-187.1124,158.5484,3.9997,15.7901,-108.2089,-43.5616,-19.8042,218.0749,16.3797,-65.8007,-47.8402,6.0071
