Fp1,Fp2,F3,F4,C3,C4,P3,P4,O1,O2,F7,F8,T7,T8,P7,P8,Fz,Cz,Pz
-103.4898,-99.2758,-91.7063,-127.9981,-59.9699,-82.2969,-39.9681,-1.5663,24.6588,22.4519,-121.3536,-50.3017,-75.3226,72.1465,-5.4720,-51.7301,-137.6691,-54.8870,-1.7780
-449.0813,-411.8122,-364.3996,-271.2766,-95.3439,-226.7513,-82.4204,86.2607,120.4269,118.8443,-493.0647,-43.5391,-221.7143,241.5941,-19.4182,-20.8296,-296.4193,-3.5653,72.8365
-556.4695,-460.9853,-392.3759,-287.7974,-106.6139,-275.5569,-82.5225,88.8434,111.2145,59.8764,-514.4097,-76.6867,-213.5842,326.5776,-96.0757,93.1322,-277.0957,80.2821,125.5889
-356.4297,-268.8326,-150.6405,-196.5976,-70.2995,-185.0293,0.0420,21.2911,51.0669,-83.2618,-174.6820,-91.7002,-63.4026,286.2833,-112.3798,148.4494,-74.3000,120.1067,101.7252
-189.0718,-340.7576,-3.5992,-86.4670,-29.1388,-100.9840,39.4632,-10.5136,13.7139,-106.1049,7.7849,-32.9646,4.4912,235.0040,-36.7363,122.7852,41.2461,105.8434,12.3081
-163.9973,-531.9196,-65.6238,3.4550,-28.7169,-93.1946,-50.9682,-3.8374,-75.5608,-48.7182,-84.9482,30.6648,-51.3125,209.4366,-18.1102,132.9185,-5.6479,63.2365,-77.1071
-85.6382,-316.7743,-94.8461,4.3287,-26.1853,-113.2760,-108.2642,-32.0081,-163.0135,-64.5801,-113.0354,41.7806,-44.6684,179.6218,-47.8107,133.2115,-13.9993,-13.2194,-86.3108
52.1409,81.4268,-12.9921,-95.7925,25.8948,-145.0688,-12.7258,-112.7987,-102.9745,-129.8230,-14.2522,54.4815,68.7909,140.9879,8.2429,17.0980,59.2283,-109.4299,-46.2855
63.7536,209.8806,-5.2369,-145.7418,54.7757,-160.5278,54.4601,-183.0524,-37.9089,-146.7187,-10.0833,95.1660,113.2907,68.8054,34.8868,-109.3536,43.0730,-144.9287,-88.8066
-30.1591,209.2897,-94.9595,-39.7680,-2.6269,-86.8669,-25.7264,-168.9239,-144.6542,-107.8237,-71.5224,114.0165,38.7336,-21.9331,-101.2776,-114.4622,-42.9699,-69.6686,-195.0970
-24.0444,203.0843,-66.5791,113.4800,-41.3105,44.3596,-64.1146,-93.5955,-215.8628,-57.0654,12.9949,100.6632,10.6915,-27.4327,-183.9836,-62.1885,1.6252,24.8826,-193.9431
120.8037,71.5911,117.3628,165.1389,20.7101,123.6625,22.6613,-53.4689,-79.6456,-35.4180,197.0770,91.3567,72.6281,53.2147,-57.1207,-38.8840,141.4128,15.2313,-89.9760
234.6245,23.3397,213.3895,121.6050,58.0398,148.9727,39.8284,-48.0486,36.8664,-37.7239,240.6241,96.3679,70.1559,70.4041,62.9133,-33.5566,162.2546,-52.3155,-41.6539
239.3608,197.3677,133.9777,95.5357,-12.1985,172.4243,-43.4423,-6.0864,-0.5757,-12.7697,129.9248,93.0864,-9.9069,-32.0575,39.8156,-46.7540,88.2013,-53.4208,-29.7827
248.8846,270.9111,89.9158,121.1510,-47.3344,155.8958,-35.2968,22.2174,-10.1824,19.4338,82.1192,44.5992,-7.4875,-167.1006,-12.8884,-93.0957,84.8236,-32.8320,43.1522
299.8050,212.3943,155.9764,94.1011,22.6162,60.4449,43.1614,-49.2933,43.9728,-24.8350,136.4468,-51.3157,65.6397,-278.2982,-59.2197,-130.0638,91.7261,-102.7612,72.1526
256.4658,302.8913,142.3552,-19.8029,46.7967,-45.8699,19.9258,-143.8120,19.2179,-118.2756,106.4614,-127.3795,42.6400,-344.9756,-78.3702,-114.9785,-11.9807,-185.7179,-33.0396
120.9511,352.7010,20.9611,-63.8186,-17.6138,-86.4439,-40.2941,-160.6892,-31.7964,-152.2820,-17.0532,-146.7937,-61.9730,-336.7513,34.8324,-91.5633,-101.1062,-153.6119,-111.8304
101.1337,142.8549,2.7939,15.4713,-16.7673,-83.5426,4.0366,-158.3315,8.4564,-133.3784,-35.8829,-160.5303,-95.8636,-317.0410,157.1385,-159.2729,-39.2374,-84.5170,-50.6160
222.3534,21.9599,124.4119,23.5278,64.7340,-105.8536,63.1382,-207.0663,52.0574,-154.5471,52.0452,-175.4779,-58.6256,-406.4341,65.7346,-320.5640,58.4341,-105.5713,13.7317
254.7101,135.2824,194.6727,-88.4210,78.8527,-147.3751,29.4896,-244.4873,15.9400,-208.9328,62.6425,-134.2859,-52.5991,-548.9414,-81.9279,-400.9611,68.1413,-157.8760,-10.5911
122.8296,113.9360,137.7876,-92.5749,25.6404,-117.2090,2.7297,-183.9257,9.2635,-180.7484,-14.2236,-72.6863,-69.1071,-529.8801,-17.1786,-259.9617,62.2965,-134.7700,-12.5343
6.8146,-91.9175,56.1780,55.3055,33.6467,2.1006,82.5810,-37.8498,133.3121,-30.6822,-61.7312,-75.6847,-36.8124,-312.0251,153.2273,-16.4283,113.0624,-71.6217,75.2232
14.0329,-154.1243,31.6462,110.0515,104.1975,73.8566,200.0514,82.8215,309.9995,98.0948,-75.0831,-109.2766,23.8036,-138.9608,222.5293,117.2243,169.9209,-55.0746,154.0181
55.5915,-18.5644,53.6933,-16.1194,139.3446,10.6572,235.8771,79.0642,366.4806,77.3856,-84.6874,-109.7332,26.1677,-181.4916,191.5900,106.2522,192.6273,-88.4014,136.4308
20.6094,107.9979,60.9680,-143.5533,114.5554,-62.9460,149.9953,15.1904,229.3817,24.4895,-87.8292,-114.2537,-51.1546,-294.5799,91.2399,48.3165,192.5448,-118.4339,62.8609
-94.9216,57.7978,14.5442,-136.1443,81.0044,-24.7194,22.8812,31.2363,32.1171,80.7890,-136.3400,-141.1067,-128.9061,-303.0739,-21.8588,6.0628,163.4522,-117.2144,11.0186
-201.9492,-198.2000,-41.9244,-34.8846,84.8082,19.1300,-9.7242,69.1467,-45.8455,97.5654,-245.1604,-138.1122,-140.0475,-284.2866,-7.6812,-24.3163,108.6642,-118.5548,-16.7096
-231.5369,-445.7699,-67.8803,29.9408,103.4427,-66.1722,49.1718,-32.0334,-15.2096,-77.8061,-323.5051,-132.7237,-130.2285,-333.7101,84.3364,-54.3837,62.7695,-171.1605,-67.9415
-214.2356,-449.7231,-104.3540,-14.6710,56.1970,-177.1857,52.8642,-183.3655,3.8289,-252.0852,-343.5680,-202.0652,-166.1945,-343.0525,61.2718,-42.5900,30.4336,-235.3283,-129.6153
-191.5796,-297.8156,-144.9018,-78.8004,-35.2995,-159.4928,3.6687,-188.5690,-1.8785,-246.1389,-331.4863,-293.2392,-193.0727,-258.2924,-17.5970,26.2723,12.2692,-205.4362,-123.4011
-154.7374,-189.6802,-94.5845,-71.4945,-11.8043,-107.0688,79.4262,-143.2286,10.0456,-229.0579,-225.5660,-296.0248,-117.4888,-225.6842,3.0277,17.9272,58.8822,-88.7820,-37.9285
-134.6600,-187.7426,29.0591,-75.8927,141.0583,-180.4714,247.6499,-242.1330,-3.8195,-333.1875,-49.3801,-234.8714,0.9467,-302.5141,3.3770,-151.9494,156.4074,-37.6899,20.6151
-165.5380,-310.2310,86.8022,-139.1116,211.3263,-291.8058,240.8721,-383.2901,-97.4683,-406.5508,0.2264,-206.8297,13.1780,-374.2953,-138.1074,-297.9278,179.1936,-125.3410,-26.4750
-159.2548,-439.3768,63.0583,-152.4472,130.9314,-285.1071,50.0668,-387.6928,-204.1696,-366.1048,-98.7451,-216.8400,-64.1147,-396.5040,-241.3430,-268.3594,113.0708,-225.8024,-96.9671
-50.1517,-374.3373,62.3352,-114.4367,94.3711,-213.8259,-16.2851,-319.8658,-195.2838,-314.0167,-129.8618,-200.2003,-61.6069,-383.0014,-147.4509,-191.0935,111.1366,-204.6668,-58.7377
29.8233,-235.2187,86.2535,-115.6359,177.8939,-155.7943,119.3452,-270.0117,-68.6777,-273.5991,-54.3139,-135.7607,38.7103,-288.9691,16.1906,-145.0751,195.0262,-101.8193,53.1764
-47.9361,-261.6151,58.7303,-95.9369,219.3411,-70.5662,192.7063,-199.6803,12.1280,-220.9817,-39.8291,-86.9481,65.9128,-180.4394,59.5019,-61.2462,204.4456,-47.8628,81.2793
-176.9072,-326.6895,1.6371,-37.2061,148.9737,-16.4607,106.8297,-153.4632,-38.1288,-220.6083,-98.3578,-133.6670,-17.8265,-223.3795,-39.3783,-25.3503,121.9665,-88.3581,19.9076
-180.1315,-286.6076,-13.2392,-92.2947,84.7141,-92.8166,51.7950,-202.7327,-66.0066,-258.7675,-124.2351,-229.6127,-60.5555,-347.6958,-133.9872,-106.3271,93.5236,-149.0683,35.3307
-82.1762,-302.8401,-4.2852,-212.7362,90.4826,-167.5852,102.9624,-234.1844,51.4451,-228.7158,-130.9290,-221.5416,-16.3710,-329.6645,-68.6964,-105.8854,134.6523,-153.5976,164.5978
-49.4478,-381.4404,-28.9362,-162.7647,116.5180,-103.0534,145.9600,-169.7246,160.5299,-169.2524,-142.3033,-102.0451,25.6621,-206.3401,84.9740,18.2871,153.5722,-134.4745,240.8668
-119.9764,-326.2310,-73.2655,-16.2276,125.1876,-48.3517,132.3755,-147.9683,96.2896,-193.2447,-115.9103,-55.0251,50.0608,-179.2938,97.9529,-4.4508,144.9995,-175.7684,173.3718
-171.1342,-211.1011,-97.9738,-67.9399,93.4518,-147.7830,79.8462,-232.7321,-25.6457,-258.6501,-103.4286,-153.6643,61.6690,-261.4770,-14.2957,-202.2793,110.4126,-277.8096,60.4860
-152.6749,-212.9116,-116.0416,-318.5526,-6.5053,-297.5060,-11.3475,-294.3323,-15.3759,-270.9916,-171.3146,-257.2614,4.8342,-354.2882,-2.9213,-295.4038,11.3884,-369.3299,0.5864
-139.0595,-292.0320,-145.7573,-498.4719,-129.2986,-375.7769,-75.1173,-267.9934,104.7413,-228.6411,-216.4149,-257.5702,-78.0708,-420.2886,127.7947,-201.8502,-88.3427,-413.7345,-13.8718
-158.1678,-424.6478,-168.2871,-456.1080,-187.3582,-373.6118,-59.5868,-206.8170,188.5606,-151.4597,-152.7316,-193.1552,-85.1241,-422.4413,122.2548,-75.5869,-108.6655,-419.1898,-29.1218
-188.7850,-592.7161,-172.6014,-299.9986,-185.9525,-318.6285,-59.4439,-154.9279,175.5310,-74.2494,-78.3297,-142.8429,-62.5882,-354.4119,-23.7107,-44.1389,-116.1096,-395.8417,-67.5786
-231.0480,-562.9636,-158.2914,-258.8380,-184.9238,-285.6135,-115.0177,-156.8501,113.6519,-75.1766,-53.3299,-164.0320,-70.4743,-307.6489,-90.1909,-143.8577,-157.4149,-360.6939,-102.1332
-219.8906,-264.6620,-118.8538,-400.6845,-166.8008,-327.1586,-110.8846,-227.7442,63.4425,-163.3431,-13.1810,-245.3395,-30.5570,-337.4469,-63.6764,-262.2540,-155.8958,-340.2696,-98.1785
-102.1578,-37.6990,-94.6352,-518.1709,-101.8048,-373.8353,-52.0513,-297.3585,37.3897,-258.4986,12.9854,-275.2283,55.4332,-386.2983,-26.8530,-248.9399,-115.7888,-333.8526,-97.7510
-18.1379,-104.8092,-133.0391,-424.6599,-53.4213,-362.3752,-62.4066,-317.2049,28.4020,-305.4259,-54.3343,-185.9279,79.0418,-375.0226,103.7547,-179.5793,-113.0742,-293.9926,-149.5221
-71.5957,-291.5098,-158.1468,-208.7584,-58.3194,-304.8964,-88.9802,-295.4026,36.0748,-285.6155,-102.3216,-64.1265,88.6580,-275.6334,268.2797,-173.7258,-89.0869,-186.0425,-181.5196
-95.2502,-371.0357,-58.3192,-57.8200,-31.5293,-191.6284,-35.3666,-215.6630,13.3608,-206.4184,31.7586,-4.6606,175.3903,-158.4960,177.1487,-143.5771,27.3839,-73.8152,-118.2494
13.4178,-264.8336,101.9657,-43.0787,66.7200,-60.4238,-11.3448,-109.5215,-103.5710,-133.2447,249.1587,1.5932,227.2724,-119.0130,-107.3164,-72.9710,130.0556,-55.8109,-37.8389
80.9470,-55.6871,149.3602,-122.2824,133.0857,-20.1498,-84.0834,-68.5239,-243.9789,-100.0589,310.3774,-13.0007,155.2007,-91.5268,-177.3030,-79.4821,108.7452,-95.7539,-32.4175
25.0989,36.4825,42.8762,-171.1441,101.2558,-25.8896,-117.1452,-55.7030,-253.3685,-48.9405,181.2399,-6.9885,77.9609,34.5112,-40.6699,-76.3947,23.4220,-67.9450,-50.5140
-25.9669,-50.4293,-96.1983,-96.2303,44.0222,55.0422,-64.3294,25.2220,-142.3431,27.5155,34.3985,70.6711,70.9670,141.9054,-60.4098,26.2409,-16.4886,17.3944,-22.7092
-54.5376,-136.9765,-150.1995,3.9562,24.4934,131.8547,-27.3018,89.1069,-64.5807,44.4540,-16.7968,139.1891,74.3298,80.1564,-191.5070,35.3187,4.3742,37.2927,12.9539
-134.9617,-185.2651,-119.8135,-14.3113,14.1959,63.9362,-10.4759,42.4178,-47.5118,-2.8541,1.2844,56.1526,81.5362,-27.1971,-128.5085,-71.4017,17.8320,-0.8309,12.5961
-184.6334,-275.4254,-83.2406,-83.9751,-3.9288,-10.5319,38.2870,18.4317,7.5713,-14.9043,51.0276,-88.5174,129.9994,-11.0656,53.7109,-19.8494,-14.1887,30.2899,19.4608
-104.7362,-247.7500,-77.8032,-80.4459,10.6683,60.9969,87.8378,105.2580,91.6640,38.4706,113.6906,-91.3545,202.5232,68.6656,121.2952,133.9558,-24.0655,132.2659,76.3097
2.4472,-2.8880,-76.8915,-67.9823,77.2030,143.6427,115.1756,152.1478,96.2488,89.1481,126.6128,0.4074,272.1846,99.2861,114.1956,82.1188,26.3962,176.2968,128.3128
-4.5479,142.1361,-69.8601,-118.2752,145.8375,102.6175,126.5755,95.2948,25.8843,109.0455,56.5954,44.2373,304.9876,84.7887,120.9779,-69.1065,24.6509,136.8399,99.0719
-91.5548,-28.8553,-80.5745,-129.6863,145.1101,24.2379,90.7193,70.2130,8.6190,123.1748,-17.3084,83.1884,265.6547,59.2171,113.5580,-49.7680,-95.1405,99.8006,25.9521
-132.0240,-250.1561,-131.3257,-72.5075,67.2556,-41.9248,31.3817,78.6597,96.4173,99.9922,-35.5249,111.1875,206.7337,29.0060,119.1012,14.7861,-208.9994,57.4146,5.2873
-113.2322,-271.6541,-222.6784,-103.3202,-10.0440,-170.6786,30.6946,-3.6324,192.6717,8.9322,-48.1457,-7.8568,190.8382,-8.5132,147.3098,-43.1585,-221.0628,-45.3607,27.3590
-136.4490,-180.9401,-285.5669,-235.0813,-20.1844,-306.0490,59.9632,-96.1147,207.2030,-40.2655,-60.9280,-175.1771,176.4299,-44.2421,117.9735,-75.6048,-178.6617,-105.3461,14.9847
-203.4111,-114.4627,-224.4768,-254.0765,10.6333,-280.8612,29.1892,-38.7604,173.4508,42.9858,-1.9124,-165.7335,153.0065,-36.9204,69.2979,5.0408,-110.3327,-5.2845,-16.9423
-177.2006,-100.3850,-88.8542,-108.0910,34.4365,-107.8377,-29.3786,82.4418,156.8140,124.8542,82.9037,-57.2745,183.3818,30.0738,104.6507,74.3273,-7.1240,133.6632,2.2413
-43.0337,-115.2083,-30.1632,-1.0478,61.3674,38.2540,-30.2351,122.3771,162.7985,101.5066,68.4498,-5.7819,221.8120,105.3299,157.3941,102.5017,78.4294,151.3637,75.0107
25.3114,-69.6211,-58.5286,-22.2899,98.1436,92.4714,18.8681,153.1890,197.7915,132.3388,3.1476,76.9536,182.8409,158.2938,135.8438,154.7578,95.1454,118.7986,160.8736
-52.1209,55.3603,-79.0629,-42.9457,98.2784,120.0082,58.9233,250.2070,276.5540,288.8627,38.1430,198.9297,133.0237,194.9495,97.6695,222.6675,56.8017,137.3665,223.8790
-160.0214,69.7883,-98.2175,0.1447,38.0392,128.9931,49.8415,300.0626,326.2227,348.4083,143.1983,166.8388,132.2212,171.2916,93.8007,284.1928,2.1154,131.2979,213.8519
-180.0194,-122.1947,-145.8813,33.1860,-38.7318,70.5988,-22.3227,228.9604,252.5892,222.5969,159.7850,7.1427,94.4765,65.9664,94.1260,301.4988,-13.6616,46.2879,113.3460
-101.7096,-256.8097,-155.3703,30.0514,-83.0570,-31.7910,-123.3468,120.0344,104.5438,103.8333,74.9754,-43.5859,3.5780,-35.1509,70.5383,191.1801,43.3309,-26.2534,-16.0421
-11.3890,-108.7264,-96.5055,43.0030,-85.8967,-107.2650,-189.2113,30.5198,9.6076,57.0121,25.5098,49.5228,-23.9244,-69.3710,9.5760,16.2167,128.6304,-21.0768,-109.6323
1.2089,122.4122,-28.1581,106.7094,-64.2193,-120.9369,-190.4933,-28.4444,0.4102,-4.2639,74.2294,145.9702,34.7013,-62.9974,-27.2791,-17.8044,191.2830,38.1691,-155.2598
-5.8935,188.2196,14.3655,205.2673,-48.6561,-65.0074,-150.6041,-4.0727,22.9436,-24.5363,138.5251,172.1938,84.8662,-39.7784,55.1754,108.3305,220.1399,111.7485,-159.9893
48.7761,171.2593,13.0223,270.4055,-65.8875,23.7770,-125.8165,70.8006,16.0816,35.0674,141.0886,121.1058,78.9967,-32.0936,138.7507,205.6828,184.8702,132.9879,-145.0870
38.7443,157.7318,-46.1379,253.3825,-104.3507,58.2691,-149.5738,61.3625,-56.2530,37.5168,115.3069,54.8329,37.3534,-75.3676,27.6407,195.6905,84.9341,68.0483,-139.3822
-114.4885,48.3516,-106.0665,215.1805,-122.9434,28.5365,-168.9015,-13.6607,-141.5844,-26.1645,104.5135,88.7650,-4.8987,-100.7025,-137.8935,160.2697,-12.0452,18.0870,-131.4003
-197.2393,-63.8378,-130.2686,194.8518,-111.5673,13.4137,-118.5082,-11.2353,-133.6601,-9.8317,63.9180,186.2430,-24.8815,-53.7457,-107.8426,144.3762,-101.8514,62.6525,-99.1054
-123.1777,18.8478,-186.8914,90.5572,-109.9963,-4.7959,-49.4010,23.1008,-58.5062,30.0545,-36.8678,166.0964,-48.5854,-61.5793,4.4336,112.8872,-221.9917,92.0599,-78.2418
-122.5785,85.8605,-281.3576,-101.2343,-144.3401,-109.7026,-56.1047,-61.8632,-61.8652,-64.7546,-120.2180,0.8665,-105.1964,-205.2325,-11.6681,26.4896,-288.9146,10.3090,-114.5008
-233.2731,-138.4766,-306.5368,-170.9180,-183.4500,-230.6564,-128.3452,-199.5279,-163.8592,-204.1786,-113.7853,-143.6859,-152.9617,-326.6787,-84.0231,-101.7905,-223.6950,-72.1563,-183.6137
-248.5927,-350.1862,-244.0275,-54.0415,-187.4943,-222.1177,-189.1303,-218.3205,-240.0371,-212.9149,-59.4947,-154.9046,-145.9861,-297.5750,-110.3912,-178.6844,-122.1901,-39.6648,-219.5334
-195.6427,-171.5676,-176.0623,42.9661,-156.2819,-103.6847,-193.0856,-137.2472,-239.1904,-127.5965,-37.6303,-69.5308,-102.2159,-207.5527,-133.7527,-133.0785,-73.1865,40.5825,-186.5464
-204.1237,129.9804,-132.9802,17.3216,-109.1890,-12.4158,-137.7975,-86.0413,-211.7976,-73.8717,-50.9335,1.5623,-46.7142,-179.6936,-141.6495,-49.8463,-39.9325,65.9555,-107.7540
-166.0715,128.8797,-108.6532,-24.2556,-66.7927,-22.8823,-68.4252,-93.7585,-176.5972,-70.4510,-20.2747,-30.4610,4.8601,-240.4520,-101.4417,-44.6074,-20.6981,49.4167,-36.3623
-26.6810,-92.8354,-90.6953,-31.7178,-46.8667,-96.5541,-39.8509,-95.8187,-118.7993,-57.7438,99.8674,-127.8161,23.5165,-313.8481,-74.1342,-56.2163,-42.8951,54.9496,9.1023
51.8477,-219.2004,-31.6332,-27.3770,-35.8040,-114.8939,-32.8592,-33.5723,-56.8351,7.6879,214.6534,-151.5388,18.4920,-247.2989,-61.2555,33.3330,-50.3050,104.1904,44.4741
27.2568,-149.0224,45.0614,11.4445,-11.2920,-23.5718,-12.4949,71.1961,-30.4227,84.3932,204.7251,-53.9108,26.9694,-50.6149,-23.0134,155.6266,-21.9559,156.6202,48.7261
-11.1929,-8.6078,35.5864,61.5575,-7.3924,52.6971,-28.3222,117.5090,-61.3431,85.9187,133.9427,53.7764,29.0227,14.4219,-40.0392,153.8970,-16.7808,145.9887,-10.2470
-53.9322,19.8341,-27.4805,59.9923,-56.7433,13.9710,-105.7421,63.1248,-124.0074,24.5755,142.4141,73.9119,-3.3818,-120.2753,-138.8226,47.6398,-7.4581,74.4033,-83.6567
-53.0444,-49.8137,-6.2654,49.0647,-95.4118,-29.1797,-153.4460,-13.7266,-154.1224,-18.1340,183.0307,46.6455,-25.9167,-156.4471,-178.8279,-16.8413,67.4076,30.1989,-96.9562
57.6597,-10.6864,69.5916,89.0935,-63.4012,8.5847,-126.7156,-60.1904,-134.0927,-54.2218,126.5345,42.6244,-9.0580,-8.1689,-137.1729,-29.4981,132.1897,51.5822,-64.3246
139.6092,115.5144,71.5272,120.8260,-18.3415,22.2127,-109.2622,-107.1385,-120.7528,-128.5693,43.8685,44.2767,7.2280,10.8695,-148.5322,-108.1756,106.0508,69.9938,-38.1531
68.2456,85.9732,33.5842,85.0450,-7.6139,-33.1452,-121.3829,-150.4674,-131.1369,-179.8072,101.2303,24.8657,21.8747,-166.8459,-193.1830,-229.9230,54.9331,47.4104,-12.8013
-0.8467,-27.4313,56.9751,24.2088,23.2011,-39.1771,-61.7474,-135.3438,-96.6599,-140.8574,247.9606,31.4623,83.6455,-205.5345,-132.0804,-213.8518,38.5601,36.7839,32.5138
62.4209,44.5630,94.0653,-12.3798,75.1407,45.4621,71.9990,-51.4390,9.6884,-52.6130,264.9657,77.9776,159.3524,-23.5046,5.1146,-38.8834,7.1617,62.4812,75.6191
116.4871,182.0099,46.4329,-22.7740,61.5653,117.2095,129.2913,47.4990,103.7962,19.8477,117.7478,92.7421,157.6489,70.0277,77.6347,71.9585,-57.4866,81.4367,94.4657
26.9179,86.7598,-48.7897,-0.2495,7.5364,101.5431,59.7919,87.7844,106.0790,57.8379,44.5248,59.2695,98.5925,-37.9883,63.6969,-2.7631,-86.1780,82.0108,98.5649
-111.9439,-161.2378,-71.9434,77.6078,30.7271,26.3322,5.9776,46.0699,51.4982,63.9518,177.8924,37.1797,93.5118,-139.7882,42.7461,-104.5730,-47.8530,95.7245,91.4092
-126.5523,-271.0284,-0.1155,183.7650,102.0346,-28.5054,49.0473,-6.0931,26.6210,53.7563,287.5446,31.9954,148.1278,-140.4772,44.2474,-81.9182,4.5101,124.1890,60.5512
15.1684,-138.2526,66.4191,215.5169,100.6212,-1.7104,83.8049,4.5310,46.8699,49.3416,168.9754,24.3157,162.9695,-128.3979,21.3313,-3.3252,36.9500,157.6149,23.4418
160.2880,125.4965,73.8271,125.6182,67.3268,90.8043,50.9351,57.3209,70.6126,59.9587,42.4047,36.1003,134.5647,-102.5449,-33.8830,15.9237,85.4998,218.5367,31.1468
173.0962,273.0601,94.6635,36.0121,119.5147,190.5054,46.8865,110.2868,93.0026,84.3763,165.0838,48.0110,153.4108,-4.8097,-32.6172,-24.4136,160.6031,304.1896,95.2936
120.6165,148.4880,162.7804,68.1815,202.2346,269.5077,101.7570,163.4308,128.4291,114.4795,358.7871,35.7791,207.9798,89.3974,60.7380,-62.2168,188.4011,357.8868,158.5059
109.9901,-41.3449,184.9698,158.9836,191.6989,324.7145,114.0534,213.3607,153.7613,149.8072,357.7372,71.9519,208.4799,88.7618,132.6870,-24.9165,125.2333,353.3564,173.1514
97.0997,-14.9619,109.2105,203.4703,124.8071,357.2231,66.1718,248.6008,160.3382,196.6850,235.8112,164.4896,166.5337,74.4573,115.2680,110.2190,46.3372,317.6648,155.6785
41.1856,135.0673,14.4801,205.5594,105.3985,369.9413,45.4766,256.6069,166.6994,213.7153,140.0189,186.2588,152.5975,161.0077,97.9716,219.9863,40.7049,256.8574,135.8157
24.8749,192.1956,-11.6329,203.9635,128.7423,351.3907,67.2489,208.6017,134.4566,150.8170,55.5043,152.8715,165.4383,285.5179,123.8410,170.6334,101.0850,168.5839,111.0700
82.6069,196.7763,43.9529,247.2034,149.7000,311.0007,85.2795,125.3278,25.5937,65.6491,12.2040,220.2128,180.2825,310.6088,115.3904,53.5510,165.0266,99.7562,62.3067
128.8235,226.2092,123.5547,368.9555,165.5787,293.0398,80.9251,71.3274,-74.4668,29.1720,70.8454,331.5637,191.6196,232.3515,63.8765,32.8812,191.9765,75.5892,-18.2859
110.0955,206.4397,135.2857,445.4719,158.4558,279.6288,36.5407,20.6008,-68.1782,-22.5513,129.7462,303.3285,168.0776,143.7329,50.2999,51.8165,182.8360,39.8075,-92.3654
63.8931,126.9056,63.6804,314.1847,101.2153,208.0404,-31.9417,-75.1933,1.6473,-126.9491,97.6454,190.1287,104.2885,98.6864,89.8099,-7.6124,147.5365,-38.6504,-93.8980
21.2615,58.4762,-14.4528,60.2737,21.8929,119.8315,-47.7908,-125.0005,47.2412,-161.9651,49.5719,154.1433,57.8742,115.5067,119.6704,-53.1509,67.0237,-104.0652,-39.4977
-39.9761,-20.6164,-75.0981,-109.0415,-34.5691,96.0269,-16.6451,-56.5971,55.3005,-67.3804,27.4791,171.7743,46.3827,180.4890,83.8804,22.1115,-56.1118,-116.4856,-24.5067
-115.7613,-122.9527,-145.5222,-149.3860,-58.3926,93.3370,-33.6275,28.1028,53.3694,47.2385,-13.8682,157.3023,28.5719,188.1584,-5.6857,104.9537,-148.5456,-102.9271,-54.0613
-136.9667,-149.1132,-181.2829,-125.8351,-63.0597,40.8911,-79.7871,55.2166,74.3171,103.6197,-58.0659,112.6735,-11.2751,55.1145,-43.2100,81.9320,-178.1180,-98.0858,-44.9146
-93.6304,-74.4859,-147.0407,-111.0771,-80.5470,-33.1782,-59.4274,75.1097,121.5506,120.9114,-77.5146,42.4339,-70.0849,-101.0738,31.9646,39.1493,-207.5766,-114.0157,-3.9881
-70.4880,-22.6210,-109.4265,-169.3759,-125.3941,-86.9403,-11.3649,92.2716,128.9143,123.0401,-91.2013,-33.5270,-132.3655,-117.3258,85.0123,54.7671,-234.6616,-133.5421,5.2083
-72.2102,-62.0953,-106.8088,-237.1052,-154.0422,-109.7567,-29.7743,75.3572,58.6172,127.8972,-82.8683,-42.6562,-148.7720,-56.0313,-17.2288,49.1661,-187.5942,-123.3695,5.2034
-42.9228,-120.8379,-110.1195,-207.0419,-148.9489,-93.4791,-84.3895,53.6657,-20.4378,112.7817,-71.4338,1.4831,-128.4503,-69.1140,-155.1765,-24.3361,-121.3884,-103.6762,17.3536
-50.9505,-140.8943,-127.2364,-162.5981,-155.1890,-82.6036,-96.8106,23.2849,-55.1098,21.6302,-138.5544,-1.4134,-140.7816,-131.8266,-140.0364,-76.7974,-134.4722,-126.7633,-7.5799
-128.2269,-164.8955,-149.6846,-188.2077,-145.2781,-132.9350,-60.4334,-54.6607,-68.8066,-87.1047,-214.3631,-54.0968,-151.7141,-165.6186,-5.2785,-75.8175,-155.6788,-164.1071,-50.4324
-121.9373,-206.2682,-119.8101,-167.2353,-52.2596,-196.0866,-27.0105,-133.1763,-76.8470,-107.2890,-147.9080,-89.3799,-92.9597,-206.9457,62.3510,-118.1558,-106.1468,-161.8059,-47.1101
-24.1407,-165.1839,-70.5101,-95.5830,30.2989,-198.6714,-58.4905,-151.3555,-96.1340,-98.1066,-29.8347,-112.4719,-45.3038,-241.1554,-35.1080,-207.7219,-79.3971,-157.9701,-50.2650
-21.9241,-14.2909,-74.2500,-139.5317,-19.6891,-152.3161,-139.6575,-127.5429,-141.6237,-131.0739,-34.9768,-130.8571,-69.6309,-164.5402,-185.1400,-196.5158,-124.5124,-183.3916,-112.4873
-57.7471,68.1214,-71.7848,-237.5849,-88.7153,-92.9223,-164.9414,-88.5079,-140.6216,-106.0089,-78.9047,-98.5381,-59.2863,-47.5463,-170.5089,-72.0725,-131.1261,-192.9823,-143.7712
41.8213,-30.1606,-2.9869,-217.7774,-31.8811,-58.2912,-118.2236,-58.4568,-62.5215,-2.9461,-23.2054,-48.8740,12.6593,-80.0756,12.4609,-30.5385,-62.9936,-198.4610,-103.8994
109.8512,-124.7825,41.5000,-168.4986,40.2294,-93.9042,-114.6771,-62.8050,-50.4573,31.4163,51.1250,-70.8842,25.3309,-209.4104,85.8210,-121.5803,-17.1851,-237.3847,-95.7236
-10.2277,-42.0202,-5.4404,-177.6689,-10.4030,-150.5065,-174.7517,-42.3594,-152.9407,12.5781,44.3605,-113.4989,-28.2695,-211.1877,-56.7250,-144.5375,-33.6666,-231.1833,-134.4473
-76.6279,71.6546,-78.6007,-123.8923,-94.2298,-132.6322,-185.9918,55.6757,-168.3869,92.9205,-3.6411,-65.5283,-60.9335,-89.8221,-137.6400,-31.3263,-70.8518,-144.7536,-112.9981
21.7446,23.5881,-122.6453,-36.1131,-95.4586,-83.7709,-111.5050,123.6015,4.6084,206.4811,-42.6521,-0.1548,-73.6410,-52.2208,10.6141,25.9859,-110.2584,-121.9488,-27.7550
11.2675,-98.5648,-142.0683,-85.8199,-55.7849,-97.6974,-24.2644,56.6366,193.3663,167.7939,-56.9216,-53.3768,-66.5248,-148.2752,158.9030,-74.6692,-163.3627,-218.9858,24.0196
-160.6307,-123.5258,-149.7063,-187.2296,-42.4781,-132.4465,6.6147,-64.6647,239.6506,10.0199,-54.6312,-141.6178,-13.8061,-222.7062,118.4193,-205.3347,-232.1504,-278.3366,14.2631
-220.8297,-78.5873,-168.5785,-160.0301,-54.5069,-119.3494,-38.8104,-124.0121,154.9079,-96.2120,-85.5968,-109.8314,7.1820,-174.0729,22.0178,-245.9158,-274.2269,-219.6821,-23.1379
-134.4349,-76.8735,-185.6005,-81.2438,-77.5713,-86.1713,-101.9781,-119.5792,32.7284,-110.3255,-126.7799,-36.8434,-49.1820,-81.0887,7.3380,-205.0527,-221.0827,-147.4306,-60.9944
-99.3413,-101.9888,-147.5988,-75.8498,-105.9919,-60.0026,-114.9852,-102.6733,-18.4218,-112.4077,-89.0560,-77.1990,-82.2139,-68.6245,4.4426,-141.9491,-100.1893,-137.2561,-74.8888
-128.5029,-49.0978,-93.1620,-86.7962,-137.4990,-25.9124,-140.4606,-96.5219,-0.2546,-120.8575,-36.9086,-150.5966,-71.6130,-118.1519,-60.4710,-99.9106,-34.8794,-165.6774,-70.0385
-121.8702,102.3420,-114.8265,-44.2177,-164.3240,25.5950,-236.0175,-56.2376,-45.0677,-44.0864,-92.6474,-81.4211,-102.8493,-79.7299,-124.1678,-52.0082,-47.4805,-180.9151,-75.2099
-101.4793,233.6048,-164.3971,38.4425,-149.3010,117.4415,-266.9950,85.6781,-155.8333,156.9758,-159.5022,104.9542,-124.0522,103.2842,-118.5819,70.2326,-42.1810,-123.8155,-64.1226
-97.6791,200.0378,-129.0177,143.0322,-73.4760,252.3014,-145.2829,284.7549,-173.3638,363.4151,-107.1807,240.7669,-46.1259,283.5847,-80.7686,234.9186,0.5914,-1.2115,8.3633
-47.9072,8.9663,-35.0684,234.0959,14.2406,352.8906,-23.7841,417.2159,-91.6050,461.4684,-15.3720,231.6288,48.9892,294.3929,-60.1838,320.0191,31.4773,83.7875,101.9885
62.4849,-119.3077,40.9814,253.2877,75.1607,352.4366,-7.1433,439.7620,-57.6732,460.6288,63.7685,107.5712,83.7644,151.7722,-31.9817,281.7909,70.2346,81.9748,143.3860
140.7969,31.0064,118.0717,189.7522,120.5993,274.3527,-17.2861,365.0996,-94.0502,368.9190,210.1178,-25.2317,101.5596,7.3339,0.2159,172.2458,135.5518,56.3999,127.5178
136.0620,333.2500,205.3364,91.7066,126.4560,169.0389,-35.1447,211.4466,-125.0239,192.9465,355.9297,-69.8029,94.8974,-36.0854,-33.9679,53.6804,159.8529,52.9858,89.2375
117.3968,390.4268,223.5369,30.6712,57.8444,75.2778,-80.8269,76.8049,-120.0438,55.3449,325.9853,-44.5264,22.8402,-10.4994,-95.3127,-9.8536,108.3338,65.6805,57.6911
133.0301,98.7182,134.5212,46.6879,-21.3270,18.9984,-61.4760,41.9139,-64.0833,37.4798,142.6178,-49.6536,-57.4280,-5.5731,-60.8145,-2.9815,37.5775,94.4008,58.6277
122.2494,-155.2666,21.6338,89.8568,-28.3094,-13.7525,33.2875,28.1337,6.1373,36.0564,-25.3225,-104.6920,-97.2301,-51.1805,9.8621,-4.9521,-14.8775,128.7200,81.0764
52.4703,-88.9983,-15.6347,83.5298,4.7023,-31.8622,62.8065,-30.6475,-3.2141,-18.8440,-69.5589,-116.3284,-116.7844,-99.4285,-24.4483,-53.5684,-62.4845,146.9332,72.7290
-13.3116,88.4946,16.7159,38.5190,15.3033,-2.8316,24.4234,-59.8961,-57.1865,-51.7611,15.0257,-34.6449,-97.9982,-84.7087,-75.0462,-70.2277,-98.3085,149.1058,19.8567
-32.7640,129.7387,35.1694,11.9992,19.1485,61.2858,36.6311,-28.6751,-34.9518,-33.7780,98.1361,50.6413,-37.8593,11.3425,-14.9758,-21.7095,-97.4945,131.4173,-28.3024
-7.9340,101.0023,3.8123,13.7298,30.8847,101.1359,65.6861,1.4773,18.8763,-15.1232,21.5565,41.1670,-21.8153,111.2501,34.8093,15.0756,-66.9580,92.8056,-31.2320
44.9763,100.2294,-34.7586,27.6395,17.0637,118.1317,34.9923,22.8263,-0.0324,-5.9842,-134.0627,-8.7293,-71.7749,106.0276,-19.7563,-4.1796,-27.2089,71.6701,6.5505
41.2980,111.5095,-40.0758,41.5447,-8.2938,134.7182,18.7890,47.4338,-28.0459,-1.6545,-154.1479,2.1900,-101.6667,16.3474,-55.2250,-44.6538,26.4744,84.2373,56.8276
-63.6405,153.2095,-7.8390,33.2443,13.6831,117.5340,62.0061,45.4548,2.1519,2.1332,-59.3288,26.6097,-93.1460,-33.4421,-45.8333,-71.6659,95.6680,98.4721,85.5825
-124.7732,178.7997,39.1242,18.5175,69.2002,77.8007,75.9703,40.0167,3.3881,42.7713,-34.5059,-9.7027,-104.4643,-16.9524,-99.3791,-71.9306,147.1496,124.7330,79.2106
-42.7889,64.2034,47.2431,84.2659,98.5653,99.0779,35.4988,86.1460,-77.4265,106.6049,-97.0116,-9.4473,-124.7650,6.6662,-150.5952,-43.4503,166.0795,189.1453,59.8526
34.4999,-66.7528,7.2040,261.5640,111.2009,174.6053,12.5137,147.7060,-160.9330,121.4882,-118.2065,105.4759,-101.8954,46.7840,-94.0781,-5.0075,184.4284,222.6298,41.6618
15.4231,41.7939,6.9912,401.0120,131.6046,190.5636,10.8715,138.0805,-182.0757,79.9071,-41.2421,185.8624,-60.8744,106.6990,-46.5472,12.1853,192.4887,144.6434,1.8772
23.0007,280.3844,76.0635,320.3934,103.0651,105.3125,-24.7433,32.2215,-151.0638,5.1260,60.2132,98.9274,-75.4846,100.3854,-94.1252,-15.9259,128.7584,1.8884,-65.3208
73.1321,326.9911,92.3009,70.2309,-11.9962,0.5228,-86.3136,-105.1488,-101.5954,-114.1908,62.0271,-54.8890,-156.9145,19.3808,-103.4852,-73.1932,20.9820,-104.3120,-115.2070
25.7969,147.1862,-3.4549,-114.1163,-131.2193,-44.8036,-113.9624,-170.5096,-69.9516,-219.1625,-48.9204,-144.4716,-231.2985,-30.7509,-19.8086,-100.6443,-22.7647,-143.4337,-114.5465
-92.9826,-97.6023,-83.5315,-124.6972,-165.8867,-42.1214,-85.5641,-145.9729,-72.7034,-211.0045,-122.9307,-163.8638,-233.6364,-35.7101,22.4597,-90.2532,0.8269,-144.2415,-85.6454
-128.3225,-285.0373,-59.0343,-71.8965,-131.5692,-52.4538,-34.0146,-124.7821,-89.2182,-137.2717,-79.6354,-139.6441,-189.4024,-71.7322,-29.9114,-111.4646,1.6889,-137.2507,-54.8153
-85.5800,-250.6205,-20.8271,-88.2670,-89.0260,-88.8777,12.4956,-146.4989,-80.8374,-118.8067,-42.1011,-120.3585,-164.6318,-123.4194,-83.6544,-168.0269,-27.0410,-130.0331,-11.9414
-67.6239,29.2207,-49.0588,-188.2647,-71.1427,-99.2858,62.0536,-151.4714,-12.0063,-140.3205,-96.6413,-173.4694,-172.8952,-104.8943,-67.5218,-169.7780,-25.1262,-110.8929,49.9627
-61.6510,197.1476,-74.8805,-276.8003,-70.4136,-66.1236,111.7039,-127.3200,104.0250,-111.6986,-149.0510,-244.3426,-180.9469,-8.1850,18.7951,-104.0960,5.0309,-80.6947,99.4302
-13.2887,-25.2740,-31.8607,-251.1309,-53.0998,-54.9217,129.5093,-122.6089,177.1836,-46.4147,-126.1174,-212.8746,-164.2852,49.3299,117.6812,-64.3723,15.0968,-63.1129,90.5580
21.5702,-373.3309,7.4178,-155.2259,-25.8586,-116.6463,108.8184,-155.3070,143.1222,-42.6923,-84.4823,-132.9051,-123.6431,-71.0274,133.7283,-94.8543,-8.7762,-78.6161,12.8886
-24.9246,-444.9850,-27.0250,-135.8314,-43.3039,-206.8106,71.4722,-218.9283,71.2164,-132.6748,-67.4869,-158.4408,-75.5792,-286.6486,66.5276,-142.4476,-24.0249,-128.9661,-76.0313
-77.5259,-225.5014,-44.0129,-194.5646,-84.8481,-244.7545,32.9094,-280.6331,72.6265,-224.9106,-38.2831,-254.7272,-34.1330,-289.6372,49.2339,-135.0701,37.4923,-182.0190,-99.5993
-30.0814,21.2613,46.0159,-194.8428,-59.5350,-212.5080,20.8374,-285.6303,127.0240,-235.6207,12.6204,-236.2882,-3.8806,-21.6236,131.6392,-59.7048,165.4994,-183.0597,-71.9663
69.8593,76.9528,131.6666,-115.9824,17.2739,-165.7986,55.3785,-256.1471,107.4189,-213.2257,10.1781,-71.8415,6.1580,151.1239,172.9387,4.2138,230.5369,-137.5544,-77.9678
116.4526,-50.1141,87.9974,-62.6959,45.7033,-161.0811,92.6816,-261.9249,-0.9744,-224.7366,-84.8995,43.6065,0.3890,26.0871,81.5894,-22.6577,154.9444,-121.5326,-113.5297
93.5763,-139.8107,-0.2532,-84.2881,33.3646,-195.6693,91.8730,-282.4448,-40.2281,-230.8192,-162.5878,-37.7775,15.7267,-132.6065,-12.2738,-99.9323,41.1601,-148.1564,-88.2550
12.0263,-80.7440,-17.5485,-135.5621,61.8120,-223.4106,93.2430,-266.7793,60.0162,-202.9786,-100.3134,-191.0927,67.5119,-111.3494,28.0877,-141.1196,25.5839,-132.8337,-3.1449
-79.3605,-48.1309,5.9312,-124.4457,125.6850,-204.2512,132.9142,-233.5375,148.0583,-195.1065,34.5743,-197.8502,118.1366,-23.0005,128.1360,-132.9662,104.9710,-40.4890,57.2072
-43.1443,-141.8954,33.4465,-11.2494,162.4983,-134.8611,175.5939,-195.5453,127.8265,-211.7561,79.6206,-72.2098,136.9970,31.2749,152.2110,-99.4680,166.9702,51.6811,85.0030
98.7462,-186.9117,69.7525,84.8338,152.3368,-54.3337,188.3623,-145.4561,101.1193,-191.5276,8.7782,10.4681,130.0690,71.8186,106.6998,-71.8621,128.9869,68.6422,115.5089
104.2192,-97.8345,60.7876,47.0312,120.4236,-10.9838,178.5291,-109.2540,104.2010,-125.7862,-64.6076,21.9745,114.1390,78.7864,60.4509,-89.0934,36.7435,32.2379,119.8507
-36.8162,1.7598,-3.4534,-32.6541,112.1417,-10.3242,162.5224,-78.3777,58.6077,-54.8543,-39.8301,42.8020,113.7230,63.4440,33.9106,-110.9945,3.4325,23.2750,85.5680
-56.6813,86.8841,-17.1306,-41.9272,143.3886,-15.8139,159.2428,-19.3721,12.2728,-10.4138,62.3490,52.0849,141.4045,95.0888,50.0908,-59.4345,39.9448,70.2982,66.6252
49.4707,192.3724,38.6768,-24.5171,163.2896,5.4034,161.9422,25.2434,44.5751,-3.5238,105.2860,33.3646,168.9503,138.0716,119.3668,10.3052,67.2943,109.7498,71.4827
49.5024,184.0687,52.8068,8.3471,132.1151,55.3394,125.5229,29.1519,60.7483,-1.0412,22.4331,88.0488,163.1476,129.3202,164.6724,8.6492,82.3107,93.6845,64.1246
-31.4744,-14.5650,1.2743,101.9651,71.0697,100.9401,46.3258,51.7462,4.2310,25.3728,-57.6917,214.3012,113.8823,129.0862,121.6256,9.4848,115.8491,60.3682,62.1030
-36.7592,-192.8528,-37.0918,162.4445,-6.5907,98.3244,-17.6829,85.2081,-9.4076,33.5495,-30.1184,237.1615,27.1167,166.2737,47.1135,83.8829,103.2392,34.1710,77.9795
-20.4264,-138.1051,-38.6950,88.5045,-87.3631,45.8727,-41.0377,64.1728,50.2089,16.6999,10.0959,116.0150,-50.2126,153.7802,15.6793,120.7995,1.8091,-13.2249,62.6145
-55.8391,77.5433,-41.2845,-30.7036,-115.2123,-11.7185,-43.3412,29.9793,95.8175,48.8589,-29.0707,19.1302,-69.9295,76.0160,27.8660,44.7267,-100.8626,-57.7561,17.5240
-96.3579,200.9639,-81.9164,-88.9987,-90.7303,-44.2613,-25.9376,39.8020,135.8405,107.2925,-99.0931,3.4815,-70.5177,16.2414,66.0554,-30.1184,-138.9909,-52.7215,10.2503
-157.7861,51.5925,-170.4933,-108.9812,-92.5621,-65.7894,3.0503,44.9180,187.9475,80.1119,-153.2684,-60.0056,-99.3105,0.7806,98.3886,-14.0131,-159.6501,-48.8323,29.1214
-260.1031,-248.9207,-254.7331,-136.1875,-132.9325,-99.4836,-7.9884,23.6099,158.0270,6.8245,-191.5178,-181.3969,-120.2769,-6.8081,52.1256,25.9549,-208.0531,-98.9424,-5.7143
-302.1590,-325.5634,-272.2225,-177.0310,-167.0914,-127.6115,-82.6250,31.7457,38.0734,30.5945,-204.3836,-184.6087,-122.3441,-28.8386,-73.3570,24.3946,-259.1835,-131.3995,-80.5284
-241.8137,-68.5246,-236.3980,-203.7549,-200.2180,-100.1906,-151.6346,74.4638,-24.3281,123.8316,-199.2310,-32.4559,-137.1606,-55.2314,-140.1497,15.5047,-257.3637,-88.5946,-93.8561
-171.9227,105.1304,-186.2019,-192.5157,-218.5079,-34.3583,-133.4435,94.6851,38.9030,126.8437,-162.8011,50.5902,-117.5711,-51.0470,-60.1392,17.0908,-191.3579,-50.8027,-28.0357
-153.7840,-122.7264,-139.5620,-205.0092,-175.6057,-33.2306,-75.1856,54.4694,120.1790,22.0077,-53.6460,-79.7598,-49.1941,-20.0034,40.3514,-26.0781,-146.5041,-92.0011,8.3472
-165.3318,-413.8932,-124.7043,-270.1630,-132.1670,-107.4479,-106.9315,-15.2666,96.2156,-38.4079,54.6040,-229.1274,-50.6944,-12.4700,1.7650,-89.4270,-189.3562,-165.0732,-52.1463
-152.1811,-294.3077,-129.9453,-252.8324,-171.7158,-120.5841,-213.6010,-14.6655,-16.3472,24.2350,43.3221,-140.9455,-127.1560,1.8565,-109.5670,-29.4264,-236.7305,-202.0403,-127.1700
-87.0137,94.4069,-106.7815,-111.3024,-217.2632,-29.7519,-236.1859,80.2914,-92.7278,98.5154,-32.5898,105.1659,-124.8611,86.0791,-117.4831,141.1307,-210.4699,-195.2670,-133.6953
-39.0903,226.7458,-94.5721,-27.1757,-175.8817,34.0444,-155.0676,129.0969,-91.7775,74.0272,-70.0523,203.6521,-47.5818,139.7576,-24.9988,172.0858,-179.1562,-161.6937,-128.5243
-70.3440,-24.1202,-138.6263,-53.6232,-113.1010,2.8337,-103.2711,48.5175,-97.3308,-0.4217,-83.2746,65.8771,-17.1079,46.5267,35.7841,-24.1140,-181.3349,-121.9648,-163.4591
-112.0839,-244.5940,-141.5274,-54.7761,-102.2282,-59.8321,-98.8982,-51.6619,-128.6167,-56.0241,-49.6515,-86.5885,0.4065,-66.5876,29.5960,-196.4128,-159.9716,-96.6626,-167.7106
-107.1568,-120.8614,-53.8710,-32.6065,-108.8302,-109.1247,-84.4713,-83.6697,-139.4055,-107.8445,67.2769,-69.5689,46.1738,-44.9866,-16.4734,-156.5036,-138.3892,-72.1395,-118.5662
-71.4741,117.0513,-0.0861,-52.8022,-97.6779,-118.6892,-108.8777,-79.1098,-172.9224,-132.6115,131.2629,39.0377,30.5485,27.8112,-98.0230,-19.0904,-152.6588,-11.5335,-99.0955
32.8810,119.8196,-6.0876,-36.0710,-62.0023,-53.2843,-163.5688,-50.0531,-228.4327,-77.8086,63.0752,77.4067,-12.3823,51.1006,-139.1049,49.8612,-101.8943,84.2093,-92.5137
167.4556,-2.0511,49.5984,43.6472,14.5552,39.4866,-103.3722,13.8843,-166.4753,10.9632,32.0502,41.9585,55.1467,86.5028,-55.8228,36.5985,44.3923,176.8493,-3.6375
141.9669,44.5840,130.8311,93.1669,101.5937,87.8353,55.9747,85.0025,1.8945,75.6739,105.5180,52.7991,163.0040,148.0799,56.8302,17.3202,128.3811,240.7135,110.0182
-12.3894,161.0014,102.0895,108.6101,136.6255,108.3038,126.2325,133.4080,85.5000,116.0274,123.8701,149.5989,167.1860,139.3827,73.4615,37.3176,86.7882,267.7313,124.0061
-13.2972,112.4103,29.5881,113.8643,127.0661,104.0752,85.5877,124.5910,69.3315,94.0114,72.9892,226.3387,133.8518,64.3271,56.8903,59.5278,39.0414,261.0638,66.6383
143.0997,41.1781,51.4460,74.0954,116.5601,42.1861,47.4230,60.8141,64.6031,19.3931,97.7062,185.3921,160.7861,38.8207,83.1833,63.8693,38.0314,246.0513,11.5805
185.5811,155.8416,116.8573,40.7920,98.0369,-12.9666,9.3089,40.0795,32.0090,18.1032,170.0844,77.1027,188.1088,91.9009,84.0959,93.9558,29.7649,224.0690,-56.0080
88.5789,277.5046,117.6187,63.9897,57.5744,-8.2963,-51.8668,78.7421,-44.7112,75.1454,156.0165,18.4954,159.1449,116.2437,33.5399,85.7629,6.6009,144.5704,-115.4109
46.0421,186.6870,78.7041,52.3722,26.0415,-29.6815,-63.9763,43.4563,-38.9581,33.5631,76.8787,36.6492,107.3968,34.4114,16.2782,-48.0306,0.4615,20.4059,-97.3089
97.7075,29.9744,73.4806,3.0770,26.3191,-81.6847,-23.0034,-45.9170,22.1937,-45.9950,44.9347,79.1092,61.6963,-50.9777,42.4445,-117.3572,14.5813,-26.4224,-44.0123
151.8379,29.2762,102.9734,47.7261,33.8480,-31.7834,-17.5689,-8.3835,-18.1461,11.9811,86.3243,109.9379,31.9360,14.7333,30.5680,39.4375,31.1762,38.3212,-46.5658
158.2980,130.9939,127.0924,153.7543,25.9232,83.8139,-46.3282,120.1044,-102.4853,130.1002,146.9508,109.5413,29.1188,160.2991,-25.9738,142.2824,29.7947,76.7505,-69.0326
131.8835,153.3732,143.2908,175.1992,26.9671,85.7726,-29.2676,150.5128,-76.4980,150.0798,188.0523,63.8696,43.7945,165.0313,-29.6914,-7.5720,16.7132,11.5363,-37.1847
146.5462,70.8790,174.0427,111.6781,55.2557,-15.7282,30.8737,88.2069,10.0535,94.0267,214.5039,16.3315,54.7204,23.8479,76.3918,-115.4165,13.8178,-60.2310,4.1819
221.4051,34.6962,187.9253,40.4893,65.4779,-71.1226,53.8525,38.7808,51.5939,13.2595,212.2011,31.1616,47.1421,-60.5744,194.6161,-30.9955,2.0805,-56.7194,-11.7167
232.3636,128.2700,145.1845,15.7454,38.4650,-37.7043,29.5998,20.9300,77.2823,-52.5615,152.1289,83.5407,35.9156,-12.5322,182.9257,18.8450,-17.8391,3.6069,-37.8420
132.6740,207.6777,113.2912,75.6846,55.0425,50.6660,48.3128,55.1776,109.0247,-3.6738,92.5045,92.4333,67.6420,80.9449,73.5814,36.8333,26.7573,104.5446,-8.9215
83.1897,151.9727,163.7142,146.8465,144.1991,147.7272,132.3646,135.9967,91.4691,118.4486,117.5123,50.1379,129.6223,154.9407,22.0030,157.6538,135.5523,225.1885,37.0042
176.6860,92.5202,226.7541,138.3058,197.8775,177.8857,170.0789,169.3111,32.6389,144.1822,179.9559,25.5008,142.4089,174.8699,60.5337,189.4293,211.4055,295.1725,50.3432
285.0785,128.8645,234.3456,152.5659,174.3482,144.5862,127.8144,148.6185,6.2022,104.4612,180.8008,56.3307,106.0760,126.5831,95.9187,53.8715,252.3126,282.0358,67.7413
280.7610,138.4528,227.0213,258.8997,158.9517,141.0567,109.7112,158.8982,-1.6275,127.0131,104.2054,96.0758,73.8773,79.5553,73.9263,31.1411,304.9966,227.1626,99.6591
188.8317,106.2592,199.4252,276.6930,144.1570,161.3127,109.1798,168.3512,-75.9505,130.3446,-15.5385,78.5479,13.6568,87.5502,14.1698,128.2644,298.8575,166.8987,68.7581
104.8716,169.9941,115.7913,127.7263,59.2267,119.5372,35.5206,101.7985,-181.3972,21.4433,-83.8247,24.0522,-73.5863,87.0822,-14.4990,79.3777,211.6812,116.2307,-21.2410
81.6122,240.4820,68.9730,15.2943,-2.8686,43.0094,-20.3429,9.7558,-180.2934,-84.0185,-2.0335,16.8994,-73.5250,41.2238,25.7679,-33.4656,176.5307,91.9796,-52.3948
89.3855,138.8566,113.7132,51.2538,63.9150,21.7489,45.7947,-25.6233,-94.7357,-81.7876,98.2975,62.0251,8.8334,28.6097,33.8194,8.2280,211.2760,91.9444,-16.3531
79.2080,12.3689,106.8280,125.8163,136.9496,52.5791,96.9564,5.5900,-88.2876,-19.9014,0.5452,90.9594,31.3653,84.5204,-56.6286,89.8923,175.7605,97.0769,-26.2429
49.0055,81.7257,-14.7823,159.7792,91.0064,81.3102,42.5166,52.8628,-148.4364,19.2530,-164.0968,113.2874,-3.9781,129.4876,-90.3411,63.8806,70.3870,86.8791,-81.9220
-0.9560,240.1155,-83.0331,165.8985,27.4039,98.8289,19.0634,40.2312,-131.7233,-9.8760,-109.8576,178.3217,7.2743,119.6336,5.5108,24.2868,18.5145,48.0721,-92.5909
-67.6414,274.6911,-10.0817,165.6349,40.9180,136.3224,54.4416,-8.8632,-80.4727,-68.5934,91.9948,225.3359,40.7174,122.3595,32.1316,69.1257,24.9655,23.9992,-73.7771
-76.2578,159.1095,68.4801,171.1588,55.2623,205.7947,25.1083,23.3640,-106.8976,-54.3281,180.4114,177.5619,36.0939,185.4396,-69.1052,159.8762,32.6817,82.7066,-73.7822
14.7386,5.7876,49.9792,147.4611,27.6501,248.7852,-28.0631,114.8105,-125.2986,31.7516,126.4039,99.2219,19.1485,228.4670,-94.4166,190.5800,46.2634,177.0022,-41.2834
93.7116,-16.6869,6.2041,70.4566,25.7971,207.9551,0.8587,143.5834,-43.5215,93.0830,55.3428,88.1528,-1.0680,160.1829,-4.7800,113.4063,60.2901,186.6806,48.9583
67.4306,145.8120,34.2565,32.6358,55.6816,145.2077,38.7912,138.5969,38.4166,110.9995,35.4638,132.1333,-32.6534,50.5136,50.1828,53.0016,52.1083,111.6211,115.0423
21.3991,279.2843,102.3950,92.7130,44.5876,140.6881,8.0049,155.5342,36.5067,108.0498,48.5089,170.4057,-42.9772,39.8339,38.8141,107.2564,37.1777,39.1115,111.3841
50.0995,217.7286,93.4134,133.3827,-19.0243,147.7547,-29.4385,129.6705,13.8024,81.8370,9.0681,176.2480,-49.8532,115.0765,-10.6255,158.2124,17.2965,-6.6887,92.3696
85.1581,116.5601,-8.3104,72.1629,-80.9227,122.7685,-28.1839,96.7682,41.5493,88.4768,-96.0743,146.3850,-106.8283,151.6390,-77.1644,160.8835,-13.7698,-27.1224,105.7424
26.7496,87.1768,-81.2297,8.5425,-126.3017,118.6736,-24.4109,156.7621,108.5241,151.6546,-147.0607,80.9262,-184.4067,116.7812,-57.9304,213.3801,-14.4055,-18.3888,117.2754
-67.1466,6.6402,-69.7855,23.7050,-200.2999,110.0566,-82.4283,185.6012,120.2120,144.9600,-115.2347,-20.0949,-242.7981,53.4065,23.7466,204.5730,20.7468,-47.1798,43.8672
-57.5108,-82.2948,-38.0623,55.7565,-312.3290,-6.8923,-243.2626,44.1980,-7.5541,5.7931,-83.6367,-116.9578,-294.3198,-39.2802,-35.5388,1.9741,31.5355,-158.3602,-128.3651
43.8791,20.7281,0.0318,38.0397,-368.2097,-180.3039,-402.1470,-131.0229,-174.9200,-141.4242,-30.9525,-116.4258,-298.0976,-146.0963,-200.1139,-179.6731,20.1682,-254.1320,-271.4919
82.6488,208.4177,55.4699,-7.2804,-282.2882,-252.9797,-381.5978,-198.8789,-201.3929,-209.1389,39.4097,-18.0771,-208.9974,-172.8195,-216.1654,-169.4877,26.7157,-247.2565,-265.7748
17.2603,197.9923,42.3962,-33.2975,-132.3298,-208.5205,-228.2067,-206.6118,-117.9909,-222.4808,-16.4432,27.5015,-105.0877,-84.5154,-93.8037,-109.8620,6.4177,-187.1012,-171.9506
-41.3492,5.5038,-64.7132,-28.1992,-59.9024,-142.0371,-137.9313,-185.9041,-79.2259,-194.7642,-164.6576,-26.1678,-57.9174,-2.4557,-25.1833,-62.5682,-71.1908,-114.9347,-103.6545
-44.5610,-150.6528,-128.1740,4.2178,-47.0126,-92.7818,-100.0439,-137.2281,-86.8997,-147.2498,-186.6431,-22.0476,-10.4196,-22.8016,-17.9315,1.7511,-114.4447,6.8574,-40.7029
-33.1102,-170.1967,-79.1095,64.5877,29.4790,-30.6408,25.0581,-109.1289,-59.9238,-114.7518,-76.6262,90.0480,81.6985,-33.8632,4.9875,-26.8711,-56.5830,169.8470,65.9795
-21.2672,-78.6709,-10.6927,127.6031,163.1452,82.7673,190.8122,-65.0270,-2.8300,-59.6385,19.8035,156.7993,157.2003,92.2765,48.9392,-104.7698,34.8292,287.8048,149.5491
-26.1739,18.0206,13.6689,147.6166,225.1561,219.1694,232.1670,57.0912,32.3899,43.1959,78.0923,121.3219,150.9745,227.1037,87.6017,-29.5250,74.9840,291.9797,135.9431
-59.3514,-1.3359,10.3924,112.4337,177.4748,263.3579,124.0141,154.4938,16.9732,117.8164,92.4637,74.0827,84.8080,185.7047,48.3472,105.6213,61.4714,201.8338,73.1101
-56.5091,-84.9936,-1.4604,36.1671,123.4005,177.8917,16.6856,133.1731,4.7365,119.5818,58.4837,37.2647,51.3141,64.5313,-49.3092,104.7102,39.9327,126.4598,53.3913
-8.9584,-87.9708,10.5516,-47.6477,140.9091,93.1148,51.2002,84.3249,106.0063,104.3455,68.3195,0.2831,89.1668,44.2478,-10.1897,49.0370,35.0619,150.3294,93.3043
-18.5592,-53.4494,40.8419,-64.4891,173.1228,94.7127,163.2174,94.8846,270.8827,124.0002,92.4699,7.2841,103.9161,76.6504,146.1767,22.7449,14.7616,219.1096,149.4221
-65.2738,-94.1395,9.3615,-18.7576,142.0955,111.4866,193.4493,138.7184,316.9578,171.3218,-9.4191,16.7009,44.7487,78.0603,138.8549,13.3381,-48.0542,242.8208,201.7024
-20.1701,-129.0217,-67.4653,-50.6663,100.3991,97.7151,190.0719,170.7804,274.1413,189.4074,-133.3256,-66.1214,30.5198,92.0264,18.1371,98.2624,-95.1878,234.4085,258.6159
55.3830,-90.1802,-63.3168,-167.2690,139.6749,81.1651,287.1627,141.9265,307.5892,124.9626,-108.1132,-169.1193,105.5571,77.2911,75.6991,193.4829,-78.3064,227.5863,293.5778
-1.2111,-134.9489,-3.4742,-176.7008,201.1131,46.2383,372.2487,53.7464,355.9688,30.4255,-55.2045,-167.3352,120.8154,-29.1682,185.7577,101.4085,-69.7357,205.1719,262.8816
-126.4735,-313.8627,-26.6977,-79.3661,169.4319,-6.9552,305.0287,13.7641,304.9997,10.1751,-86.1213,-128.3194,30.0435,-86.3122,86.3231,-22.4342,-121.6617,185.8984,196.4292
-141.9972,-357.4973,-88.5047,-92.1345,90.4939,-15.8407,220.4809,51.1675,258.9989,55.9288,-80.8401,-165.9320,-26.6983,-30.5613,-31.1042,-30.5854,-149.9371,204.2717,165.8199
-59.6564,-118.7554,-64.1063,-209.6159,72.9142,5.4615,225.0603,56.3229,288.8773,91.1056,-25.6800,-222.4380,-2.1012,-42.5312,56.6799,-137.0473,-116.1648,208.3365,166.7394
-18.7803,113.3482,-23.7782,-255.0478,83.3824,-3.9659,210.2565,33.5073,320.2662,110.3182,-36.7671,-196.3000,29.2068,-94.5004,184.2592,-193.0934,-116.6909,140.7356,151.5702
-52.6001,48.1968,-66.7062,-245.6162,52.7791,5.7089,173.0296,99.5791,361.0490,145.8249,-83.7351,-101.0623,51.4457,52.3574,209.8635,207.0462,-165.1808,45.7415,137.1037
-88.9229,-179.9337,-102.9153,-249.2452,15.6952,73.0925,193.5451,209.2859,392.1763,196.5380,-93.5286,-16.7443,63.0050,254.3606,185.7836,593.8849,-150.0607,-10.3434,148.9245
-101.2116,-287.2899,-60.0589,-197.7576,-13.7743,93.8361,149.3749,220.7863,253.9834,230.7091,-75.5345,-20.3861,20.7168,172.0682,96.3753,280.3613,-70.3797,-21.6376,133.1326
-108.4530,-225.8665,-27.1089,-115.3479,-79.3206,29.9978,-29.7938,157.1061,3.4786,211.0418,-28.6016,-112.4640,-49.2049,-43.4263,-23.2567,-194.2787,-26.9993,-17.6684,59.9008
-64.2703,-90.6526,-37.5629,-102.0953,-127.6495,4.1109,-126.1815,138.0072,-65.1675,171.1802,9.2474,-159.5659,-74.7505,-38.2353,-9.3038,-63.2587,-1.5094,-39.5453,16.3074
53.8056,28.9825,2.6265,-78.3974,-75.4265,47.7885,-47.8423,174.6924,56.1824,192.8642,12.3650,-69.2233,-54.0469,92.4122,76.0098,265.4661,75.5169,-107.0588,56.2735
115.7372,14.2533,108.0904,31.2686,-2.1896,51.4625,-21.1195,189.4911,67.1993,230.6646,105.8692,29.8611,-20.6128,91.6074,-5.6432,264.1106,136.6341,-181.7676,79.6316
69.1316,-116.9996,174.1062,81.9776,-23.8038,1.9694,-146.2596,149.5723,-122.6231,184.8893,256.6045,1.5326,-2.8535,15.2187,-194.3130,182.3213,96.5904,-215.0586,11.3197
78.9326,-102.4862,141.4844,-9.5775,-83.5147,-14.4737,-228.8765,106.7621,-277.5557,145.0803,169.1351,-63.0356,-23.5343,-11.2272,-215.5937,81.4269,12.6605,-193.2452,-43.8431
145.1777,113.0461,52.8084,-95.7073,-80.0939,2.0390,-133.5441,111.0846,-192.1448,217.8796,-99.8813,-54.5030,-23.0850,-31.6002,-59.2948,-271.1933,-27.1834,-114.0623,10.1238
43.3376,143.6384,-11.5261,-63.3616,-45.4198,1.5574,38.9997,129.9133,38.4586,262.7927,-124.8655,-41.7341,81.0594,-69.4874,45.4491,-508.0665,-16.8954,-13.4156,86.5040
-128.7408,-148.8075,-1.7381,19.4041,-42.7876,-0.6668,122.8697,119.5595,120.8438,166.6494,67.1930,-66.2607,203.7918,-79.3230,13.2503,-254.1231,14.1453,20.7642,91.8115
-43.0635,-256.3520,43.1539,39.4436,-52.5162,14.7147,66.9281,110.8170,-29.9710,89.9839,62.9899,-40.4603,200.0501,-65.6496,-44.0655,40.9690,26.5875,-27.5452,76.7845
166.5404,128.4465,41.1806,-29.1795,-48.8113,23.8314,-39.6773,135.1698,-149.5022,154.1854,-113.7188,28.7398,125.6720,-30.6628,-53.5999,-2.0951,-6.4408,-58.2354,83.5014
121.9218,489.1456,-1.4523,-103.4258,-53.1382,21.7058,-91.3842,162.0008,-68.3352,237.4927,-136.1545,18.6903,124.3875,41.0554,-39.1695,-77.0905,-40.4693,-16.9183,63.3753
-71.9449,294.4019,-11.1100,-107.1935,-67.2810,16.0879,-82.5711,156.9567,32.3705,220.3952,-20.8605,-73.3447,178.1496,80.8461,3.0394,-33.3435,-24.5859,34.3256,15.7729
-85.3336,-176.2550,15.1946,-77.8456,-54.7839,-5.9561,-63.0962,109.3074,9.3057,125.8617,30.8475,-134.1831,194.7974,27.5158,81.0962,-90.7253,4.9598,45.4546,-3.0366
27.6518,-340.7258,29.0799,-63.4681,-11.3097,-27.6024,-55.5782,27.9156,-26.5253,17.4267,13.2076,-129.8137,182.0875,-30.2327,113.1634,-184.1327,4.1767,41.0252,2.7912
45.9608,-124.0551,30.2513,-48.7118,25.8169,-14.7338,-44.4043,-43.1548,-3.4535,-65.6170,-8.3244,-107.9942,196.8888,-0.0392,47.0410,-128.0256,-8.3333,57.5789,2.9233
-30.0725,131.4041,28.3971,-46.2986,56.6381,0.5976,10.6308,-79.3878,1.7996,-125.9858,-19.9114,-88.0146,253.9391,48.8377,-25.3892,-65.8339,-16.4278,109.6089,2.2477
-91.3561,164.2142,7.3347,-49.3914,119.9654,-17.5397,106.2976,-105.1068,-38.9794,-167.8790,-3.2700,-55.5194,317.2705,35.7214,-14.4848,-132.1866,-11.0410,181.5310,-9.7071
-87.9285,-14.9896,-8.4778,25.0704,191.4576,-10.2018,157.4321,-108.2065,-64.6361,-137.9163,20.1954,-8.4969,323.3123,26.0162,55.3351,-222.1164,33.1266,225.1133,-36.9511
-51.2324,-187.4595,16.8278,126.2964,196.0847,64.6548,129.7396,-60.9262,-29.2791,-39.0590,4.1662,18.9821,260.6803,85.2884,121.6723,-262.5434,78.8918,207.6058,-27.9146
-57.5856,-165.4766,41.1244,76.1753,144.7355,123.8729,98.4660,-23.2950,36.1751,1.0479,-24.3495,-18.4185,201.8172,134.9740,129.6945,-230.6589,50.2220,133.0250,19.9894
-91.6284,-50.0012,9.0962,-75.3131,112.1192,92.0333,81.3207,-54.9101,34.5736,-66.5354,-29.3854,-98.9982,179.6311,94.5277,72.8007,-114.0076,-31.6928,3.1943,20.6519
-92.3498,-73.4152,-68.6285,-113.5402,83.1899,9.9584,17.3373,-108.8625,-65.6255,-145.9828,-47.3495,-141.1713,131.4129,23.2773,27.7751,-55.3666,-98.2014,-161.9918,-41.1790
-153.3132,-228.8999,-173.0408,-65.6084,-7.0714,-64.3859,-63.8324,-138.4203,-156.6858,-192.7301,-114.2425,-130.0474,30.0677,-3.4992,13.1890,-137.7576,-147.3386,-292.2905,-70.3362
-345.9527,-336.2350,-285.2876,-102.0416,-121.7715,-126.8951,-91.2706,-162.9360,-152.4227,-221.3512,-212.1386,-141.5117,-65.7130,-31.1741,-47.5923,-200.5467,-174.9195,-356.4417,-27.0897
-496.0861,-332.5458,-346.7758,-208.7647,-180.9780,-187.2607,-101.2584,-197.3799,-87.1200,-208.4507,-302.7880,-215.8244,-129.3745,-120.7912,-114.6876,-200.5638,-158.7026,-415.9163,14.0115
-504.7974,-252.9161,-358.2589,-301.3104,-204.3317,-254.3526,-144.7008,-246.5921,-12.2226,-186.3200,-373.0299,-294.0350,-204.4123,-206.3440,-93.9571,-239.5689,-158.8075,-501.4854,-16.9247
-544.8192,-168.1821,-418.0676,-370.2830,-255.8457,-320.9212,-191.1387,-299.9249,36.4785,-219.7982,-449.7634,-290.1578,-307.2410,-184.1194,-74.9308,-205.5716,-221.2671,-549.5773,-93.6847
-669.7107,-241.8077,-526.5800,-359.4124,-320.5396,-350.2678,-212.2320,-305.6316,32.1065,-256.4696,-514.4005,-199.9488,-380.0875,-98.2135,-127.5846,-61.5921,-251.3821,-530.4705,-132.7714
-694.9547,-510.2073,-531.5797,-246.8371,-334.6552,-350.6998,-211.5611,-280.9837,10.7159,-263.5330,-456.4940,-130.1357,-363.1990,-90.1022,-122.2437,-77.1963,-185.5499,-506.9831,-115.3038
-567.8214,-679.1679,-380.1667,-200.0319,-294.9086,-381.1679,-201.1826,-324.0913,-12.7073,-335.6713,-261.5884,-170.6091,-286.0922,-166.2091,-53.5857,-222.0578,-123.0036,-519.5983,-120.6703
-418.7358,-503.4657,-226.3140,-332.4720,-272.2096,-422.4249,-220.8570,-402.7739,-95.5662,-445.9528,-118.3462,-265.3929,-243.8107,-204.2811,-78.6533,-160.7201,-144.8580,-528.8561,-181.3260
-320.3896,-171.3634,-211.7811,-495.3968,-301.7583,-403.5494,-267.1253,-388.1797,-175.5256,-433.8376,-157.1541,-304.9650,-264.5299,-194.2007,-140.3719,-8.3806,-200.4841,-491.2770,-212.4582
-279.6161,-31.2723,-293.9308,-523.7717,-310.6219,-364.3767,-252.7342,-324.3008,-117.3380,-336.1449,-257.0595,-281.0364,-271.5247,-228.3315,-99.5228,-69.7580,-222.3766,-419.0623,-170.9995
-285.2393,-177.8835,-331.2647,-442.6176,-232.6980,-392.4695,-168.0859,-349.1039,-31.2348,-326.6024,-262.0500,-257.1005,-217.5611,-289.9084,-62.9091,-208.5137,-194.6396,-362.4478,-130.2565
-278.1787,-430.9920,-270.2937,-343.2795,-139.4830,-451.8613,-126.4025,-430.0485,-114.4295,-393.3747,-202.1616,-262.5922,-170.3183,-311.2020,-122.9807,-287.3962,-147.0726,-351.5452,-136.4448
-250.9361,-540.9553,-212.7031,-272.2455,-139.1933,-450.6457,-170.7405,-447.1205,-257.8408,-423.2847,-187.5334,-259.2086,-214.5097,-308.7447,-172.8113,-342.8728,-148.0230,-356.3218,-158.3363
-267.5770,-424.4422,-250.9569,-237.4168,-211.6499,-385.9608,-230.8215,-382.9709,-267.2164,-405.6789,-218.8948,-187.1259,-327.1751,-265.8354,-196.7141,-151.9855,-205.9895,-330.1126,-174.4626
-276.7603,-199.8945,-286.9178,-212.0504,-249.7540,-316.9951,-242.9804,-292.3356,-203.0704,-350.8628,-196.2504,-76.3381,-384.6722,-145.3866,-242.8497,202.6310,-216.9728,-268.2576,-166.5744
-148.5194,43.1593,-177.7524,-173.3299,-197.4260,-278.7157,-168.2774,-238.5533,-141.3887,-265.4412,-80.4031,-26.0377,-300.2499,-68.0977,-193.8675,82.9035,-123.8580,-181.6358,-107.6629
63.9940,244.6590,3.1830,-110.5369,-91.0326,-243.5586,-32.1666,-243.9629,-26.3846,-225.8284,41.6647,-4.6776,-145.8574,-118.5676,-25.9353,-342.0266,-10.1341,-81.3173,-44.2682
185.2543,215.6267,92.0342,23.8000,-5.4580,-151.2144,31.4424,-229.0827,59.7798,-239.5896,110.9152,96.3318,-56.1664,-132.1347,37.9744,-149.9657,63.1412,-7.7574,-44.6046
223.3799,-22.0832,131.8156,221.6240,45.8856,-14.8187,-15.1510,-130.3014,-15.9556,-183.9115,208.4915,194.7692,-21.5396,-21.2014,-57.6508,425.6255,154.6351,33.8116,-53.3004
329.9472,-32.6031,265.2266,329.8022,126.4868,80.4238,-1.4873,-25.5228,-107.1310,-44.3174,384.4590,176.4953,60.9665,58.3730,-87.1410,408.7806,293.0125,112.6479,12.2434
488.2697,318.5104,431.8401,270.0985,234.6511,118.8889,140.3383,9.3830,-24.6423,36.1000,508.9204,189.3982,164.8673,69.4463,26.4326,42.0911,385.1198,224.4967,84.4958
535.1629,550.5842,464.1223,202.3948,276.1453,138.6390,234.7146,8.7558,100.7886,18.8851,481.7702,333.8698,194.0115,118.8194,113.7653,38.0475,368.7979,265.2479,75.8184
479.9987,455.1675,399.9915,252.4566,259.3775,124.6520,210.4833,9.2298,89.5506,13.4818,444.7965,389.5452,199.5047,164.0547,106.3064,146.5513,336.7408,252.3800,64.2223
489.4556,410.3899,413.9955,317.1997,299.5971,105.6348,219.9970,34.7871,31.6060,61.6367,547.7739,263.1566,280.7136,168.4828,119.9606,172.7873,385.4921,311.8445,136.7336
561.5914,535.7438,500.6049,314.8472,379.4379,182.4377,305.2496,122.5487,48.3807,105.4625,663.1815,212.6956,377.8813,231.8526,198.1495,452.6126,446.3478,411.7587,210.7423
558.4230,532.1622,514.3456,337.2038,385.2791,313.0081,338.6885,211.7068,86.1648,128.6410,627.9222,348.5439,402.4479,299.0703,242.4222,650.5754,430.9627,422.1020,211.4861
520.8466,389.7894,475.6241,429.7627,360.7000,348.3838,320.3542,209.2870,115.2796,172.6494,573.8993,467.0994,415.3134,254.9432,229.8522,299.2341,412.2436,368.8454,225.5340
578.5787,374.7341,519.6169,483.5949,416.1121,309.7331,358.6586,190.2736,194.6367,247.0875,661.1861,459.4553,473.5055,241.8486,255.3121,22.0256,453.2760,333.1913,295.6706
640.2078,469.6035,583.4731,423.4659,475.7358,301.0227,397.0010,247.2332,270.6995,301.8491,736.9261,400.3801,491.0293,321.8707,297.4725,283.9406,445.0318,272.9594,299.9254
540.1443,422.7150,499.1204,326.5168,405.5538,272.9450,304.5176,273.2811,232.6669,288.0809,646.1312,328.5522,407.6637,249.9056,241.2197,402.3255,331.3938,160.5842,196.0094
364.3027,189.6060,343.4681,287.9239,264.3451,178.8411,165.0419,185.7638,159.7662,231.4066,544.1049,245.6306,306.6443,19.3690,166.1629,62.6660,245.4504,74.1003,131.2786
317.6183,50.4283,320.7935,256.6869,192.3897,124.4549,160.3595,116.8188,206.7799,206.1548,555.8266,164.2327,267.6254,-39.8385,229.7434,-115.7831,253.8495,56.5517,182.1127
402.4984,229.3676,393.1161,138.3726,193.7962,158.9630,250.3582,161.5264,303.5140,228.0638,548.3000,85.7046,267.7127,114.4557,325.3672,59.3432,266.0444,76.8336,237.6878
461.8950,446.4968,391.6183,37.0723,199.5899,190.1236,258.4696,227.0549,270.7155,251.0943,462.8119,56.4976,264.6013,229.3046,272.3524,219.0524,265.4112,99.0967,221.9501
439.2203,293.5667,340.0136,128.4451,205.1693,168.4211,183.6980,240.5363,146.2996,270.7209,413.6665,113.4250,247.4609,244.1921,150.3566,292.4812,308.5094,97.6496,195.0437
416.2599,35.9627,349.0398,291.7043,221.3393,133.5410,162.1329,245.7396,105.2977,314.5907,416.7746,159.3907,216.0367,226.3865,104.1552,303.1735,338.9678,99.6478,203.1727
429.2415,189.1533,384.5515,261.0021,217.9996,131.1423,215.5338,275.0387,161.9528,350.6595,417.7704,112.2933,192.6243,168.6357,125.1122,159.0420,294.2965,162.1049,225.0158
415.5423,495.0981,371.9293,100.0565,204.9694,184.3110,266.4156,298.9866,215.0910,329.9544,429.5188,59.9294,210.1743,123.2226,193.5965,64.6042,260.8945,227.6601,257.2266
363.4431,421.2617,331.7179,69.9803,239.6230,245.1102,296.4286,279.9613,255.5770,271.5829,400.4385,82.8925,250.2727,143.2199,289.9792,192.2359,309.2301,195.7284,302.2017
330.3589,175.2040,297.0522,166.8260,299.6552,221.0909,318.6389,214.9254,293.7105,212.5380,261.8565,122.1271,255.0278,148.2481,304.0416,238.3762,367.6364,136.1763,308.3140
305.6986,160.0458,272.4901,217.4350,302.0683,140.9367,309.6210,155.2215,252.2850,169.6353,145.6916,114.5216,211.0191,131.4839,216.7599,56.4151,377.3646,169.2962,243.8126
267.4911,237.5098,281.8914,198.5227,268.0095,140.3637,270.8667,165.3722,140.2766,191.1134,191.3292,88.1828,166.0936,197.9509,164.3144,-14.3465,375.1328,240.9760,184.8011
290.3410,271.8085,328.9283,161.2600,285.9763,241.2639,242.3901,241.8227,114.7816,295.4368,288.4304,109.9890,161.5994,305.6051,179.0844,141.5863,386.2622,249.0503,214.6055
370.7904,401.2761,363.8543,109.2482,335.1593,319.0553,225.8525,300.5488,195.3272,362.1660,302.7147,185.4389,178.0122,327.3594,156.0995,231.8063,385.0182,198.9149,275.3678
348.9845,506.8167,347.8452,71.1539,333.9908,278.3259,195.7791,251.0541,195.8692,263.2428,273.5612,213.9013,161.6777,267.6748,88.1784,147.6123,346.7393,118.0007,243.4979
192.0001,361.0706,284.7210,86.8175,288.7590,149.0890,162.2412,98.9539,74.9301,68.6856,237.2721,147.4124,109.4558,183.2937,74.0069,41.2359,277.7258,34.7808,120.3192
67.0272,111.4427,197.5087,155.3461,239.7904,43.5699,145.1080,-33.7555,10.9881,-51.7137,163.4222,110.1874,78.8986,111.5863,136.0236,-24.8371,225.6076,8.8876,17.6082
53.6822,-5.6596,120.9302,253.8628,183.2221,29.5287,136.4879,-59.2481,50.4036,-65.6797,77.2754,165.1627,82.2319,102.2647,180.9242,-76.5923,230.5903,19.9306,-12.3168
85.8371,60.6817,78.8458,310.5376,129.6761,45.7955,127.1581,-37.6064,54.7422,-54.4569,24.1772,184.0382,58.6610,117.3172,126.8414,-109.0066,246.4990,-13.6614,-14.0798
122.3414,287.3384,64.3262,273.7204,97.0705,24.2744,110.8702,-34.8900,1.4148,-36.0670,0.9784,124.1617,-10.6529,75.0686,34.8703,-126.5549,205.7633,-65.0117,-34.9507
140.6476,414.1435,69.7014,234.0172,53.9613,12.4153,68.6087,-10.1704,-7.5406,15.7767,-0.2291,90.3976,-75.8048,41.8267,41.3061,-122.0517,137.5241,-70.6520,-67.3250
99.6761,122.1566,80.8488,244.5056,-8.6607,37.1107,9.8079,35.7689,42.9405,46.5643,-7.2139,77.9061,-116.6048,77.1779,127.9590,-67.3663,83.0631,-81.0761,-66.3417
2.7719,-261.7055,38.1451,178.9594,-48.7073,14.7593,-18.5865,13.4890,92.6089,-8.7929,-77.9451,27.4413,-151.8998,48.6138,129.7207,-17.6692,-16.2405,-139.7380,-32.5908
-122.5675,-143.1385,-92.1192,24.8115,-81.7682,-74.9167,-20.8120,-67.7086,89.1022,-92.5306,-196.8465,-7.9097,-188.4344,-81.5723,14.2504,-46.5569,-178.5995,-190.1474,-50.5404
-231.6176,221.3235,-224.0216,-34.4761,-160.6261,-139.0083,-61.1429,-107.0471,4.8048,-127.3919,-279.0000,-24.8486,-241.0569,-117.3047,-66.6296,-69.5570,-274.1871,-207.7929,-147.9417
-237.7245,154.3118,-253.3320,18.4465,-246.4939,-148.5860,-135.5900,-104.3597,-89.4691,-152.6496,-313.7790,-86.1250,-316.9507,-11.2090,-40.5596,20.0198,-233.9208,-219.1768,-211.9104
-171.5340,-187.7978,-217.7786,34.0902,-263.2230,-152.6077,-161.4476,-116.5632,-102.0880,-198.5872,-361.0605,-106.8692,-363.0963,32.8449,-24.3295,104.3518,-184.9649,-199.6572,-185.3374
-199.7004,-207.1020,-220.9977,5.2795,-217.7577,-151.5130,-123.5213,-117.6804,-112.4065,-188.6128,-405.2932,-15.8811,-335.6831,-41.7256,-110.7397,35.3586,-219.7406,-121.5118,-159.7631
-286.6928,-1.9979,-240.1080,-11.7901,-147.5002,-121.2203,-79.6390,-72.4255,-200.0086,-99.4043,-357.4763,31.9683,-267.5628,-55.0788,-194.5913,-49.9730,-241.9248,-15.6486,-155.8111
-206.1164,-35.4903,-174.4176,-33.0543,-61.3898,-77.1819,-43.8392,-10.3476,-226.1488,-18.2142,-228.7179,-49.2495,-200.6141,54.8401,-152.6728,32.8035,-175.9159,83.8160,-92.1442
-7.3600,-228.1756,-57.0272,-19.1352,0.6468,-51.6466,-23.4793,27.2978,-128.3136,2.1597,-169.8143,-109.1641,-167.6795,120.0780,-92.4664,142.1368,-103.4291,135.4709,-13.9947
35.8842,-207.7541,-24.6353,40.8617,-17.7246,-90.3926,-72.9793,-9.9468,-89.9735,-49.8548,-255.4231,-88.6886,-221.2741,23.6587,-165.1401,60.4117,-92.2133,87.1020,-32.7830
-76.2696,6.0169,-90.8486,32.6427,-93.9326,-207.7334,-169.8578,-136.9283,-157.3502,-177.6149,-360.6322,-90.0196,-333.4018,-127.9915,-255.1218,-105.9521,-101.3244,-9.4269,-109.6128
-140.3998,99.9834,-147.4636,-8.3313,-154.9339,-302.5488,-207.2040,-230.7988,-175.2259,-279.7867,-362.7526,-90.9045,-375.6055,-184.4302,-204.7254,-131.4055,-98.9613,-37.7799,-167.2411
-135.0162,-42.8482,-152.1861,77.7881,-172.0497,-284.1648,-182.2153,-193.0762,-157.0683,-260.9844,-296.3544,-2.7909,-312.6564,-157.8368,-135.4521,-33.2174,-90.8087,-32.9947,-224.8862
-116.1119,-212.7539,-123.0439,182.3271,-147.7332,-244.2712,-175.6982,-152.9392,-195.3604,-229.7036,-212.3557,78.2835,-242.9168,-141.4201,-183.6456,28.4455,-53.2832,-115.3714,-267.9879
-39.9046,-143.7884,-41.9084,113.8490,-83.5041,-285.4297,-179.9744,-222.3604,-197.4431,-274.3891,-104.4022,13.0309,-218.2866,-146.3205,-235.7391,-12.1068,17.6017,-216.4162,-243.5293
56.6638,109.3746,62.4735,10.7204,-26.7971,-319.7142,-167.2429,-262.2175,-125.3012,-262.8892,-24.2424,-122.1879,-218.7551,-143.9336,-194.4418,-107.7067,57.1651,-183.9201,-198.2696
51.0251,170.7719,75.4459,38.3884,-52.4192,-272.5189,-185.6562,-184.0379,-114.0973,-164.9105,-49.9888,-159.9986,-245.6911,-147.9631,-139.7216,-160.0588,12.6828,-98.7791,-197.9086
-38.8989,-99.5687,-44.3089,61.2690,-156.3257,-259.9715,-235.6664,-144.8229,-172.2880,-165.0337,-168.6979,-112.7406,-291.8434,-167.0794,-132.4677,-113.6131,-107.6699,-137.9316,-232.8490
-125.7096,-305.7303,-209.0091,-26.6061,-268.4156,-346.0751,-258.9693,-214.0771,-208.2730,-268.2634,-325.0639,-119.3267,-325.4060,-179.1077,-158.7784,-43.2930,-258.7700,-231.4485,-303.4087
-205.6434,-129.5892,-316.4481,-117.3778,-350.5052,-388.6033,-263.8714,-243.8087,-253.1642,-286.7773,-456.7188,-183.1597,-343.1470,-162.0750,-185.7251,-48.3114,-357.7252,-205.7563,-383.8562
-248.0575,113.6573,-313.8326,-141.9817,-372.0240,-293.4780,-257.2246,-175.7515,-303.0981,-213.0202,-466.1841,-175.8155,-335.2961,-100.3171,-160.7061,-103.4819,-343.8003,-109.3354,-365.3217
-198.9213,17.3384,-230.2197,-109.7434,-284.9488,-167.4419,-197.9610,-107.8298,-259.7671,-162.8596,-338.1250,-85.9953,-271.5308,-18.6929,-122.4213,-135.2969,-271.7580,-76.0175,-250.9700
-137.6980,-233.6602,-167.8566,-19.9673,-135.3995,-120.9857,-138.7876,-81.5003,-171.2366,-139.2716,-191.2233,-27.4816,-179.5926,15.9056,-176.1339,-136.2886,-223.7818,-65.1855,-193.9097
-136.3184,-258.7317,-147.0317,62.6097,-50.2787,-130.8251,-156.3495,-67.2318,-144.0390,-117.5739,-101.0090,-18.4380,-120.8527,-7.4788,-252.5353,-120.7813,-183.5784,-1.4103,-211.6112
-101.3538,-116.2775,-82.7688,82.6200,-52.1471,-139.2608,-181.6196,-46.7270,-133.6172,-90.3228,-66.3756,2.9696,-116.4552,-45.2385,-228.7730,-88.8421,-131.8068,46.1010,-175.8880
-14.5707,-39.8303,-9.2778,105.1640,-70.4034,-147.9646,-175.1947,-4.4486,-123.7715,-14.5083,-123.1412,9.6909,-168.7079,-89.1909,-205.1982,-65.7422,-123.2649,12.5517,-92.9835
-27.9473,-5.4482,-54.6023,138.5712,-96.5882,-188.1982,-228.5139,35.2081,-190.6635,62.5604,-236.8026,-46.5135,-236.9619,-121.2070,-264.1273,-88.7777,-158.4510,-27.8349,-67.3570
-145.6225,40.0529,-162.8059,92.7792,-136.3994,-244.4529,-295.2546,18.9913,-277.1781,33.7343,-256.2962,-105.6221,-226.1686,-98.3753,-276.8281,-146.2913,-166.8590,10.7785,-89.5207
-196.0984,-3.8442,-181.9505,13.7256,-138.7295,-242.6592,-227.0832,-18.5417,-284.4292,-47.2098,-182.0296,-91.8383,-146.5710,-61.3081,-232.6498,-160.3186,-151.0474,92.2834,-106.1503
-155.6138,-104.5386,-138.9871,22.8203,-108.5246,-159.2677,-112.7804,-8.0439,-266.4633,-66.5926,-170.7617,-28.0158,-123.7838,-55.0669,-262.1522,-66.0231,-155.9730,117.1497,-124.7637
-124.0191,-97.5596,-118.7641,75.9342,-106.3674,-84.8211,-123.8779,23.6023,-248.6810,-36.1976,-193.1090,8.5723,-163.9071,-24.5043,-295.9436,61.1601,-160.2771,66.8969,-126.8375
-102.6073,-25.3624,-92.9487,83.6410,-118.5963,-87.7292,-181.3455,40.2326,-158.9296,23.2776,-100.6824,-22.2134,-168.7617,5.7805,-217.0376,56.4823,-148.8231,21.4350,-72.2019
-83.5190,-28.3016,-72.8158,80.0655,-115.3666,-113.2740,-166.2142,65.1628,-47.4089,100.4480,9.0726,-81.3488,-152.1823,-66.7028,-124.9977,-85.3251,-162.2699,12.0616,-6.0107
-125.8484,-46.7116,-134.4428,72.7080,-137.8995,-111.3008,-153.1330,76.8018,-25.2170,101.7249,-72.4213,-105.6425,-173.4020,-146.5997,-96.8331,-179.6860,-213.8372,-22.9313,-15.2255
-216.6228,-32.3043,-241.3914,-14.2898,-207.2034,-124.6591,-207.2042,38.5671,-71.6865,23.1882,-291.6931,-113.5348,-216.1956,-108.5708,-85.4013,-148.8203,-297.8188,-86.5682,-120.9219
-310.5099,-126.4886,-318.8123,-157.1214,-302.2262,-181.7981,-288.3271,-8.1276,-145.4339,-24.1450,-436.3503,-174.8248,-291.1771,-110.3578,-123.5846,-124.6967,-424.2332,-106.3506,-264.6986
-422.0396,-309.8337,-389.4250,-242.6531,-412.0854,-241.4749,-364.2338,-46.0394,-242.8642,-71.8465,-436.6573,-276.0503,-398.5068,-252.6912,-213.0667,-182.6299,-542.0057,-90.3476,-346.5813
-494.3087,-345.3870,-453.1560,-266.2944,-471.8768,-261.2582,-373.9033,-108.2472,-282.9137,-182.1838,-370.2740,-326.1804,-416.1749,-312.0250,-220.9327,-218.0638,-571.4025,-93.9704,-312.6759
-446.0570,-253.9387,-451.3438,-308.9698,-406.5698,-215.3067,-273.4060,-142.4445,-220.9750,-217.2097,-336.4809,-277.0006,-306.9133,-185.8841,-154.9998,-158.9247,-529.9526,-80.8696,-227.7318
-377.8069,-278.3336,-396.2360,-337.2820,-286.1062,-88.7542,-181.3956,-82.5700,-155.5412,-107.6655,-362.2040,-159.3781,-225.2908,-49.0057,-158.3381,-81.0986,-463.3156,2.0906,-174.5977
-377.7261,-365.8134,-319.2905,-222.5585,-209.1707,71.3245,-191.0249,6.7978,-120.0378,-5.7622,-339.6084,-36.8050,-224.0750,34.3487,-201.6121,-58.2010,-356.9554,116.7453,-134.2718
-313.2480,-291.7606,-201.7382,8.6812,-139.9861,164.3712,-193.8434,53.4472,-41.6958,32.0601,-184.5027,41.7668,-195.9126,77.6314,-181.7917,-66.7607,-244.2859,195.3845,-77.4966
-148.5414,-144.1340,-97.5824,138.2537,-65.9388,144.3244,-137.7277,82.8408,36.8998,77.7469,-48.3046,60.0794,-144.9874,-1.0668,-140.6806,-63.2484,-198.4198,207.9863,-49.7877
-83.2800,-125.3920,-102.3521,68.2237,-60.7673,81.2423,-113.6990,113.7447,33.1566,109.4424,-110.0716,19.9668,-141.3126,-99.1337,-110.9053,-34.3365,-172.7564,185.1256,-55.2045
-158.6249,-146.4194,-161.9070,-43.9564,-82.9583,82.9898,-83.0982,140.8286,31.1182,119.1085,-249.1265,-46.0734,-128.0524,-7.4587,-44.0000,14.0748,-88.9009,203.4549,-22.7016
-203.3625,-65.2689,-160.1695,-70.6879,-36.0870,161.9000,40.2138,188.1944,104.1291,177.0329,-243.2094,-64.8804,-70.7471,128.7221,17.5338,47.8772,-14.7570,256.9928,36.0452
-193.2869,-11.8118,-123.2573,-57.5033,9.7169,232.1752,123.7490,245.3160,133.0007,244.8198,-133.4875,-18.4616,-57.1568,89.7414,-12.0686,37.9777,-32.1993,237.8393,24.6653
-197.8927,-134.5585,-120.7415,-10.6819,-40.6858,243.6759,50.5728,256.6613,36.8692,239.1938,-94.1768,9.3128,-99.8058,40.6702,-89.0867,15.1116,-75.3059,137.9553,-49.3841
-146.3656,-265.4850,-113.5662,108.4088,-110.4380,213.2117,-40.5021,201.5022,-67.1749,177.0010,-140.1742,-19.0379,-118.3600,105.2841,-109.7524,11.9702,-63.6910,66.4798,-81.9790
-21.2955,-123.0131,-66.7961,174.4953,-110.6059,146.5191,-47.5160,92.3451,-92.6712,71.8370,-185.1902,-25.2087,-113.1832,80.0903,-68.7011,1.6695,-33.5915,52.3601,-65.6750
8.0702,199.5656,-51.8341,56.2806,-93.5333,80.2603,-78.9591,-22.5998,-121.0670,-49.6193,-189.8589,26.5214,-126.1393,-48.6727,-60.2625,-24.2285,-50.6669,57.7517,-84.4301
-117.2881,253.0543,-113.0569,-113.5966,-138.8700,105.0829,-186.3095,-53.5051,-206.6376,-82.4932,-148.2402,55.0628,-143.9215,-49.1541,-139.6383,-22.3652,-114.0442,75.6098,-143.3008
-225.5629,-84.4675,-172.1057,-157.7569,-231.5412,190.7420,-271.0421,-0.2202,-261.9443,-39.7257,-95.9604,-2.7722,-164.1997,38.2082,-216.3306,4.2361,-178.9896,65.5963,-172.6909
-203.3655,-346.0990,-172.9577,-134.8050,-287.2454,185.5577,-272.9597,25.3043,-215.3504,-29.8810,-117.1557,-84.0523,-200.3998,24.0191,-178.1747,5.4095,-220.7650,-3.5316,-153.1048
-147.9447,-226.5186,-190.9293,-142.4814,-261.4088,99.2698,-209.2533,5.1731,-110.9526,4.1850,-217.6424,-57.1443,-208.7457,-24.5444,-73.2048,-13.4048,-244.1263,-55.8600,-104.5817
-169.3035,-34.6869,-266.4738,-117.4462,-200.7290,103.3862,-111.0039,33.7316,-10.6619,121.0413,-283.1861,94.4595,-151.0393,7.3009,-12.1619,1.8306,-230.5082,-41.1881,-30.3004
-216.8273,-38.9642,-283.5861,-6.4545,-140.5473,222.5760,-36.0791,118.5624,52.1753,181.8493,-240.7991,194.7675,-71.9445,61.4153,-6.6493,72.2135,-159.0013,6.0772,38.8790
-187.9198,-59.9911,-173.2052,115.6472,-55.6374,322.0226,-26.1092,183.0879,34.4924,150.3709,-142.9568,129.2926,-26.5332,101.9506,-34.7871,147.8602,-90.1429,91.8293,50.9848
-107.3896,15.0360,-49.7182,164.5855,20.1322,332.9778,-41.8491,189.2827,-44.1292,151.3710,-63.8947,52.7177,-9.0199,142.4603,-85.0223,132.4946,-90.6041,183.8075,32.6584
-67.8955,32.5287,-11.6001,118.0794,17.5721,271.8448,-33.1637,132.1068,-58.0920,140.2063,-31.1811,109.0440,8.3787,129.7152,-94.1481,16.5988,-118.0718,158.4269,55.9861
-73.3878,-36.2484,-37.5053,9.1727,-16.8774,180.6690,-8.1700,47.1275,44.7251,35.8042,-61.2294,170.3274,23.8746,59.5398,-21.6350,-53.6266,-137.4048,44.5924,100.2674
-97.8451,-93.2597,-118.6212,-86.0012,-17.6978,132.9608,14.9911,11.8338,141.3096,-20.1462,-150.0345,97.0663,16.4699,15.0409,75.1706,5.1547,-201.0862,0.2073,81.9625
-177.1158,-143.4149,-237.2782,-133.4304,-34.6282,142.4924,33.9051,24.4579,130.8077,38.3823,-231.3849,-30.3601,-5.5071,15.0207,125.9194,71.4225,-287.7679,5.4523,1.1821
-292.7685,-154.7753,-299.5565,-174.0444,-90.1854,137.1076,32.7256,18.0796,72.6462,64.1442,-252.5668,-92.0110,-0.2718,29.1671,97.3331,71.9375,-299.4134,-30.5822,-59.6471
-330.7403,-37.0335,-285.5664,-207.9208,-112.7613,122.3582,16.2515,19.3690,53.4254,43.2246,-261.1660,-60.7983,43.1960,64.9156,20.1795,107.5267,-246.3693,-36.4795,-49.5747
-254.0787,73.1740,-255.2429,-166.2711,-77.7685,172.6630,45.3051,81.0641,71.5616,79.9350,-280.0116,40.4717,91.7128,101.1394,22.0619,187.1305,-179.9042,34.5498,12.1562
-146.0257,-62.6180,-164.7616,-35.8134,-7.6783,243.6300,141.5513,129.9515,79.7253,108.0217,-196.6260,115.5882,132.9637,68.4486,134.1200,178.3121,-71.6711,103.7552,67.5890
-63.8318,-316.5083,14.3906,95.6874,80.5842,236.2113,205.9782,90.2327,47.6176,48.1001,16.5718,67.7564,173.6819,-43.3451,165.0879,75.6836,40.3929,157.1575,66.7768
-0.6773,-286.9186,124.9666,116.9226,118.4767,184.3468,149.9994,30.1987,-1.7233,11.6349,144.6628,-39.7251,181.9091,-140.8722,38.5667,0.9378,56.8158,210.4478,25.7297
35.4563,61.3821,70.2869,10.3467,72.6174,177.3203,44.8773,41.7229,-12.1764,77.9879,40.1103,-82.0306,124.4183,-120.1422,-32.8613,-7.7764,39.0795,211.4206,15.4350
19.0480,278.8283,-27.8715,-79.4268,39.7560,210.5023,9.7306,94.1706,21.3793,144.5181,-134.7171,-46.5002,40.2320,-13.2681,47.7127,9.8587,95.8294,173.5555,61.2093
-22.5919,139.1936,-67.8829,-17.9049,59.5844,238.9025,36.8613,93.6567,51.3375,115.6562,-168.1819,33.8447,0.8670,38.7374,102.3417,31.7616,141.1504,151.0827,103.4102
-2.0525,-26.8256,-43.7171,93.0424,41.5631,266.5511,46.9555,40.2073,47.3078,51.1075,-44.5458,130.9882,16.6974,26.8111,44.7504,68.5925,70.6655,106.9433,76.2698
118.2944,3.7159,61.3133,108.3214,-24.7669,317.2279,4.2736,52.0999,-15.1791,81.1493,132.1422,164.5927,29.0096,80.3842,-27.6901,160.9787,-41.3275,43.3780,-20.0715
264.2010,6.7184,183.6028,128.8848,-68.8412,375.7267,-86.2177,180.1932,-138.9489,223.0415,233.1908,99.8480,-1.8650,181.2029,-68.1530,281.7740,-107.0759,43.2002,-121.7050
373.3950,-54.0952,213.1635,270.0267,-93.2765,401.5412,-168.4057,305.4367,-220.2630,342.4388,222.0120,39.4762,-26.9419,202.2993,-81.5965,297.9047,-124.3171,89.2755,-153.7548
459.6989,94.3982,211.4992,400.3756,-99.3233,402.4429,-155.9791,338.4197,-156.8058,361.9849,249.0787,71.7140,23.5129,186.9213,-59.4885,226.1260,-86.3127,121.0532,-103.4654
485.4691,332.5564,269.6145,414.1157,-48.3206,430.1269,-69.8875,355.1248,-26.9398,380.0807,381.6001,149.6323,118.8685,219.2281,-40.9017,289.8794,-13.6868,159.1338,-26.5540
387.5117,273.5140,286.2253,397.5048,11.6039,472.7474,-14.3366,417.3852,47.7792,468.8460,399.8297,187.3057,167.3169,222.1590,-34.7709,480.1882,19.8230,189.6965,34.9725
242.3279,26.4566,191.5163,363.0923,10.1142,463.3292,13.6650,460.6149,97.0096,535.0639,199.1866,168.2112,156.8794,176.0087,22.4042,476.3352,-5.9735,177.4813,76.5901
152.3236,-39.7273,84.9665,243.0226,-19.7225,412.8081,70.4305,428.8947,165.3211,490.2990,22.2604,138.3145,150.1437,179.9657,87.1553,232.1817,-56.0136,184.5361,78.0970
76.9155,45.7064,5.4394,125.8125,-35.1177,388.9624,99.8737,352.4188,185.5955,388.6877,11.0273,125.3445,166.6049,182.8162,55.0858,98.4598,-100.2813,224.5984,27.6883
-11.1973,65.7680,-66.9440,118.4132,-40.3349,386.0251,49.0840,282.4420,115.9825,309.4973,36.6663,106.9381,164.3606,89.9044,0.0551,184.4247,-91.7027,201.3038,-36.6937
-37.0336,11.8737,-59.1784,159.7623,-30.9776,359.2033,-24.2681,230.1203,1.2736,227.5083,63.4067,110.2733,117.5273,33.5320,28.1231,210.3930,-16.4979,118.6505,-95.3175
10.0367,-16.8846,38.6271,197.3709,-22.6123,326.5659,-91.1428,165.1912,-106.1212,109.2226,149.7575,208.6813,62.1610,125.1529,38.6953,110.0315,60.1582,66.5904,-162.5168
89.5161,57.2831,120.2103,254.9700,-31.8838,330.7046,-160.7281,104.4343,-147.5010,55.8171,205.7649,327.3175,54.4641,227.1038,-48.3278,134.1235,122.7842,49.6929,-197.0970
203.2397,212.2560,175.9439,287.0931,-21.9129,357.8375,-180.0047,128.9183,-101.4615,149.6854,156.5161,301.2453,76.2601,240.3876,-102.1278,272.1317,217.3468,46.6250,-151.3576
274.8123,291.4044,230.6381,259.3636,-7.5661,348.5525,-147.0495,206.0313,-61.2565,244.6829,89.3827,187.2845,43.8304,227.7201,-52.3453,220.4592,290.8194,62.5403,-82.8990
205.1360,256.1902,204.0593,245.8007,-47.5700,281.5095,-136.5417,197.6652,-88.9555,204.1858,63.3556,181.0521,-39.4705,183.5666,-16.8841,-6.6539,262.3820,79.2067,-46.3332
99.8469,224.6842,108.4696,257.8214,-71.3406,226.9441,-113.0298,136.4799,-94.9706,161.6907,53.6557,253.9450,-67.0315,85.2569,-48.3020,-62.5008,181.4971,109.3952,7.7206
86.5856,160.2501,68.0225,209.0844,-10.7509,245.2086,-27.0019,158.6843,-35.8406,208.3562,43.6769,236.8421,-30.7500,51.6693,-72.5069,108.8979,99.1603,153.3826,76.4308
61.6752,20.7384,50.0608,104.9640,4.7270,257.4366,-3.3226,187.5691,-9.1342,175.9699,8.3696,137.7884,-45.6238,119.7431,-63.1950,218.5576,-17.2781,108.5897,60.2574
-43.8421,22.4627,-31.0193,28.8766,-93.2301,162.4014,-87.4007,89.5539,-38.0025,20.5473,-40.2728,66.2991,-113.9409,122.0142,-32.6811,153.1866,-126.3961,-21.6484,-25.5799
-82.5139,226.7694,-84.4104,-10.0513,-142.0907,23.9070,-89.4498,-34.3597,-37.2425,-64.7616,-34.8922,30.8798,-101.3651,5.7273,24.6631,43.0214,-144.3503,-49.0812,-54.7496
-18.9374,350.9289,-62.2932,-55.4120,-69.6126,-31.1043,39.0887,-66.3989,-12.4576,-47.1724,-5.9123,7.4292,11.1059,-69.2746,50.1421,-46.0324,-118.7739,56.0333,-21.5381
-22.8704,272.3614,-81.2010,-111.2421,-4.4955,-5.0479,98.1142,-69.9091,-31.3040,-50.6044,-28.2024,10.8429,91.4676,-61.5558,-7.0249,-101.6464,-117.8767,117.5027,-8.4103
-119.4859,102.3481,-134.6668,-127.1459,7.2796,27.6366,45.7802,-73.2408,-64.2370,-48.8340,-42.6369,27.2915,86.8965,-83.2211,-35.7234,-62.4452,-90.8533,98.6599,6.0837
-148.1980,-101.4713,-104.6055,-57.2652,32.8155,59.9675,39.7803,-14.6451,-56.6145,20.7483,-23.7314,30.6260,73.3370,-80.6477,54.1679,52.8237,-20.3001,96.7596,74.7638
-86.1740,-186.8704,-56.6355,34.3568,66.9238,130.8820,87.3760,80.5375,-45.2211,92.4196,-88.8246,39.8372,85.6073,80.5260,122.6376,131.6674,0.1280,122.5709,139.9561
-77.7720,8.7148,-113.4599,23.7908,67.5843,230.1406,79.9299,147.7786,-62.3808,130.0404,-208.7706,68.1853,85.3160,251.5922,50.8261,120.0347,-55.9173,156.4191,144.6481
-147.2359,258.1624,-182.1795,-56.0597,58.3029,284.9886,51.4558,187.7477,-42.3073,164.8992,-192.6943,91.2272,81.6924,198.3167,-33.6020,41.4915,-80.6100,197.6516,154.3618
-147.0301,282.5195,-122.9372,-48.9705,92.7970,256.0660,89.7281,202.1705,57.5444,194.7571,-36.7023,104.8391,126.5326,45.6198,-20.4902,-32.9223,11.4350,201.4553,235.6292
-26.1697,193.7245,19.0737,58.5717,183.7161,206.1015,154.8330,186.0224,136.7925,216.5863,101.4471,135.2153,199.9807,44.1142,4.0224,-4.8864,165.5243,162.4178,322.1438
86.5172,111.8920,133.8275,156.1170,264.7177,200.2583,175.1713,160.5131,106.4619,213.1469,170.4513,181.2990,233.0999,124.9168,-5.7736,118.6333,261.0616,135.4413,321.2933
134.6383,18.7127,200.0680,209.5563,269.0620,204.8398,179.1899,128.3224,77.9700,142.8671,191.9662,203.8255,226.6116,119.3601,21.1325,195.4234,278.8387,111.8254,280.2261
192.4836,86.5038,230.4665,206.4603,246.3869,169.3087,221.2664,89.2150,171.9089,66.8980,166.3963,170.8864,224.5101,66.7219,74.4959,131.3805,300.3292,62.9344,299.0757
219.9542,342.6036,207.5085,95.1394,250.0462,103.8163,266.7104,65.6951,259.4991,66.4648,123.9090,93.0073,210.0240,15.6468,88.7646,-19.0453,319.4355,20.7302,331.1115
114.4261,383.7689,133.7357,-54.1709,209.1545,38.1053,242.9322,55.6915,194.5961,72.5567,97.6133,20.5381,156.5900,-48.3527,79.5827,-102.8172,245.8209,-1.0449,268.5337
-12.6648,93.8993,69.9849,-96.2112,109.7802,2.5849,169.4201,58.5748,103.1993,45.9575,81.2361,-10.6064,115.6688,-48.6822,56.8152,-13.8520,114.1037,-20.7672,165.8208
0.2192,-90.5081,57.2853,-81.5450,73.7737,-9.7268,129.1453,74.1442,131.0470,59.0987,66.6615,-41.9804,128.5885,-10.3573,0.1016,92.1132,32.6082,-54.9430,137.5213
66.2087,16.2340,51.6221,-171.4265,110.1852,-84.2533,132.7110,24.1766,195.9377,53.2993,45.5870,-128.6720,144.3631,-111.3476,-13.1458,-31.8943,-21.9603,-136.2067,140.3503
55.1625,124.2179,21.0426,-317.5295,101.8051,-228.8823,136.9836,-103.5969,210.0837,-47.6977,36.7123,-202.5643,124.3365,-260.2610,85.0668,-230.3051,-90.4134,-218.4377,97.6954
29.1014,65.0460,16.1914,-346.4895,53.7031,-294.4034,139.5283,-142.2878,190.0432,-91.1872,87.9283,-154.8598,105.3971,-212.9250,177.3365,-164.7264,-85.4356,-180.6426,64.3995
49.3698,-63.4887,45.8251,-271.3039,36.9136,-245.7683,129.2839,-61.5881,109.0012,-16.2709,134.9068,-56.7546,96.2979,-126.2744,135.3553,3.1072,11.6785,-68.1031,71.6184
63.1882,-142.8241,38.7838,-230.2023,11.3676,-234.3552,57.4800,-67.2677,-11.6702,-27.6565,61.1813,-69.1888,52.5504,-233.3328,15.9078,-79.3689,74.6661,-27.6715,44.0520
49.9265,-81.9465,4.2539,-243.8309,-52.3424,-264.7343,-50.4343,-169.1602,-41.2043,-143.8127,-36.0385,-167.5928,-16.9415,-290.8703,-77.9730,-239.7920,77.1502,-12.5484,-15.9409
31.3110,87.9936,20.3616,-255.2301,-80.9003,-193.3030,-97.4299,-162.1886,0.0115,-154.0271,2.1943,-205.8216,-50.1483,-109.3002,-122.8439,-185.0539,108.2202,58.1996,-18.1641
10.0889,150.3954,57.9737,-244.2505,-43.1931,-61.9384,-55.9091,-74.0047,-26.5795,-82.9178,68.6066,-144.5308,-33.9842,4.8533,-106.1326,-66.4950,154.7824,86.6343,32.1788
11.5060,9.4941,49.0266,-171.3942,17.7101,-7.2332,25.4378,-68.1937,-55.6728,-97.5389,32.6361,-26.4546,2.4150,-96.8691,-34.3155,-33.9028,157.1105,64.4605,70.8732
52.9759,-106.3576,50.7626,-23.4584,90.8552,4.7522,110.5614,-90.0409,33.8958,-137.0630,35.4851,79.2107,61.7661,-138.2955,21.5966,10.9218,157.8281,124.8726,111.0567
102.3932,17.6246,122.2367,64.3273,178.5553,24.0129,173.3232,-60.8421,120.4683,-91.0506,168.2723,60.4805,143.1115,-56.3204,17.8841,-2.5774,188.1402,213.8394,167.3976
152.0036,234.5063,185.4942,-10.0654,234.5542,-12.9988,181.2592,-62.1641,74.6812,-29.4909,255.3232,-65.7550,179.5589,-60.9879,-15.1234,-167.7853,199.7618,192.7347,181.9328
209.1816,266.2614,183.3816,-112.1193,220.7741,-95.9212,139.9782,-100.9086,1.0439,-28.6495,208.2345,-107.3697,130.0866,-135.7131,-43.0196,-260.1569,198.4128,127.3149,141.0088
233.3950,136.6467,188.0551,-106.0800,172.7399,-142.2594,99.9720,-96.9988,21.2391,-60.8835,177.9824,-20.6122,81.0841,-146.1170,-34.5775,-170.8132,224.7081,98.7637,115.7764
209.7975,67.9770,233.7528,-67.7054,144.8733,-161.8551,97.6955,-77.0791,106.8107,-75.6911,241.5380,36.8657,110.1020,-131.0707,35.4121,-104.4624,226.7312,49.3267,125.8552
174.0556,83.3083,238.6844,-64.6961,122.8647,-174.3854,111.5177,-72.3690,163.6535,-41.8628,284.3769,32.1836,129.3778,-121.1329,113.6382,-74.5994,155.3664,-17.9028,112.3167
130.4447,87.4154,173.3206,-51.6245,72.9337,-132.5655,103.2936,-35.2923,127.2555,6.9895,231.0224,32.2629,53.8946,-76.8879,123.2900,50.3988,84.2461,-32.4131,75.7806
90.2364,112.5998,121.4414,-69.2354,40.5764,-52.2669,94.1511,12.0857,64.5034,2.5657,152.6598,-8.1418,-9.7222,-50.9984,98.8533,118.9949,75.0415,-5.3842,87.6679
94.9472,119.3462,113.0362,-186.4024,67.4243,-6.4457,120.3826,7.1546,113.7527,-21.3600,110.3071,-85.6002,34.3269,-71.7394,116.3689,-6.2621,62.4030,28.6866,139.8342
100.1091,-41.0266,70.0156,-300.4791,90.7248,7.9363,140.1836,-18.1078,214.7171,10.5914,60.2541,-91.9751,82.2929,-64.7180,151.1895,-129.0072,-11.3661,54.3210,143.0101
21.8316,-242.0008,-25.6753,-307.6460,70.7025,25.3005,109.3433,-16.2688,178.0334,50.0384,-3.4829,-73.7997,55.5226,-44.3529,139.0812,-95.9227,-83.6773,37.7824,86.5783
-90.4851,-217.9968,-74.7421,-277.6547,56.5514,19.5920,69.2232,-6.6302,42.7920,16.2424,16.5019,-134.6984,42.3120,-73.1340,85.5072,12.9031,-74.0086,-6.3839,33.4548
-114.2911,-58.4626,-23.0608,-259.0395,42.8240,-35.7167,42.5535,-17.1728,-18.0053,-57.0211,120.5463,-171.5259,74.4472,-87.5282,42.6279,116.0273,9.7938,-27.4853,-9.0322
-21.3904,-1.7168,62.3937,-188.8265,1.1141,-97.5208,2.4027,-46.7029,-9.6451,-86.6220,159.8226,-88.3282,75.2960,-42.5957,55.9542,141.5576,115.1140,-29.1991,-46.2031
105.5047,-29.9482,103.7382,-73.2044,11.3659,-101.1184,-11.0241,-60.6937,3.5323,-41.1357,88.6975,9.1439,58.3344,-18.4195,115.3630,23.0516,202.4544,-16.9875,-30.8603
137.4498,-57.1958,81.9778,-0.6106,101.0731,-62.6276,39.2598,-43.6206,45.0422,19.8218,19.6566,45.5211,81.7795,-35.9781,133.7157,-138.9994,227.2755,4.1549,21.6010
21.9090,-64.6627,15.5975,-5.2817,143.7761,-79.5814,75.4440,-67.8623,83.2646,-14.0558,9.2847,54.0060,104.9435,-31.0583,72.8176,-192.7587,157.5757,-42.8672,29.6245
-126.2795,27.1411,-51.9484,-63.9880,103.3880,-172.5880,61.1669,-158.8678,73.7622,-129.0063,20.2536,38.5603,98.5907,-6.0754,33.2998,-122.6156,48.0620,-170.0030,15.4717
-190.2474,184.9814,-89.2828,-125.9236,76.2669,-228.0483,59.4047,-194.2723,87.0253,-178.6250,17.9607,25.9146,97.8734,0.9058,74.9260,14.7179,4.1595,-258.9455,50.5215
-222.6419,192.7518,-113.8591,-125.9452,49.8321,-193.2556,46.3590,-150.9443,129.5976,-152.6011,-16.2531,58.6454,77.0803,-13.2480,95.6241,82.9343,35.2991,-285.5904,79.5836
-290.3512,-6.2885,-136.9283,-73.4212,-42.3574,-165.7944,-28.5969,-184.2189,93.2685,-186.4913,-48.2803,63.9713,8.9133,-62.5478,35.3151,-59.7665,42.5304,-332.9467,33.2834
-335.0921,-260.6757,-136.1430,-60.3408,-129.4857,-209.2453,-70.0608,-299.4820,6.2276,-276.2737,-23.9920,-9.2893,-34.1284,-140.2131,-2.9610,-235.7894,-20.0960,-385.8643,-27.8401
-309.0905,-424.7893,-130.7387,-142.8369,-136.3560,-267.9091,-22.8924,-346.2917,-1.3233,-320.5522,-14.4029,-69.7360,-25.6425,-176.3116,61.4306,-147.6591,-85.7627,-407.6807,-49.6751
-254.2121,-354.8676,-171.3712,-303.5543,-114.0796,-286.8990,3.6204,-345.0814,50.4336,-346.1404,-101.4998,-88.5323,-33.9560,-144.1383,164.3721,40.2764,-105.3242,-443.2783,-63.9897
-225.5401,-86.7883,-237.8039,-465.5562,-108.1458,-271.2509,-17.0126,-385.6966,57.6209,-384.7283,-168.8083,-131.5538,-55.1669,-115.9111,188.0841,-24.9244,-116.8501,-467.3202,-75.5748
-252.7612,-18.8385,-269.5426,-498.9478,-101.6050,-268.9333,-0.7062,-395.9579,13.9448,-363.7153,-126.7479,-170.0771,-43.8714,-160.4397,84.8913,-231.0797,-149.6937,-416.9226,-67.9396
-306.3006,-331.2180,-272.7339,-381.4029,-97.3160,-335.0461,18.2612,-355.6795,-24.2663,-319.2076,-137.9144,-177.8379,-43.7890,-250.8540,-45.6923,-283.8737,-172.0399,-365.8277,-67.8238
-305.2459,-545.5575,-285.5644,-309.2994,-112.2954,-430.2931,-17.0976,-384.1358,-13.9960,-379.3737,-291.2274,-241.2694,-77.4165,-278.3398,-53.0377,-224.7134,-165.7824,-380.2335,-77.5533
-247.3915,-298.5577,-291.7554,-408.3309,-131.9302,-443.6731,-27.2823,-454.5001,32.5794,-475.8348,-374.6099,-340.1990,-78.3475,-196.1567,26.3287,-195.0445,-149.4710,-378.0416,-70.9996
-210.8826,1.5464,-258.2224,-480.1493,-121.0666,-385.3754,11.2655,-436.5131,32.7535,-442.5745,-243.4221,-323.9387,-44.2758,-140.2750,25.1888,-188.1667,-111.6193,-317.6284,-73.7571
-194.2192,-108.0350,-200.6158,-335.3116,-66.5620,-365.8817,-3.6886,-369.6682,-41.1394,-330.6166,-74.0407,-203.4357,-41.9495,-227.6483,-45.6950,-200.9010,-27.1109,-277.0275,-105.0569
-137.0033,-374.7119,-141.0347,-153.0098,-14.9335,-375.9133,-75.2742,-339.5133,-104.2844,-283.6977,-42.9493,-135.7584,-63.3102,-305.2183,-59.2687,-216.8815,66.5662,-296.5290,-126.1616
-51.7013,-331.8029,-55.9581,-162.5630,-11.5665,-326.5526,-113.9170,-305.2099,-131.6580,-273.7186,-43.2821,-139.6963,-60.3097,-196.5991,-54.4164,-173.0463,115.3445,-347.7374,-139.2012
15.8005,-83.4591,54.4649,-228.6021,-18.7904,-244.7343,-121.6713,-259.5629,-181.9730,-233.1281,65.5946,-109.8635,-40.4331,-36.2613,-105.6261,-133.2591,131.2902,-397.2437,-184.0386
54.8940,-38.2894,105.3947,-131.6487,-9.3618,-211.0356,-136.5185,-264.9035,-212.7699,-219.2932,147.1627,-44.0239,-28.0661,-19.0954,-108.7524,-179.8657,136.7139,-407.4759,-223.3640
67.3018,-179.4889,49.7942,13.3561,-34.6775,-212.4231,-129.7976,-288.9827,-145.2362,-259.0655,35.8019,-37.3141,-25.4454,-67.8534,2.8895,-206.1976,112.0768,-370.8627,-194.5979
64.8164,-187.7426,-15.8879,-0.7492,-80.8589,-198.0538,-89.0139,-266.6320,-65.3195,-270.3312,-87.2475,-86.4467,-18.7711,-38.0511,94.5654,-135.9199,67.4114,-330.5759,-127.5544
45.4596,-64.5079,-6.6461,-103.4599,-61.3196,-166.5731,-61.4397,-230.8845,-88.4239,-228.1071,10.6251,-81.0040,17.4250,39.9536,72.2290,-71.7298,40.0182,-316.8377,-94.3201
-26.2010,-38.4450,11.2820,-150.2857,-6.6212,-146.8056,-75.2016,-224.4493,-133.6372,-194.9180,161.7062,-13.1638,63.3392,83.8048,23.3334,-54.8304,0.3447,-329.5215,-115.6992
-118.5133,-107.9361,-31.5514,-166.9155,-16.5625,-166.2025,-101.4119,-227.5010,-68.7920,-184.0745,107.2432,1.3254,46.9290,64.0341,34.2511,-32.1829,-89.0973,-356.9557,-162.8876
-129.4120,-153.3412,-88.2057,-161.5510,-74.3625,-213.8602,-99.2771,-211.2089,40.6768,-150.0341,-63.5709,-42.9446,-30.2988,-6.5383,64.6647,-33.8897,-160.6344,-354.0142,-191.7150
-62.1863,-141.6788,-112.4291,-73.6126,-109.3947,-227.0479,-79.1304,-158.4425,38.1729,-78.0123,-160.4736,-40.9730,-75.8557,-38.8382,39.3772,-85.9799,-141.8347,-281.7385,-178.2710
-21.1170,-35.6722,-110.2239,5.3733,-108.4656,-184.7521,-77.0239,-93.0599,-48.7989,-22.6266,-159.2235,-18.0201,-53.6723,18.2518,-22.2729,-112.5570,-80.8011,-179.8733,-134.9144
-34.7863,66.1003,-71.4300,-43.6324,-73.8681,-157.3172,-56.8384,-90.5066,-54.1994,-65.5638,-65.7323,-74.2776,-9.7983,38.6131,-31.3142,-69.2234,-49.8206,-118.3780,-80.0245
-54.5600,-62.7536,-9.4022,-105.4560,-21.9948,-179.6084,28.5314,-147.3964,28.4805,-170.1741,59.3186,-160.4235,19.7982,-59.2493,15.3732,-1.3707,-38.3020,-108.6751,-29.5601
-39.6628,-268.6207,17.6731,-47.5701,3.3572,-182.5303,91.0493,-152.2950,43.4054,-162.5498,59.0192,-167.8664,13.3957,-124.2096,38.6513,12.3863,-9.8632,-111.7519,-6.1313
33.9719,-171.7611,11.6966,32.4618,-0.1484,-131.3673,40.0896,-88.6187,-23.1739,-23.7995,-41.0574,-97.8348,-33.6033,-57.1652,42.5168,-76.8655,33.1293,-99.2282,-4.3185
128.9652,78.3863,22.5701,30.1574,-1.9671,-95.8829,-23.8374,-68.0060,-30.2492,26.9483,-52.6413,-7.4616,-59.2969,10.2706,69.1192,-177.8489,54.9170,-83.6496,-4.2281
158.3309,91.1373,46.5829,7.4439,8.8104,-110.3888,1.4447,-110.3040,23.9721,-67.4833,21.9450,42.5579,-14.2747,-8.3686,63.4963,-141.5327,21.8434,-80.3463,-32.6644
118.9937,-28.4493,69.0411,30.1492,43.0152,-110.0383,17.3697,-121.1495,10.5999,-104.1367,66.2745,9.5958,31.7840,-41.2107,6.5990,-27.9493,-27.4506,-68.7677,-100.5947
86.3992,-68.8220,109.3076,84.1560,77.4568,-65.2316,-60.2924,-78.4800,-61.1537,-41.8089,84.8754,-54.7305,-1.2120,-57.3797,-8.2787,-13.0105,1.1748,-49.1378,-130.7581
96.1258,-138.0849,149.5559,122.8138,42.3997,-34.6476,-135.2497,-43.2315,-75.0952,-35.1690,70.6936,-78.6811,-61.2910,-70.9564,24.6025,-77.5522,98.3914,-64.1190,-85.3389
138.8926,-181.0546,144.0372,83.1051,-42.4240,-47.3564,-136.0006,-42.7170,-33.6589,-75.2358,-10.4354,-80.3933,-60.9436,-45.5854,20.9570,-105.9353,134.8799,-101.7569,-51.5507
164.3878,0.2240,94.6078,-20.9276,-73.8679,-69.2266,-124.0127,-63.7275,-23.5403,-67.9894,-57.2527,-71.0271,-24.4347,-4.9567,-13.3562,-109.9498,70.1562,-109.8732,-80.3897
103.5701,179.2641,37.8953,-75.6899,-46.8745,-90.4501,-135.7877,-86.0078,-51.9523,-70.6204,-5.2426,-41.5461,-20.0947,-35.7202,-52.5858,-127.2265,5.2279,-107.4169,-105.1254
15.1193,64.7936,18.1187,-54.6426,-20.2734,-118.2767,-130.7613,-87.1311,-69.6934,-112.1450,42.5770,-58.8763,-30.5695,-92.0211,-100.4455,-134.5470,-4.2494,-104.6571,-90.6073
25.6752,-118.2870,56.5874,-22.8420,21.4434,-113.4735,-74.6565,-62.7904,-65.5082,-98.4782,50.3153,-107.9933,2.2545,-44.8752,-66.0420,-108.2985,1.5199,-19.5377,-73.6087
84.6416,-70.5548,96.7888,52.2834,98.8677,-50.4701,38.6146,-21.5743,-48.0335,-28.3036,73.1860,-38.9273,70.7378,75.6275,72.9071,-23.8524,17.5073,141.2597,-42.3831
95.9161,105.2856,94.3372,196.5072,182.2722,3.4764,164.6634,17.1213,-12.1678,5.8978,79.3315,99.1492,122.9204,106.7871,111.7994,56.0818,82.2944,213.4983,39.6017
149.8634,190.2735,122.8081,267.1530,250.7693,-32.1166,206.8816,-6.0135,23.7230,-27.7131,54.5228,79.2317,132.9624,-6.9057,-12.6438,-37.4379,171.0781,132.2489,124.7129
274.8667,133.0069,216.1588,193.0831,268.6613,-116.3858,152.1488,-99.3652,25.8461,-100.6155,74.0999,-56.4496,112.9170,-129.1089,-52.7055,-246.5723,208.9187,38.8682,147.6107
302.2017,20.8257,270.7521,135.4403,212.4366,-115.6527,116.2867,-123.1476,22.2969,-122.3654,140.2050,-78.2007,107.7878,-97.8378,79.3319,-267.4261,182.2624,56.1940,134.9676
226.4833,-8.8015,255.0293,201.2971,164.1630,6.7806,147.7746,6.8936,65.0524,-16.1338,204.8356,-4.5451,151.4424,44.0342,162.5139,-85.3024,152.2281,136.7325,142.4722
223.2943,60.4108,245.7319,282.6377,187.4176,116.8871,160.7121,134.5619,114.3641,98.5030,262.8374,8.6527,192.9107,93.9996,105.0618,23.7445,151.4537,176.0098,169.8698
261.9391,102.5900,219.6069,277.4544,216.5664,117.5685,141.1536,133.6168,116.5441,83.6342,257.9793,-15.2795,170.3223,27.3926,49.0513,51.1578,144.8138,179.9927,204.0387
204.0229,81.0881,137.3728,236.3261,224.3170,106.3074,177.3917,128.3520,132.6963,65.2207,153.1391,20.1677,145.1456,43.3805,71.5045,144.5063,126.2208,239.4639,248.0372
136.2747,71.2229,121.7925,261.1299,257.3868,174.4795,239.7481,203.3922,193.2076,154.9146,92.3714,94.6837,193.8397,168.9506,119.4174,167.6582,153.9314,335.1971,275.6580
202.1310,88.1893,246.2765,349.1432,272.3365,229.9570,210.3157,230.4527,189.1274,198.0439,198.9365,104.7576,247.7011,192.2577,133.1749,13.1707,221.3544,330.7968,251.8976
353.4283,89.3450,373.3781,361.6307,216.7329,195.2281,127.0389,167.0739,111.1644,127.3090,355.3505,-5.1819,229.3696,89.1060,101.4515,-73.9292,219.7994,222.6123,195.9321
470.7661,21.4601,397.7542,232.5017,157.3499,151.0339,110.9229,146.1211,116.5181,97.7773,399.4694,-119.5903,192.9384,62.8210,79.6397,56.0383,113.5104,158.9760,145.0341
497.2096,-120.9741,373.6807,126.3039,131.2491,143.1947,124.6103,181.8362,194.9631,125.5798,344.5247,-78.0392,181.2410,122.5141,110.7904,197.6019,11.6545,168.8069,95.4167
445.6122,-168.4365,345.6327,177.2132,91.2157,106.7117,70.3789,152.7226,141.3775,92.3853,293.5269,37.1362,149.9711,93.2998,135.2044,185.1075,-3.5252,153.8200,35.8142
379.6058,7.5742,293.1391,258.6305,39.5867,41.1620,-10.2947,64.8061,-43.5964,35.8409,269.4254,43.4994,95.9513,-2.1353,104.6902,88.7180,21.2780,117.9962,-22.5724
307.4113,158.9328,210.0515,250.9619,-3.5120,12.3184,-40.8041,27.2020,-129.0190,38.3687,201.4457,-0.0185,60.9133,-5.1530,78.9375,20.8001,24.0957,128.2109,-72.1990
188.1975,35.8623,119.6564,231.3811,-56.4101,9.2429,-39.9151,39.8206,-59.5676,41.3814,78.4163,20.4466,35.4419,54.3854,97.4404,27.3664,11.0263,145.3824,-108.6746
93.8260,-97.6474,65.0183,226.7025,-95.4475,-10.4834,-47.2984,24.9199,-24.3274,-13.5837,3.3123,25.0682,-11.9479,39.9752,110.4781,64.2158,-7.5889,101.8015,-133.4016
96.7354,73.3958,54.4157,157.7458,-101.0728,-31.5347,-78.4039,-21.0036,-120.4306,-85.2708,1.5686,-9.7738,-87.3731,-32.8449,79.8551,49.3776,-59.4120,22.7207,-178.8595
70.4802,270.7187,12.7788,66.6583,-121.0233,-40.6678,-131.5312,-48.8881,-222.3109,-121.1618,-17.0567,16.1110,-167.4481,-53.8092,23.1692,31.6147,-148.6486,-33.4167,-249.1214
-63.2356,78.2390,-79.0318,41.0321,-139.2593,-54.4109,-144.0378,-53.6358,-202.1131,-111.5402,-36.1228,42.5835,-183.0525,-10.6697,-22.6138,98.1697,-215.4900,-45.8568,-265.1219
-131.7977,-286.6848,-103.3991,37.2500,-84.7092,-65.1228,-68.2880,-54.1198,-99.5322,-81.8891,20.9099,-33.4136,-106.5800,5.1919,-31.2353,125.3594,-202.5746,-20.4115,-181.4742
-44.4596,-289.9940,-27.8771,28.5580,-5.1394,-53.4187,9.4270,-32.1088,-18.8659,-46.4242,72.5226,-110.4798,-40.2968,-60.8826,-10.3996,-9.6878,-130.3597,21.2081,-72.6778
41.9879,28.6542,15.7273,66.5994,15.3658,-21.0301,0.1319,29.9199,19.2952,11.6952,27.6761,-113.0810,-60.8099,-129.1753,13.4946,-119.1796,-63.6467,55.5926,-2.2734
45.3966,126.1135,-7.1061,99.3004,14.2609,28.9948,-38.1809,95.2576,45.3267,62.0394,-37.2474,-114.1956,-92.7208,-82.8333,21.1037,-19.2218,-29.8498,89.4046,57.2351
48.6664,-123.4544,14.8026,41.1439,38.2825,89.5182,-31.8907,126.3053,71.3472,54.9967,-47.3937,-90.4048,-71.1771,41.2260,4.5576,129.5620,-11.4693,144.9994,114.2648
69.0459,-278.1560,91.2335,-39.5515,58.2204,129.8518,-5.9589,131.9281,109.6423,47.0183,-14.1224,8.6842,-34.2270,100.4018,-3.5583,147.3689,5.8870,200.9803,129.6224
57.6713,-145.0436,114.7007,-65.9403,69.7282,125.0351,13.0359,120.8476,145.2051,94.1141,36.8537,53.9386,-5.9717,74.9638,26.9887,120.8942,14.7684,206.0074,110.2487
24.6305,-5.6095,51.3922,-84.6806,95.7387,86.3936,45.2796,92.6802,128.9304,117.3144,27.7586,-23.5526,11.2785,51.7809,34.9636,131.4983,8.0686,177.4926,97.7512
-0.5934,-31.2958,-31.5008,-104.7699,116.4865,41.5027,103.8515,67.9109,102.7146,67.7875,-70.0589,-75.6267,-4.9798,36.5687,-7.2765,113.1598,2.3324,177.7004,99.0397
-0.7374,-140.2076,-50.8667,-72.1799,106.8590,4.9551,174.9675,48.7525,158.6810,18.3506,-104.7236,-35.1883,-19.8932,-1.7067,11.4541,77.6540,20.1611,171.7917,102.6671
35.5578,-236.8790,17.5505,-27.3957,75.8172,-11.7227,209.6942,25.4793,223.4099,6.7451,-13.3492,-8.6938,20.5346,-9.3375,92.8463,103.2203,51.6639,95.8529,105.0548
64.7283,-181.2195,89.2854,-42.9217,51.4177,16.4101,169.2912,39.8301,169.9653,18.6278,36.2643,-28.0834,66.7768,38.9294,73.9194,140.5803,75.8303,32.3622,111.9325
49.3779,38.4418,84.8512,-79.7569,66.2432,83.4432,121.2994,104.1528,95.5565,56.6511,2.9656,-27.2805,68.3266,58.9933,-2.4558,121.9968,108.3788,67.7089,151.2537
53.2408,102.1429,69.1269,-62.0381,120.7459,122.0006,163.5767,135.7764,155.8381,89.4746,24.9463,4.5405,87.7267,21.1333,63.1644,101.2553,163.2493,111.9479,227.2866
112.2705,-81.4165,108.0203,20.0433,178.2633,101.0528,257.4947,114.3119,278.6105,98.1582,81.9825,37.7866,157.0877,12.3700,191.3780,99.9321,205.7034,97.3212,270.0128
135.4435,-100.3602,125.4744,122.0884,214.6715,85.3462,293.3953,117.0081,314.4934,126.3704,76.1014,63.5115,195.3589,62.8989,179.7340,53.7132,212.3267,90.5153,231.6014
86.2113,142.5916,85.3880,169.9025,214.1417,103.2905,255.8895,132.3044,249.0952,146.7760,54.1652,79.5510,155.7742,100.3383,96.0098,-8.1086,205.3757,85.3972,175.4613
68.9949,244.6040,81.7865,124.4908,166.4140,98.3173,210.1493,107.6058,142.1121,106.4882,41.6295,91.9531,96.3434,107.0688,73.1493,16.6632,188.2803,42.2778,163.2306
128.1759,178.3353,128.7215,47.4190,121.9688,84.2153,213.2235,110.7884,76.6189,93.1489,11.0498,107.7041,85.3971,136.9693,83.0866,108.2932,152.7283,61.2295,160.1364
177.5932,229.5258,145.1466,20.9986,140.4308,133.8832,261.2870,169.3465,118.6006,151.5217,48.7966,107.9044,125.8899,169.6355,122.1055,153.2103,145.5687,164.9254,140.7124
185.0922,253.4313,152.5644,51.8411,187.6445,194.3891,279.8437,168.1821,190.6586,149.8549,167.0831,75.4150,156.0321,131.0739,201.2856,112.7018,207.3072,186.0946,147.5711
211.0198,76.3969,202.2005,95.2468,198.9250,154.2466,234.2362,89.2844,170.5310,57.4184,178.8803,32.3648,120.0108,45.6562,216.6312,49.5442,280.1724,96.0533,178.8437
241.7414,26.6036,219.8267,91.2361,172.0689,40.9713,195.3024,34.6343,116.4310,-2.4480,39.5138,18.8778,51.7299,-8.8566,141.5660,28.3246,280.8039,43.1411,168.2356
195.9343,249.0727,151.9807,19.5437,135.5830,-43.7375,193.1003,-1.1761,148.9511,-10.3578,-59.9130,43.0104,31.9490,-31.9725,92.9142,19.8882,214.4440,47.3923,119.3908
102.2525,342.6884,73.6193,-28.4213,117.8798,-61.4996,172.1092,-47.6751,221.7411,-3.7854,-38.6958,62.7449,67.9300,-22.7983,103.1802,-48.1044,149.5907,41.4713,109.6057
58.7629,106.5612,29.8358,24.3109,123.6281,-18.1856,140.5810,-22.3938,224.9418,45.4295,0.7645,41.3090,90.1686,53.2839,109.0470,-124.0684,117.2497,31.8152,139.2678
36.9479,-170.1764,-9.6095,71.6113,102.3016,35.1025,127.7208,62.1018,157.2139,89.7398,-4.3996,-3.9612,60.0932,89.4126,69.3203,-91.8564,79.1300,-0.9472,127.9117
-39.9969,-218.8127,-37.0964,-6.7188,36.6067,15.6105,76.4015,54.2640,82.8724,40.0489,-25.0866,-53.9146,26.1985,-43.1678,-24.1703,-9.8820,6.7842,-71.0226,68.1140
-95.9530,-50.3388,-35.8991,-129.9713,-0.1095,-51.9555,7.2890,-51.4339,61.1034,-54.7698,-23.6016,-108.9206,50.6818,-155.0528,-68.2056,-13.3459,-46.0994,-84.6112,39.1350
-43.9253,127.7630,-35.5836,-176.1663,23.8320,-58.5365,45.6733,-109.2203,113.6594,-108.0249,-15.8541,-122.8678,105.0173,-11.7977,59.5513,-55.4947,-23.8577,-33.3630,66.6408
9.1021,109.2840,-42.4876,-160.8697,58.2781,-17.6929,142.5254,-81.0198,171.5389,-104.7598,-57.0579,-57.4601,112.3466,160.3586,204.4710,-52.9674,25.6040,-46.2370,92.6686
-40.0370,-36.1453,-41.9670,-131.8443,82.4055,-34.6674,124.0634,-48.6097,132.8772,-55.7093,-114.4314,15.6258,72.6520,54.6870,131.5490,-70.6743,29.8795,-124.1805,74.7261
-104.3066,-110.0382,-54.7411,-105.7009,81.1247,-105.8374,21.3958,-66.3007,13.1221,-39.9213,-86.6335,26.8699,27.6713,-133.5383,-43.0318,-118.9684,2.2727,-158.0304,27.8185
-117.7292,-153.8467,-81.7952,-113.8898,14.5626,-144.2902,-22.8851,-115.1615,-65.2610,-115.0728,-25.5062,14.3641,-38.9738,-118.0910,-97.5550,-96.3732,-17.2500,-149.0434,-9.8630
-140.8740,-223.7717,-91.2454,-132.1887,-71.3741,-108.8987,-31.8003,-113.1566,-51.1008,-129.3454,-74.7635,0.5647,-129.6031,-14.3579,-85.1576,-22.7793,-21.3778,-134.1308,-14.1905
-155.6807,-145.8325,-87.5666,-83.8213,-90.9153,-11.7393,-68.5831,-10.0652,-30.0730,26.3375,-173.5072,-44.0098,-168.6706,31.0936,-93.6990,9.4348,3.1605,-88.3851,1.4443
-86.4661,51.2767,-74.1378,-5.6625,-65.4836,78.0210,-71.7045,101.8361,-70.9334,152.6918,-153.4391,-85.4710,-120.0852,63.8679,-82.6805,5.8573,46.2908,-22.9438,12.9228
-6.9562,50.6805,-34.1229,0.7960,-40.7690,71.1315,-8.5659,112.6085,-112.8913,105.0860,-51.7193,-75.5800,-39.1280,30.3014,-91.8409,-24.3077,44.4048,30.3935,33.5455
-19.2002,-149.4222,-14.2562,-22.4064,2.1989,10.0037,50.4252,75.4071,-92.3590,49.1974,-5.4764,-33.6002,27.0299,-78.7376,-152.7588,-56.9032,-3.9857,82.1105,82.4470
-59.6886,-220.6511,-42.4068,13.4994,55.5667,34.1813,81.7897,99.9321,-49.8055,105.8962,7.5709,29.3842,71.6155,-33.4553,-138.4308,32.5394,-7.9052,119.2154,141.4538
-49.8583,-47.5738,-19.8866,35.9655,94.4429,133.8577,136.9746,175.4283,0.1202,186.6507,58.0103,92.6868,94.7673,154.0633,-12.0225,204.6480,46.7124,121.7903,201.0883
-28.0586,237.1750,73.4792,-30.0316,132.6390,162.0990,214.0190,222.2325,118.6138,229.4850,84.0431,80.3639,100.7984,147.1163,102.2548,197.2885,63.4329,117.3315,265.4003
-24.6110,417.2704,76.8409,-55.8638,132.6272,92.6739,222.1176,203.9937,254.9393,229.6154,28.4230,17.8120,72.6151,-39.0557,163.6707,-4.4546,10.7870,96.7388,279.4034
-32.4301,231.3304,-49.7675,51.9002,32.7695,20.3191,97.0445,128.3260,239.3554,150.8860,-29.8924,15.7685,-19.6312,-79.6980,173.4597,-126.2311,-46.5947,15.5067,184.1548
-80.2995,-202.7986,-146.1190,106.6105,-107.9494,-36.8585,-87.4504,23.0060,54.2755,14.0335,-43.9698,21.4802,-133.6753,-16.3198,62.1643,-96.8668,-83.1498,-89.7978,44.6653
-144.5219,-309.8302,-154.8216,-36.9406,-180.3416,-102.3320,-186.5371,-57.8111,-99.8559,-74.5255,-94.9114,-56.8517,-173.6375,-71.6024,-112.4998,-42.8070,-110.8667,-133.9211,-21.1137
-124.2905,5.9826,-138.7990,-145.6364,-152.6454,-111.3899,-159.1246,-55.7926,-73.5942,-41.0503,-173.7206,-90.7313,-115.6227,-129.0070,-156.2852,19.8146,-90.2305,-86.3848,-8.2602
-38.5924,119.8108,-81.3681,13.4039,-50.8141,-29.4637,-87.9312,9.2367,38.9910,55.4740,-128.8294,-2.2084,-29.9802,-53.2125,-52.5106,53.8250,2.6714,-2.9623,-1.3467
-33.9661,-141.6792,14.6062,215.1576,34.1946,19.7933,-52.5037,17.7686,45.5985,52.0868,34.0924,27.7775,2.2715,-8.3565,11.6763,-44.9188,80.6242,-6.5981,-42.3181
-117.3574,-209.3732,45.1981,150.4574,-1.8798,-65.4859,-73.9151,-83.6650,-66.6038,-87.1510,119.5183,-48.2131,-37.7327,-78.1644,-52.4917,-165.1792,52.1148,-131.2364,-105.5812
-134.6416,79.3560,-2.0690,-34.6766,-105.6701,-181.6967,-126.9387,-168.5109,-137.2006,-168.6894,76.3929,-34.4746,-89.2588,-115.6791,-122.0775,-125.5908,-35.7284,-222.7418,-153.9579
-62.0155,276.2832,-43.0990,-45.4861,-146.0898,-183.5402,-157.0190,-132.1812,-117.1469,-101.0784,18.3867,62.4666,-93.6491,-59.4471,-70.7945,-10.8579,-71.1487,-190.8952,-167.4132
-47.6877,252.3929,-66.2608,39.1490,-135.9920,-101.7550,-149.1455,-62.6000,-104.9372,-55.2619,-21.8841,48.1569,-75.9261,28.3400,20.1082,50.5874,-34.7235,-167.0570,-140.6666
-117.6879,206.3091,-74.8871,-10.8052,-141.9201,-53.2986,-147.0557,-56.4494,-98.3632,-103.9378,-45.2556,-30.8353,-78.9975,103.8976,-8.0639,105.5832,3.6487,-227.9138,-90.1998
-125.5694,70.2653,-41.5174,-151.1564,-146.3257,-67.9989,-158.3229,-81.4247,-28.4306,-120.1678,-9.1521,-5.0003,-93.4255,93.8699,-90.8083,121.3616,-11.2239,-273.7401,-61.0356
-52.0189,-187.5895,-28.5406,-207.9924,-145.5505,-109.6729,-144.0803,-109.7734,33.9607,-92.7813,18.7754,55.5091,-102.5655,-39.4207,-46.2988,-10.6804,-70.1587,-247.2671,-76.2913
-47.6400,-237.3163,-95.4494,-171.5435,-151.0327,-138.4921,-113.3856,-142.2431,10.5326,-101.7425,-46.2183,4.0157,-95.5295,-148.0759,58.9232,-160.0160,-113.5433,-168.3674,-85.0092
-121.9735,-7.0272,-142.0900,-116.4711,-118.2387,-112.5547,-108.0222,-128.4684,-37.9171,-107.0463,-83.8919,-100.2238,-58.9859,-88.6277,24.2352,-128.8357,-97.9685,-56.6544,-42.4015
-120.7760,74.8995,-87.9489,-49.4445,-54.2256,-47.1241,-120.5121,-76.3731,-74.9196,-77.4609,6.4361,-115.3324,-22.6967,28.4353,-102.1034,-16.7102,-70.3716,14.7092,-2.7649
-41.6559,-135.3509,-24.2256,11.7765,-20.6725,-29.2621,-111.8923,-80.3719,-111.5004,-66.6300,78.6296,-28.4823,-11.6678,20.8096,-133.7652,-10.3035,-114.7050,11.8014,-19.4929
-34.3414,-211.9967,-37.4121,-23.9756,-5.1203,-77.1150,-74.5384,-121.8120,-92.8044,-62.4200,21.1669,46.3898,13.3271,-75.7621,-74.1856,-56.5609,-217.6089,24.3846,-40.9765
-108.0346,65.1609,-96.2288,-158.7857,-0.9088,-106.7790,-45.8574,-99.0581,-36.3744,-35.2334,-54.5277,6.4695,44.2384,-112.8644,-32.5298,-56.2920,-273.6183,49.4399,-15.4413
-140.1977,315.7901,-133.9374,-217.2371,-48.8972,-96.4622,-56.3920,-49.5743,-40.7998,-27.7536,-46.4203,-99.1999,18.2936,-87.3092,-16.4767,-82.3804,-214.9208,-18.3363,28.9923
-99.2651,176.5464,-98.6628,-96.8512,-87.5623,-105.3334,-64.3998,-56.6492,-33.2886,-34.5392,16.1866,-119.4199,-20.9937,-89.2080,0.7473,-164.8625,-69.4613,-105.9647,61.4094
-49.8429,-163.3287,-10.4978,51.2100,-54.2797,-121.1344,-29.0746,-63.6577,79.3918,-7.8325,74.2578,-25.8850,-10.6276,-115.4888,-11.9887,-169.6029,76.5811,-78.1078,60.7801
-42.1534,-258.1249,23.7077,86.5462,-49.1621,-85.8344,-31.2950,-23.7664,113.8630,15.8464,83.6134,46.3149,-27.5727,-121.5793,-76.4779,-77.9304,149.9533,-16.7813,-7.6720
-69.8155,2.9729,-20.6857,77.8300,-108.7988,-32.3824,-136.7359,-21.5239,-63.3412,-18.4459,36.2721,3.2637,-101.1931,-114.6851,-153.1282,-59.3593,156.8584,-32.6298,-101.0716
-69.4129,273.7773,-46.6167,65.2169,-111.3223,-22.7453,-216.8862,-88.4434,-219.3076,-95.6644,-44.2920,-99.9977,-118.5598,-75.9996,-178.8131,-131.2247,143.6443,-70.9933,-116.1747
-35.6501,217.6843,-51.6916,-22.5272,-69.9306,-30.9840,-152.1605,-130.1991,-155.9518,-161.1283,-161.4682,-150.5487,-79.9553,6.5125,-125.8740,-118.8296,93.8764,-83.0130,-70.8402
-92.5662,-29.1290,-129.2693,-127.0711,-112.8277,-11.4724,-58.5941,-96.7219,-20.6878,-146.3492,-283.5241,-105.9704,-97.8875,41.2717,-44.8680,-14.4609,-26.1850,-84.1320,-75.6010
-256.0560,-83.3275,-244.7775,-134.3598,-193.5028,21.0226,-73.3930,-32.2351,1.9801,-53.6478,-307.3548,-36.1748,-146.2969,17.9493,-30.2915,42.3457,-150.1882,-69.3103,-126.4179
-319.5445,81.7916,-282.9784,-117.2292,-194.1809,48.5017,-128.2988,22.4014,-64.7820,9.1100,-235.5006,-9.3374,-146.7153,81.4051,-93.5498,73.9349,-184.9169,-52.2948,-133.2435
-211.5399,161.4530,-244.1429,-152.0824,-136.0619,82.5933,-113.0057,57.2261,-110.1968,17.1304,-185.9868,22.4679,-135.0593,199.3764,-125.9409,126.7097,-151.7590,-28.1068,-94.7759
-133.0880,67.3843,-190.3128,-142.8139,-70.5578,113.5496,-47.6219,79.9857,-79.4664,61.1525,-160.3579,104.7568,-130.6398,168.0828,-75.3703,79.8846,-128.2308,60.8829,-73.4472
-168.4137,-38.9074,-133.7650,-61.1457,-6.1727,106.3598,-3.9896,103.3032,-22.8832,114.4043,-89.8261,151.7352,-95.3809,43.7894,-48.7749,-35.9889,-121.0632,152.8186,-80.2322
-184.4695,-102.8643,-88.1335,-19.7500,23.8271,50.9239,-12.8695,98.3539,-31.5731,75.2992,-42.6143,96.1864,-63.9001,32.6871,-100.4947,13.2970,-99.8018,114.3414,-93.7439
-153.1885,-108.2017,-87.4392,-47.4526,3.4526,-26.3019,-62.6385,29.0808,-110.8775,-5.5752,-93.4533,18.2903,-85.0008,67.4909,-111.0281,156.2308,-88.1389,10.5852,-120.9626
-148.8533,33.2321,-122.5944,-95.0333,-42.9782,-91.3528,-119.1675,-48.0550,-195.8151,-32.2293,-153.5062,-3.7241,-125.2432,12.3927,-43.0444,76.9147,-132.7418,-19.8262,-174.4976
-135.3917,198.5866,-145.0441,-134.8282,-98.0334,-121.7492,-153.1765,-46.6620,-216.7879,-18.7997,-121.1333,2.5166,-136.0544,-41.7158,-26.6577,-144.8271,-203.6528,-16.7470,-215.9515
-74.2689,136.4332,-115.5370,-91.5430,-114.7877,-101.0487,-140.1910,10.3226,-112.4956,16.6412,-7.1288,7.7956,-94.1139,-31.1001,-63.6039,-154.0958,-204.4483,-25.1958,-174.4003
-30.2249,-56.6521,-34.9414,70.8017,-50.8105,-27.7869,-66.2447,50.1604,43.2808,72.7374,127.1881,23.4681,-18.3995,-24.3642,-24.0850,16.0950,-112.7211,22.2755,-59.9696
-20.9898,-83.0066,46.4501,202.2045,30.0026,43.2346,18.8792,62.5129,57.8226,88.1840,200.7187,37.4340,9.0493,-19.6263,52.4899,57.8372,-30.4972,96.2734,4.9998
4.4651,60.1145,81.4397,172.2906,56.3053,28.4638,40.3831,42.3785,-37.6215,32.6057,166.6998,26.8729,-29.7724,-26.8913,49.2632,-54.3524,-26.6132,96.9248,-46.5560
51.5043,183.3877,85.5049,74.5345,56.4655,-56.9409,10.4670,-33.7496,-26.8859,-45.2471,99.5538,5.7618,-41.8229,-110.6837,12.4954,-130.8814,-25.3625,56.1444,-120.1762
99.8440,198.1338,95.4678,39.2445,55.7550,-97.2243,-19.1038,-117.5050,11.6584,-113.7058,90.1820,-2.0614,-13.3042,-169.1240,-9.5354,-123.6265,53.5484,33.6473,-121.0317
123.6419,97.7526,101.5463,40.6646,48.9858,-66.8970,-54.3000,-140.5377,-153.1993,-160.1603,96.0588,2.1449,-17.4493,-86.7166,-74.5917,-93.1092,144.1322,-8.4087,-97.9549
75.5078,-13.0530,69.7703,-5.5213,66.8786,-63.5251,-83.4160,-125.8556,-356.5875,-155.3396,32.7959,12.1825,-28.5890,4.4079,-145.8948,-57.4780,134.1432,-68.9319,-123.2906
-21.2156,12.8569,2.6014,-79.9641,99.2688,-92.6739,-44.2957,-100.3715,-295.4958,-93.4745,-78.8785,28.1496,5.9285,5.1806,-122.2044,-16.9652,42.7473,-67.4110,-155.8724
-71.5816,79.5219,-52.5696,-73.0125,86.9043,-43.8014,42.4333,-31.0122,-92.4961,-0.0619,-148.4684,25.2257,34.0724,20.2037,-39.6032,24.9597,-12.7242,5.7841,-129.1912
-50.9681,34.8556,-47.3858,21.5268,56.6102,74.5714,72.1957,50.8674,-33.5265,70.3688,-114.5337,-19.0105,24.9262,69.3161,7.9122,79.2589,9.0106,58.9417,-79.3419
8.6974,20.9031,19.6140,55.4452,60.4791,124.7117,13.8292,59.5517,-104.7699,55.3523,3.8670,-41.2119,17.6550,95.5523,-3.6107,139.8941,39.7878,27.6334,-82.6769
90.3737,101.2923,95.9451,2.9298,45.9700,77.3902,-67.4695,10.5732,-156.0778,-12.2836,98.8786,33.0197,7.2142,134.2155,-56.8912,161.7119,28.2282,-38.6560,-128.2688
124.3104,28.0466,113.8329,29.4002,-28.3663,29.0540,-114.9173,-28.9108,-159.8340,-43.8095,74.4191,121.8298,-22.8776,130.0763,-85.5734,90.6367,-12.8486,-55.4548,-150.6226
47.9472,-164.7327,56.0021,129.0511,-98.2207,13.4138,-126.4543,-62.1242,-148.9974,-56.4038,-8.7490,95.0095,-44.6425,-12.6760,-28.7052,-58.4728,-72.2800,-43.3900,-136.7666
-40.8592,-123.8156,-7.7960,94.7729,-110.8325,-21.4855,-126.3612,-99.2351,-137.9178,-98.7132,-0.7047,-5.8635,-55.1780,-137.9769,43.1960,-155.1298,-149.5017,-78.9606,-112.9753
-33.2235,71.2479,-9.3966,-80.5103,-94.9142,-101.4319,-126.5893,-128.3089,-128.6496,-135.7389,91.2873,-86.5886,-71.0503,-101.9763,23.2903,-102.1375,-232.2643,-140.2145,-103.6779
-3.4777,38.9971,2.2288,-220.5362,-113.5578,-188.9241,-138.8666,-171.2810,-135.9150,-161.3471,101.6952,-158.9719,-90.0737,-57.9802,-81.3191,-19.8413,-317.5649,-155.7021,-151.5703
-34.8965,-146.5338,-45.3482,-276.9352,-190.7996,-212.7857,-189.4694,-205.0182,-190.5543,-179.7470,0.8022,-188.8349,-125.0113,-97.2955,-194.3367,-81.6493,-372.7680,-123.5919,-240.3367
-63.4087,-166.7746,-99.5044,-261.8022,-247.3693,-143.9232,-239.7216,-150.6596,-244.6338,-111.8074,-61.1534,-107.6224,-171.2730,-122.6854,-223.1031,-212.1469,-317.4684,-69.9880,-234.3051
-46.7082,-58.7237,-96.0090,-158.5420,-208.2863,-61.0562,-197.7138,-54.5187,-201.9721,-4.3617,-49.6435,-39.8222,-198.3740,-160.4134,-135.4883,-205.4884,-175.2361,-22.9660,-102.6868
-50.8891,-25.2612,-88.0493,-66.3681,-164.9912,-53.9572,-112.7151,-44.6329,-136.1088,-41.9700,-68.1505,-109.1329,-225.2904,-234.1373,-62.4159,-77.8172,-98.9837,-27.0312,-46.0861
-97.8197,-82.0821,-100.9629,-63.8336,-210.5204,-90.8295,-130.8724,-94.1370,-184.1789,-159.9234,-94.1801,-150.4434,-243.4040,-197.1470,-95.0178,-33.5671,-113.2157,-52.8380,-153.6068
-122.4688,-131.6613,-69.9389,-20.7339,-229.3594,-97.2068,-200.6613,-95.1031,-237.0003,-130.8221,-45.4340,-16.8544,-169.7294,-75.5259,-107.4592,-127.3092,-71.1831,-21.2377,-222.3431
-92.9354,-69.0827,-14.4297,125.7870,-119.0783,-75.7866,-160.4833,-64.0085,-145.5144,-16.3266,-0.7213,140.1224,-49.2449,-52.5543,-53.5376,-195.9597,49.7622,36.3617,-143.4353
-43.9488,100.8488,-12.6410,213.0658,-0.9065,-52.7520,-58.8042,-57.8128,-41.7805,-6.2846,-34.5432,167.5301,-22.0348,-59.9327,-54.3006,-132.7550,107.2691,46.6129,-75.3932
-1.8831,151.2788,-20.9246,165.1621,12.4336,-29.5597,-16.8482,-60.6348,-59.1972,-54.2658,-51.7291,99.6488,-33.9500,28.1314,-57.1127,-24.4961,64.7736,41.1012,-88.5716
43.3210,-42.5281,32.0387,96.9321,-9.0625,-7.9287,17.3274,-43.5727,-94.8288,-51.4580,5.5417,14.6002,35.8169,95.9952,39.3995,56.9850,33.7582,60.3887,-66.9204
90.1969,-170.2150,100.5703,88.3845,15.0888,48.5480,88.4886,25.6383,-74.2903,7.4899,72.2889,17.1524,104.7742,109.9342,80.8991,175.3643,83.0056,98.5919,8.0393
114.9612,73.8981,137.0999,128.0207,63.4135,177.4814,124.8200,155.8773,-28.4770,120.9428,117.0802,152.6264,92.7818,192.2127,0.5800,290.3730,171.9248,171.9158,48.6177
127.7324,415.6086,159.1943,176.1146,82.7016,280.0331,113.1172,237.6785,44.9315,210.6515,123.8741,239.3114,74.8963,253.5591,-11.8780,209.6549,218.7509,228.5227,47.8180
161.2200,359.2234,161.1630,195.2560,45.4439,234.4521,72.4249,186.0762,72.7935,168.1622,57.3232,152.4485,64.0947,164.3056,45.3618,0.3064,187.4842,158.9390,33.7400
183.6052,-42.5584,133.3804,209.3491,-17.0583,131.4156,-16.8118,122.4226,-18.1442,102.1749,-15.4894,78.2840,24.8656,90.0347,32.2849,13.7040,119.3001,28.8220,-1.2061
123.0327,-261.7174,98.7077,222.9891,-45.2520,117.6889,-76.4442,152.8204,-59.4148,144.2218,-6.6664,118.1005,18.7668,157.5754,34.5523,266.7416,51.0949,-17.7982,-40.5511
-1.3294,-69.4266,58.9918,132.7270,-49.6320,122.6089,-38.4402,167.0962,33.1876,161.6744,30.7679,94.5919,46.9722,194.5530,86.7131,352.5152,-17.7108,-38.4756,-69.4030
-62.7630,212.2625,28.8615,-46.4522,-77.8323,30.4002,-41.4939,85.0809,0.3006,62.9647,34.7994,-30.1245,24.5146,82.1841,21.3320,135.3624,-54.1575,-113.1538,-109.4175
12.6090,238.1128,38.9425,-107.0885,-115.3694,-73.4723,-152.5061,6.8366,-193.9876,-7.3836,14.6741,-102.9182,-22.6011,-62.9300,-101.1321,-76.7615,-49.5160,-137.3461,-143.5158
98.8642,31.3133,16.9917,-15.4434,-140.6516,-67.9621,-189.3982,1.8930,-184.4054,2.6988,-68.7623,-110.3012,-49.5259,-110.7722,-81.4270,-79.8888,-80.9067,-70.3770,-125.9717
3.5410,-175.6134,-104.3873,45.1860,-161.5767,17.9975,-87.7437,53.5615,77.3548,32.0034,-201.0381,-93.7012,-88.8548,-32.8910,6.0904,57.7499,-140.0456,-14.2962,-57.0264
-204.6343,-230.1956,-195.1293,45.9784,-133.6635,108.1330,13.6920,162.8170,257.3091,137.5148,-234.0945,-21.0677,-82.0517,97.9407,52.4469,211.3434,-116.4960,23.6083,43.3839
-247.5515,-176.4046,-154.6925,62.7130,-29.9962,156.4699,87.3350,258.4525,295.4488,280.5706,-168.7328,32.6642,17.9498,149.0204,108.8791,227.6764,-53.5081,65.1806,139.8811
-108.2046,-122.7469,-127.6428,26.2919,43.1987,137.5151,155.0426,211.2760,323.1659,237.7856,-170.3623,-3.6675,63.4348,116.3094,119.5490,85.3960,-75.2077,39.1278,170.1346
-52.5094,-25.5186,-189.3062,-67.9719,12.0901,112.3565,145.4533,90.5381,287.5831,50.2016,-194.2749,11.4215,3.9682,144.3049,41.6862,60.5153,-105.6730,1.4373,155.6064
-121.7823,161.1332,-176.9205,-53.2332,-23.2195,172.7621,108.4968,97.9263,228.3702,38.0390,-76.6207,134.9208,4.7405,246.1624,37.5733,244.5630,-42.8851,112.0009,187.7290
-115.3169,232.9942,-51.0820,71.8256,8.1117,258.2949,154.9730,209.7797,299.9341,223.3793,71.4191,170.3667,65.1086,252.6371,120.4003,245.5571,17.0201,291.3700,231.5759
-25.8411,70.4105,17.6423,145.2700,29.1141,242.8264,182.3321,234.1091,354.5017,297.8442,49.3408,57.4090,40.1001,119.8199,120.1211,-67.9916,35.0384,325.0700,192.6294
21.7847,-61.3406,1.9809,188.6935,18.9170,170.9066,112.4725,160.0332,227.6071,170.2348,-61.3054,-2.5683,-0.4491,31.7743,80.8139,-205.9016,125.4446,225.9169,142.2032
43.1324,10.7546,23.1313,291.9202,59.9175,165.2325,90.8443,118.0106,141.2913,59.0456,-84.9215,91.5645,56.8976,103.7744,108.9688,21.6221,242.9360,140.8758,172.3018
38.7044,96.8400,62.6840,327.5455,127.7672,203.7503,135.4194,122.5032,210.4281,92.7627,-40.7790,201.5219,112.7151,187.1979,116.1283,126.9606,215.8365,109.1129,187.9304
-45.2394,88.6927,24.4896,184.8713,114.8315,206.4018,110.5415,122.1447,214.7141,169.5755,-27.4436,168.7101,102.6966,133.3719,94.4977,-74.0804,84.0852,111.9339,121.3623
-91.4853,50.7739,-51.5058,27.0079,52.2599,193.3207,90.3552,137.2153,161.0644,170.7458,-47.3645,23.9139,107.2767,69.6501,133.1419,-115.3102,21.7382,125.9233,84.2804
-8.2016,-22.6664,-66.3062,20.2710,48.7998,193.9333,170.4047,168.9573,211.5842,110.4525,-33.0412,-38.4717,123.1419,131.8660,137.8505,161.8902,45.1569,97.3667,115.9484
35.1245,-53.8236,-18.9636,84.4869,71.6458,159.2569,173.5887,157.9650,175.3598,83.2725,45.0449,45.8865,88.7533,158.1360,39.5628,286.6589,50.7519,27.0638,102.4131
-37.9418,46.3880,15.0540,94.8878,18.2337,67.9967,16.0257,116.7209,-73.9344,136.1383,101.7830,95.1643,29.4239,33.5899,-24.9567,41.5310,-1.3805,-23.4578,28.8000
-51.2143,71.1072,-11.6291,69.6891,-81.3890,-11.7123,-89.7823,117.7957,-187.5085,205.1893,31.3118,29.8232,-23.2352,-24.0867,-12.3762,-172.3655,-62.3182,-46.9485,3.6566
15.1274,-65.2637,-57.5085,44.5692,-117.6083,-15.7203,-43.2997,150.7614,-2.1535,203.8155,-99.4523,5.1140,-52.0298,79.5984,3.3765,-52.2788,-81.5602,-54.2901,45.1991
-0.7421,-70.6003,-52.8267,-16.4510,-69.0329,38.7115,37.0245,154.2766,153.4079,150.7847,-118.2061,47.5720,2.1470,101.7250,54.2783,169.0168,-82.2810,-15.7219,86.3982
-68.6157,43.6721,-21.5657,-116.5284,2.5626,76.4717,107.4101,125.0731,145.7865,118.8728,-17.2613,14.1222,122.2516,-10.9149,143.8722,178.5503,-109.8540,33.6297,114.5974
-62.7624,-44.1972,-40.1022,-194.6874,46.2092,45.9886,179.1922,84.3969,185.9722,99.5742,43.7784,-72.8880,181.3795,-31.1191,173.0994,27.3042,-133.9007,14.4491,140.4334
-40.7207,-219.6632,-91.0816,-214.6898,47.1253,-15.2654,183.3339,42.5046,263.4799,55.2124,-4.2604,-100.1129,134.9617,38.1508,137.4801,-46.9320,-117.4580,-28.0095,132.3507
-93.2797,-248.5054,-107.4030,-190.5467,14.3568,-33.1017,107.9237,31.1124,188.9380,23.8182,-59.5786,-110.0614,72.2740,27.2403,89.8130,23.0202,-102.0833,-2.1174,90.1845
-168.7365,-292.8397,-106.2375,-165.7572,-28.1868,-11.8344,52.7277,58.6323,42.1711,34.1831,-40.3484,-149.4663,58.1492,-3.3605,42.4592,100.9433,-112.4464,43.7535,81.0998
-180.0527,-332.6020,-130.6879,-186.2378,-60.1153,-6.5933,59.7138,83.0659,21.2280,52.3888,-25.1653,-148.7301,50.5475,26.7151,39.6194,74.1333,-121.3954,33.0929,118.0947
-102.3088,-146.6808,-143.0063,-221.7855,-79.8324,-3.2574,53.0295,103.2087,62.6324,86.7569,-105.6078,-93.1088,-17.8133,1.8654,55.1341,3.0936,-132.8517,16.6021,103.2478
16.5989,-14.2362,-87.7307,-191.7418,-93.8040,39.8513,-35.1614,145.2811,-16.2267,148.2972,-170.2167,-50.2521,-108.6278,-73.4742,-24.9958,11.0819,-132.0026,42.8567,-10.4918
92.9157,-192.3041,21.6320,-112.2635,-88.5397,74.0038,-142.1857,155.7838,-160.7352,146.4760,-42.5900,-44.4520,-103.0515,-40.6361,-122.9462,95.8659,-59.7016,65.3825,-111.7521
115.6465,-301.0341,128.2444,-34.4596,-41.4919,39.1120,-144.0563,91.6026,-163.3637,54.2102,186.8605,-37.2012,-5.1842,60.9615,-89.1292,158.7684,43.2587,75.3019,-108.9462
132.0047,-167.6353,177.4721,103.3363,21.0386,-7.7049,-70.3221,35.7287,-56.7478,7.9537,251.6887,35.5835,43.7781,70.3743,-52.9828,154.1730,70.9784,110.6191,-80.2517
132.9915,-104.7519,144.5819,289.4059,37.0524,2.7011,-71.5912,38.0951,-80.6226,43.3668,119.4074,158.6495,3.7801,-2.1976,-133.2750,95.0038,38.4027,117.9422,-112.3868
108.9264,-73.5419,66.9131,318.9257,1.8964,19.3390,-142.4826,11.3924,-218.4153,15.0451,1.7704,179.9021,-38.1512,-67.7284,-139.3108,16.7642,9.5995,32.2291,-158.0596
92.3898,103.2454,15.9297,153.6637,-35.6048,-10.1833,-159.0370,-63.0688,-227.1589,-87.6176,-3.7854,53.7312,-52.7971,-91.3002,-0.3912,-0.9607,-28.2339,-53.3076,-165.1281
40.2265,159.0827,13.1476,37.7880,-53.2756,-19.2090,-139.6798,-62.5688,-146.2151,-87.1765,12.1465,-26.6944,-54.0364,-34.7371,44.6701,63.5126,-58.2618,-16.5479,-159.1562
-81.3684,-10.5876,13.5048,49.4586,-44.1708,43.4927,-153.8372,33.7823,-191.5427,44.1537,-9.3919,27.0492,-23.7296,65.5368,-74.5638,91.9618,-30.3560,80.0518,-143.9443
-126.3259,-126.5919,-22.5304,15.3730,-6.3547,94.3704,-145.4976,79.9846,-252.6041,112.3660,-39.4030,49.5006,6.8836,57.1204,-143.9285,24.4157,-5.6246,93.5160,-102.9773
-6.1987,-178.2258,-77.9644,-83.6300,6.8010,47.6151,-94.6216,9.7261,-133.7716,19.5433,-54.0401,-34.0190,-11.8469,-82.8124,-66.5250,-31.9349,-58.3333,16.5018,-77.7886
80.4490,-262.5648,-102.8916,-125.3087,-36.2448,-44.9962,-88.7034,-69.3895,-19.3066,-92.5122,-39.3697,-106.0014,-32.0398,-170.2853,16.9442,-26.4720,-117.2114,-50.0643,-98.0605
-19.9707,-218.0750,-67.0460,-130.0242,-56.1066,-65.6959,-125.5227,-59.9303,-116.4030,-85.5380,22.0129,-94.2733,-4.5569,-97.1698,-18.5932,-17.3355,-91.2932,-41.9771,-116.5837
-132.7467,-70.7720,10.8215,-132.5345,-2.0664,26.3932,-112.0304,8.4563,-240.8360,-23.4382,100.5095,-0.2530,34.8591,37.8112,-87.6006,20.9908,3.6727,30.0829,-96.9335
-65.3192,-20.5127,81.6722,-61.5739,63.5581,147.2483,-31.0593,54.0922,-193.9788,-13.8890,131.3361,135.2845,74.1975,96.6066,-37.8029,102.0408,116.7227,104.0245,-59.0120
105.3581,-2.7776,121.3575,34.4114,117.3445,161.9192,55.7116,32.4420,-114.1247,-32.1063,109.6573,170.4668,123.8507,26.9589,30.7069,67.6446,194.9764,111.7803,-22.1960
222.4359,10.2197,152.0965,13.1575,187.2877,45.0266,83.9648,-37.1409,-158.1524,-37.3911,109.0086,40.3061,137.7434,-109.7277,-71.0359,-125.0085,194.0056,69.3588,15.3162
249.0273,-75.6262,197.6152,-76.8119,235.9112,-53.2382,70.4907,-74.2483,-187.4900,-45.2647,180.9110,-81.9267,125.7551,-149.8701,-147.5705,-202.0738,171.4247,80.3202,70.9993
208.8829,-59.2022,251.9931,-74.9357,258.5886,1.2937,140.9359,-12.3307,-22.4552,-11.9999,283.9887,-44.4886,182.8715,-12.1730,70.0356,8.2463,232.2930,180.0190,156.9046
154.6641,134.7043,296.1155,30.3025,322.9082,117.2643,297.6025,87.9163,174.4943,77.3333,331.8242,82.1271,275.3969,125.2617,290.9947,230.7255,335.1109,252.9271,215.2050
