Fp1,Fp2,F3,F4,C3,C4,P3,P4,O1,O2,F7,F8,T7,T8,P7,P8,Fz,Cz,Pz
-157.2888,-118.3185,-57.8851,-68.9206,-28.2908,-31.5578,7.5696,12.0748,-10.5822,31.8180,-56.3492,5.7464,-24.4402,138.4286,-48.9993,-33.9960,-46.4747,-47.9792,7.4971
-306.4000,-137.8552,-135.3834,-46.7923,-28.1607,-52.2183,43.6259,8.2271,215.5865,31.7111,-96.7301,-65.8215,-156.6501,-228.1813,66.6319,87.7273,-113.9544,-121.9976,110.7545
-337.9314,-128.1792,-147.3278,-37.0549,-11.0336,-61.7299,90.9885,24.3077,403.7715,33.9731,-129.2753,-85.5026,-209.8879,-389.8199,136.0562,142.2003,-193.3708,-128.9199,151.4077
-299.0273,-139.4764,-135.7596,-44.5431,-5.1482,-59.1315,103.2011,41.9775,304.8113,29.6797,-144.2606,-52.8108,-201.5005,-296.9932,122.7181,128.6656,-256.8617,-112.6276,104.7980
-304.1977,-154.9854,-159.2778,-41.0844,-16.6694,-27.4785,95.7515,49.1148,80.5408,35.0057,-152.6978,-38.7453,-214.6732,-233.8555,102.2191,125.7678,-252.9835,-113.1569,80.1127
-323.2721,-155.0889,-173.0020,-10.7780,-18.7829,24.0113,79.3522,64.7012,23.3021,69.9527,-158.9211,-41.3931,-222.1403,-255.9967,71.9098,121.7597,-194.9852,-99.4831,87.3201
-298.4094,-142.1350,-137.9658,30.6062,-4.0710,40.1762,35.2481,68.7662,96.3812,65.2078,-141.3320,-18.3650,-185.5222,-243.1059,24.2896,88.1700,-155.3916,-70.4508,85.1278
-256.6067,-94.8259,-89.6521,57.2673,20.1459,18.1296,25.1714,24.8063,142.3636,-37.0343,-94.9904,2.1493,-148.9210,-217.3071,55.1423,64.5961,-138.3720,-44.8532,110.5078
-225.0937,-40.4570,-64.4013,61.7998,57.0300,16.7702,111.6204,-18.9526,172.9229,-112.9735,-68.6770,-9.8486,-134.0282,-222.5817,150.3703,64.7451,-105.1320,-17.4263,157.1786
-189.6134,-11.8984,-60.8578,65.8254,96.4046,43.0822,185.7111,-0.7887,180.8392,-45.8157,-84.2764,-7.3009,-114.0263,-221.2414,162.3385,62.1666,-74.0100,-0.9020,156.4262
-158.1040,47.8143,-62.5392,85.6538,108.3099,55.9149,137.2414,29.9640,110.1109,37.8939,-89.3694,27.5407,-101.0336,-231.0177,97.8465,59.6204,-72.2622,3.5688,115.1818
-156.3294,127.7794,-61.1165,101.2399,78.1996,46.0348,68.5912,8.6997,72.2752,3.3288,-67.5076,38.4295,-115.4673,-276.2957,68.3541,56.3365,-82.9035,27.1310,73.2523
-150.7465,133.0363,-56.3624,95.3651,29.5281,16.9230,83.2788,-28.8836,132.5337,-55.9497,-57.8969,23.8339,-113.0697,-292.9377,52.5718,35.1375,-84.1797,47.1208,35.5049
-96.4125,115.3157,-37.8514,82.9040,6.3767,-29.7044,93.1984,-45.2445,102.9121,-56.6591,-43.0010,32.2706,-62.0984,-266.4400,24.9174,9.1918,-65.5077,26.2604,21.5663
-58.3575,150.5952,-13.8917,69.8693,11.9574,-60.3188,38.1520,-73.5750,-40.4698,-88.3106,-6.6954,34.1816,-30.1347,-266.5237,59.5690,-13.2184,-33.2300,13.2594,22.8031
-94.8300,152.9014,-23.8566,51.3040,-3.7851,-54.7095,7.0448,-120.9269,-40.2477,-181.5741,-14.1516,-4.4115,-74.2750,-285.7690,132.1081,-38.8510,-9.2463,44.7493,-9.1568
-90.6582,127.5090,-39.8747,53.6623,-34.7128,-38.6298,23.4345,-140.6268,64.3477,-224.0583,-44.9207,-13.1739,-109.8392,-263.5069,130.0193,-36.5299,17.3335,81.8294,-52.1337
16.2095,183.5296,19.9402,95.1217,-1.2981,-16.8699,-0.6762,-123.2976,-26.8182,-170.2906,19.4941,40.2094,-38.6112,-227.4494,56.0074,-6.0346,62.6839,115.5291,-71.9371
43.3677,221.0597,104.1879,130.2440,71.1752,19.4010,-66.4607,-104.1965,-191.5541,-103.2460,118.0995,72.1264,55.7959,-228.4848,-11.5051,-12.4674,82.9739,128.0630,-95.1759
-104.5824,128.0345,69.2356,107.5344,47.9102,24.0975,-83.9824,-90.7808,-85.3151,-80.1349,68.8065,50.0703,23.0524,-239.9389,-26.1040,-32.4587,45.8058,29.6947,-71.4709
-267.7483,15.5539,-76.0309,38.4393,-66.3120,-37.2472,-43.6394,-55.6365,142.2425,-56.3733,-88.9232,15.9036,-114.0214,-246.9617,16.6282,20.3204,-24.3734,-151.2081,49.7793
-365.5165,-85.3592,-201.5336,-24.3785,-128.4351,-107.3529,-22.9780,3.2264,152.7011,-2.7050,-176.4732,-40.5703,-212.5483,-289.8932,37.1492,79.5644,-112.7498,-232.7949,108.1913
-414.3015,-178.8980,-234.5465,-34.0824,-123.6013,-117.0129,-47.4521,33.8367,58.5425,-20.6713,-161.8501,-111.0580,-208.9353,-336.3876,-20.7676,37.9350,-160.5932,-176.9326,-4.2308
-283.1777,-39.8279,-142.4483,15.8733,-144.8516,-64.4505,-52.5015,-1.7741,89.3698,-177.9840,-84.3312,-107.7727,-133.2447,-284.7161,-29.6332,-11.3368,-56.9403,-129.8014,-94.5322
41.7631,293.8799,45.3655,86.0030,-168.1782,12.6644,-2.1870,-47.7087,141.3262,-291.5867,43.8592,-26.3868,-37.7082,-155.0003,92.9982,42.3867,132.1933,-138.1497,-44.2714
266.5573,348.8935,167.4561,143.9027,-114.2505,67.9250,35.5892,-23.0750,105.5961,-172.9887,138.3214,36.7584,26.2278,-90.4152,177.3722,107.1212,196.2297,-117.6419,-0.4209
256.7037,103.7293,143.4104,184.8217,-18.9233,78.1850,14.0058,49.8575,108.2946,26.4931,137.7363,58.0234,52.3221,-127.6795,124.2703,95.2023,139.6813,-48.1607,1.6028
211.2466,67.8702,114.0544,188.5063,43.4022,81.4409,12.6185,91.4167,199.9272,77.3105,129.6953,64.7999,79.2105,-152.2530,84.5895,69.6801,135.4851,14.2277,70.3010
241.4412,276.5015,157.7202,155.0191,66.5229,123.6036,82.9804,90.5521,236.8574,44.1277,160.3464,44.9225,106.4325,-96.7488,123.1552,63.8544,180.6460,43.8217,140.5727
277.1595,337.8663,165.1719,156.5630,66.5215,188.4100,125.6036,85.7689,138.7953,63.1095,152.3539,28.4014,102.7133,-18.3739,127.7287,45.1527,178.3275,67.0567,102.3349
273.5140,267.8443,107.8177,226.4926,61.6323,237.7986,75.3428,90.0483,12.7229,85.9542,109.3818,75.2014,84.9554,16.0235,84.7687,45.4699,157.0888,118.2461,33.6053
211.8705,294.8175,81.6775,283.2084,84.5521,257.4631,25.5051,93.8271,-4.4070,65.0065,108.5473,141.8710,86.0441,6.7243,76.9337,90.7021,147.2769,177.3506,13.9511
151.8250,330.4800,97.0637,274.4864,126.5055,237.6027,38.4222,82.3662,52.9615,45.9539,129.9448,148.9434,95.8606,-7.9582,101.3882,115.3875,115.5008,184.5339,6.3656
219.2439,247.2064,100.5558,247.9316,134.9274,189.0227,49.2192,57.5421,39.9535,36.8608,123.9865,109.5896,93.0007,-12.2380,102.3612,90.9236,86.2458,143.5847,-4.4280
309.0997,140.2810,87.2622,219.9854,95.3140,156.9460,24.2803,56.8654,-24.2081,34.5933,99.9412,67.8633,68.8275,-31.0066,59.0390,75.4672,85.8364,105.9889,-14.6880
213.7387,116.7254,57.5758,161.7450,34.6161,151.2249,-5.1042,80.9521,-10.2399,50.1036,57.4703,40.0658,20.5372,-69.1472,4.9076,87.0491,84.0235,58.2014,-48.0079
85.3028,183.7800,20.7337,108.5992,-34.1624,126.2712,-48.7388,63.5118,9.9752,29.9771,12.5194,41.3172,-31.0289,-88.8036,5.7557,85.6754,102.1611,-24.3899,-78.2122
165.9198,270.6306,27.1956,109.0164,-92.7646,73.0722,-99.2486,10.6856,-66.8825,-32.4892,28.3478,57.9861,-52.8064,-89.7808,47.8533,68.1008,166.0804,-74.3311,-58.2140
306.2841,292.6534,76.6802,129.9956,-89.4124,48.1867,-72.4053,20.6768,-68.0638,-24.3872,86.3490,57.7227,-40.3289,-107.7032,42.8852,62.1055,208.6999,-33.1025,-2.0105
309.3900,293.4594,105.0374,135.0592,-9.8982,85.6391,30.5804,86.4425,84.1518,61.4016,93.9785,57.7822,-17.7283,-117.0671,5.1647,63.7716,205.1072,45.1460,56.3705
261.7699,329.0614,100.1533,150.7648,62.0312,145.4901,68.7199,96.2346,96.4164,88.4094,57.2610,77.3441,-12.1097,-78.0256,6.7687,52.4416,217.7331,86.4764,81.8496
232.2734,301.4513,101.1915,190.1523,43.9640,162.0497,-12.1264,47.7696,-129.4620,37.8684,53.1991,82.2802,-19.1891,-40.7894,5.3695,37.2994,242.3444,78.9340,40.6682
208.8703,211.5297,121.7706,211.0547,-21.7562,113.3558,-101.8822,22.7435,-261.1691,-0.0568,89.6621,61.7270,2.5334,-64.1097,-33.5307,45.0181,234.1784,33.6337,-25.8335
254.2155,227.5150,155.4982,179.5751,-51.0312,42.4544,-136.7135,13.7119,-170.6316,-27.8225,131.8778,46.4267,49.4172,-115.7302,-33.2795,71.8798,214.7488,-29.1620,-47.2684
301.2903,299.1620,187.1219,122.3616,-57.2356,11.9931,-162.0669,-14.3845,-99.9902,-70.3256,161.0393,38.8571,53.2419,-141.9404,5.7638,84.5937,194.7027,-66.9932,-37.5504
209.9187,242.6753,188.7595,98.4356,-71.5079,33.7582,-176.5095,-26.1536,-134.5917,-72.9091,160.2016,33.9271,17.8938,-133.7143,-2.0200,69.5491,150.0522,-60.3615,-27.1702
140.0641,157.6309,156.4349,115.2636,-45.9583,56.0072,-131.6291,-13.3042,-148.7102,-27.2588,135.7074,42.7405,27.0699,-108.2695,-29.2009,44.8709,106.0509,-39.7578,-1.9368
275.9102,190.4220,113.8970,112.2509,23.0630,30.7261,-53.7609,-18.6354,-98.3443,1.0214,115.8894,40.1363,74.1097,-100.1200,-4.1941,32.1641,86.7984,-29.7271,19.9090
401.8069,205.3928,76.6504,68.8084,55.7804,-25.4620,1.5432,-27.5806,26.3862,9.0843,94.3992,-0.1057,82.4283,-130.4758,42.8491,44.5041,65.3686,-14.2728,18.5405
301.0532,116.3394,45.3271,40.8941,54.3348,-64.3411,26.6833,-6.0903,188.3968,36.8695,53.0712,-34.5874,55.5444,-173.3097,69.9116,70.0680,39.0659,8.0285,30.0700
114.2564,57.8690,7.0677,38.6919,73.8730,-79.3850,7.2295,7.6268,192.4786,50.0759,14.7153,-29.1274,23.9416,-206.6706,78.6748,70.4044,23.0403,-0.8754,48.3271
-12.8750,54.1326,-41.1627,0.9603,62.9223,-95.0103,-60.2570,-13.1612,1.7668,-1.0086,7.8901,-38.8689,-18.8486,-241.4950,65.1959,48.0753,-0.2158,-39.8860,31.4198
-88.9315,10.3580,-59.5672,-71.0546,-9.1885,-108.0691,-91.3872,-22.7213,-102.7635,-65.0105,27.2991,-109.0704,-31.3908,-266.1797,48.7708,56.1773,-34.3970,-51.2763,14.9843
-65.0886,-41.0366,-35.4995,-101.0676,-26.1898,-107.0916,-27.4896,-11.5241,-8.4856,-66.0674,40.7637,-168.6696,17.3446,-253.8096,53.4030,84.6764,-65.7675,-30.1612,26.4667
57.5369,-34.1697,-39.5039,-70.1641,54.4650,-105.9456,53.6729,-27.8742,69.6352,-35.1450,11.2005,-122.8874,41.4876,-220.6624,53.9238,66.6297,-96.3018,-27.3885,20.9056
117.5088,22.3077,-95.7291,-37.8887,115.4718,-96.7355,88.2782,-51.6262,58.7590,-26.6189,-44.0820,-20.1368,-2.3539,-201.8848,57.6798,32.4400,-101.2644,-20.7817,23.2404
78.6155,125.4424,-111.3189,-36.7126,127.8794,-47.7326,123.8835,-9.3923,94.9490,5.3781,-45.4935,-0.8795,-16.6719,-199.6445,107.8283,71.5828,-60.3684,48.5582,88.4898
82.8582,179.2051,-37.2102,-28.4061,170.1453,16.2355,162.8726,70.3681,162.8736,79.1323,26.6196,-70.9903,33.1294,-188.2629,154.2362,144.5280,-26.1218,127.8401,134.1710
123.7729,13.7338,48.9967,18.4319,211.4712,39.5736,123.2723,78.9062,142.7534,80.7558,85.7211,-102.8951,60.8349,-152.7235,126.2332,139.0347,-19.0421,119.0762,84.3967
71.1342,-215.3452,70.4819,47.7769,178.2129,30.4503,19.3057,5.1113,56.6874,-28.8954,77.7995,-72.4407,48.7100,-124.4591,77.2265,68.3912,22.9616,37.2196,26.4593
13.3861,-117.1579,42.7617,-7.7812,126.7441,18.1735,-26.6452,-54.5423,-9.5675,-105.9807,57.1785,-64.3034,54.6009,-144.4960,74.3212,34.7110,85.8011,-31.0199,23.1974
153.7152,200.1941,37.4072,-82.1623,131.1043,-7.8685,18.5094,-50.2956,-44.6384,-64.6119,81.4775,-76.8027,73.7633,-185.1698,83.1757,65.1341,78.1147,-37.6987,16.7377
389.0566,195.9232,82.9348,-59.1520,155.5647,-29.0650,53.8043,-17.2144,-75.9253,9.3631,122.1810,-59.1029,62.3433,-193.5432,57.7467,98.9978,10.9097,8.4453,-7.1677
436.6573,-114.1161,103.3980,19.5257,146.3417,0.6502,11.7650,6.5745,-102.9316,37.0267,119.3719,-36.9810,20.9060,-175.1807,6.0204,78.1190,-31.2640,46.2049,-16.8595
351.8607,-154.7434,45.7048,33.1295,103.8404,44.7128,-55.3128,2.2576,-84.0495,23.0172,85.6560,-32.6954,-16.3525,-145.6163,-35.7684,17.1829,-32.8655,16.7065,-46.9355
406.0282,121.1843,2.4409,-1.7297,46.1080,29.7271,-93.3089,-37.0831,-32.3611,-11.6521,86.9791,-25.2324,-26.0167,-112.2882,-39.0751,-5.2584,-26.8446,-45.1583,-121.7514
521.4866,211.5258,33.8444,-8.8898,-12.3808,-22.6944,-136.4723,-81.6324,-59.7348,-46.5972,112.3227,-33.7536,-28.8360,-133.2361,-27.2072,33.6542,-38.6844,-68.2976,-185.2253
430.2115,70.5611,43.2423,-10.6122,-66.1934,-44.9664,-198.4977,-90.4996,-157.5152,-76.6450,90.1495,-71.3100,-57.0432,-217.3812,-29.6148,55.2067,-77.8863,-61.3197,-192.0222
231.8981,34.1250,0.6007,-34.6852,-111.3029,-28.6013,-204.0433,-65.9426,-151.4232,-103.3360,49.0292,-97.4575,-79.5472,-251.2438,-14.7139,30.4661,-111.9808,-60.4852,-155.2293
190.7919,53.1572,2.0399,-46.1629,-122.9314,-2.4568,-136.2724,-38.5497,-62.4752,-91.0556,68.5208,-106.2939,-56.6405,-202.1736,10.5083,30.1690,-112.5093,-57.0268,-111.6227
269.2954,-28.6798,32.9346,-49.2786,-92.3400,6.4547,-84.8601,-32.3241,-91.7977,-40.8789,101.2012,-111.2039,-33.5994,-181.2366,-18.2252,54.9416,-112.5589,-45.5971,-92.6972
316.9257,-42.2969,12.1278,-65.9405,-56.2258,-5.5499,-66.6527,-48.7496,-156.4878,-22.7642,72.0478,-91.0895,-51.1389,-200.3510,-42.8515,29.8625,-125.1038,-25.3435,-82.7383
314.0200,22.3384,-10.7995,-54.5949,-31.3001,9.5240,-13.4486,-47.5504,-11.6941,-21.0636,40.6523,-75.8165,-64.9949,-171.0796,40.4814,-11.3611,-114.2302,30.0639,-40.1805
247.0690,-39.5703,6.6437,-9.4090,1.6142,67.8872,50.8267,1.4676,240.8107,32.6555,59.3585,-103.9993,-50.1976,-131.4883,137.2316,18.3186,-96.4121,93.2038,6.7633
155.8165,-65.9340,2.3927,-0.0630,24.7123,78.4802,53.5610,40.0632,324.2110,58.0502,67.9304,-94.1186,-34.8503,-162.7732,118.7630,68.8447,-99.5456,77.9132,-4.2696
163.5197,145.9249,-5.4472,-23.5819,8.2414,2.1883,22.3500,5.3649,220.0694,-29.9409,48.8657,-3.1523,-18.3841,-201.7411,71.3494,48.8189,-63.6983,-9.6741,-43.3016
209.5955,294.6121,42.1066,-3.7077,-11.8544,-42.8587,7.3446,-50.4289,72.1619,-105.7394,46.9885,52.6431,-3.7702,-164.7317,95.6057,0.8560,42.7181,-61.4254,-33.8858
157.8170,189.2916,71.7164,61.0009,5.9740,9.3853,-6.6940,-51.7461,-3.5195,-59.4135,39.5234,42.5802,-25.2784,-82.9413,124.8464,3.6651,132.8707,-34.1020,9.9692
126.7105,132.6123,38.3905,121.7992,25.9860,66.3848,-29.5638,-20.9138,31.5929,11.1730,6.7655,81.3605,-55.2522,-14.2232,100.8509,37.9368,149.4971,12.0089,8.9255
203.8271,206.0396,34.8159,170.9872,1.5463,76.1802,-54.9163,-15.6773,20.3518,5.1242,7.7331,157.2865,-37.0754,23.9066,56.9810,48.5830,142.3218,19.1789,-53.9568
194.4328,159.8019,74.0766,194.2718,-39.7888,79.2177,-83.0942,-55.5776,-162.8390,-60.8235,43.0766,152.9782,-7.2056,33.4899,21.1029,21.9934,154.3751,-17.5811,-102.3993
58.5127,59.3036,76.9598,165.3372,-42.5344,62.5084,-73.3391,-125.0916,-266.1828,-132.6560,39.2630,85.3687,-15.8498,23.5520,11.7079,-14.9442,172.7917,-61.5870,-69.2934
15.0711,103.7353,65.6627,125.4329,-8.4866,10.2552,-3.6328,-164.4418,-90.0600,-143.7337,6.8202,44.9662,-18.7506,-4.3382,32.8587,-17.3624,174.9028,-60.7162,0.8020
67.9401,143.1570,80.5684,126.5623,14.2405,-4.7025,50.9964,-130.3770,77.0818,-96.4335,9.9184,43.3301,17.2969,-37.2517,46.7031,14.3439,146.7281,-7.7732,15.2429
42.1798,44.8917,69.7203,130.0074,4.6194,29.5314,46.0831,-84.9544,34.3534,-96.8383,29.6676,52.3367,40.5358,-47.5724,50.0252,25.5330,102.6330,43.8263,-15.6838
-45.0817,-24.4200,33.8122,83.9311,-14.6897,13.7023,35.2877,-93.0037,22.3121,-141.1578,17.6870,43.4163,20.1838,-64.2887,71.1173,12.6467,90.6273,64.4322,-2.9641
-82.2439,11.8488,39.4599,26.3596,-15.4340,-55.1558,41.9632,-102.2223,127.8485,-101.9581,-4.5481,5.6982,-3.3700,-120.6792,77.9997,19.2734,130.2915,92.7243,72.1864
-29.3488,42.5048,69.3514,18.9810,23.2307,-63.3406,58.0629,-66.5585,167.9002,-12.1460,6.2748,-15.4217,10.4961,-137.8718,50.0984,18.9044,178.0861,147.3230,150.0374
106.0575,39.0924,74.8282,50.0749,92.3534,-6.3967,101.1802,-45.2469,166.8678,-7.0521,39.8572,-3.2291,55.0595,-76.3010,36.1016,-24.6884,180.7164,166.5500,177.4675
171.0324,18.5043,67.1209,58.8134,118.1925,-2.5104,115.1669,-72.9422,189.7016,-51.8613,44.1200,-18.3614,77.1301,-64.6902,30.8168,-51.5045,134.7725,114.0305,134.3499
0.0356,-37.8786,42.8982,19.0021,46.6906,-74.8707,28.5022,-92.8560,120.1261,-56.2471,-5.1408,-63.0496,27.0700,-146.1295,-12.9021,-28.4337,90.3119,66.5536,61.0291
-234.9048,-64.8720,-9.9249,-24.5483,-44.4558,-110.2322,-55.3596,-63.0289,44.6388,-46.0222,-63.1919,-71.6244,-57.0459,-173.0619,-52.1959,-16.8991,100.3030,88.5291,45.8582
-245.3304,-11.0881,-37.2076,-10.4071,-49.8257,-45.1992,-23.7748,-9.1477,125.2516,-37.2143,-74.3557,-50.8037,-80.5675,-105.3789,-36.2437,-20.9867,159.9365,115.0896,97.4513
-61.2606,7.9606,1.7482,49.7013,7.6803,41.9784,26.8405,21.1251,136.2529,-6.0578,-39.9019,-38.5172,-32.9495,-60.6864,-13.5609,6.0344,205.5585,90.2572,129.0634
132.8807,-61.9509,65.1834,81.5790,53.5031,63.6576,14.7675,11.2394,-64.4678,18.2772,12.6407,-17.1238,9.3718,-67.8947,-28.0707,25.1055,180.0005,84.4109,116.2210
223.0062,-57.6270,107.0740,61.0012,79.8498,41.3688,21.3328,-7.8985,-151.4187,16.8470,63.3870,9.2359,25.1422,-85.9210,-56.0960,6.6819,103.4441,135.0062,103.3456
107.8733,77.1508,116.6363,42.6392,102.1227,25.3951,58.0919,-20.7719,-22.0294,0.1481,85.2135,5.6905,58.8390,-114.4208,-70.0946,9.8264,67.5269,150.9338,79.4747
-112.8879,130.6400,91.4804,54.2376,127.8003,6.6074,50.9884,-55.5396,28.4439,-45.1774,69.3855,-15.0272,96.4892,-115.9419,-55.8857,25.0983,107.5055,97.6134,31.7054
-133.8956,11.0993,44.3470,50.7735,167.8534,-13.3663,33.4975,-87.5965,-6.2066,-78.7916,38.7154,-34.6886,77.6283,-62.1531,-20.9555,-3.9612,119.3235,69.0933,13.3499
8.0516,-90.3079,-1.2105,10.7484,182.8794,2.5838,37.0776,-56.3493,37.5779,-47.1795,4.5884,-58.5185,21.4129,-28.1090,-3.9048,-12.3351,23.9654,96.9046,21.7650
-19.6320,-89.8589,-20.0790,-14.6963,125.5813,32.9176,2.5404,-16.2014,29.4294,-33.1547,-8.5497,-60.8077,4.7605,-38.1072,-13.0549,41.3369,-68.7246,97.9710,-5.1778
-120.9127,-93.5923,18.1989,4.0342,64.9889,27.0882,-24.0366,-53.0737,-46.3631,-93.2033,49.5473,-25.9060,36.2910,-25.6561,-24.8353,50.0124,-37.3655,41.6379,-27.3755
60.1766,-56.0204,90.4476,22.4579,85.9793,4.3862,47.7345,-94.2766,19.5782,-103.4855,133.4246,8.5706,62.5830,-19.8848,-46.5779,9.6794,38.8722,-11.2028,28.2298
350.3061,79.6551,106.1237,10.7811,127.8717,-11.5728,114.6198,-48.0078,95.3818,-16.4341,119.5480,19.3033,58.6137,-73.1736,-77.0179,48.3776,38.5744,-20.2744,98.2946
318.0475,88.5773,47.1569,4.6509,123.1003,-38.9646,76.9634,14.0318,-16.9139,43.8362,34.1909,7.9339,40.5772,-97.4152,-76.4035,117.1670,4.7441,5.0496,107.4689
67.1008,-100.5948,12.1825,26.0114,137.6658,-39.8105,57.2910,21.4280,-58.3358,48.9672,27.4407,-26.3218,37.5036,-47.9810,-36.3050,85.7801,20.2202,43.8749,106.7835
-0.1088,-160.3043,46.5332,37.7013,196.1387,27.5049,113.8164,26.3586,92.4471,59.9667,91.0801,-55.0527,57.1982,-41.4669,26.8533,43.4358,42.9949,69.1327,126.6829
128.5065,-21.9482,69.2235,7.4825,188.2141,73.5153,102.8279,45.1262,116.9980,39.2622,86.3703,-65.5169,48.5549,-118.7428,101.2216,83.8117,-2.5626,63.2048,107.0544
187.1887,1.5239,17.3295,-44.9366,81.2958,27.7977,7.6616,31.2200,2.3589,-21.3184,15.7270,-98.6420,-24.4017,-168.3877,123.2877,82.0210,-98.9203,39.6154,46.0982
122.1861,-58.0108,-55.6268,-75.0049,-2.4873,-1.5227,-27.3665,15.5444,12.4591,-14.0341,-7.2806,-132.0045,-81.3537,-136.9773,46.1261,4.4256,-175.0493,18.1386,4.9815
71.0707,56.1977,-66.0360,-57.7016,3.8546,62.9629,-12.8279,53.6621,14.2945,73.7411,26.7323,-93.7905,-48.2632,-88.3407,-35.6798,14.5217,-191.7466,2.1272,-14.3540
72.3438,159.8984,-25.6521,-16.6063,25.5817,110.9239,-51.2004,100.6215,-133.6731,127.0076,50.4838,-35.7780,-2.2977,-81.2747,-26.9803,104.9967,-156.3569,-9.8313,-38.8353
85.1741,30.1324,-10.7475,-2.8274,1.1168,61.6451,-92.4797,85.9737,-154.8440,97.8355,57.0531,-46.2332,-16.3213,-106.4414,3.2571,93.9836,-97.3304,-23.7149,-62.0181
152.3868,-64.3853,-12.3919,-21.9683,-34.5129,-2.5858,-81.9331,24.3245,-25.6870,33.3421,77.0400,-66.4990,-21.0083,-112.5583,-32.8959,-4.5119,-38.7046,-46.0151,-79.6066
296.6119,57.2304,45.2917,-24.2834,-38.7777,-6.3782,-99.4856,-19.5896,-82.4472,-13.4958,109.9077,-30.7249,21.2995,-83.7940,-97.6876,-29.8837,19.2361,-54.2225,-83.7136
383.6553,139.4718,128.7485,7.5690,-25.8732,28.2158,-153.5787,-13.9261,-239.4987,-17.3003,137.0478,-5.7454,31.5381,-65.4227,-120.5018,15.5276,86.7572,-16.7951,-57.0992
323.8471,63.0074,142.1245,32.0314,-28.7287,69.4844,-156.4189,15.1412,-178.5438,-2.0153,147.7733,-40.5872,-5.3380,-68.3186,-89.1094,23.0336,134.6600,40.7530,-37.6160
245.8645,1.3100,116.5020,29.3105,-55.5606,102.2771,-142.1416,26.4015,-52.8357,-8.5811,143.7560,-86.8874,-13.7383,-49.0989,-43.3252,-14.4390,106.9824,56.2967,-69.2885
266.1309,15.2091,121.7074,22.5547,-82.6458,102.6575,-175.8029,12.8073,-109.7300,-27.2175,139.7296,-97.8222,12.7190,-19.8372,-36.3033,-40.5131,22.4663,26.6666,-97.4875
301.1403,42.2316,115.0768,12.2307,-77.2369,67.7678,-172.2314,-9.9812,-187.5329,-28.0218,145.3754,-63.6533,20.7482,-33.4621,-58.4312,-39.0145,-30.4927,8.1927,-68.6746
254.1161,62.2729,71.8816,-19.0596,-54.8255,26.7849,-94.3531,-23.8255,-114.6805,-12.5328,142.6948,-18.2901,2.7015,-75.9318,-50.4766,-21.3499,-39.5079,23.1390,-44.5216
160.0481,48.7921,51.4302,-44.2667,-74.9860,-0.7324,-67.4938,-10.0274,12.9657,1.8477,103.1903,-24.1326,-20.7829,-99.3322,-19.7031,-3.6269,-67.8806,41.5514,-75.1793
86.3200,11.8417,42.1766,-25.0479,-126.3410,-19.5032,-111.7686,11.1271,73.5884,-7.3021,35.2136,-61.3433,-35.8869,-96.1854,-13.7391,-3.8983,-104.1106,50.0937,-106.2491
72.2239,19.8678,-2.8634,14.0255,-116.4530,-30.5272,-106.7788,-5.5015,19.9913,-39.2220,-8.9884,-53.6365,-31.0843,-77.8543,-17.8684,-17.4243,-86.7232,69.9723,-96.6115
138.5432,50.2253,-25.7759,25.6942,-43.8816,-20.8335,-58.2829,-30.4966,-90.6346,-47.0392,0.7163,-29.9145,-19.6898,-57.9046,-15.1139,-15.6283,-30.0810,102.6061,-69.3219
240.1377,44.3077,11.0913,14.3575,-20.1869,0.2147,-49.8297,-6.0706,-103.8697,-24.4059,23.0848,-52.6521,-28.5103,-55.9572,-29.2924,11.3782,27.8174,103.0559,-38.9781
268.3224,58.4380,25.7860,4.4749,-68.8100,-13.8736,-47.6930,16.0604,-39.8311,-29.7526,3.2213,-60.2858,-55.8853,-74.2316,-30.8793,36.5509,82.5298,35.1448,-16.1592
156.2772,142.7343,-19.4318,-1.2622,-97.6385,-76.8101,-18.0452,-22.8463,-56.8329,-51.7325,-48.5266,10.4685,-88.7389,-94.2364,25.6126,38.3716,91.9498,-58.1608,-21.7386
-35.4893,233.8354,-66.2814,8.2301,-80.1402,-125.9101,-8.5184,-42.4028,-67.7569,-19.5471,-80.6864,95.3693,-117.1245,-86.6327,77.8751,34.2996,27.9331,-96.5931,-35.2155
-151.8438,256.0664,-87.3966,37.0622,-75.1288,-113.4682,-13.9273,8.8855,64.7492,37.3580,-73.9516,121.0299,-117.9324,-38.9132,46.7145,40.9775,-27.6165,-85.5842,-30.3078
-104.0199,182.2534,-89.1074,39.8677,-103.9383,-82.7051,-19.3221,23.5164,148.1800,32.4628,-51.6471,86.9458,-88.2514,-10.3216,-19.6629,40.2692,-19.3404,-101.0133,-41.1322
19.3460,58.7843,-69.4678,-2.3834,-135.6236,-88.9263,-74.8351,-49.5222,38.4100,-31.7453,-39.2399,20.9495,-60.7931,-57.1642,-25.0734,23.9440,-15.5052,-140.7048,-82.3304
72.4720,3.7484,-55.9025,-25.9250,-133.4003,-114.7824,-133.3131,-101.3339,-59.0478,-97.3948,-41.3860,-27.0127,-49.8013,-98.7458,36.3894,16.1307,-45.6179,-133.0186,-96.5128
15.4784,43.4219,-73.1320,-3.3015,-85.2976,-115.7625,-84.5515,-80.4723,-31.6657,-125.4315,-52.8809,-18.0219,-49.9817,-52.1631,97.4307,25.1575,-55.1410,-90.5493,-74.6512
-91.7625,58.4693,-95.3082,2.5879,-35.5518,-96.5105,-5.2669,-63.5719,-12.2976,-99.9360,-71.1366,14.2840,-69.8100,-17.5259,115.9621,36.3023,-54.6505,-90.6685,-86.4394
-145.9512,-3.4021,-101.5260,-32.3497,-28.5387,-105.8174,-22.0421,-83.8740,-21.0781,-58.3772,-86.9996,16.0088,-97.4568,-89.2547,109.3630,41.7653,-90.3601,-130.6649,-128.4135
-75.9095,-53.5276,-96.3706,-70.3972,-32.7635,-161.5063,-44.8309,-97.7200,14.2607,-61.0464,-85.1350,-18.7735,-98.5886,-167.4713,98.5408,29.6749,-129.7356,-147.8986,-109.2873
30.5644,-25.8779,-80.9732,-107.9630,-17.9600,-198.8546,27.8324,-86.5104,67.3750,-87.5059,-69.7286,-64.9424,-76.8969,-159.1496,77.7757,-0.3222,-138.4280,-122.8399,-19.1231
4.1417,39.7451,-73.8678,-135.0555,-16.2361,-146.9059,92.4455,-57.8508,124.9539,-70.3666,-61.6137,-84.6691,-61.9605,-119.0679,68.4691,-3.4790,-139.7780,-69.0880,52.2942
-144.3860,49.3586,-92.6180,-108.1554,-31.3254,-50.0882,65.1489,-14.6621,178.9566,-13.9137,-68.1480,-66.0625,-65.5190,-101.3490,109.0537,38.9092,-141.1907,-5.4604,64.9718
-234.8410,-33.6931,-118.5650,-71.5654,-36.1389,-19.0665,24.9381,14.6129,146.2126,15.0464,-88.7086,-58.1292,-94.2744,-111.1826,169.7832,64.4458,-145.7496,29.6629,46.2114
-179.5859,-125.9144,-149.5159,-104.4334,-61.7394,-71.1393,27.2831,-8.4540,66.2695,-24.4787,-122.3374,-85.1719,-138.3167,-159.0846,195.9493,36.3515,-186.4325,6.6611,-4.9504
-67.6739,-169.3853,-193.0135,-142.2355,-133.9914,-130.5822,19.6302,-68.7626,91.1756,-97.8654,-144.1174,-106.9776,-158.7310,-204.7464,203.9790,1.9578,-245.2927,-67.9198,-95.6601
-44.1364,-212.7537,-204.9562,-105.2176,-199.7834,-155.9451,-42.5449,-110.5790,171.8267,-121.2990,-131.1467,-125.3992,-147.8568,-182.2120,215.4521,-13.8163,-258.4398,-158.9914,-176.8236
-150.5338,-221.5466,-174.4125,-75.1408,-212.7844,-154.0265,-120.2309,-108.1425,130.4289,-70.8492,-112.0442,-159.6243,-132.7678,-119.5208,191.9415,-34.2060,-232.5553,-195.9925,-202.5549
-243.4514,-114.7731,-163.9614,-104.6906,-177.9971,-122.8814,-132.0508,-80.7895,-23.9284,-17.7358,-118.7757,-146.7333,-108.8894,-96.1778,126.1375,-41.3108,-222.3934,-135.8897,-185.0891
-190.2881,-28.3651,-167.6667,-106.9875,-115.5988,-88.4049,-70.1914,-57.5193,-131.0625,-12.1174,-127.0063,-77.3158,-70.5522,-137.7605,75.4710,-6.4234,-226.5549,-63.8000,-147.1760
-101.4566,-120.9424,-132.1327,-79.6252,-71.7589,-118.1674,-20.3131,-59.7743,-84.2655,-39.0814,-110.6680,-68.3546,-54.5792,-200.2461,71.5831,26.9337,-205.0238,-83.2012,-100.9972
-123.6629,-257.1789,-102.7846,-100.1603,-78.5403,-196.0615,-13.0521,-86.0442,62.7474,-81.3915,-89.9491,-127.9732,-71.9774,-188.2677,94.6401,10.4109,-149.9458,-134.8743,-69.6784
-174.9366,-269.1944,-118.6032,-110.2166,-91.9464,-195.9074,-0.1952,-90.1790,123.0274,-97.6349,-84.1018,-125.9515,-89.1298,-77.2415,111.7513,-24.7057,-103.6730,-113.7969,-54.9993
-146.2683,-202.2409,-110.1356,-50.3167,-67.5601,-87.3782,15.2991,-32.9236,50.4578,-31.8148,-79.9143,-65.6198,-88.3233,-5.1941,98.1629,-29.8240,-109.8397,-56.8981,-22.5513
-90.4841,-105.0711,-56.5614,-18.2455,-10.5825,-8.5682,30.9682,41.8850,34.5136,68.3633,-53.8396,-47.3526,-55.7037,-43.2372,69.1956,-7.5542,-119.4734,-26.5693,36.0117
-65.8754,-5.1772,-10.7713,-22.6391,71.0296,-15.4366,101.9617,73.5128,101.2750,111.7219,-4.9183,-28.8067,11.1167,-40.1858,68.1189,26.2020,-35.5422,19.8373,81.4069
-80.5399,-12.6150,30.2425,71.8115,122.3491,21.0802,167.2585,92.8733,56.7591,133.1920,20.7484,57.9042,40.1299,72.9348,94.9109,70.5121,93.7755,102.1198,85.7878
-130.5212,-84.3717,63.6819,216.3120,68.3329,142.5838,106.0253,145.3642,-28.5525,197.3335,-6.5331,129.2864,-14.8230,141.5235,116.1686,105.4842,117.9575,151.3339,75.6725
-120.0785,-31.6450,56.8515,227.1162,-10.6216,200.3140,22.2495,180.2859,64.7056,235.1383,-13.4740,120.2464,-50.4197,107.7005,123.7518,100.2429,54.3619,135.2830,100.6715
-4.2724,82.9185,64.6152,140.9786,10.9747,134.3245,64.9617,140.2212,168.6651,166.0556,58.8536,95.2167,16.6615,77.2299,110.9218,65.2494,53.1866,85.7455,145.3209
47.7918,64.5083,109.0525,110.1261,47.3660,65.5915,103.8534,60.8526,30.8756,46.9472,108.6610,91.6124,82.4112,66.2553,65.3875,36.2762,120.1966,21.7832,119.4716
-20.2052,-4.3867,80.1916,113.8281,-4.5246,57.4151,17.6463,3.3952,-156.3163,-14.7770,49.6889,81.0803,44.8958,40.6981,24.2515,23.2021,147.6888,-40.4120,15.2834
-10.7119,17.0741,-0.1663,84.4336,-25.9963,54.7876,-35.2985,-8.2772,-148.2040,9.3983,-6.7710,65.2340,-19.3533,38.4654,27.8536,30.6457,119.0951,-69.2529,-37.5299
65.5874,25.6824,31.3585,55.0911,51.0067,35.0312,19.9244,20.1732,-77.5665,55.9223,33.8836,48.0165,-14.7051,35.0060,36.8868,69.1005,68.6436,-64.0128,7.8680
-18.0981,-40.2431,116.3861,25.8836,88.8466,12.7092,24.8426,44.4736,-88.0179,51.7135,75.9103,13.9608,24.6700,-30.3001,12.4597,98.3431,-0.1580,-56.7497,30.8357
-180.8390,-54.2129,76.7687,-32.2283,42.5072,-11.6907,-34.3239,28.5953,-86.6707,15.7790,46.9882,-8.3892,34.3427,-76.3529,5.9192,67.8152,-47.7244,-66.9555,-17.6431
-192.3367,-15.1688,-9.3948,-52.8169,7.3701,-11.5020,-25.3586,11.8734,-43.6605,13.1294,15.0876,2.5909,18.5068,-30.4518,51.6598,25.0093,-28.6068,-84.7029,-53.9297
-143.6601,-65.3595,6.2640,0.4433,-10.8957,21.5574,2.0209,23.2914,-64.6470,19.2481,13.9379,-7.6082,11.4628,5.0628,74.3783,35.9917,15.2847,-84.7859,-73.7268
-164.5727,-175.3834,45.9747,24.0111,-37.5072,17.8577,-48.4466,8.6022,-141.8492,-22.5487,9.4503,-62.1914,23.2116,-40.7780,18.3792,54.7014,25.7645,-69.4096,-133.5250
-141.9969,-178.5748,12.4440,-41.6444,-34.8915,-46.6802,-89.3522,-44.8515,-160.8667,-65.1718,3.7583,-96.2583,27.2179,-93.7653,-43.9269,34.2970,3.3774,-78.1202,-181.0706
-80.4825,-71.5888,-47.2769,-112.5363,-30.8124,-86.7087,-73.2373,-61.4831,-105.9537,-44.6260,-6.7808,-84.4433,-6.4898,-116.1237,-42.1212,30.1413,-35.7631,-103.4085,-152.7689
-138.1747,-5.7362,-86.2605,-117.5012,-62.4521,-63.7862,-91.9644,-26.5155,-56.3855,1.2177,-44.1770,-67.9625,-53.7384,-138.1208,-23.2409,54.9765,-55.3826,-72.1920,-93.6714
-230.6091,-26.8891,-83.0824,-73.1958,-49.1293,-37.6762,-112.8369,-2.7846,-31.1846,20.0651,-59.7980,-48.8599,-59.1101,-136.1959,-37.4025,36.3577,-0.4102,19.5566,-41.3827
-167.9443,-50.7746,-20.4183,-13.4769,31.9226,-24.1934,-12.8808,1.7052,17.7237,24.0864,-11.8694,-19.1792,-24.0282,-73.7072,-46.9857,-12.9698,100.2442,83.5818,20.7941
-25.7599,-68.5735,32.5312,29.3728,77.8986,23.4904,142.5744,23.5527,89.3115,36.5755,29.9460,-27.8728,4.7869,10.7567,-24.6059,-11.3669,150.8387,98.0528,83.7047
14.0752,-135.7290,15.8479,26.4277,83.9423,91.8689,205.9639,58.8510,139.4198,63.0283,13.7647,-81.3437,17.4699,45.7741,3.3667,25.8571,131.7911,119.2809,134.1395
-66.5643,-191.2942,-3.1668,-9.7582,112.9355,104.9815,184.0442,80.3433,156.2858,90.1395,-10.1802,-104.1041,25.9268,5.8617,22.7633,33.7611,83.5290,132.9948,162.3126
-168.2953,-172.6232,11.8354,-45.5559,101.1603,40.7566,129.4059,64.8843,128.8110,77.9903,-12.6574,-85.7925,18.4173,-63.2069,11.0970,15.6340,9.8098,80.5507,116.7794
-191.3192,-211.0059,-3.3150,-77.1200,1.2712,-39.4742,35.9311,6.8292,50.6876,22.4980,-15.8158,-100.8603,3.9742,-104.3383,-63.7167,-2.5732,-84.1497,-9.2387,-0.3074
-144.7185,-399.1589,-52.4004,-120.7035,-80.3184,-90.2417,-49.9298,-47.9736,-23.0160,-18.5592,-20.3072,-153.7358,13.4690,-131.9937,-137.9865,-13.6379,-167.8938,-78.6329,-95.4423
-164.4009,-563.1287,-94.4031,-179.6007,-96.5657,-138.2222,-79.5517,-60.3164,-85.9152,-30.5878,-39.3196,-181.5341,13.7971,-179.6720,-121.2076,-10.6499,-243.5605,-141.7522,-147.0818
-297.3894,-564.0934,-148.8171,-226.7168,-135.6396,-186.9370,-119.9845,-65.2476,-201.7747,-57.5548,-100.6544,-186.3560,-49.9102,-205.9593,-75.1734,-14.1219,-309.0351,-202.4438,-194.8699
-430.8101,-538.9720,-203.4969,-216.2290,-204.6297,-164.0209,-191.4487,-75.4076,-274.1824,-80.8840,-158.9833,-211.0000,-123.5668,-167.8134,-101.3466,-42.8725,-316.9883,-200.8511,-184.2484
-507.1612,-599.0726,-197.0447,-153.0970,-217.2691,-64.0492,-185.1914,-39.2080,-152.9803,-48.0173,-150.9000,-240.7569,-114.3299,-109.9745,-146.9462,-51.3697,-268.5819,-134.4121,-87.2439
-525.8248,-605.3373,-153.6874,-117.2729,-173.3735,-3.6971,-94.8692,21.3978,2.8298,-0.0246,-106.0182,-231.1139,-53.8202,-89.5863,-130.2623,-16.4137,-228.6212,-88.8851,-17.4335
-413.7170,-422.2092,-133.0240,-145.1252,-122.0498,-22.4935,-29.2738,31.4060,-21.3271,10.4872,-76.7425,-172.0025,-26.4801,-100.4128,-83.4937,-0.9555,-203.8196,-87.9142,-5.1508
-202.9233,-156.5624,-111.8091,-160.2113,-44.8781,-20.3358,20.9461,28.0874,-68.3817,38.9471,-54.0390,-93.4816,-14.2495,-105.7967,-47.8175,-21.6059,-152.0182,-59.6667,52.0206
-105.0466,-30.4640,-66.8081,-107.7440,51.0138,25.0383,94.1489,71.6629,33.3168,107.8541,-25.1238,-49.1606,30.6900,-87.3719,-24.1411,-10.1872,-95.2590,10.4166,118.7690
-190.5261,-116.3396,-34.4036,-51.3251,66.6135,20.6637,91.1296,90.0014,115.9091,110.1897,-2.6206,-63.6108,62.0629,-66.1704,-32.5518,30.3071,-86.1518,47.9590,75.5987
-290.3027,-259.4409,-24.9875,-51.9031,-20.2181,-25.1070,-1.7709,35.0732,75.7333,20.7772,12.1435,-91.5082,25.7803,-64.3407,-67.0193,18.0510,-110.6846,35.7202,1.3682
-270.7341,-274.3760,-15.1289,-70.8412,-82.7500,-8.8271,-20.9863,3.1629,53.4429,-22.9402,21.2131,-86.8486,-26.8766,-48.1461,-82.4502,-47.8246,-116.3860,37.6012,31.5583
-154.0120,-157.6668,-3.1531,-61.3708,-54.8465,53.3119,59.0118,33.1345,66.3366,16.0965,27.7398,-66.1205,-17.7202,1.9639,-78.2641,-82.9961,-79.6324,63.3533,94.1196
-54.2967,-42.1443,9.1421,-38.5427,-17.6367,53.1569,95.7954,29.0905,28.9797,11.3487,47.6734,-48.3120,36.3951,20.6196,-68.4517,-54.1071,-7.8450,59.9243,83.4933
-88.4332,-33.4121,30.0631,-15.2496,-3.5177,-12.4981,80.1360,-30.1895,-1.1667,-54.4140,66.8231,-19.9632,57.4959,-17.3102,-36.9816,-11.7520,72.9428,34.8730,62.1803
-193.8873,-131.7883,58.8677,22.2364,45.6364,-58.3103,89.6690,-53.0325,-2.0010,-64.8389,49.9573,12.0445,28.3486,-34.2144,-16.7628,-11.1067,130.3534,43.4470,89.2368
-159.7296,-198.1934,94.3519,57.2137,103.2671,-53.3460,75.9404,-19.3435,-58.5104,-15.7812,26.3659,28.5705,12.5978,-7.1622,-59.2764,-51.5810,157.2763,74.9880,96.6167
19.3401,-60.0262,129.0345,59.7331,100.1358,-20.6526,-9.8336,3.4164,-110.2199,8.9542,52.1717,43.0619,47.9065,7.6037,-111.9935,-88.1457,175.8656,82.9363,45.7984
117.8156,206.2306,139.8469,55.8076,78.9427,22.9028,-88.3529,-3.1062,-52.5269,14.8165,96.1330,66.3379,87.3521,17.3515,-98.5359,-85.3907,199.0789,80.1346,-2.0369
55.0136,284.5308,124.3980,88.9959,80.6544,53.6960,-97.7094,-0.1155,5.6086,23.8299,92.6741,83.2445,79.5985,56.3702,-47.2640,-50.2370,213.2833,90.9632,-14.0332
-56.5045,74.4540,99.5549,133.2099,41.9889,50.6511,-70.5687,19.5242,-50.0187,-2.2991,54.9066,92.8086,35.9862,89.6263,-11.1267,-16.8163,201.4957,78.4642,-28.3336
-132.5767,-130.5663,56.4195,123.7487,-42.7575,31.0859,-58.4491,22.8526,-115.6345,-43.1000,21.6382,97.9491,-17.9613,87.3184,9.6484,-9.2746,155.3336,13.0471,-59.5492
-103.8683,-83.9750,-10.8943,50.0783,-89.4259,4.2556,-88.0531,1.4522,-85.3607,-30.3167,-17.1167,77.4709,-78.2574,55.6034,6.0124,-16.1106,76.4022,-63.2203,-69.8220
54.0440,85.8707,-58.4649,-34.6013,-90.7081,-49.0858,-125.3974,-9.5784,-17.4201,11.9790,-56.8814,33.5426,-119.3882,-11.7988,-37.5201,-14.3463,8.5734,-102.6757,-41.4178
144.0188,140.9754,-47.7156,-63.8309,-89.9378,-86.3137,-103.0262,6.7571,16.5001,21.2129,-52.5743,8.6530,-102.1638,-70.6230,-74.9308,-11.5580,20.6623,-104.2044,-10.1657
-17.5288,62.5107,-13.4983,-10.1991,-78.6049,-35.7169,-48.3507,19.2385,18.4340,10.4891,-16.2148,17.9465,-56.1050,-43.2360,-49.4947,-17.2742,81.6934,-79.6865,-16.2654
-227.7468,-26.1086,-22.8528,63.5197,-70.9657,36.2623,-52.8239,12.8993,-10.9535,12.4839,-24.0975,27.7290,-66.0428,19.1564,4.2927,-8.4700,52.2516,-46.8257,-53.6711
-190.7057,-62.6135,-82.3242,47.7282,-100.3949,7.4483,-99.3764,13.2213,-42.6428,18.8541,-82.2320,5.0828,-133.7865,5.5781,6.4811,12.2803,-90.9136,-34.0664,-71.0525
-7.9613,-54.0129,-125.0083,-53.8879,-108.7792,-56.3584,-95.4960,19.8392,28.3943,10.7471,-102.1982,-43.4757,-148.7456,-41.1717,-28.4379,1.7788,-178.0321,-26.1336,-28.5287
41.9519,-14.0537,-99.9199,-102.1249,-42.9650,-12.0701,-33.5901,6.5771,180.6918,-21.7084,-46.9904,-64.0356,-62.7313,-17.1634,-15.3016,-32.2196,-114.2899,27.3649,35.4679
-34.5753,27.7046,-36.0311,-36.6254,27.0927,83.3708,22.0683,-15.9293,174.3401,-60.0111,13.9523,-13.5975,17.8001,39.5720,29.2562,-37.7543,-18.2375,104.4205,47.6685
-70.3534,33.1871,5.2830,31.7846,47.9659,93.9721,42.1937,-24.9377,-28.1800,-60.0264,19.8574,53.6845,3.0604,41.0776,15.8049,-20.0035,4.5923,126.8706,27.6522
-62.8107,3.8307,-5.5094,24.8765,67.9269,54.9108,57.5631,-26.0887,-80.0304,-21.7816,-16.2767,54.6537,-51.5522,10.6863,-16.7871,-15.2098,-6.9247,99.8267,57.4336
-81.6853,-28.7795,-55.2461,9.0638,97.3028,53.2138,104.0410,-16.5184,126.3548,10.3073,-59.8860,20.5652,-79.4233,13.3411,27.8306,-15.1121,-9.9891,89.3202,119.7097
-91.0756,-50.6808,-93.8121,22.6353,83.0389,54.8112,154.3333,8.3946,225.4656,20.4094,-88.3508,19.6327,-102.2085,33.4910,87.5268,-5.6819,-13.2141,90.2134,140.2655
-71.6647,-58.7425,-83.1987,-2.5604,40.9634,17.3909,159.8304,14.1809,112.5243,4.1920,-94.5408,10.3613,-124.7074,15.6575,64.1545,2.9484,-5.7693,70.0201,151.8217
-87.0229,-33.9964,-57.2956,-70.6149,40.4458,-19.3931,148.6069,-15.1819,88.7194,-46.1394,-94.2785,-39.7067,-105.4577,-22.4941,13.9527,8.4836,20.6526,59.0426,201.4384
-111.1259,21.2724,-55.6429,-74.1650,75.9163,-19.6253,152.2698,-39.4914,133.2030,-78.6839,-89.9072,-34.7850,-59.1437,-7.0753,-4.3562,5.0250,47.5819,66.1022,205.0594
-52.7871,45.5912,-42.3025,21.4373,84.0561,14.0587,118.4666,-41.0092,10.4744,-42.2165,-58.1047,63.6667,-34.2891,57.4861,-29.8859,-11.6345,81.6258,42.9752,117.6172
23.3423,7.3164,5.6770,116.2010,63.3831,61.2812,48.3036,-38.0050,-85.4061,5.6080,-18.4710,134.5967,-26.3516,87.5013,-40.7578,-4.8961,129.2648,5.3407,61.7901
3.2633,7.7829,33.8088,125.8007,65.4099,80.7516,32.0982,-19.9409,49.8153,4.4033,-20.9185,112.9349,-25.0861,62.9925,14.6985,42.4882,146.3293,12.8459,98.1126
-33.6064,133.4803,15.0011,66.0733,82.6686,60.9942,51.0857,19.2122,112.2490,-0.3414,-50.3090,71.8957,-54.3922,28.9840,59.1880,73.0870,108.1193,37.3695,115.4387
1.4372,235.6637,-17.7255,1.5089,70.4535,52.2419,15.5314,43.6304,-64.9433,28.5157,-66.4786,47.5238,-100.9974,6.5476,21.8596,51.3861,60.1524,31.4262,69.3728
-1.2919,122.0734,-48.4040,-5.2752,62.2775,86.1792,-19.2639,48.1184,-137.2667,55.9253,-83.8550,19.5844,-113.5967,33.4357,-15.4083,22.5650,48.5792,31.5587,52.0137
-76.2241,-77.9723,-58.2163,57.0377,111.0501,133.4962,34.3498,62.4372,44.0161,64.6671,-96.9215,19.2052,-83.6651,134.6303,17.2625,25.8364,77.6502,51.9457,90.9999
-57.0395,-88.2860,-12.1649,113.1663,166.8208,155.1696,108.8812,71.4012,175.5179,64.8235,-60.9949,60.7010,-40.9255,193.2369,66.0337,49.9287,130.6062,44.2849,135.5119
52.6779,60.1477,52.9493,95.7449,175.3082,137.5536,132.7870,55.2658,114.1791,62.6652,-12.2040,82.5507,-5.8762,108.7951,80.1785,72.1437,170.0518,31.1497,187.1441
43.2533,124.6219,61.7237,57.1698,183.4828,113.1520,154.1693,58.4096,76.5227,89.4662,-23.5640,64.6151,7.1045,17.6379,76.8134,78.6265,156.4750,74.3193,247.3494
-65.3101,61.0345,19.9855,79.1891,215.4150,139.1323,200.4781,105.3528,179.3135,148.8987,-59.4718,52.6942,-2.9308,58.8532,74.8282,71.1631,102.5484,134.3802,256.6061
-55.8712,13.8664,-22.4024,129.4619,219.3541,194.8210,226.5702,137.9835,227.0629,168.0676,-52.1911,55.4189,-9.4791,132.8191,68.5835,54.1840,64.0272,151.9597,206.1485
55.0088,66.8609,-43.4497,127.5099,196.7714,194.6961,216.8134,115.9281,102.1907,122.1283,-19.6928,55.9009,2.6283,138.5017,61.4350,18.0703,59.4644,157.7308,164.6237
92.7010,190.3959,-24.6924,76.5936,188.4644,141.4850,201.1623,83.6636,56.3375,85.0162,8.5625,59.7466,18.2412,126.2099,78.4839,-11.2356,40.1638,168.7405,155.4040
65.0581,266.7063,20.1438,30.7843,173.6753,109.3526,195.5610,90.1577,227.8927,84.7608,28.2896,52.4600,30.3961,99.6627,109.9250,22.4481,-26.8503,143.8174,141.4334
46.2626,170.5319,29.2871,11.9553,143.2302,100.3734,175.3297,117.7338,254.4589,84.7957,11.3891,17.1123,44.4702,25.1353,88.1625,88.2339,-77.6545,98.3549,114.2207
-10.9347,-23.6394,7.6648,15.6343,148.8927,85.5170,123.3751,125.8423,-13.5677,97.6792,-26.6365,-7.8216,53.4685,-15.9139,13.5014,98.0039,-33.0419,89.3400,103.0777
-76.4281,-77.8735,29.4407,29.2058,194.4347,90.3833,100.2557,118.5815,-91.7004,136.5317,-5.3890,6.6972,61.6615,24.2307,-4.8423,63.5070,60.3732,106.6637,124.7241
13.1596,50.7631,90.6533,35.8763,223.9881,120.5069,152.8155,122.7984,154.7040,145.5480,75.5852,26.0646,95.1083,60.3386,54.8943,45.7739,93.3813,110.7169,160.2499
229.7478,134.8743,127.3452,37.1033,214.8703,139.0943,184.5865,126.9712,181.8834,114.8844,130.4827,23.0917,144.3516,66.5387,81.7228,31.7877,66.3061,102.9142,172.9680
315.0230,42.5399,134.4890,38.2684,175.6135,144.9518,116.9554,109.9351,-67.9617,112.7429,134.3622,8.6457,156.3366,85.0748,43.1294,19.5441,54.2962,94.9532,155.7037
186.4971,-74.3181,126.9831,22.3840,118.8660,144.0779,54.0062,98.3101,-73.6712,137.1822,112.4418,-8.1142,118.0886,74.9424,-1.1251,53.5654,61.4510,93.7145,131.2261
52.1331,-49.2243,93.8881,-10.1989,73.2141,112.2714,71.0067,113.4397,93.5626,119.3294,64.2867,-19.0660,75.9999,15.7507,-40.8764,94.8941,46.3453,106.7414,97.6393
38.3080,42.2699,58.3469,-30.6060,54.9094,59.6870,80.5415,119.3791,-0.0650,73.5298,14.3927,-24.0544,52.8882,-12.8221,-54.1912,67.2084,13.2458,104.3360,49.9052
36.3346,35.4478,54.0583,-41.3982,55.6224,17.0245,55.0005,95.1986,-143.0626,64.9115,8.5049,-43.9021,31.4577,-4.9628,13.7162,7.8256,-14.5871,42.5732,30.5463
-5.1430,-53.2098,60.2182,-58.6668,70.6003,-29.4531,71.0867,70.7099,2.1239,80.3796,29.0593,-65.2384,20.4363,-24.4879,103.7309,-11.7049,-30.0100,-58.4329,54.8702
22.6508,-96.5529,55.3828,-53.9280,83.5781,-83.1631,116.0523,57.9611,157.4978,76.7176,40.7596,-43.0974,41.6366,-34.5841,121.7192,-4.1031,-21.7684,-136.1260,60.8276
118.2051,-72.5956,55.4643,-14.6664,72.2704,-105.6320,127.9760,46.3384,71.5446,62.7117,60.2318,6.4136,69.3375,8.9251,98.5252,0.1403,8.2731,-157.5533,17.8138
130.7149,-14.9795,60.1272,14.3056,50.1409,-90.2640,107.4885,40.2989,-47.2707,39.2377,88.2600,33.9052,69.5280,37.3055,59.8528,-1.6342,26.4557,-124.5913,-37.5900
50.7268,77.1853,55.3909,22.5568,27.7268,-59.2374,43.7889,27.3415,-82.0947,-17.3705,85.0470,47.2754,57.7463,20.7926,-25.3936,-15.0726,9.9191,-71.9568,-93.0421
26.5103,139.1581,53.2871,43.9807,-8.8438,-18.6959,-59.1265,-11.0291,-125.0044,-73.9259,56.8380,55.7992,56.0870,19.7448,-78.3342,-25.9175,-23.2227,-59.7418,-144.3454
80.5970,90.3200,65.4418,62.3368,-28.7210,6.8549,-107.3511,-41.5474,-137.6921,-81.4682,53.5242,31.8732,56.2703,33.0774,-23.5021,-12.5120,-30.1061,-97.5934,-155.6502
96.6802,7.3663,82.6110,45.1104,5.2372,-8.5472,-72.7799,-41.7237,-98.0070,-75.5605,80.7831,4.4889,57.3439,22.9533,17.6956,-4.7294,23.3683,-122.4863,-144.8743
55.3424,-2.8105,100.4068,20.1609,47.5365,-30.2542,-54.4156,-57.4773,-132.7489,-101.0755,102.4304,28.4497,74.2212,18.8634,-39.5289,-35.9008,117.6905,-99.2289,-163.6946
46.4279,24.2985,126.6633,15.6746,59.5927,-23.3258,-75.9289,-98.8198,-224.7771,-116.6830,111.5076,61.0631,103.1688,32.9494,-72.8289,-76.9364,187.7737,-60.6741,-172.5568
99.3878,37.6836,166.7562,22.7572,73.5487,-9.5635,-65.7042,-104.3205,-223.2195,-85.6680,134.0497,45.0681,119.4345,25.8033,-32.0637,-87.4588,204.2671,-29.5933,-125.1885
155.8312,38.7504,204.5653,42.3239,79.4681,1.3817,-29.2748,-62.8461,-159.6434,-46.5936,163.6942,29.5912,101.1289,14.7998,-37.4613,-67.4488,193.2363,3.9104,-87.7973
157.1666,15.0569,204.1183,61.3384,34.8799,25.2271,-22.9988,-22.7693,-145.8046,-30.1021,152.9842,58.7517,57.7296,37.6450,-104.0873,-39.0145,174.8677,29.9156,-100.4327
98.9111,16.1100,164.8222,50.3828,-15.6969,47.3418,-43.7696,3.1779,-112.7093,-24.8890,101.8351,82.1299,33.3974,58.8558,-110.2205,-22.2164,160.7829,28.9713,-99.5352
43.4498,95.0596,133.9366,46.7591,-17.6354,58.5816,-59.5697,17.8720,-6.3142,-26.1932,77.3588,68.9767,41.6749,56.4133,-41.6930,-16.9847,171.0507,20.6373,-74.0752
61.1081,129.0899,123.1774,93.4083,-7.8963,79.2042,-52.2810,3.8715,14.5690,-27.2706,94.1845,54.8545,35.5573,70.4110,-12.7869,-13.0421,178.8560,32.5012,-77.9251
127.3175,52.5706,101.7215,122.1749,-16.9864,96.2472,-29.4667,-23.7635,-109.3508,-15.4451,87.8393,49.5810,0.8956,96.9035,-68.2037,-21.1220,128.6208,43.3125,-93.2129
144.5559,48.7652,83.5321,81.7712,-12.4366,90.9984,-28.5269,-25.7372,-163.5427,-2.6327,51.3762,32.3141,-9.8266,97.1493,-111.3641,-41.8703,57.8137,31.9973,-70.3906
79.2806,146.9237,100.2654,55.8088,26.3210,110.4759,-43.5944,4.4843,-53.3321,15.7693,51.5064,13.6362,15.2217,94.1704,-52.8436,-36.0948,63.8304,52.5597,-18.9614
-5.1804,139.7662,125.5074,91.5223,89.7599,182.2945,-14.1550,52.7417,47.3941,65.3119,93.2476,20.2517,34.2367,113.9199,39.3814,7.3610,131.3573,142.8974,27.6885
-40.4078,102.1055,131.8908,112.6318,144.1441,224.9957,46.4936,83.0581,65.1089,89.3943,116.8932,61.4088,51.1918,120.1049,47.1112,40.1489,148.7056,193.7315,25.6679
-10.0441,269.4081,128.3907,92.9627,125.4376,159.1292,54.6852,35.0599,58.4230,0.3971,98.6661,130.1615,82.2212,99.3919,6.4174,27.6711,82.5361,82.8371,-53.8584
36.1913,475.9702,94.9187,91.0635,23.5135,29.3410,-0.2098,-78.8835,-25.2944,-137.5266,42.0853,200.6578,70.5489,83.9770,13.0290,-15.6755,-6.0487,-104.3504,-140.7983
0.7664,467.6887,16.4753,112.9401,-75.4516,-71.5274,-70.3811,-163.0094,-168.5060,-191.7683,-50.4344,247.7796,-22.8568,69.6243,10.5199,-53.1973,-70.6148,-199.4826,-157.1290
-130.9163,396.5635,-48.4613,126.1596,-103.6127,-126.6630,-135.9896,-191.8696,-201.4136,-187.1532,-136.7180,274.4516,-122.7539,41.5817,-80.7153,-57.2872,-96.8123,-208.9141,-154.6092
-226.7074,420.4893,-63.9735,129.2578,-77.6100,-164.8759,-166.8728,-215.7234,-151.4654,-212.8676,-167.3669,279.0988,-145.6497,36.7493,-147.5061,-47.5260,-86.5562,-220.6588,-172.5668
-226.8305,417.6701,-77.1324,109.5665,-42.7393,-171.4120,-126.0036,-217.4492,-140.4434,-222.3591,-163.8266,240.1199,-117.4557,70.9590,-50.3589,-56.0507,-80.3326,-206.6003,-132.8601
-263.4615,377.5399,-106.0186,58.0576,-35.8122,-130.1735,-47.8661,-162.1081,-45.9511,-157.3100,-174.8302,173.2406,-108.7657,88.0844,121.3018,-52.7966,-110.0923,-136.4284,-38.9768
-364.2629,399.6741,-118.4604,24.8525,-59.2631,-94.1614,10.5411,-109.3132,156.6704,-100.1505,-198.0188,125.1923,-124.8035,56.1837,175.0495,-17.4609,-141.3674,-92.0983,-5.6650
-346.0075,377.8354,-124.2469,35.6174,-68.6775,-97.8108,51.4887,-102.6044,195.9577,-112.8817,-208.7165,96.0716,-125.1874,17.5651,94.3289,-12.8151,-141.7117,-107.7867,-22.9771
-211.5390,265.2393,-141.5700,30.7597,-46.9645,-91.1973,79.9381,-93.6205,42.3333,-123.8966,-206.5426,63.2854,-110.7726,1.2522,19.9557,-53.4464,-134.5783,-113.5697,0.4536
-201.8528,271.4110,-144.8916,-20.8594,-38.5634,-65.8159,61.7739,-74.7682,-39.3826,-99.6090,-197.7642,49.4672,-115.6617,-17.3022,18.4009,-61.9469,-130.9021,-102.7820,18.9582
-306.9031,402.0346,-139.7766,-59.8891,-67.0883,-86.7365,-0.8342,-96.1452,1.8012,-110.6335,-179.6451,64.9324,-128.7894,-44.8625,28.7351,-35.1825,-116.1020,-135.5569,-43.4739
-278.6501,372.6896,-162.6898,-45.4761,-107.0488,-135.4774,-46.1241,-136.9164,63.4534,-162.4002,-155.8424,58.6975,-115.0188,-51.9461,16.7906,-35.1656,-113.0768,-195.5730,-122.0927
-138.2219,175.4311,-189.7008,-25.1183,-131.7530,-136.1673,-43.7846,-143.3205,110.8573,-173.4379,-139.8737,15.1104,-98.4812,-42.1093,18.2406,-41.2143,-140.8024,-221.1270,-141.0374
-94.8620,104.9761,-179.5759,-46.2510,-121.4304,-120.5523,-35.3974,-133.5941,58.6120,-139.6912,-134.2543,-6.6440,-115.6694,-47.8898,31.0085,-20.2715,-154.6224,-203.0139,-126.1557
-133.3510,176.1358,-147.1945,-63.1581,-80.6892,-139.1126,-53.1729,-137.9760,-67.6243,-135.3711,-118.7481,13.8530,-124.7117,-56.1471,15.2505,-12.1144,-120.1289,-154.6812,-109.0683
-150.0861,130.2233,-103.9880,-11.3009,-59.2119,-133.7841,-72.8405,-141.2959,-75.5384,-167.8566,-79.7578,27.3397,-80.7145,-36.0016,-19.7210,-26.3321,-67.6701,-86.6787,-87.1523
-150.1360,2.2798,-46.2612,55.7260,-78.1712,-84.4006,-79.6409,-136.5763,-37.8544,-175.2626,-41.1850,18.7929,-34.1901,-13.8371,-37.6411,-38.2574,-36.9580,-28.7780,-73.8602
-75.6268,74.2808,-20.5354,35.9598,-87.6548,-68.8875,-85.4685,-134.9814,-124.9346,-141.5864,-29.4991,20.6470,-41.6298,-20.6911,-30.4144,-64.3950,-46.9748,-1.1208,-90.1107
98.3085,262.3696,-55.9422,-32.5473,-58.5753,-91.6873,-73.4962,-143.3503,-146.2480,-121.4544,-27.8103,28.4624,-63.6202,-30.3781,-10.0105,-86.5863,-87.5236,-3.8298,-144.0390
172.6079,189.0914,-86.3882,-32.5931,-30.4613,-94.2468,-48.5585,-173.3538,-39.2610,-154.0262,-11.1690,11.8890,-46.8287,-22.9503,-6.3555,-53.0988,-95.1806,-41.3087,-221.0411
85.5179,-75.2917,-59.9706,19.6623,-37.0546,-92.9194,-73.2289,-204.4988,-102.4928,-195.1611,7.3197,-7.1580,-18.9633,-7.5122,-32.4428,-11.0692,-27.6434,-84.6509,-260.6994
79.5986,-51.2117,-14.1180,21.7152,-60.6072,-104.3544,-126.1109,-184.0302,-241.2408,-179.5954,12.7484,22.3487,-23.3759,27.2879,-34.8356,-26.9223,49.8070,-80.3564,-218.2288
193.9748,261.6082,20.3962,-19.9061,-71.1655,-86.0028,-105.0644,-134.4894,-132.2772,-135.1342,22.4624,86.2024,-37.6441,67.6408,11.0087,-45.3920,63.2491,-54.4592,-147.7048
198.3504,306.4771,51.8281,-21.2732,-72.7111,-56.3520,-50.5284,-131.1259,-55.7808,-131.5700,44.0918,106.9601,-28.1591,54.3677,26.4628,-9.2073,43.0943,-78.3409,-120.7192
112.5990,-81.4658,64.6682,19.6655,-87.3430,-74.3987,-78.5703,-151.4225,-301.7972,-145.6407,54.7659,53.0004,-17.9134,-4.3565,-14.3716,36.7650,43.7403,-127.6682,-115.0281
121.8540,-408.3336,46.9197,24.3269,-97.7340,-110.1763,-115.9763,-130.2781,-447.5352,-126.4116,50.4180,-17.4259,-31.4152,-43.2336,-19.3035,43.8585,59.0832,-130.4801,-77.5856
163.2391,-324.7183,28.3282,-34.2181,-68.1272,-105.6023,-40.4938,-98.1097,-207.9497,-103.0008,53.1884,-42.9448,-41.0008,-57.4870,30.6982,11.8458,68.7974,-90.2943,-11.1780
150.6445,-47.7513,16.1758,-73.0106,-24.5766,-64.6254,61.2466,-78.8470,50.3746,-72.6424,50.7309,-21.7474,-34.2006,-43.7071,49.3310,-23.5105,66.9048,-31.4128,51.6560
187.6376,87.3207,-22.0231,-21.7711,-15.8366,-5.7285,71.0860,-14.6662,79.6528,29.1858,8.2610,24.0195,-51.0688,38.0102,27.7691,-2.6488,46.5277,48.9775,76.1351
240.0941,21.6982,-79.4152,44.4815,-27.8822,45.2993,35.5408,73.9291,25.8300,140.3902,-43.5756,64.0951,-95.9736,116.6688,27.4049,53.8901,17.3007,108.8845,48.2889
144.0000,-112.3615,-103.4016,27.5979,-38.8730,44.4473,17.2287,86.4296,17.3930,129.7789,-40.9318,53.6801,-112.7668,78.2869,44.3256,48.4816,-4.4938,102.8196,21.6453
-19.3005,-198.0588,-85.6024,-19.0581,-69.8619,0.7200,5.3076,39.3920,56.7146,46.7026,-15.2063,-7.1415,-90.0465,-7.1630,39.8519,0.5854,-35.2633,73.9086,43.2009
-74.6619,-220.1811,-86.6822,-24.0782,-115.9384,-41.0192,-10.8996,17.9861,24.3026,13.0889,-44.8611,-58.2047,-79.5151,-24.7419,13.7025,8.3446,-92.4342,59.4743,43.0514
-77.8839,-218.8762,-135.8043,-47.9653,-146.2459,-84.2035,-48.2917,4.7123,-161.8111,3.4550,-91.2689,-77.6356,-91.4379,-33.3161,-17.9187,27.1580,-140.1507,14.9643,-44.2705
-110.1009,-199.2767,-158.2843,-117.1472,-165.7054,-130.4162,-112.1804,-34.3820,-259.1917,-16.5215,-63.8502,-98.7847,-80.9183,-84.5406,-41.7673,-18.7815,-126.7406,-63.3092,-132.9721
-91.4813,-144.6389,-86.7749,-141.4952,-176.6464,-135.4877,-152.7708,-52.2370,-112.7509,7.1153,-1.6112,-114.9873,-38.7219,-94.3468,-54.3514,-49.4107,-62.0927,-102.1591,-137.2578
-1.0883,-83.6415,7.1516,-103.3289,-156.5334,-91.3642,-155.2477,-37.8064,-45.2336,42.1584,7.4879,-92.7540,-5.7749,-38.4893,-64.2557,-17.4218,-4.4127,-86.7573,-107.7372
61.8300,-59.6268,26.8160,-70.3867,-113.0192,-32.3790,-150.8703,-39.7493,-194.3055,10.9456,-8.8346,-56.4003,0.5356,17.9224,-62.9240,-22.6364,32.0645,-69.7574,-75.3467
69.9180,-70.4285,15.3131,-47.4544,-64.0005,26.4481,-109.3809,-47.0657,-236.4955,-21.1547,0.5908,-48.0584,7.2316,61.2928,-44.0372,-76.8391,85.6519,-56.3385,7.4913
78.9238,-93.2944,48.2491,-23.7929,-3.4569,69.5062,-11.8204,-14.8582,-94.1705,26.3270,9.4239,-57.5989,31.3578,91.3095,-32.1317,-65.0573,147.4120,-12.8058,102.5569
118.3878,-122.3166,95.4282,-15.9126,55.9598,91.6807,71.5747,43.6874,53.7930,93.8738,21.4662,-58.5202,63.9555,100.0648,-21.2408,18.8861,164.4122,45.9904,126.9585
171.6101,-141.6990,119.3013,9.9981,91.9831,124.3564,113.5419,88.4514,206.5867,115.5531,70.2752,-48.1162,100.6368,122.0937,14.8239,73.9057,148.7757,60.4446,118.7362
184.7934,-99.4814,125.2814,48.5262,103.3565,136.7381,136.9764,90.8098,258.0940,96.4185,85.9463,-32.9519,119.2729,126.8698,32.4733,69.5773,141.0131,2.5957,129.7538
129.3004,24.7589,77.6078,11.0030,78.7165,55.1660,115.0124,42.5464,85.4666,52.3567,4.0663,-20.6086,77.4358,46.1128,8.2947,34.8547,117.0391,-75.1426,117.2731
68.6882,131.0471,-23.2015,-59.1204,30.2581,-41.4479,78.1818,-3.4738,33.7853,34.3137,-74.2918,-21.6156,7.6783,-20.8566,25.9108,-19.9464,64.6966,-94.2435,89.8296
48.5910,106.2396,-76.9918,-38.3277,12.2503,-17.1983,114.1107,14.9818,292.3962,82.7189,-71.5996,-52.7857,-6.8282,18.5597,91.0293,-65.0540,12.1065,-59.1530,107.6606
5.4589,33.0306,-79.1292,-22.3974,0.8280,38.9429,155.8422,59.4599,407.3044,120.6848,-90.8004,-126.6304,4.4252,8.2788,80.0748,-47.7366,-77.3918,-40.2509,115.0430
-88.1015,70.2295,-142.9513,-144.4509,-76.3974,-28.5692,92.2397,53.4980,198.5394,78.5936,-177.8145,-205.5957,-40.3066,-125.4885,-5.8373,11.7698,-219.4933,-54.4108,45.6606
-156.9549,132.2094,-236.9595,-252.8902,-161.5596,-125.5128,5.3301,7.3062,39.7397,22.0148,-208.6125,-223.8633,-90.1201,-174.4919,-38.3812,15.5625,-295.7498,-67.5134,-14.1284
-176.3238,35.3562,-233.5145,-206.1723,-164.3124,-105.5407,-7.8482,-27.6976,33.9034,10.0298,-158.8524,-192.3058,-78.2716,-86.1071,-15.7601,-58.1346,-262.3233,-72.3246,12.9653
-184.5553,-86.6682,-186.7529,-151.7365,-135.5206,-60.6389,7.1225,-36.3341,58.8370,19.0156,-158.6319,-172.6849,-75.5757,-61.6737,-19.5788,-98.4330,-241.0363,-65.6355,61.7881
-156.0681,17.5700,-207.2535,-182.1158,-121.2423,-101.3411,26.8526,-19.6528,147.6704,40.4030,-210.2844,-150.4336,-114.8686,-108.8491,-38.5170,-53.7215,-243.7239,-33.2486,61.4842
-57.0150,212.3731,-218.6118,-164.0667,-78.8661,-130.0327,45.1112,3.7080,161.9659,60.8689,-181.6650,-85.1508,-108.5589,-71.9468,-39.7335,-30.9883,-162.5360,-5.7506,17.5069
48.5474,206.7933,-142.4700,-76.4950,-37.2235,-75.3218,0.0915,-6.4588,-0.2362,34.2293,-80.3959,-29.2440,-56.6444,-1.4575,-32.3882,-81.1760,-53.0551,-22.3813,-34.4198
81.3175,90.4941,-82.2103,-57.4363,-53.0971,-50.8040,-52.4157,-48.2470,-13.8152,-20.8801,-46.5763,-41.9470,-46.7775,-17.8050,-16.8658,-102.1050,-41.5042,-62.8904,-62.3465
41.0087,86.1544,-114.5122,-106.7604,-84.7600,-111.1408,-6.2332,-81.6213,161.3882,-55.2192,-110.9295,-83.6471,-61.5184,-61.0425,-27.0710,-65.1693,-84.0551,-103.8530,-94.2391
-23.5089,84.2563,-154.5559,-116.0090,-114.7475,-146.2778,40.1611,-107.1501,102.4989,-93.0423,-168.0648,-99.9210,-43.1865,-56.1885,-92.3528,-68.3650,-104.3690,-156.4207,-175.3222
-57.7446,-50.6579,-125.3532,-88.7465,-163.0439,-122.4663,1.1702,-141.5741,-100.7740,-144.2959,-143.7013,-93.2860,-19.5790,-34.4686,-109.4624,-113.7179,-118.8552,-207.2094,-226.2082
-37.6000,-130.9333,-56.2475,-85.4441,-156.0665,-138.9581,14.9637,-152.3691,-36.8677,-147.1064,-72.1378,-74.4425,-5.4278,-15.8853,-6.2310,-109.3664,-117.2262,-226.7708,-159.8148
4.5644,-42.3210,-8.4744,-96.2158,-79.3510,-201.6456,109.0443,-115.1497,102.9088,-91.6251,-35.1457,-48.8882,22.4211,-7.4218,67.6657,-62.0380,-94.5523,-223.6841,-80.7706
31.2128,6.6339,-18.7458,-96.7333,-69.7940,-220.3148,121.7027,-70.8583,47.2898,-38.3559,-61.8570,-36.8446,24.9754,-42.9621,-0.7580,-44.0194,-118.3782,-219.9928,-85.7442
45.0682,-72.7212,-70.0850,-100.6463,-142.3388,-198.0387,69.7791,-49.1617,38.7230,-12.0846,-101.0000,-35.2511,-24.5604,-85.9689,-74.7318,-60.6646,-172.0950,-218.9846,-76.4613
49.6359,-94.1141,-99.1968,-105.7517,-178.0050,-168.6665,85.0982,-19.3198,140.9569,-0.5326,-109.8503,-6.5620,-64.1379,-37.5840,-43.5360,-74.8892,-158.2474,-203.6332,-12.8697
36.6647,-12.5217,-94.0128,-88.7373,-201.7459,-90.1097,118.2499,20.5139,77.0231,-2.6751,-120.2252,45.7413,-71.1325,80.9858,1.4034,-65.4573,-105.0965,-144.2305,-8.2042
5.4660,18.0219,-130.9619,-81.5098,-272.1964,-21.8540,66.2010,-5.4323,-106.7549,-36.3502,-176.2568,35.1259,-109.4463,88.7806,-8.0144,-43.9723,-112.1840,-75.5166,-61.9110
-70.9341,-35.6564,-248.4392,-152.6350,-291.1714,-139.0284,-90.7504,-137.5264,-156.3419,-128.4145,-268.8151,-106.1194,-210.4588,-122.5349,-21.3675,-55.4971,-178.9947,-110.8690,-77.7753
-209.0562,-115.8091,-354.5971,-264.7762,-225.8678,-385.5394,-338.8198,-284.5624,-52.5628,-242.9545,-345.1607,-289.4935,-323.9854,-387.3500,-20.4287,-105.6975,-253.5143,-251.2280,-76.8989
-311.0579,-224.9198,-336.5709,-286.9015,-186.3416,-468.9360,-532.2534,-321.0814,83.8497,-268.2523,-335.3308,-346.8731,-357.8398,-443.9984,-38.3938,-135.8165,-291.7943,-325.7113,-92.8215
-270.7924,-292.1378,-218.5412,-216.1529,-179.1020,-316.7449,-495.1860,-242.4229,79.8942,-184.7332,-219.5187,-267.1472,-265.4410,-290.0683,-70.5447,-132.2733,-258.4377,-254.2874,-76.0831
-170.2547,-202.0366,-128.3455,-196.7888,-134.0669,-159.4624,-340.5779,-148.2889,-123.6919,-111.9391,-96.0375,-198.2691,-141.8749,-157.6243,-74.6030,-126.7700,-200.5786,-153.3236,-36.9532
-151.6691,-47.6576,-116.6192,-267.4710,-77.2367,-133.6370,-263.4582,-100.7574,-208.3277,-101.9877,-70.7752,-205.6889,-113.4935,-166.2296,-16.8858,-86.0112,-192.6775,-105.7354,-14.1846
-170.0894,-9.8837,-105.0143,-314.9344,-32.3410,-141.3234,-185.8871,-66.6507,41.8710,-79.2440,-85.3973,-214.7478,-131.0830,-220.2433,76.5018,15.8095,-183.0620,-68.4956,37.3503
-100.8459,-50.9737,-23.5621,-267.7811,35.6156,-69.7409,-35.5493,8.6133,278.5083,-5.0741,-11.1161,-159.9033,-69.3843,-190.8446,114.3949,96.7959,-92.4909,-7.4413,120.5196
35.8142,-30.3229,100.6912,-135.0965,108.7082,72.8839,46.8335,111.8193,230.5795,79.6897,126.0554,-39.5995,45.0700,-47.4304,61.6954,100.5370,32.2416,65.9454,155.7397
150.8841,58.2120,198.8436,43.4413,152.0666,192.2398,37.5162,167.7688,93.8726,130.3409,193.9029,95.1066,111.4316,117.7003,3.8202,80.7229,125.7603,128.3019,136.2816
221.3876,168.0448,227.0790,167.2221,177.3920,217.5271,51.0032,144.6815,-36.3209,125.1689,174.9679,158.1704,126.0978,180.8800,3.3962,78.2320,189.9282,145.3870,103.9443
227.2253,280.1606,197.3960,173.6315,181.5688,200.5762,60.9498,110.2600,-207.0790,99.4288,162.5875,147.4746,132.4887,154.5893,12.4247,84.2424,222.9502,133.3791,56.1397
154.8191,326.2036,177.9765,164.0614,172.2264,231.2527,30.6923,130.1924,-232.7733,118.3263,189.3042,165.2207,141.1992,148.6631,-7.1694,95.4639,241.5480,162.1601,18.3688
109.2132,259.5906,219.8868,234.7733,194.6813,292.6667,36.9259,175.0824,-64.4449,153.9499,214.8755,227.2769,152.9976,188.8909,-18.4301,84.3145,299.5021,232.9146,32.6882
192.8052,159.7890,291.0500,310.0719,227.9494,337.3488,63.1143,196.3117,17.6013,135.2770,237.2482,241.2098,165.7834,239.0012,0.2341,35.6630,372.7373,290.6967,66.6406
296.4682,107.4362,329.0703,311.5449,223.6743,384.1957,60.6275,205.8461,-34.7619,112.7797,281.5778,204.7972,181.1134,281.6581,20.1859,28.0806,379.5463,333.8505,89.3834
260.3301,85.2565,317.6363,299.2015,230.4923,414.4915,117.0886,213.3560,-32.7179,157.7154,318.1550,197.8385,217.5710,277.3897,24.9525,99.1949,328.3698,352.0760,109.6193
149.6979,61.5213,276.8346,332.6752,274.0233,357.5694,229.1555,183.4620,-25.1800,185.8334,300.1381,218.5257,259.4342,221.8050,29.7489,136.7620,278.4542,285.9314,81.8674
106.4939,13.1083,223.8463,364.2148,255.4699,238.2778,237.4876,110.7583,-103.0095,109.5575,247.0216,211.4668,252.8498,186.0010,41.5052,87.2708,220.2365,168.5236,-23.5895
84.4220,-91.4818,164.4254,326.6082,135.8953,144.5580,143.5952,48.3542,-145.4656,17.2608,211.3362,167.9569,200.2716,154.9663,41.0802,62.2514,128.6869,113.0571,-118.9066
0.0501,-209.6628,110.7815,239.5954,20.2744,83.1301,85.4459,27.3763,-133.3617,2.7208,200.3737,112.8881,159.1760,61.2833,16.0913,96.6542,43.0193,125.9827,-140.1266
-69.7806,-246.9963,86.8730,188.1863,-21.8473,24.2853,64.3954,19.1763,-170.8843,-3.1405,178.8300,78.8100,140.1506,-7.1886,-12.1185,79.6478,6.4697,132.2734,-137.5731
-78.7369,-198.2932,79.1601,189.4631,-33.8046,-14.9734,29.6240,-4.0993,-196.0519,-67.9117,119.4953,80.7235,109.1528,28.1109,-29.0019,1.7608,-6.6759,124.7289,-145.8888
-128.0347,-121.9233,27.6125,161.5826,-63.7973,-28.1880,12.6858,-30.7897,-142.3403,-116.1747,39.0634,80.7179,66.7795,36.9591,-66.7471,-23.4091,-49.1909,131.5570,-146.3114
-227.5758,-51.5711,-63.4564,85.1840,-100.2043,-41.9025,13.3722,-50.0292,-112.2341,-94.7426,-12.8999,40.6688,45.3120,-53.2966,-145.0799,9.2741,-114.2179,146.0991,-143.0831
-245.4212,-33.3037,-99.4553,40.1050,-105.1094,-55.9568,-1.3732,-76.3305,-126.2058,-87.2465,-18.0072,-15.2906,51.4230,-129.6517,-211.6166,7.8135,-147.3563,162.9443,-140.4488
-161.1535,-70.3158,-49.7152,32.9144,-68.7507,-50.8542,-6.4488,-105.7170,-91.2609,-132.8578,-4.5000,-41.5718,60.7480,-163.7428,-209.4017,-28.3118,-136.5543,183.0460,-115.9012
-81.3718,-47.0030,10.8686,2.5536,-12.4815,-31.1920,8.6724,-103.8029,-43.4722,-137.6739,17.4061,-23.9177,62.9251,-204.4025,-158.3190,-40.2371,-114.2976,198.3290,-73.0125
-55.8024,60.5894,35.5128,-30.4420,51.6922,-14.1567,10.7677,-73.0904,-62.0259,-81.2539,42.5412,0.9982,70.1851,-197.7335,-115.9125,-40.6852,-92.8923,217.2222,-45.4040
-87.5054,86.8427,30.7885,-35.0883,104.6555,-4.8391,1.1199,-65.2432,-100.3650,-74.8046,17.7807,-34.2874,71.5317,-150.7936,-104.0742,-65.8265,-72.1835,231.2719,-48.2495
-164.1453,4.4878,5.7034,-56.1770,103.8194,3.7643,-15.2322,-89.6261,-131.8980,-132.2624,-55.4795,-121.5888,44.9737,-184.1268,-106.6097,-87.1716,-56.4133,191.9520,-59.9922
-188.4747,-2.0263,6.5730,-83.2706,71.3150,18.5685,-57.5731,-88.1777,-191.5349,-135.4361,-60.3814,-154.7101,23.1224,-260.3090,-100.3434,-63.9913,-25.1388,118.3541,-43.1542
-84.8105,90.6511,76.1421,-46.2522,99.7395,41.3645,-98.0708,-34.1255,-192.7259,-52.3967,43.6233,-89.7663,46.8476,-226.3448,-70.4446,-23.0102,40.0611,117.0263,6.3139
66.5428,143.9618,157.5028,21.3847,192.9798,76.7964,-89.1985,23.5337,-39.4287,31.8956,143.4272,3.2893,82.0319,-94.1794,-18.1115,-25.2733,118.6851,198.9916,51.3391
158.4111,172.7977,188.9723,34.5531,245.3350,113.3695,-46.5655,36.9313,117.5762,59.5771,182.5335,64.1390,94.8255,12.5273,32.5226,-66.4180,180.9040,232.3338,70.5519
169.1667,222.9516,197.9029,7.8928,210.2373,110.3977,-15.5470,16.0486,100.2411,33.9571,207.1307,72.3217,113.3832,38.4494,45.5459,-75.9123,191.8926,158.8361,63.5686
108.7907,191.5360,186.5557,-3.2813,139.3888,66.3296,-29.5406,-5.8141,31.0223,-6.1120,203.0037,30.8490,125.1996,3.2746,10.2644,-50.4816,130.5194,82.4636,26.2895
41.8812,105.6907,122.7724,1.1737,74.3846,44.1055,-101.9888,-15.5995,61.1595,-15.2888,144.2524,1.8087,78.6560,-20.8344,-38.7509,-68.1289,63.6913,71.2682,-7.1380
64.1399,166.7494,70.5191,0.2154,18.0589,63.8565,-177.7252,-11.3205,42.6468,-4.1259,103.9906,25.8469,18.6231,15.9916,-62.3908,-104.9457,63.5886,56.7816,12.3119
131.2060,340.7358,89.1028,-14.5627,-25.7847,74.7931,-180.1788,10.1241,-131.5537,-4.3642,116.2676,45.4363,21.3955,52.3732,-64.5166,-49.5948,56.8806,-2.5409,43.4227
120.8769,367.2969,93.2641,-38.4597,-47.3084,60.6698,-141.5150,32.1950,-220.6545,7.0944,104.9218,25.3080,41.2132,28.2225,-65.2582,51.6410,-41.9285,-43.4244,17.6082
51.7149,192.6083,28.5791,-55.6710,-43.6463,43.4332,-130.9604,35.4510,-38.7581,42.9644,44.3762,-0.8501,7.7524,-21.1886,-50.9797,64.5117,-152.7959,-35.5191,-15.1428
-4.9057,8.3130,-14.6720,-70.5098,-26.3640,14.9867,-99.3374,41.2543,199.2143,67.0286,-8.7874,-33.2378,-35.4639,-70.7668,-5.8681,36.5449,-180.5845,-28.1185,23.3166
-64.7331,-46.0326,-3.9508,-99.0477,-14.7358,-22.3395,1.1203,63.4806,197.9697,74.5875,-32.1876,-73.6926,-29.2404,-108.8279,30.1222,56.8737,-154.9892,-44.9387,76.5686
-101.3201,5.7451,-19.5879,-119.5957,-23.3043,-31.4574,56.5633,59.3966,-18.1418,72.9976,-34.4273,-84.4784,-5.7439,-79.8241,13.5094,50.7603,-111.4478,-65.1159,50.0073
-44.5014,45.0311,-61.5162,-108.5742,-65.9991,-17.5648,-21.9116,21.8526,-158.0496,40.3352,-19.3691,-89.9172,-16.7536,-11.7789,-16.7869,2.2888,-52.6392,-78.3375,-21.1389
47.5641,-7.8163,-55.4620,-88.7804,-132.0662,-25.0430,-107.5576,11.6221,-39.3338,3.6444,-7.2156,-126.9717,-48.6208,-12.3366,-7.2702,9.9050,-18.9615,-85.3889,-38.7894
82.9155,-77.6813,-14.9493,-72.0396,-158.5201,-52.9760,-68.4688,27.6152,161.6616,4.7838,-2.0556,-125.7132,-50.1013,-55.0678,3.5200,8.7262,-20.6564,-97.0379,4.5763
82.6963,-55.5575,-3.7623,-43.0327,-107.7638,-65.2414,21.9103,12.2063,196.3481,2.4432,8.5888,-56.2514,-16.3300,-42.0671,-23.1878,-82.0788,-11.5435,-122.3815,44.9247
60.4427,6.7238,-23.0872,-26.5501,-33.4455,-57.4540,62.8553,-13.8847,131.3193,-19.1023,-7.5502,-20.7185,-1.1107,-6.5834,-21.6879,-98.8111,-1.2789,-122.1655,48.3439
-5.6339,-6.4254,-47.5899,-48.4436,7.8679,-51.9033,78.6440,-8.1128,82.5532,-0.1207,-64.9860,-48.7069,-18.4155,9.0247,32.4683,13.4005,-31.3358,-68.1775,4.8227
-53.4740,-85.9308,-83.0755,-62.1781,3.8943,-55.3204,61.3359,-9.4907,-82.3069,30.6263,-104.7673,-61.3712,-23.5635,59.5076,25.7582,36.4740,-79.1008,-33.4382,-101.2024
-43.9092,-154.5733,-138.1696,-35.2843,-71.6569,-63.3176,-52.0619,-42.7885,-326.4319,-9.8077,-123.3226,-61.9303,-33.7507,107.1492,-71.9590,-30.1406,-117.1761,-80.3252,-224.4895
-61.2400,-197.3452,-192.5544,-21.9377,-196.2696,-92.2996,-175.2453,-68.9113,-320.4908,-80.3293,-186.0556,-99.6409,-105.5121,29.2394,-102.9879,38.3249,-153.7473,-142.8838,-265.3432
-138.6445,-251.4836,-217.2066,-62.6104,-254.1563,-161.5668,-164.8683,-79.8060,-80.1472,-109.5428,-259.1846,-142.2843,-186.5464,-124.9586,-2.0531,172.3239,-171.4451,-155.8889,-217.9525
-196.6596,-334.0070,-216.3077,-121.5989,-218.3561,-238.4816,-90.9725,-93.7950,21.6434,-125.1840,-259.3585,-160.6084,-193.6103,-180.7789,77.8707,146.1600,-152.7465,-158.8308,-171.4145
-192.1349,-406.5350,-211.8457,-148.7737,-189.3750,-256.4314,-91.6033,-107.5104,-48.4152,-149.7999,-218.0929,-168.2761,-163.2442,-101.8928,49.2987,7.2992,-118.6872,-184.3170,-138.8587
-140.0204,-423.3091,-184.0813,-113.1310,-173.4704,-201.9700,-108.9555,-131.4897,-47.8724,-158.7069,-185.2086,-138.6810,-140.8114,3.3335,14.0577,-108.3719,-76.0192,-199.8536,-79.5989
-70.2391,-407.7834,-112.9421,-23.7277,-108.6652,-135.4483,-67.8381,-165.3224,-11.5868,-152.6675,-134.0290,-66.8118,-93.7076,42.2435,23.0527,-183.4520,-25.8516,-187.3369,-49.4676
-30.5114,-408.3640,-58.6411,44.3852,-68.0267,-118.3752,-58.2907,-168.5267,-105.0245,-138.9931,-87.0616,-29.7901,-46.6199,5.3900,3.8900,-178.4392,1.7305,-166.6636,-107.5594
-9.9820,-406.2705,-70.9096,34.9553,-126.1420,-151.1984,-117.8463,-149.9772,-251.0429,-128.0074,-100.1640,-49.8180,-65.7805,-44.9508,-41.0222,-100.2437,5.5946,-159.4658,-173.3961
44.3746,-360.7225,-87.3521,-12.5024,-183.4777,-186.4960,-136.2914,-154.2157,-256.1488,-148.2620,-119.9422,-53.9789,-103.8466,-56.4423,-31.7954,-63.8830,6.4988,-164.6238,-159.8681
76.0466,-286.8372,-56.1005,-42.7235,-155.9282,-189.4102,-70.3213,-143.3697,-68.1708,-162.1272,-88.1823,-22.1108,-87.7335,-56.1462,16.6021,-56.2558,-17.5658,-142.9837,-96.5715
9.7543,-230.6618,-32.7663,-45.1588,-102.0088,-162.9112,18.3254,-74.7192,153.2589,-103.9208,-66.3473,-4.3560,-55.9965,-69.2604,35.5261,1.0426,-70.5303,-71.1224,-26.9307
-68.9378,-222.2646,-58.9598,-25.5234,-69.4371,-118.5213,88.7832,-13.4900,212.8513,-27.3152,-88.8185,-12.4918,-54.2019,-67.6396,36.0183,14.1512,-104.1993,-4.1951,39.4927
-62.8663,-237.5106,-90.7673,-12.6195,-48.7049,-66.7907,117.3085,-4.4010,179.5292,-2.4463,-86.3212,-17.6113,-56.9669,-61.5922,51.4282,-57.6437,-100.2033,7.9087,77.0011
-8.3751,-199.5270,-76.4887,-15.6144,-35.7090,-17.0027,104.7955,14.6556,224.1986,27.4368,-30.7656,0.8266,-43.7233,-70.7555,65.9118,-68.9669,-55.7140,6.3350,89.6760
46.5781,-94.7000,-4.9663,32.1763,-4.9198,51.7896,103.8076,72.5764,230.2695,92.3126,31.7597,45.5834,-10.1581,-30.3552,69.4324,-25.6945,36.3816,34.0631,116.0892
71.7904,-5.1795,78.8403,134.3131,58.3443,147.6354,116.4042,112.2643,84.8141,115.3115,78.2483,90.0535,45.0276,73.3766,65.7286,-56.6295,100.0055,71.9344,136.5603
27.5167,56.0182,99.0123,168.3585,112.5656,197.2088,102.9991,104.2422,9.1895,81.5159,108.9922,106.3980,84.1599,123.1379,47.7453,-66.1840,66.7043,111.0614,123.1992
-26.4097,154.5069,64.1230,116.7824,154.9027,158.6060,112.3384,81.1775,83.9107,51.6221,112.9208,109.2275,81.3256,85.2377,39.9719,61.8505,24.8387,162.0296,128.4090
-15.0342,249.7648,59.2471,103.9513,216.6251,139.0860,181.0732,83.7965,99.4088,52.3880,93.6694,111.5327,72.7621,69.2134,63.8853,174.2924,43.8445,208.7364,177.0395
-15.7991,259.0760,87.9284,146.9462,254.3509,227.3939,222.5774,127.1847,90.6595,100.0683,79.2392,104.9094,81.4527,122.3967,64.6943,153.5201,59.0988,244.2361,205.3618
-60.5783,246.4758,99.7686,177.7813,245.5931,333.2869,201.6702,174.8672,158.5370,174.2887,95.7990,121.4578,95.1505,202.8041,11.3218,107.9910,91.1258,273.2891,192.4543
-22.1891,295.0868,121.1503,211.4220,267.5892,351.5071,190.1466,170.3932,55.9374,183.3851,141.2886,186.0375,120.8881,276.9333,-24.7491,93.0745,210.8126,265.4793,183.0294
87.4190,344.4199,167.2982,245.0449,321.3170,321.6647,195.3390,133.7153,-203.9646,134.8273,179.4436,230.9541,151.4862,304.0630,-5.4088,65.3818,291.5800,219.7678,181.3164
106.5071,334.7160,170.9605,227.2561,307.1866,316.9942,183.5728,140.0226,-149.9942,146.1763,179.0367,205.6451,148.3586,285.8604,23.2695,65.2997,216.1665,201.6358,167.6822
50.0975,310.2592,123.9188,205.9306,230.4281,331.5634,173.4409,187.2490,180.6421,195.1243,145.4194,173.8076,111.3633,296.5605,49.3530,124.2830,128.2168,220.0770,151.2780
33.5010,309.0835,91.7260,229.8027,174.8216,327.4595,150.9722,207.5849,253.6866,177.6510,100.0765,187.5290,69.3080,313.5073,77.7633,175.0511,143.4663,210.2323,129.2139
29.7659,331.1758,78.3968,230.5771,132.5083,286.5959,85.8238,194.2401,84.7986,148.3207,68.5927,209.5440,30.8121,242.6381,64.4435,193.4854,161.4333,165.8163,83.9617
5.7756,376.7703,61.4614,200.4311,65.8444,218.9150,24.6578,185.5963,42.1667,175.9628,72.0933,209.5872,11.0771,158.6969,13.6555,206.4842,126.7518,125.9480,29.5185
22.0930,405.1038,65.4872,213.9612,12.1831,165.7493,-4.2908,175.3848,46.9798,188.7636,96.5076,201.1577,22.7821,177.4824,-10.3104,195.3885,105.1589,92.3898,0.1594
71.7798,357.0648,90.9712,240.2842,7.3083,157.1496,-32.2788,146.1152,-48.0211,163.4436,114.7875,194.3170,39.0121,200.2197,-16.9379,161.7303,119.8254,73.9167,12.3515
86.7153,256.6911,107.9311,218.0958,24.2764,160.4531,-42.4211,107.4568,-68.3883,143.7656,124.6255,184.9865,40.4938,122.9333,-45.0443,144.3102,159.3842,79.4902,41.0985
71.8726,201.3831,118.5929,178.8972,31.1290,125.1552,-8.8464,54.3886,1.5112,86.1955,120.4098,156.9503,38.6674,41.8481,-49.2817,121.8344,202.4530,62.8521,40.3716
73.6116,257.5611,120.7597,137.3705,32.4921,68.4929,34.2964,-4.3684,2.6820,-2.8342,105.4802,111.8001,35.5218,27.0367,-4.5842,73.9266,192.1949,22.7141,17.7854
110.0671,386.8871,107.9746,98.6721,38.2426,53.5683,60.6525,-12.0761,5.9374,-4.4300,129.8134,105.3008,37.8734,24.9479,26.3155,60.6295,152.4111,32.6286,20.8932
163.4884,466.0523,126.0747,130.3557,34.4226,88.9140,54.2170,30.0492,67.0061,56.3193,202.1856,161.5364,61.9872,36.4498,32.7897,98.3444,175.6181,74.9853,31.1478
189.2798,420.3775,185.4377,197.2313,15.9538,111.2079,2.2461,29.4435,39.0367,37.0135,243.0231,195.3426,88.3852,71.8457,62.2552,108.1835,210.0942,58.5933,-12.2632
176.5064,306.7534,198.8478,155.6068,1.8912,70.9702,-45.7432,-44.4912,-57.8748,-44.0254,218.3104,139.8732,90.8374,43.5442,72.2638,58.4490,135.3459,-1.9716,-105.2662
152.6689,208.9644,136.2027,36.9436,-12.7277,0.3789,-66.2106,-111.5953,-69.1406,-74.9894,175.9617,61.2232,75.9667,-53.4415,-1.8506,5.7005,23.2071,-32.6111,-186.1719
104.5087,154.3421,81.6549,4.7878,-33.4470,-15.8892,-103.7019,-113.3327,-48.3560,-42.6780,126.6249,47.2124,44.6227,-82.3020,-88.3060,-9.0727,18.5733,-20.5482,-197.1763
30.3126,170.6789,63.6552,45.7537,-25.3467,40.3423,-118.4856,-78.1441,-97.3372,4.5015,56.9639,82.5041,-3.2880,-30.9548,-97.0967,-7.5131,65.8529,17.6801,-148.8863
23.0748,267.8404,27.8226,32.1248,-18.0322,60.8595,-76.4468,-68.2581,-150.7059,1.9100,12.9955,89.4497,-36.4657,-52.4420,-88.6967,-33.0304,26.2397,45.4115,-143.0348
150.8400,356.1322,-2.2622,-25.9983,-90.9595,-19.0947,-93.9356,-101.2430,-137.0292,-70.0260,47.4528,30.1920,-29.6536,-163.2697,-137.8392,-73.1916,-54.6245,34.0512,-198.5300
345.5182,329.7446,52.3609,-48.1797,-162.9030,-76.7975,-163.7908,-113.5606,-74.2558,-97.2817,149.4223,-56.2627,19.9401,-209.8196,-176.0639,-58.4501,-39.9863,54.3009,-175.1730
490.9098,221.9654,155.5486,-43.5080,-99.9189,-15.0923,-112.0935,-58.4871,-26.1426,-14.3598,254.7235,-100.9760,99.3506,-161.8633,-135.6366,1.9923,39.5815,153.2149,-66.2016
532.5427,161.2044,199.2177,-51.1764,-2.8218,46.9534,-9.2228,-7.4400,-62.3386,48.5180,294.2585,-84.0236,150.5477,-138.7597,-86.2199,11.1025,58.7424,218.4755,-45.3367
502.2080,162.4637,185.6162,-60.0093,-4.2188,18.1034,-33.9715,-15.6429,-135.5106,36.9513,274.1135,-58.9972,140.1628,-161.2751,-93.4238,-17.3241,34.4314,195.3806,-82.6219
458.4017,100.2875,191.5223,-48.5997,-4.5494,17.3928,-58.9782,3.2548,-126.6789,74.3102,260.7240,-86.1027,130.2570,-151.3860,-110.5189,21.6485,43.2729,197.0322,-10.3536
385.8658,-40.1428,194.5320,-28.2436,47.9349,107.8862,14.7445,88.5493,-75.5741,152.4996,243.9677,-144.5680,131.7362,-114.1588,-97.9130,82.9027,35.1437,239.9416,73.0136
252.3218,-107.2798,121.7816,-32.3192,34.2383,156.5077,6.1340,113.6723,-86.2373,134.8526,166.3740,-153.6492,61.1361,-95.0075,-79.7535,47.5334,-30.5171,219.6928,27.2654
127.7311,-93.6835,24.0471,-74.6351,-12.8958,97.1330,-63.5525,36.3313,-96.6120,53.5919,79.1856,-105.9483,-47.1785,-78.1358,-54.6654,-25.9333,-72.1090,157.7460,3.1212
56.6605,-156.8939,-0.0646,-127.6707,17.4660,24.4061,6.7927,23.7324,-26.9249,42.0361,57.9591,-95.7200,-84.1291,-71.9799,-10.4073,-39.4772,-77.9202,125.5753,80.7145
-41.0750,-247.0795,12.0986,-164.9822,22.2708,-12.4270,79.8719,177.8707,58.1757,113.9952,54.7996,-156.5465,-105.8579,-118.2396,10.1389,-69.9012,-121.0668,75.1875,80.0288
-158.0940,-177.0944,-23.2488,-193.1318,-65.9014,-53.4888,-30.0653,360.9444,82.0916,202.2168,19.7260,-199.2926,-201.8701,-170.9608,-17.1092,-172.3961,-160.4133,-17.2286,-27.2911
-172.9500,-43.5480,-76.1152,-221.7944,-100.5302,-117.1907,-142.2543,398.0832,39.4083,234.8154,-10.0677,-182.3116,-299.6250,-166.8088,-48.0076,-236.2278,-146.8772,-85.7641,-83.1584
-125.7602,-75.5219,-100.5928,-248.7791,-62.0681,-196.4660,-134.2413,300.9166,-2.8178,181.5723,-35.4687,-179.2640,-344.9061,-153.0148,-56.1716,-216.8234,-169.9433,-118.5092,-68.2477
-152.4410,-224.0088,-126.3613,-266.7088,-70.4846,-269.7729,-117.9563,217.2317,72.4907,124.6579,-88.5945,-220.6720,-388.0649,-178.5822,-48.4822,-194.8401,-237.7767,-135.2841,-15.6831
-202.0145,-328.8880,-147.6417,-262.9064,-72.2538,-295.1822,-53.0612,221.9100,216.2594,136.2466,-124.4837,-244.8600,-413.7112,-208.8736,-11.2465,-161.5387,-222.3540,-123.6148,100.9296
-173.1314,-406.0587,-120.4359,-255.0536,0.7937,-285.7803,112.9575,240.6270,203.7335,144.2329,-111.2057,-231.5947,-387.1716,-231.0058,41.0362,-75.9587,-139.4661,-120.9439,193.3118
-132.2532,-479.1366,-82.6557,-286.3056,33.4235,-303.2335,185.9949,198.1459,46.6713,95.4725,-105.0001,-223.4709,-374.2677,-257.1076,48.0963,-36.4203,-109.2661,-170.6673,166.5217
-140.6122,-449.6271,-85.7568,-327.3574,-5.6492,-337.8679,99.2898,125.3539,5.6371,49.6823,-126.9444,-224.6539,-398.7645,-246.9016,17.5728,-102.5270,-106.9739,-222.2025,115.7287
-135.5043,-296.0567,-94.3956,-297.8597,-11.5399,-341.9017,31.9388,61.1844,102.2972,17.8120,-135.9307,-201.5510,-390.5738,-184.7576,25.0836,-157.1976,-79.6339,-243.5181,101.5818
-98.5603,-176.1672,-89.8775,-220.4024,-8.1815,-340.1844,18.7587,-10.5574,130.9801,-38.1922,-139.3065,-153.6979,-357.7788,-127.9891,69.6964,-136.4206,-89.8320,-274.2891,40.6404
-85.6639,-243.4852,-109.4781,-184.7166,-63.9453,-357.7405,-19.1866,-80.7013,70.7004,-87.3350,-168.2423,-112.1880,-367.4839,-109.6749,82.8080,-111.3976,-142.9626,-297.5841,-45.2173
-94.3350,-419.6606,-132.3968,-184.2857,-110.1604,-349.5562,-36.0210,-106.0668,40.1448,-101.9868,-190.2611,-101.1344,-383.8143,-124.7387,69.5408,-85.5240,-147.7941,-277.6309,-55.6038
-80.3189,-452.6434,-111.1573,-168.6191,-102.3324,-306.6758,-12.3173,-87.2016,52.9805,-102.2816,-161.7654,-116.5250,-330.9004,-167.6887,81.9378,-16.0770,-97.1565,-267.5992,-35.3214
-40.9350,-277.4217,-69.6227,-153.0844,-95.5565,-274.9892,-24.4437,-65.6523,56.0353,-87.1468,-104.0305,-114.7753,-232.7555,-182.8021,84.6115,27.7803,-54.1857,-280.2258,-67.2399
5.3331,-107.4767,-25.5262,-134.3220,-96.2188,-232.9538,-74.4332,-67.8994,-2.4530,-76.6219,-58.8193,-57.5423,-152.8515,-106.2797,16.6006,-10.6887,-21.0309,-213.7007,-109.8134
48.6517,-62.4349,49.2706,-67.4626,-72.7803,-128.4160,-102.3910,-79.9441,-129.5063,-108.2971,-23.0535,13.9144,-95.5831,10.5329,-47.3502,-45.6593,35.5240,-51.5529,-94.4292
65.4504,-56.3960,118.0107,9.5478,-29.7236,-19.4061,-61.9730,-73.6343,-222.1687,-129.7033,13.2462,29.8480,-49.6830,69.6189,4.3320,-10.2416,107.9253,61.3281,-26.3439
32.4691,-77.7541,108.3854,28.9025,28.2822,-2.1032,49.5234,-73.3206,-219.4481,-94.4128,10.7185,12.3508,-30.9556,66.4847,90.3611,38.1683,150.5625,41.2644,30.8251
-15.4307,-159.3738,47.7280,30.8754,68.8343,-40.4279,111.3258,-116.4763,-201.9248,-71.9621,-51.6878,22.3638,-37.3919,47.7184,49.1597,48.4858,137.1077,-6.3307,24.5335
-16.6308,-194.0909,8.4729,63.1087,35.3683,-27.0242,35.6333,-137.6187,-177.5091,-84.9820,-110.3452,36.8689,-43.7062,37.1547,-60.6457,50.5834,112.2493,30.8408,1.8691
7.7470,-122.0413,-4.5064,72.0981,-22.2724,33.0534,-23.5331,-84.9284,-88.8164,-71.0567,-120.8986,29.5779,-40.5501,54.9032,-57.8273,77.9848,131.7887,91.1723,41.5513
-5.6515,-45.7455,-9.7146,32.3486,-1.1481,46.8333,56.1690,-72.7278,-31.1121,-57.2578,-120.1101,51.5869,-26.3049,93.0439,40.5310,99.7996,164.1146,66.1420,102.4772
-20.7812,-9.6856,-3.6818,12.4728,64.4101,9.0972,133.7834,-118.5239,-55.6957,-65.4327,-104.5847,97.0167,-10.3360,96.3595,89.3967,51.7022,155.2329,4.3845,109.0377
16.4277,32.9446,3.1062,44.6018,74.5430,7.0401,108.6248,17.8422,-10.1186,27.9867,-33.3532,93.8986,-42.7396,49.9508,72.0258,-59.2653,132.7797,7.7511,88.3731
42.1216,93.9877,-0.0944,86.5302,47.2259,54.5959,54.1162,369.1834,99.4726,240.5009,34.8054,86.4979,-134.0182,8.3885,43.5876,-138.5398,140.4186,35.8108,65.6662
23.7216,187.3690,0.7349,108.8403,58.8152,67.9343,-0.0232,569.3311,71.3486,363.1496,30.3800,149.0435,-175.1930,4.7488,8.3964,-139.8630,155.3991,16.8873,6.6787
36.0343,292.9132,6.4230,109.0800,105.7073,23.5163,-36.7397,457.6376,-45.4270,303.1753,8.0376,188.5628,-91.8849,22.9069,-12.9367,-107.6631,137.4700,-1.9554,-59.0116
51.5569,305.9943,5.4044,93.8799,132.9965,0.3518,4.1935,318.6318,-42.3350,217.9682,11.1561,134.1784,15.4407,51.9127,3.4092,-72.6220,97.2633,17.8900,-57.4168
-11.2968,236.3985,13.2755,91.6587,128.8931,37.4290,58.5411,318.8772,29.0219,208.8722,7.0452,105.5094,56.8133,89.5403,10.5598,-54.3061,86.1199,31.0337,0.6242
-40.9915,219.4867,41.6746,109.0902,118.6964,71.9438,32.3847,303.8606,4.9696,193.5509,25.9937,145.8649,104.8479,109.8592,-16.9876,-92.7020,108.4851,33.7692,38.5556
76.6505,239.4878,64.8225,96.3800,88.7481,46.4710,-15.4908,209.0739,-101.3795,116.5154,102.2345,125.2776,201.6510,83.1968,-42.8142,-145.7825,87.2128,57.4154,6.6452
210.9230,189.9418,70.0361,35.8226,18.3622,-7.6470,-34.4087,149.7129,-183.0199,54.5109,157.3285,35.1912,258.7707,33.3379,-63.6362,-126.1047,9.6017,79.6425,-60.1915
256.1462,109.5240,85.2980,-1.4740,-11.8859,-18.7914,-32.3448,154.6228,-141.2900,77.7682,162.6867,-3.6273,264.3667,25.8784,-77.8706,-77.0431,-10.4392,94.8773,-61.3530
304.7054,58.1041,123.6823,27.3370,73.0262,20.6966,38.5019,158.3105,3.6760,135.4651,197.5006,-5.0285,309.3430,56.5633,-53.9816,-82.1537,44.2766,130.2358,13.7664
373.8373,6.1792,155.0614,44.9805,154.3765,33.4117,117.8680,144.8501,32.0590,142.9768,250.0310,-55.8716,379.1583,30.7104,-38.5894,-95.6706,34.5262,151.0952,42.0914
361.5489,-42.4901,151.6023,-21.4713,95.1777,-16.2907,57.7997,135.6054,-107.6843,115.1066,245.9444,-129.2647,390.5363,-63.1119,-85.1766,-76.8349,-59.7240,135.7130,-11.5380
277.5481,-98.5711,117.9188,-103.3006,-11.7758,-40.0689,-36.0018,141.2238,-114.2492,117.5333,208.8186,-165.8972,356.8137,-94.7407,-102.3282,-77.9769,-111.1309,144.6865,-38.3407
189.9367,-225.8319,66.2484,-99.8404,-46.7862,18.5611,7.6807,161.1323,64.2383,144.9521,159.7619,-167.2549,310.6429,-16.4623,-26.5509,-84.1885,-105.7871,160.6298,-14.2497
89.7450,-351.6643,5.0970,-53.1819,-78.1153,58.7406,48.8586,175.1974,78.6875,151.4638,67.7793,-154.9616,234.5125,37.4600,31.8940,-35.6403,-116.8707,82.0872,-16.5650
-7.6198,-357.0989,-40.0331,-68.1563,-151.8095,-1.0723,-31.3518,160.8145,-67.1473,134.5774,-9.1980,-160.4930,162.5731,-23.2570,9.4173,11.9882,-130.1120,-51.9614,-46.0218
-44.0918,-344.2986,-52.6205,-131.2127,-190.1895,-83.0840,-80.6544,120.5682,-23.8142,114.2163,-12.6750,-191.8657,137.0530,-115.7032,-21.1325,-11.9809,-134.1628,-118.6802,-69.9442
-46.6129,-421.6884,-70.4099,-161.1443,-199.0125,-115.8913,-72.6397,67.8966,112.1061,90.5784,-27.1714,-197.5604,102.0915,-147.1212,-32.1950,-60.8248,-181.7491,-145.2372,-112.5191
-83.5466,-444.4412,-124.1042,-157.4677,-238.7069,-140.6324,-126.3503,16.9317,16.5814,52.5254,-93.8619,-166.3554,29.2613,-140.2045,-35.6627,-76.2723,-253.2448,-205.4068,-161.3245
-143.8041,-336.3982,-162.6215,-164.0657,-249.5103,-179.5047,-153.2479,-10.7876,-144.0052,1.8313,-116.6471,-163.8193,-3.7411,-160.6523,-4.1693,-68.8245,-274.6917,-241.7933,-157.1494
-180.0222,-297.7744,-144.8327,-178.0720,-188.6738,-200.1840,-74.0858,-11.9089,-89.1947,-34.5067,-83.4906,-203.7198,26.0527,-213.6473,30.0274,-68.4803,-251.4486,-213.0434,-105.5150
-196.1098,-410.6735,-129.4705,-190.5585,-154.9443,-213.2406,-40.5350,-19.1065,25.3634,-43.6321,-85.3031,-238.2453,41.5532,-236.8491,12.0130,-94.8591,-233.7730,-196.1938,-57.1922
-218.6375,-472.4063,-160.8850,-223.7143,-191.0263,-243.2963,-78.0416,-51.9473,7.8373,-56.9555,-125.3557,-258.3082,5.8314,-196.4262,-3.1279,-127.7820,-234.7083,-213.5036,-26.3988
-230.9350,-398.4143,-185.2056,-272.1041,-200.5064,-258.7179,-36.6023,-71.2964,-47.3688,-72.3019,-153.6533,-263.7971,-43.5031,-154.5977,23.2854,-111.2216,-232.2695,-187.5336,4.3018
-208.6161,-355.4302,-168.6051,-285.4198,-143.2254,-232.1966,48.4451,-30.1822,-39.1602,-25.8628,-164.3331,-226.3806,-62.3884,-169.4165,28.0413,-40.0060,-197.7773,-108.7319,47.1555
-199.9049,-401.1193,-153.6445,-239.6172,-98.5759,-196.7016,52.2074,46.0859,38.9623,76.8428,-150.9504,-158.2433,-42.9954,-191.0297,15.1203,32.5687,-154.7178,-55.6923,74.4358
-254.7157,-393.9947,-159.4550,-175.6867,-116.3072,-188.5100,15.0949,83.8634,149.6141,130.2893,-131.1039,-108.4025,-25.7579,-156.2625,39.9827,65.6489,-159.2807,-62.8310,45.8354
-291.5729,-294.4467,-157.3061,-146.2689,-142.7784,-191.7346,1.1265,55.7464,152.7742,84.1810,-152.2303,-92.6998,-33.3087,-96.1286,53.2880,37.8103,-162.8882,-95.2490,7.9229
-197.0483,-207.8464,-124.0635,-151.5436,-104.6964,-172.8830,10.8921,3.7876,19.5208,0.9472,-156.8373,-98.1473,-11.3590,-69.9222,18.3332,-26.5231,-67.5362,-120.4068,40.7911
-23.7003,-154.5424,-50.1911,-154.6341,-18.9961,-140.3126,54.9546,-25.5500,-27.2281,-45.5373,-58.7857,-104.1355,62.3995,-82.2402,3.8332,-41.5098,60.4814,-131.1549,87.0647
70.0915,-83.5538,31.5506,-134.2850,19.0770,-121.2321,68.9083,-32.2717,77.9464,-39.6674,39.4555,-85.3078,99.5091,-95.7334,12.0431,2.4328,84.2669,-123.6065,35.5620
37.2997,-26.8094,51.4002,-87.3796,-16.5626,-97.7532,-25.6890,-40.3746,102.6293,-13.8785,10.5000,-38.1555,53.8827,-70.6919,-15.6717,10.6967,45.7488,-95.4586,-62.3177
-5.2258,-24.1333,30.6530,-20.6320,-25.2619,-40.8354,-114.5020,-47.7324,-21.7429,3.0959,-37.5872,18.4942,20.0251,-11.7389,-32.5780,-12.9351,61.1657,-55.5825,-84.1962
44.5613,-39.5357,66.4092,24.9517,56.7875,19.7982,-71.5849,-31.6295,-124.4193,21.5764,18.0321,57.1453,69.0335,23.7604,6.8271,23.2001,95.5478,-9.6779,-48.5957
81.9338,-61.4837,121.5702,5.9640,138.4888,46.3053,1.4395,0.6599,-143.9534,44.6876,63.2761,40.5694,123.2252,8.9579,26.3444,76.4423,59.8573,46.2343,-38.0322
-49.9906,-94.5952,75.3727,-42.5614,126.3710,62.5481,3.9566,11.9121,-101.6132,40.9019,-3.8027,-15.2738,94.5429,-10.9748,-0.8077,45.9670,-6.6561,100.0172,-36.3516
-213.2634,-67.7812,-15.9071,-39.3877,87.3928,98.3138,7.7587,-13.2522,8.6847,5.0128,-64.1389,-19.0659,38.7124,1.9867,8.2115,-17.9091,-10.0552,131.9013,6.2524
-154.6961,38.6662,-20.4487,25.7503,121.8698,133.1282,45.3567,-50.6776,74.1525,-34.9589,-33.1392,48.1029,51.2917,36.5975,61.3163,-21.9085,38.7825,155.2329,59.4678
5.6564,93.9407,4.9582,90.1954,182.0734,145.3006,53.3944,-67.5037,0.1881,-67.5347,-15.3195,87.1644,96.9795,76.8173,76.4128,11.9969,59.7392,185.8146,69.7506
0.4020,29.1958,-29.0654,115.6020,181.0853,147.8860,32.6362,-64.0565,-71.4788,-84.1558,-59.8432,68.0879,99.5531,110.3153,36.7613,28.2720,52.1298,190.8803,46.5256
-57.2597,-25.0693,-36.8185,112.7367,155.1645,148.8614,16.9286,-79.0787,-59.1341,-79.2327,-66.9329,70.9107,95.0184,115.2044,-2.7041,17.2061,66.8925,144.0535,21.5832
30.0643,39.3287,21.7062,96.2838,149.6425,130.8878,-11.2710,-119.9807,-102.3506,-74.8333,-19.8209,110.1000,118.8532,91.9589,-9.7174,0.5487,63.0895,83.2352,2.5804
104.8054,112.3709,22.2910,73.6440,119.3251,90.6547,-45.3970,-131.6173,-174.2181,-69.9210,-20.0651,121.0677,108.3501,69.2810,7.5230,16.8767,-2.0555,49.2657,16.0321
34.3770,42.6840,-40.4360,59.7611,75.8103,58.2914,-38.3510,-105.1101,-71.1825,-48.5696,-65.2792,93.8460,59.9104,60.6057,27.5799,51.3099,-14.6266,35.6695,87.5144
-10.4313,-82.1167,-19.3578,64.0824,93.7245,54.1419,1.6144,-113.4694,127.1640,-58.5694,-59.4967,66.9138,54.2493,61.5090,29.7845,35.1380,101.3497,33.5787,151.2605
27.5267,-52.7222,67.8955,69.2617,117.1749,61.0833,9.5483,-160.1253,143.5539,-122.8084,-17.7867,50.0776,76.6604,73.3700,2.3194,-2.6227,191.7108,43.9576,123.0129
-10.7813,82.2998,64.2004,48.5095,45.1019,58.0755,-41.3189,-166.1546,-28.7880,-159.5874,-25.7101,33.1978,57.1339,78.9862,-40.8717,27.1167,134.4861,38.6344,43.2728
-114.2124,94.1056,-17.7169,7.3063,-45.1715,40.8927,-96.5944,-150.3273,-153.4677,-146.4818,-67.9491,18.7904,24.3405,47.7171,-54.8906,65.6527,45.4594,-9.4829,-2.0355
-119.7960,12.4706,-38.3747,-14.5129,-37.1676,16.2519,-87.3523,-188.4833,-78.2168,-155.4024,-75.9414,20.5051,35.0640,19.0136,-20.3617,12.1730,42.7419,-69.0029,-10.0021
-12.9932,31.1162,17.9697,6.3839,16.5579,14.1135,-26.9441,-225.7789,124.9995,-165.6356,-45.5189,37.2348,83.5510,72.7501,12.8008,-48.2948,90.1010,-92.2533,-0.5494
94.7610,103.1625,66.9467,40.1193,31.9551,55.4406,10.7303,-185.2851,197.1957,-124.9204,-12.5873,43.9347,135.9386,159.0572,5.3823,-6.5359,125.2619,-86.8215,20.3925
125.2966,116.2743,65.6076,35.2952,29.0366,95.0707,5.0781,-137.4134,-5.7822,-102.6540,-10.8299,40.1037,136.6748,142.1987,-8.3368,65.2921,118.6099,-83.7217,21.6921
83.0159,138.9146,17.5815,-7.5590,30.8416,92.3243,0.7067,-137.5688,-215.1586,-124.3748,-49.3612,53.9237,69.0987,59.0276,-4.1504,83.7001,78.2928,-78.0134,17.9628
35.8668,130.1294,-34.7090,-19.3557,25.2824,96.0615,16.6477,-114.4531,-114.6179,-100.7754,-71.3885,63.4805,35.7404,65.8561,-6.4131,87.4950,78.2946,-57.7989,66.0772
0.9790,-38.2256,-23.7212,37.1007,26.5724,140.2450,22.9698,-65.2097,125.7931,-53.7465,-29.8381,26.8753,100.2586,134.5129,-9.5385,92.0539,135.0018,-36.6246,114.4950
-75.5073,-175.4689,33.3706,88.8498,48.0995,163.8284,-0.9030,-80.8755,156.0735,-76.1221,3.6842,-14.6382,151.8559,133.7601,8.0648,50.7441,145.5229,-19.6665,73.7227
-152.6409,-76.0144,28.4920,60.9845,73.3747,136.9329,-36.7098,-138.2670,8.4119,-109.8909,-43.0036,-7.3345,110.3820,107.6701,11.3643,-14.9416,85.5540,-4.9203,0.4475
-138.1427,28.6750,-57.2588,-0.8286,86.5452,107.5729,-63.6589,-149.4364,-82.9829,-85.1983,-102.3154,17.2428,58.4162,127.1770,-29.8165,-27.7638,53.9951,-14.2159,-22.7332
-99.2631,-36.9068,-111.7261,-24.9746,72.9815,77.8587,-95.1238,-144.7834,-78.0512,-81.0362,-102.1387,32.2128,48.6079,98.6723,-72.1318,20.9613,66.8785,-49.6059,-36.5132
-140.4878,-37.6249,-85.5101,-25.9569,30.9789,9.9653,-141.1859,-180.8513,-74.7346,-141.3793,-87.8536,60.9899,32.3543,6.3004,-72.0863,59.4126,57.4913,-70.4105,-71.9880
-182.7382,95.7889,-58.0327,-24.5159,-0.5572,-64.2241,-160.8195,-218.4816,-132.7289,-198.3775,-92.3203,87.4152,16.7363,-5.2490,-45.2840,37.5051,31.7816,-66.4169,-83.0651
-120.2890,103.8343,-68.4093,-4.7640,6.0149,-82.8001,-116.9863,-222.3750,-192.9637,-221.7488,-75.1790,77.7943,59.1928,56.9486,-22.5083,-1.9263,25.1554,-62.6239,-55.4404
-21.9072,-38.4975,-62.8140,-1.3150,17.0931,-42.6860,-48.0593,-216.0803,-112.6336,-220.8311,-45.5254,50.6523,122.4311,46.8467,-20.0326,8.5145,17.4343,-55.7824,-15.3153
-11.0896,-112.7823,-39.3705,-60.6688,-6.7134,13.4471,-22.5808,-216.4442,45.7206,-195.0871,-55.4806,18.1817,110.9585,-16.3691,-44.5017,45.0598,-7.2828,-54.5039,7.0552
-85.6631,-75.9177,-49.8006,-135.4758,-44.0602,35.5828,-50.4060,-227.9517,15.2033,-181.3442,-77.4792,-26.7094,37.3682,-31.9685,-75.5177,37.4713,-14.7154,-96.6420,-11.4825
-126.1631,-3.4161,-50.5719,-155.7455,-31.7569,17.4703,-66.0663,-243.8027,-123.1990,-195.2479,-45.2026,-41.9840,23.9179,-23.9649,-71.3768,-2.6099,42.6142,-140.2165,-18.3444
-47.5334,68.1138,32.6594,-116.9182,40.9016,26.9968,-7.6064,-227.8783,-1.0375,-177.8423,24.0226,5.3657,108.8150,-13.6721,-27.3634,-15.7419,155.1969,-100.3364,44.9842
87.4794,59.9620,124.9068,-41.3575,83.4114,99.8675,76.2527,-177.8887,243.6596,-124.9248,59.4587,62.1379,173.9975,37.2626,7.8702,-5.4893,224.6311,-16.9351,87.2935
163.9844,-44.1534,113.4915,23.8640,38.0010,166.3786,78.3592,-145.2001,148.8565,-111.3713,42.5595,78.0696,145.0197,88.3831,5.7096,-10.9025,189.5527,19.6665,25.0339
151.7149,-90.7471,50.3986,22.5539,-4.7855,177.8362,16.2827,-143.8711,-133.3214,-143.9063,11.3284,84.2519,100.8426,95.6848,-5.0545,-29.8755,133.7628,36.9325,-33.6025
65.6007,-2.2119,30.9927,-4.5651,27.0534,166.0793,-5.3272,-145.7432,-129.2976,-162.5050,-4.4804,116.5094,94.8342,108.9879,-7.2639,-35.6541,129.6417,74.6967,-9.6454
-53.7416,87.8013,29.8626,21.4585,56.6784,138.4663,7.3792,-145.7274,56.1721,-145.6322,-1.6383,138.2957,84.8473,126.0513,-17.9012,-21.7207,119.9692,79.2613,15.1968
-102.9592,67.5456,18.7001,61.0001,44.9779,95.7190,4.6630,-138.9953,74.1378,-104.8953,16.3979,100.2699,80.7174,94.6564,-24.2800,-5.4949,71.6992,47.3441,13.7568
-54.5020,2.5515,29.0699,62.3238,60.8485,96.7351,27.9860,-115.0828,-26.6602,-63.2553,28.6093,52.5539,111.2517,73.8483,-13.6092,-3.0174,26.2159,53.1122,12.9249
-9.7339,22.1590,29.2755,91.2188,86.6473,137.7864,60.1160,-106.9781,-96.4769,-57.2150,3.3643,103.1472,107.6769,122.5956,-25.0842,-3.8003,-16.8061,82.0015,-49.3501
26.3166,163.1186,-15.2777,172.0465,53.5324,130.5860,2.3495,-136.9188,-120.7218,-88.1159,-29.7174,237.4010,48.0832,174.5732,-45.3334,7.8258,-38.3423,66.7783,-158.1881
143.0527,329.0901,-14.9200,227.4112,21.0716,98.1352,-77.3877,-156.9178,-46.1477,-119.9098,6.5305,322.4510,39.1538,210.9670,6.6760,18.2043,37.7597,36.5801,-173.0626
275.6819,404.1458,78.1310,247.0375,41.5661,140.0349,-35.8715,-135.6527,35.1022,-136.4642,95.1431,313.4858,100.4131,281.0618,94.0500,20.4591,153.7445,36.6267,-107.6558
306.0255,404.0762,151.5523,261.2812,36.1860,197.0493,47.7369,-106.1658,-76.4883,-127.8571,132.0513,276.7574,125.7044,308.9290,102.9143,46.6174,157.4965,26.5755,-94.9663
288.6241,447.3237,152.6657,238.6682,-2.7467,146.2460,45.3750,-84.2419,-187.8732,-72.8890,112.5861,253.1800,109.3510,221.7628,69.4331,99.6094,94.0023,-12.9718,-106.6883
301.3288,562.9049,167.5582,209.3964,24.7275,55.3937,30.8279,-57.6788,-16.7430,0.1319,122.6304,265.8528,132.4798,162.2571,72.3286,115.4403,129.1541,-30.0408,-64.2004
319.9301,625.7705,204.1400,252.4398,96.8479,58.1774,60.9338,-46.0218,163.3123,19.0659,150.8892,326.5219,167.9568,239.9019,52.2493,62.9795,230.2881,-11.8769,-34.2489
347.9528,554.0266,183.1655,291.9565,111.8505,106.9754,56.8169,-65.3477,57.1768,-23.9314,130.0398,351.1878,141.2509,295.5998,8.6430,14.8787,235.8193,2.1417,-62.0757
374.6663,442.9583,125.7980,221.0323,98.1419,87.2774,35.9075,-79.4129,-56.5947,-55.0694,98.2333,271.8676,91.7453,192.3872,63.4675,44.9594,141.6080,9.7467,-72.1837
293.2852,365.2874,107.8107,133.0678,131.7815,28.8808,77.5191,-62.3710,33.2148,-39.8424,111.3834,180.5465,102.1214,64.5319,166.6464,107.4540,88.4366,32.0047,-28.8103
118.1327,249.2026,125.2024,135.4790,185.8372,27.3855,121.5638,-43.7316,110.1895,-27.4513,124.2761,157.6062,164.6291,69.5619,155.3841,108.3307,151.4450,59.4677,42.1879
42.3245,110.9878,147.9478,157.8702,215.4680,87.3820,121.6180,-33.7068,136.3531,-28.5278,108.0687,139.2992,212.3372,151.8750,96.2936,62.8458,252.4925,84.6296,137.1510
106.0277,65.7873,163.1488,133.1848,227.0769,147.6061,163.3677,8.2340,265.3346,18.6524,102.3638,90.0336,207.2265,188.1205,134.4849,61.3660,250.5845,111.8328,219.3113
114.5074,50.8766,136.5110,95.6908,210.1329,158.6767,236.9307,69.8117,338.3192,94.1072,91.2309,60.8201,159.8310,158.5879,186.0778,103.9183,116.3283,106.7609,219.5804
-10.1136,-3.6964,72.8698,57.8988,151.7449,103.8586,219.3759,71.2377,176.4677,103.9531,39.4972,56.8783,113.3103,96.9554,141.6865,119.0637,-16.1499,41.6719,167.1375
-92.7765,73.9790,46.3495,21.9679,99.7288,26.7831,138.1183,20.3756,5.1183,78.2157,15.7679,59.6563,110.9775,30.2132,85.6072,104.9250,-31.9568,-15.0550,156.6351
-7.9092,282.8572,75.5210,31.4254,90.1116,12.9597,125.2567,15.7752,72.4834,99.7560,74.9615,90.3832,145.9163,9.6418,89.3989,94.5857,16.2660,13.3255,181.2515
124.3887,299.4792,97.0081,86.0696,76.5443,74.6375,172.2179,52.2347,275.5344,104.1092,130.1155,138.3593,167.1997,72.8318,90.6996,68.1408,30.0055,74.6639,164.4304
147.4527,115.0900,88.7372,135.4061,31.2199,126.6620,190.6282,43.7293,363.7514,41.0125,100.7196,158.0293,152.5479,158.8439,59.2460,29.8018,16.2975,86.4306,126.2024
77.2692,60.5204,76.3581,161.4916,17.2032,130.4963,188.2055,20.8723,250.6394,22.3504,37.7458,138.2782,118.4221,174.9597,49.5616,37.1354,20.9249,88.1695,144.0985
0.6722,114.2000,55.2187,169.0318,67.8979,146.1690,210.4035,57.1723,121.8868,78.1948,8.8620,92.4733,70.3160,130.7910,89.7660,85.2872,30.1158,140.8279,194.5272
-46.5832,35.3327,20.8607,159.3681,120.9840,195.4959,239.6922,103.8237,184.7030,101.7215,9.3930,53.1264,26.6272,92.0800,134.8168,114.8583,25.0175,194.3803,208.0293
-41.7673,-60.9445,2.5599,135.3675,142.7549,212.8973,238.3701,109.3512,294.8534,104.4247,17.1094,60.9209,31.9656,65.2180,120.2909,110.5987,27.7703,193.5322,201.7165
4.4679,25.6719,10.8613,90.5981,163.5483,176.7166,203.0983,118.4909,207.9186,149.0574,26.0816,96.6393,68.1924,51.0325,55.0870,74.1720,44.7823,178.0601,205.2374
31.8905,182.8864,32.5691,57.2052,179.0094,157.1350,175.2170,143.9130,73.4983,171.0593,36.6080,120.2290,72.6933,98.2051,23.5984,19.8328,64.0812,189.2764,199.7391
48.9821,226.3344,65.2178,99.7233,183.6535,187.7501,219.5193,151.9081,112.4316,149.3349,54.3399,139.3007,57.4579,175.2832,48.2462,27.2954,96.9973,205.4441,207.9628
88.7809,115.8488,89.8925,158.1160,213.4732,193.2036,313.0002,145.8273,160.7368,142.4112,71.0569,128.4568,34.0930,149.1543,54.8659,112.0907,126.5390,193.8404,237.1316
63.2328,-46.2262,70.8068,98.8034,224.8465,105.0099,308.2567,113.1939,94.1583,98.8023,61.9613,50.4293,-68.7780,9.7377,21.9902,137.6568,100.1916,141.7457,198.0654
-68.7824,-74.3810,20.5895,-13.9840,144.4776,-10.5021,165.1523,45.0534,122.4303,7.6091,26.4475,-9.4442,-216.4684,-72.4864,14.6679,54.5810,48.6656,76.7654,108.3623
-167.8231,-9.1334,-10.0976,-10.6587,73.5306,-27.9322,79.5248,21.0101,262.1196,19.4448,-5.8799,15.6066,-242.4586,-11.5062,49.2710,5.1659,56.8230,70.3427,123.7956
-175.7829,-92.0759,-11.0504,60.6476,128.2148,46.7408,160.6239,63.6007,220.1580,117.9720,-13.9546,22.0452,-156.4457,68.1058,67.3036,37.9919,95.3503,130.9663,201.5576
-183.0432,-208.3303,-14.4765,52.5931,182.2876,75.9666,215.5097,55.8637,-15.6644,96.0855,-9.9945,-25.6393,-138.1349,43.8144,38.5696,30.6746,74.0613,152.4113,147.1187
-185.8797,-52.6353,-42.5840,-1.7897,102.1246,-4.8536,99.4109,-31.1121,-135.5519,-36.9550,-35.4501,-1.9036,-203.8596,-47.5683,-5.6466,-37.0230,2.9677,70.0321,12.0886
-165.8430,167.9070,-93.9033,-21.4574,-12.4212,-115.3468,-47.8530,-96.0806,-55.5053,-110.0190,-106.4367,77.2015,-239.3852,-118.0154,-31.5267,-66.0423,-73.2095,-47.0111,-38.6465
-221.4359,86.9842,-151.6987,-42.3147,-72.8514,-175.8053,-115.7713,-127.1450,1.1098,-128.2862,-166.7691,57.4856,-241.8894,-145.1720,-45.3744,-59.7286,-153.9119,-128.6187,-69.8156
-326.1702,-135.7968,-193.3864,-80.5902,-132.4024,-184.5597,-171.0266,-168.5879,-99.4502,-168.8626,-170.7389,-37.9348,-243.1033,-140.7573,-67.2372,-81.6758,-199.1103,-171.8841,-157.7357
-341.1643,-232.4388,-204.7247,-89.3486,-173.5935,-155.0701,-203.9832,-182.0576,-227.2544,-200.5111,-161.4004,-79.8470,-209.6191,-109.3880,-88.4886,-105.7867,-166.6105,-163.5422,-186.8843
-323.9839,-263.6074,-180.2103,-77.6714,-133.0219,-107.4567,-149.6981,-153.3220,-210.2139,-188.2436,-167.9118,-77.9229,-157.6584,-77.6655,-89.4042,-88.6861,-119.0875,-108.2788,-127.3973
-368.9561,-269.4009,-133.9109,-80.7879,-75.3610,-96.5000,-101.6766,-132.8040,-109.7091,-134.7302,-151.5114,-84.5767,-145.0504,-95.8505,-70.3860,-51.7000,-113.3168,-89.7723,-102.7710
-368.2391,-205.7155,-116.5102,-91.8311,-73.9554,-143.6300,-151.5536,-118.3881,-127.9158,-64.3660,-131.2186,-79.9067,-167.6253,-167.4878,-41.4272,-29.7144,-113.3110,-145.6127,-137.4751
-294.6610,-154.6734,-156.5379,-106.9415,-99.9009,-189.9084,-217.7787,-100.8717,-244.1486,-58.4664,-164.8240,-66.0504,-193.5193,-223.3868,-27.5889,-46.6633,-116.5311,-186.2384,-173.1444
-299.9816,-127.8117,-198.4509,-123.9685,-136.9494,-188.8125,-237.0455,-115.6548,-243.8043,-125.5934,-199.2568,-70.9919,-192.6501,-216.1623,-61.8966,-99.2542,-163.8627,-160.4593,-196.2690
-392.8353,-68.2663,-193.0909,-120.1620,-193.8954,-173.7880,-239.7590,-137.1100,-133.4481,-147.7749,-175.6561,-89.5133,-151.2139,-190.4022,-115.0401,-126.8021,-221.9430,-139.3102,-184.4327
-449.9348,-81.5102,-191.7711,-108.7546,-242.5700,-182.4994,-212.2414,-116.8673,-117.0179,-112.2818,-177.3223,-124.3534,-141.0007,-197.3010,-110.6480,-94.0557,-246.4431,-155.2857,-130.7503
-429.1583,-174.4755,-241.2380,-129.7292,-278.1816,-203.3385,-150.8842,-99.2700,-168.5862,-119.2385,-247.7186,-172.3985,-215.1015,-213.9788,-45.2074,-56.8644,-269.7220,-160.2722,-93.8044
-325.9063,-154.0480,-288.5627,-178.4231,-312.5602,-234.9083,-119.8792,-119.9985,-82.7944,-144.7716,-277.0016,-190.1803,-268.4258,-219.9705,11.8634,-54.3991,-311.8706,-170.4101,-82.7906
-208.6621,-68.6157,-290.4047,-227.7191,-311.4648,-296.6283,-109.5733,-132.5727,113.8436,-118.3932,-232.4152,-179.7023,-221.9574,-251.0013,18.2467,-56.8153,-345.0407,-234.2508,-54.6094
-241.5806,-122.3625,-283.1901,-259.9698,-273.5837,-358.0499,-59.9642,-119.3803,230.5215,-82.6085,-217.6237,-190.0816,-163.0006,-304.0374,-19.6399,-61.0422,-361.7833,-293.5876,-26.4932
-375.5667,-229.9307,-284.0317,-249.5411,-249.9788,-363.8218,-10.6527,-102.5820,257.5418,-62.4384,-242.5635,-202.5406,-139.0139,-308.9133,-59.0388,-80.8629,-359.6321,-279.1227,-13.0459
-373.8134,-249.2528,-264.2813,-202.7202,-227.7448,-320.3201,-12.7301,-75.1585,276.7676,-30.7719,-226.7134,-176.5613,-104.5848,-247.7855,-52.4821,-70.9622,-320.8169,-237.9934,22.3696
-280.2307,-255.8699,-228.7518,-171.5107,-168.0223,-262.5155,-23.7572,-35.7156,232.0345,-16.5025,-184.6687,-152.8948,-89.6179,-182.9442,-24.4833,-11.3841,-263.8058,-211.3846,70.5451
-309.0281,-267.6108,-198.5249,-165.8321,-105.9272,-194.7753,-6.2629,1.3077,93.6349,-16.3269,-168.4449,-162.8312,-114.8617,-147.2508,-21.6376,24.9721,-228.5716,-156.4050,100.3811
-364.1469,-220.4124,-160.3528,-147.3297,-70.6251,-133.9049,29.3502,34.8721,2.2390,24.1041,-150.5426,-152.4573,-92.7787,-117.1276,-7.6621,-1.7431,-216.0907,-79.0850,119.9383
-253.3706,-172.5551,-114.4114,-114.3465,-42.8428,-108.2408,65.1571,46.2572,39.2417,54.0571,-113.5282,-95.0468,-22.4389,-86.1741,33.7480,-33.9779,-195.5663,-50.8446,110.9904
-98.5546,-146.6496,-91.8185,-91.5610,-38.2004,-98.2169,69.8991,25.3126,121.0368,10.5210,-98.5796,-47.5708,-10.3073,-74.0374,34.6377,-31.6498,-142.7303,-79.0871,64.8483
-73.3565,-95.0073,-89.5664,-80.3960,-69.5580,-88.3049,54.0402,9.6622,175.5862,-33.8918,-106.6954,-45.9447,-38.8116,-74.0618,12.2837,-19.2296,-74.2957,-118.8301,44.4525
-94.9639,-84.1124,-71.7776,-75.0219,-83.1997,-108.7423,77.9212,3.9533,153.5314,-31.7017,-91.2399,-51.6850,-10.7909,-58.0246,44.5968,-10.0438,-42.6435,-149.4953,51.7805
-46.2021,-107.3517,-31.8123,-68.8136,-60.4094,-144.2680,104.2504,-16.6972,2.5194,-28.2857,-45.7429,-30.2799,48.9141,-32.3429,67.7548,8.4726,-55.5571,-156.9393,18.5607
20.3931,-13.3281,5.1379,-59.3756,-62.6449,-143.7879,41.4351,-14.2533,-134.0801,-16.0925,-9.7924,-10.5828,59.3554,-36.2731,10.6830,25.2071,-66.2641,-140.6651,-17.4894
16.6196,106.2802,15.0133,-66.8120,-111.8856,-124.3493,-44.0347,24.5961,-26.7763,12.5436,-12.1106,-27.3288,22.0820,-64.9709,-24.1809,13.6615,-68.8284,-129.1606,13.6277
-46.0576,14.5214,-9.7912,-78.5327,-148.0604,-100.7693,-32.7468,32.2135,193.5241,3.6864,-41.6058,-48.8123,-8.8889,-59.0300,23.1500,-15.5912,-80.6767,-110.0861,55.1627
-88.4900,-152.2685,-46.8826,-41.9870,-120.1538,-30.3293,23.9431,19.7371,185.0029,-4.2787,-58.5466,-26.4980,0.7036,-9.7854,56.4400,-18.2560,-68.6947,-47.0624,49.2074
-50.5947,-90.8568,-53.0838,10.6648,-48.7790,44.4722,27.3455,54.2222,-19.8295,62.0386,-34.5204,16.8206,35.6872,13.8655,41.7027,12.5581,-24.9174,18.1549,21.3200
57.5285,114.9771,-8.4406,-5.4928,0.8383,30.5511,-10.2621,81.8683,-131.1977,113.5281,18.6272,26.3437,64.6923,-17.8248,28.9987,27.7774,0.6817,29.6246,-25.1062
158.4910,172.6109,59.1005,-46.6427,-2.8655,-10.8480,-59.1882,45.9590,-127.1714,61.3086,62.7102,3.9652,96.5638,-60.1764,16.1849,12.6350,13.7698,20.9124,-80.6394
165.4774,61.7856,99.3675,-24.4809,-24.1330,15.9379,-112.5704,18.0445,-143.4990,-1.3904,70.1880,-12.6770,128.6776,-80.3128,7.3035,14.7696,50.4562,21.9962,-93.8922
85.7114,-23.2487,97.1502,3.1174,-24.0989,33.1581,-137.7574,19.1036,-144.5699,-4.2413,57.1152,-17.1236,119.3033,-68.6566,24.4426,31.9455,72.1507,-5.2890,-89.2079
24.8236,-17.9258,97.7504,-27.2767,-7.6528,-21.2500,-132.1750,-11.6301,-98.6638,-11.3577,66.2289,-29.3010,106.0801,-16.7567,24.4043,2.9464,55.5822,-57.7268,-118.6894
20.6169,-21.6530,136.2668,-41.2793,9.4422,-46.1332,-127.9987,-34.5845,-114.9161,-33.8107,97.1873,-50.8166,164.7968,29.8595,-3.7170,-45.2163,57.9860,-69.3949,-129.4820
14.5916,-52.7794,167.6398,-12.8148,20.6130,-11.4079,-113.8776,3.7785,-181.2433,-12.2308,105.8780,-55.0379,224.5381,4.8742,-0.9642,-19.7262,89.0359,-22.8646,-85.0663
30.8666,-21.6052,141.4501,-19.2322,26.8362,-20.7599,-77.2356,30.3226,-141.3838,31.9848,87.8006,-29.5382,186.5342,-57.1449,15.1700,51.8279,92.2744,28.2165,-52.4549
117.7703,23.3960,91.7235,-41.5442,38.1367,-77.0294,-53.4126,5.8822,-16.7139,38.8771,74.4427,-9.5997,124.0957,-71.9400,1.3037,61.1538,56.6806,28.5956,-59.5858
163.3186,-39.4565,62.6899,-17.3837,40.6103,-95.1328,-57.5979,-5.0762,-2.3281,19.3974,58.7720,-27.5060,110.6529,-47.8528,-0.1874,14.0146,2.4124,-23.5976,-76.9587
95.1339,-94.5457,30.5798,-15.0040,2.8472,-84.6767,-72.6474,3.6173,-127.6554,4.7554,23.4336,-55.3424,84.0683,-36.0026,8.7717,-13.1438,-57.3753,-68.8035,-102.5269
52.8338,21.8919,-19.9756,-76.4853,-52.9633,-83.6340,-94.4740,-5.1298,-215.8734,-9.0411,-5.9950,-53.7000,38.8698,-22.3653,-25.0686,-20.9747,-85.6634,-56.5893,-109.5693
87.3745,167.2601,-47.8914,-94.8046,-77.9325,-57.6704,-112.8473,5.8411,-170.0846,-9.3825,-11.9070,-29.6180,47.7838,11.9775,-48.1881,-21.1184,-77.3087,-9.3643,-62.0338
67.5185,166.6543,-38.8369,-39.3051,-78.0173,-3.5927,-107.8998,65.9585,-64.6629,37.5051,-12.5165,-6.5230,79.6509,22.6534,-19.9699,31.6516,-92.1866,29.2977,-13.1497
7.7432,108.9992,-30.5357,-19.2722,-68.3551,15.1319,-81.4413,116.6602,0.5541,101.3319,-12.2679,2.1252,70.9952,-18.7320,-29.6332,111.2134,-133.3463,46.6333,-18.2919
31.2381,72.9828,-33.1347,-48.5489,-35.1443,-8.1500,-54.3577,102.7824,-38.9084,101.4775,-1.8810,-10.0941,57.2045,-55.3070,-80.7436,106.3843,-125.7879,38.4707,-49.9860
87.0081,24.2234,-17.0586,-44.2827,-6.2395,-10.5142,-66.6926,43.0670,-174.0044,37.9248,14.0908,-24.2279,68.2071,-25.6050,-65.7744,17.8238,-57.7363,12.6162,-93.5221
93.0303,30.6024,18.3534,-22.2419,-23.5357,13.9741,-137.8875,-8.9952,-254.2025,-13.5639,31.0477,-20.8642,79.1605,26.8679,-14.3221,-28.8664,1.8313,-11.5166,-149.3747
90.2665,120.5941,35.5230,-39.7260,-53.5614,-0.8212,-196.4788,-30.1446,-172.0841,-35.6486,35.7620,-19.7450,90.5052,15.8853,-24.9333,-1.5784,8.2258,-33.7264,-163.6013
57.4486,152.1212,17.4633,-54.5163,-49.9730,-55.1251,-169.6554,-40.5194,-63.4629,-50.1650,6.0715,-19.9091,101.0309,-27.8076,-50.8109,9.2258,-26.5034,-31.9136,-116.0489
-47.0847,109.8215,-9.5900,-16.1320,-22.1522,-57.7850,-104.6701,-45.2966,-56.7870,-36.5113,-30.4055,16.3283,88.1663,-6.3692,-21.2013,-17.5191,-54.1748,38.4878,-59.4408
-89.8708,118.4055,-12.5182,32.7464,18.2988,5.6971,-62.4903,-21.7847,-75.9657,-8.5118,-14.0908,52.0291,78.9859,49.6160,11.8669,-8.5890,-27.5297,128.8097,-9.3159
27.0812,143.6607,24.2283,41.8412,68.3353,41.3423,-28.3893,17.6002,-103.1917,-11.5871,51.3151,17.4982,110.5087,47.3250,-10.9035,44.2555,48.0369,150.3501,49.0042
164.1163,127.3639,103.2382,33.7369,115.9210,35.6893,-5.6963,46.2757,-181.0796,7.6265,116.1411,-17.8209,156.6016,32.9840,-59.0697,69.4718,133.3980,147.0955,88.6867
187.5160,169.8464,194.5286,52.0308,170.5632,60.5555,-3.2299,75.0636,-144.3102,87.3788,160.6971,47.8050,190.7618,76.8182,-64.1932,46.7522,200.7172,186.8987,92.8424
143.0519,259.8141,230.3727,88.2695,219.6320,90.9094,25.2877,95.8480,73.5815,114.7881,178.9646,127.9802,220.7932,99.3047,-6.9663,23.8230,219.2289,203.5187,84.8932
113.9172,236.4701,189.2433,99.8238,213.1299,69.3552,77.7559,87.8524,169.5412,66.9175,166.7255,99.1386,235.1301,49.0182,47.6248,26.6928,183.6188,166.3330,89.1479
129.7062,119.3730,142.9288,82.0398,191.3509,52.7449,111.5328,98.1225,41.4490,96.9572,147.2301,32.6152,214.7667,23.1429,52.3427,39.7911,156.8316,160.2031,128.3731
172.5931,64.7214,139.6886,64.5181,235.3366,70.6336,157.9860,147.3124,10.2631,184.3032,123.4907,37.6545,165.9423,50.6692,59.7181,39.9942,174.4203,171.8855,188.6967
182.5563,122.9974,125.0261,52.3104,265.7723,53.1330,202.9113,151.4355,153.8501,140.6630,65.0910,79.7590,101.8562,53.4357,92.2671,11.1311,180.4067,118.6042,201.1659
139.6681,291.1136,66.0044,53.5084,185.7030,25.4568,149.0042,96.3638,200.8438,23.3984,2.4723,119.1824,49.3789,59.0904,81.0324,-28.0634,146.2327,65.5004,156.0752
90.4474,500.1299,29.9153,104.2540,117.2953,71.1985,62.5727,86.3938,87.4864,39.5097,3.2610,180.5795,42.9474,126.6038,27.4189,-24.2860,112.5501,99.1433,126.1342
47.5138,529.3867,52.4913,175.9222,174.5372,117.5798,97.6146,133.6554,-51.5947,136.0480,39.2582,219.6966,70.0863,155.1200,16.3935,23.5015,83.0158,143.1544,126.7531
3.7343,306.7414,66.8087,184.8258,237.5120,73.9180,173.8829,147.8404,-132.5849,137.6849,33.9116,175.2503,85.7406,70.8470,49.3346,43.1199,41.2201,121.4763,116.9935
7.3671,102.7642,28.1553,150.1643,208.6108,25.7891,142.2755,116.6979,-57.6754,75.1726,-1.7707,118.2492,73.3815,5.1124,57.0025,16.1641,27.4000,77.2386,99.9943
65.8934,108.2380,-21.5774,156.7602,169.6445,47.3769,74.6694,91.0060,116.7443,58.7424,-19.7184,131.5214,41.1222,51.5800,26.2160,10.7683,59.1964,51.6762,82.8474
91.7217,177.1702,-39.1539,182.8624,157.0065,77.0960,63.2446,87.8388,120.8410,73.7216,-23.9706,162.7001,7.1542,108.0104,3.2815,34.1969,83.8169,49.1401,51.8477
53.9819,187.4239,-19.3776,174.1015,111.2811,92.3133,51.6517,100.9799,-30.1189,63.4440,-19.3527,153.8896,-1.1967,104.5500,26.0521,11.2533,86.6494,67.2351,31.9788
27.5790,205.7218,28.5186,174.2163,46.1643,127.2496,9.4473,103.1958,-52.1942,31.9791,4.8177,143.1635,14.6430,106.1065,61.1190,-50.1699,106.8378,70.3770,41.5001
53.3139,226.2848,60.8289,202.0224,20.4148,146.5416,-19.9336,81.5212,32.0771,30.5902,15.6394,148.3523,25.0256,122.6681,38.8141,-51.8500,130.9323,63.0012,59.5526
96.9656,195.2356,23.6471,182.0764,32.8027,127.9135,-0.1235,99.9688,59.5819,98.8359,-14.6295,125.8015,20.0967,85.9304,-5.5851,16.7041,105.7552,118.5023,97.4154
124.7251,213.5509,-46.8827,103.8833,47.8983,133.3294,81.8595,182.4607,118.0238,186.5512,-39.4652,70.6357,-2.3796,25.4412,15.2337,64.0073,35.6821,205.4503,147.3700
128.7100,314.6457,-50.8445,55.3493,22.8712,176.7920,141.9288,222.2838,224.4794,200.3075,-17.5252,28.9375,-42.4984,44.0961,49.3604,51.3635,-15.5438,199.0834,135.7382
131.1091,284.7181,24.3646,80.6317,-45.0902,204.9091,90.1373,175.9628,243.1487,153.7319,24.4537,29.5833,-48.9379,136.9452,23.8047,24.5312,11.7580,129.0448,87.5516
159.3180,60.5257,99.6705,139.3412,-60.4771,211.6453,61.3549,148.8881,227.0059,131.6247,64.2294,58.6283,20.1699,195.6347,16.0792,24.0288,112.4701,126.4077,121.9427
165.9702,-73.6569,133.8966,156.0679,26.2393,203.2517,175.7768,177.4226,217.0204,139.4972,100.4775,69.1708,85.5242,159.8134,56.0884,48.8418,191.9484,163.7992,200.9992
99.9409,18.5131,133.7103,86.0757,93.4289,143.8384,230.3541,181.8228,122.7750,146.7956,92.5936,36.2670,46.1765,68.7417,50.6837,68.6840,171.9133,137.4058,191.7240
77.2315,105.2786,98.6842,-0.5958,59.6834,55.0076,109.8558,150.1161,107.4406,169.8115,26.6377,5.6118,-45.5132,-1.0541,24.5628,53.2671,123.0693,80.0912,131.8237
219.1987,59.0748,64.2453,5.2875,25.1973,21.3133,59.7735,127.7498,300.7313,176.4017,-5.8745,14.7422,-61.1871,-9.3695,52.3620,17.2763,155.9429,65.6664,117.0819
354.8218,28.7978,89.6326,68.5347,46.4391,41.1448,149.8485,93.1654,352.1795,76.2145,50.9634,22.3152,1.6433,18.5105,51.3671,-5.3371,216.6594,66.1008,96.4340
270.5447,71.1721,140.1301,81.1687,43.7261,36.9065,130.9545,13.9745,106.0135,-95.5405,99.7950,7.7076,35.4839,42.8492,-12.0113,-24.8307,190.6730,39.2869,23.9225
130.6721,94.6794,131.5711,58.5533,3.2656,9.1006,-5.0179,-70.7100,-38.6669,-181.4333,68.2286,19.4688,8.6194,60.5286,-20.7834,-51.0525,134.1206,6.0515,-27.8076
178.2625,88.5179,91.3417,57.9733,-13.7097,12.7814,-45.7296,-106.4659,17.9676,-150.6986,46.9265,52.8573,-0.2796,57.5951,14.0577,-42.6493,157.3060,-17.3023,-33.2735
276.4728,65.6767,100.6009,43.6556,-29.6779,24.4404,-27.0776,-91.4145,-41.9503,-132.8831,101.1958,42.3928,37.6907,-1.4279,-12.5818,2.3530,192.9005,-53.4090,-59.2709
208.7031,-11.7432,128.0766,-2.8772,-85.8062,-8.9892,-87.1386,-69.9197,-167.2675,-170.5167,136.4223,-6.8979,45.7654,-75.0268,-55.3816,9.6329,130.7836,-110.3981,-124.5076
65.8691,-91.8990,95.8387,-24.0688,-133.0907,-52.4940,-163.7482,-75.3597,-131.6275,-169.8199,85.7509,-39.4210,-8.6025,-72.8786,-62.1086,-39.4216,31.5930,-153.7372,-174.6776
5.1722,-71.2631,33.0766,-11.4343,-133.3964,-47.6092,-175.4471,-86.3029,-92.4992,-112.2030,36.1759,-44.4985,-53.2653,-12.8252,-85.2058,-72.4596,-9.5102,-152.1549,-170.8978
13.9273,27.7636,10.8879,-8.8057,-129.6498,-12.8889,-157.4812,-72.0107,-167.4094,-75.5650,54.6473,-23.2997,-49.5728,18.9218,-96.5654,-56.1305,-32.3505,-120.2123,-144.0349
32.9829,105.8574,13.5499,-6.5403,-153.9220,17.4778,-151.0441,-43.2145,-164.2443,-61.7832,74.8156,28.0146,-38.4061,29.7247,-49.5148,-24.0708,-80.0761,-78.3725,-152.3246
42.5018,112.3812,9.9992,28.6865,-163.4782,55.6065,-165.4344,-9.8067,-76.0331,-24.2405,57.3889,68.3629,-27.2295,68.2109,-25.0275,7.0879,-75.8811,-15.9919,-160.8206
85.0084,49.1437,46.9854,74.0315,-88.4592,100.2883,-151.5680,34.5638,-101.9269,7.1344,80.6930,64.6277,13.6373,102.5016,-41.8800,35.7106,34.6475,50.9580,-74.5094
208.1970,-29.6424,129.9021,82.4648,55.9616,118.6824,-52.4105,67.4938,-208.6885,6.8308,163.4914,50.8883,57.0110,90.3065,-24.9689,40.7949,147.4001,69.8317,50.1725
270.7241,-43.3183,150.2159,54.9396,137.7631,106.9049,24.0393,69.8208,-217.9945,23.6730,190.3561,55.7878,57.6145,55.4732,-21.5578,16.3921,138.1580,50.1508,59.2251
127.7639,12.0331,88.1058,37.9013,94.9441,83.9760,-39.4189,61.3370,-123.0379,57.9546,130.6787,63.0606,38.0627,29.4025,-73.7792,-16.8805,68.8943,47.8300,-10.5054
4.9171,52.1203,84.0697,48.9896,49.9779,54.3012,-99.7349,39.8736,-49.0378,41.6725,105.6023,60.3190,35.6912,22.7099,-70.3523,-43.8788,82.7288,44.5369,-16.8651
126.6124,20.9289,153.9114,53.7892,72.9160,33.5641,-36.3178,-11.1029,-68.1146,-18.9547,137.6111,41.7533,32.5203,45.5846,-13.0492,-55.7137,129.7392,-0.2539,-9.0716
246.7786,-43.2823,130.7222,36.6023,55.0467,43.1536,-11.7124,-47.7264,-125.4655,-47.6805,115.0551,3.3059,4.9920,78.6910,-41.6560,-50.2421,53.6501,-40.2884,-85.7603
146.3317,-69.4597,8.6355,3.2649,-28.6946,50.4271,-98.2953,-35.0266,-134.8755,-32.6012,49.6653,-35.5902,-28.6512,67.5403,-105.4071,-45.7385,-94.5566,-44.7799,-149.7671
22.7358,-47.1823,-39.9279,-70.9435,-67.8140,6.6863,-125.8902,-25.6301,-109.5589,-32.7724,43.1150,-66.7733,-51.2355,-12.1312,-68.9639,-50.5581,-154.1122,-70.5163,-115.4861
-12.9498,-24.8367,-13.5595,-158.7356,-76.9612,-55.4735,-70.8427,-47.5349,-88.2241,-69.9756,52.3799,-99.8154,-71.5882,-108.8482,-14.0072,-41.5201,-151.2407,-113.3737,-82.3386
-68.2901,-23.0375,-28.2578,-151.5472,-122.4487,-67.4144,-63.0846,-47.2045,-68.7247,-90.2616,12.9249,-99.0562,-85.5658,-132.0371,-44.9231,-13.3523,-168.5044,-96.8014,-108.0444
-71.7712,-12.6475,-41.5099,-57.2257,-116.9095,-47.7344,-79.6605,-23.6052,-99.2180,-58.1220,7.1796,-33.9356,-74.9245,-58.4978,-78.9455,-5.7767,-145.7305,-56.2155,-122.9976
36.4874,10.9185,-9.8389,-17.2080,-38.4124,-66.1960,-59.7010,-43.8724,-158.9957,-33.5756,50.0543,25.6578,-52.9925,17.9200,-54.6789,-44.1532,-73.5015,-85.7604,-112.5905
75.5468,5.3904,-31.3845,-45.5654,-38.4989,-110.8903,-53.7174,-97.2261,-57.5695,-65.1600,23.6491,9.6939,-46.8196,15.2523,-24.7291,-90.3574,-57.8281,-139.5662,-102.2370
15.7141,-33.4474,-87.6926,-40.2858,-112.9196,-115.8985,-48.7654,-108.7207,191.5509,-87.8395,-47.3666,-35.1446,-46.5054,-19.0824,-3.7077,-89.8176,-79.9187,-129.1961,-56.5467
-21.5198,-35.6173,-64.3418,-23.3512,-106.6133,-92.6418,11.0788,-76.1223,258.7239,-56.8434,-53.6119,-53.9507,-39.6418,-20.7990,21.5612,-49.3010,-57.5856,-92.4140,21.2582
-129.4011,27.7141,-50.8973,-63.4935,-56.6397,-97.2409,64.7151,-47.6579,71.8452,-32.3835,-70.3489,-76.9671,-49.1638,-24.0469,35.1541,-20.0468,-51.9498,-72.8179,71.3925
-312.5892,75.8160,-143.6016,-97.5471,-67.8585,-105.7295,71.0808,-26.3942,-33.4389,-23.0276,-164.1190,-111.3736,-74.7769,-60.5522,57.9205,-11.6063,-86.2198,-28.5783,103.5625
-296.7189,57.1895,-182.1530,-66.7115,-57.7412,-66.2418,90.6212,3.5108,92.5994,34.4258,-194.1644,-96.0037,-80.5135,-83.1872,98.6619,6.6409,-46.8310,30.9633,141.8186
-105.4325,18.8071,-102.1130,-30.6973,12.8935,-11.0152,116.2483,39.3231,211.2863,114.8530,-122.7744,-32.9636,-69.2721,-60.1093,81.6820,34.3257,31.8785,49.1617,141.9566
-42.9772,-28.1830,-86.5955,-27.2085,27.1951,19.3103,104.1925,87.6889,133.4889,156.9682,-98.7830,-10.2640,-55.0468,-22.0923,-1.0859,56.7258,0.8349,67.3281,115.0000
-59.7739,-101.9366,-129.2299,-24.0804,-0.4133,50.0170,112.9015,138.1995,-7.4236,176.6990,-106.0250,-45.2421,-2.0437,-3.2450,-17.9653,85.9059,-70.5056,139.0546,135.2507
18.5992,-103.9852,-48.2803,-15.4724,51.9403,73.3026,175.9902,138.7966,26.7690,170.4978,-32.3179,-54.2556,84.7484,-3.8924,76.5467,107.2019,-31.8731,193.0880,169.4285
34.3382,27.3726,68.3409,-12.2003,138.9633,45.2846,202.7925,87.0310,178.2853,109.9404,17.5349,-16.1931,120.4513,9.7123,140.0872,76.7686,40.8990,168.6238,125.8057
-72.3240,113.6997,36.9142,2.4497,146.5568,14.8414,132.2732,52.9613,131.2595,50.9184,-48.3607,-8.8867,85.1092,53.9524,76.9356,20.0676,27.9871,127.7438,26.7710
-68.0255,20.9015,-37.7285,31.0763,86.9153,44.6746,20.3092,49.7492,-101.7565,30.0854,-73.7933,-48.2668,51.3848,64.5188,-18.7912,8.5006,-19.9249,115.2665,-51.4229
42.7583,-101.6986,-18.9498,40.5153,12.6807,58.5935,-51.3547,29.9552,-128.8365,2.6109,16.2775,-63.7177,44.1199,-5.9647,-45.8694,36.5383,-43.0141,89.4659,-92.4297
65.7665,-135.7433,17.7034,10.6667,-44.8516,-5.3658,-68.3309,14.1298,62.3565,-0.1637,82.5200,-48.2735,42.5606,-58.2757,-50.8602,43.8024,-53.2335,39.5385,-104.5128
71.3254,-171.1138,33.1460,-25.1342,-48.2394,-35.9142,-92.5720,39.6282,52.3881,65.1296,87.2385,-63.0228,64.5066,1.4633,-98.5838,18.2048,-37.2825,10.0759,-106.5487
147.5704,-231.8908,77.6728,-20.6248,-17.9722,43.8891,-154.2106,49.5720,-191.8497,87.4975,104.0674,-116.5798,104.4292,74.4094,-134.5497,-7.2879,-1.4381,15.7425,-135.6097
135.9894,-236.7098,103.5036,6.3727,-11.5605,120.8783,-184.9379,4.0238,-304.8792,5.6406,109.8850,-172.9224,103.7218,47.6449,-99.7462,-9.0830,6.2281,38.5816,-177.7524
9.6287,-219.2173,74.0697,12.0724,-21.5905,109.0654,-160.3441,-36.3573,-206.1708,-55.3327,95.0266,-207.9760,64.0223,0.2273,-56.4850,2.0215,7.6077,68.0048,-178.6183
-28.0132,-255.7138,69.1686,20.0876,-26.1402,84.5636,-153.2569,-41.2579,-81.3340,-48.1263,128.0323,-198.5796,56.0229,30.1746,-76.4109,-6.4106,48.5476,90.8589,-138.9465
65.7365,-301.8889,107.3182,54.7780,-31.1248,103.6616,-156.3285,-42.8173,-35.2020,-52.2122,176.4295,-151.9012,100.1552,78.2767,-122.0217,-23.9470,90.4678,89.2190,-98.1083
137.8428,-284.2426,127.7059,64.6600,-10.0177,113.9158,-108.5690,-34.5677,-117.7506,-47.5127,168.1012,-117.6486,148.1941,75.3729,-130.8517,-0.9085,104.3274,64.6045,-76.7828
113.6344,-202.2160,138.4821,38.6503,33.4015,89.1052,-80.4269,-11.2543,-234.8952,5.9877,158.5169,-100.6881,159.9863,59.4602,-96.5796,39.4635,128.2285,37.2402,-90.5589
50.2354,-110.6999,161.2230,41.0669,23.9076,69.2769,-129.2826,-15.1500,-148.6637,24.7179,182.3317,-68.6902,137.2978,69.5332,-36.7605,27.4183,157.2487,23.1155,-130.0008
34.9404,-81.0578,156.8127,65.7490,-30.5415,67.0905,-143.2144,-43.1625,51.7614,-26.4157,159.0163,-45.1303,102.6078,92.9362,4.3216,-5.3896,148.4290,21.9009,-143.1363
81.4093,-117.1555,111.0949,55.3898,-36.4600,61.7994,-78.3805,-56.3968,29.1795,-68.2919,82.0849,-53.0564,63.9428,114.0938,-24.2693,6.6618,117.0425,30.2949,-105.7684
101.1721,-145.9547,50.2412,25.2760,2.2249,57.4701,-34.7767,-68.5536,-107.4577,-70.2503,33.7751,-55.5484,17.2326,107.0166,-66.5159,17.0179,90.6626,57.7381,-35.2826
33.0565,-140.1684,-10.0720,-2.8238,21.3670,62.2942,2.0949,-85.5442,-13.6061,-60.0044,9.6602,-54.3917,-19.7872,51.9242,-21.8882,-17.6311,46.0183,103.8688,57.3748
-98.9096,-120.7408,-56.7209,-43.7558,25.5577,52.9020,98.2401,-71.0603,152.7606,-53.8771,-40.0493,-84.2323,-28.7263,-1.6589,40.0716,-31.6348,-35.2178,137.3330,135.1413
-251.5689,-86.1345,-91.9718,-59.8783,27.1269,21.7056,158.0094,-36.3251,96.3095,-58.7484,-80.3961,-103.3609,-23.8387,-0.2989,-10.8197,-2.3900,-122.8579,137.3783,147.9846
-306.4490,-76.9422,-119.7085,-31.2441,22.4885,5.8203,139.2373,-11.7295,27.7135,-33.9595,-57.8222,-80.8748,-15.7141,12.3819,-76.8686,3.6175,-165.7767,124.1457,130.6565
-144.2738,-140.4700,-101.6386,-44.7488,39.1526,12.8300,168.3643,20.6931,157.3250,50.4138,-8.4133,-85.3121,-9.3872,-24.5169,-0.9498,-14.7520,-149.7322,109.5964,136.1358
62.2962,-189.4514,-54.3807,-133.5704,53.1081,-9.3567,218.5152,49.9525,218.7490,97.5056,-16.8949,-136.8244,-35.1046,-86.8399,102.6386,-8.0001,-138.5053,72.7753,120.1785
38.5353,-143.9842,-80.5290,-199.6680,7.4730,-69.0787,138.5555,38.6170,75.4676,50.3755,-90.9369,-159.5743,-77.7837,-126.6268,68.8043,4.1153,-188.8426,15.4011,61.1186
-96.0752,-95.0870,-157.7387,-183.3386,-33.1719,-93.4250,20.5874,25.7762,14.8494,31.9720,-132.1911,-136.5456,-68.3039,-132.9321,2.8118,-7.9221,-234.2460,-19.8853,36.4478
-73.5269,-96.0821,-146.5792,-120.0003,-0.4905,-52.7057,28.1111,52.0504,103.0410,87.5493,-89.2400,-108.8510,-35.5589,-105.8647,28.5274,-13.2219,-188.7141,-8.7398,49.6431
1.7909,-64.5734,-75.2385,-55.4294,5.4229,-6.7193,56.6529,72.9961,74.1122,93.7554,-49.1171,-74.4778,-75.1989,-63.9973,46.2762,8.6657,-101.2199,27.0259,16.3955
-40.6234,-10.3420,-69.7136,-24.0173,-70.2546,12.2867,1.4557,73.5881,-47.7268,50.5349,-67.5965,-34.0346,-138.2040,-39.1112,0.9804,36.0685,-49.7034,52.4109,-35.3681
-50.0386,-10.0909,-72.0602,-20.2870,-98.0691,30.6744,-10.7703,91.6953,-28.3813,71.1217,-65.7561,-12.2382,-104.2917,-19.4228,-0.3444,46.0037,-11.0845,39.3887,-20.4207
50.3943,-4.7765,10.6250,-6.2892,-39.3757,36.1005,58.6248,98.1948,25.3112,111.4697,-5.2583,1.7813,-11.2090,6.1013,44.1326,31.1045,29.3420,-33.2287,5.1581
53.3293,59.5409,77.9521,-12.7097,-32.5085,-13.8967,57.5095,50.8622,-62.7118,70.4716,36.3125,7.4818,24.7780,-15.5330,35.7061,14.3137,13.7486,-153.3712,-51.1942
-68.2800,96.4747,39.4794,-76.2122,-118.8780,-92.1234,-40.5930,2.2662,-104.6403,4.6758,21.6384,-19.9989,-10.3987,-87.5634,4.0758,23.4587,-56.3911,-255.2784,-138.5365
-78.1295,76.0251,-21.3972,-104.6235,-192.9914,-122.6119,-116.0243,2.8571,12.5846,4.0755,-6.8076,-28.0718,-64.2772,-106.0305,11.7017,30.5651,-94.5403,-273.5300,-169.2841
63.3838,56.3503,-30.6197,-31.0398,-203.0320,-84.5882,-133.6221,15.7000,46.9906,41.6300,-18.1434,35.1960,-85.2035,-38.7238,0.3444,7.7618,-65.1978,-222.4316,-157.8519
155.7825,9.8639,-14.9372,43.8277,-185.5353,-27.9252,-129.9500,-0.7722,-68.5543,38.8105,2.1260,75.0762,-49.0017,20.8611,-56.9673,-0.4622,-15.2578,-176.7565,-146.2136
109.0591,-66.7572,2.5261,45.5824,-174.0616,-6.4851,-118.1265,-32.6595,-112.9155,-29.6469,49.7070,17.0818,-10.5081,38.9167,-74.7460,21.8538,14.6263,-169.0346,-124.4551
4.3001,-31.7613,16.9855,25.4660,-168.9693,-25.8329,-107.0698,-31.6032,-69.6655,-83.3105,68.3408,-20.4109,-28.2073,61.2355,-23.7696,11.8317,20.6328,-160.2352,-87.6478
-61.7750,137.7024,10.1071,11.3273,-145.8217,-50.0036,-94.3280,35.0202,-78.0005,-26.7916,21.4803,56.1161,-59.2103,67.6507,10.3992,-34.3714,7.2075,-117.6976,-77.9717
-37.4273,231.4681,-18.7932,1.7824,-99.4811,-59.2990,-78.8786,112.7269,-105.6007,69.8473,-42.0686,135.6490,-61.5925,19.1207,-32.6529,-54.3170,-13.3109,-62.3682,-113.9420
47.5011,158.1734,-47.4927,20.0938,-66.3453,-74.8864,-95.4740,108.7751,-117.6843,63.6702,-62.0787,115.9090,-66.1719,-31.1485,-91.7394,-61.7955,-13.1307,-28.0133,-136.9471
94.9490,92.7566,-53.1686,37.8283,-52.8011,-97.1194,-127.0573,47.7324,-163.4724,-9.4573,-39.5620,68.0222,-72.6396,-22.4631,-65.6460,-96.6984,19.9624,-17.5885,-100.5248
76.4253,136.2679,-26.5572,31.7218,-24.7676,-76.4328,-98.9723,32.7758,-178.9356,-25.2819,-12.9907,72.6502,-61.6336,30.4150,14.8075,-109.9067,64.6246,-11.5617,-56.6315
66.9104,161.2678,9.0046,69.8194,2.4950,-0.3430,-45.6894,66.9589,-135.9698,10.0558,0.7233,94.2957,-61.1937,90.0563,14.0912,-72.0028,108.5949,-2.5080,-63.3536
93.1271,108.5256,29.3201,143.6910,-8.3971,58.3503,-69.2858,86.5995,-151.8484,46.4435,30.4875,91.4945,-56.1706,119.8157,-64.1520,-48.1005,158.5303,-6.6664,-91.0614
93.3615,111.9430,48.7880,140.6665,-28.4914,43.2633,-140.2107,96.7633,-187.0142,87.5435,81.3469,98.7756,-7.9381,89.0502,-87.8426,-55.5193,182.2619,-28.6763,-102.8008
