Fp1,Fp2,F3,F4,C3,C4,P3,P4,O1,O2,F7,F8,T7,T8,P7,P8,Fz,Cz,Pz
-50.5895,-40.2842,-102.2641,-15.4092,-17.6988,37.9569,-13.0311,-28.3142,25.0611,40.8862,-45.2090,-105.8463,-7.7263,105.0175,-33.1194,-9.2471,-42.9615,28.5289,-47.2804
-126.0667,-119.3943,-168.1445,-80.4317,-70.9878,-17.6381,-8.6861,-45.1842,183.8249,95.8234,-119.0835,-119.2998,-34.6017,71.3160,-54.2758,-68.4072,-107.8965,-20.0605,-52.3768
-241.3227,-184.9028,-211.5254,-195.4536,-159.0352,-86.5669,4.3608,-82.4683,179.2514,5.2521,-213.1003,-183.6817,-39.6723,47.6313,-63.0014,-112.7605,-179.3494,-102.4804,-76.3633
-135.5232,-156.8128,-162.7780,-262.2838,-218.6139,-126.4937,-118.1665,-202.0116,30.2534,-129.4639,-163.0701,-177.6965,-2.9975,48.7032,-89.5437,-99.2774,-157.5285,-173.2254,-232.9781
-6.6654,-106.9334,-92.5132,-205.9796,-232.1798,-106.2257,-282.4355,-266.9298,-59.3138,-120.4737,-25.9141,-98.7783,20.3713,77.3573,-96.2813,-54.3382,-94.0431,-158.1370,-365.0036
-196.8230,-189.7538,-139.5008,-210.4653,-307.6668,-154.3628,-363.3731,-329.1981,-13.5868,-139.9908,-91.4377,-141.9529,-33.5786,66.4903,-97.6682,-121.5937,-102.0129,-217.3576,-397.2825
-350.1374,-272.5034,-202.3179,-297.0566,-362.6057,-252.5705,-386.7775,-438.2580,63.5408,-278.9357,-263.8035,-242.8114,-90.4848,17.1878,-125.2192,-240.1817,-110.9296,-350.1194,-429.3675
-55.5049,-103.9342,-82.5652,-164.3551,-168.6989,-144.9453,-283.5062,-281.3513,67.9494,-200.9134,-171.7900,-137.6546,-37.4674,26.9110,-99.6003,-139.6236,-29.3428,-210.6611,-349.1313
404.8399,195.4503,138.5780,181.2445,179.5786,155.8893,-43.4757,182.1527,31.9539,174.5562,120.3458,120.3687,89.2019,99.6222,-7.4390,144.8513,71.3794,183.5343,-70.8351
656.1228,317.3480,251.2020,358.5792,356.4650,319.2519,71.1255,438.3872,33.6818,405.7527,269.1621,264.6266,170.1361,143.0818,23.9541,292.7187,129.1089,348.0053,120.0095
638.2504,247.6328,236.1051,293.5482,291.5274,259.6763,-24.9937,316.6667,25.7223,293.5237,253.9200,234.6638,160.2179,137.9282,-16.2970,248.2083,157.5716,190.0828,65.8705
471.5585,181.9127,197.8651,238.8154,180.2591,184.4324,-113.7894,168.9646,-48.6710,109.9146,254.9892,174.4542,109.1697,124.6525,-35.4234,182.6805,169.3407,80.1948,-6.9431
459.9529,192.8310,207.3831,252.2811,174.7948,170.4552,-137.6793,101.8406,-79.4528,22.0415,281.4156,202.3288,98.7308,109.1691,-44.3052,120.5008,209.2982,119.1330,8.9981
596.3854,191.0863,243.9171,216.7694,229.4273,150.4025,-141.0955,24.6134,6.5569,-12.0610,241.7200,232.4156,146.6155,90.2845,-45.7210,48.7705,254.6841,123.4164,19.7401
477.7371,109.3387,215.9608,132.2023,202.1135,118.0937,-70.2018,25.9270,87.9435,21.2617,165.7128,119.8484,175.7521,71.4601,6.9743,35.8016,191.8139,67.8559,19.5357
285.7248,38.3058,134.7142,79.9674,117.6580,86.3271,-27.3925,64.1059,82.3824,85.8046,181.2807,22.0682,136.6608,37.7013,30.2943,42.9811,105.3543,28.5929,2.0531
384.1963,65.1875,92.2716,71.7864,107.9970,45.9733,-89.2512,4.8054,31.8878,64.7426,253.1564,108.0650,79.0561,20.1656,-28.0204,7.0689,143.9230,22.9469,-36.6078
280.4333,79.7810,49.4442,52.4687,102.3205,30.6731,-43.3151,-9.8991,-32.8507,6.6205,186.7340,132.2001,61.3440,83.4236,-27.3718,8.6700,146.9667,66.4895,3.2277
-46.5508,31.1822,12.3301,36.1632,47.9566,84.5360,64.6396,62.6412,-38.5514,29.9939,61.9919,49.8425,95.3174,186.6947,42.6103,62.8723,49.0226,129.1383,45.6177
241.5515,69.4547,110.7311,103.6729,122.1974,193.5855,-49.8821,15.0793,59.3515,76.3255,123.4158,193.2967,144.8594,239.5093,19.8263,62.2630,110.2763,151.9702,-59.1727
443.3620,112.6256,142.4987,137.3917,191.9496,253.4075,-101.3277,-34.9216,67.7307,56.6965,132.9281,243.0360,112.3959,249.1314,-33.0860,27.2148,184.5556,163.1828,-70.5377
-718.2553,-100.4031,-196.1625,-86.0435,-121.4650,117.7083,249.7484,107.7024,-125.5480,2.1814,-234.3576,-329.9788,-43.5088,190.6080,35.1934,23.3399,-149.1794,147.5219,187.3722
-1758.7625,-352.7100,-531.4749,-381.7982,-512.3860,-164.6445,471.6658,136.1430,-238.8715,-57.4866,-543.7301,-821.4563,-186.8164,-32.8364,92.7808,-20.8290,-546.4244,14.1308,300.3261
-876.3620,-239.6607,-367.8224,-363.1795,-375.8664,-303.4350,150.5033,-107.9752,-103.8985,-97.8752,-334.4161,-435.9592,-184.8219,-292.2817,19.1552,-99.3067,-417.0197,-132.9710,53.7383
327.8154,17.5321,-44.8281,-158.1620,12.7318,-198.1575,-142.3649,-224.8306,20.1796,-60.7317,-41.9348,87.8122,-106.1657,-320.5030,-26.0709,-79.3906,-86.8513,-109.3181,-105.6459
152.0829,20.1098,-10.0878,-124.3061,82.5886,-90.7705,-30.7275,-111.0525,-1.6268,1.6190,-71.9657,20.4292,-60.0501,-183.3140,37.4039,-5.0014,-68.4561,-16.1694,9.9180
-169.2040,-61.7623,-35.9718,-166.9891,16.6956,-96.9352,69.0985,-87.2639,8.3410,-30.3743,-93.2106,-72.3172,-31.5265,-142.0259,81.4330,-30.4284,-132.9410,-28.9572,63.1395
173.9211,-7.7948,39.5013,-102.5568,86.9511,-78.3433,-14.4052,-134.0197,75.2819,-110.2180,22.2260,111.7306,-5.4459,-178.2570,73.1324,-109.9424,-50.6157,-72.9688,-5.1566
162.4960,3.4703,14.1163,-74.6462,85.9127,-25.3981,-29.0033,-70.5175,72.8811,-110.8489,-20.2427,119.0264,-20.6740,-148.4269,70.3486,-110.7513,-9.2514,-63.2248,13.8352
-168.6274,-69.1715,-25.3317,-114.0490,-5.8600,-32.5208,-1.4206,-18.9955,38.2120,-56.5445,-99.4525,29.3112,-56.7601,-88.7739,58.4136,-50.1429,-2.7593,-65.4875,59.4476
-29.8933,-42.9431,78.3818,-52.1504,15.4618,-41.5846,-44.7638,-34.8545,48.2505,-37.0758,19.1363,136.6658,-68.3906,-56.9150,46.7258,-9.4999,79.1354,-77.6140,35.8065
131.3000,21.3939,107.4020,48.6830,54.6100,-5.3590,-22.2014,6.2299,80.5157,-37.8752,69.4016,164.0693,-68.8539,-44.8028,79.6104,-4.8274,91.6872,-43.5559,50.0828
-52.1105,1.6339,9.1682,59.9849,30.6754,3.2917,91.2519,48.6601,125.5390,-7.3763,-60.3227,48.1730,-56.9329,-75.8220,114.1015,-6.9835,21.6554,-11.2212,102.6607
-41.3983,-3.7679,31.4596,67.9072,80.6335,-17.3113,149.6326,3.5564,156.1863,22.8154,-48.9593,97.3605,-14.6948,-120.4912,107.0609,0.0392,37.0002,-31.6430,90.1940
131.1634,27.4943,121.0668,90.8399,131.2059,-34.4377,133.8619,-58.9110,114.2263,-17.2664,79.3691,179.7152,-2.3837,-117.5254,87.4171,-19.3106,72.9350,-79.0635,44.7137
93.5536,18.5524,82.6021,36.9184,43.9239,-80.4986,78.8647,-120.5812,44.5546,-103.3816,22.2048,93.6801,-70.6457,-123.9068,43.2917,-76.4998,26.3127,-122.6515,7.4450
87.1185,10.5978,8.4889,-30.6746,-33.4801,-128.3600,-6.3029,-190.5813,8.7510,-135.1467,-115.7242,59.3795,-148.4877,-188.8073,-41.8727,-93.0781,-21.2440,-147.6288,-52.7348
167.8283,9.7732,-32.2627,-60.0110,-35.0334,-145.9625,-60.6457,-211.6816,-22.7548,-113.9746,-114.0553,96.8480,-161.2532,-254.6319,-89.3156,-68.2304,-79.8946,-173.7799,-107.4556
70.0478,-44.5692,-116.2136,-141.8618,-94.8760,-205.8996,-73.7509,-218.1936,-32.4697,-132.1200,-87.9588,-5.0023,-135.8677,-304.2344,-58.5927,-118.0584,-190.7462,-220.2514,-114.2080
-14.0857,-96.2124,-166.5560,-236.6559,-148.9867,-283.4925,-85.7862,-237.5340,17.6073,-168.0882,-141.4029,-111.8199,-129.1933,-329.9892,-32.0763,-197.6494,-218.8183,-207.7814,-80.4388
72.1930,-70.5567,-103.7703,-216.2370,-96.7649,-239.7516,-63.9348,-166.9738,50.1997,-127.2285,-161.1413,-63.4224,-150.8490,-261.6784,-56.6954,-139.1802,-122.7579,-93.3829,-12.9616
95.5709,-24.8045,-23.7802,-140.7981,-53.5585,-116.6839,-12.3159,-45.3312,24.3045,-44.3529,-89.8733,-25.0721,-155.9298,-148.0585,-78.4555,-7.3540,-32.0731,-17.7007,38.9553
78.5227,-35.2981,29.8400,-119.3847,-50.0502,-80.5569,-17.1709,-44.2831,0.7410,-26.8121,-5.9497,-69.9874,-117.5159,-132.1206,-70.9532,11.0430,21.6864,-79.0609,2.1789
135.7951,-59.5027,60.3463,-114.4402,-42.7623,-135.0223,-86.5469,-129.9412,-33.6679,-88.5631,-2.9515,-65.9973,-102.7290,-186.3807,-76.0809,-44.1141,53.1958,-179.5986,-91.1587
97.5135,-27.0935,5.0749,-68.1078,-118.6637,-177.0355,-162.4513,-169.0708,-97.7339,-151.7403,-97.7409,22.7095,-150.5563,-192.1987,-100.6010,-46.4643,34.4828,-225.8403,-159.0382
-11.1973,-1.0396,-72.4264,9.3100,-219.6814,-172.1180,-207.3792,-174.8157,-105.6994,-133.0712,-166.1845,118.8166,-154.4222,-169.1452,-92.2283,-34.7495,33.3909,-217.3425,-188.9160
0.8638,-40.7715,-29.0787,84.2802,-182.2002,-137.6355,-191.8350,-178.2263,-55.5790,-52.8858,-90.1596,137.6731,-63.1280,-172.1996,-45.5925,-68.4101,108.3683,-164.3366,-191.7221
41.3314,-38.8423,78.4404,133.0946,-107.6598,-88.6240,-138.7955,-153.3396,-34.7383,-34.0033,33.7872,95.8610,-6.5775,-154.6464,-17.5539,-88.6226,180.2048,-93.0267,-158.2160
33.3873,34.5583,123.8117,181.6952,-96.5185,-26.9905,-105.0590,-115.5863,-19.2246,-94.0851,45.9717,156.3715,-46.6810,-86.0121,-17.5861,-53.9704,217.4813,-32.6878,-98.6511
70.9066,54.2851,124.6780,245.0082,-47.1279,25.1915,-88.7994,-98.4530,9.6814,-121.4411,-22.6133,326.5423,-77.8679,-38.9721,-18.2565,-22.4474,254.5520,1.6941,-61.2062
96.8162,43.0017,123.7202,253.4129,-8.6221,5.5051,-89.8970,-116.1426,-38.2078,-113.5359,-47.2158,369.4407,-51.4780,-70.4398,-40.0848,-37.7147,257.6271,-17.5136,-83.5862
70.2547,73.0419,131.4720,193.4479,-55.1189,-66.4200,-116.6651,-150.0382,-124.2616,-134.4398,-18.7319,252.9190,-27.2805,-116.9417,-84.1799,-51.9354,239.2436,-48.7494,-104.8046
105.7428,52.2057,173.4986,150.6731,-32.8175,-69.9181,-98.0991,-124.6617,-96.5406,-122.6394,-6.3475,186.3597,-33.8204,-92.9156,-93.0428,-19.5542,261.6995,-8.3645,-32.1287
153.2276,-13.0813,212.5343,114.8209,57.4969,-18.1621,-17.5628,-36.4909,3.2268,-49.2457,-14.0392,188.9615,-47.3011,-26.3579,-65.6974,18.3099,261.4562,26.7468,63.0417
100.0437,-17.1403,186.3322,28.8189,46.6468,-53.8462,20.0610,-2.2452,22.5234,-10.9429,2.9550,167.0097,-32.1864,7.5886,-49.4657,17.9618,185.7439,-57.7163,41.2559
35.8879,-30.1246,131.6496,-19.8958,5.4040,-154.2883,6.0585,-34.6233,-19.5220,-0.0498,30.5655,179.0624,18.8279,2.0826,-38.0923,5.0632,131.9319,-157.1522,-38.0298
17.0012,-81.7005,96.8785,38.3977,24.5282,-174.5056,23.8689,-21.9945,-22.8444,55.6033,31.3059,232.7547,56.3427,-28.0907,-20.3668,3.4863,126.0727,-156.8593,-32.2368
-17.6368,-68.9032,60.5497,89.5851,8.6946,-129.3266,51.5394,26.9658,5.6159,82.5748,39.1766,205.5235,66.3381,-87.4385,-13.4067,-0.1076,73.9090,-143.7681,26.3723
-48.2002,-50.2573,11.9770,43.0426,-25.5232,-130.9417,32.8776,12.8450,11.5879,27.3867,83.3354,104.7692,99.1102,-149.4072,-4.2670,-17.7180,-23.4130,-177.5244,28.7562
-60.5601,-75.5014,-39.9599,-31.9259,-22.7177,-173.0564,-22.2294,-55.3458,-16.2208,-23.7412,102.5510,43.3616,131.3713,-171.6990,5.9462,-53.2008,-93.9230,-187.1400,-28.6511
-88.9223,-23.6898,-88.5602,-53.0940,-48.0164,-166.5703,-88.3840,-95.8422,-44.7583,-50.0134,51.1016,35.9528,111.3511,-134.3511,-9.4982,-76.8013,-121.0067,-141.7223,-72.5723
-84.8734,48.7589,-104.1541,-28.9935,-46.2301,-82.5398,-93.0902,-69.0513,-25.3578,-74.4910,-23.8480,40.6622,96.8740,-44.2922,-15.1755,-43.3207,-113.1507,-70.8888,-48.7653
-51.9111,7.8973,-107.3653,-26.7372,27.6402,4.7845,5.0163,-4.8769,24.7271,-34.2734,-57.4757,33.9607,96.4930,25.5401,6.0397,0.0516,-111.3087,-15.7196,-2.8716
-80.6030,-14.2046,-163.1301,-85.1014,0.7808,9.4902,58.5607,18.6828,20.1602,33.2763,-30.1089,-17.9292,3.7474,1.4584,-17.4283,-16.5618,-162.0698,-13.1139,-30.1122
-109.7259,68.5827,-213.5824,-152.2114,-112.2523,-30.7814,-33.4566,-11.5971,-41.3532,-0.7389,8.1667,-127.7219,-126.5374,-47.4190,-68.5336,-26.5063,-202.2039,-11.9729,-84.9806
-54.2444,112.9616,-160.7803,-176.7600,-85.8341,-17.2606,-105.7257,-1.6020,-63.0721,-50.2544,-19.9695,-246.0541,-118.8221,-15.4861,-41.0139,33.1266,-168.0086,60.3622,-37.3538
-24.1403,83.6027,-86.1247,-184.8706,15.9643,36.7471,-48.9824,86.8071,-26.5823,33.8170,-75.0608,-291.1411,-19.0652,52.2762,29.8802,80.1756,-134.4977,145.9093,73.6889
-58.1189,52.2940,-92.3912,-165.8486,22.1296,69.5900,16.4507,174.7440,-4.8014,131.7244,-36.6101,-221.2636,18.3087,78.2155,45.5319,77.2567,-135.7370,177.9171,119.5383
-35.0746,16.4348,-98.1218,-62.7222,30.0255,108.0716,52.2315,209.9256,-9.5728,107.1862,79.1729,-106.7803,19.3865,96.5506,44.3102,82.9168,-91.9007,199.0237,112.1497
17.2897,4.4972,-27.5989,76.2457,94.3157,170.8752,124.9435,193.8803,2.5608,61.1285,165.1481,-43.3596,39.9406,134.8853,64.1244,67.7745,-17.9950,210.4202,93.6588
8.9321,42.6997,54.5754,162.9032,103.0657,201.0420,164.3724,121.8759,28.6143,58.8874,199.9599,-0.2964,28.9743,154.5530,50.5021,4.2436,11.8979,163.2459,19.2527
16.4846,49.6901,105.6378,216.4534,82.5075,188.5209,105.0246,39.5389,37.9578,39.8928,171.9630,70.7104,-4.4174,156.4790,17.7059,-9.9949,40.4062,103.2713,-77.3623
73.2501,-7.5320,146.1325,266.2094,97.9138,187.1695,39.3850,32.7269,18.1620,46.8436,76.0115,109.9288,-5.9352,174.4681,14.1983,35.3612,101.2848,87.5449,-83.1881
97.7438,-88.0175,167.0431,274.9220,85.2212,208.1481,14.1112,98.6594,-25.2069,130.7042,44.0334,106.0686,-3.1195,196.1627,5.7906,42.4891,127.5862,90.2598,-11.8309
109.2208,-184.1553,164.2559,237.0857,43.2338,216.8993,-17.4963,164.1920,-52.8649,189.5281,137.8639,114.0258,-1.5908,179.4543,0.1979,54.4266,105.9855,99.6684,32.4313
139.5297,-233.0745,164.6701,186.9321,26.4408,189.6074,-48.0357,197.9581,-30.2283,172.9455,183.9138,82.8694,33.8125,102.5892,44.3418,132.9684,81.6267,127.9363,21.4886
125.8902,-164.9955,168.1013,148.1134,17.4250,140.9239,-60.6258,202.8907,-0.0845,156.7915,107.6003,-10.6531,46.8492,3.5542,62.4916,152.4019,57.3194,160.1548,-2.7272
86.8334,-75.2893,156.7828,147.0280,38.2217,123.4278,-62.3190,187.0057,-17.0736,147.4030,59.8364,-39.1967,-5.8636,-42.1247,-3.8858,56.4626,37.2915,198.9019,0.4841
81.2693,-58.5394,130.2135,158.4940,103.6158,146.6214,-11.7443,175.3749,-48.5032,108.9435,89.3350,10.9100,-37.2805,-38.0570,-50.2891,-12.5243,18.5424,235.6119,27.4666
57.8384,-63.1763,94.6586,98.3790,108.8970,130.3884,92.3070,165.6373,-42.9776,80.2867,110.8255,15.3255,-8.2411,-59.2954,-26.2245,-14.3884,-46.2931,207.9324,26.9114
-0.5084,-69.8454,53.5164,-13.2383,25.8412,38.7343,145.8247,123.4123,-21.6800,88.4737,104.6424,5.1842,-4.2669,-94.0796,-18.7475,-28.4760,-133.7248,109.0850,-16.5623
-30.5242,-103.3836,-0.0548,-57.3451,-55.1818,-37.9699,86.5770,67.3592,-26.7333,114.5065,63.4063,52.1956,-46.7528,-75.8379,-46.7904,-8.7691,-156.5303,12.3822,-62.9711
-30.8505,-109.0538,-53.3342,-31.1908,-111.3760,-29.8699,-35.7410,41.1892,-52.9032,124.6492,-18.4244,50.8555,-51.7338,-41.9381,-52.6587,86.6115,-124.7829,-44.6680,-105.3754
-9.6684,-64.2849,-53.0831,-20.4233,-125.5689,18.9607,-140.2565,19.7431,-73.0945,46.3512,-57.4260,-25.9057,6.2466,-53.5359,-32.0250,126.5710,-100.2668,-54.2082,-150.5912
30.8495,-24.7548,-15.6922,-8.8758,-66.2995,53.3400,-170.7504,-22.8888,-77.7750,-93.3562,-14.6205,-25.4291,45.4229,-63.6316,-4.0751,46.7143,-82.1374,-6.9484,-158.8514
9.6187,5.6914,-40.7685,53.5469,-24.5802,67.7030,-132.4611,-45.9182,-62.9719,-115.8447,50.5506,66.2592,8.0036,-26.7593,18.7645,-27.5469,-56.1288,47.2959,-113.0101
-59.0020,46.9690,-93.3908,132.9494,-32.9073,76.1827,-78.6001,-40.5966,-31.3180,-25.3631,118.9621,131.9364,-37.6840,20.3159,15.3395,-18.0180,-0.8326,66.4882,-55.2181
-26.3075,79.1971,-32.0440,202.2128,32.4983,104.9055,-31.7256,-49.4889,-23.6397,-37.2159,150.8316,174.3530,-5.1343,55.0300,1.8886,21.2044,111.6270,97.2960,-23.9701
69.2838,95.4744,87.1355,252.1412,134.4594,144.9067,8.7846,-60.1976,-66.6855,-118.1320,65.7886,206.7651,47.3825,75.1315,0.3598,44.1145,206.2787,140.9310,-19.9436
59.9490,90.1144,102.4645,215.9552,119.5955,122.0434,22.4144,-32.3692,-95.7520,-51.4528,-28.1362,155.9894,24.5693,42.5420,-23.4203,45.9392,188.1645,120.0577,-6.2789
-1.7197,62.1016,66.6133,91.6617,54.0872,12.7257,1.6929,6.3547,-58.9360,70.0487,50.6600,64.8474,-12.7593,-45.7984,-68.5887,24.0038,125.0785,46.3963,24.6626
12.4689,56.9155,91.2397,0.1647,37.9884,-107.1208,-47.5750,-1.9754,-33.3495,13.9525,201.6277,50.7345,24.6388,-129.1079,-70.7677,-20.1372,110.4496,-18.0703,-7.3207
51.0826,63.7334,96.0756,-21.0950,-14.6415,-190.4247,-125.3305,-66.5831,-78.8777,-142.2353,209.2815,64.4148,62.9035,-174.6170,-45.6243,-83.4347,92.8998,-92.6295,-117.8889
44.3012,16.3264,7.2827,-50.5340,-124.4203,-238.5768,-190.3614,-129.8281,-114.9575,-189.5877,88.1003,7.3572,-0.0123,-181.6236,-77.3721,-134.6615,15.8950,-166.5593,-168.3235
1.2906,-30.5738,-90.2521,-91.7180,-196.6125,-224.4244,-190.4147,-109.8116,-79.1457,-99.3331,-38.4584,-51.4333,-119.3588,-140.1001,-146.7322,-116.4199,-82.7079,-173.1870,-103.3347
-72.8670,-0.7520,-127.1930,-97.7186,-230.8447,-162.7620,-146.4196,-12.7568,-24.0923,50.0755,-111.4979,-9.4083,-194.4538,-79.0483,-160.2776,-54.6461,-154.0769,-159.7864,-36.0914
-123.8115,30.3173,-110.8851,-79.3869,-248.7892,-128.0423,-96.0798,54.2843,9.0793,154.3207,-89.4232,87.4502,-204.3500,-48.7682,-118.5868,-45.2355,-162.9921,-191.9073,-10.9136
-86.0230,19.6235,-50.8259,-38.8500,-209.0120,-116.3822,-25.2648,54.5255,49.3258,132.0209,-8.1604,124.9262,-183.2934,-35.4849,-83.6150,-74.0501,-105.1005,-184.2665,17.7812
-19.0731,21.9068,16.7500,16.5952,-119.5450,-85.4538,66.1072,61.9590,124.7944,67.3008,11.8843,77.0669,-135.6823,-13.1322,-39.2593,-41.8779,-40.8368,-101.0168,35.6865
5.1238,-4.1465,49.8158,14.6535,-23.0943,-70.6093,136.5837,92.5409,203.9234,95.8115,-22.5163,28.0507,-41.7276,-3.4021,55.2665,35.3337,-10.5335,-61.1138,35.9075
6.8147,-73.1755,60.6521,-38.9320,54.3815,-69.3461,157.4278,85.3960,203.4527,148.8560,1.3167,43.3363,57.9254,-0.4571,140.3392,58.0571,3.0703,-79.0894,43.9169
-4.0904,-54.0605,61.5024,-42.3020,77.2037,-19.1013,122.8943,37.6444,107.5627,90.2407,64.1974,69.6690,97.2680,14.4139,141.7258,14.8137,1.6333,-51.7169,17.0520
-15.7531,25.8364,52.3227,-8.9921,68.8937,16.7485,49.8978,-7.6859,22.4239,-15.4730,71.0502,44.1536,118.8773,-12.3634,101.9485,-32.2442,-0.2852,-3.4440,-55.3432
16.5206,-5.3267,63.8829,-18.5795,91.5908,-54.3717,-14.3180,-42.4832,2.3128,-33.4015,42.1393,5.8416,188.4365,-99.5918,88.9633,-47.7902,38.1432,-10.9480,-79.6811
50.9072,-77.1699,86.8468,-23.9903,111.4373,-126.6717,-35.0262,-59.8291,-14.7150,8.0320,46.0613,-1.9112,220.2194,-144.8624,88.0051,-35.5630,74.0740,-26.5717,-29.4089
22.4347,-37.5748,56.6828,20.8553,84.7750,-73.1242,-20.0886,-29.6473,-35.0099,10.5464,64.3235,5.0114,130.9446,-90.3873,74.4388,-14.2512,29.6109,-0.8804,26.9344
-11.6360,12.2554,-22.8615,37.6390,51.3247,29.8467,12.6832,40.0447,-18.7825,-22.2115,29.4607,22.4555,28.9898,-11.1754,57.5800,7.3907,-57.4521,25.0274,63.8814
-6.1446,-17.8581,-83.4873,0.2557,17.6423,74.0196,57.5527,89.6793,-3.6801,-40.5581,-47.7669,36.1605,14.4034,21.8772,33.7834,29.5239,-99.6642,24.5081,82.0715
-10.6354,-22.7958,-96.6578,-11.9562,-23.8630,75.5725,96.5230,80.6211,-5.0701,-42.2450,-58.1717,6.7560,12.5712,8.9003,6.7921,26.3440,-77.8905,10.8264,69.8838
-21.0535,18.6415,-64.9901,23.9996,-20.7333,66.3218,95.6945,39.2823,16.8672,-27.8140,14.7622,-15.1101,-33.2977,-16.2939,1.1650,-11.8633,-13.2028,-1.8398,56.4034
-3.1705,35.9850,-1.2099,70.4539,15.0674,52.7663,65.7296,12.5390,27.6378,12.5661,16.7133,54.7720,-62.1394,0.2667,12.0733,-19.3605,51.6493,13.8133,72.8226
2.0760,61.8649,50.8896,116.1251,29.3875,72.9193,72.3123,17.2803,9.3519,47.2290,-81.3349,148.0690,-43.6697,69.4186,25.5619,41.7861,68.8835,68.3418,100.8670
-16.4143,99.7652,68.1359,134.2477,64.1537,131.4207,119.8839,46.9065,42.1877,55.1267,-96.0137,144.5247,-11.6975,111.2245,51.1596,91.1678,49.9344,117.0767,119.9350
-11.0752,66.5373,68.9120,71.1057,114.2069,140.9373,118.7867,66.7273,97.1951,64.3449,-10.3924,66.0294,8.3433,62.7578,69.6167,63.2862,19.4546,103.8703,110.5497
5.3179,-7.3019,52.9615,-53.4747,75.6084,34.6572,44.8090,20.0874,50.7678,58.8778,14.6942,-12.3497,-5.4485,-34.0446,44.3646,10.9911,-37.7167,24.0125,46.9155
6.7279,-28.0596,30.6089,-136.2752,-7.1559,-121.6859,-10.0348,-75.6855,-41.5398,5.9722,10.9020,-63.8774,-42.8292,-107.4824,3.7009,-9.8512,-86.4373,-57.9108,-39.0185
22.1139,-9.5369,48.9875,-114.1079,-2.6510,-196.1579,-6.9873,-117.5637,-48.9991,-30.9314,48.8729,-47.9350,-41.8847,-127.3658,1.9732,-16.9750,-62.9215,-67.7900,-82.6031
40.6217,16.4855,78.8863,-28.6928,33.1654,-139.3385,-12.6200,-83.0899,-23.0342,-14.1660,-12.1736,38.2820,-8.0271,-94.9281,24.1587,-22.5066,-15.3457,-17.1118,-81.9533
18.1788,52.5228,28.2445,41.3812,-5.1427,-32.9292,-48.7581,-65.1860,-32.1020,-21.1301,-162.0479,87.2594,-22.5252,-47.6330,22.6657,-9.8203,-16.0625,15.1590,-68.5371
-18.0309,48.7006,-64.2583,59.8137,-55.7693,11.1825,-50.7933,-95.1058,3.8418,-39.3853,-155.7408,40.7352,-62.5804,-41.6591,9.1577,5.5871,-14.4373,-11.0290,-44.3890
-23.2861,-12.7494,-61.5666,42.4056,-43.0884,-12.5635,1.1080,-107.5984,95.3268,30.4158,-14.4682,-12.5623,-26.5562,-65.8690,29.5334,-6.1016,38.7214,-66.1748,-16.0362
-10.3143,-45.4383,29.2779,29.3696,-8.2671,-14.0356,34.0833,-75.7327,110.2733,107.9404,28.9759,-9.9471,49.5477,-42.9535,68.2222,-25.4099,85.7935,-89.9224,0.6431
6.8151,-24.0652,72.0810,45.7572,-2.7185,39.5567,2.5738,-26.7273,27.5217,57.0171,-3.2624,-5.6502,45.9725,35.9754,59.7508,-10.7055,92.8953,-48.4531,23.0591
34.0444,-26.0953,37.1334,78.7266,-20.8683,81.8164,-39.2554,16.3403,-19.9156,-24.9488,17.0240,-34.6656,-21.0987,79.4322,1.7031,25.4344,101.1449,15.1720,59.6326
57.8632,-50.6446,21.8001,103.6409,-28.1124,75.3631,-37.4119,26.6766,24.5872,-4.4823,35.6415,-54.0681,-55.4403,38.1873,-33.7499,26.9577,127.2461,44.8304,73.8487
62.1997,-24.6345,67.8352,107.6914,-4.1640,49.5147,-10.2137,1.4675,81.8445,50.1453,7.9693,-42.4429,-52.9312,-31.1867,-15.8687,-18.6655,152.3880,62.1260,63.0086
54.8858,28.1175,112.1443,89.2135,25.1382,17.2911,26.1757,-9.8491,82.8432,53.2928,0.8779,-31.1976,-55.2341,-62.0435,4.5358,-65.0978,166.0079,92.5781,69.0053
54.5795,35.1065,110.3079,78.1478,39.2263,-18.9012,81.0049,7.2430,43.0974,16.5214,38.4000,-27.6344,-56.1262,-41.8282,-17.9071,-85.8141,163.3212,97.0298,75.0243
67.8310,18.3988,100.4314,107.1075,60.6275,-36.8377,126.4353,6.5960,21.7966,-29.7858,82.2429,-3.3971,-40.7242,-2.9295,-57.5363,-89.9604,149.3178,62.1567,39.1913
67.8334,17.5080,111.4971,129.3311,81.9579,-37.4281,135.4560,-3.3288,50.2312,1.2306,70.5867,29.8872,-14.3535,1.8407,-52.3142,-60.5266,119.6387,25.5131,12.4040
29.4960,-7.8506,93.0426,80.7212,63.4312,-24.2234,131.7894,33.1706,88.0503,145.5015,-13.8830,20.5462,14.6500,-32.5821,8.1704,13.1161,40.4154,-4.7651,45.8288
-8.0661,-67.1713,12.1635,10.5152,12.7104,19.6535,113.1854,84.3867,78.6210,201.9516,-44.9879,-34.9323,21.8858,-46.2119,55.3740,59.5979,-72.1728,-33.8438,59.7581
7.2453,-84.6637,-55.5636,-0.6339,-37.2210,52.7630,44.2208,72.7989,32.7073,35.0663,52.6243,-79.2355,-5.6902,-20.7320,40.4147,18.6694,-122.9875,-42.2350,-13.2876
46.9293,-33.8475,-32.2829,27.4983,-63.9715,24.0428,-40.9885,17.0667,-6.7684,-130.0433,118.6214,-63.1704,-23.0986,-3.2086,5.9214,-41.6059,-73.4307,-29.8078,-87.0170
45.6977,30.7834,38.7658,51.0788,-41.4594,2.9265,-75.6973,-14.3267,-35.0334,-108.0990,61.3302,18.5086,7.0436,-0.8361,0.6313,-39.3429,4.3820,-14.2810,-72.9438
2.2613,84.0519,70.0944,69.3988,8.3070,49.8425,-68.8208,-8.0987,-58.3021,-48.3079,25.6291,109.6073,49.9346,10.9446,12.1753,-11.8288,43.0334,4.0153,-14.7968
-27.2487,115.9457,49.9120,54.4383,19.3671,69.5187,-65.2109,22.4408,-69.5386,-66.4129,65.0445,108.8911,71.7452,6.3971,23.6244,-17.9296,30.4740,15.2390,8.5696
-12.5823,72.8730,11.6654,-28.3448,-9.8905,-8.1312,-85.9062,48.8727,-84.9205,-81.6900,77.9876,-2.4889,80.0274,-36.9411,24.3358,-41.6704,-26.4963,0.5871,-29.6862
17.9955,-38.8725,-33.9729,-137.0195,-43.6651,-101.5182,-140.6762,13.1794,-121.5990,-77.0322,50.7692,-99.3410,56.4381,-78.1615,-19.5538,-59.9652,-96.3068,-26.8710,-104.9683
27.7531,-107.3636,-87.7797,-202.4611,-82.3560,-138.9126,-193.1043,-62.6014,-146.9814,-86.7511,2.5461,-89.9221,-19.4589,-83.2327,-96.5558,-69.3770,-139.9275,-41.4129,-141.1250
11.0528,-80.8907,-141.2268,-203.9299,-91.1876,-124.3130,-167.0002,-60.0193,-127.1678,-71.8351,-77.5941,-44.7853,-81.6790,-60.8085,-124.8699,-45.8563,-161.4839,-35.2031,-95.6732
-23.0931,-36.3113,-183.5804,-167.4743,-26.7255,-63.7570,-71.9705,26.8402,-85.8751,-43.9853,-102.4043,-40.1918,-50.0951,-16.6836,-73.7719,15.3800,-179.3956,-15.3549,-43.3577
-59.9714,-39.8154,-208.1622,-142.4374,33.9554,6.9899,-12.8495,70.7246,-65.7445,-49.9700,-33.3351,-35.0325,35.1884,39.9888,-13.5082,77.5855,-188.5700,-6.9659,-51.1341
-78.3398,-73.8707,-215.8359,-135.0680,5.7673,38.7622,-36.9421,55.9551,-77.7880,-42.7454,-10.4869,9.5574,67.8057,78.4948,-15.0771,125.5683,-186.6754,-23.6273,-68.4991
-65.2632,-86.0803,-197.8946,-82.8985,-47.8972,58.7937,-86.4222,75.2931,-100.1175,-15.2194,-54.7778,67.4950,27.0063,94.2932,-73.2479,163.4355,-162.0754,-33.8442,-51.7903
-11.8150,-40.9321,-126.1590,18.7467,-46.8778,99.1133,-96.1358,111.0632,-101.5433,-45.7978,-9.9377,133.4486,-17.3674,121.6046,-120.1866,170.2425,-85.6698,-17.0544,-33.1729
71.1824,28.7309,-17.5978,68.0184,-19.0078,119.2686,-60.5025,96.3490,-78.5361,-91.6890,100.7221,193.7687,-21.6918,159.6814,-102.7360,140.1301,4.3074,-2.2433,-17.1791
118.7642,48.4655,40.5826,13.9081,-5.3527,104.7874,-20.5580,84.4790,-52.8193,-47.3303,113.6859,166.3083,-4.3883,148.8217,-53.3362,109.5716,16.3648,0.3328,16.8386
88.3217,16.4484,22.0226,-78.0612,3.4323,89.0105,-8.4088,130.5208,-27.3128,37.8013,61.5264,42.8167,25.4937,71.8702,-27.1611,101.7167,-32.5928,21.1932,34.3786
46.4349,-5.3091,24.5027,-131.3980,31.5457,65.9567,-10.2356,163.9123,-0.4482,66.3984,80.2407,-31.0986,84.5688,14.5321,-8.1539,100.0039,-27.7341,64.8147,4.0530
65.7298,8.8666,106.5122,-110.7487,89.4711,31.0245,-0.2974,124.0967,2.1136,46.5973,151.2318,28.7671,149.0493,40.4755,19.2548,77.4275,47.6646,96.9525,-33.9733
111.6675,46.2368,180.4408,-37.1332,140.4445,24.0697,18.9352,59.0976,-25.0229,9.9969,178.0539,111.1934,157.4846,83.3570,6.2586,28.1297,94.4167,90.1974,-34.4650
117.4904,67.2078,148.2459,0.9267,132.3152,45.1445,29.6528,28.4064,-51.7039,-23.0084,146.5258,103.7025,98.4923,72.2801,-48.8842,-10.4254,63.5301,53.9556,-8.3192
80.6129,26.3545,42.0139,-36.3973,95.2440,57.1293,23.1448,36.7376,-68.0498,-17.3792,107.1403,49.5668,38.9317,55.5500,-66.3224,4.4295,5.8981,32.3010,13.9033
50.0070,-22.9946,-28.5292,-68.5539,96.0906,65.7268,15.0031,68.0907,-70.0235,13.8384,89.8589,32.6842,44.2804,82.9311,-22.3697,45.5455,-21.0847,48.8928,29.4422
65.2360,7.8015,-18.9335,-37.0646,118.1852,82.0909,34.7645,108.9118,-42.2574,33.0390,73.5487,50.9205,89.4518,103.9444,17.7374,54.7584,-16.8599,71.0994,52.5443
104.5037,63.0329,18.9232,18.8321,117.8556,80.8182,75.8305,141.0444,-19.7241,50.1184,53.0953,63.3072,88.3876,75.4224,10.3583,43.3330,-7.4343,69.2980,73.6888
114.6101,69.2310,53.1046,62.4120,112.3957,49.9318,94.2771,138.5751,-41.2058,59.6744,80.8296,73.6880,31.2634,31.0351,-21.5385,52.4688,9.6672,45.8817,67.7723
94.3875,90.2394,110.3580,79.1856,109.9199,3.0796,79.8332,98.0173,-48.8529,41.4649,160.5560,113.3806,3.8922,7.5720,-28.5779,64.3927,36.7012,-3.7345,43.2232
80.1407,124.0051,150.0937,45.2443,73.6972,-36.1664,63.9126,70.3630,4.2437,51.8405,197.3102,166.9021,25.4831,4.2624,6.7306,55.1738,20.2962,-58.6084,29.7408
78.1884,66.5753,83.5013,-17.0565,8.0755,-30.1551,56.7449,101.3083,42.8948,125.4795,131.6780,171.5224,16.4325,-2.5170,33.9485,56.5966,-66.4071,-56.6662,25.5464
72.9615,-14.5614,-24.5847,-55.0643,-27.3843,14.0599,40.3466,144.4249,9.8769,164.2002,31.5506,111.4521,-31.1381,-40.2431,1.8564,78.3930,-135.2726,-5.8918,6.5174
53.6908,19.6411,-17.7325,-67.9560,-3.2908,16.0917,6.0130,114.0943,-41.4859,88.7302,23.9707,54.6869,-45.7435,-94.3270,-53.4685,64.8550,-103.8097,8.9103,-33.3505
35.0924,94.7341,82.7140,-58.7157,38.6201,-51.3114,-37.4188,8.2083,-70.0204,-36.9220,144.4956,63.5951,-39.1807,-110.5044,-71.0852,0.6181,-10.2222,-25.3388,-73.5891
71.6691,104.9747,137.7513,7.2543,38.2950,-93.2183,-73.4144,-87.4779,-87.1206,-113.9442,233.6421,125.8680,-69.3406,-65.8808,-59.2006,-38.1008,84.1643,-43.4529,-82.5976
165.2418,114.3289,136.0238,102.4503,9.2177,-37.0515,-80.2079,-95.4064,-75.7291,-110.7999,129.5332,188.2705,-95.0965,14.8025,-42.3752,1.6500,159.5374,-21.0711,-46.0410
198.5707,147.5469,129.6064,136.0223,24.1351,54.6242,-39.6877,-21.9693,-21.2615,-56.2394,-22.0439,205.3087,-55.2507,82.1216,-11.1426,66.7874,168.5816,20.5765,13.0051
106.2704,122.7290,90.6694,95.6851,73.8628,85.0804,24.6309,48.7279,18.5002,-12.9973,30.6261,163.2769,0.1632,77.1487,15.8070,76.2820,80.7784,55.7439,51.8823
6.8275,52.7534,20.5790,55.3802,67.3440,55.6870,36.3680,51.5555,-19.1416,-33.3522,186.4979,90.5850,-4.1999,11.5282,-2.6845,25.1466,-16.7043,52.2926,44.3149
13.8700,26.1064,-5.5509,48.1867,7.8038,31.2759,-30.2825,10.4181,-96.3297,-102.8269,161.4614,22.4822,-52.4859,-16.9352,-40.7576,-17.2828,-23.4388,8.7303,6.2958
68.0492,53.6897,9.3454,37.9843,-15.0357,25.5476,-76.6403,-27.1738,-109.0957,-133.1522,-24.9912,-34.5518,-83.4477,8.7885,-37.5067,3.8552,26.2191,-36.7826,-15.7214
70.4254,83.3021,-0.1290,-1.1095,-1.1399,3.6561,-29.8483,-61.4283,-37.2281,-63.1303,-140.7823,-71.0282,-73.5388,-7.8656,-0.8613,47.1559,44.0283,-71.2625,-13.1424
22.9202,68.8447,-13.9511,-41.6761,-11.9867,-34.1990,25.1800,-99.2640,20.1354,16.8105,-111.2262,-61.9477,-46.9373,-68.2028,18.3677,26.9798,32.3051,-96.5966,-35.0442
-18.4035,28.2138,24.2674,-40.1001,-27.6117,-63.6358,7.3693,-119.4849,8.6547,-17.2003,-19.2825,-20.3632,-31.9628,-70.0971,15.3586,-34.7833,50.1548,-81.7730,-89.7788
-6.4480,49.8696,94.6777,4.1576,6.3529,-89.1173,-18.6748,-114.2870,-6.7740,-88.0586,46.1591,5.6902,-14.4912,-35.1761,18.5566,-37.2179,106.7584,-23.2440,-116.6622
67.5414,133.9214,146.5459,49.2338,71.4948,-104.3258,5.0607,-106.1363,5.9334,-61.2063,30.4614,-1.9276,22.4333,-75.1593,25.8176,-2.3697,158.0564,27.2306,-100.2698
137.2075,148.8233,156.0959,72.4843,107.7897,-66.8251,21.8525,-103.2006,-3.4808,-13.0945,-39.1117,-30.9041,24.0791,-148.0800,8.7300,-29.3566,172.5108,58.3510,-78.3494
118.2504,73.4553,117.6780,90.7655,91.4467,29.3172,-5.9841,-73.8313,-28.2549,-32.2918,-68.1095,-68.6893,-54.5942,-105.3791,-29.5941,-61.0269,160.5527,104.5252,-34.6229
37.8434,44.4015,58.1688,115.5585,61.2597,132.8237,-27.0351,0.8621,-12.5638,-19.0586,-20.1555,-83.8479,-122.2437,51.9557,-37.9226,9.0677,150.1558,144.5690,55.4928
14.9437,98.7665,24.2292,135.9843,69.8641,201.1474,-2.9431,64.4906,24.8332,45.1738,47.7741,-40.9162,-73.8345,173.1433,13.4904,86.1223,149.5752,129.2672,124.3472
76.8917,140.1409,26.1938,146.3931,95.1849,221.2166,32.4672,52.3462,39.9316,39.5911,65.2845,29.2740,16.7455,178.3020,69.3776,50.6862,138.8731,85.1022,112.0194
105.8860,123.4694,44.7661,154.8309,69.5466,197.3999,25.1311,8.2111,40.9138,7.6362,22.8418,47.6633,13.5981,124.5356,56.2529,-2.4384,101.9308,71.0145,71.1161
30.8792,65.2276,55.6996,162.8795,-0.3202,155.6165,-28.0253,4.5534,24.0282,47.6171,-16.8403,0.3813,-62.0557,78.4056,-5.2747,15.8962,51.8666,76.5960,52.1793
-56.3026,-11.0310,25.7295,148.4060,-53.6422,111.2240,-72.0727,-6.5276,-24.1949,47.7327,-8.7832,-41.9454,-100.2886,41.3804,-29.3177,11.0038,7.9495,53.8603,13.8825
-68.6493,-45.8933,-34.5252,84.4334,-79.1816,49.3233,-73.4479,-87.3336,-53.0283,-60.6610,14.6986,-39.0059,-77.8172,-2.2964,9.6902,-58.1615,-25.4918,-1.6876,-69.9183
-54.8273,-4.0249,-57.3499,-3.0457,-96.8594,-23.1849,-67.9148,-161.0468,-23.8302,-124.3827,26.2991,-28.6282,-43.0149,-41.9884,48.1338,-84.3895,-37.7756,-57.6769,-148.0840
-67.0642,51.5802,-32.7975,-33.7437,-103.6282,-72.9385,-89.0181,-150.5118,-0.6003,-78.4017,16.9428,-34.4752,-30.0393,-59.1017,30.4803,-42.8309,-13.9142,-84.1167,-183.0648
-75.7247,49.8658,-16.6319,19.6759,-93.1651,-100.3184,-111.8057,-119.8591,-47.7160,-30.1845,-54.9078,-31.9979,-40.6805,-58.2945,-16.4506,-24.0912,26.1787,-68.1825,-187.9984
-71.5669,10.0219,-7.6981,83.0881,-68.2082,-109.0772,-99.7872,-119.8011,-122.5455,-10.6289,-136.3170,-29.8092,-46.0436,-50.8795,-38.2148,-39.2695,42.5470,-22.9444,-158.2891
-65.6684,0.3901,8.9905,94.2232,-30.9057,-53.9154,-42.4298,-77.7920,-135.7904,24.7020,-80.5191,-54.3344,-22.2439,-11.0420,-36.2871,-13.7443,30.5094,28.9820,-66.7840
-17.2543,39.9160,-26.5766,75.9791,8.7641,63.9225,45.6487,34.6372,-61.7719,67.2957,49.0915,-56.7585,4.1112,82.3250,-32.2253,55.8688,16.0083,76.9334,55.3211
64.5908,63.2939,-108.2146,58.4555,35.2084,133.1410,113.4224,112.4966,23.1295,98.7797,45.0079,9.1074,3.1563,163.4418,-13.5899,86.9954,14.0550,97.1281,111.6845
76.6016,20.2513,-104.4475,32.4965,37.2398,85.8191,111.8384,85.1673,22.2418,111.3882,-22.5303,63.4351,-6.4424,159.0782,4.7288,54.7328,15.1456,57.4360,55.6629
14.4059,-25.6808,1.5301,-0.7190,18.3054,1.5542,64.1462,14.6438,-41.7913,86.1021,32.0340,20.7218,-4.1151,112.3330,-21.0380,41.1814,-6.4360,-11.8972,-36.8609
12.3956,0.3527,49.7259,-19.3926,5.9085,-34.8565,31.1395,-30.1180,-60.1360,37.5465,82.2461,-55.2350,9.7278,81.0895,-47.1526,83.4807,-54.8458,-39.2686,-63.8817
106.4646,50.7790,-15.2389,-23.6501,14.3369,-41.4261,26.7113,-52.5906,-20.6727,1.6019,-12.1496,-68.4010,43.7500,34.5524,2.6801,104.2979,-91.7022,-21.2928,-17.4713
167.4957,41.0022,-61.0300,-42.4691,22.5168,-40.2382,32.0364,-37.2645,-1.7958,0.4504,-50.4461,-48.0540,85.0960,-4.9055,70.8245,86.9214,-108.4715,-0.2786,54.4678
111.9022,-21.5269,-24.6165,-92.1673,26.3273,-6.9628,37.9424,59.6223,-11.8986,56.9393,84.5589,-62.6200,83.2309,58.1877,58.9489,111.7372,-150.7438,25.0319,120.7219
15.3772,-66.0674,-3.1923,-132.3948,26.6545,32.0719,24.9640,169.8551,-16.7598,131.3602,162.8245,-80.0708,28.9016,166.4328,2.3671,146.3450,-193.2440,44.2461,136.7035
-2.6848,-37.9270,-37.6974,-97.8410,-14.5993,7.9202,-26.8943,152.4180,-46.7149,117.9859,69.2254,-23.7184,-19.1465,160.1233,-26.8448,89.2373,-143.9042,4.1302,66.8803
63.2934,44.7738,-39.1910,-3.7120,-78.6728,-56.9942,-89.8123,27.2599,-111.7439,24.1669,-23.7493,79.0852,-19.7321,66.7719,-38.1751,8.8949,-45.0113,-67.7121,-24.4811
97.0979,87.7204,-8.2374,52.5061,-78.9984,-70.8086,-118.6468,-43.4556,-134.6511,-27.7965,-38.2013,107.4411,-9.1071,28.2911,-47.6749,19.5979,-41.8362,-78.4690,-46.3667
41.9884,48.1941,-80.3501,30.8733,-56.6146,-34.7663,-118.7726,-27.0180,-85.4530,-17.0474,-60.3024,32.4060,-58.1095,32.6774,-54.8041,53.3041,-120.5583,-49.6869,-23.1865
1.6419,9.7750,-233.5945,-13.6212,-138.2576,-42.7571,-126.5548,-43.2354,-40.0629,-17.1185,-94.8156,-25.7152,-163.4278,-11.5706,-79.9432,20.9687,-146.7713,-75.2433,-29.7834
39.9827,24.4072,-244.9516,-42.4153,-260.9062,-119.3294,-140.2902,-129.2564,-46.9847,-35.5189,-91.3807,2.8962,-212.1682,-86.8801,-104.8106,-31.9170,-118.6407,-128.5462,-66.4371
41.5865,24.0597,-80.4188,-54.9727,-253.6723,-178.4762,-116.7350,-187.8445,-66.8651,-35.8404,-71.2584,41.0876,-136.9586,-120.5228,-89.5723,-65.3747,-113.3457,-111.5610,-95.9442
-49.6927,-8.5141,33.5243,-20.1965,-128.3442,-144.8798,-41.8234,-146.4436,-63.7923,-3.4191,-46.5846,43.2768,-28.4231,-84.2019,-67.1843,-79.6877,-100.9221,-19.2128,-96.0091
-78.4305,10.1067,38.7068,80.6926,-2.0595,-38.5385,28.5626,-39.8943,-52.4737,58.7163,22.3027,60.6822,36.3770,-4.6209,-65.3762,-38.5697,-32.2890,80.2013,-49.1485
37.4345,69.5374,107.1503,168.5933,97.5081,60.7971,37.1920,47.1927,-44.6711,100.3525,106.2738,84.4471,108.9658,50.5265,-39.3294,44.1327,40.2715,132.2895,23.2828
136.0917,63.4186,234.0379,138.5311,163.4598,96.3063,10.4176,77.3661,-28.0099,67.8102,95.3640,49.7672,178.0466,55.8269,-0.3315,91.9587,60.4440,116.9526,63.2664
102.6512,8.6015,237.6731,9.1856,154.5878,66.2576,4.1416,71.3585,-18.7464,-3.7776,-20.6931,-12.2440,130.9948,60.4309,-15.3787,95.4977,44.0828,54.2896,47.6271
44.3429,10.9226,130.1466,-80.8173,71.8291,-10.3217,-7.0340,17.5689,-61.1329,-61.7001,-81.1362,-14.9037,9.6746,66.0662,-56.1796,68.3922,30.3246,-20.1223,-22.4978
50.3975,43.8705,82.6546,-38.8537,-37.2491,-95.8845,-75.5120,-108.7090,-132.3735,-105.8059,19.2152,49.8988,-14.7283,32.7253,-58.6132,-13.2320,48.8456,-80.2782,-135.3584
61.4211,23.6265,122.6252,80.6882,-97.2405,-109.4762,-138.0968,-216.9442,-137.9667,-115.0260,131.7806,124.7081,53.2886,19.0114,-39.9084,-94.4189,93.9886,-83.4276,-195.9493
43.7393,10.5058,140.1813,171.5541,-47.3413,-13.8365,-77.0425,-185.5984,-57.7007,-70.0862,61.6543,162.6463,66.2690,84.9252,-18.2162,-86.3043,119.5365,-12.3249,-104.3641
38.7376,74.3248,74.9192,202.5522,25.2601,94.3187,67.6091,-61.8990,18.2400,-19.1378,-120.1626,166.7361,-4.9896,141.0633,6.2762,-35.8505,119.7390,58.9338,54.2456
38.0171,118.3985,-27.5304,200.5001,-41.0046,113.9813,114.0754,22.6022,39.0456,21.3057,-191.6812,172.8760,-93.7964,110.5665,-18.6471,-17.1411,137.3427,70.6726,104.2133
13.9397,75.0446,-70.2803,178.5527,-197.8585,78.6807,12.1346,40.8503,36.6070,79.6905,-116.2589,163.4709,-162.4485,52.4574,-91.4803,4.3508,150.9197,58.4099,31.7674
3.4483,46.2083,-24.0333,127.6820,-244.4728,37.9430,-81.8062,13.9956,16.5539,96.8681,-42.4805,78.5977,-159.7292,0.9307,-110.2655,27.5264,94.1091,28.9645,-50.1285
17.3859,67.5429,27.4753,39.5049,-155.4143,-36.0789,-66.4189,-60.4215,-37.8014,8.8750,-43.8872,-43.6365,-53.3234,-64.8285,-61.7402,-20.1631,-10.2173,-41.9044,-87.9928
-4.3237,26.5912,31.9291,-59.0735,-60.9791,-115.4407,-24.7502,-130.3278,-88.0434,-92.0690,-55.6830,-104.0903,64.3020,-93.2425,-38.8519,-104.6265,-78.2242,-70.8781,-99.2588
-67.6080,-73.6876,34.1570,-100.8305,-14.7702,-105.2473,-33.9621,-123.3860,-101.3898,-93.2890,-32.9552,-113.9263,87.4824,-46.9389,-56.0462,-122.9827,-86.8692,8.5476,-111.3175
-101.7329,-87.5571,43.1159,-75.8206,-10.2603,-28.9977,-67.3511,-65.8878,-109.6081,-33.3902,-20.4976,-133.5032,47.6453,-6.0793,-69.8328,-84.6095,-68.8483,78.6646,-137.6250
-75.6471,-3.6154,22.1992,-80.0935,-50.9107,-16.1096,-105.2998,-36.6535,-117.1070,-1.6983,-66.1483,-140.4715,17.3350,-25.6233,-81.2554,-68.1296,-59.3692,37.2068,-151.3686
-22.5060,34.0228,-9.1991,-162.0849,-85.0535,-100.3944,-141.2600,-62.2172,-79.0581,-6.1416,-150.3037,-119.1269,-3.1923,-59.5380,-75.7722,-92.7379,-87.2727,-35.1383,-135.1268
2.8013,-26.8632,-42.6333,-222.5448,-57.2060,-185.6463,-132.8362,-111.3584,-22.9642,-10.8669,-196.2207,-103.8084,-21.0064,-72.5147,-30.6943,-130.3005,-144.2967,-54.3009,-139.5968
-52.8157,-88.7619,-120.4713,-169.1594,-25.1587,-173.7976,-88.8609,-129.4251,-29.9285,-15.2952,-129.8875,-72.9894,-14.3738,-58.9167,3.8026,-155.4017,-170.1862,-33.6774,-177.3082
-157.6891,-77.8513,-190.2758,-36.4076,-63.4700,-54.2055,-66.3093,-91.3513,-75.5197,-44.1485,14.4281,5.4341,6.7230,3.9158,-6.0984,-155.0913,-113.5064,13.3170,-161.9946
-176.3838,-38.6423,-133.1963,104.1548,-128.0410,92.1007,-52.2197,-30.5906,-67.6565,-71.4264,80.9842,86.8083,13.0234,107.1146,-16.9331,-129.7053,11.7753,65.8532,-75.7632
-59.2418,-24.0824,16.7444,213.6023,-138.1805,183.2009,-38.1127,30.5538,-31.7603,-34.6156,2.2480,141.4865,13.9197,196.6803,-21.6339,-84.1646,129.7996,88.7094,-19.7527
57.7885,13.3498,111.1174,264.7291,-88.4766,226.2062,-86.7320,107.0332,-60.4597,43.7720,-72.0186,178.0585,29.2238,234.4744,-47.2655,-37.6626,163.8562,116.0257,-21.8443
50.6878,102.0125,116.0086,252.8238,-6.5463,246.5796,-150.3873,165.3772,-110.9628,76.1225,-13.9362,164.5846,42.6986,204.1261,-61.8028,-34.5681,123.5558,173.3954,-9.6979
-35.4986,129.3566,111.1790,199.4394,92.7479,208.0790,-92.8110,144.4803,-71.9090,57.9799,82.3975,107.0004,38.8512,116.1814,-41.5738,-86.5004,87.9959,179.9986,20.2098
-90.2387,38.6414,128.9147,126.3650,162.5399,108.7802,25.9819,72.3230,13.2906,37.7831,93.5568,82.7492,41.5603,41.2779,-21.8794,-130.1761,82.3592,98.8210,13.3178
-73.0580,-20.7993,132.9785,63.4181,133.4443,25.8676,40.5097,24.0823,18.2805,2.5095,38.2364,79.0970,63.0217,36.8075,-15.3971,-114.0385,72.8635,17.5483,-24.7786
-26.2228,33.7922,111.1398,32.5675,19.4443,-17.1537,-12.4643,-4.0470,-32.1819,-58.2113,-27.4363,24.0476,59.5613,51.2939,-19.7086,-93.0942,71.6585,-21.5344,-69.9712
-16.1880,56.6895,90.9229,14.0702,-73.8430,-70.6230,-25.5625,-66.0012,-21.2894,-91.4966,-69.2970,-24.4584,2.0763,7.0417,-51.8894,-154.6928,103.9296,-67.4843,-128.7583
-49.0035,-19.3169,59.7952,0.5610,-101.0380,-119.7180,-44.7571,-144.6319,42.2020,-67.7899,-69.5629,13.4572,-60.1067,-62.6964,-80.9886,-253.7482,124.3186,-125.5959,-169.3062
-60.6449,-50.7949,-32.3789,24.6573,-143.4121,-94.4666,-114.6708,-144.9978,62.8476,-16.8822,-96.9147,63.8271,-82.5199,-58.3366,-73.9018,-238.6239,102.5521,-151.3971,-136.9887
-23.0951,19.5833,-140.8702,73.8545,-256.0435,-14.3748,-186.5269,-36.1103,30.2402,15.7312,-199.0702,56.8950,-102.1522,31.9851,-93.4902,-96.3458,89.8656,-136.2881,-58.2490
15.3909,76.6581,-143.2706,94.0184,-348.5601,22.6471,-243.6058,61.7173,-1.4744,0.3391,-232.7267,55.4003,-145.8369,105.8061,-164.7019,-3.7487,100.7013,-113.0313,-16.5682
16.5400,55.4603,-65.7449,78.2754,-316.8332,-16.6374,-268.4414,30.4204,-15.1458,-36.5253,-97.7992,83.1890,-163.5357,85.3346,-186.9436,-41.3392,64.9043,-122.8544,-47.9125
-13.3833,-20.7419,-73.0145,32.2825,-207.0412,-76.0931,-215.4670,-71.3596,-11.0490,-46.9756,22.0493,60.6254,-133.3893,15.6210,-135.7433,-89.1905,-42.2411,-166.4081,-121.8214
-65.9656,-125.0874,-171.4363,-60.0600,-128.6450,-119.6180,-137.6308,-124.0772,25.4440,-48.5710,-28.5124,-27.7668,-106.6707,-30.1280,-113.5134,-87.2481,-149.4882,-186.5074,-178.8560
-134.6719,-195.7110,-205.0039,-155.6025,-85.8003,-168.4222,-105.5630,-122.6282,79.9511,-53.6722,-121.5051,-105.9917,-97.6463,-68.0428,-130.3265,-105.7534,-187.0457,-161.0226,-172.4243
-195.9601,-183.3704,-148.4321,-187.8539,-31.5137,-213.0959,-71.8262,-104.9083,108.6106,-6.2877,-140.1311,-144.3184,-70.1019,-128.3263,-104.0058,-132.9983,-148.1487,-137.4377,-115.7614
-212.3434,-149.8818,-98.6413,-187.4763,2.2502,-203.6834,-32.1021,-72.2663,104.5031,71.7138,-149.6706,-171.2624,-39.4003,-159.5627,-50.1881,-101.1619,-75.9665,-128.0180,-71.0031
-160.3343,-157.6078,-61.6444,-211.8996,-23.9014,-166.2062,-67.8888,-56.0446,98.1475,73.5839,-166.0249,-183.1413,-49.7621,-132.9360,-39.9762,-63.2419,-35.7370,-112.8218,-74.4865
-87.7837,-170.6910,-27.0521,-238.0088,-64.1255,-182.5934,-132.8032,-86.6939,93.2048,17.6360,-131.0656,-153.8716,-88.0001,-114.5360,-62.9960,-83.6641,-59.3702,-129.2475,-102.2492
-88.5453,-175.1567,-79.1276,-228.1281,-94.6633,-222.9838,-132.6383,-114.7612,74.4417,11.7240,-104.9826,-99.7253,-125.5373,-118.8670,-76.6417,-95.0378,-100.2776,-190.6879,-105.7053
-148.6756,-193.5785,-213.3906,-173.6960,-172.1186,-179.9525,-129.6221,-98.2836,65.5082,53.8637,-181.1639,-59.0802,-169.2401,-72.6067,-78.8442,-45.3235,-84.5800,-216.1393,-67.3120
-138.7964,-162.4529,-273.6878,-75.0215,-297.4138,-73.4260,-174.3403,-71.5056,94.8520,81.8439,-300.2911,-45.7059,-214.6055,-8.9536,-84.2985,-11.8700,-14.1894,-176.8297,-28.9869
-40.0216,-44.9671,-207.3530,6.1445,-373.2117,-21.7494,-176.7024,-62.5677,130.6768,87.7908,-337.5540,-58.8193,-232.0773,-46.7481,-103.1197,-57.2491,21.0511,-141.7116,-33.9310
5.8920,25.8783,-136.5977,-9.6792,-324.6131,-38.8670,-91.7120,-58.2891,137.8884,85.5694,-265.6304,-80.7368,-197.3866,-136.8417,-120.3486,-115.0688,-44.7122,-118.6465,-51.4624
-62.4571,-34.6024,-131.7588,-70.5053,-161.2063,-43.7235,35.2164,-42.2084,141.0178,92.5491,-147.3271,-73.6737,-95.3148,-129.5442,-96.6909,-95.4413,-160.7067,-59.5047,-41.7946
-138.9048,-95.6721,-138.1920,-68.5702,31.9069,-10.5061,159.6257,-0.2629,147.7668,104.7222,-57.1855,-51.6217,38.7720,-56.2170,-39.0989,-24.2368,-216.6875,3.7830,-30.6409
-134.7910,-64.6391,-111.9603,-25.5482,145.4524,30.8650,213.1070,60.8523,122.2304,74.3856,-45.8949,-78.5440,107.9251,-34.5673,-1.6686,10.5271,-173.4814,24.6983,-5.9836
-73.7261,-33.6218,-68.9973,-26.4356,172.8790,68.9384,187.2094,115.2602,93.4528,33.6866,-118.4690,-141.7811,87.9608,-40.7658,10.2795,12.7320,-95.8218,47.4999,110.2718
-8.2491,-47.3237,-43.3969,-85.2563,200.8182,89.2969,204.1998,166.3339,120.8482,80.4644,-206.6410,-185.0527,66.9819,-48.9798,27.8630,35.6625,-66.2405,97.7168,267.0547
31.8775,-36.4316,-66.9302,-182.5942,219.6324,38.5746,270.0311,200.8249,142.2250,146.6148,-219.7128,-249.4432,64.6420,-141.4416,31.8678,34.9318,-107.5095,100.3126,286.6965
33.2551,-14.3454,-141.2257,-290.1726,143.4896,-113.3178,218.2345,145.2424,68.6118,97.2707,-170.9111,-355.2199,10.2516,-284.6581,-5.3793,-31.6717,-191.8359,9.4270,151.2088
6.6539,-50.3992,-229.7209,-347.7071,11.5426,-285.9632,53.3049,1.7042,-28.4695,19.2552,-150.7902,-370.3148,-59.4891,-313.7710,-47.5008,-66.9064,-276.7987,-106.4045,18.6476
-12.4838,-107.5804,-290.4625,-325.4060,-82.0960,-337.2681,-55.2802,-105.5326,-48.9546,29.2427,-148.3808,-237.2034,-44.7210,-212.3347,-53.3223,-9.4925,-301.1071,-167.8667,-55.4365
21.2395,-107.6854,-275.1736,-242.0883,-167.0857,-234.7011,-113.5687,-123.3735,-52.3651,20.4473,-90.1513,-96.0202,-3.7910,-99.2108,-48.8010,47.6158,-209.0193,-175.4040,-136.1677
126.7812,-34.4761,-154.6030,-107.9641,-283.7391,-92.7626,-223.1083,-122.2356,-114.7133,-76.2756,-31.3745,-19.6052,-59.2096,-5.7692,-87.5924,56.5141,-43.2243,-160.0843,-214.8123
239.7314,88.7163,2.0345,43.2708,-349.4145,5.4025,-325.0370,-123.9199,-181.1803,-142.2737,-44.1396,57.8408,-156.3678,87.2851,-163.1495,73.3912,69.6130,-114.1239,-224.2199
251.8244,185.4311,96.0262,141.2215,-284.4221,90.8885,-325.0224,-77.9527,-195.4434,-138.4893,-28.6910,121.4100,-147.0847,142.0991,-192.3014,97.1605,90.1518,-21.7106,-156.1888
159.0709,172.3897,149.5983,175.1591,-127.8228,170.3293,-247.6070,9.6563,-180.1393,-130.9679,90.4452,112.5670,-25.5741,132.5757,-131.2549,96.4480,100.4672,75.9104,-55.3022
84.7675,103.1032,222.5475,185.4440,18.2991,187.4095,-149.5335,76.1105,-150.1591,-99.1100,197.3515,83.4082,82.1780,87.6014,-62.9734,96.0733,137.2360,119.4817,18.5383
108.8420,82.4765,276.4971,173.0886,91.0597,161.3330,-63.4688,97.6648,-110.2586,-27.1312,213.3922,81.6769,110.8488,53.7247,-56.7000,96.2298,162.8423,126.2404,38.3678
171.8216,82.4767,296.1371,141.7071,129.4539,173.6083,5.4599,112.8300,-85.2584,12.0493,204.3436,74.8482,131.5196,65.6413,-36.9123,87.3517,189.3013,163.1692,58.2554
184.3916,62.0263,343.6901,137.7701,198.9617,210.4858,81.8550,155.0933,-62.9125,10.0802,188.5813,68.4753,206.3529,92.6823,49.1981,118.9326,248.0445,233.5375,115.8111
137.0933,76.5954,368.9541,170.7131,256.4645,193.9789,137.6044,186.0654,-23.7110,20.0665,129.4330,89.8265,257.2993,77.3574,101.4003,170.7542,297.2794,280.3403,141.8577
68.2979,96.4093,257.1457,207.5961,235.1731,138.5448,117.5416,157.3991,-10.4017,31.1231,63.6481,110.8553,215.1167,62.7618,71.1801,144.2562,296.9894,288.1467,96.5912
-1.5450,18.6830,94.8343,239.0278,188.4110,122.2118,79.9053,115.0554,-27.4247,29.5595,29.2670,122.9006,175.3315,113.3105,64.5213,80.7537,275.5626,284.4489,56.9522
-63.6685,-89.8094,57.6590,260.7062,159.6644,152.9281,98.6022,118.6849,0.0588,40.6027,2.0748,150.7113,194.7964,171.0801,110.4049,103.3368,265.7248,263.2077,67.5383
-91.3241,-95.7988,112.7473,261.6490,82.3098,185.9887,106.7195,127.7263,53.9631,39.5083,-18.1151,173.4135,145.9481,186.9310,100.6447,169.5510,271.7484,207.0513,76.6191
-70.2661,-42.4345,125.4762,254.3009,-40.4962,213.1115,45.7298,107.1066,31.1016,-6.6374,-5.8370,166.8766,5.6653,210.9324,26.9099,165.6447,268.1353,157.3987,52.6792
-46.4411,-15.8777,96.3351,243.6595,-97.3582,248.0565,-10.8500,112.3723,-33.0932,-44.5419,29.2317,153.6613,-29.7594,235.5823,5.6892,114.0943,200.2374,165.4542,24.0523
-75.9923,3.4959,87.7788,219.4120,-70.1517,282.3205,1.6199,163.8401,-18.8427,-16.4555,47.1202,145.5240,83.7527,212.9120,61.7519,88.1751,80.2373,201.4088,30.0107
-131.4873,8.2620,97.4799,192.4141,-40.4145,301.5088,64.7491,205.8444,38.9858,46.2920,-3.4031,128.8541,137.6614,193.7056,107.2996,89.3295,4.2480,202.7779,86.3620
-142.0656,-40.1356,97.0947,151.3246,-36.1595,297.8528,129.0609,224.7287,31.3740,82.4756,-95.6363,94.9291,59.8101,205.2591,99.1536,91.8341,-16.8222,179.4173,153.6232
-111.7630,-81.8505,76.5619,66.9180,-35.9030,265.0816,138.7567,246.6054,-13.1016,83.8065,-76.8496,47.8604,14.8015,180.3038,73.9201,84.9742,-52.3034,179.6395,181.7938
-90.7492,-64.3503,53.7996,-1.1914,-28.2870,219.2357,105.3000,255.9233,-10.5539,83.7112,82.3373,25.3817,80.2838,127.3314,72.0255,75.3607,-70.6905,190.6915,190.9670
-70.2325,-52.5920,50.7780,18.3924,-9.1748,185.0707,102.0628,223.5236,21.4454,84.7675,146.8102,52.8688,140.6716,98.2796,86.3229,68.8261,-35.0842,165.0523,197.6542
-36.2214,-82.0313,17.8446,46.7039,-3.5148,142.1188,97.8914,150.8693,20.4387,45.4706,-1.5332,72.9534,96.8474,54.6986,71.5807,30.8574,-56.0592,107.3008,147.3102
-47.4087,-86.2895,-102.7796,-7.8716,-47.9506,59.7934,13.4571,62.0001,-22.1464,-27.4593,-138.8439,44.6281,-9.3381,2.8643,18.2473,-48.5154,-169.7236,51.9793,47.8771
-116.8574,-37.5984,-221.7074,-76.3040,-123.2968,-25.5172,-66.6221,-4.1135,-60.9380,-58.8255,-101.6953,21.0551,-83.3724,18.1999,-18.1479,-87.0881,-216.0590,0.2837,-0.6574
-138.1827,5.3620,-212.9792,-85.2866,-185.0193,-62.2499,-36.5803,-27.8616,-47.7026,-33.1374,-30.8569,21.8475,-116.2052,45.8018,-12.5186,-47.6852,-140.6172,-50.3194,11.0107
-65.3286,1.8040,-135.5819,-81.4913,-222.8186,-66.1817,20.9697,-29.7111,-2.9768,-24.7486,-66.9235,11.7249,-162.1628,0.7852,-9.7143,-17.3199,-88.3273,-75.5309,-3.4710
-9.8344,-16.5980,-134.2291,-101.0226,-238.3924,-73.5611,18.8021,-23.8230,0.8270,-58.7246,-164.9204,7.9532,-191.0696,-43.7034,-20.1972,-38.8220,-128.2296,-78.7521,-56.8865
-48.5737,-1.9877,-217.8724,-130.7481,-234.4444,-89.5667,3.0354,-14.8936,-35.9001,-75.3655,-229.1142,4.7664,-133.7141,-43.3059,-1.0740,-59.6517,-196.4714,-95.0074,-89.8209
-109.9519,22.3689,-286.3643,-181.3871,-218.7303,-115.2508,-2.9606,-27.0984,-41.8009,-52.1258,-200.3464,-60.6150,-62.8822,-76.1062,33.4030,-66.6687,-242.4836,-111.8496,-62.7892
-123.1663,-20.6366,-274.5994,-245.1249,-179.8883,-131.7147,-15.2875,-43.4154,-8.6657,-34.2827,-102.0212,-143.7774,-88.1636,-118.2965,22.4615,-65.9625,-233.1244,-85.1853,31.0699
-109.6707,-121.8237,-217.9737,-283.0262,-122.7227,-87.0716,-1.6755,5.8801,17.8446,-28.8488,-57.2222,-153.3332,-146.6530,-67.3236,-23.0417,-19.1228,-174.8320,-28.7981,140.9244
-96.0133,-159.4120,-216.7927,-289.2453,-95.8722,15.7264,33.0993,118.2089,34.4188,19.5567,-123.5337,-129.1281,-145.9771,43.4651,-42.7732,58.3431,-156.0647,17.5511,184.6130
-67.2469,-69.9492,-293.2852,-245.8267,-96.6148,98.1454,46.8383,202.1099,46.6054,105.9299,-188.3445,-104.1925,-134.8957,115.6017,-34.8055,95.8870,-187.7010,62.4256,169.4019
-4.8775,71.3684,-338.8341,-118.9017,-47.5792,114.9585,76.4526,204.4447,39.2739,128.0169,-132.8988,-28.4650,-132.8530,122.0489,-29.9690,89.2747,-153.5294,108.9125,159.4078
86.0422,175.6823,-287.8654,21.7899,63.8279,89.5732,145.3092,145.0665,31.1059,51.7469,17.7426,41.4595,-55.0415,78.6841,-9.4489,63.9217,-43.0616,120.5131,140.5807
161.1420,224.9189,-202.4175,76.4681,147.8555,63.4431,173.0597,73.2336,36.0821,-12.5817,137.3947,34.3417,74.3392,39.8249,48.5815,15.7376,30.0643,106.5889,79.9003
170.2640,223.7113,-136.2567,82.7277,136.8301,71.3169,126.1913,40.1007,15.8001,3.1436,135.5701,50.3047,114.8105,51.2358,91.5138,-17.8455,55.9727,109.8762,18.5729
144.2222,180.3288,-93.3627,99.2356,57.7222,95.4564,67.0350,39.3859,-24.4198,20.6011,76.5371,119.8526,48.9125,58.7528,68.7204,7.1672,96.0435,98.3084,-13.4474
166.0316,139.7386,-85.0957,77.6224,-5.4692,66.8122,32.6897,15.9238,-16.2084,-18.8410,78.9423,111.7160,1.6233,30.3576,38.0079,44.3433,123.8385,26.2223,-35.9612
229.3096,147.1924,-87.9754,17.0716,-1.1024,-3.4875,37.5706,-15.8939,38.0122,-57.9345,98.0494,57.7690,44.5341,42.7328,77.4110,45.3246,108.0278,-45.2368,-46.1961
246.9490,176.5750,-57.4436,6.3172,32.9794,-23.4303,92.5187,7.2045,67.6504,-40.0898,49.5524,86.8689,120.1964,85.2170,142.8754,35.7864,85.7545,-45.2025,-35.0481
204.2511,165.4005,-21.9531,32.1244,41.8372,-4.6418,136.4021,59.9262,63.8472,14.4067,40.4332,98.1610,131.0736,48.5616,139.6521,26.0823,66.1778,-13.6388,-16.4337
169.0584,114.1966,-20.7083,-1.9190,35.7809,-28.2779,114.9209,81.4952,67.8541,49.1911,140.3526,-15.1204,55.6496,-28.5731,73.0107,10.1728,31.4486,-0.8548,19.1408
165.1041,78.4582,-29.0101,-90.9486,34.2072,-49.1519,95.8887,96.7278,86.8295,40.5350,180.4822,-102.9427,-24.9148,-23.0253,15.3643,32.3252,-2.6267,18.2527,79.3568
155.5916,81.4943,-47.6277,-161.9598,27.5043,4.8875,147.2285,135.6591,107.6580,45.9803,85.8859,-60.6890,-31.5041,37.5010,-1.5790,99.2562,-40.8623,49.5086,128.8625
130.8352,107.9288,-98.0464,-185.8557,30.1006,52.2760,220.0993,158.3712,122.3404,121.5522,21.4243,7.9139,19.8319,63.4889,10.9025,127.2149,-104.7890,42.7617,153.9116
119.8419,142.1145,-124.5847,-153.8854,50.2817,9.1781,250.7041,145.9371,119.6591,195.2876,50.0904,40.2200,64.1185,50.7665,26.4340,76.0284,-149.2318,-12.3959,165.1435
130.3634,162.4893,-84.9437,-77.7583,48.0849,-62.1264,239.4332,128.0237,107.2804,178.9742,85.9430,52.3851,71.5531,14.6950,22.5054,7.7951,-123.2796,-66.9503,133.6715
138.1407,156.9593,-35.8174,-21.9632,17.4628,-99.1451,215.3830,111.3459,113.1385,136.5235,131.0794,29.9273,56.1137,-27.9725,22.3809,-15.6313,-62.8517,-88.2456,59.9691
128.3609,143.8316,-14.5962,-29.1827,-4.3260,-124.8851,210.8465,87.9284,134.8608,147.0239,178.1877,4.2571,35.1095,-35.1299,56.1489,7.1519,-21.9332,-87.0063,17.6533
115.0350,128.0434,-5.0622,-64.6661,-27.4458,-145.6914,215.2354,65.6824,128.6306,144.7998,131.4056,29.0728,6.8861,-16.5748,80.8614,38.0937,-6.6881,-84.2336,15.9009
118.1792,104.2966,-16.1683,-75.5716,-65.2725,-133.9077,151.2566,38.8226,66.6925,69.0294,47.2484,65.4446,-19.5357,-10.7582,51.8085,39.8855,-9.3222,-80.7788,-24.5910
135.1457,111.5711,-25.3469,-38.7587,-69.2475,-85.4673,-5.9574,-2.3856,-18.3447,-11.3339,86.0142,82.4619,-11.3675,10.5361,9.9934,23.5062,-8.9697,-60.3391,-105.8261
144.9478,166.2398,40.2942,28.1505,-22.2230,-21.0821,-156.1934,-37.8300,-75.9769,-29.1207,193.8456,116.5660,27.1171,61.7819,-8.7263,31.5439,30.7768,-26.4952,-149.3015
138.3602,197.2818,158.1644,69.3391,24.3248,20.2729,-219.7971,-49.3250,-112.3098,-7.3018,203.4697,147.6426,53.5952,81.3189,-23.2988,68.0780,97.9112,-6.1576,-148.2620
123.9867,164.5731,220.8510,57.5333,45.1468,16.9698,-234.2442,-43.1454,-152.4054,15.0276,137.6529,128.2441,77.3332,55.0331,-13.3823,101.4484,128.7493,0.7368,-153.3186
99.5774,116.0543,201.1611,20.1860,52.0559,2.4026,-230.7469,-26.6650,-154.7987,29.8373,128.8068,78.1343,123.8944,32.0470,50.2063,107.7593,90.2119,15.2095,-163.4506
50.5641,74.3204,142.1108,-39.0152,48.5757,-12.9922,-173.9840,-15.8796,-90.3759,39.5242,183.1740,12.7738,140.4962,3.6859,106.4730,74.7255,9.5925,23.5581,-154.7802
-8.3413,34.0608,70.1169,-121.8054,50.3584,-63.1780,-79.5513,-34.2910,-38.1056,37.7574,187.3470,-52.7295,100.1799,-52.8031,106.8502,20.3471,-57.6900,6.0677,-140.1784
-37.7095,26.0198,21.6634,-151.2907,74.2076,-101.7129,-23.0534,-65.9633,-44.7903,17.4470,87.0450,-47.6330,86.3877,-81.1247,107.5703,-6.6069,-69.4265,-12.0811,-127.4483
-36.2112,38.2451,21.8305,-81.6757,96.5993,-54.0108,-3.6321,-67.4777,-26.9004,4.0394,-7.2093,8.6350,122.6421,-49.7852,137.2229,2.3694,-42.4752,-8.0660,-91.7345
-38.9720,17.0803,16.4232,-4.5980,88.4248,17.6470,37.4121,-29.9273,49.2832,42.1227,16.6089,-9.4369,108.8661,-23.2980,138.4138,17.8877,-27.4071,11.4069,-25.9776
-53.4349,-3.9578,-47.6658,22.6227,54.9313,47.3509,76.6895,32.9987,92.5452,124.1670,47.4519,-76.6976,16.7097,-21.6785,95.2356,52.9596,-18.7669,61.2739,38.7325
-59.9057,25.1127,-121.0124,71.2553,22.2974,107.3914,55.4333,112.5904,66.8297,183.0992,-66.7935,-58.6983,-70.8521,19.1961,55.1331,113.8711,22.6257,143.7198,77.3763
-58.2492,41.6360,-129.2588,136.0114,14.0437,188.1325,4.0771,163.4423,23.9537,161.4473,-204.4505,-18.5669,-114.3931,69.3459,38.2677,124.1090,65.4564,177.0387,87.8862
-59.1322,-4.2428,-85.0983,100.6046,20.2518,147.0154,-26.5498,128.3894,-20.5362,66.3699,-163.9842,-108.0867,-125.6602,15.3556,38.5366,50.5510,51.8691,101.0329,71.1768
-55.0231,-54.0430,-50.5335,-19.8781,17.0617,25.3945,-42.6019,49.1689,-51.8939,-17.6615,-17.2817,-243.1219,-99.5667,-89.3749,55.5071,0.7954,11.0354,1.5380,44.5587
-43.0142,-72.8460,-39.3153,-89.9184,30.7135,6.0472,-32.0086,25.7079,-17.1686,-8.3424,33.3094,-246.0809,-51.7922,-80.4517,76.2236,48.7625,-3.4119,-10.2706,41.3522
-49.0421,-88.5492,-19.2968,-98.5565,84.8341,43.7007,23.4441,49.5989,54.9778,49.2740,-29.9898,-165.2954,-23.7975,-14.6180,84.5180,97.9029,-16.0234,36.6088,46.7389
-89.4694,-102.2731,10.9549,-128.8221,122.3123,-25.3019,59.3257,25.1856,69.1271,39.5088,-72.4996,-156.2555,-30.7036,-78.7147,79.5950,40.3449,-48.1293,45.4906,8.6501
-128.8560,-106.9086,19.2926,-162.7906,109.7979,-131.3759,22.8645,-56.5519,25.3951,-41.7923,-29.6995,-205.1029,-62.8932,-210.6518,60.5412,-78.1423,-44.0575,4.9893,-47.8235
-121.2413,-113.9652,15.7883,-130.0424,106.7064,-119.1706,-27.2468,-117.7652,-6.1236,-108.7190,0.5277,-202.9921,-86.3204,-222.3907,30.9390,-148.3791,22.8102,-21.8964,-42.3341
-77.9252,-104.0063,50.4638,-41.6981,135.9813,-33.8762,-36.6907,-132.4647,-16.2442,-138.8480,-85.4079,-150.3786,-61.5476,-152.2330,4.8553,-147.4867,96.6583,1.5033,13.3939
-41.0418,-58.6930,122.0582,54.0442,158.2442,23.3131,-22.9946,-123.1159,-26.3501,-154.5089,-179.0117,-103.8263,-26.0687,-110.2323,-15.6239,-114.2803,141.1512,61.2936,53.0155
-16.3509,-16.0117,162.6886,137.7577,177.4103,84.0067,12.7297,-72.5748,-12.8114,-135.5395,-109.6743,-53.2992,-47.5432,-48.4399,-25.9083,-58.3610,167.2585,132.8903,98.9085
11.4714,-13.4937,138.5408,188.6949,205.9882,179.1732,87.6830,29.3397,54.0219,-70.6201,29.1751,-0.9460,-77.6220,31.2984,3.1971,10.5333,175.5619,191.1445,190.1156
36.6716,-42.8021,116.7439,185.0491,224.3993,226.5050,185.5120,106.9918,146.7822,-14.3227,41.1768,-13.3300,-29.9893,11.3796,75.0669,34.4524,177.9169,201.4732,259.9164
40.3383,-74.1615,170.1016,146.6899,252.4868,167.7850,281.5213,89.1561,197.6747,-11.1296,-25.6717,-68.7172,45.4382,-67.5024,133.2203,2.2192,200.7780,165.6708,249.6484
5.2849,-67.0425,238.1388,126.5931,300.9467,91.0434,341.7864,40.0396,184.6634,-11.4471,-45.1327,-32.1363,57.2830,-46.0525,129.6820,7.9980,215.6000,150.4935,223.2330
-57.3750,-12.1917,211.9748,150.1845,305.5232,109.5154,326.2867,76.3781,163.8684,57.5505,-51.6590,104.8669,32.9689,65.4555,87.7726,89.9055,183.0619,184.5835,240.7737
-87.6063,21.4368,147.4458,165.8177,257.9552,169.0221,263.5032,171.7084,167.0270,149.9505,-56.7120,159.1395,36.5998,135.1898,63.6048,136.9493,142.3742,191.0071,251.8767
-62.5821,-22.9672,185.9970,92.2749,236.1978,119.7420,220.8668,189.7629,156.5054,158.2546,5.1004,32.6304,63.7041,111.5988,76.9049,87.8919,132.8391,123.3169,209.1134
-58.1798,-92.4164,278.4501,-53.5150,236.3172,-30.6017,195.8025,109.4931,137.1320,110.2285,56.1947,-129.7795,89.0985,24.0075,104.0082,48.9881,114.5160,49.0380,153.5858
-104.1599,-108.4342,250.6631,-147.6448,191.1447,-130.5362,150.1998,38.6690,146.3946,109.4528,-15.6060,-149.0652,97.6554,-60.7197,116.5199,87.5732,54.3476,12.8556,109.4410
-106.7715,-69.3165,107.6609,-120.8224,123.8309,-131.6169,86.1727,7.9406,129.7883,122.9775,-101.6047,-39.3014,75.8036,-75.0223,99.6347,108.6064,-22.1326,-13.2110,30.2883
-46.2596,-16.1026,4.8851,-38.2614,94.2258,-99.0717,26.4412,-40.5103,46.2292,76.4162,-48.6204,54.6291,46.5612,-37.7649,56.9967,48.7135,-82.7015,-15.3613,-66.4854
-34.9061,14.9111,-16.2710,14.0670,90.7119,-44.9434,6.8208,-80.3333,2.4325,35.9369,60.6588,58.4926,47.1711,-14.6517,23.5957,-3.7045,-100.0149,31.6197,-69.8799
-74.4875,8.1644,-31.4086,33.2660,82.0886,40.6427,44.5066,-37.9757,61.2033,64.0355,43.2312,22.0007,60.1493,-6.2153,28.2075,20.5714,-61.0779,73.1595,22.4321
-37.5511,-3.4212,-44.5749,66.4231,77.7115,108.3678,73.8598,41.6995,110.6138,96.9418,-75.8248,12.5770,58.0426,14.8536,41.9646,52.2246,-1.7007,77.6071,60.5802
64.1046,17.4238,12.2386,124.9519,98.6811,134.2730,45.4290,57.4542,80.7158,92.9126,-83.7785,43.0072,65.8203,48.0524,35.0826,23.8805,36.1224,86.1455,-11.9019
101.8280,44.3979,114.3989,158.9869,126.1217,147.6850,22.5420,13.2404,39.3190,68.3865,66.5364,88.4383,86.9345,95.1102,31.6179,-10.2097,48.8996,88.4505,-84.5160
83.2788,48.2364,139.3853,133.5291,108.6119,154.7351,37.2975,-6.4912,25.0496,19.3974,148.0261,107.7255,70.2797,135.6893,35.7007,16.2233,45.6327,61.6403,-84.5168
88.0503,49.6848,77.0799,92.5437,67.7078,154.6398,39.7944,46.2167,24.8164,-3.4562,56.9713,75.6708,27.3503,124.3641,23.2490,67.4830,56.4571,78.5964,-31.3520
84.0748,47.6377,79.0654,81.8786,102.9836,158.4642,53.5210,139.5659,48.5088,76.2575,-4.0365,31.7092,43.0394,82.3293,29.8277,87.5014,119.0092,157.7349,62.5487
42.6336,18.1619,187.2201,69.1615,197.5699,137.3155,117.0800,194.2017,67.3646,177.7017,65.9514,35.0131,112.1191,66.0170,71.8830,82.1024,182.0309,182.3937,150.3725
37.6290,0.5566,235.0998,30.7801,207.4694,78.3177,138.2589,170.7644,21.8752,162.5610,119.0046,72.2180,127.0864,59.3590,58.4359,59.3285,157.9853,128.3739,138.3503
91.5782,48.8436,151.9469,32.4594,116.3178,54.8927,55.1605,115.8389,-63.5975,66.2500,120.9310,99.5241,68.0706,43.1793,-27.3380,19.4428,89.5316,107.0521,35.5608
131.7815,130.7196,69.5216,121.9606,36.2205,106.4861,-45.7139,81.6460,-121.2945,8.3852,152.9862,130.9401,27.6828,63.1288,-56.8471,8.4391,71.1714,127.6067,-53.2549
132.8769,180.3658,36.5845,227.6645,-23.6454,157.9924,-113.5616,68.5644,-142.7909,16.2327,146.8833,183.5979,28.8389,115.8276,-11.2658,40.1997,76.8967,105.6349,-94.8110
136.0122,185.5442,-27.0059,253.8020,-109.5605,152.4564,-184.7446,72.5793,-152.7383,49.6112,66.7835,211.1304,6.2108,129.1272,-15.5608,46.8172,58.6670,54.1706,-118.9738
160.0392,164.5286,-96.8212,203.8160,-176.8703,117.8676,-248.2257,80.5403,-169.3449,56.3208,43.3705,173.9850,-34.1554,97.0983,-73.6834,19.3635,53.4900,25.0195,-128.9922
179.8959,130.2884,-94.7178,138.2743,-198.2000,73.4149,-269.5031,42.3878,-195.9882,14.3993,85.1613,95.0810,-25.0308,70.0047,-86.5439,21.2752,53.9802,-8.4663,-138.3018
155.4715,97.9063,-64.8836,73.5849,-218.8591,8.0100,-251.6463,-42.4424,-198.4186,-28.8425,92.8706,10.5560,12.0322,41.4363,-62.6365,24.7978,-10.4619,-69.1729,-173.1785
83.7959,75.8142,-69.1818,-3.2873,-236.1605,-67.4074,-196.6663,-98.2008,-153.7583,-44.7966,93.7021,-59.6358,-0.9332,-18.3227,-53.9592,-22.3405,-113.6199,-128.7350,-205.8442
15.6431,50.4801,-84.7166,-71.4365,-221.3010,-130.6051,-130.0963,-101.5719,-95.2285,-62.1524,70.0172,-98.9473,-46.5533,-83.2976,-37.0775,-45.5160,-168.1106,-171.3497,-194.2738
-26.8334,4.5148,-92.7840,-113.2311,-198.9662,-174.0334,-98.9736,-104.4639,-36.1077,-54.6883,-69.3115,-110.2058,-45.8248,-118.2482,-1.5798,-2.7508,-174.3076,-192.2412,-147.7218
-70.3462,-54.0028,-92.3238,-162.5975,-182.1540,-209.0388,-84.9184,-122.7774,31.8950,-0.0967,-178.2560,-121.8511,-16.3906,-139.9491,11.0880,4.4765,-167.0581,-189.5406,-96.7892
-100.8810,-94.3248,-69.9943,-232.5152,-157.1476,-264.9484,-63.1267,-146.0157,48.8026,-5.3756,-98.9828,-149.9198,-51.3461,-177.8937,-14.0576,-54.2535,-136.0344,-196.5303,-71.3611
-95.6926,-100.0146,-57.6922,-270.8827,-138.1526,-331.6948,-77.2909,-194.6409,-23.0821,-114.9808,-24.7807,-175.0019,-135.5620,-210.3280,-50.2987,-90.1205,-104.6985,-223.5985,-93.1396
-108.1921,-88.5378,-97.9891,-255.6271,-118.5186,-326.9277,-108.9526,-246.6268,-83.9372,-178.0206,-84.1806,-168.3457,-136.1542,-179.1301,-55.1986,-86.5461,-134.7719,-210.5055,-123.2645
-163.9902,-86.2521,-164.7747,-225.9971,-70.0257,-212.2844,-62.9920,-222.7456,-48.4574,-121.2761,-84.5519,-130.9814,-34.2027,-72.9132,-18.9739,-65.4171,-198.6875,-133.9143,-85.9574
-182.2832,-100.0599,-220.9553,-184.9041,-31.1361,-70.7624,40.3042,-121.4009,24.7712,-64.0527,-18.5558,-88.3645,12.0393,39.2317,-5.7540,10.3310,-190.9414,-62.1968,17.5959
-121.5852,-113.9193,-240.9570,-101.5565,-39.5894,18.6349,94.9786,-33.1665,72.3235,-55.4131,-83.3682,-45.7194,-56.9754,89.5152,-46.1064,109.1503,-89.4671,-38.3983,102.3638
-48.9540,-105.6590,-174.2127,-5.7176,-38.0927,71.3850,92.1346,6.2086,111.1307,-20.2057,-172.6315,8.4535,-88.3668,95.2250,-63.1526,132.1720,11.2376,-24.1941,120.6187
-6.2286,-77.2663,-43.4095,49.1019,10.5954,117.3153,74.0580,48.9516,131.7606,37.0472,-92.6525,57.0906,-14.6211,113.3360,-35.7569,92.8991,46.6080,18.8415,120.1707
35.7147,-53.7913,38.6266,70.3354,53.4985,156.9303,40.7913,118.3981,87.6926,43.1121,27.0937,76.8103,15.7439,137.2622,-46.6647,58.3697,60.8147,83.4804,158.8350
81.3011,-37.8411,58.3585,83.8500,71.8607,191.5807,14.2602,164.0096,7.9034,6.6626,67.4496,78.2979,-59.5805,111.0700,-87.5000,12.8421,101.1008,139.7477,204.5450
94.1210,-7.4474,99.3392,85.7022,102.0172,198.5410,30.0495,145.7625,-21.1148,-3.8609,115.1397,62.8476,-103.0428,42.7886,-75.3550,-43.0052,131.3423,156.6481,179.3912
71.2943,35.1946,150.8051,77.5490,120.4468,139.5268,47.1683,94.9499,4.9441,25.5458,131.1932,16.2367,-63.1030,6.0479,-41.5969,-50.2759,117.4804,129.9532,87.5055
53.5394,71.4929,152.3800,78.2045,78.0458,49.0340,6.5109,63.3626,-2.8177,34.2056,28.4402,-11.0601,-44.9656,18.7495,-55.3284,-19.3959,106.0025,99.0270,12.3513
54.9007,104.4210,128.5223,104.9404,18.3835,12.7965,-57.9678,53.4019,-66.4761,-14.7144,-52.6829,47.8889,-63.4745,35.9811,-78.9936,-8.7433,138.0378,109.2713,-6.6118
41.1099,128.4773,110.7774,156.7247,22.2334,44.9054,-55.8245,38.1087,-86.4364,-59.5195,-10.2435,129.2520,-29.6145,52.7838,-58.4772,-17.2141,164.8316,157.7548,0.9046
3.7534,111.8994,77.3954,179.2234,73.7887,88.8458,39.4654,18.4049,-17.3639,-47.4573,41.4035,113.3699,48.3381,84.6010,-7.1771,-22.2594,118.2116,189.4179,9.4951
-21.6002,54.5073,19.1296,117.0290,92.0567,110.5699,149.4226,9.9589,48.1978,-35.3465,55.6756,33.9800,90.9190,92.7539,36.8438,-32.2378,13.5117,158.1532,11.8612
-32.6500,-0.6637,-54.7807,34.9662,62.8624,104.4527,187.0210,-0.9433,54.0677,-56.6719,67.2347,18.2846,90.3793,45.8880,48.5607,-58.5357,-64.2648,83.1055,-1.3337
-47.3921,-31.7316,-115.2369,34.5809,36.2827,62.5840,157.7921,-32.1980,54.0511,-45.1205,6.1188,60.6267,73.5191,-17.1210,50.2277,-92.0095,-62.8176,10.6138,-22.9716
-38.4225,-44.5152,-98.4630,69.2459,19.8789,4.7048,107.2511,-48.1806,61.6954,7.9749,-114.1364,61.4792,43.0800,-43.2061,76.0044,-89.7465,-17.9037,-46.9674,-29.3278
-0.4939,-26.9077,-6.8567,46.8261,-10.6643,-20.4044,45.0396,6.1437,35.8329,39.5383,-116.9673,23.0899,26.8759,-22.0394,90.2810,-25.7305,12.3847,-79.6861,-14.5301
11.0571,17.9105,65.2256,2.1350,-27.7725,-8.0892,-6.2372,99.5310,12.2249,64.2415,-4.2397,-4.7502,55.1012,-10.5757,84.7753,24.1856,21.2023,-64.0482,3.3757
4.2380,30.7849,88.3058,-24.0461,0.7049,-5.2092,-11.5502,132.1669,44.3656,105.3791,35.3255,-62.5776,91.4760,-83.3701,133.0329,-11.1825,22.1647,-29.7421,7.1985
41.2484,-11.5587,115.2399,-67.2233,34.8088,-25.6687,-9.2860,85.6552,72.4559,97.7284,7.2683,-152.7551,94.7392,-183.7657,185.2235,-57.6754,17.1077,-35.2677,-6.0316
77.0866,-32.5168,142.3410,-101.4840,33.9839,-55.9172,-50.1189,28.5581,22.5928,45.9668,44.1700,-150.0486,80.1759,-187.6223,124.7256,-49.7725,19.1339,-74.6677,-33.8444
34.0290,11.2153,128.2069,-83.6877,27.3379,-127.1290,-88.7511,-25.0229,-55.9722,52.8863,70.3276,-35.6213,62.2560,-156.2076,69.1370,-43.6287,22.9721,-114.2664,-72.3844
-22.9221,47.5746,82.2771,-78.7344,49.2039,-230.0283,-75.3643,-80.1149,-77.9306,96.1941,-15.8952,35.1397,56.6060,-187.1893,133.6957,-20.9443,-13.4466,-137.0697,-99.5621
-16.1246,42.1189,31.7962,-91.2236,88.3870,-221.0117,-49.3676,-51.0098,-54.2886,63.0382,-58.1263,30.5950,118.9309,-116.1502,107.6161,98.4131,-76.2775,-86.3422,-83.0989
-10.3801,54.7156,-8.0280,-9.7444,120.8486,-28.2711,-41.2286,83.3962,-43.4395,2.2333,46.9885,69.2215,223.3099,143.4033,-87.8934,195.4425,-90.0503,52.8316,-25.6705
-50.2005,62.3471,-27.8981,109.6823,131.3410,158.8052,-14.0284,158.8710,-38.0176,47.2918,90.2668,122.7411,219.4593,276.6906,-122.0675,117.3391,-48.5458,131.5452,41.6425
-49.4249,-22.1141,-28.7180,86.4399,117.6839,151.2170,43.8393,87.4077,3.0840,151.6098,-40.7633,87.0166,84.4747,117.3448,97.3330,12.4200,1.4533,41.8253,102.9785
32.9083,-114.9569,17.9215,-15.0496,91.0973,44.0543,76.7370,10.4401,50.1669,160.0065,-120.6270,44.5217,-2.8586,-12.7890,204.8341,69.7081,65.2906,-78.5606,128.0970
104.9521,-62.1137,126.0839,-1.3822,51.5163,8.3141,41.5986,18.4210,47.7480,65.3511,-27.8162,78.7413,16.8600,61.0884,66.5481,154.7737,123.5583,-90.2140,66.1760
89.6540,52.3707,183.9482,68.4726,-1.2085,20.8227,-17.8753,7.6474,29.9172,-13.1947,63.7515,67.9514,4.9316,88.9641,-53.9219,88.3077,98.6218,-69.0157,-47.4265
29.3657,49.5695,116.7920,42.9092,-25.6111,-2.0190,-19.0945,-77.8735,54.7754,-32.4724,73.8536,-42.3201,-52.5103,-22.4998,-25.5668,-20.8535,35.5637,-81.5777,-96.6703
24.5224,-7.1964,90.1922,2.2977,20.0500,-22.9652,31.1999,-133.9408,83.7217,-33.5827,93.1655,-95.6982,-19.8988,-70.1640,47.4328,-12.0241,79.8242,-45.9544,-55.3855
103.4447,30.7742,224.4689,73.3428,102.9638,18.7538,43.6395,-73.0920,61.7366,-17.9702,105.0709,-19.0462,80.9284,-3.1958,67.1708,61.7101,206.3262,53.2626,-4.0686
175.1914,101.2298,330.1021,175.1771,153.2021,87.6749,6.4886,56.4080,20.9970,29.5222,62.2538,78.0314,104.6501,52.4545,-9.0023,88.0855,255.7309,108.2850,21.5147
162.7304,92.5461,261.8838,191.2848,156.0081,112.6418,1.9186,136.2671,8.0170,64.9053,39.9340,116.6669,55.4302,55.2641,-105.4736,76.1658,215.1627,94.2000,45.0031
115.3560,50.0402,163.5906,160.6295,147.7128,95.6467,49.6133,118.1621,23.2763,54.3200,48.0425,106.5589,31.8625,35.7458,-62.5765,78.7641,178.9486,95.0813,67.8726
90.0955,24.6020,116.6154,162.5690,139.4763,112.9749,88.4467,83.5075,54.0013,27.2594,8.0246,81.0945,25.9660,41.1386,71.7619,86.2165,145.1672,144.8233,87.0033
49.8445,-14.7665,11.5789,185.3222,103.2960,195.5707,90.4941,106.5072,74.3896,4.1413,-43.9982,83.1135,-17.9642,111.0457,90.4583,65.7303,87.0561,195.6003,109.5960
-19.9837,-47.1875,-127.4306,177.8089,41.5844,262.3318,72.6931,133.3336,71.3426,-7.8053,-54.0903,95.3117,-67.6978,171.9972,6.5218,39.2899,55.4422,202.7541,113.4989
-53.9982,-19.8367,-143.4274,139.2480,12.9443,238.9718,55.3383,107.1082,86.7810,21.4751,-69.6193,52.6134,-46.2452,137.2998,-20.0719,54.4719,64.3761,167.1725,78.3223
-26.1410,34.0408,-39.9468,113.4060,47.2472,155.0515,56.4178,63.6287,124.5605,61.3112,-69.4774,-0.8185,43.8598,76.3152,-0.7480,88.2592,58.1172,118.3375,24.1991
15.9698,55.9260,51.8484,112.4010,89.9256,60.5690,64.6412,18.0160,107.0493,32.3771,-4.1254,21.0254,98.1758,47.1545,-13.0812,65.9034,24.9196,77.6991,-25.7353
31.8411,42.1298,70.6593,87.7918,81.3006,-23.0382,55.1355,-42.2317,41.6068,-21.4839,22.3885,42.9057,46.0872,-16.6532,-18.0490,-10.8607,-14.3844,44.9297,-51.8936
13.9014,10.3549,30.5201,10.7557,29.1771,-56.8632,47.1794,-51.4044,35.4092,8.5641,-37.5013,-31.2862,-43.9347,-88.9545,10.4232,-53.7781,-62.0077,14.7330,-27.6308
-18.3795,-16.3321,-21.2811,-68.7891,-36.7891,-42.1748,48.2448,27.4107,72.5780,73.0511,-39.8704,-110.7073,-91.1636,-62.4362,9.9152,-23.9772,-87.3248,-22.4334,25.3269
-23.1203,-23.6182,-31.2925,-100.0467,-105.3752,-64.0234,7.5570,85.2762,40.4276,57.3323,31.5247,-99.2864,-119.1083,2.0185,-54.2177,18.1556,-48.2098,-76.2478,42.3861
13.4534,-32.3889,-7.6044,-105.6157,-146.1930,-144.0574,-66.2855,48.6733,-35.7851,0.0824,30.7831,-61.0185,-129.2953,-17.6267,-132.2173,17.5285,5.5996,-119.7961,13.5641
50.1900,-45.9159,1.3956,-120.4217,-115.5595,-181.4252,-88.6400,12.0340,-60.6978,-13.8626,-16.9872,-50.5039,-64.9096,-71.0160,-140.0844,-2.4499,-6.3470,-107.2003,-15.6851
49.3822,-31.8068,-18.7250,-125.4985,-37.6702,-123.9981,-57.7321,57.1867,-62.6506,-6.8679,-3.7212,-28.1392,20.1085,-59.4928,-68.4756,1.7065,-64.7354,-43.6819,-20.0445
21.4419,-7.1061,-63.1170,-93.1127,-5.5055,-34.3266,-35.6299,128.0433,-86.6654,-2.0657,0.0696,14.6047,16.0713,-1.1349,-21.8583,21.7715,-91.4122,21.4746,3.9931
-5.1889,-16.3582,-118.9181,-43.1239,-61.7980,27.5904,-12.8344,149.3711,-74.9950,27.8767,-66.9348,42.2766,-41.6036,42.9951,-50.8760,27.7724,-65.3097,47.8554,41.4763
-25.1132,-29.2857,-157.0124,-22.4268,-145.9390,38.8730,15.0821,113.3680,-11.2970,53.3462,-111.2683,40.2019,-75.2530,48.9361,-69.2054,30.0055,-42.9732,12.0763,40.2131
-60.9485,-5.0443,-192.0007,-58.5786,-191.8922,-13.5209,-16.6663,41.1096,22.1787,22.5509,-108.0472,3.8747,-114.7563,33.2043,-49.6900,48.2552,-91.1817,-69.4964,-20.9381
-124.5809,16.2479,-260.8201,-134.4300,-199.8850,-92.8078,-92.8067,-39.9882,-3.8062,-35.5983,-121.3957,-43.5267,-163.2024,29.4162,-67.6528,48.3197,-193.9568,-126.9559,-85.0936
-170.3287,5.6095,-303.6001,-197.0742,-178.3016,-129.8698,-114.1305,-97.3736,-44.1526,-79.4784,-109.7284,-48.3840,-145.2144,27.1759,-100.2994,-5.8678,-254.9658,-124.1853,-110.4363
-142.5678,0.0437,-230.1432,-217.3789,-115.8085,-119.7441,-83.2086,-121.7476,-83.1035,-118.8584,-20.7218,-25.9497,-64.3861,-4.1079,-71.8723,-66.9039,-234.6284,-108.6461,-123.0043
-78.6414,11.1592,-93.0396,-219.1339,-47.4105,-111.2212,-82.5364,-132.3287,-112.9613,-139.5353,49.8724,-47.9728,-0.7637,-29.9336,-35.4798,-67.4206,-194.6105,-111.1369,-145.1020
-57.5007,21.6994,-14.5370,-204.1398,-36.1797,-108.9335,-114.7837,-135.3672,-93.1131,-97.7043,13.6116,-90.9265,9.8804,-13.5565,-47.8677,-29.1459,-165.9348,-97.2292,-162.6896
-61.1864,39.4540,-3.3834,-136.7650,-70.0571,-83.0446,-125.3397,-117.1497,-25.8947,-18.4412,-59.0811,-70.3962,-19.1198,-0.3907,-36.2944,-18.3887,-115.8009,-63.0008,-154.9051
-34.7398,45.2703,7.6010,-63.7610,-80.3483,-60.0834,-94.4155,-99.8978,18.8299,12.1852,-60.5453,-25.4901,-39.4045,-31.4463,33.8961,-45.9315,-59.7114,-58.6090,-111.0174
-14.6099,1.7791,25.7175,-86.9878,-51.2735,-94.9027,-35.0001,-134.2484,3.9485,-38.3204,-1.0377,-66.5096,-7.3366,-83.3259,81.9237,-81.3705,-49.6848,-91.4857,-59.4965
-38.1348,-51.4213,0.9469,-165.1141,-32.1539,-151.8638,18.2464,-197.4346,-22.3173,-107.8808,10.7242,-157.1351,17.0869,-120.4309,68.4004,-102.1652,-68.4896,-108.3417,-46.1576
-45.5111,-51.0304,-70.6523,-151.0919,-57.9559,-133.9864,39.1161,-192.3223,1.7657,-107.4710,-73.9774,-145.0065,-35.0616,-100.4490,37.4800,-84.6000,-48.7315,-76.6088,-36.8973
-1.1166,-7.0567,-99.4530,-32.8032,-96.0486,-40.6846,55.1763,-89.7109,65.8670,-8.4936,-141.6427,-2.7110,-75.2273,-6.3945,26.5184,-20.1295,38.7347,-15.7633,38.4226
42.6631,47.5912,-10.1828,79.2554,-73.9461,39.2950,89.1920,38.1745,102.0040,128.7880,-68.8642,128.4339,-8.3739,80.3961,48.4503,45.4409,146.5647,46.5381,139.9937
63.8425,87.9563,117.3235,134.7534,26.1756,79.2085,108.0089,132.7788,85.9502,218.0330,68.2695,146.2766,89.3070,83.9353,95.1737,63.2014,176.1091,104.4217,187.5620
88.1288,81.4480,136.4668,140.1824,130.4845,109.7965,98.3818,180.3976,67.0020,227.0397,108.9084,103.2311,133.8285,62.7077,125.8665,54.8344,98.3439,156.9807,200.6110
103.4728,59.3979,58.1222,110.1453,179.9384,127.4222,86.5594,168.9098,62.0753,168.4865,66.4544,88.2860,157.7605,86.9671,117.4719,64.1936,28.0145,189.9066,200.0341
89.6606,81.9500,25.3194,100.8096,203.0675,135.4005,68.9273,108.3502,25.6429,57.2935,69.4528,106.1832,180.6825,117.0257,93.0211,73.5760,58.0754,186.7030,139.9963
67.4807,98.2399,83.7121,136.8607,225.6964,160.3361,43.1196,41.3822,-24.6945,-56.1936,129.8439,114.9228,173.5899,107.2995,68.3391,44.6057,116.8870,148.6683,60.0311
61.6820,60.4517,149.0576,154.8773,217.0000,166.8516,46.6624,2.4192,-5.0250,-83.1664,163.3116,103.1328,138.6364,72.2102,44.2865,-1.3773,124.5094,97.0613,62.3515
85.9156,68.9019,166.7576,134.6194,176.2163,111.3809,74.8599,-2.9234,67.2852,-23.5847,143.6100,86.8724,98.8507,22.8516,47.2617,-24.4802,121.7945,59.7592,105.4376
137.2318,161.4785,156.9598,128.7456,163.6361,52.0942,84.2019,-7.1373,82.8019,1.4778,99.2662,72.8881,88.5308,-25.8133,90.1581,-41.3697,144.4076,50.4537,91.8406
169.0013,194.1917,136.5984,128.1834,202.9923,46.3115,94.6578,-48.9068,37.9522,-58.2303,55.6038,53.8614,127.5297,-35.9919,115.9155,-78.2166,166.0327,50.2368,75.0622
147.9772,121.1207,100.2395,97.3975,215.6682,47.6907,133.2918,-89.2747,30.4555,-102.0209,35.2659,27.0689,132.0694,-14.9295,68.5609,-99.0521,191.3870,22.9861,122.3122
117.6128,66.8972,63.5069,79.1013,114.2535,20.7597,135.9557,-69.5277,63.4916,-76.2097,30.6600,6.3955,20.6516,-10.1425,-12.5991,-66.6990,230.8622,-39.2077,143.3510
112.0499,71.3592,58.6985,93.9889,-48.3621,-5.6330,53.2888,-56.6147,47.4484,-70.5105,3.9212,-0.2963,-98.7680,-33.4620,-57.3406,-27.9806,235.7611,-103.5744,61.0462
97.4837,70.5225,79.9896,79.2566,-115.2777,-37.5350,-46.9308,-136.0921,-26.3021,-146.5755,-25.4895,-20.5371,-94.4099,-78.7452,-70.0401,-52.8804,172.7808,-139.3598,-45.5988
66.0132,52.4224,76.5881,13.6958,-53.5802,-99.4528,-90.1548,-232.8141,-82.8326,-244.5929,0.8609,-78.6314,-41.3923,-149.9152,-82.2349,-128.3992,72.0086,-154.5460,-93.4494
46.3834,14.2617,27.1596,-58.6856,4.7060,-154.3386,-89.2927,-255.8503,-97.1792,-293.1082,51.3302,-133.9774,-44.7169,-207.5830,-76.5275,-184.9217,-24.3313,-173.2172,-103.0023
24.6747,-69.7678,-17.8145,-113.7961,4.8277,-161.7457,-71.8556,-256.9540,-95.8527,-283.4339,47.6303,-123.6485,-51.4651,-186.9305,-45.0035,-192.4543,-75.8597,-188.9554,-101.9626
1.9010,-150.6615,-8.0178,-135.6065,27.2688,-134.5251,-32.5329,-275.4454,-81.5366,-246.6211,11.5914,-60.9846,-16.7351,-100.5816,-31.7471,-175.0690,-57.9889,-172.3988,-70.5066
30.3406,-156.4684,38.0508,-110.7323,77.9147,-93.0902,13.6526,-256.1188,-57.2380,-217.2120,9.8418,-23.3576,-4.4912,-34.3159,-51.8161,-158.3852,-6.3067,-124.9038,-2.1567
77.6641,-116.9371,73.2298,-74.8060,83.3892,-52.0703,25.9079,-193.1489,-52.6538,-186.2474,29.1049,-41.5412,-40.5033,-36.9332,-66.1155,-140.1032,23.8269,-77.9245,64.0496
46.0280,-95.7261,75.5729,-54.6803,55.7037,-26.3841,-0.6490,-128.8071,-66.4112,-116.5086,33.4333,-57.3642,-78.2817,-70.1261,-61.2174,-104.1465,20.9991,-39.1019,85.5308
-22.6734,-84.7109,42.6108,-21.5885,32.2709,-6.9037,-28.6408,-65.8211,-67.6802,-43.3553,34.3688,-12.9558,-107.0338,-72.2173,-61.9862,-60.8618,1.1341,-9.1087,69.3400
-1.2133,-51.5271,-4.6138,16.7753,-16.4720,1.8563,-33.4986,-36.6567,-63.3381,-52.3743,37.7240,51.2733,-147.1025,-51.8260,-75.4762,-54.4986,-2.6398,-27.3510,62.8611
91.9064,-8.7357,-13.1898,8.3504,-78.2466,-35.8549,-20.4052,-85.4180,-65.6593,-116.9822,35.5294,49.8662,-180.4858,-68.1368,-84.0614,-91.6373,38.3004,-96.0383,77.9903
136.1805,7.7534,31.9300,-32.3730,-97.2847,-87.8848,-2.2941,-133.2988,-41.3842,-112.0355,43.2009,-4.7181,-176.5788,-107.6040,-73.5146,-110.2191,64.7021,-122.2715,69.3060
90.5876,-8.6282,59.3821,-51.6601,-96.0772,-68.1250,2.1183,-89.6096,5.4510,-17.5662,61.7574,-18.7284,-152.1167,-96.1303,-52.3770,-81.6718,-8.9128,-60.8705,25.3936
4.5136,-25.7233,25.5728,-55.8626,-91.3707,-1.1922,-8.6723,-25.3321,12.5403,58.2475,69.5888,22.2575,-136.1878,-48.3535,-43.0578,-57.2506,-108.9737,-1.5388,14.6411
-39.0758,-20.3509,10.6632,-65.3443,-13.0960,14.4440,22.0477,-22.9856,6.8798,67.0468,74.9829,50.6679,-98.2494,-33.2512,-28.1431,-56.8598,-85.6247,1.4275,79.5286
-0.8940,-9.4612,78.5273,-54.0679,126.4714,-1.4820,135.7820,-19.2057,86.0889,67.3586,88.9980,59.3263,-8.2280,-22.0673,44.2025,-43.0516,25.8910,11.7106,153.9466
23.7331,-16.3052,140.5719,-12.4175,193.7277,27.7509,244.4826,38.0831,198.2018,92.5694,85.0377,87.6784,59.0906,24.1748,146.9976,-33.0608,66.3403,41.9621,156.8705
-57.3569,-39.2820,107.2163,21.8393,152.6671,63.6953,235.9826,79.5724,193.4565,118.0668,56.3720,115.6223,26.0429,33.4573,173.1233,-72.4441,20.2126,30.8704,114.1674
-129.8111,-54.7893,51.9257,31.3069,107.8645,55.4918,169.6403,66.9651,107.6562,135.4808,35.9732,115.9387,-40.2984,-12.5132,107.8864,-113.2843,1.0305,14.8846,113.4245
-61.8776,-31.7996,70.9803,42.3500,124.9774,70.8731,178.5361,65.0947,105.8011,146.8374,30.6453,123.3536,-46.7670,-6.3071,59.1599,-85.6387,53.6773,71.9295,172.5512
45.4071,28.5666,124.9520,71.4194,168.9667,143.2959,239.2114,107.5242,184.7535,137.0607,24.0899,153.0743,-20.4080,58.7945,78.0311,-25.8559,133.9715,140.8630,229.2124
69.0796,81.7742,147.8024,99.3802,182.6333,175.2554,250.2590,141.8626,216.9745,121.2596,27.0563,170.1812,-6.7715,74.3845,108.2692,1.3756,195.0625,131.4226,241.7286
72.1543,99.8921,151.5715,106.2440,153.7625,125.3245,235.7215,136.9981,191.1900,131.4946,43.3160,173.4335,5.9251,49.7560,119.8515,7.2188,209.9640,95.5755,222.2770
99.0596,88.5360,146.3651,104.9205,124.7377,86.6088,257.0958,126.7704,165.9123,142.6219,30.8081,185.3988,16.7736,57.9642,139.9911,16.0463,186.5553,102.1322,176.7036
83.4242,48.1667,115.3845,120.9952,120.2260,103.5142,250.4271,124.2314,129.4760,126.4569,-28.6886,187.9698,31.3536,54.4807,161.3845,7.3179,168.3524,108.8264,94.2734
40.9690,2.0336,84.0484,144.4566,107.2336,113.6965,147.2637,103.0612,76.9928,124.4993,-60.7120,163.8875,80.3762,3.2785,146.2658,-24.8510,165.7658,84.1623,10.8130
41.6120,-1.1504,84.7224,130.3025,87.3644,95.2084,32.6763,82.7959,60.1225,147.3965,10.3629,130.8013,128.0169,-16.0566,109.9866,-32.3761,138.9497,74.4084,-2.5508
44.1769,20.3134,93.8434,62.4029,112.3917,90.0906,19.1510,108.0735,80.1200,130.5651,111.0213,92.7104,125.1951,24.2952,107.7035,22.6151,78.0066,88.7463,51.9476
5.1088,12.9537,81.4848,-9.3067,159.9200,97.2730,73.0470,139.8401,89.9805,76.7031,87.6572,48.6195,123.0699,49.5741,146.5592,91.0719,14.1619,74.9807,76.9400
-14.7132,7.0051,45.1150,-34.3497,149.0630,74.0874,88.7790,98.1587,90.3603,49.8370,-59.7973,32.2013,141.3274,17.1738,171.6557,77.7965,-52.0719,17.2055,3.6771
-3.9737,33.3031,-19.4212,-39.7297,73.9253,10.9500,41.1306,-9.7535,84.2204,14.8428,-172.3703,59.0535,92.8322,-56.7368,136.7568,-23.4928,-135.1946,-45.1024,-123.2954
-39.5322,21.2875,-88.8711,-73.4473,-5.9356,-56.0250,-16.8889,-103.0090,28.6845,-75.6965,-165.1644,89.8094,-4.2966,-118.1530,63.5535,-109.7024,-196.3603,-69.8122,-201.4153
-107.8287,-51.6055,-101.8384,-102.8643,-38.7489,-75.6234,-34.3967,-118.3106,-54.2593,-118.2430,-97.4008,95.0770,-6.5580,-91.8773,24.6482,-111.9391,-183.0213,-41.5461,-169.6598
-108.9069,-84.5001,-53.1912,-68.1725,3.5405,-36.0156,0.1206,-56.0378,-62.3846,-42.1597,-47.2969,89.1412,90.7721,-1.0122,52.6123,-67.3804,-104.9900,13.4748,-70.0263
-45.5626,-39.0907,-14.1629,6.6988,74.8008,4.6092,46.3147,5.8233,5.9385,14.6958,-54.3851,92.0113,150.2810,38.8421,82.1820,-36.4433,-14.5482,42.0305,-20.3728
-17.5726,11.7998,-17.2656,60.4915,69.1401,3.4013,37.0578,-9.9777,19.7193,-50.8410,-96.8993,113.7788,126.8336,19.1505,42.4656,-33.9570,42.9837,25.3651,-75.1372
-44.1601,40.1959,-17.8093,86.3161,-19.3188,3.2758,-31.4916,-64.0432,-66.5512,-124.5380,-85.7724,149.9999,84.7565,22.8608,-25.0773,-35.4522,51.4379,1.6681,-146.4511
-55.7198,63.2038,16.5984,99.1673,-83.4930,32.4900,-77.7360,-76.2549,-133.2239,-110.3289,-11.1688,166.8755,66.5904,41.3363,-39.4970,-15.7037,45.0221,5.8592,-142.2899
-35.9270,61.3432,58.0128,100.9883,-83.1699,43.5145,-54.4690,-62.2321,-102.9519,-81.3420,0.8227,141.2126,66.8850,38.0564,-10.8903,9.2040,67.5015,22.4233,-99.2092
-19.4862,45.6678,63.7472,108.1334,-61.5116,31.0100,-10.9709,-49.2890,-52.9927,-93.1829,-85.2678,110.5593,64.2032,56.6909,14.8075,14.2093,91.5801,25.5488,-84.4742
9.2788,68.3627,34.5126,127.9689,-21.5878,58.2399,11.8088,4.1671,-46.2649,-98.1935,-133.2605,122.1509,59.0783,107.2390,41.9966,26.3557,69.3156,37.6644,-76.6554
65.0448,102.8508,22.9787,137.5207,50.6104,125.2862,47.0927,89.9749,-30.4081,-69.5438,-70.8951,155.0216,84.7946,136.1086,65.6898,66.1035,37.4435,95.0069,-25.1893
84.2319,84.3332,67.4897,131.8009,122.6103,164.6852,121.5347,143.0451,26.2820,-19.6316,22.0716,154.0735,134.8233,132.1191,59.6357,91.8636,48.7468,164.5186,67.9777
41.8362,54.1006,128.8297,118.6138,168.8898,153.5869,196.6388,176.1075,74.1558,44.8139,63.6714,113.7314,154.7744,99.9415,56.8489,88.5248,68.0732,176.7839,161.3405
24.2151,84.4090,144.8897,82.7360,194.1898,117.7279,216.5586,222.1638,91.5856,81.1835,32.8169,71.6855,148.8941,38.2530,95.0339,86.0741,53.9532,140.7222,208.4595
70.2654,124.9426,117.2059,38.4311,192.2350,86.0292,170.3125,235.7499,94.9346,56.6094,-44.0163,43.6388,158.3930,4.2755,126.7070,68.0783,36.4516,124.1015,196.9304
101.2407,95.1022,78.3610,36.2677,156.6052,83.8506,104.4794,206.4088,69.4224,36.2355,-100.7779,17.1778,148.5277,24.4796,110.6800,19.0569,37.8267,132.6108,160.9072
73.4292,40.2936,29.9759,68.9611,96.9323,93.9721,66.5659,190.0579,24.8700,58.3225,-109.0333,-6.4096,78.5432,18.2426,82.4334,-11.2377,40.6346,119.1479,118.6446
39.1748,40.2695,-17.8873,86.7412,27.2690,62.5107,44.5368,173.4285,23.7766,41.7575,-94.2675,-15.0402,10.1196,-41.6098,66.7179,-11.7853,49.8514,78.6824,59.5674
49.0207,59.7361,-23.6747,82.4880,-21.3898,-4.0657,19.9265,116.6783,67.1137,-23.1176,-60.7486,-22.0126,4.4343,-83.4861,54.6404,-18.6929,67.4826,33.2485,12.1710
96.1139,32.4730,2.9525,56.1042,-28.4793,-45.7233,26.8527,66.9972,87.8177,-28.3216,-31.3085,-52.9325,16.0622,-94.1194,51.1542,-6.0442,51.7971,-11.1025,8.5799
123.1620,-4.0905,-6.0321,1.9966,-27.1088,-45.4094,69.6381,61.2073,73.4280,14.9307,-65.5484,-94.2526,-9.3811,-90.0151,45.6830,38.8924,1.7987,-23.5065,11.5789
81.7659,15.5746,-49.0181,-19.3063,-32.4345,-11.8748,87.8206,60.4775,59.7079,5.5255,-121.8247,-94.3836,-33.8538,-30.3452,24.2527,48.5339,-9.7080,27.9504,-5.5627
24.8655,66.7384,-44.8343,38.8646,2.0236,51.7566,71.9121,52.0407,53.1243,-18.5958,-98.4601,-33.1392,0.5352,56.8894,25.7358,22.7926,34.9673,83.6708,-7.5265
39.3861,84.8726,14.3801,94.9290,66.3901,93.6853,67.5942,51.1929,52.7814,0.3502,-28.7035,38.8655,66.1291,71.0649,61.3924,27.0979,54.2800,64.4045,5.0808
86.6816,57.2228,50.2410,73.3473,76.6835,66.9213,63.7785,47.5171,60.3279,-9.7073,0.2582,58.4403,94.7387,36.3516,63.6830,35.9362,13.3506,16.7739,1.1554
79.6969,21.8139,49.5662,29.1335,33.5199,31.8652,31.7499,60.5879,47.6260,-45.5893,9.2902,23.6787,90.1832,49.8223,20.8963,18.4561,-16.3210,25.2548,5.2463
43.9038,22.4897,60.4275,11.1068,10.6862,46.3813,-8.9522,110.0692,4.7859,-9.6310,26.1929,-26.0188,91.1826,76.7212,-4.1386,27.0226,3.3852,46.1612,18.0964
23.6701,55.6374,60.9171,-13.1738,-5.5470,45.9886,-60.9896,129.1285,-26.5691,44.8605,24.4442,-70.4942,66.2120,30.8113,-20.0674,38.2867,18.8386,4.0036,-22.0060
-14.1105,65.4042,8.3145,-32.2857,-62.2618,-20.4981,-124.4055,85.0457,-19.4163,34.4248,14.2427,-102.4172,-9.2672,-53.8349,-64.0710,-18.3862,9.3832,-53.5728,-87.8903
-57.7901,35.3526,-47.4499,8.7410,-107.3966,-84.8657,-123.7083,61.7572,10.9593,37.5519,-3.7689,-96.9886,-51.3177,-92.3976,-81.7484,-66.3822,14.5362,-58.3730,-89.3245
-38.9933,20.4388,-54.2279,82.2729,-90.4636,-84.8391,-50.6514,80.4755,29.9101,57.3982,-66.6314,-39.3661,-3.3113,-73.0276,-41.9836,-23.1690,22.1406,-38.8866,-62.1072
18.3931,40.1534,-51.2558,112.8925,-60.7677,-44.8143,-21.9978,62.7523,-0.8065,-10.0475,-123.5146,34.1011,51.4329,-37.9859,-19.8811,24.1462,-2.3908,-23.4641,-79.2554
37.3588,51.0974,-66.5507,92.1364,-50.3974,-6.4819,-50.9248,28.0466,-53.9595,-61.4906,-94.9395,54.9421,38.3237,-19.3387,-40.2113,18.5609,-11.0742,6.7369,-77.2583
30.8984,42.0975,-61.6187,63.8613,-24.8720,14.6739,-28.6793,61.5614,-37.9146,33.4004,-25.6928,0.1681,-2.1239,-13.0417,-37.9814,30.1609,39.1582,29.9134,-3.4889
49.7620,32.3098,-31.8140,55.0284,6.4084,32.1632,29.8275,126.5893,33.8329,104.0285,17.1912,-63.0620,-18.2324,-0.9740,-13.0642,60.8289,85.0863,20.4238,53.0992
73.9484,15.8873,-27.8098,56.0168,-2.1599,75.5876,34.5997,145.1235,36.7537,35.1356,32.7723,-66.5301,-14.7598,9.0886,-21.2904,53.3172,66.7843,24.5479,41.0067
56.1914,4.3919,-72.2048,37.5452,-31.0706,126.6376,22.0814,141.9480,-29.6570,10.2041,-2.1155,-47.2406,-14.1986,4.0296,-49.3735,38.4190,13.0966,58.4773,32.2397
6.9707,28.4937,-138.9656,1.9500,-33.3381,133.6443,43.6690,155.6620,-45.3601,65.8129,-78.2050,-60.0393,-21.5258,10.5519,-54.8005,48.7260,-25.1689,72.4694,66.6176
-11.1728,62.3390,-180.4880,3.3048,-7.0513,124.2554,54.9048,169.8829,-3.9933,21.6206,-95.6063,-58.3227,-0.0323,53.9708,-37.4755,46.0376,-7.2147,88.1226,113.6695
33.3472,62.9644,-161.3268,63.6326,38.0646,158.8702,52.6528,180.6309,17.6574,-75.4076,-41.0426,-7.1829,79.8564,88.2921,1.3829,28.4537,78.0849,149.0355,156.4228
89.1803,51.6648,-108.3350,120.3978,85.1635,180.0391,68.1682,181.8359,19.2034,-72.6646,-5.3713,18.7670,148.1941,42.5293,47.4279,27.3186,159.0878,157.9715,168.8893
98.6666,58.6981,-81.4925,119.7915,76.0889,97.8507,42.0178,127.9774,8.3405,-69.4337,5.2515,-11.7452,116.7530,-61.3745,35.6909,21.8394,165.4468,28.3275,109.0678
71.6703,62.3779,-95.7617,88.9410,-14.5996,-31.8998,-57.4614,17.4724,-38.6963,-153.9527,7.9146,-27.4504,25.7239,-119.0422,-45.9401,-13.6125,126.2704,-115.4321,13.0190
18.2585,34.8987,-148.7298,68.3684,-110.3654,-99.2580,-129.3338,-73.0616,-77.2645,-188.1991,-52.1551,-14.8575,-34.1318,-101.4452,-103.7901,-60.8729,70.1276,-136.2012,-26.7039
-72.2760,-15.9251,-246.7438,54.6455,-133.2247,-111.0762,-113.0414,-91.8394,-64.5368,-127.7197,-133.1159,-15.4730,-50.8814,-94.3309,-92.1693,-100.5247,-13.5210,-98.9134,-4.9297
-137.8071,-46.9435,-328.5970,37.5462,-104.9039,-127.0457,-76.4619,-70.4793,-51.1236,-96.8738,-126.4133,-6.7460,-42.7678,-128.7468,-72.6748,-124.0874,-67.6508,-102.2976,-7.9477
-107.5088,-17.9417,-313.6088,21.3106,-86.1313,-144.0559,-72.4087,-63.6215,-47.6196,-108.0466,-92.4634,13.9195,-18.4033,-128.4178,-65.0702,-122.5922,-56.8280,-116.6477,-70.8451
-56.7775,24.8558,-256.6337,-3.2712,-100.8935,-137.5521,-84.2654,-73.9776,-5.2339,-89.5216,-122.2084,-24.0109,-7.7971,-83.6207,-29.0027,-98.7462,-85.8844,-103.4299,-133.2760
-93.6543,-15.9941,-265.6709,-59.8779,-144.2439,-117.8927,-96.1140,-58.6688,30.0929,-69.9192,-122.6973,-115.5640,-15.3658,-83.5266,8.0639,-69.4136,-198.9711,-99.0400,-138.3191
-163.7059,-122.5311,-316.6106,-157.9461,-184.6058,-109.5687,-98.4749,-16.8020,8.5100,-96.7431,-49.5650,-181.4842,-5.9087,-144.8418,-1.0099,-67.8477,-273.4708,-127.0486,-95.4639
-166.0707,-182.4320,-340.4873,-268.9179,-176.2775,-128.2039,-73.6941,-6.9591,15.4780,-130.3679,-49.3243,-208.9899,14.8479,-200.7518,-14.1485,-115.1181,-266.9712,-153.6648,-41.1921
-135.9721,-182.3587,-359.0316,-324.8313,-131.9757,-162.9134,-26.7477,-31.8517,84.7932,-112.1609,-161.9991,-211.2021,12.9397,-233.7838,1.3725,-165.8837,-269.1758,-145.7759,0.9384
-146.9358,-186.4128,-381.0818,-280.4591,-125.3396,-178.5154,7.6182,-23.4021,111.1857,-45.7385,-228.0410,-176.6354,-17.0334,-263.7497,-10.1159,-171.2487,-275.6323,-122.3231,18.8512
-167.5160,-174.8018,-343.5393,-183.0566,-171.6959,-170.1755,3.5150,15.4833,83.8931,-0.7712,-166.4335,-144.1439,-75.1306,-276.7448,-68.2232,-171.3490,-209.4115,-127.0474,16.6548
-132.9165,-104.3607,-239.9112,-113.4722,-193.6174,-171.9722,-23.3027,15.8316,95.8186,-22.9594,-56.0726,-142.6610,-132.0038,-257.4476,-109.2699,-199.2327,-93.6523,-153.9381,9.7000
-59.5746,-36.7163,-141.7453,-78.2526,-149.5616,-183.7809,-42.8989,-11.9740,121.2294,-54.5448,18.3348,-113.4999,-114.7561,-210.2940,-102.1696,-192.9967,-0.8713,-156.6017,-3.3983
-14.4918,-37.2025,-85.7446,-42.8950,-94.5536,-166.1334,-65.0664,-10.8792,89.9667,-37.1450,21.8715,-46.4267,-38.5064,-134.7041,-75.6603,-121.7921,40.5059,-133.8600,-27.6315
-18.4018,-54.8549,-57.1432,-16.1001,-74.6684,-116.7937,-108.8247,4.8839,56.7153,-15.2295,-30.2357,-8.0885,-10.6788,-44.9657,-55.3875,-48.4419,32.5429,-113.8760,-38.4277
-30.2465,-23.3290,-37.8221,-16.4953,-64.0951,-72.6367,-140.3319,6.5928,66.6451,-30.9182,-64.3541,10.9669,-30.4084,18.8698,-51.2998,-12.5038,12.3162,-87.9341,-13.0483
-23.0949,22.2540,-19.6731,-32.4657,-39.2411,-52.6915,-127.2621,12.8099,58.1086,-59.8904,-37.6050,37.1127,-4.4703,33.7845,-55.1460,-4.8571,5.8115,-60.9527,23.6531
-22.7262,14.0269,-21.9804,-63.2575,-26.5091,-53.9621,-102.8936,20.8573,14.0297,-98.0099,-9.4596,-1.2096,46.7619,12.4174,-49.7100,-24.9780,-37.2845,-69.7556,29.5834
-47.8094,-43.9993,-68.7876,-111.1055,-46.2993,-57.6772,-93.9850,14.0067,-4.6659,-141.0122,-51.8567,-118.2902,38.7091,-22.3097,-43.2901,-49.3581,-131.5524,-81.5641,8.6937
-75.2974,-102.4114,-126.9072,-140.4466,-70.6038,-26.8444,-70.8407,26.1705,19.7665,-125.0569,-148.5200,-200.1653,-5.2571,-60.5105,-32.8276,-32.2408,-183.3026,-28.7362,13.4086
-90.1289,-131.5441,-148.3358,-126.9711,-62.1936,36.2686,-21.1738,77.7878,56.2140,-33.4947,-222.6885,-194.7874,-18.8696,-96.9048,14.0393,17.1471,-158.3554,49.5508,65.5990
-103.3527,-118.6132,-152.3865,-97.4530,-30.6906,59.5522,17.4353,121.3714,70.3417,48.1639,-219.7982,-159.5572,-14.7824,-113.3163,61.8171,44.9679,-142.2994,67.3063,99.3952
-116.5908,-75.7585,-172.0725,-78.9758,-24.1226,-0.4686,17.3174,119.4862,38.3440,60.7512,-160.6928,-141.5670,-35.4069,-112.1655,39.0952,25.2154,-171.9181,26.1449,57.7225
-118.7738,-62.6525,-185.4032,-75.8766,-55.2620,-86.4298,-0.4251,84.8609,0.6134,34.4151,-129.1645,-152.2827,-74.7966,-130.9359,-1.7532,-16.7282,-198.2209,-34.3661,5.9127
-103.5531,-104.9366,-177.1391,-87.9899,-81.0854,-126.5077,2.2512,44.4301,24.7337,16.9947,-178.9634,-168.7156,-92.9643,-154.0906,20.4168,-31.1980,-201.9279,-93.8604,13.6590
-77.5105,-130.8758,-174.9757,-98.8647,-85.8621,-116.0437,9.7176,32.5640,72.4190,22.1461,-248.0250,-151.5188,-76.0171,-110.2661,34.9240,-17.5562,-198.0683,-105.7250,17.5951
-68.8834,-99.3103,-176.8525,-88.9631,-97.5445,-71.1863,-28.4123,61.9031,65.7174,30.8870,-218.3046,-129.2991,-56.3569,-21.7874,-18.7157,-35.1116,-176.5640,-42.6547,-25.1708
-91.8876,-77.8175,-143.8793,-65.8393,-94.5809,3.7284,-74.0959,85.0686,43.2554,24.8043,-85.4916,-137.6331,-52.2417,13.3968,-45.2680,-76.9267,-115.6318,30.6751,-22.1961
-96.7859,-86.8753,-80.4372,-31.8441,-33.5228,70.2876,-38.6135,66.8160,53.4546,12.7353,12.4446,-112.8971,-40.7322,-0.5376,-10.9236,-54.5432,-26.7824,49.8210,47.0752
-32.3809,-45.4767,-30.2863,24.1645,34.7291,76.7124,38.5484,47.1831,32.8698,1.0113,-1.9472,-38.3377,-21.8280,0.7031,-13.8360,29.9953,32.9336,42.2774,60.8369
62.7201,51.7179,-5.8562,78.1442,46.3478,48.9355,66.3192,66.5623,-33.1772,-12.0910,-28.8032,-16.0464,-12.3426,9.7900,-44.2481,81.2962,24.5451,59.4112,4.9174
122.0535,107.5727,7.8409,99.5807,52.2694,63.1177,89.3872,113.1244,-44.0651,1.9671,19.9240,-44.0745,10.2041,24.4089,-3.4271,84.1017,-3.4856,100.4438,-1.7225
143.8267,93.0026,15.2925,103.6749,91.5987,114.9724,149.1925,162.9716,16.2503,58.4352,63.7693,-15.6954,45.8387,74.6692,68.3199,87.6115,13.0595,126.9806,46.3281
149.3965,72.6363,31.1410,108.7638,95.1772,125.3190,152.1890,189.5044,54.5515,111.6011,23.9139,37.7197,50.4928,111.3326,74.7455,92.0711,62.5045,110.2670,58.1410
143.4658,96.1254,78.4083,118.2479,51.9364,79.7619,79.5492,169.6214,52.7644,129.2372,-23.0539,29.5957,37.3240,81.1610,39.6597,90.6020,117.5232,69.0828,38.7515
142.9598,156.5470,126.6041,150.7467,42.5520,45.1813,32.3343,127.2407,52.9425,126.4574,-5.6536,15.6638,30.7006,44.9110,7.1559,100.3452,175.4546,46.5312,36.7288
148.5517,199.3653,122.0938,193.7016,54.8311,50.1248,6.5992,100.4474,37.5366,105.0661,11.8922,50.1277,-23.7694,54.4277,-36.3265,106.5937,208.8879,43.0615,31.7751
127.2031,176.4838,94.3560,195.9603,22.1413,59.4621,-47.1954,76.8452,-3.7949,68.2470,-27.2907,70.4677,-111.8544,76.7247,-65.0194,90.2280,210.2206,29.9919,3.4920
95.6127,120.7447,111.4786,168.9093,-9.2380,57.9475,-57.8533,43.5975,-17.7771,43.9598,-80.4162,49.4928,-110.6777,94.5250,-37.2617,69.5815,223.3191,17.2601,-20.6570
110.9726,83.0688,153.7530,168.7197,23.0179,70.2950,9.0179,42.0795,15.1121,33.6168,-106.0648,38.1787,-33.1783,107.4306,7.5818,60.3619,240.0657,36.3575,-10.0440
146.7702,40.8116,169.0724,189.6369,82.1881,109.9893,80.1890,101.0934,64.1396,40.1645,-86.7348,69.6032,-9.2613,99.2071,23.1329,65.0102,220.1981,87.6218,56.0658
133.1490,-6.6400,185.1912,209.1212,149.7204,159.1865,163.3806,187.2615,122.1839,98.2396,11.9090,142.0794,-9.0753,93.7836,41.4319,76.2241,208.6129,148.9062,162.5404
95.2735,15.8636,233.0707,237.7385,246.6839,189.4084,294.4724,255.2843,179.3026,168.7430,140.4259,207.6105,70.7812,112.5135,98.7167,64.2067,237.9364,191.6307,239.6584
90.6854,99.6219,264.5638,240.5362,316.6194,189.3816,379.2914,286.8392,191.7924,162.7335,157.3941,204.6729,163.4559,121.4220,170.5365,43.1760,232.1475,187.6456,252.9094
94.0016,123.9382,243.4586,170.1733,297.6179,167.4355,350.5304,276.9947,151.4852,112.8376,70.3908,170.4577,170.5692,116.8523,212.6560,74.4301,159.8490,137.0933,237.5299
71.4234,53.9329,196.8326,71.0676,232.3969,115.7524,271.4297,220.8823,97.4778,97.0965,61.8097,163.6604,143.0618,105.8200,205.8922,119.5634,86.1062,60.7444,190.4270
51.7885,-13.7853,148.1308,-2.7708,168.2992,13.4409,178.5663,121.3663,49.0942,69.3934,158.1159,124.5574,148.8991,32.8808,169.8716,74.6800,30.6451,-33.1579,76.3487
59.2515,-7.5827,107.7791,-66.1733,96.4148,-112.6177,79.5753,6.5983,16.2446,-6.0728,173.0023,28.9728,164.0621,-86.5697,143.7529,-26.6172,-18.3034,-127.4132,-44.8447
85.9648,46.1083,89.4446,-110.7536,33.8193,-197.3639,37.8301,-76.0881,28.8448,-37.5866,63.3639,-11.3616,139.3232,-134.2306,126.8319,-74.6740,-33.7657,-180.0127,-75.0244
118.9490,78.8417,73.9705,-106.3570,5.3648,-219.4008,51.7205,-99.7928,73.4507,8.3557,8.2860,19.8676,55.0304,-94.9457,77.5421,-67.0384,-31.2681,-180.8037,-44.3594
125.3030,54.4406,36.4701,-95.3139,-24.6065,-207.4802,23.8934,-80.0937,74.8283,33.6374,78.6510,8.4696,-47.0612,-47.7062,-1.3125,-41.6223,-57.4024,-176.5499,-61.8259
87.6395,0.9816,1.8335,-124.9303,-86.2611,-190.3425,-67.5112,-58.3219,5.6158,-13.6830,136.1998,-38.9515,-91.8746,-10.7131,-51.0384,-4.9287,-86.5194,-203.8714,-136.7308
57.1285,-39.0103,-6.5231,-167.5413,-143.1426,-187.7799,-154.3898,-69.2609,-64.8503,-85.7415,88.6427,-31.3901,-85.5316,-4.9453,-52.0790,-3.3342,-92.3726,-234.9823,-182.3337
66.8858,-57.0651,-3.2914,-189.6278,-149.1333,-194.5239,-190.7960,-99.5029,-77.6956,-128.6542,12.6763,4.3321,-86.3815,-53.1995,-42.7448,-50.0555,-106.1932,-212.6797,-164.3439
62.9959,-54.0816,16.6518,-177.9496,-100.3095,-164.0289,-162.3633,-90.5302,-57.2734,-114.6119,9.3880,16.4493,-73.8235,-53.0485,-37.1993,-49.1552,-112.4477,-127.1491,-126.6658
12.2572,-48.9747,67.6468,-120.4506,-28.4306,-74.9234,-87.3674,-20.9690,-36.4963,-51.5670,69.0538,39.3391,-19.7366,61.8357,-15.1577,30.7198,-72.5218,-31.8068,-78.5338
-37.8414,-86.3241,119.3348,-53.4236,34.5669,29.2319,-16.7587,60.3621,-4.6524,13.8536,109.2951,81.2095,16.9887,166.7373,15.8918,90.0937,-27.0251,31.0981,14.1430
-49.7525,-132.6656,149.8182,-18.4703,90.0234,108.5762,28.2242,106.1011,25.6212,42.1320,107.5102,106.3459,19.1337,177.4687,26.2790,80.6430,-4.5133,69.3019,102.1119
-29.6976,-85.0424,182.7462,27.3271,138.2765,150.2728,34.6615,104.7651,4.7431,14.8093,120.3221,120.0624,51.5072,156.0785,13.4635,38.9728,38.0306,85.8684,80.3404
11.6729,33.9722,218.0272,114.6964,147.0461,136.6919,-27.2736,64.5214,-59.2469,-58.1283,151.6350,125.1885,106.6206,126.2423,0.0756,-8.4748,99.6385,73.8493,-13.6157
50.5750,93.5496,221.5033,181.9681,124.1730,91.4553,-94.1632,29.6621,-97.5328,-102.3302,129.0637,110.2594,117.1031,89.7824,6.0798,-20.8223,141.3325,71.4100,-27.6925
59.4475,85.6152,190.7370,203.3098,134.3668,85.9369,-53.0344,46.0641,-84.1226,-63.7662,53.9992,121.2005,96.7326,101.9866,32.6181,29.3701,172.6662,113.4939,49.0294
47.1483,98.3325,153.3799,218.7833,179.1516,124.1318,46.2321,84.2828,-45.2982,-21.0998,19.4448,178.7788,98.6360,136.8560,54.8688,71.8222,183.3683,155.2339,88.1086
28.7404,124.8063,126.3902,215.7941,187.6782,138.2414,67.7330,91.9272,-6.1131,-58.8433,53.2433,194.0445,109.8339,119.1916,46.3507,49.4149,132.5005,147.4597,67.5209
0.7357,113.6204,114.4615,174.5040,152.0675,116.7769,29.2738,80.7123,-1.6338,-110.7741,86.2583,125.8948,85.8809,88.0134,13.2679,12.1544,72.8030,116.6935,74.1427
-14.7393,83.1529,115.0958,143.1115,131.8092,95.7641,24.9079,68.1516,-43.2986,-86.5424,62.6968,72.8104,24.9266,88.1765,-14.8895,-9.7261,87.5009,89.8434,110.1179
15.1721,60.9092,121.6982,126.7416,141.1414,66.4482,48.7640,36.6469,-52.8861,-25.3777,-7.5244,88.7390,-22.0406,78.9337,-12.0658,-35.3175,130.8660,50.2628,111.0445
68.7948,51.2892,127.9564,71.6274,143.7962,22.0173,62.3174,4.3103,24.2782,-1.7883,-66.8886,96.6654,-14.8774,68.3592,20.9452,-32.4660,113.8073,14.1556,81.3493
91.6924,65.2068,116.7016,0.2772,117.8509,5.6800,71.8491,7.3379,93.6401,-5.9970,-68.6768,54.4626,-0.1078,83.8584,36.6479,7.8453,49.6967,21.9245,65.1148
64.4869,75.0987,81.9770,-31.1281,73.9557,22.2852,83.7696,22.8378,68.3367,2.0540,-45.4431,18.3729,-37.4875,66.7527,6.4785,7.0251,0.9988,44.0732,69.5406
18.7977,40.5713,62.0919,-39.6327,47.1782,13.5767,99.1854,13.9120,28.8687,9.0597,-55.4241,19.5796,-70.2157,2.3642,4.2077,-44.4861,-0.5025,24.7726,81.0694
5.1703,8.3673,85.3162,-29.4504,69.0603,-29.9665,122.7426,-11.7089,66.0937,-14.7491,-73.6603,39.7914,-18.9638,-29.4748,92.8016,-52.4880,46.8762,2.5272,89.8354
35.0681,35.0632,119.2741,36.4123,134.6796,-42.2758,153.7690,-31.4847,130.8085,-32.2736,-48.2594,80.8706,66.1027,-6.8318,183.1564,-2.6427,102.7196,54.0964,101.2063
65.0723,68.4727,135.0210,107.2419,210.1576,2.3918,206.3390,-27.0936,156.0429,14.7573,-6.3762,124.9877,108.5051,24.8840,180.1568,18.2278,112.7158,140.8932,133.5476
67.1537,55.5894,150.4638,100.9117,252.3653,46.1169,268.8455,3.7500,155.7073,83.1493,12.9061,108.3576,137.6335,41.8344,145.7443,-13.9478,88.0116,160.5305,167.9396
58.9196,45.2258,179.7007,73.8373,236.4185,64.5808,274.3614,34.6572,148.9693,90.9617,41.3947,43.2105,195.0721,56.0936,151.1701,-21.4067,86.0163,136.2309,165.4196
50.2463,73.5964,212.3011,125.6942,200.3462,127.3097,227.0635,70.4071,131.4965,78.7888,109.3823,35.2615,249.0726,125.6333,156.0677,54.7638,124.8325,178.8967,161.6597
46.5318,91.2719,232.1105,215.2839,204.1163,253.7775,223.3699,149.0852,117.2315,122.7206,180.3728,102.7956,261.8644,257.4064,139.2887,159.4441,176.1847,266.9836,208.4129
71.2426,60.6607,221.1145,237.8802,229.1865,326.4897,256.7154,230.0928,117.0080,167.4059,203.8242,137.8765,234.8760,309.5450,134.5822,192.4107,202.2781,274.5007,247.5156
105.1916,10.7010,189.5961,185.5310,219.6174,280.3325,235.0175,238.6004,115.1031,147.6119,174.5788,84.5833,190.3514,229.9338,127.5389,170.7252,180.7195,213.6549,226.3359
91.7989,-17.9940,174.1644,127.4346,187.3096,226.0719,200.3614,218.3056,106.2088,129.3759,123.9088,3.3386,150.3715,198.2493,94.6444,193.0239,133.5549,207.0129,225.4341
39.8895,-17.7881,163.1686,111.8113,162.1990,232.4738,241.7092,234.6000,105.5679,158.8784,75.3739,-35.0034,105.1183,255.6124,59.0147,228.6250,105.3235,233.6593,277.3043
8.8295,-7.6981,126.4252,128.9665,128.1523,189.5520,278.5669,216.0255,113.1422,158.1890,34.9174,-18.5828,40.3057,187.0804,27.7432,156.0181,99.4748,164.0006,254.1319
13.6086,-1.7561,113.6384,132.3859,88.8449,36.7416,208.3263,91.0342,108.0487,79.8452,24.3269,2.7025,7.6761,-32.6276,8.7304,-2.2095,92.2933,20.8608,103.8561
31.9273,8.4150,161.1590,99.7122,77.7046,-100.2189,108.8837,-60.5948,82.3009,-10.7733,62.1091,-23.8130,58.4670,-169.0058,43.6928,-115.7249,80.9830,-41.0533,-33.4728
36.5053,26.0011,176.3622,64.9047,86.5305,-109.8224,85.7328,-122.5128,56.5858,-42.7102,102.0488,-53.2398,127.5543,-135.0697,105.2649,-136.2174,57.0377,15.7483,-48.0920
-2.1339,27.6244,94.0421,60.0715,87.8078,-31.3511,100.9332,-69.1387,45.7778,-10.7273,82.5149,-9.7011,122.9541,-33.2170,109.3350,-73.9994,-1.3826,81.8546,13.6087
-65.7193,-3.6237,6.7941,63.3239,79.1675,45.8322,84.5067,44.0524,30.4945,44.1202,32.3470,42.0389,74.9762,66.1722,71.0519,50.5993,-73.7828,81.4478,70.5869
-94.7501,-50.3133,-9.7564,38.5864,56.5476,73.3737,56.4198,124.0722,5.4876,79.6771,22.3964,-5.0354,64.7678,118.2040,60.3785,146.0906,-123.0341,43.4009,98.9239
-84.7120,-82.8998,-11.7998,-7.9661,29.4684,62.2146,66.5798,133.1625,16.3655,100.2231,37.5981,-81.2625,87.4726,107.6057,70.5942,140.9196,-160.4479,30.9138,123.5343
-71.1652,-89.1878,-33.3058,-31.1593,39.1733,73.0851,114.3149,142.0808,78.2667,137.3653,3.1829,-59.8909,98.0987,113.9643,85.1844,110.4295,-191.7860,72.2559,173.6009
-54.0886,-77.2844,-25.6593,-1.5285,77.7113,124.1372,156.7005,193.3367,119.4480,181.1447,-78.7639,15.1231,103.2200,169.0511,115.8463,132.1727,-178.9897,127.7960,212.7888
-39.2695,-59.6512,10.1333,43.0133,74.1619,140.4288,153.6230,207.4592,86.2313,182.9057,-111.5440,28.9417,113.0711,175.4115,115.1521,141.0946,-133.0125,122.6338,167.0454
-51.5685,-41.1006,14.2911,38.7957,7.8590,74.3826,97.0618,128.6695,26.7753,119.3122,-55.5489,-23.1435,83.9168,80.8029,44.3422,66.9150,-116.4349,47.4927,47.7767
-63.9205,-21.3540,-16.2483,1.9975,-67.1650,-13.9501,10.7759,23.5903,-1.4966,29.3596,-14.7405,-77.1274,-0.4711,-42.9263,-24.5049,-38.8672,-125.3764,-19.7460,-57.0796
-44.7079,1.3359,-32.8215,5.4127,-100.1440,-57.0071,-65.4331,-34.7315,-13.0524,-9.3467,-74.3457,-89.8069,-58.5432,-106.0071,-29.8609,-93.8084,-120.6296,-29.8202,-101.7275
-31.2977,18.4029,-18.4499,39.7007,-72.3313,-60.1841,-92.4674,-54.1685,-20.3709,24.8676,-157.6090,-69.1956,-23.1658,-84.6074,-9.5681,-88.7893,-129.3473,-20.3854,-95.6561
-45.8342,2.8767,9.0366,32.3251,-3.9985,-59.1640,-60.1782,-69.4502,7.3579,49.7670,-180.1122,-73.1825,40.2054,-37.9990,1.7713,-68.2820,-164.6647,-27.5272,-63.2171
-51.8068,-38.7333,28.4331,1.6390,42.2936,-67.3467,-17.6971,-87.0456,48.0767,3.2288,-175.0276,-104.6909,38.0310,-21.9269,2.3672,-55.4284,-164.0300,-35.3779,-52.7417
-42.4640,-34.8691,19.3148,26.4430,26.9608,-63.4246,-41.5681,-93.5727,16.7223,-55.7181,-144.8254,-71.4600,-1.9718,0.9012,-28.1281,-30.6177,-121.1529,-30.0955,-98.3398
-39.2333,35.2530,-16.6513,82.7462,-22.1952,-23.0777,-127.7647,-83.2394,-80.5194,-59.7562,-54.0921,21.6892,-3.1898,47.3569,-79.1419,6.8962,-108.1687,-14.7352,-157.5141
-29.4956,71.7291,-43.4937,81.1673,-62.9217,27.3573,-164.7090,-59.5868,-124.7112,-33.9539,-11.8536,30.1172,18.4164,52.9542,-91.1304,31.7848,-122.4102,17.4599,-158.9241
-2.7052,28.1768,-36.0093,31.9144,-77.4311,47.0220,-92.3133,-16.1924,-79.5913,-15.2487,-113.7643,-51.0354,3.1493,41.9953,-51.6005,67.9020,-99.2772,59.7582,-89.9855
21.6653,7.3618,-3.5015,16.0511,-65.8016,53.3745,-12.4670,42.5715,-39.8605,4.0061,-191.4489,-55.6891,-34.1293,78.9104,-15.1476,131.2795,-47.1351,76.3026,-8.4080
29.1662,52.1646,43.7476,32.5629,-59.4152,54.0320,-34.4286,68.5616,-48.1801,19.7892,-95.8682,21.2410,-41.3607,52.6552,-23.6272,125.0041,-7.8050,39.1163,9.2045
22.6826,64.9443,93.1804,14.7514,-97.2912,-12.3550,-108.6429,21.2516,-56.4720,2.0128,1.2851,13.6666,-34.0287,-115.8715,-68.5659,-8.7439,31.2784,-46.7166,-49.7718
30.6936,30.7897,105.1860,-29.9750,-158.7529,-136.9810,-132.1291,-68.2374,-60.7371,-52.7994,-74.7988,-81.3375,-71.0828,-233.1819,-113.0617,-137.8741,82.5286,-134.8922,-114.5564
77.1049,45.2122,62.5368,-25.7363,-185.6339,-192.6532,-113.8258,-134.7611,-90.4795,-101.8517,-207.4143,-119.9952,-147.0681,-169.1129,-135.2302,-153.4075,118.7822,-158.1426,-139.2158
100.2724,90.1097,12.3751,30.2399,-172.8137,-141.4999,-126.5950,-146.3116,-126.0202,-106.4342,-239.5968,-96.2669,-187.3705,-91.4883,-148.8325,-138.6109,118.4571,-113.8256,-154.8877
28.6849,69.9448,-8.5836,57.0530,-165.7138,-85.5109,-169.2438,-114.0335,-147.7229,-86.3710,-189.6422,-87.6929,-157.4788,-105.8162,-158.4042,-153.4588,69.5839,-71.3105,-166.1343
-57.7903,25.9274,-26.9193,41.2953,-172.2330,-48.9021,-159.7573,-64.9902,-155.5603,-70.3261,-130.0323,-58.0246,-104.0869,-92.3136,-138.2153,-116.7602,-37.9047,-42.2888,-128.0976
-40.1735,51.9797,-60.5683,59.7268,-148.0415,35.4621,-69.1793,-15.2897,-125.7302,-30.1068,-107.9416,25.1955,-72.9988,-15.2514,-94.9231,-22.9646,-176.6608,17.8425,-66.5512
33.7476,100.0105,-78.7876,119.1061,-87.6764,125.5709,0.2105,17.3005,-80.9116,29.8118,-143.6171,66.6215,-62.6431,22.5491,-76.2022,7.5998,-285.1093,66.6629,-65.7510
58.6841,79.1669,-64.5197,131.5113,-58.3876,120.5055,-31.8967,-0.5804,-94.5898,25.3435,-179.9656,19.4301,-72.1147,17.4325,-93.1228,-40.2813,-317.4050,31.1324,-120.0085
45.5243,24.7050,-44.7970,75.3627,-95.7000,47.9806,-75.9556,-58.2799,-133.8795,-42.2894,-156.6674,-28.7183,-115.0840,33.3908,-114.9295,-53.1178,-280.7784,-42.5860,-145.7324
45.4157,18.8284,-47.8568,19.8981,-146.6483,-12.2765,-52.2091,-93.3225,-115.9403,-74.8055,-121.2500,-38.6547,-170.1292,28.6690,-131.1140,-14.3640,-240.8288,-88.1312,-137.1922
64.9921,51.1737,-69.3366,-11.0117,-176.0623,-66.4164,-62.1735,-110.9549,-106.9551,-92.4314,-120.1345,-66.0881,-184.4896,-58.7848,-149.4556,-21.4802,-258.5704,-133.8806,-173.4251
92.4142,58.4937,-88.3492,-52.4350,-218.8831,-127.9081,-169.2190,-173.3332,-185.5622,-175.3813,-98.0370,-106.2604,-143.8739,-149.3972,-160.5187,-73.4675,-314.5557,-188.0675,-265.0376
89.8976,32.6140,-110.6975,-103.3230,-276.3963,-163.2851,-249.2333,-242.2183,-249.6255,-243.8145,-35.8560,-98.4950,-95.5725,-122.1750,-152.5289,-68.4252,-352.3538,-210.5246,-319.9258
29.5280,13.3331,-161.5007,-132.4604,-299.8252,-176.7632,-240.7740,-234.7045,-220.6075,-205.3221,-22.8789,-58.4263,-89.2161,-27.4147,-142.5338,-17.6901,-358.6965,-229.0814,-293.6388
-31.5617,12.6019,-212.9234,-139.1326,-293.5280,-199.1754,-242.7180,-189.4059,-191.9085,-142.4310,-88.4150,-46.5681,-118.5433,-17.6615,-156.7479,-21.8841,-335.8793,-272.9339,-255.7014
-31.7398,14.6360,-202.6270,-141.5304,-295.0710,-216.5901,-281.6214,-181.9517,-207.4092,-129.3720,-134.2421,-61.6582,-140.5149,-86.9306,-178.7789,-58.1642,-274.3850,-281.5801,-263.9897
-4.6105,18.8145,-151.2305,-137.2164,-290.6864,-212.9454,-286.7148,-204.5819,-196.7639,-133.0663,-122.1756,-68.4427,-138.5982,-106.7478,-165.7463,-48.8216,-192.5387,-236.9850,-285.4803
1.2723,15.9693,-131.5116,-104.1939,-256.4626,-198.2377,-251.9494,-233.1537,-164.3888,-147.7588,-143.1533,-64.5202,-130.9537,-75.6069,-129.4188,-38.6147,-121.7141,-201.5222,-267.0248
-9.4699,-23.0175,-133.7193,-47.7166,-204.1618,-165.6353,-202.0230,-239.9351,-159.1568,-155.9620,-199.3997,-63.2425,-120.6205,-67.5639,-119.6452,-60.5280,-75.7906,-174.8949,-199.1251
-27.0273,-80.3838,-120.3793,-32.5128,-146.4165,-127.4184,-147.7059,-184.7164,-149.8957,-105.0643,-149.6208,-67.4188,-91.7909,-59.8914,-123.3018,-42.4067,-82.2144,-132.3485,-129.8344
-51.7524,-105.7751,-132.6268,-104.1682,-109.5366,-138.8733,-146.4244,-129.4973,-122.2325,-74.3819,-9.2234,-80.4836,-65.2233,-47.8247,-99.9288,-9.7768,-147.1405,-127.8951,-136.9992
-87.1897,-115.7395,-182.1446,-188.4117,-136.0111,-192.8330,-206.2405,-158.5549,-121.0492,-145.3137,0.5106,-97.4577,-89.5078,-92.6476,-84.4880,-55.5470,-190.7243,-167.7766,-206.3567
-136.3369,-152.6931,-179.7911,-175.6349,-191.1688,-206.2999,-211.4398,-172.3002,-124.3912,-160.9262,-140.6955,-89.2471,-147.2336,-136.3503,-110.3000,-100.1804,-144.6508,-159.0865,-210.2452
-160.3671,-181.7217,-100.5882,-90.3555,-184.3987,-167.6189,-117.5686,-73.6763,-69.4077,-14.4837,-190.2342,-51.2805,-155.4658,-95.3631,-114.9264,-54.1484,-62.8996,-98.1593,-118.9878
-128.8589,-161.0789,-48.5441,-55.9186,-126.8840,-153.3853,-25.8257,-0.1637,18.3523,92.8034,-105.2616,-43.4005,-107.5324,-72.1898,-57.6932,-28.2686,-29.2002,-82.5928,-51.0806
-109.6177,-125.6085,-82.1500,-112.6343,-108.5441,-187.9973,21.5064,-51.7626,66.8270,29.9645,-96.4726,-94.9575,-97.4981,-134.7760,-4.7931,-72.2665,-47.9452,-119.4170,-37.0969
-149.1977,-108.4840,-140.1357,-182.9334,-130.6909,-221.9547,73.0932,-103.1014,59.8947,-45.7799,-188.1818,-126.7166,-146.6552,-154.6403,-7.7050,-70.1549,-89.6416,-139.7453,-9.4879
-168.0500,-106.2309,-165.3169,-205.7692,-130.5408,-231.3061,109.7366,-92.6850,32.1745,-31.7918,-210.7364,-93.3311,-164.8007,-115.0256,-34.3909,-34.2438,-139.5147,-143.2341,-3.1144
-138.8225,-137.7224,-172.7111,-216.1834,-115.1366,-238.5527,79.7181,-99.9368,26.1925,8.7444,-156.1107,-87.2848,-133.0565,-153.6583,-49.6693,-60.8578,-173.8350,-163.2151,-57.3695
-148.7626,-199.3406,-186.6188,-265.2378,-123.5865,-250.8684,23.8815,-106.1442,55.5972,56.8048,-129.1479,-144.8032,-124.1351,-216.6663,-46.1122,-85.5777,-161.2957,-177.3207,-68.7851
-186.9631,-219.7542,-186.9417,-324.7215,-131.6661,-233.8010,22.2682,-55.1271,93.7822,110.7086,-124.7811,-148.5465,-127.3604,-161.0054,-16.2403,-56.9116,-100.3691,-145.7170,9.9678
-165.0847,-173.6781,-145.3542,-340.8861,-97.3024,-162.6653,91.4750,-5.9424,126.3057,135.7522,-125.4694,-75.2536,-79.4883,-81.7056,29.7215,-51.3382,-34.9331,-71.0992,83.0940
-128.2422,-129.3876,-88.4299,-329.2170,-29.1472,-78.4338,186.2308,22.9541,171.6540,180.7661,-177.6135,-57.1041,-26.7729,-90.2887,59.4095,-40.9579,-14.3642,2.1717,127.2513
-153.3296,-122.7122,-76.6013,-327.6772,32.5420,-41.9604,248.5073,91.7758,225.5797,277.0431,-261.4148,-102.8678,-43.7039,-75.4244,57.3719,35.7213,-31.9234,25.5111,177.8343
-185.7750,-118.1847,-122.8135,-325.9259,48.2921,-47.5995,253.8391,149.5868,253.6652,312.1952,-306.3160,-91.7513,-86.8544,-5.8936,37.3664,54.8283,-49.7283,6.6174,170.1634
-185.2594,-107.4982,-176.8512,-314.3733,14.0184,-50.0642,224.3473,113.2264,235.4788,246.3711,-298.2162,-36.4668,-82.4710,-35.4077,25.2979,-49.2503,-72.6443,8.4308,82.5951
-200.8186,-125.4894,-181.3661,-305.8484,-12.1989,-37.1580,187.5261,54.5351,168.6614,186.6974,-246.2711,-26.4955,-39.2605,-136.4219,33.8574,-115.0577,-108.4263,50.5517,32.2648
-220.0583,-170.1680,-125.5799,-277.1776,11.4075,-8.8543,147.0518,61.1504,75.4851,139.4047,-180.2287,-24.9253,-9.0513,-104.7741,42.3981,-62.0477,-102.7829,78.9645,59.8160
-189.6207,-184.7903,-62.2500,-205.0130,29.3853,40.7764,105.7170,84.5571,18.1067,50.9952,-183.6034,27.6495,-28.4709,37.3610,29.7111,7.6987,-21.7525,66.2858,85.4940
-140.3905,-135.9462,-41.5211,-139.2269,-3.3608,77.9869,83.2096,73.0510,35.8942,21.8738,-262.2235,85.2009,-76.4315,82.0096,17.2142,35.0736,77.1678,49.0771,91.0451
-103.1762,-74.9626,-27.3666,-136.5138,-17.4583,61.5934,88.6288,64.2740,82.2325,110.2034,-284.0547,96.0918,-76.1626,19.1406,29.9934,28.8239,129.2495,43.3732,101.6547
-45.6789,-71.7025,24.1378,-178.8090,29.6865,21.0998,85.7823,86.4754,88.0243,162.4507,-195.0021,63.8510,-23.2794,10.8208,46.1817,8.7502,127.6255,27.2703,97.3025
6.2556,-106.0265,52.4460,-212.6028,55.3125,14.9090,33.6647,116.1352,56.9799,125.2699,-129.1249,21.3534,-16.0696,74.8427,40.2490,34.4138,97.5831,20.5640,88.0557
-18.2135,-110.3453,9.2634,-202.5211,29.2719,50.3806,-28.3183,138.9541,48.6233,152.5846,-192.9138,27.1762,-62.3915,92.2556,36.6949,101.3809,82.8561,71.3476,111.6804
-80.3548,-85.2055,-20.5176,-149.9869,44.7544,98.8059,-26.7083,161.9613,82.1212,236.9149,-291.5299,83.2003,-49.5396,53.1100,67.9709,118.4331,109.8672,155.0398,134.9768
-78.3882,-68.8116,32.0073,-97.1224,113.4120,129.6172,9.5453,173.2450,97.8169,192.2739,-258.2163,99.4656,29.8287,52.0092,108.4258,92.7301,145.2485,189.8582,109.6318
-12.1004,-58.5074,103.2492,-73.2671,133.5767,118.9285,-6.1170,143.7651,46.2187,51.7943,-87.6405,55.5157,61.2663,87.2584,102.7688,89.3736,160.5168,150.8093,57.3075
44.6192,-48.2649,132.7982,-57.0779,101.7276,78.8621,-56.8131,78.2066,-23.9275,10.0054,42.9097,34.8977,31.3562,78.4811,60.9314,75.5158,182.3924,89.0343,15.6735
64.1814,-51.8688,144.8353,-34.9370,110.6663,57.1606,-61.0909,23.5874,-40.6076,43.9216,16.0771,50.1425,41.7071,45.8844,59.1675,46.9293,213.1620,58.6708,-5.2725
54.6077,-53.0035,155.9642,-25.2024,158.5689,80.2662,-29.1446,9.4341,-22.0443,23.1730,-63.7907,52.4584,114.0763,67.3507,108.4160,66.9661,208.5762,72.0266,-6.7348
23.1929,-22.3739,149.7293,-23.8952,169.3498,130.7296,-34.6473,23.1738,-22.9209,-2.9435,-52.7925,61.7581,153.1570,115.5473,116.3256,84.0500,167.7363,96.5756,-1.9831
15.7755,31.0513,135.6517,-14.3037,140.6376,173.2948,-75.3919,43.2038,-31.4140,21.4688,28.2355,94.0960,111.7819,126.3674,49.6586,38.5997,135.0419,90.8946,0.1669
73.6555,74.7716,142.5145,-12.1255,126.2535,178.5215,-76.3783,52.7860,-9.7400,9.2750,98.5270,98.1393,78.8730,125.2454,6.5033,30.2895,123.4445,65.7287,12.4164
130.9770,74.5383,166.0599,-34.9053,138.5057,148.8579,-18.4266,52.9219,27.1382,-29.1934,149.5017,64.6172,126.4548,136.9056,42.6978,94.0182,111.7089,62.0908,40.0448
104.7486,23.0168,159.7998,-66.9138,144.4572,119.8428,21.1005,71.3008,40.0619,16.3889,167.2566,39.4916,163.0950,126.1980,77.2948,114.6068,89.0706,73.3963,74.4162
52.5659,-16.1178,105.7538,-74.6685,130.5485,110.8099,-4.6833,102.5992,26.5409,80.4983,123.7356,36.5271,104.1995,105.2231,52.4196,89.1700,74.4965,75.1097,103.7110
61.8433,14.4297,70.7526,-42.8178,132.8916,106.2089,-31.9636,92.2927,15.7646,50.4479,91.1946,43.6764,55.2925,114.0375,25.5117,95.4069,88.7829,83.5852,99.7818
83.9389,55.1743,97.8449,-16.1753,164.6949,97.7238,-17.6661,44.8484,19.0613,13.4836,161.1815,47.1442,97.6552,124.3713,33.7827,90.7877,99.4808,99.3602,61.2753
63.2515,36.1639,106.6658,-52.7024,160.0281,98.4650,-19.0494,40.8577,14.4479,37.8209,271.9905,41.4614,108.6498,131.8274,27.7772,63.9887,62.8811,88.9018,51.7264
56.1560,6.8000,44.3856,-110.1296,92.4133,109.0572,-45.9780,97.6022,0.5820,31.2076,305.7831,49.8890,27.3714,186.6996,-3.9677,103.9261,25.2663,68.2265,98.0358
73.8954,10.8001,-2.1378,-114.2946,56.4050,104.9393,-20.0980,134.6034,17.8709,-9.8171,280.7299,45.5701,-2.2188,221.8577,6.0346,153.0608,46.3426,72.2722,132.0973
37.4407,-11.6394,15.7396,-114.0237,95.6673,67.0998,54.5841,91.3204,65.3969,-17.4453,278.7378,-50.6751,73.8294,122.6751,67.5893,78.5547,66.3621,60.1710,110.9347
-41.3024,-70.9221,19.6843,-168.8336,105.1552,18.6202,87.5434,0.2275,75.5383,-49.0928,286.1734,-159.3415,117.0316,1.3943,89.1843,-20.5481,20.6807,-7.7287,72.1064
-70.9438,-71.8632,-23.3611,-193.1178,31.5757,7.9900,67.5998,-41.7674,35.0720,-91.4892,258.7559,-102.1207,66.0359,57.1556,30.4593,30.7424,-25.9631,-78.1237,46.9413
-47.9753,-0.9266,-49.9705,-125.5939,-26.7609,34.9272,55.6396,11.1621,21.4774,-1.6633,245.2723,34.3962,13.6612,200.8340,-23.2422,148.3756,-7.1387,-99.9964,34.0619
-21.8433,25.8143,-17.6217,-57.5654,-1.3759,41.8873,66.8911,55.9707,54.5536,119.9202,310.7933,22.0092,22.5423,182.6227,-7.4367,136.7005,51.4581,-92.6700,23.2450
3.9825,-31.5438,65.6087,-27.1943,55.7138,16.9688,63.0724,-21.9007,48.3065,25.9695,407.0462,-54.8425,53.9361,18.7030,15.9489,9.5796,131.3374,-69.2055,-10.8583
27.3617,-55.7549,148.4064,60.2915,82.9489,25.5343,15.5861,-145.3329,-23.8094,-179.7373,431.4240,22.1113,46.2904,-48.2557,-20.2624,-75.5277,229.6434,-17.7231,-63.1078
34.0274,34.2458,162.8622,218.4925,80.8458,92.6810,-25.6650,-168.7634,-61.5252,-223.9005,378.3964,155.7094,8.1468,41.5769,-66.8458,-73.1996,301.1981,43.0072,-71.4795
41.0993,148.9621,136.1192,327.9032,86.9237,146.6399,33.5912,-108.4381,-5.6105,-142.0711,340.3253,146.0422,20.4196,93.1734,-46.6092,-59.3223,325.6438,80.9877,-15.4400
56.0855,175.4011,149.3538,319.7576,116.7155,133.8298,157.4634,-52.0359,65.1133,-81.0677,363.8610,61.0239,95.0566,16.6476,20.7857,-60.9388,322.9261,96.3363,50.9063
58.3344,137.3434,165.5002,253.5459,128.4781,107.5519,205.2355,3.9941,76.9867,-4.2621,384.9675,48.6519,132.1882,-14.7221,64.3200,-38.9328,280.6981,110.2530,99.7440
53.3151,104.9504,115.5433,226.4693,95.7683,133.4312,185.2649,70.4804,65.1880,88.8677,337.9691,96.9343,102.5471,94.2309,65.2869,-7.4605,212.8489,128.2755,136.5052
55.9998,77.2784,59.2833,257.4987,63.8013,166.8147,196.1793,92.1752,61.6464,86.6925,265.6440,133.9660,83.9196,143.4388,51.5343,-17.7589,192.3466,113.7333,127.8805
52.5993,56.8901,40.5904,261.6208,42.8671,119.2109,167.3310,40.5428,25.1136,10.2812,245.5012,117.1394,74.4527,5.1086,37.5172,-53.3545,206.2804,23.5122,46.2141
36.2609,86.1497,-5.4383,182.0590,-23.9474,14.3659,13.5588,-43.1195,-49.1157,-29.3309,251.3037,48.5467,10.0655,-112.6533,18.6133,-62.3912,165.5110,-102.4591,-60.1747
18.5362,136.6245,-67.6228,93.4168,-107.8523,-43.8589,-131.1854,-95.9389,-91.1251,-21.9521,204.1454,9.0834,-63.0697,-51.0788,-0.0867,-35.0789,96.3783,-162.6255,-113.9826
6.2507,125.1744,-56.2155,77.8149,-108.0164,-36.9417,-141.5106,-79.8081,-65.6105,13.2884,130.5333,43.7537,-56.7126,33.9214,-0.0312,12.2471,95.2820,-130.0241,-85.3844
14.1679,62.1115,8.8023,111.3957,-39.7988,-18.3038,-82.4863,-23.6724,-4.9240,75.9813,125.6591,76.7830,5.0265,25.8736,25.9726,51.6351,146.1786,-64.2136,-9.1382
51.7726,35.9383,49.5595,156.6539,4.6956,19.9166,-21.3164,3.0239,47.4205,92.7262,182.4083,79.2393,41.6568,23.3506,51.9709,50.0443,183.2941,1.5955,53.4096
95.8467,68.0760,66.1795,213.2788,23.4951,97.2932,28.6532,-14.3426,50.5966,10.0374,207.0599,108.4756,30.0391,44.2470,39.3485,18.8537,211.1063,71.2431,78.0855
128.2304,90.6404,88.6550,247.7776,55.2908,142.2594,24.2311,-34.8040,-3.6445,-71.2257,180.4216,128.7477,7.3884,9.7927,-8.6761,0.5966,236.7770,123.0429,78.9306
146.6201,54.4285,126.1684,227.1590,83.6710,105.2952,-10.9125,-41.8913,-53.3760,-49.3300,166.9321,85.0888,8.8582,-15.0323,-42.0409,6.5583,230.0658,131.8355,53.3580
131.7543,5.4991,160.7732,190.1406,94.3151,62.3498,5.0320,-48.3415,-50.8569,1.8525,190.8415,66.9000,14.6181,43.6823,-30.9027,24.6043,189.1050,111.9833,6.4121
88.7274,14.9086,131.7280,168.9179,101.0403,74.5284,41.8851,-56.4429,-30.9249,-28.2456,201.8730,112.9337,-2.4480,86.1250,-1.5676,32.9625,135.7135,93.8452,-6.6516
61.6397,47.0999,42.3869,130.0905,102.0017,90.6921,36.0379,-53.2189,-17.5529,-84.0352,147.8029,93.8919,-1.8524,53.9060,9.1133,6.3882,87.4464,93.1940,38.5231
51.4766,23.5324,14.0658,71.3920,98.5846,76.4323,28.6280,-26.4190,15.4068,-48.1785,49.2117,-3.4727,44.3788,32.3435,1.9741,-26.2556,80.5643,99.4265,80.9665
32.8627,-6.0067,78.1920,56.9073,96.2156,74.1856,38.1103,-0.1194,48.0925,28.5691,-5.7429,-26.7840,72.3057,35.5415,1.8902,-17.5794,127.5813,76.0273,74.8741
32.3225,39.8562,109.3836,99.4271,67.0528,88.5081,11.4849,-19.9294,26.6063,8.3304,20.4503,21.9534,40.5423,8.7078,9.8142,1.1398,166.6830,11.6731,48.2275
61.3455,89.2690,69.7413,126.6543,10.0147,67.7555,-32.4223,-62.4634,-31.0773,-74.7085,46.2417,6.9436,-1.0663,-9.5031,-4.1020,-1.9824,151.2049,-41.8318,28.7849
70.7669,65.7867,51.2086,110.7788,-8.9872,10.6152,-32.6347,-63.0955,-61.2173,-83.0784,11.1366,-44.7621,-7.2504,12.4494,-38.1365,4.3380,130.2047,-39.8929,10.2951
59.6464,55.5500,74.6935,117.8503,29.6424,-30.9353,-3.7174,-44.0576,-47.6575,-34.6199,-9.9417,-19.0753,31.5316,12.3536,-40.0775,-4.4563,165.1729,-8.8133,-8.4574
80.3523,125.1193,99.0151,177.0837,55.3167,-35.2434,9.9012,-57.8797,-25.1904,-30.8358,45.5392,51.6226,101.0004,-9.8795,-7.6927,-65.0481,235.5225,18.8386,-17.9126
