Fp1,Fp2,F3,F4,C3,C4,P3,P4,O1,O2,F7,F8,T7,T8,P7,P8,Fz,Cz,Pz
-27.2668,-55.9613,9.0251,62.5014,21.5297,15.1924,-13.0191,20.1007,17.3321,42.3617,3.9733,-18.1939,-14.9416,44.7274,1.3897,26.8112,36.2618,31.5422,49.6754
-20.3689,-57.1011,-36.9078,54.3448,55.9776,-20.4193,76.1237,24.0063,104.8604,109.1142,-39.2929,-37.3295,-18.9060,-25.3318,-6.2054,-9.1311,-40.7189,-43.5800,13.9146
11.2180,-13.1130,-52.4676,3.5023,114.6958,-27.7166,137.9948,43.4705,127.4086,151.2942,-20.9248,11.1342,9.5787,-13.5803,-34.7403,-27.9823,-82.8442,-108.3382,-24.1861
71.7556,63.8603,-44.7041,-9.6560,114.5190,-13.2894,97.1592,54.6251,110.9884,128.0236,29.9054,73.0997,49.2431,23.6505,-0.4768,-24.2028,-78.1101,-112.1647,-56.5577
113.5548,96.2923,-102.2601,18.2702,-7.6858,-21.8715,-10.2529,24.5425,81.4978,88.3549,18.1989,62.5809,9.6285,11.9252,33.4155,-24.4945,-40.0847,-100.3728,-75.4049
99.8619,67.4777,-183.3319,22.9017,-118.3008,-19.1310,-83.3863,19.2989,20.8573,114.3424,-32.7779,26.5347,-81.4979,26.3738,-17.3377,-12.5527,18.2652,-80.3417,-38.8172
45.6344,48.9121,-165.2214,22.2467,-70.2033,34.7069,-49.3321,94.4526,5.7020,186.8588,-57.7833,39.8150,-78.2686,80.4306,-49.8940,28.2018,47.3094,-20.0499,48.9017
-6.6794,75.1585,-66.6236,41.6762,42.8907,65.7830,48.3236,157.0417,62.8159,192.4534,-73.8304,51.8698,8.8263,60.2287,12.2226,52.3979,25.7106,19.8802,98.1635
-14.7696,96.9803,-7.2679,28.6625,56.8427,18.9503,82.4985,125.5132,46.1842,115.6992,-86.5327,7.0247,15.3905,-11.8228,53.4237,37.4555,3.2711,-19.4085,71.6869
32.9975,83.7783,-26.5115,-19.7326,8.5126,-27.1866,24.7588,68.4601,-73.0465,74.6306,-60.0966,-32.9445,-54.7663,-7.9125,16.1702,32.0777,3.2852,-60.9764,38.4893
90.7084,67.7862,-62.6773,-42.0283,33.6245,-14.2091,-9.6802,47.7413,-115.2374,92.5161,-23.2898,-21.8816,-38.4494,44.4026,2.0091,46.3862,-9.7406,-40.0816,33.2956
95.2096,58.1958,-48.7750,-39.5241,128.4707,8.7927,40.4672,30.4711,-29.3067,56.4259,-25.0643,-17.2299,63.5297,53.3471,42.1413,30.2858,-57.2548,-16.4793,17.9438
49.0099,19.5445,2.1622,-44.0163,163.0092,10.6036,84.0326,4.6353,41.5763,-36.3409,-39.6476,-44.8806,100.5677,42.8304,54.4331,-6.6542,-122.0014,-28.3537,-15.6194
25.1954,-32.5266,17.7923,-52.5546,81.3506,1.9039,37.6809,-15.8285,24.1311,-60.0478,-38.3212,-47.0393,48.2238,30.3731,11.6060,-11.7173,-149.8102,-31.0974,-48.9196
66.6639,-29.3077,-5.6603,-68.0048,-7.4029,-34.2552,-42.6223,-50.5378,-34.7539,-8.7787,-39.0808,-8.5467,-1.9481,-20.0990,-33.3272,-7.1146,-91.7740,-9.0274,-86.3662
117.8881,27.4531,-6.4815,-72.7101,5.0088,-86.7537,-57.4486,-87.5202,-77.6044,-0.1963,-42.4945,23.7093,-21.4001,-60.7904,-28.4916,-37.8752,-14.5027,6.2602,-123.6515
106.9445,63.8480,-3.7589,-32.8658,49.6519,-101.0420,-20.7739,-90.2691,-78.2514,-66.1437,-32.5053,45.1634,-31.1282,-37.1932,28.1657,-71.2991,-42.9344,-11.6742,-166.7964
64.2340,70.4342,-46.8652,-12.6010,14.4969,-96.7716,-35.0803,-104.3223,-75.4686,-142.3366,-10.3214,79.0836,-27.9256,-24.6164,75.2071,-70.9874,-145.9363,-75.7127,-256.1285
75.0178,101.8121,-66.3198,-82.7374,-54.0298,-145.2725,-117.1848,-187.8848,-111.6337,-195.2479,23.0410,95.4150,-8.1928,-83.2754,52.1967,-64.6254,-175.4297,-151.9716,-360.3493
131.6718,142.7028,-7.3493,-142.7692,-66.1586,-224.2982,-164.3951,-282.8891,-126.6030,-241.6729,44.8810,52.8010,21.1956,-146.1548,-25.1049,-74.5174,-110.4802,-166.6771,-372.7034
142.1141,123.6560,22.6843,-95.0860,-47.1511,-252.4143,-122.4532,-303.5031,-68.1105,-287.0406,13.6158,-26.5576,51.1833,-160.7478,-87.0526,-95.8787,-61.1171,-118.0675,-288.3543
82.1627,56.3216,-44.6405,-42.7700,-30.5263,-225.2590,-51.4049,-258.7077,-4.4799,-276.1494,-34.7489,-82.4085,56.2262,-150.2632,-59.9690,-128.0924,-86.6116,-88.7627,-203.9936
26.5289,16.0346,-101.6804,-76.7831,1.4507,-196.0772,-11.4251,-201.8488,12.9278,-159.7741,-18.0276,-75.5149,27.5456,-124.7247,64.1801,-141.3752,-150.6145,-112.7330,-150.0791
23.9808,17.2956,-84.6825,-110.0288,7.5390,-179.3229,-15.9095,-163.3209,13.9613,-32.9787,35.7337,-20.9580,-0.5158,-88.2501,156.6066,-107.8080,-187.7392,-136.9709,-104.1339
45.0865,19.6888,-77.9260,-79.3648,-50.1669,-155.6404,-54.4529,-151.1443,8.0269,-21.7411,34.4451,16.3987,-12.7636,-76.0786,96.5888,-81.9433,-169.0210,-114.6425,-69.0401
55.7517,16.9765,-113.9533,-57.0064,-79.0756,-135.8772,-63.3388,-145.5063,14.9958,-40.1234,-12.4297,-4.0994,-31.7483,-101.9593,-18.9556,-100.7784,-137.8504,-66.4495,-25.7842
50.9307,27.7734,-120.8311,-98.5457,-17.9118,-155.4717,9.9678,-125.3381,81.1975,30.7427,-41.9014,-49.4649,-55.0168,-143.3595,-34.7171,-87.4957,-139.6050,-58.0670,31.6164
24.8046,37.9557,-89.1979,-165.8942,17.4147,-194.0110,79.3777,-110.0181,146.8727,60.7556,-54.0703,-80.0779,-69.7823,-173.0067,10.1896,-19.8633,-140.9888,-113.8268,31.8495
-13.3059,25.7279,-77.4699,-198.1155,-49.6160,-174.1494,42.5906,-107.4766,127.6220,-43.0254,-62.6220,-94.6016,-98.0300,-158.1335,25.1612,-9.8116,-107.9780,-160.7467,-29.6296
-23.1981,10.6484,-77.6148,-183.3901,-94.0895,-92.6645,-13.1652,-71.6143,99.4173,-82.0563,-58.7915,-89.4004,-134.7765,-101.4481,36.1914,-80.4346,-84.7985,-126.0253,-37.9956
5.7643,14.1030,-44.7814,-171.2567,-12.0099,-45.2613,45.2011,6.2868,136.3982,32.9774,-69.0778,-80.5738,-122.1497,-69.3861,45.3232,-114.2591,-110.8715,-49.1388,18.9191
33.9944,2.1412,-4.3852,-186.8460,104.8147,-57.0875,151.5221,52.6804,145.1246,94.6295,-115.2989,-127.9794,-52.5894,-77.7238,6.5068,-83.2401,-150.7474,-4.8511,29.0978
43.1937,-54.8924,4.3659,-170.4507,147.5183,-42.3046,167.9717,34.5854,77.1686,39.4657,-139.4884,-219.4719,14.2549,-46.2649,-26.9225,-63.7947,-146.8291,10.5323,-3.3658
52.4992,-99.1880,20.5867,-93.2241,147.8464,14.4177,124.0954,16.0107,32.2647,26.7242,-83.4262,-242.0879,61.9026,23.0552,9.4788,-59.4028,-82.6050,39.5991,14.6921
67.7087,-65.7453,84.9380,-33.5339,159.9843,18.7102,128.0712,32.0338,42.2582,60.5928,12.8600,-169.0084,109.4453,-0.5274,64.1007,-40.0440,-0.1187,89.8476,59.3189
87.0084,-0.8000,142.9263,-37.0113,160.4910,-54.8954,172.3911,34.3036,42.8605,43.4414,67.1001,-110.1677,117.7576,-128.8182,87.9995,-42.0512,40.2111,127.9129,63.8622
107.7889,18.3309,118.2046,-38.6670,128.7709,-107.8320,183.9339,7.5097,46.6300,19.9332,49.8625,-119.9293,55.0623,-174.9500,89.9788,-73.3209,33.9316,107.2508,60.0444
92.8699,5.0265,25.3356,5.6178,81.7984,-63.4740,151.6395,4.7790,99.0410,33.3307,-5.5016,-134.0019,-5.5825,-44.0732,64.6722,-76.1448,18.2434,34.6527,73.0345
30.0310,-3.9164,-50.2196,43.8668,22.0692,28.5793,98.3684,33.4311,153.9931,41.1474,-40.8125,-102.4679,-0.1725,101.5942,41.7145,-47.7738,-2.1160,-15.1770,46.8270
1.8603,-11.6730,-48.0965,18.0767,-32.2840,54.1177,26.9332,34.0041,147.8769,50.1952,-22.0759,-38.0981,16.5203,90.0088,65.9968,-39.8479,-30.8777,-17.2229,-38.3834
62.1904,8.5346,11.7662,-53.2696,-28.1584,-19.7936,-40.7337,-12.2206,90.7321,50.1632,22.9050,27.2489,-3.7596,-23.6524,68.9825,-51.2936,-38.8523,-26.5540,-118.5705
123.7888,72.7528,58.4712,-95.1280,28.3048,-101.6146,-57.7801,-59.3288,32.1708,-15.4919,34.3953,52.8240,-11.9702,-84.3859,7.0872,-52.6646,-19.5452,-38.3433,-135.1041
99.3295,89.5742,59.7060,-63.0636,73.3216,-109.0151,-15.1834,-68.5513,17.4174,-79.9195,-1.3334,23.2818,19.0649,-50.9022,13.1684,-61.8913,0.7501,7.5390,-89.1450
32.3546,7.5696,53.2021,1.6669,98.1201,-61.8684,55.8053,-40.3263,62.5153,-65.6587,-38.6285,-13.4951,50.6580,26.4286,131.2678,-99.1618,23.9581,69.2613,-26.7274
-5.0833,-52.6761,68.3391,30.9371,118.9735,-4.7723,125.3084,-7.3084,133.8267,-56.9938,-47.1175,-7.4031,77.2417,96.0490,181.9899,-124.0704,52.4024,61.0549,4.9812
-11.8999,-5.5609,80.2141,12.2949,108.3380,34.6482,165.3721,-5.3304,178.6270,-69.4345,-48.6549,28.5807,112.7345,90.9510,109.8865,-91.3393,45.9366,26.6237,5.2621
-10.8159,58.6930,62.8558,-19.3559,80.9143,13.9846,171.8645,-19.6736,174.4013,3.2480,-58.6508,54.2591,127.6526,-12.5045,70.8883,-32.4101,-8.6570,52.7314,9.9079
-9.4302,66.4150,21.0759,-30.2736,93.9515,-53.2859,189.2026,-8.3470,137.6670,87.1698,-55.0087,53.7573,106.5343,-95.6906,93.3374,-14.0901,-62.1340,99.7048,35.8018
-14.2551,49.0420,-27.8783,-23.8456,106.8064,-76.6655,228.9427,16.0803,109.7947,54.5388,-35.3130,35.8424,62.7459,-57.9038,88.6202,-34.0305,-80.0924,81.8661,68.2063
-29.1984,19.5356,-59.3321,-43.7943,48.2405,-47.6750,229.7991,20.3430,121.8741,26.0180,-34.2995,15.9291,-11.7628,-5.3227,109.1934,-33.5478,-74.6501,14.2102,94.2259
-50.2732,-10.0925,-56.8231,-91.2316,-18.3711,-45.2450,181.2188,28.3256,151.2949,97.6948,-61.8539,-0.8414,-81.7875,-39.6552,187.8187,0.1858,-55.9059,-28.7389,120.5501
-65.1231,11.4623,-33.3155,-82.8870,-12.0730,-47.0475,149.0962,64.6043,148.9443,129.7827,-88.8003,-18.4497,-64.0252,-46.6846,166.1814,29.0427,-25.7369,-23.2575,153.2154
-52.9910,50.2250,-7.1388,1.8744,11.1896,16.6349,131.7846,100.4080,114.1279,85.0272,-91.3929,-25.8280,8.9010,45.8384,5.3713,36.3819,-9.9650,-11.5984,171.8701
-5.4595,25.5115,13.8488,46.3248,-11.4945,72.1024,78.6723,115.9885,91.9472,86.4752,-67.4313,0.7587,19.9472,88.9968,-84.1298,30.4772,-33.5189,-35.6876,148.6709
54.8115,-3.9546,14.9996,-0.2664,-40.5108,27.7540,28.9325,109.2809,98.8800,101.9922,-42.0532,57.3722,-24.5621,10.4633,-24.5833,13.7363,-63.7975,-80.8300,88.8295
82.0211,52.7882,-7.2029,-20.1153,-45.8314,-41.8096,27.1463,58.6402,96.3504,36.6107,-54.3910,100.5378,-56.2682,-54.5662,11.3186,-8.6898,-43.8043,-111.9386,18.5275
47.7837,122.0459,-29.7956,48.8584,-63.1330,-46.7210,1.7508,-13.9924,43.8243,-36.1761,-84.8901,98.8294,-97.3360,-41.5184,-50.8732,-30.3930,4.9163,-138.8391,-51.0540
4.0535,108.8328,-37.4916,97.4691,-111.2286,-21.5106,-96.5747,-34.2631,-51.0709,-42.3339,-61.9748,83.6144,-143.8858,-18.1654,-97.3366,-52.5638,5.9095,-172.5907,-115.2526
39.4585,65.3201,-26.7015,56.6971,-159.2814,1.5748,-192.6978,-2.8701,-148.1433,-31.3838,4.2497,104.8889,-117.5252,1.6600,-84.0267,-66.1665,-25.0483,-167.1531,-166.6898
118.4425,72.0284,7.7135,21.0668,-175.0826,37.2929,-232.4130,5.4418,-218.4825,-41.4407,20.8778,144.7256,-44.1059,23.9992,-85.6271,-62.3555,12.6900,-104.1773,-210.8860
115.2980,134.0118,41.1940,77.2126,-172.8027,50.8403,-253.1253,-21.1800,-251.5451,-77.0406,-22.0176,154.9576,-26.9069,7.1016,-126.5361,-54.4776,125.3355,-60.2767,-251.1753
43.8900,214.2966,35.8550,162.0744,-194.2909,12.0117,-268.8937,-39.7377,-235.5813,-136.2825,-46.0328,156.1110,-64.9329,-22.0250,-143.7825,-47.5613,188.0022,-94.9067,-271.7844
12.4419,237.1897,1.8993,161.8592,-226.2137,-23.5027,-243.3940,-43.5441,-168.7678,-159.1183,-37.6481,180.0537,-101.9097,-2.7418,-87.3280,-31.2397,113.5180,-157.4450,-264.5522
-10.3472,159.9401,-31.1428,73.2853,-208.4444,-15.9484,-182.0904,-38.7768,-95.5492,-104.8662,-44.8465,178.2904,-118.8447,17.8804,-3.2946,-23.8896,-27.8929,-165.4070,-238.7548
-87.5474,90.3683,-55.4001,4.8105,-147.9214,-3.3898,-140.4190,-18.8858,-88.3168,-29.8140,-66.8379,124.3242,-89.2638,-11.7977,2.2947,-48.8192,-81.4148,-96.3471,-200.3957
-121.9555,150.9574,-47.8283,26.3536,-95.4378,-9.3718,-130.8532,-0.2856,-154.4958,21.9795,-70.4071,91.4691,-16.0713,-43.3992,-70.6313,-75.7942,5.7093,8.7301,-147.4399
-52.6094,252.3990,4.6835,78.0292,-29.5811,-11.9785,-86.4433,7.1955,-197.2585,56.7537,-51.0432,107.0996,39.7096,-42.8816,-82.1155,-64.3869,106.6181,80.9173,-64.7063
0.8746,210.4606,50.3419,72.3676,72.0691,9.9614,32.5627,35.3916,-139.9918,61.1022,-19.5819,93.4407,74.2163,-8.1275,20.1968,-34.2809,93.4895,91.0518,60.6906
-27.2020,35.8459,52.5902,22.9215,131.8728,68.8053,141.7624,95.4053,-51.5273,42.7416,11.0855,33.9778,115.6815,88.2859,111.2322,-34.3194,14.1287,82.1966,178.0269
-56.0422,-71.9231,46.1423,-8.7239,103.3772,132.1726,147.4411,142.7173,-37.7845,45.3168,25.1948,13.8225,114.8028,180.8193,105.9803,-68.3256,-22.3251,84.1357,195.9558
-40.2584,1.7870,47.5694,-24.6273,67.8385,109.5080,94.3166,137.1876,-70.8468,61.0974,22.1276,59.5811,67.5089,132.7681,47.9321,-81.6206,-5.7025,66.5288,115.0644
0.8209,138.5560,38.0956,-51.1554,81.2226,-5.8274,64.0606,91.2554,-68.4820,55.1016,10.3408,101.3554,70.5071,6.3292,-18.6683,-34.3043,22.0570,34.2168,39.4085
45.5214,155.0704,25.1792,-65.3747,85.1452,-71.0469,41.8782,59.2051,-46.6396,31.5774,-4.9649,95.3234,111.7955,11.1678,-49.6496,19.0676,20.5334,37.6343,26.7218
40.2993,50.7928,7.0696,-55.9945,41.6057,-5.0725,9.3724,75.9162,-42.8982,-3.5205,-11.3723,74.8863,80.9370,144.6498,13.5844,-4.7910,-44.3452,54.0859,27.6798
-28.4737,-28.7895,-31.5580,-65.2368,1.7338,76.3988,4.5926,92.5105,-22.5345,-50.7414,-10.1529,81.8147,-6.1270,207.0384,106.7530,-71.5404,-115.4685,24.2731,-18.6722
-69.0002,-29.8411,-49.1965,-100.5892,-2.7460,53.9546,12.5354,36.5480,17.1233,-94.2409,-25.7006,96.7672,-67.9910,130.4581,96.2916,-70.7343,-88.4393,-13.7048,-102.4471
-42.4602,-21.8345,-16.9882,-120.5630,-9.8103,-33.2434,-22.7062,-62.0679,15.7234,-128.9799,-49.6810,65.2380,-90.4628,15.4285,10.7476,2.1681,-13.3058,-0.7976,-164.4824
-23.7059,-36.4110,4.4416,-130.5700,-34.5025,-98.9910,-75.7701,-115.7302,-20.0436,-142.6777,-44.6638,-8.8342,-32.0417,-62.8316,-28.3000,44.6144,-27.9396,18.6833,-176.0982
-33.9039,-40.7981,-6.6054,-154.9010,-28.1040,-122.6018,-84.4292,-119.0915,-36.5937,-116.4566,-17.4402,-55.0081,120.9058,-90.0452,-22.1509,11.5958,-105.5257,1.6973,-163.8196
-25.8848,-17.4425,13.8533,-152.2051,25.9516,-110.1362,-47.1507,-117.9798,-44.1763,-99.9830,0.8667,-38.1933,202.6363,-66.0691,-20.2736,-37.6068,-125.8265,-2.1769,-143.3306
-5.4657,31.5868,57.9455,-103.1089,64.8471,-73.3652,10.9814,-108.3588,-46.1637,-137.7246,10.1783,4.1520,96.5899,-28.6479,-1.4568,-43.2074,-95.7479,31.9263,-104.2660
0.3635,82.4794,51.5462,-80.1231,44.2695,-49.4334,65.3946,-78.0571,2.0662,-158.4461,8.6533,26.4600,-40.3992,-26.9767,40.8285,-21.2807,-88.7654,52.0368,-68.3554
-3.0612,77.1429,14.6614,-106.4058,-0.8911,-54.2105,79.6285,-52.6907,62.3932,-119.5430,-10.8394,14.8818,-44.2871,-44.5055,76.9022,-23.6780,-111.8357,37.7080,-50.6014
-14.3129,13.2843,19.6679,-94.1579,-21.3311,-45.9491,55.7065,-32.1745,52.5599,-91.9812,-19.5843,-12.1222,30.5111,-36.1905,97.9661,-48.0232,-131.0933,26.7397,-7.5273
-22.5766,-7.2124,54.2360,-7.2147,-2.3741,5.8883,36.0970,6.9756,14.7799,-85.1692,-4.5669,-17.8813,90.0338,-14.2642,72.9479,-45.2014,-100.5246,40.9552,54.8571
-8.7017,68.3139,62.5881,75.1599,39.3709,61.8762,23.1155,37.3012,11.8451,-43.6968,1.1514,3.3501,115.2104,-3.7669,-18.2952,-15.4954,-0.5138,62.0649,55.2976
5.7935,130.4763,40.9053,93.9862,61.5200,74.8060,-3.2705,29.0388,-13.6506,3.8810,-1.3764,13.2716,83.1361,21.2345,-87.5937,0.2139,82.7590,55.4317,12.0451
9.0138,67.9653,22.5078,78.9140,44.5207,65.1162,-16.6077,29.3530,-65.2613,26.1693,10.0789,-6.4700,-1.8494,62.0486,-65.8945,10.0219,49.0297,12.0682,28.1707
20.8826,-42.2326,19.3339,73.7685,23.3524,73.4196,5.0115,71.5988,-33.7504,48.1684,2.2359,-23.7947,-68.9923,60.9180,-35.7845,35.5092,-48.5216,-27.5017,76.1060
2.8841,-39.4097,6.3395,71.7308,14.4305,78.8932,25.1205,88.1121,51.3491,33.9908,-35.2410,-6.6856,-74.7630,17.4629,-62.3941,43.8332,-83.2898,-39.5717,48.6209
-73.5446,71.1693,-29.7919,40.0194,-13.6759,44.5436,8.0613,29.8076,41.7062,-39.3195,-32.6730,22.5634,-37.9455,-2.2178,-76.4016,19.2421,-38.3652,-57.3738,-33.1301
-100.2984,126.8137,-52.7262,-9.8792,-66.7716,2.4848,-45.5002,-31.7342,-39.2885,-77.9089,31.2431,1.8266,6.1670,4.0808,-41.9641,3.8462,6.6111,-84.2310,-87.0216
-1.3456,62.9982,-38.9101,-29.2405,-124.8388,-1.1418,-125.0126,-24.0471,-62.6684,-45.4019,89.8853,-68.4983,21.4342,-7.7734,-28.7107,7.6166,-7.9720,-82.8744,-109.1866
102.8302,-3.8019,-19.4253,-18.4411,-173.6485,7.0034,-196.0032,17.5577,-45.2385,-11.4675,105.3248,-84.4309,8.8051,-30.1264,-66.7851,-2.3775,-60.7276,-71.1898,-98.8805
90.9187,26.6969,-5.0980,-9.5432,-164.6036,-7.8306,-196.3829,37.2221,-52.4481,20.6196,84.2383,-4.6520,14.9450,-43.2950,-96.8548,-16.6792,-69.4463,-73.2725,-29.0204
10.6531,109.1257,25.0149,11.6061,-77.5640,-15.0820,-114.4001,39.3049,-43.1958,70.0944,39.6039,49.0195,40.4734,-40.7283,-66.2335,3.3481,-11.7765,-49.2763,48.9695
-42.9659,147.8023,41.5951,34.8740,-18.4824,2.6931,-30.8071,36.7897,4.2724,94.5993,22.4083,6.1312,38.9055,-1.5890,6.7186,51.9789,10.7689,-21.4065,50.2449
-32.4653,114.3714,3.7231,-8.0397,-63.3617,-1.0635,-28.1243,22.2906,26.9772,105.5789,71.7986,-24.6043,25.8638,30.1784,54.0004,83.6858,-72.8426,-75.9617,-8.4131
32.6895,57.8242,-49.5412,-72.7929,-110.9289,-35.4960,-80.3004,6.1070,2.2597,124.9786,129.2943,15.7701,45.5993,-19.2945,36.9162,66.4087,-172.7050,-144.1629,-48.3564
89.0164,43.1593,-58.8714,-16.9359,-66.2100,-28.6500,-81.6825,11.0778,-29.8606,84.5554,119.9480,33.0636,75.1493,-61.9139,-8.0455,17.1014,-168.2466,-69.4655,-41.5402
72.2069,77.6396,-30.8837,123.6716,18.7562,52.8529,10.8185,38.6448,-35.3001,4.7948,55.5840,-5.9775,90.5954,22.7929,-28.3325,-14.0521,-73.8645,92.1048,-10.6081
9.7162,108.2867,-9.1224,169.1074,76.3225,135.5918,112.2499,67.6779,-4.4738,8.9691,1.4365,-23.2435,112.4091,118.5684,-13.2900,-5.3243,-6.5699,149.8062,11.9457
-20.1944,91.7655,-27.7439,108.8088,81.4694,142.0028,119.5305,65.0462,27.6197,52.2098,14.4480,-1.1816,111.7162,91.5749,24.1021,21.0230,-48.8880,73.7564,-2.6763
8.6376,34.1137,-86.1699,65.1208,12.9080,90.0340,47.8040,14.9199,11.7753,7.3994,84.8343,13.2289,38.4382,39.9921,59.2124,40.6872,-154.6950,-37.5362,-53.6160
55.7156,-12.1754,-134.0725,44.5584,-74.2603,40.6618,1.3484,-47.7056,-26.4850,-67.7520,115.0512,15.4561,-50.4373,21.0245,60.8400,36.7024,-195.4396,-118.1719,-99.7938
63.2869,9.4931,-134.1658,1.3495,-79.9060,4.2578,21.9169,-81.5315,-38.2768,-87.5930,53.9743,23.3174,-68.8528,-54.2356,25.0480,5.9425,-136.2527,-124.3790,-114.1650
15.0201,50.7533,-122.0798,-21.2176,-39.6778,-32.4353,32.5202,-97.7177,-57.3768,-106.4943,-13.5735,25.3830,-48.7158,-127.8927,-26.8272,-16.0462,-88.9615,-58.0031,-131.0778
-50.4313,-27.5485,-134.6691,-0.1652,-70.8307,-49.1777,-30.2337,-110.5322,-108.3463,-130.9686,-27.1679,-13.3134,-50.5587,-92.7483,-66.9836,-0.4006,-129.8910,-8.9465,-184.5765
-94.6092,-213.3783,-144.3637,-0.8530,-155.1737,-52.3950,-94.0225,-97.7671,-121.2837,-85.4827,-38.8543,-113.2781,-42.8164,-61.8703,-58.5116,32.2572,-195.4288,-18.1740,-225.3526
-108.7870,-282.6078,-133.3714,-50.8726,-182.6887,-100.1103,-60.4711,-73.1570,-74.6322,-8.1937,-56.5870,-211.4347,-3.6359,-121.9366,-7.7645,57.9664,-212.5087,-11.4949,-195.0348
-100.2134,-127.3528,-149.0890,-88.8238,-144.4433,-176.1112,25.3298,-89.1563,-54.7530,-8.3638,-26.9472,-197.5536,-1.0166,-153.3712,8.8390,51.7999,-178.9541,41.4686,-137.3114
-96.0523,67.0787,-213.1095,-60.0990,-121.8710,-188.0038,52.5255,-128.5347,-87.4440,-76.0230,12.6823,-83.4592,-64.3227,-118.8912,-36.7268,-16.8388,-100.2741,77.0320,-107.6255
-103.2494,100.2078,-245.3699,-1.7927,-148.0424,-157.1672,19.5811,-129.3927,-100.2351,-99.2266,4.7002,-5.7584,-112.1067,-117.1322,-73.7004,-81.8581,-8.3082,64.8232,-73.1842
-72.0408,3.3310,-172.4659,-14.5712,-177.1787,-198.5822,-6.3483,-113.3890,-77.3052,-40.8085,10.0567,-29.3777,-87.5411,-151.2358,-67.6304,-38.8602,3.9474,29.5158,-29.2462
-5.8387,-69.5040,-68.8050,-112.4684,-167.3321,-284.2644,-11.1861,-133.3189,-72.5055,-8.2264,69.0761,-91.8359,-46.9220,-162.5672,-59.1113,34.1371,-74.2856,-10.4558,-39.5154
-7.3864,-50.1414,-62.8895,-161.4831,-140.5515,-273.1288,-12.6989,-141.5732,-87.8692,-69.3957,97.5353,-113.9266,-47.7446,-139.8067,-53.3926,3.3111,-107.2191,-33.3324,-80.3431
-89.9037,-14.9444,-130.8224,-85.4630,-135.4567,-159.2569,-24.1360,-76.3341,-85.2485,-100.3311,68.4809,-66.4631,-48.8292,-79.5265,-21.7373,-41.6241,-31.3751,-20.9472,-69.6395
-122.3594,-59.7003,-141.7159,-3.1812,-142.0110,-58.4593,-73.8608,0.5068,-72.7151,-16.9074,73.4828,5.0060,3.9675,-9.4074,23.1206,6.2186,43.2061,-1.8732,-38.9942
-52.9853,-131.0581,-68.8374,-6.6760,-134.8335,-4.5796,-157.0388,9.7659,-74.8570,37.0793,133.9386,19.1518,67.6641,17.8700,44.6338,21.4827,55.0828,-13.6677,-53.0622
29.5644,-90.3333,14.3027,-4.4434,-102.9768,53.7513,-195.7732,-3.8027,-73.6155,-20.5834,174.9333,-5.6732,69.8274,8.4469,19.7520,-63.0238,79.7411,-36.8461,-68.2217
74.4605,52.8819,75.5539,67.8253,-19.2713,121.2660,-131.2844,22.4851,-46.3227,-57.3840,176.8062,36.0764,31.0370,-25.4235,-37.2069,-98.7210,138.5171,-25.2416,-40.4881
103.8181,149.2496,114.7647,124.7474,98.7017,153.5410,-17.4824,45.8774,-18.2462,-34.1959,171.7037,138.5922,14.3079,-87.6744,-59.5159,-50.3318,164.7155,9.3672,-13.7904
114.7708,137.0882,117.1455,117.8004,135.7005,141.4807,21.6189,21.0584,-32.2699,-55.0712,149.6271,178.3374,14.0479,-114.3903,-19.3694,-32.5303,151.8027,-3.8185,-26.4285
87.5921,83.6397,104.3554,95.3809,54.3777,119.0724,-59.3448,-8.3581,-74.8706,-96.8556,86.1395,122.0977,7.9721,-80.9811,14.8135,-32.4882,129.7669,-77.3701,-61.0787
30.4371,47.5276,118.3791,59.5236,1.6365,106.7495,-129.6306,-4.9690,-64.9679,-74.4446,2.4374,58.2588,21.3712,-84.4891,15.5855,-2.4247,82.9477,-110.8600,-66.6026
-32.1192,26.2577,140.5172,-5.4423,67.2380,101.5547,-40.0612,14.8865,43.9215,-18.3298,-59.6284,41.6525,34.0924,-140.4175,36.5044,-6.9292,28.7813,-40.9447,8.1917
-70.2934,-6.4287,130.2246,-23.9291,139.8324,114.8202,125.0900,55.5142,165.7875,40.8688,-88.1006,52.0822,-16.9437,-154.1974,55.6846,-31.5713,36.4874,46.8975,127.7633
-63.2470,-41.0290,112.1811,47.4006,137.4469,154.0742,163.5105,120.1509,170.9871,96.8147,-96.3017,66.6336,-66.6126,-135.6984,22.2435,-0.9548,101.3803,65.9659,184.1966
-16.4365,-9.8011,142.6211,94.8147,125.0842,174.5277,88.0051,149.4128,77.4547,76.7927,-82.8658,75.5929,7.8847,-148.6478,21.7552,9.0004,132.4058,47.2573,157.0387
36.7976,92.6687,206.8692,13.6466,129.2814,137.1974,61.1998,118.1544,32.2244,-0.2014,-52.8092,59.4086,113.6223,-166.5906,115.6007,-40.6812,70.8315,25.5874,125.2940
31.0041,131.7686,207.4348,-109.1297,89.5624,97.0127,90.6271,102.6239,91.4644,19.5858,-62.5982,11.1099,51.9517,-164.7551,165.9204,1.8831,-42.2337,-9.6017,133.1490
-68.3013,34.0453,105.9639,-114.6667,14.7118,129.6530,87.5716,145.0037,166.0316,134.2865,-136.3918,-34.0722,-114.8350,-143.2509,72.3106,144.0910,-94.0811,-22.9071,177.9725
-166.5988,-70.6037,31.9785,-6.8707,-7.8499,200.7601,74.7259,184.7715,182.9096,168.9950,-186.1902,-40.5885,-155.5147,-75.1644,-45.1216,172.8967,-26.0648,19.4059,237.9776
-143.2189,-75.0159,110.5642,55.0610,47.1346,209.2322,86.0935,180.4283,142.1607,92.0529,-151.9753,-31.2806,-59.8852,-19.0209,-61.2945,57.0008,69.5572,62.5254,245.2938
-43.4001,-52.7983,247.2606,-3.0657,107.5826,135.7117,62.3140,153.2371,53.1136,48.3990,-107.7969,-38.5376,-2.5142,-72.3359,-5.0960,-19.5933,91.1895,68.3959,176.9633
6.3651,-58.6933,285.0355,-66.8718,114.9924,63.0478,9.2620,117.3464,-25.3228,113.9721,-111.1657,-26.3486,-26.7904,-153.1365,40.1152,8.6708,90.7795,83.5560,138.0276
-13.6332,-31.0348,255.1955,-34.9028,112.9442,54.6841,37.2067,89.5402,20.3527,194.9648,-121.9695,40.9856,-39.6822,-122.2032,9.9057,68.1135,135.2993,130.2196,200.9349
-59.5527,28.8207,264.7621,26.9232,170.4167,87.6036,151.8986,104.9992,166.0314,154.7939,-119.1544,102.1570,-0.0045,-19.7436,-98.2346,104.6764,168.0246,178.1122,273.3140
-92.7687,38.4107,308.2566,32.4882,245.0980,122.0642,209.5420,147.5176,214.6377,20.4021,-112.0518,81.9814,57.6434,55.2827,-165.4057,96.8782,157.9992,208.2838,242.9875
-56.0897,7.8943,340.6118,6.2337,233.3969,146.2660,129.0333,152.9096,91.0366,-29.9547,-84.1410,8.4824,79.2923,84.2623,-83.9893,68.7494,168.8643,193.8380,130.4792
35.4626,15.9233,349.1299,-13.9579,144.6051,135.9572,10.3693,104.5681,-32.7305,36.8494,-55.2228,-38.5701,35.0082,61.0620,52.8129,63.2282,198.1641,115.3602,40.2250
66.5809,58.9229,311.5957,-26.9711,95.1293,86.9553,-2.6929,47.5164,-19.3250,67.0421,-70.7986,-24.9396,-17.7447,7.3736,68.8664,51.9244,180.7719,31.4521,36.6529
21.6909,85.4546,237.3971,-6.6031,132.3636,59.7344,79.3861,23.4623,42.5983,42.7974,-98.3289,34.0017,2.5024,-9.3302,-46.3688,25.2554,142.7621,4.7258,75.5851
14.6659,102.7627,188.6219,48.9451,177.2756,74.9164,111.5004,37.0058,32.3709,73.6544,-83.9016,97.1769,51.5648,12.6543,-151.9268,50.5096,146.4180,12.1018,65.0657
72.4447,134.8845,179.5881,67.0540,156.6615,73.7714,48.5731,59.4735,-12.1457,94.9385,-50.4645,116.6775,38.2684,32.7451,-147.2423,85.9311,152.5251,20.2575,3.7837
111.5606,146.8415,162.6883,16.0504,106.6137,49.9058,14.7254,56.0211,-14.1392,-2.6673,-41.3233,81.6266,1.5383,58.5075,-59.6553,32.6365,84.6629,14.8085,-29.2142
80.5728,97.5663,108.2910,-37.4166,93.3673,47.9602,73.1505,25.7721,-6.6631,-93.6324,-69.5294,41.8766,9.7400,72.0262,18.9162,-2.1962,-40.0545,-49.6343,-10.0790
-13.6848,31.9943,20.6427,-40.0013,98.5857,60.1503,134.5411,2.7560,-27.5470,-33.2568,-130.0857,61.6801,10.5490,36.9198,36.9476,97.5157,-126.7023,-158.0207,30.6499
-107.0108,37.8742,-66.1429,-24.5185,67.5041,72.4996,153.6418,6.0617,-15.4001,81.2983,-183.2751,136.3751,-34.8830,3.5108,10.6519,168.2025,-133.8141,-199.9409,74.1252
-106.7295,104.0678,-113.5867,-67.8509,5.9247,69.6540,166.1664,4.7895,45.9855,95.4393,-185.2892,176.3569,-54.0662,-7.0558,-27.3481,85.7821,-140.0016,-163.6292,75.5077
-29.8349,119.3207,-145.9120,-191.4152,-50.1345,-19.2028,136.1557,-37.7915,61.5904,-3.8504,-141.5576,116.6690,-23.0001,-64.4525,-44.2475,12.6029,-212.8912,-160.0009,2.1811
14.3791,47.8214,-192.7583,-289.7512,-83.1753,-149.4000,34.7369,-86.5233,23.1546,-146.2596,-80.0377,11.9550,-14.0919,-110.3577,-14.7887,34.3575,-276.1750,-203.4076,-56.1245
7.5092,-15.3416,-196.5122,-257.7860,-76.1421,-129.7267,-25.8125,-70.4822,24.2762,-230.4048,-46.1540,-36.3963,-48.1410,-27.2479,12.7545,33.3431,-238.0626,-220.6846,-5.7825
0.6371,-9.6463,-132.7836,-172.6681,-32.8554,7.8004,23.8517,-13.3529,37.2387,-160.9721,-94.4032,-9.3744,-87.3828,32.9583,-42.2881,20.2866,-139.6022,-216.0488,77.3270
-11.7611,8.6807,-99.9892,-160.6512,-3.1130,6.8906,66.9488,-13.0168,-19.3151,19.7887,-175.3306,19.5408,-123.8860,-123.7795,-138.9529,91.6980,-45.7637,-202.5008,81.7929
-31.9159,-2.9131,-145.7759,-183.1828,-23.6110,-117.0762,6.7082,-68.2831,-72.8123,126.7125,-163.7924,-13.3209,-139.4641,-296.1970,-166.0591,153.9407,36.0216,-135.3521,30.2868
-13.5087,5.2614,-185.1348,-165.0998,-75.8164,-116.8933,-91.2217,-75.9919,-53.4230,55.7670,-64.2274,-58.4880,-88.7924,-209.8341,-130.2666,92.0388,69.5675,-43.2878,-21.4879
46.2554,73.5843,-160.3972,-129.2583,-112.3910,-12.5060,-135.6993,-13.7399,-46.2934,-74.6605,15.0926,-10.8996,4.8458,-10.9677,-97.0496,-15.4984,38.9469,0.4466,-69.9189
91.1257,151.6504,-110.2804,-65.3562,-94.9587,7.4552,-113.9590,38.7477,-84.8398,-87.9482,42.1408,91.0897,49.1238,30.1768,-55.3478,-66.1664,37.9333,30.7005,-89.7207
61.7301,164.7679,-95.5855,41.8492,-44.4298,-15.5836,-64.2619,51.0450,-89.5346,13.8557,17.7249,90.0819,-6.9973,-48.7558,-14.6073,-49.5403,114.0325,87.0230,-52.7357
-60.3724,107.9342,-146.8170,68.6289,-28.4705,28.4703,-38.4519,57.4806,-65.9776,74.4954,-64.3103,-13.1218,-111.5404,-88.4481,-26.4301,14.9340,166.8867,95.6147,-5.7565
-189.6921,34.1365,-224.7601,-39.1633,-56.8913,63.4353,-50.2174,56.8957,-70.9525,18.9690,-103.5442,-68.4523,-136.2379,-64.3160,-22.9858,52.7278,116.9846,26.7457,-12.0681
-209.6374,-20.6331,-259.5345,-112.3977,-89.5806,22.8746,-68.5917,27.3475,-78.3462,-42.8378,-7.2682,-64.8450,-21.2842,-17.8512,79.7782,1.3195,-8.4617,-44.9487,-68.1611
-155.0798,-56.5808,-263.6016,-85.8117,-134.5566,-32.0121,-85.2034,-16.5831,-61.5042,3.5534,113.9965,-98.9471,90.6158,7.7299,172.0532,-43.9671,-155.0043,-102.1807,-113.8621
-140.8833,-76.0373,-281.2173,-118.6487,-182.7160,-78.1886,-96.9858,-54.1203,-27.7323,78.0907,127.0351,-149.1657,42.0565,-8.1105,149.1835,4.1017,-253.8362,-168.6380,-85.3054
-161.0457,-82.6913,-278.4075,-226.8457,-149.8183,-106.9119,-58.0161,-59.0064,25.6653,38.4385,74.1168,-154.9301,-54.7224,-14.4411,106.0729,34.1308,-257.8390,-182.9953,7.9915
-167.6374,-102.9487,-243.2045,-239.7636,-41.1043,-33.9759,34.2107,14.9074,35.6659,-39.2810,12.2945,-143.1725,-11.8229,7.8114,93.9280,-36.2111,-220.8795,-109.6693,77.6111
-183.6168,-156.3345,-241.0262,-157.1844,13.0513,111.4184,102.7744,125.7176,-50.1212,19.7937,-66.8748,-128.0998,73.0003,-19.0248,37.7158,-86.0634,-201.0105,-47.0121,92.0810
-179.8274,-204.9256,-258.2360,-128.5003,-18.8888,138.5188,110.9123,132.1144,-94.8288,133.6312,-100.3536,-92.8523,13.8197,-89.0538,-16.5425,-33.2317,-165.1640,-64.3665,112.5128
-83.5732,-182.6486,-212.0697,-152.4600,-41.9175,18.1855,77.3596,23.8729,8.9919,87.6225,-28.2391,-57.4112,-96.0713,-71.8208,3.6012,18.5543,-109.3946,-89.9565,137.1587
44.9697,-91.1861,-119.3099,-112.2053,-28.4266,-40.6208,2.4747,-35.6230,91.6752,-77.3356,60.7636,-17.0465,-81.1160,55.7536,-13.8746,-31.5950,-79.8873,-51.0717,98.5027
102.1880,-14.1180,-35.4027,12.9338,-16.2090,55.4594,-73.2189,6.2920,19.4841,-170.2329,76.6467,43.5706,-0.7329,162.9291,-89.5466,-134.2305,-30.6645,15.5772,34.4380
120.2778,-3.3358,54.3918,134.2783,5.3158,155.4036,-66.6973,34.9523,-53.7859,-157.5823,59.3297,64.6818,24.2145,170.2581,-39.7880,-154.4850,91.1033,32.2913,32.2294
148.3241,-14.3418,131.6068,154.5213,43.4922,136.6117,-9.4479,16.3925,-12.5269,-98.8453,50.2884,28.7552,23.0140,121.0864,92.2851,-45.6648,176.5001,-18.2578,44.1601
143.6953,5.5092,132.3600,64.6303,50.8113,46.4137,-10.0612,5.0864,39.4594,-38.3415,28.4794,22.2067,30.4813,69.3662,54.6942,63.4561,121.2385,-65.8683,-9.0221
110.1692,44.0204,91.1147,-24.3417,15.5658,-38.9482,-50.9147,-25.1322,50.9098,-31.8164,0.0616,53.6180,5.8794,14.0867,-90.3318,65.4448,27.9590,-32.2446,-62.2840
118.5959,74.3837,97.8234,-14.4888,8.3062,-93.2236,-38.8917,-96.6565,87.3812,-45.0853,-2.6986,52.4303,-27.1868,-40.9264,-85.1946,46.3206,32.0464,50.5342,-43.4337
150.7551,93.0408,150.5893,52.0815,79.2812,-77.7534,14.0092,-125.6425,122.2170,-0.2137,13.1471,43.3252,6.7312,-30.4404,22.4296,62.7512,83.0035,76.9763,-26.3890
130.4225,96.9272,186.0169,87.7307,153.8068,34.9969,34.5205,-74.9826,69.1750,9.3304,13.1776,71.2314,81.2159,68.8581,44.0601,18.2665,65.3284,38.5219,-77.7774
82.6993,93.6704,175.2514,89.3415,120.8935,153.5712,7.5077,-18.3065,-38.1091,-79.6216,-15.3877,85.7155,101.0942,132.5642,12.4719,-49.8250,6.1765,36.0187,-125.4390
94.3031,108.5429,143.7763,97.7653,36.1242,134.1527,-24.1306,4.2123,-91.4612,-76.8365,-36.2304,65.5808,60.7097,60.6897,20.2919,16.5652,15.6782,107.3170,-101.4920
159.6975,139.1470,148.0447,115.9895,63.2527,3.5361,1.3190,12.5094,-62.7126,75.7969,-10.0706,62.5251,43.9449,-40.2056,42.8982,133.9624,82.8094,169.3320,-57.1840
189.1026,148.6556,197.0997,120.4005,178.7594,-48.7448,87.0856,12.0190,-6.1091,153.6417,12.0263,81.2180,78.1515,-44.2366,44.3238,128.5355,83.5684,144.7542,-55.2535
145.8114,111.4388,215.7285,112.7989,193.3793,48.9303,128.4115,16.2273,42.8611,119.7057,-46.2648,85.5920,89.1439,2.5889,8.1146,92.7373,2.7009,54.5626,-70.5340
91.3055,42.1231,161.8008,120.6922,83.5187,171.1769,64.3014,46.8947,87.2367,120.6303,-124.4664,72.1432,34.6797,35.4251,-50.6891,117.4640,-28.9263,-15.8605,-52.7008
88.7558,4.4159,101.2536,134.1156,9.9994,214.1448,3.3055,72.3097,111.2761,91.6044,-119.1412,59.8297,-16.6293,66.6316,-41.6123,62.7411,32.6666,-1.0065,-4.9321
126.9875,47.4053,107.8065,106.6369,48.1337,188.9831,48.7261,58.0171,104.7273,-16.6076,-81.9144,65.1507,-4.3549,69.2079,42.1449,-57.8910,80.0964,80.1217,51.7560
160.6655,94.0625,183.4197,63.5084,142.2975,142.6042,145.2463,52.6223,117.9500,-5.2847,-98.9997,68.8628,36.3822,28.4294,61.2923,-18.9640,68.3620,143.1854,131.5509
162.9728,28.3176,274.3600,87.3117,221.7089,139.0562,206.1720,115.1705,174.4216,161.7285,-123.6342,29.2979,61.9964,28.3015,-13.9905,149.1462,63.4853,133.3845,226.2278
123.2356,-90.2220,300.9681,143.0125,226.9244,193.5810,217.9822,195.6972,209.4564,268.8716,-127.2491,-22.7252,71.6852,61.4446,-62.9799,213.0312,65.1689,71.9512,258.5856
59.4972,-113.5526,239.9597,100.6898,164.8560,196.3352,196.8157,189.6277,203.3649,258.0579,-168.0733,-31.5840,63.0683,-1.1268,-54.5071,166.9662,21.4958,22.7774,206.9185
36.2278,-56.5907,182.3161,-18.8757,141.6801,108.6958,188.3170,113.1124,215.9516,215.2017,-194.6400,-31.8664,53.0503,-92.0497,-29.8175,134.3943,-9.7445,50.5857,181.9034
102.5107,-12.9740,208.0108,-39.6560,202.8964,97.4230,234.2474,107.5213,229.3864,158.2025,-105.5960,-23.2342,81.3467,4.5718,26.0348,107.4108,52.8204,153.5023,236.7415
212.3266,35.1206,263.4881,84.6638,239.3430,216.9297,260.7533,199.0116,168.3495,124.1582,0.0830,78.6845,113.4289,198.7243,85.5288,73.8842,140.9152,225.0664,252.7587
263.0598,106.8798,265.3151,194.1204,162.9974,253.1566,164.9096,219.5162,70.4312,134.1755,-23.1332,199.1132,75.8952,181.1931,69.6984,73.8192,158.4362,199.2581,166.4009
221.4544,144.0374,231.9547,174.4073,53.3248,130.5351,26.1108,103.8738,36.5136,108.0189,-96.3468,168.4824,14.6415,-16.7875,0.8881,65.0505,156.2954,182.4770,99.0157
161.3901,145.5992,230.6698,98.3638,51.5622,67.1226,23.6580,32.1138,76.7159,66.0204,-99.3641,69.4725,34.4577,-78.9893,-33.6436,16.6584,196.8141,261.3456,127.6835
151.8385,136.2127,265.5102,62.5517,174.1948,145.1745,162.9820,104.8393,136.6507,107.5369,-87.8295,82.9672,108.2171,31.4244,-8.2177,10.7132,204.2650,309.1859,165.6091
167.7558,74.2038,273.2394,50.0512,278.8697,178.7857,267.6711,163.7331,177.6263,147.2458,-116.5911,140.2932,126.3363,77.9594,33.9812,74.3512,128.2611,208.4103,144.7974
163.9879,4.8401,215.0519,32.5727,239.4199,99.1112,220.5667,93.3873,180.5036,69.1530,-128.3333,124.4354,69.9567,18.3994,10.2724,117.0264,70.9500,70.8381,92.2008
158.3640,59.3444,134.4345,51.2003,113.5981,54.9622,88.4978,4.0566,146.6462,-35.8722,-110.3742,105.8456,6.1487,9.4071,-93.8603,87.2647,95.8738,25.4978,29.2035
168.0671,179.1451,89.4210,102.5477,41.6560,112.0743,5.7363,2.8954,92.3365,-63.4699,-106.2390,136.2867,-3.5629,72.4951,-139.6659,25.6014,105.0904,20.8817,-33.0136
152.7071,179.9580,69.2819,97.9607,33.6146,165.9447,-2.1814,35.8262,42.8045,-39.1342,-104.4320,159.2593,58.8902,101.8231,-46.7207,5.5822,21.0482,-28.7588,-68.9387
91.6181,72.8947,34.1128,16.3777,-8.0908,132.9623,-25.7108,14.7461,39.4902,-21.5709,-92.6709,157.0962,133.6119,67.5214,41.2738,65.4325,-92.5855,-127.3019,-93.7670
37.4154,1.3855,-13.7990,-49.1807,-104.4211,44.9947,-110.0138,-59.4310,71.4433,-73.7188,-94.6429,135.1193,118.5651,9.2378,12.9238,120.1110,-148.0823,-232.9297,-143.0992
45.1776,13.6397,-40.7734,-41.8784,-166.1510,-14.1716,-181.5751,-120.4009,40.3746,-174.2129,-85.5432,97.0272,14.7865,-34.2937,-37.4579,49.5144,-130.9319,-251.4249,-204.6932
95.0971,85.1156,-26.7591,-14.4405,-134.4195,7.8453,-171.1238,-119.1098,-78.3913,-169.8841,-43.8785,90.8457,-57.5442,-27.0406,-32.4130,-70.5312,-91.5158,-134.1658,-244.9227
106.8393,129.5488,2.9963,-45.5920,-66.1168,81.9806,-106.9159,-71.0283,-150.6575,-37.4361,-46.1737,93.7470,-39.1545,7.6611,-27.4907,-53.1489,-111.1671,-28.7307,-230.3809
38.1188,18.3088,-0.5545,-148.7986,-33.8006,117.4343,-43.2859,-21.5467,-85.3006,57.7036,-136.8635,16.5897,0.9323,-17.3821,-64.6289,81.5583,-203.8530,-74.9500,-124.7745
-42.7204,-169.0996,-26.7682,-241.9934,-14.2858,66.9434,10.3360,3.6815,27.5515,61.9678,-217.3426,-75.0988,5.6785,-104.1801,-96.4879,144.5899,-260.4773,-141.7359,25.9053
-48.8717,-174.4842,-21.0534,-219.5428,19.4511,7.0622,53.7000,2.0225,56.3123,19.6131,-202.1184,-60.7355,-4.4577,-138.2550,-44.0065,83.5703,-196.4096,-71.2770,92.2578
-8.0194,-6.8400,-5.3669,-93.2748,4.3314,41.5527,62.7966,-0.7509,-22.0891,-89.8722,-143.8112,-22.0720,-19.6027,-72.0657,74.6870,11.1979,-79.9005,33.4755,50.8291
7.2402,62.9656,-34.5497,2.5402,-70.5028,123.0942,32.7453,27.0634,-110.5888,-180.7124,-116.6341,-64.1724,-58.1973,4.9212,94.5841,3.4135,-25.0334,36.9435,24.6175
3.4109,-12.3517,-64.5792,-21.6950,-95.8130,111.3016,9.5580,56.1960,-84.4068,-104.0457,-113.9968,-101.1618,-91.7650,18.0259,-43.9998,31.3807,-58.2777,-6.9268,73.7013
2.7199,-44.5818,-42.0153,-108.7551,-45.6186,20.1315,31.0029,41.1085,41.1596,42.3927,-111.2592,-58.0379,-69.8014,-7.0886,-133.6378,39.1721,-115.1375,-27.1091,127.5557
-12.8732,14.5539,-12.9883,-130.0013,-25.6404,-7.3263,61.3825,19.0416,109.4912,97.5491,-115.0551,4.9070,-21.2344,-31.0206,-44.6575,16.3725,-91.9011,-35.2728,137.9201
-19.0582,74.8846,-7.9352,-37.2057,-63.6964,28.2509,41.6286,26.0864,67.7043,117.4407,-116.6571,40.2432,-32.3520,-51.8732,52.1287,1.3745,29.6671,-23.5630,125.2113
20.3872,99.2228,-2.8409,63.9594,-92.0750,2.5651,-20.0729,7.5359,25.1556,126.8043,-86.1163,40.7559,-108.8533,-60.6094,19.8055,13.7626,103.0038,8.9047,93.0863
46.9025,75.6453,-20.9622,48.4086,-96.6731,-72.8238,-69.3130,-48.9799,17.7849,33.9549,-38.2782,0.1645,-143.4909,-50.3473,-47.3871,19.5772,25.7407,13.0224,29.8474
10.7291,12.0196,-59.3804,-34.4763,-87.1550,-80.5398,-82.1868,-64.0692,-31.4585,-94.1727,-22.4493,-33.8192,-72.4032,-53.7238,-39.6639,-8.5280,-59.0205,-8.8776,-37.5610
-14.6270,-10.1733,-30.9296,-38.1660,-43.0026,-10.2398,-64.5340,-30.8955,-111.6889,-141.4349,-32.7407,-12.8453,9.6900,-74.0189,49.7801,-51.9052,5.9160,-1.4245,-71.8431
20.3349,43.1054,46.1753,44.8087,8.5032,58.2336,-25.8325,-15.2615,-131.6977,-152.7850,-22.6252,29.0368,-3.5915,-52.0863,145.8810,-77.4555,125.5499,32.8296,-74.6929
39.6403,83.8674,38.7759,95.4956,13.6965,64.9548,5.9042,-16.3559,-85.0319,-134.3392,-1.2584,51.9620,-45.6683,-1.9298,133.7196,-61.0989,134.2788,42.9531,-70.3334
-4.1997,52.6931,-50.2606,62.6473,-15.5810,-14.4730,0.6202,-22.0291,-29.6917,-34.5980,-5.3579,51.8510,-11.8703,-28.0412,31.5080,-13.1597,38.7825,0.6216,-72.8491
-52.3920,-2.8789,-105.9398,0.0766,-46.2506,-122.8952,-30.7009,-66.2639,7.7932,33.0733,-10.4235,18.8402,24.5223,-112.5632,-21.4617,-0.0918,-55.9252,-70.7530,-85.4855
-58.6139,-25.5554,-108.1805,-31.6649,-68.5907,-144.6248,-52.2442,-113.3087,15.7735,-23.9250,23.8186,-24.1905,-32.5700,-113.1009,-24.6772,-59.2480,-67.7728,-86.5839,-100.2133
-36.3557,-8.9730,-75.6361,-21.3508,-58.9489,-79.4437,-41.3866,-87.7539,-14.2922,-84.2125,80.6758,-29.9872,-80.1413,-23.2349,-41.5730,-108.1159,23.9030,0.5229,-96.2652
-9.0012,10.7669,1.5591,5.7173,-14.9034,-23.7737,-2.1834,-19.6133,-60.3059,-86.2614,124.8973,-17.8813,-17.4384,49.3372,-0.8877,-60.2317,118.7810,91.5413,-70.0530
-7.7900,-17.3688,49.4045,34.6471,11.8165,31.5925,16.4943,36.6821,-97.5725,-98.6859,136.2762,-24.9749,39.9322,112.4798,73.2181,19.9449,90.0911,81.7249,-46.1931
-48.7790,-92.2601,-2.5741,62.2896,8.5491,122.0615,-34.2349,98.7781,-116.5415,-53.6214,109.1585,-30.2772,-2.4735,185.6541,22.2045,32.2525,-6.3293,30.9818,-30.2060
-76.6682,-143.4686,-49.0984,55.4022,34.2780,131.9909,-95.2797,144.3280,-89.2250,132.8814,82.9301,-35.7349,-37.2942,150.2638,-56.8236,22.4631,-24.2926,33.4922,-5.1212
-38.4041,-123.7636,7.6804,6.3122,102.9723,4.0254,-61.7123,120.9856,-9.6493,290.6164,97.8835,-78.9609,4.8879,1.0663,33.5798,62.4845,14.5064,68.5468,10.8553
6.1762,-76.5083,68.2666,-12.2013,146.4224,-76.9511,28.6011,88.8240,44.1096,244.2548,117.4711,-128.7813,49.5269,-49.8824,133.7264,75.7230,1.5745,85.7658,-2.0518
-16.5414,-77.4857,45.7454,19.4046,135.3301,4.2358,67.1701,113.3685,17.1734,113.7654,113.6830,-128.8537,80.5127,54.9247,55.9334,-2.9065,-35.8900,67.2264,6.0629
-46.3499,-124.1377,25.1613,13.0962,130.5971,77.7796,86.9165,117.6489,-4.6780,76.0525,132.1948,-103.0268,121.8096,114.2133,-18.3580,-59.7778,-15.1037,10.4852,73.0539
-1.1342,-127.2694,74.4312,-26.2441,160.5339,15.8642,151.3154,50.9466,66.9628,87.3851,156.4521,-98.4060,91.9140,52.7933,31.0010,-14.2318,50.0052,-16.9400,144.4701
60.5573,-55.9874,132.8626,15.1322,160.1394,-49.6151,175.7283,13.1262,164.6028,62.6964,113.4723,-107.6228,-16.7211,18.5139,32.6290,23.1493,112.7748,59.9780,183.6360
59.7528,-10.1104,144.9849,106.7806,108.5511,-8.1277,113.4172,57.0730,192.8125,69.5444,68.4332,-101.2522,-28.2467,69.3659,-31.6904,-10.1917,153.3877,149.6879,223.5535
43.3237,-52.9039,123.0435,108.3972,79.2673,45.7338,77.0958,89.9293,176.6963,142.6702,125.6569,-69.2082,94.3923,105.2710,2.8511,-12.6450,145.6584,114.4632,247.7795
51.8132,-96.0328,82.8433,46.4630,82.6795,26.1177,92.1977,58.6854,162.8636,158.7062,192.5720,-30.7695,144.3369,81.9905,90.7373,35.1154,104.1104,31.0272,211.7208
26.3008,-62.1422,34.9418,52.2762,59.2093,-10.3894,61.2900,27.8379,141.9263,77.3671,153.1025,-17.5983,60.8635,52.8706,87.3767,24.1157,96.9372,50.7680,167.5927
-36.3342,-8.1895,0.4892,108.6058,36.2390,-10.6576,20.5430,31.7608,124.8694,33.8956,95.6833,-22.3986,26.6159,46.4202,42.1828,-40.9364,114.4866,110.5947,160.5957
-59.5837,1.8306,-28.0775,109.8455,50.8611,-9.3943,48.6310,14.7739,121.2273,65.7216,105.2510,-1.4194,85.6173,36.8843,40.6597,-50.6508,70.2854,63.2752,108.2942
-55.2000,-2.6392,-87.2730,54.2904,25.4881,-37.9752,41.7975,-52.1068,80.5333,57.2898,105.7216,53.6160,83.0271,4.2505,36.8208,-0.5792,-17.9737,-51.4505,-30.2987
-76.0475,26.1687,-163.2097,6.3025,-47.0100,-73.0986,-61.5835,-109.6021,-3.8105,-12.8194,72.5479,96.7950,3.5634,-32.7522,2.7659,28.1860,-41.2799,-102.7837,-144.6884
-70.9557,79.1355,-179.8369,-19.6683,-32.5726,-85.6102,-112.3553,-106.8668,-61.4066,-72.7555,85.6771,83.1755,-11.3674,-47.6417,-4.1411,3.6615,-0.9905,-86.5104,-163.0021
-9.4278,103.9155,-114.2710,-38.6304,71.6912,-77.6926,-58.5623,-82.3966,-82.2939,-116.8688,126.5391,25.2393,57.1063,-49.2053,18.5857,-47.7859,4.9044,-74.3964,-147.6660
14.2103,72.6663,-48.3153,-38.0994,115.4975,-69.1900,-37.7057,-90.1960,-111.7486,-145.0081,108.9686,-2.3272,105.3178,-55.5803,-6.5543,-72.7614,-30.9660,-76.9412,-146.8715
-33.1622,31.9241,-48.9401,-10.0366,75.7462,-70.2906,-67.0659,-112.8629,-135.6873,-123.1426,57.4210,44.9830,98.4383,-55.4697,-77.6959,-39.7596,-39.4295,-69.9837,-138.3958
-57.4179,35.1371,-79.9682,2.4745,45.5432,-78.5943,-44.6383,-116.4402,-135.1700,-83.7704,51.0624,99.7158,70.9924,-46.1808,-86.6261,3.0171,-19.1432,-54.9607,-113.5805
-33.5651,55.4710,-83.0824,-32.5624,41.9327,-95.7789,2.1789,-113.7957,-141.6301,-78.1917,92.7490,77.7707,44.4220,-46.0735,-29.2085,-1.7230,-13.0119,-32.1288,-89.9415
-32.0397,49.4964,-63.6353,-58.8017,36.3015,-113.7894,-7.8001,-111.1992,-142.6532,-96.6669,133.0437,2.5070,27.2653,-36.3439,-36.6341,-33.3704,-15.3461,1.8114,-80.1046
-54.9706,31.4650,-57.0883,-22.4039,15.5382,-99.1073,-50.2113,-84.2477,-99.4816,-129.7758,136.8739,-53.3391,7.8332,8.4820,-105.1995,-56.1340,-5.4793,15.6262,-86.4430
-42.5672,12.7795,-70.6690,16.1118,-36.1656,-50.8259,-78.8356,-44.1246,-54.1463,-147.9547,111.0309,-63.8370,-31.6631,42.2968,-99.2788,-56.7421,6.5109,-18.3798,-81.3925
6.2776,-18.3518,-87.7543,-10.8472,-87.5976,-28.8604,-82.3394,-26.6802,-51.2912,-75.0449,92.0411,-40.4463,-54.2021,23.0223,-58.6758,-6.5804,8.2218,-70.5400,-32.6044
35.9934,-36.7008,-111.7784,-54.7242,-95.1237,-47.9203,-55.0335,-15.7865,-43.4817,62.3679,84.2840,-16.0138,-27.3582,3.8896,-107.9585,74.3929,-13.4069,-107.2411,31.6475
8.5576,-21.4283,-169.2018,-55.0762,-104.4662,-43.0991,-27.9371,19.6363,6.2080,138.3512,60.0657,-23.1816,-17.3445,29.1318,-152.9693,95.0876,-69.9459,-141.1966,64.0417
-52.8572,-10.3236,-240.6649,-39.1932,-146.4256,-12.1687,-27.2625,47.1338,55.2336,128.1286,36.1785,-35.3134,-78.2147,48.8368,-84.8076,41.1738,-116.7884,-171.4888,74.2309
-77.5959,-19.5081,-256.5550,-32.8166,-157.2011,-25.2264,-19.2224,28.8773,64.4215,87.0512,47.8376,-7.3949,-143.9774,32.5316,-35.4519,-1.4401,-91.0823,-155.6737,77.8675
-39.3454,-13.2408,-216.9131,-2.9380,-135.6605,-50.3457,-8.6978,8.0681,35.6430,32.4278,68.8367,24.5438,-160.0032,36.2562,-92.1322,3.8814,-28.3072,-84.4952,63.7633
-10.5503,2.6046,-203.6780,60.9033,-147.5043,6.4882,-38.0396,45.8797,-20.9167,5.2232,60.4249,-0.2987,-156.1960,92.4636,-129.5388,28.6017,-16.7442,-10.6652,64.3326
-63.2224,-13.5161,-231.0323,100.7521,-158.3005,94.8105,-53.9284,114.4082,-80.2158,41.7960,35.1011,-50.6558,-121.2752,135.9120,-102.3697,51.8435,-56.8058,9.8594,110.8641
-158.5785,-45.7767,-234.9032,57.9735,-110.5710,84.0549,-7.2155,125.1960,-103.6992,58.9111,12.7215,-53.4284,-29.6249,90.6370,-95.3311,47.6943,-92.3063,-33.6772,128.8912
-193.7156,-48.4445,-206.5313,-35.5830,-54.6277,-16.0858,15.6368,50.5166,-83.4312,-8.1512,3.4982,-9.8033,16.0205,-14.1121,-92.1796,6.6909,-115.7561,-93.9247,57.2857
-137.9528,-32.0535,-186.4399,-76.3200,-40.5611,-75.9184,-26.5621,-32.2195,-50.3683,-65.1062,30.5804,17.6743,-75.7671,-64.3653,-49.4869,-24.4589,-140.2677,-107.6225,-14.7114
-81.4827,-48.0780,-189.6200,-37.9282,-58.2692,-22.0604,-48.1372,-37.4248,-30.3441,-24.4106,84.7745,-4.4323,-182.1695,-11.1702,-41.7187,-16.4268,-153.9084,-90.2041,-6.2202
-110.8272,-112.1009,-223.4922,-18.7820,-104.2263,82.9847,-40.3872,15.4579,-16.9352,56.0209,110.3208,-47.3057,-148.4238,47.3729,-97.8792,7.4065,-157.6131,-124.5977,13.5976
-174.5651,-166.5922,-266.9631,-70.4332,-154.1221,102.1293,-66.3750,34.3576,-5.3181,73.5208,82.6901,-63.6922,-44.0479,-12.0416,-129.6104,29.8104,-167.9846,-214.8944,-21.9333
-176.0564,-141.0263,-251.4885,-115.9510,-168.5427,-6.7405,-97.8120,-20.0836,-19.1098,1.1541,33.0679,-43.0051,-25.9063,-161.9090,-117.6274,28.9084,-179.2983,-266.5998,-76.1220
-133.3283,-68.0106,-183.2484,-108.7136,-172.0678,-107.8119,-105.8687,-101.6708,-51.7885,-90.3127,6.1186,-15.3940,-89.7201,-246.8039,-122.2405,-21.8404,-176.7534,-248.7533,-119.8819
-106.8517,-58.7483,-151.9188,-103.9214,-186.0294,-74.2032,-138.1546,-146.8999,-45.0538,-115.4539,35.4065,-11.0459,-124.2779,-199.2045,-127.8735,-82.5114,-161.5762,-231.1693,-153.8183
-85.2403,-119.9004,-153.7157,-132.2753,-173.3631,24.2017,-181.3892,-131.3779,4.4922,-89.1376,99.1387,-26.5530,-95.3110,-142.0493,-99.2713,-104.2048,-147.6834,-235.2875,-153.5771
-57.1893,-124.7584,-118.0696,-159.0844,-147.6996,40.5973,-184.1520,-87.0127,20.8406,-78.9751,122.8128,-28.1732,-63.0172,-200.6352,-100.0878,-114.8139,-147.7568,-200.1989,-128.5602
-29.9426,-19.0417,-73.7413,-160.7504,-159.9428,-34.0635,-182.4693,-63.8612,-20.7983,-85.5570,107.9606,3.4776,-78.0552,-309.9770,-166.7996,-120.6652,-142.9340,-115.3492,-119.5494
36.0372,82.6127,-66.0285,-136.2004,-181.3379,-73.2905,-197.6867,-55.7403,-72.9638,-83.8942,141.1022,33.1822,-111.4975,-325.7962,-202.2670,-77.9932,-98.2499,-49.2046,-103.7919
117.6828,56.6849,-52.9742,-100.3448,-173.5792,6.2321,-176.1419,-27.7979,-117.6740,-87.9871,206.5970,14.6141,-92.0270,-243.0164,-152.3175,-29.0804,-44.7214,-37.4933,-65.0711
92.3321,-71.3841,-37.5632,-106.2925,-169.1835,118.8785,-135.7663,-10.9288,-150.0111,-106.5798,197.7041,-30.3612,-24.6343,-194.7190,-106.3254,-53.1098,-58.1215,-56.6023,-72.8300
-19.1484,-168.5007,-82.2415,-179.0613,-186.9915,125.0710,-148.8425,-44.6347,-135.0647,-130.4370,135.5023,-38.5337,-16.2692,-265.7037,-104.8071,-110.5961,-126.0721,-90.4857,-134.5779
-42.3472,-150.7374,-152.0286,-241.8751,-209.0695,55.6782,-190.8091,-73.6672,-89.5956,-143.1041,126.2925,-1.8452,-112.6131,-370.0280,-84.3815,-125.1294,-160.5605,-126.6716,-155.3037
35.0626,-66.9232,-171.8220,-222.1231,-227.0179,53.6813,-194.6043,-50.8708,-85.3704,-119.2297,157.0483,33.5834,-193.4940,-376.8802,-66.2217,-101.4879,-142.2338,-136.1055,-132.7557
71.9331,-20.0559,-162.2111,-178.8546,-217.0145,107.7307,-161.3844,-40.8219,-127.0069,-86.1218,163.4322,44.0975,-144.2664,-331.9449,-113.7082,-66.3830,-124.3481,-132.9981,-149.5668
44.5826,-41.1776,-156.4252,-200.6836,-171.5383,89.2788,-127.8652,-83.9282,-158.3111,-101.3152,157.7995,35.3362,-37.4047,-372.1187,-143.4599,-41.8942,-131.3137,-167.6402,-188.4268
4.9140,-76.4514,-141.0098,-249.7844,-153.5341,14.6371,-130.6130,-108.6384,-176.3850,-134.0157,142.5497,11.1597,-11.9528,-460.0949,-68.2723,-53.8102,-149.2320,-220.2257,-195.5338
-46.5325,-70.1167,-134.1626,-240.2668,-189.5421,2.6137,-177.3880,-79.7898,-225.9591,-138.0155,101.7790,-4.6517,-65.8889,-470.8297,21.5212,-65.8242,-158.3524,-221.6241,-206.9904
-67.0117,-32.7078,-156.0647,-185.6439,-206.7893,51.6607,-201.1914,-60.2833,-297.0747,-146.6271,95.5529,15.2365,-95.0514,-425.0787,42.9201,-31.9846,-139.2078,-170.0881,-238.5667
-18.3226,-30.8347,-171.1939,-139.8855,-169.6822,89.6909,-153.5380,-70.4964,-304.3510,-140.3687,145.0777,21.6530,-58.2952,-380.4786,44.9274,-8.7844,-102.0803,-107.4485,-236.1642
1.1233,-89.2786,-163.5149,-100.0773,-133.5549,113.6436,-105.4507,-56.4200,-199.4797,-78.1846,144.8365,-51.0780,-7.8431,-324.5818,54.2898,-44.9388,-84.9050,-54.5539,-201.9712
-55.3615,-121.1449,-152.9797,-72.4048,-134.2810,118.0532,-118.0931,-15.7538,-66.0136,-69.2921,61.9560,-116.0318,-7.9669,-316.4482,61.5366,-75.6520,-89.9634,-49.9107,-175.5628
-49.9058,-20.1859,-131.0471,-94.3277,-149.6795,64.6873,-136.6605,-6.8592,-16.2474,-145.7999,4.9838,-10.5475,-62.6583,-410.6576,96.3591,-62.9476,-80.7940,-110.6338,-134.3875
80.0561,203.2224,-95.2150,-128.5553,-145.9831,7.2824,-117.2915,-30.9433,-32.7314,-99.4601,6.3708,240.0456,-105.0305,-467.3939,121.1014,-59.3412,-37.2910,-142.8028,-60.8213
222.3923,444.9366,-62.9513,-88.5599,-98.2068,51.8023,-87.4305,-22.3951,-36.0472,85.7777,-14.0211,458.3000,-80.7950,-350.0898,60.4601,-81.9649,42.2197,-60.6817,14.2790
322.9881,620.3588,0.9624,27.3465,-4.0983,188.5447,-37.8873,47.6660,-26.0327,116.6848,-72.1166,582.6794,-20.3246,-153.0646,9.0094,-101.8470,150.4482,70.5864,97.0911
402.2587,695.9594,125.1251,143.6726,109.9915,311.4138,73.2093,134.1476,-22.6618,-44.7039,-116.1494,653.6439,33.2413,-47.5565,110.3613,-116.6714,245.9081,145.8974,202.3180
407.9282,667.7593,228.1032,188.9661,202.4203,330.2527,210.8179,170.4873,4.7623,-110.8656,-122.6897,643.6468,90.4529,-104.1834,271.8291,-120.3122,276.0208,143.6019,264.4573
319.3284,571.2786,227.3773,144.0232,224.4028,218.2500,277.4086,125.6452,58.9646,-12.5895,-80.2307,550.9146,137.4985,-268.3276,293.0180,-96.0310,239.8314,92.5719,233.9172
240.2224,472.9486,169.1907,97.6254,169.6385,74.8862,225.3458,41.9568,97.4978,75.4353,0.1766,483.1661,121.6278,-363.5307,173.6313,-64.5646,193.6543,64.9887,190.0647
230.7785,406.8516,147.1746,153.1380,124.1582,66.1878,119.7745,11.8322,101.9019,109.0005,47.7604,467.1497,72.5435,-270.9785,71.8549,-48.0136,196.7095,134.6913,230.3100
239.6870,349.3215,186.8363,232.3179,170.3605,182.3759,85.9848,66.1387,74.4312,133.1957,36.4474,419.1007,79.3391,-112.3703,59.3649,-33.3246,249.7083,239.8164,320.8817
236.4790,282.5840,243.6852,205.2295,256.2093,246.0850,154.2861,126.5676,24.4932,106.5324,46.4011,357.3109,132.5020,-46.4426,71.1932,-16.4529,294.2379,256.0115,356.1407
232.8075,235.4500,254.6368,156.2898,269.6357,208.6087,206.1620,124.1896,-18.8906,11.2080,112.4274,349.7384,154.9339,-50.2104,64.3035,-15.0341,296.9093,212.6368,318.0211
219.9355,221.9894,211.3757,199.0422,211.9916,163.9818,164.5306,87.6035,-37.7695,-64.4904,154.0851,329.9271,145.3232,-67.6273,91.7767,-39.4137,284.2014,211.2198,286.7090
198.4366,197.5451,174.0538,219.7244,184.9664,125.5893,121.5168,69.2138,-20.2857,-33.0763,131.8553,241.1266,135.6806,-100.8559,163.6244,-74.9455,263.3564,223.6582,299.2842
184.5636,127.9499,168.6268,129.0553,216.5716,72.2552,154.4099,80.9714,58.5245,87.8478,103.6250,171.0638,103.2754,-107.1208,190.8917,-68.9276,208.5619,181.6840,295.9645
159.4972,53.9563,151.8859,65.2315,223.7004,62.2089,186.0334,113.5450,159.4242,181.6428,94.8934,161.0707,52.8670,-63.4174,155.0958,7.9725,144.9847,113.7890,234.9879
105.7070,37.6806,111.7621,114.1495,179.5613,100.6601,160.1060,134.2247,200.8816,168.8531,82.3022,140.9198,55.1257,-31.8119,132.7987,76.8287,124.2686,65.7899,156.3454
54.2374,68.5419,78.1594,169.0742,160.2091,113.1276,150.9308,111.2809,211.9259,102.2800,85.8868,98.9215,110.3148,-24.0645,131.6375,55.1160,129.2681,36.5446,99.8894
20.6033,63.8737,42.2647,150.7474,166.8246,101.7130,188.3388,83.5975,252.7462,56.5046,118.6572,59.9221,123.6391,-11.8931,131.2468,9.4387,108.5933,16.7125,62.4465
-26.7286,-11.4672,-5.8147,82.6849,120.2409,97.3185,197.3378,101.9731,249.3579,42.2651,114.6145,-7.6375,71.7194,-41.0921,173.9010,36.7251,59.1369,1.3897,45.0761
-86.7361,-61.0691,-20.4115,10.3629,66.9793,63.5920,172.4299,121.7096,164.0965,70.5100,48.7967,-71.1248,31.4223,-109.0546,221.5856,81.0575,18.5993,3.9931,54.3532
-108.3063,9.8733,12.2979,-6.0346,109.4424,21.6147,181.1376,94.2927,131.5446,140.6118,12.2006,-32.5074,26.4682,-108.7206,176.3359,44.5024,24.0262,41.5066,71.1194
-79.8211,105.0527,28.2589,36.7453,172.0823,46.8834,201.5598,76.6857,207.8083,204.2354,48.7671,53.9156,18.5372,-46.1919,110.7706,-21.3325,59.8286,63.4087,71.6541
-53.6718,52.6194,-5.5053,40.4322,140.0329,84.5936,173.9999,108.4442,267.5135,240.2283,75.1555,29.1013,25.6787,-45.0535,140.7505,2.1977,41.1561,12.3427,49.6462
-63.8493,-106.9623,-43.7008,-24.6323,81.8320,39.0952,136.0180,119.3605,245.6598,236.5212,50.5973,-90.1853,68.6655,-95.0104,180.3470,90.5953,-56.7137,-57.3412,8.0812
-77.2740,-161.9930,-50.1656,-57.2962,79.4018,-24.3324,129.9077,67.9896,189.1481,136.6609,44.0342,-133.3656,74.0353,-80.3491,145.2697,100.5220,-112.8042,-76.2705,-29.3188
-44.5860,-46.1275,-37.3273,-12.5605,76.7903,-14.6572,114.1718,19.3915,122.6610,-21.9703,75.7066,-45.2090,7.8771,-13.6171,122.8519,8.7001,-48.5271,-70.0713,-24.1354
25.1713,95.5186,-25.7645,40.4317,40.9754,13.8976,75.7295,23.5416,84.5771,-86.4835,71.9194,68.0033,-28.6734,-1.5223,135.4185,-39.6342,24.4993,-60.6752,13.6711
63.0806,140.4539,-30.6867,42.3660,10.1683,-2.3225,59.7100,42.8480,125.4602,-27.0841,9.2921,119.3011,9.1940,-48.3901,102.6237,11.5208,-3.6813,-40.7831,17.4841
28.2135,107.3240,-59.8127,-2.2938,-20.1086,-26.8524,60.6119,24.0415,182.9744,36.6170,-41.7416,120.1175,24.3528,-72.3442,67.5186,32.0307,-68.3315,-53.8024,-32.5881
-31.1944,54.9124,-90.7927,-35.9095,-55.9761,-32.3170,41.5497,-32.3666,168.0894,39.7052,-33.4064,95.9290,-11.3248,-68.6490,95.4729,-37.9418,-67.5876,-100.6569,-67.7686
-49.9649,12.1465,-87.3697,-2.9701,-60.7654,-52.3380,14.4017,-83.8431,115.9015,-10.2486,-7.4753,44.2630,-14.1329,-106.4497,85.7029,-91.8439,-7.8597,-88.5680,-52.9149
-40.1345,7.7166,-46.3558,61.3092,-37.9861,-98.1110,-0.8719,-99.2675,74.9071,-80.6961,-26.6007,0.3972,9.3547,-163.8495,-25.7855,-84.7267,52.8944,-8.8717,-50.9310
-48.5636,47.4161,2.8591,95.1833,-13.1971,-117.3721,-7.3459,-76.0183,9.6908,-78.6523,-75.0052,23.4361,-10.1840,-125.7222,-105.0213,-78.5883,84.3336,53.4079,-81.9892
-70.1481,57.9270,35.0537,116.3240,25.2716,-60.2376,3.2871,-19.0481,-76.2025,13.2099,-72.3748,68.3516,-27.4382,10.9120,-47.3982,-72.9078,88.3195,95.8568,-58.7562
-70.2188,-26.7614,44.7024,125.2209,64.1585,30.7518,30.1185,39.6367,-108.2551,31.7450,0.2489,21.3184,17.4437,101.1792,58.3412,-44.3068,84.6726,138.2598,37.7164
-44.6234,-129.6860,41.4842,79.3127,67.2574,63.3393,45.9380,44.9923,-74.1010,-83.0540,62.8866,-89.2942,56.4199,70.1428,87.2979,-42.4105,90.7127,124.0355,96.0500
-17.7578,-126.6973,33.4106,52.6723,55.0284,50.6044,44.4177,19.3325,-35.6170,-114.0588,58.4431,-112.1378,38.9446,1.6336,44.5273,-65.4477,111.1006,70.0733,76.0123
-21.7343,-51.7975,7.5376,132.2981,56.3647,84.4030,42.3877,51.8274,-14.7749,64.2793,17.0168,-40.8655,24.2853,-15.1399,19.4730,-33.0564,136.6059,68.2183,65.9302
-68.3462,-41.6527,-46.5707,188.1781,48.5695,142.2048,45.9114,127.1372,20.0420,232.3880,-21.1843,-32.4604,32.0467,3.3185,40.1964,39.1826,127.9315,80.4294,93.2949
-111.5170,-123.9103,-98.2328,88.5009,15.5778,129.3629,50.3999,143.0699,64.3260,192.4038,-41.0061,-127.9843,16.7439,-1.8094,40.0533,59.7376,54.8223,24.2625,88.3175
-90.2526,-207.1376,-107.4864,-25.1898,-25.1707,85.3238,33.6218,110.1193,66.8669,82.3640,-20.9363,-193.8591,-8.8875,-20.8728,-16.8483,32.3217,-23.7630,-26.2564,34.5724
-21.5882,-211.1122,-81.6277,10.6101,-51.4133,111.5416,-17.9086,114.3517,26.4973,76.1673,31.4607,-165.9550,-8.9645,11.6240,-65.0298,14.3210,-22.4592,15.8479,-14.3711
19.8972,-124.4437,-53.2792,110.9512,-42.9413,172.7415,-46.4869,139.5977,5.3167,84.1299,55.0561,-126.9686,4.8754,80.3734,-44.2049,-1.8759,25.9389,94.4922,-30.4263
6.3831,-14.3429,-30.3546,131.1244,-4.8494,173.1605,3.9644,126.4396,22.8397,8.2104,30.3486,-125.0367,42.5983,85.2351,15.6387,-38.8657,25.7908,142.3321,-30.4155
-19.2012,20.4413,-3.4068,68.1852,34.2879,114.7765,70.5979,88.7791,50.4230,-36.3608,28.6739,-116.6791,118.5305,20.5852,58.8521,-76.5884,-16.0309,147.7821,-46.9225
-5.8631,-28.4018,29.7144,6.6451,66.3952,57.8081,67.8756,54.2588,91.3413,13.4266,94.5380,-91.1426,156.7827,-14.2606,71.4380,-89.0487,-28.1791,100.5473,-87.7718
42.0060,-76.5240,60.5854,36.7207,79.7399,42.6497,22.8178,35.3377,140.5478,43.2473,160.9926,-85.4081,103.6152,2.2584,65.9541,-59.4067,-13.9831,50.3043,-110.8291
62.4768,-85.8426,72.7238,155.2037,53.4732,71.0611,2.2363,58.0474,144.7169,37.5675,154.8007,-101.4041,50.7766,10.2972,57.8466,7.7188,-14.6697,71.0145,-93.2027
27.6811,-90.6993,61.8725,200.1771,31.7625,84.9330,18.2383,92.9884,91.2159,85.7279,109.8482,-122.2294,74.0296,-6.1194,50.8746,57.6946,-14.5424,93.4331,-82.2668
3.9658,-107.8141,50.0328,62.5288,53.9001,37.5266,41.5788,68.5578,11.7635,123.6217,99.3492,-140.1069,109.0898,-26.3376,19.7218,46.1026,5.0604,14.8252,-105.8122
43.2095,-117.9038,49.4449,-96.5241,40.7056,-4.4002,19.9290,12.7389,-88.8996,53.9499,123.8655,-119.9145,108.3558,-25.2816,-49.9316,8.9067,8.9073,-81.5727,-123.1744
86.2913,-98.0591,42.0231,-67.4290,-52.6228,29.0978,-58.6599,7.1692,-165.2945,-28.6657,140.5622,-52.2332,111.7095,9.5606,-93.6665,-6.8095,-12.4164,-82.0000,-111.3038
68.1941,-46.7221,19.2866,80.2135,-119.4094,65.2703,-115.1083,29.5522,-133.0658,-22.3524,136.0411,-14.6402,106.0721,11.1182,-36.4772,-14.9830,-7.5530,-45.7980,-97.2968
21.1408,-5.7742,-3.9278,124.2938,-107.4043,20.6508,-111.4146,16.3299,-47.0676,5.9135,113.8105,-43.9221,35.7110,-72.8374,58.5585,-31.4369,28.2793,-44.3732,-111.2872
-1.3327,-10.9537,-20.2768,39.5297,-100.1745,-44.5904,-120.6968,-23.9528,-48.2010,-36.2292,78.9703,-58.9336,-46.4325,-130.5270,55.6632,-42.5046,20.4120,-42.5716,-165.5376
-3.7421,-31.0775,-31.0190,-1.0521,-116.8187,-52.0230,-153.7679,-71.1046,-127.6396,-144.6026,55.5149,-23.9030,-34.9748,-76.1017,-40.1685,-63.4737,-56.4646,-38.5864,-223.7379
-11.2376,-27.1819,-34.9829,67.5677,-98.4509,-35.0100,-133.5179,-119.3220,-193.5353,-224.8647,55.1617,-5.8459,48.7330,-32.8406,-113.1335,-111.2325,-124.9053,-58.6906,-210.4655
-20.5958,-0.1637,-35.6530,100.7318,-60.9114,-46.6785,-84.8265,-125.7397,-246.4809,-178.7431,57.7107,-16.4523,83.9397,-85.7517,-129.5755,-129.7025,-123.9642,-48.5641,-127.3330
-9.0494,47.1326,-29.4196,-3.4201,-50.6955,-75.9293,-95.1481,-75.8254,-289.7213,-74.8041,59.3816,-11.4042,28.2058,-133.6351,-119.5058,-70.1854,-85.2275,7.5632,-70.0596
13.2123,72.3766,-6.7753,-129.3220,-58.7458,-90.8870,-142.7563,-35.4179,-277.1688,-70.5611,64.6316,-17.3284,-38.0481,-118.7075,-81.6728,1.9280,-64.8589,14.8864,-84.7828
-9.8960,-0.8666,14.5418,-132.2844,-71.1860,-78.7154,-169.1971,-47.8423,-241.1423,-125.1091,44.9270,-62.0496,-43.2034,-87.0704,-43.9360,-0.4031,-73.8577,-44.3086,-131.3537
-70.2960,-99.2804,14.8567,-51.1459,-80.7944,-62.8726,-178.7707,-91.6414,-246.4298,-114.9383,9.6028,-83.2394,-15.9512,-61.0385,-57.4040,-66.1101,-81.7428,-71.4557,-172.5939
-42.2844,-30.2489,23.7246,-8.0173,-69.1132,-90.6291,-170.4482,-148.4977,-254.5426,-114.2902,39.2447,-46.6912,-3.5566,-74.3539,-93.8610,-138.2021,-51.6614,-36.2310,-190.3591
131.9238,186.2302,72.4191,-18.9511,-46.8416,-144.0294,-137.2052,-188.5133,-213.2607,-186.1613,151.2504,-17.6047,16.8416,-144.0168,-104.3068,-175.8514,16.4401,13.3659,-177.6667
320.0255,310.5996,134.3329,-11.5651,-26.3890,-138.6842,-105.0124,-156.4662,-159.2210,-196.7755,257.1940,-52.4858,70.1304,-180.8379,-100.9196,-145.8204,77.6389,58.9998,-160.3042
392.9491,262.1643,172.8962,50.8798,18.3294,-74.1377,-72.1847,-72.6032,-135.4434,-112.8525,301.6805,-133.3303,116.1601,-154.8333,-93.8814,-76.6312,99.1655,87.4851,-150.8081
374.1953,193.6403,187.2752,129.8541,73.8404,-29.5064,-28.5510,-23.4460,-134.1056,-73.6170,300.6990,-197.5475,121.5597,-137.2428,-82.1646,-67.2889,100.5532,93.4834,-115.8918
317.4993,200.2844,183.7493,164.3804,81.1803,18.0539,-9.9322,-4.1413,-130.2533,-92.1279,265.5320,-188.6064,107.5585,-65.6373,-74.0845,-130.9312,118.1273,134.4655,-38.3322
237.7939,210.3376,166.6228,143.9807,59.9208,140.2031,0.3554,63.6750,-102.5488,-75.6808,216.3505,-131.3167,97.9389,111.3786,-29.8090,-155.0272,154.7232,227.8763,58.4220
176.5939,133.7744,149.6454,115.7287,84.4173,240.5377,67.4586,148.8902,-57.2445,-34.7499,193.1315,-120.4888,99.9519,158.2721,59.2923,-95.6966,162.8904,280.2146,130.1855
149.1816,-10.5248,132.2423,106.2051,136.3739,169.0843,135.7448,137.4753,-27.0501,-22.0876,184.1658,-174.2964,115.2388,-52.0947,87.9528,-42.4766,85.3537,245.8218,122.8783
92.6576,-102.5260,99.4643,86.5530,136.9926,5.7178,112.1727,40.4797,-21.6554,-35.2103,148.2657,-198.1016,129.1669,-199.8674,44.6043,-49.1960,-44.9056,200.7513,56.8903
-0.6608,-65.1926,60.0865,44.9137,95.1857,-43.6266,69.5856,-10.7913,-32.2789,-36.2252,100.1853,-142.2935,135.7823,-63.4613,66.5944,-64.3701,-94.9607,198.1309,46.0842
-39.8738,15.8598,38.9627,22.3381,83.1485,40.5731,94.4827,25.1153,-64.7179,11.2162,75.8748,-80.9821,143.0733,101.6370,139.3435,-41.1406,-4.8685,212.9749,106.9186
-4.3864,6.8766,37.4477,39.2695,94.9538,114.4082,99.7242,63.1440,-110.0582,48.8556,70.7030,-95.3698,124.2277,75.7480,118.3269,-5.0096,110.4721,217.2995,118.5641
16.8225,-86.9874,39.7941,55.6230,64.9875,112.7941,22.6199,56.0810,-136.1116,-14.8895,67.0942,-155.8065,65.0508,-2.0944,43.8395,-8.6589,125.3816,196.9113,68.8956
-14.2938,-143.5697,45.5423,36.9763,11.3493,83.9926,-32.0923,38.0537,-121.7778,-85.3284,54.8400,-161.6109,28.9866,-0.2069,32.4383,-56.8201,64.7264,151.3905,70.3974
-46.2460,-87.8868,64.1633,5.3857,8.2215,67.1202,-4.0258,21.7940,-54.7432,-30.2923,27.1665,-88.2718,42.8061,24.0004,40.3039,-94.2413,25.1971,111.1278,111.9490
-49.2667,7.5409,86.9975,1.7768,33.2894,66.3426,20.2081,-0.1701,45.5822,47.5700,3.8474,-34.3621,36.1043,34.1413,13.8669,-82.6164,49.7251,99.4088,100.0981
-34.0289,0.9118,95.4856,30.2670,15.9386,79.8104,-7.3121,10.2689,105.6750,53.7215,12.6332,-71.8185,-0.9995,42.3647,-9.5538,-38.8414,118.0302,105.0632,67.9769
-1.8520,-104.2375,84.6969,48.4374,-22.9256,83.1662,-25.0511,67.4353,100.6190,77.7506,36.8694,-132.9024,-0.7830,18.8519,-12.5295,17.9565,163.4596,98.6389,79.6647
26.3310,-130.8383,47.3604,15.4873,-47.5739,57.9108,-5.5914,99.5406,98.0362,87.0011,35.7634,-122.1644,11.3198,-8.7132,25.4464,68.9484,123.7502,44.9390,90.3941
6.1226,-7.1114,-18.0613,-38.0706,-91.1543,55.7436,-5.0451,71.8168,116.9867,-14.2213,1.7543,-50.3383,-36.6597,55.3921,100.0275,72.5863,43.2753,-33.7671,69.8800
-33.4057,117.7647,-50.9591,-38.1253,-143.7592,123.9801,-52.2301,57.1279,102.5483,-54.0988,-28.1562,3.7654,-101.0303,164.5270,86.6937,38.0344,28.3281,-39.2478,63.1180
-0.0200,123.8046,11.5462,1.3130,-146.2092,182.4454,-100.2326,91.2491,65.5859,89.4478,-6.2236,-5.4493,-99.7446,148.1408,-44.0689,32.0492,66.9250,36.7253,70.1691
97.7917,57.6525,99.4887,-19.4202,-112.4161,133.1088,-101.8266,108.9282,61.3910,188.1947,55.1442,-48.8134,-43.4150,11.2885,-112.2434,51.1290,50.7911,63.2142,53.1924
134.1827,-5.4907,99.0388,-102.0662,-69.3909,46.9234,-57.3230,86.0523,76.7362,120.3931,62.8369,-62.0048,0.3723,-61.3986,-59.5560,34.0251,-25.9021,4.5396,36.5978
50.3531,-39.4300,40.8130,-135.2022,4.9608,48.1036,10.2334,78.4668,85.0466,61.2487,-33.2797,-39.8606,-23.3777,-23.5888,-14.4395,-2.5472,-78.9772,-28.7217,57.4811
-77.2729,-49.5397,10.9313,-102.6927,62.1066,97.9902,67.6659,99.2511,102.8968,61.8326,-142.2724,-41.4039,-92.4347,11.0623,8.2839,-1.0499,-91.6201,-0.4401,83.0717
-143.8228,-69.8670,7.1350,-88.2899,36.2636,95.6939,89.9494,112.4852,126.3240,36.3066,-146.5944,-74.8134,-92.4577,14.3205,54.4633,30.2011,-75.0892,55.1026,73.6770
-96.2839,-99.8294,43.4690,-75.1058,21.7682,64.7197,103.3906,118.0804,138.8514,27.3968,-57.1499,-85.5375,18.8358,22.4053,68.8136,55.6483,1.4546,154.1082,61.3503
15.9343,-92.7102,156.0960,1.1711,117.5794,65.3670,143.9970,123.5091,151.8643,61.2236,14.0958,-64.7724,119.9106,11.6423,57.7759,60.7470,86.3102,238.7946,93.2128
46.3953,-64.1142,229.0587,63.8105,217.7359,75.2027,181.8801,105.8925,150.5984,73.5474,-9.1082,-39.6928,118.2771,-4.4777,85.5038,43.4077,51.4719,181.0665,141.6286
-59.5794,-57.1437,132.3170,17.9367,202.4060,63.3062,182.2931,67.5228,109.3451,100.3318,-92.1096,1.4976,61.4094,16.7024,100.0527,28.9872,-65.3560,44.3066,145.5526
-152.9605,-29.7330,-11.0726,-67.3493,135.0756,36.5443,172.2300,36.4861,75.7585,167.3905,-141.1124,58.0992,9.2372,5.7002,72.9048,27.6110,-80.6092,8.8853,108.8905
-111.3215,35.6638,-19.5475,-97.7548,111.0516,-1.6279,156.7521,12.9177,99.6492,156.5266,-114.8490,80.7961,-6.7407,-76.2396,74.3587,-8.6018,19.3750,60.0597,72.3010
-17.9500,52.6657,50.5461,-83.5302,114.7388,-27.1714,96.2455,-2.1026,129.0472,45.9295,-48.6308,62.2450,38.3475,-103.7742,75.6817,-69.0820,63.6470,78.2835,39.6673
14.1013,-1.0377,61.2488,-33.0086,94.4265,-0.7391,17.9657,15.5220,103.8728,-28.1515,4.0872,52.1163,87.5300,-32.9187,22.9802,-49.3602,1.4064,67.0453,22.6929
-14.9981,-46.1741,12.5307,53.5585,44.0751,50.8886,-5.4847,53.6367,57.2266,-20.7528,-8.2343,62.1520,56.3491,18.8098,-2.6434,52.4110,-40.3823,53.7888,59.9773
-68.6718,-48.4996,-34.8937,96.2343,-0.9802,73.4368,14.1998,70.1680,29.8124,0.1860,-95.8706,62.0710,-18.7882,36.9937,26.5349,99.7966,17.5654,18.2675,112.3024
-96.7295,-14.7219,-41.5625,55.6114,-13.2639,81.9758,11.7537,63.6558,-4.0978,-9.9447,-159.2646,49.7186,-56.5954,87.9480,27.6590,43.3185,112.0612,-0.1964,82.4258
-42.8374,37.6081,9.1257,20.7133,-9.4167,98.4909,-23.7493,57.9832,-61.3400,-56.2866,-100.0530,49.1170,-56.2934,103.2901,-2.4953,-21.7173,139.3531,24.3191,-13.6032
46.6707,33.9770,58.5456,26.5444,-11.2874,81.0366,-62.5318,51.4631,-100.3820,-93.2030,1.7377,67.3437,-36.6514,18.2457,-43.4830,-25.1153,63.2237,7.3826,-64.2014
61.3533,-31.3414,20.7482,-6.6630,-20.8335,18.5470,-89.7732,28.1890,-94.2301,-76.4036,4.2028,88.9302,-8.8770,-65.9273,-110.5405,-1.2177,-49.9989,-85.7630,-54.6592
-7.9088,-32.7829,-81.0930,-74.1252,-54.1789,-16.7117,-109.1771,-14.5288,-76.7756,-62.9136,-77.0464,98.3277,-16.8491,-57.0583,-120.2712,-8.8951,-94.3809,-164.4890,-67.2010
-90.3150,31.2117,-147.0696,-75.1515,-106.0433,17.3781,-122.8385,-49.5461,-74.6844,-79.0970,-141.6541,94.8148,-68.8937,4.2899,-30.0166,-28.1746,-43.9567,-178.1531,-114.1522
-136.7917,8.0144,-131.5125,-20.6896,-121.7245,65.4336,-118.1607,-38.2116,-61.8691,-31.0065,-152.9984,75.6042,-108.0806,34.9441,13.1598,12.9992,12.7039,-171.1206,-133.8617
-117.3783,-90.5111,-69.8234,-26.0621,-99.8992,58.9831,-99.0324,-6.0646,-25.7306,49.7714,-99.0379,30.6059,-94.7135,-9.5651,-34.1939,78.3960,-28.8375,-189.1985,-127.9467
-58.1212,-118.7744,-33.9763,-111.4315,-101.9500,4.8018,-102.9994,-29.4286,-7.8270,-11.2711,7.0346,-10.6036,-32.8557,-73.9477,-34.0710,45.8779,-159.0644,-241.9843,-157.7611
-49.0294,-80.2020,-55.3900,-174.3261,-117.7676,-33.4348,-124.3189,-98.7150,-37.2508,-172.9967,58.9827,9.2016,22.8674,-51.5532,0.0413,-53.6452,-240.2009,-283.8009,-208.5225
-93.6426,-39.1392,-75.7841,-143.2646,-92.3962,-21.9379,-102.1644,-120.8281,-83.3273,-207.2685,-22.6939,68.2675,-9.9510,11.0637,-35.4497,-71.3067,-175.9461,-235.8000,-193.8944
-106.0670,12.3382,-45.6248,-63.7823,-43.6603,-0.9980,-42.5446,-72.5374,-97.8171,-88.9044,-150.8356,76.6006,-88.9697,-40.4852,-64.2526,-9.6319,-59.6120,-114.5391,-110.8325
-95.9141,9.3211,-11.8859,-23.2445,-5.6870,-18.2992,-8.1992,-13.0823,-66.6383,12.3134,-189.2834,21.0538,-67.2809,-162.8390,-22.1954,24.1185,-38.4256,-42.2135,-48.7171
-121.9149,-115.0629,-18.2777,-34.9407,28.6459,-45.5556,12.6275,14.5820,-13.5139,16.3782,-120.7588,-35.6173,36.9730,-162.0792,-7.0939,15.0448,-99.0947,-64.0778,-32.7962
-134.5870,-222.3478,-33.0109,-46.1121,51.0387,-19.6210,56.6715,4.9603,35.1025,-28.9261,-26.7306,-76.2819,73.6708,-33.0213,-33.0426,-14.3287,-132.5256,-84.2387,-9.1497
-95.1202,-181.0200,-28.0413,-35.0027,59.1017,50.1301,93.9002,-5.1870,76.0951,-39.5510,11.7176,-104.4867,51.7608,56.0029,-3.7668,-42.6568,-110.3608,-20.4943,29.2521
-77.0753,-88.7370,-14.5165,-19.7949,77.7699,85.1137,115.0107,31.9073,100.4203,30.1921,-26.7399,-81.4514,60.3436,38.7525,66.3295,-6.5951,-71.1508,71.9807,46.0664
-97.6647,-35.6844,-14.0887,-3.7267,78.6899,46.8406,144.0373,65.4410,80.7386,93.2280,-96.5241,-10.4224,51.5591,-23.0338,89.9783,57.5256,-48.6868,70.9316,42.0108
-75.4045,34.4280,-51.0855,12.4732,26.2219,-18.4889,144.9027,14.5568,38.1479,40.9048,-137.1926,45.6594,-9.9328,-76.6860,60.9261,24.8249,-72.9781,-29.5247,34.8581
0.1298,124.2057,-101.5789,19.7036,-11.0751,-47.0245,110.4253,-41.8683,42.5429,-32.8631,-123.8768,85.7522,-31.6664,-92.3740,40.3315,-43.1784,-126.3092,-79.7863,37.5766
65.8323,166.8930,-88.2990,37.0422,30.2772,-21.1363,123.8229,10.0288,101.9601,19.8587,-74.0865,142.3926,17.2472,-45.9971,75.3768,-2.4813,-125.9013,1.1201,71.4205
97.0213,170.3763,-13.4975,79.6144,88.9793,29.0627,178.8446,93.1427,152.4676,114.6943,-41.4814,160.7416,58.1673,26.5309,134.5077,62.9706,-46.8064,91.4534,117.4819
87.2715,154.2873,25.0973,111.1755,97.0792,55.2995,170.5076,98.0055,158.9382,103.0517,-66.1402,94.5668,51.8075,44.9371,141.6619,40.8573,27.3624,81.9460,120.9271
28.5014,94.9223,1.0683,107.1323,75.8326,33.6524,113.3854,68.5706,132.3968,44.4667,-111.2466,32.2129,25.4469,4.1541,99.3143,24.0474,30.0282,36.3165,85.9694
-41.2220,31.3022,-22.0061,97.1984,62.7052,-10.1009,94.8532,49.1658,94.4950,39.9616,-117.7310,59.9179,18.4239,-9.8138,59.6898,55.2276,-20.8100,23.1761,51.3181
-72.8397,35.4156,-27.4256,98.6909,56.9871,-30.1832,88.3445,14.7723,73.0073,43.4058,-94.0547,120.9653,31.3103,40.9110,24.5524,41.5434,-83.3045,9.0286,10.7979
-65.7136,69.4034,-47.4867,91.2998,31.5298,-12.0947,47.2997,-5.6458,64.7159,21.6885,-71.6671,120.7192,4.6702,90.6453,4.2074,-9.7298,-124.2678,-19.6219,-20.8490
-42.3771,37.3368,-76.9581,64.7665,-25.7997,5.0608,16.1211,9.3936,36.2164,29.5595,-47.4332,60.3456,-55.5750,67.5365,15.5386,-39.5828,-115.4732,-23.6926,11.9673
-24.2489,-44.9411,-82.4606,37.6968,-64.6811,-39.5326,19.4551,-2.3452,17.5974,56.0127,-28.3645,18.5546,-41.7628,-35.2457,-5.7241,-51.2396,-56.1415,2.3901,80.7422
-33.2701,-56.5232,-56.2113,42.3545,-39.6269,-135.6817,26.0018,-49.0244,72.1971,37.7589,-33.6044,48.6710,25.4057,-139.3140,-77.8695,-9.7575,20.7891,28.3377,98.8537
-68.8456,37.1283,-24.7023,75.0054,-3.3358,-176.2125,25.9459,-74.0836,152.7307,-14.7449,-45.9342,94.4615,2.2168,-118.8017,-100.8694,59.8628,76.1433,30.9969,70.9514
-104.4594,104.0877,-7.3035,72.2000,-5.7675,-102.6890,24.8178,-78.3719,158.1873,-53.5138,-49.3906,66.1482,-68.1606,21.9824,-62.6980,10.8300,94.7271,32.0061,56.7331
-114.6826,47.6298,20.7113,30.9599,12.6990,9.9024,45.6521,-50.4340,103.8644,-37.5767,-58.5641,10.5862,-33.5342,109.7310,-40.1173,-101.6063,99.7393,106.5495,73.7514
-88.0535,-34.0621,78.0146,59.2390,104.1537,88.5723,137.4913,53.1950,81.8328,61.9317,-62.3798,30.9940,50.5426,76.0293,-9.6551,-62.1848,120.0553,250.4680,132.4753
-37.4790,-26.1098,131.7708,159.7342,216.7505,125.6465,267.5135,144.3472,120.3580,164.7675,-36.3021,69.5992,63.0165,31.7341,40.8909,40.7905,148.0670,312.7102,221.9863
5.7155,39.7519,169.7462,178.6434,279.5574,96.8107,318.2830,107.5297,173.2154,145.1322,-6.7812,31.3223,52.5226,10.7613,23.4751,-8.7149,164.6731,238.2461,253.4456
24.8097,102.2009,212.4026,106.4744,266.3190,22.3192,269.6383,40.6394,187.4987,68.1391,-5.1289,-3.5934,69.5729,-24.7819,-39.0917,-86.8048,166.0849,181.1884,176.6716
16.4230,115.6674,218.8875,92.8679,190.6404,7.3950,209.7260,73.8294,161.1091,80.5896,-8.2034,28.1118,71.4854,-12.8444,-39.0158,-18.3786,136.2632,194.8536,81.6842
-17.1391,3.9894,148.9276,112.7916,103.7328,44.3424,172.8092,116.3937,140.6078,118.5578,5.6753,18.0203,64.0930,67.6192,-3.4881,65.0002,67.4065,132.5646,52.2358
-38.8764,-162.8058,74.2869,35.3865,38.6218,17.3393,136.2559,59.2981,140.0423,59.1914,18.2848,-52.6601,58.1562,121.0383,6.1210,44.4827,5.9584,-17.3927,36.8704
-17.1708,-153.7695,49.8432,-62.8016,-25.3540,-43.8300,97.4362,-19.9769,129.8734,-24.1302,20.2734,-49.9349,9.9515,115.5336,6.9072,6.2110,-15.7211,-90.7999,-34.9649
1.6246,19.6225,20.4800,-63.6925,-84.1402,-61.1343,52.4448,-36.0541,118.5583,-29.3222,25.9270,14.7919,-34.8827,46.2844,-16.2225,3.1738,-40.1193,-65.6757,-123.7429
-26.7818,70.2458,-16.1617,-50.2124,-86.9762,-105.6041,5.6087,-25.5663,118.8423,16.9567,37.2383,14.4721,9.9570,-87.5540,-52.0606,20.0683,-80.4865,-52.6310,-150.6288
-47.0005,-48.7063,16.2499,-76.0532,-31.9001,-159.4989,-11.0434,-27.9866,81.0202,59.7843,42.9735,-20.2372,73.0046,-93.7015,-11.0647,46.4180,-63.0031,-65.6496,-129.0641
-5.9843,-92.7381,91.2466,-45.7683,12.1471,-75.3505,-17.9705,-38.4332,-3.2876,33.4657,45.4673,-3.6458,44.5799,119.9422,63.8356,18.9924,30.4259,-71.7731,-138.4266
51.1008,-9.2578,110.4704,23.5847,-14.0047,30.3277,-80.1398,-62.1578,-60.9776,-87.6685,59.7835,12.9165,-22.7885,188.3769,37.5991,-61.2123,91.5951,-83.4912,-180.4611
70.7652,24.0081,68.6539,6.9779,-97.1011,-71.4358,-173.7031,-87.5826,-83.0849,-158.7787,81.2971,-19.9942,-29.7103,-80.4337,-48.5620,-57.3985,45.3472,-87.2076,-169.8334
56.8792,-51.2421,15.4005,-69.7328,-157.3117,-220.7042,-206.1291,-75.6316,-120.9620,-86.4354,75.9022,-55.0862,11.3490,-240.2347,-91.8280,35.7692,-36.0709,-80.4797,-87.3229
34.8691,-141.6875,-28.1237,-91.0788,-139.6614,-164.2044,-161.7838,-40.7884,-155.2738,-39.3369,34.7098,-61.5631,20.5281,-43.4224,-118.3287,49.5793,-38.3013,-113.1559,-14.0098
49.0630,-152.0564,-34.6177,-47.5103,-86.3944,-45.1646,-104.5104,-45.4288,-156.0710,-96.7632,8.1128,-38.9532,-41.9791,114.7831,-133.5551,-38.1789,55.4400,-146.3294,6.1311
124.9583,-40.6275,14.4486,5.8057,-50.7558,-56.8207,-79.0793,-84.9612,-154.4522,-79.9284,33.4895,8.6476,-104.7157,30.3814,-101.3713,-85.7343,156.6922,-89.6568,9.5747
183.6249,87.8954,78.0600,22.1214,-13.3715,-100.9739,-76.3533,-89.8890,-139.4993,30.4752,72.9307,29.4430,-53.6954,-25.9179,-91.1362,-48.1281,162.7856,-18.6475,26.6203
128.1116,51.4238,99.4160,-21.4225,33.0475,-95.5300,-58.8395,-51.8821,-73.7070,53.0724,73.1900,0.5308,60.9192,43.0338,-147.6086,7.0780,62.8646,-55.6627,51.9979
13.5141,-104.0735,59.9529,-63.7924,37.4237,-93.1654,-20.5311,-28.3162,-24.5675,-5.1770,39.3345,-11.4153,49.6465,94.5014,-183.6178,34.3018,-42.4147,-121.3870,67.4904
-27.8737,-146.5778,-14.6735,-35.1681,-15.0617,-82.3389,-12.5095,-38.3444,-74.3685,-47.4048,18.3117,0.5263,-102.4944,104.8448,-147.6499,36.7121,-70.3689,-103.9475,44.9666
8.4241,-59.1462,-66.9178,-13.9545,-80.4200,-72.7049,-59.5073,-73.2699,-166.2945,-127.1693,39.0859,-45.9893,-189.6976,70.8634,-63.0979,33.7241,-72.8815,-78.6074,-23.3358
17.7727,-37.6610,-71.9217,-100.9275,-125.9004,-143.8991,-115.0419,-140.0414,-194.0182,-224.2750,71.3539,-133.5867,-120.8806,-40.2196,30.9295,20.4833,-136.5363,-120.8222,-97.1138
-37.3791,-120.6566,-79.1286,-202.0988,-147.8139,-229.4419,-150.8586,-193.8192,-137.9817,-202.7042,59.8050,-153.4446,-42.3006,-108.1055,31.8865,-10.3417,-222.8275,-153.6888,-128.6638
-88.4695,-165.7312,-125.6298,-176.7951,-158.9969,-202.2533,-179.2259,-166.9185,-51.1344,-112.2899,19.0464,-96.1635,-72.0957,-27.8630,-90.2330,-12.9655,-232.7434,-126.8432,-106.7944
-74.0233,-114.6036,-164.0346,-95.5279,-168.1109,-131.8885,-175.9528,-114.1198,-3.9901,-91.4147,18.1086,-50.2594,-138.1407,83.1271,-156.5541,26.4253,-171.8611,-99.4716,-59.0444
-17.5389,-38.9014,-133.1250,-115.5378,-151.7781,-137.7199,-127.0009,-126.8756,-32.1474,-91.2022,52.5675,-67.2670,-135.4922,99.4805,-71.9441,40.9273,-124.5456,-91.9851,-32.6037
14.1971,-14.7367,-47.5049,-191.3198,-107.8859,-169.9260,-107.9606,-142.5378,-101.4400,-28.4996,61.5147,-122.4882,-76.0948,73.6969,6.0221,34.3685,-124.4939,-59.2348,-42.2760
-5.7595,-60.9637,8.4530,-142.1237,-100.1309,-145.5401,-167.4466,-77.8406,-160.6114,36.6151,54.4412,-155.1458,-21.5370,100.0242,-5.7777,65.7732,-146.1525,-9.5355,-46.9054
-43.9754,-115.4499,-25.4293,20.7441,-150.4901,-111.5518,-225.1224,-18.4136,-192.4272,38.3048,65.9470,-133.9137,3.8922,142.8294,-18.5704,80.9845,-156.8040,-5.2445,-20.3195
-50.5983,-78.6847,-91.9696,78.2270,-182.5001,-158.3942,-210.1130,-48.9693,-189.4630,1.4947,60.7623,-84.6241,-14.3643,94.7232,-27.0269,40.5013,-129.0758,-54.2000,9.5400
-8.5899,37.8720,-81.7809,-37.4448,-150.5826,-245.0326,-170.5980,-89.5374,-157.9834,-11.6040,25.7180,-36.1933,-71.1041,25.9122,-66.1522,36.0025,-66.2153,-84.8795,26.5631
46.1875,87.1695,3.8274,-119.6225,-92.7720,-208.6395,-157.4798,-56.4196,-133.1340,29.7381,19.7624,-0.4019,-91.0827,140.6509,-76.3844,64.4974,-9.8572,-36.8622,47.9845
60.9116,3.6432,67.9234,-16.4303,-36.5935,-37.6386,-140.1608,15.2999,-122.0914,72.6048,45.1196,10.5863,-28.1469,354.2658,-64.2083,33.2346,23.2152,60.3489,74.7278
33.8579,-67.3804,67.7300,147.6230,15.5337,38.5479,-93.5483,64.3288,-97.2567,62.5074,43.0602,28.8960,28.5145,369.9440,-99.3394,15.2614,57.7183,118.9502,97.3738
9.9937,10.4786,29.5602,166.1517,43.2799,-73.0134,-46.0432,64.1641,-71.0766,43.1870,21.2357,90.3331,-3.6748,246.4396,-112.6836,89.3733,85.8461,95.1279,112.5217
4.6065,128.1116,-15.5916,11.1455,35.1197,-161.8654,-18.5011,24.3368,-73.2517,39.0732,13.1127,114.4787,-57.4041,253.9337,-33.2799,132.6390,62.9293,39.2391,91.2906
-6.7955,97.4707,-30.4242,-132.9202,7.3556,-108.6264,-4.7585,-2.0280,-73.5966,5.1284,-3.3875,29.6422,-48.3874,320.2180,33.3541,89.3908,3.1375,29.2244,15.8699
-28.5583,-41.1544,-0.9047,-69.8269,-15.8713,-48.9736,-2.4198,10.2010,-32.6354,-20.0489,-25.5644,-45.1898,-7.7370,270.4280,26.4544,64.5022,-12.2446,62.9003,-56.0522
-41.9392,-87.8624,20.8378,129.1557,-15.3460,-73.6164,-9.7752,5.9297,18.9594,24.9065,-14.3039,2.6362,6.4167,197.7902,27.8936,57.6668,39.9530,71.1686,-70.2975
-38.4349,16.4402,0.1469,178.1450,-3.0572,-145.6120,-22.0638,-49.8186,33.5073,67.8511,6.9648,75.7800,-7.5578,162.1729,25.0511,19.9734,77.4404,47.7708,-64.8067
-8.7703,135.0855,-10.5787,10.6754,-7.6307,-218.5993,-40.0010,-102.1817,26.6111,53.2523,6.8493,75.0925,-22.4551,108.8422,-56.6894,9.5027,49.1980,57.3526,-69.7121
46.1623,119.2568,26.6385,-103.8707,-10.6657,-204.6548,-46.8137,-91.4704,37.6354,30.3513,19.1781,47.0070,-12.8578,130.5683,-132.3333,16.4615,24.4433,94.9224,-26.8271
75.3211,-30.5552,53.0360,3.8743,10.4836,-68.4710,-17.1517,-30.1614,49.7654,-7.3521,35.3586,24.0654,2.5769,238.9150,-109.4943,-22.6016,59.8334,88.2251,78.5402
42.9710,-130.7504,17.5016,171.9499,11.6111,35.3885,22.0715,20.9321,24.4894,-67.3850,4.3927,9.3381,-39.3177,226.2176,-67.3922,-23.1074,105.5529,43.0480,146.1723
22.4460,-12.0168,-12.7289,198.9418,-20.0046,2.6084,21.4864,20.4666,-3.3336,-59.2442,-23.0142,59.5070,-124.0760,97.4885,-47.9769,56.4451,135.2604,24.0091,122.3079
86.3264,195.3416,45.6737,91.7728,-12.6490,-48.0682,2.3795,-5.1865,34.1836,0.7746,8.9242,136.3507,-141.8164,54.6819,7.1016,71.5857,188.5757,32.6812,78.2479
144.5442,197.1031,123.3051,2.0653,38.2491,-34.2549,10.7175,0.5745,107.9743,-2.5172,10.5829,94.2343,-80.3570,74.9914,19.8125,1.1872,226.2749,42.0621,69.1943
81.9286,5.7006,94.5721,66.1033,54.7814,-3.7535,27.3371,47.3787,133.9103,-2.3328,-57.8332,-20.7433,-58.0515,78.6261,-103.7516,-5.9864,179.1175,61.3964,80.7719
-11.6103,-67.7036,15.0596,248.9446,50.4797,50.0040,36.8492,102.3229,125.6208,109.2321,-60.0174,10.2442,-96.8892,140.4212,-188.6225,47.8377,124.8641,84.4910,110.5303
14.8336,66.2001,31.4172,340.8349,91.0110,121.2613,68.4530,128.4186,143.3404,202.9270,43.0022,178.5138,-81.0569,195.1966,-77.6163,46.8459,157.3763,83.5931,135.3916
97.3277,161.0255,108.7396,228.1182,129.5701,106.5559,87.4395,93.1480,143.0824,147.1854,103.3439,233.5168,22.2255,108.1321,48.9384,0.1867,198.4705,71.0376,84.9962
88.5044,80.7896,129.1548,72.0787,109.5784,28.5867,37.5463,20.5678,63.0104,33.3241,79.3922,100.7196,113.7157,24.5702,47.3465,-24.5649,172.1156,79.3622,-10.7039
28.2476,-19.4977,131.2093,76.3974,108.0908,43.3795,6.5318,2.4534,-15.4118,-38.6766,71.0929,-15.6726,134.1320,75.0632,74.7021,-18.4427,145.8239,103.0961,-27.0663
23.1928,1.4509,163.0380,200.9323,176.1611,122.5902,90.9299,51.3477,10.1672,-73.5825,75.5066,38.6366,109.7084,73.7408,171.6895,-0.4944,145.0426,93.8459,17.1712
34.3563,85.6090,129.2080,238.8959,208.9893,87.0993,165.2002,49.7537,61.2808,-60.5904,36.7835,177.3490,67.1189,-64.8088,137.8731,8.9268,101.4207,15.6081,-13.0917
1.0714,117.3428,22.7626,98.9218,147.1363,-43.8559,92.3166,-41.4456,10.7811,11.0365,11.9300,215.1678,37.1669,-126.6423,-3.8536,31.7888,25.2050,-62.6799,-96.6489
-38.2463,52.2574,-3.2792,-86.6149,115.5190,-72.3583,12.0488,-88.8423,-65.0757,92.7066,28.8765,75.8837,69.5694,-33.8545,0.6088,103.7234,-22.4130,-21.8771,-101.5480
-77.8531,-72.2942,63.6710,-126.5452,198.5490,39.6007,94.4265,-12.8228,-12.3333,117.7741,-4.7068,-110.0415,146.0654,34.2130,157.3345,135.5932,-45.7364,81.4041,-34.5059
-156.8529,-140.4495,68.1116,4.5775,261.7179,122.5478,214.1553,70.1909,99.6183,37.6807,-94.3954,-107.0567,166.2352,2.0550,233.5711,28.1959,-40.0715,51.9923,7.0441
-218.1145,-67.9169,-8.5564,141.6366,172.3526,90.2292,178.0508,41.9216,90.6140,-105.1836,-123.7778,127.2991,88.9476,-18.6197,153.6402,-84.6439,26.5987,-106.6657,6.9409
-193.8841,26.1402,-27.7560,118.9802,35.2040,45.7461,54.5375,-37.5794,2.6710,-163.1418,-86.9561,332.2958,9.0016,16.5907,49.0404,-29.9252,103.4869,-199.5810,-2.9936
-157.7381,-56.6757,54.7152,-46.8172,18.7320,53.1054,12.8703,-56.0991,-0.0604,-91.5623,-94.9810,299.7963,35.4131,9.9731,31.3527,90.6349,111.0487,-196.3979,-10.0573
-189.9451,-259.3405,139.2388,-185.9888,89.9412,38.4861,37.4140,-32.6783,49.6851,-38.1505,-165.1895,168.8757,131.6429,-72.6953,73.8577,83.1785,62.9309,-230.4880,-4.2799
-238.8107,-329.8294,136.1152,-180.9327,106.1463,-4.0244,18.4232,-45.0590,28.0127,-94.7495,-220.7476,155.9701,140.9408,-101.2828,74.4774,-33.4160,20.1496,-307.7072,13.5006
-251.5724,-226.6440,61.1973,-79.4146,52.1603,24.7591,-27.3758,-69.7835,-22.3390,-156.6151,-230.6427,230.8412,11.9976,-6.2745,10.7322,-103.9231,23.2648,-322.2159,36.0791
-255.7990,-142.5554,3.3380,6.5766,32.6210,93.7242,-2.8526,-44.1315,-16.1856,-108.4812,-201.4585,258.2112,-80.6662,63.1981,-44.3713,-58.1073,76.3767,-246.8466,65.9409
-252.0275,-159.8971,15.2291,0.0839,99.4176,69.6181,88.3712,0.2306,3.0296,-0.1129,-137.4749,202.1821,14.4388,-14.7882,-68.0690,25.9693,105.9077,-129.5460,79.5712
-216.1665,-194.6211,58.3906,-117.3723,185.9323,-9.7257,145.7422,9.8351,-8.7343,19.3662,-91.2389,92.4825,158.6918,-122.1011,-71.6015,39.7168,38.2686,-28.8347,58.5027
-195.5670,-187.1336,78.4240,-225.2626,206.3453,2.5856,132.4391,10.2879,-13.7162,-72.7398,-120.8882,13.0717,138.8058,-106.4902,-8.5383,-1.4322,-46.5009,10.2100,52.7562
-232.7593,-124.0990,72.3920,-137.7827,176.7639,92.6667,116.2607,22.2089,7.9004,-112.5985,-166.3743,58.3046,17.0868,-13.0347,96.1380,-23.6568,-17.8085,2.1115,83.6110
-257.2979,-28.7838,58.8472,72.5702,174.5000,135.5368,136.5873,2.4456,40.5482,-40.8389,-119.8045,156.2990,-10.7348,12.7893,120.9765,-51.5622,78.6692,-10.0885,73.4088
-196.5414,-2.0417,42.6861,104.1907,186.6352,91.1114,135.3373,-61.4918,60.7147,-26.1433,-12.9851,147.7937,52.7256,-71.3427,70.8988,-108.8032,91.2617,-26.2316,-8.5451
-106.8866,-74.7847,10.1612,-83.7485,125.4764,1.5191,62.5301,-110.6570,28.0375,-105.9856,28.1014,54.6378,73.0439,-163.4934,45.5522,-115.6740,-7.9145,-51.3208,-79.5183
-78.4383,-117.2057,-51.6692,-215.5139,-1.2766,-66.7897,-28.3805,-93.8235,-22.6258,-97.2326,-19.8883,-4.5509,10.2041,-153.1601,42.0559,-51.9276,-111.7074,-72.0642,-72.5566
-104.9598,-72.0804,-107.1644,-183.3849,-92.6794,-62.9765,-54.9820,-32.3960,30.9351,-6.6639,-82.9869,-26.7241,-95.5579,-66.9050,35.6915,3.3080,-133.0288,-100.7775,-4.3985
-137.9667,-40.1112,-105.3221,-133.9136,-122.8786,-36.9943,-39.4457,-7.7132,171.5216,-13.7803,-119.5470,-27.9569,-197.7520,-19.4317,20.7245,21.9614,-93.6856,-130.5824,36.4526
-160.2567,-44.2956,-78.8637,-132.4088,-149.7293,-73.4351,-74.0670,-59.6509,216.5560,-60.6993,-111.5835,7.9473,-232.6270,-40.7242,-87.3081,0.4502,-74.6620,-108.4133,-48.3484
-144.0404,-17.2482,-89.4194,-134.2845,-174.5133,-121.9946,-146.4877,-108.8747,123.5162,3.7453,-39.3047,11.0513,-172.0180,-58.9313,-248.1674,-65.9035,-100.6688,-38.8524,-196.8011
-72.6818,14.6424,-108.3160,-134.1053,-149.4768,-102.8654,-147.7071,-80.0874,40.5866,81.3374,37.8908,-53.4086,-85.0406,-37.6902,-233.2030,-81.8005,-131.8997,5.9594,-221.9017
-29.7871,14.5834,-102.3769,-112.3853,-109.0323,-87.9411,-94.4302,-34.0373,27.7500,59.5989,17.0247,-66.0473,-65.2389,-6.3929,-75.3686,2.3631,-159.5673,-0.0152,-123.2653
-92.4155,36.0525,-124.7988,-40.1230,-135.0817,-124.1329,-117.0387,-29.7718,11.0071,37.6835,-78.6912,10.0299,-120.8697,34.3558,-54.7356,41.6099,-188.5956,-19.0962,-70.7731
-162.6554,69.3809,-181.0994,19.6844,-193.3625,-102.2877,-182.7148,-10.1522,-36.1372,76.0439,-116.3765,46.0097,-163.1004,98.4938,-122.3237,-29.4017,-172.6982,3.0928,-79.4312
-116.2454,40.5329,-186.5587,1.1029,-177.5124,-35.9652,-141.2420,29.4735,-83.0397,99.5630,-51.0883,6.3784,-111.1223,123.4174,-56.7466,-63.9270,-113.0893,90.6356,-64.6035
-26.9794,-8.0599,-143.8630,-61.9305,-119.6621,-95.6663,-46.8162,-0.6542,-107.9572,83.7538,24.7633,-28.0541,-16.3393,68.1179,-4.7344,-11.4462,-111.4451,160.2001,-64.1272
-20.7903,5.8209,-145.3358,-115.7950,-144.5935,-213.9274,-62.1514,-65.7106,-75.8905,53.0236,18.5763,-46.9392,-6.2164,44.0386,-132.8434,22.8665,-193.7484,102.0146,-96.2094
-67.3222,42.3193,-188.9650,-138.6760,-225.1053,-174.2610,-131.9917,-46.7427,4.8568,14.7529,-66.2650,-67.0362,-91.8881,122.2768,-226.7944,21.1710,-245.7885,-14.0524,-89.2571
-113.6823,36.6268,-208.9296,-125.1005,-241.2798,-93.3853,-133.3283,1.9798,24.3971,15.7068,-157.8388,-68.0319,-161.4670,163.0167,-176.2267,33.3815,-207.6763,-30.9237,-83.6304
-196.7824,-4.3517,-219.0689,-104.0449,-221.7785,-198.5106,-136.4487,-43.7064,-70.7280,77.0868,-187.7500,-82.8280,-151.4805,92.9754,-163.0386,58.1785,-150.8934,27.4698,-146.2781
-277.0337,-61.9366,-240.4218,-97.0572,-242.2985,-327.7891,-183.8659,-124.1281,-156.4911,107.7772,-134.3166,-146.0445,-89.3762,64.1697,-164.1306,75.9932,-136.0861,39.0081,-181.6378
-236.1241,-104.4445,-221.7188,-77.6274,-234.3944,-271.6995,-150.7687,-132.8755,-120.7085,45.3412,-29.8922,-187.1040,-26.1732,112.8482,-41.2512,35.7975,-149.7949,17.7211,-140.2592
-119.2311,-78.7880,-167.9427,-41.7251,-165.0962,-207.5599,-56.2974,-120.1322,-47.0882,-46.3396,48.7181,-140.9994,-14.0833,84.8779,24.9879,-86.2622,-161.8917,38.0466,-136.5140
-92.6177,-1.8104,-168.9949,-10.6363,-160.1508,-297.2904,-81.6065,-152.4144,-67.8380,-107.9944,45.4774,-57.8634,-51.9326,6.1738,-107.1441,-158.3212,-147.8364,79.4096,-191.2402
-157.3500,37.9392,-221.5046,32.3908,-244.0242,-388.6432,-190.0067,-189.1504,-157.0473,-146.6134,17.6371,-37.9118,-55.1579,34.5697,-183.5684,-89.4633,-103.2537,86.9084,-209.4584
-173.5221,-15.9768,-223.4529,77.6339,-272.3864,-383.4657,-191.3641,-193.6749,-203.9775,-138.1999,71.5470,-135.8749,11.0823,112.9798,-70.3076,-11.5639,-72.1261,61.6164,-195.1750
-110.5427,-133.9020,-169.7716,68.2283,-221.4151,-363.3327,-123.3049,-174.4115,-191.6698,-42.2766,183.8027,-274.2136,61.1292,107.6256,-22.7458,-0.9168,-92.9177,42.9486,-190.7659
-51.5554,-190.4148,-149.1869,25.4943,-211.5974,-348.9261,-141.3935,-139.9483,-182.5063,58.7851,237.2169,-277.5414,38.6426,59.3642,-131.4331,20.3646,-122.0742,50.5980,-171.6550
-38.0091,-77.6535,-168.7539,21.1391,-251.8814,-322.8516,-199.7210,-127.2671,-191.5843,10.0481,222.0085,-130.2079,-3.3621,25.3737,-147.1203,1.3780,-88.6804,50.8234,-147.9848
-55.7676,79.7247,-163.6543,38.5409,-242.7067,-304.2401,-172.6949,-159.6728,-170.6901,-158.4233,215.3321,-43.7928,-17.1957,-18.1390,-10.5774,-121.2809,-5.3567,22.9185,-139.2070
-78.2177,41.2632,-126.3638,29.5944,-164.9530,-275.8172,-83.3512,-170.7136,-87.2058,-221.5111,225.0047,-124.7345,-20.1716,-55.8251,37.0932,-162.7930,49.2192,20.7765,-81.9126
-67.3403,-145.8420,-93.1892,4.7513,-91.1086,-247.8052,-12.4685,-118.3484,28.0266,-105.9716,225.6894,-228.3098,-27.1599,-71.6063,-65.3415,-23.0367,34.3967,58.5298,34.7745
-25.6967,-202.5645,-75.6584,-24.3193,-74.4194,-259.8390,26.4393,-74.5736,98.4020,2.4782,234.9344,-229.8936,-9.3183,-90.9147,-101.9310,82.6800,-21.0576,51.2261,109.5544
-17.4217,-86.5254,-71.3588,-50.6394,-86.7227,-249.7516,50.3758,-79.4426,83.5397,-8.9435,245.9636,-166.4875,56.9881,-102.1848,14.7410,31.3916,-59.0648,-14.1676,112.3719
-56.8266,0.9308,-70.2513,-42.3820,-59.3398,-167.2648,73.7161,-69.9712,43.2530,-40.4606,226.9041,-102.7761,117.3577,-104.2041,125.0096,-48.1915,-38.0876,-40.5534,114.4279
-74.7523,2.1304,-53.9961,-17.3761,3.8134,-70.8672,103.3991,-12.4428,50.5163,-19.1553,193.3217,-71.3809,91.4165,-112.3128,116.8357,-84.6815,15.9447,-13.0359,132.5335
-55.9218,0.0837,-40.1597,-31.5025,31.4387,20.2946,127.5336,51.8092,74.6641,15.3558,160.3869,-86.9128,20.7115,-75.5901,58.9713,-86.8868,25.4604,-6.9927,130.9585
-62.2424,-23.2698,-61.5501,-55.6196,17.8810,69.8522,139.8434,81.7299,60.8361,41.0840,115.8550,-110.4192,10.7238,-27.1733,50.4444,-14.4103,-20.2599,-30.7090,120.0550
-93.8957,-102.9496,-89.5588,-17.2854,6.1659,-11.1065,139.2207,71.6759,45.2660,53.2494,79.9496,-86.8546,25.7879,-84.8690,103.5947,88.1233,-49.2350,-49.1191,122.9607
-106.6009,-159.0226,-84.5890,60.7346,-25.7798,-76.4758,96.0208,58.4695,59.4855,27.8734,45.7192,-34.2639,-27.1203,-120.0387,136.2800,100.3950,-50.3024,-66.5230,106.0323
-131.2335,-144.7203,-79.3039,93.1986,-91.8555,65.8090,2.3391,76.0078,50.3522,-3.9669,-41.7653,-17.6581,-82.2208,33.7873,60.5695,47.0212,-77.1937,-80.1628,32.6695
-178.8843,-117.9181,-94.1685,58.4457,-113.8405,176.9555,-71.1974,81.2131,12.2896,26.3211,-116.0599,-50.1981,-47.0776,122.6762,-45.4001,35.2871,-107.5388,-75.1893,-48.9664
-154.8259,-110.4374,-80.6227,13.2595,-62.4301,27.0716,-70.4737,35.4022,3.4617,94.4131,-56.7379,-76.8623,0.9205,-46.2283,-9.0413,57.2840,-98.9402,-76.0207,-74.0660
-62.8505,-113.8787,-47.6945,-1.4030,-35.8340,-94.5271,-56.0887,0.6488,-27.6764,81.4021,25.7179,-67.6278,-26.1104,-139.2897,109.4989,51.0905,-111.2298,-100.3507,-90.9035
-58.6749,-129.8195,-67.9327,-13.6277,-85.9653,-1.4028,-105.7286,6.9216,-159.1572,-52.6019,-47.8694,-66.3082,-73.9161,4.3117,84.5386,28.2298,-161.8799,-118.2730,-161.5933
-143.0206,-120.1107,-105.8179,-38.8463,-124.9728,40.6852,-183.9187,-12.3693,-265.7918,-163.5879,-169.5426,-84.1927,-79.6772,60.5042,-46.8436,37.5683,-139.0461,-115.1745,-201.8919
-142.9565,-62.5609,-69.9638,-28.8874,-93.9296,-13.1289,-211.2661,-43.4332,-200.1888,-118.5254,-173.2932,-56.7660,-64.0004,-9.6110,-68.1452,66.6986,-36.4961,-118.7404,-140.1421
-62.5962,-46.2872,-6.8294,12.8043,-67.2597,62.2954,-194.0811,-7.3146,-75.9152,-27.7381,-153.5025,3.8802,-63.7596,62.0755,-17.5646,31.4665,7.5228,-134.4375,-72.8010
-36.8635,-103.1161,10.5460,5.2178,-89.3614,155.7434,-171.9792,36.2422,-36.1767,-38.4478,-178.0295,5.6756,-85.3207,154.8162,-50.3671,-80.1055,0.5606,-117.7134,-48.4387
-13.9411,-96.6336,52.5717,-50.7778,-72.2801,62.5752,-119.0748,-4.6349,9.0025,-43.3161,-116.8185,-20.3154,-95.0671,42.6759,-84.7884,-132.7464,68.4439,-45.5675,18.4758
84.8792,11.1696,151.9767,-69.9729,20.5909,-39.1909,-25.1635,-43.8866,117.4065,64.1149,-8.5904,25.1074,-64.8151,-62.4011,-18.1768,-63.2790,157.9398,28.2553,105.2408
127.3514,56.5880,188.1903,-39.2891,86.2904,37.4060,40.7809,19.5609,151.8356,126.1740,-52.0201,90.1549,-34.0353,43.8775,38.7537,-0.1800,139.9523,46.6415,121.7972
61.7874,-8.8772,138.2560,-10.0391,97.8092,151.7623,67.5599,106.2464,96.7048,52.9568,-161.3810,87.4411,-22.5963,174.7205,22.5993,-1.7686,79.1916,31.9817,134.6928
70.3671,-34.7164,142.6029,-12.9596,155.1919,122.8343,133.1659,106.2968,116.5152,4.5864,-116.1519,79.2560,23.6914,132.9970,16.3438,26.1362,87.2625,31.6484,193.5302
189.1155,37.2923,222.7182,-49.8912,247.4386,-31.6710,222.1947,39.3798,207.8532,39.6231,-18.0630,122.2880,75.6678,-15.5969,17.4853,63.6537,118.9417,51.9746,183.8359
230.7453,119.2016,252.1482,-64.0575,264.1107,-117.2430,234.5902,-10.2372,202.1151,50.8830,-50.3322,158.5121,49.0379,-75.4799,-8.6615,12.1321,115.5569,78.5842,94.7926
168.7722,169.2975,208.0929,-1.8225,229.6224,29.5029,187.5492,3.0154,93.3231,28.0475,-98.3200,173.7714,32.6472,55.3490,24.3783,-46.9733,106.8805,77.6645,59.2319
147.4382,206.4523,172.7731,55.7161,236.6688,234.4442,171.4264,40.5051,35.8790,-1.7395,-47.4887,218.0386,125.0465,219.2130,116.0261,-2.5817,99.7427,28.7393,73.5329
176.4071,232.4914,163.7111,36.5728,268.6681,188.8017,177.5303,24.4574,92.8099,-49.7545,-20.8455,268.4953,171.5801,187.7370,100.6990,59.1644,74.5068,3.6206,53.4800
178.8342,231.1100,152.1236,33.9880,291.7769,-10.0660,170.7223,-35.6936,177.6492,-32.9114,-56.6990,263.3833,76.4944,24.0970,-21.9557,45.3922,58.4355,57.2546,33.9642
174.4660,177.9208,138.6466,74.9224,321.0258,-16.6357,185.1050,-45.3472,184.1792,66.2255,-33.2813,210.8150,42.3347,-37.6992,-43.2285,-2.8180,84.2011,95.5134,53.4015
192.6216,108.8004,134.1591,47.6987,329.5883,189.1368,222.8276,22.7519,118.1401,77.7806,20.7296,172.7721,143.9573,52.3808,67.6514,-55.8880,152.7342,65.5451,71.7703
200.5114,126.8544,149.5887,-1.8312,297.2781,337.9873,224.9206,88.0681,69.6053,6.4880,-10.0912,187.9184,169.4691,166.5502,105.0836,-91.2124,233.2013,70.6179,73.0044
189.1170,197.9139,176.1666,47.1549,264.5270,278.9007,165.7181,73.6558,29.5741,45.0008,-61.5825,211.6805,87.7148,175.2586,-3.0993,-36.6816,243.0219,122.8931,50.3330
179.0489,165.0507,171.1934,97.1972,226.9042,129.9607,67.0300,7.8975,-83.8827,105.6418,-31.1081,170.1523,89.8757,88.8449,-88.3313,54.4226,153.5823,132.3738,8.1875
185.9633,89.1009,154.1521,69.7225,172.0046,123.5447,-9.4006,11.5411,-187.8167,-14.5823,24.2611,105.4124,155.4565,94.9820,-32.2082,22.0796,105.3657,157.3539,31.0089
223.2990,165.6635,203.1365,92.3655,171.6848,258.7132,11.7104,118.6673,-138.0701,-149.1286,18.5081,115.9420,121.4959,248.2506,67.6711,-91.0453,201.6067,246.3977,125.8737
239.0025,296.1266,260.0915,158.7248,218.7724,274.8741,84.3656,176.6920,-24.8108,-67.3795,-53.5540,157.8915,25.7497,304.5565,64.5624,-88.0505,284.5395,238.9184,135.7502
149.8336,261.1483,179.6918,121.1496,185.5881,140.6853,70.2288,95.4916,-3.7497,103.9555,-150.6753,140.8071,-17.6159,178.1774,-33.5418,26.5980,178.9874,91.9598,16.5523
39.1010,158.7968,26.3399,52.4276,77.9995,92.2391,-19.3101,15.4917,-13.6252,171.6590,-179.2436,122.3671,-25.0278,108.5723,-85.9750,89.7134,-5.0164,4.9765,-90.3313
86.5316,168.6741,1.0432,81.4861,16.8373,115.0610,-59.7995,26.3146,20.7436,122.6169,-86.2553,156.9173,-21.5889,160.8464,-19.3946,82.7023,-63.3499,28.4774,-134.7823
238.1526,202.6668,90.5955,102.4670,-4.5279,42.3539,-64.8490,23.0635,12.5474,-7.2719,1.6867,152.5543,11.2500,166.5540,63.5751,93.6067,-5.1940,27.3863,-157.9890
260.9874,150.9698,116.7850,26.8846,-34.6674,-34.9597,-102.2502,-25.4338,-62.4119,-102.9661,-52.1911,77.0138,29.1090,114.3655,40.2746,117.2450,21.2456,-13.5670,-123.9075
135.2711,82.7510,43.8865,-52.1822,-29.4640,-24.1647,-114.8881,-33.3141,-112.8811,-15.0615,-154.6829,45.2108,-12.3406,69.2627,-39.0584,101.7015,-42.9402,-44.6618,-43.7560
64.9493,57.6813,-23.2365,-74.5774,1.0326,-10.7490,-74.6744,-8.0285,-122.3097,146.0645,-138.7293,93.8049,-49.7758,21.9279,-47.8138,55.9583,-119.9103,-75.5637,-22.4755
131.9739,73.8509,-24.0165,-58.7694,-6.8920,23.5924,-60.7828,8.8806,-112.1936,147.8183,-28.8237,117.8044,-12.8924,35.8533,-1.7097,16.3722,-105.7746,-77.5521,-46.4778
211.5057,131.2789,12.4616,-38.4547,-15.5540,69.1271,-73.8805,35.0221,-66.8434,50.6990,25.7371,62.3411,47.4099,92.2350,-7.4637,15.2229,-11.3478,-50.7135,-27.7516
182.7745,163.1892,10.9576,-70.3014,4.2859,-26.6154,-59.8213,39.1574,-33.0718,47.7123,-41.8906,-0.7525,28.5359,15.6568,-62.6905,65.9526,44.6428,-72.3815,-0.2501
64.2551,100.7821,-57.0627,-104.9104,-10.2206,-120.5165,-54.6398,8.1401,-61.9786,80.3704,-159.7997,2.0417,-64.2788,-90.7509,-79.0667,107.2399,22.6672,-98.6651,-5.6417
-21.0870,9.4203,-105.2355,-32.3671,-38.1650,33.6111,-70.2997,28.1006,-82.1571,7.1848,-201.8495,29.3591,-123.1329,27.1666,-36.7633,64.9150,-3.7404,-46.9601,4.0892
16.5058,-16.7853,-66.5225,29.0556,-5.4679,154.3104,-46.0302,68.8324,-41.1177,-81.9816,-132.6815,-5.7376,-111.8012,165.3681,7.2198,-2.3836,-35.3598,-20.9182,2.7355
112.2679,35.2885,-14.0859,-75.5325,29.7800,-44.7764,-17.8212,1.8504,-4.2594,-26.3668,-57.3508,-64.1739,-96.2449,36.4026,5.2449,13.8104,-123.4250,-77.1600,-78.5869
129.8741,126.5796,-12.6486,-163.7630,4.3443,-194.9381,-54.2258,-90.1408,-0.1563,99.7594,-76.1577,-33.4362,-85.8124,-93.9052,-31.9518,66.7315,-178.6167,-84.0139,-156.5115
52.1358,149.0167,-20.5714,-59.7981,-17.4813,-9.2103,-87.3439,-51.9289,8.8123,90.2362,-163.6392,45.8556,-45.6249,40.6217,-46.3682,47.5488,-102.4309,-47.9426,-127.7419
-17.9185,37.5459,-20.0242,40.4639,-11.3489,162.4579,-68.0076,21.9371,12.8574,-39.5877,-229.4333,43.5590,-31.6625,175.4099,-23.1221,7.9210,-8.1312,-95.5424,-79.5248
0.8873,-51.3693,-29.2534,-31.5914,-29.5225,62.9087,-82.1520,-8.5073,-9.5931,-69.6782,-200.3352,-12.7204,-77.8859,90.8545,-29.7791,44.6194,-31.5079,-155.8964,-127.5349
102.9348,17.3122,-12.4446,-148.5347,-51.8874,-94.5949,-151.8401,-88.9312,-47.5695,16.0229,-73.0997,-23.4159,-84.7662,-36.6003,-86.5138,84.3658,-107.5232,-136.9555,-215.5085
193.1944,79.9749,33.8830,-185.6105,-40.9937,-128.1325,-187.4153,-144.6800,-106.2131,-15.6832,20.8085,-20.5868,-30.7601,-55.4207,-115.4065,29.4404,-124.5066,-125.7732,-232.8820
150.8841,5.6813,47.4173,-128.8397,-23.5544,-75.3140,-162.2479,-160.6622,-165.5182,-200.0466,-67.7464,-42.1806,-41.2380,-3.9258,-89.7264,-44.0401,-64.1334,-127.1075,-169.4326
3.0333,-32.5520,47.0730,1.1956,9.4915,-10.5809,-108.8611,-110.8856,-156.7676,-287.3842,-249.9971,-14.6350,-109.1383,52.1559,-49.8422,-41.6293,53.0262,-56.2762,-84.7958
-57.9584,64.4371,88.4846,75.2417,78.5718,9.8050,-42.9627,-48.5759,-76.6066,-167.4075,-271.3879,60.9183,-83.7155,56.8908,17.2021,-12.8219,131.8160,4.3848,-40.8552
52.7318,113.6708,107.2823,-1.2151,110.2041,4.1607,-7.7793,-58.0162,3.2078,-3.2000,-91.7293,58.3956,23.2400,27.3376,94.5740,-17.3671,39.7690,-23.9307,-61.9000
182.8406,21.3382,51.1838,-94.4649,63.2706,19.2870,-24.4879,-74.0284,49.8960,49.8733,49.1779,-32.7827,67.8581,40.9436,68.6896,-22.6873,-146.2557,-42.4987,-95.5241
180.2353,-55.0127,13.9232,-87.4104,21.1589,-2.0634,-22.3326,-25.6774,69.6604,-5.1815,-12.8601,-59.1725,41.0426,64.4242,-50.1220,2.6271,-183.0932,-18.4780,-63.4266
73.1244,-3.0900,41.9920,-49.7396,19.6861,-59.0997,24.0786,10.2609,67.4485,-57.8597,-171.2796,36.3790,8.3993,35.5526,-80.4808,41.7777,-33.9822,-18.3034,21.6524
-33.3198,74.9449,39.0672,-27.4541,-10.9612,-10.1940,35.5295,7.5171,73.5878,4.8253,-250.1477,96.2846,-53.6490,25.8032,26.6454,63.5130,93.9887,-7.7828,72.2078
-76.6265,34.1583,-27.4695,-22.3180,-77.4028,122.6839,-1.4979,41.5391,103.8931,142.3878,-212.6369,-14.3473,-132.4172,70.1454,120.7854,42.4166,72.0430,36.7848,63.5576
-52.6305,-89.6934,-63.7389,-77.3174,-95.2460,158.3594,-6.7678,94.3650,115.0768,188.6231,-120.6539,-172.5419,-103.4900,85.2317,111.9385,12.7956,-33.1048,35.6501,52.8280
-13.4669,-117.2101,-20.5393,-116.1799,-30.8840,98.5643,37.8382,104.4029,85.5470,113.0383,-37.8597,-163.3597,42.0620,67.8255,52.8883,51.3775,-88.5349,-3.2405,69.0525
-23.6897,-8.8933,48.1741,-9.9844,54.9537,67.6342,75.4963,99.0231,53.1849,55.6129,-24.1961,-11.5137,117.9558,77.7649,20.4863,120.3414,-15.4457,8.0656,93.7752
-86.3492,69.1870,77.9257,147.1853,95.0068,105.1615,79.2871,113.0335,43.4175,81.0810,-98.0818,79.2023,38.9478,101.3086,41.6035,88.7427,141.9286,76.1377,134.5041
-137.9635,30.0983,68.8324,205.8247,106.0446,217.9974,79.6263,154.0659,45.8754,131.9083,-164.4885,47.5355,-27.9025,127.8533,63.6947,-21.1623,264.1056,179.9732,207.3154
-108.7490,-41.0139,79.7160,207.0811,154.5800,314.6996,115.6431,216.1403,31.0667,170.3825,-103.2660,-11.0223,44.5362,152.2481,36.7197,-48.5675,283.9903,289.6760,260.7401
1.3285,-79.0644,129.2762,195.8338,213.8351,227.4121,162.9077,217.0224,-28.7236,172.2420,55.0043,-31.5933,135.1693,114.7723,32.0208,26.3488,204.8140,304.7906,224.0562
93.4048,-60.8700,149.6405,152.5123,183.5373,72.9300,151.3763,122.1343,-83.8549,106.1533,156.1615,15.8602,113.5885,57.6085,95.4413,80.7169,92.0933,215.1745,131.9735
73.0484,37.6581,114.4754,148.1847,92.8307,103.2832,100.6341,63.5708,-37.1628,33.8048,116.5346,124.5942,44.7596,88.3863,103.2040,76.2635,91.0912,173.9707,99.3059
-20.4300,134.7551,102.6092,195.5605,78.4609,160.5628,102.5030,87.1929,71.2511,40.8573,1.5653,176.1341,24.4549,105.2229,17.8039,52.6654,249.9003,244.4676,150.9779
-62.8414,127.0926,154.7897,166.0833,147.3559,12.5001,144.7655,63.9627,91.6496,51.1969,-66.1641,98.0060,46.0995,-5.1109,15.1444,6.3452,376.7047,311.0668,179.2684
-1.4513,78.5527,208.5267,81.0473,194.0157,-78.4018,156.2517,5.2538,26.7683,-41.1539,-27.6430,23.3773,87.2262,-51.9717,128.7139,-52.4916,309.2222,272.8023,112.0404
93.1909,67.9258,211.3967,82.0007,202.5105,78.9130,168.8417,20.7208,22.3986,-135.1927,70.7953,69.0194,128.3097,72.5604,160.4079,-62.2918,146.0706,132.0556,18.0450
112.0856,40.8456,173.9066,109.6562,210.9073,110.9928,216.1315,7.1735,95.9690,-117.4950,141.2536,148.9651,126.1075,106.4367,73.5731,-18.0736,34.0080,-17.4651,-13.2949
34.4477,-1.6759,128.4524,48.2614,183.9324,-159.2201,222.1531,-133.1900,129.8139,-105.2104,135.7703,160.4827,83.9905,-57.2943,30.6213,16.6594,7.5854,-40.0207,6.1183
-46.4573,18.0874,101.7879,-17.5187,93.7074,-311.9793,159.4385,-215.8045,101.6270,-168.6310,61.7125,106.9736,33.7395,-152.1935,42.4089,15.5185,79.3366,59.5409,26.4717
-59.7459,48.4758,77.1287,-11.4455,1.2896,-138.8727,111.2439,-109.0304,98.9165,-134.7509,-17.6534,5.2841,-41.9260,-70.1053,-5.7706,-0.9225,177.8202,103.7830,50.9179
-40.4650,5.5341,-2.5891,-9.8809,-42.4863,37.9357,104.4840,25.6807,140.0059,26.9835,-12.8742,-100.6863,-127.7065,14.5491,-83.8742,-18.1102,113.4333,-1.0074,88.2481
-23.8309,-41.6975,-135.7573,-51.0040,-63.4559,13.7411,90.7331,36.4225,154.1453,90.4341,70.6988,-114.9056,-140.6919,21.1144,-90.2019,-13.1406,-136.1900,-160.1601,91.9599
1.2387,-20.0114,-229.9952,-97.7426,-88.6146,-82.1434,73.2755,-33.9259,119.8540,39.3250,116.5324,-23.5767,-73.9238,-23.9651,-45.1289,36.1576,-324.4989,-246.5529,36.5316
9.7960,20.2673,-205.6738,-128.5033,-94.0452,-127.6050,87.5623,-82.8624,89.1733,59.7603,83.5352,72.2604,-5.8890,-100.1297,-17.2913,69.1017,-263.1062,-203.8946,-9.3105
-13.7838,23.1059,-80.4297,-105.0214,-60.6146,-85.9068,114.9991,-51.6662,78.0141,83.4481,48.0131,81.6990,21.4642,-105.4509,-6.3896,-8.8117,-31.8973,-82.6238,11.1245
-4.7553,-15.2233,37.7243,-22.4802,-26.6446,22.9615,109.8998,21.2187,56.0240,-14.0679,22.8731,-13.3455,-5.8980,-4.9185,-0.8692,-123.5880,152.6147,-10.8054,46.5234
45.9311,-71.6308,37.7460,27.2310,-36.2002,89.4764,70.9876,46.7124,47.0420,-34.9452,-32.1764,-131.6507,-83.8958,46.9047,-20.8119,-77.0664,138.0443,-25.6237,59.5454
40.7575,-90.4877,-62.4722,5.7396,-61.9083,99.8279,46.8231,52.8402,92.4409,135.8962,-56.6492,-123.1214,-132.9065,19.7794,-46.5579,102.2547,-31.9561,-53.2736,100.6428
-31.5056,-55.3835,-122.4532,-26.8370,-47.6499,155.4769,55.4947,104.9841,121.0439,242.4405,0.1710,23.5906,-82.7169,50.5789,-29.2150,147.4855,-164.5263,-86.4368,145.4386
-76.8495,-37.2050,-66.8777,-63.3017,-7.0762,173.0109,34.0998,104.1700,32.0017,144.9774,42.3289,108.8194,23.0182,79.8798,-11.1114,8.2774,-149.1930,-142.4355,78.5956
-82.1703,-70.9003,39.5189,-99.4327,5.0868,21.7869,-55.9207,-16.2465,-119.5947,-3.8765,14.3974,12.3398,93.0529,-5.7853,-74.9622,-77.5013,-43.8736,-135.3235,-62.1602
-85.1459,-91.4123,120.8439,-49.2024,-11.3185,-100.4070,-144.4944,-86.7656,-191.3117,-117.1093,5.6905,-126.7864,66.3326,-37.0744,-150.8516,-37.9498,60.6497,-43.8513,-100.9648
-58.1788,-47.3571,147.4869,57.4372,-25.9422,6.6315,-172.9879,-4.4787,-152.0672,-155.0545,37.3377,-135.4944,-36.7399,93.6144,-107.7394,-22.6578,101.5071,-2.0923,-26.4767
-5.4869,26.0866,88.9684,53.9451,-52.9359,130.5646,-178.8212,72.6590,-84.9085,-22.3967,24.4627,-24.5061,-80.5814,154.0920,-14.2756,-33.5069,42.3368,-62.4634,7.0097
8.0871,53.5099,-35.6525,-46.5063,-115.3723,57.4277,-195.3559,34.5467,-67.7595,160.1476,-15.0887,76.2722,19.3245,30.8208,-10.7772,24.2744,-63.3267,-126.4026,-47.0989
-4.7779,-1.9108,-114.7304,-68.4784,-177.0794,-55.5287,-212.2486,-24.5523,-116.4001,151.0822,6.2405,73.5240,157.0363,-61.9306,-41.1072,73.4532,-123.4378,-129.3644,-98.1547
-7.0307,-92.6130,-83.7911,-20.4151,-180.1738,-28.1904,-223.6486,-19.3377,-174.4106,20.8495,53.1900,-8.0860,232.0002,-8.3142,-20.8562,25.3161,-144.1151,-81.8890,-87.1276
-54.6325,-144.3656,-31.6343,-45.2987,-127.3164,76.9887,-205.9054,27.7834,-167.0806,-8.1598,39.7614,-73.3282,261.7002,67.1040,-26.2739,-42.0700,-178.2404,-24.8664,-36.6481
-142.8178,-135.7878,-58.9352,-114.7657,-82.1708,112.6271,-144.9561,61.3422,-108.0512,44.3055,3.4603,-81.1906,220.8460,64.3828,-71.2584,-58.5607,-202.4643,-21.5164,-4.7816
-118.3211,-68.6722,-121.3927,-96.5046,-86.1098,23.2807,-99.3320,54.8859,-78.1960,51.6350,44.5298,-58.2875,100.4997,6.2809,-47.6543,-39.2395,-166.5694,-52.5426,-19.1268
77.0525,48.4822,-121.3634,12.1805,-98.2511,-32.6465,-89.4906,61.1089,-92.5521,0.2206,173.3730,-29.9767,38.5948,-9.0414,5.2632,-5.0326,-85.4260,-9.6499,-36.7433
290.8904,153.2386,-72.3649,119.9877,-54.4408,130.9432,-36.0439,129.6700,-92.9349,-59.0350,314.0615,-43.3820,94.6439,74.0848,-32.8395,-9.8513,-24.0619,99.9608,-22.4116
380.1382,186.3428,-52.8702,163.0708,26.3206,301.6130,65.7157,173.8458,-49.1858,-42.7867,403.0063,-148.2512,160.1177,111.6961,-83.5945,-61.1216,-33.5103,151.1884,0.9250
349.7642,158.8319,-66.2374,130.7330,67.5633,176.7688,121.1811,121.0744,14.8187,68.9216,421.1518,-268.4384,196.7406,-18.0436,-14.1164,-33.1182,-92.6655,119.6803,37.8645
265.2808,83.1128,-71.9968,82.8840,53.2505,19.0575,118.2262,79.2628,51.6448,125.0894,366.2747,-270.6891,198.3250,-107.1607,105.9377,78.1774,-123.0859,75.2065,95.7309
183.5587,-17.8961,-77.9396,85.7988,29.1859,158.1267,94.0940,116.8703,21.0763,43.2813,267.9400,-179.9615,87.5048,10.8298,130.5120,80.6032,-82.0755,43.0639,93.9224
150.7009,-33.2657,-80.7012,102.6037,27.0536,275.1165,37.0053,122.8054,-46.2562,-23.1565,202.4411,-114.2620,-37.5649,89.7008,43.1676,-20.2311,7.0440,30.1365,14.0778
176.1520,84.7859,-33.3371,82.7590,64.3392,89.4151,5.0135,60.5647,-50.5643,1.8350,211.0167,-78.9747,20.0774,-31.6794,-47.5832,-19.6663,88.2253,42.5868,-5.5912
207.8972,181.3717,26.2153,75.1470,128.7594,-55.0206,77.8885,32.2237,32.9973,-15.2333,242.9613,-31.6825,134.3783,-105.3149,-30.8567,48.8388,82.4223,35.1025,70.0226
166.9336,123.5406,-13.6297,86.2715,130.1181,17.6500,133.8489,30.1341,90.7339,-104.1516,234.4554,-11.5790,73.8037,-30.9484,58.8330,29.0108,-33.6536,-21.4816,83.5088
44.5462,-2.0463,-131.8368,23.4029,16.0508,-6.8001,30.8652,-38.1978,34.4314,-136.4907,175.5673,-47.5902,-48.9070,-43.9437,80.2402,8.2383,-139.5923,-76.5329,-12.5634
-52.6148,-60.6882,-185.0601,-79.6162,-97.9304,-161.6647,-99.2157,-130.5900,-68.6627,-91.0228,96.8848,-89.3165,-64.1399,-171.7649,23.4308,64.2458,-113.2132,-71.1317,-79.7652
-34.8181,-39.2898,-135.0469,-64.3248,-92.1656,-159.7758,-98.0291,-141.4292,-106.6205,-62.9948,62.7912,-99.3066,-54.0041,-189.8022,-7.4742,37.1489,-14.6793,3.1893,-52.2255
36.5282,10.9938,-66.4625,49.8785,-24.0919,-28.6285,-57.1267,-81.2046,-69.3382,-75.6768,111.1216,-85.5677,-69.2273,-82.2223,-23.8597,-102.4443,18.1588,86.9849,3.2137
55.0211,30.0490,-32.0896,88.9906,13.5132,12.1324,-61.5855,-35.2080,-12.4779,-64.1450,161.3789,-51.4153,-56.3705,-17.2452,-60.7915,-149.4454,-40.8105,82.4558,33.0879
21.2584,-27.3536,-30.3202,38.3219,35.1691,-30.9079,-19.8509,-38.7677,41.7438,2.1375,116.9814,-4.6623,-65.7558,-34.7290,-22.7354,-54.6062,-107.1808,12.4090,40.6550
-20.0176,-117.5534,-39.8715,18.2946,62.2916,-46.2974,82.0085,-44.4782,90.4770,61.8623,37.5945,18.4789,-101.8571,-62.7330,90.4123,37.4584,-84.4537,36.1400,50.6477
-70.8189,-140.8097,-22.8890,26.5519,70.2963,-26.3768,120.1012,-6.5833,103.1708,56.7669,35.3129,-13.2558,-52.6891,-72.5149,108.1814,66.8501,21.6876,161.9521,53.0210
-122.5914,-91.1030,13.5944,-19.9221,56.3187,-43.6673,64.1871,17.4399,67.9178,28.2507,72.4258,-76.8497,23.9621,-90.5582,12.8569,56.9674,77.2935,194.0096,-17.6837
-132.1666,-62.7438,23.8483,-81.5340,32.1284,-115.4439,-9.8665,-35.2369,31.4848,17.4852,51.5912,-96.6498,-15.4213,-112.6102,-36.4211,12.5609,23.1909,86.9361,-150.9167
-99.2238,-98.1153,35.0825,-59.2617,14.9308,-107.8952,-58.9839,-81.7587,25.2553,-21.3813,7.6032,-43.7787,-87.1722,-60.4772,-4.3280,-38.6372,-14.2611,18.0173,-208.9439
-74.8561,-142.3307,88.2514,3.3804,44.4078,20.4826,-67.1875,-42.1910,16.2345,-92.9777,25.0114,-5.9696,-71.0107,51.3536,42.4226,-57.6293,25.7858,55.3822,-145.0009
-89.0065,-151.2536,106.8797,-26.4139,102.6006,33.0700,-36.5379,-8.7859,-9.2652,-123.7851,67.8525,-50.0832,-39.5785,30.1291,97.3097,-41.6367,27.5802,94.3966,-86.8770
-123.0616,-142.7097,41.5558,-123.9718,120.3992,-132.2059,-9.3337,-51.8901,-3.5491,-96.0022,58.8837,-94.2031,-33.2880,-139.2333,123.4394,-8.8155,-30.7425,92.0367,-102.1198
-144.0831,-141.5083,1.4424,-126.4164,119.3303,-163.3225,11.3630,-81.3664,43.4556,-36.6038,29.1004,-59.7434,6.3365,-186.6288,62.7694,-2.6998,-37.8211,85.6912,-115.0647
-142.9338,-153.0322,33.3701,-38.7285,139.4022,-5.8618,62.0463,-57.9289,68.9459,34.7348,42.0066,-5.1724,21.9372,-94.8900,-0.3751,-46.5387,-18.4320,66.4738,-90.4323
-131.1126,-165.5288,18.0299,-38.0634,103.6259,20.8887,98.8353,-57.7358,51.0885,53.4069,71.5880,16.0681,-45.7074,-132.6670,26.2808,-71.3861,-73.4309,15.8091,-71.2947
-109.9745,-135.4894,-69.3933,-129.4287,-3.2901,-92.7826,61.6591,-77.7445,45.7380,2.7476,74.5003,27.6965,-66.2002,-235.5015,50.6728,-33.4807,-136.5057,-34.0655,-64.3809
-83.9171,-53.5238,-113.4426,-156.5214,-57.0712,-86.4181,13.2442,-59.4006,70.6501,-16.1975,64.3385,11.1540,17.5570,-171.5513,1.8161,-15.8208,-117.7281,-60.0484,-55.7308
-87.3434,-17.8769,-110.9343,-124.5809,-60.5219,-16.0313,18.9045,-38.8773,75.6095,-5.5406,35.4387,-54.6884,11.4695,-103.7899,-1.7635,-62.6600,-94.1494,-81.0828,-66.1851
-131.7582,-89.7557,-143.8034,-117.0494,-129.9236,-44.1905,15.7880,-55.1488,53.1335,-91.6228,-33.0795,-79.8752,-169.6403,-183.6168,92.2018,-102.0591,-123.1229,-110.4225,-94.7863
-160.0327,-146.2611,-182.2468,-68.1304,-211.0620,-43.9171,-44.1435,-58.5113,37.8765,-215.4679,-68.8616,-6.6368,-305.9176,-188.2152,131.0187,-107.9562,-123.6901,-130.1223,-94.6394
-124.8826,-79.7315,-173.9077,24.8076,-195.4791,57.0632,-94.1935,-24.5995,-0.3702,-174.2877,0.2592,52.3513,-240.6347,-89.5470,45.5323,-104.0675,-65.8904,-112.4225,-44.9034
-68.7632,0.9061,-147.5103,7.9373,-147.6216,55.4810,-85.4973,15.0387,-91.4970,41.1330,67.5913,-9.2598,-94.2564,-108.9384,-18.9534,-52.7831,-17.6342,-49.1607,28.9973
-64.3868,-21.8119,-99.5448,-71.4009,-123.9648,-128.4211,-52.8270,57.2152,-134.0308,249.3447,-9.3258,-115.6004,0.1849,-121.8643,15.9987,47.3042,11.9198,34.1037,107.1439
-110.1468,-72.5357,-14.7586,13.5928,-64.9212,-283.6359,-20.3776,97.8862,-33.6578,294.8763,-159.3492,-125.6349,36.2651,82.1865,47.6456,101.8431,58.2201,92.5173,179.3491
-141.1914,-63.6164,24.4793,207.5181,13.0932,-235.3589,26.9708,98.0431,95.6414,158.7819,-221.9527,-28.6929,7.8497,283.1421,27.9652,79.3006,90.7741,97.8063,209.3010
-138.6651,-46.2236,-21.4564,236.6191,37.7056,-75.7894,80.3528,58.9136,88.7101,-10.5708,-199.6751,48.7574,-48.9300,256.9844,15.9248,34.3974,72.0317,73.8173,166.4748
-145.7450,-66.5634,-42.6570,86.1395,39.7972,-13.0275,99.7292,33.2930,-9.6507,-72.4361,-170.7919,19.3059,-7.0964,150.9994,-0.2197,-17.8705,45.1072,86.0079,94.2562
-140.3629,-61.8394,30.5539,-11.4657,62.9114,-62.7703,72.1491,45.7959,-58.1034,-90.5930,-108.6153,-33.0856,122.3793,110.6265,-48.0407,-68.4051,70.8208,147.4043,66.5669
-31.6055,39.9119,122.7865,38.3883,69.2132,-57.9315,31.7241,57.8999,-61.4817,-132.5798,11.2895,22.2024,155.9229,82.4384,-47.3774,-66.0116,136.8782,160.9937,72.7110
153.4276,215.3106,155.8321,106.1706,35.0224,10.6497,6.0079,9.4834,-91.0367,-107.2732,89.2643,157.5759,65.0514,25.9505,21.6192,-19.7049,181.1931,58.5757,42.8288
279.9028,366.9705,138.6019,77.4188,-1.9915,7.9617,-16.7773,-81.9066,-113.9868,-23.6168,64.0340,247.4164,14.2998,-12.2221,49.1796,2.0776,185.1888,-51.2168,-23.1933
336.5948,431.6603,129.6348,19.3506,7.9610,-15.8950,-39.3747,-107.4979,-90.5681,-17.6775,42.5175,258.7745,55.5381,12.8702,21.8685,-11.5871,190.4939,-33.9177,-68.9649
400.4627,425.4586,162.8992,45.2451,69.0451,30.3869,-36.0802,-49.6907,-78.1835,-66.8369,122.4858,233.5508,114.6905,54.4575,12.2273,-33.6024,198.7129,43.7375,-86.5009
419.6956,365.9408,179.9004,99.4987,111.7290,22.5374,-9.4828,-36.6580,-90.9791,-87.0101,229.6207,190.0871,178.8353,20.5201,-13.4386,-63.2848,141.5853,27.8153,-98.9288
322.7191,259.4094,109.6400,64.3192,91.5104,-59.6402,8.9295,-97.9803,-49.5360,-116.0546,249.7631,160.6830,223.4558,-44.6271,-57.6489,-85.5414,13.1538,-84.7480,-108.2963
208.8806,171.6713,8.9030,-15.3602,58.8778,-21.2667,10.9184,-117.1063,26.9836,-124.9799,194.2798,186.6871,151.4354,-55.0115,-0.7687,-66.4938,-85.0160,-199.1512,-128.7631
179.4670,152.1629,-31.9983,-51.4651,23.5234,86.9754,-10.9122,-90.7922,16.6827,-43.2148,147.2346,212.9396,-8.1500,-112.7360,113.2532,-16.1299,-91.9799,-273.1348,-172.2921
178.3822,141.5072,-39.0634,-91.1410,-65.1820,31.9009,-79.2448,-121.0846,-63.4283,-2.2890,149.0928,147.2534,-79.9766,-275.8505,91.3284,13.7881,-57.8860,-292.1107,-199.8443
142.6847,98.6395,-59.3775,-172.3178,-150.0573,-104.5912,-160.6305,-189.3407,-78.5790,-110.7358,169.3879,34.6102,-23.6839,-351.4084,-33.5422,-18.8817,-51.6279,-259.0598,-190.2286
86.6236,72.2122,-78.3962,-221.4032,-150.9795,-111.0626,-186.1967,-216.0227,-32.9777,-214.7805,146.8430,9.5690,2.6093,-270.6712,-86.3683,-95.7278,-96.1326,-238.9729,-181.4973
26.9321,64.9392,-100.2965,-195.0327,-131.4838,-41.2134,-172.3704,-195.9966,-28.6503,-207.0791,85.6373,88.7873,-85.9871,-229.3470,-77.1760,-128.4232,-149.3885,-256.4201,-170.5820
-1.8697,28.0204,-124.8912,-132.8602,-135.9355,-8.2803,-177.7668,-136.4308,-40.2575,-172.1576,69.5735,147.8712,-184.8250,-283.5384,-71.3759,-73.8124,-125.5520,-235.4090,-115.9934
26.8431,-18.2710,-108.9607,-95.6643,-111.7666,-1.0574,-178.5261,-67.5179,-1.2523,-117.6896,94.6797,103.1595,-201.0117,-312.8441,-42.1781,-21.0234,-33.5132,-159.8465,-61.4922
36.7927,-27.2395,-83.5861,-123.6945,-95.8307,-20.1415,-142.1105,-67.7225,20.2200,2.2881,59.1969,23.3170,-160.9905,-307.5540,-29.6874,-46.9003,-3.8474,-111.5948,-72.6973
-25.3032,-3.1346,-117.7836,-153.8781,-129.0464,-44.1050,-107.7146,-106.9570,-27.9970,83.2584,14.0679,19.4641,-82.4045,-283.5025,-53.8912,-87.2596,-59.7299,-101.9436,-87.5580
-64.2785,24.5636,-154.6945,-79.3313,-108.3806,-5.1544,-75.8164,-72.6876,-42.9131,20.4595,96.1948,71.3043,14.8841,-195.3005,27.2372,-71.9753,-81.0198,-91.7103,-30.0656
-39.6158,1.1443,-144.4665,20.7053,-47.2602,48.9250,-18.6417,-4.1922,31.1773,-107.1230,185.8784,61.2723,-7.4403,-131.0054,189.9525,-41.4817,-73.8200,-121.5170,14.9507
-56.1296,-98.7477,-184.0999,-24.9662,-119.8558,19.4035,-18.9218,-15.8849,85.3159,-148.6681,95.6467,-31.7309,-182.9178,-216.5102,152.9873,-41.0792,-140.3940,-198.3324,-47.7040
-107.2276,-169.6182,-276.8182,-155.6327,-257.3835,-76.6645,-114.1827,-71.6009,70.0388,-48.0981,-17.5835,-112.3393,-244.1546,-348.2182,-81.4170,-42.9865,-201.9535,-212.5287,-114.3881
-67.4901,-114.5713,-264.7168,-188.3059,-222.3649,-161.4054,-122.5143,-79.8787,87.5992,86.0763,46.8446,-124.4587,-54.9800,-348.8850,-140.6302,-17.3226,-148.2817,-147.1079,-47.9484
10.4320,-23.4454,-163.4738,-132.0055,-79.0034,-151.6257,43.0711,-43.5905,160.2781,81.2304,133.6914,-81.1768,89.7914,-224.2302,80.5200,10.6482,-106.6903,-132.0776,70.4306
-21.9733,-0.1892,-156.7978,-90.0439,-51.1784,-20.6507,154.4432,-0.9600,165.5435,-47.3755,104.4390,-4.6453,18.5262,-89.6474,265.9766,-10.0706,-180.6952,-182.1690,78.4138
-80.8840,14.8292,-224.2890,-59.7644,-105.2686,78.7020,71.5097,10.0267,72.5017,-112.0781,121.0906,48.6642,0.2952,-43.9663,221.2775,-81.6995,-210.4499,-164.2569,-10.6711
13.1731,88.0385,-194.4189,-26.8036,-103.1768,4.5908,-30.0611,-44.0383,2.9724,-79.8991,237.0424,28.9024,156.6571,-111.6918,92.7898,-130.9911,-95.0403,-74.2913,-90.7326
184.9675,172.3286,-79.2154,-33.0295,-64.7856,-114.2492,-36.7968,-123.1181,21.4274,-96.3549,268.3207,7.5294,233.4291,-173.3833,60.3089,-110.1092,10.6717,-53.3204,-139.8561
227.9821,208.8008,-6.7789,-64.0174,-25.1166,-112.4869,-36.7247,-150.4228,60.7274,-174.2965,186.3344,77.7653,147.9604,-103.0584,121.3903,-68.6581,1.2645,-114.3803,-155.3095
138.8734,183.2756,12.3476,-40.3458,52.3854,-49.6488,-37.5876,-118.8960,52.1923,-173.8691,129.9402,168.3645,85.7279,8.8142,159.7184,-50.1109,-28.5622,-126.0461,-110.0512
62.6702,113.1673,32.7469,45.8626,138.7870,-30.9848,11.1247,-77.3512,-6.9699,-78.2006,114.0497,147.1005,93.0204,0.3743,106.7061,-30.7682,10.3923,-53.0813,-57.5765
56.4323,54.9743,75.5899,89.3879,163.8258,-57.5601,37.7680,-69.0621,-73.9585,-40.4080,89.8796,38.7408,108.6791,-80.8318,28.1373,-22.6694,103.3886,31.3579,-70.5174
106.1804,61.3838,151.2456,33.6014,143.3311,-85.1361,1.2145,-90.3683,-88.1207,-136.2168,91.3831,-20.0787,144.4921,-73.5729,18.4859,-72.4939,194.3121,113.6538,-97.9796
208.1193,129.1685,228.1234,-3.2973,135.6040,-56.5746,-26.4830,-80.5919,-44.6335,-210.6449,128.2506,25.3891,150.2631,38.2786,49.2257,-126.3586,221.9023,188.6771,-68.0902
282.8519,199.6894,230.9843,75.6301,143.9037,1.1983,-37.3275,-32.6046,-13.9857,-91.5111,132.6706,99.5645,72.7465,122.2768,34.7765,-80.8368,170.9069,161.9697,-12.6933
207.1943,195.9291,152.7505,144.4704,132.4748,-29.2575,-59.3283,-35.6640,-27.4874,87.0124,75.4476,112.7649,35.2166,85.7401,-14.9065,24.0124,98.4288,30.6503,23.0417
48.4545,135.5156,66.9384,92.7771,93.2610,-102.8115,-48.0088,-86.9995,-46.9181,38.5565,20.5627,67.8821,97.1476,1.5331,-29.3064,41.9744,67.3516,-20.5782,34.3430
34.3991,142.0006,34.9640,39.3562,65.7622,-53.2283,-12.5686,-64.7617,-68.0998,-171.6827,43.2771,17.3702,101.9364,-3.6672,7.7417,-45.5352,93.6683,96.9043,18.5666
195.9128,205.6026,75.3257,56.0363,86.0563,42.9437,-15.1698,22.8605,-104.9359,-178.3790,112.0066,-28.7797,6.5546,27.6736,55.8092,-100.0249,125.0362,231.6335,10.0791
304.0135,159.8453,140.8690,29.3930,134.2052,0.6139,-5.0760,51.0722,-101.8197,69.6568,118.4851,-63.0816,-32.2770,-24.1902,70.0234,-47.6724,66.3060,260.4208,52.3856
240.7096,37.9547,134.7339,-31.2061,167.2382,-67.7330,78.3554,37.5067,-12.3733,232.5313,58.5733,-40.7233,23.6424,-74.0837,46.7258,33.0859,-52.5316,234.5726,111.2743
152.5365,60.5680,63.4575,17.9133,178.1725,27.0629,164.8561,77.3517,100.7410,163.8430,33.4226,17.2291,65.7639,16.8177,41.0796,67.3092,-41.7610,214.5898,150.3165
162.6122,193.5268,52.1505,124.3981,178.1462,149.7826,194.5051,118.4804,148.1066,54.4451,56.2573,20.0440,58.7870,112.2933,77.8762,57.3655,127.3263,201.3062,179.5405
197.4205,193.9769,117.9738,124.7491,159.3581,91.0806,182.4904,75.2140,118.3198,-2.7523,62.6918,-26.6841,33.6866,34.8244,88.4624,14.7144,209.8493,199.9857,158.1632
170.3795,52.3964,147.5744,58.0735,123.1264,-41.3908,140.0242,25.0768,64.0217,-69.2038,56.4224,-26.0486,-0.3626,-68.0092,50.1921,-15.0038,93.6370,196.5468,78.4889
111.0613,-51.5712,115.8658,61.3673,100.7446,-2.4553,121.1072,86.8195,41.8745,-58.4373,57.3237,32.6114,-24.7011,11.2730,43.2985,38.4508,-22.6721,151.2897,73.2447
58.2816,-61.9922,74.3412,127.4645,94.7535,202.9630,172.0488,215.2628,58.5866,120.4032,41.3513,72.7816,-10.3636,161.4552,48.8331,106.7050,4.7661,69.7386,169.2023
5.5289,-9.8547,11.3402,169.1251,49.9563,331.0031,184.2406,258.9713,71.9903,274.4466,30.1518,69.2680,29.8982,150.3426,-31.1346,60.5866,89.7155,-0.7752,175.9149
-24.1365,88.3058,-61.8058,160.0838,-53.0030,242.2267,71.1889,176.8385,57.0853,218.0941,71.9509,70.0100,36.4552,-26.1668,-89.8427,-14.4894,135.6423,-27.4958,34.1630
3.8351,152.8810,-71.1372,123.7109,-145.3173,77.1742,-52.0156,83.1121,20.0691,89.1267,147.8524,113.4692,-23.9928,-175.0463,28.6783,27.9938,114.3683,-21.4196,-85.8005
45.0297,90.1495,-37.6604,77.2392,-183.0834,39.6211,-107.4345,66.0471,-32.2159,49.6732,212.3827,149.1713,-69.2568,-158.2742,148.2584,81.5995,13.5253,-34.5745,-109.7286
18.7175,-65.4525,-41.5114,38.4744,-200.0391,132.1841,-156.8527,93.9215,-68.2481,41.2700,228.5099,70.4027,-5.2855,-40.2037,53.8019,29.0371,-83.3604,-71.0785,-100.5366
-76.4003,-177.4248,-54.0509,65.4557,-191.4567,212.1222,-169.5824,128.9040,-48.7300,22.4062,161.8269,-89.2167,68.1541,14.7947,-63.4772,5.8817,-38.7396,-51.9006,-64.9134
-163.6415,-136.0204,-25.2826,181.8383,-119.7209,207.0786,-88.3013,162.1939,-9.7134,42.7391,52.9139,-108.3565,-3.9699,-46.1902,-0.2396,76.1478,119.3642,6.7087,-22.0984
-183.4714,20.6295,1.0313,246.7783,-53.8901,149.1638,-36.3574,131.4653,-15.7230,66.4594,-15.3347,105.9495,-133.0014,-157.4445,42.2466,85.2107,206.6004,-46.7061,-53.5058
-160.6026,94.0409,0.5366,110.4576,-85.3199,66.2771,-94.8878,2.8623,-38.9470,50.2853,-58.7040,338.1233,-136.3668,-267.4789,-73.8225,14.4926,119.0488,-215.5593,-123.6400
-186.0494,-50.2577,-3.2207,-109.4267,-150.6476,-18.1644,-126.7121,-107.5283,-16.1585,22.2598,-128.5232,371.5844,-53.4084,-328.8650,-118.1613,-22.4851,-68.8676,-315.8309,-108.9920
-303.8651,-293.9702,-41.1173,-196.0073,-158.3687,-30.5565,-61.6498,-89.2130,24.2985,-70.4797,-192.0410,250.1673,-29.1125,-284.3663,-6.6219,-77.0165,-198.9357,-305.9631,-24.9781
-428.2926,-431.9764,-119.4527,-170.9528,-154.3800,46.2295,-15.8484,-20.4920,11.6618,-259.8218,-224.9068,123.7343,-76.6373,-192.7051,35.0739,-190.9438,-171.7532,-304.7746,12.9183
