Fp1,Fp2,F3,F4,C3,C4,P3,P4,O1,O2,F7,F8,T7,T8,P7,P8,Fz,Cz,Pz
-57.0429,-16.3792,44.0004,-11.6899,39.6361,-62.0904,14.7981,-57.5262,-7.6473,-32.7208,2.7851,-38.7863,16.9623,-14.2019,19.9082,-0.7113,1.7085,-36.9121,-5.6883
120.9591,126.5578,225.3433,139.6273,146.1708,28.6015,85.2499,28.5820,134.0658,92.7526,179.1841,137.1438,182.5813,140.6693,167.3620,112.2753,255.2281,88.2340,185.6040
205.0525,189.0918,293.7501,195.8074,192.5314,122.5822,199.3769,141.9254,203.2488,233.6637,201.8064,217.0562,168.9419,202.9534,171.9891,149.7664,320.4872,193.5426,337.1687
269.5762,170.5120,230.5801,135.7776,199.3162,209.4590,294.2001,237.8953,207.0317,294.8740,140.9408,162.5068,94.3582,166.9273,119.5744,141.8216,236.6936,225.5881,419.0761
337.7583,163.6977,207.1549,96.0123,240.1935,282.5196,310.2350,290.0781,225.6483,282.6776,152.2176,120.5875,130.5550,155.9124,129.5053,137.3421,231.9468,196.7385,461.4452
303.8379,187.2156,249.6533,135.2604,255.2728,271.1401,262.1601,273.6638,243.3916,259.1516,209.2113,173.3613,155.4864,176.9314,118.0825,120.6163,293.9324,136.2548,413.7135
268.4283,231.5081,277.4368,199.9316,181.7191,162.6279,205.7906,186.0982,205.3733,208.2973,250.1626,250.5553,73.3327,154.9619,35.9201,102.0133,304.5156,56.9505,268.3330
370.0429,294.0446,308.5813,245.5344,89.8304,37.8154,127.5130,55.4218,112.2444,82.3903,294.6180,268.6053,12.2864,84.6530,-32.2555,71.9969,294.5852,-27.5849,134.0255
476.5201,330.7092,351.4507,260.4619,52.4802,-60.2729,-10.8814,-72.7921,5.8343,-68.2581,326.3181,223.9480,26.9542,-2.7656,-57.9316,-21.5520,296.7976,-77.4955,64.5582
474.0537,312.4503,314.1723,230.3806,60.9746,-132.2064,-126.4815,-144.8254,-50.4139,-143.5936,298.1456,159.3962,45.1423,-88.7560,-53.3353,-120.5897,252.3333,-64.4968,17.5959
425.6917,275.3923,188.0243,151.2901,98.1511,-156.1973,-96.6708,-146.5273,-18.2097,-121.8473,242.3042,118.4513,72.5283,-135.4185,7.7026,-118.8340,162.4319,-11.9658,-10.6024
329.2731,255.8083,102.0433,57.8194,154.7651,-142.3757,21.6267,-127.7940,43.3332,-64.0481,225.8650,127.6855,130.4975,-120.5352,83.0963,-66.6588,91.2142,50.3149,-3.5455
212.8770,251.6588,113.1564,-9.5170,202.0973,-141.9451,58.3649,-127.9419,40.4491,-37.4415,239.8586,158.6802,163.7278,-84.9357,91.0799,-54.6597,43.8043,109.4894,-4.4454
232.7638,234.9995,125.9070,-64.7410,208.8173,-151.9875,-0.0605,-132.6728,-15.4097,-58.8683,218.9776,135.3948,156.7274,-65.5650,56.8535,-48.4807,-3.6458,136.6273,-32.3068
333.1089,180.3176,71.6508,-134.2561,162.2325,-126.0935,-21.0977,-125.0992,-33.7541,-99.0212,152.5950,52.0781,142.0229,-42.0173,38.9695,-26.8252,-30.4100,131.8737,-32.7880
299.3441,125.8251,20.0132,-169.6644,97.5971,-60.5122,25.9418,-97.1860,2.4034,-129.7045,103.6876,1.4299,108.4095,-4.2683,26.0901,-39.4319,-10.8084,151.8062,10.2459
198.1671,134.4577,42.2287,-117.0148,81.9979,14.1986,49.2332,-36.0778,18.9501,-125.3584,99.3077,14.7654,50.9635,11.0124,7.6609,-68.7529,39.3778,198.4713,46.0856
199.6243,165.5090,88.4340,-25.9405,108.2316,80.0613,20.0261,32.7372,-15.0451,-60.4276,97.7721,23.2666,9.9045,3.2850,-8.0455,-65.7991,86.5881,203.8374,60.1996
220.1394,140.7953,93.4772,36.8187,99.5824,130.9040,-13.1932,60.5583,-43.5570,18.2788,83.4622,18.8956,-2.9272,26.2266,-33.7061,-46.6770,108.6379,159.2441,79.7001
184.1313,106.7635,73.4630,83.5398,48.3328,156.3296,-33.3297,57.2769,-32.1683,23.7938,70.8943,55.3938,-13.5693,75.5840,-55.3133,-21.3989,99.4445,94.7051,94.8747
179.9846,130.7220,37.3111,120.0171,-11.0748,137.4790,-41.9712,63.1084,-13.9955,-13.7960,40.9150,99.3536,-38.4217,82.9843,-48.6812,8.4547,74.1652,-13.3170,81.3267
184.8514,148.5593,-29.1756,121.2781,-105.1898,74.4705,-33.8095,70.1716,-10.6097,-4.0920,-6.0489,87.2838,-81.6781,48.7953,-60.5920,-11.8947,66.1300,-149.9341,58.6342
138.9435,113.1514,-58.8087,131.0282,-201.7729,15.6755,-34.5609,58.6685,-7.1405,20.3422,-19.7955,66.8270,-128.0596,32.1477,-131.8757,-84.3600,94.1974,-216.3909,50.2126
148.0085,108.8820,15.9139,198.8499,-160.2625,5.1188,-49.3523,41.8295,-1.0313,-1.0431,7.0172,105.4896,-138.3262,20.6104,-195.3556,-119.0330,134.1272,-188.4793,37.2013
212.3049,167.8228,113.5347,252.4642,14.6738,16.2229,-34.1898,25.3845,-0.7114,-15.8144,41.8567,159.8921,-94.3187,-31.3579,-172.3245,-95.2166,142.5729,-141.8513,-1.5183
152.6866,195.9248,119.2749,206.5609,131.3633,-0.6151,-14.6671,-1.4937,-8.8070,4.1051,81.0885,156.1425,-22.7498,-90.5298,-87.3756,-69.7796,97.1555,-95.2360,-57.4895
-3.2997,145.0694,30.9810,92.4161,125.9229,-44.8172,-58.5833,-31.8468,-31.5456,3.8773,86.8605,89.4340,31.9697,-102.4401,-17.1407,-46.7847,-4.1400,-17.2094,-116.6549
-70.6314,44.9902,-109.9884,-34.4918,108.0795,-78.7994,-104.8318,-48.6483,-54.7521,-9.6733,-8.5052,-5.8619,44.8097,-68.7749,7.9875,-17.6514,-135.2358,58.4741,-160.3183
-80.9773,-83.1907,-240.1251,-148.7493,106.2989,-66.3844,-65.7350,-38.8273,-45.5068,-2.4187,-140.3160,-76.7228,36.9321,-6.4469,16.8869,-12.3860,-214.3282,89.2549,-153.6240
-139.6198,-186.5929,-250.9430,-193.4375,73.1748,-3.9223,-7.2706,1.5069,-16.4931,-9.9129,-168.5809,-66.2443,40.1395,62.2718,34.2287,-14.8275,-174.8960,109.0494,-90.7342
-170.7596,-198.4313,-146.6855,-150.4158,38.2690,63.6882,10.2598,46.2372,-7.1938,-27.6854,-117.6210,-4.7531,35.8638,99.7903,38.6466,14.1864,-72.0576,146.0838,-17.6710
-127.2494,-153.6061,-68.4961,-97.7784,32.3857,106.5096,40.4495,70.2821,-6.3924,1.4065,-110.7393,8.2623,1.1119,114.5827,12.9542,49.6029,1.0535,167.4276,38.6178
-113.9187,-122.7913,-56.5953,-70.2513,16.9617,151.5480,62.9574,94.0676,13.1749,46.3664,-138.9040,-26.9697,-30.6195,140.2655,-10.7979,71.6262,47.9342,160.9983,94.6411
-160.4042,-103.4925,-55.1501,-32.9817,-20.9131,188.9494,17.1908,122.6856,37.9273,52.6000,-133.3867,-25.5323,-41.6794,141.8140,-3.9271,99.5822,80.3859,146.1953,126.9385
-167.5915,-90.0400,-91.2815,-8.4293,-64.5128,150.7155,-17.8345,109.4368,44.9447,48.2302,-120.7807,-0.1947,-66.6534,81.1891,10.7078,100.6241,50.2827,101.1000,79.2863
-94.1302,-94.1345,-151.8381,-11.4513,-122.3980,56.4079,-6.3378,56.2229,14.3259,40.9810,-124.8219,-12.2671,-97.2354,12.7583,-4.7597,39.6522,0.8299,12.3941,-14.6679
-17.0723,-88.5194,-125.2552,24.8097,-173.1328,16.0753,-62.5564,31.6347,-59.1244,3.3303,-104.7279,-19.2502,-85.8785,-19.7901,-50.6524,-22.3454,39.5334,-54.1158,-56.3617
-15.5393,-70.2454,-62.0907,89.4889,-167.4287,47.4047,-156.2531,45.2508,-112.3558,-24.4136,-70.2547,17.6377,-50.7450,-56.9550,-84.0081,-39.4407,107.4297,-58.1783,-39.0627
-53.5902,-57.3785,-99.4966,95.3280,-122.3555,60.3375,-135.7856,40.8405,-90.8431,-14.6149,-56.8408,39.0944,-44.0999,-109.7374,-76.4121,-55.8374,80.9130,-58.9437,-37.1658
-39.7249,-0.8732,-140.8651,71.6915,-97.1244,10.4834,-75.7054,2.4859,-67.9517,-24.3363,-27.5388,39.6996,-65.6483,-123.9932,-69.1566,-75.9494,19.9265,-93.7634,-73.7830
6.5146,94.9957,-69.5357,72.6392,-107.9603,-69.6747,-129.9691,-51.2437,-121.2571,-69.1988,25.0246,81.2018,-93.3285,-85.3141,-103.1242,-51.1230,14.5862,-119.9686,-125.0678
6.8025,106.4477,-26.9466,38.4855,-128.9359,-136.6924,-219.3634,-113.9696,-190.2356,-101.5961,22.1803,128.1259,-115.3050,-40.5843,-131.8703,-10.2283,9.3285,-107.3498,-183.5130
-5.7761,21.6231,-82.6260,-18.2968,-117.5377,-154.5050,-240.9879,-159.9989,-206.4014,-115.5522,-36.8859,113.3346,-109.3642,-30.3397,-108.8253,-12.3752,-9.1822,-53.9649,-230.1057
29.6837,-32.0984,-62.3324,18.5729,-55.0669,-110.3905,-246.8886,-152.3103,-190.7113,-118.5884,-46.9434,84.2502,-69.0384,-42.0752,-71.5093,-30.3410,41.2324,37.5444,-228.9351
69.7356,-28.2122,70.8517,121.0110,1.2148,-33.6299,-241.8006,-98.3505,-155.7796,-91.9715,20.7127,102.1807,-22.5970,-14.7391,-47.7958,-21.7978,138.2999,104.2654,-181.7024
60.6721,-5.7998,151.9286,170.7572,-17.0520,35.0033,-193.0034,-32.1276,-106.6723,-46.7533,82.7816,146.4376,5.4178,67.8118,-17.4628,-0.5590,192.0587,72.5048,-118.9897
15.6968,62.1383,136.7480,177.2630,-85.8815,77.2626,-174.2053,28.3803,-86.3505,-2.0923,73.3610,191.3842,3.8057,124.3250,1.0046,29.0240,195.5355,-2.6680,-56.3126
-22.9752,140.8275,90.8304,183.5637,-139.4482,102.7908,-191.7706,77.2875,-74.7974,54.0067,4.0939,221.7339,-25.5306,114.7373,-14.1357,72.6184,164.3236,-6.0233,3.5461
-16.7419,136.6827,34.8289,175.5003,-154.6561,125.7211,-129.2882,112.3805,-4.6083,108.1430,-49.0428,206.5172,-39.9984,107.5568,-9.2766,91.3337,107.4830,59.5652,56.9456
8.5862,91.4285,18.0736,180.4444,-132.4957,119.3810,-10.9299,122.4850,77.5555,127.7230,-10.0320,166.5815,0.2753,116.7629,46.0561,64.2207,84.5359,93.0597,86.4670
6.7303,101.7186,85.4282,208.4068,-95.2250,49.1526,21.1223,86.9047,80.9223,118.1894,85.4253,163.0199,53.9159,82.6778,82.9400,37.7956,120.2693,27.6245,63.4110
48.9235,140.7832,154.4437,189.5676,-92.2393,-31.4538,-36.0691,27.7198,37.3973,83.6520,116.1836,184.2281,47.0301,41.4655,47.0012,43.0396,157.5859,-102.4915,7.1833
170.0971,140.9921,143.0101,132.8242,-120.6274,-31.7971,-98.4151,7.1507,10.6624,17.6410,53.4147,172.3193,-14.1354,62.5635,-20.7094,58.2783,162.7363,-168.5102,-7.9787
196.3619,91.3636,84.0707,113.9137,-113.2329,32.3989,-139.0644,33.0567,-7.4611,-28.8191,-6.3167,136.3872,-47.1592,96.0354,-47.8255,68.4406,132.1232,-79.4838,36.8216
52.0062,13.4704,15.0254,97.5142,-55.2151,79.7017,-128.0953,59.1560,-10.7403,3.7285,0.4281,123.3699,-2.1846,95.9773,-6.1135,72.8878,54.0545,81.5892,77.0502
-70.3694,-42.9050,-54.7067,32.3680,-1.8888,98.0320,-47.6332,77.4051,22.7696,74.5779,38.8569,125.3926,75.7556,112.6643,68.1521,68.7029,-23.0483,183.9569,81.3594
-67.4035,-49.2947,-88.4821,-21.5790,23.8328,121.7831,29.4310,102.2522,54.8749,92.3114,68.0577,106.4329,114.9273,147.3394,118.0249,73.9446,-27.2932,228.4923,84.5996
-17.5659,-39.1832,-81.3083,-33.0788,38.5761,153.1296,55.1533,114.9604,62.2587,49.9451,82.7950,78.0902,109.3714,149.6961,131.0758,102.5028,11.5026,250.7599,99.1129
63.0418,-14.6512,-73.1955,-27.3522,35.4209,177.6560,79.8085,111.3740,82.7931,33.1106,71.1888,81.9319,89.1138,145.1903,123.7876,124.7460,33.3814,225.1134,94.5066
142.9085,45.6582,-65.0734,30.5979,0.9105,182.6105,112.3003,114.3359,109.7467,77.8251,30.5811,116.2297,59.8461,152.9558,100.5032,118.9177,60.8713,173.1345,52.0610
110.7983,70.5730,-45.8948,128.2082,-53.6760,147.6898,88.0230,102.2417,91.6115,92.3830,9.5089,125.6564,39.2938,110.6884,79.2393,99.6837,108.2782,141.7712,-17.2549
15.5004,13.3481,-47.7208,141.9927,-113.0370,76.0260,0.8395,41.7209,40.2658,12.9438,45.5817,71.4258,58.9175,22.5583,83.1588,62.6224,114.9753,90.4740,-81.5924
-0.8997,-16.3872,-86.0113,61.1546,-153.1644,11.7664,-86.2535,-23.4062,5.0378,-64.6918,93.0910,-6.5315,90.5775,-12.1850,92.5527,1.8163,51.3863,16.7524,-104.2134
36.9807,41.4247,-134.0147,13.7299,-139.3556,-8.4240,-125.8911,-32.4773,-6.4368,-52.3853,92.1447,-25.1503,88.6802,27.7835,91.5671,-31.5539,-22.9113,12.1839,-78.8308
58.7074,76.5636,-159.8091,30.5256,-97.4883,1.1009,-105.4446,-8.1067,-5.1019,-12.0396,59.0146,35.9422,75.5412,66.1149,101.6463,-1.0607,-30.1125,34.1655,-41.6843
79.1500,50.1146,-120.6557,60.5550,-124.7172,-3.5929,-65.1254,-5.8168,-1.3709,-8.3346,45.8078,107.6697,68.2677,61.6874,100.5620,41.1437,51.2753,-66.8030,-41.8030
94.0585,70.6033,-1.4033,112.0443,-250.0771,-41.4037,-91.6842,-31.8824,-25.3196,-23.0849,73.0926,129.3807,26.8751,32.7103,37.3745,40.4136,157.2421,-236.5346,-104.0573
115.8394,148.4767,119.3352,164.4283,-358.0798,-91.2181,-194.2591,-68.1289,-89.7750,-48.9870,129.6019,109.3521,-35.7586,0.1917,-50.5910,13.6148,186.4842,-284.2934,-199.4695
183.3899,156.8427,154.9458,150.2426,-321.3277,-125.3133,-262.8246,-105.1564,-150.0333,-74.7022,178.1212,75.9169,-37.4395,-18.8436,-82.0320,-4.8493,127.3997,-188.9613,-251.5690
214.5415,61.5011,124.6740,110.5203,-141.5435,-121.0720,-232.2165,-118.9666,-146.7882,-61.5343,169.8748,48.0270,37.6804,-3.3437,-49.8604,0.1856,85.3022,-53.9997,-205.3579
142.8295,-23.0184,91.5486,129.6879,75.1206,-57.6128,-154.5235,-80.3938,-73.5890,-37.3333,101.4331,52.6291,116.9804,49.6722,11.7720,35.3459,128.3231,65.7689,-84.8808
96.0941,-4.1530,80.6152,172.8435,216.1183,46.5360,-69.0458,-5.4201,14.5042,-43.1404,33.4672,99.4614,146.1683,111.0897,78.8631,77.1702,197.8978,137.8080,37.3554
138.3929,80.3885,98.6964,180.9985,232.7418,127.4152,25.8998,52.2393,63.5671,-34.4620,19.3638,152.2227,131.5618,147.0080,112.8214,84.6856,225.6611,150.9630,106.1408
147.4084,135.5945,135.1142,180.3391,172.4515,149.9773,84.2794,66.2227,79.2157,-4.8991,46.9785,171.0829,104.5549,153.6773,97.8132,66.3189,233.6082,150.5490,116.8381
114.0178,141.4119,160.2341,204.1801,124.4305,136.8908,72.9892,61.7578,88.7523,-11.5873,78.8995,159.5312,86.6001,146.3748,77.3455,66.6764,268.2886,154.1918,112.1912
152.8651,151.2284,171.2775,258.4543,105.1916,115.6647,43.0038,71.7008,81.8149,-11.7837,107.0147,144.9344,78.8594,132.4851,72.2544,85.3204,324.8119,141.7598,132.7755
234.2643,181.2074,176.2514,333.3190,57.4330,99.6874,14.4617,96.3709,53.8846,51.5383,128.8970,135.0743,75.8634,117.1338,50.2698,85.7978,368.5146,130.3560,161.1674
252.6533,202.7192,155.2312,356.8378,-34.3432,98.2537,-46.1124,116.6336,44.5722,99.4848,121.3308,108.5938,66.9744,99.8098,16.7885,72.5728,364.6191,115.0073,152.7433
206.3658,203.9866,104.5863,263.6792,-126.8776,98.6373,-92.7605,121.5692,62.6730,88.6614,84.1023,51.1143,35.2726,65.6805,20.7723,81.7371,286.4978,43.1744,109.9286
145.4395,170.0351,46.2452,122.6591,-203.9072,75.6627,-70.4117,104.0618,61.9697,82.2014,51.3933,-5.6959,-5.1412,23.1473,56.9895,103.9535,156.5414,-59.8308,69.4102
113.9656,93.5639,-21.3257,50.0693,-267.8127,25.2607,-54.1457,53.0098,34.0064,59.2210,28.2763,-15.2292,-17.7233,3.3350,62.7451,90.5971,56.4995,-102.2697,38.9989
118.6247,32.6869,-86.8330,55.8319,-281.9697,-40.0460,-92.0875,-21.3799,20.3996,-19.2333,-8.3028,8.3188,-14.9451,-8.4608,19.8481,38.4101,37.5361,-60.5053,5.6608
94.8408,25.4571,-106.3664,74.3996,-224.1570,-96.2541,-89.8897,-77.7493,30.8525,-50.7772,-52.3218,-4.8827,-31.2752,-51.8250,-13.9787,-4.9491,50.1382,25.3652,-21.7403
29.6484,8.6052,-96.8090,49.1741,-141.3542,-111.5271,-16.1576,-91.2606,50.0625,9.1638,-95.9087,-87.3920,-42.9665,-107.9748,4.5430,-20.3084,14.3379,100.8038,-22.1873
-3.2222,-59.0533,-122.9464,-47.6621,-79.6697,-90.9975,43.8550,-82.8166,90.4130,37.6519,-154.1395,-196.2923,-21.1224,-136.7485,45.2728,-23.9664,-79.4797,107.3259,9.4572
-25.9091,-137.3752,-181.0584,-195.6456,-32.7607,-71.8093,84.5296,-71.7744,154.5217,-0.8244,-200.5008,-276.8363,7.6918,-140.1110,72.1921,-10.9626,-188.3813,60.6819,59.5624
-110.1160,-215.5993,-239.3823,-330.9663,12.5495,-49.0386,140.4181,-41.9556,200.5994,-1.4392,-183.1969,-313.5540,32.7592,-122.3700,98.2975,28.4898,-284.1623,48.8465,99.9688
-193.7953,-293.3463,-307.6459,-386.2951,57.3236,3.5667,148.6721,13.7571,195.7094,56.9091,-122.3912,-308.5991,73.3789,-86.7465,129.1809,69.8423,-341.8813,81.7092,104.6020
-222.5321,-300.1481,-346.3908,-320.3596,102.2717,49.1736,86.9888,60.4498,150.6189,97.9559,-75.4591,-264.0085,100.0142,-75.6996,132.6879,87.9991,-313.9120,86.1234,76.9596
-244.7735,-204.3862,-277.3651,-173.0636,123.3604,33.7358,44.4872,63.4917,95.1336,90.8445,-51.9591,-207.3468,71.5570,-110.2219,95.2708,77.9924,-198.1423,42.4410,42.7705
-220.5853,-92.0291,-149.2218,-72.4810,89.0059,-21.1651,41.2310,31.5634,58.3567,66.6111,-48.1771,-188.8325,14.7162,-154.3091,39.7813,34.9451,-94.3238,-18.7380,14.0129
-99.0336,-49.1084,-90.1528,-88.8046,20.2042,-63.7490,19.4450,-2.7203,48.0975,61.0496,-62.1879,-222.4617,-26.0739,-195.7273,-3.0377,-20.7450,-97.3442,-83.3783,-19.4940
-15.4177,-77.4542,-109.5856,-147.7318,-38.1259,-101.0036,-13.8282,-31.1430,38.0346,57.7736,-53.3659,-261.9945,-41.6649,-244.3854,-7.4858,-44.2283,-163.8733,-144.8960,-70.4265
-47.1322,-114.3692,-133.5401,-164.5445,-83.7953,-177.9057,-32.4645,-81.8531,14.7494,0.4280,-9.1263,-260.9268,-33.5700,-270.6694,15.0966,-43.6066,-183.6679,-213.5230,-133.1384
-57.2929,-84.4243,-141.4839,-148.0088,-127.4829,-292.1818,-46.8488,-165.1702,7.7892,-86.2114,11.6036,-227.9391,-16.7093,-264.8021,19.0304,-63.9817,-142.7692,-299.8261,-172.8065
-8.1132,-2.4069,-124.8020,-138.2392,-152.6156,-367.2683,-40.6476,-227.7205,24.0023,-106.6187,-6.6786,-202.2944,-22.1442,-263.4747,2.5208,-87.5926,-108.9140,-344.8055,-160.4655
-11.8310,25.9878,-53.0268,-154.6109,-152.2641,-337.5708,-20.6957,-215.8834,17.7848,-64.6233,-10.8720,-203.5980,-51.4987,-256.3496,0.2690,-72.8366,-101.7947,-281.4762,-126.3493
-47.2190,-32.8220,34.1710,-188.2023,-136.2941,-240.5517,-48.2206,-157.6532,-21.2600,-37.5030,3.0252,-225.7795,-73.5216,-209.5367,0.9440,-47.1741,-86.7909,-141.8916,-117.5200
-42.0426,-113.4109,48.3371,-194.3917,-94.4731,-156.4525,-93.2380,-107.4222,-37.5322,-23.0487,-0.2127,-250.0535,-65.4271,-155.4924,-11.9011,-42.0238,-57.8686,8.2229,-111.7382
-62.2000,-172.9529,-8.7551,-151.1225,-20.8778,-93.5547,-63.6257,-62.4543,-8.4680,5.2891,-9.7558,-245.1040,-28.7585,-118.6030,-7.2233,-26.7614,-35.5613,135.4067,-67.8670
-122.8762,-184.5807,-51.1342,-101.3290,52.3055,-27.1878,-6.4294,-13.5904,16.5954,15.9173,-8.3916,-193.1638,8.1471,-64.2234,12.9107,6.8716,-17.9425,194.0861,-25.7277
-113.6876,-123.9238,-39.9853,-82.0840,94.6246,17.3742,-22.4666,5.1973,2.9312,-3.8652,-6.9977,-132.7119,15.7968,-6.0718,14.3477,16.4753,0.9876,170.9787,-36.6403
-42.2295,-56.0283,-14.4648,-88.4169,105.9006,20.7303,-66.0124,-10.3908,-20.2126,-34.4871,-1.8198,-124.5304,12.3216,4.8046,26.7908,4.4671,-0.1675,138.1373,-55.8910
-33.7437,-63.0495,-15.6877,-112.7538,91.2899,22.2609,-56.2956,-10.9608,-8.3026,-66.7022,6.8946,-164.2047,33.3636,-2.8754,75.6123,12.4022,-32.5895,140.3069,-24.6572
-89.8790,-106.3563,-42.3907,-127.8897,66.4227,49.7152,-18.8420,19.8680,43.0899,-61.9566,3.2936,-185.2814,69.8561,13.9917,102.7393,23.1867,-59.0447,145.8775,23.9379
-93.6236,-109.4043,-64.2864,-89.6748,72.1654,81.2268,18.5166,52.6935,90.5060,0.6174,13.6124,-146.7620,99.8546,17.6808,85.8676,-11.5029,-41.3439,149.4961,36.2367
-5.1486,-54.0970,-47.0717,-14.1586,119.6527,98.4000,68.5418,77.4979,90.1384,44.0831,64.1762,-64.9861,121.8815,-9.3672,74.2162,-73.6205,3.6287,164.2705,22.3406
87.4425,47.0396,24.3115,49.9512,152.0667,107.4235,97.3609,97.1978,60.1404,24.6337,107.0585,18.5005,122.6183,-11.3552,64.2544,-105.0059,48.6180,147.4038,16.1289
98.2723,124.0528,127.5489,106.1010,120.4519,114.2529,68.5263,99.9791,53.4364,15.3187,106.8300,63.3404,93.0263,20.3828,24.3566,-93.0004,109.2098,64.9210,34.9105
64.7024,98.1912,207.5939,154.2915,56.4628,114.8610,20.0549,89.2095,70.0275,38.7225,99.0521,59.8978,56.8209,25.1512,-16.1617,-59.3048,181.0395,-44.0644,83.1994
70.9122,28.4942,212.2351,145.3398,18.6614,101.7688,-4.3137,83.7257,69.9123,33.8986,86.9780,38.0872,23.0563,-11.6031,-36.4566,-16.4359,193.3438,-113.8279,134.7778
88.7232,-0.1151,141.4414,79.9668,16.4683,83.6351,-13.2078,84.0438,50.1587,17.8190,39.4007,18.5002,-13.1958,-40.7011,-51.8854,9.7094,114.3215,-90.5219,142.7216
43.8848,-40.6509,61.7508,28.2104,34.5645,88.2954,-27.8664,87.5635,30.3131,41.1347,1.9728,-4.7990,-14.3638,-31.3425,-40.0885,-12.4860,18.4247,24.5715,100.6566
-27.0325,-114.2360,31.4952,12.3024,70.0420,114.2049,-51.3340,97.3913,14.9638,59.7346,32.2761,-23.8690,45.7618,-1.6960,10.1905,-48.4491,-34.4781,130.1379,51.1242
-63.5728,-137.1852,7.9513,-15.1630,102.6483,118.4882,-62.2797,95.0509,22.7578,42.8645,72.7549,-29.2237,112.6139,15.5607,41.8643,-30.9053,-78.9696,136.7115,34.5050
-95.8122,-129.7591,-84.1071,-76.4196,105.9637,97.6415,-30.7941,74.0983,67.3761,52.2155,42.5481,-37.4494,125.2316,19.4413,27.3611,21.6951,-134.8634,109.1331,67.9719
-131.0803,-158.2520,-188.0906,-125.0841,108.8099,110.0107,33.1350,80.0219,110.5247,99.7456,-32.5076,-43.9066,86.0918,44.5035,6.1058,44.8582,-143.3301,155.1394,145.6599
-111.8487,-156.4637,-170.4700,-104.3528,146.4002,171.1859,93.1512,135.7990,134.6108,118.6678,-87.6062,-19.1264,27.2169,96.6464,4.1066,52.1111,-73.3502,229.0050,229.4741
-58.2414,-103.7747,-52.6243,-35.6822,168.3983,214.0878,144.5383,186.0008,185.7657,110.7371,-117.7307,16.3823,-15.8473,120.8804,22.2269,73.9303,9.7294,200.7752,273.0500
-52.2344,-107.2443,-0.3716,-5.6407,119.7999,196.1352,186.3402,185.5330,255.4103,136.2525,-146.8944,14.6635,-22.7689,84.1877,51.7464,65.0182,24.9817,69.0730,273.5700
-81.0236,-162.2710,-73.0714,-41.3562,57.1114,156.0590,203.1781,165.6707,274.1651,179.5868,-177.9702,-15.2724,-18.6824,42.9256,62.8614,18.3305,-32.9607,-42.7536,273.8337
-70.5743,-178.7396,-166.3751,-87.6556,50.7619,130.7601,232.4661,168.0427,267.0366,185.0055,-202.0549,-33.3646,-29.6110,62.7429,49.4704,24.0378,-97.4574,-79.9637,298.8385
-22.3558,-173.1038,-178.8465,-113.6413,61.3918,106.8791,311.5276,188.7747,305.3728,174.5311,-205.7140,-23.0905,-32.9898,115.3135,39.9727,96.7979,-97.5775,-107.2456,315.9843
4.9751,-164.3470,-89.5473,-120.2061,25.0549,77.1153,355.1615,200.1259,338.5579,194.5639,-170.1425,10.4335,-10.6627,120.8311,32.9765,125.8280,-28.3595,-168.1672,283.2784
-15.8197,-128.0746,56.5168,-89.7709,-47.9209,54.1976,276.2031,177.2798,294.1251,208.1045,-105.1747,23.9915,17.3338,59.6818,21.9943,66.0900,38.2545,-228.0979,205.9186
-63.3962,-121.4737,153.9970,-41.9456,-117.2345,27.4284,153.8720,121.1446,222.7939,161.3534,-60.1384,-28.6550,39.9994,-18.1601,37.9718,-3.8081,27.7385,-250.2265,110.1893
-90.3311,-152.3014,127.1670,-34.5310,-147.9179,-11.1099,84.9335,66.4864,166.0456,91.3551,-56.2784,-93.4136,59.4645,-68.0168,74.5952,-29.0872,-55.8444,-215.0420,10.9593
-75.9349,-103.3674,25.2075,-60.0891,-113.8054,-30.9133,29.8509,34.5308,81.3482,60.5126,-51.3016,-77.5125,64.8531,-80.9865,87.2340,-28.9571,-147.8730,-118.8102,-59.4584
-77.7687,-5.8071,-63.2856,-79.8362,-50.0741,-20.7777,-32.9270,9.9914,-6.9602,58.3851,-20.8398,-11.7779,55.1484,-61.6334,85.7177,-22.1759,-212.9037,-22.8206,-64.8700
-159.1963,-31.9665,-125.8176,-112.9100,-29.7627,-6.1704,-33.5899,-0.3126,-20.5760,55.1788,-6.6477,14.4840,43.4708,-15.1658,87.7818,-5.2611,-264.1195,16.2861,-26.1070
-261.4651,-166.9394,-181.1968,-160.1450,-49.7705,23.9394,22.7731,43.1003,20.7299,68.5138,-31.1903,5.3193,32.2478,52.1057,66.8758,28.1803,-292.6274,58.3759,15.3541
-267.5716,-259.5546,-216.9625,-169.0094,-51.9155,92.5270,64.3587,131.0074,63.6014,113.9320,-56.3087,-8.7155,26.7723,118.3586,47.3366,79.3751,-263.3557,148.1517,62.9273
-190.8688,-269.1364,-220.7523,-151.8097,-40.3909,149.4977,98.1205,192.2734,116.9505,162.8822,-63.9495,-53.4571,38.2602,134.3298,83.7986,121.5755,-200.8213,177.3494,113.7026
-147.8209,-223.5522,-205.7318,-173.9864,-56.4488,137.8017,139.4191,180.8036,161.8391,176.6822,-75.1580,-118.0726,55.0156,81.4454,134.3957,110.3062,-181.1831,70.0287,128.1111
-159.3669,-161.4830,-196.7673,-225.8921,-93.7625,84.5506,139.7991,114.4818,153.1800,137.5293,-83.9658,-125.3328,57.9481,33.1106,136.3069,54.5700,-216.8487,-72.3372,106.7332
-149.7277,-147.9790,-200.9694,-248.5439,-129.3897,31.8945,109.6341,37.5104,128.6332,63.7221,-66.6546,-48.3583,49.5550,65.9479,114.8310,29.3451,-239.3590,-151.9899,85.6761
-103.5606,-165.4630,-178.5385,-227.6953,-160.3551,-21.6075,103.7169,-13.9643,129.7787,8.1409,-32.3269,40.8130,33.6056,137.6825,88.9663,74.8246,-207.5859,-192.0934,58.7622
-59.1037,-143.9579,-95.3301,-190.0234,-173.9548,-70.5279,86.4427,-33.1304,106.1415,-0.6991,-1.3550,51.8775,8.1765,157.5801,36.9987,131.6447,-155.6481,-224.9731,17.6893
-17.3870,-117.0929,-1.2478,-168.7158,-157.8754,-99.0658,30.3177,-44.1806,36.6237,3.6912,25.1949,-13.7305,-7.1202,118.9603,-3.0056,121.4161,-126.4568,-249.4745,-1.1619
12.3872,-111.7515,39.1866,-158.6490,-125.6598,-111.2579,13.3395,-63.7318,-13.2523,-14.3748,51.1819,-46.4215,17.8996,68.6759,24.0629,46.0059,-112.6360,-260.6666,0.6119
-3.9774,-52.8434,50.3184,-100.3013,-82.2403,-105.9026,46.3545,-81.7559,-22.7801,-51.4936,79.1624,22.7745,86.0873,30.3342,88.0090,-37.8964,-83.0594,-220.6020,-27.8595
-23.4692,45.9449,77.8636,8.7553,-12.6454,-84.1574,32.5204,-91.1534,-41.1410,-105.2492,110.1031,112.2720,167.8533,15.9529,127.6550,-87.3159,-42.9796,-103.4998,-75.7357
37.6985,84.0051,106.7276,71.1441,73.9996,-71.8265,-24.1600,-96.0579,-81.0401,-171.2988,135.7622,126.8041,224.1719,24.3663,122.4273,-76.0178,-22.2139,23.7626,-83.5052
149.2415,77.5667,117.0140,60.4099,139.3256,-67.8655,-28.0535,-96.7417,-103.1410,-199.7221,148.2985,93.7114,231.6175,24.8431,88.3314,-5.5110,-7.9860,80.2841,-56.1081
195.3202,77.5738,110.7076,70.2733,151.3083,-45.2762,18.2114,-99.3381,-78.2064,-153.2865,134.7937,72.7269,193.2079,15.4529,74.3551,59.0979,35.4454,72.4878,-44.0292
125.8150,49.6602,70.7383,134.1621,106.8906,-18.1163,50.4584,-105.4137,-20.5411,-84.0925,71.4437,74.4520,135.4645,42.3978,113.9322,52.6754,85.0450,54.5010,-50.3599
-7.2422,10.0182,-5.3799,192.3542,40.1679,3.4297,62.5867,-81.2923,23.9693,-49.5926,-20.6620,103.1856,96.8795,109.2878,164.8782,3.8471,87.7529,64.9404,-38.8063
-97.6672,24.8004,-75.3779,215.2444,-7.0774,57.6690,59.6658,-3.9849,33.2532,-15.7531,-65.3035,142.1466,92.0099,158.3364,168.6639,-15.1489,48.3218,100.1151,3.1954
-68.4159,57.2622,-110.5934,193.5544,-31.5687,131.9203,33.8668,79.3259,33.3096,51.5410,-40.8690,131.1000,95.8288,168.6835,132.5026,23.7706,9.1640,110.7096,53.6808
20.4880,38.7963,-117.0900,117.7745,-47.8507,157.9200,22.8907,115.3164,46.8825,101.3728,-12.6794,54.1750,100.7706,172.5388,111.6030,114.6156,-5.9874,75.5880,90.3046
33.3121,-7.6044,-108.2538,56.3811,-53.2205,142.4009,62.2162,117.1662,71.4235,100.4418,-18.2380,-22.7466,130.9852,174.4228,150.5487,213.1324,18.8915,40.6972,108.9159
-35.2259,-22.4992,-105.6090,88.0273,-63.0175,129.1363,107.4405,105.3867,97.0254,88.7507,-31.8025,-35.6383,157.3887,152.3428,216.8073,229.1739,78.8481,15.3936,101.2806
-80.7053,12.1861,-111.7011,151.1426,-112.9501,84.4624,91.3428,59.0403,91.1297,74.2039,-38.0499,8.8781,114.7384,118.4861,208.4931,145.2896,107.8712,-62.0292,49.1942
-98.4129,32.1331,-95.6444,120.1202,-186.8083,-19.8445,16.1123,-24.7638,30.6811,25.4881,-36.6379,26.6929,28.7733,89.3324,113.4944,69.4649,35.3946,-197.1654,-34.0150
-161.4239,-56.3641,-76.5775,-26.3832,-227.0757,-128.1545,-52.9702,-109.7492,-33.7255,-29.7424,-24.3880,-65.1404,-21.1134,33.9762,47.4584,62.5346,-122.6357,-305.1010,-105.4242
-247.1367,-201.3813,-127.7053,-210.9414,-222.2903,-197.1648,-68.7848,-171.7402,-46.7093,-51.7289,-30.0658,-218.5046,-32.7159,-60.7920,46.5881,54.3194,-281.9510,-326.9721,-149.5700
-279.8469,-259.0538,-241.9685,-348.4263,-203.0075,-235.5648,-54.4280,-205.2645,-33.5955,-69.8913,-77.6920,-298.2982,-32.5453,-132.6611,37.9106,4.3202,-380.5875,-287.8049,-176.9594
-270.1004,-247.5934,-335.6729,-399.0328,-185.4810,-248.3897,-51.3899,-209.8174,-29.4932,-104.5722,-120.9987,-271.8137,-5.7534,-138.0114,31.6203,-35.0610,-422.9399,-243.4244,-189.0978
-281.3311,-251.0352,-380.1748,-377.1384,-172.2912,-240.2135,-51.2486,-199.0481,-28.0414,-117.3508,-114.9058,-202.1166,25.8176,-116.0565,64.5483,-44.6115,-433.3122,-203.9559,-192.3971
-327.3532,-198.2703,-386.8913,-301.5141,-156.4686,-207.6374,-32.1737,-170.7460,-31.7078,-87.4578,-97.0099,-105.1090,8.1204,-85.1536,49.0450,-53.8965,-396.5859,-120.7632,-191.6769
-357.9437,-62.7726,-348.1667,-178.7449,-119.3642,-119.0082,-5.7138,-97.1478,-36.9280,-31.5515,-118.6389,14.3138,-37.9489,-8.7325,-51.7504,-49.7065,-302.1243,16.5725,-159.8704
-324.1907,1.4051,-294.1242,-61.8005,-62.0875,8.2341,21.5628,0.2529,-15.6585,25.4784,-167.4725,87.3382,-56.1521,82.8701,-106.8383,-6.0990,-207.7683,127.6038,-81.6087
-265.4324,-47.7161,-271.4194,-11.6605,0.5024,93.2153,56.7248,53.6836,20.1369,46.1963,-192.4061,76.6882,-47.2669,106.3860,-64.2316,45.1639,-158.8821,160.3439,11.8092
-261.9518,-70.2556,-247.2294,6.2491,65.7776,115.9401,78.9229,60.1530,40.8205,27.0574,-154.5052,35.6454,-34.1639,75.9215,-33.3647,61.9899,-103.7274,156.9568,96.6330
-264.7743,-21.7963,-175.9894,54.8678,98.9634,120.3689,69.9035,72.2926,64.7026,21.7992,-80.6137,21.3398,-30.5667,67.4039,-49.1367,50.0941,4.8363,145.5532,168.0444
-155.7247,19.2038,-92.3432,105.7560,46.5719,112.8502,57.9215,95.1712,95.3898,43.7778,-65.3214,38.0065,-53.5256,81.9357,-39.8804,37.8864,117.1240,113.9895,205.0004
-4.3912,9.1639,-40.3081,100.4017,-43.4940,97.6251,71.7057,108.7625,104.2427,52.5815,-136.6332,53.8756,-86.8473,87.7997,-0.2388,44.6493,167.9922,84.8565,209.0689
7.7392,-46.4912,-28.2751,44.1116,-64.8651,107.7038,96.5181,118.3495,109.1680,53.1208,-181.7738,42.8280,-94.9494,89.6016,18.8087,67.9814,145.2549,65.6620,206.1706
-95.2904,-92.6593,-54.6919,-7.2870,-33.5027,109.6105,96.4525,102.6879,112.9356,62.1438,-113.3813,31.3983,-90.2074,73.1527,3.2947,73.0732,81.4345,8.8126,165.0508
-133.9921,-55.2652,-61.1379,22.2924,-33.1217,39.0690,46.4953,31.0154,48.6790,43.1420,-0.3901,56.3159,-94.7425,15.4771,-41.7914,32.7260,61.4706,-70.9519,50.1277
-54.2556,37.0409,26.3112,152.5324,-37.6470,-60.2372,-36.1228,-51.5847,-65.9944,-9.1881,57.6037,84.3494,-89.9567,-48.5927,-96.7998,-16.5746,147.3942,-87.8132,-57.8056
67.8896,97.8691,144.6373,263.1404,9.3880,-98.7602,-82.9295,-80.8526,-107.2711,-44.2479,60.0312,74.9293,-66.6011,-78.6854,-108.2654,-22.9772,260.2638,-32.3019,-57.9497
138.3668,104.3849,178.2692,231.9748,61.1624,-70.6363,-47.0964,-60.6435,-55.2172,-44.7042,60.1366,57.8075,-35.3374,-74.6246,-58.9952,-5.7011,279.6856,36.5945,15.6882
78.5266,46.8875,163.3748,129.1536,71.7575,-6.7957,22.3056,-10.5750,-6.4976,-21.6212,93.2941,56.7914,-0.1432,-30.0870,-16.8716,-7.2346,225.1964,107.0054,72.4146
-44.1441,-52.8123,183.9921,93.9565,70.0047,79.4646,40.8390,59.2945,0.0947,11.6061,145.6022,58.9996,10.2647,46.8894,-46.3752,-4.8347,188.7383,182.3730,98.1122
-24.3012,-68.7882,197.7471,118.6329,59.1103,156.3299,12.5407,108.6101,-4.5124,21.9342,152.6499,86.6638,-22.3728,109.4091,-109.6510,30.3967,182.2770,223.9245,124.0165
145.4463,28.3963,158.9971,121.1296,20.9889,193.8355,20.6443,127.2823,11.6808,29.5191,90.5235,141.3542,-38.8790,150.5885,-110.1908,65.7266,168.3816,209.0952,160.3929
227.6964,73.5502,118.5096,92.0434,-2.3703,190.7535,87.2482,159.5913,65.7428,99.7014,36.8657,137.8549,-1.3969,184.2138,-28.9017,88.0349,134.9650,157.2854,192.6485
153.7719,16.0249,99.0680,61.7152,16.8881,136.2359,132.5032,182.5258,113.2283,173.2395,55.8539,49.7027,30.7788,152.2644,46.1304,126.6771,99.8263,88.0185,188.9990
104.0213,1.8464,86.1254,53.6028,28.2714,35.4638,105.8850,119.7889,84.9928,130.5690,111.0074,-12.1807,24.3501,34.0697,45.9380,142.0224,114.2436,15.1852,130.2792
161.7224,66.3636,120.1532,90.5548,-6.5727,-50.5298,45.2073,-0.5149,13.5108,16.0852,149.3049,16.4403,8.6058,-51.0545,-6.2204,70.5251,214.1189,-54.0690,40.7388
250.6766,110.4392,209.7142,155.8261,-75.1183,-84.4232,-23.6699,-85.1096,-27.9612,-66.6103,151.6916,57.3704,-23.7609,-26.8456,-63.2145,-17.4601,338.2784,-119.8676,-38.8845
308.8635,115.6161,270.0717,194.0148,-152.7259,-91.5179,-104.4452,-113.6023,-57.6791,-123.9832,107.4875,42.0030,-71.4646,23.3267,-97.2031,-13.4465,379.3990,-151.5022,-81.9243
285.7177,102.0076,263.8739,177.8729,-180.9089,-86.9156,-150.5037,-102.3645,-98.1472,-140.1371,57.0795,2.4332,-67.2183,26.3263,-83.6910,38.4505,303.6809,-122.7861,-79.7365
167.5393,52.6653,241.9700,113.4020,-100.8946,-87.0738,-119.2407,-68.6838,-101.0083,-71.1262,78.8124,-13.2969,2.9145,-0.4490,-26.4277,40.1409,168.3159,-99.3248,-64.1068
58.9468,10.2743,224.1035,31.2139,35.4243,-145.5742,-65.2172,-78.1959,-67.0261,-22.9950,151.0159,-6.3966,69.6573,-48.5278,31.0123,0.3603,68.2225,-151.0002,-89.6152
29.0781,36.7951,193.9305,5.3499,117.4136,-245.2031,-58.2111,-154.3295,-64.0291,-89.7063,165.8189,-2.1220,98.2088,-107.7769,51.3120,-38.2377,59.6225,-201.5918,-146.5633
13.3503,83.6078,157.1772,63.2620,128.7665,-267.3970,-77.2445,-194.7720,-94.6057,-140.3076,104.6131,-14.5983,89.7486,-121.9755,27.9329,-63.9116,91.2546,-137.5335,-155.4307
-1.1954,64.0874,106.0127,102.1784,127.9175,-164.0762,-54.1529,-127.5798,-90.6489,-63.6867,42.5643,-39.0583,45.5801,-76.2150,-9.7636,-44.3300,72.0136,-0.7511,-78.1693
33.2357,-20.9772,21.3959,38.2878,142.0722,-14.8289,30.0053,-13.0027,-18.8798,40.5196,8.0071,-60.6651,13.9039,-22.2209,-10.6226,23.3104,1.5951,91.9550,37.4729
47.6886,-107.2398,-72.5913,-56.1846,159.4476,110.3411,110.6953,86.6559,78.3108,88.6987,-32.2929,-65.5431,30.2914,15.5627,21.9377,65.3357,-63.4139,123.8079,132.6280
-18.2478,-139.0372,-145.9742,-88.3214,152.8792,197.4960,123.1367,164.9402,134.7202,121.9876,-91.1940,-48.6315,37.9745,49.7853,30.2151,52.5461,-102.3251,146.7267,189.0563
-56.6657,-98.0340,-192.9456,-62.8458,111.2339,234.7434,117.1843,207.4916,149.0722,155.8700,-130.2993,-18.1975,8.6222,73.8953,23.0903,35.7693,-98.8303,181.6729,205.1467
-13.5319,-2.8645,-182.5552,1.1198,89.4986,222.3987,164.6067,211.4883,166.5153,166.8419,-100.6367,11.7035,6.3536,70.7026,55.9184,23.1472,-34.6063,215.5099,176.0444
-3.9868,89.7176,-92.0249,90.0941,143.2152,181.8034,196.4557,198.2464,162.6522,162.2061,-24.5180,30.5519,43.5940,38.9369,95.8130,-9.8921,46.0310,213.8527,115.3900
-51.2172,101.5107,19.9660,139.3801,216.9411,126.8976,138.6101,160.1288,93.9712,146.2332,10.9462,28.2192,62.4514,-6.3283,85.4383,-31.6016,87.3054,147.3157,60.2923
-37.3834,34.5434,84.1580,119.0501,228.4007,81.6946,73.9887,96.5145,28.1640,113.7909,-6.7128,6.1567,62.6638,-37.2345,64.7536,-19.0997,104.5909,55.3795,27.0083
36.6888,10.4188,110.9360,99.7238,206.3672,75.8229,60.3317,50.6268,26.4573,74.1097,3.0559,-2.5242,76.7031,-33.3857,75.7606,-9.0519,128.1144,15.3408,-6.6279
58.4791,80.0682,141.1976,129.9626,215.9081,91.1277,26.3992,31.8557,21.2006,26.7501,57.6335,37.0371,92.5354,3.8317,83.2611,-12.7423,155.8657,36.6186,-51.1622
31.5823,130.1239,186.9252,177.4092,245.8116,93.5292,-24.2213,13.6812,-18.2086,-17.8785,101.5283,105.5445,101.4553,57.6304,71.3770,-11.8886,191.6134,69.9728,-84.5948
29.7988,104.7968,236.3020,215.6878,256.2375,91.5745,-9.3571,9.3638,-18.3377,-19.5706,124.2975,141.0918,109.8800,87.6216,63.5607,-22.1464,222.2306,80.6799,-99.3631
21.4670,87.6963,255.9639,231.2484,230.2415,89.3023,39.5149,23.7459,19.3207,22.3566,130.0180,114.6941,97.4514,58.0486,54.6905,-41.6436,198.4583,48.8613,-113.2729
-39.5018,101.1130,224.8759,196.6982,162.8028,63.7492,51.3057,15.4677,30.5146,60.4415,101.4047,62.3568,63.8242,2.6885,38.0536,-25.2834,119.2208,-18.7799,-128.4976
-75.5658,85.1551,174.8322,131.7803,83.8972,23.0291,39.2172,-11.1511,29.9832,69.9131,76.1260,20.6695,44.6797,-21.8388,24.6193,15.5672,41.2137,-62.4511,-130.1908
-23.7353,27.1683,129.0800,81.0717,44.9399,-14.8907,10.5875,-18.5635,31.4362,45.8660,85.0491,-28.5927,36.2560,-30.9625,5.1573,17.3354,-16.7080,-52.3099,-112.5972
26.7802,-71.0213,59.0566,22.5267,41.7527,-66.1802,-31.6939,-33.9391,-4.8694,-10.1845,59.9150,-98.9042,12.7092,-57.0542,-18.6312,-16.3136,-66.4838,-43.8190,-79.9071
-23.2188,-194.2499,-25.7361,-66.5251,25.5379,-120.8564,-28.6491,-81.2076,-42.0484,-57.7958,-14.2035,-148.5258,-5.4019,-79.5131,-24.2191,-31.0296,-93.2569,-64.1955,-46.8074
-143.9560,-253.0457,-55.9051,-136.1317,-18.6526,-133.8096,13.3079,-104.9851,-10.2134,-58.0478,-33.1222,-163.5346,-0.1722,-91.3755,-32.3377,-22.6856,-103.0197,-60.0407,-33.9702
-247.9955,-219.9352,-22.1055,-169.9083,-64.9992,-111.6627,14.5938,-78.3193,36.3128,-28.1083,13.5224,-189.7806,-0.3560,-111.6420,-66.9962,-17.3430,-138.3874,-15.9995,-41.8337
-258.0293,-189.5646,9.8976,-212.1679,-78.5098,-102.3734,-7.2771,-57.1189,6.5368,1.5222,29.9358,-220.4349,-17.0154,-122.2738,-81.6957,-13.5606,-192.0782,11.0624,-56.4935
-145.6143,-185.0402,7.5219,-248.9319,-45.5941,-129.9704,10.1270,-82.1393,-83.1654,15.7452,21.0553,-204.9614,-25.6098,-122.1331,-42.3620,-9.5803,-218.2842,-10.1794,-78.4838
-31.6346,-164.4608,-24.5930,-245.4156,-14.7705,-196.2246,36.0788,-135.0060,-168.0625,3.3055,29.7278,-182.1505,-23.3235,-151.6920,1.5435,-20.8090,-231.1576,-59.1483,-102.2970
-83.1566,-182.3626,-100.1720,-245.3309,-48.7577,-248.5438,34.6484,-162.3605,-213.8120,-10.3133,-2.2314,-213.0219,-28.3302,-177.2542,-0.7709,-40.7408,-270.0472,-97.9285,-96.1386
-239.9274,-263.2316,-209.1986,-267.9844,-124.5560,-179.7734,20.8103,-104.8538,-216.2102,20.0283,-87.9824,-242.3447,-46.0001,-130.5677,-41.2420,-41.3496,-307.2538,-86.9718,-49.7602
-306.1348,-300.6076,-284.4438,-249.7685,-181.1631,6.6901,-7.9297,22.2625,-206.1337,77.5283,-132.2436,-208.1187,-73.4068,-63.8299,-77.8675,-21.1895,-299.9556,-31.2231,-0.8814
-274.9307,-261.7846,-274.9897,-188.4655,-217.1438,155.3834,-34.4384,119.8387,-213.0859,112.5560,-115.7522,-152.7078,-100.0138,-48.0466,-71.2575,-9.6819,-267.1848,6.7421,20.4906
-257.4044,-223.1399,-203.9121,-152.3743,-238.6182,182.1275,-17.7090,140.4496,-218.2077,124.7226,-102.0388,-107.2017,-109.0548,-28.6085,-37.0368,-16.6011,-232.3873,-9.2783,25.1820
-240.8927,-186.8920,-130.4855,-131.7908,-225.9282,144.7369,9.5559,121.6567,-204.0906,126.8793,-89.7862,-48.4230,-107.3339,19.7437,-31.5544,-14.2706,-177.5585,-56.9024,17.9170
-179.2157,-123.0394,-90.7224,-74.5016,-215.2010,76.9580,-2.7037,75.2663,-196.6810,98.7495,-56.3026,0.1262,-116.9631,-0.7588,-53.5625,6.9668,-114.5785,-107.9525,-29.4346
-112.4278,-81.3489,-87.1067,-8.0107,-252.2055,-19.6521,-33.8320,-5.7003,-212.7122,39.3670,-34.9759,-3.5219,-127.1520,-111.0879,-60.8660,5.4273,-98.5387,-128.3819,-114.1842
-73.5069,-99.0375,-113.1445,15.4759,-273.2115,-85.9081,-62.0029,-72.1477,-225.7567,-6.3116,-42.3653,-39.5104,-110.5483,-197.1509,-61.5990,-43.2138,-129.2029,-82.5917,-158.3285
-72.4102,-135.3318,-148.0776,-5.6153,-210.2500,-92.9442,-69.7967,-80.7863,-200.7283,-8.1143,-51.8503,-70.4168,-84.6364,-202.0661,-68.1807,-90.6453,-145.0843,-5.2529,-106.2644
-118.8034,-132.5302,-136.9998,-59.0330,-136.0419,-92.2589,-19.2323,-58.0395,-141.3432,4.0613,-44.8792,-81.6206,-90.4216,-176.8545,-54.1053,-90.2712,-129.9687,28.2484,-27.8355
-152.4520,-83.4058,-58.2375,-124.5604,-143.5097,-100.4650,37.4378,-41.9145,-100.0045,-15.9282,-17.0949,-85.3156,-115.6856,-170.9918,-31.1362,-69.1968,-125.6827,16.6441,-18.5670
-123.1815,-70.6054,2.7636,-159.2926,-194.3732,-94.4633,6.9950,-39.6726,-107.9573,-50.4670,9.1676,-135.5496,-109.0564,-195.8278,-28.4560,-63.6917,-147.1034,8.7952,-51.7757
-94.3780,-152.7848,-30.2353,-149.7340,-193.3558,-90.1645,-49.9538,-37.4714,-119.7303,-34.0266,-8.1858,-242.0656,-69.5330,-230.2944,-16.3453,-52.0827,-165.9847,11.2210,-51.3737
-91.4978,-220.1840,-80.6651,-125.9781,-111.4403,-90.0484,-29.9392,-6.8253,-93.6542,42.3349,-51.7246,-303.8004,-48.0825,-233.0821,13.2928,-7.7072,-159.8008,11.2439,-26.2458
-58.8014,-176.3063,-47.6522,-106.8688,1.2195,-56.2999,25.2146,53.3927,-55.1951,123.1514,-57.5147,-257.3190,-50.0559,-192.7417,16.5971,48.5029,-129.1682,15.1373,-9.0577
-38.6254,-118.5202,11.8881,-86.3081,70.4873,4.6448,66.3663,98.5623,-17.6692,176.7471,-26.5017,-164.8932,-22.2218,-120.2399,16.8336,82.7288,-90.1074,23.1023,28.0361
-82.7392,-98.3466,-0.1974,-54.6467,79.7847,60.2278,123.1390,115.1116,39.6130,197.8931,-11.0797,-80.7219,37.5200,-14.2406,61.9922,86.9468,-59.5527,40.6394,95.2270
-81.4168,-20.5549,-43.9856,-12.7795,80.2386,120.4571,163.3445,141.2870,86.6393,172.4502,-22.3072,-21.7354,57.5932,87.1363,99.3767,80.3159,-36.3244,79.2995,135.1376
14.4159,68.6779,-35.2170,12.7760,84.4267,175.0226,128.4390,171.6721,69.1982,113.6365,-37.6792,-33.6200,15.0698,115.0011,77.8831,88.1248,-14.5372,89.6744,108.7386
56.9959,30.2215,8.8011,5.2583,39.1243,161.6950,58.9539,142.6666,7.9650,54.1819,-43.2082,-86.8155,-26.8240,90.1925,41.0348,96.6981,-0.6984,-0.2978,44.0302
-7.8047,-49.5171,33.1257,8.6238,-55.1559,74.1358,15.8367,41.3562,-27.2079,-7.9211,-40.1248,-58.8251,-34.0258,92.4884,10.9398,62.8859,11.8599,-137.9424,-10.3894
-44.9945,-16.5642,36.0424,61.4257,-115.9397,-4.0532,7.4748,-51.7969,-9.4552,-67.4080,-47.4938,48.4568,-40.3234,113.9398,-28.8780,6.2993,43.4509,-174.8720,-29.5184
11.1348,66.3216,31.6598,117.3537,-91.9839,-1.4139,17.6562,-52.8835,21.2637,-79.0363,-62.8983,99.6241,-52.6092,103.5029,-40.0371,4.0445,85.7276,-70.5060,-19.4466
83.8603,87.5931,19.4725,127.9914,-10.1376,73.3697,1.9755,27.1091,11.4848,-36.1462,-42.7076,59.6091,-35.9187,90.0066,-3.7252,57.5784,113.8246,69.5359,6.9919
93.1633,57.9504,10.8338,129.7566,73.5273,159.5849,-50.6781,106.1934,-28.3359,17.1890,11.3111,13.9646,3.9340,120.5935,19.2170,92.6866,130.3562,162.7148,49.1197
35.1743,15.8608,16.6801,167.0424,117.3496,212.1281,-72.4577,147.1222,-41.8246,61.4654,32.6168,20.5819,30.4152,168.8656,13.9251,94.5719,147.7865,219.1224,87.8364
-8.7479,-3.3317,21.4974,221.6355,126.3218,234.0110,-52.8756,177.1996,-30.1774,91.9097,10.0092,79.2388,47.8938,186.7223,25.1989,96.3927,163.2575,244.6064,88.2348
21.7412,23.2475,15.7294,262.2229,144.3315,234.6796,-54.4134,191.7404,-30.0587,87.5266,5.5891,141.0103,75.6934,169.7747,38.7896,84.9985,173.5931,213.2148,63.1896
55.2842,51.8251,18.5187,272.1674,182.8761,197.9553,-52.9094,150.3756,-19.6551,47.9048,43.4930,134.6277,92.3553,145.5925,24.3538,51.6055,170.1222,138.3401,40.7359
35.1257,66.5298,35.6455,231.4081,197.0843,118.3216,-17.2198,60.7069,8.0101,-16.0408,89.3304,77.3828,70.1015,132.4235,10.2921,33.2840,143.7746,57.0137,-15.0842
46.8940,111.5131,48.5569,158.5752,156.1032,21.4502,-36.3355,-36.7536,-15.6702,-105.0336,106.0801,65.9219,19.2509,113.5254,-2.6180,25.6082,128.9662,-28.5444,-116.1873
128.0721,148.2916,64.6519,131.3752,90.3878,-52.3950,-130.0443,-114.2998,-89.4452,-179.0610,78.7868,118.4497,-33.1206,74.2706,-52.3803,-6.3984,166.7989,-102.6251,-171.5986
173.8561,116.8363,102.8253,176.9162,53.6642,-63.6675,-180.2059,-139.3857,-116.6370,-185.8053,37.0258,162.5220,-67.2078,45.8244,-104.8485,-33.3286,217.3389,-116.1488,-142.5290
130.5173,66.8796,126.6648,203.3109,56.5898,-26.4498,-168.4870,-115.1868,-96.4788,-168.2808,31.4247,153.6027,-74.0982,49.9984,-104.6899,-25.0227,210.0490,-94.0534,-120.5778
60.0932,22.7583,95.3719,135.9239,52.0931,-24.6069,-179.3361,-113.0006,-115.7109,-195.0358,57.7194,104.2627,-68.2894,57.5589,-95.8192,-27.5157,152.3392,-127.4864,-143.7243
38.5530,-33.3500,60.3685,39.7912,7.9941,-88.1637,-203.2096,-151.4198,-161.4177,-219.8717,76.2645,60.1376,-79.8837,57.5782,-133.0076,-61.4155,89.4300,-207.7421,-143.7350
102.6183,-10.6755,80.6815,-3.9518,-39.5918,-136.2261,-197.7494,-157.2845,-168.2804,-179.7435,77.1220,61.2558,-117.8194,66.7043,-171.3678,-77.2160,25.0567,-229.3000,-115.4599
184.6804,100.9849,98.7713,-32.0496,-55.5144,-123.9320,-200.9683,-124.7323,-168.4748,-141.4762,51.6990,70.4218,-153.9651,55.9382,-162.7539,-65.0542,-34.2480,-165.1905,-113.6829
164.4255,102.9190,49.2634,-85.5346,-59.2759,-109.9187,-235.7439,-131.0040,-211.2077,-184.6445,-4.4321,16.5583,-148.5074,-13.8905,-137.1602,-68.6614,-48.2806,-83.6783,-122.4257
84.4236,-27.5401,-4.8811,-107.2345,-57.8402,-132.5101,-257.5417,-175.4754,-252.9404,-249.5324,-32.8879,-78.3025,-98.3390,-120.4998,-118.5036,-100.2703,-18.8137,-27.5338,-110.8043
73.2997,-61.4831,7.0018,-73.4782,-28.3329,-161.9018,-226.6201,-190.0400,-243.3677,-239.3573,6.4993,-136.0014,-55.4798,-215.1866,-89.7891,-134.9782,-7.3357,5.3036,-100.7598
70.9232,10.2671,26.8181,-64.0878,5.7250,-166.9927,-151.1501,-161.4391,-203.8837,-167.2300,37.8922,-137.4533,-64.9445,-247.6234,-65.5637,-138.7081,-45.5630,20.8687,-80.7193
-18.8559,-7.4779,-23.0561,-119.0114,0.9101,-133.5795,-86.4172,-115.6821,-168.7480,-106.5210,-8.3806,-100.1648,-99.0530,-175.0567,-76.2703,-91.4961,-100.7651,30.2917,-20.1878
-75.1294,-84.6092,-109.4312,-183.3748,-16.8918,-69.7550,-68.0301,-72.7061,-142.2550,-86.3489,-75.2150,-41.5459,-104.0931,-46.3590,-97.4154,-38.4980,-133.1268,43.8533,32.1512
2.5311,-80.9266,-149.0688,-204.7670,0.5077,-11.6265,-53.4994,-48.9258,-132.2175,-86.8128,-82.7444,-4.1385,-80.4784,26.8310,-96.5305,-43.3251,-124.4451,60.6654,35.1630
102.7036,-39.7379,-115.2322,-159.3258,36.4077,32.8155,-23.7446,-23.5868,-158.7619,-70.5162,-36.2046,-6.3506,-61.2777,36.7536,-93.2273,-69.9747,-63.7720,75.2497,41.1997
143.1687,-12.6211,-51.5618,-48.9772,46.8666,81.5202,-39.9594,30.8222,-214.5624,-20.1820,13.4344,-3.3960,-54.4354,54.3789,-100.1252,-44.1290,31.6217,71.9787,69.0159
155.3919,52.7920,-15.5439,60.0635,30.9877,106.6306,-103.3378,66.4110,-257.1712,15.4937,28.1549,29.8776,-48.7013,74.7871,-92.5736,2.4574,104.6657,49.0561,60.7908
133.3774,132.5334,-3.2026,109.5236,24.9528,78.8559,-137.2625,36.6251,-261.3292,-27.3831,10.4268,71.2686,-41.9320,63.4923,-76.5872,-5.5759,132.8059,42.1134,20.3856
95.9214,168.7383,46.6188,140.8765,45.1152,32.9261,-135.2505,-13.9632,-251.5909,-118.1156,4.7990,116.6782,-49.4743,41.0798,-91.8950,-57.3363,171.1562,48.7321,-0.1180
131.1466,198.9100,149.2820,202.3332,49.2439,-5.7627,-138.0357,-52.1311,-260.2978,-168.4562,44.4504,164.6234,-86.6898,11.5359,-140.3496,-96.3551,252.1649,9.7135,-21.2452
212.4149,235.2500,239.3134,259.2323,-2.0663,-44.0191,-132.5059,-93.2848,-277.1821,-153.6918,111.3509,184.0236,-125.4245,-32.8372,-179.7941,-104.4883,306.5278,-49.3539,-69.1060
217.4089,231.9506,259.4897,272.6470,-55.4340,-52.4580,-104.7744,-100.6949,-265.9338,-102.0761,163.3277,174.5040,-106.5550,-45.3981,-167.2125,-98.3734,261.5449,-28.1502,-91.7342
146.5110,209.3593,215.0145,240.7904,-39.3053,-23.4601,-77.2887,-51.7882,-218.1682,-44.1539,165.3252,168.3095,-29.6721,-23.7268,-90.7055,-99.3992,145.9863,41.8236,-67.2152
85.6169,181.0565,137.7134,155.1238,6.9126,-21.8577,-58.7529,-31.0429,-165.3944,-29.2269,110.0099,150.1299,41.5126,-43.7210,6.8617,-103.2422,32.9379,38.8826,-52.8803
38.6368,77.8862,54.4362,35.4816,11.4725,-58.1739,-40.8161,-69.8922,-128.5830,-65.4995,34.6142,83.8921,81.3361,-88.9737,72.1630,-78.1961,-44.9309,-14.4171,-63.9205
-41.6064,-91.9180,-21.3973,-50.0157,-6.5039,-69.0757,-4.4002,-75.8201,-87.8210,-67.0186,-18.2545,-6.2766,108.7108,-57.6402,112.6867,-18.4269,-89.4220,-19.0587,-50.0123
-152.5810,-209.6162,-95.5095,-83.2788,-17.4278,-63.8560,59.3222,-36.6810,-35.0853,-6.4251,-51.0674,-74.1550,104.2762,28.3823,140.9165,44.8310,-117.5546,-1.5103,-6.5611
-230.9198,-226.4640,-172.7285,-114.3692,-51.4167,-93.2333,93.9634,-48.1168,-9.8343,4.6719,-86.4389,-109.0845,39.4119,43.9147,111.1019,80.6155,-148.3702,-18.0192,12.6215
-218.9368,-179.7695,-235.0743,-147.5889,-107.0679,-123.4747,55.0083,-111.2901,-35.1197,-78.2555,-128.3891,-102.0386,-45.2619,-37.9188,23.1312,50.9293,-165.8818,-25.1211,-11.1647
-164.0711,-89.8070,-254.8562,-123.4582,-139.8869,-106.9913,9.8628,-137.7635,-73.8733,-144.4064,-165.4193,-42.2039,-90.5760,-124.1521,-32.2446,-58.6962,-132.1099,2.0600,-31.0958
-167.3758,6.1842,-214.9763,-25.5374,-155.2535,-57.2006,13.2732,-98.1130,-83.6350,-122.8431,-175.0912,32.0506,-98.7602,-126.8978,-22.5612,-159.8044,-50.8626,12.5580,-4.7931
-191.1039,35.3350,-121.4875,78.0322,-187.4146,13.9616,14.6502,-18.3100,-64.0368,-55.2926,-139.4003,66.6577,-96.8217,-45.0384,-10.0389,-142.1192,32.5183,-13.5438,35.7728
-108.0246,-7.8189,-13.6588,102.6328,-232.7087,73.7447,-12.1786,54.0185,-43.8566,12.6943,-70.9519,58.3055,-80.0441,37.5247,-13.5930,-30.7634,72.2145,-65.8854,24.4086
36.2995,-50.3740,51.1657,25.3759,-271.4885,32.6442,-33.5188,45.2897,-44.6754,43.2769,-4.1092,21.0670,-41.9012,45.6719,-5.1462,66.6540,25.1263,-155.4558,-31.0216
66.3480,-50.3982,32.7320,-98.2624,-283.7351,-111.6987,-36.1924,-50.2837,-40.1334,6.3855,19.3984,-42.6453,-12.7641,-1.3613,-1.4735,97.0700,-112.1302,-258.5314,-52.8563
-30.4507,-35.7579,-66.5572,-191.6998,-256.0516,-222.0802,-1.3127,-131.8659,13.1212,-42.2595,-35.8918,-95.3905,-27.0091,-44.3422,-23.4506,58.9421,-246.7919,-321.2877,-14.9612
-109.1518,-41.7616,-188.7695,-218.2159,-234.2753,-217.6252,69.9955,-135.8362,78.9083,-23.1370,-142.0316,-97.9130,-77.6127,-74.1400,-52.1972,-22.4309,-269.3070,-335.5240,22.9259
-110.9780,-51.5882,-244.1946,-174.1599,-276.7965,-158.3166,95.3706,-97.5309,85.3033,36.2586,-206.3607,-89.7950,-132.0268,-125.3280,-80.4940,-97.2178,-184.5328,-288.0526,11.9711
-86.8379,-24.7404,-191.0374,-79.2635,-330.3608,-101.0116,57.0701,-45.4889,70.2753,72.3546,-185.6835,-117.1469,-166.6399,-219.1421,-97.4538,-149.8141,-83.1370,-130.4348,-15.2652
-63.2828,10.9770,-83.8103,-5.2420,-287.6087,-36.4784,58.0044,24.5863,115.5422,99.2438,-124.8752,-140.9700,-157.9243,-300.1063,-54.2588,-176.5229,-36.4174,82.0161,12.9306
-47.7016,-17.5959,-10.9023,-24.0252,-150.5088,32.1504,109.8720,87.1264,173.9194,136.8266,-69.2815,-121.7563,-84.3354,-244.0067,49.4166,-110.7871,-72.9079,184.6075,99.6107
-76.2340,-88.2865,-9.7695,-97.8617,-14.6182,68.3277,123.4685,104.0962,153.9318,141.0766,-43.2374,-82.9345,23.2248,-18.6618,128.7460,60.2743,-171.8551,127.7790,151.4452
-148.4757,-117.4771,-66.4137,-135.2004,56.3534,60.6899,98.9359,79.8897,94.2304,91.0031,-67.0365,-46.7497,87.9837,221.6293,130.4072,198.7941,-261.1811,36.5181,123.8614
-199.5794,-136.2614,-151.6701,-146.3894,67.7889,51.5549,79.5194,61.0791,82.8506,49.2568,-99.1071,-41.4350,78.7777,307.0602,84.0408,212.8568,-297.6696,17.4416,113.1216
-189.5724,-215.2242,-220.2986,-189.8986,61.9613,81.6646,63.9084,88.1847,105.3418,68.3534,-56.9879,-113.6323,38.5438,223.2054,24.7398,171.4384,-302.1657,58.5802,181.7161
-138.7146,-266.6711,-216.1973,-222.9014,58.8368,109.7078,78.3643,128.6030,97.2768,100.6538,54.3560,-212.7966,10.3785,60.0525,-31.2530,117.7302,-274.8216,91.7880,227.3801
-75.3759,-183.3201,-130.3869,-182.4964,18.2080,54.9657,121.4167,98.0490,60.9308,77.8262,144.4420,-216.3075,-9.2954,-83.3778,-53.8157,18.4796,-191.2998,52.9515,167.9613
-24.5866,-54.7195,-25.4034,-113.1047,-78.4132,-61.6813,111.2209,0.2046,50.8987,31.7447,156.9937,-125.7418,-39.8383,-143.5005,-28.0072,-80.7702,-87.6338,-50.3991,81.1024
-5.0360,4.6845,44.2710,-63.0604,-153.9634,-126.9673,54.5125,-50.9359,77.1965,31.2802,104.7705,-38.4113,-70.3385,-134.7668,12.7413,-102.0744,-18.1265,-110.8536,48.2359
8.7991,45.1892,91.8960,-5.0304,-146.0560,-101.0998,42.6207,-4.9300,82.6527,55.4673,44.0965,23.2472,-57.0016,-107.9878,37.7117,-72.7183,20.2276,-65.4010,48.8659
42.9696,104.7213,132.2222,39.9954,-103.0684,-54.3574,59.8067,58.1809,52.1776,53.6307,41.4484,61.3898,15.9032,-69.4249,64.0629,-39.0813,22.3687,-12.5003,55.5327
60.9738,110.1416,133.2267,2.1624,-83.5605,-48.2376,55.9625,63.2177,57.1472,39.5083,96.3988,36.5066,88.6014,-23.0995,100.3178,10.2009,-39.8987,-59.1123,59.2043
47.9457,66.4906,89.0192,-79.2177,-77.7421,-92.3483,61.0077,5.5798,104.9644,15.4126,136.5347,-27.5333,93.6123,-19.0460,97.6050,46.3144,-116.0421,-155.0476,21.6903
59.7796,55.9756,47.6380,-113.0274,-70.2761,-181.8515,60.4663,-101.9741,92.4923,-59.7788,125.4154,-66.3032,45.7743,-81.3961,28.1611,8.2427,-127.9809,-201.6246,-71.1264
91.0707,53.4576,26.1757,-117.2523,-65.6330,-284.3136,4.1477,-224.8228,3.2542,-160.6466,87.0588,-92.6725,0.1881,-169.7253,-47.7230,-76.7327,-103.6017,-199.7470,-167.3476
65.6894,8.8150,-3.2023,-131.1053,-57.1289,-331.4963,-59.8562,-292.2918,-51.6486,-206.4080,37.7347,-119.5908,-32.6458,-221.1133,-70.8895,-131.7973,-95.8163,-189.8196,-210.8544
3.8028,-10.4057,-38.1958,-107.3884,-42.3220,-282.4701,-74.3414,-268.1216,-34.5452,-184.1841,-11.1674,-99.9745,-62.8805,-182.1162,-60.3988,-137.8892,-73.5761,-159.2894,-184.6937
-13.4243,31.6539,-49.7170,-31.1229,-22.4801,-163.6013,-50.8339,-184.3341,-3.3356,-137.9937,-34.8826,-38.4746,-63.7663,-62.4407,-38.2337,-106.8214,-18.5683,-78.6740,-110.4485
-4.7989,47.1362,-33.6817,35.1501,22.5001,-32.4444,4.8582,-87.5554,21.2452,-95.0419,-34.6254,20.3150,-6.4843,49.8038,9.6109,-42.8055,28.6945,40.0284,-39.0778
-12.0746,6.1676,-0.4278,75.8006,95.3860,68.0339,48.5817,-8.7124,25.4988,-67.3990,-30.7302,85.8492,70.5565,103.8563,54.8477,22.6227,71.4603,143.6255,-1.3467
11.7433,-7.1691,42.3842,121.5604,160.1624,125.0869,2.9054,35.5811,-24.5121,-44.8792,-23.9087,150.4217,91.5150,135.4828,43.0394,53.5114,142.8031,175.5423,16.8139
83.3616,42.0955,79.7940,166.9860,193.9103,149.8827,-76.9580,56.9623,-84.5090,3.8804,-14.7187,164.0409,49.3534,160.3638,-5.8603,62.3146,223.3877,133.1584,25.3153
125.6962,102.9572,103.7925,208.8421,186.1258,160.8943,-88.5194,83.4923,-86.3696,66.1247,-11.3450,147.9234,10.8778,155.1604,-34.3508,66.4344,290.3170,83.5409,23.4936
102.8978,139.4023,118.4492,260.8347,115.0943,176.0332,-71.7923,122.7985,-62.1881,93.8635,-8.1840,153.2231,-2.7788,126.2012,-41.6627,48.9066,342.1679,91.8984,30.7900
72.7306,152.2974,114.2284,286.7921,12.5582,201.6893,-71.2161,153.9432,-52.3257,83.1786,-11.9917,149.7176,-35.2915,75.8697,-48.7279,13.0041,340.3114,148.8894,43.1289
94.9554,150.1108,79.6387,244.1369,-28.5544,207.5611,-46.0100,142.9014,-28.1918,57.4982,-40.9060,104.0442,-74.7316,-8.3046,-43.6069,-9.6010,264.5592,190.1368,19.6845
158.9666,146.9350,32.7307,166.5108,24.1556,156.8931,-26.0099,80.6150,6.1264,27.2962,-67.6746,52.9349,-53.6469,-75.4026,-16.1630,-17.7148,176.0276,175.8941,-31.5198
183.4518,149.4583,6.2633,110.4017,116.4400,89.3508,-43.4740,21.5412,20.4143,17.3567,-48.2309,34.8085,24.8640,-56.5440,23.1676,-14.6564,118.3880,134.1849,-56.6419
121.7341,140.9587,19.3639,86.9833,203.8356,87.3887,-14.9182,24.2588,41.1437,37.1356,6.4609,59.9906,99.2741,29.2359,62.0950,25.6999,79.3533,108.4420,-56.5734
60.9766,104.7849,63.8849,81.1727,258.6894,135.5346,52.2538,54.7373,67.2166,39.5170,62.6976,116.9010,144.9954,121.7571,75.8216,77.5869,73.2125,84.0618,-73.7336
87.2690,64.2823,101.3147,75.1201,239.2976,145.3033,29.7234,47.9354,36.9505,7.0252,108.8422,163.6592,151.1476,189.3769,43.8598,69.6881,101.9061,28.3626,-106.8837
121.5876,68.2560,100.7111,65.8369,153.2157,120.1572,-59.5356,26.1229,-35.0660,-9.5141,129.4637,188.0216,101.4241,210.3333,-1.2458,31.5936,99.7557,-26.9903,-128.8019
75.1027,114.0522,76.3965,73.3714,68.0356,119.5345,-102.5933,33.4336,-71.6694,-2.0613,119.8688,219.1289,38.4708,188.1813,-13.9383,50.6460,53.9434,-35.1449,-142.4377
33.7967,145.2880,62.0639,95.9813,22.8420,105.2845,-122.1716,34.5393,-68.7074,-16.7351,122.6012,237.6903,28.0964,164.4428,-13.2640,89.3105,41.8000,-16.9570,-165.1531
95.7433,154.4219,83.8758,103.9290,24.2574,30.4165,-148.4899,-5.0762,-58.5693,-44.6497,171.6976,213.6372,62.3023,157.4798,-39.0413,66.8771,81.4144,-4.6625,-190.7135
190.0304,175.0690,157.3344,104.1057,87.4078,-19.1388,-125.9948,-44.0358,-37.7241,-45.0047,238.6503,196.6124,100.2464,156.9565,-65.2195,33.7767,123.3029,21.1058,-188.2401
214.5074,182.7929,252.6082,132.7707,181.4318,31.4312,-75.4968,-41.7571,-14.5152,-29.7116,279.5590,224.5949,138.5372,169.6604,-41.9058,50.9627,176.3731,72.0906,-141.9763
198.6029,171.5117,308.0060,199.4824,226.0545,111.8875,-61.1948,-5.4081,-9.4479,-20.2734,284.5576,269.3399,172.7862,199.6484,15.0973,61.2824,275.1171,122.5008,-87.2648
222.8150,236.7571,323.1297,298.5713,215.0197,156.6120,-55.7266,45.7147,-11.7009,-8.4846,265.6985,335.1021,183.7950,234.4822,54.3223,32.0663,390.4541,165.7241,-65.5625
285.3988,392.3698,344.9567,408.4189,227.8824,195.3123,-35.7893,90.2047,-5.7447,2.5504,232.0608,425.0437,180.7216,266.1738,66.5498,13.4083,474.1800,219.1828,-58.6104
320.9572,493.7559,362.3556,469.3145,295.1777,237.7691,-20.1600,126.4126,25.9518,21.2953,188.2483,467.4695,184.0399,269.7338,70.8085,6.2442,503.9593,284.6863,-32.0143
300.7769,486.5859,341.5714,450.3994,371.4059,258.8330,33.9337,184.2698,102.9634,87.2177,159.2019,439.0797,199.8605,221.5146,73.7436,-17.0418,469.9319,342.3528,-5.9693
254.9289,463.2368,311.8431,394.2512,418.8511,264.8815,142.0014,238.4119,173.9936,167.1868,184.0732,399.2640,237.4528,164.5539,85.4311,-19.7839,398.0210,345.9093,-17.2995
213.2126,441.4643,300.8167,339.5099,419.2610,247.0697,194.0285,204.7202,165.9173,153.3651,247.4963,353.4594,283.4846,157.9525,113.1441,15.6381,345.2483,254.0990,-59.0147
191.8179,380.7383,280.7765,287.4272,359.7627,184.2776,129.4979,100.6635,124.7710,50.7548,276.0932,298.8957,281.5905,194.0342,124.3521,42.4525,328.6901,115.7777,-95.2577
214.3439,323.9205,238.2295,244.3733,266.8555,126.1953,41.8004,40.8826,126.4272,-7.3057,246.5659,305.3972,212.2767,241.5311,92.1379,48.9259,316.5371,33.8213,-97.4759
266.3307,297.4940,190.4124,207.1620,183.9527,121.4844,10.4334,42.7870,127.0978,13.5263,210.2708,359.4475,138.1331,278.4945,57.8782,53.9279,281.1860,15.9556,-67.8313
281.8262,259.6952,142.7068,156.6736,112.5144,128.1874,4.5900,37.3475,86.3481,14.2807,192.5966,345.5799,115.2489,268.0166,62.4368,39.6400,215.1991,-5.9470,-42.1951
247.1932,220.4653,103.8609,105.0074,51.0113,116.2377,-10.0458,25.5977,68.4065,-24.3137,173.0902,267.3688,128.7563,210.4345,71.9131,9.2898,132.8970,-24.8590,-39.1347
223.2930,195.3120,77.6431,70.9973,34.4928,115.7039,-5.5867,36.6855,97.5462,-17.0788,146.2703,217.7964,139.6654,159.3847,53.9873,12.0524,70.7890,11.5128,-26.7294
221.2469,143.5755,36.5259,47.8295,55.4322,121.9851,35.5342,45.0844,121.1577,42.6813,114.0311,186.9095,129.1799,124.9162,39.5782,47.4563,56.5514,72.4281,14.7585
187.3764,104.1837,-4.7178,58.4397,42.9509,118.8272,67.6205,47.5503,132.2925,75.8214,72.1510,144.7402,95.3882,83.8822,45.6963,58.9738,92.7282,99.6082,42.9882
125.8565,148.9399,25.7870,127.8786,-13.7587,134.1630,55.7365,68.6988,142.3774,61.8288,43.2665,146.0564,54.5581,64.7832,41.0806,31.9039,158.4209,112.6718,12.4946
103.6613,197.2964,115.7584,187.7302,-36.9551,150.8272,40.9762,74.0159,125.9144,40.6629,54.0654,193.6395,38.4507,82.6913,24.4795,8.6823,201.7729,141.3489,-54.7518
132.3486,174.8864,161.5644,167.9565,13.4192,112.6205,61.1730,31.5559,100.2377,26.3902,95.2528,209.1645,62.3629,85.2183,32.7652,18.1644,190.0266,151.2404,-95.5017
145.0622,177.1273,140.3013,125.7074,99.2453,53.5059,82.5250,-12.7294,99.7070,12.4244,149.5938,179.3667,102.9836,54.2415,59.5431,41.0310,164.1878,121.5886,-93.6569
104.9589,225.8144,120.1714,120.7205,181.1791,35.6409,72.4746,-26.0185,79.6771,2.0232,199.9067,139.6435,123.5606,24.4435,58.6129,50.5887,154.3541,97.7425,-100.1058
74.3077,195.3964,122.3102,98.8931,239.2166,28.2271,43.8372,-30.1540,14.9514,-6.4754,211.3125,77.5880,114.8645,-4.0075,25.4389,53.7784,115.1650,107.4236,-135.3644
118.7721,106.6796,124.4432,38.1066,250.6017,3.2703,6.1408,-27.1628,-21.1926,-19.3410,180.2912,-5.3482,95.7598,-35.5556,1.2923,53.8842,51.6037,105.0619,-143.4661
178.9242,93.2542,131.6597,15.4557,202.1861,-2.8867,-34.1945,-13.8237,1.0620,-32.0134,146.1953,-46.9873,74.6978,-34.7998,-0.2470,25.7767,51.4591,34.5112,-104.7238
147.6329,109.1727,133.6095,33.0437,91.8232,-8.9247,-61.9309,-27.4736,12.3738,-39.3734,108.3873,-21.2907,34.1081,-3.9688,-13.4896,-16.7175,94.0604,-101.7763,-86.7710
42.9272,43.8379,80.1590,-5.9473,-60.8878,-80.7990,-87.3872,-85.1127,-27.0292,-50.2455,35.9607,15.7906,-31.0818,3.5738,-54.7680,-26.4182,42.8556,-240.0219,-116.2000
-39.3249,-39.5048,-36.8363,-104.0369,-179.4197,-192.0896,-115.6137,-148.7629,-88.3644,-79.1169,-43.7188,8.0559,-81.6437,-25.8641,-83.3528,-22.3539,-109.1305,-296.7453,-135.3349
-80.7235,-50.6521,-146.1571,-155.1527,-194.1985,-245.8195,-106.1398,-177.5399,-125.4639,-115.5536,-82.8066,-32.6855,-75.0740,-57.7929,-62.1239,-42.4575,-211.7436,-237.6014,-118.7789
-102.6703,-25.7462,-168.0389,-116.2313,-147.5869,-200.4281,-42.3066,-154.8371,-94.9387,-116.8606,-92.4273,-52.6267,-29.9300,-65.4403,-15.1957,-46.4854,-183.7086,-117.6380,-89.0926
-80.7649,-6.4899,-102.5099,-38.9010,-126.9794,-100.6553,29.5123,-96.0892,-13.1155,-73.8466,-105.0874,-32.7906,-8.1532,-41.9864,17.3526,-17.9184,-83.1067,-20.5001,-43.6694
-15.7362,8.6476,-38.7653,21.2485,-134.7359,-23.5100,60.0389,-46.3237,32.7384,-45.5081,-125.6186,-14.9716,-32.2495,-0.7534,32.3503,-18.8195,2.8632,35.7757,11.3597
18.2705,-9.4147,-49.6658,36.1746,-121.0823,7.8407,30.5623,-19.5412,12.3505,-56.1003,-140.3363,-37.0862,-64.7873,27.0883,30.6323,-41.4105,22.9217,92.9733,32.9373
-43.2371,-70.2160,-97.2798,15.9918,-64.6960,43.5143,-33.1701,14.4525,-16.5903,-40.3368,-124.1749,-81.6908,-69.5152,18.0620,0.6896,-20.3156,-14.1291,170.8948,16.6797
-172.6355,-106.6731,-107.0650,8.5694,28.9024,92.4041,-62.8007,51.1880,-35.6875,22.8954,-71.5793,-110.2174,-44.8087,-26.8441,-32.3244,9.9545,-46.3575,231.9619,-0.4846
-244.2888,-75.4472,-88.4802,28.7997,116.6511,89.9107,-41.1222,54.7384,-70.3618,50.6228,-23.1377,-105.2515,-5.4352,-70.4983,-26.3792,-1.6730,-46.0626,227.3927,-11.2705
-166.0156,-35.1453,-93.0221,29.9341,132.3270,43.8461,-26.3943,38.8876,-91.5225,12.6837,-8.0664,-73.6449,26.7939,-52.0668,3.4610,-3.8560,-53.2673,165.3496,-12.6358
-49.3650,-52.0899,-110.7062,-6.0889,85.8689,43.9605,-21.6246,43.5125,-57.3255,-5.1724,-13.9811,-43.1985,32.1064,31.9845,21.0277,23.9406,-85.9416,104.1678,25.3606
-66.2910,-90.0874,-92.8711,-27.1957,49.9667,88.1247,26.0982,64.5096,3.1197,39.2188,-34.8968,-39.9446,15.0495,100.8153,36.4316,27.5809,-102.0545,54.8800,87.3725
-140.6560,-84.1010,-26.6979,-4.7484,22.8243,86.2947,82.9338,73.8067,36.5106,71.7288,-53.3936,-53.8459,-6.1538,103.3347,51.1498,20.9777,-72.0604,-43.6284,103.2165
-86.6289,-73.9452,56.3536,14.7299,-51.4404,20.9028,66.0700,53.5554,31.2839,33.5309,-23.0334,-58.1907,-29.1445,74.8157,28.3589,44.6977,-26.1315,-202.5052,53.0822
30.4882,-116.9659,97.4671,-7.5259,-152.4191,-55.8170,-14.4200,-3.5530,8.6076,-32.7285,35.0622,-52.1915,-58.3026,44.8695,-17.0848,55.5741,-23.6812,-334.2575,-6.0659
35.9344,-139.1855,44.6326,-37.4100,-214.5646,-117.0633,-81.0116,-74.2553,-10.3997,-59.5841,37.1559,-48.0894,-85.3827,3.3505,-31.9022,28.6401,-81.1274,-372.9619,-30.9695
-28.9845,-77.1295,-69.8394,-20.6523,-230.2547,-151.7530,-94.1699,-113.6577,-31.2617,-47.5413,-14.5055,-42.7146,-101.2698,-37.2217,-41.2870,7.5736,-124.2289,-328.6259,-38.4889
-46.6742,-27.1607,-126.7575,52.8491,-232.9515,-146.0982,-87.4532,-112.2038,-69.8097,-49.7357,-47.7062,-30.8335,-109.4365,-53.5862,-92.1118,-7.4243,-68.0245,-223.2908,-51.6787
-40.0675,-41.2055,-68.3420,153.4375,-241.2004,-117.2874,-117.7147,-96.5886,-103.8406,-83.0061,-57.2547,-19.2897,-124.4258,-64.8676,-136.8363,-40.7110,47.9924,-95.2336,-48.9775
-44.8297,-18.0946,11.3585,230.6601,-238.8110,-95.6215,-158.5266,-77.7495,-97.9625,-93.7053,-73.9226,-14.6557,-155.7213,-97.3285,-133.6190,-61.7918,100.3536,-5.1534,-1.4592
-30.7412,44.8059,6.6303,239.4045,-178.7817,-76.5808,-126.6043,-41.3397,-63.0545,-35.0454,-89.4146,-17.0686,-176.6129,-134.0728,-130.4973,-54.5099,50.1467,53.8654,66.9414
-13.7323,28.9326,-53.2623,197.4164,-49.8221,-39.7086,-48.6907,20.1650,-23.2247,61.9012,-105.9682,-28.4828,-140.4702,-148.8060,-129.6812,-44.9560,-34.2433,135.4166,109.9412
-36.0814,-33.2633,-86.7664,173.6931,81.7749,-0.8415,-6.8554,81.8340,27.9236,135.0992,-136.6723,-56.7427,-55.8394,-152.0174,-62.6476,-26.8236,-87.0901,212.6238,125.6968
-85.7928,-30.9336,-84.6579,189.3682,161.8876,0.4849,45.5268,102.3056,84.9349,167.6598,-148.0434,-102.1120,9.6846,-161.1134,38.1876,11.6336,-84.2481,232.5500,136.1340
-129.6884,-15.3149,-67.6418,212.0350,204.4952,-23.3551,149.7193,84.4123,116.3723,174.2778,-112.9314,-132.4352,21.7115,-148.6799,61.8675,42.1736,-31.6655,229.9332,141.7183
-128.0626,-50.3096,-33.1270,236.9439,217.6677,-6.8708,188.2129,81.2500,114.8856,158.7553,-62.2298,-103.6381,8.7612,-78.4325,7.3077,57.1155,19.8872,227.7666,144.5807
-58.1245,-61.6857,1.3191,263.0692,187.0789,54.8143,107.4343,110.4416,93.6206,128.8508,-25.7442,-33.6717,-1.9082,16.8586,-41.7959,72.5927,19.7557,165.9444,154.9454
8.4047,-34.9605,11.4116,251.8423,131.1678,85.7349,14.3179,130.3339,53.7589,107.9235,-1.7319,-0.0544,-11.4462,69.8607,-58.4875,74.6501,-4.1701,36.8932,149.7932
-5.0079,-52.8684,19.1147,213.0467,69.0425,58.7810,-62.3000,115.7652,7.1768,97.2910,11.8423,-26.8650,-26.8612,73.2101,-58.6110,57.0686,4.0757,-90.8517,93.5899
-28.2204,-84.0502,40.0199,217.5083,-14.7774,11.9380,-167.2910,73.0654,-17.7409,73.7063,11.5044,-52.2850,-58.0630,51.9702,-51.0214,41.2187,30.4185,-201.0987,0.8440
38.0828,-35.6349,49.3837,265.5075,-112.5622,-55.9099,-239.0842,3.7392,-21.4040,37.9607,-6.1275,-38.1493,-110.0944,-7.1074,-56.3091,17.3371,35.8530,-294.5552,-76.0502
154.0860,56.9596,54.7723,287.4624,-181.2531,-144.6420,-235.9062,-68.6749,-29.1834,9.5845,-33.2545,-19.2030,-158.8300,-106.8423,-82.2086,-31.6298,30.2588,-302.8198,-105.4557
224.8373,108.6295,80.4912,272.7408,-193.5854,-180.8072,-232.7673,-96.2445,-38.2340,-15.4900,-40.9412,-27.4972,-165.5585,-194.0292,-96.5451,-74.6094,21.7390,-193.9164,-91.7253
202.3867,110.9367,81.8007,261.7942,-136.4169,-128.5504,-235.8764,-73.8774,-26.5518,-38.2686,-28.2946,-51.7641,-119.3685,-228.3166,-79.4189,-90.1448,-11.9405,-35.9669,-51.9435
77.4246,86.2644,15.7427,268.9129,-12.7539,-44.4475,-191.1070,-29.1449,-7.2913,-25.0428,-39.8623,-66.9163,-45.7851,-216.4708,-46.7386,-100.7904,-56.6197,118.0198,1.0462
-67.0921,58.5611,-57.5942,296.5636,122.2492,40.3256,-150.1277,36.3206,-7.3734,35.4320,-77.5276,-53.9924,21.2764,-168.1701,-11.0902,-101.0498,-70.8366,254.9260,50.5806
-83.4170,57.9552,-65.5811,332.2864,201.3787,117.0464,-159.3545,104.4048,-6.3310,89.5895,-89.6364,-20.1141,63.6519,-99.6945,21.1903,-54.6063,-54.5259,321.7047,68.4881
25.4846,73.8840,-23.0770,326.3228,213.6065,120.7277,-159.7989,110.9759,22.7660,79.2429,-65.5704,-2.0101,77.5648,-45.3423,33.5224,21.9321,-19.6005,279.0405,45.6430
93.3523,74.8443,28.7343,273.7153,186.8577,43.7628,-144.9130,46.5830,41.2154,15.2027,-26.5268,-10.2459,63.9634,-6.7667,18.2144,65.2378,38.1808,187.4857,13.6825
67.0248,65.9195,76.4803,244.4491,147.3603,1.7707,-168.3383,-8.1230,11.1797,-28.7505,25.7754,-13.3199,33.9698,41.0065,-9.0802,53.3837,84.9324,122.4512,2.8895
63.8957,53.2778,105.1551,258.9634,108.3493,37.3554,-201.0378,-8.8053,-21.2274,-7.9105,66.1899,-1.3317,10.5825,79.1588,-22.9046,24.2152,82.3550,68.5344,7.4277
114.3577,27.0363,96.3665,259.1430,65.3890,44.6268,-203.6573,-4.9182,-10.2253,19.2819,58.3751,7.3898,6.7695,71.8342,-11.2262,9.9978,61.5113,-19.4895,9.2204
100.2605,5.2549,48.4441,232.2284,27.6186,-22.7545,-208.2207,-34.3733,10.3773,-14.1941,25.4636,11.6762,18.4915,43.1068,15.5242,3.5172,37.0994,-110.1741,-1.0969
0.2927,-1.2297,-23.2853,216.0707,30.0348,-74.9008,-207.2914,-61.5402,8.7924,-53.6002,1.4411,7.8521,43.0648,34.0878,49.2818,-5.3395,-43.4299,-131.2290,-19.3283
-41.9080,-20.9753,-78.9385,194.2285,53.6497,-57.0221,-156.4978,-48.2723,2.5161,-33.5537,-16.2303,-18.6541,70.7575,28.8249,87.9413,-11.6359,-146.8468,-85.4551,-20.0299
37.3578,-42.8573,-66.9683,145.3418,22.9083,-15.5190,-90.2282,-7.2541,-0.9331,-21.1855,-7.3379,-40.5934,68.9591,5.6400,97.5234,-19.5442,-131.3447,-36.1139,15.8570
121.7381,-17.5285,25.6444,144.7966,-49.8969,16.6459,-62.3515,35.9469,-2.2874,-58.0265,42.0620,-21.3024,18.8400,-7.7762,45.0056,-28.6312,25.1790,13.2562,71.7595
124.2949,33.7628,150.2578,247.3816,-56.8689,57.0312,-59.7132,72.1206,12.5265,-40.8130,71.3867,8.5506,-45.1993,-5.0217,-23.8863,-22.0823,168.7317,100.9714,123.1134
95.1651,56.0993,223.5770,347.3852,28.7764,91.6429,-64.9021,86.8296,31.1432,52.8398,39.7795,6.4303,-66.4031,-38.8008,-36.3715,-21.1649,188.0652,191.1633,152.6262
77.5671,73.9824,190.0621,330.1786,125.1962,72.0538,-76.0407,65.4234,32.9362,80.1988,-9.2193,-9.2103,-27.9184,-119.4107,1.8181,-66.9855,122.4343,226.7801,139.4372
49.0089,123.4863,90.1874,260.2694,188.6983,16.1976,-60.0607,30.9852,37.9160,11.4749,-41.2132,-12.6444,31.7365,-168.4297,38.7940,-113.7780,58.7990,242.9306,98.3995
9.5928,145.4536,25.5675,244.6820,238.5976,9.4290,-1.0593,27.2454,54.2975,-13.2911,-52.7340,-13.5374,66.7313,-128.0391,55.0642,-80.6714,40.5653,274.7905,82.1095
-21.1222,66.7309,23.6107,241.4254,262.0011,70.5564,53.4424,54.6800,60.4074,34.3177,-33.6398,-24.6563,77.7568,-30.7315,61.7549,0.8996,52.8928,259.6805,94.1321
-46.2890,-79.8737,13.2047,175.2191,217.2550,120.0995,61.6077,67.2923,71.5552,39.2260,-17.2876,-46.1271,93.1292,62.4439,80.8697,54.4032,47.5787,163.2886,95.4621
-67.9217,-187.7683,-50.2623,93.1489,116.8179,111.6228,42.6110,43.4678,101.3341,-9.1896,-54.5408,-52.3552,106.2264,118.8389,114.8041,91.1222,-1.8464,61.5963,94.6070
-104.3221,-198.1003,-125.1805,55.8983,27.1964,87.7096,38.0380,25.9664,105.9282,0.6133,-107.2131,-7.4900,86.5477,139.3322,118.2615,132.1427,-77.2018,10.4122,113.1887
-173.9514,-165.8198,-149.9864,28.3410,-19.2716,89.3516,51.9689,64.4347,73.5392,91.9510,-108.0125,45.3193,41.6250,148.4075,66.1354,141.6781,-146.7349,-21.8673,122.5173
-196.3538,-179.8606,-114.1021,-18.8364,-59.9289,100.9734,41.6315,130.2039,46.9459,160.6586,-65.4245,15.0962,2.1500,150.6886,4.9985,122.2300,-189.3619,-61.3369,103.7341
-94.7070,-222.6317,-67.9713,-44.6888,-123.3527,87.6063,-14.1772,140.7207,28.9170,142.7996,-10.8106,-64.0956,-29.3495,120.0993,-27.6955,112.6571,-200.9659,-90.7688,74.4424
6.5671,-207.1147,-61.5608,-30.3031,-179.3618,38.5262,-58.7678,81.6201,15.9473,91.2028,29.1893,-70.1147,-58.6427,70.8546,-34.3781,98.8434,-194.8582,-100.6706,43.3149
-39.0117,-145.6906,-83.3611,-21.0492,-210.2279,-17.2326,-29.8762,27.7353,51.9352,60.0544,-0.0032,-6.1731,-73.5750,50.4896,-3.9010,62.0528,-185.0389,-101.7572,34.3020
-136.2387,-123.4404,-103.0449,-55.1439,-237.6858,-37.8868,52.4764,21.9228,129.4683,35.3255,-95.3363,25.6950,-74.9075,37.5372,45.6201,23.9497,-177.0543,-94.2303,77.5259
-148.2375,-131.7655,-115.7078,-104.5784,-238.6008,-16.8116,134.5259,33.9239,178.4628,24.3537,-155.7579,6.6223,-77.4867,-18.9526,53.0151,-19.7337,-165.9527,-52.3952,125.3898
-122.1914,-104.1242,-92.9562,-94.2677,-156.5493,21.9480,197.6708,51.0383,182.4201,66.6482,-123.6286,-7.8774,-69.5360,-77.0786,31.0191,-72.7435,-127.9461,43.0719,117.6118
-102.9582,-53.0544,-15.8693,1.8266,-18.6207,58.8136,234.4786,92.7657,165.2513,127.0255,-45.0372,13.3368,-29.4105,-69.9932,40.1505,-79.6214,-62.2543,152.8389,99.5536
-48.9706,-28.7818,32.8636,98.0793,89.0608,85.9489,235.9220,140.3139,137.1021,141.4278,26.1543,59.1358,31.2883,-20.8937,60.5684,-22.3764,-28.1501,208.8425,126.0995
-14.4066,-44.0555,-10.5819,104.9285,147.9332,113.5999,217.1134,157.6781,125.9189,128.3143,67.8177,82.2236,89.6493,32.8062,70.8080,34.7145,-57.8255,198.4136,152.1005
-72.5138,-104.4935,-56.5348,50.1787,187.7741,156.4826,192.0683,155.1993,135.3029,121.1252,71.1804,58.0229,137.1561,101.8805,113.5841,56.9839,-101.0353,150.1325,126.9953
-127.3744,-182.4540,-39.3584,-3.2420,192.4837,189.6264,152.5235,163.4978,118.4097,127.7788,48.9369,41.6806,157.5094,164.7189,156.9695,54.0509,-133.9704,79.7883,73.8669
-85.6878,-198.0150,-43.7703,-53.8094,141.2874,185.0942,112.5749,191.5150,89.6328,191.3963,24.7108,59.0737,142.0022,173.9400,128.7948,23.1801,-184.7080,22.4263,39.5970
-27.4352,-155.3324,-99.8026,-89.0738,88.2858,175.7198,112.4944,226.9678,100.6314,280.3166,19.6843,45.2432,130.5139,144.8307,95.3550,-1.8293,-220.9129,19.2394,48.2830
-28.8536,-158.3846,-116.6922,-72.2693,97.9265,177.1261,161.1832,232.1173,118.4763,249.8181,46.5796,9.0260,159.7067,113.6228,135.9058,30.1037,-200.5139,28.2422,76.1707
-54.2775,-204.0271,-91.2356,-42.6211,138.8430,135.0692,229.5997,179.0700,123.7636,126.2226,72.6875,50.1932,191.0656,75.1285,170.9950,76.5793,-178.9661,-12.5563,74.2652
-79.2109,-180.7502,-94.9485,-52.9986,131.3412,56.4045,275.4383,109.2532,158.8739,105.2218,50.0451,148.9901,171.6947,39.1244,137.3225,74.9115,-178.1500,-52.2217,48.2655
-104.0324,-94.3518,-92.5150,-47.6444,75.1234,24.2942,244.3996,68.3703,149.7075,141.2651,4.9721,197.1187,118.0807,36.4640,99.1845,58.8729,-112.0313,-23.4097,20.6593
-85.0296,-42.6351,-23.9752,19.2387,35.0066,19.1847,119.5666,11.4632,-3.5274,20.6043,-5.5356,198.6843,66.4697,42.8495,75.7915,52.0852,12.5384,12.3464,-56.1882
1.2091,-22.9067,57.3955,63.0137,21.0155,-50.0544,-24.2721,-99.6307,-166.7863,-174.3202,13.5528,202.9526,16.1888,16.9856,26.3973,8.6431,65.0555,-18.8184,-191.2908
100.1650,10.8454,88.7181,26.3863,-9.9563,-144.7883,-103.0852,-186.3988,-177.2392,-213.4531,38.7855,189.0549,-26.2048,-7.3423,-10.8894,-54.9896,27.9544,-65.1797,-282.3146
146.2076,32.8663,79.1332,-9.4618,-54.9100,-164.7686,-121.1879,-183.7062,-131.2525,-157.7681,60.6375,177.5089,-37.4853,22.3808,5.9652,-77.5372,3.1428,-59.0159,-291.4969
123.4877,39.7143,43.3974,12.3526,-71.3682,-137.9059,-109.3646,-155.7845,-149.6727,-174.0000,43.4662,228.4849,-33.3843,76.0747,20.8450,-88.1106,6.6687,-32.2505,-291.0462
65.9461,74.4676,-4.3924,27.7055,-57.9962,-138.3723,-66.7326,-159.0850,-164.6200,-203.4655,-18.7230,280.4405,-51.1857,91.2580,-8.2969,-127.8053,-17.3188,-38.5859,-288.7696
30.0766,103.0608,-29.0609,-14.1772,-53.1500,-141.0721,-21.3175,-148.0685,-129.3404,-150.3890,-63.4503,241.8635,-93.6153,76.4256,-41.7683,-145.4029,-61.5106,-68.9397,-250.3533
45.0773,69.8872,-23.4781,-70.2871,-81.9327,-106.5495,-17.2620,-108.0233,-110.1404,-85.7726,-68.2425,184.8833,-149.4073,79.1827,-56.4686,-113.7753,-85.8327,-90.6620,-228.2554
93.8863,43.7990,-9.6939,-91.0350,-135.4996,-81.7338,-37.5802,-103.6403,-134.2000,-88.5065,-71.0930,214.4843,-223.3150,90.9482,-81.7970,-93.5329,-90.2803,-103.2829,-264.0946
153.1521,125.6842,8.1872,-85.3311,-179.1888,-110.7732,-57.8181,-134.1609,-170.5715,-114.2901,-71.7189,274.6722,-306.1479,75.3211,-123.8027,-112.3514,-88.9459,-116.8781,-298.4522
221.7401,293.8456,32.8397,-77.6478,-186.1705,-134.6377,-89.8349,-109.2490,-173.6514,-75.9689,-59.6928,277.0695,-356.8891,61.2044,-139.7608,-128.5125,-78.3390,-99.7760,-274.5399
308.5879,463.4718,54.8687,-54.6764,-162.8095,-69.4340,-94.6861,-7.2575,-100.0807,29.3502,-69.6244,268.7674,-338.8907,102.2162,-106.6729,-118.0850,-51.2782,-14.1911,-196.6367
410.7150,592.7952,59.7870,3.7859,-126.0287,47.5830,-24.2448,79.2157,-12.9998,84.8292,-104.9647,319.2187,-273.0334,167.9406,-63.7841,-101.0635,-20.3093,84.5660,-111.1598
499.1168,672.1561,32.1230,55.9454,-96.1775,92.6341,36.4630,77.7094,-39.2677,9.5869,-123.4243,380.9147,-238.2331,186.0923,-52.9252,-101.0279,-9.7199,94.8096,-94.1748
540.4453,702.0457,-4.8508,38.4571,-105.7273,41.0927,-17.8613,18.1868,-146.8911,-99.3292,-117.3844,382.6810,-270.6036,160.4598,-69.6098,-113.4220,-11.1469,34.9664,-160.2583
532.2938,682.9836,12.7327,-20.7354,-142.9342,-16.4020,-125.3166,-38.0077,-199.7550,-131.1502,-106.6465,339.0296,-299.3054,135.6134,-97.8274,-118.5660,4.8782,12.6576,-227.9057
479.7245,581.9364,78.2674,-38.9866,-138.9883,-46.9394,-175.5808,-83.1975,-188.9229,-132.0848,-102.7039,277.6768,-263.7128,91.8360,-106.6246,-129.5934,23.7076,35.5405,-254.0743
360.7244,379.6503,99.7750,-17.9976,-82.5266,-90.2136,-172.3636,-136.1897,-169.1763,-158.8430,-115.6522,185.8528,-206.4409,-1.9275,-51.5935,-168.2375,16.0934,34.9851,-262.5635
168.9396,164.3115,50.5349,-18.2648,-42.1005,-121.2896,-156.7494,-175.8671,-133.9696,-180.2372,-131.3058,94.5377,-170.8432,-74.8645,3.1122,-201.8197,0.6392,24.6204,-251.1696
-39.2266,53.6736,-7.2992,-36.8905,-36.8791,-87.6120,-143.4649,-175.2254,-109.4237,-208.1307,-131.2557,72.2576,-147.2797,-35.9240,-68.0097,-209.5053,-11.1715,50.0985,-232.8431
-186.5326,18.1629,-50.0690,-40.8690,-25.8796,-37.2067,-150.1918,-169.2625,-141.5762,-275.1256,-150.2828,93.4563,-150.3383,50.4142,-176.3669,-234.5232,-42.2644,73.9657,-245.0981
-250.4012,-77.6808,-96.2273,-55.7174,-13.0306,-49.1715,-156.0156,-197.3467,-171.4333,-308.1884,-202.4839,59.7691,-180.9889,34.7432,-117.8874,-263.8210,-75.0618,56.7377,-238.2249
-278.6620,-261.3146,-130.0649,-114.6234,-24.9695,-99.6884,-120.9242,-220.2166,-137.7594,-251.7504,-220.0694,-44.7863,-174.8835,-67.4126,15.9094,-232.6082,-79.0700,33.4774,-159.4944
-326.8393,-422.9250,-126.5858,-189.0298,-41.0964,-108.3284,-84.4614,-188.5063,-94.9238,-190.8799,-179.3205,-147.7920,-136.9346,-100.9272,-15.8906,-194.6601,-82.1786,33.3653,-81.2263
-387.7816,-487.5992,-92.8171,-226.8382,-35.2774,-57.4250,-84.9952,-127.8495,-85.6921,-190.3203,-143.5966,-200.5721,-153.9820,-56.3972,-125.5240,-223.8895,-90.9793,46.9721,-38.0882
-416.6560,-486.9609,-61.9643,-206.7407,-10.2268,1.6172,-62.5013,-80.9045,-69.3894,-192.9278,-133.2282,-212.6253,-193.5331,-74.7393,-78.3847,-221.6694,-65.0480,72.0837,47.3513
-413.7886,-481.3857,-84.0419,-155.7128,28.6627,24.2967,-0.6350,-52.1983,-30.0328,-162.5381,-127.0091,-226.2791,-150.6260,-165.8678,48.7685,-123.9417,-37.3434,92.1625,157.2620
-417.7019,-505.2766,-162.2221,-135.0190,73.1791,13.7659,22.1763,-42.1372,-2.0048,-137.6416,-141.1676,-271.6570,-76.9000,-204.9334,54.6450,-81.4024,-64.8676,77.2503,193.0768
-429.7942,-547.2009,-205.6246,-163.7138,118.7978,0.0117,8.6907,-40.1333,-7.8068,-120.7911,-158.2119,-309.1841,-78.4669,-172.7726,-29.9823,-164.5342,-84.3720,57.4430,175.5998
-411.3630,-541.2940,-143.2487,-175.7962,174.9083,16.4610,20.4337,-8.0794,-49.7003,-80.2618,-106.1003,-275.7782,-102.8296,-137.0943,-90.2239,-214.8624,-25.8772,84.3127,161.9530
-339.7578,-446.5685,-24.8105,-123.3722,219.9803,78.3592,10.4617,49.7302,-111.7557,-42.9544,11.6388,-198.5925,-66.5091,-98.4810,-116.6903,-154.3156,50.3533,122.4572,121.6003
-234.2087,-323.1122,69.7121,-61.3302,212.0952,136.7433,-71.3661,76.1462,-165.1384,-51.8391,110.5960,-160.2600,-14.1066,-58.7878,-110.1648,-83.8046,89.2254,101.8130,53.4105
-142.2757,-246.3368,117.2065,-50.9760,166.8539,112.0476,-142.0712,59.1392,-198.9679,-75.1725,147.3057,-169.8823,-5.3051,-70.6795,-66.4688,-47.5156,121.0297,29.1285,7.4368
-98.2324,-211.1328,116.8370,-66.6504,114.8572,20.9545,-141.1760,33.3297,-207.8187,-67.4678,135.2503,-173.2917,-27.0528,-108.4925,-38.2436,-8.6401,133.5982,-53.2516,-20.1481
-90.0339,-198.3725,78.1178,-70.0576,31.3417,-41.6809,-125.2167,1.6079,-178.6502,-51.9926,97.4976,-154.3738,-51.3758,-93.6418,-42.6516,26.2953,83.9541,-133.3844,-34.4070
-87.0908,-224.1989,35.0832,-79.0257,-62.8634,-55.2945,-121.0742,-33.5855,-135.4154,-50.5525,61.7123,-145.0950,-50.5345,-45.9824,-28.1401,45.1831,23.7515,-182.3253,-3.1966
-78.8303,-266.4748,8.7750,-100.7556,-59.7560,-50.1668,-94.1642,-28.8798,-124.2523,-29.5189,49.9878,-161.0123,-8.2236,-21.1414,1.8835,58.0397,22.5057,-146.6755,48.3473
-65.9673,-270.2946,-4.9931,-93.0737,54.8857,-3.1378,-59.6476,23.6915,-140.4433,17.1348,65.0975,-175.6054,38.8650,-3.7419,-9.1914,54.6663,49.4769,-49.2336,68.1437
-55.6276,-240.4033,-10.6217,-50.4229,142.7184,67.4969,-56.9289,69.2285,-150.5386,50.1641,88.3056,-166.2376,49.9985,3.3375,-50.5139,44.8782,55.9402,-4.8216,66.3525
-61.8341,-213.0349,-22.5919,-40.8970,110.0386,60.8678,-67.9492,72.8820,-150.9629,63.1227,77.8449,-157.3592,30.3769,-47.2588,-64.6925,52.8983,50.2084,-75.6862,57.7662
-66.6176,-181.7877,-52.4823,-94.5850,12.3817,-16.1899,-55.3906,45.7478,-140.6270,57.5600,19.7252,-177.0598,-11.6257,-128.0439,-53.6587,44.0047,39.9773,-174.8746,34.1143
-24.0404,-140.2552,-60.7036,-135.1049,-53.3177,-43.1702,-16.2693,7.5357,-104.1797,6.7059,-28.7712,-203.2141,-59.9977,-163.0774,-59.2363,-4.7355,30.8607,-182.9490,19.2966
62.0995,-100.7771,2.9355,-95.3924,-51.6102,-16.0384,29.0065,-19.9704,-53.9716,-56.6669,-17.6409,-206.5121,-66.6754,-150.3044,-73.2256,-28.7068,61.7248,-118.9746,24.2953
130.0736,-28.9251,98.9333,-26.1058,-23.9987,-30.6805,54.8568,-29.1123,-21.0942,-50.2490,23.5486,-199.3174,-32.6414,-135.0072,-53.6092,14.2411,118.2273,-105.2247,4.9195
141.5208,98.2969,116.6037,-12.4263,-44.8024,-88.5667,46.7570,-43.5008,-8.9892,14.6593,44.8092,-206.4605,-22.5586,-140.9035,-13.1138,82.4702,98.0507,-189.5450,-59.0872
114.3889,182.7284,23.0452,-56.8507,-127.9547,-135.6594,15.3707,-71.3169,-3.4238,58.4250,35.3491,-237.1189,-43.6745,-175.5710,-9.0460,130.3694,-14.8026,-303.8478,-129.6335
90.8921,131.8197,-69.7244,-106.3030,-200.6396,-169.5983,-13.6150,-84.5689,-3.6653,66.1976,16.2168,-273.6892,-49.8603,-212.1719,-55.2734,125.8750,-79.6154,-366.0251,-160.8545
102.5083,35.8272,-56.1118,-118.1975,-203.4658,-178.9733,-14.0951,-74.8400,-9.7887,59.9015,25.4190,-265.7657,-52.2740,-196.6460,-116.0498,55.1852,-22.8073,-330.8128,-132.2090
138.1589,29.4211,9.9270,-68.8816,-159.5116,-131.1612,25.4768,-59.6641,2.5854,39.8247,68.0986,-201.7422,-76.2796,-143.2825,-153.0578,-15.6244,47.5332,-201.5393,-65.5560
147.9394,77.1559,28.1839,23.1283,-120.9971,-51.9630,85.8424,-32.8922,59.2126,29.7255,84.3925,-155.5932,-81.9156,-130.9262,-130.9320,-9.7838,53.1092,-62.2113,7.2295
103.5483,79.2855,19.2990,87.1463,-105.9071,10.4642,142.5965,21.0490,137.7191,63.7978,38.0978,-166.8161,-41.6100,-165.5340,-46.2408,36.8081,51.9366,-12.6966,99.4238
42.0069,56.8400,30.7989,76.3447,-99.4683,47.6695,200.3236,81.1658,188.9445,126.3590,-20.1661,-173.2168,10.4934,-166.1614,42.0229,55.5449,61.2440,-52.4260,201.4433
35.0263,63.9324,23.1139,8.6991,-81.4821,45.2322,257.9450,100.6250,214.0448,173.0599,-32.0627,-147.8065,56.8588,-105.7565,92.0229,68.5060,17.9808,-125.9065,227.3857
99.6273,56.0634,-15.1171,-89.0101,-48.5776,-23.2232,280.3427,52.6267,250.9727,168.6629,6.9024,-148.7124,104.5798,-54.0706,125.0636,122.9804,-51.3671,-222.8723,161.5827
145.6884,-16.5877,-20.8164,-185.9023,-18.6742,-124.9223,260.6260,-27.9855,293.9565,119.6902,66.1293,-188.3911,125.4206,-63.2445,128.5948,199.7553,-48.4653,-317.5833,122.3764
96.8020,-95.7682,11.2304,-212.7070,-3.4989,-179.9666,253.9997,-60.2043,312.2349,96.4988,98.7390,-213.4338,97.7312,-97.4830,58.0738,245.4611,28.5615,-328.6005,173.1047
41.8891,-89.3080,34.2557,-139.9340,13.9163,-153.3004,294.2131,-19.9574,311.8443,127.0254,83.4739,-204.5532,65.1997,-111.8328,-29.0085,229.3801,99.5102,-250.0331,235.8348
89.2444,-2.3815,46.9082,-46.3271,45.7045,-88.4246,340.2071,20.6238,308.1384,127.9460,50.5836,-180.3240,79.9991,-130.1248,-17.4551,161.4558,117.8302,-181.5034,238.9658
136.4958,62.0530,45.5029,-13.8425,61.2370,-47.5701,357.4641,16.8643,306.3109,76.3262,21.2821,-155.9666,141.5138,-179.1526,92.8360,83.5149,86.9083,-171.4075,206.1341
53.3705,47.8597,3.9215,-31.0650,30.5871,-43.5792,375.7556,16.2715,328.6141,72.6861,-5.0730,-145.8099,214.4190,-213.7000,199.2690,36.4914,37.4092,-181.4138,192.6722
-33.3631,39.2026,-46.1225,-52.8541,-19.0103,-53.3357,404.5835,43.3051,366.5164,127.4669,7.4081,-143.8734,255.7122,-187.1741,230.4109,40.2444,-0.7974,-193.0827,202.2005
40.5646,112.5024,-62.6515,-58.6640,-49.0474,-67.8148,384.2845,53.3328,352.1298,144.6456,76.3609,-122.2536,242.1319,-119.6073,193.5504,92.4763,-35.3379,-205.3106,179.6235
160.0430,174.1399,-67.9817,-43.1560,-64.4360,-80.6071,300.8065,36.4101,272.8230,121.0362,130.0358,-85.2297,204.2531,-43.9822,149.2589,160.4275,-67.9792,-187.6223,113.3388
155.0595,122.4058,-66.0049,-23.8639,-62.3952,-73.3613,240.3669,30.3929,209.9645,100.3184,114.2276,-67.4636,187.7621,13.1764,138.5469,195.5854,-52.8080,-134.2776,82.7546
103.8348,51.7360,-16.6303,-17.3678,-13.6082,-52.3593,239.5323,36.4705,194.1039,63.4982,78.3394,-80.6996,183.5014,8.6744,119.3127,175.5423,21.9947,-76.0703,119.7246
135.4017,81.7587,71.7660,11.1356,53.0958,-31.7035,208.9463,37.0822,164.0476,36.9300,81.8431,-107.3603,164.1065,-42.2285,49.2890,123.4082,96.8739,-17.5258,148.7846
191.0138,143.3400,155.1475,83.6910,63.2350,9.0679,99.0174,48.9289,103.0689,70.3709,123.6734,-116.0496,150.0889,-55.0307,-11.9015,92.1453,129.7832,38.7773,136.3714
185.0799,133.3735,205.2811,136.1847,18.1692,65.8824,3.7602,79.4512,67.0683,100.2471,172.4857,-88.8540,161.8476,-28.5852,8.4717,110.9175,118.7904,59.1430,126.4796
153.8843,99.5809,189.3593,119.4218,-14.3363,82.0803,11.4024,103.1433,72.8017,87.4007,187.1640,-68.0780,174.5157,-37.4146,88.9348,139.6900,68.2512,44.4630,121.8089
129.9562,121.6810,112.7433,80.0624,-10.5277,47.9774,70.7569,105.1599,78.0560,103.0457,145.5275,-112.0810,179.3763,-55.1628,165.4041,131.4298,22.7987,24.3004,95.8864
93.9775,170.2817,51.9787,58.2888,7.8422,10.3853,85.1840,77.1297,63.0334,114.4714,80.1903,-189.2310,199.0694,-19.0828,190.7899,112.1365,45.6923,-14.9996,62.6406
80.3949,171.4631,49.1582,44.7070,31.7524,-22.8348,63.5214,13.8502,56.1747,30.4312,42.6207,-214.1818,220.8986,7.2525,150.1346,117.5559,123.2879,-60.1094,42.9139
123.2625,115.5764,76.8194,63.0768,64.8555,-51.0720,92.2986,-33.7537,83.0097,-43.0623,53.5324,-174.7273,217.1411,-23.0083,98.5889,124.6166,188.3149,-27.5186,50.2214
142.6770,64.3586,118.5879,126.8836,106.5651,-30.5232,172.6000,-7.5522,121.5831,5.8004,105.2057,-128.7338,211.2629,-15.3273,105.6098,114.4987,202.8898,66.0137,87.1903
83.7995,65.7797,152.0818,153.1921,137.6205,24.6914,195.9550,41.5191,123.5831,46.0148,166.8938,-114.4368,230.9630,55.3493,136.6291,97.5181,154.4540,77.5228,99.7654
53.7493,90.0631,134.9500,83.0727,123.7317,31.2541,128.2815,29.0752,80.6670,-10.4928,198.1764,-123.9137,250.2172,73.4606,119.5365,69.7468,65.4099,-8.8330,53.0990
123.3441,96.4381,95.1005,-8.8462,76.5828,-14.6820,70.6270,-15.0024,36.5092,-35.9303,184.5187,-127.0159,240.6146,25.3101,82.6183,46.2658,12.1798,-55.4081,20.2798
177.8580,100.6105,89.9764,-47.4589,49.2442,-48.9288,62.4037,-31.5315,14.6250,-2.9066,142.4296,-105.2329,208.7770,13.9566,80.2768,57.4283,28.2478,-35.4282,42.8391
150.8518,108.6732,92.5740,-54.4588,32.0706,-70.4483,18.5306,-53.5364,-14.9603,-34.8536,103.0085,-72.3711,168.0990,40.0709,80.9027,66.7489,53.1055,-38.0234,45.8785
140.7227,88.5630,68.3000,-43.5208,-14.0303,-91.7539,-64.9658,-95.3891,-64.1676,-101.7796,88.1225,-43.9106,140.7642,43.8057,50.2869,36.4447,49.9815,-53.4248,13.4202
147.7582,41.9575,50.0859,7.6167,-32.9201,-64.9886,-74.0216,-85.3560,-82.7568,-77.4679,75.8266,-13.9145,153.4138,57.1563,25.0826,22.9280,54.9805,-25.3000,30.8652
54.1064,-5.0107,48.3261,56.0741,27.3742,6.7816,1.1450,-18.2222,-40.8952,-4.4123,40.5594,7.8811,182.8814,105.6111,30.0931,53.5627,79.6228,-4.4110,100.2965
-54.5690,-35.5609,44.0648,38.7159,71.1514,35.3544,32.5170,12.8279,-1.0616,2.9110,25.6114,-4.8656,175.4652,122.7516,35.5528,57.9342,90.2931,-40.6237,123.8142
14.2574,-4.3265,58.9295,4.1816,16.3948,-2.5060,-29.9378,-19.7875,-31.0551,-44.7376,73.8328,-35.9558,142.1497,76.7366,25.3935,18.4073,79.9236,-78.3847,54.7052
150.8537,94.9458,96.9032,34.8156,-46.0789,-45.3679,-91.5128,-64.2054,-93.8909,-81.4921,136.0897,-39.5980,145.4236,13.9431,23.4119,-13.8737,66.2385,-78.0243,-60.6761
107.3179,148.8900,110.5331,77.2407,-27.4606,-79.0733,-73.0895,-106.6099,-112.7788,-96.8423,151.0671,-19.6904,187.0382,-34.2417,48.1088,-41.6709,40.6229,-71.2164,-137.8613
-35.0522,91.8816,82.3264,21.6506,14.8691,-125.9552,-12.9084,-148.0643,-88.1498,-109.3352,118.8479,-21.4579,204.5131,-55.8924,90.2473,-71.1906,-17.2681,-66.4087,-126.9885
-35.7359,16.9393,27.7750,-95.1839,21.2354,-151.4662,17.5174,-149.9938,-57.2533,-121.3783,54.8719,-49.2271,179.7304,-36.4047,130.9131,-60.1650,-84.6069,-48.2950,-59.9271
43.4413,-24.6951,-42.6643,-150.1636,21.0807,-120.4846,25.3975,-105.5856,-14.6673,-117.2101,-6.5535,-67.8025,159.3123,-4.4548,160.8123,-22.5883,-112.2617,-36.6784,16.1838
-24.0769,-95.2818,-98.1316,-151.0428,24.7445,-71.6050,57.2048,-60.4313,39.0523,-91.1307,-10.8059,-75.8043,162.4854,-2.6397,178.9663,-3.7569,-111.6719,-44.0189,92.7194
-210.2397,-178.9031,-117.3165,-186.9762,-8.2916,-43.9674,89.0786,-30.5000,61.3082,-58.9636,25.0050,-94.3209,157.1130,-10.4093,179.0519,26.1760,-138.9879,-41.7146,130.6940
-287.5974,-189.3382,-117.3129,-218.0146,-69.5607,-26.8337,71.2220,-4.4507,47.1758,-18.5938,38.9779,-99.8186,135.0048,8.5040,153.7741,73.8011,-166.4442,-21.4209,87.1301
-180.8798,-142.5793,-84.0522,-151.5553,-90.8149,-25.1998,45.5257,-1.5039,50.9353,39.9627,38.8757,-69.2738,121.3860,28.5763,113.4357,62.1260,-116.6633,-18.2363,24.7276
-46.2900,-117.9592,-5.5417,-60.0194,-53.8652,-61.2520,79.7862,-33.9242,94.3416,76.6699,42.8363,-53.8053,111.0283,3.9191,80.0699,-3.7860,-36.7079,-45.1889,22.0325
-43.7827,-146.8899,31.7522,-72.7307,-30.0668,-99.7696,136.4995,-57.5679,136.9572,62.1220,11.1797,-94.0952,81.6027,-62.8116,62.3437,-21.1086,-37.3920,-59.4969,52.3953
-149.6228,-217.4124,-38.0443,-143.5981,-71.6005,-83.6097,136.6830,-29.1878,139.8019,50.1926,-57.7118,-137.2262,43.4739,-118.7763,48.5498,12.7595,-95.1783,-25.9286,81.0768
-226.0373,-273.6895,-140.5881,-158.3774,-129.6376,-27.3486,84.6728,25.0389,99.7098,68.3961,-115.4385,-139.5386,7.2305,-107.8056,23.7929,4.6332,-125.3885,21.0006,115.1278
-216.8717,-262.6239,-203.0891,-142.6355,-142.9941,16.7606,33.1145,47.8991,36.8180,54.0565,-149.3933,-134.5481,-35.4651,-41.3213,-8.5821,-44.6189,-140.9835,28.7886,118.1625
-195.2810,-235.2362,-238.2584,-163.0549,-129.7629,41.3529,-7.2351,32.7573,-21.4015,-5.2961,-153.9387,-136.0784,-62.5278,0.8510,-25.2392,-43.7756,-158.5564,3.4043,68.7303
-231.4267,-253.1386,-232.3444,-178.7583,-116.9368,54.7011,-55.0827,12.3935,-55.8015,-37.9859,-119.7954,-116.1359,-43.4905,-13.8434,-14.8339,13.1853,-127.4414,-37.7622,29.3944
-274.1679,-243.2910,-157.7292,-146.0703,-85.1349,29.8532,-95.4130,-14.1400,-64.2073,-31.9961,-88.9429,-81.6375,-5.8694,-29.3606,-4.8615,24.2067,-66.1451,-111.6693,13.9381
-201.5480,-140.3168,-67.9087,-112.7280,-45.9244,-42.6155,-91.3179,-62.1450,-60.7513,-37.6291,-78.4493,-51.9409,9.8074,-15.4328,-23.6425,-46.9294,-58.0388,-180.3968,-40.4230
-32.9394,-50.9841,-26.1836,-114.2546,-46.5229,-107.7588,-63.0252,-98.3401,-64.0402,-58.3918,-48.3030,-27.6200,9.5978,-7.3211,-45.1043,-104.2797,-87.9042,-154.3729,-111.9437
3.7603,-96.2558,-29.8219,-124.9089,-72.8633,-123.3074,-68.7911,-101.0419,-66.5735,-73.1737,-37.2166,-38.7492,-0.6691,-16.6750,-27.8563,-92.9401,-83.2039,-64.4108,-118.3846
-187.5730,-213.9242,-59.1616,-141.0594,-76.8691,-125.8418,-86.5134,-115.6826,-45.6192,-85.2635,-108.7119,-98.6949,-34.7113,-25.6923,1.2202,-83.1493,-58.3359,-34.1153,-74.3967
-331.7239,-245.0341,-92.8128,-171.4544,-69.4512,-144.0568,-59.1141,-148.6284,-29.8721,-89.8073,-179.2136,-127.3811,-74.0014,-41.5794,-18.4134,-99.9587,-56.4053,-49.2365,-49.3275
-208.0319,-150.8887,-97.9001,-164.8351,-72.4556,-128.1369,-42.6029,-137.2359,-69.0060,-89.3686,-158.0185,-61.4616,-83.5732,-61.5323,-73.4709,-75.3600,-54.0175,-2.1999,-52.9777
-46.1796,-61.2081,-77.3244,-89.2974,-60.4788,-65.5661,-91.6459,-97.0726,-115.6322,-116.0179,-112.2060,30.9519,-69.4890,-57.0457,-100.5108,-24.8421,-34.5972,67.9466,-61.6590
-104.5511,-86.9224,-72.1815,-31.1941,-38.0928,-47.2013,-96.7121,-107.8550,-82.3810,-157.0970,-103.4270,53.9778,-66.6625,-35.8812,-97.3701,-32.4929,-38.9729,51.6634,-60.6751
-229.1831,-172.1968,-103.3263,-73.2655,-59.0670,-96.5126,5.8782,-140.9192,-11.1162,-153.1546,-102.9219,10.5582,-94.3923,-25.8358,-104.0937,-75.4965,-75.0948,-9.7040,-33.1566
-214.7628,-224.5963,-148.1408,-154.0984,-115.3545,-100.4499,70.0563,-117.3142,-2.3664,-115.6196,-125.0868,-35.4658,-135.7733,-21.2013,-112.2700,-84.4988,-85.5704,-22.9564,27.5989
-162.4807,-256.3570,-159.1547,-182.6044,-131.5234,-25.5730,19.6201,-69.6462,-34.6080,-112.4133,-188.3186,-52.1195,-152.2792,-19.2475,-97.2764,-78.2524,-49.6871,-13.3906,101.2625
-186.2963,-281.3922,-122.0446,-177.5039,-87.3868,14.9325,-20.0032,-51.9888,-44.2489,-128.0318,-224.3606,-57.9113,-138.4580,-27.1720,-79.0766,-88.3129,-25.0148,-17.0179,146.0973
-207.4578,-262.4203,-92.8141,-179.3322,-33.6335,-13.3870,-10.8537,-33.3553,-59.1258,-90.1837,-202.8454,-71.7036,-129.9986,-21.6600,-73.1522,-99.3266,-48.5157,2.6404,122.2370
-192.2639,-228.8610,-106.4901,-175.1110,-0.1673,-25.9413,-48.2639,-8.6364,-87.5671,-22.9630,-171.4523,-89.3465,-130.7064,-12.3650,-64.4815,-107.4280,-80.9493,26.9997,49.0592
-208.2896,-235.0967,-113.8638,-181.6623,18.9254,-20.3674,-98.8518,-27.0695,-62.6217,-19.0995,-135.8414,-118.6343,-109.7783,-61.0784,-63.5906,-108.0394,-90.7149,-15.1947,3.9404
-227.9007,-233.1754,-99.7957,-225.7053,23.4133,-66.2231,-59.2378,-73.8752,-3.9630,-77.9242,-93.1303,-154.3047,-79.2332,-136.0509,-85.1884,-89.2891,-104.3601,-91.8761,6.8323
-173.3904,-180.1149,-121.7324,-241.1816,12.0152,-135.4065,12.4608,-101.9808,-12.7231,-117.9094,-92.7580,-132.2713,-75.1787,-122.3797,-88.2126,-88.5931,-128.8620,-117.5512,-8.7095
-97.9871,-145.1904,-164.8294,-170.9615,-10.4023,-148.7536,3.1497,-121.2159,-78.7240,-121.2980,-129.0717,-38.6039,-93.0914,-31.1129,-50.2305,-128.6279,-114.2270,-108.2577,-58.3484
-103.8761,-170.7232,-145.4063,-86.9955,-44.3824,-112.7353,-67.2682,-131.7711,-111.2828,-120.3725,-133.2588,21.4989,-118.2984,19.2000,-39.3284,-147.0628,-38.8569,-108.9077,-68.0487
-152.0251,-192.2662,-67.2777,-56.9832,-72.3281,-82.6627,-115.4643,-102.3704,-106.2043,-97.8465,-105.3903,-0.4636,-145.8961,-2.4167,-101.1053,-112.7631,40.5424,-85.4522,-14.5794
-139.4684,-168.2146,-7.0759,-53.6990,-62.0408,-77.5679,-107.2624,-64.1147,-105.6520,-52.8721,-95.2615,-28.3490,-144.9026,-54.4032,-161.8363,-83.3606,59.2563,-33.1535,31.3701
-107.0367,-141.6891,-0.2619,-76.9372,-33.9583,-85.0891,-65.8514,-69.6738,-101.3612,-61.1145,-106.2934,-37.6487,-103.4133,-105.7890,-141.4701,-86.7643,18.9341,-29.2021,29.7737
-142.8096,-145.4849,-38.3864,-149.8399,-50.6589,-92.2935,-45.8246,-90.7234,-80.5395,-126.2283,-121.2541,-52.2420,-78.7658,-102.0601,-74.4908,-97.3595,-29.2480,-88.4357,13.7292
-145.6048,-139.7915,-83.6005,-200.9328,-119.0427,-101.5435,-65.5044,-90.1261,-55.4468,-141.1541,-128.4554,-20.9450,-109.0235,-35.9397,-41.5802,-111.1537,-47.1839,-144.0935,-1.8218
-9.3670,-83.9842,-80.8077,-164.9172,-192.3855,-118.8601,-87.7343,-97.1463,-43.7510,-99.9637,-102.2480,54.7073,-151.2099,-20.7999,-57.1739,-131.6537,-38.4430,-177.1315,-40.7308
89.3125,-27.6526,-42.3892,-110.7913,-248.3130,-122.4024,-111.2649,-116.5612,-85.6620,-103.3288,-48.4878,62.7513,-167.1865,-99.6298,-82.8161,-145.3308,-35.4855,-188.2413,-90.3724
-10.2790,-43.2439,-44.9837,-114.6488,-269.1792,-81.9694,-158.9364,-92.3085,-178.6405,-119.2036,-26.7365,6.0986,-167.4396,-145.6946,-91.8630,-140.3011,-74.9611,-128.1022,-93.7725
-149.2773,-102.8998,-103.7758,-158.4211,-208.7182,-7.3022,-162.4557,-16.4159,-202.2946,-44.3120,-66.6468,-7.8999,-147.8184,-96.3836,-72.8431,-97.0231,-161.1401,-10.8338,-23.0383
-215.4888,-147.4285,-166.3411,-218.2689,-71.6521,60.1700,-47.2618,45.4119,-83.8612,48.0625,-122.7775,-1.6787,-88.8278,-39.2807,-14.0472,-18.4129,-247.2016,55.1771,81.3328
-302.8333,-182.0695,-211.0172,-278.8875,47.9210,83.3530,95.0388,60.9062,47.9819,44.9651,-139.0929,-39.8750,-20.4618,-17.5672,64.1569,33.9173,-286.8720,41.0832,140.6929
-296.8087,-177.1169,-240.7238,-284.5251,75.4592,60.9608,124.1064,70.9401,63.4776,29.9048,-109.8131,-60.3363,0.6718,1.1630,95.2486,32.4683,-279.1256,18.9058,120.4031
-40.7717,-71.1490,-234.0101,-218.0432,46.0253,47.3906,81.4289,109.2161,26.3683,94.9043,-60.6701,-25.8564,-19.0123,17.6700,47.1234,35.1229,-226.6637,14.7185,91.0863
147.4471,42.4674,-178.7171,-144.3296,47.9096,89.2077,107.2644,152.9343,37.3344,153.6307,-4.5149,-10.2591,-16.6943,35.0095,-8.8673,65.2251,-131.2485,19.6551,138.5330
-21.4920,7.0747,-107.2225,-103.8196,104.9191,153.3973,199.6157,178.7010,84.7142,154.4136,48.1770,-41.1048,23.1134,73.7641,17.3721,79.3762,-52.4455,57.1288,225.9118
-199.7821,-119.4762,-64.2586,-71.2919,153.0204,199.8073,248.0634,209.5527,133.1691,186.4081,63.4244,-71.9581,52.1393,104.1474,104.1022,79.0738,-45.8165,115.5050,266.1144
-90.2720,-158.6678,-56.2942,-23.9729,148.4257,243.1869,240.7154,259.9460,170.4007,258.6141,34.4334,-68.8806,58.7389,98.9136,154.2108,103.7683,-62.3206,149.1757,265.1407
8.8599,-85.2877,-48.8813,38.0481,129.6216,269.6291,240.1389,288.7955,168.2270,274.3656,20.6497,-21.3668,78.2420,85.4378,138.3466,140.9524,-40.7339,163.1236,249.9353
-73.7636,9.2910,-26.9621,103.0233,119.6107,237.5631,219.8552,264.2157,128.8832,235.7848,56.4944,28.4488,93.2838,65.7361,107.3631,151.0703,-8.0277,161.5915,189.9288
-77.4652,74.4741,-15.1100,143.3337,83.0776,184.7247,133.8844,219.7043,96.2856,213.9751,84.3120,21.8671,56.1234,29.4815,85.0352,135.1998,16.8437,114.8492,111.6936
17.8240,103.0176,-8.7363,142.8705,40.2498,170.4326,64.1520,200.2101,78.1579,203.1406,52.7357,13.1792,0.6041,29.8540,50.6847,133.2120,61.1319,62.2048,96.2606
-15.0460,103.8769,22.9670,114.8096,58.3544,169.3611,88.6431,203.4316,63.4469,185.0244,0.3321,72.9268,-8.0438,85.5413,11.9693,166.0609,97.9290,63.9551,115.1837
-82.8958,96.3658,52.0733,79.9388,104.8607,146.0806,126.1142,192.9917,66.1016,179.7860,-10.2977,117.5658,12.0312,114.3165,3.5536,180.6112,90.2105,65.5305,83.3088
-1.6032,93.3232,42.0807,67.8721,100.8276,109.6684,91.5126,138.6886,59.6114,156.7556,29.2968,82.5646,18.4118,81.3958,27.2964,120.2657,89.1450,18.8847,15.5764
90.0752,114.2651,44.3928,103.4365,79.3333,60.2367,38.6906,58.7079,-3.8322,87.0716,81.5947,73.2649,33.4878,55.0193,55.9992,51.8921,129.1322,7.1629,-43.7286
77.8016,159.9745,99.9623,152.4066,106.4393,19.5761,29.7264,15.5547,-69.8424,45.2374,110.5328,138.9041,78.9335,69.0935,73.2238,71.2229,150.1396,66.3624,-93.8908
101.0270,175.7705,146.1094,151.3814,148.9412,39.5099,42.5375,28.2980,-53.8849,67.1622,115.2510,176.2055,114.7950,89.7937,76.1527,122.6780,127.4640,96.5589,-100.5049
187.3387,142.0967,142.2099,101.7553,159.0939,93.2679,48.8915,40.5704,-7.8838,52.5497,112.9924,149.8452,105.0192,105.3310,67.8685,106.5727,118.7622,59.8248,-40.6607
188.8448,117.1797,137.2199,57.8690,153.7512,111.2910,41.6195,21.7132,-27.3308,-36.9616,101.4500,128.4900,72.6132,130.0965,53.0377,57.0344,141.1568,34.4998,12.1501
106.1398,108.8207,144.7504,52.1612,147.1974,109.2645,15.2341,4.2776,-78.5888,-99.9652,83.0816,133.0802,61.0302,153.2996,28.9170,40.3373,142.8350,55.0503,5.0122
46.7340,69.5701,125.9692,84.6594,135.3467,114.0964,-12.9477,-5.2180,-85.3086,-98.4154,96.2109,147.2456,78.0120,145.7249,7.4865,37.7490,99.3614,84.0601,-28.1568
-15.2959,28.1320,105.2560,131.6761,132.1845,84.4520,-25.9457,-33.4825,-71.8102,-96.0053,153.4245,174.6422,92.1959,99.9479,23.4892,25.5179,54.5816,89.6119,-74.5212
-112.8417,51.9972,138.4301,158.5308,137.1543,18.2169,-37.0493,-69.9760,-93.5290,-102.8434,196.3756,212.3946,81.2675,44.6874,63.8217,6.9490,62.8999,56.6490,-139.1954
-111.9399,152.3958,199.3383,171.0672,130.0302,-35.6476,-51.3354,-97.7671,-133.7110,-98.9305,177.9020,257.6810,61.0208,9.2027,53.0561,-26.5674,111.1151,3.5425,-180.3929
55.3005,295.3918,222.0008,200.0944,117.0599,-76.5765,-61.5614,-132.1883,-148.2037,-116.6127,128.7836,296.0153,48.2073,-12.1094,-22.2089,-51.8156,134.9728,-15.5189,-174.3584
187.2504,374.5819,203.3247,217.4321,109.7124,-105.9516,-70.2852,-158.0689,-130.4871,-151.1252,95.2185,270.2933,33.0117,-31.9637,-76.0319,-26.7627,124.6786,13.1725,-135.4137
118.1246,278.6602,185.1099,175.8506,94.9175,-92.9280,-62.2808,-139.2278,-97.7118,-142.2026,78.6596,172.1909,12.1633,-48.0753,-63.6067,17.0035,127.3433,49.2409,-72.6885
8.3900,115.3218,181.5148,117.4269,68.0157,-70.7878,-29.5503,-111.0758,-67.2649,-102.0832,70.9148,92.9932,5.0380,-64.8132,-31.1561,20.5611,144.2070,67.4569,-36.1911
40.1218,92.6560,169.5634,110.3522,33.0035,-90.0401,-14.6095,-126.6267,-55.7705,-95.3462,76.1727,85.5708,20.1037,-68.1637,-12.8813,-3.0651,139.9422,65.3015,-68.4398
82.6433,141.7232,127.8182,121.5660,-18.0320,-93.9749,-31.4617,-140.3527,-66.6090,-111.5295,75.1634,99.9492,36.1213,-12.7582,-15.4725,-9.6365,116.9138,51.2455,-79.4331
-31.8752,56.1232,67.3677,80.7639,-69.3839,-19.0359,-36.2023,-82.7917,-78.2768,-89.6469,43.1495,90.1855,21.8428,84.3736,-62.8142,14.0665,91.2099,57.5601,11.7909
-173.4979,-84.8049,24.7033,12.3813,-89.4805,79.2498,-35.3697,11.7008,-70.0230,-19.7144,5.3319,63.3356,-32.9098,131.9117,-134.6413,53.9275,72.3952,84.8284,113.3391
-130.1216,-67.5988,18.4811,-7.6841,-101.4686,124.1086,-68.6539,63.1515,-53.3843,42.7609,-5.2032,45.9634,-101.1800,111.5250,-153.9852,75.6266,83.0264,78.4032,148.9569
53.9535,57.9816,26.4000,25.0958,-147.2941,119.4079,-101.3099,61.5698,-45.2978,44.0853,-6.2718,56.5951,-138.5357,99.3084,-113.0842,68.7801,101.6133,35.4476,174.7615
135.0396,92.5327,22.5827,49.9283,-188.7149,101.4362,-87.3573,50.5690,-26.2416,16.7292,-5.3175,61.5072,-119.5459,113.9949,-80.2003,72.6051,57.1783,18.5545,185.1360
-7.7537,7.2154,13.8629,33.5372,-157.9609,76.8109,-46.1502,47.6064,19.9876,36.9391,28.7012,1.2611,-54.8962,89.3222,-61.5005,85.8099,-43.6350,25.6234,109.6721
-197.5219,-70.9034,10.6866,-5.9256,-78.9432,25.4593,2.3486,28.2814,54.5295,77.3477,72.7190,-95.3817,13.1524,-2.0357,-9.8594,52.3343,-116.0320,3.9214,-0.1492
-225.7576,-61.5910,0.2920,-42.8222,-27.5145,-41.4300,48.7784,-13.4623,45.6888,62.7732,69.9346,-130.4714,43.0952,-91.2089,52.7634,-2.5114,-136.9740,-20.7492,-53.4761
-196.3317,-14.6548,-11.1208,-59.2353,-9.7209,-56.1156,69.1601,-24.4231,33.3724,48.7722,52.1456,-73.7267,35.2242,-81.2255,63.2855,12.7020,-136.1277,9.9981,-61.5655
-264.6819,-3.1007,14.6916,-35.4101,10.3933,-3.1491,76.5190,29.4719,48.5543,102.9828,75.3587,23.6312,13.7134,24.4080,20.4851,87.7875,-102.1598,64.9376,-48.6835
-246.5431,14.6733,77.6656,28.0862,6.5960,25.9906,84.7428,78.6706,45.8687,127.0909,101.3616,98.8191,-12.7964,89.2255,-29.0761,129.5401,-23.0640,80.1594,-19.3660
-0.1442,101.1495,125.8297,91.9866,-62.1245,-3.2996,48.5425,52.0716,-2.1179,54.0187,94.2104,102.7806,-29.4914,32.3044,-50.6601,104.5401,57.0673,72.9157,-14.3414
180.7164,168.5789,133.6622,111.5152,-144.7039,0.8228,-19.3933,8.4789,-42.7485,-1.6408,94.3850,42.7558,-14.7260,-36.3388,-37.6570,43.3069,83.1457,101.8521,-27.2341
82.4554,114.9270,117.6132,78.1815,-166.5117,76.5200,-23.7375,34.6038,-37.2773,24.1210,108.1039,-0.3857,4.9641,-6.2550,-12.8933,-9.3621,42.9242,165.8537,6.5651
-68.9665,20.7009,86.4616,30.9885,-147.0166,155.7797,31.3824,99.1586,-9.8633,57.3818,94.5462,27.5599,-10.5981,67.1329,1.6740,-5.5047,-14.2989,213.3511,64.9948
-110.6012,-5.4114,47.8458,33.0357,-134.8120,209.6936,58.8165,133.5153,20.8969,80.7593,59.9209,87.5360,-37.2146,114.9421,19.0609,52.7838,-14.6673,223.5663,77.1932
-139.4056,-4.0413,21.0846,101.4208,-115.0150,246.3120,64.1498,140.7609,54.0129,119.5261,21.2373,116.7229,-39.6298,154.5672,46.5998,103.1188,46.4206,215.0665,64.8944
-146.9718,-34.8427,2.1637,166.4009,-71.9426,227.9532,90.8374,133.9581,67.1398,126.6632,-28.9800,96.5067,-28.9254,168.8732,58.4328,114.5282,103.0766,192.0922,72.7187
-87.3918,-69.8566,-21.5162,160.1896,-34.8148,149.8403,110.3193,95.9781,50.3480,88.7009,-54.5902,51.0571,-1.5122,119.7089,54.9038,104.4888,120.2868,153.5594,75.6272
-84.5249,-82.9650,-34.9753,111.4572,-16.2937,81.8601,86.2962,40.5849,24.7476,56.0708,-18.6917,19.1297,51.4215,59.3284,61.2260,74.5363,99.7228,126.2316,44.3065
-166.3867,-85.1206,-42.5371,78.2735,-4.0166,49.8376,11.8767,1.6069,-12.2384,18.1217,29.1347,11.4830,78.3824,37.1444,54.9813,31.2445,31.6077,116.5474,-17.0514
-221.3042,-92.0437,-81.8982,55.8718,2.6783,15.5809,-88.8409,-19.4187,-72.2355,-36.7502,35.3600,6.0990,55.5951,19.9628,8.9964,20.3581,-58.4075,88.0666,-84.2426
-276.5923,-126.7661,-138.9072,24.3531,3.8840,-23.9341,-141.0145,-30.5935,-121.0966,-48.5746,15.6339,-4.5975,44.4541,11.4088,-36.8473,60.4586,-102.4941,34.8872,-118.7412
-334.1783,-169.5309,-151.3179,1.6711,-11.7526,-53.2749,-144.9931,-45.9405,-141.6803,-32.0815,-6.7674,-11.3967,52.0554,43.1209,-57.9262,102.9313,-86.0354,-13.7349,-139.2518
-225.4448,-139.9660,-113.6484,-2.8655,-69.6117,-102.5152,-215.1054,-103.0030,-181.1420,-74.6831,-19.2047,-24.4960,10.8427,39.7331,-98.3717,90.0127,-50.3600,-52.8536,-212.8594
-10.7207,-37.2073,-70.7108,-1.8273,-130.1164,-178.4124,-328.0393,-186.2221,-243.6826,-142.7138,-9.5636,-54.9422,-64.0236,-60.9597,-162.3088,12.7058,-9.6584,-59.3128,-294.8002
19.8800,20.9844,-36.6350,17.1199,-110.6770,-203.4417,-321.2852,-203.7156,-257.6709,-138.1036,-6.1175,-85.5166,-102.3854,-143.7775,-190.9498,-75.0395,45.7404,19.0062,-267.4999
-112.9280,-11.7058,-10.1420,68.2000,-38.5239,-122.2691,-225.8710,-132.6245,-212.1493,-81.2634,-34.6404,-93.4608,-114.9730,-106.4998,-178.2882,-96.2191,99.2430,135.5018,-164.2203
-163.2934,-51.0626,-4.4115,110.9079,-21.6557,-0.8481,-200.9343,-58.5352,-173.2884,-37.9161,-52.4331,-72.9902,-130.9572,-38.1024,-167.1209,-40.6695,113.6343,168.8866,-108.0265
-151.8803,-61.5713,-9.8541,89.1119,-62.8687,64.3853,-211.4620,-18.0775,-150.9100,0.9251,-28.3864,-37.1472,-126.9293,-21.4671,-162.5424,20.2376,72.8982,122.7805,-94.0574
-211.1733,-101.6312,-7.8189,12.1265,-76.5706,67.8258,-164.7915,25.8859,-111.6782,49.2463,-0.8329,-13.1874,-109.2955,5.1875,-162.0254,39.3099,12.6362,101.7366,-59.1592
-268.5542,-173.5112,-17.8966,-55.0397,-41.0046,53.1183,-131.3391,53.7002,-85.6810,71.1614,2.4254,-13.4099,-106.9151,69.2960,-183.0216,43.7845,-20.2056,115.6534,-22.5340
-256.1539,-209.3780,-51.9849,-75.0141,12.6276,33.8249,-154.3514,19.9673,-109.1001,42.0434,-10.4408,-19.4037,-88.8448,98.6148,-198.2227,55.8530,-39.6046,110.6947,-8.5365
-242.6140,-200.2072,-73.3114,-69.7534,79.7353,21.6896,-156.1600,-28.4650,-137.1649,-9.0734,-32.5735,-15.3565,-28.7538,82.2125,-160.2289,47.9954,-72.5253,106.0319,7.5598
-230.6284,-193.3556,-63.3184,-63.8641,153.7634,44.3060,-121.8335,-19.0551,-123.8390,-27.2633,-40.6343,-8.4591,29.9333,74.3548,-101.6802,9.8451,-77.0154,134.2069,40.1211
-175.5086,-189.9235,-47.3702,-50.1688,193.0605,92.3893,-93.9610,39.1061,-88.5287,8.2877,-12.8756,-11.7343,44.2046,67.9535,-99.1289,-8.8316,-26.0967,154.8374,94.5455
-119.5763,-156.5948,-28.4790,-38.4653,162.3480,125.2351,-65.1720,103.6132,-47.9616,69.4529,22.9954,-30.6702,6.3372,32.2432,-153.0406,30.8797,17.2760,122.2891,165.5791
-86.5299,-106.9404,3.7405,-67.4380,68.4362,121.0656,-34.0597,150.4862,4.8460,128.4984,33.8480,-56.1079,-69.9209,-8.8250,-183.9648,80.9994,15.4306,48.7373,202.8045
-51.7049,-85.3623,15.8803,-122.3369,-52.1254,76.5764,-18.5199,147.6211,41.2193,160.2599,18.8421,-70.1428,-129.3354,-30.4762,-142.8454,67.5987,14.2926,-17.6495,176.0169
-54.9353,-88.7555,-13.7786,-121.7666,-159.6077,14.1146,-9.7036,83.7216,25.1954,127.4850,-18.6402,-68.9074,-130.5708,-34.9008,-87.3548,10.7788,33.8564,-29.7229,118.9082
-92.0499,-71.3496,-44.0661,-39.1961,-209.5621,-8.1046,-10.1444,17.3295,-13.1675,58.9791,-56.8066,-51.7173,-113.0483,-11.5045,-105.1091,-3.9992,41.6365,11.2964,57.1126
-39.7439,-28.3290,-54.2705,44.7607,-157.1653,33.6580,-11.7375,17.8949,-22.5882,44.4619,-61.1011,-4.0669,-102.7897,41.1436,-164.7475,35.9857,31.3713,48.4850,15.4365
85.1612,-5.9211,-68.5557,61.0317,-35.9889,96.5529,24.1726,81.9413,-17.6069,79.6529,-49.2008,62.9804,-64.2815,97.0749,-159.4097,63.3539,28.7370,50.7414,47.0314
87.2679,-8.1497,-57.0214,44.2065,21.1941,150.4859,48.0949,146.5004,-43.7776,80.1067,-49.9328,106.5914,-25.2305,143.7756,-103.2527,46.0044,58.7492,52.4189,116.0544
-27.8527,18.8442,35.2573,57.5715,-38.3248,190.4800,-26.4339,159.4147,-88.8264,47.2254,-31.8429,118.6138,-55.4421,171.0381,-102.3743,11.4329,125.4824,79.4435,103.5147
-29.6061,82.0311,155.8887,96.7068,-83.2425,180.7561,-123.0481,120.4765,-103.8895,30.3726,13.9066,122.6464,-106.0809,149.3737,-147.1553,-17.2230,178.4294,104.1432,16.7289
112.3278,128.3881,199.7302,122.4996,-3.1537,106.2650,-121.4015,61.2562,-87.1828,13.8626,26.8100,115.4959,-86.4543,87.0403,-144.9030,-32.5574,158.0350,98.0590,-30.3592
196.4684,140.1579,158.9119,131.6059,134.4120,26.2998,-66.0618,3.8787,-70.6305,-10.9795,-12.1682,95.7808,-29.1126,34.7268,-97.1860,-29.5802,92.9516,78.3202,-33.5152
153.7825,134.0889,98.7023,139.0536,233.5184,-9.0046,-23.3359,-34.4444,-52.0384,-10.8485,-50.6810,97.1036,7.3247,10.4526,-55.7765,-24.1274,60.7922,79.8057,-50.9183
85.6516,118.0466,70.6549,145.8057,288.6377,-13.3435,34.0789,-32.9313,-22.1335,2.6344,-45.2331,128.9842,50.5485,6.9961,-18.0405,-37.2832,83.0559,97.7355,-52.3890
61.6929,121.4158,108.9666,160.5407,297.7810,-11.5286,74.6501,-12.7229,-18.8851,-3.8499,16.4150,158.3930,105.4442,33.2736,5.7673,-54.7736,133.1600,86.6961,-23.0031
105.3299,153.9364,198.6272,186.0824,234.6442,-14.5986,18.7904,-27.1401,-67.8263,-28.0491,110.1291,167.7321,115.4509,75.1407,-26.9521,-52.5786,179.9540,32.0364,-40.1753
196.2066,152.2740,257.4814,183.0373,123.4703,-24.6661,-96.9062,-64.8848,-123.2365,-66.9560,178.1558,162.4379,80.3065,90.5511,-93.7517,-46.3841,196.9671,-15.8919,-119.5664
244.1806,121.6247,247.9116,138.1808,30.1253,-26.0405,-175.1090,-65.5316,-146.0777,-102.2460,200.5806,146.2351,48.8767,66.8318,-134.2608,-67.7457,196.1560,-7.9142,-176.3034
245.5666,181.3803,224.9601,126.1374,-6.7646,-16.9945,-187.9043,-45.9618,-162.1591,-99.3090,199.4323,131.4106,22.0392,11.3997,-142.9396,-114.0734,219.6876,38.0011,-181.8785
309.4691,324.2530,220.7657,194.4499,-7.0407,-28.7597,-166.2612,-76.1126,-184.8617,-99.9673,168.4650,133.4708,-21.4391,-67.8537,-137.9886,-160.6281,262.9143,56.8402,-193.9242
409.3382,393.3285,209.1778,266.9687,-25.3475,-69.1700,-153.6427,-142.7755,-181.2997,-158.0030,112.9564,150.2483,-69.3373,-125.7097,-127.2017,-198.6996,278.1069,10.7271,-232.8348
408.6480,360.8117,184.6826,258.2759,-69.2081,-99.2951,-154.2660,-171.7227,-152.2287,-200.7997,79.0157,169.9684,-107.7703,-112.4252,-138.4573,-227.0803,251.4933,-58.2993,-237.9042
334.8046,319.3163,156.9357,185.3453,-77.9893,-80.0940,-126.6142,-142.3886,-136.7961,-164.3468,52.7113,179.4178,-144.4642,-50.4855,-180.9783,-224.6784,212.3234,-71.6547,-152.4861
297.9019,277.9190,122.3382,114.6908,-32.4574,-3.8671,-84.0074,-79.7641,-128.1137,-122.9840,-12.4509,171.5252,-177.5874,2.9505,-203.0448,-176.7297,193.8411,-12.2047,-14.3655
276.4295,230.1983,101.5409,93.5958,19.8697,93.5028,-78.5377,-1.1430,-92.6382,-111.0561,-63.8909,160.3862,-173.8889,27.9069,-167.3863,-121.8826,199.7415,76.5641,77.5663
227.5047,210.6691,108.3382,126.3127,78.2167,151.7959,-71.9178,68.3827,-53.0985,-58.6361,-39.9224,155.4039,-98.7180,29.8605,-101.2437,-112.0245,183.4119,162.5165,88.3372
178.6746,177.9269,95.7831,158.3983,170.3585,155.7051,-17.7922,95.4215,-45.5823,17.3252,2.1154,136.0527,16.2222,20.1540,-40.2410,-123.6483,106.2692,213.2896,62.5709
136.3354,115.9529,33.8334,138.4460,242.6753,133.8182,22.7650,73.7955,-41.6311,26.9010,6.9979,90.3044,79.3876,11.8541,-1.7118,-93.4614,15.4769,182.6884,24.2486
121.2114,128.7435,-32.0995,92.0612,240.8797,85.6469,25.0089,23.6577,-12.0546,-16.7102,5.6212,33.7038,62.8111,2.8714,3.5516,-39.4524,-20.2075,90.0866,-30.4522
166.8123,197.7126,-61.3654,57.1904,217.8641,5.9239,50.3502,-25.8746,7.1906,-38.6778,3.2402,-19.0522,34.3667,-1.2421,-6.7669,-29.9074,-17.1614,8.5532,-77.6353
181.5577,168.9102,-61.5376,14.2921,215.1548,-63.7258,77.9624,-49.5954,-1.1006,-19.1540,-28.2149,-52.6175,24.4158,19.0895,-2.9495,-46.3341,-33.8101,-54.5122,-100.3004
89.6203,78.1762,-49.9347,-44.3312,178.2281,-100.0793,45.8344,-54.2804,6.1873,18.0434,-60.2660,-60.3790,-2.8854,29.3617,-0.4951,-25.4349,-70.5400,-125.6370,-111.3460
30.6625,74.8251,-45.4924,-70.7549,98.4843,-121.9792,-7.8608,-68.4275,22.1451,28.2487,-59.6176,-70.5550,-33.7883,-29.4499,-34.0042,-3.3393,-69.2533,-151.7148,-106.7038
111.5734,122.4386,-48.2855,-26.7595,72.9127,-112.1224,-49.0989,-86.5004,-17.4746,-17.1250,-49.4659,-83.5626,-25.8967,-108.8213,-88.9050,-47.3652,12.4765,-74.4587,-81.7991
206.4599,137.1219,-14.7700,75.3326,142.7208,-45.7195,-97.8224,-74.6620,-87.4275,-73.6365,-43.2944,-41.6319,-12.8305,-103.8024,-121.6962,-104.3386,134.2264,46.4134,-56.0711
218.8136,156.9179,65.5526,178.0694,219.6844,27.9097,-100.1338,-32.8008,-90.8658,-86.9301,-23.1537,46.4284,-37.8730,-27.0099,-116.5768,-89.9011,202.2868,103.5575,-17.7800
210.2556,181.4260,120.4864,207.3850,225.8635,51.6902,-6.1156,4.2632,-32.2014,-65.9653,2.8027,84.1953,-64.9674,31.6596,-83.5164,-41.1786,186.7366,71.8743,50.7923
210.7489,157.7866,92.1375,145.4477,188.1772,37.2037,90.9786,16.3165,7.2439,-29.6512,3.4960,50.9715,-60.9976,52.6191,-38.7684,-30.2136,131.7049,12.7644,91.8595
189.7172,101.3066,-0.5966,36.8736,155.6810,15.8741,108.4931,12.8078,27.3559,7.4498,-30.5766,9.6117,-48.4160,55.0320,-1.5099,-36.4395,49.8992,-10.7803,60.6880
132.3822,10.3729,-111.3752,-91.6877,123.5804,6.1045,96.7056,13.8034,71.8237,8.3956,-77.9726,-29.6911,-27.9295,28.9008,16.3289,-18.7817,-61.9364,-6.0283,24.6334
24.2017,-129.2266,-193.4645,-213.0374,80.3374,22.1267,95.6104,27.1240,106.6824,-14.0691,-102.6817,-76.6460,23.4640,-6.5781,10.8196,1.2670,-145.8397,-17.3428,39.2623
-86.1342,-215.2708,-219.6158,-251.9282,48.7302,51.0282,77.5208,43.7761,78.0177,3.2227,-87.0714,-91.0138,79.7770,2.0304,-18.1234,-1.6546,-168.1066,-31.7150,59.6814
-101.6563,-179.8043,-221.8716,-196.5055,44.0143,72.3509,45.0032,65.2258,9.7843,57.2002,-54.5243,-69.3615,97.1148,51.7997,-47.1754,-8.3492,-193.0257,-10.9053,56.3755
-68.2203,-126.1581,-240.1134,-148.0293,47.7933,94.9412,19.8752,103.5965,-41.4291,102.1155,-37.4399,-60.2780,82.3769,91.5108,-43.2509,6.1071,-256.6707,7.3510,52.5263
-88.6067,-119.3124,-250.1250,-157.8045,30.0850,106.2720,-11.7471,133.0675,-57.5416,132.5792,-32.8705,-68.6506,64.3757,98.7526,-25.4307,34.4368,-294.2406,-25.6023,36.5360
-81.1313,-103.5712,-215.9702,-171.0735,-25.8024,66.7003,-48.2770,109.2653,-51.0408,134.9504,-15.6058,-78.8395,48.3920,74.6147,-41.0840,43.5440,-258.7308,-64.0598,-3.5368
31.3559,-75.0477,-150.8675,-155.3498,-83.7245,7.8019,-37.0434,57.9617,-29.9858,98.6813,12.3050,-96.2920,38.1618,26.5915,-62.9154,20.3057,-188.2508,-58.7314,-13.4790
97.0485,-70.5699,-96.5365,-121.8839,-72.2137,6.3350,48.6877,46.6249,11.7358,80.0268,16.5538,-92.8818,49.9353,-6.3584,-25.1103,-0.7084,-142.6222,-54.1012,38.1776
19.7691,-72.3788,-100.6575,-76.9773,-15.0007,46.2965,129.1307,63.9569,59.4711,90.1157,-5.5931,-51.1390,74.5037,1.1289,37.3294,4.4087,-146.3500,-93.0899,94.8950
-48.7153,-71.4082,-160.4332,-53.4912,-32.5507,49.8403,93.2979,47.5083,58.2739,55.9434,-1.6712,-36.4662,69.9533,5.8540,34.0091,5.2292,-163.9102,-130.6307,99.5986
-7.3652,-74.3074,-175.6834,-72.8613,-129.2999,17.6206,-29.1093,12.1682,-11.1313,1.7276,46.1856,-74.0174,26.2016,-14.7241,-17.7437,-15.6644,-129.6769,-108.6101,53.3088
48.8778,-53.5517,-90.6108,-74.3412,-172.0802,8.0908,-101.9468,17.7033,-83.6644,16.3956,75.4116,-78.6448,-6.0595,1.4996,-32.2198,-31.5442,-51.2990,-47.1717,-23.2181
55.5989,-11.6024,-18.9693,-20.0388,-135.5395,19.2541,-112.3851,39.1400,-113.6573,42.4500,44.4445,-22.2001,3.8612,63.6039,-11.0814,-39.6096,-19.4087,-23.5116,-109.0728
56.2885,9.6510,-59.8794,20.4462,-118.9625,-7.9021,-166.5482,-1.4778,-142.1972,-13.3140,-7.8310,10.2492,10.3671,67.0146,-19.2498,-58.6520,-69.0551,-67.5216,-181.4367
71.2663,2.9996,-135.4959,-2.2504,-127.6705,-88.9467,-259.8220,-101.1392,-195.0205,-89.0609,-38.0707,-23.0219,-27.6859,-15.2210,-67.7535,-72.2049,-132.5315,-111.4165,-232.9551
78.3781,-27.2845,-158.9226,-42.8800,-98.8872,-160.0748,-288.2478,-174.3445,-226.5595,-115.5859,-44.8477,-81.2771,-77.4004,-65.9507,-118.3762,-64.4653,-151.0170,-91.5505,-261.9983
69.6917,-77.7658,-153.8968,-53.8012,-57.6223,-153.2723,-240.3266,-165.4611,-203.6274,-122.1407,-45.7867,-123.8625,-96.2610,-33.2433,-139.0279,-52.3637,-124.0721,-42.3736,-245.5983
40.3757,-101.6179,-132.9522,-25.7637,-35.3930,-79.5201,-172.0244,-101.6593,-142.9600,-98.8618,-68.5952,-115.7989,-89.9059,4.4004,-114.8483,-42.7080,-63.6667,-12.0845,-164.8081
-12.8493,-67.3177,-85.5273,30.1628,8.1193,-9.1540,-92.5679,-46.5995,-72.2803,-23.8577,-117.3045,-46.2413,-70.7401,7.7302,-60.3749,-42.5985,3.1620,17.1434,-48.1540
-43.7643,-0.5146,-63.7253,73.7876,62.2754,12.5496,-12.6170,-28.0325,-17.6269,24.9598,-138.2739,21.8375,-37.3992,1.4194,-14.7134,-76.6765,27.0781,49.2705,48.5910
14.0029,77.2508,-89.4362,78.0355,56.7956,-2.1054,19.6749,-18.7006,9.3540,8.1202,-92.8315,30.6307,-12.6096,-28.0930,-1.7115,-123.2724,-3.1578,39.7219,94.9058
126.2862,135.9596,-94.1567,67.0129,-1.9251,-15.0159,1.0849,3.9114,24.1835,1.4544,-27.6631,11.5853,-30.5254,-86.3518,-20.3427,-132.6664,-46.2480,-9.3121,94.2194
171.8346,135.7776,-61.8128,55.3488,-56.2323,-1.8599,-15.4615,14.1761,32.0624,23.9143,-10.1697,2.4303,-78.6176,-121.3722,-54.2306,-120.2565,-68.4265,-38.1907,64.7303
130.0189,116.0627,-51.4954,34.5034,-100.2261,27.2299,-14.8131,-3.4322,20.8891,25.3395,-47.3112,-11.7860,-107.2719,-113.0310,-72.3294,-112.7801,-54.3290,-27.6788,34.3899
103.3086,124.3076,-54.7235,29.4887,-143.1516,45.5378,-34.0990,-6.4163,10.9206,31.6994,-89.8660,-22.0682,-98.0371,-79.2686,-63.3334,-71.4962,4.0839,-16.2225,25.9736
121.0337,103.3135,-19.7245,49.4066,-163.3759,46.7120,-60.6913,32.9288,34.1332,76.1235,-80.2620,4.6507,-75.2208,-7.7351,-48.0110,15.2523,63.3092,-29.4667,31.5963
124.7506,24.9366,30.3934,31.1803,-147.7336,39.3033,-22.1301,68.3118,70.0052,97.5581,-14.8595,34.7728,-53.0793,76.0085,-19.0202,83.2553,57.0960,-51.5923,31.5784
125.0236,-37.0247,51.9004,-50.1859,-107.4909,18.5775,62.0144,51.6767,78.6591,62.3640,45.9729,12.7622,-29.3915,78.0287,46.4781,84.4009,15.5512,-63.6545,27.1243
158.9207,-49.9941,61.9180,-108.0613,-66.5800,-21.6606,73.1626,-0.1635,66.7397,24.2813,59.0537,-19.9463,-25.1645,-9.4426,98.0112,12.1224,30.0210,-73.2444,17.1342
188.6781,-16.9286,83.4053,-76.0057,-47.2648,-66.9570,18.4921,-48.3642,61.3686,6.7741,36.3994,15.3541,-54.5786,-77.9329,71.7413,-106.9880,90.1327,-82.2406,-14.9490
191.2753,79.1963,100.7167,-14.8349,-31.3644,-91.7298,28.5969,-75.7052,59.2762,-14.3223,-2.4482,80.1452,-74.6223,-76.8414,17.0115,-178.9601,105.5748,-62.8082,-52.9780
191.7507,155.0264,91.7040,-15.5770,13.6071,-79.9623,83.9496,-77.0421,44.5587,-36.8917,-31.9557,64.9836,-48.7075,-47.5385,14.2585,-135.5622,57.5870,-20.1732,-56.2701
176.7725,99.6457,52.6247,-71.6817,49.9285,-55.0987,55.2283,-68.6672,25.4881,-53.2491,-14.6980,-20.5873,-10.8135,-13.4014,40.5132,-48.7798,-8.9638,-28.6789,-42.6219
133.0363,-4.4638,9.3667,-117.2178,13.3602,-90.0132,-21.6928,-96.0285,13.4288,-74.9948,30.0019,-58.9700,5.3168,7.5770,47.8580,-12.8060,-72.2845,-134.6867,-73.5424
88.4037,-29.4118,-1.7927,-143.5285,-69.2684,-219.1602,-38.7560,-175.2218,-9.6240,-93.2349,34.3393,-27.3088,13.3746,-30.2054,57.7717,-23.2156,-121.2527,-272.4397,-141.9771
42.6850,-22.6188,6.2603,-187.1874,-116.6831,-345.1273,-28.1693,-245.4114,-44.7907,-82.9168,-12.8648,-19.1953,10.0067,-112.2449,78.1076,-56.5081,-146.0549,-326.2245,-168.4205
4.1907,-57.0748,-14.4790,-233.4279,-105.4281,-335.6260,-28.6576,-230.3196,-38.4883,-35.0843,-67.5707,-65.2950,-25.6907,-166.9086,61.8318,-96.4887,-158.3790,-248.7540,-118.2704
22.7256,-114.2826,-63.1978,-240.7979,-71.8396,-203.9791,-0.7786,-138.7110,19.4819,36.4487,-103.1504,-111.4771,-72.0669,-187.8842,9.8648,-93.4518,-153.2916,-114.7560,-48.2796
56.1311,-173.8273,-105.2048,-220.7987,-68.8254,-83.1461,10.6760,-61.5555,39.6004,74.2146,-111.5359,-146.7364,-106.3540,-208.3845,-16.1114,-53.2814,-118.1594,-50.4240,-28.5302
15.9009,-189.4483,-146.7309,-191.3613,-132.1216,-49.3592,-64.0164,-62.0144,-14.0376,14.7911,-109.5227,-177.0161,-146.7796,-195.1463,-6.1533,-47.7520,-92.1162,-78.6924,-61.8441
-28.9548,-101.6369,-200.4138,-129.6930,-215.0745,-72.6587,-138.1140,-104.8056,-47.9647,-92.9774,-147.3369,-148.5119,-183.3505,-120.1292,-3.9884,-63.7991,-96.3191,-89.9394,-90.3389
15.7211,21.0518,-227.3546,-39.3814,-209.3382,-90.9168,-111.6395,-115.5730,-16.6213,-122.0206,-219.2005,-53.1454,-165.9756,-47.0255,-0.2301,-35.8321,-70.4724,-7.6133,-66.3136
57.4713,68.0902,-193.3388,38.3816,-92.6483,-59.5620,-39.7546,-73.4043,12.1475,-60.8899,-236.5271,12.1277,-94.1322,-25.6464,54.5263,4.8305,-2.3245,108.4803,-2.1379
12.5447,47.2408,-123.9434,84.6445,35.3959,3.7037,3.8559,-17.1466,18.5841,-18.7400,-166.4247,3.1046,-23.9641,-29.1145,140.5315,2.7846,23.8942,153.4419,50.7352
-32.8091,2.0451,-56.5810,91.3931,91.2850,11.3001,31.2464,4.5508,45.0268,-33.5198,-79.5635,-9.5838,6.3037,-53.1131,186.3754,-18.6264,-8.1310,89.6611,53.6181
-21.7099,-26.5710,2.5726,66.6703,71.6546,-70.2076,49.6391,-31.4552,69.7274,-48.5279,-31.7205,10.4753,-3.6265,-114.4686,172.9179,-37.6101,-22.3559,-33.2729,4.2847
2.1223,34.7719,49.2051,66.5816,-3.9356,-153.9956,33.7125,-105.3113,55.4733,-51.0368,-24.4974,19.2353,-36.6354,-159.1493,128.7397,-60.6496,-6.1250,-136.1396,-69.6871
31.3379,141.7681,63.2429,94.3018,-100.4912,-182.7697,-6.4033,-165.2868,37.5393,-72.8788,-56.1814,-0.0342,-66.2288,-136.5896,80.0986,-66.5391,-10.4269,-194.5794,-129.1528
58.3134,148.7351,44.0407,58.0305,-157.8771,-206.8151,-19.5364,-182.1364,42.9483,-99.6775,-104.1635,-19.1452,-67.1532,-97.8333,64.5527,-51.1108,-46.1823,-234.3728,-158.1078
32.4748,81.0748,23.2534,-42.5813,-157.2950,-250.2181,11.0384,-185.5233,43.8514,-102.6468,-114.4219,-24.3972,-30.6125,-96.1606,100.9001,-47.4293,-101.0362,-266.8347,-194.0424
-10.7223,61.4032,15.4765,-88.4158,-139.9601,-283.1104,23.4756,-221.4218,27.5337,-103.1371,-74.8672,-14.9121,19.8990,-105.4836,134.7362,-56.7219,-166.1971,-309.9556,-285.9114
15.5467,53.7400,-7.2002,-68.9441,-132.0314,-313.0536,-27.2428,-277.5269,5.3993,-121.6314,-40.2983,5.2526,33.7630,-94.3796,115.1275,-63.9094,-204.0648,-382.7197,-400.3636
76.8660,11.1851,-56.1812,-73.8885,-134.2940,-316.9578,-75.6519,-280.6679,-13.4089,-120.8166,-59.3981,10.3482,-11.0538,-60.4864,67.0006,-75.1985,-184.3229,-408.1094,-437.1507
78.6632,3.8451,-94.8458,-92.8001,-168.0683,-211.1607,-61.5900,-190.1435,-7.3590,-62.1966,-121.7629,-21.7387,-78.9995,-15.4315,14.9134,-77.6059,-134.1143,-298.7846,-373.4675
19.5040,4.9193,-110.0736,-80.1946,-233.5240,-37.0351,-34.3042,-62.6825,28.3467,25.8778,-180.1331,-74.4814,-129.7350,-5.4811,-36.0405,-59.0614,-93.8083,-137.8221,-295.4561
-43.2890,-75.4397,-140.6902,-74.1150,-266.2014,54.9904,-28.2574,22.7618,56.8429,89.3195,-199.7986,-104.7242,-146.6348,-47.6556,-34.2007,-46.3133,-73.5937,-45.5289,-254.3048
-78.2934,-155.5750,-196.7626,-78.4574,-217.6632,58.0624,-6.9926,60.8607,63.1270,118.5026,-185.7661,-86.8976,-117.7453,-67.4177,37.4446,-37.2583,-71.8901,16.7720,-217.4957
-98.5833,-141.7808,-239.3401,-49.4652,-117.1050,66.4643,29.6878,79.1293,76.7313,128.4453,-169.0013,-59.6790,-58.8871,-33.9057,89.1541,0.4781,-87.6695,100.1188,-171.7027
-152.8934,-126.1147,-250.3843,-31.2394,-9.3014,71.5842,69.9323,76.8781,109.5628,122.8360,-173.9723,-90.9214,-17.6317,-28.0295,73.5004,39.8327,-111.8910,153.5371,-138.6603
-238.1099,-173.8452,-234.6114,-66.3380,86.2074,58.7613,139.2631,71.6414,142.0157,127.9234,-198.6190,-154.3598,-10.4507,-66.2881,50.3056,36.2129,-121.1894,174.5201,-114.0232
