Fp1,Fp2,F3,F4,C3,C4,P3,P4,O1,O2,F7,F8,T7,T8,P7,P8,Fz,Cz,Pz
-77.5263,-21.1660,-113.0718,-26.3515,-71.6149,33.2123,-59.6671,-10.0058,-71.9669,-151.3056,-58.5730,-185.3869,-110.6290,-48.7267,-90.0210,-54.9367,-39.2657,161.2043,-55.4417
-11.7664,17.4138,26.1577,-15.2667,3.9014,-105.5112,-148.8669,-144.9673,-102.9671,91.6680,-31.9293,201.0209,-11.2236,-17.7584,-24.7597,28.0332,-14.8013,118.4005,-131.1190
82.9970,3.2963,152.5018,-16.9361,47.7307,-155.6374,-173.8801,-197.1946,-103.0553,153.8361,8.1279,323.5013,56.5529,-13.2258,-7.2588,65.1049,-27.0158,21.0755,-165.7477
92.1264,-56.9510,126.9509,-6.4570,-59.0720,-121.6720,-221.4488,-113.9371,-82.1690,183.0843,-6.6579,186.8460,5.0690,-12.8116,-32.6921,58.3688,-41.3518,24.9685,-133.5914
45.0282,-84.9312,50.5655,11.6835,-170.0440,-100.8169,-262.1223,-21.8592,-52.1274,342.9790,-57.9990,154.6037,-36.4330,20.9748,1.6656,56.6834,-51.1117,63.6558,-75.9254
14.7673,-63.6145,24.0138,15.0778,-160.0531,-91.3434,-175.1699,3.4034,-19.6652,377.2018,-102.6760,230.7627,-9.7890,24.4766,84.8871,44.8615,-67.9217,45.8120,-43.6820
11.1983,-12.3731,30.2898,29.5124,-157.4048,-69.1437,-57.8436,2.7106,19.0960,206.2515,-92.6019,250.8327,-17.7671,-25.6691,104.7372,23.3138,-50.7992,8.8066,-38.9219
20.7505,55.4672,54.5793,72.4266,-226.8904,-47.4036,-103.7593,-5.4539,19.2363,140.5097,-30.7690,271.6491,-84.1371,-46.8581,13.8402,15.0968,17.9250,23.9137,-41.4350
37.6798,104.0985,84.6381,125.2370,-223.9762,0.5648,-209.6784,-23.7774,-60.9094,235.1087,0.6797,328.3004,-120.7492,-17.6961,-91.3039,10.1168,85.9884,46.3714,-39.4778
57.6020,97.2828,78.7192,172.6613,-133.8780,64.0826,-179.6554,-30.8960,-135.5148,246.6282,-15.9518,335.2776,-104.7914,13.5991,-87.1364,16.8368,101.7751,12.2867,-39.5667
68.8817,36.4917,35.4677,174.1437,-110.0328,46.5330,-150.9046,-48.1606,-120.7419,119.4271,-21.8942,291.3521,-89.9476,38.2492,-13.1165,36.3444,53.9100,8.1426,-84.9820
56.4325,-36.6917,0.5655,99.8572,-146.9851,-54.9610,-296.1080,-110.0561,-87.2816,-31.3315,-36.8789,237.5604,-76.4932,39.8389,5.0921,16.6033,-13.8547,57.4006,-186.3414
26.1265,-63.9962,-13.7809,16.4072,-131.9859,-129.0253,-426.1490,-166.7363,-102.7803,-108.5108,-91.8837,183.5750,-21.1480,-9.2906,-29.5865,-25.7503,-36.3458,17.3097,-250.2451
-11.0789,-40.9666,-47.1717,-11.4754,-92.4527,-147.9320,-360.5751,-160.9955,-133.3118,-66.4798,-122.4587,163.2316,25.3031,-63.9333,-59.9424,-16.8646,-27.7020,-43.6965,-215.9885
-53.7333,-22.3882,-106.8776,-12.9763,-80.6028,-162.0905,-226.1344,-117.0564,-150.3026,-9.0132,-107.5802,169.3739,-20.9564,-76.7522,-82.0725,7.2112,-37.9761,36.0999,-153.3755
-71.1091,-29.7982,-133.5808,-19.0387,-67.3885,-170.0045,-107.2473,-61.8764,-120.2063,-36.9074,-104.2122,138.1033,-76.9135,-65.7035,-44.8145,-12.4860,-55.8588,65.3779,-102.3284
-59.2221,-54.5562,-130.7382,-40.4969,-83.0775,-160.2213,32.5079,6.3297,-29.9210,-13.9207,-118.1637,76.8286,-37.3816,-43.9057,61.9824,-29.0858,-104.9528,-49.3376,-39.6619
-99.1256,-94.5889,-191.0872,-81.0956,-156.1281,-143.0404,92.2202,61.0196,19.6130,136.8670,-138.8496,49.1323,-24.7378,-30.0588,102.9658,-21.0587,-224.6584,-24.4453,-20.4736
-187.9662,-95.9322,-278.1198,-56.3082,-200.8242,-80.7603,34.9629,83.3800,25.3799,218.8779,-174.0758,68.0839,-123.0738,-53.0200,66.6974,-8.5852,-271.1782,60.5425,-52.5323
-185.7258,-20.7648,-235.8637,79.5696,-200.2124,41.0784,27.4664,84.4403,141.2712,141.1458,-175.6489,100.9979,-147.5593,-56.3040,87.4251,46.2710,-105.6468,-69.4728,3.5229
-83.1815,37.4687,-90.8574,159.2010,-197.5317,106.1583,59.5912,38.6223,249.2999,37.6627,-123.6815,112.2998,-49.6439,-9.6552,93.2534,97.2117,82.0131,-85.6866,122.2402
-12.4713,18.2713,1.6125,69.1604,-82.1924,22.1459,-12.0836,-60.0124,72.0569,-29.3924,-83.4561,90.2381,-42.3206,-33.2918,-23.7033,12.1287,68.1350,127.3152,85.6705
39.3014,6.3567,50.4032,-23.8374,149.2307,-82.6414,-62.2258,-103.7125,-179.0844,-53.8770,-50.7843,56.7814,-91.2102,-125.1945,-79.6643,-122.8252,-19.0818,-55.6989,-47.3005
142.8921,32.5293,114.8116,15.2693,186.3595,-16.1712,31.0599,-8.8627,-116.1892,1.8050,21.8350,41.5506,24.6019,-74.7424,13.2358,-99.7255,17.8166,-504.5705,4.3833
206.1561,55.3506,139.6396,100.1419,-23.3759,180.8795,94.5845,141.0965,69.8215,72.7752,85.5621,66.5595,169.4793,96.1088,39.5400,16.5526,129.3926,-331.7113,200.7421
183.8545,117.5089,152.1814,160.6388,-62.3134,299.0345,90.2510,225.2524,49.0922,102.3255,127.1915,116.6261,119.1474,120.1186,-9.0649,29.8059,207.6147,181.6823,277.8850
197.2526,209.2675,248.6291,200.8318,172.4936,268.4525,169.3485,220.5063,-11.7063,151.0735,209.5155,128.1865,53.8131,26.4466,64.3310,-24.8874,230.4955,155.7668,213.9922
263.9402,208.0956,337.9115,186.2533,273.9955,189.8369,211.8615,149.9523,46.4819,146.3117,272.2746,103.6162,152.8244,61.7519,155.2597,-18.4377,179.9520,-56.4183,124.2268
284.6670,145.2939,301.4605,132.2041,135.9788,121.6880,69.7933,52.1855,29.4122,-24.7244,234.5259,120.3248,240.8475,162.7541,79.1876,29.5718,77.0579,107.1730,14.5095
264.6647,153.1615,232.1259,114.7071,65.1225,51.8319,-44.1258,-8.4638,-89.3299,-147.9743,189.4745,140.0723,211.4770,133.0201,-22.2302,50.6066,3.4246,208.2040,-88.1470
235.5531,172.6253,204.9714,115.9088,112.0479,-7.7677,-0.5257,-15.2532,-102.3523,-20.2309,190.2584,64.5614,181.6336,56.1263,-10.1267,42.8512,-25.4262,56.1774,-117.2973
160.7903,107.0393,138.1815,65.8251,87.6110,-67.6055,21.8776,-11.4472,-12.6528,122.4383,142.1059,-36.8343,160.5587,52.2582,23.2730,37.1571,-60.6182,76.2949,-113.5275
62.1334,34.3720,29.6992,-28.2245,8.3740,-167.1885,-5.1327,-1.1691,52.4579,86.1036,60.8689,-71.4840,97.0484,44.6263,41.5127,60.6758,-105.0888,174.3915,-115.0904
-12.8496,13.1128,-20.4258,-109.2765,-18.7443,-252.3205,39.3764,40.3068,85.4928,69.8958,52.2732,-103.7025,59.3648,8.6857,73.2629,90.6153,-125.2337,84.8354,-69.2837
-82.6017,10.7936,-13.2239,-118.2092,-24.7366,-225.7048,92.9669,77.2290,75.8434,142.3240,75.3285,-135.6869,59.9701,8.5022,52.9522,69.4039,-112.6082,57.5096,15.1665
-115.5193,40.1170,-16.6105,-38.1617,-59.0374,-111.9933,85.1651,61.6221,9.3341,88.8622,51.0094,-61.4224,33.5311,3.0002,-17.6092,19.0251,-67.5646,137.8975,72.9327
-53.5837,74.6799,-35.1449,50.3842,-115.0669,-1.4111,74.7308,18.9065,-29.4804,-64.8237,15.2062,54.7699,21.1782,-37.0411,-44.0073,12.9543,13.9755,81.6682,111.0591
24.9174,33.8913,-32.0152,66.8898,-148.2648,74.0529,50.9438,0.8704,-6.4188,-80.2228,4.0099,60.5487,55.6471,-37.8054,-38.6511,38.3145,107.7779,32.7358,137.2015
30.3002,-30.4998,15.2439,28.6450,-85.8143,95.2857,2.4655,15.9925,14.8029,33.3693,7.1590,2.4101,51.2753,-8.1820,-42.5115,41.7419,145.2323,114.1452,107.2530
-0.2026,-37.5679,75.0013,-32.0715,30.6291,53.4749,9.3476,42.7741,19.8568,120.2507,20.2314,-4.6978,-1.4257,-7.0568,-19.8296,33.7904,75.2174,102.4188,30.8677
-53.1242,-46.7053,76.4536,-85.3246,61.1912,26.1225,47.2143,70.5944,22.7207,180.0925,20.7681,21.2755,-16.6629,27.3779,10.0195,39.7178,-46.7366,28.0283,-34.2351
-151.7269,-71.5846,22.9714,-65.2014,34.2413,67.3223,54.1413,110.0308,23.2051,254.3344,4.4199,45.0336,2.8382,132.3210,17.2055,62.8255,-106.6773,64.6562,-59.2829
-205.7802,-39.0984,-8.1040,-3.5464,85.1944,79.9280,109.2284,147.3783,65.5755,301.2084,15.9527,66.2197,24.3748,200.1649,73.2976,105.0291,-73.9108,71.9336,-28.8222
-140.4260,-12.5745,5.1625,-30.6546,175.3670,-27.0876,209.0163,116.3913,137.3311,287.8257,48.4723,40.5707,82.4484,167.2358,163.4741,125.3634,-4.3118,6.5482,27.5361
-57.7907,-74.5581,34.2669,-130.6609,192.6853,-178.0100,192.2046,-6.4154,108.4982,200.8240,47.0404,-26.0744,148.0513,79.6785,151.1339,71.0108,45.2303,34.0886,8.6469
-65.9800,-125.0772,51.3501,-173.6332,134.4581,-262.6585,48.7195,-135.5222,-46.4940,29.0235,10.2843,-32.7245,116.9864,-29.1435,59.6838,-12.8206,28.6920,71.7417,-105.0282
-129.2029,-100.0733,-2.7291,-161.2723,25.4186,-279.0393,-77.8195,-200.0626,-170.9861,-137.9010,-43.1732,30.0025,0.1471,-113.5910,32.9647,-44.2102,-52.3862,18.3243,-184.7040
-168.9455,-78.9053,-130.6254,-144.8865,-86.6411,-254.8248,-122.8315,-217.0160,-156.4692,-132.9830,-97.0835,67.3023,-72.9699,-90.4004,59.8435,-28.3033,-98.2631,14.6897,-149.6547
-153.4592,-42.2650,-204.6135,-68.6887,-129.0945,-173.4921,-89.4622,-190.9520,-58.6052,39.9173,-104.5007,94.1155,-54.9908,18.3261,60.4307,-5.2385,-32.1957,48.9609,-74.8008
-94.3931,92.1086,-157.7593,76.3576,-170.5497,-48.6599,-40.4679,-128.4005,1.6177,122.6330,-76.6342,195.6345,-41.3902,73.8718,48.0571,7.7315,81.7379,8.5837,-46.3532
-26.1346,229.8906,-65.3962,176.4131,-293.3322,41.4376,-100.8200,-113.5949,-33.5220,-21.9980,-71.3377,308.6770,-105.1976,25.5802,17.2330,-9.4386,158.9329,0.5231,-47.8874
33.8442,227.8450,34.1168,173.2057,-342.3443,58.8165,-235.2939,-156.9401,-82.6494,-123.7975,-47.0173,308.0246,-177.0795,-9.1263,-58.7948,-34.1209,200.4644,50.5150,-22.2808
75.1927,121.8256,124.5988,114.1085,-202.5141,63.2592,-266.4461,-130.3073,-42.1199,40.4040,20.3512,231.6953,-168.2154,66.9449,-105.0262,-10.1362,213.1921,22.1260,31.0537
67.6321,30.5702,118.3433,50.0624,-50.0773,98.5863,-197.7936,-25.5246,24.7392,198.1243,11.4957,198.2696,-106.6205,157.9561,-69.1713,26.2885,184.7236,-19.6227,64.7162
16.3936,-12.5280,28.7628,3.4375,2.0568,107.1528,-152.0474,10.3107,7.1742,98.5663,-86.7092,205.3786,-49.4593,121.3191,-32.1630,8.0854,139.5684,22.0721,69.5332
-30.0069,-44.6547,-10.8610,-30.6829,70.8999,46.0914,-103.7565,-23.1943,-29.4300,2.8787,-110.9209,181.5254,0.6823,23.5921,-29.0672,-7.1567,101.2750,35.2121,81.4955
-52.3927,-76.7585,2.9053,-62.0783,182.7851,-13.9109,-5.3970,1.0255,18.9056,118.0208,-39.5169,137.0287,28.7274,27.7101,10.4388,36.7557,61.4826,0.3649,102.8076
-46.2537,-70.3608,-9.4639,-65.1153,241.5515,-5.1593,73.2680,66.5788,94.6006,200.4929,-3.7957,130.9873,25.8676,100.6860,75.3488,62.6201,33.3627,16.8917,112.0506
-9.3924,-33.7503,-19.6999,-38.3473,242.1104,34.1353,102.0936,95.8684,124.1660,131.8354,-19.0855,151.7524,49.1064,113.8690,79.6507,42.9281,37.3415,35.1174,126.9852
0.9239,-40.5182,-8.4420,-38.9770,211.9246,43.5795,116.6937,115.5689,149.7262,132.4829,-24.5556,138.5801,113.9828,88.9594,48.0732,63.9233,48.4008,11.4297,154.7173
-40.5458,-69.2261,-19.9779,-64.1913,156.1449,19.3015,115.4004,114.3629,180.3688,240.5905,-16.9291,102.7237,150.8732,75.8600,75.0340,106.1009,42.5786,18.9860,151.1570
-25.9943,-8.3143,-15.6748,-34.4075,119.4555,-8.4738,100.4760,24.7413,144.5158,277.7764,9.7467,117.5826,126.5122,23.5985,136.9892,68.0243,40.4733,39.2225,101.3397
101.0653,117.7566,39.5243,57.9081,72.0142,-2.6153,66.5263,-80.0608,56.2919,235.5988,54.4853,178.9565,49.4598,-45.2897,122.7870,-2.2751,63.0088,28.8302,42.2624
215.4542,168.8678,69.9292,127.7112,-74.8689,40.8646,-41.9317,-84.8510,13.5190,196.6133,65.1128,200.2287,-65.9181,-32.7689,23.9518,-0.5219,99.8605,39.1075,0.8886
209.8365,110.4681,58.8110,107.7029,-216.1270,67.8058,-184.0305,-49.1036,19.2031,141.2430,23.0628,159.0035,-135.5086,21.9579,-52.8523,30.5384,118.0257,54.9003,-6.9631
122.9575,3.5340,65.9203,8.3716,-169.4973,49.0729,-215.3998,-62.1558,5.3750,80.4924,-28.0675,118.2078,-93.2417,32.0566,-55.8122,31.9703,90.9246,28.9000,22.9269
36.9072,-96.6091,73.4320,-80.9391,-8.8255,28.4456,-137.7190,-69.0139,0.0317,83.8156,-21.2694,105.2100,-18.0583,52.6541,-31.6701,53.4442,42.4644,15.8852,50.9754
9.7002,-132.6607,63.6083,-96.6347,86.0567,19.5261,-90.0442,-15.2828,62.9169,130.1983,83.5993,84.4735,20.1308,126.1980,-7.4741,94.5790,11.9527,30.0872,50.4095
37.0818,-105.1707,73.6862,-107.0663,130.7811,-22.8948,-92.1520,41.2618,125.8126,144.6066,177.0450,46.1538,63.4307,158.1030,29.9203,80.4293,-19.7599,21.1435,52.2191
35.1456,-88.9748,68.2060,-165.5694,214.9978,-85.4111,-59.9812,42.0116,104.3782,126.5248,104.2722,32.9799,113.2181,110.6457,59.1186,43.9968,-70.6816,19.2814,63.1453
-21.0015,-91.7589,16.9736,-185.2454,318.6340,-102.9757,6.1457,7.4837,58.7959,134.1263,-23.0815,57.3465,133.1609,72.2699,59.5447,69.6857,-91.0896,39.0448,55.4033
-42.2694,-77.5496,5.7388,-152.7584,379.7711,-93.9614,50.1461,-0.5320,69.7638,191.1425,2.3076,60.1923,150.5687,76.0747,65.1092,112.6047,-70.3926,24.2455,55.5249
-4.9450,-89.6900,55.4688,-197.9186,365.4104,-136.1926,76.5458,40.3996,112.2800,255.6631,75.2735,7.9760,151.6728,62.2154,88.0013,102.0213,-79.3597,0.9678,93.9082
18.3806,-131.2095,79.2194,-303.8372,288.5985,-216.8575,123.1343,63.3915,160.1869,284.8035,22.4998,-38.1848,97.1890,4.0512,95.2933,79.1060,-123.1946,11.2630,121.9129
24.9448,-109.2127,74.5035,-306.5417,215.9098,-240.7171,186.1115,10.3285,224.8928,282.6758,-36.4657,-21.8089,73.9143,-62.8304,103.6461,72.8134,-130.5140,5.7198,109.5142
60.1821,-32.9774,76.4501,-207.4585,169.0401,-177.8564,225.5497,-48.4826,266.4539,262.7886,11.5127,33.0492,119.0356,-92.3774,153.3533,38.6018,-99.1422,-13.4410,105.5914
101.7047,8.6893,54.9864,-130.2469,89.9679,-91.4613,217.9273,-26.0367,243.7757,245.5542,59.0550,93.7287,82.9505,-62.4638,200.3435,-6.8354,-68.5929,-1.5016,122.9286
112.4948,34.8074,40.5998,-87.9057,-16.0741,-31.4575,165.1709,28.2337,192.4975,249.8081,52.6276,143.9006,-54.1918,-3.2644,179.1715,0.2261,-24.9582,2.1719,107.4875
91.4320,67.3751,92.1385,-57.0881,-59.6177,-3.3912,70.9301,23.3472,144.2505,201.0897,33.2550,144.3674,-95.9004,18.3683,118.4535,33.4013,23.6211,-15.3206,41.5723
40.0009,38.6665,139.8055,-66.5598,-14.5327,-21.3940,-35.7744,-41.9123,87.0847,34.3929,-6.6741,94.9028,-5.1986,-21.3344,81.6595,27.0730,22.3686,-10.6544,-44.1685
-11.9154,-28.3600,123.9647,-91.3459,64.4226,-86.4855,-98.6865,-126.9771,30.4483,-92.2524,-23.0415,62.2877,61.4517,-63.0713,71.8835,-5.8862,-8.5618,-12.6163,-125.5775
-6.3680,-32.7568,120.6189,-76.6288,132.2593,-144.4703,-111.7415,-202.4615,-5.3893,-20.2628,41.9856,69.8770,78.3617,-43.9949,57.9561,-16.6969,1.9654,-35.3115,-176.1479
57.2107,-1.8287,168.2705,-40.9861,175.9428,-156.5034,-112.2948,-240.5338,-22.2378,84.2651,99.8356,81.5761,134.1015,-0.3693,27.6365,0.8139,43.2064,-19.8131,-175.3944
111.5867,-17.8510,209.3986,-18.6348,208.6785,-154.6334,-90.0499,-241.9744,-7.0624,26.4746,89.2171,88.3097,211.0889,-9.5833,10.6154,18.2823,61.1261,6.7893,-151.7085
93.5363,-63.8854,207.1505,-18.8148,238.9853,-173.1294,-27.7808,-227.2330,59.2530,-64.7532,80.9440,81.7748,223.1888,-38.8746,56.5937,14.9160,44.0045,-15.2664,-140.9080
4.2952,-103.3955,137.8382,-59.2286,226.2504,-206.6808,25.3607,-183.2333,144.5937,-31.1190,69.5515,36.6317,162.6763,-3.8421,134.3560,7.9465,-8.9869,-31.9653,-126.2016
-64.5299,-120.3765,6.3840,-103.7974,158.3398,-241.0493,40.5652,-110.5708,180.5763,49.0982,10.6056,1.1115,113.6514,40.7081,134.9970,19.7220,-72.2924,-17.4608,-90.1643
-29.6465,-66.0390,-88.4736,-63.5467,109.6983,-246.4338,52.4655,-79.5425,138.1997,93.4298,-29.6337,51.9263,132.6257,-17.5366,64.0521,16.9495,-64.9019,-24.6888,-68.7780
45.4203,49.5928,-89.8979,52.7251,95.0681,-187.2013,62.7262,-127.4507,75.3745,118.0496,-34.9415,152.0711,144.2518,-127.3879,50.2667,-31.9799,26.7656,-31.2075,-80.5768
53.2700,118.3433,-66.7509,148.1960,26.6265,-82.8153,46.9643,-170.2663,67.1678,92.8648,-59.6737,211.4332,68.3108,-162.1811,87.9835,-74.8253,104.8116,-9.4293,-76.3018
30.0210,104.4087,-42.8280,199.4902,-81.4614,15.2266,18.4966,-119.7347,72.7195,14.6808,-49.1481,226.3632,-16.7590,-121.7830,41.0831,-61.6859,130.1431,-8.4564,-33.0366
61.2266,90.5157,27.3154,235.5005,-97.6340,93.3100,-22.4843,-17.5165,3.1193,-7.3304,19.9015,242.4064,-26.1470,-60.2796,-66.9645,-27.1715,159.1204,-18.0289,-3.2330
115.3002,114.7573,107.1101,228.1932,-0.2244,146.5641,-77.2734,36.4573,-77.6448,61.7495,39.0202,265.0004,-11.3042,25.0930,-87.0586,-3.3222,188.3228,1.7233,-2.7529
124.0449,126.4067,140.4883,159.4965,116.7890,145.1715,-71.6360,32.0278,-43.9103,109.5861,21.1261,264.7728,12.6656,113.3253,-25.2208,21.8213,175.5973,7.9334,23.9247
95.8945,99.0733,162.6051,96.4995,212.0266,85.9816,31.1471,32.6450,52.0111,80.0583,69.0002,222.8194,99.8089,139.8186,12.5281,37.1946,162.9748,-10.3049,73.2448
65.1278,62.7570,192.3433,86.1867,277.4773,6.0413,122.3981,48.5237,86.5164,55.2712,118.7585,166.3807,183.3881,104.4671,27.2733,28.5430,181.0743,-5.8999,73.7154
41.2887,37.3192,182.2208,71.9112,288.8945,-64.2227,129.8274,43.2331,87.8492,99.8461,102.1788,139.5128,176.3104,76.5694,57.5684,23.3613,153.3667,1.5263,36.0461
24.3214,9.2558,128.5085,-12.9656,282.7237,-115.2605,142.2451,45.6212,132.5182,174.7346,99.1803,124.4413,155.1165,92.4662,83.9722,35.5329,38.2202,-4.3152,35.1145
3.2814,-34.3286,74.2610,-144.6890,294.3937,-155.3619,204.1122,108.0873,178.7659,222.5479,100.5387,74.1748,177.1280,102.2478,100.8072,44.0464,-88.0699,12.6578,52.6066
-36.2538,-86.2241,27.7886,-237.6777,240.8899,-198.3963,205.3835,172.1057,148.2412,225.9551,15.5463,14.0645,157.4279,37.1138,109.1557,37.5984,-152.2220,19.0906,18.3862
-79.8854,-117.9615,-26.8031,-221.4045,83.4818,-227.8006,105.7721,137.8482,55.1978,187.3118,-88.3830,2.1087,81.6857,-65.7922,77.6149,14.6789,-149.1863,-11.7155,-44.2911
-83.8152,-83.2023,-79.9360,-96.8759,-37.9778,-212.5689,36.5956,34.7428,-6.3543,145.3654,-110.8746,36.9674,48.3714,-104.7401,29.6901,-14.0074,-107.8903,-8.7385,-75.1282
-23.7768,25.4976,-93.9740,40.7556,-56.4456,-160.5905,57.4726,-33.6323,12.0981,150.3045,-84.8914,84.7730,55.8830,-97.3181,28.9296,-19.7655,-84.6471,17.7696,-95.1664
49.1829,120.7325,-56.0334,85.8268,-117.8427,-94.7744,47.5878,-44.8539,31.6150,162.7671,-41.2516,119.7349,2.1095,-121.2223,47.4882,-10.7592,-110.8687,-9.1615,-139.4946
48.9004,118.4275,-19.2309,60.5476,-263.4988,-2.0388,-34.6525,-16.8745,-9.0997,134.3689,15.3109,126.6321,-111.3025,-107.8825,27.3015,-11.6833,-124.0942,-30.8742,-160.6950
-18.9334,66.9026,-22.3226,74.7362,-289.0909,131.1998,-52.3317,67.7715,-21.8364,150.3534,26.5319,131.2124,-152.6003,18.5519,0.0063,17.8322,-58.0581,8.2610,-108.0119
-56.7101,52.4064,-5.4278,141.3968,-101.4569,254.0280,21.4939,168.5476,34.4998,249.1294,-3.9873,165.6195,-59.2935,127.7290,0.1702,93.9785,46.4324,17.4751,-33.7564
-20.5576,56.0981,88.3086,173.8443,113.5669,277.0370,34.6807,175.6813,42.3484,297.3014,8.1138,187.9025,55.9576,106.8289,0.6036,123.4421,114.6930,-21.1272,-25.2020
40.4417,36.1320,199.3801,145.9153,199.9463,192.8183,-31.1198,96.4908,-17.4130,268.3621,61.6939,154.7868,87.3888,69.7668,1.7428,72.3757,126.0047,-13.1270,-74.2719
65.6735,20.7883,230.4088,101.7288,203.4890,116.3798,-33.1690,67.4283,-21.9096,266.4650,94.0876,119.3938,93.5557,116.1198,31.2912,42.1040,80.2024,23.3710,-105.9834
18.7839,17.2597,155.5484,56.0427,190.5930,112.2020,38.6381,118.2554,27.6069,233.2057,92.6806,119.6521,129.8170,160.9877,68.1807,69.5485,-7.6407,17.0497,-99.8459
-77.8332,-17.1250,32.2192,11.4095,157.4643,85.4102,90.1215,138.5080,57.7354,133.1936,54.8961,92.6396,129.6354,127.3427,84.7602,92.0709,-75.0974,-1.5212,-82.0454
-122.3738,-63.8078,-39.2169,1.3599,119.8833,-7.3966,138.2641,91.6903,109.1184,154.6299,-8.4335,24.2586,89.8165,70.9890,99.4254,107.3791,-73.7478,-6.0648,-51.9417
-63.6300,-51.8566,-22.8778,38.2250,108.7597,-38.3594,208.0271,37.5576,172.6792,267.6237,-34.2873,15.1552,96.7655,77.2521,125.4949,128.5282,-29.0529,-15.0024,-23.8432
8.7165,14.6687,1.6111,88.2319,104.1128,39.9897,214.6334,-12.1029,135.7704,203.8226,-5.0805,92.6343,132.6955,136.5923,140.1013,106.1031,18.3455,-7.5774,-48.8957
8.9161,47.9455,-18.4257,115.9728,63.5018,103.2479,120.7125,-62.1161,29.4455,64.1083,18.7051,135.1670,132.9844,139.7214,117.4816,61.0413,57.2685,14.8775,-112.2752
-36.8185,-3.1315,-32.4477,103.8827,-22.0195,103.7018,-10.6424,-74.6399,-31.0511,97.8516,8.4868,74.9841,111.4741,54.4285,57.4210,72.2081,69.0722,9.1734,-143.9707
-71.9997,-77.2447,-20.4235,55.6839,-113.2723,93.2711,-129.3313,-71.6007,-78.1253,123.2350,-16.9250,10.3420,54.0686,9.4765,-8.5268,90.1656,39.3553,-5.6743,-154.5193
-59.6047,-73.7744,-24.1724,5.8073,-150.7360,47.4608,-198.1815,-120.5204,-153.9731,-7.8427,-50.4007,32.8689,-54.6766,37.4593,-46.9650,27.5799,6.2884,9.4280,-194.4230
5.3748,9.7093,-41.5973,-10.6448,-128.1677,-40.5448,-200.0770,-180.4492,-179.5768,-56.3835,-93.2184,97.8735,-112.6649,8.7778,-56.4272,-47.6370,10.8858,24.9441,-226.7925
42.3909,79.9181,-56.0226,1.1634,-102.9986,-71.6737,-195.7274,-163.6829,-129.9351,-4.5974,-144.6880,138.9245,-91.8061,-23.6775,-47.7043,-44.4402,25.6015,18.1837,-199.5696
-18.1273,83.6289,-86.5367,5.7948,-92.9700,-34.5958,-214.7366,-97.3323,-60.6347,-58.0422,-182.8731,153.7727,-113.5219,96.5626,-30.6512,-5.3423,15.7892,17.2557,-135.9182
-77.8909,43.1259,-110.4787,-23.5252,-51.2939,-36.3363,-185.7283,-57.4252,15.8625,-84.1559,-157.1586,129.5949,-152.5523,192.9174,-31.4443,11.3639,14.0868,26.9984,-55.2519
-18.4661,-21.2304,-85.5606,-86.6079,22.5042,-107.3416,-98.2017,-63.4698,66.6776,24.9276,-84.7584,48.9459,-73.1595,43.8866,-61.0765,5.9883,35.0591,28.3688,41.8438
69.1609,-95.9269,-53.7333,-166.0330,66.6369,-198.5358,-27.2806,-106.7727,36.5070,27.5650,-59.3553,-29.0505,45.8713,-115.6884,-84.5781,-29.2096,4.7881,22.2140,104.2264
33.6841,-141.7251,-70.4188,-236.3146,64.0952,-265.4743,31.8349,-142.0443,-8.9064,-63.7318,-80.2538,-50.9355,65.4632,-48.1310,-68.2325,-75.2559,-110.0428,14.6910,103.4966
-87.6122,-143.5420,-116.2235,-267.6971,46.4899,-255.3781,112.2072,-106.6196,17.4223,-7.1759,-61.8821,-60.6559,54.2368,20.9834,-14.0789,-66.3403,-213.5158,11.6619,95.8325
-165.0555,-142.7426,-171.8427,-256.1830,8.2824,-182.1142,143.6911,-43.6180,50.9344,49.5804,-26.6832,-80.0617,73.1790,-72.8288,49.4148,-14.5109,-229.1297,14.9318,105.0292
-165.9713,-161.5172,-236.0226,-235.3108,-80.4211,-150.1971,81.0274,-44.8415,15.0671,-53.9655,-51.6055,-42.9488,42.1068,-127.9223,64.0419,-11.5772,-204.9571,9.4091,88.6226
-117.8653,-153.0141,-254.2156,-215.6034,-199.1146,-170.6837,7.7936,-76.6234,-35.1116,-74.6857,-93.4958,58.5407,-41.0214,-83.1614,-1.8959,-67.6294,-186.2606,-6.0873,53.2093
-39.8496,-91.0584,-186.0273,-173.6794,-284.5725,-157.6452,-13.8921,-69.6486,-36.4505,32.7078,-79.0405,126.7845,-99.2526,-91.9918,-77.4204,-94.0465,-141.8039,-12.5366,42.0658
25.4857,-50.6148,-101.6216,-135.3651,-300.9099,-126.3526,-29.4990,-53.7473,-10.7133,24.6053,-38.0996,101.6210,-134.3674,-106.5339,-82.6822,-41.3179,-74.6338,-9.6426,44.7468
46.0262,-89.1827,-77.2934,-144.9093,-258.9535,-132.0479,-67.3723,-30.1303,4.1526,-17.3037,-16.6088,31.8850,-146.4496,-23.4097,-50.0540,40.1641,-41.8500,-7.9073,43.8238
56.1768,-115.1217,-69.6756,-156.4938,-171.3597,-127.6634,-66.8616,55.4093,4.5151,84.1332,-8.9978,8.1369,-88.9572,33.8548,-32.9903,63.8994,-44.5552,-3.6578,58.6906
76.2349,-40.9242,-11.2086,-122.7923,-43.0430,-95.1778,12.2588,135.9187,11.9464,174.2376,-18.4316,57.6069,8.8822,-2.6071,-10.6866,18.6989,-41.6172,3.8123,81.4709
63.8393,35.0770,48.1451,-111.9410,82.6664,-106.3082,93.7454,102.3510,34.3490,179.8324,-47.6898,96.4201,70.5368,-11.7957,24.2239,-7.9112,-47.4808,8.8825,80.2689
21.1760,3.3820,21.9006,-165.6768,141.6818,-161.0783,87.8066,14.0131,32.6501,220.8088,-48.5787,54.2033,73.9731,7.0651,27.3729,20.9843,-94.7382,12.1624,64.3710
9.4263,-58.5744,-51.4371,-193.3368,130.5474,-188.2924,36.3557,-17.7652,-15.1429,206.7866,12.3726,9.2368,30.5818,-48.6089,-2.6727,19.4627,-145.1375,7.5074,62.5837
24.2533,-53.8495,-74.5257,-136.1993,89.8861,-171.5206,26.4680,-12.0464,-49.2578,60.9390,67.1415,40.8504,-20.0400,-115.0484,-19.1525,-38.7214,-137.3691,-4.1206,79.2844
19.8074,-23.3591,-60.3665,-58.4453,24.3755,-132.9017,38.3950,-28.2870,-19.4453,-25.8769,24.0110,62.9109,-20.3181,-87.6616,-11.4539,-48.9008,-83.7791,0.4820,102.3100
19.4447,-10.8757,-76.5964,-27.9397,-66.9098,-105.6829,31.5062,-73.7777,26.4428,-26.6193,-74.4402,8.0997,10.4503,-37.3058,-7.2540,12.1304,-51.8102,17.9952,100.7021
44.1504,6.3765,-109.2005,-51.5179,-145.3067,-136.5869,35.5099,-144.2649,22.8658,-104.8046,-100.0801,-18.9035,-0.4766,-59.8918,-20.8440,39.1750,-71.1347,17.8981,43.0772
47.2377,19.9809,-117.8392,-87.8413,-198.2829,-192.6589,33.5280,-208.1805,-16.7192,-157.5795,-54.2856,39.6056,-49.5064,-109.6036,-41.4786,9.1838,-91.8297,3.7658,-31.3489
33.9106,6.3327,-98.0578,-66.5481,-245.1675,-167.9591,-35.7622,-200.9305,-33.6455,-30.8377,-44.7015,73.3969,-76.9257,-95.2209,-53.6247,-5.4045,-42.9655,-2.6671,-35.5841
60.0152,-6.8086,-31.4276,15.1254,-253.2655,-60.8694,-123.6582,-121.5004,-16.8545,90.2696,-53.0481,28.2900,-68.9181,-6.7936,-57.1047,2.1238,63.0260,-0.8275,24.6606
83.0829,6.9218,67.5951,64.8623,-185.1328,9.4198,-147.5433,-56.6867,-21.8846,14.4324,18.2067,-10.0204,-53.9152,74.4615,-61.4004,-4.6694,123.5593,5.6685,36.0711
35.6423,25.6990,105.4731,41.4745,-89.6030,-19.8028,-145.7478,-85.0535,-76.1108,-157.4289,106.8697,-4.9903,-48.3347,54.8817,-70.5953,-25.1810,85.4948,10.3613,-40.3847
-18.8532,12.3384,61.1402,-1.5783,-10.6676,-87.6831,-165.0419,-186.6286,-119.2178,-265.8405,89.1885,-12.5588,-31.0658,-49.8316,-84.7208,-60.5126,31.7790,2.6737,-83.3027
-2.9197,-35.2436,39.6703,-29.9225,92.4824,-99.0328,-151.8742,-235.5320,-109.0102,-244.0619,31.1789,-46.4249,23.9572,-115.3426,-87.6444,-97.3459,53.6391,-3.7862,6.2903
39.3879,-57.6160,81.1231,-35.5694,230.0735,-25.5991,-71.1282,-137.2163,-95.5719,-101.8064,64.3763,-63.9821,83.9176,-79.9823,-53.8938,-77.5856,114.1865,4.1255,144.2058
49.8432,-8.2626,109.0649,6.0325,325.9987,71.7789,29.8620,22.7403,-103.5629,34.0430,137.5457,-42.8619,98.7008,-18.3333,-11.9337,-3.7272,134.9069,5.0900,203.2780
35.1024,61.8509,82.2992,84.3274,326.1481,131.7264,85.5617,91.3496,-83.4112,49.9133,123.3766,13.1481,77.8397,3.7546,-27.2832,40.8717,122.4023,-3.3890,195.2259
10.2379,103.2413,31.6641,158.5669,238.3269,165.4362,51.6100,64.9035,-41.2932,21.6747,41.1911,85.1744,30.3971,23.3070,-83.5675,36.8375,119.0045,1.9031,187.2726
-2.1856,152.8934,1.7522,216.4843,102.5830,207.1501,-31.8698,44.1915,-36.4517,77.3140,-1.2182,131.0855,-49.0919,74.6180,-103.9276,44.0089,129.5074,5.5084,183.6327
23.3539,207.4792,22.9619,244.5694,2.1536,268.4855,-47.2408,70.7167,-47.0793,192.0412,11.9607,123.8103,-83.1194,111.5803,-88.3303,84.7924,150.4574,-1.1439,187.4360
53.3654,201.0006,61.7725,233.0895,-9.0996,345.7311,6.0966,122.1964,-24.9922,234.9717,15.3555,93.1856,-14.2445,99.3275,-80.4280,131.4111,177.1214,18.3642,211.1293
47.1884,163.4833,53.6215,230.8899,-9.6039,394.3019,-11.9305,155.6618,-12.0744,147.7652,-5.4457,88.3809,41.9514,78.2487,-71.6737,149.9174,185.3433,48.5522,199.3576
45.3743,178.0076,32.4706,266.1633,-88.6188,359.0205,-109.8789,131.1352,-41.4441,46.0547,-7.4687,118.4817,-14.4747,81.5411,-69.2261,124.2154,182.2675,36.9497,121.3391
96.9777,224.2981,78.7311,282.5952,-172.8720,271.4599,-136.1699,85.0332,-55.4764,92.8932,16.4568,155.7794,-95.0134,91.4030,-116.5768,99.2767,204.7921,16.1462,68.8844
166.1757,243.9359,149.0750,253.1119,-141.3417,209.6176,-72.2086,101.7049,-31.6429,259.2432,42.5337,174.9997,-111.9080,115.2537,-175.7988,135.5170,220.3135,38.5671,99.4654
177.4870,234.4452,134.0336,221.7491,-20.2615,187.5128,-46.1862,176.6787,-18.9398,366.4457,72.1724,176.8349,-84.3222,185.1992,-162.8569,199.1892,152.8750,63.2247,138.1533
101.0970,201.7530,29.7533,201.9346,76.1207,178.2124,-71.1775,241.3993,-12.0808,345.7495,89.7850,179.5024,-21.8122,248.2431,-95.4719,220.5368,23.5869,52.7445,137.8890
-10.4463,152.2421,-70.6271,168.6438,102.7181,155.6499,-58.5611,279.5294,25.0830,269.8464,52.5905,179.9592,43.1689,202.5946,-47.1337,209.0893,-69.5121,48.9262,140.8567
-65.4234,102.4165,-88.6060,117.7321,105.7694,92.4475,-13.3291,294.3249,47.3013,209.7747,-4.9037,145.7144,37.2032,85.7344,-19.2428,191.9731,-92.7468,67.5814,164.9667
-46.9250,50.1126,-31.2297,69.1768,150.2299,23.4198,9.3100,270.6624,8.7488,175.7113,2.8374,79.9633,12.9326,50.1902,22.0705,155.4841,-84.5254,73.2928,195.1079
-23.2763,24.3666,20.0051,71.2260,231.9283,29.5915,21.5503,232.5445,-34.6692,111.7857,60.2209,45.1016,73.5508,103.5217,60.4752,114.8306,-62.5175,64.0665,220.2586
-17.0229,75.8284,24.7705,152.8419,268.1225,90.6170,38.4305,210.4010,-28.8661,3.1162,92.1238,71.4233,138.6338,104.0100,50.1269,106.0706,-18.8059,60.9023,205.7474
9.8039,153.6283,27.5305,235.3220,224.4602,114.8871,38.6777,184.1688,-6.0303,-6.0801,101.3366,116.8507,99.2770,64.2419,-9.7244,118.5352,18.5132,64.3362,148.6777
40.5280,176.7423,39.2641,229.4901,169.3729,104.5408,46.1815,159.7715,0.6530,150.4756,105.3848,151.6052,49.2387,142.5879,-44.0508,134.3009,2.2349,70.2996,120.7930
27.0070,174.5558,27.5340,186.2316,132.2782,108.5222,95.6002,182.8513,2.0259,250.8365,66.4001,179.1543,82.4850,287.4952,6.3177,162.8366,-42.2726,74.2415,138.4801
-1.2695,165.3575,35.5611,185.9995,64.4945,108.2523,128.9435,229.4412,4.8435,168.8020,6.7440,176.4431,111.4622,284.9660,68.7042,200.8323,-19.4834,67.2935,127.8639
19.5328,104.2575,122.6211,200.7747,-2.8509,84.0744,80.8271,229.9433,8.8934,120.1977,20.2466,133.2833,70.5706,164.4735,32.1931,228.0002,90.5950,57.0344,75.2171
80.3839,55.7633,234.6279,192.1876,26.3573,54.3515,0.8029,181.5107,10.6008,189.0519,101.3930,104.7927,32.0370,125.3749,-67.1672,217.6085,178.7724,62.6575,29.1165
119.4812,109.0974,284.3446,173.2304,123.6464,12.2198,-38.3601,126.7724,-16.3528,157.3230,143.2002,119.4316,39.7919,157.5217,-106.3972,154.8639,165.0408,82.4200,-8.9236
104.8428,165.9510,257.0880,128.6195,175.5683,-47.2590,-48.3534,96.7117,-74.0811,19.4178,107.9834,119.4711,45.3662,150.5823,-64.2033,99.6774,94.1326,93.8853,-36.8226
50.8868,112.0128,178.2269,44.4974,173.6447,-91.5608,-51.7547,112.7148,-108.9501,10.8841,49.9225,65.7858,23.1358,145.2897,-6.4037,122.8357,30.2285,82.9338,-13.8006
-13.8209,20.5597,96.0609,-19.5053,189.0085,-106.8736,-20.8669,152.7184,-86.4792,105.7016,13.7069,6.7063,17.0338,144.9067,33.8109,152.8176,-4.0781,63.8307,48.8574
-61.8859,-3.6064,66.3520,-6.7030,236.2969,-92.8222,59.3154,155.0391,-28.4580,103.7415,9.8682,2.5183,69.0065,37.6535,57.0789,83.4053,14.8567,68.2914,105.1636
-66.1640,38.4721,84.9936,61.2894,275.3020,-25.6266,157.3678,119.2910,34.1464,27.8884,29.9927,44.9815,152.2489,-110.0492,65.5692,-15.6116,81.6337,94.9551,159.4371
-22.4901,90.6036,111.5389,123.3852,271.3085,79.2742,225.0822,98.9565,66.1116,-28.0653,45.4475,69.2667,194.8161,-112.4873,71.7097,-27.2638,129.4090,103.7282,205.0726
28.7445,88.6002,128.2931,132.9513,222.1111,149.1978,225.0663,87.6639,39.8548,-100.7338,40.8191,42.6423,166.7830,-17.6467,75.5159,10.2137,114.7670,87.7483,185.8026
39.3583,43.3386,111.5589,99.0685,166.6054,150.6217,173.4133,55.0429,1.9000,-159.4685,34.4529,21.7218,110.6889,13.7596,56.2572,24.1013,67.4657,81.9436,103.4145
4.9468,47.4572,59.1062,84.4567,129.8905,121.9583,134.8214,44.3156,24.4752,-96.7295,34.2456,62.8387,75.8776,15.2273,24.9510,33.9794,37.5401,94.4401,35.1244
-31.8541,96.2670,48.2627,118.9789,82.8025,114.8789,127.0297,87.8571,81.2143,46.4592,24.9998,121.9817,60.8944,68.6700,26.8887,53.8252,64.6981,102.5520,16.6964
-17.9289,101.8068,122.8819,162.2760,24.6611,143.9081,100.7521,113.9022,96.0854,146.0884,10.4981,132.6316,37.0948,111.1284,68.8986,59.4199,152.1250,99.4502,6.8613
41.1124,90.0811,202.3915,175.5454,11.8221,167.3039,36.9301,62.7860,74.4086,159.6561,12.5944,100.1305,11.8813,89.7033,102.7828,51.4414,226.6726,94.1077,-36.3764
65.3849,102.9256,217.4089,154.3206,43.0654,135.8359,-28.6167,-9.2931,66.4628,86.2056,36.8449,51.5003,30.3543,52.0497,93.9254,27.0753,209.9178,92.2735,-92.8720
28.2603,64.5980,194.8642,102.1594,48.6055,63.6890,-72.6053,-40.9501,62.9916,-39.3108,60.1236,4.6161,85.6333,21.6156,59.7533,-23.4916,123.5719,99.4210,-111.9457
14.1859,-15.7430,162.1318,40.6316,13.4712,-3.6679,-98.7329,-61.1570,26.1751,-125.4575,41.7202,-4.6118,97.4035,-13.9675,35.9520,-59.3687,45.4912,108.7474,-97.6241
50.4470,-13.5180,117.6985,10.8936,-13.4083,-42.8675,-105.2166,-91.3272,-19.3031,-139.7650,-16.3978,18.4689,38.5538,-29.7165,38.1699,-46.9484,12.5504,99.4713,-91.4722
50.7052,46.3201,78.9117,26.6347,-9.7927,-31.1419,-88.0508,-84.3690,-10.7086,-121.0896,-40.8665,5.6776,-20.2100,-16.6275,56.7564,-29.3536,16.1532,76.4681,-79.6078
4.0973,44.1581,55.4177,53.8696,0.9875,31.8433,-65.4372,-38.4192,38.8656,-79.0688,-17.4893,-46.9787,-37.6383,-29.4951,68.3399,-42.2656,26.3048,65.0797,-35.2401
-14.3643,4.0798,23.9588,48.5605,-16.8354,88.8934,-66.9243,-27.2738,37.9717,-46.1692,-52.0174,-56.8133,-45.0803,-87.5370,55.9991,-52.8106,7.9673,64.1714,-2.1818
-17.5222,-3.2272,-30.4580,11.0588,-68.2417,108.2542,-77.2283,-58.4108,-30.4889,-82.3065,-148.1888,-5.5597,-54.1215,-106.2875,30.7132,-33.7905,-35.6858,60.2374,-7.2174
-37.7392,-0.0590,-83.8515,-9.9004,-104.2388,117.6563,-37.9952,-62.0948,-65.8596,-129.7441,-143.7900,39.0776,-45.7024,-26.6475,23.2815,-8.9846,-56.1483,60.7527,-5.6604
-8.5760,-0.3875,-92.2728,15.4470,-100.3167,113.6304,35.6648,-39.5503,-22.2016,-112.9339,-38.4303,62.1539,-26.1301,59.8750,45.8596,-9.3985,-11.3075,68.5658,3.5405
80.8818,34.1373,-45.5979,74.2046,-110.0197,81.1957,38.8201,-43.8796,19.2768,-118.3461,-32.0327,113.0722,-16.4224,49.9029,70.9907,-31.9976,98.1744,65.1305,-22.5746
133.6204,111.3556,17.9353,156.4759,-157.3194,59.0834,-53.7558,-57.3245,-2.5312,-184.9820,-116.0625,177.8519,-31.3842,5.9271,48.6283,-41.2034,213.6255,51.9167,-63.3714
136.7183,179.2751,75.4625,230.0693,-190.8153,45.7702,-154.3630,-55.9235,-64.0190,-166.3799,-85.0074,174.5664,-74.9546,30.5383,-46.2628,-13.3796,241.0878,51.4536,-91.9608
146.2413,172.0184,121.5260,221.9362,-189.8794,-14.2603,-219.9796,-79.1454,-137.2487,-51.8018,33.4304,98.8221,-114.0358,88.1442,-164.0906,23.6365,151.6926,54.6843,-133.5209
125.8678,107.2000,102.9587,140.7279,-160.6664,-78.2859,-255.4085,-113.0933,-192.4615,-30.7028,44.3359,47.3618,-104.3921,102.6954,-210.7426,31.0257,33.1414,43.6964,-161.8671
38.4951,75.1413,1.4961,92.1412,-65.8907,-56.4201,-215.8172,-85.6580,-169.7133,-103.0840,-38.7360,52.7910,-43.5947,73.5559,-149.3461,22.6998,-10.2829,39.4823,-108.1161
-34.0587,63.5122,-72.9199,93.3331,84.6353,5.0402,-88.2901,-26.5679,-62.8140,-96.3620,-81.1488,39.9959,53.0350,18.4097,-28.4256,31.5523,35.9994,50.4354,3.6566
-17.1171,-6.6759,-55.0943,66.9677,192.8155,8.9001,39.1757,-23.7596,32.4780,-51.7407,-58.2195,-7.6656,160.1364,-37.8209,84.5624,32.6050,106.5608,43.1274,87.1831
51.8411,-68.0104,-53.8807,17.4270,220.8356,-30.2224,100.0082,-56.8012,36.4346,-114.1293,8.0925,-23.8845,209.4299,-46.2015,144.6695,-18.7077,123.3089,17.8979,107.2401
82.8061,-42.8381,-153.2330,-5.5026,211.7720,-57.2122,111.2431,-60.7167,-4.1593,-190.3447,65.2002,-19.9101,168.5029,-12.1576,141.6405,-77.2504,66.0110,15.1510,74.0149
20.5608,-40.5454,-284.5015,-25.7495,159.7908,-60.8469,100.5438,-47.6989,4.2621,-138.1930,14.5853,-59.5574,108.3678,19.2814,110.4320,-51.2526,-11.5180,25.5313,14.0056
-82.1381,-112.8741,-379.1599,-60.6550,37.1554,-49.1091,73.2250,-46.9756,51.2407,-53.0470,-99.3460,-111.0857,76.0023,48.6182,80.3222,30.5813,-69.8914,12.4013,-45.1348
-107.3292,-137.4363,-440.2782,-78.3434,-114.0004,-63.9992,22.3566,-64.3210,54.8000,-54.9091,-123.6176,-115.2705,27.1917,60.7745,42.1416,46.7450,-127.6410,-1.6310,-108.2416
-48.5325,-106.8517,-457.3078,-83.7576,-230.0089,-140.5562,-41.0474,-124.1105,16.0405,-85.6999,-80.2191,-102.8812,-35.3242,6.0172,19.5361,-10.0503,-166.5153,9.7033,-180.0027
-15.1100,-116.4722,-410.2988,-92.4623,-287.7282,-212.4082,-73.9934,-220.0387,-8.1895,-101.7453,-71.4452,-123.5430,-50.3055,-79.3813,50.6245,-41.9253,-132.3503,17.4236,-237.6781
-40.1683,-130.9689,-329.0004,-96.7566,-305.7817,-219.0073,-92.0645,-279.9138,-33.0955,-145.4371,-47.8237,-180.7652,-40.2349,-115.8486,70.4010,-36.0670,-78.9672,11.2969,-282.9006
-65.6498,-128.2052,-280.2861,-137.8038,-324.4804,-233.6350,-159.7652,-263.3091,-79.3442,-168.8736,3.2878,-253.2249,-61.5869,-113.0529,6.2955,-42.9701,-131.7590,13.9101,-311.5518
-85.6472,-194.0996,-313.0561,-244.9045,-332.3792,-305.7700,-210.1225,-203.7030,-98.3700,-110.0714,-40.7676,-291.4914,-76.7985,-110.4273,-54.8144,-46.4047,-287.1144,14.5884,-270.2799
-139.2976,-287.6463,-393.7902,-333.9070,-262.4808,-345.7418,-131.3316,-135.5976,-88.5877,-66.4478,-143.9538,-275.6824,-44.5490,-110.3246,-24.1139,-23.1524,-420.2297,-0.1258,-168.6079
-218.1891,-288.4389,-427.7071,-337.9535,-128.9172,-300.3507,-18.2519,-63.4471,-94.9917,-94.1268,-133.5694,-274.4810,-13.6312,-115.0714,10.0367,-7.3833,-459.2629,-4.8741,-82.4542
-268.7456,-234.6873,-387.7436,-302.5153,-26.9418,-224.8851,13.7867,19.8649,-75.0767,-60.3315,-47.4166,-316.6331,-16.4281,-104.2077,-22.1093,-14.8312,-414.4779,3.1001,8.5689
-247.6365,-203.9819,-326.6885,-256.4298,25.1751,-137.7128,63.2075,112.6653,6.7304,57.5704,-45.1975,-323.2695,-12.5292,-66.4778,-31.9421,-32.6498,-324.7275,-4.6091,137.1470
-176.7948,-179.6886,-264.1750,-188.8152,62.1845,-21.2721,154.4080,172.2274,61.7423,78.7680,-81.2491,-278.4251,16.1514,-73.7995,14.0384,-59.2458,-256.7652,-16.1977,186.8503
-130.3073,-164.6067,-197.4554,-143.0119,61.5668,75.9980,131.3663,150.1433,41.3973,-24.0931,-14.0180,-259.0265,41.3829,-138.6212,25.7020,-74.8288,-241.3912,-9.2038,100.3193
-126.6474,-169.5360,-152.3687,-154.7094,16.9245,99.6164,32.4588,75.4283,7.3558,-92.0783,104.5947,-264.6849,50.0219,-146.0089,-4.9006,-71.7586,-218.7566,-6.8952,19.7300
-116.5818,-160.4589,-117.0686,-187.4619,-19.8872,58.7316,34.8304,16.6430,-21.0903,-103.4305,115.0980,-239.0166,46.0894,-85.3563,-2.2143,-88.9811,-160.3473,-21.3323,8.0309
-91.3394,-155.0115,-55.0010,-206.9236,-38.4441,-22.1597,77.2177,-12.4409,-47.1517,-129.1349,28.6427,-192.0347,31.4071,-52.8431,27.8839,-111.7605,-136.5717,-26.9676,-35.8393
-75.0907,-179.9488,-6.0636,-204.5014,-70.7807,-110.7169,38.3514,-30.7781,-26.9028,-127.9223,0.8915,-151.7521,9.7359,-26.2842,34.4454,-83.0656,-165.4049,-20.7970,-117.3760
-58.0622,-190.5856,-22.0574,-185.5101,-139.1179,-150.0250,-10.9267,-40.5120,10.4419,-69.0116,53.7970,-127.3760,-30.4747,17.9015,15.4847,-48.4439,-162.8807,-26.7518,-150.4562
-48.4075,-197.4890,-64.0043,-194.8333,-260.9499,-122.8682,-39.4364,-42.1888,-4.3251,2.5062,60.1232,-147.4862,-105.0436,-11.4613,-21.6951,-68.5061,-106.2931,-48.2590,-145.0998
-79.3958,-249.8336,-77.6574,-243.4087,-380.9707,-79.8329,-98.6470,-37.3652,-13.2146,83.0327,13.5132,-203.8467,-177.7910,-82.2303,-61.9557,-79.4701,-68.5451,-64.7030,-146.1909
-122.2474,-280.5586,-63.5849,-258.7366,-376.8438,-75.4241,-120.4187,-32.1684,45.7920,126.3885,17.4566,-239.3908,-188.8201,-83.8481,-52.2287,-52.7500,-83.9198,-61.7394,-152.8423
-129.6432,-240.5697,-46.4232,-222.1711,-263.0839,-116.5878,-78.2891,-52.1431,91.2273,35.7832,32.5496,-242.2807,-148.7090,-97.7785,12.3570,-70.8943,-122.0840,-49.1787,-168.9608
-120.7106,-212.6993,-65.0608,-198.7832,-175.3119,-147.6889,-79.1882,-85.6900,64.3709,-93.9940,-30.1120,-223.1705,-111.4552,-180.0159,56.6677,-122.2629,-148.0793,-49.9271,-157.8318
-116.2289,-217.9774,-130.5565,-190.5172,-111.7381,-99.6713,-85.6457,-73.9411,23.7748,-94.0012,-92.4810,-171.2562,-78.8169,-176.8866,46.1941,-116.6264,-137.5494,-63.3871,-59.1279
-98.5808,-198.2761,-170.1977,-162.4417,6.8605,-1.1317,6.5552,-37.0835,18.2986,-52.3478,-73.5564,-124.4945,-35.8622,-80.7047,18.8987,-91.3262,-99.9827,-65.6988,49.5687
-67.7794,-172.7813,-118.7077,-141.2688,115.6076,45.6808,78.2602,-73.7952,41.8047,-118.8670,-25.8215,-119.3575,-16.0485,-71.5565,-6.8255,-119.3470,-70.4990,-59.8260,41.9633
-28.7534,-149.4416,-17.9705,-130.1931,137.0810,22.4879,17.2140,-186.5671,43.1095,-214.1955,21.5949,-100.0448,-28.7223,-137.4409,-36.9746,-151.2495,-37.8120,-64.5279,-38.0054
24.5932,-88.8849,56.4703,-95.8029,125.3187,-10.3171,-56.2256,-281.4766,-38.5181,-245.0805,61.1457,-61.2337,-21.0707,-157.7075,-51.0524,-137.7546,29.0469,-67.6333,-96.1466
61.2432,-57.6381,80.8591,-73.4454,103.3873,-41.1189,-65.9797,-326.9972,-131.2662,-259.0816,32.6539,-97.9294,7.6737,-152.0460,-33.8183,-115.9568,93.2197,-60.5520,-158.9758
48.8480,-114.4987,70.3991,-86.0752,24.5967,-84.3997,-83.1174,-352.8627,-101.5856,-266.0617,-24.3945,-181.5317,-13.6927,-130.5831,-9.6155,-115.1953,106.5808,-63.5500,-235.9226
15.8762,-150.9284,57.7184,-73.3292,-73.5486,-122.9162,-106.4285,-360.5542,-12.9082,-228.6193,-7.4957,-173.8097,-81.2129,-76.7202,-2.4501,-131.7138,84.1747,-76.2265,-252.7037
-3.2901,-101.4898,64.5780,-42.0398,-109.7441,-156.3911,-89.7026,-338.3684,-4.6609,-167.6908,28.1611,-91.6557,-102.3109,-84.4816,-12.0006,-147.2976,45.5897,-77.3780,-209.8343
-6.5063,-52.6258,86.4539,-55.1875,-71.8125,-179.7824,-62.8131,-290.7966,-28.7903,-115.2304,20.4530,-58.2790,-52.0625,-160.0365,-35.6301,-128.0045,10.8652,-74.5182,-175.8818
12.2434,-37.5049,131.9555,-54.3386,22.9217,-140.5571,-46.6160,-240.3037,-17.2831,-101.2399,59.0010,-72.7844,4.5393,-176.2547,-67.8472,-93.2357,44.5896,-85.5676,-146.5532
48.4108,-16.3649,202.8609,30.6620,138.9509,-50.3535,-30.1148,-230.7928,-26.8995,-145.6445,134.4064,-57.9948,31.3420,-154.8146,-85.6715,-104.1722,146.6592,-98.8638,-86.3037
80.2290,1.7493,246.2054,107.2644,205.4258,-7.1181,-20.8911,-259.0912,-41.1118,-185.9472,128.8131,-6.1349,40.9166,-158.4093,-68.4122,-133.3323,203.5425,-99.9173,-18.5858
111.6547,11.4753,234.3205,81.4631,199.6473,-25.1515,-1.8769,-245.9227,1.9623,-174.3086,99.9920,31.9394,36.9431,-101.8805,-28.5818,-113.9407,174.3672,-93.3126,29.0808
143.7383,26.7546,210.1739,4.7163,166.2033,-31.6025,38.6681,-167.1714,30.5759,-150.2723,126.3671,9.8244,22.5657,-32.0075,-0.0418,-79.3414,146.4225,-85.2019,74.4437
145.3072,20.5265,183.4378,-45.7182,137.8703,-13.4679,58.8338,-87.4882,8.9131,-101.3186,94.1852,-50.5041,23.4309,-100.8906,8.0567,-76.5421,148.7572,-84.5799,128.1533
108.5475,-9.5268,127.1138,-49.0089,122.3268,11.8004,59.2628,-24.4562,27.4624,-26.5295,-15.9885,-61.8877,51.0831,-166.0771,18.7174,-72.7112,121.6331,-95.3341,151.8492
49.3472,-26.7448,69.6794,-21.0855,108.3177,54.0823,83.4225,32.3408,73.9503,-49.1765,-45.1183,-9.7176,72.9147,-47.6934,40.2011,-56.0351,62.6948,-100.7897,103.4752
-22.7393,-34.9331,41.0246,-10.9363,70.4098,74.9325,106.3398,28.9549,65.7575,-143.5060,9.5245,21.9518,51.2063,64.8318,47.4815,-52.8719,19.9877,-93.3755,12.4636
-62.3125,-30.5277,13.7313,-29.5021,29.2104,32.7519,91.0146,-26.1468,39.2162,-117.8244,18.9075,9.4306,3.6096,17.5756,26.4079,-44.2446,-4.6752,-88.0899,-40.1847
-33.4011,11.1635,-17.3176,-22.2582,13.7087,-8.9903,59.4695,-10.9220,25.7501,-26.6418,-17.8421,1.6551,-17.3009,-22.1351,0.5206,-18.6353,-31.8325,-89.5597,-30.6952
-8.6823,37.3545,-29.6244,1.1168,-33.5908,1.3873,24.7482,83.3518,-7.3700,-15.9146,-56.8482,-0.9956,-17.6971,3.8499,-5.7965,-13.5478,-57.1158,-89.4862,-12.6046
-57.3933,0.2001,-33.8817,-24.6890,-139.0683,3.2141,5.9799,115.0201,-3.4713,53.8710,-105.5968,-16.8268,-54.8951,-43.7653,2.7825,-27.2063,-67.8251,-89.5907,-21.2776
-112.2772,-32.7971,-31.8684,-60.7000,-191.2011,-35.4885,50.3827,45.0050,75.5526,215.1672,-129.0851,-29.0219,-115.9944,-141.6802,14.6498,-25.5513,-57.1603,-90.4683,-38.5100
-100.9125,-19.4371,-8.5898,-33.5329,-134.0652,-59.0541,116.6029,-23.5438,118.9087,201.6863,-104.2768,-40.2937,-131.1453,-178.3289,28.9923,-22.8765,-29.8839,-87.3316,-38.3514
-60.3702,-4.9996,12.7263,13.1842,-68.8763,-41.6540,116.6062,-27.4080,92.1099,59.5188,-76.4949,-53.2064,-107.5659,-175.0471,39.1481,-36.8754,-4.4139,-92.4479,-3.8513
-37.8332,11.2350,19.4264,26.7536,-54.2737,0.2599,85.4869,26.4587,98.6842,102.1304,-60.7771,-31.4375,-97.5482,-149.7365,29.4718,-41.1133,3.0531,-107.6414,63.7912
-35.7630,46.4092,31.0750,36.9563,-43.8985,58.7314,94.0625,113.3809,131.3625,218.2914,-70.5506,19.2428,-83.9268,-66.2946,5.1719,-22.6168,-17.7944,-103.1972,126.0747
-49.4789,44.6335,21.9314,38.2175,-26.5647,100.7267,106.7931,173.3129,96.3260,115.7806,-147.4948,44.1251,-47.3329,28.1430,-3.6082,-2.3490,-67.2158,-84.9129,144.2994
-58.6796,-21.4492,-28.2315,-18.3429,-30.4178,85.2279,79.1247,155.2236,11.5312,-75.4258,-222.2707,34.8929,-35.0254,56.8335,10.8432,-0.6532,-111.7662,-100.1236,124.7114
-43.9986,-96.5447,-49.8660,-104.8893,-51.6493,35.9535,23.4031,90.8931,-59.2212,-119.6040,-180.8966,12.5138,-49.6422,28.8267,15.4388,-19.9667,-106.7289,-137.3693,90.2505
-18.5224,-124.8983,3.8662,-146.9512,-69.0509,7.7182,-50.7814,39.9392,-107.4945,-68.9642,-71.3138,-17.2561,-32.8122,9.6431,-13.0564,-31.3148,-58.8795,-134.1520,39.5226
10.4171,-86.7268,77.3395,-126.3046,-61.8389,7.4692,-120.7243,8.4429,-134.0345,-45.2596,-2.6494,-26.9579,-1.7512,43.7695,-56.3451,-10.5176,-25.9087,-96.0073,-32.3857
35.7139,-32.1568,111.7711,-89.9497,-38.1279,-8.1341,-150.6319,-30.3723,-145.7662,-86.6583,1.1582,0.7647,-16.7025,88.6115,-89.7028,6.3513,-51.6548,-82.7762,-92.7267
19.8117,-56.5628,91.7666,-101.4215,-52.7412,-74.4720,-151.2229,-79.6094,-150.9277,-148.1279,-69.6717,24.5104,-51.9610,77.0000,-108.9102,-5.7105,-111.0210,-92.8604,-98.2037
-26.0451,-124.7420,38.6812,-152.8777,-108.6895,-150.2964,-141.8629,-107.9572,-124.4283,-104.8995,-168.6861,17.6458,-59.7835,52.0397,-112.5461,2.7393,-120.0739,-88.2738,-75.8557
-30.2385,-97.7193,32.3979,-150.1555,-131.4583,-151.7099,-124.2926,-106.4987,-78.2513,-4.5107,-154.0852,0.4923,-57.1383,48.8765,-98.5169,35.2131,-43.2373,-80.6633,-103.1189
7.8671,-2.3099,109.9579,-70.7065,-107.5674,-84.3639,-126.3837,-122.8179,-67.3084,-50.4949,-27.6864,-18.1816,-51.8132,-23.7572,-78.7156,13.0601,39.9730,-87.8180,-167.2609
31.9463,20.8787,177.1334,-12.0999,-74.3658,-25.6528,-138.7547,-161.2589,-70.7121,-147.7062,31.3121,-29.2514,-20.9159,-135.3829,-63.6119,-52.3107,55.2849,-92.0450,-160.6049
47.9950,-0.1750,165.4762,-6.3249,-3.7870,19.1800,-93.3992,-135.7191,-51.1845,-69.0610,-18.3157,-16.0581,13.5481,-105.5501,-50.1275,-64.9533,39.9694,-90.5804,-61.0687
75.5215,37.0432,139.9301,13.2038,106.0616,86.5963,-7.5462,-35.6715,-65.6288,10.2833,-50.1034,-1.9754,18.3138,17.1973,-44.5642,-42.7573,51.2032,-93.8198,40.8752
87.4019,78.0126,152.0088,50.0258,166.9075,156.7860,41.1823,28.6037,-121.3606,-105.2677,-24.6452,1.0481,17.3957,46.8475,-59.5832,-62.9552,84.1657,-86.1608,109.4424
80.4073,46.1432,160.5146,62.9668,160.4801,212.9662,78.5410,40.3178,-108.6783,-144.7594,-2.7390,30.4252,35.0125,57.2585,-76.1844,-73.2629,111.6676,-66.5855,170.3378
71.8503,5.6882,128.5220,58.8974,147.6770,248.6276,148.7487,80.6762,-13.9519,54.8626,-10.5562,65.9317,43.1200,143.1043,-58.7898,-6.3354,97.5553,-66.2868,183.7535
52.0912,6.1184,74.7644,18.1933,112.2252,189.2206,180.9431,97.6160,36.1602,153.4924,-29.7174,34.1677,12.0431,131.3614,-19.8278,46.3736,18.8716,-75.9344,96.7244
34.2582,-24.7190,48.0033,-96.0735,21.8744,8.6250,114.4637,-10.7111,-10.3138,-39.4444,-35.0611,-47.7958,-39.3726,-25.7839,-9.0398,-4.7071,-69.0192,-58.5162,-37.4146
37.9470,-112.4308,66.4184,-210.9799,-65.7542,-162.0997,0.0230,-148.1683,-75.3783,-218.5797,-38.7097,-103.5193,-55.5576,-111.1468,-28.3120,-76.6637,-103.4408,-36.6120,-126.4068
22.0192,-148.5456,68.5926,-229.1175,-115.4753,-218.8150,-83.4956,-171.0956,-88.8790,-145.7293,-80.0720,-115.1435,-11.8427,-98.0271,-30.7566,-75.0822,-111.3398,-46.5375,-147.8662
-23.0561,-74.7062,18.6009,-170.2548,-149.4110,-200.5544,-87.5002,-130.7890,-63.5678,7.1093,-118.1434,-89.2204,32.7525,-145.6736,-11.0000,-49.9210,-106.9295,-60.5678,-126.1337
-22.9945,11.6028,0.2917,-82.3967,-138.2385,-148.8935,-21.7766,-122.8716,-60.6619,30.7232,-82.7598,-30.1452,17.9806,-212.0502,-8.0793,-66.6774,-47.4725,-48.8211,-88.9346
27.0557,44.8737,53.1133,20.9311,-57.3181,-73.3686,35.0591,-110.2875,-93.0039,20.8704,-33.0368,20.1448,-9.8730,-181.1591,-15.9613,-85.3444,21.6546,-32.9000,-62.5727
34.8948,90.9559,73.9354,85.3175,23.2112,-19.1292,43.9576,-38.7608,-86.3150,133.3551,-35.0168,37.7531,14.5578,-115.5774,5.2921,-57.0237,7.6661,-31.5546,-43.0807
-15.9278,148.8591,19.7062,70.2436,52.1984,6.9544,56.4224,71.9204,-8.2941,226.4360,-18.8811,46.4090,52.6606,-83.5758,37.0885,-11.8372,-41.9015,-33.5043,8.7900
-41.3013,115.5247,-13.6540,31.2883,73.3819,53.1167,100.7280,175.2082,56.6898,113.8341,33.9063,41.7941,55.6985,-52.6039,35.4586,7.7617,-23.5092,-31.6057,103.6002
7.1271,25.5940,26.7858,20.1226,119.3456,105.4479,144.5328,212.7983,53.6724,-31.5422,35.3840,17.5262,63.2687,-18.0276,22.2567,7.1349,43.0403,-26.4822,185.0454
89.9709,16.3318,94.5916,31.7151,153.4808,119.5146,159.6535,166.4659,32.4355,8.6312,7.9662,22.0853,93.5980,9.3512,31.7415,3.1011,91.6113,-17.7613,186.6130
131.8458,66.7993,131.7746,71.0710,130.8075,113.8641,129.9314,113.7198,23.3570,94.8608,22.9104,61.3371,82.3061,42.9443,35.8195,-1.7143,112.8452,-14.0260,108.0520
99.6827,70.0235,97.0464,116.7252,48.5866,98.6851,64.4665,98.8686,1.8307,64.3229,14.1570,65.9947,12.6122,57.1665,13.5160,4.7126,101.8991,-15.4568,7.4400
38.5689,36.6507,6.5685,98.5829,-49.7506,37.4231,10.6324,50.6258,-19.9772,18.4325,-57.4532,23.8419,-37.9493,46.4019,-2.2677,37.5842,54.0172,-7.9157,-68.8275
0.8061,9.6750,-56.3005,15.7996,-118.8227,-73.2178,-18.3055,-44.3784,-7.7428,38.3396,-96.5156,-8.2736,-36.2096,73.3743,-3.5490,77.9624,-0.8337,3.7368,-112.8702
-15.7271,-25.1860,-56.5287,-63.9196,-167.3904,-198.9546,-51.2423,-80.0726,18.5168,85.7868,-78.3076,-15.1839,-52.4552,122.7622,-22.3329,86.9479,-39.3898,1.6377,-125.6152
-20.4600,-59.5719,-25.7421,-115.0128,-224.2010,-281.6539,-78.4781,-21.1556,17.7669,154.6331,-63.3213,-20.6696,-123.4621,83.1727,-48.8469,63.5236,-50.1189,-9.7013,-101.6602
-8.9988,-69.6365,31.7632,-119.9521,-266.8539,-232.3435,-71.8265,60.4865,-0.3562,196.6722,-43.5010,-29.2997,-165.2534,-46.9674,-36.2189,44.6062,-16.2329,-9.9501,-44.2986
3.4708,-54.5533,96.7183,-46.8923,-251.3325,-65.6649,-30.2043,125.3494,7.6425,152.7846,-16.3807,-27.6818,-111.5312,-125.1166,22.0841,42.7884,29.3494,4.6066,19.8088
3.9670,-4.7836,104.4958,49.4789,-179.0473,46.4906,41.2954,160.5049,44.7870,105.3374,-27.5673,-1.9462,-39.2108,-77.9666,80.1588,34.9188,28.1153,15.8921,48.7184
-4.4623,50.4140,74.9830,89.2558,-80.9477,35.8578,98.4592,146.0625,55.5320,105.9846,-35.5300,30.5530,-30.4072,-8.1165,90.3214,18.8309,9.2141,13.7099,38.5852
-23.7378,49.7452,93.5071,107.9598,24.5141,51.8695,82.5931,136.2518,11.4395,104.8327,17.3757,27.3724,-28.9002,-26.9978,59.2997,23.4876,43.9828,11.7671,52.0419
-33.7962,31.0117,135.7604,148.2708,113.1454,167.6111,45.0629,197.8056,-35.3601,153.8129,50.8002,4.9655,13.7507,-70.9403,41.7406,51.8596,108.6180,19.6306,120.2705
-12.6459,54.9301,119.6773,157.1039,140.3749,254.6539,55.0716,264.2961,-48.9628,246.3505,-3.0258,18.1324,19.5284,-17.3819,49.5524,71.7765,129.0454,20.8248,168.2059
-3.5175,60.0845,78.5493,134.7670,104.3829,246.0286,41.7673,251.9341,-75.1452,194.2068,-47.6862,43.3534,-32.7760,84.3248,39.3353,72.8820,108.5265,6.6037,137.7609
-30.5655,27.4258,101.2587,166.1740,77.6738,227.3338,-25.6424,217.2074,-124.3171,48.7781,11.5664,43.3396,-27.5075,107.5592,21.8230,73.1669,104.1733,-0.8675,86.9267
-16.3933,69.0184,179.2043,243.1139,103.0219,230.2792,-18.4820,214.5799,-116.5268,55.4743,115.7451,78.0536,62.8392,80.4698,44.9111,62.6805,128.6823,7.7737,68.3775
67.4266,182.8890,221.7703,273.9518,121.9947,186.2729,74.1457,177.6185,-39.9256,91.5624,152.5857,168.2048,115.6626,90.7818,66.7599,11.7558,141.0021,15.7211,49.3853
126.7614,230.2040,175.7070,233.4495,84.2394,78.0718,85.1722,82.3959,0.8120,-47.4729,107.2275,203.2925,76.7311,109.5702,28.9742,-49.9084,114.9521,20.1238,19.4970
123.6065,190.6496,93.4184,152.3644,27.4123,-31.4573,-3.6329,13.3264,-21.8434,-120.8011,69.6718,136.3349,14.1243,91.4925,-13.3810,-52.1674,79.3918,25.7592,14.6380
115.7860,147.9394,66.0471,68.5511,-20.3478,-91.6254,-50.5601,-17.7648,-22.7025,12.5081,97.9402,67.1193,-29.3015,55.7229,-18.9979,-11.4253,74.6350,28.3335,12.6692
110.7346,126.4230,92.6750,41.0194,-81.6938,-99.5942,-47.2935,-98.5827,-6.0408,24.9054,132.3717,58.6003,-58.2631,3.0950,-53.7082,-20.4206,98.9430,32.1136,-36.4986
83.6275,121.4608,97.5151,80.3603,-135.7681,-80.6513,-87.5578,-223.0125,-50.3671,-165.9290,118.7469,68.5400,-62.8739,-58.6039,-117.8575,-77.7769,124.8638,36.0195,-102.3605
59.6667,121.8332,64.6542,106.8877,-125.2896,-55.8615,-146.0898,-269.2654,-102.8649,-235.1622,107.6326,56.2268,-37.9121,-76.1120,-115.4184,-87.2865,134.5600,23.6114,-120.1062
49.3389,82.7967,41.9808,76.4423,-50.1668,-9.5126,-130.9341,-196.4485,-71.1552,-157.6016,131.0505,17.6650,2.6086,-53.9015,-54.7027,-50.7119,122.4383,5.2924,-87.7880
29.1812,13.9697,41.2309,39.2950,49.3566,78.8250,-53.3773,-104.7462,-28.8977,-160.0806,135.7085,-26.7573,45.5509,-42.5646,-30.6598,-61.6649,96.0476,10.5639,-38.6322
12.5913,-20.1481,33.3538,30.0226,146.5426,164.2718,8.8126,-70.1488,-49.4068,-172.6969,108.7108,-32.4064,73.1088,-32.5485,-38.9963,-108.1219,69.5585,27.5688,16.0179
19.2787,-24.1914,5.7353,18.3265,212.4990,167.9542,57.0460,-48.5719,-29.7593,-51.3118,92.4299,5.3928,79.4420,-16.0581,-19.3533,-97.3683,34.9614,29.7712,63.9188
26.4878,-32.7495,-28.7075,-26.7916,216.9593,81.8253,138.1496,5.2258,76.8401,70.1424,74.6831,24.7619,86.2930,-24.0973,16.0823,-35.6475,-28.4442,28.1996,66.5418
18.6402,-21.8184,-53.7696,-93.3448,159.8876,-27.6309,185.7203,41.8262,141.6962,77.7013,30.6331,-3.8457,92.6801,-30.2318,32.4835,9.9458,-103.8483,28.3040,12.6451
5.2434,9.0122,-73.3598,-136.1550,72.9880,-108.1923,109.2247,19.5108,127.5019,74.4723,1.9483,-37.8609,72.3605,-13.5142,34.4744,34.3887,-136.4035,16.8050,-28.0115
-10.5072,3.8919,-101.3357,-129.1966,7.2295,-153.2042,25.5052,-4.7945,141.4908,129.4333,16.0847,-45.8629,45.6764,-37.9735,35.5178,47.3503,-97.2219,8.3364,19.0785
-17.4031,-37.4587,-116.2749,-98.2799,-5.3483,-172.2163,91.2522,22.4372,188.6852,175.0965,42.7582,-38.4188,48.2515,-90.2319,40.4839,36.8773,-28.3182,14.8778,105.8445
4.7614,-46.2274,-82.2592,-64.3341,5.9551,-173.0639,186.9725,57.6231,183.1018,144.5514,75.5075,-27.5223,48.8744,-71.7914,35.0856,28.6352,8.6367,14.8770,121.2571
45.1655,1.3866,-20.7127,-18.4468,6.9019,-147.5669,140.8188,47.6436,131.4711,54.6922,121.8067,-22.5036,17.7390,-35.0957,0.3788,43.7241,25.1907,4.4957,78.7016
62.4475,35.1953,9.2550,15.9689,20.5029,-81.4389,58.9221,16.5305,88.3986,-3.8288,133.8471,-32.1617,0.2629,-92.3369,-27.7738,37.3641,67.9749,2.9106,89.6717
31.5969,-7.3622,-5.5163,16.5873,58.8043,0.1675,77.1707,8.6826,62.7963,5.7608,88.5360,-38.5063,21.2356,-148.3876,-8.1996,-9.8850,102.9105,5.9299,158.9404
-11.7478,-61.2686,-13.2217,32.7688,93.9428,52.7761,112.8385,23.6819,51.3419,-31.4766,69.1370,-14.2371,39.5520,-77.5468,7.8150,-40.8459,82.3292,3.5142,185.4538
1.1273,-31.1059,40.9586,81.4070,140.4527,83.8726,102.0762,35.5249,40.9430,-179.2174,133.1202,24.4973,56.2099,22.4090,-21.0528,-22.2341,76.9610,5.2469,145.2337
63.5269,25.5605,125.4463,83.6010,217.2978,122.0974,105.1056,30.7075,20.2569,-267.5418,191.7762,31.1225,107.2050,39.0334,-18.9844,17.9481,147.3243,10.9952,104.7232
84.7722,10.6679,127.6234,21.0089,251.6457,143.9238,115.4232,24.8413,28.1905,-158.2173,142.9031,-2.6359,143.6613,39.6374,48.8460,52.4416,188.4870,12.1498,91.2136
33.5976,-18.0290,20.0019,-21.3957,196.8514,119.9539,99.9829,47.0663,80.2637,4.7480,29.3093,-33.8259,105.2046,82.8076,87.1329,66.3920,109.5882,12.9861,83.9128
-27.1526,8.8747,-62.3011,-12.9240,152.6993,74.0576,113.5227,87.1988,119.1247,46.7962,-33.3887,-30.1658,66.4531,105.3110,62.4200,53.0863,6.2693,15.3274,77.6724
-58.1880,20.5782,-24.2496,1.2478,188.1377,27.1175,153.2436,89.5969,126.8979,9.0417,-11.4401,-11.9534,109.2845,65.8127,56.3135,36.4110,-21.5587,21.0192,67.4405
-67.1241,-30.5028,40.3562,-13.1622,195.0835,-37.5631,128.5387,41.1511,130.6004,-29.0072,32.9813,-21.2947,145.8982,11.9524,81.4387,40.7159,-25.4176,29.1244,40.6385
-58.9696,-87.3337,22.7944,-75.4383,89.9747,-110.3416,55.3619,10.1661,107.7848,-70.0737,38.6131,-65.1051,74.5659,6.4211,72.3221,50.8867,-60.6221,17.3082,26.9656
-45.9459,-105.7564,-28.8390,-141.5724,-17.6336,-125.6263,37.6306,44.0943,65.8232,-60.6103,19.1465,-96.0786,-20.2946,56.3924,30.7462,45.8050,-65.9312,-7.3071,74.6321
-25.6004,-60.7051,-11.1031,-85.0117,-13.0781,-28.5949,92.6735,95.3135,79.9941,47.5282,31.2165,-61.8553,-14.5664,94.7874,7.4335,31.1900,28.8936,4.7592,162.8310
29.5497,45.2246,79.3709,100.4599,46.6699,135.4772,161.8728,102.6422,123.6395,121.6149,74.5310,20.3937,55.7760,66.2798,13.3112,17.0859,172.7521,42.9907,211.4645
84.7611,109.3716,158.7632,227.2173,75.5350,229.8136,189.2374,75.1124,84.1260,35.0299,96.8811,76.3798,94.7747,20.8294,33.0426,-1.0096,228.3737,44.7646,180.6430
71.5606,69.1175,168.5968,189.5251,93.7722,187.0577,133.8840,49.6275,-21.1369,-100.8699,98.2519,71.0885,94.1340,28.3433,43.3755,-29.0508,152.2783,23.0057,109.4128
18.3100,17.4297,130.5962,90.7564,117.7593,113.3283,28.9791,40.3946,-75.5204,-124.6649,106.5019,34.3420,77.1881,71.6755,27.1873,-49.1931,79.7651,26.2702,63.7731
-15.8262,9.0460,92.6492,38.7339,108.3344,128.1427,-9.9524,54.8415,-45.5860,-46.9847,87.8192,-0.8262,44.1062,115.6853,22.8829,-24.6087,125.6779,29.0192,72.2137
-43.8716,-6.3107,67.4605,42.8092,82.0564,190.1166,45.4428,78.9328,14.6952,21.6860,26.4937,-15.1142,24.7472,154.8416,70.4139,36.0864,198.7301,12.8883,97.0864
-52.3317,-12.8558,48.9930,77.4631,79.7108,195.6498,62.7171,58.4064,36.0686,-22.5018,-8.3658,5.6647,55.2416,155.8809,109.9609,58.8190,171.3349,17.5180,74.4363
2.9401,20.0156,30.5605,88.0243,56.5526,129.1339,-35.1305,-20.8721,-10.2629,-179.5346,1.0883,36.3674,92.0154,103.0081,70.7246,10.9106,81.1717,30.8126,-1.5695
56.9823,26.8258,-7.5442,29.6590,-17.9045,33.2804,-129.4213,-87.6392,-62.4012,-264.0224,-14.0053,30.6842,58.1008,55.8503,3.4337,-39.9899,8.9343,12.7438,-69.6608
30.1764,-3.1443,-63.7464,-51.1610,-75.5853,-47.5447,-116.6419,-93.1261,-62.3048,-142.5103,-51.6786,-5.5144,-35.3602,41.0745,-15.2953,-39.4467,-50.3417,-4.0529,-87.3969
-11.5059,6.9064,-94.4986,-81.1734,-91.9856,-79.6346,-74.3396,-72.3958,-64.0084,12.0608,-52.2350,-34.9688,-105.8310,9.0543,-10.4579,-27.4150,-94.0237,6.6466,-71.5390
12.1050,50.4365,-80.7776,-58.1236,-117.7418,-79.4965,-75.9279,-58.2372,-105.7794,1.7299,-35.1020,-49.2866,-120.9668,-42.4283,-24.4122,-48.7898,-92.4963,7.5686,-51.5185
65.1909,80.6940,-58.0249,-14.1253,-136.7942,-80.1418,-65.7353,-47.7479,-120.5971,-88.4087,-38.2824,-37.4765,-118.6987,-63.9100,-30.4013,-75.5237,-80.7176,-5.7187,-37.1332
92.8899,117.3630,-57.7622,36.1044,-110.0201,-40.3112,-27.4554,-41.9739,-87.8465,-118.2478,-38.4851,22.5888,-117.9574,-53.9225,-10.6583,-61.6293,-90.2797,-4.9369,-18.8740
87.5261,153.6302,-63.8463,96.0136,-77.4241,87.6917,-13.5454,-18.7366,-64.7501,-94.0124,-27.5604,95.9714,-90.8307,-21.9894,4.5181,-8.7533,-61.9556,-7.6086,23.5866
73.5589,151.4300,-23.8642,168.3128,-53.6167,226.7597,3.2923,44.6657,-50.0687,-34.0099,-13.1945,116.4590,-27.8247,38.6345,4.8830,40.5468,20.5334,-24.2922,67.9329
88.1935,133.0206,70.4600,200.5957,-5.0956,251.3846,36.3127,69.3043,-19.4585,36.7795,24.5319,81.4005,26.8390,63.1127,2.0608,39.3585,44.0405,-23.1141,34.4518
90.4347,97.7058,107.5783,113.2513,17.3198,154.0755,-16.8468,-33.7399,-10.4281,27.3586,41.7834,28.5350,12.8140,-18.9265,-10.4115,-19.9045,-61.2670,-10.5241,-91.0312
-19.6569,-12.1228,-13.6306,-65.5230,-49.0509,31.7761,-158.9968,-180.6590,-45.1008,-81.6653,-46.3890,-33.5302,-81.2219,-127.3587,-28.8157,-83.0804,-210.7428,-14.7065,-201.9143
-199.1171,-166.7834,-186.9501,-217.2773,-140.2929,-49.4268,-246.3808,-233.8841,-98.2979,-212.0499,-175.6613,-98.9853,-176.1571,-142.8748,-41.5191,-93.0377,-301.1133,-16.2663,-230.8075
-296.2505,-272.1284,-231.7293,-292.3293,-184.4641,-103.8606,-254.2372,-214.1007,-152.8620,-284.9787,-198.1941,-142.3022,-181.6343,-97.4431,-78.1636,-68.1191,-322.0288,-2.7563,-232.6308
-304.9965,-321.8876,-172.7232,-323.4352,-205.5944,-161.2848,-264.7247,-197.1465,-181.6730,-212.6044,-137.2335,-166.5463,-144.7967,-78.4720,-149.5621,-57.8246,-315.7454,-0.2162,-240.6900
-323.4779,-361.8994,-171.5980,-351.0155,-230.3100,-217.3678,-264.0880,-169.9107,-159.6146,-29.7040,-133.8780,-202.3711,-187.3185,-82.9931,-184.3680,-47.3034,-335.7603,-8.7850,-216.8018
-356.8785,-396.9499,-270.3609,-403.7839,-265.6729,-268.0806,-235.9310,-136.2538,-121.8698,4.4610,-202.6570,-244.5685,-277.1765,-92.2530,-159.1162,-11.2844,-402.5419,-8.1411,-173.4948
-369.7979,-412.0363,-365.7353,-440.7558,-326.1520,-313.9417,-239.5794,-152.6662,-100.5832,-202.5813,-236.2744,-251.9643,-276.5978,-128.8377,-170.6099,-10.7232,-429.9584,-9.3041,-157.1232
-356.8443,-387.2415,-353.2901,-364.6363,-367.6465,-300.4348,-258.9346,-193.5583,-80.4071,-358.1421,-191.1554,-213.1503,-210.5144,-178.5934,-238.9539,-91.7379,-316.4922,-22.5158,-140.2166
-302.6852,-306.2848,-249.2090,-196.1867,-334.8856,-176.1072,-245.6062,-181.7535,-80.7180,-280.0316,-149.6138,-159.8166,-222.0144,-191.9019,-231.3009,-163.7344,-143.3271,-27.2252,-91.5861
-254.3006,-203.3240,-192.2479,-68.4542,-276.8680,-20.0198,-237.8923,-117.7283,-118.3991,-131.8486,-200.6689,-112.5904,-298.7024,-153.6743,-108.8731,-130.5531,-92.1620,-20.5318,-52.7791
-305.5035,-143.9601,-251.5403,-23.6744,-247.4456,45.8393,-223.0392,-37.6541,-111.4633,-30.8324,-302.7625,-69.8295,-309.7361,-78.7187,-14.0863,-44.2814,-165.2679,-25.9303,-36.5764
-392.3004,-159.8125,-305.8989,-30.0242,-201.2144,35.8442,-137.6322,44.9446,-8.2379,29.4989,-329.2134,-54.6112,-239.2932,-3.9432,-19.7025,-1.8360,-205.1962,-44.3646,4.4038
-362.9650,-229.0991,-252.8536,-93.7225,-113.5838,35.7392,-60.9160,103.4145,91.6096,-2.3088,-240.3573,-99.4673,-166.3089,17.3182,-39.7755,-2.4082,-155.0741,-57.0535,67.2149
-251.8040,-288.2463,-168.6487,-170.0411,-33.6532,54.2509,-72.0339,134.1606,92.5798,-60.6283,-112.6161,-175.8755,-119.5830,-1.5562,-27.3749,6.6157,-86.7981,-61.5596,105.9157
-192.3521,-286.9021,-138.6183,-167.6902,20.4134,65.0768,-58.0076,177.1288,37.6620,16.6341,-31.6743,-215.5611,-92.7664,11.1831,-21.6385,34.1005,-39.4490,-66.0848,118.6184
-184.2376,-244.0723,-147.9796,-110.0684,53.4574,70.1383,37.4042,211.9772,12.4461,122.3744,-43.1680,-194.3027,-89.5196,38.0483,-16.0741,39.3280,-5.3930,-64.1650,113.9678
-170.4723,-193.5717,-166.6669,-65.1777,39.5892,65.0595,79.3898,181.7162,36.3813,53.9281,-115.5835,-129.8908,-89.1586,10.5591,17.9236,1.6115,8.6448,-52.6020,82.8917
-148.3602,-130.5147,-148.1277,-8.8957,-7.7966,56.6065,32.5596,133.8869,60.2490,-73.7045,-130.4726,-43.5431,-61.9829,-9.9850,35.6025,-19.0966,16.0006,-57.1706,57.2026
-113.0769,-66.4656,-50.8398,67.8968,-26.8867,83.7629,17.0074,144.0558,26.2319,-86.6486,-48.4018,29.0245,-27.3955,56.8149,-5.2849,31.8161,59.4405,-86.1839,80.0484
-71.0450,-21.0770,49.1461,127.6019,-8.4920,150.5081,54.3943,172.3847,-39.2779,-71.7641,10.9509,64.3511,-24.2069,112.3787,-51.8812,81.8459,148.7469,-100.3568,134.2181
-53.6285,45.7979,76.6185,208.4766,13.0105,223.9475,75.0292,168.2031,-44.4765,-103.5306,-1.1594,100.8121,-41.3223,77.1473,-39.6720,55.6031,255.1328,-85.7236,186.4136
-28.2618,158.5070,121.1961,338.3886,44.1151,298.8932,76.3133,165.2104,15.6213,-97.3371,24.6213,173.8599,-34.8482,79.1429,7.7126,34.0877,345.3449,-80.3253,221.0204
46.2650,242.9127,237.7265,423.9044,109.3853,362.6975,85.7507,171.4885,51.9361,-47.1971,100.4843,236.7002,6.4458,176.1572,31.1505,85.2552,373.7041,-91.1989,203.4742
99.4368,228.1958,292.4605,403.7346,183.8654,366.5035,102.9678,151.9923,42.1435,-20.9168,103.7252,233.0764,60.2981,214.0656,27.8781,114.0035,301.6158,-87.6281,126.4389
66.5361,150.1604,219.6599,333.4507,218.4229,318.6632,119.0790,131.4063,36.1398,3.0638,44.2371,188.3495,114.4115,161.5067,33.7352,77.4070,174.6293,-81.5893,55.9491
15.7178,105.5497,153.6273,271.1659,218.3856,297.5079,103.4311,149.2714,25.7929,56.2781,50.6748,160.1557,159.2806,171.7080,49.2097,87.2621,107.9686,-96.2969,32.7556
24.7929,142.1091,186.2159,247.9903,238.6931,317.1412,45.1719,177.7606,-18.8469,101.5149,119.4389,160.2147,168.9570,229.0129,46.0868,160.8539,141.5758,-99.5886,19.6305
74.2239,186.8227,249.4139,264.3297,277.5066,293.3694,9.9974,177.1423,-41.6870,105.2124,151.7666,160.8880,141.6478,180.9430,35.4265,171.7484,181.4315,-75.5661,-13.3972
107.9893,136.0263,248.6505,243.4736,247.4979,177.6929,28.5936,140.0364,9.0703,70.4178,136.8600,136.8463,106.0559,68.4317,52.5638,101.7655,138.7837,-63.2526,-65.5368
91.3081,37.8627,156.3417,150.7165,117.3885,43.7980,25.1056,90.5709,68.4940,47.9811,105.7078,98.5689,64.8603,35.2684,80.1027,62.4307,49.7400,-71.0231,-125.8939
42.0367,31.8651,39.9941,84.8012,-8.3339,-6.0908,-19.2635,95.3904,65.8452,100.0639,49.1488,91.8634,17.6461,78.1932,68.3551,86.0227,-0.3711,-71.5777,-140.3562
31.6600,115.0906,12.2717,98.6811,-38.1797,13.3602,-11.4216,162.1606,29.5516,161.4485,-14.5910,134.1511,8.1962,120.7438,19.2897,102.8906,11.5377,-65.7695,-80.8278
80.6396,173.5979,66.7344,126.8807,-25.6084,6.0618,48.6965,161.8164,-6.9805,106.5160,-35.5810,178.3104,41.0775,112.9729,-23.7453,76.4735,57.3123,-61.4435,-40.4278
116.1415,180.2870,77.7626,157.0602,-63.6491,-26.7123,35.0557,36.2235,-50.0025,3.1589,-17.9749,190.5281,37.9485,40.3999,-44.3259,40.2405,104.3133,-49.6706,-83.3447
101.6747,176.1211,22.1795,224.2106,-128.1263,7.6013,-62.6233,-58.7402,-66.6599,12.4608,4.7519,204.4400,-25.0008,3.1620,-53.4109,29.4638,134.2165,-39.7448,-109.1307
82.0793,164.0390,6.0538,272.9741,-119.3189,91.8992,-105.0915,-19.2580,-39.1691,72.6082,29.3273,228.7340,-65.6915,74.6691,-54.5704,29.7950,152.0796,-43.2540,-51.2178
71.3244,126.8727,53.5160,230.2194,-27.2562,102.1651,-59.1073,28.7909,-40.3968,21.1653,35.3197,192.6357,-39.0778,82.5626,-47.5299,17.5743,152.0140,-41.4294,-10.5857
44.9028,56.4079,76.1818,111.9669,47.6705,28.1973,-38.1753,-11.4727,-83.0012,-79.3394,-17.4234,78.1851,12.1480,-73.8469,-41.2859,19.2516,101.5986,-29.6774,-41.7295
20.5325,-28.7623,37.3885,-18.1773,53.2586,-15.5752,-67.1879,-45.9066,-63.9874,-58.4052,-98.2495,-6.4220,49.9970,-133.4879,-45.5647,52.5083,21.8121,-29.1691,-55.2819
16.8335,-63.4641,-10.6959,-84.9177,49.0793,3.9357,-56.7392,-1.5421,12.8463,55.5146,-135.4379,7.2496,67.3420,33.3753,-50.2075,63.4144,-2.2463,-37.1717,-14.9988
2.5809,-26.5856,-20.2878,-54.0453,79.7015,5.8253,2.4278,50.3225,32.0310,100.0390,-129.6461,41.4641,65.6705,134.1169,-26.4392,23.8006,44.2311,-41.9231,9.1778
-29.6260,1.0427,1.8869,-3.7506,106.2793,-52.4967,42.8204,43.7248,15.4283,50.6771,-120.6747,28.5360,63.2191,41.5739,21.2395,-6.9628,78.7229,-48.7263,-13.0847
-40.6780,-22.3086,7.9018,-7.7372,85.4490,-120.4849,52.5248,14.9652,55.0756,44.8736,-110.1420,16.7164,70.2981,5.5278,41.2775,4.8660,54.3233,-50.7125,-52.6734
-33.2460,-34.4874,-41.1861,-10.9482,12.1065,-135.9637,43.2845,21.5272,94.0919,149.8935,-116.4213,46.5118,67.7579,93.4846,24.9728,22.9432,-4.0564,-38.5335,-87.9513
-49.1924,-9.6716,-123.4999,29.7051,-96.3888,-105.0974,12.1128,54.1719,71.4284,242.2224,-182.3820,87.1713,48.2013,127.6388,31.7863,31.7068,-60.4238,-31.8630,-94.6596
-71.7547,17.1599,-173.2238,57.5593,-191.1518,-94.0694,10.0827,61.8215,69.4927,203.2843,-264.8745,126.2710,24.4725,105.0829,72.8276,43.6976,-72.5242,-43.0957,-53.6562
-42.6478,56.1087,-149.7586,66.9859,-225.9748,-128.1846,77.4686,32.4640,115.8056,102.2063,-269.3982,169.6227,-4.7520,91.8721,86.7754,47.7430,-17.1808,-48.9752,4.9008
31.1642,114.4791,-71.0001,111.8385,-210.9416,-138.6629,128.9008,-10.3750,121.8925,31.5913,-200.6678,182.2945,-34.1614,11.9310,56.2980,34.4409,62.5075,-38.9048,37.3234
84.6837,126.9134,7.1863,160.2955,-166.7124,-69.7163,84.6812,-68.7829,81.9350,-46.5127,-139.0115,154.2530,-35.1568,-101.6790,14.4113,12.2147,115.2909,-33.6614,44.0371
89.2952,80.5658,32.6053,158.2545,-83.9557,31.1940,21.9611,-133.1752,57.2465,-123.6898,-120.5919,144.4875,-6.1307,-92.0758,-27.5469,-19.7906,139.7029,-38.9641,49.7366
68.4991,72.6486,-0.9764,143.5145,19.4154,96.2826,40.4735,-140.7605,36.7108,-100.0755,-132.6059,175.5288,20.9788,2.9120,-46.2431,-51.9066,140.1456,-40.1034,62.2287
47.8410,126.3758,-48.5358,138.9800,87.2853,111.7866,99.6606,-81.3729,7.4324,-27.8779,-148.7581,187.5483,36.5212,50.4129,-16.6207,-50.5009,113.8697,-34.6341,68.0688
34.0195,121.9051,-61.5791,91.4365,96.7318,75.2659,106.4244,-36.4041,13.0334,-27.8504,-144.5176,141.8976,57.6194,78.8000,4.9535,-5.3586,77.6758,-31.3798,56.3093
18.1298,12.0802,-36.8193,-0.5826,81.1647,-2.0808,67.8189,-34.7906,55.7761,0.4947,-130.6192,71.8928,90.1552,122.3268,-17.8053,47.1307,36.6443,-30.2775,36.8332
-9.3368,-88.6246,-17.6444,-72.7242,86.2221,-66.8281,59.4403,-30.2213,82.1710,140.6319,-131.1976,15.4062,122.8282,107.0657,4.1857,56.9880,-20.9205,-23.0665,14.3140
-31.3432,-111.8204,-47.3828,-117.3463,113.4567,-105.0390,87.3844,-31.1396,60.8002,170.7452,-134.7069,-26.1904,138.2890,39.6923,94.3857,16.8916,-84.0692,-14.5069,-29.4886
-28.3239,-110.5031,-111.5426,-161.8617,112.5804,-165.9257,86.8267,-63.7445,8.6399,-6.3536,-132.7047,-58.9792,120.9268,13.3455,119.0084,-9.1761,-141.0429,-17.1196,-82.8524
-26.9035,-93.9917,-140.6325,-169.5254,74.3239,-226.6320,55.9470,-64.1412,-18.8764,-71.4391,-126.8846,-78.8034,81.9306,30.2806,53.0849,30.3000,-182.3401,-21.2845,-88.1249
-50.3381,-35.0633,-95.8024,-102.5879,69.9250,-192.8814,55.0372,10.9584,3.6960,127.1458,-75.6561,-85.4647,66.2007,27.4324,38.2591,74.7758,-160.4112,-12.4329,-33.0722
-52.7705,6.2852,-29.0624,-21.6126,110.4042,-82.4392,67.9530,69.3747,5.5580,248.4179,18.3714,-78.7259,90.2536,-8.5425,87.5144,40.0407,-62.0077,-5.0957,16.1878
4.2926,2.4502,-12.8967,-0.3310,104.9792,-19.3731,35.1831,25.5021,-64.6768,68.9233,38.4628,-42.3905,100.3933,-49.8718,76.3843,-43.9084,25.8504,-12.0067,21.4915
73.8764,40.7694,-36.2081,-8.9434,45.8924,-41.1257,-8.4289,-56.3570,-125.5935,-158.3193,-58.5541,28.0526,60.3831,-70.1514,9.9283,-100.5249,37.7064,-12.3681,28.6776
107.2005,125.1163,-30.1434,18.1260,34.1152,-75.9426,-2.4495,-64.9220,-107.3450,-179.1574,-139.3135,97.8781,28.8583,-58.9285,-21.1244,-120.9442,15.3208,1.8123,80.5074
125.2269,159.7823,29.0416,74.6873,85.1507,-66.6774,27.0338,1.7618,-70.6228,-74.0602,-101.7360,136.7755,52.9922,-21.4344,-35.6977,-119.1870,15.6431,5.3637,147.3725
145.8820,154.3909,101.0750,117.2149,126.8866,-19.3847,48.9953,54.2674,-68.1267,-15.2541,3.0008,148.0324,75.9690,24.7072,-74.6269,-89.8340,52.9192,2.0638,174.8907
144.9237,149.5246,141.8760,124.3693,152.3156,-0.1456,83.0093,33.7080,-55.4042,-36.9525,83.6377,129.0224,60.7337,31.4410,-86.3010,-58.1283,106.8328,19.7570,148.6005
121.2541,95.4976,140.3609,90.0142,183.4834,-78.1995,121.6404,-37.8621,-7.3898,-78.2321,86.6252,81.3953,58.8587,-35.0265,-42.7775,-65.8067,113.4115,41.1773,87.1160
104.3421,28.6170,115.5570,38.3686,179.9011,-202.6467,123.3356,-98.8027,21.0835,-85.8211,24.9340,51.1800,69.5581,-99.6224,-4.4042,-101.2363,51.0047,35.4146,21.7508
97.8058,52.1395,97.4413,19.6318,116.3500,-246.0258,71.5899,-95.6845,-3.3510,-69.9983,-16.1974,60.5125,31.3125,-64.9040,-9.0442,-115.8554,12.1567,21.1231,2.5799
87.6585,82.6252,91.6595,22.9400,42.8006,-209.1639,-12.2652,-28.9996,-20.2299,-75.9605,-7.3050,54.8187,-25.1581,10.7314,-22.8163,-95.3639,43.0817,24.9758,47.0365
77.8698,3.5357,67.5824,-17.6109,7.9051,-200.6370,-70.5465,21.1306,30.5544,-92.1415,-17.5221,0.9830,-31.9991,-0.4136,-13.6714,-72.7349,46.2037,31.6377,77.5442
70.8318,-73.2452,4.5897,-92.4958,1.5466,-229.2222,-61.8794,-13.1736,83.1469,-48.7725,-52.5238,-58.5634,-23.9305,-85.9518,0.0993,-73.6829,-20.9511,22.7714,26.7339
55.0524,-42.2408,-64.4155,-123.9310,-22.4424,-218.3078,-36.8350,-72.1668,40.4509,62.0125,-55.0707,-84.4709,-48.5011,-136.7931,-10.9143,-78.9345,-63.2755,14.0659,-29.8841
37.4233,2.1969,-87.4921,-104.8036,-85.8413,-162.3454,-54.2487,-52.3723,-33.1617,139.7993,-56.0857,-71.8879,-79.3582,-117.6656,-31.9085,-65.8384,-51.7457,21.2583,-0.8653
32.2006,-2.1781,-74.8386,-99.7405,-142.5114,-114.0494,-70.7123,30.6186,-11.3881,121.3059,-96.6745,-38.4134,-102.0025,-83.1343,-30.7338,-48.4375,-75.8622,31.2066,53.4975
13.5785,-8.8549,-97.0712,-133.6534,-139.6923,-96.8999,-41.8272,81.2898,59.8783,90.3978,-119.2353,-35.9269,-120.9445,-76.4226,-16.7285,-34.1512,-155.5646,24.8904,50.0639
-38.3460,-13.7939,-161.5994,-165.8370,-104.0975,-95.5858,-12.0253,63.7333,59.1304,106.7031,-93.1114,-78.4223,-111.3140,-68.5555,-8.9984,-9.0786,-197.9859,6.3137,29.0730
-59.1101,-16.6247,-170.2597,-146.9234,-83.3637,-79.4762,-12.6659,10.9229,4.2737,64.9342,-61.4044,-87.5005,-80.3892,-28.8251,7.9971,2.2865,-152.2946,0.6429,32.1804
12.3726,13.6033,-82.1850,-85.0017,-58.4251,-55.0474,-13.9656,-35.9226,-27.3469,-70.6624,-33.2373,-33.7311,-59.0791,-11.5828,40.0270,-34.6293,-80.2119,14.5575,24.4113
94.3657,35.9726,-8.8460,-56.3029,-14.3252,-79.5596,-7.4864,-58.4316,-35.7290,-141.3944,-6.6540,-9.4218,-30.5221,-49.3766,58.8040,-79.4825,-64.6581,26.7187,-5.3230
68.0101,10.1854,-39.3347,-97.7300,-10.3406,-153.5862,-25.6483,-72.6100,-35.9816,-111.6088,-1.3083,-51.5929,-6.0741,-55.1870,49.7677,-75.3313,-107.8452,26.1202,-46.7043
-20.2222,-7.4322,-104.9529,-139.9494,-82.4250,-207.2294,-87.2528,-100.0938,-19.9744,-121.6966,1.5311,-75.7306,-43.0340,-3.0088,24.0452,-49.4657,-154.7704,21.9694,-121.1358
-43.7613,5.7930,-119.2710,-134.9147,-170.0354,-248.2267,-163.7133,-137.7101,-12.2761,-132.0078,-3.8435,-42.8306,-101.9072,-10.2797,-3.2921,-58.0046,-185.1061,22.2619,-206.1779
-7.4417,3.6902,-97.9318,-128.4142,-207.0801,-327.7285,-199.1275,-180.9438,-42.5923,-24.6826,-65.4406,-6.9418,-95.6014,-95.1395,-16.1183,-92.0443,-206.4132,22.6352,-241.9024
7.1003,-2.1754,-74.8757,-128.4222,-201.5199,-370.9903,-193.8689,-226.0514,-86.6718,56.5269,-116.3935,-2.5306,-60.3227,-139.3925,-18.0213,-102.3254,-197.9204,18.0572,-247.7781
-3.6124,15.7875,-53.5990,-83.8520,-188.8183,-287.5907,-210.5168,-247.7911,-95.0224,1.3388,-58.9837,-13.6018,-63.3938,-127.9310,-27.2185,-71.3265,-151.3774,16.4896,-259.0522
-13.0698,21.1075,-53.6607,-23.0996,-177.7192,-156.4779,-245.3363,-232.8397,-60.6279,2.5010,11.6275,-8.3093,-73.0734,-114.0290,-34.4447,-34.4472,-109.9921,25.5858,-227.0686
-37.2546,9.5328,-83.9092,-4.1538,-163.8199,-78.2692,-236.3426,-190.5510,-41.1506,114.0207,-6.9945,37.2287,-69.2322,-69.9825,-36.8932,-30.6393,-99.6024,34.3388,-149.0971
-65.7273,36.7506,-99.6160,27.9147,-139.0427,-13.5424,-204.0574,-118.6715,-71.2281,111.9044,-0.6192,102.4183,-84.7488,-10.9407,-58.6881,-39.1730,-88.6321,25.0498,-119.9080
-52.4692,100.7333,-64.3711,126.2739,-88.0904,74.2760,-190.9673,-43.0116,-84.0133,-6.2385,102.1959,140.2142,-92.0108,-10.4230,-72.4452,-20.4948,-47.6545,8.3167,-144.1686
-6.5640,128.2854,-9.5330,201.4070,-21.5289,125.9895,-147.2594,-19.9317,-37.8300,-24.3536,165.7950,142.7080,-36.6057,-14.3239,-41.0215,-2.0965,9.3015,11.9648,-119.4271
22.0539,82.0410,10.1105,170.9874,20.7814,113.4891,-55.4373,-28.8179,-21.0940,35.2921,130.2646,126.4408,54.4274,45.4018,-27.7147,-29.0184,42.0121,26.5979,-44.4442
25.4508,14.3312,-12.8333,92.6747,23.3898,62.2890,-9.8569,-22.9163,-80.1678,-2.7852,96.9484,90.7716,103.5184,65.5685,-69.5659,-76.7442,25.1536,25.3612,-34.0302
32.9360,4.3736,-32.4162,36.5664,-5.3169,-37.9595,-56.6022,-64.8364,-122.0636,-135.6867,97.3282,45.1380,64.9000,-13.9475,-69.9882,-102.8665,-9.2907,16.1763,-127.3072
64.9134,51.4829,-16.5566,-3.4576,-67.2513,-178.0365,-120.4615,-185.6712,-99.3774,-245.2255,79.3411,12.0105,-30.1319,-71.1075,-5.5425,-106.3876,-9.3673,14.7169,-231.0632
108.4810,80.3775,2.9655,-32.3407,-131.8223,-258.3867,-128.2742,-256.7151,-65.6828,-263.1619,45.9791,-10.7317,-97.8072,-53.6635,12.6968,-91.5220,15.3450,15.5519,-243.5907
118.0607,53.3115,-2.6604,-36.3008,-130.2814,-215.0176,-94.2767,-215.9018,-42.0732,-199.0362,37.9435,-30.3989,-112.8285,-51.6457,-20.0649,-62.2945,29.9367,16.8405,-160.0988
78.7972,3.2489,12.2342,-18.8063,-68.1761,-127.2159,-82.3613,-163.7792,-35.0865,-107.3052,77.4053,-32.9608,-116.8274,-79.9503,-26.2618,-39.3414,54.6116,22.9356,-53.4174
52.6430,-10.4214,92.3414,30.6218,-20.0015,-83.7011,-92.4658,-124.7655,-60.7915,10.6997,150.5641,-11.0192,-92.3173,-79.8859,-38.9115,-20.2860,117.0398,20.3651,23.1067
85.9018,51.3381,193.7594,112.3543,17.3152,-48.0747,-36.1702,-43.6623,-49.2953,153.3716,195.6702,14.7823,-4.4868,-73.5712,-68.0540,9.9898,179.7659,6.8202,69.2824
127.0107,123.5953,242.4072,148.0638,90.3795,28.0512,81.1280,21.5035,52.1870,186.9737,187.6644,11.5946,67.7747,-97.6976,-18.4716,29.7480,184.1577,10.1810,90.1878
118.6265,82.2287,220.0387,77.5341,147.4714,90.2792,120.6240,22.9977,136.4183,78.2158,184.2113,-29.4419,50.3997,-87.8221,76.8047,34.5383,115.5047,30.6997,92.3867
80.8214,-40.2027,156.8127,-25.2858,125.1643,100.2676,74.1889,56.3460,132.0548,49.2434,192.9974,-73.9302,10.6802,11.3609,94.1115,72.8896,10.0713,30.6290,101.0838
44.4832,-93.8331,95.0549,-75.6948,82.7896,109.3765,81.7537,149.5207,133.4068,161.3940,156.4900,-94.6904,14.0963,108.8177,78.9406,142.5089,-68.2656,9.2160,112.3374
9.7288,-82.9810,62.1561,-103.2550,81.4004,116.5269,132.5415,191.0916,168.5144,203.7880,113.2015,-107.6218,12.6948,91.8982,107.7923,167.1127,-89.9926,3.9560,87.1904
-14.7125,-104.4246,38.8425,-143.8339,57.3030,48.5853,101.7442,148.6041,140.8042,177.1927,135.2032,-110.7547,-38.5123,29.1250,102.5326,128.2428,-106.5475,13.5791,22.4685
-32.2362,-128.9855,-27.1369,-173.2235,-57.5939,-72.6440,13.4643,86.2686,59.1433,245.6636,140.1883,-83.6612,-102.8988,54.0590,49.4606,89.6867,-181.7437,9.0319,-52.2669
-81.3357,-126.9689,-148.9328,-206.1270,-208.7161,-152.0403,-45.4769,22.6154,28.8901,300.7275,23.8276,-75.4417,-118.1466,114.2180,62.8297,80.3158,-289.4840,0.7369,-121.7142
-156.3555,-171.8642,-261.9520,-281.3539,-294.0557,-175.5921,-85.9604,-31.6332,57.6246,215.3821,-121.5119,-147.6016,-73.7789,89.3906,126.1694,69.8060,-337.4920,10.3756,-163.0031
-181.6436,-250.2096,-290.2669,-353.6665,-293.1060,-166.1909,-121.3814,-43.4929,74.0647,151.7903,-147.2152,-245.9210,-43.4555,30.6505,123.8678,46.7620,-285.8563,18.8176,-156.7267
-121.7586,-256.6905,-248.1133,-347.6226,-267.6063,-102.1576,-142.6163,-48.4234,45.9386,177.4487,-74.5401,-270.2218,-87.0299,15.8272,62.4640,33.6044,-190.3107,10.7173,-138.8083
-35.9522,-181.8780,-217.7699,-257.7194,-258.2901,7.8374,-170.6140,-86.4938,2.6878,142.6943,-8.7073,-205.3792,-139.6484,1.4520,7.8838,38.5233,-110.1006,8.0575,-131.2868
1.7945,-82.6116,-215.8367,-123.4086,-235.1241,119.3729,-165.0412,-76.2926,12.2746,68.6664,34.9681,-105.5084,-121.8285,6.1376,-14.8296,46.2499,-29.6245,16.9355,-66.8882
-17.6497,0.2143,-175.7363,-1.2255,-158.6137,231.1908,-56.2290,57.5384,94.0598,78.0459,87.6030,-36.8763,-68.7223,97.6975,19.6129,44.2750,76.6253,17.2734,95.4838
-31.5666,27.1795,-76.7629,53.3227,-32.6170,336.0909,83.9619,213.7461,151.1357,97.0656,127.7932,-29.3616,-29.3728,164.8382,71.3730,24.2387,172.6027,16.2586,263.5946
25.6541,27.4880,26.2203,60.7945,103.4425,384.8798,132.1320,247.5852,99.4390,48.4960,133.4291,-39.3882,3.5275,97.0813,34.0556,-17.9660,220.0994,30.8281,326.9155
120.0619,66.4703,93.1180,80.6896,189.6897,378.4352,103.0585,189.8605,6.4449,22.6116,140.6268,-35.8515,17.8576,39.1100,-57.0178,-49.0764,222.1491,40.5427,295.6749
145.8689,83.4960,108.8093,82.8553,199.6306,356.7466,88.7398,170.3080,-10.1219,53.2756,169.9218,-60.5650,13.7943,106.0788,-50.0134,-24.7669,175.4053,31.2778,252.6338
89.5409,10.8668,60.8880,18.9823,186.9237,301.7417,138.1546,192.1111,60.9884,35.8036,177.1362,-103.2496,46.5081,150.7045,52.2975,13.0821,88.0889,29.3244,228.0814
48.5283,-46.9451,-9.2486,-40.9313,189.2071,185.7344,227.7680,157.1937,136.4292,-77.5808,132.9419,-89.5448,105.5275,72.4742,116.6159,-20.7501,19.7504,41.9907,181.8155
62.5433,-15.9884,-29.1610,-31.8998,151.1041,50.4760,261.9009,67.6091,144.8497,-170.4911,74.7719,-47.0700,108.0866,0.5907,108.3842,-87.9699,1.0332,43.0496,95.0502
76.2329,11.9349,-0.2838,-19.5635,54.6745,-41.1408,192.8479,14.7315,101.3728,-104.2323,52.2861,-51.8722,56.9593,33.7191,80.0235,-76.9503,-1.1935,32.2168,20.0863
67.3758,-3.9160,26.8863,-47.7241,-15.4685,-56.0624,113.2078,8.2152,75.0143,30.4829,69.3551,-65.4550,21.6550,96.7038,53.5993,-15.6323,9.8880,28.1657,3.7035
62.3084,-11.0352,44.2358,-54.1678,-26.9940,-3.4271,91.9093,-11.8469,76.1746,1.0121,84.0407,-43.1799,10.6930,97.5025,32.1763,-18.1748,50.0905,24.4671,19.1891
60.4137,-19.9266,57.8033,-33.1020,-36.9412,46.6628,74.0559,-47.2772,52.9074,-138.0527,72.4882,-39.2354,3.4244,48.9477,15.6720,-65.6595,67.8900,17.2488,20.1110
57.7567,-48.1385,56.4822,-58.3689,-52.3055,26.3652,36.8117,-57.7729,11.8354,-111.0614,83.4602,-70.3173,8.7310,14.0901,-4.7004,-59.1474,21.6322,24.9819,3.7851
72.8055,-56.8163,60.5476,-112.9655,-29.7420,-32.3701,25.6230,-35.7283,17.0800,43.8483,149.0331,-85.1143,31.2253,-1.1507,-13.8435,-8.3788,-30.7786,42.0596,-2.5330
89.8851,-46.9872,93.1358,-109.7962,32.6482,-47.1467,41.6173,4.5485,64.5432,66.4723,193.6893,-77.6961,63.6069,-27.6908,2.8424,10.6378,-33.0763,39.8441,27.6787
77.0875,-35.1405,120.0914,-61.6601,113.4695,-8.1949,68.6471,47.3244,86.6354,-22.2821,172.2888,-65.1463,94.8182,-34.1818,16.6592,-9.7544,-14.9818,24.1988,88.7762
60.0077,0.9179,121.8724,-51.5080,189.3531,20.2486,105.2573,71.5546,62.4010,-58.5153,168.4100,-50.7386,105.0593,3.3649,11.1091,-23.6864,-23.5591,25.3302,125.1799
67.4356,32.8262,137.7212,-86.1742,222.7710,0.8531,112.8705,67.1520,16.4993,-53.6046,212.1072,-61.2274,104.4236,11.7049,13.3887,-2.6715,-67.1038,39.7401,91.8040
55.1658,11.6456,156.2479,-111.7797,207.5728,-27.5550,75.1441,44.2329,-39.2263,-19.5249,220.2848,-88.6505,121.4133,-24.3606,31.0646,43.1832,-127.4859,38.5737,10.2856
-11.0914,-19.2873,102.4335,-114.6102,162.3821,-30.0976,34.2433,18.9649,-79.3611,61.3870,191.6943,-78.8208,125.5552,-13.2046,41.1993,75.8218,-184.8958,21.7972,-83.0565
-79.1656,-21.5787,-16.2246,-124.6014,68.9547,-56.5673,-12.8632,-5.9427,-59.1424,50.0518,178.4834,-58.3782,73.5415,23.7565,37.1973,69.8318,-249.0973,17.2602,-174.6876
-103.4276,-46.2107,-108.7963,-164.6684,-67.7483,-146.2964,-85.7451,-45.3717,-0.4168,-88.0022,120.4850,-92.5210,6.9617,-5.7010,25.4117,38.6939,-330.5781,28.3134,-230.9951
-116.0691,-103.6897,-147.2029,-223.0855,-167.7916,-218.2728,-124.0876,-87.9949,16.9097,-109.5448,-7.5001,-135.3234,-17.3980,-36.0033,6.8827,9.9237,-371.9376,28.9946,-218.7739
-136.7049,-121.6250,-159.1495,-248.2197,-196.2985,-189.5127,-102.2674,-84.6068,-10.4939,46.1458,-76.8325,-114.6791,-24.3477,-0.5308,-20.3823,4.3935,-309.5420,17.3375,-165.4826
-116.8020,-71.3925,-131.9826,-197.7469,-211.0501,-102.5306,-96.2279,-39.9097,-11.8200,103.6371,-35.5511,-56.7667,-61.2390,1.7747,-63.0116,21.7889,-189.9462,18.4789,-109.4993
-39.1835,-6.5403,-65.3180,-109.8777,-227.1549,-26.9716,-116.7392,-20.9193,15.9095,-40.0585,24.7060,-9.1230,-119.3756,-45.9897,-109.1660,23.5150,-108.9503,28.6503,-40.6134
26.0744,20.1545,-19.8045,-63.2461,-181.8376,27.5420,-81.7944,-27.1214,20.3906,-168.5376,75.3913,14.3932,-147.2638,-29.5600,-119.7795,-13.1763,-81.0158,22.2417,44.3752
26.6891,22.4244,-11.6630,-62.5401,-60.5306,62.3950,0.7292,-8.9995,6.0064,-152.0612,123.8511,8.7285,-104.9777,20.5502,-90.8367,-41.9310,-57.9106,8.3236,103.8177
1.1070,46.2189,10.4378,-43.4391,61.8582,90.2559,21.0441,1.6261,-11.4285,-95.0606,108.7034,5.4589,-20.9233,4.2899,-65.5227,-29.5558,-12.3917,9.0373,106.0941
-1.6221,78.0798,46.1189,18.8238,120.8169,136.1515,-50.7748,-33.5598,-55.8916,-116.0369,55.7712,41.1258,26.1091,-26.1587,-55.1558,-18.8181,39.9960,12.7904,59.9451
11.8457,75.6885,53.2072,79.5007,133.0995,162.2820,-108.8115,-58.9304,-94.8075,-202.6955,82.7344,81.2177,15.3151,-20.7482,-35.4751,-34.2598,57.4630,9.9492,-3.4889
25.6600,65.5053,46.9934,83.9611,140.0536,109.7746,-68.9998,-48.2276,-58.0594,-249.6237,154.1231,78.3534,5.4725,-29.5500,-6.0821,-39.5281,17.2028,16.2589,-43.8708
40.5275,67.5503,47.8349,20.8388,130.1041,7.8956,1.8741,-48.5382,9.2302,-186.4122,145.4931,39.4275,24.6899,-43.4493,25.1730,-25.6981,-48.6778,27.1018,-44.7304
39.0684,34.6009,24.0325,-51.2206,87.8340,-74.5746,4.2719,-50.0874,8.8787,-64.8690,95.4316,-3.3835,33.2982,-39.9792,52.9905,-18.8475,-90.2169,22.4785,-37.7580
5.7394,0.6761,-16.9453,-41.0795,56.5076,-100.9683,-32.3778,-21.6122,-28.9072,9.0062,94.3816,2.1899,11.1503,-71.6552,45.3509,-15.5990,-82.2402,15.4316,-52.2680
-28.2298,63.6449,-26.2724,60.0955,47.6443,-50.9297,-52.6704,-11.6212,-16.0290,-9.5343,87.4254,78.9486,-6.1612,-111.2840,1.1142,-5.6180,-28.4869,24.1733,-73.7596
-30.5239,159.9930,-29.1409,149.3726,-4.8137,41.4076,-102.6580,-39.9306,23.1952,-70.8701,20.8520,137.9782,2.5287,-77.0614,-17.1508,1.1989,21.0671,29.6559,-88.2040
-27.5440,151.5974,-69.9772,155.0074,-99.3427,99.4929,-190.5210,-37.1227,16.2025,-75.3488,-21.9372,110.1186,3.4817,-21.1636,1.1925,9.3163,12.4135,15.6942,-102.3632
-51.6774,81.7550,-88.6783,135.2199,-132.1719,135.8010,-210.4681,17.1532,-8.2578,2.7034,15.5204,80.8701,-25.9479,-3.4780,-1.5048,26.4866,-4.7880,0.0921,-95.2293
-68.0637,68.6313,-22.5052,163.3155,-71.7159,206.2148,-125.5482,63.7083,19.7911,55.3627,52.1922,108.0517,-49.5029,36.0623,-16.0131,39.3821,57.6756,-3.3457,-36.5312
-30.6437,95.9332,58.1437,193.1940,1.7022,252.5974,-32.3782,70.4243,55.2252,14.9122,19.3461,111.8278,-45.5142,90.8730,-0.7681,49.4218,139.0187,-1.8897,34.4872
19.2935,91.9349,55.4930,137.0119,33.5881,196.9546,-10.3648,46.3928,2.3175,-21.6118,-22.5674,74.1148,-49.2619,77.1861,-3.2297,67.5449,104.8723,1.9902,47.3259
7.6428,43.8601,-9.8431,16.7274,32.7600,75.6160,-41.6625,6.4705,-80.8520,22.4463,-0.2449,64.1297,-66.5580,28.7147,-55.3453,75.5698,-14.1726,13.1996,10.6101
-37.4313,-23.0158,-54.0897,-79.3726,16.8995,-58.5111,-48.3636,-25.1818,-50.1428,87.8307,37.5106,54.5185,-59.6368,17.5176,-77.5084,74.7037,-80.8636,25.1362,-13.1171
-32.0003,-70.3996,-60.5437,-138.3497,1.9010,-178.4872,19.5084,-23.7478,66.6141,160.1582,3.7705,-10.0345,-41.1561,31.4696,-26.4318,111.8639,-81.9502,23.0556,-6.5263
-1.7549,-86.7868,-84.5802,-189.6366,-4.5814,-228.2931,104.9491,20.4968,132.8783,302.7377,-73.9420,-68.1933,-45.1383,75.3632,38.1194,181.8173,-98.1889,8.2069,13.4996
-37.9688,-103.2377,-144.4614,-205.3671,-11.1549,-220.4439,131.4823,79.8081,151.7314,438.9235,-103.0070,-62.4445,-44.9861,139.9784,78.1869,204.6226,-139.4813,1.4761,36.5435
-114.0732,-119.3257,-175.1533,-170.7438,-21.9611,-249.0430,123.8914,80.6840,185.2929,399.0170,-70.2658,-34.6765,-20.4107,116.0081,97.3927,155.3256,-163.3005,10.4509,30.9465
-130.1434,-106.2019,-135.5404,-143.3357,-35.5381,-293.8683,115.5892,-4.4475,189.6313,216.9714,-28.6729,-24.9672,-0.4781,-13.5832,93.4460,102.8084,-158.1902,14.6624,-30.3342
-92.2565,-80.0194,-86.1972,-132.0437,-53.8203,-250.2226,77.9926,-98.8559,133.3385,89.0125,-5.8293,-29.4733,10.8744,-102.6094,92.0325,89.7338,-129.3143,3.1577,-105.2263
-75.6476,-57.1817,-90.4876,-70.8097,-83.0620,-140.2582,19.7998,-137.7766,53.6953,53.3872,-9.0232,-33.0282,10.7173,-95.7444,99.3207,82.2286,-89.4573,-6.4520,-138.1411
-86.6702,-15.5965,-125.9651,35.0767,-147.0709,-43.4531,-33.6895,-124.7398,-48.9256,3.0107,-48.3501,-6.4258,-44.3427,-61.5920,46.1518,61.0571,-67.8807,-3.9750,-127.1363
-86.5896,38.8386,-139.8899,114.1985,-238.2422,53.7871,-101.2776,-46.5457,-138.5962,-38.6191,-94.0447,54.3845,-121.4092,-1.0299,-61.8990,66.5665,-53.9557,1.0987,-67.2731
-56.0509,78.9821,-91.3509,157.3533,-250.7949,160.6804,-130.8980,87.7194,-114.5419,41.1004,-71.8049,102.4264,-107.7244,95.6828,-92.5418,112.8578,14.6372,6.1054,57.2363
16.7939,96.9202,49.8952,182.0775,-99.6572,222.7488,-35.9141,177.8994,-15.7243,178.2211,44.1351,109.3154,-2.6918,152.0368,-18.4531,135.8802,142.9928,11.6527,189.2005
114.0431,75.8625,233.3314,161.1168,119.9522,223.2293,102.2474,164.2193,17.4292,179.0672,166.4012,83.5522,83.4951,138.1869,29.2286,89.0806,233.7021,11.3354,237.1174
169.8936,26.7870,319.7442,91.8078,244.0241,184.4434,145.5089,101.5895,-12.4581,9.4432,188.4841,29.2738,109.4993,105.1202,-4.7438,23.7625,208.6131,9.5474,189.3642
145.9176,5.0763,247.0689,23.8014,235.3725,118.5999,121.2711,46.3870,-32.1448,-134.7514,123.2810,-24.7899,99.3664,76.3744,-48.6586,8.5044,108.5894,12.4630,104.7505
68.6557,-5.0153,112.8264,-11.5879,158.9606,54.6674,111.7644,28.7747,-36.6039,-59.8206,58.2336,-31.7644,57.8901,70.1212,-52.6726,39.2062,24.1082,7.2620,47.9285
-17.8719,-55.7584,24.9646,-21.3291,79.3224,12.1206,126.2472,69.2869,6.3807,162.5944,15.9338,-12.6121,11.6120,101.6253,-18.2787,74.1241,-15.3730,-10.1891,50.6287
-65.4564,-90.6637,-13.7096,-33.8909,35.3808,-30.4808,159.6936,105.7859,101.9751,244.6262,-17.1603,-26.9568,-0.4196,94.8489,25.3574,77.6517,-30.9111,-20.9586,66.4896
-38.7537,-60.3403,-31.7906,-64.3946,23.5840,-62.4922,170.5534,60.1800,116.7339,79.5953,-9.9363,-67.0143,-9.8512,-9.6608,21.9387,28.8414,-23.7488,-20.8220,23.9190
20.6202,-33.9495,-27.9363,-55.6127,10.0583,-37.1484,101.6915,-11.5796,4.0035,-91.0801,28.4716,-77.0134,-61.0117,-109.1865,-31.3288,-32.6940,15.2327,-21.6475,-42.7098
33.2505,-15.4313,-19.5050,50.3832,-18.4005,40.3145,25.9064,-10.5319,-85.4847,-68.8726,11.8079,-31.3702,-111.8651,-97.6522,-67.6966,-28.0592,66.8399,-17.0367,-35.3967
5.9519,67.9346,-32.8543,179.5989,-49.7444,128.5242,44.2165,58.3451,-82.4579,32.7706,-69.6764,46.0654,-107.1647,-27.3106,-68.5135,33.8759,119.5606,0.8034,57.5048
9.9607,141.1353,-29.0020,217.9284,-56.5711,205.3570,96.2562,141.2886,-70.0504,69.2105,-117.4989,87.2605,-85.1713,21.9595,-66.0701,66.0586,181.8527,17.5158,177.2234
45.4833,85.0587,33.9065,167.1718,-13.0377,250.1299,107.1441,202.4395,-74.0128,70.7965,-89.3876,37.4201,-111.5908,52.2919,-63.2170,55.3726,214.0480,23.8371,276.6699
41.1771,-25.2536,87.4725,82.1198,45.1466,255.6867,122.6948,228.7345,-60.5208,84.2949,-33.4318,-56.7396,-152.6200,72.9897,-70.0061,52.0940,161.4529,24.9689,310.5100
-18.9065,-66.2901,57.8633,1.9490,61.4645,246.2886,151.5004,246.6595,-35.9851,93.5550,16.2033,-95.9909,-121.3269,72.6150,-101.9350,48.0424,75.2543,22.3373,255.5319
-68.7516,-55.9187,9.3560,-14.2549,71.2196,221.3407,132.0422,254.9698,-19.2423,71.1527,43.2353,-65.1317,-34.4370,54.3945,-105.3781,24.2454,45.3676,22.8273,152.3270
-73.6216,-47.5263,12.1347,30.2004,120.9604,151.1778,84.7175,197.9848,-24.5112,6.0757,21.0137,-27.9705,16.9115,21.1469,-49.1639,28.6621,40.1657,35.1657,54.0192
-79.2801,-48.2999,7.6067,27.0576,153.4893,39.4730,83.7065,107.1277,-34.6255,-11.0592,-31.7655,-22.1158,38.7661,-20.6972,-9.8966,76.4235,-9.9541,41.6340,-13.3312
-112.7355,-61.6020,-39.4553,-47.8744,130.9524,-79.6153,127.4514,74.6492,17.0654,119.8943,-52.7582,-37.6543,89.9405,-46.6980,-19.6285,97.1740,-60.1937,23.4856,-47.1040
-128.1643,-69.9795,-59.3683,-87.2385,97.5173,-162.6725,146.1791,57.7319,111.4834,242.4912,-33.5965,-52.5232,116.3335,-65.9003,-10.0688,58.2698,-56.7690,2.2649,-95.7214
-97.3592,-46.9687,-45.2924,-63.2285,44.0371,-168.7986,99.9568,-21.6748,135.2967,153.5429,-30.7929,-47.3061,50.0069,-120.9534,23.8808,9.5077,-55.1687,2.1889,-193.2122
-58.0082,-22.1509,-69.4793,-59.3460,-57.1468,-124.7867,43.5395,-85.7999,99.5318,21.5854,-60.4492,-27.4918,-31.8000,-193.7048,31.2801,-11.8944,-100.9996,8.5789,-250.1174
-49.7552,-42.1685,-125.9086,-103.8521,-139.4698,-99.4339,43.3814,-53.7018,104.0085,82.8112,-67.1576,-25.6361,-46.7123,-205.2218,34.8714,-10.2524,-146.2424,4.0165,-178.8779
-82.4366,-94.3755,-157.9310,-147.8629,-165.4584,-64.5520,54.6385,28.9172,119.2268,191.3118,-26.7322,-44.0485,-38.6978,-134.1319,56.2835,3.7954,-141.9501,-4.0323,-55.8492
-132.7969,-117.1292,-152.4136,-142.4399,-178.8144,55.6242,27.8493,119.3114,83.4707,153.1527,11.9519,-36.7382,-39.9001,-49.9070,50.1546,7.4775,-84.6564,-6.4045,18.6581
-134.6150,-63.5412,-94.8445,-71.0227,-154.9339,208.3147,25.9371,189.5097,47.4075,63.0832,29.4399,16.2243,-8.7748,-12.0270,25.2133,-14.8748,9.4353,-2.0685,62.4130
-69.0363,30.3174,11.3361,23.2702,-54.8856,282.6584,64.0714,183.6792,40.0235,19.6486,63.5597,74.8957,50.3908,4.1256,39.5540,-27.0669,98.2348,4.2609,95.8439
-26.9899,76.9827,81.9431,79.5078,43.2495,277.3721,66.9694,136.6357,26.0385,-12.7204,104.0166,107.5455,96.6330,44.8658,68.5649,4.5058,143.4194,0.9904,89.2122
-47.5867,74.8331,71.0748,104.2754,89.2364,240.5330,63.2240,121.5596,25.0519,-35.5097,112.0695,125.5689,141.6311,76.1993,67.1567,32.9017,153.7964,-8.8490,54.2517
-29.4695,98.0485,52.9749,124.0056,142.5029,180.6123,108.9705,84.9291,66.3577,-48.0718,131.7099,135.3997,204.4309,33.3295,77.8809,2.9125,146.9468,-5.4233,23.9513
67.0532,142.3666,82.1138,118.0126,209.3267,119.0250,122.6388,0.7860,110.6834,-55.0351,203.7203,126.6598,269.8719,-32.3689,124.7330,-41.6946,130.4557,8.5285,5.0832
142.4621,147.6623,125.7365,86.8123,237.3432,79.7247,82.8169,-17.4634,125.5641,4.9034,254.6836,111.5883,333.2575,-4.0954,136.0692,-32.1517,133.3630,15.8267,14.0872
157.1889,128.5706,159.4154,77.8585,233.1846,33.8454,104.1269,25.5711,132.0180,82.3153,242.6532,117.3896,381.7383,84.4346,84.0435,-2.6689,168.4647,26.4208,41.8122
172.9820,136.2181,192.9121,113.9579,216.0532,-25.9364,173.6077,-14.9993,158.3393,38.2427,258.6028,151.7172,370.8829,79.9712,61.0239,-21.4933,208.1619,45.5905,34.6839
211.4666,177.7268,233.9690,180.5627,195.3922,-39.4777,188.0364,-113.9793,192.8288,-39.2208,349.6943,205.9988,315.6964,-18.4364,130.6479,-58.3029,250.3199,47.7574,12.5853
262.6114,235.8377,284.2479,235.8062,216.2045,14.4535,187.3106,-128.0133,188.6911,-17.3859,420.4663,262.7836,313.9028,-50.2773,216.9753,-55.5646,308.3467,36.3875,59.2236
333.8193,276.6390,324.8043,224.7067,262.0271,74.4785,217.1512,-73.4676,148.8331,-45.7515,383.3614,300.0367,390.1193,22.1412,224.8984,-47.9432,350.7378,44.2566,157.0790
398.9351,271.0067,334.2466,171.2543,245.4482,102.2600,197.6829,-32.5976,130.1936,-196.2342,276.4809,319.9064,428.7227,72.9105,177.2912,-73.4532,367.6176,60.4657,216.9397
433.2233,248.9756,334.6797,170.5690,198.8977,140.7813,118.4327,18.9351,127.0063,-250.7786,220.7586,343.7831,364.2660,69.0200,141.5324,-81.1002,410.4932,60.7973,241.0142
462.8747,238.8774,350.3340,226.8829,244.1717,226.7157,80.6235,91.4035,114.2729,-177.0546,281.6041,364.9376,317.4556,105.1648,119.7734,-46.9119,478.5808,66.4675,288.8254
476.2660,203.9235,364.4419,252.3118,366.9844,296.0269,119.1495,113.7484,133.5600,-169.1049,353.1134,358.6194,398.0294,177.0352,107.6836,-33.0342,501.3958,84.1074,340.4771
434.6357,146.4996,361.8040,219.5896,451.2879,252.3004,168.7714,62.5579,152.2365,-198.5187,297.0973,331.7163,498.9931,176.1722,134.0967,-53.3502,462.6631,84.7155,316.1289
391.3963,139.9931,333.8665,164.3074,455.9193,122.0043,147.7963,-10.2491,81.3846,-149.0149,194.6825,308.1847,471.3835,104.4660,168.4499,-50.9037,402.6922,79.9850,210.3548
403.3941,178.7931,272.7380,115.1082,410.8459,27.8265,69.1432,-56.7505,5.0644,-101.8042,211.7909,290.2133,368.9795,65.2077,149.8327,-25.3983,333.2874,93.2843,133.9722
409.2433,172.0111,217.3882,102.2995,349.5412,5.0570,74.2101,-54.7494,37.5114,-86.7050,276.5142,272.0370,330.4071,74.0613,120.9196,-16.1428,256.6159,94.2049,165.4046
364.6055,117.3786,196.7723,127.0005,287.3380,-11.9139,191.7996,-17.5812,98.4208,-37.6478,215.9953,260.3453,361.3654,66.2379,147.3247,-9.1057,201.1105,75.7021,218.2701
325.3033,109.0927,162.9504,145.4079,210.3178,-42.5899,223.3025,-1.8524,120.0702,-52.1791,88.8374,258.6555,375.6331,26.5175,172.3065,7.3959,182.6341,79.5897,185.4686
313.4229,169.6736,121.3808,152.5699,127.8878,-48.2119,102.8064,-37.0589,125.4434,-177.5034,63.0761,255.2922,326.9394,-18.5988,139.3781,2.0801,187.8680,92.8034,121.8058
304.1631,218.3557,167.1679,172.9143,95.7622,-14.5710,27.0636,-67.0427,67.5188,-205.1032,133.5965,244.8246,261.2520,-49.5413,119.4597,-12.1673,207.4958,79.5755,118.8330
318.4839,213.6286,290.5079,188.4646,118.4737,53.7696,57.1133,-32.6518,-22.6545,-74.0439,196.1495,246.4320,301.2484,-38.9147,155.6531,9.9808,249.6224,77.1123,142.7057
357.3775,208.2011,385.1738,199.1801,147.0707,140.2279,46.6238,19.4235,-28.6538,-12.6714,221.3952,268.7578,480.8758,11.8519,165.7632,41.6385,307.2235,105.8966,139.8753
358.6904,231.7057,432.5109,231.8674,189.6179,192.6716,-8.1831,10.5203,-28.7818,-84.1257,230.5122,273.6017,621.1228,41.1667,115.2663,30.9811,328.2974,114.1349,133.9784
310.3070,227.2570,443.7511,233.5988,264.1534,184.0908,13.2073,-22.8415,-73.3265,-107.6059,234.8082,227.7445,569.1948,17.5649,88.6634,3.3723,276.9691,101.6022,141.4191
258.9385,155.4582,386.2643,153.6382,305.2776,156.5468,86.8986,0.5730,-13.2996,-50.2843,222.5858,156.2859,433.6300,-18.6447,117.8106,-0.0593,218.1270,113.0300,136.8055
217.2289,67.7509,311.3799,84.3579,270.8769,147.7447,101.8009,45.4995,53.7343,-45.2285,162.7818,92.7091,372.0305,-45.1953,132.4825,-3.7437,237.0138,119.4235,109.3438
188.5580,34.9769,304.0376,111.4639,228.6980,147.7474,55.1310,40.2098,-41.7004,-92.6267,76.2915,43.7365,370.4033,-74.7664,114.1429,-33.3208,298.3416,93.6951,75.1291
188.9086,60.2886,318.6009,152.1370,231.4355,121.4813,31.9070,11.4665,-50.7377,-90.7353,45.7004,19.8345,367.4597,-93.8131,109.2537,-58.9838,299.0312,88.9007,47.5498
174.0591,74.2600,289.6944,101.7847,224.5812,24.1176,45.0219,-9.2951,84.5773,-73.6430,65.5107,9.0181,330.4312,-93.2204,95.1413,-59.5473,204.5188,113.0666,-0.1584
89.3782,29.2552,232.3086,-0.1050,147.8766,-116.8723,10.0081,-41.3831,77.6092,-133.2808,23.7354,-28.1931,219.4735,-100.0250,39.0483,-61.1176,69.2668,109.6908,-98.3999
-1.8764,-3.3054,138.7314,-39.0681,49.5021,-163.1368,-46.6596,-48.4178,221.7596,-186.6807,-89.2225,-64.7696,100.5671,-114.6650,32.0836,-70.6599,-5.3481,91.5642,-175.6403
-3.2601,51.3411,27.3427,13.4766,18.5116,-76.1512,17.0394,-1.5354,695.8804,-116.4486,-150.8883,-46.4760,100.6926,-113.5090,120.7304,-51.4970,26.6074,102.9792,-153.9586
36.5371,93.9874,-7.6954,49.9680,23.2353,-33.9484,98.9145,3.1783,539.7866,-35.2162,-133.3191,-33.4716,139.0726,-119.4450,145.2495,-6.3919,55.3214,116.9605,-144.2397
-5.6449,9.7849,5.8914,-16.4986,-46.0433,-129.9463,-50.5061,-80.8748,-425.5787,-64.2248,-138.0688,-99.3116,44.3682,-157.2826,25.7901,5.6578,-23.4603,108.1340,-256.1552
-114.3176,-100.9322,-39.9732,-94.0127,-155.6868,-196.0016,-270.8459,-130.2507,-638.0580,-54.0904,-184.5201,-165.7314,-91.8905,-178.0235,-40.3460,-17.5051,-100.8142,100.9480,-332.6508
-147.4054,-95.7966,-60.2178,-68.7769,-155.1207,-128.2727,-218.7247,-80.0877,190.5489,99.0120,-178.8077,-140.0243,-77.5225,-130.6277,51.3235,-3.1998,-59.0552,98.0272,-230.9988
-50.1312,-7.0503,58.1598,-11.9424,-33.4203,-68.8765,-33.0938,-29.0611,380.2431,207.3286,-101.2429,-68.2065,30.5611,-53.6140,114.8952,57.2325,-5.8015,90.0905,-105.0458
80.4082,77.3324,178.9538,-21.1125,84.3550,-107.5438,-3.7629,-37.5423,-246.3628,176.8539,-37.1193,-27.9328,85.4620,-18.4680,72.3730,88.2770,-37.3000,92.1711,-92.2714
150.3757,111.2354,172.8474,-41.7323,143.5234,-151.8271,-9.0252,-66.2038,-251.6581,165.6957,-19.8631,-35.5772,100.2934,-30.1019,81.9497,77.2444,-56.2265,95.4668,-102.0510
163.8244,68.6878,133.5141,-22.5546,157.3375,-166.3847,70.4751,-91.3292,206.6133,209.6948,-0.6857,-62.0231,119.3910,-34.7983,150.7627,90.7029,-15.2261,85.4862,-85.2146
155.3503,19.8473,122.4332,-15.2215,125.7520,-209.5972,66.6233,-102.4385,15.9136,197.7363,26.7243,-39.6725,123.1825,-1.4086,122.0634,136.2193,-1.8268,92.9203,-94.2374
139.8035,53.8688,83.1847,-40.4341,80.2138,-251.0652,-22.8288,-87.0686,-419.2131,137.1201,7.9316,40.6023,132.2182,37.8192,29.1821,144.7575,-26.9417,121.9501,-94.0717
132.6911,85.9191,39.2576,-68.6942,61.9850,-225.6247,-41.6813,-92.0685,-334.6196,44.7355,-55.5683,82.1716,171.9045,28.1705,12.7749,83.1718,-28.7847,125.9279,-52.2163
148.5819,35.6498,47.2670,-88.4299,54.0657,-170.5349,-41.6498,-155.0640,-104.1085,-111.3801,-83.0489,79.5740,188.7985,-32.6598,35.6334,-8.0254,0.1898,111.2638,-32.7092
185.5049,30.9984,69.7135,-58.3476,35.9713,-120.1268,-71.8815,-192.0143,-81.8852,-191.6298,-28.0979,149.2493,145.8053,-72.6442,6.8350,-72.3792,62.9325,122.4824,-35.0409
221.0842,138.2023,75.3401,62.7182,4.5555,-25.7015,-36.2169,-109.6312,-95.7466,-69.7361,65.7653,263.3666,85.4726,-33.3120,-35.4933,-92.7675,154.2811,139.5131,-3.9420
211.9558,215.6961,88.0407,195.5471,-57.6167,103.0518,12.3150,23.8932,-146.0191,57.7224,136.6095,286.1388,53.9408,25.9733,-39.9860,-95.4588,202.9518,131.6423,30.2413
152.1423,197.3357,115.9815,221.6436,-99.5294,164.3815,-21.1592,61.2106,-175.1259,1.7180,172.1016,248.8807,66.8574,3.0630,-27.7078,-101.7562,201.8909,131.6125,47.4972
129.1481,153.2508,167.3325,155.9783,-22.3272,136.9703,-33.8207,-14.2176,-35.4110,-107.8995,196.3878,239.8655,117.9169,-71.1791,-28.1295,-106.5370,246.0362,155.6560,91.4877
207.2138,112.6936,242.6965,107.4403,120.2289,111.8885,-0.5574,-84.0201,-8.5298,-148.3303,219.0081,204.1626,165.7193,-90.8391,-54.6897,-120.1288,326.8641,167.3844,125.6813
286.8098,91.1841,280.7810,120.4683,172.9859,127.0189,-46.4031,-88.1066,-232.7830,-181.2833,207.2054,113.9259,168.9546,-78.0833,-90.4918,-157.5415,326.7478,158.1310,79.7064
234.2600,95.6616,232.5485,131.1215,132.2874,121.8221,-125.8533,-89.0591,-310.1898,-209.4374,130.2270,49.1627,125.0065,-109.8309,-91.1604,-180.2193,226.1503,150.8709,-2.9377
94.5418,61.8419,125.7179,73.1161,93.5112,69.5285,-130.3571,-118.2106,-183.6266,-193.7434,33.0093,14.1212,43.5569,-135.4794,-68.1654,-153.4140,96.3723,144.3669,-59.7160
14.4398,9.4291,3.0051,-2.4379,56.0106,25.6038,-131.3662,-111.8218,-176.0358,-197.9890,-12.7188,-33.1064,-52.7221,-104.6604,-79.5202,-128.7458,-18.7625,132.6120,-101.9574
24.3434,48.5359,-89.7901,3.7170,-6.7122,20.3416,-168.1579,-53.3424,-214.8271,-226.7034,-48.1222,-55.5938,-114.9684,-93.6793,-121.5703,-148.3668,-85.0445,131.5762,-124.5920
45.1919,121.0099,-108.7276,59.0176,-50.6877,6.3684,-155.2592,-21.9067,-163.7121,-190.8684,-186.2252,-51.1420,-133.5051,-120.1582,-152.9166,-148.6485,-94.2633,147.0931,-103.8982
40.8536,96.1113,-106.2311,46.9232,-60.3492,-48.7943,-102.8005,-53.1090,-207.6739,-130.2108,-410.3832,-87.0761,-161.1045,-106.4678,-165.9800,-86.2121,-116.2305,162.2128,-77.0465
22.4599,32.1538,-183.1051,-27.3071,-93.7158,-102.9687,-90.6535,-89.4031,-314.2490,-140.6704,-580.9037,-151.0317,-222.0638,-92.8777,-153.9979,-41.7984,-194.8979,163.7957,-94.8169
-35.9763,6.8138,-309.1418,-64.2768,-192.4840,-115.9720,-127.1371,-85.7416,-279.1461,-156.6871,-641.2535,-185.2505,-282.0829,-156.1215,-124.1313,-74.4069,-265.0500,154.7409,-148.0296
-141.7074,-29.2313,-360.6412,-52.1331,-319.0854,-109.3943,-187.8485,-60.4464,-205.5738,-95.3561,-639.7547,-209.8337,-322.5169,-200.0460,-132.7947,-103.6788,-259.6170,148.1935,-182.8421
-207.3695,-72.7387,-310.5394,-58.6845,-377.9005,-111.8643,-222.4700,-42.7033,-192.2892,-30.5705,-599.6409,-259.3520,-363.3726,-137.7218,-187.4648,-53.2228,-202.5077,151.3538,-156.9817
-186.6667,-97.2455,-243.4471,-107.7868,-326.1218,-116.7669,-186.1587,-31.0961,-135.9755,-23.3098,-538.6518,-316.3953,-417.3785,-67.2830,-220.1524,17.3667,-169.0777,151.1953,-101.2668
-187.9060,-168.1678,-234.9684,-168.7787,-249.6760,-116.9355,-144.9336,-12.4780,-86.5255,-0.7798,-517.2583,-362.6360,-466.6668,-64.9505,-220.2608,28.5348,-208.5182,135.0726,-88.1431
-278.7190,-264.1037,-282.8096,-215.6682,-231.0459,-117.5637,-156.3190,1.0943,-127.8718,79.5356,-538.5484,-395.8821,-478.1993,-84.0171,-226.2545,7.0860,-286.2890,115.3306,-110.7891
-345.7831,-279.2393,-331.2362,-246.9314,-230.5386,-116.7877,-149.9144,-7.3894,-143.5366,135.3424,-535.0836,-419.3277,-446.4093,-102.7421,-221.3542,2.1555,-329.2554,107.6196,-102.0861
-326.6751,-255.1738,-358.1759,-263.5563,-210.8931,-116.1499,-100.0077,-8.2147,-74.0395,97.7392,-503.2372,-440.6585,-412.8914,-117.4749,-198.3615,-5.6412,-343.9214,105.5547,-59.0612
-332.0691,-258.4399,-394.9490,-250.6320,-209.4971,-118.8425,-63.9109,33.1818,24.0666,35.6709,-492.3907,-442.9233,-409.5739,-95.1612,-201.4756,-29.2349,-380.4968,96.6350,-21.6089
-391.7204,-219.7481,-437.9688,-204.5082,-222.0006,-105.3825,-35.4416,76.7968,95.8076,82.7876,-490.8729,-409.2606,-420.3241,-70.4906,-218.5819,-27.5219,-403.9839,79.6520,-7.8055
-381.6223,-141.1661,-440.5344,-150.9413,-209.0178,-63.1284,-25.5315,68.2159,20.9281,245.4426,-459.4660,-369.9521,-425.4329,-91.0986,-202.0766,9.4165,-357.6779,60.7326,-36.6547
-292.5851,-124.1215,-410.1870,-112.0189,-199.7258,-27.2513,-98.7537,30.4466,-167.9336,351.1139,-410.1443,-353.4584,-427.3482,-96.1817,-177.2484,34.8240,-294.9664,51.8917,-98.3548
-260.0371,-148.0570,-397.8000,-102.1771,-232.7718,-36.0314,-193.4703,-3.0245,-198.1677,263.2676,-373.0277,-353.8136,-426.2534,-54.6137,-178.5798,24.9707,-293.3731,59.8555,-143.0438
-307.4638,-144.9364,-402.2168,-134.0867,-290.6152,-73.7041,-219.1445,-55.6636,-82.9509,70.4962,-349.6123,-364.7715,-412.2983,-46.1352,-184.1038,-0.4774,-318.6288,66.8137,-185.0585
-333.1502,-140.7164,-384.7751,-169.0573,-359.5028,-99.3846,-254.0153,-123.7935,-85.7405,-36.3961,-317.2669,-366.4382,-373.0209,-77.5640,-187.9373,-16.6804,-298.5668,53.6432,-265.8880
-303.3979,-140.4633,-331.6155,-143.9145,-412.4327,-92.2136,-342.2530,-140.8640,-106.3869,16.1360,-249.7725,-336.5556,-307.2086,-63.6191,-193.6886,-0.4390,-240.5794,32.6748,-313.8170
-251.4753,-107.3756,-240.8231,-77.8867,-370.5186,-50.5797,-368.3152,-91.5331,10.9053,149.7320,-151.4173,-301.2251,-243.9761,3.2727,-167.6090,50.9389,-177.1952,17.0605,-257.7020
-179.7727,-58.2037,-120.3211,-33.9631,-229.2996,1.0749,-313.2522,-55.3824,-12.0949,211.4674,-64.3385,-275.5948,-214.4934,70.3541,-125.0230,91.9637,-94.8357,-7.3759,-182.5985
-98.0883,-15.3660,-21.7127,-17.0688,-107.8150,10.1214,-278.8593,-86.3972,-264.9675,110.5294,-21.7370,-230.0670,-205.5111,106.6211,-131.1331,80.7259,-8.0932,-41.0374,-172.2985
-59.1917,9.5868,-2.5636,-25.7320,-71.3919,-42.9828,-250.9065,-127.6316,-346.0237,-17.5769,-17.1332,-186.7186,-184.6471,82.0193,-153.9584,46.1562,5.1608,-59.4050,-173.0657
-87.3364,-16.6249,-55.7801,-79.0710,-66.5847,-105.0169,-156.2732,-104.0256,-138.7953,47.4195,-17.7451,-190.6198,-148.1696,17.9876,-112.3186,43.5036,-66.0826,-66.9665,-140.0226
-137.8720,-62.3521,-117.4172,-125.0923,-56.0478,-120.1177,-36.1644,-51.7411,22.4198,213.7462,6.8830,-201.9754,-108.5548,-1.2171,-43.6028,61.6931,-120.2803,-87.0122,-115.4268
-150.3663,-64.8523,-127.1067,-97.4481,-48.6870,-99.1281,27.3501,-64.1679,-1.8778,173.5971,46.8962,-182.8127,-70.6994,16.4782,-17.5614,40.5622,-97.9765,-106.9968,-116.3796
-120.4941,-72.0275,-81.2796,-48.8357,-39.3979,-81.7946,16.0834,-129.8487,-71.3478,-29.3479,62.5100,-171.1782,-40.5412,-15.7471,3.2760,-17.9266,-49.1498,-116.2334,-108.7550
-97.4751,-123.7581,-36.3617,-51.3179,-36.0724,-75.0670,-28.4274,-145.7249,-81.7000,-42.7439,62.9806,-173.1045,-22.5818,-70.7566,52.1081,-39.6802,-15.7841,-141.9946,-74.8509
-97.0534,-137.4995,-24.6558,-65.4588,-50.4485,-57.5314,-29.3987,-81.8069,-6.5049,151.8633,102.8372,-155.8199,-2.5777,-60.2915,84.0256,-11.6426,12.3809,-181.6900,-17.9754
-88.0075,-102.3471,-6.4661,-51.8216,-46.5995,-19.6126,41.8299,-5.7818,99.3204,242.6846,162.3252,-137.0457,32.1757,-13.7449,97.9505,-8.2386,30.8874,-196.6437,51.1682
-85.8629,-113.6078,29.2120,-53.5720,-20.7600,20.0057,111.2845,35.1332,134.5049,166.9873,152.5745,-130.2667,57.5268,1.1980,127.3824,-41.6840,29.2694,-195.7816,106.8051
-123.1457,-148.9109,21.7938,-76.3115,-32.8434,43.3489,110.2857,47.9312,100.3987,96.5938,82.5978,-102.5186,48.2606,10.8421,124.1900,-43.7490,28.8262,-208.8174,128.0711
-145.6794,-122.9751,-27.1941,-63.9789,-59.4239,57.9444,67.3168,45.4958,50.6416,59.8593,66.7672,-58.5920,37.4488,53.4127,55.1386,-15.6157,35.3518,-214.4463,120.2878
-115.9625,-87.5573,-33.9290,-32.1639,-11.9589,61.4283,47.0209,37.9507,13.7154,40.8082,126.9330,-40.1088,61.9029,97.8461,16.7187,-11.8882,20.2390,-201.3860,102.0437
-117.4767,-116.6054,-1.1059,-48.4297,65.6265,25.4692,61.4370,35.3810,52.2687,88.3241,158.1013,-50.8529,81.6133,108.5766,76.4924,-16.9745,-21.3158,-208.2451,75.0961
-191.8738,-160.6644,-28.6896,-84.2632,58.7845,-39.3391,50.0452,28.9537,136.3074,103.7961,111.8946,-66.6706,54.8847,91.9055,143.9130,-6.2706,-73.0320,-239.4363,11.9705
-254.4540,-164.4324,-130.2413,-61.8215,-6.2929,-80.4728,-30.9833,-2.0730,115.0055,-7.8949,48.9089,-68.7493,26.6492,59.1286,134.7010,-12.8111,-140.4778,-258.0077,-93.0164
-253.6091,-147.9799,-197.4068,-21.3185,-29.1184,-104.2258,-102.8212,-66.9781,31.5355,-63.0084,18.4918,-53.6085,39.7969,5.3407,103.6358,-34.3112,-208.6518,-258.4598,-179.2635
-206.9310,-133.4036,-162.9737,-64.3807,-9.4642,-167.9810,-79.3718,-158.8900,54.8059,39.2780,16.2073,-40.6773,56.0983,-58.6191,111.0312,-43.4794,-224.8069,-251.0647,-202.0131
-131.0240,-123.1103,-96.3993,-166.5782,-17.5148,-254.7067,-34.0036,-246.7490,103.3514,62.9894,19.2925,-34.0752,35.0819,-88.2133,111.7206,-69.3845,-202.2433,-235.6806,-199.6555
-93.3800,-125.0596,-105.1376,-218.9477,-85.3614,-284.6164,-44.5768,-273.7791,55.4304,-74.3662,3.1857,-10.4978,-14.3437,-58.2578,67.1642,-100.7364,-222.3822,-225.2867,-187.5847
-154.1188,-139.6813,-183.9583,-204.4235,-173.9249,-243.0662,-31.4129,-210.9831,36.2157,-129.9215,-24.0472,15.4814,-72.1958,-13.9684,31.3885,-63.5447,-273.1850,-219.8027,-111.6766
-210.6778,-147.7924,-229.3552,-170.0218,-222.8771,-174.2950,38.5179,-103.5362,92.0981,-25.2819,-29.8298,13.3863,-111.9490,-11.4464,38.7709,4.8306,-249.3842,-198.7826,12.1014
-141.7116,-114.1570,-190.5635,-104.5321,-241.9645,-89.5357,58.6857,-6.1533,94.6488,88.4540,-28.2939,21.9134,-113.7758,-22.5910,32.5024,8.5990,-140.0163,-177.2909,94.6669
-16.5253,-20.6903,-107.9063,-0.2042,-271.4589,3.4929,34.0188,89.7364,77.1588,162.7825,-44.6428,79.0468,-111.7907,27.2336,-16.6711,-5.5816,-38.6481,-174.6188,135.6244
47.5024,79.6330,-30.3107,67.7141,-260.6708,44.5540,78.1617,184.8409,118.3540,184.5655,-44.7407,128.1809,-146.5725,122.7029,-48.5175,30.6356,5.4559,-163.7724,183.6359
48.8928,104.1622,5.2214,61.2662,-160.0338,8.1757,148.9650,216.0935,127.4452,88.3268,-19.2292,116.3082,-187.0030,152.6749,-28.3736,50.2142,4.1992,-143.7255,205.4187
22.9408,55.2174,-10.4576,58.6824,-46.9893,-28.4828,141.5236,172.7353,102.5206,-36.0495,-12.2927,83.4140,-182.1385,89.0253,-1.1890,18.8658,-11.2743,-146.9098,183.3593
4.8362,16.1275,-4.9937,109.5906,31.8421,-7.9597,118.0997,131.1214,124.9322,-37.3666,5.1318,76.7040,-133.3302,47.5637,-8.4772,6.5769,15.8663,-147.0136,181.8079
39.5319,37.6840,85.7485,156.1280,141.5422,19.9472,149.2827,100.6070,102.7400,38.8752,84.4069,87.9194,-64.2132,79.2767,-42.9353,19.1674,91.9571,-115.8240,195.4783
89.5410,96.2683,188.5128,169.7108,253.3028,22.0014,157.0026,30.5408,35.8074,92.2456,146.7579,104.3639,2.1316,85.5760,-63.6495,16.3185,132.5458,-98.3688,155.6250
76.7865,148.2937,207.4618,203.2363,258.1661,47.7731,113.0316,-26.5974,112.6134,108.8449,123.1137,134.2485,34.1477,51.1676,-24.8211,20.3863,113.0086,-103.4278,100.1489
44.5358,177.3346,185.6503,260.8772,201.8636,101.6858,114.5645,2.7898,206.9551,51.9349,111.1916,178.2940,34.0071,90.9551,53.9729,30.1099,109.7085,-85.0245,99.2866
74.9478,182.6208,204.5335,271.8064,190.1377,118.6995,168.8688,53.4116,41.3201,-55.0053,180.6962,210.0368,41.6740,176.3140,90.2966,6.4375,128.6221,-68.8248,109.7295
116.9041,153.3471,240.8377,213.8302,182.4343,94.5038,182.7667,63.2000,-136.0181,-53.5222,237.8937,192.1587,58.9643,160.2154,74.1886,-11.1068,111.1661,-93.0293,99.9157
94.7899,101.2788,238.5632,149.3799,129.6909,83.1718,171.9756,97.7426,32.6333,86.5711,214.4090,143.3831,59.4975,92.3722,84.5014,26.5248,96.9305,-102.4277,135.2871
59.7543,89.1208,209.8910,148.6712,86.1175,105.1021,212.4096,177.8595,259.2362,206.5849,155.2421,150.2036,56.3177,127.2379,128.7524,75.1329,154.4096,-70.9575,211.6761
82.4455,143.8858,194.6049,218.7368,60.7186,155.6833,235.1057,211.8333,164.9467,233.8235,101.3891,228.7220,53.6667,202.2637,128.5836,96.9650,231.8617,-59.5930,223.2428
135.1241,186.6611,205.3108,273.6768,26.9032,206.3053,136.1282,165.5336,-12.9636,215.4889,78.5219,263.7633,19.5275,174.7617,75.8116,111.7493,249.9605,-73.3632,152.4743
162.9254,142.0761,236.8918,219.9577,49.8624,196.2401,11.7820,95.2619,33.0707,186.5528,114.8952,196.8692,-12.4116,107.3599,40.8463,121.5774,219.1449,-62.4001,96.2973
150.2153,55.2590,267.3491,108.4985,163.0661,137.6847,21.0849,37.5898,147.4414,170.9387,164.2027,134.8741,28.5992,116.8860,44.7074,116.6306,178.3750,-38.6786,99.6662
102.9629,18.4328,263.5135,70.9470,266.7079,115.0893,114.9005,-1.9198,150.9916,135.6719,163.1853,160.2209,103.1414,152.2180,55.1945,96.6902,143.9341,-32.7070,111.7583
59.9025,38.5641,236.9980,94.8857,303.4223,113.3717,149.2763,-19.8046,135.6057,40.3800,154.9612,203.1215,136.3096,130.1574,71.0724,55.6783,125.1273,-33.5246,100.7197
71.4081,39.4914,242.6562,62.8996,331.6282,58.4894,140.0055,-12.5959,155.5741,28.6307,183.8171,186.7081,158.7811,92.1118,106.9064,30.6446,112.4962,-37.5794,111.6977
110.0928,-16.0754,282.9860,-13.2548,381.3323,6.9267,188.4058,34.4870,151.3003,190.7894,195.7151,134.8669,199.9564,99.9381,136.4407,71.9423,105.7138,-47.1383,184.8657
110.9443,-53.5764,303.2152,-24.1210,418.7686,42.2515,279.5085,107.1737,141.9384,263.1775,182.5687,96.7662,210.4172,127.8988,131.4522,125.2318,139.2296,-44.0034,265.3853
103.4751,4.8776,287.4965,34.6041,405.1674,96.4590,309.1690,145.2199,160.8890,107.4747,205.8823,92.4410,183.6127,139.1997,112.2952,122.0361,181.4119,-30.2175,259.4949
143.3808,105.8554,245.5523,85.7119,304.4630,90.0663,243.2612,148.7696,160.9574,47.9972,220.9426,124.0125,153.2549,161.3631,99.7043,122.0888,128.1519,-27.0977,174.8049
180.8290,150.1682,166.8382,109.9530,142.0828,75.7716,179.1996,186.7623,141.5818,210.9907,153.1820,162.0419,105.4399,201.4517,89.5075,172.2496,19.2445,-33.2502,129.2119
185.5360,143.1303,111.0684,132.8152,32.1879,113.0836,224.7312,250.1174,164.0392,267.0330,97.6407,165.3117,59.1384,188.2556,113.9761,195.9053,51.0286,-39.8109,199.5501
247.6765,142.2097,188.3229,156.3153,35.9982,168.5975,330.2467,261.6092,208.5407,140.4718,156.2532,146.1821,82.3356,111.4255,193.1129,157.4038,249.2821,-44.3668,321.3359
369.5475,153.2385,339.4456,159.1885,92.1063,180.2727,364.4806,210.3645,207.3126,79.6133,229.3895,148.8437,150.2288,79.7283,219.3611,112.2765,389.8713,-44.3552,374.2049
393.5673,154.0517,369.0839,121.9655,135.8300,133.6800,325.5462,133.8127,170.0862,54.0368,212.9146,162.8959,174.7662,123.7222,102.6348,72.0333,342.3478,-53.4306,333.8050
280.9743,125.6839,257.0525,63.6721,160.9744,94.9073,286.2222,71.1613,133.2868,-62.7017,176.9682,145.0903,144.4204,151.5893,-18.7675,31.2792,223.8499,-73.9333,289.2876
176.5401,59.6432,160.0778,37.7574,181.0907,133.6717,245.1392,90.4040,90.4648,-91.2444,181.1478,109.1208,101.2032,164.7462,22.4907,40.6525,158.3835,-72.1722,313.7704
139.0351,-7.5122,123.8071,49.2069,213.9380,192.7676,220.3765,195.7389,71.9016,41.5161,167.1352,98.4375,80.2171,223.2365,144.8187,99.6116,131.9278,-48.5070,376.8451
104.5985,-28.1174,78.7718,47.6126,251.7276,174.9326,271.0302,260.8214,144.7796,88.8324,118.3399,106.3960,97.1182,236.8437,200.6811,121.0970,107.9843,-43.9342,404.6616
73.3656,-11.2316,33.1213,25.7136,254.3555,119.0204,329.6496,216.7404,255.1853,-24.4232,91.5162,108.8131,113.1460,128.2817,198.0758,74.0724,87.8835,-53.2132,373.5182
72.6312,11.9860,26.1373,17.1900,220.9669,100.8233,300.6778,156.0027,248.6227,-122.6197,91.0929,111.7207,97.2534,40.2869,149.7003,21.9178,56.9259,-54.5831,321.2394
56.0661,25.4841,12.8736,17.1938,182.7211,85.3664,265.1811,148.0002,128.5010,-147.2974,90.4579,107.0997,90.7966,75.4283,45.2020,11.8708,-0.8854,-68.2453,295.3294
-0.2795,-0.5207,-60.3101,-0.8892,128.0497,35.5637,312.3584,157.1597,89.7014,-116.9065,90.4395,67.8346,71.4071,105.8706,30.5255,25.3769,-67.6460,-88.0580,301.0571
-62.8593,-78.6372,-183.2962,-51.5321,46.7791,-14.3617,377.9771,169.8748,203.1743,18.5417,47.0353,8.4032,-51.5800,57.3310,204.3628,35.0573,-132.8577,-84.0004,306.8108
-126.8804,-165.5600,-301.4776,-140.3047,-28.0906,-49.3313,411.9282,206.7634,300.5699,210.3154,-85.7675,-34.4165,-203.0233,45.9276,347.6706,57.4679,-192.7528,-84.7968,296.7049
-180.2676,-221.3548,-326.5208,-217.9399,-91.7389,-65.9888,411.9136,237.4578,269.1230,292.8469,-196.7496,-55.4717,-230.2082,116.5312,264.6866,109.4958,-196.1675,-108.2173,269.0369
-172.3525,-239.2274,-224.2230,-207.4217,-146.2335,-43.6368,315.2261,212.0320,199.4369,206.8101,-142.5436,-54.7008,-195.5339,158.6985,114.4514,138.1603,-110.6511,-109.0144,201.9134
-122.0101,-217.5670,-108.2426,-140.3784,-130.3919,-14.4220,145.6318,135.5749,159.3739,66.6852,-9.3324,-23.1742,-215.2935,120.6691,67.5446,92.1761,-19.6296,-95.8778,108.5882
-105.1728,-186.3380,-89.3207,-116.1663,-22.5056,-13.9542,68.4139,68.6019,107.0917,33.1334,28.6021,12.4334,-214.3762,72.2065,42.5608,31.5174,-9.3019,-114.5946,69.8910
-121.9894,-195.7823,-103.3343,-129.1514,94.4538,4.2825,117.1743,67.4267,73.6164,125.5150,4.7120,7.4965,-140.5104,52.7888,2.2409,32.7953,-22.5092,-125.9847,108.2734
-126.6148,-225.4216,-59.9134,-115.7316,168.5340,52.0704,161.4072,108.0701,135.1665,179.4102,29.0225,-30.4724,-88.4804,17.5954,45.5427,56.4392,20.2884,-100.0089,135.6674
-114.6953,-206.5641,-8.0335,-86.7244,219.6024,56.7407,157.3389,112.3314,205.4624,111.5298,54.1768,-47.6583,-77.2636,-42.8894,123.9043,40.7970,64.5362,-98.3250,105.3788
-91.0328,-140.5490,-6.5129,-63.4996,240.1085,16.9758,140.1131,75.9825,138.9343,60.1246,20.4576,-23.0010,-54.6157,-54.7531,102.7696,15.7610,39.8042,-130.4780,62.1346
-70.3133,-95.8318,-20.6736,-23.8729,211.3547,1.4857,104.4929,64.5667,-6.1911,93.4291,-14.9870,-0.6171,-53.0490,-2.5214,41.7099,18.3360,-1.8036,-133.5703,18.9554
-95.7594,-107.7932,-28.6465,18.2871,150.0561,5.0062,78.0112,79.9304,-55.7214,80.8510,-28.7505,-11.9974,-80.8300,21.0004,54.9142,19.4903,7.6500,-113.6800,-38.3920
-141.0939,-138.7324,-45.9622,25.9587,68.0388,-14.3965,101.0485,72.2870,6.5132,-25.3118,-43.6712,-11.0868,-76.1243,-1.7146,76.0943,-3.3953,39.5203,-110.7542,-69.0233
-115.9712,-127.0372,-51.8191,13.7439,-10.4922,-47.7153,115.8040,49.3637,55.2288,-113.7828,-24.5727,32.3796,-60.4398,21.1209,32.8498,-22.4654,41.5490,-113.2606,-52.6289
-35.9430,-65.5448,-37.7708,12.9941,-48.7306,-72.5473,71.4272,45.6659,29.6607,-126.1059,7.2020,54.0518,-86.7268,76.6020,6.9747,-14.4478,19.5260,-119.7518,-44.6311
-1.2918,-6.8099,-47.7698,33.5968,-101.7663,-67.0247,3.8483,52.2107,-38.5771,-96.8589,-41.1656,21.6453,-126.2174,57.6415,33.4284,1.0980,11.6425,-139.6098,-71.5326
-21.9278,14.3687,-83.5077,75.8875,-246.6871,-6.7309,-91.0205,55.1701,-123.4165,-75.1903,-110.6716,2.7800,-170.9569,-15.1953,6.9190,-1.9720,30.2101,-143.6982,-105.9485
-52.4869,1.0563,-96.4133,108.9799,-386.4322,85.7155,-233.9013,60.5063,-198.9848,-98.2299,-78.8809,13.1911,-233.8077,-39.7639,-90.1463,-9.0445,36.3892,-133.5015,-147.6732
-101.3058,-44.5147,-92.8995,94.1500,-364.9438,168.0704,-336.1573,59.7426,-219.8541,-132.8746,-29.7221,-2.1151,-239.9480,-5.2108,-128.4918,8.1624,-8.1447,-145.0758,-203.8135
-163.2672,-99.5981,-109.6707,61.1580,-218.0152,235.9473,-332.9699,45.4140,-210.0087,-108.6138,-68.3977,-12.8224,-155.4537,60.1669,-77.9295,32.6516,-63.2344,-161.5184,-245.2527
-189.7597,-112.9474,-119.7992,75.2389,-81.9509,280.2685,-309.7293,32.7267,-253.6825,-59.3299,-88.8021,39.8449,-83.9682,135.7183,-67.1914,28.9263,-57.9025,-168.1501,-256.8643
-180.6682,-74.9826,-86.6416,136.8264,6.9184,274.1387,-332.9712,15.2729,-327.5296,-89.8435,-33.6028,99.0634,-82.4786,144.7439,-144.1207,-0.5936,-13.2030,-200.0365,-256.8469
-173.3341,-31.4545,-48.5486,172.0086,60.5365,218.2601,-355.2883,-40.9615,-326.4786,-223.4687,-26.0234,100.6673,-100.2518,50.4947,-200.9006,-39.6992,-19.2718,-238.0490,-260.3921
-178.7802,-23.2076,-55.0658,115.7061,69.4757,127.7234,-347.7336,-121.7720,-277.8071,-370.3685,-75.3469,79.4605,-114.9763,-39.6806,-177.8678,-79.4257,-92.8597,-233.3860,-268.1550
-197.4239,-53.6155,-77.7990,13.8490,63.7789,41.5495,-318.7156,-148.5942,-275.3656,-385.8783,-66.6278,67.7360,-119.6590,-24.5424,-138.9529,-93.4996,-145.4342,-225.2356,-249.2682
-204.1828,-82.9534,-54.5958,-11.1888,84.8701,24.6341,-241.6944,-76.8532,-260.3132,-224.0321,-33.4239,56.0667,-79.7373,56.9001,-123.9248,-71.1636,-112.8165,-243.5429,-166.2225
-157.1560,-75.2422,6.4991,34.0175,103.9474,39.6783,-131.7567,33.6888,-161.1828,-71.1784,-60.4323,43.3466,-26.3884,102.2850,-106.7600,-49.8667,-60.8963,-221.2410,-71.6123
-109.1238,-67.3325,25.8146,8.0378,72.7360,-34.0807,-83.9433,76.1819,-91.0305,-121.2180,-77.5515,19.3288,-32.9866,48.5909,-97.2436,-55.9875,-90.9697,-145.1647,-72.3475
-146.8815,-92.9233,-32.2787,-81.6090,-7.3397,-159.3616,-135.8254,2.3641,-134.7608,-274.6657,-29.4057,-2.9435,-92.6297,-63.9303,-127.7521,-79.9285,-162.6624,-95.5380,-166.5480
-193.3013,-87.4543,-98.0810,-65.7485,-110.2688,-175.6371,-226.9033,-129.4130,-194.6576,-319.4726,-7.3713,44.5827,-156.4910,-105.8424,-168.0805,-113.9555,-149.2146,-85.1751,-254.6030
-129.8379,-16.9154,-96.7040,67.4745,-201.2706,-78.6356,-310.2046,-197.2039,-214.0504,-245.3684,-63.1890,150.6569,-204.8422,-34.9109,-176.8992,-133.3674,-58.8088,-61.7895,-280.0868
-43.1288,31.4412,-51.4188,158.5668,-231.2178,16.4051,-366.4568,-140.4034,-235.2576,-185.4628,-123.9378,198.4753,-207.8178,30.8111,-175.4875,-103.3969,-9.7329,-30.2592,-241.3105
-54.3281,12.9332,-29.4911,144.6010,-182.6338,73.6531,-356.7499,-44.6831,-218.0159,-238.7692,-123.7462,164.5856,-143.7666,18.3062,-179.7147,-57.9519,-18.6425,-21.3161,-162.6327
-84.6599,-13.2677,-42.2150,81.3109,-102.9646,95.6810,-286.1190,-29.6305,-129.7439,-375.7171,-62.5783,135.8873,-67.5679,-1.2714,-161.3133,-60.0131,-20.0400,-20.9540,-113.9101
-46.7040,-19.5761,-47.7764,29.4263,-53.8125,85.2875,-238.7241,-81.3580,-90.4226,-426.3653,18.1876,134.0088,-49.9346,17.7969,-139.2657,-92.6777,-11.6561,-9.1552,-133.9897
-5.0954,-8.9357,-13.4463,47.4403,-47.1623,97.7981,-263.6023,-113.1710,-163.4919,-331.1105,53.7238,129.0979,-71.9345,26.3885,-169.7636,-108.3588,-9.0343,5.0316,-165.9322
4.7498,39.6416,46.6179,126.3820,-55.6615,134.7606,-308.1591,-122.6572,-232.4764,-293.9319,24.7540,137.2646,-62.7468,-4.8082,-216.5435,-111.3309,9.7091,9.4402,-170.8365
