Fp1,Fp2,F3,F4,C3,C4,P3,P4,O1,O2,F7,F8,T7,T8,P7,P8,Fz,Cz,Pz
126.0497,79.2754,97.1632,63.6796,120.9961,116.4735,67.3432,85.7144,193.4413,82.7142,115.0343,47.2522,45.8173,43.8996,132.3075,33.6870,107.3226,66.6046,154.6092
139.1635,136.1738,32.1900,68.6790,78.3565,71.2338,-178.4435,-79.3232,35.9592,-103.3904,58.1920,59.0587,31.0639,57.7155,-23.4564,-64.4518,174.8281,32.0706,-41.5995
-12.9672,54.6730,-97.7130,-6.7555,-101.8314,-26.9917,-225.5952,-169.4814,-150.5489,-183.7694,-87.0370,28.5167,-78.1295,7.4790,-91.2512,-70.9046,10.9086,-24.7093,-201.4445
-158.6614,-67.4799,-174.1971,-71.2258,-220.5289,-77.5848,-90.5052,-149.8244,-200.0264,-125.3219,-175.7551,-6.9612,-161.7629,-45.5767,-77.6721,-54.5885,-185.5201,-40.2609,-209.2554
-140.4132,-80.4758,-176.9921,-64.8032,-188.6611,-67.5998,-61.6725,-141.4630,-133.6167,-74.5969,-124.2536,-27.9443,-123.1701,-41.6093,-102.7339,-78.7623,-181.1184,-34.2202,-165.2628
-92.0569,-54.7734,-153.9498,-62.8312,-164.3522,-80.9933,-119.9480,-160.9900,-104.1659,-52.6199,-76.3506,-70.7807,-83.7547,-56.4173,-134.2133,-56.9846,-141.4889,-60.5803,-167.6394
-99.7621,-65.9921,-124.8769,-84.1688,-184.8215,-103.5983,-106.8446,-140.4111,-114.9391,-24.7177,-127.0952,-111.7041,-113.4233,-106.4844,-102.4769,23.1657,-169.5029,-86.2106,-146.2846
-78.0636,-65.9881,-113.8018,-80.0353,-150.8929,-84.1011,-80.6641,-100.3804,-74.9999,-28.0224,-172.4342,-103.1269,-124.8067,-98.5223,-60.3620,44.2917,-141.7944,-77.1826,-70.2464
-47.0410,-69.2079,-131.3576,-78.6923,-101.9374,-74.0503,-87.7099,-74.2178,-5.8978,-40.3002,-123.7076,-83.2762,-104.2049,-46.3291,-45.7334,-9.5887,-99.3584,-73.8846,-28.1312
-62.5879,-107.7792,-126.6400,-98.1816,-97.3899,-91.7150,-70.0355,-39.3609,29.4399,-19.8838,-17.1580,-88.3172,-94.5416,-35.7493,-23.0978,-52.1029,-131.5261,-82.1652,-35.4075
-53.1181,-117.6614,-77.2091,-84.8207,-74.4785,-65.8759,-58.1185,-9.7510,34.9330,-23.4545,67.4587,-89.0182,-65.6626,-45.1593,10.4328,-63.9829,-148.1384,-62.1874,-33.7203
-11.8222,-96.9374,-36.1665,-52.8590,-24.9752,-7.2106,-62.1545,-2.1796,29.5493,-54.6425,74.9772,-85.1171,-17.9373,-31.9673,39.6223,-61.9445,-128.2633,-34.2140,-17.6253
-19.3642,-111.3728,-23.6172,-54.1660,-5.9540,13.7791,-22.3259,16.9629,27.9182,-39.2168,32.5196,-91.1251,3.1513,-29.0178,63.4722,-40.3441,-140.7912,-34.7415,6.0472
-37.3122,-114.6392,-2.1299,-51.3836,1.7603,12.8313,6.6455,32.8192,41.3204,-10.1735,14.6483,-68.5825,20.8014,-42.6197,59.2750,-22.2050,-132.0281,-36.6845,36.2992
-8.4937,-57.5931,28.4030,-20.7187,15.6836,20.1550,-19.9145,11.6676,45.5249,-21.6128,22.9318,-18.2332,51.2040,-38.4776,30.5555,-26.1463,-72.4434,-20.2288,38.8294
5.0346,-20.1942,31.0444,-15.7427,4.8831,9.3001,-26.0391,3.7808,27.2231,-23.7253,24.3699,-11.4816,44.0364,-27.0545,14.3411,-35.6737,-39.0461,-12.0811,19.9413
-12.7301,-28.6530,16.0812,-29.4812,-2.9586,-11.0805,-34.2502,27.5636,15.7185,-14.5960,46.6711,-48.7879,8.3328,-30.2331,3.1750,-60.2819,-25.9386,-12.9835,21.8819
3.4043,-8.7870,30.4702,-12.2389,25.0479,-9.1746,-83.6616,24.0961,14.3124,-36.9363,90.0134,-56.5965,3.5140,-29.9934,-4.8558,-88.6388,1.4443,-2.2262,19.9853
35.8283,23.9225,58.7029,-2.6592,36.1087,-9.6782,-69.7718,9.1056,1.0833,-45.5247,83.5474,-33.6618,8.1250,-9.7873,12.2256,-59.6942,5.7002,-1.1116,-8.7390
36.6387,16.2979,41.3516,-31.8576,7.2658,-20.4834,-29.7977,16.4347,-8.8308,-38.5957,24.8644,-27.3423,-23.7663,20.2873,3.4087,-10.8311,9.8194,-24.4667,-22.0072
37.5708,24.5823,12.3475,-29.5540,-2.9361,1.8953,-89.8525,-16.8591,4.1599,-77.3336,-9.3020,-19.1747,-58.9530,38.9442,-42.5904,-40.8463,50.9857,-22.5317,-25.9869
45.6782,70.8092,43.1676,10.3715,8.8877,30.7668,-94.9585,-81.8309,20.7080,-81.7377,-10.9000,8.9451,-65.3274,24.6188,-16.8625,-97.1106,53.9948,16.3553,-57.8928
11.8647,54.1601,60.3321,-19.4710,-22.8958,-12.1665,45.4123,-64.0539,24.9701,29.4403,-34.3518,2.5867,-77.3069,-19.5699,47.4634,-77.9352,-4.5192,0.9725,-66.0532
-37.0468,-33.1569,-23.3383,-113.3403,-88.8472,-91.1060,73.9950,13.4971,31.9115,131.5545,-76.5477,-44.6020,-105.2147,-60.6660,-8.6918,-30.4210,-29.9374,-90.1881,-11.0438
-29.9725,-56.9932,-96.1236,-130.5443,-101.9079,-103.4364,-35.5610,24.4916,46.3959,137.5921,-96.8343,-57.7311,-104.9632,-82.5542,-103.8864,-16.5284,-7.7095,-124.8941,30.0701
3.4975,6.4874,-52.6753,-54.0050,-45.2663,-61.6505,-12.4336,-22.5753,40.1630,128.3432,-97.1206,-40.6479,-70.1615,-99.2874,-62.8254,-12.3125,-2.9345,-50.3662,10.5320
-9.2551,32.0602,12.3174,-1.3614,9.0267,-38.3725,90.9192,-36.9824,3.1852,120.7437,-84.1182,-62.3136,-33.3186,-109.0652,19.6124,-23.8982,-16.3402,13.2310,-2.7549
-47.8459,-17.6089,25.1458,6.4051,27.1416,-23.6621,84.8789,-6.3073,-26.2387,77.0466,-41.3463,-91.7702,2.5228,-91.9369,17.2582,-52.5078,-26.2401,18.2771,24.2100
-55.3424,-54.2495,32.3148,29.7500,38.5407,0.2939,81.7655,25.5983,-31.2663,42.9534,-8.9444,-70.1544,27.1284,-55.1361,8.4711,-34.2441,-37.4215,40.5217,35.9511
-40.8707,-44.4747,37.5242,52.5964,56.7865,-3.2122,137.6577,23.3579,-37.0525,25.9073,-55.0400,-43.9755,7.1485,-21.5824,31.4801,26.8834,-37.3697,67.5911,22.3375
-36.9894,-37.8588,34.3255,43.4528,76.7690,-16.0482,124.9387,1.8698,-32.0952,-14.0349,-127.1506,-50.8906,-27.9937,10.9185,41.1229,69.9805,-27.3572,39.6830,43.6866
-44.2634,-53.8910,58.2244,33.2846,100.9656,12.6964,95.2816,26.9846,4.5952,-20.0847,-109.9691,-55.0560,-22.1777,45.5011,65.3455,109.7086,-32.0360,8.9617,92.0043
-50.6048,-66.8077,68.7767,32.0286,116.1453,43.2885,122.8993,105.9016,31.9700,45.8182,-21.1576,-58.0336,1.1757,63.0047,94.6473,148.2343,-37.4938,23.6639,101.1185
-44.2125,-62.1487,29.0978,23.5933,108.5393,33.7070,106.3756,154.7413,27.2302,93.7697,35.3974,-68.8361,6.9046,64.0429,68.1323,125.1859,-32.0576,35.9209,90.6159
-24.6526,-44.4506,18.3903,26.7718,93.3917,31.4228,61.7934,132.3078,22.9789,72.6405,39.0067,-40.0250,18.0894,69.2212,31.7685,71.4538,-43.0958,30.1318,107.2232
-12.4099,-20.0288,50.5546,42.8277,80.7087,48.9153,77.1883,81.4451,10.8795,30.8412,26.8099,16.7355,34.6592,64.6735,28.3791,68.1332,-46.6694,34.4058,98.3278
-3.8970,4.5043,40.5728,44.2423,61.8244,42.9687,57.5688,40.3435,-33.7487,-1.9087,17.8181,29.3419,25.9992,30.6300,2.5533,74.2078,10.6816,36.4570,28.0381
37.1947,26.8812,11.3610,48.5669,38.1702,37.1932,-33.8550,13.0385,-85.9941,-33.7844,40.2212,14.7188,0.6416,1.2590,-42.5597,19.6985,87.6369,38.2493,-42.9579
100.1129,60.8950,25.8741,76.9428,15.7763,61.3881,-70.3123,-17.7184,-143.0854,-82.2690,112.8329,32.8358,-21.5577,9.2878,-67.7831,-56.3791,122.0744,67.9278,-97.9997
123.7640,121.3780,39.7551,99.4025,3.1198,69.1146,-55.1205,-71.1155,-217.3327,-155.3638,192.8714,74.3865,-27.1826,24.1896,-109.0419,-98.8877,143.7076,99.7722,-161.5045
95.6189,182.4724,37.2695,107.4520,18.5741,56.3171,-61.9176,-121.8778,-261.3157,-209.0997,223.7441,120.3580,9.0038,17.5875,-162.5643,-111.8718,168.5227,104.6094,-184.3396
65.5367,187.8031,68.6150,121.5584,55.4647,76.9011,-41.9209,-125.5300,-249.2891,-205.0960,205.8723,158.2321,64.9769,15.6609,-171.6046,-100.9309,152.9071,104.2355,-139.9543
62.4933,127.8650,106.2097,120.4295,81.6382,103.9611,3.3188,-88.7618,-215.0672,-175.0113,183.1938,134.8364,76.1587,32.9469,-154.2382,-61.9203,114.6139,93.5805,-89.4960
65.0387,59.0155,99.5713,87.3760,88.1589,82.7383,-8.5121,-47.1606,-160.0519,-137.9608,171.7829,53.9692,39.7447,40.0686,-139.2592,-22.6050,99.0781,53.1333,-53.6328
55.9983,29.7238,75.3590,60.3711,85.8743,56.7030,-41.6415,-23.3766,-87.3033,-88.2403,132.6253,16.3419,8.1412,35.1434,-112.8815,-29.3810,79.8896,25.4665,-12.7697
56.3291,36.0385,64.0772,55.1654,83.4042,69.2280,-25.3093,-31.4278,-46.7420,-71.6536,55.6904,51.7845,11.7866,50.4200,-102.9230,-75.1698,45.5180,35.0426,7.9415
75.3398,45.0330,67.2476,43.1094,87.8471,72.8937,-0.2622,-51.3741,-39.1548,-101.7926,12.0079,71.1476,40.2167,66.7516,-124.4865,-76.3274,34.1233,32.8802,2.4646
85.1875,33.6820,79.5422,25.3447,85.5416,44.6566,-11.5175,-38.5216,-23.7536,-102.3739,41.9897,32.4887,46.4271,37.9656,-120.6007,5.0049,37.3064,7.9089,4.4440
84.4470,15.6014,66.5539,22.2888,55.6128,30.6209,-39.1421,-2.3555,-8.6788,-55.5651,82.8812,-2.0727,13.2867,-2.2029,-79.5975,67.6717,37.1317,1.3513,7.4035
96.2320,18.2780,15.8088,14.2069,14.6207,32.5115,-59.4043,9.3154,-7.6254,-34.7268,82.0549,12.6256,9.6164,5.8937,-47.6688,25.8730,53.0385,0.5472,-6.5499
95.9348,33.6615,-19.6063,-21.5696,-11.8342,6.9097,-56.6578,-2.1572,-4.2881,-56.9204,70.0271,44.6456,68.2086,25.6126,-24.3701,-40.0373,55.2448,-27.6449,-19.2659
58.3403,31.3969,-12.5011,-56.0572,-21.3191,-29.7663,-26.1188,-4.9242,6.9061,-68.3435,69.9312,54.4748,116.1055,-2.7829,2.2619,-27.8346,7.6517,-52.0455,-18.9209
21.4029,2.9683,8.3133,-51.1693,-5.2931,-31.0830,13.3338,5.0511,33.1742,-40.8510,48.2674,47.5976,124.3671,-46.3599,9.2082,27.0254,-30.6901,-38.8789,-7.3536
6.1899,-33.3790,26.2906,-19.5187,28.9786,-12.2094,46.0342,15.6927,69.3552,3.7993,2.1814,39.0641,133.5763,-53.4021,-1.8928,44.2948,-18.4793,-10.8446,11.5083
-11.0561,-42.7242,28.0360,-1.7652,36.3173,-10.0464,62.5901,14.2715,76.2295,22.8877,-6.1168,24.6033,127.1429,-37.7588,-5.6757,12.6483,-4.5615,7.2786,17.3147
-27.2990,-17.8178,1.3077,-10.6340,13.1688,-20.1426,60.2464,-1.0021,68.8239,13.7147,28.6540,5.9947,90.2599,-29.1478,7.5508,-29.2184,-13.9045,15.0663,8.9975
-42.5460,-18.9628,-17.2055,-24.7422,8.6120,-30.2154,65.2619,0.9563,104.7424,29.5910,8.0781,-6.7602,82.9951,-35.4081,45.2316,-30.1316,-32.5308,12.2915,17.6664
-78.0941,-73.9404,-0.9158,-23.6150,26.0038,-36.9352,84.6609,35.8712,149.8630,76.1206,-94.5870,-11.7230,110.6062,-50.1355,95.0833,19.3618,-51.8634,3.9502,45.1207
-97.1202,-101.7041,8.0386,-14.9009,24.9271,-28.8064,76.2255,56.2851,143.8330,96.3283,-166.2300,1.0668,102.2518,-48.6521,116.2538,55.1558,-40.4951,-7.6142,61.2971
-63.7092,-66.5059,-16.6265,-22.9300,-5.0816,-17.0459,35.3360,36.7935,131.6008,101.6099,-158.1051,32.5210,51.6762,-19.9176,108.9506,50.0563,-4.5162,-35.6016,53.2081
-38.2398,-54.8484,-42.7937,-47.2291,-47.2667,-28.1410,7.9716,33.9272,157.1664,147.4293,-150.2150,46.2282,3.7824,9.5606,112.9355,72.9961,-15.1197,-69.1977,26.7030
-58.0867,-90.2079,-49.7431,-61.3163,-81.2809,-44.9870,-2.9099,76.2471,170.5228,200.1046,-176.8022,37.3698,-34.0121,24.7133,116.9940,135.4143,-57.1753,-78.0451,0.3831
-65.8315,-87.8086,-49.4405,-67.4270,-95.7569,-46.0807,-22.0840,104.9227,142.6495,204.0267,-206.6247,64.1825,-59.5799,39.5817,87.1539,153.8959,-41.4963,-82.3823,-8.7588
-43.9446,-32.5213,-61.2857,-96.7187,-114.2858,-63.9005,-40.1546,85.4108,118.2329,191.0681,-233.2127,129.6570,-67.7004,58.2292,63.6299,135.9586,3.3053,-123.5649,-22.8064
-39.9368,14.4672,-98.5890,-138.9230,-160.3281,-108.8532,-55.8312,53.9328,123.8284,197.7444,-235.9111,158.2657,-87.3436,75.0075,92.2968,161.8932,-6.8498,-171.9058,-65.7582
-57.8858,40.5500,-135.2317,-144.3100,-200.6577,-125.1264,-83.9386,30.6920,128.8179,197.5305,-204.7490,139.5000,-121.2602,86.4423,114.2352,188.2670,-39.8103,-168.1850,-101.3487
-69.9504,62.2633,-123.3335,-103.5457,-192.0970,-91.6673,-101.5309,5.7280,98.2636,166.9076,-213.4442,135.8952,-122.5949,86.0349,65.7749,136.0891,-36.7872,-119.7549,-85.5945
-78.1130,76.8977,-76.1944,-57.8634,-144.4701,-57.8036,-92.2279,-8.2629,51.4634,121.5779,-286.8807,153.5275,-102.2917,81.9967,3.5064,74.3713,-23.8066,-74.6287,-35.1300
-94.3958,87.8399,-49.3795,-35.8835,-92.1332,-52.0496,-85.1454,-4.6768,42.6898,92.6018,-333.0706,152.5878,-124.9045,81.6418,-0.2302,76.7622,-27.7987,-50.8734,6.7680
-113.5986,97.6271,-47.8458,-27.0966,-57.2237,-54.1569,-84.9881,-13.2268,63.5594,89.5032,-325.3588,132.1102,-167.3219,59.7160,25.2166,78.0981,-23.4021,-34.6120,16.3623
-108.9077,103.8554,-41.6871,-8.1229,-43.4651,-49.0631,-73.5263,-39.7220,44.2472,75.8650,-320.3641,109.1841,-148.3711,18.8234,32.2926,42.2675,6.8269,-10.7256,-4.5619
-58.1026,118.7031,-26.5010,21.8283,-31.0870,-40.3753,-68.3516,-44.5963,-14.8448,39.5692,-298.2383,91.6619,-93.7885,17.1766,24.6738,39.4260,43.6674,13.1333,-28.1919
1.4780,137.3947,-11.1419,34.7876,-11.7767,-29.7366,-80.7453,-15.8447,-41.2306,41.7148,-225.2849,90.0209,-96.0619,59.0358,-2.0436,68.5012,67.8891,12.3128,-28.0733
10.1448,139.2050,-1.2069,18.3918,-14.7718,-14.7625,-91.8423,7.9232,-30.5097,90.8994,-158.2392,91.6762,-141.4951,74.7796,-53.2427,37.7862,88.1283,-8.3356,-9.5592
-21.4714,135.0940,-3.9122,4.6675,-44.6747,4.6410,-97.7894,6.9765,-40.3910,100.8077,-132.8981,73.8286,-141.2416,49.6267,-84.4621,-55.4260,107.4256,-9.1176,17.2749
-46.1202,129.2921,-16.2142,18.0243,-57.4681,22.5211,-90.4064,6.1941,-69.3664,61.2653,-120.2456,55.9348,-89.4258,32.4466,-71.7648,-117.4799,97.4968,17.1980,55.7908
-52.5609,97.0052,-28.1400,33.8509,-44.0646,28.7765,-59.1332,17.6677,-70.3300,51.3582,-110.9961,53.6902,-56.0696,30.9920,-58.8775,-109.3090,59.8781,32.6133,88.8513
-41.1151,60.4203,-33.8919,30.7472,-40.2045,21.9552,-47.0315,22.6734,-37.0807,69.0649,-95.5771,37.8314,-63.6750,24.6167,-64.2983,-70.9851,40.4939,28.0660,83.3891
-20.4091,55.7659,-25.2566,28.5120,-41.5296,13.4827,-75.6779,16.4477,-0.5202,59.4253,-53.6504,11.4560,-65.9521,23.2205,-55.5709,-38.2304,33.3580,35.2274,35.7207
-27.6616,45.0411,-5.5736,39.5921,-18.4136,12.0050,-80.8629,6.3894,12.7613,32.8894,-18.2318,9.9771,-29.4762,29.3486,-35.7476,-25.2405,-3.1736,56.7578,-25.3850
-57.9527,8.4777,9.4859,49.4604,13.5058,15.6394,-49.9238,-16.1165,-3.6150,5.8001,-15.5527,7.6894,18.3681,17.4854,-37.4862,-41.0177,-33.6391,66.7624,-64.1707
-50.5129,1.6544,28.9711,61.2211,30.2357,26.8161,-52.6050,-39.4781,-37.7344,-33.7917,-4.1703,-32.7195,30.3935,-10.7288,-57.2446,-58.2033,-10.3049,72.4783,-61.7469
-4.3613,17.5681,61.5348,85.7753,45.3883,54.6660,-80.9671,-22.7686,-75.5150,-60.8577,26.0680,-73.8906,3.6451,-17.7048,-74.3295,-29.3775,19.9724,91.0478,-33.7704
15.5048,-12.0667,71.2713,97.5627,62.5561,85.5530,-77.8921,24.2198,-96.3029,-56.8203,32.4456,-83.8341,-27.4799,10.0643,-73.2003,20.1564,6.3761,95.6358,-6.0934
-5.5986,-60.9773,41.3611,77.2671,59.7771,87.5509,-64.0394,42.1073,-75.3210,-53.8267,17.5986,-86.5345,-41.0328,39.3175,-36.9883,14.2603,-25.7292,71.1988,17.6678
-24.8546,-56.9935,14.2365,58.0972,41.8748,70.8100,-55.4269,26.2291,-39.9084,-59.0711,18.5826,-83.9208,-27.4405,41.4960,7.7425,-31.7002,-35.5753,59.1963,34.8439
-19.8155,-18.7277,9.7857,55.8399,31.1195,73.2366,-18.5099,16.3329,-50.5048,-53.9376,42.7278,-64.6512,17.2793,31.8637,6.1398,-30.7077,-8.3274,63.8617,33.3417
-3.3265,3.1007,1.3161,30.6900,16.9764,70.5785,19.8388,4.9584,-79.9528,-53.9519,70.2757,-55.2160,60.7715,30.4397,-14.5405,8.5434,31.9080,27.9642,22.3128
6.1621,9.0332,-20.8519,-18.9683,-16.8429,19.3342,19.6925,-30.5362,-48.5948,-67.0650,71.1064,-53.3337,66.1104,24.4665,19.4556,-1.2158,33.6874,-32.2929,11.9198
5.5048,12.1141,-47.7395,-38.0081,-47.9168,-34.8666,25.1561,-64.9049,9.8709,-71.4844,50.7161,-19.2221,56.0848,4.3379,76.4089,-60.4262,5.3864,-36.1689,-15.5861
3.2093,10.2729,-68.3541,-26.4180,-50.6721,-41.6337,54.4923,-67.7366,4.4827,-63.6695,61.8813,19.6138,61.8389,-14.1846,72.9611,-82.1478,-1.8566,-7.6776,-49.8341
-0.5392,-7.1019,-58.7581,-35.9350,-35.4024,-46.1401,57.9814,-36.3291,-36.5047,-45.0758,92.7416,-2.3790,59.8707,-25.3178,38.6700,-26.1103,-15.6945,-28.3839,-45.9987
-3.7593,-48.8540,-23.6936,-57.3014,-18.7326,-67.5568,43.8820,15.7452,-38.7133,-19.5437,68.4907,-70.4136,39.5555,-36.8017,49.9504,48.0450,-69.4772,-56.8999,-21.6667
4.8511,-85.9318,-1.7982,-41.3581,3.8888,-47.6766,49.8523,45.0233,-26.9440,-25.8041,11.6142,-119.5899,34.2144,-47.9311,79.5682,46.0889,-93.0467,-12.9911,-33.9216
8.4357,-79.5805,15.8117,6.5971,36.6540,1.8515,47.1208,19.5361,-43.1337,-64.3541,-11.5356,-123.7128,37.4996,-59.9778,68.1451,-33.5766,-60.1314,55.7965,-56.1948
-15.2867,-55.8228,59.4229,47.4337,66.0712,16.0670,19.8744,-16.4146,-57.4699,-68.4177,-41.2102,-94.9249,11.8425,-68.8373,44.6210,-74.0700,-46.9675,71.3910,-35.1861
-26.6131,-61.6607,90.2270,57.5639,76.3615,11.9537,3.5631,-20.9704,-49.9313,-42.8129,-89.7893,-67.2818,-23.9509,-58.8340,53.6154,-22.5810,-54.8508,44.9626,-20.6911
9.0702,-96.3827,69.4840,24.8803,65.6016,9.7447,-1.4042,-32.5506,-46.6101,-67.6191,-53.2456,-80.1803,-26.0676,-52.5362,64.6295,19.3904,-37.4610,-0.0528,-69.7613
32.5844,-154.9437,35.4053,-33.8223,43.0631,-35.0657,-9.1055,-69.2703,-54.8984,-133.0450,72.8893,-131.6129,9.1404,-93.7735,41.3777,-8.3916,-46.8231,-62.3280,-120.7657
-5.9564,-228.0358,17.1645,-74.4658,18.0687,-102.0191,4.9974,-85.4883,-63.3748,-170.2236,161.7401,-180.9110,70.7184,-150.0234,10.2795,-40.3559,-108.7709,-105.7446,-117.7771
-49.5269,-250.6218,-2.4408,-83.5532,-2.2732,-117.9404,42.8844,-86.0040,-75.5051,-191.9759,175.4558,-193.5560,139.4218,-146.9204,1.0493,-51.5408,-132.6473,-101.8200,-115.7162
-38.7396,-189.8835,-18.7263,-77.7047,-11.0211,-96.8716,74.8362,-117.7393,-86.2141,-225.2644,158.7450,-157.8644,173.3797,-94.4981,0.6850,-61.2765,-90.4601,-80.1927,-147.1079
-3.9434,-121.1484,-22.3049,-60.9816,-12.7727,-81.0010,103.4331,-157.9787,-74.0474,-224.1297,125.9954,-101.9806,165.0536,-58.9196,-3.7687,-29.3682,-57.5483,-66.1672,-159.7368
5.8700,-98.3487,-31.3727,-38.2642,-18.6888,-61.9418,135.1073,-162.6916,-43.0824,-175.3823,120.4226,-71.8971,153.7370,-51.8043,-13.7005,18.4571,-53.9623,-43.9988,-146.0109
0.9823,-75.3427,-35.4955,-15.0130,-13.8155,-49.1292,143.9324,-154.2207,-39.3118,-155.4438,178.7265,-50.7478,146.8100,-40.5039,-47.0842,-35.1020,-41.3994,0.3390,-154.4763
23.1886,-30.0429,-6.8176,25.3895,27.2668,-42.3878,121.9908,-156.0554,-97.6718,-207.3958,217.9019,2.0161,122.9411,-12.0273,-103.4087,-142.4635,-14.4488,52.4837,-169.6697
69.7047,-16.4265,31.9040,75.0415,82.9680,5.9615,94.8668,-144.7824,-172.1306,-262.8865,172.7791,35.2116,101.2471,14.7735,-132.8401,-135.7308,4.0830,79.1926,-139.1388
82.2440,-51.7822,46.9016,89.7747,104.9792,64.6750,84.1658,-114.7262,-173.9952,-235.0860,117.1794,-1.1861,107.1487,5.9571,-106.3527,-61.6775,-7.9895,67.2494,-77.2629
40.4538,-75.9313,46.4251,72.0301,89.9511,53.7632,89.3218,-90.8915,-102.1167,-138.5143,101.4957,-26.7197,112.5685,-43.7964,-61.9632,-80.4719,-37.2051,49.8252,-26.5860
4.6220,-53.9871,45.0018,62.9857,69.4562,21.6766,86.7780,-75.6689,-41.3305,-58.2250,89.5763,8.3607,87.2396,-89.0943,-36.9430,-130.0802,-32.9609,49.4580,11.0865
12.6122,-37.6756,43.3531,58.6209,54.5328,36.8228,68.5466,-49.7799,-16.6802,-15.9983,93.1747,4.4913,56.3303,-98.5840,-19.6437,-78.8153,-4.6699,39.9116,42.4494
29.8716,-73.6465,35.3257,38.4647,32.3594,33.2373,69.0791,-9.5609,19.7327,40.6039,142.1566,-68.9500,56.5401,-99.5005,14.4272,-5.7353,-15.5151,12.1473,58.0114
36.5638,-110.0924,2.5447,12.6983,-12.5183,-20.2955,91.8007,25.3753,67.4561,118.2413,185.2744,-90.4562,77.5874,-118.6255,69.2052,-11.5682,-42.0836,-12.8194,56.1155
51.9991,-80.7635,-47.5266,-15.7045,-71.8331,-45.1534,86.1696,34.9454,92.1544,164.2765,176.7429,-32.2241,83.6171,-133.7789,122.5734,-17.3589,-14.5157,-41.5451,46.9222
76.0737,-17.7957,-67.0974,-43.3778,-97.9452,-36.3368,56.7465,25.3979,117.1062,167.2838,140.7476,0.1016,67.5875,-109.4251,141.8593,37.8082,38.9112,-72.4915,45.4306
95.3494,21.4490,-48.5242,-45.3570,-70.0357,-42.7450,56.5636,21.0245,168.0034,164.2229,106.4910,-10.4240,52.6112,-51.4448,125.3145,80.7517,59.7486,-68.1695,59.8858
108.9137,43.4407,-36.4447,-32.6517,-45.7874,-33.6056,65.5491,32.7786,204.1172,172.4065,95.5515,-0.5849,54.7657,-8.7792,104.7321,88.3123,61.0989,-40.5682,70.4562
110.9611,53.0772,-38.4571,-40.0372,-63.1673,-0.6020,44.9415,55.9292,197.8670,185.8254,115.0194,16.0317,71.5005,-5.3403,99.4650,123.2951,57.5061,-42.7653,59.4922
97.0993,32.2938,-33.7358,-52.2731,-76.0836,-6.0405,40.1214,79.3296,190.8140,200.6621,113.1851,4.2305,89.0988,-2.7903,109.3923,171.3681,40.3068,-63.7859,56.3062
74.9638,9.6318,-36.7925,-51.3937,-61.3697,-42.3138,75.5832,88.2103,216.3130,212.8864,54.7138,-6.8076,85.2772,21.1356,128.3780,170.1187,31.4284,-65.2910,84.4848
44.8022,15.2851,-53.6493,-57.4923,-55.4639,-56.6941,84.7500,87.3438,243.7351,216.3891,-4.7011,4.2944,54.5578,31.7006,129.6923,148.1755,46.0183,-58.8973,106.9913
14.0259,21.1837,-51.6418,-58.5154,-54.4821,-60.3632,40.6486,97.4495,228.9068,203.9352,-22.0733,24.0926,30.3086,23.5682,96.9492,150.2717,62.7267,-55.0746,94.5588
7.2773,20.6175,-29.1288,-37.6794,-30.2395,-64.1218,1.4207,110.7328,178.1493,174.7794,-27.0384,51.7355,38.4359,31.7275,70.4059,136.4093,65.5671,-45.0688,75.3709
19.8033,41.4220,-23.3551,-37.5598,-12.1759,-48.0900,0.1891,111.2483,139.6729,150.5509,-31.6660,77.8599,55.2203,45.6631,84.6706,97.3060,50.4866,-43.3459,70.7154
22.5843,52.3420,-38.1350,-59.6502,-24.3873,-28.4740,14.2002,117.7982,134.9579,150.7442,-20.3202,74.4832,56.3166,36.1689,105.8166,104.1256,29.7933,-47.5771,66.0517
16.6178,12.8922,-41.5523,-43.0241,-34.2172,-20.7177,20.0174,130.8000,133.9385,157.4033,-9.8732,44.1936,51.8098,20.3073,98.8645,150.1757,33.9291,-32.8905,56.7608
14.7534,-26.1679,-22.4443,-12.3519,-31.8660,-12.1749,13.2315,115.0514,119.1794,145.9752,-12.7737,19.2574,42.0388,18.3949,79.0950,143.2980,48.5640,-22.5872,51.2646
14.4107,-9.9618,-2.2401,-31.0491,-38.7508,-15.2826,8.5267,86.6791,109.2107,119.6800,-3.0716,25.8701,20.3684,30.8027,60.7945,83.2388,28.0762,-36.3952,45.6119
21.5718,25.9470,0.7384,-47.0026,-39.7783,-23.1490,22.2674,91.6513,97.2235,85.4942,30.6691,64.5000,21.2593,58.1269,33.4328,41.3974,-7.5608,-21.4541,38.5571
34.7591,35.0222,1.7705,-4.0642,-14.9231,10.1805,39.0441,102.7487,57.7158,45.8618,61.7196,90.5319,66.7536,68.7589,-8.5264,12.0320,-17.0465,40.1903,39.7281
30.5536,27.0465,26.6948,39.4417,16.8143,56.5525,37.6773,74.3246,9.2056,10.6112,60.9140,62.3643,97.7526,29.2089,-51.7876,-43.3220,-18.8329,85.2864,45.6242
16.7741,25.3448,61.9737,53.9195,43.0466,56.0499,31.6789,32.7288,-18.9754,-24.3481,33.2793,23.0219,62.2674,-12.4777,-67.4429,-104.6546,-16.7167,100.8476,43.3834
19.9049,36.8685,76.9547,88.4598,74.4936,57.8330,34.8223,12.1143,-37.6394,-66.8834,16.8424,34.4582,6.5973,0.3905,-48.8605,-141.0379,14.9983,134.0528,37.6890
20.3790,59.9571,84.3033,136.3152,110.3177,112.2560,35.4465,5.4145,-59.5665,-90.4698,26.6855,68.5880,-10.8149,35.2506,-47.0127,-139.5251,48.4022,176.0522,41.3834
2.6096,89.4175,109.9470,156.0636,136.8732,150.5284,26.2489,5.9664,-85.8541,-78.9848,29.2331,77.1179,-8.8150,49.0420,-94.0723,-101.1969,67.9048,188.1056,45.4926
5.9381,126.7734,136.1286,166.1792,139.9991,134.1561,7.2887,0.8741,-128.2132,-71.6709,1.6027,77.3068,-20.6564,45.1800,-132.4354,-78.2219,121.1918,183.4406,32.8058
44.9388,171.5281,136.6042,182.1673,119.1949,125.0149,-22.7925,-28.4261,-171.9165,-93.4674,-34.7209,85.4375,-30.9917,25.1091,-120.9567,-110.3124,190.3235,186.5405,12.6804
81.8455,200.7109,118.3738,179.9249,101.3151,140.8912,-49.0013,-55.5438,-184.3049,-115.7917,-36.6010,84.4549,-22.0885,8.7484,-118.3060,-134.6655,199.8181,188.4594,-2.6893
104.2652,199.7166,96.7301,167.0853,98.5300,146.4349,-60.0511,-49.2525,-187.8342,-123.0115,38.1018,79.7594,-13.2217,37.8646,-164.5537,-100.8694,171.5695,180.9713,-30.1019
126.8197,192.7708,82.9422,169.2368,87.0061,150.1197,-78.8695,-35.2853,-208.7457,-126.4591,153.7757,82.5731,-23.8227,85.8782,-202.4607,-71.7373,167.4095,172.9992,-66.1595
141.9922,195.0368,89.1798,170.7891,72.8995,157.8592,-112.7507,-37.7462,-204.0119,-120.7289,175.8480,80.1912,-39.5460,89.7183,-179.4486,-85.9737,160.1608,163.9105,-67.3876
138.9408,181.1361,101.5820,148.0107,84.1924,136.4322,-116.3244,-39.9878,-160.2030,-104.0966,81.4413,74.7212,-32.8402,61.4815,-118.4318,-83.7269,118.0883,135.0918,-32.6450
119.3723,137.2389,86.1173,105.6972,86.1706,91.0521,-64.8100,-33.7434,-133.2136,-93.0838,44.5449,70.6298,-3.5686,43.8297,-69.7821,-34.7894,70.8129,81.6304,-8.7529
76.2705,85.8607,43.4571,59.1950,41.5108,60.7445,-3.0111,-15.9579,-114.9557,-73.0936,120.7251,49.6246,15.3628,39.0521,-56.1455,19.2681,24.2807,35.1866,10.6888
11.2016,46.3046,7.9224,25.2566,4.7995,47.0687,24.2710,28.4976,-46.9656,-14.7988,134.5667,33.3835,6.1920,48.3954,-49.8679,47.0467,-36.1654,21.6780,67.5028
-44.2153,19.9994,-7.5381,10.9446,17.2177,27.3128,27.5619,73.6189,31.8459,44.9543,42.9202,61.8906,-2.5322,63.3227,-7.4803,44.0119,-81.1621,18.9841,126.5742
-59.0102,5.6844,-19.3533,-2.6441,17.6276,-10.5218,28.2040,61.2640,43.4595,30.9594,16.8292,81.3394,13.8222,38.5159,47.0450,13.6461,-82.6110,2.3090,107.7498
-31.7921,1.3765,-35.8226,-30.7645,-32.5822,-61.5242,17.9934,-4.5068,6.3702,-52.3712,91.9028,22.8099,32.8498,-25.9730,40.1189,-25.7839,-56.4724,-13.8440,9.5319
10.2827,2.7997,-45.1747,-53.1467,-77.1753,-91.9357,-7.5772,-53.3073,-28.0907,-114.9887,142.7926,-55.1310,33.2445,-66.3404,-25.5250,-51.9409,-28.5865,-14.7503,-83.4282
29.2442,1.3972,-38.5825,-45.3821,-72.6909,-74.2615,-27.8374,-45.1876,-52.8000,-105.2172,142.6242,-82.7055,33.1428,-64.8093,-63.2039,-53.5943,-14.6375,-7.7113,-99.5531
14.6822,-9.3835,-23.7627,-24.2995,-42.7464,-41.5709,-32.9401,-18.1444,-58.0478,-62.1915,127.4122,-103.4416,46.2702,-65.1521,-36.4445,-40.2137,-11.5345,-3.5127,-62.0917
-4.7194,-12.2840,-10.8572,-29.2073,-22.6926,-44.2006,-30.7980,-26.2836,-36.0933,-30.3785,80.0333,-138.6251,60.8913,-85.7767,0.9860,-36.4037,1.2512,-17.4325,-52.6308
-5.3567,10.9032,-1.8215,-57.8493,-24.3411,-76.6526,-12.7883,-54.4163,-16.9584,-6.3199,20.0856,-128.6894,74.8898,-104.1748,7.2016,-29.8845,18.6616,-48.4976,-79.2487
4.7149,31.3991,1.6215,-66.4450,-33.1188,-95.2169,27.4166,-47.0093,-20.5781,10.6961,-1.9776,-84.0510,91.2878,-99.4411,1.5074,15.3611,18.7690,-60.2099,-74.3094
10.7737,20.8108,-0.2550,-49.7659,-28.0616,-74.9877,55.4700,-12.0901,-37.7023,-1.2541,4.5000,-76.2114,94.1538,-71.9573,1.0574,59.4192,23.6370,-41.1966,-47.0366
15.4034,16.4731,5.0145,-43.8790,-15.7087,-30.6791,44.6525,1.1897,-63.1625,-36.4201,36.3732,-93.0569,76.3085,-35.5217,-2.8698,42.1982,59.6629,-25.5166,-66.9109
31.0496,47.4971,25.3144,-38.5265,-10.7476,8.9894,25.3387,2.4217,-74.7681,-55.1018,104.6856,-84.3972,56.2645,3.9831,6.5878,22.5379,91.6354,-16.7654,-92.3676
52.1054,66.6912,43.8317,-3.2502,-5.0284,44.1894,23.9980,21.0758,-37.9091,-37.3675,139.5983,-60.4814,47.7261,38.7138,53.7622,63.1291,85.8408,1.4964,-30.3712
52.3201,41.8481,41.9309,23.1579,1.0261,84.9087,21.4121,35.7370,23.8139,-3.4963,88.4591,-40.9974,50.2098,38.0053,103.2839,83.3623,63.5862,3.1907,78.8604
33.1173,12.5325,25.6027,4.2506,-8.6213,103.2861,13.8139,37.7412,54.5649,27.5653,28.1550,-30.2681,58.3800,-3.5373,111.8634,28.0449,44.9685,-20.4557,140.4134
27.6785,-0.6115,6.6019,-16.2234,-25.0998,79.8840,22.6481,55.0389,62.0693,76.5686,21.3521,-50.2818,55.3771,-39.2480,110.2667,-9.3442,25.9303,-33.5367,159.4957
29.5744,-23.3715,-18.0387,-16.9703,-33.5637,52.4089,34.6503,74.4079,91.1213,160.8239,26.3748,-89.4311,32.7516,-43.2971,130.5815,23.9190,10.1144,-45.4941,168.9462
11.9321,-40.9812,-43.8896,-31.5528,-41.0461,46.7193,27.5517,65.6033,127.3419,225.7916,23.9579,-92.3247,14.4774,-29.3062,130.7917,60.8601,7.9218,-77.4756,149.4391
17.7001,-2.7636,-47.4893,-40.1687,-44.5545,42.8342,21.3028,48.8552,106.9644,206.8348,50.3811,-54.2807,12.6215,0.6813,78.5976,75.2236,29.4822,-79.5463,95.7885
91.1022,83.5500,-30.7650,-12.7992,-43.2494,39.6674,21.6449,41.2163,20.7778,141.4987,105.8688,-11.0772,0.2906,30.2457,8.9563,97.0603,78.5394,-39.9969,38.1886
167.5071,158.3873,-37.5203,-2.1833,-67.2522,47.9188,-6.7577,27.0515,-44.6960,106.2921,160.2823,41.7627,-21.8585,28.2534,-36.0156,98.4171,127.8046,-33.7857,1.5177
177.7230,194.2597,-81.2290,-30.7988,-112.1360,44.7307,-51.0117,14.9189,-26.3360,93.5175,202.2381,105.4048,-13.6977,25.9972,-37.2494,36.0790,143.9915,-60.3348,-6.7626
162.8210,203.2915,-112.6080,-37.2256,-123.8166,19.0329,-52.2032,16.6527,7.4329,66.5695,231.7734,135.5900,15.0705,62.4694,-1.3816,-45.4159,138.4372,-51.7052,-18.0890
175.9437,194.0741,-104.6128,-23.5419,-106.7262,-10.4225,-24.3385,9.0283,-16.8129,43.8616,247.9846,118.0609,10.2414,88.4498,21.5170,-60.6935,134.3973,-39.2992,-71.2740
195.3251,171.3710,-94.4403,-46.2443,-120.7299,-43.1843,-32.4615,-10.2269,-38.6294,38.2761,235.3898,88.4820,-26.0218,67.0906,-7.2710,-8.5832,121.2397,-73.8609,-123.2451
189.4875,145.5137,-106.8252,-72.2896,-156.9264,-76.7047,-63.0326,-15.9460,-3.5220,27.6889,176.5566,67.3865,-45.8332,50.3001,-53.1124,23.5805,89.1359,-94.9471,-111.0768
162.0368,117.5562,-116.8617,-50.3137,-153.0936,-84.1617,-57.8217,-11.1617,17.1495,18.2438,107.3594,54.2277,-39.3975,58.6871,-65.7306,3.9024,52.0296,-65.8555,-77.6649
128.4929,85.2978,-102.6660,-24.2085,-106.5550,-69.3545,-32.5478,0.0435,-16.0183,29.0687,80.6378,44.0793,-23.1563,48.5187,-44.8298,0.4412,16.2221,-46.7021,-81.9223
99.0410,56.8641,-69.4776,-31.4563,-62.8828,-59.5296,-26.2907,32.2263,-37.2590,45.2037,76.0479,17.5937,3.5608,20.0354,-16.8057,29.4299,-25.8238,-52.3423,-85.0478
62.5057,29.2810,-33.3995,-35.0430,-35.0476,-48.3459,-9.7800,63.6906,-26.8608,51.5727,56.3324,-23.7824,33.5577,10.5789,-8.1891,27.8316,-70.8408,-39.5699,-53.1670
10.3902,-6.5134,-11.2887,-12.5864,-2.3267,-26.8417,31.4282,60.6595,-31.2725,42.5230,46.0574,-39.8343,36.2176,22.2300,-31.4974,3.7605,-95.6026,-9.8814,-25.6604
-14.1080,-19.3577,2.0416,22.0402,37.5351,-8.5299,38.0026,40.6005,-57.6833,2.4369,58.4582,-18.9518,2.6545,45.1637,-63.5193,-0.0895,-76.5180,18.4174,-25.1316
24.2844,26.9960,31.6790,64.6880,59.5461,16.9544,1.5023,25.3255,-89.7898,-51.6544,63.0288,7.9507,-25.0818,81.8212,-74.3356,-26.1139,-25.0208,49.9241,-35.0444
72.1356,90.9031,69.2974,104.0112,58.3159,64.7764,-3.8593,4.0806,-117.9283,-75.6973,59.8179,29.7530,-6.9771,120.5468,-65.1461,-78.7190,15.3183,71.9913,-43.4626
69.7010,108.5167,74.7289,115.9953,56.8356,105.4812,32.2175,-11.0938,-115.2278,-68.9435,60.8498,49.3572,24.7260,142.6532,-43.2453,-65.1002,25.9790,67.6201,-29.3692
40.7036,96.4947,45.5501,99.3014,52.5765,114.4344,49.5704,6.2427,-79.9856,-47.5402,42.5098,56.6898,15.4386,144.6767,-9.5577,8.0418,29.2154,46.6230,17.1776
21.7708,91.4695,15.8975,70.3017,23.5299,110.1389,46.9460,30.4874,-48.2762,-8.7262,2.0393,60.3303,-7.4712,135.4531,15.2103,34.2338,34.0023,21.2430,51.5571
8.4071,76.2055,-4.7986,44.3299,-11.9632,104.2844,53.2138,20.9814,-24.2642,14.7159,-29.0902,72.5920,8.9958,131.2547,8.1420,13.8626,26.4338,1.1638,40.4536
-1.3376,46.3384,-23.2157,31.2355,-23.9982,86.8715,44.8724,-1.3902,4.6737,-5.7049,-45.7867,71.5921,27.8571,134.8971,-20.7507,11.2765,13.1457,-2.1412,21.1924
-8.4676,26.9804,-28.5850,20.9912,-25.3865,55.5027,12.8183,4.8830,20.9858,-19.0694,-55.5880,54.5040,1.1542,121.9668,-46.0828,10.0882,14.0057,3.7196,23.4902
-22.7099,11.3019,-20.7342,3.2067,-29.6751,13.6498,-8.1579,16.0730,20.6433,-7.0613,-43.4882,55.8400,-26.4195,85.8524,-57.4878,-14.2351,27.4844,6.7321,12.6393
-23.6972,-1.9392,-14.0290,0.3608,-21.3938,-24.4725,-15.1772,-20.5607,16.0023,-33.9227,-6.4579,69.8226,-19.4880,54.0768,-59.1099,-24.9964,39.0297,11.9163,-33.5612
-1.2755,10.2089,3.5880,25.3811,3.0576,-31.5432,-20.2216,-77.8368,-2.7060,-81.1295,22.9108,64.1528,-19.5390,26.8469,-55.2363,5.9520,41.3085,22.4147,-63.6862
-1.7015,15.6513,46.3629,44.0394,35.8010,-8.0570,-8.0484,-73.6361,-25.5543,-64.0634,9.3133,53.7574,-33.5117,-20.5398,-42.2453,62.5625,36.9762,38.1841,-26.9943
-33.7499,-24.2760,91.5958,35.5616,81.5765,21.1274,11.1064,-9.6222,-26.5752,-21.7617,-34.9502,58.1019,-16.6385,-65.2875,-21.4581,97.4883,33.1557,62.9133,35.5807
-40.9617,-59.1767,119.6038,24.9811,131.1866,52.3883,8.6326,31.7653,-28.7634,-34.3494,-47.0163,58.5509,24.3597,-70.2513,-5.6544,70.2902,25.8196,83.6091,48.7257
-25.4293,-53.0351,129.0799,23.2572,150.4638,72.6026,1.5069,26.4094,-45.6395,-54.5003,-9.0201,49.3080,53.7482,-67.6120,11.1670,15.1186,-0.1587,83.0188,20.4517
-38.4254,-56.2431,103.3775,13.2086,122.2600,40.0908,11.7209,15.1334,-30.8149,-26.6106,1.5712,33.5468,76.1007,-104.9661,48.2972,-6.6568,-41.3536,70.0945,11.3617
-66.8975,-85.9192,48.0623,-3.8374,75.2049,-30.5250,19.9408,1.3360,20.0212,3.7835,-56.2123,-9.2738,89.1743,-159.5641,83.2878,-11.6484,-74.0890,58.9301,25.0683
-81.9716,-106.2188,13.4554,-15.4343,52.9786,-66.8123,8.2219,-32.6726,54.6557,3.2781,-108.9317,-71.1179,62.4599,-191.3215,78.0178,-33.7955,-83.9002,49.1698,27.6236
-100.3977,-117.8343,12.1027,-24.2282,56.3486,-55.8864,-22.3831,-61.7762,70.7579,-8.5133,-110.6399,-108.2261,7.9113,-205.3065,56.2599,-47.8282,-63.9580,44.9037,24.3623
-109.3811,-124.4095,13.1469,-25.9306,51.2906,-41.7654,-56.0081,-63.6940,84.0202,-26.6221,-107.2629,-116.9979,-21.3636,-207.7443,57.2006,-50.7675,-18.9113,52.1246,28.5247
-81.2284,-108.3303,21.4217,-11.1336,37.5489,-33.0049,-57.2701,-59.1910,62.0073,-47.4855,-106.9397,-124.0907,-12.3122,-188.5145,51.0942,-74.9348,9.7423,60.8839,18.6654
-52.0326,-94.9096,47.1966,1.9822,43.6978,-23.5141,-28.0279,-56.3222,16.6760,-50.2744,-65.9619,-127.6743,0.8445,-165.6553,13.5661,-85.1390,-4.8831,56.4551,-1.7625
-49.1819,-112.4982,58.7154,-12.0954,54.6206,-33.0584,-21.8853,-32.8547,16.6091,-32.9078,-14.8019,-124.2248,-6.2006,-166.7282,-5.5228,-32.1395,-22.1997,29.8357,8.4428
-41.8475,-134.5807,42.7644,-45.5590,31.3832,-55.8326,-42.0697,10.7266,55.1085,0.2917,-18.8957,-126.8995,-24.4346,-173.3526,16.0064,24.8478,-13.2737,-16.0026,43.5578
-34.5905,-148.1494,14.4041,-72.1224,-14.8069,-58.9366,-39.6041,48.1287,81.6445,60.5465,-46.1104,-126.9926,-31.4636,-153.3992,34.9043,6.1877,-12.2753,-53.0266,60.7558
-64.3083,-164.8733,-32.3552,-83.4377,-52.5030,-50.4818,-22.0441,66.4774,112.4783,132.9580,-39.7899,-114.2338,-31.1793,-126.2949,48.8294,-51.2493,-30.0133,-58.8360,65.9373
-98.6238,-154.0303,-78.9776,-89.9755,-79.7905,-57.5267,-21.9670,67.5797,153.6467,170.8958,-39.4193,-103.4475,-50.8343,-123.0001,85.9873,-58.2369,-27.2759,-54.3762,79.2895
-76.3922,-92.2332,-69.8749,-97.8767,-87.8752,-62.6938,-14.8094,53.6241,153.2063,163.7440,-87.2493,-86.1773,-74.5332,-114.4031,113.4163,0.9416,3.2194,-63.1287,73.8380
-18.2441,-24.0945,-19.6934,-100.3066,-61.5564,-45.8059,11.2564,30.1045,120.5821,147.0902,-141.6361,-42.1814,-54.2450,-67.6334,91.6027,71.0377,28.2568,-72.5764,41.2122
16.6791,14.7929,2.6089,-92.0991,-30.6592,-31.8600,12.4119,9.4083,109.5797,135.6483,-152.1572,-4.1371,-9.9545,-17.9267,49.1034,109.1834,34.1331,-70.8510,18.6293
35.6338,42.0854,0.3848,-78.3002,-33.7592,-31.2788,-16.2447,5.0205,90.1362,113.8855,-81.7049,-1.8873,-2.3125,8.6019,23.4319,123.7218,28.8985,-64.5051,2.4356
65.8613,64.4321,3.1763,-64.1279,-59.7965,-9.5873,-24.2464,13.3432,24.3405,90.2212,81.3730,1.5169,-16.6406,48.6392,15.0327,130.0685,9.6664,-58.3985,-35.7401
67.9681,67.7014,-22.2625,-51.0047,-78.0357,40.2606,11.6733,14.6954,-27.0390,91.1897,217.1307,29.6783,-0.7908,107.4898,18.2987,121.1871,-29.1969,-57.4337,-55.7363
19.5256,60.2521,-74.3769,-39.1555,-71.3207,83.9794,73.3034,15.3916,-21.2308,107.3323,183.6204,50.1340,37.3422,143.3946,27.5088,109.9134,-59.1105,-55.8714,-11.5076
-8.6845,52.9178,-82.5491,-25.0786,-42.2441,112.4804,123.8217,42.5590,-10.3187,102.6385,68.5062,47.5850,60.9579,161.3413,29.1064,122.8219,-42.2541,-32.5381,45.4254
16.9198,40.3937,-51.4479,-8.0366,-25.1704,134.5943,125.2184,79.6719,-26.1796,70.9031,46.5533,42.0642,54.4561,190.3317,19.0234,141.4564,-8.2425,5.1078,50.6172
30.9219,37.3854,-51.5015,6.7410,-34.6422,140.0899,87.0967,90.9121,-36.6699,39.9934,78.5030,55.3672,24.8641,220.6786,6.3380,138.3943,-8.2774,30.0073,34.7668
19.2169,60.2096,-65.1155,22.9524,-22.7520,137.3258,57.1843,89.9291,-29.6353,21.2839,43.7653,98.5000,10.8477,241.2264,1.6457,124.5395,-4.9273,50.6260,43.9135
41.2718,80.7301,-30.6743,48.8456,24.8841,150.8262,44.2277,84.5067,-33.6845,-11.5345,-12.8363,143.0981,37.3290,243.4349,2.8335,92.8100,47.5306,77.4021,48.7846
91.7184,81.9556,25.3979,74.8965,48.2274,156.2715,23.4596,37.1610,-68.6729,-72.5218,11.1176,146.4603,62.5038,203.1419,-12.4743,19.2653,92.6093,87.2036,19.3442
120.7709,95.1359,47.3099,84.9300,38.0049,116.5903,-8.6251,-29.8885,-116.7751,-119.9605,106.6253,127.4007,52.4899,141.8434,-52.0649,-64.2448,92.8093,77.0178,-9.4848
132.2410,116.4816,43.3700,79.8659,47.3634,58.7009,-46.3069,-34.4366,-136.9590,-110.3546,198.9697,119.6155,41.3527,111.6755,-80.1939,-111.5988,107.9182,66.3265,-11.4995
145.8650,109.1356,41.3440,68.0242,65.3628,21.7350,-81.2560,8.6710,-123.4940,-72.8574,241.4199,99.6003,52.5432,99.3476,-67.2879,-127.4328,149.8623,51.2150,-19.4924
153.6469,101.1309,42.2991,53.7623,45.7439,-7.7485,-84.7122,4.2819,-119.4374,-66.6968,232.6875,64.0480,62.9048,67.8724,-37.1815,-124.1877,157.5050,32.4958,-55.3171
146.7815,123.0439,38.3668,43.3475,9.3825,-48.6109,-53.1484,-47.8396,-133.5938,-88.3232,183.7627,54.8255,57.4598,33.3548,-26.8881,-96.7894,132.2845,21.2774,-83.4394
123.3450,115.0636,21.0801,34.8197,-12.1634,-92.8873,-30.5438,-65.5603,-121.5450,-89.0315,107.4597,54.6704,33.1332,9.2996,-34.2077,-44.6290,112.4580,-4.6802,-72.9141
93.2429,52.4426,-11.5634,14.4546,-35.5418,-135.4606,-39.4092,-37.7201,-74.5533,-62.1361,51.2430,17.6560,-4.7866,-18.3902,-30.9673,18.0892,87.5260,-51.3412,-49.0965
72.8145,17.0938,-40.8474,-10.2077,-63.1455,-168.9874,-61.2176,-30.3880,-30.4070,-48.2097,45.8302,-26.9126,-20.2800,-46.4888,-13.7086,33.0259,55.5037,-66.9468,-49.3524
48.4238,38.4447,-42.8204,-3.7165,-66.7955,-171.9300,-83.5242,-76.7391,-11.0997,-68.5809,30.6305,-37.8823,-4.7164,-74.9890,-18.7085,-50.9440,40.0872,-30.7063,-67.9505
6.6268,52.2405,-14.0874,42.1347,-36.0231,-137.8371,-98.5502,-139.4477,-22.2530,-102.7930,-33.2399,-31.4435,-13.8129,-110.0201,-61.6280,-156.9933,30.5650,13.1827,-75.9161
-19.3413,39.6610,24.6100,83.4731,18.1665,-86.4012,-90.4115,-168.5583,-58.2834,-121.3736,-73.3673,-19.3857,-62.1606,-123.2661,-98.8944,-175.2143,14.4107,33.2677,-68.4103
-15.8725,26.5372,45.0302,85.0481,66.3026,-47.2853,-60.4926,-164.1123,-82.2216,-114.5814,-60.8598,-0.0898,-82.6436,-103.3423,-103.5670,-143.7161,4.9794,30.0707,-63.8784
-27.1178,3.4955,38.5238,62.8521,67.4563,-47.8115,-33.9174,-165.1116,-70.1824,-105.8716,-66.8271,-2.1119,-52.5959,-96.7726,-109.2941,-147.3937,-16.7027,9.4607,-77.3661
-66.8662,-25.7210,21.1073,38.2756,26.3142,-84.6970,-36.4969,-183.6676,-51.7049,-130.7168,-98.8734,-34.4893,-31.2046,-125.9531,-125.1468,-180.5028,-78.8165,-12.5374,-107.9990
-98.4527,-30.1446,5.6936,5.2816,-0.5589,-117.7993,-62.8618,-192.2938,-52.4342,-177.7480,-112.1081,-54.9106,-42.3294,-156.8118,-115.5403,-232.3614,-151.8423,-27.8983,-132.6168
-113.9000,-32.5975,-9.0829,-31.8713,10.5309,-126.0282,-66.9448,-177.8109,-59.0600,-192.9361,-138.8415,-46.0767,-51.0214,-165.2472,-90.9408,-288.8864,-203.0355,-49.9081,-131.7373
-128.2406,-70.5076,-20.1509,-49.3594,25.7533,-126.1663,-27.0037,-152.1174,-58.6399,-161.1910,-191.8655,-41.3533,-52.7347,-152.4416,-89.6885,-264.1827,-235.6245,-72.2863,-124.2562
-127.2130,-105.7356,-15.2468,-43.6390,23.5337,-121.8109,8.4022,-115.6506,-51.2888,-120.7239,-189.3261,-55.0261,-72.9367,-127.5385,-93.6965,-154.4504,-229.7999,-67.2256,-121.7027
-100.8839,-95.5829,11.1182,-24.0357,23.0319,-102.1680,3.6487,-66.9232,-47.8912,-100.7600,-125.9763,-64.5511,-104.7071,-114.1104,-83.4338,-91.5714,-172.6698,-32.1240,-91.8602
-76.9640,-72.8690,48.2725,16.7836,43.2721,-81.1445,-11.8009,-30.7212,-73.1138,-106.4131,-102.6366,-62.6936,-120.0115,-120.5125,-94.6462,-98.9768,-120.0162,10.9774,-42.0768
-73.2565,-68.6537,76.5253,70.8936,71.2223,-74.1210,-23.3635,-30.8883,-120.4975,-134.0873,-127.9816,-67.7141,-107.6228,-122.0114,-131.9354,-75.5298,-107.7658,39.8754,-37.8224
-68.5369,-55.2956,81.8314,97.0801,72.8973,-67.8716,-50.8932,-52.8070,-143.9308,-161.8324,-115.8754,-78.9036,-77.5791,-108.6893,-145.9063,-41.5488,-95.7672,41.8829,-73.8774
-45.4374,-19.0742,61.7191,79.0328,37.9488,-52.5089,-83.2205,-56.4806,-132.8946,-158.9521,-49.9053,-67.2466,-57.2161,-94.5525,-126.4002,-77.9123,-70.6451,27.3706,-71.9537
-21.2001,-0.7550,23.2781,46.0063,-2.1881,-43.2907,-91.4746,-17.3644,-116.0583,-112.0477,27.1734,-25.7103,-62.0877,-80.0049,-96.0146,-111.4420,-71.6581,10.5332,-26.4977
-15.4481,-27.9869,-18.8726,19.1930,-26.8067,-50.1835,-67.9876,47.9312,-94.9563,-34.4619,93.7504,11.4848,-66.4861,-61.8023,-50.4637,-45.9231,-100.2593,-14.6733,8.6341
-25.5212,-68.9322,-54.5351,-2.4712,-54.7037,-54.8909,-15.8759,98.8379,-60.6047,34.2309,112.9020,20.1663,-48.2064,-46.4665,3.3378,47.8364,-129.0196,-37.1321,36.5613
-55.6940,-83.5125,-86.4559,-16.6141,-87.0838,-37.2421,42.9909,119.6072,-21.4686,68.3828,42.9470,15.8436,-24.7838,-26.5039,37.3323,74.1243,-155.8168,-31.3398,80.0672
-112.7651,-75.8632,-114.5961,-28.9647,-94.3157,-13.5491,78.5839,126.7832,28.0319,89.9378,-70.5650,17.8464,-2.7877,9.0984,59.1359,71.5098,-170.5039,-23.7571,110.2362
-157.5136,-63.6366,-131.4877,-53.1409,-85.4991,-14.5760,96.3635,124.9096,77.9828,106.6142,-132.3929,23.1306,26.4689,47.3705,80.9584,103.6987,-157.1773,-48.5866,97.4710
-153.1539,-42.9926,-139.7098,-71.1737,-97.2610,-29.2984,106.9498,108.1117,81.0081,91.3034,-118.8989,23.4802,34.6757,73.6601,76.1070,143.8059,-142.9346,-62.5531,60.0543
-148.8091,-20.9045,-143.1055,-54.9688,-113.9939,-26.7322,96.5558,98.9439,44.8384,70.8439,-77.3156,19.8553,6.4273,92.2042,40.2393,145.9230,-152.8061,-29.3434,36.7768
-190.3950,-20.5918,-131.5765,-25.5254,-98.7201,-12.4597,83.0123,115.1346,28.7007,89.9876,-52.9786,15.6461,-7.9057,108.9721,7.1925,118.7831,-163.7278,1.3109,41.1656
-209.9293,-27.9134,-101.7684,-12.1727,-63.6769,5.2282,96.4202,124.6768,19.1751,99.4134,-62.7998,10.2933,19.0563,126.7698,-14.3724,87.8626,-151.9298,5.8852,41.6976
-146.6753,-9.6992,-65.4410,10.1531,-32.0991,43.1718,106.9875,99.7956,-25.8023,53.2071,-83.8284,6.8889,46.7273,148.0663,-31.3438,64.6147,-109.1702,31.1486,9.9546
-68.9115,20.4766,-32.8030,56.4379,-3.7081,81.3538,90.4703,64.7744,-60.6430,10.4098,-65.8500,22.9164,54.5535,166.9332,-36.5834,55.5337,-26.8250,68.9545,-24.0753
-45.1897,34.6955,-13.9048,77.9478,10.1942,74.4825,78.4805,47.0729,-40.1684,4.5017,1.6296,67.6581,58.7495,175.9585,-40.5195,49.9989,62.3582,62.2149,-25.1302
-37.4381,39.9500,-8.7519,54.7573,4.7757,38.0155,69.9334,43.8853,-12.5441,-2.5275,72.3696,105.8337,52.0988,171.4312,-63.8442,39.3795,96.3937,31.6638,-15.1395
-4.7742,40.5507,6.1341,37.7949,9.7370,10.5111,32.3557,44.6052,-19.6964,-4.3010,111.8555,95.1763,23.4517,145.4662,-100.7802,50.4489,81.7383,29.0610,-21.3859
34.1081,32.6464,33.8830,40.3693,27.4579,-17.5576,-16.4596,36.5250,-34.8249,16.3235,120.5299,60.0170,-11.7581,100.5894,-128.8678,77.3685,79.3944,25.7680,-33.5914
64.1672,37.8895,40.2264,19.7203,17.8207,-46.3542,-50.2849,21.1626,-25.8266,32.9053,106.0958,56.2589,-38.7655,60.2211,-115.8378,56.7208,100.0225,-11.3242,-36.1429
85.5567,53.8628,18.7906,-15.0728,-22.1659,-46.6322,-72.8070,26.1485,15.3967,63.4261,94.1425,73.1347,-44.9562,37.0294,-47.7372,2.9985,112.8404,-38.6780,-23.9624
92.5153,38.4782,-2.8497,-22.7809,-58.0368,-40.1014,-74.3795,38.6706,66.6811,123.8289,104.7975,53.1822,-23.4976,16.0117,12.7978,0.1536,112.4087,-35.2520,-12.3156
97.9687,11.0466,-16.9694,-22.4011,-74.8016,-68.3693,-63.0503,3.8482,79.5406,137.9838,94.9390,-1.2242,-3.0714,-14.0483,1.5239,19.7271,113.4697,-45.8349,-31.8670
122.4228,36.6184,-14.7262,-35.7579,-64.7483,-102.4331,-76.7368,-51.4432,50.2847,91.1793,34.0845,-25.7713,-9.6791,-40.2079,-32.1535,-8.6666,132.5222,-66.2639,-67.7490
153.2782,88.2220,18.7441,-28.8253,-31.0233,-97.1170,-99.2168,-45.9472,30.6109,79.1875,-3.8558,-0.6001,-23.0336,-43.2801,-21.9673,-18.0953,176.4645,-44.4822,-71.1184
164.3901,93.9125,43.2413,3.4153,-14.8333,-61.7656,-103.1810,-5.3055,39.6069,102.8694,33.3895,15.7714,-25.5980,-25.9381,11.4998,46.8738,214.0121,-4.9241,-48.0027
145.6710,76.3509,15.7160,16.3467,-32.4848,-16.8188,-136.1153,-3.2109,57.1800,88.5705,69.1426,-20.1331,-28.6676,-19.1024,55.4557,94.1695,201.5505,-6.0752,-32.8184
99.1101,77.3052,-19.2505,5.2367,-39.8066,28.1529,-205.2384,-11.2871,80.2907,67.0369,45.0117,-68.5424,-31.3270,-37.0108,117.9069,80.0900,144.5734,-20.0552,-16.5190
47.3774,52.9816,-14.9934,-1.9519,-20.4845,58.0177,-223.9163,14.3925,110.3934,89.6816,2.2922,-74.5466,-25.1564,-45.5171,140.4943,78.1048,76.7516,-5.3343,11.9798
13.8331,-25.2680,-7.6383,-8.4935,-12.3623,73.4097,-171.8063,38.6509,142.1595,126.9409,-55.3915,-63.1156,-18.2037,-29.0536,103.0167,108.2316,5.2136,1.8358,42.6622
-24.6243,-106.0388,-30.7736,-25.3510,-29.8723,75.9726,-111.4801,42.9104,179.1464,152.7812,-159.8396,-97.0486,-15.0078,-30.4433,99.8428,137.6227,-71.0316,-19.8788,76.1551
-87.3047,-149.0430,-63.6623,-44.9839,-53.3220,47.1481,-56.3470,45.9139,205.7294,147.7610,-240.5073,-156.9821,-13.9731,-56.1764,158.2794,154.7965,-133.2244,-32.3687,88.6174
-121.7355,-152.5144,-82.4273,-61.5130,-65.3284,12.8639,-1.2204,32.8692,191.8952,86.2235,-210.8375,-157.9197,-14.5719,-50.1653,183.7180,128.8149,-164.5828,-29.6661,50.0099
-92.6866,-119.4260,-72.3343,-60.7564,-47.0231,34.6361,21.8157,0.9746,144.1978,19.5281,-120.0161,-97.1329,-2.0916,-18.1773,141.4392,65.7136,-166.4693,-25.2421,10.6066
-60.4413,-77.3696,-31.6508,-19.7279,7.6474,87.4290,20.7279,-16.8042,85.5645,-0.6272,-53.5695,-64.9545,30.3313,-27.1421,82.1171,40.5079,-148.1173,11.0303,23.6173
-66.8251,-51.3277,9.9951,46.7275,67.8612,92.1756,33.3439,-26.6171,22.3363,-27.2654,-14.8122,-79.1437,60.4877,-64.4944,35.0351,34.7198,-113.0671,72.6734,42.6049
-64.7035,-17.4711,39.4971,88.8860,98.2002,60.6320,49.3746,-47.9549,-31.3903,-80.6211,8.6584,-62.7142,79.1389,-70.4393,16.2721,-31.7700,-62.2772,88.5070,30.2511
-30.6550,31.2975,81.1694,89.3134,99.4609,53.3819,60.3342,-54.3843,-62.1990,-96.9157,9.3711,-12.9724,97.1662,-65.9039,32.2858,-96.1365,-13.3693,59.6184,30.2618
-4.7544,51.1272,127.3828,77.4919,101.9967,60.3742,82.4089,-33.3659,-70.3734,-77.6872,-5.0511,-8.0071,101.5900,-89.7676,48.6638,-76.9149,11.0785,56.7055,65.0475
-1.2643,27.1034,137.7663,68.1813,120.1779,44.0160,91.0815,-5.5697,-36.2823,-60.3908,-40.6989,-42.9687,76.5283,-106.8762,58.5612,-47.3210,18.0748,64.5190,112.0557
-4.6659,-9.8798,113.3476,42.3912,127.9885,14.6118,72.0606,28.8334,47.0554,-23.8637,-99.4264,-50.2841,46.3626,-88.0584,97.4200,-47.2517,29.6816,29.0635,158.3991
-11.8086,-28.6149,92.5340,9.5689,116.7605,1.1668,73.7790,57.0679,115.8244,14.4311,-120.6053,-38.8940,40.9558,-64.0480,138.3469,-17.4280,51.2328,1.8234,183.6267
-3.9356,-5.4789,99.4930,11.4620,126.1599,9.0896,103.1804,43.8937,110.2513,-0.0458,-75.8639,-44.2672,51.8820,-54.1043,116.2918,4.3609,83.5010,35.0340,174.5882
34.8535,37.1896,129.6346,36.6503,156.0674,17.7792,111.2267,21.1931,67.7911,-26.1000,-39.3412,-37.0069,53.6513,-38.5015,54.6372,-36.8186,118.5279,59.9218,164.8506
61.5440,30.1783,154.8143,35.2124,154.8369,8.2032,107.7766,47.0018,61.2035,-6.7430,-44.7256,-8.1921,41.9598,-6.7168,34.4409,-65.3059,121.0995,36.5436,168.9962
44.7246,-16.6939,155.3298,23.8070,134.0815,-4.2413,122.5795,75.4045,86.9648,7.8466,-32.9694,-8.7266,35.1777,16.4683,65.5926,-65.8980,87.4955,38.8198,150.9308
39.9204,-14.8817,149.2928,46.1581,142.2252,1.3008,123.1382,33.4614,74.5058,-28.9608,9.0708,-34.0617,44.2397,1.8875,79.4122,-113.9724,75.1950,80.9559,102.7960
85.4991,26.3363,150.6490,70.6850,153.6631,14.7954,107.3657,-30.8459,2.4527,-71.6412,42.8257,-24.8108,61.0085,-26.3907,37.7428,-139.0832,99.1261,82.3282,58.0043
117.6546,20.4386,138.8283,59.9010,137.7885,35.2193,128.8356,-34.3281,-52.8536,-74.4357,66.8328,6.9030,79.4587,-15.5800,-4.9574,-60.1519,102.4435,44.9394,41.6743
86.6847,-17.8917,111.9060,47.8284,126.2361,70.8276,172.7592,-4.0551,-37.2136,-56.0180,73.8585,5.6898,90.3031,19.4523,13.2634,-16.6155,76.1342,41.7050,59.3749
45.2974,-21.0437,99.3581,54.0324,119.5350,87.3587,178.7306,-10.6257,-2.6749,-62.4058,41.6138,-5.3707,72.5046,33.1816,54.9696,-96.5027,67.3734,60.1077,78.9099
44.3148,-4.3225,103.0962,49.4725,91.5313,66.8269,152.2815,-44.0365,2.9270,-102.0349,7.3437,30.5654,41.6364,55.3772,49.5674,-151.4225,71.0666,46.4871,51.7478
53.9687,3.2591,97.9721,33.9395,72.8925,59.3373,126.3772,-52.6653,1.0485,-123.6376,8.6605,92.6913,42.2146,111.3272,13.2810,-106.4451,58.4823,17.7594,0.1193
43.7366,26.5501,78.9183,21.7788,76.8214,76.6507,107.4797,-39.7760,-4.9454,-95.1948,17.7998,125.7462,54.7253,136.3392,-3.7467,-54.8512,62.2641,1.6486,-16.9223
32.8372,62.4506,57.7082,-4.1836,56.8179,66.7738,100.1081,-47.4871,-26.1261,-62.8003,26.3461,129.5119,25.7352,105.9679,-10.5460,-20.8931,103.5844,-20.2349,-19.0726
29.9617,72.4782,41.2711,-37.8969,19.1904,38.3080,90.1161,-76.4403,-26.8537,-69.9964,53.2564,131.3051,-14.5471,92.2002,-23.9771,12.2144,124.4470,-47.7915,-48.2738
20.6960,61.6023,29.2883,-43.9976,10.6833,39.3921,56.0796,-83.6681,-1.6222,-100.2784,67.5914,134.1235,-10.6979,121.8748,-21.4294,-4.6475,89.7213,-52.7632,-71.7932
15.6434,56.4960,11.7015,-34.7495,10.9831,45.9472,31.0946,-60.4442,-9.0243,-128.4116,46.2818,130.9507,2.8693,149.3017,-3.9257,-49.9520,49.9006,-44.3950,-70.1951
32.4580,59.5344,-15.6228,-42.9582,-8.8637,22.8774,40.6657,-47.9465,-56.3811,-137.8001,29.9720,124.6880,-11.9017,152.2922,-8.8319,-41.8632,47.9587,-52.0807,-88.2828
54.3490,76.5081,-35.0829,-53.8563,-18.9252,-3.5813,37.9593,-65.7734,-93.3870,-125.5064,37.3806,122.3749,-11.5475,131.0212,-36.1153,-16.6487,60.0288,-66.4579,-129.4613
52.0720,107.6128,-36.7606,-53.2209,-7.9324,-20.8270,14.5600,-94.4725,-109.7162,-134.9082,34.5110,122.7317,25.4410,89.9708,-47.7695,-45.4024,50.6171,-64.5959,-150.3186
18.8794,114.4073,-32.8160,-60.2970,-1.8011,-47.6391,29.3287,-124.5332,-112.7477,-188.3135,6.1859,108.6666,53.5678,59.6406,-36.8132,-90.6759,22.2476,-53.8143,-151.7650
-19.9314,72.9119,-28.0983,-73.3610,-6.7789,-73.1116,62.8152,-152.3806,-93.9343,-226.7760,-18.5331,73.8309,46.4695,49.5651,-27.5439,-112.7250,-0.9286,-52.5706,-156.9536
-23.4685,17.9074,-28.2950,-81.1951,-28.7730,-85.2074,34.0363,-153.8676,-73.3034,-213.9147,3.3100,47.3566,3.9218,30.9876,-22.3820,-128.9117,-12.6983,-70.3502,-159.9111
6.1748,-15.3163,-56.9710,-106.4076,-80.6734,-101.2456,-38.2519,-122.3781,-60.5566,-182.7320,69.5506,45.2670,-67.5620,7.8719,-2.1538,-125.7362,-32.4878,-113.1379,-150.8324
10.5269,-34.7033,-111.7421,-153.1103,-141.5868,-119.9606,-70.5616,-93.5503,-15.9346,-148.6797,103.2374,38.7484,-116.6596,4.2200,29.4018,-93.1229,-64.9113,-164.6517,-126.2692
-28.3950,-54.7379,-151.8699,-179.5421,-181.4855,-120.7080,-61.1659,-93.2229,51.4549,-119.6200,57.1821,23.1143,-106.6762,9.7247,42.0503,-76.8439,-78.6272,-183.2376,-89.9206
-51.7737,-70.3963,-157.0468,-171.6035,-193.3532,-102.3578,-64.7783,-106.5180,68.6130,-124.6053,-1.0565,29.1078,-88.4047,18.1726,23.0093,-88.0974,-60.9152,-162.3193,-76.5619
-32.5622,-77.4376,-145.7493,-159.1980,-180.6224,-73.5831,-86.8183,-115.9721,27.2475,-138.6336,1.8225,31.4406,-93.5774,28.4836,-5.8633,-93.4126,-49.8378,-144.9275,-109.1310
-15.4932,-88.1504,-140.0112,-150.8403,-165.1134,-44.0778,-93.7783,-124.4569,-10.8510,-118.4608,45.9470,-22.2517,-80.3210,5.1245,-20.8705,-101.5756,-68.4635,-138.2401,-143.7264
-26.4568,-118.6392,-141.3844,-127.9081,-159.4897,-25.4901,-77.7533,-132.8718,-13.2947,-98.9069,65.2575,-95.5495,-60.2631,-48.5244,-21.1313,-123.5800,-86.2129,-98.7093,-130.7672
-46.5573,-163.0924,-127.0008,-90.5167,-126.9575,-11.4889,-57.6346,-134.1194,17.1754,-103.4052,10.5149,-122.2391,-83.8590,-69.6776,-15.1708,-126.5070,-85.2372,-37.7631,-84.3828
-67.9449,-196.3393,-89.6183,-62.5051,-65.5049,4.8058,-39.9451,-130.2642,62.8897,-81.0091,-82.0251,-125.2660,-105.9708,-64.4876,-5.3628,-111.5372,-101.7211,-25.1277,-45.2385
-101.1503,-213.1953,-74.5055,-61.6678,-43.8593,13.6781,-8.5958,-118.1589,87.8089,-23.8801,-93.4804,-146.4958,-69.2704,-82.9841,5.5882,-104.6930,-159.7508,-57.4641,-25.7714
-147.2593,-231.8524,-101.8301,-76.2928,-59.8752,31.0383,46.0208,-71.8011,85.8453,24.1992,-24.0221,-160.2588,-17.4660,-77.6572,9.5690,-72.6930,-217.4722,-59.3249,-9.0317
-185.2240,-244.7624,-109.4693,-77.6793,-43.0042,76.0975,101.3395,4.9679,82.0056,61.9105,-34.7040,-144.6820,14.6848,-4.2559,1.1005,-1.9672,-221.8116,-23.8938,16.2432
-175.3735,-217.6781,-74.0674,-62.2220,-19.3285,103.1252,113.6688,41.9309,59.0715,84.8041,-130.8803,-118.5490,42.6841,46.0022,-22.9025,21.5907,-174.0695,-10.7790,25.0523
-106.9553,-153.0428,-66.7748,-52.6874,-49.4012,72.8489,62.2349,2.5520,-8.2882,59.5542,-107.9825,-90.1048,30.3578,13.4255,-64.3851,-45.7069,-112.1944,-27.3731,-5.7001
-37.4724,-101.7541,-108.5129,-58.5716,-89.0549,30.7473,-18.1255,-36.2692,-75.4248,17.3466,67.0378,-76.5175,-44.3315,-21.9868,-106.7119,-115.8149,-74.1333,-47.1971,-39.1875
-25.1972,-98.6695,-142.0939,-78.2125,-102.7255,8.2507,-70.8237,-5.3148,-98.0502,22.1949,197.4538,-112.9232,-97.3755,-28.2048,-118.8234,-120.7485,-89.3662,-86.7156,-32.0522
-51.8378,-126.9914,-164.8502,-117.1594,-134.7051,-31.5104,-80.5836,44.3671,-106.9736,60.6944,202.9423,-174.2374,-82.1777,-75.7800,-100.6914,-97.3463,-150.3204,-150.0978,-16.4856
-70.5557,-152.4557,-206.3082,-162.8037,-180.5447,-92.1872,-75.2803,50.4255,-130.4313,79.7198,174.8825,-201.0578,-67.6854,-155.0751,-83.7469,-72.2293,-198.8532,-183.8573,-42.7380
-79.6960,-162.7234,-233.4754,-183.3207,-199.6015,-134.1883,-81.5146,39.3652,-140.0347,61.3905,162.7243,-205.5485,-93.0032,-182.5681,-69.8426,-29.5451,-200.5371,-165.6154,-90.1033
-99.7804,-164.2388,-220.9335,-171.1484,-211.3442,-155.6820,-101.6828,36.1479,-124.7489,17.1351,144.2628,-224.8391,-127.6493,-170.8846,-42.0776,-7.9651,-188.4440,-137.2036,-108.2977
-118.9178,-159.7448,-199.6506,-142.1723,-216.6336,-166.7960,-121.4090,15.3810,-125.9057,-20.3355,101.1621,-240.6145,-158.4026,-188.9209,-33.0596,-67.0194,-178.8001,-117.7278,-92.3092
-101.5550,-148.2811,-176.1039,-111.2136,-177.7675,-154.6303,-135.4836,-12.5750,-163.6282,-25.6214,44.2194,-243.6827,-177.9044,-221.8187,-78.6638,-159.8283,-141.0946,-93.7636,-72.9864
-46.4486,-136.0644,-138.9034,-98.8364,-133.8857,-132.2346,-156.1565,-8.1422,-199.6156,-23.1742,26.0874,-252.0790,-174.2855,-218.2737,-132.0728,-187.1851,-89.2415,-83.0210,-70.5333
0.0381,-122.4029,-116.8258,-110.1803,-140.8301,-122.5868,-173.1391,8.6537,-206.9744,-38.8448,66.1982,-236.0762,-173.0347,-189.2162,-134.9021,-157.6449,-68.1509,-100.5277,-77.3243
8.4982,-98.2161,-122.4701,-115.5361,-158.5356,-105.1995,-156.9310,-4.8369,-212.1713,-50.8793,87.7808,-174.6635,-188.6074,-166.5463,-113.2521,-152.8035,-57.9376,-112.0000,-78.6613
-2.9415,-79.3630,-125.0993,-108.9638,-150.1759,-63.5015,-132.1214,-31.5457,-215.7358,-38.5193,49.6456,-125.7176,-198.3079,-147.7575,-109.5719,-168.1690,-31.5740,-103.5915,-73.2515
-22.7905,-92.3112,-121.2599,-122.3028,-149.4045,-28.8381,-145.2046,-36.4673,-160.5426,-0.1325,14.3060,-114.0271,-214.8785,-133.1839,-105.6609,-137.0351,-34.5590,-113.6106,-59.6948
-60.2140,-118.1490,-132.7148,-147.2666,-167.6034,-31.5288,-157.9564,-28.7930,-48.3755,70.9458,-1.4848,-90.9061,-247.7372,-143.4530,-73.9997,-76.0782,-83.1140,-147.4968,-31.3048
-102.4388,-119.9727,-152.2478,-150.8251,-177.8844,-61.7445,-113.3811,-23.1339,38.5919,151.2487,-47.1694,-63.9674,-234.8258,-171.5911,-21.0819,-50.3193,-114.4243,-166.3364,1.4126
-135.9411,-112.5688,-158.5472,-153.8209,-164.9922,-88.9805,-53.8960,-2.9625,77.5055,188.3141,-102.2518,-80.3223,-163.9925,-182.0268,33.5358,-35.3326,-117.3165,-165.2248,22.1015
-169.2152,-126.1782,-141.9492,-171.6116,-123.0309,-94.2880,-34.6576,30.3400,107.0183,174.5626,-110.2382,-106.2227,-121.5223,-170.0947,64.6413,19.8196,-140.1511,-155.8339,30.6958
-181.9546,-140.2668,-105.6458,-151.4335,-72.9917,-80.6205,-27.9515,32.9149,113.2855,143.0403,-86.2025,-99.0790,-127.2247,-165.7162,57.6428,58.0465,-159.5036,-113.4761,20.5490
-148.6343,-125.5130,-71.5366,-78.5130,-48.1251,-56.0541,-8.5058,-6.5324,78.0264,109.8197,-77.0196,-93.9040,-124.3159,-175.3489,30.8203,20.6725,-123.1513,-38.1634,-8.7365
-112.3782,-91.1012,-48.5201,-21.9163,-21.3796,-30.5649,2.0118,-29.7475,42.4620,78.0359,-98.3633,-102.4092,-119.6011,-173.9217,-0.1789,-13.6348,-66.7586,10.2087,-12.7092
-111.0422,-47.7148,-13.7186,-10.7156,34.4681,-24.7496,2.6662,-4.1708,15.7747,50.0024,-133.2028,-81.7825,-130.5135,-151.9574,-41.3957,27.0041,-40.5764,4.7522,29.2347
-102.9518,-1.1124,21.0350,-12.3976,57.4358,-42.1771,2.7113,25.0279,-23.0261,27.7395,-148.0002,-38.9741,-113.1349,-121.3135,-75.9576,71.9335,-24.7270,-20.1805,61.4144
-70.5080,18.8767,5.4144,-33.1141,11.7161,-60.8685,-15.7476,34.1349,-31.7835,30.8286,-141.3314,-12.3899,-79.6065,-84.1105,-77.5912,63.4813,-1.7570,-53.0703,59.2242
-59.4357,4.9535,-46.5164,-86.5935,-36.4081,-71.6804,-47.5798,65.3595,12.5840,66.1165,-146.3940,7.8318,-96.3367,-38.8834,-69.0239,61.7968,11.3057,-101.5643,69.3211
-71.8114,-3.7859,-69.4414,-121.7848,-49.6791,-70.7480,-57.5555,128.7323,46.9521,101.4459,-163.6238,30.3472,-134.1915,-0.6507,-77.4499,110.1561,15.6179,-129.7791,98.6346
-79.8240,-6.1299,-59.7125,-108.6441,-51.9777,-47.4782,-40.3031,179.2113,53.2002,127.2567,-175.3157,25.6930,-126.6666,17.2026,-73.2028,182.2156,9.6040,-112.2083,116.6707
-97.9212,-39.5310,-52.9658,-93.3911,-37.8670,-26.3540,-15.3327,204.7529,78.0041,159.6902,-185.1519,-5.1898,-105.6678,23.8332,-40.6433,250.8334,-22.9919,-87.5189,138.9019
-115.1010,-77.0610,-42.4481,-91.0935,-7.8559,-30.1549,5.1195,227.8184,111.5133,174.3149,-178.8163,-23.1996,-114.9124,35.8238,-29.0342,274.3222,-53.7522,-75.8869,175.6931
-86.7699,-69.6186,-15.3882,-57.4186,7.6230,-13.6471,16.5000,243.1605,123.0039,157.0850,-162.8624,-20.0901,-121.1258,53.2326,-56.8698,224.5236,-46.3856,-41.2050,196.0670
-38.8052,-50.2515,11.3352,6.6116,33.8359,49.5101,31.1036,231.3326,123.9647,148.0770,-196.4037,-23.0045,-97.7143,58.8034,-70.2030,167.2758,-28.1408,20.1886,197.6262
-19.7336,-52.4370,35.4160,56.0499,101.4569,103.3451,55.4300,189.2747,99.0650,146.0464,-232.6791,-43.8577,-63.5354,40.9970,-49.9480,156.7503,-23.3829,65.2469,186.7861
-7.0394,-34.5041,63.1060,85.0394,146.0819,117.9329,53.6827,126.1084,33.9856,116.9377,-134.9222,-59.1667,-33.3602,13.5948,-43.4371,136.6433,-10.1882,81.4639,141.8647
17.0295,11.2056,75.3835,105.7053,122.4694,118.6679,11.2867,69.1625,-8.8824,93.0332,34.7115,-38.2583,-15.6103,-5.2589,-57.0752,83.5629,6.1218,84.4739,87.7650
27.6821,33.0919,69.7786,109.2942,96.0113,103.0696,-17.4327,36.4973,0.2811,94.3355,77.0235,9.2864,-13.6727,-20.9536,-43.7087,55.0662,6.1963,78.4360,70.5479
35.4988,39.6979,77.9720,103.5915,108.2339,72.1358,-9.2871,-2.3988,2.4735,68.9227,17.0983,42.7473,-8.5907,-33.0437,-12.4797,43.6516,21.4593,72.5453,56.1353
64.0500,77.1309,101.8502,102.0945,112.3807,60.3951,-12.5765,-64.0449,-15.8028,25.6674,27.6828,54.7166,6.2756,-17.5657,-18.9231,11.4936,65.9611,67.6959,8.8455
93.7792,120.4483,100.3910,78.5461,77.6362,48.2725,-43.7366,-103.1671,-16.0107,29.5861,107.2889,63.5164,10.5299,12.0392,-42.9454,0.3118,95.1686,31.4083,-30.3111
103.8753,118.7240,53.6770,22.9033,20.2890,-11.6018,-71.7067,-101.7727,-4.4206,64.1199,146.3190,52.6288,5.9413,0.3109,-11.1044,32.0705,95.7146,-34.8897,-40.6200
82.8832,75.4553,-9.7358,-15.3803,-36.0285,-80.4137,-79.4865,-93.0925,21.2718,89.9229,114.6671,6.2329,13.7692,-47.8003,65.4987,67.6915,87.7062,-71.4353,-37.5221
24.0017,22.1131,-48.6883,-18.5713,-61.5213,-98.6157,-53.9137,-69.9313,86.5816,116.8164,24.7242,-36.1079,26.6568,-64.3725,107.2181,111.5121,59.6771,-70.6963,-5.6746
-26.4137,-16.1607,-52.2717,-38.3785,-50.1348,-95.7806,-3.0516,-21.4185,139.5972,116.7455,-83.5330,-46.1391,20.0226,-43.4269,103.3823,160.4196,13.6483,-95.6195,35.5565
-32.4431,-36.6404,-47.8715,-91.5614,-41.9842,-120.3388,17.9563,-10.2246,126.4645,62.8534,-130.6175,-55.9491,-11.1558,-41.8101,106.9175,150.3372,-18.3061,-150.5219,28.1617
-58.2747,-75.9412,-62.8572,-132.2661,-53.4655,-157.5592,2.9010,-59.7017,107.6538,20.7832,-115.0870,-85.2513,-46.5747,-59.4109,122.9923,97.1251,-50.0657,-175.5681,7.0962
-142.2761,-154.1788,-86.5081,-142.5984,-50.8023,-173.8555,17.5658,-87.2823,128.1109,23.0960,-123.0473,-109.1288,-57.1376,-48.3464,122.6861,84.7935,-107.3600,-164.9455,42.5634
-206.8215,-218.8585,-89.7705,-141.1574,-24.8997,-163.8104,64.6126,-53.2792,140.5360,12.0997,-180.7168,-112.3192,-42.2988,-8.7883,122.8154,91.6046,-150.7972,-155.3382,94.5272
-208.9531,-220.7200,-70.3398,-127.7182,-4.2617,-144.0632,86.8523,-8.9622,146.0757,-13.9812,-239.9507,-101.0406,-32.6164,29.4049,151.8688,67.1149,-151.5333,-146.8905,103.4390
-192.8481,-192.2329,-53.4961,-105.9671,3.6273,-133.3538,86.1223,22.1357,183.5347,-18.5767,-265.0781,-82.3649,-31.2427,62.3068,188.9029,70.9901,-148.0112,-132.9065,90.3324
-169.9269,-181.3209,-50.3035,-99.0780,13.5772,-129.2276,80.2763,43.2834,201.5732,-37.5428,-243.6609,-63.3131,-16.6744,86.0859,203.2776,133.0462,-152.2247,-123.0635,73.0053
-130.1551,-170.1886,-38.9861,-94.5573,27.9857,-114.2461,48.6514,27.4250,155.8498,-81.2305,-188.7966,-36.2527,-10.8133,87.6190,196.5940,160.2636,-123.9197,-100.8446,44.5194
-96.1004,-114.7408,-7.6944,-59.7647,35.2927,-85.3836,9.8703,-19.3654,113.8347,-87.7005,-141.7325,14.7003,-42.5429,83.8563,174.7439,94.5651,-56.8663,-54.8858,19.9489
-59.8828,-22.1035,15.9307,-14.3904,26.9866,-52.1003,0.8508,-47.5067,118.3395,-66.5637,-119.3459,75.3150,-69.0260,102.4104,141.3671,-9.5861,10.9197,-21.2785,-5.9875
-5.6523,52.2203,17.9449,6.2325,13.0090,-23.0333,-3.4650,-54.7180,113.6534,-82.1195,-103.0522,121.7816,-43.3406,132.8539,118.6569,-76.5932,44.9605,-14.1099,-46.6220
20.0908,73.9408,28.2948,21.2922,14.6558,-2.0312,-16.5728,-68.4129,71.3890,-109.9403,-80.9959,154.9759,2.5767,150.4174,118.5429,-81.0002,33.3012,1.7064,-59.7171
0.4635,62.8766,55.1104,55.3350,33.1464,20.0159,-0.6496,-77.7886,36.7762,-89.8059,-57.8218,165.6219,25.5397,154.0411,117.7981,-65.9666,4.9589,31.3569,-28.4039
-6.9599,54.3248,68.3220,87.0311,51.1928,45.5520,36.2155,-72.9919,38.1077,-38.4485,-49.5551,142.4565,31.3610,146.7820,100.1628,-87.2896,7.6943,54.4439,-13.0602
11.1313,67.6037,70.7960,104.4769,63.4620,57.1955,52.1281,-69.4369,43.8259,-4.1878,-59.0299,126.6552,30.0056,125.5862,82.1735,-119.0425,35.8503,86.2095,-27.3688
18.2114,104.0624,84.1125,128.1398,69.8250,62.9810,58.0958,-61.9513,17.4303,6.7888,-49.1445,149.0650,22.4365,108.9934,73.9749,-103.7212,42.8012,128.9412,-16.1508
15.4629,134.9080,83.7518,153.2375,64.8662,88.9614,74.9163,-40.8358,-13.3847,20.3868,-7.2170,165.4262,27.7456,125.1260,61.9078,-62.7370,26.9496,138.6810,21.7381
10.8326,129.8960,56.7968,156.6074,59.9769,111.7494,90.0134,-29.1985,1.7807,39.9790,15.1081,157.9743,53.0140,163.9287,45.4955,-45.9780,27.8937,114.3285,34.2650
-0.1791,119.8076,51.6202,156.4903,68.8701,104.4174,97.9650,-45.2438,25.1861,22.5278,1.2054,182.4366,69.4977,189.9786,43.4413,-53.6298,58.3710,111.6885,3.9911
11.0918,151.4027,78.8560,179.5952,72.4362,100.5405,88.6966,-74.0306,-6.2413,-38.5572,-8.2745,241.5757,60.6646,197.5122,50.3407,-63.7192,97.6891,135.2811,-39.8738
51.5651,190.4249,77.3603,191.8285,46.8711,104.9772,46.7071,-87.7780,-36.4780,-57.9101,-13.2439,261.5918,48.5849,199.9090,39.9438,-37.3904,119.4420,125.5981,-50.7618
71.1103,172.6625,30.2362,145.6150,-1.3324,71.0349,12.1569,-57.4431,4.1037,8.8756,-26.1442,219.3105,50.4956,188.8715,27.6964,62.6261,108.2061,61.5393,-18.0010
58.8978,109.9991,-14.6790,69.0615,-53.6087,23.6574,29.8736,19.5728,56.6453,82.8444,-14.3592,164.1283,50.7085,162.3647,62.3916,181.3087,76.5738,-4.6786,3.7401
48.4489,59.6709,-40.3304,30.2922,-89.5005,18.2459,59.2956,92.1519,72.3810,102.8585,23.1554,134.3216,37.0501,148.6435,125.5135,212.2258,53.8119,-17.3285,-15.1392
36.9053,54.9830,-57.1973,41.2225,-88.9847,16.2770,53.4929,112.0330,87.3135,93.0803,60.5659,126.6017,35.2220,149.6750,131.8558,149.1389,50.5190,16.6949,-30.3068
21.4467,97.5175,-47.6039,65.3487,-61.9264,-10.9252,44.4330,96.3812,74.2733,69.0950,107.0603,114.5767,69.7760,128.5215,73.9227,77.9187,51.7040,47.6932,-28.3490
23.4182,142.9942,-5.5131,87.2673,-34.7118,-2.3067,64.7091,86.5586,0.9191,39.9221,118.0850,88.2070,115.5234,90.3330,42.5771,63.5108,38.8670,59.1458,-36.6765
25.1212,132.0548,32.0554,113.8291,-3.4579,44.4367,88.5771,91.6676,-29.0189,38.8282,27.6313,77.4885,139.1147,85.7180,63.8839,107.6399,15.5699,78.1219,-27.8969
9.7389,87.3710,43.9732,141.3768,37.1537,61.2682,90.8371,99.4926,22.2934,45.3807,-58.1267,90.7009,149.5425,116.5106,67.5128,143.2279,8.8913,110.3990,15.1276
11.7231,81.8865,46.9190,164.3066,59.0124,63.0484,84.1485,96.4044,16.6490,8.7178,-4.5951,83.0859,153.4173,133.9730,36.4284,101.0885,24.6065,134.4404,30.6292
29.2384,105.5104,48.2879,182.3904,58.3118,94.6156,91.6899,73.6649,-67.0868,-41.2495,84.2899,50.6696,127.5953,123.2725,17.7712,21.5680,28.2783,149.5693,5.7544
25.9549,102.7112,41.5738,188.5119,72.0530,122.2247,111.6745,40.3330,-93.9854,-56.1425,76.2870,48.7903,81.6005,111.8824,-0.5048,-20.3128,15.0380,162.8638,5.1553
32.8160,96.4139,37.9184,181.9199,100.2943,127.0011,111.2391,18.7248,-75.5956,-55.7124,48.5057,78.5372,59.6248,120.5196,-53.6276,-44.5692,31.3609,160.4174,27.4160
70.7946,124.4772,48.1786,174.4427,104.8746,136.7640,80.2081,25.6290,-103.5917,-45.3350,53.7649,84.8785,63.6895,146.6814,-93.7517,-57.2722,76.6849,136.0521,22.7152
73.3416,142.5484,52.0701,164.7618,82.4244,132.3086,62.1966,58.4095,-110.9876,-1.3430,19.3608,60.4822,68.6099,166.7244,-68.6073,8.8386,93.6499,106.3229,1.3441
40.6906,124.9737,30.6604,148.3771,51.8779,98.4927,75.0011,76.5252,-56.6711,31.5337,-5.0802,41.1459,84.3642,155.6689,-28.0212,100.4639,88.2572,85.9882,-24.1042
73.2986,142.6231,3.5386,143.3108,9.9165,83.0700,63.5860,27.0095,-73.8609,-4.9591,90.3813,44.0306,116.0170,122.1031,-44.8284,66.7143,122.2120,78.3177,-80.1777
167.4814,228.1188,-7.2642,153.0761,-37.1090,89.8951,-3.0884,-72.1899,-200.6102,-76.8184,216.3809,62.5737,130.2482,88.0599,-109.2800,-60.8725,184.0999,73.4369,-150.9258
214.8733,292.6932,-12.7587,144.3503,-60.4605,71.6450,-69.2532,-140.0786,-299.3204,-130.0756,237.9078,66.3469,123.2823,44.2025,-163.3057,-125.3670,201.5661,56.3120,-195.2084
196.0062,265.4593,-21.5537,106.4486,-59.8390,39.5326,-85.2261,-156.5428,-318.4521,-165.5000,210.9659,23.7624,132.1912,-18.7586,-182.1266,-124.7667,156.9370,35.6403,-216.7013
162.2049,189.6810,-22.9218,70.7980,-63.0567,17.9563,-85.7778,-175.0423,-324.2452,-183.4534,235.8276,-44.3922,154.4059,-72.5430,-190.8078,-138.5450,88.0496,29.6949,-222.3039
116.3407,120.1455,-27.9487,53.0812,-75.9347,-16.0394,-119.0313,-200.6503,-335.2193,-175.9973,292.4494,-97.9466,150.4790,-98.4702,-218.3669,-137.9281,20.0700,28.0550,-205.6994
60.4215,52.6370,-55.9125,46.2083,-80.6589,-45.0929,-160.9798,-188.8392,-336.2334,-170.3992,319.7609,-140.3814,119.7338,-114.2337,-254.1861,-104.0393,-39.2224,19.5150,-190.6803
31.1242,-8.5502,-80.3829,51.8954,-69.4734,-28.8661,-164.9892,-155.0101,-329.5676,-181.5582,288.6815,-178.3268,90.1791,-127.3719,-267.8329,-115.5044,-84.0771,14.1173,-189.8109
23.7587,-37.6299,-73.5174,57.4702,-57.4178,-18.7664,-147.3122,-148.5749,-297.3253,-176.6314,207.6559,-192.2467,61.3451,-130.2522,-251.1337,-177.3205,-112.7044,1.6449,-175.6016
5.2619,-46.8794,-66.2820,34.3995,-65.7458,-72.0721,-150.5642,-154.4199,-236.3102,-147.1878,130.2993,-189.1524,18.3074,-138.3808,-214.0098,-191.1418,-118.5679,-32.0644,-148.7657
-13.7928,-53.4613,-79.4628,-2.8035,-88.5381,-129.9641,-171.1893,-136.6834,-195.0670,-131.2108,94.8974,-194.7981,-30.7258,-169.4803,-176.0379,-148.5936,-96.0730,-53.4241,-135.9297
-9.6504,-32.8140,-73.3227,-11.5140,-92.1380,-131.2128,-192.0212,-116.3629,-205.4978,-139.8009,81.1832,-204.5167,-62.0880,-207.8192,-164.6957,-146.4269,-60.0153,-37.6327,-130.0650
9.4724,9.6315,-37.5946,-2.1828,-69.6820,-118.3063,-213.4149,-117.3942,-250.0841,-145.9047,71.3043,-212.2825,-58.7344,-235.3336,-171.6022,-204.0587,-36.2456,-27.9689,-124.4047
23.7003,13.6342,-25.2036,-21.7353,-58.8770,-141.2953,-211.3231,-113.1126,-285.8202,-131.4418,57.5156,-232.5517,-28.1525,-255.7750,-153.7554,-232.6875,-38.6474,-66.0585,-130.5790
14.2440,-30.7719,-52.9220,-70.6157,-80.8419,-184.7506,-169.1157,-84.0008,-258.7410,-84.7314,8.9549,-260.0327,-11.1882,-261.5154,-115.9743,-187.4298,-58.9570,-129.4477,-126.9382
-23.3100,-65.3223,-82.8420,-108.8699,-112.1744,-218.6022,-142.1919,-61.7947,-174.9361,-10.0020,-53.2469,-268.2386,-45.8040,-233.4266,-102.0601,-132.8956,-70.4952,-169.1771,-98.1468
-53.9554,-64.8616,-104.4478,-117.5249,-129.7222,-232.9096,-177.6759,-85.3132,-122.7727,34.6474,-48.7365,-243.6077,-115.8110,-188.3600,-104.8270,-132.4572,-59.1004,-162.9658,-83.3704
-48.8164,-57.2748,-126.8946,-107.0112,-132.4333,-234.0906,-231.6413,-146.9140,-127.1297,9.4624,0.9649,-200.3755,-168.5946,-166.3017,-95.4641,-150.2285,-49.4319,-139.2279,-89.0804
-39.0181,-67.0248,-131.1286,-96.9171,-124.4985,-238.0917,-253.7056,-194.3743,-109.6081,-23.7012,-20.9771,-179.4635,-173.7371,-165.6984,-90.5820,-125.1890,-65.2594,-140.1253,-68.4605
-53.8586,-92.6062,-115.6394,-101.9561,-110.9997,-241.5158,-254.5978,-191.4137,-60.0808,-16.8959,-106.9076,-193.6297,-135.7385,-152.0688,-99.5714,-85.3086,-86.4957,-146.1531,-33.1393
-65.9172,-102.6801,-115.7070,-109.5232,-96.1896,-219.4079,-245.8442,-167.6115,-51.7580,-32.1728,-129.5095,-183.7839,-82.5867,-122.9937,-100.7730,-87.2796,-89.5795,-116.2908,-32.4969
-61.0882,-72.4659,-130.4153,-91.6785,-80.3749,-172.5360,-217.6584,-167.3127,-75.3038,-89.6142,-71.9057,-120.8715,-57.6466,-100.1338,-102.5614,-95.8584,-83.7583,-84.6675,-43.6683
-72.0357,-46.0879,-124.4481,-57.6720,-69.4379,-132.8149,-181.1237,-176.2551,-67.4139,-98.1733,-34.7195,-84.0151,-73.0943,-79.5700,-117.8423,-51.7104,-77.9658,-90.5191,-31.6774
-103.0002,-77.3195,-106.8300,-44.6195,-68.0159,-117.2373,-162.7481,-164.5249,-49.6199,-42.2649,-49.3661,-124.9038,-82.4159,-54.0527,-117.3610,3.7447,-71.6154,-94.4865,-29.1245
-118.8272,-126.1948,-111.0129,-56.2319,-68.8160,-119.4476,-171.8563,-148.0422,-62.4188,-9.2480,-65.4675,-176.4230,-55.5830,-45.4689,-91.1060,9.1806,-77.0665,-87.3153,-46.1620
-112.5933,-132.6246,-127.7662,-75.6758,-78.4453,-135.6036,-186.1370,-140.9116,-68.5875,-5.4325,-66.6541,-184.0285,-34.1752,-62.6266,-67.1940,-1.2720,-95.5565,-122.2416,-39.6018
-98.8567,-117.3577,-134.9846,-102.8115,-112.9769,-161.6518,-170.1811,-124.3018,-41.6133,12.5011,-77.2374,-174.9852,-50.6540,-78.8467,-51.9068,7.5051,-99.1558,-166.5681,-19.2074
-73.1566,-106.4274,-134.5413,-115.8718,-142.2788,-177.6864,-132.4815,-102.7928,-24.5352,1.9143,-102.1733,-165.5818,-67.2900,-82.4355,-43.4027,-6.0040,-76.9308,-137.1420,-35.4904
-41.9652,-82.6609,-122.3960,-81.4156,-121.2679,-169.0439,-115.6638,-101.3137,-41.9324,-59.5462,-109.4739,-145.7484,-51.2837,-89.4469,-53.3663,-39.6012,-54.4769,-77.7187,-77.3611
-31.7006,-58.7555,-95.3302,-39.2091,-80.8366,-155.6053,-113.6497,-106.4917,-64.2734,-99.8709,-64.6112,-132.3871,-28.9065,-99.5457,-65.4192,-26.1254,-45.6413,-75.4833,-101.6081
-36.3423,-52.7398,-74.4988,-47.1173,-76.4713,-161.7215,-97.1008,-95.2884,-74.5249,-106.0468,-7.3966,-139.6569,-30.2245,-98.9583,-57.0429,6.2417,-33.5079,-90.0293,-100.0059
-29.3067,-28.3136,-62.4709,-61.6237,-80.0430,-167.3432,-90.0494,-80.7649,-86.4932,-133.0479,-36.9180,-151.0907,-47.5387,-94.9303,-39.5749,-36.9205,-8.3655,-58.8699,-71.1268
-19.8847,15.2154,-38.3358,-31.4686,-44.6383,-143.5142,-104.2013,-70.1741,-98.7004,-153.1719,-144.6072,-154.2194,-57.5130,-100.0326,-14.6445,-118.7060,10.6560,-29.2264,-15.2987
-27.5706,13.3957,-16.9568,-13.3773,-4.2497,-113.1141,-93.4811,-48.6365,-91.2867,-117.3103,-195.5586,-148.7275,-47.1873,-104.7758,15.6423,-123.8949,4.6847,-46.7658,32.8013
-35.1010,-28.0531,-18.7833,-42.1889,1.0932,-110.3243,-64.0071,-32.4500,-74.9815,-79.6109,-152.3971,-136.0679,-24.3323,-96.7167,8.2624,-64.5670,-4.3040,-66.8154,46.1867
-21.8540,-29.3175,-13.2243,-48.1221,-2.7422,-121.1845,-70.9662,-50.2504,-85.3456,-90.7392,-116.4464,-127.7858,-7.8880,-86.5313,-33.3935,-34.2924,21.1364,-54.0285,40.2985
-1.5175,8.3185,11.2709,-15.9573,3.5668,-131.9373,-95.9475,-81.4433,-115.9112,-103.5301,-118.6048,-131.0927,-3.3161,-89.3933,-42.2793,-45.6971,62.7707,-37.0072,32.6410
1.9155,11.5397,10.5807,-11.4272,4.3934,-150.9760,-88.4209,-83.4969,-111.3192,-78.6673,-112.7687,-134.1747,-3.7845,-92.1641,-27.7237,-59.9361,67.6324,-35.6607,35.4536
-15.9574,-32.5849,-14.3252,-29.4707,5.5180,-154.5389,-64.6371,-60.9963,-59.6843,-45.7011,-125.2189,-125.2883,-6.6527,-76.6210,-41.1464,-68.7004,38.4018,-39.0769,63.5261
-37.8480,-74.0884,-14.3224,-26.7783,11.7986,-121.7602,-50.6709,-53.9414,-18.5623,-28.8528,-171.3107,-101.3643,-9.9096,-67.1536,-40.1219,-67.9242,20.6533,-52.0641,94.0663
-42.1231,-75.3820,0.1656,-25.6146,-1.7884,-96.5078,-41.4520,-73.0552,-11.9993,-12.1216,-159.5508,-68.8882,-15.3052,-91.4904,1.8767,-48.1407,22.0699,-80.2307,94.5893
-33.5288,-42.9493,-9.4527,-36.8040,-25.9326,-107.5770,-43.0059,-87.7333,-2.2874,14.6348,-64.8806,-53.4163,-32.2806,-108.1602,8.9360,-26.9434,21.2982,-94.2474,94.2612
-35.6094,-23.9578,-22.5571,-30.8529,-22.0850,-113.7717,-48.1077,-77.9792,12.4465,23.7713,2.6819,-70.7207,-51.5792,-67.9102,-21.0856,-27.2842,11.7352,-81.9496,121.4671
-47.0466,-49.9454,-12.8992,-31.7948,-9.8767,-99.6410,-29.7595,-62.6051,-3.5724,-10.1744,-2.4133,-97.3817,-54.4875,-14.7347,-3.6505,-43.5539,-12.7562,-85.4975,135.3112
-54.6219,-92.4695,-0.2279,-71.5471,-25.8017,-101.0386,-11.1126,-59.5868,-25.4148,-50.2339,-14.4977,-110.4508,-54.0553,-8.5444,34.5992,-49.0552,-52.9819,-121.1637,124.1405
-72.5229,-131.3187,-1.6483,-110.9836,-35.5245,-121.1620,-25.3265,-54.7931,-0.7110,-37.6277,-12.8261,-121.4292,-58.3470,-17.8789,22.4385,-22.2842,-92.6234,-143.5823,139.8702
-108.5625,-187.1605,-20.1920,-124.3399,-9.2815,-140.5816,-29.6607,-36.6662,38.0959,10.0620,-28.5027,-144.7490,-35.6087,-10.0305,8.5507,13.7838,-137.7578,-132.8256,168.5552
-129.7923,-229.1110,-53.9777,-126.7362,11.4153,-158.4565,11.6691,-23.9281,23.5281,24.8147,-45.7452,-169.6173,10.5883,-27.8272,36.3981,6.2795,-188.9568,-111.8450,142.6159
-113.9022,-194.4408,-65.2091,-99.9551,10.7259,-155.2437,50.8381,-28.8307,-27.4212,-7.9052,-33.4216,-172.7306,26.5776,-74.8109,54.3806,-31.7123,-186.5665,-83.8522,79.0123
-83.8391,-122.3464,-28.0869,-46.2889,27.1932,-118.6443,54.1526,-29.4781,-52.2702,-50.9958,-10.1995,-148.0745,15.1994,-80.6389,58.0873,-26.7247,-112.9316,-56.6473,35.4491
-63.4601,-93.9535,3.7554,-30.3132,50.3224,-97.6952,50.5045,-10.1850,-41.0416,-78.8749,-6.3081,-120.6348,26.5737,-42.4555,94.0392,23.0700,-60.2266,-60.1616,6.4628
-55.7694,-87.0314,-15.9169,-57.2694,32.9216,-116.2164,53.1435,4.5458,-17.8552,-85.6262,-16.1913,-104.6684,47.8126,-26.2769,138.2200,55.7222,-66.2694,-76.6408,-16.0705
-60.3264,-56.1273,-47.5387,-63.0588,-8.5759,-120.5665,48.7466,-3.7801,13.1253,-69.9769,-20.7943,-70.1155,39.5254,-23.3771,152.4294,69.2352,-47.3899,-70.7901,-7.6235
-65.4605,-36.5351,-53.7946,-48.7742,-29.8986,-98.1130,44.1720,-4.1246,55.6863,-26.3666,-27.3424,-5.3299,21.2597,11.2842,160.7673,87.5756,12.1130,-74.6143,12.0947
-55.0773,-44.1992,-53.2735,-61.4979,-42.7125,-106.8510,45.5777,23.9762,103.7951,51.4674,-56.5364,44.4826,17.1663,32.6007,181.2425,83.3782,27.7442,-111.7593,3.5693
-40.6992,-35.9074,-57.0987,-94.0249,-74.1552,-153.0835,33.4572,36.9684,158.7944,137.3929,-89.7764,56.4122,13.1052,-2.7906,205.3839,57.3875,0.0033,-135.9966,-11.8564
-44.8501,-20.1935,-59.5187,-116.6179,-108.0723,-183.1223,3.7461,7.8502,226.7308,182.7453,-83.3550,56.3619,4.1748,-23.0723,236.1958,57.1894,-5.6327,-133.0471,-0.5932
-64.7199,-34.6135,-69.6693,-119.0701,-114.4141,-176.0994,-11.4171,-13.6804,283.7228,179.9952,-46.7671,50.9412,-6.2659,24.1196,257.2019,68.4785,-7.2770,-129.3845,26.2620
-83.9253,-47.2701,-83.0050,-96.7219,-88.7037,-146.5139,5.1032,4.7825,276.8069,158.3869,-32.4088,35.2400,-23.1073,61.8938,234.5275,58.2973,-42.0343,-105.5960,50.8233
-89.4278,-29.3601,-76.2493,-70.2928,-50.0043,-111.7968,19.1071,25.2110,195.0369,134.5415,-44.4010,30.7874,-28.6697,33.4937,172.3684,69.1626,-68.6293,-57.7583,68.2257
-71.6802,-24.1855,-50.2088,-66.6499,-16.2679,-90.2991,-1.8034,26.0156,114.5971,121.5427,-38.6381,39.4024,-8.9409,2.2304,104.1882,106.9521,-59.8283,-41.1455,79.6337
-51.0709,-52.4548,-25.5333,-62.8317,13.3422,-79.7785,-22.6597,23.2884,107.4107,127.1492,-7.8211,36.8396,9.7950,15.9409,68.6153,95.4464,-63.1458,-53.6698,99.8789
-71.0980,-80.7872,-14.5361,-35.3379,39.4876,-62.1406,9.2504,13.8665,142.2864,129.7841,3.9224,29.0918,22.9920,35.1077,96.3924,52.0411,-108.5857,-38.3338,132.4922
-120.7061,-100.4442,-15.2997,-11.2639,49.9243,-40.8205,72.9685,5.5773,160.1347,126.0365,-31.1674,29.2818,54.8508,36.2572,149.8811,76.1560,-158.7591,-4.9880,154.8830
-132.4309,-112.4034,-8.2795,-4.4911,53.2265,-23.0646,104.0041,29.7699,168.1165,140.8509,-82.3503,29.3279,74.0458,43.4995,142.5519,142.4588,-163.2572,7.3745,159.0005
-89.7109,-89.4687,20.2964,-0.8036,73.7928,-3.7943,82.5180,61.8955,172.5161,151.1646,-95.3872,43.1097,40.7797,62.6541,78.7358,160.6758,-115.1272,3.5987,151.2639
-48.7111,-43.3916,46.5953,-14.0620,91.7050,-2.5406,40.7383,57.0510,144.3180,125.4344,-63.4006,78.1421,2.2807,81.5581,54.1234,159.3604,-59.9398,-17.4137,127.2333
-37.7376,-24.2886,42.4818,-50.6581,66.1337,-36.0579,21.3046,52.5400,113.8412,110.2967,-38.5125,86.7590,7.5136,95.7663,94.0034,184.7690,-34.4527,-52.2897,108.9391
-24.6767,-18.2509,19.4909,-68.3287,17.1161,-59.5037,43.9182,89.1153,136.4885,133.6079,-60.2771,54.4480,23.7698,97.2745,126.9599,180.9827,-11.5435,-52.6032,128.3020
7.1387,25.5262,4.7665,-43.8403,-5.0775,-28.1890,84.4488,120.0603,164.7838,133.4799,-102.1566,45.4116,24.6182,93.2187,109.2558,123.0318,37.1947,-11.7949,146.8380
29.3600,84.1964,7.5891,-3.9999,-0.0266,27.1422,101.2230,117.9052,137.7909,92.0641,-106.8075,86.1231,28.0040,108.1055,70.1670,73.3435,77.6837,13.6647,116.9409
21.3938,100.3321,16.5033,28.2102,3.7482,55.7327,88.6449,126.3467,111.1676,67.6251,-66.0986,127.8210,23.1534,125.4731,54.7695,54.2775,78.0309,19.2533,81.7145
0.1175,79.3518,11.0035,51.1328,-0.0594,56.4839,72.6128,149.2015,130.4796,61.6557,-40.7332,136.6762,-9.1020,110.6486,72.2080,40.1876,64.3142,47.8486,87.8865
-6.2347,59.4473,2.3430,72.1208,3.2772,61.8411,68.2252,144.2534,135.9078,32.7949,-65.1538,112.7656,-35.8747,89.7508,92.8797,31.5229,63.4201,94.7854,102.4997
11.6491,51.3261,32.6584,101.4579,33.1174,90.1948,68.0119,111.9377,98.6096,-13.4955,-79.5619,69.6326,-26.4982,96.2131,85.7066,15.6962,64.4431,129.0097,95.9070
40.7959,55.8651,89.4646,130.2732,84.6582,119.3186,52.8938,73.3754,58.6328,-68.7532,-37.9101,48.1071,2.1179,98.4919,47.2576,-42.7879,58.0714,144.5340,78.2502
56.9067,74.5592,108.3963,141.9521,116.8810,119.8919,27.4679,30.4571,18.8650,-128.9385,-4.9381,66.6793,33.1632,76.0701,2.3901,-119.6880,48.1957,149.0296,48.3147
40.0231,89.7345,89.3715,147.1204,115.3007,108.8757,36.6670,-2.8513,-22.0740,-139.3368,-36.7332,80.1630,65.8038,59.9192,-10.8836,-149.1362,33.0354,155.8790,17.3635
4.3634,87.3655,88.1695,152.3175,119.3875,110.0527,88.1805,-12.9408,-25.6503,-80.2318,-77.6098,63.4001,87.3649,50.0538,8.1170,-119.8651,19.3809,163.4601,14.0079
-2.1640,79.3900,105.2341,133.5592,134.2893,98.9695,115.0378,-15.0140,-12.0784,-27.6534,-77.5487,50.4376,86.3349,21.9601,4.9035,-77.5780,23.8409,141.0749,15.9464
29.7697,69.0853,101.3099,89.4295,111.5012,63.3305,90.3709,-19.9292,-30.1166,-19.4589,-69.7566,56.6981,74.2911,2.6237,-26.1557,-62.6476,37.8297,87.0325,-10.6102
40.8198,44.2233,73.1562,51.3755,53.8814,35.8646,70.2986,-29.1507,-29.7854,-13.2689,-68.3654,71.3848,66.8672,21.4726,-6.8768,-72.5616,32.3908,41.0254,-41.0413
7.1726,26.4562,39.3033,28.5977,16.8991,20.9929,69.7455,-52.1369,27.9669,-10.2972,-38.3754,103.9724,59.5039,49.2539,59.3506,-73.0491,14.4646,13.9535,-58.8193
-2.5104,53.5905,17.1971,12.7174,4.1298,2.5647,44.7452,-72.4962,54.2386,-36.1629,8.7152,146.6264,39.0064,61.2064,61.4456,-58.8477,26.3909,-5.8452,-80.6007
44.3190,101.6332,19.7020,5.5652,-18.8175,0.7289,9.7064,-63.8796,5.1118,-45.9981,7.8291,161.7917,15.2036,69.1301,-0.3171,-67.5872,65.8359,-10.7460,-83.6373
74.5732,117.9550,26.1872,0.9580,-38.7536,14.8411,11.2755,-52.3773,-31.7760,-14.3694,-58.5102,155.2882,13.4356,69.5294,-11.4016,-101.5168,80.9232,-4.8400,-46.2893
50.9054,119.3840,12.9963,-6.9730,-23.7531,6.7750,22.7866,-63.0849,-24.5730,-1.2484,-116.4009,162.5517,23.1392,47.7790,25.1379,-114.7041,66.7803,-1.1369,-11.2661
33.6200,143.1984,5.0288,-5.3227,3.7910,-10.5553,-0.7728,-54.7934,-33.9811,-15.9792,-91.5218,163.2831,5.0998,18.7222,17.2784,-97.2591,71.3992,8.4572,1.7260
46.0798,149.4645,15.8433,1.0073,-1.9119,-7.5304,-38.3584,-7.2086,-56.0093,13.2343,-19.7587,117.4926,-36.1768,3.9256,-22.1789,-75.6455,98.4053,10.1293,25.9023
41.7278,101.1812,9.7702,-14.1799,-36.6410,-21.1547,-53.6824,29.2044,-40.9471,78.1125,10.1608,54.6613,-63.6022,-4.5385,-33.9834,-48.4930,106.3308,-20.4722,47.4216
18.6253,55.0382,-17.7615,-46.5977,-57.2713,-68.9846,-47.2620,37.4932,2.4077,93.4705,2.1702,30.8919,-78.5648,-22.1619,-29.5906,-6.5472,90.9678,-48.6324,31.3276
15.4973,49.5281,-34.0346,-70.1935,-53.1549,-95.0807,-30.1283,59.1549,50.2196,66.7543,10.2564,37.5165,-93.2203,-33.8117,-19.1864,39.3811,73.6552,-46.1143,9.3231
21.4864,29.2684,-42.4275,-78.5806,-55.4053,-80.2197,-8.5357,93.4027,90.6301,68.6455,8.9549,31.5736,-84.7342,-12.8879,8.4215,89.2837,49.5076,-50.0800,8.9510
6.6945,-20.7342,-51.9805,-70.4599,-69.9795,-57.4216,7.5312,97.1392,89.9948,77.6088,-32.5883,17.5926,-53.6913,23.5594,18.1985,136.9289,19.0956,-59.0492,-0.9998
-16.0718,-26.0988,-40.2667,-43.5055,-68.6154,-28.1881,13.2137,68.9092,53.6351,39.7650,-60.2210,25.3708,-46.7199,32.9101,-5.5927,142.9275,7.7991,-32.0225,-27.3112
-26.2252,24.8580,-17.7763,-20.7532,-57.4811,5.8699,10.4823,39.4520,44.8812,-1.3493,-50.8534,45.9600,-76.3646,25.2319,-9.8195,102.0187,20.4771,-7.3306,-39.5948
-24.3066,48.2483,-21.9248,-25.9533,-69.1489,14.3398,-4.0787,20.8082,73.4477,5.5245,-56.1918,62.3421,-106.1139,40.3945,17.4631,74.1551,30.3047,-30.4282,-38.5504
-16.2903,12.9990,-40.8388,-43.6670,-90.7957,7.9890,-29.1639,16.2753,92.2048,16.8064,-75.2097,90.9367,-117.7961,64.1886,22.3182,89.7542,11.7424,-48.9352,-42.2803
-17.9405,-26.4576,-49.2815,-45.0459,-89.5969,23.8697,-45.6621,27.6228,97.2158,-7.0418,-57.3974,124.7043,-120.0576,70.4911,-4.6985,106.0575,-30.3535,-27.0071,-53.9198
-46.0247,-42.7120,-62.2898,-26.2290,-77.6453,52.7926,-36.3301,35.5998,99.1634,-32.9730,-11.8980,114.6759,-117.8204,83.2918,-21.3930,94.0332,-63.5036,-4.5133,-75.6618
-90.9446,-61.7091,-82.6546,-1.7556,-76.5488,72.4714,-6.5356,22.7639,78.0284,-36.5612,10.3716,64.4354,-109.7414,106.6070,-13.8128,83.1521,-80.7046,8.9078,-89.0779
-130.6790,-87.5093,-81.5234,16.4923,-68.5244,87.4882,32.2231,5.5707,53.5715,-30.2599,-24.6539,38.2391,-86.6525,104.0743,-3.1272,90.0246,-111.4783,30.9323,-57.8203
-152.4667,-85.0984,-53.6535,29.9450,-32.5488,99.1737,77.6407,0.9521,64.6982,-24.9666,-115.7528,47.7828,-47.4604,88.2439,-11.9511,75.7352,-138.1629,52.7460,-2.1164
-148.8501,-40.3057,-21.5544,51.6066,21.1435,107.2821,112.6935,-7.7419,70.1059,-38.5983,-189.4492,51.0524,-20.3552,97.4582,-44.3734,15.1532,-103.4942,87.7836,14.4507
-129.0809,10.6585,1.2761,85.7067,67.7240,120.4824,111.6353,-33.0874,18.8383,-75.9068,-163.6421,46.7127,-21.0008,111.1337,-78.8356,-46.2359,-41.7999,143.0369,-11.5058
-116.6757,28.7650,16.9083,110.0440,86.6230,129.4437,91.5346,-52.3064,-50.3307,-97.1490,-86.0745,53.0611,-26.3260,103.6872,-102.2599,-57.9418,-36.7857,155.6421,-27.7088
-107.6916,24.1867,33.0362,99.1083,77.1523,124.1268,86.7343,-43.2530,-94.8094,-91.1763,-63.2024,52.0432,-29.8487,99.4032,-126.2281,-36.9152,-51.6091,104.5691,-19.4571
-80.4994,29.6109,46.5108,66.2968,58.0406,119.5631,83.0007,-15.3672,-130.5641,-104.2913,-87.5064,39.5470,-45.0817,110.5095,-139.4224,-18.0472,-7.6921,63.5443,-23.8291
-43.5212,42.3552,41.8363,48.1147,36.0570,117.5127,62.7514,8.2576,-156.5117,-136.6461,-86.8834,45.2634,-47.8724,123.1409,-115.0169,4.5623,45.8982,51.1419,-60.3707
-13.1820,36.9888,23.5679,43.8762,6.1684,103.5867,52.3857,16.1924,-154.9624,-140.4703,-49.1436,65.1906,-16.2448,137.7700,-78.1995,30.1875,39.9970,20.3850,-89.6618
11.9665,17.9620,11.3446,29.8601,-17.4436,92.9904,49.4515,18.2241,-153.6479,-127.4865,1.4416,68.6088,12.9581,150.1293,-79.8961,18.3813,18.3207,-0.0306,-66.9392
20.8968,12.4601,0.8927,23.4588,-19.8521,105.0977,16.4700,27.3866,-170.8137,-135.7657,42.1294,59.7604,14.1725,145.9895,-114.4076,-40.5165,23.4450,36.8057,-23.4901
5.4010,21.1539,-13.2239,42.5976,-18.2971,114.7905,-18.9683,27.1500,-168.6436,-142.7041,47.2423,50.1296,13.6236,120.6450,-130.8513,-86.6658,20.5441,71.2650,-25.8720
-7.4388,20.3926,-15.8726,42.7790,-32.2210,89.5114,-6.7636,0.8089,-134.3834,-121.2784,25.6097,21.9640,20.9663,60.9381,-104.4064,-74.2749,0.1130,41.6166,-60.4039
-4.3563,6.7566,-13.6061,1.7844,-48.8419,45.3874,14.4333,-14.0518,-113.5111,-91.7436,16.4100,-23.5914,23.8016,-20.7751,-64.0269,-42.6562,-1.8317,-4.7709,-66.1211
-6.3362,-7.8818,-22.7240,-25.8069,-50.3013,22.9896,-1.9547,12.8128,-130.5780,-67.6332,24.9317,-52.5463,30.1534,-54.4549,-54.1681,-46.9325,9.8316,-14.5745,-54.3750
-13.4917,-33.7448,-23.5231,-27.1169,-45.6054,17.7115,-14.6767,28.2751,-151.6136,-43.2280,33.2233,-53.9414,41.6335,-27.9461,-64.5035,-60.4385,-7.7536,-16.2718,-67.1742
-25.0335,-79.8043,-12.8675,-55.2297,-53.7782,-15.3449,13.8535,-8.4327,-135.3231,-24.7504,38.1573,-45.0602,46.7614,-26.8500,-41.4055,-27.7822,-73.6998,-43.8199,-78.2107
-73.9332,-119.1609,-33.1419,-99.0970,-69.4084,-65.4870,53.5529,-38.5368,-90.9886,-11.5044,29.5788,-36.4066,53.1806,-64.2562,1.7503,23.4664,-159.1093,-74.8324,-47.4234
-136.7781,-135.0813,-80.7514,-105.3487,-66.2261,-66.8351,70.3270,-15.3008,-67.8102,13.4817,2.1124,-39.6677,55.0097,-66.6106,-7.4266,29.3292,-206.0652,-82.2486,3.8732
-126.7276,-146.9191,-99.2286,-94.0399,-44.3525,-34.0024,54.6253,17.0771,-77.1182,49.3702,-11.7333,-66.4960,24.7196,-52.1388,-57.0031,-0.8593,-195.3809,-78.8236,32.5855
-54.7249,-145.5843,-86.0591,-97.9986,-38.3445,-43.0573,10.5595,19.3058,-75.7934,66.5861,9.6509,-90.0553,-16.4951,-79.9586,-68.2110,-24.5189,-166.8537,-78.1208,20.2924
-19.7977,-97.9480,-76.9724,-90.7703,-54.2277,-61.7037,-39.7414,3.7449,-60.5406,36.7438,35.7090,-68.7560,-25.0551,-97.1064,-50.6125,-42.9755,-134.4982,-63.2108,-22.0105
-19.5154,-34.6138,-56.8387,-63.1422,-55.7747,-11.1371,-83.8872,-18.4498,-82.8841,-23.4944,34.7412,-17.6869,-20.5180,-57.7267,-70.6233,-63.1157,-72.5424,-28.5629,-56.2797
18.4827,-15.9686,-3.1544,-38.7420,-32.6237,52.3838,-123.1507,-35.8643,-133.0525,-54.5273,14.2103,6.1064,-34.8746,-34.2276,-106.9294,-63.9862,-13.3316,-2.4113,-59.8147
59.9921,-36.4373,44.7554,-17.0265,-13.6672,44.7610,-126.8260,-31.1277,-139.4517,-36.2044,-0.9474,-21.3467,-46.8795,-66.9455,-94.8532,-32.3682,-26.3636,2.3022,-56.7449
37.6190,-61.2635,43.8387,-2.8718,-11.2343,16.0746,-75.7839,-19.2567,-103.4983,-19.7796,15.0050,-76.5701,-32.9938,-96.5788,-53.5505,15.5428,-85.0532,6.2456,-62.2338
9.8312,-74.3464,18.1515,-8.0327,-11.7587,29.1405,-29.5880,-22.4671,-100.3279,-35.7031,76.5465,-117.7439,0.6151,-95.6888,-49.7921,29.5690,-95.9401,21.2259,-59.6909
50.3596,-47.0834,16.4781,-0.7353,-6.8527,51.4176,-39.4011,-30.2893,-144.6884,-54.9421,151.1194,-108.7114,34.6064,-98.6215,-86.6573,-29.3245,-52.4810,36.3400,-57.7104
101.7095,16.0830,32.4907,29.6852,1.3948,48.6078,-66.5684,-36.5547,-164.6001,-61.0208,166.3491,-58.9374,39.8526,-119.1941,-101.0241,-99.7540,-26.3419,38.5590,-74.0239
94.4931,44.4466,25.7362,32.9810,5.0256,24.1879,-69.8058,-53.0428,-118.8761,-68.4575,102.3914,-26.7519,16.9179,-141.1705,-62.1286,-95.6931,-28.7541,25.2577,-87.5782
75.0058,33.5605,10.6959,8.9901,-0.4714,-12.1378,-75.3927,-79.4730,-71.5684,-87.0353,42.6862,-36.9243,9.3958,-147.8769,-26.3459,-71.7256,-0.7258,13.6440,-91.6883
98.5740,67.2829,34.6075,10.8930,-2.5774,-30.3904,-113.2380,-113.6193,-93.7417,-118.6755,51.9057,-47.8393,19.5789,-137.7188,-44.3850,-113.7304,65.1970,19.7815,-115.2167
125.0058,134.4819,70.8705,27.1644,4.3849,-19.6647,-158.8212,-146.9566,-132.5816,-146.6232,55.1917,-36.2023,1.3125,-130.0246,-68.1642,-156.1841,102.9743,23.7379,-144.9450
106.0828,144.8896,58.4723,21.6009,-0.7790,-17.8007,-170.5815,-148.3800,-99.2223,-144.7151,-20.7747,-25.1846,-38.3124,-126.3338,-40.1962,-131.2611,91.8667,7.4900,-140.8923
71.8223,120.9981,17.8888,11.8900,-30.0846,-28.8515,-155.5805,-122.2399,-41.8599,-129.6613,-80.3045,-15.3379,-57.4596,-101.1211,8.7588,-106.2139,87.1807,-5.8910,-122.9902
67.6113,132.8770,-6.6898,-3.5531,-69.2109,-25.8032,-156.0778,-115.2421,-47.6498,-128.4705,-34.6084,8.5724,-68.8865,-66.1791,35.7060,-111.2022,109.6993,-13.4948,-125.8969
80.9639,139.7285,-34.6161,-54.8633,-105.0342,-35.6075,-166.7343,-120.3231,-61.9457,-115.0687,5.5627,23.4442,-93.0483,-56.6974,48.7428,-92.7500,113.8734,-52.4134,-129.7218
71.1630,99.1147,-73.2134,-110.9652,-129.1207,-77.8470,-144.6881,-101.4418,-19.6840,-79.3433,-57.7944,14.0892,-101.9831,-56.1682,53.9821,-72.2036,76.7639,-109.2602,-122.2454
32.7574,68.8894,-90.8035,-125.7037,-136.4643,-105.4127,-106.9697,-89.9041,10.7221,-66.8263,-114.1335,10.1009,-82.8285,-45.7646,46.8078,-89.8534,29.4727,-122.7744,-123.2403
0.0315,72.1844,-98.5066,-118.0532,-141.7561,-103.2846,-92.3686,-106.7475,0.0170,-73.7493,-71.0396,10.8270,-60.1124,-62.0715,45.8227,-93.5853,1.5222,-96.4769,-113.8114
-13.9668,47.1489,-116.9198,-116.2953,-152.9638,-103.0446,-66.7086,-99.0766,28.9915,-50.9379,-22.7368,-21.5143,-41.9565,-104.5134,68.5443,-57.6298,-12.9907,-89.6117,-65.4776
-44.7170,-19.5828,-122.3418,-121.3441,-147.7679,-97.5234,-12.0327,-72.6409,85.6696,-22.2225,-33.9055,-64.5331,-26.6739,-111.1787,107.5172,-25.7885,-39.5550,-112.0818,-19.0501
-100.7891,-69.1033,-123.2358,-140.1367,-126.7572,-82.5300,5.0651,-105.7433,72.2750,-37.3024,-23.1646,-65.5373,-23.8798,-85.3074,127.0238,-4.0998,-81.3507,-131.8056,-19.8929
-119.3100,-73.7069,-150.0710,-167.6409,-123.4521,-87.0256,-27.6642,-174.3399,4.1257,-69.7505,39.2552,-56.7758,-20.9473,-87.6237,75.3246,9.2714,-100.1397,-141.1293,-34.6504
-71.2669,-66.2647,-158.7542,-178.8629,-126.8530,-84.8946,-32.4492,-174.3866,-46.1143,-82.4552,57.2211,-98.3455,3.6863,-107.1036,-21.6704,-7.1636,-81.4683,-141.9799,-23.8970
-31.2066,-89.1064,-118.2603,-173.1032,-98.9930,-30.5994,4.6684,-106.9357,-78.7190,-83.9093,-10.4172,-155.1363,28.0953,-94.2808,-43.1660,-13.6247,-77.8284,-125.9314,-9.8493
-57.0917,-140.5593,-100.6659,-167.0543,-67.4765,37.2734,22.6658,-53.6910,-83.6777,-72.1097,-78.6152,-160.6606,20.2561,-67.3274,35.8596,30.7550,-118.1222,-108.9714,-7.6726
-106.0914,-166.8014,-136.2571,-168.3650,-79.2437,70.7214,12.4658,-32.1632,-32.4891,-37.4729,-93.1363,-125.4664,-1.3568,-63.6692,92.0476,72.6851,-153.4549,-116.6745,9.5560
-132.4166,-134.1671,-153.2771,-181.5149,-100.0168,88.6885,21.6367,-6.8065,8.4453,-3.1848,-115.4938,-81.9349,2.9110,-59.7555,81.7092,77.9240,-143.4903,-126.7360,44.9620
-144.2156,-86.7278,-130.1794,-188.8506,-74.1485,104.3025,75.5872,32.8533,-23.4567,10.4357,-184.4501,-26.6863,34.4583,-17.0156,85.3022,80.7462,-107.1562,-106.4487,70.4722
-144.4664,-78.8706,-110.0506,-163.1853,-24.9698,109.6983,142.1139,71.1058,-55.4641,7.3689,-226.8008,17.4812,59.0707,48.1431,97.1095,75.8913,-79.5364,-81.8074,81.6875
-125.4114,-90.3658,-90.5530,-128.3970,-2.4259,120.2280,154.0999,86.9308,-24.2824,-6.5790,-195.8124,7.5861,57.7376,83.6094,48.4537,49.4455,-77.8888,-78.7556,82.7661
-92.3151,-64.5076,-55.4974,-118.1690,0.6685,125.1589,103.6240,66.4511,3.5946,-13.7022,-149.1687,-22.7733,52.8266,73.9378,-9.1699,38.9796,-83.7849,-62.7807,54.9599
-37.1794,4.4076,-20.9810,-105.1100,14.8859,85.0643,62.1972,23.9352,-31.9216,4.8606,-107.0589,-0.8210,57.5330,62.2332,-8.8416,39.4205,-56.3935,-24.9515,2.8698
39.3754,62.9973,14.2756,-71.7041,38.2336,21.8626,42.0266,-5.1754,-90.5607,30.2770,-16.4677,56.9085,40.1666,77.5047,-18.3834,9.1143,-1.7544,-17.2740,-34.0389
92.2878,64.6507,52.1303,-54.8928,51.5148,-13.8714,-11.6017,-4.8083,-123.3244,36.6701,92.4111,74.2648,-4.3153,85.9620,-80.9407,-25.3693,34.3190,-36.9575,-53.1612
105.5316,26.9428,67.8414,-53.8712,51.0725,-34.7137,-64.9225,1.3576,-138.0649,32.8501,119.8197,46.0539,-21.1744,61.5942,-114.2983,-26.8471,56.6293,-20.2863,-84.2684
125.2516,14.1856,75.8731,-26.4865,50.0214,-64.2247,-51.3767,-20.8598,-160.6470,32.1741,74.1426,31.9501,7.1132,36.3331,-95.9456,-11.7614,92.2319,27.9230,-111.8556
158.0257,57.3516,108.8102,21.1866,58.1810,-74.0537,-18.1389,-68.9935,-185.0420,30.7382,58.7587,52.2065,32.2807,37.8794,-110.1884,7.4797,116.0355,52.5495,-98.4960
159.9381,110.5207,130.8442,56.7456,62.0575,-46.6569,-12.8310,-100.1404,-169.5018,26.4218,117.9209,72.3978,35.7138,55.0204,-157.3369,15.3170,110.8690,52.5416,-59.8890
135.5642,107.9312,104.5487,69.3603,40.3031,-14.6163,-4.0237,-76.3694,-82.5640,21.6713,201.4965,68.4318,34.3892,67.2560,-153.8409,-9.4128,100.6446,43.1543,-31.0598
119.1441,51.3046,65.6656,47.6572,11.0184,-4.2055,-35.0651,-2.9202,62.1779,22.0848,232.1199,51.4642,14.3735,47.0863,-110.4823,-20.5904,85.1328,17.4696,-1.9994
100.8269,2.5129,41.7436,7.7922,16.9784,-5.5451,-163.6066,66.8149,214.9138,38.6972,182.8954,35.2622,-32.1092,-13.2388,-84.9932,17.4860,56.8221,3.2730,44.4688
57.2100,-12.5152,18.5351,9.2842,43.5480,-7.4546,-236.0806,72.3507,304.3171,68.8539,107.7864,16.6875,-62.2544,-49.7115,-29.2481,35.1247,31.0482,27.5447,85.2947
-12.6931,-32.2919,2.2343,58.3814,34.4962,-17.2069,-79.5399,28.7933,292.7044,94.7065,57.7737,-0.7790,-42.2606,-4.2274,104.1493,5.1821,-11.9603,49.5240,99.5742
-95.6866,-76.1377,1.7696,93.1715,3.4298,-37.1169,163.9734,26.3035,242.8247,108.0059,12.7637,-0.3827,10.4425,63.2828,214.9921,9.0159,-90.5174,41.3345,106.5935
-148.3371,-107.6896,5.0606,102.5247,13.9858,-47.4610,235.3205,93.5304,234.1563,107.4688,-35.9943,12.4390,52.6189,65.5241,201.8954,57.0476,-137.7480,42.8355,126.0949
-128.6637,-100.8087,25.5767,136.8284,56.1965,-31.1228,145.1028,143.6913,231.1176,89.4572,-44.5998,13.7533,54.1347,25.2153,126.7611,70.9802,-106.4285,74.8757,139.4376
-72.1971,-68.4516,71.9851,206.3524,74.8228,0.7404,79.7077,116.2306,165.8877,57.9740,-15.8206,9.9565,38.0696,7.0307,89.2473,33.2053,-55.4570,112.0289,121.6689
-43.9711,-26.8487,101.6344,270.4107,80.2789,26.8081,84.5061,70.3711,77.7113,20.5646,-4.1125,21.5992,48.1628,11.1455,79.8903,-23.2853,-21.9198,139.4520,87.9586
-39.6749,6.6970,100.5531,301.3124,100.1536,38.7888,75.6260,83.2080,33.6125,-12.3306,-10.8390,31.1551,60.8711,16.6112,59.0751,-72.0060,22.2564,152.1422,70.4620
-22.5861,14.7059,107.8849,307.5659,100.7806,39.6878,33.7358,140.8597,21.0243,-20.4672,2.5773,20.1659,32.4956,27.7178,37.8411,-81.7660,68.8373,147.6975,65.4585
9.6331,20.5424,119.2320,311.6212,62.7745,38.1442,0.8326,172.0229,7.8119,-3.3667,36.4564,14.2614,1.3362,38.3455,19.0702,-61.8696,96.7671,140.3849,43.7463
42.9202,64.2162,101.8377,315.3377,24.0957,32.6878,-18.3104,144.5434,-12.9757,6.9077,66.6873,23.6181,9.0981,35.1092,-21.2006,-50.8906,123.1849,129.1193,1.8772
60.4262,121.3123,76.4675,305.4503,-0.6451,8.8203,-24.8296,94.9517,-53.0879,-7.9423,75.3656,15.1556,18.4059,32.3044,-68.3829,-30.4380,140.9037,102.9931,-31.2862
46.9624,126.5225,66.6412,294.4330,-23.4075,-21.6663,10.4673,64.9846,-106.0690,-36.7857,46.7867,-15.8724,11.9048,42.3707,-71.5982,4.8830,123.5021,90.7116,-34.8362
19.7796,77.5484,52.9938,301.0852,-22.5688,-24.8217,69.4961,53.7273,-137.3428,-66.8543,-5.0974,-40.1150,22.2042,44.7580,-24.6984,-11.8580,87.1653,111.8403,-19.8178
8.6940,38.1059,39.7053,306.9820,15.0831,-10.8965,81.0909,50.3511,-141.4145,-86.3640,-29.3569,-56.0779,36.4943,23.6417,11.6797,-76.0106,56.0981,128.8359,-10.7157
11.1395,39.0245,55.3986,297.1263,51.8266,-17.3996,38.9980,48.9416,-142.7226,-92.0266,-10.4820,-71.9689,29.4826,-5.6976,-8.6576,-103.3313,40.9190,128.8445,-12.4958
14.8375,43.1456,87.0677,291.7002,61.5336,-29.4083,7.2242,30.1672,-142.3844,-94.5238,5.3072,-76.1194,32.1925,-29.7295,-53.1938,-95.3540,54.2057,142.3451,-8.5713
17.6710,19.9265,100.6546,290.8828,56.7509,-15.7430,8.2334,0.1818,-119.0122,-77.1446,0.2625,-81.2862,58.2299,-55.2567,-64.7179,-90.1828,57.9431,147.7033,3.6621
9.8625,-5.4748,85.9934,267.9973,44.2069,-3.5955,14.5224,-2.4756,-68.0341,-17.8328,20.7532,-110.4597,71.2089,-79.1588,-43.7401,-56.9931,3.7246,101.9811,6.2285
-0.8858,-14.4623,54.0552,228.2498,27.5291,-22.8272,14.3493,16.5567,-22.1728,34.7858,67.9503,-131.2575,55.4593,-78.3181,-22.0546,-5.6352,-50.1473,39.5889,2.2290
9.6702,-47.4079,34.6107,192.8919,21.9390,-45.6838,17.0117,30.8579,-23.0161,30.2224,63.5151,-112.4996,22.1498,-51.8654,2.0248,-0.6106,-48.0733,6.9176,15.5228
15.9597,-128.6738,40.4466,153.9682,22.5966,-39.0333,29.6639,70.6627,-49.3914,12.5596,0.1601,-97.4387,-12.1981,-33.7020,36.6605,-20.2813,-61.3822,-18.5181,40.0716
-22.5473,-196.9060,31.5288,104.3749,8.4046,-5.3982,43.8099,135.9567,-35.3255,19.9631,-21.9948,-116.5724,-19.1401,-35.4526,55.7010,-6.4951,-118.8117,-53.8605,41.8856
-66.9066,-188.2324,-10.5070,64.3234,-17.9996,32.0158,44.1113,142.6911,5.9315,11.3843,18.1244,-122.0107,-0.0814,-23.3551,38.1193,26.2463,-132.2348,-69.5561,15.7071
-58.5893,-134.1389,-34.9557,50.0504,-36.7823,41.8121,44.9268,84.6823,1.5218,-18.8010,34.6838,-88.4316,6.9610,16.9013,5.6560,58.8816,-92.2702,-63.0052,-3.5776
-19.2202,-107.5133,-21.5137,52.6175,-39.8465,19.3099,64.0891,64.1480,-25.6633,-21.4864,14.6739,-60.4788,-1.9000,47.1055,-3.5316,91.2924,-72.4191,-62.1288,7.2181
3.3281,-117.7798,-11.9950,51.2387,-30.7706,7.3829,65.6434,95.2462,4.5262,-6.3453,3.2452,-55.8561,-3.5306,39.5384,21.2889,84.4507,-66.9263,-57.4296,24.6352
0.6078,-117.1081,-13.9996,38.9535,-14.7151,28.1451,35.6555,95.9642,62.4060,-14.6172,-14.5215,-45.1294,5.6538,16.4575,51.0689,29.8514,-54.1257,-30.4308,13.4585
-26.6194,-88.7020,-6.6785,29.7528,2.1362,41.1927,40.4066,59.3382,66.4847,-27.6147,-19.0994,-33.4237,28.7985,7.5668,53.0306,1.7613,-68.9332,-18.8877,-11.8589
-66.2783,-73.1112,-7.2116,24.0327,8.4541,19.9240,82.4603,37.2578,44.6344,-8.2881,59.0660,-45.9537,50.2203,18.0857,32.8521,49.6152,-88.3618,-57.1581,-3.5413
-76.4439,-91.1315,-23.0325,0.7921,-7.0009,-5.2947,72.8121,27.6711,67.9661,36.3931,146.2928,-55.6354,30.1790,37.1758,17.0344,125.6146,-61.2825,-96.3319,31.8960
-46.1989,-98.8081,-26.4172,-28.2549,-32.1017,-7.6372,30.0105,0.2528,109.9651,62.9970,112.9728,-22.4936,1.0824,44.6849,13.4589,135.2710,-30.0800,-76.9436,40.5229
-20.1564,-63.7051,-17.9102,-26.2111,-35.8514,5.5425,50.2431,-43.7843,109.9161,34.2796,33.0324,29.3381,29.3747,30.7979,18.9243,42.1228,-33.6176,-26.9118,25.7039
-24.4275,-20.8210,-11.3991,-6.2241,-16.5339,22.2774,92.6911,-70.2441,88.0407,-10.9566,29.3393,45.7623,66.4680,18.2059,28.2924,-54.7181,-31.5264,-4.8488,36.4929
-31.8515,-4.1629,5.7223,-7.9332,0.6039,36.9191,69.5717,-45.6517,89.9071,8.0086,39.6555,21.7110,42.9228,29.3502,24.6837,-40.7010,-12.5054,-14.4997,59.4835
-10.4038,-0.5548,25.0050,-23.0339,13.4291,44.6217,26.9158,-5.0005,93.4578,63.5112,7.6468,-3.4921,15.4747,46.3321,5.0196,21.2975,0.3914,-33.1539,45.7728
29.6035,-0.2166,22.0501,-31.1620,25.0197,45.1429,22.9983,-22.0445,66.0019,57.7386,6.3669,-6.5109,29.8044,45.6248,-11.4039,9.9863,16.7604,-45.4279,15.4810
41.7498,-9.5431,14.6878,-43.3023,14.1388,41.9425,26.9520,-72.4871,45.9600,13.7597,31.9455,1.3066,33.9416,37.4224,-21.4111,-30.8550,24.0740,-35.6403,16.5255
7.9841,-15.0967,16.0849,-57.2766,-13.7599,34.5047,30.7687,-76.0148,65.4612,16.9788,8.3891,7.1063,23.3379,31.6277,-24.6488,-21.8244,-3.0344,-15.1063,30.7304
-20.9657,-2.5479,2.4594,-58.5650,-16.8838,20.0160,48.1108,-57.4389,71.7645,37.4086,-29.2874,17.8638,36.7570,15.2516,-2.1580,-17.1416,-15.6681,-11.4517,22.1874
-3.9498,15.9456,-11.5056,-62.0048,6.5197,5.4040,46.7671,-71.6736,34.9726,15.0166,-30.9475,37.6900,46.6324,-9.8656,28.9534,-49.7974,15.9404,-8.0561,8.6534
16.7389,27.4027,5.0923,-71.7226,17.2101,4.0528,33.1879,-74.8116,17.9083,-15.9901,-38.5003,50.3068,38.9083,-20.9371,25.8422,-58.6764,19.4062,13.8116,10.8438
2.2228,31.9353,17.5804,-58.8444,8.6057,12.2444,52.9849,-42.5936,42.8956,-22.0165,-48.6404,46.4644,51.5599,-14.6635,9.9531,-52.8164,-23.5179,20.1658,10.3849
-4.6904,28.6986,2.6888,-31.0565,2.7736,13.9838,71.6713,-32.7325,47.3937,-25.2879,-12.6466,39.8132,63.1453,-5.2296,24.7255,-75.5617,-26.1272,4.9959,0.3492
26.1497,23.1514,2.2368,-31.7499,3.1230,13.1804,39.1969,-41.8152,27.1880,-30.7834,27.3054,37.0490,33.0967,7.6758,44.2083,-63.9250,26.4609,7.0611,-2.5697
53.8685,33.4378,11.4737,-60.1265,0.2345,15.5769,-3.9398,-20.2523,33.2526,-31.3038,24.3075,30.8127,-2.1027,24.8666,40.7746,8.6661,61.9581,8.2108,-9.7655
60.9114,65.7352,-16.8370,-83.0321,-11.6170,0.8070,-24.1126,-1.4788,38.2506,-38.7267,24.5177,30.1792,-18.6544,30.4893,33.9683,29.1752,69.8546,-19.8415,-37.0771
72.6351,95.3600,-50.4076,-93.5138,-29.3744,-22.3295,-48.7769,-17.0860,4.3166,-45.5173,46.2232,52.7580,-49.9506,29.7095,17.7333,-30.4946,82.9236,-24.3429,-41.1173
70.0907,91.4167,-41.2707,-97.5442,-34.8152,-4.3760,-66.4182,-13.6306,-6.9814,-30.7661,40.9059,91.1759,-86.0161,56.4130,-12.5548,-43.7309,78.5298,10.4825,15.3955
27.3376,66.0411,-27.9530,-98.4757,-18.9481,38.3302,-40.2262,19.3034,38.1135,-0.6313,2.8354,128.7764,-83.4198,105.6049,-14.4354,14.9984,38.4299,8.2181,73.0683
0.3211,65.6501,-32.7754,-108.3056,-1.1209,32.0431,-6.6776,24.3573,59.1557,28.9482,-29.9507,161.7576,-52.8957,122.2888,-5.7364,38.3259,15.6337,-36.0647,66.1667
36.0498,92.5457,-12.4707,-122.3574,5.1193,-8.9101,-23.0052,10.0081,10.5462,49.9764,-31.0026,173.9781,-37.5323,92.6141,-55.8210,21.8126,42.3681,-43.9094,34.6744
78.2922,100.2213,23.6235,-114.2158,12.2883,-5.8322,-70.5508,23.4630,-50.7489,59.7562,13.0682,138.8058,-52.4224,64.8473,-125.9664,41.0629,64.9331,-8.8465,35.3592
79.5517,80.2712,26.8669,-87.4762,31.2353,33.8900,-95.4369,41.6414,-79.7749,69.9029,64.0284,69.1281,-71.3677,53.8272,-134.5126,64.4432,36.4106,23.2984,41.5004
72.7943,59.1971,16.3241,-74.0548,55.0685,50.4417,-92.1446,28.2740,-77.3076,85.2356,42.8554,15.2538,-60.9218,26.4631,-108.0954,35.5743,-9.4576,43.5310,26.9482
67.4709,34.3858,22.1514,-78.9671,66.7322,44.5553,-94.5506,2.6371,-42.0914,91.9826,-40.8425,4.8287,-39.1281,-12.4847,-78.3603,0.3370,-25.2726,45.4892,21.6940
39.6372,13.2401,19.7335,-86.2723,52.8097,31.3765,-105.2804,-19.7349,-1.0314,91.8315,-91.3092,19.3445,-40.2679,-35.4004,-19.9417,-9.7662,-13.4933,27.2529,21.2115
24.5942,32.9020,4.0433,-92.8111,24.4420,-9.2205,-91.0388,-45.6735,-11.0988,85.6971,-84.8112,27.0019,-32.7502,-58.6669,20.0803,-24.9851,10.9932,20.5914,-11.7340
50.7603,72.7625,2.9129,-96.4695,6.1213,-63.3470,-56.0894,-54.1260,-65.7280,54.0685,-80.8970,20.3295,0.5827,-88.3702,-14.0891,-27.2393,40.4096,24.4898,-45.0745
56.2221,77.2545,6.4495,-91.6205,-0.2630,-84.4136,-43.2759,-23.7123,-95.7377,20.7928,-97.1123,16.6279,-4.3763,-84.7343,-48.8859,-4.9289,53.7858,8.5939,-27.0457
14.9206,66.2028,-4.7892,-84.4782,-0.3216,-77.8841,-56.5379,18.4823,-86.5271,38.5704,-92.1662,25.4034,-43.9451,-59.5924,-32.8551,-25.3897,53.1784,-6.1403,9.5218
-2.4726,73.6162,-11.0253,-80.3836,13.2297,-79.3310,-66.7234,41.8324,-86.8318,87.3412,-55.5742,36.8086,-32.4474,-76.9452,-30.5776,-84.1196,70.3153,-2.7461,22.2166
16.0163,56.4507,-4.4439,-79.3193,24.0511,-84.5892,-71.4902,54.3814,-91.5804,119.5902,-49.4650,41.3163,0.6581,-119.6203,-39.6774,-83.6690,91.4158,-21.9797,41.4103
5.5330,-3.0461,-11.9641,-93.6184,-1.4191,-86.9950,-80.0383,62.9989,-34.5932,149.4093,-124.1842,30.5941,-27.9098,-115.2382,6.7180,-27.9367,72.5661,-65.8595,74.2168
-22.7324,-35.6242,-40.5732,-123.6712,-51.5354,-113.3533,-89.7009,54.7602,75.2311,176.1485,-198.9400,1.3889,-64.5591,-79.0952,52.7349,3.6442,34.4164,-82.4105,60.5147
-12.9991,-6.4483,-64.1818,-132.6042,-83.5673,-154.0105,-108.1616,37.2904,131.5219,154.2566,-140.3308,-16.7386,-49.1894,-70.1342,18.4216,8.8507,28.7789,-62.1983,-1.1841
8.4795,35.3998,-59.0674,-98.4614,-82.2177,-147.2672,-138.4287,34.4451,84.4254,100.9332,20.1373,4.1126,-44.3707,-69.5718,-27.5489,3.5645,47.8342,-27.7733,-36.0667
0.9416,47.6700,-28.1342,-52.2677,-52.5997,-82.7067,-159.5916,40.6307,1.8173,70.3265,126.6572,32.3548,-72.3635,-37.4242,-17.3001,-19.0758,57.9776,14.2008,-33.9524
-8.9352,37.1230,-1.4727,-24.8800,-6.5611,-24.6208,-157.2504,34.0488,-51.2507,49.5474,141.3486,33.2833,-70.1438,1.4873,-5.4617,-18.8011,51.1525,47.7489,-52.6619
-8.1423,25.8450,4.7025,-12.6426,27.9847,-10.3990,-129.3650,17.5648,-73.3007,19.8738,124.0314,27.4139,-35.2678,14.1883,-10.6080,15.8634,26.8914,57.5002,-86.7317
-23.3306,20.1388,17.7280,-10.4347,41.9581,-16.6445,-84.2269,6.9144,-61.7460,14.6145,71.2463,22.6127,-10.5679,10.0509,25.2817,33.8125,1.5505,52.6083,-84.1726
-45.0813,7.6666,46.3592,-21.5035,53.3013,-22.2560,-57.6037,5.5850,-17.9164,36.2899,0.4094,-2.1553,1.7905,2.9166,82.0668,53.2130,-3.7463,35.1562,-62.2342
-48.8586,-11.1477,40.9634,-40.6253,52.3669,-26.4305,-58.5286,9.9349,8.4203,46.7162,8.4057,-17.1570,13.4708,-0.4830,92.3111,99.8503,-16.8052,10.1024,-65.4060
-50.3208,-19.8615,-11.6908,-59.9016,25.0703,-25.7783,-32.1087,16.7880,-2.9661,48.3972,80.7956,12.2975,31.3245,13.5249,83.8555,105.3423,-61.4629,4.6952,-65.8050
-62.2243,-28.9242,-44.6447,-71.0442,7.3072,-23.2459,33.3690,27.2112,2.5679,68.3761,92.9610,39.0699,52.8632,41.1801,105.9492,88.6749,-91.6997,14.1096,-27.6718
-64.2450,-49.7876,-30.6615,-64.8592,18.4065,-23.5291,63.5729,44.3596,38.8901,97.8794,57.4953,27.5573,55.2422,57.8682,115.5494,154.0448,-77.7611,10.0212,13.3445
-45.8794,-47.8731,-24.3645,-49.3446,18.5917,-15.4487,33.3715,55.1252,52.9567,107.7738,79.2970,22.1517,46.1034,56.2543,78.6188,223.9594,-56.9002,9.5153,24.6391
-25.6947,-12.9212,-44.0161,-40.0899,-2.9491,-1.5553,3.1723,40.5490,51.4209,85.4976,123.7549,35.8476,52.4435,52.9254,50.6708,170.4180,-41.0261,30.9423,27.1393
-24.6622,7.1249,-46.7858,-32.9179,-14.0916,-4.7831,-1.2528,12.5744,79.2649,43.6741,113.1325,29.7935,48.9311,62.0919,63.1763,81.4732,-5.4639,46.0414,25.7572
-37.9572,10.2296,-25.4180,-21.5888,-16.9956,-16.7596,-4.5701,-3.3354,90.6003,3.8615,95.2153,17.3439,20.9843,81.5959,66.7770,48.9714,36.8904,48.3385,2.5419
-34.9157,40.9079,-7.0384,-11.4672,-21.4083,-9.6118,-12.8578,-6.5367,29.7759,-30.6616,99.2606,29.8085,7.7818,96.6565,35.1822,25.1044,67.3779,60.1450,-18.7853
-3.6874,79.2261,8.4585,1.4442,-7.2981,4.3791,-20.8696,-5.2940,-39.6985,-63.8450,53.6255,37.9632,1.5103,97.3402,8.6550,35.9963,98.0307,68.3028,-14.3260
26.2176,84.0240,18.6957,13.4273,8.7571,2.4693,-24.8278,-5.0504,-55.9881,-84.7987,-29.5238,21.8797,-23.0980,92.6656,13.7991,107.7745,122.0149,58.9951,-22.8235
35.7327,83.6247,-0.1303,2.3321,-9.0976,-2.2752,-13.2649,-13.4491,-65.5315,-89.5904,-40.3061,13.0036,-22.2018,98.8070,23.2890,112.7728,122.2278,52.2794,-66.0891
35.6108,98.0017,-34.3022,-19.7736,-27.5088,-3.4737,4.8443,-9.2924,-93.5576,-83.4139,23.7419,19.8694,3.2867,122.8093,6.4033,39.3329,104.6967,47.7524,-89.6821
27.9052,91.6817,-45.4452,-17.6388,-8.2460,-12.9272,6.0615,34.5825,-92.6854,-62.6019,70.6944,22.5594,-10.7596,157.7585,-26.4579,35.7371,69.4315,35.0125,-68.0860
25.7007,69.2664,-42.7677,-5.4869,7.9992,-14.9309,-6.2523,71.0865,-73.0160,-50.3177,97.5669,21.0355,-32.3663,175.2825,-43.4778,69.1572,25.8228,35.5430,-71.3555
62.7810,78.0049,-55.9387,-10.8109,-13.0482,-1.3214,-23.3325,36.0677,-99.1315,-88.3191,165.9531,16.7092,-6.9300,146.4533,-42.9064,29.6233,15.0625,48.2168,-150.2897
114.8781,112.8546,-73.1395,-14.2513,-40.1880,-6.2621,-50.5719,-29.5200,-161.7226,-146.0386,248.2733,8.8318,8.7419,89.0734,-57.9991,4.6383,36.5291,38.6361,-240.5494
114.8390,125.2339,-74.7816,-11.9052,-52.6588,-36.2194,-72.9989,-48.7285,-198.1415,-145.0691,247.7631,12.6806,-7.3537,48.9449,-95.1160,42.5071,35.2897,12.3821,-257.4666
71.7977,89.1049,-75.4215,-35.8314,-64.0341,-60.1970,-73.0674,-29.8070,-191.5324,-82.7970,151.3880,15.2694,1.9327,33.0889,-114.1359,30.9540,-3.4574,-5.5515,-216.8184
41.7001,17.3655,-86.6989,-73.6715,-72.8040,-83.9665,-68.0891,-12.0451,-161.9180,-19.5684,60.2813,-18.3849,11.1649,17.8394,-97.3845,-17.5293,-57.0011,-24.2665,-182.3605
16.0913,-45.4898,-92.5263,-90.4920,-68.6274,-120.6311,-69.1245,-4.4934,-127.7505,9.6420,42.0652,-59.0218,-16.2514,2.8459,-71.9459,-17.1289,-116.6498,-44.4101,-158.6181
-26.9886,-65.3912,-84.7281,-97.8896,-56.7330,-133.0518,-64.5178,-20.9643,-104.1615,-6.9571,38.0682,-48.5844,-19.2865,4.7782,-49.4056,-30.4201,-148.3897,-47.6229,-122.3275
-53.6822,-67.6708,-76.5796,-103.7217,-47.9705,-101.2732,-57.5485,-59.2579,-91.1105,-62.3854,-16.8229,-10.2291,1.3925,22.8094,-22.9967,-83.3638,-121.9573,-44.9130,-92.1256
-49.5668,-91.2567,-73.6920,-89.9846,-52.4120,-66.5384,-48.6224,-78.8979,-78.4869,-109.4865,-79.0326,1.9934,-20.1026,40.7000,-9.0683,-83.9779,-92.4380,-46.2823,-77.7036
-45.3618,-119.1183,-66.0289,-74.0520,-64.0070,-59.0818,-25.6056,-71.8854,-65.5387,-110.5016,-99.5294,0.7239,-33.8835,42.2533,-12.7331,-63.6455,-104.3094,-28.8117,-44.2041
-46.5544,-114.7502,-49.7862,-72.1704,-54.5990,-62.4251,-8.1052,-67.0909,-49.9178,-81.4792,-132.1771,8.3176,14.9627,24.3694,-9.8418,-116.8314,-100.8380,7.5719,2.4133
-45.1620,-82.8519,-32.9657,-51.2383,-19.3361,-52.5446,-20.7683,-63.6859,-34.2267,-59.0795,-216.2195,1.7374,55.1097,8.3536,-12.1730,-184.9075,-54.0785,32.5171,7.9539
-53.5847,-53.8648,-19.3476,-13.9711,9.0803,-31.8327,-39.8325,-56.0823,-39.2130,-63.4248,-260.0755,-21.5636,60.5125,12.1905,-44.3628,-183.2933,-29.6844,35.0819,-21.9079
-65.4076,-45.4558,-12.1489,-19.7451,9.1059,-35.9354,-42.4522,-59.2706,-52.3710,-73.9826,-178.6485,-31.9101,73.2782,10.8780,-58.9276,-131.3592,-49.8824,8.5634,-32.2585
-62.2640,-49.4120,-28.9170,-76.1098,-19.0005,-84.5570,-46.2973,-59.5596,-21.2480,-43.1986,-53.8642,-37.7063,54.1129,-29.6386,-9.8584,-59.2731,-60.8914,-57.4612,-18.3826
-55.8367,-46.6377,-75.6081,-131.3612,-67.4076,-136.7066,-56.5633,-37.1546,43.9412,19.5137,-22.0089,-66.3253,-8.4332,-87.3358,46.0967,3.7280,-48.1859,-125.5903,-5.7383
-51.0152,-39.1451,-115.5337,-155.5195,-100.1901,-158.6233,-57.3571,-11.6350,66.7726,49.1841,-72.2931,-95.7558,-21.4874,-109.2563,48.0962,17.5061,-41.3937,-138.1195,7.5086
-29.0799,-44.6898,-109.4428,-147.6312,-82.3575,-170.6137,-57.1866,7.4916,28.0175,40.3014,-93.2649,-93.2980,14.2261,-94.4234,27.2491,9.6224,-40.6952,-107.4926,17.6998
-1.6966,-58.7754,-73.3983,-123.8032,-44.4232,-170.8791,-72.8653,24.5185,-28.8109,33.4134,-60.3544,-84.0383,12.5168,-90.5055,14.8383,28.9696,-30.1006,-93.0464,13.3024
6.5931,-63.7032,-53.6542,-113.2437,-34.2569,-137.8828,-94.0350,17.9846,-74.5838,24.7956,-37.1876,-107.6158,-4.2418,-112.0829,-6.5374,62.4692,-18.7702,-104.1666,21.9304
4.1964,-66.5690,-62.4461,-115.6615,-38.6411,-111.0422,-94.1331,7.7098,-80.1777,21.1947,-46.7744,-148.7309,10.9170,-128.3664,-17.2997,96.7859,-32.9680,-102.6493,65.6476
-7.0664,-85.5981,-73.5553,-108.9004,-28.8002,-118.8354,-60.3422,54.0815,-25.9029,57.8317,-63.5213,-166.2394,16.6653,-123.6873,23.9087,132.1203,-78.7678,-76.9046,106.1816
-31.7740,-112.7923,-62.8477,-97.7079,-10.2859,-109.5764,-17.5938,117.4272,36.1127,91.6970,-71.6006,-154.7355,9.6422,-106.2020,83.2199,132.7488,-118.7392,-51.8843,111.3802
-32.3924,-123.4306,-35.1861,-85.6106,10.0821,-74.3647,-1.9548,104.1378,50.8000,64.9903,-60.0522,-139.9212,34.3403,-79.4018,101.6686,84.7853,-115.4607,-40.7800,106.6934
7.9415,-111.3694,-16.1867,-58.4592,27.2848,-68.6426,-4.6422,44.5748,45.3560,31.7192,-23.5269,-137.9908,68.2924,-55.6431,93.8795,28.2343,-85.0479,-32.6793,112.5368
39.0894,-89.7618,-10.9539,-34.2292,25.7218,-72.8669,-0.3049,17.5684,38.6079,35.4295,25.9373,-138.6219,80.2456,-55.5470,88.7942,-1.0491,-57.8817,-23.3859,106.9091
45.8375,-64.0279,4.8553,-35.2652,17.1510,-47.1313,-2.8998,4.2528,-6.0490,24.6020,89.7515,-117.2175,86.3971,-64.0696,58.1613,12.4873,-26.0274,-23.6008,82.3321
63.6039,-35.5843,27.4443,-39.7751,27.1649,-48.1246,-16.0872,-17.5353,-71.5883,0.9205,165.1727,-68.6206,88.3759,-47.7854,-0.9517,41.8766,17.4592,-37.1457,71.1264
69.7107,-20.4238,17.3082,-41.1733,36.2929,-94.0665,-2.9503,-12.7372,-99.3656,11.6860,201.1014,-25.0813,93.9547,-15.7123,-24.6745,22.7553,47.4850,-54.0504,83.1079
33.0592,-17.3627,-18.6456,-58.8608,18.2105,-96.1557,28.0377,2.7974,-99.2227,12.0170,173.0152,-12.1441,129.1518,4.6900,3.1173,-24.7384,52.2473,-61.8748,82.3823
14.4861,1.2231,-25.5963,-68.4773,-4.7608,-47.1294,24.8849,-8.2297,-92.6319,-24.6443,137.1147,-7.1325,154.8663,17.8543,25.6250,-14.5983,40.7290,-55.4396,61.3944
48.6698,16.6471,-4.6454,-45.6880,-10.4071,-32.5006,2.0080,-2.5042,-48.0038,-17.8643,125.2454,13.0527,121.5129,32.0965,29.7744,30.4449,9.9192,-38.7904,65.0115
63.7974,-18.2482,-6.7143,-22.7903,-4.5933,-40.7780,6.1109,48.5475,15.0093,31.8221,111.8799,21.1936,74.9011,36.9622,44.1461,40.8464,-27.2343,-17.5302,99.3006
33.0838,-58.2933,-22.3855,-13.9318,13.2864,-15.0494,9.7711,79.9445,20.9895,27.8276,101.1671,-7.0399,57.0172,28.8230,52.0724,44.9366,-26.5979,2.1401,109.0686
16.1147,-28.1650,-6.8933,-1.9123,31.2417,-0.7720,-23.6088,57.9149,-7.0526,-5.4559,99.4718,-37.1398,32.8280,6.8253,44.9464,57.0482,14.3325,6.6147,84.2135
14.7414,13.3903,11.7836,-5.3025,16.3382,-38.2362,-46.8274,35.3076,25.1055,20.1940,71.4488,-33.7116,4.1541,-33.8790,70.1070,38.2983,27.7146,-7.1483,70.6215
-16.2419,-21.0250,-15.9012,-29.5642,-17.9303,-67.4549,-14.3110,40.1866,105.5911,62.3283,24.3432,-24.3469,17.4942,-73.1353,121.3700,31.2827,-22.0170,-17.2004,68.2820
-52.1592,-66.0679,-49.0369,-31.9513,-19.2421,-58.8419,26.1758,39.4622,143.0141,53.7594,-0.5076,-44.2799,48.4468,-84.8897,124.7091,70.4799,-66.3058,-14.6037,48.0092
-48.7079,-35.6307,-23.8230,-16.9647,11.5198,-64.4575,18.6339,12.3259,124.0625,36.2817,-20.9445,-66.8718,36.5901,-83.6546,76.6907,82.4413,-38.3728,-22.6109,26.0418
-25.0290,17.8622,24.2193,-32.4467,26.2889,-101.8144,-4.5059,-20.1716,103.5140,40.3351,-43.3473,-49.4598,-6.8527,-86.6693,37.5270,66.8277,14.0929,-46.4254,15.4590
-10.0696,32.8654,23.1048,-67.7065,9.0582,-127.3089,5.4278,-28.5736,97.9843,31.0163,-13.4714,-3.7439,-26.3203,-72.0107,19.1589,97.6065,16.1186,-61.3375,-6.4909
-3.7359,36.4462,-15.1523,-85.3638,-20.9536,-117.1692,18.4658,-15.3907,85.0284,18.0730,45.8920,32.6767,-8.4481,-31.0875,7.9957,117.3546,-8.9739,-65.5413,-29.1672
-2.7145,43.5908,-35.4710,-87.1373,-46.0289,-94.9130,-4.8071,-14.4334,61.3965,38.9732,37.1730,49.6011,7.9711,1.4558,7.5939,60.0229,0.9034,-78.0055,-21.4544
5.1811,39.2388,-29.9049,-78.9535,-55.8148,-93.4516,-21.2651,-36.7224,48.0087,66.9453,-42.2598,42.5460,-8.7607,-2.4528,3.3902,16.4080,39.7973,-93.5230,-6.0296
27.8312,39.5934,-18.6882,-66.0676,-51.3124,-113.4658,11.2162,-55.4598,59.2202,62.4588,-111.4892,-5.0267,-38.6693,-38.2744,-10.8519,28.2629,65.9998,-92.5328,-16.0233
34.8800,47.0938,-13.3398,-70.8054,-44.7659,-128.4214,41.2549,-64.3510,90.0500,43.1284,-128.2849,-72.4628,-46.9432,-80.0617,-5.1093,15.5195,61.1564,-73.9302,-37.6466
3.0293,30.2013,-25.5670,-87.3676,-44.6456,-133.3294,21.8341,-83.8136,123.6891,35.2489,-107.9672,-100.5991,-35.9663,-91.0286,19.5258,-11.9695,25.9683,-56.9488,-53.7205
-37.0029,-1.5875,-45.8820,-86.3688,-48.8309,-137.5178,-6.5693,-102.3920,141.7907,32.7089,-103.0703,-77.4848,-21.1086,-60.8513,35.8796,5.5665,-12.1019,-58.5162,-59.4785
-50.7998,-11.6416,-35.7951,-69.2492,-43.5569,-119.4788,-7.9247,-92.2101,130.4364,29.0732,-132.8212,-54.7324,-6.7326,-28.8423,56.2822,21.4743,-21.4039,-61.0800,-45.5072
-44.0765,-10.9102,3.1513,-48.1738,-18.5587,-73.2046,-2.4017,-69.0011,89.3803,30.5491,-121.0969,-55.7907,-5.0689,-28.8153,79.7802,1.2318,-25.5382,-32.3630,-28.0547
-39.3615,-27.1227,23.2957,-23.9863,6.1613,-46.8637,2.9054,-59.5319,45.8726,36.9589,-47.2413,-52.4109,-15.2202,-43.5842,75.0376,-0.5443,-57.3013,7.4078,-26.8851
-56.5801,-51.2330,20.7051,-8.4306,5.3010,-52.1853,25.6261,-43.7587,42.1111,45.6747,-36.7968,-46.2176,-12.9797,-43.6486,79.0438,35.2943,-90.7107,13.1795,-9.6461
-95.7401,-69.6012,24.4181,-5.0789,-7.4097,-39.3877,60.9759,-0.3308,86.7489,54.5018,-115.1951,-72.7701,-1.5691,-24.1253,141.2711,77.3064,-104.8899,-0.7776,41.0065
-120.9326,-92.7671,16.3632,-11.1633,-13.2873,-11.5921,87.1832,30.0149,130.9595,42.6022,-132.2576,-113.6940,1.0456,0.6941,199.2856,93.5461,-119.7785,-10.0287,63.2583
-107.2055,-124.8051,-20.8259,-51.2479,-27.0804,-23.9462,85.8442,-6.1919,125.5599,-11.1750,-63.3005,-113.9759,10.3646,0.6012,193.6895,37.8559,-122.6509,-43.8365,18.8510
-81.1249,-139.6402,-43.5017,-112.7343,-51.4734,-69.4120,50.8877,-89.1814,96.1287,-81.2774,-39.9676,-82.9858,26.7179,-43.1926,181.4356,-74.8555,-86.9832,-94.4423,-35.5063
-72.4509,-108.8900,-28.4942,-119.4472,-61.6384,-100.4666,10.7939,-149.7968,104.8715,-122.6994,-80.4006,-63.2740,17.8709,-90.4219,198.7923,-138.8871,-46.3288,-92.6240,-46.5066
-76.3382,-48.0112,-12.9471,-66.1561,-51.7057,-107.4869,2.9196,-159.6153,142.8102,-138.2790,-116.0332,-34.1833,5.6177,-76.5023,198.0171,-125.5325,-29.9358,-39.0461,-28.6848
-82.8992,-11.4356,-7.3641,-31.5053,-25.8017,-89.9666,23.4230,-137.1755,146.1401,-148.2027,-149.0111,26.0530,41.7822,-7.3921,174.5611,-106.9511,-12.5551,-1.6591,-9.1515
-90.4115,-28.5700,13.1233,-24.4525,18.7916,-49.9004,54.3094,-89.0339,108.3270,-131.6864,-170.5409,57.5194,99.1359,50.3919,165.3615,-81.0234,6.4286,11.6236,8.3085
-90.0863,-65.7121,39.5942,-1.8629,56.8870,-23.8828,90.6672,-17.0715,72.1661,-77.8238,-132.5427,28.4136,123.7052,75.6175,153.5116,-6.3358,2.1520,29.5671,30.6481
-73.5479,-67.9440,54.3106,16.0641,61.5242,-22.0915,111.0440,41.1898,39.6746,-25.4488,-57.0196,10.3839,130.4816,100.5719,121.5187,51.6099,-10.8212,38.0743,59.7145
-47.5101,-28.1157,69.3097,6.8526,55.7351,-6.6920,100.5614,54.4315,-3.5882,3.9078,7.0277,41.0270,148.2345,125.4282,107.7637,27.1659,-17.9521,26.3276,79.3218
-29.5359,5.1627,82.6703,3.5638,62.2366,15.3832,89.2459,48.8782,-29.6414,24.0123,55.0769,67.8425,174.0328,128.4093,130.1174,-17.5083,-30.0004,17.8862,75.7363
-31.7508,0.5582,75.4298,14.6806,66.3877,10.1578,99.7511,56.3457,-20.5691,31.2403,73.6762,80.2431,210.8091,134.9474,153.8184,-19.9836,-32.2346,24.2591,69.8903
-43.9582,-6.2487,58.3974,21.2592,69.3491,10.9966,117.2246,59.7547,2.9903,26.7863,48.7889,118.1263,251.2011,167.2827,161.4871,-21.4524,-12.0941,43.1613,86.5805
-47.1723,22.4122,53.3933,35.1240,82.6713,50.0833,136.8276,39.5160,37.7890,39.2454,3.6948,154.4293,266.9442,176.9302,178.1683,-56.7962,-0.5957,71.5851,108.1737
-43.6857,61.5247,59.3296,60.8982,88.1306,83.3834,151.8214,16.3491,75.9386,63.0270,-33.6692,136.1584,266.5052,134.1990,212.6638,-80.2196,-1.8952,90.9982,107.6410
-40.6395,77.7800,72.1134,79.1381,84.1770,87.9748,126.6044,13.7746,66.9191,71.4764,-14.8190,90.0171,273.9325,97.0947,225.0173,-55.9777,22.6075,92.4757,96.9200
-29.2193,80.6382,89.4392,93.2178,95.2370,95.4955,69.0406,26.9076,9.8344,88.6697,96.1078,69.1722,268.3532,100.7268,190.1069,-22.0735,63.5592,94.7605,96.9577
-10.9464,86.2214,98.1140,110.4846,109.9140,104.0622,39.2359,38.7238,-16.5863,129.7999,206.7646,71.7617,246.7064,102.0384,150.7022,-18.4724,75.9757,106.5457,95.1522
6.0612,101.2051,98.5853,119.6814,109.5604,100.2675,40.0230,35.6705,8.8844,143.6443,209.8693,66.8566,258.2117,88.3103,142.6291,-22.3763,63.7654,121.3951,72.3575
33.9963,129.5707,109.0320,126.4001,111.2806,109.3006,29.2531,22.5725,25.7931,113.8971,165.5277,42.0734,298.8416,98.0273,135.2811,0.6359,61.4277,139.6526,46.8824
70.4934,146.3815,127.2525,141.2620,117.1619,129.8839,23.5203,29.2760,21.3648,93.8569,152.3519,22.3671,304.0507,125.3006,118.4954,39.8697,77.5740,152.5072,49.7019
84.8864,121.4005,136.0767,151.1939,119.3802,132.7381,49.3468,66.4881,23.2647,96.8223,131.5336,43.2377,270.2215,136.7854,129.9854,74.2003,90.0147,148.0451,70.2348
79.0377,75.6400,140.1225,150.9155,144.6811,132.7424,63.5174,100.2395,12.5511,93.7321,103.2769,85.3815,246.2865,147.5542,152.4175,107.2549,71.7767,140.6879,79.8740
81.7133,46.8408,154.7854,149.0605,187.9418,145.1655,42.5987,115.1194,-18.5983,98.8182,115.7822,96.8482,237.5352,171.5588,141.5691,138.1193,36.3667,143.5462,85.5613
87.8326,44.4208,172.8127,144.0807,192.4472,141.7776,38.2015,138.4820,-26.3310,130.0124,126.6862,83.9324,223.0049,166.1740,130.7415,143.4819,37.0074,144.2727,96.6061
92.0747,77.3207,172.9402,143.0690,159.1385,121.6641,59.7611,163.5470,-6.2881,147.4492,108.2576,86.0507,198.3602,111.3853,150.7739,112.3384,90.1013,140.2198,89.0758
118.6025,140.0228,156.0103,159.4971,136.8185,112.7194,48.5225,152.3091,7.3191,118.8046,110.8585,102.1092,152.4733,67.0887,157.5991,75.1766,154.5498,145.9409,62.8440
154.4319,183.5006,142.1109,179.3702,120.4878,112.1796,6.9417,131.8973,30.7179,76.8235,112.0915,122.0368,89.1447,85.5192,146.1545,71.8666,196.4274,160.8928,55.3439
159.2110,183.1366,124.8902,180.5845,90.2333,120.4798,-2.4960,153.8949,85.6598,69.5261,79.2146,144.4568,59.5103,130.5246,165.7576,96.7566,203.9466,163.1270,62.3230
146.8952,171.6615,76.3198,158.7921,57.7266,143.6010,21.8079,175.0702,125.8407,95.2551,91.0299,145.6428,88.0741,140.8374,195.9735,118.1603,177.6081,130.3135,46.1490
151.3410,173.8600,14.3695,123.2806,13.9992,140.3090,37.5919,126.5418,113.2100,106.9383,161.0352,129.8610,125.4450,121.6828,186.2520,132.3503,159.4344,79.0137,17.5731
167.3627,195.5389,-6.8371,107.1762,-41.1700,98.9781,40.3716,47.0457,77.3971,76.7734,203.8851,139.4202,133.2611,110.0897,158.2192,128.0332,185.1486,66.5651,-3.8382
192.0219,236.8703,9.4999,131.6526,-60.2144,90.4653,29.1856,12.5022,41.6174,24.1906,249.5200,157.4410,135.4510,107.3399,131.1285,65.5329,212.9681,101.7027,-51.2887
230.4908,256.3204,13.0527,150.8255,-42.3910,130.0472,-10.9432,18.0554,-13.4445,-34.5181,344.4938,141.3715,153.2011,110.9859,71.6183,-22.9235,202.1126,118.2093,-128.3937
252.1686,216.9366,0.9150,127.4615,-42.0825,145.1359,-44.8819,23.0669,-91.2149,-95.6168,381.6087,120.8405,161.4842,129.4089,-14.6340,-47.2929,180.5666,99.4100,-169.3101
