Fp1,Fp2,F3,F4,C3,C4,P3,P4,O1,O2,F7,F8,T7,T8,P7,P8,Fz,Cz,Pz
14.7328,-15.6615,-18.8443,39.8288,-20.9593,52.6644,-2.3814,54.2052,-61.9224,52.5564,-10.3815,77.4881,24.9286,25.0264,-28.8836,40.8003,39.2608,-1.9191,19.1429
-25.1680,90.0000,-22.9396,-139.7043,-95.9583,-23.1209,-75.3093,-77.9949,-160.4074,-410.3477,12.8430,-80.0455,43.8206,-116.8371,-97.6635,-117.5401,-10.9117,15.6918,24.9917
-75.8091,187.3102,-46.6874,-186.6582,-83.4497,-77.4786,-22.4224,-126.7746,-79.2375,-529.2557,-13.5185,-113.0330,53.1716,-148.1331,-19.3030,-182.7486,-91.7064,55.0351,41.8628
-129.6034,142.5704,-104.9787,-79.9134,29.6583,-62.7149,103.4765,-70.8140,189.7495,-252.6899,-92.3399,-58.1639,56.9960,-110.8079,157.9683,-145.6989,-151.0118,87.9514,47.4821
-165.0303,-8.5607,-154.0319,-28.1728,81.6218,-50.1074,127.9393,-43.7698,379.2494,-105.6652,-126.5011,-108.1109,47.7709,-138.7059,208.7838,-125.3221,-169.0087,103.3613,40.0032
-141.3259,-58.8146,-134.2811,-110.7922,28.7608,-84.0595,55.2997,-67.9798,352.9839,-143.9038,-56.8274,-206.0132,16.8041,-230.0710,97.1207,-119.6859,-138.7540,99.4385,15.4641
-64.0246,66.0097,-58.2034,-232.6976,-7.8870,-131.8809,1.5902,-66.9644,247.3683,-86.5305,58.8262,-205.7224,-22.4128,-284.0534,-15.3641,-77.6938,-75.8898,55.4462,-14.3424
16.2761,169.7639,22.7906,-269.0898,10.8877,-156.4682,-30.3931,-56.0171,174.1229,-19.9644,125.7535,-183.4091,-51.8855,-237.7066,-67.2312,-44.5523,-22.3120,-16.2334,-13.3582
60.9029,87.0883,86.5222,-152.0197,21.6152,-126.3331,-79.5899,-87.4773,104.4898,-95.9501,91.4207,-197.2788,-69.1250,-123.4012,-108.0000,-56.7017,23.9288,-53.8453,2.8214
52.1036,-57.2757,124.3988,2.1344,0.8140,-50.7595,-116.6447,-146.3396,29.4939,-200.8073,-12.4079,-134.2144,-88.0731,-42.0989,-129.7050,-84.5235,82.1295,-38.2524,-25.9781
8.2871,-54.6328,137.4144,11.0987,-32.9433,-7.7962,-133.1245,-202.5969,-22.4054,-272.5108,-66.8579,-26.1923,-123.0701,-56.8736,-111.0057,-119.9282,105.8127,-2.4547,-88.4811
-6.9062,65.2534,147.0634,-65.9555,-51.0070,-23.5190,-159.8951,-225.9217,-69.3319,-323.3878,-8.1279,-55.5881,-154.2935,-137.0406,-95.1713,-158.1744,65.4347,53.2883,-114.9777
25.1111,96.3352,141.1528,-79.3972,-31.2127,-32.7561,-176.5667,-180.7827,-117.5896,-290.6378,48.7609,-192.9819,-137.9899,-214.0150,-100.9818,-158.6803,12.9809,122.3748,-93.0625
27.2020,-25.4277,83.4060,-86.1842,-5.4662,-24.9219,-143.9194,-100.4153,-108.4375,-221.6143,-22.9559,-255.9936,-75.3110,-215.7581,-78.8585,-123.6654,-36.1100,125.4359,-58.0631
-56.9989,-147.1810,11.2164,-128.6657,-4.9820,-45.9501,-79.5873,-57.2749,-10.5189,-213.1875,-151.8809,-226.8416,-20.9323,-108.9740,-0.9422,-109.0574,-108.5820,32.9033,-26.5252
-168.8394,-147.8102,-8.2000,-94.3304,3.1329,-72.0811,-26.5581,-57.1819,113.0195,-194.8945,-186.8893,-195.9827,-5.4351,6.9529,90.7406,-125.5966,-158.7348,-43.4911,-16.7216
-204.7615,-66.1396,0.8047,-26.6397,22.8260,-67.3669,-8.7806,-75.0551,168.3958,-136.2554,-107.3211,-176.9503,0.1230,-19.2377,136.2080,-125.6160,-148.3566,-12.7248,-51.9176
-131.6857,37.9681,-11.9303,-77.2383,16.2021,-68.4525,-24.3082,-107.1270,125.0056,-123.4256,2.8260,-156.3654,27.5883,-161.3567,123.8368,-91.5061,-133.2908,55.3271,-105.0038
-30.5308,114.6970,-24.1546,-147.7732,9.2017,-84.2138,-41.4327,-124.7979,39.8286,-113.9321,53.9324,-147.9256,51.1479,-230.4522,99.3479,-72.3926,-132.6826,43.1020,-117.6948
-20.5256,62.1810,-24.9694,-67.1075,19.9468,-58.9827,-35.2355,-104.1585,-7.3233,-67.1307,-6.7586,-146.7213,17.7383,-135.2400,107.3513,-99.0336,-109.1318,-58.5000,-81.7477
-106.6060,-90.8265,-54.8943,65.8673,-13.7531,9.4141,-26.6154,-80.6604,0.8375,-103.3500,-114.1274,-144.2900,-57.3100,16.8480,141.4797,-109.4618,-93.2983,-154.4195,-47.7789
-165.3028,-117.8184,-98.3920,66.2642,-82.6671,52.8745,-42.1723,-70.6797,14.9932,-195.0960,-114.0708,-153.1359,-91.3610,85.5272,159.6306,-58.7735,-108.1795,-155.8112,-59.5254
-123.4136,23.3042,-94.2544,-62.9436,-95.3923,30.4799,-67.2540,-40.3116,-13.5540,-155.2909,14.5536,-172.9977,-58.6001,63.9096,128.6970,-23.9727,-94.8331,-79.2129,-105.6140
-45.0108,78.9130,-59.0248,-187.2906,-58.4070,-36.2423,-68.2953,0.8597,-78.5438,-24.0630,112.0396,-186.0612,-14.9518,33.6593,70.6108,-41.2129,-67.6783,-29.3052,-133.2886
-16.5245,-43.9772,-64.0615,-195.2534,-30.5191,-93.1177,-35.4182,8.3149,-116.3873,26.3691,73.5679,-182.3619,11.1137,15.7719,59.3504,-7.9104,-104.8839,-62.5486,-103.6536
-55.0435,-153.1554,-122.4831,-116.3368,-0.7609,-104.1179,2.2702,-10.3238,-72.1876,6.0092,-36.0863,-167.9508,26.9340,-21.3280,115.7425,79.4068,-157.9152,-117.9304,-34.0308
-120.8915,-136.7845,-183.2374,-100.7211,24.0480,-93.3894,10.1141,-23.5933,15.9316,-22.4978,-96.0193,-158.7749,12.7721,-56.5046,151.7492,71.0532,-147.2788,-114.8752,13.7807
-145.8008,-37.4537,-193.0512,-195.3037,7.9004,-104.0327,0.4971,-33.1044,50.4581,-79.0501,-40.2452,-157.2338,-20.5020,-67.6059,102.1389,-33.1976,-127.4380,-52.9218,-0.7123
-98.4315,84.4546,-138.4283,-267.9791,-10.8182,-125.0419,4.3509,-45.8968,9.5867,-144.1490,61.5291,-155.6803,-7.8622,-92.9903,24.0846,-81.0569,-133.6339,9.8552,-35.5669
-47.2625,116.2646,-65.6020,-213.6006,0.5898,-114.1799,9.3277,-51.0066,-23.9166,-172.8189,39.4707,-165.8815,40.4538,-118.5108,-7.1571,-58.8136,-104.3723,15.1679,-12.1553
-74.7675,19.2412,-48.8681,-79.7898,-4.2699,-72.5046,2.5189,-41.9099,13.2996,-170.1782,-107.3931,-176.9130,34.6443,-81.3819,8.2378,-39.6916,-59.5016,-56.9414,59.6397
-137.5727,-37.1825,-108.0806,-3.7370,-40.0762,-49.3032,6.7976,-34.6527,80.3563,-137.2462,-134.1217,-136.1281,-31.3417,-37.7578,34.6784,-5.9144,-65.2066,-152.1679,76.8603
-111.6994,19.7987,-167.2959,-70.4592,-77.4229,-74.4797,2.9335,-51.8699,94.1578,-77.4624,64.2067,-64.6520,-81.6715,-90.4358,34.6123,27.3693,-62.4223,-176.4230,-9.5933
26.3305,45.2031,-127.4464,-166.8916,-111.7785,-107.9096,-57.2105,-82.2016,38.2596,-30.7169,258.1099,-51.7272,-96.9405,-187.9791,-9.4295,-16.6851,4.6424,-118.9256,-128.2841
148.7361,44.5912,2.0797,-115.6583,-117.4863,-88.9363,-121.0927,-94.8354,-19.9173,-26.0332,242.9926,-72.8609,-93.3819,-210.1137,-49.4783,-98.0773,47.0905,-75.8543,-181.3760
133.5080,141.4916,94.9096,12.4759,-68.9281,-30.5532,-89.3412,-99.6194,-22.6713,-72.7615,89.2821,-44.3490,-45.1844,-138.5043,-28.8513,-130.2207,7.0374,-93.1428,-141.3152
24.0082,208.7861,81.8245,24.1997,-16.1059,-0.0786,3.5263,-110.2199,-3.6239,-143.5237,-31.3804,-32.9514,44.5002,-31.9394,10.1912,-123.5242,-29.4179,-87.6355,-68.9443
-22.5859,86.4142,49.0392,-39.9794,11.9637,-13.5179,34.8573,-89.3312,-43.7609,-156.2870,-13.5030,-123.1233,100.8843,20.4322,-19.5388,-88.1639,10.8564,0.5285,-55.2562
61.5296,-76.7528,87.7681,-35.9101,56.9287,-25.1591,-13.2446,-36.8367,-150.5503,-105.1284,115.6892,-205.3457,94.0291,-51.9515,-105.1184,-30.8877,84.7678,99.4858,-101.9052
162.6246,-100.5630,155.4552,9.5498,113.4811,-5.4029,-42.4824,-17.4784,-207.5300,-81.0494,164.9720,-168.2610,84.9010,-176.2047,-130.4769,-34.9655,97.3268,125.1095,-99.5476
124.2572,-29.4983,160.5235,21.7889,146.9458,30.1971,15.0810,-24.8344,-90.2380,-75.9770,10.9357,-87.8930,101.3797,-195.2000,-20.8470,-91.7733,-3.3731,89.4220,11.9751
-50.4436,37.0042,87.0504,-4.9022,168.0653,47.9576,115.1925,1.8744,143.8937,-18.3205,-170.8043,-52.9286,92.5052,-105.8845,146.2891,-68.5742,-149.3917,48.7321,145.4755
-186.9319,34.1661,1.5224,-72.7549,158.3455,30.3105,159.5418,34.4915,273.6949,54.0961,-165.1012,-59.0740,49.3836,-62.7525,215.5882,11.6957,-194.2941,44.9094,189.7965
-153.1129,-66.9171,-9.3991,-111.8461,98.5996,0.7533,115.1071,29.1416,198.3872,109.1288,-33.0791,-114.8179,33.6258,-139.9469,146.1186,13.7954,-93.1411,83.5069,143.1067
-18.7691,-169.4292,65.9779,-13.3267,64.9438,2.9252,45.2882,25.1601,71.8638,168.4700,55.8501,-206.6561,46.5640,-222.7211,50.2290,-25.9839,38.8325,104.9181,86.0248
63.7530,-145.6219,132.6983,132.0060,88.3078,41.9339,17.9616,21.8092,56.8582,136.6144,53.6946,-229.1227,25.2556,-156.8009,28.0466,-23.0930,84.3026,50.0489,75.9716
53.7243,-3.0623,118.7869,125.8105,84.1539,64.2162,35.3476,-37.8186,113.1908,-46.6809,-6.8011,-123.0006,-11.8604,17.7627,63.0624,-22.7906,46.3434,-27.5837,78.0280
18.4710,160.3128,77.7327,-17.2130,50.1131,14.3761,51.3585,-114.7628,120.7213,-195.6662,-35.8973,26.8570,10.5855,81.9810,73.2448,-24.0659,5.5901,-24.1954,14.9181
30.6373,221.3685,90.1286,-117.9864,64.4047,-78.1555,19.6835,-136.3855,45.1316,-182.5629,67.9123,94.3913,70.3285,-32.2879,-2.9547,18.7321,20.3288,63.0308,-100.5347
115.2292,119.6540,156.5426,-78.7844,103.2302,-107.6263,-46.7740,-135.8657,-66.4550,-144.6819,229.5914,31.3988,87.5487,-136.6147,-125.1010,11.2197,69.1305,144.4841,-163.7541
212.1897,6.9352,225.4142,58.0131,112.0192,-34.4744,-80.8465,-151.2287,-133.3642,-178.4148,254.9977,-80.2997,54.9596,-117.6099,-169.0238,-91.2006,91.8260,151.5748,-126.0411
219.2964,52.9747,235.4579,146.4274,103.7315,49.4382,-70.2274,-145.7466,-109.7859,-224.6385,131.7068,-89.5524,-1.0767,-68.2720,-104.8500,-130.2726,80.1232,95.4518,-33.7102
135.4812,148.2252,154.9649,66.2238,67.4362,59.7201,-70.5994,-109.3782,-58.7463,-260.1834,23.9071,33.4991,-70.9391,-44.0109,-48.6733,-60.9661,69.9960,50.2712,58.4031
61.3162,147.3779,44.9505,-96.1282,2.7385,22.3049,-84.1582,-71.5079,-67.7556,-271.5802,18.2404,150.5602,-111.4242,-26.0503,-66.7020,-49.4859,68.4162,61.8281,105.6534
41.7912,129.2046,7.9593,-151.4682,-11.1393,-3.8461,-73.8925,-38.6723,-107.6478,-208.8327,66.1332,157.0526,-90.5170,-53.1958,-102.6273,-132.4307,62.9878,83.8107,84.1317
40.1262,130.7828,49.5214,-82.0926,38.3480,0.9058,-61.3831,-19.8667,-95.7448,-113.8584,63.2271,89.4183,-62.8007,-115.4064,-112.5056,-165.7550,53.1771,67.0019,55.4810
16.8529,63.3416,80.3688,-27.7028,69.2203,16.9607,-52.7258,-19.4214,-31.3265,-62.1429,-68.6474,27.8122,-70.6326,-109.5151,-85.6286,-85.1911,22.5562,31.7925,99.7079
-60.2292,-31.3416,39.5774,-65.1414,65.0772,-3.6965,0.6679,-5.5175,37.9419,-29.2690,-248.5881,20.8870,-69.6714,-38.6836,-3.3324,49.7784,-38.9391,-10.4829,168.8433
-165.1418,-70.6156,-51.5127,-130.7710,43.4642,-66.2255,56.3310,21.7948,91.3088,8.1610,-281.3529,50.3363,-38.6600,-8.0873,83.9415,138.9763,-81.6744,-65.3677,149.3970
-172.8773,-82.6738,-118.1502,-125.5439,-16.5418,-98.6897,15.2480,15.4057,107.3860,7.1148,-135.3535,30.8411,-19.2535,-39.5491,79.1009,86.8934,-57.5781,-75.4311,36.4618
-37.8515,-26.8735,-93.5746,-55.6483,-69.2713,-76.4301,-71.5557,-34.1730,49.9597,-53.9617,11.7438,-47.5579,-17.6662,-94.2398,-11.1081,-78.2803,5.1748,-6.2233,-74.3744
91.5135,127.6530,10.2781,-8.3161,-40.8739,-57.1160,-82.5993,-95.4014,-71.8656,-162.3051,38.0666,-60.6966,-4.7199,-141.4197,-99.1447,-206.3651,57.1058,60.3813,-107.5632
93.2348,179.9342,108.1803,8.0003,22.4445,-38.6205,-38.0579,-124.0828,-174.8009,-266.5395,-15.9969,35.3600,13.8339,-122.5906,-139.0679,-228.0494,79.1598,64.3157,-56.3600
21.1457,27.2195,124.4643,30.0302,49.4877,16.0503,-12.8622,-71.8985,-172.5186,-267.0894,-69.8880,103.3244,23.9782,-39.6687,-117.0020,-191.8556,51.7384,46.0123,24.4390
-46.0641,-75.2773,44.6721,3.3647,54.1530,39.7582,9.9178,13.9294,-82.1107,-150.1602,-71.5248,45.9467,35.3720,-20.0367,-38.7589,-133.2905,-25.5766,19.6762,67.2092
-81.0178,38.2587,-74.4049,-90.0390,41.3953,-27.0856,49.4578,-2.9271,-11.4132,-22.8010,-14.1762,-64.6953,39.0701,-112.2114,31.8125,-75.5704,-85.0440,-35.0907,62.4543
-50.0784,164.8017,-129.6666,-129.6673,-3.9022,-100.5742,57.2358,-116.4062,-7.7570,60.9629,36.4505,-121.9055,5.7334,-172.5203,40.7542,-47.3042,-60.0412,-79.5133,41.8987
22.1539,100.4346,-75.4787,-75.3222,-47.9171,-101.9355,7.5940,-164.1230,0.5445,117.4806,5.0104,-94.6629,-56.9352,-96.7363,19.8584,-23.7229,10.4833,-84.1221,14.5126
29.0715,-97.1707,12.2988,-36.1010,-70.0990,-69.5238,-52.9449,-106.8207,65.7977,126.7670,-86.0221,-28.5772,-95.4177,7.9037,21.7295,12.1936,25.9677,-85.9758,-15.4389
-49.7618,-235.6113,39.7670,-54.9079,-84.5020,-54.0198,-62.1202,-56.4127,124.3241,94.7015,-120.3961,-4.3100,-72.6767,-5.8529,41.1322,9.5340,-30.3141,-95.3084,-29.6937
-89.7387,-161.8687,6.1858,-92.2596,-74.9845,-73.8910,-22.9565,-67.1642,91.9219,74.3641,-15.1983,-24.3350,-22.9470,-98.9311,25.3822,-38.5546,-54.8354,-96.9896,-45.7242
3.8602,88.9120,-26.3962,-133.7648,-43.8630,-132.3524,-14.4054,-127.9955,-21.1282,41.7860,150.1477,16.2174,-12.9135,-107.3580,-56.1263,-75.0555,27.7293,-119.2922,-97.9794
154.8535,275.7821,-1.7528,-130.1267,-37.5595,-167.7676,-70.4999,-219.3645,-133.0814,-59.0444,188.0612,141.3844,-43.3704,2.8633,-143.3438,-95.4175,135.7424,-157.5385,-161.0652
193.9147,215.4481,85.0725,-41.1109,-47.9459,-110.0601,-116.3792,-260.0080,-188.7024,-181.1617,56.5516,200.5306,-56.3428,88.1359,-150.9715,-103.7920,139.9679,-143.0850,-185.4061
79.8249,11.6040,153.5772,20.5118,-32.7631,-14.6126,-107.1565,-193.8077,-190.9144,-241.8750,-47.5268,89.6095,-45.9670,61.6577,-102.1719,-49.9884,43.5411,-73.9459,-174.2109
-32.2999,-94.4694,108.7925,-64.5903,-14.8567,4.1383,-87.8462,-107.1157,-146.1930,-229.7707,25.9502,-75.0574,-51.8153,0.0868,-61.8711,29.2863,-62.9987,-22.1712,-146.9860
-38.7528,-49.1173,-26.7868,-208.7011,-29.5433,-57.9148,-58.9110,-81.9010,-56.6206,-181.1569,144.2109,-130.5039,-46.5071,-24.9822,-6.6131,5.9219,-139.9408,-5.6183,-94.4178
-39.1800,-20.0573,-137.4718,-236.3689,-55.6111,-100.6348,17.7431,-73.7202,26.2721,-140.1726,112.4127,-95.4955,22.6522,-45.4058,74.0636,-93.8108,-176.4008,4.4087,-23.2885
-95.4977,-86.7421,-154.0412,-113.9904,-63.8376,-59.5051,84.8134,-40.5526,52.9803,-127.1570,-13.8386,-102.0577,95.5944,-94.7861,104.4494,-101.0286,-153.2559,6.6196,27.0624
-106.3505,-132.3271,-90.4725,15.8372,-53.0695,11.7404,65.2737,-1.3858,67.7676,-119.7749,-46.8957,-173.6139,69.1564,-133.0339,77.5877,-8.2657,-111.4116,-5.0941,38.4598
-51.7027,-118.5249,-2.3424,-2.3741,-39.0158,12.6597,4.6679,40.2205,118.4739,-102.1663,13.2926,-197.0059,-19.7324,-103.8608,64.2947,27.2176,-114.6067,-21.5973,28.2419
-41.8114,-114.0150,34.8065,-125.6802,-32.7398,-56.5965,-10.6250,64.2454,153.2793,-87.2097,10.7962,-99.7272,-47.0670,-34.6261,51.3047,-23.2351,-131.9820,-49.0693,10.8808
-87.1891,-47.3100,-15.5974,-159.3023,-22.3585,-103.0506,16.3105,8.9428,137.5923,-82.2656,-75.6218,44.5644,-4.2659,-17.6007,8.5492,-54.8939,-102.9003,-88.4980,-20.4989
-114.3863,110.8445,-90.0847,-56.0019,-23.9199,-91.6046,15.1420,-113.1860,128.9528,-93.3762,-99.6960,100.9749,10.6858,-49.7178,1.1761,-66.0911,-55.1109,-108.5553,-77.2806
-109.3453,116.6935,-90.4675,25.4220,-87.5081,-60.1217,-53.7475,-187.4232,139.6186,-113.2238,5.6574,13.4719,-31.6297,-25.3400,31.4739,-111.9602,-41.3343,-79.7130,-139.4964
-58.4492,-114.7550,-4.0454,-24.7042,-156.4373,-27.9905,-126.4107,-135.0902,109.3324,-93.3971,117.1528,-139.8313,-63.5527,52.3038,-6.5927,-114.3494,-65.9057,-9.7079,-144.3515
31.1903,-269.5251,77.2481,-141.7351,-96.8363,-11.2795,-96.4345,-5.3070,54.1815,-22.7873,75.8586,-225.7639,-37.4961,76.4149,-86.3048,2.1167,-116.8659,50.4608,-57.4902
32.6106,-177.7661,47.7381,-182.5130,45.7909,-32.4660,19.8420,76.5732,58.5254,23.0184,-103.4333,-202.8182,21.6277,57.0599,-43.5539,111.7418,-155.3965,42.1461,48.3622
-98.2617,-31.3772,-83.6067,-78.9759,88.5443,-52.0816,96.9010,42.9318,121.9873,-9.8081,-206.9657,-143.8359,57.4338,58.8843,122.4751,75.0249,-129.0950,-15.8985,61.0853
-172.5933,36.2584,-164.4939,46.4263,23.4261,-21.2435,83.7212,-33.1173,151.7920,-90.1709,-82.3190,-104.3205,41.1492,29.7430,214.4929,-39.1040,-79.4379,-28.4320,-21.1568
-81.3135,32.7216,-84.4044,17.1061,-10.2990,12.9366,26.8700,-39.6823,97.1371,-155.6467,122.0285,-71.2752,6.3876,-39.7044,137.4289,-103.5643,-95.8260,29.7248,-90.0680
17.0419,-58.1538,46.0760,-126.0250,11.2986,-18.5471,-21.8381,15.1396,21.4948,-158.3837,162.9266,-46.5416,3.9382,-18.6507,26.1417,-107.8935,-149.6876,60.3776,-78.8601
-5.7092,-152.2952,42.7565,-197.9438,12.3406,-92.1260,-13.1531,33.9998,20.3506,-122.0207,51.3952,-50.9846,23.0722,98.4400,36.8175,-77.7244,-157.1581,-1.9789,-27.8934
-73.9416,-103.2910,-82.7347,-143.2157,-29.2949,-135.4949,49.3606,-29.5330,84.5013,-134.0998,-40.8593,-53.6613,19.4850,125.4913,148.5171,-23.6798,-131.0987,-91.1708,-2.6546
-92.1765,53.1598,-165.8101,-37.6219,-79.3984,-123.9636,67.8580,-138.0716,114.3136,-200.3858,-45.6854,-10.3819,-3.0658,-4.4571,228.5400,1.6552,-102.1288,-115.9050,-31.0313
-41.0331,182.8952,-121.5029,27.8054,-88.8291,-97.6009,12.3575,-218.1784,59.5063,-240.4147,34.6495,49.0655,-8.9048,-131.9622,199.3902,-39.7800,-40.6266,-61.2973,-105.4422
65.9254,197.0689,10.7779,-2.3691,-33.5391,-89.9955,-17.9554,-207.5667,-52.1792,-248.2917,168.0123,42.2549,13.3333,-113.6313,73.3475,-91.9463,39.7203,34.2710,-169.8356
160.7151,37.6056,146.4000,-53.9685,34.9865,-60.4271,-4.8671,-112.1548,-162.6916,-251.6374,211.5053,-66.1043,45.7667,6.1874,-79.3857,-77.7504,81.2897,105.9875,-147.5439
160.0802,-162.0707,182.6499,-8.4246,50.6773,24.4213,-31.0957,-17.0433,-177.7582,-206.9591,81.6348,-190.1693,47.9063,90.9710,-142.2790,5.3100,85.1818,78.0239,-50.5178
79.9708,-121.5442,81.1872,66.0093,18.9247,85.8649,-80.2510,-3.5018,-64.3980,-128.2536,-66.5523,-186.2518,-2.6468,99.1386,-65.8385,90.1241,65.2376,-44.8578,13.0643
7.0877,105.4034,-40.0827,49.5495,-22.7594,57.9549,-91.1016,-60.9300,18.7153,-113.3338,-77.3616,-55.2293,-47.0898,93.0050,17.2815,105.7546,12.5638,-125.3293,-8.2063
-7.8691,156.5602,-35.3830,8.1835,-40.1684,20.9547,-93.3319,-95.5713,-92.2192,-152.7098,12.0900,19.0123,-12.5759,82.4860,-42.4243,49.4253,-16.9126,-41.5486,-51.1785
44.5989,-22.3120,78.9236,4.1816,5.2321,52.3319,-86.6378,-39.8926,-302.8270,-162.6809,140.5660,-58.6992,65.1737,30.1070,-179.0382,-22.9494,31.2914,137.8495,-58.8623
139.9443,-136.8548,179.1304,-19.7854,89.3433,95.5217,-15.8620,55.3498,-406.2464,-158.1284,266.9706,-148.1358,102.7560,-9.6217,-226.5848,-80.1806,74.9946,229.2663,-36.7230
184.6223,-56.6169,189.4586,-23.0371,116.7967,90.2605,60.2015,86.7199,-356.3853,-190.5152,266.6475,-105.9130,94.1701,35.0164,-162.4121,-118.6572,32.4339,156.9538,8.0459
94.0643,82.5019,108.5657,64.5387,60.2520,62.3376,53.6555,33.5924,-235.9600,-253.9797,93.2804,34.0668,73.7827,118.1976,-69.0410,-118.7940,-17.5921,14.3209,60.7458
-53.3133,143.5209,-0.2943,141.2222,0.1065,44.4924,29.4909,-46.4066,-133.9696,-321.3726,-82.6489,163.1160,52.2310,167.0159,7.0117,-92.5571,12.8349,-63.0666,61.2056
-73.0422,117.9982,-33.1636,130.1256,-9.4342,40.3158,55.4586,-108.8477,-115.7824,-341.3515,-86.3360,182.7713,42.2363,145.5791,34.6179,-94.6578,70.9841,-23.1113,-26.1070
60.9413,83.3515,29.9776,85.2800,-6.0200,35.6248,56.6463,-135.9403,-153.3801,-281.3342,73.1811,37.1633,48.5560,18.5653,-7.2966,-120.7768,75.2924,67.7630,-142.4603
161.3417,68.1229,84.8748,-4.2333,-38.0676,-0.7007,-8.6065,-126.6460,-131.7775,-208.1721,238.4646,-166.7150,43.2108,-138.2437,-46.7216,-107.2828,28.9173,87.6523,-191.9876
104.4424,20.3650,62.2053,-127.2825,-84.3338,-56.4401,-52.6911,-108.1691,-19.7455,-167.1003,210.9654,-215.5152,16.2598,-138.4073,3.3868,-50.2285,-10.5407,-4.5811,-129.6902
-20.5920,-31.3540,6.2654,-130.1583,-82.8178,-61.1758,-20.9946,-88.6996,85.2468,-93.2868,-35.6653,-83.1987,-5.2431,19.6294,71.1531,-12.6520,8.8376,-108.8026,5.5991
-97.3879,0.4568,-34.1028,-5.8376,-29.3030,-1.4800,34.4409,-32.1204,106.7584,21.0001,-245.1866,31.7503,-3.7749,110.3450,20.1797,-22.2565,69.9440,-106.7923,108.2888
-102.0073,58.9385,-49.6926,49.8204,11.8664,45.6033,51.8828,58.7209,62.3340,95.2847,-189.0610,-1.7530,17.0490,25.4024,-104.5428,-35.2555,84.0298,-10.2775,100.1313
-25.2264,29.8915,-24.7076,-10.1280,8.7246,29.7462,24.4028,119.7137,14.2120,118.6442,37.3528,-123.2282,36.8283,-105.4498,-141.0564,-11.0506,19.0877,72.1857,28.6570
88.4862,-61.9557,31.7814,-74.7152,-9.1058,-18.5928,-10.7034,122.9271,19.1316,107.1547,192.0024,-207.7749,29.3416,-137.8527,-72.2548,4.4171,-39.8645,83.2271,3.5412
88.6830,-123.1168,64.8310,-108.3600,-14.0558,-50.2118,-13.8641,94.9260,81.8468,36.3667,144.7623,-169.2266,15.9952,-79.9339,-5.2926,-54.9011,-24.2274,67.4543,44.1163
-62.2691,-73.2712,51.5591,-105.4085,7.1376,-52.9745,19.2636,46.0560,142.3105,-35.5013,-74.2555,-28.8926,44.5847,-47.3252,20.0250,-133.5841,28.4935,82.2690,77.4920
-164.2946,112.5068,22.6115,-52.1562,54.0243,-50.1969,66.7255,-23.0486,139.7735,-5.2218,-256.3604,75.2010,91.5159,-76.6053,12.4570,-134.4744,56.9129,114.8737,58.6138
-75.7347,258.7228,1.6227,-9.2273,81.7370,-53.4815,94.1385,-83.1284,79.7023,97.4463,-171.8453,54.8697,99.1466,-64.3972,-36.1486,-91.4743,50.2625,111.7763,1.2972
71.7954,148.2487,5.3781,-7.6482,53.0651,-44.7801,61.9196,-111.0155,28.1099,172.4281,91.2503,-24.2880,77.5310,3.0120,-73.6330,-60.3207,33.5728,56.7329,-71.2380
113.0406,-83.1254,61.9447,7.0669,6.4418,-27.9308,-18.0034,-119.5039,30.9016,182.1553,203.9056,-78.3229,51.2579,0.3468,-34.7066,10.3595,43.5216,-18.2490,-129.0069
77.2986,-106.4884,151.6126,36.1854,-10.9850,-29.1731,-71.7949,-128.5259,51.0360,131.1573,65.5161,-79.9155,2.9335,-39.1925,13.4723,104.9593,104.3804,-83.5578,-132.1226
57.1851,97.3779,183.4107,46.1399,-13.3898,-36.5742,-71.1579,-141.9611,41.9370,64.4118,-112.2344,0.3549,-53.1218,18.4554,-19.3496,104.7940,191.5382,-134.4196,-82.4473
52.8758,271.7959,99.3926,40.7120,-28.5237,-34.6773,-67.7886,-150.5269,27.3434,46.0339,-138.9348,121.2051,-75.9976,70.0133,-79.8074,37.9863,232.4232,-166.3825,-36.0616
42.0919,250.6676,-26.2390,-11.9459,-56.0482,-54.1040,-93.0168,-138.1697,14.3699,59.4245,-1.9192,128.9402,-86.1272,-11.5364,-94.6178,40.2949,171.7312,-161.7442,-29.2555
48.9780,52.0728,-53.3392,-105.7346,-78.8244,-90.8969,-127.4910,-91.7218,-41.0960,61.2082,177.3997,-24.5723,-119.3690,-67.0356,-95.2511,98.2504,45.8965,-109.2904,-30.8480
65.6604,-180.5439,46.1745,-118.9555,-70.4878,-85.1057,-148.5905,-15.1186,-96.7116,74.4722,197.6987,-179.1565,-146.3909,4.2374,-108.5543,122.7438,-37.7227,-25.5591,11.7446
29.5786,-239.4594,138.4717,-42.9756,-20.9622,-42.2693,-126.4430,53.4825,-61.0948,81.8191,-18.2007,-194.2384,-127.5571,49.0516,-109.5887,98.9522,-18.9240,48.1938,99.9085
-46.9894,-27.5440,106.2674,-14.7364,40.2111,-27.6650,-52.2810,55.6960,4.4390,7.3482,-237.9063,-99.5511,-77.3010,38.7062,-108.2317,9.0515,60.8921,74.8626,163.5596
-46.6590,288.3618,2.9682,-17.1914,66.5603,-34.9645,-3.4201,-15.8758,-30.8675,-118.6872,-163.7047,1.8488,-41.5357,66.1192,-133.1978,-118.9390,126.8056,54.4465,125.2169
67.8289,380.2105,-45.1002,41.2370,23.7195,-19.2751,-56.9449,-92.5904,-138.4603,-191.4577,155.3786,35.0229,-51.0226,36.7780,-162.9924,-133.7168,128.3823,18.7442,-3.1226
164.1744,122.2929,-3.3511,50.2685,-71.1654,-11.3041,-151.0194,-124.1891,-198.3173,-189.3288,371.4839,1.3125,-81.0854,-96.1687,-148.2552,-12.6499,59.0223,-10.8777,-126.1527
129.9589,-175.0312,77.2813,-62.9636,-125.1734,-50.6226,-162.2370,-134.9005,-168.4021,-151.7370,276.9394,-23.9828,-72.3868,-136.9557,-72.2789,50.8442,-14.5609,-36.7150,-181.5165
30.9443,-147.3022,135.0688,-102.8029,-76.3757,-78.1745,-82.2022,-147.4458,-71.8362,-122.5918,18.5153,-6.6768,-22.8176,-39.8247,7.6126,-7.9896,-8.3358,-56.4743,-184.3979
-7.8158,87.3953,112.2260,39.0891,-5.1609,-22.6910,-11.2624,-143.5999,32.2991,-143.0972,-122.8759,1.5770,5.5571,9.1117,7.6112,-61.1348,57.2891,-59.3962,-158.9634
20.8388,179.2542,-3.6219,168.4244,-15.3651,69.6919,-13.4130,-113.8502,67.1276,-177.7863,-40.0244,-15.7966,-13.6864,-16.1245,-51.2277,-88.4594,90.0102,-45.6884,-109.8522
32.1843,123.0848,-118.1674,128.3869,-68.0603,98.9886,-47.6137,-54.2252,33.2780,-140.8752,121.2296,-19.2338,-43.6645,-8.7104,-74.4326,-154.8702,64.6232,-16.1781,-43.4200
-2.6760,103.3471,-106.5190,10.7928,-55.5203,58.9525,-40.5679,51.9815,-6.4461,-48.0549,130.3492,-15.7243,-43.8999,8.9935,-71.7676,-209.9890,20.4934,34.1951,44.5693
-27.0297,89.3361,23.4735,-37.7427,34.0277,25.3541,9.6512,175.6282,-41.3439,9.8502,-65.7577,-36.8531,-7.5752,-5.9988,-107.5340,-190.7183,-17.6340,88.7179,150.5102
-18.1991,-2.9210,118.4470,12.6739,108.7491,33.3361,46.4527,243.4863,-78.2602,7.3667,-259.1845,-71.8140,30.8644,-23.4340,-131.9507,-120.7413,-30.0487,112.5627,219.4407
-28.8315,-84.2630,56.3696,89.8469,90.2276,55.2794,48.4502,234.9170,-85.0399,-20.5213,-230.5781,-102.2022,27.7220,-47.2200,-88.2811,-30.9065,0.6117,90.4204,205.4355
-69.4724,-44.6290,-105.0469,108.4769,5.8473,61.8220,31.0850,180.3157,-71.4253,-37.8440,-24.9352,-108.6853,-8.8842,-55.4400,-47.5505,5.7782,43.5866,33.3938,137.0893
-79.2459,97.3431,-186.4825,61.6429,-51.8945,40.5331,-7.6242,89.7249,-85.8294,-38.0034,132.5007,-59.0539,-33.7264,19.7299,-54.9839,-99.8007,50.0048,-19.7374,46.3925
-45.5637,200.0341,-90.3767,19.4065,-44.6359,5.6853,-50.8667,-15.8001,-117.8580,-65.9681,111.1787,23.8430,-26.0568,102.9271,-47.6108,-238.3195,20.8452,-6.7052,-67.0007
-8.5869,129.9395,85.7552,40.8404,0.2855,6.1362,-47.3866,-80.0276,-140.8900,-134.0106,-30.5785,69.1415,11.7537,50.1018,-15.3540,-215.4797,-1.4994,80.2375,-160.6633
29.7769,-7.4081,168.7237,116.1292,54.8054,57.4497,-8.7686,-97.2050,-168.7189,-162.0486,-128.3549,57.8416,58.2618,-86.7628,-17.5177,-107.7621,16.3315,147.3091,-179.6423
59.9739,17.2167,103.2000,162.6211,77.3830,97.5118,-8.7316,-115.1669,-174.1462,-118.1294,-64.2667,16.5840,61.6953,-150.1272,-39.9664,-111.7533,59.2712,113.5952,-150.6277
28.6224,141.1930,-29.3460,91.1606,25.8439,68.3907,-52.1345,-127.8555,-89.0303,-63.0499,70.6903,-27.7646,5.7493,-104.5651,-28.6619,-157.8959,67.3508,16.1349,-119.7101
-45.4105,119.2862,-129.6213,-67.9329,-52.6645,-12.7868,-80.5742,-87.8864,67.3567,9.7311,61.4239,-36.8727,-54.1779,-5.0644,-3.5981,-93.2980,11.0248,-54.8204,-75.0088
-78.2650,-7.4979,-143.5861,-172.3778,-62.4164,-83.0457,-80.3307,-4.1246,185.4693,145.5654,-101.8927,-22.3656,-79.0290,69.5287,-10.1509,-8.9937,-68.4936,-46.2388,-10.5466
-74.5469,-42.3192,-77.0238,-148.8152,6.4437,-83.9807,-57.6721,81.2829,200.2932,271.8817,-190.9915,-73.9108,-77.2246,36.4664,-32.1130,-8.5705,-126.1267,34.8140,51.4265
-89.5907,-48.7582,-14.0127,-59.1493,82.3423,-11.2182,1.1794,153.6458,155.1886,297.7142,-113.0952,-199.4829,-47.5509,-64.1709,-25.8429,18.1125,-146.7798,110.0620,114.5123
-100.9524,-164.9657,-33.3708,24.0259,100.3602,68.8176,60.0587,194.6867,130.4016,248.3433,-42.7685,-267.1059,-6.2840,-94.5004,6.5989,104.7599,-115.7386,93.6707,179.9611
-84.6871,-225.8531,-86.3326,75.8374,54.3639,94.0340,60.4954,174.6279,137.5283,165.2854,-105.8476,-192.2163,-6.5756,-59.4609,22.2800,90.5609,-49.6652,9.9450,216.1156
-85.3153,-8.6891,-74.8254,78.5299,10.4907,68.2397,32.5647,107.9864,117.8590,49.5440,-192.3217,-42.1595,-42.5066,-72.7485,6.4975,-31.7902,-8.5128,-44.0849,200.6789
-98.7377,279.6046,-11.1166,51.3224,12.6422,30.3165,27.8960,44.6930,45.6644,-59.1330,-156.2404,51.3766,-46.2969,-92.4025,-5.6398,-75.4475,-9.4604,-40.3622,119.4358
-56.4526,217.8183,36.7847,58.9256,1.5346,19.1027,19.4701,6.7741,-29.4031,-99.5143,-20.0866,8.9596,-6.8102,-14.6627,12.1358,-18.1551,-14.5524,-22.3622,-27.8304
29.0424,-110.0385,63.1657,93.6366,-47.1635,36.6933,0.1625,-24.8828,-45.5261,-65.7749,82.3633,-103.3037,34.1317,60.2185,49.6958,10.1351,-5.4960,-23.3657,-165.5239
70.4684,-183.4084,70.2179,67.7839,-48.4943,23.3697,23.0329,-79.1829,16.7853,-7.3233,81.9982,-135.3438,62.0259,2.7225,90.4264,20.1024,20.8816,-55.1101,-209.5094
52.0027,52.1542,29.2344,-18.1184,-1.7947,-47.4128,61.2773,-155.0045,119.4618,23.9943,36.5828,-70.1458,68.4521,-71.6120,115.6980,85.9727,60.9716,-109.8449,-187.4887
32.5321,120.8778,-40.2502,-82.0762,-14.4054,-114.5921,34.9581,-203.5329,200.0744,44.3159,23.6831,-16.6984,35.0245,-34.9351,112.9800,154.6121,60.2333,-157.6996,-155.7231
26.9924,-66.2074,-86.9995,-138.4045,-80.1927,-160.9301,-15.9383,-179.5660,255.4272,115.5432,32.7589,-3.2157,-14.7265,-5.2381,109.5601,175.7977,-12.9669,-186.1193,-100.8060
-8.4977,-166.0093,-109.1836,-230.1677,-113.7016,-221.9337,-5.3136,-98.0417,322.3633,207.2840,7.8613,-16.6355,-38.6128,-68.0787,135.3624,188.8736,-76.0249,-202.7621,-25.2518
-78.7442,-158.7207,-121.0078,-260.7837,-128.2103,-236.5947,23.8778,-4.2971,358.8498,219.6052,-56.9406,-104.9238,-42.1590,-72.8587,157.2753,195.3060,-54.8299,-199.9753,36.3407
-116.8251,-204.9264,-118.7744,-162.8860,-146.0206,-150.7910,-3.5661,67.0954,287.0510,172.0506,-108.0686,-211.2249,-51.9816,34.6743,116.5945,179.0724,-0.8755,-177.0595,97.7499
-68.2463,-167.7185,-110.9480,-72.7252,-118.2599,-78.4256,-52.7024,89.8040,136.3523,169.5454,-75.5093,-168.4500,-69.5860,75.0236,6.7405,182.5769,19.4190,-153.4993,154.6716
45.1420,-20.1596,-85.7286,-98.1855,-57.0984,-96.4416,-80.0352,72.5372,-7.5563,203.5523,64.4236,6.4372,-90.5006,5.8788,-113.1090,201.6708,20.7450,-126.6503,146.1286
148.5595,-26.5227,-9.4422,-147.7919,-28.2193,-103.4379,-116.8562,62.4912,-114.3426,183.0106,214.8516,124.4975,-112.1369,-3.2895,-158.2435,180.6965,38.5108,-88.2248,88.3560
159.9476,-138.9980,76.4446,-129.4449,-22.4467,-52.5416,-161.2498,57.3817,-166.0183,92.2728,218.6941,117.8578,-114.5255,70.5825,-97.7481,134.1384,76.9946,-64.4367,57.7527
61.1794,-48.3288,89.5023,-61.7818,-6.2655,-15.0177,-150.0510,0.7233,-142.2758,-13.6948,74.3953,49.0908,-88.9928,92.4456,5.7263,76.2882,107.5157,-71.9569,37.1463
-38.4931,178.6796,39.7875,12.9652,0.3455,4.2195,-85.0554,-93.6554,-86.8018,-94.1028,-22.7516,-23.6644,-71.1131,53.4861,78.3684,-27.1187,93.0934,-87.8849,-19.2868
-12.4020,247.5004,-11.9847,31.6238,-24.3097,20.6976,-45.2016,-148.9588,-58.1489,-149.7138,49.6327,-30.4547,-85.3798,14.5210,106.5297,-103.0405,52.0178,-87.1396,-75.9791
101.2623,132.8290,-45.4969,-39.2008,-68.7591,-13.5087,-51.4356,-158.6792,-58.4602,-197.2771,175.8091,52.8712,-86.3699,-62.9006,105.4115,-44.0610,34.1451,-55.5297,-109.8226
160.6424,-7.2898,-42.2258,-96.3504,-91.1303,-68.9971,-34.0270,-157.3339,-72.6808,-218.4059,196.6157,119.2024,-28.4944,-173.4084,110.0402,47.3527,22.8319,-3.6316,-127.0685
109.8983,-60.0295,-10.6035,-53.7536,-46.1777,-57.9340,48.9313,-110.9120,-66.7263,-180.2041,96.4162,85.5219,47.7054,-184.0549,163.2875,12.2642,-19.2067,18.0560,-62.9940
-21.2017,-17.0255,-41.8459,3.2184,35.7998,-4.8004,150.3531,12.8805,23.6670,-114.6909,-61.5686,9.4159,83.5479,-53.5264,226.6977,-84.4389,-64.4312,0.8931,114.9515
-177.5736,3.7918,-159.6300,-0.2767,86.1445,31.7183,208.3990,152.9302,168.6718,-73.1930,-190.1936,-58.0924,93.5610,71.4066,208.5149,-103.1869,-97.7660,19.9310,280.9445
-249.3517,-42.6136,-220.8256,-28.9910,118.7329,61.3011,205.9991,241.8188,220.9209,-32.9770,-174.3006,-138.4804,106.6252,58.4018,111.6082,-49.8413,-141.2925,99.4226,313.1170
-158.7708,-30.9527,-125.3226,-76.1049,157.6869,66.1203,147.8519,278.1536,125.8517,28.9806,-20.8258,-208.7067,102.3148,-48.4745,7.7043,8.5348,-148.0076,153.7220,251.1911
-0.5678,15.3268,31.2886,-114.8119,148.5297,29.4961,56.9363,265.5459,0.6039,64.2295,73.2714,-204.7696,67.7977,-112.4275,-77.5900,27.1071,-57.5038,130.4399,194.5491
65.8186,-61.4860,104.4403,-27.0742,97.2820,29.2509,-7.2129,196.4410,-52.4500,58.8115,-5.4084,-134.8558,27.5831,-88.2307,-122.1400,-25.0140,73.9377,75.7593,183.8571
12.7636,-141.3338,57.1714,168.2975,97.6382,97.8191,-5.1912,104.4035,-53.9931,68.2992,-117.6849,-70.3517,-1.2461,-54.8022,-92.3154,-100.8647,156.1920,45.4672,200.7458
-62.6791,-24.4800,-35.4222,251.6685,141.0642,141.2518,19.7974,39.1404,-63.9840,80.5250,-118.5428,-46.7854,-17.4571,-62.8161,-42.4848,-112.1673,165.6852,64.2432,187.3842
-51.7862,124.5872,-55.7538,114.7566,137.2326,102.7380,0.4785,9.7485,-110.5045,16.0552,-41.2740,-37.7066,-30.0381,-72.0002,-57.8039,-69.5349,104.1654,128.9012,105.3244
55.4954,91.1073,34.3829,-99.9078,93.8210,23.3493,-55.8415,5.3475,-176.2725,-87.7202,28.4238,-21.5378,-56.8199,-64.2937,-113.1128,-29.0564,11.3326,183.6901,8.4321
114.6406,-14.8920,136.9352,-189.0778,76.1554,-41.6053,-75.0947,25.1424,-192.5706,-93.7837,33.4222,-18.4409,-75.7891,-55.6408,-129.2599,15.9939,-36.3900,160.6331,-10.9476
7.8913,-57.8673,132.1089,-84.2322,85.2064,-43.9795,-15.3941,57.3270,-101.6199,-27.7642,-53.2693,-31.1988,-39.8505,-10.0947,-89.9434,48.3654,-48.5007,70.6274,52.4837
-138.7126,-84.0211,0.9836,79.2412,76.8471,19.6526,69.4045,78.2292,45.7041,-76.9912,-139.8879,-26.3162,20.4438,73.3352,-32.6041,3.5473,-85.7759,0.9515,107.7010
-143.1440,-118.8658,-165.7181,108.9973,20.2100,78.3473,96.0123,88.8589,126.0022,-235.1100,-91.5391,-13.0952,36.0954,81.7906,0.0604,-81.2335,-110.5381,15.7677,87.0918
-59.0898,-131.4682,-225.2839,13.5663,-49.2149,88.1171,69.9988,109.5497,96.3843,-262.8288,29.2526,-37.7123,31.5135,-18.8018,5.6407,-91.5773,-84.4171,83.2498,32.2029
-30.3299,-115.7425,-115.6113,-53.5035,-38.4963,74.9183,59.9945,134.9399,35.0207,-111.4243,40.0111,-91.5195,58.9122,-75.3909,23.7494,-26.3577,-81.7273,121.6869,23.4408
-47.9260,-51.6934,54.8073,-46.6087,53.4678,60.7259,66.1741,136.5718,16.9701,-3.1620,-58.2784,-132.0627,74.2861,7.1678,44.6194,14.3780,-115.5228,105.5790,58.0644
-51.2091,44.7532,145.0958,3.0929,104.5351,65.7312,29.8115,106.8710,31.0027,-22.3120,-108.8049,-140.8767,26.2683,104.8525,10.2664,-2.1791,-81.2221,66.7523,72.1133
-35.1598,93.4504,135.4816,88.7751,66.8498,100.7752,-49.6985,58.5759,22.9603,-43.0281,-47.5232,-92.8985,-44.0020,79.9243,-63.9192,-32.7224,24.2360,23.8085,45.4782
25.3172,89.1524,60.0378,133.8143,16.3953,106.0237,-119.8839,-5.4317,-49.8966,-38.7366,65.4757,11.8275,-82.2067,-26.0632,-124.5258,-67.5521,92.0218,3.8000,1.8009
122.5555,82.4443,-44.2967,69.6028,0.5847,54.5302,-149.1990,-78.7039,-186.9417,-84.5842,140.0807,83.3288,-80.5221,-87.8859,-179.9205,-124.7200,99.7655,53.9742,-41.3169
144.3526,50.4761,-79.6721,14.5850,18.1147,39.7334,-128.9964,-131.0591,-319.3962,-176.6942,98.8145,56.4727,-41.1699,-60.8787,-215.8408,-175.2954,90.3856,142.7236,-64.4202
55.6282,-5.2341,13.0746,79.5196,66.7078,96.3669,-77.2181,-137.2742,-364.0575,-283.3927,-38.3419,1.5810,17.7950,12.2500,-180.5085,-179.2819,56.5596,172.1427,-53.9619
-13.7992,0.8270,117.4843,150.7522,98.4850,131.1264,-46.2599,-99.7692,-310.8157,-374.6790,-127.5809,-7.3877,46.3998,86.8523,-127.0711,-149.4435,1.2292,118.1012,-28.0903
3.7560,59.5112,83.5707,110.7558,61.6344,115.1939,-51.5021,-35.2147,-203.4344,-360.0520,-76.7459,-3.6936,15.6155,135.6252,-129.5054,-93.6885,-27.0987,19.9386,-6.7176
16.8841,56.5011,-74.9669,26.4405,-7.7628,89.7037,-45.0133,27.6483,-69.7137,-211.7086,30.4895,-13.3144,-42.6612,113.7267,-109.0190,7.9891,-33.4377,-98.1008,5.5912
-43.0496,-25.8232,-234.6935,-21.3959,-54.3877,27.9542,-2.8368,55.3467,84.2201,-42.7517,57.2077,13.1424,-72.4928,11.9241,10.9520,95.1511,-85.5170,-179.6210,0.0867
-143.5770,-96.4830,-303.8113,-55.1132,-78.6323,-73.8108,48.8238,44.1673,246.9713,61.2734,-38.6494,79.3400,-58.1507,-72.0326,139.7458,64.6864,-191.8905,-163.6945,-17.2883
-224.1821,-98.9883,-265.8380,-98.4360,-88.3104,-129.4549,80.3317,12.8103,364.3968,111.9168,-192.0827,93.1321,-36.9986,-53.9408,176.2527,-33.2712,-248.0861,-105.0097,-32.0433
-219.9528,-50.8356,-161.6246,-108.0755,-90.7712,-115.4499,54.0598,-39.4043,342.8714,128.9788,-273.3810,12.6248,-45.2421,-5.2231,121.3269,-54.8876,-155.4958,-93.1452,-69.4154
-110.0759,-2.0427,-42.0900,-32.4500,-109.8949,-83.0800,-47.0821,-113.1423,179.9921,130.9032,-182.0305,-65.8555,-86.6200,-11.3134,0.6412,-2.0474,20.7729,-113.8998,-145.3920
22.7916,24.6359,56.7134,77.6873,-133.1670,-43.2066,-149.4740,-171.0415,19.2902,125.6531,20.2788,-52.3627,-150.3226,-12.5489,-132.4733,33.0825,106.0290,-126.6508,-203.0475
94.2260,61.1555,101.5977,79.8319,-120.0517,-21.0929,-165.2009,-174.9763,-49.0068,97.6097,139.0704,4.6386,-193.7427,32.2762,-191.4946,59.7088,42.5606,-128.9469,-198.8732
104.7200,107.1433,98.3033,-51.5742,-75.1915,-69.1306,-113.6046,-128.3327,-83.9367,90.4665,69.8093,23.5465,-152.6460,25.7693,-160.6282,110.2086,-66.1936,-91.0508,-163.5842
49.9969,83.1992,98.1128,-150.6173,-30.6555,-127.0180,-50.9717,-50.5505,-99.4946,162.7845,-95.0979,2.0368,-46.8209,-57.0453,-89.6199,134.4145,-125.7332,-2.6760,-118.6234
-71.8586,-34.4243,94.2181,-102.5630,2.9066,-89.4449,25.3547,42.4647,-30.0815,246.9862,-215.0638,-50.4979,25.0631,-97.2174,-3.2716,107.7291,-119.6362,66.0516,-62.5404
-148.8454,-144.3078,34.9711,12.0554,20.8178,3.4507,105.1465,119.8128,74.6466,252.9796,-242.4478,-137.2690,39.5900,-75.9488,77.4813,62.0687,-68.0118,86.4013,-34.7178
-89.1432,-160.3980,-26.2277,74.7663,16.8733,53.3708,125.9689,148.8676,106.7038,206.8463,-188.3628,-210.5791,47.0529,-98.4479,118.2281,-4.5982,-31.6996,114.3324,-60.7569
4.5341,-107.7693,1.0435,59.3404,-1.7261,64.9157,73.9765,137.5079,102.9092,151.1017,-79.3329,-235.6961,44.8561,-160.7638,123.4628,-78.9099,-63.9944,151.4500,-91.5055
15.9731,-67.1183,53.9626,14.8902,-18.0959,70.1980,19.3788,125.1276,150.5248,106.6956,17.0986,-247.7751,21.1637,-171.7207,120.7836,-88.8451,-126.1711,138.0083,-80.1757
-9.9962,-106.0105,24.4839,15.6892,-16.1821,56.0258,24.4595,119.4903,224.6316,123.2638,33.7916,-246.9212,21.4893,-129.0461,129.5203,-36.1790,-153.9542,73.5393,-41.5387
-33.8731,-199.6783,-42.9754,72.6170,-5.2327,32.1580,71.5365,80.8571,275.2462,178.2803,-11.6768,-197.4110,41.8562,-74.8220,171.4132,-10.4307,-142.2695,1.9216,-17.7486
-94.8949,-213.3443,-59.5942,108.3137,-18.7033,21.0707,86.6918,1.7244,305.1495,190.7974,-49.5226,-142.1003,14.9823,-32.0857,224.9098,-12.8412,-91.3935,-57.0312,-39.4164
-141.9084,-112.0074,-40.6085,68.5752,-49.4764,-3.2541,36.0565,-47.8642,299.1061,189.7040,-47.6533,-130.2821,-41.9033,-47.2301,217.9554,40.2016,-8.9985,-84.0238,-84.4152
-76.6656,-80.3787,-17.9609,-28.6836,-48.6781,-54.9937,-17.8149,-18.5154,224.9610,218.3331,-8.6380,-130.1406,-42.4536,-98.2976,139.5519,129.4944,27.8218,-61.3995,-86.1253
49.1929,-198.0216,22.6699,-126.5078,-13.4280,-82.3514,-10.0651,37.2267,106.5155,207.0754,63.3906,-141.5775,18.4210,-67.9582,54.6343,142.5991,-21.8184,-18.5829,-35.5704
105.2510,-233.0274,68.5998,-127.9240,21.9030,-44.7363,28.2286,57.8632,18.0447,149.5415,129.1008,-195.8065,73.5194,15.3679,6.8836,70.1935,-71.0686,6.6433,13.1757
56.4205,-62.8271,84.6945,-8.2367,59.3694,23.0233,55.8843,61.5255,20.7494,124.7146,108.7309,-217.4611,93.9116,-13.4006,20.7861,21.6801,-58.7015,29.6469,61.8806
-46.2051,59.3942,73.3401,72.7440,103.6620,57.7163,104.8086,70.1879,99.1263,101.6799,-15.2549,-124.8965,101.0325,-106.6554,108.9482,34.3570,-41.9950,69.2452,138.3814
-116.3255,-26.0185,51.0347,7.1208,122.2118,40.6017,170.3499,57.1867,164.2604,44.7689,-129.0864,10.2328,106.0182,-69.2873,194.1555,29.0238,-47.3605,83.3153,183.3968
-79.1759,-104.6227,27.2394,-60.1713,101.8516,8.7132,163.7243,27.6229,169.6680,57.9139,-107.0806,84.5495,87.3740,44.0642,176.0292,-12.5377,-20.4484,36.5694,144.3062
26.4506,-33.7750,25.8378,-19.6869,67.9465,-2.8096,80.1214,29.9407,174.3215,177.7603,16.1347,90.1342,41.7877,53.3505,98.1607,-3.6603,34.3845,-20.1967,85.6995
85.5480,30.7608,53.0173,19.1240,38.5459,-7.2132,39.7419,54.8319,230.7930,286.5291,93.9678,51.1366,15.7978,22.1831,85.6818,65.2873,48.4555,-35.8649,60.8913
73.5040,5.3998,68.6994,16.1036,10.0676,-24.5008,77.9454,37.8859,290.6294,306.2284,76.7845,6.4816,28.5741,75.3051,149.1449,97.1162,23.6427,-50.1226,23.1973
51.9664,9.2548,54.8528,63.0419,-27.2984,-35.0433,93.3512,-26.3857,272.4818,237.1178,48.1676,24.6251,32.9059,118.4236,188.3376,72.3244,29.1244,-90.2327,-45.1525
52.9144,83.7250,57.7567,118.4391,-56.8749,-22.3167,54.1996,-70.5336,164.5444,101.2060,66.2716,114.2179,17.7451,74.4873,145.1190,60.3857,82.9550,-93.1026,-85.8266
77.5694,129.7164,106.5996,95.6883,-31.8632,-3.0621,37.2135,-55.9731,31.4464,-27.5743,102.7169,202.6659,30.2875,60.0935,61.4915,67.7669,132.2267,-36.8341,-78.0306
114.3659,97.3471,154.1415,73.7988,38.0165,15.5965,49.0313,-16.7234,-63.5414,-93.1879,126.3796,232.9967,67.0806,124.0269,3.4388,63.2929,130.0851,3.0750,-55.7141
127.6600,57.4392,146.3388,90.8171,72.1479,33.0972,32.8888,4.0583,-120.4678,-115.2941,142.6939,198.8976,89.7919,154.4979,-21.9345,69.8952,82.7394,-2.0456,-31.8473
114.3499,94.8155,90.0594,36.5790,57.2036,22.3537,19.3009,10.4294,-161.3483,-94.5216,162.9089,122.9855,109.3496,113.8563,-40.8451,94.8788,33.3902,-1.1689,1.1361
104.1063,157.9511,19.3909,-71.3793,56.0846,-17.3780,61.1669,25.9159,-168.1948,-28.9997,180.3028,49.2418,127.5859,74.6815,-41.5203,103.4968,11.7333,15.4695,42.7972
72.7341,108.2559,-45.5779,-110.6826,60.8197,-41.2758,103.0814,42.6631,-116.6273,21.0803,168.4671,18.0771,105.5195,60.8516,-4.5783,107.3751,-4.9674,11.0670,88.1974
-5.9269,-26.8454,-89.1731,-132.5284,23.5839,-53.1208,83.7148,35.2088,-29.4727,43.4730,122.1363,47.6244,56.5402,49.8815,35.9646,124.5657,-55.5908,-15.3524,113.0927
-62.4938,-82.6728,-98.1269,-195.3864,-17.2443,-91.6509,40.0947,7.3873,36.0462,82.0064,89.3910,121.2524,31.4807,41.9542,45.1302,110.9169,-115.9623,-32.4656,86.2154
-35.3006,-62.6640,-72.5890,-145.8388,-15.3398,-111.9961,10.7076,-14.4544,41.9241,105.1469,101.4537,170.0858,21.3190,44.0921,48.8880,69.0126,-117.5470,-27.8610,30.9094
24.7979,-76.3203,-29.2764,48.7587,-13.5720,-59.1795,-9.9857,-24.3033,31.7694,76.3532,116.1828,150.7124,-8.9112,71.5501,87.7856,78.8515,-57.0687,-34.5047,1.6469
48.5975,-68.3352,-10.5342,123.7066,-52.0311,-10.1513,-7.4469,-36.7439,88.0309,44.2375,99.7211,128.8071,-52.1025,131.2970,152.8748,129.9401,-3.1822,-91.1345,-11.3922
33.8046,35.6179,-44.2380,-26.6353,-93.9109,-46.5736,12.6349,-52.7324,167.3439,32.7881,79.9023,163.2230,-78.2658,166.7675,181.3392,116.0201,13.8750,-149.1942,-56.4268
20.6643,131.3606,-68.0276,-157.2651,-83.8407,-92.5682,-5.6640,-56.5002,129.6182,19.9454,73.7905,193.9922,-60.5778,140.2050,112.7339,29.3567,22.0029,-111.9008,-113.0668
56.9652,119.7129,1.7721,-105.0396,-16.7048,-47.4450,-53.0810,-42.0009,-11.4632,-0.4550,62.9638,161.5977,-0.6630,127.8235,-19.6561,-31.1415,27.1561,7.1169,-115.9716
128.2266,16.3890,118.9989,28.0751,50.6873,62.5679,-53.7382,-15.2623,-103.4958,-54.2636,45.6422,91.2174,57.9424,172.0061,-98.8646,-32.3493,12.8568,113.3171,-59.5212
134.9852,-126.9576,174.6125,144.4350,71.5757,163.9970,-10.7726,21.7924,-112.8252,-129.5023,38.0318,9.9687,90.7319,174.0891,-70.4261,-30.8250,-7.7683,183.7979,3.9992
49.6355,-181.3893,169.5596,214.7769,83.0935,216.6013,21.9538,59.3691,-100.0134,-134.9212,54.7142,-57.8162,112.9202,85.9444,0.9711,-51.0846,-15.6908,233.5831,37.1316
-8.2213,-43.9453,160.6196,176.7646,131.0580,198.6965,57.0464,69.6631,-58.1231,-85.8421,94.0148,-61.5986,119.2946,1.0298,36.5068,-55.2485,-16.3852,248.3919,41.6338
30.2739,124.0011,144.1430,59.6995,180.3414,137.1093,99.3735,47.7457,-2.0967,-91.5407,99.1063,-15.5751,105.2579,-30.6441,16.5764,-32.5927,-8.8910,247.9467,43.1214
78.9161,112.4462,117.9025,16.7758,185.9092,99.4151,93.3327,29.7007,0.1793,-111.4330,21.8153,2.8031,99.4236,-39.9945,-21.1104,-27.3199,13.6932,245.0427,59.2522
71.8336,18.6228,101.2496,65.3022,145.4478,86.4876,56.5748,28.8177,-6.2998,-64.1721,-47.8721,-14.0104,88.5171,-14.5932,-3.8424,-34.6805,28.1418,167.7698,67.8499
51.6932,33.5491,62.4209,53.4458,54.0779,33.1339,67.6386,9.3225,59.5534,-27.5167,13.2521,-18.1347,34.6968,46.3806,82.7991,21.9314,15.6531,1.9312,35.9958
57.6699,115.7345,5.4384,-40.4235,-61.5843,-56.9614,82.4403,-40.8647,112.7449,-46.5038,145.4690,-3.0427,-22.5928,79.1980,135.3363,128.1432,20.4935,-127.8263,-28.1961
94.1625,134.5939,40.8536,-56.3393,-113.5755,-88.8458,-2.7949,-85.5642,38.8547,-60.4307,199.8775,35.0884,-41.9719,80.5694,64.9361,153.3595,95.2642,-139.6841,-97.0059
167.5384,86.7185,189.2522,62.4861,-63.8885,-12.1086,-132.2209,-104.7538,-105.5080,-100.7617,163.5067,116.7110,-56.0212,91.8030,-69.4278,79.6246,191.3633,-76.6680,-155.1065
225.8076,57.6299,283.3557,171.6188,21.8808,96.6014,-162.2305,-102.7376,-198.3042,-194.1717,111.0117,187.5228,-49.7808,83.2535,-142.3905,36.8367,195.9577,-7.6651,-176.0906
170.1414,95.1495,207.7029,146.0563,64.6225,125.1155,-82.2084,-68.6611,-196.6777,-226.2642,80.9221,150.0244,31.1769,57.2157,-104.6431,63.3504,97.9921,3.4158,-138.1866
24.3001,119.4873,50.9558,40.4107,42.1370,68.1933,12.6124,-8.7625,-134.5341,-164.1842,99.1945,26.1311,118.6143,92.4919,-13.4596,88.7041,9.4469,-60.7818,-71.8050
-58.8304,27.1354,-48.6859,-15.1548,0.9233,17.1955,63.7929,26.2154,-88.4233,-113.6945,139.1925,-42.4355,111.6693,152.7559,31.2568,108.5355,-9.1080,-108.5984,-14.8652
-34.2914,-87.5577,-54.7315,5.8727,3.1989,18.7005,58.4965,12.1880,-94.1113,-106.2670,83.3175,9.6612,52.8146,123.3369,0.7270,130.1362,-10.5355,-70.8856,43.6607
-23.9576,-48.8683,-19.8386,16.2205,28.9572,30.3592,15.3380,-5.7310,-93.1251,-111.3645,-79.2901,87.0105,18.4247,45.3621,-32.2722,96.3985,-28.4215,-13.7351,109.5144
-77.3184,88.1427,-9.1869,-35.8939,21.7908,13.5622,-6.5308,16.1881,-51.8355,-113.5555,-166.8450,91.5761,-1.8271,31.7420,-30.2331,29.8880,-35.4166,4.4809,145.5805
-87.2511,131.3431,-29.4922,-80.4329,5.2247,-13.1552,9.1485,57.8343,-28.1241,-69.7594,-87.2943,48.8650,-24.0825,71.6038,-53.6403,18.3277,-26.6604,9.3132,132.5261
-8.5802,49.1404,-39.0426,-27.1197,2.5971,-12.2759,-4.2789,64.0547,-41.9967,-2.3560,24.3675,18.5018,-52.1157,99.3672,-112.4535,31.7451,-10.9934,-0.5882,92.1882
52.6915,-43.7909,-27.9176,88.3094,-34.2599,16.1917,-63.2622,13.2891,-32.2104,-2.1570,48.3887,14.6467,-112.1386,70.7186,-113.3971,15.6524,21.8679,-43.3062,49.7516
22.9087,-57.0306,-18.0975,133.0632,-88.2029,22.7624,-85.6556,-47.3242,23.3836,-20.6105,2.1840,48.7494,-178.2631,-24.8618,-33.4284,32.6613,47.3324,-78.0825,24.9359
-42.7810,-9.8150,-2.5711,64.0701,-80.4973,-12.4236,-52.9114,-54.0760,60.8996,36.1028,-72.2211,98.1245,-182.4709,-74.5558,11.6514,92.8175,30.2600,-69.8682,17.3328
-60.8692,-11.1013,34.5683,-7.5936,-39.6787,-23.0690,-57.6299,-19.3171,2.0941,85.7905,-113.7545,76.2983,-133.6126,22.1208,-61.8567,93.3678,8.0559,-32.4456,-13.7309
-1.4810,-68.5875,74.5349,2.5659,-33.1957,26.6342,-125.4708,-14.0665,-146.1525,53.3718,-51.4322,-10.4175,-86.4923,110.2849,-181.1762,34.4984,25.7777,9.6261,-84.1696
85.7007,-22.0193,86.1674,29.2673,-32.4897,55.8974,-157.8617,-50.2300,-256.5785,13.4640,45.8237,-25.5332,-50.0246,29.2005,-219.0853,11.0861,57.9437,15.0861,-130.8126
91.2611,137.5187,52.6441,10.4323,-15.8277,17.3640,-103.6794,-65.7791,-227.7486,11.7010,34.1682,49.4923,-21.4432,-68.5438,-156.7240,30.2068,75.5798,-35.5300,-101.9977
-10.1046,161.2447,-12.9406,12.5763,-10.8209,-10.9640,-38.7340,-34.8752,-134.8761,54.7228,-57.8859,62.6397,-5.8573,-24.6911,-80.2564,64.2644,69.3951,-72.9380,-39.1271
-86.3320,-24.7274,-53.4545,80.6929,4.1569,14.2205,-30.5189,-1.2344,-95.7042,155.9989,-96.9124,-30.5150,12.1146,45.0474,-43.3779,119.4002,13.3449,-36.6161,0.5979
-51.0909,-156.1163,-25.2243,115.3046,34.0601,24.9963,-48.4764,-0.2926,-85.5572,202.5549,-77.8274,-92.6587,24.0366,42.6086,-24.6277,149.9343,-62.3143,16.4944,20.5024
-9.3902,-68.9206,25.9618,28.2512,5.5647,-21.4153,-53.1145,-25.1866,-30.3071,103.5805,-62.5445,-45.9127,-7.4956,28.2534,-3.1554,120.9011,-65.6944,5.9967,36.5277
-56.0113,66.6428,16.4792,-99.3694,-87.9814,-87.3969,-62.8145,-57.9628,59.1661,17.8551,-55.4257,28.3613,-69.2062,7.2498,25.9094,98.0484,-2.5255,-66.3806,41.2540
-111.9641,60.4496,-54.9306,-128.4928,-160.6073,-129.6547,-80.3613,-79.1667,132.9672,68.9771,-76.9195,46.6724,-112.8089,-38.3023,65.7821,100.0713,29.8712,-141.3732,41.6737
-93.2922,-30.2410,-96.8739,-56.3422,-176.9324,-128.7215,-68.1178,-71.0194,146.8747,138.5784,-146.4732,31.2540,-125.2002,-44.5707,71.9368,56.0724,17.8990,-150.5579,49.8360
-44.4824,-50.9005,-44.3805,2.3241,-152.7349,-86.0998,-43.6679,-42.3780,73.2145,158.4218,-183.9382,22.5714,-108.1111,-18.2553,1.7360,-21.2412,14.7240,-78.5922,34.5471
-13.6134,2.3234,44.0281,-1.3239,-99.2462,-25.9705,-63.1316,-22.1068,-31.6137,166.7104,-131.3925,-9.9456,-65.9997,-29.6275,-65.0312,-70.5486,20.0660,-2.3973,-34.1135
14.7969,34.7160,58.0199,2.2324,-61.5389,27.0640,-90.6027,-23.9774,-60.6245,108.4851,-61.9035,-73.7014,-32.1931,-43.1525,-23.5796,-114.0702,18.5017,4.7502,-110.2624
26.2559,49.3205,-9.1944,51.6622,-79.7667,50.1505,-52.1197,-43.5651,-6.4106,-23.9134,-40.9875,-82.5109,-20.0850,-22.6937,73.2278,-139.5622,19.7986,-32.5451,-126.9782
-12.3747,86.7842,-69.9275,75.2408,-108.9638,23.8564,11.4967,-69.1997,37.9095,-104.1328,-63.0802,-18.9891,2.4704,-31.8228,107.0484,-63.6832,12.0389,-49.1583,-90.5866
-62.0437,87.8875,-86.2788,13.1499,-85.3289,-25.1656,24.5027,-80.2427,23.1084,-111.9446,-128.0034,4.6598,33.8588,-70.2279,70.3933,57.8072,-10.1178,-11.8308,-43.9287
-70.5382,24.3016,-85.3346,-80.4134,-17.3512,-44.7551,13.9278,-67.1060,-15.3896,-120.5234,-193.0963,-38.2783,34.8886,-76.5492,15.9476,66.6599,-19.2797,75.4511,6.4144
-59.3585,-19.7474,-72.5908,-106.6165,42.4534,-30.9996,19.2183,-46.4535,-36.1978,-111.8266,-170.5560,-71.9402,16.0928,-90.0440,-29.3269,-27.0364,-22.4565,170.0560,60.3266
-54.1306,-22.1736,-42.6773,-43.3005,67.9557,-8.2459,17.4938,-24.8142,-39.3238,-72.7103,-88.6024,-124.3741,16.1946,-152.3000,-37.5098,-80.6942,-44.5532,222.4993,93.1810
-37.9199,-40.2916,-20.1687,26.4798,80.5573,14.0066,17.9761,15.6148,-36.9760,-53.0433,-56.7046,-229.2175,24.5448,-187.0804,-1.6878,-57.4608,-59.9901,222.0257,102.2268
-30.5644,-67.4306,-30.0525,17.7396,90.7762,15.7553,54.2295,65.5603,-12.0142,-49.8581,-84.4927,-256.7617,14.0411,-149.7536,34.2823,-20.9552,-52.9543,175.7151,116.3544
-74.5837,-75.8036,-77.9533,-37.8035,61.6596,-11.4162,91.7338,76.4175,53.6052,-52.9608,-139.8936,-143.8072,-8.5217,-99.2798,47.3842,-1.8614,-52.8900,97.3296,137.2505
-128.6770,-69.3355,-141.6475,-52.5674,3.2231,-27.7900,88.4301,24.7374,116.4392,-90.8525,-228.0408,-26.3023,-30.6385,-61.0290,52.1156,-1.3150,-52.1831,37.0805,126.5567
-116.3879,-33.4618,-158.4301,-29.3307,-4.6857,-12.0433,57.7701,-49.3882,102.4329,-139.7225,-272.8707,12.6507,-43.3227,-12.7116,31.2693,-33.9546,-25.2354,44.5440,65.3496
-54.2505,1.3068,-96.7874,-15.3605,39.0598,14.7322,13.4267,-77.9507,5.4479,-177.8890,-178.9666,-0.1373,-20.0790,8.0195,-37.8538,-100.7119,-8.1914,110.5039,-0.8746
-18.8856,-20.4157,-18.0405,14.3258,64.1207,53.2961,-18.0068,-33.1266,-95.4866,-234.8342,-36.4508,-67.7694,45.6779,-50.9769,-113.9004,-166.2273,-28.2853,181.7673,-5.0848
-37.0140,-22.5255,16.1388,73.6770,82.8780,94.6955,16.2439,39.4074,-121.7202,-253.7156,7.3912,-139.6005,106.0215,-133.7859,-136.3108,-190.6131,-42.2301,198.1984,46.8139
-71.1689,53.9720,18.7537,83.0538,124.5863,84.3973,84.5933,83.9212,-78.6693,-137.9637,-23.3730,-112.2770,116.6394,-143.7482,-104.5129,-170.1944,-26.8205,143.2853,84.4620
-69.0235,69.1201,11.5066,4.7559,131.1963,22.8121,93.6578,110.1499,-39.2695,61.4825,-40.6809,-34.1800,91.4967,-104.2349,-73.0903,-129.6037,-12.6198,77.2728,92.0594
-21.1786,-37.7600,-8.0922,-78.7467,85.3575,-24.9329,53.7907,138.8004,-35.9483,229.3323,-35.0069,-21.5826,63.1854,-92.3902,-79.7492,-82.7669,-14.2572,43.6491,111.8208
14.9355,-110.5470,-36.8239,-106.5104,43.7806,-53.2788,38.9922,137.6384,-22.1022,327.1672,-10.9682,-52.8887,41.8935,-78.7469,-86.4495,-28.2730,-27.9574,-1.5917,132.3439
-11.0193,-93.0258,-79.4996,-118.7359,4.9791,-95.2676,45.0513,98.9956,29.6873,348.2036,21.6175,-70.0350,31.3734,-42.7871,-41.7074,26.8261,-47.7140,-74.3385,116.6716
-62.4053,-52.5826,-131.3076,-149.4434,-46.3899,-128.2519,35.1736,69.8496,80.9745,310.9316,17.7760,-62.3789,21.9902,-86.4474,4.7098,49.7842,-34.3167,-116.0969,91.4159
-60.5450,48.9163,-139.5371,-153.7686,-67.6371,-125.2383,2.7761,47.3731,102.5968,268.5216,-3.9379,6.1833,-18.4883,-199.4463,-28.2792,-14.0841,40.1997,-118.4785,69.6293
23.3157,217.9779,-76.6408,-88.3349,-60.4223,-97.9816,-58.0344,-3.3390,94.8551,227.1313,43.0529,104.9942,-79.2733,-216.5778,-98.2023,-165.3486,125.7579,-111.2857,1.4949
140.9061,332.5311,6.5990,-1.2659,-62.4542,-51.6912,-120.4750,-42.5897,50.5048,172.0805,154.0706,110.7980,-93.6656,-163.7962,-118.3673,-282.8840,167.9572,-67.4449,-102.8533
208.3349,363.4993,61.3241,25.6036,-54.2950,-8.2723,-132.1050,-36.7337,-10.0284,133.2729,215.0636,46.1229,-57.6745,-191.8409,-112.0171,-261.7891,188.3183,4.3918,-165.2355
195.8949,354.1117,69.7502,-3.5936,-39.9721,-18.0236,-117.3130,-46.3274,-32.0452,119.0496,154.4776,72.3284,-53.6686,-210.9622,-128.0775,-181.5509,217.7801,10.4657,-176.4929
154.9173,292.8345,12.3979,-32.3733,-72.3590,-75.4287,-135.2762,-96.4631,-16.8861,112.1740,25.2523,193.9477,-108.3720,-130.4619,-140.3268,-160.2304,239.6984,-69.1175,-180.4051
116.4151,246.5318,-79.9189,-61.1428,-135.6442,-127.4729,-169.8960,-127.5810,-28.3220,113.2286,-51.5869,262.6507,-160.1479,-138.3407,-142.2898,-155.7264,235.3072,-148.9900,-182.9727
68.7480,274.1592,-128.2296,-94.6413,-187.5009,-155.9205,-194.4574,-137.4778,-99.4926,79.3176,-26.3387,230.0038,-178.6650,-267.0498,-178.4119,-116.7141,205.5520,-178.3581,-195.4130
61.2439,228.7538,-117.9551,-72.8445,-236.6842,-153.6915,-230.9373,-176.8280,-221.0891,-13.6430,2.6146,179.5863,-190.6604,-276.2308,-249.6169,-143.2686,165.7570,-162.8076,-250.7303
135.6932,75.9915,-89.3472,0.2924,-261.7859,-116.4233,-279.3185,-231.2352,-366.9376,-63.5810,-67.2125,185.3722,-211.9186,-209.8888,-322.5300,-291.3475,157.5710,-131.0098,-324.4594
174.4101,75.2699,-62.3043,-2.8102,-237.9361,-107.8186,-314.7850,-270.0923,-461.8627,-28.7839,-179.0729,239.8168,-238.9674,-302.7908,-368.6556,-423.3050,182.4629,-149.8396,-354.5056
62.5131,269.6628,-80.1270,-133.9509,-229.4576,-185.9985,-327.4506,-310.0515,-435.8936,-30.0110,-225.0638,268.4218,-266.6627,-424.8120,-341.2464,-413.9493,142.3553,-243.0833,-333.8297
-84.5365,324.9669,-179.2168,-265.4420,-273.9154,-279.8495,-309.0621,-346.4827,-356.1831,-102.4195,-212.0799,201.7685,-289.0724,-370.8864,-254.5391,-329.2328,-12.7414,-326.5469,-315.9694
-99.7526,94.0785,-269.9343,-280.7613,-321.6443,-290.0156,-294.4190,-356.3292,-356.7154,-167.0184,-196.8654,50.9163,-309.8207,-288.7568,-228.8667,-296.9806,-160.6034,-342.3782,-353.6048
-31.2966,-173.8871,-257.9935,-231.5368,-365.3658,-246.4172,-346.3008,-363.3908,-423.9786,-239.6299,-186.9386,-93.4183,-325.6329,-292.5983,-290.3732,-321.3378,-192.7798,-343.6373,-430.5847
-37.5391,-234.1333,-222.6030,-227.2261,-410.9322,-237.1370,-405.8671,-387.8132,-432.5387,-336.7040,-187.8224,-138.7314,-313.1511,-270.8753,-301.4113,-313.1882,-176.7647,-365.6185,-460.4244
-154.7232,-123.4565,-250.1806,-253.0108,-389.1945,-256.4039,-355.4661,-398.7936,-379.7893,-372.0626,-216.5782,-99.1459,-274.5148,-242.0296,-228.6383,-261.3442,-193.1765,-353.0352,-406.4310
-271.5069,-61.8879,-259.7906,-203.7016,-289.3316,-229.6524,-254.8620,-372.0472,-377.6807,-348.9214,-234.7764,-102.8353,-240.5080,-276.4897,-210.1904,-259.0903,-212.9579,-265.5468,-336.4723
-259.0728,-158.0063,-190.5729,-96.4722,-208.5953,-155.5654,-242.4702,-315.7336,-431.5138,-348.2478,-187.0619,-210.2871,-215.0407,-272.7007,-273.4995,-331.6964,-217.5042,-157.6733,-293.9793
-130.0482,-258.1208,-137.4472,-84.1052,-187.6880,-124.4168,-276.1238,-248.6731,-430.5629,-340.4163,-116.6346,-304.7945,-191.5708,-227.3401,-288.4949,-382.4055,-227.2619,-113.9176,-236.8104
-55.7916,-217.8869,-171.8487,-187.8398,-185.0621,-166.8241,-235.8949,-195.9143,-335.1982,-294.3278,-138.2827,-275.4112,-181.1209,-254.5591,-217.4184,-354.3152,-220.7401,-141.4675,-140.1716
-145.9554,-142.4025,-246.3177,-242.0770,-176.6388,-194.9510,-136.7049,-165.0619,-217.2040,-269.2993,-265.2247,-176.7968,-168.9514,-259.4384,-148.2142,-282.9572,-197.0853,-178.9637,-36.5344
-289.2133,-154.2772,-303.6064,-184.9994,-157.6884,-160.9302,-64.8187,-139.0450,-154.6451,-246.3752,-343.9851,-116.0363,-134.2026,-152.6793,-129.8353,-193.3404,-200.1028,-189.1496,24.3357
-304.8051,-201.5320,-297.0889,-130.9979,-132.3437,-126.6511,-61.1011,-114.1206,-171.7435,-154.2386,-236.5502,-127.6296,-103.5022,-124.5126,-155.0858,-114.1389,-189.8279,-150.7542,-5.5432
-156.1407,-214.3103,-169.9621,-114.6073,-108.7478,-108.6400,-110.4933,-88.5039,-224.6447,-49.7061,-19.9414,-185.3083,-85.9151,-237.0269,-207.1585,-121.7918,-97.3487,-28.3861,-103.5892
31.1024,-173.1462,37.3299,-54.1984,-58.8400,-44.5683,-140.0593,-44.9413,-230.4783,-30.5987,92.5095,-214.5621,-47.5196,-238.3029,-228.8775,-219.5650,4.3936,112.9658,-150.1297
95.5104,-59.5997,160.5200,37.9757,22.4146,42.3157,-88.9357,-3.1445,-155.7744,-78.2666,11.4434,-139.0851,-8.5688,-53.5114,-163.0838,-281.4611,14.2380,115.0900,-82.3420
3.4390,70.7868,95.7363,61.2890,62.5695,53.8091,1.0600,3.5874,-34.8499,-97.9576,-125.4954,1.3563,-9.5441,81.5522,-47.7036,-213.3515,-28.5291,-10.1817,19.7143
-104.7534,101.0980,-68.5044,1.2030,34.2438,-0.6893,57.0637,17.5612,90.0414,-25.8656,-117.8494,55.2944,-4.1510,42.9304,31.7538,-68.6827,-61.0978,-55.7197,69.7759
-89.8147,-0.6611,-147.9664,-61.3738,5.7432,-19.2299,67.9957,87.8696,167.8279,84.8018,52.3554,-53.6028,45.4965,-52.1423,57.6030,28.0466,-85.2368,51.2551,68.0934
16.8839,-139.8924,-54.1351,-58.6662,18.5983,25.7496,58.8514,163.0657,160.4514,112.2567,174.1100,-194.0790,83.4996,-70.1056,74.8829,18.5891,-75.9793,165.8699,63.2595
78.1428,-165.7392,106.4568,13.5846,64.4652,80.5886,82.2496,182.6220,138.8832,72.0659,75.6410,-166.3602,91.9781,11.3788,122.7353,-22.5433,-23.3828,182.5023,119.0588
17.5826,-30.9247,136.8742,102.3188,128.1908,113.9274,181.7646,171.3407,206.3352,97.8685,-107.6071,22.0790,123.7416,105.0651,202.2965,20.1704,0.3177,129.0913,233.4652
-92.4859,106.2137,-2.3334,133.2374,157.6747,119.8409,272.5535,160.3535,301.5312,185.4092,-90.7618,159.0244,162.1600,111.3281,253.1484,140.1532,-11.3456,68.5901,281.1543
-83.8398,117.6141,-109.5344,73.3101,122.1689,83.1100,220.6187,142.2278,275.4268,219.3714,161.1136,144.4091,146.0933,60.8712,192.0855,229.4529,34.7312,62.9343,184.2057
100.7599,97.3985,4.5313,-17.1948,90.1968,27.4552,76.5729,126.2357,133.1544,191.8485,374.6646,98.9386,96.2159,64.1775,51.9260,237.9858,135.3118,129.5510,59.1321
285.8104,110.2753,250.6602,-15.0204,117.2410,29.7918,13.4202,125.5569,17.7756,159.9546,312.8590,128.0248,69.9770,131.0180,-8.2061,195.9894,197.3121,187.7400,40.9641
274.1810,94.6920,367.4871,117.1528,162.7177,102.8624,67.5779,113.5728,24.4155,135.4473,50.5612,215.6557,81.3493,177.8829,76.6019,150.0967,214.4889,150.7231,98.6020
110.9960,103.7116,249.5946,240.0278,176.9697,142.5343,134.9548,67.3537,128.3831,130.6991,-102.5224,318.8844,119.9244,175.1148,173.9435,160.1504,227.7612,41.2686,123.1645
16.4042,193.8330,63.7752,207.7061,139.2006,84.1260,124.4156,19.1000,206.4086,147.2376,70.9656,362.9191,145.6498,164.6393,149.8473,242.4689,231.3877,-35.7468,59.3984
122.7050,228.7416,45.1580,74.6487,62.9638,14.6655,14.1700,21.6957,147.4298,143.8052,419.7839,279.9662,103.3017,163.6969,30.0300,306.6525,239.1866,3.2212,-55.3045
327.0549,160.6222,223.5740,4.3707,36.1632,32.5451,-101.3321,73.7347,25.6000,118.9843,538.9258,171.9510,25.2588,157.4656,-57.8244,280.6426,265.0734,118.1475,-91.4116
379.8836,117.5988,369.9783,55.1640,112.4491,106.0838,-47.3661,113.8701,38.7866,111.8532,248.8471,200.7335,18.0348,174.1550,7.7390,219.6450,238.1088,159.3946,34.7369
179.0894,109.7559,266.8931,160.6804,195.1800,156.6508,176.0620,114.4536,215.7266,118.8285,-136.2919,307.4200,98.3818,239.1601,215.6243,181.8377,127.5927,80.6127,200.5421
-53.3772,116.4609,24.8442,225.4745,186.7844,172.1759,313.0568,122.9699,359.5979,118.2843,-172.1650,314.9860,163.4033,270.2086,348.4573,149.6113,46.5725,41.3700,225.7358
-41.2332,209.9991,-28.2614,193.2137,132.4384,180.1689,212.9794,168.5981,319.9275,105.3083,147.7142,216.0172,148.6377,197.4408,227.1139,136.2854,68.3911,156.5263,140.5281
164.1402,265.9314,184.5277,107.4259,116.6953,192.9399,68.3042,220.7110,172.9512,78.1013,389.0043,120.0771,112.1717,128.6376,20.0926,183.0750,101.3165,298.7703,109.2178
262.7268,99.8459,357.2683,83.9454,153.6791,203.9719,101.9094,260.8657,113.0676,73.6029,254.9724,81.7094,130.4068,179.7592,33.8385,245.7796,56.4595,290.5073,170.3335
112.1390,-94.1340,240.0781,160.1932,192.0563,197.8115,245.3481,283.0195,229.4197,144.7353,-54.5652,123.4526,182.5247,277.3729,262.0522,262.4658,-16.9403,135.0459,232.4714
-111.6324,-71.9805,-22.4820,237.5193,170.7021,167.6183,312.9608,259.4511,394.0313,257.0113,-160.0918,231.6950,203.0944,319.2270,432.8542,276.0915,-26.5686,-25.6220,227.9495
-154.8796,38.9060,-124.4367,215.8949,117.4729,126.4457,275.9453,203.2523,397.3547,308.2473,27.6553,299.6707,199.5405,315.4387,396.1945,335.2390,39.7801,-60.1346,140.6275
16.3133,108.4917,22.8820,122.1890,122.2584,95.8273,203.5910,163.5975,205.4048,246.5502,287.4131,259.1728,211.7072,275.7158,234.3860,369.5919,121.8801,49.6972,-5.4848
209.8127,194.5766,255.8601,76.8779,170.3384,100.1788,134.3663,127.6091,9.4441,122.8947,367.6803,205.8669,207.4185,213.1191,108.6581,300.5609,170.8259,175.6514,-106.8927
244.4047,222.1705,357.5972,154.8646,174.9009,151.3279,111.2779,71.7283,-3.2992,43.3049,190.1467,248.5230,148.7408,222.6587,118.5236,184.1657,184.4427,163.2840,-58.2562
116.4520,108.7527,239.7301,289.0101,139.7664,215.4126,154.8960,52.2596,135.2053,37.4350,-84.3437,341.1868,84.4865,323.0781,210.7721,134.3570,171.6943,27.7222,87.7523
-28.0646,28.6812,29.5061,331.1922,100.8356,236.0475,176.0131,100.3914,226.2747,23.3494,-174.6704,361.4114,57.9019,364.5427,225.1597,161.8177,145.1055,-49.6124,169.0316
-31.1096,105.2158,-39.1755,229.9687,53.2325,205.3417,105.7593,157.6107,153.4613,-21.5041,13.2098,266.4029,42.6821,254.5937,105.5857,172.1738,137.2314,51.7550,131.0536
107.7138,213.2005,100.9335,115.9967,46.6670,173.8827,44.9757,193.0611,10.1008,-28.2072,261.0956,129.0520,41.8781,103.6961,-19.0895,109.2283,151.0361,244.7658,66.9956
212.1731,244.8651,257.9190,146.2451,126.6332,187.8051,88.7199,216.6162,-56.2171,-23.6798,318.3135,62.4861,85.8356,62.7141,-24.1485,32.7455,145.7233,349.0872,64.4189
166.8663,215.6880,234.3787,278.5527,201.3648,228.7537,141.3218,199.5222,-29.2703,-78.1193,185.0213,110.1568,120.2001,128.1499,46.8716,22.0722,133.8011,292.7674,121.7486
71.9294,188.7262,78.4608,324.8366,183.0879,224.4787,86.9002,138.4596,0.5991,-128.8279,42.7998,208.0325,76.2654,166.4772,60.7282,58.7841,179.1249,157.5393,169.9505
64.8375,238.9352,-0.7406,241.0929,119.5265,151.0412,-23.5943,87.9125,-53.3523,-128.6421,28.8846,265.7695,8.8867,128.7115,-33.2008,74.4251,260.6269,67.3749,123.7379
139.4960,317.2957,97.7368,177.7816,69.4202,90.9045,-85.9672,50.8549,-198.4246,-151.7436,126.2900,248.7873,6.1571,119.7187,-156.5646,63.3344,283.3886,80.8501,-10.8514
202.7184,284.4717,254.8819,210.6822,45.1929,113.3852,-83.9982,2.3007,-314.9725,-179.9381,208.2125,174.5690,46.0343,159.4755,-201.3517,62.9165,223.8548,158.0616,-102.9619
178.4759,185.1703,276.8391,246.4636,60.7883,162.0796,-54.5097,-11.7720,-266.6931,-107.3402,184.6715,98.6188,56.3394,128.1530,-134.1927,78.8503,138.2932,187.8591,-73.0928
74.9856,160.6077,117.1463,220.9864,80.6198,155.1370,-30.3537,28.9943,-104.7253,24.2630,96.4588,99.1797,25.3588,64.9002,-12.7941,105.5991,78.2304,88.1084,-4.9270
5.8592,159.9386,-71.5482,177.1597,45.8878,112.3724,-23.0186,54.3042,0.2547,100.2975,32.7214,180.6440,-6.8534,130.0769,62.5714,147.0891,67.1192,-76.8115,17.5038
46.2708,95.4878,-116.2430,149.3716,-6.6920,100.6974,-9.5118,53.0026,10.7986,118.5251,24.5448,219.1137,-2.4549,238.8261,38.7523,171.7347,77.5439,-136.2001,25.3001
107.2926,39.9122,-18.4041,124.8658,-12.8755,129.1848,29.7272,91.7323,6.6152,123.0289,57.8671,122.7952,36.8936,201.0249,-19.4289,145.1655,40.1853,-31.0423,46.2852
85.1320,40.9507,71.2377,86.2831,6.9958,147.3039,73.6547,148.0584,10.9103,127.9850,94.4659,-6.9073,66.4585,100.4371,-3.3085,108.4508,-37.6803,87.1062,53.2694
14.9855,58.3022,48.9172,28.3043,15.1525,112.9025,101.3427,139.6744,16.2623,118.6146,77.4752,-13.5063,55.0038,98.6946,84.8285,107.3228,-50.5176,69.2581,52.0740
-25.0919,105.2817,-35.5277,-18.5001,5.6138,50.1774,109.8183,84.5904,37.6865,45.9966,16.8289,87.8930,20.7069,141.9754,136.6376,100.3378,35.1562,-19.2848,60.9082
-9.4686,174.7940,-76.1376,3.4157,-23.8136,22.2952,80.7514,55.5517,37.4062,-61.7776,6.8915,162.5742,-10.9049,151.3855,94.4843,62.1615,120.2817,-29.8094,45.8479
57.3024,169.9346,-45.5712,89.8354,-43.4749,37.5805,13.8187,55.7804,-32.3155,-80.3082,63.0754,150.9338,-28.3155,147.3682,12.2561,58.6667,125.9999,42.5342,-9.1032
123.1615,75.3251,8.8607,138.6012,-16.9234,41.2923,-37.8805,47.9582,-107.5510,-17.8950,71.4603,91.1291,-17.9121,111.6071,-36.7201,103.2701,77.1545,104.0325,-60.6750
112.5870,0.2516,48.0947,70.4924,23.0644,11.3136,-42.7180,21.7096,-92.1928,-5.1159,-1.7511,31.7066,8.2485,54.6776,-34.6474,115.5890,34.1387,117.3946,-86.8145
45.1621,1.4843,64.0813,-24.8677,33.3125,-4.2794,-32.0866,-4.2222,0.7298,-30.8194,-26.6469,5.4703,8.3305,90.2464,5.0543,101.1816,42.0601,99.7328,-97.9032
15.7725,26.6505,56.5998,23.0439,28.3702,48.1049,-24.9966,1.4782,82.7567,-14.6653,63.1516,23.7690,-17.1156,222.0084,65.8429,145.4327,108.9102,74.8708,-79.1149
42.3966,33.6222,35.8123,182.7299,25.7686,157.2176,-2.4509,46.2010,87.9989,3.6851,148.5964,59.3441,-15.5001,298.6573,105.9230,212.8588,170.9806,80.0294,-18.4378
49.9107,45.6943,24.0832,230.2211,35.9862,243.2777,42.4395,97.4501,27.2121,5.8761,123.3999,69.1384,37.6334,260.7841,91.1408,203.4736,139.2918,133.9348,57.0881
-11.1222,52.6473,28.4600,130.2184,86.2831,244.2098,105.5080,136.8594,-3.7995,49.7926,34.3217,30.8192,112.7874,200.4082,72.4921,145.8129,16.6733,202.5333,122.7861
-102.3328,-8.4128,35.0122,85.5069,161.8242,196.8764,174.8588,175.9090,71.9987,108.0873,-33.4344,-37.9959,163.6288,198.0716,110.3138,111.4928,-87.0732,240.1318,172.3257
-147.5959,-81.7246,35.1430,135.2775,204.4539,170.4621,199.3921,201.0338,200.2984,143.5235,-47.3889,-80.1269,158.1707,228.8729,147.2554,93.7249,-87.5676,227.9440,196.1834
-126.1175,-35.6628,29.4932,117.8508,192.2343,151.3207,152.0283,186.5881,277.1615,216.5641,-2.9380,-64.5313,117.1471,202.0089,132.2011,118.0658,-34.7680,176.4883,192.4953
-85.7736,38.3439,15.7944,17.3678,144.2081,81.8576,108.5999,146.9511,287.1208,325.9397,58.1877,-42.9209,104.0975,109.4144,153.1747,230.0571,-37.5754,119.9880,165.6836
-57.6184,-47.9492,1.8585,-61.5535,97.3399,-27.7321,134.5768,103.1175,267.8494,381.8004,70.9517,-65.7727,127.7539,68.1753,237.3320,326.6625,-97.4963,80.5698,113.2793
-29.0538,-182.5002,13.5168,-103.7640,87.3745,-101.2501,161.1128,56.4956,224.9224,360.4028,64.1565,-105.6622,125.4603,91.6540,248.4043,283.7799,-112.6901,56.7507,58.2168
6.0300,-161.9301,69.2433,-73.4977,92.7015,-75.8137,121.4616,37.6603,165.8638,290.9975,112.6430,-129.1307,87.3844,50.7743,171.4750,187.0445,-44.6534,66.5358,48.8982
48.2607,-71.8853,147.1190,85.3720,79.3237,35.7121,92.9313,79.8363,137.4175,214.4430,162.6560,-122.3214,80.6639,-8.1511,161.6127,165.4447,43.6676,112.7747,91.2607
90.7041,-20.1436,178.0558,225.0565,86.1338,136.1201,146.8760,133.3986,161.5127,195.4758,106.8740,-45.6003,116.0141,74.8171,213.1375,163.8269,100.2616,124.5249,140.7136
84.0423,72.6181,115.0708,176.7631,124.1422,145.5330,206.8586,128.6181,192.8980,220.4021,1.9432,68.2448,130.4640,170.2834,190.0037,111.3223,110.0037,70.0945,161.5346
12.8127,157.2692,30.4593,64.8663,122.2266,109.3394,191.1291,97.2423,183.3221,211.5264,5.8678,68.7638,116.8740,68.7134,135.8050,88.7205,68.0955,42.6436,142.6211
-24.4753,86.8151,47.2468,52.5831,87.2736,107.1721,131.9649,105.2353,136.7351,183.4773,141.4697,-73.5473,122.9109,-64.0000,144.9443,152.0491,29.6166,94.0171,94.8606
53.1562,-26.9386,149.1731,53.5342,91.6060,107.4390,78.0812,128.0856,78.5679,157.4184,261.6747,-166.1136,133.6523,-10.0683,137.0705,209.5184,76.8125,137.9585,63.9521
169.4443,10.4599,201.5371,-5.4766,105.2609,56.4219,53.9487,121.6170,36.5715,76.2757,222.9818,-81.5944,106.3741,84.2290,87.5676,187.4800,178.0597,113.4119,91.9675
193.4532,144.3371,153.6859,-10.0122,90.4086,18.0773,110.2655,132.5421,57.1865,2.4162,63.1085,75.3948,84.2614,83.2840,133.7362,149.3653,214.6257,61.8197,165.4960
112.2411,220.6498,57.8324,67.7145,104.9423,56.3004,232.9241,212.3747,147.7543,68.1409,-4.4793,151.7913,123.8363,117.3376,254.0909,175.9403,154.6625,30.0135,230.1646
47.0893,196.4743,-35.4888,82.7912,136.2160,96.3313,282.0546,300.0001,213.4699,178.8371,149.3512,94.6910,169.2417,182.5336,253.8036,222.9813,81.6920,48.4529,222.3897
117.5626,143.3862,-50.5808,0.4134,103.0527,67.0173,186.2864,296.7586,159.1418,161.3251,369.3040,-34.7369,143.3067,100.0532,120.3545,175.3618,91.6752,125.7598,112.2041
288.8134,206.9265,82.5759,-17.9516,54.8919,42.2222,59.3955,200.1871,25.7414,72.2970,406.2238,-67.7194,82.1578,-61.3685,8.0705,31.8374,221.4084,184.5888,-27.3598
403.1113,426.3214,263.9671,120.6071,76.3728,94.6910,4.4808,92.0971,-63.1931,34.1143,219.1516,104.2861,52.9770,-89.0913,-42.8024,-71.0888,402.1340,141.4305,-75.9919
380.5483,619.1415,296.7071,270.1964,103.1433,156.0275,-20.4954,33.1422,-47.7504,24.9279,-8.9156,333.8257,37.9378,-14.3947,-68.5497,-72.1704,489.0237,41.2334,-43.3601
286.7309,615.6012,149.8101,237.5202,41.1220,134.6352,-76.0481,6.6238,14.0513,-5.6060,-54.5267,377.4183,-6.2852,19.2789,-56.6472,-78.3280,405.7669,-29.7050,-62.5660
209.7132,423.4699,-38.6830,49.9355,-102.0791,36.2290,-156.5379,-47.9402,0.5869,-71.1208,130.0340,207.9202,-78.7844,-0.5915,-55.1926,-169.6238,213.4492,-78.7237,-180.0741
176.6363,140.9316,-139.0905,-90.0114,-250.3316,-81.1493,-237.1528,-151.6842,-127.2371,-177.3384,286.3288,22.3271,-162.9875,-55.8867,-154.9528,-276.6525,35.5407,-144.6822,-292.5871
143.8066,-51.6160,-95.7650,-59.9013,-287.7869,-147.1299,-270.8224,-246.8767,-235.1477,-267.3250,90.1998,19.2680,-225.2705,-127.2438,-272.0381,-309.2382,-21.4141,-209.5509,-294.8687
28.7202,-11.9158,25.6552,81.0947,-169.3342,-104.2346,-204.8270,-263.6773,-192.8641,-276.5829,-384.7581,203.2865,-209.2605,-122.7893,-236.8066,-259.6228,38.6714,-230.9112,-191.2966
-160.7549,104.2796,51.7983,176.2338,-35.1062,-4.9490,-89.6032,-207.1165,-87.8001,-242.5887,-674.2723,343.0948,-119.8511,-35.2501,-105.1585,-176.2644,49.8268,-198.5716,-82.9800
-289.5243,44.6908,-79.3538,98.0018,-33.3777,6.5706,-52.6992,-146.3617,-80.9498,-225.9798,-484.4527,222.0187,-51.0787,1.7083,-75.3978,-130.2506,-117.3776,-158.0685,-70.3338
-289.2875,-164.3660,-236.4090,-127.7477,-123.1105,-111.5754,-112.8203,-136.9363,-151.0287,-238.4044,-57.8976,-58.2441,-68.0956,-42.0060,-148.6858,-147.5032,-348.0909,-172.6745,-133.9255
-259.4933,-381.9954,-309.9525,-325.3475,-188.9087,-241.4767,-157.7608,-175.9849,-172.3882,-283.0201,101.7933,-217.4272,-129.0715,-61.8406,-177.6178,-164.1680,-456.5835,-229.4390,-155.7424
-302.5813,-550.1689,-284.2037,-342.1348,-172.6570,-267.0664,-130.4736,-219.5505,-128.8446,-323.4142,-182.9573,-175.2721,-156.5668,-49.9125,-156.8328,-147.2735,-425.5530,-243.5972,-83.9324
-386.2901,-545.4271,-143.6417,-178.4110,-68.0771,-182.0025,-96.8052,-229.3019,-99.0789,-291.8640,-534.8474,-71.4485,-135.6440,-74.0962,-178.1229,-153.0845,-323.4394,-180.5326,9.7388
-390.0025,-334.6957,31.6452,15.6323,43.5709,-62.1001,-108.1778,-194.7875,-122.5774,-203.4803,-496.0340,-35.2585,-112.4823,-98.8065,-210.7637,-154.9597,-206.1631,-90.1063,46.3733
-255.6708,-226.7917,47.6862,42.8624,46.7994,-1.9709,-125.0019,-122.2552,-163.1408,-133.7027,-128.3404,-110.6820,-112.5669,-52.5807,-169.8932,-44.2415,-172.9257,-33.6659,32.0743
-118.2588,-453.7175,-120.3025,-116.8876,-35.4094,-29.3685,-102.8033,-44.2530,-163.8027,-120.0982,126.2208,-256.2393,-108.7859,30.9831,-88.1449,102.9180,-274.9860,-41.6262,29.9284
-166.2992,-738.2592,-262.5981,-240.1938,-75.2269,-79.9170,-47.2215,-25.4142,-113.3399,-167.2968,65.9552,-336.0921,-82.1725,68.7661,-43.5494,88.1052,-394.3361,-87.5943,71.0494
-334.8282,-683.4325,-229.7901,-184.3995,-21.2180,-98.1305,28.4106,-83.4011,-48.2516,-225.5585,-121.7872,-258.5128,-41.3933,41.6472,-27.2206,-34.6516,-402.0620,-86.8789,110.6969
-383.4531,-336.1809,-60.7174,-85.0140,75.8294,-88.2213,99.7321,-125.7767,2.7682,-193.2026,-221.2682,-121.7988,18.2994,12.5729,0.1305,-27.5320,-321.0662,3.4243,112.8944
-266.4557,-133.5350,121.0092,-67.0493,135.1966,-48.4662,113.9068,-56.2540,31.1729,-58.2260,-197.5224,-109.4185,84.9167,49.2943,19.1117,112.9132,-241.6843,115.4899,127.1337
-134.0191,-372.3376,177.3971,-60.9038,124.4333,24.4759,83.6227,84.9015,33.3324,93.6786,-110.4694,-263.3259,112.9856,121.7767,12.3072,186.0858,-225.5392,159.2028,182.5924
-77.4884,-775.7219,72.3934,-12.8521,113.8634,77.4695,110.2913,164.0817,29.4478,211.3374,-14.8084,-424.5129,117.6849,132.7295,33.4077,138.4746,-274.0194,114.8099,200.0102
-105.4839,-766.7393,-35.3359,25.6914,161.0947,60.2090,206.2026,111.5601,49.2586,248.8241,51.7145,-409.0736,161.8140,61.2146,118.9459,69.3927,-291.3982,33.8352,129.3192
-177.5164,-282.4405,19.4822,26.9901,196.0330,6.1583,245.0482,-6.1268,82.8861,163.9306,48.4880,-236.8006,210.2321,-22.6387,191.8437,35.2591,-200.8666,9.2752,49.7389
-174.9227,78.0651,188.2295,12.2765,169.3300,-8.6721,177.3464,-54.7898,103.4473,64.2689,-33.6883,-124.0624,177.2933,-57.3540,170.1044,52.1633,-91.8534,83.9642,43.1125
-53.8142,-84.7481,301.3027,33.2370,147.4432,56.7336,102.3117,24.4630,123.3639,91.8426,-104.7045,-202.4111,100.9219,-19.7534,116.2383,124.3002,-65.2393,166.9426,101.7310
54.9801,-432.6569,269.2477,135.9646,145.5514,165.3280,81.8110,141.9127,176.2321,177.0593,-55.6673,-337.6575,76.9208,57.7179,137.0561,188.5228,-58.7899,148.8763,181.7268
53.5199,-459.7517,133.3585,225.3356,105.4097,209.1517,85.3644,172.2285,255.5294,189.9926,64.7720,-328.4644,94.3546,85.0851,204.9180,185.9986,-17.2527,61.9514,234.2310
-12.4488,-199.4883,14.7198,148.3367,61.8449,131.1744,107.9063,124.1445,302.6472,185.0462,96.6673,-192.7898,95.5010,57.8804,231.9355,168.8515,-12.7927,8.9815,233.5015
-85.3557,-53.9339,14.0527,-16.5617,93.4620,27.6776,154.4806,110.3182,272.9213,253.7379,-5.1864,-114.3298,87.8021,88.8870,217.4361,205.7913,-55.9370,24.4975,222.6971
-119.1184,-142.1153,119.7277,-58.3094,169.6464,16.1744,164.4529,160.3047,195.9648,332.8733,-119.5796,-167.0308,92.6030,162.3498,183.6903,250.2727,-49.9740,85.7296,235.4834
-55.1332,-205.5283,229.5371,15.7798,207.9351,62.2929,105.4005,185.7041,125.8355,321.6286,-106.7024,-247.4927,92.7369,117.3409,114.0992,214.8442,5.3904,145.1321,221.7199
66.4772,-123.6163,235.4413,43.2800,184.9074,63.5856,55.7181,139.9734,73.8115,240.3520,51.8719,-252.1107,75.7070,-21.4151,49.8305,122.2926,6.2978,133.4482,160.7972
113.0640,-76.4312,95.7265,-24.9572,128.6975,10.4498,76.0534,79.0560,51.1627,177.0443,208.8539,-191.6438,55.2118,-63.1698,71.3241,79.8487,-66.7293,40.4177,117.7780
33.2107,-140.8405,-96.0787,-130.0189,78.9265,-42.1755,110.3034,47.4555,86.9379,144.9023,179.3200,-131.8354,50.6051,-13.8368,155.1780,112.7199,-123.1682,-41.8020,116.3369
-90.8733,-180.3709,-161.3103,-178.9342,56.7795,-59.2947,106.9664,35.7613,147.4902,97.5337,-22.9163,-109.4776,69.5680,-12.3719,208.5206,133.4648,-94.0352,-32.2651,118.1826
-136.9715,-157.0572,-45.0166,-85.4685,61.1987,-24.2211,101.8392,48.7252,156.9314,75.4472,-175.3497,-135.5351,91.5592,-17.9557,194.6327,105.6287,-10.2058,39.2157,114.0189
-57.0883,-149.2238,103.8732,73.1154,87.2436,45.8958,103.5610,86.6159,107.7088,150.1707,-123.6597,-207.8171,83.9087,57.2655,123.7523,97.4214,36.2589,80.0647,96.2691
59.2521,-132.1614,121.1550,89.6974,101.1274,76.2658,60.6875,89.6816,44.8080,219.2864,48.8795,-247.4585,46.6097,120.7076,32.0956,124.5589,5.0158,37.1237,45.6771
98.4497,-38.2397,10.1074,-46.9824,56.4607,27.2986,-1.8620,20.7613,0.0408,129.9189,158.0873,-143.0386,8.9626,91.5474,-7.8838,112.6455,-38.7704,-48.2033,6.6281
80.5388,83.6730,-85.8378,-109.2508,-7.2936,-15.7927,-2.4305,-51.6860,-1.9158,-33.8179,134.8568,20.3200,-9.0274,47.8058,19.9095,51.0334,-13.3654,-77.5977,16.6866
78.0358,121.4613,-41.6682,17.2525,-8.2555,42.3688,24.4315,-53.0495,21.9252,-87.9521,70.5444,5.4723,-4.9260,37.8173,31.5150,-1.0020,75.0591,-11.7524,6.1544
83.5442,44.1036,110.0545,184.5443,26.6115,141.6630,-17.4089,-15.6972,2.4076,-47.8352,65.6990,-168.6956,12.3858,22.4009,-19.3855,-36.2843,137.2285,74.7689,-67.7263
77.5549,-36.7149,211.0296,212.9166,20.0976,145.9016,-89.3423,-10.8431,-52.1733,-22.4418,92.8887,-224.2455,26.6632,14.8593,-71.6585,-48.8391,95.4949,84.5003,-119.6769
67.6511,2.6431,168.8056,97.5154,-8.2632,49.4289,-84.1969,-34.1913,-41.1132,1.3636,67.9497,-107.6552,28.0970,49.0747,-64.8519,23.9610,-10.2654,9.3287,-90.0464
30.6697,113.0076,48.9817,-34.9888,-7.8329,-37.3207,-14.8829,-32.9233,48.7522,72.1434,-14.0443,-27.5321,17.3061,88.0088,-13.2032,151.3896,-53.2582,-68.3546,-34.2862
-20.3242,172.6940,-32.5799,-79.5989,6.5500,-58.1895,34.3233,0.6280,117.1522,146.3250,-85.4398,-48.5697,2.7103,100.0348,25.4394,193.7756,-0.4032,-65.1557,-13.2638
-8.0899,161.1516,-22.4091,-23.2734,16.2042,-31.5882,38.7149,31.6531,98.1356,158.2667,-82.4173,-75.1749,0.1919,103.6180,6.3361,133.5342,46.8238,12.4731,-31.4728
51.7185,67.6836,45.2056,74.1683,31.0687,20.0956,10.5736,48.8592,3.6039,118.2955,-7.1127,-79.2469,8.8773,105.6244,-50.9271,80.6760,33.1065,71.8300,-62.1666
55.1451,-89.3695,77.6664,116.7256,41.6872,59.4313,-29.5269,61.2092,-88.4007,88.5181,52.3025,-62.9741,8.9679,112.6467,-73.3748,54.0854,11.3027,55.2112,-66.2429
4.0000,-118.0398,25.3360,64.2903,24.2256,52.5317,-32.0419,53.5444,-68.0463,78.9251,42.0521,-27.7260,6.1599,133.4544,-18.5597,14.1827,12.9300,16.9315,-43.5851
-15.3648,62.8200,-54.1281,-2.1294,-28.2355,26.2060,14.3979,13.1212,43.1432,32.8525,36.5364,-35.2925,13.5758,105.0207,74.4249,-0.0715,22.2547,22.2021,-46.6136
10.8438,204.3246,-85.9735,-16.9927,-88.6243,10.2615,48.5566,-21.4711,93.2960,-40.5995,76.2998,-72.0387,6.6780,-14.1284,127.2846,23.2500,45.0868,45.6982,-75.9661
42.4640,178.8820,-67.4161,-40.1357,-99.1489,-12.1493,46.9990,-5.2680,67.1909,-51.2599,66.7668,-29.3262,-14.8502,-96.2467,110.6149,21.3573,73.5715,47.2352,-54.6961
51.4605,169.6932,-28.4861,-85.4673,-43.9592,-27.1479,54.7181,42.8978,76.4265,-0.0623,-19.8230,54.7146,1.4124,-36.3476,79.2274,9.9342,65.0264,49.0237,31.6503
23.7237,201.0703,11.8435,-40.7944,17.3419,7.5413,79.5426,74.4340,89.8412,19.0122,-66.5527,60.1806,54.3435,32.9978,85.7068,36.4124,33.9077,69.1743,89.8400
-1.7454,119.9464,36.9031,99.5778,39.3038,65.2473,84.9029,77.2959,22.6301,-17.2197,-11.9936,42.3522,79.4432,-8.0292,92.3162,24.7990,46.0561,82.9195,57.2343
38.0354,2.3575,37.8919,178.5886,26.9930,89.3750,66.6597,60.6679,-43.4269,-73.4625,90.6875,80.7094,64.3861,-41.3799,50.4551,-63.8644,86.9948,79.7115,-18.6531
108.1738,4.1715,24.3496,126.1092,-5.3934,79.3478,46.6991,30.3453,-22.9877,-120.9346,170.7521,99.4214,47.2641,20.6821,8.0223,-82.5421,76.6414,65.2120,-54.4103
114.8384,81.0992,16.3412,24.1436,-19.0058,47.8830,39.1163,9.1652,34.0719,-100.5901,153.4399,75.0759,41.2419,65.3358,29.5111,30.4391,25.8096,30.4687,-19.7269
58.7903,172.2110,27.3160,-46.6561,16.9427,-4.0181,51.4203,15.3204,97.8980,-11.8716,33.3154,105.0489,42.3224,26.5448,87.9750,84.9279,24.4863,-12.6684,44.1455
19.1676,273.3130,38.3388,-56.9891,51.1919,-45.4072,76.3954,24.1784,164.5693,22.3291,-45.5320,208.1347,47.1313,-26.3757,130.2606,-19.5254,68.5154,-31.5070,78.0783
24.7840,297.2308,14.2089,-21.3905,43.1395,-51.5489,100.4628,17.9146,159.1093,-34.1555,10.6087,322.9047,55.6849,-43.0015,145.4256,-95.0534,61.4743,-30.9465,81.5585
27.8276,172.4286,-31.2611,12.4055,44.2581,-31.0338,122.9257,28.0134,69.9894,-68.0221,80.6914,397.1859,86.9986,13.4421,114.9445,-21.8100,1.6588,-23.0849,102.2602
-13.2211,-32.6910,-32.7068,49.2787,79.9804,28.8582,134.7079,69.6449,1.3545,-55.1914,48.2590,379.6436,134.9107,151.9256,26.7475,39.8354,-1.5389,24.3102,146.9037
-54.2231,-151.6984,43.8325,120.1860,116.2467,120.7424,115.3909,102.1183,-16.0490,-69.9287,-27.6638,301.2787,145.7203,237.8445,-54.6957,-16.5482,80.1071,105.0200,165.2607
-13.1436,-35.2103,144.8468,156.0850,144.3711,153.9999,67.3382,95.1868,-38.8301,-98.7127,-60.6923,272.7883,110.2377,179.2047,-65.9934,-54.6722,144.6985,128.6803,129.0751
92.0505,198.6602,168.2954,98.4615,139.1729,92.9092,17.2020,70.2967,-59.7439,-94.1156,-26.7428,297.1756,81.3872,121.8594,-35.7459,5.1983,126.7232,66.3600,72.9159
148.7630,227.1336,80.1341,48.6901,72.1022,43.8431,3.9011,56.9551,-37.1422,-67.7971,66.5359,307.4537,78.6533,148.8982,3.4673,47.3772,75.1746,21.2492,47.4781
105.6928,80.5017,-20.3040,79.1146,28.8776,60.0682,53.4322,53.5381,12.0379,-29.1653,131.2478,322.2029,89.5124,106.0901,61.8283,19.0498,51.4165,57.6258,58.9672
26.7372,95.1251,-21.1346,93.5502,82.1280,51.0168,120.3194,43.7900,48.3896,3.4784,79.2440,341.0644,113.5518,-25.5993,100.1945,13.2444,58.2337,99.8457,71.5269
2.4480,224.6394,52.6358,40.1026,132.8535,-15.5728,128.4032,28.2952,50.7888,-5.0256,9.1628,309.2137,131.1632,-53.4789,68.8663,55.3877,72.0375,79.6313,64.5325
56.8841,197.2868,101.0275,-8.7915,100.5942,-55.3641,95.2490,19.2706,22.3424,-21.9944,62.4693,263.0843,127.5078,26.7344,23.0422,62.9004,70.7601,38.8373,52.9934
120.8603,127.0492,85.7923,-33.1321,53.8859,-42.8961,90.4675,15.2070,12.0507,-5.1414,155.3396,241.8071,129.4656,60.7306,36.4626,22.8416,45.0819,23.7785,47.6422
122.5805,164.0845,31.1833,-48.3489,30.2858,-24.2896,97.9874,2.5540,69.3878,16.7252,134.8115,192.3296,125.5175,66.2855,90.1347,23.9261,20.4280,0.9696,37.2981
91.0002,117.9202,-17.0455,-6.0725,-9.5893,-3.4517,63.7242,-29.9335,159.7702,46.2591,54.6815,138.4953,70.2575,91.6226,149.2405,100.7012,28.7702,-66.8307,8.0656
80.2256,-34.6477,-13.4368,78.4443,-55.6122,21.1598,12.5227,-74.8961,207.9458,126.0484,50.6737,146.0378,10.3281,35.9244,212.5107,173.1228,47.2725,-134.4931,-41.3308
68.7393,-62.5408,24.3180,100.0858,-73.2445,22.6443,4.5442,-84.8804,214.3007,221.9147,106.4634,141.6270,23.6644,-84.7961,258.0333,175.4037,27.1800,-124.5546,-79.4916
37.8510,-5.5047,29.7174,69.3809,-57.7966,29.5313,42.3807,-24.9120,232.3092,272.8292,110.8211,84.0960,70.2724,-94.0028,261.5953,129.0593,-15.4260,-49.3343,-59.7077
27.1722,-15.0262,11.0579,98.0178,-4.0807,94.4080,74.2913,44.1828,250.5608,265.7852,36.2595,87.0644,79.0783,6.9717,228.3489,41.5570,-11.5261,0.4855,4.0622
57.6547,25.7138,41.8467,172.9618,64.2800,173.1828,58.8007,48.4565,209.8241,194.8642,-24.1417,167.8962,68.5892,51.9337,158.2866,-98.7124,51.6527,8.4862,42.8191
113.8064,191.3316,120.6311,173.7127,92.5611,173.7830,16.7935,27.4637,122.9912,92.8095,15.4987,201.5227,63.4191,-3.4592,68.0983,-188.1642,101.2807,40.1811,35.4030
167.5016,309.2794,176.6165,79.0395,77.1465,95.9689,0.7283,38.4071,70.5480,39.7669,104.6512,155.1596,48.2659,-84.6014,28.9739,-107.8728,81.6062,87.9513,19.2104
161.9338,239.1300,176.0532,-2.8459,51.6161,27.3759,14.5514,42.2796,92.8850,43.8355,119.0495,97.5046,32.0643,-116.1771,86.2455,41.8673,30.2494,86.2591,18.0721
82.7350,3.3684,127.3661,14.7577,32.6033,26.2351,26.9732,9.5125,164.1799,58.0545,25.5477,88.7461,20.5807,-47.2368,188.1374,85.6162,17.9969,50.3459,39.3465
23.0750,-198.3194,66.6594,91.0772,35.6930,59.5103,31.7070,-22.0767,222.7127,74.9705,-88.8346,159.1056,-12.7670,62.4514,237.7417,57.5258,60.3366,27.8626,75.5972
58.8067,-98.7132,63.4612,120.4571,45.0996,67.9957,16.6575,-47.3408,188.0120,64.5206,-96.8159,237.9005,-57.6939,73.4479,168.3164,58.3087,123.5478,14.2707,70.4169
153.3190,199.6784,130.8784,81.2688,14.1694,58.6837,-45.6357,-74.9553,43.0202,-5.9174,65.2777,206.5779,-74.5879,-10.6550,6.9861,40.5131,168.9874,23.8285,-6.2644
234.1805,276.7571,175.9787,44.6511,-25.1934,65.5169,-114.1769,-59.4398,-99.5831,-54.3003,271.5327,112.9667,-59.3933,-55.3184,-106.6491,-15.5166,161.3914,73.4623,-66.2347
234.4935,91.6995,135.2358,37.2416,-5.3356,62.4472,-99.3415,-0.7588,-120.9861,-21.9520,280.3579,100.6173,-17.9562,-24.2280,-70.5195,-10.9421,88.3829,96.2249,-20.9153
120.4993,-21.6563,61.8574,25.7324,36.7836,28.3872,2.3773,26.4352,-40.3392,-6.1694,60.7045,157.1647,42.1524,15.7098,28.1803,38.2383,-0.1842,65.0793,76.7837
-16.1479,3.7250,24.6288,20.5702,51.3459,22.0826,93.4592,19.2706,45.4029,-55.5353,-133.6757,164.5369,77.3066,22.2505,45.6299,17.2106,-24.1350,74.3367,131.9052
-43.3413,16.1796,30.7805,42.0881,79.6709,69.5478,95.6491,41.8679,76.8911,-75.6093,-117.0320,83.9577,69.8108,-16.6932,-17.7437,-33.5272,27.0012,139.0217,142.9198
15.5141,19.1328,56.0364,43.1167,128.4249,95.8761,36.0814,87.0695,53.4282,-31.0702,17.3569,-12.1412,66.6450,-72.8440,-78.7923,-17.0210,69.2352,146.2961,147.1532
49.5121,34.0043,70.0455,9.9271,144.6260,63.7996,15.3963,107.7865,23.9489,13.3072,87.6644,6.7273,87.4240,-69.4307,-96.8425,-4.5157,36.2094,84.0442,145.0056
36.1805,19.0195,57.0540,21.9579,138.5466,30.1348,74.1953,105.3242,33.1411,20.4568,39.0827,160.1767,101.8110,3.0449,-50.7878,-73.3571,-23.7006,49.2958,126.3037
7.0991,21.9831,33.7486,86.7766,135.3639,24.8011,127.8445,87.1608,50.6926,-7.6092,-38.9575,249.9248,102.1383,49.5809,46.3057,-136.4893,-24.5392,58.9229,88.7775
-14.5362,60.6379,15.7399,87.6618,107.2314,25.6148,106.2021,47.6789,35.7803,-39.6346,-32.1193,140.8314,91.9299,5.7960,96.0588,-132.2990,21.1764,78.5837,38.9543
1.3639,68.1661,3.6973,1.7261,66.5618,33.5490,64.0496,11.5706,19.7795,-32.5398,48.6475,-4.3201,62.1195,-84.1062,38.2636,-126.1641,40.2926,110.3809,12.2835
36.1538,75.8197,11.5891,-28.6657,56.4691,55.4788,56.4682,0.5531,22.8232,-25.0479,92.2526,3.7687,31.8078,-113.1977,-41.6094,-125.5467,37.6745,113.4446,33.6421
32.2059,112.1189,39.5564,68.7983,49.2406,74.4631,40.4027,-5.3485,0.1808,-82.8472,70.3806,128.9843,17.9969,-10.7047,-63.1800,-62.8564,77.4194,24.7860,62.5561
23.0260,91.4687,55.8671,182.3839,8.8050,90.9032,-19.7684,-20.5529,-64.5067,-153.9136,44.3770,231.8746,-8.5981,140.5280,-76.2939,20.1819,155.6103,-89.9148,50.7268
83.4487,44.4223,66.1376,196.2854,-32.3552,109.4921,-83.2019,-28.3476,-145.0513,-159.4234,34.0394,201.3771,-47.7816,157.0166,-133.7532,22.4460,201.2272,-94.0797,5.3864
166.1012,86.1805,103.9552,115.2152,-39.6638,95.3507,-107.1611,-18.6866,-230.6092,-125.9746,52.6981,49.1357,-47.8454,5.9282,-192.9539,-22.7562,171.9262,9.5255,-54.7562
166.9992,143.6652,128.4895,-5.0859,-24.4681,28.1119,-101.2682,-9.5397,-283.3599,-101.9782,131.7956,-25.1875,-14.1585,-136.3526,-205.1407,-22.8138,84.7096,74.5039,-115.4477
82.5996,100.8164,74.1878,-95.7015,-22.9141,-41.1390,-103.5577,-27.3620,-243.5190,-99.1751,176.3483,91.2539,-9.8128,-135.4706,-175.8237,-5.3885,-0.2446,24.2267,-134.2210
-5.1712,5.1887,-15.2186,-70.4665,-55.7886,-50.5712,-124.6256,-69.2287,-143.0822,-124.8396,47.1795,195.4559,-41.1431,-49.5782,-127.1440,-30.8177,-16.2747,-44.9218,-103.4007
-20.0672,-74.4433,-50.0676,57.8701,-83.4676,-11.4368,-122.5981,-96.3454,-73.2195,-141.2726,-147.7510,121.4853,-63.3991,5.6947,-79.7632,-54.7741,25.6470,-36.9039,-87.7277
31.1935,-87.4590,-34.0106,115.9997,-63.0118,5.7231,-72.6291,-86.3103,-45.1751,-96.1015,-166.8509,15.7740,-66.0377,11.4059,-44.4732,-39.5948,28.7052,-13.3866,-99.8721
43.0233,12.6428,-24.6991,-7.2502,-31.5488,-31.4502,-19.0307,-56.1803,-23.1632,-32.9587,-21.2173,13.4753,-61.2783,17.3576,-12.2757,-40.9491,-48.4717,-39.6049,-69.8324
-34.4683,87.4565,-36.6799,-161.6020,-18.0315,-61.1554,-0.4961,-20.8551,-30.1639,-25.7902,80.7684,43.7328,-41.5298,28.9389,5.0516,-75.5514,-119.6666,-35.0985,-3.5583
-91.5993,-22.9960,-45.0695,-141.3381,12.8715,-17.5561,-10.3060,9.3874,-99.0906,-64.0456,68.0013,58.5756,-11.1917,7.2594,-29.5033,-91.9310,-101.8878,43.3472,12.2127
-51.4134,-136.8213,-18.9606,17.4022,38.0206,58.6156,-49.7174,4.3982,-186.5664,-107.9661,6.9999,77.6969,-9.3430,-37.5109,-96.5413,-103.6273,-29.7354,92.1927,-25.2391
-3.8752,-35.1283,39.2153,129.6970,-1.0886,83.3798,-107.0274,-43.1077,-223.5132,-143.0256,-54.9990,55.6698,-49.8170,-66.7751,-123.0496,-148.5844,9.7404,75.1179,-55.9040
-19.2442,96.6746,59.5430,118.6400,-56.0642,49.0500,-130.4415,-85.6632,-212.1286,-163.0237,-64.4318,-30.5413,-79.7624,-90.4999,-98.6116,-170.3493,-18.4661,71.3144,-79.7206
-49.3848,24.9676,-11.9599,21.2715,-63.9175,-1.4058,-109.3871,-74.9359,-205.3106,-183.6908,5.6714,-93.5349,-52.1986,-107.6766,-85.2955,-126.5444,-84.6632,76.3725,-98.1630
-76.7334,-120.9418,-108.5354,-101.5536,-54.2149,-40.8809,-80.9800,-8.7061,-209.4789,-205.6405,49.2783,-64.3242,-1.3422,-80.3035,-109.9335,-92.2377,-133.7685,41.2399,-64.1807
-125.0972,-138.2477,-133.0349,-166.5931,-38.1844,-52.0684,-52.6781,70.5578,-194.1268,-175.2278,-19.8406,7.0583,15.5301,-39.7068,-141.9138,-118.0886,-132.1543,14.7396,6.1282
-148.9690,-50.1162,-102.6952,-149.4652,-4.2698,-44.8404,-34.4543,101.4360,-172.0378,-83.9560,-103.6305,20.9034,1.7914,-36.2052,-145.9689,-137.8479,-105.0840,20.8149,32.1258
-119.8121,22.4764,-97.9954,-148.6147,-5.4570,-70.1964,-48.7019,70.2852,-147.6110,1.7190,-111.8026,-35.6145,-11.9555,-19.3593,-95.0427,-88.5977,-111.6540,-8.3687,6.6103
-113.7104,-1.5305,-141.8760,-208.4924,-49.1195,-136.2216,-47.8554,34.2042,-62.5572,59.4094,-103.7795,-62.0415,-20.4646,20.9337,2.0495,-2.4040,-163.4739,-67.6795,-15.4570
-161.1735,-114.6255,-199.3078,-226.9840,-63.2905,-175.8068,2.9660,24.5169,61.3384,92.1766,-100.3871,-16.6439,-24.9845,-23.3969,69.7735,36.3488,-199.1390,-84.5966,-25.2657
-176.6052,-191.5455,-224.3875,-171.2510,-62.0746,-156.2396,18.7902,1.9610,88.5905,50.4604,-43.0502,-5.8624,-27.5264,-146.2592,54.8210,-10.2318,-167.0303,-71.2384,-42.6985
-126.8359,-144.2804,-194.9048,-147.5256,-98.8442,-128.0067,-34.6196,-41.9633,10.5658,-54.4441,22.0920,-87.8265,-42.8645,-209.9426,12.7280,-68.5849,-102.7992,-75.1608,-60.7090
-78.2253,-69.9358,-146.4851,-191.1996,-119.7416,-136.6853,-49.4484,-52.8379,-26.2919,-103.6119,16.9254,-174.4262,-66.7531,-201.9290,8.7401,-56.1053,-82.6354,-85.7366,-66.1517
-49.7090,-97.2682,-131.1386,-232.8762,-86.9511,-168.2565,-3.3478,-23.6801,1.9694,-51.5025,2.8752,-219.4823,-72.4638,-181.9631,13.2389,-24.8494,-117.0801,-90.7460,-59.1129
-8.6130,-208.9043,-138.6258,-227.9878,-61.3145,-182.0479,-8.3646,-21.3392,-10.7363,19.1268,41.4491,-272.4174,-59.9733,-103.7458,-15.5694,-46.8428,-142.5734,-102.2332,-48.3748
18.2742,-313.6039,-131.0751,-154.0374,-61.1995,-156.2771,-78.3333,-71.5386,-52.6835,53.6179,73.1216,-326.3181,-52.6427,21.5215,-50.2427,-52.6693,-118.3938,-122.9632,-49.3420
-6.7233,-347.4497,-110.2704,-44.0503,-63.1155,-117.0895,-119.9403,-110.9864,-28.8487,83.8547,63.6669,-325.0582,-55.8246,40.6983,-56.0148,20.4915,-79.0288,-150.3397,-60.8513
-46.6558,-274.5792,-83.6170,-44.2430,-86.2828,-115.8966,-110.1468,-86.4605,44.1243,134.0695,47.1277,-274.4991,-61.5454,-78.5997,-37.8324,86.7701,-72.3123,-159.1190,-62.9989
-56.7473,-136.2409,-48.4251,-192.3990,-115.0790,-156.9850,-87.4663,-38.1242,83.0930,156.3664,36.5934,-222.5396,-65.8297,-180.2803,-15.8992,71.7670,-91.2258,-117.3493,-57.0556
-29.9475,-74.8587,-35.4349,-279.3376,-105.8756,-184.7789,-74.2485,-33.6314,63.3052,89.3422,63.4116,-203.8844,-70.2649,-160.7491,-17.3139,11.6651,-99.1762,-66.1580,-55.5266
39.1854,-155.7828,-59.5895,-176.9279,-92.9827,-155.9795,-81.2455,-59.4158,13.2176,-29.7634,151.8514,-217.5646,-82.2207,-66.1778,-48.3560,-56.4908,-88.9728,-63.0789,-39.9258
109.1463,-225.2519,-63.9754,-36.2593,-96.3780,-86.3243,-83.3796,-54.7389,-17.3218,-98.2802,198.8269,-208.2166,-91.4267,0.9111,-61.4746,-110.0338,-77.7462,-71.3610,4.9893
87.8981,-124.8890,-21.9276,1.2163,-57.1600,-29.1257,-36.7428,-25.5985,2.9341,-102.0334,113.1109,-143.3651,-67.9864,-21.3864,-26.9069,-104.3761,-68.6374,-54.7704,45.3789
-13.0199,39.8560,-1.6295,-29.7295,4.5407,-26.6492,26.1517,-25.8638,43.0761,-91.5294,-5.7340,-98.1828,-20.9373,-91.7119,10.8560,-48.7879,-59.2417,-59.1280,45.9907
-77.0238,61.0785,-42.0075,-71.1608,-2.0503,-65.6583,34.0697,-48.2847,67.5887,-54.2075,-42.5057,-143.6572,1.6140,-115.8769,27.5906,-4.9487,-64.1906,-85.5885,24.8450
-82.2646,-47.2483,-85.8949,-90.3138,-52.0424,-85.2861,-5.6423,-39.0276,91.5710,5.5270,-25.5602,-209.8537,-12.5630,-60.5164,59.0200,6.3046,-84.2609,-73.1695,17.3678
-88.7987,-116.4953,-81.7692,-54.8168,-63.8132,-50.3551,-44.6145,-3.5436,114.5668,-6.9994,-0.1277,-180.7387,-43.3166,33.2256,88.3915,-8.8204,-81.4124,-34.0812,18.8731
-68.9098,-98.5516,-37.4764,7.4328,-50.7795,4.1179,-73.8451,-2.2597,95.3721,-97.7052,18.0619,-62.5388,-79.2076,78.3414,49.8628,-44.1485,-33.9678,-14.0537,2.3634
12.5082,-58.7529,22.1669,48.2779,-39.4007,21.9128,-88.9696,-45.1741,29.1338,-128.3276,-12.6126,34.7671,-87.2575,6.5849,-33.3101,-69.0428,18.5796,4.9732,-21.4724
65.4811,-2.0834,67.8369,60.5515,2.1348,-5.2366,-67.3764,-71.2282,-36.4566,-48.2891,-77.6090,51.2269,-36.1969,-99.4312,-73.3229,-77.1856,34.2563,28.7532,-12.8543
26.8067,104.4221,74.6518,20.2398,62.0392,-39.4732,-13.9470,-44.7226,-57.1417,33.1586,-101.3864,35.7577,23.6722,-100.4739,-56.3327,-87.8804,26.7087,24.5550,24.8518
-18.6979,197.0631,55.1064,-58.2963,75.1723,-50.6807,32.2476,-4.7250,-31.6787,34.7261,-68.3753,41.0552,27.8830,-51.1804,-28.2440,-64.2193,25.4122,10.1713,42.2022
1.8172,169.8398,38.1375,-51.8749,34.3545,-38.2040,40.6596,3.9733,-13.0173,-21.6418,12.8689,51.7862,6.3154,-57.8849,-9.8809,-3.5435,34.9863,14.9270,16.1292
46.5771,64.5297,29.0420,62.2362,-9.4840,-8.2245,19.8599,-13.2014,-48.9062,-95.7081,135.3646,60.3970,7.7615,-28.9730,-8.8576,-18.9488,54.2545,9.9305,-32.8595
72.0166,34.0282,25.5413,115.5830,-33.4601,26.5023,2.4153,-32.5868,-104.5226,-163.6626,185.1658,96.0711,15.4555,71.6569,-31.3397,-124.1556,72.1754,-11.3799,-75.3332
88.0731,87.2128,35.2550,48.1125,-45.9635,37.4240,-2.8366,-42.8783,-128.4791,-203.5298,77.7937,140.7028,16.7914,63.2414,-54.6919,-169.6160,59.1338,-2.6050,-85.4675
92.8879,100.0572,63.3430,6.2710,-38.4343,23.8410,-13.9651,-41.3397,-152.6651,-207.7370,-29.9383,146.3671,30.2064,-62.7567,-64.4372,-137.8136,26.2809,36.7587,-64.0090
71.7068,83.5743,106.1039,62.5776,-2.7582,31.3046,-32.5455,-38.0507,-211.9602,-195.8385,15.7634,129.2268,39.7868,-85.8479,-90.6988,-153.3919,35.4670,56.4007,-47.6650
44.8164,134.6277,136.1481,132.6982,30.8841,72.6578,-44.9683,-41.7735,-253.2286,-192.1955,96.4232,128.5251,19.8743,-2.9363,-145.1613,-182.3011,93.5884,42.6054,-45.8253
35.3321,194.0523,107.1633,142.4981,36.3899,95.2866,-45.9552,-36.4752,-235.5116,-188.0974,72.9019,129.0281,-3.6063,11.2134,-181.2462,-116.0087,130.1691,25.0920,-25.0484
26.3532,175.3509,28.7237,86.3565,32.5060,70.8591,-32.1875,-11.8600,-210.6576,-147.6938,13.0363,105.5626,0.8391,-22.4451,-166.3896,-39.8186,113.1485,27.9599,9.1248
15.2755,137.5626,-10.1186,16.6699,29.5579,35.3607,-16.5916,11.6894,-219.3687,-60.2667,-4.0265,71.7661,15.4670,-20.1051,-133.0594,-73.6814,78.0151,45.8978,12.7619
35.4282,95.2942,37.2204,7.8604,8.4961,17.7275,-28.0939,18.5051,-218.5264,39.2600,-9.3380,47.8974,9.3660,-49.1706,-121.7706,-149.2569,46.8868,47.1807,-13.8228
58.9052,-14.0237,95.1342,41.7093,-23.6818,6.4769,-55.5307,5.7349,-173.9241,96.1966,-23.4156,29.0923,-16.4218,-114.2765,-121.2095,-157.2819,22.0076,11.3317,-41.7342
16.9113,-95.6125,73.7468,38.2530,-53.1555,-14.2834,-67.0091,-35.7832,-125.2211,76.0831,-31.0626,4.3496,-42.8570,-98.4152,-97.5961,-96.8621,21.2532,-41.4677,-67.3646
-33.1369,-17.1997,-11.3003,5.9016,-97.4095,-44.8990,-82.5997,-92.8990,-102.8024,16.2793,-27.0145,2.9518,-72.7521,-22.3352,-55.9979,-16.5530,48.0099,-86.0010,-88.2986
17.7476,119.9170,-77.9849,-15.4224,-141.5206,-73.3747,-120.1648,-127.8187,-73.8239,7.7927,-2.9886,68.1760,-126.4320,-21.2685,-38.3007,35.4450,76.0999,-124.4851,-98.6462
94.6296,132.2550,-82.0967,-50.6131,-143.0852,-90.9662,-138.2512,-129.2901,-31.4352,74.3030,25.8772,150.2171,-183.7776,-81.0268,-64.6484,46.5681,82.1572,-159.0339,-117.0744
68.6017,1.5241,-43.8087,-88.9066,-127.7120,-107.5888,-124.3307,-107.3474,-29.1839,139.5410,20.1727,150.1558,-185.2381,-54.9683,-104.8865,54.0469,56.8659,-175.2219,-149.6050
15.1148,-120.6641,-6.5528,-83.1456,-137.8164,-123.7824,-114.2758,-70.8563,-61.4920,142.7503,-5.0352,97.1763,-129.6753,70.2617,-117.8458,44.3850,23.7716,-169.7922,-163.1213
36.0952,-32.1267,-4.7827,-67.0093,-150.3844,-114.1702,-104.3934,-51.5304,-46.8978,95.7580,-14.3992,87.9404,-97.7427,100.2227,-104.3672,-37.7998,43.4375,-161.4939,-136.3530
50.8210,225.7460,-49.5404,-66.3867,-158.1211,-78.8575,-90.0906,-67.7969,18.5090,43.8043,-49.5190,97.1369,-133.4088,-74.6879,-104.2056,-124.5091,117.9707,-161.7728,-87.6727
0.5897,285.0172,-108.4645,-31.2643,-176.8148,-51.1104,-111.2837,-76.4277,49.0629,29.8450,-150.6903,74.7000,-177.4388,-240.1530,-138.0119,-98.2390,145.0006,-152.1250,-51.1015
-53.1416,33.3737,-123.0125,8.7580,-150.2204,-34.7146,-140.2594,-50.5067,17.5850,42.1408,-242.0703,75.6679,-156.4199,-154.1890,-177.9271,-15.4707,62.3609,-112.0980,-46.9463
-111.7529,-134.5159,-81.2290,-22.2498,-51.3594,-14.9224,-96.1241,-24.7084,-40.2752,22.5198,-218.0986,103.2743,-82.7032,57.4261,-195.2884,4.3640,-46.8887,-63.8857,-58.0550
-182.0153,-51.1652,-34.8779,-48.9328,13.8011,-4.7721,-26.0789,-12.6781,-110.6701,-16.5146,-94.9001,70.1962,-34.5009,117.5174,-199.5439,-2.4694,-70.7169,-50.3973,-59.6748
-157.2591,-19.2736,-21.0884,25.2679,-18.3917,-2.8334,-46.6519,-5.4545,-162.4971,-11.9288,-9.5671,1.0760,-55.1085,14.8746,-196.6083,24.0488,-6.2750,-68.7527,-64.9255
-35.0981,-81.5382,-29.8533,109.7805,-69.4807,19.3861,-117.5492,-24.6983,-137.9730,1.6089,-76.3058,-5.7050,-103.9328,-75.3582,-162.5643,14.2080,56.5218,-73.0619,-74.4403
18.4160,0.8663,-51.5734,89.9239,-80.4147,42.6072,-109.1616,-59.9047,-60.9749,-42.7697,-244.8261,28.9539,-123.4971,-60.2275,-101.3078,-57.3002,43.6060,-46.5083,-52.4183
-42.0223,104.2523,-82.2100,1.4465,-75.1201,18.3251,-42.3728,-61.6366,-24.9721,-98.6239,-330.7407,39.0322,-115.1390,28.8367,-66.0300,-68.2893,-21.3779,-28.2781,-24.3203
-112.2834,9.9876,-106.5245,-83.0490,-80.9893,-39.1400,-44.1203,-44.6593,-53.7149,-100.3907,-229.7253,32.2016,-111.8589,78.3905,-77.8453,36.6581,-64.6385,-54.1444,-54.9163
-155.5817,-96.7894,-132.0455,-138.7629,-112.0468,-79.2104,-111.0732,-44.2441,-83.1611,-58.0983,-61.4093,21.3264,-119.0091,11.5783,-82.8178,133.8863,-81.5916,-93.5806,-105.4788
-176.7984,-76.0251,-175.1175,-149.0391,-145.0041,-88.5564,-115.0971,-31.4568,-64.7665,8.3222,-26.6543,10.7206,-118.5838,-73.1485,-35.0092,116.4313,-113.5895,-85.7220,-103.4128
-152.8378,-91.8219,-196.0296,-116.4934,-121.3906,-74.4738,-38.2312,-9.2428,-20.5036,53.2474,-139.9721,24.1000,-103.9372,-53.3825,28.1682,31.1420,-138.0228,-38.6379,-91.7712
-116.0281,-135.6946,-153.4911,-60.0967,-67.7543,-42.9373,-8.6788,-33.3314,0.7561,8.3164,-216.5475,23.7527,-92.0932,13.8083,44.5785,-37.9741,-120.1119,-23.6126,-123.8950
-105.1428,-73.8662,-103.6186,15.0631,-73.6630,-11.6697,-63.2139,-76.1414,7.8281,-65.3521,-156.9619,-57.7211,-100.5338,30.4558,27.9072,-72.8640,-102.6059,-57.9883,-152.1581
-87.4459,-52.0729,-122.6299,71.9302,-118.0891,4.1552,-83.9476,-74.0614,55.9207,-44.2561,-88.1825,-166.6180,-114.6640,-1.1673,41.6502,-70.7078,-114.8769,-89.4420,-142.8610
-71.0761,-181.9213,-176.2402,50.7923,-124.1364,-2.3444,-27.3909,-61.2202,128.7973,15.0802,-136.6226,-183.6189,-109.8142,-55.8457,87.9071,-28.7018,-108.8418,-99.6991,-120.2122
-107.6866,-238.9220,-176.1435,-25.8117,-115.3108,-41.1731,12.3290,-78.5056,147.8705,-14.7323,-236.7610,-94.6762,-94.3324,-85.1911,107.7332,8.6283,-68.8564,-117.0575,-83.7273
-152.9137,-89.5990,-114.2267,-81.0365,-129.8597,-100.6196,-2.2508,-93.6239,113.8394,-76.1271,-253.2849,17.6823,-80.0473,-41.7082,85.5110,8.9460,-47.5153,-147.2913,-48.8213
-135.1328,93.7455,-61.8349,-107.9093,-137.5718,-148.6839,-19.9634,-100.6637,87.5786,-43.2932,-142.0947,80.3604,-55.6407,-15.3142,61.3894,19.6023,-63.0907,-179.9746,-72.4338
-79.7696,155.8210,-73.7274,-152.2482,-139.4307,-182.0004,-33.2471,-117.0557,73.0575,64.9118,17.7119,81.6087,-37.3615,-86.2630,54.5333,70.5110,-79.4564,-210.3953,-129.1752
-36.8193,79.5120,-130.9834,-216.5266,-160.0610,-208.8631,-54.0611,-107.9227,64.9577,151.3165,60.3660,64.6471,-56.2825,-127.1519,52.7796,108.6563,-74.4856,-208.0230,-122.4232
-30.8059,-77.3784,-164.2824,-243.5651,-155.8467,-202.3719,-48.3289,-67.1727,88.4344,171.4743,-74.3487,51.8617,-79.7136,-63.3711,41.3966,104.6318,-54.4145,-144.8811,-51.7211
-74.7692,-163.5513,-130.9669,-169.6585,-95.7977,-142.7756,-22.2641,-56.0986,96.6786,146.6087,-184.7760,10.8541,-65.8643,-39.3134,-5.5212,83.8729,-19.7391,-65.6336,-9.1742
-104.6011,-92.7999,-61.8338,-16.8964,-43.5468,-62.8930,-47.3158,-83.3993,22.8614,117.8332,-87.3064,-47.8755,-53.1998,-99.7197,-92.0258,37.3721,48.3887,-36.7276,-31.7241
-31.8910,26.5539,-13.6680,78.4144,-54.0608,-8.5120,-126.9987,-94.6881,-57.9770,92.1569,65.8621,-51.3494,-73.4463,-120.7464,-150.8254,-42.5321,146.1327,-37.5614,-67.7317
88.5980,117.8843,-0.5555,18.2121,-90.0376,0.3334,-168.1985,-71.5203,-48.7102,70.2932,59.4943,-1.2897,-83.9663,-96.6854,-128.9425,-96.5374,206.7868,6.2356,-62.1231
136.7051,229.8389,0.1272,-114.8046,-84.9840,-21.4957,-126.7694,-25.2714,-20.8833,95.3773,-25.2173,6.9975,-71.9001,-97.4033,-90.7940,-96.9206,183.5675,98.1394,-26.2617
120.4877,307.5734,6.6135,-162.1697,-28.4754,-24.4583,-69.3890,33.2547,-64.4531,160.3133,-28.6075,-66.1394,-72.0550,-105.4406,-117.0249,-89.6547,139.1535,170.3138,-11.4143
112.0136,221.9629,24.6595,-86.6372,25.2961,13.2269,-53.3466,66.7826,-120.3598,171.9358,5.1947,-155.1014,-67.4988,-133.9606,-171.7255,-83.2669,132.1411,193.0461,-28.0790
108.6504,25.4470,48.9876,-0.9889,29.3121,34.6092,-51.1651,48.7962,-130.6463,119.6083,-3.0064,-195.6869,-33.9808,-206.6607,-184.9716,-51.1287,107.1686,187.9669,-53.8738
77.1735,-116.4282,54.5994,-23.6743,1.8087,-8.4919,-38.7728,16.8392,-131.0564,97.1966,-10.1675,-203.6830,-15.2302,-218.6198,-160.8459,-16.9881,22.1487,154.7823,-83.8415
14.1989,-163.8893,13.9124,-126.2642,-18.2999,-71.4382,-34.4794,10.9027,-114.8858,110.3427,7.7604,-228.2419,-28.3433,-130.1322,-114.8206,-11.4385,-71.5002,90.8407,-90.6707
-73.3822,-186.7987,-63.1873,-170.6768,-22.4137,-89.7526,-15.8921,10.7285,-44.6003,80.6360,-0.2824,-259.4390,-21.7309,-80.8850,-37.1593,-34.3713,-147.9650,39.5959,-38.8440
-155.5446,-214.9071,-121.9206,-114.8670,-7.8683,-60.9150,47.0630,-7.0822,19.9083,18.4308,-32.8522,-241.7070,17.0522,-109.7779,34.9085,-92.8822,-211.8511,25.9471,16.2168
-166.2639,-210.9275,-108.8645,-62.0895,27.0895,-24.2542,90.9280,-13.1713,17.3601,7.0592,-29.2334,-182.3060,50.0093,-112.4671,46.5416,-156.2091,-210.8954,24.9123,9.9508
-78.2310,-170.6671,-32.2744,-79.2339,60.7447,-23.4202,65.3957,18.2983,1.8851,63.0847,8.5101,-155.9693,62.5505,-99.8503,21.9023,-152.3379,-142.0047,39.0905,1.4558
17.9364,-192.6792,27.0102,-118.9804,74.8263,-61.8839,45.1815,52.9977,19.5567,111.6157,13.0087,-193.0069,54.4132,-131.8453,20.0099,-100.1356,-121.1890,77.2718,43.9360
-16.9822,-339.4052,-9.9097,-119.1171,72.3457,-76.2695,82.3636,54.6916,39.4036,91.6183,-29.5091,-254.8358,36.0969,-139.7103,47.1746,-86.7603,-192.9689,76.8221,79.0770
-178.4585,-469.4803,-116.0792,-51.9096,58.3546,-28.0733,118.3675,44.2106,62.5635,60.9040,-59.7641,-302.9241,46.8993,-88.4760,73.8907,-110.6000,-249.1132,3.0320,83.8266
-283.3294,-421.2031,-161.9091,60.9118,45.9622,24.4045,114.3079,44.6185,106.9191,111.2642,-51.1983,-314.8972,81.3098,-67.1395,63.0553,-122.6874,-214.3361,-58.7777,97.4692
-211.1971,-288.9235,-72.0345,121.7880,41.6220,31.5441,75.5739,39.6805,120.6996,183.2481,-42.3498,-275.1513,69.8735,-89.0874,-4.7399,-127.2408,-137.1085,-47.2678,95.2699
-67.9347,-247.6491,50.9538,66.0252,16.9763,16.8795,10.9014,21.0850,89.0419,154.0373,-66.5571,-202.0363,8.0017,-72.0229,-60.8886,-119.7572,-96.1658,-27.4243,57.4312
-22.0613,-243.9819,43.6217,-25.4164,-28.0879,-14.7745,2.6779,-6.0132,111.4006,67.8657,-116.1575,-140.5604,-20.8552,-15.9905,0.1115,-84.5652,-129.3768,-59.9214,47.9967
-97.3532,-153.2238,-95.3426,-48.0655,-35.1851,-69.7744,107.2133,-45.0063,224.0013,35.8772,-137.3904,-107.8009,13.0480,13.6401,139.6161,-63.0040,-198.3652,-107.7454,77.7899
-181.5638,-60.4173,-202.6115,-3.4770,-2.3378,-80.2895,175.4883,-67.1119,289.0321,19.2174,-64.4777,-87.3052,45.4790,8.4063,192.3020,-68.6736,-202.0874,-108.9079,73.6974
-157.6862,-100.5369,-155.8606,75.6004,3.2142,-1.2899,80.5099,-35.6896,184.3798,-58.5189,52.6090,-75.2147,30.9503,2.1158,101.8644,-42.8290,-100.3640,-48.1916,22.3442
-31.3556,-193.0357,6.5415,154.8284,-14.2464,80.1101,-32.5363,2.7887,-15.9545,-156.3146,55.0556,-82.7894,5.4938,11.7380,-20.8056,10.2208,19.4794,26.1085,-27.2497
65.4083,-169.7189,142.4847,149.3174,-1.4895,74.9709,-21.0827,-10.5612,-144.1547,-220.4610,-66.7188,-85.8290,20.5967,31.4861,-73.4928,23.0196,52.8290,36.4246,-44.7504
49.8336,-36.8685,134.2374,43.1546,14.2156,24.1801,34.5743,-26.1016,-139.7824,-254.5465,-109.6701,-33.0320,60.9901,47.1120,-48.0630,5.3837,-7.4018,-22.7577,-13.3721
-4.1587,68.1420,7.5540,-37.4473,-10.8586,6.0760,63.0040,14.2662,-77.1170,-249.3983,28.7588,66.7674,70.4946,50.7455,16.3749,4.3856,-70.7368,-67.6409,47.4308
5.5777,99.7614,-73.9669,-27.7029,-34.3236,21.9989,85.3651,62.8493,-39.2915,-195.4291,193.5039,138.6843,45.4055,41.9076,54.9332,7.8570,-28.2506,-52.2662,73.3711
82.0721,132.8851,5.6459,-1.1150,-8.3301,31.4097,70.7336,64.2213,-41.6868,-133.8828,200.4462,148.6404,29.2945,32.1237,23.7683,0.2642,123.9383,-19.3008,54.6274
160.6566,210.1772,163.3534,28.6643,43.0276,29.6011,16.8684,32.6396,-62.9053,-116.8334,62.1325,138.3490,25.3092,48.8785,-27.9239,-12.7059,260.6777,-11.8711,39.4835
183.7971,291.0645,214.7873,101.1784,74.3709,44.1522,4.9211,0.1742,-70.1235,-138.2268,-26.3616,156.7285,5.6248,81.6891,-22.0549,-31.8847,291.2747,-27.8129,32.1985
155.0288,321.7742,95.6719,131.7518,65.9068,67.1555,22.6863,-4.6972,-30.1697,-127.7158,87.2104,214.4132,-19.8162,73.6544,29.6018,-14.5596,262.1451,-45.6184,19.1502
134.0409,278.8419,-61.4679,43.5953,26.8071,49.4689,-8.7638,19.9268,27.9017,-57.5291,271.2284,273.3747,-28.9347,46.9708,58.5285,68.6251,247.5202,-43.7744,20.9718
149.9256,210.3602,-76.1025,-45.4224,-7.4902,-3.2321,-62.5268,19.8009,17.9911,-16.8702,252.4037,278.9358,-32.0646,98.1655,33.7381,106.0056,258.7404,-14.9322,32.9771
169.0702,219.1159,64.7378,-15.9679,-3.7497,-12.9528,-86.7073,-20.5058,-67.6586,-53.9163,24.6978,236.6278,-42.3258,184.2861,-35.0468,9.1487,270.5837,34.7005,31.0748
158.8335,295.1033,185.9055,76.0814,31.7024,45.7621,-99.0508,-28.6894,-130.7914,-67.0246,-147.8369,193.0426,-56.3189,147.6726,-110.9018,-81.3790,243.4847,86.8473,24.6391
114.4286,304.7431,149.6305,146.7879,51.7737,102.9396,-99.8345,11.1169,-112.1816,-8.9055,-111.1333,158.1115,-62.3887,15.6520,-126.8681,-21.5111,164.3513,90.0048,4.1414
54.7390,246.6495,22.8130,157.7816,19.2887,93.4286,-79.1030,16.8049,-41.2909,32.3735,31.1488,145.7865,-39.8594,-22.2762,-52.7190,85.8799,82.3434,11.8755,-56.0638
18.8423,240.5426,-39.4964,68.1443,-31.2091,22.2675,-67.6360,-33.9517,33.9420,43.6227,64.0419,173.5517,3.5886,52.0838,38.9496,90.8331,32.2658,-68.0396,-110.8042
7.1320,241.3438,6.2566,-45.2396,-33.6865,-36.6548,-64.6556,-69.5620,53.6610,73.3382,-104.5431,157.6360,19.4517,92.1436,48.1337,14.5395,-2.1909,-47.6963,-108.6859
-18.2715,139.2252,70.3873,-11.5703,-3.0417,0.0336,-46.3722,-52.8739,-22.5829,62.7888,-255.6844,35.5098,4.2924,68.1683,-19.6422,-60.9603,-13.3061,30.9842,-88.2498
-30.9894,34.1421,58.1421,115.7518,-10.5294,88.6375,-33.9223,-24.1308,-119.7359,-21.2307,-109.8378,-57.2394,8.4160,43.7738,-62.8807,-92.2683,-1.9091,57.8258,-90.1934
18.8270,33.9128,-13.6772,97.2008,-54.6564,79.8791,-30.0845,-27.5099,-120.4926,-76.1920,185.0432,-19.1522,24.1746,-3.8507,-28.4460,-44.3058,-30.4075,32.3915,-92.2322
73.0320,32.7887,-41.4746,-71.2541,-70.2154,-35.4095,-12.3803,-43.8596,-40.5981,-55.6321,242.0735,13.7298,5.5448,-87.8894,23.4112,60.6144,-95.6771,18.6539,-75.7012
58.2011,-30.0770,10.4610,-167.0466,-33.6022,-100.6758,-11.1148,-19.8320,12.0364,-20.4785,48.2425,-43.8801,-20.4711,-106.3607,22.6845,125.5754,-107.3000,17.9037,-39.6734
21.2653,-50.9612,56.6634,-113.6236,20.8950,-59.0750,-30.4106,30.9908,-0.3935,-4.5161,-100.8178,-69.8820,-11.9293,-19.7420,-18.2098,104.0376,-65.7782,7.7657,8.5143
14.7927,-22.9930,37.9777,-3.7367,43.6209,1.1087,-6.9367,42.0272,-40.4478,-24.3104,-70.8843,-15.4349,-0.6341,50.0542,-54.7645,37.5649,-40.7351,11.2801,21.3043
7.7996,-38.7986,4.0598,80.9484,19.0209,28.2003,38.1291,17.5958,-78.2764,-76.2338,76.3584,27.6259,-9.8818,14.7279,-68.0321,-27.2024,-18.7443,40.3455,-29.0267
-1.2508,-71.4866,5.2595,73.6231,-2.0834,18.0184,22.3963,8.9952,-103.5754,-87.8318,211.4212,33.7850,-8.8391,-53.3588,-42.0131,-46.8117,18.3360,50.6535,-81.5746
21.5768,-57.5158,25.1059,-30.0537,14.4528,-33.0563,-22.1284,5.7066,-100.9639,-60.0397,176.0165,29.5328,1.2131,-48.0534,16.8064,10.6895,17.8582,17.1861,-74.3031
38.5645,-32.7610,29.1981,-100.1476,11.2842,-64.7927,-25.0867,-12.1455,-59.1504,-91.1875,-3.5153,14.5607,-9.9658,32.3380,38.0325,79.7718,-16.4963,-10.3670,-20.7473
5.7870,-16.4000,-4.3804,-46.5572,-34.9355,-15.3454,-6.6948,-13.4412,-9.0977,-141.5875,-85.3993,20.5464,-23.6119,92.9873,-13.3505,58.7376,-21.0523,11.0752,34.0970
-30.1761,17.9824,-63.7104,42.6119,-40.9012,48.7183,15.2483,5.1420,-2.1411,-84.0734,13.6545,53.8442,-5.6225,47.0425,-39.9381,-11.3906,-3.2718,39.1993,45.7638
-24.9310,32.3524,-91.1286,48.0932,10.4411,29.7556,49.1316,10.4916,-11.6914,39.8702,124.8309,41.1903,27.4585,-75.2929,40.4194,-12.7674,-9.1790,16.0989,3.4361
-3.2754,-0.6915,-59.3037,-32.4750,24.5056,-43.8531,51.0095,6.8137,40.4745,132.3268,130.8987,-16.5713,40.4248,-142.5999,134.5592,29.7073,-26.3664,-38.9569,-26.5093
8.6568,-20.0717,-15.6796,-99.5532,-11.7373,-73.1982,10.0370,3.0784,120.7419,203.4798,44.0001,-32.4196,28.9580,-87.6249,116.8332,3.5609,-16.9920,-73.0774,9.6257
5.3012,-6.2606,2.3465,-59.4956,-24.1568,-26.5888,-7.3336,-18.0295,120.4885,224.2348,-78.0631,-3.4797,10.5952,1.6159,19.8561,-73.6386,24.8036,-75.7950,58.6205
-12.0281,-19.2795,3.1928,43.3393,-20.0036,34.0769,1.4084,-38.6026,57.8598,133.6023,-111.6973,21.3155,-6.6607,21.8578,-51.6961,-88.6191,66.3625,-61.0103,65.5720
-18.8341,-88.2353,-15.9399,83.5552,-45.1081,44.2512,-17.5542,-21.2460,29.9468,21.5683,-12.0398,26.0391,-30.6536,7.9396,-66.1644,-20.0629,60.8833,-36.7605,59.5880
-10.1402,-170.6804,-45.4123,54.7087,-61.9027,22.3530,-38.2914,20.1407,36.7236,0.6345,45.9959,-27.4836,-54.6665,41.2842,-35.2885,53.7091,14.1173,-20.8010,61.7545
-29.2732,-138.2222,-29.4797,16.2370,-28.3440,9.5503,-17.8081,45.4870,43.8569,30.0599,-60.6563,-120.5632,-50.8271,77.8546,17.2737,76.1040,-10.8206,-32.8438,53.6697
-76.3042,103.3655,34.6884,-47.3453,18.3986,-9.2904,2.4024,35.9662,63.8454,46.5473,-181.5307,-114.6277,-21.3540,24.3393,28.0048,58.2939,7.2523,-60.7252,48.2398
-81.4421,327.5166,57.6532,-84.0673,37.8266,-24.1035,-12.1942,1.7468,65.4181,45.3517,-157.8811,11.8914,-3.6645,-60.9602,-28.6903,37.8323,28.7516,-66.1842,64.2020
-27.5479,185.7644,3.0478,25.9365,39.4788,17.4565,-24.0359,-15.8142,10.5904,7.6344,-58.8021,97.3190,-4.9915,-39.7638,-71.9990,25.2121,32.7437,-32.9504,73.3451
15.9186,-163.2234,-42.0367,170.0132,34.8923,70.7019,-10.5938,6.2208,-32.2581,-58.3902,-20.5620,75.3177,-5.1121,65.5997,-43.6957,7.4504,23.5791,8.9161,49.2963
7.6766,-230.2311,-6.8843,123.2640,14.2784,53.7912,-6.5885,33.4937,-15.8397,-96.7867,-52.9738,9.6951,-8.2993,115.0421,-8.0677,-2.0144,4.5948,33.4083,8.7654
-17.2238,-18.8637,57.8535,-31.1049,-9.8312,20.6641,-30.3564,44.6062,-14.2478,-97.2918,-73.8650,-76.3010,-12.3274,84.4021,-23.5354,12.5714,-3.7811,62.2701,-15.3968
-17.0572,80.0871,69.4497,-64.5690,8.4363,36.8707,-39.8797,56.9641,-48.8168,-77.6648,-35.8317,-132.9324,12.9095,49.1044,-42.3427,9.8218,8.9570,98.5589,-6.6974
9.2582,31.4736,30.9898,-2.2200,64.4207,42.0937,-9.1552,54.5156,-40.8690,-34.4568,28.2768,-76.4639,49.7567,22.6330,-14.6167,-36.8873,13.5440,88.0110,12.9233
39.8524,42.2531,8.4162,28.5922,72.1896,11.6371,5.3704,11.6608,-5.5182,-0.5887,71.1466,18.2524,37.1722,-10.8346,24.7488,-66.9320,1.8815,33.7102,1.7256
52.1854,84.9962,33.9520,34.8252,8.6037,-0.5480,-30.5144,-40.7822,-40.9944,-16.5933,85.1219,11.9824,-12.3357,-25.7408,21.6812,-45.7382,6.5238,24.2658,-45.6954
36.0068,94.0250,81.7443,25.6553,-21.8115,-12.2065,-39.5740,-70.6636,-128.5148,-49.3008,81.1474,-57.6890,-21.7991,-29.2025,-19.7279,-35.1457,31.1507,67.7393,-103.4934
16.6890,133.7247,120.0626,-15.9843,23.3753,-40.4668,12.1305,-85.5705,-164.8923,-65.5387,81.1293,-73.9008,16.6142,-60.2901,-49.6812,-68.5735,53.9268,70.5352,-157.1059
43.7162,148.6012,144.7132,-20.9018,40.0608,-19.8467,16.1896,-94.4870,-150.4276,-90.1392,113.0783,-7.8585,33.9075,-92.4131,-43.1913,-103.2648,80.2717,17.6086,-188.8174
115.0290,72.4104,158.9318,34.7387,-20.7320,31.9049,-71.4334,-106.0790,-169.1796,-120.8973,159.4579,110.4811,-0.2992,-80.7280,-38.6554,-110.1434,106.8403,-15.1695,-174.4816
154.1608,44.8268,144.5096,43.8112,-68.8290,29.5989,-122.1661,-106.7694,-217.5519,-109.6538,152.2523,200.5822,-40.6268,-43.8296,-66.2864,-81.0445,85.1242,-1.7102,-122.5645
107.9804,98.7346,77.7475,-26.0787,-42.6440,10.9397,-48.7792,-41.6054,-192.2360,-41.3416,40.6377,188.0249,-31.3997,7.8843,-74.6553,-21.5439,-4.7440,29.1391,-61.6006
10.1974,59.6784,-16.6152,-62.3438,13.9531,27.7969,66.9556,59.7087,-66.0062,34.2307,-129.5444,144.4804,25.1190,86.3720,-21.5766,1.2668,-87.7182,43.5159,-18.6039
-69.7844,-33.2713,-64.8562,7.5880,34.1663,22.5551,100.7029,57.6808,39.3185,38.8117,-190.6001,160.4254,57.8239,122.5218,22.1898,-50.0464,-69.4273,3.9485,-29.9982
-77.4475,19.7073,-32.0773,133.7093,-5.5074,5.9335,17.9567,-55.4146,27.2207,-40.0246,-44.3104,155.4562,11.0032,43.0443,-14.0797,-87.2169,28.5076,-60.7047,-81.5016
-13.1578,139.1463,25.3105,211.2347,-58.0129,53.4064,-82.9430,-109.7355,-29.2726,-113.2521,113.3866,76.0059,-57.3282,-60.2768,-62.0074,-57.8371,80.6365,-49.7742,-79.7702
31.3267,135.7290,25.8563,158.2457,-55.2878,91.3615,-60.3283,-48.0110,-14.4046,-132.0238,51.8483,50.6406,-43.0420,-53.6910,-20.7593,-43.0554,27.9924,35.3292,-5.0779
-17.7490,78.0842,-42.3760,6.6684,-14.0678,21.7429,62.2355,10.7577,59.2076,-150.5103,-90.3759,131.0894,38.7312,10.9828,75.4664,-62.7343,-55.1011,73.1865,32.2369
-76.5305,67.0745,-101.1656,-89.2454,3.8634,-65.6430,107.3604,12.6414,97.4838,-169.5641,-64.7121,180.7403,74.7542,11.9447,112.1053,-37.3995,-88.4761,35.2183,-5.1934
-33.1604,13.7836,-66.1307,-24.1996,5.3031,-64.2404,28.9806,10.3282,60.7183,-133.7607,55.6777,124.7488,32.4227,-10.1770,57.8126,0.2311,-66.2698,2.8697,-20.0658
56.8785,-91.8195,22.7339,110.7221,14.0120,-14.0012,-30.2135,12.6593,0.5525,-92.8706,100.9016,30.4197,-14.3486,33.9437,-5.0709,-44.3742,-13.1644,-8.4067,21.6290
71.7252,-93.4676,22.3241,136.2009,11.3790,22.5990,11.4666,-6.7258,10.4633,-102.9220,89.8501,-45.9860,-15.5465,68.3707,11.9239,-101.1215,23.9860,-29.8584,56.4338
2.9585,19.9275,-99.5019,17.1195,8.3101,22.1565,83.3208,-25.1818,125.1619,-78.4591,56.5021,-89.9135,14.2051,-8.3117,95.6068,-52.3070,-4.2617,-32.1448,64.7362
-70.0519,71.4321,-189.8660,-118.0576,25.3444,-38.1928,97.2917,-14.6545,246.2387,22.8872,11.6873,-83.4538,45.1715,-102.8210,141.8817,36.0296,-60.5703,-1.6978,53.7907
-69.6244,1.3613,-131.0504,-181.5945,21.7832,-124.9076,39.6192,-2.7098,238.5734,98.2333,30.7549,-38.7233,48.6822,-79.0714,89.9737,46.3591,-60.3973,3.9974,11.4281
13.1244,-70.4303,1.3086,-184.2991,-12.4905,-151.6539,-27.6999,-24.8715,108.4363,113.4799,52.2705,-5.4245,16.2786,4.9162,1.6241,14.2387,-8.5780,-29.4880,-16.4783
72.1231,-84.8962,65.2614,-106.2656,-15.7946,-91.2553,-32.1861,-58.5638,-7.6724,126.9120,-62.7545,-9.9846,-15.7568,19.0531,-38.2903,16.0356,34.0923,-43.2557,16.7431
24.0373,-97.8985,24.8428,49.1871,13.5283,2.0136,13.1052,-61.9633,-27.7890,105.6782,-162.8253,-23.2166,-13.0954,-20.6503,-29.1149,22.0613,53.6113,-24.8669,30.4964
-26.9551,-88.1657,-34.3835,126.7211,13.1995,46.6775,33.1191,-52.7603,-3.1125,7.4510,-42.9062,-4.1620,6.6932,-24.7812,-10.4405,-6.7094,54.3972,-34.8976,-44.5636
34.6611,31.1406,-12.9960,18.5882,-20.7308,-4.8491,-0.3421,-67.3251,-10.8949,-73.9115,109.5859,32.8586,6.3524,12.7574,3.8544,-21.2876,39.3433,-99.6727,-107.6752
107.3411,178.0477,65.8299,-126.1332,-51.3621,-93.9770,-49.5540,-75.1403,-46.9913,-65.1242,60.2672,39.8034,-24.0226,44.7878,11.8470,24.4998,38.6362,-167.2999,-56.7079
53.6167,161.3462,63.0744,-131.0368,-66.9104,-110.7929,-57.7097,-37.9070,-45.0797,-37.1796,-60.6344,16.4994,-54.0732,48.6239,26.7368,91.2437,57.2029,-185.2433,45.5783
-58.3567,3.5152,-70.2528,-40.1599,-65.1035,-50.9789,-7.7660,5.0865,26.3931,-49.9379,-78.7185,-2.8289,-35.9553,22.1299,76.5746,118.4557,66.1900,-158.7014,95.1636
-79.5182,-82.0700,-180.5674,28.2880,-56.7342,2.3358,21.0611,3.9834,94.6176,-64.2901,-36.1760,-1.4602,16.4640,-25.2305,113.2911,93.2372,92.6001,-112.8353,72.8515
17.9802,-21.0149,-103.8104,56.3176,-59.0650,18.8286,-58.2032,-31.1282,41.7373,-56.2957,-0.9715,40.9922,8.7781,-62.2725,17.9481,31.4342,169.6124,-60.0868,15.6601
133.7316,73.1150,96.0297,61.8650,-53.9514,18.6242,-180.0712,-66.7737,-112.3743,-48.8445,-12.3334,114.6230,-90.8663,-49.4757,-180.4185,-27.5101,220.7154,-30.5857,-12.1700
130.0278,115.2996,176.1094,29.0551,-34.1194,5.8027,-203.2172,-70.0489,-166.0489,-17.7515,-107.4685,123.2382,-176.8155,11.0840,-253.3839,-13.0122,168.4601,-59.3065,33.7280
-10.6702,118.2229,12.7995,-53.0839,-33.8730,-20.2024,-111.1574,-23.3050,-10.2471,87.0054,-192.4604,19.1663,-161.8074,40.2897,-104.3380,85.3161,78.2796,-113.6782,101.0075
-116.6857,112.1045,-209.6281,-148.2508,-38.9750,-56.7231,-0.6699,35.9648,167.9333,215.0356,-136.6910,-86.2265,-87.2388,-24.7569,51.5893,157.1779,43.1568,-111.5632,105.7885
-62.0478,100.0508,-211.4772,-196.5006,-3.8662,-99.0828,39.5377,59.3257,152.0760,246.1755,-10.5568,-95.9087,-27.4094,-104.5016,18.8495,122.2715,43.8349,-32.6937,61.7241
42.0789,68.1025,0.6479,-192.0233,32.7941,-119.0471,-13.5744,54.6587,15.5118,162.4894,26.9966,-55.2739,-11.2148,-88.2948,-93.0049,55.3051,26.2075,52.9400,35.4227
53.0396,24.4393,142.2865,-180.0018,20.7332,-98.8180,-69.6997,41.3768,-38.6762,59.3140,-24.0564,-22.7600,-29.5554,-25.5745,-84.3160,38.1502,-11.5648,79.0866,33.2763
-1.3031,0.7269,56.4605,-152.7215,2.4221,-63.3398,-10.9668,18.7158,19.9326,-4.8480,-38.9802,-0.9920,-31.7019,-21.6377,50.7294,28.7760,-57.2920,57.1937,17.8560
-34.1377,-17.6358,-95.1117,-71.1687,7.4618,-24.4323,95.5660,6.6295,83.0698,-39.1126,45.2340,3.1368,15.0790,-53.4456,179.3784,-11.7352,-96.9019,38.2130,-27.9395
-10.6477,-87.5080,-96.1251,17.7332,1.0863,27.2383,80.7576,19.4904,73.4916,-55.2414,146.7693,-6.1969,52.4165,-49.0759,198.9566,-38.3107,-99.2578,33.1111,-80.1253
57.1068,-190.7200,38.0047,40.3437,-5.8770,60.4191,-17.9415,33.0746,-10.2760,-80.7337,156.3902,-13.5694,30.9400,2.0926,103.6609,-38.2636,-78.0281,20.3004,-78.8051
90.0312,-231.3932,122.3466,18.3279,25.7745,48.1734,-24.2755,42.2496,-101.4519,-143.1998,111.5348,-48.1226,8.4045,74.5418,-9.9875,-43.4935,-103.7928,14.1222,2.2452
22.0756,-209.4296,65.8905,20.5974,69.1791,42.4704,58.2081,68.4883,-125.3444,-197.6044,104.9690,-122.9648,33.0217,110.4361,-35.5322,-29.0914,-182.2347,43.8755,90.3568
-66.3973,-256.4064,-36.5850,81.0398,83.4840,94.0196,89.5541,107.2340,-92.6838,-190.3539,92.6625,-177.9164,59.0416,87.7559,10.5951,21.4808,-218.9804,78.9516,104.2035
-62.1971,-387.6354,-65.2514,178.3194,68.6081,162.4996,43.1300,143.0164,-59.7447,-159.2825,28.3998,-180.7089,50.1095,100.1110,33.2937,31.5943,-163.2554,73.0472,66.2044
4.9844,-394.4263,-1.4276,233.1137,33.7374,187.8549,-8.3240,159.2959,-45.1817,-154.9659,16.5632,-169.7234,31.0595,159.5686,5.1984,-32.3002,-78.9252,53.7716,35.4924
57.9324,-178.8539,110.3593,205.3792,8.3784,173.3937,-23.3993,122.6075,-64.4905,-160.9379,97.1789,-160.2574,27.2564,104.5987,-35.1919,-84.7790,-36.1291,67.8992,13.2553
95.5638,28.4928,186.8736,166.7241,27.3697,147.2398,2.7052,48.3567,-122.0089,-158.3273,141.2323,-129.4228,41.8435,-53.3289,-63.8112,-86.1918,-31.3376,89.1444,-11.5346
115.8893,32.5522,140.3889,154.6841,59.6427,113.6649,50.1215,16.1718,-139.6631,-149.6136,106.0927,-79.8621,58.5964,-92.7465,-65.0936,-91.2664,-35.2357,77.2314,-15.6651
87.6150,-34.1898,21.1010,109.0025,55.3923,77.5673,74.7327,49.5434,-61.4241,-120.2575,95.9111,-43.2030,51.3989,-31.6544,-31.0827,-99.8425,-39.5589,65.2009,11.9197
40.5474,-11.0301,-8.1963,42.3024,28.3894,62.9692,57.8328,96.1517,12.8763,-71.3645,126.9599,-45.9828,23.9367,-55.9882,-11.1056,-71.9682,-38.6373,98.8576,43.0694
30.9541,34.2264,74.0567,34.3552,7.4020,78.9131,22.3584,125.5395,-26.9477,-29.5253,100.3136,-86.1800,-3.4457,-80.9996,-59.9955,-47.3495,-23.6191,147.5061,49.3544
35.4398,3.5602,127.3706,66.9841,2.3147,104.3853,-1.6863,127.4695,-119.9165,13.5040,1.5584,-137.1451,-28.4691,18.9183,-125.8495,-61.8097,-12.5195,151.3899,36.7844
3.9634,-54.2615,87.5275,87.7137,27.7598,117.7547,4.0230,87.9304,-150.1700,78.1667,-58.5763,-170.7038,-30.9031,74.4297,-112.4281,-65.6634,-32.2621,107.9848,27.4807
-34.3785,-15.4713,8.4483,100.8430,58.7071,108.2776,23.8404,34.0513,-121.7434,135.0017,-24.5547,-139.7895,9.7749,-9.3120,-45.1830,-40.4983,-53.7076,52.6586,17.9846
-30.1370,145.7049,-50.9417,89.8646,42.7811,74.9348,12.6758,2.7992,-96.3009,154.6113,2.0435,-11.8727,43.3244,-62.4552,-27.2938,-20.0087,-26.0440,8.9150,-7.9544
-17.5202,210.9733,-45.5602,58.1217,1.4432,43.2708,-29.4377,-11.4952,-74.4537,165.7178,-55.8743,102.3157,26.2398,-37.5928,-53.2550,15.1064,5.6514,-5.0848,-33.9047
-43.2804,-26.0457,3.8987,69.7987,-15.8227,35.9500,-46.3532,-7.4988,-37.3724,199.6389,-88.7169,44.0474,4.7731,-17.9898,-42.6258,72.7364,-46.4896,6.9327,-37.3222
-55.3660,-297.2281,-9.6381,77.1745,-29.2420,20.6928,-24.4484,23.8555,-11.9186,232.9792,-11.8936,-100.2508,3.7817,44.8548,-16.5567,82.1676,-127.3134,-4.4734,-31.3768
2.1909,-186.1498,-93.7463,-28.2936,-53.3169,-32.5361,-8.6404,48.6442,-15.9310,227.0980,49.5749,-101.9808,-11.6532,128.5163,-42.6307,39.3122,-100.2080,-47.9117,-20.9231
56.0300,135.8179,-119.0141,-143.3703,-52.0193,-75.1818,-8.0017,51.2586,-22.4061,184.2529,11.5952,25.2824,-16.8578,62.7923,-78.7653,30.8221,8.0879,-43.3873,11.9965
