Fp1,Fp2,F3,F4,C3,C4,P3,P4,O1,O2,F7,F8,T7,T8,P7,P8,Fz,Cz,Pz
24.2158,-92.0009,33.0185,-1.5109,51.0700,27.4694,2.9231,33.2694,-18.1294,29.5836,-12.9078,-91.7604,3.7806,-19.2160,59.5490,4.1557,-10.9355,75.7000,11.9908
-50.9066,-112.3807,67.3417,83.9016,50.8798,110.6467,-29.9380,73.0201,-10.2575,-16.7599,-115.7737,-62.5564,43.4249,79.9288,77.8052,-4.0228,-47.4821,65.0458,38.4574
-112.4845,-85.2191,53.3585,100.2386,1.0219,152.8355,-42.2030,78.9303,42.9542,-169.7738,-164.3528,-68.7673,68.9738,138.1492,82.2442,-97.1475,-43.2858,24.0781,39.1259
-184.1885,9.1577,17.6966,74.9761,-56.1257,111.1864,-6.2741,24.4359,113.7125,-255.4663,-165.4832,-131.6756,76.1049,100.3404,84.7015,-160.1993,-50.3445,-7.9872,15.4307
-166.6319,19.9584,-32.3657,69.4316,-55.6721,60.6838,59.9141,4.5005,148.9924,-141.0467,-176.9452,-168.0322,81.7977,81.7355,87.0473,-106.0235,-74.9915,-0.8620,29.4837
-97.4604,-112.8449,-99.3021,62.1329,-5.4075,72.6717,114.2228,70.5577,172.5554,28.7401,-190.6175,-147.5328,66.6696,134.0301,89.6492,-67.4053,-62.5447,-5.8569,84.9541
-163.3525,-145.6548,-127.5816,12.3295,30.6135,90.3626,145.0384,121.0906,213.8116,103.5063,-187.7094,-109.6754,46.7578,120.1661,96.7033,-109.5994,-53.0346,-78.5143,113.9833
-268.3389,-2.4196,-110.3128,-54.7575,5.7055,36.0401,157.7722,109.5163,223.0901,117.1212,-174.1793,-61.7183,71.7151,20.3151,95.5129,-65.7313,-82.4189,-152.0066,95.2182
-173.1055,-26.7720,-125.9406,-78.3885,-66.5054,-36.0626,130.8186,128.6241,177.9357,109.6860,-142.9008,-21.6138,118.9662,10.2693,72.9024,95.9264,-85.1804,-148.4681,67.1037
5.1184,-239.1644,-176.7322,-61.3424,-122.0824,-52.6318,60.6845,171.3628,133.4648,94.7169,-93.6012,-12.7980,142.5367,82.9872,41.1468,156.4566,-64.7250,-132.1142,52.6553
5.1510,-150.3181,-171.3678,-78.4435,-106.8952,-70.9651,12.0292,123.2633,113.5245,122.3965,-51.7149,24.6645,156.5600,51.1403,15.7342,71.6818,-73.2981,-154.0075,51.6257
-115.0071,212.3387,-93.3474,-140.9166,-56.5606,-133.8409,28.8898,25.4171,106.7131,149.7229,-34.8627,123.5003,154.1478,-41.7029,-3.4598,46.0732,-54.2144,-143.2871,50.2754
-122.8050,260.5669,-35.6925,-163.8535,-93.0232,-152.3312,51.5952,0.3433,128.0591,87.0222,-28.2089,191.3260,101.2238,-15.0855,-18.5797,114.6022,4.0644,-113.2572,18.6122
28.9399,13.7371,-53.1455,-120.9304,-248.6908,-96.0241,16.7654,7.1094,152.8768,20.9585,4.4618,170.9192,57.1852,71.0787,-30.6489,127.0418,7.7165,-153.2347,-40.0395
153.5869,-31.6638,-65.0542,-71.9913,-344.9731,-72.9432,-40.4569,-31.6381,109.1135,74.4539,55.5785,117.2469,105.6666,70.7627,-39.9644,97.8884,2.2416,-188.3475,-79.7978
95.3393,112.2953,7.6433,-46.0029,-242.7103,-126.5100,-68.8474,-74.7790,9.1274,153.5230,56.8242,101.8262,188.3206,21.3500,-38.1980,126.5423,88.5800,-135.9989,-96.7327
7.9712,270.6388,52.5925,-51.7435,-103.6259,-181.3161,-81.1264,-113.6474,-55.9791,110.6828,9.5833,197.2816,193.5862,-2.0328,-22.1315,131.6592,174.9157,-117.3900,-131.0676
94.2424,544.0536,-59.5549,-93.4650,-111.8636,-184.4340,-86.7499,-183.7696,-51.8581,-17.1811,0.5921,397.6715,152.4209,10.1714,-4.5164,38.3648,181.7792,-167.7151,-170.7067
163.3323,691.0820,-180.1788,-97.3586,-154.5596,-135.9533,-64.7732,-212.0608,-15.7401,-88.6364,10.3057,509.1055,182.3120,68.6188,9.1159,-23.4228,192.9474,-140.8305,-171.5962
22.8948,406.5252,-129.7402,-18.7050,-115.3132,-71.6644,-39.4424,-147.0948,7.6175,-43.2832,-47.4861,404.4906,273.2754,116.3300,26.2347,24.3778,215.6487,-80.1915,-163.7258
-38.5123,170.1942,-57.1879,38.3192,-131.4335,-55.7833,-61.9020,-97.6203,-7.9271,19.3660,-101.5335,274.6927,292.5050,89.0166,43.6024,59.6541,206.0814,-136.0008,-208.1237
136.1386,372.9518,-112.8857,23.8431,-247.9423,-72.5727,-119.0863,-128.8768,-57.5469,-44.9139,-59.1143,315.5385,229.7238,95.1479,54.2709,13.7457,241.7339,-190.4133,-272.2664
194.7971,505.7149,-125.5212,46.9730,-268.9352,-43.0499,-169.9834,-172.1484,-137.5804,-196.0960,-20.1408,424.9433,230.0521,207.0972,66.3038,-34.4442,310.0938,-117.6992,-281.3660
100.3048,406.3884,-22.5609,116.1029,-162.8001,-16.5973,-228.2724,-214.8141,-265.6730,-269.7621,-54.8894,464.3522,292.6185,258.9401,80.8080,-53.2559,283.2344,-79.3713,-261.7849
261.4225,679.0610,-37.7092,102.3180,-136.5153,-86.3869,-308.1675,-294.1351,-388.5154,-263.1756,-60.3158,484.2657,244.8476,180.8855,79.7834,-92.7891,240.6313,-149.9731,-288.8233
554.8085,1200.9471,-199.4089,18.1000,-236.2070,-154.9361,-355.7717,-353.3143,-393.2085,-277.8942,-28.0578,527.1988,129.4794,148.9818,59.8417,-163.0375,306.1654,-160.4382,-341.0761
487.4709,1191.2338,-242.5308,-9.4487,-301.7451,-109.4507,-328.9852,-347.0439,-305.7776,-292.2105,-72.2337,519.1734,179.0712,198.1845,38.9581,-234.7012,328.8289,-90.2104,-367.6421
233.9246,806.0761,-145.7253,15.2986,-287.0793,-58.8566,-279.9569,-350.9304,-271.0391,-277.7679,-158.7167,439.7368,327.5016,170.1345,18.0562,-295.8956,227.1045,-83.8477,-405.9317
258.9808,781.9067,-130.7403,9.1334,-306.4448,-102.7620,-275.1984,-411.1135,-296.6123,-306.1257,-184.0998,380.7530,293.8474,70.6991,-15.6964,-352.1758,215.9157,-140.2185,-464.3262
382.2606,1013.4397,-200.3227,-21.7899,-410.6375,-147.7082,-297.7335,-457.9846,-288.2326,-358.9482,-199.4463,392.5393,138.3634,32.2739,-43.5071,-412.2712,349.6553,-181.4739,-455.8717
291.8043,978.7665,-223.7445,-26.6128,-509.1428,-140.0361,-311.9137,-443.2947,-290.2886,-335.9467,-261.7241,398.3312,141.0252,50.2671,-28.8080,-460.9286,415.8428,-207.6144,-393.0954
247.2513,773.6095,-271.9767,3.8291,-520.4346,-149.4450,-352.0487,-413.9426,-392.9192,-273.8522,-288.7224,324.0146,262.2702,60.5123,22.0529,-463.4520,378.7718,-210.7995,-399.2834
439.5932,746.4649,-429.9471,45.8685,-492.1954,-174.1932,-439.8963,-421.1888,-511.9155,-279.4048,-247.3044,234.8899,284.1697,70.9465,67.7072,-429.5881,368.6213,-192.5737,-457.8634
505.0889,849.2775,-540.7226,67.9109,-493.0993,-168.2346,-500.5243,-450.0481,-523.2263,-350.8212,-243.6612,228.6974,242.8891,87.7033,92.6711,-399.4473,358.8919,-220.6869,-458.2834
266.6330,830.8597,-466.8672,56.2176,-492.9420,-182.0647,-488.8399,-455.6511,-474.1613,-427.9355,-322.3372,261.9996,266.0192,92.8238,108.8153,-368.1782,268.9513,-298.2137,-436.0609
101.2437,608.0187,-341.7180,17.3354,-473.4304,-253.7884,-488.6159,-430.4123,-474.7779,-463.0790,-375.2342,222.7717,294.6129,85.6361,116.5469,-323.8934,142.3143,-353.5378,-461.6434
186.0752,317.9112,-315.5998,-47.0018,-487.8978,-313.6534,-555.1415,-413.4224,-520.9442,-424.5087,-326.7109,100.5608,272.9745,60.6161,111.7364,-298.6882,33.2060,-384.8579,-481.3749
206.3967,165.1516,-314.1855,-114.4020,-511.4631,-316.7753,-603.4906,-436.6970,-537.1882,-346.1879,-258.8274,-18.3787,274.7437,17.3784,104.6996,-294.4509,-43.8726,-418.4680,-483.5229
35.4063,175.0368,-251.0821,-130.4623,-460.8906,-305.5365,-560.0298,-482.1942,-491.3474,-292.6320,-267.1505,-65.5368,297.4941,-17.1145,100.4765,-255.9237,-80.5766,-424.7854,-520.7348
-86.9094,144.2839,-205.9109,-87.8043,-355.7187,-303.3955,-462.2966,-498.8962,-413.1531,-259.7622,-314.5903,-68.2107,257.6282,-31.0828,91.2875,-160.3173,-134.9669,-397.8828,-515.1132
-121.4439,-81.4574,-217.7047,-48.2637,-242.5800,-286.3322,-361.3629,-460.0179,-348.9645,-211.6421,-327.3628,-117.1878,197.7337,-36.4829,76.2467,-52.9552,-264.0797,-369.9861,-387.7434
-235.5677,-395.4639,-188.0712,-54.4914,-117.6056,-255.1170,-281.8633,-394.1086,-308.7924,-142.2556,-303.5282,-227.4438,208.5490,-44.2355,58.2052,-0.0337,-391.2234,-334.7371,-256.8353
-350.5341,-589.2667,-101.6726,-92.0129,-41.1986,-234.7231,-244.9740,-339.2132,-251.8460,-67.5871,-255.2198,-319.1198,231.0693,-74.2125,33.9176,-16.6649,-432.2576,-273.8918,-213.5704
-335.5367,-640.2137,-50.1041,-127.3445,-60.2934,-213.1932,-213.1879,-291.5386,-145.8208,-47.1519,-200.5951,-369.8105,181.8965,-126.2105,5.5329,-24.4035,-436.0733,-200.8157,-167.3493
-348.5149,-693.0613,-24.3162,-128.1880,-66.8052,-158.2348,-125.1541,-235.9556,-30.2906,-117.2031,-192.1017,-416.8925,125.7773,-148.8504,-22.5759,33.5902,-450.9313,-136.1766,-77.7798
-465.6281,-790.2662,38.7347,-77.8846,-7.1973,-92.2406,-32.9554,-178.3598,23.0785,-162.1593,-192.5368,-444.9282,126.4188,-110.3488,-55.7623,69.6342,-434.6724,-98.4074,-16.0328
-451.8526,-845.1550,92.5081,-2.6962,5.9299,-69.0549,-27.7101,-122.4502,10.6615,-70.6231,-85.0890,-446.7368,118.1516,-42.6733,-92.6274,17.6104,-377.6588,-84.2196,25.1301
-268.3834,-847.2885,85.0803,37.6958,-29.8203,-69.7769,-49.0947,-73.0318,3.6420,30.1333,68.2665,-449.5520,70.0857,17.6545,-118.7505,-9.4533,-340.2432,-51.0892,116.7548
-237.9984,-841.9599,69.8444,15.6102,21.0351,-24.9194,27.1043,-39.5916,51.0225,-23.6693,66.3260,-413.3003,56.2852,52.6715,-132.0753,57.5780,-350.1920,19.7644,272.1597
-459.3091,-814.6707,86.4567,-11.7118,144.5144,53.6129,172.2789,5.4235,131.8120,-129.3146,-78.3844,-346.0652,72.6163,41.3600,-142.3858,92.6303,-375.8486,90.4857,449.6523
-592.5566,-786.2095,103.0852,25.5796,202.4936,81.4565,256.8142,87.8668,202.3644,-93.0098,-155.1323,-391.8433,17.9417,-19.7727,-149.4578,36.1441,-379.5936,124.8722,559.5038
-416.6898,-826.4244,107.9815,85.8970,155.0568,41.1297,244.7108,153.9141,236.6829,53.8077,-90.5590,-540.8470,-94.1093,-91.9783,-152.4836,18.9049,-354.1025,109.2760,530.1453
-190.6639,-902.0529,123.8389,77.1535,65.0508,-1.3705,206.6836,149.8032,234.1403,135.9813,6.3278,-572.9260,-121.8094,-113.2897,-157.9097,99.0802,-327.5183,45.1097,439.4529
-240.7576,-890.4657,151.3154,9.8308,28.1421,-13.5530,206.7693,120.5569,232.2419,107.1923,37.8068,-449.1613,-20.8297,-71.4713,-160.7142,159.6502,-322.4516,-34.6088,413.7383
-437.0695,-707.6154,157.5448,-55.8492,91.9311,-35.8926,257.4015,130.2899,280.1957,83.4298,-2.6655,-341.1620,81.0043,-53.1176,-155.6040,134.7206,-317.3506,-97.2315,438.9740
-399.2183,-421.4096,104.5713,-117.6421,150.4069,-93.1124,339.1606,184.5830,369.8307,147.6454,-44.8547,-307.8103,59.0255,-107.7291,-162.9244,116.6335,-288.2882,-133.0541,452.4558
-116.8266,-297.6691,7.7566,-154.6749,93.9830,-130.9166,419.0677,258.3347,441.1477,226.7356,-18.5192,-316.3896,-52.6215,-109.5038,-196.2276,178.9660,-251.0711,-118.8330,461.9490
41.4069,-470.1414,-53.9033,-112.3589,22.6681,-89.3266,477.7661,304.9940,473.6825,208.1066,29.4700,-361.6035,-118.2154,40.8760,-228.7756,234.0736,-226.7856,-60.9649,465.0746
-83.4667,-644.4880,-38.5153,-33.2595,60.7706,-0.0677,529.8450,302.9330,505.6018,116.9586,-5.1588,-379.9836,-79.3228,206.5858,-240.5580,185.6005,-217.0054,-34.3987,454.4175
-256.2079,-590.3129,9.9532,-10.0541,140.2835,66.6139,581.1854,313.1072,542.7730,81.1820,-104.2405,-334.6939,-8.8448,244.9574,-252.1650,131.9165,-213.1498,-56.3738,472.1930
-254.1885,-518.7918,45.9421,-42.1418,167.2789,100.8296,587.6331,350.8154,533.9374,141.6596,-162.2899,-290.2303,22.9060,211.6953,-269.7271,200.3704,-189.2429,-50.9145,492.8802
-125.7654,-491.2053,66.9410,-89.8466,155.7133,108.2131,523.1306,306.4171,468.6988,207.9202,-159.3770,-212.2118,36.3463,159.6210,-265.9979,283.7263,-131.0524,-12.5024,423.1552
-24.5561,-271.5515,79.7450,-131.0851,138.7882,67.9815,442.1787,170.5980,399.8369,224.1100,-132.7208,-48.1579,64.6251,73.6131,-247.7164,240.5112,-77.5439,-3.8699,297.5269
15.0274,-50.1931,90.1532,-107.3027,153.9564,19.0303,394.8131,119.1123,345.4157,253.6980,-56.6330,22.0644,98.3609,52.4845,-252.7596,176.7003,-57.4735,-5.9540,236.6384
64.7938,-200.1153,96.2240,-8.5346,214.8024,33.3001,362.8862,213.3835,297.5027,316.3775,69.8035,-97.9824,128.6039,165.2722,-269.4533,217.1329,-40.8746,18.4927,235.6214
136.1991,-420.7210,90.5254,46.4348,226.8813,66.3087,335.6165,281.1352,298.7953,305.3523,125.8349,-140.9699,146.0796,239.1674,-261.6614,274.6690,-29.8152,20.8907,203.9794
176.6240,-281.8573,100.3392,-5.5416,134.4206,30.8925,315.7529,199.2741,334.2349,204.1085,58.8090,41.1257,131.0651,158.6299,-251.2461,272.2101,-66.4160,-15.5455,121.4467
205.3696,-51.7886,158.3188,-57.9400,60.1095,-13.5467,249.5842,70.7909,260.0867,153.9014,24.4539,189.4408,119.0933,104.6478,-265.5469,254.4572,-101.1167,-21.8538,35.6515
249.2696,-45.4648,226.9936,-19.7542,93.8720,35.3173,112.9026,53.0298,49.4132,165.7496,130.9175,131.0719,172.7610,190.3285,-266.7293,207.4034,-45.0194,22.8538,-6.7281
249.8953,-52.3408,248.8523,62.6643,148.4621,118.0306,-3.5038,115.9138,-107.3576,83.5596,242.2870,43.0986,251.2704,239.2176,-233.2767,88.9034,45.6885,66.2962,-18.2395
222.2026,55.7758,239.7542,110.9400,154.8287,113.3271,-38.4899,68.5569,-125.2280,-78.3548,229.8271,95.8784,254.9871,151.7767,-208.7897,-32.3433,56.8099,76.0887,-68.7947
255.0045,104.6470,250.9320,108.6699,152.6276,37.7616,-53.2928,-117.6187,-134.2225,-139.3167,167.2901,214.9784,188.1476,82.4399,-201.8440,-83.0521,26.1231,61.5060,-157.8799
288.6069,68.4438,284.5011,96.5944,148.5169,4.3047,-96.3507,-199.9216,-184.3742,-94.4576,145.2660,221.9838,128.3148,117.7352,-165.6614,-91.6376,52.0725,65.6466,-192.4578
245.6187,21.4039,290.1617,122.8820,102.9950,65.7311,-140.7900,-66.6158,-203.3850,-97.3991,159.9895,76.0114,95.9507,148.8670,-97.6267,-120.3610,106.3098,126.7838,-166.9986
224.8313,-45.3021,236.1319,177.4262,34.2355,160.7421,-165.3649,39.7148,-199.4498,-189.0854,201.4042,-39.0813,76.0639,108.3370,-33.8237,-189.1630,119.6809,182.2120,-172.8441
228.1556,-37.9862,172.6580,197.9702,-14.9571,181.2247,-170.8056,-71.2628,-202.2053,-294.3238,232.0256,36.3185,76.9780,47.1388,19.2740,-242.9583,113.0765,130.9311,-214.6614
117.5783,117.5390,160.1397,159.6723,-61.9362,111.7955,-169.5719,-248.7749,-190.3675,-369.5761,209.9727,195.0664,86.2860,18.5762,59.9944,-244.7847,112.8949,30.5696,-236.7466
27.4541,225.4882,151.0831,119.9505,-136.9248,73.7438,-199.2341,-290.9958,-220.5368,-442.3620,228.1854,268.7028,59.4995,57.8986,83.5848,-300.3549,91.0072,31.0349,-251.9052
177.4968,126.1054,87.2646,150.7997,-204.4319,139.2445,-267.7333,-225.5195,-334.6808,-535.2898,363.5586,253.6446,-6.2030,150.9866,122.4720,-444.1459,65.3438,112.2814,-266.8735
329.1906,-30.4800,42.3075,227.1041,-217.7320,196.4565,-327.9366,-213.6948,-401.7379,-552.9170,456.2695,190.5314,-57.8849,180.2009,190.1562,-457.2562,101.2589,126.0542,-234.4326
174.7312,-51.1378,74.6803,236.8337,-204.8779,149.5440,-351.7621,-307.1210,-353.9091,-420.2357,372.8328,132.0480,-66.0609,95.4977,239.3251,-285.1296,178.5792,59.8700,-166.1439
-36.1352,59.1182,85.5239,151.0627,-217.9867,94.6193,-347.6623,-340.8743,-329.9335,-345.3648,266.2985,181.8222,-66.1428,41.1851,258.6168,-235.8443,213.7729,14.5204,-117.9600
6.4020,144.4010,11.9430,73.0331,-253.4653,109.1451,-322.8831,-186.8210,-373.1487,-504.7348,275.2333,266.1075,-94.2986,90.2601,288.9122,-377.9097,208.0378,-12.4290,-85.3744
57.3488,52.1549,-42.4132,56.0803,-286.7862,86.6627,-287.0378,-29.3795,-352.8760,-593.3345,293.4396,177.6277,-124.4853,94.8899,316.0246,-402.2338,215.3059,-87.8613,-61.0741
-119.7607,-128.3715,-16.1851,37.5814,-317.6925,-30.1788,-240.5162,-54.5174,-253.9037,-364.2491,239.1507,28.9618,-121.5735,-2.8665,300.2128,-295.5025,210.9585,-181.8489,-92.0027
-206.7216,-90.4271,-11.9949,-26.1217,-358.9952,-130.9447,-184.4204,-106.4745,-183.1388,-206.2077,203.6504,124.1814,-114.1785,-70.2080,267.5591,-300.5705,155.9633,-237.1652,-171.1812
14.8520,205.5137,-105.0064,-126.4876,-419.3980,-183.6213,-163.0929,-76.9260,-156.9678,-373.3761,237.4578,362.6251,-139.2531,-91.1436,239.6197,-293.1342,105.7627,-267.2299,-204.5310
158.0527,370.9216,-213.1911,-232.7493,-455.8013,-262.1997,-182.7081,-152.5727,-138.8911,-401.5685,261.3925,394.6093,-167.6811,-150.9015,184.9667,-93.4701,105.5680,-264.6701,-154.4741
-21.4590,185.7773,-246.4829,-260.4863,-394.7682,-302.2820,-166.5535,-311.1870,-140.3074,-89.7615,217.2939,219.1316,-168.4950,-167.3409,112.4878,20.6731,104.1600,-200.3870,-90.2139
-157.5641,-37.8837,-242.8295,-177.7241,-290.8616,-207.4280,-116.4786,-260.9077,-149.5192,13.4103,145.1912,82.6444,-171.4586,-63.7280,66.8127,-120.1205,75.0178,-144.1692,-47.7501
-87.5140,-6.6228,-255.5402,-112.5274,-284.1549,-108.7381,-91.0146,-59.1140,-89.7286,-250.9674,77.0017,60.1935,-187.5843,-9.9491,36.1535,-189.2423,52.6791,-167.3139,21.2405
-173.7781,82.4921,-249.6966,-157.8105,-335.5825,-157.8412,-6.4397,-27.8696,83.4069,-287.1382,-41.7420,90.0394,-175.4029,-133.5967,-6.5410,-38.8519,17.9268,-201.0348,101.5680
-405.7254,0.2034,-231.4553,-233.8361,-301.4834,-250.8118,172.7476,-119.5932,262.2397,77.7683,-204.4596,104.5942,-148.4112,-265.0400,-43.1496,70.3586,-63.8431,-183.1738,96.4665
-337.7117,-103.0618,-282.6752,-274.6778,-217.4107,-234.7052,230.9743,-55.8311,260.7054,327.5598,-258.3656,-3.6176,-165.6602,-211.3712,-66.7352,90.7170,-149.6683,-162.8042,32.5184
-76.0494,-157.0093,-365.5784,-290.7921,-157.7505,-147.1137,101.3934,143.6541,113.0596,304.9474,-182.1748,-253.2424,-180.8335,-38.8908,-99.1580,215.7993,-218.1570,-153.6522,38.2979
-69.0256,-356.3780,-360.5202,-245.8446,-39.7711,-90.8809,49.8881,256.2159,81.5065,357.5580,-188.8356,-446.4750,-96.5169,39.9194,-141.6518,375.0627,-301.9071,-124.0906,79.3392
-182.4288,-527.4248,-291.3814,-137.4904,137.5604,-88.5783,149.7819,207.0458,204.1593,512.9886,-335.5799,-399.8148,39.1612,-58.9610,-184.8118,368.0753,-355.3497,-110.6177,43.6770
-161.6503,-243.9135,-212.4631,-69.3829,233.8860,-108.1337,177.6967,96.3258,235.7328,500.9259,-451.3178,-208.7014,106.2721,-180.5001,-225.8158,258.8524,-325.3655,-126.8687,32.3215
-235.4621,223.4113,-68.0366,-71.1034,264.3062,-102.0594,122.9771,57.5251,147.7357,385.9191,-516.1326,-121.3039,104.4267,-144.8018,-246.7989,208.7837,-295.9919,-98.8950,160.3787
-393.2219,200.0198,79.6360,-57.5826,335.0521,-48.5118,135.9718,120.4402,130.8119,384.5339,-592.1744,-227.0933,83.6515,-20.0700,-237.0822,218.9824,-324.7978,-7.2985,257.6300
-254.2631,-207.1870,81.3166,3.3704,404.6615,27.5963,141.9344,190.2533,146.2472,370.4666,-572.8326,-381.5269,53.5520,17.4131,-214.2856,238.9673,-320.2485,94.0199,178.9210
0.7101,-363.0276,51.7014,81.4870,443.6795,104.6116,68.5764,196.7933,77.6357,197.2749,-467.4749,-406.7950,70.4969,-12.9982,-184.8517,256.5205,-246.6970,176.8289,89.5571
-68.7357,-189.4978,158.8933,152.6647,511.0442,159.7066,61.7099,148.9861,61.1688,91.5018,-461.2579,-282.0024,176.3584,1.3718,-143.6715,231.9136,-181.9348,205.6395,105.0839
-198.4487,-17.9418,234.6991,180.2633,532.6030,140.7639,130.6033,56.4476,149.6062,192.4610,-459.1244,-127.4861,263.3827,34.0783,-108.5278,142.6289,-126.6518,147.1045,75.2896
3.4923,101.9155,133.5357,156.3696,410.2589,52.9475,88.7404,-42.8271,127.0210,235.9183,-248.3156,-65.7226,242.6815,17.3170,-90.1553,75.5957,-34.9602,55.6789,-52.9739
261.3284,247.4965,51.8249,131.4816,256.5761,-15.2982,-43.6161,-84.2914,-13.4346,125.9100,-20.1892,-113.8437,191.6008,-16.9942,-70.0151,133.2332,43.7640,-5.0165,-105.7422
256.5049,284.4739,94.3023,129.8008,188.7865,-19.3437,-58.1280,-78.5170,-4.9557,154.0260,-28.4792,-190.5084,160.3639,-14.3005,-45.7943,258.9065,58.1023,-27.9678,-12.4828
121.5800,77.5109,101.9827,145.2215,165.5611,10.3872,72.9697,-46.3180,167.5159,338.1800,-116.4161,-234.5408,104.9809,20.9526,-35.6441,289.9503,40.4759,16.3383,91.4821
13.6390,-225.7711,52.8581,178.9617,165.1691,45.4074,182.5876,40.9640,252.9757,321.3373,-96.9669,-267.7177,66.3288,37.7760,-32.5948,212.2500,23.6693,122.6028,91.4477
-19.5384,-304.8243,60.3066,182.1654,196.3551,65.2512,168.4083,116.6859,186.1386,99.1013,-52.4902,-292.9220,104.6865,1.5540,-15.6428,179.4013,15.4907,182.3651,22.8968
60.1643,-75.3842,86.2425,112.4908,203.4720,62.8844,102.6182,84.9183,119.5830,39.9727,-51.2002,-251.2582,138.2148,-37.2808,11.7016,220.5372,18.8972,162.1761,15.6841
109.2697,171.9734,59.3792,45.6490,178.7374,60.9525,106.7695,46.0529,140.1036,181.2774,-73.0335,-154.7038,99.5093,-19.1831,36.4926,195.9278,16.8150,151.8095,131.7871
-12.6144,208.5397,14.5431,40.5030,167.1587,50.7967,163.7387,117.2504,193.8502,253.3058,-120.6559,-100.6566,62.1972,10.7987,64.0100,99.6863,19.1104,160.7544,249.1569
-133.3400,126.7701,-21.3806,35.2019,156.7788,10.2675,156.8508,191.9993,190.8198,231.8944,-131.7241,-103.5626,80.3068,8.6557,99.5788,64.8366,55.5247,131.5273,229.4799
-86.7365,45.7138,-26.9583,13.5655,156.7214,-10.8277,88.4291,170.6749,123.6448,241.1616,-62.5922,-87.1642,116.8085,19.7674,122.4381,64.3643,75.0431,93.4085,136.6529
25.2522,27.9867,11.4628,29.1890,189.9736,19.1169,64.9712,127.3478,88.9651,204.3721,-22.3634,-42.1648,130.4174,41.1377,113.6089,-13.4103,23.5263,88.6403,95.0512
90.5250,164.1556,3.6961,44.4796,174.8308,37.5331,100.9486,102.4747,134.7079,66.6223,-47.5936,-25.4389,103.7421,10.3758,96.0135,-86.2448,-29.7721,96.9985,81.4697
69.7710,309.8423,-68.1252,1.6557,97.8597,30.5630,128.7432,70.0218,176.4597,14.7432,-35.4326,-39.4634,77.0915,-37.7604,94.4478,-49.5101,-28.1146,103.3249,40.8933
-49.8685,211.9596,-30.2102,-41.6188,107.1635,50.2238,115.6904,72.0996,149.5931,149.0735,-3.5297,-32.2749,120.8577,-28.1602,84.1024,-22.9551,-18.5498,94.0875,-0.5143
-117.5531,45.9311,140.8204,-15.0070,207.1524,68.4210,68.0420,119.3395,96.6177,269.3426,-23.3292,24.6759,185.3172,12.2065,49.2451,-100.0501,-4.4121,71.3959,-37.9068
-26.3195,113.3486,222.6483,71.5788,241.8180,55.6475,24.9715,132.9356,58.0963,186.1915,-34.0536,110.9857,179.4522,17.6281,30.9485,-143.8536,43.9485,105.4187,-76.4116
-8.5519,276.5571,177.3107,164.3410,222.8894,85.3089,33.5668,108.7394,33.2341,-21.1621,-32.6507,175.2610,169.8557,-17.2825,45.4456,-78.3873,65.1432,201.3721,-42.7305
-211.0454,331.6282,200.1553,195.7528,243.7632,164.3342,63.2567,117.4757,32.2943,-148.9545,-109.0819,168.9563,207.1793,-31.5596,52.8942,-39.1474,27.7109,237.0659,71.6007
-325.5312,297.5091,303.3698,167.6087,245.1739,183.9688,37.9296,153.0912,39.9773,-94.0022,-180.2143,89.3479,185.2757,32.3129,44.4412,-83.2889,8.5282,175.2046,112.8654
-139.3646,147.4914,318.5434,170.6725,186.0242,116.5760,-47.9959,154.0173,2.8062,62.5881,-97.7245,5.3809,128.4282,79.1118,40.9119,-97.5615,26.5175,98.3173,3.8964
62.0559,27.9833,237.4240,195.6747,128.3391,25.5092,-124.2653,103.3752,-56.4344,131.7531,59.8872,10.0193,183.7477,-51.7536,28.8522,-49.3301,31.3139,29.3478,-117.4265
39.3566,257.9203,176.8624,124.0178,71.0881,-51.8114,-113.1102,43.6792,-39.4154,62.5789,128.5108,92.8643,251.1943,-248.7423,6.7895,-19.6453,24.1378,-16.8821,-136.0931
-5.2065,568.2872,128.5767,-12.8168,26.7183,-69.8147,-16.1770,44.0179,48.8458,37.1136,103.3382,121.1358,173.0694,-250.4803,6.8257,-13.4793,-9.2919,35.8621,-99.4202
89.5896,415.2612,14.7187,-78.5997,85.8033,6.2665,66.0361,116.2102,102.1135,152.2178,62.9066,27.1550,100.9645,-108.8384,12.5317,17.8749,-113.0906,159.0241,-36.6360
74.1945,28.4518,-112.2660,-105.9533,197.5834,111.4048,113.8398,181.6142,134.8970,229.9793,14.8983,-103.8986,151.3404,-33.3506,-13.2714,48.6732,-220.3600,231.8044,94.8766
-197.3333,-120.3549,-141.0771,-186.2683,214.9018,179.6239,228.8109,189.4422,244.6441,165.2602,-80.1057,-183.4043,140.9950,15.9597,-37.1380,35.9303,-223.0284,235.7541,230.6515
-329.9577,-158.4859,-112.5992,-242.2413,152.2424,231.6791,333.5686,168.0523,335.0684,117.8261,-160.6495,-181.1118,13.9053,89.2501,-25.0363,-2.4185,-136.5224,212.8500,236.2407
-39.4011,-171.1580,-135.6523,-192.9761,80.4415,272.0092,218.3748,135.3438,230.9223,159.7169,-90.2705,-90.9254,-48.8847,47.8999,-13.7796,-26.5127,-33.2500,177.9984,150.7456
187.7329,-5.4830,-136.6329,-115.5576,0.0097,278.6014,13.1070,109.8868,55.7254,152.0713,50.2185,-15.3936,-29.7155,-59.8394,-19.6237,15.1626,37.6399,176.7314,134.7087
-123.4482,58.7819,12.2232,-79.7476,-25.2749,279.6887,39.6008,145.2401,67.9995,74.2437,-7.6438,-81.7063,-22.1841,-22.9585,-6.6548,148.0169,30.5149,220.4749,184.7536
-478.6243,-139.1911,171.1966,-61.6796,30.6509,275.6222,210.5425,212.6429,201.5390,55.8050,-213.1175,-161.9582,9.7993,61.4929,22.3285,258.1280,-27.1351,225.0281,165.9959
-210.9761,-92.3070,107.1889,-49.6259,8.9057,212.4767,216.4439,207.2723,215.6234,99.8511,-204.7558,-40.7595,28.8645,-23.1924,32.0540,207.3219,-39.0133,172.5056,94.8228
304.7895,257.4099,-85.0062,-29.7296,-141.9123,128.2003,104.1095,146.8685,134.4083,99.4421,25.1399,143.3141,-66.9314,-135.7551,26.7501,94.1613,-3.4461,154.1282,112.7798
255.5295,233.4383,-111.2658,65.9124,-223.7479,129.4205,102.2741,143.5950,137.6136,41.0430,97.9102,97.8675,-123.5025,-48.5470,24.6605,113.7009,5.3702,195.7415,209.9130
-286.6777,-208.0240,63.8762,235.8954,-162.8288,195.9010,191.3902,176.5700,221.8848,21.6553,-66.0117,-98.8690,13.8116,114.2595,15.9727,214.0620,-2.6537,225.6900,228.2326
-529.2163,-399.9043,206.9539,334.8110,-148.3655,193.8676,204.8556,126.8292,239.9061,108.4358,-149.9896,-139.3863,130.9859,112.5741,-8.7507,230.8747,26.1000,186.6497,118.5601
-146.2119,-148.9767,183.1769,256.8570,-289.4389,77.7521,80.4637,2.4998,122.8868,202.1241,3.4068,35.8668,48.6538,-31.2877,-37.5751,200.5078,77.8848,99.0591,3.3003
321.4515,209.2009,106.1009,111.1210,-439.0259,-39.8912,-73.0049,-63.0969,-21.8052,152.1482,198.2398,229.7357,-56.5977,-117.2984,-56.9884,213.0608,101.4042,59.7415,6.8668
273.1581,376.2024,132.9896,81.4554,-426.4849,-28.8518,-66.1409,-5.2972,-20.7072,52.8005,194.1044,258.7149,-52.3084,-48.2956,-70.6654,213.6755,68.6398,117.7324,125.9997
-107.7979,203.6526,234.9548,166.6147,-305.6615,83.6929,88.5374,99.7590,100.3456,109.7196,8.7800,118.3647,-27.6151,77.6414,-92.3634,196.6953,16.6653,171.0481,240.7618
-222.6488,-119.6432,257.8445,209.4278,-259.5789,143.6941,153.3198,145.9888,142.7408,229.3234,-113.1928,4.4882,-20.2090,120.7404,-116.2535,258.1369,29.0352,135.3212,243.6219
-48.6867,-198.8033,174.9145,145.1086,-316.9506,97.8612,93.5278,117.2358,108.5940,207.2474,-67.2023,71.2317,-14.6702,85.0436,-119.1065,329.7671,94.9009,79.9186,173.7333
-6.5036,-60.7136,106.2304,51.3092,-374.6254,50.2092,104.3544,78.5708,159.5809,140.1383,-21.3680,184.9139,-32.3655,53.4841,-108.1221,251.8459,102.9886,57.2972,145.9025
-59.6601,12.2956,89.0591,-12.6260,-435.6488,55.2312,153.9652,77.9889,210.1628,165.3173,-28.1130,161.6165,-16.1809,16.2688,-115.9525,107.8740,51.1977,35.2516,158.8520
94.1327,53.3518,57.9966,-46.1976,-527.1265,59.7938,68.1559,94.2192,82.9995,163.1121,75.3711,70.0970,77.1079,-52.6185,-138.2013,88.0748,49.3286,48.9846,127.5263
260.6466,101.9613,40.3269,-22.1975,-529.5604,69.1323,-58.0405,82.9551,-80.3063,68.6488,232.1712,23.7675,134.1543,-59.0382,-141.0356,139.6813,103.3848,149.0473,69.4210
118.1873,-16.7523,118.2067,89.1854,-389.5092,143.3199,-59.3684,49.3849,-71.0760,5.6245,196.3080,-24.7044,97.0088,59.2080,-121.2480,123.6974,131.3116,254.5921,72.6676
-116.9737,-225.8551,229.7454,221.9576,-272.5882,239.5718,-10.3057,43.7369,16.1131,6.6361,16.4549,-91.1863,69.5525,169.8165,-98.5754,110.2699,116.3015,268.5466,130.6929
-118.7316,-286.1306,239.6870,254.5132,-294.6971,252.2715,-4.5079,78.0663,26.7930,31.4537,-66.4160,-104.7487,97.9502,129.5817,-77.3703,193.3127,77.8915,212.3070,167.1395
14.2170,-212.5350,154.9422,170.2295,-357.8549,177.5917,-3.5133,105.6661,-6.5572,95.5845,-32.7854,-78.4342,129.1990,10.5633,-55.3714,253.2067,29.4577,162.3719,157.9754
70.6358,-83.4224,84.6254,84.8197,-347.9577,113.6917,3.5066,110.8676,-24.0791,119.9659,8.0570,-60.1027,140.1673,-21.2868,-32.2036,162.3702,9.1470,180.9359,135.0694
32.4127,19.2422,55.1854,68.8902,-284.6317,123.5963,10.7131,131.1884,-16.5112,12.8380,14.8331,-39.8640,120.2152,42.8574,6.0684,8.9246,14.5394,261.7991,138.0458
-57.0968,-112.4500,15.4334,62.6523,-241.1740,150.2270,59.6010,163.0300,32.7473,-72.3673,-44.7865,-45.9880,65.6837,73.2586,73.9672,-56.1075,-7.3135,290.2143,180.0180
-131.4982,-358.6253,-34.3865,30.4748,-232.5042,93.3017,116.4538,153.8593,77.0745,20.5869,-140.8406,-108.2248,27.7124,19.2086,154.8042,-22.6820,-26.8515,196.8008,212.9990
-105.9629,-278.9398,-41.9182,36.6971,-223.0620,-21.9165,85.7020,98.9358,26.5371,142.7211,-153.6211,-133.6259,29.4094,-34.7918,208.3293,27.7861,24.4483,94.1780,177.2502
-24.4042,38.7451,1.3878,102.6700,-205.0948,-58.6517,-20.0957,44.1976,-85.2965,134.3945,-73.9596,-45.0377,16.2128,-25.0357,215.7483,49.1943,83.3741,86.1974,93.6952
14.8884,97.7798,53.8671,166.9490,-190.0406,11.2783,-97.9421,10.8195,-138.9581,96.8343,2.3403,71.9240,-32.8825,18.7393,200.5701,32.6090,57.4889,102.5040,24.1297
32.9265,-79.1691,92.8967,206.3623,-158.4671,76.3479,-98.9744,-1.9184,-117.8426,115.5965,41.3585,108.9751,-55.5419,69.2741,189.9498,-27.4314,19.3992,76.9587,-17.3820
42.3379,-129.5550,121.0646,230.1353,-118.8354,91.0545,-63.4195,22.0823,-95.3606,78.5701,11.0339,69.0757,-10.4631,126.8500,177.1877,-88.7921,74.0870,63.5894,-37.9121
-12.0366,-38.8412,120.2808,202.0172,-129.7583,96.5958,-46.3671,80.4718,-87.6562,-63.5211,-103.6449,11.7975,33.9241,148.2193,152.5050,-69.7095,151.5863,71.3919,-41.8152
-47.2234,42.9197,62.4086,103.0959,-183.2041,73.5278,-40.8699,110.2345,-57.3560,-159.2863,-154.8079,-6.9403,-12.7302,88.1250,134.0275,23.3643,128.4820,21.8138,-66.7747
49.9150,102.6032,-32.5073,-9.0445,-199.9460,-8.1506,-12.3197,52.3071,-17.5408,-94.1917,-48.6264,43.8051,-90.5481,-15.9203,128.7605,89.4985,35.9009,-80.3498,-128.3218
127.7212,124.6350,-90.7039,-71.2863,-161.2342,-82.4137,20.2624,-46.9155,-6.1081,45.2194,34.1795,129.9993,-66.2394,-94.9291,113.3570,90.5262,-12.7192,-134.2641,-156.0940
11.7431,78.0076,-60.9579,-63.0184,-107.8857,-93.7865,36.8059,-74.5390,2.9691,133.6160,-43.5578,152.6936,10.6764,-110.3543,82.5618,65.7696,2.3673,-102.2134,-98.6725
-138.7150,-36.4053,16.2432,6.7575,-61.7382,-75.4258,60.7767,-3.8411,32.9062,164.6659,-149.5111,47.5341,-4.7551,-41.4639,57.8291,33.5798,29.7182,-41.4430,-17.3265
-108.4649,-186.0129,50.7712,83.1938,-38.1916,-53.5720,61.3612,75.6712,24.7642,154.7481,-160.2325,-87.1571,-68.5058,66.5020,41.3741,23.0495,59.1272,-12.9255,9.0364
28.2986,-182.9664,12.6834,81.3030,-50.3231,-33.6861,-8.8435,91.7613,-37.3555,66.6156,-111.5911,-65.2646,-71.2943,94.0649,18.5270,63.5013,105.7871,-40.0655,-14.0529
108.5545,86.3773,-51.0859,-17.5496,-83.6510,-50.4530,-69.5092,67.8872,-64.2412,-67.7082,-67.1517,94.7187,-63.7826,20.4100,-6.4587,87.0044,140.6756,-96.7424,-31.1478
114.9456,297.8535,-106.4017,-122.3618,-121.6959,-90.7528,-37.2080,60.9934,-33.7733,-123.9244,-80.1673,153.0986,-82.8795,-28.1618,-17.7057,59.2772,117.6553,-111.6537,-13.2523
97.9374,162.9780,-161.7713,-138.1655,-151.9416,-82.8376,20.3694,80.0883,-11.8126,-55.8329,-141.8623,40.4766,-60.2449,0.6535,-12.8038,82.7518,51.6291,-65.7641,12.6552
79.1885,-42.4424,-202.0245,-89.7244,-158.9799,-41.1783,54.2657,85.1814,24.6614,49.8982,-142.9990,-46.0003,-33.5397,23.1185,-4.8438,133.8311,20.4857,-44.3476,8.0026
18.2906,-30.6765,-177.8043,-68.1790,-156.2761,-46.3882,123.7279,63.8411,126.5311,92.9108,-90.8177,-19.7396,-78.6888,15.2054,-10.8704,47.8119,58.3445,-90.6453,-13.5234
-133.7523,29.8994,-85.4305,-74.7555,-149.0376,-78.9916,205.0533,61.2482,207.1022,62.8479,-148.8504,1.8818,-95.7567,32.1651,-36.1778,-73.4022,82.5325,-112.6399,-21.7474
-265.2075,-11.5065,10.4912,-34.4055,-93.1344,-60.9514,192.5408,89.2781,168.4747,37.1158,-297.7073,-19.0180,-2.2650,71.6155,-71.3983,11.5051,20.5193,-45.9350,-30.0069
-198.5290,-67.0536,50.4893,52.5613,-0.4942,1.7189,96.8798,101.8283,53.5776,35.0437,-331.5327,-20.3093,79.0863,118.3819,-104.8755,153.3517,-46.3889,32.9682,-41.8991
-13.6101,-105.7512,20.3121,106.7648,25.5464,51.3132,18.6229,105.2840,-39.2883,-55.2208,-237.2652,-5.1592,45.0440,190.9124,-123.5697,71.7604,-22.7313,37.9854,-31.1304
56.6644,-93.1054,-62.7097,87.3955,-51.2543,48.1776,3.8426,137.2680,-39.2331,-225.2968,-176.9374,9.2484,-42.7460,226.8993,-119.1565,-69.0460,21.0213,-21.9022,-21.8777
-17.8748,52.9241,-130.3630,19.6940,-144.7724,-15.7790,33.4413,150.9231,47.9942,-239.7562,-186.9642,35.1264,-89.6661,147.5938,-107.5178,0.3279,-12.3272,-82.7764,-43.6062
-129.2616,165.1917,-94.2874,-33.4604,-162.6316,-67.3253,49.7246,113.0020,77.4091,-43.2118,-202.9448,31.6725,-48.7608,47.6523,-106.8278,126.2989,-89.2322,-75.9958,-36.7459
-217.7265,17.1425,13.3489,-5.7952,-81.7347,-17.1517,2.8760,98.7301,-52.9250,92.0387,-209.9180,-30.3466,47.0289,58.2224,-104.2245,78.9551,-159.2745,2.1457,25.3231
-227.1039,-227.5579,53.4327,90.1965,34.7344,72.1381,-66.1572,125.1679,-183.9319,38.5567,-221.4924,-88.7887,89.1607,121.6555,-89.2247,-33.9053,-218.4832,66.4141,49.5656
-177.1326,-292.8141,18.2297,164.3040,94.7794,85.5097,-79.1987,119.6235,-142.0749,-37.4500,-253.3216,-110.0915,58.5647,140.3378,-78.3370,-41.5525,-231.8236,82.3295,6.4722
-194.7358,-229.6938,45.3899,170.3557,102.4550,70.8152,-50.4199,113.5301,-43.0744,-50.5208,-295.4789,-134.9483,55.0325,144.5810,-69.5729,17.1701,-194.9185,111.6785,-7.8190
-253.3495,-192.1772,136.2808,124.2875,110.1555,101.1386,-42.6329,172.1428,-52.5652,-43.0884,-285.8138,-158.3592,82.7995,141.7193,-42.5585,41.2000,-180.2909,146.1379,38.1466
-227.5992,-184.0012,152.0182,38.5383,89.0031,99.2758,-42.3027,220.9319,-93.1447,3.9235,-232.2054,-137.2229,60.7797,73.5712,-11.3288,4.6498,-203.6218,123.8611,94.1437
-205.2703,-199.5432,97.5873,-40.2037,40.0780,39.0251,5.8231,209.3965,-46.7004,66.9455,-230.5336,-96.5120,21.8358,6.1332,2.0030,-58.3181,-219.6236,107.5108,152.5911
-253.9386,-224.3667,80.9493,-33.0622,61.8454,45.8525,72.0056,207.9917,14.0169,52.6901,-252.3138,-97.5627,36.7545,64.2845,13.0405,-87.2176,-225.1875,167.5784,186.5490
-185.2978,-148.9405,62.9350,44.7247,137.8856,138.9211,66.9173,199.8088,-4.0325,-15.7551,-185.2855,-140.8779,72.5514,180.9683,31.8284,-60.4422,-198.2400,204.1920,134.5457
-4.9080,11.3468,-33.7220,90.6825,142.9409,187.8170,20.6831,114.6382,-23.3751,-51.2851,-93.6415,-165.7695,88.3005,183.3605,37.6423,-13.5154,-111.9155,140.4372,66.2076
1.4490,48.9516,-119.8131,61.5462,100.2652,163.7688,73.7318,39.0185,56.0770,-29.2233,-101.7999,-123.9091,70.2309,70.9473,24.1473,23.7645,-58.7700,82.6507,100.1627
-121.0863,-61.4018,-99.1311,2.0251,102.1661,148.5504,195.9886,53.9290,149.6931,43.7799,-144.8447,-23.8317,-20.3509,-3.0869,2.7896,24.7164,-83.8528,115.4589,156.4514
-77.6832,-79.3447,-24.2904,-27.7623,106.6243,162.2948,176.9240,58.8200,109.8223,67.1751,-141.9860,105.6818,-123.9175,41.9953,-22.3805,-45.4160,-45.5047,174.0993,104.0402
11.0344,60.5740,57.0232,-0.3699,93.8027,175.7292,24.6904,-4.4474,-4.9608,-74.5296,-189.0715,250.7577,-83.9703,136.6934,-40.2386,-141.5560,78.3747,182.6963,40.6273
-170.9307,151.4597,168.2232,56.7986,154.7293,174.2029,4.1564,-47.4118,0.0543,-200.2583,-355.4772,374.5725,67.1922,169.9002,-41.1910,-149.7675,101.0671,138.2896,103.5427
-483.6832,125.2787,256.2334,108.0064,268.3813,149.3294,166.9278,-40.4070,134.5207,-60.6489,-521.4988,422.0027,111.6993,136.2670,-40.4217,-60.0117,17.8125,85.4890,188.6817
-561.0782,97.8661,222.3118,165.5590,302.9094,131.7873,270.0414,-28.4802,205.5644,135.1781,-533.8806,392.3878,15.4659,153.0107,-40.4541,3.0105,10.6957,73.9657,146.4113
-382.8698,51.4470,110.2540,217.6323,244.4737,162.3071,198.3644,-3.8091,115.0466,58.9902,-392.2451,325.0320,-34.0756,272.6860,-20.7301,-25.4395,70.9875,83.0089,50.2513
-197.8550,-58.4205,58.2666,194.2285,171.8212,190.8328,75.2902,30.5843,-23.3524,-125.9048,-254.3130,248.8785,28.1385,367.4689,2.2652,-54.6456,77.7234,54.7502,44.2315
-144.3766,-75.8310,90.5177,103.6023,116.0698,156.9848,8.7809,24.4525,-62.2973,-133.7583,-251.0205,216.2790,64.8799,333.2159,-9.3352,-5.7565,59.2120,29.8811,114.8100
-169.8852,55.8208,128.8436,50.3250,90.3811,119.5076,3.1568,-3.8188,-2.6948,-78.5305,-314.9995,272.7151,-13.0045,263.2730,-37.1784,45.9149,56.0890,82.0197,175.7398
-195.0881,115.0004,152.8029,62.3356,109.7364,137.0017,21.8277,13.7619,31.8606,-129.8940,-316.6694,352.2070,-132.9561,258.2896,-38.2202,9.6706,23.8570,148.5003,220.7030
-220.3926,24.7540,177.9736,66.7887,140.5233,152.3172,29.8272,68.0830,-3.4549,-169.7075,-274.9279,344.9491,-182.4486,264.1155,-23.7796,-57.3693,-26.6715,124.5686,274.1583
-234.6916,-1.7849,153.4311,25.1797,137.3779,122.6803,46.4948,94.7615,-0.7186,-78.2746,-246.8416,260.3618,-131.5672,234.6322,-29.2279,-70.9791,-70.5507,39.0273,304.0393
-164.2965,106.6645,55.0996,-39.1074,103.6318,84.7700,99.6127,77.9770,83.4337,57.8644,-200.9942,197.4801,-43.5549,206.9575,-51.6886,-57.5467,-127.1423,-19.4229,273.8093
-44.3483,163.6427,-16.3055,-87.6051,72.0205,39.1055,131.7759,57.7457,117.9788,116.1264,-143.0177,195.0135,7.4697,160.5755,-68.2550,-40.6777,-128.0953,-33.5777,208.1222
-17.0715,78.5805,12.1177,-84.0484,58.6487,-36.3948,86.6979,49.7064,28.2707,80.6153,-106.9362,204.5917,18.4108,77.4858,-73.0690,7.3379,1.5995,-31.8789,137.7996
-38.3619,-4.4546,56.4163,-36.7282,40.0324,-81.9881,-4.0232,5.9105,-90.1751,6.5847,-23.5361,193.7773,22.4938,64.3907,-74.2806,34.9962,150.8122,-34.5536,46.6191
75.8206,86.4495,14.2901,-4.7118,-14.3437,-45.7581,-105.1754,-96.0824,-154.9019,-85.4700,123.7664,203.3245,12.4965,144.5696,-77.4699,-19.9510,192.8440,-46.3618,-59.2223
254.3304,307.9648,-92.0504,-12.1527,-76.7922,-1.9812,-183.2678,-185.7555,-168.9817,-197.6841,184.1797,249.0711,-17.8610,153.2088,-75.4819,-73.1764,177.6931,-50.3734,-113.1911
240.5302,397.9245,-164.4131,-19.1242,-79.4396,-28.5031,-173.7901,-214.4132,-152.2977,-232.9143,113.3189,252.6667,-20.3281,58.4079,-57.0078,-54.2966,180.5268,-28.7846,-101.5818
52.2573,240.7820,-141.2146,5.4317,-13.1896,-69.8214,-120.6143,-232.1730,-161.8347,-128.1500,71.9688,195.4119,21.3289,37.5016,-29.2156,-56.7698,202.8666,0.8568,-109.8717
-42.1743,94.1847,-74.3123,41.6935,41.7313,-54.4869,-158.0844,-268.2353,-235.7102,-55.3708,124.5124,190.4893,45.4679,103.0830,-10.9511,-118.9300,236.7309,-0.7949,-173.2800
42.0211,182.2880,-78.1145,49.4624,17.2093,-36.2410,-246.4005,-289.0452,-273.6572,-115.1827,163.4635,252.9216,27.4462,68.2935,-1.8310,-126.0022,223.4860,-43.2750,-214.4851
148.3957,322.9427,-154.4457,22.2666,-33.2033,-83.1055,-220.6662,-293.4876,-183.5091,-94.3574,148.3817,241.4720,12.2557,-70.8834,13.6432,-71.1195,95.9928,-78.0229,-200.1613
178.8923,252.7142,-200.6864,7.1436,-9.1792,-128.8152,-102.1313,-285.5983,-70.9095,49.8735,141.5117,131.6554,14.0780,-114.4242,35.7809,-95.6965,-52.3737,-47.5626,-200.1235
167.2556,26.6808,-215.5968,42.1974,60.3949,-82.7941,-47.0371,-236.5804,-73.7126,4.2638,157.0390,42.7569,23.6039,-11.2877,53.5228,-199.6014,-79.7042,24.6019,-245.1140
133.2653,-111.5808,-263.0049,92.5730,81.1483,-3.6495,-84.2535,-189.6804,-157.0210,-244.5269,154.0180,8.7832,55.0012,67.6929,70.8551,-221.9167,-25.4012,55.9167,-284.3088
84.8538,-32.0668,-286.6581,95.0881,89.6516,-4.2418,-136.2737,-217.7599,-215.2894,-322.2097,126.3023,10.9951,76.6375,11.9026,98.2692,-137.1761,-1.5613,28.4514,-286.9609
79.6566,187.2817,-235.0019,38.3928,148.2036,-54.0824,-152.0878,-255.5688,-212.6796,-202.4668,115.4775,75.4503,39.1416,-63.5916,123.4236,-98.9014,-18.4400,-2.2169,-258.8994
122.8003,358.5692,-206.2784,-31.7103,176.7536,-42.9270,-123.6629,-213.7741,-168.8719,-186.0440,139.9094,136.4176,4.1200,-19.6109,124.6756,-160.7980,-57.0630,-7.2191,-209.3609
120.7407,331.9394,-236.6835,-60.1816,138.1004,23.6248,-101.0176,-159.5449,-131.2250,-235.6738,152.5895,64.9233,43.8149,61.8168,111.1222,-184.2316,-108.3009,7.8063,-177.0773
53.2457,54.7349,-205.6446,-34.4724,139.4358,59.0997,-145.0986,-152.2590,-142.1112,-136.2522,126.1044,-96.2855,84.9336,43.3288,109.0011,-88.7417,-123.2256,41.1149,-198.1053
38.2834,-331.1496,-91.6396,-4.0560,184.4356,50.1703,-207.1483,-117.2142,-178.3069,-3.2178,117.3102,-185.4123,57.6086,4.3337,114.3340,1.0053,-97.2562,55.3665,-237.1189
134.2795,-416.6178,-24.4687,-38.0095,166.0816,17.1799,-199.0758,-56.2315,-180.3215,-5.3903,155.6693,-148.3762,32.7214,34.0233,106.4663,-33.0884,-96.6823,-6.3441,-246.9286
222.6937,4.0257,-45.9550,-152.3823,113.4859,-65.1844,-151.9309,-82.3757,-140.6596,-44.6592,182.8485,-52.8465,59.2235,1.5068,92.5834,-112.9327,-105.6906,-105.2259,-239.4402
172.4561,413.2513,-74.7665,-265.1513,98.4125,-159.5768,-133.4068,-158.2473,-104.8044,-60.9654,176.0919,-3.6472,77.7253,-125.3279,89.5280,-108.9869,-41.2630,-130.4917,-229.6786
48.6946,220.5169,-72.9900,-253.1569,64.5213,-150.3406,-119.8065,-137.3742,-103.5697,-118.7134,176.5721,-56.3797,56.9732,-136.2763,90.2207,-31.6517,59.1062,-74.0198,-212.7585
51.3226,-254.9762,-73.7876,-120.9570,3.3472,-63.8146,-89.7599,-62.0199,-118.6528,-132.5596,187.2592,-117.6050,26.9487,-17.2558,86.1849,20.3012,85.9976,-42.3486,-213.4432
203.1817,-301.0534,-84.6290,-35.8442,13.4517,-67.3126,-88.6807,-86.7687,-115.6295,-33.1508,183.2538,-67.1061,2.6930,0.1086,81.9315,0.3346,56.3229,-76.0612,-247.0735
272.9290,53.1076,-58.7976,-88.9634,86.5642,-164.3531,-120.7375,-176.9543,-101.6758,2.6136,162.5329,13.1254,-14.2062,-83.2549,69.9507,-48.8432,60.5762,-107.2518,-266.9048
161.1525,256.0703,15.9749,-170.8228,124.0815,-186.0914,-135.6679,-179.4670,-114.7239,-86.6762,126.9034,-30.3579,-21.5162,-75.2857,39.3310,-64.8068,89.0002,-106.0422,-234.3272
78.4577,156.6911,56.4855,-184.6871,108.2676,-109.5591,-139.7333,-94.2695,-157.6533,-95.0720,102.4575,-133.6882,-13.7957,-3.8258,4.1305,-57.7320,87.7981,-115.8391,-180.9551
135.1203,35.7707,13.8204,-161.4451,74.0812,-66.5521,-183.1844,-45.6124,-206.2961,-23.1215,121.7148,-121.8857,34.5560,0.3868,-17.9659,-76.9035,96.9226,-144.7538,-166.9872
163.1541,33.1333,-13.5070,-109.7803,53.4974,-78.5419,-257.4118,-77.6740,-260.9745,-92.9738,140.0086,-15.8134,108.4791,-19.0592,-30.5584,-95.4912,161.3481,-161.9074,-220.6054
120.7133,3.2331,46.6245,-7.9293,75.4548,-71.0986,-302.9525,-126.5199,-311.6032,-228.5008,122.2947,3.6903,124.8384,1.0828,-38.0736,-70.3171,191.6545,-172.7024,-301.5133
177.9460,-105.3193,95.6055,71.1833,105.4377,-54.7316,-291.0576,-133.5928,-305.0735,-195.3846,135.4499,-101.1318,65.9727,1.2197,-36.2913,-66.0736,97.7847,-188.4187,-330.8655
314.0239,-65.1934,55.8439,51.1266,91.7867,-74.0420,-246.0081,-118.0453,-235.2900,-86.9045,171.6855,-167.3078,12.5658,-53.6054,-29.2248,-129.6766,-13.2691,-181.1358,-292.9344
313.6815,174.7115,9.4086,-7.4454,76.5717,-90.5617,-214.7111,-138.2579,-192.9481,-68.5893,118.4034,-115.0669,-1.8994,-101.0928,-23.8811,-162.3388,13.1176,-133.8412,-241.8102
154.4211,250.2684,26.7892,-5.5647,99.0730,-46.9303,-228.1291,-188.4818,-238.4621,-51.6618,34.2757,-66.6314,4.6402,-82.5301,-18.5818,-104.4115,100.0686,-70.3434,-202.8630
39.2885,33.5817,51.4122,45.8586,103.5992,28.3102,-267.5175,-202.7529,-300.5220,-10.7285,90.5235,-99.7183,42.8710,-27.3166,-14.9980,-59.4166,55.7314,-29.0873,-181.3767
112.3423,-125.3025,10.1091,58.2589,59.5879,44.3138,-276.7887,-178.3466,-279.4125,-49.1276,228.2581,-157.0553,71.6265,-5.9618,-21.8235,-97.3250,-92.6802,-39.7874,-214.2300
295.6774,-154.0204,-77.4362,7.8140,7.0503,-23.2795,-229.0856,-167.2818,-183.9525,-87.3175,268.0764,-232.5027,9.2671,6.1798,-38.8834,-147.2047,-144.7094,-82.2608,-289.4835
354.4576,-271.4994,-111.1742,-19.4164,-21.6089,-81.1718,-161.7380,-161.9235,-101.1300,-63.5653,215.1467,-320.0505,-74.3051,75.4844,-54.1573,-149.3811,-50.9739,-103.8227,-320.2113
175.7158,-262.2239,-43.7168,14.2655,-5.0127,-77.1876,-125.0906,-145.6358,-79.4242,-106.4054,144.4766,-297.6076,-36.7056,116.9344,-57.3505,-135.8779,50.6222,-127.3506,-273.7515
-36.4493,48.9127,12.6135,2.9995,37.7550,-96.6914,-117.0242,-154.1576,-85.2185,-125.5928,62.8070,-184.9617,47.9898,36.0778,-52.3487,-146.4033,60.7071,-206.6473,-199.3495
-28.6863,151.6376,-56.6519,-94.5864,22.6270,-165.4555,-99.4117,-152.8600,-63.3283,68.8611,36.8872,-193.9230,-6.2850,-42.0526,-55.8399,-161.3056,-7.8493,-264.4028,-135.1954
144.7711,-148.0258,-163.8876,-146.3456,-55.0079,-167.9681,-75.3772,-67.7451,-33.3365,212.2427,120.7047,-296.5467,-140.6281,-29.5690,-75.1366,-140.3385,-99.2250,-201.8068,-95.8892
239.2076,-203.1192,-165.7712,-104.6234,-91.1134,-96.9705,-91.8331,12.6578,-65.3917,34.6835,182.0709,-247.5494,-136.4283,-68.6554,-97.3384,-125.6730,-139.1917,-108.9136,-76.7036
146.5636,145.4314,-92.8898,-90.5301,-71.8156,-90.4118,-132.8112,-25.9476,-116.0921,-138.2087,103.7513,-93.6105,-11.4317,-181.3567,-115.5365,-206.3526,-89.6346,-109.1984,-37.4282
-19.8943,226.9834,-58.7588,-130.7421,-75.3347,-152.2596,-103.8335,-75.2072,-50.2202,-42.6622,-11.0452,-81.6469,15.1636,-188.3752,-138.5564,-317.5141,-17.3832,-145.5689,16.7269
-62.8947,-92.5852,-88.8555,-134.6294,-100.8041,-160.5212,4.4982,-33.9632,89.4149,49.4378,-34.5005,-178.2766,-78.3193,-100.1677,-161.9025,-290.7344,-8.0484,-138.3998,13.7748
65.1332,-251.1468,-132.6300,-108.6166,-108.7113,-119.2385,67.8260,-36.8449,106.4871,7.7219,7.3150,-187.6718,-106.7184,-79.7889,-172.9142,-164.3038,-50.0587,-130.7102,-41.8190
172.6693,-100.4403,-131.2351,-109.9509,-104.2763,-117.4017,29.5114,-146.1211,13.3256,26.5497,37.0603,-113.2721,-36.3264,-112.0711,-186.2061,-126.5469,-86.3237,-142.8661,-63.4961
117.5315,49.6659,-83.7603,-111.3733,-74.9568,-147.9218,-23.2187,-185.3904,-7.1293,83.5296,31.6804,-71.9358,5.7815,-111.1028,-218.4670,-176.1489,-87.2374,-127.8979,-40.5994
44.6570,65.3808,-69.5096,-77.6506,-25.4817,-149.3808,-46.5789,-88.1212,23.0305,71.3164,22.2861,-94.3284,1.5026,-86.8474,-244.8572,-194.9079,-36.6997,-102.9720,-18.5306
107.1325,-26.7824,-117.8247,-22.0582,-36.7282,-103.0482,-82.0943,-8.2216,-19.2299,81.1733,45.5446,-142.7451,-8.3673,-34.9686,-241.6601,-195.1084,39.6144,-117.4678,9.3101
188.1217,-146.7619,-140.4918,31.3550,-123.6334,-38.7288,-106.4156,-25.7884,-53.4309,70.3474,70.5070,-164.6633,-62.7213,19.6449,-233.3781,-195.7169,64.0560,-140.9263,33.2077
156.0185,-107.0318,-93.3953,46.1981,-168.1092,-12.7840,-81.0854,-85.6239,-16.2851,-77.9879,47.1102,-136.5627,-120.8001,-19.1704,-249.0732,-135.4917,25.9535,-116.5999,-2.2188
118.1662,101.0198,-50.3543,20.1871,-103.1584,-34.8393,-83.5130,-154.0816,-48.5824,-178.4411,19.8967,-91.6224,-74.1036,-92.8804,-274.5011,-63.7429,8.2339,-54.6495,-70.8725
169.3759,193.2127,-55.5060,17.9284,-8.8203,-41.6558,-155.0922,-207.9504,-152.5094,-104.4110,38.1775,-60.3023,-10.7787,-49.2808,-282.3479,-74.5867,37.3172,-9.0405,-81.2465
158.8249,35.8403,-61.6981,47.8362,23.2078,-18.2777,-173.6690,-205.8552,-133.8644,-57.3059,33.0088,-41.8128,-64.5874,29.8817,-271.2596,-92.0396,49.8755,-7.6492,-33.1641
-26.2903,-149.8404,-22.4435,31.3179,8.5898,-23.9554,-84.8445,-158.8172,-22.3632,-75.0303,-42.1600,-40.1021,-111.4894,-18.2478,-255.5781,-32.4114,13.5478,-28.3204,-8.9128
-172.7953,-160.8943,44.4724,-39.4243,21.5499,-51.4579,-34.3270,-103.0031,-23.4615,0.5774,-91.2887,-58.3295,-33.2572,-99.9318,-251.6125,30.1228,-45.5202,-41.5807,-34.7186
-44.8949,-73.7596,53.1535,-90.1094,55.9213,-40.6431,-99.4503,-50.3731,-100.6008,70.4915,-38.0427,-92.2174,14.4438,-64.3624,-268.3613,43.8631,-89.4008,-58.4347,-52.9305
194.0105,-34.0134,-60.6117,-98.7914,18.3045,-16.0763,-140.1995,-25.0643,-76.9538,5.1105,43.6397,-129.7025,-69.9699,9.4610,-284.8604,46.5483,-85.8500,-96.8135,-11.6112
196.9174,-39.6293,-198.6484,-90.8422,-82.7378,-27.7774,-45.1131,-21.1694,36.8542,-40.4501,40.8422,-133.0668,-138.6108,-0.2968,-272.9932,47.7899,-52.0411,-124.0154,70.5705
-59.6613,-53.9974,-188.2028,-76.8609,-104.2223,-36.3500,93.6670,22.5255,131.4236,12.1333,-58.2836,-94.9580,-106.0570,-47.0907,-244.6655,45.9566,-46.8537,-96.9520,133.0835
-287.1871,-83.8288,-39.7979,-67.7469,-14.7982,0.1991,140.2342,81.0880,167.9312,48.1544,-154.2122,-64.9965,-62.0067,-51.2350,-227.2963,28.9875,-62.4318,-40.2228,142.9783
-275.5006,-62.4826,66.8823,-67.4146,48.8159,41.4067,97.5666,59.2966,143.2730,78.8437,-142.2297,-50.8399,-53.4741,-34.0576,-228.0964,-31.8547,-41.7928,-19.2496,115.3964
-64.6966,25.5467,33.5340,-68.9268,11.6736,43.4895,54.7502,-1.0280,89.7825,126.4368,-37.9274,-35.2665,-57.0940,-31.1011,-239.4729,-39.9614,-14.7293,-51.6306,84.0963
134.2581,-1.1752,-78.7063,-85.2363,-69.7392,18.2119,44.1827,5.3312,70.5618,62.3831,50.4112,-62.0420,-72.9309,-21.1661,-226.2177,102.9784,-45.5032,-97.5902,74.3048
124.1552,-153.9797,-153.1445,-109.8254,-115.3467,-2.0507,48.2184,41.9010,96.8195,-68.6192,62.2674,-120.6971,-75.1665,1.5678,-174.8431,213.6223,-86.3246,-116.1258,95.1579
-48.6309,-137.8234,-128.6560,-108.1436,-80.8471,-0.9797,81.9339,56.3324,148.8418,-56.9835,12.7862,-116.7691,-23.0153,-0.7882,-171.4568,122.2736,-57.9436,-92.3272,146.5947
-139.1358,64.0046,-70.4722,-101.5490,-24.4103,7.5628,147.5566,102.1669,217.5818,36.6197,-55.7595,-63.3045,30.3573,-18.6034,-262.5377,27.6170,0.4464,-40.3231,214.0512
-63.3448,112.1191,-67.1017,-121.0926,-51.7180,6.9930,187.4700,167.9141,261.1721,28.4339,-79.0865,-34.9485,14.3680,3.8563,-321.6803,85.7192,2.8433,5.7870,250.9075
9.2505,-15.8762,-62.1338,-116.7588,-104.9661,5.1261,185.6278,160.6711,251.3047,21.6719,-36.4106,-3.6926,-11.6336,35.9124,-264.6537,113.5895,-41.7946,29.9966,215.2428
-17.3203,-26.3041,14.3782,-65.4491,-59.8533,-8.4446,189.3242,91.2233,231.3035,118.1912,1.2414,47.1534,32.5953,-8.2050,-193.2368,23.0657,-41.1351,38.1793,131.4665
-12.7695,144.6992,59.3512,-13.0861,0.6182,-45.7027,189.6671,38.8629,215.3445,100.0820,22.8767,102.5316,89.3640,-73.2343,-186.8678,-33.2216,82.7344,26.9365,53.4705
146.3608,400.2724,-1.0940,57.5403,-44.1475,-41.1603,120.1244,13.3461,131.6481,-142.6588,130.9399,239.4972,86.0113,-8.0255,-213.7225,-29.3317,320.1914,12.4679,-22.1444
400.1048,676.7208,-50.2125,161.3393,-121.5818,41.6660,-54.6322,-31.1876,-74.7362,-349.3394,303.4606,422.0995,62.8828,163.9775,-218.7951,-76.4539,568.7750,31.5862,-136.3360
601.0347,803.6235,-21.0948,209.3380,-175.1421,91.7692,-288.9762,-129.7388,-324.3318,-349.1568,373.8697,441.0550,39.7204,249.3615,-129.0495,-186.0753,735.3851,48.2354,-270.3994
660.6288,748.3121,16.0706,200.1216,-239.3724,45.4911,-416.0118,-228.1648,-410.1349,-278.6743,346.1565,348.6346,-29.9658,177.8238,14.5209,-287.8343,842.4560,-6.4078,-337.7743
607.8739,818.6407,48.6672,243.6134,-253.0071,6.7258,-309.3253,-208.7871,-262.1497,-233.4049,386.3675,431.0063,-105.5763,67.8132,6.6980,-309.4201,961.0944,-81.5497,-307.7243
579.9103,1091.2858,75.5444,292.9175,-187.0058,10.7871,-144.2017,-106.6843,-139.0712,-168.5511,494.1405,649.5444,-113.6804,12.7269,-146.9925,-239.4224,1066.1813,-88.8217,-273.8705
667.6926,1210.4647,21.2537,229.9820,-161.4773,-24.9387,-164.5330,-86.9752,-234.6291,-111.7869,531.4993,710.6525,-106.4958,9.1485,-186.2236,-175.1335,1070.8865,-70.3728,-315.5193
720.9165,1048.7175,-65.1550,130.8064,-196.3357,-70.5608,-279.4482,-132.3712,-344.2629,-130.3953,480.2735,551.5085,-134.5368,47.4381,-89.8230,-159.9478,972.0710,-83.8453,-376.1056
553.9777,792.5956,-46.6662,97.4627,-207.7696,-47.9869,-317.9896,-110.6406,-324.5794,-194.0260,408.5685,313.9015,-139.8395,95.7888,-23.2517,-127.3170,837.2418,-82.4008,-392.2858
363.6406,478.2717,-7.2473,69.8557,-237.0620,-36.1809,-370.6049,-94.4546,-369.2132,-250.5991,356.6352,149.7757,-130.7199,62.6397,79.0605,-131.4169,686.6778,-66.0513,-404.6443
449.1654,159.7171,-95.3962,9.9585,-290.8760,-108.5000,-465.5397,-181.6641,-484.4365,-285.6624,355.8955,155.0284,-173.3721,-77.2527,237.4939,-248.9199,513.8176,-97.9514,-410.5724
544.9465,50.1968,-165.4075,-27.6775,-216.6757,-155.5069,-400.6017,-215.3603,-407.0811,-270.0482,346.2627,185.1618,-188.5582,-199.9559,196.7106,-300.9023,358.0222,-110.5093,-309.4101
188.4335,62.1097,-34.3413,-42.2811,-19.8087,-90.0493,-164.0011,-90.0238,-176.7225,-198.4950,165.1067,24.6420,-92.7748,-206.0494,-33.2016,-165.5613,224.6456,-10.7299,-121.8771
-336.1833,-102.4963,125.8303,-77.0595,79.8107,-14.4295,5.1819,-8.7691,-57.3962,-130.7266,-157.9980,-157.3860,-10.8394,-176.8423,-97.2765,-77.9715,48.5559,80.4763,-34.6729
-384.9912,-384.7251,61.8733,-145.6869,3.5820,-44.3921,12.5433,-123.8822,-52.1829,-105.9174,-352.1599,-114.9076,-49.8532,-208.5641,66.1347,-185.6523,-152.1564,20.2989,-113.6848
-120.2765,-564.1513,-129.4849,-227.0701,-111.7298,-132.8163,-49.4562,-269.6033,-51.2027,-117.6693,-350.0096,-72.7260,-105.0283,-213.0611,225.1522,-285.1754,-271.0837,-92.2997,-190.1502
-216.2581,-673.9882,-153.9259,-244.3274,-131.0712,-161.4171,-100.5363,-258.9902,-74.0080,-177.8398,-398.6247,-260.8647,-80.3459,-89.7240,302.7140,-245.2383,-312.8593,-121.1630,-135.4036
-609.3804,-753.4831,36.3882,-160.3051,-44.4497,-117.3676,-111.5547,-158.4341,-112.0202,-273.3054,-556.2532,-400.8911,-34.4271,26.9773,297.0956,-173.2734,-358.9453,-114.6586,-52.9722
-645.3322,-695.8683,174.6620,-82.7338,30.4252,-82.8586,-119.5549,-126.1085,-134.4065,-312.3948,-558.5806,-262.0835,-38.8751,-38.0723,185.1231,-142.3229,-378.4505,-134.8863,-61.9864
-308.8334,-522.3636,90.0821,-78.1682,18.6749,-82.8217,-153.8345,-172.8587,-164.8508,-235.7922,-359.9198,-101.7102,-71.4280,-170.5884,85.9488,-134.9237,-322.0540,-139.3648,-75.6516
-223.4073,-369.5760,-15.8778,-50.4069,36.7076,-70.6784,-123.1233,-211.0947,-144.9780,-109.1761,-266.0557,-165.7013,-42.6643,-149.6307,74.8270,-117.7000,-267.0125,-119.4286,-5.1972
-455.6265,-279.4046,60.2250,29.0049,141.8664,-43.5513,-21.8211,-217.0654,-53.1076,-50.0262,-341.7225,-301.7657,77.2416,-36.2149,33.7865,-41.9575,-273.1028,-115.4075,19.0131
-395.9192,-230.0081,143.3295,63.6053,160.8485,-25.5362,-34.8154,-203.9654,-56.4159,-118.3745,-278.5632,-260.6565,156.0909,-16.0548,-52.8380,57.2284,-284.6830,-106.2780,-81.6787
32.7629,-189.6041,59.1653,52.3063,54.7026,5.0329,-152.1053,-142.5990,-165.7721,-230.7556,-33.4685,-72.9793,92.0694,-20.8102,-95.8053,85.0294,-263.8902,-59.2567,-102.8280
172.3719,-126.1313,-6.7390,49.5993,37.7676,41.8042,-126.2518,-51.2780,-143.5898,-194.5199,57.0397,15.3649,17.0940,81.4621,-147.8064,76.8188,-233.7633,-10.6509,72.8734
-124.0448,-84.2148,43.6426,8.9614,130.0274,18.1144,24.2100,-21.2226,6.5713,-1.9985,-59.9200,-45.4924,46.8022,137.5322,-211.7703,97.2439,-207.1112,6.2928,215.9487
-254.1327,-124.9200,-14.2280,-90.4704,119.0499,-59.5939,53.7940,-43.9227,38.7417,68.4342,-77.2173,-39.3165,64.5708,-8.1875,-148.0222,75.9062,-193.4906,14.7569,171.1170
-59.5263,-199.2010,-185.8980,-160.1201,5.3328,-88.8890,-18.5768,-4.2244,-42.5525,-57.8235,45.4820,29.4428,-4.3081,-155.6464,-14.7943,11.0949,-195.5508,24.6743,119.4315
26.6950,-209.2385,-193.3283,-160.3504,-35.2548,-37.3469,-24.2202,106.3890,-51.6250,-42.5365,82.1772,-70.2088,-49.9703,-91.0113,-8.6705,31.0897,-176.9844,-5.0643,181.2428
-20.1098,-108.6204,-76.0232,-142.1776,-12.2602,-3.2372,6.8852,170.9386,22.3864,202.4795,57.2425,-175.5975,-26.2440,40.6557,-103.8057,107.4913,-121.3259,-91.8307,204.1265
82.6701,53.3111,-101.0944,-135.1704,-40.4951,-64.5452,21.6576,130.0948,113.8533,276.5908,126.4389,59.0661,4.1291,39.0284,-172.5332,98.6727,-65.6327,-165.3247,96.7436
199.3065,126.4507,-197.0973,-125.0834,-103.4605,-153.0529,90.3460,38.9118,217.0010,87.9232,205.0487,368.1836,16.7771,-32.2017,-201.3120,47.8068,-32.5965,-148.6136,-16.2278
153.9618,53.9009,-149.1009,-93.3730,-128.8036,-153.3673,192.6011,-13.0712,273.9464,46.7370,186.3641,278.1519,-2.8390,-45.3230,-186.1288,76.4528,-12.2996,-84.3471,-31.3849
133.4644,-11.2619,-32.9096,-48.4077,-113.8008,-85.0123,229.2390,7.0252,231.8434,227.7386,154.6406,2.0515,-48.9622,-13.6535,-126.1873,139.6383,2.9069,-73.7304,14.4755
164.0072,11.9923,8.4752,-33.3927,-96.1950,-62.0341,220.1703,32.2374,174.6643,282.7991,146.4451,-3.6572,-39.8827,-14.8897,-78.0963,131.4748,22.3855,-109.7570,52.6379
91.9740,28.4081,5.3488,-50.2757,-91.3780,-92.4646,221.1214,12.5727,190.2445,178.2949,114.8784,157.5582,21.2409,-86.3412,-54.7549,69.6921,48.5539,-95.9846,63.0536
78.9448,55.9008,-5.7217,-25.9995,-64.1427,-77.3832,201.5887,39.1279,228.0626,131.6204,108.8151,168.0581,16.0696,-154.5325,-47.0889,63.7940,60.6626,8.1630,71.8867
203.8704,145.8923,-7.3142,63.4812,3.8690,9.6051,141.3111,172.4005,195.5652,102.7651,123.0935,35.4200,-45.7734,-93.0031,-49.7027,143.2176,51.9040,149.7208,100.8678
102.1884,126.8528,69.7961,134.3434,45.7888,90.9241,78.1761,265.1910,94.9933,33.2949,15.7475,-90.7670,-48.1906,43.1421,43.8559,160.4040,43.9336,231.7788,115.1311
-240.0078,-34.1523,188.5828,124.1840,37.6632,113.5732,41.9865,207.1429,11.7631,87.6128,-163.1761,-135.0632,3.5546,69.8323,238.8677,20.0625,45.8418,203.3250,76.8119
-224.2907,-11.5768,194.7451,76.1828,72.9830,113.0684,42.9279,150.7415,5.8575,256.5896,-150.4022,-67.5654,37.9815,25.8127,266.1293,-77.4947,47.5724,148.6550,39.6486
249.8852,260.3804,69.1572,56.6089,162.8090,150.3078,90.5719,228.3865,76.5041,289.8567,54.9128,48.6085,48.3405,90.6640,45.3487,43.8610,47.4649,181.5905,91.6639
444.8542,384.0136,-33.1467,63.8975,202.3410,219.4398,182.1138,302.0571,199.3140,134.2428,132.8535,115.3362,55.9080,215.0437,-91.5801,187.4393,54.0219,258.7891,199.6231
45.0531,230.5695,-7.0484,59.4421,202.5243,256.8742,254.0156,234.5488,273.5150,-33.8951,-18.3484,151.8007,95.9316,245.4353,16.2582,152.7304,69.9209,267.0938,218.5842
-273.3122,121.1860,74.9837,50.2116,235.2481,243.0540,196.3020,131.8239,176.2732,-90.4358,-120.5346,185.5904,174.0002,205.6205,146.8034,79.6594,80.8731,206.1687,112.7924
-75.9312,151.6394,80.2294,60.7037,232.1165,209.4884,53.5866,122.7769,41.8137,-1.6266,-31.4716,135.6344,198.0437,157.4526,186.0747,104.0630,70.1145,131.2345,40.6386
93.3453,97.5662,26.5479,57.8427,153.7194,163.5641,52.5478,149.7879,124.9103,171.1796,26.1491,6.4479,126.4984,103.0778,233.2218,140.1809,52.3458,71.5070,82.5555
-89.2198,-25.2018,38.1876,31.1715,117.4801,121.9998,187.8031,115.6354,260.3016,248.4794,-44.4684,-23.4460,58.8385,103.6923,306.6086,144.6203,55.9618,63.9987,75.4757
-47.3967,7.2510,88.8563,51.3105,147.0497,129.0530,152.0655,39.9581,95.0110,158.2634,-6.5550,111.8597,45.7768,159.2870,347.9090,154.0026,70.6266,100.6307,-60.0542
347.9143,121.0937,81.9550,115.0909,145.0278,150.5427,-58.4176,-17.7319,-169.0866,56.4909,176.8822,213.0509,62.5556,136.1755,325.8571,133.7490,69.6874,115.4774,-126.6885
327.9792,64.0701,109.4817,140.0011,139.4617,125.9508,-90.8032,-48.0644,-117.8758,59.2383,218.8610,128.8414,136.7148,49.1165,235.1393,86.3983,61.9431,121.5062,-44.8065
-138.1791,-83.2900,230.2856,165.5294,181.9182,115.8631,47.3343,-55.4553,59.1260,83.9752,111.3599,10.4509,228.7981,55.7912,152.5774,85.3118,61.8778,164.3512,-20.9837
-173.9962,-56.5314,248.1029,241.0320,174.6480,160.3990,24.2037,-35.9123,-3.0927,33.4755,122.3130,44.2307,212.5077,111.1908,153.6578,105.6144,56.9537,167.2348,-107.3714
194.2201,75.2129,106.4369,225.4180,92.7400,145.0598,-112.4186,-16.3192,-137.4373,-79.3285,179.3588,152.2191,122.1436,64.9314,164.3186,74.8583,49.0862,74.3458,-105.9257
152.9136,66.4939,49.3180,66.7991,59.6605,38.2257,-109.8615,-29.6540,-115.0482,-195.7998,41.7365,181.5891,80.2368,-19.3587,112.4874,7.5234,62.4073,0.5112,-3.4904
-233.8470,-28.9351,134.1384,-18.0743,86.5155,-15.7031,-65.3465,-50.6334,-86.2357,-269.3412,-152.5392,144.6987,56.0877,-18.2641,44.8064,-74.8555,87.0966,27.1897,27.7238
-399.5508,-28.8569,155.0090,52.5334,97.2166,18.1535,-111.6491,-52.7892,-118.9635,-294.1801,-203.0702,114.2141,10.3991,25.1928,-30.8225,-181.6540,87.6164,64.9038,-10.1176
-435.0962,14.9898,72.2526,77.3160,107.6437,13.0537,-110.1705,-98.1822,-86.0776,-307.2216,-228.9513,135.0108,-2.3624,41.7765,-121.9058,-282.3015,68.0878,18.4375,-24.0059
-509.6178,9.1408,-16.3489,-31.7172,95.1981,-75.2839,-51.6331,-231.8769,-54.6452,-317.9488,-294.8239,229.9859,-15.9178,22.0964,-144.4200,-335.7197,64.2407,-96.3811,-49.3287
-401.1028,21.0541,-119.6065,-155.5928,-20.6398,-180.3092,-98.5036,-350.1788,-125.7518,-297.0594,-269.3697,286.2742,-75.2371,-57.2061,-104.9617,-318.2294,88.3984,-182.9806,-112.3409
-182.8861,70.0259,-220.1359,-222.8651,-155.4336,-245.1026,-200.7362,-354.5047,-186.1370,-274.0324,-166.4134,162.8004,-93.9808,-169.1704,-123.9324,-228.0308,125.0812,-161.6076,-157.5307
-147.5450,63.8428,-238.4706,-234.2708,-176.5987,-252.3625,-244.6918,-327.4010,-204.7610,-315.2077,-84.5656,-2.0440,-61.5612,-219.3004,-176.1227,-162.7532,146.8002,-117.6982,-173.8236
-214.2411,9.7177,-209.7014,-209.6248,-143.9124,-252.7242,-296.0823,-359.5591,-290.7116,-375.9248,-11.4695,20.9142,-67.9177,-198.4579,-167.2748,-232.0909,133.9148,-208.3297,-171.9663
-185.6838,35.6712,-193.6980,-211.1046,-147.0197,-306.2846,-367.9987,-380.9054,-396.2031,-353.5554,30.6160,145.9521,-76.0893,-183.4408,-162.4450,-350.2149,119.4338,-363.5708,-159.1285
-36.5985,182.9190,-171.4915,-234.6886,-166.1163,-350.4755,-375.1651,-343.2263,-408.7023,-285.2243,24.5778,165.6893,-51.1699,-197.2027,-227.5350,-357.7680,151.9416,-391.2368,-193.1586
126.3607,274.3245,-159.8095,-204.7010,-204.4168,-309.5208,-326.7485,-328.6910,-335.0924,-278.9437,61.6299,84.0155,-92.3570,-203.2011,-285.4953,-280.8663,189.0540,-331.2078,-259.7648
2.8975,122.0340,-168.4437,-158.4053,-265.3223,-256.0470,-235.1795,-357.4199,-198.4045,-304.7031,77.7734,-19.5655,-177.4559,-182.2280,-276.3214,-234.5903,157.5792,-332.0750,-249.2766
-381.9426,-93.1061,-145.6501,-177.1983,-295.2213,-263.4934,-105.0481,-347.5159,-78.5814,-272.2789,-68.5909,-95.9355,-180.2758,-170.4277,-222.1571,-222.4565,101.0672,-362.1122,-196.7511
-370.6397,-22.7563,-129.4261,-205.2991,-315.4257,-285.5609,-71.2260,-279.8053,-115.2257,-197.6435,-175.7716,-65.0453,-153.6305,-223.2817,-169.5444,-188.8044,97.9723,-350.3106,-214.3334
116.1454,195.4876,-163.4093,-177.2326,-366.7465,-283.0866,-166.0105,-182.8352,-216.5290,-131.9484,-26.8952,13.6536,-185.5816,-287.8313,-159.7509,-131.1221,115.4507,-329.6633,-220.9082
245.9749,134.9138,-143.4768,-128.8238,-386.1349,-249.5101,-208.5987,-62.0971,-185.1147,-91.2436,125.1928,-62.9619,-224.1278,-234.4150,-137.7478,-101.9638,93.0039,-303.8135,-138.3557
20.8963,-91.8564,-85.7470,-86.3421,-381.4848,-172.2554,-180.8941,27.5069,-126.3723,-91.5131,81.1695,-259.2104,-273.1784,-116.3123,-32.1984,-131.8790,39.0419,-258.0172,-104.3870
320.3958,-47.0447,-174.7442,-80.9271,-437.6683,-128.7323,-212.9933,21.5601,-187.5926,-103.1134,98.3242,-315.3407,-359.9067,-128.1888,34.9705,-156.7152,-22.6059,-241.9091,-171.1906
890.6232,160.9688,-313.6004,-162.3469,-457.0720,-197.6989,-221.6380,-21.7887,-210.0668,-79.2915,267.4228,-207.8423,-355.7292,-228.6904,-44.1188,-108.8519,-64.3027,-242.8879,-196.0817
798.3123,135.3913,-227.8591,-236.4201,-334.8440,-258.9620,-124.4126,-19.5226,-111.8160,-77.1520,307.5715,-147.7249,-226.5296,-202.7947,-107.0863,-49.8540,-52.3702,-187.3219,-156.9761
430.0312,-2.6977,-35.4308,-172.6462,-251.8730,-193.1000,-84.3831,-4.1331,-70.1542,-117.2628,204.3667,-187.3955,-164.7841,-95.3673,-55.7071,-49.6897,-20.3805,-120.9510,-141.4016
599.4604,71.8898,-24.9716,-72.8869,-338.9493,-115.6074,-140.0865,-12.9182,-102.5969,-56.7424,204.1346,-219.5412,-218.7448,-106.0582,-49.9589,-49.5980,-19.7529,-119.4783,-114.2821
855.4747,203.2613,-94.0616,-80.0841,-405.4864,-115.2496,-124.9546,3.6907,-72.5076,104.9838,248.0392,-225.0690,-222.0632,-167.1048,-101.2128,-14.5593,-19.6569,-116.8878,-35.1765
631.4412,122.6675,-40.5889,-106.2611,-339.2892,-82.9666,-53.9740,62.6900,-17.3232,134.5473,145.4806,-232.0306,-167.7985,-109.3762,-35.0033,-23.4421,-8.8629,-61.7408,24.4131
450.6108,9.0876,3.1089,-54.6072,-300.8121,2.1279,-40.3376,99.5583,-0.1815,24.1082,28.2595,-194.6181,-223.0380,-21.0863,97.4047,-88.4558,-48.2119,-32.6384,27.0126
716.6644,89.6586,-89.5849,6.3258,-358.6791,24.7707,-40.3063,76.8156,17.9457,18.3014,84.2750,-115.7498,-391.6900,-21.8509,149.3035,-112.0622,-111.9275,-36.6856,-13.6741
956.0033,195.3237,-153.6466,51.1733,-388.7401,16.6677,-49.1930,21.2825,-22.5511,82.6052,187.9471,-116.2141,-473.1812,-15.7546,201.9997,-71.5044,-107.5601,29.1490,-99.0225
852.9574,163.8665,-76.0159,127.3098,-339.5430,81.1121,-128.4748,-29.2920,-146.4235,-8.3699,152.0362,-219.7354,-353.6637,25.9360,301.6121,-48.2131,-53.8153,132.6997,-165.2420
669.5312,157.3706,23.0282,181.4242,-275.4819,133.6218,-163.9549,-44.9559,-162.2661,-133.1842,37.7564,-257.5556,-179.3130,-41.2288,291.7332,-66.4511,-11.5773,125.3060,-127.9440
562.5087,253.1877,54.9978,142.4068,-235.6456,57.6083,-56.2202,-11.0072,-21.8877,-41.3254,-6.9812,-146.4332,-151.6108,-189.8172,173.2948,-51.2170,21.1877,33.9710,-40.0378
454.3482,246.0890,54.9464,58.7565,-201.7144,-56.7237,55.0239,51.9872,56.5603,131.7002,6.8106,-46.6366,-226.3226,-216.1921,153.8514,25.1490,5.1514,29.7932,-1.5020
392.3531,73.0950,29.2140,3.9558,-149.1570,-64.9765,74.5831,108.1582,36.5042,143.8854,-7.0349,-84.8576,-224.4294,-108.0203,274.5739,70.4785,-99.9132,111.2578,1.8083
451.8684,-47.0455,-38.8137,-4.1940,-110.2304,12.5149,80.9665,139.6375,77.7063,94.4676,-25.1791,-162.5025,-160.1200,-27.0419,380.7210,33.2500,-186.1953,122.4431,28.9495
524.7835,-4.1066,-89.8122,28.1662,-131.3746,61.3471,90.8937,143.6390,136.5364,162.0026,14.4882,-179.6956,-158.8635,-25.8195,377.1261,10.7609,-158.7805,58.5916,85.6462
474.9861,59.0779,-41.9883,76.5937,-143.7900,47.7722,81.3293,127.3303,100.5407,262.4907,55.4204,-205.8542,-179.9205,-50.7210,291.3593,69.2587,-103.7563,56.7790,144.0159
320.2596,10.5963,85.5052,113.5861,-72.4147,34.2459,107.9431,111.9285,85.2714,250.0109,22.3629,-302.6711,-128.8707,-60.0581,222.8688,128.1940,-97.1983,123.5421,165.1969
202.6736,-95.9349,154.6142,121.1661,-36.6872,46.8075,163.8989,109.7460,181.8087,165.6132,-18.3933,-359.7501,-65.8023,-37.1273,255.3580,135.3952,-92.9599,136.0129,134.4931
244.2633,-105.1744,51.4699,60.1506,-132.4673,17.8453,190.5836,108.4408,266.2665,134.8801,13.3812,-241.3186,-60.0798,-29.0834,313.4178,137.9649,-79.5099,62.6086,104.5898
338.6464,9.2183,-122.1472,-63.6256,-176.7894,-73.0315,238.9767,107.4630,280.5526,188.2863,41.2564,-39.6630,-44.8682,-84.5359,245.7749,147.4044,-83.0536,-10.2677,137.1717
181.8626,34.3040,-115.1603,-117.6842,-19.4397,-106.3262,330.3706,135.8194,306.2949,245.2735,-40.3881,-4.7426,27.6470,-99.2717,96.4774,150.8716,-62.6361,-9.3001,212.9276
-236.4507,-160.0526,111.6281,0.5612,163.8166,3.5024,336.0903,191.2075,310.8759,217.4170,-176.7802,-151.5377,77.5915,28.7105,70.3954,168.3660,-3.2132,57.3258,249.1414
-418.9438,-300.4059,267.6521,173.6613,167.7620,140.0277,204.3029,207.4897,189.6852,109.9797,-208.2867,-206.2884,38.1199,143.3916,210.4971,164.7642,32.0948,97.8501,196.4254
-59.0175,-102.3121,138.4448,196.3767,35.1209,130.2562,59.0173,148.7205,24.8115,21.1065,-64.5706,-79.7296,-33.8229,48.8860,313.4302,107.9966,36.4145,31.6451,108.8974
376.9435,190.0423,-96.5629,52.1876,-81.2648,-4.9363,13.4926,89.8188,8.8628,42.6110,120.0345,-4.2401,-45.1210,-146.4821,213.4304,99.5597,52.8479,-59.8402,93.8126
297.7405,138.4950,-148.0872,-67.9130,-70.5818,-77.5231,87.2963,116.4123,156.8620,161.8248,120.5346,-86.2975,19.2740,-196.3357,22.5703,179.6446,42.2584,-12.4547,170.8199
-139.5607,-215.5349,-17.6280,-23.8034,75.0548,0.4687,234.8187,190.4724,300.9566,268.2658,-70.1612,-191.5056,103.6032,-72.5455,-38.9979,186.9481,-47.8254,156.9362,246.7347
-356.1945,-473.4699,87.6906,95.0433,221.5419,114.2479,353.1273,217.7587,342.6776,282.5428,-180.2085,-268.0089,144.1555,52.3885,20.1291,71.2132,-153.5762,269.8153,255.0667
-196.9633,-473.2187,74.2917,129.4227,253.7327,154.9205,370.3137,197.3735,333.6075,240.8414,-55.7074,-329.2883,111.9270,61.1204,33.3026,25.3775,-194.5225,263.0059,236.2902
47.3173,-365.0588,12.5700,86.1850,226.4037,160.4355,314.7490,196.5179,307.3595,210.2899,114.1371,-297.2625,50.5044,1.2378,1.0094,120.3711,-193.8667,216.8933,263.4936
131.7757,-281.5233,-15.9295,64.6068,223.8623,170.8739,247.1782,237.4511,236.2754,215.3657,134.8460,-200.3967,57.4937,-28.1263,11.0923,195.4367,-178.4594,173.1523,348.3386
-14.5996,-253.4187,15.8253,73.9173,250.9058,148.2823,209.9569,296.0559,174.4577,262.1563,56.8349,-193.3846,155.9394,-16.0970,8.9778,182.7886,-111.0472,143.5579,420.7916
-321.4594,-311.0111,92.4861,91.6031,301.3202,111.0486,222.5930,349.0955,216.9664,307.1008,-25.2969,-244.4189,234.2404,-2.2411,-30.8893,163.9331,-18.3776,174.9307,405.2674
-507.7120,-392.6646,147.3971,138.2216,329.1329,125.0462,266.3822,374.3517,321.6827,275.2758,-84.0344,-208.5783,196.1975,20.4087,-7.9819,143.5294,2.3526,232.0048,332.8941
-361.7563,-302.3177,111.9404,179.3707,258.2177,152.0149,329.3889,362.3995,382.2148,219.9464,-71.5878,-134.3206,94.9523,58.2858,49.6092,81.0406,-30.2881,202.2713,308.4428
-126.0720,-38.0677,32.9329,161.1443,151.8057,130.6781,411.1584,340.2875,390.6811,262.2879,-3.5944,-121.5591,41.5839,84.1738,30.8723,35.6701,-1.3570,121.0740,346.4502
-140.6514,98.9533,42.0022,152.4301,147.9601,122.9063,433.0712,332.9597,358.0974,331.8115,18.1957,-93.4274,58.0152,110.5557,8.7500,56.1657,90.5060,135.5182,355.4757
-292.6529,25.0908,155.1037,218.2614,222.6725,172.3334,319.4618,315.3889,249.5686,275.9612,3.5430,20.6166,86.1468,146.5483,67.3609,75.9134,163.5370,212.8918,299.1424
-329.7340,36.5699,241.5446,258.6571,259.5431,190.0930,162.1708,254.6479,111.4914,160.5054,24.0660,120.3101,89.8950,134.2952,98.3442,61.2806,216.0066,200.8907,238.4070
-300.8668,189.2013,231.6469,198.1008,228.6398,144.1479,85.7223,172.6928,50.2332,121.0081,35.4418,107.9266,81.1603,81.3077,54.9340,86.5994,256.2698,136.2599,195.7198
-245.5377,207.2264,186.5789,141.5275,143.8251,127.9824,56.2251,102.2109,54.8727,106.2164,46.5454,45.6682,64.6310,76.0899,56.1490,158.6167,227.1894,149.2143,109.9449
-70.5881,122.8865,166.0823,171.3876,47.7821,144.9121,11.2248,20.2863,37.6375,52.7611,171.2559,45.3962,46.8042,84.3596,114.1648,165.7431,150.9264,183.2105,-29.3398
41.2256,191.4381,190.8614,222.9624,38.8131,97.9131,-16.6865,-84.4122,-7.2047,28.4055,305.9720,92.1411,83.5220,11.5521,119.7880,90.7658,141.8785,140.0504,-120.7744
-140.3217,307.6542,261.3727,244.4007,116.0205,23.3056,-17.5801,-143.2654,-38.2271,38.0929,234.2840,93.3980,182.0627,-58.4879,83.9044,60.8402,208.9474,100.1709,-102.5095
-351.8456,260.5870,308.2185,255.8758,150.9342,47.2688,-36.7217,-119.0784,-54.6953,0.0456,75.0695,65.8431,218.3048,-2.6094,103.3725,109.5524,259.1994,129.3318,-60.0993
-278.3986,189.7433,268.8994,252.2204,115.2724,129.8462,-70.1266,-89.6583,-56.3322,-70.2996,75.3387,95.9086,138.1869,102.4130,168.7773,109.4573,266.4005,131.8258,-85.7201
-120.7229,273.9847,211.1750,215.1748,87.5260,124.2016,-77.0950,-112.5731,-26.0858,-111.4624,153.8320,164.1320,92.1104,137.0039,198.9094,9.1237,247.7445,64.1744,-134.7517
-131.1313,419.8414,204.4906,164.0593,65.0372,41.6087,-51.2043,-139.9026,13.5645,-131.0131,136.0748,208.4947,161.9001,126.6617,182.7206,-65.8399,181.6626,10.1397,-121.7739
-201.1772,461.8438,192.8778,117.3211,21.5922,18.1505,-14.2051,-141.0353,22.0806,-118.4550,79.1360,248.5035,201.8027,127.0410,160.1326,-20.3282,89.5030,-2.6570,-58.8893
-215.7448,393.3911,132.7747,85.5314,0.7245,73.2085,9.8331,-151.7310,10.3471,-39.2954,62.0542,298.8462,129.0548,130.5524,121.5924,60.9322,60.9214,-11.8289,-22.2966
-219.3219,391.9059,65.2124,94.5843,-0.0518,103.7447,16.2620,-170.1961,12.6285,56.9224,50.5290,316.9487,63.2038,126.8438,41.8620,72.0760,114.2156,-5.6439,-49.1731
-262.6812,525.4164,30.9426,145.2964,-11.0263,80.6035,25.6356,-144.6241,26.7716,108.3053,15.7525,269.0099,76.4913,124.0562,-25.7095,68.7525,154.2242,34.0934,-99.2592
-413.5201,514.5883,70.5825,196.6768,28.9792,79.7658,45.8288,-60.8547,47.3097,126.7131,-76.4275,154.0819,107.8330,140.1847,-12.9329,119.4646,108.0084,75.3515,-111.4911
-585.8337,264.1710,163.4190,207.0422,122.7023,119.8350,59.8911,31.2808,85.7488,107.2204,-184.9157,65.5943,126.7516,184.6672,45.4551,111.4218,23.7989,76.4053,-100.6760
-470.7294,208.6620,148.8124,153.3843,127.3375,118.9847,47.6969,63.5123,98.6240,36.4465,-103.9205,151.6168,154.3743,200.4251,72.2133,-24.6184,6.7241,20.3135,-118.2359
-136.3350,477.5665,-11.6083,63.1758,32.8670,58.1195,-5.7353,33.7519,21.1246,-11.4010,153.1066,334.4867,184.7640,128.6264,61.8187,-103.2465,73.6071,-38.7706,-117.1023
-100.8530,583.2639,-88.2048,24.4587,16.2960,39.2828,-72.3849,31.9253,-82.2542,8.7640,202.7131,351.6613,194.0737,48.1652,45.3766,-20.3262,120.0793,0.7818,-32.9765
-354.7841,397.9940,-7.1403,61.2675,82.5282,94.7180,-89.2270,90.4159,-90.8899,22.1734,-24.8094,199.0816,162.6882,59.8406,23.7163,41.8806,70.6380,107.4674,35.7723
-322.2061,268.7785,0.7150,65.0296,41.9630,98.8114,-74.1077,93.6452,-48.0782,10.4046,-65.4966,97.0996,104.4027,71.1309,-2.3492,16.9599,-20.0583,117.1802,-26.2078
-24.2170,195.4042,-105.0631,-28.1560,-100.5651,-10.8704,-93.9933,-15.0608,-54.2401,46.4348,225.2901,58.0217,85.6335,-43.3576,-10.4921,59.3079,-79.1854,15.3986,-127.0711
-24.2694,19.9447,-100.5768,-112.4788,-137.4681,-101.1756,-93.1892,-103.0171,-36.8351,102.9132,403.4845,-41.4777,124.2413,-150.9138,-3.8917,132.9438,-115.2998,-36.9342,-143.3747
-287.8076,-128.7071,24.2103,-78.9634,-26.7143,-63.6882,2.6708,-86.2903,71.7787,111.2980,273.0894,-165.1227,147.1119,-56.3619,-11.6027,88.5909,-145.4264,3.2247,-133.9918
-347.4856,-222.0443,85.7845,26.1391,75.9226,15.1746,81.8510,-62.0727,126.8363,124.0250,144.7405,-227.5674,143.8093,119.7897,-25.2509,30.0870,-138.8714,31.6252,-159.2200
-252.9054,-294.3598,80.8766,92.1992,87.4042,29.8476,36.1379,-78.1390,38.0660,141.7770,160.6087,-213.3729,185.6794,138.1115,-11.0691,65.2270,-75.5257,18.2274,-137.7165
-311.4051,-133.4226,101.1479,88.0617,47.9943,22.2652,-29.6437,-55.9208,-41.3205,30.8226,133.1802,-115.5777,232.4715,64.1393,15.5396,58.6798,11.2635,10.0047,-45.4039
-384.8370,193.1839,113.5838,62.6122,-3.6688,53.7915,-22.7615,-6.3110,-12.1100,-157.5925,43.5173,-4.9371,159.7013,75.9399,11.4525,-24.7761,61.3454,3.2175,9.3003
-212.9453,289.5555,58.0405,47.8394,-49.8752,66.8771,-8.2353,-21.4127,27.5331,-163.6763,71.0863,12.6424,0.4974,84.5594,-16.8801,-45.0755,44.0667,-36.1403,3.9415
21.6313,216.7410,-57.4457,11.8060,-72.5158,1.2733,8.0180,-54.0599,40.6169,40.0082,181.4637,-6.8563,-74.3123,-15.9029,-34.3665,-13.4570,-9.4653,-105.8459,54.7790
-26.9778,226.9027,-174.5815,-58.7452,-71.5504,-62.3246,98.0923,16.7929,98.0268,208.0856,155.8006,13.2120,-7.5484,-61.0750,-35.3492,-12.5372,-54.5384,-158.6762,200.8073
-305.3324,125.9921,-195.8635,-95.9972,-50.6402,-13.1039,194.0227,154.3611,167.4673,233.3676,-17.1113,-20.8127,94.3455,39.4648,-29.4993,-4.5275,-85.5002,-132.4611,326.9906
-446.0580,-131.3819,-102.8480,-58.1242,-4.2221,103.9343,172.9421,221.7744,157.9628,196.9515,-126.2180,-137.0855,123.2501,109.3245,-22.7266,2.6270,-96.9948,-29.9595,342.3860
-314.8850,-186.9314,-18.5731,-4.2738,51.0230,161.6207,89.7138,191.9529,99.9278,131.0281,-83.6187,-184.1374,52.8201,80.1073,-23.2176,-38.1138,-69.4945,66.7591,295.3430
-144.2642,-31.8152,-21.5491,15.7003,81.5785,149.7038,80.0771,141.0791,79.0083,38.8186,-10.6902,-105.7481,-74.6700,63.9603,-23.0751,-57.5331,-33.9451,103.6101,263.5846
-133.1104,100.1921,-60.4843,17.3272,82.3964,136.4861,145.2488,112.9910,106.4134,-37.5194,-5.1098,1.3242,-150.0300,45.9505,-7.8336,-39.0922,-45.3066,89.5599,237.6966
-244.4328,246.0661,-91.8114,3.7156,78.3145,111.8850,193.6339,98.1332,154.5683,-81.0386,-38.2877,63.0718,-80.5163,-33.2913,3.4333,-53.1928,-84.2560,42.0857,179.3952
-359.6959,304.1357,-104.6808,-20.5581,84.6937,46.9111,189.9124,91.5001,197.6301,-49.4970,-47.4977,41.4628,61.7539,-77.1457,-5.6965,-29.1784,-90.8997,0.1815,104.4808
-359.2198,51.3471,-79.6781,-4.6087,81.9291,7.1502,156.6120,97.5459,187.5790,98.2772,2.6267,-42.3755,114.0462,-29.0845,-5.0408,79.9311,-57.2520,11.4260,45.3476
-210.6067,-209.1932,-40.4384,54.9699,44.6880,44.0086,100.5935,98.2865,99.5897,213.7549,79.2962,-60.5242,64.4713,31.3536,19.8966,107.6059,-6.2446,46.3303,14.6542
-97.2443,-114.1149,-9.0044,80.7536,5.2163,91.8360,28.5247,70.8784,0.4238,143.4622,83.4302,30.9076,23.4358,71.3481,36.0814,15.0392,48.3419,43.9671,30.0398
-166.1907,79.9900,52.8985,40.9030,18.0900,84.1792,-10.5190,38.8445,-20.8889,48.0715,2.1612,94.1263,8.1526,87.1013,32.4236,-17.2831,84.5844,20.8230,80.4337
-238.2643,107.9065,113.9678,-15.0023,37.3944,43.5453,2.0870,45.2752,10.9279,82.4548,-29.4141,60.5477,-15.2936,39.5000,25.9902,25.7829,92.6346,13.2628,85.6554
-118.2728,131.6637,64.7510,-46.5859,-30.1365,4.3710,-5.5945,64.3669,-11.9313,55.6822,60.2063,41.7002,-7.9499,-19.7992,13.3659,35.9360,97.1804,7.4828,-2.8821
56.3584,220.2534,-62.2629,-52.9732,-123.1936,-30.2175,-65.5331,28.9276,-96.0867,-127.7309,153.9650,107.1286,38.3726,-5.6078,-0.4840,47.9327,101.6458,8.4865,-102.9706
59.1154,245.9042,-101.4764,-43.7837,-84.8563,-43.1040,-80.2713,-42.8032,-119.7427,-208.8043,126.0237,172.4719,68.6010,45.4264,9.4745,59.9522,72.8225,46.6573,-111.0658
-107.3520,203.8262,-12.1575,-16.5007,57.9650,-13.4390,1.8596,-70.6834,-37.0035,-102.3725,11.4425,155.7401,86.2685,88.9970,29.7951,-16.9058,18.7997,94.8562,-58.1676
-264.0042,148.4349,81.4020,38.8466,120.7183,29.1064,67.3926,-67.1639,38.9244,-41.2452,-57.0339,113.3543,94.9409,130.0559,31.4178,-78.9297,-0.9013,104.7960,-47.6251
-272.1955,106.5084,94.3199,84.1793,71.3576,31.5572,20.9070,-114.8064,13.8089,-73.5797,-26.1322,139.1277,46.0554,110.4898,34.0034,13.5997,37.1664,94.5237,-90.6033
-192.5102,87.6887,80.1249,55.2292,55.9437,2.6447,-71.9567,-192.5106,-72.5760,-59.4566,11.2224,177.2950,-3.4971,31.5362,56.9015,119.1216,90.3802,103.2234,-124.3076
-163.9563,23.2172,99.8681,-8.1309,114.5290,1.4445,-112.7584,-196.7177,-138.1012,-42.7904,-12.3275,113.7986,42.1953,28.8856,71.4010,64.3329,101.1117,111.5809,-143.3113
-133.4663,-53.2641,80.6437,-17.9002,122.3580,21.3441,-91.4057,-123.0256,-137.9198,-110.2830,-1.4907,23.9210,94.8477,91.6844,60.9467,-69.7315,41.0717,78.1584,-174.9864
-1.1157,26.5475,-58.8690,-29.6270,37.9371,-10.2948,-39.5794,-52.4550,-74.4806,-169.4891,94.9505,54.1070,61.0765,57.7657,44.7972,-125.1360,-56.5713,14.2727,-179.3902
81.7439,164.7803,-198.4969,-126.7671,-14.1468,-80.9083,8.7032,8.9657,-17.9917,-147.2928,135.4067,137.0843,46.3870,-32.4174,29.1826,-53.2629,-100.9644,-36.4251,-115.6911
-32.5085,114.2071,-168.0436,-199.1708,34.5695,-99.0431,5.1030,100.6422,-45.5188,-82.4155,57.6810,131.3952,96.6390,-21.4064,6.7920,73.9113,-40.9826,-69.7582,-39.9107
-182.9799,-4.3146,-32.3061,-130.5434,84.3787,-80.9657,-64.8367,167.7209,-127.2788,-8.7030,8.2544,83.1548,89.8184,24.3533,-15.9136,106.2911,58.6053,-107.2983,-24.1763
-169.7897,56.9404,32.8362,-37.4065,54.1719,-127.5608,-138.2494,129.5051,-178.8871,19.3434,44.0863,98.0541,17.5909,-30.7686,-29.0872,8.7505,105.8679,-132.0941,-65.4582
-15.9058,222.3243,7.2053,-57.8188,0.2474,-217.8137,-155.6753,36.8539,-189.0684,-33.3882,61.9277,155.2335,-18.2749,-109.3612,-30.8716,-68.8511,99.5568,-117.2004,-126.8706
128.4706,296.9769,-30.3724,-114.8588,-26.2689,-238.5442,-146.9697,-4.1578,-184.5328,-83.4708,56.3662,177.3583,-21.7149,-76.5894,-29.9383,-66.8904,93.9266,-83.8704,-177.4393
124.7483,186.4600,-37.1853,-79.2716,-55.5949,-174.4129,-167.9710,-6.5249,-172.5550,-101.5544,99.3458,137.9748,-12.4766,41.1521,-46.1641,-91.7868,109.8172,-64.7237,-198.5432
20.1098,-51.0949,0.0326,22.0309,-76.3202,-101.0109,-208.2759,-45.1219,-190.2314,-165.5434,149.8284,105.8997,45.0632,122.2109,-81.7017,-141.0124,125.5659,-68.8990,-199.0697
8.7476,-108.7438,51.2840,72.5827,-21.7816,-73.7216,-222.1775,-95.2614,-247.8183,-197.9906,125.3471,177.8644,100.0316,95.7388,-106.0404,-101.2453,104.1281,-99.3837,-174.2812
24.4457,144.6485,69.4730,36.8451,88.1921,-99.9684,-185.8602,-81.5197,-237.7071,-74.5344,17.0115,273.1815,86.0773,6.9149,-98.8713,1.5015,31.6878,-126.4308,-101.7526
-127.2614,297.4281,71.6303,-6.1555,144.3562,-124.3525,-105.2334,-25.5011,-109.0701,43.8664,-119.8642,200.5302,53.0588,-35.2955,-77.7542,46.5271,-45.5515,-99.3628,-43.5374
-186.9666,103.6281,60.1999,1.7243,94.1220,-74.2173,-32.3792,-11.6642,-5.0315,-12.5956,-163.2343,28.0771,25.1690,1.4613,-71.2703,21.1091,-75.0229,-45.0496,-87.6763
105.5775,-66.6087,-18.5931,13.4722,7.4460,13.4661,-17.6535,-57.5539,-7.7999,-77.4313,-60.5315,15.6070,-30.5327,43.5030,-88.1287,0.3679,-73.2611,-33.9309,-156.2669
262.4457,12.4676,-97.0279,-5.1875,1.9157,38.2805,-4.9674,-105.9745,2.0907,-18.2836,4.5061,147.6650,-44.8690,28.0142,-106.5308,17.1721,-77.2136,-48.3942,-115.8774
-134.5606,104.8650,-25.8090,-10.5079,99.3716,12.1131,77.0507,-98.1744,58.8797,1.3343,-124.7852,176.4156,46.3202,-26.0394,-98.1244,32.1125,-85.1110,-37.5759,-28.9043
-532.3851,69.0436,136.3623,9.5883,175.3692,15.5812,136.8751,-26.7933,40.0039,-79.9450,-265.3745,65.8971,130.5963,-45.8790,-70.9894,11.9316,-93.2734,-25.3664,-27.4458
-361.3646,-48.9198,192.7175,33.8214,136.7693,44.6053,60.0120,42.4598,-39.0085,-95.8546,-198.3035,-5.6188,90.5540,2.2766,-50.6979,-9.4999,-91.0518,-35.3025,-74.7924
46.2544,-153.3866,126.0165,72.2738,72.9358,51.7293,-62.3500,39.8898,-57.1813,-31.9690,-40.8952,42.6649,-18.0984,30.8714,-31.3376,-12.5842,-43.7205,-43.4669,-75.4673
190.5760,-28.6522,60.1470,78.1289,86.8125,28.6291,-88.2240,5.0373,-54.0129,-38.8307,-2.7941,142.8677,-62.4167,-49.6488,-9.8487,-42.7891,15.9270,-51.4222,-38.4272
64.9381,265.4022,44.9981,-10.4957,123.2578,-17.9663,-48.2381,26.3832,-98.6067,-109.7015,-70.7207,197.2453,24.8420,-139.4012,-21.0728,-84.5443,5.4623,-59.7191,-10.1779
-140.5562,261.6574,58.8429,-75.0412,114.6398,-50.5981,-29.8797,68.8502,-109.9328,-121.5645,-126.0001,158.0629,160.7537,-83.8527,-67.5099,-66.7883,-32.9234,-35.1512,-16.4490
-203.4007,-60.0365,53.1439,12.8582,89.3143,-14.8056,-40.6215,18.5671,-65.1774,-92.2688,-98.9064,94.7462,162.6439,47.4055,-91.6979,-34.4094,7.7520,-5.3799,-73.3870
24.0976,-156.0182,-26.8739,110.0040,46.1056,40.0414,-65.3678,-115.5236,-64.0839,-141.7713,19.8119,116.9442,17.4592,65.6058,-69.4369,-59.7768,79.4070,-28.6751,-148.8462
255.3837,45.0307,-117.8791,58.7866,-31.1425,13.3029,-82.7822,-208.2466,-95.8649,-255.5074,124.0874,176.7992,-46.3161,-27.6763,-40.0592,-74.9623,74.9578,-58.6545,-183.2457
105.8732,118.3426,-72.6749,-26.5330,-50.8798,-51.8995,-59.2280,-195.3420,-81.3505,-262.7633,75.1859,128.0853,68.2550,-74.4952,-29.3276,-46.6988,33.6485,-34.4609,-165.3112
-180.2032,54.5998,63.5430,-35.2585,31.0161,-48.5199,-17.5554,-118.7036,-54.9943,-114.4385,-63.6715,9.9319,148.8168,-31.1378,-25.4315,-68.2392,25.3972,-14.8955,-113.4584
-102.6914,115.8607,54.6479,-51.2112,64.3956,-15.0364,-8.3208,-44.5765,-55.3636,-17.9976,-96.3282,12.9583,48.3771,3.1831,-17.3784,-105.9200,21.7051,-49.3877,-50.1366
211.8899,178.6931,-141.0961,-105.4087,-35.3367,-34.7911,-32.6177,-12.9350,-57.0387,-110.1499,-6.6460,126.9924,-70.5568,-8.3821,1.0357,-27.4788,12.0843,-78.0543,-21.0681
259.2380,37.1991,-266.5765,-119.2691,-101.0780,-63.7734,-74.6485,-23.1394,-77.3341,-216.2722,43.8591,140.0863,-37.8691,5.1998,37.7277,83.5018,22.0569,-65.4240,-40.4458
1.2610,-115.0465,-168.0985,-96.0116,-14.3380,-44.1966,-99.9651,-42.9265,-100.7443,-181.6204,-10.1017,38.7784,51.0967,48.7328,79.3234,51.7209,15.7833,-52.8335,-58.2383
-169.9335,-22.3036,-28.6210,-91.8899,68.0581,-16.9743,-55.8833,-49.8346,-57.9823,-127.1426,-75.3160,29.4022,32.7831,31.9644,87.9681,-61.3733,-13.3908,-56.6847,-49.6730
-81.3820,174.9520,-46.6441,-113.7027,-11.0396,-18.0204,-6.7491,-46.6720,-30.3756,-150.7930,-68.7845,113.9730,-61.2542,-41.9893,49.6450,-101.1887,14.8037,-60.1761,-40.0523
66.4860,164.0361,-135.8613,-149.4406,-142.6646,-26.2193,-64.0842,-39.5940,-115.7050,-154.5426,-25.3296,85.3411,-113.8922,-56.4243,11.7647,-77.1131,89.3430,-63.5825,-34.0931
68.2516,-19.4547,-129.4201,-160.3411,-137.3652,-27.9633,-124.0442,-32.5746,-151.2202,-100.0671,-41.1364,-38.0356,-135.7958,18.7945,29.1969,-51.2852,89.2729,-66.5716,-25.8785
-44.0741,-44.8338,-59.7609,-110.9295,-15.9385,-23.6596,-45.6355,-34.5548,-41.1279,-76.8073,-117.8947,-30.4744,-179.6956,83.6401,78.9340,-25.2567,18.6988,-67.8863,-35.2794
-83.3649,146.9596,-49.6268,-68.2612,37.3438,-22.0880,3.8934,-58.0617,-40.8229,-124.0418,-117.7061,125.7838,-184.5745,59.2273,100.4870,-29.0832,14.3360,-80.1407,-73.1612
53.0262,267.3629,-101.1581,-93.3399,-54.9610,-49.4147,-145.4256,-103.8431,-249.9518,-225.4773,17.0429,229.9657,-94.7405,-34.4844,104.2508,-92.7974,92.7775,-82.6642,-119.8725
207.9271,196.8584,-132.7198,-112.2098,-169.0361,-84.0544,-282.6729,-131.4290,-356.9248,-332.4493,112.0513,169.2493,-3.3042,-119.8760,135.9535,-152.6908,123.6962,-29.7227,-130.9813
163.2171,125.3151,-116.4061,-83.0682,-181.8725,-59.6964,-205.9929,-93.2538,-234.7222,-334.8966,30.5280,18.9839,-36.2516,-149.9028,174.3540,-164.5453,81.8980,42.1585,-68.2217
46.6721,237.5369,-108.7088,-81.3567,-156.8854,-2.6334,-104.2831,-30.5718,-158.4708,-235.0869,-66.9653,-30.0769,-198.6123,-157.1805,180.9087,-199.5488,130.2633,28.6644,6.2539
179.5346,550.6429,-163.2500,-102.6695,-216.3644,-8.2107,-193.4778,-34.2113,-276.5111,-216.4416,14.6410,147.4804,-382.0844,-152.0536,183.8227,-290.7507,369.8441,-69.0129,-44.3160
481.1639,863.7156,-228.7333,-52.1629,-319.4017,-54.8608,-393.7932,-92.6893,-451.3266,-335.1756,171.1078,385.7409,-463.0890,-67.6134,213.4358,-347.6384,644.6754,-119.9513,-217.7454
560.0159,863.9778,-216.2441,54.1408,-344.9609,-48.1802,-542.5835,-126.5811,-572.9701,-423.1239,186.8794,398.8536,-432.0031,60.5037,242.2081,-331.3262,729.9750,-75.0981,-346.3070
377.1432,558.1799,-165.8045,105.0795,-327.1120,-21.5179,-571.8844,-144.6597,-599.7086,-392.1177,63.3385,217.7012,-411.1535,65.0543,251.1312,-319.4931,614.3447,-50.7426,-347.6823
220.8718,334.0976,-186.0919,49.8334,-388.8822,-77.2592,-480.6929,-197.4354,-488.5441,-307.7939,-61.1952,97.7750,-465.6258,-78.0898,261.3181,-330.9765,437.7065,-117.8313,-306.0931
164.8638,396.5851,-262.2297,-66.4000,-496.0941,-189.1848,-355.8181,-257.5611,-320.3954,-231.3481,-137.8367,71.5511,-508.8246,-215.8292,276.1546,-315.6011,264.7986,-178.5168,-293.3539
86.9483,534.7726,-300.1823,-145.4676,-508.7581,-240.3643,-309.9786,-281.2729,-257.3814,-245.4247,-194.0917,6.0581,-473.2739,-276.0280,273.8553,-313.3938,95.3853,-146.9829,-286.5924
-24.3093,465.8590,-274.3529,-141.0691,-424.2967,-195.3513,-337.1485,-263.0432,-318.9109,-389.7514,-243.1931,-70.2219,-408.4087,-283.0538,254.5470,-364.4411,-27.6771,-74.6836,-238.4929
-125.8402,117.4178,-212.5257,-123.4657,-352.7568,-123.0983,-357.5570,-187.2436,-378.9916,-473.9694,-290.9061,-72.2471,-381.0733,-227.8735,239.4659,-371.1378,-81.2634,-25.0660,-135.9427
-206.0930,-278.8533,-159.4978,-132.5411,-319.8073,-92.3048,-336.7387,-80.6000,-342.1037,-332.0597,-329.9135,-74.3628,-411.6082,-139.5325,235.6364,-299.7903,-118.6916,0.2584,-30.7215
-234.5898,-368.6435,-165.3316,-100.9166,-280.0010,-104.3371,-280.8012,-48.7964,-240.8984,-159.9957,-331.0536,-155.3474,-445.7637,-112.1535,230.7391,-283.4555,-167.8486,-10.7042,-1.6669
-226.1461,-146.7633,-203.6827,-42.5679,-242.1826,-130.0543,-228.6907,-119.4084,-191.4801,-181.1842,-309.8619,-229.8556,-369.4229,-177.7797,214.8061,-350.0412,-181.5450,-73.2510,-48.1963
-217.4838,57.9324,-206.3783,-62.6454,-244.5939,-174.4068,-240.0465,-194.8454,-239.2403,-261.8754,-315.0220,-191.5497,-206.6931,-295.1521,191.6429,-386.2824,-129.4473,-150.2937,-99.2204
-146.7829,99.9143,-195.8933,-128.9476,-281.3619,-245.5212,-314.0269,-229.4921,-310.0792,-229.6386,-307.7637,-79.7666,-175.5707,-390.8156,169.3252,-396.8419,-47.7317,-192.1937,-131.2689
0.9166,17.3843,-204.7138,-140.5927,-316.0306,-294.5449,-402.1187,-250.9841,-368.1335,-182.4673,-217.1387,-23.8640,-335.1972,-372.0018,149.8139,-421.6696,12.1855,-178.6510,-167.4685
69.8492,-213.6787,-170.2842,-150.4282,-311.1238,-279.0662,-481.5352,-234.1799,-442.5210,-227.5491,-129.3730,-87.3508,-433.1947,-260.1747,129.2048,-366.5671,24.3592,-123.3652,-191.2679
-32.0626,-440.7946,-87.4306,-233.4117,-255.6238,-237.0993,-509.5378,-168.3316,-467.2273,-294.1915,-184.9690,-201.5174,-313.8703,-209.7565,103.1633,-243.8286,-16.2119,-91.9503,-172.3642
-197.9857,-386.6443,-53.8618,-313.2867,-189.5698,-216.5202,-425.7472,-137.0317,-355.7795,-303.5149,-310.1712,-258.4786,-156.2997,-257.3586,77.0114,-228.7205,-96.7381,-129.2946,-134.9966
-295.7810,-170.4424,-68.7903,-313.8934,-145.7796,-205.9538,-278.7949,-167.9566,-205.9017,-254.3715,-336.0757,-253.9848,-141.3915,-279.8756,61.4327,-291.0905,-181.0539,-157.6694,-116.5988
-283.6510,-132.1750,-42.4851,-268.4085,-93.4719,-180.9611,-190.6067,-178.8639,-176.0470,-186.8338,-293.5027,-274.7749,-193.5316,-238.7347,45.5629,-236.6500,-229.8538,-92.1858,-103.7990
-205.5861,-269.6089,15.6078,-218.1594,-15.0996,-137.9405,-196.4095,-148.7511,-252.3043,-162.3786,-289.3785,-342.8282,-171.3222,-195.4508,8.2329,-111.4146,-240.4080,-4.7087,-70.2823
-147.8503,-399.7178,41.5051,-178.2252,36.9982,-82.9657,-249.3919,-136.9092,-305.2649,-167.8708,-279.6673,-375.9304,-90.0163,-162.9368,-32.6187,-89.4548,-241.2734,-9.4115,-32.7311
-141.5838,-467.6135,39.9405,-156.9608,30.3718,-43.0028,-288.7500,-141.0270,-257.2446,-124.9603,-235.5036,-330.9962,-58.6429,-142.6576,-43.2457,-126.9320,-242.3673,-89.9793,-16.3157
-182.7574,-416.0136,36.7819,-135.1265,2.2363,-47.7464,-251.2316,-123.5644,-143.0082,-85.0157,-246.6673,-270.5330,-93.2680,-150.7026,-38.1890,-108.3459,-230.0279,-170.3635,-17.0513
-274.7698,-233.7959,26.4991,-112.6036,-14.9479,-85.2160,-151.8885,-102.8380,-75.2797,-165.8610,-276.5908,-259.2034,-92.9713,-153.8870,-44.5349,-77.2970,-210.0126,-224.1341,-39.8550
-290.5672,-100.2459,-19.6734,-128.3576,-23.8524,-125.8632,-93.1742,-89.0943,-92.1562,-276.1410,-172.3712,-310.3763,-16.5615,-147.5722,-47.9619,-89.7791,-211.8103,-244.6693,-94.7624
-77.9603,-149.8787,-128.8953,-174.6185,-24.2215,-161.6024,-87.7743,-50.0004,-87.5032,-228.3914,25.9963,-412.6209,43.8323,-187.8218,-41.8460,-84.9786,-255.1467,-235.9321,-134.8594
184.1587,-331.4986,-239.9296,-218.9862,-17.5900,-191.2240,-48.9217,7.1246,-15.2082,-54.6613,147.1314,-494.2992,36.5382,-238.5612,-48.3035,-0.0099,-323.5429,-246.5467,-104.3555
196.4368,-527.9962,-237.8953,-283.1255,-24.4807,-221.7667,13.5425,45.0506,24.5879,85.2256,167.1763,-456.5984,33.5810,-203.8974,-59.7442,122.5215,-351.4014,-321.6320,-32.0649
33.3317,-560.9523,-162.4602,-358.0186,-60.9478,-276.4156,32.9493,62.8561,23.9936,148.0272,138.2333,-328.2616,70.1993,-130.4457,-55.3515,165.4445,-279.8915,-432.1013,22.8193
-68.0185,-349.3909,-166.4393,-373.7240,-121.4366,-346.0182,54.9723,56.2203,95.4494,154.4328,60.3681,-233.3468,84.8276,-136.9060,-52.1608,89.5807,-163.8935,-487.0141,41.4731
-85.9332,-159.9001,-242.1702,-338.5149,-184.4375,-370.8198,123.0473,7.4150,199.3528,98.6408,0.6169,-206.1190,53.6022,-196.9531,-61.0576,18.9897,-127.5439,-418.2381,9.1535
-26.5704,-252.3566,-262.9333,-315.0363,-222.3396,-318.1339,152.8380,-41.2146,193.8330,28.9842,53.3818,-222.2219,21.5303,-200.0807,-63.1276,41.8790,-178.3324,-273.4861,-55.8216
118.3594,-423.0362,-217.5575,-290.9318,-217.2297,-245.2485,112.2213,-42.9684,134.2035,43.6820,133.1649,-280.7333,13.5575,-152.9170,-61.8505,56.9582,-208.0597,-189.0135,-61.3968
153.6274,-364.1463,-152.9061,-262.1598,-166.6454,-238.8154,102.8981,-50.9863,167.7838,149.0839,86.2117,-292.6003,24.0683,-152.5854,-70.8957,3.5475,-182.6895,-215.1255,16.5318
-14.8547,-157.8214,-55.1938,-278.4753,-82.6745,-286.7290,141.0556,-111.7252,226.7668,230.2716,-39.4273,-156.2656,46.3034,-198.7184,-77.9622,-6.3706,-155.1682,-243.1345,67.0978
-114.1434,-60.1955,46.5592,-284.9023,-2.3406,-277.6941,115.4499,-150.8453,166.5132,206.3101,-67.6777,-18.8881,62.6637,-183.1845,-83.0180,50.0423,-133.4745,-172.9471,34.8353
8.6168,-135.4215,66.9467,-182.4276,30.3966,-180.9191,36.6780,-112.0181,76.3789,147.8475,32.5295,-92.9900,52.3137,-86.7265,-98.2470,45.8135,-106.8688,-59.4157,-7.6790
125.8374,-278.2173,13.4721,-49.9600,11.3036,-106.5912,54.9694,-69.9204,120.7672,142.6157,115.9391,-261.0089,15.8248,-16.4383,-106.6585,-24.1271,-99.1752,-19.8702,-21.4141
93.9916,-356.1733,-18.7180,-8.3824,-21.8777,-105.6469,165.7427,-99.0555,206.8695,117.4900,83.0002,-264.8463,-18.5937,-2.9386,-102.8141,-59.2734,-83.1597,-63.3913,-41.3971
45.2954,-307.3813,21.0636,3.8892,-23.4832,-93.7984,177.7201,-172.3746,146.1978,-18.8702,20.5824,-134.1948,-10.7717,28.3753,-111.4450,-82.9552,-12.6103,-82.9436,-81.2458
85.1831,-199.2593,94.8179,56.8125,30.4406,-40.0893,49.8211,-231.5693,6.6588,-176.0760,55.6787,-60.2299,37.9184,74.3257,-120.4897,-147.8322,46.1354,-18.9541,-123.5025
175.4708,-125.4547,120.3555,72.1646,102.4010,-4.7143,-39.2296,-252.3161,-36.7584,-250.2220,153.0423,-49.2557,73.3886,76.4734,-104.4370,-178.0749,28.0559,40.7075,-143.3250
234.0115,-53.7843,67.4687,19.6575,114.9655,9.2412,-28.3896,-256.0403,-22.5773,-282.7967,191.2520,3.9877,79.9470,57.7864,-93.9762,-133.4592,8.7866,11.6006,-126.7672
216.9364,80.1468,11.2057,-10.6438,70.8873,29.6023,-37.8888,-283.4298,-43.9586,-274.3559,153.5008,77.4280,92.7957,41.5114,-110.1852,-107.2238,29.8268,-19.9116,-105.7729
154.7982,156.2318,21.2568,2.5632,64.8540,37.9486,-59.4829,-306.8111,-18.7236,-154.5054,92.3606,73.3078,94.1315,-10.9971,-116.3742,-127.5601,9.2603,54.9887,-93.9488
61.7155,9.9203,59.0151,-3.5172,118.9277,52.7464,24.0609,-251.4702,98.2699,-10.5776,15.7433,6.4363,52.1635,-75.2222,-106.2405,-107.5919,-47.5875,150.5984,-40.4897
-55.9917,-184.7381,53.4663,-42.3611,134.3593,112.7243,136.5319,-154.9911,175.8283,9.4810,-55.8175,-24.9739,20.3984,-72.2786,-114.2498,-45.8933,-48.8581,122.5455,28.2767
-33.4578,-111.2001,-17.6918,-86.0612,51.0944,159.9579,129.4467,-125.0300,157.8220,-42.3463,-44.8846,-15.9333,14.7773,-4.4458,-132.6221,-28.8838,-25.2047,6.9494,6.1828
201.0725,60.2064,-124.3009,-102.8209,-65.0274,136.9270,93.7106,-131.6532,147.9188,-43.8729,46.4381,-34.6121,-53.6559,67.4533,-134.0702,-35.8842,-42.5341,-65.3849,-55.1642
279.2282,-86.2283,-166.5440,-52.0547,-109.2377,102.5966,181.3311,-82.3809,202.0118,4.0354,68.9279,-59.1532,-159.3983,96.1181,-124.2785,17.9980,-56.4013,-61.3000,-2.2108
-64.1630,-359.2007,-54.8718,43.8899,-43.5400,109.6364,296.5497,-35.7713,268.2706,72.2645,-73.3081,-34.4763,-146.1541,59.7167,-110.8032,89.0742,-54.2772,-17.1725,108.2780
-404.9902,-247.0814,134.4282,100.5390,68.9827,128.8859,268.2053,-83.9449,275.1997,140.5370,-240.9779,-10.3087,-32.4413,8.8860,-99.5378,82.0678,-81.2959,38.6460,98.8665
-298.0564,112.3069,234.5777,109.9929,129.5759,132.0791,152.2390,-148.6472,206.9746,149.3093,-243.8207,-21.5854,2.0884,13.6990,-109.7944,31.8265,-91.0178,66.8042,2.2162
4.2449,214.7429,206.6429,128.7180,114.5000,106.1119,134.1118,-109.9471,160.3376,109.7512,-123.2162,-5.2529,-57.1483,31.8353,-128.9270,12.7236,-52.8904,43.7683,-18.9126
100.2136,61.7429,133.0089,143.7547,67.7671,56.3063,225.8589,2.2271,204.9408,103.7316,-40.5542,21.7959,-76.8891,12.1270,-123.6774,15.2068,-46.2709,10.5960,40.2442
34.6908,-65.9472,84.9899,122.3018,14.5430,38.9543,250.2288,74.2663,224.7154,112.1652,-15.2835,-29.2683,-36.2107,27.1188,-108.3492,46.3730,-59.1194,14.0034,59.4338
-19.6394,-128.1914,100.4267,102.0334,-24.7256,66.7694,157.7576,57.4989,159.9214,74.1271,-9.1333,-96.6129,-11.5895,90.3073,-107.1754,131.9527,-11.3995,47.8461,6.2371
-40.7573,-121.8158,164.9741,103.7762,-9.4769,77.1811,126.6872,5.5292,157.3640,29.8000,-54.8744,-56.5174,-15.1404,73.0578,-102.2478,169.0300,20.9164,89.1828,-32.8772
-16.1118,0.3635,199.0217,99.8564,48.4630,86.2168,194.9888,-1.5286,199.2534,5.8408,-107.1310,47.9985,11.0655,-26.5746,-91.6027,52.0490,-25.5149,125.4266,2.8496
38.8705,101.6891,175.4742,108.9287,94.5914,157.3493,153.0118,37.7500,82.7419,-41.6769,-63.9398,107.3556,96.2509,-37.8042,-97.3914,-91.3723,-35.5894,146.6169,61.4408
40.6379,64.5150,161.4875,149.5659,128.9537,226.3797,8.1545,77.7351,-69.8877,-78.0954,-3.1032,95.3896,160.0122,80.0985,-98.5236,-65.6698,0.7341,154.5135,79.4245
-2.1630,-17.7150,165.2318,148.6338,161.8159,215.3077,28.6809,129.5761,28.9735,-27.8736,-46.7103,18.3551,101.2806,185.3765,-69.3274,90.7234,-37.1448,152.9108,79.3559
0.2879,-77.6312,102.8222,63.5304,137.3110,183.2264,171.4884,191.5953,216.0768,59.4808,-90.8033,-66.6909,4.2479,190.0235,-41.4848,180.6617,-57.8631,133.6107,76.8696
68.7205,-81.3351,-30.2958,-5.3763,44.4153,171.3266,129.4073,178.3494,156.0148,83.4910,-12.1805,-26.9280,27.6415,132.2115,-38.0949,114.5920,85.9581,107.2226,35.1775
146.9446,88.2696,-113.9945,41.3136,-7.3401,141.8505,-45.0887,84.0024,-35.5781,35.2634,72.5578,161.3956,93.0070,85.2857,-33.9321,-8.3495,239.4350,99.0275,-10.8072
129.1141,354.8076,-62.7761,152.3771,50.6075,128.9503,-57.6396,33.1176,-64.9964,-47.1699,10.4085,329.9365,44.8503,98.9047,-23.2957,-36.3055,220.6896,99.2114,11.2452
-28.7930,430.7629,62.8193,213.8034,129.8462,176.2254,63.1287,60.7814,37.7817,-133.4154,-147.5035,327.4178,-10.7235,152.2122,-28.4240,26.2656,130.7801,91.7623,50.2739
-140.0979,277.7767,128.1147,204.0568,130.6707,210.5185,105.9234,85.9661,87.5522,-155.1441,-231.0962,185.1897,57.4728,165.8929,-47.2990,29.2210,86.1024,101.6690,30.4153
-47.9507,101.5452,93.2624,186.4950,92.1541,186.7383,71.7375,94.1158,56.9124,-42.0346,-170.1111,53.8885,117.3495,123.0547,-66.3428,-39.6891,56.4413,128.9167,6.4254
14.6983,-24.1117,59.9794,190.1427,92.6027,168.0819,52.6193,93.9112,40.6315,123.6263,-103.5479,37.5012,66.5894,109.4479,-82.4272,-21.3395,51.9028,115.3801,32.0510
-154.3074,-77.6577,91.3088,179.3800,91.8133,170.0804,43.7995,32.1249,76.5169,130.9276,-176.3969,87.7679,11.0544,168.7229,-84.7674,80.8934,91.2575,53.2874,63.9285
-247.3516,37.0500,92.1201,131.8852,19.6775,137.8828,16.6455,-57.2706,67.5101,-29.3655,-256.3397,104.7269,-13.2619,197.9773,-68.8951,85.1239,89.7165,22.3812,97.2585
-25.2511,219.4803,-8.3074,60.2037,-47.4053,69.9795,-26.8115,-49.2031,-36.4317,-70.6374,-163.6011,92.7744,-63.0044,89.7751,-54.7124,-11.1426,16.6708,76.3638,176.2027
154.6031,199.6599,-102.8656,-18.5164,4.3080,27.4153,-38.1598,51.1227,-79.5155,94.1279,-50.6549,84.8892,-87.0112,-59.5169,-52.8098,-45.9465,-49.1926,187.9374,270.6578
9.0443,-23.2103,-78.9454,-51.0474,112.6135,72.5485,37.1827,128.9967,15.8849,133.4770,-117.5287,45.8284,-51.4902,-46.0596,-52.8399,-20.6384,-85.9651,296.7919,325.4267
-176.8046,-175.3424,16.9215,20.0596,156.0321,194.0201,127.7294,151.9501,76.8575,-62.8942,-238.0465,-8.9597,-35.6330,114.2812,-53.2291,-48.7726,-125.4416,341.2620,350.8590
-190.5421,-148.4085,89.2825,121.4314,162.7082,258.9600,140.0694,151.7666,69.2501,-94.1001,-265.3161,-7.5951,-35.8345,183.4406,-57.2902,-89.2226,-152.1249,291.5153,360.8657
-207.9717,-96.3679,102.4774,113.2832,184.3731,170.5267,160.6438,145.9237,169.4192,186.7715,-271.9208,18.3566,11.1300,85.1594,-59.4743,-26.4509,-155.3618,190.9904,333.5477
-243.9118,-95.8188,51.1872,20.7505,152.9453,35.6926,248.6131,154.7827,309.3935,340.0859,-270.9520,10.5231,43.5778,4.1532,-62.3905,98.9930,-159.0264,117.9021,269.3473
-124.1199,-26.7406,-12.9780,-9.7231,58.5180,-1.9663,252.6593,169.1855,264.8616,152.9235,-189.6255,12.9945,1.8648,33.9090,-69.9603,151.1178,-154.1694,114.1636,208.2437
39.7995,99.1993,18.9756,50.2014,34.0420,38.9496,120.8657,154.8330,103.8607,1.0975,-98.4896,21.8904,-30.0713,52.5228,-68.7645,113.4884,-115.9800,169.5311,189.5177
65.7463,37.0544,134.8492,119.9523,116.4668,92.3605,20.0298,141.9891,9.3858,117.8362,-73.5875,-32.7960,12.3710,13.0441,-55.6660,85.5790,-63.7334,224.8043,211.2840
63.8420,-210.9426,163.9765,157.1904,170.9870,151.6650,17.2263,164.6712,-13.6709,243.6536,-59.4333,-73.2608,71.1288,23.5629,-47.5347,94.0296,-39.2388,219.4826,231.5596
86.8981,-266.8125,57.8031,151.2440,143.8508,197.1641,51.6708,170.9308,36.1137,188.7063,-49.4710,-9.7959,80.7920,93.8908,-40.7325,79.6416,-57.3150,191.2215,228.9048
-12.5775,-52.8390,-9.3027,106.1245,147.9989,212.4046,123.1462,146.7934,160.2783,123.1460,-80.2972,9.6503,54.6895,111.9164,-20.5457,69.0123,-87.7388,224.9670,216.2204
-141.0734,47.8162,50.4509,72.2514,222.7054,224.1851,183.7337,154.5270,204.2062,168.4630,-96.3052,-103.5716,61.7100,73.3551,-4.4557,131.7533,-84.6017,268.9996,184.8710
-70.1285,-26.4858,94.4990,67.4278,235.1582,207.2053,126.1336,170.3906,103.7222,176.9722,-83.0233,-117.1790,125.6762,65.9732,-5.4272,191.6312,-47.7613,188.1364,136.7383
51.5019,53.9622,31.7955,32.3448,129.5460,106.1807,27.4817,132.8681,27.8710,76.9985,-120.9541,95.0104,164.3632,86.4295,8.7477,156.2650,-24.5069,18.2481,133.9800
-45.8482,186.8208,-30.1438,-43.5813,67.1985,-10.4956,51.3022,108.7965,73.4134,59.5369,-204.7868,277.6640,127.4378,99.6176,51.1629,130.6186,-44.4805,-64.2080,189.7175
-256.5670,-21.6661,-9.8472,-78.6504,158.0221,-21.1504,148.0471,156.9427,159.3475,209.2627,-260.7026,256.6731,97.3854,147.5054,78.8690,216.9733,-85.4404,-25.0824,211.5141
-369.0006,-375.1771,30.8487,-31.4567,252.9771,46.5912,161.5947,182.7834,199.1627,315.6395,-279.0570,200.6824,126.1887,215.2814,72.3577,302.3309,-93.4900,3.5439,158.4788
-403.0602,-361.5438,39.5840,33.4262,200.6681,61.7923,85.5419,121.3232,150.9702,280.0510,-268.4872,223.8868,154.0441,192.6930,68.3669,275.1138,-47.7473,-40.7365,98.1424
-381.3868,-41.6247,35.9071,34.3170,94.3919,-4.8743,17.0701,53.4658,54.3745,262.7323,-227.4003,214.0293,153.7890,103.3288,87.2831,203.1522,-9.2650,-82.0036,60.9295
-227.7995,137.9214,20.9007,-16.6244,64.2906,-56.2790,-8.6777,49.5666,4.9517,258.4535,-174.8028,154.7984,142.0956,113.0158,111.2121,178.2418,-28.1048,-55.0755,15.3212
-6.5686,47.4457,-25.6133,-26.6030,55.3557,-35.7139,-41.4830,78.7061,-24.4935,109.2074,-109.7565,186.7746,97.4081,223.5322,133.8968,203.3037,-43.8382,-4.7713,-26.9117
100.8494,-74.5975,-79.5225,19.3731,-14.4356,-16.5898,-102.9915,68.0623,-95.1252,-29.0058,-52.2439,317.3701,32.3567,238.6186,163.8313,231.8891,-9.7152,-18.1956,-34.1516
49.4789,37.8618,-90.7572,17.7848,-86.9070,-67.8779,-121.3783,-22.2655,-112.5266,92.4155,-71.7352,402.1202,1.9483,92.6788,195.7431,211.7731,3.4508,-85.5942,-30.5675
-26.9716,360.8557,-57.1566,-46.6219,-85.4754,-120.5750,-69.2723,-117.9341,-48.9679,280.2767,-124.7652,395.3480,-16.1422,-39.7030,219.8693,158.7294,-36.4347,-101.2296,-42.9744
7.6057,521.6912,-49.0814,-51.5911,-60.9209,-92.4783,-38.0737,-85.2361,-33.1585,246.0660,-83.5957,384.2879,-75.7872,-14.1367,234.3270,139.2141,-57.0407,-47.8537,-31.6118
103.1443,326.6386,-122.5404,17.6257,-111.8645,-40.5689,-43.3398,61.8327,-32.2306,141.2078,-3.6801,404.6899,-150.4431,95.8802,238.9005,136.7539,-52.6511,-37.4773,49.6814
66.1048,112.4336,-202.2479,44.2846,-204.5440,-39.7836,4.5646,177.3445,59.3092,201.4862,-38.9037,383.3363,-186.3129,149.4244,237.6341,120.6061,-88.2855,-87.2679,155.0170
-127.7423,128.1213,-162.4016,21.7272,-196.4498,-44.8540,67.7896,221.0395,113.7059,323.6955,-146.0770,269.7670,-169.3954,144.8026,234.8933,168.3327,-144.7712,-69.6227,189.2782
-252.4157,123.3896,-45.2446,29.1242,-86.9369,-2.0521,37.7439,259.7779,42.4678,358.0433,-186.6851,128.1161,-123.2830,162.5092,222.1189,271.8423,-170.1075,40.0499,155.7638
-177.9146,-26.3393,-18.3196,43.8045,-45.7791,51.5237,-39.2977,294.5917,-15.0878,348.9779,-154.0298,50.9378,-101.3698,189.1155,188.5122,264.6462,-182.6473,126.2486,141.5678
-24.9753,-59.8756,-98.5480,26.8990,-98.5704,81.5784,-78.6425,287.2928,-35.9083,330.6425,-106.1993,47.4126,-119.0922,164.9772,138.3296,146.2735,-189.8763,163.7713,138.9329
67.8238,69.7106,-138.1434,41.6623,-79.9425,116.2100,-97.7114,245.0166,-96.0006,271.3376,-72.8850,79.4835,-125.9928,131.6947,85.7520,106.6563,-161.1352,216.8018,67.1901
56.0751,139.4280,-77.0150,124.8864,28.8879,176.2295,-101.2342,175.1992,-105.8893,213.3694,-62.8500,122.9508,-104.8608,141.9645,43.8100,163.9628,-120.5020,263.1159,-26.9638
-42.4853,152.8123,0.4595,207.5871,77.7989,229.8218,-83.8963,98.9013,-51.9508,218.1383,-41.7985,134.3786,-79.8789,135.0860,15.4267,190.6264,-115.0799,251.4318,-30.2262
-97.1071,215.9416,20.7655,220.4946,44.9723,236.0577,-89.3345,92.7923,-76.1727,263.7952,8.5633,79.2802,-50.6037,81.8076,-9.4977,194.1317,-127.5396,219.1245,14.8849
5.2201,208.5405,-20.0682,166.9017,12.5422,211.9842,-86.8520,172.5927,-105.3719,297.3268,32.7021,20.0582,-40.0275,77.6023,-37.3151,232.5234,-122.8948,201.9579,-8.4419
121.6853,42.2082,-86.1945,109.1382,-16.2389,210.5160,-9.6694,230.4983,3.6714,287.5257,23.0645,32.4643,-63.2628,137.4806,-65.4709,275.2260,-113.0424,171.1795,-76.0064
45.4132,-129.4783,-119.1938,98.1740,-39.2066,210.2104,85.0228,199.5094,111.9595,253.0584,42.7455,62.6088,-36.2648,126.1933,-99.3389,313.4235,-126.5042,116.7368,-93.1225
-132.3358,-177.5156,-99.7088,93.8767,-22.7288,143.4679,145.2969,149.4527,113.2740,285.8148,77.9773,15.3959,59.8438,22.5304,-136.8874,352.2474,-161.1768,68.1573,-65.4504
-164.3174,-139.5661,-75.0219,43.1660,-8.0864,62.7314,203.5756,148.3583,124.7593,405.2860,87.6220,-68.7309,99.1023,-0.2779,-152.4780,327.0898,-176.6891,49.3810,-62.4951
-19.3299,-51.7537,-65.7122,6.7085,-15.3187,78.7000,198.5629,153.6698,122.7855,426.6189,119.6406,-44.4462,83.9922,121.7667,-143.6693,228.2827,-133.9446,65.6678,-105.4537
142.7853,101.6945,-36.1855,51.1451,26.6582,139.1767,73.9135,104.4536,6.9064,236.0490,189.9017,133.3516,137.2485,211.4900,-146.4306,151.2513,-48.2418,88.4233,-152.5806
218.9281,241.1306,8.8437,113.9983,96.1105,128.7122,-21.5743,35.1464,-75.2440,71.1729,226.3025,280.3908,196.8449,157.3191,-166.1081,145.2416,24.2436,89.9947,-157.3314
203.3851,207.4107,31.1387,133.9252,94.5594,109.5101,17.7263,10.7443,-0.3723,144.0834,208.9834,184.3743,169.8639,105.3857,-171.0996,170.4183,50.9147,105.6404,-138.4667
121.7160,55.6764,58.2739,163.2722,66.2446,176.0501,75.8203,-1.0797,90.0176,222.5176,171.3159,-27.3941,172.7178,170.8290,-164.0352,157.8221,55.1128,147.6264,-161.2635
60.8869,73.8132,131.9795,238.3365,96.7589,223.5244,78.1640,-60.3395,94.0038,76.5101,130.3580,-15.8552,224.8881,213.9030,-165.7980,69.2836,86.7292,136.3018,-218.7097
126.5056,274.3526,202.7462,298.5597,126.4040,137.5726,71.3279,-97.9410,61.3708,-33.2745,128.3997,196.1287,146.2279,119.5738,-157.5360,1.3563,139.3873,68.1166,-212.5158
249.6797,302.0278,218.2067,297.6123,110.8873,20.4100,60.1157,-15.3487,18.1494,134.4305,167.2010,237.9963,-20.8501,21.3864,-125.5094,83.1658,136.0470,65.0544,-101.3365
224.8027,113.9504,231.8044,280.2716,125.3550,6.1784,47.1115,105.3723,-12.9167,308.7177,140.5471,49.3256,-30.6494,31.5927,-99.5719,202.0928,77.1318,125.9432,12.5785
68.3908,95.4894,283.2343,307.2382,170.0578,50.1654,45.3553,108.3048,-11.3343,225.4262,45.4561,-32.4208,113.3509,54.8874,-88.9024,155.0457,85.1081,107.8424,8.0449
50.5834,298.0161,288.5461,352.3480,144.0438,57.9338,-1.6015,22.9962,-30.3738,47.5492,60.0209,125.7502,192.4748,33.1646,-66.2409,28.9157,180.8581,19.3521,-80.2849
223.1164,343.1521,194.0316,342.6929,53.8417,52.5552,-72.2780,6.9761,-68.9543,-39.4921,221.0875,280.5745,126.0830,51.9818,-35.7319,23.8520,218.5005,12.4252,-103.1379
308.2085,142.4030,102.0379,288.0204,24.9067,95.9050,-50.5572,89.4269,-64.2692,-48.0409,323.2384,229.6797,30.7971,117.5520,-25.0991,89.7170,148.6189,96.9365,-30.8150
201.3908,2.5759,101.1687,242.3289,101.9349,156.2610,6.3755,148.8466,-62.4899,14.8874,266.4224,52.4045,52.4192,125.8204,-24.5713,103.3795,84.1718,149.0968,3.2882
140.2661,91.9788,123.2639,179.6609,172.0847,160.1645,-29.3135,112.1798,-97.9608,78.5343,196.7720,-33.4670,162.2031,69.4070,-11.1507,104.8490,72.8436,125.7668,-45.9739
245.0659,231.8581,100.6975,95.0426,125.8797,126.4257,-65.6216,43.9721,-77.8734,10.9361,232.2886,57.9039,172.8151,57.3425,3.1444,135.4734,74.0283,77.3712,-63.1933
304.9224,138.1424,99.2806,96.2262,37.5827,133.1466,-14.7567,21.2513,-15.4794,-76.6335,293.3831,162.5820,95.7572,142.6024,3.8057,154.4035,94.1635,47.1707,-22.2331
167.3412,-148.3292,166.5834,189.0091,55.0539,163.0427,-1.9296,17.8581,-24.3598,-17.1868,267.5316,123.1041,159.2437,235.4601,6.8629,145.4704,133.6669,35.7551,-33.8101
45.8005,-172.0370,202.2752,206.2729,132.4554,126.8860,-66.7231,-16.9133,-56.0498,31.4137,201.6299,58.6967,315.4209,213.0293,24.0858,102.0456,145.6548,-0.4835,-103.5895
193.7714,212.2950,109.8621,99.6567,104.0286,38.6789,-78.6925,-50.5352,-25.1772,-53.7001,219.9024,135.8195,290.7831,112.3594,43.2538,48.1843,139.7766,-81.0725,-118.1439
403.8724,431.8166,-26.6330,-0.1894,-10.4610,-7.6592,-14.6064,-39.9584,15.0288,-51.5022,290.1609,255.0036,147.3022,88.7076,58.0307,84.9573,152.4897,-132.0134,-56.0332
278.3037,132.6655,-48.8161,-42.1417,-63.3322,-18.3912,49.8509,-18.7212,51.0723,112.9930,267.2175,234.7401,140.0294,130.5347,70.7324,186.8861,160.8527,-99.0744,2.6456
-7.3959,-190.8101,32.6258,-77.5617,-62.0320,-69.2311,77.6814,-16.7951,97.5890,190.5865,184.8391,111.6234,215.9511,74.2136,68.5778,167.0230,168.7873,-64.5254,12.1220
68.6705,-96.2632,49.3470,-117.7108,-108.8498,-141.2399,35.0515,-7.9357,61.3407,104.9582,209.3400,72.2513,216.0819,-50.8859,45.4289,41.8516,221.3913,-111.2973,-7.4634
377.0320,188.1071,-48.6698,-162.6415,-180.7469,-169.2601,-26.0394,3.7143,-18.5738,3.5874,287.3009,206.5236,190.7974,-60.2354,26.0640,23.8848,270.0680,-183.8334,-4.1342
344.7100,382.2648,-115.1071,-215.2474,-196.2982,-182.4044,39.8449,-22.5707,48.8129,-78.1735,222.1130,392.9164,195.1207,19.3100,21.7403,88.1088,236.8987,-201.2920,43.0208
34.4049,445.7630,-62.3088,-232.8312,-166.3276,-227.0023,176.5466,-63.3245,183.3995,-135.4691,72.9745,431.7089,204.1705,37.2261,7.7566,63.6039,183.7018,-172.8286,75.4333
-83.1872,237.8215,29.8558,-201.1898,-142.5848,-234.2630,175.2551,-53.8040,159.4011,-85.2003,51.5033,290.0907,243.1967,49.1936,-13.4947,33.0568,206.7437,-129.4480,49.9575
-39.2059,-257.4449,96.4430,-150.7462,-137.4549,-131.6744,81.0639,-11.4718,82.1754,42.0638,125.2129,104.0464,280.9104,149.4929,-0.5036,110.8056,262.6192,-82.6135,17.2999
-40.5223,-554.2522,132.2519,-78.9509,-146.0469,-12.6289,73.3412,-24.5554,117.8820,119.6122,137.5939,-7.3184,239.4198,198.9038,49.7002,127.0601,265.1228,-70.4912,8.8008
56.6827,-226.4273,93.9031,-25.5152,-160.3633,-22.9908,87.4256,-103.7833,110.2224,89.1465,125.6553,22.6040,202.4728,79.1677,103.9581,-12.2229,229.0245,-108.4317,-3.4132
248.6613,356.0488,-7.9562,-77.7587,-162.6459,-129.2744,20.4134,-141.3678,-15.8624,-49.9570,164.8828,172.9978,248.2190,-54.2491,171.5151,-82.8394,204.8163,-123.5341,9.6252
267.2947,480.1911,-54.2004,-169.8036,-148.9666,-175.9704,-5.1592,-73.9462,-39.3055,-197.3519,174.5607,252.6679,240.9009,-40.2451,274.6005,15.7853,186.5054,-67.8452,86.1316
164.3565,167.8962,-14.1958,-154.4670,-127.1589,-124.8947,80.4575,8.9553,78.0667,-183.2731,117.1137,149.4085,124.2618,52.3314,369.9529,60.5409,162.6037,-15.0923,154.8111
116.7024,64.0307,25.8925,-72.0981,-83.7088,-52.6756,145.0864,14.5219,131.8562,-61.8414,73.0790,58.1221,68.5129,112.5896,406.7563,-63.2196,170.1675,-20.8817,147.9625
5.2010,262.9516,61.9458,-32.0713,-12.9518,17.0485,126.6201,-19.5273,102.3311,-48.3029,41.9492,125.8850,127.6943,128.4998,415.9831,-180.4876,220.3438,-19.8585,106.4300
-140.8614,259.2670,126.6985,-1.3165,33.1204,89.9582,87.3367,-44.4375,82.1739,-110.8843,-11.3497,199.7647,163.4699,86.3225,450.6167,-158.9333,231.9488,24.6669,73.4107
-57.7495,59.8210,142.2475,34.5480,10.7045,112.6342,40.3237,-72.5401,23.4051,-95.0374,-8.6034,178.9086,138.1388,-7.9344,496.1746,-69.6179,136.9660,42.6260,51.4558
131.3978,87.0811,55.9563,-8.7930,-29.2193,65.3117,-0.3108,-59.4075,-55.4637,-57.3883,73.6531,137.1997,131.7442,-45.2351,519.8675,-7.0818,4.9389,8.5987,54.9276
128.0617,182.5038,-53.9534,-113.7063,-28.4874,16.9648,32.1363,44.5965,-15.5007,-32.0352,115.1492,52.6697,158.0638,25.0461,539.2769,22.8500,-46.2521,-17.2635,66.7940
58.0657,12.3033,-115.1660,-170.2661,-34.0446,9.3863,96.9703,125.6523,81.6556,87.1047,82.7709,-81.6374,176.4154,84.2289,570.3608,54.2117,-8.3812,-13.4362,42.2458
92.4404,-129.7217,-101.4594,-142.7864,-95.1287,26.5980,68.0049,59.2130,52.9242,182.9392,63.5402,-83.8779,158.4939,66.2831,584.7586,96.3592,42.4755,5.7138,-0.0289
103.7372,-15.5741,-4.0341,-43.6873,-147.4944,62.0633,-34.2262,-60.8916,-52.3034,60.7905,68.0402,77.8737,88.7712,64.7750,580.2355,107.7778,54.5485,50.9846,-24.8699
84.7721,34.6499,83.4800,97.0752,-122.7208,94.9596,-79.3681,-95.1610,-86.1785,-97.0280,57.7983,159.1282,10.7983,106.5208,605.9907,57.2504,26.7454,108.0677,-52.0683
122.6663,7.4280,60.0523,199.9732,-51.8779,95.4229,-66.3284,-84.8313,-90.3833,-89.7644,41.7005,65.9092,12.0148,97.9627,664.9092,-0.3489,1.0497,143.0172,-82.4312
75.5178,244.6510,21.1191,235.1973,6.4713,99.5180,-91.4099,-111.1956,-144.8820,-114.4060,22.6207,-28.6167,83.2928,37.7627,690.5009,-1.7934,25.8378,166.6470,-95.9937
-56.2490,502.5891,82.1590,253.8717,10.7132,135.6512,-156.7881,-140.8163,-194.7283,-243.7554,35.5808,-29.4576,104.7645,16.0028,654.3944,23.8518,78.6785,172.3049,-127.1044
-1.2993,277.3929,138.0115,259.7862,-71.2931,137.2547,-205.3151,-130.6908,-200.3579,-181.7219,157.4146,-12.2699,26.9178,38.2418,593.5013,41.2166,93.0190,115.1319,-181.4011
199.2426,-163.6355,82.7492,224.6796,-190.3553,74.6249,-226.3068,-97.0199,-203.8656,56.5487,306.5705,-22.4926,-52.2562,50.0331,531.6691,76.6772,69.2247,31.0087,-182.5738
259.3168,-190.7042,8.3519,176.6416,-231.9757,23.6475,-195.0438,-46.9919,-195.0507,78.5094,298.7870,-21.1800,-48.5360,50.0178,471.3683,110.0173,54.7747,-3.6609,-116.8691
210.2579,124.7328,-12.6966,140.1093,-185.5301,11.7982,-75.2033,12.0703,-115.8865,-108.7331,173.9361,-2.9716,-16.1033,61.6970,427.3565,79.6651,49.8600,-16.5847,-60.6455
186.6882,226.3009,-33.2366,114.9044,-150.9151,-9.8901,58.8908,34.3538,14.3620,-132.7844,110.4631,-35.7075,-32.2582,66.1550,399.9503,29.0093,28.8830,-52.9847,-36.5085
117.2740,52.9022,-60.7092,115.0298,-153.2979,-35.8451,101.3598,15.6010,99.6070,24.3072,109.6935,-130.4928,-71.3425,14.6674,373.0703,28.9712,-10.4458,-57.9507,-10.0258
44.3659,13.1342,-60.4022,106.1107,-119.8863,-24.5146,90.1937,36.0588,82.9444,111.7506,107.8834,-193.1983,-83.0152,-88.7704,346.6402,25.1097,-63.1294,11.8248,25.5601
93.1287,98.2133,-59.3962,44.5413,-30.8622,20.3180,112.1865,127.9882,33.6616,115.2232,142.8127,-209.6087,-74.3213,-148.0726,302.5949,-14.1022,-108.1490,113.9965,64.7030
103.4623,-60.3986,-61.9924,-1.4976,50.0950,78.8399,149.3441,193.1898,76.1970,108.5937,169.4822,-266.9247,-45.6044,-110.3898,207.5901,6.3369,-112.1658,197.0548,102.2212
-72.7780,-286.8003,-17.3732,14.8479,77.4326,121.3071,164.2152,157.0804,188.9075,24.5345,66.1596,-319.9836,17.7147,-62.4440,107.4655,73.3753,-96.2016,221.4118,126.4418
-216.6924,-153.6463,53.5718,9.4914,67.1717,105.7569,168.5170,93.8089,207.0945,-104.4381,-80.3435,-266.5159,59.8430,-58.8235,85.9272,34.5882,-107.1620,174.2520,156.8243
-114.1646,80.4600,82.1198,-24.6641,57.7626,54.5679,168.0267,80.5698,125.4654,-115.9939,-53.3640,-198.0693,7.8710,-41.1373,113.9174,-98.6127,-109.7288,116.7850,209.0823
147.7765,69.3420,91.4447,4.9322,78.0021,27.4159,202.6823,69.1345,159.3503,-21.0882,148.4787,-215.8669,-86.3501,-23.7969,101.7847,-179.9188,-36.7991,101.0310,235.8040
376.5062,106.7558,152.1379,47.9116,140.1202,13.7109,322.1912,19.7229,348.7867,27.4956,318.9810,-244.5500,-90.3662,-71.4664,55.3647,-197.5385,75.9484,95.1230,206.2528
424.9948,214.6118,248.1855,5.9934,220.8168,-10.5876,409.0447,-9.7838,412.2767,2.6855,335.1586,-264.0304,19.2839,-112.4997,45.1985,-160.3850,134.3784,75.6340,159.6432
297.6839,-8.1408,302.4092,-48.0223,258.4944,-18.4971,292.4440,0.4042,198.1930,-11.3954,276.9320,-311.9683,116.9770,-88.3153,107.4180,0.2894,119.2676,50.2881,119.6120
204.1428,-186.7316,289.6810,-56.0742,224.5497,-28.3157,69.6924,-13.6007,-48.1964,1.3385,273.6924,-281.7769,109.0293,-102.5872,213.3152,129.0147,80.2352,-3.6442,82.6682
237.5764,184.3091,251.9897,-96.1982,178.4773,-82.2868,-20.2386,-69.5808,-83.1328,-24.9306,310.0615,-167.8573,58.9913,-174.3516,260.1383,-38.0528,49.7168,-68.8591,68.6178
214.2252,392.1489,227.0299,-147.6377,186.6530,-115.1411,33.6986,-112.3266,-6.8469,-82.1180,279.1667,-170.5835,45.9684,-169.3138,193.7520,-295.8280,33.3378,-85.2370,70.7911
88.2155,-81.0637,213.0590,-113.3853,227.7870,-62.8740,81.5357,-109.5006,-7.0336,-28.4313,198.5500,-249.3559,15.0098,-94.2815,144.6988,-230.0051,52.4243,-100.3347,49.8274
77.1308,-256.8855,192.2933,-76.6725,241.4956,-12.7474,76.1571,-94.5870,-56.9782,147.0860,181.9924,-161.7821,-76.9238,-92.5196,218.2600,-48.7768,125.4956,-186.8605,15.0785
225.3787,424.3640,149.6963,-152.6993,217.7242,-41.5471,54.7902,-123.2705,-49.6133,144.9734,232.5476,9.5393,-112.0936,-165.4095,266.3907,-266.9104,200.5804,-238.5697,-9.4145
336.3423,945.3142,93.4596,-222.4554,202.0767,-62.5573,48.4141,-178.5317,-0.2177,-212.2693,273.0996,28.6641,0.6654,-184.2147,147.8148,-694.7134,194.8063,-131.2324,-43.7354
319.0318,609.3318,75.7537,-136.3816,242.7109,13.0842,82.1714,-166.1264,25.5898,-593.0484,284.2304,-38.7389,155.2434,-96.6599,-7.3723,-703.5171,132.0359,30.7825,-73.3421
230.4689,46.4303,117.9852,0.2396,312.6342,117.6570,139.4228,-84.6480,46.7487,-624.2197,258.6679,-52.4294,217.3342,-3.3925,-32.3862,-303.4842,118.6947,69.8457,-33.1082
153.9194,-49.9958,127.5253,-12.1816,305.3703,129.6877,183.6060,-58.9007,126.3879,-427.5667,196.0802,-37.5183,179.3155,-44.4541,30.1638,-59.9083,176.2855,-14.4286,67.7237
213.3146,307.0591,33.3462,-147.8148,193.5661,55.6349,213.2370,-110.1376,217.8458,-326.5551,200.4859,22.1751,87.1353,-153.7805,57.7970,-156.8665,267.5356,-86.7158,124.9986
454.1417,727.5913,-48.8127,-177.6019,114.5223,33.0370,177.2384,-133.1973,143.4384,-389.0237,361.9100,147.6047,6.6176,-100.7324,37.9523,-295.1211,421.5959,-52.5319,68.7064
710.0854,873.3754,10.8991,-7.9694,161.8863,116.5971,1.1641,-136.8615,-147.7586,-478.3483,577.9869,198.1119,18.7308,68.0866,61.8946,-303.5323,614.5504,42.4713,-47.8347
795.6122,774.3641,121.5326,164.0745,211.7561,165.2627,-201.5428,-197.1232,-396.0818,-454.7535,686.8936,93.6330,90.3718,52.3201,158.7949,-260.5007,677.8406,80.8128,-107.1913
706.9329,593.4597,137.9546,156.3401,119.9336,91.9515,-236.4222,-239.9866,-357.6548,-302.8033,664.2317,-66.4421,92.4270,-106.1701,200.5010,-186.7610,550.3659,60.1343,-90.4255
545.6998,257.2920,108.4045,77.2039,-39.1075,44.4183,-155.9567,-185.4173,-185.9768,-187.8703,572.1981,-218.0904,26.3215,-94.6589,117.5776,-58.1904,398.8110,83.5018,-107.6655
418.6341,-74.7489,131.7917,95.7569,-103.1619,116.2883,-141.6884,-139.7311,-159.2541,-238.7131,464.9105,-329.4829,5.3328,12.0632,68.7681,14.9208,328.7114,142.4940,-191.0657
378.0369,76.8534,158.5598,158.8920,-74.4323,155.0534,-175.1284,-195.4118,-224.8590,-342.5200,377.1758,-293.2996,17.0954,-79.2110,151.0329,-56.6166,256.1642,139.6950,-211.2499
335.7394,537.8470,124.9881,147.1902,-61.7355,80.2847,-140.1538,-257.5283,-180.7200,-353.0509,290.4311,-120.8389,-20.4603,-244.1007,199.8746,-143.2662,134.7499,96.2192,-101.5166
189.7074,606.3412,83.3658,85.2725,-73.0700,40.5268,-59.7946,-218.3524,-64.3781,-279.2865,169.8445,-16.7166,-50.0022,-189.2303,103.0693,-109.2425,28.3379,83.8283,33.0218
61.8321,300.6076,66.7681,48.5574,-64.2248,94.5229,-12.3816,-108.6048,-18.7536,-151.2332,77.3034,-61.7967,1.9779,-6.8097,-28.2214,-38.8200,-32.6423,68.7069,97.2959
130.2610,152.3754,25.6935,45.0889,-88.2219,113.1197,0.9059,-16.9247,-18.6392,13.0592,93.3598,-85.7287,39.7701,58.8100,-109.9338,-18.2000,-71.9544,25.9280,109.8106
262.5294,171.7630,-32.9535,46.5451,-178.8980,61.6110,11.3432,21.4720,9.1304,125.9255,141.6888,18.4043,-15.4124,22.3477,-166.8160,52.0369,-112.6759,15.3971,119.7227
184.9244,134.4081,-36.4233,33.4851,-229.8451,38.8027,16.9761,38.1372,15.9369,145.5299,91.9469,115.1318,-48.6288,15.3368,-189.9697,204.2031,-167.3512,34.1002,143.3823
-50.4481,109.5392,0.5550,20.9974,-196.4893,58.5969,-19.9678,66.9176,-42.2573,141.0783,-24.6026,81.0118,22.4860,49.0822,-160.4670,279.5350,-210.8138,10.8143,155.1605
-178.0965,80.6269,-22.1039,42.5877,-198.8715,51.0015,-93.8658,111.3786,-84.6032,168.9147,-100.0492,-11.6112,67.7614,68.9239,-108.0943,241.5485,-219.5120,-41.6377,127.0686
-181.0459,-88.2136,-127.8915,80.7644,-263.9668,9.3008,-109.4340,185.9719,-49.2657,248.4813,-135.7042,-78.5676,-14.3055,68.6460,-47.2307,261.4439,-246.0628,-55.8790,86.6218
-208.4008,-222.3694,-221.2290,93.3227,-259.0629,-23.8679,-58.3930,271.1976,-35.5209,366.4821,-168.1712,-122.2892,-107.5999,85.4729,18.4509,371.7085,-320.1074,-31.5740,49.1172
-224.8404,-105.5808,-219.1519,101.4170,-159.6810,-40.6484,-94.4373,261.7314,-140.3747,410.2722,-164.1152,-92.6055,-101.4914,122.6856,51.6001,402.9044,-363.0634,-0.9640,-38.7481
-169.3577,53.7551,-164.0695,135.7478,-75.7047,-51.6112,-223.2019,155.5779,-247.5426,299.8908,-122.8852,37.8062,-67.7241,142.8419,39.9232,335.7361,-335.3594,42.7220,-154.3609
-178.3388,-57.2167,-159.8334,158.5648,-38.8968,-41.3772,-238.8009,136.6998,-209.2282,155.6378,-114.0086,123.1746,-74.3687,142.2262,20.7491,362.8882,-299.2303,109.2075,-175.1088
-293.0392,-309.3677,-201.3985,138.3337,-8.7893,2.6710,-141.6920,242.8460,-119.9618,135.3928,-147.9971,78.1888,-60.6179,129.1029,4.2405,529.2878,-275.8847,172.9381,-104.4402
-327.9933,-304.3860,-168.1951,111.5447,33.7161,54.1407,-135.4490,270.0222,-117.9535,242.3381,-175.8623,34.6785,2.1069,94.4079,-41.5282,617.0077,-228.4808,216.5100,-58.7727
-245.6219,-48.9679,-28.7008,126.1659,118.7474,94.2524,-174.2127,186.2845,-115.6053,384.4442,-194.6849,48.2305,51.8615,107.2820,-119.9321,507.6465,-143.1380,261.0165,-21.2704
-207.7532,23.6021,96.8862,181.5819,243.3168,142.5861,-75.8819,186.6552,-24.9191,456.3445,-209.9045,25.7238,79.0455,223.1730,-185.8473,395.3795,-20.7646,298.0533,86.2687
-219.1915,-151.2539,126.1324,201.3046,309.4125,177.8219,75.3756,271.1305,58.7440,412.8767,-185.5978,5.8240,116.8969,275.0630,-201.3594,442.7437,79.7872,254.2393,187.5883
-168.2996,-190.5856,91.1880,93.6371,255.2893,129.5550,139.0846,266.6743,107.3994,354.2145,-125.9940,81.4693,121.6015,117.1583,-178.4057,486.5799,49.4379,119.0153,183.7897
-98.1750,-130.8239,29.3084,-84.5620,148.9712,18.3715,185.5221,189.3901,206.0555,381.3723,-92.2091,153.8387,49.0585,-55.5822,-150.6019,361.1410,-57.1165,12.0817,129.0465
-105.9706,-346.3165,-22.3032,-153.5028,75.7647,-43.8521,251.9107,158.3047,310.9075,415.1599,-118.4064,107.9901,-39.0278,-38.2088,-111.2506,214.6841,-55.4017,0.7437,99.1561
-193.4251,-658.6739,-5.3172,-85.5772,41.4734,-36.1287,268.2433,151.8405,339.2018,343.6721,-191.7130,3.8100,-86.9432,45.8663,-21.4140,195.1006,22.0276,-13.1493,79.1121
