Fp1,Fp2,F3,F4,C3,C4,P3,P4,O1,O2,F7,F8,T7,T8,P7,P8,Fz,Cz,Pz
-111.4528,-45.5043,-39.3667,-120.4962,-108.2650,-160.4566,-72.4893,-83.1252,-4.2158,-73.6493,-114.9484,-40.3866,-52.3906,-68.3772,-54.7926,-85.5094,-35.9200,-43.6282,-112.6235
14.4925,111.1361,108.7742,109.4051,73.4504,85.6117,55.7458,15.9341,61.3053,-13.2321,25.7773,112.6038,51.1314,114.6026,-0.6795,18.9120,113.4949,117.7799,99.5374
149.4224,195.2750,234.7005,217.4351,188.0532,240.5679,128.9145,128.8775,80.3446,109.3004,166.0922,167.3648,104.1475,201.0436,14.8948,110.5314,204.2061,194.2919,220.3450
169.3674,120.2123,226.4568,146.4911,154.1970,234.1716,106.2576,188.2017,51.0062,162.0102,187.3464,77.6766,52.5155,145.0690,21.5204,122.5078,191.7587,159.7967,201.0703
137.5602,16.9503,159.2616,94.5069,109.6398,225.7912,92.3728,222.4149,55.2334,143.8598,137.3456,1.5995,4.1857,123.7066,49.0477,113.6907,160.7115,150.6680,191.5179
178.0690,-16.0485,138.6900,94.3188,119.2621,222.8441,87.1054,210.7884,48.1583,108.3553,164.4843,0.7508,31.6143,147.5856,6.4599,100.0657,138.7730,176.5082,149.5594
227.4761,-6.5668,122.2394,64.2017,119.7959,158.8671,58.7989,136.2063,-27.4879,58.7205,232.7023,-14.5197,74.3258,109.2180,-69.8631,66.9164,94.4439,157.7725,48.6360
149.6734,3.9672,45.5334,55.5834,104.6980,140.1026,73.6956,117.1569,-50.0537,55.7672,164.0775,-47.1807,63.4475,72.5158,10.4737,66.4141,35.4665,112.5198,91.8268
8.2719,-18.8769,-40.2028,66.5592,89.0783,194.6603,107.2081,189.1899,29.0348,133.7369,3.9330,-36.2255,14.1132,100.0276,164.4439,96.6489,-27.2882,60.8227,254.0124
-37.2478,-84.3497,-88.0718,-28.7070,34.9116,149.8280,49.6633,184.9143,50.0566,158.0780,-40.1880,-40.5718,-2.9633,81.7413,104.0332,73.7927,-106.3982,-11.8870,235.3778
-19.3405,-128.8560,-134.5721,-192.3666,-46.7497,-8.5512,-46.4504,54.9540,-10.9645,61.6993,6.2761,-122.2557,39.9446,-14.0004,-91.1573,10.2418,-187.9848,-40.1845,38.5531
-54.1360,-97.2418,-170.5587,-255.8039,-99.8463,-101.5798,-66.6851,-41.6338,-1.3759,-17.2371,-7.7371,-180.5002,67.4034,-70.5185,-89.2678,-16.1647,-239.4779,-8.7615,-92.7306
-77.0941,-23.7070,-134.1651,-206.9703,-131.5756,-110.5278,-47.1633,-55.9738,61.3362,-26.4844,-37.6318,-120.6607,20.8202,-68.0057,77.9071,-28.4655,-236.6744,-37.3877,-143.0360
-14.0494,19.4011,-62.5455,-137.9984,-157.4672,-144.8338,-37.5722,-72.3581,73.3101,-52.8417,-29.1390,-20.0741,-23.2245,-79.6911,126.8972,-65.8096,-167.0405,-119.9433,-180.0511
-0.2112,-11.1891,-43.4916,-79.7775,-143.4238,-188.3297,-3.7084,-80.4505,100.0751,-62.1986,-79.2532,19.4444,0.8025,-105.4582,55.5247,-70.9113,-76.3846,-122.2835,-150.0362
-99.6583,-77.5302,-60.2145,-55.7073,-102.0372,-192.1278,32.5243,-56.6582,157.7832,3.8628,-163.1050,10.5209,20.8762,-121.1148,41.4307,-27.7831,-52.3335,-100.9974,-103.6452
-130.9557,-72.0654,-55.2389,-88.9887,-89.3393,-206.1725,14.9445,-77.5695,105.6535,30.9944,-143.9237,-0.0790,1.0328,-137.7098,64.3607,-26.6562,-88.1840,-176.7415,-147.3006
-36.7924,21.9705,-28.5413,-133.3012,-91.4517,-251.4417,-31.6206,-148.4994,-23.1730,-46.0779,-77.6721,-5.6710,22.9004,-140.9203,17.2921,-89.8523,-85.7036,-231.6531,-196.4831
2.7491,84.4142,17.0854,-145.1530,-79.2051,-281.0239,-79.7807,-179.5134,-53.7608,-120.8713,-82.1580,-16.3090,69.3832,-125.1306,-53.5473,-124.1706,-32.6134,-168.5948,-166.2500
-44.2577,65.0780,65.8613,-129.7392,-97.8351,-278.2738,-143.5203,-168.3402,-29.7063,-155.4522,-101.7419,-35.1708,4.7109,-126.2086,-64.0580,-95.3840,-3.0127,-127.8991,-138.9023
-48.0263,35.4929,55.5700,-69.9359,-150.6199,-225.6750,-184.9367,-151.7047,-75.5017,-192.5022,-90.7156,-41.1760,-145.3557,-120.4442,-44.7538,-69.4639,11.5723,-136.1022,-139.9418
-31.3930,15.6809,3.7898,35.6928,-140.1576,-101.2150,-151.1751,-97.0852,-111.5134,-189.2241,-95.8640,-9.5050,-187.9225,-46.3279,-44.3666,-68.8344,66.4544,-40.0060,-106.7935
-48.6466,-5.5466,9.7781,111.6973,-47.8564,10.0572,-78.1175,-31.3816,-70.0486,-134.3626,-77.4723,28.7523,-83.0872,42.2085,-33.6868,-55.9812,111.5383,88.8486,-71.1269
-8.1495,23.4895,49.2321,113.2105,10.5627,6.3033,-32.5367,-45.5518,-47.5401,-105.9206,5.6718,28.1220,3.6384,37.0729,13.4870,-38.9018,73.4240,48.0412,-67.7801
67.4406,77.3457,8.6627,77.0047,-18.8923,-49.3501,-21.6590,-89.2173,-52.7849,-69.3253,53.2624,12.3973,-17.0690,-39.2650,47.3295,-40.4129,-7.2710,-76.4116,-31.6186
23.4142,36.8752,-94.6128,17.1000,-67.2049,-54.7158,-20.5946,-34.4023,0.9757,67.4413,14.0949,9.0770,-62.6938,-84.9536,15.1843,-24.1907,-70.8350,-93.2603,47.8483
-67.1183,-67.0754,-164.6749,-66.1362,-87.0748,-43.4270,-19.4132,83.1514,58.1406,226.8003,-16.6546,-13.4420,-62.8549,-82.5338,-49.4917,20.6489,-122.6502,-58.3666,94.1250
-25.1358,-87.9925,-180.8743,-109.8412,-87.3552,-56.2067,-17.7097,136.2615,35.8037,286.8984,4.0562,-51.3160,-44.8893,-82.4361,-63.8396,30.5698,-145.7671,-73.8130,88.2158
49.2397,-40.1977,-152.3384,-82.3538,-67.3112,-51.0496,-8.9549,117.4012,13.0353,278.0584,13.8224,-52.9784,-41.9056,-102.2113,-4.6398,-4.8406,-110.7387,-80.6686,70.4959
-8.7937,-33.3741,-94.5181,-50.5966,-38.2805,-35.8450,7.4880,97.5533,43.1257,265.5720,-16.2193,-32.3942,-49.6829,-115.6634,49.9880,-13.3736,-65.9455,-47.3095,69.6750
-92.5320,-41.0542,-63.9967,-48.6780,-27.5148,-52.8560,11.4189,99.3966,35.2552,238.7698,-47.0603,-30.2767,-53.5505,-91.7639,16.0941,20.0395,-48.6956,-27.4983,100.5197
-61.1448,4.7109,-59.4617,-26.7968,-8.6541,-48.8284,0.7946,106.0881,-35.1856,178.6685,-31.1658,-18.8329,-29.5819,-32.0084,-61.4427,39.6195,-2.5685,-12.1306,148.5277
20.9618,56.2846,-11.1292,26.2364,58.6835,23.7253,13.8521,96.4538,-76.9945,90.4543,31.9343,15.5577,25.1036,16.5409,-62.1516,28.6381,90.2206,23.9049,177.8273
64.6177,62.4644,58.2735,64.2535,127.6566,91.4303,45.4174,57.8071,-73.2112,3.9784,84.3314,26.9096,57.1826,22.1613,-4.1392,10.5878,154.6020,40.9926,183.6606
73.2894,66.5312,73.2730,85.3098,125.5267,102.0443,28.3402,16.9662,-80.7251,-33.6469,97.8986,23.3015,41.2336,24.7075,-31.2073,2.0307,168.8382,37.0419,180.2178
64.8652,108.8702,67.7045,131.2292,77.4766,114.5248,-29.4365,15.4871,-88.4477,-30.3771,115.7299,58.8106,40.0868,66.3008,-134.3201,19.2997,189.6259,56.0286,178.2509
68.0510,164.3170,95.0204,202.1821,60.2496,167.5531,-33.5124,45.2560,-46.6561,-23.1825,148.5302,111.4268,77.4727,109.2091,-132.7160,56.9896,223.9760,77.3368,201.6051
112.4477,195.9274,117.6114,243.0463,82.2464,223.5120,33.3285,76.5794,36.7350,21.2732,157.5129,123.7859,78.9559,103.6711,3.9150,82.9683,228.5983,72.1787,251.1924
166.4641,191.4745,120.9109,215.5885,96.0206,249.2425,99.7163,116.2807,110.1400,113.4622,150.3198,103.8931,35.1124,79.0230,91.9493,97.9349,205.0238,90.2826,283.9351
181.9296,158.0394,140.7859,156.0989,86.1300,234.0943,128.7977,161.0311,124.6778,156.6437,147.0659,80.4926,38.0710,81.0057,41.7000,116.9999,184.2971,145.2817,274.5540
156.5805,121.0470,152.4224,129.0637,79.9920,183.7059,125.7401,166.2314,75.9488,127.7080,122.8589,54.7831,95.1487,88.0878,-30.0470,119.9952,159.7440,155.9489,237.0431
111.0665,106.2858,118.4339,131.4426,95.3570,140.5834,114.2871,133.0461,35.8501,133.4504,88.5596,36.7608,116.4482,69.0154,-16.9617,113.9616,109.6507,101.2054,200.8357
73.3064,96.7963,76.7188,109.9030,121.0985,126.7103,146.4241,118.3167,71.3354,178.8617,85.8710,34.2156,91.0585,47.2246,53.5345,133.7270,57.8077,62.7839,193.6787
53.1742,46.3419,58.3632,64.9820,139.3834,106.2682,216.1848,115.7830,132.6160,147.7801,82.8135,24.2397,78.0225,53.4684,111.9105,139.5309,50.5580,63.7164,183.7964
20.6802,-28.3711,39.7937,48.8359,138.2292,80.8754,229.0059,74.2011,124.7749,36.4332,43.4429,3.2869,81.0517,88.4402,124.1218,87.3132,80.0202,47.7544,105.8237
-13.8293,-41.2881,20.6397,74.8046,116.9621,105.4202,158.0582,25.0453,56.5426,-48.2358,27.4165,4.4368,82.7048,140.4178,95.3276,43.1644,95.3557,25.2205,1.1029
11.7031,24.1079,32.1610,111.7767,99.9794,165.1848,90.1626,20.1268,10.9072,-69.0790,73.3822,27.8686,100.1702,175.1237,71.4373,48.3307,90.2349,55.6346,-40.2773
73.7957,76.9859,72.3601,139.1923,112.9882,188.6557,70.4024,20.7695,15.2685,-58.7291,117.1081,31.8142,123.8181,153.9806,98.1635,37.0812,99.1306,115.7086,-52.0627
84.8792,66.4829,101.2592,151.9575,133.1398,178.7959,59.9105,10.2856,27.1501,-35.7177,111.2985,8.5740,114.8844,109.0685,134.7935,9.7724,122.0126,145.9294,-78.3993
55.3680,36.1189,93.9437,150.1648,114.9566,188.7845,30.9903,51.0902,8.5046,-11.2925,82.0361,-0.7981,77.9470,112.3324,82.0328,38.8527,135.0023,158.5993,-49.2079
45.9940,21.9839,76.8493,146.3252,61.9132,215.5298,-13.4282,117.7461,-34.2690,1.7307,51.5695,27.3668,37.6782,154.6972,-52.4589,82.3134,130.5164,177.6658,29.4598
45.6657,24.5135,81.5716,147.5908,16.3744,225.0235,-53.9230,114.7510,-62.1724,5.8846,25.3042,67.7026,-11.7789,166.9259,-123.8636,63.4033,97.3180,179.7799,48.8226
39.3839,40.8907,78.2517,138.1589,7.6700,218.4019,-46.2683,83.2641,-48.0345,8.4243,18.4482,80.2284,-62.1380,141.2715,-58.3202,41.0312,39.0896,171.4937,46.8444
45.4629,41.7284,35.5525,101.9634,40.8643,211.8773,18.8458,110.4265,-15.7433,8.5201,19.2106,54.0206,-73.0957,119.8604,37.8054,66.7769,-1.7523,195.3953,123.2191
35.0866,0.3757,-5.0392,47.5509,85.1119,202.9809,71.4383,125.2737,-14.1898,-4.6605,-8.6004,20.6559,-44.6011,106.1798,51.4803,66.1079,-23.6835,232.6462,180.3617
-22.1579,-45.4187,-16.8279,2.6343,90.9331,178.2950,54.4012,50.0260,-50.5572,-42.7190,-55.0149,17.7222,-24.3783,79.0509,6.1244,17.0738,-73.1894,220.2303,104.3366
-70.7152,-60.8713,-35.4132,-16.1712,71.3473,135.6333,7.0601,-36.2065,-79.6436,-92.4262,-72.5861,34.0219,-27.2259,46.3990,-24.8350,1.1987,-121.3902,146.2917,-2.4293
-45.3268,-76.1705,-49.5552,-29.9996,86.4982,95.1579,-1.6932,-69.5143,-65.5429,-126.6641,-51.9862,31.1064,-27.5195,31.2951,-20.2960,16.2886,-102.2189,47.3521,-31.6466
29.6089,-110.3748,-18.2315,-70.2112,118.9927,70.1978,22.5843,-91.6263,-30.5236,-142.9216,-20.2688,15.8590,-24.0701,35.5807,-2.3201,-12.3163,-63.1897,-43.8636,-41.7343
62.5330,-143.8836,10.8394,-124.3330,96.1148,38.7006,15.1901,-107.9159,-23.9828,-149.7978,3.1022,16.2409,-32.6473,34.0065,-2.5143,-57.4259,-81.9844,-121.9038,-88.6757
6.2557,-170.4861,-11.5669,-150.1325,26.5402,-10.7490,-43.3251,-96.3773,-50.8725,-146.9507,2.3622,13.4660,-41.2446,3.1802,-23.3427,-45.8733,-116.7657,-211.2030,-137.8344
-49.6925,-171.0509,-32.7978,-133.8002,-31.4197,-44.6301,-100.4488,-99.8606,-68.5913,-150.3665,-21.3204,-2.6486,-43.8845,-37.9212,-27.3304,-11.9758,-109.4366,-309.4818,-170.1408
-1.1391,-111.2496,-24.8530,-98.2305,-77.8681,-49.8965,-119.9409,-135.0471,-60.3912,-176.7411,-25.3157,15.4369,-63.8021,-46.0847,-8.8552,-22.5723,-94.5551,-345.6236,-202.8692
67.6090,-29.9754,-39.5877,-74.7336,-122.9635,-60.2371,-116.0644,-146.2878,-48.9487,-194.9599,3.0409,67.4985,-91.4276,-20.9159,-11.4262,-46.8781,-102.0142,-284.2062,-227.2089
25.8497,-6.3561,-82.1320,-80.0930,-130.5564,-80.0230,-89.4906,-122.0318,-23.4909,-158.0811,2.2351,74.0038,-86.9696,-6.0675,-25.1993,-28.8424,-112.0737,-204.0386,-207.9048
-54.1385,-38.9142,-112.7248,-100.2837,-90.4924,-81.6234,-25.1149,-103.3693,52.2342,-74.4304,-45.3432,16.9547,-62.5778,-26.7193,15.2780,5.7229,-127.7874,-167.2821,-135.9471
-71.8635,-75.4622,-131.3964,-107.0831,-42.0911,-77.9917,50.6525,-93.5672,138.2538,-1.2927,-66.5258,-37.7872,-52.6499,-65.4764,100.6092,7.8897,-159.9114,-127.7467,-54.7093
-92.7205,-95.8586,-134.3816,-90.3127,-5.0179,-86.0598,95.1849,-66.6570,146.5900,27.9512,-37.7418,-59.3003,-36.1857,-80.4398,151.0912,-7.5655,-183.9142,-56.1243,1.8681
-129.3759,-91.4128,-103.8897,-55.0717,24.5412,-67.3456,108.6527,-12.3390,95.8917,42.4763,-15.4258,-53.3394,-0.7057,-41.4621,152.3979,-2.6979,-182.4773,-8.0300,64.2652
-86.1239,-60.0281,-74.4725,-18.0638,38.3767,-11.2457,121.2657,51.2303,96.3755,74.7137,-13.4884,-20.7528,5.5393,21.3036,159.1930,20.7111,-160.7584,-8.5857,144.5728
-19.0542,-35.0395,-75.5279,-8.3282,36.2347,13.8751,146.2228,77.2308,159.3882,96.8503,-10.3889,-0.8398,-26.8964,38.3855,183.9158,43.2658,-119.8583,-9.7519,178.4110
-41.3167,-41.4031,-71.2054,-22.5521,31.0639,-24.0707,152.4685,52.8029,179.6084,79.7397,-18.1315,-31.4207,-41.0668,-6.6937,185.2634,54.7619,-76.1481,10.4054,134.4549
-64.9999,-59.8257,-46.9351,-19.0179,21.6138,-65.2029,105.3371,32.0112,125.9829,52.4854,-25.3086,-64.1434,-19.4680,-60.4086,153.7944,42.0814,-57.9973,18.5793,69.8738
-6.0796,-64.5061,-29.9755,-0.0041,7.2910,-66.3487,48.3562,36.0981,87.3822,36.4945,5.7894,-51.0412,4.3645,-74.1429,132.3765,5.4074,-57.5486,2.4636,33.2600
21.8139,-48.5080,-14.7351,-11.3173,-2.5271,-55.9333,47.3503,26.1229,106.7284,25.2156,41.9584,-31.5080,10.4174,-49.8658,139.6911,-23.5446,-48.3581,-10.5230,17.9273
-35.1159,-23.7316,3.4696,-41.1342,-22.8224,-60.6728,58.8292,9.2747,120.1159,42.1688,27.3092,-35.7253,-7.6608,-31.7756,136.8741,-24.3928,-30.6863,-14.2219,-5.6236
-67.2589,-9.2120,-5.6107,-34.1751,-69.8838,-69.7078,18.0049,21.2368,83.4604,83.6131,-8.7058,-30.9180,-34.0742,-56.2058,104.0399,-13.6180,-7.3218,-31.1990,-64.4282
-36.1848,4.6898,-26.5837,10.5592,-101.5964,-73.1629,-17.1186,35.2219,37.0919,85.9232,-15.7220,-3.7139,-26.2915,-87.8756,76.9964,-1.8781,30.5443,-51.5911,-139.1424
-3.5490,35.4521,-12.5715,49.3287,-72.8663,-72.9967,2.9900,20.2284,23.9500,60.6376,-8.1668,18.7610,3.5404,-69.7066,67.0488,17.7213,62.9529,-39.7961,-177.0523
8.4060,56.0452,12.8383,53.3966,-28.1386,-67.4742,10.0677,-6.8402,29.6805,79.3408,-18.5743,18.2986,-5.1346,-35.4267,38.6777,34.5255,55.2228,-9.0664,-186.8535
6.5364,51.7968,8.7772,30.2611,-25.7266,-59.7933,-15.0378,-39.4703,23.1317,105.5320,-42.2400,6.0272,-31.6993,-46.9320,-1.1333,31.7765,22.4171,-1.4902,-212.5218
7.2338,66.1386,6.9150,29.0250,-20.2065,-58.3119,-2.5273,-72.9623,6.6595,78.8336,-42.2007,20.1055,-8.8489,-64.2795,1.1870,14.5278,11.5270,-4.1298,-231.9621
38.0601,107.0401,30.6085,73.9876,43.5063,-52.3308,35.5380,-83.2633,0.8886,56.8728,2.3415,71.8160,32.5202,-27.7667,43.0439,-8.9328,22.6849,21.6798,-215.6857
67.9328,131.7299,37.7580,100.8961,97.7378,-19.1254,40.2896,-83.1004,-3.0059,69.2712,44.8025,101.2909,27.9701,27.2887,54.0577,-29.7636,18.0013,69.4305,-191.7084
61.9673,141.6765,19.2521,67.5456,69.7280,38.6957,31.5391,-80.9686,-37.8696,49.7613,38.8086,73.3593,5.4163,57.1588,-0.4052,-23.4778,1.1911,115.3698,-156.1139
80.7847,140.4413,25.7015,32.4256,25.3050,89.0643,23.1489,-32.1243,-95.9256,-3.8632,33.1067,42.2585,5.8813,70.0363,-61.5569,4.0472,11.0674,141.2901,-74.8886
142.2103,85.5524,65.2321,16.1746,40.2687,99.2496,-6.5804,31.8458,-116.0804,-50.4517,72.3310,35.6451,7.9577,53.1980,-51.1096,-4.9122,44.2319,118.3263,4.8308
148.1668,12.3534,94.5117,-26.6063,68.7263,61.6242,-13.0871,6.5354,-71.2704,-100.1693,100.9388,16.8984,8.4668,-0.6112,10.4338,-62.0502,66.2051,62.9639,16.2657
89.2398,13.0445,104.3279,-64.2697,66.3974,8.1692,30.1839,-67.6344,-22.6979,-122.4927,88.6336,-8.9532,33.8219,-33.2590,24.0353,-91.1060,76.0623,45.8428,-6.8093
55.3253,38.2523,108.0305,-62.5979,70.8082,-20.0243,38.2252,-64.8168,-32.0877,-76.3282,77.3038,-20.5885,53.9781,-24.3277,-35.0807,-53.0226,76.2936,66.8349,-2.1690
28.1323,-19.5112,81.1076,-103.7068,86.2823,-33.2213,-18.0711,-16.8368,-61.5963,-25.4955,54.0320,-48.5073,17.1893,-37.6622,-87.0676,-5.4079,34.1078,56.5007,24.5074
-41.1497,-96.1024,7.0966,-195.1081,74.6720,-67.8814,-46.7217,-11.1734,-44.2373,-2.7507,-13.1755,-82.5235,-47.7446,-83.0001,-77.9240,8.3634,-47.5468,22.9730,40.8684
-81.2503,-80.8706,-69.7865,-197.9966,56.0780,-104.1088,-23.9755,-12.4526,-13.4606,34.6848,-70.6342,-60.5075,-69.9222,-91.7865,-25.5475,5.6092,-105.0896,19.0165,38.8386
-60.4710,-24.4549,-108.0351,-95.6081,58.8627,-93.1965,-13.4627,10.9426,-30.2645,41.2023,-78.6038,-4.0473,-48.9645,-49.0341,35.0942,-0.1462,-109.9616,24.5994,42.0895
-51.9659,-1.5060,-112.5098,-8.0507,55.4583,-37.8851,-5.8016,28.1773,-33.6630,3.6393,-67.8176,24.2963,-39.0714,6.4365,63.3005,5.5352,-86.6966,30.0934,88.8631
-45.4014,27.4507,-82.8013,59.2780,46.6962,28.6595,45.3225,49.9594,39.3024,32.6430,-38.2849,51.5315,-42.5960,66.5678,37.9454,42.1736,-40.7648,83.4818,161.2225
17.4105,82.2812,-16.4996,145.8285,63.8367,75.1350,94.0475,57.5151,77.7322,59.0881,15.1507,106.3524,-20.1138,117.4723,-3.8171,59.8272,23.1999,145.1866,181.3737
84.1129,111.7920,39.3648,179.4979,73.7002,70.8740,70.7032,-2.9648,1.8829,-61.9097,49.0413,133.7613,9.8523,118.0818,-27.4828,5.9206,68.5896,117.7633,145.9380
118.9429,126.3142,50.0737,157.8992,43.5720,55.7437,9.1306,-29.9917,-30.5516,-119.4176,78.7522,123.6190,9.4508,96.1995,-39.0463,-33.2930,99.0947,48.1221,147.4874
186.9040,184.2728,68.3334,207.4402,21.3810,124.0832,-7.6411,88.3598,70.4375,59.9403,159.5866,151.9411,24.8665,130.8247,-31.0403,23.7540,165.2221,57.5425,196.2693
268.8105,256.4604,142.7467,327.4926,25.0298,237.6163,10.6464,194.6579,104.5549,150.9413,232.6441,225.2819,93.6704,192.5932,-12.6482,68.7088,252.7301,124.6275,184.2309
273.5371,264.6342,212.5950,391.1574,2.8939,253.9143,-20.0079,137.9119,-22.5730,2.1968,214.0062,253.2011,130.1109,167.4907,-36.3743,10.4688,287.4161,150.9838,83.8027
241.4422,217.7341,190.4795,382.1797,-41.3420,186.5055,-101.7347,63.5075,-92.1413,-21.2642,155.1678,206.9059,76.0987,68.2483,-84.2274,-44.6917,260.8136,127.5791,-4.2912
252.7391,177.9944,101.2710,353.7745,-57.4451,153.6318,-152.7879,67.8029,-29.9501,103.1548,129.1494,159.5076,30.0054,25.8382,-94.5544,-38.0703,230.4297,87.8094,-38.9658
251.3147,138.4711,46.4998,289.8911,-51.6498,133.7603,-163.9533,11.5868,-57.5621,-17.1052,109.5547,146.7055,62.5151,51.8382,-123.0606,-68.4616,204.7648,38.5317,-76.3860
179.7190,61.6313,40.8210,197.5789,-44.8921,79.3774,-184.1433,-100.0554,-206.5764,-244.3298,60.8574,119.1986,86.2666,39.4925,-225.0431,-125.3243,136.0658,14.2564,-112.7733
90.0668,-11.5302,-0.8751,147.5439,-28.8538,78.1533,-190.5671,-92.4109,-245.6563,-156.0890,-3.3551,63.7164,41.1600,-3.3414,-291.1355,-89.0334,27.3198,62.9150,-91.6450
1.9564,-28.6260,-81.1806,134.0405,-25.4762,144.4861,-162.6681,-16.1160,-159.9622,19.9669,-63.8957,29.3324,7.9238,11.7996,-257.2035,-11.7850,-49.5537,147.9277,-39.6415
-119.0037,-36.3515,-97.5794,77.5047,-61.4125,144.2984,-168.1136,-50.3809,-159.4633,-119.4020,-107.9628,3.5982,42.0474,36.0561,-232.7708,-29.0102,-67.7490,167.9481,-14.8134
-223.6750,-87.2992,-59.0621,-18.0808,-104.0681,61.2610,-216.5883,-143.1698,-249.8696,-334.0072,-132.6645,-66.9088,82.0118,-19.7423,-258.7133,-97.0875,-82.2297,86.9458,0.3767
-237.2761,-136.1568,-86.4335,-60.9912,-125.0202,10.5285,-219.8135,-152.0225,-261.3324,-277.5157,-144.8980,-135.5927,80.8372,-82.8500,-260.3650,-109.7010,-114.7515,-24.5199,20.8304
-205.9596,-143.6933,-162.9113,-28.1240,-142.2666,1.1071,-178.7080,-105.4589,-189.5468,-110.1018,-136.9596,-131.1061,68.0110,-71.3048,-245.0342,-81.5351,-124.0818,-93.1971,7.4783
-222.8503,-148.4867,-172.2815,-16.8537,-162.9783,-32.3195,-181.0094,-77.3642,-153.7361,-54.3637,-114.7768,-109.7460,49.7858,-64.3363,-242.9345,-49.4204,-122.0573,-122.7594,-36.7474
-281.1451,-167.9333,-140.3305,-100.5506,-183.9884,-82.9939,-219.3060,-53.7770,-154.5271,-38.9351,-119.1760,-145.2811,-5.4363,-121.4692,-208.9116,-7.8148,-161.7585,-131.7778,-66.4051
-303.8852,-174.7724,-146.5454,-204.8918,-208.1475,-122.2200,-217.2658,-18.8442,-113.8466,14.5775,-155.5579,-193.0269,-63.0208,-161.7809,-161.0939,20.4646,-206.4708,-97.3120,-72.3758
-265.6577,-165.3539,-143.7198,-207.8410,-203.3071,-134.1411,-164.0750,16.3580,-36.9683,60.0172,-177.0180,-192.6881,-48.5583,-131.1894,-155.7518,21.8392,-183.1567,-19.2763,-53.3064
-221.9515,-128.0363,-95.3624,-105.3028,-147.8733,-84.7734,-93.3326,56.1267,14.8372,82.1016,-159.8526,-146.5569,13.2375,-66.3444,-130.9282,36.5511,-120.9321,61.7470,-4.2647
-215.4206,-35.1959,-62.3835,11.2176,-93.7593,9.3498,-28.5489,99.5069,33.6651,110.2259,-116.6418,-67.5259,36.6214,5.4638,-45.6088,78.1662,-81.4458,139.8050,39.2775
-196.0269,55.7913,-40.8531,74.6216,-60.5359,72.0503,13.2909,134.6098,53.9575,144.1322,-66.1237,1.5181,31.7667,56.3015,10.1583,113.8323,-46.8059,207.3677,69.4384
-106.4669,41.3193,31.0962,64.3676,17.1242,72.5725,48.5432,151.9887,83.7368,148.9855,-29.0844,-9.6190,61.3319,36.2663,28.2360,121.2657,12.0999,186.8266,132.6245
-5.9292,-64.1161,121.7066,-17.5946,135.9485,17.8625,118.9195,125.2700,110.7471,90.7798,-1.1380,-85.4701,99.3388,-39.8146,104.7910,83.8272,68.7974,56.8135,200.0624
19.3997,-147.3876,164.9655,-136.7298,200.3553,-91.0779,211.2145,45.5162,133.4501,-7.9755,42.8124,-145.9984,96.4492,-95.9763,206.7204,1.9445,92.4117,-62.5080,193.8263
11.0946,-151.5948,161.1301,-236.0712,191.6672,-203.3138,262.7185,-29.6920,151.8419,-76.8923,90.7148,-180.0918,89.8526,-99.4528,242.9943,-66.6395,78.3557,-97.1996,146.9421
52.7743,-110.8948,129.3208,-276.6508,169.7749,-258.1250,264.7854,-47.2557,181.5202,-89.4753,118.8240,-222.4272,116.2036,-81.5131,277.2549,-73.8540,43.7304,-121.7551,131.5164
120.1046,-85.9237,97.8967,-260.3225,154.6507,-286.8974,281.2778,-31.4665,258.8676,-81.0992,139.8444,-265.9393,140.5153,-90.6727,391.9807,-53.1627,32.2653,-174.2167,133.8715
157.2841,-99.7882,108.5174,-218.2967,159.8210,-323.6171,347.9936,-16.9741,362.6790,-72.9030,154.7752,-282.3251,148.2874,-134.2187,514.3431,-48.8267,73.1200,-188.0483,147.2550
185.4990,-100.0635,151.6099,-164.6721,224.2660,-306.9673,423.9373,15.2207,415.9487,-38.8998,159.1229,-249.2687,174.8296,-135.0043,565.5447,-45.3581,149.8029,-153.3499,197.2720
231.6825,-24.8690,209.2492,-73.5473,328.2155,-200.1729,473.5528,81.4335,420.0334,41.6206,193.4328,-157.5026,221.4216,-24.7449,589.4678,-13.8960,247.0309,-122.7854,245.0181
275.3276,93.0366,309.5126,63.9243,414.9148,-73.0182,516.0005,144.5667,432.0276,118.7637,252.4411,-40.0055,252.2598,127.8644,624.8268,35.6381,354.6724,-76.7400,255.0167
314.6648,179.5051,413.9525,198.9283,484.0753,8.3614,542.6502,163.7576,418.3546,116.5117,259.1528,65.0013,259.5595,210.9545,626.2222,71.3340,424.5361,19.1287,257.3108
368.4813,229.1334,429.7220,283.5755,546.6312,56.4418,504.4669,153.5855,340.7581,58.8275,232.3291,164.2632,261.2178,227.9266,582.4393,83.7055,422.0663,97.0282,246.2361
411.7187,255.3579,384.9359,319.8964,568.2525,111.9401,428.3662,154.6468,283.3466,31.8934,256.5445,256.6052,249.3373,243.2095,560.3163,97.8486,369.7001,89.9505,202.6983
390.0667,219.7955,341.5684,327.2053,518.3279,186.7408,374.7393,166.1537,271.3350,25.8415,263.1527,309.0691,176.9533,274.6756,553.7916,124.9767,263.0233,53.2297,163.8245
273.0479,117.2475,225.4800,316.5843,388.5229,259.7058,281.4771,161.1485,167.8624,-3.6738,128.2221,316.4261,25.1589,305.0255,440.9331,139.3053,71.6904,67.9957,114.4103
82.3533,32.3131,9.3454,303.5335,200.2269,318.9719,83.8146,158.6476,-50.7353,10.4474,-67.9972,294.5796,-125.6983,304.9716,202.6704,143.8817,-126.1281,124.8920,21.0681
-87.8358,23.8462,-148.7518,298.4986,47.1371,374.7805,-84.6700,200.5408,-187.3996,114.2145,-148.9232,251.2656,-172.1780,258.0420,12.4352,180.3900,-193.0084,176.3911,-8.8805
-132.3263,41.0685,-151.2368,286.7136,7.2630,405.7748,-80.7489,256.2722,-141.1268,194.6150,-102.1031,213.6984,-124.6893,198.4526,-24.1572,230.3468,-140.4733,208.8378,80.6880
-64.9314,18.5890,-85.5922,244.1472,14.8974,373.6456,-2.8867,246.9284,-52.0965,167.2067,-47.4808,196.3673,-68.3600,148.2782,-19.5772,221.9594,-99.2292,213.9601,117.4063
-4.1946,-26.0895,-34.8766,166.6417,-28.8502,304.7369,-10.4866,169.1163,-44.9227,122.4344,-58.1234,159.6407,-38.4380,70.8879,-88.8983,158.5250,-104.3128,167.5056,19.3075
-17.8137,-53.0276,-7.0276,64.6210,-104.9560,239.2472,-86.7155,90.4196,-83.9081,146.9371,-107.3074,86.7133,-30.8788,-26.5358,-209.7931,103.9140,-98.0051,72.0284,-59.3556
-84.8122,-86.8453,-12.5969,-62.4225,-175.3861,136.7771,-164.1846,19.0506,-129.7870,167.4517,-136.0157,11.2130,-54.4185,-88.2745,-344.7477,51.1248,-93.5668,-39.9371,-81.1782
-172.4638,-162.2098,-54.0101,-207.4015,-272.1685,-32.9098,-262.7581,-99.3776,-217.6922,73.5151,-134.9639,-63.6309,-107.4389,-141.8584,-478.8606,-48.0914,-148.2458,-158.3302,-169.0249
-236.6968,-234.9301,-111.3723,-316.8481,-386.3566,-192.0695,-379.3648,-247.0092,-332.0128,-105.6021,-133.7369,-143.5356,-169.2302,-233.6205,-557.7929,-161.1424,-216.0817,-281.1905,-287.2405
-225.5518,-239.7759,-163.5376,-342.6932,-449.3480,-265.9075,-439.5711,-336.8033,-383.5580,-234.9614,-134.4124,-189.1129,-214.0322,-293.8567,-566.7305,-221.8870,-195.1731,-360.2605,-317.7320
-170.9057,-199.7882,-172.7458,-324.6306,-455.2689,-287.2716,-420.3427,-359.8679,-362.5988,-258.4030,-134.2651,-197.0638,-212.9841,-270.3533,-582.2123,-242.6062,-99.9696,-359.1205,-304.8896
-163.6593,-187.2965,-132.4027,-329.9320,-447.2632,-321.1720,-381.1881,-380.2298,-357.9359,-247.7292,-153.8241,-217.6496,-176.3861,-241.4282,-632.6276,-266.4472,-46.1521,-332.9903,-315.3699
-201.9665,-203.4909,-112.6067,-349.4948,-428.3007,-374.6277,-367.3799,-398.7776,-387.9808,-262.6573,-169.9464,-240.6399,-158.5368,-248.5762,-635.2098,-284.8868,-75.7857,-341.6331,-308.6858
-208.6122,-187.3651,-143.5275,-348.4222,-389.6064,-404.6948,-368.8835,-378.7857,-374.1959,-291.8391,-137.1993,-215.0325,-165.5703,-229.5487,-531.3157,-281.7346,-123.8683,-348.8456,-287.6118
-178.1221,-134.9007,-164.9841,-338.3210,-341.0307,-370.3878,-356.2462,-348.7276,-294.0963,-322.1655,-90.2241,-161.2240,-150.8002,-171.0528,-373.4090,-269.3682,-145.7911,-307.8799,-308.4406
-145.0190,-110.1720,-161.1618,-318.9380,-272.3408,-280.2506,-311.2069,-332.6650,-209.2305,-334.0399,-72.1072,-127.9997,-112.1663,-115.5605,-250.7274,-242.4165,-153.7882,-241.8517,-350.3897
-81.2472,-118.4439,-161.9123,-258.8044,-167.3136,-182.9598,-239.9579,-280.4721,-162.7595,-285.3320,-33.4593,-105.2101,-76.5604,-64.4500,-182.4263,-184.8609,-146.7841,-167.1176,-367.2526
16.8729,-83.3412,-133.8814,-175.1028,-40.0122,-103.9311,-163.9574,-171.6556,-145.5720,-177.7560,46.0542,-64.4941,-35.6650,-26.2648,-104.9839,-109.8583,-118.6346,-61.5153,-353.4312
60.2777,3.3845,-64.9143,-121.9443,87.4338,-33.6968,-83.4447,-56.8402,-110.2426,-47.0734,82.0679,-16.0759,12.7529,-32.7808,23.8925,-25.6404,-100.6851,59.3477,-282.1185
17.7060,46.7943,-34.7343,-107.8117,189.3257,24.6016,14.3494,32.3421,-21.0571,78.2701,44.7709,7.7442,47.0150,-47.4815,149.0554,65.4503,-112.5150,141.5215,-149.6426
-13.3108,19.6161,-61.2426,-98.4596,227.3345,55.9999,91.3868,85.7078,56.0857,128.5581,20.0623,-6.8208,66.3968,-17.7860,204.7128,115.3254,-125.4186,164.2547,-55.2867
25.3034,7.6674,-60.1695,-54.0621,205.8961,75.4378,85.4923,88.7930,37.0429,61.9645,51.1359,-28.6831,74.9084,21.5791,211.0604,97.8859,-109.2309,160.0846,-62.1433
69.2523,46.2502,-4.1843,48.3700,189.5761,115.9522,27.2102,81.2456,-5.1235,-6.1426,76.0822,-11.7739,73.4852,40.2727,210.4025,80.9868,-50.7528,182.6151,-81.4249
64.1249,88.7220,62.0934,173.5938,209.3704,175.8942,7.3299,109.8641,29.4308,28.8589,51.5963,41.7889,88.0268,82.7547,195.3456,103.1701,48.8392,241.7276,-40.5184
39.2841,135.2125,119.6502,256.5855,221.6477,215.3424,18.2733,122.0559,56.9727,74.7735,24.1037,90.7866,111.7449,147.7419,162.0404,104.6067,138.1794,274.3243,-5.0430
35.2338,212.9113,162.8439,292.6590,194.6420,212.0922,-10.3447,72.0214,-10.3371,49.4510,44.8578,112.6153,87.9056,166.6691,137.7180,73.7379,153.9302,240.2165,-17.3561
53.5812,270.9063,181.3805,309.2476,153.3800,187.1701,-53.1600,37.0927,-79.3813,41.9040,80.6492,111.2744,27.8779,143.9261,114.9853,74.7412,116.4202,188.4373,-8.7744
63.1368,247.5825,178.9183,290.0673,115.6373,165.1232,-51.5462,75.0239,-83.8288,107.2750,67.3622,99.3525,3.7665,145.8868,51.2052,105.8286,83.3912,154.9117,39.6045
20.3770,176.6183,137.4012,233.3513,65.7270,151.1778,-45.1362,124.8507,-97.3331,169.8923,15.3557,89.2665,9.9944,167.8530,-40.5922,123.1906,50.7931,116.2313,53.9548
-69.5932,128.7166,43.0594,193.8533,5.1960,144.4793,-75.9847,129.0680,-138.1918,171.1087,-17.3057,82.8267,-5.3538,158.1841,-85.7596,131.0645,10.8355,84.0560,26.4461
-128.8825,121.9467,-39.8210,186.9487,-43.3231,126.7118,-94.3447,84.3271,-140.7573,109.9730,-16.6814,79.8442,-35.8939,115.8174,-56.5802,115.3384,3.9225,79.8010,17.8452
-108.5860,129.4202,-55.8321,159.0739,-76.6691,71.4790,-60.7366,1.5223,-93.4087,26.5642,-0.7009,80.3438,-59.3213,66.4815,-6.5386,53.9408,19.5045,47.3430,27.2045
-61.1354,111.7693,-54.4944,76.5814,-99.8039,-3.3780,-7.8235,-60.3294,-22.1063,21.2906,25.5436,62.3068,-72.4300,20.1181,18.9156,18.1581,-15.1254,-42.5362,31.1241
-43.7246,51.5037,-79.8644,-34.9176,-102.0078,-53.4175,23.9687,-40.0478,47.4916,122.6143,52.2910,13.6976,-61.0319,-13.5990,21.6081,55.5876,-99.3556,-117.0826,52.6421
-35.2024,-19.7831,-98.7416,-120.3702,-91.2408,-80.7002,19.8555,3.1961,72.3719,196.5434,67.2023,-25.4363,-32.5299,-43.0273,6.2819,72.1192,-153.9355,-150.3483,72.3896
-11.4201,-64.7273,-97.4822,-144.2074,-105.0546,-113.6058,-4.0690,-23.8638,57.8951,154.0374,78.6327,-25.3125,-9.8787,-93.2656,-17.8798,13.6864,-142.6779,-199.5204,31.8875
5.8563,-80.8903,-86.8643,-125.0233,-138.4689,-131.4509,0.7425,-77.9492,56.7590,85.2865,91.4029,-9.6617,27.3268,-132.1859,-25.2097,-32.8473,-85.8032,-248.6475,-31.9630
18.1519,-75.0496,-35.2659,-98.7596,-131.8516,-94.1286,47.1597,-65.9587,59.8197,77.1256,94.4288,9.3436,78.2578,-95.7778,-20.9270,-21.4237,-6.4388,-236.6737,-37.1261
46.3627,-62.9632,54.8915,-82.2989,-80.4023,-29.1532,75.7603,-14.5604,41.4247,93.5970,83.1988,36.6275,78.9631,-12.2053,-34.4298,2.5078,61.6543,-204.9411,-0.4795
55.8183,-65.4151,98.5027,-95.0149,-59.6342,0.2406,40.6634,3.9621,41.7791,89.7257,57.1088,50.8696,24.3920,35.7921,-59.6040,27.4013,79.4832,-211.3200,15.7489
14.3965,-52.8609,59.5370,-125.4458,-105.9952,1.8512,-42.1541,12.7247,51.8151,93.7319,20.8744,56.9460,-19.0228,54.7904,-80.5877,64.2075,47.5332,-201.0357,-3.3447
-28.5901,7.9474,7.3996,-106.8408,-176.1701,30.4850,-135.0088,67.1906,-5.4518,151.5241,-9.2133,90.6051,-40.4853,94.2208,-105.0455,95.5372,-1.3196,-122.0766,-54.0100
-41.8506,63.2540,-10.5595,-37.1191,-224.6838,65.1177,-186.1210,141.9888,-93.0599,241.0526,-39.3896,124.2121,-63.3430,117.5081,-126.2462,116.3382,-44.7810,-37.8404,-113.0806
-69.6099,62.5102,-29.4139,-12.7554,-237.3324,26.6133,-168.8595,166.9805,-112.8975,269.9542,-82.8796,111.5666,-71.8631,72.7067,-139.0500,117.9842,-78.0915,-22.9711,-137.1822
-105.8217,45.0244,-74.7791,-55.9763,-228.1387,-77.1550,-154.0418,110.7856,-114.9202,190.4552,-104.9092,84.2317,-71.0045,4.3788,-160.1084,73.4356,-99.2621,-55.8450,-144.2725
-93.9454,32.5491,-112.4508,-80.1092,-238.5973,-144.4747,-205.0872,2.1519,-174.2765,66.0879,-89.8010,63.3613,-98.6608,-28.8073,-159.1504,7.9182,-111.5829,-60.9266,-186.1451
-69.0618,-4.4989,-118.8892,-62.4932,-281.7078,-133.6205,-250.7266,-92.3802,-211.8222,-26.5576,-95.1425,10.5440,-150.3419,-43.3577,-98.9238,-28.4603,-130.4398,-0.0375,-231.3511
-89.7027,-46.1376,-129.0778,-66.4565,-310.2794,-105.2180,-227.0659,-129.0458,-175.4182,-75.0925,-125.8244,-54.4159,-187.5635,-60.1872,-45.0646,-42.0428,-158.7428,88.6841,-214.9630
-104.1840,-52.9628,-163.5518,-104.0650,-282.4241,-92.2056,-184.5478,-123.7039,-132.3064,-83.9283,-107.5924,-73.6640,-178.1307,-60.1785,-44.0761,-40.8095,-164.0147,136.8482,-141.5991
-75.3377,-44.1991,-169.5821,-131.1217,-208.0928,-60.2499,-130.9905,-102.9940,-64.4933,-54.1782,-50.7909,-70.6759,-112.3480,-45.8070,-5.5629,-9.7641,-130.7853,124.7427,-40.6128
-69.3870,-39.7256,-113.9483,-136.7783,-131.3235,-16.6605,-15.5634,-70.9639,80.6696,-7.5033,-29.5049,-78.0775,-39.0144,-42.4246,103.2180,17.5165,-105.4359,80.8588,66.9497
-89.9118,-24.1788,-56.3215,-132.0667,-88.9239,-8.2024,112.5321,-35.0274,193.4493,38.6309,-19.7540,-63.6947,-10.5283,-45.9057,176.6061,18.0542,-107.8369,29.0189,137.0219
-46.0775,-0.8016,-34.8827,-105.3967,-59.5233,-19.8588,177.3371,-4.1554,197.9803,84.2341,32.7599,-29.8435,12.7141,-48.8457,197.1768,42.4606,-76.5187,-14.7348,154.3494
65.4342,16.0002,2.1054,-57.5784,-4.4437,-26.7980,202.9429,14.0328,210.9592,117.3995,91.9165,-17.6984,69.4409,-66.4981,242.0852,87.4638,-2.4183,-39.0891,160.8132
150.9324,43.6440,62.2367,-22.7500,35.8099,-63.3155,221.2495,3.0970,275.4432,116.3820,116.4888,-12.6885,101.8277,-85.3050,282.4712,75.5970,19.3655,-58.6640,173.5871
155.4364,91.4557,74.0833,-18.9471,15.2477,-116.3408,233.1350,-17.7276,291.8800,80.2687,112.2744,-0.6637,86.5087,-72.2600,265.5266,21.1385,-36.9807,-83.7051,175.6332
90.0003,107.0917,39.5443,-34.4216,-8.1866,-118.0982,253.9153,-1.0913,260.9979,45.9673,75.4880,-22.2513,85.3235,-53.4762,237.8869,4.6921,-82.9826,-91.2396,169.4827
12.9388,41.2884,21.1499,-61.1914,4.9248,-96.0926,250.9238,33.3291,237.6936,58.3102,22.0100,-72.6917,95.5221,-77.5219,199.7560,16.8372,-92.4852,-77.0289,149.8217
-9.9470,-49.9528,-7.6383,-90.9181,-14.1339,-117.3785,177.9549,30.9424,183.9261,96.5256,-5.6304,-92.6851,59.7625,-119.5231,100.4766,10.4811,-130.4645,-70.7265,101.5437
-1.8669,-82.4966,-90.0594,-116.8077,-88.4761,-143.9987,89.2584,4.4684,103.2069,92.9508,-22.6795,-85.7920,1.5878,-132.1910,14.0566,-1.8194,-211.8500,-77.6071,51.4428
-38.0213,-96.9500,-160.7316,-163.2705,-147.3607,-139.8098,34.1269,-20.8236,60.9347,47.1470,-67.9089,-105.4013,-32.7075,-135.2759,17.5178,-11.8542,-289.6046,-90.0246,14.8600
-105.1972,-164.0823,-171.4489,-239.6172,-172.9830,-159.5984,-27.3529,-60.0896,23.8707,-6.6920,-120.0174,-149.0412,-65.3370,-151.1756,9.6487,-40.4046,-327.9156,-123.0446,-53.8655
-145.6389,-213.0170,-177.4989,-285.3473,-206.4803,-210.5456,-95.2570,-102.8021,-53.3269,-111.5545,-150.8045,-164.9445,-110.8764,-143.3543,-91.9188,-76.1064,-304.6302,-159.0394,-162.7283
-166.3065,-159.8668,-196.0308,-254.9525,-245.4630,-228.0603,-140.2923,-135.4244,-114.9323,-278.7698,-159.6678,-134.8516,-140.1920,-102.8545,-191.8663,-96.9209,-228.2573,-150.1554,-246.1718
-172.9035,-76.8967,-178.6149,-200.4438,-265.6953,-213.2669,-197.0668,-192.1045,-149.4932,-378.0431,-134.4613,-97.4761,-143.2054,-82.8820,-211.4365,-108.7634,-157.7312,-121.6510,-276.2638
-131.9414,-59.4999,-132.6548,-186.8037,-262.1584,-219.7201,-252.1618,-263.3502,-204.8008,-332.6070,-91.2021,-87.8960,-126.7512,-96.6099,-195.4960,-114.6455,-127.8870,-138.2842,-285.1383
-61.9061,-88.1344,-91.9754,-197.8378,-223.4097,-249.2152,-236.5664,-280.3263,-231.7491,-249.4142,-77.9415,-85.7753,-92.5124,-94.3250,-181.7772,-108.7042,-108.7100,-179.0250,-282.7142
-16.4337,-101.4841,-48.3705,-180.7888,-156.1653,-259.6891,-190.7714,-237.9818,-172.0366,-222.6128,-77.8151,-64.5137,-56.4344,-53.2670,-159.5560,-96.0133,-73.1291,-187.7134,-251.0470
2.9459,-63.9084,-13.4342,-125.0704,-110.4733,-219.7817,-173.7130,-184.6694,-99.2629,-220.7274,-45.7658,-44.3018,-30.9577,-1.5572,-122.4043,-81.0708,-28.0900,-173.5004,-190.0535
19.5131,9.5003,-9.2195,-66.5449,-103.7247,-139.0461,-123.7621,-133.6185,-79.2481,-209.3553,-12.3443,-36.7197,-9.7167,26.1327,-67.4137,-67.7640,12.3443,-146.5479,-124.2217
38.6725,41.0953,-4.1267,-35.0367,-81.7627,-63.3036,-28.4619,-89.9781,-60.4340,-191.3734,-11.8067,-18.2591,-2.6370,19.4009,-11.0306,-63.4132,29.5916,-82.6125,-83.6614
52.3326,7.4489,8.0590,-16.5977,-14.0902,-13.8674,16.4113,-63.2342,-3.5240,-163.2827,-19.0587,1.9428,-25.4843,9.5380,3.8467,-59.0386,15.9437,-11.1584,-68.3852
30.4116,-7.7327,-14.9920,10.6908,47.7479,27.1657,4.0170,-37.4576,46.1047,-142.9267,-34.9821,-3.1807,-57.1417,25.7070,-26.5831,-46.4408,-0.0134,13.5186,-44.6321
-31.1033,22.4828,-36.8108,31.4865,61.9818,52.9461,2.1660,-17.9858,48.7180,-147.0453,-77.4106,-8.7427,-65.5235,29.3864,-63.9791,-41.8666,16.3390,17.8833,-9.3983
-60.7959,42.4959,12.0900,37.1264,67.3996,44.2834,14.7473,-20.3143,32.7860,-129.3935,-100.3049,13.1040,-50.5503,-7.5280,-92.4441,-42.5134,69.6791,50.5715,3.2123
-17.0385,66.4643,79.3896,63.5126,100.1794,29.9617,39.0605,0.3244,52.8887,-59.4653,-70.0137,39.2515,-34.3287,-15.3179,-103.4201,-18.9227,135.6544,96.8916,2.8259
34.8318,114.9228,82.0673,117.7164,130.3015,37.2194,84.7354,56.4783,102.9596,-10.0814,-33.9042,47.4886,-34.4992,35.4496,-76.1103,11.6507,170.1554,133.1423,27.2613
42.8981,111.0949,46.7601,136.8120,139.6051,29.7772,104.1350,57.2483,113.5860,-55.4715,-23.1607,32.8420,-49.2449,38.8212,-32.2817,-4.3738,154.9677,146.1479,55.0291
40.1647,40.3009,23.4529,84.6159,147.8640,-36.2915,78.0657,-17.0775,69.8671,-141.9039,-12.7573,-12.0330,-68.4179,-51.6207,-18.1868,-54.7838,138.4508,98.1828,49.3479
57.5754,-1.7760,16.8071,18.8195,138.6242,-139.7670,60.5260,-44.8807,37.1973,-146.5232,5.5719,-60.5732,-91.9575,-123.7354,-25.5680,-65.6839,166.9353,4.0303,40.7090
87.4483,-0.3043,40.4841,6.1112,101.4751,-204.9353,59.2862,28.5351,36.1193,-43.7776,22.7464,-71.6915,-99.2550,-108.0821,-27.5778,-17.2735,212.6487,-37.9539,62.9579
112.9839,-8.9209,92.1923,25.9286,104.4815,-180.8004,52.1807,111.7509,32.9764,55.4901,45.4289,-60.4101,-42.5612,-60.4626,-41.5774,22.6494,228.2981,-2.2438,87.0495
114.7355,-6.8672,129.5228,13.5559,175.9525,-106.6874,70.2672,127.7261,45.3145,57.8515,72.7296,-53.3208,62.6747,-19.6616,-67.6760,-0.9917,206.3800,18.9513,88.3492
103.5283,21.2678,143.3927,-34.8367,226.6176,-55.5690,110.0256,95.0329,97.7957,7.5096,98.6937,-32.4743,123.6853,15.3493,-54.1176,-50.7565,162.8262,-10.3321,85.0519
121.0377,21.2445,147.0978,-62.7264,204.2640,-32.2741,113.9987,70.0780,137.5109,-7.7920,125.4895,-0.5590,107.8429,21.9860,2.3449,-59.2808,127.3498,-23.7460,83.6443
154.3219,-7.5602,120.9495,-42.9194,166.3653,-6.8215,92.7809,80.0859,123.6140,9.2253,126.9780,4.2852,79.0625,5.7803,24.3956,-35.9790,120.5717,6.9220,81.5693
138.5058,-6.5869,68.7374,-3.5596,148.0183,10.5468,87.0268,87.4705,93.2930,-4.9366,68.3425,-15.0568,70.1703,8.9110,-19.7186,-38.6902,110.9740,43.0263,103.1611
65.3343,25.9595,26.8164,19.6481,123.2501,7.0342,71.1599,50.6320,70.9958,-66.9952,-15.6706,-27.6852,49.5926,22.4390,-61.3183,-66.0994,62.8985,65.3142,147.0352
-10.4660,48.6912,-11.5115,8.9077,88.8225,-5.8933,27.8807,10.9219,39.8468,-114.7770,-55.3554,-30.5411,10.1218,10.2516,-51.6574,-71.8380,3.3424,83.2885,162.7354
-47.8186,43.1855,-53.8122,-22.9562,68.7007,-31.4012,-11.1203,19.1879,9.0834,-84.9874,-49.7974,-27.0624,-17.5679,-13.9525,-40.5257,-54.9953,-31.9755,101.5031,147.1039
-38.1387,15.8693,-60.6893,-26.2735,73.7280,-62.9616,-34.9458,39.1322,0.7637,-13.0559,-44.3145,-14.1834,-16.6868,-26.8360,-85.8789,-41.8054,-49.2955,117.4016,159.9604
-3.9449,-7.0150,-35.0465,22.7162,93.8486,-62.4402,-43.1829,34.0253,3.9382,16.6644,-41.9207,-1.0556,3.2176,-37.2230,-159.1236,-22.1635,-52.6896,117.4916,203.0001
9.5559,-6.8450,-19.7686,70.1198,101.3288,-25.9474,-24.7113,34.6619,2.2349,12.6965,-23.0084,5.4992,13.5223,-44.1374,-180.9839,14.2604,-34.1642,91.5084,216.6912
-12.7072,-1.8587,1.1717,56.5481,89.2143,15.7148,-1.9324,55.9484,2.2188,37.4804,-8.4669,1.3933,-12.8945,-27.5407,-119.6123,39.8645,-4.9208,57.2143,203.9720
-43.6475,-4.3839,38.8965,-0.6516,87.2010,67.2314,3.5738,89.1931,27.3556,84.9567,-27.9254,-23.1479,-58.7603,15.0103,-38.1362,48.9037,19.3112,24.9220,212.1636
-61.2193,-1.9035,29.6911,-41.0333,92.1759,134.9277,16.3175,163.2247,103.7095,148.9238,-64.2364,-49.1419,-75.6262,58.4548,-20.6619,77.3038,29.0366,-26.0792,226.9474
-61.2449,-1.1310,-42.3424,-37.4734,64.1716,171.2559,44.6359,268.8354,212.6575,266.4674,-87.9487,-44.7931,-62.6421,65.4977,-41.5393,119.8145,17.0399,-85.1117,215.1004
-51.9692,-12.3778,-103.3450,-18.5700,18.1068,146.6072,75.7669,314.1311,281.5834,374.2881,-105.3610,-28.9059,-73.9150,26.1831,-4.5197,122.6821,-0.3419,-96.4887,201.5419
-63.2847,-18.1104,-121.6365,-17.7634,6.6433,108.3018,127.6571,270.5960,284.4823,352.1374,-127.1432,-31.2890,-118.6468,-13.3004,69.4021,86.9658,-5.0478,-43.4293,214.8604
-117.6645,-9.7889,-126.5075,-11.4320,31.8995,107.5376,183.2491,222.8311,280.7474,243.3953,-135.9066,-30.6380,-129.1863,-4.5534,68.8374,72.5647,-12.1109,32.1533,241.9634
-182.0688,7.3700,-120.4470,33.6816,69.9632,132.1066,174.3893,213.2666,293.0429,169.3468,-117.8446,-11.4771,-77.7089,36.7321,12.1511,87.0037,-14.8086,92.8014,262.2818
-179.3962,36.7263,-86.8570,78.0359,113.7971,146.4840,120.3139,198.9689,260.1115,113.1184,-84.9469,0.1811,-31.5983,61.2174,9.6115,80.0576,27.6923,122.9041,252.5981
-76.5209,61.0396,-32.7901,84.6454,145.1249,147.9849,111.7627,166.2957,168.8353,34.1112,-53.5612,-1.7064,-27.5007,53.7781,47.2694,44.8068,92.3689,116.4197,195.2937
30.1823,59.8023,13.7307,102.2911,146.9004,149.4288,142.0336,138.1129,108.9004,2.5359,-33.8699,4.3596,-14.2773,42.3143,52.9510,22.2063,110.0700,88.3799,118.5796
5.2226,60.2257,20.9065,150.2715,136.0677,145.4783,144.9636,106.9236,136.5884,41.4647,-33.9032,21.9518,19.7878,48.9922,58.4511,23.4775,89.1958,56.8235,55.3095
-107.3537,80.8284,2.2278,163.3363,133.8695,138.5831,129.7038,71.7281,182.4738,70.1099,-51.0746,40.8336,26.7525,50.3498,83.2623,27.6262,82.9849,15.5216,-13.6499
-128.1108,87.6558,16.6049,140.3175,144.4442,151.8899,116.4335,69.6372,158.7725,73.5241,-69.6868,49.2981,24.4329,23.3348,56.9122,30.7157,83.9227,-35.8151,-98.2408
-41.8041,71.3426,58.1769,152.0284,160.1990,175.7016,81.6765,105.7522,98.7926,106.1772,-72.3636,39.0079,51.7926,5.8576,-0.5355,46.5340,62.8092,-73.4604,-161.6958
-2.3665,62.9123,51.8100,186.5485,155.1770,169.5992,54.2300,133.1292,102.1966,152.0351,-55.4049,27.3494,54.3298,24.8389,22.2152,71.4006,31.0030,-89.4894,-193.9483
-48.0523,69.6336,-0.6126,192.1228,115.9597,135.1171,75.4108,128.0213,160.1044,151.3955,-41.6045,32.6344,2.5381,27.5044,93.7449,74.8904,8.3130,-96.7853,-220.8446
-86.2780,90.6637,-21.2371,204.3887,74.1611,105.4689,80.1979,115.3868,163.2420,102.9529,-57.0749,39.3321,-13.1375,-7.9406,79.6348,41.6153,4.9746,-88.1845,-237.5602
-89.3484,137.0215,5.0341,262.7575,60.4990,90.0597,23.6116,114.0237,98.8924,47.7555,-87.8585,45.3835,41.2720,-19.0938,-8.0165,2.1748,32.0602,-44.3187,-220.8299
-81.5646,195.3608,37.1236,322.9317,71.3785,95.6815,1.4926,103.4792,69.0037,12.2673,-96.9586,74.8417,68.4805,1.3433,-51.0036,-19.1453,83.9493,22.8053,-174.9639
-52.7370,248.5461,61.9196,344.6741,94.6231,134.1573,57.1401,62.4781,88.5982,-5.2450,-75.5421,106.5220,29.7312,-3.8823,-41.2972,-40.8641,135.9192,75.7709,-120.3964
-5.4706,290.6566,76.9448,341.7281,111.3141,186.4825,80.2896,22.7609,68.4581,-20.6147,-39.4884,98.6635,0.1656,-13.5347,-52.9543,-57.3535,159.6198,97.4180,-70.4173
30.0518,286.0557,72.7149,334.9144,108.8112,235.1754,37.5854,36.8521,7.9310,-32.6058,-4.9347,76.3710,18.2093,23.2509,-81.4388,-30.9591,136.9403,108.1022,-12.4713
37.9996,225.6778,61.5359,334.3586,116.0418,291.2772,37.2706,90.3948,-4.9013,-17.9649,14.6621,85.0779,49.4660,69.1078,-66.9229,16.2512,96.9921,134.7535,83.8976
17.7367,187.7944,64.3159,331.6333,154.6483,347.6051,100.2601,127.1328,32.3241,25.9301,25.8190,112.9958,64.7567,91.6411,-16.0494,36.0665,101.5638,173.5105,194.0919
0.7050,217.6855,91.4370,309.8398,193.7861,388.4545,136.8123,148.0345,49.3329,58.7311,48.5102,133.9239,60.2539,124.5079,14.1781,50.3566,149.7010,197.4062,234.1149
26.5103,254.1484,136.1817,294.1755,216.7772,418.0461,129.1258,174.4546,44.1765,35.9837,67.5823,146.6808,53.3516,156.5781,13.2317,74.0727,175.9796,191.4533,184.6091
62.2049,251.6709,155.0660,316.2499,239.8775,409.4095,123.9768,168.0985,66.3909,-32.6391,61.2161,149.6554,70.9934,141.5741,8.9988,57.1964,161.5443,158.9359,118.2073
66.9628,231.4614,121.2601,335.7080,253.6093,336.7769,136.6768,112.6938,116.4145,-80.0628,67.8301,143.1484,100.9597,103.6897,5.3414,7.6521,143.0684,110.9444,82.6491
79.1572,210.6901,88.1441,308.3676,246.4805,270.3652,162.7900,79.1950,149.5635,-60.7993,114.7774,134.4454,97.7171,88.1359,4.0544,-2.5823,125.3977,67.9962,69.3572
94.9995,196.0361,95.8304,268.6323,230.1973,279.9860,167.3605,109.1343,138.6382,-10.2665,138.7356,120.3246,55.8030,94.8512,27.8566,22.8279,86.3168,45.6911,68.4139
49.4628,185.8341,99.0530,248.6832,195.6089,310.6689,110.8533,146.5770,104.8472,4.9520,102.3173,108.4588,22.5450,117.5041,64.8769,31.0874,42.0831,31.5881,65.1484
6.7585,156.9184,81.1224,225.4628,150.4750,291.5937,66.6572,126.4130,94.9237,-44.1580,83.3801,120.8163,33.0611,131.4270,73.7164,11.0030,34.2026,1.2834,37.0999
75.1759,128.4125,79.4764,194.9549,144.6316,238.0388,117.2969,38.0551,108.7733,-139.2847,125.6780,140.4248,63.6061,90.4247,54.1640,-41.2937,62.5046,-51.6273,-20.3317
152.4190,145.2842,64.4556,178.0198,151.4932,182.3159,150.3385,-67.8492,87.6975,-219.0256,138.2694,127.2654,60.4891,23.4979,21.4042,-104.5494,75.8653,-115.5191,-108.3618
85.6470,160.5415,-3.1051,161.3922,89.4290,141.5748,56.3257,-106.9063,27.5909,-222.8257,58.9055,91.6778,19.0234,3.4169,-27.5067,-109.1579,47.9130,-165.5486,-208.7528
-44.5539,108.2311,-50.9398,128.2778,6.1619,125.1165,-21.9656,-74.9853,16.4419,-177.5238,-23.1678,73.0752,-5.8917,5.4031,-51.5031,-71.1730,20.2373,-173.0878,-252.5738
-77.2477,47.2337,-27.6154,99.7134,8.1463,101.8359,38.2092,-70.0322,76.0586,-165.3065,-15.2437,74.1852,8.6822,-26.4863,-8.9157,-84.9356,23.8723,-144.5339,-215.4137
-17.1509,47.3810,-5.4470,91.6230,56.6205,56.7724,102.2162,-117.3315,94.3534,-192.5832,30.9817,73.8938,25.8347,-45.7141,27.9731,-126.9776,27.3100,-129.4301,-180.0189
38.3925,69.3806,-17.8623,86.0388,63.2786,39.2656,75.4844,-132.2986,22.3866,-199.8707,23.4063,61.4593,28.1315,-13.9283,-11.2595,-118.9992,13.8990,-159.0080,-193.7795
43.2390,82.3596,-10.6108,66.5056,50.2017,51.2924,68.3771,-100.9874,-21.7336,-178.8819,-18.0200,37.2612,32.6040,-5.4267,-49.8966,-107.5816,4.7168,-203.9419,-200.1643
15.3390,108.3975,1.0526,44.9204,55.9924,33.6768,118.9933,-91.1672,29.8991,-170.0932,-19.0209,13.9662,37.7703,-59.7081,-26.1661,-135.6938,-11.6717,-210.2896,-181.2853
-2.8661,124.8863,-38.1181,40.4855,61.6537,7.1523,129.7581,-104.4492,65.9320,-181.1732,17.1392,1.6727,33.5846,-100.6384,-18.3637,-137.9870,-44.5977,-156.0594,-182.6464
1.8766,103.6582,-81.7547,43.6485,64.1437,30.9547,95.9241,-96.2190,14.0144,-177.9493,35.5119,-13.6149,25.1914,-88.6608,-58.1919,-106.2447,-47.6080,-69.7542,-185.2916
9.6816,78.5782,-70.4291,28.0491,70.3105,71.1283,88.4692,-60.6945,-35.8058,-133.6676,23.2451,-37.1763,13.2197,-79.0278,-63.4668,-99.3112,-14.3603,-0.4943,-141.4826
15.2313,69.3801,-44.4156,4.2785,61.1258,80.5516,95.5867,-9.0525,-35.3920,-73.0017,6.9170,-36.8541,-0.2544,-90.3575,-27.5730,-101.6411,-7.5578,34.6174,-85.2645
11.7690,58.4300,-38.4327,13.3326,43.0964,83.4984,77.9262,32.0882,-48.4950,-48.7368,7.6758,3.8759,-6.6495,-75.1252,-24.8378,-89.4885,-29.9051,62.4575,-55.7786
-18.1757,52.8624,-24.1940,61.1929,44.2869,97.8612,57.1088,34.3448,-62.1043,-50.2525,21.7555,47.3805,-19.3280,-25.4881,-50.4643,-84.2092,-26.7063,107.6761,-14.5435
-43.1256,66.6133,-6.9726,115.0653,61.2722,116.6856,62.2665,47.0232,-9.8962,-15.8212,19.1745,61.1680,-45.9609,25.3140,-59.8900,-55.4416,-5.5371,159.7730,53.8100
-29.3431,94.9035,-17.4764,148.5502,79.1465,140.8451,80.9397,121.2453,46.3777,37.3013,-8.9068,65.9272,-55.5922,78.1208,-65.6000,10.5379,-6.4375,191.6313,83.2178
-24.6294,126.8545,-31.3935,147.4508,82.5638,141.1214,82.2963,176.1954,37.3111,41.6875,-19.1873,80.7223,-46.6629,130.5076,-65.4080,32.1273,-25.7859,188.8735,45.1050
-58.8183,117.8726,-23.1606,108.5487,48.6809,95.0244,69.7315,139.7571,54.4636,32.2390,2.2768,72.6236,-66.9476,128.9334,-18.0303,1.6558,-48.8946,159.5728,16.3338
-73.4768,33.9239,-19.9760,51.0945,4.4687,55.5836,96.2521,103.6472,158.3889,81.8233,3.7358,19.0210,-109.0631,64.6838,54.2357,13.5295,-63.6196,122.3731,64.7923
-43.8296,-50.7732,-30.1696,-4.1217,12.7361,63.6345,173.5525,155.9641,240.6659,143.9720,-22.1616,-29.6479,-106.1898,25.9656,81.1542,63.2686,-55.7064,89.0153,143.9130
-9.3211,-51.6198,-26.3638,-45.9135,60.0674,88.4791,223.7990,241.9205,241.6896,147.8722,-24.1444,-25.0423,-55.8620,61.1981,64.7092,78.4229,-53.3711,72.2161,167.7006
17.0082,-15.0744,-10.6257,-47.8400,87.4756,119.8848,212.0300,295.0197,237.1279,137.6086,-9.1215,-3.1251,-20.8331,105.1519,65.1374,72.9704,-80.7926,95.9124,144.6877
32.1313,-8.4251,7.2261,12.7324,111.2737,171.2217,209.2131,314.0719,248.9447,163.0318,-12.9118,-6.7234,-15.8110,107.0807,88.3011,76.3545,-80.0784,160.7690,154.9047
29.6157,-1.7213,43.1372,107.2963,170.0360,207.0800,249.6490,301.1827,230.2147,177.1706,-8.1889,-3.3407,-2.7361,98.8434,83.7751,74.8661,-17.0704,219.0308,211.9736
46.0805,39.6338,80.6233,178.2860,223.9811,197.7052,283.3314,267.9889,193.5624,146.9019,16.8781,36.6337,30.7541,100.7768,42.8990,82.4916,33.1979,227.9483,243.3287
83.1269,98.4151,82.2719,197.8043,226.6969,164.3503,287.9210,243.4619,166.5181,119.9504,19.0631,77.1132,70.4169,91.9872,15.6724,99.2805,28.4830,201.3539,208.3006
71.9275,150.8622,74.0995,183.0821,205.6014,117.0014,275.7914,216.9959,137.3808,122.3344,17.4291,89.9381,116.6427,77.0369,25.8428,75.9775,26.6076,166.7616,138.7784
34.0659,166.6291,94.6775,170.0145,195.3892,53.4540,232.4136,155.6050,115.3924,104.1774,69.9771,87.5702,162.0451,71.7035,44.4760,13.4398,50.7695,111.5685,57.8065
74.8796,141.0908,113.6754,164.8344,171.0625,-9.4197,144.4821,59.1875,93.5123,19.2939,138.1026,72.2481,165.6362,51.4068,46.5768,-46.4928,63.5472,18.5079,-42.5254
170.5111,126.3178,112.0395,129.5732,94.2486,-74.6412,21.0241,-50.4417,6.9709,-106.1496,154.3707,46.0340,113.7206,-1.3234,21.6015,-101.6605,62.7723,-89.4830,-136.9494
208.6441,120.2557,125.6152,48.8714,-17.3344,-150.2619,-117.7398,-139.9679,-136.2909,-202.0342,145.0103,31.1323,58.2508,-48.2296,-41.0870,-140.4960,64.7115,-189.3284,-179.8221
192.8357,53.6744,144.2496,-28.5274,-103.5945,-198.6610,-217.4937,-174.9072,-232.0050,-227.4433,150.8599,19.3197,27.9041,-56.7501,-112.7039,-134.3323,60.0381,-287.6239,-177.6761
188.5582,-33.9165,124.7994,-62.8014,-134.0930,-194.0380,-231.2798,-162.8100,-250.2517,-199.3995,147.0084,-21.0494,-13.4288,-52.5017,-135.3021,-109.9771,54.3874,-353.3500,-157.0408
183.4314,-35.7310,94.9405,-78.8214,-126.7023,-162.1240,-192.6404,-129.9476,-238.2321,-152.3143,110.1291,-74.6075,-57.2941,-66.4390,-105.0162,-95.1284,61.2877,-308.3476,-101.6333
147.0022,5.9895,88.2873,-104.3006,-97.7354,-114.9251,-148.5452,-66.9106,-193.2415,-94.0733,60.9236,-105.2147,-37.1658,-83.8410,-61.7362,-66.1398,59.5710,-164.0246,-14.0763
100.6130,-13.4116,69.1658,-113.1281,-45.0852,-46.3381,-88.5613,29.3227,-121.6609,-17.9597,26.6224,-116.6980,30.3160,-72.3683,-18.8470,-19.7957,36.5182,-48.3627,45.9009
66.1608,-61.0009,33.3896,-71.5375,24.2680,25.0001,-20.6991,122.0105,-91.2076,58.5942,10.1320,-118.5978,55.2084,-20.3555,14.1822,31.6027,23.0473,-16.2874,62.8390
43.1326,-71.9363,31.0545,-2.4962,91.4371,87.3002,11.9223,187.8194,-89.9922,99.6854,-11.8949,-106.8684,24.8098,45.8647,17.0613,96.8078,43.6281,12.6876,80.8025
35.6562,-72.5878,53.1742,34.8463,133.5747,135.0781,19.2600,223.3335,-27.7898,110.1668,-47.1641,-105.6551,-8.0857,58.5315,14.5703,141.3574,83.6599,74.2197,92.2758
43.9492,-72.2361,57.3888,22.2276,130.7499,129.7152,38.1692,222.6445,81.6865,147.1252,-57.7748,-135.4459,-23.3017,-18.4498,38.9051,126.1260,106.5990,103.5055,70.1727
48.7619,-40.1877,50.8000,-2.7961,91.6301,72.4435,60.0301,213.5189,155.7049,223.1872,-27.9458,-161.2064,-17.9056,-105.5197,54.2091,104.1154,82.5896,79.2815,62.7067
35.3891,-5.7856,31.1108,-11.1347,39.3433,47.1159,67.5736,231.5511,194.6652,260.7692,-5.1287,-153.6567,1.3581,-103.9577,28.3325,110.7962,27.9384,47.0376,90.9139
20.8323,-2.4027,-17.9457,-1.6528,-28.0036,84.3936,53.6154,243.8139,209.5693,216.8321,-14.5935,-134.6224,-5.7719,-48.1790,-1.4290,87.6116,-5.7649,25.8694,76.1947
29.4857,8.1704,-40.5423,32.9833,-99.3469,111.7457,1.7395,207.7578,158.9857,156.2072,-23.6917,-111.8744,-43.3546,-25.2546,-8.6527,27.3313,-7.1025,10.7586,0.2663
52.5012,40.2301,7.5666,83.3942,-126.7282,99.2753,-55.0383,154.5945,87.7506,121.9110,-15.4193,-69.6124,-61.7902,-29.4443,-5.0715,-12.3160,-8.2453,-1.8937,-47.0256
67.6418,46.3512,53.9290,105.5922,-111.4338,90.0170,-42.2576,117.9516,106.8872,72.5018,-5.4317,-32.1320,-58.6022,-35.0092,20.4859,-38.2147,-15.2401,-22.5942,-40.8024
67.2827,22.5751,38.6875,92.8048,-111.5746,78.1038,21.7826,80.4242,188.4575,12.0487,-7.0621,-26.4346,-62.9817,-66.8192,63.7017,-65.8493,-17.4827,-32.1825,-38.8390
40.3253,14.9554,4.3386,86.9543,-126.3138,28.6420,43.2830,43.5885,214.5249,8.6612,-30.9480,-19.8164,-54.8196,-102.3456,68.4542,-56.9648,-29.5280,-4.1533,-44.8638
-4.8183,25.2055,-25.9319,87.0824,-110.8339,-20.7101,18.7769,33.6103,188.5184,51.2332,-73.1610,5.5970,-31.0421,-91.6810,37.3945,-27.5641,-53.6539,15.4188,-28.1602
-21.5260,21.6179,-76.8029,57.0158,-82.6684,-26.0639,25.2994,37.5761,189.2408,66.5948,-110.9541,0.8740,-35.5976,-84.4995,61.4946,-29.9965,-71.1793,-7.0604,-3.6673
-17.7379,12.6875,-125.8366,11.0788,-68.7433,-22.8648,79.1093,34.7628,216.6073,58.5037,-138.5948,-46.3074,-50.8761,-135.2894,160.8489,-36.8185,-95.6572,2.4690,9.9860
-62.4346,22.8457,-142.2048,-17.3626,-33.2334,-34.3588,134.0634,45.1710,230.9430,65.6199,-156.4427,-70.8601,-25.3926,-168.9099,235.1239,-14.6825,-139.8394,69.0303,17.0999
-134.5434,35.7815,-151.2234,-34.0988,29.5464,-12.9327,161.3174,78.2164,227.6145,58.3144,-150.0433,-46.9124,6.1849,-117.5650,221.8673,-1.1849,-160.4238,95.6164,14.3802
-146.3179,38.5202,-159.0639,-37.1366,58.8516,52.6931,154.0690,101.8197,203.7601,9.3634,-127.0026,-23.1695,-6.2642,-43.6831,170.0606,-16.1118,-130.5494,79.3826,11.1985
-101.7520,68.4718,-125.5657,-2.1377,42.5123,107.3681,115.6740,100.0219,144.0845,-44.0178,-93.1470,-24.1689,-24.7160,-15.4848,128.4998,-38.5045,-88.7292,128.1487,29.3992
-37.6762,127.6494,-50.5851,55.3319,35.8302,132.9012,74.8897,88.4731,55.1945,-87.5668,-22.1611,-27.7734,0.0935,-20.0516,86.2120,-60.2583,-56.9650,202.3582,51.3433
45.4092,129.1969,16.9686,83.9676,57.1919,143.1957,65.3363,60.1591,-14.8656,-151.0177,39.9852,-23.0345,54.2422,-31.7590,48.0943,-69.6967,-27.2926,156.0789,44.4435
75.7202,45.0178,47.0408,58.6435,68.7690,117.0983,79.7479,-2.0874,-5.4464,-214.5888,5.6876,-9.8280,94.8629,-40.4708,51.6991,-64.4992,-30.8364,16.5331,16.8600
10.9548,-7.2500,42.5873,6.1030,43.6311,71.4461,71.7535,-57.4276,49.1293,-221.3969,-26.9929,10.5650,88.1623,-32.6236,79.3755,-78.1384,-86.3075,-61.5008,-19.3465
7.7943,47.6806,19.4587,-10.3119,-6.8795,93.3772,14.1932,-49.8592,7.0924,-179.4671,117.2130,11.3023,44.5335,-3.7828,65.2679,-106.6683,-132.7831,-39.6906,-82.7290
152.2873,122.2448,1.7072,45.8973,-52.7581,187.2535,-54.6612,-10.0747,-148.3971,-148.1843,336.2773,-19.8485,21.4442,39.1638,10.4838,-102.7965,-119.2314,9.2535,-162.5365
250.6881,139.2370,13.1533,129.8566,-67.6199,245.8489,-68.1116,-0.9700,-222.5553,-142.5765,393.3142,-33.6319,43.4143,78.0237,-23.8752,-73.8973,-65.5385,41.7014,-185.8187
190.4660,134.8647,54.7229,178.7764,-38.6447,233.8971,-15.5790,-1.0081,-127.5319,-127.3334,317.6298,1.5256,75.8218,85.0398,-33.3904,-55.2147,1.9401,57.4903,-109.4874
130.4518,132.9733,87.7660,191.8495,21.6616,217.9852,41.9994,32.1516,-28.3519,-88.1278,277.4094,34.6696,93.2572,67.4876,-51.8641,-38.1500,55.9978,62.4207,-7.0351
154.7193,117.0247,68.6769,190.9764,61.0498,217.7751,50.2940,64.7906,-24.0855,-46.2413,264.8534,25.4768,87.8735,61.9673,-52.1606,-23.2769,50.5078,69.1495,26.9289
165.2206,115.7084,16.4382,181.3990,35.8802,201.4732,28.9891,71.0798,-16.9835,-4.5540,218.8374,7.5002,50.5905,59.7530,-2.2078,-27.8097,2.5894,93.0063,32.9323
138.0586,139.9750,-6.6587,173.0059,-8.6832,175.4243,38.1225,91.2508,32.4016,54.5484,186.8974,1.4527,9.4507,30.0160,40.2325,-24.0155,-8.4751,131.9952,111.7622
132.9919,120.4108,13.9285,160.4040,7.2756,158.1173,89.5211,135.8660,64.4554,109.0428,185.3910,-21.0235,4.5860,-3.2918,18.8119,7.6903,26.4068,163.7652,235.1189
142.5430,40.7185,41.8260,129.4688,68.1486,143.4164,137.7464,173.6219,93.9827,119.6115,156.2700,-57.9179,18.2204,-7.8830,-13.8016,36.1437,47.8031,176.1966,306.0114
115.8712,-3.8718,49.9942,119.5411,93.6187,127.7323,151.2198,205.5183,138.3275,111.4374,96.0162,-73.2157,12.1290,-3.9506,2.2428,55.2648,38.3131,180.6743,320.4878
26.9333,35.6987,27.9648,157.4020,60.7329,103.0009,124.5522,224.5932,119.2827,129.7667,43.4675,-69.7112,-18.3421,-16.2723,16.5406,80.0078,12.2041,163.1110,301.4688
-75.0439,90.5338,-15.7243,165.4159,-2.8963,56.0641,51.1250,191.4411,24.0593,151.0548,7.6177,-71.0701,-66.3072,-45.2068,-29.9381,87.7026,-26.3093,80.8514,226.7714
-73.6451,90.8926,-47.7851,93.9361,-75.2521,2.8390,-33.3672,124.3264,-40.1324,149.9477,-6.2469,-66.3730,-110.8441,-83.4709,-80.9400,72.0333,-53.8172,-48.3134,127.3260
26.7051,44.9779,-56.5577,32.4616,-123.3675,-41.3171,-54.1713,78.4525,-29.3676,156.6217,8.4615,-42.1860,-119.2154,-99.2365,-65.4693,58.3290,-51.2023,-149.1986,56.6702
68.0368,10.3948,-54.0014,52.0018,-115.3018,-85.2968,-18.7402,43.2557,-4.5869,153.1422,35.9009,-13.8958,-103.6719,-62.2259,-26.1255,30.4783,-37.9446,-194.8714,-23.1381
22.1383,37.9263,-29.8778,104.2241,-78.7751,-106.7820,-12.7511,-6.9880,-2.7798,79.3582,59.0860,11.1448,-97.0074,-8.2368,-23.6146,-21.7547,-20.1429,-194.7270,-130.1397
9.8503,110.5360,6.6854,140.6293,-86.8101,-76.1578,-43.6162,-49.0886,-8.2685,-15.4386,65.5537,37.8969,-85.8240,2.8332,-26.1825,-44.5625,13.7117,-132.4456,-188.0438
25.4791,152.9289,13.7331,154.9399,-172.5868,-35.7567,-46.6572,-78.8821,-7.2272,-48.9464,52.1740,52.7134,-57.6716,-27.8549,-11.0904,-28.8073,43.5469,-35.0008,-190.1978
6.0528,139.7862,10.9561,137.7936,-272.0714,-29.5863,-22.2157,-111.8354,-7.2455,-91.8100,51.7338,48.5966,-35.5637,-55.3778,-31.4943,-37.5946,57.7793,6.1636,-193.1276
15.0379,123.8071,35.4632,117.5437,-284.2914,-26.9354,-14.6496,-122.4399,-26.1546,-217.1082,78.2760,49.3168,-22.0630,-51.8896,-84.0975,-67.5172,74.1269,-35.6880,-156.3243
58.8559,129.0535,30.6585,135.7232,-218.2426,-16.3461,-26.0324,-106.7161,-55.0866,-290.5428,76.4118,66.0149,-11.6679,-28.0959,-82.0756,-55.3327,72.1773,-98.4844,-65.1633
36.9351,117.9166,-30.9804,142.9459,-185.6376,-38.0546,-40.8917,-110.2047,-54.4802,-186.4006,23.3933,77.1343,-20.2577,-18.3988,-15.8129,-9.0139,20.1196,-139.9647,-49.2302
-13.1991,69.2561,-78.1863,71.1848,-205.8047,-80.2898,-48.1743,-120.6615,-22.3000,-34.2559,-14.6773,60.7711,-35.5028,-34.5381,37.5926,22.9228,-52.2543,-157.2148,-145.0542
-13.5299,-3.1109,-131.1009,-34.4020,-191.7896,-98.5257,-37.8678,-80.8372,-3.1105,4.0842,-9.2954,6.8773,-42.6327,-51.7164,53.8736,45.1317,-107.0567,-155.1730,-213.2681
-60.0703,-76.9015,-256.6501,-91.5617,-145.4539,-103.6391,-34.5792,-11.5709,-10.9929,-3.8873,-18.0914,-67.8831,-72.7729,-58.0693,46.1367,75.1522,-142.7914,-158.5831,-203.7713
-177.8580,-109.0829,-336.0207,-95.8666,-132.8470,-108.1183,-51.8170,28.0784,-23.1827,55.2502,-64.4835,-105.3810,-108.7561,-60.6050,-5.6668,97.4263,-160.2160,-178.2217,-186.2287
-197.2575,-75.9224,-264.4218,-84.7766,-110.7496,-84.2879,-28.9177,47.5152,-28.4713,111.5811,-98.4569,-79.2322,-83.3506,-48.2272,-72.0993,100.2573,-181.0471,-173.4004,-150.0785
-111.3933,-38.9872,-193.9684,-80.8086,-17.2372,-34.8612,57.9540,79.0923,-21.6293,72.8523,-89.2884,-50.5839,-30.1124,-17.8236,-54.8259,86.9779,-228.8734,-114.5265,-66.9985
-100.9581,-60.5071,-214.0699,-82.4014,83.1857,11.9660,126.3619,107.1915,-1.6086,19.7137,-66.5453,-63.0420,-16.8822,5.1705,49.4281,59.7040,-250.6833,-30.6894,-12.5759
-143.8003,-89.7600,-170.1963,-70.5630,125.0099,56.2384,137.0819,104.1342,13.2932,43.7721,-65.8250,-68.1886,8.4753,14.6552,113.2443,30.6786,-210.8342,34.2829,-25.8695
-80.2969,-58.0009,-45.6574,-50.0435,140.3796,90.4792,138.0229,77.7639,19.5643,68.9887,-77.5172,-34.5769,76.1872,28.9914,70.6038,14.9898,-192.3879,61.1188,-38.1938
35.0244,-6.8484,-22.4133,-46.4076,155.3090,96.0091,130.7625,62.9896,35.9267,16.6713,-67.4561,-5.8409,94.4931,53.2343,7.8700,8.1579,-226.0501,60.6927,-22.1974
64.4914,-4.3776,-92.1067,-39.5332,162.9601,93.0004,93.5671,75.3577,56.2824,-37.0599,-35.7058,-3.9206,52.1459,82.3942,12.6059,4.2875,-210.6376,55.2900,-23.1021
61.1840,-28.8170,-101.8399,3.5591,175.2861,93.3206,70.8109,83.1538,61.4225,-26.8594,-12.7701,-1.8892,43.8874,99.4456,43.7055,10.9863,-131.9401,41.8980,-48.1593
109.3568,-24.2240,-72.0080,47.2606,182.4670,66.3165,77.6176,62.1688,51.4431,-18.3053,-9.4937,9.1052,64.9335,79.9144,23.3479,23.5242,-90.1639,19.1582,-65.6769
142.9416,9.4035,-92.2490,42.5951,155.3065,21.1823,56.1469,42.5821,22.6701,-53.1055,-22.5895,16.2514,54.5702,47.6739,-22.7641,24.4542,-93.0920,23.8200,-68.6496
105.0199,27.4427,-138.5123,-6.5611,116.6918,2.0896,3.0211,42.7711,-19.6973,-81.3705,-52.3089,7.2641,34.5379,49.5552,-24.6798,17.0692,-89.9644,50.6650,-63.5673
47.3666,-1.6860,-183.6727,-81.7056,103.2482,-5.2133,-28.3756,31.4787,-42.1855,-81.4880,-75.5900,-22.9770,19.2252,62.4728,-9.9878,17.4902,-101.3522,30.0275,-47.0557
5.7124,-52.7763,-231.3595,-142.1029,109.0683,-28.9868,-37.2890,3.0014,-55.2045,-71.9722,-62.4610,-39.3464,-12.4050,48.7527,-49.5575,21.7111,-130.1127,-27.1338,-30.0481
-19.2831,-63.4840,-240.2800,-120.2763,126.6803,-40.3745,-50.1806,-13.1785,-110.9278,-62.4388,-25.9495,-4.5284,-21.7638,47.7230,-114.1175,15.3527,-131.9857,-29.0044,-47.9088
3.1590,-24.1718,-205.9433,-40.0984,147.1749,-28.2602,-64.0343,-24.9973,-179.1799,-90.7293,2.0029,30.5711,4.1657,82.6960,-128.6285,-3.4241,-118.7924,9.5611,-111.8638
58.0792,4.3654,-185.0500,-9.7477,140.6649,-29.5164,-78.0411,-55.7076,-183.0226,-171.0968,14.6498,3.6875,-4.4359,93.5831,-104.2324,-28.7951,-98.7182,-5.7736,-171.4923
64.5997,-2.2017,-166.6671,-29.7692,118.9778,-44.1962,-92.0241,-87.9255,-152.1088,-216.2762,19.8671,-29.5110,-40.0381,52.9466,-88.6358,-46.5821,-19.2216,-58.5166,-179.9251
26.2141,9.6338,-100.4243,0.4348,124.4321,-42.2856,-90.0062,-102.3943,-161.6985,-177.8265,25.3043,5.4156,-29.5099,10.5385,-68.9442,-32.8644,99.2423,-71.9335,-171.3387
22.3182,71.3082,-18.4348,81.6784,134.9934,-31.5470,-82.5210,-106.5538,-189.2383,-144.0881,25.1335,69.0811,-9.6963,-6.3988,-25.7653,8.7812,166.7915,-63.8549,-193.6928
43.3815,130.6733,25.2446,119.5981,109.4682,-32.1248,-99.8190,-104.7597,-187.2024,-167.4747,-0.5277,95.9589,-36.6833,-18.9085,-2.0714,31.1352,186.6846,-86.6847,-211.2930
42.2161,121.0589,52.6979,89.5510,83.4949,-43.9692,-132.9794,-103.0334,-180.3239,-185.9337,-28.0578,88.2782,-44.3634,-37.6439,-42.2286,6.5611,215.6319,-127.0084,-168.3296
52.7568,49.2321,104.3207,52.2536,107.5440,-66.8465,-144.5724,-112.7568,-187.5334,-167.5193,-3.3951,69.4741,4.8534,-49.4931,-111.1392,-28.3005,239.6516,-150.6537,-85.9821
73.9058,-6.7106,155.0100,55.5638,167.0146,-93.0973,-112.3430,-118.0782,-177.7071,-139.9995,38.6761,55.4933,36.2466,-49.9451,-123.0799,-32.1799,229.7335,-145.1699,-19.8172
34.9931,8.3517,153.0587,83.8760,221.9673,-104.9291,-43.2076,-99.1780,-143.6466,-114.4943,18.1554,53.6623,29.8897,-61.9874,-49.3725,-23.0280,200.3444,-109.2560,10.2154
-20.3588,51.2938,121.8915,84.0087,256.3247,-102.8569,22.7132,-75.7812,-113.1074,-99.0807,-22.2941,39.8086,45.6280,-92.0775,35.0769,-36.7107,165.4168,-65.4423,8.3369
15.2248,44.7215,134.9916,46.5757,282.3912,-90.4344,53.0920,-69.3610,-92.2566,-93.7610,6.1573,0.2887,83.4564,-88.8656,55.6357,-57.7825,131.2086,-43.0393,-12.0994
93.2717,-6.1782,167.8371,21.2168,315.0086,-60.3275,73.0026,-73.7141,-60.3772,-74.0558,62.9698,-29.7740,100.0618,-35.5706,50.6887,-54.0284,100.6906,-31.4061,-18.7706
108.9212,-32.6901,134.6103,13.8443,328.6067,-31.3220,113.2665,-93.1317,-2.6123,-69.5274,75.6598,-28.7388,97.9708,-15.9687,95.0566,-51.1065,64.0913,-6.5411,19.0464
85.4544,-12.3222,87.2780,-25.2562,297.2939,-28.5282,153.0652,-131.9057,62.4749,-135.6154,70.1435,-8.4973,98.1783,-64.4706,159.6581,-83.9237,43.3760,23.5205,93.3693
63.5076,15.8086,130.5999,-81.5824,268.6619,-27.7066,166.7585,-150.9431,85.0475,-212.6727,68.9332,26.2108,101.3208,-94.9078,163.5043,-107.9536,75.2033,51.3804,158.8317
20.3486,22.7454,188.2133,-87.6591,287.6497,0.7295,153.3885,-116.3860,46.6249,-194.2246,44.2146,50.4220,98.7059,-78.5314,115.8961,-74.2955,114.7399,88.9209,180.4002
-23.3276,17.6847,149.5201,-53.4880,305.6900,32.4524,114.3467,-61.3579,2.6157,-95.7861,13.1255,33.3721,79.7301,-80.0032,89.7377,-32.1815,85.8028,111.7652,166.1208
-32.7425,17.0794,95.2989,-49.9507,273.7836,30.5344,73.8631,-37.1531,10.0346,-10.3850,8.3262,18.8929,50.6324,-95.8416,101.4500,-32.2199,7.9832,67.1822,132.8230
-43.8817,22.4707,104.0869,-87.5873,213.9655,-5.1839,66.8075,-49.6699,46.9672,1.1907,5.5907,51.8740,33.1844,-84.0440,112.8343,-38.0535,-49.7450,-19.6476,79.1325
-78.4818,27.5514,89.0098,-108.2841,144.2366,-39.8462,72.2367,-82.7800,56.1742,-70.6068,-14.7160,80.0470,20.3474,-69.0391,101.1970,-37.5494,-64.1541,-46.4075,24.8219
-112.8236,31.7062,13.8995,-73.1229,74.7330,-26.6835,56.6452,-127.0038,31.8391,-159.6627,-39.3247,71.5667,-7.4202,-50.2833,66.2427,-72.6929,-35.9171,12.8821,8.0934
-150.3559,41.9076,-26.1648,-7.0207,55.7612,38.9436,51.6408,-155.9363,16.7586,-173.0070,-64.2457,77.1730,-29.3023,18.1066,26.4650,-107.7684,19.8203,76.7611,21.0949
-173.3880,64.6044,-5.6118,51.6624,100.3595,109.1842,76.1599,-129.2205,31.8027,-112.6642,-62.6079,94.3494,-24.2253,101.9243,25.7564,-69.7623,57.4566,113.6366,25.4618
-122.4164,99.4171,14.6668,112.8453,146.8251,164.9721,75.9676,-47.1718,45.9024,-36.9631,7.2113,81.9449,-11.4038,142.0129,68.8199,2.7136,61.8111,170.6883,13.2363
-26.9612,137.0231,25.4483,182.1745,169.6278,219.6442,35.7317,36.4093,26.1497,32.0199,99.5969,81.6611,4.7554,164.7170,79.9828,32.6789,69.2690,227.4009,-5.3873
8.6918,159.4129,48.9133,198.6302,203.3776,234.8943,18.3401,74.5956,-12.2362,61.7270,122.5209,114.8227,39.1042,188.4539,17.8927,29.9610,93.8223,204.4052,-8.7233
-28.7656,149.3295,79.8166,137.9696,244.6436,176.6610,32.0650,67.4412,-36.4466,25.6869,83.1733,101.8222,64.1179,177.3038,-43.3515,25.4016,117.5631,112.5830,38.0483
-68.7753,110.2962,113.1704,82.4070,243.1654,109.8103,1.8075,33.8936,-48.4400,-25.4783,54.1387,32.6883,47.2522,137.9272,-45.9302,11.3084,140.1351,26.9257,95.3995
-70.9931,72.3233,144.8218,72.9407,180.2038,89.9919,-86.1540,-11.5008,-64.4436,-66.4164,48.8200,0.4472,12.3180,100.4536,-43.5654,-14.0051,163.6991,-32.8471,63.9501
-32.7062,55.3166,162.0975,49.6974,101.8273,73.8828,-137.6662,-40.6165,-69.6934,-125.3767,47.1102,13.6810,-15.8727,60.5547,-72.8494,-36.7350,172.1656,-71.7173,-19.9133
22.2331,37.6833,167.1336,7.2450,75.4971,41.1677,-94.6015,-21.5917,-45.2142,-132.4033,61.1645,0.4788,-43.2364,34.2356,-81.5893,-32.8278,164.7815,-72.7719,-9.8010
38.6277,3.3368,167.9690,3.6921,107.1291,34.0357,-20.5990,31.4420,-15.8096,-13.1012,87.4769,-42.9125,-49.1427,38.5308,-58.5489,17.8087,162.0157,-51.9223,83.2196
-6.8569,-17.0421,162.9101,15.2637,137.5597,36.9078,21.6353,70.8382,-8.0952,120.5280,76.2469,-78.6791,-16.3070,21.5599,-65.4316,72.4807,162.5126,-48.4586,129.7905
-71.1715,-20.3798,144.1595,-17.0661,148.9211,4.5027,74.0779,100.1317,16.3799,165.1689,14.5677,-108.6397,0.3780,-48.6318,-99.2121,83.2882,130.1703,-57.0070,149.2268
-109.6327,-67.6383,91.2324,-70.9672,176.2418,-30.0465,168.9453,172.1163,98.6909,193.2623,-37.9865,-141.0139,-40.6443,-112.5099,-92.3985,102.3130,43.7742,-59.3232,226.1217
-129.4325,-157.9116,4.2638,-115.9155,195.0565,-34.2974,228.9372,270.3756,182.2138,232.7411,-56.2922,-164.9336,-89.5082,-128.3385,-51.1102,161.2335,-62.8629,-75.4874,282.9901
-174.8675,-194.9390,-71.4360,-169.8439,138.4636,-52.3118,192.5494,299.7224,200.5472,233.4260,-102.3480,-173.2029,-120.0041,-133.2395,-30.2915,178.4925,-151.9292,-122.9421,217.4356
-271.9435,-164.0634,-129.5994,-222.7030,16.4552,-97.5490,110.5378,239.0275,215.8727,272.2713,-204.5140,-171.9597,-186.9067,-163.4633,-7.3808,145.5857,-238.3195,-184.2734,93.5889
-379.3874,-168.3857,-217.5830,-246.6117,-103.6615,-121.6891,45.2965,169.7429,299.0598,396.9882,-292.3330,-184.6282,-281.1503,-202.5351,64.2161,149.6418,-324.5671,-236.9611,7.6570
-426.7262,-232.9772,-305.3548,-260.5585,-180.6391,-127.9301,12.5864,120.8693,359.5135,436.3898,-313.6603,-219.7028,-305.6696,-209.1117,135.7364,150.7910,-353.1405,-269.7273,-45.1665
-401.6168,-268.8770,-312.5124,-277.2900,-200.7634,-158.4102,21.4499,50.6474,300.1721,303.4544,-296.5889,-234.7809,-255.3531,-177.7921,139.0375,70.7967,-311.7156,-275.8238,-84.3629
-349.6929,-243.0407,-272.1902,-265.1305,-178.1735,-189.7250,48.5115,-14.7919,210.9220,179.0427,-270.3460,-205.8957,-224.3801,-157.7974,107.3476,12.1343,-270.9965,-251.0041,-93.6934
-309.8751,-209.2125,-269.0318,-221.1352,-149.9884,-174.6345,50.0452,-10.4898,201.6479,181.8615,-243.8595,-184.7811,-220.2269,-170.1602,102.6410,62.1922,-260.1465,-192.7682,-72.2027
-285.6179,-201.0788,-287.0259,-193.1631,-118.0429,-128.5789,55.1836,29.7961,218.2151,206.7681,-232.3170,-206.3772,-176.4212,-171.6786,114.4550,106.1182,-252.8915,-115.0644,-43.9114
-255.7381,-209.4341,-280.5654,-210.7280,-64.8382,-85.9170,103.2971,32.7343,194.3846,171.5809,-222.6493,-231.3217,-117.5222,-150.5291,117.1203,62.4577,-262.9640,-58.8752,-39.3816
-218.7524,-214.5041,-259.2812,-246.9512,-20.0481,-49.6721,131.8778,10.7730,177.6631,125.8640,-193.6933,-228.4068,-110.0481,-133.9529,116.9911,13.6421,-293.5008,-50.3159,-72.5319
-212.4007,-201.6188,-222.3230,-247.2114,-5.2996,-22.2217,99.3972,5.1147,189.9103,115.5640,-174.0945,-208.9124,-115.7553,-103.4539,97.8639,16.9197,-281.9962,-58.7311,-113.1141
-235.6450,-179.7378,-164.6721,-195.8142,15.5578,-8.4958,76.3863,3.3778,169.9301,120.9713,-175.7803,-184.1336,-67.5198,-54.4120,40.1947,39.4146,-221.1532,-44.9740,-130.9417
-224.6508,-162.6928,-134.8982,-145.8984,41.2991,-0.7440,75.3910,-11.0332,104.2867,113.3595,-156.8998,-166.8024,-4.0869,-49.8723,-11.3987,48.4705,-185.9538,-35.9444,-144.3706
-173.1963,-145.1109,-153.2097,-137.8762,16.7532,-9.2339,19.0797,-14.9441,48.8821,106.6961,-125.7626,-163.7584,1.6515,-91.1355,-13.0730,35.2043,-185.4581,-79.0433,-157.7992
-145.3934,-137.8448,-146.9642,-131.6516,-45.4425,-45.9726,-63.7377,17.9741,25.3932,127.9721,-124.6282,-146.9108,-37.7785,-102.1505,-0.2552,22.1863,-160.1129,-132.8044,-133.9187
-135.5875,-153.3937,-56.9967,-89.3819,-75.2164,-68.9519,-78.6753,76.0831,1.9464,146.8819,-112.7092,-103.8794,-54.3257,-81.3494,-18.7198,32.4982,-108.5545,-111.9726,-77.5214
-84.7441,-148.3529,67.9869,-47.9301,-64.9772,-40.9865,-58.6276,110.3388,-44.2199,124.0749,-47.3565,-77.2996,-12.4656,-73.1827,-58.0424,27.3832,-71.2667,-36.9238,-31.5913
-12.0360,-96.2811,131.1967,-40.9570,-49.2429,-6.5639,-69.7537,93.9652,-85.6230,104.3735,11.5824,-88.7224,54.7349,-57.1182,-89.5034,-10.3424,-55.0142,3.6272,-0.0443
28.7540,-52.2514,109.5611,-39.7283,-25.6671,-6.9134,-70.5424,65.4592,-74.1847,128.5480,23.7107,-97.4182,78.2026,-24.5157,-98.4076,-17.8534,-48.8653,10.8758,14.2283
44.2576,-35.0282,77.7337,-18.6159,6.8028,-10.5180,-45.9586,52.1251,-27.2064,136.8486,32.8301,-72.0972,42.4566,-16.5863,-88.1045,1.7672,-35.2291,32.0174,-17.2636
52.5755,4.4042,92.9711,2.8032,14.1602,-5.3092,-64.3059,18.2031,-18.8059,88.4422,49.9147,-31.2771,12.2886,-17.9589,-75.0698,-27.7397,7.0938,40.0749,-60.0077
48.1903,45.0791,122.9093,6.4688,-9.5875,-25.1762,-108.2230,-36.8241,-45.6142,27.1898,47.5651,-1.2719,24.3350,10.9436,-52.0670,-82.8951,52.2103,15.0869,-51.1200
39.2688,37.2608,127.2978,4.8516,-31.3772,-60.1776,-94.4779,-58.1673,-31.3215,-39.5022,36.0448,20.1289,27.8636,36.9535,-9.3463,-99.8764,49.0649,-2.1636,-38.3876
27.6737,39.2763,105.1990,11.0981,-52.2427,-80.9925,-58.1735,-59.8782,13.1021,-135.1371,19.1554,50.0863,-10.7815,34.7923,2.6273,-107.9413,9.2952,-28.6796,-101.3394
-5.0126,94.6177,49.0021,12.7918,-101.2025,-105.5959,-81.2735,-93.7108,19.0617,-197.4726,-20.3939,79.8676,-47.2837,40.9209,-45.4921,-116.3044,-18.8919,-101.3864,-180.5889
-42.7196,116.0346,-24.8675,-9.2565,-155.5932,-139.5549,-118.7916,-112.5792,18.4664,-154.7656,-51.8378,75.0126,-51.6973,53.2449,-76.9742,-76.0480,-37.9976,-140.8048,-169.4326
-44.7886,64.4488,-56.5623,-52.0838,-166.8452,-162.1786,-96.0470,-56.6349,60.5208,-53.8947,-38.6478,33.6397,-54.8684,29.2972,-51.2436,-20.6512,-88.1071,-91.2242,-90.1558
-22.9309,23.8808,-53.8749,-105.3555,-155.6968,-196.4192,-53.5413,9.4013,74.8351,18.1677,-13.4501,-7.4335,-72.0496,-16.6476,-44.2764,-12.8615,-189.3485,-60.9077,-30.8500
-31.4766,8.4935,-90.5935,-175.4639,-177.3771,-252.7891,-48.6369,4.5147,17.4627,44.5348,-18.6861,-35.8121,-76.8926,-41.4136,-80.1933,-25.6197,-316.7032,-115.8864,-2.3350
-79.1765,-45.5665,-156.7188,-248.6333,-214.2707,-267.8428,-49.0815,-44.8722,-16.6600,36.1656,-46.0872,-61.5591,-67.9748,-46.9653,-103.1445,-35.5004,-395.2512,-155.2744,38.6332
-109.6756,-101.0871,-177.2134,-272.7611,-219.2021,-221.5975,-28.9415,-84.9552,7.7304,-21.9057,-66.6851,-70.0885,-79.0549,-47.9603,-126.1556,-60.4494,-362.8024,-111.2301,97.0149
-90.5893,-68.3432,-143.3156,-220.6746,-204.5017,-162.5419,-24.0032,-92.9191,-5.5151,-118.8628,-63.9440,-46.8410,-108.3768,-28.9941,-163.3642,-68.5412,-259.8799,-33.2019,136.1056
-68.2274,20.8678,-95.0419,-131.5584,-196.3316,-87.6229,-38.2361,-56.1183,-66.0134,-170.0447,-52.9142,-4.4571,-106.6025,19.6625,-132.4129,-35.9889,-183.3779,33.5785,138.2925
-74.3771,71.1169,-60.0665,-56.8800,-186.8446,9.4244,-29.5234,-11.4613,-75.9599,-103.0319,-61.6911,43.4968,-58.4848,64.3079,-35.0961,-14.8293,-156.6987,69.5445,128.5557
-56.4207,77.8184,-46.4748,-8.6520,-175.9657,56.6859,-1.3773,-23.9066,-37.7190,11.9154,-69.9067,74.0301,-14.5964,63.9861,-11.6212,-29.0544,-126.7266,68.5486,127.5484
8.7980,92.3472,-18.1896,16.1530,-164.9199,37.0177,7.3591,-69.7140,-26.2508,28.7879,-43.6144,54.8623,-8.2794,30.5873,-88.8261,-43.8884,-65.9064,71.3905,119.8301
54.4702,111.4716,50.0770,6.7952,-129.0122,23.6174,4.5264,-77.3327,-27.1057,-57.5334,-21.1115,16.5210,-6.9315,3.1138,-136.3505,-47.4059,-4.8955,87.5451,97.1362
57.1724,108.2477,87.9015,-28.0265,-81.2716,21.7483,16.2927,-60.8847,-7.2200,-109.8002,-46.8322,37.5108,12.3062,-14.6365,-94.2365,-43.4147,27.1364,55.6893,82.6499
66.1633,110.0930,49.9842,-30.5071,-82.4546,4.2104,19.3851,-54.4018,-5.1689,-75.9307,-81.6336,117.6814,14.4559,-14.9055,-19.1735,-26.7317,47.8277,-14.4684,84.0640
80.0862,146.2122,24.4300,38.6258,-133.8767,29.3302,-12.1895,-13.4717,-20.5988,-37.6417,-80.9236,176.6379,-18.2843,41.3701,34.7493,-6.6093,85.1956,-32.5746,82.5160
71.7760,174.1391,65.3983,115.9356,-170.0081,105.2132,-45.0061,69.2251,4.5348,-32.4518,-62.3854,177.4513,-40.6555,120.8265,47.3406,12.0523,119.2757,2.0696,74.8240
73.2804,158.1072,105.6646,110.8658,-164.7193,125.9111,-36.7140,108.5406,56.7369,-10.3868,-58.1012,148.9777,-14.9291,129.8542,31.7284,30.9737,114.5407,14.9975,70.2617
90.6854,141.1536,111.6315,50.8279,-145.7004,77.9663,1.1072,89.2435,83.7437,43.1818,-97.7286,122.3449,32.7509,90.1192,27.7925,35.7208,91.2445,-9.1188,62.9133
65.8569,143.9024,98.4895,30.2075,-137.8280,54.1119,30.9352,88.1804,95.4730,93.3772,-190.4944,111.3455,51.3140,90.4982,37.1388,39.7831,90.3177,-57.4393,43.8274
-0.1971,111.1141,44.4749,48.3826,-151.1781,46.8230,38.5707,102.1088,93.6439,123.7481,-268.1326,104.3112,27.3114,85.9876,23.6659,70.0208,103.8539,-129.6817,16.7175
-42.4603,38.4332,-18.9792,38.9585,-175.5011,-8.1487,32.1502,64.8765,46.8879,104.8277,-260.2609,66.8468,-3.1117,6.1878,-11.7076,82.3643,110.9117,-174.3544,-2.9410
-43.5339,3.3536,-5.2642,5.2417,-178.9097,-69.8813,21.8841,-2.6662,2.9960,-6.3141,-210.3958,3.5145,0.1656,-54.1842,-36.7730,36.7292,118.0514,-135.7489,4.6737
-24.7358,24.5344,49.2332,-10.4246,-153.2374,-82.5748,16.3852,-48.0696,32.1989,-138.2253,-188.2739,-26.3851,36.5968,-17.0332,-35.6294,-6.2178,120.0455,-61.7276,35.5292
6.6330,42.1450,44.8132,-19.6035,-130.4283,-84.8112,23.5203,-81.5101,78.5614,-137.0544,-175.9308,0.9582,79.0760,9.7172,-10.0602,-0.5496,102.9089,-36.5675,59.8811
43.2079,35.5280,20.6513,-44.2927,-132.1450,-111.3390,38.3604,-89.4667,60.1629,-7.3131,-138.7422,33.7937,101.5107,-46.2996,17.1549,15.2150,87.6132,-60.5855,68.4994
78.5737,24.2286,54.4343,-66.6831,-144.2481,-134.8762,37.5103,-30.8174,14.7752,91.0149,-91.4883,27.3514,79.6344,-89.8002,12.4386,20.0148,88.9800,-84.9555,65.4190
101.8280,-4.1332,87.5307,-79.0223,-146.3294,-136.0425,12.4283,39.1469,2.3403,107.3158,-55.5192,4.3401,25.3600,-70.3694,-24.8339,17.9216,73.4387,-96.7095,25.5752
74.5605,-57.5030,40.1943,-94.9970,-140.6415,-118.5642,-5.5067,40.3697,19.4766,94.8559,-44.5100,9.4992,6.2703,-59.3174,-64.0594,-4.0598,24.0005,-103.0137,-55.1681
-6.8375,-88.7195,-48.2547,-103.3222,-146.1939,-83.9451,4.5100,7.9216,63.6255,23.9529,-68.1650,42.8946,43.5939,-76.2599,-73.6312,-20.3916,-16.0354,-85.2230,-117.7265
-65.3097,-59.0244,-92.4321,-84.1548,-158.0120,-45.2490,18.1398,-5.9213,112.9193,-95.2201,-104.2970,61.0663,58.6962,-65.8029,-35.1024,-0.4153,0.7200,-29.1952,-122.4724
-46.6011,-4.8583,-62.2395,-45.8355,-137.1770,-12.9333,31.1256,-20.6535,97.7704,-108.1971,-115.1608,37.3083,18.2054,-21.2435,18.1856,13.5730,72.6087,36.9823,-88.1876
12.2103,17.9511,9.4303,2.3691,-68.2342,34.9365,80.4751,-23.0201,37.2825,2.8388,-82.5708,0.9328,6.5387,25.7187,17.0976,4.0112,148.2593,98.4227,-25.4845
59.9785,22.4680,69.1952,65.8077,15.3526,110.4537,153.5033,26.0871,56.7514,56.8011,-11.3507,3.0557,67.9543,74.8981,-30.8646,23.1013,171.6233,180.3295,54.3878
81.7447,55.8489,96.2723,131.0914,77.0183,170.9392,182.4523,74.8367,173.2012,22.2587,52.2637,55.8174,131.9229,127.6597,-42.3318,61.2597,154.7114,247.7736,97.3993
80.5067,103.7047,106.2786,171.9841,99.6148,172.7679,156.7141,55.8238,259.0938,16.3454,49.8748,121.4542,139.6473,154.9846,12.0251,60.5495,164.5755,218.6012,81.0253
74.3702,117.6283,114.8493,192.0751,83.9151,141.2155,128.5209,-0.8532,253.5815,4.6074,7.0776,154.8749,102.1182,140.4186,91.2207,33.5049,213.1688,146.8973,58.9182
80.5187,107.4528,131.7697,216.6005,65.7325,138.2711,123.7968,-39.0004,211.7016,-80.7104,4.5102,145.0110,56.6366,116.1861,147.4220,11.1637,245.0790,173.4585,71.7195
99.6651,108.0609,156.4530,247.7240,83.2849,185.0351,140.8141,-39.2609,166.8241,-140.3121,46.8964,114.3257,56.4653,130.9312,140.2539,-11.8348,238.7855,265.7657,97.1824
134.3432,110.9567,163.9520,260.8751,119.9980,252.9177,173.3621,-4.2723,114.9699,-121.4407,78.8190,89.8162,114.3008,182.2260,90.7576,-21.0515,217.6553,283.8024,93.0199
168.3415,115.5960,142.9689,247.4407,141.6989,302.8442,185.3138,26.2945,84.1529,-96.8987,82.0924,87.5276,147.3474,212.2673,82.8233,-7.5353,188.4686,248.9002,42.7571
150.4499,152.3714,120.9071,237.9977,151.7176,306.9981,149.5003,30.1517,92.6847,-53.3891,60.1905,113.0256,102.0326,198.8848,101.2442,4.2339,155.6185,253.7232,-3.8090
79.6670,199.6837,118.6546,263.4123,164.8712,270.1471,101.7794,68.8670,93.6073,32.8145,17.3006,152.8190,52.9006,193.0344,38.9060,24.2576,142.2859,250.1215,32.0365
39.7038,200.0348,134.5444,306.0607,190.5983,232.5381,79.3375,159.5563,46.0286,52.8930,-4.7219,177.4078,60.7711,215.2953,-64.3375,59.9381,151.6741,182.2399,127.4367
78.3931,165.8170,159.8691,322.9851,233.4363,207.8712,68.5090,197.4873,-13.6019,-20.0792,28.3999,173.8908,77.4589,205.6890,-62.3340,56.2754,165.4288,124.2522,176.3595
144.3387,152.1879,167.3346,308.7840,257.4693,165.0102,53.3109,146.6652,-39.6055,-62.1296,81.5592,158.0738,65.1463,142.1963,20.0483,11.7149,178.9980,123.9734,168.4857
170.5453,161.2976,144.8883,292.6887,220.9732,116.7059,32.0680,108.8125,-54.0293,-38.3151,108.7230,144.2174,47.2963,96.8521,42.5297,0.9483,194.4253,131.8792,185.0270
138.1040,157.5157,136.1872,280.4787,159.9003,122.2390,2.2434,125.4053,-80.6096,11.2250,111.9721,126.3929,34.3326,106.3625,-6.6400,16.5762,204.7711,131.6105,231.6644
82.5655,124.6384,170.9514,245.7609,131.5164,164.7458,-15.1033,135.4857,-80.1181,104.8166,115.6921,96.1975,30.3255,107.9563,-53.8598,-3.2297,202.7213,148.9174,243.8929
80.3419,77.7690,217.3497,181.7979,118.6678,169.4128,-9.1086,124.8609,-37.5141,200.5172,140.1615,63.4447,52.6199,67.3672,-73.2681,-24.8191,187.6989,170.9330,202.5082
161.6944,57.2088,246.2747,128.2775,91.8627,151.1731,-24.9979,131.8584,-10.1674,215.2100,180.9994,52.4037,77.7974,52.6419,-51.0887,13.2109,175.6794,177.7391,134.9336
238.4136,80.8491,245.0721,122.9153,75.4727,182.1517,-71.1927,162.2150,-15.0495,210.2391,197.2378,70.2954,69.6489,111.0425,14.1253,80.8952,181.8947,177.2541,82.7326
211.2843,99.6563,201.0739,136.1865,90.9606,240.5725,-75.1448,193.3516,-7.4160,240.8290,172.8698,84.8038,60.8928,171.4124,55.8196,112.2733,178.7494,172.3647,86.8590
125.5265,70.9556,158.7195,105.5196,132.6555,249.9783,-22.8344,201.1288,-2.6690,200.1969,157.4234,63.8870,102.3736,152.1961,18.1617,86.0714,139.1244,163.6520,130.7820
105.5564,36.3321,171.2168,46.2133,190.1493,217.1798,13.1126,178.6414,-44.2532,78.4822,181.6973,31.7012,168.1021,95.7564,-54.2759,41.5772,102.9846,160.1755,153.2423
155.0829,50.1423,178.4626,47.9032,228.6679,205.3883,17.6265,152.2324,-79.1546,32.8645,202.0724,38.1541,187.4340,96.9489,-74.5634,40.7046,102.5544,162.0804,144.1461
162.4308,100.0881,120.8548,135.3213,218.8757,227.7892,31.7676,136.2087,-49.9288,67.7207,182.0004,83.1771,141.8518,146.8032,-12.9374,68.0834,103.6888,177.9785,134.2934
108.6265,150.0881,86.4291,232.5151,194.9088,252.0963,58.7102,113.3628,-17.3477,46.9214,154.1433,120.9756,94.2240,166.3705,66.2124,47.3759,107.4416,220.2742,125.1714
96.0493,184.0228,142.7533,283.7815,195.2667,263.7173,117.9231,94.5040,-28.5987,-9.4511,162.9009,125.8363,110.7157,156.7368,73.0103,-3.6056,153.9239,249.7782,112.7779
139.6439,189.6995,199.8165,298.9428,200.6841,271.2480,254.8962,102.8172,-12.4777,-2.5493,191.5572,114.6142,163.9992,173.2667,29.5295,-1.7659,195.6578,215.1228,101.1593
134.8974,164.1892,190.7138,282.0473,192.0713,274.4822,400.6629,113.5748,67.8761,33.5369,182.5473,116.0514,180.0988,193.9368,44.7780,35.6874,168.3414,148.4672,64.4252
61.9603,127.9095,163.8595,223.4229,174.3736,259.7802,410.3778,106.1070,128.6015,39.4813,125.2615,135.4287,156.9709,164.1677,114.4904,43.4152,127.0437,111.9341,-10.2617
4.8820,99.6910,137.0498,145.2545,133.0975,219.0090,284.9936,102.2625,114.0969,35.8415,72.7203,144.1309,124.0317,113.7650,121.8105,35.0322,123.6775,85.9758,-79.1675
-14.1622,79.1431,83.3609,84.0907,70.3977,155.6678,174.6922,104.6195,82.2577,33.8711,48.5367,115.8789,59.7182,95.4094,60.9194,43.4108,111.3786,26.6813,-103.0755
-26.0662,59.9841,35.2573,55.0077,42.8065,85.9213,164.9195,100.1150,95.7142,38.5072,18.7462,72.2470,-22.5714,91.9070,39.6999,66.6586,87.5186,-22.4044,-75.3563
-26.1517,42.9099,34.3271,53.9559,82.0084,45.1084,200.2642,105.1696,129.0491,91.6472,-15.5707,54.5466,-42.2657,84.5517,67.1008,105.3138,102.4998,9.7308,-3.0135
-22.3948,38.0014,55.3909,69.7263,138.6598,58.2267,198.4542,122.4808,113.5752,169.6023,-9.2721,60.1906,-1.9609,100.6850,57.4128,130.4320,125.5601,96.1254,56.9557
-36.5849,53.3972,61.6947,100.0954,147.8450,91.1680,139.1864,124.4054,33.6982,167.7882,28.3288,60.4921,8.0089,130.2152,0.8333,89.9551,123.8233,147.1600,32.2751
-32.5664,81.2513,50.0630,142.9204,110.4284,83.3399,54.3296,106.5642,-50.7080,74.9955,44.5513,57.9030,-18.4172,115.4166,-48.2074,17.9376,142.8700,142.9163,-41.8471
7.0176,103.0930,33.6409,154.6967,88.7532,31.3284,-3.6441,79.1503,-84.6848,10.4644,35.8987,63.6414,-19.2305,50.6867,-67.5934,-2.9898,166.5559,136.4719,-67.4455
20.9057,101.2704,32.8387,97.6072,113.5606,-17.8389,4.9716,40.7846,-81.9183,38.1430,33.4335,55.5843,-3.4735,-6.6801,-44.8688,14.1296,134.7849,142.7624,-40.0762
5.6599,76.3728,54.3715,41.4187,130.1226,-35.4964,50.2526,1.0892,-79.3016,78.3664,45.5412,21.6110,-4.3675,-18.7119,17.1861,3.0619,115.9888,131.4001,-21.8945
35.0810,69.4853,77.0006,83.4193,98.7029,-18.0155,45.8166,-31.2083,-80.4743,43.8606,67.8992,-2.9875,8.1874,4.0577,43.3112,-27.9606,185.0759,116.9357,-24.3227
95.7601,118.4124,90.8939,181.1246,78.7714,31.7901,-11.2998,-54.0507,-75.1954,-36.2655,92.9187,3.0597,55.3788,32.2448,-14.3083,-30.5768,250.1651,133.9888,-19.0788
114.9368,174.3346,109.2936,219.9329,119.3557,83.1982,-11.9525,-44.1200,-61.5966,-84.5398,107.3716,5.3158,96.5976,43.9887,-68.4379,-12.3744,231.2476,145.7640,11.3925
108.8034,153.2433,119.7009,188.1981,167.7938,90.5460,61.8173,-14.5290,-37.6463,-98.0561,116.0881,-23.1213,97.1760,38.5698,-40.9987,-18.3694,188.0478,104.1346,60.2598
112.1316,73.2188,88.8530,148.6779,171.1521,59.9848,84.9218,-35.1663,-10.1321,-120.8780,126.7298,-57.4894,72.7862,28.7673,9.6101,-45.5308,156.0527,55.5077,87.4501
80.8015,17.6637,28.3272,125.3804,149.0917,44.2792,28.8589,-88.9471,1.3581,-142.9404,115.3756,-70.4521,58.3684,14.3684,20.3356,-39.0475,116.5593,62.1226,77.5965
9.2220,-4.8630,-6.9142,102.2257,127.3647,48.6578,1.0608,-76.5833,-13.0396,-126.2151,74.4432,-70.6942,61.7661,-23.3668,2.4693,2.9935,104.9119,82.4664,85.1242
-9.3057,-26.8800,4.8072,53.1680,106.6954,12.6874,5.1074,-27.7448,-52.2263,-92.5785,50.5266,-75.9351,57.6019,-90.2302,-48.8700,0.3869,128.8104,45.6702,119.7347
64.6078,-26.1637,25.6083,-29.3945,89.4712,-78.9622,-46.6407,-55.6182,-112.1011,-84.4800,69.0368,-88.1053,39.9869,-149.5563,-124.1590,-68.8582,119.3409,-22.9446,95.2323
141.9689,2.3375,23.6387,-97.0103,78.0152,-144.6996,-118.3812,-113.7139,-165.0616,-77.0868,91.5915,-99.8913,35.6796,-155.6999,-140.5784,-111.0677,77.3781,-45.1640,4.6431
134.7037,-12.1546,16.0193,-107.3387,76.8814,-123.3600,-124.6528,-76.7387,-170.2915,-24.9105,85.2629,-105.0674,36.3272,-129.6831,-81.2661,-71.5288,63.4319,-8.7562,-37.5122
60.6552,-90.3094,18.0835,-97.9305,89.9475,-68.3870,-98.9139,20.9655,-130.3779,44.7050,58.7610,-106.9041,10.7720,-139.6573,-36.1606,-9.7999,51.7841,20.5793,-13.7791
-5.5654,-142.8756,5.7419,-98.2054,91.5365,-57.9228,-91.1085,58.5559,-89.4417,65.0302,31.1378,-113.9778,-10.9474,-185.6988,-23.7531,14.4365,-1.4915,-13.2332,-40.7690
-22.9214,-120.2694,-39.8927,-73.2169,52.4564,-89.9339,-82.9243,10.0375,-69.7306,21.5155,22.9669,-119.0842,8.1471,-202.1504,6.3962,-2.4237,-53.6242,-92.1562,-146.6032
0.4689,-91.4685,-100.7195,-36.5730,-8.7714,-123.9972,-87.3435,-76.2796,-61.2171,-38.5520,45.9111,-108.1629,26.2575,-180.8655,25.7580,-41.4902,-75.7910,-156.2281,-223.0535
32.8987,-111.9443,-145.2783,-55.0217,-53.8311,-143.1030,-123.6810,-142.6379,-58.1571,-60.6928,72.1483,-96.8425,11.1870,-165.8085,2.4155,-59.5151,-101.0218,-180.2882,-200.3382
29.4287,-135.5222,-152.3603,-106.7410,-66.8962,-134.7951,-128.3387,-138.7889,-58.5626,-38.2569,66.9572,-109.4929,-0.7497,-149.0123,-6.0041,-28.5081,-125.6760,-183.2812,-118.8009
-23.7559,-109.8534,-128.4204,-106.8586,-54.1338,-86.8477,-69.3930,-76.7226,-51.3101,-27.2518,49.0362,-118.7377,-3.8505,-102.8754,21.9657,0.1687,-113.9707,-172.2730,-51.7072
-59.0411,-59.2277,-104.5322,-49.1533,-47.1859,-22.1999,-25.8821,-31.2064,-34.6178,-73.6442,56.0193,-75.4622,-24.3557,-57.4084,35.5027,-25.0822,-76.6388,-133.9380,-33.1465
-12.8578,-25.8191,-91.7181,8.6359,-64.7116,11.9251,-39.1074,-45.2575,-22.5187,-136.8520,77.0467,0.4570,-29.8092,-43.0148,25.9307,-60.9055,-51.3941,-81.8770,-45.9180
53.8984,-5.4554,-80.9531,33.2990,-67.6518,-6.0710,-59.2267,-97.1862,-25.7429,-161.4933,79.1734,43.8123,2.7181,-43.5390,10.9196,-63.1415,-58.9495,-52.8147,-69.5397
48.6082,19.3754,-87.1279,29.4664,-44.4964,-51.3329,-79.0837,-144.8879,-46.3743,-171.6752,63.1417,49.5096,11.6235,-49.8204,-13.4932,-76.4554,-93.7663,-49.9504,-112.2632
6.8812,39.7209,-109.5266,31.2093,-56.3456,-79.9936,-130.3036,-153.8152,-74.0426,-186.6715,46.6028,59.1312,-30.4529,-61.5276,-19.9747,-127.2853,-115.5552,-39.3411,-159.3992
6.5139,39.4308,-105.1578,60.9786,-98.7031,-80.5011,-166.6415,-126.3491,-79.3225,-153.6611,30.6642,68.1796,-57.0047,-58.1484,15.5606,-148.7525,-101.0856,-13.4165,-169.3781
10.9346,18.7334,-89.7592,71.8835,-96.4173,-83.3446,-130.4402,-105.9266,-48.6105,-79.5137,14.7037,50.6279,-37.8968,-47.5680,48.5866,-100.4991,-104.7939,-19.2111,-162.5632
-43.7787,-12.2520,-132.4975,10.1209,-75.0878,-109.6814,-77.7852,-106.4780,-14.2254,-60.8442,5.5916,29.8348,-33.4088,-68.0638,43.6752,-43.8231,-179.0366,-94.7966,-192.6635
-113.9502,-49.1193,-203.6066,-91.0131,-94.9161,-147.1384,-83.2403,-94.1827,-1.7819,-86.6701,-7.9125,21.8145,-88.7262,-106.0553,10.2516,-25.5647,-278.5404,-198.7561,-227.2731
-133.1798,-99.3370,-220.3018,-168.7324,-93.4851,-175.7312,-103.6156,-67.8588,15.1331,-29.5592,-48.2158,-19.8795,-156.7181,-114.9095,-47.3020,-5.5749,-331.4271,-248.8645,-202.6667
-124.3734,-163.8259,-213.0686,-218.0942,-49.3825,-173.3176,-75.3168,-55.5427,54.9354,105.7687,-103.0324,-109.8895,-147.4848,-101.7047,-81.9053,39.8143,-334.6250,-230.4503,-147.5625
-135.0838,-215.0057,-236.9011,-259.2675,-73.9470,-125.8622,-38.0659,-36.2531,85.5021,170.6571,-128.3127,-178.3056,-59.1355,-94.7942,-22.3465,65.0008,-319.3516,-206.5194,-114.5513
-156.8599,-226.0686,-240.1837,-286.1436,-135.5712,-67.7834,-27.0210,7.0165,94.8448,129.7085,-110.7402,-182.2217,-7.2690,-81.4641,73.0721,50.5890,-294.1071,-205.6885,-83.6691
-164.7448,-213.3080,-200.5148,-274.0771,-60.7747,-49.4338,15.1103,18.7203,119.2541,94.2799,-90.2219,-160.1569,-43.1832,-53.0087,83.9344,34.1454,-256.0676,-183.3182,-37.3185
-161.8362,-202.4665,-199.8715,-215.3962,80.9363,-53.2580,87.3443,-4.9296,152.0399,117.3298,-99.3705,-143.0908,-61.0686,-37.6342,31.1121,35.8417,-213.4707,-124.3563,-13.6526
-160.5394,-180.2384,-254.1187,-154.3713,45.1944,-28.7918,72.5639,34.8958,129.7958,149.8955,-115.9786,-125.7799,-8.5203,-51.6457,-5.7159,45.6947,-178.8640,-80.7736,-28.1975
-166.1839,-130.9446,-272.8668,-146.1573,-131.8552,5.4982,-47.5791,129.3960,54.7872,157.7993,-110.4908,-121.7401,10.7897,-80.1153,-36.3090,50.4722,-150.9412,-67.3898,-47.4798
-173.3849,-79.8443,-220.7018,-169.0122,-199.5914,-8.0763,-125.3818,132.0294,11.3233,145.1024,-104.5129,-142.4025,-40.7483,-101.3510,-58.9428,33.6085,-116.5654,-37.2909,-54.0726
-161.0994,-57.3578,-154.9275,-162.4529,-123.3977,-61.8435,-91.1748,46.5109,18.2322,121.6528,-126.0159,-151.8455,-68.6410,-92.5143,-27.4345,15.2772,-77.6752,5.6332,-65.2626
-116.5931,-56.8685,-118.0784,-123.5563,-56.7877,-94.0139,-48.7727,32.7805,-3.6424,114.7742,-141.4137,-116.1763,-52.8580,-46.4093,13.1751,46.0620,-48.1724,-1.6506,-93.0447
-58.7660,-47.1166,-84.4705,-76.6358,-35.2782,-90.6400,-71.8328,75.5257,-79.4420,129.4313,-107.2191,-53.5282,-51.0715,-2.5854,-18.2395,85.9569,-22.1258,-61.8226,-125.8052
-9.2822,-8.9860,-10.9181,-36.2594,-2.0317,-107.4490,-116.5517,13.8015,-140.7152,97.2298,-50.4929,-0.3161,-43.4512,-13.2955,-84.5079,36.3346,9.1438,-116.1191,-156.4437
29.1367,35.7279,77.6183,-39.4460,22.6528,-170.5693,-155.9271,-122.1293,-164.8297,-16.8577,-20.1195,27.7468,-7.8023,-65.2910,-103.8786,-59.8160,29.7030,-139.3887,-198.0956
44.1289,43.7937,105.8040,-84.3042,-0.1523,-216.7856,-214.2651,-168.6543,-198.6821,-112.5854,-14.3617,36.4529,-12.4067,-87.0533,-82.3875,-71.9018,35.5604,-129.6811,-232.3891
23.3394,15.0984,76.9083,-89.8053,-36.7163,-192.4045,-268.3434,-124.1208,-234.2799,-101.1095,-17.8717,40.0209,-74.0856,-54.0788,-73.8463,-21.6721,46.4424,-79.0526,-202.6744
1.5072,-7.7535,66.5464,-44.2887,-55.9894,-147.9839,-260.0579,-95.8193,-218.4293,-51.8979,-33.3219,38.8415,-108.5240,-30.4266,-89.3035,-24.9549,51.9867,-27.9774,-134.3832
15.3885,-15.1019,71.4042,-36.9619,-83.2449,-149.2271,-201.2271,-105.9453,-171.1601,-54.7406,-47.0236,22.6544,-89.6843,-60.9906,-83.1701,-75.8502,21.7069,-32.1085,-135.0356
26.6037,-32.0714,30.3782,-67.3481,-128.7939,-167.6902,-161.5813,-121.6592,-148.5714,-85.4056,-44.0061,6.8539,-75.6734,-89.3678,-25.6597,-94.6157,-27.7896,-55.4328,-189.0013
-14.6194,-51.9407,-31.3690,-54.6392,-162.3251,-145.1454,-163.9620,-124.0927,-136.3538,-112.4883,-40.4893,16.2716,-85.3102,-58.9925,17.2769,-69.9127,-50.2298,-38.0569,-179.6166
-64.9534,-45.2349,-46.6970,-21.5210,-174.9123,-86.0392,-168.7355,-103.1448,-102.8663,-145.9145,-38.9999,28.6451,-84.1072,-16.1614,-28.2397,-31.8401,-35.2282,-22.1204,-174.2480
-50.3852,-10.9731,-24.7026,-31.2056,-178.4031,-31.1876,-148.5430,-79.5297,-76.5622,-144.2328,-20.3203,8.2070,-55.6215,-19.9697,-89.3853,-1.7448,-12.2196,-59.6597,-342.4478
5.7574,28.7719,-16.9143,-52.8410,-159.3259,-9.9332,-115.2650,-80.5378,-77.2158,-78.2951,-6.1474,-15.8954,-28.5249,-41.6861,-49.5143,0.7525,-18.5226,-95.5713,-567.6657
18.6582,47.9721,-44.9695,-59.4457,-110.8662,-21.4425,-77.6229,-85.0663,-63.9748,-28.8465,-26.6872,7.3816,-41.5687,-37.7996,44.4327,-23.8128,-58.9974,-70.3086,-559.4247
-24.2242,26.4620,-83.5251,-82.5526,-60.2032,-24.3864,-20.8458,-72.8852,-11.7877,-44.7644,-53.2831,50.1633,-67.1733,-25.0688,69.3799,-53.3246,-81.3392,-20.1104,-334.1989
-60.2820,-23.5831,-74.4109,-110.6482,-11.7766,7.1795,59.0485,-58.7103,42.3670,-49.6972,-61.9020,36.5673,-32.6198,-27.4710,26.9321,-68.9977,-45.9728,-1.3818,-170.8690
-63.6463,-71.7247,-10.3369,-116.3375,45.8001,23.8663,121.3703,-43.9044,60.2906,-7.2714,-76.3622,-37.0717,30.6944,-39.1353,-6.0722,-60.2040,-3.0242,-20.1227,-162.8730
-65.3190,-111.3799,28.8296,-127.8795,69.5975,-22.6972,112.7070,-37.5851,49.8805,6.6332,-88.7693,-87.2392,12.9381,-51.2843,-9.8254,-47.6308,-12.6993,-49.8730,-178.5228
-67.1096,-133.4997,4.8065,-144.7655,27.2747,-87.5099,48.0197,-69.0863,31.5620,-54.3813,-66.0616,-58.9985,-56.4554,-45.7834,-2.6087,-68.6484,-45.8376,-56.1274,-153.0583
-39.1164,-110.0541,-25.8925,-121.0640,-17.7478,-100.0400,4.9804,-108.1886,-3.8103,-143.3862,-38.2375,-0.7812,-51.9420,-0.3784,1.9723,-95.1553,-55.1429,-31.7514,-131.1075
-5.9530,-59.9456,-39.1993,-74.5786,-16.9062,-67.2156,3.0003,-107.3321,-63.6330,-186.2646,-46.2853,13.4001,-5.6307,54.3968,-8.0025,-76.1874,-58.1902,-14.4490,-125.3078
-26.2509,-37.4299,-63.5561,-57.4548,-18.6664,-51.2127,-17.8592,-107.4656,-102.1308,-162.9896,-60.4151,-7.9675,-36.6970,56.6452,-16.3798,-59.9317,-79.4350,-24.3237,-120.9857
-89.1929,-38.3143,-89.3251,-64.7719,-46.6345,-87.7539,-66.3348,-143.9573,-79.6139,-152.2588,-52.7318,-8.8507,-102.5321,13.0138,4.1510,-104.5496,-104.1678,-29.7449,-135.0647
-126.6857,-35.2185,-100.0675,-79.9225,-53.5001,-142.7706,-79.7940,-159.3558,-52.1658,-211.1643,-47.1089,10.1863,-93.2782,-4.9104,19.4505,-138.7824,-120.7238,-9.1785,-166.1673
-109.6729,-58.0883,-107.1022,-111.2307,-29.8659,-146.0318,-46.1703,-124.3256,-83.6023,-228.2002,-48.1915,5.8880,-41.1225,29.8450,-23.2087,-88.1360,-134.3163,17.8739,-163.9587
-69.6076,-119.1314,-95.1868,-148.3321,-9.1836,-88.9191,-14.8352,-80.1852,-117.3122,-101.7046,-34.1436,-25.6336,-23.2142,68.9078,-86.7281,-10.4827,-147.8257,23.6098,-118.1344
-52.1398,-157.5213,-58.4344,-168.4839,-4.6287,-43.2375,-15.0116,-42.4313,-88.1119,35.1117,-13.4843,-54.2408,-24.4057,73.8986,-95.4448,18.6610,-157.6675,-5.8910,-97.7491
-71.1916,-145.7914,-41.3234,-156.0493,-31.8273,-44.1358,-51.5352,-11.8677,-67.7271,29.6535,-9.5543,-62.5260,-23.3692,69.7742,-56.9338,8.4241,-141.3610,-48.0555,-129.6816
-92.2488,-123.3492,-44.1336,-97.9011,-87.9075,-45.6604,-102.0564,-2.3667,-124.2739,-34.3060,-28.9678,-47.3188,-41.2189,85.5146,-27.9492,-2.4861,-81.9342,-48.6818,-132.9372
-79.8007,-100.9201,-25.1447,-23.1118,-105.5558,-31.1593,-103.9035,6.6886,-166.7587,-35.9229,-64.5251,-22.7284,-57.1013,89.0105,-24.8141,3.4449,-24.7046,3.2186,-59.0328
-43.2772,-62.5064,-9.5927,12.5184,-57.7887,-46.8278,-46.4207,20.1645,-105.9873,-34.0828,-83.3484,-18.3715,-25.4823,42.4882,-35.9997,4.4841,-18.2418,53.6724,19.9731
3.4554,-26.6896,-15.1194,16.5846,-15.6492,-92.2640,-0.4041,-5.4618,-23.2864,-111.3212,-51.3182,-29.9500,29.3641,-12.5685,-40.0670,-35.3936,-12.8459,65.7019,44.7216
55.6415,-12.2651,28.5238,19.9742,-8.6760,-102.6121,13.2273,-42.0400,-21.9617,-214.1928,4.0522,-21.1945,43.7848,-15.8068,-6.6086,-75.9338,47.9637,52.1357,50.2625
69.1927,-10.6590,122.3718,-2.3865,4.6439,-61.0911,26.5576,-11.2330,-58.7971,-242.3018,27.4176,0.1240,12.0227,6.3445,37.1331,-41.9983,104.5360,37.5834,67.7975
24.5948,-17.8298,157.1618,-41.7119,11.4424,-16.2549,11.5075,49.8163,-52.9799,-185.3424,21.8662,-2.3172,-16.5217,-1.1232,23.2418,15.6279,100.0779,47.9455,90.2841
3.9116,-22.7152,114.7741,-31.3177,-16.6956,15.6582,-41.2034,55.4363,-28.0026,-138.4644,25.9450,-9.1782,-17.3939,-16.5420,-15.0401,-7.9776,90.5275,89.5983,127.2639
53.6341,-6.1110,81.3064,8.9209,-26.9301,57.7561,-48.8398,26.1618,-35.1835,-169.6099,45.8437,14.0286,-15.4542,0.7374,12.5329,-68.3960,104.2979,126.8824,171.7856
83.2172,5.2393,77.3200,9.6123,9.1014,90.0098,-8.5558,4.9861,-47.2129,-210.4909,63.8768,35.3061,-26.4122,20.5635,61.4600,-63.8290,78.0838,137.0102,175.3210
39.8920,-27.6486,76.3780,6.4658,23.8750,71.4142,-25.5307,-23.8494,-23.3732,-183.6322,72.6155,17.3005,-28.1054,1.1945,33.4830,-29.0392,15.7013,130.2629,124.6949
9.0961,-70.8327,91.7250,41.3050,-13.9025,30.6586,-86.4337,-47.6029,10.4942,-133.9571,80.3526,-10.0659,-9.0951,-35.1028,-11.6896,-31.0939,-1.2394,87.7011,56.1963
44.1164,-69.7885,115.6722,49.9033,-48.8744,18.9006,-79.4719,-30.7066,23.4366,-104.4988,95.2578,-8.4857,11.7697,-49.3135,35.4111,-27.6180,24.2205,-7.2866,-2.1331
89.2318,-39.4189,104.6466,19.4173,-47.7368,7.4482,-20.0362,-0.1963,33.8070,-67.5239,103.8661,14.7110,22.7961,-44.9974,130.1823,11.3981,33.4169,-98.0908,-22.8026
98.4388,-18.5285,61.6060,35.8871,-34.8365,-43.2786,4.1691,-0.2231,53.4041,-50.7854,93.0659,38.0838,19.4446,-43.6364,165.1150,15.3810,38.6808,-135.3122,16.0645
70.9503,-7.3330,25.1070,96.7201,-35.8454,-79.6948,3.6442,-25.1077,70.9345,-88.0821,83.9903,51.9323,-1.8678,-43.4454,130.3536,-39.3842,59.8164,-144.7868,79.2560
19.3216,4.5091,13.8850,115.7609,-44.4400,-49.3594,21.1785,-43.6607,100.7379,-84.5563,87.0979,61.2253,-7.8965,-29.7501,89.6039,-59.0427,60.1393,-143.8964,126.1233
-7.7673,12.2634,28.0504,86.2172,-32.6276,-6.3960,41.0607,-28.5161,143.7131,29.3875,72.6184,75.6946,26.4289,-12.6212,92.3525,6.5995,35.5238,-123.6874,179.8995
28.6136,9.7616,43.9728,53.4791,-3.4652,-4.2345,39.9043,20.3882,142.9893,163.5174,43.8883,76.3080,35.6873,-16.2928,115.7698,80.0502,21.3447,-114.2024,251.9575
73.3289,-1.1479,36.2194,37.4870,-1.6003,4.2886,17.4135,67.1749,89.4071,240.2570,34.1773,43.3173,-32.3595,-23.5044,91.6047,103.2977,15.6959,-132.0237,296.7224
49.7624,-8.8507,33.8085,60.8482,-22.1430,59.2349,-3.3361,88.9544,69.0484,274.2504,13.6715,21.2815,-87.6788,2.9501,29.9447,121.3205,19.3488,-137.1592,300.4258
-11.6788,-7.1289,66.8198,114.0532,-1.5547,101.4863,17.4983,86.3857,104.5160,254.0101,-37.8224,46.6943,-42.5545,32.8989,8.0315,151.4162,56.1880,-120.6586,285.5572
-11.1265,-6.6260,88.4743,132.1201,51.0282,73.0016,59.1146,48.4176,107.1092,180.4345,-23.6609,54.5363,28.7220,11.2314,18.9361,134.5867,84.5959,-109.3107,232.6348
76.7236,-3.9244,59.0783,107.2716,54.5946,19.0767,49.2695,-0.7038,62.2909,144.7209,108.0683,-5.5936,33.5688,-17.2577,11.1860,81.7695,39.4663,-90.6495,132.7383
153.9772,13.1173,16.9173,88.1007,3.3433,17.3434,4.1861,13.6186,61.1401,194.7293,226.4352,-67.4015,4.9681,22.0222,11.7580,83.5879,-42.5040,-59.7514,57.2335
119.3660,7.7755,-13.2127,57.0269,-37.8004,55.8862,-5.6980,85.4666,103.9401,254.9516,220.9428,-84.4561,-9.0136,70.9127,35.3686,133.2657,-88.1041,-51.4123,54.5277
15.4566,-57.0612,-43.8372,-3.1537,-47.2771,57.4752,-7.7499,106.1551,96.2082,253.2321,159.1745,-103.6802,-19.2230,29.5447,36.8867,131.0087,-94.1527,-48.5154,65.5813
-27.1896,-122.7709,-44.4798,-21.1989,-40.6555,9.3062,-45.7036,39.7113,48.2863,201.0994,121.6044,-134.6542,-19.3383,-52.9846,30.3448,65.9861,-75.3347,-1.1631,35.0072
14.0626,-117.3050,3.1455,12.2596,-25.1647,-19.5148,-60.3248,-23.6216,53.4151,152.7135,92.4451,-136.5668,-0.0177,-63.4444,38.5802,22.5963,-42.6717,59.7492,12.6638
40.3236,-72.4776,29.2318,4.7609,-12.6276,8.7024,-20.8480,-12.8475,94.0782,147.2828,65.7070,-121.9324,-0.7726,-9.9891,11.7512,33.5170,-41.3817,82.9467,65.0859
-0.8045,-42.9014,-5.0523,-30.5252,-3.5451,70.1598,6.3652,47.3102,82.8660,162.3682,64.1352,-107.8087,-26.7896,34.4755,-24.9121,51.6527,-74.6969,106.9233,161.5397
-60.3116,-25.4120,-31.8912,8.4859,25.3612,152.8110,9.1397,104.8184,43.0084,155.5676,67.4811,-67.7464,-17.4548,64.7368,12.6542,45.4183,-78.9305,178.6848,233.0768
-77.0620,-29.3053,-15.4911,82.2926,69.5440,246.1412,41.2850,149.0470,56.1924,158.9580,54.3991,-31.2430,27.1050,99.1204,56.9253,51.8960,-59.1316,251.1842,288.6758
-41.1986,-71.7756,-12.6980,74.2443,88.2772,291.8195,85.7057,199.0532,96.0624,219.5525,47.1394,-60.3106,26.2575,110.9427,18.1071,109.9024,-81.6187,248.3372,364.4406
7.5156,-98.2104,-45.2934,15.5391,60.2055,251.5402,85.7318,243.4317,80.3094,278.2199,55.5217,-114.3662,-31.9487,78.4843,-15.2663,160.6382,-118.3484,169.4105,407.9789
23.4698,-62.2173,-63.8548,5.2949,-0.2769,166.2430,46.7458,235.1119,23.0203,250.3206,61.6817,-124.0295,-61.5541,20.5355,11.5823,114.0194,-97.2201,84.0494,349.0861
2.5897,-21.4819,-49.8204,25.0207,-59.8475,81.1484,4.3429,167.6022,-0.3161,163.6474,56.2513,-123.1515,-26.3984,-38.2370,9.7180,15.3722,-52.3272,37.3845,226.8000
-33.7230,-32.5294,-37.9308,9.5948,-92.2836,-3.1494,-23.1958,91.5250,18.6810,99.7516,27.6574,-151.4827,3.6879,-83.9945,-18.9952,-20.0455,-53.7200,-1.9105,109.2504
-65.7447,-58.8250,-54.1263,-21.4443,-115.7001,-80.3478,-36.0121,36.1205,27.4893,80.1081,-27.2153,-162.1428,-23.4850,-113.9475,-5.9715,-11.3233,-87.3520,-59.0650,-12.8434
-62.8588,-53.6859,-90.3527,-14.8213,-158.7915,-127.1544,-56.6883,-9.5922,0.4888,78.5009,-61.2707,-123.7255,-61.5846,-139.5101,-1.4804,-43.2532,-108.3728,-87.6827,-130.2625
-26.4381,-25.0889,-112.2569,21.9437,-192.3426,-139.0755,-88.5491,-47.9347,-44.1883,68.2195,-36.1799,-71.4700,-57.6529,-155.7867,-36.5320,-80.9254,-106.4147,-73.5751,-168.3759
-20.9315,2.8051,-83.6922,38.3772,-175.6605,-127.1971,-93.9570,-76.2766,-80.3662,32.0299,3.5420,-30.5664,-35.8816,-128.5292,-46.1437,-62.2424,-83.9996,-91.9595,-134.4082
-53.4719,20.4205,-10.9636,21.3331,-128.8066,-103.5190,-74.4250,-104.9220,-90.2799,-24.7854,7.5732,2.7155,-28.3017,-56.3828,-47.9580,-39.4018,-49.0561,-157.2068,-127.5640
-34.7167,33.7167,53.8707,16.2188,-87.9431,-73.9849,-74.6897,-126.7276,-73.9742,-72.1373,-0.9046,28.4003,-13.2299,0.8523,-81.4821,-63.4641,-20.2936,-169.3966,-156.6799
37.5459,51.6183,67.7060,47.4475,-63.3623,-29.8079,-79.7051,-116.1681,-56.6809,-82.8360,7.5993,44.5964,22.3790,0.8705,-72.0348,-82.6524,-9.6737,-100.2788,-140.2968
51.8184,61.5362,36.6651,65.0209,-62.4171,16.1681,-50.1093,-77.9656,-58.0000,-56.6497,23.0159,49.8645,49.4870,-30.4215,-9.3866,-55.0493,-17.5177,-52.3726,-74.7836
2.3088,49.6641,1.9649,31.3040,-73.1947,15.0451,-19.2486,-51.3582,-56.2566,-21.8693,45.7131,48.7701,48.5244,-50.9807,5.1145,-26.0377,-32.9747,-71.4367,-24.5114
-5.5945,35.9627,-12.0683,-3.9507,-67.6939,-22.7710,-16.2717,-55.8563,-22.6741,-15.1432,72.2547,60.3164,22.1009,-45.1840,-24.4062,-44.4484,-39.6349,-83.4601,-0.9344
30.1969,36.4570,-30.9044,4.8593,-64.3779,-11.1015,-4.8940,-63.3982,20.7974,-43.5222,59.1006,80.9981,-14.2155,-15.8471,-34.0760,-82.2856,-45.0479,-54.9050,15.5616
24.6270,32.9181,-73.6551,13.8162,-86.1113,51.3782,21.4370,-39.8757,32.8119,-70.7433,6.7457,76.4517,-19.3153,8.0621,-43.9901,-73.3472,-69.2942,-40.9302,22.6261
-19.9387,16.2103,-89.9370,-24.2277,-80.8113,58.6158,39.2714,0.3125,23.9112,-67.3345,-6.7380,45.2362,18.9704,-17.5830,-37.3117,-24.1772,-94.7984,-46.4492,43.5201
-37.5986,-4.1220,-38.9126,-67.3602,-13.5707,-0.3443,76.7030,12.1495,28.3114,-58.2526,39.9946,16.5678,42.4632,-78.4257,34.7924,-21.7235,-89.7452,1.6754,120.1408
-16.4595,-26.0057,18.7443,-51.5515,53.9908,-10.2664,138.1922,-9.9813,31.2272,-76.0975,73.9890,-10.6902,26.5393,-91.4436,88.2120,-79.0988,-64.4482,115.2017,221.7947
3.2470,-33.6643,16.6759,4.7507,78.9072,65.5523,147.1761,-25.4903,-0.3629,-98.5765,61.9770,-37.2741,24.4778,-26.1655,44.7222,-92.5120,-45.8455,208.9521,260.3575
-12.3418,-7.4509,-9.3019,28.4721,90.1454,141.0492,81.1628,-16.5873,-44.7521,-97.1458,35.7384,-29.2635,43.7326,37.2389,-14.5445,-27.2479,-35.8819,222.8850,207.3341
-45.0937,22.6865,-9.3663,3.3957,85.9434,157.8357,17.6950,-15.5604,-54.9534,-96.7110,7.1644,12.6317,37.8481,35.7329,-32.3037,17.0742,-25.8153,176.1166,121.2650
-34.1436,26.0391,-1.6740,-11.7477,39.9737,127.2173,-3.0638,-44.6054,-42.8502,-115.6899,-12.1891,45.1364,24.1379,21.7897,-40.3892,-10.4834,-8.4658,110.2568,56.6932
24.6550,44.9143,6.9141,16.3031,-10.1734,73.2655,-16.7644,-71.5119,-73.3590,-124.2759,7.4652,68.9895,35.2197,55.7321,-23.6587,-39.3358,20.9618,63.4890,-0.6662
53.8264,115.8353,41.6405,53.7343,-24.6877,25.3136,-55.8375,-65.2996,-159.8409,-112.5031,33.5727,111.4286,29.7114,91.8065,8.9011,-16.2968,53.0898,57.9529,-86.8905
34.3748,189.9995,71.4947,82.3490,-39.2847,-0.9011,-123.6911,-56.7062,-214.8176,-99.1839,12.8546,150.6790,-8.1483,65.1104,-17.5339,24.1042,78.0654,59.1938,-176.0233
45.6615,213.8310,51.0728,123.8564,-76.1045,-32.8725,-187.3732,-84.0599,-171.8399,-79.6921,-3.5277,160.1415,-19.1690,6.6273,-63.8144,24.4079,97.2485,14.1922,-199.4026
102.6244,194.0493,25.0623,150.6449,-84.6070,-85.8880,-189.8850,-124.6394,-109.1336,-67.1279,44.6805,162.1508,11.5460,-20.3546,-43.9832,-25.9540,94.6038,-69.2011,-153.0171
113.7426,148.9468,42.3920,96.4454,-44.1851,-120.2495,-137.2058,-141.4219,-126.0233,-103.1560,83.1484,169.3776,42.4274,-17.2642,-30.4463,-67.9179,49.2736,-151.6630,-105.9977
55.4875,88.5106,47.2770,-13.2604,-12.8485,-105.4647,-105.4909,-134.8517,-166.5632,-156.2510,42.0506,155.2216,62.3597,-9.5860,-80.7400,-44.5776,-9.1519,-213.9615,-84.4352
26.7376,37.6302,-1.8552,-74.5994,-20.9161,-60.6284,-118.3591,-107.8919,-141.9022,-148.0312,3.1831,114.7525,69.1058,8.4405,-83.1444,3.6651,-28.2383,-230.6851,-44.1809
74.0927,14.5785,-30.0421,-67.2388,-24.5821,-12.7039,-122.7955,-62.3022,-107.1129,-91.2263,40.6298,79.8462,48.7513,33.2501,-5.9438,9.2949,-11.6303,-193.4377,21.4951
104.6401,10.1483,5.3177,-66.9063,-10.2660,18.9222,-94.5002,-30.5578,-117.8135,-55.0822,78.8250,63.9919,24.4367,31.3152,27.6345,-2.8773,-5.9414,-162.7646,53.8764
49.0846,7.9689,19.8261,-93.1759,-29.5629,15.5589,-65.0052,-31.8311,-95.7134,-55.3833,42.6871,46.9660,21.3704,-6.2453,-5.6992,7.7156,-24.6899,-179.2982,30.0914
-11.9320,-2.9439,-36.6297,-90.8610,-84.1908,-13.1690,-57.4783,-43.5309,-15.8126,-76.0363,-14.2860,19.1195,17.5508,-46.7556,-30.9560,0.4178,-39.5804,-180.2445,-3.5711
5.4405,-22.4431,-99.3203,-61.9232,-101.7762,-35.6724,-53.8140,-58.5950,18.5323,-92.0830,-28.6926,0.4195,2.7459,-67.0697,-47.4936,-48.1843,-37.9695,-112.0351,-15.1873
33.7940,-29.2890,-126.8852,-64.3167,-63.0426,-50.9597,-14.5519,-84.8270,7.5601,-73.8716,-31.2658,1.3473,-0.6910,-81.2711,-52.4777,-84.6277,-33.5446,-21.2966,-17.6688
-14.5381,-3.8350,-136.4327,-87.4073,-23.1509,-79.9589,65.9843,-99.1819,68.4921,-64.6020,-57.9753,2.9948,9.2905,-107.0137,1.8116,-89.6903,-13.7626,38.5887,-5.4681
-80.1839,38.2489,-110.4516,-79.7864,2.0431,-109.5994,134.3867,-86.4476,172.0915,-127.3822,-67.7238,-3.8077,27.3055,-126.1328,62.9423,-98.3920,43.4173,71.4744,53.6086
-66.3570,51.1572,-49.8227,-75.5689,40.1527,-108.7152,146.1710,-63.0175,175.9980,-180.3614,-24.7909,-10.7912,56.3703,-110.4370,43.0277,-100.8572,80.8118,83.3085,143.1168
-5.2716,-2.2318,-37.8546,-140.1128,75.8900,-86.9129,119.7921,-27.9546,98.5224,-101.2559,13.8333,-33.1471,69.5971,-78.5160,-8.5736,-66.8183,15.9733,66.5043,195.2888
6.3366,-100.4486,-94.4614,-233.7077,73.0814,-72.7747,92.6422,21.3553,73.3517,46.8760,-17.8432,-80.3944,43.4514,-65.1834,-19.8695,-28.4753,-94.5009,35.1757,190.1617
-48.6406,-160.3817,-115.8750,-266.2123,39.6022,-52.1556,85.0654,53.7159,104.4797,115.5439,-80.7150,-103.7937,7.1427,-50.4309,-24.1084,-25.4874,-113.8105,17.6551,177.9470
-96.7386,-125.7521,-64.6445,-221.3401,6.0526,-0.5253,105.7106,57.2523,107.1369,84.6442,-97.0632,-69.5941,-16.3431,-5.4593,-27.9695,-31.0868,-41.3309,32.1879,185.4895
-70.0472,-37.6233,-23.1492,-135.4344,-9.3443,48.3642,136.2739,52.1314,91.7088,25.0768,-74.6889,-27.7398,-40.0378,38.3374,18.6055,-8.9980,21.1275,76.8485,186.3555
-0.5000,25.7742,-20.3961,-44.6436,-1.1008,51.1259,144.0386,35.2594,106.8039,-17.1698,-64.9150,-14.0696,-52.8529,59.6537,68.3833,21.5284,56.2250,118.5125,161.0571
16.2597,42.2307,-11.7511,12.5002,19.2930,35.1151,121.9477,0.5842,105.1071,-46.7268,-65.6860,16.7506,-32.4129,92.7685,33.0546,25.7738,93.1475,117.2652,106.3907
-30.8081,48.5145,-5.4488,29.0001,30.5519,36.7033,71.9905,-31.1878,34.5158,-105.0544,-62.3778,88.0035,-6.8980,133.3268,-37.2231,8.2710,93.9501,79.3892,23.5096
-59.3697,85.1793,-32.2651,35.5807,21.6768,19.4419,4.7564,-55.2797,-41.6707,-187.2636,-76.7994,148.2822,-16.2017,131.3210,-37.4381,-7.0126,38.9097,44.9894,-45.3516
-45.0145,142.7395,-57.0755,26.5306,-3.6525,-55.8739,-27.3294,-84.1891,-58.8407,-213.3481,-98.0155,158.3211,-41.9609,90.8107,9.9815,-20.6856,-5.1286,15.2211,-53.1037
-36.6614,160.1229,-46.0835,-20.4648,-27.6763,-159.4099,-10.7834,-119.1702,-65.8284,-174.9417,-74.8734,130.8718,-34.4110,43.5813,9.6766,-44.4650,-6.8992,-50.4612,-42.8578
-41.0217,112.7820,-39.2289,-57.3635,-37.6005,-242.7963,-29.0932,-159.7392,-98.5110,-153.4186,-24.4370,94.5413,4.0708,-5.2127,-46.8997,-60.1395,-24.6317,-143.4667,-83.6901
-31.8943,62.8895,-79.2031,-36.2590,-57.5951,-270.3875,-102.1248,-178.9074,-90.1898,-136.1735,-19.5048,78.5040,4.2352,-20.5961,-76.6583,-41.9957,-77.1783,-188.6438,-140.8498
-19.2849,58.8908,-136.5789,-3.8033,-111.7362,-220.6542,-119.0311,-131.5817,-21.2188,-54.4184,-57.0245,90.9592,-62.1282,19.8167,-39.6241,-4.7029,-94.6027,-168.1433,-153.5431
-27.1674,63.4317,-156.6760,-6.7676,-167.0038,-150.9308,-52.0843,-58.2609,21.7745,28.3234,-77.1740,100.0414,-114.4715,29.7302,-10.8510,20.7928,-52.8787,-165.5096,-161.5213
-69.9117,44.1630,-143.6251,-20.3380,-186.1845,-165.3765,-14.0697,-50.6140,10.6261,19.3237,-84.2234,79.3149,-97.8614,-46.0134,-50.2159,26.0685,-32.4629,-219.1592,-214.5986
-132.6761,33.0807,-137.5319,-27.3321,-186.3846,-244.9391,-38.0817,-91.9826,7.3428,-26.6256,-106.4540,42.5759,-84.9665,-106.6341,-71.2677,8.2536,-61.9261,-254.4503,-262.7010
-137.5048,50.4326,-126.3048,-25.6145,-185.3267,-262.2856,-46.3431,-105.1918,22.1490,-20.5512,-104.1780,14.6260,-125.6977,-83.2493,2.0202,-25.1414,-39.5873,-217.8952,-240.5117
-49.4744,71.2410,-74.2122,20.0540,-172.6646,-190.1495,-25.0556,-89.8454,19.9475,27.5814,-47.3350,11.8778,-148.4639,-43.6497,61.9081,-30.9442,71.4901,-140.4591,-162.5622
17.5409,79.2503,-12.5903,101.5092,-149.3926,-115.6998,-13.5800,-63.7916,12.8491,66.8074,11.1095,32.2529,-108.5102,-18.2659,17.3996,10.5832,140.3671,-57.0119,-84.7977
-19.0371,71.4809,15.0447,133.6770,-114.1403,-81.8065,2.7410,-16.4112,20.3359,67.3357,28.1382,38.6625,-56.6665,20.1388,-18.4391,46.7725,94.9922,2.1957,-36.5357
-55.8634,35.4565,34.4337,88.1990,-52.9447,-72.7400,45.0926,25.1868,40.4011,47.4229,26.1993,7.3913,-24.6585,26.7988,40.2944,41.3818,41.6192,1.6273,6.9392
-13.0862,-16.9337,63.5461,37.6342,11.4885,-77.8989,88.6200,44.0469,90.0303,68.4845,22.8874,-23.0880,0.6633,-25.6851,91.7732,33.5272,48.7717,-16.4503,88.3592
21.1372,-40.0732,75.0483,32.1629,43.8769,-70.7239,113.4179,75.8336,147.3687,125.8456,15.2929,-20.6965,22.4315,-55.3068,74.4973,51.2677,54.4482,28.1151,184.6214
-0.5981,-19.7817,84.8667,48.0335,61.0360,-21.8121,125.7488,110.7509,135.8578,133.8918,17.1119,-14.2238,43.2742,-19.7528,67.6551,70.1939,37.3080,99.0701,226.5973
5.9081,1.2265,114.7989,49.5789,87.4282,40.4937,132.8561,115.4678,80.4998,86.9570,28.2363,-24.3424,56.5939,27.2524,102.8892,75.3325,41.4244,107.6061,218.1125
61.5626,-10.4363,109.9261,27.9090,112.0193,69.5413,131.5862,124.0857,98.4302,64.3031,21.4319,-32.2180,38.4646,60.6408,120.6111,74.0077,56.2702,80.7258,216.5978
80.3604,-36.1755,59.3873,-0.0926,138.3892,75.6309,108.2051,148.3011,167.5637,81.1228,-5.5335,-33.9053,16.3811,85.4814,81.1329,78.9595,55.8675,89.6404,218.9236
36.6749,-51.6559,56.6519,-7.7822,179.8316,104.6042,67.4829,156.5702,150.9966,117.2229,-27.3926,-37.0313,44.3110,84.2051,-2.8145,117.7484,68.9393,121.3714,203.3251
7.8691,-58.4235,121.4218,16.4313,210.6479,169.6424,45.0326,193.2299,56.6517,181.9028,-24.3781,-31.3743,85.1546,71.8868,-59.9794,180.4825,115.0265,143.2637,206.2871
54.7120,-47.2259,166.4542,57.8126,209.7074,227.3994,44.4683,274.9145,11.1397,222.7024,13.4347,-20.1968,65.9446,83.2529,-27.5749,191.4971,173.8695,156.9821,236.6914
133.8233,-4.8151,170.0885,73.2677,200.3912,238.1846,31.2988,289.1790,25.1931,175.7574,61.8466,-24.3247,19.9590,99.9551,16.9891,138.9472,216.4912,150.9019,235.9962
150.5037,27.2218,170.0139,29.0811,196.9420,240.9375,16.5277,228.9978,15.7068,132.8110,66.5921,-40.4155,30.3619,100.9815,-25.5272,124.8608,204.3129,120.2285,194.9259
96.5148,3.2227,148.7211,-22.5424,175.2677,282.3793,27.9831,241.5820,-22.1027,205.3834,24.2242,-43.6920,86.0970,104.0619,-75.2614,184.8853,135.5602,90.9010,167.1634
57.8720,-20.9712,92.3081,7.0460,118.4703,304.6644,33.1125,316.1087,-32.9501,306.6039,-22.6912,-10.0125,96.8647,108.5929,-41.1519,218.2348,85.6713,64.4144,161.2079
58.4191,29.0269,48.0424,82.1130,59.3280,249.5591,23.0969,299.1982,-9.0705,303.9170,-82.4548,66.5979,26.2357,105.5009,0.0081,164.1705,97.9263,33.1129,147.0797
34.0825,91.9165,42.7730,87.6414,60.9924,184.8416,58.0334,198.9515,13.9211,226.3338,-176.8053,137.6410,-40.1939,109.7090,-1.6039,82.4254,114.2330,28.0579,120.9856
-22.6149,67.8940,60.5706,34.1700,131.0326,168.2008,127.2837,126.4469,17.0950,157.1392,-252.2062,140.9701,-2.1701,109.9035,9.0910,41.1714,94.3744,55.2453,84.7310
-59.8874,4.2444,88.4681,18.0270,191.7291,146.5618,146.8901,93.8332,23.0298,118.4844,-265.4881,103.3850,95.0662,81.3615,18.5423,51.0793,73.4379,71.2760,43.2964
-73.0129,5.0668,107.5412,38.2611,198.3639,107.1491,129.6894,89.8737,67.0117,124.4014,-256.6548,91.5044,122.3631,50.2738,8.7215,82.8922,71.4375,72.2786,36.9486
-65.3338,44.8243,104.9509,45.4870,200.1663,111.1451,150.3904,125.9568,142.0255,159.6952,-244.1795,86.1238,69.1413,42.7179,55.5855,92.1832,78.9468,87.7736,87.9010
-5.1243,40.0269,106.8677,53.9798,221.0870,141.8106,190.7741,151.9304,203.7266,149.2790,-195.2737,44.0287,30.2966,40.0871,134.6814,71.0875,103.4740,102.9613,153.3462
73.8865,7.3507,129.9209,74.3622,218.4716,136.4884,202.4486,129.4716,227.5286,89.9681,-132.5152,3.1945,39.5761,36.0829,123.5719,54.4974,131.3210,99.6962,193.0208
72.0171,7.1857,143.5332,79.3552,186.6866,106.1362,203.5935,100.1753,214.5166,72.5112,-114.7757,0.6569,54.9786,30.7538,56.6000,43.4498,115.4851,103.1509,212.9262
-10.4397,23.3004,123.1665,72.2591,157.7766,69.0580,203.6250,76.7502,179.7063,93.3650,-126.8846,2.5136,44.1598,0.1366,41.4078,6.4453,59.1595,121.1041,221.9983
-51.6596,2.7794,80.8502,62.5790,133.1476,8.4160,185.8568,31.0807,170.2589,55.3872,-110.3294,-13.1535,9.6996,-41.5534,56.3262,-41.7501,23.2579,131.8776,222.2227
-0.9843,-57.5833,36.4073,29.2674,109.9820,-47.1394,176.6980,-10.1841,214.1174,-17.3807,-67.1392,-28.7803,-21.0532,-51.2006,71.7125,-59.0708,21.2591,135.4899,229.2575
34.6254,-116.4250,2.1903,-19.1704,93.7702,-54.1942,191.2916,-2.5846,257.5826,-0.8754,-55.8277,-44.7251,-32.4664,-40.9186,100.7996,-39.1553,-2.3507,138.1913,251.1221
-34.0743,-131.5089,-19.8308,-49.7143,70.0437,-20.9478,187.1034,49.5021,255.9876,105.6809,-101.6747,-63.7133,-42.2629,-27.1353,79.6567,0.5112,-60.8224,132.9689,271.3780
-120.8528,-100.9282,-38.6938,-61.8153,46.3685,45.3836,157.3791,120.5454,248.2692,186.1364,-147.7928,-68.8859,-45.9635,25.2377,-4.8529,36.2084,-85.6628,126.5419,263.4628
-101.9599,-80.1702,-59.0183,-52.8923,52.2607,132.6019,139.6367,179.2380,249.5429,193.3969,-128.0603,-66.7372,-22.0918,105.1541,-24.0628,50.2822,-45.5849,124.6952,207.6405
-27.2392,-106.2476,-74.8023,-15.0814,63.8621,175.6180,120.2481,204.1794,212.4267,184.6739,-73.4075,-79.8394,-11.5487,138.5455,44.4890,68.9979,-7.2580,116.3670,121.9147
-24.8392,-122.4060,-73.4658,8.7941,45.6709,154.5557,68.7773,220.0124,141.5402,222.9848,-61.4136,-98.6852,-47.5844,109.6020,69.5493,118.7366,-18.3564,111.6234,65.3953
-81.6454,-74.8701,-47.4717,-1.2523,18.2307,137.8477,9.0468,245.5856,81.3517,298.3459,-87.0114,-96.1697,-68.9050,70.8956,22.5663,151.9072,-39.4934,127.7447,67.4384
-98.6675,-18.1146,-18.1881,30.3463,-10.1760,151.6796,-35.6227,244.7156,25.4409,322.1841,-93.4009,-60.4169,-50.5619,69.3422,-19.5131,129.9578,-33.0607,144.9765,95.0444
-62.2852,1.3845,-4.7591,136.8807,-48.2697,166.0443,-62.7341,201.9974,-21.9739,241.4796,-74.1228,-3.3948,-53.0962,121.1257,-35.5462,107.9169,0.2399,153.4337,118.9230
-21.8512,39.9153,28.4446,217.1025,-43.5461,181.8042,-43.4175,158.9029,-14.6953,134.4373,-49.0829,33.8934,-58.5844,174.8230,-26.0757,123.6265,61.1123,176.4784,137.1312
-6.2805,108.9044,98.0209,190.8737,33.4106,185.7962,30.3653,137.0108,32.8970,89.3259,-21.6017,22.2020,-4.2132,145.2320,22.3137,131.3393,117.5880,191.3830,132.8519
-18.1187,115.1764,126.1790,113.8046,106.5159,145.0810,106.9406,115.7687,68.5502,75.5772,-3.7840,-4.8721,49.9645,63.3879,86.1457,110.9221,111.0304,140.6844,97.0572
-21.7826,45.5654,71.4055,75.3155,127.0032,103.8828,153.0024,83.8914,94.8945,45.7995,0.7740,-2.5370,40.5735,44.7095,131.1320,91.9766,62.5580,42.3542,63.7601
20.0954,0.5305,28.0320,89.6955,131.9697,107.0754,172.2367,57.5849,113.9016,18.5015,13.9281,14.9529,35.5449,79.0917,132.5040,74.7955,40.6082,-31.6354,51.9263
60.2666,11.3614,60.8916,110.0869,123.3333,95.4702,154.0573,53.9922,107.5848,-3.0069,23.3742,15.2117,60.5525,62.0938,83.7932,53.2917,31.6637,-65.3620,30.0429
37.8201,26.7791,90.4864,98.4060,75.7775,45.6851,111.4391,53.1140,103.6524,-23.4439,-0.0730,0.5512,36.4172,-1.5886,51.7952,42.8546,-0.5970,-89.2359,-17.3808
2.4522,30.4891,48.6518,71.7510,29.9261,34.3456,90.9912,20.5841,98.3294,-2.5619,-16.2157,-15.5425,-22.5408,-32.1415,80.5591,25.8524,-18.1303,-106.3236,-56.6362
15.5269,20.0821,-10.1109,66.3681,26.8301,66.1789,81.7902,-6.7663,31.6257,44.9395,19.5664,-29.1719,-17.6757,-21.1111,82.7652,-10.6127,-5.5686,-98.2025,-61.2654
33.0763,-13.3903,-18.9650,69.0226,34.7119,66.8578,41.5148,35.5751,-38.7442,34.7205,54.3807,-37.3806,33.9716,-1.5190,29.1100,-11.4992,-15.2498,-69.9939,-50.0533
18.0715,-27.6034,3.0412,41.2297,11.1030,33.0286,-4.5119,88.1982,0.0299,-25.4087,36.3562,-36.9888,36.6272,10.8698,26.3724,37.7658,-43.3968,-50.4572,-61.3514
17.3308,9.9781,8.2884,-4.6516,-40.7080,-7.3677,-22.7127,38.9059,64.9165,-53.2488,16.3783,-23.1280,-8.2274,-6.2654,54.4879,49.1155,-28.1596,-44.6444,-107.3478
50.8590,58.9428,12.8697,-16.8447,-74.3376,-60.8502,-31.0037,-66.2114,24.9960,-53.2005,42.2586,4.0591,-21.1976,-52.4406,2.2624,-9.8857,32.3051,-10.8151,-153.5848
80.6366,104.0567,69.0552,22.8408,-44.3110,-89.1359,-20.5914,-99.2657,-35.5687,-74.4249,78.1449,30.1478,16.0427,-72.5694,-37.4422,-53.4910,97.6591,68.0697,-158.9883
102.9083,165.8023,151.3072,78.2301,18.1760,-47.0787,28.3874,-73.3240,-19.6133,-108.6106,96.8492,52.1720,43.3731,-34.9653,51.1638,-41.4379,157.8969,127.6373,-133.7397
139.3761,198.2360,172.3176,99.9126,41.1011,8.0766,61.7692,-82.0732,-12.7421,-144.4526,119.4529,86.1635,30.2405,19.5811,122.3114,-36.8705,205.5459,116.8303,-122.5087
166.0865,167.4470,130.8631,68.2090,36.6369,16.9730,41.0415,-122.2520,-62.4951,-186.3725,142.3273,124.2287,20.4693,51.8717,46.6879,-71.3435,216.1715,78.4608,-139.6567
148.3668,136.2621,100.8029,-5.3776,57.2735,17.4482,15.2952,-136.5482,-84.6668,-205.5918,143.0392,142.2645,37.5067,75.1362,-50.0929,-96.7426,177.4970,51.1570,-162.9119
106.7886,115.2573,77.6835,-102.0419,64.9161,30.3504,-8.0795,-124.9750,-57.4192,-189.4469,134.7511,148.9602,35.6071,102.4523,-49.5670,-82.0948,90.3945,-1.5169,-182.7096
87.8211,36.4608,11.9178,-193.9806,1.3417,9.9404,-84.2036,-123.0458,-36.6616,-172.7689,129.5198,159.1373,-0.7476,108.3859,2.5356,-60.0559,-15.3330,-93.1622,-214.0286
97.5034,-56.6858,-51.0098,-241.3479,-87.4424,-49.2838,-181.7825,-149.1711,-45.0947,-177.6495,112.5931,156.0206,-14.1559,75.1700,38.7440,-68.4586,-68.6474,-165.0617,-251.3588
108.2522,-63.8212,-36.5855,-232.9102,-120.6553,-102.3290,-214.9188,-192.5851,-87.4538,-207.9332,102.0034,130.0952,27.5832,26.0392,28.2601,-95.9446,-45.2411,-179.5351,-256.6382
119.2736,-32.8726,25.5682,-205.5120,-94.1655,-130.4880,-193.7269,-215.1683,-141.4584,-251.0191,138.7183,99.4218,81.8654,-16.5223,-16.3145,-105.9741,-20.4281,-166.1969,-225.0870
151.3552,-54.3848,56.0667,-194.3288,-67.7803,-143.9137,-185.8719,-195.1981,-148.3672,-241.5755,200.5357,80.8968,90.0402,-48.6069,-31.0878,-92.4824,-51.4351,-163.2935,-215.5226
178.3694,-85.8368,34.0432,-187.1559,-90.2052,-150.4181,-203.8585,-162.1192,-119.4297,-144.4632,226.3996,81.0165,49.9158,-46.4103,-14.4604,-71.9446,-93.3233,-170.9469,-261.5055
145.3513,-70.0535,-7.4933,-144.5803,-138.1920,-140.0391,-213.1663,-139.5799,-116.0829,-41.9093,206.4060,84.6239,31.2565,7.7869,-28.4961,-42.8669,-95.8384,-164.5141,-307.8500
65.4845,-48.0816,-36.5471,-69.0537,-145.9246,-86.7332,-182.2581,-102.8370,-121.8378,-15.0418,167.8771,59.8301,73.7283,67.9380,-46.2310,-11.0062,-78.6846,-137.3044,-294.0293
9.5237,-54.5121,-48.4746,-34.3380,-108.2161,0.0209,-117.7341,-47.2372,-108.3300,-48.3133,129.7253,19.3918,102.3285,82.7241,-15.3370,-15.8416,-69.8868,-107.3787,-237.4757
-2.5316,-57.4501,-52.1193,-82.1202,-77.7979,60.8050,-71.8385,-24.8301,-110.3362,-109.6415,113.2980,13.7782,64.2464,69.7308,6.3660,-65.5854,-67.7913,-77.9620,-191.6594
-2.4136,-21.4506,-46.7905,-122.9301,-64.9577,74.7145,-72.3450,-56.2989,-117.5394,-167.2711,128.2312,43.8101,42.4067,65.7363,-22.8939,-100.9342,-74.5575,-48.0279,-180.2614
15.9679,45.7230,-31.5592,-70.4450,-42.6078,83.1806,-84.1778,-87.6712,-88.6634,-164.7177,150.3234,77.2654,81.2574,77.4490,-49.6476,-83.1007,-87.5019,-46.3548,-184.4056
71.9784,84.4326,-10.4209,-5.2451,-15.6274,94.3237,-79.6399,-83.0235,-68.4725,-119.4295,161.0796,108.4025,90.4968,98.2954,-56.3472,-50.5324,-78.7976,-68.3487,-161.5572
114.0741,52.3301,20.6566,-28.9373,-4.2320,68.5362,-61.7010,-75.6176,-90.6519,-117.0707,164.1474,118.3245,44.0594,100.1573,-60.3622,-46.8955,-42.5661,-48.5905,-98.9796
93.3714,20.1748,45.8903,-79.1140,-15.6077,3.8147,-34.6457,-92.1531,-97.6439,-148.4758,158.7050,91.6917,30.4029,53.5821,-44.8398,-64.7854,-16.9211,9.6647,-44.9232
