Fp1,Fp2,F3,F4,C3,C4,P3,P4,O1,O2,F7,F8,T7,T8,P7,P8,Fz,Cz,Pz
95.8786,47.5985,-7.3441,35.3620,23.1114,22.5277,38.2232,8.8503,98.5537,27.8879,-5.3150,53.2030,16.3879,23.8986,-6.2752,-73.7801,-33.9265,14.5174,24.5028
-492.6717,-235.2950,-338.7949,-245.9742,-321.9876,-77.8852,-114.8816,62.3696,-61.8984,18.1445,-200.0242,-241.0129,-253.5830,-32.0330,-19.0794,-51.9747,-233.9513,-57.6120,-9.9661
-686.4735,-323.2104,-413.1150,-370.1817,-340.0037,-181.4534,-127.7010,-5.6312,-106.1604,-18.2595,-235.8343,-393.7151,-286.0424,-116.1820,10.3791,48.6928,-271.6050,-42.1978,-74.9382
-533.6087,-283.8993,-275.7182,-194.2253,-180.0334,-163.5898,-168.4037,-123.1079,-63.7577,-85.3648,-140.2891,-342.9681,-188.6491,-132.1637,38.5672,111.3001,-166.8330,8.1030,-156.1928
-449.1237,-262.9726,-155.4693,31.0883,-151.6247,-34.2780,-260.4982,-111.6603,-117.8246,-108.7357,-107.2978,-266.7166,-151.1848,-47.2395,30.5443,73.8219,-90.7935,16.5932,-161.7424
-413.6470,-215.1790,-102.4166,21.8305,-192.8986,24.7789,-250.4469,-26.6565,-158.1260,-94.1919,-122.9738,-219.4259,-147.4320,4.8098,22.5396,37.8989,-78.1136,-21.8838,-67.5956
-331.2217,-207.3826,-128.4272,-198.7474,-222.1659,-74.5138,-178.5528,-0.7495,-22.9439,-97.0696,-87.5926,-201.4594,-171.9263,-56.8580,20.8058,42.1122,-132.2411,-114.2616,32.0140
-352.1790,-325.4031,-210.5152,-375.1411,-293.2138,-173.5843,-150.3753,14.0274,145.4224,-68.5612,-37.5882,-250.7422,-246.1510,-106.9853,-1.6819,43.5553,-227.2772,-219.1248,75.1396
-451.6767,-353.6590,-211.5215,-313.3986,-329.5279,-117.1540,-136.8559,61.6278,178.9060,14.0209,-20.5987,-275.8538,-269.3277,-46.7172,-16.7416,54.7456,-204.8839,-224.4612,81.4133
-438.2639,-149.8929,-120.2167,-99.5118,-284.0759,2.7026,-158.5102,61.6592,111.2731,40.8591,-26.3158,-174.8621,-225.7599,32.6497,-13.6955,63.3406,-40.8851,-138.9880,65.5626
-333.0015,34.5717,-88.5885,0.4642,-279.1243,7.9840,-239.4128,9.6168,17.1048,-8.9356,-59.8251,-66.3179,-225.6620,32.8543,-36.4257,45.8450,35.0015,-110.8341,37.4465
-262.9642,2.1335,-149.6165,-110.0993,-304.5397,-102.7681,-239.1400,-6.5991,-36.1711,-16.8604,-93.4726,-102.5465,-233.0130,-22.8922,-49.8981,76.0491,-64.8921,-187.0306,27.3900
-250.5223,-127.1009,-201.3731,-250.5554,-235.3506,-206.0679,-103.2030,13.2130,8.3257,27.0984,-74.4553,-232.5907,-152.0328,-83.6659,11.2145,128.4124,-153.2050,-267.1341,28.2063
-262.6144,-233.0710,-176.6056,-253.8870,-127.7113,-248.4344,13.0206,-1.7192,81.9462,32.1732,-27.4666,-310.1954,-61.7832,-126.7397,75.9514,43.3610,-123.1465,-277.0371,-1.2496
-248.0608,-311.8841,-91.5756,-167.4815,-89.1034,-250.1982,36.5774,-64.8350,96.0127,8.0836,7.2463,-275.7003,-49.9968,-137.2112,60.2901,-95.4876,-69.3744,-227.8492,-52.6282
-208.3167,-324.0554,-51.0637,-106.4794,-78.5758,-206.5104,24.8843,-110.5102,104.3710,11.9801,35.5495,-191.4848,-62.2405,-112.8963,25.4359,-48.2535,-73.1477,-160.9677,-76.2794
-217.4765,-241.1866,-115.8663,-98.1167,-57.6076,-107.2976,-13.1093,-60.6250,160.2422,33.1707,26.7352,-149.5755,-59.2350,-60.2621,34.9298,103.4040,-104.3038,-111.4671,-52.0883
-223.0002,-129.4320,-162.7937,-118.4364,-61.7635,1.0313,-63.3816,65.3652,200.7063,45.5044,-35.9613,-147.6672,-71.6300,3.3043,49.0630,138.2991,-89.9327,-88.3708,8.4752
-101.0427,-54.7088,-97.8725,-138.8201,-83.5155,57.2432,-73.4371,145.3623,172.7646,29.7693,-63.0129,-127.3598,-100.4199,32.2612,22.6519,106.2382,-5.7490,-82.5975,81.7913
40.3902,-16.3445,-13.1091,-119.2634,-81.9216,51.0236,-71.3084,124.5758,88.5056,-19.7624,-3.6574,-90.8498,-120.4386,3.2403,-55.5863,85.3444,90.0519,-78.1124,122.2305
39.1163,3.9063,52.7573,-44.0793,-51.8350,19.8181,-120.5147,70.9191,-14.9652,-41.6826,67.0283,-58.6959,-120.2110,-35.3406,-155.6878,-2.8646,145.5279,-47.7091,93.5123
10.6820,9.3244,154.2700,46.7626,-19.0306,16.6222,-214.6398,29.4927,-79.3764,-6.2245,92.5150,-23.9208,-107.6076,-23.7176,-192.1033,-89.8248,182.4432,0.4697,21.2502
82.8352,6.2257,221.1328,93.9592,-19.4011,55.4275,-299.3953,-12.6281,-89.9168,-2.8609,76.3928,-4.4514,-111.0361,35.8511,-151.0231,-20.0263,212.7427,2.6334,-39.9366
132.9014,3.6521,167.3419,66.6042,-53.1589,64.2533,-290.5677,-47.2003,-94.6644,-54.8035,37.3317,9.5007,-123.6340,82.2709,-122.6773,102.4353,189.0332,-57.8884,-78.7921
74.8256,-5.5604,54.3929,-7.6193,-73.5047,-26.6353,-148.8549,-69.4200,-81.0532,-53.0108,45.6037,75.7570,-96.3144,52.3666,-109.0354,99.6169,94.7185,-110.1689,-113.6198
-1.5973,-10.2779,-46.8820,-50.2766,-56.9717,-149.8768,13.1813,-98.2263,1.7367,7.9251,114.4447,148.5791,-40.0705,-31.2645,-41.1993,30.7136,3.8686,-103.0692,-137.7959
-55.1095,34.1377,-86.7424,-15.2658,-8.0825,-181.3341,77.6843,-122.8038,91.2955,17.6902,93.5105,124.5995,-5.7403,-65.6799,35.6183,13.8066,7.6446,-41.8588,-136.6368
-100.8712,98.5353,-7.3651,58.3743,71.9855,-125.4054,83.6797,-129.8291,88.5875,-32.7154,-57.3985,54.4620,26.7918,-26.2045,68.1839,25.9790,84.3009,52.4697,-126.1012
-102.4734,73.6931,94.7949,112.8172,135.2898,-73.9386,71.1235,-133.1004,4.3706,-89.3279,-114.4602,40.7996,82.9440,-6.5908,97.9005,15.9994,102.1654,117.6269,-127.6850
-60.7305,-28.9962,75.6382,118.0204,116.9344,-43.3866,-3.9115,-111.8839,-110.9253,-141.5700,18.3598,51.6357,105.9003,-34.9556,78.9294,2.7955,20.0969,83.4055,-133.9657
-20.2339,-76.5076,15.9384,48.2407,41.9390,3.5466,-106.1292,-38.5597,-220.8307,-145.7386,123.5109,44.5657,56.2082,-26.9868,-65.3213,25.7112,-42.7508,-17.8768,-122.0179
28.9137,-45.7527,21.8630,-71.5804,-24.6524,53.0284,-141.5035,34.3191,-253.4373,-87.7084,66.3587,49.4996,-19.5921,34.1372,-192.0564,62.8695,-22.1444,-87.1049,-77.3469
97.3453,7.6204,32.8318,-126.4206,-60.3509,72.4442,-116.0652,38.1857,-197.3660,-77.8340,-13.1525,64.0070,-58.8279,67.8333,-144.2295,33.8631,21.1512,-72.5532,-11.5386
160.3812,89.1959,69.4410,-39.9251,-46.9700,75.3095,-90.1890,-12.8065,-187.9602,-133.0891,17.2831,83.3579,-34.0102,51.2170,-40.2484,-61.2865,71.1022,17.1691,32.7667
208.8004,132.2459,190.9766,112.1727,5.4382,86.0213,-90.7761,-50.6840,-310.4009,-104.4640,104.5074,124.3277,24.4341,36.7582,-31.9153,-112.8838,130.8076,113.2783,29.2004
192.8259,27.1227,236.2109,192.6066,30.0084,97.6464,-109.6957,-20.6441,-434.4304,17.8849,102.9011,125.3967,47.4608,47.6733,-68.3890,-85.3897,116.7376,122.7400,13.0726
59.6442,-93.2701,118.5809,141.9033,28.8420,93.5884,-72.4350,60.6968,-399.2565,89.0422,-46.0458,54.3845,38.7635,64.8851,-70.6473,-38.3023,19.1242,74.7419,31.0635
-78.2110,-25.1251,44.8119,20.8770,71.4633,67.9290,82.2688,96.2564,-228.7434,91.5045,-184.4526,23.8824,73.5766,61.6994,-26.2549,17.0113,-37.5128,94.5807,67.8074
-88.0074,114.8770,81.9107,-42.8139,123.6137,19.6252,258.3305,41.7141,-44.9080,75.4101,-137.6548,61.7232,144.2552,12.7736,74.1268,54.7510,-30.7650,167.4995,75.6255
-69.8510,93.3583,41.6195,-7.5880,102.3041,-30.1244,326.1800,-6.7068,86.9659,24.7658,-45.5204,32.5941,164.6890,-57.6055,170.9235,-0.9820,-64.8863,158.8862,58.5209
-148.0997,-78.1521,-98.2782,8.8496,41.1230,-26.5934,305.4067,41.2052,124.2376,19.3680,-144.4665,-70.5396,119.0699,-62.2890,166.3750,-80.9447,-151.4312,63.3187,76.2984
-213.5880,-239.5934,-186.0997,-81.1364,11.2142,41.4756,267.3524,141.9487,36.4699,159.9457,-306.5559,-111.2192,66.8990,17.0330,93.5358,-34.5775,-209.8397,-9.9088,151.8714
-154.2055,-249.1991,-187.5047,-185.8748,2.5382,80.2615,226.2529,198.1787,-64.5959,286.9832,-253.8286,-84.3773,45.8673,56.8743,48.2559,81.5340,-208.5455,-25.6439,206.9224
-59.4888,-82.0879,-160.8736,-200.8172,-32.4527,24.6626,185.7713,162.0445,-0.8066,211.3964,-58.9424,-84.5501,34.1161,-22.8894,33.4496,105.4289,-176.6085,-21.5100,149.5611
-21.2618,47.9156,-157.5261,-150.8365,-114.0641,-24.5923,136.3465,69.3745,183.3367,66.7518,6.5553,-112.4141,-17.4563,-104.2282,26.4853,33.3919,-156.2695,-22.9651,16.5837
-26.6504,-38.7489,-186.9552,-93.6457,-184.6225,27.1941,59.8173,15.8405,253.0439,35.1655,-97.5011,-117.2748,-93.2989,-60.9036,28.0443,-53.8061,-147.2037,-35.5404,-66.6974
-78.5464,-151.7015,-154.2590,-66.2699,-136.3154,74.4766,-0.2781,34.1926,132.7784,39.6539,-209.6117,-95.9564,-97.4264,22.8468,5.3345,-100.0442,-102.5544,-41.5869,-60.1054
-158.8914,-107.5575,-28.2921,-89.1511,13.6187,9.9521,4.8522,43.2985,-16.6178,-4.8649,-210.6798,-79.3152,-5.2172,4.9331,-32.7429,-53.9650,-43.3843,-18.8646,-32.3208
-174.0969,-80.8560,13.4800,-97.2534,107.7719,-64.8373,46.1044,-5.1917,-47.5167,-10.2340,-107.5947,-94.9303,83.7783,-81.9099,1.4758,33.6982,-48.4717,12.9101,-41.0665
-111.1422,-160.9645,-100.4650,-35.6730,81.6598,-51.5727,87.3625,-56.5496,26.7575,62.1415,-19.2577,-125.0203,101.2238,-117.0537,101.1706,35.1619,-91.6459,22.2672,-83.2031
-51.3539,-137.1035,-179.3106,-12.9079,14.5259,-29.7335,119.9001,-64.6486,93.1808,115.2534,-39.1677,-117.1186,69.9254,-73.0181,134.2144,-13.4300,-96.8356,14.5307,-111.6482
7.3408,24.3203,-133.3793,-79.4047,-28.5296,-40.3311,115.5217,-24.3324,76.3828,88.8943,-73.0633,-69.1580,28.2536,-1.0236,64.8101,15.8387,-82.0788,9.9630,-67.6007
93.4916,107.1041,-62.6714,-44.3917,-16.9634,11.8759,77.2124,63.2283,34.9420,27.1072,20.3987,-31.9760,22.1873,44.1848,13.4734,59.7466,-54.1137,32.1762,35.4157
123.2420,60.0867,18.9960,154.7899,64.3610,133.9171,63.6814,141.7021,67.9952,1.2107,174.2953,-33.1039,81.5844,38.7869,52.9294,-9.5138,26.3257,98.8065,103.9212
47.1621,-4.4702,119.8241,254.8495,145.5073,207.5821,85.0440,133.9699,139.8296,24.9078,206.4110,-55.1639,145.6066,22.6679,104.5681,-112.6980,85.4055,163.2557,99.7303
-35.6363,-37.4570,122.7445,135.1392,129.5952,196.3811,80.0448,69.3079,134.2308,33.0129,87.9554,-47.8377,125.8546,45.4385,83.8828,-102.3093,40.8719,145.8655,71.0226
-29.7170,-12.7418,7.2224,27.0485,27.0169,164.1187,8.6455,34.8767,46.8794,-15.5867,-34.5768,15.2091,27.1005,73.9463,28.7185,-5.0919,-5.4122,68.0069,37.6788
66.3520,74.5636,-61.9524,62.9470,-70.6059,139.1490,-105.8789,36.5299,-20.3624,-65.9751,-18.2591,65.1859,-75.9043,52.2232,5.6691,57.8586,39.5724,41.3222,-6.3424
187.7768,129.6067,7.5999,102.9835,-90.2481,105.8064,-202.6585,24.1165,-22.5143,-79.0776,124.3971,47.2800,-120.6007,2.6970,-5.5866,57.9034,89.5901,95.7532,-30.2836
221.1580,96.3822,135.2652,90.7717,-29.1849,67.0495,-239.3257,-21.4369,-23.1886,-96.6780,223.7562,46.5155,-93.3555,-17.2714,-29.7518,41.8605,86.7804,144.5310,-33.9979
139.4677,63.7391,202.1350,134.4943,34.2046,50.1438,-226.6254,-81.3172,-73.4706,-132.7701,153.7086,117.5945,-41.1687,9.3615,-25.4630,1.4892,100.8687,137.1953,-63.1685
77.4178,107.4851,155.6427,220.4923,28.7321,63.6459,-172.6761,-114.7185,-107.1715,-144.5122,15.1256,149.1754,-20.1024,46.0529,6.4851,-89.0272,149.6114,114.1768,-96.8345
109.6473,169.3750,46.5486,193.9157,-10.6713,55.9899,-60.9015,-91.9874,-44.7393,-120.3275,1.6888,75.4555,-23.1420,31.8394,12.6477,-128.2729,155.5412,95.8557,-72.4639
132.1794,145.5246,-43.8410,27.9130,-17.2958,-17.4564,61.9615,-30.7718,48.4320,-84.4886,119.0663,-5.0371,-15.0142,-17.1210,24.1320,-11.1119,73.0235,51.7631,-12.7794
65.2191,32.1456,-107.9084,-108.5565,0.6466,-82.2157,106.0538,34.0387,61.2218,-54.9430,176.8551,-12.1673,-0.7674,8.2058,95.2284,133.7679,-46.6337,-7.5723,17.5148
-36.0871,-40.3362,-131.5993,-73.1432,12.4801,-37.7354,71.0943,80.7117,20.6194,-41.8078,63.0576,34.2838,-0.6488,115.6546,136.4963,123.1450,-80.9393,-29.2093,21.3702
-74.3098,22.0342,-42.0208,73.7985,32.1024,67.8753,19.6638,97.8859,-4.3086,-42.7932,-84.2186,82.9792,-2.4687,163.2115,38.6526,22.7084,29.3963,-6.3417,34.7031
-4.8924,117.7920,113.2114,163.3536,68.0804,123.4730,-29.0553,105.1256,-42.9375,-66.4346,-57.3529,74.6074,15.3649,103.7107,-107.0959,-20.0829,158.0362,24.9989,54.9301
98.9528,114.3528,155.1737,134.1686,73.9017,124.2865,-67.4622,110.5632,-95.7898,-144.9980,121.6596,24.3145,32.2216,49.9243,-122.0033,-21.4227,144.0988,47.2089,54.1104
127.2328,59.4812,50.0620,72.4048,1.9643,111.3733,-80.8901,50.2126,-71.1132,-240.0648,229.3969,44.4203,-8.5319,63.4408,-9.0974,-22.4159,29.6770,55.4271,20.3035
110.5266,60.6664,-29.2291,66.9834,-95.2472,83.2779,-105.1294,-79.5228,32.0496,-232.1005,169.8844,141.2390,-105.5688,99.0566,57.4628,4.4461,-8.7817,47.2993,-20.8721
135.5384,119.8945,49.1451,127.2654,-95.5344,48.6765,-164.5501,-134.4337,92.4117,-108.0714,92.5254,184.9947,-154.3548,100.3517,-5.2842,26.3806,97.3132,45.6666,-30.0220
171.3723,181.7773,206.8831,208.2080,-2.0431,24.2388,-200.0214,-64.7696,48.7711,-9.7661,136.9199,153.0245,-94.7880,29.2299,-79.4543,-6.8411,237.2869,63.5479,-14.5071
173.7494,180.2855,235.4404,226.0701,31.0385,-9.9234,-174.1338,-28.1292,-45.7133,-20.6121,227.1730,128.9885,-28.7697,-64.2294,-55.0122,-51.6991,249.8202,58.7100,-23.3068
131.5263,84.2764,62.5846,129.4577,-37.3649,-52.7148,-131.8944,-96.7871,-93.9796,-63.8308,200.1727,119.0838,-48.0266,-40.1688,3.9668,-62.6590,112.5354,-5.1537,-68.1924
-25.0933,5.3309,-103.6476,20.4102,-66.3342,-66.4055,-97.7321,-150.8043,-21.1778,-47.5001,45.2051,100.4651,-77.9791,94.6008,20.6053,-48.5690,-9.0610,-78.0808,-109.2393
-223.1013,75.7951,-78.8258,52.0053,-12.0316,-51.0899,-54.8434,-128.1968,119.5796,11.2724,-76.3761,82.8438,-48.5185,139.9661,40.8239,-14.1076,25.2114,-71.8117,-120.9059
-184.5563,207.0699,-0.4673,159.0598,3.0897,-31.4879,-23.5552,-76.2251,163.6657,34.8770,-46.5775,49.6586,-29.7882,30.1949,72.3279,21.4326,131.9203,14.3666,-114.4974
78.8726,221.0367,-50.4124,123.6665,-61.9684,-15.4998,-35.4760,-15.7047,67.7894,12.0767,56.9532,30.8901,-64.9473,-72.5903,30.8225,29.4191,132.1752,63.9145,-100.0338
185.8127,125.5560,-147.5563,-42.1310,-116.3333,-24.4701,-66.1998,21.0139,-25.4889,13.5458,81.9659,88.5817,-83.3160,-69.5663,-54.7378,30.0313,8.9757,-11.2528,-75.5791
42.2186,36.1870,-153.3582,-77.9134,-107.7653,-59.6361,-73.2492,-17.0585,-30.0339,49.4237,13.4735,129.4536,-59.1286,-24.4471,-62.4777,30.8084,-65.2676,-123.7527,-55.9563
-38.5003,5.8823,-52.6532,85.4067,-58.0887,-65.7586,-70.9028,-84.7167,-31.0303,34.2175,-17.7456,62.5310,-51.7343,-1.0707,-24.1179,-4.0040,45.8527,-124.4521,-69.7312
69.3589,53.4267,128.9046,194.9948,-1.6467,-44.2561,-116.7563,-118.7889,-112.9947,-46.5583,71.9818,57.0156,-69.0882,-9.7062,-60.4202,-56.1181,240.2157,-35.8864,-112.4800
173.1179,140.7594,261.0549,90.2964,31.3840,-77.0337,-207.8144,-161.5923,-220.7384,-113.9196,172.7922,230.5893,-63.7988,-34.2485,-128.3787,-74.6245,287.9896,-2.9414,-146.0502
125.5832,133.4677,146.8182,-66.8198,33.7248,-155.2009,-243.3831,-243.2536,-237.8811,-155.3055,96.1906,371.4333,-43.9155,-30.9670,-110.7929,-54.0203,140.5295,-57.9195,-164.7899
-44.4023,0.4822,-116.8112,-90.7952,16.0718,-178.3902,-172.6562,-307.2609,-156.9124,-199.9046,-140.9256,327.8990,-56.0101,10.9506,-57.8618,9.5691,-23.5737,-118.1406,-202.4321
-192.1208,-88.9063,-197.7342,-33.2289,-14.5926,-143.3357,-98.4825,-317.8681,-95.9382,-207.7750,-286.1926,241.2966,-85.4993,39.3803,-85.5342,85.3867,-64.6230,-143.4727,-253.7104
-191.3351,-66.3191,-72.1617,-44.9501,-24.1374,-124.8586,-102.8195,-266.9588,-97.6563,-166.5616,-201.4071,199.1272,-70.5578,27.2398,-131.9471,70.5513,-31.0925,-149.0352,-260.0228
-131.8107,-107.9749,-27.9955,-165.3096,16.3536,-123.3093,-98.4192,-140.7921,-51.6593,-138.6403,-51.9656,131.6664,-9.8212,0.9092,-63.1336,-15.3146,-48.4638,-153.0703,-182.0431
-175.7594,-276.3485,-146.0873,-301.8606,47.5014,-101.5363,-9.8397,1.0114,65.9884,-111.2523,-24.5090,55.0644,26.7010,-22.1463,48.9503,-20.1864,-156.7166,-179.0109,-31.9389
-249.4364,-353.1571,-236.9576,-333.6496,18.2580,-68.2442,75.1797,73.5151,96.8651,-11.9720,-84.3386,19.9304,17.8413,-35.3751,26.5968,19.1091,-250.7270,-211.5997,141.5928
-220.1679,-244.8081,-194.9229,-254.0420,-0.7741,-30.7567,79.1968,104.1029,-9.1878,119.1582,-127.2977,-29.8596,22.0527,-31.2413,-84.5596,-64.0188,-213.1692,-183.2471,263.9913
-163.3453,-158.1935,-96.9090,-192.9331,35.1512,11.0031,57.6157,134.1582,-85.6052,170.4026,-138.9877,-100.9446,45.5358,-38.8980,-100.9448,-179.9404,-99.8087,-91.5368,283.7099
-139.2728,-174.7706,-52.4723,-212.1428,45.7028,15.4522,48.3045,101.5339,-55.6247,120.1120,-129.3914,-91.1728,16.2510,-92.4792,-48.2799,-124.1532,-45.9415,-22.5729,231.4519
-67.7616,-124.8103,-85.7524,-194.9644,4.1009,-38.7441,4.4729,-9.7781,-47.5135,36.9874,-101.6060,10.5834,-64.6141,-146.8077,-73.4189,27.2813,-50.4323,-7.0418,178.3705
9.1412,-14.8045,-111.6765,-64.1866,2.7077,-85.6404,-67.7760,-99.1463,-118.5157,-19.4785,-87.0317,92.2515,-102.7918,-120.4694,-134.7497,74.5344,-41.8737,11.0077,146.6098
-38.5451,-21.9759,-45.5068,77.8044,76.0881,-55.1042,-87.5306,-123.5964,-147.4698,-46.0801,-81.7653,88.0209,-60.7873,-31.7529,-118.3542,8.8534,-15.5126,62.2292,114.7453
-130.4258,-59.6222,81.8254,148.0348,156.3604,26.0812,-32.1273,-126.9357,-67.5537,-52.9740,-27.2088,31.3755,21.6212,8.4302,-62.3290,-85.8993,37.1023,126.3086,82.6575
-88.3101,57.4876,176.8980,192.1379,198.5505,68.9142,48.4813,-99.8796,29.5825,-10.9499,64.5869,-9.6597,117.5623,-28.2629,-21.7060,-164.0726,124.1289,175.0971,73.6925
46.6984,186.5714,170.1786,221.5628,208.0971,36.7787,126.0199,-9.2029,72.7666,76.0081,97.0622,12.1433,198.0674,-31.5112,27.5325,-157.4961,150.6520,170.5024,89.6120
84.8301,143.0252,54.3410,191.7794,182.9478,-10.5077,183.5854,98.4225,100.3745,119.3259,52.6219,70.8715,209.7018,56.8288,60.3027,-33.5897,53.3018,94.0588,105.8395
-9.0144,58.4321,-57.8126,146.6136,108.9566,-8.9895,164.3978,153.7446,124.6004,98.1535,27.9966,74.9068,147.4072,125.2365,43.0352,100.3505,-55.3492,1.5691,101.3623
-77.6577,44.7888,-35.7101,136.3191,3.0475,22.3982,60.8552,146.0719,85.2223,94.1663,63.6218,-21.2454,70.6178,68.2154,26.3390,114.3983,-66.1094,-30.3322,73.6254
-38.5391,-8.8439,54.4477,75.4520,-67.2399,45.7888,-4.1441,106.8935,0.1148,84.0183,72.9842,-146.4624,32.2890,-52.1671,26.4369,25.4963,-25.1081,-3.1531,47.4362
-9.4268,-99.0229,59.5553,-75.3089,-65.9177,65.0058,59.0276,74.4161,-17.4629,-9.3752,-4.9527,-194.3841,32.5404,-112.8591,14.0785,-36.1192,-5.8511,20.5979,64.2297
-62.4769,-92.1585,3.2031,-157.2682,-70.9423,53.9317,134.8743,53.4680,34.0974,-78.8246,-100.5032,-144.9153,14.8960,-84.4754,22.8590,-2.6405,-10.8937,11.8163,113.8293
-75.5596,-32.4063,-18.6973,-87.8488,-145.8071,-32.8690,81.2078,10.2486,11.1107,-17.6353,-126.0860,-76.5884,-64.4327,-30.9740,34.1081,51.3364,-25.2077,-2.2137,117.8887
1.9700,-38.2642,-27.2140,-43.8633,-196.8608,-131.1771,-30.5706,-44.9824,-126.8495,26.4518,-98.3076,-76.3278,-136.1108,-25.7138,-50.4294,40.8019,-43.6638,8.5290,54.2834
28.5865,-82.8182,-41.3115,-128.4419,-133.6884,-126.4280,-56.7358,-48.8601,-222.2056,-62.0813,-79.8712,-153.0066,-97.6089,-70.8580,-150.5499,-0.3827,-56.3536,51.9095,4.0712
-35.2461,-111.1237,-19.4392,-160.9549,-36.4621,-45.6111,-8.7901,-14.4602,-150.8426,-139.4274,-86.2622,-228.5451,11.6273,-100.1200,-79.0558,-14.1753,-52.1771,117.1158,-7.7388
-67.1568,-104.6857,4.6298,-35.0854,2.4156,-15.7763,40.8941,-39.8955,-0.9852,-116.9441,-114.7915,-217.0112,83.3987,-81.9802,87.5639,-28.0671,-30.4725,157.2668,-57.0870
-62.9137,-14.9229,-24.1514,68.7651,11.3927,-70.9860,85.6221,-138.9729,60.9469,-95.2782,-172.2100,-125.3975,116.9590,-46.6094,131.4729,-64.0184,-10.2203,122.6046,-137.2083
-97.9609,116.4984,-57.6752,34.5652,10.9602,-132.8736,98.8763,-197.6855,11.4601,-78.5524,-207.3831,-49.2451,141.1787,-7.0607,75.7194,-63.7172,-8.6085,39.1601,-144.5691
-101.4844,126.6056,-44.3329,-16.2924,-32.6598,-128.7401,37.8795,-134.7817,-34.0491,17.2757,-139.2475,-59.0717,115.3315,27.2699,54.0900,8.8457,-10.8805,-18.3541,-74.6722
-20.4855,-16.8076,-7.7148,-34.7654,-94.8090,-66.8850,-35.8174,-7.3118,-4.1388,106.2167,-26.2289,-134.6252,56.6205,12.0273,33.3350,87.8897,-7.5026,-24.5295,-10.7539
2.4087,-149.5425,14.4552,-107.0075,-113.7276,-24.8562,-32.8075,63.7153,52.0069,57.6708,-31.5157,-199.7366,52.1157,-39.7981,-31.5404,91.9185,-27.7780,-10.1534,29.2482
-96.0871,-148.8227,-23.9952,-180.6042,-108.3230,-57.5289,12.3129,17.9195,61.7439,-54.7926,-138.2668,-185.9160,70.0455,-52.4988,-50.8157,45.7925,-76.2697,-10.1460,48.4997
-132.0329,-55.6211,-132.6187,-139.3798,-157.1220,-130.4877,0.7448,-97.0641,12.2654,-99.2937,-143.1590,-109.3547,3.6029,-40.7751,4.5241,38.5575,-100.7812,-34.0400,12.5116
1.7269,16.8574,-190.7598,-57.5342,-255.8554,-173.8659,-91.4271,-170.7303,-44.4704,-89.4174,-10.6167,-84.1718,-107.3355,-81.4919,26.5617,55.8405,-67.6684,-43.5731,-42.1807
133.0191,-3.7169,-99.0639,-48.2438,-270.2351,-151.3779,-195.4044,-139.0556,-31.0095,-83.3290,62.4349,-170.6470,-134.5685,-141.1390,-39.0663,4.1353,3.3640,13.6707,-23.9810
93.8682,-95.1357,36.4058,-73.5862,-120.7503,-77.6824,-220.8922,-67.9852,41.6513,-75.3888,-5.8536,-259.6923,-70.5737,-138.3008,-119.6602,-79.3355,73.8741,111.7571,47.4282
-34.0581,-168.0881,85.1309,-103.2536,48.5054,-31.0794,-142.9891,-72.9033,54.5203,-60.0874,-77.9772,-225.5420,6.2924,-102.9839,-128.6647,-77.2566,96.6891,156.8042,68.7648
-79.0758,-143.2436,73.2187,-173.7796,63.0592,-85.8952,-26.1207,-147.8729,-8.8773,-53.7289,-62.2749,-112.2992,66.6098,-102.2504,-64.1227,-25.7462,47.3980,104.3138,17.5113
2.4851,-18.1210,36.6125,-238.8254,-22.6159,-189.1217,50.5813,-183.4587,-16.0421,-49.3130,-8.0424,-53.9588,102.2994,-124.7917,-16.8950,-17.6981,-22.6053,-0.5674,-38.7994
128.3470,86.4583,-41.6970,-225.8117,-74.0304,-218.1887,59.6918,-144.9052,34.9009,-32.7327,32.5189,-93.0996,81.4373,-139.3276,-52.7770,-6.6992,-45.2620,-80.9063,-36.8246
145.0958,11.4968,-107.9867,-153.2668,-94.4806,-150.5081,31.0349,-84.1869,8.1036,0.4112,30.1037,-163.2770,18.8002,-138.3149,-94.7274,39.4932,-33.1122,-93.6292,31.4744
-55.8925,-198.0496,-104.1039,-49.7312,-105.2167,-51.8387,25.8046,-16.9066,-42.3573,62.3218,-46.0397,-190.6682,-11.5783,-100.8298,-59.4924,36.9283,-23.4482,-63.1673,117.1764
-293.6621,-270.9199,-74.9597,48.4148,-73.0332,29.0322,52.4646,62.9553,40.5751,146.0707,-146.2275,-160.7918,2.8796,-32.7266,-33.5262,-10.2221,3.6753,-40.7480,173.3961
-231.1310,-86.7198,-53.7493,32.4656,-47.9156,61.9444,38.3514,125.3328,163.0228,212.6745,-160.7094,-112.0001,-12.4625,-9.4021,-98.5664,3.8179,49.4419,-33.4751,206.4966
44.4805,105.1173,-25.3140,-120.7968,-95.9024,36.2897,-25.8819,158.7074,164.8828,247.4837,-82.8341,-99.1539,-70.4857,-71.1518,-148.0966,89.2630,50.3098,-22.1627,228.5146
100.1847,54.1698,-24.1348,-254.7352,-147.3609,-7.3729,-43.2918,181.4456,136.8843,260.8113,-1.7158,-141.9004,-88.5230,-133.5134,-102.5515,180.9528,-0.5180,-18.8214,226.9680
-48.4317,-111.6489,-59.1397,-254.6137,-143.8551,-32.1808,-8.3075,181.1683,157.2485,227.1915,50.7752,-181.4474,-58.0822,-109.8118,-62.0850,225.7137,-20.7819,-43.1369,211.3917
-14.9754,-133.3002,-50.4480,-177.4465,-154.4469,-49.1334,-31.2059,140.3692,98.3551,126.4165,81.3072,-141.4521,-63.2915,-59.5686,-86.5423,173.2956,20.7401,-72.5640,197.5178
131.6061,-32.6271,19.5217,-109.2504,-193.7061,-64.5750,-107.4327,83.8408,-24.6286,28.0244,61.2055,-57.5032,-96.3672,-86.2467,-112.9026,64.9483,71.1475,-66.0213,162.8274
77.2704,3.0861,77.7300,-71.9986,-171.4340,-73.0589,-122.8748,40.2900,-6.9945,16.4322,22.3647,-40.6920,-67.6311,-151.9095,-126.8998,23.2598,101.3135,-16.5036,91.9787
-15.6554,-43.3893,94.8777,-43.6966,-75.2670,-87.9607,-70.0746,6.7098,117.2382,54.3439,55.0937,-89.2724,23.5656,-148.6713,-128.4004,34.5931,118.5095,44.8903,-0.2298
74.4551,-51.2740,71.7472,14.7787,26.5473,-96.9409,-15.5337,-39.7373,121.2227,34.8738,115.1299,-93.3776,119.2447,-88.1400,-36.3555,-4.1263,110.8278,88.2098,-107.7001
101.8709,24.1092,6.1037,86.3468,102.7614,-61.9023,35.9691,-104.6650,23.9677,-49.5173,80.6343,-31.3005,193.4794,-56.1335,126.0503,-51.8817,80.9095,115.6871,-201.6021
-58.4669,118.3448,-35.4384,98.0032,121.2231,-5.5567,75.4734,-130.1791,4.8601,-96.3101,14.4671,15.6438,199.7415,-53.1687,182.1626,-35.2700,66.9028,139.1117,-214.3873
-129.2765,131.9662,-2.9485,51.7071,41.2342,8.4080,67.7438,-57.8906,43.1252,-51.8629,51.9378,13.4457,118.8625,-24.4078,96.1572,-8.7413,72.5602,146.1706,-141.8641
-65.7997,36.0085,8.4623,13.5652,-85.1968,-24.6020,47.9547,45.3147,23.2271,13.8437,102.2964,-10.6785,51.2631,23.7158,23.6756,3.6143,53.7765,121.5638,-66.6950
-80.2632,-51.8996,-81.8401,-15.6817,-168.5295,-60.4930,52.5011,70.8165,-20.4522,24.0342,18.6116,-40.7829,49.3995,35.7697,20.1491,42.7821,-3.1468,79.8500,-39.7125
-104.7557,-20.6551,-176.5017,-45.1114,-205.7589,-74.0989,27.4552,41.5223,-16.3847,6.0792,-88.4102,-59.2709,15.8022,-8.0815,-2.0271,61.3112,-44.1098,58.7922,-38.9636
-2.7440,57.0432,-158.9728,-21.8484,-209.9385,-74.4438,-41.4930,26.5136,-5.5055,23.2197,-49.8012,-35.4545,-63.1745,-58.7449,-55.3177,15.7375,-8.4189,87.0055,-36.9675
61.2638,72.6868,-73.2813,31.8522,-148.2345,-96.0942,-70.3818,-0.8150,-37.7323,58.5812,58.0778,19.6472,-64.5997,-53.1296,-73.2890,-25.4513,74.8582,142.2182,-32.1568
-11.4128,50.9163,-41.2379,13.1398,-55.5259,-148.3498,-32.2001,-61.0682,-63.3278,47.9775,92.2177,47.6325,11.2004,-4.0994,-63.9484,-30.4089,101.6186,160.6389,-39.0038
-37.6975,37.1435,-85.4973,-46.1464,-25.8104,-171.0299,10.1134,-98.5056,-13.1061,-16.7882,80.5847,23.4005,51.4393,19.5254,-76.0384,-30.7037,52.2810,128.4796,-72.8327
40.6215,25.6004,-111.9810,-23.3835,-48.6721,-137.5413,19.7399,-111.5726,70.7679,-95.5213,74.8139,-3.1810,59.5242,1.6408,-76.4405,-10.3660,25.3761,100.9981,-137.1786
45.8574,36.9068,-69.1802,49.6854,-42.1761,-126.5022,1.4026,-166.8946,84.2131,-164.6842,29.3450,15.9580,95.0738,-18.3180,-12.1846,18.5710,47.5924,91.4324,-230.6307
-73.8092,81.7987,-24.3383,65.6026,-11.9681,-153.9379,-21.3684,-250.4917,57.4148,-205.8460,-38.8536,47.7370,124.2419,-12.1080,50.5302,-13.2447,43.8910,62.4400,-321.2616
-162.9835,101.7737,-22.5455,51.7296,-11.0655,-103.4224,-7.3777,-255.0438,112.3342,-188.8587,-28.2316,37.5478,103.0103,38.0543,11.0401,-84.5704,19.6405,32.1614,-320.2435
-110.9230,51.4079,-18.1482,59.0805,-22.8711,44.8754,28.5446,-115.0359,175.7092,-128.1249,53.0486,5.5258,55.1320,118.2474,-66.3987,-117.0309,26.1953,41.4408,-183.2461
37.4216,-45.2850,-1.6855,26.7670,-6.1920,149.6792,23.3533,100.6786,65.5199,-83.3545,102.1487,0.6061,21.3336,149.4092,-45.8679,-109.5209,18.7383,74.1069,1.8915
150.7738,-128.6647,-19.5662,-71.2896,28.1443,144.6989,8.0721,227.5717,-106.2618,-58.8694,104.7334,10.0088,24.4367,94.4490,28.1365,-76.7295,-30.7508,106.9418,132.8045
112.2627,-147.0467,-68.1466,-150.6223,50.4597,96.5907,66.4438,182.2418,-72.6107,1.8850,99.4653,-1.6412,46.1140,38.7104,24.9119,-5.4982,-58.9757,121.6875,199.2056
-57.7981,-116.5539,-109.3446,-164.4981,60.2759,54.5342,155.7303,79.3515,97.1118,87.4253,56.8577,-21.5183,50.0030,53.2209,-31.1003,72.3551,-61.5362,80.1759,216.9252
-186.8097,-106.1270,-116.5588,-151.8676,79.6925,38.3871,182.1537,69.8781,155.3489,109.2761,-27.6532,-29.2270,62.5588,88.5698,-62.4117,113.3505,-79.9009,16.3052,197.8207
-150.8878,-124.7466,-62.3464,-145.1662,114.8004,65.0467,168.5366,137.3567,145.9377,59.5458,-56.8555,-47.7434,113.3650,80.7975,-81.9866,109.0874,-76.7557,22.6356,173.8232
-22.3248,-122.8363,25.6530,-134.9804,132.6990,93.8375,160.8176,178.1654,221.9180,42.0310,12.9765,-85.1621,136.0882,51.9600,-58.3141,53.2150,-32.9410,71.3256,142.2285
58.8895,-97.7745,63.2710,-86.1192,108.4111,87.8893,130.1338,171.6538,294.5813,105.9008,81.3163,-89.8715,94.0549,58.5242,69.8183,-6.0686,-0.6047,58.6505,81.4600
41.8032,-85.8527,37.2612,14.3336,74.9820,89.0527,82.7188,160.5549,255.0365,175.4989,60.6379,-39.8623,68.5059,98.0720,191.3794,30.7330,32.2096,0.9022,37.8440
-32.3216,-89.0424,12.3606,104.9479,77.6952,117.4178,71.3180,163.8579,184.4940,178.7746,11.0782,0.4683,102.9178,110.6509,167.8796,130.0434,102.1224,-30.8221,43.4564
-68.9349,-81.8407,33.4426,119.4322,106.6063,127.8981,71.4776,164.1635,138.1628,134.8394,38.6890,-13.7594,150.1414,78.1137,84.7158,138.1354,147.7742,-46.4023,32.5515
-29.1205,-55.1775,96.8415,71.2517,102.7994,101.0707,25.2691,131.8137,74.3999,96.1285,117.9544,-44.6335,172.2527,49.6851,71.0923,47.6824,111.7131,-71.4163,-18.3611
-13.1082,-31.4079,120.6881,-9.3386,19.2574,42.6398,-44.3839,73.3922,14.7026,89.9081,125.2582,-58.6489,128.5182,38.6649,83.7517,16.1555,29.1569,-104.7341,-32.3100
-62.9560,-46.3156,15.1679,-110.6524,-109.2074,-42.7408,-92.3158,35.9248,4.8988,110.2132,43.5889,-64.3870,-2.2881,9.7989,49.5320,95.9355,-44.8142,-151.6819,6.6191
-35.4288,-82.9046,-112.5058,-169.6021,-173.2868,-103.6558,-117.3070,24.7190,25.4110,112.8138,-18.8517,-46.3675,-116.7432,-22.2850,-7.2720,153.1619,-63.8230,-184.2527,29.2299
78.9804,-68.5415,-90.4760,-134.3860,-123.2926,-103.2207,-108.6398,-3.9053,57.1902,52.1540,-23.6880,19.4173,-107.6539,-25.7843,-27.8260,81.4919,-24.0450,-165.5424,16.4257
60.3289,-0.6124,-18.7583,-75.9505,-42.2413,-101.0457,-58.0846,-54.8061,81.1189,-50.4228,-17.5083,92.8872,-35.3531,-30.0095,18.0358,-45.2845,-14.9251,-137.2508,-3.6973
-73.5936,46.3233,-47.3154,-58.6798,-12.1296,-125.7587,-17.5227,-99.0521,50.2109,-124.1496,20.9663,124.9583,1.2403,-40.4480,68.8317,-100.5983,-72.5566,-140.4391,-21.9429
-41.9426,73.4376,-36.5808,-13.1698,-7.9137,-106.2557,-24.3992,-130.6311,-14.6314,-138.4059,113.7161,139.6291,1.8346,-6.3152,13.2702,-81.1924,-80.2557,-129.6676,-28.7741
126.1935,129.3093,90.1711,94.0218,9.8135,-50.9783,-37.4174,-147.7804,-42.9660,-123.1643,160.1696,168.3638,-15.5337,41.9210,-103.9768,-46.8262,4.1703,-93.4693,-25.1787
144.5371,166.2022,116.4989,143.5845,18.7704,-79.7433,-33.7553,-153.2519,-49.8723,-104.2578,100.1687,184.3569,-40.5998,4.8787,-121.2644,-12.8388,47.7744,-103.2679,-43.6889
31.4463,131.9369,1.0408,61.9514,-6.4506,-194.4898,-58.8468,-171.6283,-77.0503,-67.4515,17.6918,166.7667,-40.3753,-105.5948,-44.4020,-12.1953,-7.0047,-166.9139,-92.2101
-10.4596,83.4929,-43.4646,-45.0702,-45.2738,-237.1922,-117.9352,-185.4840,-87.3788,-1.7935,-49.9424,136.1091,-22.9634,-171.4712,4.0073,-65.9822,-62.8756,-196.6273,-144.3809
-2.3774,59.0583,-12.9619,-59.1723,-49.1110,-128.4450,-143.9297,-139.1053,-59.1718,57.9475,-139.3685,104.7739,-25.2452,-139.0157,23.8643,-67.5554,-55.9277,-130.2827,-181.9398
-9.8415,30.9155,-22.9672,-2.0960,1.1761,21.8622,-118.0865,-51.0616,-49.5411,77.4275,-181.0569,68.3892,-44.3498,-67.1915,36.8013,30.0342,-0.8309,11.5898,-174.5586
29.9195,20.0260,7.9972,44.7900,42.8879,91.0630,-106.2763,10.7401,-110.6251,77.7142,-102.9005,20.5374,-89.8123,-29.1847,-27.2261,52.1458,81.8893,150.5020,-92.0179
86.6249,41.6066,108.7711,65.4700,7.6611,112.7969,-136.1047,45.1032,-244.2007,77.1081,-29.1810,-46.8696,-168.5022,-18.1165,-149.4039,-62.4633,167.5065,221.8581,30.0638
60.9603,28.9000,133.0042,79.2112,-48.4441,172.1899,-130.9769,79.9096,-376.3021,44.0884,-93.7794,-110.8094,-188.9638,25.7550,-198.2598,-92.5103,226.1160,247.2179,126.4396
-14.8333,-28.7539,73.2417,49.8219,-28.3306,216.0432,-26.2326,98.5488,-357.5383,-11.6079,-211.1312,-145.2245,-91.3987,88.8711,-132.8464,31.8299,218.3160,276.4627,161.8591
-65.6760,-47.3897,24.9561,-45.4234,31.3199,150.8569,105.6332,84.3301,-149.2927,-18.9593,-227.4270,-206.0207,10.2974,74.4503,-18.3517,90.5829,106.7081,291.0959,108.9034
-53.6965,2.5370,-33.3279,-89.9309,35.0813,55.1639,143.2481,46.6405,63.4760,11.2220,-127.7185,-346.5691,10.3123,-42.4864,73.5724,20.6156,-41.3849,262.3464,-14.2797
38.5210,80.4179,-96.1783,27.6399,-4.0750,51.1435,105.2942,-0.5260,130.0269,-9.4627,-10.9916,-476.8368,-37.8994,-156.7341,84.1306,-9.6960,-84.6406,224.2400,-102.6589
103.0463,138.3284,-88.5594,183.7750,-15.1913,85.0646,109.8791,-21.1491,129.8574,-58.0093,20.5012,-478.9923,-54.4273,-150.3337,20.7361,21.9041,-19.5458,207.9602,-86.7608
30.1522,111.1955,-46.4339,181.8443,5.4365,79.0335,152.5952,19.4959,158.1023,-14.6883,-43.0699,-387.7172,-31.2490,-14.3260,-37.4209,-2.0861,37.5856,203.1188,-8.1485
-52.6472,-6.4046,-40.8731,47.4299,-0.5489,88.9443,117.2349,94.5954,166.4661,120.3518,-110.2329,-331.9468,-6.2080,114.5502,-51.9652,-59.0808,42.2544,192.8754,79.1572
-49.6393,-103.4399,-78.3600,-74.9349,-63.0752,126.6953,15.5932,151.6385,126.0363,211.1777,-121.0155,-382.8906,-31.3188,88.6182,-31.5124,-44.2607,-9.7275,155.0181,141.0596
-105.1643,-117.1837,-165.2876,-133.6482,-110.9868,120.0041,-15.3758,172.2867,92.2282,181.8966,-103.2369,-471.4662,-78.8398,-19.8164,10.4690,37.1787,-107.7566,108.6338,144.9537
-186.6257,-109.4280,-209.0648,-104.9558,-55.2746,114.7390,31.8521,158.6256,67.2659,95.4166,-64.7569,-430.9174,-50.0364,-10.0529,7.2882,109.0157,-117.0418,148.5409,133.5885
-70.3095,-107.4133,-73.3332,13.4116,26.2559,182.1500,31.0981,127.8505,20.5143,38.7862,0.6857,-248.5902,19.0823,91.2821,-75.8570,121.9715,32.7024,281.8904,180.1060
92.7265,-76.8903,82.9413,83.2878,-23.2476,212.5412,-27.7363,108.3182,8.8358,11.8287,16.4167,-166.5507,-10.4221,83.3834,-126.0235,68.4650,130.0941,342.4057,232.8791
1.0374,-33.3079,10.1565,3.9875,-145.3547,119.5534,-24.7982,91.3057,87.9589,-23.7015,-65.4945,-289.5093,-99.9390,-27.6410,-63.9581,-3.9332,22.8070,245.3947,199.1821
-150.8739,-3.4880,-134.0786,-82.0220,-146.9723,28.4259,67.4716,46.9423,184.5357,-30.5010,-135.0789,-364.5114,-97.5123,-70.2806,18.0828,-20.2633,-93.3626,136.5003,116.0002
-71.8657,25.1097,-94.6449,-35.7929,-33.0503,27.7409,155.6012,-5.3007,194.9989,45.7882,-95.1646,-225.5459,-13.8058,-27.6840,46.1956,20.5054,-41.7462,127.6964,57.8798
38.6955,38.7779,-0.9863,52.4171,57.7518,33.8259,186.1163,-20.9802,121.4813,140.3257,-31.3745,-62.3160,57.4252,-0.2972,38.8611,37.4470,71.9697,135.9441,17.4861
-25.0500,15.9621,-16.5557,75.6375,103.0153,6.3493,173.4477,2.4002,36.4421,163.1210,-51.0303,-32.6192,111.6973,-8.6703,-3.8607,9.8810,130.3935,95.1747,-18.0782
-73.8202,-15.1913,-31.1675,54.9732,115.8157,-1.6728,120.4262,36.7819,7.4045,159.5905,-97.4939,-58.2371,135.5959,-20.1725,-42.3117,23.8331,130.0965,57.2379,-34.3004
-14.9626,-31.5844,0.5641,4.1103,53.0575,10.8826,35.5005,58.2855,71.6542,195.2805,-74.6910,-87.6716,78.5636,-13.4802,-2.1152,104.4029,63.2368,34.2616,-37.2476
-25.5966,-35.6477,-25.3847,-74.2521,-45.6362,9.3705,-28.4227,58.1525,183.1073,212.1365,-28.5333,-137.8800,-21.2263,12.6358,54.0340,140.9889,-26.2534,-25.3143,-24.5239
-103.9300,-17.5717,-78.2825,-108.1742,-94.2624,-12.3855,-47.5667,51.6748,214.0158,164.9203,-41.7626,-145.0385,-95.3800,11.8506,33.6114,79.4473,-39.2790,-103.3930,5.3939
-65.8809,6.0641,-54.6284,-55.1491,-118.5751,-44.5393,-81.1444,58.1813,104.8934,119.2814,-48.6499,-71.9794,-147.0311,-26.5555,-4.3826,21.8228,13.5183,-120.0210,1.6960
83.4393,-4.3021,29.8613,33.9784,-143.0782,-37.0813,-171.0789,66.6734,-53.5394,99.6954,50.3197,16.7238,-167.0922,-10.7056,-27.1386,37.1503,60.1609,-62.7078,-51.6842
175.5838,-27.1915,102.8630,83.8831,-108.0221,32.7666,-260.4556,41.6850,-151.8698,40.1081,163.2249,84.2931,-127.6587,74.6302,-100.3187,55.5431,96.6073,-17.5294,-85.2862
111.7334,-13.9487,94.9370,31.6451,-54.8892,45.4849,-288.5484,-40.6663,-174.2854,-69.5239,124.2612,107.3779,-88.5346,91.5990,-164.1929,19.9809,94.0267,-69.4603,-83.9218
-71.2981,25.0224,-19.3320,-94.1722,-88.1866,-75.2098,-260.5380,-146.6485,-144.9242,-164.6416,-23.2240,38.4743,-106.4290,-6.6871,-111.0245,-23.4287,-4.3418,-189.8497,-108.1396
-209.6127,51.5873,-133.4874,-137.8238,-117.3930,-168.2739,-161.8039,-185.6959,-82.0107,-202.8922,-96.1770,-42.8396,-99.4264,-95.6350,-15.6035,-28.3390,-118.3817,-246.4717,-139.3513
-149.1388,41.4007,-131.6714,-51.3648,4.5856,-109.2204,29.9021,-119.0568,-28.4228,-162.8741,-54.6282,15.0070,11.3872,-93.7415,35.1004,-28.9422,-119.8067,-169.3087,-109.0811
36.8262,-10.2982,-55.3770,-0.6944,172.3837,-35.8664,202.2702,-30.7661,-21.7082,-54.0519,-2.7817,160.7365,141.3913,-31.4459,89.0840,-76.4185,-46.2965,-55.7338,-54.9984
129.2628,-50.0101,3.8126,-49.4082,202.3785,-61.0367,196.2236,-16.1268,-31.9123,29.4149,11.2548,210.4291,174.1526,32.0024,126.2807,-132.5042,-16.6875,-30.0222,-64.1574
60.4542,-12.5002,21.4547,-56.9373,136.6831,-93.8585,52.9764,-67.5440,-14.3023,23.1055,22.2755,142.4271,123.9462,27.3205,62.5755,-104.7369,-47.5680,-75.4623,-123.4122
-43.5093,58.1970,3.8970,-0.0069,88.5379,-75.6750,-53.4732,-116.5622,6.3616,7.5656,34.4575,72.3755,58.0584,-43.8099,-26.6082,-6.4235,-78.4346,-102.3844,-151.0802
-53.0958,62.8445,-7.2562,10.6389,29.8027,-53.1124,-80.2442,-108.3085,-14.4246,32.9528,14.0409,60.9260,-6.8316,-62.3247,-17.2579,46.6399,-62.7954,-90.0670,-118.9491
43.9805,7.2750,36.8720,1.1110,-52.4054,-31.0882,-100.4208,-47.6340,-56.7046,3.0396,-13.4412,94.7240,-48.2546,1.4458,31.2168,16.8413,8.0079,-57.4571,-75.6155
141.3517,-21.5770,110.2750,33.2118,-62.0788,-6.3171,-145.2787,-16.4675,-88.4596,-88.4739,34.5340,122.6409,-26.8331,9.4446,-11.6663,-39.6102,101.5632,6.6859,-69.4981
134.6170,6.5998,175.2077,33.0332,2.8824,-1.0190,-212.4943,-58.7925,-129.5927,-92.9393,146.4048,87.9831,7.4151,-63.6261,-126.9288,-95.2228,167.2834,90.9678,-80.0000
76.3909,44.8552,223.2246,-4.0384,23.5633,30.2172,-263.2116,-80.6018,-165.8712,-16.2388,178.6497,19.9831,-32.2839,-59.9535,-174.6467,-130.2280,175.0432,140.8065,-52.0769
87.0082,42.4239,198.1993,28.2868,-4.8644,104.1972,-178.0803,-5.3264,-114.4490,-18.8275,80.3478,12.6815,-87.4473,50.7324,-91.0748,-94.7981,123.8622,136.9627,15.5676
137.0571,-3.0425,94.6516,82.8185,32.2481,105.5215,68.1587,81.2172,14.8294,-67.8596,14.6338,72.8205,-26.9578,115.0933,28.8169,5.7452,50.6883,101.0844,67.0312
117.0457,-49.3157,40.0333,46.1785,140.9100,1.1169,267.3720,80.6202,77.8013,-24.3372,96.4851,118.6444,120.4170,83.0701,87.6582,96.9913,22.7445,44.5767,61.1390
31.4807,-58.2066,66.4997,4.3001,214.9331,-65.7153,248.6312,20.2803,15.6951,18.4112,179.9934,124.1666,216.0708,54.0168,108.6521,106.9654,61.0453,-12.2428,13.3071
-60.6191,-29.1472,54.0567,53.8874,208.4997,-41.2234,124.7161,-39.6324,-53.1699,-72.2749,97.6342,134.1152,215.5587,61.6051,106.2226,17.8124,98.4340,-42.7646,-22.1184
-125.9843,10.7350,-8.2448,82.1259,133.3809,-33.9957,59.5136,-76.5467,-25.3478,-159.1337,-46.6016,150.7471,143.6139,43.0407,42.5851,-74.3847,60.4762,-79.5849,-18.4027
-91.1411,19.9684,-46.3147,-2.1097,-7.4469,-89.4567,26.4896,-71.8617,62.2394,-95.3481,-29.5124,108.6732,9.6598,-23.4657,-11.9892,-48.8442,-45.0005,-172.1448,-10.9889
45.5220,-31.3436,-97.0347,-117.2483,-153.1672,-149.0389,-22.9511,-20.0659,121.4564,9.6591,132.2911,-5.8063,-118.9842,-89.5450,34.8147,30.7971,-139.5847,-274.0091,-12.7364
96.3529,-113.6747,-167.7966,-187.7002,-189.4546,-159.5471,-20.2935,62.4835,116.8170,27.0809,192.6385,-70.4500,-136.1658,-102.5162,90.7876,34.9107,-152.5759,-285.5735,33.1802
-22.9219,-158.7597,-145.8135,-191.9798,-106.8796,-81.6137,37.4959,152.2114,74.8949,-11.4995,66.2225,19.3020,-61.8713,-53.7450,56.9813,18.5581,-84.2366,-188.3456,125.3754
-107.1235,-147.0177,-30.8549,-110.3713,-27.0211,60.9623,23.0299,191.7526,15.0897,-60.4775,-27.8370,145.0513,-18.9783,7.6083,11.5238,39.7100,-4.3227,-63.7893,159.6650
-39.9285,-116.3510,37.5065,-25.4045,-29.8717,137.7485,-84.8563,128.6220,-85.4806,-114.0193,51.5251,115.6878,-41.2772,20.3477,-8.2018,4.0878,8.3540,-7.0309,101.6213
1.2814,-82.9992,-2.0494,-60.1000,-66.5373,80.2276,-136.3183,20.1030,-177.8050,-131.6856,113.0566,-20.5407,-60.4131,-18.1145,-75.6520,-56.4553,-61.3903,-31.7152,37.4646
-85.9871,-34.1913,-97.9723,-134.5571,-56.7790,-8.6508,-60.8232,-13.5227,-126.0016,-75.6693,-3.1004,-72.8376,-46.8641,-56.7704,-130.6185,-6.0032,-143.9787,-59.8099,13.6208
-155.9525,3.2350,-147.9274,-73.9493,14.8844,-17.1176,46.1180,57.0657,41.2195,19.5970,-110.0781,-20.0624,-16.6709,-46.7089,-42.0868,57.5896,-151.7624,-35.1385,7.4547
-112.3883,-23.8564,-70.5338,72.1046,104.9340,48.0756,120.7847,149.8187,113.4587,63.0638,-19.8550,32.5989,51.3720,22.5219,117.9357,11.8195,-82.3313,2.8366,23.9575
-51.2093,-96.4369,39.1625,124.3239,156.7091,116.8292,189.9895,175.9204,67.4654,3.7797,105.1919,54.2830,161.2953,99.5344,189.9168,-2.3128,-26.7833,1.9513,59.2522
-76.1970,-115.0188,10.3507,86.1871,139.9757,128.8239,233.9860,127.2513,77.4070,-73.8033,54.3530,59.9006,221.2486,114.1952,183.3009,62.1721,-45.6222,-26.4662,61.6546
-154.5581,-35.6348,-91.6721,84.7661,77.3368,92.2999,196.3894,69.7738,123.2518,-57.1897,-62.6623,49.9697,162.7235,82.0015,184.7061,29.3795,-90.9776,-45.4574,23.4612
-166.1510,59.5107,-79.7774,123.8598,28.2508,81.3572,102.8899,43.8333,65.4465,4.8160,-34.1713,40.4403,64.6226,75.8204,173.0288,-62.8784,-93.6314,-27.7107,-11.2149
-72.5669,92.9484,22.5727,129.6635,29.0505,119.2888,22.9539,32.0836,-0.1173,9.4652,98.2925,40.1081,27.9208,92.4517,92.4403,-29.7840,-53.3576,33.2507,-33.8464
11.1867,80.5390,92.8322,123.5845,60.3095,154.1105,-26.9949,45.7754,51.0950,-11.2379,146.8224,53.4184,33.7757,86.3457,-5.2051,38.2859,-6.7915,89.2489,-56.1229
-10.5574,31.3497,116.4056,151.0030,77.6150,166.2853,-63.9465,102.8709,83.1790,-14.2286,70.0652,106.6776,28.8480,80.2591,-29.7774,-5.3337,14.1591,80.1992,-69.5007
-81.7910,-50.0542,83.9549,154.7433,59.5991,166.5100,-86.3122,140.6077,12.7241,-43.0735,-26.5988,167.7393,16.6851,96.3661,-3.4585,-38.4487,-20.1351,31.4602,-69.0169
-115.3590,-64.1234,-13.5510,90.6577,31.0315,138.9791,-66.3467,115.4362,2.6129,-75.1399,-62.9313,150.9743,5.5953,88.7867,-0.5418,42.1430,-100.0800,15.7021,-42.9876
-90.7210,31.4916,-82.9802,33.2141,35.8320,87.2941,14.0746,77.2779,93.9386,-44.5007,-34.4666,68.1565,-7.3206,39.4175,-2.4823,110.2149,-160.4888,34.6616,14.1574
-30.5285,108.0605,-71.1641,27.7578,73.3068,35.6599,105.0981,33.3605,110.8871,-2.5881,9.4653,13.6166,-3.6658,-19.1442,31.4084,72.0459,-166.6410,37.6765,44.3567
-25.4252,110.7202,-51.2743,3.3064,91.1110,-19.3817,130.0626,-45.5935,29.4996,-9.8122,-20.3984,21.7057,16.0131,-73.9771,63.8061,5.3743,-156.2648,24.2392,5.7930
-145.0461,95.5918,-64.7436,-68.0449,65.6898,-53.9610,103.5845,-77.4915,0.2314,-11.7135,-145.1254,63.8809,21.5350,-95.7582,77.1453,-4.8930,-164.5819,27.7671,-33.4338
-236.2750,3.4719,-81.6530,-97.3489,39.9918,-13.0354,98.4845,10.9493,33.4133,32.8543,-222.8149,100.4786,21.0788,-36.1009,94.1824,20.4331,-180.9253,34.0349,-16.5033
-102.8580,-136.6424,-72.1006,-25.2212,49.7584,73.4826,118.1723,117.2127,25.0765,82.7147,-133.5528,102.3917,46.6418,54.1768,75.4721,27.2972,-174.8821,14.4382,15.3886
113.9005,-64.3644,-8.3266,85.7146,74.9402,115.5601,126.4610,125.6884,-9.6554,87.8603,-9.2817,86.6678,79.8061,68.2740,7.0698,33.3104,-125.5077,2.6662,35.9232
137.6067,179.4591,73.7468,124.8905,96.4481,100.1184,126.7414,66.6480,0.9840,30.2161,-43.8176,73.7478,83.5150,24.7391,-28.8706,61.1564,-55.8997,52.1497,62.6394
22.1834,191.8318,84.5711,55.4007,128.2177,87.8069,115.1060,23.2847,12.4157,-34.6699,-167.5390,47.9218,68.2307,32.4585,-27.5412,47.4913,-21.3002,147.4746,83.5085
-19.7213,-20.5927,56.7650,-34.7596,157.8020,128.3867,68.0302,43.5902,-52.8519,-25.5565,-188.3173,39.6466,56.6701,105.7850,-57.7880,1.6767,-24.3673,219.0942,92.2816
1.2056,-42.2381,79.3290,-40.6977,133.8717,207.7305,12.7696,113.4868,-150.6006,23.1308,-118.5856,90.3574,38.7996,154.6514,-78.1074,47.7164,-12.1564,226.3140,108.8437
21.4899,163.7524,86.5618,16.0664,63.1748,232.9633,3.2540,151.7090,-185.5096,50.0243,-83.5456,130.9965,17.4950,121.4453,-45.6049,124.3663,19.9904,191.4261,121.2927
90.4913,284.2468,13.1499,47.7535,33.6300,147.6595,45.0946,125.0783,-155.6348,94.0974,-87.9034,106.4365,38.6538,47.5123,-32.2448,43.6440,22.9616,163.4549,121.0092
128.7127,215.5860,-35.3910,43.8884,75.8287,43.7355,101.0049,95.7220,-123.8644,124.9879,-99.0216,88.0154,113.6043,11.2211,-30.2602,-86.6120,-13.9956,155.3725,134.6202
9.0163,54.8610,-3.4174,40.3045,107.6936,14.5177,132.4468,83.7558,-113.9130,74.6984,-136.6258,94.1905,167.8046,22.9741,34.9363,-38.0045,-53.9838,126.7975,157.7501
-103.4281,-68.9498,22.9084,29.6153,76.8003,6.0926,135.2670,58.3088,-96.6823,99.7831,-157.4945,50.3673,139.6703,16.9472,83.9239,82.9720,-61.9216,55.1763,170.3955
-9.1023,-11.5853,19.0891,-7.2845,23.5987,-35.1073,140.1466,41.7667,-35.7292,276.0409,-90.0597,-5.7414,70.7065,-37.4635,47.7456,82.1443,-31.6441,-15.8391,176.7192
135.2847,179.1154,11.0091,-63.8078,-32.6705,-57.8873,144.0351,34.3578,61.1519,269.4128,4.8193,31.8379,20.9376,-84.9935,45.9798,26.8525,-11.4224,-52.2072,140.1482
118.4133,260.8241,-48.0563,-126.6911,-110.3493,-47.6997,105.9773,-23.0662,130.4259,-52.9714,12.5861,123.6669,-20.0830,-78.0779,106.9405,-3.4019,-64.4216,-89.6244,28.2168
8.4066,167.9247,-152.5100,-148.1493,-158.3037,-43.6545,49.5882,-92.6139,134.4571,-255.4560,-64.2605,150.5665,-57.7966,-38.2981,87.4401,-50.2329,-154.1135,-146.3134,-65.6208
-72.1636,36.3156,-180.3859,-57.9308,-102.1646,-12.1724,35.6084,-71.6789,104.9312,-122.0305,-143.6835,92.7602,-46.7671,5.0832,-6.4390,-79.8128,-163.4527,-155.1958,-39.8208
-106.1650,-58.3886,-84.9313,96.4231,18.9956,76.3290,39.7779,13.8762,56.0530,16.7900,-170.1112,20.4236,4.5533,51.2132,-37.3000,-58.6179,-72.5855,-75.5396,63.0802
-67.2797,-67.1050,21.9697,146.8291,98.5167,131.8890,28.2132,73.1448,-16.3937,17.4986,-137.9728,10.9443,13.4490,79.6098,-6.1122,-48.8960,9.4196,14.8533,169.8491
26.5349,52.6627,17.6620,48.9869,86.2836,74.4722,50.7794,97.1896,-47.4686,57.7619,-91.8520,83.2853,-50.9274,52.0571,13.6599,-41.2614,15.2832,30.8108,258.1207
68.3698,173.4402,-84.3901,-42.2692,0.8378,-43.5074,98.6843,93.8274,-11.9564,98.0059,-81.0378,161.8907,-132.2998,-11.3975,11.3156,-10.5523,-10.4674,-9.4900,279.0534
39.1065,150.9323,-145.8035,-28.4712,-82.0988,-121.6800,70.9362,42.8500,-22.1594,8.0341,-96.2212,172.2973,-164.7990,-37.2547,-27.4540,-44.9970,-6.4343,-42.9035,216.3195
12.1239,70.1694,-78.3313,18.8852,-68.8279,-108.2661,-18.7293,-36.2681,-111.0095,-102.1230,-106.5188,144.1237,-122.1143,-5.5677,-96.8696,-130.4459,44.3437,-42.9249,148.4019
-0.3490,61.1856,38.2823,50.1507,17.8976,-25.9541,-59.1637,-109.0111,-143.7193,-149.0665,-107.7048,134.7247,-48.1662,26.2026,-125.3134,-121.2397,116.7442,-21.6689,96.9318
2.0151,101.2706,83.8399,96.3516,44.2442,30.1149,-60.4256,-170.7176,-91.0839,-196.0944,-87.9696,146.8983,-33.8489,20.6151,-101.3708,-40.2360,157.0743,-6.2380,4.0986
52.0998,155.8195,44.0697,136.7627,-21.2161,-6.6978,-94.2633,-205.6422,-74.6723,-224.1518,-34.4369,176.4510,-94.1714,-2.5641,-86.5453,-16.4803,135.9025,-11.2832,-93.2604
99.8578,227.5625,-21.7635,132.0688,-76.5320,-68.4267,-129.0146,-194.1121,-118.3258,-218.3953,17.7721,217.7190,-144.9149,-15.6633,-81.5302,-36.3739,85.1212,-28.3190,-118.2200
69.4883,235.3692,-46.2000,118.0771,-81.7557,-48.8185,-133.4365,-152.9192,-169.7560,-249.4509,25.2421,225.5356,-137.4133,5.0136,-59.7251,-62.9294,46.5322,-54.1907,-118.2628
12.0338,111.7578,-3.8765,116.5848,-73.2435,33.8669,-158.8678,-106.7486,-223.7312,-254.8433,-5.4471,181.3112,-94.3496,61.4384,-52.5042,-121.9094,24.6943,-88.5492,-154.4455
3.8670,-20.5472,45.0491,99.1420,-50.4048,73.7423,-205.7151,-72.2488,-213.5699,-159.0171,-41.7857,142.2636,-39.2822,89.0337,-73.8217,-150.3155,9.7068,-106.8639,-177.7746
18.9100,7.1471,47.5346,83.8400,-29.1319,29.8299,-212.5682,-64.1040,-82.6851,-125.5824,-56.3695,153.3787,-8.3605,38.8879,-68.3581,-77.4681,-7.8770,-105.9703,-148.3055
22.1903,139.2462,33.0895,80.6401,-63.4938,-43.8021,-182.0557,-63.7794,16.3584,-240.7908,-41.2625,181.3544,-41.8078,-15.4144,-5.5591,14.0707,-37.9233,-120.2808,-96.0402
22.7308,180.9877,0.1648,21.8969,-122.1210,-92.9744,-151.8208,-44.0155,-26.6343,-290.9048,-25.9811,175.8661,-103.7107,1.1967,38.0533,30.7690,-71.4818,-138.2221,-42.2147
7.3880,118.0168,-72.5438,-75.4201,-127.7112,-120.5070,-119.8644,-35.0740,-46.9175,-196.5986,-34.8675,145.3429,-127.0077,30.3123,-34.6909,-9.6078,-89.7988,-128.2050,-10.6505
-33.5854,89.3507,-86.5232,-79.1164,-99.9265,-146.5501,-95.8664,-84.3379,26.4069,-167.7527,-40.4914,135.2686,-111.0825,8.1672,-156.2846,-62.4518,-91.3940,-141.4700,-46.8164
-48.1853,86.7583,13.9369,15.6011,-88.0575,-162.0215,-106.1558,-174.1170,5.7678,-250.8974,-14.5275,145.0982,-82.2640,-24.0238,-136.6207,-93.5366,-84.1162,-215.3681,-136.8684
7.7612,17.1887,77.0853,83.4702,-76.3122,-142.8159,-118.1995,-236.5369,-106.6021,-257.7037,29.0298,124.6434,-52.6787,-29.7236,35.8404,-89.5678,-77.0836,-257.7188,-207.1622
56.4055,-43.5830,16.3406,105.5943,-59.8647,-87.9688,-79.7619,-227.6355,-73.9526,-168.0709,59.1838,67.7221,-42.0216,-25.1692,159.3419,-82.3611,-81.5466,-207.7484,-221.0750
-40.1081,-14.2672,-49.5086,125.3298,-59.7227,-36.3964,-17.1226,-176.5785,77.7898,-134.9913,39.7863,26.2166,-42.4509,-6.2693,137.6421,-70.5061,-94.4614,-162.3889,-200.9613
-217.4933,5.2703,-76.3501,88.1600,-69.2038,-40.7577,-6.1483,-145.8981,98.8506,-157.9837,-31.3764,19.6539,-33.2951,32.8338,55.9671,-19.7000,-109.7956,-197.5087,-183.1652
-199.6368,-17.1396,-120.9442,-22.8385,-106.1262,-92.9140,-70.1588,-129.4309,-16.1651,-107.3473,-71.1842,25.9038,-56.9725,65.4403,-16.7133,19.1015,-137.1307,-250.1368,-177.3994
32.8826,21.8402,-126.2713,-76.7839,-188.6543,-109.0029,-150.9119,-76.5352,-88.1853,25.3321,-12.8496,33.5028,-130.2430,73.1387,-50.5695,-4.6901,-154.9201,-251.5021,-151.7266
114.0611,75.1972,-50.4627,-4.7859,-227.3697,-60.7084,-173.7911,-17.8184,-88.7146,142.8082,76.1381,21.9559,-161.8562,41.9476,-31.5255,-7.7032,-113.2887,-200.9556,-90.2671
-80.4762,23.0428,6.8284,68.0458,-139.2855,-45.5260,-121.7030,-9.9256,-73.7410,218.8448,102.0212,-31.4905,-108.2258,-27.0134,-22.9923,57.5622,-44.4583,-116.5780,-33.8893
-234.1948,-73.6877,16.3988,15.8836,2.6182,-121.4721,-32.2494,-3.7168,-28.4850,286.0673,60.8962,-89.5941,-29.7812,-57.9335,-48.4705,79.5991,-38.6652,-33.0135,1.3101
-222.9896,-141.0871,36.3997,-94.7672,98.3292,-185.1591,44.6975,47.3995,30.9044,303.9536,-11.1644,-100.9921,47.3204,2.7557,-20.6169,6.1354,-75.9210,9.4653,45.3570
-181.3893,-185.3020,43.8704,-93.5574,125.3708,-135.1316,60.8666,62.3341,25.0459,200.1610,-33.6740,-72.6208,86.9627,66.0087,45.4682,-45.2872,-53.9196,21.0795,65.1929
4.5207,-94.2632,44.0903,40.0818,63.4219,-32.7778,5.2259,-15.7532,-46.0646,41.3127,96.6381,-18.7383,1.2073,48.2902,44.0281,-0.2921,30.0226,44.5460,-0.6116
360.6612,169.3300,107.5507,120.0695,-39.4905,9.3640,-50.7015,-96.5845,-88.9174,-7.4299,295.5926,50.9837,-123.3071,3.5677,37.7127,61.5041,93.5687,90.2313,-93.1426
418.6727,306.6994,168.2536,32.1714,-17.2881,-15.6189,-31.0238,-95.5386,-52.3359,64.4651,330.3394,71.4566,-71.2606,-17.8089,118.8620,66.5664,109.9786,134.0787,-107.9392
39.1206,112.0074,144.8645,-84.0628,149.0907,-48.1864,28.4019,-59.0807,13.0307,97.7727,197.1904,7.7018,108.6577,-31.8025,166.7681,49.8545,105.6632,149.4933,-64.0978
-179.5981,-166.4149,148.4517,-79.5390,240.3805,-60.0751,45.8071,-55.5805,38.1702,61.5423,112.9575,-51.2226,173.9748,-13.0155,96.0062,43.0428,93.4573,128.2196,-32.8641
10.8157,-247.0746,222.1137,-19.3623,151.1074,-49.8819,23.1017,-56.4212,38.6929,105.7946,116.1303,-34.3222,108.4758,52.1636,32.3094,4.7280,81.8682,92.8997,-9.6295
132.8215,-164.1609,221.0647,-1.6833,35.5498,-15.5620,10.9396,-0.7500,72.0601,243.8270,88.0889,-1.1864,61.6575,78.0206,36.8817,-52.9419,84.6203,75.8048,25.0490
18.5450,-54.0991,152.4834,14.3500,27.1029,17.3457,27.6989,86.4710,116.5310,300.8112,57.0282,-10.1354,65.4098,14.3013,36.3478,-25.3173,102.8699,87.9826,54.2404
3.4402,13.5048,151.0512,64.5598,96.3900,-0.1798,74.6089,135.2865,125.0940,239.3935,96.0942,-30.9195,97.6354,-66.1320,40.2958,90.1920,127.0675,117.8574,87.1757
136.4376,25.7471,159.5492,84.0600,170.1877,-58.4515,140.6047,150.7922,148.3111,196.0923,127.3178,-26.0099,149.9577,-84.0952,95.5381,154.8390,141.6020,132.7585,143.7328
216.6908,31.5859,116.4312,41.8974,194.8733,-74.5424,181.6786,173.9607,222.2349,201.7122,87.4811,3.2300,149.7050,-29.5892,150.3103,121.4384,139.5145,103.0014,188.5675
240.5191,24.5739,162.5282,7.3312,157.2093,-9.3269,173.6261,186.2555,249.9036,192.3330,44.9092,25.5127,78.5975,50.7696,156.5484,75.4378,136.6947,47.3942,187.8458
211.5656,-68.7838,299.2459,42.4741,110.8473,77.1360,153.5978,174.2455,188.5993,185.9798,52.8290,6.4194,43.4707,80.5976,127.5007,41.6426,136.4792,10.2593,178.0465
82.7818,-142.3541,305.6154,117.3674,97.1136,121.5964,155.3415,170.0094,155.6599,187.4964,89.0656,0.6243,65.4955,47.4139,64.9558,-16.2999,118.8816,3.6050,193.3506
19.5612,-0.3817,167.7173,150.8464,95.2090,121.8322,158.9604,157.6822,189.3524,129.5752,107.1837,131.7028,60.2829,30.9157,-11.5335,-73.2686,100.4944,20.5816,197.5196
149.1129,263.2523,103.9685,118.8320,99.1124,99.9695,135.8098,106.0908,187.9408,40.4710,63.8334,379.1295,39.0199,67.9629,-38.3091,-85.7223,121.6441,61.5101,158.5572
296.1542,415.4090,180.3241,100.8658,111.9582,87.2418,91.2386,63.6750,160.6968,3.8009,7.4142,549.1038,43.4794,109.4323,2.6262,-55.9096,153.1713,107.4970,107.7028
337.6968,456.1111,266.1856,177.1418,80.4245,114.8303,44.5593,55.6754,192.7521,-13.9101,61.3809,537.2546,15.0186,129.1121,50.5470,-6.2227,132.0707,125.8480,64.0898
349.0596,442.0436,239.3512,298.9003,-15.8320,159.9835,-4.4938,32.2808,190.3641,-46.7933,181.1796,430.6595,-61.8438,138.2031,32.8047,28.8349,88.9016,114.8521,6.1559
308.8866,308.0850,100.0117,338.0100,-77.8513,167.8733,-58.9012,16.8990,29.9368,-25.2373,155.5792,329.1702,-99.2439,137.5540,-53.7416,32.2067,107.3843,98.4651,-28.6625
161.4515,126.1218,17.0637,255.5097,-19.0430,139.4382,-81.9246,74.9941,-155.0493,51.6576,-23.5033,242.9541,-68.5273,133.3443,-119.3186,28.3466,173.8062,95.0905,39.8870
42.8729,67.9990,129.3326,134.5922,95.9333,109.4730,-37.8638,151.5912,-171.3136,92.3459,-103.2722,153.1585,-22.3446,116.2116,-103.4902,17.8063,194.1240,103.3824,175.0859
87.9683,81.5378,266.1568,54.3050,134.3358,82.0833,29.1261,178.4952,-73.4554,85.4547,14.5807,67.1683,0.8874,59.5840,-72.0879,-4.0645,147.1329,99.8125,255.7562
216.1219,55.3604,200.9648,31.1491,62.9432,70.3149,56.1652,200.8892,-14.9331,75.8318,112.8128,24.8056,-17.6849,12.4149,-73.5495,21.1225,108.6410,74.4242,268.6454
248.0217,71.7636,56.3525,69.6974,-23.6915,103.5061,66.5326,231.5753,-7.9904,73.5419,18.1188,44.1944,-56.3009,44.8992,-41.9452,82.1529,119.5296,49.3885,270.7169
101.4132,146.0659,46.1326,134.0294,-30.6880,137.9328,92.5744,203.2916,-16.3857,93.9257,-135.5145,62.4994,-44.8667,88.0502,33.8895,56.3075,132.6913,29.4466,232.9983
-94.2074,129.1309,102.8021,109.5976,27.8587,87.4047,86.9126,120.5697,-70.7336,133.2369,-143.6519,20.7917,19.0950,40.2009,60.9604,-25.4390,108.5664,-1.0038,125.3152
-100.5868,45.5152,111.3053,-29.1632,75.5510,-34.5184,36.5071,50.9420,-161.6101,148.3492,-41.5758,-30.2151,52.9263,-42.1960,30.2109,16.6497,67.9967,-30.2232,26.1697
103.8136,53.5317,119.4410,-117.9307,69.8496,-130.0432,14.2037,21.3426,-196.5318,161.6993,12.8688,-32.9831,25.0984,-67.6456,19.7193,148.2767,37.9897,-52.8873,-4.9477
262.9906,99.3788,129.9119,-64.9971,13.8646,-149.7185,27.5219,35.6330,-151.0434,214.6796,9.7109,-35.8984,-26.0185,-63.6505,31.8856,158.3572,23.7393,-93.2322,-3.2257
185.9081,46.4447,80.0204,-3.0063,-52.0235,-101.5724,9.7963,73.9476,-118.2504,234.1299,6.4817,-84.3092,-62.2633,-61.4607,19.3486,36.7472,30.2411,-124.6986,6.8576
-33.3889,-32.0960,14.7370,6.0285,-63.2531,-1.6431,-24.0029,81.2850,-154.6407,156.1624,-37.9568,-121.6393,-47.8002,-28.0423,-17.7164,-44.9088,60.7124,-86.5929,27.0535
-124.9100,2.5145,-5.8923,83.6124,-6.6849,98.1328,-16.2734,59.6484,-207.8634,45.8549,-102.2893,-79.6509,10.3894,24.8806,-58.2695,-15.3055,106.7245,-3.0640,37.1985
75.2924,137.7187,1.0496,207.6395,58.3736,130.7041,6.8827,65.0587,-215.7421,-41.9502,-41.3200,22.8577,34.7859,46.8039,-74.7033,50.2387,144.1628,59.8964,41.1726
356.2124,259.0241,43.8899,193.4913,90.4003,116.2769,16.2586,88.6224,-156.1690,-108.9679,105.3085,93.1027,6.0467,50.1045,-28.3372,36.4994,132.6947,98.2875,53.8326
336.5866,258.1530,110.8956,72.0759,92.0615,133.9323,47.2327,81.3772,-38.1910,-122.6894,102.0184,60.2932,3.4046,79.2086,57.7752,-77.1098,78.4644,116.7235,37.8061
45.7952,144.6871,100.7088,47.7908,64.8685,174.1928,81.9579,38.2522,51.5966,-82.0539,-60.4907,-18.2771,44.8257,124.5077,95.5652,-140.3520,67.8189,95.5713,-22.1612
-117.1729,84.9414,-2.7278,116.3445,33.4249,145.4991,44.7723,-32.3201,16.8783,-57.3668,-141.3050,-18.1408,69.3767,133.2108,51.4643,-53.9063,125.3108,50.9985,-82.5661
-26.8163,175.4181,-81.9134,115.8755,34.1033,29.0030,-49.9467,-118.3521,-62.5128,-69.5148,-62.8647,63.0217,69.6923,81.9660,-18.9582,25.8410,138.2496,4.5240,-150.3178
103.8488,285.3370,-83.9553,36.1447,25.4341,-87.9516,-120.2665,-183.9290,-31.1807,-89.5425,41.9179,123.7306,56.6494,17.5452,-52.4719,-34.5393,58.0195,-55.5529,-252.2884
170.7757,277.3929,-43.0102,-8.9884,-47.6410,-123.9790,-153.6545,-214.8312,48.8011,-111.6334,100.5163,138.7276,-3.4587,0.5956,-28.6189,-102.7836,1.8158,-112.7851,-320.0683
178.0449,163.3649,14.8168,26.1257,-121.8453,-78.7134,-183.5962,-214.0573,6.3084,-113.0822,105.3437,137.1665,-79.4257,19.3480,19.5792,-73.9205,33.7732,-139.1135,-298.6263
71.5508,-7.2582,27.7623,87.4233,-123.6565,-24.8186,-198.8977,-169.8225,-104.9624,-77.6667,30.3774,102.1649,-81.5057,23.2042,28.7753,-65.6694,56.2931,-167.7615,-253.4987
-65.6249,-136.0206,-57.9514,76.1583,-117.4629,-46.4610,-173.9024,-118.5741,-104.8314,-51.4887,-50.7858,50.7792,-40.4858,1.0469,-5.5600,-135.9022,-4.6992,-226.7083,-237.9565
-32.2146,-67.4916,-159.2877,-36.5392,-176.8330,-142.3837,-133.2243,-121.6314,0.4436,-47.9870,3.8859,53.0261,-65.5865,-46.0811,-9.2228,-157.8009,-98.1940,-276.3988,-230.2554
110.7176,139.9114,-164.8059,-122.7667,-232.3578,-213.7592,-122.3698,-140.9679,67.1831,-38.1553,140.8012,93.0476,-128.2319,-114.3238,38.4944,-72.3717,-145.8963,-283.3070,-223.9124
78.4522,192.5950,-97.6032,-80.5316,-185.9485,-191.0469,-133.4508,-111.0032,41.0599,-63.4989,129.5389,93.1830,-107.2797,-137.1518,54.1096,18.7692,-122.4938,-248.2086,-207.3011
-164.9985,7.2504,-41.8995,-27.3278,-71.6701,-112.1246,-112.3517,-68.2348,-11.7751,-143.0822,-61.9681,53.5807,-12.4884,-64.4103,3.8559,39.8012,-75.7841,-180.0294,-148.2232
-304.9004,-165.3540,-34.6342,-83.6832,-9.6171,-47.8896,-55.7031,-56.8885,-1.0237,-178.9885,-160.6506,14.4866,31.1424,14.5246,-39.5152,28.2272,-78.6200,-115.2148,-95.3355
-119.8833,-156.9175,-58.7520,-136.0799,-43.9618,-26.4381,-27.9608,-57.3149,67.7913,-141.1136,-1.4365,-18.1714,-15.7469,1.8321,-50.7649,21.8567,-111.6790,-78.9894,-114.6220
176.4546,-62.6338,-55.2947,-64.3847,-81.9721,-31.2198,-39.3018,-61.3662,62.7055,-121.7034,185.8050,-27.2205,-70.6346,-35.7385,-62.9692,-12.4564,-87.7710,-36.0776,-140.2068
210.6130,1.7011,-5.5209,22.9234,-26.9858,-19.3211,-17.0100,-53.2332,-60.5437,-133.0194,128.1983,2.0779,-64.0468,-1.6337,-26.4013,-75.7479,-17.1703,27.4848,-92.6657
-27.0623,15.7094,20.5252,5.6188,75.6101,29.8673,57.1074,3.6454,-121.6395,-105.0601,-64.4682,24.8105,-5.0768,52.9479,88.5308,-73.8355,4.5059,64.5534,-25.9503
-210.0368,-32.1085,0.2039,-43.8618,116.1474,81.9033,117.0551,67.9030,-4.7049,-33.0443,-112.2822,-1.0210,55.8697,50.4530,142.8217,22.7729,-36.2966,64.4195,7.7855
-172.0727,-133.3443,-4.4619,-49.8151,75.0234,115.1489,131.4996,88.9960,119.1519,40.9691,-2.7311,-54.0496,58.1724,42.8736,63.9326,89.7261,-64.0924,63.4933,53.1912
-46.1771,-211.7573,-4.7279,-75.3345,6.5508,160.6217,122.8552,124.3319,96.6123,63.1873,74.9098,-89.7500,-13.3468,99.5783,12.7793,53.4663,-38.0601,68.5734,119.1467
9.7113,-202.6909,-47.7874,-135.8967,-28.5870,209.5893,108.2086,183.6524,53.7364,-19.7710,39.4040,-76.8423,-60.1373,158.5176,66.7778,-1.0496,14.3533,72.7864,140.1129
-54.0998,-132.1187,-64.8342,-113.7124,20.8523,194.3013,109.3402,162.1048,115.7336,-146.9521,-55.6881,-23.5782,22.7455,124.0087,85.6214,-19.1001,41.1357,75.6778,94.5529
-181.7124,-67.2103,-2.5749,12.0530,116.5278,120.2631,134.6181,69.0374,156.5988,-181.7439,-122.7350,11.3115,149.6972,38.1259,46.9895,-38.8561,12.1988,56.0669,30.1317
-221.1560,-44.6310,36.1166,70.0823,120.6399,75.2057,127.4132,23.6779,63.0859,-123.2801,-80.2786,-4.2395,140.5681,19.8698,71.9221,-47.1496,-50.0441,11.2966,-13.8875
-109.0773,-68.1839,-25.6105,-31.1978,6.6384,69.9511,49.6209,16.5132,-36.2886,-76.2678,49.8930,-32.6364,13.4151,65.9107,110.8208,-5.3912,-101.2363,-30.9798,-46.5512
8.0171,-110.7232,-106.1440,-144.6062,-69.6787,21.9557,-27.7347,-27.0120,-26.3379,-74.3361,128.6991,-46.5013,-51.5246,59.4882,54.5015,40.3737,-121.5420,-75.2369,-92.0212
-2.3833,-113.8474,-115.9172,-147.5795,-28.9055,-83.2821,-35.3407,-78.7221,-6.9142,-101.4447,91.9349,-55.3468,-11.7033,-25.8833,1.2067,44.7480,-112.4271,-129.1419,-130.5676
-90.8129,-61.4112,-72.6900,-140.9892,17.6373,-154.2098,-14.9378,-107.7662,-46.5727,-137.9452,22.8699,-59.5659,22.3771,-92.7326,47.6547,36.9211,-93.7567,-154.8240,-121.0516
-156.3791,-30.6880,-36.0354,-203.7608,-12.3307,-134.6398,-29.5402,-134.9576,-43.6868,-136.6002,-10.4863,-70.8274,12.7184,-92.4463,83.4565,30.9836,-91.9190,-136.9105,-85.6428
-143.3639,-87.7032,-13.5322,-196.2645,-56.8390,-72.6875,-63.1852,-133.1693,18.8117,-104.0279,-21.8032,-103.1708,12.0488,-69.5969,19.4823,0.7326,-90.5856,-102.6890,-73.4350
-63.9522,-185.9627,27.9617,-36.6578,-43.3299,-36.3712,-56.6774,-88.1515,28.8380,-109.5345,-30.6077,-113.4849,34.8860,-51.7213,-60.6552,-55.2588,-56.8132,-56.1965,-63.6817
-46.6965,-229.8169,42.7507,77.5674,17.6732,-46.4668,12.6878,-73.3829,7.2419,-141.8474,-48.9191,-74.9386,60.9184,-43.3633,-56.9473,-116.1077,-27.1132,-3.5644,-27.3176
-157.2996,-163.2222,-56.3626,-22.0193,61.9955,-86.4243,89.7846,-115.6021,41.2415,-141.6682,-65.0875,-53.2569,74.0383,-69.5960,18.7305,-148.3626,-57.7220,19.4732,-3.1039
-191.6269,-5.2453,-158.3350,-185.9954,36.3851,-104.3541,87.5755,-141.8998,50.5462,-121.4458,-11.7502,-85.5042,41.8492,-104.8504,52.7364,-99.9782,-107.9433,20.5088,-3.2208
11.3521,124.0720,-56.5185,-199.3944,-24.2052,-43.8496,7.5058,-105.6258,-23.9295,-87.6875,114.7025,-104.0676,-33.7002,-69.2393,-24.8465,18.9640,-98.0546,38.5845,25.3350
195.0933,96.0451,135.2396,-92.1839,-14.9481,58.6405,-44.6671,-24.3323,-41.8886,-27.0343,169.5433,-61.4108,-66.3605,20.4708,-82.9240,98.9194,-41.4006,67.1442,86.0683
53.4262,-69.3012,124.3836,-19.7636,84.8020,91.1014,-6.6470,58.0129,47.6417,-19.2199,67.2708,-5.0372,-2.3002,46.5767,11.5614,75.2327,-14.3146,87.1160,127.6254
-225.8741,-241.9440,-27.0518,-40.1185,159.2461,34.8484,62.7329,79.7087,89.1081,-101.3384,-46.5289,-11.0535,77.4462,-20.4005,99.6304,21.6080,-42.8650,89.9878,143.7420
-241.3571,-314.1054,-61.9727,-112.6002,110.7495,-18.7929,80.8117,24.6820,41.6881,-126.4442,-8.2464,-100.4508,72.4664,-89.2155,-4.3535,16.0036,-91.6984,46.4769,149.4651
-10.7743,-229.3013,-42.2464,-165.9818,-14.7271,-39.4884,37.1500,-37.0277,38.8103,-20.5950,111.3276,-188.4707,5.2422,-100.1556,-129.7614,31.7650,-134.7310,-31.1630,123.8180
103.5388,-62.1095,-138.0294,-164.6641,-86.7534,-70.8623,-10.9168,-43.7484,114.4440,58.8263,123.8669,-172.8836,-29.6083,-72.9135,-41.4525,41.2394,-172.8354,-64.2819,66.7880
-45.6544,-25.8112,-218.3468,-171.6578,-37.3875,-101.7378,-4.9559,-12.8339,182.8974,19.4596,-5.3991,-105.3089,0.0659,-52.8135,142.5288,85.2774,-181.1999,-32.4558,24.5422
-245.5489,-155.1691,-130.2370,-231.6720,57.4086,-98.2000,38.2018,2.7166,199.4869,-12.9435,-114.8892,-107.5724,38.2531,-84.2282,179.7105,148.6176,-123.7206,-2.1058,12.8107
-247.4395,-213.5536,-11.7050,-235.2654,61.6752,-87.7114,43.6402,-31.2566,158.6656,48.8143,-56.6910,-147.4630,29.1272,-149.7335,79.7948,128.1260,-41.4669,-14.9229,-4.1775
-46.9939,-141.7980,-17.6951,-114.3796,-45.1930,-90.1714,-7.5005,-88.5152,67.9507,114.2403,97.8868,-131.8352,-14.4738,-152.7689,10.1800,18.4140,-18.7391,-66.3305,-43.7768
117.1968,-153.0527,-89.0939,-24.3621,-142.9458,-79.6009,-53.0767,-93.7083,-12.6932,80.6591,143.2842,-107.1867,-49.6528,-73.5056,29.0794,-57.8110,-50.2142,-131.9376,-71.6541
48.0413,-247.0698,-119.4218,-71.6752,-139.2662,-57.5169,-51.5386,-34.5483,-18.1076,-24.1359,43.6864,-142.7621,-64.9981,-29.6647,55.2732,-65.3270,-65.8742,-154.6200,-57.8333
-130.9753,-208.3504,-81.6859,-100.9620,-71.7654,-43.7836,-23.5793,10.0092,32.6429,-72.5645,-26.2754,-189.4063,-60.4624,-68.7121,23.8454,-78.0514,-55.9970,-114.3248,-36.3109
-170.0498,-69.1805,-12.2850,0.2895,-30.8408,-29.0547,-9.5069,5.6644,57.3350,13.2626,4.6730,-192.5936,-32.7876,-86.5294,-27.8724,-84.4222,-44.7701,-80.5414,-63.6200
-81.4010,-12.6704,-11.1267,88.8685,-69.6984,-18.2465,-49.4594,0.0538,23.6236,129.4493,20.2467,-161.2154,-27.7668,-38.2884,-57.2689,-22.7758,-23.4056,-99.9396,-130.9867
-25.5818,-19.5735,-129.7934,47.0933,-169.6302,-36.7301,-144.5099,2.4537,-12.9873,100.2757,-7.1254,-108.4465,-98.1262,-6.4588,-76.6105,50.5504,-4.8567,-131.4751,-183.4220
-29.7930,-27.4849,-238.6638,-39.1134,-235.9315,-82.3889,-215.3325,-31.5031,-33.2034,-55.8193,2.1590,-63.7803,-178.1804,-22.3275,-65.2111,50.9635,-30.4778,-131.8660,-203.5523
-100.8162,-85.5773,-194.4419,-85.0346,-198.5663,-148.6834,-196.7582,-93.1033,-100.5013,-137.8975,-7.3913,-64.9928,-158.2971,-31.6956,-7.5103,-0.6928,-88.9577,-102.7168,-202.2011
-233.9475,-154.4949,-84.8273,-111.1512,-132.8959,-221.9708,-148.8842,-117.6085,-191.4745,-78.4250,-114.2921,-89.7748,-84.9151,-22.0657,-0.7078,-67.1480,-129.1628,-73.0454,-174.0762
-235.5595,-148.0709,-92.0313,-124.8195,-152.0892,-233.0690,-162.1225,-89.1034,-209.2166,-30.7312,-198.3508,-99.2021,-87.5399,-25.9728,-88.2478,-138.5247,-127.0668,-81.1240,-130.9403
-50.9287,-130.1833,-197.4805,-109.0774,-208.4054,-150.5131,-209.5792,-63.8320,-215.5107,-71.4569,-179.5635,-97.6577,-143.9854,-47.4772,-134.5952,-154.0920,-94.9993,-119.3583,-109.0742
1.8161,-149.6215,-245.9894,-99.8465,-187.3602,-74.6227,-204.9569,-72.8376,-293.2677,-70.5598,-194.4048,-86.7225,-138.9484,-65.6203,-87.0240,-65.4874,-79.4704,-129.7721,-104.8263
-153.2480,-107.7748,-206.9646,-135.6715,-124.5505,-80.9617,-142.3394,-70.6957,-295.2457,33.3522,-255.6899,-65.5936,-81.7430,-59.4139,-74.1970,62.2479,-118.5055,-102.2369,-84.3563
-152.0010,19.6816,-147.6723,-167.6872,-112.0247,-86.4034,-85.9376,-23.7775,-169.7688,107.2899,-173.3518,-63.3624,-53.9592,-25.0801,-115.1674,135.9583,-154.4653,-80.1305,-54.5341
40.7405,108.0088,-67.3782,-111.9668,-114.0525,-10.1310,-68.3972,30.4940,-172.7940,86.9958,6.2871,-77.2571,-48.1102,8.7869,-90.5039,139.1326,-95.5172,-69.3124,-38.1870
89.0633,82.9997,33.3126,17.2761,-80.3412,85.9275,-60.6303,67.4062,-332.8701,64.4630,15.7476,-60.6194,-31.4049,26.4583,0.5607,110.1924,23.0674,-55.5761,-15.2344
26.0219,2.5217,70.2188,102.3591,-71.5220,117.2432,-33.0095,105.3869,-312.2667,47.2443,-126.9236,-7.2701,-36.8058,52.9163,58.0017,80.1553,84.6460,-50.2312,27.5779
67.4186,-20.2026,17.8247,83.2906,-112.2912,95.1333,-13.4289,117.0950,-93.1906,-39.2414,-170.7307,45.0402,-70.2950,78.9036,36.8383,24.9676,65.4742,-48.0651,43.0563
78.5708,56.0051,-48.7945,39.1430,-114.9655,65.9465,-44.6285,54.4288,-34.1849,-121.3813,-109.4309,58.0897,-70.6076,49.8832,-45.9824,-83.7794,32.2266,-30.0914,0.3568
-29.1064,108.5265,-105.5167,43.8956,-48.1463,33.3059,-96.9834,-42.8606,-155.9607,-84.8940,-118.8070,10.0512,-28.4145,-20.5761,-102.2123,-158.9895,25.9601,-5.2479,-47.6681
-62.7297,31.8460,-163.8873,51.0226,3.1857,-11.9207,-101.5568,-101.1411,-159.0224,-14.5811,-184.0559,-48.1376,-9.9084,-51.1699,-52.9782,-95.1023,25.9466,16.8813,-51.4628
-20.2308,-44.4158,-170.8784,5.6042,-17.0735,-39.3106,-63.2845,-117.8810,-30.4896,-35.2871,-172.4336,-31.5764,-36.2146,-33.4743,1.2964,17.1681,-11.8210,38.5249,-47.2354
-39.6035,13.1645,-110.2913,-32.2119,-63.6201,-16.6147,-43.5049,-116.2448,30.1594,-88.1864,-93.2475,22.2730,-52.5617,-41.0171,-45.8418,22.2087,-84.9269,49.3807,-76.1069
-46.9450,87.5541,-49.4398,30.9593,-62.4783,28.5409,-47.1381,-90.6764,31.2265,-82.2874,-39.1744,21.4043,-22.6145,-85.2911,-70.3119,-36.2060,-119.9924,53.7383,-104.2141
-2.4329,70.6223,-10.4635,154.5297,-7.1804,54.3609,-37.7970,-46.2938,78.2965,-57.5936,-24.9321,14.4145,22.9265,-89.0407,2.4487,-46.4482,-77.7796,67.2590,-95.9948
5.3978,51.6633,8.9091,172.7326,27.6901,63.7001,-28.8073,-10.9718,124.1166,-64.0695,-10.3160,67.9758,36.0087,-34.1614,7.1686,-38.5068,-29.6325,59.3462,-74.1889
33.9758,61.9871,-28.7090,29.2673,-2.5961,48.1312,-50.0861,-10.4477,81.0019,-71.0182,15.2695,91.4375,9.6858,-20.1579,-93.5347,-44.6934,-41.1563,-2.3826,-56.3327
102.9709,28.2793,-81.0882,-103.9169,-51.0919,-19.2562,-78.7563,-52.4808,-16.7686,-48.8274,29.8648,24.9916,-28.6566,-98.6018,-134.9426,-11.9897,-73.1106,-81.6224,-31.5442
74.8308,-8.0118,-63.4886,-83.9215,-84.9027,-82.9856,-83.6601,-95.6822,-66.7138,-5.4623,24.9081,-31.3618,-60.4445,-162.1520,-118.1686,28.7192,-73.5798,-131.6784,-8.8299
14.5727,-6.5691,-38.4182,-15.2592,-113.1227,-63.1281,-63.4183,-80.5601,-23.5728,46.4362,12.7043,-35.6871,-73.6374,-123.8341,-127.3791,-9.1518,-52.7307,-143.0380,8.5630
56.2896,-66.7413,-74.0113,-28.5880,-85.0706,-20.1891,-5.7636,-28.4125,65.9244,89.4548,-3.3764,-66.3790,-42.5608,-76.9251,-64.9472,-64.3578,-27.3070,-118.3924,52.7143
71.6261,-164.9388,-71.2976,-77.1585,25.9934,-70.1032,83.0665,-18.7673,133.1062,108.0195,-7.4352,-117.7222,23.9735,-120.2968,86.4153,-16.2038,0.1569,-86.7189,117.0776
31.9092,-132.8001,-12.0892,-107.9673,93.3238,-184.8040,121.6298,-62.8146,149.3255,106.6563,44.6177,-109.3374,54.2322,-180.2535,128.6983,90.9543,4.1066,-80.6919,142.9288
82.0621,-32.9662,-38.2561,-135.6211,31.0983,-240.1602,66.1249,-87.4844,130.6483,89.9764,123.7300,-65.5550,12.0105,-154.0781,36.2672,124.5348,-33.8429,-62.7214,126.5489
61.7971,-71.3715,-124.3457,-107.4982,-43.4441,-177.2182,15.7661,-28.3948,130.4184,60.7471,104.4446,-72.0791,-39.1029,-64.5694,2.5739,79.5668,-72.4808,14.7049,126.2531
-166.1742,-166.6874,-113.9863,-11.7076,-37.4162,-40.6743,50.3942,87.9448,158.4829,51.3603,-25.6256,-120.4952,-35.4267,16.7660,63.3553,53.1524,-61.0126,102.4654,150.1912
-241.3871,-107.7025,-47.9525,11.0318,-20.1887,53.6604,85.7699,138.7159,115.6476,89.7413,-85.4908,-130.6453,6.4294,46.3614,92.1234,64.1597,-23.7559,126.0833,149.1678
22.3709,38.2940,-34.7229,-71.2439,-35.5343,24.6918,45.4026,51.9008,-28.1117,136.9393,24.1424,-77.4312,39.6726,5.2313,44.7984,43.4270,-27.3735,90.4112,113.9485
250.3625,97.1380,-34.5313,-91.5722,-44.2512,-49.4994,8.0328,-54.6628,-101.4006,137.5683,146.5104,-21.4870,34.7253,-65.0844,-31.8629,-14.8280,-69.6296,45.2647,96.6389
214.2109,79.6895,-53.2849,-5.3036,-41.9727,-41.0718,44.2398,-37.1394,-2.4129,111.6815,100.8486,-24.6952,-9.2254,-86.1677,-69.6676,-37.7662,-71.1748,32.9010,134.5878
37.2632,30.0042,-150.1490,58.5089,-37.1195,26.1035,87.8945,48.4248,106.0395,120.0004,-65.6648,-75.5823,-50.0943,-46.0835,-40.2106,-10.2229,1.9811,62.9983,189.3025
-157.1601,-65.5794,-177.4398,67.6992,-11.1063,67.6174,68.7949,81.1020,69.4227,168.7556,-155.5247,-113.0212,-51.1926,13.3377,-27.0390,19.1498,80.5751,94.2116,191.6681
-166.8720,-119.4039,14.8023,79.3863,27.1081,106.5346,11.0901,83.1330,-52.5916,204.1095,-68.7099,-90.2846,-29.0927,72.7462,-77.9142,41.7593,99.7817,101.6953,147.7288
92.2001,-41.9451,239.7531,91.7803,69.0824,167.5028,-31.9401,106.7725,-144.3834,173.8473,96.2505,-13.1308,5.5796,114.3791,-76.7634,72.5234,96.4940,126.1460,125.9959
250.3583,65.0710,260.6866,105.0945,126.8337,187.9571,-26.0379,109.6678,-157.9497,87.9584,189.8918,44.5242,60.0290,113.5535,9.1590,97.1282,142.3425,184.9031,135.2806
139.5359,90.6707,152.3781,147.1949,165.7661,163.2265,26.2940,71.5698,-104.9811,31.2950,187.5862,8.6418,89.3226,89.7408,32.5661,96.1025,229.7034,238.3200,133.5715
133.6459,84.7551,97.4836,202.0365,174.3155,176.9454,68.1449,44.6453,-47.3521,56.3883,143.8478,-70.7061,74.5451,80.9408,-14.1725,42.7801,288.9922,277.7016,134.0485
245.9661,83.2596,129.6965,239.1438,228.3668,235.0732,59.8953,44.5453,-4.3548,83.0586,76.4731,-67.4286,105.0143,90.4483,12.2407,-59.5010,285.5418,319.2842,155.5164
107.1562,50.0166,195.1168,228.0385,316.3283,256.5631,49.5056,48.9918,67.7628,32.2324,17.3125,22.5271,199.5716,104.1683,81.2756,-98.3109,230.0015,340.9569,146.0754
-70.8918,25.9972,226.1389,145.5276,312.5589,224.0545,99.3739,73.2685,133.8485,-16.4346,39.2205,71.4156,227.8513,103.7972,72.1063,-8.6234,137.9162,334.2206,97.7385
85.6775,50.5304,179.3595,77.9624,227.2111,201.4566,201.3414,127.6004,137.8505,25.0122,123.2622,14.9370,158.0633,78.1245,33.4076,50.9804,55.0100,329.9417,92.1428
264.0689,42.3783,109.5693,115.2078,186.8600,223.8133,294.0630,162.8074,162.2272,83.5036,155.0535,-72.1732,107.2220,62.4169,44.5157,-33.2646,50.1313,322.1010,133.0440
167.9017,-19.2060,85.0890,132.8407,188.9493,254.0853,302.6082,143.8663,245.4132,74.6111,91.5185,-92.6947,99.0550,90.8641,62.4103,-84.1838,108.2426,285.6522,133.6493
45.3180,-28.5555,66.9445,19.3088,171.5233,243.4558,204.3360,116.7975,236.7091,39.1323,-3.8900,-42.2734,84.0425,118.0561,46.8644,39.2133,125.4391,242.9809,98.1254
-8.8058,3.5906,27.8736,-60.5284,165.9541,188.5050,88.6100,127.7397,85.5447,29.5579,-47.4025,-3.6421,99.1368,91.6068,4.3647,172.0252,65.3385,212.9863,91.0375
-95.9792,-45.4186,49.1198,9.9141,172.4126,112.1055,49.8704,132.0504,-38.9081,46.6090,11.4609,-29.7584,139.1341,43.8561,-47.5201,135.4792,4.4371,170.2823,82.8234
-63.0784,-138.9512,154.4512,87.7662,136.0893,35.3409,57.0132,79.8214,-47.1447,83.0423,114.2205,-70.6195,108.7562,29.7134,-48.1019,-1.8204,7.4617,111.3817,38.7711
67.8661,-137.1656,224.2295,113.8998,101.1928,-3.2781,47.7198,27.5180,-15.5524,101.9567,119.8146,-67.6467,40.0820,53.6141,9.6724,-55.1095,63.1737,66.5611,24.9463
16.5880,-58.8279,177.7576,153.7850,117.2887,18.7482,33.1113,39.3837,-0.4063,79.2297,29.7946,-47.6202,36.8523,78.8669,21.6541,52.4797,112.6508,35.7520,60.0810
-66.1217,-16.8348,87.5713,108.4767,108.4980,43.0158,17.7142,67.5066,-18.1745,71.9883,2.0007,-54.0618,50.3461,53.6634,-21.9365,168.8297,94.0136,2.6662,58.0616
90.2716,-18.0802,57.6710,-68.6137,59.8918,17.6379,-8.5840,59.3848,-74.3022,85.3018,56.9128,-73.0521,25.7792,-20.5968,-15.6131,85.3368,27.5923,-11.1155,11.9884
202.3332,-13.9171,96.3854,-129.9995,81.8590,1.5773,6.3817,48.3819,-101.1020,24.6973,66.7968,-71.1371,45.3582,-51.6865,21.5287,-89.5269,13.9195,14.9801,9.2608
58.3250,1.4722,134.6706,40.9022,150.4491,30.2884,67.0696,38.0635,-36.3595,-86.1403,35.1914,-36.6945,104.3692,9.2755,16.9399,-72.9873,64.5471,38.1578,40.4257
-23.0368,39.8436,117.0781,195.5947,110.2566,9.7193,58.2020,-18.2822,58.4868,-119.8785,47.8472,13.9922,81.9445,66.7159,31.4712,56.8639,71.8791,2.0928,19.1994
64.9849,111.6312,61.7229,161.0275,-19.8859,-93.3718,-38.9240,-77.6448,90.4516,-90.8815,51.3763,41.6178,0.3388,29.0285,69.7524,27.0091,14.6433,-67.1442,-33.9743
68.1665,142.8349,27.5950,43.0046,-75.7393,-157.6173,-72.8649,-50.6160,59.8551,-65.2162,-14.6110,30.2275,-32.7552,-50.3185,11.4282,-69.2148,-11.9568,-98.2208,-25.7035
-2.5303,51.5344,21.5043,-45.7704,-41.9694,-135.3653,10.0217,25.7372,32.3832,4.1489,-60.5830,11.3036,-37.1020,-74.7435,-90.1927,-11.9752,4.0669,-99.0601,39.2445
-25.5756,-91.1002,-13.2886,-87.9288,-27.4728,-133.3535,81.1122,36.3405,47.5908,86.7208,-34.5062,10.5194,-48.2058,-47.5857,-62.5333,72.0197,-15.4527,-134.8630,67.2473
-104.9797,-118.1244,-83.0465,-92.0508,-41.2227,-187.6069,64.3758,-30.5895,68.9013,58.9066,-20.5345,25.0568,-12.6732,-35.9901,37.5494,20.9227,-72.2651,-193.8172,18.4447
-186.2740,6.6451,-99.0321,-89.7779,-27.7588,-198.0043,18.7870,-73.5444,48.3849,-9.3614,-47.3245,49.5466,59.7814,-38.4695,46.6632,-44.2663,-99.8308,-200.6192,-49.1824
-59.1956,140.3715,-19.0730,-74.9308,-11.1639,-117.8404,-0.2747,-25.2154,14.2046,19.0458,-40.9802,65.6525,76.5430,15.6220,-10.0579,-42.4888,-81.5520,-148.8075,-63.6902
112.7856,147.1510,59.7085,-4.8981,-29.5747,-20.3831,10.6323,54.0546,-4.2816,43.9222,0.8331,52.1925,19.8676,106.2879,-46.5642,-70.7862,-61.4368,-109.2498,-21.4516
19.4719,28.3495,33.0601,59.9465,-50.4232,17.0592,43.8356,64.6648,-42.3033,-29.3674,-18.2003,29.3507,-42.2001,111.8093,-62.9730,-123.9667,-89.5723,-125.0901,26.9935
-204.5299,-107.3357,-78.8559,16.6892,-58.8897,-12.1240,79.3798,26.9254,-89.8077,-48.7347,-125.3820,25.1085,-56.5445,29.9053,-47.0420,-87.9226,-163.6419,-168.6937,51.0046
-205.9301,-116.7738,-178.1074,-98.0766,-89.7085,-56.4829,91.7383,48.4384,-93.5103,60.1485,-208.1637,27.9282,-33.5475,-5.8927,4.1069,38.3016,-201.3200,-186.8239,66.5263
30.7072,38.1124,-183.3600,-175.9578,-121.4290,-56.4520,80.0898,145.0586,-89.1364,137.2077,-174.0385,25.8543,-28.2982,25.2917,31.7037,130.9344,-142.0768,-166.2071,96.7652
195.0580,174.3245,-103.8591,-168.2112,-98.1896,-10.2120,68.1435,229.3058,-122.1407,116.0729,-105.3136,21.3075,-46.4346,34.3158,41.8436,82.0962,-61.7814,-148.4684,136.0457
59.4262,109.6115,-61.5450,-85.2875,-57.9715,18.3594,76.4040,237.7079,-147.0317,103.5909,-131.9174,1.9000,-22.4391,21.2662,71.8928,-49.0157,-70.1492,-156.8973,152.3328
-236.5424,-27.0300,-120.1694,-20.9149,-72.1241,-11.3928,92.0438,169.0172,-150.4491,126.1929,-225.4178,-28.9099,35.1748,15.1476,37.7309,-53.9393,-134.5795,-148.3698,129.3310
-339.8068,-17.6437,-143.8748,-67.5519,-100.7931,-40.0933,84.7435,81.5846,-141.2912,113.0425,-278.1166,-45.4828,30.7458,-13.2902,-100.4278,110.0523,-129.9445,-83.4765,105.6086
-144.8511,56.6292,-44.3873,-117.2764,-72.7621,16.7892,62.5218,65.7532,-41.3686,59.5114,-265.4154,-53.8699,-33.4959,-26.6269,-168.6979,208.4243,-32.7379,11.9190,118.4540
96.0937,48.1424,11.8475,-21.5200,-30.7630,112.6303,50.5333,111.7157,120.3761,32.1184,-189.5485,-57.9301,-69.3487,23.3531,-47.2192,114.6604,41.0964,83.8343,116.7702
162.5261,72.8074,-71.6784,94.4287,-46.4696,109.2803,24.3384,108.9352,138.6149,78.4442,-57.9178,-20.5537,-72.2288,40.8377,108.3302,-8.1305,10.2022,103.4053,38.1798
80.1160,191.6125,-96.8716,52.4588,-77.0020,17.1157,-37.2090,55.9852,7.0567,172.2963,10.9214,45.1029,-72.0160,-22.9629,107.0232,-26.1566,-41.2765,90.3414,-52.3391
-58.2215,199.0576,44.4079,-26.2403,-37.0467,0.5101,-83.0018,53.0127,-35.9352,224.8457,-89.9687,65.5850,-34.7778,-36.8027,-18.5432,17.4252,8.2045,96.1188,-53.3013
-192.5844,63.7764,150.7328,32.3235,42.9925,76.6113,-79.2218,72.7189,54.0479,179.0464,-237.4789,38.1614,27.5093,35.7101,-107.0222,75.5917,112.3911,127.2612,-6.7660
-211.7952,28.5821,88.3142,132.9197,42.0240,77.6294,-69.1836,21.1051,105.1558,79.6775,-220.9311,16.6989,18.0846,61.7746,-94.0738,130.8953,118.8093,123.4750,-11.0664
-24.0341,112.2280,-14.3610,128.7949,-71.1404,-29.5422,-71.3714,-41.6192,82.1342,27.4219,-40.0793,-3.8685,-84.5020,10.7532,-63.8534,136.7223,8.4669,67.7427,-33.1202
219.4270,118.5453,-38.0878,66.1686,-169.9509,-93.5095,-53.8360,-11.7935,60.8474,67.8794,100.9094,-36.7452,-173.3192,-31.7277,-84.8626,71.6899,-82.3526,32.0663,7.1440
209.6481,79.3704,3.8830,38.5538,-129.4212,-52.8176,-25.3569,60.4667,41.6888,115.6395,49.9130,-34.5240,-146.2627,-29.1836,-92.9834,-35.1401,-68.9218,58.5256,68.7624
-57.9256,118.6297,72.5035,42.8450,11.0932,26.9882,-12.5474,77.9684,25.9844,67.5323,-97.5916,16.5030,-22.2926,27.6275,-35.7676,-129.2353,-8.6205,100.0709,79.6410
-209.9117,148.1118,102.4273,58.3914,112.1517,109.9320,8.6873,41.3137,48.8139,6.2704,-109.5363,56.3146,77.7553,107.9791,15.8603,-147.6903,14.8048,112.2460,74.7171
-86.5073,117.5211,29.4869,107.1247,109.3952,163.1060,49.2659,-2.0711,87.1131,62.8289,32.4542,50.6610,79.6697,110.9275,25.8818,-92.2099,-1.5839,112.2087,100.0106
39.2274,137.5742,-77.9699,188.3538,61.2194,134.0568,61.8187,-17.4372,97.7922,113.5334,88.5401,26.1624,48.7546,47.3650,46.0916,-34.5675,-10.3680,130.4953,111.1720
9.5452,168.6710,-83.8105,229.2908,56.3806,72.2381,25.7202,12.5120,63.4021,-7.6664,-34.3525,20.8577,56.8639,46.8780,47.8553,-4.9870,0.4844,157.4497,79.8659
-31.9236,91.2961,6.8237,167.0609,108.4076,72.9817,-14.1885,62.2423,-22.7083,-142.7769,-139.0043,51.0444,60.3657,93.8851,-22.9223,-4.3124,-0.3490,157.5627,63.2341
-43.7251,25.9672,59.9397,62.2920,145.6546,105.7597,-11.9701,77.7393,-98.3635,-101.4486,-81.8356,81.6814,22.8526,79.2309,-72.0193,-62.8622,-20.3106,129.3540,87.9038
-71.0256,106.5274,29.7600,30.5338,122.0534,92.9261,35.7873,31.4283,-74.1691,-28.5248,51.5826,46.9326,6.6128,33.8047,-22.0781,-133.0112,-20.9492,116.5552,97.9007
-5.2861,190.1004,34.3562,76.1689,89.8418,52.3110,84.9770,-60.9816,9.4577,-85.3320,118.1057,-42.5590,35.5164,10.3724,20.7241,-104.0838,24.7602,134.4911,63.7811
169.7433,150.5111,156.8361,116.2382,104.3536,20.0060,75.7045,-140.9097,51.7891,-164.3112,67.9600,-80.9194,33.7275,-22.9014,-8.6960,-18.9753,86.4353,137.4484,31.0362
264.4616,94.4606,274.5895,112.9588,139.5355,-8.8688,22.4718,-135.1076,59.9810,-157.9721,0.4369,-16.2889,-17.4967,-23.1796,-10.4865,-13.7215,100.0541,96.5934,44.6820
200.8236,89.7995,237.7214,72.3006,164.3475,-11.7349,22.0048,-42.3241,77.7789,-101.1917,55.1326,62.7895,-16.7859,49.8039,59.8624,-61.9665,37.6957,43.7225,92.4850
26.5558,60.3620,111.8436,9.5583,186.6195,22.3203,99.3701,40.8217,100.5810,-29.3456,152.4746,52.6370,81.1499,65.6098,133.2255,-63.5115,-44.4480,10.4483,109.8807
-187.7688,7.7631,41.8917,-23.5923,175.8288,31.1076,141.1381,26.1727,128.6738,0.7971,96.6581,-14.8323,148.2422,-27.9067,170.4698,-53.5663,-55.4582,-8.1061,42.3247
-192.6982,30.1039,41.8271,11.6741,97.5899,-3.9761,72.8536,-62.8839,122.5835,-70.0279,-28.2661,-16.8368,66.9644,-54.0286,141.8662,-77.8548,22.8172,-19.3974,-56.9263
143.6635,137.3588,95.1686,71.8245,36.3408,-3.5554,-14.8710,-120.0057,0.7268,-158.7026,5.2419,80.0945,-56.4847,44.4698,18.0648,-65.6982,117.0548,-18.5620,-66.0665
409.4616,226.2449,198.4043,90.6829,91.8173,53.6410,-21.8469,-85.4920,-161.1633,-187.0505,130.8987,163.6222,-48.6525,90.2866,-98.0430,-4.9445,147.8521,-12.7515,14.5550
256.3315,210.7680,230.7466,52.7762,175.5995,89.6251,11.7891,-19.2416,-164.0292,-238.9216,154.9157,138.3438,44.2375,29.6493,-68.1163,-11.9557,105.5223,-18.0731,50.9766
21.7549,119.5627,118.7089,-5.1578,136.3118,87.1966,20.4737,-5.7282,-21.1119,-323.8385,108.8410,67.9334,62.3311,6.8461,45.9589,-109.5133,63.9044,-21.8985,-2.1394
43.0456,49.1854,37.8825,-9.7185,36.9117,102.1078,35.2481,-42.0722,43.6643,-304.2244,68.0602,64.3901,18.6460,60.1211,86.3678,-162.8715,104.1459,1.8463,-53.4328
103.4218,27.8740,107.6743,55.9596,42.6699,111.6139,80.5560,-84.4661,-28.5300,-190.1508,-11.4768,102.5574,28.4168,77.2157,42.0416,-123.3367,186.1093,27.7417,-65.2676
38.6891,-0.2778,149.5488,59.6609,104.4569,42.4877,92.8269,-115.4597,-75.4604,-134.3076,-91.1265,73.7246,79.5149,20.4369,-5.6863,-106.8774,163.0406,2.4920,-94.0218
10.5328,-49.0299,33.2945,-97.3263,58.9068,-65.3869,40.5401,-119.4520,-35.7037,-159.7153,-67.4164,-12.7295,85.3656,-40.9383,-27.7394,-151.4210,-6.2419,-52.1815,-151.5104
21.3682,-68.3281,-104.6745,-248.1513,-46.4779,-101.5477,-11.0986,-107.8806,-19.8106,-189.1596,3.2645,-41.3491,42.7401,-76.8131,-34.6181,-151.4007,-156.9967,-60.1129,-193.6741
-63.5650,-49.1638,-141.6042,-182.9152,-49.7439,-60.3480,-22.2075,-142.3939,-60.5586,-191.8397,-7.9869,1.2163,8.6244,-108.6476,-52.1080,-99.7087,-129.6652,-22.2065,-210.3170
-150.6500,-30.9831,-100.6439,-17.5574,21.4912,-24.1223,-36.1269,-210.4852,-78.1883,-144.6163,-83.3277,16.3728,10.2760,-116.4377,-98.1123,-94.2933,11.5144,-11.4264,-216.4807
-104.5420,-34.7883,-33.1827,-28.5051,34.8304,-30.4143,-79.0928,-203.0803,-84.7351,-26.6795,-100.3625,-9.8916,18.7446,-80.1213,-119.0186,-97.4685,78.0417,-58.6612,-210.1795
-20.1500,-68.3709,-33.1213,-222.0217,-14.5612,-72.2934,-116.5809,-117.8721,-141.4136,114.2896,-30.5375,-8.7563,-13.7351,-66.8059,-68.1691,-28.6791,7.8849,-147.9157,-194.3575
-43.2841,-122.8425,-163.7239,-367.5353,-78.7361,-142.0430,-136.6894,-87.4944,-177.1606,171.5544,2.7279,8.5061,-78.2839,-121.2999,-29.8375,7.6874,-85.5509,-251.2224,-193.0665
-145.3320,-139.3928,-276.8840,-361.6802,-167.6846,-204.0125,-182.9407,-160.3269,-134.5868,46.4850,-71.9127,-5.5451,-118.9500,-162.9843,-84.2776,-76.5960,-90.9652,-304.2981,-226.5811
-170.3238,-91.2054,-221.5344,-301.1394,-258.9692,-225.9516,-265.1692,-263.3266,-115.1002,-195.3924,-122.0351,-22.0007,-129.3524,-148.3652,-155.3129,-158.3816,-32.6850,-265.3195,-286.2246
-55.7103,-61.2496,-125.1094,-267.2882,-298.2519,-237.4234,-320.3551,-335.8203,-129.7237,-285.9854,-50.6118,-18.5572,-142.3711,-160.1983,-174.9159,-158.7596,-2.3007,-207.4623,-335.9895
55.3032,-117.3008,-129.4485,-257.6245,-300.4249,-264.0980,-316.6267,-335.1431,-47.0944,-130.0948,23.0835,-23.8803,-150.8347,-211.1037,-203.5897,-154.7173,-31.8130,-226.9713,-349.2700
34.7355,-200.1943,-138.9749,-289.6240,-289.0179,-281.1282,-298.3364,-251.6893,65.5223,-18.3834,30.3465,-26.3184,-136.4812,-213.1421,-244.5873,-146.6344,-87.7149,-302.3870,-335.0335
-36.3484,-224.8683,-102.0879,-371.4383,-236.7560,-284.8117,-270.6465,-195.2176,21.6917,-140.0327,58.6012,-2.4592,-105.9503,-188.0867,-203.1971,-90.4370,-135.4108,-348.4793,-313.7765
-59.0921,-177.7927,-125.8429,-403.5368,-165.9386,-285.8770,-194.5487,-263.1050,-100.9366,-266.3913,91.2409,15.3237,-61.0273,-223.1477,-112.0070,-68.5547,-154.0968,-335.8518,-297.5712
-55.0039,-99.6846,-171.3072,-313.3540,-143.2264,-249.5815,-135.1158,-347.9998,-146.1843,-204.5925,67.9125,5.1774,-25.3850,-271.5619,-98.6952,-120.0840,-131.4060,-291.5076,-289.0108
-31.3716,-67.2298,-91.2339,-209.9510,-147.0501,-160.7896,-174.9030,-288.6397,-164.1304,-71.2521,104.6858,-24.4495,-38.1083,-236.7856,-121.1509,-138.8841,-84.3541,-237.8917,-258.9861
-3.2150,-123.2482,35.1442,-197.4240,-107.4336,-61.5744,-195.4261,-116.2502,-144.0470,21.5341,253.0141,-67.6147,-52.4817,-129.2204,-44.4410,-91.1567,-53.3492,-160.5419,-174.5312
-55.7396,-193.7311,21.7761,-197.9648,-34.9646,21.5122,-63.4846,13.9710,10.0638,73.3409,339.4322,-71.7392,3.9618,-18.1632,75.8970,-40.1812,-58.4736,-49.7414,-81.8257
-140.9243,-194.2819,-82.9465,-141.3869,20.1968,66.8763,73.2978,27.7469,111.0215,55.9814,302.6446,3.8922,73.3283,34.3130,87.2742,1.7191,-74.8167,33.8140,-58.3221
-99.0197,-157.3645,-99.4138,-85.6295,46.4767,44.0810,37.6354,-13.7839,-41.6841,11.4007,265.8361,62.8280,70.4265,7.6869,11.5105,12.0601,-59.2491,24.5251,-72.7583
-0.5383,-131.5903,-11.8745,-56.3304,38.3043,4.0352,-42.6685,-0.7618,-198.8445,56.8510,231.0954,16.5840,42.2714,-33.8868,-34.9341,-37.6188,-19.2522,-37.4154,-33.4349
-47.1999,-96.5638,56.5575,-39.2670,-3.6837,8.4638,2.9879,77.6804,-100.5959,153.9889,143.1411,-47.8868,47.4538,-39.0485,-45.7790,-41.5334,-21.2132,-77.5878,41.3797
-162.8502,-63.7375,45.6363,-70.0605,-30.0238,-17.4818,76.3236,96.0428,59.4212,165.2595,107.7848,-41.1393,50.6894,-55.8352,-49.7075,64.1995,-80.0057,-98.8522,45.1038
-131.7505,-89.9337,11.3618,-104.6544,-7.1828,-116.4458,34.8574,-14.1681,57.6791,82.8021,185.6653,-11.4674,38.7630,-90.9099,-11.3946,108.6705,-116.3808,-117.7856,-49.7733
0.6585,-149.3345,22.9374,-30.8387,15.3461,-135.6941,-65.3331,-128.7058,-35.8335,-21.0918,219.8183,-1.5339,46.3801,-64.1186,51.9290,-6.6262,-82.3743,-104.8266,-149.4374
42.7887,-141.6731,63.7096,75.8214,-2.0443,5.7896,-107.2728,-105.0567,-127.9133,-85.3833,101.8343,12.9238,60.1713,8.0380,53.8169,-93.1761,-21.3209,-58.1310,-152.4725
-25.0617,-52.9009,56.8448,37.6229,-20.6364,132.3903,-65.3538,19.9910,-177.4111,-43.8236,-48.7537,31.3471,44.5393,23.0000,6.3666,-22.2856,13.4870,-30.6920,-68.0679
-94.4652,4.5733,-24.9985,-111.2040,-35.7172,93.0640,6.7020,101.2803,-110.6987,64.1410,-93.7873,35.6549,-2.8840,-15.0815,3.9593,75.2673,-15.4950,-61.1795,-6.3801
-110.4614,-30.9881,-119.2039,-204.4059,-106.5076,-32.7649,28.9099,67.5946,7.7194,85.5730,-67.8370,33.4009,-71.6158,-29.4673,48.5405,89.2046,-114.9054,-122.3621,-36.0388
-100.4356,-61.3707,-153.9516,-186.6341,-196.8204,-100.2733,-8.0925,-16.3703,16.5510,7.4737,-89.8529,37.0418,-125.6619,-17.9001,74.3875,60.0503,-182.9369,-132.8372,-103.8136
-115.5354,-14.1255,-142.7899,-94.6073,-197.5174,-65.0810,-27.0521,-41.9093,-50.5502,-31.5126,-185.7634,59.5854,-123.4702,-23.3859,73.9152,19.4752,-114.4031,-59.9998,-132.5499
-156.4691,16.1350,-159.0628,-8.1029,-151.7891,9.3366,-14.5030,-0.8517,-58.7082,-18.0396,-269.4169,108.3653,-104.5055,-48.0690,52.3583,-32.7895,-4.3161,5.7455,-112.8511
-191.1431,-9.4441,-208.8281,-33.1837,-190.5920,8.4226,-39.6550,0.4288,-35.2902,-62.0817,-283.3243,189.2502,-135.4733,-54.5271,-24.3048,-65.8799,-16.4092,-18.8718,-77.5274
-253.9223,58.4173,-216.5487,-152.0505,-263.2779,-112.1309,-90.2862,-105.1789,-63.9806,-171.4412,-276.2289,340.7184,-185.0909,-29.4286,-134.7833,-72.8963,-112.8328,-87.3362,-70.6333
-362.0341,244.8246,-185.9514,-222.0134,-236.3772,-257.9969,-92.1262,-247.5132,-107.5537,-252.5553,-310.0677,536.6612,-192.4082,-36.0664,-189.6603,-77.0123,-149.8398,-134.1019,-107.1447
-369.8141,300.8082,-215.0077,-194.4727,-152.3873,-293.0228,-59.7502,-300.8913,-94.2466,-246.1691,-341.7815,598.8494,-175.3257,-119.4592,-161.7821,-68.8284,-112.3235,-156.1928,-121.2384
-172.0111,93.2580,-262.5070,-124.2919,-94.0369,-165.3761,-47.5384,-209.6933,-48.0427,-166.9552,-238.8374,431.6710,-148.1245,-179.5889,-109.0257,-51.4381,-69.4066,-128.6966,-62.6063
57.7452,-163.6519,-148.1167,-21.6860,-2.1787,40.5990,-42.4551,-40.0828,-50.4826,-84.7670,44.5532,189.7527,-60.5703,-113.5897,-70.8409,-69.2774,-48.6066,-22.3359,-12.3890
128.0385,-247.0666,96.9564,110.6586,123.4024,161.4083,-12.4001,72.7300,-75.3797,-52.5581,336.9336,-7.6895,78.9451,-0.9404,-36.4051,-106.2721,-47.0588,106.6825,-39.3261
121.2514,-207.5594,201.9814,227.3426,130.1564,149.6540,38.3542,71.3041,17.9619,-43.4490,449.8546,-230.9101,151.1109,47.1447,12.7350,-82.6492,-40.4082,191.7796,-57.8108
155.9913,-188.5107,101.5978,304.4624,5.1600,143.5538,75.8913,54.6740,190.9979,-22.1855,451.4901,-472.3566,98.5183,53.8943,76.1208,4.8414,9.7024,241.0889,0.0175
172.7495,-197.9758,48.6511,324.2801,-31.3568,227.3498,58.8955,146.3698,182.0708,-0.0122,498.2408,-605.9370,50.1419,62.3036,113.7520,81.6934,86.4842,283.3283,65.4371
166.7865,-161.8899,188.8650,280.9169,141.6837,301.9662,13.4460,314.6520,-35.1308,28.4334,537.7469,-611.4966,139.3131,78.7689,68.7513,128.8654,142.2693,331.1286,102.3919
249.2367,-66.1781,375.2728,261.4247,341.1670,291.6482,22.8779,390.7199,-150.9481,69.4742,465.0253,-519.3880,263.2600,135.0048,-27.2008,174.2220,192.4434,375.2173,148.4439
362.7857,29.7815,439.8511,316.2671,320.8351,228.4985,65.5220,262.1398,-34.4275,81.8321,345.0015,-331.7373,220.9854,191.3853,-39.7233,186.1811,263.3120,366.7979,165.4755
348.8403,61.8794,357.2865,317.6098,114.9506,112.0306,37.0130,26.5013,124.5664,79.5641,253.8970,-179.2755,52.8359,128.4682,80.5030,114.3951,292.5813,287.4345,109.6579
274.0175,11.7784,191.3170,192.9949,-1.0019,-42.6833,-25.2501,-76.9446,196.4257,148.7047,167.4490,-201.5161,-13.2551,-7.1411,193.3728,4.7729,209.6272,195.3249,78.9911
281.2779,-56.6159,70.0595,89.3298,94.7583,-99.4509,7.8710,64.5602,210.2975,263.3990,66.8282,-266.0153,73.2083,-14.4982,175.5852,-38.2166,73.8908,127.5745,167.2784
289.2493,-17.8614,84.3873,92.5308,230.9976,8.0783,120.9736,280.4495,209.1800,302.2596,-78.5220,-184.6203,154.2299,123.9296,110.7555,19.1499,27.8424,73.6510,301.1897
201.0655,156.4169,147.3667,86.1339,271.1003,129.8729,220.0190,320.2388,245.9409,275.8579,-288.7661,-20.3065,155.9705,216.1500,123.2123,123.3957,112.6248,47.5962,363.6952
105.6099,302.0393,124.3685,10.6151,271.0492,119.0946,288.7728,163.8330,322.1128,283.3656,-418.6180,114.5524,142.3412,176.7517,166.0203,213.0174,199.4430,31.5077,330.8155
25.0773,273.5046,35.4849,-46.0839,247.9704,22.8155,297.2545,13.1244,359.0908,295.3831,-336.5432,241.3407,132.7130,107.6857,154.7984,252.9155,155.2862,-54.6847,240.7323
-120.8144,151.0778,-35.9890,-35.4803,148.1592,-45.1767,195.1951,12.2719,367.4931,231.7443,-213.0244,350.5190,90.3519,97.0496,143.2186,226.3663,34.4131,-190.1254,149.5424
-217.8080,72.2915,-79.2192,7.4067,33.4532,-62.2576,68.9218,94.9004,372.2349,147.1303,-255.9310,384.9549,28.9731,115.0954,169.0281,149.1929,-1.2083,-242.8267,93.9358
-102.4174,34.2159,-91.9962,44.0980,-18.9553,-70.4305,26.0451,108.8554,233.4648,126.5394,-351.3356,353.9070,-21.1297,90.5885,125.9263,71.8223,75.5238,-191.9317,50.7836
77.9421,9.9516,-60.9364,42.6218,-67.2627,-95.0201,-11.5415,5.4982,-44.8052,124.2796,-291.6714,254.1333,-76.0468,15.2877,-15.3668,34.1097,136.3229,-145.8484,-5.4370
94.8739,32.1045,-18.1665,8.2351,-139.1933,-130.3791,-131.7547,-131.0130,-149.9176,63.8601,-106.5229,92.5077,-136.1695,-43.1939,-93.3388,27.1939,106.3921,-148.3246,-45.5631
8.4533,76.2381,17.2158,12.2810,-159.3425,-165.2782,-233.1751,-200.8022,2.0426,-15.1780,33.5245,24.7849,-156.8999,-35.3135,-37.9915,15.1499,55.6896,-147.5205,-51.0287
-18.9986,79.2682,71.6382,100.2513,-131.1425,-187.1788,-218.2732,-174.2531,94.3237,-16.6841,49.6790,141.2869,-137.3784,10.2655,4.9918,-2.2245,73.1399,-106.2951,-43.7937
18.3703,49.7950,132.5312,215.5564,-118.7138,-169.5468,-142.4758,-71.1859,3.5697,64.2626,27.4553,237.5566,-123.4386,47.6980,-33.9200,24.6315,140.8156,-38.7816,-25.8365
60.2596,6.0011,149.0769,260.9987,-85.7970,-91.8173,-50.7348,61.8073,-52.2766,112.9748,89.2053,135.6652,-94.2762,63.1893,-35.4107,99.4204,155.2652,18.0302,9.1245
69.2624,-58.7405,99.8376,197.0397,20.9716,28.6314,76.2160,142.9030,24.0749,33.5744,183.7937,-16.3679,4.4415,51.4063,50.0072,134.0646,57.6963,42.9888,39.7875
36.0186,-89.0746,-4.5471,79.5708,139.5080,145.2615,187.9496,119.2854,127.7527,-104.3096,158.0811,-33.4361,112.3546,29.8193,131.5398,104.3810,-69.6945,47.7393,64.5193
19.0337,-38.3351,-97.6089,14.5558,183.9394,214.6928,208.3520,53.9920,169.0182,-147.0212,46.0677,33.2451,130.7020,57.3667,170.6802,115.6614,-86.0724,46.9260,97.0852
48.8909,24.0056,-60.6406,66.9665,171.7686,233.4280,176.9341,57.0106,94.5927,-84.3913,23.4973,70.1735,119.0573,147.1659,181.3733,163.1919,30.9343,66.4833,108.0359
50.3807,37.5519,125.8046,210.6645,193.1392,252.1291,175.7027,130.1309,-52.9478,-54.7510,132.3030,50.3505,189.2785,206.9336,123.9636,86.6987,171.6120,164.5090,80.7992
29.0759,34.2835,313.6177,339.3546,264.4875,301.4351,187.0444,173.0206,-112.1605,-116.4606,283.3668,-24.4164,268.7074,161.4073,8.1299,-71.4925,241.8431,327.5592,70.1490
104.0137,19.5018,346.0436,340.5499,258.7210,313.1818,141.2453,130.7190,-49.9774,-173.8681,373.0035,-104.5748,210.7559,71.9557,-57.2088,-72.1530,231.6637,420.5812,111.9938
232.2273,-25.6981,204.4887,228.0579,98.4089,210.1846,37.8381,49.8458,5.5542,-143.7549,304.7693,-99.5073,49.5379,36.2874,-45.6596,38.7731,177.8788,376.4661,165.8251
239.3976,-40.2310,32.7634,143.4903,-53.9346,53.1581,-56.2334,8.4871,23.1934,-63.9755,125.6003,-31.5300,-62.6609,43.9911,-40.7500,6.5838,146.4213,306.4757,186.0426
137.7872,17.5657,31.3261,147.6706,-22.7373,-18.2871,-93.4237,45.1612,33.5262,-12.2941,49.5571,-21.9157,-63.9906,31.6218,-50.9952,-83.3562,184.6772,314.0070,160.3187
69.6795,56.3643,183.6528,148.3740,89.0581,19.8781,-78.4883,120.7066,3.2447,17.7003,135.9550,-86.6137,0.0708,-5.7249,-19.5509,8.3072,230.1264,345.9041,101.0499
49.4667,-1.7757,207.6674,98.8665,88.0381,50.2906,-23.6876,140.5882,0.4046,106.6715,187.1323,-131.0895,55.6807,-42.0833,27.0598,131.4076,170.7511,293.8641,55.7391
18.3686,-85.3468,-9.4930,60.6937,-11.5852,5.0693,64.6722,81.6099,137.8091,253.2098,86.0751,-118.0863,49.8500,-59.1238,31.4547,61.3996,18.5222,136.3672,60.4850
-35.2896,-102.9371,-209.5846,29.1622,-83.4138,-22.6716,138.5504,53.7800,276.4985,326.4070,-54.6326,-92.7724,4.3546,-25.9195,14.0024,-28.3714,-113.9572,-40.4860,79.6133
-109.3114,-89.5888,-210.9776,-84.7304,-85.9476,46.4181,128.9278,123.7888,219.5446,268.7695,-91.8359,-107.9473,-12.5496,35.4443,4.3387,26.1918,-185.6730,-131.2018,59.2449
-156.8747,-118.8727,-155.3116,-267.9767,-54.4762,98.6529,39.5235,167.3230,69.9251,187.4437,-2.8013,-178.3848,-2.8210,15.2070,-20.7120,50.9816,-225.0881,-132.3714,-6.5941
-100.4648,-157.1707,-151.7827,-360.4290,-51.8217,1.1179,-62.1566,53.9343,3.5620,129.3708,94.2862,-225.4153,-32.3101,-103.9492,-72.5663,-31.6688,-219.6273,-136.0053,-98.4846
9.1042,-128.7607,-122.8658,-258.8766,-130.7542,-163.8482,-140.9867,-138.3988,-22.9238,11.1265,61.5988,-138.6591,-108.5731,-173.0545,-116.2361,-62.8689,-160.1080,-191.9852,-186.7357
38.3575,-73.1191,-69.2930,-110.8128,-252.3700,-248.9089,-192.1175,-254.1639,-73.1999,-128.4853,-38.7412,10.4128,-168.8094,-134.1307,-105.4783,-39.4327,-121.9713,-260.2085,-231.4414
-20.2039,-83.9821,-87.2874,-147.0487,-303.9724,-259.0372,-194.1943,-264.6910,-87.1408,-132.0627,-31.9458,9.4918,-166.1247,-125.1423,-31.0835,-76.7056,-161.1995,-278.3113,-228.0118
-82.0218,-127.5952,-137.9932,-278.3985,-232.5162,-231.5215,-163.0222,-215.9111,-63.1186,-40.4866,53.6287,-135.7096,-103.9365,-197.3866,33.1469,-125.9307,-191.1062,-204.8261,-212.0096
-103.4083,-96.7129,-96.7510,-181.9081,-97.2773,-136.5840,-166.6246,-137.4541,-97.5241,-43.9382,61.5825,-167.9971,-27.7166,-211.4719,-6.0614,-124.2697,-98.7831,-60.8574,-197.7029
-66.6547,-9.0099,20.6231,104.4106,-0.8571,-26.1690,-198.4112,-76.6522,-201.2526,-123.0277,2.4949,-9.5337,1.9233,-112.0041,-103.8059,-115.4398,40.2331,41.6616,-168.8001
-0.0181,21.0687,74.5471,179.8141,6.5905,-10.6465,-149.5135,-58.5854,-236.9077,-106.8465,-16.7900,105.5679,-22.5063,-19.5043,-106.2450,-73.0674,22.1222,11.8545,-122.6442
0.3891,-31.9363,16.4198,-19.5263,-21.1998,-53.5505,11.3123,-17.2135,-93.4127,-15.3639,16.5785,26.3624,-31.1838,-4.7950,25.0909,33.4622,-167.2508,-90.5493,-82.2173
-81.3312,-88.6485,-44.0161,-150.3477,11.8832,-37.1407,155.0928,89.8293,99.6483,8.8213,60.1436,-109.0414,35.9794,-14.7277,168.0882,93.3560,-292.0464,-139.7681,-72.1779
-126.6344,-97.9305,-21.3875,-115.3445,113.2061,35.5256,168.4124,180.3649,96.3463,-12.8649,60.2776,-123.4977,138.8026,-2.1120,219.8865,66.6221,-223.6586,-116.2277,-84.8931
-66.0330,-85.4788,6.7996,-126.1345,169.9174,81.1915,94.4936,168.9430,-69.0674,4.3884,-24.0585,4.6153,164.0634,41.6820,173.8052,64.2243,-117.7985,-102.6168,-86.5564
8.9929,-81.3898,-59.9814,-211.0395,82.7678,56.1577,29.1108,72.1316,-134.8824,-7.7873,-128.3091,179.0193,59.3608,102.8089,64.0820,78.9856,-124.7405,-152.6619,-80.6294
-41.6534,-65.9278,-175.3404,-226.6550,-81.3398,-30.9740,-15.4774,-47.8953,-97.2806,-102.1273,-152.1011,235.6204,-74.2187,106.4707,-40.0954,4.4496,-189.1952,-229.0869,-105.8944
-200.5625,-21.6181,-213.4694,-158.3831,-145.6538,-108.7168,-74.1647,-131.4923,-163.8077,-151.4809,-100.3238,81.2269,-96.5660,-0.3639,-64.9679,-98.8492,-210.6686,-252.8850,-153.4200
-240.1132,15.8620,-109.3206,-52.0495,-62.8094,-90.3539,-139.5023,-143.7264,-284.5714,-100.6278,-16.7230,-100.2561,-27.0408,-106.6317,-32.9509,-102.9052,-152.7166,-185.2703,-178.5391
-40.3670,29.2348,82.4677,77.8794,35.2882,-0.2830,-166.1669,-122.8574,-279.1696,-100.8580,45.0901,-7.3254,7.6929,-56.1891,-31.7317,-45.6411,-8.2350,-59.8151,-175.0179
149.5191,62.6042,190.2455,149.9280,73.7703,57.8440,-120.0230,-127.6283,-230.9501,-197.7848,-37.9478,329.1851,-0.6795,97.7276,-67.6787,-29.2379,142.7128,52.8449,-143.4894
82.7322,111.6535,90.9675,105.2296,113.4217,53.5189,-6.1728,-132.4360,-258.6816,-228.0849,-262.3741,533.3331,35.3124,148.6868,-72.0523,-61.6230,153.3315,103.0347,-64.2637
-91.9632,104.0411,-88.7161,37.6807,157.6558,40.6143,121.9636,-76.1436,-239.6023,-147.3977,-383.3003,404.0192,95.9613,46.4123,-22.3138,-93.6242,18.6130,97.4794,31.4152
-155.9456,50.7280,-131.3874,35.5784,132.1236,75.4804,202.6518,33.5451,-104.4930,-86.9951,-284.2971,178.0017,92.9496,-31.5293,55.9976,-66.9187,-94.4157,80.8007,79.5269
-147.8905,41.2150,-49.6280,51.4035,55.6948,162.0655,233.3694,131.7094,11.0677,-80.5844,-179.2191,161.7383,42.7207,46.2780,128.2443,35.3512,-62.5190,78.9539,85.9265
-113.1994,82.8240,0.1131,32.2354,20.3226,215.6668,254.5405,147.1191,38.8419,-81.6990,-233.8000,314.6779,18.5755,171.0916,123.8655,111.8718,85.8066,81.9881,95.8374
3.0684,113.8869,7.1408,17.7760,60.8008,158.0351,271.5210,63.3843,15.2654,-113.8590,-321.2178,366.7522,33.9419,166.8885,17.7454,55.2651,234.0797,83.0777,108.5309
139.9408,102.9806,47.8589,55.1162,146.0627,70.0053,253.7853,-18.0192,-54.2727,-155.0148,-268.7996,231.0456,80.4745,51.9866,-55.5214,-64.7496,269.7774,88.2281,104.2125
184.7490,41.9788,92.0145,100.3570,197.1211,73.1474,193.0467,8.8296,-107.3163,-132.9930,-93.8786,89.7626,144.9089,-7.7543,21.2881,-108.1901,186.9312,85.0077,82.9328
121.2287,-16.6156,88.5768,69.2506,139.4552,111.0605,106.3291,72.1386,-64.8668,-113.7569,41.6047,98.1423,162.9265,53.6326,122.0106,-69.8965,105.1526,56.2248,52.2459
-32.9039,34.9825,81.5940,-9.3539,20.2515,65.8976,8.1063,38.3737,-39.7036,-172.5696,26.7476,199.8997,93.2371,139.6959,77.8934,-10.2260,127.0832,17.5667,28.9574
-161.7723,148.9721,90.4807,-26.7177,-54.2779,-36.5250,-82.0276,-52.1641,-162.0633,-198.7517,-63.2061,239.0341,-8.9940,135.1930,-38.4184,56.7949,217.1796,-4.0340,20.5853
-85.3663,130.3665,47.7940,-21.2863,-91.5230,-119.6822,-132.4397,-79.4368,-292.0702,-117.2686,-102.8626,128.1932,-83.8475,16.9863,-79.7731,78.6636,248.0847,-12.6504,1.1455
93.3233,-19.9474,-45.5265,-117.4075,-140.0294,-165.8173,-122.8026,-53.0193,-238.2793,-23.1328,-100.4625,-47.3108,-125.8340,-122.7552,-62.7505,-2.8838,143.7269,-36.1808,-33.6344
104.8517,-105.9893,-87.3904,-219.9848,-157.5887,-144.8345,-64.9446,-38.8049,-71.0457,49.0977,-84.7609,-74.3378,-122.2698,-142.7483,-44.0497,-77.1043,-10.9232,-85.1250,-36.2475
8.1160,-84.3216,-61.9100,-125.0325,-113.7089,-42.3971,4.6696,-26.8899,21.0525,129.5541,-21.9088,98.0039,-63.3268,-29.6072,-9.0591,-6.2640,-55.4968,-126.8948,11.8190
-7.9376,-42.1667,-58.1755,102.1461,-50.7437,57.4005,64.5712,2.5463,-4.2795,148.9798,21.8185,220.5339,6.6316,57.6348,29.0091,98.2420,18.8738,-114.4260,64.9804
-33.6221,14.5831,-76.5749,210.1800,13.3205,85.8498,130.6438,27.5937,-37.7811,91.9453,-41.9137,123.5223,48.1537,30.0915,51.4199,58.1819,66.1094,-51.4884,83.2299
-112.3429,54.9880,-44.1592,109.9097,69.9219,79.0816,206.2562,47.1677,24.2513,64.7039,-90.3479,0.9864,76.8717,1.2587,96.1703,-56.5001,14.3938,-4.1194,73.4704
-66.5094,-2.9991,-3.6810,-97.4224,76.6766,61.6496,240.5485,73.1512,137.8686,55.1652,-9.5870,48.8299,103.8449,55.2356,129.1214,-90.0574,-81.7008,-24.9183,66.4314
42.1621,-82.1009,-46.5909,-248.6992,40.4103,8.0264,189.7683,73.8962,165.6227,-2.9415,50.6685,145.0609,101.7329,95.0618,55.6635,-51.4889,-159.1959,-91.2278,74.2697
-16.3679,-54.2212,-108.6478,-191.3802,9.5597,-49.1786,87.5630,24.6405,97.8858,-1.5078,-11.3303,132.6772,53.8047,45.0484,-59.8030,-2.1988,-155.3719,-135.5522,70.8197
-128.0667,14.3267,-45.1223,51.5679,-12.0968,-45.1480,10.8689,-29.2581,60.7633,115.3160,-34.2529,69.4860,-8.4104,-9.8501,-67.1472,46.4037,-33.0320,-117.2757,43.7728
-62.5579,20.0019,132.8338,228.0505,-19.0058,-10.3114,3.9266,-39.2931,97.9581,176.9815,63.1484,45.1865,-32.4777,10.4119,13.0738,72.2708,101.8677,-62.8544,29.6407
82.3353,-8.3454,225.4905,140.7595,11.9609,-30.2221,48.4593,-27.9907,156.0330,123.6435,120.3996,51.2724,-12.9732,56.0702,71.1751,79.5249,86.3717,-36.9075,41.5142
123.2272,-43.1952,76.4798,-106.1154,39.2062,-90.9908,86.7355,-23.9968,210.2815,105.2773,34.8132,61.2870,-0.8453,65.5081,85.7271,78.2079,-64.9143,-58.7347,49.9669
58.8909,-71.9350,-169.5711,-226.6466,27.0311,-80.7314,83.8305,3.1276,218.7509,145.2116,-91.2049,50.6274,-12.6421,62.4162,48.2037,-0.9526,-173.7627,-75.2341,65.6536
-61.5836,-28.2395,-200.2136,-75.2942,35.7002,29.1241,61.8296,59.6612,132.0017,147.9130,-113.0758,9.7752,-4.9970,62.7199,-40.5110,-115.7685,-128.1073,-48.6906,109.1629
-157.8103,55.8591,-8.7632,159.3596,90.7404,108.7534,50.0411,78.8056,46.1081,153.5269,-9.2104,-13.2925,22.9865,18.9409,-67.1588,-51.1117,3.1163,-19.4649,130.8003
-111.6316,50.7341,92.1422,174.4781,115.1812,56.7004,40.5401,38.8674,84.5306,208.3079,83.8592,2.3347,17.5851,-52.5354,26.5088,156.0447,70.0040,-29.3070,95.7277
29.8611,-18.1637,7.6384,-19.4651,69.9847,-48.1751,17.9904,-3.3642,150.9606,203.4939,40.9713,2.1014,-25.3195,-47.4990,96.2875,187.3931,20.6878,-48.7496,47.3521
76.8292,-21.9605,-70.3723,-144.9871,1.3189,-87.9456,-10.5126,-37.6055,100.2854,93.0280,-52.8037,-32.7108,-61.5935,20.9014,53.0500,34.5763,-62.2225,-42.6702,7.4705
-20.6599,29.3035,-93.5738,-97.4645,-32.8890,-60.6406,-21.5179,-79.7976,24.2889,-7.6566,-54.0356,-66.6291,-66.0708,13.5168,14.3280,-15.0574,-93.6104,-22.5010,-36.6458
-125.9765,68.4452,-111.4707,20.0546,5.6653,-7.0235,3.4190,-67.6257,68.5281,-45.7981,-15.4391,-78.2660,-22.1944,-57.5675,36.7126,29.4785,-45.0092,13.1787,-59.1104
-124.5222,95.7387,-31.7405,146.9390,79.6675,45.0288,34.9595,13.4008,157.2144,-68.7232,-49.4407,-42.4682,52.0044,-42.7318,20.0416,-23.3489,76.1429,70.4610,-50.8365
-44.6140,90.7373,111.4850,201.3770,67.7766,40.6600,4.2729,36.5335,145.2335,-51.4554,-103.5190,29.4000,55.9147,36.4341,-46.0184,-78.9535,168.4895,81.4304,-55.2770
25.5177,38.0455,86.9236,60.1570,-67.2712,-25.1179,-92.8099,-39.1343,39.5455,41.6643,-82.8491,33.5107,-69.1437,37.3626,-54.8212,12.1272,90.5232,-16.7352,-81.1916
64.3669,1.9641,-92.3785,-173.9157,-204.8474,-72.5559,-171.9413,-79.8037,-76.2202,106.9522,-16.8495,-58.3746,-214.4471,-22.1321,-3.0050,136.6640,-116.0720,-152.4783,-108.0396
77.4708,19.7539,-189.7025,-257.5807,-233.7542,-95.1513,-184.2086,-41.1031,-143.6908,56.6843,24.1692,-102.5761,-238.7388,-46.8118,10.2168,162.9643,-250.5898,-217.6359,-139.4590
17.4460,59.5976,-161.5618,-181.7198,-156.0528,-151.9067,-154.7425,-26.4724,-112.5063,-6.8375,24.6278,-31.0916,-143.8212,-48.5339,-40.1510,100.1323,-222.7267,-213.1518,-147.4064
-92.9463,87.7345,-89.1896,-94.9891,-42.5780,-182.9065,-99.5976,-52.5187,3.1501,13.2808,-8.1941,28.9656,-36.7002,-44.3191,-89.3615,-8.5558,-99.0626,-184.9945,-94.8731
-104.7794,73.5460,7.2723,-33.1817,1.2275,-112.7335,-38.9474,-48.5867,73.3149,28.2842,-52.9664,-3.6998,-6.7799,-15.8672,-91.1353,-64.5860,20.5014,-151.7199,-44.6913
9.0828,35.6887,27.1743,-16.0859,-82.7520,-46.3867,-36.6884,-28.0541,5.4737,-28.8097,-53.4370,-73.0065,-58.0058,-20.3899,-58.9434,-4.6892,22.8307,-149.5878,-74.3828
71.3034,28.7960,-117.3518,-114.8327,-213.8858,-85.0635,-97.3150,-41.0371,-110.5229,-65.4718,22.3996,-148.0823,-116.0294,-99.3545,-28.4270,31.0557,-138.0008,-194.6045,-140.5706
1.8304,5.3023,-261.2934,-243.4903,-268.7649,-139.5740,-130.0248,-77.5951,-135.0015,-54.0217,119.7123,-210.7176,-124.2751,-162.5356,-13.6448,-54.8063,-311.3712,-218.9973,-172.8266
-67.3083,-64.1615,-212.5382,-202.4255,-224.3892,-126.7893,-113.1355,-122.0797,-81.3160,-96.5752,158.8698,-177.9052,-101.8565,-134.8295,-13.0678,-110.5329,-297.1148,-170.3833,-182.6713
-36.0664,-25.9737,-29.6809,5.0484,-137.0095,-98.1018,-136.5112,-168.3832,-59.3995,-180.7576,135.2474,-64.2654,-74.6032,-70.1728,-30.6961,-64.9533,-107.4012,-87.5354,-200.5766
72.8816,160.1599,119.0675,168.8731,-74.5017,-86.6791,-208.9359,-181.8416,-79.7920,-186.9386,109.4608,-24.9201,-46.3116,-49.3011,-45.9533,-67.5863,74.5365,-10.9676,-221.6484
221.0376,275.2873,130.1848,166.1138,-72.0319,-69.0211,-215.8994,-146.2722,-70.8244,-133.1625,129.5056,-84.5509,-39.5478,-82.6825,-21.3286,-145.1299,126.2198,54.6577,-222.7661
313.3867,245.1823,25.1826,63.7768,-75.5670,-48.3345,-128.6094,-94.3166,-45.9004,-122.9320,184.7611,-93.8340,-42.9689,-108.2231,12.9253,-160.1560,72.3575,88.2896,-184.6064
209.1877,218.9863,-14.4807,-8.0492,-12.1316,-16.8278,-57.6805,-61.8607,-52.9303,-148.0606,208.3735,-6.2146,9.4056,-66.8813,-6.8265,-101.4828,16.3329,89.6944,-134.7909
-8.1700,220.1790,129.3647,39.2113,67.6405,48.5758,-52.9794,-65.9236,-21.7392,-164.5151,156.3227,89.3036,93.5489,0.4044,-44.8327,-67.3606,39.8019,107.3231,-126.7016
-20.3199,202.9482,289.3730,190.6481,65.3477,105.9048,-44.4663,-94.6619,90.2872,-198.4135,102.3792,144.8161,85.7791,21.4585,-30.1704,-79.4787,134.0773,148.5441,-138.1137
261.3100,255.8813,277.2192,309.3529,3.5764,104.1729,-11.6178,-108.6375,138.1169,-241.7589,152.4319,139.8582,-16.0517,14.0412,-0.0974,-89.9689,221.4295,171.9574,-107.4292
517.5665,399.7389,169.9248,277.0514,-29.4038,64.7139,-12.0313,-96.1024,52.3521,-221.3547,254.9064,63.9743,-63.9664,-3.2786,6.2199,-55.5224,236.8593,180.9590,-58.3932
479.4500,466.9709,118.1679,147.9167,-11.7081,12.4825,-32.9576,-77.1692,8.2843,-127.4859,253.8026,1.7640,-1.2157,-63.3004,43.5049,4.6817,176.8473,196.4145,-39.9623
254.4252,344.1049,137.1159,57.6747,20.0206,-43.5226,-18.5890,-49.4291,68.2726,-39.2395,141.0565,24.5476,66.8408,-101.0278,84.7230,11.9913,97.9341,185.3875,-22.7493
83.5678,141.5112,177.0176,48.9598,11.0545,-48.7133,-17.4079,-20.0150,45.6192,-27.1829,73.7925,73.3206,50.5157,-13.6814,13.6097,-32.3333,71.1594,131.4028,12.6691
58.3861,80.4224,180.6885,81.4257,-67.9155,18.3771,-100.2878,-25.4813,-85.1284,-90.7072,117.6803,100.1992,-32.0282,108.3142,-105.0387,-37.9758,100.0645,88.4145,18.4497
135.4484,224.3893,119.6212,104.6983,-144.6239,69.2630,-200.5704,-39.8520,-133.3747,-143.4898,161.7686,118.6047,-111.6163,100.7975,-90.7462,1.0126,112.1445,88.7309,-8.9727
213.0728,377.6123,64.0494,66.1817,-120.0874,35.9248,-217.7135,-0.9363,-95.1692,-73.7306,124.3287,95.3160,-126.9716,-11.1116,12.1606,42.8648,67.0537,94.7149,-13.1448
188.8142,355.6946,72.4269,-34.1191,-43.8123,-33.9126,-174.6927,57.2184,-99.8858,100.6237,51.0222,29.0087,-81.1144,-92.5875,24.7464,105.3968,-2.4414,70.0882,8.7667
74.1992,194.4544,58.0416,-104.0618,-33.9697,-70.8345,-128.7390,78.1831,-88.9431,198.9297,-23.9034,6.2416,-50.3350,-82.3129,-42.7722,127.2502,-76.5547,26.2390,25.9883
-12.3259,21.4279,-72.8922,-85.5176,-58.8431,-57.8102,-60.3223,103.7062,4.6752,109.8771,-117.0385,37.8558,-70.8341,-9.0880,-76.0169,10.3877,-159.8513,4.2271,72.3054
-42.4435,-34.8231,-265.9745,-60.8221,-22.0168,-22.5710,39.7576,148.2868,40.0088,-28.6971,-197.7934,57.3819,-86.7507,27.2156,-64.4251,-106.1506,-224.4437,24.3648,174.6400
-101.2152,99.5204,-383.0443,-117.3638,16.6662,-19.6871,99.6281,132.9124,-56.6242,-19.7821,-226.2942,65.2167,-79.5000,-39.1279,-25.4004,-33.7444,-249.8082,45.7064,239.4134
-177.3248,246.8399,-334.9268,-185.3946,-59.1726,-63.8505,57.3666,59.0430,-154.6945,115.6662,-235.8697,59.8411,-111.8888,-107.1054,27.0446,94.5206,-260.3698,21.6961,164.6364
-168.7974,142.7259,-180.3678,-143.6902,-198.7499,-97.6625,-57.1782,26.0673,-186.0659,207.0010,-255.3049,-6.0106,-181.6357,-65.5105,8.9300,75.4468,-263.9159,-19.8433,16.2717
-95.4667,-111.2120,-86.6507,-30.1488,-264.9134,-85.9077,-160.9702,55.7530,-197.7139,185.5312,-260.0087,-85.8694,-200.3115,8.2474,-88.6368,-4.9469,-245.6673,-24.6111,-55.2928
-63.1261,-189.5214,-113.5072,6.2841,-238.3675,-56.1995,-197.9709,101.1024,-173.8571,123.0685,-245.9006,-91.8209,-152.0266,10.9081,-123.3780,0.7765,-219.3806,8.2150,-22.6566
-82.5151,-24.1510,-167.5564,-54.5485,-195.3401,-25.8555,-181.8800,142.5871,-98.8758,99.5627,-218.8786,-45.4006,-107.2738,-19.8404,-64.0300,57.0780,-187.7392,50.6662,24.5237
-108.2837,219.2164,-193.6804,-80.9445,-180.5031,0.8134,-175.4620,144.1149,-79.8517,118.7267,-160.4439,9.6426,-89.6865,-24.9168,-51.6367,81.2608,-120.8663,80.7483,18.8355
-127.8810,351.2721,-177.1226,-10.1574,-177.6170,10.5359,-205.9008,77.0177,-187.5405,108.9336,-105.5059,61.6039,-64.3961,7.8386,-93.1709,35.1619,-39.0392,80.8798,-42.8450
-119.2868,229.2319,-69.5169,81.0224,-135.1697,32.6395,-203.0942,18.0191,-290.7495,24.6010,-117.1325,54.2132,-17.1329,77.4168,-42.2846,-62.9109,0.2396,63.2483,-104.4720
-59.5075,-24.5467,44.6911,124.3392,-31.8201,94.7030,-86.5577,37.9346,-229.3936,-51.3158,-154.8016,-3.3215,33.1114,123.4070,92.8399,-86.8602,4.4582,53.3017,-85.6059
16.3265,-66.9332,-11.0588,116.3939,60.9787,127.5780,88.8379,68.7120,-75.8437,-21.2942,-151.2050,7.3201,62.4475,89.6639,158.5590,21.0825,9.9702,37.3463,-3.5772
36.8659,152.2184,-161.9940,65.0559,77.0534,77.1755,189.0258,43.4432,-8.7166,57.7060,-150.7079,72.2097,76.2444,49.5529,124.7164,87.4505,5.8667,10.6134,32.8976
-43.2050,340.6124,-179.5404,20.1440,80.4125,32.1106,195.9461,21.6112,7.4106,65.0257,-190.7006,81.0799,111.1994,77.7016,83.8413,-0.8081,-3.3646,13.5014,19.2018
-172.7948,330.9400,-81.2920,62.4386,137.8308,73.6714,183.2482,54.1618,89.9178,-25.6679,-208.0000,123.1183,149.4257,118.6641,69.4481,-78.5053,26.5948,33.1288,53.4202
-235.1631,143.8898,-29.0771,141.8539,165.8412,119.1807,142.7432,76.3318,106.1236,-165.4201,-201.9632,324.4953,103.7798,119.4543,50.4897,-28.4613,73.5835,-10.2826,122.4146
-238.8055,-144.0844,-48.6815,81.5428,78.2525,47.8220,44.9313,8.0346,-67.2437,-273.2934,-279.2539,549.8909,-32.4279,93.6501,22.4153,10.1740,51.7869,-128.1199,125.6942
-309.2296,-329.5103,-129.3420,-140.0423,-58.5641,-122.6713,-34.8791,-139.2963,-197.5708,-301.9309,-461.8455,655.1312,-160.3545,41.1336,-5.1117,-66.3078,-42.0723,-248.2598,67.4825
-441.7129,-318.5019,-263.0764,-307.7608,-151.4280,-264.2987,-64.3450,-287.1829,-125.9292,-354.4958,-644.3730,713.8301,-241.9966,-17.6302,-56.6042,-169.4451,-110.2847,-325.6846,14.6974
-558.0947,-349.5359,-319.7970,-299.6909,-197.5649,-299.5598,-140.9629,-384.2950,-98.2471,-531.2029,-745.7578,741.9457,-306.3004,-45.9543,-153.6276,-228.4251,-101.6864,-361.4289,-32.7130
-690.6371,-531.6308,-230.3054,-268.2773,-214.5356,-286.3073,-264.7415,-441.1019,-217.2981,-671.7885,-763.1199,636.8528,-323.1916,-88.9053,-248.9890,-263.4395,-74.3277,-369.6688,-88.2692
-781.5461,-606.4921,-134.5742,-332.2793,-194.5537,-297.5873,-280.6949,-450.7365,-224.7868,-587.2855,-716.7217,477.5013,-259.9590,-162.8314,-264.9372,-258.9260,-81.6177,-372.8955,-113.7756
-670.7037,-483.8302,-112.9012,-356.7489,-132.8427,-283.5093,-144.4736,-365.7275,-106.5254,-401.5389,-626.8514,438.4225,-165.6522,-153.7117,-200.0882,-192.5150,-86.5132,-367.1191,-75.4853
-489.2850,-370.5332,-90.3057,-240.9526,-37.8567,-192.5869,18.0898,-220.2890,-124.1523,-307.5991,-514.9289,476.9485,-83.5719,-40.5188,-128.3949,-132.3694,-53.6959,-329.1862,3.3090
-477.4062,-307.5964,-67.5101,-126.2751,52.2268,-116.7792,117.1863,-131.7411,-217.6251,-269.5685,-405.4045,459.4001,-19.8291,20.9341,-95.9708,-144.9782,-29.2508,-283.6717,59.5075
-479.3153,-214.3371,-83.5533,-108.9249,91.9267,-121.5370,147.9262,-116.6596,-163.4369,-233.7235,-323.5122,396.3909,-1.3207,-19.5439,-87.7616,-195.7448,-33.5783,-262.1817,61.2700
-284.7634,-181.9447,-58.7683,-78.9495,104.9208,-105.8727,115.5765,-89.6870,-90.6388,-270.9872,-265.5967,328.6137,-19.1962,-43.2470,-76.0563,-227.8678,-2.8789,-233.3054,48.2220
-83.9621,-241.6816,42.7218,-3.2662,143.6922,-18.9105,52.4898,-54.6723,-171.8027,-379.8446,-199.3212,240.3064,-5.4444,-14.2505,-60.5365,-216.0650,70.3161,-180.5607,51.0909
-39.5415,-211.6705,121.0836,12.4930,179.1105,21.6053,11.6144,-79.3135,-226.2000,-458.7879,-119.8307,177.2200,41.5549,-7.7806,-76.1730,-143.1020,110.1659,-146.9274,47.5730
-3.2425,-35.3862,145.2949,7.1054,152.8315,-28.0045,2.1012,-119.6724,-105.0887,-443.0494,-54.9388,195.8031,48.2839,-35.9373,-131.6407,-67.3423,122.4779,-127.8803,57.1186
95.5222,103.2516,187.7081,93.0957,87.6361,-40.4275,-2.8153,-76.7979,12.4060,-308.4876,-7.8921,218.8292,-2.0217,-45.7181,-147.3503,-91.5880,176.1785,-64.0924,125.8109
172.0461,72.0639,251.2909,167.7242,49.7057,48.5079,-22.0235,42.7020,-17.9754,-95.6451,42.3127,154.1354,-53.1310,-15.3750,-71.5385,-141.3078,236.5792,34.7740,201.8340
197.0754,-65.5507,264.5043,104.4700,63.9832,143.3610,-44.0578,160.4424,-68.5822,59.6565,90.4015,56.8438,-50.5463,36.7614,-6.5779,-50.9524,232.2997,97.6540,213.0931
135.3097,-164.1706,194.3366,32.5262,100.8285,161.0327,-20.5369,223.8853,-2.9151,79.4437,110.5149,16.7542,18.3689,81.2435,-35.6374,88.0968,193.4101,99.4043,192.2774
2.9663,-139.9032,91.3026,60.9361,121.7113,130.0847,73.0259,213.3055,104.3529,32.3578,97.1602,19.0113,106.0807,102.5201,-45.1449,84.9704,159.5951,71.2748,173.7449
-44.8588,-43.8853,58.2727,42.5977,145.9095,110.8103,183.5327,155.8145,102.2832,11.8019,64.4657,17.0925,154.5668,106.5013,60.9300,39.0348,111.2892,52.7624,138.1824
2.3189,10.0664,121.2640,-91.6514,205.6466,106.8736,252.3943,129.5842,4.6033,55.5915,39.0362,9.9702,168.1363,90.3485,161.5712,90.6893,60.7616,55.9874,116.9835
16.6776,-13.1301,161.3212,-158.3505,229.2921,68.6133,270.8234,165.2678,-10.0729,133.7198,70.0769,-1.6829,164.2025,39.9101,136.9956,105.2708,31.9232,47.0422,135.3199
55.0931,-64.1365,90.9039,-92.4039,142.5263,-28.6044,232.7051,185.4780,132.6675,158.4141,170.3967,-24.9957,128.7099,-31.2335,56.5761,21.5198,-10.0479,-4.8799,113.8510
138.1810,-105.7588,-15.2705,-70.4710,37.4858,-132.2319,147.9348,117.2450,264.3936,118.9685,235.4619,-47.2567,82.0009,-80.6625,14.5460,7.0979,-65.5238,-66.8303,13.0690
71.2608,-136.8267,-67.1805,-139.1113,7.9662,-172.8766,72.0126,9.6008,219.3154,115.4999,154.0428,-75.0187,54.9911,-80.1242,6.4151,59.8399,-70.0930,-85.2068,-83.9757
-87.4730,-135.4365,-62.8210,-133.6386,-25.5396,-145.2999,16.7693,-35.8871,79.8200,156.7050,17.4144,-131.8494,15.4678,-51.1277,12.1703,47.9669,-25.8195,-51.4749,-126.6607
-50.6436,-49.3604,-10.1034,-17.8355,-105.7592,-83.9935,-72.7317,-8.6843,17.1433,145.3226,27.4674,-174.0500,-46.5128,-39.6231,18.3263,44.4732,14.7488,14.7519,-141.6866
137.9809,109.8735,77.4337,76.5661,-125.0731,0.8680,-194.9944,22.7338,7.8977,88.3640,182.1494,-130.9554,-76.6260,-30.4726,-1.9995,94.7599,69.4762,90.5927,-138.9368
279.4967,225.9093,148.7536,128.0107,-56.3586,109.1898,-263.3831,37.3872,-84.2971,66.6412,282.9517,-44.5352,-66.3302,37.1880,-29.2889,63.1505,160.1035,144.1913,-120.4640
356.9663,210.2412,181.4339,198.8766,14.8932,196.9122,-206.4823,68.6203,-214.9900,81.2836,243.1812,-24.3836,-28.7865,129.1337,-18.6981,10.0902,218.5834,152.5892,-95.1637
258.3484,96.9871,174.7484,220.1215,74.8698,198.2720,-35.2862,105.0191,-198.8720,108.4438,158.7693,-80.1471,66.2789,144.2297,14.6763,110.5408,178.4117,117.2104,-43.4572
-54.2559,-34.2188,91.3834,109.0505,126.8636,114.0019,146.5648,99.7734,-22.1471,137.8916,126.3323,-131.9644,164.1686,100.4151,45.3784,220.5179,62.9751,55.6930,23.6326
-145.7818,-98.6131,-50.6369,-28.3003,114.1818,19.7226,217.1283,53.0416,142.5730,118.4963,166.7155,-134.6008,143.6971,84.0289,86.1174,146.9876,-47.3542,0.2310,34.6059
211.6008,-8.8867,-124.6082,-49.5563,57.9326,-33.9191,161.7831,-5.9893,194.2751,33.4786,240.6520,-98.2808,53.1679,71.0415,108.4813,19.9448,-76.3726,-22.8561,-32.4267
517.5231,194.4951,-60.4610,24.1063,35.7020,-61.2556,45.3000,-65.5524,145.5069,-58.6474,271.6976,-65.8430,30.4554,20.7579,67.5437,-33.0706,-22.4026,-19.1214,-117.7703
431.3971,324.8980,59.0495,93.5426,24.6820,-76.9918,-92.8224,-104.6352,23.7398,-125.8906,254.5515,-92.9603,42.1848,-1.6414,20.2445,-67.8035,23.6889,-0.7345,-170.8694
262.0179,288.9435,125.6165,103.4871,-10.3393,-79.3147,-186.1146,-97.5725,-84.5976,-154.8484,270.1591,-163.0571,9.9007,23.5392,35.9699,-63.4854,-3.8327,38.1776,-181.1480
216.1447,186.9236,116.8563,56.2250,-23.2004,-77.0675,-147.0831,-63.7172,-81.1185,-118.3646,314.6002,-182.9688,-3.7998,12.9064,46.1703,9.0638,-51.9650,100.3468,-163.2676
171.8046,140.0777,84.3107,30.8678,-13.1046,-49.5542,-54.6074,-39.8769,-40.5938,-69.2262,310.2193,-139.5935,26.2979,-34.8355,-32.5853,46.2670,-27.7248,175.7270,-147.5433
168.3738,171.6123,90.7076,102.7348,-24.9489,53.2756,-91.6431,-23.4805,-114.8096,-82.9425,292.7613,-124.7538,11.2439,-27.9797,-134.1522,37.8677,81.5740,244.2529,-134.4496
295.6541,221.2739,131.4526,199.8744,-33.1594,202.5523,-230.2309,8.4438,-254.8870,-108.0601,311.9365,-158.9357,-42.9906,48.2917,-149.4279,57.1892,185.4630,267.2694,-95.0557
388.9134,216.7819,140.6266,211.7789,-29.7302,285.3653,-259.5805,57.2687,-258.8796,-78.3246,256.7268,-171.7608,-50.3278,128.8746,-73.9987,39.7290,181.7300,222.7496,-36.2235
316.1616,190.0541,102.1127,175.9216,-79.0144,242.2877,-120.5739,88.4977,-60.9269,-34.9141,83.3267,-158.0278,-32.6847,153.7997,26.7412,-37.8139,89.8506,147.9858,4.0958
195.4142,226.6884,71.3241,156.5321,-144.4382,115.8089,44.6097,54.2667,168.7730,-1.8514,-8.3241,-168.3112,-37.2734,85.5312,88.1902,-43.5688,25.6692,97.0219,3.5025
154.4977,263.7595,76.6535,114.6497,-92.7091,-10.3622,121.0737,-27.0099,207.3761,44.2460,92.4467,-192.7075,-7.9890,-31.7865,77.6802,24.0706,23.3661,89.9992,-39.4742
173.1282,175.5203,88.1318,62.6628,59.2911,-60.0579,110.2042,-57.3725,36.4286,80.6345,194.5273,-196.8416,75.3398,-70.4266,29.9195,51.4478,19.7794,116.1043,-90.4106
189.3011,39.3933,60.3574,82.8455,132.7574,-37.1876,53.3176,-8.9854,-141.7931,105.7656,134.7605,-186.3555,110.9364,-3.9759,7.4115,57.6157,-4.7614,128.2482,-100.1854
196.4812,27.6130,-37.4196,115.4774,39.5368,-50.1937,-8.8520,10.1548,-170.2559,154.2732,2.9725,-166.0306,43.4968,29.2920,13.2451,60.4524,-35.6644,84.0470,-88.4127
183.9314,137.3555,-162.6410,44.0153,-118.8386,-153.4041,-27.4294,-58.7975,-85.4306,166.2953,-75.2392,-135.2418,-43.6816,-52.7315,13.8620,-13.3416,-89.2679,31.6206,-112.8035
79.1789,259.4290,-187.5503,-47.3139,-204.9111,-249.6215,4.4559,-120.6764,-13.7148,83.3332,-95.3724,-115.5808,-70.9380,-154.8811,-8.1842,-108.4136,-134.6674,42.0263,-164.3386
-61.2985,334.1653,-55.8986,-20.9573,-202.2582,-253.1344,-19.1056,-100.8808,-85.7763,16.8641,-74.8706,-111.1830,-73.2453,-172.0065,-80.9171,-110.7118,-99.0944,79.3499,-204.1620
24.5734,313.0051,102.1409,48.5377,-184.8829,-189.9252,-196.0123,-52.0903,-318.2325,69.2835,-15.2400,-111.1837,-115.4841,-125.1347,-200.6393,-58.9909,-10.6538,89.5571,-220.5953
340.9305,175.6659,123.0123,36.5279,-172.7564,-86.5915,-391.7766,-20.4075,-472.6302,144.7227,28.4787,-136.0082,-173.2288,-85.8261,-255.5834,1.5342,38.4093,114.0152,-184.6842
436.2453,26.9090,12.0156,-3.0338,-110.9660,38.3770,-360.2212,16.4591,-325.9701,132.0629,-18.1191,-178.5053,-160.6210,-73.0271,-162.6602,86.4172,34.5125,164.7064,-96.5688
105.5910,0.8791,-100.9063,10.9761,-3.9860,98.3339,-119.5358,44.5214,-50.1408,85.4422,-131.7264,-173.5491,-59.2590,-62.5188,-29.2977,110.5738,0.8914,157.0456,-53.8410
-217.7304,71.1657,-145.5225,18.1830,43.1813,45.2451,69.2445,14.1803,68.3985,100.4603,-188.1674,-122.7129,35.5084,-47.9295,8.7829,16.2083,-72.5151,68.0688,-110.4766
-173.5044,85.0319,-155.0682,-43.5588,-27.3199,-42.0004,84.4014,-51.2751,62.7412,159.8421,-114.6792,-115.6618,31.5323,-56.8267,-0.6450,-75.2239,-162.8705,-20.8789,-174.4918
