Fp1,Fp2,F3,F4,C3,C4,P3,P4,O1,O2,F7,F8,T7,T8,P7,P8,Fz,Cz,Pz
-14.7675,50.3606,-13.9490,53.9792,54.6744,72.7044,105.0689,109.7924,44.1125,65.3350,-23.5955,36.9305,29.2309,49.6354,10.2468,41.1404,90.0024,40.9028,18.9147
59.5939,134.2191,145.0547,102.9567,-20.1003,-63.0666,-102.9276,-230.7022,-86.3460,-270.6871,130.0892,85.6943,-58.8351,-101.3884,-0.7000,-171.3683,217.0267,119.7031,-66.6741
124.1410,167.5048,178.7468,119.9026,-44.4804,-143.3998,-213.0169,-295.9247,-153.5420,-285.7563,193.3459,108.3589,-85.2704,-143.5810,-23.4146,-256.8910,111.1295,92.2006,-98.0765
147.1004,158.6248,101.0266,91.0243,-8.0793,-126.1612,-160.5271,-164.0200,-147.1868,-149.2256,176.2774,105.2016,-59.2906,-76.5504,-19.9896,-211.1047,-7.8162,45.8613,-106.2764
121.6220,132.4759,89.2476,65.2630,-15.1917,-111.9887,-137.9658,-182.1912,-161.1540,-176.6438,166.1414,93.9788,-57.8046,-54.5791,-7.3350,-228.9442,12.6981,37.9880,-135.0773
100.5704,113.5586,122.7938,75.3635,-63.6123,-107.6418,-171.7670,-249.0751,-174.4127,-218.3116,163.0147,82.3491,-80.8925,-82.9914,-34.1152,-270.7779,34.1805,35.2323,-109.7204
122.6406,134.0914,97.3171,102.7456,-75.7145,-52.3557,-146.1149,-187.8732,-137.3290,-155.9665,150.7478,97.8037,-92.4782,-76.5819,-81.8555,-207.9753,38.4955,62.1061,-17.3908
141.4188,175.6774,65.9145,125.0223,-58.1657,11.2688,-96.8940,-151.3867,-96.4479,-139.7150,157.4772,139.7080,-79.4688,-47.4848,-88.6544,-126.1447,133.4019,141.9778,33.2655
145.2232,191.6468,90.7828,138.9634,-38.8272,39.9958,-83.4196,-171.6712,-77.0918,-130.9424,194.2859,156.1361,-37.1657,-19.3125,-52.7592,-104.3151,252.9433,217.6443,26.7505
189.6250,187.0117,123.8354,143.6856,-5.3895,96.5256,-56.0268,-88.0405,-59.9838,-17.3437,231.9531,144.3260,8.6183,37.0484,-22.4322,-63.9612,299.6066,268.0046,37.8267
224.5353,178.1021,126.1971,145.8197,13.4493,197.6450,-41.4363,22.4727,-69.8523,52.1934,224.8620,147.3331,12.3916,109.0410,-15.9835,5.9678,308.4804,299.4967,47.0222
157.9422,150.6460,102.3973,155.6804,-26.0399,247.9635,-117.5861,1.2776,-96.9967,-16.8528,171.3382,153.4297,-22.3737,156.9601,-19.1542,26.6335,296.1004,249.2311,7.4643
90.3258,127.9576,72.7703,156.4352,-90.9854,194.7285,-209.9171,-78.1521,-66.7997,-91.7211,156.3867,147.3045,-51.9522,175.7838,-18.0122,-2.7128,256.7479,109.8685,-30.0648
157.2270,160.9655,81.7775,126.4606,-123.0514,91.3233,-213.5578,-129.7153,2.8865,-129.0308,226.8605,160.5584,-48.7502,154.2836,-1.0126,-39.7129,238.6933,-2.1013,-36.6967
256.6639,224.2050,121.5298,90.5209,-115.1601,2.2575,-179.8959,-185.9658,11.8373,-188.4322,288.5911,175.3649,-16.9156,86.5007,28.3030,-71.4979,226.8535,-46.3881,-75.8583
244.1059,241.2550,125.4457,83.6978,-93.4700,-58.3818,-183.6813,-234.0745,-40.4879,-242.7534,268.0858,154.6331,6.8677,23.3746,45.0273,-94.7785,170.7467,-105.2400,-152.2118
180.3245,204.0475,103.8409,91.0541,-83.7477,-105.7317,-191.9404,-241.7729,-66.4783,-257.0670,225.0435,150.4836,-9.4278,2.7583,38.1975,-128.2726,125.9650,-185.1360,-170.7267
169.1998,170.3808,106.9165,83.6613,-85.6339,-136.3471,-156.6275,-226.5496,-32.8895,-240.1231,213.3923,185.2749,-38.5661,-2.9806,21.3687,-168.4795,121.6182,-197.8966,-100.9937
206.0502,159.5296,101.7024,59.5517,-69.0462,-127.8644,-86.3945,-194.5751,23.3219,-197.7293,227.7577,169.0912,-36.2404,-16.3558,8.4508,-149.6059,81.7385,-123.9700,-28.4467
255.4439,129.9797,76.1208,15.9454,-22.6168,-104.0909,-11.0633,-174.8922,59.4360,-178.1213,263.4689,85.5664,-4.8924,-39.5363,15.7954,-81.3123,24.6795,-39.8184,-9.3487
261.5929,71.9622,95.3652,-40.3644,31.1819,-123.6292,45.4536,-212.3410,67.0130,-209.7499,268.3296,30.9521,34.6970,-98.5347,50.9259,-73.1582,38.7800,-9.9034,-1.5799
170.8601,39.7224,145.3676,-66.4935,70.7670,-173.4268,69.8725,-260.2985,68.5773,-227.1722,189.0142,22.1698,62.4710,-188.7256,81.5150,-127.4779,78.5728,-16.8709,31.1206
68.0303,46.1883,161.0834,-48.5827,76.5723,-186.6272,61.7284,-269.7963,70.9610,-216.2659,114.0639,7.5129,50.9096,-228.2254,79.5430,-148.5429,81.6189,-4.4143,59.4097
86.4877,31.8579,181.7982,-32.4311,39.1435,-166.2762,26.0367,-287.0863,57.5337,-238.0891,139.2516,-3.9569,6.2738,-170.5784,64.2614,-151.7303,112.6049,25.3775,59.7570
173.7242,-9.2077,238.1705,-36.1290,-14.0102,-164.8619,-32.2390,-320.8901,31.2779,-280.3237,188.7659,-4.5644,-40.4027,-100.6146,37.8106,-210.4582,182.9938,22.2606,41.0788
189.2109,-16.4439,243.3396,-35.2744,-59.9945,-183.1094,-104.1063,-331.3629,5.5057,-317.8661,185.2964,-27.1612,-88.5286,-117.2805,-14.3754,-285.8739,193.2088,-15.8371,-3.1214
138.9852,-0.2060,168.0465,-38.6638,-105.9295,-195.6324,-167.8217,-353.1834,-20.0943,-375.2686,172.2939,-52.2489,-123.5065,-177.8410,-30.0726,-294.9454,133.1313,-64.2744,-71.7887
96.4493,-19.9913,98.4648,-58.5140,-130.2083,-205.0950,-199.5342,-398.6575,-37.8529,-402.4973,151.0683,-40.5274,-101.4130,-172.0211,37.7471,-235.1249,72.4233,-142.0080,-121.2212
52.2844,-51.1564,62.2881,-60.8535,-106.1131,-213.4404,-207.2249,-388.1725,-47.7253,-346.8339,80.7423,-18.8669,-52.7680,-106.0488,74.6081,-167.6259,8.4396,-249.3914,-130.0545
-4.1050,-43.5750,20.1677,-48.2533,-78.5567,-213.5935,-214.1016,-315.4401,-65.2031,-285.1708,20.7345,-23.0049,-51.7371,-76.9854,-10.1849,-148.2162,-72.5227,-322.2609,-122.4525
-28.2010,-36.2563,-17.0496,-81.2691,-86.1957,-208.2381,-199.7069,-253.4348,-55.4720,-252.5145,24.3634,-54.9546,-78.3379,-105.2058,-81.8954,-161.7514,-129.0675,-312.0881,-89.4849
-26.2051,-79.0114,-26.1428,-157.7400,-84.4424,-193.0581,-135.8727,-206.2515,28.4859,-182.7435,25.0643,-114.7009,-79.6685,-139.3314,-21.1046,-143.5577,-162.7318,-228.7074,-2.8985
-64.2396,-139.9980,-33.2774,-206.2515,-56.2182,-169.3583,-67.1928,-159.5509,125.1473,-107.8987,-27.0656,-172.3748,-84.6502,-169.9794,53.1337,-101.4806,-214.0832,-133.2199,86.4532
-142.5012,-166.2708,-67.3537,-203.5488,-65.5012,-169.0775,-65.7737,-147.5515,134.5510,-102.7341,-91.4510,-176.4349,-128.4093,-206.4274,26.3027,-105.9644,-264.4226,-122.0071,85.7475
-187.1552,-154.1194,-127.2910,-179.0826,-138.7988,-202.9725,-145.6838,-164.0480,57.4234,-122.7543,-127.1628,-143.6513,-190.4607,-227.7106,-27.2976,-156.8590,-288.9182,-202.8384,-8.1370
-179.7386,-140.4478,-180.0964,-154.3169,-223.5347,-229.7604,-260.6674,-167.4119,-44.9783,-127.5828,-130.8922,-136.0568,-244.4669,-242.6494,-44.1552,-203.3022,-320.1778,-234.2959,-97.8813
-183.4941,-157.4180,-169.3434,-152.1408,-259.1546,-219.4211,-317.1237,-157.9414,-97.8839,-139.8838,-134.3797,-163.6070,-257.8932,-279.5187,-47.2395,-225.3936,-350.4456,-123.6347,-98.9917
-219.5673,-184.7077,-85.7340,-179.4828,-210.7270,-175.2986,-230.1729,-137.5550,-14.6813,-125.6210,-174.2193,-195.1173,-203.6462,-291.8537,3.8087,-193.9153,-310.8750,53.5884,-21.6061
-218.1100,-169.9782,3.4703,-184.0268,-93.7838,-95.6060,-44.9422,-89.0229,163.9370,-63.7286,-195.1025,-198.6920,-116.9220,-216.2344,139.2972,-92.9326,-206.2942,214.7625,63.3899
-129.4984,-104.7045,43.6803,-120.2955,18.5846,8.5625,99.3725,-28.8863,242.3110,-20.8446,-97.5151,-143.2640,-39.2408,-97.4479,240.9989,-2.1000,-111.9450,342.6317,114.3656
-2.1213,-19.5543,45.5890,-17.8723,81.4016,99.0145,158.6179,17.7703,152.1864,-7.4603,73.5459,-35.4729,37.6594,-16.6311,227.9292,10.7970,-36.5850,399.2411,138.5239
85.1493,72.8883,49.4941,84.1103,118.2855,165.1605,187.9290,57.8715,56.0842,29.0282,174.5377,73.7706,96.1497,39.9222,198.6933,6.8513,54.9688,371.8645,139.8583
120.1182,159.4681,95.8965,181.8604,142.4609,220.6611,191.6300,98.2714,60.3993,73.6680,193.1920,151.9594,102.3310,112.5746,205.4443,57.5626,129.1335,316.4385,109.4076
165.6641,205.4317,175.6608,249.5021,137.0321,242.7800,136.9674,132.4462,77.5517,100.8493,237.4745,190.2931,93.0039,154.8242,148.1268,142.7087,136.1483,255.7056,54.1666
257.9038,206.3571,204.6830,247.2915,109.4180,206.8389,50.6183,148.1999,24.9740,127.7353,328.3899,178.3419,96.5831,112.8803,25.0965,214.2488,106.2322,196.0130,-5.7335
314.8842,196.3282,148.6257,202.2574,80.5315,151.4145,-12.1267,125.1796,-48.2509,126.4806,365.2548,142.4802,73.2436,45.0488,-8.8545,231.1764,88.2937,203.9023,-39.9633
253.3516,189.9176,106.9447,183.5523,65.2649,126.7391,-20.8678,68.3495,-57.6376,67.9085,298.1728,136.7982,43.3107,41.4989,76.4497,176.0224,82.7241,289.9144,-13.4873
165.3302,177.8797,156.8164,203.8065,89.0735,128.0572,26.2708,22.4499,-4.9437,15.9864,223.6656,161.0145,80.4682,83.5626,139.9320,112.9390,88.4610,362.5447,57.1236
183.6148,167.3238,234.4969,219.9472,143.7416,136.2781,83.4474,21.2514,25.6588,28.5867,236.6284,169.3619,145.1439,98.2588,138.3525,117.6459,114.5854,394.6407,96.2175
243.2016,173.0480,263.7030,213.3847,162.3663,159.8501,86.2390,56.1669,-5.8688,67.7406,275.8681,149.0810,141.0071,89.5718,155.4869,157.1767,136.3318,433.0049,74.6742
220.1422,179.2883,253.1376,207.7999,124.9553,198.4091,45.1941,90.0232,-36.4310,83.6925,250.2194,124.8745,89.6777,98.3453,177.6467,174.1003,123.1836,465.7571,57.1389
160.9559,150.9597,225.6645,211.0111,104.1284,222.7682,42.2647,91.0726,-13.3477,84.2380,196.2367,112.8202,73.6664,104.4930,123.5303,195.2433,85.4392,468.1594,99.3910
130.2230,86.3205,193.2705,184.3837,135.8677,209.0909,107.5906,68.8208,37.3479,88.3416,155.1508,94.9151,99.1829,74.5664,50.5614,229.8098,43.9136,457.1363,163.5416
59.8068,18.7682,179.7108,97.3502,155.3289,155.5185,157.6419,37.1014,74.0714,63.4215,82.3746,37.5592,115.4176,28.0329,70.3608,212.8219,-1.2839,410.8913,171.2755
-56.6243,-39.5275,162.3940,-9.0586,107.1588,75.5267,94.5635,-30.5105,55.9191,-30.7698,-4.5602,-43.9943,81.0060,-7.9429,132.2814,146.0974,-50.3990,312.3377,110.3298
-101.8050,-92.2878,81.1414,-60.9412,20.2843,3.7461,-46.5257,-114.8332,-36.6389,-125.6080,-30.1871,-80.3810,-4.7306,-25.7641,109.7575,124.3295,-90.5327,229.8581,57.0888
-66.6822,-107.6629,-32.4325,-49.1671,-44.5544,-27.1700,-122.4963,-124.7263,-122.2495,-109.7079,-24.4253,-52.7157,-84.5817,-18.0943,8.5001,168.7425,-101.0291,193.0035,75.1084
-55.6025,-74.6428,-73.0995,-37.5114,-58.8807,-43.4378,-86.9594,-63.6531,-116.3800,-35.0914,-40.6221,-29.4297,-98.8485,-14.4578,-72.7909,197.0639,-72.8486,134.0225,120.6619
-70.2854,-68.3241,-33.7475,-74.9403,-43.0936,-104.7411,-51.9880,-51.0781,-88.8830,-42.8488,-32.5012,-60.9313,-65.6888,-69.7785,-88.7589,169.8675,-42.6001,37.0750,104.5408
-44.5833,-129.1801,2.8808,-141.2838,-38.1289,-197.3929,-93.1079,-123.9864,-126.7443,-125.3264,7.1436,-115.3435,-48.4595,-147.7573,-59.4253,129.1026,-58.1445,-36.4569,13.9661
-7.1872,-166.9742,23.3765,-175.2232,-51.0809,-239.7733,-146.3938,-210.5395,-175.2803,-199.4989,0.0714,-132.3953,-66.5985,-144.7271,-24.7982,109.6034,-96.2603,-64.4099,-92.1758
-20.1496,-119.7413,52.2017,-144.5302,-61.6000,-216.5505,-152.7271,-266.9325,-181.9097,-266.9784,-54.9080,-99.8234,-92.1929,-78.7534,-23.2790,107.1948,-103.8625,-69.9792,-165.2227
-72.2557,-79.7708,21.2179,-101.9825,-84.7882,-200.6453,-153.9536,-289.3296,-177.5939,-316.8709,-101.2209,-81.0918,-111.5316,-80.8164,-60.4408,95.5934,-104.9466,-82.1646,-185.8098
-135.9362,-138.8540,-122.0661,-130.3142,-142.6310,-219.8224,-193.6588,-281.1598,-147.1351,-295.6357,-151.3398,-135.1065,-140.6070,-160.9709,-104.7953,48.0383,-147.9194,-119.1350,-150.0134
-210.8697,-240.6762,-253.0825,-209.2103,-184.4460,-211.8213,-225.7197,-258.7027,-59.9914,-235.3273,-217.8058,-208.1338,-173.5919,-182.5321,-124.2100,-0.3134,-193.9799,-132.7947,-82.1767
-270.8019,-283.0747,-231.0501,-242.5021,-151.5150,-136.7507,-176.8404,-210.2433,23.4400,-188.2759,-249.9060,-218.2592,-165.1357,-105.1183,-98.5253,30.6911,-189.3362,-65.3592,-22.9920
-264.8758,-262.7760,-130.2321,-234.2919,-82.0957,-45.6273,-63.5445,-122.9067,58.3898,-127.1810,-222.4714,-209.4604,-103.0473,-50.0181,-25.4774,116.3992,-170.7906,11.6721,16.8066
-190.8500,-245.5089,-104.9162,-264.6369,-40.1658,-11.6581,16.5704,-62.0762,74.8166,-63.9796,-158.8703,-248.8652,-45.9041,-84.4670,51.4466,125.5738,-171.6542,1.6255,51.5067
-105.0291,-247.0695,-134.0019,-294.4852,-19.1493,-39.6017,23.8946,-76.2672,69.6151,-65.5129,-83.6369,-265.7322,-36.1795,-130.7941,71.3475,26.6813,-128.6724,-33.3390,71.3347
-43.8801,-213.0585,-97.4193,-222.7994,-0.4492,-69.3113,19.0900,-103.0654,36.7626,-104.1248,-22.8800,-186.3799,-42.6802,-126.8305,40.0453,-76.1449,-1.8175,-7.5885,59.2640
11.0147,-123.1480,1.1949,-103.9796,-0.3327,-68.8662,36.2182,-95.7290,37.5713,-104.2701,11.5742,-86.9716,-38.1167,-111.2335,27.7622,-120.6138,117.6417,2.9551,40.3189
59.2682,-44.7836,55.8801,-68.9066,-24.6767,-87.3263,30.7956,-86.8559,74.2785,-79.0824,26.4433,-53.3651,-53.6027,-126.8679,58.6908,-126.8738,119.2532,-98.2549,29.5904
45.8653,-40.8514,18.6647,-110.4779,-73.0987,-172.6474,-25.7371,-91.7172,52.6575,-75.5067,2.5790,-62.9916,-110.6689,-166.1526,65.7321,-122.4943,14.7707,-254.9955,-20.0237
-42.2587,-95.8362,-70.9583,-157.1941,-145.5597,-281.4788,-106.9139,-103.6423,-38.8134,-84.8956,-69.3291,-94.6358,-170.1539,-201.6790,0.0150,-148.0345,-104.9836,-351.6163,-110.0786
-132.7318,-165.8692,-157.5348,-222.4148,-196.4721,-333.6302,-169.9516,-112.9356,-101.8422,-64.6894,-138.3144,-167.7867,-188.6463,-196.0375,-72.6228,-217.0169,-190.0249,-354.5437,-138.8335
-178.5237,-222.5137,-212.3382,-312.4330,-192.1494,-306.6996,-176.2893,-66.9384,-95.3366,11.9800,-171.2348,-242.4337,-174.9062,-135.9464,-60.7972,-246.2090,-244.2761,-294.7390,-69.9361
-201.3852,-241.3371,-231.4945,-345.8259,-181.9902,-220.3676,-127.1795,50.1894,-75.2865,118.5092,-185.8843,-243.6557,-155.5599,-73.6882,12.7098,-175.2736,-262.9052,-189.4407,-6.0653
-198.9641,-220.4417,-216.7683,-283.5743,-186.2080,-96.5557,-77.3317,156.0084,-96.3948,195.6578,-170.9861,-181.1188,-128.8468,-51.4083,50.1684,-83.8576,-223.4884,-50.8153,-10.7323
-148.7313,-190.0726,-173.6128,-202.2758,-148.2701,11.4001,-57.8256,191.9344,-151.0460,215.6952,-113.9632,-128.0645,-89.2696,-30.4775,19.2456,-63.1856,-136.1687,45.9016,-46.3936
-93.9633,-159.2368,-122.6409,-169.1436,-88.5278,32.6626,-44.7406,155.4471,-178.0544,165.1993,-67.2214,-104.3827,-53.0851,14.0085,-25.4822,-101.6115,-45.6789,24.6941,-94.9096
-76.9855,-102.2903,-73.2113,-146.2131,-89.5008,-25.1169,-32.9998,36.2981,-139.4755,36.6356,-55.5739,-65.8925,-31.1898,26.9768,-32.6894,-154.0984,31.5354,-42.6548,-144.2452
-39.2741,-20.7643,-5.7733,-71.8077,-121.9307,-74.5462,-47.0977,-105.4910,-88.0987,-96.0446,-16.7632,3.1547,-22.5858,-21.8298,-15.9690,-189.0308,116.0637,-32.7063,-142.1463
70.8896,42.4421,68.8530,23.3341,-116.5291,-81.4931,-83.7018,-166.0175,-97.1369,-149.7036,86.3426,59.3399,-28.8435,-82.6335,-25.6686,-185.5668,198.5878,3.3108,-108.8720
178.0505,62.4498,91.0012,55.0468,-104.0858,-102.5372,-120.0559,-177.8042,-152.5208,-169.4476,195.9315,71.9411,-31.8319,-113.4275,-65.0743,-167.3419,228.1777,-55.2734,-129.4873
188.4688,56.4338,48.4920,16.3820,-111.1041,-160.4978,-147.1599,-207.7680,-185.5099,-199.9680,221.2043,58.8043,-12.7856,-124.2378,-81.4857,-171.9806,185.8899,-166.7577,-182.4096
118.7347,43.3281,5.6805,-28.7349,-114.1062,-207.7596,-175.0741,-189.8164,-173.5014,-169.9492,129.7692,36.0651,-14.9693,-138.6958,-74.1467,-188.7995,112.1256,-243.4584,-182.9017
36.4566,23.5480,-5.2930,-54.6484,-148.5546,-231.3247,-228.1271,-112.6179,-154.2941,-79.8227,1.1456,5.2857,-80.8270,-165.0598,-107.8853,-194.9050,44.0958,-308.5389,-147.7166
-19.8687,7.5580,-19.4036,-66.9920,-227.2197,-247.3273,-286.6758,-87.9541,-156.9422,-45.5030,-48.2671,-11.4623,-147.4189,-179.6051,-171.5589,-193.8064,-12.6266,-348.1839,-128.5462
-30.4660,14.4927,-42.9580,-52.0555,-239.5005,-211.6413,-259.5700,-101.0283,-151.7139,-70.1384,-13.2973,0.1508,-132.6762,-150.1739,-168.6425,-197.6051,-35.1755,-272.0698,-101.7460
-3.0314,29.8662,-30.4571,-23.4844,-131.5483,-98.9067,-112.4436,-61.8995,-96.5868,-63.9984,23.3668,14.1549,-54.6186,-98.0703,-78.2150,-223.0704,18.2038,-112.7577,-41.3880
21.7286,25.5279,28.7349,-14.7095,0.3249,4.9961,55.1303,-39.0835,-12.9820,-47.5934,35.2556,16.4474,34.3484,-70.0231,23.0516,-256.9813,127.9859,12.3149,32.4951
37.5047,19.8542,88.0307,-2.3714,88.1278,40.7412,152.0743,-97.8256,48.0549,-83.1465,53.7927,26.0272,115.0686,-55.1198,82.5634,-242.1423,202.7475,100.5651,101.5277
76.3349,40.2499,111.8864,31.3883,139.3792,63.0618,182.5393,-144.0831,77.5995,-142.6886,91.5859,38.8892,159.0979,-24.5956,100.8758,-188.0000,191.0450,185.2421,143.0659
115.7559,52.8809,100.6117,30.4224,133.5936,84.7552,148.0508,-143.0632,71.7145,-191.3017,135.4698,31.2934,139.1283,-5.8490,90.7323,-179.2275,133.1738,202.3312,125.5632
95.5466,24.4552,58.7478,-15.6980,63.8078,40.4998,38.5372,-176.6720,3.5901,-237.0069,143.1253,15.9525,74.7481,-23.8562,58.6244,-208.1584,74.8353,121.5801,56.1633
30.6163,3.4551,5.9474,-29.6454,-14.1338,-52.1606,-85.9983,-243.9765,-100.5032,-272.0559,75.7441,23.6831,6.7696,-52.6718,-8.8468,-198.8464,25.7008,29.2965,-30.5527
-12.9745,34.5904,-7.0017,-1.6762,-61.3849,-120.3761,-165.4399,-278.8155,-165.3770,-283.7831,-14.2632,45.0411,-28.5545,-83.0910,-102.8375,-174.4740,6.0447,-26.5844,-116.7773
-22.6471,55.0544,26.4499,-9.7690,-81.3726,-178.0571,-231.5804,-272.8611,-172.0861,-273.4916,-36.8836,33.1304,-21.7679,-132.2375,-152.8871,-176.5185,23.1500,-95.3547,-188.6739
-14.8440,-10.6928,31.5685,-75.2629,-89.9840,-246.4412,-314.2249,-238.1656,-148.1281,-233.2290,3.5031,-35.9142,-21.6840,-174.2940,-134.5581,-156.6645,33.7075,-184.2214,-215.3967
27.8778,-109.8369,-18.2612,-144.6789,-109.7774,-263.1005,-350.3504,-180.9798,-90.3685,-168.6432,55.6866,-116.2872,-54.9676,-169.8546,-129.6649,-116.0641,20.4981,-220.8732,-163.9618
102.4399,-139.1748,-38.6743,-173.0136,-117.2238,-202.5932,-279.5472,-121.6007,-4.6944,-108.3759,104.7081,-144.9757,-55.9299,-137.7308,-169.4649,-125.0436,21.6378,-178.0578,-43.6208
137.5378,-115.0162,7.0945,-155.9494,-55.4474,-116.3735,-149.7332,-65.7243,55.6979,-64.3054,118.6226,-134.2019,1.6471,-106.4268,-171.2775,-153.0511,34.6747,-109.5157,64.7522
82.8702,-113.0073,43.0757,-123.7447,36.6512,-6.6633,-51.8131,-15.7598,72.3296,-32.8860,72.1867,-121.7085,41.8355,-48.4252,-93.3198,-119.1515,30.2186,-42.5891,94.9311
-1.6531,-98.7655,41.6763,-88.7045,72.0555,161.2522,-2.0828,25.0189,88.5760,-2.7689,30.7575,-76.0568,49.1308,60.4267,15.3077,-40.4436,49.9506,55.5178,99.5527
-20.2066,-15.8542,58.4297,-17.4057,89.6179,342.0449,46.2019,96.1120,123.6263,57.1552,43.7059,12.5974,86.2376,177.5527,104.6847,41.2440,123.7021,183.6345,156.3433
24.0031,53.2681,91.6743,72.2205,162.6159,449.1931,113.0882,207.9378,155.8840,149.8979,52.8174,59.8957,137.1082,252.2377,148.2249,133.6674,171.5970,288.4764,235.7407
53.3873,39.7570,94.9394,100.8868,224.5835,464.6088,168.8923,285.1049,178.4048,224.9158,32.6570,44.6168,144.3554,288.2531,147.2157,233.5348,138.3068,346.3011,277.3120
51.7858,38.1291,77.1960,82.1013,192.8593,429.4239,165.2378,294.2960,183.8575,242.5395,43.1678,53.0238,121.5416,295.0337,124.0436,321.4013,86.7792,358.8059,277.3133
59.2925,92.8554,60.6886,89.0620,115.6784,366.2957,77.0427,259.2929,143.1202,190.5483,81.9251,82.2254,87.4183,238.9187,58.6793,377.2518,72.4610,309.3427,235.2809
63.9794,89.5174,43.7940,84.7361,67.5213,255.0658,-28.6425,146.8718,70.0934,68.4935,78.8904,47.6861,39.6478,108.2612,-50.5244,370.2183,79.5785,212.9191,155.7868
36.5669,10.4129,37.2447,20.9407,54.0688,89.4687,-38.8559,-33.5857,27.5019,-74.7282,31.4845,-16.8686,14.5909,-27.9361,-98.7451,317.7227,84.8676,117.4880,79.1708
12.0286,-22.5922,20.5482,-29.5728,43.9805,-79.8303,3.1263,-168.4061,16.4352,-186.9152,-9.0687,-27.2998,10.0739,-99.6122,-52.5028,271.9918,55.1862,4.5112,1.9633
8.6150,-6.4077,-60.1733,-38.9314,-11.8946,-208.5548,-72.8001,-250.1016,-26.7854,-294.3851,-34.9357,-20.6335,-49.6057,-126.5378,-47.4476,219.8190,-43.0701,-176.1647,-115.1120
-32.2667,-31.2333,-174.4314,-83.7215,-127.1177,-306.5023,-247.5002,-362.2296,-100.5544,-404.5397,-76.6649,-54.1011,-157.4080,-159.0789,-120.2383,158.6478,-161.4823,-369.1391,-229.1817
-130.1735,-74.4937,-240.9059,-145.5391,-219.3000,-361.1950,-319.4296,-436.0878,-148.4049,-436.0868,-143.7869,-90.2357,-208.5474,-177.2366,-149.6389,169.4021,-216.2799,-460.4612,-275.9934
-201.9297,-76.3118,-265.0335,-132.2062,-212.1350,-320.4898,-264.9073,-376.2402,-182.1530,-374.5185,-183.3934,-87.5251,-174.4892,-131.1855,-139.6587,241.6395,-206.6004,-429.4533,-286.4970
-158.1345,-54.9882,-269.4486,-66.6969,-143.1538,-203.3315,-231.6805,-279.9153,-228.6522,-310.9517,-113.1032,-54.2799,-114.0560,-49.8641,-174.1365,254.0441,-169.4782,-343.6241,-287.0573
-6.5596,-28.6333,-206.2912,-24.2519,-68.0916,-101.3379,-214.9984,-236.1529,-217.8214,-267.0547,38.9968,-20.1477,-53.6602,-18.1989,-177.9167,210.4286,-103.6183,-257.1232,-227.1011
118.3486,-9.4020,-77.3519,-13.7270,21.9302,-60.1325,-109.3586,-183.7629,-98.9085,-199.8561,108.6895,-30.6477,10.9841,-55.6795,-83.2582,197.3711,-19.5961,-170.2483,-107.3896
79.6193,-36.2331,37.0722,-30.5655,112.6625,-57.4568,32.0935,-110.2340,35.5038,-137.9883,28.8316,-78.5770,61.4784,-100.5990,6.8926,175.9037,46.5366,-57.0884,-4.5246
-37.4355,-75.0320,114.7727,-54.2061,142.4032,-45.7047,95.3844,-71.8094,92.7843,-112.6770,-43.8001,-77.7092,72.6523,-103.7622,44.5619,101.1792,97.0724,75.2622,64.8723
-7.4045,-42.0976,178.7371,-21.3011,113.6153,24.1206,104.1433,-40.2095,109.8421,-73.0458,25.8468,-10.7788,48.7965,-59.4576,96.3556,55.3214,154.8251,182.9393,145.1394
159.5180,41.4455,207.8932,66.9100,100.1121,134.1442,128.9371,21.6968,135.6028,0.2464,142.1451,45.3202,32.3211,22.7593,143.2201,82.2143,203.6104,259.0709,221.0101
228.5966,106.0745,191.5434,138.9781,122.4340,190.1490,155.7921,65.7991,138.0665,42.9625,158.8857,84.1179,53.4751,95.3613,134.6252,126.8187,212.5495,322.7538,218.8503
145.6138,149.3479,164.5141,177.6838,125.0069,145.7408,138.8311,46.4834,93.8245,9.5482,99.7887,139.1023,76.6948,80.9484,119.8493,152.8278,182.8468,330.6062,128.1043
69.6980,158.7626,150.6550,187.3398,84.6364,34.7389,86.1297,-43.3969,42.3914,-90.3759,67.3291,152.1798,62.8828,-24.8400,128.1058,132.7694,143.4234,237.4531,42.2130
64.1183,103.0910,161.0103,133.8316,40.5801,-113.1982,47.9843,-182.9851,15.8368,-221.3319,80.6835,90.2987,36.9468,-132.4050,115.3408,49.8857,122.3367,111.6432,28.1367
78.9504,39.8908,188.5943,47.8521,14.2514,-246.4031,37.5310,-294.3969,-7.2668,-322.4976,101.9940,38.7986,22.7227,-169.7030,76.4011,-19.1615,116.2294,39.1402,18.5983
98.7786,40.7438,181.7356,21.3188,-4.0574,-270.6242,13.7753,-325.1198,-58.1737,-352.2746,106.4020,43.4397,10.0909,-134.0967,41.6533,-8.8213,94.8300,-9.9950,-62.0147
101.7493,72.1702,124.8586,56.2036,-2.8839,-189.2138,-27.5160,-321.3785,-127.2889,-341.1805,81.8265,58.6268,12.8773,-59.5341,18.5257,18.8937,53.4620,-95.6753,-156.6782
62.8618,83.3190,80.8755,87.3921,23.8183,-117.1375,-46.5317,-314.0338,-186.1774,-335.5838,46.6132,70.7159,38.7241,-0.5129,-9.1704,7.7102,34.4541,-187.8481,-196.7918
44.6177,90.4321,84.0289,106.6905,41.0460,-91.5011,-60.7625,-275.8067,-233.7626,-327.0950,52.3282,95.3575,48.4616,15.5014,-83.4632,-16.3015,79.7580,-211.6082,-218.6459
94.9895,118.5333,117.3984,138.2017,39.2040,-50.4429,-93.6835,-218.0595,-258.5618,-280.2049,102.3813,121.3224,35.9706,32.5626,-185.8731,-42.2531,173.3896,-143.1272,-229.8750
139.9200,156.6119,168.3046,176.0113,56.1227,8.6347,-75.4675,-162.4185,-203.0572,-192.0205,124.4222,139.7476,35.5280,75.1607,-185.1106,-62.7076,242.2399,-37.1222,-158.0546
109.9751,163.4697,179.6973,191.5193,89.1499,24.2540,20.6800,-99.5292,-69.3097,-112.2316,69.9897,134.5545,37.5127,80.4948,-54.0634,-44.3938,238.0402,26.5835,-23.5336
38.9217,112.0958,100.9397,154.2681,99.1196,-16.0842,97.5331,-71.1678,25.5281,-99.4332,-17.5254,86.8670,34.9771,22.3253,38.4021,-21.6296,207.6301,38.8655,55.7050
-0.5081,58.0256,45.2371,84.4751,104.6890,-65.6166,122.4405,-113.7714,13.4036,-137.1625,-50.4295,42.6165,69.0882,-21.7121,17.6386,-58.9913,223.8968,62.5272,63.3932
37.6704,67.2773,132.6638,52.8378,143.6136,-77.3204,152.7212,-138.9289,-34.1490,-141.9321,8.3212,43.1456,118.6442,-3.5546,-16.2988,-125.8626,257.7200,113.2356,79.2499
113.3382,79.1859,225.3373,49.1856,169.6484,-44.4628,154.8612,-77.9261,-59.9810,-88.1065,84.0045,26.6973,100.7071,30.7462,-35.4772,-168.2843,205.0503,128.9475,101.1012
111.4700,3.0016,139.8639,-20.8187,112.5085,-7.9420,82.2859,-13.5100,-90.8142,-38.0677,70.6112,-50.6795,21.8808,30.5747,-60.7860,-197.6546,51.5246,82.6518,70.2767
27.0892,-109.7943,-22.5390,-138.6204,7.8597,-0.7836,27.8353,-4.0179,-118.7244,-20.4312,-0.0483,-124.4322,-38.5604,-9.5694,-25.6032,-218.9596,-73.5949,27.4942,24.3957
10.2746,-150.3311,-61.8580,-173.6936,-38.6508,4.6127,53.7106,12.4748,-103.8361,5.3957,4.5191,-143.7738,-57.6158,-54.3318,52.8183,-222.3695,-56.1871,11.8173,38.3353
100.8379,-106.4515,4.3621,-109.0394,-6.8916,47.8576,70.1533,52.7933,-80.1630,45.7348,85.3646,-118.6298,-57.5970,-47.1519,41.7492,-233.9528,41.6062,15.9319,63.7347
141.5790,-34.5129,40.3292,-46.5679,11.4320,107.1453,25.3312,52.9307,-96.4869,54.1151,106.0039,-57.3821,-54.4843,5.9746,-48.0976,-260.9927,76.7469,-8.6729,10.3357
57.4056,18.4721,15.2787,-16.2938,-35.2656,117.5812,-23.6911,9.5811,-122.2379,22.2422,29.1559,9.4212,-64.4243,23.9061,-107.4643,-281.3493,47.5209,-56.8498,-72.6871
-32.9827,44.6956,-11.2979,27.0955,-82.6866,55.7535,-51.0901,-19.0403,-128.0579,-8.9281,-49.2952,44.8828,-79.5427,-11.9616,-152.1266,-300.9051,57.8915,-62.9616,-90.2805
-40.9020,75.0105,3.4658,80.1880,-81.0279,-21.2217,-71.5232,-23.0214,-149.5478,-24.5397,-79.7702,74.7201,-71.1633,-33.8648,-208.4567,-304.6214,106.8426,-1.7746,-85.7404
-14.6377,112.6021,47.2369,102.4668,-73.2675,-57.5142,-78.0460,-42.0091,-193.9237,-48.2222,-83.1339,109.2793,-49.0012,-36.6116,-201.8179,-252.1470,119.5439,61.7090,-127.8182
-4.3273,110.1110,65.3303,90.4864,-80.8285,-87.6476,-74.8032,-86.1080,-199.9214,-82.0086,-56.4011,94.1501,-31.6747,-82.0349,-123.8419,-189.4558,101.4480,71.9325,-153.3114
-0.6221,57.4313,22.1936,57.8551,-65.0252,-158.0108,-73.3170,-117.9713,-141.1320,-91.4271,-6.7192,27.0012,4.1891,-156.5618,-48.9348,-187.2878,68.3751,54.6234,-113.2912
-12.3714,-14.6671,-46.4754,-11.3992,-36.9690,-220.0760,-61.1137,-115.1734,-71.0174,-67.1177,-0.9960,-48.5303,54.6060,-182.3847,9.6221,-204.1220,-28.7680,38.2209,-88.2195
-69.7484,-103.2730,-87.3813,-124.4624,-48.0528,-217.9513,-46.0746,-103.2451,-33.8961,-55.7861,-72.2073,-138.7009,61.0647,-144.1464,55.0436,-194.3236,-177.3774,-0.7640,-117.7661
-149.3764,-183.5177,-119.1748,-219.7078,-90.3833,-185.4179,-52.9181,-97.6498,-10.3412,-82.4616,-158.0460,-216.7085,11.9468,-97.0164,59.0902,-203.7838,-294.9867,-61.9227,-132.0896
-201.1903,-192.3037,-196.4022,-225.9246,-126.8680,-155.7204,-59.5852,-74.2221,23.4613,-88.0261,-200.6305,-201.9516,-35.7507,-78.1127,50.8710,-232.4356,-371.5392,-81.4209,-112.6007
-222.4472,-141.7296,-285.8441,-169.0928,-141.9036,-104.4425,-37.5368,-30.9014,44.1049,-27.1358,-210.0649,-125.2415,-43.7512,-65.0698,69.7227,-218.7383,-415.5506,-25.6751,-112.0768
-206.4523,-91.7818,-282.0555,-116.1092,-113.8642,-31.1861,-14.9353,1.7078,21.0007,33.1870,-184.3642,-83.4968,-17.0874,-23.4796,66.7489,-180.4846,-358.1122,35.7759,-130.4470
-110.3990,-28.9496,-171.9125,-53.6539,-52.2446,30.7789,-24.6841,16.3220,-32.3827,20.8315,-94.1355,-53.5819,20.0332,25.3404,8.3527,-160.6203,-189.0706,15.2851,-135.5603
16.0179,60.2947,-56.4060,43.9199,-27.6128,69.1057,-59.3359,18.6521,-81.3615,-17.8658,11.3218,16.3260,30.0050,37.1603,-43.4771,-132.8321,-24.7869,-67.0071,-148.8929
41.1260,111.2347,10.3663,113.7682,-59.3997,75.9680,-107.4275,7.2120,-120.6137,-11.7394,37.0972,71.0786,1.1605,33.6202,-44.6112,-98.9558,56.8748,-117.0265,-206.3724
-16.7688,95.6630,52.7201,106.5810,-85.7958,48.2434,-175.5352,-0.8705,-169.9301,12.6993,6.6152,66.2565,-28.2249,56.8210,-34.7556,-99.0299,81.7039,-107.7198,-289.5131
-9.9877,56.2564,65.9143,66.5036,-98.8984,11.2605,-268.1559,-6.1139,-224.8307,-5.6254,17.6157,36.4887,-39.3919,66.6446,-59.0151,-99.3481,73.0645,-99.9908,-344.9208
58.8449,12.8919,38.4435,27.8063,-147.0791,-32.2385,-356.8155,-47.4791,-242.2318,-61.4914,55.9496,6.3209,-68.8215,12.9899,-98.8705,-65.5219,20.7017,-132.9264,-346.9608
62.6944,-23.0351,15.5427,-21.7654,-210.1854,-102.8418,-382.0699,-106.6762,-195.0188,-103.5850,40.3077,-17.6716,-125.5652,-48.9757,-96.7936,-54.2101,-66.7733,-178.7614,-313.6248
-2.0132,-31.9557,16.9746,-69.5448,-227.5766,-161.3881,-324.2102,-116.7373,-115.5742,-106.8418,-19.4568,-34.2866,-152.2272,-42.6981,-44.6780,-83.2779,-153.1647,-203.9989,-261.4216
-57.5139,-52.9697,-2.0042,-103.5060,-194.1730,-158.7628,-237.4147,-102.2605,-55.5754,-102.8394,-69.4463,-77.2978,-116.3681,2.9236,-3.7266,-80.3512,-216.1971,-207.3228,-195.9235
-105.3106,-118.2125,-59.0255,-139.9662,-137.3867,-138.7617,-167.2316,-128.9376,-29.3684,-128.8324,-111.4316,-138.4571,-65.8834,10.9987,0.5209,-25.1377,-280.8495,-197.2057,-148.1783
-165.9854,-153.9254,-131.7175,-150.7263,-85.0976,-146.6198,-104.8660,-153.5908,-18.6224,-154.0559,-159.3870,-133.0935,-50.2025,-16.4022,7.9035,33.5462,-358.8004,-170.5925,-131.8243
-208.3208,-99.3713,-196.7098,-91.5963,-66.0833,-127.7340,-46.7952,-115.7234,1.3722,-127.6530,-193.5460,-48.2064,-50.7718,-2.0659,22.2242,68.0779,-369.6474,-118.7687,-96.4991
-191.1902,-12.1381,-197.7695,-4.2668,-57.1437,-33.8877,-0.7339,-59.1839,48.5640,-73.2898,-172.3294,31.2890,-25.9209,85.7426,20.8130,58.7697,-250.9919,-48.4766,-24.6927
-79.9847,44.6694,-90.1802,50.7228,6.0293,87.5023,52.2027,-23.6507,115.4751,-31.9986,-56.8176,76.1521,27.9107,171.2282,40.7285,1.3942,-88.2434,15.2570,21.3547
97.6767,77.2156,56.0830,89.8948,110.5830,169.7129,109.6138,15.7369,169.0455,14.2764,110.3703,112.7826,84.7723,178.1329,101.5299,-39.9934,23.4904,60.4668,21.9382
212.1010,102.1869,134.7854,135.2104,171.7206,194.0542,122.9374,55.5386,177.7896,66.7774,204.1970,130.3885,120.7324,144.8481,125.0373,-18.1927,111.6595,101.9438,17.2400
200.7231,133.5689,146.6696,171.7760,167.0089,179.2826,74.7322,75.9938,122.8915,80.8923,191.2434,133.9438,127.1188,141.6095,59.3484,17.8531,196.5247,146.1394,-1.8148
167.3038,183.7174,156.2429,210.3725,141.2533,160.1047,0.5663,93.0439,17.4681,60.6820,166.4573,166.9797,112.3463,148.9043,-28.0764,22.6472,230.8869,170.4716,-52.0303
178.9450,220.5058,186.4057,256.2403,107.6337,151.1964,-70.2560,96.0369,-67.1757,46.2594,166.2309,209.7957,83.8159,122.2442,-54.3359,11.8255,223.2519,160.1470,-80.7883
172.3266,200.4983,208.5569,256.4825,52.3153,126.5992,-126.4965,59.4847,-72.5887,38.0217,145.1270,198.1560,34.3493,78.5874,-20.5375,-6.8136,215.9988,133.4391,-61.0662
122.7554,141.2723,172.1552,191.5716,-11.4637,65.2926,-158.6558,25.8766,-47.8220,34.2929,107.5573,142.7709,-28.9181,42.8095,13.6481,-29.6196,184.5006,103.3450,-44.5253
72.0631,91.6409,68.0373,124.1028,-62.7068,-7.3200,-168.9652,28.3749,-71.4792,41.2303,70.9358,102.2701,-70.8113,14.3933,-0.9488,-27.9254,113.7648,56.5867,-66.6575
25.0758,64.3281,-24.3283,87.8577,-89.8852,-51.1261,-158.8037,18.4482,-121.0960,27.8406,14.6834,78.3427,-69.5388,2.4899,-50.7793,-7.4198,50.2590,2.5816,-107.4132
-7.9988,38.3141,-37.3828,45.8994,-70.1236,-64.0593,-110.6952,-16.5809,-123.9665,-5.4975,-26.9051,35.2327,-33.8712,5.2032,-65.9683,-4.0376,5.1440,-15.7877,-127.8561
3.0822,3.7066,-18.1827,-12.4673,1.8975,-73.9280,-21.5020,-25.1183,-69.2170,-5.7927,-5.3529,-16.6030,21.4926,3.4899,-2.2049,-9.6116,-47.1947,5.3479,-103.0840
17.3169,-10.6625,-34.7861,-37.4248,79.1032,-74.2546,74.2002,-20.4555,5.2713,6.5640,17.8845,-26.5140,74.3955,19.9068,91.1805,-3.9925,-86.3147,24.7479,-55.6644
-6.5986,22.8933,-69.2496,2.8847,120.2195,-23.9028,138.0824,-51.9876,67.5836,-29.6710,-9.7774,16.4590,96.5166,80.8090,121.3305,-7.1553,-68.2217,37.5288,-11.1871
-5.1207,67.0662,-70.0286,68.9795,141.0798,59.7232,154.0123,-84.4636,105.9805,-70.2614,-7.9587,62.1743,92.4422,132.0134,74.9949,-25.9018,14.1057,57.5133,56.0346
56.1357,68.0841,-20.1695,97.5478,154.5132,102.0477,112.7449,-66.1949,118.1787,-55.8786,67.5746,73.5267,92.4483,118.0230,20.1809,-30.2431,117.0851,45.0596,118.1485
85.2730,47.1777,54.7935,82.7283,128.1302,94.8237,11.5048,-26.4419,73.9938,-33.6515,112.0531,68.0579,92.9664,83.7366,-33.2693,-7.5964,167.6441,-19.6148,77.2026
25.4752,44.9777,92.4297,65.7257,56.4403,93.3632,-102.5937,-1.5728,-48.5828,-31.9942,54.3094,63.0079,63.5437,85.4176,-117.3640,23.7834,142.2560,-66.1825,-20.2927
-47.7129,36.3840,54.1054,52.2985,-4.5611,100.0785,-142.3811,23.5586,-153.2556,-3.7193,-22.2371,42.3699,8.2912,94.7494,-141.7720,41.4292,97.0234,-52.1237,-16.2848
-57.4286,-5.9368,-21.7077,16.0741,-25.8549,82.0374,-104.3569,56.6883,-115.9167,47.4513,-25.8865,-1.9457,-40.7382,72.0239,-18.2857,41.3031,59.9152,-33.7068,57.8142
-26.6767,-56.4662,-89.5662,-35.5201,-48.7279,46.4451,-101.1815,77.4381,-2.7373,80.1772,4.1008,-51.6837,-78.2779,33.8886,98.2273,47.3590,-0.0913,-51.9023,57.5410
-24.9280,-95.9839,-148.4728,-83.8811,-99.5110,8.6127,-172.9486,80.0988,33.3633,106.7058,-19.8548,-91.4011,-118.9860,-0.7605,44.5114,64.8183,-66.1098,-79.3911,25.8555
-78.6782,-126.0213,-182.3088,-134.4708,-137.3167,-18.5398,-204.9520,83.7603,6.2145,137.5627,-88.7880,-120.0302,-148.5093,-43.2529,-52.0996,60.3021,-99.1920,-82.2827,62.1221
-141.9628,-134.4575,-174.8369,-166.3787,-124.8441,3.5942,-142.7550,105.1056,-12.9989,148.8238,-128.7686,-134.2288,-138.4362,-83.3254,-64.7187,46.5403,-136.8851,-32.7282,91.0679
-153.5487,-121.5707,-172.5433,-140.0307,-86.0754,69.9744,-83.6199,130.3408,-69.1972,141.2594,-126.4298,-117.3342,-103.2582,-78.0674,-98.9758,70.4323,-203.4120,70.1335,47.6694
-116.6147,-100.4278,-191.9501,-76.2975,-49.5061,112.1455,-53.7145,127.7882,-143.0691,125.7208,-111.4723,-60.1431,-73.7520,-24.7882,-153.9389,87.4141,-226.9947,158.4338,25.1318
-84.9164,-58.5701,-153.1407,-24.5638,8.2189,115.1661,47.3124,100.4934,-89.9602,97.6562,-79.9531,4.7292,-30.1163,14.4855,-61.3414,39.2714,-161.6601,186.8347,77.4244
-76.6174,-1.8715,-37.6021,14.0536,102.1724,123.3874,208.8404,82.0842,70.5864,70.7980,-38.5188,31.9345,47.5513,6.0376,110.7600,1.8361,-54.4103,206.9105,135.9769
-49.0223,33.0338,44.1432,57.5086,178.3942,140.0628,284.0052,75.3701,145.5140,58.1461,-16.7725,39.2821,105.1135,1.3906,149.4403,30.0611,50.3407,243.4850,155.2052
30.4971,72.9308,47.7853,112.5569,187.7083,150.1535,227.8361,64.5538,92.5519,55.0224,14.1525,86.2539,99.9250,40.2215,100.6181,32.2550,145.9377,235.9210,141.2396
122.3164,163.6697,68.0667,184.9773,161.5370,154.3331,136.9404,64.4237,25.9432,75.5443,86.8375,164.2134,81.2590,68.8687,97.3987,-5.3466,223.7273,170.3022,90.5718
163.6433,228.5131,156.2879,238.6716,142.3462,112.2561,75.7410,76.0544,-14.4485,106.5910,143.6683,191.1062,83.7465,24.8162,78.1154,30.2080,282.6937,108.3494,16.3992
165.7022,182.5758,252.4064,217.2780,117.2376,-5.4147,30.6752,54.6485,-39.4545,82.1730,153.1715,136.9526,65.5236,-69.6264,4.4334,93.4373,327.6504,81.5656,-40.8409
193.9999,116.5823,306.6917,159.6290,77.3254,-118.4079,-7.1860,-2.4955,-27.0751,13.8278,184.8595,78.3784,22.0364,-144.0940,-23.3304,33.8882,339.6703,85.5095,-64.9762
253.3710,136.0973,314.0748,153.1486,46.8126,-130.3232,-24.8099,-25.6172,-2.0996,-0.4535,251.0441,86.3268,4.1923,-147.4462,7.7902,-76.6753,305.5173,119.9425,-61.1072
274.6572,169.4017,269.2450,179.1575,30.6261,-49.7332,-15.5344,13.0327,-4.6283,42.0902,264.2875,123.2696,7.1629,-78.1219,25.8967,-73.9471,247.2018,167.4702,-16.1858
219.0863,143.5350,198.1096,174.7939,24.8007,60.5676,29.0296,54.0333,13.5758,54.6543,199.3089,125.6451,-3.2146,4.6222,35.1050,-16.2832,192.3304,211.0778,77.3720
123.2540,135.3467,161.1655,171.0071,48.7577,157.3879,121.4052,61.6457,89.8103,38.5794,112.3995,123.4383,-1.3801,44.7263,60.9892,-13.6811,156.0382,257.7822,180.9100
41.0153,187.6557,162.8911,205.8157,96.9627,226.6145,241.3667,84.1962,163.7540,68.4887,34.4382,163.3594,34.2784,73.0039,91.9193,8.1123,136.2762,286.1613,250.2173
-7.1398,211.0059,141.7459,220.0982,124.9137,272.1459,320.4152,152.4881,186.2724,145.7788,-20.4908,191.3310,59.0899,132.8848,116.0685,92.6852,93.9676,252.1329,284.0019
-26.0875,161.9760,72.7307,164.4917,111.2257,270.3255,300.0150,197.1658,159.5088,188.3486,-29.2679,152.2292,40.1117,164.9558,99.8580,108.1032,-6.3170,171.5028,272.3081
-23.0019,111.3973,1.8446,94.0676,67.2682,186.8849,203.2297,147.0100,85.9968,137.7990,-9.6518,104.7522,1.7922,105.3959,38.1562,10.9572,-113.5913,103.6017,187.0643
-11.3886,104.2246,-25.5363,79.2621,15.7755,76.8872,115.8802,55.2818,12.6819,44.6248,-6.6394,104.2158,-26.1078,22.3068,17.2323,-50.7304,-137.1118,63.9402,93.2437
-13.3381,100.9451,-16.9409,98.0337,-6.8944,28.5406,88.7990,26.0124,3.8663,15.7455,-23.4227,99.8435,-36.6129,1.5195,57.5824,-8.8310,-91.2784,22.8058,95.5081
-23.9277,58.4968,-7.0827,70.2270,-2.3772,8.8753,78.1776,55.8219,8.4657,53.1324,-21.1640,46.8970,-39.2450,1.0979,53.3330,29.6355,-75.6010,-32.3476,129.5755
-9.4726,-2.6200,-5.1332,-12.1746,-30.3272,-60.4510,8.3930,62.2246,-56.9850,60.2621,23.4052,-11.1191,-48.9502,-42.8103,-2.6425,7.6315,-102.7144,-77.7486,61.3809
18.2791,-21.2404,4.0550,-57.6001,-95.3996,-154.6127,-110.2395,22.2285,-136.0165,26.3776,67.5683,-25.7992,-61.5185,-93.0306,-3.9384,-9.7099,-96.4661,-96.6737,-50.2287
-7.3552,7.7872,5.9792,-29.6782,-130.8625,-225.1326,-190.7835,-25.6873,-147.0122,16.9824,29.8997,-13.0112,-67.0132,-104.2973,33.9358,-5.7367,-67.6518,-108.7377,-91.4294
-99.1206,6.0798,-42.5700,-21.5914,-136.9809,-273.5569,-197.9238,-57.4667,-126.0605,20.0046,-92.6102,-22.7623,-79.1464,-102.5905,16.2030,-32.8434,-114.5664,-118.5228,-118.5887
-186.2053,-60.3822,-140.9478,-90.5466,-158.9526,-265.3752,-161.4357,-59.9668,-98.2217,3.8389,-196.1843,-73.6012,-94.9042,-101.4929,-37.1574,-60.2043,-238.9005,-88.9497,-168.3546
-224.9596,-116.5322,-232.9910,-161.0109,-162.9653,-155.4222,-87.5048,-20.8930,-22.6068,12.6798,-214.6287,-118.7281,-77.3653,-66.5537,-58.4255,-2.9460,-338.7189,-28.3427,-138.8012
-237.9521,-106.1328,-277.7854,-164.5541,-121.2137,1.4468,6.2028,32.9684,68.1627,48.1477,-194.3233,-106.6761,-32.9839,9.9195,-40.0081,108.0998,-368.4467,1.3383,-30.7374
-237.4797,-69.3043,-279.3611,-128.3375,-91.6465,114.6895,54.2245,54.4147,111.3191,39.1183,-186.9967,-65.1974,-11.3976,94.1326,16.2701,166.2957,-353.4918,14.9374,42.2877
-219.8511,-63.7825,-257.5532,-102.9188,-78.5171,172.3437,72.8685,50.6977,150.9481,8.2178,-189.9978,-60.4378,-5.1680,155.3932,96.6371,163.1957,-311.0515,82.0339,86.6777
-215.1377,-106.4894,-227.1948,-112.4137,-24.3044,213.6130,146.7991,80.1261,221.3323,53.4807,-200.0865,-100.2140,26.1277,176.0935,138.2034,161.8981,-261.0505,172.4905,156.1464
-226.8809,-161.4713,-188.8052,-139.8943,27.2976,256.6173,222.0776,157.5984,244.8965,155.9868,-201.1248,-131.2793,56.2553,162.5920,105.6087,161.4966,-220.0788,206.2101,206.1129
-172.5813,-148.7786,-133.7321,-125.2968,13.1250,267.7451,190.3160,214.1048,199.7069,202.6663,-129.8646,-102.1116,51.6203,140.1656,43.3617,130.3420,-153.9794,193.8500,216.6880
-18.2822,-53.1384,-65.3231,-50.8046,6.2367,193.7802,129.5511,188.5835,173.3207,164.3686,20.2468,-23.2457,57.5139,92.8664,12.1724,90.4605,-40.6368,174.7571,220.4668
112.4331,25.9410,8.9038,19.1130,58.0514,56.6470,140.3960,116.3152,181.6524,103.6007,131.3606,32.7151,100.4810,-9.0789,22.1302,61.3573,65.4517,128.9592,189.8007
123.0358,34.7634,88.7757,47.4226,77.8228,-50.9215,134.1479,62.8002,166.3542,58.8578,132.4127,33.8350,114.6167,-96.9557,32.7040,21.1676,122.5005,42.5462,122.2779
105.4020,31.6711,151.2234,58.8527,28.4613,-96.0446,65.0916,29.0908,148.8459,30.1030,122.1049,27.7981,68.5242,-75.9152,20.9727,-16.9084,156.2291,-56.2334,96.5120
145.8349,28.3550,160.7058,48.2115,-2.2736,-117.1318,51.1768,-0.8477,173.8523,25.9113,172.2751,22.2167,34.9561,-4.8730,20.8051,-14.1975,176.5342,-140.1727,115.3227
168.6402,-19.5095,138.0857,-0.9783,13.7853,-124.4749,94.1458,-15.2865,188.2215,31.2953,187.9772,-23.4966,55.6504,-4.5482,37.6715,-3.3746,164.7873,-191.4024,109.9122
132.2223,-65.1875,143.3802,-42.3684,21.9623,-106.2623,72.9014,-36.7474,139.6446,-10.1822,120.7066,-59.7131,73.7644,-36.3053,18.7859,-30.5324,142.4676,-208.1167,83.7385
123.8733,-37.9085,179.4409,-31.9334,11.3971,-66.1429,19.5761,-96.3440,73.2533,-93.8341,82.4950,-14.3435,51.4643,8.1796,-25.9112,-46.0905,139.6131,-203.3846,58.3508
156.5765,17.4279,188.2839,2.2970,0.3529,-7.9901,20.5624,-141.5500,31.9535,-127.7262,116.7592,42.6692,23.6723,83.5946,-32.6110,-15.2793,133.0330,-161.3730,14.4765
151.2500,30.8377,140.1152,17.2992,-8.4476,36.8644,14.7276,-114.0420,0.1533,-80.9651,129.8047,24.7905,17.0235,74.2900,-17.5308,-18.7650,95.4191,-61.1505,-13.2048
120.7472,10.1472,79.6430,10.2948,12.4646,40.2710,-10.5347,-46.0223,-7.2555,-13.2132,106.0419,-10.8247,31.0425,10.0250,-9.2752,-71.6421,58.4572,71.0442,31.9960
120.0807,-16.4061,80.4258,6.1258,89.3169,75.1377,76.9131,34.8243,60.9547,63.8921,114.7691,-4.3934,79.9326,9.4506,50.1637,-42.5913,70.8933,206.2705,116.6190
121.6716,-33.8053,145.8111,17.7085,183.7620,189.9101,263.1605,132.7104,176.7322,151.3965,137.4840,-6.8829,150.2848,70.7680,155.7550,81.2836,119.2501,312.7170,174.9840
90.1736,-43.1103,175.0825,6.1238,222.0728,236.4050,333.1830,166.0761,218.0250,149.2440,100.5121,-59.7189,164.9642,70.9630,178.9696,119.6086,126.7353,293.6982,176.4467
3.7220,-94.6612,77.4408,-77.8241,154.4147,91.8373,196.9456,53.7699,111.1468,10.7359,-25.8723,-142.8015,77.5580,-42.6564,75.4116,14.3456,36.1951,101.3323,99.4187
-190.1502,-221.5494,-116.8731,-207.1995,-0.6391,-111.6320,-6.9286,-110.8801,-69.8359,-135.2160,-239.8377,-243.9705,-56.1568,-190.0205,-57.0106,-91.3162,-125.6060,-141.7356,-32.0688
-449.1923,-366.1365,-307.3337,-326.5094,-145.9792,-240.9118,-149.0519,-204.5762,-196.4481,-206.2009,-479.8167,-357.5090,-162.4635,-309.2017,-149.4491,-134.0471,-289.2447,-313.8127,-145.8236
-620.0331,-478.2699,-431.0449,-444.6522,-218.6917,-365.0053,-246.5888,-267.2990,-251.7051,-280.9501,-634.9987,-465.1763,-238.8980,-424.9253,-216.3357,-172.1413,-424.0709,-442.2228,-230.8785
-667.9480,-575.2892,-498.3236,-572.5634,-280.7123,-510.7915,-353.4315,-362.0316,-323.1385,-386.2773,-683.5383,-554.6895,-314.5101,-522.2327,-282.3249,-198.5842,-540.1833,-556.3767,-319.6383
-693.3301,-648.8741,-561.4951,-661.6370,-382.7780,-566.4364,-443.2992,-436.2826,-424.6480,-440.5695,-695.0035,-608.5490,-378.1891,-534.2308,-345.9460,-186.8833,-632.3738,-605.4439,-370.1851
-727.9745,-671.5167,-634.5452,-688.2922,-450.7313,-528.6251,-462.7458,-451.8708,-450.2071,-435.0292,-701.2254,-618.5440,-395.7383,-494.5334,-377.5171,-189.0068,-669.9698,-576.1909,-329.9245
-741.4734,-674.5907,-667.9183,-683.5936,-430.6273,-510.5065,-438.6371,-450.8586,-366.7318,-432.1002,-702.6647,-616.3893,-376.7407,-489.3629,-374.1875,-210.0777,-650.2738,-509.7688,-262.6073
-738.2218,-675.2707,-651.5651,-658.0159,-389.1033,-513.7322,-437.8695,-441.2100,-307.9107,-425.5161,-709.3682,-615.2396,-370.1450,-475.7531,-399.1246,-174.8383,-616.0510,-433.8741,-270.5561
-719.0112,-625.8347,-629.3628,-604.4950,-382.0854,-466.2711,-460.7629,-389.4415,-366.7187,-372.8354,-701.6279,-577.5537,-382.7038,-381.7413,-464.2164,-85.0207,-576.3864,-372.9268,-342.8195
-673.6640,-522.2689,-566.4866,-531.0466,-377.4698,-394.7339,-460.3553,-319.7699,-436.2237,-301.6505,-651.5447,-493.1794,-363.8749,-288.4131,-466.6770,-15.6878,-472.8874,-337.9129,-377.3282
-591.3218,-422.4740,-406.2534,-429.9141,-337.7216,-371.0445,-416.6624,-299.0077,-388.8940,-284.5332,-550.6263,-397.0473,-298.2744,-288.0149,-360.4214,14.7869,-299.8666,-309.1699,-334.5169
-444.9278,-350.1635,-253.0803,-307.5688,-275.3911,-406.4724,-354.3615,-345.9589,-279.6127,-342.4235,-405.6497,-316.3871,-240.1769,-328.9744,-244.5090,20.9471,-166.7847,-303.2039,-290.3102
-299.9098,-304.6784,-237.7318,-234.3390,-237.5654,-481.6720,-329.5155,-416.3364,-230.4447,-418.0898,-302.9752,-274.8206,-230.3329,-355.1667,-208.6102,-12.7135,-143.4618,-363.2837,-303.8475
-286.2105,-293.3737,-282.3910,-245.4475,-256.0946,-560.3054,-358.8675,-460.7639,-235.9306,-453.7322,-317.8321,-274.1826,-253.1238,-376.0464,-236.7709,-82.9908,-154.2928,-457.3077,-323.1607
-324.4333,-281.5427,-255.1644,-260.7133,-291.7034,-567.1466,-362.6154,-460.8736,-212.4185,-444.8217,-323.2849,-256.8643,-277.4364,-347.0670,-262.8142,-143.2300,-123.7909,-508.4865,-290.6999
-245.9876,-227.5785,-194.5816,-214.4411,-282.6920,-460.8362,-292.3361,-402.4207,-141.2878,-380.6593,-229.5201,-198.2406,-273.9002,-228.9750,-235.0513,-149.9072,-101.2049,-491.3594,-229.9982
-186.6425,-177.9321,-181.4100,-164.0277,-242.1990,-301.2313,-240.2894,-271.7516,-67.1366,-236.9424,-244.5557,-172.2091,-226.9805,-120.6156,-180.1442,-96.0345,-151.5357,-417.5503,-169.2194
-322.3692,-201.8509,-196.3687,-178.3222,-213.8389,-171.2133,-265.7300,-117.1179,-25.5800,-75.0257,-432.0354,-215.1536,-177.5637,-110.1347,-174.6259,-23.3733,-233.3138,-314.9366,-104.4849
-434.2458,-267.6539,-215.8004,-226.5830,-194.4010,-83.8296,-270.1302,-26.6797,-22.4017,-0.0433,-453.2347,-253.6229,-184.0267,-124.8061,-187.0311,7.8268,-258.5752,-224.6528,-47.6958
-319.5024,-292.8112,-250.8561,-251.7231,-175.2896,-16.7238,-180.5612,-0.2699,-30.7078,4.7199,-210.6082,-242.2249,-216.4838,-92.5736,-98.9050,-11.6104,-216.8144,-137.3183,2.7686
-194.0233,-266.7725,-273.5958,-257.0524,-147.5446,32.8197,-49.1161,49.0439,2.3767,47.3736,-73.3721,-221.7256,-184.9373,-59.8017,73.0394,-35.6178,-182.7303,-11.5499,86.1813
-226.2576,-238.2032,-253.1404,-259.0931,-70.3771,74.0470,77.4885,147.5798,96.5961,153.4909,-170.5223,-212.4466,-84.9634,-44.4684,189.1701,-21.0261,-206.8896,119.0771,193.3272
-259.9837,-219.0158,-230.2144,-237.6744,32.1037,132.9892,171.6991,234.8127,188.7386,250.7657,-239.9649,-184.6931,-14.8630,11.8205,206.1693,43.9089,-257.5682,191.2129,242.1360
-221.7515,-180.1733,-265.8320,-189.0557,50.9222,194.7625,164.8288,267.2384,191.8854,280.6949,-202.2233,-135.1827,-37.5253,86.1455,178.3244,126.2132,-290.8413,217.8348,186.4320
-204.2010,-132.8602,-343.3985,-155.5104,-20.4934,199.7237,55.5279,252.3565,113.3874,257.4688,-171.5698,-103.1995,-105.8689,73.6732,129.0386,164.0187,-300.3743,221.0850,87.1720
-181.4122,-126.5462,-362.5659,-157.3057,-60.8575,131.2476,-32.2275,222.8076,62.2725,243.2151,-124.8064,-111.9506,-132.0508,-22.1321,81.2341,149.0512,-275.0763,176.6153,51.4269
-100.6005,-152.1075,-251.3088,-162.8401,-23.1534,50.7426,-7.1142,214.5258,107.0035,261.6957,-34.1684,-134.4175,-80.7340,-75.5595,89.8599,135.4377,-199.5194,103.4680,104.0733
-27.0146,-139.1579,-72.2133,-140.9260,38.0512,15.8027,84.5095,219.5803,184.8020,258.9187,30.4575,-122.0505,5.8410,-34.2521,151.3343,134.0569,-102.7596,52.6992,152.0329
22.4083,-60.1460,46.2381,-78.3277,87.1657,8.6312,137.5258,186.8227,202.2864,194.2310,79.4891,-50.6282,52.2849,20.6318,186.0736,109.4060,-24.2079,5.5205,122.2452
84.7636,50.1881,66.9380,31.0834,98.7093,-19.1704,103.3497,106.0918,156.4518,100.7252,136.5680,67.5314,28.7792,26.9178,131.3547,76.4015,37.2970,-61.6712,56.2842
119.0852,162.0420,55.8174,161.6925,56.6205,-57.1585,37.6676,27.6384,103.7429,24.0529,137.7491,190.7816,-13.6983,25.8125,3.6166,76.8110,93.7018,-82.8139,10.2864
126.2539,258.9897,79.0405,263.9238,22.1855,-46.6986,25.0787,-7.5904,81.8274,-8.7618,115.9820,265.6099,-10.8148,63.5504,-97.9266,107.2927,154.7237,-4.1076,-1.6451
199.4965,312.6083,150.9990,311.7041,53.0095,20.6442,66.4160,5.8290,97.7289,15.5493,189.3344,275.8753,33.1204,108.3872,-65.2141,153.7590,238.1721,120.6311,50.9341
319.4043,305.6355,238.5858,302.6168,110.1558,88.5953,124.4036,46.9785,133.9015,55.9419,319.7607,257.7021,75.7234,109.9272,81.1274,203.8142,325.9236,221.4687,158.6870
356.6523,257.3836,296.5658,253.2140,156.9730,129.4253,208.4466,72.0075,159.9438,51.4324,369.1354,235.0707,110.9250,80.1551,187.9843,203.7657,366.5541,293.8703,221.8743
290.1617,204.9171,313.7386,214.9745,203.9406,166.6596,293.1402,60.1923,163.7320,16.4266,311.8616,198.3412,145.9009,67.4174,164.2782,124.5205,351.3639,344.4470,200.1458
211.9921,166.0252,299.1627,215.9451,220.0566,200.7390,291.6276,35.6948,143.9139,-5.4365,228.5459,159.6031,150.4810,81.5027,92.8299,38.8659,306.6365,352.9328,166.2244
180.4528,133.9359,255.7841,213.4559,176.8402,203.0751,216.3887,12.6113,97.6507,-22.5912,197.5633,148.5949,108.9017,104.4263,89.4922,22.2437,241.0501,315.2034,151.9819
185.5595,123.0054,207.8283,185.4113,129.6463,181.9377,181.6449,-6.3092,59.0855,-34.0646,219.7149,164.1821,69.0806,152.6529,146.4303,44.7308,179.7314,252.2103,132.0234
188.3357,164.7881,183.2937,171.8284,113.1836,173.5226,193.3017,7.4092,67.7734,-4.9931,219.7309,186.8484,64.4127,235.9699,183.6695,40.9525,162.5138,166.7938,112.2614
162.1949,217.1716,165.8717,169.2419,81.4573,175.5632,149.8064,50.5102,78.0696,47.7322,174.1564,196.7845,57.3132,286.6825,172.4601,8.1785,161.6851,53.8018,81.6185
128.2724,191.7393,147.0176,131.4817,26.3738,153.5419,54.6448,66.6633,31.9457,70.0691,153.9513,172.1372,26.8308,255.3635,135.4327,-18.4667,125.5122,-49.3702,17.0688
132.5875,113.6451,154.7527,85.3532,-1.1079,112.7016,16.1025,50.7844,-14.1714,56.9337,187.7995,127.6427,16.7172,212.6216,95.3064,-29.0524,87.6221,-92.1659,-20.4963
179.6935,88.7259,162.1346,87.8053,1.8475,111.9296,55.2934,53.1889,4.7340,39.0569,221.2360,108.5264,40.9370,220.0659,81.0946,-32.5041,94.0793,-76.5509,17.4073
204.6790,109.6661,102.9661,108.4465,1.9468,175.9598,98.7421,76.5842,37.8693,47.1873,200.3154,106.5114,61.0481,225.1095,114.8720,-12.3234,93.5292,-26.3657,63.9538
141.9017,88.3653,6.6485,81.9748,20.2571,240.1535,138.6672,107.9805,50.4336,112.1119,109.6920,73.1959,92.2691,201.4625,168.7140,52.7928,29.2922,57.6524,83.7335
34.7902,26.2296,-34.4059,7.7838,101.6183,241.3190,227.8003,170.9077,100.5164,214.2314,11.5225,16.6639,183.8456,200.5860,207.0181,116.5826,-51.0762,150.3455,123.3693
-11.9750,-20.8356,-4.8477,-66.4921,216.6057,206.7223,326.9736,233.9856,179.9315,266.2809,2.0411,-17.1590,288.9496,200.1336,241.7541,103.0022,-75.2034,199.6362,155.5841
-1.4344,-38.3259,45.6035,-86.8354,279.4523,188.3500,341.1841,225.7477,202.8366,227.8047,43.5197,-15.1709,322.8700,142.0423,272.6779,40.9775,-40.8779,217.5997,118.5967
-0.8497,-10.2108,90.1087,-21.6154,268.7747,190.9269,294.1518,183.3140,185.9047,172.1884,33.2017,24.3613,308.5528,96.3167,255.3165,37.8087,27.3733,258.7764,68.0160
29.8320,77.1113,132.7316,93.3828,243.5086,209.2012,273.1432,190.9059,215.9118,176.6179,28.6769,102.8464,297.1957,138.9662,195.1070,102.0329,116.5684,297.2170,81.2412
140.9735,162.6832,177.8881,172.7297,218.0070,230.1716,252.7747,215.8209,278.9490,214.0324,115.9225,172.6489,256.0566,185.1265,162.6954,140.9341,185.0273,262.6455,123.1492
236.7216,171.2138,210.3183,163.6582,149.2466,199.8600,173.4032,189.4911,297.4526,212.0035,202.5798,165.0440,182.1409,147.1936,173.8391,121.6442,182.7473,174.7030,119.3802
232.6995,112.3568,208.4134,83.3927,64.6090,98.8488,85.1124,134.7197,249.8949,164.3960,205.9747,83.7112,148.5687,74.8177,170.4830,83.7674,129.6367,102.0434,49.6216
194.2360,48.7778,181.4002,-2.9441,27.0556,-6.5031,38.9547,87.0886,167.4456,116.1916,188.9606,8.9346,142.4204,22.2079,130.1800,39.5144,85.3282,38.9972,-37.8003
184.4925,26.8115,146.1546,-31.7305,-4.7805,-66.9832,-5.5928,39.5585,104.5804,80.3831,188.8552,3.4790,79.7581,-16.4081,84.8085,-11.9067,55.2732,-54.9160,-64.2928
183.5340,53.1112,97.5941,0.4426,-92.3438,-95.3559,-69.2664,1.8108,91.9317,44.4967,190.3339,47.7239,-10.4130,-26.0273,37.4923,-44.6353,19.1833,-149.4199,-41.5276
179.1037,88.1647,60.2831,36.5591,-183.4526,-90.9493,-132.4695,-20.4444,66.3185,10.1287,202.8195,75.2206,-52.1705,-4.8666,-39.6088,-56.6511,-1.1679,-176.8843,-72.5178
164.5500,77.1334,66.8787,22.3765,-214.1351,-58.9419,-200.9357,-55.7041,-27.6709,-31.0844,185.7766,48.5266,-75.3471,-9.9071,-115.3902,-73.9405,0.2780,-137.3933,-148.9745
123.5193,8.6832,64.5046,-49.1554,-191.8727,-63.1381,-232.8576,-99.9145,-88.2815,-87.3421,107.2863,-14.8560,-100.0284,-63.0504,-97.2823,-94.1564,-21.2476,-99.6321,-147.3322
92.8133,-61.1355,2.3137,-124.1251,-116.3221,-130.1726,-145.4989,-117.4179,-8.0359,-116.6301,68.9189,-60.1411,-55.1892,-120.4641,31.8818,-107.7149,-69.0460,-99.3708,-70.4541
109.7651,-52.6517,-52.8062,-122.5632,0.3723,-184.5892,10.4181,-106.1680,116.3187,-82.9759,122.0427,-37.3974,52.1425,-152.7269,150.1264,-129.0705,-91.4818,-89.0344,-32.5233
128.0888,27.7475,-46.0794,-49.1643,78.3102,-168.0852,90.7158,-74.7843,135.7346,-26.9758,149.8368,25.3343,113.2215,-151.8655,146.7706,-150.6272,-74.5350,-25.2010,-41.6336
108.2902,63.8525,-11.7349,-4.8675,89.5076,-120.8341,73.6413,-26.8150,69.3932,5.6664,102.2291,39.7218,107.8586,-105.2441,65.4116,-143.2019,-34.3029,41.2090,-46.5894
94.0224,15.9956,62.3992,-14.9530,98.6015,-96.6705,34.8297,1.2207,8.4381,18.5497,70.8484,7.1085,103.0493,-29.7349,16.2822,-120.1871,36.2594,45.6154,-70.2852
135.5069,10.4774,198.9532,15.3948,113.5256,-85.0250,-0.7456,-7.5235,-31.1662,13.7692,111.6979,28.9016,101.7938,30.0101,26.0459,-119.5123,128.2450,30.6298,-111.9893
235.1312,107.9891,296.9350,112.5813,86.1511,-41.3863,-31.5376,-4.7113,-54.7895,1.1356,219.4650,117.7022,65.7714,53.4775,46.3379,-134.6500,214.7761,70.4542,-101.3027
352.3266,193.4918,292.9464,192.2236,43.6892,46.0725,-36.2753,28.5005,-40.8613,20.7660,348.5271,181.5281,14.4778,57.1411,34.9431,-123.9975,308.2455,134.0098,-37.0111
413.7711,212.2626,295.7226,230.2015,42.3689,135.6936,-17.7153,56.9607,5.3198,68.1659,389.1171,205.7848,-1.0859,76.3929,-17.1835,-72.1149,406.7580,150.1752,14.7195
384.1581,243.6815,365.3366,273.9633,71.8673,179.6637,16.3158,84.8558,43.5942,95.4759,316.8696,243.8578,31.4245,126.9007,-80.7309,-19.4160,443.9974,138.5310,47.5829
306.8775,295.4852,401.1364,308.5901,108.6641,172.0018,77.1877,124.8505,52.6586,105.2052,249.8002,276.8178,77.2719,163.4599,-96.0983,-16.6579,397.7034,153.7053,87.8666
227.1277,297.3838,344.1751,288.5210,156.3058,133.9612,152.1823,134.1763,57.5462,119.1292,224.0646,263.4426,106.4363,133.3782,-27.5264,-35.3086,333.4247,179.7751,115.3171
162.2261,253.2769,254.5929,236.6537,205.9050,88.5954,211.3395,106.9475,90.0176,114.9470,177.8515,227.4187,135.3554,64.0216,84.8064,0.5951,282.8536,177.6135,106.2213
139.9295,199.1461,190.2972,189.2550,234.1057,57.7961,231.8414,97.0902,117.4573,87.5669,146.3386,186.3310,168.9253,18.1920,144.6618,64.7719,213.7766,149.1797,71.8811
152.3454,127.3991,159.7764,127.9099,218.4074,40.4772,175.5406,89.0058,76.3670,55.6660,166.5090,119.3742,151.6962,3.8468,89.5108,60.8973,131.0278,99.1184,30.0717
138.4061,43.0304,138.5914,36.4044,152.8212,12.2017,46.4896,23.8148,-2.2338,1.0298,149.9363,34.9518,73.5566,0.6380,-33.6626,15.4121,87.5464,30.7142,2.6922
92.8511,-22.3006,98.5116,-40.2126,87.5369,-11.5512,-40.3941,-48.1559,-18.4158,-55.2879,74.8056,-24.6047,24.9529,19.6679,-107.1835,37.3950,104.2684,-2.7915,17.1023
82.8443,-32.5973,68.8882,-31.6555,84.0097,30.5764,8.3183,-20.0174,37.6430,-15.2066,50.0834,-20.2818,45.6465,83.1868,-72.8645,121.5382,149.8220,49.1631,73.3019
133.3364,44.2069,102.7187,64.6570,115.1616,137.5785,113.9993,99.5989,85.0434,122.6110,109.8898,55.3433,62.4347,171.4136,0.6315,190.0821,183.7956,129.1816,134.0911
202.8147,153.3429,174.3596,146.9169,110.6499,211.1448,129.9188,194.3844,69.8225,213.0674,188.8954,136.8344,38.1323,218.9033,2.9247,227.7116,192.1334,132.5613,143.6262
240.1296,174.4152,207.5616,132.4366,67.0947,197.3175,29.5235,188.8878,-17.4820,180.1695,238.3236,143.0627,17.5597,196.6729,-74.0212,228.8982,179.1295,73.8604,65.9685
208.7191,123.0952,170.8897,90.7988,27.5111,177.5672,-76.7660,126.4260,-137.3416,108.1202,220.8264,106.4009,20.8405,173.8764,-123.3853,172.2342,141.4202,67.1307,-50.5129
124.3359,127.4439,96.7717,131.8930,17.5804,221.8859,-78.8470,91.2400,-187.7028,72.8828,138.1715,118.7181,30.0602,204.9511,-87.8230,102.8607,89.7618,128.8086,-102.8843
66.9507,185.3779,53.3657,219.7761,36.2770,249.9102,-5.3392,78.4215,-136.8356,40.4368,78.9918,171.7305,40.1050,220.4793,-50.0434,69.0413,66.6167,152.8300,-80.2625
91.5114,206.1066,72.5673,251.5950,57.3556,181.5888,27.2349,23.0289,-89.4112,-27.3804,102.0087,194.0774,48.7645,166.9969,-70.8761,35.0949,89.0264,116.5212,-62.5656
166.5352,196.4391,105.5783,227.0924,71.3307,103.9872,21.6481,-49.8382,-84.7609,-77.1173,163.6812,173.7409,57.5053,119.3093,-62.6503,-7.3122,131.3038,123.2924,-42.2673
217.5385,179.1580,118.1645,195.5985,116.9394,110.6779,95.2408,-45.8624,-26.4163,-41.8392,209.1881,134.9105,82.7582,116.4613,44.3098,1.5675,175.4066,188.4912,53.1385
184.2565,126.9381,131.6314,160.4290,188.3733,136.9239,227.2880,34.4113,79.2613,41.9530,198.0131,94.9291,117.8327,91.0406,147.8355,47.3102,193.5499,207.8080,152.6179
77.7266,88.6486,120.9063,134.5587,205.5224,125.9285,252.4636,101.3306,87.0492,88.9393,104.0540,86.6123,134.6473,45.8748,122.3585,56.1749,145.7600,177.4014,118.9726
4.7212,126.1357,65.2733,150.9326,167.4817,142.1377,150.7901,117.7367,-12.4508,93.3897,5.6126,120.7459,134.7859,57.5435,6.8539,43.7131,85.6283,192.4169,17.8651
49.5784,164.7418,56.6742,186.2009,160.1090,194.2730,75.9881,112.3586,-58.8788,93.7784,27.0260,149.9522,129.8875,105.1792,-56.4198,61.2028,125.2146,234.3278,24.2696
152.9883,145.8430,130.1598,203.3702,166.3568,198.4075,80.8277,99.7239,8.4333,80.6677,141.9189,148.7240,102.0307,120.2078,-9.4715,70.4033,238.2973,214.5847,120.3192
208.5231,152.6079,168.4194,222.4158,101.2475,154.6514,72.8931,72.1410,73.6582,48.3647,214.3328,154.7670,43.1771,114.1667,56.8903,23.3228,299.8221,154.2095,158.3566
205.6343,213.2807,145.1719,248.1126,7.7517,121.2561,18.9981,40.9264,38.9139,42.9545,205.4837,182.4125,-13.4380,109.2498,38.4171,-31.7359,299.9295,100.9369,114.3485
180.2863,234.1503,153.3984,241.2958,-18.9431,91.7253,-29.1393,43.4202,-55.9424,88.0912,166.7579,196.9125,-30.8110,97.1760,-34.8829,-25.4745,296.4959,22.4448,53.0723
126.5294,202.7299,154.9052,213.8478,-4.9334,71.5483,-62.8210,98.4569,-116.7357,155.8905,106.6157,191.6862,-4.8441,102.1007,-78.4697,33.3045,260.4239,-67.0386,-4.6985
39.7668,187.3236,66.5462,200.1744,-10.5498,95.9281,-97.6316,167.4422,-117.0633,214.2219,10.5637,178.5411,31.3061,121.2521,-98.9644,89.5509,158.6116,-93.9931,-32.9411
-38.2991,157.2523,-24.4141,149.9131,-17.9727,100.7203,-95.4750,192.6976,-97.2606,226.5608,-76.9186,120.2862,36.3483,83.3361,-115.8421,109.5341,46.2792,-95.7510,-1.1139
-66.6982,55.1326,-34.2886,22.5466,-7.7216,6.8684,-29.6965,151.6663,-79.3349,157.5049,-90.8529,3.4548,16.4217,-13.7346,-77.2036,78.7293,-25.1453,-155.2474,28.3297
-49.7518,-37.9364,-27.2832,-85.3894,11.5707,-105.9344,51.7499,51.7835,-54.0618,29.8322,-38.6181,-74.7179,21.9106,-76.8897,5.5038,-4.4945,-54.9848,-212.6906,-7.7047
-29.0711,-28.9376,-38.4346,-80.9661,54.4364,-123.5940,99.1310,-65.3310,-32.0545,-83.1427,-3.8188,-44.3154,62.1600,-74.5192,33.2234,-91.0280,-49.0509,-179.2920,-40.5160
-43.5891,13.4235,-39.9034,-30.0803,107.4621,-74.6671,107.9774,-125.3679,-30.8640,-130.1871,-44.3157,5.8415,80.0888,-53.6335,4.5207,-116.5697,-27.2508,-115.5002,-3.7788
-78.0553,2.2189,-50.9311,-20.0123,110.7321,-37.7196,82.8198,-109.0771,-34.6028,-114.0647,-106.4018,-4.8232,46.8884,-31.4612,4.4813,-101.2755,-11.2402,-104.9106,42.8760
-78.9149,-0.4491,-61.9936,-8.9755,71.3752,-18.5445,46.8467,-74.1643,-15.6744,-73.2575,-95.2430,-8.4030,14.1669,4.9248,30.1110,-97.0520,17.2672,-111.3322,59.0609
-47.6567,57.2059,-27.7995,50.8859,56.8988,16.3090,44.5377,-40.3478,33.2374,-37.6446,-26.3788,33.5741,22.1998,56.0394,25.3006,-66.6152,63.0436,-86.8592,95.3181
-36.5549,82.4132,0.7739,94.0693,59.6127,81.3651,61.0042,7.8169,89.2518,-9.7863,3.2446,41.6464,28.1126,108.9623,-5.3509,14.0895,90.7696,-62.2878,143.3634
-19.8038,47.8855,-12.8632,81.1137,32.9722,140.5894,38.1226,18.3551,103.1895,-9.4858,5.5020,27.7996,-2.0198,128.0423,-30.2536,42.8072,115.2923,-68.1671,130.1326
94.0108,97.5394,40.5424,111.0536,19.5735,133.0671,4.3388,-41.3671,62.7178,-58.7943,91.2907,115.6154,-11.6216,99.0752,-19.4831,-21.6824,194.5899,-84.4554,76.6926
280.7701,272.2308,205.3288,250.2051,74.6470,78.2642,38.0843,-84.9797,34.4823,-96.8464,249.3288,286.8093,39.8602,86.9534,45.7714,-52.5382,310.0350,-81.6221,69.6105
407.7022,407.6070,342.1011,384.7424,144.4810,65.8014,118.8578,-57.3830,69.4520,-54.7249,354.8220,389.3152,90.1410,137.2897,105.4253,-6.4211,376.5408,-57.8747,114.1376
448.9601,427.2076,356.2928,396.6895,162.4356,98.7470,176.2407,-25.8346,127.2950,-1.5991,401.8592,390.9493,89.6558,177.9970,91.3648,-14.3738,360.4101,-45.1587,159.2741
486.2275,434.5056,297.7979,346.6660,158.3473,95.3425,214.2638,-28.0272,158.8505,-20.5410,466.6865,379.8678,77.2859,144.8654,76.3685,-105.1632,303.0378,-68.3068,191.9557
500.3493,459.1284,216.6573,326.8521,171.1061,55.4007,255.5921,-15.0609,169.7256,-29.6777,488.6613,377.2013,76.2266,98.2057,154.2779,-133.5894,248.2740,-93.6082,217.8542
403.7448,410.5133,126.1595,293.1571,166.9791,58.4089,265.9145,34.5116,164.1334,48.1312,375.2495,335.3582,55.6655,107.7218,241.9205,-53.1057,189.1366,-80.7839,219.4480
250.4677,288.7293,60.3173,198.1122,113.2055,109.6902,210.9595,85.0636,120.0100,107.3250,219.6757,255.2581,14.1885,141.2094,209.3000,-0.9727,99.7444,-68.2851,170.1903
175.1758,200.2454,54.5698,117.4419,42.2601,128.7705,108.2297,94.8921,37.8728,65.1829,156.4834,194.6542,-16.0326,136.3232,96.5996,-61.4699,15.5356,-106.4862,73.0601
176.6486,185.4359,106.9477,111.9059,4.4318,78.8861,14.9294,54.6339,-37.0278,23.3980,158.1425,184.7705,-18.9905,87.4374,34.2811,-127.8334,4.4591,-157.2274,-6.8202
160.7581,183.3539,161.3443,127.6772,2.1809,12.3365,-17.6011,17.2247,-54.5572,59.0392,146.1118,183.5907,0.2846,27.0835,44.6594,-84.2079,38.5454,-176.9258,-4.9932
115.2217,141.7232,144.1211,108.8471,-13.8819,-30.2121,-20.1853,24.5434,-29.6543,88.3872,116.5359,139.7542,3.1329,-29.2987,35.7382,-17.7547,25.9768,-209.1012,22.4617
92.4875,80.4881,73.6627,66.7588,-77.4248,-93.1518,-69.1807,13.3580,-33.3890,41.3588,89.9665,80.3616,-48.4350,-92.4951,-39.3085,-81.2330,-25.4244,-279.2334,-27.2152
105.1882,49.7843,47.6646,31.4923,-144.7041,-202.8719,-137.7155,-61.5562,-67.8540,-32.3617,89.5552,62.9113,-105.2029,-151.7674,-95.0464,-206.9316,-36.8405,-315.0782,-110.6913
118.1252,57.9763,72.7268,30.2820,-158.3587,-265.6107,-139.4748,-102.8160,-49.6716,-63.7666,118.0509,74.5958,-100.6313,-164.4990,-48.4189,-219.7765,-17.2885,-266.2648,-105.7810
80.6160,61.2823,51.6299,58.6522,-144.4313,-204.7678,-96.1315,-33.9356,31.0381,-25.3994,92.1322,62.3281,-78.2165,-133.4378,29.3828,-157.4486,-37.1742,-180.2507,-17.3625
-27.4586,17.0969,-45.2955,46.2029,-148.1391,-108.7568,-59.7532,69.0919,90.5120,71.8016,-41.9647,6.5108,-88.1094,-122.7126,27.6969,-154.9085,-95.8728,-105.4812,76.9192
-143.7639,-67.5253,-141.1140,-47.3905,-132.4765,-77.3922,15.2176,131.4848,107.7552,166.5998,-166.2226,-78.2240,-74.9757,-146.3282,-21.9445,-157.2360,-138.6442,-37.4947,166.6457
-188.5459,-138.1811,-166.7627,-143.6686,-56.5959,-46.2978,139.5694,185.9012,133.4206,216.2462,-172.7805,-147.3471,-10.7640,-135.9466,-26.3895,-70.9995,-152.5634,28.9733,248.0701
-186.0582,-156.5683,-134.8220,-165.5659,26.7965,66.1064,218.6791,269.6461,180.1960,270.7614,-151.4660,-153.9186,40.3118,-63.6336,12.4115,20.9744,-166.6627,85.0654,290.9002
-212.9224,-147.9442,-127.6743,-146.1931,53.3232,185.4659,215.5872,358.6111,228.8202,364.0461,-199.1813,-118.5819,52.9241,10.5359,39.2861,41.0670,-193.0597,117.5060,316.5576
-258.7704,-141.5918,-195.9933,-129.7967,36.2074,208.2762,178.4656,405.4137,259.7417,414.9350,-246.0207,-96.9251,52.7891,42.4378,43.7887,43.5861,-209.3511,102.8347,338.8445
-256.8576,-128.4664,-260.7234,-108.2844,18.6374,158.2744,131.0483,387.0099,245.3432,371.3883,-216.8976,-93.2417,42.2081,47.5948,51.1307,52.9014,-192.0579,52.0653,301.6946
-193.4587,-129.4419,-211.3403,-99.1117,23.0762,108.4309,103.7301,341.4533,204.1664,321.9015,-148.1037,-97.5063,42.4008,29.1123,74.9385,44.6042,-142.5024,32.9717,214.9246
-100.1310,-166.5811,-64.1374,-124.5749,52.5186,80.1076,135.1697,330.6898,194.5668,341.4148,-76.5770,-114.9546,81.0786,-23.3765,98.2249,56.2513,-68.4407,75.1936,177.5020
-16.2514,-157.1366,93.0149,-124.7089,81.6641,82.7034,167.1859,354.1897,204.0376,379.9629,-6.6848,-103.1018,108.3713,-54.4160,100.6555,106.4103,18.6044,112.6824,194.6930
17.8930,-46.3195,211.4209,-48.8142,76.6559,124.4606,124.3935,364.9328,180.7533,377.0391,30.2190,-29.2866,75.9327,5.7480,92.4723,131.6908,78.3041,74.2086,181.3639
17.1313,34.8748,250.7479,25.2071,41.5083,150.3647,54.5320,337.0173,146.2872,331.4367,29.7581,30.8401,26.5057,98.5364,78.0605,111.1905,79.7040,-32.0649,128.6102
49.0858,-14.0107,191.9358,7.9065,8.8951,94.7385,34.6481,260.3867,138.2454,242.9472,45.8012,13.8734,6.5509,97.0433,43.5900,87.8673,57.5578,-136.0394,85.8128
107.2407,-77.1861,120.2335,-52.0917,8.3887,-2.9611,68.1865,138.1959,139.5104,113.0838,82.9756,-21.4226,22.9850,7.6274,29.7147,63.0098,63.7923,-163.5175,61.3774
110.0929,-57.4604,136.8118,-58.3707,56.4397,-53.8178,133.5047,13.8842,136.8512,-15.2618,80.7726,-21.6560,81.4363,-53.4459,86.2014,19.8803,93.0202,-100.1155,45.3224
56.8120,-22.0176,199.7369,-11.7082,126.3785,-43.7425,187.2493,-55.4819,129.8306,-87.0929,33.2828,-6.6470,138.7794,-46.9837,147.9625,-7.6072,101.9091,0.8605,34.8938
15.1378,-7.7490,182.7637,31.9725,151.9991,3.0238,179.9287,-43.7319,112.1943,-82.7051,-9.1171,24.7963,125.1754,-10.5480,139.0822,7.9214,59.0948,94.9544,26.6646
-17.1072,23.6479,54.4353,59.6305,112.7546,78.4265,152.9197,20.4883,113.5679,-40.6955,-39.6357,79.0044,71.2453,44.2537,116.5012,30.8371,-25.7372,169.2909,30.2092
-68.7667,51.6065,-87.0359,82.4848,59.0075,132.2971,163.9651,51.3456,133.6441,-34.2930,-78.0321,105.0087,50.8137,99.7268,118.8033,13.4464,-84.7205,198.0758,34.6107
-106.8829,45.8706,-135.7687,89.9715,34.1527,110.5385,151.7348,2.5042,80.9484,-76.9597,-107.2218,75.9063,50.6550,115.7483,66.9094,-33.1830,-62.2075,177.5878,-2.7054
-113.8270,33.3080,-95.9277,72.6432,42.0356,65.9428,65.8637,-51.3092,-52.5652,-105.6898,-108.9184,32.4062,46.6544,111.2412,-27.6922,-42.0824,-11.3017,151.6497,-72.7293
-117.4547,14.3326,-57.8724,40.4675,59.5014,66.4648,-24.2125,-48.3067,-132.8135,-104.8435,-96.7732,1.1883,55.9873,130.9408,-31.7160,18.9150,-14.9793,118.8453,-127.8150
-110.0744,-26.4403,-65.2035,1.1758,37.2480,74.1455,-82.4153,-47.5475,-127.1683,-122.9820,-85.3487,-18.0533,48.3061,153.2960,49.6169,83.8559,-49.2248,34.7928,-170.8450
-77.7954,-48.4150,-68.4789,-33.1332,-26.5874,58.4685,-132.9364,-84.5489,-131.3502,-156.9845,-77.0641,-13.2653,8.1875,147.5873,79.0204,76.2390,-45.9124,-61.4107,-199.1672
-48.3323,-21.8153,-20.7564,-27.2308,-34.9407,59.3254,-130.4440,-107.7535,-138.7337,-175.2552,-60.5213,15.2258,26.2009,135.4940,46.4932,16.6268,-16.1310,-92.3816,-175.5042
-15.5032,26.2633,52.5328,33.1451,59.2849,59.3509,-53.3858,-115.3766,-89.8769,-197.5382,-15.5470,48.3252,132.7202,126.0451,49.9065,-25.6640,-4.8770,-77.0469,-144.5547
41.1144,63.9996,88.8220,93.3005,148.0276,8.4661,-3.9525,-141.2175,-39.5695,-222.3956,32.7326,70.1065,206.6757,92.9962,86.7484,-23.7398,-11.1308,-61.3372,-171.2360
52.3300,59.6528,49.7263,85.7863,142.8336,-46.0636,-31.7326,-155.5066,-30.4994,-209.3062,18.7374,53.5068,178.5017,28.3225,77.2515,8.6524,-26.1265,-31.3452,-187.1762
-39.4636,2.0174,-42.0676,20.5722,93.8803,-51.0375,-67.6870,-152.6610,-18.7934,-191.9469,-58.4183,-8.4889,107.0544,-48.9369,10.3781,38.2572,-67.5539,7.1605,-138.8518
-146.9153,-53.7294,-112.1687,-38.5330,50.4579,-47.4507,-89.6166,-180.2499,-31.4829,-227.6597,-131.0865,-59.7372,37.1155,-106.5042,-62.7706,28.2890,-129.7777,26.9618,-114.0824
-166.5826,-68.5617,-106.9165,-66.1945,14.1774,-56.9348,-111.0078,-206.4189,-113.4576,-264.0239,-165.9738,-64.4206,0.2911,-121.7483,-101.7289,-11.8957,-159.8085,56.6094,-126.1182
-122.1051,-78.7551,-62.2019,-82.6077,32.4371,-49.0217,-85.4626,-170.6042,-159.4651,-232.5127,-167.8842,-69.0482,59.8325,-121.9921,-83.8858,-32.5743,-125.0036,99.4864,-73.2246
-97.7245,-98.1323,-78.7720,-96.1215,108.7470,-39.1713,-29.8298,-113.4517,-84.0136,-165.0886,-151.2964,-103.9486,167.5944,-136.2522,-16.7545,-15.9923,-84.5165,79.0834,7.2620
-143.9343,-113.1500,-208.0335,-109.1521,112.0223,-51.2239,-62.6127,-73.8610,-7.5287,-103.9516,-168.3914,-141.7301,155.5816,-130.4659,32.0095,19.2593,-128.8369,-18.5252,-3.2492
-234.9239,-161.8273,-366.1445,-149.2570,-18.4856,-67.9622,-194.7757,-28.1965,-47.5293,-55.4557,-235.4198,-178.2072,1.0964,-97.3235,-0.0318,50.7253,-237.8534,-114.3201,-63.5302
-267.5943,-239.4365,-417.5391,-214.7922,-151.5157,-101.9009,-299.5634,-14.6093,-130.6473,-55.7571,-262.6714,-212.8254,-122.7070,-104.6416,-70.2014,36.5231,-295.5569,-182.5645,-93.2298
-194.0818,-242.8779,-349.8901,-232.1810,-194.8645,-161.2487,-325.2283,-79.5988,-162.9292,-115.8821,-206.3221,-197.0833,-136.6692,-153.7793,-104.6761,-39.3131,-257.0687,-246.1696,-129.0211
-113.3000,-155.5609,-268.5963,-161.4745,-217.0190,-182.0319,-335.1088,-140.6162,-178.9227,-157.4646,-157.7300,-133.4758,-151.4056,-162.7238,-139.5054,-91.6568,-184.0368,-282.1862,-177.4729
-113.1089,-101.3602,-223.5976,-89.7224,-258.0500,-152.4225,-358.8087,-125.9461,-223.5530,-132.2581,-172.2889,-111.7291,-225.9152,-135.0839,-225.6361,-46.9066,-123.8452,-278.0806,-181.4881
-149.6136,-137.4422,-177.5141,-109.2313,-263.3309,-158.4563,-357.3966,-101.5858,-252.8535,-98.6740,-203.9914,-155.3301,-270.1623,-147.7179,-279.3383,12.4086,-73.2706,-269.3252,-162.3495
-166.5839,-187.5467,-123.7025,-168.6356,-221.2933,-207.0007,-304.5632,-112.0103,-224.3885,-103.3126,-227.2502,-185.0597,-228.7224,-196.7150,-235.4909,-15.8681,-37.4352,-255.1183,-158.7144
-168.4895,-190.7158,-94.1850,-170.4296,-168.9676,-215.3658,-222.5603,-109.5385,-177.8150,-110.8407,-236.8199,-171.0728,-163.2554,-221.7461,-197.5729,-79.3631,-35.9909,-207.8879,-139.2009
-168.4032,-165.4754,-85.1008,-136.6916,-114.1230,-179.0464,-154.0681,-82.9029,-160.2945,-81.7935,-218.3563,-156.4647,-133.1066,-199.2122,-226.2518,-91.3516,-77.4945,-146.3496,-106.3546
-188.7840,-141.4037,-76.3165,-133.9465,-75.2959,-134.5934,-114.4246,-45.9168,-139.0117,-16.5558,-211.1903,-142.7056,-137.2996,-124.4656,-209.5033,-63.5664,-144.6416,-86.4552,-90.8809
-222.0802,-113.7839,-72.1914,-127.6495,-84.9419,-58.9922,-80.8448,27.0302,-66.8511,62.7362,-223.2951,-102.3800,-155.0133,-19.1895,-109.8224,-18.2072,-177.9107,-7.0982,-54.8737
-169.9114,-77.2693,-74.4611,-71.1173,-100.8304,26.0018,-42.0597,98.2628,9.4007,101.8844,-149.3899,-64.6132,-152.4689,34.0721,-51.3692,38.1400,-127.9337,66.2301,4.5662
-7.0111,-68.4805,-72.6617,-35.3163,-61.1845,27.1363,-22.7398,67.3046,7.3191,45.5156,11.9883,-76.5473,-109.2179,-22.2220,-69.6930,45.2445,-38.5678,71.5832,3.6556
87.3443,-116.9002,-73.9960,-90.7453,-17.4158,-48.4289,-37.1231,-37.2243,-52.0849,-60.8067,74.3370,-129.5232,-73.9946,-127.3186,-71.2595,-13.3728,-0.6181,23.2833,-53.2653
-5.5754,-175.4862,-109.3655,-173.0793,-57.6992,-92.9698,-67.2347,-74.6287,-82.0775,-90.6106,-18.0524,-181.1786,-108.8510,-169.0576,-44.8419,-41.6446,-45.3411,-18.1674,-81.7324
-126.7010,-185.5643,-201.0177,-198.4004,-153.3767,-82.4780,-108.9270,-23.9289,-93.0517,-17.6875,-84.9289,-202.5326,-190.0163,-119.8154,-65.2745,-7.8314,-138.2223,-54.2393,-109.9473
-106.0304,-158.2266,-304.3810,-176.6027,-215.0544,-72.7657,-181.8465,13.6469,-170.4538,46.5097,-30.5064,-184.5513,-244.1129,-55.3877,-146.3753,0.3751,-215.2205,-101.0306,-202.6962
-19.4299,-116.6967,-310.2576,-125.4380,-222.2793,-60.0158,-267.2076,14.0538,-283.4017,45.5159,35.9532,-133.7866,-237.8736,-30.8575,-237.3438,-28.8634,-214.6658,-109.8580,-285.1672
0.1078,-59.4422,-183.9099,-40.8574,-203.8825,-16.9364,-299.1862,30.4560,-295.6033,42.2392,31.9887,-70.3873,-190.6444,-14.4472,-278.8980,-21.1674,-152.9359,-60.1196,-267.8683
-14.9313,-13.0340,-52.6596,15.6639,-174.8338,2.4457,-249.2833,46.0943,-192.9875,53.7804,14.8997,-23.8251,-149.4898,1.4302,-226.8010,7.9509,-121.4106,-32.4493,-199.7037
19.0777,-5.2087,-47.3503,-13.9369,-143.9800,-56.4489,-162.1840,2.4400,-106.0328,15.5722,55.0302,-18.8746,-143.8970,-41.0264,-101.4145,-9.3487,-147.9606,-68.6342,-163.1156
63.5110,-18.3399,-129.6862,-63.4836,-117.9411,-134.8799,-94.6287,-75.1852,-94.8417,-64.5360,118.7566,-49.1428,-143.8050,-121.0353,14.9329,-54.7383,-175.7412,-87.0237,-174.1530
31.6844,-45.0925,-177.5382,-66.0354,-92.6231,-152.8273,-74.5205,-114.1938,-108.0668,-103.7115,113.2729,-84.2834,-116.0162,-145.9846,63.8631,-74.9854,-195.2273,-44.9412,-214.0678
-45.9790,-89.0969,-147.5380,-76.5919,-72.9410,-132.0099,-98.7692,-109.6885,-120.5927,-95.5744,36.9114,-108.9155,-87.2443,-129.4479,47.3549,-67.5638,-234.1881,-12.4388,-235.3104
-57.5811,-101.8545,-77.8522,-114.0199,-62.8506,-114.8703,-115.9276,-105.0514,-136.5213,-105.4117,-2.7073,-110.5667,-76.1045,-134.1914,2.1835,-52.1703,-248.4665,2.1704,-193.5422
13.1198,-50.3923,-21.7066,-82.2557,-47.6092,-73.6066,-78.4334,-110.3120,-143.0659,-140.9762,38.6692,-64.9519,-57.9230,-113.1552,-33.8481,-38.5779,-189.2000,79.1055,-129.8374
71.1902,5.6682,-17.4699,17.2677,-43.9409,-8.3360,-44.1413,-114.5362,-166.8906,-153.3493,84.4354,-1.3522,-52.1895,-35.2551,-63.9500,-15.9365,-110.1535,183.6080,-113.2875
65.2027,9.8341,-57.9711,43.6351,-99.5781,5.2273,-102.5523,-126.0657,-237.4527,-137.1096,80.2006,4.7888,-101.7581,2.5601,-103.5713,39.1833,-75.3272,189.0505,-128.0366
30.2812,-14.5766,-91.5989,-26.6307,-189.0860,-49.7966,-211.2811,-147.2737,-291.9017,-136.9675,47.8764,-36.5271,-161.2630,-46.1311,-108.2712,101.6566,-56.5688,108.2573,-137.2068
-3.8027,-32.5258,-95.8809,-64.2793,-231.0079,-102.1436,-266.2122,-158.4934,-277.6432,-164.2699,10.9716,-44.2676,-164.3435,-102.1874,-46.8676,109.7150,-22.0494,46.8161,-164.9028
-32.8681,-35.8943,-109.9459,-29.4859,-232.2563,-121.2480,-275.5981,-158.9185,-258.5000,-182.4698,-20.9867,-18.9266,-144.2824,-111.9064,-3.0952,75.5460,-16.0578,-2.1881,-220.2898
-46.6360,-15.5912,-153.6882,3.6881,-256.4908,-126.5626,-303.3525,-170.8386,-288.7629,-181.2198,-39.2407,-8.0175,-146.4454,-78.6030,-53.8385,71.1024,-68.9467,-86.4318,-262.0576
-48.6020,22.0993,-173.1859,19.4141,-272.4885,-115.7867,-326.4187,-187.5715,-322.6552,-186.6478,-47.8139,9.3975,-126.3088,-16.6764,-136.6683,100.4084,-116.4261,-149.9444,-269.3732
-53.2783,36.0822,-124.6281,39.2159,-212.5222,-102.0085,-276.5763,-178.4597,-301.0396,-191.6318,-46.0772,38.1012,-47.2667,11.6483,-159.3510,104.7839,-83.9515,-132.4752,-238.2590
-52.3284,5.5075,-57.8709,35.7648,-113.8910,-115.8897,-145.5412,-145.9579,-199.2911,-163.0277,-32.7734,22.9059,37.2710,-35.6156,-111.7234,72.4609,-6.9651,-65.9199,-161.7082
-38.9007,-14.7662,-39.1921,22.0688,-50.1844,-121.8348,0.7738,-117.6862,-44.6344,-115.0184,-25.8794,-8.0068,72.5471,-78.4310,-22.7099,53.6023,20.0645,5.7333,-88.8501
-24.3877,37.6250,-39.7219,62.7826,-24.3306,-75.7017,69.0509,-101.1959,51.7126,-91.1432,-15.7232,24.5112,74.8979,-45.7514,57.7171,80.4897,-3.7421,63.0555,-81.1256
3.8229,109.2031,8.3605,120.5195,-13.9787,-25.2968,40.8002,-93.0716,26.8060,-94.6619,31.8106,75.1495,81.5648,4.6111,71.8123,122.9619,4.8211,87.5039,-89.8626
59.3412,93.1509,96.0130,99.4009,-3.9236,-6.1921,14.4935,-91.9154,-9.4451,-98.1187,85.4883,62.8205,100.1094,26.4708,38.1437,143.7905,65.2252,107.0196,-34.1509
92.9328,18.9368,164.2822,39.9715,33.6751,45.2372,55.8333,-76.2347,39.7147,-83.9134,84.3231,28.3843,123.6388,75.8084,22.8809,159.4901,117.1882,175.8428,46.1407
61.0440,-1.7646,182.8482,42.2162,86.1467,156.0991,95.1443,-30.7758,97.9997,-54.7059,49.9655,21.4494,141.9020,175.0109,29.8036,185.1440,129.2527,267.8203,72.5644
18.4847,11.1448,141.6749,66.1397,87.7069,245.8338,75.2817,10.4551,103.2303,-29.4287,34.9588,6.5873,128.7735,240.7737,42.1138,194.0805,109.6152,310.1891,69.8245
26.3703,-21.9388,50.1796,30.5207,31.8218,260.7494,61.3412,23.0602,132.0157,-7.7465,30.3328,-27.3439,78.2930,212.3098,79.9197,208.3831,62.0096,301.5434,99.1385
46.5149,-52.9076,-22.8794,-15.9600,-1.6144,241.5071,109.8531,45.4603,213.4911,37.7857,22.0104,-46.9701,50.3344,157.7109,119.9839,279.5456,22.4766,288.7767,149.7006
37.4451,-26.8275,-7.4368,-8.3141,36.5085,237.6048,169.5333,97.3337,244.4641,92.5518,32.2173,-49.8948,96.0851,173.3448,111.0299,338.0002,39.9078,278.8686,171.4424
33.7360,-16.6083,59.1651,5.5904,109.0628,244.5131,177.6474,127.0659,173.9596,99.0223,51.4679,-43.3065,160.0013,216.6074,89.0805,282.2074,73.5975,241.1562,148.8278
31.9606,-60.8544,75.7411,-24.2139,151.4836,216.2609,153.5886,98.7990,97.0188,52.3677,27.7034,-37.2018,164.7838,170.5599,109.8004,175.8374,47.7751,162.5143,116.7597
-31.3283,-88.3929,23.6778,-61.1152,142.2301,129.1759,160.7539,47.0614,109.2475,2.3406,-48.6879,-64.8146,140.5268,56.3358,139.4396,124.3089,-5.2229,91.1371,115.1878
-109.5403,-73.9661,-12.8200,-62.4662,121.6382,44.5317,210.4712,16.2536,173.1834,-21.9892,-101.6812,-103.3277,145.3725,-5.8513,146.7446,101.4906,-3.1454,104.7974,125.9683
-71.1082,-50.8411,28.5712,-29.7527,125.8450,37.4042,234.4221,11.2596,186.8165,-17.4299,-51.5311,-75.1335,147.6235,0.0885,160.4167,68.2796,41.4445,180.3415,99.6994
63.3088,-5.0472,107.9673,22.8505,124.7128,67.2170,185.1692,10.3868,134.8646,-2.4384,67.5463,12.4828,105.1458,16.3807,173.8234,44.4709,60.6380,187.6529,43.9086
146.4897,70.3526,151.4961,72.4106,85.0627,39.0836,111.3880,-5.0115,86.3541,-15.2555,146.1340,78.8934,50.5223,24.2607,153.4272,14.2559,36.3451,99.3985,4.0449
141.0930,109.7272,152.4034,83.9153,32.6896,-36.2975,69.2411,-23.8470,70.5045,-39.3141,145.4409,89.9927,16.2104,-5.2043,119.7806,-26.6906,-12.1404,39.8422,-13.4615
102.0651,67.7280,149.7376,41.3101,-11.9461,-75.4045,44.7756,-16.4649,62.5997,-15.5145,96.1397,45.9697,-14.4254,-80.7441,96.9807,-23.3588,-49.5660,58.0967,-15.7841
38.2821,-5.1682,146.0649,-21.2997,-59.0297,-56.0971,18.1838,24.3251,57.1048,38.5474,18.3270,-23.8065,-52.1470,-100.4706,73.3806,11.2888,-18.6655,74.2225,14.1740
-19.7777,-18.8670,121.9243,-26.2739,-87.3738,-5.4281,-2.2864,81.9280,55.8867,71.7920,-38.3581,-25.3507,-84.1558,-11.3101,60.0995,10.9633,88.2401,71.2527,67.7142
-3.9182,47.4817,90.7594,58.0500,-78.5869,62.8862,-29.4562,129.1871,37.7570,98.2078,-13.3384,61.5032,-101.1997,67.5034,61.1252,-6.9334,183.3457,101.6583,97.7888
40.6436,108.3507,65.1797,133.6282,-69.3295,114.2264,-70.0154,126.0546,1.8291,106.0780,32.6959,106.9573,-99.7335,59.3318,26.9945,-8.3181,180.0809,133.6192,82.3705
17.8590,92.8220,29.2126,94.0519,-66.7661,93.9441,-75.5887,61.2556,-23.3811,39.7346,1.4560,55.4699,-86.5697,38.2303,-42.3642,-15.8085,92.1779,104.7995,41.2073
-32.0749,53.3374,-0.8578,6.1737,-24.1639,23.3370,-15.7069,-13.1832,-27.1563,-47.1367,-57.9299,16.2317,-73.4177,44.9232,-66.1041,-19.2646,3.9064,54.9406,2.3371
-34.0163,57.2234,20.3172,5.2057,51.9323,1.8548,64.9436,-40.7022,-16.0978,-45.7969,-62.8602,41.5181,-39.5177,56.5833,-28.8806,0.4658,-23.5833,58.1677,-11.4278
-24.2122,78.7250,77.5028,74.8486,115.8526,64.6290,122.5261,-12.1241,6.2372,23.9506,-49.8903,72.5514,45.8995,89.9467,1.4178,1.9969,1.0488,120.2388,12.6711
-28.2746,88.6366,119.7507,113.6845,176.5081,124.4254,170.0431,53.1566,31.8196,82.7744,-45.9941,93.6350,152.6615,131.1892,19.6463,-15.9566,38.5737,196.0670,70.4294
1.2346,95.9042,159.2915,107.9934,241.5567,107.3326,225.9118,109.7883,61.1995,112.8557,-6.3040,110.1693,219.5924,120.7902,75.8181,-5.1340,85.9510,221.0550,141.9036
62.8085,70.5384,228.0644,80.8722,262.1597,57.4579,266.9836,105.9903,110.3555,106.5416,56.5516,77.2814,243.4871,88.4439,145.9105,9.9411,157.5764,155.6824,193.0055
124.1686,-2.9975,286.3093,20.4259,226.8638,39.1401,255.9583,59.1826,166.9218,69.5605,103.4044,4.1037,261.9317,97.0208,161.0968,-4.4093,213.2717,50.1953,189.4416
197.6523,-41.8355,278.1096,-36.7424,182.9674,31.1127,182.9209,32.5485,174.6659,52.2998,165.2680,-20.1280,278.7580,111.0424,120.0902,-11.2568,193.4134,-12.2625,122.9257
250.9726,17.1585,210.6723,-12.7978,139.3430,9.5302,69.4242,37.9554,104.3202,66.2743,234.4337,36.4264,272.3127,109.4679,68.2071,-10.3236,114.9512,-27.6652,28.7929
213.3396,113.3925,123.6779,80.9502,80.7829,35.8014,-32.9830,69.0196,22.1876,98.6932,224.9006,122.5321,247.4267,160.4196,29.5863,-21.2919,55.2441,-26.8577,-17.2803
138.7520,168.6467,60.2768,158.6038,47.0560,142.9861,-49.1853,143.4659,27.1961,177.9860,150.8340,195.4362,237.9771,255.7896,24.3759,12.6999,62.9366,8.1746,29.9786
152.4072,188.1444,60.8508,184.8577,87.2979,232.2291,50.2767,213.3824,105.9586,258.9455,139.7582,242.9234,276.0262,289.1211,74.3249,86.4513,122.0671,80.5587,98.1745
242.1996,211.6645,104.4552,187.4309,181.1030,215.5410,182.5546,188.5695,143.8082,227.1909,218.4675,259.4125,356.8962,245.6362,145.8271,84.5871,181.4965,138.2824,89.3577
286.3657,233.7316,116.1408,190.7468,265.2524,166.1583,239.9673,106.5843,106.2682,132.9561,270.2747,243.5379,421.5343,209.2852,166.8624,17.0601,208.7162,164.6571,53.8821
237.5138,209.6540,82.5253,190.1090,301.3951,188.0185,228.9159,92.8822,67.5035,134.6131,228.1985,202.0011,407.8308,202.9181,124.9287,13.0350,207.8113,194.7965,92.6160
160.8263,143.6725,59.9019,161.8738,289.1417,234.4310,211.4510,150.6837,46.5004,209.7883,165.5201,157.0457,322.6277,181.8059,63.6573,57.6098,183.4108,231.1854,146.6779
131.8168,112.0907,63.2303,103.9160,235.6508,205.8819,173.2261,175.5536,0.0230,226.6222,152.9492,131.8564,217.4617,134.7636,-5.4915,41.1325,137.6942,243.1440,116.4689
147.8664,139.5436,66.6558,63.1356,150.9072,124.3828,90.5623,132.6044,-48.7132,177.3553,150.7298,116.7448,119.8285,83.5745,-80.5756,-20.4541,109.5588,217.6346,62.7809
149.5529,148.6049,76.3452,71.2890,78.3806,56.2524,29.3632,64.0311,-55.2424,109.3641,119.7132,89.8913,42.8002,30.2568,-105.4483,-55.8792,127.1068,147.0808,60.6816
117.2423,101.4306,94.2585,88.5005,65.1672,-15.9188,35.5042,-8.4624,-44.6533,23.9092,100.2369,57.5293,2.0867,-28.8888,-54.1899,-73.9167,134.2270,36.4313,44.6558
74.1192,50.4140,77.5098,68.4424,74.7163,-99.9453,35.1655,-74.3322,-41.5366,-47.9440,90.2422,22.3219,-30.6276,-77.5557,-9.8289,-95.9891,68.3567,-58.7223,-23.0283
13.1350,7.0738,9.8270,13.4309,23.2824,-123.6071,-36.0272,-93.6723,-36.4636,-55.7061,24.8221,-39.0615,-101.8806,-105.0641,-44.4141,-106.7007,-43.0062,-95.3062,-54.7098
-61.1867,-62.9722,-52.5156,-59.2394,-74.8091,-71.1020,-111.3885,-48.0147,-45.8482,-10.1395,-61.4529,-114.7563,-179.6173,-112.7570,-112.2477,-104.0205,-132.0903,-108.1254,-13.6176
-84.3994,-113.0584,-41.3859,-108.6517,-115.4992,-20.1832,-102.4377,16.0327,-77.7368,50.6185,-70.4604,-136.8004,-198.7932,-83.2326,-143.5666,-92.8439,-150.8956,-116.3947,23.3628
-43.1646,-66.5155,39.6830,-63.3047,-60.0503,5.2863,-26.9185,50.5834,-88.3019,100.9064,-28.6605,-70.2891,-177.3953,-14.1292,-134.6643,-57.6710,-87.1480,-65.9612,20.9738
-14.1715,27.9277,96.8628,54.2706,32.6290,35.7419,60.3188,61.6317,-46.1469,115.6262,-18.5417,19.5997,-159.9213,31.4266,-103.7328,-1.1723,-4.5350,43.4766,39.2912
-25.6981,53.7549,55.2795,102.2311,108.0440,47.0843,153.8958,63.2186,36.7140,95.7378,-25.6929,41.9266,-128.2572,14.5820,-61.9741,36.3031,11.9527,116.7455,114.0288
-34.5850,14.7813,-16.3250,49.8434,152.9794,29.7394,224.8977,50.9652,122.3061,70.5213,-23.3466,9.1063,-84.3788,8.6059,-32.6501,34.1591,-6.2145,123.2225,184.5021
-31.6931,20.4720,-3.0207,48.8397,153.6555,44.6169,193.4247,34.8124,148.4342,47.1340,-35.9709,13.7432,-92.4564,64.2059,-24.2326,23.6310,35.0981,134.1541,175.6121
-20.7537,93.2744,73.7614,154.4772,99.0485,83.1753,82.7554,17.3107,108.0064,9.7180,-41.8376,69.2827,-151.8904,94.3222,-8.5114,25.5419,122.6875,166.8792,103.8183
31.2410,140.6164,131.4178,225.1694,27.1418,61.6915,36.5689,-27.0787,91.0824,-46.8969,6.1161,97.3059,-176.5449,35.2654,31.2353,18.3329,180.7896,167.0415,40.1320
112.2901,127.2671,179.0781,192.6315,3.5965,-2.6480,81.2059,-83.5694,128.1035,-104.4221,76.0990,81.8890,-142.3147,-27.6275,64.5294,10.4452,192.2714,122.9109,3.8058
141.1334,111.9669,222.5341,151.9140,25.5002,-34.5313,83.0724,-103.6653,126.8679,-129.7688,97.9273,74.4829,-118.7372,-21.3650,54.4829,36.7946,152.9126,39.7516,-28.1691
82.1141,107.5684,189.3482,139.6981,9.1210,-71.3609,3.8145,-107.1382,50.0928,-123.5013,47.7294,63.6754,-152.5892,-5.9207,11.5063,55.6811,54.2952,-107.0619,-60.1724
-0.5521,77.2693,88.1393,96.9454,-76.8139,-171.0727,-49.7663,-134.8302,-34.3505,-125.4519,-31.3823,15.3902,-215.4824,-38.0261,-20.0070,13.2327,-46.6383,-271.4485,-90.4723
-23.6197,38.4108,28.8253,30.4040,-153.4871,-262.9157,-42.5045,-149.3516,-84.3027,-135.8579,-52.3746,-28.5309,-253.0538,-72.1767,-23.4062,-21.6952,-95.0329,-337.3930,-115.7305
4.7492,6.7867,19.4423,-21.9055,-168.0268,-266.5320,-40.6185,-129.5516,-96.9600,-128.4008,-8.0057,-46.2711,-244.7087,-68.8474,-21.4056,9.6748,-133.2773,-297.0367,-120.0291
-17.5779,-66.2967,-33.1540,-96.5638,-166.0725,-221.1145,-59.3260,-130.1782,-77.5410,-132.2409,-29.0010,-98.6005,-214.2280,-70.8590,-26.2433,17.6453,-212.0571,-250.9792,-118.8602
-131.7531,-172.1072,-128.3454,-204.4656,-174.9027,-191.2394,-62.9169,-154.1340,-76.4089,-161.3252,-168.1855,-186.9440,-180.0917,-109.4431,-34.1851,-41.6499,-297.9373,-216.3154,-136.7340
-232.7105,-215.6165,-177.2527,-262.6386,-152.9693,-175.3219,-46.4401,-144.5344,-115.6042,-146.6822,-276.6638,-221.3623,-130.4941,-135.8472,-54.5212,-52.2330,-335.6740,-131.8823,-125.2975
-237.0861,-185.3724,-161.0295,-237.8186,-93.6222,-153.4242,-18.5470,-102.2478,-115.0444,-69.6909,-255.6452,-188.6947,-73.2437,-118.4235,-75.8716,35.9898,-311.8340,-16.2475,-40.3606
-211.5634,-172.7491,-147.1468,-210.1490,-55.6337,-128.5781,13.8977,-49.2613,-38.7567,-5.2649,-206.9199,-174.6427,-47.3518,-114.2111,-55.0173,122.2426,-252.6663,67.1524,52.6611
-228.4299,-198.8553,-182.5414,-228.5604,-72.3935,-97.3153,24.4988,24.4457,17.4397,28.4861,-221.2254,-198.7414,-62.4305,-153.2518,-7.5045,144.8658,-205.9356,128.5553,87.1047
-246.9084,-189.6428,-228.2391,-234.4778,-115.1205,-42.2945,-7.1768,84.2843,-11.5298,65.9407,-248.2589,-187.7175,-92.4279,-164.7539,-17.5980,127.3499,-178.8332,189.2355,85.8813
-204.6782,-118.6200,-201.8950,-173.0961,-142.0899,13.5559,-62.9449,79.2134,-65.2312,80.5208,-214.3543,-115.3113,-117.3457,-114.8210,-96.7974,83.7111,-116.5868,198.8140,71.0966
-95.3971,-42.0291,-93.1169,-77.8489,-142.8517,2.5071,-102.9675,40.3517,-69.5286,51.6866,-107.8212,-37.4629,-126.3015,-73.5157,-149.7397,35.5703,-1.3895,122.5751,40.4553
34.0180,4.1173,7.3971,-4.3067,-146.3871,-81.2774,-121.0267,9.6213,-35.4629,24.0134,13.1041,11.2872,-126.3039,-76.8848,-131.1376,20.6000,98.9779,5.5197,13.7839
91.9514,40.8914,27.9986,37.3353,-184.5835,-151.2814,-170.0933,-26.1087,-29.5331,8.8201,46.7928,46.4835,-147.0183,-88.7146,-109.6094,22.3777,115.2417,-113.0450,-19.0926
32.2714,64.4684,-6.5897,39.8342,-238.0805,-174.1404,-268.1679,-61.4900,-68.4519,-21.3290,-23.5911,56.1111,-180.0423,-107.1537,-130.5942,-2.7551,41.0052,-229.4388,-87.6209
-63.5728,25.9576,-43.7993,-19.9803,-248.3625,-211.0529,-316.5255,-74.5460,-86.1229,-46.8626,-84.3303,3.6183,-171.8825,-143.7284,-140.2762,-44.2278,-76.2458,-301.0849,-143.8304
-99.4194,-64.5386,-71.1165,-109.9996,-191.9899,-259.5534,-240.5145,-76.6732,-54.6276,-37.7148,-71.2397,-85.0870,-119.8435,-155.8295,-99.8822,-61.3777,-163.9450,-276.0878,-126.6936
-92.4722,-132.6421,-100.6452,-164.6678,-110.3424,-244.6762,-124.8664,-67.4831,-31.2313,-9.9553,-61.7144,-147.2858,-78.0665,-125.9874,-60.3570,-54.0917,-180.8639,-193.2054,-65.4011
-103.0985,-168.5298,-133.7764,-193.8329,-55.2926,-181.0157,-61.2412,-44.8583,-22.8308,6.1960,-110.7920,-176.9718,-60.0227,-97.2506,-53.3932,-62.0264,-150.8335,-133.3794,-15.3796
-130.4148,-205.6450,-149.6724,-230.6839,-35.1401,-142.2756,-27.9292,-64.3643,12.3372,-21.3011,-151.7587,-187.8466,-44.3256,-81.7591,-28.7954,-99.0540,-103.0373,-105.9104,-13.0030
-130.2923,-201.8755,-131.6088,-221.9075,-35.1041,-121.3650,-27.2871,-147.5725,23.4966,-98.0268,-121.3593,-153.7694,-44.9540,-59.3735,19.8876,-123.3617,-33.3970,-74.2436,-82.5177
-83.5658,-128.1977,-101.3634,-134.2890,-55.5739,-75.6043,-95.0543,-199.8914,-41.1922,-140.2259,-63.5707,-85.2572,-76.7990,-33.8155,14.5917,-105.3174,40.2995,-20.9548,-158.4328
-35.1841,-75.0848,-92.6256,-62.6903,-86.8364,-8.3694,-150.2226,-138.5549,-92.8412,-65.3185,-55.0207,-57.6844,-103.5069,-5.3034,-48.4116,-72.6489,70.2041,61.5813,-130.6327
-44.9573,-103.3445,-105.3979,-82.6194,-85.4169,58.4308,-97.0889,-5.7584,-50.3864,63.5565,-92.0698,-91.6518,-86.4862,24.7906,-69.6807,-44.4539,45.0290,138.4212,-28.3562
-93.0287,-145.4637,-123.3123,-138.5037,-40.6757,85.2361,-2.2894,97.2925,39.9166,128.5790,-108.9397,-125.9576,-45.3051,17.8326,-20.2064,-13.3060,-0.3855,114.1615,36.6420
-120.3660,-150.9558,-141.2688,-164.9506,-22.7378,32.3481,21.1410,106.1246,117.2325,116.8421,-89.6685,-130.3907,-39.8211,-34.0445,22.6499,-13.2057,-40.7914,-28.6188,48.1961
-134.1118,-144.8134,-158.2134,-162.2373,-86.6392,-54.9604,-39.6860,28.4799,141.3177,65.7506,-86.8868,-125.8903,-97.9192,-76.9850,3.2781,-79.3232,-79.3926,-166.3554,21.3465
-152.6039,-128.2698,-173.9290,-134.5429,-176.3029,-98.7050,-137.6235,-71.2722,75.5100,-17.0602,-116.4311,-113.2417,-169.2224,-92.8685,-67.8377,-164.3214,-103.5497,-207.6044,-59.8572
-136.9769,-82.4709,-179.9712,-82.2876,-199.2109,-113.7568,-193.0282,-127.4584,-16.3684,-86.1783,-126.0650,-78.0208,-181.4570,-112.3276,-129.6030,-207.8890,-73.2611,-187.6327,-135.9842
-81.6564,-29.7184,-154.3513,-32.9402,-146.7236,-144.9743,-138.2648,-118.9642,-26.1575,-76.5654,-92.3147,-36.5681,-133.5664,-144.3470,-101.2978,-220.9334,2.5726,-151.8076,-132.3778
-42.6672,-10.6241,-105.8806,-21.7900,-76.8644,-171.4989,-32.7880,-88.5569,16.4277,-36.2512,-59.8821,-24.9741,-78.9752,-188.6370,-0.9921,-237.7541,36.5198,-106.5655,-101.0334
-47.7980,-48.1380,-84.7196,-63.1227,-26.2303,-162.9842,15.8627,-101.8136,24.3161,-61.0140,-71.3194,-56.7454,-44.1495,-226.7497,49.5310,-262.6602,-21.8214,-66.3171,-110.5678
-102.5993,-119.6068,-106.2064,-122.2007,0.1444,-114.4286,17.7697,-142.8416,-1.2816,-117.6421,-120.0287,-103.5469,-26.6096,-192.1533,14.6109,-273.5907,-109.4501,-28.8385,-134.3539
-200.1305,-152.5314,-130.6086,-132.4112,-4.6373,-30.6155,15.5699,-134.3887,-53.2847,-117.4060,-167.3140,-123.0212,-28.4721,-87.7558,-37.7098,-244.9626,-153.9632,23.8913,-136.6997
-246.1053,-113.5663,-130.0691,-89.7270,-28.5983,50.6902,-4.9646,-82.3388,-122.1222,-74.1230,-168.8958,-102.6760,-41.4258,-22.8898,-87.4460,-185.6771,-151.2445,75.9954,-95.5743
-155.4128,-57.0277,-105.2665,-55.2856,-30.8618,105.5617,-12.8781,-38.9633,-113.5722,-24.9222,-108.3472,-60.5934,-47.3937,-13.4892,-111.8137,-122.6805,-107.0135,113.5188,5.7959
-25.4720,-37.7105,-69.5168,-47.0389,-9.0308,161.3171,25.2109,14.0156,-12.9520,42.0086,-29.0725,-29.7915,-48.3075,29.9844,-38.1369,-58.1927,-33.4537,128.0106,89.5474
-0.0579,-65.2795,-56.3542,-54.5838,-15.2072,183.9044,26.8987,53.5974,35.9724,73.0820,0.5312,-49.8676,-51.1533,76.7166,69.8620,-27.1619,14.6559,62.2031,60.9308
-50.8773,-120.4026,-77.4788,-93.2097,-60.8179,101.6549,-53.4606,-9.1862,-5.3959,-0.2079,-31.2754,-104.1122,-44.9611,39.1390,60.0238,-94.5466,11.2794,-82.3542,-22.0292
-78.7485,-127.5833,-93.1254,-110.1720,-93.4128,-3.4767,-127.2995,-106.1236,-36.1167,-87.5948,-71.1425,-92.7332,-26.8624,-7.2459,-17.0225,-198.2063,-4.7073,-169.6078,-71.5782
-77.2038,-30.2685,-86.0062,-15.4162,-92.8131,-6.7628,-168.9622,-99.1861,-76.2686,-88.5794,-75.5807,17.4781,-11.5797,29.6784,-19.9044,-196.8740,-8.3310,-144.3721,-116.6806
-77.0155,77.4012,-81.9867,114.9628,-80.0205,19.8117,-220.3592,-65.7406,-174.2789,-80.1176,-50.3768,103.1526,7.3068,70.3676,4.2037,-114.5131,-5.1913,-119.9622,-152.6499
-82.7405,81.7462,-77.2981,128.1351,-44.6846,-20.5475,-205.3109,-105.4520,-193.6055,-109.6621,-24.8530,79.0208,53.9150,50.1363,-5.5426,-74.5822,2.2810,-133.2139,-107.9962
-99.5425,41.1059,-66.2187,61.2905,17.3599,-47.3445,-80.1324,-100.3369,-70.2722,-78.1015,-31.0065,34.3880,111.4940,41.1433,33.5531,-65.9986,-15.1622,-116.0007,-34.1307
-120.1779,44.1206,-94.7268,34.4825,54.1873,-10.8023,-0.3749,-6.4324,6.1793,8.4319,-77.6643,50.0666,129.9237,72.4297,100.3314,-33.4114,-78.5694,-106.4108,-30.0761
-120.2761,42.9106,-163.3247,22.4732,42.8526,6.2618,-42.3301,19.9697,-50.4251,25.2723,-115.6321,68.8776,108.5912,86.5416,66.2695,-18.2821,-113.8880,-153.2504,-41.4398
-101.4678,-6.5036,-184.3960,-20.4724,32.1383,4.1215,-58.0299,-28.2516,-76.1136,-0.4298,-93.9670,44.4549,102.5073,81.6605,-16.6026,-28.7417,-53.1720,-150.4487,10.1402
-77.9823,-37.4246,-120.4399,-30.0927,52.7774,65.6745,14.1997,7.3300,-8.9798,50.4879,-47.7281,27.8556,131.9825,101.9438,-30.5779,-0.0953,35.3912,-30.6199,79.3513
-45.1956,-1.7113,-27.0399,20.1387,86.4447,174.3357,64.6761,133.2167,35.0067,163.7492,-33.2892,53.4801,162.5577,152.7044,-34.2062,60.3728,74.5978,116.3882,141.4970
-4.9644,57.6142,55.0501,69.3335,118.0690,267.3372,78.7989,246.0868,47.5605,264.6635,-24.2519,91.8190,175.9180,212.7176,-65.6854,96.1557,104.7674,232.9635,239.3232
32.9122,84.1002,119.6645,96.2462,135.0068,326.3815,121.2834,309.1667,103.8728,319.6523,22.6171,118.0592,176.2755,239.7827,-22.1876,101.6911,172.8335,322.6777,327.8572
80.4275,70.0519,160.0390,114.9855,118.5849,315.8841,137.2735,294.4370,149.9985,289.9829,84.1706,129.6615,147.5104,185.7254,78.1514,76.3071,249.0640,325.4128,313.7638
150.2743,57.3509,200.5675,113.1412,77.1805,213.5698,64.4996,193.1655,109.7379,184.1314,135.3885,126.6180,85.2468,76.3090,86.2061,9.1820,297.1646,207.8983,222.9404
218.0190,81.3688,266.2718,95.7307,34.1224,80.9501,-24.6167,81.3659,44.0133,81.7224,180.4452,118.7249,28.6967,-7.9670,5.5185,-65.7931,295.0696,57.3462,144.7527
229.0664,111.6476,294.1109,88.8081,-0.9657,-15.9526,-62.7541,11.1391,29.8631,9.6403,181.6444,115.9357,5.3553,-39.2279,-41.0563,-109.4767,213.0433,-40.2663,93.9228
145.9101,101.5362,201.9672,83.7793,-15.0953,-56.5108,-68.3271,-23.3676,53.7429,-41.1168,92.0824,106.7235,-3.2420,-39.8400,-40.2296,-121.7037,70.4456,-67.2296,48.6637
6.5091,60.3516,38.1736,59.5942,0.4457,-29.6349,-44.1190,-1.2457,82.6026,-28.1150,-40.1324,73.1354,-20.4428,-26.3259,-54.2348,-113.2782,-54.1091,-32.2106,28.1274
-96.1124,14.2836,-66.4111,17.2524,31.6389,36.9767,24.3777,69.7009,101.6818,40.6941,-118.6702,15.9372,-37.4970,-12.5425,-80.8189,-99.7370,-120.1061,24.2540,53.9303
-127.2938,-37.0674,-75.0407,-40.8920,76.8459,80.7701,106.3373,119.8985,105.9983,80.0857,-124.7268,-47.1215,-15.8297,-4.2331,-71.2816,-84.0973,-157.2368,60.3650,100.7077
-128.4453,-87.1741,-54.8480,-99.7643,146.5556,85.5399,170.5495,130.2682,122.1658,86.1335,-109.4639,-92.0756,63.4564,3.6841,-13.5701,-37.3106,-190.8880,81.7494,132.2742
-102.3771,-104.2347,-31.8511,-111.8368,211.6829,72.1135,213.3044,131.3382,166.4985,114.7039,-89.3598,-94.8864,139.4901,-1.5937,43.9984,27.2715,-188.8371,96.6650,155.9361
-13.7717,-61.3319,34.6487,-54.7402,231.1310,64.3719,220.7197,136.8215,195.0235,151.9065,-28.3584,-46.9255,134.1802,-12.7827,56.0940,47.3183,-103.8154,114.1482,201.7922
93.4487,18.9334,134.2328,17.8621,216.1238,111.3850,196.4512,171.9124,176.8400,179.1275,69.2825,22.0004,81.3954,26.1026,49.6698,47.5678,35.7756,180.4518,260.2204
137.9715,61.2013,199.1430,38.3422,203.0221,213.3280,183.2772,231.6647,141.3819,215.1113,133.1569,58.4809,73.7193,116.7127,63.0686,112.7849,138.0052,282.0720,291.0872
138.3228,40.3550,217.1094,23.9376,200.8630,271.3771,193.7268,246.3960,106.1198,226.8617,132.5859,54.5110,105.1279,178.9754,72.7866,206.3714,175.9773,313.6285,285.2452
155.0180,37.2072,217.8915,48.8237,186.3985,245.9099,185.2200,210.6869,57.9411,177.8251,111.1634,61.0649,99.5297,184.7963,62.0582,218.7518,203.6125,248.7695,251.8161
155.1835,83.0157,188.2381,104.7072,121.9242,208.0446,119.8270,180.4766,0.2101,112.1374,85.5429,86.4314,40.1268,170.8902,46.8023,158.0979,219.7405,162.4684,176.4933
88.9123,80.8160,127.4003,95.0719,14.7479,163.4519,10.7468,131.8732,-55.8884,65.2469,40.6506,66.0158,-27.5427,138.2210,10.3448,116.8512,164.6611,67.1443,70.0932
16.8737,2.9415,90.9409,7.8431,-58.6127,60.2400,-75.8211,46.7119,-97.3593,24.4094,14.1313,-5.4401,-56.5303,85.6384,-31.7526,119.9771,61.1034,-57.2792,-4.8405
9.7192,-43.3221,77.6845,-54.9220,-60.1037,-46.6346,-81.4107,8.4386,-93.6000,12.0358,28.2756,-42.3664,-31.7443,46.0704,10.5988,125.0563,-13.2795,-148.9357,-25.3412
21.3881,-30.0427,20.0256,-56.5867,-40.9756,-77.2203,-30.5042,37.0405,-44.3125,47.5079,19.1503,-27.1266,11.4515,1.7545,121.9202,110.2723,-56.1951,-158.3246,-31.7032
-1.8311,-38.2140,-62.1696,-58.5658,-29.4224,-76.2880,12.3046,47.1544,-1.1720,65.4630,-26.9717,-31.9959,31.3891,-83.2125,151.2213,94.8123,-89.6012,-134.5793,-31.9748
-15.7669,-62.1734,-81.6098,-68.6013,-10.8209,-113.3362,27.5576,14.5759,6.9204,4.5823,-33.9737,-53.2504,36.6314,-150.8015,68.0426,91.3500,-87.0817,-137.3627,-12.7980
6.0753,-32.3903,-50.0510,-40.7845,-17.3169,-172.4731,9.7669,-34.1379,-2.3039,-93.1082,-8.4441,-24.8460,38.0555,-141.5332,-2.4989,80.6383,-58.1353,-169.1694,-19.8924
11.6263,17.5673,-38.6203,3.3382,-60.5159,-213.0141,-44.6932,-101.2805,-12.6438,-150.2694,-20.1320,18.7144,22.1968,-110.3391,-14.1148,58.1273,-51.9176,-185.3696,-80.3018
-1.4738,16.2166,-33.3619,14.2498,-59.0442,-215.6266,-74.8038,-159.6556,-20.4763,-161.8392,-25.6205,11.4162,20.7715,-113.0462,-19.0060,52.2591,-46.1568,-132.1078,-128.3207
19.6564,2.3112,6.8779,18.4740,8.5057,-179.7437,-42.1407,-173.7386,-40.7213,-177.0529,37.3011,12.6979,73.7281,-119.1493,-25.2881,57.3674,-4.3119,-25.7669,-130.7011
49.4772,47.7906,40.8296,62.4076,48.2163,-130.8994,-23.9020,-157.8843,-88.7658,-189.4290,88.4720,82.6021,130.8705,-102.8702,-16.2439,44.9148,15.7527,52.5400,-131.8876
35.2716,113.3666,21.6807,111.3519,37.2672,-83.6719,-44.1699,-107.0351,-109.8621,-136.4035,59.3452,132.2708,133.7360,-76.8312,0.2485,54.6668,-14.2550,73.5154,-115.9418
14.3581,106.2748,-16.2633,96.2895,35.6657,-32.0942,-15.3920,-23.9457,-49.3871,-41.5900,19.8736,85.2663,109.5071,-48.9160,26.6940,124.9965,-13.5605,52.5285,-46.6231
4.0822,28.0421,-46.5931,23.4647,14.8636,-13.0689,16.4034,-0.6728,-5.5721,-22.4053,-5.5035,9.6634,74.8000,-45.9743,49.3831,162.9896,13.4438,-36.1146,-27.8265
-86.7505,-52.6905,-124.2722,-50.6540,-86.1085,-78.8030,-100.4473,-84.9287,-103.5514,-115.5076,-112.1585,-46.2006,-4.2880,-104.0520,17.7878,62.8739,-64.8866,-191.1406,-164.2041
-285.8418,-132.8157,-274.1322,-129.7102,-206.5216,-197.2339,-288.2912,-196.4056,-266.4025,-238.6081,-308.6198,-131.2325,-100.2210,-191.9361,-65.9874,-112.0143,-249.5670,-322.3465,-343.5210
-460.3921,-242.5060,-398.5189,-245.8229,-250.1698,-281.7507,-319.5788,-276.7687,-334.5198,-320.4066,-459.7984,-232.5227,-134.8297,-247.2964,-124.0263,-230.2981,-367.0070,-358.1295,-391.1838
-496.8160,-338.3792,-400.4452,-350.7986,-217.1328,-301.2844,-197.1838,-327.7444,-288.4922,-348.3558,-483.1747,-278.9104,-101.4667,-279.4914,-107.3772,-280.8961,-340.0862,-328.3512,-309.9921
-431.7450,-380.3763,-322.2837,-391.7551,-162.5375,-305.7888,-105.5776,-339.4655,-193.8545,-345.2053,-432.4176,-304.4991,-56.0325,-334.2071,-53.2390,-324.0017,-277.4561,-327.7110,-213.8413
-364.0582,-411.9799,-266.6344,-417.7101,-137.9797,-359.7862,-115.4835,-341.9756,-113.1559,-352.9414,-386.7551,-371.6487,-36.5611,-392.3018,-39.4086,-357.9462,-280.4531,-416.9891,-181.9479
-348.4603,-435.4142,-260.5337,-446.5880,-169.6442,-441.0369,-182.7018,-374.0153,-123.5329,-368.3300,-372.2591,-405.3297,-49.5483,-392.9464,-99.0344,-352.3244,-327.0884,-514.2956,-234.3844
-366.2267,-380.7662,-273.1566,-394.0754,-219.3466,-442.7567,-263.1039,-379.0705,-226.3407,-348.7690,-362.1185,-329.9550,-74.3112,-335.8147,-171.8918,-329.4500,-333.3138,-483.3565,-316.7426
-345.9443,-284.3510,-280.2617,-284.8275,-229.3715,-348.1385,-316.2809,-327.6826,-302.3033,-319.7431,-306.6469,-241.4589,-78.0741,-292.0486,-182.8460,-313.7185,-260.6870,-372.1503,-341.3192
-264.0056,-269.1489,-271.2250,-272.1077,-207.3529,-281.1170,-327.0797,-299.3522,-283.3591,-328.4916,-220.8473,-244.4387,-60.6744,-303.2376,-147.4879,-269.4298,-181.1559,-333.6997,-303.7020
-211.7299,-321.6287,-260.6280,-350.4595,-190.2318,-295.9840,-312.8421,-311.6518,-222.2509,-333.1178,-201.9936,-280.3544,-54.2213,-332.7531,-122.1989,-182.0355,-189.4898,-342.8164,-260.6138
-259.8301,-328.6895,-272.3207,-366.2167,-189.0714,-317.8112,-275.0339,-309.4952,-165.3965,-305.1270,-268.8483,-271.2513,-73.4825,-346.6586,-116.5982,-127.3092,-256.1183,-305.9058,-219.6397
-317.8753,-294.7876,-276.6284,-316.4431,-213.5288,-330.0135,-232.2358,-310.8362,-129.7822,-300.2305,-317.7316,-255.1924,-94.4377,-353.7336,-131.4993,-159.1042,-288.3877,-287.9188,-173.7680
-274.7932,-298.4466,-223.7884,-311.2847,-251.8487,-364.4859,-242.2262,-327.2177,-149.7610,-311.4793,-338.3752,-268.6560,-77.5231,-332.2440,-180.5420,-211.2746,-285.5891,-323.2588,-157.5956
-178.2061,-312.9404,-141.0646,-324.7634,-240.5211,-349.9579,-287.7363,-291.8107,-208.4197,-259.4460,-426.9494,-260.1009,-8.3782,-241.8391,-223.9410,-205.3827,-284.1115,-290.2575,-171.0705
-118.6904,-260.0852,-88.3510,-265.6458,-150.3344,-231.6606,-257.5937,-201.2222,-215.8130,-154.0664,-514.1823,-191.6888,88.8403,-128.7804,-191.4596,-163.8577,-248.2077,-171.1683,-154.2907
-87.2464,-166.1856,-55.7844,-161.0373,-36.5711,-117.2732,-111.4043,-116.8573,-123.1149,-63.2914,-441.5487,-100.0930,185.8171,-73.5205,-90.6546,-140.7396,-154.1158,-95.3668,-80.4040
-65.0420,-112.3809,-11.1515,-77.4238,48.7236,-98.5472,56.4982,-45.1363,20.2800,6.2009,-295.1255,-27.5840,261.3117,-51.0193,-7.6239,-126.5093,-54.1110,-93.5814,11.7730
-57.8924,-93.2608,22.4769,-11.8173,95.4891,-112.9938,135.5887,9.3649,124.1363,59.0015,-244.8889,17.9558,281.9707,5.6671,-3.4047,-81.1097,22.6526,-103.1969,67.2319
-26.8473,-58.8876,19.3103,38.3397,96.0331,-97.1081,109.3598,18.6575,137.7394,73.9864,-222.9391,36.8518,240.7410,67.9792,-54.2309,-10.4678,88.6954,-96.8733,58.8453
8.0860,-34.0184,3.0770,34.5066,60.0458,-73.2688,48.4475,10.6780,87.8026,55.0477,-154.1418,29.3250,181.4640,78.0192,-90.0539,31.2047,128.6894,-50.5819,13.3749
-50.0772,-60.1327,2.0553,-26.8577,18.9309,-54.6892,12.2128,-2.2145,26.5349,7.0983,-148.4628,4.5372,130.3808,59.5271,-77.3043,12.1846,143.7486,20.5550,-16.2112
-127.7934,-95.9153,13.0894,-86.5897,-18.3467,-29.5362,-0.3809,-62.8559,-25.8330,-71.7114,-189.3644,-24.0319,85.4369,56.8358,-47.4422,-30.2296,176.2662,32.2251,-15.3433
-57.8670,-102.3969,18.3144,-98.8506,-49.7410,-13.7495,8.0180,-126.2586,-49.8256,-127.8345,-121.4596,-47.2156,68.3772,57.8828,-43.3264,-39.2631,204.1407,-1.6364,-3.2449
60.0189,-114.2445,-1.1293,-87.7503,-62.0816,-24.9296,36.0232,-101.8017,-22.4950,-104.3090,-12.8403,-65.1598,70.2120,43.3540,-63.2475,-2.7887,151.6342,10.9659,11.7461
38.4777,-135.9572,-50.8415,-93.8633,-73.1461,-47.3847,38.9094,-35.7833,31.8392,-39.3105,-19.1850,-78.3002,28.6005,30.6125,-60.8454,54.6445,44.9238,22.5152,28.5833
-36.0047,-120.7694,-103.4888,-99.2630,-100.5221,-52.2061,12.9012,-16.5402,80.2836,-6.3448,-77.7868,-67.5676,-41.9844,33.6260,-1.6456,93.1204,-8.4780,-39.7069,44.2067
-65.7579,-75.2327,-124.0105,-60.6766,-101.7499,-24.0437,31.9504,-15.4869,127.5562,-10.6317,-120.6130,-10.4896,-55.9770,40.4701,73.8432,78.5873,12.3438,-77.1046,54.1817
-130.9903,-28.0467,-110.0905,19.2424,-52.3745,22.8166,87.2476,10.0663,152.7683,-6.5039,-178.1468,72.7493,-21.5958,47.8418,93.8581,40.2742,60.1562,-22.1604,39.3271
-146.7220,33.7971,-61.3712,110.1437,0.5012,62.4197,85.6003,38.3468,119.9036,34.7561,-139.0525,132.6113,-1.9559,74.2427,71.6129,52.6984,138.5817,24.7696,2.5304
39.8937,91.8560,54.2677,194.1395,36.5174,99.3097,47.4004,70.1502,72.2585,93.0805,76.2567,159.3187,20.6287,122.6512,80.3614,116.6450,246.5695,21.3007,-0.5659
242.3889,112.5931,221.5960,253.4668,75.8589,145.8317,48.9695,121.0268,65.8705,125.3116,265.5230,188.0907,61.7051,164.5990,121.3794,153.6197,309.1285,36.3033,41.5263
277.2041,148.4157,328.5870,277.8856,96.7434,178.9078,55.7923,155.9660,67.3076,123.5829,306.5438,234.1389,70.1805,187.1731,134.8926,136.5854,291.7161,75.2045,51.3110
312.0955,238.2514,316.3013,286.9937,87.0041,185.5122,49.2633,144.4354,51.3141,112.8168,343.5385,275.6334,47.9072,217.2478,103.1266,115.5832,263.6228,111.4233,12.5978
393.1459,304.3970,283.9356,300.1825,92.1965,195.7528,99.9686,119.5347,76.1864,110.9715,392.4593,300.1529,43.2972,264.0518,59.1105,121.2047,261.2023,165.1935,23.4234
326.1552,299.2762,305.5768,310.3312,109.8163,218.5422,177.3220,128.8883,167.2951,129.6709,329.7435,314.5653,34.3801,285.5933,59.5761,134.1033,234.2067,217.5066,118.7425
189.4003,271.7575,288.6681,294.4878,86.0844,221.2083,179.7229,154.2222,253.0709,146.8565,233.3631,300.5499,-11.0415,250.1161,143.8771,129.6367,176.5444,221.4218,207.1591
180.0915,227.7866,163.7680,226.3198,47.2252,196.3188,157.3323,126.1409,266.8195,100.8870,217.7428,221.4403,-50.5539,186.5024,248.5126,108.0021,148.1922,194.2857,229.6443
185.5723,147.9362,34.6107,125.5539,62.3522,175.1085,210.5746,55.2068,227.1505,16.1725,207.9755,108.1783,-46.2476,148.6514,261.5014,97.7894,164.6883,172.2547,226.0433
121.0823,99.3059,6.8188,86.0386,116.0169,179.2397,279.1936,52.8035,193.7463,14.5206,177.1664,66.7075,-14.9378,163.3894,192.4506,126.6510,201.3293,168.1876,230.2635
122.9606,129.7759,41.5796,152.4067,153.8632,208.3947,269.7918,136.0972,185.2010,97.4993,190.5523,127.6691,15.1414,215.6940,136.6066,182.7475,251.2352,201.1345,225.3266
144.3332,164.4761,62.3578,219.8375,171.3596,253.9661,231.6392,184.5902,183.2981,134.2273,191.3169,172.9988,20.2887,262.8233,123.4191,228.2731,290.8309,264.0068,210.7575
63.7075,138.7893,61.8680,188.1469,191.7507,304.2129,254.0749,172.5116,198.1347,120.3442,137.7045,118.3055,7.0276,277.7473,142.6783,243.9313,283.8828,320.0860,219.5642
36.3483,103.8068,65.3966,123.8447,227.1542,345.9448,312.8696,197.8100,234.6740,162.3053,136.5575,58.3743,17.4863,278.9301,180.9411,242.2729,252.0491,359.4948,240.9990
140.1807,130.2205,78.0476,134.7048,255.5706,360.5341,307.3523,257.5773,234.7659,231.8077,199.5275,94.8691,38.9840,292.0018,177.6860,244.5440,234.0939,361.0445,211.5609
174.6919,198.3810,89.6360,195.9762,236.4269,340.8446,225.2500,270.7469,185.7746,234.3104,214.0142,157.6095,7.5847,305.3127,130.2666,249.2870,215.7891,286.4274,134.5606
122.0323,227.4597,115.3930,218.0898,194.3338,311.3052,179.9864,253.8586,174.0746,205.7712,198.8730,147.5375,-55.7453,290.2281,142.1574,234.7326,197.8967,189.3011,97.7751
161.8322,195.8257,195.2392,191.8823,195.1015,281.8686,213.7725,242.2078,204.2959,201.4430,244.7489,106.2174,-73.0052,239.4746,198.0041,196.0020,219.2753,154.2115,109.0286
251.4453,175.9370,304.8581,177.9936,206.9963,219.2699,213.5706,196.5116,169.2227,174.3890,309.1277,106.1966,-65.0092,176.9330,151.8982,145.7918,249.1016,138.0499,74.7128
244.3612,201.0774,337.7990,197.6109,152.1802,124.0692,130.4606,124.6057,68.9703,110.8039,300.7193,119.3812,-109.6783,137.5331,33.5788,85.9050,205.2445,65.1006,-7.3258
168.2733,195.9798,250.7397,197.9106,68.6194,48.2025,59.9416,86.9800,5.7508,70.0164,218.8309,93.8432,-194.5001,114.9162,7.2285,26.0846,93.4286,-35.7710,-41.9455
99.8618,122.5039,130.0004,139.8931,28.2684,-6.2002,29.5336,55.3633,-20.3065,39.6375,140.8479,37.6633,-251.7089,54.0910,44.4585,-5.8743,-5.1996,-119.7791,-36.6951
75.8767,58.0595,61.9616,69.5578,0.2480,-70.4917,-26.9301,-18.5655,-69.6294,-28.7849,147.0795,-18.7905,-276.4867,-46.7477,7.1032,-12.1701,-54.9724,-173.3068,-72.0700
116.9353,54.1209,49.4583,41.4801,-45.9473,-100.4972,-88.9734,-60.5946,-116.7795,-73.0488,203.7067,-57.3486,-307.5912,-99.9079,-72.5166,-24.3629,-73.3698,-150.0204,-103.7423
145.3319,56.5317,65.4179,24.8146,-67.6325,-49.6979,-89.0925,-1.2295,-114.9610,-25.3497,180.0641,-76.8090,-340.4419,-76.4592,-96.4091,-55.5233,-74.2768,-37.7412,-32.9065
81.4602,16.0474,79.8613,-23.3682,-56.8628,20.1808,-43.1403,70.4161,-82.4121,27.5443,68.1896,-97.9723,-339.3285,-62.8259,-93.7085,-106.6801,-77.1856,87.8808,84.5613
6.2535,-27.2215,53.1737,-56.7453,-49.8433,56.3346,8.5087,54.3292,-57.1813,-4.8902,4.7174,-122.6891,-313.9015,-89.1729,-109.4834,-164.4972,-108.9173,182.1601,118.0366
4.8599,-13.0171,-15.3190,-21.9424,-42.4270,105.5318,63.2794,17.8243,-45.1558,-33.5191,38.3680,-116.3315,-300.6758,-83.0327,-89.2516,-172.3408,-148.0407,256.6183,89.9098
36.0887,30.5112,-61.7473,27.3071,-17.7944,177.5626,124.9870,67.2980,-8.4087,41.0178,96.0599,-87.5439,-283.5703,-43.2281,6.8459,-99.0535,-134.6777,285.9818,117.6582
49.1892,14.0376,-38.4903,9.1618,8.9631,196.5669,184.0206,150.6988,69.1106,126.7991,120.2645,-101.1100,-238.3594,-44.0641,96.2515,-8.3039,-79.5121,254.5640,172.1014
12.1243,-65.6429,1.2405,-55.1310,17.8807,143.0926,193.4007,153.3138,101.7303,109.8738,77.2430,-157.2689,-207.0455,-71.4643,73.3855,31.1974,-81.5908,211.0709,118.6953
-78.0605,-111.2539,-29.5975,-89.8796,-7.2968,70.3886,109.3158,93.5482,24.6947,51.4286,-23.2797,-180.0032,-213.0540,-74.1365,-21.9592,21.5424,-166.8801,163.4367,-17.8794
-117.4153,-90.3060,-103.5016,-89.5209,-68.4380,-11.2740,-7.6877,52.0486,-69.5460,34.2196,-74.6014,-155.2539,-213.1023,-99.5363,-58.7325,-25.4949,-229.5055,52.5659,-89.5136
-52.0953,-69.9342,-116.8554,-96.3618,-129.6227,-116.3134,-71.4879,13.5390,-92.1726,8.3083,-8.2623,-136.5024,-207.0173,-180.5295,-33.6467,-100.8993,-221.3164,-110.8119,-96.7405
-6.1689,-72.1493,-78.1538,-100.0009,-156.9760,-200.0644,-101.0331,-58.0370,-79.6511,-65.0515,98.1663,-116.3998,-220.5012,-224.6094,-40.3482,-150.0400,-217.0539,-215.8363,-136.2069
-41.6101,-44.7375,-84.5394,-53.8395,-147.4896,-203.0201,-113.4198,-110.9920,-50.4621,-113.5101,156.7159,-41.1968,-198.1297,-161.9880,-52.4431,-128.9035,-227.8963,-198.6788,-172.4657
-57.0985,40.0119,-132.2891,37.3722,-107.1287,-133.1526,-81.6348,-106.2581,-17.6328,-100.4753,173.7164,71.3188,-117.8192,-49.8733,-7.2533,-71.7964,-182.0994,-128.2658,-153.8324
9.4401,148.3271,-133.9798,116.4520,-68.3368,-55.1067,-82.5301,-98.6579,-87.6370,-99.6702,212.7319,149.5446,-72.1469,29.2375,5.2968,-35.8262,-91.7782,-98.0325,-154.8891
153.4921,209.2222,-57.3615,141.5538,-65.6431,-21.4497,-171.0390,-132.6214,-236.8611,-159.0629,338.5549,166.8758,-75.4722,37.9861,-70.7023,-35.8678,-10.8307,-93.4037,-177.4864
330.9517,187.2212,67.7137,123.1583,-62.7937,-23.2757,-199.2608,-170.6918,-249.0179,-218.6630,503.2357,147.9520,-44.6922,-19.8703,-100.9961,-56.4191,73.6483,-48.0568,-122.7854
396.7496,152.3368,164.8097,107.2274,-33.2050,-17.9838,-102.6912,-161.4057,-114.0106,-203.4557,546.6806,125.0605,-13.8998,-84.8010,-36.3658,-75.1176,138.4303,20.1078,-47.7079
322.9724,176.2600,156.1247,120.5272,-39.0386,-4.1542,-63.7439,-108.4423,-64.3231,-129.9024,467.7526,122.6466,-53.6631,-98.3501,-27.5809,-72.4908,126.8728,48.9024,-68.7685
325.7000,212.8008,112.6256,143.2876,-84.6529,-16.1584,-139.4207,-68.1816,-132.0726,-81.5678,467.3918,146.5042,-85.0107,-85.5702,-108.7825,-49.6573,111.7775,47.5753,-103.6644
463.5988,235.2379,173.8789,171.3898,-79.6646,-42.9768,-164.6385,-79.2912,-145.9268,-88.4036,581.8208,193.1999,-45.0037,-85.6642,-119.2419,-32.5306,179.5335,59.2137,-56.2246
526.8244,325.3334,286.6409,247.8742,-23.9954,-34.5542,-92.4655,-101.0797,-68.9869,-94.9366,632.8298,272.9436,7.5003,-71.3101,-8.0050,-31.3523,253.8419,84.0692,6.0598
479.6174,465.9452,341.2907,362.6650,32.4102,1.3947,5.5931,-87.5164,41.5505,-79.1030,588.4404,371.0797,80.4256,-30.7904,96.6352,-10.8109,279.0876,90.2105,61.8187
468.6473,503.1672,421.1954,421.1024,133.2174,-5.4186,123.0958,-81.1425,161.8649,-97.7296,567.6282,417.5522,210.1497,-17.1742,121.2872,35.4378,322.6057,37.7933,146.6184
487.9930,420.4785,546.0224,387.4527,248.4455,-71.7233,200.9671,-119.1374,212.9483,-153.5751,570.7390,377.7736,284.9838,-47.2697,123.1113,29.5145,358.9336,-58.3261,168.2069
496.6608,359.5143,514.6679,332.8828,227.5052,-109.2595,156.6271,-125.7361,160.9335,-146.4832,543.2501,318.6878,238.0240,-60.5150,155.8854,-42.1032,292.9710,-89.2625,92.3329
516.7847,349.7766,308.5822,298.4471,110.2855,-44.0780,104.6860,-33.2201,135.4889,-35.6599,499.6591,298.3698,208.6837,-19.1660,195.0327,-49.9721,187.3676,-9.2370,77.2657
415.6262,286.2133,170.1527,253.5583,94.3226,60.2435,164.8460,92.8254,174.2500,84.7406,395.6569,274.9187,277.7331,28.5923,190.2385,34.1511,144.8622,66.8176,153.6582
114.2109,146.0901,163.4158,191.9333,162.1790,98.1067,220.4781,163.6541,131.4682,141.0175,183.0245,204.8507,343.2232,24.7436,132.0270,60.4630,131.0443,86.7885,166.6643
-101.9540,33.2641,160.0774,136.9321,162.9631,98.6043,175.7802,180.9025,0.1834,159.5316,15.4857,126.4464,348.6806,-0.4474,50.6226,20.0646,126.7766,159.4105,118.7839
-22.5005,18.9396,138.1562,87.4927,119.0648,155.6328,121.8567,167.9951,-53.7349,146.7507,44.1719,81.1065,335.1855,24.4537,-8.8207,61.4106,169.1481,286.0779,124.0898
97.2219,40.8468,99.0401,44.6627,104.5897,234.0025,99.4714,119.8968,-3.5854,69.7211,112.5147,57.2632,312.2381,84.5999,0.7765,141.1294,185.1768,313.5457,130.8779
-2.2082,8.6536,-3.9735,25.6112,80.5854,238.1038,52.1285,64.6473,27.6520,-15.1957,3.3959,46.0187,283.9550,116.6411,59.8407,118.5944,92.0485,229.1380,62.5780
-193.6813,-41.7400,-89.4429,19.8962,38.1264,199.7075,-9.6505,52.7217,-16.6401,-14.0030,-189.2684,55.0179,275.5401,138.1271,52.5855,67.2598,-30.6346,169.4374,-7.3146
-269.5644,-30.8464,-74.7482,1.5152,13.8793,187.5766,-61.7751,55.3126,-104.7722,20.8352,-247.9649,60.4990,262.2356,164.6209,-64.2828,50.9039,-86.8405,153.9816,-36.0416
-236.4695,-9.5452,-69.7776,-28.5768,-33.8073,138.6492,-136.0625,-12.3310,-184.9559,-28.2217,-192.7018,32.1758,219.3463,100.8947,-160.5909,-62.0079,-92.4771,87.2885,-84.9331
-203.3459,-52.7452,-132.0701,-55.9370,-121.3609,-12.5963,-217.3767,-140.4259,-220.3270,-122.4955,-178.7165,-3.9543,197.6424,-62.5160,-157.1793,-235.3041,-72.9717,-48.5054,-162.8200
-211.3752,-101.0284,-144.4700,-71.9212,-151.9788,-169.3165,-244.3317,-217.4368,-229.5535,-146.4845,-213.4781,-2.1396,241.7409,-134.3084,-156.1116,-233.4206,-40.0068,-178.3273,-218.4965
-229.5897,-103.9309,-90.8767,-72.9762,-75.9808,-216.6022,-199.5340,-201.7815,-228.8438,-116.8124,-222.6696,20.1326,328.2947,-33.0676,-193.2462,-86.4407,-40.6767,-246.3478,-233.9867
-252.2735,-124.5554,-79.3381,-77.9883,22.5218,-193.3628,-114.4724,-173.5639,-182.9177,-117.1173,-236.0535,0.7896,400.4250,59.5679,-152.5437,-23.3231,-92.6124,-272.7870,-232.5619
-307.1095,-180.0910,-134.9940,-115.4226,35.9988,-180.5154,-69.4273,-178.7734,-126.7692,-135.5251,-291.0903,-69.5572,386.3357,45.4422,-47.5547,-33.3124,-173.2301,-302.7701,-260.6828
-348.5152,-211.3258,-243.3561,-167.8088,-53.2331,-148.1673,-127.9827,-155.0723,-150.2725,-105.0050,-313.3929,-124.6342,271.9490,64.5801,-35.5376,7.1263,-273.1423,-304.0441,-313.0601
-317.9809,-218.1298,-376.3841,-186.3213,-138.0283,-46.5852,-194.5220,-62.8171,-184.9186,-13.6844,-269.2470,-119.8674,177.0539,160.4160,-94.1485,35.8230,-337.9571,-206.2533,-280.9824
-296.0922,-230.7036,-396.8777,-175.1584,-103.0281,46.9386,-124.5171,33.3272,-92.1466,85.4571,-253.7128,-107.0014,205.5034,164.0852,-54.8121,-10.8072,-292.6170,-60.0921,-125.7976
-355.5664,-249.5440,-254.1687,-195.0259,-10.5205,19.7792,9.6994,66.9416,54.9399,127.4733,-302.1105,-154.9403,266.0056,21.7542,57.6122,-37.6662,-194.7304,4.8738,6.6131
-387.3758,-291.5633,-150.9719,-263.7541,-12.4076,-83.4235,24.8322,57.5386,102.5181,107.2936,-323.1276,-230.4742,220.0176,-94.4671,74.2767,13.5818,-153.4033,-21.4363,20.0647
-307.1592,-319.8251,-213.6727,-312.9009,-89.4992,-123.1645,-57.7843,49.0986,97.8276,80.8088,-277.0219,-245.5602,108.3863,-74.1447,0.3490,81.6216,-126.8745,-42.1757,13.2682
-204.1773,-211.4852,-268.5381,-283.9809,-107.3671,-93.5069,-79.1432,32.0623,141.0219,59.1472,-211.4579,-200.6954,53.4621,-9.7727,-25.6189,108.4113,-36.0948,-19.4335,58.3340
-142.7659,10.6907,-170.7442,-218.4037,-60.4765,-91.9973,-25.5565,-12.0790,173.6451,7.7829,-146.9596,-171.5558,52.8424,-5.2217,15.0048,83.9866,41.2243,-0.0485,85.0600
-92.7727,132.5720,-35.7586,-189.1019,-37.2601,-109.5661,-0.6153,-38.6525,138.6346,-30.3693,-94.1483,-179.3258,28.5393,-37.2300,44.4829,35.6728,11.7921,-29.0371,52.6843
-62.3408,72.8156,-7.4251,-197.0338,-49.0870,-88.3709,-14.8210,-1.9795,101.9332,12.6134,-81.7407,-193.5673,-19.9444,-58.1841,41.0224,7.2414,-61.8934,-100.7710,8.6604
-62.0850,-23.9514,-62.1391,-206.6383,-47.5520,-90.3677,3.8661,49.3897,100.9146,80.0558,-80.8430,-213.8144,-39.7930,-87.7014,19.2628,-5.4169,-85.8621,-171.0418,-25.4457
-56.0709,-51.9513,-96.4624,-209.3658,-9.9600,-157.8000,55.5778,48.9488,98.5899,85.8287,-49.7395,-234.8837,-30.1726,-134.1608,-13.1989,-28.3331,-56.7156,-205.0788,-62.7212
-61.8471,-36.5788,-43.0247,-193.2741,56.8181,-176.5291,81.8196,29.4742,93.2631,67.4601,-31.9186,-215.4455,-27.4934,-145.9409,-22.4090,-25.5789,4.9713,-201.1835,-83.6817
-98.1582,-10.3030,87.6077,-144.7078,124.2801,-98.8244,91.3538,38.8244,94.3911,71.8347,-46.8338,-164.8399,-42.5851,-111.5150,8.2259,31.4765,87.9116,-170.3494,-66.0609
-72.5196,20.0867,192.9765,-96.5641,147.2506,-53.0395,119.8893,37.6070,63.2872,52.5175,-11.7756,-140.0794,-79.4348,-87.6335,26.3307,78.0754,149.1335,-131.1763,-38.0445
52.2638,53.1610,161.7271,-74.5001,103.4419,-70.7905,122.4569,20.3546,7.2166,24.7437,83.0794,-132.3557,-150.8970,-74.9895,6.8886,73.1342,145.3988,-91.7145,-20.6033
132.6152,81.9383,26.6798,-51.8359,27.3303,-16.1496,67.9000,77.4627,15.4628,98.7508,122.9690,-113.2594,-232.3998,-16.3311,11.3912,85.3218,92.9836,-22.9480,39.2404
78.1971,54.5357,-50.4561,-40.4042,-13.8312,119.1529,33.0065,198.4894,108.7561,243.8551,80.5823,-135.3328,-273.9228,55.4516,70.2013,143.2332,46.6166,62.0693,167.6825
1.5519,-53.5902,-0.2479,-88.3952,2.0723,173.7238,46.8825,229.7137,177.2570,274.9769,51.7719,-209.9555,-274.7038,48.1909,120.6506,154.0960,41.1741,74.1671,248.1123
0.3307,-131.5915,72.4099,-144.0311,19.5569,104.6028,16.2969,136.6492,141.2655,163.3600,59.5086,-225.0758,-277.2823,-12.5446,111.2701,84.5645,61.7626,17.1336,174.1137
15.3675,-78.7255,76.5658,-107.6673,-4.5388,41.8777,-67.6405,65.6978,64.6617,93.0882,39.3894,-139.7570,-299.5038,-18.3648,66.0796,44.8671,57.5356,16.4212,46.3099
-2.8935,22.4559,43.7036,-8.0455,-34.9076,59.7966,-85.9371,87.1401,39.2976,141.6343,-4.0443,-60.0727,-325.5260,39.4120,24.7132,81.3066,12.0516,82.6949,14.5411
0.1037,61.9735,21.5232,53.3412,-34.7485,91.5801,-27.0901,118.8782,50.6795,182.5025,-5.5767,-37.6619,-336.4771,76.5249,-12.4115,90.2223,-23.3942,97.8016,47.0572
39.9067,66.0964,21.4786,57.2959,-20.2461,70.8440,-3.6471,103.9234,37.7866,144.3557,30.9079,-27.4133,-327.9795,56.8093,-60.5700,38.4482,-17.7312,52.0024,48.1884
43.4206,68.3023,45.6392,36.4910,-9.2432,37.7424,-30.6638,65.1415,5.1858,97.5523,36.5934,-30.8820,-318.1713,19.2283,-101.7532,26.2940,-11.1649,29.5942,30.6824
1.2793,42.9790,59.1298,17.2823,-1.3921,66.4285,-19.9511,44.0417,-0.7615,93.5741,-3.2418,-48.8680,-317.3564,14.6333,-100.0402,70.2777,-17.3139,38.2046,41.5339
3.5331,32.8111,34.0821,43.5223,9.3413,139.3035,51.1368,83.2620,37.0409,128.3238,-12.7542,-4.9893,-297.6817,55.4772,-63.7648,87.9696,20.7640,53.7028,89.2748
80.5328,97.6426,29.4844,116.9808,43.4487,169.2570,122.0061,158.1809,96.9754,180.3154,58.8423,95.5818,-248.5807,86.9899,-26.4050,81.2309,107.0458,82.3272,152.8620
155.1861,159.2943,83.5509,150.4983,91.5925,127.7001,137.0510,159.2563,121.9084,182.7457,138.7446,123.0984,-216.0496,41.0433,10.4731,85.9150,146.1278,100.9028,149.9493
173.5640,124.0126,127.9122,101.5322,91.1048,64.9029,82.3286,75.5533,54.0710,113.5836,139.6779,52.2933,-224.5919,-52.0985,23.7755,60.9002,90.2383,97.8256,32.8490
166.4866,56.2555,130.6844,47.4463,34.6432,34.4970,-1.5981,41.5425,-66.0925,80.8038,110.5042,3.9190,-237.6688,-89.3429,-42.6056,16.1047,12.7560,111.0208,-64.8616
173.5931,42.6669,139.2554,41.9510,0.0762,54.6903,-41.4465,94.8035,-114.7955,133.8253,133.5232,17.1366,-238.3638,-49.2451,-129.5622,40.0626,-15.6671,121.8854,-13.6498
165.7701,33.3876,137.7419,30.0248,0.6286,83.7447,-21.5961,128.6483,-66.6562,165.6191,144.2025,6.3731,-256.8125,-15.2933,-93.9107,106.7502,-25.3655,67.9656,74.7653
70.5136,-34.6849,66.3024,-31.9199,-34.8668,48.3279,-8.0023,117.0734,-33.0375,139.0380,35.9018,-55.2556,-298.3218,-34.8393,32.0023,102.3086,-79.0319,-20.2712,54.2971
-97.2986,-108.1697,-56.6255,-89.0295,-100.6866,-31.0946,-30.8641,108.4316,-63.0726,124.6595,-126.4668,-94.2376,-321.3173,-60.7158,79.1858,30.8221,-157.3348,-55.3653,-7.1825
-193.8503,-116.1403,-159.7361,-81.5937,-109.3857,-52.4045,-18.2050,74.5192,-65.2715,104.4514,-184.7548,-74.4730,-286.6368,-49.3507,49.0612,-20.2504,-180.1300,-16.8786,3.1218
-137.9869,-83.4729,-180.7894,-51.5271,-44.9528,-17.3197,74.8542,12.9101,19.8697,51.1744,-122.3659,-52.0929,-197.7904,-31.7811,69.2752,-27.7484,-139.3110,48.1455,62.5236
-39.8831,-77.1637,-110.7854,-73.8350,20.2584,-16.8016,155.6488,7.3303,111.5925,45.0152,-61.2345,-72.9897,-105.4958,-51.1977,119.2114,-20.5801,-108.7345,73.4185,109.7433
-18.1426,-99.0644,-43.4185,-113.4431,38.6339,-44.9919,134.8015,34.8405,102.9741,72.1514,-65.1799,-91.1329,-57.3694,-83.5554,103.1539,-30.5766,-104.9246,28.5029,112.6463
-39.1086,-86.4724,-52.8853,-75.0417,26.3867,-44.8978,75.2154,-16.3363,-6.5649,9.3476,-76.2874,-48.4170,-41.5288,-82.7773,54.2859,-75.9712,-80.7352,-27.4034,46.6930
-32.5068,-22.9029,-62.6003,15.8952,13.1435,-39.2339,62.1429,-105.2885,-121.5557,-94.1259,-43.9558,17.6024,-20.8899,-64.6865,38.3346,-120.7116,-58.9541,-19.8527,-48.8241
-3.6257,20.3521,-20.5509,52.1618,9.8385,-35.6291,73.1518,-104.1178,-148.6368,-86.8628,-10.9988,38.9821,7.3402,-55.1038,33.7898,-109.2938,-82.0795,36.0877,-72.6573
13.0105,9.1177,-11.1253,42.6476,21.9048,11.8035,89.2562,-39.0125,-76.7900,-11.9983,-25.5822,35.6182,30.5812,-18.2662,20.0241,-58.1786,-75.3702,85.3160,7.8321
