Fp1,Fp2,F3,F4,C3,C4,P3,P4,O1,O2,F7,F8,T7,T8,P7,P8,Fz,Cz,Pz
-31.4742,-73.2785,-68.4826,-65.5771,-62.3320,-16.9811,-34.2233,-64.8988,29.4466,-26.7713,-45.6801,-72.5476,-45.1991,-54.8754,-11.0739,3.8705,21.0979,9.9373,12.5731
-106.5015,-91.3295,-103.5545,-112.9015,-131.8979,-121.1654,-102.2124,39.3580,43.2594,21.7960,-58.9266,-33.2760,-85.7287,-70.0630,34.7566,56.6470,-101.8859,-100.5701,23.3734
-78.3371,-51.1625,-46.8355,-108.5313,-86.7009,-182.3895,-69.6274,54.4110,84.8582,55.7234,-77.5737,-26.1180,-85.0160,-116.3656,87.4506,35.1943,-78.9685,-143.1297,17.6796
-73.6686,-132.8087,-0.8363,-198.4442,-60.7243,-241.3680,-48.2373,-68.2335,129.9134,20.8623,-78.5171,-120.3215,-53.4614,-205.5312,79.3598,-79.7535,-38.0733,-170.6790,-11.8344
-96.9638,-219.0634,-5.5566,-287.4499,-115.4757,-263.3668,-120.9348,-93.9624,109.4118,27.1811,-5.2707,-173.8417,-29.6972,-214.2378,19.3115,-107.7736,-90.9337,-163.6415,-25.2122
-25.4538,-158.6850,14.7428,-232.4137,-140.2605,-208.8915,-168.3562,-15.9038,60.3006,70.3846,84.9571,-123.9357,-10.0333,-146.1354,-46.8797,-18.1564,-112.1818,-91.0028,-7.0570
91.8474,-99.8198,65.6270,-154.7465,-87.0109,-154.0694,-100.7453,-0.3004,70.2581,47.4971,110.1144,-78.1645,27.0662,-113.8521,-79.4296,23.3033,-59.2530,-34.2014,28.6575
151.7233,-136.3150,104.8610,-155.7965,-7.8338,-131.4678,6.9987,8.3926,135.7060,33.5520,122.3447,-66.5626,66.6806,-94.2605,-47.6182,-6.5439,-32.9209,-4.8855,87.6541
208.6178,-133.1171,163.1292,-134.0254,79.9815,-74.8215,92.7323,86.0731,206.8428,120.8667,181.2785,-39.4866,84.8820,-33.1204,39.3086,-2.8019,1.7306,71.9349,167.7070
283.3008,-61.5897,249.8588,-67.9688,163.5937,-3.4211,170.5750,119.5389,269.2873,194.4659,217.0401,-4.3424,93.7056,3.0742,127.6888,18.2447,98.9854,144.5794,226.3128
283.0070,-20.2294,289.1161,-42.9451,201.6794,8.1099,227.3349,81.3662,318.8579,182.5826,170.6949,33.9146,114.9950,-6.7480,171.7335,16.8282,131.4905,143.4902,232.5068
214.4336,-13.9610,242.5924,-45.3419,199.4434,-12.3190,233.5158,54.5375,340.1208,173.3532,99.7337,72.9887,132.4473,-3.1483,166.2851,45.4708,40.1437,136.4162,190.9283
163.0558,-21.1724,151.3196,-49.9521,182.1816,-34.0522,199.4259,-4.0724,315.9586,154.6066,70.7083,51.3183,114.4403,-21.6049,140.2648,68.7397,-43.0155,124.9069,110.2488
144.2864,-43.6077,67.7496,-91.7148,142.7752,-102.0236,148.9928,-137.5500,242.6876,52.5890,98.8414,-21.2102,82.9882,-117.7050,126.6343,-20.5966,-67.0822,27.9973,19.1448
165.6883,-30.9933,37.9537,-125.8562,103.5519,-179.5690,103.7720,-248.1960,159.0163,-34.1362,167.5040,-34.4183,94.9922,-206.3446,124.4957,-156.0210,-101.4628,-59.4573,-34.7564
229.5885,18.8764,73.8370,-86.8647,101.1219,-158.1092,74.2901,-283.9707,109.9429,-4.2437,198.6596,19.9971,134.9942,-188.5803,113.3533,-185.5737,-136.8067,-9.3435,-57.8213
255.8004,35.0371,123.1892,-27.8055,93.3799,-66.5471,34.6304,-287.3582,78.9686,43.8980,121.2331,60.5545,123.9272,-106.2528,97.8398,-135.3833,-131.3068,60.7166,-90.9249
215.6735,36.1110,137.9729,0.4263,34.1678,-33.1837,-26.5646,-261.9097,41.3049,23.1609,22.2507,93.3214,66.4708,-61.2878,91.9994,-129.0103,-119.9486,25.0026,-108.6860
192.9117,76.0035,120.3597,34.7766,-17.8720,-67.0638,-57.8623,-202.9633,32.2273,10.2528,46.3837,144.5711,52.9106,-79.2739,84.8260,-175.2960,-128.4782,-4.6220,-65.3961
196.9467,110.6209,83.7593,82.6212,2.0274,-68.6005,-24.7840,-139.3169,75.7921,61.4590,152.0807,164.6582,86.4761,-93.0479,63.7485,-198.7047,-129.6093,65.0854,3.7961
179.8126,122.1125,63.6371,110.0839,65.3460,-2.3620,39.2114,-70.8448,133.1027,110.8605,184.1109,152.6518,82.9372,-40.3547,46.2640,-162.0840,-103.0149,131.3140,53.0740
197.4654,169.2312,117.1459,125.3153,122.9598,73.2252,95.9224,-6.0176,165.5757,99.3053,123.5651,177.9147,46.9043,49.8338,64.6448,-93.5449,-49.3524,110.6020,91.7353
271.9191,233.3737,218.4067,147.6531,151.6802,110.3255,119.7667,14.1437,162.2669,62.1321,64.6743,235.0220,54.3328,117.5218,120.0273,-37.7959,-3.0411,57.6800,103.3369
288.3263,249.0776,259.2425,169.6811,131.7070,124.1676,90.0495,16.6041,124.4210,70.2994,48.4337,265.3990,88.7303,157.1570,158.3159,9.9925,-13.3951,40.5877,59.5361
224.1348,234.9644,208.7621,181.4278,85.0128,133.4966,44.4992,52.0014,79.6966,119.4696,51.4570,267.1568,79.4835,167.5024,132.1393,66.2092,-51.9604,56.2200,14.7666
183.5773,223.1819,144.3234,169.9278,66.4892,104.7751,39.3874,58.8668,47.4501,116.0471,36.0799,250.6595,40.5278,122.5734,77.4275,74.2426,-52.3382,44.4756,13.3857
168.3023,187.3410,120.5083,130.6742,60.6827,14.4748,36.8592,-42.5013,-2.2213,15.7577,-7.5542,198.8011,23.2252,45.7536,50.4514,1.7674,-39.2330,-42.7425,-4.8789
132.6173,122.0943,127.1990,89.3448,11.8199,-80.0836,-22.5414,-195.0976,-69.8496,-99.4879,-8.2777,140.4958,20.4007,-4.4812,37.6195,-56.8257,-58.1198,-154.9923,-57.8991
141.2594,87.5709,152.8709,69.4532,-46.1193,-110.7204,-82.3521,-277.8445,-81.0515,-145.9443,90.3854,137.5211,14.6051,-18.2908,27.9790,-46.1333,-62.0979,-188.2999,-50.9533
217.2741,139.3631,197.9662,72.9534,-46.0909,-84.9978,-62.9283,-246.0478,-4.1112,-131.8936,189.6505,175.6734,22.9674,-17.9400,64.8276,-49.2634,-13.2476,-124.7777,46.1227
265.8831,228.4729,241.5162,94.4357,-19.4853,-36.6284,-0.0783,-132.6617,83.1392,-84.4193,184.4799,184.6552,48.2210,-8.0382,130.1971,-85.6815,40.3092,-34.4990,147.6685
267.1583,226.2090,248.0632,110.2911,-23.3387,29.7319,31.1719,12.5428,97.9566,-11.1005,149.2474,156.7277,66.5307,19.6026,134.0113,-60.3723,67.5853,27.2171,201.4988
273.6093,119.1325,216.8419,99.1168,-33.6955,91.5688,23.0625,141.3184,43.2618,46.9179,161.1508,135.9070,64.2989,64.4070,72.8475,19.9513,93.2832,39.9947,217.8882
261.2332,50.4591,196.1646,87.8216,-12.5058,101.9169,7.5505,212.4139,-19.2960,43.3471,145.9822,123.5091,42.9798,93.1361,34.6249,52.4715,130.1409,5.3772,198.3367
212.5330,74.5012,209.9848,104.9878,28.8451,64.6856,9.9838,218.7337,-36.8568,-0.8477,69.2209,101.1677,15.2794,72.4084,51.8233,31.5702,162.1374,-39.8943,145.8727
181.3346,86.1120,200.1623,121.6440,63.1092,27.3155,28.5795,194.8488,-12.6098,-35.7949,18.4484,88.7245,3.8378,40.7436,89.3659,17.0090,147.8751,-73.9087,75.7995
160.7624,40.8485,111.6973,103.8157,56.1838,-1.3101,26.9910,168.8750,8.0131,-54.6325,21.7300,86.5458,11.0102,44.5404,117.3547,13.8992,49.5483,-128.5589,-1.3848
104.2474,-1.5758,-4.8029,67.3411,-10.5017,-33.1367,-11.8215,140.9770,4.9850,-73.7522,32.7689,60.4547,10.9377,47.9599,110.4709,7.9805,-74.6486,-196.6799,-54.1956
57.6000,-1.0417,-52.8612,65.8613,-75.9970,-29.1793,-47.6216,129.0231,2.1535,-83.7050,63.0526,50.1629,-4.6062,45.9534,66.0531,7.1571,-97.4127,-193.0002,-51.0312
79.3544,69.1075,-4.9910,152.5021,-58.0195,51.2708,-43.9259,163.3587,16.8309,-56.3380,138.1543,133.1673,-11.1122,110.9876,37.8069,28.3298,11.1497,-102.5194,-22.9015
138.0820,191.3695,92.4123,291.5173,20.9486,157.5567,-9.3994,225.6663,39.9638,18.3410,211.5750,248.5820,3.1783,206.1754,57.4883,91.8383,151.9426,-38.7460,-14.8959
182.1780,247.3780,175.3119,348.3038,75.6184,198.4212,34.2059,273.1514,56.0131,109.8265,224.5702,262.5287,16.1955,206.0574,71.9145,169.2372,223.0922,-62.2581,-17.8579
177.3286,195.7683,199.9289,280.8820,81.1494,163.5133,59.4760,303.3222,44.8030,159.1157,177.0719,195.6878,9.0866,143.7310,39.6704,185.5638,195.8255,-91.1354,-22.0022
101.1034,155.0827,166.0316,214.6400,67.9524,119.9197,39.4565,331.3555,-11.7926,133.7847,120.3885,168.8080,-3.9865,144.5388,2.8100,145.9521,118.4289,-64.2480,-46.7776
7.7097,164.0459,113.8657,215.4406,58.8840,112.4980,-9.7818,351.8444,-96.7822,61.5804,101.5125,186.7294,0.2755,190.2422,-4.5381,120.4709,78.1983,-30.2207,-81.5713
-8.5360,136.9282,89.0086,196.7651,58.7348,124.6364,-44.4020,351.6551,-156.2377,-15.5099,110.1635,174.8971,20.8502,202.1062,-17.0848,102.1713,105.6062,-25.1643,-90.3304
49.5028,78.1754,107.2942,126.0611,65.7005,122.3608,-44.2470,313.2099,-155.3532,-81.2082,119.8254,133.1787,44.5892,186.1937,-53.1071,68.6957,146.3972,-18.0524,-66.8139
106.6165,50.2417,147.1188,82.2083,86.4903,100.5903,-8.3372,227.0703,-121.4386,-118.6481,146.5162,106.5865,66.7222,155.9672,-66.3697,69.1410,153.7846,3.3218,-29.1721
129.6217,44.1491,177.9218,90.9175,129.5690,84.0679,44.1174,129.5057,-106.6692,-113.3864,191.4354,102.9890,78.2025,113.6239,-27.1565,88.3633,131.2596,23.6534,2.6235
116.1846,55.6426,187.1508,100.7926,169.1433,90.1772,66.9954,73.7388,-114.8155,-96.7212,208.7084,104.3696,71.3929,101.8336,29.9266,44.5339,90.3422,59.2254,11.6010
66.6404,83.8103,170.9053,82.6700,177.5003,103.0067,60.2905,64.6072,-97.7134,-106.7059,186.5246,86.3881,70.4807,116.0545,69.0838,-16.1480,41.4443,123.0420,0.8823
12.7460,67.2344,131.6195,45.1312,185.8117,99.7697,83.5710,69.4778,-33.8244,-121.8479,150.8515,42.8427,100.1755,94.6605,100.9055,7.9436,-0.8849,175.0182,-14.1512
-22.8992,10.6404,82.1408,10.2822,212.3115,82.8590,124.2720,67.1739,25.9907,-115.9445,97.5966,9.9000,128.9497,55.9617,141.9998,68.8176,-39.7314,174.2810,-36.5846
-63.7622,-2.2552,20.8890,-7.1995,201.6146,63.8186,98.2339,59.4748,21.7113,-116.2211,32.4596,7.5688,117.7473,59.3032,166.7268,78.9094,-84.3493,131.1563,-68.3874
-102.7554,12.9168,-43.8458,-21.1715,145.7159,41.5010,28.2386,55.1556,-29.1556,-132.7523,7.7956,5.3874,96.0326,73.2030,130.5334,61.6351,-117.9038,79.2651,-79.7625
-93.8916,-4.6756,-52.7773,-39.5091,119.9977,10.9114,22.0620,42.0709,-53.1324,-123.3242,37.6950,-5.2773,101.8977,42.6406,42.9745,46.0385,-116.0635,43.8523,-42.8232
-55.7041,-21.0503,7.7003,-42.2639,131.9899,-20.5720,76.4569,4.2543,-23.8829,-67.2023,71.3951,-5.9067,105.4784,-10.6951,-21.9933,24.0624,-81.4496,46.5659,29.0452
-40.8907,-11.8826,45.4575,-31.1684,130.8235,-27.5208,114.5452,-26.2205,13.4784,12.5966,80.8451,-11.9509,82.4823,-35.7692,-28.8481,31.8663,-30.0885,96.4219,99.1279
-31.5873,-10.8816,23.2265,-25.7047,140.7419,7.4013,142.6239,-20.4822,22.7416,79.5090,83.0862,-24.4161,74.5738,-8.3211,-29.8815,82.9545,29.3368,156.6347,141.5747
-7.8264,-2.0146,13.1235,-12.1792,178.2175,56.4448,180.0304,-28.3393,14.2610,86.5796,78.4386,1.4953,94.0103,56.3102,-50.3652,111.7686,79.4981,165.3798,153.4474
-18.1835,36.6096,21.0278,21.9545,169.4845,79.5808,175.2997,-81.9844,5.2337,30.0899,37.5372,57.3546,83.1843,105.3370,-33.2040,101.4443,92.3673,124.9717,156.1065
-70.3270,63.1240,-9.9719,49.3987,113.0333,80.1510,131.5491,-116.4188,4.5857,-2.6554,-42.1992,79.4669,33.2447,103.9546,35.8061,113.2244,69.1149,108.0738,181.8640
-97.4889,52.8194,-41.7966,45.1662,105.0057,67.4748,130.7198,-102.5194,23.0115,52.1157,-102.0469,58.1686,12.4767,65.1405,86.3187,149.2084,47.7965,134.4362,229.4621
-78.4840,16.0394,-16.4017,6.7928,132.0168,21.4563,163.7804,-95.7620,53.6793,132.8328,-82.6935,20.3767,37.2752,8.8265,81.6385,147.0943,46.0590,138.8202,243.1915
-45.1822,-40.1742,21.3354,-59.1472,90.6288,-50.5369,132.5827,-93.7380,64.2878,155.3089,-19.4738,-35.6326,38.7817,-49.2542,42.5022,98.6935,33.6273,87.4132,184.1131
-13.4862,-85.1730,20.3304,-128.7334,-20.2504,-118.0625,24.8186,-48.8528,32.2137,115.8498,-8.3940,-101.3261,-26.2112,-101.3614,-11.6596,48.2869,-17.7726,3.9294,97.4855
-3.1710,-95.2143,-7.6207,-170.0812,-131.3030,-188.0932,-79.7598,17.4774,-26.6663,58.2456,-56.1387,-140.2101,-118.9897,-157.9876,-45.9095,8.8296,-91.7920,-89.4991,40.5081
-23.6639,-94.1401,-46.8727,-172.0626,-212.7059,-249.6878,-141.8189,75.4788,-75.0866,29.1421,-70.5433,-138.2134,-175.0670,-191.2722,-45.2622,-38.9202,-155.1598,-141.9646,-10.2126
-27.2169,-102.2133,-84.1994,-156.1949,-245.6146,-245.6892,-182.0304,125.1128,-97.0312,43.3181,-23.3588,-120.1444,-172.6922,-151.0645,-75.6257,-83.6188,-205.4363,-96.3175,-85.1327
8.3036,-132.9483,-98.1744,-164.5134,-224.3485,-185.0973,-205.8197,123.7915,-100.0209,70.4097,21.5092,-129.6591,-141.0876,-83.7538,-148.6524,-77.1024,-249.9291,-11.5114,-125.8710
23.5514,-183.9952,-78.3903,-192.8341,-190.5200,-130.3747,-184.3500,55.2758,-70.9303,97.8462,46.0167,-169.9207,-113.4847,-65.1025,-148.0718,-16.9784,-240.1428,10.9919,-77.3006
-8.8794,-160.6725,-22.1337,-155.1115,-161.8339,-70.3342,-106.8445,-2.2369,4.1437,130.2474,72.8306,-150.9087,-94.9244,-51.0846,-52.4421,22.2171,-119.7503,6.6223,5.3949
-42.1790,-4.8061,31.5639,-15.4235,-106.7767,13.5534,-13.8771,-11.7591,74.4103,118.4925,58.0846,-12.9508,-77.3487,4.2968,8.1831,2.2431,40.8285,55.1166,48.3346
-58.8282,136.6838,19.0013,110.9606,-26.5562,60.5118,51.2803,-7.8891,89.3189,51.3014,-16.2078,125.9514,-46.3998,40.2115,9.7030,-11.8759,104.8065,111.6523,66.9068
-79.0318,138.9973,-8.0182,120.0039,47.7592,65.2359,97.2654,31.2873,96.9666,36.9302,-32.7786,134.5003,16.8482,48.7389,42.7991,29.9333,82.5326,106.3044,93.7609
-89.3064,103.6842,55.4897,68.7068,106.8597,104.6380,140.1367,119.8483,145.2485,100.8898,67.8284,80.2559,97.6760,87.8160,91.6853,72.6472,86.1005,66.8456,96.8526
-74.6241,118.7212,135.4350,57.7476,137.2624,163.3371,154.2211,172.2813,180.2185,106.1865,138.2230,78.1978,149.6531,114.1283,98.8169,52.5839,101.7631,44.1745,55.2310
-57.7155,133.3108,102.8541,103.0877,128.3842,166.8243,129.4936,150.3767,169.6148,27.2069,66.5995,103.7469,158.7464,80.4546,105.4857,-1.4439,57.2994,48.9652,24.2754
-46.8673,137.5419,23.8183,157.9814,108.5308,133.0374,99.9019,110.5473,167.2358,-6.3396,-50.6865,106.8872,141.7592,55.1906,127.6627,-24.3791,6.3610,60.9318,35.3887
-27.0319,138.3230,-19.6163,154.7127,83.8052,90.2321,65.9624,58.9713,166.3581,10.3188,-119.9476,98.6098,97.3858,44.7391,109.7251,-23.4853,-7.8513,35.4957,25.0099
-5.8750,85.0871,-86.4924,78.6543,19.9508,16.3956,-7.9518,-18.8568,94.4846,-19.0455,-159.0695,74.6551,29.6699,-23.8513,56.1729,-58.3133,-61.6169,-20.5291,-35.6032
2.3039,24.1782,-157.7540,25.5976,-56.3070,-34.3201,-96.3205,-60.2802,-14.0992,-52.3729,-155.0204,45.5820,-30.7266,-89.3522,0.2603,-106.1815,-137.6745,-22.5424,-59.6785
4.5310,52.2522,-136.9610,65.1323,-79.0653,11.9471,-127.8109,-33.2407,-48.5144,1.0934,-96.7106,64.9771,-67.9800,-57.2068,-66.8805,-69.7255,-107.8939,32.2398,-13.7629
8.1249,108.2177,-78.5056,122.6042,-76.5020,76.8987,-103.1699,-3.4822,-6.8762,89.9485,-60.5747,107.6941,-80.1030,-11.3440,-113.8464,18.5965,-0.7448,21.8929,-5.4583
18.5390,105.1856,-65.6593,124.9806,-117.4959,54.7254,-93.4032,-19.2643,9.2320,109.2168,-52.4572,96.6818,-63.9505,-44.0190,-100.8987,-1.6505,47.1504,-93.0489,-75.8698
47.3128,82.3944,-53.2930,99.9442,-168.4886,-7.1023,-123.0146,-71.0981,-53.6776,34.9506,4.5027,55.9658,-51.6221,-87.8360,-88.6544,-124.2639,41.0202,-211.7597,-113.0862
84.3086,42.9730,-28.0870,54.4466,-160.7131,-27.8608,-137.4760,-133.9066,-146.2459,-73.3576,59.0415,28.5421,-69.7169,-76.3552,-122.9273,-157.8067,48.4805,-266.6849,-71.9738
105.4599,-53.5399,-19.2368,-30.7541,-122.0942,-22.7348,-95.9142,-161.2169,-188.4115,-122.2974,30.2431,-28.5933,-67.6871,-39.5959,-144.0748,-73.2837,55.0569,-270.9450,-39.8116
116.0096,-125.0627,19.6000,-94.0409,-112.3797,-29.4807,-37.1564,-137.9785,-165.0631,-106.8363,-1.1721,-99.1787,-16.3809,-19.6043,-135.1896,-46.0887,57.4019,-241.3097,-48.4089
130.0020,-90.0195,72.6452,-76.9252,-103.2256,-53.4281,-9.9132,-127.0567,-133.0209,-140.1529,9.6879,-90.2205,15.3512,-35.6944,-142.3678,-117.3858,73.1377,-196.1543,-59.3363
139.0394,-25.0553,55.8147,-23.8696,-25.5768,-71.8725,14.9925,-149.4367,-131.8233,-242.7921,-15.4691,-27.7209,2.4459,-55.7116,-131.1037,-143.8134,70.4893,-148.1920,-87.2275
142.9518,-16.4814,33.5453,18.9251,102.2705,-37.1305,73.1422,-125.1897,-141.3097,-283.7311,-28.0132,-1.8163,8.6109,-9.9376,-58.7451,-82.2276,66.6041,-84.6222,-139.6064
149.6426,-33.4598,83.7614,56.3284,180.5253,40.4928,107.1583,-28.5637,-127.0658,-232.7454,62.8888,14.0789,35.6663,65.5638,-0.9058,-41.2565,128.4988,-27.2375,-153.4204
141.4746,-11.6042,107.4647,66.2087,169.9552,64.6355,67.1610,44.9801,-75.7938,-203.1209,128.1408,48.9421,38.4091,55.6653,-12.1211,-69.0844,211.1729,-23.6821,-114.8703
110.5427,44.9472,76.0614,26.7692,135.6537,12.6522,16.3992,38.0101,-22.4258,-212.2867,55.1557,33.9467,44.2831,-11.4889,-21.8233,-86.8241,229.9737,-47.0409,-90.8275
86.7332,57.2203,99.3967,-5.4544,109.4845,-13.0909,-0.2693,19.0172,-45.1337,-184.6356,-34.2938,-21.0544,73.6608,-9.4724,7.6375,-26.4547,224.5405,-39.5182,-107.6472
79.1245,-0.3260,135.2342,32.3974,47.4397,32.3102,-37.0588,59.1058,-146.4820,-137.8768,-68.5824,-8.4356,81.0090,58.8566,14.7874,69.6869,251.0889,-22.5051,-136.2090
63.3259,-19.0078,83.9431,108.0570,-17.3521,84.4777,-82.6435,132.9785,-211.6595,-142.2410,-112.0809,68.0562,73.7465,114.6334,-7.5802,114.7738,285.2002,-38.6310,-161.8779
43.5254,52.6576,47.0039,141.3030,15.7303,115.3619,-46.8513,184.3069,-194.5016,-217.9825,-124.2871,110.3862,100.1420,151.0291,7.3304,102.9418,323.8875,-76.3692,-185.5108
40.4920,100.5883,111.9946,120.9826,99.6219,149.5056,24.6966,207.2054,-195.2020,-366.3862,-54.2280,101.0842,136.4237,176.0211,46.9709,105.6508,381.7222,-120.7581,-211.9986
41.7177,77.3539,182.8057,113.8250,86.8238,170.0536,1.7221,221.5603,-263.4353,-529.2418,-7.3610,84.0926,149.2164,180.5496,35.7835,149.3641,413.7944,-166.5408,-254.5428
30.9372,65.8238,199.8401,137.2001,-10.9432,144.4574,-88.9156,231.6446,-334.3436,-565.8661,-32.8010,74.9704,152.8071,189.1283,-9.5628,178.0936,379.5717,-189.9476,-312.5477
12.1750,71.4936,181.1179,114.1279,-77.6212,93.8409,-146.9760,246.9929,-397.0210,-447.4518,-43.0828,73.0613,138.0280,199.8517,-21.6913,148.5109,284.6274,-191.2579,-361.3334
-14.4238,51.7585,114.2647,32.1618,-107.7242,67.0617,-185.1187,278.4963,-487.6849,-317.9460,-23.9540,70.5184,104.6576,166.3013,-19.2355,91.8590,159.7051,-190.4272,-359.5551
-31.9288,34.8107,59.1774,5.9558,-118.0270,75.6064,-209.2678,302.4845,-540.5451,-239.4121,-12.6479,61.0830,109.5733,102.8769,-28.3265,58.1311,89.1239,-163.9767,-279.7871
-4.9526,32.1485,99.3959,79.2415,-50.4131,69.5392,-158.6908,290.3813,-478.1143,-127.2785,14.5033,75.7493,154.5690,51.3463,-3.1177,32.9987,120.4490,-98.7521,-181.3290
42.8229,61.2500,133.0654,149.7083,50.8243,0.0774,-89.3641,243.4309,-378.6030,-2.0030,24.0061,135.9268,171.5407,-12.3625,24.7067,-40.6369,142.7777,-50.2175,-163.2057
42.5716,195.1902,49.0674,168.5061,53.3345,-74.8605,-107.1131,178.4651,-355.9963,4.7157,-55.0606,204.5050,150.4021,-70.0138,-45.8547,-142.5463,69.8402,-32.2634,-184.4931
-6.7109,360.8871,-33.3223,197.7722,-2.1385,-36.5978,-136.7766,142.5555,-370.1256,-85.0502,-137.7377,253.7611,114.1561,-16.9401,-140.7536,-167.5915,6.0401,31.6765,-118.3241
-53.7560,376.0965,-6.6451,240.2511,15.2360,106.2866,-75.4751,190.3164,-316.9576,-122.8771,-97.6780,283.2607,54.1582,128.5951,-101.9491,-90.0959,17.3188,155.2890,1.2995
-85.6503,270.3131,20.9986,228.6002,60.6964,214.4001,-2.3335,273.0732,-205.4248,-87.4322,-3.8079,255.6849,3.4612,199.0666,3.5846,-8.6815,7.6095,241.3540,55.9560
-100.1914,179.7264,-28.1192,171.6856,49.5354,227.1361,25.2143,271.8687,-107.1418,-55.6985,7.9908,162.5887,9.0811,153.2324,25.3503,16.1695,-39.3769,246.7357,90.5039
-79.0878,100.9350,-62.3563,140.4834,47.5218,211.7919,84.6057,186.5186,-33.9137,-18.9451,-29.4299,102.6113,28.4209,121.8918,5.0473,16.5662,-36.9244,235.6595,182.1788
-44.9366,64.4291,-32.2727,140.8510,71.9937,200.5323,144.5921,112.9476,19.9830,63.6078,-5.7726,129.1517,10.6311,140.0206,0.6051,1.7856,-29.0845,236.6232,237.1149
-35.7426,132.1754,-12.3164,110.5113,4.2404,150.1117,80.4381,61.9186,34.9389,159.2131,53.5459,136.2111,-29.5013,103.5015,-49.6845,-46.9091,-107.5510,202.7549,199.0518
-34.7818,159.4118,-21.1212,37.0746,-136.0818,70.0170,-32.6360,12.7109,47.9511,247.9055,43.8395,60.7419,-81.9883,14.0233,-106.4391,-82.9397,-181.9812,141.9130,212.6237
-17.5181,70.3327,23.0312,7.7947,-162.3457,35.5592,-10.2182,23.9033,127.7978,349.3634,-11.2678,23.1367,-122.7203,-2.8695,-62.8498,-41.6348,-123.8686,126.8831,351.3069
-1.8136,69.2653,106.0790,74.6745,-39.1401,48.4054,125.0509,97.0843,241.5244,405.1384,-0.7825,94.9209,-98.7208,51.5733,9.7838,41.6709,-15.9223,139.6749,451.1666
0.7811,162.4093,91.1821,135.9743,78.3441,17.3800,217.8128,117.7646,318.6236,329.0760,65.0967,140.4457,-43.2892,40.0783,18.7861,66.7180,-20.4915,84.3553,379.2520
3.7152,95.5073,-9.0500,93.5375,118.1161,-76.8925,233.4814,53.7892,393.8140,190.0479,102.2978,68.1701,-15.6545,-50.2977,46.9750,13.9712,-105.0305,-10.1633,233.7668
11.4644,-63.8023,-13.3741,21.7141,136.9456,-131.9158,225.5652,0.7109,502.6660,159.5304,116.2539,-1.7314,30.0203,-95.1856,122.6306,-26.1868,-122.0947,-23.6730,158.8529
22.9293,-52.4669,62.4476,-0.8634,134.5340,-105.2010,193.9671,-5.0320,560.5100,268.7426,111.0957,9.9597,86.9091,-77.7072,123.9787,-0.4927,-88.8145,3.5516,136.5064
37.0493,29.5469,17.6321,-40.4114,66.4805,-91.6593,118.2471,-14.6377,500.3735,362.4335,41.0364,-1.4856,47.0579,-86.2079,44.5248,25.6336,-125.7325,-70.9423,83.5342
43.5696,-16.9602,-101.4681,-118.2369,-0.8665,-142.1773,41.5988,-46.3642,384.5187,318.7629,-18.2046,-78.0873,-40.5962,-113.8332,12.2149,4.5013,-184.6547,-207.7109,30.1829
41.4354,-86.5052,-88.0059,-138.2746,11.6848,-191.0233,20.2409,-92.6083,304.4931,203.7675,34.9615,-116.3197,-47.6472,-110.7534,53.2219,-13.0013,-158.7447,-265.9783,36.7515
35.4737,-81.6863,-22.9337,-107.0952,1.8102,-217.1794,15.9284,-163.8266,286.0634,136.3016,89.6842,-98.9542,-53.7077,-128.2426,86.2942,-14.0811,-145.2989,-270.8134,28.5872
16.7251,-94.3039,-89.9447,-124.9113,-147.7506,-260.6758,-58.1620,-244.6239,274.1699,95.1965,36.9331,-102.8535,-138.8278,-197.7119,49.9064,-54.4660,-242.5399,-300.2870,-75.3677
-1.5171,-122.1252,-168.6675,-162.3647,-305.5771,-274.1215,-169.8850,-290.8036,181.1036,3.5928,-1.9232,-109.3457,-170.1926,-225.5720,-64.2356,-101.5530,-305.1907,-283.1592,-170.2790
19.6676,-88.2189,-98.2429,-132.4498,-286.0266,-186.6741,-188.0504,-281.4509,33.5131,-90.8754,43.9911,-78.3960,-112.8551,-157.5886,-182.7725,-69.5588,-218.4102,-167.2459,-124.2159
67.3247,-59.9400,2.4417,-86.9666,-154.2889,-72.6374,-92.9563,-233.7692,-16.1391,-111.8093,66.5070,-78.9825,-105.9401,-78.1514,-198.7309,-1.9895,-94.8244,-68.2700,2.9552
88.9916,-119.2206,14.4445,-111.1535,-56.6692,-51.2553,10.0885,-194.2020,65.7788,-106.2033,60.3877,-144.2829,-129.5730,-70.4784,-118.2419,4.3950,-17.9838,-67.1070,81.5627
90.8743,-193.8512,22.4055,-158.0610,23.8474,-96.9658,68.0692,-196.2850,123.5293,-122.5507,89.7255,-185.1631,-79.8785,-111.6218,-41.7880,-21.3108,41.1570,-78.0624,79.6069
107.3222,-183.1554,76.8148,-138.3663,114.2938,-104.2281,84.5361,-195.1623,68.2050,-113.1491,70.9817,-147.1519,-23.9884,-122.2577,-19.2308,-7.3371,54.4850,-20.5908,11.7294
108.2218,-103.3321,100.1307,-62.3149,133.3587,-50.6600,38.3889,-129.2840,-24.2555,-76.5074,-10.8552,-76.6642,-13.6536,-64.6170,-38.6029,20.9818,14.4042,59.0290,-85.4340
54.8608,-40.3622,57.7838,-13.2905,64.9547,7.2076,-40.9693,-55.4825,-83.7801,-76.2685,18.6207,-35.3629,15.7641,2.5677,-66.8031,14.3341,18.7901,91.4023,-122.6207
-13.9311,-23.6588,1.0843,-27.9482,3.7151,38.6288,-59.8170,-64.6169,-103.3435,-80.0534,151.2423,-49.9751,28.9734,9.8389,-52.0966,2.7422,83.3538,97.1999,-61.6715
-38.5012,-17.4628,-20.9913,-50.6169,9.0100,68.6218,-8.6723,-101.5848,-80.7382,-13.2888,144.6291,-84.2849,-29.2510,-4.7079,7.1431,43.0784,123.0632,137.6085,19.9282
-17.2869,-25.6135,-9.2760,-33.6724,64.5625,103.0746,36.1418,-78.2488,-40.6063,68.3840,-27.0520,-72.8626,-60.1821,10.9473,47.1245,113.7114,134.6259,185.3766,47.6485
6.1863,-63.9309,-4.7837,-19.2947,107.7168,93.2128,52.5736,-64.0874,-22.4423,67.9571,-131.8683,-37.4069,-19.8066,4.8154,57.1320,127.4689,149.4423,150.7125,23.2088
-6.7147,-68.1231,-17.7043,-47.2218,73.2123,37.7840,64.1694,-141.1514,-12.0176,12.7403,-88.1816,-49.4805,-0.8623,-43.6392,81.5564,69.3968,139.0016,55.9435,-20.5801
-43.8375,-27.5796,-4.8334,-84.7686,-2.4546,17.2908,64.0918,-226.7911,19.0399,-12.2321,-13.6503,-87.3984,-5.5688,-51.7001,108.4166,36.3004,106.1426,23.2926,-45.2553
-47.7357,-60.9255,29.3325,-116.5145,-21.4897,37.0227,48.2121,-240.2087,50.5630,5.9799,34.7857,-103.8423,15.2510,-27.4204,101.0762,71.7643,76.4131,64.8107,-39.7771
-0.6216,-172.4302,26.8628,-163.5882,7.7710,3.9557,34.4877,-238.7796,59.0392,19.1797,65.0030,-130.6886,10.0427,-76.2133,74.4643,94.7556,25.4356,82.9619,-41.3762
46.5391,-215.2717,3.9338,-200.9697,25.7575,-71.4133,26.0097,-252.0480,55.2190,-0.0301,46.6896,-171.4215,-31.8932,-164.7722,57.2323,64.4174,-24.7266,61.5507,-46.4069
60.8902,-188.5002,17.8389,-205.2027,51.9808,-85.2322,22.9590,-226.4046,60.6884,-17.9539,1.3704,-177.8204,-41.6743,-176.9956,69.3525,36.7766,-7.8647,56.1138,8.5060
55.2036,-203.9591,34.6305,-212.4428,84.4141,-50.2924,33.2523,-173.4680,92.2915,6.3686,15.8773,-169.5315,-37.6363,-140.1360,118.6642,30.0653,31.8565,70.8236,104.8979
27.7998,-208.7002,1.2164,-213.3910,61.5244,-34.4382,44.2089,-138.9912,137.9878,42.7932,74.9051,-161.3386,-56.5441,-122.5424,153.2563,19.8406,22.4734,93.0492,144.5607
-23.6593,-105.8654,-46.3882,-151.7870,6.6875,-2.6102,37.4383,-104.9673,153.0661,40.7838,76.0906,-92.6302,-48.3636,-89.3749,121.7185,23.1007,14.9231,125.1095,120.8205
-65.8396,18.6972,-78.9618,-71.3791,-11.3484,57.5050,19.7748,-75.2822,127.0009,31.9717,13.7905,1.8715,-13.0939,-40.5617,76.2173,50.2565,41.0639,129.8614,103.4442
-78.2398,49.6928,-123.8871,-49.2004,-1.7672,78.4050,12.0838,-76.4538,100.2703,67.3330,-33.6685,7.8153,-2.2922,-28.6204,77.7420,75.7072,32.9145,87.8112,91.7858
-71.0120,-2.7649,-156.2277,-36.8061,25.5260,92.9690,34.7814,-51.1691,88.4449,102.8305,-29.1087,-30.1351,13.0179,0.0233,93.4113,97.5434,2.4884,56.0403,51.9301
-46.5049,-81.2651,-126.2376,17.6613,76.9256,175.5860,80.2967,23.8812,69.0851,73.6123,18.7583,-1.1567,42.0947,96.3078,93.4805,109.0445,31.0897,59.9666,5.9588
-23.0608,-106.0592,-83.5202,44.8996,82.8289,246.1234,87.3962,49.5076,33.3176,20.4591,56.5888,45.2138,19.8808,156.9821,91.1727,77.7830,74.4607,57.4613,-32.8715
-43.4291,-17.3775,-98.6015,15.9239,12.0743,223.8152,16.9761,21.7622,-17.0824,30.9912,13.3084,44.9304,-18.3887,121.9059,67.8163,35.5397,33.2407,41.7751,-87.8412
-93.4855,82.9112,-140.9671,-1.1047,-41.8387,181.2525,-70.6997,50.9228,-76.4562,94.3271,-63.3500,47.8277,12.6354,80.1635,24.5069,41.7359,-60.4643,13.3777,-138.5155
-105.9981,53.0735,-163.0013,-12.3611,-46.3905,147.2642,-104.8440,98.0816,-115.5525,111.9770,-64.3472,49.4078,46.3566,52.0155,19.6439,60.4016,-108.9454,-78.2166,-145.5970
-69.7932,-26.4033,-173.4256,-59.9726,-61.1355,66.2136,-98.0316,72.4297,-122.5579,63.6640,-33.8831,6.4834,-6.6405,-15.9823,40.6605,49.1432,-91.6374,-201.9914,-131.6788
-29.7788,-10.3163,-162.0459,-66.6220,-60.4643,2.9232,-79.8642,80.3768,-132.1304,51.3797,-47.9852,-9.6726,-74.5937,-54.1431,11.7175,61.2717,-48.0568,-221.3790,-125.1020
-2.7764,23.4394,-98.1918,19.4359,-1.2246,46.0222,-47.8566,206.1635,-158.1444,109.2820,-16.7648,41.2279,-69.0067,9.6462,-43.0239,107.1054,-11.5607,-129.7231,-104.5097
16.0379,-25.5980,-11.0962,83.6001,35.0312,104.0996,-30.4258,301.9968,-178.1893,114.0210,92.5870,67.4973,-25.3556,66.5211,-49.7689,93.8388,6.6101,-89.5889,-86.0328
11.7529,-36.1629,31.0086,50.0692,-26.3045,65.0862,-81.0179,254.6228,-199.2207,-1.0188,140.2944,50.7341,-15.0953,8.5492,-35.1723,-3.8156,2.3347,-163.2105,-139.1993
-22.2139,63.8759,-7.1460,-2.7977,-133.4849,-38.3752,-175.6778,139.0591,-229.6711,-121.4908,109.8171,58.2131,-53.1094,-106.3485,-46.6289,-98.5112,-36.0289,-231.9806,-244.6337
-50.9076,111.4553,-87.7733,-30.5716,-188.6376,-143.8335,-211.0992,25.9965,-226.4113,-162.5423,104.0639,58.2192,-89.3846,-192.2719,-52.8816,-132.7627,-93.1696,-215.1783,-288.5028
-29.9055,37.5178,-104.2593,-60.2737,-131.1219,-214.1806,-139.3611,-64.2165,-177.4693,-189.0395,78.8612,17.0128,-62.6204,-228.3854,-34.5608,-120.6672,-107.1807,-166.3953,-249.9908
21.2927,-10.0481,-18.0390,-53.2674,-4.2352,-203.3823,-37.2232,-98.9472,-144.9898,-235.3640,-8.0276,14.2550,6.9572,-208.8576,-21.4391,-87.6578,-52.6822,-137.1135,-222.8596
25.2544,18.4919,48.7520,21.4083,61.0528,-126.3515,9.6817,-104.8838,-148.2550,-233.5067,-28.3067,67.9718,49.9412,-150.8006,-9.0427,-54.3329,21.3972,-98.5529,-223.5343
-26.1202,48.6005,17.6859,78.0907,35.8996,-47.9875,16.8375,-134.8468,-138.5558,-173.5953,60.7523,95.9878,56.8609,-96.1152,22.1224,-35.2420,76.2139,-30.2882,-180.5330
-42.8666,94.0654,-5.9421,55.4873,11.8653,14.0487,12.4485,-168.9269,-116.7729,-145.1190,143.8987,87.6106,34.1380,-66.7149,37.9103,-36.4828,99.0873,13.0776,-125.7293
10.3005,141.7638,39.6163,17.1450,-11.7530,39.4759,-38.7657,-199.8208,-118.5433,-193.2864,175.7777,79.8719,-40.5968,-77.0767,15.6186,-60.7255,65.2607,-15.3858,-161.3612
64.1155,79.8878,58.0681,14.6615,-89.0934,-23.5985,-122.8264,-266.2227,-113.9986,-258.4189,150.3950,59.1113,-123.8330,-137.6477,1.0634,-91.0091,-6.7145,-73.8664,-246.7478
77.0508,-43.0601,8.9631,10.5487,-154.7854,-142.1470,-156.0573,-339.7603,-71.3284,-274.4720,38.7178,24.5865,-136.3648,-220.0850,11.3594,-107.9554,-54.4194,-105.2912,-256.6342
75.3373,-50.0959,-31.0180,-14.9739,-146.2757,-215.4928,-132.1322,-357.3578,-36.9696,-256.8649,-42.6333,8.6567,-88.8070,-280.2726,-10.9691,-132.0887,-68.4278,-109.3606,-195.4318
61.1733,43.8569,-24.0506,-23.9932,-108.4058,-214.3730,-102.4865,-324.9981,-45.5022,-255.4327,50.4051,11.4232,-31.4065,-289.4140,-73.7853,-178.5687,-64.2680,-91.1594,-143.9212
14.0246,100.9577,5.9259,-11.8781,-61.7130,-171.0627,-63.4968,-281.8355,-66.1190,-256.4236,201.8036,15.7012,5.6250,-235.9885,-95.8356,-195.8331,-27.0373,-55.0391,-107.1555
-17.7813,100.0978,37.5221,-16.1530,-12.1239,-104.3297,-31.3767,-253.6764,-80.9537,-204.6021,233.9816,11.5667,-20.4916,-154.9258,-52.5943,-127.9617,11.1023,-39.8473,-73.5393
37.4368,49.5040,57.8390,-38.4567,-21.3553,-34.0724,-66.4271,-241.2387,-97.1165,-110.2463,187.0899,-17.1327,-83.7496,-106.1962,-18.2583,-10.8838,-10.5644,-39.7169,-75.5828
116.0372,-69.3507,65.4727,-60.3569,-61.9690,6.8352,-122.8921,-198.8069,-104.7380,-47.8140,129.8751,-63.6806,-78.4918,-96.9236,-19.6662,44.7765,-60.4851,5.2867,-98.8913
79.9709,-158.2314,50.5564,-84.1711,-17.2565,4.2199,-95.8322,-115.5616,-101.5295,-60.3668,32.6956,-88.5107,-15.8540,-97.8158,-2.9849,-17.7564,-70.7064,62.9744,-76.1057
-38.3326,-107.5803,-9.4789,-84.1959,88.1196,-18.7550,-11.7625,-65.3678,-86.7602,-121.5770,-54.4255,-66.9049,-0.0768,-90.9318,33.8830,-102.5892,-43.9192,45.9494,-2.3113
-81.5306,-7.5292,-70.8004,-29.0527,125.2579,-20.2953,33.6518,-66.0370,-35.2532,-166.4800,-39.6192,-13.8108,-13.9268,-57.1164,32.6258,-82.1062,-9.8747,-12.4450,46.9801
-31.4539,15.6219,-53.0891,27.3956,80.7274,-4.2499,21.8525,-59.5578,27.4462,-159.5443,32.8849,26.4081,-4.1596,-20.1285,-2.9305,-9.1750,5.9658,-39.2504,10.7268
18.8294,18.8767,9.6989,28.5968,19.9606,-22.7189,-31.5913,-66.6792,15.0171,-143.0285,64.9277,26.5965,-26.9236,-52.2732,-16.4212,-21.8957,-25.7082,-62.7706,-83.9432
29.8390,79.9868,15.9028,23.0555,-38.2257,-65.9608,-112.6126,-128.1249,-73.7896,-154.0436,30.8392,19.9119,-96.1297,-125.2034,-9.6761,-86.7595,-80.4490,-96.6012,-148.9269
-14.8361,118.8670,-31.1382,47.7822,-90.3620,-62.5997,-173.8918,-166.5721,-139.2649,-135.9552,-27.6892,35.7303,-127.9819,-120.7331,-22.0983,-90.1934,-103.2000,-88.2546,-144.8786
-80.3250,62.1291,-53.9299,60.3758,-114.2088,-14.9468,-183.1236,-115.0951,-132.9603,-50.1546,-18.7883,43.6813,-105.9373,-46.6961,-36.7143,-61.8568,-104.0081,-56.8954,-111.0687
-46.1242,-7.4229,-26.7316,57.2648,-97.3353,20.9127,-152.9054,-36.5660,-84.6530,27.4589,78.3644,32.9665,-80.2688,-6.7620,-21.6892,-62.8904,-109.3352,-53.8097,-64.4111
62.5123,-4.3957,20.5922,65.3617,-50.0664,52.3224,-90.4564,5.4723,-25.9184,51.4319,126.0097,36.4797,-73.9819,5.3935,-18.0214,-49.5983,-91.4619,-39.4852,23.4604
76.1947,32.5553,49.1184,60.1220,-4.5783,99.5174,-7.6038,30.6052,19.4684,87.0467,55.2098,50.9709,-94.1469,39.6400,-66.2549,-10.8548,-39.8879,12.7714,136.4399
35.1405,59.7688,51.6985,39.2111,16.8272,127.1669,61.2593,61.6071,53.8665,154.7503,5.4916,57.5204,-106.7631,46.3621,-98.9812,-7.7099,2.0144,44.0936,217.4634
99.1392,93.7954,65.9174,35.8877,35.1112,124.8433,109.9607,85.9298,111.7697,192.1993,74.6664,63.9768,-53.1664,-2.6856,-34.5547,-32.2078,1.1900,48.2019,238.4965
190.1587,98.2951,95.0985,25.6014,70.6386,130.7885,147.2305,85.6644,172.4085,190.3548,182.6938,47.7419,16.9538,-23.7958,71.5091,-34.5185,-34.4634,84.5145,199.6522
163.9393,10.7848,82.3455,-7.4321,111.9070,149.9191,154.3876,64.0095,172.1283,186.8942,214.0787,-9.4718,6.8263,26.6046,95.0042,-14.4343,-61.8848,132.7697,135.0900
60.6748,-78.1699,38.1480,-3.8690,158.5765,162.7207,143.3860,56.7946,129.5381,183.3754,106.4322,-33.7585,-43.9335,77.7782,19.6645,35.7039,-29.4916,129.5031,115.3579
-47.3339,-16.6052,51.7917,44.0960,212.3819,181.1447,160.6189,91.0195,102.9984,179.8973,-63.8762,26.8472,-47.9147,77.3624,-60.1391,115.9758,55.4687,107.5676,144.5765
-93.1524,126.0766,119.8083,76.2229,237.3061,221.8915,184.6276,144.4948,78.9380,183.4655,-78.5707,91.8871,-21.4514,67.6654,-71.0403,144.4420,123.4384,135.9691,138.9304
14.2394,149.0749,144.6807,93.6807,207.5412,272.9938,155.5855,178.1774,39.2820,164.3554,91.6423,93.5416,3.5247,94.3341,-20.5269,88.3218,130.8286,184.4727,78.8285
167.5487,60.1619,109.1307,121.3059,151.3646,304.8719,98.4401,170.9441,11.1129,114.5509,177.0793,82.9535,40.1316,125.5493,37.5275,59.4946,98.4877,174.7974,34.1583
149.4090,13.0893,63.5731,120.8104,110.1686,285.8728,80.8519,124.3051,-11.2024,74.8209,55.4761,93.5097,61.9949,112.3850,52.5820,113.5201,63.4052,111.6213,20.6673
19.5355,9.7084,10.4748,73.1432,103.0170,220.9517,102.8710,71.5001,-39.8723,36.8517,-73.0856,71.1114,25.9991,77.1262,19.9412,148.5510,42.9709,70.4051,5.3969
-25.5636,-17.9035,-40.0203,23.5093,122.4622,169.1209,127.3920,46.6437,-35.0419,-38.8756,-59.4996,9.2734,-34.6322,65.7023,-13.0242,112.8103,40.3456,87.1730,8.8625
3.7942,-0.1665,-31.1201,4.1996,138.9299,164.8403,141.4354,36.0985,9.0267,-109.3400,34.4067,-3.8329,-46.3307,57.3473,-7.2963,72.2600,55.6497,124.4997,41.3671
45.4505,117.9087,25.9556,21.4347,132.6053,161.8586,135.0359,10.0530,40.0569,-112.0686,110.9514,69.1403,1.6459,15.7669,13.9885,39.7225,79.9609,132.5534,36.2045
117.5801,213.3692,52.5416,67.0775,101.5546,111.0291,92.0941,-40.7961,41.1427,-77.2397,123.9514,138.8064,28.8050,-33.9116,5.6224,-20.4584,81.5404,96.6414,-33.5723
158.0397,162.9735,41.8915,83.8641,45.1400,40.2416,24.8645,-128.8399,22.8410,-57.0408,97.7599,117.5917,-30.8348,-61.7813,-27.9858,-64.2548,37.1924,32.5325,-85.5846
123.7864,25.7863,58.8892,30.6103,4.6471,19.2944,-15.5905,-231.3553,-4.5024,-40.8023,91.4171,47.9740,-100.0147,-67.7780,-48.2772,-42.1295,-10.0521,-21.7391,-43.1550
124.4287,-42.7040,124.3108,-22.5389,45.8922,73.4218,13.0741,-264.2921,2.2850,-5.8154,76.1977,26.7078,-67.7847,-34.9944,-55.9266,8.7769,12.9387,-26.5391,59.7917
191.6949,19.2142,191.9005,3.3951,121.0893,139.8397,72.0612,-211.9088,36.2367,32.3217,13.1643,55.9711,-3.6530,21.9683,-83.6147,57.7260,95.7864,-0.8460,114.6699
227.8250,116.6799,209.0538,58.8865,99.0025,130.9643,68.7481,-166.9817,0.8055,42.8483,1.7755,66.9719,-37.2448,17.7858,-113.9794,107.7301,141.5162,-19.3213,64.7188
225.8689,136.3217,158.8971,51.5035,-20.7382,48.0143,-7.9677,-169.9385,-96.1074,14.3362,90.8853,37.5657,-111.3002,-71.8199,-95.2303,113.0323,95.4805,-97.0452,-20.6131
208.2028,90.0039,61.0570,-10.6159,-116.9084,-30.1661,-73.5358,-173.9934,-123.7218,-29.3266,135.7322,-7.6031,-111.7150,-158.5321,-46.7328,47.6488,2.8739,-147.4619,-46.8272
132.3952,39.2554,-42.6672,-52.7845,-143.1762,-59.5396,-86.8284,-159.8171,-91.7125,-53.6856,68.4045,-47.6293,-79.5232,-186.9949,-34.9677,-11.5490,-71.2541,-106.5027,-23.5242
49.9998,-16.4050,-102.4710,-48.7765,-128.1150,-48.8634,-74.2310,-125.7215,-117.7602,-53.4634,9.5527,-55.6940,-74.4234,-181.8100,-51.4217,-16.5807,-108.1515,-14.1182,0.8050
43.8715,-57.0517,-101.4058,-28.2096,-73.1975,-7.6266,-35.6597,-51.2302,-152.1091,-34.1716,10.3723,-12.8186,-45.3888,-156.9124,-39.6293,-16.9658,-110.9036,65.4387,39.5172
50.5397,1.0571,-81.1550,-1.7809,9.7116,47.3722,36.2499,34.5817,-77.5038,10.0340,10.3813,50.8222,22.3292,-113.7816,-1.0577,-23.4094,-76.6993,115.2912,99.6930
34.6433,146.8872,-71.0662,40.8748,71.4118,90.7761,99.9978,85.8315,38.5459,62.3480,13.8726,84.7498,52.3608,-71.2571,37.6225,5.5429,-23.6971,140.1907,134.8122
68.0523,224.3026,-48.2989,65.4997,89.7199,124.0663,123.1456,129.3193,76.3515,84.1647,39.9081,67.7209,25.2608,-33.6922,71.8394,48.9500,-2.1572,145.7796,123.7027
101.6847,135.2547,-28.9415,27.8792,75.3026,150.7822,112.6134,181.3414,56.0156,64.3022,38.9952,14.9732,4.8829,-4.9272,73.4887,65.9449,-33.4412,138.9480,82.5547
56.6440,-20.1421,-50.2020,-23.5316,47.0412,149.8458,69.4488,204.6299,26.5199,27.8894,25.2229,-22.8172,20.0886,-2.1027,31.9231,72.0585,-61.2157,111.0221,30.2773
45.4948,-86.0500,-36.3946,-13.4357,34.9177,123.6160,5.4461,239.1545,-15.0782,16.4851,81.8432,-10.5784,35.0364,-11.2767,14.2922,79.4926,-16.6244,54.4302,18.1575
127.0759,-52.8888,81.5157,11.5061,42.3856,101.2153,-34.6022,368.1122,-35.8842,60.6106,165.9149,1.1728,25.7061,-19.3982,44.8498,82.8267,77.5392,-1.5694,81.0106
169.1579,-12.3374,176.2779,-31.0531,39.8458,83.7393,-25.2275,530.5342,0.9299,137.0513,152.2361,-45.5710,19.5933,-53.9265,51.4609,95.4012,133.6040,-18.7065,146.8985
172.2889,3.3226,128.7536,-91.7764,29.1665,56.2800,15.6311,582.8414,40.8680,193.2405,69.8496,-105.0980,37.7071,-102.6999,23.5015,98.3328,121.9445,1.8459,139.4058
238.7980,-4.2946,40.9321,-94.0731,28.2234,19.4909,45.4534,514.9350,19.4636,225.0518,39.4823,-116.5128,43.1076,-115.8922,16.8274,63.9627,85.0324,30.9452,101.2665
238.2554,-54.4670,11.5831,-81.0535,14.2414,-23.2927,14.4140,429.0484,-30.9816,249.7725,44.5798,-105.7018,0.1423,-115.4308,8.3460,43.0686,51.1261,46.4934,85.0040
56.1629,-96.8795,-12.4796,-91.8736,-31.0254,-51.2267,-76.1566,369.0859,-53.0809,237.9924,19.6071,-100.2458,-66.6477,-138.4390,-29.9772,53.9447,24.5041,43.6382,48.5696
-75.7332,-68.7341,-36.3539,-70.9394,-92.9383,-32.4328,-164.0669,300.0795,-64.9719,167.4662,11.4272,-81.3928,-116.3536,-146.8862,-42.1033,0.9259,14.0455,27.5332,-44.5773
6.4878,-49.0959,-4.1235,-24.0799,-165.7427,-9.6726,-227.1873,196.1366,-104.1952,67.6810,25.5809,-63.2652,-121.3883,-143.6464,-30.2209,-122.0562,0.9285,-1.6784,-139.6282
96.6755,-96.8524,33.3587,-48.4606,-215.7754,-73.4333,-273.0170,75.8679,-127.4342,-36.8647,-20.1963,-81.3123,-63.6628,-199.9717,-47.0625,-180.1336,-31.9731,-41.9766,-147.1278
71.5419,-115.3817,27.1394,-143.7711,-175.5909,-197.2234,-242.9567,-25.1116,-69.5985,-126.8445,-61.8675,-127.9925,5.6883,-287.2334,-39.6184,-157.9478,-23.0853,-67.2080,-51.3978
71.6613,-107.4653,39.6518,-208.5711,-87.8306,-253.5225,-132.7660,-95.2644,23.5614,-163.8245,9.8270,-180.3540,-14.7580,-309.1380,7.5495,-168.6697,63.3101,-60.6812,31.0532
99.7167,-170.0594,73.0497,-203.0023,-93.4495,-212.6375,-93.0673,-148.4654,47.2675,-156.7226,72.5449,-200.1630,-116.2365,-275.0172,-39.3168,-201.6031,116.0684,-52.7227,-22.5981
57.0899,-167.9203,54.7468,-141.6418,-197.8062,-157.5192,-183.0636,-187.3384,4.0020,-159.6486,25.8137,-124.1708,-184.7429,-240.3707,-168.8844,-173.5993,59.0659,-58.5067,-146.6210
68.1403,33.7358,32.0913,-31.7200,-254.8140,-118.6283,-243.6523,-196.0588,-21.9113,-167.7502,24.4342,22.1753,-187.8887,-193.8946,-173.0955,-128.2566,10.8417,-30.8590,-180.1620
197.7506,194.3731,96.8621,70.7035,-199.4665,-54.9942,-181.8240,-170.1281,-14.6465,-141.4390,98.2744,110.2593,-171.3194,-125.6925,-39.7374,-126.6711,64.4623,57.5480,-113.0626
208.5493,121.9665,179.1753,92.2378,-99.3575,25.8514,-87.0127,-124.3246,-3.6205,-102.3600,55.1270,102.4230,-129.5636,-66.7830,41.2571,-114.7680,119.0364,152.7152,-38.6339
45.3575,42.4573,149.4767,64.7579,-19.8409,61.7911,-9.0655,-74.6768,34.5108,-87.4817,-61.9614,93.4186,-61.1330,-35.5320,50.2611,-58.8489,88.1024,187.8677,20.8987
-5.2419,131.7790,28.9813,75.2946,19.9636,40.9370,75.8323,-38.2479,108.9039,-86.7998,-40.4704,130.5391,-22.5061,-27.6284,91.3838,-18.5008,41.8132,164.1461,69.1624
113.6635,246.6221,-45.2518,133.9226,37.4968,26.7333,138.5831,-26.7872,144.6877,-83.6356,65.5246,173.9274,-3.6120,-3.3821,133.3912,-18.2212,47.0600,149.8756,85.4576
176.2203,283.1696,6.7052,193.3849,87.5342,72.3647,162.1746,-19.1877,91.1392,-68.7601,110.5389,202.0069,73.9877,89.1770,119.5598,-11.7558,69.2061,200.5071,98.5280
182.5906,277.5355,136.5884,222.7816,182.0177,151.7471,188.1517,2.9389,6.6518,-35.0001,139.4095,220.2164,195.8112,197.2218,108.3660,26.9478,68.0105,265.7691,140.8093
252.4643,243.7455,247.9125,225.7659,247.5702,189.9490,212.3116,-2.9692,-30.7381,-4.8837,181.8977,233.6571,280.8311,209.0293,139.9176,88.7232,60.3384,246.8226,169.2296
270.8488,221.9135,294.4741,237.2455,234.6585,148.2536,197.5146,-68.0887,-22.9553,3.0585,195.4566,252.8741,318.2830,148.3773,163.4363,154.5805,78.5138,156.7344,148.1200
172.3536,241.1339,274.6895,264.9865,173.1158,64.9364,147.8559,-119.7637,-28.1696,9.2629,218.0628,260.5271,317.8018,117.1133,125.9294,176.1602,112.5449,86.5667,101.5603
142.9853,225.3063,218.3848,256.2986,99.9546,10.4742,79.1938,-83.6777,-72.1662,15.6157,246.2001,226.4993,253.4859,112.8051,35.9161,116.3277,119.7089,40.4759,64.4490
234.7039,166.3676,202.0877,198.6541,40.3831,3.7961,26.4175,-4.4957,-106.6283,8.4636,212.8241,179.1219,161.9813,99.2962,-32.2117,31.1749,95.4446,-23.4834,75.8209
274.1077,159.4315,240.0182,153.3342,19.8104,-5.2505,40.8882,54.8689,-82.3575,24.1057,168.3334,159.2198,123.5293,100.1618,-30.4656,6.3474,70.2402,-70.8499,140.5448
215.1984,189.5367,220.9966,138.4810,19.4559,-46.8735,84.0921,104.2462,-34.7236,84.4480,140.5443,148.1598,120.9767,108.2601,-25.5752,26.5547,50.7014,-65.1353,188.4597
156.5054,181.9298,123.3556,129.0412,6.7388,-74.2766,82.7374,137.6411,-13.4857,139.9477,43.3303,132.8239,95.5122,91.8213,-66.0639,31.5515,50.7272,-46.5267,192.0776
128.7371,147.6591,100.1462,140.6422,12.1768,-48.4446,85.7173,127.8310,14.4642,171.7480,-39.3571,135.3311,73.6573,77.2361,-76.7388,36.8364,92.2492,-50.2680,206.1616
126.3858,103.1798,187.6425,157.1840,57.6663,-15.9516,142.4299,105.9635,74.0559,202.6074,51.1947,135.9345,82.1847,72.5194,-37.8645,59.3064,113.9043,-70.8282,209.0490
160.3720,75.3185,233.0031,112.7941,85.1941,-31.2399,167.8652,92.3195,96.4811,200.6889,177.9400,100.0528,81.6651,43.6581,-36.2226,49.4502,54.7614,-96.8135,137.7013
201.7652,123.4401,198.2134,48.2361,66.0648,-63.0307,124.8069,56.6915,50.1420,153.8997,154.2647,59.4590,67.9368,28.4775,-52.9410,16.5684,0.2689,-90.8930,52.9885
202.2419,168.5011,171.0754,64.0012,37.0068,-50.0363,83.7263,25.5088,9.4605,139.3905,71.9563,52.0410,35.7377,77.0548,-13.7604,33.9367,9.6406,-31.6197,-1.0525
112.7996,87.7170,106.6531,116.0646,-29.1558,-1.8739,20.0209,39.4335,-11.2795,172.5925,-1.3241,53.9527,-127.8934,131.2550,-19.3131,74.6662,-50.0084,3.8892,-130.6984
-112.9342,-26.5636,-86.2258,97.7150,-201.6091,16.0233,-147.1958,33.5198,-107.8036,166.4329,-178.4907,32.7163,-466.0021,136.5454,-195.5313,62.6307,-261.4800,-57.5047,-353.8031
-413.6603,-70.3019,-323.2167,26.0681,-429.6146,-21.7085,-355.2202,-31.6202,-291.6376,101.4460,-442.5193,-12.0347,-790.9657,134.8023,-425.5491,25.3054,-481.8207,-157.9399,-496.3326
-626.3847,-131.4396,-463.0274,-34.5953,-572.9510,-69.5424,-476.8312,-73.6089,-428.7999,29.3747,-641.1616,-66.2099,-930.0386,155.5208,-499.4130,-0.4751,-561.8286,-227.6462,-467.4926
-699.1094,-238.1005,-497.2201,-86.8596,-583.3132,-98.2416,-491.6904,-88.4594,-428.1013,-54.4595,-749.3746,-119.8629,-943.7947,172.9851,-415.0995,-50.1360,-528.6295,-311.8895,-381.2582
-760.1099,-323.8482,-521.4395,-157.0318,-552.7886,-153.7377,-478.6380,-185.4485,-360.1850,-164.7122,-847.6656,-186.1252,-947.5659,171.9213,-358.9239,-108.3369,-522.9080,-450.5367,-371.8812
-916.2049,-436.8839,-623.2844,-254.6395,-588.2260,-258.9305,-524.2875,-336.7408,-351.0889,-262.8804,-978.1228,-278.9501,-939.5233,160.7148,-435.6663,-127.5193,-640.6070,-562.9631,-447.9090
-1077.4275,-581.9819,-762.6885,-343.9001,-665.1096,-336.0872,-603.1069,-374.4541,-419.0415,-334.4575,-1089.4337,-363.3597,-881.1260,191.5417,-526.1191,-148.9766,-774.9912,-562.6644,-504.8256
-1056.2192,-627.8383,-768.9467,-338.7579,-651.7275,-323.0077,-580.3678,-241.9302,-463.6490,-391.8905,-1055.2391,-391.4028,-765.1046,335.0386,-484.6915,-201.5029,-726.6794,-481.7951,-462.7271
-852.6539,-573.4139,-579.4018,-237.4590,-515.0387,-266.3221,-444.8315,-29.1743,-418.3568,-408.1115,-863.5061,-359.7826,-594.9341,532.3369,-372.2846,-222.4093,-537.3772,-399.2556,-384.3290
-686.0309,-499.0273,-356.4512,-159.4248,-378.3948,-214.8707,-341.0392,186.3004,-333.2094,-367.3330,-691.8895,-277.5981,-381.5126,631.5254,-306.3255,-188.6146,-422.7499,-331.2927,-352.7488
-644.6335,-365.4528,-245.3066,-142.4059,-320.2161,-152.0733,-295.2159,374.0315,-270.8408,-318.5794,-628.5721,-163.6600,-145.9340,629.4122,-246.4243,-140.6349,-404.6721,-271.6638,-332.1522
-577.6220,-216.0674,-217.2785,-109.3923,-295.4901,-89.0566,-228.7521,480.1321,-237.1852,-310.8937,-567.2039,-85.9859,56.5910,630.8446,-156.4016,-100.7239,-376.9705,-248.1004,-281.9384
-428.6004,-198.1917,-190.7289,-63.0555,-261.4687,-72.5765,-175.9957,457.8781,-236.4293,-340.0842,-455.2493,-84.8682,153.2586,621.5705,-125.2442,-91.4442,-339.2269,-248.6696,-214.5592
-307.5839,-256.5164,-105.3473,-61.6273,-196.0233,-80.6559,-156.2867,358.8907,-256.3950,-369.0334,-338.7641,-111.0788,181.8462,554.3796,-156.4342,-107.1782,-275.2023,-202.7573,-100.8629
-232.7376,-265.8648,45.1556,-70.3116,-73.9774,-47.3577,-75.8574,266.9576,-232.3585,-358.6561,-218.8183,-124.3280,271.9566,498.5794,-140.3419,-83.2766,-140.1199,-104.2278,54.5970
-159.0119,-280.2829,152.4432,-44.6972,50.3256,22.8591,35.2713,149.7861,-143.1725,-291.8166,-95.9899,-129.8105,421.1710,490.8498,-71.6106,-37.2053,-41.5763,-18.7104,167.1022
-112.6153,-303.2750,149.9313,-23.8528,99.0497,64.1970,64.9894,-56.4641,-41.0940,-173.4040,-11.2441,-108.5989,518.4426,460.8402,-15.2011,-57.5897,-50.8020,30.5733,248.8133
-77.2246,-231.2641,164.2440,-32.8525,117.2793,45.8126,77.9978,-280.2029,57.7041,-21.7776,23.3049,-61.5513,574.6381,387.1077,31.4822,-96.8204,-29.0192,42.3063,355.7496
-19.9353,-130.9231,269.6164,-42.0521,168.2834,1.1659,139.7435,-437.7308,155.4952,106.9657,8.0127,-44.7271,643.5253,310.1371,69.1181,-69.1803,71.0694,-1.3876,387.3840
-5.5099,-110.5477,329.8367,-19.2200,209.1994,-17.5274,146.4329,-546.6579,203.9372,149.4677,-23.0815,-46.7037,658.7136,249.9502,90.7486,-47.3950,129.6140,-45.4931,280.5722
3.2963,-84.1516,299.1958,63.2500,220.0754,14.0112,100.3132,-559.2698,203.5872,119.8161,30.0234,10.7472,601.2026,235.6040,144.2967,-76.6616,168.5811,-15.0597,168.3005
150.2854,-1.6429,310.8900,181.0526,234.8692,77.0012,121.2881,-396.9035,215.0886,66.2128,151.1506,105.3455,576.6344,263.2444,202.4193,-66.8157,276.7680,22.5716,97.4311
320.7652,33.2455,365.0567,238.5802,228.0482,127.1394,150.6285,-183.4977,208.7122,-8.9959,186.4583,146.5546,603.2477,250.1257,164.8154,-17.2470,372.4855,-15.9446,-5.0331
295.2141,5.8458,360.9044,212.0511,204.3029,136.8260,104.3945,-83.3995,135.2214,-73.8138,159.7614,141.6847,612.8700,188.2957,107.2163,-2.7181,390.5505,-38.0445,-58.3630
221.9685,5.4341,379.1491,193.6643,241.3286,125.4100,94.2407,-41.9145,73.0918,-62.6692,260.2514,155.0056,618.6461,174.5521,189.5612,2.5688,395.1213,44.6775,11.0381
343.3284,65.0225,514.5267,226.0893,290.7183,130.6112,153.0674,30.0262,69.3407,-28.0711,472.1232,193.7991,641.0695,209.5081,317.2563,10.5285,390.0700,131.5855,56.6991
518.0350,181.6680,631.6731,266.1791,241.0722,156.3712,152.3965,87.3405,47.8649,-61.9155,596.2947,240.6194,630.3845,216.4040,284.7771,-13.6022,365.4376,125.5680,18.8820
525.2021,313.5528,614.6757,302.6253,175.9928,180.9740,110.9296,89.7243,18.6372,-84.2283,563.7225,286.4544,576.6207,216.6365,147.1284,7.5741,401.0495,89.4686,25.5037
446.3210,338.8483,556.9894,333.2867,205.2228,184.2607,125.2704,27.0856,59.8740,-0.3138,456.5025,297.7920,511.2438,238.3009,92.4955,101.0608,471.1517,92.4251,58.5287
430.1919,207.9828,514.7972,301.5753,224.0514,133.5042,124.3575,-107.3022,103.7270,80.4891,370.7148,244.9476,443.2799,200.6085,123.2085,102.4071,435.7474,98.2520,16.1547
455.5796,53.3249,423.9686,194.1553,154.9252,19.0796,59.9498,-217.0171,71.9117,63.3087,346.0219,155.1304,410.6904,78.9315,136.4638,-17.0045,308.8144,64.1528,-16.1619
429.1434,21.7155,323.2898,98.3711,111.5496,-81.1735,34.9009,-217.6924,49.8801,40.2924,315.7473,85.3302,442.6086,-10.2872,136.3240,-72.1639,230.4802,25.8975,36.3583
308.5229,88.2342,320.0424,85.4639,156.1749,-83.0914,73.5105,-195.1670,85.9562,61.8531,235.2568,62.9827,479.8374,8.8230,179.1318,-35.5890,247.0972,49.3118,84.8574
171.5076,107.2328,361.3162,125.7067,224.0444,-26.2904,109.2824,-213.8208,107.8569,64.5253,225.6632,67.3798,488.8925,75.1402,240.5688,-21.3486,305.1435,120.6349,105.0094
145.3258,27.1551,322.0090,143.2571,266.3546,-14.8092,143.6230,-220.1023,117.1192,69.6289,336.8607,65.6791,511.9972,97.3330,257.6641,-10.7199,319.6989,136.6488,141.8947
206.7965,-23.7113,241.1052,110.1821,251.0271,-69.7929,168.7998,-224.2766,153.8497,142.2039,379.9009,64.4258,533.4778,51.5191,239.9525,29.7296,242.8054,66.0925,161.7226
240.3788,55.2659,232.2578,78.7831,185.5022,-121.3977,147.7500,-254.9599,161.9147,235.9782,270.2811,88.6064,510.8466,-10.7688,242.4194,40.6993,150.3621,21.2017,176.2749
238.9789,173.0365,248.0885,109.3323,165.5588,-104.2238,139.6169,-239.4540,125.2009,290.5991,194.9069,125.1905,487.3493,-19.5487,253.6413,41.5707,123.3598,67.7966,249.5627
208.9779,216.4107,166.3495,178.8523,214.2573,-25.4850,198.9427,-159.2845,131.4209,315.6971,257.2940,154.2763,487.6556,31.5779,228.2081,80.1404,113.6039,122.8996,315.6580
105.1792,202.3391,40.9480,215.7396,243.0414,53.6159,266.5075,-86.4509,201.1271,304.3321,335.8755,189.1001,461.3244,91.4943,201.5611,98.5733,99.3375,129.4391,308.2209
22.9534,174.2504,20.2208,201.3575,257.0276,103.4704,312.6269,-35.1241,264.8593,236.6765,325.4821,214.6938,417.3638,133.2881,220.6941,79.9136,139.4965,129.9252,294.3344
96.3251,135.1692,84.0173,166.7874,302.4558,133.1349,350.7615,-0.1870,275.4818,131.5752,226.3804,177.7998,414.0602,149.9590,232.2549,72.7677,199.3133,124.6133,266.7357
204.0652,96.2281,117.9566,128.4535,301.3891,119.6654,325.4814,24.1207,224.3727,16.8748,106.7936,100.2784,432.1635,112.3025,202.5623,53.1099,222.4239,73.7407,163.8770
168.3619,75.7759,128.4302,97.1745,222.2789,57.1291,235.9111,107.7878,153.0978,-57.4520,92.5540,74.4116,414.5009,42.1806,200.7467,37.6431,253.6815,22.2942,92.2956
82.4695,86.8273,139.2301,92.3516,162.5301,14.4717,189.2512,216.6926,132.1786,-43.2341,199.5466,101.8546,354.2886,27.5593,228.4669,109.6388,264.7104,22.8999,123.0873
109.3842,122.7278,89.2693,94.2577,133.9761,9.9505,188.1067,193.1992,145.1149,-4.3555,258.4358,96.1089,277.7455,58.0223,191.1162,180.2265,182.6044,17.7299,118.6396
199.6542,136.9811,23.3164,66.6647,93.3430,-21.8228,146.1996,63.7191,128.6310,-26.0506,195.5055,63.7512,214.7237,36.4861,104.5223,114.0860,126.4511,-38.8615,50.3455
228.7068,120.8732,71.9294,43.7574,95.4465,-67.5269,97.1390,-21.8199,108.8188,-44.6452,156.9679,88.9833,180.7762,9.4051,74.8155,28.9648,194.5752,-77.6200,46.6789
195.8680,113.6028,163.5425,65.0436,138.4856,-72.2716,100.6151,-77.7508,113.0759,2.3388,219.5084,128.4631,160.7489,80.9266,101.1758,45.8651,229.6317,-60.8213,58.5569
174.6999,73.1222,131.6835,58.6839,121.9100,-94.1686,101.1090,-120.6369,90.4297,20.1966,271.1180,54.3471,143.1991,147.7436,126.6209,33.4265,151.2331,-62.5575,-22.3953
181.5790,-28.8656,33.2087,-28.9815,68.4720,-171.3803,70.5580,-58.3914,50.6515,-40.4915,250.1067,-86.4782,142.3726,89.2741,155.4626,-61.7998,99.3314,-114.9662,-92.9520
145.8473,-65.5065,-13.0645,-99.8766,51.5471,-214.6967,48.5353,45.3941,46.8343,-91.7649,219.8648,-128.0264,153.2625,9.7017,160.0212,-82.4348,84.2183,-156.9648,-92.5312
33.6171,-15.1325,-65.0958,-94.2759,10.0907,-202.2170,11.7379,67.9531,25.8881,-114.0404,189.4136,-84.0333,141.0478,-17.1715,80.1787,-16.9642,2.2388,-170.2655,-141.7283
-43.9648,-43.9612,-141.4549,-94.5859,-78.2453,-189.9852,-49.4187,101.0490,-42.5092,-141.8389,93.4251,-79.4692,101.7571,-54.6324,-16.1427,5.3872,-76.7875,-176.7347,-218.4387
-8.0819,-107.4914,-142.0618,-105.0933,-121.6515,-128.9742,-63.8045,210.7091,-54.9554,-107.0942,-64.5895,-76.0705,78.0168,-60.3453,-22.2357,20.2185,-81.2249,-138.1690,-173.3649
-11.3379,-19.0855,-123.4145,-49.2497,-130.5321,2.3979,-51.3499,274.4106,2.2971,17.0728,-204.4360,-1.8826,87.3452,-0.6003,-0.7400,95.4005,-120.0979,-40.9123,-44.0132
-182.0974,84.6903,-211.4139,0.2392,-164.1697,79.9785,-96.5798,231.1061,8.4434,104.7790,-264.0354,29.8109,88.9439,19.7569,-48.1848,123.3853,-225.9464,30.3543,62.8249
-341.8589,-18.6241,-314.9862,-64.7260,-163.2650,82.7357,-138.1241,82.1232,-32.1698,88.3311,-252.9412,-74.5269,59.0435,62.7279,-96.3065,46.8750,-289.4822,38.5743,162.4483
-336.2342,-210.9522,-338.0310,-182.5574,-122.1459,88.4927,-99.3164,-179.7625,-22.8905,25.4691,-282.1499,-221.4206,31.7422,225.3691,-78.7342,-25.9275,-305.4023,40.5436,217.6092
-356.2549,-333.2585,-375.4156,-282.2021,-143.8973,-14.3312,-74.9327,-401.0000,-4.2098,-73.0712,-459.3206,-323.3580,21.2311,226.8470,-80.2024,-64.3198,-332.5930,33.8788,136.4370
-529.4611,-403.8936,-415.7451,-359.1032,-195.3944,-317.0103,-120.2376,-450.1675,-58.0951,-212.0519,-659.5836,-353.7673,-12.9139,-97.1120,-147.9659,-137.9697,-338.6966,-34.1618,-13.7354
-603.3743,-364.6099,-324.2212,-319.5320,-179.5601,-568.8956,-148.9876,-463.3495,-153.3856,-293.3252,-621.8394,-241.7944,-95.6068,-339.6272,-202.4607,-213.0528,-318.9944,-133.8888,-132.2217
-405.9658,-181.5267,-197.5581,-118.1489,-174.7971,-547.9555,-169.2559,-489.7592,-245.2183,-243.3891,-345.2876,-10.4365,-206.3067,-268.3539,-213.5434,-212.2966,-333.7387,-198.0753,-244.4095
-114.6419,-19.5825,-192.3169,77.4969,-246.8693,-398.4490,-243.5127,-393.5223,-313.8958,-126.4721,-56.9813,169.6177,-298.9583,-194.1541,-222.5186,-161.6451,-340.4731,-195.1642,-319.1820
150.0018,79.4267,-161.1794,175.0555,-273.1128,-276.7842,-276.3445,-280.8069,-307.8065,-29.8059,172.0439,254.4860,-319.4101,-219.8304,-213.3124,-91.8903,-242.7671,-98.2779,-265.5359
409.3419,232.8108,43.3944,299.4916,-195.3476,-138.4717,-200.2412,-299.0386,-228.2361,36.1098,373.6395,356.7780,-268.5730,-127.2574,-158.2442,26.4612,-71.7182,58.3116,-153.3374
507.9441,351.8992,244.6773,458.2102,-117.8420,-2.3156,-132.7294,-257.0977,-150.1181,98.6688,438.5626,454.5079,-215.7084,31.9948,-101.7578,154.6751,68.2179,138.5777,-94.5406
335.1691,298.8475,269.0547,471.6284,-84.6362,35.4736,-123.1370,-93.2536,-97.7900,148.4758,325.4191,417.2751,-185.5329,93.3440,-87.3743,186.3503,128.4998,73.7240,-66.4126
164.9073,206.0862,203.8763,323.1055,-61.4347,10.4315,-95.7246,-73.3229,-72.2186,129.2624,220.1736,287.7168,-146.1786,128.5733,-98.5540,119.4346,115.6999,-39.4842,-70.7549
239.5472,230.0778,186.2038,213.8552,-47.5175,14.7701,-64.1915,-200.7581,-99.4594,52.1162,230.0583,240.4025,-113.7412,190.3098,-87.3735,72.9906,85.5867,-80.5445,-144.5065
364.1528,323.4826,232.6194,239.8267,-28.2501,66.9881,-59.1907,-227.0124,-122.0443,44.3529,251.6366,305.5636,-107.3066,237.1618,-29.3755,115.5772,95.0229,-32.2035,-189.9506
303.5553,379.6315,262.9992,269.6463,9.1473,147.7799,-26.4042,-115.2704,-70.3526,149.5047,220.8274,336.3434,-81.6117,291.8658,13.0168,176.0803,106.9613,26.2472,-140.7948
172.4689,321.6345,209.1139,184.7704,12.5892,208.3292,5.7013,56.2324,-29.6210,230.7197,197.2584,245.7853,-38.3120,315.6715,-27.6362,148.9539,92.1876,18.3822,-94.1382
158.0062,176.5985,159.3022,78.5638,-8.2559,224.4476,-17.8158,215.3442,-57.2791,217.6148,220.5181,134.3075,-31.9497,265.7045,-61.4261,44.1407,144.6303,6.6580,-52.3141
218.9075,126.1345,232.9324,93.0197,50.2032,274.6385,9.4510,249.3522,-29.6886,211.0062,253.6177,118.7246,-23.7353,269.7627,23.3400,-26.7189,285.5935,119.6796,80.7402
258.7360,222.7595,324.8867,163.5712,191.5123,380.3298,141.5332,224.2420,95.2412,246.4614,248.9952,157.6857,39.4698,342.8774,137.8971,-18.1114,365.4534,294.9642,228.4182
322.4661,268.3374,308.8103,142.6066,324.5896,410.9593,249.6085,298.8424,205.5151,238.5864,238.7586,157.3853,91.8514,300.5425,177.6267,-3.5147,345.4271,336.5222,289.4598
418.0795,205.5471,304.6052,69.5466,418.1377,337.3482,303.9159,378.7404,303.3006,182.1991,284.3947,122.3339,103.8038,178.7897,202.3054,-27.0690,352.3566,247.4735,326.3383
377.8048,207.0011,375.0161,65.5723,439.5979,314.9854,361.6465,370.8021,430.2525,154.4669,317.7258,98.7713,142.9769,188.3127,215.2285,-30.8620,379.6968,207.0986,326.3104
181.1328,266.5807,351.9446,97.0019,348.1667,395.8133,345.7079,419.0564,464.1489,158.9006,253.3615,79.1838,179.0857,290.3579,140.9574,22.7036,330.4014,251.6477,220.5802
118.1816,184.5356,222.7470,50.5954,257.4160,435.2738,263.9836,504.8385,370.5312,136.7825,194.8716,10.3123,140.9388,310.2098,84.2522,82.8763,264.5446,251.6437,153.2470
252.7155,-40.6228,148.7686,-88.7505,280.4233,333.6227,276.0569,414.1729,311.2756,69.1685,186.4183,-137.0430,100.2842,248.1852,149.8359,104.7627,223.1650,151.0792,206.3288
200.0670,-184.8210,69.0181,-226.6662,273.8412,181.7023,290.9393,215.0965,284.3611,-5.9418,38.2605,-279.7707,97.8701,189.6818,168.8089,106.9590,91.6401,45.7742,177.1337
-126.9742,-119.3154,-116.8842,-249.8904,117.9111,119.5175,115.1106,173.8403,156.5237,-32.4848,-205.8345,-282.0446,51.1352,122.9614,54.3668,116.7184,-77.2468,43.1995,57.1015
-261.8045,33.0181,-200.7169,-167.2764,-1.3485,100.7291,-52.6238,276.2441,43.0204,-1.0252,-184.2994,-176.8761,18.7019,-52.1273,36.3000,126.0020,-60.8524,108.5754,99.6545
-75.1857,47.7770,-70.4719,-141.0488,35.5107,-46.4358,9.2707,272.5811,98.8474,14.0369,45.6868,-158.0098,122.2630,-346.2174,183.6849,105.7487,68.5070,104.1104,214.3761
-18.1185,-120.8708,-19.1322,-259.6125,36.8489,-269.3186,65.8103,101.0410,162.3652,-61.0309,-6.3575,-286.2110,212.9436,-542.8807,236.6826,43.4321,33.2137,15.5483,102.3780
-200.6014,-281.4259,-175.4986,-395.2736,-77.5625,-334.6412,-54.2881,-53.7954,84.8360,-185.7208,-316.4736,-411.4707,129.4051,-490.6590,122.5948,-29.2888,-103.6633,8.5072,-103.0629
-218.8965,-285.4453,-214.4716,-400.5306,-110.8219,-257.6580,-96.7127,-111.2873,17.3460,-242.5376,-348.8773,-405.3789,63.0122,-392.6320,65.0397,-58.5090,-64.9551,168.0626,-113.9502
-23.9452,-214.8687,-12.1750,-298.6811,-20.7525,-210.4217,43.9625,-166.2865,57.3555,-195.5874,-84.6171,-313.8218,172.1004,-387.8013,123.7391,-30.4737,89.6066,338.5947,-39.8162
-51.9166,-232.8029,45.5534,-251.4791,-5.5749,-162.1397,108.6446,-188.9207,69.1577,-153.7825,-60.1839,-307.6956,219.0798,-265.6217,132.5413,-5.9442,68.6089,317.3772,-75.3715
-448.7857,-408.3117,-269.4034,-403.3513,-101.9981,-129.1221,0.0114,-110.1470,-17.1490,-219.3053,-403.3061,-499.5122,-10.6763,-38.1535,52.2336,-69.6164,-153.8087,96.8166,-135.5680
-827.2152,-676.1777,-627.1192,-669.1397,-152.1302,-324.9607,-97.3297,-118.7788,-110.4735,-332.8703,-696.6893,-754.8489,-345.5696,-69.8064,2.2666,-213.0492,-349.9248,-146.4263,-111.4443
-852.9651,-860.0446,-682.7723,-771.8148,-129.8644,-640.2953,-89.7004,-320.2933,-129.1447,-373.3878,-724.1846,-824.3323,-521.9687,-319.6952,10.9426,-303.6890,-401.6534,-258.0484,-38.1240
-690.2290,-831.0359,-547.1849,-643.3745,-136.3036,-673.0974,-53.5391,-426.1375,-62.1111,-333.0429,-679.9726,-699.9987,-500.3134,-350.9218,-9.4797,-253.3732,-378.7447,-244.4902,27.8853
-669.0728,-690.5251,-479.7257,-519.7267,-171.1398,-450.5750,-61.0883,-286.9910,18.1419,-275.7654,-704.4492,-597.0389,-399.5484,-155.7813,-76.4420,-153.1622,-358.8949,-193.8860,28.2088
-729.3273,-639.7919,-487.9806,-517.2806,-175.1963,-327.6397,-118.7841,-154.3145,-2.1684,-223.0418,-687.5752,-592.0953,-331.4005,-73.0000,-98.9623,-119.8397,-347.3221,-153.8986,-55.9765
-630.5048,-665.0280,-444.8954,-497.6985,-175.9255,-311.6875,-190.4798,-118.5528,-107.5524,-171.7221,-543.5624,-556.1955,-318.7828,-103.2277,-45.2306,-127.9850,-322.3617,-132.3466,-126.3931
-489.8646,-564.0826,-330.8632,-376.3327,-203.3602,-203.0300,-234.4528,-8.1089,-165.5371,-118.6854,-378.5364,-409.8670,-302.7543,-50.9872,-1.1548,-119.6473,-256.8014,-106.5671,-100.4477
-470.1899,-311.4742,-191.0173,-204.8905,-188.6707,-38.5499,-216.4446,117.7634,-137.0088,-49.4953,-294.1893,-224.0352,-219.6816,53.1212,-3.6119,-106.8011,-127.3251,-30.0196,-10.7431
-345.1010,-127.9501,-40.2299,-34.1372,-83.3716,69.5592,-108.7807,56.7363,-73.7623,7.5053,-221.1260,-87.3430,-61.3425,118.2273,18.4548,-84.1689,37.8693,76.3616,101.8526
-41.7845,-84.9781,89.2928,108.4413,42.2550,130.9593,45.1368,-124.9266,10.4693,-9.8803,-73.8715,17.4482,121.6048,154.4111,82.0571,-30.0556,166.6024,137.3779,213.8593
104.5101,21.3928,144.0616,233.7540,113.2763,172.2945,143.8395,-249.1991,99.4860,-81.7937,91.3835,155.2592,254.9547,165.4040,117.5114,15.7608,223.6788,163.6008,269.4669
75.7322,228.6159,137.9392,361.3643,138.9814,210.2305,175.3570,-307.8341,144.6066,-126.3854,176.3618,277.7549,302.8791,179.4475,109.7640,27.6849,220.1224,193.1404,236.7253
140.5006,278.5274,136.5616,415.8776,136.9333,236.1532,188.1655,-324.6230,134.7093,-123.6763,128.2801,276.5982,270.0749,234.9304,91.1372,37.6134,170.2848,174.6460,133.9885
109.5227,128.4549,138.2411,351.7777,96.4733,197.3062,139.9155,-248.1955,82.1731,-97.8830,-69.7041,206.4046,157.9014,267.3946,37.6908,34.8908,117.0750,108.3042,-0.5439
-217.5110,68.7471,76.8867,293.5416,42.1055,144.9802,7.6124,-95.7141,1.1668,-58.2480,-281.8019,211.6508,14.9265,245.1834,-74.7464,-2.7478,114.9287,82.3586,-95.0982
-367.5949,184.0524,-30.9736,301.0641,20.7465,174.8108,-87.2891,22.2298,-59.3376,-37.3590,-246.7286,256.1381,-48.9264,235.0645,-177.8684,-23.5411,136.6463,55.9107,-110.6048
-41.5049,244.3651,-71.9740,245.0052,22.3062,178.5250,-82.5621,39.6203,-80.3711,-73.3759,14.2932,206.2379,-22.9626,196.8448,-184.2583,-12.4691,114.7803,-68.1900,-123.0181
237.1518,176.3727,-21.1943,100.1280,0.0133,47.2925,-78.4843,7.3538,-112.6814,-134.3357,129.0062,103.0317,-15.1582,67.4202,-115.0859,-31.5962,60.9913,-190.7256,-189.8619
103.7626,144.0798,25.6229,16.9333,-43.8557,-48.2749,-114.1564,29.7951,-157.4769,-156.3374,-15.8788,83.1989,-44.3322,-20.2027,-78.5345,-64.2874,27.2308,-177.2178,-228.9452
-62.9341,197.8359,50.5182,37.7750,-63.5605,11.4715,-113.0173,116.4691,-155.8888,-110.2717,-71.6962,130.8344,-46.4131,19.9388,-109.8534,-38.4882,22.8860,-93.8898,-159.5264
49.6458,206.1877,112.1675,50.7786,-49.9749,51.9934,-70.1475,161.9256,-121.0009,7.6540,117.4257,113.9072,-55.2782,37.5223,-125.1302,16.1830,38.7223,-48.2817,-23.0645
237.8920,82.8961,147.5410,-22.3224,-39.5308,-25.0597,-48.2812,141.4099,-101.5607,158.6396,255.4859,-3.2056,-113.1561,-44.9247,-84.5622,36.6336,51.1204,-48.2348,97.2502
259.5877,-80.0088,70.6318,-147.7695,-40.6063,-79.2027,-43.4204,161.4502,-76.0762,259.8986,185.1217,-109.5796,-132.3990,-110.2543,-46.8442,39.2992,20.2782,-74.1744,149.5402
129.2594,-111.9028,-12.8582,-212.8647,-27.7751,-40.6376,-23.1768,241.7038,-23.1319,282.3708,95.5031,-114.6924,-62.4052,-104.4439,-16.1436,45.7883,-34.7372,-70.7497,119.1826
-24.2888,-23.1741,4.3782,-174.4630,-10.2851,9.6016,-2.1721,268.8423,27.7665,270.6241,63.3307,-87.0983,16.1024,-80.9239,52.5048,46.7816,-60.6783,13.1214,50.5252
-94.1866,-27.4295,25.5883,-157.4487,-6.4789,20.4772,17.1223,196.0484,74.1067,237.1330,6.4936,-127.0713,70.9205,-68.8303,121.4266,54.0302,-76.7099,92.3345,17.7780
-37.9740,-168.2834,-17.9826,-228.0725,14.4390,-1.1687,67.2724,97.5163,126.0727,157.1872,8.4705,-183.5680,135.9930,-79.1676,155.3929,69.8791,-111.4050,76.9059,30.4280
109.0805,-220.4408,-31.7339,-250.7783,52.2201,-26.0604,119.2423,63.9274,135.4448,59.4609,140.9016,-165.4876,160.4462,-100.4906,187.0431,75.8502,-114.2506,49.3630,21.7537
221.7884,-111.6809,13.4859,-172.2302,40.3962,-10.6174,85.4500,116.5339,62.0204,-1.4217,205.3210,-113.4806,96.1584,-85.1318,169.3745,81.7235,-57.4472,92.3139,-35.5991
166.8011,-27.1404,40.2681,-121.0477,-8.5505,33.5887,-14.1982,164.5602,-41.4697,-30.9897,76.4983,-89.3871,35.3079,-42.9714,47.7589,88.7213,2.5659,145.7736,-65.4372
5.3623,-24.7508,33.3955,-125.2737,1.6979,49.0634,-40.0971,128.9824,-85.8018,-56.9286,-52.9796,-67.6210,53.0132,-33.2079,-39.3775,69.7851,23.0601,164.8870,-7.4553
-61.4776,-13.0526,11.8576,-111.6241,61.6221,35.1222,31.9549,92.1583,-46.0502,-56.4242,-42.9461,-52.8119,73.8161,-52.0632,18.9929,41.2033,16.2814,183.5581,77.2075
-11.2820,-38.3937,-13.7094,-111.8028,85.7440,27.3709,74.8856,126.9965,29.7520,-4.4746,-13.6282,-96.6311,36.1340,-60.7512,83.9284,33.3675,6.9316,203.5135,117.6966
24.0462,-152.5693,11.0340,-156.8056,88.8524,9.5518,70.9254,144.5528,102.0829,50.3152,-57.7110,-165.2219,-4.7521,-65.5612,62.9213,13.5734,3.4842,191.0330,125.6927
19.1437,-209.9796,68.4261,-182.3721,107.7424,-54.6443,118.3702,113.4743,184.5161,45.9964,-110.0300,-185.4097,-14.5025,-95.8665,69.6169,-44.7118,-20.2138,134.1976,102.7513
4.8851,-137.2313,42.3274,-179.4699,97.3439,-134.6764,183.4402,116.7017,278.4607,14.8985,-117.6596,-174.3675,-19.3804,-148.9002,126.5366,-97.7075,-71.8883,49.3204,46.8567
-24.9849,-88.3799,-44.6481,-188.3737,58.3927,-153.2803,165.5802,123.1634,337.2681,24.9049,-101.6424,-184.6482,-7.0824,-167.2879,126.5052,-101.5217,-94.1437,-26.6194,30.8682
-40.4935,-132.1394,-74.9837,-190.7056,37.6213,-105.6700,95.3586,79.3572,327.8533,49.8640,-92.0600,-202.8384,20.1065,-112.7903,74.5044,-60.2284,-88.0798,-80.8414,57.7960
-50.9149,-150.2682,-88.4144,-171.1035,-10.7018,-77.8119,19.8336,70.7164,254.8375,26.8702,-82.1391,-181.2499,-16.2552,-58.7632,35.0346,-17.1844,-138.0214,-128.4974,15.2555
-105.8833,-116.6004,-121.7321,-144.8443,-97.0542,-102.1417,-57.4481,98.9639,161.6948,-25.2413,-28.0508,-128.1509,-108.0743,-76.5951,19.9165,-37.9110,-203.8705,-139.0817,-61.7455
-132.5247,-118.4175,-58.0991,-119.4491,-90.4053,-123.4943,-46.1146,64.4262,140.1476,-67.9595,44.4895,-119.2561,-123.1012,-108.5914,61.5440,-128.0049,-173.1645,-87.5848,-31.7191
-112.3898,-133.1007,55.8804,-127.2130,14.1501,-131.7088,64.3623,36.1858,200.3425,-109.9510,11.0575,-170.8313,-56.8347,-111.4674,124.9057,-193.1920,-126.7918,-40.8532,17.1884
-182.1511,-86.6047,-3.1720,-157.0885,32.2726,-138.6161,68.1521,84.3657,198.1960,-131.5512,-120.0924,-166.4969,-49.8879,-121.0986,62.6244,-157.9366,-179.5685,-31.9616,-65.9584
-227.9023,-27.0306,-180.9100,-103.4951,-40.7013,-82.5535,-63.6008,59.8715,89.9002,-101.9753,-148.1043,-51.3596,-100.4429,-91.7622,-92.5848,-59.6542,-205.2075,0.1641,-139.8068
-15.9024,-24.0328,-207.2128,33.7199,-8.9326,35.7306,-61.5167,-69.6493,37.2868,-71.6775,-18.0066,33.9110,-83.1156,30.0031,-118.9985,8.5528,-85.1310,44.5654,-41.3942
182.5667,-44.7497,-71.3607,111.8346,126.4493,99.6287,111.4952,-97.0705,83.8848,-69.4123,77.4547,-1.5340,-19.6149,138.5886,-7.3830,3.6832,54.4191,37.7911,96.6097
18.0121,-37.0401,33.3359,109.0314,177.1288,92.8119,185.3639,20.9908,91.0959,-24.5655,40.3883,-34.9023,-15.8569,152.1156,54.3200,-13.5069,98.8509,21.8056,117.4075
-193.4291,18.4087,51.1926,124.3457,112.7598,92.8451,107.0174,115.8202,49.5391,49.2715,-11.8424,31.2652,-48.1677,136.0270,31.4749,31.0207,94.9500,28.5193,46.2333
-87.0364,122.2779,42.6343,167.5202,45.3278,74.8020,43.5873,103.5189,36.2463,26.0870,9.6756,123.1553,-52.7954,118.0525,2.2794,83.3958,91.5069,-10.4715,-57.1627
95.5204,193.9767,42.7851,203.9764,16.8481,18.9449,14.9881,-1.2103,1.8385,-76.7785,55.3690,156.3770,-48.0838,86.9541,-9.2510,63.9805,115.5808,-75.5653,-113.2175
114.2025,132.9312,50.9525,225.4457,17.9632,16.3354,-14.0741,-136.9340,-64.7154,-110.1972,36.7169,121.1880,-37.3463,99.6855,31.7821,38.7542,176.8333,-76.5732,-42.3893
60.8853,12.1582,25.2468,187.7328,28.8215,57.6450,-4.2261,-194.5071,-80.1653,-67.0141,-65.4575,45.5542,5.9432,138.1597,102.6011,61.6089,183.6343,-66.4266,55.3814
-60.4652,-5.6531,-45.0423,104.9165,-5.2134,31.2564,-7.9051,-186.4627,-93.8919,-42.1275,-143.2581,1.3741,39.1235,104.2867,58.6957,51.1335,99.7014,-116.9476,52.8565
-192.3469,76.2331,-57.9449,92.5288,-56.4254,-31.0983,-61.5685,-216.6487,-160.0220,-19.7132,-83.8009,43.6552,22.3530,38.6247,-79.4349,24.9886,72.4757,-136.3992,54.7080
-72.5436,134.0702,36.6922,144.8846,-12.5572,-40.1500,-29.1147,-237.7077,-149.4764,32.3371,27.1736,117.9789,11.1507,30.6145,-91.3565,85.9276,140.7987,-77.7552,134.4246
176.3465,116.0565,90.8744,122.7136,65.1215,-35.0344,78.5783,-174.0705,-52.7506,43.9412,19.9056,131.8897,35.0608,27.9906,14.3489,122.6813,121.2612,-60.7278,122.1410
126.8775,48.7489,-21.9654,18.6428,-12.6849,-45.3520,32.3781,-102.6903,-50.4598,9.0621,-81.0304,72.2464,30.7445,-13.6980,12.6918,16.2922,-8.9532,-120.1383,-22.2576
-120.4467,-12.8915,-174.3018,-46.3397,-174.1076,-28.1221,-130.2365,-59.8019,-104.6220,26.7222,-134.6702,-6.4641,-7.2939,-38.8201,-66.4503,-47.9192,-33.5534,-136.0530,-79.6143
-158.4191,-27.2064,-164.0641,-39.0653,-165.8123,-11.1083,-132.9978,-5.7372,-44.9746,79.7386,-128.7818,-55.1342,2.5961,-43.3117,-11.1214,27.0513,89.2228,-70.7306,-5.2226
-68.9349,-31.4289,-31.8278,-22.9923,-32.4813,-34.5038,-18.4590,9.7732,17.7733,36.6818,-129.9495,-74.4789,49.2729,-61.7341,116.8907,15.2143,157.3571,-3.7872,2.3593
-114.6508,-51.8034,8.9948,-35.2990,-22.8752,-40.9744,-32.8545,-20.3580,-69.1217,-95.5565,-125.4832,-79.6828,35.5298,-61.4256,86.5899,-99.9427,96.6702,38.9732,-88.3433
-154.4736,-12.1357,-62.0702,-40.9187,-97.1717,4.4836,-101.9051,-5.8389,-157.1812,-166.4661,-67.9773,-39.4473,-13.6664,-14.1680,-79.9390,-57.9801,49.3827,76.5064,-111.3745
-12.2495,82.5183,-55.5997,7.8265,-49.9883,49.7298,-28.6522,12.9820,-119.5727,-122.1343,19.3599,47.7292,8.5336,46.0356,-165.7727,68.1926,87.1488,63.7656,-39.6091
131.6290,94.5100,44.8824,68.0907,44.4470,52.1485,68.5725,-49.3380,-89.1320,-52.8017,65.2586,86.7211,63.9708,74.1451,-111.9380,2.2622,97.9509,-34.3910,-5.7392
90.3479,27.0156,58.3142,57.7357,-1.1779,8.6233,2.4925,-118.3066,-154.0900,-32.9882,57.3111,44.3178,39.5824,47.0403,-51.6130,-132.8078,5.9105,-134.5991,-54.7171
-30.1250,11.3548,-17.6070,9.1649,-120.1997,-52.3909,-138.3989,-140.4871,-222.1825,-56.4572,72.3684,17.2564,-29.6073,-8.8883,-65.2997,-98.9121,-89.3637,-142.8735,-105.3612
-57.3712,32.7866,-35.7927,3.6069,-175.7811,-74.8838,-208.8439,-172.2337,-223.5748,-86.5173,134.9705,34.9674,-48.9014,-38.2164,-96.5512,-29.7855,-91.8068,-91.4918,-110.4432
-1.1435,23.8660,-13.4088,31.4239,-200.8655,-47.1550,-229.7630,-209.0304,-182.9269,-87.6820,135.0658,39.6996,-41.1760,-32.2194,-110.1019,-63.3297,-49.6592,-49.5762,-100.8158
42.6613,48.2304,-11.3003,77.3032,-208.1780,-6.3835,-227.7357,-238.4497,-151.1397,-54.1014,32.2991,64.0407,-42.3058,-1.2876,-148.6438,-56.6396,-4.0907,-4.6629,-83.8309
76.7172,129.8070,42.8396,155.2430,-121.6752,29.2630,-161.2337,-300.9662,-152.0377,-31.5525,-27.2144,144.9350,-6.9710,50.4270,-193.3203,19.3342,73.9102,59.9924,-33.6054
117.5097,168.1486,115.9622,187.8348,-12.2736,29.6267,-74.3870,-348.9104,-152.3977,-48.1819,18.4550,179.8271,50.7120,55.6411,-177.6747,12.9470,112.0890,98.0599,12.0032
71.5584,112.7069,50.8705,106.8268,-33.0015,-36.8105,-70.8631,-333.3773,-134.8977,-47.4471,24.9983,107.9294,31.0010,-20.8597,-150.0799,-34.5218,14.5935,92.0999,-1.1645
-53.1454,5.9173,-90.6762,15.4950,-118.1096,-105.1603,-120.9925,-332.6811,-141.4705,18.3438,-41.0734,31.9998,-61.9744,-71.0037,-175.4667,9.4497,-82.8912,89.4582,-13.9309
-48.6780,-57.0661,-104.8349,20.6948,-84.4651,-102.8090,-98.5005,-353.2516,-154.9706,89.4429,-9.3364,28.0889,-90.0609,-51.2031,-160.9889,60.9076,-12.2810,116.9950,41.7599
98.8995,15.9740,-12.8120,61.3324,39.5697,-82.1629,-8.6794,-301.5728,-115.1283,98.1556,135.5888,43.2491,8.5473,-77.9373,-52.2977,6.4457,78.7893,151.7464,73.6790
101.6012,121.1721,16.2924,38.3671,77.5314,-99.1600,5.8756,-216.1428,-75.2090,74.2878,172.1044,11.5941,115.6177,-162.1626,5.0919,-80.4202,-21.7013,157.4096,-21.3952
-96.7251,51.3094,-47.7028,-43.3605,9.1089,-110.0493,-87.9929,-186.6863,-103.3847,56.3005,19.1205,-52.8448,108.5771,-180.5743,-49.6899,-112.9954,-189.9615,118.6760,-156.4541
-189.2121,-105.6994,-102.4114,-97.2911,-29.9904,-81.8116,-148.0663,-161.0394,-128.9004,17.5361,-125.2973,-71.5507,38.1106,-121.9576,-66.7828,-93.8435,-188.8996,67.7508,-201.1460
-57.3359,-97.9494,-55.7417,-56.2501,14.5580,-38.1237,-91.7144,-81.9827,-94.3970,-35.5093,-82.1770,-12.0400,23.3861,-58.0224,-6.0584,-24.1131,-46.1391,47.6552,-164.8379
97.9949,28.2424,81.1227,29.0319,67.7159,-1.2140,-12.4237,-19.2303,-60.2439,-27.6505,85.3589,40.7417,71.6376,-15.1108,-4.1988,52.5050,75.2718,54.9708,-96.1682
174.1870,80.4539,183.0302,58.8383,70.6319,16.1915,-5.6133,-38.0156,-62.4481,55.3756,177.8469,19.1972,123.5396,-22.7400,-82.1426,34.2925,127.5480,71.4647,-4.5225
207.4948,70.9534,168.9676,48.8344,36.0100,25.5538,-47.1757,-82.7908,-78.2009,132.1131,107.9464,-14.6133,148.8253,-63.1624,-135.9854,-49.0899,132.8970,90.0777,56.0727
138.0768,64.3294,111.2926,62.0362,-6.1300,45.5285,-74.4834,-51.8788,-84.2704,146.5954,-2.9804,-2.8526,123.8918,-45.9840,-132.5663,-37.6009,118.5160,80.5605,32.5550
-52.7735,42.1553,87.0653,65.2743,-23.9257,41.8251,-52.7842,57.4981,-33.9825,118.5354,-25.9318,17.4372,73.2713,-0.7398,-72.9759,84.9811,133.7887,33.6753,-9.1210
-183.7550,19.8657,71.7865,30.5721,3.5099,-2.5296,14.9068,135.6490,71.5107,84.9632,-16.1926,9.4311,85.1444,-34.8888,47.8869,154.8528,162.0302,6.5454,8.9884
-132.9464,-5.9580,32.9257,0.6918,41.0986,-36.9501,66.4901,113.3201,123.3339,58.9484,-52.7384,-28.4118,138.2432,-103.3311,144.8637,94.6518,105.1420,23.8418,36.8760
-26.2578,-64.0016,-26.6938,-31.7139,40.3588,-60.5756,51.4949,49.8674,73.6345,14.1703,-72.8029,-79.0589,115.7773,-130.4112,124.6236,-6.9256,-29.6513,39.4483,7.8183
-8.9093,-67.2720,-89.6547,-84.7663,18.3469,-100.9446,23.6180,25.4728,2.1674,-85.2149,-50.2921,-88.6748,53.9253,-157.2581,32.7698,-70.3687,-102.9946,44.2018,-34.7403
-50.8042,22.4291,-106.6733,-89.9514,12.0902,-112.0532,42.7719,19.5755,-45.3872,-193.4693,-72.9480,-43.7060,57.8838,-176.6626,-38.1469,-87.9902,-66.1618,64.0375,-22.0972
-80.0655,50.4452,-55.1449,-43.4252,13.0776,-110.9708,59.2998,-34.2405,-75.5281,-215.3364,-127.3692,-23.3128,61.1770,-158.0885,-63.4526,-57.8702,-16.0176,68.6304,27.2039
-119.0152,-33.2544,-6.4496,-58.2427,6.7602,-192.9584,18.7368,-100.2592,-77.4378,-168.9069,-122.4111,-61.2731,0.0702,-189.9616,-48.2771,-11.4878,-23.1473,17.3476,17.6545
-181.4387,-86.1721,-28.7577,-131.3015,-11.2532,-296.8576,-42.8730,-81.5450,-85.1724,-153.1408,-96.7244,-89.5385,-32.5330,-280.6850,-14.3724,-26.9609,-66.5016,-60.9398,-112.7004
-182.0479,-83.8596,-86.1606,-135.5925,-60.9296,-305.1965,-90.7695,-20.1806,-142.0459,-162.9743,-105.1357,-77.8035,-10.0586,-309.6864,-5.3845,-99.8970,-102.3215,-113.0163,-249.3626
-72.3509,-105.6749,-99.8344,-77.2644,-118.7059,-264.4658,-125.1319,-36.4100,-193.5966,-133.9656,-89.2901,-63.8098,21.4120,-289.0037,-35.1296,-118.4101,-106.8483,-127.6563,-177.8522
42.0991,-124.3337,-59.6170,-77.3025,-103.8664,-211.7499,-109.8762,-112.2145,-189.8995,-94.7178,-63.0325,-66.5027,89.1363,-268.6183,-92.7368,-50.0112,-101.5226,-135.2200,85.9987
38.7759,-130.3381,-48.0182,-150.8009,-17.5748,-173.5848,-28.0902,-205.9186,-165.4592,-96.9802,-110.7297,-94.2461,80.7534,-204.1720,-154.1614,-2.4025,-141.8233,-161.9859,266.7116
-47.7792,-183.7813,-104.9135,-212.3909,34.9640,-346.7392,42.7577,-363.1574,-124.5450,-116.3041,-142.7726,-145.4430,-190.1961,-214.9242,-138.7517,-37.6995,-219.7378,-177.4142,229.4591
-81.1387,-205.7866,-98.2485,-197.7853,18.3847,-664.1146,41.0718,-470.2679,-40.5062,-120.7067,-13.7061,-155.4276,-465.7552,-402.6201,-10.6747,-91.5778,-233.4666,-130.0584,89.6770
-1.8550,-73.5268,80.1921,-84.6390,7.6984,-590.9095,12.4974,-306.9335,51.4049,-99.5942,191.6761,-67.7278,-312.6087,-426.5400,93.7184,-99.7505,-127.2176,-42.8093,-61.9556
113.1491,99.1471,268.4426,84.7472,45.0948,-24.4807,15.6361,19.9908,110.9985,-33.5955,284.1115,58.5077,83.4952,-40.2740,62.7027,-52.1516,13.4181,13.4836,-174.3174
162.5450,96.7355,266.1307,194.5404,92.7519,401.8058,41.4430,180.2425,144.0177,54.4639,220.3619,115.6539,229.8816,351.8490,16.2358,35.8661,74.4662,22.9645,-149.5302
139.2716,-50.3196,143.8512,180.9296,101.2180,393.7100,51.0792,129.6996,163.0188,111.4810,77.9203,90.4406,128.4278,406.0842,78.1217,92.9798,52.8580,23.6758,-40.4751
92.3457,-80.1050,50.3986,125.5311,47.9130,323.4603,22.2848,73.1046,195.0606,142.3568,-41.1811,78.0471,14.1151,357.8652,149.4690,55.8982,28.0914,50.1572,-6.4455
43.6068,129.2123,-14.7748,137.5857,-35.2967,359.6788,-17.6530,79.5224,250.4896,168.7126,-56.7349,148.3867,-119.4504,391.8927,130.1725,12.7250,55.3961,107.6479,14.7354
26.0013,348.7264,-57.0894,199.7210,-70.2831,339.5582,-3.5350,90.2924,270.1493,172.3118,22.1934,229.8554,-231.3701,387.9313,106.3810,72.4842,130.7865,153.9787,134.2305
81.8157,320.2405,-34.2258,211.1255,-32.1142,293.3631,66.4780,123.6601,234.9694,165.0048,115.7840,210.2081,-174.4456,347.3090,145.8045,133.7654,207.8491,145.0404,189.9290
146.4091,156.8172,11.6326,147.3621,22.2750,303.6475,116.7905,187.3954,219.6537,186.3894,163.4028,129.2561,-58.3805,341.7760,172.5425,70.9968,224.4592,120.1734,73.3001
112.5737,101.5618,19.2171,68.7700,57.7498,292.1410,135.2369,186.8340,239.9956,220.9834,132.8020,96.1985,-61.9548,327.7848,145.5730,9.7445,155.9255,135.2132,-1.7538
36.4828,102.1337,0.4652,-0.1443,86.2056,274.9309,183.5377,97.5935,242.9497,235.5786,32.8097,84.9048,-103.4011,344.4301,124.7693,96.0264,50.5471,143.0176,94.4530
50.1012,35.2556,-40.3949,-56.9306,100.4613,317.2708,247.0069,29.1501,246.1926,233.3385,-51.5697,39.3923,-81.9441,430.6754,131.7072,215.0630,-9.1411,85.4193,211.9474
111.5790,0.8939,-96.8513,-56.5179,94.9025,339.4513,256.2348,45.9962,282.7780,214.6977,-60.6143,22.4757,-42.9937,450.5901,132.5487,215.9567,15.2620,13.2355,250.1121
93.1682,37.3899,-111.5701,-8.4560,100.5855,320.1562,225.5631,97.5161,301.8294,180.4327,-40.9642,50.9644,7.9492,381.4132,124.0089,146.2598,75.3273,-11.7553,221.4553
6.7161,9.3728,-87.5255,-5.3420,123.0847,336.3362,197.9343,126.0134,260.2810,149.8447,-30.1496,27.6895,81.5237,361.9498,110.1630,97.5997,85.4195,-6.7383,107.5904
-69.8838,-68.8133,-90.1259,-55.4155,122.5630,344.1449,144.3964,112.0753,181.5760,111.3184,-7.8425,-46.3932,115.3694,362.2265,76.7654,75.4999,31.3262,-1.7171,-25.9338
-107.7887,-81.0714,-94.8165,-69.7212,86.1872,295.4687,51.8447,45.0866,97.1168,40.6945,0.6283,-66.5881,107.9473,298.7014,45.2044,56.0841,-11.9347,-6.3468,-48.9703
-56.9123,-64.5843,-38.7343,-31.3241,50.0078,256.9846,-8.9021,-40.2789,40.1651,-27.2808,-39.0946,-22.5495,118.1014,244.1947,44.2810,11.0679,3.4865,-21.2288,3.1384
90.5201,-51.1720,33.1550,3.5891,56.6901,222.2580,17.9337,-44.0332,37.6818,-38.0064,-58.2017,22.5826,137.7357,199.5575,49.3697,-42.4567,37.3943,-10.6340,34.4123
179.9830,11.1633,40.1967,10.2276,110.8724,141.7100,92.2974,56.1158,59.0196,11.9639,11.6810,43.5732,137.1414,91.6088,46.8780,-24.5128,46.9078,51.4268,77.8187
101.6344,53.9778,-18.3377,-6.0112,149.1550,69.4050,119.1398,126.8319,55.2972,86.0928,96.7828,37.9048,106.2855,-1.8162,57.6491,45.3059,36.5015,107.8911,137.0034
-29.1952,22.8222,-81.1137,-15.4304,107.6574,19.4321,57.4573,102.0501,28.3341,138.2076,86.3895,29.3676,34.5203,-41.2046,44.7948,52.1512,5.3838,100.4772,129.4206
-104.1295,29.3731,-81.3771,11.1708,29.6528,-62.9782,-14.3382,94.9702,7.8317,136.8283,-5.8749,41.5794,-27.6850,-126.5725,-35.7924,19.1803,-54.1392,62.0562,69.3183
-157.7175,47.3754,-25.2802,18.9848,-7.0965,-138.5154,-11.9537,130.9628,13.9110,88.3209,-86.1101,16.1640,-25.9941,-218.0252,-108.5254,30.7572,-111.0733,41.0832,19.7572
-165.1268,-68.9269,0.7249,-44.3296,-28.0792,-176.9947,11.1799,99.3597,41.7308,16.3548,-106.2957,-71.3859,-20.5415,-229.8881,-91.3857,13.3174,-126.2784,27.5042,-31.9117
-56.6233,-172.5037,-20.8709,-91.2211,-85.5412,-247.5092,-31.2446,44.4867,49.7191,-57.4406,-66.6077,-101.9365,-54.4159,-272.6336,-44.2261,-76.6994,-103.1864,-4.3245,-79.8825
71.8657,-57.3923,-15.6904,-45.0985,-143.8256,-323.0149,-102.1586,76.0338,9.1798,-93.5665,27.0382,-26.1251,-75.8753,-367.3063,-44.0421,-106.3759,-73.0313,-48.7335,-96.8918
77.8699,89.6854,12.2279,18.5922,-164.7160,-300.4134,-137.0024,94.0469,-43.6989,-59.2902,111.4823,32.7683,-100.7549,-336.3352,-66.6040,-46.0576,-61.9945,-71.6928,-116.2698
-15.8912,60.1463,8.8577,43.4205,-160.8094,-222.0863,-140.6802,26.1284,-57.0310,19.2032,83.2385,22.9076,-152.1764,-212.4593,-72.7205,-25.5841,-65.8015,-55.9394,-120.2702
-103.0812,-2.7074,23.1722,72.9052,-106.6259,-187.7495,-96.2916,18.2773,-20.9142,82.7118,-16.6204,17.7596,-122.6994,-198.3226,-47.5502,-51.1250,-44.1847,-37.3447,-34.5014
-98.1285,8.3563,97.0037,105.6093,21.0268,-185.6170,13.3204,94.8654,36.5006,96.6886,-10.3113,31.0382,-13.4323,-247.1411,13.3518,-40.6021,15.7846,-37.4283,80.9251
28.3874,0.7078,155.5182,112.7292,136.3980,-173.6335,96.2701,97.9700,64.0898,64.3128,117.7640,47.2367,-7.5996,-202.2302,53.7210,-20.0191,64.5730,-5.9829,110.2181
144.2973,16.4444,168.0048,131.2825,158.2165,-142.9275,84.5746,35.9172,44.1258,19.4020,181.2753,92.7885,-102.4951,-115.0663,36.7437,-23.3978,79.5973,74.9300,82.3266
74.4780,136.1937,181.3064,166.8869,135.5570,-88.4620,60.4758,23.3549,34.2758,2.9294,108.2241,131.5526,-118.0897,-74.5023,55.8878,-18.8648,99.9699,132.7206,53.5482
-97.1067,214.3587,167.0933,165.4274,123.5188,-37.5381,69.2851,37.2739,63.6169,21.6756,5.7575,113.6737,-75.5208,-44.4737,149.1648,-9.2390,129.0142,129.0592,-6.7020
-138.9162,156.2492,94.9945,137.3905,85.5412,-25.9995,25.5807,41.0221,70.3982,39.4379,-59.8929,97.0536,-101.1422,-13.2420,170.9740,-5.2417,131.8923,96.7683,-83.6775
-27.0049,92.9258,51.2024,127.1282,10.9832,-43.9624,-77.3642,45.5091,40.7516,13.2389,-78.6687,107.9927,-149.3501,-16.6883,68.5564,7.8799,120.9792,37.1440,-115.8097
95.3587,59.5364,83.5394,106.9780,-44.0399,-88.4860,-140.9450,-10.2756,43.9984,-66.0279,-25.3768,66.5920,-165.8698,-37.6235,-6.9025,1.5945,111.4220,-62.8574,-128.1738
143.9913,-41.9296,119.9974,38.2801,-76.5185,-170.4924,-171.7463,-140.3354,73.1295,-165.2478,50.4749,-25.6571,-206.1236,-56.5206,-0.2783,-34.0520,72.1301,-163.9727,-175.4691
120.1235,-146.3772,124.0195,-55.0060,-135.1508,-250.0544,-239.4318,-238.5178,58.2076,-244.5592,66.5419,-78.9454,-250.6209,-96.0212,-6.9838,-53.1574,17.0909,-231.1461,-236.7375
86.9207,-124.6292,118.1043,-128.2669,-207.0407,-289.3029,-297.4962,-270.8025,15.7253,-284.9952,59.2468,-95.1097,-239.3392,-154.5533,-37.7813,-78.5191,1.2114,-259.5922,-266.6503
81.8673,-52.3459,87.9603,-154.7116,-233.9761,-297.9385,-282.0567,-278.5388,-6.5565,-267.2964,69.2036,-120.3470,-224.8100,-189.5001,-60.3256,-131.7675,-2.4531,-229.6744,-256.8941
0.7872,-70.0951,27.2111,-135.8507,-201.4103,-256.4269,-237.0792,-235.1045,-23.5553,-184.0712,9.6319,-125.8324,-240.1266,-158.1027,-114.3533,-108.2655,-47.0967,-146.1467,-228.4536
-181.8204,-152.5743,-23.1856,-98.8486,-138.5754,-145.1995,-197.1850,-138.4526,-32.1103,-98.5217,-142.0716,-89.0383,-213.6973,-61.5326,-163.1095,0.8366,-85.3835,-71.3121,-209.1996
-224.5982,-168.8322,-37.9517,-50.4284,-84.1755,-42.6110,-145.0657,-81.8498,-1.7904,-92.9944,-228.1190,-39.7157,-133.7298,24.9535,-99.2772,21.9615,-52.3366,-46.5610,-203.8440
-30.6499,-43.5419,-12.8169,22.6557,-68.1265,-27.5759,-118.0420,-93.9658,25.9566,-142.9117,-139.8184,20.0121,-79.0964,28.8530,21.7053,-63.9064,24.0291,-53.5936,-203.0635
107.5978,143.1456,34.9895,90.2296,-78.0721,-56.6987,-150.9929,-96.7169,-12.7590,-150.6325,25.7564,91.2358,-86.3069,-11.9058,46.8448,-86.3241,73.4902,-54.5651,-216.9357
34.0350,204.0758,42.0225,101.5685,-72.3401,-56.3681,-176.0487,-60.0304,-96.9078,-87.1547,113.0655,114.0710,-127.3984,-13.7249,-25.2401,-27.2434,53.1129,-13.5831,-239.0340
-31.8867,101.6731,1.4493,67.7690,-45.6369,-25.6266,-138.2323,-29.6741,-154.5651,-1.5295,77.9113,58.1523,-154.4482,24.3299,-83.8484,5.7680,-13.3853,65.7114,-220.0010
-3.5150,38.8922,8.0686,55.9354,-17.7220,14.7111,-80.3727,-3.9333,-143.3347,61.9275,-17.0020,15.9716,-126.7520,50.7130,-77.1276,17.7131,-27.1770,120.9421,-141.3176
-47.7582,134.8376,71.4205,113.5915,21.7649,69.1782,-35.7806,70.0683,-86.5351,90.7715,-95.4331,85.2761,-53.5786,56.0177,-42.9344,37.3728,60.7549,123.9073,-50.3032
-134.3042,235.4198,88.2366,209.2028,83.0975,138.4390,13.7363,181.1683,-51.4767,108.0917,-106.4096,199.7673,21.3232,68.5768,-54.9941,29.7773,164.5792,128.6493,23.9692
-53.1623,207.1341,77.6175,252.7317,146.6108,200.6189,76.2267,262.2536,-46.2135,155.4606,-15.0799,217.3643,74.6618,100.4846,-104.8631,22.1266,213.3010,169.9278,112.8118
163.3115,134.0948,146.0178,207.5354,202.6717,227.6744,146.4875,297.6762,1.9236,227.4840,132.9696,150.8699,90.7061,133.5512,-68.0623,68.8258,235.7401,212.8633,218.0495
265.1783,103.3675,220.7948,133.1417,240.8255,216.1088,200.4657,322.7784,101.1364,278.8061,187.4896,118.4840,61.7531,144.9162,75.5381,132.8352,226.4290,216.3723,260.6635
140.6158,81.0333,149.9460,81.6920,217.8878,191.7893,185.0530,350.5504,168.7198,298.4061,87.0252,111.9560,28.7554,125.6258,155.4278,159.4621,150.1785,163.9680,200.7581
-79.6710,57.0660,-7.7711,52.9481,133.1964,167.5290,112.1320,361.8002,192.0381,292.9808,-27.7482,66.1587,33.0278,77.5906,111.6703,141.5506,73.5616,75.0529,127.5990
-197.0800,65.9502,-82.2147,53.2134,68.7313,137.9584,85.1035,344.8024,241.2958,258.5064,-48.3351,45.9735,50.5500,29.6926,102.8081,97.2020,68.4563,17.5502,119.6531
-147.8256,72.8079,-54.4233,74.7152,69.0269,119.7886,137.0006,323.7292,323.0472,231.3984,-54.7032,92.3765,41.0936,32.2281,183.5352,83.4973,84.4798,23.6192,123.5562
-40.7918,36.6508,-12.5543,72.5380,80.7259,123.1956,171.5578,324.0057,371.9820,246.6816,-102.9105,96.0906,6.2762,74.0197,207.8447,120.0810,71.9300,27.8794,89.2962
11.9522,21.6995,10.8286,48.5740,58.4738,116.7086,123.9260,310.5236,356.8482,251.4673,-108.3013,37.9904,-31.7162,75.0495,119.3300,113.9606,55.9913,-10.5852,73.2073
30.3379,81.6983,27.8901,47.1081,24.3583,95.4549,48.2957,248.5236,312.0461,215.3458,-36.6477,42.1403,-59.1806,24.9446,37.6864,35.5861,34.5655,-23.7501,120.5954
76.4995,130.8517,35.5658,62.0074,23.7838,100.9532,33.5723,191.4124,296.5840,220.2467,30.8199,100.1112,-70.2643,6.1623,47.4033,10.1999,-0.1968,35.2113,208.8075
123.7880,79.2672,32.3216,72.5994,89.3662,128.5220,110.2130,178.6084,328.4726,285.8614,56.3927,100.3351,-52.4729,40.1256,102.4090,72.1512,5.1900,104.8651,300.6992
112.3921,-0.2140,37.2556,92.1926,192.3550,133.7392,211.8916,157.0684,352.6188,302.9289,91.4458,73.1267,7.7627,64.6846,127.5869,93.7370,50.7925,124.1273,327.4637
92.9474,14.3426,67.5474,102.5470,231.5608,121.6757,232.4739,105.3927,313.4803,245.6119,174.1729,86.6877,82.4031,62.7252,120.8756,45.6090,50.8139,109.1745,240.0816
164.3665,89.0985,105.3674,68.9882,173.7551,114.5672,173.6540,67.4669,234.4892,205.8438,261.9387,81.2293,118.6230,65.5923,137.8780,34.6171,-2.2136,93.4139,132.1258
252.3838,92.0686,104.8395,16.4003,128.3347,95.8293,154.7428,52.0051,183.4016,194.9718,257.6024,18.4047,124.2016,68.5678,185.8582,81.3197,-35.7009,82.0204,118.7614
185.8809,6.6048,51.5022,-28.4034,154.4622,56.4049,217.3627,40.5104,196.8626,149.5086,133.5015,-38.5601,137.9598,48.5867,206.1043,104.5997,-51.5282,66.1628,148.7864
27.3732,-65.2181,-15.7332,-78.2185,149.7034,12.3747,261.0986,19.0937,242.0853,80.0091,10.4810,-60.8307,132.6802,16.4392,186.0433,81.4185,-95.4075,35.2229,136.7208
-8.4474,-87.7944,-62.1350,-116.3030,61.1606,-26.4850,222.7653,-32.6606,234.0854,26.2744,2.5618,-72.2194,82.0602,-1.9302,166.3208,57.7280,-144.3565,-2.3968,115.6460
48.3051,-128.9706,-92.6282,-128.4435,-8.9875,-53.7001,153.1380,-93.3855,136.7289,-40.6612,48.1148,-90.1809,46.0886,-12.7165,134.6493,37.1401,-162.1871,-12.9137,110.6868
11.8947,-208.2165,-121.1378,-162.3241,-12.9380,-80.0369,92.2215,-124.7501,19.1823,-147.8701,40.9759,-136.9147,57.1976,-57.4214,59.5573,-33.1113,-166.9928,8.5130,86.2172
-84.4830,-243.4133,-143.8505,-223.4478,-33.2094,-132.8376,28.0042,-162.7862,-55.3268,-243.3193,7.0298,-189.6782,49.8245,-141.2497,-20.2976,-145.2588,-175.2370,16.2784,63.5434
-99.4772,-180.2111,-144.5912,-239.1091,-97.6649,-189.1570,-30.2942,-227.5519,-110.6668,-261.1025,3.6109,-170.4646,-9.2456,-193.7963,-66.4463,-194.9178,-179.3685,-15.4162,75.1914
-64.0194,-82.7412,-121.8569,-200.4037,-147.1977,-203.2215,-67.4632,-244.0712,-171.5093,-215.5890,-10.2920,-98.6501,-71.2835,-176.2636,-100.6726,-140.9977,-187.6919,-65.7357,66.1414
-61.4438,-59.8302,-112.8440,-175.5133,-181.0392,-206.0105,-110.0430,-204.0391,-216.4832,-188.9973,-81.5351,-90.5256,-102.7728,-152.4411,-125.5531,-82.9679,-205.1235,-126.4380,-9.6286
-72.2030,-137.2363,-147.5723,-181.4296,-240.6372,-239.2855,-171.9578,-199.7096,-238.1096,-225.2397,-157.3619,-150.4045,-98.9876,-165.7265,-108.9883,-87.1757,-204.0250,-203.1463,-112.9836
-69.6831,-229.0551,-186.5339,-191.3895,-303.2265,-264.1143,-219.4553,-235.7964,-244.9252,-280.4360,-154.9257,-180.2810,-60.9569,-175.2564,-64.0780,-103.0531,-172.0249,-267.4247,-188.7236
-75.5879,-241.9679,-187.3742,-207.1136,-322.8394,-255.7990,-232.6897,-245.7682,-235.5916,-300.6240,-89.8288,-170.5720,-39.4082,-168.1018,-41.5353,-102.8398,-148.1854,-286.0502,-200.7337
-121.5838,-183.7184,-188.9155,-219.7476,-289.1319,-238.0093,-218.0266,-234.8946,-220.2962,-282.0632,-83.3044,-168.0178,-81.7035,-162.8513,-58.3241,-108.4181,-159.5759,-256.1301,-138.2040
-214.0488,-132.0963,-219.1404,-189.7336,-194.3947,-182.8368,-160.2128,-219.2511,-199.2354,-242.4535,-192.3381,-153.6035,-127.4086,-118.5092,-83.4263,-97.7930,-161.9802,-177.5319,-46.2614
-275.5068,-123.4709,-216.4243,-119.3453,-57.5566,-73.9364,-58.1456,-164.2189,-147.9940,-207.0478,-277.9149,-115.6250,-102.1722,-18.6879,-78.0568,-53.1738,-116.9269,-76.6113,9.7332
-229.4589,-134.2026,-163.1285,-71.6592,25.8084,-6.0613,14.3277,-82.3971,-91.9339,-201.0009,-201.8131,-110.0115,-49.9459,44.9945,-57.0816,-19.3317,-88.7488,-34.9404,-8.0707
-169.4267,-153.0194,-155.9842,-98.9088,-18.1678,-37.7540,-22.1976,-42.4482,-93.7758,-202.4791,-83.4470,-156.7491,-37.1133,13.7775,-86.0315,-20.7616,-156.1293,-85.2116,-106.4910
-211.5320,-193.5732,-227.4482,-178.8436,-127.5856,-92.0344,-140.8678,-64.7109,-139.0191,-171.7031,-101.4253,-204.2285,-46.3324,-50.0770,-170.7741,-30.5529,-264.9078,-153.5410,-223.3448
-272.7552,-242.6600,-270.8518,-231.6536,-199.0652,-118.7095,-241.5799,-111.1021,-174.0888,-134.2087,-178.1858,-219.0425,-61.5243,-84.9257,-238.0320,-32.0236,-305.3339,-191.3804,-264.5125
-261.8877,-270.6104,-239.2038,-214.7347,-228.3033,-157.0518,-276.2867,-146.6635,-216.0183,-129.6025,-180.6685,-209.7865,-109.1201,-97.6822,-269.0437,-22.8856,-282.8000,-230.6802,-243.6973
-252.9021,-280.1820,-215.3445,-170.0980,-249.4811,-202.7346,-271.9974,-167.5273,-277.1829,-127.2119,-193.1976,-186.3178,-168.8375,-103.5671,-303.7218,-5.9831,-256.7697,-261.8105,-232.2732
-264.1799,-273.7379,-214.1588,-139.4449,-230.4776,-201.9589,-248.2137,-186.8645,-294.8812,-102.3603,-264.1793,-158.2895,-182.0773,-99.9484,-317.0379,-10.2795,-196.5804,-224.1724,-200.2894
-196.2494,-208.7064,-144.1703,-98.2028,-147.9686,-147.7092,-195.3794,-197.6658,-258.4320,-92.3067,-227.0037,-125.8361,-142.6196,-77.3869,-279.3846,-55.6259,-64.7311,-125.3552,-114.8719
-70.7403,-74.9683,-14.3907,-25.8963,-71.4296,-67.4894,-136.1503,-180.9585,-243.8499,-100.3440,-45.6517,-60.0621,-86.8839,-30.4150,-261.7072,-110.7688,60.7963,-33.0548,-59.9151
2.5876,48.2373,58.2938,44.6625,-61.8122,8.8270,-119.2332,-144.7361,-258.3714,-82.3509,74.5413,43.1512,-43.2209,15.8362,-293.6629,-130.7912,96.5853,12.0172,-72.8751
42.0239,109.4122,61.1425,89.3999,-80.4635,44.1578,-140.4323,-101.1202,-240.7386,-50.4323,59.5828,118.8603,-26.3030,25.9700,-276.0663,-113.7847,84.3243,9.6700,-74.1231
106.5274,141.7669,76.0874,111.2836,-73.7048,41.4239,-146.8995,-46.9360,-205.5930,-47.0587,23.4736,110.0165,-25.0869,11.0838,-176.8945,-104.9157,102.8708,-3.3852,-38.5326
142.5316,131.7522,104.8129,95.1656,-42.1457,53.3346,-111.6418,10.9232,-190.4788,-51.5697,-0.8793,44.1799,-15.1149,12.8504,-93.7657,-131.8742,142.1304,20.2988,-10.1272
99.0893,36.8418,103.0791,44.4545,2.0976,91.3074,-46.0330,70.9660,-140.6460,-37.5776,-15.1686,-10.0897,-6.2500,44.4396,-62.5604,-152.9256,144.9409,63.1347,-1.6250
25.9742,-34.2436,79.5921,25.1851,45.1205,110.6451,24.3001,138.0612,-29.9506,-35.1567,46.2482,-9.6518,-12.7589,78.9213,-42.4737,-130.1160,115.6676,69.5275,-34.2332
-29.3754,47.8044,35.5720,71.8507,62.5161,104.4361,66.7423,186.1419,40.8097,-45.5140,132.7684,44.4305,-2.4984,84.0996,-42.8251,-94.7774,121.8261,53.2610,-113.0105
-71.8020,159.7408,-30.6034,117.3174,63.7232,112.9442,73.8805,214.2994,13.5200,-25.8448,107.0001,103.0883,40.8012,69.8533,-56.0269,-62.4124,184.9571,59.7097,-149.9572
-81.9118,136.0226,-47.7760,113.2928,78.0871,147.4055,76.6860,277.4293,-32.9974,-4.4578,13.5461,123.7747,78.8205,81.3954,-13.3260,-9.6466,228.0228,74.4591,-111.9913
-26.3136,99.1342,10.8287,124.3228,97.4793,189.1159,87.6426,356.2880,-47.5224,-47.2335,-17.9852,142.8333,96.4294,126.5426,59.6098,26.9133,197.0582,86.5609,-104.3461
44.9318,192.1943,41.4920,205.6271,112.3607,235.0855,87.1421,369.0606,-75.4770,-104.7454,-16.1419,201.2045,110.7358,176.6386,64.9915,13.8360,160.3885,132.8820,-158.1333
45.1767,259.8911,-5.9663,290.9149,135.6164,274.7224,77.9435,345.7316,-132.0726,-78.6352,-34.5520,239.5802,106.6154,226.4125,35.9540,23.0588,179.6087,193.7509,-183.5517
2.7454,178.0829,-49.7450,291.5036,143.4464,259.9149,76.0500,340.1538,-172.2384,-14.2432,-11.4960,206.3990,80.2950,254.4054,64.1069,83.6566,197.8453,189.9387,-168.2706
30.4725,144.2353,-33.3225,235.1278,118.1999,180.1819,78.2712,279.8485,-172.5427,-26.1130,77.6078,186.8430,87.0066,219.1508,108.5163,109.7043,181.4870,134.8828,-156.2602
168.9036,320.8378,49.9013,239.5742,121.7150,132.1547,95.6720,157.9942,-144.7347,-80.5987,181.6774,272.2977,152.3627,181.5152,103.0437,92.4596,213.0558,141.9725,-128.3286
375.5651,551.0952,205.6755,359.6516,183.2026,201.9173,142.4884,123.8555,-116.7346,-56.3543,301.0667,403.9268,232.2520,246.0372,89.9368,109.3144,326.7031,248.2315,-89.0444
574.8843,629.0236,362.1885,496.9894,235.2762,315.2458,186.8351,204.6652,-122.6795,36.5082,436.1697,466.7707,298.0163,355.8222,103.3051,147.8567,435.2756,354.0655,-79.7575
652.7900,549.7646,429.2566,517.6166,257.2439,339.8351,201.9612,250.6269,-157.9426,82.8042,495.3433,436.3575,351.0055,385.3731,113.4744,160.7885,485.4684,364.4762,-65.1764
573.0808,432.3365,443.0521,442.0276,285.0695,280.8102,203.2644,200.1161,-183.5258,54.3404,423.4401,370.7745,367.7964,361.3426,113.1138,163.4203,499.4747,300.2587,-13.5933
480.6440,390.3679,446.4264,401.4982,278.6905,231.8414,179.5866,112.9304,-196.7575,20.3598,323.2968,339.9976,328.5122,363.4346,89.9766,146.6989,478.6556,243.1273,15.0775
491.8553,431.3169,397.3058,422.5250,204.7892,216.2083,116.0383,26.7944,-220.1727,11.2248,323.5434,365.5419,267.3560,377.9135,11.8382,102.7461,425.4224,232.1214,1.4291
525.1685,436.3593,341.4996,414.9094,147.7622,205.9808,73.8682,-27.2428,-241.4191,3.1111,392.6151,390.5267,245.4981,391.8793,-56.8069,106.3101,378.2740,241.0218,0.1704
500.0280,342.2230,373.3904,346.0989,151.6729,195.5514,87.5917,-24.2738,-241.0639,2.7117,398.9019,349.6197,291.0342,414.2371,-14.1446,165.8564,335.4923,221.7275,20.2666
457.1263,244.2765,416.8531,272.7089,138.1332,174.8410,75.9526,-14.3496,-235.9404,33.3339,319.9066,266.3981,357.9283,398.4596,78.0818,167.9223,268.7976,159.9056,52.1627
418.9097,221.4164,373.1945,243.2700,78.3800,134.6661,1.4120,-39.8606,-253.7331,65.5141,253.0135,220.5841,359.1556,340.3375,74.3183,88.4476,217.7932,102.5871,117.0067
390.4517,242.5686,324.7693,265.0013,31.9310,108.8072,-45.5987,-50.3860,-293.9000,61.9088,254.4608,239.5219,283.4923,322.1322,-18.6993,24.5878,234.6924,98.9735,186.6382
416.0795,277.7954,348.5202,308.2065,21.5901,122.4305,-17.3396,1.2470,-312.4192,53.4339,316.6330,279.7595,223.6199,354.3237,-73.1911,25.5317,287.6779,118.1361,210.8371
453.7124,304.1266,397.6222,321.7559,35.4625,145.4277,20.2962,75.7596,-268.1908,73.2115,408.6584,294.6800,236.7709,375.3624,-33.2784,76.2776,312.8630,100.6794,205.0267
405.8549,271.3105,433.2033,292.0685,61.9190,146.5968,15.8093,100.6284,-201.4360,80.2065,429.8221,271.4082,270.6681,383.7532,42.0892,132.1850,281.8825,63.0186,180.6710
316.6656,202.9239,413.0136,247.2868,60.2531,123.4254,-18.0670,52.5477,-172.6811,41.0660,304.4835,209.2355,270.8584,380.0118,75.7930,112.6477,199.5074,52.1046,118.3995
270.6049,169.1910,292.6364,195.6511,16.5837,76.3050,-53.8456,-26.7227,-142.0162,-8.7365,135.9051,117.1667,249.8603,318.3549,62.1053,12.8375,104.9994,55.7523,55.3902
220.7667,142.4505,179.3371,140.2306,-11.4492,18.1816,-61.1431,-98.4508,-62.4259,-46.8197,61.4876,50.2380,225.3167,231.1373,54.7949,-58.3799,38.6197,50.6546,33.6498
154.0455,91.7694,198.9888,114.8909,13.6240,-20.3132,-18.9330,-168.0953,2.6909,-83.9850,84.6587,69.2314,196.5842,206.7341,77.5347,-50.9383,1.2457,58.1754,23.8570
165.2944,84.7443,258.8034,123.7985,74.8742,-26.5942,54.1447,-213.8222,17.1518,-92.9810,169.8859,131.1663,185.7185,235.0930,109.9975,-13.8464,-1.1098,92.0741,13.2790
222.8052,104.1552,248.1051,122.0726,147.8935,-12.5075,110.2324,-180.9099,39.3654,-51.0389,246.1794,131.9689,210.1640,245.8793,135.8660,27.1196,39.5339,131.8740,22.7030
182.4904,44.8889,234.0559,103.4850,181.6119,1.9821,114.4716,-101.3572,64.4858,-8.4303,183.7541,80.9763,233.7191,221.1689,126.6724,58.9890,61.8008,154.9842,36.3597
78.4739,-8.3635,252.0045,113.8714,148.6231,1.9592,97.8206,-57.5688,64.0580,2.2808,54.6879,83.8787,225.9111,187.7017,78.8520,59.5789,24.1180,141.2396,72.8307
86.8747,100.1736,245.1690,159.0887,141.1404,7.3834,142.3202,-27.8974,128.7070,25.5925,91.8154,147.3633,220.4109,193.8224,84.7693,62.5072,11.1014,92.2411,179.4317
209.6973,232.8075,233.4296,180.7345,220.2625,47.8255,240.3016,48.8090,270.0615,73.0463,210.4267,172.3012,231.3638,257.5847,168.0116,86.8897,67.3698,60.6337,263.2856
258.0947,176.7820,228.4094,147.5161,266.9503,91.5689,264.6414,133.7872,294.2342,88.5187,136.4675,135.6530,202.8262,300.9579,165.3381,75.2824,90.2609,90.1218,199.0965
152.8423,58.4138,159.6549,116.5821,204.3349,95.6433,181.3115,167.3558,148.2605,54.9681,-30.1714,110.1974,127.5803,269.8827,37.8314,34.7532,49.7105,149.0647,83.7025
30.6962,76.9609,64.5667,140.3318,147.6237,96.1403,114.1554,162.8817,48.6279,6.6880,-47.0869,112.3702,86.7240,245.5259,0.2973,44.0814,51.0913,175.9491,63.0919
3.1452,112.0639,50.0735,156.6763,154.2709,121.9797,111.6950,135.9062,76.8371,-47.8247,-21.6880,83.4077,106.0669,268.3635,83.1245,73.9636,89.8897,147.1085,62.0836
1.0418,13.4014,68.4096,101.5997,130.6814,116.0857,88.5446,75.6121,66.0993,-107.3984,-92.9275,26.7299,128.7047,251.9890,47.7528,47.2598,60.9783,86.8741,-12.6550
-42.5426,-64.6760,34.4000,64.2501,73.3545,68.6980,36.0398,18.6557,-28.9078,-125.7051,-123.6009,28.2816,136.3251,203.9526,-96.0645,15.2077,6.7118,50.0333,-55.1659
-57.6049,34.4072,-4.2940,130.8094,71.9548,66.4116,33.6088,27.2601,-64.9252,-64.4553,-56.8167,102.1111,136.7142,230.8387,-92.7993,52.4107,43.0741,69.7426,19.8661
0.6052,168.4301,-15.4068,192.5039,103.7564,114.1386,73.8335,90.8747,-4.8795,37.8932,-26.2170,142.5159,108.9424,289.5885,37.1707,118.8881,122.9945,113.3480,113.0616
56.0841,157.0065,-37.6687,139.6704,107.3161,112.5141,88.0446,143.3554,47.9646,107.5807,-55.4704,96.5877,80.1308,270.3573,84.2928,155.2382,129.0589,124.7823,120.5637
40.9487,58.4835,-38.0369,60.5747,108.5063,51.6119,62.6578,168.1679,43.1154,118.3274,-79.4441,48.2092,97.3747,227.3376,64.2078,150.0950,71.1078,78.0838,54.0047
-40.3087,9.8455,31.4672,45.1469,97.4911,11.5869,11.9961,207.6113,12.5942,96.8717,-84.2422,53.0813,106.8999,229.3959,61.1878,100.7688,21.6724,-19.3533,-27.7587
-139.5631,6.3935,108.6120,27.2970,21.2213,-12.4290,-43.2829,263.0217,4.4868,69.5447,-42.5955,44.5534,63.2676,197.6949,19.2378,40.1287,-7.9024,-114.3614,-68.3279
-174.7166,-33.1711,113.4554,-43.9761,-59.5113,-83.4301,-55.2175,279.0741,56.5004,44.6733,17.9577,-20.7561,38.2371,98.9827,-32.1365,32.0985,-38.8301,-141.2645,-55.1558
-120.8744,-112.9586,39.8179,-104.1091,-71.9795,-171.7062,-23.3973,248.9279,143.3472,32.1992,-29.6924,-78.7968,43.1373,28.3626,14.3846,72.5315,-70.0899,-115.8268,-40.0723
-74.5299,-159.0390,-72.3104,-97.4845,-87.1595,-197.5713,-17.1422,227.4288,184.3897,38.2149,-172.5439,-76.3020,-11.2974,14.2589,75.2181,90.7299,-84.7550,-98.1295,-45.0674
-110.5231,-119.3262,-146.9846,-52.6425,-139.3777,-162.9690,-44.6061,240.0458,168.5058,58.1165,-232.2222,-47.2694,-92.7247,0.1931,35.0757,52.9118,-85.1397,-74.3687,-28.7654
-187.1502,-33.0062,-137.4775,-44.9790,-126.3141,-129.1628,-39.6993,273.6656,167.6556,93.8234,-158.3600,-53.5610,-92.4836,-17.6017,-6.9778,-12.3252,-116.6546,-17.5684,-4.0388
-250.9848,-10.5207,-119.4502,-116.0994,-47.8648,-128.9283,-9.1265,308.7448,199.6505,140.3495,-85.2305,-120.5200,-41.3521,-30.3252,33.9162,-59.3751,-210.2822,18.1563,-31.7198
-282.0844,-104.9651,-179.5274,-196.2095,-29.6590,-160.8981,-20.8873,306.9334,217.5186,162.1079,-138.9948,-203.9040,-11.2167,-72.1228,65.3791,-68.4629,-297.0247,4.4240,-76.5228
-270.6339,-211.8157,-260.8943,-188.0401,-67.2715,-208.5279,-60.5104,252.5803,222.3478,134.8174,-302.3853,-214.0613,10.3211,-131.9358,46.0385,-71.9832,-279.9010,-1.9791,-52.4120
-258.7090,-206.5165,-272.9384,-124.4744,-69.2437,-237.0354,-62.8733,199.0851,241.1918,96.7112,-398.6163,-136.9312,4.6493,-153.5867,46.7197,-105.9003,-195.7720,14.4149,17.5281
-291.4017,-148.6838,-250.9241,-97.0177,-64.9670,-221.9590,-43.8280,181.2771,243.5199,109.5817,-314.4706,-81.0906,-55.0767,-138.4396,71.5268,-137.9812,-176.9496,11.9452,45.6516
-330.4731,-163.6645,-272.6480,-106.7941,-107.9810,-189.8137,-66.7011,157.4158,200.1414,170.5956,-217.7355,-117.5284,-90.5647,-132.2615,76.3354,-125.7118,-252.6934,-8.8671,10.3390
-344.4321,-190.1396,-319.0778,-124.8270,-155.1364,-192.3547,-125.2985,98.7259,139.6236,189.3286,-266.6332,-161.4723,-61.0064,-151.2776,68.8707,-106.7999,-319.4244,-41.5578,-57.8259
-355.9190,-102.9784,-315.4473,-153.1883,-181.4384,-240.0967,-156.3325,17.1842,80.1422,85.5038,-309.9711,-116.9037,-41.1170,-182.1222,49.4080,-128.7838,-304.3731,-113.0881,-127.3676
-336.1131,20.8273,-245.8769,-157.5608,-201.2911,-286.1635,-138.5097,-77.5655,17.8602,-79.6017,-229.8572,-30.1791,-42.1858,-197.8196,4.6352,-153.5683,-245.2117,-194.3071,-172.1846
-249.8244,37.1372,-167.0295,-110.0660,-188.5648,-277.4246,-116.0682,-142.2312,-17.6821,-149.2746,-193.9789,5.6479,-17.1284,-174.4288,-13.7012,-137.2175,-200.9584,-211.4482,-195.3814
-159.2036,-25.6387,-131.4290,-69.3466,-147.1461,-212.3509,-120.2805,-131.1408,-13.0200,-86.0401,-277.8521,-18.0409,-3.2350,-132.1739,34.5838,-120.1742,-170.5974,-165.0918,-206.3479
-117.4804,-92.7032,-130.1191,-81.6927,-119.0117,-140.4276,-111.9668,-107.1880,-17.1766,-13.8883,-316.9218,-75.9629,-19.6484,-114.6041,76.0478,-137.8031,-127.6935,-112.1585,-169.7604
-116.7744,-184.9793,-120.8205,-118.6716,-72.8467,-105.7461,-55.7086,-161.8929,-52.9266,-12.9206,-271.2490,-161.2410,-2.4599,-123.4135,39.8677,-140.1137,-88.5292,-83.5970,-84.7830
-179.2977,-279.2672,-97.4914,-164.0245,6.0097,-109.1994,-9.8766,-260.2070,-77.1331,-34.1357,-268.8254,-229.8759,32.7034,-131.1948,-10.0382,-90.2829,-98.3827,-95.2084,-43.3452
-278.2056,-275.8960,-90.0358,-207.4646,23.4985,-125.6191,-39.6053,-316.2118,-63.9109,-37.3866,-299.8609,-227.5071,19.8193,-128.2279,16.8106,-39.2105,-148.7408,-150.1338,-79.3266
-286.2782,-178.7470,-92.3500,-201.8268,-36.9692,-132.4552,-94.7307,-321.4180,-33.6133,-49.2054,-248.4342,-184.1551,8.6446,-119.0541,81.5528,-32.2303,-167.9706,-214.4300,-104.7181
-195.2116,-99.0791,-67.3281,-153.4045,-69.9159,-124.6146,-100.2454,-295.7561,-15.8896,-77.5585,-143.1440,-160.0520,55.5287,-115.9174,90.7285,-42.5563,-130.4238,-254.8389,-88.0233
-148.7168,-101.1048,-44.0296,-131.7780,-67.6266,-122.0031,-80.3783,-247.1555,-31.7568,-98.9258,-114.1085,-153.0411,89.8197,-134.4966,54.4706,-40.4395,-100.7229,-263.3847,-90.7762
-184.8716,-170.9147,-91.7952,-143.1917,-95.3107,-144.3499,-73.7873,-211.4219,-67.9447,-117.1826,-168.5616,-152.0867,48.9734,-157.8329,42.2313,-36.2992,-119.4659,-242.1155,-104.0089
-217.9954,-251.9852,-168.2717,-144.1783,-120.1637,-169.0820,-55.8383,-214.2521,-87.9044,-153.7821,-188.4369,-169.2795,-33.1263,-148.5826,50.0106,-42.3374,-132.5739,-223.3784,-72.5506
-211.0392,-276.2929,-153.4691,-141.3114,-119.5193,-156.9780,-30.8245,-225.8424,-91.4429,-198.5995,-140.9616,-184.6478,-103.7123,-119.4580,34.9373,-60.2988,-88.3971,-245.1340,-27.3281
-161.8721,-240.2055,-49.1336,-152.0121,-149.3329,-115.7730,-37.1835,-211.4412,-86.4241,-206.8638,-114.1425,-182.8432,-109.9712,-114.5012,3.8251,-86.4763,-17.3993,-272.1685,-6.9900
-77.9039,-193.7542,38.5879,-159.1290,-169.0805,-82.8533,-37.1707,-173.7014,-40.9472,-149.6612,-115.4061,-187.9061,-27.9829,-124.7874,-21.1088,-98.8161,32.3503,-244.7182,24.8792
-24.0754,-136.0557,81.1977,-153.9816,-84.6327,-66.8836,22.6400,-141.9867,37.4098,-69.9682,-62.5591,-175.1864,60.5041,-113.2336,-26.3123,-85.4241,62.7561,-179.1779,71.2595
-25.1899,-43.3947,118.5352,-120.1423,42.8196,-55.4463,88.5809,-144.2022,80.0941,-50.8169,21.5590,-97.2615,70.4044,-90.0281,21.3026,-73.7372,92.5254,-110.5447,72.6265
-23.2142,36.0436,148.4037,-29.0185,92.3817,-40.4480,89.8268,-165.2270,73.7272,-102.7198,57.1413,-12.8336,55.3935,-78.3584,107.6875,-77.5538,108.5976,-34.2288,17.7775
-25.6268,40.0206,143.1598,64.8452,65.1386,-7.0748,50.2041,-152.1775,55.2557,-143.6010,56.0169,3.3980,87.9576,-57.6646,145.0658,-60.0410,83.9856,13.5078,-49.9089
-72.3149,-14.0233,86.4366,63.6941,15.0244,50.0968,15.3217,-89.2221,27.6161,-122.0413,22.9170,-2.8076,117.6812,-9.6653,120.4435,-0.3376,31.1988,-22.5086,-99.6139
-88.4366,-51.4983,-13.9659,0.1849,-30.5136,98.1832,-10.7721,-18.6902,10.5654,-80.9353,-66.4282,13.1717,90.9012,37.2003,116.2983,60.1448,-2.0048,-83.6587,-120.3717
-29.3493,-14.9397,-83.2246,-9.8621,-46.4745,108.6761,-28.7822,25.3391,37.0719,-66.2004,-115.8504,10.8184,60.1764,54.5818,123.1230,76.1393,-2.9029,-70.5677,-126.0012
-10.9139,59.9497,-53.7950,31.3258,-39.4908,102.7710,-43.0512,46.1055,44.1728,-66.1589,-43.0996,-7.1403,66.5237,52.8249,59.7902,53.6998,1.0839,-17.2117,-141.7311
-77.8718,77.0873,12.6113,44.3956,-41.9054,111.1482,-64.5106,59.4822,-29.9059,-69.7954,39.5013,14.2492,57.2607,59.3068,-19.5311,31.3292,16.8670,-14.0062,-145.9631
-89.1748,52.0752,31.2070,43.3703,-46.3473,134.2603,-75.4880,78.5637,-103.3500,-88.9096,47.9392,66.5390,-4.2436,89.5244,-8.7633,39.4663,68.5596,-39.8513,-107.2179
17.0544,80.6320,23.8378,71.2117,-45.6052,158.3686,-62.9083,97.4041,-108.5394,-107.5627,54.7660,98.2389,-68.1124,119.8413,18.3737,76.0367,111.6774,-24.8515,-64.1992
109.0702,105.1135,17.0994,71.6051,-60.1263,163.3978,-52.6034,92.8860,-115.6114,-98.4453,62.8985,75.7725,-86.0441,97.6475,-63.3769,104.2853,89.2370,28.2777,-51.0662
97.4860,24.6208,2.7342,1.7820,-56.5912,135.2283,-41.7652,61.1460,-155.4687,-84.0439,13.3027,-0.1535,-73.6255,28.0176,-175.2024,85.4381,47.7189,90.8126,-23.7697
57.5104,-42.8524,25.1990,-52.9114,14.9169,104.1900,5.4682,24.9366,-160.2995,-104.0113,-18.6373,-55.7982,-55.5243,-6.2353,-168.9193,26.6579,70.7932,150.4881,28.2067
69.5149,7.7319,94.5640,-23.5115,103.9058,112.0496,60.1859,-4.0824,-132.6274,-147.8066,48.2073,-28.5069,-29.5971,20.8801,-88.9797,-19.6746,147.2865,163.1998,34.9312
108.0567,32.7544,128.0997,20.7794,133.5009,130.4467,60.7185,-44.5689,-135.0340,-169.3205,138.7154,2.2334,-0.6388,28.4975,-57.4326,-20.7504,202.1456,104.0753,-3.5958
119.3381,-19.6107,118.1687,5.8306,127.4613,109.2134,38.4046,-104.8295,-137.4881,-132.0543,154.0864,-37.2502,16.8268,-16.6061,-35.0310,-0.7288,195.6052,55.0308,17.5670
84.3364,7.9414,111.3397,-34.5713,144.5020,85.6718,72.0399,-140.8085,-59.7563,-47.2212,73.2643,-63.9325,24.8248,-41.8619,63.1758,5.3917,142.4549,90.7085,127.2972
-2.3603,74.0746,40.8112,-46.2306,172.2138,120.3430,144.3279,-114.0034,80.2749,8.4944,-58.1621,-31.7748,25.8003,-17.8348,151.6205,-4.9373,84.6494,142.6257,210.4752
-99.5886,18.7931,-103.0312,-23.9039,162.5307,171.0720,165.0103,-80.4983,166.7500,-14.4485,-122.1394,-17.6266,13.2050,-4.8276,117.3412,-26.5294,52.7418,124.8297,175.5447
-104.0484,-27.0890,-146.0264,16.2957,112.8244,158.1723,110.2364,-123.0497,127.8408,-48.6202,-62.3837,-18.1226,4.5898,-37.6234,39.9930,-64.0696,39.2630,74.5444,74.8551
-0.5327,56.7204,-54.5120,36.9537,62.9096,87.1591,46.2772,-210.2519,33.0906,-26.8188,7.0296,17.4783,30.0322,-96.8830,37.2251,-99.3413,28.8964,36.5602,5.5508
72.7383,55.7450,-14.4739,4.2162,20.4617,9.6825,19.9760,-252.5378,-7.5888,3.1823,2.6322,23.1167,68.1472,-156.9146,53.2679,-95.5139,26.4587,-28.1838,-23.8073
36.9309,-85.3423,-51.6719,-42.9107,-50.6965,-48.6231,2.0416,-246.7844,-1.9260,-2.1160,0.5813,-30.7758,56.2615,-183.9688,10.9436,-60.3547,23.8582,-120.8524,-60.0390
-20.0137,-94.5740,-36.6325,-47.7375,-131.9781,-67.3765,-33.2954,-235.9810,-17.9876,-11.4639,53.0228,-54.0219,-11.5285,-164.8934,-21.5259,-49.7024,-6.9631,-168.5584,-98.7626
-36.4710,18.8095,-17.6563,-44.9310,-144.5312,-38.1391,-55.7124,-226.2925,-46.2564,-28.8117,108.6830,-55.2074,-64.1100,-144.6317,7.7861,-79.1320,-69.0284,-153.5059,-99.2284
-48.6168,-17.8003,-92.2470,-88.0304,-90.2422,3.8900,-55.0436,-218.2348,-50.7734,-66.3671,121.8630,-108.7754,-61.9439,-144.3828,20.8836,-89.5420,-139.1150,-122.3197,-72.5818
-45.2821,-134.3536,-151.8688,-135.2447,-51.9947,34.8613,-66.9733,-201.8509,-43.0767,-57.2768,78.2101,-145.0607,-41.8363,-116.0354,-18.9288,-46.7635,-193.3955,-90.1500,-67.7708
4.6939,-110.1269,-102.8593,-132.0858,-42.2146,68.4998,-82.6011,-151.4379,-26.7217,3.2382,4.1692,-105.0396,-21.9741,-61.2523,-33.1373,-9.8970,-203.7295,-59.0917,-86.1253
29.2289,-59.4844,-52.7022,-111.5507,-18.7858,78.9551,-58.7103,-116.8052,-3.6459,1.6514,-28.1427,-89.9182,14.1992,-63.6826,12.4075,-30.7893,-160.6191,-65.1499,-87.3354
-35.6722,-118.6689,-90.2292,-122.6281,-10.0339,12.3620,-25.7454,-183.4235,-18.6997,-72.0704,-18.5500,-134.2637,20.6044,-144.5856,51.4510,-66.9745,-112.3416,-123.8611,-71.7017
-112.8817,-157.9547,-163.9158,-158.4218,-61.7292,-98.6085,-44.9726,-299.6318,-74.8190,-93.2972,-29.8062,-147.5550,-52.8005,-225.6476,33.1170,-71.5967,-126.0811,-192.3364,-73.4561
-104.9363,-134.4128,-213.0886,-197.0227,-131.2621,-157.8575,-89.9179,-335.8611,-99.9904,-29.0342,-28.9999,-140.0071,-125.3746,-253.8497,-26.3723,-69.9926,-206.5147,-218.1836,-73.2452
-43.8428,-167.6464,-221.9284,-231.9458,-156.3608,-145.6464,-99.1894,-288.3770,-64.8555,44.9686,22.5958,-181.1191,-111.3515,-253.0927,-83.0851,-85.3791,-288.7007,-197.9215,-25.2907
-31.4517,-232.8270,-201.9026,-251.1902,-155.1731,-128.7530,-82.6563,-244.7553,-15.0350,87.8903,24.1147,-219.5636,-84.6149,-261.2682,-97.6217,-94.2790,-317.5687,-186.9556,21.9353
-86.5090,-243.9497,-197.2279,-239.5638,-187.2075,-148.2247,-88.7164,-247.1973,-0.6860,90.7187,-71.5692,-193.4512,-123.8899,-282.8415,-72.0553,-84.5117,-317.6651,-232.4172,-28.0688
-122.4249,-236.2140,-229.7555,-205.3353,-260.2797,-174.4250,-136.0285,-292.4581,-50.8655,54.0748,-141.3088,-152.9878,-164.1632,-293.0714,-58.4516,-69.9538,-351.0738,-295.5834,-140.8132
-90.8810,-212.9046,-262.8142,-180.5147,-309.1759,-166.3222,-197.0105,-345.0419,-136.3304,22.2184,-121.4957,-144.7508,-146.5213,-273.8006,-83.1246,-60.5238,-402.1877,-303.1365,-178.0933
-54.3030,-144.5102,-258.8167,-185.2499,-269.3051,-133.5962,-205.5940,-358.3461,-162.4093,27.3562,-74.3366,-146.7066,-113.5481,-242.0658,-105.2671,-62.0591,-383.2614,-255.8094,-110.9222
-48.6816,-120.0989,-209.4970,-199.2008,-158.4921,-113.5238,-132.9775,-350.7258,-104.8054,46.4642,-21.0244,-141.5752,-98.2708,-221.1785,-97.8559,-68.9709,-283.9250,-202.9142,-46.8231
-19.4937,-178.2952,-139.7852,-191.8864,-57.4726,-100.3546,-57.1171,-363.1931,-62.0829,52.7348,27.3072,-138.7466,-90.5179,-205.9451,-96.5854,-69.9204,-207.0877,-152.2841,-54.7943
25.6116,-196.3794,-115.7332,-168.3254,-23.0966,-61.6167,-59.8216,-369.5159,-91.6796,28.0775,4.6990,-142.5345,-84.1311,-185.4648,-120.3921,-78.3626,-215.5711,-85.9892,-96.5203
1.4099,-132.2333,-152.9718,-141.6479,-43.8205,-14.9061,-103.0785,-354.4609,-138.6052,-32.0815,-61.8016,-128.2674,-72.6418,-163.2984,-132.2194,-98.6512,-246.3442,-17.8460,-113.9543
-63.1695,-63.4291,-157.9287,-93.2910,-62.2241,-1.8422,-113.2796,-362.9503,-156.2207,-88.1316,-49.7550,-54.1752,-65.7535,-143.3150,-120.0084,-103.1045,-213.4482,24.1232,-95.2118
-38.3270,1.8703,-82.1077,-15.3003,-34.0263,-5.4973,-87.5737,-382.1173,-150.0147,-110.0076,47.7863,58.8871,-76.6124,-125.2998,-114.9957,-98.1478,-120.2618,49.4118,-56.6939
90.0690,59.2054,-11.8521,51.9396,28.7156,24.7942,-35.8364,-347.3468,-120.4586,-110.9302,124.0311,118.3791,-62.0311,-100.9831,-110.2967,-99.8939,-34.4563,102.7358,-8.5772
200.8881,49.8664,-5.3782,76.6723,84.6019,100.8453,46.9778,-268.4274,-68.7791,-81.6886,136.3698,103.6675,-3.2244,-47.3329,-74.3685,-53.6347,13.6819,196.6281,37.6585
211.9110,33.9848,-11.8793,93.0248,117.1748,196.1404,115.5509,-187.8569,-21.6905,-18.3527,117.8902,107.1290,21.2960,40.5587,-34.3545,52.7796,67.8252,284.6833,56.6717
158.7711,109.9671,7.2425,154.0548,136.2920,273.2437,113.8796,-110.3502,-4.5071,24.4088,91.8325,172.8955,-13.4143,116.7718,-37.1651,104.9805,165.6758,337.9570,46.9733
124.2690,185.8042,41.1847,242.5639,150.6244,303.3213,66.3972,-54.7864,-17.5394,36.5146,71.0511,234.7495,-32.7773,128.4926,-66.4881,64.5873,261.2405,374.2575,43.0877
135.6966,160.7679,79.3567,276.7722,155.3728,292.9126,38.5992,-31.4187,-36.2738,64.7483,71.8676,238.9671,-31.9859,87.8757,-77.8588,49.8509,281.0273,383.6783,56.4041
140.9982,133.1600,86.1322,225.9843,137.8751,269.9053,56.9769,2.9436,-30.3620,86.2810,92.4818,203.6806,-51.3681,63.7702,-58.7963,107.4472,225.7750,346.6305,69.5441
94.6266,175.8817,23.6852,166.1147,105.4627,243.6732,98.8128,54.1693,-1.3195,78.3410,111.7596,167.4946,-53.7525,88.8114,-26.8104,158.4953,153.0805,308.5607,80.3452
28.4584,203.2971,-56.4384,160.3868,81.9734,205.1970,110.1003,71.7853,21.5269,100.7207,112.4988,152.9379,-27.9355,104.6376,-19.3385,167.2960,94.1049,292.0094,73.1772
8.6738,170.3259,-66.5715,159.7662,63.3110,138.9377,71.4937,53.0761,32.7251,137.3297,103.5329,150.0598,-13.5581,49.5704,-48.1790,143.5655,46.6536,234.2584,28.5891
47.3383,117.6097,-13.8121,111.3271,40.8035,46.8399,51.0731,26.9582,53.0183,109.6621,102.5987,123.0449,27.3533,-34.6513,-55.6511,85.9678,11.1916,136.9954,2.2398
65.4347,61.8933,23.3210,62.5369,35.3570,-7.8479,87.1391,0.6712,75.9688,86.6314,88.7107,65.4338,97.0800,-69.3745,-12.1006,38.9114,-20.5985,90.5724,39.3164
-14.8268,22.2757,11.0899,56.3985,25.7873,36.2045,94.4448,16.6052,67.3530,160.1708,40.9523,14.0923,75.8210,-56.3415,7.9058,51.9869,-67.6773,90.8538,63.8223
-120.7103,1.7664,-5.9533,41.7286,-45.9312,111.4935,25.9884,106.6625,32.7321,233.9653,20.2253,-20.0505,-30.0121,-41.5908,-32.2967,89.2912,-109.6219,60.9324,31.2735
-108.7716,-69.2020,22.1442,-21.0122,-141.0011,97.9759,-33.1906,183.2356,24.3907,206.4014,85.7468,-68.0502,-72.0531,-48.6037,-54.1646,90.7112,-107.0858,13.5886,14.3351
-6.4851,-172.5133,60.7843,-80.5227,-172.0726,10.6390,-46.3794,153.7857,49.7370,127.2675,164.7917,-118.5640,-54.7154,-94.5583,-21.8661,35.9576,-88.7054,-4.5022,19.1185
42.2472,-148.4252,30.5872,-83.5059,-155.7046,-43.4059,-65.0017,57.8048,60.6130,61.2403,150.6665,-104.8818,-66.3834,-161.0969,19.2299,-50.4833,-103.5821,7.6760,4.3541
19.0538,20.4277,-50.0835,-42.3673,-120.4224,-26.4325,-54.0454,-30.2406,70.1050,54.4062,51.2511,-23.0846,-56.5075,-169.3987,76.7247,-72.4897,-105.6626,72.1430,59.1350
-25.0673,135.3990,-86.3720,3.6856,-23.5021,29.5822,43.6329,-95.8333,139.2599,149.4556,-66.3736,27.9861,6.5235,-103.0358,163.9408,26.4928,-42.1456,179.6223,219.0043
-109.5033,84.2718,-80.7135,11.4986,83.6557,77.1914,131.5682,-147.9340,226.3143,260.3743,-143.5947,-19.0219,40.8953,-58.5631,204.2564,130.5106,2.6352,214.2387,298.6872
-215.1581,-58.8318,-124.5400,-57.4858,72.7076,67.4510,108.7206,-207.5340,234.9572,254.2159,-129.7871,-121.3462,39.4796,-81.3260,173.6343,131.5320,-72.7540,120.8272,198.1459
-284.8965,-214.6788,-242.4057,-183.2720,-35.0278,9.9639,31.9719,-297.1207,178.5149,164.5168,-88.9354,-224.6484,33.3102,-111.5705,157.4811,91.5862,-224.8437,-5.5229,44.7557
-375.9629,-343.6060,-384.1218,-281.9178,-138.5263,-33.3050,-45.4476,-386.6549,103.9829,85.5120,-173.3654,-318.0235,-24.2897,-133.1396,158.3969,61.9204,-358.2602,-95.7441,-90.0107
-514.7569,-394.6862,-486.4420,-297.6460,-230.0742,-59.1694,-153.5741,-421.1812,-12.3141,17.0635,-330.7049,-369.1888,-104.5768,-187.0837,101.8641,18.0249,-424.8813,-154.4197,-215.9706
-556.2822,-358.7471,-476.7898,-255.3412,-286.0738,-95.4233,-253.8947,-386.5493,-135.5236,-31.7758,-350.2666,-343.6318,-109.6373,-246.9931,36.2519,6.4107,-381.4068,-149.2666,-250.3963
-466.4556,-288.7507,-355.7940,-200.5997,-243.2595,-91.0961,-270.1915,-295.7004,-169.6236,-23.0905,-283.0729,-281.2567,-85.5896,-244.5715,41.3310,49.6577,-240.4513,-63.0650,-177.5275
-421.6079,-236.9619,-250.0415,-146.0422,-169.1220,-5.0256,-243.5559,-168.5740,-154.3710,14.0295,-335.8161,-238.9317,-116.6945,-183.6484,33.6702,51.7378,-117.8460,34.0099,-139.3677
-448.3224,-218.8040,-236.9774,-97.6928,-166.8571,84.1926,-247.7703,-21.8520,-190.3943,50.4742,-396.4743,-207.4123,-147.1178,-128.1346,-61.5654,12.6572,-68.3987,75.8526,-161.3719
-374.1797,-197.1677,-235.4312,-74.1065,-186.4243,100.0519,-255.8827,138.7210,-224.9273,88.9455,-246.6721,-157.8887,-134.6738,-116.3073,-126.0815,34.8804,-17.6007,62.2369,-118.7538
-183.1111,-121.5932,-170.3807,-65.6593,-151.1811,79.6512,-217.5437,264.1281,-175.1313,83.8824,-42.9534,-91.1051,-121.0392,-127.3051,-77.5378,75.3988,64.3681,44.2625,-4.6754
-30.7975,-25.0765,-64.3709,-22.4336,-78.2823,87.8611,-139.4557,326.7415,-105.5337,18.7411,-20.8060,-17.0782,-89.3922,-118.8103,-40.9520,47.7227,131.6767,85.5517,85.9444
22.3612,12.8587,57.2310,68.8516,5.2645,129.4101,-53.2743,499.8417,-92.9702,-36.7570,-72.9565,40.6851,-24.4489,-93.7471,-91.8540,19.6445,186.7278,131.3954,139.0511
22.1927,2.1738,164.5696,136.7570,61.6446,162.6961,2.4567,964.4574,-107.8340,-57.9683,-47.7073,52.3410,-4.3183,-88.4248,-103.4406,37.1789,230.8376,26.7990,179.7093
7.1472,10.0999,190.7336,120.6839,46.6501,153.4445,10.7076,1509.7511,-101.7154,-56.7076,-13.7064,35.1278,-48.4131,-89.0339,-7.2858,40.2717,212.9445,-184.7193,195.2649
5.3288,49.4027,132.6702,73.5618,24.1365,128.5289,15.5790,1759.4331,-56.0537,8.8932,-14.0934,40.0253,-78.0489,-51.8411,78.0800,45.8628,156.6609,-257.1501,172.0770
20.4776,111.8102,68.1879,88.5600,73.8420,141.5917,55.8637,1716.7577,20.4727,109.5971,1.4605,88.1930,-66.4279,3.6328,87.1693,93.4097,146.0913,-162.7877,107.2370
32.9918,191.7360,43.2961,160.3989,128.3548,173.8340,93.6711,1612.4409,73.2216,117.9555,8.2161,158.4625,-28.2931,24.7051,94.0719,104.9599,163.4691,-122.2688,14.4653
50.4856,220.9027,62.5406,201.1036,117.5825,164.5263,85.2777,1477.7899,67.8144,25.6974,-15.0541,193.9180,43.2766,6.1874,113.7672,42.7693,139.4501,-182.0016,-61.2558
63.3364,145.9422,112.8863,165.3428,92.9786,119.1105,54.8015,1304.3909,46.7942,-48.2141,-18.0111,141.0606,103.1880,-32.1542,86.2791,-12.5931,90.6505,-200.1731,-88.4024
17.0061,51.2084,124.1651,90.9533,79.2654,79.5348,44.8472,1186.8215,53.8390,-44.6958,-14.4889,39.0782,77.3013,-68.7563,37.9982,-31.0662,60.2959,-168.3915,-66.2633
-63.3700,29.4744,56.3850,31.7350,55.0789,59.6021,59.2101,1013.6823,92.3738,27.7966,-44.9527,-15.8916,-8.6411,-53.1386,29.8901,-36.2946,42.0374,-156.5776,-2.1852
-66.6988,25.7512,6.4728,-4.1946,59.5541,75.6713,76.6060,560.1625,154.9688,133.7913,-65.5126,-19.9138,-65.5162,35.1493,34.6016,-8.6305,23.4405,-130.6871,61.4329
11.9212,-25.3626,49.1727,-41.0732,93.4654,121.4584,83.6365,-28.8372,203.5905,193.4901,-53.7527,-32.3731,-63.2443,109.4521,29.2010,34.9628,-0.9942,-91.3721,71.7290
53.2378,-55.2671,89.2755,-74.5488,82.1797,119.9133,91.4774,-410.9394,199.4748,181.1221,-41.7246,-39.9259,-30.5759,74.9295,61.5380,24.6384,-35.0468,-119.4315,44.7807
15.1819,-7.5695,33.4049,-69.0901,48.1305,42.9083,118.1551,-578.8642,177.5696,156.4670,-14.1503,-14.4188,1.3773,-22.5829,127.0880,-28.5704,-53.8488,-168.4331,16.7465
-20.0668,44.4925,-60.9728,-28.8157,72.6142,-1.1709,153.0680,-718.3251,173.1109,128.0235,24.7299,6.9520,21.6195,-53.4139,148.5760,-47.2171,-43.6896,-118.2865,-19.0108
-1.8048,53.2940,-103.2537,0.3613,118.5513,61.2607,167.9898,-812.7329,151.1185,75.0979,12.3100,18.6693,37.4432,8.0326,110.6083,-17.3695,-34.8231,-15.9199,-44.5925
27.9678,70.7777,-74.3026,6.1697,119.6345,133.7559,155.8826,-788.1978,115.1643,50.8576,-18.5671,47.2049,51.7259,52.9309,73.7885,3.4344,-39.1401,12.9384,-32.1994
40.4321,82.4726,-7.1199,3.7763,94.2024,106.0979,122.1091,-728.0266,120.4244,67.8930,25.7780,40.1337,53.7257,9.4056,71.8288,-31.1469,-50.0549,-26.1014,-36.4348
66.1744,9.6969,31.5896,-16.6384,41.6343,13.1789,57.5066,-714.0221,131.8206,45.0097,106.6372,-31.9382,36.1703,-64.2764,77.3871,-97.6526,-94.6893,-71.5788,-106.8017
95.8583,-82.9909,12.2711,-54.2432,-53.4473,-59.5075,-31.1817,-722.5874,73.9359,-21.7000,130.3040,-69.8556,2.4833,-105.9984,46.7879,-127.1975,-166.2072,-116.6990,-176.5435
67.2994,-64.7507,9.4629,-82.9040,-111.9025,-110.0880,-84.6874,-719.6240,-10.5721,-49.9685,112.4309,-39.0019,-30.2407,-142.8561,-14.5711,-106.3431,-183.2397,-145.1967,-165.8958
11.5908,8.5934,68.5743,-113.5838,-78.2202,-167.3702,-56.2114,-680.4416,-37.5798,-27.1005,90.4534,-44.8220,-43.4547,-188.5588,-44.9929,-87.2273,-121.7006,-137.7024,-95.1069
