Fp1,Fp2,F3,F4,C3,C4,P3,P4,O1,O2,F7,F8,T7,T8,P7,P8,Fz,Cz,Pz
-87.3384,-363.2147,-182.2093,-360.2184,-133.0768,-288.3323,-28.9984,-131.3708,-118.8999,-181.1163,-138.2473,-243.0864,-64.7359,-189.1828,-81.3609,-159.5625,-352.9780,-232.3898,13.4533
-33.8946,-270.0622,-105.1689,-272.9770,-49.8305,-212.4176,55.9928,-46.0678,-75.0215,-111.4846,-67.9749,-122.3493,1.1915,-121.0929,-71.7073,-128.4518,-347.5772,-164.0335,84.6416
32.5858,-156.8062,-7.9612,-189.5177,34.1830,-156.9812,120.3519,-33.9340,-2.5363,-86.2400,-4.4672,-48.6005,62.4850,-96.6249,-51.0359,-126.5054,-240.8985,-101.6653,93.7137
71.1434,-82.5351,36.3932,-167.5556,45.9602,-179.8317,101.0272,-95.9169,15.2737,-155.8004,13.7390,-81.6699,65.2650,-132.6597,-55.8642,-155.4879,-198.9975,-99.4108,40.7898
77.7059,-63.2172,33.7952,-169.4338,25.6430,-208.4354,61.0968,-125.8483,-22.5549,-219.8256,12.3503,-115.6516,47.9222,-156.6264,-83.7481,-178.7052,-265.8519,-124.1006,-3.4017
66.8431,-72.0645,19.6082,-162.6112,12.8225,-199.9661,51.4165,-113.6874,-37.3479,-211.8146,-0.6736,-98.1190,38.4345,-137.1745,-103.2024,-189.6060,-306.8621,-157.2560,-38.3766
46.9313,-70.2714,-3.6804,-144.8228,-13.9541,-195.5112,29.2816,-126.9282,-36.1362,-212.3516,-26.6214,-94.5027,8.7274,-133.8740,-117.6454,-211.9527,-279.7366,-198.3994,-80.3648
25.7854,-64.5161,-27.1618,-90.8524,-39.3329,-177.7161,-25.9019,-162.0546,-86.8203,-281.9893,-33.8586,-108.3735,-27.6390,-162.5654,-124.1086,-236.3043,-244.1842,-195.7691,-98.7276
15.0964,-81.7513,-23.2990,-2.6583,-21.9061,-99.9370,-65.5017,-170.4601,-153.3730,-351.2010,-7.4934,-76.3055,-20.1860,-147.2628,-87.5857,-220.9473,-206.7606,-128.8796,-97.0006
32.7881,-65.3108,22.7037,69.2683,27.2910,-9.8018,-61.3843,-145.7873,-147.9787,-341.1942,43.2149,-11.4188,24.9101,-75.8741,-20.5666,-165.1267,-154.0387,-52.5423,-101.3462
79.5399,50.2591,97.3835,115.8190,78.9191,35.5463,-29.9677,-105.2787,-84.0182,-264.2272,109.9839,34.2145,65.2588,-40.0808,31.2492,-119.3641,-104.8876,10.3917,-82.6670
109.9724,180.8641,149.2368,168.4035,114.6986,64.3021,17.3068,-58.4149,-19.1461,-171.2984,144.4435,79.0706,87.5608,-52.4673,78.0982,-97.5063,-68.5464,73.7375,-29.7724
94.4843,220.6221,141.0110,216.8331,112.9823,99.9278,65.4529,-15.1058,38.0147,-93.0763,108.1890,153.2675,96.3133,-17.5400,128.1286,-52.1741,-49.2279,115.6781,-2.1226
75.3142,216.6548,112.8997,227.9834,85.0097,115.8331,74.7684,17.7620,61.0260,-49.7292,66.8623,211.3006,91.0342,67.1262,123.7041,20.9958,-61.5194,122.5958,-20.6969
73.6834,230.9439,100.8991,206.5238,64.3687,113.2397,40.5875,45.6084,17.2841,-44.4994,70.0426,200.8334,69.7956,98.6327,58.6893,56.2527,-98.7708,118.8350,-31.0266
44.5038,245.4168,71.7263,188.0729,46.6119,126.7540,33.4514,79.6264,-18.3184,-37.4831,52.5954,157.4848,39.6132,72.5139,26.5665,43.2223,-127.1766,117.9674,0.8095
-3.1694,278.2231,31.2041,197.2001,28.1413,154.1157,100.1889,116.5821,32.1723,-0.0577,2.5934,147.5220,29.2987,77.2894,66.4904,48.9056,-120.0986,127.8808,52.9731
-5.9431,328.1177,33.4072,209.7606,34.4101,156.1770,173.3859,134.4898,85.1228,19.9737,0.9695,159.0130,55.7110,112.0957,106.0648,80.4033,-100.1886,148.5887,86.8481
14.1220,306.9463,47.6949,182.2808,46.0466,124.2658,172.7020,133.6505,49.3729,-17.5324,24.5939,139.8775,76.0857,110.1258,89.9032,76.5823,-122.8548,139.7454,78.6688
-6.8920,236.3944,12.1208,136.3736,15.7145,96.2856,123.1426,142.4038,-5.5993,-52.9414,-17.5086,99.1266,41.8106,79.3653,36.4177,39.3519,-181.9745,86.0567,40.4178
-48.9658,232.6218,-42.5947,126.5071,-42.9545,89.4293,75.2387,148.4571,-20.1805,-30.7203,-93.4460,66.5995,-26.3153,65.9375,-22.4767,27.5786,-210.8669,39.2188,4.3899
-71.5975,253.2921,-72.8765,134.6621,-87.1519,78.2159,24.6580,117.0209,-50.4990,7.4685,-126.5219,19.7698,-78.3131,68.1699,-61.7224,51.9276,-199.7665,27.3092,-11.4429
-87.1170,217.4282,-90.2284,115.5225,-106.2479,61.7003,-11.4561,84.3567,-93.7373,24.3270,-130.6589,-48.6867,-97.5828,74.7637,-58.4918,77.8217,-192.2003,23.3822,-6.3839
-109.5955,185.2499,-110.9174,76.9077,-118.8302,52.0779,0.1400,89.8040,-85.3771,36.8917,-143.8336,-91.2508,-101.1461,84.8368,-29.0245,74.6870,-205.8236,-7.4008,-3.6838
-142.1592,151.1037,-159.4662,29.5287,-161.7930,11.5613,10.9514,78.0323,-67.9222,40.7274,-173.2890,-96.7746,-121.3882,75.7753,-21.3020,35.9679,-252.2006,-87.9992,-30.2506
-170.7490,72.4021,-218.1079,-11.4664,-214.8662,-52.8179,-13.5494,36.1018,-90.4595,45.7223,-193.4271,-90.8588,-149.2052,51.2060,-31.1655,13.0668,-307.5486,-154.8416,-41.0233
-135.1813,115.7626,-168.7004,21.0198,-168.9897,-27.6000,11.9818,64.8031,-71.2974,110.3868,-132.7284,-48.9582,-110.5331,67.0192,6.2828,68.2765,-274.9225,-73.0516,30.2887
-35.5633,332.6118,-2.1557,130.9569,-19.2472,108.1571,113.3579,165.1660,15.7026,197.8876,6.7293,47.2645,3.6192,128.8517,96.8022,155.3468,-155.5186,122.2968,122.1139
16.6891,414.3829,88.5241,206.4736,74.5939,210.3877,167.7960,202.5899,47.8376,178.9518,91.4474,136.7191,84.6606,169.2830,148.3654,177.6914,-90.0727,226.7390,130.7375
1.7036,270.0425,56.9395,209.0180,77.0768,223.0163,147.5348,164.8508,-7.3089,71.0335,89.3324,184.8886,98.3152,176.7142,116.9133,153.6189,-85.0592,217.9420,109.1902
39.8932,224.1981,95.4708,225.1897,136.4527,248.4620,179.3370,171.1448,-20.1911,33.2720,140.1100,248.7561,143.0384,213.6379,81.6300,162.6192,-8.2055,256.7881,164.7880
146.2411,355.3780,240.9809,288.9594,273.1975,326.8087,281.4668,240.0547,75.1629,105.8506,270.9500,361.4238,238.3614,292.0921,100.2456,199.3379,116.4164,349.7348,262.8101
213.7042,422.9000,336.7012,363.5392,362.1305,404.9155,337.9339,302.3241,202.1889,193.2071,354.8258,475.0453,292.2803,361.0160,119.5965,223.1034,173.1850,393.7110,316.5294
233.2326,431.8442,366.2003,440.7916,386.7340,461.6648,322.9335,336.7292,276.1703,240.8656,366.9293,537.7974,284.8249,393.9493,98.3421,232.1216,191.6769,402.7325,324.1491
262.2782,513.7691,404.9166,495.3795,399.1133,476.3383,293.8762,335.1819,288.4915,242.2369,371.5752,535.7354,260.8093,392.5683,75.7753,212.3853,225.0496,396.9877,316.7489
282.7960,548.2559,417.5164,475.1476,383.1745,420.5908,259.4321,295.4936,292.1797,193.9333,359.8568,487.9310,223.4627,367.3962,72.6507,160.9328,234.9699,333.3453,313.1828
273.8096,462.7177,383.8423,411.5099,344.9398,350.7700,227.2714,275.2048,328.2664,148.3012,325.4915,443.5714,186.4251,358.2211,60.3409,144.9095,234.8365,264.3203,325.7668
265.1259,437.1635,366.6937,382.7502,328.8923,330.4256,232.4724,293.6967,355.4092,167.2976,319.1914,427.2173,185.4091,374.8107,42.3035,185.7293,271.2640,266.7427,327.9544
257.6453,518.2879,366.4838,378.0714,316.8735,310.8948,248.5427,278.5607,315.9778,211.9496,331.7631,388.7477,192.7495,339.6256,54.3699,185.5386,294.9784,276.0354,291.1721
234.6242,520.1014,344.4088,328.9616,286.8398,238.5763,226.4734,211.4525,246.8329,216.5594,311.3006,276.8648,174.5067,214.9703,98.2200,104.7999,257.7988,229.2859,247.3033
212.1520,390.6857,319.7948,235.5679,271.0569,161.7140,197.2814,158.3156,226.8255,216.7831,274.9892,143.4534,170.7186,105.8136,146.5108,54.0566,201.6166,190.2909,223.0777
201.9091,294.3646,311.7710,177.6380,271.5179,139.3769,201.2997,137.3260,258.0163,268.0277,265.3783,94.7150,198.6462,102.2809,181.3322,97.9109,172.7809,204.9501,196.1875
197.8642,326.3769,307.8746,198.9683,256.6543,155.6458,195.9948,121.9989,272.0681,314.3988,270.0023,137.4534,201.5316,143.8491,195.4666,148.2724,182.0348,225.3589,162.0901
194.4218,380.5727,298.2006,229.5720,224.9356,159.2147,136.7032,109.7526,225.5110,274.0489,254.4422,166.3134,157.5902,152.1616,189.5931,135.5260,215.6442,205.5210,128.3250
182.3699,351.8658,275.5865,202.2720,191.6919,139.5134,66.4402,89.1208,167.3634,186.8228,225.2005,136.3354,116.4572,143.5616,172.8337,110.4686,244.4441,166.8621,82.5375
180.6185,327.1947,271.0962,188.0484,190.0169,144.9925,58.5399,56.5360,187.3450,147.3737,235.7485,130.4973,121.3700,140.8201,156.4274,119.6836,282.1055,180.5741,60.7972
224.2146,408.3264,332.4949,262.4603,253.1069,199.2240,121.1207,66.5872,275.5873,160.0361,307.2130,201.1013,170.6700,140.1878,162.9382,136.4089,349.8440,265.2401,119.1987
278.1925,493.5922,409.4935,348.8462,329.8142,248.8685,194.2791,139.4841,328.1834,184.5750,368.0436,290.7360,228.8011,176.3415,210.4267,146.4019,382.8216,324.6956,196.0425
284.4042,483.2295,420.3011,369.3210,342.3755,262.3053,220.8827,197.2525,314.2590,226.3761,362.5046,357.2358,255.1756,262.9380,255.9992,167.2497,341.9849,295.4647,180.9867
273.5069,470.2715,401.6165,377.5439,318.1299,274.5573,197.9725,183.0951,293.6939,263.2022,347.1113,416.7440,244.2288,325.8043,232.8788,180.8901,320.9444,251.1971,105.8214
292.7548,510.1894,415.2851,417.4759,318.8220,289.8618,166.0916,133.2954,294.4169,228.6012,371.6186,460.5156,224.8692,324.1197,179.8097,160.7952,379.2280,248.8742,86.8947
321.0941,523.0750,445.1455,454.9324,341.6754,284.9602,164.4577,94.2864,314.0103,151.7145,397.9024,471.4869,227.9176,316.0444,205.4305,130.1184,447.3302,251.5407,124.1530
340.7498,502.9666,479.2470,471.8144,371.9548,277.5922,185.3058,63.1507,344.9026,124.8103,402.5999,464.7279,260.3122,317.7592,292.6480,105.3103,468.9974,241.9993,111.1367
353.2624,497.3513,504.3146,461.2231,386.9973,261.1606,177.8184,12.3449,326.8490,125.1754,399.2457,431.3777,284.0825,269.6670,315.9837,61.1329,451.2310,224.2799,17.3079
339.9046,487.7046,475.6035,410.6052,347.3781,193.9896,131.6733,-62.6885,239.3629,84.5104,377.5168,356.9078,259.2238,181.4665,270.5080,5.9058,407.6191,181.1019,-61.5174
316.7427,489.3971,428.7673,353.6307,290.5239,109.5134,112.5001,-118.0543,195.0224,47.9680,346.3080,288.6799,223.9986,124.1450,270.2977,-18.2607,356.2856,139.6333,-60.9458
313.6257,515.5625,422.6497,306.1660,274.0386,60.3760,146.8663,-120.3866,251.0726,60.8351,332.8433,253.2955,232.1187,94.3464,326.4207,-19.6511,290.9843,126.9537,-52.5268
287.2807,469.3060,386.4391,224.4344,237.8761,10.0139,154.9476,-116.7443,293.0606,59.6321,308.6101,199.9300,237.6620,51.8202,345.2598,-27.0456,192.6804,89.6429,-111.5101
224.7471,349.5577,289.9653,135.2903,147.0987,-56.2538,86.5767,-162.9465,254.7112,13.8854,265.1807,124.4373,191.6175,17.0868,305.7005,-21.4505,126.7158,26.7044,-189.9666
215.4003,303.7176,264.2488,120.7088,114.4396,-74.6244,15.2310,-227.6511,206.7099,-22.2496,271.8584,94.4222,162.0219,10.9493,252.1598,5.2248,167.0474,31.7528,-222.1255
267.6103,322.1805,327.0023,151.4072,172.7874,-48.7283,7.1143,-253.4185,170.1976,-37.4547,320.9265,118.1988,193.7971,10.0152,195.5385,10.0158,242.4496,86.8904,-225.1655
275.5470,287.9229,329.3463,158.9897,190.3791,-44.7687,13.1035,-239.4310,111.2113,-55.5848,305.2457,154.7507,196.4520,19.5918,145.9137,-21.6396,253.6369,68.1711,-217.3275
238.7754,275.2953,269.7387,180.8757,131.3208,-51.7236,-28.5131,-205.5609,76.0497,-52.8291,226.8797,211.1859,116.1861,65.6675,131.0474,-47.4619,236.1106,-14.8581,-183.4534
248.9032,390.7650,276.6916,258.3745,101.9345,-20.4811,-84.4244,-154.7315,104.3029,-9.2522,200.1955,300.1245,45.5612,125.5045,132.1819,-29.1908,258.5480,-33.2942,-152.4958
287.9324,542.4586,333.6038,354.6700,127.2400,48.3336,-101.3391,-97.9449,119.4082,48.6450,243.8882,385.9882,53.3249,167.6681,110.0732,35.3205,306.7865,49.2855,-171.6609
279.7570,613.8561,342.0836,432.5670,140.3339,132.1947,-108.5174,-62.2772,53.0443,87.2447,273.9944,431.0335,74.7472,190.4440,73.6937,100.4523,336.2583,148.1331,-212.8089
245.4087,577.6744,314.6605,455.6237,138.0007,189.2354,-145.0019,-68.8397,-41.2662,72.0622,262.3761,417.1429,53.9863,174.7240,48.3608,90.1629,339.8530,178.6256,-204.3645
247.5811,445.0491,316.2360,393.6654,171.0180,174.9585,-155.9375,-112.2196,-69.0440,-1.4321,259.5404,355.7271,46.5317,114.6217,36.0865,-4.5519,353.2645,135.2993,-141.6615
287.0512,336.9193,356.7518,319.1946,233.4437,131.2355,-103.7076,-155.5174,-26.2757,-61.4824,294.2627,316.6336,92.5161,78.1227,27.6924,-91.0142,393.9368,80.6352,-107.7717
321.6716,393.4300,396.9870,330.1577,256.5242,135.5118,-91.7294,-166.9620,-17.8492,-51.6822,327.9928,349.4594,114.4678,106.2646,1.0397,-96.9611,419.3004,67.5170,-157.8471
321.7960,531.4474,395.1121,389.6540,213.0600,168.8062,-189.9076,-159.1170,-109.1137,-15.4770,321.6640,390.5531,54.7460,124.2261,-54.7006,-53.5619,414.8224,98.2170,-221.0094
298.2041,577.6959,364.3625,410.4081,170.5284,175.3671,-273.7122,-163.6379,-201.9022,-4.3568,304.7416,363.1290,-3.5961,65.4287,-100.1230,-32.8843,416.6478,147.1785,-214.5909
280.6397,532.2216,349.8601,382.1386,180.0216,162.3250,-243.0918,-188.5200,-190.5074,-22.7706,311.7472,295.9840,15.3528,-25.0925,-102.2057,-70.0999,399.7561,167.4457,-197.7212
270.6446,465.7137,343.2824,319.9840,192.2127,142.5954,-199.8669,-217.2275,-146.4413,-73.7168,306.7900,245.6373,51.5852,-80.3405,-89.9045,-128.6059,341.1244,135.5350,-249.9773
259.9930,394.5237,324.5248,255.1434,173.6479,113.7383,-225.2262,-224.5372,-160.0325,-112.1936,270.0043,213.4616,51.4050,-84.9567,-91.1067,-121.9867,307.8290,117.6598,-305.8538
264.8980,362.3796,326.9045,256.4983,172.7621,107.7319,-235.9028,-200.1093,-163.0047,-50.3296,259.5275,198.8986,62.7250,-46.5203,-94.9070,-32.7142,254.0562,167.2293,-287.7280
281.8844,393.7721,350.5029,306.2369,196.2848,133.4765,-183.7477,-165.7439,-95.3325,71.7254,290.3227,212.0549,100.6283,1.9486,-97.5977,35.0158,17.5584,205.1221,-243.7537
271.2216,406.9841,333.4901,290.9885,185.0559,139.1275,-139.9863,-138.8724,-27.2780,122.9126,286.6903,222.9422,106.0177,11.6855,-101.0790,16.4664,-309.8377,160.6167,-226.3610
222.1940,356.9978,266.9583,216.4060,130.6600,117.6473,-140.4179,-96.0756,10.6337,134.1185,219.2543,210.7728,66.7651,1.6089,-94.7871,4.4552,-445.8610,106.9899,-214.3085
165.5397,324.7531,201.7717,210.6070,74.1641,128.9264,-148.2692,-19.6253,68.5383,227.5405,150.3944,218.6025,24.2092,43.7671,-87.2399,89.6899,-374.1349,120.4207,-191.2568
120.7790,354.2523,156.7266,274.9768,34.9555,179.7623,-140.5396,54.0803,114.7443,336.5779,120.7356,256.1226,-5.6397,130.8157,-93.0271,197.8878,-290.9330,158.5729,-157.9408
83.2110,362.7563,117.9698,283.5210,14.5080,211.7103,-125.2505,85.0499,80.1729,324.4141,100.4221,250.7824,-27.6405,181.0073,-101.2225,215.0293,-261.9448,153.6123,-118.1950
45.9697,298.4286,76.7183,224.8920,-1.8157,209.2559,-129.5286,93.8001,12.0415,267.7667,57.6272,194.8716,-51.7920,181.5881,-116.2811,176.6086,-252.0609,109.8008,-104.8189
15.5114,250.5146,37.3619,201.5543,-36.3140,209.3020,-173.3771,119.6809,-20.8415,309.6293,11.0320,184.0835,-90.4766,189.6458,-158.4312,196.2873,-235.9969,91.7813,-126.0736
6.3080,290.5912,21.2658,223.4738,-68.0819,221.6237,-222.0205,141.6348,-50.2426,394.0809,-5.0906,226.2666,-121.0056,209.4082,-196.0874,272.6592,-179.7495,139.5022,-141.8584
11.5855,337.6959,34.4476,225.0242,-63.3218,230.1242,-228.5927,116.7755,-96.3966,404.2440,-0.9730,224.4794,-110.5363,206.7753,-178.5937,312.7436,-112.2036,201.9802,-152.0531
8.6453,331.8851,48.8684,222.7865,-41.5416,245.9008,-203.8591,82.5421,-108.9583,370.6327,-8.9634,190.0843,-80.3158,202.3027,-122.4544,306.6382,-88.3115,227.1627,-175.8344
-1.1823,342.5120,50.2811,251.9072,-31.6385,278.1423,-177.1496,105.7604,-93.4403,355.6733,-23.3717,208.8181,-63.7516,220.4751,-80.8853,319.2635,-55.2448,255.3210,-177.5614
-4.4806,363.6998,50.4271,255.8435,-23.1030,294.9243,-157.2484,151.2017,-107.0789,329.5312,-22.4056,231.6517,-48.5231,217.3507,-70.8707,345.0028,17.8885,309.5655,-154.8130
1.2578,318.0990,62.9512,222.3700,2.9335,289.1240,-147.7506,151.8469,-126.3470,277.9644,-2.2226,186.0028,-15.0297,169.7895,-72.3705,335.8392,62.0362,344.6073,-165.1794
21.2081,291.9970,100.2328,245.8698,46.3173,305.3857,-133.6384,145.6126,-102.6711,249.4615,38.7820,156.4779,28.7840,134.9602,-59.4036,317.5337,96.9322,371.3421,-194.5703
33.3531,359.9081,127.0046,318.5603,71.0139,342.8871,-104.3398,177.6600,-82.9638,247.1838,72.7820,201.7844,55.8053,139.9986,-25.4087,330.9059,167.7141,420.9695,-186.2941
-7.2420,372.7716,81.7635,330.2502,40.8943,359.4653,-88.6814,203.2651,-106.4297,239.1624,53.7792,236.0479,45.7584,145.5912,18.2062,351.3619,188.8492,446.3531,-154.3987
-58.6315,317.1762,28.2953,324.0183,16.0058,386.1165,-74.6875,223.3000,-104.3198,258.3943,29.5276,248.0909,34.5097,159.5319,66.5496,367.3887,171.1541,452.1802,-110.5460
-34.3014,409.0393,79.9502,412.2426,71.5703,463.8401,-9.9568,301.7640,-40.4103,337.0691,79.8029,316.3461,67.1207,226.3261,100.6616,405.7438,255.3618,506.9254,-34.9065
11.4795,574.7508,146.4323,506.8577,120.0009,517.7152,48.5663,384.0800,10.4136,404.0135,126.3335,383.7467,82.5717,302.4512,79.2218,437.6953,373.1968,540.3210,23.5828
-28.0885,524.9786,79.2304,479.1029,52.4698,473.6486,8.0651,359.2969,15.8987,390.1479,57.7571,347.5844,8.7785,304.4555,20.1901,410.8109,359.2373,449.3247,18.5857
-96.0692,350.5011,-29.3153,400.6761,-41.9769,387.2027,-56.7023,275.9771,38.3715,348.3560,-35.2626,263.5597,-73.7786,249.3698,-2.7217,359.1160,289.1942,331.3428,6.4596
-94.7526,329.4777,-36.2658,368.6783,-51.6439,335.4419,-35.1017,256.4379,96.3458,357.8077,-20.4015,220.5387,-68.1390,220.4065,13.3057,353.7457,286.7597,307.4581,27.3417
-60.6716,415.1901,9.1221,364.8514,-17.9976,331.8551,27.3433,305.2631,147.3016,408.6133,59.3238,219.2997,-19.8143,252.5408,22.9190,396.1759,323.1322,334.3088,54.7154
-36.1398,445.8917,45.5243,378.9463,17.9701,358.3584,65.8044,349.2910,182.5109,441.2088,112.0748,253.2337,14.2548,312.1017,39.8912,429.0644,380.3659,351.2827,84.0324
-11.6326,401.1880,70.6378,382.7417,46.6444,344.3993,81.2617,325.0285,195.9573,406.7096,102.2189,276.7207,31.9667,321.6349,57.4419,395.0270,416.2316,326.6589,87.5432
-33.6299,271.0335,14.3407,291.6335,-4.2514,232.3609,47.1423,220.4048,148.8818,299.0891,15.0988,199.7991,-0.9675,233.8170,12.6419,294.0522,326.9015,214.9126,12.3358
-107.7382,141.4314,-102.7657,163.8827,-106.4282,122.2244,-5.6073,136.6137,68.6196,196.7038,-66.0711,82.2569,-62.4215,132.6474,-41.8566,211.6493,214.4713,97.5372,-64.7980
-122.0093,181.3641,-108.3471,149.3681,-102.4025,126.1366,36.9764,171.3430,42.3350,180.9980,-29.8554,68.6808,-42.5645,139.1910,19.5003,208.3469,257.9036,103.1067,-26.6400
-61.6205,259.4465,-13.5570,179.1314,-10.9450,145.4139,133.8951,228.8210,56.6303,189.1528,20.2528,93.2549,33.6586,206.0084,134.2778,210.9983,329.6715,133.4113,53.2069
-39.0743,134.1656,4.5484,103.1890,14.5401,73.0460,140.7553,181.9187,20.0515,115.4782,-58.7890,3.2736,40.8128,204.4601,136.8377,146.5406,282.1831,54.6902,48.9038
-48.0070,-3.5872,-14.7828,21.0883,12.8993,21.9593,108.4407,112.2990,-47.8290,22.7596,-118.5280,-127.8266,20.9658,164.5695,56.0673,82.5113,283.5650,-11.0298,12.9913
-11.0918,103.4171,51.7418,63.6131,73.8658,77.3555,140.8816,126.7528,-51.7573,25.4678,-3.2762,-157.3250,59.8999,184.0910,32.8363,82.4205,400.6370,26.4319,28.1105
6.0103,220.0466,80.3126,109.6509,78.2615,111.0553,135.2761,150.2459,-10.6177,64.5844,98.6043,-130.8111,55.5673,218.2928,57.0658,83.2118,400.6445,8.0100,42.7159
-70.9976,95.6908,-45.8297,55.7191,-48.4561,56.4758,23.5911,118.4268,0.1621,45.5429,11.3261,-129.7730,-61.3930,198.3168,28.3449,47.9160,236.1775,-121.0829,19.8618
-151.6361,-65.2577,-168.0993,19.0044,-138.7854,42.9775,-35.3011,110.2727,23.1203,34.9032,-96.3916,-121.4097,-149.0317,181.2732,-48.9934,38.2812,130.9138,-184.0916,35.3565
-141.9520,-67.6671,-139.4511,67.4375,-73.9762,127.0715,51.1730,162.2439,123.6752,96.8268,-50.6383,-86.1378,-105.9942,204.9680,-91.6682,57.5218,151.6064,-122.7223,123.1763
-78.9228,-26.4014,-36.6304,108.3498,43.7781,196.4468,150.3145,199.2477,222.4152,146.8332,54.2199,-60.2594,-15.0064,210.2970,-70.4974,39.8056,182.9537,-65.1081,181.3997
-27.9545,-7.6718,31.4491,115.6398,91.9272,194.6860,139.4792,185.6647,215.8065,131.2394,93.6571,-39.2564,25.5316,192.7257,-30.3636,8.8085,197.2519,-60.5483,124.6430
-6.0192,60.6175,54.4667,150.5289,73.0760,188.6472,58.8640,161.9429,143.6979,120.0536,95.4210,2.8855,9.0747,208.6614,-4.5055,35.2799,242.6246,-45.8322,37.4519
2.4710,128.0331,66.2494,186.4538,65.7448,207.3521,21.4628,156.0530,87.8026,138.9588,122.3231,50.1402,-1.3680,242.3195,30.9175,81.9535,310.0978,-2.6383,47.0861
16.2515,90.8992,85.6953,160.4001,106.7639,204.6443,64.4235,160.6852,42.1813,126.9892,165.2836,71.7506,44.3920,244.0762,81.9787,70.1237,337.4041,17.4825,107.7006
13.6116,19.4159,77.7661,123.8392,120.8702,174.4438,94.8477,160.8749,-10.6697,74.3671,168.3127,65.1670,78.0820,218.2119,92.2807,19.2879,294.6428,-15.6784,95.1786
-24.5282,59.8256,23.9884,170.4790,53.8300,170.7005,42.5700,152.7611,-24.7056,41.9863,124.7955,70.4899,19.1073,188.3980,54.4487,-3.5977,256.4115,-51.7345,32.2101
-31.8025,205.9179,18.4054,280.3828,10.4149,209.4308,-7.7727,149.4973,40.4407,72.9802,117.0174,130.4740,-39.7633,183.7827,59.0820,18.9134,313.9700,-26.1025,9.4012
31.4286,299.5505,105.0991,337.4594,61.9332,231.9356,11.2355,154.9618,147.9731,152.5931,170.9958,198.3642,-1.5477,221.6831,131.8064,65.6004,400.9691,25.7485,15.6736
58.6307,231.7140,131.5876,273.8617,79.4368,187.0129,16.7093,147.3368,211.0765,213.0196,167.9003,173.9115,24.0804,230.8980,158.7299,101.2694,377.0064,22.6420,15.5100
-16.9937,88.5254,15.9595,153.8078,-12.4767,110.8571,-31.4810,118.3707,194.2929,201.5642,54.5270,71.4844,-50.4923,144.8825,81.4483,93.5173,272.6183,-19.9569,24.3180
-77.4321,45.7830,-65.4043,96.5501,-69.9027,83.5184,-39.7809,97.1014,174.4436,162.8419,-28.6557,5.9786,-104.6721,57.2408,18.2220,59.5537,245.3269,-28.1306,42.9020
-42.0029,124.0058,-1.1227,121.4841,-8.6629,112.3489,29.4703,105.1552,228.4014,165.8945,12.4962,2.4054,-55.4025,63.2389,73.8708,50.7484,328.9266,11.0487,71.7999
-3.9551,160.5066,64.1311,136.7309,57.0768,126.6714,104.3169,120.8713,299.9264,188.3393,81.8093,-5.0787,12.9523,80.0250,166.2405,72.3918,411.6985,61.3803,126.4312
-13.8451,72.4952,46.9687,99.8590,67.4130,104.6908,136.5027,118.8715,302.6696,187.2599,101.4134,-16.4072,47.2145,46.0631,172.1211,87.1888,431.9487,93.0615,163.1337
4.3575,-2.5478,59.7857,76.6724,94.9502,104.7131,135.0590,116.7351,267.0042,182.6635,119.4088,17.0330,76.7733,52.5147,122.8271,89.3688,444.3054,101.8183,144.9864
55.5186,53.1481,126.2000,110.2642,142.4908,146.1879,123.4868,140.4135,252.5439,176.5141,156.6697,74.3814,97.1613,121.5589,116.5305,106.4443,487.3129,120.1580,132.9128
58.1387,130.3252,138.1039,166.4456,142.1730,186.4019,114.4264,173.4237,249.9919,138.6835,169.6996,103.8216,93.3683,157.4743,156.3353,142.2486,519.3536,166.2460,149.5500
24.9830,109.7941,106.9753,221.7634,117.8606,218.2110,88.4064,192.2481,246.8732,105.3664,159.9561,113.6155,86.6046,152.9225,195.1286,166.3907,521.1575,197.7945,126.2396
33.9861,91.6990,130.0817,276.5914,134.1813,256.9119,42.6436,206.4527,230.1391,120.9669,155.8442,138.8754,82.5148,163.2085,210.5970,153.2096,526.1135,192.5911,77.8560
80.1932,186.8025,186.8588,310.4442,171.9476,272.2058,30.5187,213.8270,152.5318,126.6183,149.1472,180.5707,72.6784,170.5203,177.3985,107.9599,534.9636,187.3447,86.6109
115.2731,289.0217,210.8623,315.9600,188.9695,243.6665,59.1510,185.2208,47.4769,68.4383,143.7428,213.6436,68.1594,158.7706,107.7974,54.7351,534.5420,180.4407,126.0366
130.7108,264.0059,211.3042,305.8061,186.3251,201.5653,53.7129,127.6753,31.3211,17.6508,164.0362,211.6960,67.5578,149.3448,81.4468,19.9862,541.4315,139.2684,123.1872
120.4580,169.0588,194.9654,275.2538,162.6364,174.0271,0.2521,91.8111,93.4166,61.4309,186.6220,173.3743,55.3804,130.0783,106.6747,34.9634,529.8137,107.8666,89.9417
81.7671,143.2119,157.4072,256.5372,127.7663,192.2373,-27.3982,119.8632,116.4885,185.6745,176.7289,144.2041,41.8937,124.7586,99.9486,112.8216,467.7927,147.2377,68.6701
58.0184,217.2333,152.6953,310.7699,130.3129,278.4933,-4.0683,217.3049,112.8486,316.4149,158.7379,165.2018,41.8454,199.2713,71.3288,207.4543,433.6271,216.5312,82.1662
73.3223,288.1374,193.8315,375.8014,167.8548,349.4974,31.3776,320.3659,173.2225,383.7352,156.5255,200.2426,47.4521,289.1468,99.5741,250.2195,481.4835,240.6581,135.8361
84.1929,238.2360,198.8817,324.4874,174.2812,298.4806,65.3376,325.5399,265.8598,363.5944,145.0918,181.1541,58.1301,269.2395,149.4182,231.4487,503.7183,211.9389,179.5563
64.1072,89.0423,148.6657,200.9452,144.0848,185.1047,103.7429,235.4162,319.4488,307.4993,110.1861,109.4230,79.2293,189.4977,154.3732,190.4817,430.9897,154.7639,158.4771
37.4192,-17.7190,106.9214,137.1448,116.5368,130.5880,124.1526,169.5220,354.6251,271.7426,59.0971,49.4344,83.3084,170.2650,149.6539,155.5938,352.7780,84.6597,102.1259
14.8347,-8.3797,75.0148,119.6361,72.1995,118.5305,103.3181,168.9040,389.6688,234.8511,-6.0752,46.5795,39.9178,191.2360,154.6932,137.8089,325.2753,25.5215,61.5986
-4.4076,69.3066,30.5297,95.4992,5.3871,94.9861,68.3328,158.7880,389.8720,166.0123,-50.8395,91.6074,-20.8429,191.4233,128.7348,127.7866,311.0758,-5.8065,42.8391
-6.4046,140.0882,10.1506,104.9455,-22.9462,79.8553,63.9005,110.0607,351.8002,100.9452,-43.9272,134.8699,-45.3746,173.0517,88.0247,90.6599,295.3068,-23.9929,40.4073
-3.9511,135.9451,11.3877,133.0923,-14.4558,69.9698,65.9955,55.5790,301.1571,76.9752,-45.1172,129.6542,-45.1697,124.0576,69.3382,26.6001,274.4017,-44.0820,29.6601
-22.7712,54.7368,-9.4494,114.9825,-27.3604,50.5348,20.0767,13.5399,255.4201,91.5401,-98.8109,87.9182,-65.0093,49.5658,61.3744,-8.5547,247.9952,-51.1798,-9.5209
-38.5421,13.3409,-17.2262,112.0832,-33.6992,72.7439,-32.5749,15.6779,245.0179,144.6291,-118.1367,65.9193,-90.0663,23.8047,70.5573,2.7590,266.9270,-31.8138,-14.7453
-24.5266,71.3157,19.1935,180.9769,3.5878,133.9829,-22.0374,73.3376,267.3333,212.4152,-58.0220,83.2369,-89.4892,58.9705,87.7924,10.4145,332.3990,-14.0540,56.3334
-11.3963,110.2538,31.2388,216.7111,21.0880,146.8110,-0.1013,104.8885,249.9367,227.5821,-26.2486,108.6053,-93.1122,79.8888,44.2377,-5.5263,358.2761,-26.7069,112.7861
-15.1806,61.9483,5.0303,173.6120,2.9868,123.9700,-30.4553,66.8984,166.0359,187.8221,-60.5057,120.7943,-111.2936,76.9114,-43.9901,-3.6229,343.2863,-27.8689,98.1411
4.4808,25.5657,28.9257,158.4403,34.0724,149.1058,-55.9712,46.5469,86.2271,176.3389,-46.7291,127.3904,-87.2212,91.0889,-86.0017,37.8499,362.9990,39.3296,87.3182
61.9022,53.2159,108.6483,185.6624,112.9837,187.3451,-37.2538,84.6425,52.8302,212.9620,44.4419,142.0139,-18.2777,107.4599,-105.8382,85.2364,393.0601,128.4391,104.9012
118.6499,99.6671,168.8113,181.1069,159.8776,176.0403,-10.3989,117.3984,42.7957,240.3801,116.9301,178.0202,34.0039,126.4674,-138.1214,109.6567,382.6209,156.0899,103.3879
147.6016,158.4603,203.7407,181.7214,183.5681,171.2030,42.2134,146.5275,53.4686,257.4867,143.4153,233.0253,74.8505,196.5727,-85.4344,134.6449,379.9770,153.0122,109.0590
141.0510,200.5418,218.8358,217.1654,207.1514,205.7028,122.0389,201.4777,80.3497,281.2146,146.3088,271.1137,124.7135,272.0202,40.8391,175.4046,396.8566,181.3701,135.5850
88.6199,148.1065,156.4935,192.0244,164.5639,197.7701,126.8421,194.8752,70.9246,248.0872,86.7125,260.5229,116.4251,230.9682,59.1814,169.1331,349.1639,184.0841,98.1398
16.1663,65.4955,38.2465,105.7200,55.5395,124.7148,55.0044,84.4749,21.0686,144.3239,-22.0852,225.7077,36.0589,94.0724,-26.8885,80.2542,240.2461,112.6342,-1.9647
-7.4682,111.5459,-1.9169,96.3657,4.5783,86.9000,41.9546,13.0807,15.5064,99.4416,-58.4813,225.0250,-3.4755,30.0865,-30.1613,18.9395,194.1811,68.8885,-38.0369
35.5657,256.0207,69.3026,173.6672,49.3543,132.6621,88.5208,66.6574,86.9492,185.0631,5.6425,274.0786,30.1964,104.7653,47.7976,81.9986,254.9244,124.1835,14.2582
67.9235,316.2508,117.6284,213.0796,75.2244,183.4526,77.5725,130.8290,151.4991,293.7877,37.6315,319.6838,35.1906,199.0122,56.4524,185.8618,312.6922,181.9144,48.3891
28.9336,235.9160,56.7698,188.4427,17.5815,178.2248,12.2391,132.4545,140.5726,329.6434,-32.1566,312.3221,-17.1444,219.8082,-11.9970,242.6023,273.7501,177.1956,20.0247
-28.6573,128.3167,-22.2831,170.5402,-43.8568,173.9784,-42.5646,153.4327,91.3976,331.9142,-101.4867,280.4267,-53.7132,229.3353,-65.9200,304.4450,205.5848,188.0312,-10.8297
-28.2197,115.7342,-7.8814,196.0323,-25.2582,238.9442,-74.6063,231.8453,67.6035,353.6447,-74.4207,286.4447,-47.9021,295.3020,-65.9296,384.0960,227.2249,250.6805,14.7929
7.4091,205.2574,61.7146,257.4234,43.5406,327.5766,-47.0915,301.5558,71.2716,378.0471,-2.4205,332.8409,-21.3148,365.1190,-19.4708,398.0785,304.1359,296.7266,90.4071
7.7125,276.7062,73.5338,300.3086,72.7483,350.3737,41.0670,331.9462,66.9685,371.5959,10.4498,364.9700,6.8140,372.0410,14.0944,354.4482,298.2567,293.7084,146.9738
-32.6128,233.5123,8.5498,246.7164,26.8835,302.3830,66.1296,333.9417,38.7802,330.5964,-51.7417,341.1441,-5.4843,333.1321,-31.1658,328.3454,197.4061,256.8742,127.7002
-66.9805,146.4089,-55.4465,127.8174,-41.5486,239.8730,-13.9840,297.5680,-5.1840,287.8125,-118.7267,270.6590,-66.9784,287.6663,-104.5406,308.9657,123.6669,194.2997,68.8493
-68.3251,123.5172,-61.4730,75.4516,-58.2088,200.0291,-60.1707,245.1242,-48.8733,277.3835,-127.2083,209.8192,-94.7925,249.1164,-113.1336,273.1186,137.5626,153.1144,45.4177
-48.6193,132.5718,-31.5949,117.2978,-20.9976,184.0782,-11.3231,216.0264,-71.3504,273.7723,-86.7872,200.5464,-46.3299,218.3047,-78.3629,244.8372,177.7996,166.5235,52.1452
-42.2175,104.1823,-30.0588,140.3533,-13.0974,148.6868,18.0934,159.4865,-67.2156,226.3301,-66.2899,193.1304,-12.9255,170.1203,-67.9331,199.9622,171.0192,149.1037,15.7387
-63.1515,56.6150,-80.8464,71.7417,-85.7901,45.1716,-44.6093,18.2875,-65.9942,149.1844,-106.4308,105.2470,-65.3091,79.9158,-96.7576,120.2542,113.6171,43.3349,-82.3287
-80.5569,-2.6779,-132.0315,-46.3814,-166.4205,-79.9741,-138.5007,-118.4958,-92.2874,85.3947,-162.2897,-40.6827,-134.1212,-17.3183,-155.6108,78.1181,48.2543,-38.7384,-161.5609
-75.7077,-100.6475,-136.7764,-136.2375,-166.2906,-128.0430,-177.7359,-138.4128,-120.3821,32.9735,-171.4544,-147.1562,-133.8370,-73.3116,-190.5860,93.6149,-1.3283,-13.7169,-147.4930
-74.1802,-168.9726,-119.2982,-154.1335,-117.1346,-105.2747,-129.8796,-82.1745,-106.1701,-7.3866,-138.7218,-178.5230,-82.4457,-91.9688,-125.0301,91.0495,-34.2022,32.6332,-71.1534
-82.0042,-119.9042,-111.4633,-121.0645,-95.6854,-94.9983,-33.0048,-40.5024,-38.8765,-8.2448,-107.7297,-165.2299,-40.3296,-85.9998,-9.4893,70.9655,-36.1360,33.2069,-7.8128
-82.5400,-42.1075,-116.0466,-99.4879,-108.9052,-112.3562,34.2574,-23.6639,52.2684,5.9456,-108.3827,-135.1308,-33.2172,-54.7442,28.0085,86.4601,-17.8788,20.7266,24.3542
-98.3570,-87.1126,-152.0485,-114.8725,-140.2070,-122.3917,28.3534,-22.8234,105.6576,-23.9142,-147.9637,-109.4387,-61.3665,-22.2077,-4.3293,99.6752,-39.2394,-8.2790,37.6966
-141.8091,-220.2255,-217.7675,-142.3620,-183.0796,-122.4458,-25.9672,-35.2240,70.0932,-84.0312,-188.1518,-98.5152,-103.6627,-7.2077,-24.1098,74.3497,-104.7664,-68.9181,32.9114
-160.8718,-291.0424,-246.7400,-163.1269,-195.3677,-116.1955,-66.2549,-20.7871,-17.6985,-110.2666,-172.7847,-93.2913,-117.9928,2.1091,-51.6114,57.8560,-134.1103,-98.6211,34.4031
-132.6436,-255.3311,-207.3894,-165.6736,-149.7473,-94.2687,-49.2634,31.8814,-66.9070,-92.3864,-124.4989,-98.1689,-95.7185,-3.0286,-108.4246,51.6253,-95.3480,-70.6141,67.1822
-103.3391,-179.0980,-153.7525,-137.4158,-94.6028,-68.5666,-2.7544,67.6238,-61.9608,-69.9031,-109.6658,-116.0650,-75.0779,-35.9560,-120.0126,6.2063,-39.7500,-51.7742,98.1645
-93.8776,-142.0976,-127.9986,-110.3090,-72.8758,-60.7687,15.7584,63.8420,-50.1978,-59.6962,-115.6106,-116.1139,-69.4728,-62.6344,-70.9379,-45.7516,-13.9462,-68.0457,95.3746
-95.0205,-200.3472,-133.2491,-133.5983,-74.5221,-75.4121,9.3647,49.8580,-32.2518,-39.0821,-107.0242,-101.9245,-59.0076,-67.2086,-44.5653,-47.9095,-44.5390,-84.7775,83.0207
-118.6738,-313.6121,-169.1953,-179.4399,-92.5845,-103.5540,9.9994,30.3978,-1.5673,12.7068,-116.5793,-127.0908,-50.4869,-88.1428,-52.6791,-30.2756,-120.8841,-98.4825,72.0600
-142.5240,-339.8803,-189.6348,-174.1841,-108.1872,-117.4531,11.6516,4.4951,-8.9042,70.3621,-136.1394,-172.7000,-48.1912,-120.5535,-32.6364,-25.2104,-150.4101,-98.4646,42.4194
-110.4695,-225.0429,-132.5363,-113.0313,-72.1960,-87.9523,19.4002,-3.7001,-59.1968,79.3439,-85.5276,-159.2332,-12.9698,-110.6807,12.7789,-6.3195,-68.7228,-39.8700,12.5326
-46.4815,-93.6091,-40.9916,-54.8851,1.9043,-32.3082,56.2079,-0.7491,-78.2879,28.6938,10.5593,-102.8698,53.6984,-66.2199,40.1832,23.2926,42.2185,49.6481,12.1036
-27.7023,-63.5570,-10.7930,-33.4061,34.1841,5.3527,79.5822,-16.7954,-61.0426,-34.8679,31.5546,-79.4082,78.1612,-42.0162,52.8987,20.1114,80.2839,80.3440,15.3920
-53.5497,-114.9062,-40.6471,-31.1312,9.9636,21.8412,32.7835,-36.3146,-79.1922,-75.1033,-24.6484,-71.7636,38.8230,-45.2775,61.8696,-8.4178,65.5294,53.6169,-3.8986
-71.5708,-171.8146,-63.5393,-11.1874,-6.7423,52.9226,-36.6043,-20.1968,-129.0709,-89.0385,-53.7869,-24.2162,4.4643,-45.4251,62.0942,-10.1498,63.8012,59.7578,-9.1928
-72.3532,-177.7255,-53.6579,41.6751,16.9857,114.7033,-44.6702,34.4837,-149.0775,-65.3399,-31.6754,32.5687,14.5972,-24.2455,78.0386,25.7792,89.7017,124.3304,37.0240
-72.0239,-122.7395,-26.3402,95.4151,53.7228,178.2442,-4.9291,97.5995,-140.3373,5.5977,-13.0384,35.9065,33.9739,12.7533,119.7026,61.3058,124.2767,178.7732,98.0195
-72.0079,-79.8706,-6.0063,109.3814,70.3311,204.6836,6.3061,134.5542,-136.2189,78.5683,-13.9665,-8.9477,31.5638,31.2165,125.2473,71.6635,146.4264,180.3439,106.2320
-64.3756,-121.7250,-1.0088,100.0692,73.2971,199.3326,-30.1881,138.2783,-142.4764,81.7810,-3.8921,-38.6253,26.3845,9.0023,59.8997,66.6869,153.7610,170.3634,65.0526
-37.3121,-190.4080,16.2309,118.3932,98.4793,199.2732,-55.9787,135.2006,-162.9956,14.7570,33.2701,-2.9477,48.7678,-11.0071,-3.5250,55.4649,169.6888,187.1217,44.5369
2.5899,-178.5401,55.8394,161.5804,138.2692,200.0384,-32.6092,128.1541,-185.3133,-43.0561,70.0618,65.5930,81.8288,7.2312,-0.3419,24.1941,199.9134,184.7665,56.9478
23.2905,-94.7792,76.7975,167.8921,134.1873,159.6901,-9.2611,83.0981,-171.7479,-50.1169,71.8583,78.2350,76.3441,8.1405,35.4496,-40.5639,211.8984,108.8820,27.8787
21.0348,-26.6138,66.6414,115.2446,85.0490,84.3397,-35.9252,3.9158,-136.5207,-61.3537,58.0687,26.7267,39.1833,-57.4622,62.1070,-119.6516,188.6387,8.3411,-63.8960
25.5644,-6.7419,60.8498,67.5998,54.7054,30.7974,-73.2516,-60.6173,-135.5491,-123.5566,66.1771,6.6516,27.0838,-122.4230,84.0606,-166.8698,161.7940,-29.1926,-135.4515
35.5702,-0.0841,59.4863,82.3558,50.6877,24.3594,-76.8889,-87.9257,-163.2469,-192.1430,69.2841,60.7085,34.0242,-107.1944,87.5704,-161.5995,162.5419,-13.9487,-137.0560
29.5461,25.5044,40.4903,120.7048,29.5663,34.2080,-80.2860,-92.9262,-174.4366,-211.8372,28.7409,112.6790,6.0712,-57.5352,52.3169,-145.7840,165.1371,-20.5777,-122.7135
17.8762,46.7360,20.3947,108.3064,-7.2982,13.6568,-120.2149,-107.5917,-164.9277,-203.1915,-19.9911,79.1099,-45.1914,-79.0057,12.4521,-171.7021,118.3918,-68.3630,-154.5550
12.2559,13.6094,7.9531,42.5124,-41.4911,-55.5037,-182.8809,-165.8277,-151.8902,-215.7175,-31.6740,-39.1403,-75.9452,-187.9848,-0.8662,-228.9960,27.7811,-124.9706,-228.0280
-0.4767,-47.6274,-18.5564,-16.2472,-81.0416,-129.8450,-244.6250,-242.6601,-159.6950,-253.7303,-24.8512,-158.6669,-96.4837,-295.1431,-20.2765,-269.1753,-54.7617,-165.4588,-295.5757
-19.6020,-43.9595,-51.2893,-21.8479,-116.4196,-141.0856,-284.1602,-259.5323,-217.2366,-278.5124,-34.1340,-184.0414,-125.6046,-314.4174,-72.1282,-266.1284,-110.0718,-169.5060,-315.7236
-31.4508,17.2563,-68.3065,14.9603,-130.2868,-95.7677,-287.8443,-211.7525,-271.1820,-258.7241,-61.7896,-123.4674,-150.3536,-256.7523,-125.6924,-223.0363,-134.6879,-136.7517,-286.1273
-34.2768,18.4111,-73.9945,34.5291,-128.4437,-68.9473,-266.9550,-177.7968,-215.8800,-213.7841,-76.5375,-81.3357,-160.2862,-205.3956,-147.2549,-179.4091,-99.7883,-117.6949,-230.2496
-16.5081,-59.0118,-51.9125,2.0954,-88.1664,-73.5075,-217.1264,-171.4107,-87.8444,-189.5925,-32.4429,-92.5974,-134.6083,-198.4701,-132.8667,-191.5433,-19.4147,-138.1695,-155.8046
31.6937,-108.7067,24.6468,-26.7566,21.5358,-41.0997,-116.3552,-133.3708,-30.8938,-182.3509,62.0002,-87.8427,-47.2299,-184.4147,-91.4243,-236.1430,39.1883,-131.4389,-67.2682
73.9900,-102.5151,107.7688,6.4175,140.8540,40.1028,0.0849,-63.2079,-47.3662,-141.7536,127.4277,-43.9059,61.0835,-128.4247,-41.7781,-225.0480,56.3719,-54.0308,1.1573
70.9417,-103.2830,125.6651,50.4363,179.6062,93.4117,63.8498,-13.9506,-33.0107,-56.0773,124.0085,-14.3477,111.4432,-83.4553,-4.6818,-165.6048,52.2126,14.9024,24.7771
42.5717,-105.0725,94.7684,38.2723,148.8947,87.3374,62.9452,7.2850,-4.2024,33.7547,91.8124,-17.3280,89.8908,-89.2866,12.5981,-142.9395,24.0475,7.4539,29.3267
21.1856,-71.6246,65.8227,8.6756,108.9983,73.6431,27.2393,23.3823,-34.6461,90.4886,58.8298,-22.1421,38.8667,-97.6046,8.4486,-146.1199,-10.3108,-21.4053,43.7905
-4.8010,-51.3508,27.5158,10.1400,65.6432,75.7335,-10.0286,28.6080,-82.0688,98.6748,19.1170,-11.2114,-7.2648,-72.9223,-11.6401,-118.5997,-25.4134,-23.6145,54.6063
-47.5178,-76.9694,-37.7723,9.6290,9.1414,64.4994,-17.5711,19.5970,-84.0578,67.9785,-21.4143,12.3956,-37.4413,-55.4227,-27.9015,-101.9957,-54.3231,-44.4739,44.6984
-77.7900,-85.9066,-87.7078,-8.7982,-35.5649,35.7086,-6.4064,19.8423,-69.2475,35.6148,-58.3598,30.4178,-62.4572,-61.0130,-35.6342,-129.9225,-95.2217,-98.3085,34.8589
-70.0939,-63.3571,-90.5525,-9.2574,-51.2005,0.8508,-7.3601,24.4190,-55.9046,16.5811,-89.5620,18.7424,-86.9223,-47.4240,-55.5627,-134.0760,-73.0324,-129.5467,52.1171
-48.4037,-81.1333,-82.7917,-8.2151,-50.8926,-46.1657,9.1104,-1.3874,-15.0790,-10.8900,-90.3351,-14.7017,-84.2975,-14.3394,-88.4781,-94.3185,-12.0183,-129.4001,92.2033
-45.5468,-132.0014,-91.5779,-49.3013,-40.8821,-76.8920,70.8535,-32.5794,41.1789,-33.5764,-54.3095,-38.6503,-47.8874,-5.2303,-103.0890,-73.9997,-15.4275,-124.1630,138.5624
-45.4248,-138.8295,-79.1760,-92.9601,-9.2877,-47.9796,121.5960,-4.1524,85.4935,-10.2995,-13.3623,-42.5542,-8.4964,-15.9094,-80.9650,-64.2371,-51.5532,-85.1847,177.2637
-20.9637,-130.0766,-28.5306,-84.6658,37.4571,3.0743,117.6945,52.9921,128.1166,34.6179,13.6717,-31.1589,26.7844,-19.5698,-35.1762,-17.1441,-35.6870,-0.8492,183.3887
3.9086,-183.0624,8.9691,-62.0273,69.9439,20.1817,92.1378,51.0135,156.2505,43.9756,29.4351,-13.1890,62.2781,-28.0979,11.7986,22.9826,-14.6404,62.0315,156.3790
5.5666,-243.1995,17.3152,-63.8299,88.7240,37.7641,78.9391,19.2888,144.2522,31.5568,42.9996,-5.9996,81.0480,-37.5567,45.9210,16.5902,-26.7244,79.2760,147.7703
12.8098,-216.3042,42.7202,-50.8155,118.1665,82.0995,87.0606,36.4225,130.6660,37.0581,67.4649,-11.3697,93.2731,-16.3326,60.6448,18.4852,-1.8803,101.7483,163.5086
25.4260,-158.1843,62.9867,-24.4833,122.1274,82.2421,96.0980,44.6685,142.3123,43.0733,65.2165,-29.2734,102.9526,-0.0993,45.6304,41.5298,46.1092,114.0068,118.5088
-10.5957,-176.9172,1.4982,-65.0557,39.7456,2.9116,44.3133,-31.7585,124.7929,35.1100,-26.5998,-92.4210,50.0319,-53.1800,-2.9913,23.6499,8.9490,48.3162,-1.5897
-80.2090,-242.7440,-103.4681,-164.1184,-79.4202,-84.8410,-61.3792,-108.5258,61.9327,47.7162,-149.4056,-190.8000,-59.3514,-126.9140,-57.0523,-16.1074,-92.3605,-56.2531,-84.3453
-106.3134,-261.0623,-147.4014,-209.7802,-135.0401,-130.0249,-117.4077,-104.6210,8.5833,84.7051,-186.8627,-235.9566,-111.0445,-129.7464,-83.8124,-1.5273,-142.7993,-100.3088,-94.8433
-98.7103,-234.9418,-146.7643,-190.6316,-143.2499,-150.7215,-108.5199,-90.6604,-32.5590,105.7682,-178.8016,-208.8007,-92.9435,-96.5401,-90.6961,41.7032,-137.5256,-87.8412,-119.6962
-118.5427,-217.8477,-171.6404,-195.4670,-168.3368,-155.4929,-111.0080,-109.3355,-77.6460,118.8184,-217.5014,-185.9731,-100.0131,-100.5524,-87.0061,52.5806,-137.9545,-77.3079,-156.8895
-146.6340,-203.5007,-196.2018,-210.7443,-184.6948,-130.6046,-106.6198,-86.2297,-78.8683,163.7304,-239.8119,-160.9666,-116.6964,-93.6998,-44.1225,68.8962,-138.0840,-59.5550,-122.4514
-151.6351,-169.6876,-190.2096,-161.1517,-166.4799,-83.3006,-51.3725,-8.7861,-45.5411,209.9310,-183.1248,-75.3777,-78.7902,-24.8697,47.3971,119.8179,-121.7682,-21.3583,-54.6358
-165.3450,-134.4720,-193.3378,-95.0256,-158.8186,-46.1036,-2.9963,38.0494,-65.5893,194.2245,-131.4886,-1.6170,-33.1679,29.5546,149.3356,134.9504,-124.9562,-9.2907,-54.7363
-182.8023,-108.9920,-199.3545,-98.3062,-163.5459,-47.4870,15.4875,26.9011,-113.3858,136.2670,-122.7081,-27.7482,-12.7764,20.6293,233.4551,96.7762,-151.9672,-32.0060,-97.3639
-159.6886,-97.7853,-165.5244,-135.5988,-138.1895,-73.5024,45.5535,-1.3804,-96.6533,104.7425,-89.8456,-81.9170,25.5092,19.6990,285.3057,92.4775,-155.2986,-32.9225,-105.3295
-126.6481,-136.3921,-132.8168,-146.9030,-109.5443,-85.1280,45.4450,-33.3070,-68.9076,105.8383,-42.6239,-95.5708,56.2944,40.7074,270.0459,129.8965,-136.8715,-8.4106,-96.6165
-127.5340,-216.2003,-144.5820,-149.7749,-115.8154,-90.5429,-23.8197,-75.2438,-114.7769,94.7567,-34.5644,-133.7581,29.2034,-0.6264,176.3741,112.2936,-138.6682,-18.3818,-118.5191
-124.4247,-262.4667,-153.0600,-168.6840,-124.9003,-126.7593,-89.2226,-117.7015,-171.3060,56.5941,-40.5252,-224.8745,-15.7657,-97.3674,45.3739,25.2066,-144.9058,-76.7921,-154.1935
-102.7472,-283.7632,-147.0595,-211.8689,-127.4558,-182.1361,-123.5596,-160.0343,-188.8767,12.4613,-54.6845,-301.7178,-53.5589,-157.7930,-84.5478,-48.0379,-130.8184,-144.1814,-169.2949
-114.3430,-364.4023,-186.9525,-287.9140,-163.2876,-232.4019,-177.0386,-216.6139,-232.5357,-27.3540,-120.0744,-346.3034,-111.0087,-185.2779,-191.2798,-77.3985,-137.7327,-194.3976,-168.9655
-150.9253,-458.8322,-252.2964,-351.1977,-215.8002,-286.4075,-226.0998,-282.7131,-306.7491,-82.1889,-197.6531,-387.6508,-158.1830,-242.8956,-242.7984,-104.2998,-177.6780,-221.0664,-180.0762
-158.6088,-445.9930,-270.4554,-352.4131,-240.0957,-330.0907,-235.7616,-330.0969,-336.3348,-167.5527,-219.1049,-414.6759,-167.5206,-313.7131,-234.5020,-153.5727,-198.2545,-234.5793,-212.2872
-154.6035,-370.2543,-266.7815,-348.2555,-257.2197,-345.5828,-243.7400,-345.7686,-311.8241,-247.2945,-211.7416,-419.9153,-181.9764,-352.9841,-204.3509,-205.1381,-207.8054,-261.9872,-243.2504
-169.0814,-355.0713,-290.4410,-397.4321,-288.5455,-376.5410,-238.7751,-347.9436,-262.1391,-262.4980,-210.9701,-425.7762,-195.6817,-376.8872,-167.2036,-223.2139,-249.7509,-295.4676,-242.6549
-168.4402,-376.8258,-297.6078,-435.6735,-289.9113,-430.8931,-177.1983,-345.9564,-197.0745,-216.9790,-189.2300,-424.6953,-157.2791,-403.5718,-109.2763,-205.9428,-279.9987,-290.2062,-206.7867
-135.6299,-357.5442,-248.7793,-396.4058,-234.5967,-418.9879,-107.5157,-315.7764,-146.0531,-160.8387,-142.2406,-379.1533,-96.2286,-394.1123,-44.9791,-184.6627,-253.3794,-240.1349,-150.4515
-99.3406,-314.3273,-180.5146,-310.6849,-155.3393,-311.6856,-64.1590,-237.7873,-105.1843,-100.2891,-93.8589,-268.0648,-54.3886,-306.9516,7.5171,-150.4131,-203.1819,-173.1547,-71.0570
-65.0929,-271.5588,-120.2757,-222.9249,-78.4331,-199.9114,8.5980,-125.4495,-20.8235,-20.8332,-40.0051,-119.3658,-5.6249,-178.9355,60.6212,-81.7744,-140.2323,-99.4482,44.3718
-30.6024,-219.0457,-68.2108,-160.4232,-10.8539,-141.6956,104.7703,-16.8980,72.2774,44.0868,7.4041,-22.1921,42.5250,-108.9161,89.6027,-45.1444,-71.2276,-47.5673,164.9262
-17.7366,-192.2742,-45.6280,-156.4895,27.8980,-119.2805,152.8796,38.9087,91.3402,65.6065,15.6334,-36.0620,47.0178,-125.3442,30.1028,-90.5098,-60.5628,-58.4014,222.2595
-21.8731,-217.1224,-52.6966,-187.3252,36.5456,-117.2525,169.6910,33.8420,84.7595,71.7141,8.5100,-92.0925,40.7129,-136.2341,-80.6444,-121.5673,-88.1504,-91.7998,212.2534
-14.9684,-228.8694,-46.0630,-180.1553,48.2628,-116.4373,209.3569,26.7619,125.5170,80.2814,29.0686,-102.8308,70.9627,-88.9972,-107.8254,-79.4988,-57.7023,-82.8176,201.9079
-6.3409,-177.0322,-22.6487,-133.5705,60.5518,-101.5585,228.3575,34.5681,139.0375,58.7232,43.6579,-98.6168,89.7829,-57.3133,-43.7090,-76.5837,-17.8018,-81.7222,182.9073
-18.0508,-121.6925,-34.5035,-115.6044,17.5662,-114.0509,146.4615,-19.3304,58.3169,-17.4407,-5.3520,-129.5060,30.4028,-82.5624,-37.2479,-159.2663,-61.4948,-164.7433,76.0998
-38.9190,-144.3221,-93.4770,-151.6770,-86.0899,-184.6245,-16.8042,-147.0381,-35.5342,-115.8450,-95.3114,-166.1452,-80.6560,-107.0141,-127.8003,-206.7518,-109.0709,-274.6277,-75.7576
-57.0594,-230.0927,-153.1008,-209.0867,-174.7811,-265.5984,-146.3742,-245.3759,-63.7322,-164.8400,-161.1467,-195.8990,-160.8802,-120.7537,-187.9187,-177.4330,-97.9064,-319.7512,-145.3608
-83.5609,-294.3703,-193.1359,-265.0661,-216.8866,-318.9069,-181.9877,-276.7235,-50.0040,-135.8894,-193.2455,-264.3785,-187.8073,-175.9869,-177.5309,-158.2098,-119.8241,-322.1559,-144.0228
-122.0959,-306.3347,-235.8762,-325.6472,-258.0593,-356.7201,-191.4948,-294.3313,-37.6400,-100.4180,-219.4967,-367.6906,-212.8419,-254.5980,-177.1655,-165.0726,-186.3391,-330.3094,-151.6116
-152.9696,-312.7694,-270.9761,-372.3315,-287.2281,-360.8077,-208.2406,-287.7910,-38.4525,-120.0636,-226.4290,-423.7527,-236.4205,-292.4077,-175.9712,-154.9575,-207.6513,-313.0020,-127.3661
-150.7243,-318.3997,-250.7939,-345.5503,-236.0388,-300.5561,-148.7775,-222.0478,-29.0978,-131.8488,-185.5460,-376.0579,-188.1709,-285.8578,-116.1380,-144.8658,-198.0357,-241.0529,-39.6053
-113.3228,-268.8246,-178.5252,-249.9572,-136.5485,-219.4314,-26.3621,-153.5694,30.3720,-71.1614,-123.1348,-275.9704,-89.5079,-274.0690,-58.8872,-150.4606,-202.2001,-160.9489,11.9763
-69.1929,-187.4360,-113.4941,-199.6111,-86.8913,-190.3374,16.1320,-140.2987,119.1595,-5.8454,-72.1521,-234.5042,-43.8275,-284.6728,-51.5400,-146.4396,-192.2022,-122.5483,-11.6186
-35.9920,-160.2189,-74.6982,-241.5525,-75.9796,-221.5369,-10.6534,-162.5968,163.2511,-18.6387,-11.8011,-274.4252,-33.5379,-315.8749,-10.4674,-142.4117,-166.9908,-115.2497,-18.0791
-0.4652,-176.3266,-30.3441,-263.7179,-29.8600,-261.5345,34.0443,-191.6610,147.4897,-80.5294,65.3304,-295.7757,30.3400,-326.2656,92.5565,-161.2581,-125.8043,-105.7635,26.3882
36.7937,-156.6592,21.7323,-199.5357,36.3275,-256.3530,121.4392,-199.4916,110.5784,-125.9708,113.6888,-243.3002,107.4605,-288.2312,170.2297,-180.5332,-63.0596,-83.8402,68.5522
50.9273,-97.0338,48.8092,-135.5558,60.4911,-203.6792,124.0933,-160.9411,59.3218,-143.5891,106.9035,-186.9156,114.1750,-241.4964,193.1984,-185.3112,-144.7045,-66.1024,79.0327
40.3345,-47.3249,34.7973,-131.3241,27.7961,-169.2112,57.9933,-133.0421,-10.8910,-157.4224,61.7702,-176.4262,74.7475,-219.9458,181.0291,-189.6172,-512.5345,-82.9835,40.4309
29.0364,-25.9424,-8.4071,-138.1794,-40.6416,-201.2050,-3.7176,-178.5024,-78.6159,-179.6559,11.0589,-166.0030,34.3466,-192.5097,110.8007,-179.6328,-893.1946,-136.2838,-40.6424
30.8739,-24.5003,-42.2787,-118.6825,-94.1910,-245.1603,-52.5294,-224.0643,-121.5957,-188.9785,-1.5944,-120.0461,-1.2114,-144.0855,16.2855,-141.1782,-921.2981,-172.1280,-84.9364
38.9149,-35.4786,-35.9043,-94.0736,-88.9037,-232.8588,-78.0823,-202.6099,-117.2202,-163.0853,13.3736,-74.3436,-18.1306,-125.0037,-11.6342,-122.5868,-715.9440,-162.5048,-66.6187
27.0135,-68.2392,-32.5636,-107.1911,-76.2462,-208.1545,-80.5365,-205.4148,-60.4800,-128.7444,-28.7754,-83.4722,-32.2166,-171.9247,7.6076,-164.2603,-626.3229,-167.1059,-78.7365
-17.9833,-129.2806,-86.2075,-170.1591,-122.8864,-232.8328,-94.8504,-277.9161,-7.8518,-117.8317,-120.6416,-139.7018,-70.5916,-237.3710,-4.1693,-198.5775,-670.0094,-202.2556,-136.3280
-51.4556,-157.2952,-132.8731,-193.8689,-157.5524,-233.9563,-97.0935,-288.1908,-6.9427,-100.2395,-126.5190,-143.6013,-78.1719,-232.1419,-25.0969,-134.1482,-643.0945,-159.4609,-124.4175
-24.4039,-74.7268,-78.0215,-83.0637,-84.7451,-116.4740,-43.5265,-177.7377,-14.3226,-50.9504,-21.4781,-34.5089,-14.2390,-146.2013,-5.6833,-23.8315,-501.5676,-4.4198,-22.4383
38.1946,62.9914,42.2456,68.2254,44.3491,43.9568,23.4570,-76.9464,21.4894,-21.3013,73.3696,77.7670,52.0459,-82.0797,41.2811,-9.3322,-342.0246,119.6861,66.8875
93.5280,111.7160,142.7433,94.9725,149.4651,108.6881,73.8042,-62.7315,86.9829,-43.7968,131.1401,74.0783,93.4130,-100.9538,99.9655,-92.5605,-210.8898,133.7037,122.0402
143.1906,39.6933,214.9753,32.8305,243.0015,92.6159,151.7078,-61.6050,162.1521,-58.5745,208.3966,19.2665,167.0847,-128.3303,149.8703,-139.5451,-98.8623,133.6378,199.3620
177.1564,-31.8093,263.0778,23.5110,320.4216,99.1439,241.7868,-22.8658,230.2066,-24.4875,255.7123,9.6502,241.6533,-105.0829,150.8982,-118.9488,-16.7574,167.9370,270.8916
168.6256,20.0553,269.7892,77.9770,331.9990,146.2519,270.8645,29.3922,247.7866,12.2650,208.1177,15.1271,230.7945,-76.0725,125.4485,-122.4285,16.9365,169.5634,268.9031
136.3443,154.4392,250.9803,132.3677,293.1086,188.6206,247.0182,79.0126,214.1361,26.0850,120.1754,13.1556,161.8121,-57.3647,127.0599,-160.8996,20.8520,125.2235,225.2399
97.4265,182.1694,204.8207,159.0546,240.4413,194.4301,225.1958,106.5289,192.2898,57.7383,30.9208,37.2287,103.3023,-11.9490,133.1296,-160.5725,9.7744,73.6238,207.6036
24.4343,43.0203,94.1730,133.0338,150.0337,145.6404,207.9197,82.4797,200.1680,115.2772,-95.9096,52.4598,47.6257,31.5729,115.2465,-119.4902,-41.2733,7.3442,192.9651
-61.7648,-65.3548,-32.0612,54.7911,31.9787,61.0252,176.9740,29.3013,185.8577,146.7060,-224.8222,10.2062,-15.0151,18.7249,108.8786,-97.3676,-113.9646,-68.6140,128.7427
-88.2180,-33.3388,-76.9177,-27.7238,-40.6238,-20.7521,126.9139,-25.1034,122.2796,115.3410,-275.1190,-57.1417,-57.7152,-36.0661,110.3506,-118.3258,-137.7541,-120.5555,38.8596
-63.9799,-38.4425,-71.8899,-106.5000,-67.4436,-117.8085,55.7335,-115.7159,41.2196,37.5483,-280.0802,-135.1813,-84.5628,-105.6852,66.2760,-165.4679,-126.6179,-170.1551,-28.5303
-64.5180,-167.8485,-109.1890,-195.8515,-110.9061,-239.3640,-6.9501,-230.8272,-5.5716,-24.0837,-317.1492,-238.5911,-117.1665,-180.0680,-12.1408,-200.3108,-155.3445,-236.8241,-67.6313
-90.7264,-236.1861,-157.6895,-246.6732,-150.8356,-296.4947,-12.2715,-256.6674,8.1420,-13.3483,-354.2310,-307.3916,-140.5567,-218.1164,-72.0127,-194.8105,-199.2940,-264.7434,-66.6226
-84.0166,-160.2619,-135.4371,-227.2816,-121.6266,-243.9654,32.9924,-162.3453,46.4927,37.1499,-323.8559,-296.1802,-130.9378,-193.6525,-99.8828,-175.8452,-187.8549,-232.5008,-7.8321
-41.9829,-90.7612,-66.5882,-188.1431,-51.5940,-174.7444,63.7064,-67.7504,48.3750,55.4200,-261.0415,-262.0089,-101.0505,-136.2249,-101.4496,-168.4323,-144.8009,-199.1582,55.9237
-17.9429,-110.6102,-36.3974,-163.4941,-28.1562,-150.3054,33.2697,-39.3822,8.1507,50.0174,-250.0207,-231.6071,-92.0420,-68.4283,-98.5119,-137.0561,-131.2458,-191.7484,48.7107
-39.5565,-155.0569,-75.9589,-152.1647,-77.2021,-139.2934,-42.4331,-25.4103,-34.4407,63.3907,-296.0133,-177.1278,-128.9215,-3.6355,-136.1435,-71.2224,-154.1532,-195.0667,-13.6693
-73.4286,-162.9385,-136.7130,-168.5106,-147.3625,-146.3122,-103.9774,-14.4468,-51.0007,80.9734,-328.5705,-135.8942,-182.4620,26.1484,-200.2986,-20.9165,-165.7058,-209.8162,-54.1461
-65.9064,-107.5080,-138.5287,-185.3218,-165.4209,-180.3029,-96.6804,-39.1675,-32.6208,87.4545,-304.0283,-141.7215,-190.4222,32.9452,-208.0566,4.2117,-87.8370,-208.5526,-38.7754
-20.1440,-18.7771,-69.5192,-149.7850,-106.7604,-181.7694,-21.9852,-61.1360,-12.7002,92.8823,-253.7458,-143.3689,-129.5268,57.2646,-137.5314,30.4382,63.2264,-149.3916,-0.0263
0.5161,7.4852,-18.7378,-101.6368,-38.5020,-140.7101,49.2425,-34.6076,-64.3181,70.9186,-233.1771,-128.3226,-52.0001,70.4972,-65.3316,38.5915,124.0478,-74.2106,7.4074
-28.0900,-43.3015,-42.5612,-98.9496,-33.4598,-115.5939,50.8080,4.1742,-179.5636,12.1726,-250.4824,-134.1095,-26.5563,43.7615,-52.7978,22.8472,46.8164,-44.4228,-20.0845
-51.5911,-70.5372,-73.0254,-89.9617,-53.4781,-95.6133,16.6393,20.7556,-236.9116,-14.5470,-258.1709,-122.9268,-41.9625,41.0590,-72.5188,37.7831,14.9158,-23.6517,-22.2237
-32.4890,-30.4178,-44.5924,-34.4358,-31.0682,-47.1977,21.0601,33.3448,-186.3461,19.6171,-221.6892,-61.2403,-32.4997,92.1734,-62.1043,89.5085,97.4493,27.4756,10.1343
-12.9491,23.5826,-11.9567,-3.8357,-11.2908,-17.1455,32.0183,44.4356,-129.3364,43.7093,-180.2446,-21.2503,-12.9626,113.1967,-22.6067,109.0046,124.2871,52.8265,4.9608
-39.3890,42.1297,-46.7678,-36.0846,-59.0769,-29.8409,-20.8010,38.7247,-138.1556,23.6640,-191.0490,-41.4997,-53.5605,61.8484,-18.9578,79.3858,41.3575,22.2177,-38.3195
-80.7566,17.4272,-105.3618,-67.3399,-112.4788,-36.0168,-74.2126,33.5226,-157.4383,13.1677,-229.1383,-60.6503,-112.3817,10.6424,-63.1938,64.1725,0.2520,8.8233,-35.0462
-76.8107,1.0442,-98.0630,-50.6666,-87.2528,-15.2931,-35.7406,58.8573,-133.3521,45.3603,-223.4770,-45.6617,-89.9339,20.5588,-84.3348,102.1997,53.0404,63.0340,17.3365
-38.1620,58.4515,-34.5251,3.3521,-20.0812,29.1149,40.8477,118.5406,-89.0945,94.9555,-167.2266,-9.0829,-17.7371,69.7809,-51.3905,159.4393,96.3492,141.5905,54.4514
-28.8492,128.1377,-2.9806,64.3136,14.9263,101.2969,75.3597,179.1960,-45.9772,127.1958,-105.3035,39.5785,13.2656,96.9539,-13.7229,175.1244,73.1639,184.5562,80.0976
-60.4018,84.4293,-32.4448,83.0042,12.3738,144.1718,85.4317,190.3202,19.2733,127.6272,-57.6197,48.5691,6.3080,62.6692,-1.2160,129.0543,18.4123,162.7234,121.6836
-83.1605,-29.2889,-65.9635,43.5840,-2.7710,109.2747,86.3117,158.1437,119.7512,122.3876,-19.1898,-16.8032,-6.7950,9.6678,9.9454,73.6555,-11.9886,88.1507,160.3148
-72.2700,-60.7664,-56.3970,9.9477,-7.8593,75.2396,73.8301,152.2653,210.5037,146.9077,18.7442,-64.8615,-16.3749,24.1151,40.4628,73.4574,8.8146,31.8482,177.5799
-45.7007,-10.7620,-17.0926,26.2809,16.0040,102.7992,79.9386,176.2418,213.8463,164.4067,62.7752,-19.7970,12.1597,92.7570,73.1715,111.1412,43.6971,46.4749,153.2581
-20.4088,-3.4161,12.0697,48.6400,45.1291,116.6418,81.8961,148.4156,108.2475,108.7007,93.2561,35.9136,65.6121,116.4423,64.6932,118.9525,49.9994,81.3457,72.2139
-5.3643,-59.4471,12.8939,42.9025,43.6527,84.7998,25.1923,67.2021,-20.5965,15.3431,89.6776,35.6051,69.5215,87.7972,15.7762,91.6332,51.1289,79.0791,3.6984
-5.6809,-87.1877,4.3858,31.4946,34.5290,78.9689,-18.1600,24.6766,-71.8090,-25.4173,75.9041,41.6383,42.1736,80.3962,5.8396,69.0844,58.9333,66.4530,14.7976
-15.1612,-51.8712,2.1811,19.7542,39.5338,90.0155,27.7456,26.5452,-53.3979,-23.4647,68.2426,69.4326,52.9213,77.6677,65.9080,35.7091,26.5052,53.7162,32.6913
-26.7463,-14.4183,-10.4809,0.1400,22.5200,48.8119,68.2598,-12.0065,-37.9361,-48.2407,48.7223,51.2709,63.3600,20.9643,111.7844,-31.6721,-38.5882,5.9790,-16.0370
-32.4746,-9.0670,-29.9404,1.3111,-17.0864,-5.9409,30.3529,-93.4575,-34.5450,-86.3667,40.3694,9.0967,35.5826,-33.0659,109.2358,-70.7264,-60.7785,-40.7017,-69.9271
-20.2864,-6.4416,-21.3336,31.5270,-27.0945,-11.6323,-8.9343,-134.7269,-7.4056,-83.8525,75.4066,12.7531,27.6163,-19.1356,119.1117,-41.6063,-36.8272,-34.9155,-83.2753
-2.1356,-14.1039,-0.7895,41.8874,-16.4908,-13.0922,-23.0573,-118.5655,27.0447,-61.5724,103.0972,19.0191,38.0780,-18.6844,116.0417,-28.3481,-38.6165,-32.2287,-100.5708
-1.2677,-62.9032,-14.2359,7.4596,-33.3761,-57.3720,-68.3854,-114.1364,30.9596,-66.8188,81.2374,-37.8330,5.0069,-105.9649,22.6546,-81.2899,-82.2067,-75.7006,-131.1400
-4.6303,-97.2434,-40.4360,-41.5532,-67.7137,-113.1903,-127.0468,-158.4405,16.8155,-87.1977,54.4424,-110.8655,-45.5839,-191.4792,-93.2668,-120.2657,-119.7234,-110.8692,-151.9173
-0.7827,-62.8198,-50.7032,-83.0210,-102.5453,-152.9582,-166.7196,-207.6920,0.6645,-98.4602,33.5739,-136.2951,-81.9081,-191.2184,-124.5845,-111.6014,-129.4974,-133.3237,-174.7263
-18.4925,-28.9673,-79.9151,-111.5248,-150.3711,-172.6457,-211.1067,-212.4722,-33.4178,-110.1854,-16.4287,-123.7077,-137.5620,-167.9572,-111.4323,-122.3166,-128.3180,-183.9574,-187.9193
-52.5569,-44.6513,-121.1892,-110.7547,-177.1129,-155.3988,-229.4431,-182.9641,-67.7676,-117.6280,-52.6112,-93.0837,-175.3428,-179.5056,-115.8990,-150.2347,-126.3190,-203.5508,-164.6139
-50.1771,-38.9560,-108.1282,-79.2389,-142.3220,-110.0668,-181.6749,-159.9978,-67.6876,-105.4565,-26.7324,-45.6528,-133.5776,-178.5363,-112.2522,-136.8387,-113.6170,-144.5597,-143.1616
-11.3331,13.2774,-55.0295,-38.0476,-95.1678,-75.8004,-149.6907,-163.6386,-73.9153,-102.2085,8.2747,9.0377,-85.3308,-132.6179,-108.9543,-104.5162,-71.5689,-91.2399,-158.8562
22.4454,49.3747,-22.3428,5.1349,-81.4642,-56.4645,-195.9579,-182.8326,-129.6842,-129.7081,22.8586,62.8833,-98.3369,-77.8498,-143.5842,-86.2808,7.9849,-79.5094,-168.0044
57.4165,68.2286,19.3387,54.7818,-45.4999,-20.6060,-219.1347,-172.1735,-158.6995,-136.8004,72.6342,110.2052,-88.3809,-34.9171,-154.6898,-49.1603,99.5952,-27.8558,-125.4412
109.8082,117.4767,111.9791,110.3442,58.6412,49.9341,-123.8688,-78.5938,-86.0220,-78.2333,165.7409,149.1072,7.9391,15.4453,-74.1400,9.3587,162.1778,77.7541,-37.8236
155.2495,190.2423,207.8469,170.4633,176.6190,141.4624,23.3826,75.2512,15.0445,7.9390,246.0784,205.4574,120.0050,84.2667,32.7026,53.8360,187.5355,170.1961,65.5704
181.6970,241.7485,259.7924,218.3555,246.7107,208.0559,119.2392,195.0984,62.7573,72.3503,289.7164,283.2111,183.6298,151.1256,81.1569,88.8698,192.4094,226.3504,148.8253
197.8148,232.8374,283.1611,230.1208,282.7595,224.1640,175.5319,247.7372,107.8292,118.9001,309.0328,323.4452,222.7889,183.4319,104.0234,114.3507,183.5870,251.4254,199.5931
199.4193,184.4205,303.2192,227.0869,328.3327,241.5368,256.2581,286.7519,194.4844,158.9513,331.9438,311.8312,278.3281,183.0456,164.3709,107.9656,182.8020,260.2250,236.4497
200.6058,189.9523,334.6570,244.9772,381.8237,295.1261,333.1326,327.8280,260.4218,183.7494,379.7780,314.6571,337.2156,186.0332,235.8369,94.4885,223.1643,286.2827,253.3772
221.2851,247.3508,364.9116,251.3038,394.2807,306.2593,324.1140,330.3193,272.2496,192.1602,407.1680,328.5052,341.4241,193.3178,249.7151,97.5071,269.0737,295.0875,235.3248
226.5626,227.6574,343.7144,199.2792,339.8313,219.3875,250.8546,291.6697,274.7158,188.6207,354.5549,280.5031,276.8404,174.9283,206.7661,82.8713,245.0536,215.8457,206.2413
183.1030,138.0855,262.8708,120.9695,249.5338,114.6609,194.2307,235.9261,266.3474,165.5681,254.8631,199.1974,199.1898,143.3490,171.6707,41.1073,165.9560,90.6043,165.8233
127.3034,104.0484,177.3699,61.1796,154.3111,51.0451,132.0902,154.6538,198.7448,114.8508,169.0324,162.6273,130.3803,119.6428,160.9669,1.8186,102.1523,-1.8583,79.7359
94.6675,84.0854,110.6320,6.0596,62.3883,-19.1404,20.5286,52.2160,90.6703,44.8529,106.4086,136.4571,51.4990,79.2173,121.2635,-31.1199,59.1977,-72.3399,-13.9026
75.7797,11.8092,58.8159,-46.4530,3.8960,-94.8275,-60.3264,-20.4146,9.0208,-14.9204,76.9554,72.0252,-0.7700,24.6918,47.6730,-50.2742,32.0448,-116.3851,-43.6608
66.6044,13.1693,45.8516,-63.7734,1.3028,-108.3529,-42.2585,-32.7642,-26.4385,-35.0341,68.9325,28.5480,1.5603,3.7504,10.6672,-46.9058,55.7434,-97.9897,-28.1291
61.8084,95.8479,55.2043,-57.1044,12.0263,-78.3036,-3.9083,-12.0611,-42.8214,-26.1322,9.9516,42.7842,-5.5263,12.7197,19.0904,-59.4247,102.2773,-77.1981,-18.3375
39.3618,56.4652,28.8747,-59.7975,-4.1365,-68.7739,-22.7483,2.5698,-63.1646,-27.3441,-93.7410,53.1235,-50.4498,16.3862,-2.5224,-89.2164,105.1037,-107.2811,-14.2485
13.4469,-70.3915,-7.8884,-51.8870,-15.5163,-62.2631,-52.3306,-1.7677,-80.0253,-49.3241,-124.7400,27.1750,-66.4714,20.3703,-51.9577,-83.6975,96.9124,-118.5170,-10.8804
14.8123,-58.6811,7.6984,-17.1934,9.6546,-34.3423,-23.9301,-15.4522,-64.0032,-73.4873,-60.4084,-5.0461,-29.9729,12.6418,-32.6958,-76.9397,126.4827,-83.2300,-6.8312
21.9129,26.2395,39.9096,1.3381,43.6390,-16.5598,45.8010,-18.0111,-20.1782,-85.6275,-1.1967,-30.5468,16.3639,-30.1789,54.6523,-111.7903,133.3111,-56.4197,11.0750
9.1981,8.0688,36.3428,-4.4037,56.0088,5.0000,79.0712,15.1624,-3.3248,-69.5748,16.0297,-36.5354,51.9199,-37.4246,91.5772,-85.3667,79.6477,-14.1176,18.6395
1.5677,-1.9904,32.4866,23.3415,52.7560,71.9453,41.6852,83.5976,-25.2020,-24.4204,29.5440,-0.0693,61.1253,45.8782,50.0426,32.8322,38.0919,61.7832,-10.3399
12.2520,92.6731,51.0709,73.7930,44.5392,120.3055,-4.6451,119.5834,-27.7229,-4.7439,46.4003,35.0382,30.5559,98.0394,23.3711,55.1829,39.1199,60.3591,-41.1976
16.3363,111.1299,47.1685,50.4484,27.2995,59.2428,-12.5244,42.3715,-2.3913,-58.3475,54.9616,-1.8339,-0.2523,6.5421,36.0108,-85.2631,20.7163,-54.4033,-66.1842
2.1890,-25.5750,3.1624,-56.3430,-8.8588,-59.2648,-35.9939,-105.7415,-16.8713,-141.2033,44.9386,-80.2685,-7.2305,-126.7474,27.1754,-201.6011,-47.0375,-155.0115,-130.1674
-26.4149,-129.0884,-53.1861,-137.9395,-66.6863,-121.6048,-108.7514,-190.5666,-83.3359,-185.0878,-4.0025,-117.4231,-38.4579,-177.5525,-0.4472,-212.7477,-131.8405,-189.0007,-204.7307
-62.0411,-93.9152,-100.7707,-137.4130,-126.6753,-122.3981,-168.7702,-183.3427,-129.2323,-190.5816,-67.5377,-109.6093,-107.7322,-187.7190,-8.2292,-226.6551,-186.1835,-219.7285,-221.3686
-73.8442,-15.5975,-117.7819,-99.7461,-154.7151,-119.2895,-177.9025,-167.4923,-115.7147,-177.2323,-79.9296,-89.2470,-149.3763,-206.9380,-26.0869,-249.0390,-171.0749,-237.2636,-203.5173
-42.7301,18.8581,-92.2608,-65.5377,-138.0674,-120.2412,-163.1494,-167.8204,-83.6288,-142.1219,-33.7845,-43.6719,-127.1582,-188.1498,-80.9012,-200.8038,-109.6923,-195.5559,-197.5076
-0.6466,11.1742,-54.2507,-43.6260,-100.4594,-112.9594,-144.9775,-158.9965,-86.9760,-116.2565,19.1306,17.2676,-82.0781,-133.6516,-132.1855,-136.7702,-72.4462,-145.4188,-187.7504
21.6380,4.6979,-31.2407,-37.4800,-72.7579,-107.8423,-138.8418,-158.3497,-129.8762,-135.4206,48.7453,37.6565,-63.3624,-114.7445,-151.6096,-142.7760,-56.8564,-140.3012,-170.1491
29.4614,30.8213,-15.3683,-25.7091,-59.8525,-101.0431,-142.7090,-153.8443,-157.3627,-148.8456,56.2529,25.0742,-65.9222,-120.1141,-140.7699,-158.9182,-12.4802,-137.1489,-156.4510
27.6356,48.2075,-4.6790,6.2662,-45.1303,-77.7952,-105.7012,-92.1633,-120.0246,-94.5495,59.9855,38.9275,-41.5492,-80.1846,-89.6553,-99.8639,26.1170,-91.7186,-120.4016
23.5816,10.2451,3.7753,30.1266,-14.0302,-46.1466,-26.3637,-7.3146,-45.2367,-17.5075,94.9424,64.8444,25.3751,-6.7785,-20.2468,1.0423,18.0865,-24.8945,-61.4400
43.4096,-20.5922,44.0388,49.3779,38.5137,-3.7383,15.9693,31.5713,14.3853,20.5506,165.8339,56.0176,89.0380,45.7713,20.9910,75.3935,38.8964,42.9385,-23.5877
79.9166,22.2826,113.3456,101.8247,95.9670,63.7700,7.7336,50.0550,64.5193,48.1041,220.9839,39.8769,114.5069,76.6317,44.4855,117.3967,124.9483,111.1640,-11.0339
83.4673,75.6033,136.5244,144.8992,109.0516,113.5648,3.3734,67.0253,124.4053,93.7492,212.6682,42.6645,105.7812,88.3888,68.5364,141.1662,158.8409,148.6973,-5.8697
43.3414,67.6868,81.4506,112.4110,54.5559,91.7480,-0.6085,33.9964,176.7261,127.5991,150.7145,24.8246,65.8348,56.5478,59.9651,143.5025,84.1536,129.7891,-14.2284
1.6820,37.1317,17.2319,55.7689,-6.7574,48.4448,-11.1979,-14.1662,217.6288,148.9771,82.4675,-12.3145,19.0780,7.3933,30.4352,140.0718,13.0768,104.6230,-15.6335
-22.7496,33.0683,-6.4422,46.2599,-16.6427,61.0102,18.5555,10.0056,253.3468,183.2284,38.4493,-6.6892,11.7896,1.2890,43.5146,152.3050,-2.2681,122.5388,16.2240
-45.8699,49.0067,-23.8461,52.3545,-13.1501,94.4194,76.0304,65.6137,249.2423,202.7789,6.7008,46.4133,27.2634,36.0296,83.6623,157.0546,-37.7931,132.4053,43.9311
-63.2567,78.0526,-53.6262,39.3135,-40.0952,84.2576,92.6359,74.3229,190.5308,182.9571,-30.4123,98.6559,11.7486,74.5191,86.6042,133.9825,-83.0690,84.5983,36.8651
-54.2415,102.9017,-59.8116,16.9168,-59.9862,56.0673,67.9442,76.3182,128.1109,161.6963,-58.4028,133.5059,-19.1854,112.9989,54.2728,123.3366,-55.8940,39.2677,33.4908
-28.3878,81.9597,-38.5531,-28.7194,-42.3144,51.0954,42.4181,119.4142,85.4060,157.7304,-57.0684,150.1914,-22.6399,147.9238,14.7024,153.0372,-6.3024,53.8886,64.1704
-15.2522,33.0949,-25.8142,-78.0404,-13.5371,64.0319,35.8658,171.1080,34.4814,142.3731,-30.2114,143.2047,-4.3315,159.1788,-19.5663,184.3495,-18.4878,98.1437,117.8163
-20.6455,27.9961,-21.4013,-54.1784,17.0433,97.9876,68.7396,202.2365,-14.5231,113.8458,-3.3500,130.3839,22.2601,145.9209,-19.6168,181.4152,-25.7913,146.7662,174.7927
-27.6679,70.4550,-4.4387,36.9670,54.6554,152.1046,118.0413,193.7236,-34.2565,86.1758,-19.4766,130.1729,43.4416,112.0636,8.7733,140.7228,39.5423,194.7675,194.8025
-19.9851,108.5445,20.0880,116.1114,76.1299,183.0333,112.3793,128.2865,-47.4696,51.1266,-83.5890,139.1857,28.7672,65.2799,11.2436,71.0143,112.6907,203.2402,153.9396
17.1093,144.2152,59.9748,169.3308,86.7550,170.6266,61.1421,62.3560,-66.1916,25.1828,-110.4301,150.0374,3.5644,45.2258,-6.9332,24.8755,156.5218,180.7544,107.0977
78.0077,193.6281,128.1760,200.3116,121.3500,144.4067,40.4375,52.4520,-63.7539,32.0473,-43.0273,135.1529,27.5480,58.9953,-2.1882,49.0557,201.8017,196.4769,103.3532
109.8533,199.8096,166.3410,169.3051,146.7554,115.6535,45.3637,41.2936,-53.5826,31.5722,25.1375,66.9880,64.3444,49.8791,-1.3805,79.2200,208.1656,220.5492,101.4365
72.1801,118.2184,111.7528,94.0093,103.9476,73.8982,27.9689,-16.5324,-60.8760,-5.8612,-1.4925,-9.9418,39.6773,16.0583,-32.0672,43.7462,142.3560,156.2112,64.5543
17.1568,23.2095,28.6256,41.4754,32.2115,28.7948,3.9996,-57.2557,-45.2620,-23.5729,-54.6485,-33.4085,-11.7524,18.5488,-52.0885,4.5326,91.2274,44.6251,28.8349
17.9653,16.0230,17.3881,21.4440,8.0286,-3.4968,-3.3035,-47.3887,10.0845,5.2060,-37.5286,-23.7465,-22.7099,42.3318,-50.1469,22.0321,103.8877,2.9736,22.3520
48.6175,75.1030,49.7393,20.8556,20.0253,-16.1430,-5.9314,-27.5425,31.8336,19.0283,10.0371,-18.5546,-11.9940,36.7944,-56.1299,37.2942,111.7829,18.2810,28.0788
42.4300,88.7226,43.3417,30.9818,18.4972,-13.8650,1.2034,-5.7883,-9.3475,0.4971,5.1535,-6.2066,-11.9233,34.8988,-44.9677,18.1315,85.1887,10.0488,36.1630
10.0395,15.8982,6.5829,5.0865,5.8370,-20.4467,23.1017,18.2036,-47.7274,-5.5033,-40.7436,4.1590,-6.8274,57.9000,1.4983,13.6512,60.1781,-13.6454,48.2636
-3.0216,-65.3807,-12.0680,-52.5127,4.2102,-39.4313,29.5296,8.9902,-68.6087,-16.8527,-56.8439,-12.7763,8.2792,50.1079,13.7094,19.9326,45.2223,-12.1483,46.9352
5.3309,-76.4288,-8.2950,-46.6403,12.6478,-33.5023,5.4428,-18.6524,-123.5325,-72.7408,-17.2745,-18.7589,16.8634,16.3020,-50.4812,-0.2828,47.5296,1.9231,14.8689
23.4538,-29.2609,11.1133,32.2439,27.1666,5.7941,-22.9663,-4.6516,-183.2073,-113.3949,31.3479,29.6965,19.9647,22.5915,-121.4539,-14.3333,77.0997,14.9555,-25.2464
40.4080,12.0783,35.4388,77.8956,43.7193,40.7178,-26.9905,45.6745,-168.0759,-75.7122,41.0335,91.8454,23.7586,47.1028,-127.0754,3.8648,90.5865,37.9833,-25.4335
25.7113,-4.0867,26.7518,57.5226,47.8537,55.9714,-0.9446,76.9014,-108.7820,-21.6055,28.7760,99.3914,26.7436,26.7229,-89.3265,9.8639,63.9972,57.9593,18.9932
-13.9452,-76.7833,-12.7420,28.3477,42.5606,57.5998,32.3682,68.4337,-98.3538,-30.1999,32.5259,47.7676,36.7367,-17.8357,-71.9137,-13.6703,41.2505,56.1433,52.2631
-21.4788,-137.3226,-21.9264,11.5861,48.5855,39.5448,39.5845,38.1125,-130.8702,-66.1563,44.6207,-6.1023,56.0082,-45.3810,-84.2366,-31.4562,27.3075,49.4865,37.5485
-0.5567,-137.5472,-2.7159,-10.0506,50.0203,5.8267,15.5011,10.7063,-143.6140,-70.3588,38.5472,-26.3547,57.9637,-68.0336,-82.5111,-43.9094,-16.9075,35.8039,-0.4578
-13.6965,-133.0496,-24.9130,-51.3539,12.0690,-35.6969,-15.6384,-4.7290,-147.0172,-69.4241,13.7686,-51.6301,24.7146,-92.6177,-60.5184,-77.8644,-72.5399,-25.5261,-29.7849
-44.3253,-164.1402,-69.5437,-105.9267,-31.5022,-80.9814,-30.9461,-17.2452,-177.0030,-88.6393,-7.2269,-104.4547,-8.9993,-95.8295,-60.5079,-113.4052,-97.7681,-108.2333,-41.3391
-29.4549,-161.8388,-55.6233,-123.3638,-22.1373,-94.4674,-32.8170,-27.7978,-205.7152,-80.2158,-2.1300,-121.0769,-10.1422,-74.6381,-85.4640,-118.1151,-96.6811,-130.2093,-37.0376
-4.8390,-110.5927,-22.7598,-88.8416,-4.0496,-65.8309,-52.5560,-36.4249,-201.8801,-27.6211,8.1064,-86.0577,-20.9054,-58.4590,-108.5875,-114.3023,-87.8304,-118.4064,-36.1110
-38.3518,-108.2964,-67.5582,-81.3627,-54.6454,-64.0502,-96.3525,-50.8732,-179.1716,21.5967,-27.6016,-81.1245,-83.5872,-66.8335,-137.6492,-126.7899,-93.3508,-163.9464,-46.2538
-91.2655,-161.0518,-145.7360,-128.3920,-127.0148,-106.2809,-110.2860,-44.0971,-132.4858,70.1259,-86.5042,-105.6078,-137.1600,-74.7083,-157.2605,-112.4645,-133.0450,-218.0703,-36.4482
-101.3488,-174.2040,-158.7861,-151.8286,-138.2773,-114.7124,-75.6446,2.3195,-42.3391,150.3057,-90.7960,-85.5611,-118.7051,-56.9104,-114.1247,-41.7158,-176.7912,-183.6067,-6.9482
-93.6412,-154.9376,-135.3156,-139.2197,-120.0338,-88.1353,-49.4814,19.5159,56.0007,216.4991,-57.8582,-58.0130,-81.8143,-57.6035,-36.3999,11.6287,-184.2171,-120.5336,-1.8266
-99.4995,-161.6974,-132.8739,-145.2879,-112.5043,-88.7961,-29.5404,-23.8265,118.4740,231.0540,-55.7851,-81.4792,-72.9643,-116.8619,1.8501,-11.7157,-165.4982,-103.3913,4.1561
-96.7674,-165.5722,-115.7352,-141.8522,-69.5367,-79.8031,48.7740,-24.7090,156.4337,251.8648,-50.3837,-103.3776,-36.4208,-163.7260,28.7004,-37.3600,-129.6818,-65.1552,73.9861
-88.3137,-160.3333,-75.2857,-95.8131,1.0184,-22.0267,142.8647,55.0319,176.1521,297.8551,-3.4640,-109.6071,37.1067,-127.9637,94.3185,3.4451,-80.9352,11.5903,153.7145
-113.1384,-201.8396,-84.7025,-75.1804,7.8703,12.5896,155.3377,106.4516,148.3604,300.6606,5.1467,-146.6784,61.1703,-71.3364,144.1456,42.9296,-75.2010,20.6358,144.7922
-165.5290,-259.6320,-152.1217,-110.5401,-50.0039,2.7165,114.5170,95.7112,73.8434,256.4049,-61.7059,-160.6887,21.0655,-60.3768,131.2860,17.9177,-133.0924,-44.1549,76.0172
-201.2519,-260.6095,-199.3614,-128.1024,-87.1880,19.4360,91.1225,92.0001,-14.8025,226.8044,-110.0266,-112.7120,-9.2201,-51.4013,95.4798,-14.1834,-170.1242,-79.7259,20.9722
-207.7518,-223.5260,-200.9089,-93.6983,-93.4146,53.7114,63.6911,84.4630,-93.6837,210.2896,-98.1429,-102.9628,-13.5062,-14.5443,62.9304,-0.7668,-138.8252,-73.9566,-37.7839
-208.5119,-188.0351,-202.7596,-61.4392,-121.4121,39.8221,9.9997,27.5277,-137.9196,181.6452,-93.6896,-158.4501,-30.8842,-5.7236,35.7063,20.0758,-114.0485,-82.0626,-125.2856
-219.7112,-165.8791,-229.9039,-79.0355,-175.5435,-16.5014,-38.0574,-48.2637,-148.7605,160.9254,-118.5454,-188.6090,-60.5426,-53.7053,40.7296,12.2294,-163.8875,-106.7560,-198.3675
-225.2347,-189.9517,-253.2301,-131.5521,-209.8593,-78.5484,-70.1232,-109.9750,-175.9287,144.8990,-118.0875,-201.8953,-70.0296,-113.2895,65.6650,-6.2720,-245.2440,-125.3273,-222.0840
-196.4391,-239.5741,-228.2000,-159.8778,-184.0280,-114.4813,-84.6086,-139.2173,-222.7686,111.9791,-68.3460,-237.9897,-44.8522,-142.3615,60.0979,-15.1970,-261.7516,-116.6839,-200.5443
-147.0622,-234.3694,-165.1551,-139.5440,-115.8395,-92.5618,-64.2166,-102.0176,-221.9740,102.3314,-14.7859,-227.9005,-8.3877,-144.1330,38.1691,-14.9602,-198.8896,-67.8291,-137.8750
-129.0952,-193.3277,-137.1199,-122.0804,-80.8590,-49.6872,-31.1569,-34.4583,-162.7137,150.2223,-15.1126,-162.2794,-5.8416,-139.4352,42.6664,-6.0757,-161.3634,-20.8128,-50.6361
-146.6621,-186.3408,-163.3466,-135.9835,-101.7439,-42.6957,-15.7821,-4.0979,-96.5116,205.5876,-54.7391,-124.2167,-36.0758,-127.5220,51.0372,14.9637,-202.6540,-15.9229,22.5619
-151.8211,-184.4822,-177.9444,-138.8170,-115.4857,-36.5063,-6.0040,15.9515,-37.9075,222.0503,-63.0884,-99.9205,-49.2882,-96.8296,25.2009,43.3256,-228.9271,-17.3907,50.8434
-144.1628,-177.3515,-173.8628,-130.3301,-114.2800,-13.0141,-14.2939,38.9437,-5.8738,208.9161,-47.3398,-57.4157,-47.3294,-73.9162,-22.5486,59.9894,-207.2917,-10.4478,20.5662
-160.9550,-230.6502,-207.0387,-158.3631,-150.7821,-39.3194,-64.6339,-2.3940,-40.8825,167.8085,-77.8314,-66.3248,-72.1025,-92.9482,-55.1221,44.9643,-236.6141,-44.0346,-44.4748
-176.7061,-296.9797,-238.9032,-195.1615,-182.8956,-95.4586,-94.9723,-72.3092,-85.8927,108.7935,-120.4336,-115.7578,-96.5312,-120.1821,-46.6902,0.4064,-294.0025,-104.8140,-69.2975
-150.8347,-267.4554,-202.1190,-173.4958,-142.8548,-84.1906,-49.1899,-59.4421,-56.2311,94.3918,-96.7315,-88.7400,-76.3777,-104.6578,-16.1424,-41.1231,-257.7039,-123.2436,-23.8568
-134.1426,-192.3308,-171.3271,-105.5623,-109.2754,-29.9417,-6.3463,0.0047,-27.4213,148.5669,-70.2829,-1.2542,-59.0247,-70.2255,-19.7250,-42.7234,-195.3702,-105.0805,-1.1849
-182.7149,-164.4374,-231.1853,-54.1228,-173.5358,-19.2282,-52.9074,3.3235,-106.3112,197.7823,-125.9010,21.8174,-102.0627,-70.7509,-60.3192,-18.7106,-233.3445,-109.7233,-79.3481
-236.9503,-157.0294,-300.9136,-61.6307,-259.1173,-55.6570,-138.1990,-47.4151,-209.2868,182.4015,-186.6658,-41.9054,-169.5128,-116.6684,-77.3017,-37.7573,-279.9632,-157.8182,-173.0281
-222.5989,-160.7179,-290.4803,-129.7441,-268.4503,-121.6628,-174.4417,-120.8310,-201.9555,135.9153,-170.0742,-126.6853,-200.1947,-186.4194,-58.5828,-117.6708,-239.1950,-228.8548,-170.9226
-178.0397,-206.0289,-252.4022,-199.6140,-241.4692,-197.3229,-162.7106,-192.1223,-119.4552,102.8859,-136.3387,-185.0894,-190.0068,-242.4535,-49.3590,-177.3633,-219.7974,-278.4806,-131.8479
-164.0986,-218.9099,-245.9451,-210.5435,-243.6687,-226.0058,-155.9974,-211.4241,-80.7248,64.8618,-139.0740,-201.3710,-171.7895,-251.7761,-64.5904,-166.7909,-280.0635,-276.5206,-169.3554
-156.1558,-143.7174,-240.6833,-193.4917,-260.3986,-220.9333,-174.8124,-204.3963,-110.0215,5.6760,-138.1120,-192.8197,-169.9785,-228.8186,-90.2274,-136.5951,-311.0992,-255.2042,-236.8521
-120.3887,-88.4968,-212.2129,-206.3954,-254.7832,-251.5450,-184.8829,-233.0494,-133.2116,-23.2608,-109.6276,-185.5115,-169.1781,-208.5290,-103.1734,-117.9876,-279.0736,-245.5462,-218.5479
-88.1213,-122.6096,-179.1031,-231.6411,-218.1537,-281.3969,-145.3704,-237.1543,-94.9822,14.0439,-72.7041,-183.9045,-129.6190,-196.3984,-58.5412,-83.7012,-262.4819,-214.6397,-138.0779
-88.1751,-158.8000,-153.2300,-234.4471,-168.7819,-248.1248,-75.6864,-168.6967,-39.4920,55.7050,-38.4059,-197.1222,-59.5803,-192.2499,39.7208,-46.0741,-276.3285,-151.2409,-95.8708
-101.5210,-153.0513,-143.5401,-227.5910,-144.2068,-203.4339,-42.3539,-124.2684,-38.1387,36.7110,-23.6425,-217.5480,-21.0641,-196.3525,102.5087,-39.5564,-284.7412,-109.1634,-106.6117
-110.4877,-151.3338,-155.5708,-221.8164,-157.4570,-181.2064,-76.2229,-131.8118,-76.0530,-11.2444,-36.8417,-196.1799,-39.6743,-183.0308,85.3773,-45.7116,-288.1940,-111.7381,-135.2588
-113.4539,-137.0682,-161.1025,-200.9863,-171.6241,-135.4719,-137.5923,-97.7551,-103.7839,-30.8273,-42.7289,-136.3072,-75.0478,-144.9465,50.1582,-40.9519,-288.7622,-119.7138,-163.3322
-104.1202,-90.8050,-138.1047,-158.5023,-155.6873,-81.4094,-162.2619,-33.8770,-110.1474,-15.6955,-24.4817,-99.5583,-84.0550,-118.6224,52.8380,-30.1414,-272.6260,-98.1499,-154.4748
-95.7577,-110.5030,-119.8390,-114.1967,-126.2346,-64.7355,-129.7003,-14.3865,-66.6546,11.5139,-26.3954,-84.6690,-60.2157,-120.2720,94.4040,-10.3164,-248.9291,-52.9692,-100.3836
-118.4963,-251.6533,-140.8437,-103.1323,-111.4478,-58.4571,-83.2731,-12.8589,25.5458,10.0062,-74.2694,-71.7677,-26.5472,-134.4703,159.2158,1.4832,-239.2063,-25.7103,-74.0087
-157.8854,-387.4361,-178.1365,-133.6334,-113.4079,-49.9521,-65.0769,-11.8021,45.9637,-44.1558,-127.3937,-96.8951,-11.5796,-150.5472,200.3328,-26.1192,-243.1924,-43.7564,-99.3474
-164.3210,-393.9536,-190.1091,-158.8432,-113.2883,-61.8000,-55.7026,-40.6182,-50.6920,-82.9072,-137.5184,-124.0795,-13.5148,-138.2867,162.8721,-44.6916,-235.5650,-59.4576,-90.1223
-129.3104,-312.7292,-165.0448,-137.4807,-93.0159,-52.9336,-26.1959,-39.9641,-97.6066,-17.4117,-100.0957,-60.9751,-4.3550,-64.6407,69.3855,26.8397,-191.8068,-8.2177,-20.8662
-84.0241,-223.2944,-110.8186,-88.1119,-52.4978,12.5270,-0.5038,47.0047,-10.1629,121.9950,-46.9438,29.8350,18.4807,30.1429,-11.5473,154.4982,-126.8599,86.8692,26.6293
-49.6257,-136.5019,-49.0900,-45.5806,-12.6542,78.8599,-11.2077,139.5716,60.7312,239.5629,-16.5234,21.7712,23.8917,69.7666,-63.2235,229.8230,-84.5239,152.3913,24.8037
-42.2074,-71.4503,-24.4799,-26.7532,-4.9625,102.9992,-51.1304,167.0932,35.4480,296.6854,-27.0962,-36.4841,-7.5721,43.4905,-102.9726,221.4932,-79.3224,160.9194,14.0594
-72.1696,-52.2720,-60.2197,-33.7982,-44.3670,108.2248,-94.9269,172.0074,15.9568,301.1812,-69.5044,-40.8323,-61.7801,3.9623,-124.0628,191.5485,-83.7582,139.3186,0.8504
-110.6654,-26.7668,-109.3006,-32.9945,-95.8867,115.6607,-114.5218,190.5122,33.0819,273.1462,-113.5893,-16.0288,-103.3412,1.1556,-115.4857,197.6197,-67.0807,132.9078,-11.4072
-119.3289,46.6631,-113.0507,14.1516,-103.0514,137.9701,-94.2866,202.1221,10.8878,228.4165,-124.4037,-2.1665,-103.1822,32.7933,-91.3221,216.3137,-31.3098,159.6918,-5.7479
-106.0845,105.4326,-87.2145,81.5467,-73.4479,176.1195,-73.4787,184.0090,-60.4637,151.5087,-100.4489,26.3737,-76.3875,47.8778,-79.8056,188.2184,-13.2779,182.4568,-21.7904
-95.3676,108.8396,-79.9156,120.9679,-70.7598,187.7994,-109.3901,135.0404,-128.6433,62.9418,-80.4942,67.8438,-70.9378,31.6047,-97.3381,144.1682,-28.6199,173.9718,-90.4513
-82.2238,115.7509,-84.3414,132.8970,-102.3435,154.8715,-175.0333,87.0714,-156.0897,42.8927,-82.3094,92.8138,-93.3587,29.6836,-124.6522,166.9235,-35.3745,172.0304,-145.0057
-59.9532,148.4320,-68.7009,128.6423,-108.5559,126.7617,-187.5756,65.5317,-132.4970,66.2150,-79.3689,97.7891,-95.9942,39.1666,-127.7459,216.5246,-5.4943,202.8032,-135.9287
-45.2845,147.0517,-45.5679,103.6506,-73.9004,125.4582,-139.0914,38.7025,-99.0066,14.2481,-62.2499,76.3056,-63.0222,5.3848,-107.4533,186.5816,23.6931,225.0957,-108.2289
-50.6191,93.2544,-45.9948,65.9000,-47.3979,112.2262,-94.3560,-12.6216,-108.2882,-78.7798,-54.9166,22.5159,-36.9471,-53.8235,-86.5089,100.4129,18.5639,199.4685,-92.3513
-61.9183,40.9427,-63.7658,20.5250,-53.3253,66.9007,-83.3173,-53.7387,-154.7973,-97.7526,-55.7239,-29.8310,-36.2701,-81.8693,-72.7668,46.8382,-10.6853,141.6016,-84.3242
-49.6019,41.3779,-63.6933,-22.0436,-63.8113,12.1374,-94.6966,-81.0926,-229.9339,-101.6175,-32.2197,-35.3399,-29.5187,-87.6870,-79.1149,28.0770,-44.9795,100.1137,-111.6717
-4.1673,96.8561,-28.7290,-15.6161,-52.3404,-14.7478,-124.5917,-112.9335,-333.5708,-164.5857,19.5241,18.6955,-8.5451,-84.2839,-114.8170,20.6724,-55.9438,107.8920,-161.0942
36.6138,145.4646,11.5922,37.1612,-26.5871,5.2351,-147.4272,-118.4400,-382.6198,-184.5064,62.8279,96.9351,-0.2093,-46.6158,-132.0682,31.4389,-28.0438,132.8093,-150.1658
36.9589,130.5051,18.5535,51.5485,-11.4357,31.6420,-116.1591,-87.6737,-306.1180,-122.9401,71.7051,140.7032,0.3657,11.9813,-79.9629,44.5841,-7.7258,115.6991,-79.7390
27.5705,109.0035,9.3679,20.9569,-15.5668,13.4471,-53.3888,-69.1212,-198.7883,-94.8565,62.3635,145.3062,17.9024,58.3494,-5.9469,53.4886,-30.7070,72.5701,-52.1900
44.1672,157.0245,20.9438,37.1741,-27.0510,-17.0991,-40.6301,-73.6894,-178.3299,-105.7548,59.6248,156.6698,31.9144,93.6177,10.8644,81.9849,-55.3413,62.6326,-94.3909
49.3366,197.5378,28.3483,88.3873,-37.0132,-1.7790,-82.5642,-71.0293,-209.4410,-80.0389,60.0583,165.6002,15.6481,106.3873,-11.2950,108.3191,-56.9152,78.9406,-128.3894
22.3331,132.4289,12.0569,78.5772,-29.3312,43.0420,-98.3610,-49.2351,-206.9812,-72.2457,67.5851,133.7139,8.2010,90.4803,-5.7889,99.4740,-54.2051,89.3872,-105.2988
35.3853,63.7412,44.5453,44.3418,31.4054,81.7716,-57.2478,1.9850,-157.6398,-126.8956,118.2384,103.6975,53.9632,94.2362,27.5176,83.8232,-16.1790,111.5138,-45.5861
114.9807,133.8849,154.0864,87.7312,127.0118,116.6300,-15.1341,64.4475,-97.4196,-154.3308,195.3784,121.8010,107.8327,123.0071,49.6125,70.9090,73.4694,144.9533,5.6061
154.1305,248.9231,210.5862,155.5003,154.2368,131.3134,-22.2419,72.2320,-81.3475,-130.8602,201.2498,132.4700,93.4934,114.2692,51.7201,31.7706,114.0789,135.2007,5.6828
90.1472,217.1843,125.2946,129.7227,70.6951,94.9726,-66.8347,24.2598,-125.6942,-136.2742,113.1308,87.8718,26.4379,78.7296,32.5545,0.1105,40.5705,67.7346,-47.8421
25.6476,77.0911,24.5625,49.2512,-11.1659,36.1938,-102.8455,-5.1979,-159.6893,-163.5869,52.4812,36.8876,-9.4609,79.0634,-18.0810,17.0112,-37.5302,2.4826,-101.6427
60.0895,41.4655,54.0458,42.2051,12.8910,16.9915,-105.4161,2.7136,-127.2411,-140.6391,98.5528,33.2787,9.2479,100.6264,-75.3386,36.3804,-0.7103,-8.9103,-102.4582
142.5151,161.5737,160.9895,119.6033,90.1819,47.6542,-88.2982,27.8138,-65.5208,-64.7694,177.5706,79.2156,30.8738,120.4234,-90.4321,32.7744,104.8229,20.1045,-49.3362
181.0421,278.8223,216.0193,186.7615,126.2122,86.0843,-58.1669,78.2919,-12.8719,22.5462,215.4841,152.7984,37.5393,173.2897,-59.5783,59.6898,153.8308,48.0883,18.1039
176.1737,294.1715,210.0661,199.4742,128.1363,101.9254,-3.2524,128.9031,37.9222,87.3234,238.8085,207.2332,64.3408,243.5200,-23.7406,124.2911,119.9625,69.2067,67.6540
175.6002,258.0537,208.9269,185.8752,144.0621,100.5264,50.5837,142.5326,80.4354,106.4875,269.8050,201.3946,105.7364,268.7151,-9.6865,167.0609,88.5666,96.5492,106.1332
184.5909,213.6157,219.8083,157.6796,165.0113,87.7712,66.6480,150.4120,98.1618,90.2288,273.2697,157.1539,117.9836,258.5824,-13.6189,165.3002,97.8748,102.5959,147.2712
176.6165,169.4157,205.6902,114.8757,160.7026,62.7471,78.3611,163.3568,99.5011,66.6241,238.6991,122.3002,107.5901,256.0492,-20.7948,140.8933,75.8280,65.5510,172.1905
147.2397,168.0697,169.9241,93.5585,140.0251,55.4163,123.8100,135.3250,111.6441,56.6514,200.5368,107.4334,103.9515,258.7271,-21.1101,118.7736,-0.1524,35.2604,174.3766
115.6690,199.4303,141.8273,100.6354,122.7160,91.2376,154.4391,84.5130,168.3066,87.7036,170.1125,98.8179,85.1748,260.4208,-26.3147,118.9605,-44.2916,43.7184,188.7684
87.5020,168.0436,110.9195,73.0513,96.0396,120.7083,127.0173,53.4725,260.6233,151.8694,126.1508,83.1893,30.7841,265.1088,-56.6223,135.9366,-43.2732,37.5905,218.6509
49.9302,64.7222,49.9814,-2.4644,42.5155,94.1909,84.8345,6.9881,315.2520,188.1375,66.2608,61.6551,-25.4286,264.2448,-94.4901,146.2289,-76.0765,-10.4001,223.4421
3.4174,-2.1418,-21.6583,-44.1886,-19.2312,60.3620,66.3624,-64.0863,300.5356,189.8235,13.3200,63.7385,-60.3438,265.5903,-100.7588,147.8786,-126.8187,-53.3342,200.8369
-34.5977,12.2452,-67.0017,-23.4759,-63.2234,70.0207,52.8634,-106.0848,276.2811,218.8154,-25.1728,100.1122,-89.9518,275.7658,-82.4953,152.5170,-130.1991,-65.3235,172.9324
-57.9626,47.7692,-90.3187,-6.8953,-96.6334,83.5848,29.3109,-126.1482,289.5764,282.3012,-63.1853,121.6609,-118.0097,262.4370,-79.2473,169.5115,-132.4148,-54.6257,129.9316
-72.3597,60.2147,-108.6491,-8.1014,-130.4220,72.1888,-1.4807,-157.0167,333.3049,335.0034,-100.1267,101.6202,-138.2604,218.3459,-92.8489,200.2799,-176.2882,-28.3991,76.3708
-75.6418,70.8216,-113.1564,31.5697,-151.2613,67.6691,-37.4408,-181.9633,370.9934,352.9593,-116.2259,92.7860,-158.5422,187.8783,-94.8713,203.2958,-197.9982,-26.7912,34.2585
-67.3640,116.9304,-105.1404,92.5384,-161.7249,58.3820,-67.9464,-223.5128,326.0266,310.6180,-112.1414,117.0483,-176.8776,175.6056,-81.5381,135.9571,-189.7258,-84.7743,-22.9072
-63.7536,165.7999,-115.3987,76.5529,-189.8447,-9.7458,-86.4398,-317.2493,183.1892,209.1461,-117.1488,98.5064,-182.0656,137.8665,-73.6516,57.0043,-230.5513,-149.7730,-101.5744
-79.1737,122.0770,-153.8506,-20.1475,-225.1045,-109.6618,-83.0922,-390.6714,77.5397,127.2520,-141.5663,0.2372,-169.9971,77.3358,-76.1599,55.8017,-300.8359,-150.5325,-120.5090
-101.8523,5.7734,-181.2404,-81.2602,-212.9379,-142.0037,-23.0247,-374.4849,90.9094,102.0647,-149.0953,-83.6939,-125.5837,43.4672,-60.7824,99.0496,-298.8570,-92.7619,-48.8361
-99.3893,-26.1798,-151.8017,-46.9230,-136.5530,-77.9545,80.2561,-318.7558,113.3615,66.8415,-101.8913,-69.1709,-46.8341,47.5800,-5.3950,92.9449,-219.2854,-22.0148,28.1336
-54.2880,52.3264,-70.5372,15.5514,-43.2855,-1.9177,134.0762,-272.7296,71.3491,-0.9243,-21.1148,-7.9492,17.4965,43.4223,50.2541,31.7155,-137.7738,27.4038,61.6507
3.7916,102.1763,4.5916,47.1747,19.4061,15.4292,115.4687,-235.9432,35.6248,-50.3321,35.6163,16.2095,36.8129,-1.4728,50.1025,-25.6798,-87.1283,50.3817,84.3283
29.1666,94.0972,33.0156,67.7589,52.1614,11.0694,123.3721,-230.2945,33.9188,-78.6889,59.4528,10.8555,56.8935,-43.9882,27.7943,-44.2598,-54.8780,80.0601,107.9157
30.2348,102.0091,45.1595,87.7938,85.5390,34.7750,198.8020,-248.4070,33.3382,-99.7949,92.0055,18.4050,114.5870,-21.5117,59.4229,-27.7954,-35.1643,124.1461,124.9921
50.7695,109.5614,82.0264,95.4422,126.3103,57.6387,250.6696,-230.1353,46.4604,-81.0908,131.9772,41.5841,169.8220,48.1967,119.9698,3.4897,-37.1671,139.2061,131.5519
78.7542,102.2407,114.2410,121.1607,134.5829,64.4111,203.7539,-177.2126,57.7084,-37.4708,129.6909,70.9429,167.9797,100.0042,121.0189,41.0004,-69.0183,129.2325,90.2717
65.7516,129.4566,94.3842,170.0392,87.9336,96.0324,93.9289,-153.7698,18.6897,-42.5579,89.6011,91.6451,108.1515,111.7438,58.7778,73.1591,-113.1829,135.5228,5.0371
37.0559,147.5733,60.6439,168.8021,50.4610,132.0751,19.2250,-176.5557,-23.5916,-93.6033,79.9599,74.2309,48.8270,91.4593,3.5521,52.8432,-122.6419,128.0355,-21.3040
65.8080,107.0498,96.6145,110.7336,100.9518,118.1036,47.1034,-198.7318,-4.5124,-100.2015,131.7175,38.0752,61.8553,59.7061,-1.9974,-21.1910,-68.7069,87.6753,53.9878
136.4195,103.8104,190.5607,98.2168,201.1178,100.2869,135.4945,-163.1733,35.0686,-14.2262,202.7529,46.7520,140.3244,64.3987,35.8023,-45.9221,1.5103,90.4145,128.1411
156.5900,152.3001,228.5873,147.0879,229.3169,123.1675,167.6327,-83.2954,65.0999,96.4426,229.9934,83.5198,184.0707,101.3686,73.7074,19.9950,-2.9968,139.0573,117.6653
105.9607,109.6232,159.2915,156.5050,148.2272,111.2086,99.7828,-67.7642,131.8221,116.9017,185.6604,62.7155,131.7126,86.1843,64.3874,64.6710,-88.8978,120.7807,55.4823
56.4521,1.2217,72.8089,111.1132,52.7753,41.7665,17.9627,-140.0215,240.0239,52.0232,111.6586,-3.5809,45.7032,9.1937,33.2975,31.5486,-148.1532,41.2089,17.7763
45.3257,-1.7485,56.1732,94.9156,36.3235,24.6109,31.9991,-141.2578,344.7756,55.1911,78.3686,-8.9586,19.2091,-32.6877,54.8895,11.8889,-121.8568,31.8827,64.8363
38.2540,74.7360,73.6229,124.5488,79.3505,84.2081,149.6121,-0.0311,428.5831,191.6423,89.0536,63.6393,59.5325,-13.9374,122.7670,45.5845,-82.6595,97.8633,182.9239
24.0266,102.8061,71.3127,147.5690,107.5672,113.7643,260.2675,124.2196,477.0587,312.4187,97.4208,117.8063,101.2024,7.0768,150.9766,66.6890,-75.5744,122.3657,263.1127
42.5805,109.6806,80.8466,145.4634,109.3684,80.8416,270.6864,129.5334,466.8082,290.6063,107.2525,113.7455,106.3676,32.3364,106.5199,58.5448,-41.5718,82.3363,245.1649
98.0383,144.0628,127.6302,134.3948,125.4571,51.7844,231.3059,104.9576,411.7379,200.1020,142.1695,120.3397,107.2688,89.0365,40.0835,56.3716,27.9826,48.4670,199.0961
131.0114,160.3387,156.6364,130.5777,146.5976,51.4959,224.3329,102.6710,349.6106,156.1843,163.0266,169.2358,123.3604,134.6161,2.5434,51.9365,49.5325,37.5974,172.0359
107.9519,150.4112,127.1506,137.9607,120.8693,53.3191,209.7407,81.5783,303.1385,161.4027,132.2757,190.7789,108.5757,134.9467,-5.4861,32.8326,-0.3983,9.1709,125.5347
70.4786,139.8161,80.2369,134.1982,61.9372,42.3643,142.8094,52.8768,273.2812,167.7943,90.6378,154.1230,52.3436,126.6147,-13.6462,24.0512,-51.5103,-39.5454,69.9688
65.0590,113.0926,65.7838,107.1349,39.0506,27.0229,93.7412,51.9443,243.8074,155.2574,84.3640,138.7269,24.7465,138.9462,-27.3272,31.4427,-55.9697,-64.7551,58.7726
78.3040,89.3909,77.3764,96.8027,57.7157,34.8723,96.7365,64.3449,206.4037,127.7331,94.6023,194.5051,46.4973,158.5616,-13.1399,37.3832,-40.1936,-45.4692,66.6393
75.4160,119.2276,83.4924,138.3688,63.3897,83.8965,81.3534,85.4535,164.0256,98.9306,85.9261,265.3349,55.0343,177.4753,31.1107,51.7477,-49.2476,0.5338,44.5662
59.6370,182.9616,78.6078,198.0363,47.9358,144.7117,33.1593,123.3467,108.8296,83.9069,60.8209,292.8543,32.1718,199.3324,47.3000,89.2422,-72.6714,55.1303,17.1701
53.0568,215.8654,78.0990,207.4782,43.9179,170.1545,7.8167,145.6254,62.7322,87.5966,43.6901,263.0183,15.0557,205.8406,11.3994,117.6773,-62.3389,90.0629,12.8014
48.6541,172.2257,77.3317,134.7745,49.7920,149.2503,7.0132,130.7094,76.3947,95.2238,40.5385,176.3742,10.7895,167.0383,-18.2095,93.4710,-34.1664,67.6353,7.7631
27.8162,67.6070,57.8095,33.5769,47.8513,111.7476,14.4679,112.4706,116.8822,84.8595,30.7376,86.2010,15.9934,99.6038,5.2844,40.5199,-46.9293,19.6478,-5.8263
-0.1518,20.0717,27.2929,7.8080,36.2762,91.2901,43.2718,117.3682,100.2381,63.0145,-4.0244,64.0376,29.4960,68.7841,47.1042,26.0665,-78.1625,17.7836,-6.2538
-24.8527,93.4515,-6.8242,63.7789,-3.0245,77.0233,60.6280,121.0922,44.1461,45.2662,-66.8209,73.1796,7.2906,87.6572,49.9354,46.8291,-83.0471,27.4455,-3.8003
-62.8902,133.7470,-68.3248,80.0322,-79.4365,29.5009,30.9852,90.5690,4.6408,7.7021,-147.6864,34.8625,-61.9854,91.2038,19.4911,37.3047,-104.9890,-30.0933,-20.5303
-107.4437,30.0665,-141.1604,9.5162,-135.1744,-36.5643,19.4974,41.9875,-30.0176,-53.5670,-196.6921,-15.0730,-89.3994,66.1117,13.5049,9.7549,-149.6991,-94.2736,-26.9726
-107.7062,-50.2464,-149.8248,-44.6404,-115.0757,-65.6444,84.0339,34.0550,-36.8912,-74.3647,-151.6247,-7.5511,-26.9527,79.0671,43.9474,41.5052,-127.8417,-66.5208,14.8258
-48.4114,17.7584,-79.7239,-25.9089,-52.1024,-58.3734,158.2928,78.9730,23.4969,-44.5744,-41.8931,33.9270,48.5455,132.7556,51.8527,109.4785,-47.1088,0.8104,72.7674
20.5695,88.6904,-1.1738,6.7022,4.8768,-49.1836,172.0903,108.3478,63.4924,-42.5964,37.3107,70.8574,81.6279,154.7349,19.3784,114.5861,-3.3352,21.3653,93.2995
60.8511,60.9062,47.9122,28.6724,56.0499,-33.5349,155.3076,86.1994,21.0034,-66.9755,64.4457,105.4806,102.2094,139.7771,5.6469,66.1365,17.3122,21.8210,88.1439
74.8522,28.0165,73.1243,60.0494,86.7668,-8.6770,147.0446,71.6524,6.7204,-41.9312,69.7694,129.9518,115.5006,148.3610,23.6770,59.3375,53.7157,34.1351,88.8680
69.7353,39.3211,67.6542,71.1119,70.7177,3.8889,136.4003,105.2791,64.1236,4.1564,46.0395,145.6169,96.9562,189.9461,24.2089,98.7378,44.2701,29.3692,84.0062
65.2335,60.6633,58.4899,51.0017,53.0852,11.4125,125.5044,139.4068,82.6664,1.7337,20.5540,171.7616,78.4293,219.8949,17.1822,111.1816,3.0019,15.2860,72.9045
89.8424,93.4691,95.6348,59.5076,86.6870,24.5089,133.4585,131.9727,54.8785,-13.2515,62.0688,184.1482,102.2238,214.6504,41.4792,91.3061,42.1446,30.3354,76.9589
121.3097,109.1237,142.0351,100.0737,122.9821,24.2994,132.1104,113.7431,60.4243,-8.5790,129.8911,155.1841,134.8331,198.1306,60.8120,95.0538,123.3582,56.0408,68.6335
109.6377,59.7023,127.7550,96.7721,102.1585,21.3120,81.9535,128.0105,62.0913,-26.9919,124.8297,114.2680,123.2561,205.3978,51.5462,127.6185,120.2142,55.0155,22.3111
70.0844,9.7542,87.7205,43.9635,64.2371,36.3691,23.8161,164.1354,21.4016,-52.8653,74.8116,79.0014,86.5669,224.8820,77.6358,144.1509,72.9038,38.5115,-6.6780
55.8440,26.6648,83.6046,11.1278,56.2557,24.2928,26.2944,173.5194,6.3896,-36.6714,55.6265,35.5026,77.4041,212.3875,151.1136,129.5047,68.6521,22.9676,7.9680
61.3912,37.0499,81.2143,1.4066,42.6561,-51.1431,56.4014,125.6939,26.2024,-30.0616,46.8785,-6.1811,88.0220,163.8415,181.3587,96.2648,46.7575,-17.1294,-9.7895
49.8554,-14.3995,41.3463,-38.8174,-7.9711,-136.6440,26.3815,35.9766,21.0955,-82.6511,26.3213,-55.1698,68.4223,101.6762,137.3804,44.8256,-47.6490,-95.7352,-92.7098
31.2894,-48.9274,6.6514,-97.0737,-58.3829,-181.8547,-54.4315,-43.7121,-1.1963,-120.7996,25.4339,-137.8221,20.8179,29.5357,88.9518,-5.4304,-139.9281,-159.6268,-167.1295
32.6485,-7.3901,10.0446,-112.5432,-74.2942,-196.8796,-102.0354,-55.3663,-25.6119,-80.3286,35.0211,-191.1797,-6.6160,-22.9977,70.1078,-7.5188,-170.3914,-152.5167,-179.8638
41.9704,66.2688,20.6730,-86.1649,-68.8902,-187.0035,-90.8439,0.4906,-73.5516,-11.2131,33.1851,-144.0244,-4.8864,-15.3942,52.8008,30.5579,-161.2916,-103.5235,-146.0865
42.2965,109.5592,21.1733,-72.2894,-54.7231,-154.8513,-58.6803,34.5987,-112.5664,11.4574,47.8757,-74.4297,4.0632,5.6946,32.6713,38.9821,-132.5654,-72.0791,-99.8279
52.4016,88.0308,37.7246,-85.6178,-19.8587,-138.7451,-31.9706,-14.2644,-112.0512,-35.9856,79.4379,-79.8588,28.0047,-28.1242,27.3828,-1.2748,-95.7466,-53.1412,-74.1152
86.9245,17.3340,78.2098,-95.1675,35.4475,-155.2785,-8.5998,-71.4626,-115.5681,-120.1947,96.9608,-114.3204,76.1935,-81.5821,26.9268,-41.3847,-78.5937,-23.2944,-64.5449
117.6692,-25.7910,111.9124,-89.6513,83.7173,-166.5199,24.7861,-58.4185,-133.1397,-176.4198,120.3091,-118.2944,122.5283,-103.6734,20.0107,-63.4319,-84.9984,-1.0999,-37.7446
117.9107,1.7198,121.9544,-83.1312,104.7874,-151.4818,64.2263,-38.5462,-135.4874,-191.9995,156.2843,-128.0771,147.5726,-123.6478,31.3164,-92.6473,-95.5312,2.8855,-24.2262
105.2524,45.3636,123.8271,-78.9366,102.1924,-140.6560,69.4021,-82.5269,-153.1860,-218.9788,144.0062,-165.7667,150.2941,-157.8808,73.4359,-132.3546,-106.7434,-2.2902,-76.4044
97.7293,44.6492,116.8541,-80.4178,76.2996,-157.8420,14.1002,-132.0336,-197.2635,-262.1483,72.3783,-197.0654,115.2846,-172.2822,94.9869,-160.0494,-117.6752,-31.5842,-145.6388
80.2998,1.2525,80.7823,-103.1063,27.0388,-181.7237,-66.2627,-139.7510,-213.7174,-280.0049,14.9005,-215.5307,47.1709,-164.1106,47.4846,-164.0689,-114.6528,-85.2914,-169.3144
57.3763,-53.4875,41.8099,-136.3167,-7.6033,-186.2832,-115.7704,-163.8100,-221.1592,-300.9115,14.5616,-244.2454,5.6786,-156.6155,-18.6307,-162.2916,-96.9100,-120.8793,-177.9848
65.0081,-67.6942,56.4369,-135.8415,18.1206,-176.4754,-102.0066,-214.2187,-273.9682,-368.8556,51.5408,-273.0337,32.5422,-151.0100,-13.9026,-185.1137,-74.1875,-116.8187,-181.2861
94.2566,-1.6534,107.1681,-85.5843,75.8245,-155.8466,-32.2874,-209.4335,-307.8134,-424.8111,82.9764,-260.6027,82.5607,-139.8787,50.5915,-222.0417,-41.6694,-92.9461,-137.6916
89.5691,78.6004,110.4885,-31.9044,83.9325,-120.7678,26.2182,-151.4296,-255.4498,-417.5512,61.9849,-197.9142,81.7913,-113.6407,83.3564,-230.7251,-5.5598,-84.0855,-87.6229
44.4555,57.5444,44.4487,-33.1983,23.9266,-108.9399,16.0860,-134.8897,-188.5203,-415.5128,-3.5833,-140.4429,29.4528,-73.6540,54.3818,-217.3048,-4.5341,-125.9238,-97.4531
12.8495,-40.9190,-18.2421,-86.6959,-33.0531,-148.9596,-17.5941,-161.0775,-173.9215,-448.0758,-37.8094,-132.8403,-2.9269,-49.8423,16.7888,-210.4732,-49.8875,-191.2866,-131.7234
21.7388,-80.7649,-16.8042,-128.8340,-34.1684,-178.7700,-22.5503,-149.4787,-177.7770,-418.2327,-12.5498,-137.3933,16.7156,-45.9226,5.7033,-187.3470,-91.8398,-200.0104,-153.7288
39.9632,-36.4808,15.0774,-125.4248,-22.0095,-160.4793,-47.9803,-119.1222,-181.2315,-312.7996,8.9464,-121.8567,23.3432,-38.7297,4.3405,-153.8456,-95.8405,-178.3603,-195.5560
32.6262,-6.3197,3.0984,-119.8114,-61.6379,-180.7735,-122.5278,-149.6852,-204.4442,-265.6919,-16.6973,-132.3998,-35.2190,-64.1911,-5.5255,-182.0469,-88.3054,-230.9553,-244.5604
13.0857,-23.5592,-46.1267,-145.7267,-124.5486,-274.6168,-172.2277,-203.4647,-235.4819,-310.3766,-50.1314,-180.2797,-97.3960,-150.2452,-25.6986,-253.2108,-87.8966,-313.2601,-247.0387
26.9652,-32.7401,-46.8388,-163.3844,-121.7248,-328.1279,-158.0828,-191.5788,-257.6970,-338.1932,-31.4751,-191.2431,-85.3288,-209.8595,-54.1047,-263.9831,-68.9448,-296.8542,-207.0611
78.0683,-10.8280,19.6612,-140.6402,-45.6633,-283.0831,-120.2179,-145.7033,-273.0504,-336.0851,33.6275,-135.5657,-26.9831,-181.1018,-72.0220,-231.3467,-20.6882,-214.0884,-150.2129
111.4137,28.0557,71.7222,-102.7567,18.6985,-214.3075,-78.3901,-137.3070,-270.2755,-375.0165,55.3127,-62.4899,3.6369,-138.6773,-58.0701,-245.0694,29.1292,-167.6583,-93.5228
104.1319,77.3238,74.5490,-62.2325,29.5936,-171.6603,-46.3603,-140.0439,-254.0704,-414.6696,-32.3507,-11.7518,-11.9845,-142.6301,-37.4820,-282.1586,61.9576,-145.4759,-76.6440
104.7409,111.9356,86.5902,-8.7001,34.6092,-153.0327,-54.6680,-120.4757,-248.4818,-396.2079,-161.2123,-5.1698,-45.5108,-170.9956,-45.1775,-297.5561,97.3585,-116.1672,-86.4158
143.0226,115.7643,140.9844,32.2307,76.7110,-157.7964,-71.9125,-110.9453,-230.3102,-384.3451,-228.3313,-44.7622,-64.0227,-209.7916,-48.8654,-326.3828,162.7532,-96.2550,-46.4107
180.4959,129.7699,197.0374,35.8429,126.5275,-144.9832,-61.9446,-107.7232,-180.8603,-406.4715,-255.9053,-69.5774,-63.1128,-222.9329,-22.3260,-348.0426,221.5865,-69.1895,12.2561
170.5867,162.3453,192.9356,27.0012,108.7595,-92.3953,-98.5492,-78.3653,-170.7903,-382.6342,-329.2521,-32.3101,-93.5058,-156.7503,-34.5555,-293.1129,177.6624,-43.8926,-32.4306
106.3932,140.4634,96.8162,16.0060,-10.6607,-82.9049,-228.9722,-70.9948,-236.3623,-327.1836,-451.9228,10.7912,-197.5189,-79.5843,-117.1766,-220.8553,30.3302,-96.0577,-156.6225
27.2755,57.9700,-33.0077,-23.1643,-146.6353,-152.9263,-331.4943,-127.0906,-279.3591,-341.8498,-557.2753,-2.0203,-310.8080,-97.6717,-170.1077,-234.0915,-71.0355,-203.4422,-209.1060
1.1952,22.2795,-71.9610,-70.9839,-167.4389,-193.5760,-294.3053,-163.8193,-241.4334,-403.4068,-588.3202,-36.0316,-325.6403,-147.8053,-148.7407,-284.8840,-42.9339,-234.9991,-157.1677
44.4816,64.9300,1.2929,-73.5946,-75.0254,-142.4875,-190.8210,-107.6874,-205.4827,-412.5628,-542.8759,-34.8766,-246.7310,-114.3514,-142.6557,-271.8889,9.1028,-165.7512,-98.7848
81.7863,77.4002,62.8285,-50.0524,-1.3596,-77.4498,-141.5192,-21.3425,-214.1032,-370.8744,-488.3455,-13.2450,-177.1408,-37.6789,-166.2961,-208.4755,-13.2076,-97.5354,-82.9077
59.6419,-1.9488,42.8047,-76.7422,-4.2455,-64.9458,-142.1776,11.8466,-202.9510,-336.7704,-476.3154,-31.7258,-159.0946,-21.5389,-137.3565,-166.1198,-65.6521,-81.3090,-77.4803
30.1158,-89.8052,14.4199,-158.5139,-9.6078,-91.9081,-114.7271,-0.1202,-158.9276,-323.1732,-451.0431,-105.7695,-132.9984,-77.9742,-81.3745,-162.5805,-82.8676,-72.0702,-55.0513
44.3089,-96.5187,34.8297,-212.8233,29.0480,-123.4230,-34.9461,-9.7973,-121.7313,-308.2514,-362.2531,-166.5554,-63.1544,-146.8850,-75.5462,-162.1408,-64.2872,-27.5765,-16.5022
65.0124,-54.4121,60.3066,-198.1996,63.0074,-130.5153,44.9000,4.0029,-64.3145,-267.4043,-285.9098,-156.0319,-5.2026,-168.9005,-70.7091,-137.7322,-36.0940,24.2398,31.0366
61.8544,-38.2025,63.9621,-163.0853,68.3994,-108.4598,80.1403,35.2304,37.8914,-208.6721,-272.9888,-109.9624,1.0079,-143.1127,-4.3403,-114.2782,-16.0139,35.3193,85.4100
80.4233,-24.0711,100.5308,-133.2886,103.7139,-70.3512,102.1976,75.1998,133.7200,-169.3927,-230.9196,-65.1256,13.8383,-117.6283,76.0268,-121.0316,20.2366,35.8923,146.6684
137.5957,41.5011,187.0190,-73.8890,185.6320,-22.0318,158.0543,125.4303,210.3207,-143.3189,-123.7388,-4.5131,78.4033,-97.2169,136.9265,-126.8073,95.9384,75.1258,193.1891
156.0916,76.0892,220.8276,-15.7795,213.0425,-4.7509,210.9424,160.0864,302.3847,-115.4946,-82.7001,29.7073,125.6848,-62.7465,196.8614,-105.7604,130.0229,84.4326,174.9543
93.5358,-23.1614,133.0625,-48.2244,123.5360,-71.9289,192.0591,121.6246,364.3043,-141.8875,-160.8222,-33.4422,93.4248,-58.2765,226.7678,-98.7611,48.7210,-7.2782,81.5368
38.6292,-144.7140,41.8592,-130.1837,33.2486,-160.5032,135.5713,28.0928,343.9255,-219.5596,-211.7679,-121.2091,48.9140,-92.7707,207.9529,-118.8781,-27.4929,-98.4236,0.9216
75.8296,-112.8285,83.9648,-124.3602,68.2759,-159.6979,142.6044,-12.5914,315.9859,-214.9451,-142.6444,-105.9419,73.5016,-74.8114,197.2418,-116.3068,39.5340,-83.5079,20.6648
148.3350,11.3618,185.4418,-37.2150,155.3010,-104.6268,203.5597,23.6074,345.9961,-97.1423,-57.4550,-18.2105,122.3813,4.1222,201.3513,-88.7392,152.4983,-41.6906,82.2951
162.6146,61.1248,199.7142,13.3641,156.6433,-89.6170,201.0282,44.0237,369.1222,-1.6537,-58.1256,33.6493,107.5608,36.1443,150.4302,-77.5285,165.3786,-58.9602,69.7761
131.0478,55.8103,150.3338,22.6302,98.3076,-85.5380,125.1337,32.4031,353.1885,30.4167,-100.5840,36.8195,42.4326,14.8932,61.8934,-66.1717,138.2340,-74.4509,19.8656
115.5148,101.0594,144.2527,63.6891,91.2105,-31.8212,104.3265,66.9145,373.5838,75.4396,-101.7263,33.4739,14.3059,26.7858,38.9032,-24.0196,186.4632,-27.3328,48.2661
124.6755,160.8292,182.9890,127.2321,141.1821,41.7132,160.8599,128.9272,424.4044,121.1562,-55.2994,46.4186,50.4507,65.1890,80.2785,18.4187,275.7693,45.3274,112.7436
131.1657,139.5010,201.1019,162.8034,175.0011,91.6683,168.3853,127.5297,389.5791,120.9882,-17.6958,86.0986,86.1003,86.7005,79.9371,36.4224,311.7217,91.9206,102.0004
120.0342,67.1731,180.2758,164.3463,170.3300,117.9121,120.2728,92.8717,270.3154,116.8777,-24.1724,136.1211,79.2746,122.7248,34.1581,51.4955,297.6196,100.2858,77.0620
104.8940,56.3309,164.2387,148.9021,175.3518,134.3172,153.5231,118.7411,210.9677,129.6041,-29.0747,168.6918,82.2838,186.3007,59.1968,65.6606,322.3979,95.7871,146.2535
120.0616,120.2385,202.9548,142.1644,227.5786,157.1337,259.2626,175.7908,247.6799,122.3276,24.6620,187.5318,139.4147,231.0202,163.0106,61.9537,415.6294,113.5359,230.1047
166.3768,147.6211,275.0664,157.6777,293.9530,178.8230,289.0667,182.3105,248.1287,107.3640,100.4676,190.7418,204.0443,245.3707,214.1152,60.3330,481.4311,146.3189,216.2268
198.3604,96.3289,314.2389,164.4451,330.3738,177.5724,249.5825,164.7085,150.7102,102.2246,144.8471,163.1408,240.1580,251.9041,192.6422,82.1388,458.4529,175.5920,177.1006
209.3225,74.5545,333.3492,149.3513,367.3485,181.7646,274.5814,182.7411,64.0669,68.9045,194.0470,139.6895,288.7816,249.1707,213.8352,93.6084,438.0423,221.3223,212.5426
236.1858,129.1434,384.7404,145.2428,435.7924,218.1004,356.6409,207.0811,76.6737,16.1665,264.7607,157.7301,354.2636,225.4341,271.6977,52.3564,482.4964,266.8304,262.7834
259.2248,155.9752,418.5841,137.9186,467.9785,231.0520,377.8095,189.2935,135.6744,8.3033,281.5569,180.8981,365.8307,172.5124,260.3350,-26.0354,502.2437,242.5894,235.3993
233.9236,125.1489,370.7770,89.0126,405.7349,177.6563,313.9074,137.8909,148.6905,38.2695,230.5900,173.1969,305.7472,88.7141,206.5890,-93.1471,447.1457,157.2985,147.8145
195.1857,122.6993,298.7757,38.4688,306.7644,90.8656,220.0341,65.7473,85.0073,40.4698,191.2838,144.2613,234.3426,3.2215,183.0779,-126.9392,385.8095,87.8796,59.6789
183.9487,125.6240,252.3335,13.8343,225.8908,-12.3416,125.2692,-25.5281,-16.8219,1.4358,168.4778,89.8271,176.4204,-48.8639,143.2761,-136.0634,331.2012,33.9907,-5.6571
155.0461,42.2383,175.7391,-44.7115,132.5834,-126.0826,40.1322,-106.0150,-83.1137,-41.8994,103.0921,21.4307,104.7398,-71.9514,72.9526,-140.8930,239.2472,-56.0721,-47.1288
85.6504,-71.1327,63.4094,-127.2735,25.5271,-197.7299,-24.4738,-153.4725,-90.0037,-71.8004,19.0064,-7.7357,20.4788,-85.5807,53.1462,-164.0824,164.5677,-164.9222,-69.4120
50.9617,-97.8667,14.4088,-136.6831,-25.4808,-213.8833,-66.6879,-183.4924,-88.4939,-105.3029,-11.6784,-6.0238,-33.4521,-89.5279,72.1388,-194.5750,202.8394,-223.8064,-73.4153
93.7607,-39.0128,64.7937,-104.6442,2.2911,-219.9961,-80.3612,-193.2576,-95.1204,-147.8256,22.2269,-28.8311,-30.0204,-71.4904,62.0931,-178.6936,322.7305,-198.1101,-52.3893
143.1752,41.0868,126.9441,-166.1162,40.4822,-214.0839,-70.5954,-163.6272,-75.8052,-166.9505,71.6971,-53.4988,-1.9589,-25.6490,59.2445,-111.3018,388.0589,-134.0905,-24.5442
127.0021,78.6785,114.2215,-318.9029,20.6479,-191.8626,-77.9988,-135.1886,-57.1938,-155.6547,71.0468,-55.4173,-14.7505,11.7531,84.6459,-78.5144,325.5858,-131.4546,-31.2624
65.8134,12.1003,34.7301,-445.4065,-49.5978,-218.7155,-126.1231,-172.8051,-74.5777,-160.3706,6.9781,-109.7103,-78.8585,-34.3333,67.8576,-130.2029,206.6923,-213.1774,-68.4569
16.3682,-129.5605,-41.2597,-499.6375,-108.1159,-299.0134,-172.4933,-251.2601,-62.0064,-181.3099,-45.6696,-232.9509,-130.1826,-170.0171,19.9245,-198.9842,134.6575,-276.9952,-78.9448
-0.9712,-214.7474,-64.6548,-490.9838,-110.2947,-327.2341,-158.1260,-274.6417,21.3706,-164.1823,-30.4033,-291.4207,-120.6405,-280.4316,18.2785,-212.3728,118.2849,-247.0268,-36.4594
18.3456,-160.8827,-27.2598,-400.7234,-54.2266,-253.8569,-82.2499,-211.9822,92.5423,-132.5344,28.4076,-206.1307,-63.9671,-270.6052,29.3331,-181.9698,144.9420,-155.7280,22.0862
81.8375,-20.7827,62.6587,-251.5284,36.1554,-145.5908,-17.2659,-140.5851,99.1970,-153.2662,112.2912,-75.0198,1.3682,-196.4381,-15.2120,-150.2678,240.9536,-54.6678,50.6727
152.6118,74.1584,152.6645,-141.4659,106.2316,-80.1100,-34.7631,-129.0338,83.0893,-183.9291,202.4196,-9.4253,33.6887,-167.2162,-75.0747,-136.5717,342.9722,14.1068,40.8203
171.1558,54.5453,173.3525,-105.8346,114.8737,-69.0696,-93.2224,-134.6315,61.7002,-144.6390,235.1415,16.5917,25.6539,-170.6682,-80.1057,-131.9218,339.3307,17.0068,25.4864
155.3144,17.7659,157.1707,-63.2784,111.0636,-57.0130,-79.3850,-90.6938,24.4865,-73.2491,218.4071,85.0309,35.0371,-114.7836,-28.3556,-117.7055,290.2113,-6.9819,35.0760
157.3466,63.8685,173.5815,6.9716,141.7702,-20.0842,-1.3465,-42.8354,-19.5846,-59.4041,225.5479,156.6384,82.6106,-31.0357,24.0518,-115.7234,300.9549,-12.7316,36.9824
143.0443,86.5993,161.3788,-10.9895,131.2413,-42.9812,16.4915,-77.3254,-75.7700,-114.2212,218.5847,90.4950,87.9641,-56.3777,15.5980,-167.5586,277.3139,-56.5528,-19.3134
75.7027,-13.7282,64.5350,-147.3208,37.4285,-160.1706,-34.0089,-165.8761,-125.0516,-172.6068,143.4480,-110.6670,27.3677,-174.6771,-26.1611,-235.4793,137.7869,-162.6599,-89.7772
27.1901,-101.9981,-0.6797,-249.7346,-20.4501,-239.3026,-36.1891,-198.1161,-104.1184,-164.9957,97.6447,-247.6341,1.1741,-214.2019,-2.6218,-240.7733,18.5086,-227.3362,-86.9156
35.1892,-85.7574,26.1301,-235.8721,11.7188,-203.7453,18.3961,-92.9694,-34.3304,-103.6539,124.7856,-216.4769,37.7764,-147.3195,77.1940,-197.0436,8.2079,-210.2866,-32.9809
19.3555,-83.2098,19.6509,-192.2963,18.4648,-148.8952,31.9201,168.4877,-9.7724,-80.4057,109.0086,-130.5410,46.5002,-107.2921,99.4563,-164.6481,20.6656,-194.4904,-13.8388
-32.3505,-119.0909,-41.7008,-155.7828,-23.1050,-116.5718,0.1795,479.6470,-26.8221,-113.5504,58.9174,-84.6242,18.3850,-117.0975,49.3824,-136.5563,31.2742,-189.0299,-26.4465
-23.2787,-88.9553,-17.3527,-83.1006,6.4659,-50.5595,-7.1704,623.4955,-18.5703,-106.6887,115.3083,-55.6455,37.5444,-103.3279,15.8172,-94.7574,91.6456,-127.5135,-13.7725
50.0343,-34.0351,95.2704,-5.3817,112.0150,24.9659,17.2960,542.0334,25.3739,-22.8290,239.9200,-35.0317,103.5713,-83.8597,37.6967,-65.8781,173.7627,-30.1291,30.3763
88.8065,-34.5517,160.4315,37.5355,178.1218,64.1659,44.4616,441.2011,99.3127,65.7554,279.7071,-30.7682,139.8540,-89.5871,85.6049,-49.5673,236.7663,37.5302,78.9980
62.0262,-30.9023,139.0931,71.6225,163.6553,98.3944,55.7232,449.1262,168.4826,113.7557,232.5421,-17.5145,119.5253,-79.2625,104.7536,-21.4530,270.1601,62.7058,98.7181
13.1484,-14.2869,77.1604,82.2040,105.9156,115.9431,31.6733,446.9436,142.5648,127.7533,178.5912,-8.8388,71.8824,-66.0083,55.9644,-4.5844,234.7546,50.2376,66.6277
-21.3608,-41.3995,20.4421,61.9765,57.3658,84.9417,5.1386,378.4376,55.1399,110.9212,141.3107,-32.7543,39.5553,-93.6130,-3.1120,-22.1871,161.3077,22.3958,36.5235
-26.8430,-36.3152,15.4284,85.8430,62.7810,83.3317,41.6688,355.2222,63.8396,86.1650,123.1072,-39.4434,45.6542,-99.2419,17.3798,-35.6954,150.0168,30.1751,74.3381
-28.9844,40.9409,32.1164,120.3040,82.1959,151.1189,99.5998,379.3395,144.2058,82.1915,110.7364,8.9715,57.6756,-28.5047,78.6173,-7.0047,169.6987,66.6186,114.9551
-60.6398,55.4533,-3.0982,46.0571,49.0606,195.8706,88.5653,351.7597,131.5258,89.5322,91.9241,67.7233,44.1838,50.4736,98.5258,45.3270,139.5182,78.2276,81.8712
-77.7921,-2.2178,-31.7139,-37.1777,28.5402,202.1216,55.5039,316.7398,69.5378,106.5898,111.8463,119.8107,43.7748,93.0872,108.3032,77.9652,134.7194,75.3600,59.5994
-32.0648,17.7681,29.4268,29.7132,87.9549,230.5062,82.8044,342.7138,109.8518,140.4820,177.1136,176.9182,76.1456,124.5057,134.9551,68.1301,202.5389,83.2779,112.8443
18.3677,84.4564,86.1774,113.7688,123.2914,224.0555,104.8288,336.0495,190.6414,150.3406,204.7956,184.4973,82.6512,124.8620,109.1002,42.7289,221.8899,68.8838,135.0989
14.7308,63.9276,54.7284,69.7733,69.7302,153.2262,47.7703,257.9743,182.5768,131.3623,181.0572,116.6626,45.8609,90.7992,24.1752,62.8759,163.3719,45.6667,79.5638
-9.7152,7.5632,20.3830,37.8842,32.9424,150.4421,-20.0296,238.5959,141.8476,165.4058,161.2913,57.7134,17.0983,100.0321,-27.7698,139.0817,132.4705,79.2577,55.4718
-37.4455,0.2201,10.2217,93.6616,34.5807,225.1913,-31.6480,284.1038,161.3319,237.5949,116.8938,49.3866,-6.8334,146.8074,-20.1767,186.2384,120.3531,115.7876,86.3203
-83.3545,-14.5562,-49.1566,86.2857,-15.8950,194.8448,-13.9434,224.9595,203.7816,194.3134,31.5103,20.1009,-56.8923,114.1437,1.8846,113.1508,82.0647,36.7437,92.6219
-95.5522,-64.2483,-95.5146,-1.2233,-60.2789,48.0074,16.9394,49.9232,215.7865,18.1676,7.3574,-67.6357,-82.4907,-6.9924,33.5273,-53.8778,100.0684,-104.9800,98.5531
-38.1930,-88.4972,-32.7008,-31.7471,2.4405,-33.2716,59.4336,-66.3840,211.6479,-105.1197,67.5963,-155.4314,-44.5077,-99.5462,77.8338,-185.6796,183.8503,-157.1207,153.4934
6.8920,-71.1508,33.8435,-6.6413,62.3175,-17.3918,58.5755,-69.2306,197.7210,-92.1552,84.2153,-181.4355,-23.9475,-118.7870,79.2510,-208.9413,198.9442,-130.3176,175.4196
-16.0667,-33.4130,-8.5689,0.1883,-0.1855,-14.5196,-17.7132,-50.1093,146.1532,-68.6192,10.9807,-144.6472,-90.2825,-109.7591,-6.6728,-184.9863,126.5594,-143.5093,108.5037
-40.9086,9.2937,-70.5030,-1.8932,-85.0660,-35.8860,-106.4375,-42.9844,64.8427,-110.2691,-55.6772,-97.8601,-175.5742,-88.2068,-128.7042,-175.2856,69.5621,-189.4202,46.3724
-27.4298,22.0448,-65.0107,2.0851,-85.2049,-26.1840,-132.1900,-18.8680,17.0687,-135.4583,-56.0582,-85.4125,-186.3375,-45.4536,-192.8101,-142.1113,42.6889,-174.6199,53.9229
-23.0396,0.1788,-46.5969,24.6795,-51.3182,19.6897,-98.2018,16.1041,33.1319,-103.2601,-22.0375,-85.5880,-136.5794,0.7488,-187.0284,-69.4046,24.3156,-104.0098,65.7830
-37.1088,-8.2601,-46.5778,90.4109,-34.3925,83.2681,-71.1031,39.0203,57.4147,-85.6284,4.2617,-61.9748,-99.4164,34.6301,-186.2961,-23.0881,44.7865,-51.4558,33.2041
-26.5668,14.1450,-28.1976,140.8689,-18.6299,133.6215,-90.5818,48.0307,47.4585,-101.4065,14.6876,-21.6050,-100.3985,68.3027,-215.1571,-12.8935,81.9620,-30.4097,10.2183
-2.2059,47.5033,-6.2088,128.5497,-11.5614,142.3611,-107.7403,55.9005,50.4970,-85.4731,27.0506,32.9672,-107.7315,114.3306,-202.7926,21.7437,82.2197,-11.0138,48.0658
-12.5882,74.1155,-20.5706,140.0497,-26.3446,144.3249,-72.1067,74.7921,101.0154,-42.9730,43.1835,102.8951,-94.9830,155.8242,-116.4390,68.8025,66.0203,8.8775,97.5743
-49.1709,65.9908,-50.8361,203.0159,-43.6573,171.2579,-42.3721,80.3627,143.9595,-41.4912,39.5064,133.8570,-77.8743,157.0589,-32.5622,75.3935,50.8897,19.2554,76.3144
-61.9368,39.2058,-59.4549,213.5102,-57.2839,176.4918,-84.8033,34.1163,130.3115,-63.3638,24.5692,96.1257,-83.3941,118.4264,-28.1662,68.8187,21.7174,28.7255,3.7323
-42.3898,68.6783,-46.1180,174.2828,-68.6592,147.6463,-137.7995,-28.9220,87.2378,-43.7541,29.6365,59.1734,-103.0636,94.9978,-80.5199,88.7285,20.1109,44.5505,-29.1397
-32.0132,125.6785,-36.2248,167.2581,-68.7546,141.3956,-130.8255,-45.2648,58.8301,-1.6493,35.2822,58.9485,-107.6250,114.1116,-112.9299,108.0948,51.9405,51.7220,-25.4006
-56.5529,86.1930,-58.2301,150.0163,-80.1875,144.0960,-119.7394,-38.4594,50.2192,17.4444,10.3493,36.4136,-97.6298,127.6782,-102.2495,118.8217,19.7420,38.4450,-68.5012
-83.7714,-9.3502,-95.7677,94.9505,-118.0598,109.9367,-164.9633,-49.3051,35.7742,36.6054,-11.1166,-10.1610,-95.8309,106.1300,-94.0232,156.9395,-64.1670,34.3145,-146.1250
-69.2738,3.7106,-86.6995,91.6292,-131.3260,88.0884,-221.8583,-49.0281,-1.4612,75.0393,8.4207,-12.3794,-102.3976,87.2648,-109.5849,204.3057,-63.9962,70.5400,-173.8021
-36.7599,90.1253,-44.7299,120.0368,-111.8307,99.0675,-250.1217,-43.7855,-46.3418,93.0910,28.2774,9.9469,-110.6244,74.3299,-117.7690,201.1301,-14.9348,100.8741,-168.3448
-55.6308,75.4270,-75.1190,68.3463,-146.8185,59.2830,-281.0416,-89.4491,-94.4565,75.0100,-13.5087,-11.0600,-138.4950,21.3316,-116.6918,157.8840,-62.7476,64.0755,-207.8717
-124.5876,-8.0118,-180.1298,-4.1817,-242.2230,-17.2494,-321.9798,-145.7809,-174.4994,61.1769,-100.0133,-38.4858,-184.0147,-37.7898,-129.6090,144.7090,-148.9113,13.3163,-273.1564
-165.1723,14.6554,-230.0583,21.4267,-285.6791,-12.4764,-329.8480,-133.5730,-265.2874,73.1277,-149.5963,-9.4649,-203.9554,-19.0213,-129.6745,179.2999,-138.2578,33.2523,-291.2422
-155.6962,122.6440,-198.5370,80.0060,-259.4385,52.7238,-299.6212,-92.8212,-272.4335,96.0583,-132.0555,27.7273,-191.4173,44.0134,-96.8900,217.2565,-88.7807,84.9458,-260.0010
-155.7387,148.6207,-191.3407,76.8500,-251.7052,75.1808,-264.0534,-75.5379,-155.2864,135.9449,-104.0493,19.9398,-185.5881,59.6842,-78.6901,246.9610,-88.0179,103.9806,-211.3143
-178.1655,88.0714,-221.5992,75.1588,-258.0017,87.0806,-213.5363,-33.4558,7.1944,202.5821,-98.5305,34.2373,-180.6519,56.6961,-93.5372,288.2377,-83.9443,123.6641,-142.1318
-174.8485,75.5064,-215.5991,141.2575,-221.2855,139.3645,-128.6690,35.9178,108.0121,241.3663,-90.8159,132.1519,-150.1107,99.4036,-105.4155,303.6295,-53.5823,152.7208,-60.0331
-152.3907,123.1718,-197.1971,208.3118,-192.3208,157.5208,-66.6912,56.8218,110.5416,200.6193,-99.8329,234.1387,-138.4689,137.0132,-121.9866,253.9790,-52.5537,129.3535,-9.6996
-159.2731,133.1398,-226.1141,198.4243,-229.7317,106.8624,-90.0444,44.3475,63.6666,154.0067,-157.5622,236.8154,-183.9871,114.6371,-160.0390,210.8586,-66.9220,76.5366,-7.6263
-178.2669,101.8469,-252.7191,141.7823,-265.8715,65.0723,-142.3066,65.1380,36.2143,192.2817,-193.8451,165.6903,-219.1351,75.2344,-173.9306,237.7293,-50.1823,76.8039,-16.5877
-156.5281,98.0479,-212.3892,116.4074,-224.9303,62.2511,-126.4682,84.8917,35.1176,244.2871,-138.7048,112.1961,-178.5171,46.3811,-148.0195,253.2627,-21.8118,114.6276,-1.8776
-104.3109,115.0863,-140.9421,135.9834,-141.6613,68.2412,-58.6575,64.7542,26.5057,214.2324,-60.1069,112.7049,-106.8854,14.1762,-132.5488,196.5980,-5.8062,135.7446,33.1315
-75.3667,113.4156,-105.5869,153.6665,-93.8304,85.5819,-25.3751,63.8461,1.0838,166.7589,-44.3981,152.8578,-76.5694,16.3483,-136.2370,155.5038,-1.8560,143.8752,62.4506
-86.7265,110.6789,-121.3108,154.0397,-110.1587,109.7876,-53.4509,104.3534,-43.6385,157.9395,-68.6423,201.9406,-96.3089,77.0182,-128.4831,183.9083,-14.1819,141.3247,65.3440
-103.3961,120.0681,-143.3804,166.8506,-139.3710,127.8815,-98.3053,131.1293,-99.5271,121.0076,-73.3469,227.5211,-120.6709,133.0725,-108.2352,219.8083,-11.6565,141.8254,59.3976
-90.2825,115.6689,-111.5872,203.7069,-95.9175,185.0306,-90.7933,155.4645,-104.6431,78.1647,-33.6667,244.6748,-90.7592,154.8422,-70.5734,237.4246,45.4107,202.0822,94.9624
-62.1343,108.7560,-39.7930,255.9792,13.4963,294.0530,6.8830,226.7533,-35.1924,124.0306,36.8816,298.9402,-4.6505,191.4657,-8.2497,248.1095,123.5416,288.3398,176.1403
-49.5246,144.3622,0.9947,317.5908,84.4386,359.4376,128.9051,290.8476,21.0356,169.4334,83.6612,362.5198,58.8741,247.0703,38.9748,214.9074,180.6638,282.2060,230.1459
-34.4185,209.2574,13.2975,357.1103,82.1269,324.7959,159.1610,266.1063,15.0666,92.3128,75.3481,359.2633,50.0777,269.4322,47.9553,141.1289,233.1092,194.5733,212.5581
1.1653,227.7121,42.1289,334.6789,70.6416,255.8332,95.8261,183.6490,10.7658,6.2689,55.2358,295.4645,12.8697,237.9892,56.8450,90.3409,276.8870,137.7523,180.0258
15.5277,160.2393,56.5938,267.9171,76.0614,213.4297,47.9939,119.4318,35.0358,29.6242,64.3798,233.9221,-0.5304,165.2373,82.0493,62.9054,281.4585,127.1749,191.7733
-2.2135,66.9843,39.6581,213.5712,84.0788,190.9824,63.3033,86.3193,49.5723,72.9281,95.3757,181.0310,22.3100,86.5171,97.6738,37.4559,263.8719,128.9598,206.0941
8.0989,35.7602,57.4631,197.3773,104.5974,170.6223,83.4815,61.8050,48.1614,71.9583,132.0073,116.7385,73.7457,53.5476,92.8883,51.3068,239.5894,153.2668,148.6151
46.0712,62.4218,102.6177,206.1973,118.3500,142.0112,60.4224,32.3546,23.5631,72.6948,148.1509,63.0365,108.5884,60.4941,72.0947,90.1466,189.5818,171.3881,42.1687
47.3735,82.9659,95.7268,220.2013,94.2140,113.1252,25.9503,3.2547,-34.0512,56.8493,135.3761,48.2264,91.7352,59.6613,57.6994,81.7594,146.6214,142.5154,-5.4983
34.1108,92.3920,77.8853,231.5487,88.5855,117.9087,40.9836,9.7276,-61.2469,5.2205,150.2247,69.6200,81.5529,66.8779,84.6055,50.1089,174.5409,123.0897,50.9962
67.6603,112.3125,129.1880,241.6076,154.0184,158.1193,100.9196,65.7990,-37.3901,-18.8137,211.0758,107.2512,131.6964,107.6893,118.9930,59.5993,256.6479,166.9205,130.6210
107.7141,115.5011,185.0753,251.0814,221.7957,198.5345,133.0386,116.4055,-65.5863,-27.9504,238.9190,143.2670,180.8573,131.9886,88.1366,76.2893,319.4127,227.8455,152.1651
102.0937,92.5881,177.3212,270.2069,232.4418,238.6371,112.6207,124.3971,-152.0704,-81.2541,214.4152,185.1959,177.4033,123.5673,26.1028,61.4194,326.9817,260.6599,137.0155
88.6323,69.2857,162.5574,310.0686,228.1126,280.6190,96.1879,127.8004,-153.5111,-105.8913,206.3419,241.9767,168.5917,138.6998,23.4647,50.0657,297.8708,260.1545,124.7582
91.1822,29.3268,165.8067,340.9211,225.2063,270.8496,106.5137,137.0397,-51.5346,-33.4439,211.6965,267.0247,176.8924,162.6633,66.3184,53.8862,261.1263,213.7017,104.2543
85.1904,-14.8309,147.2627,331.2429,190.9801,194.2237,103.2079,111.4717,30.0615,53.5987,193.0439,218.4547,163.5680,134.9357,87.2661,53.1449,212.7520,148.1436,81.3316
89.2766,28.7111,139.0334,320.4403,151.9327,129.5688,72.2426,69.4316,60.6174,97.2319,190.3555,154.1290,128.8871,94.7743,76.9578,62.4308,168.5055,123.7944,79.4141
123.9856,144.6790,176.7810,338.2001,146.5335,120.6532,30.2395,54.3991,78.0828,131.2453,214.7602,144.4527,100.9159,100.5054,48.2235,88.4143,216.4570,135.9666,67.3405
144.3470,181.4086,197.3751,326.5564,142.1352,120.6606,-16.5069,30.6355,72.6517,138.5604,210.2629,158.0010,83.3575,109.0112,15.4156,109.6292,298.3740,148.5199,17.3991
129.3768,109.6687,166.8723,266.9082,115.2506,100.0373,-47.8179,-31.4313,59.2802,86.5103,188.0542,136.9426,88.9253,71.7308,13.5223,117.5986,79.5244,162.2098,-30.1991
117.6468,40.9444,137.6450,230.4016,93.4753,73.1684,-47.4227,-81.6229,66.9378,18.5478,191.6640,84.7985,124.8984,7.0378,40.2001,95.5874,-549.9462,158.2191,-59.3607
114.8543,7.0994,122.1466,221.8783,76.4044,34.6549,-46.2811,-102.8367,53.9083,-26.6170,195.3304,31.0936,152.0501,-57.1903,55.0617,40.0563,-1100.1288,111.4112,-107.2616
98.5624,-9.4582,92.8818,183.1652,40.0524,-16.4791,-66.3269,-132.7969,12.2830,-47.1423,187.9764,3.4301,143.1120,-87.5086,61.4178,18.2167,-1125.7516,67.5934,-162.1476
83.2416,31.0078,69.4751,141.2481,0.4964,-43.6326,-83.6489,-155.3914,6.8765,-35.1733,194.6260,11.8746,116.0899,-54.5765,73.9057,60.4999,-866.5788,60.1653,-179.5886
79.9422,100.1088,67.3753,137.2977,-17.4944,-37.7124,-90.0789,-137.4860,17.2350,-14.2764,182.4093,13.2355,83.2211,-5.5429,61.2668,81.0554,-751.4852,41.2575,-173.2254
64.9710,83.5400,52.4813,113.4397,-26.0031,-43.1580,-103.6254,-116.5176,-25.0929,-16.3369,131.8425,-36.7430,50.4535,-16.8958,19.9267,39.4366,-767.6254,-4.9361,-173.6853
33.8023,-27.7809,11.8796,33.4730,-43.4537,-84.8330,-123.3397,-131.4172,-71.2586,-16.1048,105.6619,-113.4921,33.6229,-83.4852,-4.4007,4.0286,-732.6913,-35.8356,-169.3661
8.9407,-136.8622,-25.2829,-41.5776,-58.7871,-130.4916,-126.2153,-156.3843,-54.7454,-12.2186,117.0332,-173.9073,29.2516,-144.3289,-7.0855,-6.2137,-659.3864,-47.7190,-134.5096
1.4870,-178.6575,-32.9090,-60.9064,-39.2815,-126.5018,-76.2523,-142.5419,-12.1744,-42.4513,112.3154,-193.5945,35.6981,-149.8738,-14.7862,-20.5414,-581.3690,-41.0992,-52.2883
11.6754,-120.5045,-0.2429,-21.1217,24.1616,-47.4351,32.0060,-64.2972,35.2808,-52.6040,107.5196,-143.0034,70.8124,-86.8690,-13.9023,-7.9696,-462.0247,18.7169,53.5847
27.1750,15.1324,48.6939,52.5074,80.6218,57.2919,118.7481,33.2382,105.4263,19.5300,135.3332,-48.8312,106.4443,-22.2028,13.1949,27.8466,-349.7497,93.9511,107.2450
17.2192,88.7203,52.0845,84.4366,75.7361,92.5069,121.8303,54.2275,145.4315,80.0273,136.8562,-11.4206,92.4562,-40.9934,44.2710,9.0211,-320.6266,94.7270,91.6186
-27.4069,5.7102,-9.7205,34.3164,29.5929,47.6008,104.7805,-1.6153,115.3063,51.7647,72.9490,-50.0360,59.2771,-94.8501,54.2191,-39.1072,-348.9842,43.3307,76.5411
-77.7090,-124.6859,-83.3789,-19.5757,-15.0593,14.7330,106.0966,-39.7884,72.6764,26.7848,5.3689,-73.0563,51.7625,-79.2071,35.2238,-15.0031,-382.3286,22.4318,54.6221
-107.9316,-172.5813,-126.9942,-18.6484,-64.5144,20.3865,44.2626,-62.9011,30.9243,41.7571,-19.9559,-59.2296,28.7671,-31.8870,-5.9366,36.2284,-389.6170,5.9781,-46.1796
-109.8340,-174.2534,-141.6005,-25.8237,-114.8233,-14.8080,-80.9930,-142.1590,-60.0127,-11.1130,-26.9833,-82.9840,-32.4566,-49.3000,-38.2997,-4.4895,-330.5140,-67.6557,-163.4527
-84.8155,-197.7985,-127.8510,-86.5407,-122.7272,-98.9712,-147.6954,-226.6279,-150.6388,-129.8564,-34.7508,-159.3507,-70.9060,-110.8875,-43.5512,-102.5656,-232.2294,-149.2262,-180.5969
-59.0967,-211.8858,-99.8962,-146.9460,-96.2180,-139.8044,-142.1084,-227.0056,-158.8170,-177.5566,-36.6688,-229.0381,-69.6229,-157.2628,-53.1212,-144.0998,-188.8079,-159.8850,-137.1887
-57.4422,-177.3101,-90.6013,-153.1551,-87.9086,-117.3713,-146.3864,-179.2626,-140.4239,-136.0830,-28.6030,-252.9914,-76.3858,-182.6655,-91.9138,-122.2746,-184.4464,-118.0745,-115.4536
-55.8752,-114.0182,-88.5273,-107.7511,-89.2728,-97.9557,-149.1524,-142.8259,-170.7882,-108.0981,-11.4701,-229.5554,-88.3969,-172.9449,-131.8232,-100.2606,-114.4999,-90.4944,-91.5698
-33.8991,-64.7366,-68.1041,-55.1647,-72.6747,-100.8365,-122.0846,-110.8404,-196.6737,-120.7064,-4.9964,-185.0837,-84.2156,-126.6457,-150.0488,-102.7178,-15.3196,-101.8799,-60.4264
-39.6885,-85.6112,-81.8409,-59.5148,-85.5809,-103.5876,-123.6352,-89.3800,-166.3956,-130.0650,-47.1593,-159.0833,-102.6637,-104.7511,-167.0434,-110.9296,-20.7301,-134.2104,-67.0067
-106.9240,-184.6202,-172.2371,-119.8544,-153.8016,-99.3984,-157.7871,-85.5588,-128.2582,-129.8008,-128.5255,-148.5798,-156.1433,-122.8598,-189.0242,-100.4122,-99.2172,-153.4473,-73.7015
-164.8687,-232.2282,-241.1249,-139.3547,-192.6243,-69.4272,-146.9940,-65.1252,-112.6916,-129.7280,-167.6604,-117.5002,-179.3468,-115.9387,-181.1811,-74.9319,-99.0875,-133.3719,-34.7906
-137.8829,-119.7469,-189.0067,-69.0065,-149.4747,-14.9368,-99.2915,-33.1620,-87.3432,-108.9296,-117.0630,-66.2629,-143.9503,-67.0201,-129.7017,-52.8276,-14.0102,-86.7077,-12.9167
-67.1249,14.4466,-92.2690,8.4482,-95.9191,4.5884,-86.7884,-28.0013,-54.0885,-52.1199,-41.4643,-18.1317,-98.7723,-12.4912,-75.5059,-13.7255,49.2228,-49.0858,-38.9856
-30.9052,-12.8234,-57.4240,20.6524,-74.9736,-9.8417,-99.3582,-23.5146,-54.0714,15.8943,-11.9160,26.2249,-70.1771,47.7686,-60.2539,61.6744,90.7626,-18.9046,-36.0133
-21.0926,-99.8920,-40.0371,18.9110,-28.7883,37.9518,-84.6899,21.0216,-78.3975,59.5064,3.0232,70.3280,-35.8506,114.4790,-76.9926,126.7172,173.9722,41.3334,17.3835
