Fp1,Fp2,F3,F4,C3,C4,P3,P4,O1,O2,F7,F8,T7,T8,P7,P8,Fz,Cz,Pz
-48.8101,-21.6568,43.2138,-21.7286,-7.1750,-109.4870,-84.6517,-120.6531,-44.2817,-164.0006,10.4343,-1.0510,-42.8925,-38.0998,-78.8299,-15.8066,24.7332,-110.7256,-48.4785
-44.7857,-90.0686,-9.5847,-136.7625,-91.6327,-147.6657,-27.1726,-10.2036,70.7482,123.9821,-79.2388,-113.8175,-127.9709,-108.4789,-109.1189,-35.3777,-99.5039,-143.9516,22.0908
-29.7887,-75.4042,-14.8566,-129.4552,-41.7962,-19.5945,162.8501,137.2728,212.4264,321.4938,-50.9719,-135.4347,-68.5858,-109.1702,-30.0533,-55.7583,-87.5929,-12.3016,175.3210
9.8187,-0.3773,26.9055,-21.4626,97.5674,132.9938,257.3849,174.8500,209.4530,246.9670,61.0369,-34.4085,82.7854,8.7922,85.3595,-8.3854,34.7356,140.1748,229.3493
65.8608,1.0407,74.9026,4.8848,182.5015,128.6255,179.1326,120.0830,119.2464,117.8063,97.1547,39.3629,122.0645,140.3725,92.7305,79.4376,109.7560,145.5126,188.3612
102.0090,-43.8676,104.5768,-23.2401,191.4293,74.3524,107.4388,90.0738,94.3118,97.8149,59.8572,39.8870,69.8923,174.6057,48.6612,110.3802,114.2801,111.6496,177.0907
93.1384,-16.2644,112.7628,29.3801,160.0906,108.1340,80.8305,91.7514,77.3700,105.8525,48.5420,43.8596,64.4273,112.4035,55.6806,76.5555,116.0849,155.7221,142.8647
38.5630,50.1311,115.4827,106.3747,108.3310,159.6828,15.6294,94.2767,7.3277,132.0416,50.8054,63.2065,75.0394,53.2395,53.2158,72.4782,124.6700,197.7673,46.0009
-51.8668,47.8623,97.1840,90.2329,68.6048,123.5498,-35.6423,82.2153,-11.7654,179.5043,3.8644,64.7417,24.5742,66.9515,-11.7237,113.5721,103.6501,143.4519,-0.3391
-116.9013,-12.3615,52.5564,14.1612,54.9771,-9.5361,-22.7690,-17.7089,27.0913,115.8481,-50.6138,42.7154,-36.7371,73.7801,-67.0321,81.8730,62.8182,-2.5350,7.0971
-56.8431,-31.7418,82.0920,-16.8913,64.7813,-136.9084,10.5644,-165.3836,25.7907,-7.4473,2.6383,5.9443,-28.3695,-8.7201,-60.4104,-43.6847,80.1140,-132.1594,-4.1267
91.3507,37.2254,195.3063,40.9040,95.3634,-82.5933,79.2053,-139.2546,27.9216,47.1185,157.4295,-4.2066,48.9571,-77.2264,-13.6266,-94.7201,157.8261,-82.8452,29.6514
120.1417,112.8229,176.6697,111.1295,100.1348,123.3556,182.1039,65.5771,98.5341,216.0108,219.4824,27.4238,117.0260,-40.3932,38.8649,-11.5688,151.8265,101.4186,119.0871
-38.1418,78.5039,-12.2362,61.7833,65.1187,189.1286,226.3343,153.3724,160.5414,210.0744,101.2830,19.7653,115.8067,-7.2109,70.9506,32.1067,30.1640,155.1027,138.3768
-165.3026,-20.1748,-87.1291,-73.8975,69.2055,42.1753,201.5686,36.4948,158.4396,20.2773,12.2193,-49.5316,95.7712,-46.9549,82.3695,-40.1747,-18.2168,37.1844,82.4845
-118.3713,-44.0530,17.0758,-114.0675,100.8604,-62.0375,149.4989,-74.8592,108.7942,-136.3355,70.5014,-75.3969,87.6138,-74.9262,60.5449,-96.2105,65.0373,-29.4541,24.2859
-48.5807,-13.1010,60.4372,-41.3054,53.9466,-46.4729,31.0341,-109.7036,3.9712,-176.3082,74.5320,-40.4316,3.9798,-82.2680,-39.0787,-90.7680,116.2899,-14.6071,-59.8462
-66.0429,-18.7975,34.2376,9.1920,-10.1732,-58.9086,-116.9633,-155.0919,-120.4686,-166.8094,-33.0343,-24.5684,-112.8283,-110.7507,-146.8176,-94.5432,108.4246,-45.6003,-145.2213
-70.0750,-20.8146,93.4690,20.7400,32.5010,-99.7889,-173.6525,-198.1272,-190.8090,-182.2489,-39.9834,-12.5089,-80.6160,-93.6240,-116.8703,-90.4305,143.9243,-86.0168,-156.1192
-57.9429,-15.9563,147.1043,12.7434,87.5813,-137.0598,-176.6185,-222.1309,-205.5376,-217.6356,-0.7667,4.9622,4.0863,-42.8263,-32.7039,-67.2847,163.2601,-111.0070,-150.2213
-143.6951,-108.1922,87.7016,-82.7273,33.1919,-257.4049,-223.1449,-269.0698,-172.0103,-191.3159,-157.0510,-62.0206,-112.7042,-97.2080,-96.3121,-96.4652,72.6356,-219.6510,-179.3258
-230.8143,-216.7685,-1.7507,-206.5744,-76.7363,-374.3014,-265.0878,-268.6790,-105.5104,-112.4938,-339.8900,-168.8966,-286.0703,-206.3315,-208.9097,-133.5929,-70.1374,-335.7449,-184.1450
-144.5149,-150.9629,-121.3175,-198.6735,-203.2855,-304.7401,-262.0203,-157.3065,-115.8422,-96.5635,-245.5640,-156.6859,-217.3560,-185.3931,-152.0046,-78.6323,-213.0838,-303.0992,-192.9274
20.3481,2.0505,-280.1052,-106.0565,-334.2185,-173.3227,-249.4195,-70.9794,-205.6445,-116.9739,-36.6153,-62.6739,-44.4990,-71.9907,-23.2030,-12.6221,-328.8962,-226.9522,-256.4894
96.5838,40.4472,-297.2109,-67.6876,-357.1834,-178.7728,-210.6709,-107.1703,-199.5722,-56.5718,16.9015,-23.8993,-31.2471,-18.0436,-14.6763,-25.2849,-323.9833,-241.0416,-277.1489
118.5293,17.3474,-163.6444,-46.6607,-270.2917,-206.9122,-164.0162,-148.1067,-114.4240,13.0819,5.2819,-13.2420,-81.1342,-13.4180,-61.2426,-30.1710,-220.2004,-238.5488,-227.2262
132.7466,43.8675,-114.3977,4.3452,-214.4696,-123.9779,-168.5482,-107.1885,-134.2592,-19.3742,45.7137,18.5556,-35.9637,1.5773,-38.1311,2.0443,-157.7351,-146.9481,-202.4712
109.6427,64.2382,-117.8039,29.2608,-148.3494,-22.4382,-130.1066,-41.5862,-175.0143,-58.0318,69.0498,27.7128,50.7033,23.3225,45.6864,-10.2012,-105.5465,-45.2021,-153.5587
104.4908,63.3328,14.2478,57.0258,25.3541,48.3925,19.1309,14.8843,-77.1182,-3.9050,78.6151,38.1813,130.0507,66.2710,150.4613,-21.5970,26.2261,53.6345,-22.3347
142.3821,96.9058,130.0066,129.8337,137.0197,126.8972,96.1187,64.8750,0.2404,75.5415,107.3349,84.4624,185.8606,106.5088,207.8765,34.1455,110.9697,145.4564,40.4633
111.7437,101.2607,51.8586,137.8711,65.4809,148.4019,16.8513,73.9709,-63.6292,105.3844,73.8872,77.6727,144.3372,61.7931,145.6234,51.2896,55.0221,142.6253,-13.4859
17.4152,33.5774,-29.1938,51.5262,5.7784,85.2112,-23.7097,38.5455,-86.7783,71.4469,-4.4059,1.9735,53.5864,-30.1078,55.5532,-19.1840,8.5015,74.7849,-27.3855
-4.5017,10.7169,17.4313,29.3659,55.5396,48.9606,29.4030,0.0618,-24.7446,-9.9126,-7.8642,-14.6012,58.4633,-53.6871,78.3009,-59.3025,44.7839,62.6506,-9.0875
25.0200,62.5503,27.6010,95.6591,60.9347,62.0578,34.3363,-30.9276,-35.1736,-66.0978,19.4402,34.6663,120.6354,-30.0371,156.9730,-55.4845,44.6971,77.5020,-62.1431
14.9648,60.6023,-37.5546,97.4825,10.8867,45.3183,30.6697,-47.4230,-49.9591,-58.1379,-12.7221,33.1483,111.1004,-34.9805,172.4389,-98.7141,-4.5713,56.0388,-70.0740
12.0236,-9.7204,-44.7176,22.7805,29.9124,27.1675,118.0974,-16.1186,65.0311,-30.3148,-37.5354,-13.9412,56.0296,-43.8211,135.3772,-137.5588,-7.6856,62.5265,48.6314
29.8770,-33.1920,-19.7559,-9.9401,61.3437,65.5781,158.9024,49.9083,140.4834,15.7745,-17.5673,-27.3905,24.5867,-30.7210,78.0545,-77.4366,10.3731,105.0336,109.9382
3.9665,14.2473,-40.9247,19.9602,13.5642,111.7451,55.8024,97.0434,34.1663,93.4813,-12.2459,-4.9900,13.7187,-8.5556,17.4437,24.6615,-6.9964,104.0852,28.0329
-4.3283,68.4959,-32.8271,68.0988,-17.4177,131.3799,-18.2072,115.5083,-64.5344,138.3139,0.9273,37.8862,39.1209,53.7105,27.9521,79.0428,-3.8598,98.5199,-27.7079
59.7704,84.2698,34.8520,101.6509,31.0824,136.6256,32.6281,108.9346,-24.7957,127.1083,44.5399,77.1360,88.0975,125.7653,102.8376,66.0427,49.5825,140.9782,11.4422
81.4559,45.2214,58.7195,70.1714,51.0133,86.5100,52.7359,46.2339,-3.4844,90.4578,44.7605,40.6242,74.9386,71.5451,106.4678,-20.9762,80.2681,128.2214,17.0470
35.8789,-7.0466,28.2538,-5.4747,-2.3108,-14.6387,-26.3546,-53.9675,-79.6697,5.1441,20.3796,-51.7734,13.1104,-92.9271,25.1924,-130.3733,60.1976,23.5483,-51.6292
45.5646,-8.4513,31.9037,-21.3234,-32.8492,-57.0109,-64.2820,-95.2299,-102.7131,-72.5600,52.0935,-75.1813,0.8099,-164.9584,-12.7913,-148.8563,40.4931,-32.3494,-79.4653
95.3287,2.9056,60.4853,6.6179,-7.6031,-22.5188,-4.5378,-41.2289,-4.5756,-6.1613,68.9119,-35.3028,4.8823,-102.3609,-5.1718,-75.9273,29.3622,0.2308,-8.1847
106.1803,-38.2608,57.0875,-24.3723,9.3902,-6.5687,51.1073,31.1907,98.1261,127.2356,10.3411,-46.3267,-54.6496,-66.4218,-45.2639,-21.0710,1.2186,15.0723,77.5677
123.4734,-72.2917,46.4595,-60.7794,11.4817,-0.8419,72.4006,66.8564,143.0189,154.5779,-23.3671,-76.1842,-113.9559,-83.7153,-100.4064,-1.6882,-15.2280,13.3682,107.3970
123.6552,-40.8536,41.7862,-2.6220,36.8978,70.3662,118.2548,104.6234,181.6915,153.0519,-20.4382,-23.5171,-106.2977,-28.8358,-94.8713,41.9914,2.5166,70.9068,140.1853
15.8821,-12.1618,1.5618,64.9489,58.4739,161.1214,169.9194,177.9147,219.4312,231.8875,-73.9610,52.9342,-86.0374,87.6469,-61.6634,91.3607,8.7813,147.7742,229.1357
-76.8516,-20.4610,-38.9598,49.6835,47.6427,192.2979,175.4998,245.8951,213.7508,278.6387,-115.3814,58.9122,-77.4172,145.0774,-43.2154,106.7715,-9.8985,174.2852,294.5436
-10.2302,-6.8727,-12.2966,30.9522,49.8756,193.0290,161.8947,266.0224,181.9735,242.2987,-55.9027,44.3019,-44.2128,145.3054,-23.7947,127.6461,-6.6169,170.4095,272.0772
71.1183,22.0930,28.5131,55.7473,82.9509,205.1789,161.6885,262.1430,162.4688,224.0849,-3.8597,63.5688,-7.6249,163.8494,-3.5192,169.5502,14.7377,167.8289,242.8274
25.8940,19.8481,24.3545,52.9301,102.3984,211.5183,170.6866,271.4270,153.1368,218.4545,-14.1950,69.6834,14.8118,188.0021,19.4666,167.8896,24.6394,171.1916,271.1571
-38.8509,23.2348,33.3731,27.4511,104.7735,203.6221,194.4367,273.6836,151.8431,184.9207,12.3457,50.0965,60.7920,179.4200,67.9048,119.2938,46.5607,183.7486,282.2682
-51.6260,58.0257,64.5941,45.9991,101.7057,184.8712,200.8986,236.5028,156.5706,192.8014,52.4242,58.7354,101.1404,166.1238,101.9794,110.5606,64.0366,175.1878,220.3385
-72.4739,71.8900,43.5093,75.9682,63.8089,148.5988,148.6905,188.3120,147.9214,238.0714,17.4226,86.8396,77.2586,165.1059,75.5444,147.3130,20.3861,125.5681,153.4217
-76.9761,57.1916,14.5127,65.7807,27.3692,119.1970,110.4519,167.5138,137.3011,231.0326,-11.8118,76.7267,51.6302,137.1600,58.4009,139.8443,-21.8384,97.0628,129.7501
-23.2186,59.1842,66.2210,55.4854,72.7142,123.7974,140.2930,151.4237,136.8074,186.4456,29.4135,43.8653,92.3635,84.0924,107.1906,93.8001,27.0563,126.1245,97.5365
12.0361,72.7397,130.0417,78.5413,143.9975,133.2281,131.8237,116.8323,104.4262,144.3215,52.3694,53.0501,130.0534,79.7648,136.0280,105.9389,94.4594,143.8609,43.4209
7.1306,69.6792,128.1747,94.8032,140.2231,113.3972,56.1446,88.4022,44.8288,77.2499,46.1246,93.9613,110.2473,135.6906,93.7548,152.9515,96.1809,110.1988,39.8513
57.4459,45.8225,111.8653,61.8791,115.1736,77.3003,53.2292,71.7870,37.5927,15.4921,81.6408,82.6397,94.1373,143.6856,70.6499,118.2490,82.5181,77.1545,87.4292
151.4515,7.0710,110.6082,1.4794,144.7838,61.7199,126.8651,60.1092,79.5651,30.8753,114.2460,9.9038,115.3369,63.4016,109.4631,34.0355,86.9185,87.6668,102.6147
146.9364,0.8528,109.6253,-0.8824,166.3356,99.6200,134.3596,93.0167,89.9963,109.4473,93.1246,-9.9626,128.6139,31.1379,127.9188,44.0144,87.7693,135.4653,91.6688
24.9734,65.3846,129.0953,85.4378,110.1037,158.1597,68.1319,157.5942,57.3249,176.2565,74.7647,69.8056,97.8808,113.3500,70.8967,130.1444,99.3591,167.9128,108.1269
-40.5734,112.4116,128.2484,130.2834,6.2848,129.9784,4.9041,145.1922,9.9741,162.7216,78.9968,114.6072,26.9326,155.6052,-19.3039,136.7650,92.4968,108.0739,94.4849
54.6942,58.9131,53.1123,34.6299,-72.1011,11.4066,-38.2820,54.8907,-34.6027,79.2466,82.3743,38.8548,-24.0714,79.5174,-55.8995,54.0824,16.0913,-6.9392,12.7342
155.5613,3.5543,-10.3036,-64.6096,-78.3152,-49.1654,-42.2091,21.5545,-39.5059,41.1151,98.5505,-31.9252,17.3119,29.4528,7.2656,21.4739,-58.0170,-38.9594,-45.7593
83.2385,35.6966,-25.1432,-39.6959,-68.9869,-17.9821,-38.9502,51.7980,-35.7277,74.3886,87.3559,-7.0238,89.8806,53.4848,86.3644,65.1908,-84.3932,-11.1724,-67.3785
-44.6839,58.2709,-104.7172,-9.1339,-135.3232,-32.6095,-108.2980,27.0224,-101.7970,53.5319,5.9775,12.4173,65.6779,34.3416,64.0232,75.1942,-150.2538,-71.7001,-127.9310
-5.4200,4.5727,-202.4445,-64.9120,-195.4825,-102.5215,-157.4012,-36.8378,-151.1044,-17.4080,-46.4757,-25.0366,-19.0974,-1.6017,-12.3226,29.6201,-216.1781,-161.3850,-163.9124
117.0487,-35.5516,-162.7982,-87.1096,-130.7366,-92.8600,-73.9088,-37.4739,-64.7910,2.1773,-25.4606,-26.5579,-61.5020,49.7744,-41.3250,22.8259,-153.0506,-115.8822,-110.6427
66.6526,-23.1430,-103.5044,-32.8180,-74.8583,-18.9326,-22.0957,6.4479,20.3529,80.1509,-71.7157,13.7222,-106.6999,95.6610,-75.4818,72.0590,-76.5514,-21.6737,-91.6188
-133.1989,-31.0205,-185.7759,-34.4907,-153.5923,-18.7636,-106.7147,20.1366,-25.8786,85.9587,-198.5635,-2.3461,-182.4018,32.4110,-150.7795,80.4120,-141.5009,-55.1152,-134.8281
-226.3213,-83.4372,-244.2708,-122.6462,-182.2456,-100.8310,-118.5194,-13.1993,-52.2160,30.7042,-225.3733,-74.8319,-172.6476,-54.9859,-145.3436,0.8085,-203.2599,-153.7757,-90.3382
-139.1080,-139.2028,-147.9127,-192.3366,-49.4415,-171.1749,-7.3036,-83.8049,16.6004,-46.4113,-142.8931,-135.5926,-77.9420,-116.3978,-45.6276,-102.5590,-131.1471,-180.5152,-0.0494
-37.5819,-167.4139,-65.6972,-202.3969,37.6324,-184.9924,7.4083,-142.1067,17.6786,-137.8882,-108.7864,-168.2154,-56.4749,-184.2132,-16.8162,-157.5295,-53.6425,-153.8504,-23.3768
-29.3483,-144.7701,-67.7641,-168.0006,-10.0735,-142.8409,-58.4662,-114.3159,-49.6477,-152.1304,-121.7921,-155.1243,-117.3745,-179.7341,-84.5460,-144.0209,-34.5569,-120.8549,-66.6097
-59.8784,-79.8668,-30.2502,-98.9512,-35.5952,-72.7601,-30.7513,-30.9240,-23.3486,-61.3225,-89.5467,-84.6493,-136.3051,-66.4186,-121.2678,-74.4104,4.1506,-71.6230,-11.8668
-81.3051,-36.4644,13.5920,-53.6470,-22.0297,-37.4199,0.9123,-1.9027,33.8705,-12.4779,-51.3309,-34.7758,-116.2886,-10.6545,-120.6700,-6.9956,29.2803,-37.4507,-1.8049
-107.1355,-47.5729,-37.1053,-75.6947,-60.2552,-64.6186,-78.8409,-57.4416,-31.0322,-78.2533,-58.3561,-63.0738,-117.9320,-90.4629,-140.3913,-26.3129,-4.9622,-60.1339,-102.1674
-100.9909,-69.0741,-79.0102,-100.2093,-73.3692,-111.1975,-134.5695,-138.8872,-131.1128,-160.8731,-48.2425,-97.0671,-91.9244,-159.7206,-123.1199,-116.6168,-9.7117,-102.3541,-144.1980
-24.8888,-60.1430,-16.1665,-75.0284,7.2959,-128.9018,-81.6091,-178.1148,-120.4525,-176.8209,12.0301,-74.0032,-2.8896,-133.0939,-31.8363,-142.7570,32.7636,-113.3359,-84.9935
30.4829,-35.2216,37.2197,-50.6682,64.6169,-117.0688,-28.7594,-146.1335,-46.2851,-121.5030,48.2022,-35.4535,64.3948,-71.4448,37.2006,-53.0768,22.0677,-107.9768,-54.0264
-5.6573,-23.6464,-14.2176,-55.8701,12.3363,-114.2181,-50.5926,-105.6685,-30.9892,-62.8905,16.0434,-16.4838,39.1094,-22.9314,10.9859,26.4149,-46.2278,-128.7559,-78.3060
-17.4878,-22.7575,-88.9092,-49.1805,-91.3599,-144.8021,-129.6972,-137.2371,-104.0233,-101.7765,-12.0606,-5.5873,-36.8353,-16.4923,-66.7266,-1.3809,-92.4119,-177.3295,-113.1665
71.8146,-6.0727,-88.3052,-19.3110,-165.8437,-168.0188,-207.2572,-187.9858,-186.1418,-188.3805,30.3132,-3.6196,-81.4607,-61.4136,-119.4690,-60.9519,-91.0883,-198.6028,-159.5183
122.4623,26.6398,-32.9291,13.8554,-159.0451,-127.5293,-197.7305,-160.3475,-176.2535,-163.6985,72.2981,-0.7847,-65.1292,-81.9268,-103.5354,-54.9955,-57.0141,-144.2535,-183.1113
51.6566,49.4846,-4.3030,57.6241,-78.8547,-34.8347,-109.2710,-76.5008,-87.6756,-44.5102,26.9037,32.2234,-13.2088,-27.7409,-24.7938,6.0226,-26.0892,-41.6650,-142.1728
2.0727,68.8132,-17.7587,107.1556,-5.3276,69.0300,-31.9508,18.2680,-16.4449,45.9753,-25.5555,77.2949,54.7394,40.6288,72.9453,80.3119,-35.1376,57.6620,-78.6382
72.8256,101.9019,-1.5443,128.4185,42.9252,174.8372,43.3512,139.9392,31.3478,121.9647,28.2082,92.7306,137.4760,89.5261,156.8795,149.1642,-36.1436,158.1747,-15.9335
159.4225,112.8601,72.0914,119.4680,123.3505,258.9729,145.3754,243.1148,95.6553,205.6268,115.8571,86.9762,198.8156,140.7420,206.0356,180.6952,34.9690,261.2607,77.6809
144.1164,74.4705,121.4659,104.5196,189.8178,263.2920,170.1164,234.0728,115.9605,207.5614,112.4288,79.9935,186.9097,151.8084,188.2360,149.3163,112.1404,296.3005,148.4270
49.2860,35.4521,88.3482,87.2121,136.5750,174.9489,66.8851,126.2191,41.5073,114.0717,45.1931,60.5070,115.4474,80.9694,114.2899,73.5515,99.8192,214.2307,100.4521
-20.1832,30.9656,28.4573,70.0796,15.4787,60.9616,-38.2444,15.2056,-39.7331,21.9340,-4.4687,34.1343,43.1001,-3.4264,50.4676,-2.9985,33.6841,85.1300,-13.0917
-11.0737,23.8112,4.1791,57.2703,-38.4278,-1.7785,-58.1924,-34.4387,-42.6052,-11.1471,-28.6146,20.5887,-6.0169,-34.1432,16.4855,-33.6830,-7.4527,11.6120,-53.4660
20.2934,-8.4719,-8.2549,24.4205,-27.3665,-5.2796,-40.4954,-13.3745,-4.7424,21.6632,-42.8546,1.7145,-41.3463,-39.0822,-26.0393,-6.0187,-28.7991,-2.9536,-13.8524
13.4123,-38.5873,-48.8630,-34.2781,-38.3827,-2.8217,-26.8267,32.2969,16.3424,91.7323,-58.2279,-36.7500,-71.6278,-47.5511,-71.5814,25.7421,-65.1333,-19.1221,9.9468
-8.3981,-52.4984,-93.5589,-73.4818,-77.5339,-15.5458,-11.5512,59.6407,30.7992,143.3648,-86.5841,-60.7587,-101.3638,-36.3538,-87.2721,21.5218,-102.9938,-38.7751,12.9908
-34.8037,-64.8442,-108.6722,-82.4808,-99.0816,-6.9377,10.4813,97.5844,66.6480,177.3705,-112.6434,-58.1711,-131.6274,-3.4329,-99.7685,16.5795,-115.0113,-22.3899,67.7690
-103.0883,-92.6940,-126.2499,-110.7137,-103.3413,11.0417,41.5181,147.0259,116.6989,203.2885,-136.5319,-70.4871,-165.4883,3.7640,-139.3459,16.7729,-119.9846,-3.8084,157.4041
-178.6229,-139.0893,-178.1890,-168.1310,-108.2302,-29.8740,71.2718,128.9608,155.0413,166.6031,-187.6719,-108.6436,-197.0188,-33.6050,-162.8966,-19.6115,-155.6645,-52.8211,192.3964
-191.3931,-170.7630,-215.2608,-208.5748,-94.4074,-104.1408,79.8397,56.5454,166.3907,93.4849,-222.9393,-128.7044,-184.8459,-57.9804,-131.3919,-43.1665,-198.8650,-131.5031,157.5340
-167.3342,-142.4406,-190.5920,-201.7456,-53.2679,-106.2843,67.2411,37.5232,138.7112,83.1866,-166.7149,-106.0988,-105.2532,-22.2160,-78.2509,15.6545,-185.3126,-138.1523,99.8616
-144.4027,-66.7222,-133.0129,-141.8607,-27.9031,-47.3055,40.6085,45.7289,65.3101,78.4497,-60.2391,-59.5911,-21.4792,21.9832,-43.4561,60.6169,-109.7360,-81.8461,36.7769
-71.8084,-6.2343,-60.8619,-52.4813,-35.6675,-41.6836,4.4465,-32.8276,-18.3593,-30.1235,21.9055,-18.5324,-0.3804,5.3451,-30.8861,-19.4426,-17.4684,-58.2774,-22.4473
67.2075,7.5883,34.1446,0.3828,-33.1600,-103.4028,-27.8469,-164.9355,-64.8139,-169.4125,100.9089,-6.6997,-14.4977,-53.3200,-42.4280,-135.4990,65.9906,-83.6043,-62.3178
175.5998,3.6560,98.2607,4.0251,-18.7381,-144.5697,-62.3848,-244.2058,-96.4634,-255.2610,173.6599,-18.0538,-19.9857,-107.5230,-70.9621,-177.7272,117.3378,-102.4264,-105.3830
180.9637,24.4516,91.7089,41.6247,-37.5749,-133.1446,-115.0413,-274.1389,-159.6696,-329.7822,170.0027,-10.0587,-28.6535,-151.8481,-85.7718,-194.2213,121.8566,-102.8271,-162.8323
142.7727,67.7131,93.2024,136.4041,-54.4484,-93.0054,-151.1296,-282.1327,-214.5224,-363.2571,116.8670,31.7704,-43.1844,-171.5555,-79.4788,-215.5870,130.7395,-87.2231,-181.1636
137.8085,88.4886,153.6402,195.2757,-5.6718,-26.7882,-128.9235,-227.1765,-188.5251,-271.8070,96.0958,65.5745,-43.7811,-139.3403,-75.0722,-174.0464,179.6536,-22.1911,-131.7388
115.9646,70.5194,183.2401,176.0844,44.3692,41.4520,-80.1490,-117.5300,-101.7215,-132.4357,71.9004,66.8023,-47.6584,-79.0758,-75.2894,-86.2059,196.9153,66.3704,-66.9211
20.3130,49.0469,123.8590,140.3568,12.6951,55.6312,-52.1716,-46.9642,-36.2501,-76.2860,-1.8986,61.6858,-72.1334,-33.3075,-66.6782,-51.7799,136.9151,87.2742,-31.8651
-38.3268,42.3382,56.2083,128.4602,-27.7574,33.4625,-30.6208,-44.1344,-18.9772,-87.0845,-52.7866,67.3397,-80.7309,-2.3428,-42.4354,-73.3749,79.7611,54.5665,-10.2468
12.0265,31.0497,39.5096,119.7771,0.6564,41.4727,9.0920,-34.8934,-6.2758,-78.4104,-52.0839,63.8978,-51.1330,16.5105,4.9996,-83.7037,69.5816,62.9519,20.2886
13.6432,11.0050,18.7575,82.7343,15.1136,49.7645,37.1421,8.5753,23.1236,-30.6392,-74.5575,32.9058,-25.1025,3.3792,49.6341,-70.5002,30.5010,72.6326,39.0332
-76.2790,2.9994,-31.7496,20.9310,-40.2364,4.0710,16.3069,32.9489,27.4284,7.9201,-97.4686,-3.6453,-22.3559,-20.1228,42.5178,-36.1068,-54.7844,-0.9906,20.6015
-49.4695,27.9387,-24.2956,7.3455,-49.8216,-6.9425,-14.3202,48.5681,-0.1626,9.5920,-26.3516,11.2338,14.9431,18.7317,30.6726,46.6445,-76.6929,-42.4474,5.4083
55.6052,83.0885,72.8026,85.5320,49.3715,95.7632,16.0278,119.6143,6.6383,34.6233,63.5108,88.1109,112.8927,132.9095,109.3336,149.8498,2.7158,69.9922,47.6655
-33.0610,108.0020,112.9225,137.4692,121.4472,172.1507,71.0881,180.4294,42.5101,109.0749,23.9440,132.8066,176.1805,211.7006,205.4777,173.0613,59.7613,171.6141,92.7898
-193.6353,45.3534,-1.4656,49.9955,67.8210,85.4026,55.8178,108.4228,21.7055,118.2493,-75.5729,68.8478,123.5991,150.4309,166.3481,79.2666,7.9456,85.0487,58.6200
-105.9621,-32.4986,-111.1842,-57.6855,-1.7634,-27.4788,17.2652,-9.3584,-13.6857,34.1012,-61.5173,-20.4312,47.5127,23.0302,63.6978,-16.8142,-66.3916,-36.7130,2.9161
84.2606,-8.5440,-66.7970,-26.8184,27.1072,17.8959,74.9977,18.4011,58.4678,33.5561,31.6185,-9.4699,78.4814,6.2890,87.7135,21.2497,-68.3361,14.3115,13.6794
76.8650,67.2215,1.4849,64.6277,91.1880,140.9779,175.2750,143.5811,175.7405,153.8596,41.8491,69.6669,158.4111,117.8166,197.1193,143.2279,-43.7067,145.1432,47.2093
-54.3117,56.4784,-40.8805,61.2788,95.2562,152.6880,185.1261,163.5040,192.5446,183.4520,-43.3200,90.8923,143.5247,183.2170,206.2443,163.8478,-49.5576,160.3952,55.3169
-174.5726,-21.2478,-80.1556,-12.3265,74.3427,65.3191,142.1191,83.2638,156.8927,75.2360,-118.0561,35.8171,57.2881,115.8814,118.6690,61.5986,-41.1386,81.6338,79.2531
-293.5453,-44.0845,-35.4331,-41.1081,94.9501,42.4524,153.2520,78.3605,182.2676,39.3668,-147.6153,-1.6759,28.9529,49.7333,81.6756,24.0395,-3.5253,61.0761,116.5888
-311.3975,-13.3989,-31.4414,-16.9979,121.8036,118.6491,188.1090,167.7939,218.5057,134.6243,-163.2462,17.9999,55.2405,92.0242,110.0686,114.3830,-11.3215,118.8596,116.1153
-180.6686,-18.2926,-105.4225,-21.2167,86.7408,150.7697,161.0109,201.0977,175.8548,179.6850,-163.0880,23.1198,27.4128,133.0005,83.6669,157.9991,-63.9881,130.2994,90.0598
-86.5256,-53.7236,-114.5627,-69.6387,12.8781,75.2972,77.3428,130.0352,81.6809,97.7154,-120.3550,-28.2844,-58.8312,62.5862,-29.6241,69.8487,-57.4406,55.6473,64.7991
-88.3880,-40.9198,-21.3366,-67.6534,-17.0336,22.2872,2.9292,65.7642,6.7565,21.0997,-49.4959,-51.2881,-96.2670,-11.5910,-111.7658,5.0422,21.6903,12.5517,33.1329
-67.6501,23.9329,50.7131,27.5032,10.0490,61.9411,-28.3332,63.2667,-19.0595,31.6637,-7.3446,18.1232,-48.6791,24.1101,-84.6764,67.0213,62.3303,42.7010,6.9480
-45.9883,60.9540,42.5465,92.8119,17.5786,71.1634,-43.4488,46.9541,-13.4670,36.0325,-7.8290,77.4423,-1.5152,53.8862,-37.2048,130.9057,18.5954,29.8623,-12.9855
-54.1622,26.4081,11.0793,25.0723,-31.9352,-10.3927,-65.7084,-11.4521,-15.5804,-27.7184,7.9808,15.7409,-18.4564,-45.5794,-64.1651,66.1835,-29.9673,-46.8884,-39.0597
-13.0683,-38.1396,-3.2742,-84.1443,-78.7267,-73.1012,-65.6557,-34.8326,-25.3248,-56.8889,42.2395,-91.4852,-63.9557,-155.7565,-111.1631,-60.5553,-30.1835,-73.4584,-24.6951
-14.5729,-77.8445,-26.5960,-116.8869,-86.3788,-77.9642,-45.5073,-8.4934,-16.2545,4.7603,-5.6224,-115.9127,-98.6150,-136.6823,-113.1388,-106.1896,-34.1065,-61.4560,36.4076
-170.7304,-88.4650,-81.6150,-107.6355,-99.1505,-102.2079,-57.1617,-11.2968,-1.1335,39.2960,-136.1442,-84.2579,-134.4895,-78.9568,-116.7035,-67.9257,-82.7711,-110.2210,40.3134
-263.6902,-94.0553,-125.4445,-126.6147,-125.1778,-142.1836,-71.4342,-52.2897,8.7386,-0.8040,-188.9171,-96.6862,-161.6358,-117.2328,-142.3539,-62.4930,-123.0101,-167.5605,-26.1097
-119.7590,-99.5560,-104.4304,-154.7254,-117.0017,-136.6037,-27.2358,-58.1871,34.5365,1.6175,-108.7165,-148.0084,-144.2940,-196.0600,-130.1497,-110.6432,-111.0005,-141.5585,-49.3583
49.7042,-89.6706,-47.7184,-148.5780,-88.2118,-104.7648,15.6887,-20.1358,60.3944,53.9024,-29.6853,-158.4372,-106.7416,-194.4986,-85.0549,-112.9281,-87.2580,-87.7135,-23.6082
70.9701,-65.0308,-18.3266,-111.0882,-82.2017,-92.0576,5.1222,-9.3565,58.9713,19.4162,-24.9042,-114.6540,-99.2524,-130.2706,-65.2041,-72.7930,-75.1921,-72.0634,-30.4688
32.0513,-45.9041,-14.8931,-71.7667,-74.8490,-93.1457,6.9852,-55.0669,54.6974,-88.0525,-37.5718,-75.9938,-101.5435,-101.6957,-53.6875,-91.5106,-43.3981,-64.1133,-64.9721
-21.1787,-27.3366,-18.2493,-41.2891,-59.2677,-85.2298,11.5516,-94.4017,43.0633,-111.5310,-47.2821,-57.5385,-78.7904,-106.7595,-28.7608,-114.4980,-15.0837,-48.5706,-108.1760
-94.8688,8.2569,-48.1642,-12.9287,-94.6960,-67.7927,-68.7593,-76.4846,-23.4488,-45.4283,-65.7098,-22.1194,-65.7663,-67.5161,-44.2194,-30.0710,-46.1092,-59.4959,-171.1271
-87.3821,21.5536,-94.0173,-22.1297,-160.2014,-89.1732,-161.9354,-72.4796,-114.6931,-47.4581,-45.8522,-5.2062,-78.9044,-24.8014,-94.0987,27.3640,-95.4345,-116.8695,-202.7905
36.4001,-26.6726,-91.3123,-108.3170,-147.5110,-186.5693,-142.6803,-165.3825,-153.3213,-173.1436,47.3639,-76.0726,-44.0488,-94.6052,-71.4615,-97.0714,-84.2291,-198.3857,-184.3308
161.1321,-63.5572,-14.8275,-181.9013,-53.5880,-268.2465,-68.9276,-268.2448,-130.5938,-284.1829,168.8505,-152.3709,67.0622,-199.5567,34.7291,-219.2811,-26.8460,-230.9437,-186.8417
221.8413,-13.3618,71.3485,-116.5933,7.4481,-223.7628,-44.6967,-251.7770,-86.1224,-257.6082,238.7463,-94.0952,139.9779,-149.7619,92.4155,-138.7855,15.2470,-173.3480,-195.0356
245.0833,50.7182,81.0132,18.3345,-14.4011,-120.1571,-58.7736,-168.0388,-66.2174,-168.4264,207.6344,29.9353,90.6881,-5.5026,47.5486,-17.2459,16.9660,-100.6838,-138.3175
247.6457,44.7912,25.2111,62.2375,-47.1285,-63.9593,-63.7981,-115.6290,-84.4129,-140.0583,129.3620,53.4136,22.5262,21.9800,9.2870,-30.1636,-7.2297,-68.2666,-66.5778
241.0853,21.7447,17.8418,29.9767,-4.2625,-18.1296,-17.3497,-61.7745,-66.6625,-127.0386,122.7436,5.8993,58.2279,-32.2428,53.1983,-57.7814,-2.7074,-15.7755,-19.9808
229.8527,27.6935,86.4744,24.2169,94.2569,39.6776,74.1902,0.4971,9.9526,-56.8941,174.0165,6.8421,131.3974,-4.4523,106.2129,-17.0207,60.6465,55.6795,55.0326
191.6597,13.9738,104.5898,28.0421,127.1661,29.3549,91.5214,-15.5240,8.6511,-24.1761,151.4901,22.9073,118.9046,44.5442,95.4203,-34.0176,106.8236,49.4456,102.2857
137.4922,-18.1375,37.1869,-3.2321,50.3465,-38.0958,-8.4764,-86.7422,-102.7059,-94.0703,75.2831,-15.8552,59.6248,-12.5361,62.6079,-126.4787,74.7757,-11.0809,22.6068
110.6388,-1.9694,16.5409,-15.0441,-20.8930,-51.6476,-78.1146,-97.7228,-150.3785,-140.9853,80.0384,-45.1378,55.7400,-83.8349,60.2432,-145.0155,40.3229,-11.5098,-84.0803
101.2882,53.0863,56.8135,38.7462,-15.0959,1.1192,-60.5807,-54.5215,-105.6123,-94.1059,121.6333,2.8535,83.6154,-43.5647,67.6688,-62.5843,54.1982,35.7445,-100.1964
66.1402,79.9515,33.4246,98.2583,-3.5766,39.4273,-57.1067,-33.7173,-98.0717,-58.5514,75.2400,67.6269,78.8396,36.2365,67.3655,8.7409,40.4178,42.9946,-87.1420
16.7033,60.5201,-20.2081,81.7396,-4.5359,30.2931,-36.3175,-20.8313,-63.8000,-58.0779,12.0036,66.5079,70.4244,45.4063,79.0523,30.2577,-17.6229,13.5649,-63.5373
-6.8927,8.7871,-1.8194,-12.6303,32.7876,-2.0847,79.2338,23.8515,93.8578,24.0584,24.0611,3.6932,74.9154,9.2928,81.7037,38.9734,-45.5473,-7.2659,34.8784
-21.6923,-69.2088,-17.6528,-125.9466,35.2732,-48.4992,144.5706,53.6989,193.6451,164.4184,-2.9210,-75.4287,13.6539,-21.7425,19.0555,23.0481,-68.6490,-38.9347,109.8477
-62.1693,-146.2737,-153.5315,-209.6354,-74.9536,-129.4510,42.7633,-0.3012,106.3411,174.8176,-128.8246,-141.6073,-122.1896,-71.7939,-89.9068,-47.2248,-149.7372,-122.5825,35.5810
-81.4026,-169.9456,-227.0962,-233.4434,-169.1030,-216.5622,-62.0195,-97.7924,18.9806,44.8706,-180.5649,-165.0909,-193.3815,-133.8957,-146.9381,-113.0434,-208.2554,-213.4957,-66.1836
-27.8081,-126.3047,-135.0127,-187.2198,-130.5052,-209.1172,-30.2337,-104.1074,60.8968,10.4880,-86.8661,-128.9183,-138.1895,-125.3228,-118.1141,-82.0435,-167.3456,-205.8448,-40.8245
22.4333,-85.7346,-78.2121,-138.3549,-76.8718,-108.5905,31.9281,1.9732,113.1579,145.6528,-36.3188,-87.2625,-96.9818,-50.0764,-96.1934,6.7608,-125.9128,-114.6810,34.1592
-10.6121,-121.1800,-173.3990,-174.0574,-125.3779,-78.8066,7.2662,53.8072,89.8396,197.1883,-119.4143,-113.6526,-169.7910,-44.3229,-152.3428,10.7651,-173.8267,-94.9085,34.9600
-53.6054,-182.0429,-249.1026,-242.3589,-196.4565,-167.5280,-67.9825,-31.8598,31.4465,29.0740,-176.1101,-176.1732,-243.6129,-147.1064,-211.1639,-91.2030,-224.7707,-174.0833,-16.3390
-32.0787,-165.1816,-180.6826,-221.4618,-189.4029,-206.6485,-107.4613,-109.1191,-18.0612,-121.4219,-115.7059,-180.6368,-210.5885,-211.7638,-186.2061,-161.6035,-173.4218,-188.9568,-59.2649
-0.7753,-86.2980,-65.3582,-117.2567,-125.7726,-115.9037,-91.3343,-75.2702,-34.8562,-67.3290,-53.2025,-113.7753,-150.7895,-147.2765,-136.8890,-119.9205,-56.0044,-81.8855,-82.9700
-3.9065,-27.2380,-18.9615,-7.4646,-80.5268,-7.3597,-84.2318,-21.3883,-39.4103,45.8064,-68.9276,-28.6174,-149.4337,-47.5657,-139.0045,-37.8277,18.3205,20.5790,-87.7590
-18.0842,6.0416,-32.5763,79.4417,-75.6720,39.9560,-106.6083,-17.9738,-60.4207,73.3661,-100.0118,35.3205,-136.6426,-15.0094,-123.4413,-5.6860,10.2810,48.2102,-72.9060
-33.8091,25.2640,-25.0742,102.0444,-39.4941,38.2571,-55.3774,-26.4124,-24.2446,70.8632,-85.5902,45.7939,-46.8081,-33.2255,-19.8221,-18.3028,-13.1455,41.2114,-42.7162
-45.6185,6.1160,27.6958,42.2919,63.2924,11.6687,67.5482,-26.6560,91.0376,69.5986,-51.3735,14.2394,37.9459,-32.5223,73.0231,-7.1658,10.2308,32.7742,-12.7440
-64.6655,-14.2407,45.8727,16.0115,111.2621,18.2394,72.4890,-19.2456,110.4383,28.4161,-51.8490,25.5560,26.2102,25.7276,44.9115,48.3775,48.4741,49.1152,-10.5235
-126.9501,21.5371,3.5886,92.7070,41.1739,83.0131,-47.8993,9.7663,-19.6249,-12.5101,-84.5688,95.0454,-27.3142,102.2540,-25.7207,73.9676,65.8839,97.6656,-19.9870
-160.5487,54.2220,6.0905,142.1012,9.9172,111.8493,-64.5368,25.6433,-82.8883,4.7959,-79.1162,116.6744,-15.6278,116.1612,-8.6905,18.5223,91.7967,120.2363,19.3081
-64.0740,15.4868,75.0972,84.0215,96.2828,54.5311,34.5627,-7.2230,-13.0377,37.1019,-14.2896,64.3352,49.4301,74.4391,60.1789,-42.1774,122.1137,82.7082,98.9810
31.6565,-35.2558,89.4976,19.1301,147.9916,-2.2317,50.3596,-42.2853,7.8976,19.3122,26.5743,28.6421,77.0297,54.7619,71.0833,-38.7887,108.4699,30.9484,135.3895
-33.9058,-43.2795,38.9287,-12.0575,103.3301,-20.3653,-1.5309,-50.0653,-37.7713,-37.1258,18.7415,15.2272,65.5500,41.7246,41.1590,-37.2410,77.0178,3.9629,104.1551
-102.6634,-41.4126,43.7022,-53.7414,80.5688,-41.1437,10.4655,-68.1070,-21.2606,-70.1190,55.9580,-27.3438,85.5776,-22.7480,49.1635,-86.8611,90.5882,10.7313,57.1603
-9.3996,-35.6712,100.5062,-56.1810,95.5469,-43.8036,13.2861,-90.2530,-2.9268,-60.2597,135.2363,-47.9586,117.4370,-79.2768,65.5168,-105.5280,120.4611,44.0809,21.9833
72.7153,-17.4588,93.6391,-1.3684,64.6863,-11.3646,-69.4992,-74.8434,-70.8857,-58.0126,127.3916,-11.5162,87.9390,-61.2369,30.9231,-58.0176,99.0743,59.1390,1.3017
16.5687,-25.6655,26.1816,6.4204,29.2854,19.0043,-94.3472,-21.0532,-90.6751,-57.7105,44.9787,3.8875,49.9248,-21.2006,18.0289,-30.3707,46.5310,66.5301,31.1475
-5.9186,-40.4663,7.4273,-20.3761,78.8741,82.9648,29.8382,71.5260,22.6683,29.0852,39.3047,-9.4286,111.9371,13.5759,113.4673,-29.1207,36.7170,158.1223,126.3118
57.9166,-0.9027,44.3768,22.7651,160.4735,197.1105,141.8358,176.1773,105.8088,158.7265,103.6490,26.5976,219.6886,83.8570,222.7505,33.2396,67.4533,284.5482,202.9624
20.9722,28.2367,25.9318,57.1293,165.0848,215.2053,96.1744,184.6469,48.6243,161.4880,83.7082,68.5658,227.8647,134.4491,206.4550,113.8542,54.0346,255.2688,175.0386
-130.6226,-36.6866,-72.8445,-24.7372,103.1878,78.8699,-5.0387,73.5964,-24.0695,55.1478,-37.5913,22.0695,140.5896,73.1256,117.1428,81.5127,-25.4351,84.2729,98.4922
-210.6480,-103.6647,-129.7564,-100.2237,66.3653,-19.4790,-0.8830,-1.2936,9.5476,24.7158,-119.4291,-46.6010,85.3395,-23.8381,95.2715,-17.3590,-78.9221,2.7683,84.6165
-179.7924,-68.2240,-90.2602,-54.7766,78.3722,41.5690,80.9390,57.2127,100.6822,95.1256,-95.1212,-24.0528,105.2246,-4.8763,138.5481,-8.0942,-60.3756,82.0432,119.0539
-156.1256,-9.6410,-75.6938,-1.1823,73.6890,126.2420,106.7627,142.7704,141.6970,144.9771,-56.0709,39.6112,120.1510,98.4138,142.8788,102.5421,-52.7351,158.2825,112.6350
-195.8184,-31.5266,-157.5336,-50.0532,7.1273,95.6633,38.6852,132.6191,90.8385,129.0165,-89.5366,21.3061,64.2755,103.3025,70.5448,127.2027,-106.5203,111.0140,51.6953
-241.4360,-78.4133,-204.5158,-127.4217,-71.9882,-3.4760,-56.0338,51.3002,-9.5705,69.5230,-123.8942,-63.6957,-10.9442,-21.9420,-17.5467,28.0236,-135.9989,3.2215,-21.0278
-208.4688,-48.1042,-106.9219,-114.0610,-82.2176,-49.3042,-105.9183,-7.0304,-85.2450,-8.0529,-51.7589,-83.0270,-11.0495,-86.0138,-42.8272,-28.6565,-65.0917,-41.4556,-75.7065
-108.9202,28.4519,23.9506,-17.5472,-30.3338,-23.8333,-99.4351,-26.3235,-113.8347,-64.0150,48.2042,-8.3414,36.7318,-13.2598,-12.4541,2.8614,38.3877,-19.8961,-88.1279
-47.9828,40.4072,46.1717,40.6709,0.5804,-16.3769,-76.4586,-50.6626,-112.5925,-74.7114,39.6410,33.3372,27.1565,18.8907,-9.4597,-6.1709,61.6012,-30.1508,-44.5903
-40.3831,-12.5261,2.8209,3.4129,-6.6415,-39.1642,-43.0834,-43.6953,-61.8612,-22.8699,-13.9701,-9.4621,-16.2988,-43.5696,-36.9846,-45.4867,5.9077,-65.2099,37.8180
-9.8186,-32.5238,-21.9824,-43.9526,-2.3242,-10.0850,20.1010,49.2483,24.0479,93.8782,-11.5873,-35.0106,-0.8488,-24.0162,-13.6305,8.7800,-50.6914,-37.5079,103.6737
16.9595,-16.1138,-71.8925,-50.6916,-16.2528,29.5660,38.9973,121.0329,32.8508,166.5070,-33.8361,-17.8336,19.7637,65.2870,34.3886,81.6935,-98.6317,-6.5539,74.8859
-23.5773,-41.6022,-175.7505,-82.4495,-108.6055,-31.3410,-57.5639,57.7290,-54.7614,94.9546,-119.2257,-46.0525,-43.5188,22.8627,0.5617,34.2880,-172.6203,-70.4120,-41.7319
-66.6156,-91.9596,-234.6067,-144.3236,-198.5994,-118.6883,-150.8241,-31.9892,-85.4585,-6.6355,-135.9080,-101.3810,-117.6025,-95.5955,-90.0762,-36.6277,-224.5023,-133.4895,-112.8091
-40.3944,-84.1310,-176.3624,-139.9165,-170.2609,-100.3975,-111.1140,-24.9536,-16.6044,-10.0017,-55.2206,-84.4734,-117.3027,-80.0758,-131.3339,-7.0843,-171.7103,-97.7409,-72.4149
23.8732,-17.6273,-61.1525,-45.3576,-87.8033,-29.9170,-37.5957,5.2131,-5.4672,5.2674,5.6009,-12.0542,-97.3835,20.4350,-123.2152,28.3004,-46.2587,-48.9150,-19.8433
78.0578,32.5486,4.4723,44.6403,-87.8888,-3.3529,-64.0203,-8.9987,-97.8000,-18.9648,15.6349,24.3335,-112.1597,33.9594,-124.7788,-25.4325,29.6928,-40.2216,-17.4009
74.5686,10.1266,-28.8445,38.0522,-149.3136,-4.2079,-132.1889,-11.2936,-156.4479,-1.7224,-0.5348,-7.7623,-131.1438,-36.5332,-133.8948,-103.4691,5.9743,-12.2078,-10.1223
-11.5383,-55.1134,-94.3713,-42.7406,-161.4261,-8.6909,-147.0967,11.3379,-141.2847,37.5830,-51.4171,-73.7450,-129.8204,-103.6769,-124.8964,-140.6313,-38.1892,20.3169,7.8222
-80.5141,-61.3995,-70.8331,-69.3470,-124.3814,-23.3617,-138.5300,1.3671,-143.8584,-9.3838,-65.0060,-96.1167,-111.7282,-126.5599,-110.4369,-141.1244,-13.1596,3.0753,-15.7089
-7.1958,24.7068,50.9910,24.9974,-100.9935,-26.9438,-146.6736,-46.5391,-170.3589,-108.5328,48.0790,-23.9206,-73.0730,-88.1499,-107.3461,-107.6337,66.7238,-21.5717,-51.9846
172.6590,122.7881,187.1065,157.9576,-49.5349,15.6631,-107.2445,-60.6429,-137.6805,-133.2436,210.5443,89.8438,-5.3306,5.2857,-80.3259,-32.1446,146.5265,8.1547,-21.1424
310.4696,182.8531,301.3707,246.3898,91.1845,117.3015,34.0719,25.6415,-37.1650,-46.9699,283.1086,165.9018,89.2386,120.9546,16.7205,75.2251,216.5878,86.1688,81.8263
292.1592,200.7229,345.3452,269.4273,214.0982,206.1538,170.2356,142.7742,51.0495,62.0533,233.9228,180.7462,162.8926,191.1023,132.4678,147.5641,239.7125,148.5969,170.2721
140.6352,143.5654,251.0504,199.0734,190.7673,166.3408,174.0443,141.7676,83.2069,80.6674,115.4962,131.7344,156.4582,150.0607,170.1266,111.1560,158.1246,124.0115,167.4367
25.9074,60.9796,119.7052,92.8013,113.3091,64.4110,128.3082,71.2191,96.8646,42.4260,17.1510,68.2549,104.6512,87.1003,147.9104,48.3021,51.6796,54.0513,109.4548
33.0719,72.5798,91.5827,93.8095,103.9969,81.7295,140.7231,101.4839,104.6242,70.6389,-16.3925,87.3824,70.2940,156.3453,125.6610,108.4805,37.7533,49.5611,72.6993
25.0959,132.8839,72.1388,173.8692,76.5432,153.5940,105.6307,156.7457,58.4003,97.9869,-49.8045,163.5039,22.0024,260.8512,67.8055,216.6063,39.6482,66.7373,35.0171
-51.4930,117.5450,-22.4949,175.7090,-17.4578,104.0074,-3.7997,79.2956,-7.4339,-10.5262,-96.6486,168.7333,-39.5798,204.3087,-10.2976,189.2821,-29.9615,4.6683,-27.1949
-34.8840,74.3680,-38.5498,114.3091,-27.4944,23.9005,13.8201,-11.2015,8.1427,-123.5437,-63.6019,98.0947,-24.5876,69.7168,5.9365,65.0126,-49.3444,-50.6459,-34.1798
90.3124,70.0951,54.0521,85.4078,65.3291,33.9986,140.9606,1.1741,54.3147,-99.3085,11.5719,37.0754,32.3313,14.4388,78.5881,-16.7860,32.8029,-26.2995,14.2024
132.1376,48.5785,58.8125,61.3101,73.6800,19.8445,123.4864,-12.3462,12.4443,-82.2709,2.7664,6.9836,13.5690,-5.6090,63.8326,-47.1126,51.5706,-36.5458,-1.8565
62.8835,33.8057,-20.4998,41.6569,-19.7899,-36.7090,7.8373,-62.7511,-43.7861,-132.5783,-21.2325,20.7432,-20.8871,0.0792,11.3782,-30.5724,-21.4174,-86.8031,-63.9058
45.0972,95.4305,-2.3618,86.0033,-48.5148,11.0335,15.6258,-2.6145,-16.6395,-86.5005,51.5774,83.4896,25.4094,93.5705,31.3382,49.8153,-21.9988,-39.3506,-48.4378
146.9973,138.6895,88.3125,127.6145,6.9207,98.7572,60.0990,89.4343,-14.9205,8.6142,131.3868,108.8991,60.9726,159.8450,46.2239,105.1897,57.3620,42.0236,8.4250
276.8156,93.1047,124.8285,92.5095,35.9484,64.6025,0.0993,53.5178,-98.6582,-37.8533,142.4625,59.9982,25.1938,99.3322,-0.8692,69.7957,86.8344,5.2111,4.4726
295.4060,68.7904,120.5180,60.8438,8.6480,-10.2669,-49.3050,-14.5386,-134.1426,-124.4954,145.1537,29.0005,14.7092,36.1571,-9.6736,21.5281,59.2643,-64.1750,-29.6004
177.2677,103.3145,113.0774,81.2930,-30.9298,4.0478,-24.9359,16.7520,-92.9677,-64.6748,130.3634,40.4356,43.8021,37.6108,36.2739,13.3106,38.7516,-39.1679,-32.4231
80.7226,107.7010,104.5180,92.3632,-28.6680,58.7188,-10.9613,90.1264,-83.0186,54.0317,63.2528,32.0612,35.6327,35.1750,44.5932,25.1823,39.4041,9.6114,-3.5195
97.2034,79.4360,116.2696,74.6119,31.6719,76.3498,4.4782,122.0335,-79.2590,75.6494,19.4823,16.5073,14.6012,37.6150,21.9936,67.1305,48.7224,-0.4508,35.0308
100.5472,52.9630,107.3902,32.5131,71.9785,32.9987,48.1607,89.4785,-5.6991,2.2635,17.8171,10.1557,24.6272,41.1157,30.1777,106.2074,19.8769,-49.2120,28.7446
53.8821,4.6224,32.3757,-45.0337,45.0307,-57.2684,77.6156,11.2880,74.5347,-80.5820,-12.7091,-32.8603,27.2547,-17.9117,59.4628,63.0035,-61.7409,-110.4666,-28.2375
87.6885,-36.6812,-17.7313,-92.3647,41.9920,-98.3904,124.1810,-26.3703,97.0164,-86.8259,-49.5093,-80.5566,6.9811,-61.9013,75.5929,-15.7357,-89.8005,-144.3158,-31.5622
154.6090,-28.1860,11.6727,-54.1666,96.1386,-34.6168,185.6812,13.9110,89.1126,-26.2701,-58.2384,-65.9767,-21.4436,-16.3999,55.4882,-29.3261,-16.7004,-102.4796,34.0403
99.0985,-20.7565,23.3124,-6.9511,105.5676,46.4297,158.6283,59.0419,70.5140,-6.4513,-88.3737,-40.1103,-61.0562,-6.3702,2.9680,-13.7092,36.6981,-13.1336,59.7886
12.3538,-34.1515,8.0500,-7.3283,78.6896,90.2817,105.0330,93.0022,64.2018,-23.4231,-101.1788,-53.4309,-63.4233,-65.3777,-12.4129,-24.5437,31.2501,65.6919,70.6106
55.8555,-13.5152,73.4742,-3.4273,134.2476,131.4294,169.3999,152.2668,101.2278,16.3960,-19.4400,-51.3356,12.7905,-44.1303,45.6604,-5.5316,69.9035,109.5118,151.1216
151.3125,26.7299,189.5668,26.8820,236.9861,143.3213,252.2472,177.2495,134.3173,65.5762,55.2749,-15.1018,78.7033,44.0853,97.9941,61.1851,142.7891,93.2016,202.9792
161.6291,34.3812,235.6894,50.3297,260.4600,96.5951,231.4126,127.0846,125.3015,53.2436,22.2558,5.0477,59.8574,58.5690,91.2934,87.4584,154.8011,31.1504,158.6588
111.3293,25.1787,218.4698,51.4325,226.3121,60.9295,219.8326,89.8215,139.1746,58.3822,-6.4997,-0.1680,37.0314,23.2863,78.5089,46.8481,132.9402,4.3731,154.8448
94.9952,21.2990,210.4703,23.7075,220.9045,74.7417,269.7599,119.7801,185.9674,111.5894,56.0683,-14.9851,75.8835,19.1506,93.4283,24.2067,133.7737,34.7824,225.0718
147.4017,20.6892,210.2680,-14.3074,215.6921,91.0864,255.0567,166.8869,164.0520,124.0145,110.4940,-39.2671,106.8747,20.8912,102.1184,58.9173,119.7696,50.6773,221.6686
208.0755,35.7322,180.5731,-17.9516,148.3788,85.0189,160.5064,183.4085,59.6308,89.3355,92.7722,-57.8996,76.9638,-1.3633,81.9755,80.3409,68.8402,17.7757,129.5698
199.4392,59.2055,131.6143,4.9515,66.6535,70.7826,99.9035,162.8420,-10.8387,67.3345,72.3101,-57.9585,49.1655,-35.0068,62.2421,48.8312,23.8962,-17.8483,70.3093
147.0520,77.0193,118.6726,26.5718,67.3016,78.1915,122.5482,147.1791,17.8028,69.8561,86.9731,-40.0667,92.1340,-44.1915,99.6052,38.2711,16.2659,-3.2471,73.4337
97.6202,106.7587,147.1087,65.1342,131.3062,133.0122,192.2992,188.3982,84.5272,103.8107,85.9323,1.7392,164.3056,16.1332,187.0296,85.1323,40.9979,62.8585,98.4503
20.2561,126.5848,138.8501,105.4824,143.2771,192.0994,225.6319,239.5264,104.2577,148.3443,34.9411,41.5130,165.0540,92.1755,217.0339,99.0462,66.2333,129.1792,126.8246
-44.8770,100.5779,94.1316,116.7709,106.4879,213.6816,194.8731,236.1538,89.0713,153.0827,-23.7446,49.2351,92.2576,95.3921,153.0496,51.7891,81.4316,173.3336,153.1264
5.2998,99.5685,139.5029,167.1943,152.6189,262.8060,214.5260,243.2707,123.2328,157.0140,-28.4844,81.1091,57.1202,110.6135,117.4946,65.1394,138.7130,234.6213,191.3228
102.5879,180.8971,277.4536,285.2497,272.5796,352.1161,316.2221,300.0267,195.3322,189.5662,14.7351,176.5670,98.8250,231.2342,163.9376,181.5198,236.8507,291.5146,227.5864
130.9280,236.3809,338.2016,332.5421,304.9721,355.6428,328.3872,305.7561,191.3185,155.2415,48.8043,235.7385,122.0071,323.5256,175.7653,270.4059,266.3034,257.3692,202.1600
165.8497,181.6855,280.1223,249.4362,236.9662,264.5688,210.9392,244.8763,102.1525,64.1971,53.7296,188.3435,75.8328,281.1515,105.1941,254.2032,205.6201,168.3721,147.9400
246.3382,114.8311,232.4649,181.5746,202.5106,229.3983,136.5684,229.5609,34.0104,64.3553,49.7032,127.2403,31.5401,216.9980,48.4399,208.9695,168.3634,144.0394,163.1686
230.6178,117.5803,231.2143,196.9418,205.3244,250.1510,134.7147,242.4357,11.2330,109.0556,44.7835,122.6526,27.7550,192.3883,31.1458,191.6482,178.7188,147.4742,200.9602
122.9313,119.3447,203.7233,181.5781,150.2512,174.9592,92.1318,161.1661,-16.5594,26.2140,34.0880,107.0733,-1.5934,122.9344,-22.4398,148.6210,153.6647,50.1997,151.8078
110.7334,67.6366,143.6488,97.4039,56.8458,11.2761,23.5494,13.0244,-49.2658,-127.2228,12.3122,39.9439,-80.2237,7.2249,-98.2093,50.2333,82.3064,-113.5481,51.4597
197.4952,36.4045,95.7784,54.2172,3.5678,-77.0977,-8.2646,-60.4856,-72.2262,-183.2699,-16.6837,-4.4396,-110.2707,-53.4192,-86.9479,-9.9829,9.7294,-195.3548,-29.2406
220.7315,80.5743,67.9353,97.3812,-13.0125,-38.9357,-22.1906,-25.0049,-89.7005,-144.2176,-28.4728,27.8991,-43.9505,-16.3137,12.0506,38.5631,-42.9737,-158.3202,-92.7241
159.7072,125.9208,48.3467,143.2012,-26.2564,23.1102,-19.7412,22.6005,-83.5111,-100.3137,-18.2002,82.2049,-0.2668,60.6986,52.3654,92.3545,-43.5672,-89.3464,-103.8536
110.7993,100.4103,39.2115,136.1465,-21.8910,36.2800,7.7886,8.2669,-55.4975,-90.5169,-9.4256,92.3728,-52.5174,88.8373,-25.1046,50.9746,17.3965,-54.1527,-36.0865
113.2384,63.5521,63.7796,117.1217,32.5211,32.3983,33.0457,-29.2260,-37.7528,-105.5777,17.8056,78.6926,-67.0105,63.4997,-73.7204,12.0049,81.9533,-42.6501,22.9341
157.9005,74.1481,129.8631,108.7209,127.1470,36.4411,72.6883,-33.1494,-14.1400,-107.6747,91.0744,74.2579,45.3826,53.1957,14.7225,51.6904,110.6343,-33.6271,25.3857
209.6245,62.4286,171.7284,61.8357,189.2322,7.4797,136.4883,-33.9235,41.9103,-99.2550,143.0295,40.2134,144.0916,34.5142,126.4988,47.7262,103.8726,-37.6475,34.5275
203.0077,-9.5946,131.0121,-24.1588,168.7928,-48.8805,164.6362,-53.7739,103.6352,-115.6026,104.8138,-34.4324,119.8101,-45.5965,140.7484,-38.3454,55.7878,-49.3054,57.6371
134.2705,-46.2571,81.2403,-61.2068,136.8753,-44.6838,169.1154,-26.3158,154.0064,-108.1774,30.1484,-65.9245,62.8919,-79.9571,110.5417,-46.7162,14.2881,-27.9644,55.0094
87.1259,-8.6068,112.6020,-18.3338,178.6644,38.6508,208.0797,61.5500,182.5106,-39.9482,-7.7903,-23.0474,51.3469,11.5397,106.1282,49.3525,56.7614,33.2270,57.7410
92.0787,24.6691,167.8510,36.0090,233.9426,111.6444,211.1563,113.7467,141.2428,-11.3572,-12.7646,17.7209,56.8687,86.4240,107.8978,96.5945,135.5047,91.0780,73.6307
74.7073,33.7377,159.5285,64.7436,204.7437,125.7687,125.2748,94.4829,53.3187,-51.5695,-5.1778,24.7849,65.6178,50.5423,100.8104,68.8878,143.2703,115.4988,46.6650
7.6234,57.6667,122.0299,89.4868,132.4583,119.6053,65.3556,75.7954,18.6066,-35.5061,-7.8949,33.7682,63.0038,10.0151,83.7382,56.5676,104.2580,106.7336,2.7350
-26.9824,74.6594,113.6516,110.6646,106.3572,129.7487,85.2100,101.4295,27.3014,40.5109,-53.0871,41.4765,3.8670,25.3499,30.8553,67.5743,100.9694,79.1179,15.0455
-3.5207,65.0177,114.6381,118.2535,111.8276,149.4964,89.5548,138.1307,0.8844,55.8623,-113.3071,41.9352,-84.3298,59.2191,-46.7349,84.0194,121.1041,55.0751,51.5573
-11.2630,62.5812,100.2108,123.6931,94.5632,150.4481,56.4621,142.3985,-22.7836,27.3154,-129.9480,63.7624,-129.9115,102.2047,-103.8720,118.3342,120.3985,39.4258,55.0845
-66.6919,66.7656,84.9658,122.5591,57.5890,132.1666,41.4576,129.0294,6.2296,42.2014,-111.8318,83.5261,-138.8179,117.9607,-136.4621,138.0169,101.7318,29.2091,60.3847
-75.8818,54.8014,75.0748,97.6739,29.8129,138.9613,44.5998,162.8942,30.0213,85.3057,-95.5976,56.0467,-140.8719,79.0793,-147.5502,125.6581,77.1452,45.1979,97.6655
-28.7066,52.2594,70.9100,67.8933,35.4759,177.4000,78.7055,240.0672,38.6989,123.3200,-81.6786,23.4004,-114.3213,77.9969,-105.3626,132.3048,61.2775,83.7304,124.2005
-1.4776,78.0717,87.7671,74.4882,85.7199,198.1208,163.8668,265.0353,83.7531,151.8384,-68.4919,40.5715,-52.8275,147.4956,-14.2988,155.6148,77.8948,105.8845,114.4462
1.3347,102.1218,114.0846,117.2963,136.4492,198.5896,209.8853,217.0862,102.4958,141.8336,-54.3145,70.2886,5.3452,159.8812,56.5635,131.0497,113.8238,116.2614,99.1229
6.0337,95.0753,113.9564,132.1785,135.3270,194.5780,152.2081,169.1284,29.5992,89.4881,-21.6973,56.6877,36.8528,77.2224,61.0014,65.1268,127.7020,121.8379,106.9944
-7.8100,54.6343,101.1762,70.8853,130.6122,145.6107,102.7649,132.4191,-19.8349,27.6837,18.4510,10.0073,56.9067,7.9180,39.6638,25.3689,115.1890,75.9636,134.0422
-31.6475,14.1411,116.7911,-0.7874,192.4417,80.4877,154.9374,95.8113,51.5479,-20.8220,30.7992,-18.4440,90.1181,1.0637,61.8180,45.2578,106.1035,13.5057,153.5219
-45.9118,24.5420,131.8901,19.2560,260.0399,105.4337,228.5072,108.5492,142.2026,-19.9751,2.7434,11.1054,124.7781,42.3610,120.3574,107.2304,106.4848,39.3990,143.7347
-86.4895,73.5370,92.9572,102.1630,243.8529,173.2263,242.4199,145.8692,152.7075,22.8441,-54.8462,79.1725,125.7995,116.1345,154.4244,152.3113,88.0741,92.4359,120.4822
-139.3444,95.1354,31.0960,135.0121,180.8832,142.8688,226.1507,113.7594,121.3914,9.1764,-100.6592,113.2422,106.5755,151.9875,158.1117,126.2076,40.2536,34.3862,111.2689
-122.4011,82.1108,4.2044,98.2985,126.8971,57.8362,200.5219,50.7388,79.4986,-70.2242,-83.2567,83.5199,94.4676,111.1157,147.1982,57.4737,1.4582,-64.3694,100.8571
-37.7771,81.1262,19.2875,66.0319,80.4245,47.4604,154.3488,55.2697,21.8638,-94.6131,-14.5210,47.7650,72.5165,79.9555,102.7839,29.3049,16.1484,-62.9477,69.7410
57.5811,112.6069,103.1700,96.1387,112.3887,107.4842,150.4559,99.6495,14.2001,-46.7990,72.2372,70.4843,88.5341,123.3447,88.0658,79.1022,94.8702,18.3910,64.3649
150.2975,175.7209,279.4183,192.3841,289.1990,202.5458,257.3167,141.6445,103.8293,0.2796,186.2382,147.2073,231.8106,199.6930,210.2238,170.0010,223.7262,135.6955,130.0270
187.3564,246.9284,429.3425,296.2102,454.4682,322.1161,380.5821,207.3467,185.7995,55.4351,272.2036,216.8410,386.2533,262.9778,360.9055,229.1886,345.4054,273.8950,207.0004
127.4491,267.4182,412.4590,328.0172,422.3112,372.6852,361.2230,251.3471,140.2148,88.9401,231.7553,229.6829,348.2039,286.5218,332.0150,216.7168,368.7596,315.0816,209.2624
111.1595,225.0123,313.4353,289.5364,298.6082,299.0494,229.1387,202.0436,17.6248,-0.4573,145.7272,198.9644,206.6433,250.8280,195.7160,169.1706,298.8387,206.9887,162.2189
257.7518,176.6671,310.8580,243.6538,284.8669,210.4331,157.8920,125.1334,-42.4641,-130.9320,169.5992,160.9660,181.0584,188.8776,166.5213,135.4412,257.0103,113.6706,145.3486
398.5686,144.6376,374.7462,202.2622,342.2772,180.0759,195.5552,106.7451,6.8075,-120.0593,229.1649,118.1947,221.6508,141.5045,214.3493,116.0570,271.6169,120.6748,156.0400
341.8686,108.4898,341.6650,147.1763,314.6192,134.2228,229.4264,97.6792,92.1825,-25.0305,170.4901,74.2266,176.8454,97.5735,192.1177,104.6392,222.6484,90.4974,133.1400
190.1498,75.0342,194.8546,93.6861,186.4611,34.0385,182.4448,35.3220,115.1065,-22.8744,54.3339,47.3945,86.3580,42.6156,117.3237,90.7809,75.9995,-39.1716,63.6378
128.6120,46.6605,66.3657,43.5621,63.3733,-60.2485,107.7768,-36.3190,63.8762,-85.3499,0.0244,13.2286,27.4645,-21.2916,62.9301,37.0416,-42.9948,-158.6303,3.1590
146.5863,-2.1398,21.1189,-26.4233,24.1502,-113.4223,97.0216,-61.6352,35.0067,-82.2427,-20.6827,-53.7879,-24.5947,-83.8410,16.1911,-39.3647,-68.9625,-214.3212,8.2721
140.2512,-61.1372,-12.4417,-98.0981,28.0730,-151.6473,136.0865,-66.2406,81.4681,-34.8789,-59.2209,-101.0479,-85.9278,-99.7311,-43.0578,-61.8843,-83.9357,-255.6725,51.5913
84.1455,-84.4217,-81.7850,-123.5499,-25.2448,-195.8880,111.9737,-97.7527,107.5175,-59.1673,-91.4773,-81.3871,-137.0934,-55.0552,-99.0512,-38.5211,-136.1817,-298.5716,43.5751
28.4529,-54.3051,-98.3995,-87.8443,-103.7223,-213.8620,18.6760,-138.8515,40.4630,-168.7746,-74.7779,-36.0971,-158.3736,-22.8227,-132.9143,-44.9395,-136.5975,-302.4059,-15.2678
53.9868,-1.0529,9.0159,-20.1892,-73.5394,-161.6660,-4.6877,-139.8628,-27.5128,-253.5537,12.3779,-9.9219,-138.9551,-34.0742,-149.3888,-72.4820,-14.4396,-244.4785,-15.9124
199.7320,22.9075,147.6543,33.7660,39.4944,-73.6135,61.3900,-105.3036,-17.6811,-234.5932,119.5001,4.9959,-128.7755,-28.8180,-183.2088,-69.5378,140.1666,-155.4345,63.9416
354.4453,12.9641,220.2321,67.1047,98.4586,-10.2033,83.4115,-66.6264,3.5141,-158.2087,154.9174,20.7630,-155.7190,4.3059,-212.6757,-51.5192,216.2756,-64.9831,120.1251
339.1078,35.6139,271.8551,119.8489,119.8472,56.7504,56.7533,-17.4107,-11.1122,-98.1369,140.0407,44.9102,-121.9036,21.7734,-155.1425,-40.0578,258.7956,43.9499,112.4213
188.1028,107.3250,339.2665,189.3891,181.8427,151.6818,85.0420,38.5147,-9.7252,-64.1373,166.0826,83.9239,-7.0268,35.0876,-55.2531,-9.1690,335.8991,151.9525,101.7914
151.5197,153.5523,370.5941,227.1241,237.6772,205.7601,144.6917,68.6489,22.9975,-46.3315,211.3558,122.8879,47.6774,79.8401,-33.9272,52.3178,378.5423,179.4571,118.5411
285.0890,158.0453,361.1585,242.3049,249.8153,199.8138,175.6710,85.2652,49.9929,-37.8732,206.9412,150.6575,38.7267,143.2136,-20.9107,112.9093,330.6833,137.7337,141.3807
326.7227,165.5871,335.0745,252.5614,247.2510,185.0971,203.6238,103.8192,73.6673,-22.5541,159.0497,159.6717,80.5327,171.1963,83.7191,125.9180,255.0587,113.2578,137.9648
163.5651,140.3512,255.2300,195.9629,198.0075,130.9122,210.0224,74.5550,104.7756,-10.0127,84.0550,115.1660,93.3438,113.3242,130.0633,69.4145,184.4090,79.8924,88.0725
44.2326,58.6725,151.7940,76.7455,109.0310,21.3084,171.5556,1.3384,121.9393,-9.1312,18.3329,29.6605,-2.6912,13.5107,25.7644,-6.2946,112.0603,-13.6351,46.0513
120.2317,27.3693,136.9111,32.6297,94.5511,-17.2421,171.8147,-11.2276,115.8646,13.1302,40.9572,-3.3644,-35.5524,-8.4957,-24.0577,-22.7488,90.6648,-68.1627,79.9030
196.2585,87.0965,172.3087,95.1320,135.3163,58.6386,204.8968,54.2975,90.3498,48.1399,105.5025,38.4000,62.4604,46.6953,71.0438,18.7877,108.3185,-13.8851,116.9479
111.6228,117.1288,122.2805,122.8269,92.5069,98.0273,147.8536,84.3901,53.4925,37.5125,84.3483,66.5300,107.1510,64.7405,122.7712,53.9750,64.1298,36.6093,61.4765
-18.6165,76.8987,39.2072,64.0473,13.5451,32.1202,57.2991,31.5405,40.6202,-9.2732,39.9673,50.2537,70.3320,41.0260,73.8098,53.1463,-2.5247,0.9671,-7.3868
-44.5930,58.9709,57.8206,17.9089,30.9492,-32.7616,69.8828,-31.7589,53.4237,-54.3694,90.0115,35.0644,83.3864,34.9755,52.5359,32.4306,23.5798,-56.9058,-6.5692
15.0924,68.9687,114.4643,20.8290,80.5755,-40.5635,95.3467,-52.2944,30.0840,-111.0883,120.1654,18.4638,98.1950,8.2265,64.1433,10.7330,73.3079,-82.4241,-17.5554
44.6639,38.4748,85.8283,13.9333,69.1051,-36.3704,43.8812,-49.6156,-18.6023,-146.1373,21.8799,-16.3329,40.1509,-46.8782,54.4636,-11.3187,45.5974,-77.6278,-76.0909
-3.2627,2.2928,29.6909,-6.8623,69.8955,-26.9999,55.9234,-44.8134,9.1883,-94.2007,-54.7881,-29.0633,27.8808,-41.9027,81.5801,-35.1059,22.8798,-34.9632,-83.5289
-33.0705,30.3147,39.2402,14.3600,128.7521,23.7106,174.0231,-20.6615,101.4347,-11.5292,0.1923,3.6170,114.8993,16.9781,161.0653,-27.6007,61.7348,34.7732,-31.3187
34.5476,78.6619,53.9068,72.7240,158.6368,94.1374,211.6489,21.6826,116.6774,9.3251,53.7730,42.6380,163.6792,39.1485,189.9626,28.8981,67.2777,76.8821,-14.3694
104.9628,67.6575,-0.0743,87.8347,112.9952,102.0456,117.0890,29.4438,31.6185,-7.6817,10.8505,44.6520,107.7445,18.6218,129.3864,63.1991,6.1112,46.5640,-36.8568
94.3938,16.7094,-51.1483,26.0719,55.5510,33.1476,58.3887,6.4086,-6.9823,-6.5852,-34.7787,2.8175,47.5287,-9.5955,74.6523,31.8417,-50.4717,-27.3352,-29.7024
76.9624,-7.6306,-20.6133,-45.5066,58.3282,-5.4581,123.6769,49.1828,84.0807,34.4288,-15.3501,-50.3256,77.1584,-37.0581,122.3094,19.3506,-81.7240,-46.1543,27.8456
60.2919,-15.6854,3.6672,-84.4094,96.5051,29.6095,217.0538,148.9053,203.1275,122.1681,-6.5840,-84.1763,153.2350,-50.3030,227.2748,48.3972,-118.4783,13.6744,98.1700
-41.2047,-59.0816,-93.0520,-136.6050,52.3050,15.6197,213.9640,150.2023,211.3329,173.6269,-67.4215,-121.6455,143.9345,-81.9793,234.8426,-6.3698,-174.3274,20.9741,112.1461
-114.2126,-103.0462,-213.4719,-197.5965,-92.4960,-95.3179,115.6681,29.3351,108.4613,87.7853,-103.3418,-178.3123,40.7637,-178.3594,122.9921,-156.7429,-226.3816,-88.0752,43.4857
16.7767,-72.4688,-169.7610,-186.9582,-164.5107,-166.1813,45.9577,-58.1533,10.4709,-47.9077,-3.8933,-200.5220,11.4939,-260.3065,68.4086,-236.8435,-209.4804,-173.3959,-32.1810
208.2048,-0.8770,-2.3419,-117.7274,-81.8888,-139.8785,55.0986,-61.6534,-20.6376,-86.2971,147.2986,-163.9333,103.8432,-239.4349,131.5437,-191.0439,-110.4058,-148.1848,-58.6011
216.6757,27.4222,79.6244,-72.5857,-13.9594,-112.6108,39.5680,-71.0304,-43.8616,-70.3738,181.9984,-121.1411,140.8495,-188.1604,144.0854,-139.6704,-27.8560,-111.2878,-79.8665
103.2143,24.0361,37.6155,-36.3902,-63.9180,-111.6682,-43.2006,-108.1064,-106.4647,-98.7462,107.7141,-89.5529,53.5795,-179.6155,45.4919,-152.2174,-14.0213,-118.3914,-105.6446
52.2245,37.4344,20.8938,32.8970,-98.2205,-89.0552,-88.6035,-120.3293,-143.2066,-137.3156,50.0924,-39.4598,-10.6484,-155.3358,-9.5147,-167.1285,-2.1373,-108.1124,-83.3954
78.9358,63.1808,92.1255,96.1532,-29.1964,-41.4102,-44.4009,-81.3422,-87.8057,-126.9545,49.4104,22.5234,24.7243,-70.7542,47.9000,-107.3229,38.3793,-50.7979,-29.3297
122.7048,100.7453,166.7212,144.5294,53.8906,36.9038,30.0060,1.4022,1.6793,-74.2612,80.2726,81.6170,83.4939,34.3581,115.0214,5.9489,76.5703,35.7495,11.7886
150.3923,149.8919,187.9001,213.6070,93.8504,140.0181,96.0594,78.1136,41.3149,-4.4827,111.9304,138.6248,107.9804,110.5849,126.8189,70.1413,116.8881,119.0203,65.3719
140.4997,165.8978,198.2055,261.8715,148.0559,200.0205,164.8535,108.2957,72.5644,55.8367,102.2049,170.9649,112.5402,144.7085,124.3024,80.5803,158.4043,152.5399,143.3280
123.4359,151.8220,235.9795,253.7350,247.1313,217.3075,244.7588,142.5509,163.5877,101.4693,71.4644,183.5194,138.7316,191.8852,157.1076,158.6480,172.6968,156.9255,195.4723
116.2980,167.5049,251.9852,249.5518,315.2155,256.7408,302.8332,206.9388,232.6101,144.1167,72.4392,217.5950,192.2167,292.6129,211.0109,285.4933,167.4547,184.6812,199.7658
52.6250,188.3871,190.9647,259.2001,263.0240,273.3831,264.4144,224.3685,170.6777,151.2516,57.6284,240.8588,198.4115,347.9759,217.0535,289.6674,146.6123,192.6258,177.2608
-24.9326,164.3713,112.9870,230.3327,128.4262,226.8425,132.8179,197.6346,49.4640,109.7603,6.2542,205.2204,125.9495,293.8923,155.5522,196.4685,98.5529,161.2579,136.8292
55.3776,159.9561,108.5028,209.7498,38.9054,216.1601,29.0029,210.5415,-19.4839,84.6824,32.3341,177.4461,68.0768,257.4228,91.8773,192.8933,73.0763,170.4542,69.6615
238.0795,206.2212,135.2220,245.8345,21.0607,234.9906,-9.1155,194.4070,-82.5326,71.3607,121.4949,199.3973,54.1897,277.3368,46.0595,240.3966,97.5733,168.2547,-27.9667
266.1375,193.2525,105.5258,242.3701,-1.6256,133.0908,-66.0539,44.7505,-179.4401,-12.7725,100.4661,177.6796,5.2156,198.9322,-16.3983,159.9898,94.3897,27.2412,-116.3628
146.5965,98.1868,54.9744,150.9699,-33.7002,-30.0673,-126.7529,-107.7797,-208.2060,-113.3509,10.2210,88.8882,-36.4657,36.9251,-38.8120,6.1284,40.2928,-114.8811,-131.4761
108.9645,61.7426,57.3897,95.8324,-18.0984,-39.3788,-100.4165,-95.6783,-137.5275,-106.1103,41.8422,50.7529,38.9889,-8.7475,46.0327,-30.1395,20.0616,-55.2070,-94.2966
162.8354,130.4914,96.6669,150.7794,39.0930,76.1601,-21.8012,-3.3080,-83.7106,-45.7892,138.8440,102.0882,151.7576,67.7974,141.5260,56.7816,55.5089,67.4968,-81.3568
168.4657,188.6086,131.6815,228.6328,95.6813,121.7811,24.4968,8.6075,-86.2463,-62.5554,138.5062,159.8657,162.1425,117.6618,136.3038,123.8296,92.2211,43.1991,-73.1620
148.3242,164.0834,144.3034,240.3029,125.8441,74.1138,33.7888,-49.5879,-79.3307,-134.2220,88.9345,171.9742,110.4553,112.1475,87.8548,101.3052,105.0549,-35.3166,-20.9188
163.8032,97.2405,114.1221,184.5163,115.5840,32.8390,20.8041,-78.9382,-59.6802,-161.9884,70.5443,138.8814,82.0881,88.5735,74.5011,42.7069,87.3175,-31.3240,21.1837
168.8239,50.0358,72.1372,121.0289,103.7827,30.0532,19.7960,-49.2446,-49.8231,-123.7672,37.3020,89.9140,61.2276,67.7084,70.9606,26.4820,56.9821,-12.2335,27.3827
162.0009,52.4650,84.3086,119.1906,141.9169,46.9825,86.7198,1.5800,-8.6095,-54.9007,-6.7356,87.5430,41.6529,100.5415,66.1370,66.4443,56.9265,-38.5273,74.5791
166.9742,72.8907,108.0812,147.1330,171.7470,62.9436,166.1062,47.2112,67.5637,21.6904,-15.5142,122.1825,46.9118,166.7443,81.3196,119.0145,48.8204,-56.3487,154.7935
106.5120,45.3727,38.9653,88.8102,103.4363,51.2520,146.4011,91.0830,101.3581,96.8111,-41.2538,91.8270,27.1436,157.5941,62.9233,139.5058,-31.0247,-53.6280,158.3059
-17.4869,-20.8055,-86.5500,-36.6805,-21.5707,4.7129,55.5692,98.1835,56.2486,120.2206,-112.4523,-1.9760,-73.9349,81.9131,-45.0805,101.9639,-106.9051,-78.2273,70.3341
-57.4576,-46.4587,-139.5574,-69.8227,-106.6332,-53.6157,-21.9286,12.8962,-25.9117,25.9614,-153.5535,-35.4033,-197.2101,34.9827,-172.0599,16.7329,-88.5066,-130.1712,-32.2132
-22.3606,-25.7708,-124.2938,-1.0948,-146.7116,-100.0137,-96.8523,-117.5301,-106.6059,-131.9148,-149.2141,-5.6593,-246.3584,-18.0625,-217.8260,-73.3786,-50.0546,-169.3146,-114.1930
-72.1291,-35.8143,-152.0955,-0.3067,-188.0116,-133.7735,-182.6098,-185.5625,-177.4131,-211.5989,-161.4327,-39.1176,-226.7566,-146.9523,-201.4105,-152.5147,-80.6829,-184.8599,-175.9119
-164.8576,-91.6797,-210.9922,-103.6303,-216.8011,-156.1317,-225.5944,-170.4964,-209.5222,-175.7360,-176.4543,-134.4023,-201.8916,-257.7522,-191.7085,-203.4070,-126.2398,-179.7454,-191.5631
-149.5638,-127.6814,-166.7283,-163.2887,-156.2439,-128.2448,-176.8276,-95.8578,-145.3492,-70.0204,-142.8260,-165.6143,-173.5428,-231.3664,-179.5728,-162.7212,-95.4440,-121.4475,-111.6549
-107.6018,-126.8226,-26.7881,-136.6203,-3.3572,-33.4393,-41.1543,24.2296,1.2650,77.2241,-109.7072,-132.9280,-128.2945,-139.7289,-138.2309,-66.8693,3.6085,-9.4358,54.4221
-168.4428,-132.9278,29.4525,-127.9252,96.8060,39.9267,90.3299,109.2567,102.3383,175.5076,-149.3955,-143.0902,-118.1672,-130.2890,-110.1269,-62.8776,68.9674,56.5671,172.4213
-213.2360,-132.8118,-24.0103,-139.5681,69.9643,40.1921,121.4550,108.0768,97.3344,151.7203,-195.9621,-171.3326,-139.9469,-169.9809,-105.8562,-117.1695,46.2099,37.6457,150.8375
-131.2427,-77.8877,-8.3043,-83.3865,60.8250,64.7977,120.1823,121.1055,102.2181,126.8777,-143.3504,-116.2235,-89.7789,-112.2922,-50.9061,-55.3316,25.2289,55.8871,112.8006
-60.3982,-17.9927,81.4133,-13.4955,134.2739,135.0820,181.0610,191.3043,178.6881,182.5337,-62.3988,-37.2080,10.8920,0.1459,43.2954,61.8211,56.7101,134.8176,160.8565
-95.4047,-37.0573,57.4172,-44.8579,131.3499,118.1374,197.7259,198.9954,206.4330,176.4487,-82.2218,-53.8667,11.3980,-7.6334,50.0056,62.1825,25.9971,114.9142,181.4828
-103.5125,-87.0484,-45.9651,-113.6180,33.9466,26.2037,102.6847,132.5865,142.5500,88.0805,-124.0114,-104.0351,-66.0483,-87.2237,-38.7698,27.7771,-75.5246,-2.0276,128.7619
-16.4139,-77.8131,-38.7979,-101.7146,14.7578,10.2954,56.8868,114.1082,113.0810,96.7039,-71.2365,-76.5935,-87.1676,-52.9387,-100.6240,81.5449,-82.8992,-38.0849,122.5229
33.6349,-45.4491,7.2650,-58.4557,36.1110,34.6381,93.7641,125.9779,139.0476,172.0609,-46.0857,-26.2923,-106.9919,43.4293,-125.2083,127.3290,-27.1866,-18.0944,126.8163
-23.3679,-52.9673,-81.3877,-70.2080,-71.4130,-26.1437,28.7928,77.7631,100.0916,135.5061,-152.7090,-31.7515,-211.5249,42.2785,-185.9709,105.4028,-97.8240,-91.3429,11.6293
-92.0355,-75.0892,-218.3823,-115.4104,-230.8938,-120.5068,-119.6025,14.5456,-0.0178,42.3467,-237.9619,-60.9775,-288.1580,-13.6028,-242.9778,80.3416,-238.5897,-201.7725,-119.9336
-114.1382,-102.3202,-269.0854,-174.6073,-287.2801,-174.9322,-153.5189,-10.8162,-33.0573,24.4639,-222.6716,-101.9145,-278.5814,-50.3625,-237.5213,23.9265,-284.9881,-241.9197,-123.6694
-134.9581,-160.2798,-281.0601,-248.3175,-277.5666,-217.5147,-90.4549,-32.4091,24.3403,39.1752,-242.1262,-173.5717,-294.7692,-121.4493,-228.9566,-78.9713,-280.7852,-250.0670,-81.3597
-166.7820,-196.5832,-272.0090,-267.7647,-245.9068,-214.8147,-61.5434,-37.6045,80.6836,45.0216,-290.3450,-208.8862,-329.1245,-192.8097,-251.4733,-104.1344,-270.7711,-232.4635,-68.6081
-161.3226,-149.9040,-181.1235,-191.7876,-154.8899,-122.1220,-41.6322,5.2506,85.5722,68.2239,-228.6213,-149.8619,-272.1603,-144.8023,-239.4333,-29.5882,-174.8835,-144.7411,-26.3870
-109.6521,-72.0746,-69.3702,-87.9741,-58.8385,-23.8183,7.9029,49.0726,67.5515,81.0193,-126.0150,-58.0297,-181.6653,-18.8569,-179.5901,23.4929,-44.2355,-49.9278,34.8670
-75.8853,-42.1658,-42.7308,-26.4914,-40.4071,11.3546,30.0335,63.4266,65.2771,80.3279,-132.8867,-11.7202,-165.3300,42.0681,-131.9926,19.8409,-14.8397,-9.7972,55.4612
-121.5918,-69.3172,-77.8451,-38.9106,-52.7127,3.7971,28.8919,65.1672,85.9696,100.3130,-197.1669,-32.4419,-168.8194,3.8950,-99.2267,-15.7342,-55.0776,2.0227,64.4584
-204.6691,-110.5200,-94.3881,-113.8257,-15.6124,-40.6414,68.7540,40.2000,116.1973,87.4020,-204.7791,-90.4749,-109.5796,-55.8462,-36.2920,-67.6852,-67.8335,-22.2789,78.8877
-212.1278,-91.8597,-62.9646,-136.1266,51.7087,-79.6087,125.2324,0.5027,125.4326,13.3305,-154.5703,-94.6849,-17.9898,-46.0920,43.8090,-56.4258,-50.9317,-82.1625,52.9847
-150.1835,3.8752,-26.0015,-36.0706,56.8904,-42.6007,107.8705,-1.0691,68.9463,-37.1633,-94.5896,-11.9072,33.3465,27.7663,75.4171,26.9702,-35.4661,-97.9202,-11.8701
-152.9865,71.3090,-51.2372,49.4865,-32.1989,9.4163,6.2218,13.4107,-33.6133,-44.2161,-64.9699,48.8650,25.1916,58.9667,43.8400,51.7712,-43.2719,-59.1465,-69.4428
-216.8717,59.5557,-87.3591,30.6427,-91.1964,0.8294,-65.2868,-1.0638,-73.0127,-52.1214,-50.6267,40.0164,27.0150,35.4429,27.6061,20.9317,-56.9508,-29.1839,-93.2081
-183.0275,71.7248,-10.3173,36.5239,-18.3241,4.4565,-25.4435,-8.1072,-26.6054,-32.8259,13.1211,52.1041,96.2941,50.6337,79.7919,54.0172,-9.3070,-3.9068,-87.1226
-47.6713,132.1663,116.4717,108.7618,59.9268,43.7917,23.4006,5.3036,-25.1189,3.9956,90.0503,82.4726,148.1849,68.2057,125.1354,86.1607,72.3583,16.7692,-89.1850
44.9935,130.0034,137.4625,117.2054,27.9873,28.4552,-28.8202,-11.0500,-107.6015,-20.2292,90.9013,51.5889,107.1465,7.7378,96.4124,23.9490,82.4620,-6.6666,-109.9611
91.1702,77.7152,119.6692,71.7840,6.8544,-12.4587,-84.3327,-44.1192,-141.4358,-70.6566,88.6035,15.1518,75.5252,-37.2557,64.4823,-22.6936,66.2189,-20.8662,-100.8100
158.1819,88.2119,192.6241,86.7347,68.6861,10.5727,-37.8650,-45.7218,-86.2302,-67.4433,173.5169,36.7940,119.3652,-10.5252,83.8874,-0.5262,130.0993,32.2640,-72.0366
191.1358,133.5181,266.4487,128.6605,93.6402,49.7409,12.1182,-35.8754,-50.1473,-55.2097,238.8420,49.4557,136.1390,-22.9089,86.7138,-3.3434,198.1738,78.7567,-86.7374
179.7637,132.2638,236.5031,140.9624,57.0824,52.0633,-22.0234,-43.4393,-66.3289,-80.5320,208.5381,44.6454,97.4411,-67.2390,49.0105,-10.4674,168.4559,68.8207,-109.0226
230.0887,116.4098,177.2602,167.8870,47.6230,51.2527,-56.7639,-61.3178,-76.4404,-100.4954,179.1250,82.5793,86.8134,-40.2716,39.7722,23.9344,106.5052,49.9394,-78.6971
311.6959,113.0943,162.2020,190.8504,60.5117,42.7817,-21.9351,-82.3080,-60.6444,-96.1264,178.4342,103.4512,89.7719,-14.5649,61.0327,7.1149,90.2647,29.6982,-37.1069
284.9320,84.1485,175.5053,143.5509,75.7723,14.0209,33.5396,-81.9370,-28.6886,-84.7645,150.3136,50.2416,58.0548,-59.7268,46.3819,-51.2652,107.5606,-3.6061,-5.0344
178.6967,41.6909,189.8868,66.6307,97.1213,-7.7546,32.0236,-52.5129,-12.5659,-72.3997,135.9836,8.5472,25.9803,-66.1742,-22.1650,-23.6954,127.5695,-33.2232,43.9798
123.5598,26.5380,160.3872,27.0618,46.3447,-41.9292,-54.0786,-48.7382,-63.3970,-65.3062,158.1346,22.4097,-7.3822,-7.2961,-112.4368,40.4939,104.9449,-81.6759,58.3516
131.4511,27.0157,65.3009,26.1279,-75.5127,-79.5091,-152.3081,-67.0439,-140.3573,-38.4259,126.1248,39.3942,-65.3399,29.5268,-164.2418,42.7158,21.4310,-130.4557,8.1751
134.8293,22.1754,-37.3653,42.5596,-117.3208,-41.2822,-163.1177,-29.2166,-154.4757,15.8208,23.5244,50.9176,-90.3942,64.6034,-130.0197,54.7761,-54.2608,-97.1479,-31.0611
89.0104,9.6009,-97.8219,30.1198,-65.9625,23.4866,-122.3677,24.5462,-144.5562,9.3359,-48.2552,50.5618,-62.8861,106.2673,-70.3750,91.4489,-65.7031,-35.7340,-46.5188
10.2629,-1.6869,-94.9997,-19.4271,-35.9442,9.9027,-121.0012,-1.9685,-178.4166,-63.2688,-20.7088,16.3347,-32.1497,79.1219,-69.6378,61.6706,-18.2544,-41.7954,-78.3102
-3.7103,20.2826,-2.4874,-5.8351,-0.3434,11.9308,-125.3939,-31.9320,-186.9952,-46.6123,83.7452,19.7554,21.0586,54.0989,-70.0994,37.2532,75.0569,-6.8590,-70.0987
87.2631,63.7118,102.4497,89.8116,85.4556,114.8610,-77.6040,34.7251,-112.3312,72.0815,153.9444,97.4880,97.4574,133.1118,-2.0428,117.9627,143.7452,133.3169,5.4453
153.8768,54.7579,89.9088,122.5288,139.3779,178.8373,-4.1995,106.2020,-16.5598,125.3229,90.3801,128.3710,102.4989,187.8722,56.1017,184.0588,105.5934,195.4190,64.1281
99.4821,-5.7837,12.9995,51.7201,149.9530,132.4591,76.4427,95.3697,59.5509,98.3403,-25.1022,60.4408,47.4013,111.8639,48.0163,138.8220,32.9540,115.8492,86.7001
5.7116,-44.7874,3.7877,-17.8129,168.4939,84.6183,142.5250,73.7623,120.2794,97.1052,-52.2292,-7.9690,41.1487,23.1265,43.4738,74.7226,26.2478,64.1570,115.9708
-30.6269,-60.9591,30.3609,-64.4581,151.1954,66.0847,142.7590,99.6345,144.1013,117.6013,-28.0707,-46.3991,60.3299,-5.8340,65.7338,46.6192,25.8105,82.1967,137.9814
11.9934,-70.8103,24.1980,-90.0749,95.6240,58.6936,123.4465,147.6242,142.6573,146.8368,-31.9591,-72.5013,33.6178,-12.2406,62.3850,37.0111,-15.6392,84.1623,155.9158
107.4475,-32.0262,8.9428,-30.6344,68.7401,100.1128,141.0946,182.7543,135.9647,193.4626,-28.3143,-33.9446,-1.3807,29.7729,32.0360,71.5615,-35.3286,78.8135,173.2864
135.4561,28.8665,-12.3458,57.6402,32.1531,130.7602,101.2166,160.9437,78.6037,165.5843,-19.0170,42.6696,-18.0842,96.9249,4.5138,112.0783,-31.2090,76.6256,115.9963
7.9505,34.6121,-26.1668,58.5714,-21.1081,90.9417,-5.2954,100.3395,-4.2529,68.3009,-48.5190,49.8925,-23.5924,84.9033,0.6723,78.9604,-22.0830,69.4161,15.2954
-129.4907,28.1388,28.6210,44.2933,29.1145,108.0314,-3.1064,109.1438,-0.6515,71.9772,-56.8762,27.0778,24.3724,47.7521,43.3668,49.3778,45.1026,127.3755,17.6190
-97.1262,73.2800,99.5807,109.5940,144.8232,213.3810,88.7159,171.0327,48.6863,137.5029,-6.8289,74.7700,97.1437,103.5581,91.9553,121.0278,127.3527,216.2990,73.2647
46.8291,111.6667,98.5809,173.0993,164.6586,227.7695,71.7549,143.7099,15.6702,68.0826,27.9727,142.3580,105.8611,176.2662,90.2422,200.8540,117.2405,190.3115,29.9926
153.7426,111.1589,95.8029,183.5342,139.8482,155.7697,6.8398,62.4521,-38.7141,-49.9035,42.0595,156.6206,110.0313,170.6045,109.4081,191.9724,74.8149,114.1181,-31.1867
164.6366,120.5229,129.2251,186.3397,183.2901,161.9921,69.1827,65.5184,-8.4961,-44.1530,78.9544,144.6475,193.5947,148.7045,210.1015,144.2472,92.8172,139.7590,5.7363
74.0436,116.5170,95.7476,148.3681,215.2467,179.0187,155.6554,82.7830,27.4774,-32.4365,84.3915,115.3454,255.6707,138.6128,276.4354,97.5438,104.1317,161.9624,33.9110
-42.0541,58.5463,13.3838,45.9086,176.7158,74.7794,121.5798,4.5361,-0.6548,-106.1776,33.4838,56.4362,218.0723,93.1594,229.9453,50.2867,57.0016,51.5738,-18.8533
-64.6939,5.7322,-22.7545,-30.7027,116.9662,-54.5772,37.2283,-77.8886,-33.8004,-126.4279,-3.6578,11.4038,155.7125,41.5985,155.4828,40.2848,-13.3624,-88.6707,-67.6898
-20.4504,-10.0944,-85.7776,-52.0899,8.6511,-121.5691,-50.1943,-102.8799,-68.6754,-97.2265,-27.9657,0.0480,83.7711,16.9151,80.5249,55.6292,-116.7595,-178.8305,-102.8726
-7.2098,-28.8110,-206.9938,-63.5922,-142.0640,-173.1661,-158.0909,-145.3492,-125.5218,-154.6857,-71.3665,0.3652,-25.4128,-5.0589,-25.3561,34.3431,-224.2874,-243.5484,-159.2587
4.3140,-25.4751,-224.0632,-34.5995,-197.3459,-188.3226,-186.4509,-186.0533,-119.2435,-217.7718,-67.6687,31.5040,-74.9031,9.1765,-67.4396,3.5226,-227.2162,-235.5777,-171.0397
53.4919,36.1780,-110.2846,43.4897,-149.2649,-146.1156,-102.1420,-168.4727,-47.3249,-189.2863,16.4182,89.0278,-9.7143,71.3631,10.3609,-1.7939,-141.6320,-160.2256,-127.8401
95.3392,91.1272,-24.9163,82.0645,-133.4943,-135.6032,-69.0154,-171.5740,-52.5406,-200.8082,112.6156,101.9122,59.3921,69.8431,72.0889,-34.9880,-80.1211,-136.7264,-131.5513
155.7025,92.9679,9.9045,70.1840,-137.9898,-147.9943,-130.7312,-210.9827,-128.3473,-278.4544,186.1521,71.9586,71.0166,-3.7774,44.3821,-68.7914,-43.2160,-138.8932,-182.1121
275.3520,81.8874,68.0202,77.2896,-64.5827,-78.8787,-123.9500,-162.5875,-108.4593,-240.1235,229.9755,73.9591,77.7452,6.4220,28.1099,-3.8576,10.3071,-49.7975,-166.1462
331.0092,64.0901,110.3347,83.2495,39.4972,17.7849,-9.1436,-46.1936,9.0068,-95.4625,201.9502,88.5428,83.9459,90.5171,60.2550,74.9123,50.7022,59.9614,-61.2639
215.5837,15.0824,93.9664,41.4595,81.9397,28.6330,75.0215,-7.1753,74.6952,-32.6424,108.4568,43.7482,61.2996,65.7614,75.5992,14.9149,63.7482,77.5893,33.8961
53.2208,-26.1261,55.9884,3.4892,74.7068,11.0996,71.4683,-23.4056,59.7560,-39.9829,12.9306,-21.1382,38.1087,-47.5671,74.4535,-86.4031,58.5935,66.9679,44.9033
13.2894,-21.2710,9.8232,20.9713,63.9302,58.0279,48.5542,17.6408,40.4965,5.4385,-55.3103,-22.3559,34.8962,-62.6763,91.9135,-59.5068,21.6003,103.8681,9.7984
65.4162,-10.3872,-49.7151,52.0284,58.2769,125.5659,50.0385,82.2666,36.9774,48.1961,-99.2736,13.3655,20.7218,8.8420,98.6705,13.3405,-21.3664,148.8300,7.9117
49.9789,-36.1683,-105.0997,37.9703,37.4561,129.7785,55.9117,78.0556,37.0094,-6.2304,-134.4848,6.4582,-28.5996,6.6663,58.1840,-19.8525,-34.1134,149.2871,32.5827
-68.6705,-70.7255,-140.1895,-10.7125,-7.7412,63.0249,55.2150,16.6495,56.5326,-81.9838,-166.6199,-36.8301,-84.2297,-73.3693,-1.9877,-105.1636,-45.7154,88.6894,32.0611
-121.5678,-63.7140,-116.5168,-39.4662,-25.7072,-4.3148,87.5524,-17.9130,104.9921,-62.7132,-132.4502,-57.3785,-73.0833,-112.0646,-11.0311,-120.9117,-61.8490,7.8159,40.3794
-9.0649,-25.6693,-30.5124,-42.4792,17.8118,1.7499,167.9487,34.1662,162.2640,48.7528,-6.9573,-55.7457,19.7949,-78.7829,55.3469,-72.9692,-47.7425,1.5775,105.2553
94.0258,-14.8980,1.1420,-63.6397,32.5677,51.1796,209.2195,131.8781,189.8925,164.7937,71.9336,-64.2116,75.5205,-26.1489,103.8797,-27.3884,-45.5938,65.4623,162.9599
43.9300,-29.6970,-70.9516,-80.8760,-48.5381,57.3357,148.7592,166.9084,166.7916,204.3710,20.8274,-54.8448,9.1116,24.0831,44.3095,-0.3269,-93.0838,78.6800,150.1621
-15.8377,-5.2330,-94.7705,-30.7859,-110.5083,35.1505,87.1758,128.9207,135.2177,169.3695,-18.4075,5.2610,-66.2245,81.6750,-40.0766,31.2245,-103.1801,30.9586,118.7066
24.4637,48.0115,-3.2325,35.0480,-59.0317,46.3832,110.8987,105.2075,136.5543,132.9138,47.9821,56.9563,-27.7486,120.2559,-23.4505,60.2489,-32.1538,27.6704,117.6743
48.7116,60.2538,53.9770,32.3954,-0.9736,62.6718,125.4336,101.9582,115.4499,110.6609,107.8836,39.7376,53.9284,90.7369,47.4538,39.1454,20.6734,65.1174,104.1939
25.8361,54.6522,18.4300,20.4337,-29.5292,49.1635,54.4344,63.5563,15.6405,50.8800,98.6610,6.0018,73.3612,16.5255,66.5130,-24.1940,10.5143,58.3300,37.4229
74.4869,88.9623,14.1568,70.1653,-47.0388,53.7387,-3.7945,27.2086,-88.7958,-15.1672,96.0379,20.1104,66.2427,-8.1048,57.4857,-39.4960,17.2261,27.4002,-32.7086
166.7628,104.5016,71.2761,100.7027,25.3020,96.2929,19.5868,54.7840,-100.3558,3.1784,114.0159,37.5123,87.2321,26.7227,76.7441,6.3761,65.5217,53.3041,-22.2898
167.0889,41.4792,100.5217,50.3882,106.8922,135.7615,68.0922,115.2126,-24.6984,84.2426,89.6522,3.4815,92.5711,28.3669,90.6151,19.7148,99.9224,139.3619,66.3890
78.2098,-20.3374,102.9678,9.7800,151.9452,171.7072,135.3726,161.0141,91.7761,139.8732,19.1827,-33.9932,47.5573,-8.4569,67.5619,-3.8319,124.9407,222.0406,145.2451
-18.9272,-18.3576,117.1688,30.0036,207.0849,209.4407,230.3179,182.0538,183.0849,159.8560,-54.8131,-27.4233,7.5654,-7.5343,48.0147,4.7714,164.9500,243.0909,169.4142
-93.7147,-27.7109,78.4910,14.5632,223.3559,189.0410,231.2518,161.2121,148.8489,151.6043,-106.7056,-37.6364,17.9051,-11.6788,62.0999,-4.9178,150.3632,192.4618,160.5558
-122.9888,-85.9666,-27.9527,-78.4324,133.2391,100.4282,97.2260,107.2843,18.9651,87.8047,-115.8367,-106.9201,44.3449,-92.9823,83.0678,-83.3731,49.5592,123.5004,119.2714
-90.1788,-95.6426,-47.8817,-119.4113,68.9028,51.3976,25.1920,76.9451,-18.4679,15.7418,-68.4001,-134.5404,58.7983,-137.2734,88.3894,-102.3355,2.2232,102.3122,58.6510
-21.8290,-7.1056,87.1509,-16.7682,148.7594,101.5823,105.8456,90.2341,68.6703,26.6900,11.6538,-37.8360,83.9946,-28.2863,91.0278,18.9174,96.2441,131.3427,41.5294
45.1937,82.1095,192.8305,112.0676,215.5451,158.9758,144.2207,103.4192,90.5654,86.3307,66.3730,81.9643,104.3017,113.0278,84.5402,139.4312,179.7944,147.6607,55.0605
69.6796,90.4524,135.2959,131.0018,128.9664,128.0450,40.0706,70.5388,-5.1251,79.4369,56.5013,108.7909,62.2444,141.6744,32.0438,145.8495,130.8938,98.4306,13.6409
31.5532,64.0023,51.5944,99.6451,24.3471,42.7255,-51.4668,-13.4234,-67.4475,-11.5705,11.2662,93.9272,-20.8113,108.8349,-47.4479,95.5150,69.2990,9.6190,-60.9213
3.3436,62.2741,70.7103,116.1077,18.7780,-10.5203,-50.3877,-92.1399,-56.1494,-107.7745,-6.7084,106.6368,-61.6958,93.4314,-78.2206,48.6463,92.9172,-41.2024,-81.3692
57.2810,61.8838,107.8033,124.7349,31.5300,-13.3956,-47.1429,-100.2692,-60.7304,-145.7566,16.7230,101.4225,-53.4302,76.2539,-60.2504,17.8530,115.2634,-30.2670,-67.5669
116.2534,32.5529,83.7037,69.6629,14.6619,-11.2291,-70.6498,-69.9709,-79.0542,-121.6791,36.7257,57.8452,-56.8238,52.2558,-71.4572,22.1568,89.3811,-15.1281,-75.3594
72.1785,-0.3729,40.1265,23.2510,-2.8010,-34.0711,-76.0092,-76.5711,-59.4261,-76.2973,-0.2102,32.7200,-97.7552,42.1305,-118.7247,31.2409,63.7101,-36.3551,-91.4208
-32.0855,-15.0090,-18.6096,21.6463,-55.3591,-58.3329,-76.3065,-94.5274,-30.2434,-42.2603,-97.8103,25.0546,-160.6875,17.4257,-147.0481,-2.8747,19.5171,-61.2971,-112.4055
-93.0526,-26.4236,-112.6568,4.4200,-149.4655,-50.8079,-100.2469,-65.3447,-34.8547,-10.5261,-174.4617,-10.1829,-211.9528,-41.5093,-162.0194,-46.2551,-61.7920,-52.9625,-144.7088
-93.8930,-45.6219,-167.0255,-39.4993,-192.2419,-29.4586,-131.2506,-28.2265,-71.0251,18.4179,-148.8231,-54.6888,-207.5821,-95.3488,-183.7638,-67.1292,-96.0135,-28.6914,-130.9407
-62.4890,-65.6040,-122.5745,-67.0658,-144.9560,-29.6986,-141.4828,-28.3227,-110.3595,17.9535,-64.5969,-72.3546,-150.1485,-105.6100,-174.2246,-91.3568,-45.0023,-15.1232,-49.4355
-19.4223,-72.7379,-46.3989,-68.4401,-66.4942,-26.3533,-111.4821,-21.8203,-100.8048,6.5166,-17.6526,-62.2072,-96.4793,-64.2102,-126.9786,-86.1118,16.5711,6.4313,16.4273
-12.2879,-53.4599,-19.4462,-47.1737,-13.3232,21.1379,-52.7717,23.4229,-30.0943,30.3135,-17.5570,-25.9465,-72.3851,9.2437,-92.7076,-7.8033,36.3478,58.0581,18.3835
-69.2662,-24.7033,-45.0288,-20.6674,-12.4867,70.5119,-13.7813,65.5648,25.3135,69.5940,-38.7883,8.0798,-65.8572,56.6869,-81.9901,55.5192,22.1170,98.7380,-0.3389
-121.1144,-25.3638,-87.9204,-31.0569,-55.2916,55.3820,-20.0122,63.1077,11.5088,67.7276,-81.1173,-8.3178,-90.6794,34.4576,-89.4580,26.0148,-10.7004,70.9153,-21.1510
-102.1694,-47.1139,-117.2330,-63.8269,-104.1492,-4.5433,-63.6882,19.5568,-35.4515,23.4058,-111.0719,-48.2966,-151.1746,-25.9936,-145.0260,-15.2517,-45.7494,-11.1978,-62.4526
-75.0416,-50.5026,-127.4032,-72.0075,-146.4485,-59.4146,-124.7781,-31.2301,-74.5274,-21.5151,-95.9117,-55.5926,-187.7251,-68.9729,-211.1091,-7.8711,-80.3720,-94.0107,-95.0161
-102.6167,-46.4636,-125.4621,-86.4823,-168.5739,-113.4784,-143.1922,-59.5843,-88.1994,-43.4256,-70.0967,-59.5663,-151.7664,-82.7559,-185.6626,-21.3887,-112.9339,-157.1109,-81.0029
-114.1472,-60.5711,-104.6318,-127.2377,-141.3735,-166.4304,-95.8040,-81.2581,-69.4407,-55.5412,-59.9480,-87.8033,-91.8163,-84.0424,-96.9029,-76.3577,-112.5281,-192.2189,-58.0181
-69.1093,-65.0891,-81.1377,-115.9087,-113.9964,-175.3760,-81.0834,-116.7458,-55.5216,-79.4002,-54.6908,-83.0594,-91.4662,-88.9685,-85.4931,-95.3199,-86.3689,-184.5635,-75.5683
-55.2835,-42.6908,-91.2585,-45.3001,-153.0597,-135.0085,-137.3788,-124.9444,-66.1874,-93.6143,-64.3257,-39.1962,-148.1042,-106.4152,-160.9019,-65.7737,-91.3316,-151.3247,-98.1667
-73.7138,-35.1674,-109.3475,-33.4489,-194.7380,-102.7447,-143.0492,-81.3748,-51.3143,-61.4782,-76.6311,-40.9973,-189.3893,-125.8461,-207.4278,-55.4969,-111.8403,-129.9609,-78.2288
-14.3855,-63.3857,-90.4578,-101.9654,-169.1395,-116.4553,-75.9191,-55.0090,-16.7288,-23.9053,-52.7463,-95.6623,-196.9706,-127.5493,-205.1596,-82.7149,-88.3638,-134.4383,-55.7999
75.3737,-88.8120,-61.6361,-138.5376,-127.3071,-146.2462,-56.8792,-85.8249,-23.4033,-44.8739,-22.6908,-116.3592,-200.7982,-112.8971,-210.6589,-98.1437,-49.3092,-153.2583,-62.9912
49.5638,-84.1005,-39.3629,-108.8927,-87.7832,-139.1132,-60.6798,-98.9073,-15.1241,-71.1580,-24.4274,-84.3005,-173.6105,-95.6581,-193.6447,-70.9961,-35.6389,-148.8057,-36.2214
-39.8566,-69.0309,9.4178,-84.7120,-10.4432,-84.4600,19.0999,-37.6751,79.0427,-10.4409,-23.1966,-59.6884,-94.1044,-68.9634,-111.8488,-27.7548,-11.0266,-81.6642,47.7517
-47.7456,-61.5767,54.8655,-77.9828,59.0686,-6.7821,109.4450,54.5456,154.8262,98.7110,-25.0797,-55.4707,-44.4674,-16.3285,-35.4346,-1.1374,35.3195,25.3512,105.5756
5.9175,-37.6520,57.0701,-23.1465,85.0352,92.1048,128.3211,134.9820,130.1854,160.8186,-65.7610,-25.3628,-58.9194,50.8997,-16.8400,29.1201,70.0791,116.7972,114.7519
38.5887,25.2914,78.2460,82.6070,133.7015,207.8143,155.4036,206.6562,105.8243,176.9139,-73.1041,40.8795,-34.1475,106.6917,7.4946,95.0906,104.5741,183.1757,146.8527
52.4892,82.9086,136.8929,144.8421,191.5292,275.0977,199.4686,258.1145,122.4767,192.0717,-5.2926,89.4471,44.3460,146.9691,54.3922,161.9937,140.2256,220.4101,198.9444
54.0065,76.8062,131.5137,112.6666,150.2946,248.4855,151.9179,266.1108,82.8938,200.8520,22.7384,77.0885,41.9727,160.2717,35.7383,166.3932,124.3673,198.9963,197.3477
21.7736,34.8081,42.1268,55.2280,17.8894,178.8281,33.9755,233.9805,-5.9452,186.5969,-39.9391,26.0669,-58.5129,103.9100,-52.1740,103.4906,49.4468,134.7845,136.9058
-40.6760,12.7485,-42.6202,30.2102,-101.4803,106.4809,-39.0897,169.0919,-41.2228,157.8772,-106.3849,-20.4643,-131.0179,-12.8029,-104.1192,17.2309,-38.2649,61.9276,63.5880
-106.9709,-2.0078,-97.5670,4.9830,-155.5346,15.8345,-49.6232,77.7820,-21.1318,120.1737,-146.9154,-46.7544,-142.7057,-91.8109,-97.6488,-42.7870,-108.4903,-28.7793,-0.1823
-128.4775,-18.1249,-129.7732,-22.1899,-150.4874,-52.8779,-41.4171,0.2399,-1.7343,76.7337,-161.7154,-41.4931,-146.2732,-75.3045,-102.2654,-38.0639,-131.5155,-103.0698,-48.3086
-88.9164,1.5339,-119.9412,-6.6060,-150.1454,-49.1913,-58.4919,-22.2529,-3.0869,45.0331,-108.3752,-2.0632,-149.9121,-18.1569,-138.3768,16.5845,-108.1014,-96.2242,-90.4007
-69.1739,32.6987,-125.8339,9.5559,-227.5990,-36.5759,-131.9805,-4.7489,-42.2437,37.3168,-51.5841,25.1512,-165.7480,15.5747,-182.2222,54.6002,-119.7429,-70.7288,-135.2999
-103.5530,16.4482,-207.0449,-32.5740,-321.1909,-64.6471,-196.3741,18.8032,-97.2560,47.7153,-89.3771,1.3601,-202.0783,18.2403,-208.1502,47.0488,-199.5738,-110.2925,-149.3789
-108.8140,-9.9210,-265.5839,-64.9636,-308.5639,-65.4341,-159.3385,40.4214,-94.9635,64.0934,-137.0341,-28.9906,-179.9978,3.7082,-157.0588,21.7533,-249.4253,-129.2414,-111.6518
-112.5435,2.5320,-217.8945,-34.8093,-211.4187,-30.1736,-72.9490,41.6704,-37.0591,68.7719,-111.9005,-18.1478,-59.3667,-6.4389,-12.9690,-7.8434,-212.0924,-63.3485,-66.3378
-218.9040,4.4820,-159.1582,-25.8530,-121.3555,-37.1461,-27.0731,9.3827,6.2103,50.6880,-100.6330,-4.5108,58.5588,-3.4034,115.8939,-35.6655,-159.9691,-23.0080,-42.0802
-296.7378,-17.6234,-147.0138,-60.9598,-44.5786,-42.9074,14.1761,7.0143,31.7484,47.2425,-114.9180,-20.1519,106.4212,-2.9148,152.2545,-20.7242,-136.8870,-32.3601,-13.7253
-185.2137,9.1563,-93.8565,-31.2653,29.1822,45.7705,86.0328,89.7671,71.3624,111.9234,-72.3314,-12.1874,130.3015,16.3668,163.4312,49.9215,-97.9413,29.4413,23.2764
-60.8387,70.1907,4.6644,66.4014,72.8530,142.5256,131.6834,170.7599,103.3027,193.2034,-43.3470,44.9930,134.9191,86.3677,190.1805,110.9905,-33.2889,124.6664,46.5968
-83.4978,76.4209,51.0286,107.7152,91.3229,129.4570,133.4749,147.1035,109.0465,168.1034,-87.2932,85.4339,90.8418,144.5832,171.0897,107.7195,14.9288,114.7154,60.6255
-72.5382,51.9419,66.1158,89.0347,111.8662,86.3518,132.6257,83.7861,104.2362,62.2873,-61.9034,81.0634,65.3492,130.2427,121.4831,74.5685,49.1875,70.3891,81.3642
37.4453,72.8560,114.5449,108.6996,126.9480,114.1613,123.3037,82.5285,82.5962,34.7345,54.8318,86.9107,113.9768,108.6690,128.6977,68.8389,88.5523,113.3330,96.7434
26.8802,101.6455,119.4946,141.5635,104.2168,137.0306,77.2254,95.4825,32.7236,83.7134,71.9317,105.2534,142.7319,115.0294,146.9223,79.1751,89.8655,139.3140,75.2932
-74.7198,84.6458,45.3310,110.9923,39.4525,83.5650,15.5899,53.7667,-20.0481,63.3707,0.7956,84.6151,76.2265,82.4630,72.3975,68.6790,39.5933,52.1030,18.5872
-6.9561,78.9645,43.9795,87.2057,0.4733,47.9457,-18.6950,23.4413,-47.0977,5.9843,40.8519,65.6120,14.3911,50.5361,-23.9097,72.3782,34.3711,-7.4227,-11.9817
140.3237,125.4291,156.3506,145.6725,43.2075,103.7852,-15.1349,70.8564,-46.2054,49.2378,146.8898,113.9435,52.6801,120.6055,-9.0363,138.8178,105.8791,61.7487,14.9090
89.8396,150.3860,187.8897,176.5726,88.2616,149.2432,0.3022,124.1545,-31.2910,109.6182,133.0985,151.4606,118.2366,193.0408,71.9156,196.7534,122.9004,118.9710,31.2999
-57.0259,105.3561,85.0916,84.9896,54.4616,85.0049,10.3130,94.1619,-18.3253,37.1995,59.0418,83.6303,125.4090,116.9963,101.0822,144.4418,37.8872,48.5664,-7.1898
-67.2255,49.8812,27.0278,-21.2874,15.3986,-18.4139,22.6924,11.7580,-10.2883,-70.8227,62.7172,-14.8304,103.1939,-21.3762,78.2778,38.5001,-16.2154,-54.6545,-49.7291
-51.8694,24.3369,39.3623,-48.3861,14.3561,-67.8474,15.6734,-46.9025,-8.5100,-75.0124,58.1683,-48.6748,67.4712,-80.0024,39.2862,-7.3096,-1.9527,-93.3989,-82.0849
-152.1344,-8.4046,-14.2400,-60.9294,-30.1455,-98.2491,-39.1016,-81.0873,-26.0958,-48.7446,-51.4604,-58.5000,-16.9368,-96.7222,-22.7303,-27.4759,-24.8755,-114.4719,-132.4183
-187.1755,-56.7950,-91.1710,-89.4771,-93.7925,-149.4761,-82.1812,-122.6512,-45.2112,-68.5636,-148.6451,-85.7102,-102.5407,-134.4037,-70.9887,-90.5980,-80.8724,-159.9330,-147.6599
-50.0227,-78.5095,-80.7866,-86.7945,-78.5646,-164.7842,-49.4964,-136.5083,-19.8271,-63.7063,-130.9029,-95.3405,-109.0667,-153.7445,-58.4397,-126.9999,-95.2900,-173.6788,-90.0918
34.2014,-62.7841,-62.6578,-72.9281,-45.6599,-105.6704,-1.9129,-72.0973,30.8652,-4.8636,-71.6146,-77.9634,-61.3112,-119.2236,-23.5606,-69.1882,-97.4024,-112.1006,-41.5976
-37.2841,-21.3131,-89.6639,-60.1213,-53.9960,-11.6191,0.0574,23.5627,33.7690,38.0692,-21.8717,-41.6634,4.2588,-42.5978,8.6780,14.6444,-95.3338,-10.0818,-37.6717
-57.7533,37.9228,-46.4765,5.2490,-4.2979,61.7217,7.8666,52.4183,-10.7320,23.5188,55.1110,19.0504,104.0180,30.2434,76.4632,44.1771,-24.5074,63.4830,-12.2116
38.7070,65.5979,74.8906,69.4375,107.6934,59.8250,43.6580,-4.5391,-33.3656,-49.9920,125.4206,49.9124,177.4009,24.5400,137.8884,15.5226,73.6104,52.9978,30.2432
89.9669,32.9140,149.0554,42.7717,160.0600,-7.8992,53.4259,-76.5176,-19.4558,-144.7407,135.6911,15.9663,154.3586,-38.9730,114.9028,-28.2206,117.7744,-8.6575,30.6016
96.9300,18.6613,163.9101,24.4895,162.9381,-14.1227,29.8842,-84.2458,-20.8625,-157.1560,143.1334,14.9267,125.1585,-20.9614,73.2165,-8.3796,143.2640,3.5427,6.5236
165.4747,62.1445,158.1891,91.6902,169.9839,85.4460,-1.8980,-15.1320,-60.3739,-57.8999,174.5161,84.2072,160.7493,89.1185,95.1727,84.4486,160.2831,109.0299,-4.2142
200.2256,62.9806,107.6859,96.6476,133.7506,134.4965,-27.6873,54.4326,-89.0523,24.6530,149.6481,86.8918,159.4362,120.2861,112.0482,110.1362,115.0483,158.3003,5.2184
112.8376,-4.0692,64.4044,-3.1501,93.6049,74.3591,2.8829,61.3025,-54.8534,13.1392,78.8745,-8.9229,100.1967,27.2950,87.4274,8.3292,73.7467,107.0854,50.3160
42.1408,-20.2723,105.7963,-27.7120,144.7902,60.5178,82.1301,56.0938,-1.8163,-6.7963,61.4147,-50.4202,106.5448,-34.3296,104.7593,-55.4022,115.0966,91.0161,103.1801
68.6197,23.8486,144.5096,35.3060,188.7445,118.1984,81.9790,89.9614,-25.5221,18.3562,74.2391,-9.3443,150.8074,-1.9941,140.9325,4.5828,139.8900,124.0090,100.1255
87.2392,19.7850,84.4056,25.0908,99.9736,94.9299,-20.4608,103.6511,-104.9223,33.7946,44.4852,-6.4500,98.4205,16.8701,83.7672,41.9862,65.2089,75.0204,67.7314
47.0724,-22.2969,-9.8517,-39.9676,-37.8397,-5.8162,-85.3266,61.6174,-121.8065,28.7034,1.4189,-47.6265,-8.7055,-29.5614,-23.8398,-7.6501,-37.8080,-42.1517,62.9724
-32.1732,-35.4598,-85.0293,-65.1856,-131.7738,-69.0188,-88.4168,22.2360,-72.6490,38.0269,-43.9319,-68.6721,-66.2065,-89.3580,-70.6020,-44.7251,-126.0284,-114.1380,40.7805
-143.4040,-52.9650,-152.8309,-96.3196,-192.8674,-104.5555,-116.3375,-0.7437,-53.0073,31.7208,-111.6421,-95.4157,-86.4373,-143.5510,-66.4074,-68.5540,-194.1310,-132.2171,-25.2799
-188.0374,-80.7108,-146.5397,-130.8321,-166.5440,-108.5122,-103.9127,-25.6029,-36.7408,-5.4068,-100.0842,-127.1987,-51.8372,-187.2093,-26.7328,-129.6414,-160.3645,-81.8573,-35.4486
-88.2511,-58.2049,-33.7587,-87.0516,-10.6280,-7.7424,43.2752,-0.0922,70.6820,-2.3772,45.1893,-96.7275,77.4903,-163.0893,73.8025,-139.3111,-24.3546,73.2954,65.2896
9.6651,-28.7381,51.0565,-41.3549,134.3698,90.6998,195.4040,63.6332,200.0041,34.9431,140.8042,-41.5828,169.8524,-73.9178,144.5716,-55.9244,57.6051,177.2799,168.7912
-17.8715,-65.9743,31.1141,-91.3984,140.3645,22.5700,196.6540,38.9177,213.8251,-12.6917,66.5641,-49.7020,94.2499,-27.9700,82.5874,-15.4894,32.5302,74.3020,159.4894
-56.6516,-101.1616,16.5938,-122.6158,85.3011,-90.4959,120.0030,-64.3846,156.5350,-131.4400,-21.8246,-73.3931,-27.7122,-60.2200,-15.0656,-66.8675,21.9509,-52.2687,74.5938
-36.6903,-67.9821,67.5898,-50.4878,83.6623,-60.5233,96.4496,-93.6178,148.7039,-158.0894,-7.0892,-42.1371,-37.3478,-86.5375,-19.9156,-91.3088,74.4214,4.8705,29.7308
-42.7735,-34.4762,103.2399,-1.5819,120.0866,13.3792,107.0448,-51.0947,152.8755,-86.0678,25.8193,-18.1683,16.8145,-85.0477,15.7394,-61.2266,112.2943,87.9288,41.7922
-56.0091,-38.5725,103.0200,-34.2220,138.2990,-13.7380,87.9348,-59.3235,85.3428,-71.3479,35.7178,-46.6675,45.7920,-101.1602,20.5094,-61.6628,113.2797,25.9476,38.9593
6.7757,-21.9060,131.6609,-30.9546,138.5160,-57.9599,54.9147,-102.3144,5.1615,-124.5966,77.2763,-47.8013,69.5959,-99.0761,34.5153,-82.6686,126.9298,-41.6831,15.0167
82.2110,20.8781,166.5612,31.3862,128.2454,-41.6955,31.3974,-107.0138,-16.5474,-136.5739,125.3070,6.4173,91.5683,-46.7122,54.5639,-55.3373,140.5018,-22.7420,3.1386
96.9863,25.4306,133.2309,29.5331,79.6918,-59.4975,-8.0500,-111.5915,-28.9604,-131.9814,116.2386,15.3356,53.7716,-36.5982,7.7109,-15.9562,94.9227,-60.0935,-33.4370
109.9658,-20.3777,71.9372,-59.3263,2.6221,-145.3126,-55.2421,-142.3305,-54.6223,-177.7728,78.2270,-56.9866,-28.6977,-108.3960,-69.6008,-41.3049,17.6471,-166.4411,-93.0353
158.2769,-54.7223,70.0224,-106.4189,-25.4019,-175.8041,-46.4937,-138.3699,-32.3929,-201.1332,70.4575,-103.6102,-56.9359,-145.3603,-62.6808,-99.3029,-1.3172,-164.8422,-86.2698
175.8378,-27.7133,95.6629,-45.6965,11.4225,-97.4706,15.4762,-90.0989,22.4070,-140.2818,86.8395,-60.8616,-6.8428,-98.1619,10.6373,-101.0086,34.0793,-54.5749,-30.4602
106.9155,22.6586,67.5374,27.6296,14.6438,-20.6315,41.0153,-51.0109,39.4494,-56.5570,73.7433,-4.8889,17.9996,-61.0331,20.2353,-49.0889,31.6470,-6.1226,-20.1543
-7.4803,9.3359,-4.6491,11.9667,-63.4316,-34.4567,2.3444,-29.1357,45.8116,8.4630,2.7354,-7.0523,-59.6071,-64.5226,-67.7664,-22.5720,-34.3608,-48.4190,-6.9280
-51.8696,-76.0950,-76.2762,-74.1017,-143.8166,-102.0778,-36.6394,-16.5268,77.1488,49.9076,-79.3668,-48.7052,-172.3957,-61.0518,-159.5175,-48.3667,-111.1550,-97.4627,67.8250
12.9702,-157.1755,-138.3448,-175.1807,-163.6932,-171.0874,-44.0678,-37.4191,72.3076,24.3435,-106.5015,-113.0645,-210.7533,-80.4241,-175.7583,-99.1201,-165.8356,-150.5861,95.0398
61.9867,-185.4836,-163.8940,-261.9279,-144.0690,-224.4732,-34.3110,-73.1578,17.3400,-40.1724,-87.5310,-192.9479,-161.1538,-143.9930,-115.0815,-157.5923,-181.8024,-206.4269,26.0839
20.1673,-148.5077,-127.8089,-263.5759,-119.7811,-210.7788,-16.6048,-56.8374,-15.3767,-34.1396,-57.9568,-204.6270,-81.4925,-139.8393,-27.9330,-169.3347,-145.2434,-184.8042,-25.9899
4.5596,-49.7923,-77.8314,-140.2372,-116.1960,-109.9075,-24.6370,3.9572,-26.1883,23.0758,-2.0741,-92.5413,-23.7487,-13.8886,9.7088,-71.5449,-95.7975,-88.4567,-31.7189
74.1597,24.9752,-59.3948,-26.4612,-137.4977,-38.6826,-76.9768,19.2046,-54.0566,10.5085,71.2244,16.7258,-16.1372,78.0629,-29.7616,35.6823,-80.5588,-38.5962,-46.6288
118.4516,-7.8429,-38.2933,-51.1560,-134.6622,-79.4928,-97.9177,-30.7491,-53.9362,-55.5518,97.3977,-8.9839,-42.4233,19.7425,-71.9561,-5.7919,-67.5276,-63.0076,-34.6226
101.4288,-60.6805,16.1812,-96.8643,-71.1653,-107.6649,-38.2009,-52.0201,-6.3710,-60.1246,79.0197,-67.9641,-44.2220,-50.7476,-50.7276,-101.5931,-11.4115,-53.8584,30.8847
90.9171,-14.0100,70.0912,-15.1931,7.8500,-9.9187,18.6243,11.3147,16.5778,9.7841,81.7311,-8.3655,1.2941,19.1455,-7.9158,-43.5952,54.0464,27.7892,85.4492
82.1321,61.7810,86.3247,93.2499,51.4060,105.2105,25.1115,94.8656,6.5549,80.8303,95.1944,92.3873,52.0646,134.5045,13.3973,98.4304,70.8833,92.3759,116.7906
65.6481,53.0860,74.6390,80.4545,73.7125,110.8559,55.6983,125.4877,30.4492,101.1626,71.4356,85.2856,73.4792,140.4839,45.7241,116.8496,43.7696,81.5263,157.5037
92.5082,2.9597,71.0014,5.2109,95.1376,58.9933,113.0355,109.7937,74.4806,63.8730,50.4998,15.2326,73.6145,81.1355,84.0709,46.0631,26.2815,46.7582,174.1909
135.3931,-8.4141,84.0828,-15.8642,97.8688,46.9592,100.9692,84.7959,71.7793,14.6186,87.5412,3.6606,68.6742,71.3139,68.4924,35.6330,48.7010,59.8801,141.2165
129.6586,12.6663,87.3826,18.5186,84.2467,85.8405,44.7295,71.4343,37.9589,13.2583,140.8682,43.0765,71.4811,97.4286,25.3560,65.7190,89.9493,123.6341,102.8087
106.0685,40.1317,88.3081,66.2207,101.6024,139.6711,65.9732,77.1806,42.6166,53.8127,147.5796,69.0778,90.8217,101.7309,37.4043,61.9970,125.1874,182.4641,95.2829
73.9119,51.5103,114.9822,92.0526,152.2967,165.7533,137.9509,90.3592,93.7014,92.1688,113.6910,69.9332,108.3832,87.7499,79.7030,48.8405,150.2736,201.6089,116.2427
-12.0433,19.8192,127.9699,62.6143,170.1842,156.6607,140.7692,103.0309,131.2260,120.1682,75.2062,49.4366,99.3488,67.1086,73.7027,46.1293,155.2760,213.1967,151.6220
-70.7864,-18.5595,110.7897,21.3283,165.7032,172.3298,120.5109,136.7467,135.2303,141.2436,62.1382,22.7955,89.1003,51.9929,52.9662,35.1056,157.3982,257.9719,196.6841
7.2812,3.6977,151.9226,55.3135,232.3515,239.1712,199.7675,186.3000,159.8351,137.7937,96.7658,34.9989,124.7469,73.1320,94.6769,39.8527,204.4928,309.3358,256.4674
114.0932,58.1999,231.7572,126.2781,318.9314,270.9169,294.9956,187.6173,199.9400,96.0783,146.6597,76.7853,182.5609,101.3917,161.4827,67.0762,250.4138,301.8318,281.8498
83.0389,60.3066,189.2565,112.8733,273.8755,197.3495,256.4499,112.3232,176.5846,23.1998,135.2357,72.3603,194.0558,68.4969,179.6031,45.9784,191.6198,220.8450,207.3910
-31.7619,16.0313,65.7243,31.1758,169.1093,89.4347,188.4457,31.3109,134.9164,-36.4909,66.2874,19.4512,172.1613,7.6949,185.0112,-34.1695,87.8269,131.3573,115.6946
-69.7846,8.6847,60.4570,9.7585,182.9066,59.9424,242.5076,21.9826,180.8054,-29.1743,39.0220,5.7569,187.9885,8.9253,228.8135,-55.7894,73.2966,102.0153,122.7144
-13.3056,63.7721,116.6749,67.5330,218.0115,98.5612,270.1033,58.2502,205.3728,6.3862,85.5993,55.6051,225.3334,60.8991,247.6059,36.9260,85.5809,105.9564,127.1720
23.6654,118.0188,61.7144,107.1107,108.4080,95.7510,118.1354,52.5608,71.4822,-18.6796,124.5494,102.8055,215.7493,97.8355,193.2296,124.1172,15.8481,61.6020,18.2490
-26.6903,117.7223,-15.6997,87.1652,-11.0190,23.3440,-24.8985,-4.0196,-62.6056,-60.9953,105.9464,107.3466,179.7572,115.8042,146.6675,104.5570,-43.5779,-16.7709,-67.2644
-105.4846,78.3020,-11.1053,44.6184,0.1898,-27.8327,-10.8285,-34.6760,-54.5132,-22.4831,53.0441,80.1481,157.2678,121.3407,147.8051,44.8242,-18.5930,-43.5828,-46.1350
-142.3504,32.8696,-55.5762,0.0775,-5.0129,-35.4113,-27.1847,-37.5347,-70.8456,12.4293,-27.2307,34.3011,98.5576,82.7909,107.2378,17.7988,-27.0381,-45.5188,-76.8121
-166.5654,-5.6440,-185.5401,-41.4445,-119.8846,-87.9819,-166.0649,-97.3592,-188.9372,-80.3343,-118.6767,-6.5091,-10.5731,8.9978,3.7492,-13.4197,-115.6492,-118.4872,-205.1967
-206.2678,-22.8231,-246.0014,-61.4478,-213.2830,-181.5168,-247.9353,-191.2483,-231.8772,-181.8374,-152.5603,-14.5566,-85.3453,-34.7102,-73.9636,-52.9338,-174.8758,-222.6637,-276.0859
-213.0280,-28.8931,-238.7904,-76.1648,-249.1407,-220.8675,-253.0913,-207.3247,-198.1966,-128.5707,-128.3394,-12.5963,-112.9713,-28.6795,-120.8074,-48.2458,-187.7757,-255.9211,-255.8121
-196.1222,-71.3754,-284.5632,-129.2344,-312.8680,-228.1113,-325.3849,-166.8727,-240.4591,-18.4890,-141.3532,-46.3070,-164.3592,-28.3114,-186.7153,-42.0473,-228.5067,-248.9440,-230.9677
-225.6404,-137.9919,-334.3539,-198.4038,-359.3225,-266.3969,-381.9186,-161.4052,-270.6127,-0.6633,-198.5293,-100.2002,-216.7296,-66.3036,-222.8254,-91.8296,-270.3316,-262.2732,-202.0312
-257.9329,-153.1340,-295.4567,-218.3656,-303.9399,-265.6270,-281.9263,-151.1983,-161.6806,-9.3717,-198.4372,-123.9497,-197.8076,-102.0946,-188.2550,-117.4706,-248.3505,-246.1110,-146.6856
-209.3100,-121.5543,-216.9042,-195.7822,-198.4190,-186.8045,-146.4176,-89.9108,-51.5335,25.2921,-125.5236,-118.6649,-132.3624,-103.8675,-142.1648,-71.6070,-184.5637,-175.8915,-91.0131
-138.3449,-107.3433,-146.0852,-171.7895,-105.2034,-128.8559,-91.1792,-60.6286,-37.2401,5.0999,-59.2890,-110.0853,-69.6376,-98.8262,-98.8334,-58.2592,-113.1668,-116.9062,-37.1242
-118.3566,-93.1374,-61.6696,-119.5186,-9.9126,-106.6296,-24.2389,-89.6819,-2.4473,-99.6432,-29.2282,-80.8572,-13.7341,-97.2697,-28.0839,-102.3304,-28.2530,-75.7813,18.6832
-92.1556,-51.5394,12.7109,-28.5879,82.5412,-42.9626,78.5314,-89.5428,76.6622,-156.2293,-19.1474,-24.9779,12.9282,-75.5426,16.0189,-97.5835,48.1352,-18.6803,61.5235
-8.5950,-40.3352,43.9112,7.6496,144.4320,3.3485,126.7984,-63.1675,103.5275,-119.6741,-11.4258,-7.1327,15.6831,-63.6766,12.6135,-55.1120,71.7910,-1.6490,98.5484
94.2646,-70.0029,74.4889,-53.5202,183.7651,-51.5477,150.7170,-78.0461,100.1823,-79.0705,35.5340,-61.2927,64.5390,-102.4709,56.7182,-74.8748,58.2066,-60.9754,123.7955
164.8103,-69.2240,132.1866,-107.0161,204.9692,-113.2924,212.5201,-95.8994,135.2892,-53.9789,110.9965,-111.6312,138.5296,-135.6714,144.0445,-122.6591,61.7326,-102.9896,118.6436
148.8344,-46.6611,148.7474,-91.5836,176.4608,-104.6874,238.8362,-74.9992,177.2932,-16.9456,112.5294,-102.0427,122.2604,-118.8376,144.7025,-124.1060,66.6742,-82.1545,107.8513
41.0067,-64.4837,65.4450,-89.5615,84.3293,-117.6998,179.4973,-82.8884,179.0285,-29.6709,22.0702,-93.8581,25.2034,-131.9832,59.3768,-127.6359,4.9585,-97.5885,86.0590
-38.4043,-97.6010,-47.4532,-138.3742,-20.0949,-190.3440,100.4949,-144.7521,136.0991,-120.3382,-43.0113,-131.8332,-40.8858,-209.6170,-1.5513,-172.7582,-92.3605,-182.2778,11.5267
-12.5928,-101.3795,-71.2480,-154.8006,-60.9822,-214.9461,42.1975,-171.8204,71.3912,-166.6747,-37.7556,-150.6541,-63.9135,-239.0031,-32.2411,-190.3956,-108.1947,-212.2156,-45.9973
16.6089,-86.7878,-10.0746,-102.5361,-32.7621,-144.8393,9.2640,-114.1215,46.3140,-83.8419,-27.4840,-104.3070,-82.1540,-162.6570,-66.2283,-135.7934,-38.3614,-127.2972,0.2954
-3.8150,-49.8240,34.0450,-42.1225,-1.9218,-59.3572,29.8059,-28.9530,74.4422,27.3655,-23.9944,-43.2935,-70.8743,-61.8262,-62.4419,-52.4966,6.3133,-41.4260,54.9815
30.2748,6.9762,28.2287,-9.5344,-0.9511,-21.3877,62.5976,12.6447,64.0672,41.1900,-1.4578,-9.2695,-36.3767,9.1075,-23.5564,10.6831,-1.7050,-41.8211,13.5550
118.0518,23.8694,8.6571,5.9504,-13.9108,-15.3125,8.6807,1.3930,-27.1427,-22.4488,7.9256,7.6866,-42.1683,47.9421,-28.3135,34.1189,-4.3209,-56.5254,-52.9248
116.8602,-12.6942,-24.5732,0.1013,-49.6765,-13.2092,-109.8166,-25.6061,-118.5691,-67.2929,-20.0230,0.9428,-90.3739,21.4838,-88.2619,9.5230,0.1646,-23.1834,-83.6977
29.1357,-43.7994,-70.5734,-32.2208,-105.5405,-30.3744,-171.3484,-49.2817,-152.2726,-70.1844,-55.8591,-38.6317,-134.6182,-55.5763,-141.1240,-47.7900,-14.5401,-16.4301,-113.9321
-8.2272,-55.3058,-83.0297,-67.4077,-121.6554,-78.2037,-147.8510,-77.6383,-140.3320,-83.7117,-69.9375,-71.2712,-152.3999,-91.4035,-152.9963,-89.4384,-27.2453,-76.1408,-122.3465
5.4163,-64.4538,-53.4288,-79.8278,-76.0675,-96.4101,-102.5658,-82.1603,-86.2008,-107.6042,-44.0565,-62.2268,-118.6360,-65.6452,-122.9396,-68.9808,-22.5909,-92.3224,-71.8603
-35.0298,-51.8027,-24.6487,-67.6160,-20.7525,-39.0748,-56.7989,-25.3418,-3.5708,-66.3874,0.7987,-33.7596,-35.8268,-34.0180,-62.0161,1.8808,-15.3463,-11.4443,-15.8561
-113.5995,-24.5146,-5.9196,-45.3145,19.4037,19.9406,-0.6607,40.3862,53.3263,31.0899,-10.1660,-14.9450,18.1116,-1.4027,-3.9510,51.9924,-3.1055,48.9125,8.0117
-125.7492,-23.5419,20.6719,-22.9485,59.9657,10.8832,38.9505,33.9405,54.4023,61.0237,-74.2675,-6.2391,7.2037,29.5456,27.3949,29.1250,24.6820,25.0272,28.1621
-69.1187,-40.2759,42.8295,-3.5831,90.6001,-12.2850,47.9690,-20.4801,31.3060,-3.7296,-85.2570,-8.7762,1.0622,3.1623,44.2618,-47.0644,56.1353,7.9039,56.9363
-33.4501,-45.1588,40.9137,2.8689,100.1702,-0.9055,73.1642,-45.5487,41.8284,-45.6277,-30.0728,-19.4468,32.8507,-52.0759,60.9990,-111.6886,72.0187,37.0465,95.8213
-36.4950,-29.2778,38.3165,12.4162,110.0127,22.4453,134.2651,-25.4408,99.4803,-20.3721,6.2994,-0.3265,55.1722,-20.8883,72.7145,-98.6666,77.3063,58.6318,136.5576
-5.9521,31.9393,84.8379,87.5797,129.4291,85.0324,158.8582,28.0384,128.1597,12.0377,29.8420,79.1894,58.4838,95.5459,70.9007,5.9300,110.1507,100.8738,137.0649
72.1082,122.4332,170.4812,218.4779,144.6495,219.9806,105.1102,126.0719,69.1300,65.8290,76.2773,171.2034,69.4989,187.4213,58.4647,128.5175,178.1474,217.8549,121.9393
113.9456,145.9067,204.3631,261.4607,152.8280,325.4773,65.7095,243.7875,12.5787,182.9680,82.9582,185.9347,74.0259,219.3083,50.9426,184.8302,207.0625,315.3558,173.1043
82.7704,84.3041,158.0188,160.0179,156.4881,298.0757,115.6546,296.3483,60.5778,275.8108,34.2356,118.3637,58.1594,215.8605,54.4822,178.0398,158.1364,286.3806,235.4082
54.3713,50.4196,128.0964,80.5015,149.1813,213.8706,164.4589,241.5421,133.3893,245.9973,21.6548,71.5842,44.9575,181.3521,52.9382,158.9614,117.6320,209.0601,185.0885
89.7335,86.4208,150.9328,138.6434,129.7931,189.1771,120.3153,149.4086,111.5117,150.6783,54.4978,108.3345,38.6277,151.9164,35.7349,148.7634,136.3013,192.9367,82.0921
138.9526,104.4774,139.4960,202.9819,106.4364,190.0495,52.5295,98.9556,41.4480,86.1064,52.4772,153.5372,13.9065,157.0681,2.8824,142.7410,136.9093,178.4975,59.6725
124.8698,61.6840,82.2535,148.1951,79.7617,129.9025,26.0255,66.9825,10.1992,47.3525,16.4413,118.7972,-33.5981,127.1944,-54.8607,123.9039,87.5763,84.3460,77.2593
67.2254,17.4120,60.4316,61.1600,41.7018,44.6643,-18.5405,18.3908,-14.8843,7.4161,9.7395,46.4188,-69.2836,33.6713,-115.1647,83.1971,56.3610,-6.1201,43.6205
59.8257,25.9568,71.7082,58.4374,4.6301,31.3766,-80.7723,0.1110,-67.0216,-13.9570,44.4468,34.0614,-50.8943,-4.5359,-109.3148,54.8992,59.9850,4.8474,0.6207
124.6121,74.2097,70.9421,116.2641,4.3152,67.7008,-63.2516,15.9292,-87.0946,-24.6315,82.5467,84.7653,9.6060,63.9307,-30.4788,64.9408,58.7594,38.1127,-0.7226
170.0653,107.2385,75.7310,155.8004,38.7647,48.3727,1.1994,-19.9071,-58.0367,-64.7975,87.0783,127.0562,48.8779,117.8409,32.3723,79.5260,49.5001,-12.7086,-8.4271
129.9334,95.8852,73.6819,143.2768,51.0781,-13.3199,-17.6436,-91.5654,-53.6697,-105.4318,68.0689,126.3587,57.5178,93.8763,36.1160,83.9301,32.0884,-77.8915,-55.3611
40.4961,68.0306,9.3020,90.0621,15.4136,-17.9085,-94.8870,-89.0895,-93.8629,-85.2459,61.4737,99.9110,82.2041,67.0832,33.6856,100.4225,-9.5825,-53.7216,-102.6282
-40.9557,46.9068,-82.2610,33.9206,-28.0712,8.4114,-117.8493,-47.7084,-118.9981,-56.0251,47.9978,69.6177,103.1650,69.8868,51.2132,91.2446,-48.9496,-2.6010,-124.3096
-66.6607,29.4283,-102.0985,15.6934,-36.2793,-13.6906,-97.2183,-74.8657,-121.2805,-104.6694,20.3849,55.7629,82.7511,72.8220,59.3103,23.9839,-33.9818,-7.8768,-125.8351
8.1685,45.3266,-20.9319,56.6126,8.1614,-7.6803,-84.9711,-98.0888,-141.5662,-149.3972,65.0717,80.0397,85.8368,97.4958,60.1998,-3.5090,48.0795,5.8332,-96.8135
121.4457,111.7553,90.7432,142.7357,78.5330,107.8248,-73.0112,-9.6156,-167.9749,-66.7857,170.6901,135.8259,144.1936,161.2706,71.6687,83.2417,142.1570,105.2299,-41.7884
128.4947,160.8889,123.8586,213.7024,87.5086,206.6073,-83.4056,86.2742,-176.4378,38.2748,176.6694,177.8506,157.9612,197.0335,70.9875,165.7948,156.7137,181.9907,-13.2511
45.0605,150.0025,74.7904,215.7124,16.8852,165.6636,-126.4980,57.4989,-186.3642,1.0976,105.1449,168.4256,111.9178,146.8540,51.8199,120.3925,96.7311,137.2889,-28.4423
35.9116,136.8263,89.6051,177.7649,-1.1883,80.7559,-112.6965,-21.1548,-181.8465,-87.3337,149.0086,127.1009,122.7034,64.2339,53.1784,28.9084,94.1158,55.2717,-25.3414
105.5361,147.2283,206.6011,161.9122,87.0471,67.5205,-26.3594,-26.7329,-121.2219,-61.8053,249.4794,110.1159,175.1093,55.0753,74.5406,32.2026,175.4031,44.7554,18.9853
101.4132,131.6289,235.8317,159.0452,124.7667,76.7697,2.8354,10.0570,-52.7450,16.2675,193.1089,126.5835,141.7327,120.1171,66.9997,101.2827,182.8307,63.4525,31.5225
15.9349,82.7573,93.2780,117.4734,22.0782,28.5023,-49.9194,-3.5362,-41.2855,27.0151,41.2304,111.0674,42.9519,120.1938,25.7109,98.3987,55.5396,17.2839,-28.0370
-28.7768,35.2453,-46.3600,36.3560,-94.2707,-55.8732,-68.8428,-62.3864,-35.4807,10.4700,-27.1533,28.0000,-22.6717,-10.2250,-13.2858,4.5722,-71.7041,-73.5869,-102.1007
-30.1506,-7.5016,-72.7149,-33.4269,-124.6270,-106.9158,-41.8133,-87.3461,19.8036,23.3552,-46.3457,-49.4008,-64.6409,-122.8872,-43.9392,-55.1129,-113.0640,-112.3173,-126.0454
-71.1825,-47.0902,-70.1921,-62.8618,-112.0540,-108.1441,-34.8146,-61.6244,76.1289,33.2015,-93.1997,-55.8475,-104.7447,-103.8457,-70.4521,-32.6625,-116.2431,-90.0675,-85.5620
-136.5231,-80.5946,-96.9156,-92.6364,-101.8646,-124.6196,-18.5280,-56.8851,104.8481,25.4584,-125.6284,-56.9186,-112.3701,-78.2121,-75.6162,-35.8646,-130.5385,-103.7980,-19.1670
-152.5268,-117.2382,-123.3112,-165.4094,-107.4225,-194.3241,31.5737,-95.3772,139.9477,19.7814,-124.0090,-120.5575,-107.8937,-147.7049,-65.5673,-106.4463,-162.4978,-177.4357,-1.9931
-118.8939,-129.1824,-126.2339,-216.3743,-139.3369,-230.0218,47.4139,-98.0251,165.1060,20.1803,-105.2335,-165.4264,-124.5300,-183.4777,-72.2252,-130.0270,-183.6186,-200.7525,-39.4433
-91.8738,-84.6690,-100.7555,-161.9448,-164.9945,-163.8185,14.7392,-36.6968,144.1407,37.7567,-67.9333,-108.7901,-134.3666,-97.8817,-96.2877,-64.1703,-155.5102,-130.2200,-37.8118
-94.8654,-38.2171,-73.0982,-74.2004,-154.3484,-88.2870,-2.4786,8.1266,110.7145,64.9484,-51.6047,-36.0829,-129.3252,-22.3956,-111.8922,-16.7538,-112.4797,-75.0299,17.6778
-104.2612,-39.1496,-82.5854,-65.0398,-142.0328,-82.7906,3.2528,1.7785,95.6746,59.8088,-72.4011,-42.2941,-126.0611,-47.6316,-104.4183,-34.7693,-114.0018,-84.8861,24.5263
-110.2071,-40.0684,-107.9431,-86.9113,-156.2831,-83.0902,-11.8494,-1.3579,71.9819,37.4193,-73.2815,-68.6307,-107.1238,-82.7389,-78.6791,-50.4990,-131.0680,-75.9873,-33.0215
-129.3777,-18.7394,-117.5163,-64.4881,-179.8474,-56.8914,-58.9015,10.5666,26.7376,49.8951,-67.8832,-50.2902,-90.8262,-64.3352,-66.9019,-34.9752,-128.6082,-38.4382,-74.4365
-129.2222,-12.8682,-118.7570,-38.3996,-187.7217,-55.7764,-105.7193,1.2219,-18.8773,72.7069,-95.9107,-30.2375,-112.1395,-45.6850,-89.5700,-15.7126,-126.7893,-48.8618,-93.6746
-42.6089,0.1420,-77.6654,-20.3255,-145.6828,-51.1813,-97.1555,-11.0158,-45.0070,72.2838,-72.8956,-28.7103,-105.4418,-48.5623,-90.8205,-1.5594,-94.6128,-67.1042,-110.7212
84.8669,45.3361,18.5449,32.6823,-58.1751,5.8162,-22.5016,9.1540,-28.7949,84.1523,21.6991,-5.6205,-27.6943,-28.3925,-21.3379,4.4794,-11.5348,-9.3557,-83.5466
111.3213,60.3267,59.5340,72.3109,-8.8937,43.2396,41.9813,29.4740,33.6048,99.3438,45.2267,29.5869,22.7641,16.0433,49.8921,3.0718,21.0670,55.2440,-26.0701
17.3550,34.2827,7.7101,61.2764,-21.2940,24.1840,46.2451,14.5899,90.6412,59.0873,-14.5779,47.8383,7.5765,37.8361,52.9739,15.1580,-24.2086,51.3147,-9.3176
-61.8923,43.4101,-2.0154,83.8644,-3.3708,42.9133,35.3136,-0.4742,84.5156,-1.5114,-21.7086,72.7406,16.6356,37.6254,38.0494,33.4616,-8.7601,59.3691,-9.0635
-39.9116,86.3164,74.9435,156.9727,69.3699,118.0199,43.2717,21.5822,29.0375,-9.8244,25.9896,114.8529,60.7290,72.3521,55.7336,40.4618,96.1213,122.6760,30.5473
44.5791,117.4221,139.3442,198.5648,126.3389,163.2173,63.6894,60.5254,0.9491,17.7726,73.6472,156.0561,101.0836,162.5659,91.2636,80.7529,158.6989,159.2544,71.0792
117.2832,160.0425,167.6691,222.5987,154.5614,182.9475,100.4778,91.5822,34.9973,56.7378,151.1618,202.8510,178.1850,247.6548,151.2282,169.0327,149.1656,166.9113,79.9391
123.9989,196.8470,176.2132,255.9144,164.2879,215.7841,120.4227,115.1308,57.5714,116.3138,203.3723,231.0644,255.2695,262.6537,212.3561,204.5138,135.9169,200.5232,91.1645
71.0521,158.3951,131.9693,217.6287,127.6846,199.3106,86.0635,119.1442,12.6890,146.3961,143.9671,188.4715,207.6502,224.7153,177.5916,145.1451,120.6579,187.3479,108.2520
36.8909,93.4142,83.1170,123.4679,76.4269,118.1722,58.9694,93.9900,-14.6933,102.7859,77.3120,121.6168,80.5990,191.5344,50.7174,103.7087,94.8792,78.1356,111.4673
60.0741,85.6227,98.9556,99.5754,55.2747,70.8724,71.3636,68.4189,32.9211,52.6877,93.4599,109.4425,6.2104,164.7939,-49.9773,129.8437,82.8211,-0.4613,108.2741
81.1411,81.0566,97.6441,113.3681,7.9201,67.8280,26.7791,57.3357,44.5301,46.8639,83.9542,105.9596,-48.8841,114.2174,-106.3201,128.5342,61.6751,10.5514,77.7711
55.0550,27.1601,13.3645,56.6200,-88.7649,19.1039,-83.5843,22.9893,-32.2444,28.5595,4.3741,53.3194,-137.2481,56.2254,-168.8640,66.8789,6.8790,-7.8805,-4.5551
-2.9891,-22.6738,-66.5467,-20.8252,-154.7634,-74.9524,-136.2230,-52.8330,-75.7998,-29.4132,-59.4578,-3.0426,-196.6270,2.4132,-209.6901,-1.9291,-45.4590,-94.5965,-85.1347
-69.8190,-51.7555,-86.9844,-53.7237,-175.9280,-141.7316,-132.3914,-124.3883,-59.5293,-74.1064,-103.0566,-48.0179,-229.5147,-91.8843,-227.8420,-83.5674,-62.7310,-155.0288,-116.1147
-82.2852,-73.0076,-65.3659,-68.5661,-191.2744,-153.5126,-168.7446,-147.0152,-103.2656,-85.8305,-122.2367,-104.5892,-272.6815,-206.0644,-270.9986,-166.1032,-33.8985,-155.5182,-135.2478
18.5791,-42.6118,1.3050,-43.3335,-173.8233,-116.7522,-225.4521,-134.4136,-206.8742,-91.7395,-47.7595,-113.1725,-245.0151,-231.3868,-274.1976,-166.6215,30.3278,-121.2235,-175.2410
128.1113,12.7964,42.8259,23.7995,-143.2914,-74.0158,-261.6179,-135.2997,-270.2994,-100.4013,37.1511,-59.8984,-139.5186,-184.1921,-180.6029,-123.7610,52.6095,-67.8201,-219.2602
100.9441,-1.8675,-20.7584,28.2684,-167.5618,-84.1656,-298.1328,-164.6643,-288.8415,-113.8726,-3.0836,-56.8919,-98.1410,-204.1169,-106.3482,-159.3286,-4.4081,-46.0449,-249.5267
18.6713,-45.1769,-68.3811,-24.0192,-164.2662,-106.0185,-279.9451,-172.3767,-276.2692,-138.3408,-67.1435,-109.1953,-111.5214,-269.9494,-101.3067,-212.1696,-32.3083,-68.2486,-236.2733
30.0852,-25.0897,15.6892,-13.2292,-33.3996,-56.9944,-155.0857,-122.0307,-201.9468,-148.6442,-23.4297,-96.9321,-35.7716,-230.9665,-36.9692,-163.9164,37.2511,-45.2633,-152.1808
69.5251,2.0997,94.0439,26.4697,101.8063,13.6768,-32.5754,-61.1235,-115.8143,-111.5716,38.6509,-38.4734,89.6295,-112.7166,92.8083,-100.9717,103.7385,38.4502,-42.4396
38.9980,-18.8103,62.4286,0.8573,117.1552,26.6865,0.4177,-30.8294,-90.3479,-44.2654,39.4487,-33.5788,134.3340,-54.2828,146.0542,-106.3340,95.5380,77.7249,22.6035
7.7996,-23.0846,34.2038,-28.9200,105.7946,26.8024,17.5745,3.3305,-76.2672,4.4445,30.5970,-48.7584,128.6782,-46.7344,129.3589,-76.8670,65.0900,52.8730,40.2656
11.7893,-3.6398,50.1877,-19.4033,143.1548,46.1400,75.4756,46.8246,-9.6146,18.7933,13.0474,-35.0037,141.6054,-20.8955,151.4522,4.0524,40.6595,36.5537,44.8972
-10.3029,-21.6925,25.4666,-41.4169,157.9135,30.1456,139.0166,47.1279,71.8097,16.5462,-25.9345,-39.8314,147.4514,-6.6840,194.0976,2.8062,7.9898,32.0744,54.9108
-20.7912,-45.7049,-11.0066,-74.2605,128.1070,-4.7643,168.5427,15.7594,106.0652,0.2674,-23.0393,-60.1208,130.7890,-23.3262,189.0282,-60.8117,-7.6365,18.6974,70.3119
28.8428,-22.0892,11.3053,-32.0162,108.3048,14.1153,128.3396,14.6702,70.5147,-32.0570,6.3249,-34.1089,107.6883,-20.8756,147.6018,-45.9680,8.2865,26.7318,64.5022
29.3756,12.0929,37.6872,40.0512,94.7889,53.3613,33.2390,32.3661,-6.6682,-53.3246,-27.0234,15.2892,69.6682,5.3087,99.3607,24.8626,20.4748,39.5183,23.1111
-72.0793,4.7440,7.9867,36.4218,53.9161,18.4853,-25.0602,6.6614,-54.3628,-61.9698,-98.0048,11.4181,18.7470,-8.9840,51.3717,16.4368,0.6169,-15.0663,-9.2649
-129.7736,-57.4022,-48.3065,-57.3279,-3.0830,-98.2041,-29.5943,-73.7096,-58.0558,-101.4985,-130.6086,-70.5688,-28.5002,-110.3693,13.4960,-104.8208,-47.7617,-127.8587,-6.6188
-64.0665,-136.0002,-81.1829,-157.2597,-35.7033,-194.6361,-48.1432,-147.1161,-76.2941,-148.2449,-131.8684,-172.4492,-59.1226,-239.5307,0.6928,-236.8683,-83.3450,-190.3291,-16.4641
6.9891,-136.5013,-61.5116,-147.2280,-14.7192,-165.8860,-67.8679,-140.5102,-109.3635,-127.1981,-128.6640,-180.1896,-47.1499,-246.0950,27.5739,-243.0920,-55.8772,-136.4086,-60.3945
-9.9541,-51.8445,-15.3532,-29.9843,27.4718,-59.7446,-55.6948,-77.6712,-110.1002,-78.8960,-133.5969,-71.6852,-13.8750,-102.5843,66.2386,-123.9376,1.6661,-44.8788,-92.2817
-44.8731,-0.9073,4.2537,50.4406,34.2679,-17.2957,-51.1182,-52.8084,-85.5799,-79.2347,-144.9915,22.7325,-27.0920,19.7657,48.2033,-27.6282,20.7325,-25.4115,-82.7329
10.9522,-0.4145,28.1454,57.7478,33.8903,-14.9142,-39.7184,-46.8909,-47.8635,-51.9317,-102.2821,42.8555,-59.8949,48.5749,-14.3464,10.6552,33.5119,-29.2573,-42.7968
120.2278,27.6729,77.1126,80.5721,59.5688,52.8707,4.2083,22.3346,-2.1673,53.4370,-13.9670,64.1041,-46.0467,91.7856,-37.3614,80.5468,68.6543,35.7451,0.1852
109.3522,24.2644,31.7019,68.4745,32.4604,84.9291,-10.3128,78.1546,-3.7270,97.9588,-29.2794,67.5568,-40.5129,126.7740,-25.2467,116.8504,28.2658,72.6215,7.8269
-57.7716,-63.1385,-130.8976,-46.8843,-66.6533,-19.2744,-84.4159,24.3669,-44.3421,32.1903,-150.2801,-9.0563,-78.4749,48.0318,-30.2475,25.7910,-104.1934,-17.4257,-16.3606
-169.7143,-97.8383,-210.1374,-113.2502,-109.3399,-97.4367,-72.2255,-43.1568,-30.2910,-10.0600,-172.2148,-60.9831,-76.5166,-36.7507,-34.2521,-55.5325,-162.6923,-100.4129,-24.2469
-99.8156,-40.8305,-136.2956,-49.4219,-68.3425,-65.8035,-5.3823,-60.8540,11.2571,-28.3588,-76.0971,-15.7607,-51.4182,-13.6785,-41.2765,-40.3500,-88.9748,-81.6765,-18.6420
14.6856,-41.2583,-70.5772,-21.0079,-46.0538,-73.3035,-25.6031,-101.3762,-4.5103,-105.8560,-34.9169,8.9564,-90.9737,11.8232,-85.9921,-47.3361,-22.6129,-70.0906,-26.7358
70.0589,-82.1904,-57.3759,-57.7391,-32.7875,-99.4458,-52.6132,-111.8119,-4.6587,-128.0378,-35.1404,-10.3426,-109.2838,8.5611,-101.4193,-44.7339,-23.6238,-72.1221,-17.0657
111.9393,-22.7192,-15.3647,-0.4111,16.7551,-5.5055,2.2183,-17.9769,54.8624,-32.8329,19.4398,40.6630,-30.6384,71.6815,-39.8172,75.6543,-20.4883,4.5598,5.5419
110.9842,62.9081,19.7733,110.7338,21.6105,74.5343,9.5190,20.2417,48.7186,-15.2505,34.5889,112.2021,7.4375,111.0970,0.6048,133.9195,0.1394,60.1001,-27.6208
8.8431,43.4897,7.9722,105.4015,-31.1899,-1.9030,-50.1252,-72.5645,-18.7869,-110.2545,-40.4349,75.2515,-43.6514,15.2232,-15.4577,-0.2986,5.5534,-1.8067,-81.5784
-81.5664,-8.0644,15.9460,14.4102,-24.5831,-73.1573,-28.9198,-100.1422,1.3690,-105.7364,-61.6857,-4.7007,-40.5711,-61.5447,-3.1927,-81.8468,9.5567,-47.5209,-67.7812
-25.8802,-1.9490,48.6357,-25.5343,37.7272,-38.5274,31.9886,-31.9763,56.4916,-24.7907,13.6233,-7.8255,21.1228,1.1605,24.0890,17.5291,24.5891,-16.8699,-45.7111
116.0454,30.5376,62.3565,17.7785,57.6752,-18.0723,10.2121,-47.9084,7.7654,-55.6676,68.1406,40.0318,29.6798,68.6609,12.0130,80.7037,43.8857,-20.7446,-91.1612
172.0774,50.5869,72.8749,78.9556,46.3239,-36.3962,-18.5971,-111.4628,-58.4567,-111.6562,49.1652,58.2637,11.1109,38.0612,15.9106,15.5837,58.1406,-56.3603,-116.7654
56.8212,21.6761,42.5828,52.7780,32.8504,-46.4882,10.6385,-90.0776,-27.2237,-51.9594,-33.4865,9.6528,3.4543,-38.9171,43.5433,-53.4866,21.7983,-64.5361,-65.8831
-102.4448,-62.3078,-72.3177,-66.4499,-9.9648,-80.4573,24.4696,-52.9587,31.8767,3.1077,-140.5662,-73.0081,-36.8635,-98.6643,25.4575,-82.6813,-73.6152,-84.0249,-29.7824
-92.4659,-97.2301,-146.8440,-123.9906,-45.0186,-91.3918,20.9832,-44.3877,48.9366,-22.0379,-149.3564,-96.6171,-60.1952,-91.8208,4.7737,-76.7866,-125.2522,-83.1218,-43.0416
39.5276,-36.8444,-95.8203,-65.4617,-28.6223,-10.9751,39.8156,8.5639,39.9120,-13.6049,-34.4484,-48.1328,-5.0334,-25.1429,36.3744,-26.4576,-77.3393,3.4677,-41.1261
45.2732,7.5180,-43.2319,-22.8132,2.2129,63.7968,49.0145,63.2298,20.5422,35.0011,40.1311,-15.7897,47.7501,17.5852,51.8720,9.1749,-11.5691,80.5609,-9.5274
-43.5100,1.2913,-35.8862,-21.7293,51.3246,74.7604,68.2897,61.3589,24.6422,37.1275,21.9345,-5.6658,61.8375,32.4938,44.9676,21.7141,22.3896,77.4038,30.9524
19.4256,16.1150,15.2788,8.9799,127.4452,79.9098,119.3361,55.5030,55.4391,10.2914,40.9900,22.9950,96.3090,63.1048,77.3524,64.6626,44.7752,53.7913,65.9507
182.0358,14.5520,60.9522,-0.3926,127.7099,26.8413,106.8271,16.1350,39.2215,-24.2450,110.2902,9.0325,107.6563,38.9306,84.1525,53.4810,34.7136,-3.4301,58.7395
217.1713,-47.8578,31.0249,-81.4160,44.9784,-89.9734,38.8173,-82.6723,-1.2318,-64.7614,135.9190,-56.8901,51.5114,-44.7933,21.8236,-69.3179,10.5190,-75.5522,37.9209
158.7967,-69.9905,36.4940,-82.5980,40.3061,-68.6174,61.8615,-75.0952,41.2386,-23.8156,128.8300,-55.0182,25.5040,-33.8015,2.4943,-125.5727,57.5793,-1.9069,95.2091
122.9847,-17.3290,104.0537,12.4518,112.2999,92.5516,133.7332,73.5908,106.5145,92.2896,111.9380,11.5450,51.8174,57.4999,40.2325,-35.2282,128.2235,158.4190,188.6721
59.6247,-3.5497,93.0532,31.0979,106.2504,121.6065,115.8045,125.6065,85.5791,107.9957,51.5158,12.4642,34.3943,44.4067,27.0256,7.8569,98.3514,141.7562,200.3813
-11.5120,-52.4387,28.3925,-39.0632,69.3214,3.9302,103.3013,24.9081,77.3024,-0.3988,2.7510,-43.4513,1.4463,-47.3891,1.1722,-74.1116,34.4633,4.3265,176.4002
39.2138,-73.7355,58.0170,-60.2219,133.1971,-23.7130,199.6645,-22.3318,162.2888,-55.5966,35.6808,-56.7654,28.9989,-61.4079,43.1462,-122.4108,67.2419,0.8834,205.4373
164.0443,-46.9273,136.9298,-19.6170,211.6171,49.2117,257.5857,32.6426,199.4973,-9.5721,75.6171,-36.5665,50.4045,-24.6308,67.7683,-63.9045,129.0729,73.4539,214.2202
192.7040,-30.0462,134.3959,-14.0821,187.6454,55.8094,181.6079,55.9167,113.3987,25.5276,50.8353,-45.0819,15.2699,-34.7823,16.2469,-1.0266,108.4410,32.9825,145.2016
96.0589,-66.4010,59.5790,-95.1508,111.8432,-44.7615,91.5571,-6.1583,29.4234,-5.1781,14.8539,-99.6155,-13.9713,-91.8606,-31.9322,-37.4414,41.9113,-85.9866,82.5549
-20.9279,-130.7437,-13.9991,-204.3742,36.8978,-179.4915,48.6581,-112.8216,13.9750,-76.6530,11.8961,-167.4808,-22.1551,-169.5008,-48.0234,-155.5302,-10.0500,-181.7452,59.3931
-42.9766,-135.8336,-31.5207,-209.5881,-30.5799,-242.5737,-1.4747,-185.1239,3.7204,-135.9224,31.2810,-171.3893,-30.8323,-215.5185,-56.9473,-216.7506,-38.5523,-214.0164,22.5866
63.1619,-67.6550,24.1887,-105.5351,-42.1874,-180.3395,-45.7487,-151.3527,-23.9052,-126.5945,73.3499,-100.9609,-6.7371,-170.3061,-28.4077,-149.2703,-29.4661,-153.2758,-10.6188
179.8864,-28.6800,73.0668,-59.2203,-2.0744,-92.3505,-28.6520,-60.1279,-25.6803,-64.9400,115.2902,-63.7359,41.1802,-90.5467,29.6344,-69.9662,-3.6407,-61.3413,1.5182
173.1394,-40.6349,40.8050,-102.7516,14.2643,-62.9831,37.3701,-3.5727,16.7393,-5.4832,114.5984,-84.8554,58.0253,-53.8963,55.6851,-56.4650,-10.2493,-28.5891,25.4538
71.5366,-24.2291,-20.1960,-97.2444,1.2616,-31.2755,86.8749,28.7270,60.8614,47.7617,75.9890,-70.2828,63.0287,-25.8501,64.7364,-32.0549,-40.0993,-17.0637,28.0692
-33.5593,-12.4032,-71.5956,-72.5758,-16.0935,-13.2450,63.4799,40.4453,52.7472,69.1866,12.9201,-42.3560,76.9985,-3.0470,91.1457,-1.7506,-80.7369,-8.2781,9.8022
-118.5768,-74.8700,-151.9077,-148.0782,-69.7457,-94.1208,-11.8383,-11.3740,17.3383,17.2649,-74.7862,-90.1382,42.1333,-47.6226,85.1786,-44.8704,-153.3273,-64.2770,-47.4464
-168.3612,-112.0486,-219.0838,-202.7479,-155.2560,-152.3624,-69.3663,-52.8712,9.1795,-21.6247,-139.3671,-133.4394,-49.8642,-102.7082,10.9097,-79.0054,-206.2471,-106.1430,-137.6888
-170.1922,-29.1353,-192.9000,-90.1197,-212.4084,-40.8889,-114.6023,17.6874,-11.2235,53.2755,-131.8710,-61.0814,-121.1123,-55.3238,-85.3326,7.9102,-165.3113,-15.1292,-194.8721
-148.4607,72.0031,-112.4900,57.9959,-216.9395,107.4811,-168.0002,126.0794,-70.5339,160.5864,-83.2219,49.8708,-133.8792,59.7066,-143.8293,131.0645,-79.7131,105.1789,-172.2227
-106.7198,87.9606,-54.1449,87.3976,-175.9015,129.0739,-153.6248,152.9008,-78.3734,189.5620,-46.2338,81.6745,-109.4385,121.0995,-131.0971,157.0476,-34.1558,119.5058,-104.5143
-64.8446,63.6520,-38.6642,54.7654,-135.0235,73.7387,-81.2446,102.8633,-35.6751,159.9016,-41.0555,46.3995,-79.1971,81.7775,-71.7938,84.6115,-32.5262,71.7388,-82.4005
-95.4824,55.4203,-74.5830,38.9067,-178.6104,13.9805,-113.6992,28.6974,-74.8516,100.1864,-68.6530,12.7628,-86.7309,0.6951,-60.3150,4.5387,-63.4356,16.5839,-155.5503
-155.5689,54.7344,-127.1419,30.2733,-274.0062,-41.3182,-238.6099,-25.0159,-160.7829,18.5307,-92.7712,17.2827,-141.8179,-17.7755,-133.6071,7.6768,-111.6546,-47.2883,-242.3729
-107.1710,51.2421,-136.3643,27.1641,-286.3457,-57.1242,-252.1062,-28.5054,-142.2728,-21.1195,-76.4605,48.2314,-184.2076,42.0411,-197.2529,77.2958,-131.6355,-83.4965,-234.8089
-5.2700,49.4330,-137.9349,40.6187,-233.7173,-38.8409,-168.4965,-20.1936,-78.0977,0.1879,-58.3659,68.2381,-167.4133,82.2168,-172.1333,102.3237,-136.2970,-82.7493,-181.4177
-17.2868,51.4705,-175.4723,58.6007,-226.1607,-33.1226,-160.7838,-32.0089,-84.1656,24.1659,-79.5379,76.6029,-109.3153,74.3397,-90.7721,77.3402,-170.8320,-69.7375,-177.2865
-99.2469,50.1285,-178.9399,63.3785,-206.8907,-10.7161,-164.9489,-2.5014,-64.2619,58.8651,-101.3295,88.6344,-38.6618,90.4853,-2.2177,91.3821,-187.3387,-13.2670,-158.9518
-124.2118,33.3288,-128.2883,40.4199,-105.8805,53.3212,-51.8132,89.3678,38.1928,137.7751,-101.0229,75.4120,21.2611,125.1814,74.4792,118.5427,-143.2204,75.2480,-56.4287
-134.1352,18.4847,-112.2341,12.1867,-36.4591,96.1830,47.0351,152.6364,76.8227,195.2981,-116.3843,37.7595,39.9733,118.6877,104.9861,99.0923,-107.0547,101.3581,22.0517
-176.6890,32.1431,-126.4496,30.5315,-52.2923,96.8074,16.8667,142.2595,22.3263,177.5226,-147.2861,35.4128,17.0904,89.0558,74.0046,90.3163,-108.9301,65.9213,0.0824
-196.6499,40.8823,-110.9570,66.6613,-46.7921,97.0471,-6.8069,111.1257,23.2212,134.9006,-163.6823,55.7118,-15.8341,60.8619,24.9660,108.5083,-98.5381,49.5579,-17.3000
-207.9471,-2.1678,-127.7559,29.8860,-29.1231,81.2382,33.4108,89.1376,80.7139,107.5679,-182.9147,25.1011,-58.0002,14.6932,-20.0047,75.5593,-95.5175,41.3247,15.6570
-245.9509,-67.0168,-213.5835,-67.1872,-103.0755,16.1704,-2.0383,52.3289,61.9288,74.0029,-214.1409,-42.2628,-135.1194,-36.3643,-97.9272,4.3029,-137.5012,-4.7907,-8.5424
-231.6456,-97.0604,-246.4500,-125.3297,-195.7366,-60.0133,-117.5062,-9.2337,-28.2937,14.9262,-208.7655,-84.3288,-215.2760,-79.6659,-197.1065,-34.9611,-156.0438,-66.0227,-102.4168
-152.8865,-84.4409,-156.8074,-111.3987,-167.6710,-86.0362,-164.9446,-59.1122,-90.6855,-58.1991,-144.8626,-94.1893,-214.7625,-128.9236,-228.9707,-48.1258,-91.5117,-96.1194,-140.3181
-128.1058,-43.8965,-28.2963,-49.1587,-51.8952,-34.3796,-127.7802,-51.2953,-106.7914,-93.8397,-70.8236,-67.8383,-126.7651,-135.0287,-170.3605,-43.0877,21.0451,-51.5149,-85.5149
-138.2088,8.9843,73.3858,47.9093,54.3138,67.1985,-71.6532,-2.3865,-92.3056,-53.1184,-30.9884,6.2692,-47.6596,-48.7696,-97.8000,-9.8002,138.8199,63.5088,-12.1974
-52.2436,48.6693,138.4604,134.3626,123.9715,132.2784,17.3433,23.8134,-32.9384,-2.0674,-15.2042,77.6498,-25.9177,55.2080,-45.0252,11.1931,210.5764,138.4043,39.6847
63.2012,59.3040,126.8165,140.3572,127.2014,103.7632,107.1152,10.4363,45.9630,-24.6843,-1.5513,90.6565,-12.3732,88.5982,12.0889,7.8776,163.7213,96.3939,50.3198
45.8779,42.5701,26.2574,69.7085,42.5147,14.5394,90.1653,-31.1739,69.6335,-88.6469,-5.9687,60.2288,3.5014,60.5282,42.5203,8.9199,29.3197,1.9321,-20.3940
-42.6969,11.3902,-80.0843,-0.5568,-57.2228,-83.6269,-7.4068,-114.2443,15.2403,-143.1901,-42.2611,21.0977,-19.7370,1.8021,12.2460,-18.6929,-66.8242,-88.9057,-138.8045
-49.2769,-8.7004,-112.5693,-20.3344,-89.4014,-147.8085,-58.8608,-192.3713,-45.0106,-194.7677,-68.0455,-5.3436,-49.2087,-56.3499,-16.5083,-76.3803,-86.7556,-161.1806,-192.6604
