Fp1,Fp2,F3,F4,C3,C4,P3,P4,O1,O2,F7,F8,T7,T8,P7,P8,Fz,Cz,Pz
-33.6937,-157.7733,-93.8202,-133.0484,-40.3960,-65.1721,-95.7709,6.4473,46.8212,-18.6058,-80.6357,-124.6998,-32.2277,-36.0475,12.1122,-27.5530,-86.8619,-61.6496,-73.1095
-102.4392,-37.2016,-144.9886,-66.5819,-87.5352,-67.3125,-94.0617,48.4720,97.3124,109.6005,-65.1359,-27.7393,-8.4420,0.8108,18.4521,-11.4414,-120.4431,-61.7123,-62.2170
-133.8993,70.4461,-113.3943,-45.5455,-55.8547,-155.0297,-44.5143,-3.1669,64.2301,60.1922,-6.2841,1.0287,38.8663,-65.1457,10.7330,-89.2801,-123.9434,-166.8529,-12.9753
-117.7317,58.5350,-51.8629,-63.8419,7.1366,-231.6488,27.6553,-81.1030,-17.9994,-10.5276,34.6245,-29.2519,79.9411,-118.2969,4.3131,-134.4214,-106.3052,-162.2201,25.7182
-108.5929,82.9886,-38.5408,52.9856,23.0927,-121.3850,67.0125,44.1494,68.6482,272.5804,28.9768,74.7785,104.7538,14.3313,4.3042,-4.0453,-99.1386,14.2180,42.5597
-79.7593,208.8254,-14.4038,236.4508,8.3003,23.7995,48.7639,210.4902,181.2560,484.5370,43.1466,247.9516,98.2452,169.8877,-15.6899,121.9696,-70.0637,70.0372,9.2645
-13.0974,288.8109,59.0941,274.6942,-18.0586,-37.0991,-40.2211,89.1122,-48.0613,100.8492,90.3376,271.9777,30.1880,132.7802,-66.4064,68.4736,-23.9639,-55.6614,-118.8222
-0.7071,296.7734,82.0313,239.9139,-88.3707,-144.6379,-156.5237,-137.5891,-315.1592,-340.0257,76.4996,219.6788,-80.3962,39.5517,-117.4979,-5.3080,-17.7071,-76.2019,-228.9365
-53.0000,301.4134,20.6386,272.5619,-171.0405,-62.1721,-180.9277,-122.7403,-71.2416,-238.0366,-3.7319,242.1957,-157.2803,63.8118,-126.4007,36.9403,-15.3141,47.1823,-157.5477
-48.0462,247.7847,-14.9461,267.3811,-171.6146,68.0849,-80.2365,0.0252,328.4387,22.1368,-30.6820,239.0139,-152.4756,104.4795,-71.3310,81.3300,39.6334,97.1522,-0.1579
16.7966,122.9315,16.8296,154.3477,-87.0048,50.3885,30.6801,-17.8010,275.1591,46.2395,14.8315,136.0792,-100.8920,65.5009,10.7287,58.1441,70.6833,45.9666,22.1723
21.4438,48.0859,43.5245,45.6178,-18.3511,-40.1326,58.0926,-95.2874,-25.3397,20.1208,32.8740,61.5825,-83.9163,22.0625,20.2373,22.5319,14.2668,-10.4067,-76.1484
-33.7123,64.8100,44.6728,0.6662,-17.1053,-76.0089,16.9982,-111.5336,-241.8053,-5.0807,9.8983,87.6290,-131.0421,33.3433,-79.8328,-0.2949,-40.1994,-24.1341,-111.2043
-58.0493,112.9977,53.0870,29.8447,-23.3304,-15.4587,-14.4901,-60.2146,-402.3513,-68.9498,2.7104,164.1801,-168.5234,96.8463,-159.3758,30.4797,-19.0008,68.3666,-2.0912
-50.2552,138.0646,46.7292,134.3121,9.4507,111.4662,46.3502,80.6621,-270.0240,49.7416,-12.9445,224.1600,-134.1155,178.1747,-102.4315,132.2233,11.5083,191.5587,170.0566
-61.6011,84.7803,-10.3008,164.2688,12.3018,141.4690,143.8215,204.2710,199.9490,240.4359,-72.6996,181.4025,-95.6103,174.4082,-33.1032,164.1084,-35.5103,132.1347,229.0862
-101.7622,-2.4425,-86.0735,32.0031,-81.2289,-7.1103,89.0671,131.8826,251.8183,99.2232,-114.6171,60.7204,-132.6021,65.9702,-120.8763,50.3297,-156.7243,-31.7021,83.6843
-149.9195,40.9392,-126.5304,-34.8208,-200.1022,-107.4735,-116.8210,-2.6131,-370.7826,-157.6124,-89.0981,57.5096,-199.2013,19.8505,-269.8522,-26.0941,-273.7960,-12.7434,-104.0131
-173.9433,208.3298,-130.9819,110.2403,-263.6333,4.4838,-243.2245,58.0273,-782.4686,-49.9580,-56.7119,211.0583,-238.7479,113.8344,-300.1613,53.5703,-315.8683,126.6821,-145.4447
-161.3835,277.3891,-132.1835,224.2962,-310.1234,115.4096,-232.6951,192.4884,-531.1839,190.8395,-77.8330,288.4955,-277.6985,177.4296,-261.5859,118.6235,-290.0162,111.4733,-109.5334
-139.9440,165.9887,-126.0954,119.2718,-337.9287,36.4779,-218.4240,144.5185,-132.9004,143.7379,-106.4233,176.4422,-305.8625,91.8799,-255.9323,29.6501,-229.5977,-18.0742,-94.2217
-116.1477,16.7163,-75.7359,-25.1780,-239.4981,-72.9946,-171.4649,26.4990,108.9766,12.5335,-73.1964,48.6394,-263.3477,-2.6266,-206.3667,-76.2762,-127.5659,-30.5125,-15.8684
-66.9408,-51.1701,7.0006,-12.5571,-29.6637,-16.3603,-11.5915,78.6619,227.0339,69.5740,-8.2693,59.0167,-180.7740,52.1136,-73.3534,-34.7495,-6.3081,104.8400,124.5571
-10.3696,-44.8928,58.3838,85.6401,145.2996,151.8224,134.1168,209.4353,121.6527,103.9135,15.7570,141.9351,-129.1965,175.7627,22.0538,72.9056,76.3322,246.5163,191.1856
27.8876,-37.2998,65.3361,116.3909,266.1232,271.3159,182.6035,198.5974,-19.0610,-33.3233,23.2644,158.4730,-78.1723,192.6738,52.5158,79.9682,142.3872,305.0306,225.2187
66.0614,-57.9955,79.2559,97.1792,395.3203,315.0095,253.9220,125.6448,126.9414,-77.5365,83.2952,112.5040,19.1764,128.3524,109.3497,32.2175,229.2058,341.0248,345.3868
94.0372,-25.3374,115.9444,155.9502,469.9809,379.1316,363.0721,205.2310,293.0359,113.5340,157.8585,130.8615,106.5028,137.2238,158.6499,67.6502,261.3928,434.6341,444.1051
73.7461,86.7579,137.9736,267.6311,435.0061,459.1808,376.7237,352.0047,193.6563,259.8426,168.3177,217.1579,120.0049,191.6344,112.9329,115.6346,195.4133,481.5840,400.0122
41.1934,140.0337,129.0083,271.8073,388.1679,426.5730,308.3180,329.2711,167.0568,173.3811,146.4929,231.5482,90.5449,162.5395,37.6682,67.8079,138.2930,370.4389,334.1099
53.7323,92.8434,109.3207,187.8557,393.1875,310.2389,285.8236,208.6818,363.4831,90.6438,155.6490,176.7732,82.1031,120.4866,28.6547,57.3240,154.2455,262.3863,355.8869
77.6260,82.7945,98.9857,168.7067,387.9786,275.9586,327.0431,211.4034,396.9473,186.3832,169.6039,179.3078,108.1117,175.8574,65.2662,172.2778,167.9453,289.9698,371.1883
66.6949,119.4823,105.7637,166.9734,342.4704,278.4480,363.1978,260.8045,190.8645,238.8984,157.4089,197.4958,125.8182,212.9824,104.0560,222.6185,142.6928,272.8535,294.6523
58.8403,95.5845,121.9362,83.0052,286.9845,178.4632,339.0956,177.9487,36.8338,109.3011,147.6763,139.2924,90.1146,143.8208,120.6413,131.0734,135.2954,134.8259,172.5018
90.9716,70.6180,125.0973,62.1210,234.0695,96.9023,253.1783,53.5507,-8.0584,12.3003,143.8325,114.6932,23.2808,108.7228,86.5558,91.1676,168.0912,96.3181,62.3703
117.9821,137.2332,105.4766,200.0223,203.9744,165.8733,193.8889,16.4892,34.5367,48.6659,114.8263,204.9107,-2.8288,168.9492,49.2381,152.5062,203.9391,190.8378,-19.8082
89.4775,196.4218,81.3975,289.6731,215.7420,221.8896,231.9450,-3.3921,208.3030,48.5814,69.9012,264.1903,28.5692,190.9047,88.4026,163.4522,212.9352,201.3491,-57.7811
38.7484,160.1132,71.8971,204.1196,241.1068,153.2953,289.3085,-41.2294,301.0727,-20.7718,42.4035,202.9019,65.6393,137.4992,152.8073,113.8221,200.5491,121.2817,-35.4738
31.8642,105.1285,76.0203,106.4399,267.9428,118.0708,279.6811,-31.0366,156.7025,-26.6871,45.0449,131.1311,89.0027,101.8880,154.2354,95.3683,200.9399,113.5353,28.0603
66.4221,97.1026,98.9100,99.8229,312.5598,175.1719,252.2681,-13.4775,64.7163,21.3897,84.0492,117.4863,132.3972,95.3759,143.2482,94.1180,230.6412,160.0467,77.2170
97.7190,103.9473,159.9216,91.0051,334.1881,178.0101,252.5588,-53.0683,179.9596,26.1155,153.3470,105.3064,195.9517,73.7544,175.0522,84.3830,257.7097,156.3528,96.2862
118.4548,84.2829,228.1378,46.3740,290.4369,107.8895,245.7508,-62.1695,280.1195,25.4254,209.8089,68.6268,236.4140,55.5683,189.0170,95.9835,254.9458,130.8070,154.6284
117.5704,46.0898,219.2720,54.9961,234.8100,103.2518,254.8416,49.5035,423.0638,144.3166,209.0965,55.8212,253.3770,75.3691,185.1955,125.6834,232.7844,165.3376,277.9944
65.8352,56.5776,141.0591,146.9600,224.5620,187.4775,336.6844,201.2165,749.0543,342.5094,169.1062,97.0138,289.9066,114.7614,247.3561,148.0976,208.1230,254.9155,350.9173
30.1116,148.7618,123.9266,233.0027,232.3726,237.0027,404.8222,223.2914,738.0642,318.0746,161.1266,144.3216,334.2071,111.1126,303.9437,134.1730,202.3267,291.9677,280.8444
103.6235,220.6179,200.0510,220.6889,214.9962,172.6739,312.6081,49.9454,-16.5011,-66.4746,204.0016,128.2119,319.3659,32.5067,194.9078,50.0890,221.8335,192.2780,145.6186
185.9775,183.2793,229.2449,131.4211,160.3351,62.1640,107.6823,-157.9653,-786.0903,-376.7591,206.7847,69.0011,235.3225,-43.9002,-7.1745,-37.9768,214.2161,68.2020,58.0093
121.6204,128.3012,146.4446,85.0365,88.2359,44.7091,-14.0198,-158.2250,-748.9506,-193.6770,108.3680,57.0290,145.0054,-18.3180,-85.8420,-5.4279,152.1066,120.4769,22.9750
9.3710,166.9313,65.6337,162.4950,72.9197,172.4592,-0.3062,45.2043,-239.5641,166.1337,8.9917,120.9859,90.4877,79.9402,-43.5855,115.4620,123.1680,320.6427,12.0299
40.8522,240.7661,78.9419,295.6180,171.2987,340.3320,31.8438,205.2047,62.2726,226.7636,24.4947,197.0608,69.3355,146.2258,-43.9921,180.9409,198.3808,430.5025,40.9730
164.6766,230.0330,160.9910,319.3963,320.3067,388.9278,47.9501,188.7126,133.5317,106.1684,111.1402,197.4363,78.6067,133.1516,-85.8113,155.1664,301.7365,341.9579,114.4703
210.7544,121.1404,249.1401,169.6859,413.8932,274.3107,114.4539,97.8354,164.1951,67.2783,166.6270,89.7879,113.7007,59.8351,-44.0721,98.6931,323.3881,179.4236,186.1810
158.2619,-6.0426,268.0882,-16.2842,427.9845,117.1817,193.2974,55.2497,173.4042,76.6428,164.9752,-38.6655,154.0422,-2.3165,73.2084,64.4900,252.7296,79.8494,212.1082
78.5028,-82.3752,184.7696,-90.7690,389.9639,44.6476,196.9122,67.5575,235.2367,128.0265,115.6616,-71.2028,178.3653,16.6894,161.7151,79.5438,152.6374,47.0208,198.9123
3.8309,-92.9852,90.1974,-76.2941,318.5525,38.6041,171.7667,82.6771,331.9576,246.4738,42.2710,-27.4347,179.3939,71.5785,202.1834,108.0713,86.4866,39.7761,174.9260
-61.0054,-42.3187,67.5930,-38.4753,233.5685,31.3042,180.0502,85.8479,348.9136,302.2396,-0.6809,5.5528,177.3530,70.9399,240.9493,93.9636,53.5868,52.3184,142.1656
-122.1708,34.7807,51.5698,5.2421,142.5973,16.5918,161.9335,101.8366,463.6427,316.0149,-3.7049,13.9978,196.4366,34.2356,293.4188,70.1413,-12.8064,42.4174,86.8020
-174.5813,51.8845,-18.1554,-11.5484,29.0374,-26.3894,85.8403,100.5030,726.1882,395.3282,-12.8919,-10.3588,201.5967,7.4604,330.1082,75.0592,-123.1081,-41.4164,8.6298
-176.5585,9.5211,-77.4298,-98.6099,-96.3984,-104.4654,7.8245,17.5626,573.9501,317.5234,-31.1559,-77.9767,140.1947,-41.4748,286.4741,50.5185,-189.5805,-108.5755,-87.2775
-124.4794,39.8234,-92.3283,-109.3974,-184.0282,-121.6837,-68.0557,-108.6647,-220.3559,-59.7535,-40.3993,-107.6321,47.1463,-112.8929,128.4290,-30.4301,-178.7976,-64.0919,-194.2746
-86.0404,142.2586,-114.0605,-29.8045,-215.3651,-71.4211,-165.1166,-196.5824,-914.1846,-374.5877,-69.9918,-62.1709,-22.2655,-149.5758,-64.6206,-99.3126,-164.5319,-38.0505,-295.3080
-92.5785,149.3131,-143.0668,-36.2760,-229.1630,-97.8182,-255.6377,-252.7026,-956.2550,-381.5604,-125.0987,-35.6394,-99.6639,-136.6289,-190.7123,-106.0929,-190.6694,-127.9601,-380.1282
-114.1717,73.1995,-147.9765,-107.9909,-257.4141,-170.2336,-337.6806,-267.1938,-663.9429,-272.0721,-162.3028,-38.7201,-196.4884,-80.5369,-253.8511,-44.3615,-231.3796,-163.9869,-434.5926
-141.7237,65.6634,-162.1567,-93.1769,-279.3204,-131.6835,-401.8997,-188.3624,-345.5641,-139.5107,-180.0329,-3.7143,-233.0701,-5.0672,-279.8737,49.9024,-263.1206,-91.7098,-409.9835
-166.6909,61.9664,-197.6542,-90.7608,-267.8078,-92.9988,-357.7126,-106.6996,-6.3347,49.8138,-192.7378,-2.9545,-194.3985,2.8361,-245.4583,67.1532,-262.9807,-122.5820,-293.4444
-151.2051,-46.4003,-190.8984,-203.5966,-246.8203,-206.8346,-222.7499,-142.2627,156.3167,139.3862,-169.4376,-86.5895,-164.3197,-65.3038,-184.9619,-21.0816,-214.4344,-248.6427,-183.7796
-112.3240,-106.5295,-135.5718,-240.8957,-251.6024,-278.1260,-172.0759,-194.9342,66.6530,50.6113,-120.1183,-104.5222,-159.4531,-72.8903,-160.3885,-63.4581,-155.8702,-225.8383,-177.3324
-108.9437,-12.2686,-109.1378,-116.1456,-266.3420,-162.6505,-216.4700,-157.1803,65.2941,-85.6290,-112.4590,-4.2678,-127.2561,12.2086,-122.6123,8.9230,-120.6302,-97.9652,-226.9979
-112.6173,59.9542,-125.4513,-34.0268,-266.1936,-89.7596,-186.5506,-146.0713,185.4239,-217.7262,-139.1308,44.7400,-76.0936,43.8157,-37.2749,46.9709,-74.9307,-101.0011,-227.2331
-58.4242,9.8573,-125.5338,-71.5191,-274.2705,-186.0629,-96.4810,-234.9004,2.4925,-304.2463,-134.5989,-20.8948,-57.1513,-35.4276,-15.4878,-32.8581,-13.2307,-198.5628,-175.5026
1.5867,-28.6170,-107.3330,-103.3498,-310.2330,-261.7748,-98.3388,-304.2732,-462.6377,-260.9752,-109.8399,-87.1127,-84.1097,-126.8094,-89.6789,-120.6578,-0.2148,-218.2755,-149.8901
-20.0724,12.2036,-108.4059,-92.2233,-343.7043,-222.3760,-153.7941,-297.0553,-667.9445,-210.5460,-110.0193,-98.5096,-122.1239,-163.5604,-106.9030,-135.7307,-48.8318,-164.4062,-168.5243
-81.1510,58.7774,-104.9559,-62.4060,-350.3134,-151.9255,-141.0838,-250.9024,-416.9081,-224.8776,-111.8886,-77.4618,-107.8132,-149.1671,-12.0458,-104.5508,-94.1170,-109.7392,-162.8375
-95.3665,87.2747,-65.4700,-2.9210,-340.4718,-77.1844,-90.3375,-141.4604,-9.1360,-79.5446,-81.2018,-26.9683,-30.1519,-85.5424,68.4124,-38.1559,-100.5634,-70.9313,-110.1091
-71.0097,135.2128,-24.8754,50.2752,-309.3242,-16.0009,-55.9033,-9.9664,228.8613,165.6801,-37.9392,49.5864,17.1457,9.9604,64.1058,55.1631,-72.8972,-66.2381,-107.6451
-35.3728,199.2382,-3.8299,70.3450,-246.3411,-32.0857,-35.0213,-15.2364,103.1958,106.5570,-12.4067,128.5026,-37.3417,80.1984,-16.3750,102.9772,-11.5835,-96.9651,-225.7704
19.1736,242.8192,25.0284,109.9314,-193.1646,-89.3719,-83.4507,-140.6771,-262.3787,-155.9535,-17.5956,174.5825,-140.3991,78.4440,-173.0892,66.3256,55.4712,-107.8074,-366.7636
49.1430,259.7210,43.5809,186.1026,-191.0089,-79.8709,-198.9918,-170.0728,-352.7638,-162.1822,-50.2691,178.6315,-208.3251,41.9929,-293.2043,24.5929,86.0426,-51.6789,-392.8658
17.7767,266.7281,20.4011,244.5590,-192.8168,-1.7938,-210.0355,-64.2435,-35.7373,6.1114,-68.7311,190.5977,-201.1599,54.0863,-221.5869,41.0096,89.6978,17.0835,-309.8520
4.1686,227.0017,8.5891,214.6196,-146.2079,17.9870,-71.0060,-18.2364,63.2570,17.9348,-35.1892,196.4142,-119.2175,82.6817,-65.2276,40.2729,78.9857,-45.3836,-214.7570
49.5606,86.4662,40.5806,47.3182,-115.4067,-119.6234,9.3115,-106.8994,-274.2644,-60.2702,7.0962,87.4845,-37.6914,19.4579,-52.3501,-36.1576,21.5961,-253.5596,-155.7573
57.6671,-78.2003,41.6749,-157.6845,-173.6017,-309.7404,-49.0556,-193.4471,-379.8604,-154.8406,-7.6307,-78.9014,-41.7721,-74.0848,-140.1848,-92.0321,-56.6782,-383.9045,-116.7998
11.1540,-131.5246,-14.1870,-200.5892,-254.7082,-344.0067,-76.2823,-194.5286,-126.4045,-353.2268,-60.2219,-105.3284,-97.2831,-61.6005,-166.7508,-73.3779,-66.4563,-310.3563,-68.6662
4.2949,-86.4441,-53.7247,-91.5227,-275.9876,-235.6990,-23.2575,-159.0699,-224.6524,-425.2804,-95.8689,-32.8654,-129.9862,-31.9766,-173.0825,-89.8154,-27.8736,-199.4703,-12.5009
6.2502,-20.0343,-63.6597,-4.6366,-278.3008,-160.6180,-9.7208,-106.6902,-596.9113,-163.9419,-111.7087,-32.8737,-138.6069,-104.2785,-215.0993,-158.9998,-47.6027,-145.6526,8.7070
-51.6526,75.5428,-77.1762,56.1053,-290.7042,-101.6964,-18.0873,-28.9517,-453.6216,55.1465,-106.5700,-23.8733,-110.1879,-127.9106,-193.8832,-129.0004,-102.4603,-40.5095,-24.1192
-58.5036,170.2060,-54.5766,161.2297,-242.5085,39.3798,36.6839,16.0052,23.9930,-47.4150,-44.1622,109.6326,-17.2288,17.3131,-104.3959,20.3056,-79.6881,84.0440,-55.4917
56.0339,183.6924,26.7523,239.6414,-123.8440,152.6662,79.4973,9.7244,131.8367,-104.3419,63.8648,228.0579,75.1013,162.2234,-64.3714,133.6123,7.9755,95.3470,-35.7358
148.9962,162.3683,103.5284,259.3340,-18.7323,137.7997,49.8287,28.2933,25.7699,80.4307,148.7279,236.7477,111.0297,180.5548,-52.1971,148.2472,70.7639,57.0563,-9.8965
157.4126,181.9815,148.1950,290.5577,46.2677,91.6227,31.3453,56.2273,-31.0890,107.9998,185.7221,237.1809,140.1709,164.5740,6.5869,117.3184,104.7151,56.5499,-62.7568
193.9693,191.9846,180.9320,313.2260,81.5412,57.7712,16.0198,-9.8319,-318.7417,-158.9314,201.0840,250.1199,162.8988,165.3313,26.9813,80.8131,139.0592,25.5087,-191.7061
271.2170,169.7625,185.8225,294.9062,55.8396,-11.3627,-98.0618,-124.6568,-616.5423,-314.6667,204.7930,218.3887,111.9938,140.0279,-55.9957,75.0387,162.6993,-39.2084,-279.1147
303.1526,164.2661,164.7187,290.8565,-5.6853,-64.0106,-233.1545,-168.1892,-428.4449,-231.9369,197.3621,173.2636,28.2735,90.9090,-136.7153,89.0855,179.1203,-61.5923,-231.1991
290.7753,130.1425,150.7130,269.5294,-26.0809,-71.8513,-232.5060,-180.1770,-179.0546,-227.8807,181.4707,121.4439,-4.2641,25.2078,-137.9405,37.1722,185.9095,-78.5590,-107.1664
246.9622,24.4411,113.1869,162.3497,-34.5315,-115.2980,-135.5720,-217.8424,-314.2733,-341.1282,136.0868,29.6555,-14.5684,-52.7036,-101.5574,-62.6107,134.1583,-124.2574,-11.8798
147.6399,-53.4048,11.7781,67.8887,-101.3308,-170.6733,-48.7879,-188.9633,-307.2712,-292.3123,50.4025,-32.3813,-46.9838,-80.5872,-65.8736,-84.3653,35.2860,-129.5819,67.0470
46.7518,-49.9730,-106.7115,72.2752,-178.7731,-149.8916,45.2925,-73.0724,61.6882,-116.0591,-41.3289,-20.4660,-77.8309,-55.4421,-51.7718,-45.3304,-17.1683,-91.3227,166.3536
15.0889,-50.7618,-182.4318,75.5769,-204.7704,-116.0771,150.3002,-19.1028,190.6652,-84.4324,-100.3002,-37.3319,-95.1062,-81.6431,-76.0951,-73.1912,-7.4962,-75.7364,218.9236
35.1963,-88.5084,-188.9218,21.9896,-206.9377,-139.3739,183.3638,-78.0097,-11.6705,-147.2164,-93.0384,-122.9673,-87.0577,-178.2663,-99.6764,-160.4869,-4.3923,-70.2486,180.0675
80.7371,-92.3704,-98.7984,12.3901,-176.2559,-129.0714,140.9049,-124.8316,-87.0134,-84.6942,6.9305,-158.3600,-9.7732,-228.2648,-85.8115,-202.4296,-4.9272,-20.4644,121.3080
130.6380,-21.0110,48.9673,94.9089,-48.0863,-25.9311,124.6474,-87.2727,-14.1036,19.7081,138.9034,-73.2886,119.8337,-164.7334,-53.3629,-161.9212,40.3399,71.6382,94.8574
126.4235,67.7551,135.6219,167.2578,129.8717,62.5047,172.4397,-43.1305,54.2939,-38.6943,179.4675,34.9428,211.2599,-63.2684,-6.1405,-80.9172,94.3799,124.2860,73.2801
71.3165,56.8392,106.8251,107.7158,202.2073,17.8827,194.4287,-99.5179,130.5701,-220.0535,108.0958,27.0233,196.8690,-45.2019,34.1830,-51.6003,79.6421,37.1248,29.2962
29.8498,-64.4453,6.6770,-52.0312,102.9408,-131.3590,100.7423,-248.2640,45.2620,-358.2646,6.4600,-88.5856,70.7204,-128.8727,-19.1779,-128.4575,-1.9704,-128.3055,-54.7405
-1.8233,-128.5645,-101.0328,-128.8448,-64.8140,-237.3182,-60.1828,-347.0595,-217.5590,-369.8111,-81.2547,-157.6377,-88.5622,-205.4475,-150.2095,-217.4633,-76.6734,-182.1690,-165.5854
-32.8638,-62.1686,-145.8400,-66.9796,-163.6631,-226.6205,-163.6937,-310.2815,-296.9504,-288.1145,-138.0880,-134.4798,-156.6721,-214.3944,-214.1722,-215.6758,-88.2972,-137.8087,-206.9573
-16.2961,-37.8963,-117.1067,-50.8119,-185.0973,-215.9879,-188.1349,-248.1730,-190.6677,-255.3788,-142.5552,-157.4519,-130.0719,-230.4871,-195.8478,-190.5659,-67.3403,-180.3548,-124.0856
4.0953,-148.7010,-123.1596,-161.1153,-212.4601,-301.9285,-184.0917,-264.7734,-173.2555,-310.6213,-148.8494,-262.0281,-122.7601,-289.0260,-205.8107,-228.3234,-91.6410,-285.1631,-12.2018
-62.4803,-238.6930,-215.2322,-228.2802,-251.2882,-376.5586,-121.7778,-276.0439,-82.0642,-248.8689,-220.9414,-310.0028,-154.7257,-320.6274,-228.7207,-277.1990,-146.9924,-286.0775,54.3138
-146.8359,-200.2876,-278.8211,-172.5542,-243.1084,-335.9481,18.4064,-198.9667,166.7394,-15.0030,-288.8281,-268.3153,-159.3218,-310.8580,-191.5860,-279.2425,-129.6068,-193.2885,129.7725
-143.4951,-114.3586,-243.4081,-106.4601,-207.5121,-242.6502,131.8802,-103.1368,201.7724,111.8699,-267.5737,-230.8985,-145.7995,-304.6324,-145.7872,-256.0969,-36.2609,-89.4889,228.6428
-104.9851,-62.4682,-174.6368,-71.3239,-178.1667,-147.7829,171.3633,-53.9593,93.9668,56.1528,-203.6789,-207.4449,-130.3114,-287.6698,-130.4654,-226.2156,27.5417,30.5418,279.3998
-84.9144,-39.4997,-99.5178,-19.8898,-94.4682,-26.0395,224.8168,-32.2212,237.7408,52.9057,-148.6377,-156.0649,-56.5898,-234.4543,-87.3012,-185.9576,55.9675,141.9478,276.0717
-39.6891,-6.1077,-1.1160,38.7929,54.1574,87.8534,288.4632,-34.3056,294.5109,65.6515,-90.0065,-86.4522,56.5187,-162.2213,-31.8908,-130.6078,123.6554,205.4016,255.8413
5.3037,67.5510,60.8671,95.6069,148.4802,150.3442,255.7052,-53.6407,-118.6008,-102.5543,-61.1446,-3.6548,100.5964,-76.0288,-34.7050,-51.7633,186.6842,269.6139,192.5565
-12.8219,157.0805,57.2149,170.5242,149.5039,207.6635,159.6344,-29.8173,-382.2214,-236.0105,-76.8884,83.6779,74.5736,4.9384,-45.3715,22.7423,171.5685,343.2597,93.6792
-16.6467,207.2791,88.6120,224.5644,168.4428,267.3092,130.7229,43.1746,-37.5402,-61.8551,-33.7095,122.3259,82.9471,29.1864,10.6589,50.2868,172.2867,342.3741,65.0245
87.8753,197.6385,212.2432,211.0307,244.7288,244.1157,168.6926,89.9245,245.8280,195.4049,99.5107,104.4142,144.0723,19.6796,68.7420,57.8186,288.5050,258.5533,138.5331
217.4351,142.4819,327.8726,177.7773,273.6237,141.0676,175.5112,100.2019,14.6380,239.0549,181.2545,94.9525,166.8655,55.6707,46.0834,88.1720,412.1804,186.1991,194.3327
248.3826,104.6301,343.1612,208.4043,195.8467,87.2104,117.4139,131.3798,-165.7432,153.8546,155.2504,133.3392,107.2339,123.1850,-11.5905,113.5699,415.8322,185.6255,161.5015
207.9772,157.2197,306.8879,295.7118,92.0747,125.5379,50.5531,166.8310,73.4434,131.0596,139.8482,189.0465,49.3642,138.5087,-16.2923,105.3646,367.0621,216.5542,142.5676
183.6111,225.4910,295.0697,326.3373,53.5856,142.2005,57.7695,155.2636,367.8029,219.9854,175.1695,188.1727,86.2762,84.4916,39.0359,83.5410,361.2591,189.7228,228.1200
173.7845,170.0682,283.9049,237.4672,52.1638,73.9519,145.4569,133.3478,472.4603,325.1751,177.6874,100.9316,164.4803,18.6352,100.3218,58.5189,346.4352,107.2872,319.8350
138.2754,68.5132,233.5450,136.9638,-0.3768,19.8252,206.0855,144.2369,428.2989,248.8263,145.7201,22.7221,170.3138,-3.3955,136.4059,33.4463,261.1702,82.7481,283.5903
89.6368,78.1453,192.4788,124.0604,-99.8336,53.0493,173.2854,143.4763,176.9739,19.2313,137.7130,40.7070,126.9301,20.4029,159.0674,27.6608,156.7610,127.2514,174.1319
51.1431,114.7492,198.3851,108.5905,-158.6053,86.3390,119.2106,100.9713,-137.1606,-35.6327,125.9922,75.4453,120.5162,41.8341,169.6570,30.5458,89.1531,114.2283,124.1008
14.1445,43.6176,195.6048,3.7519,-150.4998,36.2137,97.6599,42.7759,-147.6627,95.3369,84.1409,34.5191,127.0668,28.5344,150.2367,9.6984,40.6739,30.6038,107.6825
-20.1717,-45.4189,160.2925,-106.7458,-121.3032,-41.9415,67.1540,-38.2188,50.0040,45.2331,72.3051,-30.6311,116.1084,-5.1444,126.3149,-28.4795,-13.0077,-16.2196,27.8692
-50.4778,-45.1994,142.5628,-149.5742,-93.3759,-68.9529,30.9023,-129.5246,71.9021,-143.1832,98.4650,-57.0229,152.5401,-36.8644,147.3004,-53.9265,-62.8973,-8.2356,-70.6495
-97.3009,1.0945,135.6010,-144.9314,-73.7516,-35.7138,36.4618,-133.1362,-3.5065,-88.3414,90.2443,-43.5250,230.0664,-39.2664,188.4620,-52.0500,-82.5765,26.6691,-93.8682
-115.1173,59.5763,111.4456,-74.5466,-79.5476,36.3935,43.6922,-38.7407,25.9420,100.1848,63.6838,20.0557,244.0912,6.6152,180.7492,-28.9285,-29.1452,95.7999,-76.6900
-12.4106,129.1783,134.3876,58.6235,-87.9761,90.1721,-0.6676,-1.6659,-37.3769,44.0672,103.0724,95.1615,207.5912,44.6127,130.4943,-18.0765,108.7662,127.0439,-85.8460
147.8634,152.1388,224.1475,128.8099,-64.2798,43.3094,-44.7925,-104.5388,-232.6669,-155.6137,183.8097,91.5353,217.3838,6.2285,94.3043,-46.3760,238.2860,35.4575,-97.9528
184.6403,116.6121,263.3560,71.1968,-44.7077,-83.1636,-52.7920,-236.9648,-232.2494,-195.5982,213.4090,40.1168,232.7993,-53.6557,64.6949,-82.1982,240.3694,-83.4703,-102.6067
84.3123,109.5651,201.2198,6.9656,-91.2964,-148.5636,-86.2194,-277.8235,-59.0070,-115.9996,179.3603,56.2357,162.9323,-43.3756,-1.4821,-84.2525,133.9117,-90.4920,-149.2155
-4.2604,155.2064,120.1885,30.6914,-197.5943,-96.0474,-148.8095,-234.3289,-37.1261,-84.6241,114.4171,115.0722,64.9321,-5.6007,-73.4791,-77.5799,40.9495,-39.6944,-214.8596
-27.0644,145.7402,47.4250,46.3932,-296.8134,-51.7476,-145.7079,-195.1930,-88.6335,-94.9713,29.6801,86.2868,25.3140,-37.5216,-80.8387,-107.1839,4.4467,-62.2719,-203.0232
-33.6924,14.3873,-39.7519,-40.6529,-321.0990,-107.4380,-63.3902,-199.9769,69.2744,-43.4820,-39.8287,-35.8009,7.3180,-109.9865,-31.7896,-144.1593,-10.4523,-114.9882,-103.6362
-31.1520,-109.6065,-74.6103,-111.9660,-256.3313,-133.4274,8.1585,-169.5388,353.1393,110.1349,-45.3646,-100.7020,-23.4919,-107.1852,9.2183,-114.8257,11.9994,-39.8036,-7.4489
-9.6121,-69.7197,-4.0946,-38.4757,-165.4921,-5.8966,39.4531,-77.9403,455.8053,204.3903,1.0282,-22.9661,-16.8059,-21.2441,30.1438,-41.1203,84.0984,128.0091,25.0763
5.6010,26.1248,83.4693,24.6207,-118.2247,118.8162,63.7422,-91.5419,244.7536,29.7053,44.5584,55.7490,23.8444,6.9860,52.0776,-55.0310,119.3868,147.2553,4.0598
5.6514,-27.7623,90.3140,-96.0057,-114.7151,59.4335,61.6976,-270.0202,-94.5030,-267.3311,46.6430,-24.7593,16.2817,-94.1114,50.8420,-178.4359,69.1772,-4.8765,-42.3750
4.1074,-121.4684,37.2586,-191.0123,-124.7834,-39.2269,0.9807,-362.6370,-257.5270,-341.5192,1.1924,-138.0997,-46.8877,-182.0761,0.2283,-233.5068,19.7646,-40.5307,-93.6318
-0.2201,-13.7992,-7.3745,-19.5924,-138.5378,21.3280,-74.7134,-224.0897,-259.1464,-191.9748,-52.6016,-69.0566,-90.0982,-128.2033,-64.2102,-129.7000,21.7376,110.6563,-128.8008
-10.7020,189.2403,-12.6729,201.7083,-146.3943,116.8766,-96.8430,-67.4705,-306.5408,-53.9462,-55.2485,90.7020,-85.3304,-36.7205,-89.4932,-27.8107,17.0522,159.7136,-117.2633
-20.7237,212.4509,11.7654,173.4571,-144.6118,49.3629,-53.1740,-60.5520,-257.0439,1.9113,-4.3949,114.5462,-56.8161,-37.3881,-54.2117,-51.4425,-9.7703,-5.1554,-44.2401
-33.9768,53.5009,23.1123,-10.3996,-158.8902,-125.1562,15.5166,-107.1301,30.6952,0.0812,30.2410,16.3201,-16.7059,-70.8417,22.6693,-102.4710,-40.4959,-179.5056,43.2555
-77.6787,-108.4622,-27.5013,-145.0848,-201.6428,-246.7170,67.9732,-102.8069,187.4308,-9.0834,-18.5081,-63.3802,10.7171,-51.3805,73.8244,-78.2626,-127.4593,-237.4785,89.2697
-168.1309,-171.5689,-132.6749,-208.8451,-241.6837,-249.0927,110.7360,-35.4630,45.0133,81.9492,-136.8378,-83.3057,-12.9965,-4.4545,54.1048,-9.0213,-261.4571,-214.5687,126.2858
-245.4396,-146.8251,-221.8593,-224.7896,-252.8821,-173.3385,161.1636,53.8668,24.6789,188.9904,-223.9109,-62.2599,-70.8219,30.6365,24.9870,42.0562,-305.8532,-172.3291,199.1647
-226.5242,-147.4741,-245.2255,-227.9123,-237.2501,-141.5782,178.4613,56.7318,241.2730,143.9025,-205.8901,-55.1194,-101.9000,36.2732,56.9083,39.6614,-229.9255,-175.8512,249.9010
-154.4381,-220.6332,-218.9453,-249.3451,-185.3613,-165.0884,143.8434,-10.7622,358.3405,132.7066,-135.3902,-95.0339,-84.9342,14.7353,103.7080,11.2897,-154.0157,-147.6297,230.2714
-132.0813,-186.5038,-161.4099,-171.7363,-80.6375,-55.4838,133.5223,44.8947,346.4277,311.6069,-84.9356,-62.0368,-48.4452,41.2324,95.6659,48.5137,-109.1876,75.4384,199.0708
-121.7847,21.2333,-70.1369,48.8346,44.6490,201.9837,162.6377,201.7581,309.3472,321.4763,-30.6442,109.4947,-19.3593,150.2522,58.8834,150.4677,-44.2618,336.1944,175.5235
-43.0639,123.6078,11.1752,165.0848,125.2307,324.4296,134.2723,210.3719,126.3215,0.6510,41.2161,210.3463,6.2310,220.6151,52.4044,191.2738,-0.6689,332.0825,103.0532
33.1051,8.6919,29.2090,65.4768,150.8859,236.5560,58.5545,97.5482,-116.0683,-166.4710,77.9112,116.0870,43.0224,171.9161,81.1584,140.2533,-14.7857,188.4093,25.8055
31.8319,-43.8960,22.8184,-17.7433,163.7130,167.4535,40.9539,92.3058,-201.2233,48.0132,89.3818,24.1303,69.0568,93.7028,104.5561,90.0181,-8.3627,166.4600,45.4481
20.5451,39.2956,40.7141,-17.6555,161.2428,150.8446,47.9457,143.3731,-192.0496,261.0952,119.2019,25.7899,48.0829,45.6299,93.0569,60.6638,49.3812,133.7060,118.0723
31.7800,-4.9483,30.7881,-105.8880,108.3373,49.8421,12.8972,88.3090,-60.6466,269.8003,113.4012,-34.3926,10.0744,-6.0057,84.2656,17.7611,69.3567,-20.2205,130.5899
-1.2464,-171.6483,-40.4253,-205.5584,37.7644,-42.9503,16.2225,7.7148,281.2158,199.5450,40.1574,-131.0877,7.4850,-33.6500,126.5498,-10.4965,0.4599,-63.6584,82.4012
-65.0694,-178.4322,-100.5938,-125.2399,11.5801,8.9794,75.4771,-0.4771,401.9376,57.5251,-4.8401,-84.7149,14.0570,0.8632,162.7113,-5.9907,-102.1543,51.1700,35.0997
-80.7094,-36.6785,-113.1568,-4.3871,13.5720,91.3684,67.9282,-5.5938,-4.6064,-113.9326,14.3874,25.1660,-0.9978,30.4645,119.3848,0.0463,-157.6989,88.0414,22.7718
-60.9443,-5.1916,-127.1663,-54.0632,-2.4802,92.6875,10.4954,-33.4450,-356.6755,-125.9541,9.6206,5.1759,4.4682,10.6827,63.8987,10.4930,-134.3103,39.5125,65.0206
-54.5411,-96.8026,-144.5317,-167.2432,-14.7958,89.5872,35.8255,-25.5889,-165.3925,-9.4588,-26.7024,-73.0433,30.5706,7.6571,80.2539,46.6616,-62.4056,65.5867,151.8410
-32.2777,-100.6060,-106.6655,-142.6400,35.9219,149.3198,128.9205,27.0426,178.6436,60.4824,-0.3531,-28.8683,21.7910,69.8612,119.8884,101.7924,39.0091,144.3727,243.4046
45.8377,33.4753,1.3980,19.4552,171.0968,254.4746,209.7075,109.9463,255.6843,100.3711,103.0073,121.0205,19.9004,166.2615,136.4381,172.9062,189.8889,224.2723,312.9751
140.7488,149.0079,134.0577,181.4137,342.5268,371.6091,270.5143,205.4187,181.2455,160.6007,203.9724,236.6648,100.2091,249.3358,165.8066,245.4107,330.9272,328.3893,337.1437
186.9616,145.7757,227.1839,224.8359,457.8108,433.9767,281.5758,264.2419,150.0249,183.2643,246.8619,247.2428,200.0833,282.4994,198.8876,277.9107,354.1718,374.3511,317.9672
189.7101,83.8976,243.4511,155.2790,480.1749,396.3516,236.1800,270.2541,167.5565,170.4758,239.1905,185.4385,226.3490,259.2240,188.3457,267.2218,308.1982,293.1588,309.3417
196.1409,51.0385,208.8237,97.8413,454.6855,317.4654,214.3714,246.0160,142.3950,155.5527,217.4762,134.9314,196.4438,221.1117,149.1401,243.0753,305.4275,205.3774,295.7613
192.5811,71.4428,169.6556,132.3733,394.6205,273.9124,200.6090,202.2768,58.1811,127.0122,197.9088,147.8966,148.4646,204.3812,113.2438,213.6367,293.6786,207.9553,197.0427
154.0475,131.8197,142.2349,208.1629,287.1211,274.0325,115.6304,173.7221,70.1816,124.9845,179.8642,191.3241,99.7393,195.9138,96.0088,188.2438,227.5699,231.1337,89.5804
136.6040,185.9327,135.5230,240.6393,202.2401,276.0757,41.9078,170.8549,168.7174,155.7070,182.6857,199.0576,87.3459,165.3398,115.9373,165.3406,214.4581,192.3179,95.3222
142.1153,179.0219,131.3377,183.1362,182.7821,211.0804,50.1732,107.6972,135.8318,126.0893,190.4606,153.5692,88.1699,103.8545,134.1053,107.3738,228.2025,77.4473,81.2141
58.9351,130.1172,72.4104,60.2657,131.8332,73.8903,24.9126,-23.1979,161.3920,65.0160,136.0692,94.6386,40.1962,42.1875,100.2490,37.0797,109.8232,-55.6177,-69.7548
-68.9098,103.7042,-8.2867,-7.7744,30.4903,-6.1165,-34.5650,-70.8234,526.6104,89.3285,57.1253,77.9028,2.8504,36.1635,81.7395,38.2724,-18.6934,-78.2624,-123.8085
-25.4899,115.6477,25.5223,62.7200,38.2472,61.7150,23.9197,-2.5561,667.4620,127.5684,88.2440,128.5522,58.6736,96.5773,124.2431,94.0270,103.4186,44.2415,54.8383
172.6611,164.2276,183.9164,186.0644,189.8880,183.2196,110.3190,33.2806,34.4466,60.5079,211.2442,214.7035,124.0879,164.9909,107.4595,121.1496,356.8893,172.8527,168.5642
263.7300,245.9880,303.1940,241.6178,300.2408,255.2197,13.2262,17.1847,-578.0844,-17.5580,270.7520,273.9237,109.0545,196.9827,-10.4887,136.7921,426.7708,219.9359,59.1707
175.7050,278.8146,285.6028,224.7751,284.9767,299.3070,-141.4567,78.0256,-220.3990,23.8270,232.9939,268.3843,82.8812,204.4890,-59.7650,179.5440,317.1002,240.2263,14.9479
69.7386,189.5150,190.7364,166.2819,264.0750,324.4323,-92.9221,202.2133,534.4379,132.8211,170.7443,206.4889,98.2756,197.5293,30.9407,194.3116,231.9758,247.7460,179.1822
39.4644,76.5699,112.8000,90.0836,311.2102,294.9436,83.3428,254.7087,585.5618,177.0813,116.1901,138.4739,98.7435,173.0317,106.7354,157.2731,228.4708,219.2886,303.2400
69.0396,85.6417,105.1528,82.4710,351.2891,262.1875,135.2888,229.4443,36.2503,118.2893,101.7308,133.5506,74.1085,158.4228,67.9101,132.3521,262.6674,217.7309,257.3750
116.2365,181.8588,148.1272,177.2239,308.4441,290.7295,44.3560,214.9416,-230.5692,47.8133,141.0947,193.4448,66.6313,166.6906,-9.0497,132.0569,295.2459,259.9229,198.8402
112.0442,217.5015,157.3534,227.8544,215.3965,309.2386,-12.1966,195.9221,14.1928,32.5813,149.4524,205.6531,60.3333,136.8815,-33.9362,98.9613,269.8340,240.7844,201.9554
50.8325,155.3923,107.7305,135.5675,158.6782,248.2099,46.6572,107.3644,255.8251,-2.6683,92.4563,105.5084,40.1660,34.8538,3.0069,24.2811,191.6314,155.9597,181.1821
19.6384,97.6500,70.0607,49.5949,148.0821,185.2282,130.3792,11.5695,250.4709,-73.3853,69.6010,20.2903,44.4207,-44.0657,49.9646,-33.2500,142.9004,120.3585,127.2807
32.0721,117.3714,65.8818,91.2105,106.3093,166.1289,141.6015,10.4502,251.2389,-49.7130,102.8040,65.3995,64.1686,-15.9350,39.6327,-30.2618,124.2384,111.4334,95.4636
10.8682,161.8354,36.4225,130.2293,17.2255,106.3021,86.9365,49.7857,259.3629,33.8965,93.5595,133.4827,35.3732,37.9183,-33.4080,0.6195,63.0032,39.6650,50.6144
-47.6146,165.6069,-18.1218,72.6145,-32.9962,24.4951,12.5788,36.9298,58.5297,15.2867,35.7026,110.2567,-35.9644,23.5879,-102.7925,0.0667,-13.8061,4.1026,-37.9713
-70.6514,149.3277,-22.7103,38.0816,3.2199,72.3775,-38.9260,43.9006,-92.3840,-11.1767,17.5253,80.6013,-67.3580,11.1034,-116.9480,-3.0230,-14.8161,113.0115,-57.6602
-26.4993,131.8661,45.9559,73.7224,86.4849,227.3429,-18.2284,145.6297,49.2500,84.6419,62.3078,118.4375,-26.3664,83.7954,-90.9344,61.1597,46.4077,231.9649,66.5740
42.9496,96.6735,122.4943,70.3895,172.5784,302.9886,42.6056,227.8563,51.0871,98.2401,126.2013,151.7541,26.0270,168.7012,-78.3794,136.7121,76.2387,224.5351,179.6100
64.4626,78.3273,140.6428,28.0405,230.3825,276.0710,37.7771,182.5629,-252.9743,-98.3937,155.6042,143.3784,33.3410,168.3729,-100.6066,116.4323,49.0854,171.0728,131.0870
27.3727,97.9983,102.1848,32.8929,230.4295,256.7311,-9.5667,80.6411,-309.3004,-260.1541,117.1963,127.3208,18.4629,110.8354,-109.9608,48.1529,16.1344,148.2459,26.2205
2.8970,91.1413,45.0529,52.1151,176.4963,241.4154,17.7190,19.2620,-82.5460,-249.3111,51.9979,104.1924,20.7087,78.0152,-75.0775,42.9689,-6.1225,114.1353,-6.4730
3.2539,56.5222,-8.5422,37.3993,102.5443,185.2816,80.0305,15.4413,-99.7606,-190.3945,30.7177,91.4841,25.2884,90.9067,-43.3438,69.8277,-48.5617,68.7578,-26.2306
-27.6737,67.2014,-30.0729,23.5434,47.6485,126.0297,72.7580,55.7410,-173.7130,-87.5130,49.3055,105.2055,15.0379,92.8519,-36.3199,42.4349,-83.8604,38.8102,-54.7957
-51.4070,86.9477,11.0021,3.4663,38.8455,77.1137,50.5384,90.6859,103.4324,85.3761,68.7974,73.9361,10.5159,32.2659,-14.7638,-14.7033,-42.5142,-5.9703,-10.7936
-10.6061,62.9220,65.9528,-30.9671,49.7488,16.0157,74.5237,68.4238,268.9196,118.6930,77.2711,-1.8990,8.5206,-36.5297,3.2547,-33.6548,28.0385,-55.0728,34.3087
-1.5291,69.7487,45.5537,-14.8579,27.3740,-30.7492,75.8601,20.6199,-29.1515,-83.3638,51.0514,-3.8612,-16.9155,-40.5496,-19.4154,-31.7141,-8.6448,-73.8095,-41.2098
-97.7653,104.7929,-32.5104,16.0581,-9.7312,-50.7587,37.6806,2.6601,-216.3257,-217.0461,-10.9975,31.4129,-35.0632,-44.1060,-21.2314,-75.3368,-142.2975,-98.9744,-118.0388
-172.1089,57.8351,-72.1325,-31.4131,-1.2993,-48.1277,19.5021,17.6088,-7.4946,-48.9388,-37.2754,-21.3178,2.9346,-102.8031,34.1060,-144.3260,-199.6031,-102.7389,-59.0420
-111.6782,3.8939,-45.4509,-43.5084,53.7872,38.7408,8.0810,61.3857,51.1977,155.9257,2.6277,-52.1774,64.3516,-92.0703,56.9882,-117.2018,-102.9395,23.5778,18.3842
4.2368,87.6312,9.7113,103.7724,132.2713,213.1732,-3.5465,126.6513,-243.2817,85.5692,40.4976,66.3948,85.9640,44.5795,12.5121,31.4084,33.1336,207.3046,25.9463
48.7236,187.0024,56.4984,231.3996,225.0821,339.1074,45.0053,191.9505,-377.8991,-10.1076,41.2559,169.3956,79.1286,133.4029,-6.5760,135.5777,80.9985,262.0574,82.2372
-3.6089,135.7701,63.0495,164.3261,283.4534,347.2526,127.8234,267.4311,-89.1702,244.0324,41.7699,129.0202,88.8092,103.6379,43.4296,101.3697,36.9059,211.3899,195.1108
-77.7798,40.7854,38.9672,40.6235,266.3776,302.0173,157.7182,334.5143,244.5437,540.6199,50.2242,86.4915,103.6041,107.3454,111.0023,71.8443,-21.2258,176.2690,201.5497
-86.0232,35.2317,39.9158,4.5347,219.1766,231.5940,146.5383,305.8152,272.7905,371.8506,43.5617,103.6328,86.4512,164.2979,153.6933,130.5823,-28.0560,124.4933,102.3369
-46.4304,43.7549,64.0573,-11.6468,179.8244,134.3046,128.8383,189.3700,170.2773,0.8006,24.0844,66.9408,49.8632,129.3040,158.9255,131.7173,13.6328,33.3795,48.9568
-45.6428,-3.5763,47.7522,-53.7089,116.4964,62.2294,76.3043,112.0962,214.5798,-44.2615,-0.8956,-17.6742,32.6002,20.3588,142.2806,17.0982,42.7386,-7.9669,50.5120
-81.0958,-33.3328,-13.7093,-72.6989,30.7508,25.7207,9.0364,103.3374,250.9639,119.5356,-33.6752,-56.8319,28.8003,-35.7871,141.1187,-56.3148,12.4972,-27.2613,30.6417
-95.9997,-8.4064,-68.2166,-91.1403,-35.5155,-43.2592,-7.7471,83.0131,79.2378,220.6729,-65.5432,-73.7060,-0.7640,-60.2260,139.1068,-38.7903,-58.7680,-153.5699,19.5573
-110.2853,-23.0490,-103.5930,-163.8620,-101.8399,-176.2809,12.6646,29.0760,-11.2711,350.3466,-96.6947,-117.2020,-60.4429,-109.0852,97.1558,-50.6905,-131.1767,-338.6024,33.8867
-158.2139,-122.6408,-143.8794,-237.3177,-202.6321,-310.6784,15.2771,-12.2842,233.9439,449.6767,-144.6495,-152.3302,-108.7908,-115.7526,68.3816,-81.4168,-200.9267,-396.9154,-14.2290
-203.3320,-170.5464,-189.4187,-218.5218,-284.0460,-332.1281,-14.0543,15.6676,424.2791,330.4948,-196.6100,-136.5894,-111.9764,-43.7471,105.5851,-17.5494,-261.5132,-299.7231,-116.3808
-204.0873,-74.0463,-207.0602,-139.8714,-268.1797,-222.7368,-66.8865,111.6845,139.9993,186.5936,-207.9557,-83.8905,-86.1189,16.2713,126.9850,68.2495,-261.9681,-218.3733,-132.7842
-171.3478,-9.7240,-177.5758,-141.6730,-174.6660,-155.5082,-108.9261,145.6150,-261.9654,175.7480,-176.1858,-62.9443,-80.6604,0.3885,68.4853,32.2491,-201.4570,-269.0931,-48.9977
-163.1709,-125.8090,-150.1055,-256.1624,-105.4096,-232.5724,-90.4077,57.9470,-128.0297,122.2920,-155.8961,-113.0157,-109.7930,-29.9758,27.6119,-38.0601,-191.8483,-340.4632,1.2901
-227.3615,-232.9828,-181.6511,-333.4013,-114.4038,-273.2649,-33.1070,35.5613,411.2459,106.1786,-165.7872,-146.1444,-124.5234,5.5409,84.0154,16.1576,-293.0349,-283.3889,-20.8725
-294.0993,-159.7867,-224.7902,-288.7038,-141.9592,-169.9681,-15.1542,157.1288,533.6952,307.3572,-153.2859,-88.7990,-92.7838,72.8718,144.3537,112.4984,-388.1924,-180.0749,-48.2481
-246.1734,-70.1057,-205.9533,-236.2084,-122.4359,-118.1485,-47.9680,188.5804,29.5000,399.4838,-98.5403,-43.2421,-54.1646,72.2020,106.3972,95.8258,-357.3568,-190.4202,-62.2211
-131.0146,-96.8924,-158.8920,-251.3156,-84.9887,-195.2785,-67.6439,56.5581,-333.4604,162.9572,-55.1420,-85.2998,-41.7125,13.6130,35.3843,31.5967,-236.7584,-239.6287,-60.9145
-79.3423,-116.4427,-128.7079,-246.8796,-66.0540,-202.6008,-39.6501,-7.4021,-131.4511,-13.6628,-38.4366,-107.8067,-33.8872,1.2467,50.6814,38.1542,-110.6339,-169.1120,-27.4080
-63.6195,-68.6485,-78.7520,-165.7317,-40.5507,-96.2604,-9.1979,34.4157,133.6536,52.1219,2.0058,-55.4608,-22.8614,28.9287,125.4635,47.3464,-11.4575,-45.4534,-16.8496
3.6114,-34.2068,-10.2080,-63.1517,-14.8185,-44.7058,-34.2751,8.6664,136.1868,75.5711,70.2733,-21.1397,-26.3379,3.1754,140.9034,-14.2289,40.7376,-23.0952,-62.0947
77.7617,-19.2853,15.6404,-9.7229,-28.9908,-79.2723,-70.9111,-52.2281,92.8171,7.0493,114.9127,-32.2476,-27.6696,-45.8866,101.8063,-49.5760,53.4856,-90.5198,-53.3040
94.5436,-14.1773,7.0070,-42.2187,-51.2128,-119.1911,-6.9839,-29.9917,27.7643,0.6648,118.6027,-34.9986,-0.7614,-22.0873,117.3100,7.6357,74.0057,-153.2662,53.9737
81.9729,-55.6543,6.4963,-110.6518,-43.6564,-150.7021,129.2123,8.8946,-60.8811,23.3482,98.7481,-31.2317,34.7865,37.7943,176.2838,61.7668,99.2539,-174.6561,104.3457
77.6120,-88.1636,-0.6859,-101.0996,-61.0472,-152.7144,149.9338,-7.8740,92.3648,46.7965,77.3046,-30.5207,37.4201,42.9036,157.8927,41.9722,85.6221,-161.7026,8.0333
93.8642,-56.8969,-13.9854,-35.4532,-125.0199,-115.8638,-8.0826,-61.0203,291.0425,52.1861,80.4042,-22.3804,-15.7987,3.0333,50.8332,-4.6457,45.1204,-156.7213,-128.4800
114.5382,-56.8275,-2.7492,-60.6909,-143.7332,-127.8232,-180.5432,-156.1668,53.7446,-78.4639,88.8808,-46.1204,-99.4474,-39.8010,-53.4654,-43.1545,-7.8926,-194.5769,-219.1025
68.1957,-130.7008,-2.4008,-162.3192,-66.8884,-191.5805,-231.6778,-230.2857,-300.9103,-196.1365,46.0401,-105.2476,-134.4105,-73.6263,-121.0471,-79.4778,-108.8175,-202.3349,-264.0277
-52.0383,-154.7517,-52.1869,-172.4697,42.5998,-148.3582,-192.1095,-144.4508,-206.6100,-27.4468,-21.4977,-102.4499,-82.7948,-56.0465,-143.3700,-72.6580,-217.4421,-77.8033,-236.5719
-103.6079,-64.9467,-79.9489,-51.0430,133.1992,49.2986,-114.0654,61.5729,49.8695,200.6925,-15.0911,-2.4781,-12.7166,38.9015,-83.2522,20.5431,-202.6438,122.7634,-130.4633
6.3131,61.0357,-1.5816,106.0811,211.3570,232.7056,-16.4576,192.1072,-0.6686,126.1108,79.0045,99.6298,13.5146,125.0518,-0.8642,127.4689,-42.6193,236.9977,-21.8996
171.8481,141.4164,131.1977,229.3283,262.3786,263.1979,35.3568,168.3508,-236.7376,-83.7157,172.8468,130.2220,9.8421,101.4179,-40.8335,117.1763,120.5549,221.8115,24.5996
252.1002,141.0669,189.0213,285.5556,241.0377,191.8217,0.8602,64.2690,-404.4123,-140.4154,192.6103,104.5246,-15.2731,1.9448,-186.1810,-4.4525,170.4983,179.4241,23.2244
235.1633,87.5358,136.9805,279.6204,161.5219,144.1861,-24.7404,-8.4263,-369.9466,-82.1689,139.9582,66.5967,-47.8628,-60.1228,-244.6537,-82.0804,142.3824,174.5585,42.5661
191.3229,71.6980,75.7638,275.8321,125.6919,149.3946,51.6309,18.5185,-129.2759,10.1153,93.3596,62.7610,-14.8346,-43.5293,-148.8192,-44.9983,136.1857,173.0172,124.1408
169.1663,127.3583,84.4645,309.1074,185.3092,146.3507,144.3954,93.2404,-10.5793,100.2540,127.5611,116.9241,86.0206,10.5208,-38.9001,8.0747,168.3429,162.7420,181.6814
162.9463,185.1092,106.4741,344.1282,224.1109,120.3363,122.6484,115.5751,-147.0748,83.4278,192.0763,189.0674,130.8166,63.7564,-6.7873,19.0136,167.0395,161.4929,104.3667
157.5511,179.6253,77.3385,329.6517,120.9528,85.1016,27.0411,73.5400,-167.0086,-48.2365,184.5570,197.7821,67.9876,86.5125,2.6101,33.4719,106.1752,98.9839,-30.5371
157.7786,93.8712,37.2916,214.2229,-37.3081,-24.0773,-25.5318,-10.8953,-95.4808,-220.7205,124.3750,97.9788,-22.7551,33.6566,7.0614,20.9905,31.8335,-84.7031,-78.7089
138.1229,-44.5509,13.0331,19.5308,-95.9693,-210.1652,-44.6098,-104.9093,-290.9097,-377.2598,81.4595,-54.4463,-96.1040,-75.0042,-50.9854,-70.0055,-50.3899,-246.9658,-67.2343
64.8278,-148.2005,-37.1877,-101.9218,-60.0862,-295.2546,-89.3486,-88.8841,-395.3802,-341.7192,32.7529,-138.0754,-147.1495,-119.1189,-140.2484,-119.4822,-154.8998,-223.4458,-61.0913
-2.2846,-160.1471,-98.9285,-72.8424,2.4691,-201.3808,-120.0270,63.4474,-99.4068,-59.0188,-39.4066,-112.8254,-133.4430,-47.7972,-173.7577,-27.9022,-216.0896,-118.5562,-24.2923
9.2379,-128.0874,-114.0142,-31.1895,81.0178,-117.0697,-103.7078,146.4878,-73.4471,123.4258,-69.4960,-68.4990,-80.7587,15.7680,-185.3614,50.0385,-188.1368,-125.2156,9.4115
32.8885,-105.8523,-100.3516,-85.0776,115.7050,-175.3072,-113.6416,46.2140,-490.9387,16.5083,-48.8194,-82.9903,-101.2709,-38.7322,-249.9088,-30.3016,-151.7704,-215.6453,-46.9998
-13.9684,-107.5093,-103.3486,-169.4210,34.5247,-279.2917,-182.2008,-93.9857,-486.6476,-114.0939,-56.1453,-146.8171,-192.9791,-157.8854,-313.1924,-163.3935,-174.2552,-273.2203,-127.6240
-66.3211,-164.3768,-122.7411,-236.7241,-75.5729,-345.9572,-238.3559,-198.4993,-96.2019,-218.4888,-109.9702,-238.3824,-238.6379,-255.9466,-310.9342,-239.5297,-212.1572,-303.3846,-148.8033
-57.7012,-262.5770,-167.5274,-297.3830,-108.2988,-393.5198,-265.1038,-328.9716,-235.4611,-472.0956,-166.8102,-333.2973,-229.5465,-328.1523,-305.5361,-303.3949,-235.8413,-323.3095,-182.0630
-64.6283,-308.6120,-250.2391,-311.2552,-136.0647,-412.4008,-303.5902,-428.8246,-665.8109,-615.9775,-231.6281,-379.3804,-252.9713,-381.1393,-330.9869,-366.4657,-283.1348,-305.7114,-260.5435
-147.5384,-285.4805,-327.8842,-290.2074,-224.4151,-414.3794,-313.0463,-427.3571,-559.0953,-420.1140,-318.1532,-383.6416,-297.9445,-414.6379,-311.7933,-388.5628,-363.2083,-318.6490,-308.5559
-211.7307,-287.2161,-355.3021,-333.2462,-287.2085,-478.5534,-256.4444,-432.4816,-262.8925,-307.5291,-368.3524,-424.3163,-294.2710,-460.3722,-249.2138,-409.0988,-419.0872,-439.2646,-323.4654
-155.9696,-341.0556,-335.0193,-414.5212,-291.2815,-581.5887,-214.4939,-494.9908,-360.4747,-507.3196,-332.2855,-496.6871,-260.4071,-505.3902,-234.1943,-437.9800,-379.2957,-542.2879,-314.8666
-45.2701,-374.2975,-282.8273,-404.7522,-295.3183,-580.7867,-207.5914,-476.7522,-427.1816,-550.8171,-261.9532,-497.7592,-235.7428,-466.8023,-240.6654,-385.7263,-248.6418,-471.8986,-213.5890
-16.5587,-360.0719,-230.8138,-333.3011,-260.0651,-460.3093,-133.1380,-343.8602,-158.3813,-301.8079,-237.1895,-416.1339,-191.0450,-347.9678,-185.2950,-264.5220,-160.6211,-342.2522,-80.9399
-73.0973,-347.1298,-224.3301,-337.4977,-153.3779,-381.7006,-36.0941,-253.3335,-76.4506,-235.8512,-259.1625,-367.7765,-138.5512,-274.1718,-145.9878,-209.2917,-227.5854,-355.8304,-99.3142
-109.5071,-354.7567,-255.9839,-402.6633,-111.8251,-424.4863,-100.3555,-275.0969,-379.9971,-404.8316,-285.8217,-399.1125,-163.5606,-297.6544,-235.1249,-240.5734,-354.0980,-449.2916,-249.4554
-98.7410,-340.3387,-278.0548,-409.9645,-196.7679,-480.8437,-278.9394,-323.7565,-561.1650,-408.8738,-304.3004,-423.8677,-251.9874,-339.7930,-364.4127,-268.4561,-372.1269,-450.8617,-347.4645
-91.8387,-301.2203,-281.4740,-370.5399,-254.4442,-481.2840,-331.7670,-356.3924,-382.5261,-279.2291,-315.5879,-411.6824,-285.9128,-367.2078,-393.3030,-291.6002,-294.4680,-421.4719,-345.1910
-98.7096,-323.7098,-290.5780,-399.7125,-220.5612,-505.8123,-231.8325,-404.7709,-145.5667,-280.5730,-325.2389,-456.0813,-252.8579,-430.6545,-350.0804,-353.3054,-252.9133,-477.6886,-304.0082
-117.8862,-422.0215,-317.5707,-483.4249,-207.9631,-561.1557,-145.2007,-447.6208,-51.3574,-300.5450,-359.5859,-562.1466,-237.1525,-506.8607,-306.4384,-398.5179,-281.8395,-489.2884,-248.0527
-157.3438,-441.9757,-349.4483,-460.9221,-226.0979,-508.1537,-115.5431,-427.2985,-23.3778,-234.9762,-402.0471,-578.9670,-229.2804,-504.3112,-242.1873,-363.8911,-304.5470,-334.4384,-206.2946
-151.5458,-314.3740,-343.1786,-305.3586,-191.9743,-349.4409,-92.0488,-369.3583,-30.6254,-277.6117,-371.4265,-471.9190,-169.4487,-438.4576,-164.0496,-296.7465,-262.5350,-194.0790,-197.1869
-52.2466,-228.1541,-271.7668,-222.2316,-149.2926,-283.5961,-79.7499,-358.3305,-95.1844,-407.0516,-258.8398,-413.9104,-93.8486,-409.1902,-126.8172,-263.6735,-187.2867,-234.8073,-168.9328
38.5587,-317.5641,-179.3199,-320.5749,-158.1523,-353.5686,-51.9889,-405.9394,-97.8842,-390.5889,-161.6080,-472.6792,-55.9815,-416.2471,-93.5564,-252.1240,-145.5945,-310.2174,-98.9116
43.2213,-421.6602,-104.3362,-420.6813,-143.3462,-379.3703,62.3639,-426.0975,57.8748,-305.4203,-105.8215,-493.1422,-29.3335,-376.0524,2.6721,-224.5311,-123.7431,-260.9539,-19.4126
56.3109,-374.2479,1.6919,-363.5562,-52.7754,-290.1404,221.2446,-329.4645,223.0673,-286.1631,-7.0032,-391.4200,20.5887,-277.5774,113.0618,-166.8550,-47.9271,-162.3497,89.2398
141.9673,-243.6046,168.3478,-230.3021,51.7751,-186.2730,297.3851,-117.7669,235.3851,-150.7850,151.0892,-263.0259,98.7947,-166.3530,173.0992,-67.1857,68.7689,-102.8114,229.7812
217.1783,-134.9262,305.4405,-122.9587,119.9153,-117.9909,253.2363,88.6575,161.1436,108.2736,269.2584,-169.0629,197.7724,-62.0000,206.7837,51.6854,140.3340,-70.5630,293.4135
227.1896,-52.7229,318.5652,-40.0005,140.4913,-90.4927,162.1090,151.7261,90.1081,161.7481,277.5432,-100.2061,261.6439,-5.7179,214.6884,96.6967,156.2738,-97.1890,220.1259
209.7679,-13.9662,244.0921,-5.8386,105.0668,-146.6665,91.4502,70.2210,-14.9097,-2.3995,214.5579,-91.0101,236.9443,-50.4971,154.5550,14.4395,162.1706,-193.3579,89.5879
187.4648,-34.3627,179.7944,-30.8851,43.9837,-242.1669,17.3785,-47.5712,-143.5764,-90.9394,160.4124,-137.9488,169.8785,-140.3974,69.8280,-102.9786,150.3319,-232.9539,-43.6115
151.7518,-38.2986,145.2632,-21.5569,-7.6729,-244.7615,-111.1622,-135.9081,-196.0920,-93.0386,133.3615,-143.0011,122.6185,-164.7539,42.7015,-135.2583,103.3301,-148.2756,-182.3066
104.8667,22.1182,99.7559,57.5816,-59.9184,-151.6797,-222.7125,-171.2750,-125.7642,-93.5222,87.9346,-77.9747,77.4588,-123.5000,62.7840,-90.5993,67.1274,-48.6504,-257.2729
60.4857,72.3237,51.6189,116.7846,-104.5319,-74.4554,-199.7065,-121.3538,26.8529,25.2596,23.3802,-15.0555,23.0826,-74.2022,81.0888,-41.0556,86.7845,4.9941,-203.3755
31.5993,66.2753,35.0046,137.1377,-118.2511,-20.7216,-110.6677,-23.7197,172.8778,193.0462,-7.9326,37.2886,-8.6712,-6.7338,91.8189,0.0584,126.2182,84.9191,-99.4125
2.1905,68.5626,15.1665,189.7730,-132.5373,72.3439,-95.1288,27.8348,258.5624,181.4428,-21.2315,120.3978,-20.5006,83.1975,96.7607,42.8286,112.2312,189.7414,-47.6496
-48.5102,107.1498,-47.7301,254.7622,-168.5782,164.8473,-94.3175,27.7060,325.5991,97.9274,-71.7011,196.1797,-35.1443,137.5418,89.9111,70.1718,46.0753,217.3306,-32.9550
-79.4962,113.0133,-104.5180,240.4021,-200.5830,175.8355,-25.9733,26.5553,354.6011,109.8680,-130.0395,200.5741,-59.4604,140.6486,68.7250,81.3816,0.3159,147.5537,-19.0610
-68.0721,52.2004,-119.3984,131.2554,-246.3278,120.1552,-6.4877,21.3148,233.7311,70.9277,-154.1875,142.4132,-106.5941,133.6338,29.7828,94.4220,-21.8980,56.0991,-28.5396
-96.5619,-14.4570,-140.0588,1.3397,-307.8695,64.3848,-80.1506,28.2858,67.8311,-18.8520,-174.7108,78.1919,-141.8327,132.5157,11.3676,107.3996,-92.0098,5.7339,-49.6224
-188.3281,-17.7125,-162.2726,-52.7504,-276.7352,48.5810,-81.0814,102.5149,101.7972,88.4560,-180.9099,72.7220,-81.8999,150.2381,61.9105,124.8085,-181.3669,19.0518,-23.7970
-218.0412,48.3963,-111.7616,0.4944,-120.6720,77.2205,8.7576,186.0746,230.5686,290.1274,-113.2972,147.5618,40.2369,202.2631,109.6007,159.4212,-182.2465,60.0816,17.3562
-143.9135,124.8851,-14.3810,73.8881,-3.3486,100.8195,-6.6877,149.4706,177.4428,255.9053,-23.5989,222.5904,81.9400,236.0070,49.9424,175.1906,-114.0167,50.7267,-42.3803
-99.9430,140.3869,13.9388,80.5125,-37.8929,62.0373,-155.8866,19.1080,85.2143,69.8394,-29.5306,217.3889,10.7903,202.0845,-43.3870,131.8520,-86.9449,-9.5306,-199.6518
-160.9084,90.7351,-61.5916,45.4102,-140.0492,-2.9692,-266.1192,-40.8916,244.8450,67.9285,-132.1349,170.5968,-81.4665,156.5671,-47.7395,78.1472,-118.5845,-47.1834,-282.2585
-241.8778,35.3218,-175.5155,-1.8879,-207.9824,-23.4231,-271.5085,24.7305,449.8534,266.6149,-231.7890,131.2280,-130.2727,147.9272,-17.1525,81.4781,-160.7354,-56.5585,-198.4239
-258.3868,13.2865,-246.0360,-72.8430,-229.8377,-10.6759,-237.4537,92.0438,296.2199,352.3732,-251.9144,82.3425,-108.6730,137.6809,-26.4075,111.2704,-187.7604,-57.3745,-92.4484
-235.9864,25.7711,-228.7957,-108.2142,-219.4941,15.8895,-199.0632,52.9861,-74.7757,120.1146,-196.1894,62.5791,-27.8475,124.4576,-18.8890,102.6002,-190.7459,5.9503,-115.9657
-255.7374,54.6823,-175.6230,-68.1862,-197.2542,81.1882,-161.9841,-31.3725,-126.3175,-186.9631,-151.6250,122.7792,17.5078,147.9290,4.5264,64.5399,-203.0381,118.2253,-186.6652
-322.4590,46.5751,-186.2529,-68.5767,-183.4113,136.1025,-140.3102,-52.9785,204.5707,-176.1986,-182.1237,166.2610,-26.6869,167.6867,-46.1526,42.0344,-258.3287,139.3154,-156.3146
-336.4688,-16.4770,-243.0460,-168.4068,-167.5830,102.3827,-132.9787,-37.4413,323.4143,16.4139,-219.5591,105.1731,-71.9384,137.7775,-123.1861,41.1705,-288.1939,53.7472,-80.8963
-268.5767,-43.2251,-238.5697,-224.3763,-142.9943,42.2913,-133.3852,-56.8556,-59.8533,-51.2671,-185.5089,41.2835,-50.3130,102.8514,-108.8705,37.4831,-245.2263,0.7558,-102.3224
-224.3699,15.0336,-174.6511,-157.8596,-127.8546,47.4467,-136.6205,-69.2822,-348.0340,-245.0680,-129.4856,58.4574,-19.8740,89.3101,-48.2494,16.9978,-218.8893,15.9118,-177.8467
-230.0508,62.3984,-141.4745,-62.4721,-114.6790,84.7254,-126.5467,-6.6361,-32.9614,-108.7476,-106.7927,91.2983,-21.1941,80.7092,-35.3649,8.1208,-225.1247,50.2168,-157.5522
-184.6189,68.3659,-134.1954,30.9300,-64.0629,138.5248,-102.3143,105.9290,390.9824,216.2737,-72.7440,124.3411,-6.8229,114.3809,-33.2392,60.3671,-147.3183,132.2955,-40.0439
-85.5180,124.0544,-80.3882,145.3969,38.8003,241.1703,-84.5316,206.7094,298.6345,296.1283,-0.6199,194.1057,49.2455,189.0101,2.5859,143.6647,-13.4389,228.9280,50.9712
-34.4502,183.3593,0.2369,184.8331,144.3656,287.9505,-75.3719,231.4132,-6.1872,172.5482,52.7808,219.6019,95.6174,194.6773,25.9049,144.0146,30.2203,196.2291,60.2294
-42.8333,119.1652,22.5384,102.4761,162.9470,178.9490,-66.8824,136.3079,43.3540,83.3453,45.9583,153.2528,75.8395,118.8170,8.5462,47.6398,4.7498,65.4065,13.6535
-50.9914,26.1684,-17.1013,46.8507,73.7077,68.0041,-76.9646,4.6067,273.2434,36.6928,7.2411,118.4697,14.7771,92.7666,-24.7322,-7.2431,9.7636,37.9482,-65.9338
-43.7723,44.2514,-47.8005,87.2762,-23.8783,106.0685,-119.8394,-35.4722,205.9993,23.8827,-18.6052,157.2188,-11.0116,134.3539,-52.8468,36.0711,17.2557,127.4912,-136.1600
-36.1460,59.5116,-53.8996,84.2277,-48.4651,171.8327,-157.9202,-15.6871,-64.7473,65.4400,-28.1112,145.2245,0.8939,135.6400,-55.5727,66.4581,-5.4937,172.6938,-131.3698
-46.2171,-16.2516,-75.4873,-2.8819,-35.6023,155.3790,-138.7322,-21.9686,-89.0436,75.8680,-43.7353,78.0822,-12.6298,100.8577,-32.7841,38.8728,-7.5080,160.9981,-61.9313
-70.8252,-13.6987,-95.6889,-10.3261,-29.2716,165.5387,-79.8794,-8.9548,147.0002,48.6401,-50.8481,92.2268,-39.0116,113.9789,-29.3167,44.9727,34.3866,208.8066,-9.9761
-56.6316,138.8156,-59.5811,131.4155,-18.0331,270.2517,-46.4107,70.5479,224.1485,80.2568,-14.4910,201.0159,-20.1248,166.2004,-57.7060,102.0475,115.6617,326.0825,12.9744
16.9742,272.9682,23.0331,300.7001,3.7240,386.0485,-26.7589,177.2994,47.8339,148.9015,50.7705,306.3832,21.9862,214.0188,-72.0148,135.3235,238.4050,435.3532,84.2072
95.4671,326.7112,113.4248,411.1204,49.0154,464.6465,56.8799,303.0896,-27.4134,203.9857,116.4759,366.9763,55.6496,249.9582,-54.3572,147.3320,355.5987,494.6170,223.1453
151.0078,368.9926,202.0013,468.1977,146.1734,499.7675,196.3003,419.3322,82.4429,271.3133,182.6580,369.9158,107.7494,242.6459,-9.7031,168.6803,412.3438,479.9210,340.9810
180.1200,353.8599,256.6661,446.8597,255.7289,446.4245,301.9022,425.4570,118.3057,305.6341,222.2706,308.1454,157.7225,186.3431,77.1098,158.7325,403.5495,383.4275,362.0231
153.6097,254.8487,253.6058,349.1499,307.0201,325.1162,340.4446,349.6147,117.3085,277.4076,215.3962,247.1644,153.8380,158.3740,157.4093,123.8451,332.1936,269.1664,311.2500
116.3631,200.9146,250.9425,280.7250,300.7047,236.5044,321.0518,324.0340,237.7456,295.6911,218.8442,239.9005,128.3436,178.9245,130.7848,131.3496,242.9815,209.5672,254.7448
143.6418,218.0844,270.8789,281.2408,253.1077,198.4146,240.0830,311.8654,266.7649,346.0489,242.9668,230.3084,110.9559,165.3873,34.7698,146.5499,215.7411,183.5269,213.8649
155.1245,177.3511,234.2594,246.0339,156.1073,150.8243,156.4906,219.9755,158.7181,283.1600,203.4979,171.9508,62.4627,107.2752,19.7250,104.9859,204.3284,139.3023,183.6303
70.2644,72.0369,147.4960,141.1690,60.7050,96.4188,161.7688,145.2301,301.5981,209.8139,119.4255,107.9509,12.5506,80.9504,97.4495,73.0356,114.2917,99.5049,189.5614
18.5512,2.3931,126.0056,68.2783,39.3295,78.9403,226.7756,159.3175,604.5743,299.3499,105.9090,68.4075,41.8011,85.9893,142.3714,96.8076,41.7650,106.6592,237.8534
79.7007,-17.7981,166.0852,61.7866,71.9409,94.2036,250.0753,129.5715,464.6112,326.6296,139.9893,42.7882,110.3874,67.3578,115.6944,86.9433,96.6115,139.3432,244.9857
105.6045,-6.4189,156.6292,58.8080,86.9319,117.8042,214.9891,4.7096,-64.0532,32.2013,117.3856,38.0449,127.9309,37.1716,81.1097,24.4922,136.8831,161.7126,150.5193
23.6941,24.3421,82.0752,42.9674,44.0179,147.6649,167.8618,-52.7581,-335.7191,-282.8135,50.5002,44.1877,104.9284,33.7328,71.7886,14.0764,23.6843,183.5677,56.0014
-54.0919,20.2728,3.3809,44.4183,-38.1801,194.8806,143.5342,61.5551,-232.8041,-184.9776,-5.1891,44.1562,87.2844,68.9170,81.1713,77.5940,-113.6012,228.3580,84.7027
-78.6174,24.3179,-33.4799,85.9231,-62.6148,265.9783,157.4801,257.2759,-127.1907,165.9529,-35.5532,94.7548,87.0372,154.1260,90.5687,153.7228,-115.6738,286.4886,177.1242
-77.7878,147.1235,12.9553,168.6405,35.0660,320.3089,174.3615,382.8336,-150.6576,314.5742,-12.0176,211.9809,109.6534,245.3653,65.6136,221.0757,-23.6840,304.7377,202.7075
-38.5316,268.2411,106.5252,221.4294,154.0148,290.7784,139.4175,363.1744,-207.4816,211.0551,44.7324,253.1480,125.0500,239.5096,16.9733,244.8331,44.1241,249.2277,159.2985
14.4062,203.8569,125.9693,192.0647,185.4655,216.3136,77.1724,263.5045,-218.6157,88.4657,47.9641,160.8945,91.8998,150.5483,4.4895,187.6373,51.8042,192.6258,109.8666
37.2778,122.5798,82.3909,197.3534,184.8133,207.8238,42.2968,199.1820,-135.9821,-17.2681,24.3706,123.4593,49.0153,115.3050,13.8251,121.9153,67.7468,206.1896,71.1859
89.0067,236.8967,125.4097,321.6094,212.6675,226.2507,25.8632,155.0123,-49.2879,-152.5558,78.7139,232.7877,40.9416,147.6175,-36.2961,115.9258,172.7048,196.0662,54.8662
198.3537,357.3806,247.5045,412.5444,225.5225,155.3587,17.9359,53.3648,-83.4490,-198.8718,166.1716,303.1687,27.7053,132.0801,-128.4791,105.9234,315.9958,97.7582,63.4983
247.8761,294.2975,281.2894,375.1830,212.6665,90.1367,36.2784,-34.8470,-119.3338,-103.1021,172.8324,240.2806,1.9381,67.6254,-147.3077,54.4561,362.1157,82.4911,52.8389
180.8628,221.8151,203.7366,343.4530,194.5915,186.3441,59.4051,5.0314,-3.0232,-7.5975,128.1283,184.4205,29.6687,45.8940,-56.0620,29.7309,299.3331,231.9384,19.4876
109.7335,252.2305,150.0021,349.5285,143.4740,317.4414,74.1959,97.8867,135.4212,16.9430,120.0471,181.9516,103.7871,54.0373,58.2361,44.2502,233.7580,317.0006,14.0986
110.3201,231.2572,164.3320,273.0546,87.4409,288.5853,119.5004,97.9342,134.2260,18.7349,144.5917,138.2231,150.4946,35.8870,117.9526,43.5757,204.0493,224.9809,17.0698
118.2268,113.6845,165.4474,150.6283,93.6290,189.9056,186.2973,35.1763,106.1963,2.1095,149.0703,65.8008,164.3045,21.8169,150.4225,32.5640,167.3378,151.3562,-7.9238
80.6526,17.3972,117.3560,98.3362,103.9805,181.6221,219.4635,44.1933,234.7245,8.5733,114.9647,34.9580,181.1555,44.7269,216.5762,44.4425,120.3994,181.0520,11.7047
56.6960,-8.6799,88.8944,98.2182,57.3051,221.9705,219.3305,136.2304,402.6289,101.1840,85.6132,34.7295,199.4901,77.8308,273.5617,77.1355,116.2101,197.6952,102.1609
108.5375,39.3628,133.7922,120.2367,41.5218,223.6359,188.8009,180.7422,240.5433,137.1896,113.9410,55.1837,201.1136,96.1743,214.0963,110.8317,162.3991,170.4740,118.6549
167.8431,113.5054,185.1368,134.8709,79.2275,161.8075,86.8559,91.4206,-279.4131,-30.5942,149.8492,76.2806,164.0004,76.4978,64.4333,98.4639,161.1507,96.9178,-7.9679
113.8310,71.3951,144.7719,24.5510,45.2998,14.2079,-57.1321,-46.0160,-582.2667,-208.1499,98.3082,17.2571,81.2590,8.0536,-25.4936,18.5049,32.5567,-67.0015,-126.3906
-29.5792,-71.3532,39.7526,-179.7154,-55.4598,-152.9815,-143.3005,-90.5777,-315.6631,-180.7010,-0.0163,-89.9973,4.6022,-43.2459,-18.1080,-42.1086,-132.3558,-215.8515,-121.4302
-115.2584,-119.1562,-23.8643,-262.6692,-82.5842,-218.1502,-143.0923,-50.6629,29.7512,-81.7559,-37.9895,-108.1464,-28.6524,-25.1453,-9.1149,-20.7490,-186.8286,-238.6016,-62.5429
-83.9111,-68.3355,-12.8726,-202.4553,-42.5138,-211.6621,-106.7257,-33.4121,-27.5161,-40.6624,-24.0006,-58.9995,-62.1159,-2.3193,-27.1183,2.5547,-124.5745,-232.0120,-22.5734
-2.1201,-43.8123,40.5329,-126.9081,-39.0717,-200.4524,-80.5983,-28.5597,-191.6590,60.8711,-2.7789,-39.6713,-98.6473,-12.2947,-23.6732,-9.2030,-10.5646,-213.7070,14.3871
67.7254,18.3203,108.6896,-3.4088,-47.4824,-109.9514,-75.0505,38.8327,-82.9232,199.1551,45.1992,9.9830,-60.7960,18.1767,2.7332,31.9668,120.7362,-66.5415,47.6040
98.2837,139.5909,145.6383,152.6970,1.0243,44.5258,-45.6619,94.5135,125.4917,153.2420,90.1040,110.3652,38.3226,89.3303,37.1858,115.5058,197.9140,88.3924,39.9362
69.4082,132.0004,107.9514,151.7280,66.3997,100.8301,47.1820,29.6678,175.1912,-19.8080,53.2344,114.9739,96.1868,96.9349,95.1130,119.2590,168.7310,89.3521,-2.6725
3.7007,11.8454,36.7278,32.1714,84.3492,93.9101,136.4165,-55.8017,110.8046,-53.3260,-27.9744,21.1142,106.6640,37.8393,154.2843,49.2436,119.3128,114.1392,-30.7289
-41.0694,28.9005,11.0528,27.9241,54.6037,176.4204,129.1415,-23.1810,54.8518,-8.7246,-47.2590,-0.0987,107.2906,0.8688,152.8052,8.6933,123.5193,252.3523,-29.4221
-52.7191,163.7032,24.0004,81.7028,-15.1097,227.4084,34.2875,22.7284,22.3081,-140.6969,-23.1943,43.8777,25.1332,-20.6369,60.8444,-8.0274,102.0230,219.1833,-55.4934
-76.3597,168.7206,-7.8980,-21.4618,-135.6603,52.1276,-108.4364,-81.4906,-55.9653,-340.1371,-68.4601,-6.2165,-180.4547,-97.0470,-104.5640,-68.9906,-14.8194,-64.3787,-157.7808
-133.6850,17.3944,-117.2264,-220.4532,-273.3151,-217.9508,-272.4693,-250.7296,-190.4046,-309.1570,-196.0207,-152.6522,-367.3479,-210.8752,-275.2650,-159.2208,-168.6080,-293.3322,-272.3780
-182.9539,-123.7871,-223.2695,-332.6123,-336.2152,-343.9894,-363.5840,-290.4935,-220.3206,-107.1036,-287.6784,-261.8541,-408.4470,-276.2794,-355.6083,-214.1654,-275.3506,-344.2759,-288.1946
-183.5349,-167.6993,-225.8864,-344.8399,-282.6685,-341.1225,-313.5758,-196.1462,-61.1121,6.8716,-260.0977,-271.1402,-360.1110,-262.1395,-323.1527,-218.2661,-300.3640,-378.0252,-219.2650
-150.6803,-143.0585,-136.3481,-327.7006,-196.7483,-363.7903,-216.3686,-132.2729,91.0110,-3.7000,-163.5806,-235.8589,-303.0899,-235.1100,-234.1856,-219.2145,-263.4129,-465.8019,-184.7654
-106.3938,-126.3440,-48.3639,-312.7276,-165.7873,-441.3688,-167.6017,-195.2991,75.5816,-69.9931,-76.4899,-236.6080,-223.8602,-258.0609,-123.1987,-246.5720,-215.6526,-522.7963,-211.3555
-48.7014,-129.2518,-2.0844,-261.9604,-145.0861,-441.2944,-112.2406,-271.0357,-20.1360,-145.5332,-9.7444,-234.6969,-123.7315,-259.1687,-15.9825,-229.2846,-158.1453,-424.9461,-193.1088
-2.6403,-57.9655,27.0277,-92.6511,-67.9686,-243.2382,1.1773,-169.2641,-76.1715,-63.4917,28.9255,-107.9131,-49.7555,-129.6231,36.8474,-95.7641,-58.6644,-134.0621,-69.0674
7.6244,70.7248,42.0309,135.6503,12.0599,57.6546,114.8422,66.4355,-52.7405,198.4698,15.0532,86.8800,-3.4802,53.3758,53.5725,60.5069,41.2119,152.3351,76.9207
21.7056,86.5398,27.8514,220.1415,29.1703,238.1546,184.7640,175.7489,-8.0446,267.1529,-16.1901,147.7632,37.3545,124.1094,107.4010,100.4239,82.9216,223.6758,135.6392
52.4033,-6.8841,-2.6666,156.5011,24.4069,259.3627,232.0586,107.1959,-41.7169,-6.7544,-19.2514,91.8332,58.8853,112.7264,187.0713,73.9803,90.4248,199.5589,110.4700
43.9667,-28.8872,-22.7712,152.1962,40.1192,268.2524,269.4215,89.9098,13.0456,-161.0864,-19.0483,107.8421,61.7258,158.6606,244.4947,114.5352,96.9479,261.1872,80.7444
23.4905,10.5666,-13.0379,226.1594,37.2642,306.4854,278.9860,187.5679,336.6512,62.3925,-26.0636,172.8064,74.2099,231.0484,295.5831,191.6597,103.8320,296.7587,83.4809
75.0256,-31.4122,20.8930,201.7428,-4.4111,279.1678,229.7102,220.7992,460.4960,248.2083,-7.1448,131.2358,82.3300,214.8628,317.5683,190.7630,123.1570,191.0601,94.0329
127.2032,-105.8596,29.5905,69.8309,-33.2427,164.2879,115.2264,163.2636,-26.5894,112.8446,2.9455,28.5864,51.5484,145.7766,232.2006,130.4879,122.9632,67.6664,84.5487
58.9108,-86.7267,-18.0134,-12.7960,-15.0861,44.2466,3.9115,154.1195,-428.4097,-50.8084,-47.4484,7.1511,-3.0439,122.3387,75.9704,105.4609,48.5156,12.8685,56.4454
-38.7961,-14.3614,-62.0466,4.6712,23.5144,-22.5346,-32.1052,179.8832,-125.9522,-12.8864,-88.5953,51.5000,-46.4379,122.6406,-39.9744,104.7022,-28.5793,-33.7115,42.5446
-8.1292,25.9430,-28.6395,53.8508,56.4520,-48.4479,-29.4556,131.6507,154.8258,58.1011,-34.0637,72.8063,-63.7858,77.9616,-107.1986,51.8372,6.0613,-78.6791,69.2015
100.8905,50.6577,56.9077,97.9502,84.3533,-59.0451,-53.6988,37.6841,-166.2677,11.6093,66.6312,70.4044,-48.6753,14.0877,-152.0993,-29.1813,103.0720,-70.5338,94.6327
146.0986,89.5360,112.9502,144.7627,95.4655,-42.5415,-78.8935,-9.9083,-393.0660,-62.4186,120.2127,90.1888,-24.9649,6.2647,-144.5615,-38.8243,141.6438,-12.2237,60.0759
120.6328,113.3080,109.8995,172.7163,73.6153,12.6333,-66.2001,1.9345,-146.5229,-52.2624,118.2711,130.5533,-40.9929,57.2907,-111.0517,24.3370,117.2859,52.2047,15.7526
107.9240,79.9704,84.3425,137.3934,54.8064,71.2842,-30.8985,36.7078,-52.8351,10.7098,105.4598,142.0279,-82.5308,101.6046,-114.6550,66.7883,97.9063,78.8475,70.0004
135.4671,-2.5134,77.8753,65.1632,98.4865,112.3614,53.6618,71.2013,-224.2907,45.6539,109.7001,108.6105,-74.1438,116.1038,-95.9932,74.6140,123.7617,88.5493,216.3846
155.2400,-57.0124,88.4260,66.8520,192.0254,175.4442,242.3153,130.4612,-91.5961,83.7107,122.3214,93.2088,8.6328,144.7316,26.3951,116.7737,186.6893,182.8197,347.6396
133.6427,-19.2702,92.6029,184.7115,265.2132,280.2903,464.0931,250.9347,294.8244,202.5312,125.5409,141.0086,117.1946,196.3713,183.0967,185.2265,238.6244,359.1045,410.4290
113.7801,59.0468,104.5166,294.7294,292.2058,372.2112,567.5844,371.6727,426.9096,330.9448,135.8202,190.6142,199.3612,218.5284,280.8062,207.3263,255.1398,437.8914,430.4117
130.1383,69.7799,153.0608,256.5765,296.4268,373.4266,523.4822,390.5891,278.5609,342.4274,171.6085,165.5227,227.3609,193.2900,335.4453,181.0711,247.8732,327.0321,427.3255
123.8019,-3.3807,205.1668,101.0090,285.5559,253.1673,422.8253,332.4884,122.4757,282.0379,196.2931,80.8720,202.8986,148.7890,361.0111,142.2626,186.4181,154.2366,382.1467
57.6497,-81.6731,195.6238,-27.2372,256.1580,71.3125,319.3438,272.8145,89.5147,265.5511,172.4867,-4.8186,159.5977,84.6258,330.0078,75.6406,63.6096,33.2166,277.2944
10.2479,-120.2102,130.0129,-72.9528,225.6224,-81.5908,209.5906,178.6406,202.0316,270.5283,128.0255,-69.3393,133.3197,-2.3585,274.3210,-15.4410,-10.2956,-74.5400,147.7189
35.9207,-149.4702,77.9863,-104.3461,210.1481,-204.0822,103.4058,9.0766,321.1315,183.5009,103.5571,-118.7594,140.9041,-66.1699,236.9055,-63.0613,12.2800,-206.1195,46.4741
68.0333,-176.9336,66.7999,-150.4746,193.0484,-324.3540,10.2161,-176.7210,218.1572,-40.5067,91.4496,-144.4406,160.1438,-80.1683,176.7131,-51.7076,0.1765,-305.2393,-47.2055
43.3320,-160.6311,48.3039,-161.1078,133.6239,-390.8549,-83.8483,-315.9127,-93.1622,-275.1313,53.8403,-131.4484,113.1632,-87.1685,64.2866,-58.0672,-108.4414,-341.8710,-171.5686
-2.9359,-119.9131,-10.3827,-145.7701,21.2580,-392.9839,-169.5754,-385.9900,-358.0653,-314.7026,-20.5603,-111.4633,-29.7671,-121.7384,-39.3776,-111.2988,-181.9252,-366.6180,-249.7622
-3.8332,-120.7874,-58.8235,-155.3952,-75.1512,-397.3911,-201.7579,-369.1035,-347.1934,-183.8933,-69.7951,-130.0449,-145.1282,-153.2360,-85.0272,-135.6252,-129.3923,-365.8793,-195.1513
45.9773,-134.4223,-46.4598,-146.9506,-72.5715,-352.7690,-159.2626,-297.3656,-82.6223,-128.9201,-29.5423,-146.7192,-117.9236,-137.3954,-93.1290,-85.7099,-21.8935,-239.9889,-85.4963
85.8868,-110.4471,-23.4863,-87.1714,-1.2782,-186.8693,-82.9469,-241.2284,64.6098,-191.7626,31.1085,-106.4720,-31.7786,-85.0083,-88.2865,-30.7652,44.2158,-42.9553,-31.0665
80.5609,-122.9535,-56.5084,-70.1383,28.2189,-56.6397,-38.0704,-214.7841,-135.3160,-203.2849,-0.4591,-83.7349,-11.4263,-61.7860,-74.8790,-46.9302,45.1483,13.2866,-3.0387
65.1367,-205.4789,-101.4841,-122.7830,-14.1612,-99.0194,-42.0820,-194.5372,-253.0853,-163.8510,-65.8553,-148.5215,-23.5918,-103.8704,-47.1871,-108.1365,18.1057,-75.7951,36.8042
59.7991,-214.1857,-75.9247,-119.0321,-55.5026,-154.5073,-49.3053,-169.8880,58.2678,-155.2977,-30.5878,-189.3682,-3.2670,-146.6394,14.3638,-131.0740,9.5661,-84.0434,38.6291
48.4030,-79.7931,13.7644,-27.7686,-37.7183,-87.5381,-28.8928,-113.6244,277.4117,-120.2735,72.4983,-105.9716,14.2110,-107.3208,83.6523,-72.5618,26.7608,31.6516,10.6632
59.5454,53.7767,102.2949,34.7399,32.0719,-12.3508,-9.7815,-16.9937,-19.7613,-64.0114,122.6707,-3.8255,5.7509,-20.1653,69.5484,31.5713,64.1726,95.4969,36.5049
112.4489,83.3967,144.1947,28.4170,119.3615,-13.5989,-7.3631,51.3286,-315.9811,-56.3177,116.4714,5.0832,17.2348,11.6467,-36.8122,89.3132,120.9951,50.4147,96.4330
140.2770,71.8288,134.1743,15.2315,186.5602,-52.6264,7.1325,19.5522,-218.9596,-20.7045,113.3489,-21.8353,54.2338,-28.6514,-109.7613,48.0325,149.8393,-35.1956,71.0563
115.7189,86.0350,107.2023,38.5880,194.2541,-127.3696,17.7501,-103.6916,-105.1996,26.4072,112.0898,-2.4444,62.1118,-65.7228,-86.7760,-20.6480,108.3745,-133.4331,-66.0328
98.6658,112.0939,88.2717,99.0589,119.1981,-207.5726,-32.6275,-241.0217,-110.9670,-106.9388,82.5522,46.5415,19.3227,-50.0812,-49.9304,-14.4066,49.6248,-196.2077,-198.9492
87.8696,90.1967,45.1449,121.4197,-3.8834,-208.8780,-118.4740,-291.4710,32.2235,-330.3089,19.9211,62.9288,-40.9472,-4.3311,-54.4249,43.2953,21.3496,-171.0735,-223.6322
43.9528,-16.4249,-32.0354,11.8106,-86.2925,-158.6345,-157.4503,-223.2244,76.0938,-346.2060,-50.9450,10.4464,-89.6668,24.3036,-78.2552,61.1051,-15.5126,-119.2109,-168.5312
9.6355,-120.9342,-83.2632,-141.3707,-91.8814,-125.3295,-155.7630,-123.1692,-317.1928,-182.7888,-92.1937,-69.5246,-129.4803,13.3612,-128.3626,34.1440,-65.2326,-92.3473,-115.2508
2.3575,-97.8459,-93.2712,-159.5322,-92.2963,-75.9027,-170.8400,-76.4995,-652.4658,-47.9320,-100.8093,-93.9727,-160.8633,-28.0269,-196.0726,6.1578,-78.2720,-43.9030,-69.0820
-39.1615,-4.6974,-112.5815,-89.3588,-138.4459,-15.4406,-178.8305,-85.6892,-418.1584,7.3500,-102.6433,-72.4858,-166.0766,-81.6120,-198.7043,-31.2699,-74.2305,9.4551,-17.8231
-87.5284,8.4900,-125.2513,-95.5773,-176.3851,-20.1039,-138.4854,-136.4334,-5.7133,-52.5133,-82.5770,-81.1114,-152.4804,-124.0846,-123.1846,-80.9957,-86.9675,7.6744,-20.7220
-52.7031,-33.0774,-66.7280,-138.6173,-166.1983,-49.0946,-99.0088,-181.8516,106.2661,-190.3568,-11.2570,-100.9384,-146.4865,-122.2658,-66.9711,-90.3273,-66.5443,9.1849,-84.4312
27.5655,-19.5306,41.7223,-105.5296,-140.1422,-16.6291,-99.8859,-136.2690,35.7881,-197.7580,73.6736,-75.0174,-124.2609,-79.5894,-51.8058,-50.3379,1.5200,55.3577,-101.4119
48.6333,8.1199,115.1816,-71.1897,-102.9832,17.2974,-84.1241,-35.7986,-62.4703,-87.2601,106.2862,-57.0726,-53.3555,-56.6826,-1.8609,-30.1515,23.0620,46.0830,-44.2837
-4.0394,-35.2660,105.7378,-128.9933,-35.0824,-22.9880,-26.1420,0.0756,-164.3500,-43.8562,71.2890,-99.6818,17.1153,-72.9818,82.7228,-46.6567,-49.0550,-41.4417,-12.9937
-76.2443,-81.4988,31.0917,-171.8772,27.3081,-70.5190,1.8937,7.5062,-56.8940,50.8912,6.4740,-121.0360,43.0895,-60.8665,133.2712,-24.5133,-127.0665,-80.3693,-45.6993
-99.8032,-24.8372,-27.2302,-76.0485,53.6971,-57.3405,-33.9901,61.9794,252.1477,246.8097,-23.1878,-53.1018,78.8661,2.2065,145.7119,50.1106,-121.3607,-53.3002,-113.9048
-47.4256,68.7264,-4.5336,53.5506,69.1332,-53.3236,-88.9922,47.2558,312.8764,186.7243,9.2706,19.8769,150.8607,33.0679,152.8369,73.0326,-74.1971,-99.5899,-221.5360
-6.4047,39.8377,31.5998,11.8060,57.5037,-152.3970,-153.1670,-108.3780,-0.2168,-134.9007,31.9568,-10.8952,178.9565,-12.2197,147.3489,-0.2388,-103.8125,-259.1640,-320.1047
-67.2535,-111.9706,-24.0072,-196.9654,-34.4538,-304.0378,-240.2494,-237.1207,-271.2271,-266.9801,-25.2109,-123.8805,120.8038,-71.2417,118.5923,-72.7111,-234.1015,-392.2057,-322.1556
-165.5942,-221.3840,-135.7331,-355.0136,-167.7779,-353.9580,-303.1359,-234.1316,-295.9082,-230.4512,-110.5862,-209.1743,39.6683,-93.5436,74.3275,-81.7960,-356.7018,-375.0855,-272.2744
-199.6491,-206.4640,-203.3422,-337.6891,-246.4526,-255.8439,-306.2708,-190.5651,-256.4835,-310.1782,-150.9932,-203.2926,-6.8784,-88.9423,3.3660,-76.1246,-383.7303,-243.0346,-259.3724
-181.5415,-138.6432,-217.0835,-235.5056,-258.6347,-126.5562,-292.8981,-148.9328,-273.5389,-311.4080,-164.3498,-138.8084,-27.2164,-65.3908,-98.5059,-72.1811,-334.9261,-110.5665,-248.1466
-150.3747,-80.1167,-203.5932,-156.9858,-252.6178,-52.6313,-286.2213,-93.5896,-333.5857,-140.7457,-172.1593,-77.7752,-58.0649,-29.3578,-175.2585,-40.1351,-251.2856,-21.3954,-201.7561
-104.1649,-41.5716,-151.3875,-104.3093,-230.5351,4.5427,-246.5330,-61.7583,-314.7257,-104.3596,-142.8226,-36.8895,-104.9635,0.1039,-159.6150,-8.0571,-136.9321,62.0581,-142.4661
-55.2298,-22.4774,-61.9935,-46.0730,-161.0720,82.1653,-158.4297,-20.7420,-15.7810,-81.2734,-70.4064,4.5254,-106.5095,27.0493,-75.3773,3.9162,-1.5728,151.4764,-30.7177
-13.1623,24.8968,38.5862,21.2088,-49.7460,145.5444,-51.1775,79.6857,378.3559,156.9161,18.3455,50.4813,-22.6205,51.0809,-21.4232,28.6159,115.9074,196.6467,119.3075
40.1532,112.9744,133.4186,65.6658,57.9138,150.3221,38.1291,113.3879,338.9425,135.7624,109.0309,71.8316,70.2193,35.5568,-25.9110,33.1123,178.6715,167.4398,152.7270
95.0587,144.1863,200.3600,73.6398,132.5891,110.7424,79.0073,10.0466,-56.0649,-289.6580,172.4666,59.8297,108.2378,-6.3465,-1.1519,-19.5723,201.6377,126.8935,65.7182
126.8845,126.9018,229.0195,136.2191,200.6397,118.5325,95.8792,-41.0291,-142.5814,-337.2759,185.6478,79.0654,159.9943,5.1890,93.9058,-29.6688,248.2590,173.9896,40.7402
156.8506,218.4362,253.9129,328.0052,298.7791,228.8743,146.2076,36.2594,79.9398,80.2612,196.3597,187.3848,264.7179,73.9316,159.7211,49.4195,334.9847,290.2268,72.9194
215.0257,371.1128,296.7929,506.5349,395.5885,330.9174,189.4833,51.5328,-39.3436,85.3977,243.8508,304.5959,330.0172,113.0422,117.6923,82.4677,398.7741,333.5552,31.5806
272.4912,350.5514,318.3905,486.3607,418.5108,299.2202,143.0890,-21.1753,-461.1093,-291.5501,263.9212,297.4506,304.9725,100.4173,41.9123,32.5605,402.4037,257.4759,8.0597
258.4806,177.3409,278.9374,329.2477,361.2452,207.2631,76.0114,2.8068,-492.4010,-244.0396,199.3473,191.2019,254.2907,92.9369,37.2087,29.1113,371.1334,193.5130,116.3675
156.5563,79.7225,198.9518,213.8770,299.1708,198.1561,111.0692,110.7410,-90.7266,71.6457,114.5875,131.3515,228.5155,113.8693,96.3066,77.5078,325.2288,237.7968,219.5991
65.2311,94.8516,138.0809,195.1784,282.4749,283.3098,209.6514,169.2774,155.5290,62.7011,91.0711,162.3007,222.7209,150.0300,138.1190,93.5352,277.0190,330.9665,227.4519
76.8056,108.7636,127.2654,236.8250,264.7746,384.9366,284.5598,230.7492,135.3236,0.4427,109.4142,199.8577,214.0848,183.8110,109.7561,111.3293,236.2161,379.4075,272.5533
127.2674,73.7339,128.5473,251.6285,182.5177,401.9436,356.4568,333.5724,173.1138,196.9414,112.9516,169.2701,164.4348,167.9317,30.5452,129.5882,179.8446,334.1458,396.6661
112.5866,-16.4224,95.2155,131.5768,73.1568,267.9568,428.4619,332.3532,214.0919,277.0972,91.7923,65.7539,71.1319,76.5075,-35.9000,51.0397,111.2573,206.8267,462.3538
60.6855,-111.3288,51.1239,-55.4304,26.8464,89.6583,428.3930,203.7834,43.4008,120.4541,59.5330,-47.0706,-8.1844,-22.8335,-55.1141,-63.4456,84.6628,103.5043,402.2752
30.0409,-95.6367,42.9587,-93.4880,44.3355,43.4376,354.2944,123.4435,-94.4049,71.7288,28.8392,-69.7493,-37.5318,-49.1453,-38.0639,-74.5944,94.1456,105.7210,274.8290
3.1794,13.1140,62.9198,31.7084,64.8260,89.8381,279.4031,133.7593,50.3586,121.9419,23.4592,14.1772,-16.4023,-11.8439,11.0913,-39.1354,83.9272,125.6605,159.4123
-13.4843,64.7570,84.3907,110.5502,90.1112,61.4622,233.3201,111.2153,168.3713,71.0662,49.3344,86.9198,58.2335,21.6923,77.8559,-50.2400,60.5449,47.8137,102.8093
11.5400,25.4462,96.9194,56.0685,133.1475,-49.8160,200.6667,27.7641,-3.6991,36.6529,66.1129,47.9372,132.1220,-2.1705,95.7143,-64.2371,33.7791,-94.2512,74.3461
30.4168,-30.4967,78.9709,-30.3812,124.3533,-151.0389,161.6698,-37.7883,-148.5367,95.6452,38.7250,-53.3980,116.5861,-77.9171,35.6585,-77.2628,-30.5697,-210.7654,30.6035
-8.2127,-81.1618,20.9618,-81.6290,16.3080,-214.2209,101.6806,-39.1993,-12.5614,136.4797,-14.4828,-110.9766,35.8845,-126.1481,-24.3047,-114.4650,-107.1833,-260.6870,22.2066
-71.6870,-127.9299,-48.9516,-126.8259,-122.8233,-229.7797,42.9866,28.8766,147.5169,214.4475,-64.1411,-109.6254,-19.3587,-83.9905,-24.0545,-87.5033,-154.9246,-230.1530,80.8483
-130.6169,-173.4421,-115.9051,-192.6256,-213.4956,-190.2505,28.1510,136.9657,169.6849,373.6245,-115.3809,-103.5874,-48.8383,1.9804,-8.3291,14.2715,-217.1542,-159.9359,132.3990
-189.7387,-248.0053,-191.4283,-253.9359,-247.6827,-141.9384,58.8693,217.3892,260.0869,410.1206,-181.8460,-114.7329,-82.7864,53.9742,-14.0506,53.8078,-300.5376,-129.2275,155.6864
-227.6661,-314.4045,-266.1812,-276.9208,-248.6163,-120.0920,101.5332,239.8762,415.3353,273.1808,-246.0497,-129.9562,-99.1393,64.2274,-13.9553,32.0350,-331.7959,-133.3773,194.2542
-223.2594,-289.3062,-305.7431,-283.9665,-242.3640,-111.1896,118.7718,232.9202,324.4890,200.3870,-258.9414,-141.6615,-109.5661,57.5393,-12.1747,59.2192,-303.9883,-112.6988,205.2583
-182.4259,-209.0310,-271.5573,-308.5628,-240.7845,-111.5171,90.3275,212.3357,0.9592,270.0066,-187.8920,-131.1885,-151.9620,50.1671,-48.7855,89.1767,-246.4540,-83.7307,152.9801
-112.7567,-157.6477,-157.7183,-301.9012,-227.0827,-118.3116,40.6024,170.3013,-134.9878,299.2589,-76.6747,-86.4204,-192.0770,48.5868,-107.2861,45.2479,-148.9389,-85.6209,100.0415
-45.1378,-106.1879,-42.6694,-203.0080,-199.5630,-105.1703,-1.2628,110.7085,63.9866,183.4784,-8.6064,-50.4436,-185.2361,20.1150,-132.4785,-13.3625,-58.5186,-73.1122,45.3101
-11.0459,-5.9035,-7.8708,-34.4859,-159.4113,-53.8794,-31.9874,53.4440,237.2490,34.4686,12.1484,-37.3591,-136.8796,-47.2753,-99.6844,-50.3947,-10.6556,20.6187,-48.8871
28.0037,119.4634,5.7517,166.9470,-42.8842,44.1555,0.5502,30.0330,118.5149,8.9457,55.7778,39.1734,-31.7534,-60.6441,-10.2439,-72.8980,95.8381,174.3072,-88.9202
105.4964,234.2811,94.1056,353.1028,171.3886,160.6245,134.8700,40.5470,-103.0849,77.1972,131.1000,189.3223,123.9578,27.3854,93.7685,-33.1631,265.4821,263.0409,-27.0651
160.4956,276.2642,194.5957,387.1240,332.5565,191.6578,235.0198,27.0955,-217.7306,57.9351,172.5854,245.3350,218.8697,82.1960,120.6175,28.3122,297.5471,168.6808,5.0261
137.8901,176.5254,191.6714,209.2115,300.7729,84.7912,171.2975,-15.6741,-272.5371,-43.8375,157.7834,121.9509,179.6366,11.5995,53.9034,-6.6642,131.1167,-44.7249,-31.7575
61.9938,13.4604,107.3514,-0.2186,151.0469,-49.0992,66.5722,5.3707,-235.1317,-16.5199,116.9591,-26.7843,89.6521,-62.5947,7.1195,-71.6244,-64.2378,-169.8071,-26.5470
-31.0254,-47.7691,24.6874,-60.8785,25.2441,-91.5162,53.2460,105.6722,10.1861,147.3619,59.5689,-58.2591,36.5551,-37.7764,35.2764,-26.8175,-181.6296,-137.0328,15.8064
-104.4094,-6.2812,-35.9426,-30.0677,-48.2950,-65.1946,45.4493,172.7326,252.4007,236.5291,-10.6738,-22.8617,1.2313,10.5546,46.0297,51.2037,-218.8676,-75.6530,25.2664
-116.7112,-2.9677,-81.2014,-35.5105,-94.0952,-42.6159,-3.0422,164.2839,214.8638,210.5926,-65.7759,-23.1245,-43.1354,5.0468,-1.1711,37.3075,-186.2046,-68.6254,46.0457
-100.4537,-83.6526,-118.9808,-85.0354,-134.0662,-48.1546,-0.7159,139.0687,112.4075,181.8698,-100.3327,-80.4371,-78.9580,-34.3632,-15.9454,-16.1972,-169.8244,-74.5398,92.7343
-131.5885,-161.3127,-169.9243,-131.0822,-202.5678,-72.9522,28.7694,107.8894,263.5019,168.3048,-140.6905,-141.9225,-99.1565,-68.2875,32.3177,-34.8158,-234.1478,-70.0858,88.7514
-196.6605,-164.2511,-224.3791,-153.2210,-286.9971,-95.0593,-5.5498,63.6285,447.7754,170.5941,-184.9303,-138.5841,-117.0663,-63.0180,55.9504,-27.7962,-293.7068,-75.8877,34.1355
-220.9912,-116.8100,-246.2473,-158.5233,-326.5013,-113.0446,-57.2780,38.5073,292.6753,225.2275,-205.7212,-90.2835,-146.7928,-29.9251,3.9478,-11.5030,-299.0430,-103.1680,-37.7535
-194.0764,-90.1887,-239.7093,-169.2137,-314.9030,-159.6364,-75.3395,-2.7583,-52.1297,256.3162,-212.0282,-98.1614,-199.1825,-56.4178,-83.5648,-28.0144,-307.9889,-158.6583,-149.2422
-163.7631,-111.3913,-240.9203,-181.8216,-293.6077,-228.3607,-101.5337,-116.8975,-163.3257,159.1662,-237.9536,-165.7410,-264.0692,-153.7080,-143.5847,-105.7314,-300.3383,-212.5944,-246.5297
-159.9502,-138.6077,-261.5407,-164.8300,-278.2039,-254.2362,-133.2597,-209.8571,5.4139,12.7338,-275.6347,-185.8368,-311.2650,-194.3244,-142.0613,-153.0619,-244.4770,-202.0155,-236.9453
-171.8913,-119.4490,-276.3242,-122.1628,-273.5110,-210.5312,-149.6005,-163.4795,153.3605,2.8101,-279.2965,-131.6204,-314.7594,-130.9267,-114.8975,-98.4281,-220.3223,-149.4023,-171.7651
-161.4329,-54.0469,-249.4299,-84.8994,-274.9277,-148.3179,-180.0641,-52.1493,139.9449,162.2130,-234.6801,-70.0432,-262.2315,-62.5379,-126.7088,-23.9982,-227.4671,-147.1446,-129.6806
-101.4589,-2.3255,-187.0966,-54.4640,-251.4732,-125.6696,-200.3016,-10.0570,32.8064,276.6215,-173.4164,-29.2989,-182.5825,-30.7212,-157.8927,5.1186,-166.0400,-186.6850,-86.6327
-24.5878,-4.4553,-143.4825,-23.9631,-214.4992,-136.2221,-181.7247,-29.1671,-171.7523,154.3712,-124.8571,-2.0476,-146.9012,3.8397,-152.7813,23.7569,-86.0164,-180.6453,-62.5887
-6.1468,-3.7756,-134.5178,-2.2427,-215.6386,-119.5687,-196.6650,-33.4096,-362.0930,-36.9012,-100.9360,14.4915,-165.9522,27.0865,-141.5708,32.4274,-99.3742,-130.1068,-109.3168
-60.7735,55.7066,-116.5910,14.3988,-229.7192,-58.5099,-246.1338,-1.2621,-232.9260,-21.5875,-98.8212,34.3291,-157.8783,15.9552,-155.6501,12.4345,-138.5030,-91.2603,-146.0898
-89.6070,103.4532,-74.0363,30.9958,-193.1132,-14.1679,-222.7093,40.4511,74.9368,92.3355,-80.8063,44.8993,-103.5197,-2.7915,-151.0174,-6.8916,-94.5626,-52.9646,-95.9031
-22.3799,66.1073,-30.1243,34.2370,-143.6328,-8.0639,-155.7872,56.4791,108.0452,91.7319,-20.1075,16.2686,-93.9144,-22.1820,-133.5518,-23.6505,-5.5439,14.2695,-29.1676
41.8034,8.5070,5.4649,31.2544,-143.4896,23.8764,-142.3804,58.9252,163.3692,129.1764,27.9654,-8.7479,-137.7406,-30.9853,-143.8909,-34.5710,48.5477,94.9499,10.9936
6.4547,5.8202,25.8121,52.7635,-131.3978,106.4810,-112.0917,100.9990,669.7273,295.7650,14.6535,25.5737,-117.5568,18.9921,-115.4152,20.4373,59.4182,178.5047,53.7710
-22.7095,39.5869,36.2862,90.2196,-21.0920,181.6674,-18.6733,145.4238,744.6136,272.0429,5.6086,71.4639,-17.2870,86.9688,-17.9838,97.1959,65.2091,243.8930,39.2144
46.7373,81.1020,67.4578,87.0682,130.7394,186.6282,-14.5906,72.3430,-380.4902,-35.0414,45.1849,62.9052,26.4055,58.7133,3.2486,51.2480,83.3707,212.1567,-86.1827
80.8539,101.2173,85.5630,20.8061,189.2213,94.3766,-155.5197,-98.1587,-1407.5139,-235.9855,36.9633,17.2336,-37.4349,-43.4307,-102.5908,-75.4110,64.4061,67.3831,-208.8810
-14.7758,65.1667,13.2204,-41.5067,126.0347,-40.0648,-262.3097,-192.9842,-995.6598,-174.0413,-65.9679,-24.6624,-102.2850,-92.8113,-163.4684,-101.9492,-22.9283,-55.9649,-217.9594
-106.0753,26.5710,-98.3284,-30.3726,34.4607,-94.7457,-236.1340,-153.4853,-91.6345,-112.5429,-144.6740,-41.8759,-111.1040,-79.4613,-122.7675,-43.7622,-102.5331,-65.5010,-163.1347
-107.1432,43.4284,-135.7511,5.2118,-28.8090,-63.9521,-193.2303,-91.9873,36.9844,-149.6802,-139.2583,-30.1561,-126.6688,-76.1004,-137.5414,-41.4195,-126.0171,-51.4581,-123.1277
-103.6064,34.3472,-137.2357,-19.7718,-95.4196,-69.3764,-217.4821,-74.1757,-171.0461,-144.4118,-146.7482,-25.2504,-167.1848,-77.5382,-230.6254,-73.3360,-158.4747,-92.6926,-106.6198
-127.7849,-53.1544,-188.4588,-67.4257,-158.3478,-111.4371,-230.0837,-70.5178,-90.0782,-95.7260,-204.2576,-51.9663,-161.7501,-50.8276,-231.4246,-51.9315,-218.0040,-120.0821,-112.8110
-135.9932,-125.1342,-242.4453,-70.8604,-158.2069,-91.6831,-162.1128,-88.9190,1.4016,-105.7205,-235.1037,-74.8206,-93.8340,-25.7007,-101.1222,-19.0734,-247.1461,-88.3429,-140.5793
-148.4363,-153.7733,-256.4861,-83.3169,-123.7405,-52.5030,-85.0200,-145.7969,14.6971,-142.5183,-230.8034,-84.0770,-34.5594,-29.2353,8.5145,-30.3169,-251.9174,-57.0798,-156.9315
-182.8803,-197.3268,-285.1246,-142.0013,-130.7448,-67.9211,-74.8884,-170.4592,166.5874,-99.5168,-252.3745,-109.6105,-24.9468,-36.4747,13.3011,-41.3258,-252.5072,-40.6216,-138.9734
-199.1894,-211.0515,-323.2952,-164.1459,-143.1640,-65.0975,-79.7102,-119.6677,256.0567,7.9657,-291.0704,-124.4849,-42.5316,-29.2028,-17.2541,-23.4167,-215.4381,0.9725,-111.4181
-193.1838,-165.7765,-305.4034,-131.3743,-97.5151,-12.1808,-47.9213,-83.4055,138.3376,28.3278,-297.9458,-104.2621,-66.8944,-28.5405,-17.3129,-24.5709,-160.1065,44.3515,-103.2606
-182.1557,-151.3394,-248.3591,-126.4074,-39.1194,7.7113,-33.0015,-120.7608,50.0565,-98.3236,-273.2244,-101.7660,-88.0807,-52.2453,-15.4844,-64.1492,-132.0710,61.1458,-101.8522
-152.9371,-144.0574,-197.9463,-132.4897,-4.7947,10.9331,-56.0236,-148.7207,-2.7904,-222.0721,-238.5236,-120.2863,-87.8366,-83.5275,-47.3292,-92.7854,-91.2118,86.2590,-87.0413
-127.1347,-44.3219,-149.7802,-84.7289,51.9111,61.4268,-59.3414,-119.6172,-146.6655,-233.6515,-203.6898,-93.4081,-70.6046,-96.2051,-75.5291,-85.3096,-20.4493,116.8690,-68.7624
-141.4665,33.8449,-117.5681,-52.3263,126.9954,92.1121,-34.1067,-87.0677,-168.8106,-192.7471,-178.9554,-44.6042,-61.5992,-79.3051,-59.6469,-68.1672,3.5432,109.2134,-37.6874
-162.2404,-38.2116,-124.2313,-100.0935,154.7062,62.5747,-9.3116,-34.6082,17.7031,-109.0720,-168.5695,-41.7049,-60.4613,-30.5889,-38.1887,-38.5580,-40.2393,86.6994,32.2443
-155.7852,-104.6698,-138.8019,-141.1288,125.7103,48.0537,2.3972,69.2100,87.5296,15.6922,-168.7662,-52.9804,-59.8288,21.2448,-63.5265,12.9803,-86.7457,69.8885,73.0427
-148.0364,-34.0998,-130.2401,-120.1499,71.6480,25.5837,-38.5140,89.1585,-15.0024,21.2514,-166.1621,-42.2882,-77.2608,5.0896,-111.3323,8.1085,-98.5373,-6.0099,-10.5417
-135.2385,22.5291,-93.5085,-106.4806,14.8020,-89.3658,-113.4702,-54.7592,77.0046,-82.9835,-123.6689,-51.3890,-102.9535,-86.7554,-121.2103,-99.6706,-76.0583,-137.9703,-129.7049
-82.8576,-25.5234,-17.8404,-110.0263,-17.3807,-199.7335,-107.2249,-155.2345,330.6072,-20.3528,-29.8606,-74.4566,-87.5157,-137.8493,-83.8353,-170.6482,-44.7643,-184.4338,-131.7610
-24.9260,-17.0895,59.1804,-51.6261,-31.8909,-155.4008,-45.5256,-64.4769,193.8885,144.9760,51.4340,-39.7324,-35.9733,-77.1547,-46.2282,-90.1830,-51.0555,-72.9273,-96.4151
-20.1069,141.1360,70.9656,69.3307,-67.5161,-8.6978,-86.6183,26.2737,-374.1125,24.2143,72.7108,56.2219,-14.2970,-1.1807,-44.5485,7.5410,-72.1673,90.7742,-182.7323
-38.1675,300.7029,58.5410,169.7304,-96.3586,96.9407,-186.3551,-39.3999,-633.9696,-271.6190,81.3996,137.3800,-32.9436,-5.1894,-53.3096,-18.1691,-30.1564,180.5114,-299.4840
-3.6984,297.5081,103.7810,208.3887,-60.2308,129.4256,-179.8413,-116.4634,-286.7915,-244.7661,115.9008,148.5990,-35.1544,-38.5337,-27.3645,-77.5296,64.8275,189.3929,-264.9970
74.4854,172.0327,158.0028,216.6336,24.2257,146.9458,-104.6261,-72.1717,35.4375,69.5864,135.5996,121.8973,1.6603,-14.3784,27.0123,-54.6041,140.6775,200.2782,-123.1442
109.5622,111.1558,146.7052,245.9182,118.8752,204.4610,-54.5405,20.8025,-7.8781,205.6036,122.3438,144.8257,54.8235,68.8644,76.5033,22.6499,178.9826,262.9286,-32.1312
77.4289,183.7826,123.4133,291.7106,200.6482,282.2168,8.3521,77.4792,20.4466,77.4136,119.1951,214.9295,112.7046,142.8841,117.4044,99.9957,180.7003,307.2633,-13.5225
49.3678,230.6223,145.9109,269.4676,213.2630,283.1310,71.4949,90.5343,249.8198,-28.2765,137.6114,213.2384,167.4166,146.2967,157.1400,146.4957,143.6957,245.4098,23.3404
50.4046,134.8826,165.5526,147.2253,155.8904,187.5612,77.5983,82.7229,291.0113,34.2255,138.0012,125.2737,199.7506,113.6350,190.1655,140.5444,111.8549,140.6967,115.0453
27.0661,32.5520,135.3131,48.1006,129.4898,124.5422,90.6073,112.3378,142.8375,184.5950,98.5173,92.2967,205.5885,137.7332,206.9195,133.6776,113.9317,116.0999,180.6968
-15.2214,63.1653,74.7845,77.2975,150.4175,160.7893,135.1043,187.7188,85.8736,266.1833,39.2007,147.7436,190.0289,197.9094,189.1002,168.2922,109.0893,135.7817,138.9073
-18.7942,130.9069,18.6132,140.3617,119.3928,176.7892,116.8012,198.9487,30.3859,156.5414,-0.8290,167.5892,144.6622,183.2369,133.4099,162.9838,67.5617,75.1175,43.7988
3.4014,105.6435,-2.7290,100.3151,27.1054,73.3202,39.2458,86.8177,-185.9379,-84.1834,1.7566,109.7339,74.6798,97.6215,74.4925,71.4582,4.7406,-59.1818,-27.6888
16.3619,42.7564,19.5644,5.4058,-51.8209,-72.0612,-36.3811,-60.3116,-414.4656,-244.9229,29.7238,47.7220,21.6504,29.0915,25.6111,-16.2793,-45.9919,-150.6538,-127.2862
40.7595,55.4504,55.7246,0.1571,-93.5236,-130.2535,-131.3930,-163.0923,-457.4055,-225.5058,59.1956,31.0568,27.1441,-10.7502,-22.3810,-51.9502,-20.5926,-130.6813,-264.6605
79.3525,127.5193,91.9120,93.0623,-70.8303,-69.3617,-193.0812,-212.8910,-294.9939,-133.1267,91.3792,65.5041,84.6091,-27.4541,-19.7000,-62.6901,104.2161,-24.8657,-290.2251
103.6588,142.1630,136.4962,144.3133,39.8503,38.6291,-123.6824,-191.8927,-103.6461,-97.8258,113.5913,102.5436,139.4258,7.7198,61.6934,-28.3119,221.5123,78.2396,-160.4412
116.6000,37.9603,152.3555,68.5104,145.2946,99.1339,-16.5591,-103.2995,-48.4274,-105.9054,97.6648,57.1614,152.2037,56.2146,121.8463,45.4329,223.2687,108.2029,-24.7679
108.7200,-102.4029,102.5780,-45.4638,166.5263,97.0940,18.3267,-7.0384,31.1912,-66.3906,56.5863,-33.1862,146.9633,67.7735,97.0393,82.6310,146.1956,93.3273,51.7850
55.5172,-152.3124,37.1783,-77.2127,172.8774,87.7325,56.6443,48.5021,246.3318,13.9588,24.7400,-36.6006,149.6870,86.2174,70.8638,82.9510,75.7570,81.8839,108.6141
6.3188,-106.3781,13.7261,-51.1792,194.2585,81.4980,108.7179,44.8710,261.9441,47.6148,9.9890,30.2591,127.1897,124.0240,83.1290,94.9002,37.4939,46.2473,99.4750
19.8432,-49.9250,6.8549,-38.7841,149.1603,55.4782,67.2042,-17.5911,31.9950,18.1413,18.3440,55.1241,67.5837,115.7934,76.3523,87.9043,36.9557,-16.4820,1.4227
60.6917,-19.6065,-14.8923,-11.4896,55.5928,36.9030,-12.2073,-101.1487,49.5759,-66.8055,50.2544,49.6718,40.5287,70.6651,67.5736,40.6717,67.6013,-52.7456,-78.7469
83.6321,-23.5491,-28.1256,25.2153,19.0136,19.8403,-1.9998,-180.2286,278.6204,-237.6808,69.9904,43.0869,88.3906,36.5134,110.3174,-4.3885,81.8145,-97.9046,-86.3058
93.5059,-83.9514,-13.9714,-33.1842,38.4752,-63.3818,57.1126,-250.0893,223.1305,-370.0184,71.4173,-19.7468,155.7074,-7.0122,167.1769,-34.3350,55.5765,-193.7655,-60.5116
92.1327,-131.7460,23.7416,-133.4739,66.1806,-153.2377,94.3174,-246.1386,56.2628,-240.6234,109.6028,-85.0485,185.7188,-37.5986,199.3098,-32.9402,43.2282,-210.4657,-15.7296
104.4327,-48.3629,93.4386,-76.3460,119.9656,-108.1093,121.2447,-145.3854,161.3686,41.2619,195.2979,-26.2751,187.9875,2.0701,215.4329,25.0987,110.2389,-79.8792,12.7372
175.3321,96.5518,190.7206,87.9574,197.0905,0.9487,126.6187,-89.2258,269.1756,129.7286,269.6309,81.2551,190.9705,40.7576,195.7605,58.1612,244.9232,4.2263,-12.3005
261.1926,115.1838,269.2283,119.8601,243.9210,1.4906,97.5786,-142.7847,173.4615,26.2082,296.5235,82.7356,192.5083,9.1189,136.7050,7.4800,360.0336,-55.1545,-13.5532
279.1087,44.4724,285.5886,59.5565,236.0592,-34.6640,47.2380,-139.6918,108.3092,-4.6852,275.5139,37.6469,158.9339,-1.6867,76.7393,-8.5742,382.7674,-64.5615,45.8022
249.1483,85.6171,255.6326,127.0052,190.4782,43.3839,-32.4485,-14.4907,94.1493,29.5726,230.7480,73.7421,87.9765,46.8238,18.6615,59.6009,340.2369,55.3938,64.7888
237.1319,215.6926,241.6963,263.6074,165.1515,144.5887,-63.9731,61.5960,67.2436,-22.4151,230.1478,140.3275,59.9746,53.7355,-11.6323,82.1877,320.5345,132.9138,66.8046
248.7858,223.7686,268.6014,257.1415,225.4617,134.7205,70.0746,29.8466,118.6565,-98.5359,287.3300,127.7695,120.8000,14.2715,54.3104,46.2746,342.6815,108.7850,171.2224
255.2706,86.6872,276.0326,125.2216,313.0550,79.4965,239.0750,5.6951,40.3824,-132.8038,299.7881,43.8659,169.9581,5.8930,151.3038,48.9465,326.1298,85.9802,246.6839
220.4532,-19.0367,214.2441,27.3161,289.3995,64.8391,218.6449,-8.9752,-276.2502,-185.9596,224.6113,-24.0367,128.0759,3.2147,150.6694,37.8541,220.3645,79.6255,110.7391
135.2561,-7.8270,138.8767,21.9227,168.4275,63.5993,104.3719,-75.7499,-328.6028,-191.2890,159.0555,-15.0968,80.1051,-26.3038,109.4957,-35.7863,93.4388,47.4711,-60.7253
63.2069,49.2512,109.3779,60.4777,82.5868,41.5045,99.9676,-128.5492,10.7090,-75.3809,146.4738,30.1062,84.9032,-44.2172,118.6157,-63.0747,25.3259,-3.2090,-39.0868
46.9168,70.6679,84.9232,60.1457,47.4326,-5.3657,130.0791,-109.8437,142.1988,-4.9600,123.7180,20.8268,66.8448,-57.5634,92.9385,-28.9918,-2.5495,-59.2570,58.6858
42.4464,50.6003,41.5677,15.4452,4.9186,-43.2485,84.8225,-67.5647,-18.9044,-52.2439,88.4561,-17.3980,16.4260,-71.7293,7.6384,-29.1643,-19.5107,-70.9356,70.3629
45.2742,40.8375,48.5453,35.9583,-18.0795,-2.2279,61.4744,-24.5143,13.9728,-27.0647,96.4674,14.7517,20.0650,-30.1593,-7.8219,-25.2422,10.6180,10.6344,63.4812
97.9461,61.8231,115.1549,126.7323,5.5935,83.5556,93.7257,24.0689,192.4795,63.4399,132.5268,76.1579,56.7479,36.2943,32.1263,37.5682,75.5131,84.7820,98.8412
144.7830,59.5016,138.4915,132.0969,24.9306,97.2245,70.8246,62.1400,154.6735,17.7593,136.3499,63.3923,32.9269,48.9459,-5.2911,84.0696,86.1805,57.7858,128.8278
105.8278,10.3254,78.9422,35.7371,15.9923,64.6674,1.7885,115.2855,-20.8651,-57.0862,87.4109,16.6638,-42.0003,49.9949,-75.0412,91.9348,28.4342,29.0899,152.4210
20.0192,-34.9681,6.2785,-40.9781,-1.2580,58.2537,-17.8541,175.4379,-101.4378,29.3081,10.7162,-15.6045,-107.7133,48.8570,-64.5041,83.2292,-43.2833,25.4834,174.9950
-59.2865,-70.6293,-46.9811,-124.8346,-39.2181,-13.0880,-19.6134,136.2597,-64.8306,74.3887,-53.7346,-101.5681,-147.4997,-51.5089,-25.3411,-7.2677,-132.1981,-89.2833,141.2134
-137.2247,-124.5398,-105.2850,-243.3648,-95.1140,-165.3218,-64.6494,13.1538,19.8683,-89.5208,-97.2144,-204.5057,-142.6977,-171.0994,-29.1608,-132.0838,-229.0723,-238.7924,58.4784
-179.6876,-138.9820,-151.3238,-234.6743,-117.6019,-203.5777,-94.9403,-24.9704,58.3992,-203.3933,-136.3442,-171.4632,-85.5985,-123.4325,-29.8006,-114.3242,-254.2966,-208.2832,2.3024
-156.5272,-75.2005,-155.4737,-93.0471,-112.7070,-105.7051,-62.0166,25.4298,19.8399,-111.8115,-155.6644,-53.7942,-38.3998,-4.5322,-4.5465,-2.7808,-217.7467,-101.0517,-14.0305
-143.2013,-30.1896,-158.1878,-66.1417,-157.1030,-85.9755,-38.1225,20.0537,-20.9239,-16.9471,-159.8783,-46.8197,-65.2852,-22.8052,-16.6260,6.0449,-229.3586,-140.5612,-20.4950
-203.8867,-61.2625,-212.5004,-188.9884,-261.3517,-175.3265,-83.0397,-23.2976,-28.1905,-0.2495,-216.4738,-130.7483,-147.1621,-109.0479,-87.0520,-61.3912,-293.1986,-243.5770,-25.0910
-270.7850,-88.8104,-282.4765,-253.2366,-337.9279,-229.7137,-137.2792,-24.9719,2.6281,25.0808,-302.2908,-154.8791,-204.6845,-121.8205,-144.3349,-90.1466,-310.2666,-268.7533,-46.7392
-241.5367,-84.5257,-283.8541,-224.5461,-322.4329,-245.8912,-135.5645,-56.9073,24.8211,-0.9193,-289.4948,-136.8694,-177.3773,-116.7026,-134.6763,-109.7062,-252.6264,-280.8046,-95.6469
-117.7530,-111.5792,-210.5519,-194.1229,-244.2077,-260.5581,-108.8907,-135.7287,-107.3497,-93.4207,-191.3568,-155.6543,-100.4284,-137.6039,-106.6898,-127.2502,-169.0380,-285.4734,-121.0610
-6.4279,-154.5342,-139.3734,-131.9933,-169.6986,-201.7613,-97.5598,-122.9210,-275.8221,-84.3072,-140.3841,-159.5153,-70.3777,-115.8610,-116.2202,-92.4792,-99.5744,-178.0385,-80.3075
14.8853,-141.4338,-108.3179,-29.2120,-128.2344,-78.5926,-85.1567,-7.9789,-162.1879,23.8419,-130.9734,-105.1082,-95.7542,-63.1277,-119.4670,-56.8332,-57.3042,-21.8363,-8.8532
0.4255,-93.3142,-90.4183,23.2167,-109.9742,-8.8725,-71.8147,72.8874,46.3307,64.9566,-97.0304,-64.5949,-92.9311,-46.3255,-83.5048,-57.1056,-32.5906,32.5090,40.8633
15.0606,-84.4437,-84.5510,12.8364,-102.4754,-13.8081,-79.8861,105.7824,-6.3316,73.8157,-88.1304,-80.1174,-46.7164,-45.1696,-74.2400,-33.2269,-25.7807,4.7356,59.7569
7.6578,-114.7757,-103.6602,-9.3676,-94.6198,-28.3256,-87.9114,150.1254,-45.7305,151.1822,-116.3946,-101.1185,-15.7734,-34.2740,-99.3715,-14.0867,-50.7084,-1.9547,51.2194
-45.0273,-120.5208,-102.7887,-35.1471,-68.9571,-24.8655,-80.4887,148.8978,126.2360,194.2336,-99.5738,-97.4501,-9.3365,-50.9689,-72.5418,-74.5035,-65.8244,19.5921,8.4281
-55.3478,-84.8571,-61.1858,-45.4784,-35.4375,-12.7127,-86.0357,47.8745,82.2061,115.2274,-65.2147,-96.1723,-7.6186,-97.6682,-12.5755,-140.8365,-34.6325,12.3101,-56.3419
-21.1676,-70.5228,-55.5784,-25.1915,-41.0901,-18.3307,-91.6061,-62.8666,-205.6910,12.9389,-103.0826,-104.5678,-25.9017,-115.9556,-12.5054,-121.9135,-46.2681,-39.1420,-106.7140
-45.9160,-107.0414,-123.4135,-15.9888,-97.7463,-46.9228,-56.3253,-76.6633,-249.2418,-10.3666,-173.1917,-91.5075,-69.9284,-74.6528,-40.6102,-63.2918,-165.3094,-81.9403,-120.2210
-114.7908,-136.1645,-190.2893,-35.1115,-150.3972,-58.3295,-3.4738,-12.3611,-89.4038,46.7726,-209.5617,-64.4397,-120.8060,-22.8313,-33.5904,-28.1133,-272.8923,-94.4960,-99.3566
-134.2432,-146.7917,-218.3602,-79.2204,-167.2529,-77.1095,32.1979,26.2025,-25.6996,104.1284,-235.0915,-88.2102,-167.5296,-36.5256,-42.1227,-30.0577,-279.8921,-151.2379,-54.3468
-130.9217,-201.2316,-255.2684,-177.5547,-193.7451,-177.8204,49.4171,-6.8705,22.2836,62.0976,-260.8545,-171.4678,-190.7411,-97.0454,-93.4955,-59.8419,-279.2398,-256.4983,-14.3348
-162.1022,-257.5713,-304.0052,-268.8135,-256.9973,-276.6055,18.0719,-23.6040,44.3256,-16.3691,-271.4496,-220.1582,-177.3391,-101.9077,-119.8112,-53.1827,-317.4206,-262.8626,-16.2642
-172.3946,-208.2494,-301.9987,-226.1037,-290.8584,-219.4493,-61.3138,51.1241,-56.5866,14.0549,-267.6851,-181.0641,-155.8610,-44.2136,-106.8443,16.3782,-296.0085,-129.8893,-41.8305
-113.1577,-102.9294,-219.5229,-110.6865,-234.6895,-75.1748,-100.4098,112.8054,-78.5747,47.7451,-210.8989,-118.5384,-144.4507,-23.1856,-117.6945,39.8264,-188.2154,-14.3498,-41.1494
-41.6380,-61.9643,-89.6079,-89.2303,-136.6330,-10.4711,-85.3306,49.4655,-29.6894,-70.8847,-85.3244,-87.9125,-126.0626,-52.6733,-171.5732,-33.7205,-93.5376,18.1283,-29.3761
-14.7992,-62.1552,18.5044,-125.5878,-73.1490,1.1720,-106.2142,-32.5469,-111.0808,-131.6745,7.9479,-69.7878,-105.7178,-58.4213,-216.1246,-78.6270,-65.0323,58.3651,-46.9330
-15.0507,-32.1515,50.0222,-81.4595,-40.9052,57.8112,-150.1925,-3.6707,-97.1583,33.4692,6.9236,-41.8162,-91.6288,-28.1718,-193.4599,-29.8804,-58.2483,121.3076,-68.0868
-11.1075,17.9193,29.4607,22.0009,-12.3990,127.4407,-140.8791,51.3138,77.8149,103.5279,-11.2315,3.2442,-60.0003,3.2791,-119.6677,11.3111,-33.1199,141.5042,-70.3194
-10.9971,67.3457,17.7274,84.0774,-6.7290,145.2418,-130.6614,33.9983,-8.6220,-100.4238,-5.0105,56.0878,-26.6112,21.3501,-85.0584,-9.7498,-18.2176,115.1796,-82.3878
-27.9514,93.2904,15.1567,77.8663,-25.3950,112.8431,-171.4638,31.1725,-254.0704,-169.6105,-17.1791,64.6015,-43.5269,16.5462,-119.4849,-20.5951,-52.8721,74.3426,-80.5579
-38.5666,57.6965,2.0717,29.8406,-24.4828,66.6790,-173.4830,114.2910,-188.5156,99.4965,-35.4040,22.0024,-88.6285,13.5908,-145.6956,27.1625,-93.5707,46.1404,-13.9870
-22.2021,9.5173,4.9725,-3.1766,-1.2999,55.8829,-97.9824,187.7644,40.1319,285.2976,-17.2661,16.9368,-94.9277,55.2351,-122.8438,81.4939,-63.3454,52.2506,56.9084
4.0256,29.7786,33.3630,29.5029,13.2735,78.2429,-30.9879,163.7434,201.4318,164.2685,18.1740,71.2635,-57.8085,93.2501,-90.6564,73.1229,22.9255,54.4582,51.3538
38.4092,77.5928,53.9256,96.5532,39.2408,60.9740,7.9373,78.7493,345.0429,44.1848,41.1806,92.0470,-12.5004,54.2262,-76.6281,17.1942,95.4082,7.4137,17.9049
92.6376,91.7109,64.5221,130.1581,86.3764,6.5930,54.5526,-4.5181,182.8311,49.6139,49.6629,59.8985,7.6600,-13.4464,-91.6766,-15.1119,131.3465,-34.2844,17.2037
121.4739,104.6569,88.6837,120.8593,84.6806,12.5122,58.7173,-54.7074,-251.8984,-8.5663,49.3875,43.7027,-30.2840,-39.6265,-124.4847,-21.6501,138.0418,-3.7153,7.8983
95.3693,125.5528,118.4722,115.1819,13.0439,92.7035,-12.6189,-53.8689,-209.8749,-77.8501,59.8549,48.1892,-96.6021,-50.6128,-103.6266,-53.5329,144.0229,83.8886,-37.1000
87.3692,129.7622,136.6255,170.5621,-28.6139,181.8587,-70.2874,-24.0288,199.0819,-17.9411,79.4654,54.4226,-100.5506,-61.0147,-18.6940,-86.8360,199.1099,196.5295,-68.6480
131.6879,154.0116,140.9026,275.6931,21.3760,268.6698,-43.8130,-15.9317,77.6571,-8.4396,72.1597,93.5081,-30.8722,-33.5304,25.7538,-64.2115,268.9780,291.3302,-51.2304
142.1285,201.5008,131.0829,326.2429,106.9514,349.1679,22.3241,-16.1669,-324.7937,-111.5149,52.3599,157.5570,30.3569,28.0069,14.0313,-2.2796,257.3949,314.8156,2.7625
88.7687,205.3476,118.9040,294.0707,162.4560,388.2904,57.6963,48.8642,-216.5372,-18.0421,62.7385,203.9163,48.5815,102.2807,37.8850,65.3558,189.2794,310.1390,55.9169
47.1952,172.4507,112.6353,279.9967,146.4330,398.3394,43.7573,166.1518,153.4706,261.7720,62.8413,237.7908,50.3310,180.7008,71.5387,124.6012,162.6965,330.0971,69.7236
44.1290,140.1576,94.4291,276.8307,32.3120,374.4083,21.4097,201.9505,377.0044,281.0869,12.9998,243.8631,45.6338,209.7674,40.2843,127.4876,166.6353,263.0400,54.9201
59.6302,64.5172,69.6218,158.9031,-112.9892,232.8575,41.8948,89.5696,454.3060,-1.5034,-15.8478,164.5120,43.6606,149.2227,11.1045,56.6654,143.3874,28.7721,39.4418
95.0793,-59.4185,62.2978,-46.1605,-187.2327,-15.8548,68.2757,-71.0605,59.7540,-200.1537,16.1540,18.9446,54.0895,46.9116,28.3803,-25.6048,77.6764,-219.9935,-16.8997
99.5093,-163.8907,29.6996,-211.0594,-234.3969,-227.5024,6.0197,-183.4822,-612.3810,-261.8515,23.6369,-117.5473,36.7140,-47.6850,3.4868,-86.9611,-59.5743,-350.5856,-141.0282
9.6382,-239.6803,-77.5820,-323.5056,-357.1645,-340.6451,-123.0134,-260.1753,-515.5250,-324.5295,-40.2338,-205.5331,-39.0399,-112.8776,-56.2084,-131.3413,-235.0655,-412.0320,-243.1403
-94.2338,-270.3821,-183.8887,-365.9814,-485.3159,-390.2827,-184.9565,-288.2946,170.4914,-234.5383,-98.6925,-208.6060,-113.2126,-108.3457,-42.1940,-123.4943,-295.0298,-415.5228,-245.6735
-81.1784,-186.9811,-178.6931,-268.2565,-471.4387,-360.0917,-140.0117,-216.8578,149.6286,12.8946,-78.2089,-131.1706,-118.2585,-64.0961,3.1793,-81.2096,-185.3309,-316.7811,-195.5284
34.7932,-54.5484,-75.2346,-119.7468,-329.4063,-255.1763,-79.1123,-121.2468,-402.9457,54.0291,13.7690,-78.8010,-74.3303,-77.2389,-26.3814,-87.9419,-23.8386,-188.2191,-147.3391
153.8674,-12.3713,46.1859,-57.0923,-175.4756,-155.2897,-60.6029,-115.5112,-367.7429,-129.5797,128.2738,-85.1494,-23.3974,-110.8622,-66.2600,-107.3216,127.8893,-86.8101,-88.0948
225.8452,-17.3989,145.1589,-14.5853,-48.9610,-51.3147,-53.2847,-125.3379,28.8688,-144.8020,214.0257,-39.1469,42.1291,-41.1237,-18.4252,-34.2649,284.4026,65.6183,-7.2139
249.0069,25.0424,206.0887,74.8799,78.2117,129.5356,-6.2101,-27.6923,61.9348,22.2626,248.0288,66.8745,126.1439,87.8661,59.8933,80.2550,392.0515,262.5691,85.1208
252.4920,44.4751,225.9292,108.2452,212.7832,311.1122,102.8489,88.2168,5.7587,24.6914,249.8979,95.7131,190.4523,132.4598,93.4185,116.7916,413.7096,351.8153,166.8454
268.3252,-18.4757,221.3325,48.9964,311.3806,342.1609,222.8421,67.8951,160.4319,-158.5592,244.3293,26.1744,213.4648,85.4709,110.7255,82.5253,394.2504,279.1856,186.1235
265.4789,-89.1672,190.3957,-25.0794,309.9955,222.4836,245.9870,-43.2067,212.9490,-245.2977,225.0370,-41.8834,212.5778,31.5111,133.2094,44.7484,336.6590,138.2492,132.4649
198.8935,-121.6008,118.5980,-105.7160,204.9790,65.3326,161.2296,-91.8955,111.0418,-130.2896,170.4500,-80.6613,181.2667,6.4457,117.7156,35.5812,223.1037,11.9059,77.7998
107.0555,-129.0286,26.0145,-177.6588,68.5963,-51.0733,90.5006,-46.0246,104.4123,25.3633,82.9584,-107.9401,90.1600,0.5399,50.3270,54.9914,105.5351,-73.9618,47.0294
47.8817,-119.9021,-54.5768,-179.1431,-49.9863,-117.0155,80.2662,-6.7564,132.5394,11.7424,0.2529,-120.7345,-21.2597,-19.8031,-15.2252,42.2683,5.6309,-144.0072,-16.3910
13.5596,-148.0156,-109.5677,-190.5114,-142.1345,-189.0632,39.6752,-61.3640,23.7846,-171.3642,-40.4896,-156.7987,-54.3538,-80.1389,-24.4620,-47.3998,-103.3197,-253.1010,-95.5323
-2.9366,-238.7599,-122.1842,-306.2806,-164.7480,-312.0393,-45.0721,-173.1905,-151.2064,-285.3562,-33.9248,-242.1456,9.8263,-144.9769,20.7928,-127.0499,-155.5276,-362.4756,-108.4069
23.7495,-273.5345,-79.5978,-373.0246,-91.1034,-392.7873,-68.4890,-236.8185,-218.8801,-219.4713,6.6747,-295.7159,78.1505,-174.4976,72.6198,-125.2889,-66.2970,-336.7642,-76.6900
69.7826,-156.2394,-1.3899,-231.4456,17.2975,-303.4585,-1.4382,-222.4818,-110.7128,-133.9783,63.1003,-230.4837,88.5621,-175.1009,99.9600,-108.2978,95.3036,-153.2050,-67.9619
82.6560,26.6746,82.9421,-4.8401,115.9271,-95.3510,98.2214,-166.5618,57.7991,-105.6936,114.4273,-75.0216,96.5047,-128.1621,126.3765,-87.9850,206.8042,48.2602,-26.2278
87.0084,138.8469,155.6364,126.6365,239.2765,78.1842,212.8082,-72.5952,111.1150,-64.6701,156.3189,66.5218,169.9790,-15.8718,168.6154,10.4676,254.9424,158.8733,118.0086
136.9061,133.0846,203.0246,152.8869,376.4545,169.6693,316.1523,33.2495,46.5043,-50.0517,196.4877,115.1175,265.4482,83.3806,181.9837,120.7306,275.5871,188.8835,262.4237
192.1016,58.3883,220.0813,131.7014,435.4634,213.2373,332.3218,69.3308,-2.3149,-78.9260,222.5490,94.9053,285.2755,106.4596,144.0568,126.7538,263.7048,190.5877,264.7144
182.0108,26.3812,209.5905,120.4808,381.3820,226.9025,263.5498,43.3499,35.5264,-34.3197,220.1553,107.2884,231.4644,124.5158,116.2015,112.5181,215.7747,207.7408,159.6068
144.9817,81.1638,182.1988,165.5651,293.1760,229.2439,199.2066,43.5850,97.3717,38.8027,208.1649,180.0892,201.0916,194.8096,130.6620,185.3625,172.0287,241.5630,77.6602
152.4072,131.7415,169.7146,220.9415,258.4855,225.6227,179.0173,61.2376,53.3669,-3.6681,208.3034,233.3973,229.2339,249.6810,137.8284,248.9810,167.6550,236.0115,57.0312
163.9360,126.9607,185.0794,217.6778,269.7903,185.8539,193.5484,51.7532,-72.9743,-54.6160,211.6897,234.8995,258.8251,241.3096,131.2547,215.3441,177.8298,171.3110,68.5147
118.8404,135.9920,186.4330,199.9623,254.0163,124.7200,238.5641,78.9646,-95.5364,21.9468,199.3615,241.2447,264.2683,229.0081,145.4656,179.4937,160.0093,118.2605,112.8818
69.9761,178.7331,158.2098,225.3027,198.4921,109.8007,270.8895,182.6482,-49.1599,105.3104,168.5599,274.2343,265.9292,261.8175,130.4094,218.6759,131.2022,128.5831,187.4776
77.5473,195.9215,156.0996,253.9534,175.8055,149.3596,247.9923,279.9872,-94.5795,106.0370,147.9062,295.3607,250.7787,300.6698,51.0891,265.1439,134.5519,174.6659,253.3713
110.1563,185.6809,205.4169,258.2512,218.7868,194.8731,220.9585,317.3699,-52.5093,89.3016,183.9891,282.6982,216.5655,289.1710,10.5094,251.5129,168.9165,232.7179,287.4302
152.3367,190.3388,274.0611,276.7556,285.3978,232.2995,234.2848,313.0933,154.2659,50.9943,277.6830,253.4616,224.1784,235.6161,55.0403,203.6909,222.1674,301.7674,289.1011
222.8208,220.4778,347.2701,318.2471,350.2245,268.1601,218.9751,266.0490,54.1560,-1.3971,357.5823,239.8101,283.6006,190.9123,68.0053,168.0112,289.9161,354.4933,249.6925
259.7906,266.8494,387.2448,356.0140,393.8506,297.1768,128.7955,199.4895,-444.5002,24.3816,347.1631,254.0643,296.4746,171.5898,8.2099,148.2242,325.7388,379.1494,181.7132
202.5698,298.3592,319.4736,387.5182,367.1846,331.1863,42.4087,175.3145,-653.3153,75.0050,243.5958,271.6457,213.8567,161.7619,-30.0422,134.1426,289.9033,402.9327,124.9157
123.4963,282.0267,185.0357,404.0426,287.8719,366.1829,27.8929,176.6131,-346.2954,42.8240,130.0507,271.4037,124.0013,162.4432,-27.6472,135.2366,219.5307,409.7122,88.7707
83.5545,241.5912,114.1158,369.1301,238.2175,345.9167,56.0454,139.8779,-69.0774,14.1304,84.7652,254.3784,103.3533,161.0519,-24.8201,138.4621,152.6693,355.6319,60.7989
20.2431,204.0726,93.2836,281.4586,214.9056,251.5153,90.9823,88.0863,-3.4239,64.6833,64.0377,209.1190,109.7634,116.6706,6.3492,95.1548,82.9200,268.0599,57.4980
-78.0803,143.4425,13.1225,187.5705,156.6015,143.8354,127.2655,86.1674,86.1514,128.1759,-20.0952,130.0404,91.3498,44.9480,67.1057,20.6787,20.1850,178.8926,89.4596
-123.9034,54.0662,-94.7323,99.6382,80.0415,48.2488,138.0538,135.0726,131.8132,209.7195,-115.5180,44.2250,76.3069,7.9617,97.9919,-3.6428,-41.7131,36.8245,123.6527
-125.2132,-38.1473,-136.0237,-22.3712,17.4322,-78.7086,100.7144,183.2575,74.2105,313.6008,-121.4064,-35.1601,83.8940,0.2468,98.9719,16.0087,-151.4662,-153.3445,133.1849
-165.6827,-117.0684,-143.6123,-155.5796,-61.1278,-220.7876,48.6743,186.3675,133.7944,315.9753,-94.5374,-97.8538,65.0699,-12.4649,84.2779,10.6540,-273.3607,-253.0363,118.2775
-211.2788,-117.4003,-171.2029,-182.4277,-146.3408,-280.6787,13.3310,154.8625,241.9877,221.5830,-121.0490,-88.5703,2.7395,-0.3638,19.2074,14.5311,-293.7264,-205.4483,63.4194
-180.9700,13.8547,-174.3809,-72.4741,-170.6977,-236.1415,-34.8837,124.3495,111.2813,157.4504,-138.1833,-3.1419,-49.8898,37.0992,-64.6028,67.6523,-212.4051,-141.2350,-47.3516
-109.0983,151.3931,-121.8105,34.1217,-128.5239,-190.4854,-107.7788,65.3819,-125.0603,79.0697,-90.8190,51.3534,-78.4003,20.1811,-92.6051,70.0251,-127.8149,-152.5049,-170.0559
-54.4619,141.3296,-50.7285,40.7632,-77.7050,-208.8108,-135.9790,-49.9738,-136.1538,-53.0821,-40.8852,21.3121,-116.7397,-52.6529,-94.7307,-17.6693,-68.8136,-166.4680,-227.1592
-9.5900,51.9518,2.9702,19.0398,-55.2692,-218.0137,-79.8637,-127.3359,34.1504,-91.5701,-25.4772,-12.6897,-144.9595,-76.3870,-117.5969,-57.6314,-22.7419,-116.5614,-203.2070
5.4530,20.7046,9.5227,27.5299,-65.3435,-151.2752,-12.7097,-98.1381,128.8747,-31.7643,-32.4792,1.9211,-128.4214,-32.0899,-109.6208,-12.2945,-10.6845,-49.8389,-154.8805
-43.5104,29.8276,-41.0864,17.3448,-90.2326,-82.2307,4.9182,-60.2128,96.8051,-20.6059,-65.0362,14.9757,-109.9496,-17.2527,-45.9711,-17.2020,-18.3872,-25.0330,-111.3520
-94.2862,16.5892,-87.6284,-30.0102,-105.4065,-95.2131,12.8487,-77.2545,88.4530,1.8509,-86.1891,-11.3793,-128.7590,-61.9888,11.0944,-82.1676,-1.6459,-31.7009,-45.6863
-83.6902,-12.5401,-79.3415,-65.9155,-112.3345,-122.5077,32.7219,-67.4526,177.8532,118.6742,-65.0399,-41.9107,-145.6388,-77.2822,25.6806,-73.3042,19.9938,-19.3015,27.6806
-65.1699,-40.9683,-61.4133,-72.4043,-115.9288,-60.9165,22.2652,-1.0883,250.0134,178.1038,-65.2977,-24.9241,-131.2336,-2.0500,12.1119,18.9485,9.7905,33.5234,55.4928
-79.1037,-56.8080,-68.4121,-75.0102,-102.6613,33.0469,-1.7995,62.1587,226.4000,130.4901,-99.0140,27.3886,-108.6288,98.4121,-11.9973,93.3237,-15.1748,63.0311,71.5163
-79.6490,-62.6269,-65.3279,-105.3304,-96.1985,23.0825,18.4123,110.0177,194.9240,129.5072,-86.0842,29.3458,-101.0727,115.0741,-33.6398,109.3857,-51.5841,-8.9474,137.9222
-76.0796,-89.1687,-59.5844,-162.0108,-141.3949,-87.6991,42.8295,133.5693,172.8400,158.7241,-59.5427,-40.2583,-126.5792,46.1668,-62.1692,69.9511,-120.3997,-118.8438,177.7762
-111.5093,-95.0075,-84.7744,-165.3485,-197.8170,-165.0591,4.3518,93.7678,55.1101,86.3858,-90.4587,-61.3763,-171.4996,-1.8542,-98.1386,0.6936,-166.2513,-127.9165,97.2844
-109.8637,-0.4938,-80.5389,-59.2024,-173.5388,-147.0977,-46.2028,24.1161,-112.4682,-30.6475,-82.3797,23.6334,-160.1109,17.2745,-91.8210,-21.8217,-102.4258,-64.2369,-10.2926
-11.7007,112.6772,7.1160,52.5580,-68.2172,-105.3829,-41.6290,-20.2427,-133.4474,-72.9191,19.4690,85.8883,-74.5954,31.5710,-35.8610,18.7415,27.6597,-61.9111,-24.4584
53.4514,106.9138,91.3498,56.8528,27.0672,-97.2004,-18.6755,-50.5992,85.8221,-26.9655,76.4075,48.8443,-12.8764,-0.1007,3.3929,34.6438,88.5289,-86.5531,2.5565
-3.7058,43.0136,98.6863,12.9624,55.4197,-90.3537,-2.3415,-59.1428,409.9676,72.4060,54.0508,8.7864,-10.5373,-31.0267,19.3356,-8.4825,51.6141,-30.1550,1.4988
-50.3559,23.6519,99.5194,-8.4502,45.4520,-67.4680,46.2734,-33.4470,512.6521,127.2547,73.7490,0.2995,5.0431,-50.3688,46.0816,-58.1495,2.7124,20.9453,7.2081
-5.5390,-11.6609,129.0382,-49.3620,38.4338,-66.5414,83.9933,-42.3581,241.0050,53.6169,100.1001,-52.5059,27.2164,-90.8732,40.4530,-90.2694,-29.6278,-38.7444,10.9545
6.7380,-83.4166,93.0351,-93.7455,9.7898,-84.0929,12.8867,-97.8577,-54.8028,-49.6999,10.9084,-116.0264,-19.8771,-117.3017,-16.4487,-97.1455,-83.5061,-92.0853,-44.5827
-66.6702,-94.2198,-33.2452,-77.8430,-90.6422,-90.2301,-124.5923,-104.2371,-47.6628,-71.6618,-127.3414,-108.1553,-117.2516,-92.4703,-57.7710,-66.7686,-145.1894,-67.2980,-111.3612
-122.4313,-78.0839,-148.6560,-87.9777,-247.6459,-133.4165,-212.6162,-64.4471,9.3073,-63.5315,-205.9458,-109.4737,-213.8584,-90.1390,-90.0228,-54.2504,-193.0188,-119.8583,-111.8912
-150.4388,-146.8589,-221.8261,-211.8788,-403.5989,-251.1816,-261.2538,-55.3278,-111.2107,-35.8086,-268.0446,-200.4803,-321.8063,-154.2905,-164.6295,-103.6181,-271.9051,-275.9929,-85.7039
-229.9653,-224.2702,-308.9656,-316.5518,-524.3883,-340.7804,-313.8857,-39.8499,-128.2974,54.3669,-349.9440,-258.4660,-417.3601,-179.9500,-219.5358,-135.3531,-378.9879,-328.4574,-95.4286
-310.0058,-184.1164,-383.0733,-275.0835,-572.4205,-305.5460,-309.7903,10.9015,65.7293,90.8660,-384.6772,-182.9666,-436.9346,-108.3178,-209.4977,-89.3266,-421.1858,-238.9468,-125.0600
-286.8800,-86.2442,-361.0101,-176.6082,-513.2000,-210.3393,-235.0852,11.8420,163.7084,-3.3995,-337.1033,-86.6593,-392.6407,-50.1969,-216.3582,-42.6362,-375.5206,-172.3895,-151.9310
-200.0186,-29.1461,-260.6805,-116.0418,-393.2299,-145.7386,-191.3310,-45.0753,112.7310,-68.0230,-250.2778,-75.0687,-322.6824,-83.3534,-249.1275,-61.0252,-308.5669,-152.5506,-180.8745
-141.6415,-10.8581,-168.8497,-80.0318,-291.1308,-111.4942,-192.8082,-84.6764,107.6896,-25.7173,-173.9267,-104.0913,-225.1404,-145.4922,-208.4490,-112.6042,-245.3916,-118.3162,-200.8997
-112.4536,-37.2057,-115.1117,-92.7816,-214.7195,-107.6852,-157.3218,-125.3652,114.2105,-10.3707,-124.7080,-138.8539,-138.9174,-185.1402,-107.9468,-159.5957,-197.9568,-125.1303,-203.8930
-83.5930,-107.6636,-76.0756,-168.1982,-150.7948,-142.8109,-114.1947,-189.2489,67.9671,-57.4721,-79.1473,-186.5112,-116.4148,-206.8014,-53.8041,-180.9390,-204.4724,-176.4585,-204.4084
-66.9312,-132.8421,-44.9218,-207.5154,-120.0370,-166.6139,-147.1734,-213.4819,67.5043,-93.5037,-23.2025,-195.5053,-115.6510,-195.6435,-56.5743,-161.5222,-225.8685,-169.8442,-203.4222
-82.4015,-81.5157,-50.3355,-171.8635,-120.1586,-154.4944,-206.4876,-198.5782,111.7933,-126.4797,-8.2684,-142.4301,-92.1029,-153.6376,-59.9879,-129.5779,-197.6322,-123.4177,-185.9583
-128.0824,-60.7243,-117.4976,-152.8149,-129.7376,-147.2309,-206.1584,-186.6488,130.6367,-141.6425,-73.1441,-103.0909,-92.2748,-117.9571,-49.3185,-112.9765,-175.2156,-118.6196,-152.5009
-167.2168,-123.8196,-209.6453,-184.2011,-158.5562,-144.7485,-173.9801,-144.7345,134.8502,-80.1103,-153.7058,-118.9206,-135.1408,-98.8553,-40.3430,-107.1030,-213.3579,-132.7386,-124.7738
-159.0599,-205.9862,-252.6634,-236.7531,-207.0331,-141.4017,-167.4322,-96.4298,138.4232,-5.0793,-169.1700,-164.4732,-164.5408,-107.9690,-37.3316,-136.7599,-244.1324,-171.6420,-126.8956
-138.6154,-263.1075,-233.8686,-322.8029,-243.6269,-196.4185,-184.4848,-126.7247,245.7407,13.4765,-131.5327,-228.4158,-159.1179,-158.2064,-15.4561,-195.8197,-240.3444,-272.5089,-150.5416
-166.2486,-271.0914,-198.8293,-390.4488,-257.1460,-284.0441,-203.6457,-167.9371,515.6802,27.2900,-94.7003,-259.3329,-142.8270,-175.7400,33.3762,-182.7132,-263.4070,-327.0634,-160.7167
-192.1129,-193.7630,-169.1864,-338.2881,-263.1719,-282.6754,-218.4076,-125.9651,555.4370,36.3506,-71.4491,-190.3410,-134.9577,-109.8884,35.1028,-93.0361,-295.3652,-271.9625,-161.9605
-144.8311,-97.8053,-156.7990,-233.7483,-279.6914,-218.5990,-236.4604,-97.7298,83.1259,6.1077,-60.6308,-107.3855,-159.8215,-72.9562,-50.7633,-74.8024,-280.1870,-248.9270,-179.4070
-94.8581,-93.0065,-182.1414,-199.7875,-304.6650,-197.9161,-243.4290,-128.7645,-291.5659,25.1768,-79.8719,-127.5310,-197.8578,-128.7510,-95.5039,-136.2787,-248.9774,-264.2697,-170.1389
-114.2922,-119.9016,-204.7248,-163.3443,-274.4109,-143.9457,-180.2936,-90.6873,-21.5663,82.1023,-108.2362,-163.3611,-164.0421,-153.7059,4.7796,-133.0333,-213.5607,-140.1786,-101.1522
-114.3499,-64.1398,-158.0169,-50.3931,-128.3694,18.1613,-52.3650,-18.5605,302.1005,-20.7351,-78.3141,-111.4922,-48.3316,-108.6787,125.5392,-84.8023,-128.2853,51.9920,-61.2926
-31.4041,13.8637,-61.6216,24.9314,73.7680,142.9175,31.6562,-83.2632,50.1994,-229.9291,11.5174,-57.7514,61.6939,-103.4656,136.1525,-100.7659,-25.7034,106.3973,-98.7789
31.0294,27.9647,29.7927,18.8357,239.0787,164.0535,54.4879,-193.9302,-305.9774,-230.2813,79.7990,-50.8672,149.1827,-118.1824,122.4691,-110.5359,29.7768,123.2613,-90.7909
7.2344,26.8014,101.4393,31.6575,355.1749,219.9747,99.5614,-160.3156,-186.6228,-38.2298,94.9046,-18.4674,237.4048,-68.4636,177.8326,-50.9853,56.4092,234.2486,18.1282
-14.0791,24.5320,119.4517,43.6057,387.2559,294.7040,98.3008,-79.6067,120.8048,16.7320,93.4723,-3.2720,241.1803,-45.8279,207.4786,-43.5404,72.5753,257.0468,88.6695
30.7699,-31.0319,65.4515,-17.6147,280.5256,235.6965,-67.7007,-88.4330,180.7497,-90.6350,80.6058,-83.5412,112.9056,-117.8596,119.7866,-115.1880,70.9002,105.7834,68.9902
83.5923,-82.3165,23.1703,-65.4713,132.3968,118.9258,-253.2644,-71.0273,108.3970,-103.6428,50.8417,-147.6486,-3.5587,-148.5227,11.1615,-121.0339,93.7327,-0.5794,89.9956
75.3878,-61.4728,41.0309,-46.4880,77.7415,94.5749,-257.8295,44.9243,155.9421,7.4294,30.1159,-102.0309,-0.0523,-74.0096,9.7372,-49.4095,139.7876,3.8521,182.5455
21.1057,-41.0070,40.8363,-57.5032,68.7219,86.4019,-164.8110,126.1687,264.2540,83.1744,16.4371,-56.3903,28.9606,-16.1238,72.7152,-14.6167,133.7380,-24.4583,235.8055
6.1497,-51.6158,12.4073,-91.6910,37.8720,33.6052,-119.4390,124.8396,269.3678,106.9615,12.6302,-76.5533,2.1881,-30.9127,79.5916,-17.6366,114.5978,-51.8896,233.4896
76.2974,-15.6580,49.4398,-42.5135,54.5137,48.2036,-84.7181,116.4765,242.8266,126.2140,72.5423,-82.4248,-21.5587,-66.4402,36.2745,-25.4332,183.7063,13.5517,236.9297
153.2526,33.9225,129.0676,37.0951,128.5379,121.4517,-27.0696,84.2883,355.6340,86.5717,167.0847,-59.3848,2.3814,-103.7712,36.8486,-76.0611,268.2933,53.1740,237.9019
153.8786,-1.2736,149.3436,27.4375,169.1158,115.2539,14.4265,-1.1106,489.5916,-36.9715,184.9901,-66.9944,52.5080,-127.6830,90.2199,-133.4408,251.8847,-8.7962,221.2657
117.0352,-60.2446,126.6284,-41.1883,182.3266,55.6705,61.8207,-65.6314,405.6742,-158.3238,145.4495,-94.4357,112.6700,-113.8355,130.5406,-114.2122,192.1929,-45.5424,207.1261
91.1502,-35.9104,113.4019,-75.3287,217.2497,56.4945,122.1995,-81.0934,232.3980,-203.2022,143.9615,-92.2690,150.2234,-94.9798,132.5787,-63.3539,163.8461,-3.5018,190.6014
65.0108,41.8081,100.7013,-27.2091,238.9615,109.7780,145.9363,-81.8252,202.8473,-159.4649,154.4236,-35.5772,136.6936,-79.8146,114.6454,-45.1108,157.3953,53.9527,205.8988
81.5495,117.9078,120.5512,116.0671,250.5093,189.7493,176.4886,-26.9792,140.4154,-51.2578,148.2939,78.6787,125.9521,-9.8281,102.1592,-3.4156,223.9739,150.3895,314.3976
172.2916,194.2508,193.0682,283.1999,303.3874,319.3612,264.8790,100.7884,-129.8428,32.2601,177.3186,200.3562,156.6655,103.1997,113.1433,86.8768,373.9239,303.2574,420.9615
219.9513,241.5797,211.2969,352.7175,336.7901,446.3468,305.2325,196.9953,-319.3452,-1.9296,190.3118,258.3135,159.2014,178.4277,118.5540,156.2883,424.9399,388.4524,383.1107
150.3632,219.1434,125.6216,298.1569,274.5950,470.1168,230.1329,210.7543,-204.6647,-98.1711,113.1568,244.0599,113.1513,204.3184,80.5671,195.5687,285.4417,325.1686,295.0242
76.5878,153.8672,55.5599,178.2360,189.1206,371.8035,152.6435,203.0577,-5.4535,-106.6214,52.2407,186.5414,113.0546,209.2150,42.1806,240.9289,139.5521,202.4039,302.3195
59.8819,104.6628,52.1749,73.3165,156.3199,228.0016,136.5335,192.2594,85.7479,-14.6156,72.1734,127.0211,160.6876,194.8266,52.5796,257.6899,120.3170,139.3493,295.7865
39.9850,110.0225,39.5845,88.2398,141.9983,157.1323,109.5768,161.4377,109.5782,43.5533,59.1418,131.3001,141.8537,180.4640,64.6904,218.5390,149.4605,164.5688,163.1875
53.3974,163.6633,38.7266,211.7957,139.8362,194.6342,54.2679,127.7548,72.2536,15.7980,26.8076,180.3646,64.9290,161.1935,37.6088,160.8833,184.4991,197.8117,55.1500
143.2308,203.0254,122.2892,251.6244,192.8609,209.6369,30.9173,74.6779,2.0274,-9.0243,99.4425,152.7523,51.1335,73.4847,14.5081,89.6604,250.5531,124.2357,89.1130
165.0479,187.2875,206.5365,138.8483,265.4776,114.4145,59.9219,-3.5186,39.6719,19.1440,174.6473,53.0513,102.5139,-48.6202,26.5556,0.8864,273.1930,-14.3175,140.8522
35.9924,159.1606,179.8415,53.8328,290.4772,45.2053,125.2850,-17.1497,175.9954,50.4047,110.7734,26.0301,137.0347,-68.8851,73.3185,-36.0959,190.6243,-32.5254,115.6574
-69.1084,153.8449,114.8435,74.4456,288.9469,107.3677,201.3404,47.9881,235.9766,60.7194,50.0746,67.1842,172.9500,-4.2976,172.8763,4.4423,97.2744,77.2558,79.8506
-25.1616,142.0540,132.9021,70.0651,306.0077,173.1663,244.2420,59.0395,166.5152,78.7823,125.0587,41.9483,246.3419,-5.0654,288.3839,33.2465,85.5974,114.9850,69.7833
48.7692,124.0773,197.3530,28.1161,313.2493,150.5964,228.4545,-0.0372,61.6427,102.4248,195.6368,-9.1336,273.4548,-49.4422,313.3388,20.4017,117.6597,55.2252,51.7603
31.6641,154.1609,197.3555,72.5196,272.9550,150.2205,168.7937,14.1234,40.9683,110.8009,147.7095,57.2169,199.8008,5.8572,230.4939,48.1390,126.7816,72.5474,38.4723
-39.9118,221.6377,128.0694,158.6961,220.9253,225.1004,113.4834,110.2801,172.8081,98.2501,67.3828,168.9920,133.1299,106.8902,150.6682,115.3971,99.6200,149.6674,71.3941
-82.4370,224.4305,71.1728,123.3940,203.2303,253.1369,129.1383,150.1469,306.9781,49.1427,29.7046,138.7859,153.9396,85.1796,149.7823,114.0504,59.0501,104.1870,144.6821
-69.6299,129.8354,55.8673,-2.2719,188.8048,180.5158,209.9074,117.7674,194.4771,5.7801,17.8011,9.5216,171.0784,-15.2103,180.2234,39.8947,37.5186,-16.9110,210.1816
-42.0758,70.6688,44.9352,-18.2511,130.4274,129.7453,248.2919,128.0040,-55.7018,90.9171,10.1649,-6.9066,115.8662,-17.7541,163.7979,15.1590,42.7980,-9.5328,226.0549
-41.4994,156.1500,33.4755,124.5355,60.1090,187.7986,200.8980,211.4046,-109.9388,270.6316,-6.7680,113.3602,73.1988,71.1052,106.7572,76.4254,58.0665,96.1009,197.1987
-39.7241,272.5831,46.4272,244.4456,31.8602,263.3605,150.0270,267.1237,-30.5488,308.4195,-27.0572,187.0786,89.6695,105.1690,74.2203,120.5475,77.1445,111.1755,149.7263
-7.6578,266.9633,61.6004,218.7948,38.1517,248.9992,133.1218,223.8625,-106.1147,173.8791,-18.2587,146.5441,88.1303,64.7281,76.2680,90.7470,87.4909,42.7217,82.7958
9.0669,203.6397,51.3976,157.5236,58.0872,194.4668,105.0668,156.1579,-221.7626,126.1820,14.0338,113.1067,63.2324,49.8163,77.5749,61.4053,66.2179,30.8224,12.1209
-15.4610,196.9805,44.1015,159.3845,86.0732,178.8462,60.2259,153.9632,-130.6506,207.9372,28.4299,138.3596,90.3799,83.4165,84.2563,85.1453,33.3312,57.0407,-14.0858
-46.2971,184.3289,47.1645,127.3717,77.9530,147.1689,7.6066,147.6853,-3.2188,170.7508,8.3001,136.1213,110.2868,98.6891,89.5941,96.9591,12.0735,10.7636,-16.4748
-82.6310,100.6581,14.4025,10.7096,-3.5735,56.0118,-72.7045,56.0860,-49.6216,4.8555,-47.0514,83.5208,5.7120,73.3116,35.4920,50.3409,-36.5597,-66.0007,-65.4121
-121.4685,30.3494,-47.6484,-49.2351,-106.8458,3.4692,-144.8025,-14.2196,-124.4997,-41.8647,-115.3864,53.6442,-143.6871,55.3211,-56.3896,15.1252,-114.6229,-57.4403,-142.2266
