Fp1,Fp2,F3,F4,C3,C4,P3,P4,O1,O2,F7,F8,T7,T8,P7,P8,Fz,Cz,Pz
-51.1925,58.3092,21.0332,30.8805,31.7240,-42.0932,41.3058,-99.0488,-25.1718,-62.8837,41.9174,24.9552,125.3804,-31.7672,140.1506,-37.7931,-56.3417,-36.7148,-157.1418
-211.5938,-71.4832,-151.5789,-122.8432,-57.4472,-76.3985,149.2308,-113.1825,81.9027,133.0234,-113.1013,-137.5947,32.3311,-118.6239,128.3301,-49.8705,-208.8769,-23.1355,-36.7130
-200.2598,-134.8556,-145.6039,-122.1399,38.2415,2.0252,298.7365,75.0108,217.2076,322.9888,-97.7993,-139.1523,91.0654,-25.1696,159.6991,43.5134,-150.7757,77.7094,138.1134
-26.7854,-76.9960,-30.5648,27.4040,162.0325,143.9433,356.7349,283.1527,222.4883,244.1459,-11.9229,10.6849,107.7846,144.6976,120.9984,153.9496,73.1749,202.2920,286.5958
59.3935,-51.9029,-31.0643,96.1507,131.4387,228.4738,286.2789,364.2533,141.8641,97.6403,-41.9040,74.2489,-33.8405,200.0585,-17.7293,190.9298,169.3647,266.5748,392.2353
42.5968,-79.5454,-82.5939,92.9520,86.1154,291.0327,207.2374,416.8219,112.8295,102.2496,-96.0917,55.5271,-114.0620,206.5836,-117.5172,211.8128,192.8754,339.5957,491.3758
61.0828,-53.1548,-50.3458,172.1360,121.6518,400.0613,176.8307,449.3029,101.5214,119.5074,-71.4087,100.3435,-65.7064,245.1154,-147.5383,249.6032,309.0089,449.9414,555.1470
87.4517,-15.0785,-15.2446,266.3938,107.8701,470.5691,101.5069,373.3185,20.9133,45.7202,-48.8995,155.5948,-55.6985,228.6363,-198.5294,242.0282,375.7132,479.7918,519.3941
91.1622,-11.5077,-10.2371,265.7282,40.3136,416.7341,-53.3050,277.4536,-58.8395,-16.2770,-36.5281,149.3297,-69.3810,154.5614,-230.3759,188.8331,338.1803,408.8845,429.3352
147.0592,43.6401,46.5661,244.2564,28.1879,298.9217,-192.9632,247.9897,-56.6386,-36.9028,23.5623,155.2991,-27.3598,125.6472,-183.5582,146.7703,382.0988,340.3675,369.8457
187.0211,117.7816,75.7105,244.8702,-0.0961,191.2860,-288.8195,145.2492,-84.0675,-106.2744,45.0922,172.1140,-45.5592,113.4016,-168.4235,96.3025,409.4204,259.0858,249.7349
64.4825,82.2099,-31.6976,202.4345,-148.6989,90.2514,-418.3532,-116.3002,-254.7158,-230.2516,-36.0800,115.2209,-170.4148,33.8544,-233.8237,-3.3700,152.7841,95.9681,-70.5273
-134.2690,-3.4336,-149.5826,140.4362,-305.3419,5.8704,-551.9379,-325.1748,-397.4210,-237.1432,-103.0406,27.7282,-238.9951,-47.0962,-238.0645,-88.7422,-189.3097,-46.6114,-425.0879
-205.5407,-10.0899,-133.7140,129.2876,-293.1728,-19.0201,-508.5969,-258.7442,-289.1962,-30.5583,-66.5853,9.4886,-144.5762,-20.9832,-114.9377,-71.8923,-219.8791,-37.5792,-501.0628
-127.1899,41.2434,-33.4185,131.8666,-112.1992,-4.9821,-244.9196,-60.2272,-74.2597,108.5535,21.5738,49.7269,48.1603,50.9712,44.2033,-5.9869,-28.4488,35.6710,-337.4825
-19.5434,85.0787,65.1410,86.5249,63.4032,-23.3951,5.4140,-30.1121,3.8667,-7.9459,90.5379,66.7485,181.6767,25.7269,156.3756,-8.2513,56.3576,22.6110,-191.5991
22.7130,79.8182,125.1350,19.2326,102.5986,-56.6390,77.5795,-63.4342,79.8219,68.2095,102.1522,16.1771,135.1350,-40.5536,159.2264,-26.3692,37.6647,-16.4222,-39.4941
-8.3323,7.4712,115.2072,-0.5016,76.9663,1.3062,108.6557,176.8602,280.5784,532.6884,58.9148,-38.2356,-7.0102,48.7308,25.2763,75.0363,65.9605,57.0561,229.8823
-18.0865,-28.7380,66.7949,49.7312,73.1300,134.9682,164.7106,481.0377,281.4143,595.7661,11.1954,8.3714,-91.0420,226.3567,-141.5321,198.0969,99.2235,173.4395,408.6653
70.5163,49.1325,44.0078,96.0194,7.7448,164.9540,58.6836,329.1515,-65.8521,-96.9877,-23.6502,97.3117,-162.5390,203.5318,-228.4538,136.9513,84.0179,171.6988,326.9116
150.8075,98.2778,22.4261,51.7963,-130.5553,28.6636,-150.3445,-101.9125,-294.1284,-578.5776,-70.5040,67.3591,-256.8608,-5.3648,-236.8336,-26.0907,74.4094,77.3495,198.5517
77.7285,29.7921,-38.1992,-42.7440,-168.3456,-108.3937,-99.0503,-219.6181,-127.7388,-294.6869,-106.0508,-43.8901,-206.5273,-108.6732,-152.8243,-69.1390,34.8900,2.1755,188.6546
-64.2630,-13.2758,-84.9054,-89.9783,-85.1959,-124.0911,170.3202,-68.3423,70.4803,23.4346,-97.4432,-77.3458,-24.4728,-65.2918,14.6997,-24.0153,-86.0136,-47.6451,170.0255
-91.6474,8.9410,-65.9446,-88.4907,-37.9949,-67.8367,218.6279,-30.6552,47.8255,-28.2903,-75.7606,-57.3619,8.8811,-49.6846,70.8607,-21.9786,-143.4870,-52.7958,111.2707
-29.1718,-20.6937,-17.9188,-76.8394,-19.3272,9.3529,25.9051,-27.4231,-2.0938,-5.8296,-67.8072,-82.0181,-133.6353,-75.8775,-89.2497,-23.4385,-34.7999,47.4453,135.0122
-25.6173,-60.8645,-6.4610,-59.0887,49.2448,75.5181,-53.1658,95.1869,33.1293,159.5438,-64.8940,-107.0412,-196.9909,-78.8058,-217.2092,8.4174,58.9624,149.6651,196.3055
-86.2262,-18.2913,-64.6353,-66.3394,65.2009,44.9874,-10.9371,143.8311,59.6865,165.9361,-84.1848,-91.8200,-145.5473,-65.2449,-131.8135,6.5803,-8.8436,95.3300,167.6398
-119.7521,22.4724,-170.4987,-113.4097,-41.1298,-76.9112,-62.2707,53.5237,62.5397,114.6845,-143.7003,-90.4609,-152.7789,-22.4799,-47.2212,-22.1066,-99.5012,-42.6406,85.1066
-102.9195,10.4237,-249.3259,-122.9489,-150.8089,-154.6054,-142.4711,0.2676,65.6617,140.5939,-205.9709,-95.0597,-235.2126,17.4467,-131.6906,-28.3666,-69.7574,-111.9165,46.1411
-36.6325,29.2673,-237.5410,-52.6516,-188.6454,-154.0151,-131.9399,-13.2743,55.9452,104.0086,-214.5687,-48.0061,-285.5028,-21.7219,-214.6222,-36.1847,31.1710,-138.0592,66.0711
78.8074,74.2241,-147.9926,25.5260,-195.0280,-157.9617,-126.3060,-61.0486,59.3147,46.0675,-156.0696,24.5784,-284.9786,-40.9608,-183.0741,-39.4427,112.5284,-179.9444,101.3220
155.0849,67.1326,-59.3406,49.7137,-193.4840,-161.8796,-171.5172,-68.9632,65.8123,90.8203,-84.6531,57.2600,-278.9698,59.6172,-167.6473,-2.1822,119.6899,-190.3149,103.5231
112.7220,12.3671,-34.6313,17.9585,-184.5663,-119.4962,-173.0151,-8.8637,33.4804,127.8010,-65.7011,25.2730,-268.3583,108.8717,-206.0980,27.2841,41.4768,-137.1977,110.3670
37.6422,-51.8942,-36.8894,-50.0674,-143.8487,-63.8938,-104.5088,69.3416,34.1800,128.0580,-69.7567,-45.9100,-211.9139,24.2418,-173.8091,26.1227,-26.1347,-40.3672,207.9548
39.6031,-86.6566,13.1607,-95.9518,-34.4785,-5.4022,-6.5787,168.0154,115.2707,185.7269,-25.1974,-79.8183,-115.5557,19.2662,-65.2864,58.0641,4.6959,71.9635,326.0437
77.8424,-60.9425,83.1654,-82.8412,73.3382,83.9452,81.9853,229.5507,159.1167,195.6975,29.9306,-45.5265,-52.6734,122.5477,6.5507,104.1664,70.0333,143.4538,327.0332
80.4334,-40.9469,82.7629,-56.6605,94.5003,157.6012,110.3768,182.3987,122.1577,100.0635,26.1928,-21.1765,-34.3168,120.7677,28.6694,97.9374,100.3777,174.3520,280.8005
56.1880,-81.7843,46.2218,-29.5161,112.4995,187.3902,103.0737,140.3535,104.9467,77.3806,10.2217,-37.5305,6.4399,46.4218,51.0250,92.2081,126.5240,255.2045,313.5803
18.2532,-86.4747,49.2847,36.3609,188.9180,231.8435,129.9711,187.3218,95.7429,125.8752,24.8212,-21.4331,46.6385,63.7594,41.2076,126.4761,135.0034,349.9841,341.0006
-24.7306,-14.7598,34.4868,67.7183,196.5960,255.3359,132.7391,177.9485,18.9925,57.8216,4.4535,15.0904,6.7048,88.2923,-37.9682,111.8282,70.9442,285.3510,266.9827
-29.8485,9.8958,-53.7421,-32.9200,92.4566,155.2442,56.7980,55.2909,-41.9336,-70.2890,-71.0796,-19.5284,-70.7389,26.5480,-114.3187,29.5111,-12.8005,82.8678,193.6422
4.9380,-28.4661,-111.6198,-161.7484,26.8420,15.6470,30.3475,-9.4803,3.3862,-89.5419,-112.9927,-86.8753,-97.3416,-9.8569,-101.3585,-14.7937,-30.1063,-32.2654,203.0613
31.7452,-15.7440,-52.1252,-158.9442,48.2973,-7.7379,100.2650,45.9703,69.1869,-41.2042,-74.9143,-78.6586,-83.9255,19.4580,-32.0443,2.9006,5.9040,-2.9614,202.6217
54.6124,29.7856,41.2047,-72.3953,54.2986,26.1071,93.3475,84.5971,63.3461,-21.5549,-8.7635,-20.6182,-72.7097,21.1693,-7.6749,9.5683,50.2108,20.6756,125.8296
101.8087,22.7290,79.1846,-35.2347,38.1530,-5.1802,-18.2901,32.7296,23.2066,-27.1636,32.0585,-2.7175,-66.4379,-13.7236,-51.1148,-11.9398,90.8209,-13.6982,56.1032
132.8738,-6.1010,97.5696,-47.4958,78.6792,-44.4565,-41.4566,-39.0584,2.8010,-38.1022,49.9818,-25.9192,-49.7245,-39.0069,-93.1128,-25.7336,109.9799,-13.4480,62.2189
97.6508,-21.2662,123.7564,-53.9927,149.3485,-13.1172,37.9006,-46.3891,-3.4486,-31.5173,64.1749,-51.1685,-5.5386,-56.7322,-91.3018,-21.3699,90.5235,52.1691,84.8220
25.2586,-43.2325,101.8502,-58.4306,160.3651,33.8207,52.1143,7.2812,-8.6381,-6.2734,59.8432,-68.9329,45.8264,-61.3848,-56.3757,-9.3336,53.8756,118.8398,69.0933
-24.9614,-50.2140,29.1272,-59.6603,122.4770,52.5267,18.9737,39.6746,-1.0768,-12.3666,21.6770,-72.0856,61.8952,-49.7649,9.4924,1.5240,43.1643,163.0586,61.1324
-46.8871,-36.2510,-14.5998,-29.7265,108.6793,74.4798,58.1459,21.1781,18.4116,-30.9597,-15.5783,-62.0504,52.4302,-63.4569,62.3307,5.5528,69.2944,210.5591,77.6909
-64.2173,-44.2694,-17.7656,14.9764,103.8260,90.5338,86.4054,17.8575,10.3183,-4.3451,-26.6921,-55.3969,30.5041,-102.3790,10.4328,1.2659,90.8349,228.8295,52.5354
-52.9404,-43.1775,-32.6776,33.7881,48.6767,62.2208,-5.0537,40.4964,-36.5825,-2.2866,-36.0936,-37.7905,-24.7830,-91.6692,-103.2443,-5.2432,86.6313,164.0710,5.6775
18.1597,11.8366,-36.5574,37.4436,-10.2232,23.4993,-83.9349,35.4081,-56.4543,-68.6613,-39.3188,12.2181,-68.4282,-0.4378,-125.9554,6.6378,98.3341,74.9564,41.8882
78.5211,62.1824,12.7830,73.2394,5.4344,39.7904,-15.2420,39.6741,-14.7436,-63.0673,-7.8441,68.2902,-41.5921,90.2069,-72.1491,45.3295,127.6925,57.2397,130.7346
51.9391,81.1714,63.8488,148.2060,50.3070,97.5877,80.1322,111.6355,23.4251,54.5969,28.8775,106.8021,-4.2626,90.7842,-69.4214,73.7656,120.4386,71.3951,153.6504
22.1724,113.7804,73.7651,197.3268,50.2015,116.0256,61.1706,187.1284,20.4169,101.7198,41.4890,137.0195,-10.8372,38.1068,-86.3873,63.7028,101.0340,35.6029,124.3450
68.7056,113.8397,80.9299,162.1016,28.8742,70.2247,6.6310,204.7463,20.9453,38.3727,57.1515,138.6557,-11.5720,37.8484,-42.7888,50.2605,115.7208,-0.5400,96.1975
76.9118,29.5335,91.8746,96.0300,18.8944,41.7567,26.9679,210.8413,36.7591,41.2224,73.8598,92.2072,5.3193,81.3995,2.4596,62.8068,95.8513,37.3194,23.8256
-11.5229,-37.5474,78.8993,88.1619,15.1647,86.5137,79.5859,226.3467,35.2595,116.1960,65.5563,52.0476,11.3870,66.2469,13.7808,69.1791,20.1435,94.2827,-71.2539
-27.5187,-19.0699,76.1614,96.0747,37.3461,121.2843,99.5577,198.7587,21.4461,69.6737,64.5423,56.3238,38.9587,-12.5897,44.9136,40.2968,13.0912,80.6216,-78.5430
84.7382,-14.1255,99.7081,28.0345,68.3705,59.7736,94.7729,124.6102,8.2438,-99.5143,85.2267,49.2073,74.5307,-63.5451,66.3786,-2.2692,78.3298,7.7144,-36.6590
122.6706,-81.8277,77.4980,-64.0970,23.4944,-25.0641,55.3987,76.3214,-16.4936,-163.6192,67.9262,-4.3182,35.1768,-55.5557,20.1577,-22.2698,53.6320,-40.6467,-71.3545
2.8451,-150.5527,-12.0997,-80.8364,-97.5288,-25.1054,-35.3922,95.7342,-40.3064,-45.7592,1.5207,-54.4197,-53.2740,-35.1711,-33.4766,-12.0165,-71.5957,-22.9256,-154.7170
-107.9021,-167.8846,-91.1786,-53.6588,-190.8176,19.5738,-114.2259,128.9782,-40.9902,72.2680,-51.4018,-65.0487,-97.1913,-40.1510,-35.2027,-2.4310,-149.2976,-3.7232,-201.1628
-110.2720,-144.7218,-122.4312,-48.6613,-219.5526,9.1137,-128.8849,102.3044,-37.5763,60.5708,-72.3722,-52.5940,-105.6896,-65.5461,-28.9622,-21.5754,-148.8293,-60.1668,-221.3134
-82.9763,-104.6181,-137.9350,-55.7886,-234.1089,-58.3655,-139.2830,29.7098,-53.9265,3.8932,-86.4304,-40.9858,-120.8049,-84.9253,-55.6532,-53.2747,-150.6956,-155.4407,-232.3825
-89.8764,-88.6767,-157.0097,-84.6460,-259.5942,-135.2275,-190.4226,-41.7337,-79.5366,-8.9936,-100.7904,-60.5828,-130.9222,-102.9047,-96.4795,-81.2279,-192.2632,-224.1122,-227.0789
-107.0689,-127.9296,-188.4295,-174.5939,-284.6740,-206.2768,-215.0258,-123.8827,-94.5895,-29.6422,-126.9083,-127.5977,-142.3613,-148.7144,-115.0794,-117.2975,-265.1128,-277.4262,-215.2883
-102.5192,-184.0364,-226.1131,-267.4965,-287.1860,-239.6381,-166.1531,-200.4921,-89.5657,-99.4652,-162.8741,-191.1064,-155.4260,-188.5814,-80.7251,-139.2595,-315.4190,-288.1357,-165.4874
-79.1366,-177.6942,-212.2614,-257.6900,-233.0857,-186.5932,-87.6425,-194.5740,-61.3349,-147.7637,-156.7929,-181.8334,-109.3301,-160.1842,2.2720,-107.8687,-262.3736,-185.4421,-52.4713
-58.4325,-90.3220,-127.6667,-161.8431,-130.1937,-86.2170,-9.2222,-124.6983,-15.8360,-117.5078,-95.4479,-112.3879,-5.0183,-98.4854,76.3630,-57.1222,-132.7681,-51.8463,40.6699
-53.6344,-11.3602,-66.7453,-94.3960,-56.4030,-44.5219,49.6467,-92.9321,16.5455,-54.4758,-54.4886,-62.4790,45.4981,-76.3625,72.4533,-44.7738,-60.5062,-37.9994,40.2626
-69.7302,-35.1917,-97.2819,-110.6986,-68.3371,-81.3977,18.9657,-107.2960,-4.8763,-23.8485,-76.1831,-81.8767,-1.6180,-91.1008,-13.0896,-60.6676,-102.0210,-99.3110,-9.0324
-102.1228,-132.1979,-154.8314,-174.6586,-124.4199,-118.0843,-83.1997,-113.6799,-54.6977,-25.4079,-109.1537,-147.3749,-50.1078,-125.0118,-77.6189,-73.6144,-184.6806,-104.6766,-30.7949
-115.4034,-203.1310,-172.9998,-228.6780,-149.5422,-114.2566,-103.3240,-109.8282,-51.9775,-28.3909,-116.2429,-195.1933,-38.7364,-164.3932,-39.3755,-76.1259,-226.8459,-74.4104,7.2061
-91.1993,-201.3364,-178.4288,-222.7818,-147.1000,-95.9168,-23.5463,-102.7649,-16.0762,-40.1317,-124.5423,-177.0894,-34.5895,-147.4740,2.7264,-61.3882,-212.7109,-83.4541,54.2576
-78.5679,-132.0961,-193.5571,-138.7800,-173.8428,-71.1465,-9.8278,-89.8223,-41.6324,-70.7935,-146.1239,-103.4296,-83.5641,-79.0929,-60.2804,-43.2292,-170.7191,-112.0035,19.8637
-95.7138,-40.9590,-182.0616,-41.5787,-207.4463,-36.5736,-72.0573,-87.7949,-80.7083,-68.2691,-146.3557,-37.6973,-113.3816,-64.6281,-113.9594,-46.7487,-126.6832,-119.4243,-42.4512
-75.7313,-7.5506,-128.0419,-27.9498,-168.1815,-29.1665,-62.8609,-91.7237,-31.7065,-14.2452,-106.9405,-28.9546,-77.5808,-99.8849,-49.9012,-53.8893,-91.6746,-115.3215,-9.6298
-0.6595,-38.2534,-64.5683,-90.8486,-77.8630,-67.8145,-21.6049,-91.7607,18.2070,-9.5039,-54.3258,-56.9947,-42.9381,-86.5212,3.2736,-48.5321,-70.1567,-116.5171,42.6041
65.1747,-54.0081,-7.5509,-126.1774,-15.7362,-88.9116,-58.3120,-96.4030,-15.7603,-80.2188,-8.9499,-68.3708,-32.5968,-52.4691,-29.4498,-47.6664,-33.2360,-96.8005,30.4252
92.8150,-32.9497,57.3077,-76.2078,42.0434,-24.8807,-46.1393,-50.5393,-3.5924,-65.3891,37.6934,-41.7030,21.2491,-53.9193,-15.8928,-25.0964,55.0983,-5.6056,96.2839
82.7420,-12.6214,106.1857,17.7802,124.5025,88.2174,102.2411,80.4018,99.4748,80.6709,69.9863,4.4893,87.5541,-31.1965,53.6902,42.1001,138.3962,122.6387,239.6197
30.7878,-2.2533,79.6852,76.5277,137.8559,144.6210,170.5267,147.8577,111.9544,143.1969,44.6894,31.4557,51.3173,5.3495,29.8423,71.6348,126.4684,157.9729,205.4112
-8.4398,-13.8098,-6.8822,52.9930,42.6525,99.2870,40.0545,37.3457,-5.5356,16.8449,-22.1423,10.0123,-55.0129,-42.1668,-69.4399,8.6977,59.5576,72.3535,7.9417
17.8676,-40.6967,-52.5352,-14.8849,-42.3548,15.4061,-83.3729,-98.5957,-78.0832,-118.7214,-57.0502,-31.5920,-105.2656,-120.6002,-110.2866,-59.2518,38.0069,-13.6747,-70.8256
61.0420,-14.6512,-21.0012,-41.4498,-43.6001,-31.3998,-68.6145,-112.5828,-48.0038,-128.7590,-42.0640,-33.5410,-96.4800,-122.4329,-88.7722,-66.3531,59.4543,-45.3884,-1.3225
70.8047,54.4479,15.5209,-8.4472,-13.4885,-38.8016,-17.0593,-75.4796,3.9803,-74.0106,-20.2245,2.5663,-79.3651,-97.6128,-49.3442,-53.8077,80.0618,-64.7031,46.7483
56.7832,67.9618,11.9879,32.4964,1.0607,-37.1206,-0.6330,-43.9418,35.5197,-16.7120,-7.6878,28.0954,-45.3298,-94.7675,-4.9533,-43.3757,88.0447,-68.1048,22.6689
15.6057,44.7144,-11.2462,43.9144,-19.2270,-44.9296,-23.8331,6.9723,18.9041,17.3184,-5.9853,31.9358,-24.8946,-64.5546,-14.8858,-30.2370,47.3581,-70.6252,-48.7540
-23.6608,48.3825,-51.3869,0.0612,-80.7416,-88.3114,-87.9046,15.2229,-34.3679,-12.2203,-34.5185,16.3109,-63.3798,-31.9259,-76.6011,-41.5507,-46.5342,-141.5483,-90.5664
7.3139,7.2622,-99.6641,-97.1586,-123.0098,-155.3667,-99.7831,-44.7466,-20.7105,-57.7694,-72.4890,-32.2162,-90.2600,-47.1660,-65.4676,-59.5390,-97.7105,-215.9366,-1.8335
59.8716,-87.1182,-98.3122,-152.9620,-90.1882,-156.3162,13.8400,-44.1204,71.2724,-24.8109,-68.1948,-75.4859,-43.8398,-44.7562,27.1902,-29.3882,-53.2454,-150.1277,118.6779
32.5491,-89.9341,-39.1881,-98.2529,-30.8114,-59.4718,127.4882,42.7754,112.1926,47.1122,-34.9775,-59.6441,-4.4459,-2.1635,62.7796,16.1984,9.9505,-3.6528,106.0032
-31.1186,-18.9944,-5.3546,-35.5658,-14.7426,28.0683,121.2638,70.1200,79.3199,72.2650,-33.3725,-35.7377,-39.8594,-12.8023,19.2880,11.9186,20.1502,58.4015,46.1721
-59.3080,-45.7111,-41.7402,-67.2747,-48.6396,38.6651,65.2744,17.5577,61.1415,80.0320,-74.2072,-79.4165,-105.3214,-77.6154,-21.0861,-14.8986,-10.5912,59.3239,55.8800
-92.4752,-137.5603,-96.5627,-113.1522,-99.7300,33.8738,32.8454,3.0238,45.0771,97.6074,-118.5524,-140.9428,-151.9921,-103.4754,-67.4135,-15.6331,-44.2036,103.9184,57.1348
-140.1665,-144.2294,-126.1209,-94.0752,-117.5825,31.4656,2.4145,25.4040,-11.1677,79.8549,-141.8349,-147.2425,-170.8183,-101.3093,-147.4997,-12.9651,-64.5735,139.9601,34.6685
-150.7097,-107.9153,-155.5302,-94.5312,-97.6390,-35.5789,-28.2014,5.8096,-44.1099,46.8057,-156.3326,-144.7809,-170.5619,-136.7550,-200.4675,-38.1771,-96.2394,71.4737,58.3189
-141.0409,-135.0066,-204.8952,-175.1109,-114.0571,-149.5944,-50.7127,-32.2504,-19.9643,50.2425,-177.0395,-184.7937,-177.6753,-171.0345,-182.7366,-71.3426,-162.9733,-50.3008,49.9009
-139.5458,-175.0884,-230.9556,-237.7131,-178.2937,-209.6070,-75.9386,-35.3757,-2.0214,49.8011,-181.9416,-207.1504,-181.9213,-133.1270,-124.0207,-76.9057,-217.3134,-111.2240,-41.9805
-121.3645,-137.8322,-188.7478,-196.5713,-191.2602,-184.3071,-67.8211,-18.7208,-3.8536,25.6169,-143.6489,-157.3080,-136.0067,-50.8382,-56.3667,-49.2585,-199.2485,-90.7986,-76.3083
-90.1776,-41.5417,-104.2336,-103.8701,-121.0022,-116.8720,3.5040,5.6982,25.5746,43.4037,-84.6796,-78.8206,-56.7325,8.2438,4.8345,-11.4941,-127.5591,-42.2836,10.5455
-54.8140,31.9605,-34.9471,-37.0807,-38.9067,-45.5712,87.2127,56.8646,79.5757,93.3991,-43.3614,-21.9974,-13.3657,46.9284,35.1762,23.0470,-43.1308,2.0377,112.3057
7.0447,49.2196,3.1085,4.8995,15.9632,2.1699,137.0389,113.9020,102.4782,93.3938,-23.8963,18.3802,-28.7799,92.9573,6.3661,55.2972,43.7036,35.8598,165.6664
55.8799,61.0154,26.0423,38.7618,39.2963,9.0800,147.1431,114.7753,78.1920,49.4568,-21.0104,41.9582,-75.5552,105.6296,-71.4094,60.6007,105.0418,47.4946,172.5216
36.9914,84.2566,39.2393,26.2726,27.4365,-10.3677,103.5179,44.1770,35.2255,13.0976,-29.1316,16.9540,-104.7472,52.6629,-122.5838,22.5303,105.9724,52.1080,135.9259
-3.0098,42.7472,34.1186,-46.7302,17.4864,-15.1938,38.4006,-19.9037,1.5966,-15.6074,-29.6905,-49.0007,-78.3558,21.3934,-96.1094,-2.2361,59.5746,95.9747,100.1914
-16.2591,-52.4766,11.3765,-91.2321,36.6127,35.6902,38.2666,5.0577,-13.1364,-30.1958,-23.4749,-80.7606,-28.8117,98.8380,-47.7174,41.4197,13.9241,178.7430,105.2523
-27.9818,-72.7515,2.2327,-35.7790,61.9238,142.7290,110.8415,92.7658,-1.5275,0.7243,-19.4961,-34.6995,-2.0371,221.7791,-17.3842,115.8274,11.6941,255.2354,132.6607
-45.8599,-15.4544,34.9259,55.6082,94.7369,253.5207,177.5761,172.3446,50.3748,91.1720,5.0724,33.8674,31.9981,290.5279,51.1888,166.7665,45.6888,310.7112,160.9342
-63.5805,20.5220,68.0840,106.9885,129.6523,313.4632,202.0416,239.5377,128.6126,229.6737,42.6812,71.0729,84.8289,301.9673,146.4972,191.9341,57.8266,319.9498,177.5823
-77.5941,52.5385,45.6659,128.1843,104.8313,289.8488,202.6355,269.8094,171.8937,315.1756,37.3169,97.2166,94.2380,269.7345,154.9136,179.9606,34.7451,213.0509,174.6554
-30.8191,94.1209,10.5523,106.3415,34.4771,174.6818,182.3362,173.5936,131.8646,207.2409,4.6214,110.5892,60.6069,183.9871,71.3347,112.2956,20.8487,16.6653,166.6033
79.0876,52.8243,27.1596,22.1741,16.9177,47.4800,126.1241,-3.4476,41.4270,-12.5009,16.4426,74.3434,51.3412,96.0491,8.8959,37.6465,15.7591,-110.8406,137.0963
136.1753,-32.2413,59.2552,-17.8403,47.3920,30.5838,41.6552,-72.9254,-19.4754,-94.6659,59.1782,41.3759,67.0942,76.5921,1.9693,21.7666,11.1740,-98.5491,63.1336
126.7312,-18.3532,76.4316,67.3595,56.9907,97.7236,-25.7617,-17.4818,-27.8682,-34.0464,88.6045,89.3027,82.4021,100.0093,5.5251,45.9766,52.2949,-52.3531,3.5716
161.3585,46.6781,128.9382,150.1166,66.3405,106.5463,-41.5780,-7.0953,-31.8626,-40.6058,132.4079,154.2411,119.7309,94.2413,18.8060,46.6670,117.3057,-63.3478,-7.4169
217.3680,52.5926,197.8000,120.3495,98.5319,45.1121,-27.2912,-66.9876,-38.4544,-116.0775,185.4297,145.0454,172.6868,59.5971,69.0005,19.4577,133.8688,-83.8791,-17.2481
194.1735,65.6280,196.1628,83.4910,118.2251,17.6085,2.1411,-70.4304,10.2615,-90.8328,180.4801,112.8350,197.7124,51.9030,142.6049,14.9394,148.2986,-34.6991,5.8624
125.9893,127.1701,149.7132,121.5703,131.6604,34.7397,59.4107,-21.2079,89.8831,20.5875,131.9982,116.3776,184.1273,69.3039,180.9484,38.9395,195.1935,51.2606,83.6142
72.5153,132.4312,122.3642,130.6427,133.3250,19.7038,70.5035,-42.8210,73.5228,48.9237,98.0536,95.8577,123.3977,19.5700,124.9745,17.2478,152.6225,43.8632,45.1992
30.9234,65.5263,70.9153,40.4232,56.9341,-70.5483,-61.5036,-168.0072,-58.2304,-74.8184,55.9013,15.9777,15.1368,-141.9719,0.6841,-91.1171,15.0964,-96.2550,-170.6030
45.5445,26.3391,5.1039,-55.2673,-47.8194,-208.2701,-226.5808,-308.9639,-160.7756,-253.8973,8.1790,-50.7340,-56.9364,-289.7663,-74.7268,-197.8030,-19.7351,-216.3431,-313.0566
118.5260,35.7114,40.9431,-54.6298,-39.6018,-280.1094,-226.7415,-342.1544,-144.4920,-312.8498,36.1888,-44.9346,-15.6372,-276.8307,-37.3614,-193.9752,70.7722,-178.1183,-252.5915
116.9727,52.9771,134.3112,31.0207,44.1872,-187.2559,-103.3562,-213.8080,-76.0776,-180.1751,111.1392,11.6015,70.1834,-151.6698,42.3970,-103.5018,96.6917,-58.2520,-170.4651
5.5527,68.1395,111.1131,115.0250,53.4649,-17.1886,-36.9299,-37.1477,-36.6645,-7.7651,101.4343,62.3901,82.0216,-62.6659,69.2975,-28.8394,29.9222,7.5048,-160.0262
-67.0365,65.4023,4.7204,122.8845,3.3322,61.7031,-46.5316,25.7840,-32.8744,31.6700,18.1939,64.3330,18.7083,-44.0025,32.6994,-9.5407,-2.7689,18.8974,-131.3215
-38.6158,23.5370,-25.0892,57.9063,-5.6402,32.7274,-61.3471,-11.9047,-47.4999,-25.0568,-16.1754,20.0131,-36.9195,-58.0884,-19.7974,-22.8321,-0.4775,13.3758,-90.1094
-20.1519,-39.2152,-17.8114,-16.9295,5.2059,-30.9136,-93.2247,-28.7357,-74.0266,-61.2707,-5.0146,-33.3869,-49.6702,-108.1135,-54.2264,-52.4339,-47.5716,-28.2722,-122.1577
-81.4451,-87.1385,-88.2995,-55.8110,-24.3335,-100.0263,-151.8787,-9.1192,-101.7421,-57.4810,-31.6161,-71.9242,-50.4081,-169.4807,-62.2983,-82.4775,-139.1777,-82.7976,-208.9705
-159.6239,-102.0742,-171.5097,-61.7337,-73.8512,-133.5622,-183.4211,-5.6544,-108.5014,-31.1062,-78.4456,-90.2678,-55.0268,-160.9294,-36.9983,-80.8681,-209.4516,-78.8031,-248.0774
-181.7309,-96.0192,-177.7955,-68.0671,-103.9438,-95.3096,-156.7681,-4.5534,-82.2974,7.9646,-93.0528,-92.2196,-48.0014,-74.7710,2.1625,-41.4357,-223.4088,-21.4813,-172.7754
-167.0561,-99.9279,-164.1023,-98.7888,-108.9693,-37.8015,-90.3516,28.9738,-47.7523,29.6995,-104.6510,-100.7230,-49.6814,-5.1244,-10.5272,-3.3914,-200.0773,25.6879,-41.7936
-170.1026,-112.9533,-177.7853,-117.4993,-98.9879,-5.3439,-28.6103,83.7363,-31.8693,41.9288,-134.2318,-115.8169,-85.7586,-2.3686,-79.0925,8.2220,-170.6439,52.5871,18.1411
-169.0639,-97.8441,-164.7763,-62.5626,-89.4679,26.1922,-13.6620,133.7931,-12.5276,90.5816,-127.0916,-86.6182,-99.0605,-6.3199,-93.9176,20.1894,-123.5456,75.6536,1.0831
-111.0261,-44.6516,-102.0187,37.0640,-88.1322,35.9135,-29.5081,140.3135,26.3300,148.0171,-65.0757,-4.6075,-48.5700,35.0767,-24.6231,44.4950,-52.9960,56.3335,-11.2913
-19.5778,8.6396,-29.8558,76.3452,-87.8080,-16.5167,-36.2806,70.2020,38.8587,131.5410,-7.0636,51.5916,-15.3128,67.5292,2.8285,38.8080,-6.4145,-33.8779,-25.4214
55.1513,11.6123,33.7746,27.3840,-78.7696,-65.6506,-41.1859,-5.6670,12.3694,49.2343,24.1872,36.5720,-35.6034,33.7958,-38.5587,0.3755,5.9088,-106.5222,-42.1802
90.5748,-37.0128,82.9514,-25.1717,-51.2727,-26.1171,-28.1735,34.1720,19.6517,15.1732,55.5442,3.6298,-12.0165,-0.1073,-13.8509,1.6799,27.4149,-52.1761,17.7603
56.4044,-51.9120,94.0144,-11.4465,-9.7407,69.7839,56.5746,143.8143,82.0765,86.3018,70.7459,8.3019,65.5311,35.7099,80.6815,53.7019,47.1876,65.0260,114.5805
-18.6996,14.6899,70.7059,36.2514,13.5261,128.4526,152.4283,147.1352,112.0903,155.6878,40.7205,33.3553,74.2155,59.8802,93.6667,66.8560,29.7230,79.6475,122.6429
-28.9357,54.1052,45.4373,35.0813,8.7305,110.0795,136.1488,35.4052,67.1177,103.5165,3.2531,27.7906,7.8740,-6.0323,19.3536,15.7286,4.9464,-1.3805,77.3662
33.6748,-8.5806,42.7858,-30.1301,27.5407,56.5867,60.7431,-34.5080,24.7726,-3.9417,9.9699,-17.5997,-3.5971,-66.3611,-0.0803,-18.5207,19.8557,-13.5306,71.1108
87.9225,-56.8825,89.7996,-74.7034,110.6929,30.8127,79.3687,-39.8731,51.4212,-31.5648,62.2665,-47.9470,80.8974,-37.4437,69.5966,-4.6117,90.5227,71.5031,71.9997
138.3468,-20.1777,182.7294,-36.6424,210.8602,32.2943,173.4997,-74.5760,105.3255,2.1835,133.5562,-20.5339,176.1787,-4.5007,138.1201,9.3274,188.1180,118.1257,61.8637
181.6768,0.8719,231.8000,30.0351,237.9798,28.2944,204.2535,-94.8394,106.9239,12.4214,172.2428,24.3507,195.5478,-27.7523,135.4084,11.2969,207.4710,83.0033,86.8595
126.1788,-20.8104,165.3660,48.1537,163.0725,34.1980,143.0624,-22.1034,40.9607,-1.0319,124.3447,29.9952,119.0607,-40.0994,51.7313,20.5551,92.4077,47.8108,128.6284
17.8214,-8.1613,58.9003,23.0661,58.6064,61.9744,83.5931,45.8867,-30.7441,-32.5693,26.9524,10.6852,13.1777,-14.9410,-52.8981,25.9829,-27.0632,42.5715,165.7489
27.7400,9.6647,31.6430,4.0682,33.4908,87.0286,116.6249,30.8689,-34.0575,-90.8572,-13.0922,11.6496,-22.2707,17.4265,-70.1374,34.6693,-13.6766,52.4396,240.2719
143.9078,-15.9541,89.2097,22.9231,109.3127,129.1120,232.9496,32.7357,37.6232,-111.2677,33.0882,47.1871,27.0119,79.1335,21.2492,79.8700,92.2828,98.4542,326.5029
213.5407,4.1348,164.1746,89.6458,177.2583,199.3653,292.3681,82.5550,105.3388,-52.7968,97.4058,109.3872,78.7424,161.8571,102.4679,128.8124,198.1361,151.1973,323.1269
197.6091,124.5229,212.2592,186.4245,136.2767,212.6990,187.0497,74.5580,94.4834,12.0321,128.1660,177.6757,72.2606,182.5936,83.7279,115.9320,260.0739,127.0419,211.2780
150.9312,230.9720,220.7487,264.0386,48.0498,143.6526,41.0131,25.9318,34.2887,26.0618,130.7379,218.8175,39.1055,138.3512,28.6881,70.0553,249.3640,58.8673,95.5205
133.1429,200.8903,202.0519,264.6050,42.5589,100.4115,40.0946,43.3746,7.7110,0.3408,125.7134,207.0757,36.2890,103.8467,18.9440,64.3863,201.4516,55.8621,93.1807
179.0756,53.6440,173.2322,164.9087,101.8186,110.0512,124.1170,93.0568,23.7103,-50.7520,114.8614,139.4424,44.4862,80.4574,13.3359,81.5356,183.4393,89.2404,179.9922
208.9860,-79.1672,119.9168,29.8389,108.8821,88.2325,122.2354,104.4187,34.2857,-76.1626,81.7269,50.6267,11.7989,45.5601,-29.6579,68.1339,158.5390,65.3390,194.9354
124.4911,-93.4708,33.5315,-24.5623,59.7025,42.7627,64.9414,116.0805,39.6442,-20.9979,27.5143,6.7413,-26.7928,46.7624,-33.3944,48.8982,81.2255,26.2225,93.8512
14.5798,-22.0235,-41.4852,24.9102,15.4608,36.5147,62.3992,135.6869,59.3024,49.7740,-19.0152,34.2794,-23.7118,100.8130,26.3100,60.6022,32.9259,32.3675,16.6727
9.5836,47.8534,-53.4585,87.6419,-45.0324,45.5573,64.8761,105.1666,61.6636,47.1834,-40.0760,84.0442,-36.6567,144.3886,26.8076,69.5831,75.2154,27.2707,15.4876
57.7040,89.5486,3.7880,111.8853,-109.6291,55.9202,25.3534,61.4465,35.9757,20.2874,-29.3471,105.8285,-83.3033,149.2613,-51.9480,58.8201,144.9174,18.4542,27.8567
61.5882,81.4128,81.2378,124.0075,-75.6711,118.5517,45.5081,94.1948,36.7375,53.8325,13.4544,98.7200,-64.3147,147.2280,-58.4377,77.0006,167.0039,104.7930,80.9085
22.8912,8.2929,87.5412,110.9893,18.4272,197.6200,129.4906,167.8037,66.7057,111.8973,36.3114,70.8161,4.3336,135.6050,17.2356,114.3565,105.1272,193.3801,164.6368
-17.4997,-48.9050,-9.6081,20.6020,5.1123,161.7532,107.8050,149.2359,52.3524,85.8740,-15.8265,19.5468,-14.5453,65.4115,14.5561,74.8046,-18.8641,73.5039,134.4751
-0.1920,-30.5775,-100.2244,-111.0148,-89.4471,-12.9912,-29.9557,-7.3947,-2.1656,-49.0806,-81.7277,-39.2621,-84.1937,-58.5890,-57.5872,-45.2648,-76.5097,-168.4479,15.0911
96.5627,5.7418,-75.5598,-159.1374,-89.7742,-170.1705,-80.1738,-176.0591,-2.0178,-164.9975,-65.1722,-59.7832,-56.5139,-127.5633,-38.5561,-112.1047,18.9140,-239.9777,3.3527
174.7431,47.8339,7.2275,-78.9447,-0.4269,-172.6071,9.6339,-215.9292,59.4614,-152.2121,-3.5899,-11.1734,28.8408,-65.7121,53.4504,-70.3559,163.0698,-129.2323,83.0040
170.3435,129.3066,39.1940,10.1971,49.9343,-98.9823,79.9335,-179.9940,86.8723,-106.3680,8.9605,53.9150,40.6224,20.0679,61.0131,-29.0565,231.7049,-70.2497,98.3315
160.1568,173.4788,29.0574,-2.4434,53.9382,-102.4173,69.6593,-195.1113,62.5021,-130.0383,-17.2245,49.9922,-9.1560,-2.2676,-25.6634,-56.3852,240.1306,-113.3915,81.3548
174.8764,139.7597,42.9931,-44.4064,62.7788,-144.0321,58.2826,-213.5497,61.0878,-117.1774,-18.3801,6.2650,-44.2843,-56.8149,-82.4756,-77.1447,233.8250,-123.7911,113.5405
161.3957,132.0601,86.1434,-8.1241,70.3842,-101.8538,62.7070,-144.8404,92.1346,-11.4890,13.4947,19.7366,-46.7555,-18.6603,-56.7018,-40.0108,215.1857,-75.8911,139.6737
136.9599,150.7793,114.2389,49.9518,74.4473,-19.8946,46.3661,-61.7729,93.1117,43.6569,45.1445,65.2361,-27.8099,48.3758,-9.8902,2.5943,186.9222,-35.8314,129.4182
123.0932,91.4925,101.4052,49.6788,80.5201,24.8109,19.0931,-32.0909,51.0648,15.2148,51.7548,57.8890,-11.2615,55.6868,-11.5803,19.3428,147.4814,4.3341,115.1338
80.1778,23.2320,82.6007,46.9756,78.1974,81.6641,-0.7366,-10.7606,5.1485,10.4120,46.8421,34.2224,-1.0594,56.0621,-38.5803,33.1270,109.9060,71.1377,76.0949
41.4947,65.4775,115.4414,85.9792,104.0181,144.4161,6.1543,-1.3322,-13.7897,5.1142,73.0931,57.8476,50.4699,76.8900,-0.1387,39.8363,120.5930,129.9260,18.9660
64.6410,144.8844,183.9099,121.8856,192.0844,128.6071,76.5493,-15.0289,19.6575,-27.7140,131.5474,95.1185,149.5798,73.4506,116.1675,34.7783,177.4728,155.7781,17.0919
99.9922,179.2006,227.8613,163.7288,284.0058,94.8232,182.3448,39.8788,103.3119,27.2589,180.9717,131.7957,236.1395,83.3930,216.4776,58.1700,231.7244,167.5718,77.4412
110.3783,203.4396,255.3134,235.9124,332.7628,144.0574,249.6272,172.3782,176.0369,149.9344,218.3446,192.0263,297.5357,139.6220,252.3201,112.5886,273.8801,180.3225,146.2732
108.7036,188.2373,273.2833,245.4700,352.9404,192.4916,275.2150,247.9888,182.8581,172.9457,238.9546,203.4794,333.3903,132.3265,250.6605,128.2796,271.5741,188.8351,181.0201
42.1261,78.7133,195.4020,127.0182,297.5428,133.7866,254.2257,208.2891,124.2482,98.8992,174.9863,94.2979,267.8303,-2.9081,194.3967,66.2015,149.3003,158.6236,115.2489
-85.2142,-30.1655,8.8730,-16.6360,120.3916,7.1126,109.8060,84.6271,20.2730,25.5788,25.9557,-42.4805,91.4155,-143.1643,61.9587,-34.2940,-36.7929,46.8699,-79.2144
-149.1395,-37.4557,-132.2176,-72.7970,-72.1234,-123.3374,-130.2202,-90.5649,-91.9479,-44.3610,-81.4274,-92.3112,-60.2744,-174.6929,-63.5449,-114.4001,-131.8999,-92.9035,-300.3170
-161.0974,-4.7853,-150.5793,-42.3693,-170.1409,-206.4592,-299.8827,-204.4753,-169.0209,-80.1677,-92.7130,-82.7658,-112.6367,-141.0112,-110.7228,-139.6072,-142.2651,-120.4505,-441.1348
-245.9258,-22.8026,-156.4176,23.3719,-216.8867,-176.4486,-341.3055,-167.1384,-223.9830,-44.4758,-99.4402,-80.7507,-140.8291,-130.4325,-137.1460,-117.6681,-195.9069,-17.9221,-496.6140
-346.2814,-81.6310,-212.1337,45.4226,-250.6864,-77.8666,-335.6342,-96.8232,-272.5572,-18.8719,-147.1568,-101.3985,-192.6400,-155.9658,-184.2504,-95.3657,-294.7326,60.5376,-477.4806
-340.8260,-133.4120,-241.4778,-38.6166,-219.9969,-34.5447,-304.8895,-98.8783,-256.1650,-27.1250,-174.5534,-149.2513,-215.2043,-177.3467,-186.9908,-97.7596,-345.0528,39.6987,-387.9718
-293.6716,-163.0694,-209.3427,-150.5939,-138.4201,-34.8961,-224.1382,-69.7804,-168.8282,4.0857,-153.6030,-201.7613,-172.2801,-181.8321,-125.3094,-96.8051,-327.2745,29.8560,-279.6248
-291.5576,-178.8031,-175.9048,-155.6857,-98.2688,8.4914,-140.1342,39.6294,-118.3292,30.5852,-125.0228,-201.7167,-104.0909,-191.2354,-66.3231,-71.7395,-291.3079,96.2379,-203.9679
-310.7600,-179.8002,-189.3369,-84.6593,-125.7374,57.4866,-114.7902,106.0790,-134.2600,8.2539,-123.3256,-155.6566,-67.9923,-185.8192,-33.6242,-43.3690,-290.3383,139.7814,-180.0904
-347.2936,-162.8763,-247.7077,-65.6451,-171.7770,40.1395,-147.5258,87.7226,-136.5268,42.2733,-153.9836,-136.4869,-77.7411,-124.5927,-23.7521,-30.3569,-338.1426,97.6098,-218.1873
-389.9002,-152.0605,-310.0745,-92.5290,-192.7861,5.5032,-189.8938,65.9710,-123.2549,123.6226,-196.3080,-153.5888,-111.2697,-52.1726,-75.8113,-25.7373,-365.1623,53.2452,-274.5659
-356.0573,-160.2658,-317.6140,-76.0144,-179.7752,16.0584,-184.9180,66.1739,-140.2637,102.1728,-211.4291,-144.8779,-149.3186,-40.5307,-170.6876,-21.3428,-299.4977,60.8923,-274.3719
-255.3593,-150.2830,-268.3762,-29.5992,-167.0107,21.7824,-153.8170,49.9232,-156.9774,11.0028,-188.6535,-100.9156,-177.7227,-63.5719,-216.1517,-25.9464,-201.6895,47.1047,-252.7889
-202.8167,-111.5862,-224.7615,-12.2001,-193.1920,-39.5906,-194.0023,-5.0363,-164.4975,-17.9500,-156.1241,-72.3938,-182.6319,-62.7833,-204.5683,-46.8878,-183.1598,-24.6128,-305.6572
-209.2861,-96.6420,-204.4690,5.7389,-225.3360,-98.6603,-288.0995,-57.2297,-204.4809,-13.1942,-126.4201,-61.8456,-167.6747,-22.0699,-194.1718,-49.8228,-228.4657,-50.1793,-378.9752
-198.9098,-123.1056,-165.2989,62.7257,-198.0136,-27.5144,-295.7919,2.7484,-241.2491,-20.1745,-86.7907,-27.2089,-142.8939,70.3459,-183.7848,12.6831,-244.2154,47.4119,-328.9521
-167.3415,-150.3463,-115.5500,100.0109,-134.0511,134.6698,-223.2415,169.9308,-226.7899,-5.1592,-51.5667,14.3121,-121.0258,155.6010,-177.3835,93.8370,-218.7449,154.8122,-180.6791
-131.5883,-159.6855,-103.7418,55.1645,-120.0144,178.9448,-213.9914,225.4938,-200.2545,-4.5280,-52.1253,1.9243,-134.1567,92.1216,-204.9777,79.0557,-195.9252,111.3039,-93.6095
-73.1717,-167.9273,-105.7762,-25.6643,-158.7332,40.1572,-259.6363,69.6767,-177.1632,-46.3359,-66.5360,-58.6320,-170.7887,-95.7561,-211.6445,-22.3588,-169.8704,-24.0970,-107.4738
-34.9154,-186.1668,-76.2947,-49.0587,-168.4095,-83.1115,-250.8272,-71.4610,-137.3053,-34.5659,-49.5588,-100.1701,-155.1777,-188.0678,-160.9094,-70.7063,-126.8755,-43.2475,-140.1832
-84.7302,-187.6209,-67.7850,7.1335,-139.2638,-51.5551,-221.9073,-36.5258,-121.2229,56.4080,-31.5998,-86.4406,-95.2963,-125.8489,-143.9663,-30.9042,-104.9316,51.9166,-170.8903
-155.0623,-128.8129,-126.0559,67.1594,-142.7742,9.0369,-239.8661,6.0390,-135.7323,95.8533,-63.4983,-40.5808,-87.5724,-75.0218,-163.9077,-14.3625,-117.8707,43.3622,-224.3258
-119.4135,-58.2385,-158.8055,40.3199,-165.9786,-33.9172,-233.6152,-90.6737,-118.0109,8.3067,-91.2722,-18.6496,-107.7184,-99.9382,-97.4997,-59.7440,-117.9961,-86.0761,-257.9786
-11.4677,-84.7057,-91.7413,-53.6453,-122.8541,-102.4918,-153.8894,-195.6514,-93.2589,-126.2555,-46.9048,-51.2309,-59.4197,-112.9247,4.4934,-86.1213,-89.5877,-115.9948,-234.5061
37.5961,-156.2199,-9.3043,-99.3438,-38.6264,-97.5770,-81.3254,-172.8577,-118.8579,-187.5803,14.1357,-84.7511,1.8844,-90.8136,-17.5016,-67.1347,-73.6480,-39.8259,-204.5366
30.0222,-123.6151,20.7985,-66.9442,-9.0417,-86.2072,-65.1498,-98.8044,-130.2325,-140.4365,33.6345,-56.5055,-4.4901,-72.2083,-98.7295,-56.1710,-87.9206,-77.5631,-195.7929
45.0351,-39.1495,48.2682,-44.2707,-21.1894,-144.0721,-60.6485,-69.6544,-83.6795,-59.5448,55.4616,-11.1138,-0.9862,-50.1798,-89.0824,-58.4106,-119.5495,-208.3661,-155.0976
37.4069,-43.5690,61.1659,-62.0128,-31.3985,-193.3060,-50.5279,-36.6925,-56.4105,-16.8240,76.2103,-17.6278,46.9638,-18.3249,-37.4493,-38.4193,-167.9645,-214.0583,-82.1332
-55.0848,-81.5359,-14.4497,-82.0659,-83.6178,-154.6191,-69.2980,40.9395,-66.7879,5.3719,21.8730,-51.5817,31.5859,-7.5706,-32.0063,-16.3318,-222.9837,-128.0177,-53.8564
-125.4949,-68.9991,-105.0601,-120.8991,-156.8567,-91.5412,-106.1309,81.0010,-50.4890,21.1614,-59.4572,-74.8176,-42.2500,-26.8883,-28.9649,-28.5956,-243.5878,-124.9787,-65.8731
-69.4455,-67.6454,-79.6939,-178.2287,-126.8109,-65.3063,-89.4231,37.6718,-17.2046,-12.8816,-51.7043,-93.0541,-43.4887,-44.6408,6.1989,-46.0830,-197.1886,-143.4081,-35.6742
22.1954,-83.7691,4.1690,-179.2451,-16.1901,-36.8425,-7.2377,-6.5585,-16.9301,-98.7451,5.0776,-88.6934,14.5123,-31.4066,29.6480,-32.7590,-106.1142,-69.7989,24.8675
41.3203,-55.5058,10.0565,-135.7505,8.1477,-2.6051,37.6247,4.5797,-39.6493,-171.0744,-0.3725,-55.3838,9.1696,3.2068,9.3735,-14.9389,-48.0281,-14.6821,42.6673
27.6930,-44.2909,-50.0677,-145.2914,-63.8756,-16.7340,-6.5820,32.8135,-46.1337,-170.5933,-49.1015,-48.9125,-53.1826,18.7738,-38.4474,-16.8348,-70.5054,-71.9707,49.1661
32.0300,-104.8938,-92.3719,-199.5581,-97.9254,-70.3317,-37.9083,43.4241,-11.4137,-91.4769,-71.9713,-88.6331,-83.6284,-8.3688,-68.4179,-22.9228,-117.2534,-144.4531,90.2590
18.7249,-147.7125,-110.9630,-226.1395,-92.4815,-131.0345,-16.7594,22.7985,32.5643,-4.7296,-81.7277,-128.5674,-91.0790,-65.3587,-76.0066,-41.7184,-132.1026,-177.4665,70.6917
-38.8612,-124.5671,-139.3187,-216.0325,-149.3709,-202.4806,-68.9532,-25.2447,5.6247,16.4112,-107.2149,-142.9764,-135.8513,-118.1807,-117.7038,-85.7630,-164.4857,-224.0618,-68.2575
-106.9237,-88.3490,-176.4252,-169.8477,-242.4862,-247.4272,-199.5823,-38.4614,-67.5084,15.8416,-127.1540,-123.9787,-182.2581,-131.4077,-160.3027,-108.0373,-244.4660,-272.1744,-177.9859
-148.8529,-70.3359,-196.4656,-115.2672,-264.2691,-228.3839,-230.2925,11.5324,-62.5964,65.3946,-120.1170,-87.6264,-150.3227,-121.0156,-91.1953,-85.5967,-307.1725,-276.8878,-150.5843
-181.9534,-98.4905,-199.6852,-132.3442,-234.4104,-189.7436,-156.6383,56.9507,0.9904,128.6785,-110.1560,-103.5176,-87.0764,-145.3731,23.7069,-71.5105,-338.9091,-243.1852,-106.9219
-248.7097,-168.1753,-228.3627,-164.6783,-263.4088,-136.6323,-162.7626,84.5758,-9.6899,161.9664,-139.9593,-158.7266,-114.8385,-171.9051,8.7054,-67.4126,-370.0596,-150.7976,-134.5116
-317.5374,-167.4216,-281.8196,-66.6405,-345.3620,-17.8813,-247.5098,144.6199,-76.1844,186.0204,-198.6118,-128.8710,-209.5691,-99.1166,-102.7384,-16.6713,-334.7145,-0.3899,-137.9052
-310.2381,-66.1866,-282.5049,72.2651,-364.4663,100.7647,-262.7629,186.7031,-98.5599,185.5197,-219.6140,-29.6149,-246.4059,26.3583,-173.0416,43.2452,-209.6484,96.5435,-84.3594
-253.2409,-5.8424,-222.5523,66.9762,-304.6397,120.7836,-226.9520,157.5377,-104.5000,130.3669,-193.8222,-9.4886,-235.0795,55.5586,-217.2554,36.4454,-132.7977,85.1427,-61.9725
-223.3208,-24.8205,-193.5103,12.2277,-264.3271,98.6848,-230.0298,138.9896,-144.1430,50.3660,-183.9594,-44.9295,-259.9151,4.6855,-278.5105,5.5095,-135.8224,70.4639,-64.1299
-180.6481,-10.2767,-189.7628,76.2071,-256.3684,107.4848,-238.1854,162.4341,-180.1783,-28.4089,-184.9932,-4.1783,-286.3282,3.1583,-322.9035,16.9291,-63.8145,113.3486,-36.9543
-78.7395,41.9760,-118.7288,172.6742,-210.1214,109.2103,-230.4406,137.1537,-194.4394,-86.4614,-132.2206,73.6859,-258.1469,53.2957,-351.1000,36.1360,80.3208,136.8702,-39.8827
-3.5412,51.0996,-21.8783,162.4827,-152.9331,78.6502,-247.5278,56.9054,-198.7703,-87.8199,-55.7351,81.4736,-217.9808,66.3177,-350.7032,18.8335,105.9541,78.9230,-103.4068
-13.6086,25.6469,-12.2055,65.0230,-157.5189,26.7507,-240.1219,-2.3817,-173.7585,-78.6294,-39.1539,32.0748,-189.4524,8.9301,-263.8611,-24.0168,-8.4492,-32.7373,-140.3284
-48.8465,-3.0786,-60.8020,-36.1448,-182.5016,-40.8420,-155.5933,-20.9630,-127.7117,-118.1962,-64.9627,-20.1797,-140.6387,-82.0984,-139.4169,-67.7227,-105.1636,-118.8327,-136.2390
-67.4552,-32.1277,-80.6883,-57.3640,-171.3071,-69.8521,-85.1768,4.9281,-96.1259,-123.4217,-64.8419,-34.6937,-87.9302,-119.3989,-66.5941,-74.4665,-125.1578,-123.4043,-155.5242
-69.6484,-32.7400,-84.4512,6.7597,-169.9546,-50.7186,-105.1120,58.4443,-74.7543,-48.6876,-46.3325,8.6419,-71.2070,-55.0021,-28.8185,-33.1898,-127.4963,-108.0974,-166.0976
-61.9214,-14.1687,-109.1934,24.2748,-199.1453,-76.4040,-152.1225,74.0638,-65.3698,-7.6688,-54.7887,34.0740,-86.4519,19.0657,-29.7988,-5.0596,-155.4373,-144.4355,-114.3557
-97.3351,-27.7457,-133.6084,-46.3762,-188.7557,-115.2083,-152.7959,80.9604,-76.2238,-8.3966,-84.2081,-23.4957,-104.3927,4.0597,-86.9567,-15.4446,-199.3042,-134.0995,-44.2666
-172.2768,-53.4830,-126.1602,-73.2416,-116.3274,-43.5188,-96.5326,148.5944,-59.4332,43.6829,-91.3637,-79.3774,-86.5878,-64.6153,-89.6378,-15.6374,-200.8123,-8.4972,3.1887
-163.2873,-62.0953,-89.5346,-52.2910,-53.1648,34.5865,-22.5630,166.3404,-17.5625,58.8027,-66.5245,-76.6855,-40.8516,-129.9750,-26.2896,-19.0122,-132.3853,57.1359,8.1706
-63.0765,-95.1556,-70.5968,-98.9270,-66.9121,-43.3522,-28.2963,34.2101,-45.5259,-53.8364,-54.8813,-89.1508,-52.0710,-168.8952,-75.8294,-68.6668,-77.5003,-47.7416,-85.0064
-29.9304,-139.3834,-112.5905,-151.5705,-156.9430,-158.3672,-137.2452,-100.4237,-121.7413,-127.5050,-85.1126,-119.5916,-123.3971,-141.2410,-195.3707,-107.4013,-101.5784,-156.1609,-237.4668
-84.9193,-119.8401,-162.5763,-115.5409,-237.0324,-167.7825,-197.8929,-125.3548,-112.8158,-64.3550,-110.5957,-102.4226,-124.8133,-98.9465,-147.1419,-97.5822,-132.3469,-160.2164,-300.1351
-92.2057,-56.9385,-123.8105,-81.4853,-198.4737,-155.8522,-113.5701,-133.6891,-34.8385,-26.2864,-75.7632,-75.0988,-26.2334,-156.1133,13.2783,-106.5955,-103.2214,-152.0590,-250.6067
-29.5794,-23.0958,-12.5476,-93.0721,-59.0302,-174.7433,-8.7651,-149.4686,-2.8182,-70.4449,7.1042,-71.2865,63.5436,-228.3902,91.1325,-130.9940,-68.7412,-161.1112,-202.8666
14.8507,-19.9754,59.9300,-64.3975,39.2415,-167.0791,1.9372,-106.2999,-2.7810,-59.4040,83.5471,-35.6649,113.5849,-156.9391,143.1178,-94.8537,-94.9986,-155.6851,-195.4026
5.7526,-28.8271,34.0574,-19.2715,23.5408,-156.2948,-27.7973,-53.4051,20.4008,21.8399,99.3562,11.7008,146.9941,-47.4711,216.1691,-39.8584,-162.7002,-184.5263,-187.9079
-35.1859,-50.9932,-51.2033,-38.9184,-40.6148,-158.4489,-32.8200,-38.0786,38.6332,64.0438,39.1377,-3.0619,124.0703,-65.7866,193.8514,-41.0062,-201.2898,-229.7646,-146.0614
-63.9870,-79.9686,-108.6690,-85.7582,-69.2740,-105.2170,-10.1955,3.1749,53.4053,65.7383,-28.9356,-48.2936,67.4242,-117.8666,130.1657,-44.9598,-175.6584,-180.9328,-40.0209
-53.4839,-118.2372,-91.7592,-116.2556,-37.8234,-26.0532,52.5812,68.5182,103.3606,95.7877,-31.7414,-74.9861,68.0451,-93.3833,161.7356,-7.0104,-132.3870,-66.7519,82.3597
-39.5365,-142.5641,-55.5539,-143.1474,22.1064,-20.5128,139.7599,75.4347,150.0273,130.0343,-12.0070,-100.2075,93.1703,-81.8180,192.3917,5.9450,-105.0662,-15.2659,109.1361
-33.7507,-80.0975,-59.6265,-138.8959,55.1957,-69.5301,179.8231,15.9333,146.5752,80.3565,-36.1099,-102.1323,64.0895,-126.6380,136.3653,-34.4314,-33.2828,-31.9006,65.3294
25.2142,66.7650,-48.8726,-77.9912,65.6551,-93.0855,159.1259,-58.4123,127.3901,-46.6625,-50.7896,-36.7669,40.2687,-125.4343,113.5613,-63.0096,109.1049,-46.8547,80.4519
145.4413,198.5964,47.6603,9.9095,124.3392,-67.4820,155.8024,-103.3068,133.9821,-126.8805,15.8057,67.1631,92.4375,-43.8042,159.9500,-42.3567,248.4404,-51.7551,159.6014
273.4783,276.5750,186.9644,89.0834,240.2616,-22.2886,225.1376,-97.4357,176.3260,-110.2417,122.0317,160.1993,176.5194,41.2158,192.0214,-2.7893,359.5291,-73.2347,242.4105
393.0196,332.7942,293.6240,119.6622,342.0724,-20.4394,340.5887,-73.4722,256.2989,-90.8705,201.2106,220.2316,256.8726,78.9884,240.7636,19.7609,467.8631,-115.4093,346.5012
473.9221,373.4023,362.4338,102.8362,409.1235,-65.5611,440.9557,-57.6650,337.6333,-99.5446,257.5472,243.2218,346.5407,88.5310,348.5340,26.9649,526.3552,-146.9560,451.7113
476.0394,400.3385,414.4725,113.9010,465.8235,-72.7823,482.5938,-24.8637,370.5422,-65.5390,308.2059,259.5020,413.8714,103.3781,430.6357,38.6967,509.8361,-143.1514,467.5413
462.9890,408.8569,442.6287,142.8470,478.2996,-43.6563,468.4865,-7.2616,365.7339,-25.0564,333.7242,276.7390,414.8073,110.3259,436.6941,41.4530,492.8603,-148.9090,400.6224
488.2037,358.5188,424.5984,100.2262,415.0970,-54.5688,436.6507,-55.8931,352.1455,-60.0064,313.6687,250.5596,368.1816,81.9860,407.2948,17.0683,496.3546,-189.8350,335.9034
467.0907,273.7050,360.6145,57.5279,336.9513,-48.7904,398.6917,-84.9926,314.8561,-96.8098,262.4656,205.0674,317.2079,66.8280,357.5132,10.3085,472.0211,-168.4168,295.6842
367.3598,240.5000,300.8456,131.7322,317.1144,48.2927,338.2527,-10.9607,252.7873,-52.7445,223.7197,211.2177,283.4415,114.4819,294.0807,57.9684,443.0076,-22.6588,275.6064
296.1564,241.2539,295.3635,217.0567,362.0194,142.0173,293.2018,83.4287,212.6414,1.0109,223.9071,228.4925,274.3061,153.2791,257.7503,107.3320,446.9328,140.8847,299.4231
285.2628,195.0495,308.0058,190.6127,425.2465,155.2961,312.5954,114.2074,203.4518,-3.4689,231.5545,188.0062,274.0853,110.5124,241.5279,108.2051,435.4561,209.1423,339.8647
259.4278,116.3508,263.5156,117.6548,424.2317,129.3924,312.7632,86.9520,159.8420,-48.4601,197.5709,122.9660,237.9611,33.3949,171.4103,73.6963,362.8662,175.2166,308.6063
207.9224,54.5018,175.2737,48.6884,325.0317,70.3717,190.9272,2.2856,56.1213,-116.0926,131.1561,61.4896,153.4332,-28.2280,34.6182,17.4811,261.6042,85.4295,187.8931
167.8512,13.8970,127.0638,-8.5636,227.9068,9.8576,64.3575,-80.9492,-18.8611,-157.6974,90.2336,4.7875,89.0640,-69.7019,-49.8908,-28.7536,202.6879,47.4597,77.3745
139.3734,18.8557,149.0649,40.9941,227.1038,52.1542,105.4904,-53.1840,9.4840,-107.1091,103.3544,20.1290,105.6873,-50.4384,12.5311,-4.4587,226.7009,135.3376,53.3451
131.6787,86.1103,202.0265,185.7507,269.5524,145.5965,229.6628,39.7948,78.5649,-9.9063,145.5385,119.5087,155.0286,36.5168,120.2888,64.3477,279.7577,216.5554,71.5438
165.2129,151.6884,256.2549,249.3154,297.4069,144.0853,264.8269,72.3827,102.2462,42.0181,188.9637,186.7197,172.2610,99.7406,125.4372,88.3064,282.6191,153.3174,85.2092
210.2963,153.7230,302.9325,198.7839,330.0831,95.8562,239.9718,64.1250,99.9663,51.3845,222.8980,168.7287,180.3422,77.9446,71.1037,67.8056,264.0572,68.1688,129.3864
212.5062,106.1662,303.2820,134.2917,315.5700,89.9713,231.3674,66.0571,114.7505,53.7443,215.8938,114.8766,182.2825,6.5004,70.2016,48.9901,261.3863,83.5045,195.9670
155.0322,46.0759,218.7523,53.7719,191.4164,53.9522,207.3712,50.3647,137.6405,63.2794,141.0219,43.7519,121.7960,-50.0476,105.2851,27.1580,199.7977,89.7127,211.1428
71.3232,-5.1170,100.4405,-28.2071,81.6979,-2.6019,191.3186,53.5506,163.1016,109.1994,51.9433,-18.1556,44.9357,-40.6303,133.4886,22.3793,72.8835,50.1375,198.5647
9.1460,-37.0734,47.2932,-10.5664,120.3485,63.6199,262.8848,131.8388,188.7933,169.6493,26.4359,-15.7278,63.1858,16.4529,176.4492,72.1564,17.8881,114.8099,238.9965
-22.0735,-39.4351,69.5702,73.3769,217.0020,216.3492,374.5884,204.6898,189.3416,163.6591,49.4240,23.6051,148.7652,36.0057,229.2151,122.5092,71.1976,273.5608,286.0094
-35.3762,5.4421,106.1730,116.8819,258.0331,283.8497,419.1659,189.2669,172.5458,105.8334,72.5018,49.9875,210.2947,17.6323,274.6208,116.8292,129.8407,344.7407,247.5407
-16.5981,73.4321,140.8452,148.9173,281.1981,255.0021,371.8052,133.7062,161.9171,91.4601,109.9440,87.6729,246.2121,49.6503,310.0067,102.4163,155.5478,303.7018,152.0055
37.0958,88.5516,175.3062,184.6797,287.7806,214.2107,250.7285,100.4222,127.3322,110.3984,156.9444,126.3181,240.4382,117.2170,271.6910,108.6971,159.1118,236.4168,70.1211
90.4876,37.1486,177.1915,135.1279,209.4504,156.8997,111.6311,91.8930,60.7572,73.5066,157.1735,107.2517,150.2489,123.5015,140.1264,88.5299,120.6678,134.3374,16.1833
132.0345,-7.9112,164.3309,30.2500,116.1214,67.6668,48.8156,83.6112,28.5756,-4.9345,132.2745,56.1988,66.1085,70.5473,54.9101,41.4856,83.7707,24.7807,-6.6959
163.0743,-6.0835,202.5382,6.2209,135.1302,9.8563,60.9596,55.0765,50.5358,-19.2803,157.9249,36.5742,94.1336,39.1445,87.6661,24.5596,122.9099,37.7108,3.7514
154.4006,35.2489,267.0631,69.7753,212.1494,42.1024,54.1440,49.8657,66.0252,52.2895,205.4280,52.8426,150.4553,81.1016,109.4688,53.4856,197.8033,163.4221,27.7846
114.9380,102.3609,274.1718,133.3798,216.2234,136.5583,8.6603,121.5268,44.6998,107.2569,198.6125,95.7364,121.6923,181.6954,45.6855,97.9050,222.7781,234.5239,56.4979
95.9378,135.5374,228.8558,154.9932,162.9343,210.5479,-24.5600,190.5596,8.2292,78.0281,155.0902,133.9014,52.7033,234.1306,-17.0738,119.0214,189.4939,204.6192,92.8266
88.7602,82.3620,181.7178,111.4161,138.1259,210.9071,-19.7068,153.9594,-10.4437,27.1268,119.6969,100.3413,21.5722,156.0825,-16.1912,93.5572,123.4797,161.5914,121.8564
58.4094,-3.3056,125.5360,10.2155,135.1091,148.5926,24.0806,70.4142,13.4197,23.4638,82.7608,12.5460,27.2186,51.6139,28.2271,49.7082,43.8522,121.3382,118.1610
12.2431,-56.4344,48.5784,-61.7170,100.8067,78.2339,62.2482,34.9385,45.6983,49.7186,39.4598,-38.8892,42.1061,44.8215,72.8324,35.5299,-28.4326,72.5288,72.0450
-55.8509,-86.0053,-19.6650,-51.5351,39.1047,66.1776,35.7185,36.7927,30.0914,84.5854,1.7176,-48.5961,40.2417,63.2504,73.6298,45.3526,-88.1672,81.0852,26.9250
-130.9324,-90.5282,-57.3666,-30.4571,-10.9781,103.8021,-1.8982,45.1201,7.1206,118.9518,-35.0029,-65.4627,15.1302,20.0436,49.0934,42.8566,-121.8271,135.2782,49.8334
-124.2769,-68.4863,-59.5716,-65.5557,-35.6079,81.2010,29.6725,42.8784,40.6647,108.9721,-53.2635,-81.3950,2.2359,-17.5222,66.5586,25.1135,-106.8538,115.8627,110.4253
-47.1036,-69.8689,-34.5087,-98.9052,-45.5653,-11.4198,63.5091,21.5274,81.7394,75.2711,-30.1731,-75.9198,17.6620,2.3045,116.6082,19.3321,-79.8734,48.5336,118.5709
-39.7382,-77.0029,-20.4752,-48.3269,-53.3680,-11.4498,31.8680,44.3947,79.1684,112.9833,-4.9862,-45.5104,28.4770,47.5571,136.5353,46.8351,-84.8758,65.0861,99.3778
-93.0972,-12.8806,-34.2511,39.8018,-68.3839,100.4706,5.7342,134.3366,71.4245,182.5188,-16.7817,17.1865,13.9906,106.2495,111.3320,85.2553,-85.5002,94.7891,117.1006
-72.6442,59.5186,-49.0410,47.4867,-95.4135,118.4134,6.3041,161.3715,58.9746,140.4364,-38.7266,63.5855,-24.1036,138.3866,49.7722,76.9615,-72.9201,-7.6950,113.7206
-24.6287,16.3150,-73.9511,-30.9632,-129.1865,9.3387,-32.0521,78.8301,9.0263,22.4519,-57.3642,24.2148,-74.9006,83.0665,-6.9609,25.2489,-117.7335,-121.9274,62.1429
-65.8301,-85.4390,-128.8768,-87.9210,-147.0878,-22.6121,-58.6844,40.6830,-18.0480,-10.6089,-90.0479,-50.4256,-95.8818,11.8929,19.7762,9.9119,-196.0076,-67.5479,63.0969
-108.6603,-114.1423,-151.9528,-78.2765,-115.8793,55.8700,3.1867,93.1535,22.5946,34.1169,-105.0806,-62.4388,-67.7938,21.7977,89.4504,43.6876,-185.1554,46.3122,117.6636
-52.0905,-84.2080,-103.3620,-63.0624,-40.1766,75.3775,58.1953,90.0743,48.4708,34.9518,-75.4216,-39.5282,-46.5270,42.3803,63.7962,46.8017,-90.3956,46.0495,112.5945
-0.5046,-72.4230,-65.6476,-75.3488,17.2331,12.1356,21.8309,7.9133,18.9392,6.7657,-53.2157,-53.3774,-64.5904,12.6086,-26.9947,11.9878,-41.6164,4.6515,66.8832
-48.3080,-77.1699,-84.6410,-60.7986,24.1720,2.0745,-4.2172,-8.8201,13.0183,62.2547,-66.5565,-70.9716,-78.6766,23.7753,-35.2394,21.7959,-75.5402,51.4562,72.8805
-117.9383,-69.3645,-92.6241,10.5158,23.8390,76.0901,50.5059,68.1776,50.2796,184.3565,-71.3730,-42.4599,-75.4444,80.7226,10.9309,74.2368,-113.2352,126.6374,96.6902
-114.2826,-56.5903,-75.1769,48.9947,26.3421,105.3025,86.4642,94.9493,52.3685,198.1071,-64.6542,-16.6648,-90.0793,43.6421,-13.7969,67.7430,-103.2634,98.7535,77.0179
-30.1647,-59.2265,-75.7736,-35.8192,-4.8518,-7.5456,48.3642,-13.8925,1.8042,16.3327,-74.0613,-49.2555,-106.9215,-82.3841,-80.5535,-19.9855,-64.0648,-35.3231,45.1114
73.7061,-76.5154,-58.6777,-159.0648,-22.4496,-160.3805,33.9776,-148.5516,-32.4722,-178.2656,-63.5079,-97.3520,-77.4523,-136.4890,-91.1646,-86.8523,-36.2929,-146.1812,42.7772
96.0573,-80.2611,-4.8981,-174.6145,33.4136,-170.2549,94.1720,-148.6389,-12.1628,-162.0719,-18.6908,-98.1616,-17.3858,-79.8328,-54.1789,-64.5165,-45.3522,-132.4814,71.9219
14.1739,-48.5179,2.7245,-115.1742,70.4011,-56.1868,131.8855,-32.0462,25.0761,-13.5445,-9.0817,-67.3941,11.7714,-0.8653,-27.5028,-7.0812,-77.2733,-56.3639,101.0793
-46.8126,-0.5207,-36.9871,-97.7527,4.0113,5.7414,81.3763,37.9200,23.0131,21.1315,-41.8083,-43.4015,-9.6040,57.6962,-26.4933,11.1689,-89.7929,-42.1160,78.1919
-0.6882,22.2343,-22.1204,-107.2386,-57.7913,-18.3390,14.0645,-7.4794,-23.6580,-82.8743,-38.8125,-26.7436,-43.3696,77.9313,-44.8280,-7.2710,-66.8109,-80.0161,22.7256
62.8641,-3.7621,31.8732,-90.9128,-19.1357,-31.6841,5.1048,-87.5685,-63.4365,-149.5230,-2.4747,-27.0502,-47.5884,32.7825,-71.2689,-23.9424,-39.0039,-73.9363,19.0200
49.8061,-55.0475,35.0089,-75.2751,43.0440,-13.9958,45.4891,-116.0680,-55.0002,-108.2112,5.0151,-53.1691,-19.8791,-29.4011,-71.7690,-23.6316,-34.9382,-16.7405,52.0408
-3.4157,-74.7057,6.4993,-63.4572,52.0081,-0.3425,88.0617,-84.6938,-23.6559,-47.9136,-6.7690,-63.5833,5.7044,-45.9938,-26.2745,-16.2700,-50.0790,21.0450,21.6001
-54.3323,-58.0010,-25.8232,-44.2361,8.1465,-6.0240,59.3810,-62.4060,-32.4308,-42.8919,-23.9420,-54.1549,-9.2052,-62.8501,4.3247,-29.3355,-81.2156,9.6142,-77.0877
-123.8066,-65.4765,-99.8100,-64.5951,-80.9582,-35.2221,-70.0287,-106.8662,-91.3115,-58.5999,-77.9380,-88.4612,-59.9807,-113.5170,-49.5981,-66.4509,-131.7166,-7.7315,-151.8122
-188.6511,-96.5165,-161.8811,-105.3565,-143.6261,-41.2732,-164.3792,-138.5489,-122.3042,-19.4656,-126.0490,-140.0205,-82.4519,-114.0055,-115.8217,-72.7616,-169.6796,18.2093,-141.6994
-179.0372,-86.8237,-123.2987,-89.2350,-96.3254,-2.9862,-90.9420,-64.4597,-69.8958,58.6023,-94.2050,-117.3416,-38.8221,-48.9939,-83.5831,-29.8716,-163.1414,38.0613,-71.6381
-101.4974,-55.7863,-59.1181,-72.8915,-29.1873,-41.5454,28.3201,3.5050,-2.6279,72.1948,-38.3926,-68.2756,2.6240,-38.9972,-27.1112,-19.0343,-145.4740,-52.6591,-30.4126
-31.0381,-65.7355,-68.5785,-124.6252,-69.4837,-198.7791,18.5065,-67.0802,-4.4247,4.5455,-43.5795,-82.9213,-28.6816,-92.9125,-62.4963,-68.9347,-153.0358,-203.9021,-62.4403
-4.2605,-77.9495,-90.3950,-125.4669,-143.6179,-265.5213,-61.2272,-155.3092,-43.4019,-36.7695,-64.5555,-87.9017,-83.9236,-72.0457,-108.6423,-79.7253,-152.7853,-232.2176,-94.7646
-7.0142,-40.2361,-60.9584,-0.3761,-144.5000,-122.2293,-95.6180,-100.7685,-60.9229,-2.9647,-42.7780,-6.8477,-93.0749,33.2324,-81.1982,-11.1339,-115.5642,-119.3130,-64.8679
-11.0419,-6.0420,-24.9463,102.6662,-122.0487,43.7422,-102.9482,21.1678,-65.9168,35.4800,-13.3305,69.3347,-77.2160,81.1632,-70.0405,43.1942,-75.0965,-40.1053,-12.6918
6.2604,-32.0391,-11.4211,72.4419,-122.2002,62.4492,-93.0082,71.7108,-60.1679,32.7346,-4.2334,57.2299,-67.2021,34.9023,-96.3860,33.9241,-69.8845,-65.9649,22.2628
10.7305,-91.3614,-18.5430,-7.8271,-102.2297,0.7695,-45.5038,59.9598,-28.5900,29.2472,-4.3726,-0.4990,-48.9180,-7.4575,-55.6088,15.9685,-103.8951,-80.8241,25.4361
-67.6204,-125.7010,-61.5490,-19.9091,-68.0027,-1.5429,-25.4338,63.8224,-15.7426,67.7990,-24.6659,-40.7055,-32.7236,5.6879,10.8327,28.2191,-143.2529,18.5102,-30.8473
-195.9966,-88.1912,-103.1053,62.5055,-65.1224,105.1947,-67.9088,111.5915,-53.2149,127.5937,-60.5553,-31.0135,-40.5127,36.3331,-16.6631,54.7376,-123.5066,186.5566,-94.8471
-243.8613,9.5294,-82.4188,148.9292,-69.9151,227.8298,-90.1020,153.6613,-79.2699,142.8781,-69.5732,16.9402,-42.1923,42.1646,-75.0123,64.7825,-37.0367,276.7565,-74.5204
-168.3937,77.3848,-21.3048,123.5569,-29.8539,214.0766,-48.9444,111.5399,-55.3993,82.5398,-38.1083,35.9048,-7.6653,28.4782,-63.1599,39.8013,33.2660,212.9149,-22.2545
-47.4474,67.4806,41.0500,39.7652,44.7926,78.5419,3.6194,6.6406,-35.6974,-3.0116,15.6630,15.9102,35.2106,29.7296,-39.7483,5.8294,49.2926,91.3416,-31.3671
48.9983,39.2051,101.6121,45.7403,77.9632,-13.1907,22.9713,-45.9611,-49.6283,-48.4537,70.1728,31.4552,47.3449,43.4247,-59.8655,2.8884,59.1554,24.4793,-49.7254
85.4249,37.1420,116.9091,111.7921,17.2455,-15.9103,-5.1722,-19.9566,-57.4261,-43.4851,85.2823,79.5137,27.0385,34.9501,-67.3156,14.3997,69.3966,-7.7842,-36.1954
51.6923,38.5505,59.2920,113.3634,-74.5236,-5.9010,-63.5975,2.3699,-40.5766,-7.2234,47.3820,84.5930,-0.1716,28.8230,-41.0184,10.8802,53.9157,-35.6634,-64.6290
6.8362,29.4029,3.8008,67.9197,-104.2752,6.9491,-104.0405,-12.5822,-26.5464,32.6836,7.5994,53.2650,-17.3551,69.3090,-40.7675,9.1894,48.8866,-26.3201,-130.6752
5.7450,13.9631,-4.3664,43.2824,-96.0569,36.5285,-119.8103,-29.3415,-38.6999,32.3219,-7.1621,32.4732,-37.9437,95.0698,-94.1308,11.4474,77.0679,3.0951,-149.1948
9.9272,6.9656,-11.4386,49.0322,-104.5326,50.8981,-135.6123,-31.5207,-74.4276,-22.9878,-22.8970,26.2115,-68.3596,32.2050,-149.0180,-8.0229,98.1581,15.3775,-135.3155
1.8612,47.8560,-8.8976,104.7321,-92.3775,48.9057,-132.4937,-34.1727,-105.3514,-93.0087,-24.8201,51.8714,-72.7716,-42.7598,-138.4036,-28.7978,118.6716,39.1616,-130.6804
44.0402,117.5362,48.6565,174.9049,-42.4969,44.6746,-99.1929,-54.8332,-100.1647,-137.6320,18.0495,107.5231,-32.2216,-22.9557,-72.5007,-17.3577,172.4491,69.7888,-96.3370
113.9005,117.9301,103.4850,153.2516,-11.0843,28.8824,-70.2076,-83.7530,-71.9053,-143.6320,59.8659,115.6773,8.1078,48.8413,-35.2137,5.1147,201.6308,63.8279,-39.5912
94.6653,42.7603,84.9699,68.2290,1.2220,31.1833,-57.2103,-76.9646,-70.1679,-113.1077,48.3583,55.1618,7.2545,79.2901,-66.3223,14.4276,143.0757,68.5597,-34.4375
-10.9320,6.9377,37.2256,35.2071,33.3762,74.4582,-55.2149,-22.6218,-105.9369,-81.6331,13.6340,5.7330,-13.4047,73.1945,-111.8707,18.6756,50.8844,127.9677,-68.6495
-82.5374,37.8484,17.6251,16.7163,60.4707,97.8406,-64.9285,28.2694,-126.1447,-86.8096,-2.4353,-10.8388,-15.6820,68.5371,-106.5792,14.6063,-4.7460,160.5065,-71.9748
-82.9061,40.7824,6.0245,-52.0118,46.1839,62.7845,-60.2320,32.7359,-93.1327,-95.2016,-8.8822,-37.5096,-4.2268,47.6849,-49.3164,-5.4734,-36.5518,108.6950,-59.2033
-59.5228,-11.2879,-23.7585,-86.1388,-12.2975,10.8513,-58.6240,-14.6409,-53.5112,-64.7350,-21.8964,-56.3676,-17.3365,-3.4688,-10.1935,-29.2273,-64.6030,15.4732,-93.6190
-17.5043,-49.8294,-54.2701,-46.3052,-105.5541,-29.6895,-131.7235,-100.3459,-75.5726,-56.9581,-35.1715,-33.0777,-64.6855,-39.0786,-56.9678,-49.7589,-65.7748,-89.4430,-167.0853
54.8471,-46.6747,-55.9875,-12.3603,-169.7684,-45.3534,-231.2101,-170.5438,-142.5546,-138.6590,-35.1913,7.1952,-106.5055,-20.4000,-148.0486,-61.4867,-24.0334,-164.5382,-211.5432
115.4009,-22.2464,-23.8840,23.0352,-140.5698,-9.0365,-237.7143,-171.0373,-179.9565,-228.6459,-19.2507,45.1527,-121.1564,16.8506,-187.1371,-48.3610,47.8326,-133.2242,-194.5101
117.1128,19.7326,3.6935,102.6155,-83.4992,48.9088,-192.4410,-137.1693,-167.8198,-219.0733,-11.0628,81.4883,-132.0210,14.6277,-177.3867,-25.8048,115.1416,-38.1011,-144.7168
65.2816,50.9691,-18.8258,123.9906,-83.8727,59.8447,-185.5353,-136.0172,-144.1945,-160.4063,-37.5538,72.5800,-139.1189,-28.4086,-171.5740,-30.9256,118.2767,-0.7918,-90.4741
-4.0975,11.3962,-71.0422,6.5266,-83.7129,24.0525,-158.2642,-143.9386,-120.3008,-139.2172,-77.5628,-15.2999,-115.6955,-68.8740,-143.9274,-51.2265,30.2629,-1.1758,-29.6742
-57.4176,-69.1185,-77.5793,-129.8351,-7.2952,2.3457,-66.9035,-94.1550,-77.5134,-110.2458,-76.9083,-115.2500,-70.1501,-71.0630,-70.2219,-44.1628,-74.6637,52.5766,25.3462
-79.0093,-85.5978,-16.9090,-158.8268,96.1589,32.6093,-0.2067,-10.7763,-37.6366,-40.3652,-26.4999,-138.9114,-26.2514,-37.9118,-10.6539,-17.9896,-108.5827,118.7780,29.4031
-78.5739,-48.6109,29.1793,-124.4605,135.6052,76.1443,-16.7798,4.1623,-53.4696,-24.7564,14.4545,-105.8427,2.5698,-18.9213,-13.6846,-17.9285,-100.3576,103.7277,-42.6357
-67.2227,-54.4591,-8.8683,-99.0099,81.8353,50.8384,-83.4974,-74.6348,-110.0902,-85.8570,-1.7629,-85.1702,-10.4186,-46.6202,-57.1432,-46.9844,-106.1925,25.1872,-140.7925
-34.7807,-68.9137,-69.3162,-58.2046,-9.7769,-30.7010,-136.6738,-143.9508,-118.3119,-102.0715,-40.0785,-63.9264,-58.8791,-71.2423,-89.4175,-61.5449,-80.5717,-42.7202,-166.5273
12.4753,-11.4148,-70.7083,3.5974,-56.5399,-64.6520,-124.3082,-138.6049,-59.2106,-53.0055,-49.0751,-9.7030,-86.6221,-52.3760,-74.7328,-48.5218,-10.5206,-86.2563,-99.0401
25.6890,36.5513,-67.8470,11.3057,-71.4367,-52.7960,-93.5506,-123.1907,-28.6655,-47.1780,-55.6762,17.0534,-92.7447,-45.1884,-51.3526,-46.6832,-5.2755,-131.2296,-42.1633
-17.3387,1.4921,-120.3003,-37.1952,-118.2663,-72.2218,-122.6847,-124.2651,-61.6738,-73.9051,-94.2505,-20.6917,-119.4498,-73.2559,-85.3681,-63.7854,-74.9701,-155.7730,-55.6903
-63.9153,-9.4387,-147.9749,-36.9005,-157.2131,-85.5321,-140.6521,-79.3136,-68.5484,-34.9518,-118.2384,-36.4883,-139.1023,-62.3031,-129.7576,-55.6612,-85.4212,-122.8750,-67.3153
-66.3641,45.2258,-112.0688,16.7548,-146.5980,-56.2304,-87.8504,-23.0116,-27.2817,24.2376,-98.6938,6.2926,-120.4103,-6.2672,-103.4930,-25.7834,-40.2780,-90.3664,-51.3258
-49.7383,37.0877,-107.3941,8.1303,-160.3275,-63.5303,-94.7347,-44.6247,-33.1356,-5.1808,-86.1096,13.9964,-102.2285,3.3124,-64.8546,-28.8020,-61.5123,-122.9279,-78.5798
-53.8783,-47.5781,-139.4822,-66.7738,-196.2097,-95.3142,-197.3693,-87.5092,-98.3891,-84.8512,-90.6345,-42.4437,-87.2426,-41.7223,-81.6558,-57.9842,-111.2223,-132.9384,-137.8830
-70.2763,-81.0077,-114.6120,-107.6548,-145.0975,-58.9353,-231.2303,-81.5257,-128.0575,-111.3715,-68.2945,-84.8541,-46.3067,-64.6972,-88.4815,-65.9464,-94.4263,-50.3968,-161.1102
-59.7998,-50.9010,-55.9300,-109.0774,-42.4194,-24.7750,-171.7377,-100.7565,-102.1248,-91.0605,-34.1248,-88.4723,-23.5404,-46.9964,-58.2817,-61.5517,-62.2259,-2.3510,-162.0804
-0.8995,-26.4276,-23.4531,-101.3605,0.1681,-69.9250,-127.1518,-164.3657,-80.0720,-87.3946,-18.0591,-72.4367,-42.4337,-12.4263,-69.7623,-60.1290,-40.8022,-51.8397,-144.8064
68.7295,-0.6345,20.9032,-39.1000,21.0990,-76.3355,-79.5395,-172.7378,-74.6575,-90.6795,6.6237,-22.4317,-39.3178,31.7022,-119.0065,-34.4016,28.2474,-59.3857,-74.4117
81.7666,34.1174,60.0817,64.0972,61.3535,-3.8070,-24.3739,-130.1603,-64.6247,-54.1126,36.7953,42.9225,-2.4061,59.3572,-114.6922,4.1908,78.6297,-11.3106,-17.4296
47.8841,45.6469,27.1647,106.7287,54.3070,8.6967,-47.9965,-115.6608,-52.2890,-9.1697,37.7547,73.0705,27.2227,43.8461,-42.9569,8.0873,23.5445,-51.1603,-35.5182
43.0578,44.9794,-3.9601,77.5681,17.6739,-40.3271,-90.9634,-108.7614,-42.6693,-23.0166,37.0119,72.0349,59.2544,14.0070,24.9865,-9.8366,-30.4236,-128.1235,-38.5877
70.4885,54.0346,40.1498,46.5085,24.8613,-28.8726,-52.2797,-79.3539,-35.0407,-63.4606,54.8395,63.6923,79.1699,19.2974,24.4291,-7.6360,9.3855,-97.9365,14.0716
77.4077,64.7251,71.6509,35.1701,35.3861,14.3059,-13.7799,-63.4874,-32.8169,-60.9959,51.5133,55.8768,45.7628,70.1181,-28.7220,8.3701,55.6843,-40.4940,24.0922
80.0004,79.7534,60.9637,46.4731,21.9418,8.7544,-20.0001,-66.4861,-30.8058,-52.2018,44.5566,73.5172,23.3744,125.9790,-31.2741,19.3635,53.0168,-59.7378,-20.2590
99.7764,83.4032,87.8726,84.5174,44.0755,-2.4470,20.1316,-75.2355,-22.7713,-73.2252,78.9536,104.2485,70.0443,131.3089,48.4277,28.1239,46.8476,-60.2450,-40.7026
79.7158,49.7212,109.8189,107.5536,84.7027,22.8969,83.8322,-88.8056,-7.0563,-46.5995,94.6670,89.3987,99.2004,90.5369,97.3210,34.9234,45.3605,17.5774,-30.0738
14.8439,35.3699,59.2065,100.9321,93.3408,57.4456,92.3470,-63.0097,26.4158,42.3640,46.9010,51.9942,68.2611,68.7831,76.1213,43.2507,53.9607,93.3308,14.8023
-3.4622,98.2442,37.0240,115.4531,114.3153,95.4346,96.6654,8.0385,70.8001,84.4719,22.6384,68.6791,65.6797,97.9251,86.7070,64.3281,108.8199,139.5931,113.0068
41.6248,169.8592,99.4832,151.0715,158.4594,142.9229,121.2212,39.3159,91.3358,62.5269,63.1247,118.3533,106.5417,155.5825,134.1675,90.1637,175.3733,174.3523,186.9020
74.9708,173.5057,130.5795,152.1704,156.6343,173.1137,104.3781,16.0057,73.5713,43.5001,85.0966,135.1337,115.6443,201.9082,117.2426,98.6494,189.6830,158.6663,170.0739
77.6968,131.2863,83.4309,121.7607,108.8065,161.0719,55.8741,-5.1145,31.6257,6.4811,56.1645,121.3133,82.1803,184.4871,44.4095,79.0784,158.9809,87.0498,113.8372
75.5740,77.2145,35.4027,102.8633,58.5681,115.7107,6.2100,-45.3668,-15.1549,-49.6472,28.4280,99.2023,39.0387,106.5264,3.3506,42.7488,111.0698,23.6528,48.5656
56.7274,35.3342,11.2586,104.6836,4.5365,75.5589,-50.4386,-111.2645,-32.7752,-37.3689,18.2348,78.7623,11.0750,54.4910,19.6387,18.3800,63.6382,-1.5452,-32.2367
16.2694,42.8100,-14.8810,112.7846,-41.1301,49.4320,-69.9415,-129.7709,-12.3325,14.6702,5.7882,75.5679,19.9884,40.9543,62.8085,9.0488,37.9965,-19.3515,-78.9860
-15.3948,74.6392,-49.5399,98.3133,-69.0121,-19.4642,-54.0323,-122.7830,-6.4218,0.0489,-20.4714,68.3868,20.7625,-14.3867,62.0530,-21.7961,12.7219,-77.4258,-83.8750
-21.2274,70.3456,-91.8499,36.2127,-111.9038,-132.4703,-88.0849,-157.9984,-30.3120,-36.3023,-62.0825,24.9376,-44.2671,-87.4363,-24.7146,-73.2322,-30.2495,-176.7742,-97.2264
-5.9994,41.5225,-106.5028,-43.9676,-140.3902,-186.7941,-127.8993,-170.1420,-25.7764,-25.4508,-85.1480,-25.6323,-102.2973,-99.7657,-95.6310,-95.5378,-40.2833,-226.4043,-95.5604
11.0103,16.5328,-62.6858,-94.4272,-97.0179,-162.4312,-74.3177,-123.1873,6.0898,-32.1482,-59.4911,-55.3357,-74.4361,-97.9178,-53.0874,-86.9181,-15.6015,-166.1642,-61.8267
3.4174,-13.4199,-25.8103,-111.5701,-40.1978,-147.2350,-8.7167,-110.8109,11.9055,-60.5137,-32.2014,-79.8313,-34.2431,-113.3287,13.4260,-79.6061,-24.8599,-82.3109,-51.4635
-19.0282,-24.8051,-48.5704,-93.6860,-24.8644,-130.4279,-4.7886,-113.1413,19.8905,-13.9107,-45.4249,-80.1619,-44.9813,-69.7222,16.1351,-54.5654,-42.3379,-46.4038,-37.2943
-32.2158,-0.9685,-72.9630,-30.2462,4.5857,-45.4845,13.4075,-13.8953,60.6207,81.1043,-59.3961,-34.4062,-59.4438,4.0084,5.8162,-0.6687,-9.0467,-5.2790,27.1591
-54.2607,9.4540,-79.3406,30.7501,34.7864,44.2662,31.6647,123.3183,69.4732,119.3946,-59.7106,4.6490,-68.9880,3.7246,-6.8037,30.0123,12.9564,43.5660,54.6766
-77.4082,6.1162,-108.4780,30.6311,-8.9801,50.9362,-7.2460,156.0695,46.6411,105.2932,-78.9124,5.9736,-87.0341,-20.5291,-32.9612,20.3163,-5.7779,23.6717,31.9041
-38.5152,41.5074,-102.5879,-1.0159,-48.6144,4.8499,9.5363,112.5872,90.9811,93.3510,-75.4068,14.9576,-47.3219,7.0383,27.7514,14.2535,20.3886,-36.4961,75.7718
34.0233,61.5194,-14.9578,-19.3014,-0.0114,-43.4902,101.3365,84.0342,162.4655,92.2224,-3.6788,29.1950,45.4340,22.8962,162.6201,16.5914,52.4604,-63.6354,106.0303
17.5237,-26.5792,24.4401,-63.0067,7.7535,-89.2427,61.1831,67.1037,107.4464,84.7444,44.4356,-15.5030,52.8566,-10.3075,159.6502,-6.5921,-57.7148,-93.2862,-53.0205
-90.0197,-151.6257,-66.1966,-150.9474,-106.2524,-121.5331,-110.9304,45.2958,-35.3792,50.3850,-13.0083,-106.9766,-44.7655,-46.8910,6.7936,-46.1254,-241.6230,-134.9155,-248.4859
-153.6614,-159.8319,-139.6924,-182.0099,-167.0597,-124.2675,-149.0685,49.2477,-65.7227,25.1983,-79.4191,-145.2693,-82.5924,-68.7576,-45.2298,-55.1004,-263.2005,-94.0530,-209.4355
-100.0277,-44.1119,-73.2220,-89.9779,-54.7413,-97.8671,-10.2299,78.5883,41.6517,67.3737,-42.0724,-79.3914,9.4360,-48.2871,52.9727,-17.7762,-88.6007,8.5518,-18.5669
28.9920,51.5789,49.2387,11.8908,97.4113,-69.5260,90.9284,67.1569,109.0905,87.9684,50.8824,15.6040,102.9541,15.0396,95.1883,17.2526,86.9168,24.3290,69.4586
136.2221,28.6505,114.4646,14.2091,159.9656,-70.8631,82.5222,-1.3866,57.2677,-8.7121,100.2925,34.0566,99.2859,16.6080,26.8811,5.4589,130.4951,-24.9491,39.5481
116.1967,-45.1038,110.5131,-0.4788,159.7687,-47.5903,67.0093,-0.6798,1.3296,-54.1545,92.1230,-5.1613,60.4723,-38.5104,-14.0177,-0.1946,81.4581,33.6102,37.4412
-7.7812,-54.2401,69.3345,53.4867,136.4129,67.2928,78.0137,140.7085,24.0625,79.0692,64.5899,0.0481,63.5345,0.3125,21.4487,56.3800,27.2293,164.4883,78.9937
-50.1126,-11.5696,43.0716,89.8036,92.2000,158.4148,56.6295,233.7164,52.4236,151.3254,56.5584,49.9891,84.3334,80.3059,66.0886,91.4250,19.1832,154.8625,55.4644
62.7144,5.1689,82.3920,54.5360,60.6083,95.8718,-8.0402,120.3456,26.3319,19.6843,88.7562,66.7629,84.0806,32.3558,76.3267,33.5779,70.5286,19.3446,-28.3688
163.9923,-1.5373,153.0298,32.6078,65.0066,0.3849,-33.6896,-19.2399,6.6914,-56.1301,128.1121,50.5342,73.1190,-37.7869,46.3395,-13.2181,121.7326,-37.6764,-23.9966
140.0664,-9.3344,166.2854,25.5124,74.2064,-14.2644,31.5224,-8.6596,29.1564,37.0630,120.3050,31.6749,50.3205,12.5173,-9.4107,17.0327,69.6560,-27.5297,76.4793
83.0189,-32.9928,115.7075,-41.9050,74.9983,-60.5606,104.4867,16.8555,37.3016,68.3949,77.9179,-9.8480,14.9367,42.1495,-39.9202,21.7490,-59.1806,-86.1624,103.0961
59.4520,-42.6027,73.9165,-92.7038,93.5250,-141.4338,110.6911,-41.6688,25.2707,3.5030,53.3519,-52.3910,18.9291,-18.0045,-7.2492,-16.9528,-99.0880,-105.5559,68.5408
22.3714,-18.0461,63.8236,-34.3043,122.4838,-81.7902,126.4011,-47.9390,48.4566,34.5358,44.6803,-43.8735,75.0086,-1.7187,51.6865,15.5187,-21.8970,53.9007,156.3148
-29.0549,-38.1137,44.9058,18.2582,126.9090,76.3966,202.3867,43.3132,82.4019,119.2360,21.9739,-26.3925,105.8827,92.4466,72.6005,99.9852,5.0821,222.1947,307.6830
-50.3394,-120.1276,9.0524,-34.5418,110.5045,150.0591,238.0010,120.8611,69.7104,103.5909,-2.2943,-53.3261,84.2454,108.2624,57.8602,121.6578,-67.2902,228.8054,325.5810
-47.7362,-146.5923,-9.1283,-88.1176,97.6701,166.0185,192.8404,162.1870,54.2035,56.7727,-6.5222,-70.6039,70.7621,75.3381,67.6917,100.5975,-96.9243,185.9518,273.6898
-26.4409,-90.8553,-3.8357,-68.7831,84.0011,187.1117,159.4149,187.3478,90.4834,70.8822,-2.0970,-37.9430,74.3794,78.1217,112.5478,97.9543,-37.0614,169.5510,280.3698
25.6146,-58.9027,-3.6291,-49.2844,53.2026,129.8553,142.9170,145.7787,121.1606,75.1589,-4.2549,-12.0569,43.0965,58.5000,117.8762,77.0753,13.8783,91.7724,252.0579
68.9378,-61.4782,-9.6461,-55.1216,12.5382,20.6639,73.8877,51.6497,88.4453,36.6655,-13.3241,-21.0027,-22.7205,14.7296,40.0562,31.0737,33.3632,3.9389,154.4840
71.1790,-11.6422,16.9645,-24.9686,-1.8968,11.1787,20.5267,7.8941,53.0648,28.2821,-16.1506,-13.6659,-66.6661,41.1414,-39.9814,26.6473,86.6474,43.8337,140.3507
64.6490,85.5729,87.9941,55.0958,39.9697,91.7337,78.9916,45.8275,88.8272,86.8025,13.4925,39.3225,-43.1357,113.1125,-14.4372,66.7862,166.8521,142.9711,208.1580
55.4908,145.0184,146.8858,134.2366,102.9085,132.6066,151.7901,100.2440,149.5085,173.9652,71.5770,98.1449,41.0816,125.1485,92.5742,87.9422,191.5087,155.5267,190.9918
20.8659,134.2235,143.3781,160.1370,117.5493,92.9030,112.7501,108.3554,137.2106,201.4376,108.9880,110.1476,121.1465,62.9956,154.1026,65.1347,130.1148,96.6130,89.4874
-5.4685,91.3936,111.4352,131.9798,91.1256,21.5633,40.0283,83.0414,58.8582,119.3413,107.0527,81.1402,147.0937,-7.6932,122.9872,29.5216,55.2091,55.9260,38.5681
-6.4187,64.9027,94.6572,106.8417,75.6692,-5.0020,48.8730,91.7533,16.9693,40.0637,91.3431,63.5709,134.7841,-21.9934,82.8977,22.7258,33.7239,61.4949,49.1898
-34.8501,57.9079,61.5500,97.7328,44.5906,31.3948,74.5982,122.9749,45.0407,83.1206,59.7910,60.9852,97.4641,17.3688,95.3532,39.5527,15.2048,67.7601,34.7344
-80.4174,32.7523,-5.9997,46.8719,-41.2397,39.2064,28.3050,91.9410,67.6907,145.4454,5.6328,28.9247,32.0911,35.7341,111.2086,32.2011,-56.3200,16.4651,-13.5056
-65.9548,-15.2642,-48.8086,-22.8509,-115.1097,-8.4454,-18.4650,36.4815,50.8159,105.6109,-30.2604,-11.3879,-15.2808,19.5653,81.2668,9.8100,-96.9551,-45.4271,-16.6417
-2.7574,-42.1400,-42.8520,-13.6184,-111.2762,-11.3645,13.4059,57.0813,50.5133,60.5095,-27.2622,3.1649,-10.1827,35.2513,38.8992,27.7087,-29.6427,-33.1218,49.5451
42.3515,-28.1005,-33.5155,53.2421,-74.8579,14.3943,49.5620,84.3154,77.2905,86.6453,-16.1054,50.2302,2.6278,58.2863,20.1271,53.3759,57.7334,-17.5288,85.9522
65.1112,2.2653,-20.5634,82.0671,-54.2700,-34.2783,10.2655,25.8213,69.0330,82.2577,0.3825,66.3069,0.9300,14.5754,13.0692,23.3477,80.5627,-69.7612,26.6394
77.5828,26.0686,34.0046,87.0250,-24.0662,-75.8471,-39.8109,-20.2036,25.2213,21.5515,43.5941,62.3732,26.0490,-31.3468,21.5418,-8.9668,90.2591,-60.4979,-38.0489
70.8662,40.3761,101.2770,102.7058,27.2270,-18.3423,-26.1884,6.3086,6.7215,-1.9840,91.0069,68.8533,73.7112,-1.0863,61.9499,9.2246,107.9259,37.4408,-46.6205
49.5156,47.1238,110.7458,55.5506,44.6732,-18.5677,-13.4446,-21.0499,0.6095,-9.8927,97.7859,49.0151,83.0378,8.9750,83.8864,-6.2822,47.3064,-2.8795,-99.5610
-3.4022,35.4082,31.9331,-83.8527,-25.4293,-178.5368,-85.7747,-143.4213,-50.6549,-71.2866,41.0890,-34.4430,28.5615,-88.8388,24.7320,-105.4685,-108.1869,-210.4123,-237.3553
-100.9753,4.2644,-97.3928,-190.8763,-142.2504,-304.7072,-176.5370,-226.0132,-107.9329,-117.3668,-60.2953,-125.9979,-48.1532,-183.2158,-56.7802,-179.6217,-227.3485,-303.6781,-319.4326
-164.3655,6.6327,-175.2696,-155.9183,-184.5448,-237.0103,-162.5589,-190.9387,-88.8525,-83.6351,-125.9400,-123.2313,-67.5924,-142.0851,-44.4790,-142.5376,-194.1965,-189.7433,-259.6375
-126.0127,73.7921,-139.0580,-31.1291,-119.3069,-74.1633,-70.9653,-86.4678,-24.9092,-43.8368,-95.5417,-16.9442,-2.8793,-13.8666,45.0988,-54.1564,-62.9818,-67.5966,-150.5073
-48.7129,109.5612,-68.5552,52.0048,-65.7178,33.0418,-34.1159,12.5107,-10.4554,-57.9295,-31.9418,75.5758,53.1838,64.1790,80.6902,-0.1228,16.1312,-45.5379,-90.4856
-2.9199,28.4965,-62.4039,37.7832,-90.6018,45.9183,-76.8366,51.5730,-45.5965,-82.5548,-23.2595,65.8290,13.4358,47.6654,10.7090,7.8150,2.1648,-61.3247,-72.6943
16.2672,-69.1291,-92.3994,-20.3434,-110.5400,6.4891,-108.1369,31.5807,-60.3376,-76.7031,-55.2089,1.6833,-71.7137,-2.1558,-84.1998,-6.0589,-15.2859,-64.0244,-58.6798
10.2545,-67.0650,-96.4296,-67.3940,-77.7899,-32.5687,-80.2095,-14.8096,-34.6449,-59.4656,-78.9735,-47.2354,-114.6120,-41.4662,-112.1851,-31.6541,6.6037,-49.3226,-51.8075
-5.3010,-32.4990,-67.5551,-111.0786,-35.8949,-72.0530,-22.9687,-84.7632,-1.8671,-62.7923,-74.7468,-86.1740,-96.3796,-90.7606,-65.7486,-68.5467,25.1584,-34.6954,-75.9143
15.0644,-50.8083,-13.0834,-141.9277,10.7568,-132.4916,17.8463,-144.7931,10.1392,-77.0313,-27.9908,-115.1601,-28.4756,-152.0505,-16.6734,-98.9163,27.3170,-45.0921,-109.3814
41.1312,-67.2048,26.0578,-110.8215,63.8374,-178.6716,13.6059,-122.1864,1.0521,-59.7631,27.8911,-98.9093,50.2853,-183.9826,-22.4822,-98.8142,30.1529,-69.8383,-101.5552
15.5280,-38.7279,-0.4427,-36.0817,71.1114,-182.8038,-8.0752,-46.2528,-4.4726,-15.5312,31.1272,-50.8177,84.6496,-173.6926,-35.6783,-75.9960,22.7307,-80.0501,-68.2351
-23.8738,-26.9397,-38.2726,3.7911,37.2082,-166.6277,8.9982,-2.9002,5.4832,2.4586,11.1831,-23.9269,87.9602,-140.7368,13.7206,-51.4206,-7.6696,-60.5807,-63.8281
-42.1417,-65.3736,-23.0669,-10.4027,19.5484,-116.7619,44.5687,28.7887,4.8097,-5.6454,22.2531,-31.6447,99.0792,-102.0030,76.4281,-25.4333,-58.6580,-9.4400,-66.8842
-69.5446,-113.1612,-24.8176,-52.4166,3.2848,-30.7947,41.7886,74.5670,-12.4465,-4.7613,15.4900,-58.0962,88.9993,-90.7831,70.1396,-10.0678,-113.8471,23.8415,-38.4195
-90.0969,-141.7158,-91.1710,-112.8052,-40.5728,0.0748,17.2505,62.1105,-13.2685,-11.1734,-43.3861,-94.8527,36.1155,-122.5888,26.3407,-29.2130,-134.8802,-13.1770,-24.9973
-75.9908,-147.0535,-137.9994,-152.1207,-72.3907,-49.6344,-4.7389,-8.9636,-3.9876,-29.5866,-87.9780,-121.1763,-24.4883,-145.3092,-1.2336,-57.8059,-120.2453,-61.2420,-51.1828
-56.0915,-122.3268,-123.6072,-122.0877,-67.7942,-69.5751,-34.2533,-37.4989,-14.2991,-28.7162,-86.6057,-107.5993,-71.7410,-132.2129,-27.2611,-55.9769,-105.9006,-56.1395,-42.6515
-13.8927,-87.8958,-84.4709,-69.7475,-43.2781,-38.3960,-25.0870,-8.0345,-12.6921,-40.4868,-63.9024,-64.3409,-84.1055,-132.0569,-32.1365,-42.4572,-69.1762,-51.4679,20.1789
62.4215,-87.2901,-24.7868,-64.1867,-7.4942,-47.1575,43.5682,33.6228,23.2324,-81.1528,-14.8682,-36.7521,-36.0861,-137.4129,24.7701,-35.9580,-6.8592,-60.7354,45.6028
64.1418,-115.6716,26.6155,-62.4311,12.9485,-70.6370,64.9255,93.3215,30.6044,-55.8059,38.7762,-35.5546,18.5797,-84.9280,71.1604,-9.5415,-22.2608,-18.5904,-2.5537
-25.9765,-113.2151,22.2335,-12.0481,5.4687,-30.6621,4.0880,141.4484,-18.9881,31.9684,47.2695,-24.5818,24.5303,-21.7100,23.8080,21.5937,-106.5648,24.0678,-58.9931
-43.9701,-53.1514,17.4684,22.8467,23.9111,-0.9622,-24.9539,105.3878,-55.1764,27.2164,39.7940,1.4017,28.0503,-28.7914,-47.0654,5.2098,-90.4043,-12.4901,-81.1268
33.4250,23.8181,60.5854,-2.5179,85.9606,-45.7812,0.5710,26.7455,-31.3535,-50.3362,57.4556,10.1002,52.0921,-23.6973,-36.6705,-21.8227,24.3539,-33.3881,-56.9636
67.6578,71.3038,92.8571,-3.7658,141.1565,-40.0115,25.4696,20.5903,31.4121,-16.4240,71.8400,18.8077,59.0035,83.7212,43.2169,21.2540,81.6358,50.3983,46.0549
69.7636,65.7389,104.7960,56.0782,180.5679,77.1101,94.6306,85.7292,103.7544,97.8455,81.4922,55.9554,73.8136,165.9710,121.6387,95.7575,94.4849,138.4771,182.5312
103.0922,-4.8179,111.8611,54.7435,181.1486,116.1737,178.1998,106.5136,134.8585,108.1362,90.2000,53.4959,93.8857,93.5018,132.9455,91.6191,110.4229,112.1959,195.0058
78.0023,-102.5837,21.9104,-72.5564,53.9408,-39.4798,107.7850,8.5601,71.6521,16.1134,22.8243,-43.1954,19.8068,-15.5229,41.7307,8.5125,19.7703,-14.3311,43.5634
-23.2834,-147.3280,-150.9070,-184.4947,-149.2047,-189.2954,-72.7117,-146.2565,-42.7924,-66.7188,-112.2066,-133.9850,-115.3408,-21.2950,-86.7389,-53.2465,-145.4218,-126.7287,-80.2885
-70.7756,-123.3686,-213.1722,-164.6183,-231.6160,-142.7182,-127.1411,-216.6339,-102.4825,-112.1961,-171.3613,-126.1548,-148.2197,4.7819,-133.7592,-49.9862,-178.6430,-114.1990,-39.5067
-63.5041,-86.8284,-151.7595,-111.5536,-169.9019,-18.0686,-53.0087,-150.4687,-74.7179,-101.9076,-135.1595,-89.4026,-88.2619,-9.8231,-86.4309,-25.5106,-105.6111,-23.1204,46.7359
-90.4655,-54.1260,-131.3197,-124.7750,-106.6072,22.6774,-17.7898,-41.3061,-14.3300,-25.2386,-115.5132,-87.5745,-57.8432,17.3573,-27.7076,-6.8639,-95.5688,10.6681,58.3661
-104.4251,-4.1804,-126.5501,-118.4138,-58.0964,33.8344,-8.5629,18.7355,26.0858,42.0262,-103.6181,-66.1361,-33.9892,104.2921,4.1348,23.5386,-92.4750,17.0249,74.4892
-49.5393,44.1453,-35.5494,-30.8611,32.0817,66.4572,56.2457,27.3046,46.7313,59.7860,-36.4572,-8.7518,34.6866,131.2684,26.6339,54.3191,-2.9265,76.6928,146.6609
0.4910,63.7513,42.5840,33.0396,94.4429,32.8361,106.5611,5.8601,65.4775,78.9402,20.9405,19.2511,73.6134,80.2789,34.3966,47.8444,62.2640,87.5561,160.1877
-12.1257,64.4079,12.3472,28.9911,53.6903,-50.3121,59.7851,-20.7524,55.6966,96.2913,3.2549,11.6211,28.1471,56.2737,1.2333,20.5096,28.7243,12.6241,71.7282
-59.7072,57.9237,-55.2357,51.3757,-32.0852,-44.4244,-35.3712,-18.1363,-5.8350,68.0602,-50.1192,14.3040,-58.3892,66.0663,-57.7856,18.6280,-15.7044,18.4264,12.9527
-97.2108,44.9539,-102.3471,93.0095,-82.6971,30.9481,-71.8966,-6.0961,-48.1370,26.1209,-101.7757,15.8433,-130.7829,36.1223,-85.2464,29.0016,-13.1671,111.9553,60.1051
-87.7296,28.4210,-112.7584,53.7514,-87.9678,44.1631,-6.2013,-42.8214,-14.8487,7.4197,-130.9214,-16.9437,-151.3213,-22.5185,-71.0538,11.4998,13.2200,126.8802,122.4106
-47.9010,12.1708,-54.8415,-12.4088,-67.4639,8.3596,69.6084,-125.1225,4.2208,-11.6029,-106.2410,-56.4936,-126.8329,-62.8238,-81.6659,-22.3534,30.4786,83.9389,109.5342
-33.2688,11.7347,16.3842,9.4383,-35.5322,10.3351,42.2553,-195.7013,-57.2242,-39.6517,-57.3924,-56.2658,-107.1709,-92.4875,-132.4268,-41.2178,19.2528,84.0896,65.0446
-23.4867,29.6890,24.6288,60.5451,7.2472,39.3987,-18.4006,-205.4102,-93.5273,-54.0595,-34.2000,-24.3097,-82.2644,-104.4590,-135.3007,-36.9035,15.0688,84.3248,89.1893
24.9120,32.1011,26.4696,56.2485,62.6697,62.7347,24.3297,-129.7901,-28.6809,-34.1715,-8.9575,5.0852,-6.3879,-52.2655,-53.5753,-1.0636,60.5670,80.0662,175.9213
64.2518,26.6982,74.9786,63.3068,111.4859,90.3019,111.5767,-15.9270,48.6381,28.8500,44.0211,38.1750,75.6948,57.8360,32.2674,57.5266,110.2226,117.4816,202.6663
68.9404,61.8661,110.4670,114.3051,129.0733,106.7039,107.1381,26.3854,56.1720,77.4655,82.1208,87.6314,92.6331,145.9167,51.6545,85.9795,113.8511,107.1861,123.4612
87.7905,87.7130,99.7105,104.2624,101.1654,77.6976,34.9272,-19.2505,8.6710,24.3671,76.0566,102.1808,49.7433,144.4342,0.3456,56.3013,80.9341,1.0054,48.2906
92.0484,24.8690,50.9491,-0.8911,23.6013,8.3655,-16.8790,-41.7144,-52.3941,-85.0742,29.8038,38.8670,-23.4681,80.8990,-81.3079,12.9315,0.3262,-77.5416,49.7320
22.7621,-47.6963,-46.3223,-94.5633,-62.4790,-50.4881,-36.6256,5.3542,-71.6555,-115.1229,-45.6174,-35.6699,-88.0047,54.9682,-106.0917,2.1836,-103.5451,-75.6861,61.9435
-55.7283,-35.9769,-131.4506,-105.2141,-94.0486,-34.9480,-33.2488,41.9941,-26.7793,-47.0590,-101.1885,-46.0573,-94.4840,93.9038,-48.1824,16.7550,-128.2503,-51.0253,35.6362
-88.9224,-19.2790,-132.0697,-71.6676,-90.0774,40.3817,-15.7252,28.0296,12.6842,41.8679,-105.9418,-36.1226,-81.9894,98.8802,-18.0575,24.6847,-92.8543,-14.2266,0.9607
-138.5012,-60.9707,-125.8008,-61.8439,-119.5709,67.1084,-18.8058,15.7709,4.5003,110.8916,-116.1035,-70.0169,-123.7329,13.0761,-61.1909,5.3920,-125.6656,11.6188,-33.8242
-197.9606,-85.5779,-181.7794,-95.1767,-168.5691,9.5957,-54.9167,18.1152,-5.3889,117.8726,-157.6021,-114.7931,-167.2504,-87.7941,-72.9632,-36.2728,-187.2057,-18.8899,-79.2448
-156.1269,-71.2509,-194.8569,-132.9762,-172.4254,-60.0722,-106.3218,-28.6775,-21.3797,14.4278,-155.4809,-122.2703,-140.3118,-147.9892,-50.3652,-81.2337,-148.2236,-74.8906,-110.9122
-10.7897,-71.4133,-96.6806,-147.1605,-123.2445,-133.0106,-149.9934,-138.6500,-76.4569,-136.5188,-79.8764,-110.6204,-95.5068,-196.8544,-97.1858,-122.9294,-53.5057,-135.7975,-117.7863
106.9953,-68.1720,10.1104,-153.8286,-52.3143,-227.1423,-144.7551,-215.9542,-102.1108,-206.5557,-2.0816,-102.7055,-75.2766,-224.5216,-145.2300,-150.8210,-9.5263,-206.7487,-123.1717
115.4137,-40.4458,34.6087,-143.0919,-5.0587,-255.2453,-99.5599,-189.8293,-64.1547,-178.0481,27.2273,-81.6605,-47.1802,-184.3445,-74.7661,-138.0034,-23.4244,-225.1155,-145.7341
48.4765,-31.6169,-15.8894,-94.6684,-42.5058,-193.1932,-117.5399,-134.6478,-66.2362,-141.0635,10.4823,-43.4975,-37.3126,-110.5351,4.0521,-100.3460,-93.5000,-203.8994,-197.6929
-29.5329,-44.0509,-115.5794,-64.2949,-152.7831,-164.2331,-221.8142,-135.8663,-129.2934,-137.5116,-48.7497,-26.0072,-87.3873,-71.2268,-23.1022,-88.9025,-202.0451,-240.3897,-255.1246
-102.9847,-48.4118,-228.3494,-87.0360,-229.7872,-177.7854,-275.1927,-126.3663,-134.2254,-116.3777,-129.2901,-47.7431,-134.9690,-61.3207,-40.0693,-89.2023,-258.4104,-253.5681,-244.9044
-175.6941,-53.7844,-299.0096,-89.2781,-223.7597,-125.6702,-215.3255,-39.2586,-74.0931,-57.0892,-183.2223,-67.3269,-125.8294,-60.0745,16.6567,-61.4722,-237.1742,-146.1606,-172.6044
-201.0489,-52.5376,-290.8811,-59.0993,-190.3408,-64.2166,-156.6647,8.5314,-60.6768,-36.9920,-182.8145,-61.9647,-105.9356,-97.5019,19.6950,-54.7628,-205.7534,-85.5495,-151.1174
-142.6845,-35.4387,-206.9413,-93.8744,-161.3586,-108.7735,-162.6039,-80.0553,-92.1590,-91.0050,-139.1071,-80.4918,-107.3832,-170.3855,-51.0912,-109.7917,-174.5669,-155.9277,-197.3604
-65.1810,-43.4460,-102.1337,-173.2081,-109.1962,-175.8221,-159.3489,-170.9040,-83.4415,-121.6676,-83.1595,-133.6531,-102.1197,-205.3894,-71.6813,-148.2928,-121.0311,-161.8822,-205.5137
-36.0720,-67.4885,-35.7524,-167.1232,-32.9019,-157.4649,-118.0446,-129.0701,-47.8429,-77.0152,-35.8722,-143.5955,-79.0622,-184.2093,-42.1214,-121.3835,-70.3237,-67.4008,-177.6884
-28.4984,-48.5091,6.7010,-82.1583,26.0190,-112.5739,-98.9643,-41.4755,-51.7964,-46.7907,6.3805,-91.5380,-57.3564,-179.4953,-54.6939,-99.4307,-27.3836,-31.9803,-214.8063
-14.7001,-14.6109,47.9360,-25.7208,35.4028,-101.8761,-113.9707,-17.1948,-78.4676,-63.7084,35.2709,-54.7679,-56.0184,-203.0596,-93.4479,-110.0341,21.2567,-33.6690,-282.6396
-4.5822,-8.7268,52.3401,-14.1556,5.8156,-101.8080,-109.0204,-16.4122,-57.8088,-45.1378,29.8934,-48.5075,-70.8544,-179.1676,-81.9768,-96.8889,48.9506,-8.6436,-255.5781
25.3465,7.8418,37.5953,-14.7228,-11.7262,-103.1405,-56.8288,5.4535,17.7639,5.3056,23.2793,-22.3813,-51.0520,-109.8005,0.0655,-59.6402,48.8353,-37.8823,-137.9975
74.5802,18.7643,66.0346,-34.9035,10.1281,-92.4030,17.9732,28.8038,73.5623,0.0193,58.8926,5.7074,32.9055,-67.9846,110.5186,-36.1328,33.8598,-90.9532,-37.3567
69.7435,-37.5515,80.8458,-67.4539,24.4019,-34.7780,61.2326,63.7044,51.6658,-46.8113,83.5714,-4.1423,103.4017,-36.7880,155.7662,-11.2785,-19.0092,-58.0412,-9.8352
3.6259,-86.0180,19.3370,-59.5537,-0.3383,48.6217,34.9923,114.3544,-11.1304,-58.3406,45.2353,-9.3039,88.5565,32.9506,91.0040,25.2012,-70.4863,7.7714,-39.3692
-24.4606,-26.5533,5.1953,38.2818,9.7859,125.6940,-6.7469,129.2233,-42.4332,-32.9669,30.2511,45.0527,63.8671,95.8356,30.2424,53.5362,-10.1080,73.7120,-67.8426
27.6482,77.8766,137.4629,206.3568,115.2663,216.5348,31.1687,105.2836,-30.4394,-6.6147,115.1412,139.2277,113.3314,116.3885,73.3705,84.8293,143.1315,205.0975,-39.3923
97.6402,138.1053,288.8507,335.2894,231.1997,303.9000,116.2591,93.1270,-11.8520,16.0176,210.8527,211.4549,159.2204,126.1966,112.7326,117.5811,256.8068,314.4532,17.3666
136.8430,158.9999,335.2185,350.2479,254.0603,320.1728,135.5969,78.5668,1.5678,47.5213,225.0056,221.1778,122.1424,109.7700,51.0108,110.3117,302.9859,291.4197,37.7040
161.9392,145.2543,320.6553,307.2815,225.2914,260.5200,119.7859,27.5070,38.9053,90.1739,205.7375,188.3567,94.6295,52.8331,15.2984,78.0915,331.9041,226.3951,51.7557
205.0051,98.3591,299.1168,251.6324,221.3371,169.2949,170.9014,-29.5989,106.3579,106.1834,205.6585,158.5751,145.8721,22.5050,95.1634,66.3235,331.0985,164.8620,102.5967
243.6923,55.0851,256.4496,145.2955,190.9922,55.5746,206.2585,-83.4104,136.1985,58.9829,185.1060,118.7526,150.2371,16.4197,134.0275,39.0018,267.1542,30.0476,101.3545
194.1496,14.1920,165.6668,24.5388,53.0321,-75.9634,81.2165,-158.6634,67.0203,5.8963,106.6563,37.2972,21.6458,-42.6095,21.7412,-34.2627,134.2837,-118.0242,-28.7234
31.8815,-43.6028,-1.1470,-26.1539,-145.7192,-179.3523,-116.5361,-208.0852,-41.0580,17.7456,-14.1695,-42.3322,-113.3452,-107.7940,-99.5973,-87.1647,-56.1062,-182.4371,-179.5014
-126.7628,-84.6245,-195.8808,-49.5850,-288.1456,-209.3643,-194.5186,-186.8882,-81.2445,45.6222,-134.8047,-76.1084,-149.7242,-105.9589,-107.5515,-87.7916,-222.7151,-219.7386,-218.3604
-162.8828,-96.5306,-269.2673,-105.1768,-316.1057,-176.3749,-147.4777,-154.4646,-53.3862,35.4071,-188.3793,-95.1016,-144.2012,-102.1567,-78.1498,-85.7614,-258.7670,-246.7083,-172.9275
-104.2407,-104.9527,-182.6845,-129.2587,-252.3060,-134.5910,-94.6693,-132.6852,-25.8023,30.7768,-141.6414,-106.8511,-129.4504,-108.6941,-78.7096,-81.2200,-184.0996,-194.7889,-133.0023
-48.4739,-83.0375,-80.6288,-90.1276,-170.3495,-103.6269,-89.1007,-51.8055,-25.7112,25.9730,-60.4414,-70.3878,-73.7364,-39.9756,-69.2318,-44.3709,-101.0433,-111.3753,-126.4857
-19.5904,-20.3865,-42.3639,-47.5362,-131.0334,-48.6495,-116.1558,61.2325,-52.8283,-44.8800,-18.0097,-5.1937,-18.4685,42.7006,-56.0630,-12.9480,-34.1717,-71.7421,-135.5237
20.8887,3.5586,-5.3648,-12.5578,-106.7039,27.6563,-129.4177,97.2182,-88.8523,-121.9078,3.9804,31.7155,-8.1436,45.1564,-86.4581,-5.4820,38.9535,-31.8562,-116.6452
73.8010,-28.3008,45.8443,28.7205,-36.8739,78.5730,-71.7567,72.9457,-79.6505,-98.9698,35.4737,43.8482,5.0474,69.2759,-112.3546,27.4526,96.7251,35.8660,-42.5664
99.4727,-15.1616,71.5546,51.5524,49.4513,104.1193,35.1293,67.2536,-15.3044,-27.6382,52.3955,62.1994,33.8050,158.7820,-71.9975,74.7827,126.7278,76.6286,38.3788
110.3756,75.5433,92.9441,69.8607,74.7389,102.5812,98.8850,49.5488,44.9411,-2.3376,50.3144,90.5143,25.6955,163.7761,-16.5337,68.2885,163.7295,50.1252,78.8898
151.1986,157.8503,121.7112,103.2089,32.7608,22.4613,96.0092,-14.1046,82.0906,4.2605,53.0597,118.5904,-5.7268,78.6352,-1.4336,23.2540,209.2128,-41.8917,106.7029
169.7204,179.9862,99.2835,106.1024,-31.8665,-89.0543,78.2769,-52.2225,112.9972,35.9488,37.1556,124.6598,-24.3511,57.4407,-1.1319,5.1064,204.3343,-131.6344,130.1417
82.8895,168.2931,15.6974,73.4277,-91.7376,-93.1884,59.3822,-19.4960,110.0211,67.8362,-25.2764,93.9146,-57.8962,91.5129,-5.6350,15.4029,131.4511,-112.5705,123.4608
-35.3054,144.0476,-52.1374,50.7650,-119.3370,-4.2959,32.1780,39.2431,77.6510,82.0691,-83.8096,50.9331,-90.5033,94.7753,-14.8920,30.0680,64.7810,0.9443,128.9377
-62.4934,107.2341,-57.4521,22.3427,-86.2168,45.4705,36.8504,87.9891,82.5093,83.1417,-77.8065,24.7434,-44.8521,108.5379,34.2946,52.2360,53.2786,88.7939,171.8656
-42.7135,82.0914,-24.3140,-12.1330,-10.0398,57.1972,88.2454,117.7788,107.7226,62.9523,-26.3251,21.6573,64.5097,152.3597,142.7189,73.7183,43.8159,115.1054,176.5108
-48.9517,106.7616,21.9156,13.6571,68.0984,107.0322,129.4717,117.9169,80.9103,23.8152,24.2836,51.4528,153.9236,175.8997,194.3282,83.1975,19.4623,127.0004,150.2421
-21.7186,168.8024,86.8137,83.0235,150.4523,177.9698,154.7087,115.4161,49.2552,-10.4713,71.8515,107.2330,213.9723,207.9903,176.2220,102.9913,67.1002,161.0244,204.2719
44.4029,202.7962,164.8611,119.7744,254.2558,233.1583,230.5593,150.0434,86.5539,-9.0461,123.2338,142.6270,264.8685,262.4882,195.9654,139.5433,177.7565,239.0466,288.4174
34.8177,175.5945,203.5006,122.8964,325.0629,258.7617,315.3799,194.3273,125.2900,41.8233,145.7817,124.6443,264.7966,242.0457,224.1372,148.0421,194.2464,306.3560,257.5448
-36.1515,121.3103,157.5807,84.6067,278.4570,207.9877,278.1837,198.5057,99.5330,86.3477,107.9533,66.8017,187.5053,132.9237,159.0129,103.6872,87.0634,250.5840,176.8938
-33.9469,81.5469,65.9348,-12.5434,143.6330,93.2587,154.1228,173.0444,75.4273,51.8446,37.8558,12.7435,92.5331,61.5368,75.3277,51.0099,20.4634,106.4770,180.5343
21.9992,68.5813,-4.7525,-58.1487,40.4373,20.3764,91.6031,144.7299,89.2087,-4.9287,-13.9972,9.9745,37.3727,83.1346,59.9293,39.4136,60.2115,27.9304,191.1633
6.5922,73.4839,-53.2099,20.0581,1.7217,23.0366,64.4590,107.5201,76.7908,32.0337,-44.7845,46.0807,-0.6542,120.3695,19.3869,52.8163,90.5308,31.2638,109.9898
-67.1386,68.1447,-90.1560,81.6711,-27.5252,44.9086,-21.0298,70.2992,27.3826,120.5019,-69.6951,48.3340,-53.0421,99.9415,-72.8925,45.6379,38.8159,25.9663,21.6457
-112.9627,27.5391,-93.0237,35.7807,-52.8253,66.0322,-84.3735,62.4189,-10.9386,129.5078,-74.2296,2.9686,-85.5879,37.7430,-90.4291,20.0242,-57.4030,10.2539,-8.5465
-146.3732,-42.3388,-91.6338,-13.6906,-67.6748,77.6502,-78.5920,67.2606,-54.4608,72.7225,-66.7035,-37.5046,-76.1903,1.7301,-55.5119,9.7103,-159.0938,24.5391,-52.3125
-204.1166,-109.6687,-135.3797,-13.9094,-114.8602,52.8441,-131.9088,44.2423,-128.1432,53.8707,-85.4980,-66.0336,-79.2235,9.2819,-108.4054,11.1612,-230.2824,54.8758,-138.9196
-237.0283,-134.5279,-160.6604,-9.5423,-168.8374,24.4417,-235.9889,11.3520,-179.1203,76.5870,-106.2907,-91.6412,-118.4737,10.0972,-203.3691,2.4916,-230.7016,81.5204,-199.7279
-216.0565,-120.6383,-105.7581,3.4747,-152.5661,35.4464,-234.9587,6.8016,-179.8827,82.9890,-81.7236,-91.1917,-140.0040,-16.6230,-224.3681,-6.3937,-197.4087,103.4231,-202.0048
-203.9560,-141.0484,-71.6423,6.7701,-114.1200,42.2491,-182.3048,1.4788,-182.0125,65.1963,-60.7389,-98.1437,-135.6523,-65.4893,-210.9768,-14.1691,-212.6535,112.6208,-189.8305
-229.1199,-213.0332,-136.0568,-58.4812,-137.0935,-9.9121,-210.2029,-45.4862,-191.0751,35.9709,-97.5749,-161.1239,-144.1131,-161.6498,-197.2477,-52.0928,-263.7111,90.8954,-207.0248
-232.9085,-235.2355,-198.0597,-140.6172,-165.7288,-108.8255,-218.2752,-98.9249,-150.1650,4.1593,-134.6396,-215.4861,-139.1424,-270.7400,-129.3939,-110.5349,-269.5579,23.3665,-237.3683
-204.8991,-175.1818,-192.2402,-146.7358,-145.2412,-199.0628,-125.8569,-108.6292,-72.0667,10.5137,-128.5880,-198.1669,-97.1177,-292.1042,-48.5035,-130.7299,-226.1647,-45.7982,-229.5027
-194.8656,-120.8472,-172.5018,-85.8702,-115.5695,-194.5848,-57.8861,-78.4427,-21.0109,77.6517,-115.1255,-151.8476,-61.0890,-224.2348,-28.0631,-93.4879,-171.8127,-22.8298,-166.6317
-160.9686,-70.2833,-102.4208,11.1773,-47.1353,-51.4170,-30.8775,-19.4688,8.4182,133.7478,-65.9935,-80.9160,-9.1099,-132.2824,3.6272,-27.9592,-67.3447,92.4336,-71.0485
-33.1652,28.4528,82.2052,118.8929,107.9526,131.9771,63.1476,59.9163,41.5004,92.8913,69.6641,41.7037,116.8054,-18.1504,104.0426,40.1890,98.4462,191.6499,24.5704
88.1975,73.2231,236.3714,153.7190,226.4146,219.8784,147.2630,113.5819,33.9430,-6.2357,187.8017,119.2502,215.4267,74.4396,160.8452,79.8463,174.9432,211.9476,61.5154
56.9798,-17.1579,186.6989,88.8190,179.8022,201.5962,86.1686,113.9137,-42.8063,-52.1232,156.1821,68.7925,145.9240,50.4291,75.8147,62.5124,46.8806,158.0066,-1.7487
-76.2973,-113.1007,10.0957,13.2238,38.7007,136.3489,-60.5757,93.8231,-135.7954,-34.1329,27.5344,-18.9890,-19.0933,-31.5120,-83.3854,12.8802,-153.6136,55.4534,-119.7626
-181.4171,-124.4144,-135.2656,-28.7504,-80.8501,58.4340,-187.4390,65.1968,-193.4968,-28.3951,-76.5995,-63.6683,-116.5211,-46.2660,-183.2856,-23.2300,-250.9684,-15.3813,-231.3758
-245.1333,-136.8715,-229.2796,-74.6135,-152.3413,-3.7608,-260.1917,8.8504,-200.9758,-28.6168,-137.4048,-106.5926,-130.9499,-37.8533,-169.4505,-43.4515,-277.5259,-14.4341,-311.6851
-289.3954,-192.4181,-295.4359,-147.3081,-184.7919,-50.4148,-245.2799,-47.3741,-157.4621,24.0476,-183.9929,-173.4132,-143.6138,-98.5366,-123.2840,-68.5753,-343.3402,-44.7814,-305.4320
-309.9037,-257.5155,-340.7617,-259.7059,-228.7421,-133.1494,-184.6199,-73.7971,-116.2599,68.3221,-234.0625,-257.7223,-194.3899,-212.9787,-157.5181,-111.2728,-450.8989,-156.1411,-208.7639
-347.7640,-332.2772,-409.5213,-380.8685,-334.0351,-254.5661,-188.3061,-94.4089,-140.8347,14.8517,-304.3476,-356.9183,-261.1982,-339.7363,-236.3679,-168.3266,-543.5067,-222.1125,-158.7000
-415.8627,-365.3537,-499.8835,-387.4764,-432.0343,-325.9804,-233.3721,-99.2217,-177.1175,-38.9549,-370.1502,-393.1586,-296.4470,-402.7077,-244.7787,-192.1363,-563.8682,-176.6501,-207.7419
-431.7398,-287.4859,-522.0093,-238.6992,-441.2973,-285.9187,-222.7187,-47.4241,-136.9495,44.3626,-378.3217,-298.9592,-295.0262,-313.0929,-207.7151,-139.7610,-474.8392,-114.3591,-227.5171
-363.9567,-179.5343,-440.3134,-87.9929,-403.3936,-180.2203,-183.1076,6.3499,-72.9393,167.3984,-328.1947,-173.7995,-295.1028,-169.8640,-215.4643,-70.9581,-335.8914,-95.5699,-197.0793
-281.4926,-141.1911,-315.4761,-61.2837,-355.0492,-97.9951,-172.6932,-20.7725,-78.4342,152.3605,-254.5494,-134.7931,-283.9166,-135.5383,-233.1525,-66.2872,-254.7937,-90.8836,-218.7554
-217.4743,-126.8653,-204.6712,-101.2821,-272.0680,-65.2364,-170.8545,-77.4660,-118.6641,45.5597,-178.5039,-141.4454,-226.0367,-128.5773,-205.5344,-81.0210,-231.0728,-67.6644,-228.5751
-150.3667,-89.8895,-120.7217,-98.4836,-178.4087,-17.5380,-152.1505,-56.6205,-119.7189,-0.2916,-115.7377,-113.2262,-153.9160,-17.8855,-172.6568,-32.8865,-175.0209,9.8370,-102.7480
-82.5423,-50.4445,-34.4754,-9.4426,-81.9465,107.7065,-84.6268,51.4112,-88.8244,13.0205,-54.8494,-39.3206,-87.7346,102.6200,-143.1828,55.5578,-53.7073,158.0640,77.0156
-42.8300,-2.6145,76.4483,127.2798,66.9745,279.6061,53.1724,190.8487,-58.3278,20.0021,28.2117,54.2410,4.2596,146.1714,-72.9473,127.3514,66.7430,323.0933,176.3013
-60.5924,35.1886,142.3381,205.4531,203.2521,407.4689,164.7253,305.3567,-27.3750,58.6824,87.5380,108.3943,86.0312,175.3271,11.2721,172.2106,94.6335,422.1570,194.4025
-129.3217,9.3688,85.1303,160.9749,196.9045,415.0419,156.7359,335.5869,11.2964,153.2539,60.6997,75.4051,93.2688,174.3894,54.2172,171.7455,15.5984,392.0611,162.4519
-184.8522,-46.5831,-37.9899,57.6045,88.0368,281.7557,96.6063,261.2990,38.3046,204.5726,-15.9088,-0.2281,56.8712,73.0664,50.8314,106.4371,-89.2449,230.8286,93.6174
-182.6704,-65.9791,-133.0532,-4.6603,-9.4140,89.6274,44.0982,140.0336,17.8698,142.1294,-78.9153,-42.8196,10.1969,-47.7412,1.3114,23.8960,-143.6343,49.4316,25.4160
-149.4875,-55.6298,-191.5272,11.4343,-98.4232,-18.4180,-41.0640,59.2172,-33.1166,50.1794,-125.1849,-31.9344,-69.0298,-78.9457,-68.9965,-10.7401,-127.0309,-26.3743,-17.9339
-116.1096,-21.0395,-198.1525,91.5011,-181.0157,3.1890,-116.4056,68.9434,-38.0890,48.3084,-140.3152,22.5052,-137.3724,-47.4272,-87.8839,6.0288,-47.0588,-1.9130,-26.1868
-89.9282,46.7810,-115.8421,186.2355,-179.6097,73.7165,-90.0410,139.1393,11.1573,129.2301,-91.1144,91.2169,-119.5657,-11.6386,-48.9815,40.3803,39.0182,48.5616,10.6757
-78.1790,90.8983,-4.4031,229.1482,-86.7201,122.5384,-10.8024,185.7428,34.6163,180.6913,-11.0206,123.3160,-39.9934,7.8482,-12.1660,62.9840,55.1845,87.5741,52.8105
-59.8229,56.9571,47.8177,186.1111,14.7497,135.7728,36.1773,184.7364,19.7973,139.8534,42.1611,100.7283,39.2948,-4.8706,19.5846,60.8406,22.4656,97.4176,63.2526
-5.8249,-20.5116,65.0303,83.9073,82.6903,121.0897,70.9704,190.7170,25.4277,61.7832,70.0052,50.6048,93.4026,-19.0815,56.2177,52.1819,22.2142,95.2525,73.5941
53.1149,-68.8923,107.5907,7.1526,131.2949,121.5765,100.1401,213.4783,39.1478,20.3535,96.2394,13.5991,99.4434,16.6962,51.0042,60.1108,65.8709,130.6121,77.6625
74.6883,-42.5506,163.4933,29.3714,164.8587,163.5566,67.3171,210.1250,14.8033,19.1255,123.6304,27.0045,68.1957,62.8632,0.6323,67.5531,118.8100,176.5811,19.4375
76.4908,30.2893,198.7927,104.9752,167.3805,180.3524,-16.7050,187.1839,-18.6220,32.3329,148.5149,74.7702,51.9132,51.8354,-35.2772,51.4775,157.6818,158.5160,-57.6752
79.0048,58.9305,200.0819,126.4966,140.1378,128.8179,-64.2027,175.1846,-20.5375,47.1233,155.6688,89.7613,51.3210,17.7233,-34.5845,33.0659,148.8920,104.7069,-66.4309
60.5841,19.9420,151.5880,90.7720,118.6980,91.5638,-25.8791,172.7818,-2.8195,43.9891,125.2997,64.7599,43.8188,17.9631,3.4150,38.0037,87.3165,88.8149,-33.3690
19.4112,-15.4110,61.1614,56.7505,108.8190,103.8353,54.9702,177.3377,19.7070,11.4412,70.9794,51.4335,55.0403,25.4005,79.9362,45.9783,20.7054,72.3794,-26.5101
-8.4986,-21.5292,-24.1116,10.7279,44.1163,53.0118,72.0335,156.8254,34.0683,-26.6603,22.0195,42.0282,66.3841,1.5513,132.0601,20.4656,-37.4916,-26.6583,-64.8110
-15.3977,-29.6008,-73.4817,-55.6134,-90.4521,-91.2069,-23.6887,58.2121,18.5520,-40.2048,-16.4919,3.2046,10.0599,-35.2250,106.5921,-34.4301,-101.8368,-162.7626,-151.8714
-29.7853,-29.3960,-84.6497,-69.6457,-174.4048,-175.5691,-118.9914,-47.4265,-4.4026,-15.4875,-37.3879,-26.3139,-65.0799,-53.9869,67.2228,-68.3661,-134.3334,-204.6425,-234.7947
-60.1956,-9.8608,-62.1283,-18.4609,-134.9309,-136.0479,-93.6057,-30.9590,-0.6861,45.6305,-24.9766,-11.8416,-57.3242,-39.3593,54.3367,-49.8064,-125.6968,-148.9521,-231.7201
-90.0946,-7.5181,-45.6531,4.9174,-81.5386,-110.1959,-40.6695,42.1282,-7.0014,104.0527,-10.0061,-2.3055,-24.0632,-6.7306,-12.9947,-22.5733,-144.3273,-132.4519,-192.9460
-99.8459,-31.3654,-61.8201,-30.5874,-93.2993,-155.2726,-88.8336,20.2851,-48.3215,106.2264,-27.5707,-36.9486,-60.9633,-14.7932,-127.4176,-38.1075,-170.9701,-163.3148,-201.0562
-69.6001,-49.3689,-37.3381,-57.5911,-66.1557,-144.1735,-123.3171,-40.6924,-54.5465,63.2655,-26.6109,-76.3564,-89.9158,-72.3967,-129.5748,-59.4790,-107.0872,-86.3359,-174.2549
-27.2878,-56.2156,56.2850,-60.4306,42.5546,-39.9439,-18.7493,-9.3210,-2.4198,35.8552,27.1330,-85.0555,-34.0822,-83.1323,-6.6879,-31.6346,-22.8149,80.4235,-63.6943
-51.3203,-69.6858,72.1291,-91.3742,72.3041,31.3325,68.9149,61.7608,8.7704,29.1693,36.5350,-88.6199,2.1886,-3.7186,42.8728,10.3349,-75.7669,131.4309,-7.8441
-126.9847,-93.2715,-53.6251,-133.6005,-42.9706,35.3603,7.8230,67.5134,-52.6036,2.9574,-50.8152,-101.4298,-49.0247,73.7426,-41.9977,19.5777,-185.9156,62.4422,-46.3535
-136.4123,-110.0112,-146.9674,-97.4272,-136.1829,65.7702,-51.5960,40.9230,-80.2817,-11.6953,-116.7263,-78.6436,-89.8538,112.8026,-101.3637,36.3724,-159.3567,58.4452,-41.7842
-75.4269,-80.1813,-114.1850,35.1424,-118.4121,145.3283,-20.9799,59.2903,-33.2947,54.8673,-92.0832,7.4266,-80.0041,195.7721,-74.5034,99.3643,-30.1072,138.0214,19.9840
-46.9677,18.8357,-58.8918,173.9468,-90.4879,219.6198,-23.6319,114.1418,-0.6452,143.1090,-55.6804,109.9856,-90.2436,301.4382,-65.6336,153.6870,59.4454,179.5814,35.9862
-38.4942,124.7413,-10.1999,227.8083,-90.1184,244.4993,-61.4148,124.3680,-24.6505,119.2326,-35.4215,162.0894,-110.6353,288.7891,-96.4695,134.7637,96.9130,146.3024,15.9618
4.0526,135.8607,53.9735,176.4548,-69.0368,183.3351,-26.2644,47.9064,-39.3317,34.2648,-1.2142,134.7080,-84.5241,179.8687,-91.0462,76.0556,90.4908,79.1012,24.4777
7.8585,49.6056,42.2169,73.0701,-55.2892,83.3580,19.4620,-20.8053,-0.1533,67.3169,0.0760,54.2479,-46.4088,157.0532,-47.7547,63.5076,19.1436,47.9630,63.6363
-55.4260,-24.5656,-50.1869,1.4021,-75.7887,64.5683,-20.1845,8.9170,38.4697,170.9321,-46.3047,-6.8122,-35.1421,218.1956,-24.7355,94.2130,-48.2409,78.5850,100.8403
-62.8473,-15.3755,-78.8670,-31.7316,-84.8878,76.0414,-86.7322,16.3219,10.7363,114.2947,-60.4108,-17.0098,-30.4531,170.6587,-33.6054,65.5519,-50.0351,47.5980,86.7078
40.1703,36.0991,-29.3111,-99.2387,-71.3130,-44.4323,-108.0544,-132.3387,-33.3659,-97.9818,-34.2492,-28.6062,-27.4449,15.8141,-28.8836,-41.3082,-16.2523,-108.5679,44.0957
169.4147,86.0207,11.6653,-180.0850,-36.2936,-211.0979,-55.0707,-294.6899,11.1287,-236.3951,-17.3046,-48.5565,-9.4090,-35.8843,38.2165,-102.8371,66.1165,-211.2655,91.2599
259.3421,159.7262,60.7608,-157.7139,49.6683,-227.9738,75.7096,-293.0116,113.9997,-240.1241,14.7543,-1.7337,63.7289,40.8115,140.8646,-69.1275,207.1752,-178.2346,210.9689
299.5060,256.5292,124.4388,-46.4632,140.3644,-164.2266,184.3752,-216.0839,164.3670,-217.8695,69.4023,97.9514,150.9067,75.7566,200.2352,-34.7955,303.6254,-167.0166,268.5860
299.3696,304.7727,151.6000,24.9182,178.9139,-135.8458,215.1292,-181.5425,182.4855,-175.5445,96.8546,147.6835,190.1438,54.9162,223.0691,-25.8981,315.3409,-182.5185,309.5209
286.6193,276.4239,175.5695,32.5782,219.5694,-56.7848,269.7851,-130.2087,225.9967,-86.5869,112.2112,141.6822,214.1584,82.0482,254.2378,14.7659,308.5775,-111.9166,402.7865
274.4026,225.4589,209.9962,11.0073,253.1287,41.2173,318.5698,-61.9731,218.2734,-52.3341,136.8928,131.8880,230.1735,105.7800,224.6690,37.5147,268.2993,-96.3371,392.6257
281.4648,177.9590,186.2801,-60.8634,180.2075,-32.7594,208.9129,-93.0712,130.3849,-127.7984,126.0013,96.9435,178.9264,43.2712,96.2713,-23.9360,197.4630,-245.5227,243.9131
340.0908,120.4869,163.7206,-127.5812,89.1046,-193.5421,63.5069,-190.1845,87.6831,-191.0848,110.0986,42.6696,109.1588,-14.3742,14.2606,-77.5226,216.1785,-316.8970,170.4161
387.9045,97.7521,241.3052,-69.2275,136.4814,-188.8461,84.0553,-203.0518,116.9007,-150.7992,162.6289,51.9916,117.1770,22.6522,63.4938,-40.7387,301.8253,-179.1116,183.4889
331.4776,161.3264,310.0410,59.2398,217.8394,-68.2742,139.5544,-136.3975,111.5837,-85.8825,215.2864,120.7667,154.8433,87.2063,126.2067,7.6762,301.7632,-58.5122,127.0090
244.0690,241.0307,272.7960,97.6875,204.2832,-25.8875,109.4166,-105.8375,85.3252,-83.1623,191.1258,150.3492,162.8126,95.6068,145.7011,2.2760,255.9404,-60.3513,79.8288
236.3585,234.3631,242.2597,51.0395,213.3161,-35.6791,158.6486,-120.1669,128.1344,-103.3904,167.9392,118.5616,205.2182,45.1559,209.5305,-12.1792,281.5641,-38.7113,148.1483
254.5200,179.7102,269.9741,20.5176,298.6680,-12.9192,304.8283,-114.5514,201.8499,-92.1936,191.3412,84.6782,283.7303,-24.5530,314.2252,-11.2288,321.3895,28.2442,211.0249
256.5422,178.4731,271.1930,9.7792,320.5404,-10.4125,341.0277,-97.0540,222.5119,-99.6953,193.6555,80.5925,296.0443,-53.3723,346.7647,-18.8897,328.4680,26.3340,209.8369
310.4855,215.7943,262.4445,-4.2303,274.1851,-59.5382,266.4255,-119.9743,191.5396,-169.5956,179.2681,98.1924,247.3884,-22.0372,275.2803,-32.2028,365.8575,-41.5394,215.2903
374.8631,213.1050,297.1690,21.8108,270.7824,-84.7068,220.5875,-166.9490,144.4712,-200.0202,199.8816,119.5533,217.9918,10.1813,165.6815,-31.7967,409.5205,-76.4811,193.8759
338.2671,177.5463,313.6954,114.0355,269.8721,-27.7923,190.8347,-163.9349,111.2631,-92.0081,214.1570,139.6720,186.7890,17.5516,83.2829,-8.1508,393.5326,-32.8164,123.3686
256.8986,165.0623,284.6057,215.3375,215.4683,76.3047,146.5153,-95.8023,106.3960,44.7826,192.2594,172.0582,129.3776,46.0765,62.5013,34.9464,353.6793,38.4905,93.6760
230.6522,171.2938,266.9297,234.5313,188.1694,128.0814,124.6027,-48.5569,97.0027,44.5551,187.1772,195.5764,126.3899,84.0752,102.6084,55.5946,313.5750,47.8634,81.8781
223.2869,161.5147,258.3195,156.9149,206.9329,69.9248,91.0930,-101.0305,54.5793,-64.4733,205.8776,165.3489,199.3533,64.6251,163.1416,16.4371,252.4088,-9.1744,-11.1546
205.0941,137.6245,235.3920,92.3391,190.0789,-22.0494,16.8317,-208.0308,2.5176,-153.4791,205.5321,114.6268,239.4734,0.0283,186.2775,-39.6517,212.4639,-43.5341,-115.5799
204.0359,102.9046,221.4282,118.4001,143.2212,-40.0552,-31.1272,-241.9016,-34.7493,-173.8123,189.7220,104.5367,196.4828,-45.5718,145.8359,-46.8906,210.7901,-12.7649,-107.6143
179.9548,38.1364,199.6644,143.0438,123.6973,0.0995,-13.0247,-151.3520,-39.8713,-120.2352,167.7183,94.7999,143.2451,-60.2105,86.2414,-13.6417,173.1421,40.4436,-21.7220
109.1384,-32.6743,142.0539,81.5192,119.8137,17.4584,51.9604,-25.6480,4.8936,-20.2007,126.0267,41.7023,124.4425,-50.6467,68.1655,14.7589,92.2210,64.4598,42.7727
71.5521,-50.7090,88.3400,11.6117,109.4216,-3.0690,127.5956,32.9596,54.8234,18.6850,83.2467,8.0910,112.6625,-11.5264,79.8233,26.0250,46.4656,39.7436,63.7382
89.8514,-24.1146,59.8023,-7.5077,104.7152,-28.7089,146.0736,31.2792,50.1064,-50.2981,62.0505,20.8087,105.4879,21.9173,82.4330,24.5403,50.1026,0.7181,74.3197
104.1547,0.7969,48.8455,-29.9632,125.7335,-39.9179,110.0893,23.3236,32.4393,-119.8263,60.3563,19.8707,129.6733,14.7718,91.9169,11.3439,74.3014,-1.9673,93.5603
124.7425,37.4309,97.8359,-41.1713,194.3081,-19.6906,118.6836,31.1313,55.6088,-114.2262,94.8829,20.5191,169.8078,9.7460,119.2787,5.7197,124.5908,20.1179,110.1043
172.6606,85.9889,190.7042,30.3047,273.6273,49.1298,165.0550,78.1251,71.0859,-84.9397,157.2009,79.2683,183.4427,45.5716,123.0483,32.5872,179.2365,43.4480,127.2635
190.9690,76.7346,209.5825,114.6189,269.4617,134.4214,161.3319,162.1120,48.9773,-74.0683,174.5493,136.4696,163.8984,74.7156,94.7901,74.5074,188.2934,76.0270,166.0783
179.5122,14.8782,146.9076,94.7148,199.2737,158.5217,154.3062,202.9254,52.8294,-77.4660,132.8350,122.5696,143.5231,63.7650,90.4493,86.6242,168.6167,77.9653,204.3325
200.0339,-4.6593,120.0021,22.9519,194.5339,115.8802,209.3702,171.4249,100.7918,-94.0724,112.9302,92.3750,153.0563,62.1997,139.9962,72.4902,168.9568,30.7363,207.1999
206.3199,11.7421,134.2085,11.9137,261.0401,106.8122,238.7761,157.5967,119.9408,-89.6256,131.1563,92.8960,176.8129,89.1096,184.5382,74.5697,163.7365,26.9331,181.9698
121.5055,-20.6187,90.0284,27.2454,261.1770,151.9718,173.1454,180.7637,75.2711,-32.1326,107.0728,70.6867,151.7323,76.3342,129.3940,78.8713,96.3149,67.9008,130.6690
16.4858,-83.6995,-19.8768,-24.5355,158.0669,131.1801,80.4630,158.5551,27.4070,29.0949,17.1311,-3.1138,61.3099,-3.2076,-11.9859,41.3593,1.7086,26.2352,82.4738
-6.2016,-105.8135,-110.3306,-104.9073,62.6608,34.4789,43.5804,118.4736,45.1658,48.5039,-64.9104,-64.1234,-11.4479,-59.5252,-87.5315,3.8102,-21.6829,-51.6020,129.0644
23.9692,-82.9732,-126.9405,-98.6554,46.3151,16.2218,81.0300,142.2857,101.3942,47.9260,-81.8546,-48.0901,-8.5121,-15.9414,-27.3464,30.7667,34.3470,-16.7866,233.5061
37.5862,-41.4779,-85.9711,-10.7172,70.0666,91.8269,135.0113,162.5833,107.2950,33.3400,-50.6246,18.9353,23.2002,57.9234,45.8908,72.7612,75.7818,53.8443,225.1491
35.6211,-14.3347,-34.2922,37.4766,91.4363,110.1550,132.0022,108.0336,63.1595,5.2816,-9.0038,48.5481,52.7104,43.5507,51.9095,57.2500,60.7401,37.0424,130.7480
37.5569,-28.7760,5.1875,-2.1706,119.6370,50.4735,111.9098,61.6645,53.0304,2.6945,27.0364,11.2192,101.1727,-34.4079,61.3229,20.4481,30.9994,7.7355,126.6400
34.1844,-32.6930,17.4826,-69.1633,142.6465,1.7589,136.6409,59.4776,80.4141,5.1086,34.9926,-29.3207,129.1637,-54.0976,99.3251,7.0120,2.6308,-2.7018,172.9278
23.2827,21.0966,-28.4567,-130.3326,114.3495,-54.2794,136.3853,9.2580,90.0712,-42.2771,-8.6765,-41.4341,90.8465,-16.3672,117.5015,-17.0148,-28.3732,-80.0395,138.4237
21.5338,49.9772,-92.9933,-181.3196,59.6141,-141.4226,72.8422,-92.2092,92.5451,-71.5840,-59.2495,-64.4780,41.4967,-31.0420,112.4268,-61.7482,-38.1588,-174.2226,75.9163
16.4336,-0.7804,-91.2256,-177.7040,39.3782,-177.7222,11.8360,-148.8465,80.6317,-8.5087,-56.5978,-96.3504,8.7562,-103.3849,57.2866,-87.7365,-50.4650,-192.9514,23.3591
-41.6790,-43.8965,-90.9217,-135.1339,-12.9019,-162.3423,-88.7992,-157.3703,-12.7844,39.0356,-61.6584,-107.4956,-75.5333,-146.0832,-90.3204,-104.3220,-132.4486,-209.6451,-100.4554
-154.5058,-50.8187,-223.8127,-162.9833,-190.8563,-206.2417,-279.8129,-187.6954,-149.2211,-34.5428,-163.4420,-136.6687,-203.3713,-153.8317,-234.0111,-146.3761,-264.0149,-282.8199,-259.4729
-245.4268,-100.2561,-396.2191,-260.6068,-377.7956,-294.1135,-404.0190,-243.0990,-214.3897,-131.4671,-288.5252,-206.4653,-283.0416,-168.5448,-265.6133,-185.8033,-363.7722,-326.2869,-342.3174
-274.8834,-181.6696,-432.3766,-288.4312,-395.3309,-289.1925,-363.4804,-256.5550,-214.3985,-125.1544,-315.1904,-247.9059,-301.5461,-170.5072,-250.3567,-173.8463,-413.1753,-277.8311,-350.6665
-289.5915,-226.4620,-382.8090,-228.5395,-301.7765,-184.3130,-296.1920,-182.3971,-209.5307,-43.5372,-274.8061,-234.0552,-287.3147,-151.0444,-254.6050,-124.6000,-433.1022,-182.0014,-311.8289
-306.4760,-243.6613,-363.0827,-215.9114,-264.0273,-115.2808,-278.7188,-78.2255,-189.6865,10.2739,-251.0355,-229.1831,-241.3304,-154.4092,-239.0874,-97.0088,-428.0230,-126.9183,-248.1709
-283.4679,-238.0506,-333.2997,-270.3889,-280.0299,-136.2213,-266.0428,-52.5555,-165.9767,-12.0545,-234.5675,-247.2075,-211.2997,-179.8131,-218.8984,-115.6304,-399.6791,-149.1048,-236.6554
-232.4686,-190.3514,-262.0344,-261.6852,-259.2487,-158.4903,-275.3661,-89.8792,-170.8667,-50.5548,-199.9340,-234.8144,-231.7358,-183.7367,-228.5341,-134.0316,-337.0240,-146.7543,-268.5029
-221.9237,-159.0581,-215.8106,-154.7220,-217.1323,-117.9020,-295.6318,-70.4974,-162.3729,-1.7387,-167.3548,-191.1586,-236.4014,-163.6561,-207.9695,-102.7023,-254.2429,-29.4076,-263.7244
-273.9262,-183.5422,-219.3689,-65.4043,-229.1420,-65.2000,-277.7166,8.3514,-127.8689,116.2484,-155.8066,-163.7961,-209.2260,-140.2254,-150.0823,-55.5212,-245.9712,74.8037,-278.4502
-350.8971,-194.2688,-258.1990,-66.6304,-302.2699,-60.1377,-292.8347,39.8452,-135.1048,179.7033,-177.0147,-165.4054,-225.0549,-125.8875,-143.0310,-55.4455,-351.1319,22.4254,-366.8794
-399.4798,-166.9622,-326.9688,-100.8661,-372.7279,-95.4905,-364.0970,3.6575,-174.9019,164.1599,-225.8477,-173.2439,-266.5959,-133.6764,-191.9880,-87.2491,-443.8342,-95.9190,-413.0490
-383.0039,-161.1653,-371.6654,-97.4516,-388.1012,-152.5972,-360.1809,-48.0766,-183.3035,133.5642,-256.7087,-169.5598,-269.3912,-148.0856,-237.6875,-99.5062,-427.4757,-146.5397,-377.7881
-328.4546,-179.2561,-352.0774,-68.0789,-354.9842,-210.1014,-282.2552,-98.9436,-184.3077,86.2275,-247.8378,-160.5457,-270.0024,-144.9817,-261.2036,-94.0275,-373.3121,-126.6273,-364.4587
-309.2579,-193.1211,-321.5007,-52.4397,-302.2895,-204.8259,-250.9059,-124.5946,-201.7785,30.1620,-232.7127,-166.7796,-284.2650,-151.1607,-237.8584,-88.0416,-355.7984,-46.2911,-359.4919
-344.7614,-209.4215,-307.5728,-34.8031,-242.8425,-102.2129,-233.1222,-77.7697,-192.1727,49.5480,-221.5610,-177.2525,-253.1899,-173.9091,-175.7862,-65.7262,-347.2293,82.3039,-299.7351
-374.2882,-188.0284,-259.0883,28.1972,-186.1445,39.1902,-177.5099,26.9817,-165.5762,127.5843,-188.7739,-143.1163,-199.3109,-150.0145,-155.9077,-22.4288,-300.4367,188.5939,-247.1748
-339.0482,-89.0401,-162.2053,123.8005,-127.7046,145.4577,-142.5632,119.5147,-159.0491,140.5247,-130.5843,-57.0921,-172.2217,-75.7335,-167.8261,16.7821,-198.1601,246.4614,-220.8382
-254.5590,0.7186,-62.1967,188.7213,-48.5280,192.0968,-98.8902,151.8054,-133.7851,98.1510,-63.0695,16.3238,-124.3777,-33.4326,-115.2114,38.4165,-83.6023,280.2000,-159.8131
-200.8428,-0.6347,-9.8077,191.4336,19.3799,181.0873,-5.0431,130.4538,-77.0268,114.9686,-15.5262,29.9352,-51.0712,-38.7725,-32.5212,45.8583,-57.9799,262.2072,-108.7161
-216.0262,-30.3754,-41.4682,151.3035,14.4186,127.1648,23.2440,104.3754,-54.6201,162.0535,-26.2764,7.9232,-38.2808,-46.5622,-24.6777,35.9058,-136.1486,171.0633,-116.9986
-231.7072,-30.5949,-125.3295,87.1882,-50.3421,45.0491,-46.3933,106.3007,-81.2147,119.8980,-82.3763,-15.2707,-89.5624,-62.0388,-82.1792,7.4019,-208.2757,54.1897,-109.4454
-197.2901,-34.8117,-179.9262,18.9235,-119.1383,-50.6112,-82.4305,123.7852,-100.6841,21.9387,-126.6856,-34.2545,-135.0591,-87.0399,-140.5951,-19.3091,-217.2585,-36.5551,-55.6847
-162.3400,-31.4414,-182.7731,0.6549,-164.5749,-107.6123,-55.7022,157.7878,-69.3945,10.1825,-135.0620,-31.0008,-143.8217,-84.0042,-142.7799,-18.3621,-187.0701,-69.4050,-5.4922
-136.0637,22.7558,-144.2532,53.1892,-150.2625,-97.1178,-16.9965,209.6828,11.6990,85.4812,-103.5206,14.7126,-102.8189,-73.2548,-54.9699,0.5178,-113.2631,-56.6675,37.4858
-68.0334,59.9174,-69.7471,92.8104,-84.2789,-96.9680,24.1524,211.0234,61.3062,99.1395,-42.4941,54.0814,-52.3183,-101.2176,13.3508,-4.4215,-33.9194,-71.7486,40.2400
-17.5148,-0.4365,-39.3511,51.4095,-81.7982,-149.9764,-7.6736,124.6375,-7.3079,9.1624,-23.8022,21.6587,-89.0296,-131.9663,-68.4390,-39.0274,-47.0236,-115.1173,-62.4657
-63.0969,-80.5661,-95.3082,7.7493,-157.9592,-146.8440,-136.6011,47.4455,-113.6879,-44.8432,-69.5360,-35.6199,-169.5181,-118.5282,-180.5158,-54.6170,-109.5965,-84.5711,-183.5909
-105.5380,-69.4083,-92.0090,56.7973,-136.7781,-26.2731,-186.9965,64.9891,-121.6849,6.7290,-63.2881,-21.1442,-140.8714,-82.7402,-159.3409,-24.0530,-73.5122,31.6918,-179.1185
-51.5251,-4.9396,43.9553,151.5870,28.2131,111.5437,-89.6880,145.9873,-74.1757,55.9022,37.8959,49.6832,-30.9492,-34.9831,-94.8931,29.8515,48.8426,153.5512,-79.9269
3.7375,29.3908,140.2406,215.0645,154.3621,205.9395,1.8824,247.7488,-52.1699,53.3954,106.4389,105.2757,23.3845,47.5720,-69.0127,90.4119,135.3178,264.3939,11.1188
3.1166,42.8894,123.7346,257.8406,170.2635,287.3934,51.0831,337.0504,-2.2469,80.0685,102.7079,147.7913,49.9838,132.4913,20.8099,148.8729,172.1120,343.8614,79.3346
30.0073,47.9781,129.9820,273.4911,174.4158,319.4435,124.7715,345.8198,71.4900,117.6941,120.8386,180.2729,114.8430,149.6255,145.3239,169.3069,186.1612,319.2710,126.0290
79.9732,12.7102,151.2925,210.7668,162.1700,248.8642,144.2333,271.1199,62.9315,68.0159,138.9944,154.2597,136.4959,98.0555,135.0944,133.1677,146.1984,208.1854,130.1873
69.2860,-19.1246,69.0802,115.4631,66.0970,130.3703,58.2564,184.4946,4.5287,-9.6951,73.7865,95.9657,66.9712,46.8294,31.7150,75.1285,72.3863,79.1201,86.6163
38.7242,29.7187,-27.9794,93.8194,-42.5419,27.8404,-24.0327,78.0288,-0.7139,-10.7228,1.5218,92.4697,3.4605,29.1382,-1.0345,23.0062,42.6053,-67.2831,-18.8078
64.7153,96.6511,-3.6004,133.6611,-69.4724,-57.2947,-61.8126,-83.9787,-5.1780,-13.9446,22.3241,124.4461,10.5245,9.9493,23.9180,-24.9732,61.6878,-177.2193,-164.7388
101.1155,77.9823,65.3547,151.1753,-53.4567,-99.2139,-101.5116,-200.0637,-67.1825,-89.2515,74.8693,116.5696,40.6025,-15.5261,24.3719,-47.3864,78.8417,-142.6456,-242.8297
84.5696,28.7293,73.1930,143.9743,-65.0451,-64.9808,-122.4343,-163.7179,-94.8036,-103.8594,76.3840,91.1113,37.6506,3.4623,14.3158,-21.1276,74.2634,-31.8907,-197.2348
45.0579,33.4677,48.0049,135.3348,-99.1886,-4.9614,-112.2236,-66.1873,-40.5590,9.0710,47.7630,88.6365,6.1983,44.2018,12.5235,12.9040,53.3530,-14.9373,-108.6296
45.4017,25.5848,32.4398,87.3373,-109.1342,7.6303,-106.6413,-59.1371,7.4191,77.7633,30.8042,65.3885,-6.6465,18.6112,7.9729,4.0340,36.0634,-73.3665,-47.0532
88.4477,-59.1178,31.9219,-1.9344,-71.1201,-13.0327,-97.8070,-122.1469,-2.3448,3.2914,33.2946,-0.1750,12.6866,-41.4594,13.3292,-19.1325,36.5919,-61.4019,-6.9391
92.5152,-134.0544,40.7444,-47.5749,-17.3737,8.7242,-79.5173,-126.9625,-32.2734,-61.6290,41.3458,-47.2367,18.8834,-29.2432,28.2847,-4.6244,21.7589,42.2870,2.3404
13.1561,-118.6219,33.4600,-9.4494,12.7016,90.9437,-65.9468,-59.8037,-43.2571,-10.1301,32.9498,-40.1087,5.9369,17.3999,37.0748,27.3413,-16.6739,136.1343,-22.9524
-37.9459,-65.9758,20.6586,42.6678,40.9356,149.1255,-22.4041,-38.8330,-26.2328,35.7352,19.5077,-13.7205,19.8051,-2.2743,48.0266,28.4461,-5.2083,154.5656,-26.3855
24.6181,-49.1121,41.5302,39.3635,85.8324,117.1714,39.9996,-106.8816,-7.2682,-17.6646,27.0422,-8.6155,37.6689,-45.2927,46.8316,6.3039,63.1999,123.7943,12.7565
76.8466,-55.4565,59.7842,0.8782,95.8299,58.6042,32.7782,-146.7053,-14.4465,-56.9081,32.1146,-24.7988,8.3829,-31.3921,5.9321,-3.4263,75.6229,89.4339,31.8778
27.5699,-37.2191,36.7378,-6.5132,49.4651,53.3997,-26.5389,-83.5538,-20.7914,7.7919,19.6750,-21.8987,-17.5870,5.2001,-26.0449,2.7329,11.8295,44.5746,-1.3089
3.6654,4.3690,31.9332,32.2483,5.4196,60.9118,-47.4787,-25.6421,-9.2528,54.3180,30.6378,23.3778,9.5457,15.9835,0.5910,5.1996,-14.2360,-24.1306,-45.1298
73.9991,17.6978,61.7240,48.9782,-12.3012,21.5403,-53.8692,-72.8616,-29.4860,-33.0351,55.7498,55.6945,19.7706,13.5295,14.7827,-6.5088,15.7631,-75.9280,-56.9370
117.8400,-22.8619,55.9023,-13.3781,-32.9086,-22.6806,-77.8678,-137.8949,-76.6465,-140.1977,36.6516,15.8506,-28.1755,11.1758,-44.6486,-21.1190,10.7076,-77.5577,-19.7114
86.3620,-79.1264,34.0877,-100.6033,-43.8295,-17.4612,-49.0139,-113.0732,-66.9867,-115.5847,6.6428,-50.7257,-49.9326,12.4458,-85.1636,-17.5329,-36.0345,-54.2411,38.9979
55.4325,-112.7074,59.8279,-124.6938,-24.2131,9.4315,24.1706,-70.6042,-17.1490,-29.1652,29.4030,-72.2696,-6.7230,10.3658,-29.2945,-6.2594,-73.1078,-40.6525,24.5775
38.9544,-129.0732,75.6658,-97.3186,-14.2726,10.8646,25.0460,-122.1647,-30.3969,-27.6507,52.9110,-68.2279,13.9176,-24.6605,24.3127,-22.4153,-102.4568,-43.1176,-87.5246
21.1915,-135.5532,37.2254,-73.8174,-28.8521,-1.2989,-36.1381,-201.4599,-79.2525,-71.4307,23.6477,-77.4372,-25.2351,-76.7472,-10.5906,-48.6536,-100.1175,-29.4376,-139.0335
38.2625,-123.7198,31.4775,-45.2023,-1.7500,18.6170,-17.1918,-178.4888,-46.8245,-37.7093,8.4576,-73.4121,-30.5959,-83.7314,-40.3210,-29.4212,-14.5332,40.0866,-18.2185
73.2200,-103.0762,79.8758,-8.8863,84.1991,64.8265,104.9060,-86.1029,40.3126,35.5921,42.6366,-44.4265,37.7324,-46.1298,9.7792,19.9179,75.9125,117.0546,126.8751
56.1791,-99.8329,67.1835,-31.8780,127.1604,64.3363,176.0547,-40.6334,53.7446,25.9495,40.5149,-44.1884,62.3817,-14.8480,35.0241,31.0466,35.5838,99.6392,129.0261
3.3430,-124.3233,-41.3847,-134.9564,55.4752,-19.6365,90.6455,-59.5671,-13.6107,-54.6938,-37.7658,-98.6800,-32.3480,-15.0603,-43.8435,-8.5992,-96.5673,-11.9929,44.9603
-12.1964,-156.7065,-137.6167,-234.8701,-61.4045,-131.0019,-53.7396,-118.5054,-57.7771,-101.6284,-109.8273,-158.8802,-135.1005,-64.0624,-127.3762,-66.3384,-171.1952,-140.7216,-23.0926
9.6190,-162.4900,-143.9851,-257.1968,-127.5924,-198.0447,-110.8646,-204.4433,-41.4243,-84.5004,-112.3696,-174.6270,-138.7796,-134.4621,-117.5858,-111.7266,-158.2924,-227.0852,-77.0301
8.8164,-131.5635,-93.6325,-200.4120,-138.3534,-179.5766,-87.1803,-224.2408,-18.4687,-41.4769,-77.6673,-143.8091,-101.0294,-125.9759,-58.5732,-102.7294,-127.7417,-195.2558,-101.6658
-27.1740,-85.5277,-45.3319,-101.0177,-117.2962,-63.6941,-53.9966,-110.8314,-21.1935,-4.0555,-50.0687,-85.7889,-86.3352,-34.0729,-23.6583,-35.7169,-101.1832,-45.8696,-56.8568
-35.2621,-40.7781,-7.7454,-18.0786,-56.5462,75.7763,3.3370,11.1320,-19.3783,3.9936,-24.6813,-22.1940,-52.3916,11.7275,-7.8148,16.0565,-60.5091,46.0763,27.3160
17.8001,-13.5225,29.9979,0.2465,21.0048,122.4973,95.3210,32.5257,15.8794,-14.8859,9.5260,16.8800,15.2683,-11.4620,31.0106,19.9610,-20.7892,3.7278,106.7656
56.1011,-36.1112,39.1844,-25.5472,54.4832,87.7632,147.9730,42.1636,54.2528,-19.0257,26.7839,11.8803,51.9076,-1.9686,81.9886,29.0559,-15.5444,-11.8757,150.3869
15.1008,-95.9924,-3.2263,-37.6175,30.2421,79.9173,119.1144,89.5063,38.4762,1.4991,4.1848,-15.7298,25.0631,35.6292,67.6757,51.8472,-49.0730,51.6608,107.8568
-44.9239,-123.1546,-50.4736,-20.5655,-17.3374,107.6032,53.4806,88.8484,-22.9273,14.8816,-34.6097,-28.5446,-39.4964,23.0020,-31.4659,43.6567,-90.8550,58.6912,19.1539
-60.7297,-100.7804,-64.9709,-15.0637,-66.4117,92.2782,6.4080,46.5588,-48.8380,25.3356,-61.9481,-33.4000,-102.2244,-25.9992,-107.9558,13.9794,-111.9479,1.7956,11.3263
-56.8184,-87.9117,-82.8862,-66.6694,-97.5955,18.1316,3.0345,29.0750,-4.5696,50.6679,-85.9337,-66.7925,-123.8550,-66.8003,-96.5774,-8.8191,-113.6063,-38.6459,79.8759
-44.4203,-102.9108,-110.4408,-142.8749,-80.6236,-55.9551,34.6093,3.1821,50.5990,69.4856,-102.3651,-110.9600,-100.1796,-82.3768,-67.9798,-25.9026,-103.1247,-76.0013,114.1705
-11.6834,-97.0254,-82.3672,-127.9660,-15.4375,-58.2432,78.0240,-23.2347,68.5492,77.5894,-73.7256,-95.5995,-59.6370,-36.9903,-46.7652,-10.1418,-69.0172,-65.7306,108.3949
13.0360,-45.7341,19.1610,9.5569,67.0382,34.2250,127.8275,23.6151,60.6285,84.1291,6.7849,-8.0472,-1.2526,49.0435,21.4731,49.6102,-6.6573,60.6442,102.7624
38.2886,11.2025,133.1604,123.8234,141.8880,136.3809,156.9476,76.7194,35.2352,50.7224,95.1167,69.9957,75.9136,76.5486,81.0291,81.4779,64.0931,166.8474,84.4577
102.2716,14.9840,201.8888,95.3537,185.8767,149.1512,122.6283,54.6666,5.7707,-11.1162,147.9296,69.4017,121.8482,38.1922,47.0914,55.2231,110.4133,131.4185,82.5163
139.6382,-35.0700,197.7732,1.8686,174.5346,110.6883,70.6865,62.7197,16.4496,-2.7071,149.7206,22.5891,116.1990,32.8838,8.4459,42.7160,97.9027,72.3356,116.4520
89.4740,-60.5650,135.2754,-31.1175,115.2977,104.8214,67.6010,145.0258,55.4125,59.8296,114.7124,9.8792,99.9507,85.4858,54.8701,65.7608,38.4568,61.8417,95.5963
49.7266,-15.3633,82.9407,3.5423,50.6273,105.8280,56.5806,152.2741,48.9601,44.9497,80.6952,48.1208,77.7371,126.2551,86.2578,65.9206,17.6844,24.4533,-1.3556
86.8817,37.1883,83.3188,51.4125,18.3073,71.9538,0.7479,55.2357,4.8667,-28.3111,68.3092,79.5279,31.5482,102.7231,29.2174,35.1814,81.2877,-9.7105,-52.1734
104.8200,39.6406,99.1579,81.2556,21.1143,49.8330,5.5518,6.7645,3.1402,-34.9139,63.3613,71.3350,5.4052,26.8049,-7.6860,14.8579,141.1706,25.5170,-19.0281
60.4525,19.6471,87.0664,81.0469,26.8173,64.9195,94.9214,49.7269,39.8006,-0.7618,53.8292,57.4033,29.9319,-23.7992,51.6159,17.7755,103.1428,51.8577,18.2687
25.4315,-9.2718,42.5797,41.5278,-3.2925,55.7638,129.2182,81.7525,47.9536,-8.7474,35.6775,47.9066,47.9175,8.1811,116.5610,30.7901,0.5175,11.9492,22.7926
4.2111,-66.4221,-20.9182,-40.1198,-73.3398,-18.0599,51.2913,34.9261,18.2026,-19.1457,-0.0306,-2.4401,19.6167,48.4263,87.5267,22.4182,-88.6805,-46.4250,-19.8036
-36.9510,-108.4216,-64.1206,-127.5821,-140.2259,-113.4682,-60.8749,-75.1200,-27.6001,-6.5737,-34.1940,-82.1773,-14.6970,8.1809,-5.1903,-30.2151,-143.9581,-106.7812,-117.2892
