Fp1,Fp2,F3,F4,C3,C4,P3,P4,O1,O2,F7,F8,T7,T8,P7,P8,Fz,Cz,Pz
37.2503,-127.7685,38.4563,-153.9983,-12.9469,-198.0900,-29.1337,-197.7067,79.7263,-183.5129,61.9000,-130.8045,46.0469,-174.3433,3.9814,-163.5496,15.5572,-130.5201,-19.7182
29.7869,-131.1714,18.6641,-178.4007,-14.3252,-218.2710,-35.6770,-200.9712,95.5519,-159.6411,56.3536,-120.9370,43.5719,-158.4196,-6.6019,-165.0843,5.4631,-144.4875,0.7704
9.3220,-122.0246,-18.6817,-178.4113,10.9038,-210.2506,-9.1442,-161.5100,70.0232,-75.5156,29.3974,-105.2703,19.1731,-133.4695,-70.6384,-163.4230,-5.0243,-124.5829,31.0169
22.7478,-72.7588,3.0395,-103.4873,59.7733,-129.5858,10.2885,-86.1623,-6.9570,3.9323,76.9134,-65.1872,31.0711,-94.5158,-95.0683,-117.6130,9.0596,-42.1092,32.7156
49.0186,-34.2517,55.4610,-57.3245,80.0584,-92.9946,-1.9507,-58.5030,-45.2500,-21.5528,123.0501,-14.8821,59.4553,-59.5231,-72.0879,-92.9598,18.7188,-13.5670,6.9371
41.6498,-51.2550,54.5641,-102.2147,64.4977,-157.7084,-6.7160,-105.9651,4.5599,-99.5201,81.8172,-8.7324,43.0258,-64.5753,-100.2032,-153.2882,2.5249,-78.9315,-20.2364
15.3721,-82.4451,15.5690,-158.2486,27.2150,-219.6341,-12.1511,-168.3101,41.3310,-88.1435,25.0723,-52.3323,-12.7474,-109.4664,-166.3562,-227.3542,-35.1775,-130.9215,-57.0136
-2.5802,-79.0296,-9.7890,-168.8622,-32.9639,-218.0585,-50.0348,-176.3888,18.3753,-5.3764,4.4411,-69.5251,-67.2831,-130.4181,-155.3078,-215.1358,-85.6657,-125.7471,-92.5505
-18.0768,-63.4538,-34.5894,-157.4691,-80.3286,-188.5330,-78.0396,-113.6753,42.3004,32.6049,-15.5684,-46.0285,-98.4295,-102.7424,-61.8257,-136.6441,-119.9434,-121.0024,-78.8646
-25.4857,-72.4407,-58.0897,-144.2773,-74.0616,-153.1549,-71.2369,-47.1586,112.9295,38.1116,-27.1906,-64.7379,-99.9527,-97.6118,-3.8970,-93.1293,-116.8814,-135.3370,-39.1077
-15.4960,-81.9540,-49.0347,-130.4752,-49.3514,-121.4167,-80.8597,-50.2881,86.3904,40.6734,-14.9018,-112.4274,-95.3316,-138.2999,-53.5636,-123.0265,-110.5767,-131.5683,-53.6206
-7.1569,-39.8899,-33.9535,-90.6944,-58.3902,-86.9589,-116.8932,-78.2856,-23.7458,-32.1105,-2.3774,-76.4359,-108.7212,-133.8989,-155.3538,-150.8675,-118.4999,-79.1827,-117.1604
2.0267,46.4130,-31.3996,6.9952,-85.0830,-19.7106,-140.4695,-54.2778,-71.8825,-132.4480,26.0334,21.5013,-114.9495,-52.1719,-214.2507,-114.3949,-76.1673,0.9846,-151.8138
39.1013,95.8464,12.9354,93.2464,-82.1129,30.2703,-145.7273,-26.5386,-59.8047,-120.1681,74.2779,54.1279,-91.2805,12.5044,-216.9002,-77.0840,40.5032,30.2997,-122.2426
80.4467,51.9634,94.0389,55.7920,-24.8283,-16.5321,-110.0474,-54.4950,-59.3642,-87.0789,85.3981,23.7600,-50.1359,11.6610,-199.8767,-102.9183,125.8701,-13.6319,-37.7030
85.4701,-26.0824,134.7043,-41.4721,79.4128,-77.2464,4.5447,-62.2269,-31.1134,-169.4337,68.9495,26.7171,11.0174,7.8002,-160.2709,-123.1230,112.4389,-31.7980,73.5406
78.1673,-36.6834,145.4634,-35.1998,183.4788,-32.9401,131.1602,5.3063,40.0908,-198.9107,79.2434,71.9188,70.8126,29.9401,-115.5942,-77.8292,92.0100,22.4345,149.6647
85.6808,8.4937,170.9375,44.2396,228.9248,27.7333,161.1739,46.3362,72.8151,-42.6190,78.0962,93.9031,63.5953,17.8553,-120.0679,-40.9313,128.2876,48.3130,143.5943
75.7109,14.4447,156.5495,43.3807,200.1998,-15.9502,107.9443,-14.9109,54.5142,98.5345,38.3752,54.2038,17.3342,-52.0771,-126.5427,-65.6224,131.1826,-8.3637,72.7161
33.8740,-18.7124,70.4122,-20.3034,117.9937,-81.7520,39.4416,-83.6530,35.3323,84.0607,20.7443,-13.4221,28.7447,-100.4883,-61.3185,-89.4035,48.8974,-66.7417,-18.2005
-2.7743,-14.4805,-14.0382,-38.8433,8.0624,-80.8066,-42.0730,-73.7961,-7.4995,-3.8369,19.5104,-29.0512,58.6427,-68.6958,-19.0757,-83.9528,-31.7855,-82.7709,-85.7108
-12.3975,9.1749,-49.1132,-45.7392,-76.6356,-90.5983,-117.5550,-63.4852,-100.2043,-137.6468,-4.4815,15.5373,25.0836,-17.8121,-81.6927,-101.5131,-50.9086,-96.6343,-96.7884
5.8850,-1.8850,-27.5106,-75.2838,-63.8632,-137.1632,-112.5278,-115.3475,-179.1174,-254.0166,17.4785,41.6446,11.2023,-8.2036,-118.4654,-128.6419,-19.8246,-94.6316,-70.9242
46.8186,7.6363,56.4689,-21.9811,29.9858,-98.5050,-43.1194,-118.4349,-187.0430,-188.6546,95.5761,39.9240,81.0699,4.3924,-53.4629,-84.9656,58.0391,-23.6491,-56.3646
63.3000,59.3927,106.8303,95.5179,74.1430,22.5316,-21.2415,-16.5330,-143.0140,-42.2774,92.4540,48.9211,112.5614,28.4390,-9.1223,7.7344,118.3776,61.0551,-48.1395
13.5913,33.5370,14.6832,65.8248,7.5989,34.9962,-54.2357,27.2427,-80.4247,-42.5693,-9.1916,10.5286,49.1016,-23.0692,-21.7367,27.4219,56.9934,43.5416,-16.3739
-52.4610,-76.5230,-117.2777,-105.8127,-60.6069,-94.2065,-43.1986,-56.6637,-20.1842,-63.8610,-66.4637,-84.7688,1.3547,-119.3921,-17.2020,-45.5686,-67.2219,-50.4616,13.9756
-66.2025,-93.8514,-134.3763,-158.8915,-55.5032,-157.3987,-4.9765,-82.7536,-4.6469,31.4637,-48.7332,-87.5552,0.7732,-102.9851,-33.1813,-92.9909,-108.4686,-81.1437,0.9878
-45.4641,-8.9994,-89.1137,-76.7346,-63.2943,-100.1766,-47.9425,-8.0637,-73.9468,-1.5694,-35.5111,15.3506,-8.7717,3.0978,-85.3589,-73.1830,-92.9650,-42.1010,-46.1575
-32.9734,-18.5633,-74.3583,-103.4488,-126.0061,-123.9711,-133.7993,-57.4917,-189.5437,-246.6725,-31.6213,21.8901,6.2118,-1.5151,-56.1746,-89.8375,-113.8680,-64.3709,-92.8645
-22.9529,-139.7222,-55.2485,-248.2407,-150.0098,-277.5977,-143.3751,-266.5262,-245.7690,-398.9231,-14.7259,-105.5770,70.2165,-143.2329,24.8215,-191.2912,-126.3770,-162.9424,-122.6034
-8.6296,-205.8047,-24.3618,-311.6495,-113.4520,-365.1619,-108.9942,-396.6590,-198.4193,-381.1256,-13.5419,-195.3963,99.8984,-253.7063,-12.9730,-293.4506,-91.8806,-228.0419,-131.4965
-9.7275,-204.7215,-33.2873,-293.3893,-100.2990,-323.6759,-102.1155,-360.9825,-105.9962,-380.5559,-37.7921,-213.5001,65.5898,-269.2358,-107.7229,-329.0992,-89.7810,-239.4242,-114.0696
-35.0061,-234.7117,-68.1867,-306.6334,-122.3331,-271.3858,-61.2339,-270.1314,-8.3044,-365.0512,-69.6250,-248.1746,26.9107,-266.8181,-57.5580,-300.1754,-153.5181,-246.9847,-70.0465
-71.0185,-267.6078,-101.3203,-314.3578,-139.0153,-231.9210,31.4893,-176.1822,106.7485,-266.3842,-107.7311,-277.1633,-8.7015,-276.9776,75.3993,-229.0150,-216.4600,-235.7018,-20.2541
-91.9915,-245.0576,-129.9077,-270.8855,-153.6684,-175.5994,68.2224,-112.8002,199.0280,-221.7655,-142.0253,-254.6149,-57.8018,-263.5098,87.6393,-173.8139,-223.3685,-192.2527,3.3994
-77.0739,-202.4728,-108.8711,-229.8546,-147.7823,-155.7892,39.5185,-137.8743,198.1221,-217.5948,-146.4834,-218.8851,-79.4754,-218.3074,9.5558,-171.8463,-165.8114,-154.5851,-9.1520
-38.1937,-154.5587,-29.0293,-181.1534,-84.0190,-162.0579,34.3497,-184.1566,118.3444,-94.8984,-106.2741,-176.5600,-49.2392,-174.3462,4.5245,-154.6164,-78.8743,-123.2485,-38.3625
-0.7361,-81.6588,34.3262,-77.4395,5.1615,-101.8814,45.0991,-144.8229,36.5033,49.7627,-29.5207,-106.1024,1.4212,-152.9214,68.9838,-71.2508,-9.3897,-78.1345,-44.8641
30.5021,-34.8529,57.7098,4.6654,67.1660,-20.3514,31.8572,-71.6563,9.5148,54.2025,33.1954,-61.5309,35.8009,-133.7311,87.5849,-6.0582,48.7528,-51.8451,-1.1099
41.5700,-54.9915,59.8014,-20.9326,76.6427,-38.3386,20.0434,-63.4910,52.4949,22.9383,25.7467,-83.1120,17.5345,-94.5668,44.4174,-29.3019,88.9846,-76.6546,44.7840
10.4201,-73.3821,9.7403,-79.7060,17.0997,-104.3863,10.3560,-98.3984,122.7624,66.3925,-27.2373,-105.7101,-55.9117,-55.6856,12.9185,-74.1346,55.4258,-128.0765,15.2781
-29.0173,-34.3685,-58.6085,-54.8510,-48.5642,-82.3119,-2.8930,-101.3229,153.7117,109.9028,-57.5377,-75.0364,-107.1119,-36.4627,30.0198,-52.4407,-0.6220,-146.0160,-44.7917
-25.8634,17.9616,-49.3976,37.5991,-27.0671,17.3205,16.0274,-45.1101,136.3897,123.9388,-52.1650,-26.6177,-86.8916,-11.2216,75.1409,37.3042,32.7915,-78.8618,-29.1154
-2.7497,45.2373,-4.3748,99.8550,14.8532,91.3299,31.4787,27.8053,96.4643,149.3733,-26.7823,0.6229,-63.3398,35.7003,104.0826,124.2565,88.9924,32.0795,20.9486
5.2068,61.8635,-7.6562,99.7245,-22.4849,109.6190,-16.4351,41.2546,38.4564,135.0066,16.8214,13.3179,-85.6230,72.0309,67.2737,124.6083,62.5781,68.1875,6.6773
23.6906,70.3136,5.4927,87.1451,-41.4142,110.6537,-61.2513,5.3420,-14.9194,55.6231,55.6540,22.9417,-93.3914,79.0179,-24.5401,53.7995,43.7303,27.8525,-17.5577
55.5065,59.8980,68.8454,87.1926,38.0366,115.1705,-43.8688,20.8498,-23.3331,31.4486,62.1864,27.9788,-51.8281,79.5236,-66.4390,33.9624,89.1729,31.7337,27.9824
51.4300,35.2153,80.9716,70.0757,95.9046,115.9239,-6.1520,101.9323,16.0958,119.6927,44.8771,21.4763,-17.4005,84.2933,2.4083,98.7802,84.6973,86.5310,93.6847
14.9042,8.8629,35.0717,53.1657,86.9641,133.6267,68.1737,173.7669,82.1390,186.3292,20.5591,5.9968,-22.1809,88.2257,88.5986,150.9820,27.6630,114.4660,134.7814
-6.1030,8.2490,13.6265,93.5738,102.7412,196.0971,174.0933,225.3987,121.7128,128.7558,3.2574,6.8640,-37.2324,106.2031,91.4855,159.5802,20.4169,145.0844,149.2765
-12.1219,43.7349,-8.4931,143.3686,101.2969,238.1474,149.8029,251.9328,59.3283,31.6673,12.3100,28.0637,-44.0142,132.5344,54.8872,165.7569,14.5630,187.1928,90.0030
-11.8274,62.7648,-43.3746,110.7744,17.3591,175.7135,-13.0999,194.6970,-52.8122,1.0781,45.5821,29.0088,-29.7616,122.4922,59.9429,146.1575,-29.5304,143.0114,-4.6695
20.0113,36.4661,0.8716,55.8037,-15.2892,86.6255,-65.8323,101.3597,-66.8717,19.6271,83.6068,9.7037,24.9812,79.6942,84.0845,95.7975,5.2462,57.9650,8.2171
58.6454,26.6655,87.2395,81.8209,70.2323,93.3410,31.1276,94.0948,-18.5916,30.1653,102.1089,25.9712,80.6719,62.1892,61.1024,90.2882,105.6743,92.0106,97.7260
41.4634,57.7278,67.9355,127.3956,117.3617,141.7231,59.2149,144.5724,-53.8070,19.5565,66.2054,69.5375,74.1890,75.7677,6.2472,135.0139,108.2918,194.6215,105.8801
-6.0449,60.0930,-14.2530,102.1192,79.2269,133.4747,14.7127,149.6852,-102.3368,-2.2678,0.9090,70.7781,43.4486,75.9167,2.5898,151.8192,31.8594,200.4017,61.3465
-8.1093,13.7107,-6.0622,50.5736,87.0584,92.9935,49.1858,113.4273,-35.1909,-16.9786,-0.4296,27.2272,63.2176,45.1640,60.2072,109.6826,4.6977,117.9042,56.7173
23.4773,-19.4084,61.8680,25.2517,135.0704,49.4002,95.0878,69.8283,40.2308,-8.5305,51.9184,-8.1660,93.5222,-8.3746,80.8376,30.6185,7.1643,35.3933,29.1192
27.1643,-15.2270,67.2121,12.0537,101.9184,4.2352,41.8806,30.8845,22.5375,12.9071,42.9428,-19.5410,62.4747,-49.3087,35.6170,-25.0297,-6.9941,-14.5546,-31.4944
3.8842,1.6884,20.4068,12.3303,9.6108,8.2604,-20.8401,33.8393,14.6112,26.4844,-19.2435,-11.1666,1.6373,-20.0326,22.0919,8.7475,-8.8075,-3.8424,-24.9408
-12.3357,26.6284,-9.1615,25.9761,-41.9247,51.5711,-28.9057,57.4108,37.7655,23.1115,-36.5409,25.0321,-44.1919,60.2393,45.8500,70.8584,-20.2385,38.6718,-2.3033
-20.1853,62.2991,-23.4246,28.6632,-58.2021,45.4546,-56.5977,26.5749,-20.5114,5.4928,-28.3464,73.9951,-86.9265,96.3916,5.3321,51.1828,-62.4651,28.4001,-67.9548
-27.2562,85.3802,-43.8130,24.0702,-84.4712,1.0963,-118.2411,-31.5074,-115.1240,-6.2837,-45.9989,96.0314,-103.5231,69.4800,-49.1678,12.4196,-73.3818,-9.0952,-131.1059
-26.8845,70.8835,-53.6514,12.4498,-93.0944,-11.8055,-142.0185,-40.5494,-114.3091,0.2695,-48.9209,80.3723,-59.8595,46.1880,0.5359,51.9924,-47.8349,5.8744,-90.6882
-20.7905,26.3155,-39.2381,-24.8689,-42.8632,-9.3413,-92.0851,-16.4722,-47.3032,2.9937,-30.0856,53.2546,-6.3075,44.1355,55.5935,80.0964,-46.6834,33.2176,-11.4372
-21.4133,-21.3508,-23.2813,-61.3413,29.5419,-18.8027,10.2474,-5.9661,13.1021,-2.2728,-36.0565,19.6861,12.2614,19.1626,2.9457,12.2652,-59.2477,5.8959,34.0827
-30.3814,-48.1788,-26.8399,-59.1424,53.7958,-21.2743,93.5176,-9.2006,80.5345,22.7596,-43.6785,-24.8032,33.5331,-28.5278,-16.9464,-46.3884,-57.8416,-36.4068,32.3465
-32.5487,-33.2665,-26.2391,-29.4319,29.2682,-14.0615,94.4896,-10.1662,136.3268,54.0103,-20.0124,-24.8107,67.2472,-34.5306,73.8521,-11.8876,-57.1329,-33.6547,-7.6927
-15.2682,10.1798,2.4170,1.3474,6.4253,-3.5009,57.2511,-5.4285,135.2207,3.2192,0.8821,46.4816,66.7287,13.8550,84.4031,21.0504,-38.7126,-8.9979,-16.0337
3.1180,16.4606,20.4112,-2.4759,-2.3155,-3.7884,54.6545,-16.7424,108.9225,-86.9571,-2.9866,80.5444,33.1600,32.0593,-36.3428,-29.3481,-2.3746,-25.1483,40.0433
-11.2007,-41.8801,-14.5732,-70.0805,-6.9598,-46.4998,64.3110,-48.0032,93.9437,-65.7632,-32.4535,7.7828,6.2435,-13.8102,-65.5329,-76.9390,-16.8438,-77.6155,78.0313
-45.6083,-94.0074,-63.3542,-136.6418,4.7700,-87.9789,57.7360,-40.5486,82.9809,36.6756,-83.3374,-61.9024,-2.8079,-42.4655,34.6404,-40.0425,-71.9247,-95.6249,75.9053
-46.7835,-86.1254,-63.9646,-110.1061,29.4141,-50.4522,73.4173,11.5936,92.1768,43.5874,-87.7197,-55.8805,7.7390,-33.9054,46.4541,-12.6354,-67.5717,-76.5672,93.7719
-12.0145,-57.7312,-28.2903,-32.1764,42.8725,10.7994,109.2515,25.9621,117.5536,-36.8926,-15.8050,-44.6370,37.1281,-51.3350,-40.7732,-61.6471,-1.3652,-74.8157,106.4530
1.4262,-42.3056,-11.7328,-1.0853,42.6542,9.1691,111.3738,18.8383,96.5680,-61.2917,17.4519,-33.1921,64.3157,-46.2992,-18.5638,-48.6723,40.2863,-52.7758,94.3814
-20.4740,-26.8420,-27.4847,-13.1461,32.2067,-3.3624,89.8104,57.5519,37.0743,-44.3585,-37.6856,22.5573,73.1952,41.2198,89.8507,62.4346,33.6522,8.6456,117.3671
-26.9587,-14.7543,-37.0286,-11.7004,14.9787,26.2166,88.6005,51.0894,29.5981,-57.5439,-54.4395,41.5896,52.6855,74.9138,64.1479,57.2991,17.0327,-11.7179,125.7342
-0.9856,-3.2580,-16.4618,21.3602,9.1933,49.9191,78.6626,-46.3056,66.3786,-23.7042,10.2778,-14.1474,-8.8356,-27.6366,-68.4014,-71.9215,16.7243,-97.6929,36.2496
16.2092,30.5502,5.5408,61.8315,3.0422,42.8260,15.4815,-59.1780,40.9718,87.2499,46.2713,-19.1125,-76.3319,-94.0971,-93.1444,-59.9399,21.8757,-45.4656,-43.6989
13.5349,54.2714,14.2181,61.5472,-22.7591,18.5984,-48.8917,47.0876,-46.2653,125.1936,32.2011,44.2260,-93.4536,-41.0288,-30.3158,59.8114,8.2740,103.2923,-23.7161
27.7413,26.4339,53.4410,22.0873,-17.0633,-14.5475,-32.0165,71.0659,-70.2915,44.1690,38.2478,46.8122,-71.1040,-7.0931,-45.4852,26.8541,3.4635,110.9000,0.7820
57.0246,-0.0823,121.6374,19.8059,42.8676,-5.4633,39.4965,13.9532,13.0557,11.6590,49.0397,6.9693,-55.4528,-12.2242,-79.0010,-54.8913,48.6737,35.6425,2.5936
52.6395,29.7344,128.4055,74.7235,63.7470,66.1742,67.7382,55.2223,96.2620,92.6164,22.1411,34.8595,-51.2638,36.1613,6.9081,47.8453,86.3410,78.0198,42.8652
15.3995,70.0790,55.4945,112.7103,6.7978,109.6841,27.1327,133.1298,79.8025,132.0435,-3.4809,83.9515,-46.5249,72.5051,112.2398,177.7196,52.7110,146.2433,52.5821
3.8369,62.4645,8.4439,87.0767,-36.5163,67.0397,-25.0593,73.1521,-5.6800,35.2082,13.3693,64.7030,-35.4233,21.9697,88.9333,113.2327,12.9674,70.4591,-11.7202
28.6180,9.9147,29.3729,8.0728,-22.0989,-15.4306,-35.0604,-68.4197,-67.7203,-95.9653,47.6966,9.8717,-8.7008,-28.6254,-6.3277,-47.7063,22.6679,-77.7859,-31.4214
40.1059,-43.4466,46.6156,-70.7683,11.0639,-85.3733,1.3544,-136.3367,-74.1539,-147.0057,57.1831,-21.9639,18.8947,-31.6089,-72.9141,-141.1294,34.0150,-139.5049,10.0728
31.4395,-38.5040,43.8681,-56.9753,48.0105,-99.1776,25.2395,-106.3216,-68.5238,-122.6109,39.8613,-17.0459,29.8707,-27.8664,-97.3177,-128.2034,48.2171,-67.5246,-4.1373
42.3459,16.3783,73.6772,29.6799,72.0726,-54.9480,-17.2930,-56.5750,-87.0979,-85.1970,33.0895,11.0764,47.1197,-3.3278,-64.2629,-45.1459,101.5718,38.1590,-58.4198
57.5543,29.4449,103.4130,37.5442,49.9579,-42.6925,-72.2273,-60.5318,-105.5322,-73.5837,40.0909,14.9709,66.1870,37.4508,4.8267,-6.4619,116.0750,29.3390,-73.3819
21.5540,-9.4223,43.7379,-40.5126,-10.4636,-84.6616,-83.7510,-92.4275,-96.2446,-70.6784,4.1511,-23.8698,36.9849,28.5756,14.4656,-55.4681,22.3605,-54.3942,-96.6690
-46.6676,-12.5768,-77.6598,-65.1803,-92.9978,-88.9138,-128.2587,-78.5472,-91.4615,-23.8310,-71.8823,-61.5643,-19.1815,-19.5707,-39.4185,-76.4857,-93.7704,-54.9891,-170.7333
-70.0111,20.2146,-134.0646,-37.4149,-166.6516,-63.2337,-228.1436,-61.2421,-122.9502,62.1848,-90.9785,-75.0570,-32.8349,-47.4046,-60.8671,-41.5063,-129.5937,-7.7682,-226.7542
-39.6280,37.0184,-94.4964,-21.5567,-151.1597,-61.1913,-248.1208,-93.5141,-151.7823,98.2068,-36.6323,-58.5576,-26.1646,-40.3241,-48.7195,-22.6115,-84.4359,5.3332,-213.7887
-22.1022,59.4151,-64.0872,23.3906,-67.8712,-14.5845,-174.3752,-77.7066,-133.1997,44.2589,-20.1009,-5.2818,-51.7787,3.7378,-70.2215,15.1030,-22.9983,61.3028,-159.2728
-49.9564,68.4098,-109.3181,54.6835,-60.3047,61.0183,-146.1114,12.4577,-90.5338,-22.0075,-85.0912,10.2157,-72.3747,40.3743,-101.7424,55.1139,-35.8790,103.3189,-113.3529
-90.9762,6.6316,-175.4217,-25.2341,-129.3591,31.5917,-149.5143,40.3858,-71.2420,-36.8075,-142.2416,-59.4952,-51.2104,4.4149,-84.3594,-9.9885,-137.6568,-12.5673,-105.3258
-112.3781,-40.1835,-206.7990,-96.8973,-151.4040,-34.5120,-100.5379,13.2637,-87.2492,-31.2680,-130.0306,-86.1448,-32.1228,-28.1029,-35.8925,-69.5932,-210.4445,-107.6943,-111.4546
-108.1972,8.3684,-207.9211,-42.2534,-141.0429,2.9142,-81.8360,55.0911,-116.3738,-39.3257,-88.6724,-9.3470,-42.6654,28.0094,-10.2157,11.1147,-186.2298,-10.5041,-92.6493
-80.5016,38.3525,-171.9105,3.2479,-148.0204,42.6398,-127.7397,115.0575,-132.3783,-42.1773,-61.4212,16.2216,-49.3461,58.7066,-29.9111,56.9426,-139.8939,61.9469,-65.6441
-41.8024,-11.0641,-97.9172,-28.8571,-106.9723,0.2555,-121.3474,105.4993,-136.4832,-24.4280,-31.8986,-57.7650,-31.7885,-11.1480,-71.8725,-30.7875,-115.6063,15.7544,-66.6974
-17.8158,-32.4866,-51.8206,-29.2571,-45.5295,-20.3405,-93.9071,73.7465,-145.1742,0.6527,14.7599,-104.3347,-9.7488,-66.8259,-91.0934,-71.8555,-93.1160,36.4542,-100.0350
-17.6035,-9.5234,-68.5985,-15.1353,-75.2178,-14.4949,-160.8335,32.2209,-149.2771,23.9812,39.3183,-107.5890,-5.0679,-70.4576,-72.3003,-44.4720,-94.5714,60.4217,-148.8768
-27.3705,-7.5371,-87.1724,-45.9829,-130.2443,-43.4012,-223.1032,-24.8427,-139.8159,44.0844,1.0871,-105.8714,-23.8763,-73.2897,-33.8785,-54.2066,-117.6821,-42.7277,-171.0569
-48.8809,6.1216,-92.4300,-42.5541,-120.4699,-39.4992,-179.1396,-12.3309,-136.3376,49.6428,-84.4755,-53.2318,-72.9971,-34.3656,-6.6977,-26.7175,-122.2898,-79.2123,-149.5925
-95.4059,36.1703,-150.4019,-17.3299,-138.3481,-8.8354,-145.4778,47.1281,-128.9723,35.6441,-173.0395,-0.3936,-156.2918,26.7909,-39.7844,32.1017,-151.3542,16.2948,-153.3160
-138.9221,18.5151,-231.2069,-62.8907,-203.5107,-44.2315,-178.9112,20.9671,-91.4576,22.7492,-223.4792,-41.3810,-230.3548,6.5834,-127.9788,-12.8458,-222.7323,40.4527,-212.1013
-129.8033,4.3136,-220.8208,-80.8619,-191.1075,-64.4555,-184.2354,-50.5593,-70.0336,35.3764,-203.6947,-74.8060,-229.0316,-31.9528,-160.7684,-52.9262,-215.0219,28.3116,-235.3726
-74.2100,60.3362,-126.7813,20.8059,-123.4587,13.8195,-152.9874,-45.4525,-101.0352,70.7322,-124.3878,-8.8357,-166.5336,3.4472,-93.0878,40.2639,-91.7058,99.3983,-178.6268
-19.1991,105.5235,-45.4575,115.4229,-98.4536,83.4338,-125.2482,10.5229,-105.8512,103.7818,-36.8351,46.5836,-111.5907,20.9595,-37.7775,102.2800,14.3582,122.0919,-99.6935
16.4269,91.2287,10.2640,130.0838,-63.5223,101.3692,-75.2643,59.8717,-49.3257,114.3780,19.5502,39.5164,-75.6814,-8.4599,-56.5318,61.9979,45.4875,81.1785,-36.2045
26.2457,74.8518,47.6349,115.8870,-8.1816,106.4300,-38.7138,70.6908,-32.5241,95.7086,13.7048,33.9058,-61.0579,3.9162,-90.9745,37.3393,41.9606,100.0570,-26.5407
-1.5257,49.3890,17.4903,48.4442,-45.7373,29.8058,-71.1773,-21.8801,-74.2409,50.8132,-58.4676,3.8127,-102.7333,-0.1547,-133.5262,-30.2921,-1.2406,50.0284,-102.6329
-27.5885,0.4418,-36.8202,-40.2802,-123.6124,-89.9814,-88.3105,-143.5553,-54.9923,18.1181,-101.9774,-54.3514,-145.4760,-74.7251,-181.7536,-164.0867,-40.7940,-115.6012,-154.1592
5.5859,6.9076,10.9186,-4.0013,-79.1812,-62.7500,-29.2614,-111.0116,36.2451,62.0862,-33.8639,-31.9827,-97.9297,-79.3622,-140.9981,-138.2711,20.1180,-114.2996,-76.4465
62.4415,71.2123,119.7555,112.0224,24.4514,58.7292,-1.4334,17.0729,77.7480,150.3175,49.5913,52.5272,-33.1041,11.2493,-28.0146,41.0309,120.7777,63.7120,8.9740
69.2532,92.7565,130.2440,124.4415,28.1360,62.3020,-67.5593,30.4094,35.7134,124.0752,35.9980,73.5861,-55.0408,39.3257,-9.3855,85.2873,129.0925,97.7343,-19.2129
43.5558,64.5337,55.9027,55.5731,-22.4704,-16.4722,-136.9789,-53.4498,-23.3875,-52.4092,-6.9235,45.4402,-91.5701,-3.2048,-92.1679,-19.5729,81.4739,-20.6530,-77.4425
29.9657,42.1484,14.3191,17.5757,-31.3728,-53.1220,-152.7830,-100.2683,-65.4333,-158.2448,-13.0514,25.2612,-84.7561,-30.9658,-122.8527,-72.7297,55.5450,-75.9629,-98.9247
9.4197,17.0152,-7.8140,-14.9040,-43.4243,-75.1154,-149.0429,-102.7972,-79.1972,-43.5289,-38.0971,-16.8970,-106.9593,-62.7608,-85.1872,-54.5577,18.2241,-58.1493,-106.7256
-15.2721,-8.5095,-35.0166,-44.2062,-59.5342,-68.8373,-109.0844,-63.5825,-35.1792,115.6250,-63.2125,-46.6579,-125.2643,-63.4582,-54.5139,-10.7660,-15.4940,-5.0564,-51.4389
-3.5761,0.1804,1.1021,-2.3637,13.6745,21.4534,19.7608,36.9707,56.8995,118.5194,-18.8877,5.7189,-39.6136,34.0463,-3.4707,61.3455,16.7343,78.5485,67.3829
6.3891,17.3823,53.3730,54.3040,110.9268,97.1600,160.1987,116.1532,121.2738,49.2920,7.6738,69.0124,49.6346,115.1480,89.3289,99.6172,31.1266,82.8363,103.4754
-37.9695,10.3926,1.4205,32.0520,76.0508,74.6142,169.9625,114.3985,105.2082,75.7439,-57.7678,65.1848,22.8128,83.5585,152.1052,95.1439,-54.7451,17.0443,42.0604
-70.7621,2.6665,-69.6644,-14.9766,-11.3771,32.4728,95.7294,94.5216,59.5721,166.7583,-85.2733,49.4502,-5.3397,43.5970,144.4466,113.7166,-113.0632,36.5431,39.6176
-36.5443,-5.4622,-37.4804,-26.4622,16.5042,4.4219,96.7170,71.9219,58.1435,175.8629,-7.8788,48.6935,49.0121,39.4804,76.2089,83.1873,-55.1892,72.3959,95.2390
-8.1987,-34.8195,-9.5893,-51.0244,74.3088,-53.2310,135.7159,6.7252,74.1971,73.9497,41.1400,17.5455,69.9041,5.4479,-24.3556,-49.4786,-11.2621,-21.8374,83.3809
-21.9604,-48.7698,-54.1441,-82.6221,40.5309,-85.4286,93.4527,-37.2093,59.0858,-9.7620,20.3575,-8.9895,39.3129,-5.5368,-53.2087,-102.9699,-33.0552,-105.2548,45.8116
-13.1559,-14.7627,-36.4773,-39.2801,25.7602,-23.8898,56.9077,10.9537,57.8877,21.8610,29.8085,28.7297,78.8786,61.3631,55.9574,13.6763,-6.8821,-43.5330,77.3209
10.2049,19.9267,36.2269,37.9638,77.1611,56.9477,110.0712,78.4547,88.4931,81.3660,57.5274,72.8610,152.9862,100.8848,169.1977,109.2051,33.7800,27.4020,102.3561
-18.9871,0.3098,-0.9156,16.1877,48.3047,49.7643,123.3012,72.8175,65.1346,40.4831,29.3469,42.4842,136.9004,54.7188,141.4734,65.7404,-41.2863,25.4004,47.3950
-62.7635,-49.9082,-98.1802,-78.8169,-41.6241,-21.1240,55.9756,21.6738,-18.2513,-57.8164,-7.9479,-24.1834,77.5757,6.0741,39.8130,-7.8120,-137.5113,38.0867,-0.3114
-55.1535,-55.8850,-97.8600,-82.7204,-25.9003,-32.5942,48.6996,4.4008,-50.2606,-93.2640,-6.9641,-31.2559,69.5882,3.5695,-10.8593,-13.6200,-99.1927,71.8307,22.8636
-33.8410,-9.5512,-54.3229,10.5119,53.5503,43.6755,95.6178,30.7351,-11.2811,-75.6323,-19.2480,15.6491,73.0795,12.0908,0.9623,28.9182,-14.5812,58.5983,51.5312
-37.0873,-0.9427,-61.3177,34.3848,69.7291,76.4046,82.8135,42.0271,11.3524,-80.3268,-47.1468,12.7307,51.5339,-7.2978,41.1742,53.7053,-13.2128,14.3686,43.8175
-28.9927,-59.4043,-55.4844,-43.5022,54.2194,-0.5779,40.1879,12.1739,-11.7547,-95.4816,-23.2784,-58.4338,50.8871,-57.4105,68.5104,16.2245,-43.8287,-7.1522,26.7461
0.8220,-83.8212,-3.5333,-85.6628,27.2142,-71.4318,4.7293,-23.5835,-50.0013,-74.2561,39.0631,-91.4213,62.7312,-91.0078,44.7842,-45.0287,-50.5641,-1.1308,-10.3122
20.6297,-24.0031,34.5961,-38.6137,-42.8171,-57.4492,-64.3756,-41.7956,-84.8596,-28.9307,68.5551,-42.9840,38.5270,-62.5962,17.2296,-48.1952,-45.8541,11.2213,-79.9812
32.6440,45.3536,55.1856,37.1847,-68.9599,-8.3361,-108.2998,-41.8630,-103.0548,-18.0488,64.3155,20.1285,19.6385,8.2132,37.3681,7.0314,6.3690,24.9663,-111.8559
50.0384,76.8383,76.6744,100.5444,-8.1614,47.3243,-75.8297,-18.3178,-109.0941,-90.2314,66.8388,60.1520,53.4189,68.7395,27.2845,39.3094,93.6262,40.4964,-69.6266
57.4139,84.6629,70.6632,122.8883,18.7103,95.6271,-67.1595,2.6788,-119.2961,-190.6372,77.3071,74.4739,78.4035,71.5556,-49.2872,13.9994,106.4389,34.8758,-33.4123
54.4774,64.8472,55.9778,93.7546,3.2870,88.8578,-88.6359,-11.7303,-103.0678,-185.6242,83.9669,49.7359,56.0255,14.7737,-59.2571,-4.8953,64.4450,10.2856,-30.9319
61.7221,38.0113,87.2191,73.5331,54.9762,58.0205,-28.5144,-26.2242,-39.8800,-88.3849,87.3214,34.0407,50.7001,-2.6134,24.9779,33.9183,92.2698,25.0861,7.0303
71.1449,64.7956,129.8483,105.3384,109.2175,80.8773,38.1636,-0.0475,-4.0445,-53.6641,74.1315,94.3980,63.3288,86.4585,30.4995,75.7336,146.6550,76.2288,50.0516
63.1195,123.1904,114.0931,143.9652,64.3571,127.3118,-10.6371,37.0742,-43.2314,-89.3104,43.2178,164.7522,14.1910,157.0633,-61.3331,67.4959,123.6334,72.7217,23.4752
52.7207,115.8219,66.8444,142.5151,22.4034,129.3206,-49.9392,55.0149,-70.6362,-102.6804,33.9945,135.7906,-58.0037,101.0078,-75.0742,52.8231,100.8215,14.1475,20.6676
58.2199,45.3604,55.3187,106.1306,55.7140,101.1696,18.2420,63.3643,-26.7483,-134.0646,57.0345,58.9392,-50.2223,39.2732,-26.1840,51.6500,143.2226,2.7065,110.7649
56.3194,18.6036,62.2850,63.1208,60.6851,71.5587,45.2016,59.4733,4.0005,-182.7021,61.6263,52.5885,-7.6220,67.3169,-71.8722,18.3830,130.3584,46.5090,131.3664
24.0793,50.4443,29.7756,37.1082,10.6520,33.5703,-28.1394,36.3359,-38.0855,-108.0894,29.6284,81.9754,-19.3436,70.2262,-139.4666,-24.7440,16.4299,56.7049,2.6307
-12.2355,46.2440,-25.2041,18.2302,-3.1486,-8.4645,-60.4863,17.4881,-85.3046,33.8098,0.8460,41.5721,-46.7582,0.6328,-82.1865,-26.5789,-59.8758,11.2564,-97.0509
-21.0982,-5.0439,-46.0400,-9.1512,18.4522,-35.1704,-25.8714,26.9701,-84.3850,26.1682,-13.0953,-31.8319,-45.7035,-23.2130,-0.0623,-22.6057,-42.1106,-34.8601,-78.2860
-15.5602,-26.8511,-40.6848,-24.5596,14.1392,-41.0289,-19.4877,53.7345,-59.0797,-82.0087,-26.9976,-41.8224,-43.6087,0.7722,-4.8284,-38.4278,-24.4128,-56.1384,-44.0216
-20.2351,-26.3472,-50.0198,-32.8139,-10.0870,-45.6968,-36.8942,60.9166,-28.6943,-98.7647,-37.8673,-26.0617,-40.6313,-34.6737,-6.0663,-43.5816,-52.3513,-81.3826,-33.9247
-36.5306,-52.4696,-74.3114,-68.7474,-37.1863,-70.6444,-45.5774,34.3003,-10.3645,-65.8576,-60.8901,-57.6317,-42.5398,-88.7058,27.9183,-49.8361,-90.4156,-116.5065,-36.2572
-56.6674,-67.5428,-101.4161,-97.9568,-76.9845,-90.6882,-70.9071,17.2854,-22.0746,-81.6136,-101.8681,-88.8667,-83.5976,-72.7869,20.2017,-58.4552,-118.8608,-106.1009,-74.1471
-64.5526,-46.5048,-116.2676,-74.4636,-108.1942,-72.6030,-82.7829,48.5387,-16.4223,-71.5977,-96.1193,-72.3441,-103.9349,-51.1231,15.7456,-26.1973,-127.8047,-39.8593,-89.9559
-36.5310,-45.2664,-72.1767,-47.4211,-87.7897,-53.1419,-33.6650,82.0022,39.5214,-9.8316,-17.6903,-59.7850,-29.6840,-76.6680,56.9467,-4.5631,-94.6889,-9.7336,-28.0719
19.4284,-69.5658,32.5428,-56.1674,-7.3726,-69.0698,24.3941,49.7075,67.7228,-15.8269,50.6111,-70.0137,66.1815,-71.6786,41.4822,-65.0624,-18.2763,-50.1837,26.8245
60.5720,-69.5823,108.7149,-59.0355,86.3644,-76.5801,44.7669,-19.0210,35.7906,-105.4895,69.6924,-54.2946,109.6628,-14.8033,-25.3975,-114.5368,62.8621,-67.3850,40.3975
63.2616,-51.1861,104.0612,-39.4416,124.7018,-43.0862,59.8522,-27.0219,38.4244,-135.0552,81.0240,-14.9529,129.4649,18.8589,-15.7890,-61.6162,92.5540,-19.2100,83.7148
39.8968,-35.5980,62.2433,-18.1952,99.4170,-3.5748,68.9622,43.9595,87.3964,-46.7414,68.6662,5.1708,109.3605,17.5502,30.7387,10.6313,59.1886,23.7607,117.9417
11.7601,-18.6844,21.8315,-0.9961,70.6813,14.3626,47.3431,96.0468,80.9257,33.8213,9.0565,0.4469,38.1573,18.1519,17.5820,24.8653,21.3642,16.0936,82.5297
-1.3153,-36.6307,-3.8134,-25.7967,68.9652,-7.4830,42.1766,54.4167,27.1382,-9.6199,-25.1267,-23.7392,29.2806,10.7170,17.5547,-0.5352,19.1201,-39.0557,70.4529
10.5051,-108.8900,12.3762,-112.7016,84.8907,-83.1907,90.5224,-24.1717,16.1202,-130.0622,7.4973,-59.5330,114.2460,-14.6398,80.5418,-49.6442,28.5366,-114.1843,131.3562
31.0862,-152.6376,55.6207,-157.4672,126.1446,-138.9981,142.5568,-40.6108,38.5639,-207.0317,46.6128,-66.6798,162.9436,-33.0180,129.3072,-69.1852,42.6919,-120.5701,168.8606
34.4864,-116.9827,66.1066,-92.5705,163.0225,-102.3221,157.7358,-6.7505,61.8650,-188.3445,58.8366,-40.0938,142.9522,-46.5858,140.8928,-18.0868,64.1150,-40.0803,135.9808
14.8309,-77.9681,32.6790,-41.3204,116.1998,-64.3715,140.0314,-20.3156,113.1859,-100.5482,57.0888,-42.4025,126.4173,-85.4305,117.8898,-17.4121,34.4302,-21.2452,59.9071
-9.6607,-92.0371,-6.1022,-98.0711,0.5148,-121.5837,85.5049,-104.3247,161.5126,-21.5283,38.8896,-93.7827,99.2606,-145.0172,25.4661,-146.5260,-58.7231,-123.9552,-36.1236
-11.1337,-118.4941,-16.6116,-162.1695,-63.3806,-185.2799,23.5882,-172.3582,140.7317,-36.3876,31.3277,-138.0290,53.6700,-179.7092,-58.2588,-248.0308,-104.5963,-198.7058,-88.1407
18.6731,-120.3484,19.6138,-146.6578,-33.0762,-160.7029,10.2304,-164.3522,83.2031,-121.3863,67.9259,-140.5900,47.7905,-150.6652,-36.7681,-218.6629,-53.6707,-170.9201,-60.4875
47.0373,-103.4487,66.4362,-113.1923,6.5721,-106.5365,11.0674,-126.6397,36.5028,-160.2413,92.1445,-117.4761,41.4526,-75.5920,-12.3944,-167.3541,-2.7135,-130.7664,-22.4404
34.4494,-83.9654,43.6579,-118.9891,-14.0568,-89.5396,-36.2906,-119.3054,-16.3387,-132.4076,36.1102,-94.4356,-28.0165,-28.2812,-70.2539,-148.4930,-11.0855,-120.4940,-9.2311
-14.2295,-81.8868,-44.9552,-133.6140,-67.0280,-90.1520,-70.9893,-117.6949,-48.9064,-111.8845,-59.0012,-91.2561,-73.3309,-49.2062,-81.7149,-106.8252,-42.8345,-110.5603,10.8781
-54.9508,-92.6789,-101.3026,-123.4210,-83.2814,-75.7005,-24.7611,-72.8502,-9.5340,-94.9947,-106.2529,-97.2179,-27.1424,-77.5810,17.9568,-42.8295,-69.6500,-86.6080,31.4480
-48.0489,-84.0339,-73.3582,-89.1605,-42.2332,-34.4193,37.6631,-10.7047,63.7669,-39.0257,-74.0872,-79.7432,29.3353,-43.9897,95.3432,13.0180,-57.0701,-37.2746,60.7442
2.1437,-58.7333,8.3467,-43.6056,6.7190,12.0701,59.8007,11.2280,119.6166,16.1377,-2.1581,-53.6274,47.4647,6.2592,72.0445,27.0112,19.4621,-1.4530,111.4556
44.0858,-49.5833,83.9674,-10.4979,14.8375,11.9216,70.2640,-9.6388,158.3599,32.1631,39.6754,-64.2510,62.9737,-19.4347,11.3940,-44.9601,77.3123,-43.3293,95.9423
43.5153,-59.5289,97.4701,-11.6638,-6.4993,-29.8981,61.4380,-41.6082,153.5542,43.0053,41.7078,-104.6549,78.7988,-106.9480,-15.7070,-126.7199,46.2694,-88.8426,0.6572
31.3715,-77.0865,66.2589,-35.6641,-17.1534,-43.4407,25.3814,-54.8826,93.5522,65.8410,57.7762,-139.2065,91.1976,-155.9629,8.0514,-99.5892,9.2318,-30.0480,-17.5003
39.2394,-94.3923,67.8566,-45.9087,1.8956,-13.3160,28.2202,-19.8046,42.7234,71.5293,81.3925,-152.9157,111.8453,-124.8233,33.0515,-39.7871,29.4651,47.1315,59.9691
40.2752,-88.6073,84.6189,-34.6058,33.8553,3.6470,65.2011,41.3339,16.0558,36.5369,51.6729,-128.0551,98.8349,-64.7048,4.6638,-56.5409,36.8571,22.4749,77.4191
7.2857,-66.5547,24.9157,-42.1928,37.0242,-26.8560,52.3141,40.3163,-40.2685,-37.0238,-20.8295,-76.0277,23.9901,-40.9231,-31.0121,-75.0996,4.3316,-49.6293,39.1575
-37.3095,-75.1185,-80.5160,-86.5626,-1.0204,-84.5652,21.9858,-50.2078,-105.1669,-102.7252,-84.8878,-65.4407,-47.5479,-74.0064,-25.0111,-54.1485,-7.9501,-87.0350,46.7128
-60.2627,-100.2054,-119.8972,-113.6747,-32.3208,-123.3452,43.1260,-144.4643,-126.1235,-105.8023,-126.2038,-102.7479,-68.0250,-123.8295,-38.0676,-72.1208,8.3721,-91.1908,47.0791
-50.1977,-77.2657,-90.3213,-83.0650,-27.1633,-117.7824,34.9658,-179.8423,-130.5502,-78.6478,-121.4502,-104.8668,-73.5308,-131.9734,-89.0622,-105.5050,23.5393,-76.8411,-19.5074
-17.0092,-24.8800,-60.2027,-40.2009,-32.5712,-101.6327,-71.7249,-190.0253,-148.0103,-98.4277,-58.1431,-73.0198,-85.8537,-108.1912,-98.0110,-97.9956,39.0496,-84.1768,-95.0091
14.3710,-10.9953,-42.1677,-30.6610,-80.5872,-111.5745,-182.1814,-213.7261,-164.5570,-156.4527,4.4224,-89.3679,-74.6536,-109.0680,-66.5422,-110.0409,58.0294,-140.4082,-145.3964
33.2688,-24.5978,-13.0822,-30.1658,-111.4072,-121.7866,-202.8118,-236.9388,-173.0216,-180.2597,28.8757,-127.4109,-27.4630,-127.8051,-62.2398,-144.4673,86.5059,-164.1047,-156.5213
51.1460,-27.5273,32.9483,-17.4120,-68.4936,-109.6720,-144.0960,-233.4877,-146.1760,-141.7411,46.1813,-112.2808,20.2582,-123.9628,-68.2219,-126.6073,133.8710,-105.4757,-95.3510
65.1822,-36.8168,77.7017,-10.8472,0.6009,-100.7488,-55.9022,-197.7035,-69.3230,-88.6654,53.7273,-87.8800,30.8638,-117.4032,-50.0525,-95.1428,169.0762,-58.9147,-17.8200
61.5950,-54.9736,88.2082,-13.5752,17.3186,-102.2772,-10.8262,-149.0456,-18.9865,-101.0235,27.4708,-97.3417,10.4424,-122.9367,-27.2696,-101.9928,162.0188,-82.2389,-3.7943
44.1561,-47.4063,57.0569,-22.1829,-16.7399,-110.0645,-48.5395,-132.9022,-43.2484,-175.3212,-11.3363,-79.2774,-20.1157,-100.9861,-5.6455,-100.4739,125.7517,-131.0643,-35.3973
16.5224,-22.3325,8.2668,-53.5894,-55.5542,-146.6984,-112.2878,-178.1069,-81.9962,-183.6520,-54.8836,-31.6347,-69.2634,-61.3218,3.1620,-95.1755,68.4083,-184.7886,-91.1074
-17.6148,-13.7060,-44.4589,-93.0273,-91.3134,-188.0144,-149.4656,-234.4387,-113.4243,-77.6135,-100.3499,-31.6417,-128.7733,-58.0101,-34.2101,-121.3585,4.5718,-220.5959,-153.9119
-32.0854,-23.1283,-85.3615,-108.8645,-132.1718,-183.8830,-166.6378,-227.0234,-152.2623,-8.7290,-92.3522,-65.7380,-153.0028,-78.0636,-85.8339,-139.1020,-27.3566,-204.3094,-148.3152
-22.0722,-49.7317,-92.9779,-130.7617,-162.5811,-184.1682,-155.6495,-189.7271,-142.7198,-78.0060,-36.1605,-80.5024,-143.6994,-91.1218,-101.4459,-156.3489,-40.3610,-190.1234,-91.6958
-19.8979,-82.3738,-85.0756,-172.2259,-166.0368,-231.8171,-124.6373,-207.3018,-90.8869,-167.7811,-23.4999,-88.2012,-140.3786,-108.4597,-98.6030,-195.2791,-56.7821,-203.9801,-86.7444
-20.4881,-70.9974,-73.6646,-154.0584,-131.3433,-224.7082,-113.2542,-236.1438,-91.9347,-165.3520,-46.7173,-72.4472,-127.6783,-104.6961,-78.3336,-155.4683,-22.4808,-159.9758,-86.9983
3.1746,-25.6308,-32.0045,-75.6877,-62.8083,-127.7290,-96.1201,-200.0239,-107.9080,-121.1487,-29.2156,-19.3676,-93.2593,-61.5070,-24.9796,-45.1610,50.0356,-87.3613,-21.3557
16.7964,-35.5210,4.3335,-71.5550,-17.1270,-85.8032,-52.4316,-174.9737,-53.2116,-101.2757,-13.0818,-26.4040,-86.4905,-52.1959,-2.5923,-44.9218,40.7923,-105.7585,3.8483
-9.5873,-95.2006,-27.3006,-143.4210,-26.4436,-129.3678,-40.8703,-214.6767,-16.2151,-100.9588,-56.3963,-113.6689,-104.3154,-96.9064,-38.1156,-115.5286,-20.4580,-133.0076,-34.8984
-24.2321,-111.9954,-60.5500,-141.1250,-10.7757,-121.4996,-30.8619,-207.3045,-49.4803,-127.5648,-90.3577,-137.9706,-82.2593,-109.8624,-41.1700,-69.6652,19.2964,-56.4415,15.0743
3.7962,-100.9263,-12.9854,-77.5766,72.8582,-68.7700,65.3263,-130.9423,-23.2783,-182.1767,-62.5994,-87.1523,-34.5296,-89.4017,6.0015,-1.9923,116.4431,-8.1757,131.4755
29.2476,-120.0314,45.3664,-78.3968,116.2586,-77.1927,144.1662,-108.5985,76.6188,-186.8693,-19.4282,-92.6853,-21.1386,-93.1588,22.3745,-54.2543,125.4719,-66.7950,143.1282
35.5375,-109.9114,52.9757,-87.4899,69.5301,-87.4914,81.1138,-125.8456,101.4638,-102.7557,9.4292,-117.6010,-31.3331,-72.8723,16.1238,-75.5638,98.4970,-76.8533,78.3986
51.4723,-34.0624,70.5010,-10.2191,45.3293,-20.8619,2.5941,-93.5043,41.4852,-42.4411,31.6432,-52.9920,-30.8357,0.5154,34.2310,14.8864,137.3469,-3.5224,61.8415
73.4933,16.3248,115.3117,61.4588,87.5087,35.9096,26.5690,-72.9040,-1.8958,-88.4682,54.5170,19.9065,-17.2993,30.1273,35.9794,47.2774,177.7119,20.9677,64.0948
86.4075,1.9396,142.0370,54.4229,112.6527,26.7579,56.8380,-102.0084,-19.8191,-130.6261,98.5864,4.1315,5.5597,-20.3195,4.8761,-11.5195,155.3302,12.1996,31.3778
94.7009,-19.0458,156.9339,35.2221,103.6975,14.2496,46.8742,-92.7960,-23.8417,-62.0418,144.3380,-41.4932,17.0740,-66.2964,-8.3660,-36.7059,119.7993,47.2298,7.2322
83.0381,-38.8002,148.0886,9.6336,96.4460,3.4763,67.0265,-60.0716,12.6901,34.3557,127.1915,-67.8954,0.8386,-57.7105,-5.8687,-40.3346,95.3620,48.0985,24.2370
41.6107,-79.9454,77.1067,-67.4994,72.9561,-44.8268,102.5346,-82.7526,66.3419,42.2778,62.1548,-89.6533,-11.5319,-20.2619,-7.2092,-76.1332,56.7324,-40.6368,65.9522
12.3582,-107.1792,15.8992,-123.2344,47.5904,-84.3780,113.2642,-98.6784,101.8437,-15.7624,22.9474,-86.4104,-12.6825,-3.1705,17.6098,-82.7486,29.1849,-106.2157,108.3387
25.4891,-85.8426,48.7126,-73.0173,74.4464,-57.9000,126.7232,-50.3282,122.4804,-43.1192,13.9541,-49.8576,-39.1330,-28.1600,44.6341,-27.5091,63.2939,-49.7492,123.8145
55.6272,-36.6446,113.2221,25.0107,124.4676,-0.5605,127.3011,-13.4598,112.7576,-1.2736,20.7032,-23.6408,-58.3790,-46.2689,8.6236,21.0785,143.9409,60.9901,104.7809
82.5142,-1.7519,146.2115,76.3051,153.1568,22.5126,93.3352,-20.9264,74.5810,42.4255,67.2400,-22.8375,-8.1576,-21.5656,-34.6858,15.3390,205.3219,92.0704,72.4640
111.4163,7.4993,189.2491,90.4597,197.3832,16.5273,86.2258,-16.9318,62.9944,22.0551,130.4601,-11.2800,72.3655,5.7954,14.4696,7.4494,231.8166,55.5155,53.4945
134.6968,31.2953,241.5933,132.3232,258.2921,43.8851,117.8047,15.3630,82.5741,11.1390,163.9827,39.9561,117.4143,30.3432,91.5163,67.9020,267.6058,90.6766,72.0812
140.2088,75.6113,245.2323,187.2391,263.5407,97.3119,123.2234,53.5630,91.8904,79.3635,187.5425,91.1986,134.4004,65.5679,81.5103,133.4033,300.3450,176.4376,110.5713
131.1129,61.7934,211.2138,167.3584,204.6055,79.9623,110.4389,69.0228,104.3692,99.5128,211.8769,63.7369,139.1016,44.8394,54.4010,93.3996,268.1814,150.1719,111.5629
112.5471,-11.0908,181.3685,84.5213,145.0391,-0.1510,123.1582,38.1120,131.6827,-13.1107,200.6262,-7.3636,134.5874,-18.3657,112.6619,25.7729,205.3427,62.3212,86.9081
95.0188,-16.8168,161.7757,71.6484,128.6116,3.3296,151.8839,10.4184,143.4769,-71.8177,172.0038,9.2713,143.2126,12.2434,149.0527,56.5776,202.4411,85.5887,108.7073
97.9958,57.8919,170.7467,159.3349,169.8478,108.2266,199.2807,54.4562,158.9268,46.2114,172.2165,96.4375,160.2618,106.5646,74.9054,112.5893,256.6795,157.7811,171.1099
118.7184,82.6184,217.6231,222.7329,238.2875,158.8549,258.1307,116.6682,194.8689,147.5577,179.1538,114.7147,162.2731,106.4775,50.7828,118.2250,309.2970,155.1440,205.0229
125.2577,43.2583,245.2406,197.4925,251.5738,110.3872,254.4675,106.5579,178.4277,91.0850,163.4318,71.6537,159.5881,47.6916,146.8131,128.8640,311.6899,142.5760,176.5822
101.2941,38.9628,209.6225,152.9114,184.7489,81.9765,180.0707,59.8916,102.3151,39.7672,145.3461,64.7622,151.0792,44.1030,162.4493,124.9674,226.8872,154.7595,98.3348
73.3428,69.6403,159.1354,150.8858,118.9315,123.0767,134.8244,61.9470,88.9072,127.3558,137.6216,76.8670,127.2861,52.0300,75.8598,83.7903,124.9775,129.2999,44.9980
72.7739,68.2988,153.3886,166.0588,113.3495,147.1326,147.4860,103.6064,157.3985,223.4165,132.9026,64.7740,126.5823,27.9359,101.3313,102.5489,133.5756,98.2652,90.5609
88.9052,29.1455,170.4574,134.4332,127.7603,78.4897,151.1784,111.6805,183.5050,190.0533,131.1407,44.8585,150.9339,10.7160,175.2250,129.3228,204.6647,84.4762,162.7785
94.9345,-24.1928,166.4175,51.8694,118.6926,-42.4167,143.8551,56.9384,153.3959,92.6304,134.0379,6.1992,144.9684,-15.8532,99.3056,21.1834,215.2299,23.8325,161.0621
92.0127,-68.5002,156.7383,1.4196,114.3115,-101.1626,185.1465,-1.2189,174.9003,47.5982,145.0745,-43.5472,135.4855,-52.3530,45.8743,-73.2115,206.6572,-31.2490,149.5383
73.2280,-72.3625,139.6204,17.1245,128.7677,-61.7834,251.3912,14.0428,243.2333,68.9739,143.3864,-37.7772,162.4592,-28.8098,185.3013,17.8331,199.9469,9.5603,175.9895
9.7227,-49.7192,45.8220,14.3818,93.7433,-21.7155,244.6027,75.5712,258.3015,121.8548,80.8343,-1.2466,136.7791,18.3408,267.6495,110.5639,88.1469,53.5336,145.8267
-61.0987,-45.1874,-89.4817,-32.6138,-9.5696,-43.3904,163.1149,91.3444,226.5778,172.0654,-7.2219,-20.6625,34.3229,-3.9324,156.5613,59.8145,-50.4455,14.3689,69.8645
-51.6117,-48.5626,-95.0014,-26.9336,-61.2704,-64.7576,121.9764,54.5960,224.7855,169.3187,-13.4581,-59.0438,0.0913,-43.2469,86.5086,4.7168,-6.7136,-32.4632,61.5050
18.9919,-34.2776,31.3528,37.7486,-6.3364,-61.0144,137.2411,10.1850,231.1513,97.0800,37.9402,-57.0749,50.9134,-39.6732,113.1071,-9.0234,146.6704,-52.9191,65.5520
45.0796,-33.5578,81.8246,43.7598,25.1229,-97.4552,91.4564,-55.6767,181.5025,18.1646,25.6449,-77.7013,31.0284,-72.4225,72.4606,-63.1953,189.7419,-87.9466,-11.0512
15.7196,-65.5738,13.1893,-25.4135,-36.4955,-165.0052,-5.7208,-131.4844,116.0431,0.8630,-29.4428,-140.7206,-59.9769,-156.1909,6.6884,-109.4550,128.8250,-111.5547,-73.8095
-3.4937,-81.0493,-25.1127,-66.5463,-87.7191,-175.8566,-23.5511,-127.5182,103.3270,48.2976,-35.2527,-148.2037,-84.1349,-168.5878,9.4002,-99.1479,72.2945,-102.7536,-48.6095
-10.3492,-47.2238,-24.0880,-42.6891,-89.6137,-134.7023,4.3816,-42.5570,107.9118,113.4776,-26.7781,-85.7095,-43.3225,-90.5899,9.6530,-80.8443,40.6470,-99.9787,-22.4239
-31.0733,-12.4115,-69.5156,-13.7272,-116.2761,-131.7796,-33.4361,-5.3520,76.8954,125.9484,-52.0439,-56.4160,-23.5492,-51.4214,7.1816,-60.4058,40.5380,-103.6036,-50.8846
-48.9259,-32.8110,-114.2093,-33.5899,-159.4434,-183.3867,-70.4310,-65.4738,44.4957,52.7441,-67.4567,-98.0883,-21.3412,-97.4629,51.0041,-55.4156,46.9005,-99.2681,-96.8302
-56.1389,-81.1289,-107.3354,-85.0000,-150.4541,-208.4201,-24.9018,-120.2528,43.4510,-29.4067,-72.9108,-141.8098,-6.9198,-125.3812,57.0722,-98.8925,11.0211,-98.8901,-111.9990
-62.2109,-87.5329,-96.8182,-88.9252,-84.2512,-153.3211,40.7296,-92.8264,43.6305,-27.2981,-105.4000,-127.5255,9.6089,-71.6135,15.1148,-93.3852,4.5283,-74.9169,-52.7285
-52.4293,-53.4296,-82.3150,-18.3270,12.0491,-65.5561,94.1901,-33.1957,28.0363,13.1151,-123.3148,-78.7404,17.6661,-15.8721,30.3663,5.3954,91.7707,-13.4216,45.8123
-34.7043,-36.3348,-55.7129,36.6523,75.2048,-20.9584,127.0542,-3.3607,5.3954,-5.3889,-108.5906,-61.0165,4.8596,-27.4225,55.1720,51.0516,145.4741,16.6746,71.1681
-54.8872,-35.4091,-102.5730,14.6131,11.6613,-24.1802,52.5731,22.9749,-25.6342,-35.0981,-129.5935,-76.0696,-38.3136,-43.2273,3.2515,13.5443,65.6107,-15.0106,18.4577
-112.0347,-14.4130,-229.2481,-28.7622,-141.7132,-40.6367,-86.5683,72.8607,-32.0369,48.9774,-186.8338,-72.3135,-94.4535,-17.0210,-54.3024,6.1392,-57.8439,-56.7678,-21.6072
-153.9183,-3.2997,-309.5688,-60.6991,-241.4704,-76.9927,-116.4055,79.4176,35.7230,218.6458,-210.3281,-68.6449,-150.9444,-27.3076,-88.0572,-15.8071,-138.8018,-97.3507,-43.0735
-157.5396,-39.3106,-303.9469,-110.5833,-270.9521,-145.8237,-73.3806,-7.5500,132.7223,292.7228,-207.8484,-116.7385,-204.8587,-103.9229,-136.9605,-112.1093,-164.5689,-160.3922,-74.8242
-140.4151,-74.1189,-281.1446,-151.6027,-307.2198,-209.6640,-117.5785,-107.7396,156.3086,189.6062,-221.9695,-165.9906,-240.0160,-150.2216,-139.9350,-162.7026,-127.3106,-216.5429,-99.8636
-124.7773,-58.1063,-266.1862,-140.2438,-341.4656,-225.7097,-201.9238,-134.5426,97.6338,48.1373,-230.1200,-148.4581,-261.7220,-129.9104,-98.9407,-135.6034,-92.2176,-224.0033,-137.7973
-121.3629,-27.0015,-255.6523,-116.6926,-348.4903,-192.9350,-227.9549,-116.1929,38.3861,11.3579,-208.6705,-113.7579,-286.5500,-111.3189,-123.4353,-136.3078,-137.0332,-196.5865,-193.5117
-122.4753,-32.5051,-263.5912,-132.9439,-361.6379,-153.7544,-245.5090,-102.0692,21.1161,25.5735,-184.6383,-126.0374,-289.7662,-113.6487,-157.8871,-149.1305,-195.5435,-187.6564,-187.1529
-119.5877,-70.3027,-274.3752,-181.6708,-369.8214,-171.3591,-263.4842,-92.0304,15.4244,5.3223,-182.4942,-152.9202,-262.7022,-101.8549,-105.9537,-129.4451,-190.8364,-218.0695,-114.7972
-115.0529,-94.0546,-254.3712,-218.2467,-322.4471,-230.9077,-215.7060,-83.1256,1.3671,18.6207,-188.6196,-139.4169,-244.4447,-74.8912,-80.8709,-129.3932,-164.3497,-222.2966,-69.5527
-94.9017,-61.0482,-193.0521,-175.2504,-227.0857,-212.6974,-134.5055,-62.4986,15.5794,108.6571,-162.7556,-78.8817,-222.2853,-43.6238,-130.5307,-121.1226,-123.3145,-148.5324,-51.9080
-50.0672,2.5806,-112.2932,-57.0966,-133.0395,-101.3982,-83.9154,-18.6442,72.8436,150.7733,-93.2303,-15.2508,-153.0364,-18.7497,-111.7386,-59.6696,-38.6670,-91.1774,-21.7598
-23.2395,7.4537,-77.8877,-11.4602,-91.1286,-67.4059,-66.0354,-10.1597,98.9834,70.6549,-37.9059,-21.7068,-85.5567,-38.0214,-28.5618,-56.2415,-0.8009,-151.3639,-33.5484
-45.7233,-65.9368,-125.9287,-118.7474,-123.5126,-168.6801,-94.4671,-78.4379,32.8125,-37.1268,-36.9927,-103.2696,-83.1789,-104.7889,-4.5166,-146.7482,-91.0037,-244.6941,-102.1986
-75.1149,-127.8289,-184.1803,-239.3536,-176.3721,-228.8713,-161.9585,-139.6236,-68.6484,-110.1540,-45.6846,-159.9384,-104.3091,-151.6353,-10.5544,-184.7559,-221.2684,-250.8656,-134.9611
-75.7777,-130.6803,-185.8579,-261.2110,-187.0268,-166.0194,-194.4393,-128.3035,-122.8510,-183.8539,-38.7937,-138.1351,-101.8166,-137.0140,-6.2468,-143.8328,-286.9143,-206.1306,-95.2934
-69.5690,-123.6074,-164.4904,-248.8745,-164.0432,-110.4645,-160.6193,-102.1846,-120.3515,-232.0145,-51.4007,-103.2216,-101.9077,-101.4755,-35.5535,-124.5407,-282.5047,-174.5623,-35.1746
-68.8026,-123.4065,-149.1085,-228.6403,-115.3363,-108.4058,-97.6358,-91.0642,-72.2036,-170.0318,-77.3675,-98.4160,-116.4957,-90.6049,-49.3260,-97.2655,-222.5918,-120.3105,8.7361
-64.3699,-93.9963,-128.0716,-155.7663,-36.7875,-72.3263,-42.6513,-58.2115,2.9134,-20.1350,-87.6515,-89.4153,-122.8664,-93.2045,-10.8985,-13.8736,-142.6293,-32.2604,24.2437
-64.4409,-61.1526,-119.4502,-104.8516,11.3959,-27.9433,-30.6327,-33.5842,38.6315,77.2743,-97.7401,-72.4343,-120.5796,-87.4050,-14.3504,23.5134,-121.6149,2.2133,12.4239
-68.1130,-88.0146,-126.5893,-164.3210,-3.9686,-69.1368,-51.3287,-63.9552,7.5537,37.3725,-92.9771,-88.0870,-106.9027,-92.7298,-33.0510,-35.9830,-175.4016,-59.8644,-5.0514
-57.4031,-149.3849,-108.3208,-242.4403,-15.2307,-143.3375,-36.6747,-102.8546,-19.6706,-60.6911,-34.1746,-130.7532,-60.8993,-120.8179,61.2659,-80.4620,-220.7025,-121.1597,-19.5123
-36.4084,-163.4808,-59.4176,-226.9580,5.1974,-145.8399,7.9318,-106.8412,-1.7246,-97.9763,25.4929,-145.7386,3.2706,-124.0268,178.4580,-47.4056,-192.8942,-82.9253,-32.0305
-15.2999,-120.2778,-4.4242,-159.2535,14.6318,-96.6703,13.6929,-107.0260,14.6669,-78.1709,24.9417,-111.1812,42.0204,-78.0388,158.8930,-15.0414,-121.0664,-10.1351,-34.7343
9.3530,-76.5278,44.5083,-114.5757,17.3352,-64.3467,-3.8972,-124.8665,13.3046,-50.0017,22.1118,-68.7750,43.5826,-46.7905,77.3186,-42.7812,-73.7484,-28.3851,-37.6136
27.0810,-54.3550,60.9157,-92.2153,24.4176,-56.9036,-1.6900,-144.6076,31.9046,13.6641,65.3862,-51.8014,37.6771,-64.3071,56.1514,-78.5177,-62.4282,-103.1417,-43.8018
30.2642,-21.5621,48.7796,-56.8671,12.5123,-47.1470,0.9672,-141.4859,54.3692,102.2887,102.4915,-19.4944,54.1762,-55.0635,70.7311,-50.2408,-32.9916,-101.3107,-25.9085
35.4354,35.1439,58.3736,9.6683,9.5291,-13.0713,3.7257,-92.4396,22.6674,100.5818,101.2249,61.4534,78.9826,25.1231,83.1247,22.1056,29.5222,-32.0903,3.3592
38.6013,67.2216,66.6005,58.8818,37.0252,22.0351,15.4541,-35.8339,-42.3297,-26.6207,75.1307,116.9322,64.7174,89.4659,79.3788,46.6225,63.9507,-26.6905,4.6619
19.8030,30.8038,19.3653,16.4170,30.5061,-4.9400,2.3380,-41.9614,-47.6939,-145.7350,21.2686,76.7764,6.0924,56.6425,25.1976,-14.4061,36.6548,-106.5835,1.3753
-5.8015,-23.0746,-25.8680,-64.0378,-25.5960,-73.2228,-14.3066,-62.2831,32.6360,-106.0302,-34.0991,14.7809,-46.2947,-16.2161,-46.5490,-83.0762,-15.4295,-147.2772,17.3860
-23.2856,-14.2216,-26.8706,-61.7613,-67.2244,-81.1123,13.0874,-7.8902,127.3680,102.1327,-50.5797,19.9062,-68.3089,-32.7648,-61.8374,-70.9265,-57.1799,-88.3822,18.0684
-48.3311,14.4272,-56.3132,-29.0594,-91.8128,-51.5775,34.8337,37.9271,193.8505,291.9023,-59.6174,33.0553,-79.1854,-21.7787,-17.6828,-14.0674,-85.7224,-46.1340,6.5560
-69.5134,-34.6152,-107.7687,-91.3576,-110.0576,-100.0884,24.2918,-29.8062,245.1175,240.8349,-80.8705,-19.8683,-77.1843,-67.0401,66.3183,-10.4694,-106.1231,-112.7339,13.9978
-54.9094,-104.4732,-88.8350,-163.7068,-72.9639,-168.7534,37.3040,-99.2580,238.4096,2.8597,-52.2672,-65.2895,-46.5792,-114.2362,151.6487,-43.9400,-114.2775,-162.9801,4.3726
-16.2849,-67.1747,-29.3764,-100.9314,-6.5382,-115.0838,32.1118,-58.1674,123.0500,-152.8213,30.6099,-23.2448,-8.2352,-60.2846,117.9932,-37.6434,-86.0546,-73.3648,-42.4242
21.7111,26.1343,5.5926,9.9726,2.4373,-13.3562,-55.7666,-21.4333,-6.2547,-146.8834,86.6917,31.8278,6.6336,12.7848,-57.6614,-38.9234,-16.3999,24.9652,-73.8179
57.0149,42.6886,54.7096,23.7467,-17.4095,-18.2129,-121.9648,-85.9503,-25.7815,-106.9693,100.0219,16.9045,1.6528,-21.3219,-181.1268,-110.0093,37.3901,-6.2195,-87.3116
69.6883,16.1140,101.3732,-9.1929,1.7679,-76.7030,-96.2630,-151.4039,8.7519,-87.9423,102.0066,-3.9054,-6.1360,-74.0709,-136.1999,-150.7051,31.7705,-64.0502,-124.8377
41.3213,31.5035,58.6290,-6.7325,19.8774,-84.5296,-86.5015,-146.8924,-8.2628,-99.7814,71.6512,30.8098,-18.8679,-38.3271,-54.7439,-94.2410,6.9121,-64.9552,-154.2292
5.1111,36.4480,-29.4296,-13.4608,-10.1382,-89.9477,-120.3690,-127.5326,-30.8135,-158.2177,13.1234,44.4671,-38.2911,-11.9230,-31.8705,-50.5915,5.9061,-89.7936,-127.7870
-6.6244,-8.7581,-59.7237,-43.8227,-54.1745,-123.4344,-98.5666,-97.3961,16.7650,-148.3361,-6.2900,-8.0445,-37.5906,-51.4785,3.4796,-58.1192,17.3263,-126.2367,-68.4861
-7.2957,-24.6053,-46.5115,-33.0917,-69.8871,-113.0343,-29.9878,-18.5387,90.7949,-1.3445,18.0798,-32.8178,2.1999,-46.3771,54.8754,-33.3725,26.7066,-88.6947,-13.4922
-8.4910,6.0184,-34.9302,1.2436,-46.6493,-67.4951,6.4730,46.7463,121.9825,92.2203,25.0666,9.8284,42.8105,8.7312,32.9374,-11.8742,25.3878,-50.7904,14.9837
-1.5268,8.8451,-16.6935,-8.5396,-4.4852,-59.8906,9.7122,25.2824,94.1933,10.7516,18.7346,33.2659,46.4896,13.4529,-24.9762,-52.3294,7.0439,-74.9202,3.4727
18.4328,0.4580,15.5059,-17.3229,20.2329,-54.2453,-6.7335,-27.6383,13.5438,-90.2193,52.7121,27.0834,52.1414,11.5438,-6.2742,-46.2075,13.8501,-46.5365,-16.2893
52.6412,48.2034,68.3060,52.5393,34.8873,11.3559,-37.4200,-24.3202,-71.7327,-122.0456,112.5919,73.8624,96.0382,69.7372,52.7306,49.9004,82.5685,61.2853,-8.1011
83.6583,104.3495,126.4731,138.1819,61.3598,74.7601,-45.9679,19.2087,-91.2351,-159.0876,128.5503,140.7935,122.7704,94.6825,38.6819,87.3860,144.6969,100.7764,1.0235
72.2006,87.9286,112.8556,120.8033,56.5077,55.0220,-44.7078,26.3350,-70.4681,-182.1128,82.5854,117.7816,84.0489,42.1027,-30.5118,13.4850,110.4574,28.6236,-24.1701
19.8614,35.9111,12.1798,21.6469,-6.1752,-11.4964,-82.5710,-22.9560,-101.3652,-133.8386,30.1440,36.1713,28.5292,20.3535,-58.7326,-48.2763,10.0506,-41.0433,-70.9398
-20.1905,26.1936,-65.0515,-29.5148,-58.8583,-39.4832,-120.7749,-64.5106,-168.2757,-64.1716,12.2443,12.9057,8.9940,50.0491,-30.0907,-26.6185,-53.7266,-30.3660,-103.1356
-23.1762,42.0304,-56.5380,4.4509,-51.0396,-16.5416,-98.2554,-44.9739,-173.5981,-29.9422,0.7530,36.8483,12.6352,27.0386,1.3526,29.4170,-38.6952,36.1277,-86.6853
-12.9141,19.3403,-23.5094,26.8676,-17.4883,1.4539,-65.0015,-8.5754,-137.1646,-68.8884,-39.2710,9.4673,14.7090,-49.7077,-16.9405,38.1496,4.8478,80.3559,-40.7875
-9.3730,-21.4953,-20.7901,-6.6107,-4.5457,-2.2885,-99.3305,-12.2429,-162.2490,-172.4678,-83.6605,-57.6769,3.9518,-66.5701,-93.7658,-16.6306,11.0493,65.7788,-40.7995
-9.6309,1.3906,-34.9690,-4.5355,-19.2108,25.4232,-164.8006,-8.6389,-209.5223,-177.8001,-86.0521,-56.3546,-19.3075,7.1915,-154.3687,-31.9882,-3.5499,55.9247,-76.9281
0.7114,71.7708,-24.5669,71.5079,-19.5624,81.3733,-153.9456,50.8663,-155.4688,-20.3383,-46.1778,24.2416,-24.3230,76.3968,-122.1843,43.9853,34.3393,81.5946,-44.9811
25.3914,81.5422,25.0323,111.2920,35.1298,73.2997,-55.3443,90.9763,-55.9470,49.7306,-13.6178,74.9416,7.2747,74.3158,-46.0361,87.1491,118.9439,70.5881,46.3215
39.0379,28.8642,62.8745,68.3571,91.2333,0.6503,18.1908,52.4743,-56.7208,-86.9013,-23.9672,58.7520,42.0696,54.6102,-4.0176,48.1858,167.6944,23.6389,80.9572
29.5172,17.0338,54.0925,48.0726,77.5855,-20.7623,12.5589,14.3169,-110.2870,-183.3778,-41.8679,51.3994,57.0500,73.7145,19.3634,40.5065,158.9877,22.1164,47.9884
28.1282,47.2725,54.1829,81.0616,36.5098,19.5898,-7.6298,27.6697,-103.6531,-134.3701,-19.4109,63.9479,58.7376,80.6445,20.2105,46.6322,128.7676,33.1504,7.7764
38.7152,44.0848,76.2321,74.2010,7.2123,19.5238,-37.7470,17.3457,-103.9043,-109.1194,-0.5080,33.7530,27.8793,31.1140,-43.1427,-30.8573,79.9039,-14.8293,-52.9774
19.5528,29.7782,40.6020,30.6427,-58.2575,-23.3963,-124.4560,-45.6677,-162.7582,-127.2289,-52.0885,-13.1683,-38.2524,-13.4829,-95.8235,-88.5924,26.9218,-67.0837,-135.2394
-17.5161,47.6553,-33.6450,33.9147,-125.7446,-36.7322,-181.7906,-80.7425,-150.0347,-103.2584,-122.0410,-11.2131,-76.7612,-7.6891,-60.6140,-35.9347,30.8094,-69.2569,-157.0287
-12.8733,50.7014,-31.1496,60.7938,-90.7060,-24.0915,-115.9658,-48.0390,-30.2462,-91.1331,-117.9686,11.7208,-56.6349,15.0553,-29.0858,6.2053,96.7557,-51.3985,-78.1123
25.7850,28.2352,37.2472,62.4278,13.0783,-1.8833,-12.0522,19.6922,44.1821,-88.2986,-59.8229,30.2977,-25.6739,47.3253,-43.8895,15.6321,155.7480,-7.3982,48.3547
40.4092,38.1071,67.4411,79.6736,82.6550,53.2585,46.2138,98.7412,35.6508,-2.5347,-21.3078,78.0854,-11.2027,102.6136,8.7430,107.9013,171.1538,72.8412,152.4899
20.0538,58.6110,42.0156,107.3716,104.6672,101.4627,87.7869,156.6764,54.2082,101.7320,-27.0821,114.0083,-1.1724,134.0255,110.8364,206.2900,151.4285,109.3673,188.8763
-12.7918,29.5910,-6.7262,69.5251,76.6803,74.1580,93.4847,146.4607,115.9927,128.9899,-73.9602,67.2446,-9.8722,99.3190,120.4802,168.8668,94.9524,48.3716,155.7453
-47.6503,-17.2351,-69.9408,-15.5430,-7.4131,-2.9164,35.4043,84.0719,162.8307,117.0788,-132.5948,-4.9450,-46.4558,33.4365,75.1290,74.6263,12.0170,-51.3671,94.3620
-68.8834,-34.6629,-115.2754,-66.2645,-69.4306,-65.6709,-8.3990,33.8732,184.6465,71.8630,-141.9792,-21.4402,-71.3877,-4.5818,80.1924,34.3663,-49.3034,-101.2335,38.2200
-57.0140,-21.7954,-99.9561,-55.3402,-52.9088,-80.4779,-5.2935,28.2756,168.5332,12.2812,-88.8999,1.5083,-52.8946,16.8443,77.9197,36.1486,-42.5963,-44.1912,3.1896
-16.3057,42.6973,-29.3952,35.0377,-3.3959,-13.4911,-11.1170,64.4635,99.1728,73.0962,-19.1580,55.1317,-8.0695,79.5655,19.0780,83.4184,36.5310,99.4224,1.7723
31.1067,143.7838,54.7502,181.0381,47.5063,103.9112,-17.9218,111.2027,12.7535,207.5527,40.1158,138.8269,26.8704,116.8755,-34.1964,154.3705,137.8827,212.2412,12.6985
64.9668,180.3061,111.6997,251.9041,97.7956,152.4285,-2.2923,117.7360,-61.0536,191.6256,78.5587,170.6425,33.9160,104.6049,-61.2486,156.7048,196.3275,226.2462,8.2463
83.5847,138.5947,147.0958,216.4901,128.4857,121.4358,12.5347,97.0215,-103.4851,86.3699,91.2675,131.0828,34.9774,105.3237,-53.3626,126.4884,216.6181,223.5329,12.2540
104.5827,139.1920,206.6298,232.5170,158.5827,142.6773,51.0016,119.9785,-73.4678,112.3943,113.1359,141.4317,61.8699,154.1639,20.2488,174.3677,249.7358,270.7281,35.3731
126.2914,207.2116,268.2172,328.6577,188.5037,233.4825,104.1652,174.8393,-7.0936,180.7621,156.2075,227.6407,97.3589,199.0157,69.6838,227.9701,266.7759,295.2878,32.9179
121.0722,229.0075,254.6034,334.3719,139.7907,266.3374,77.3748,185.0702,5.1804,142.2157,164.8267,259.3755,105.9344,191.6384,17.9221,181.9782,201.6759,237.6247,12.8339
90.4980,173.5198,188.2928,238.1699,31.7447,215.0552,20.2871,169.0008,4.7649,138.2171,128.1376,202.2304,98.4608,149.0505,7.6573,139.3095,118.5296,174.4217,44.1451
63.5130,134.0036,146.9961,209.2429,-5.4771,166.9544,75.6409,195.5689,78.7493,258.3789,98.9828,163.9402,93.7569,129.6007,130.6059,201.2130,136.6079,182.0082,111.2941
40.4844,158.0611,110.9543,264.8881,13.0687,140.4129,163.2318,236.0568,155.6076,340.6235,74.3034,192.7077,79.6586,170.5267,226.0280,270.7669,216.7184,198.2883,122.2717
13.1740,193.9333,49.4313,287.7381,-19.8389,101.4441,140.1512,233.6288,153.3020,315.9748,30.2734,226.0698,59.2558,220.0362,193.8820,252.4988,240.2937,150.3613,69.8513
4.4960,184.9196,20.5922,266.8831,-58.6867,65.6016,93.2708,219.2008,138.6001,278.0449,9.8026,201.5026,52.4510,196.1330,130.4719,197.4566,229.3097,113.0189,41.1644
25.0375,143.2484,48.9909,258.5880,-29.2288,55.1891,107.9239,225.4698,145.0146,245.0258,31.1356,135.2303,54.2093,127.1804,98.4823,175.7862,266.5687,161.7900,66.8076
45.9708,127.1716,79.8963,260.7006,1.5611,59.3693,89.5081,207.5111,102.0377,195.3851,44.5936,101.5596,58.8262,103.4727,97.1687,182.9477,304.5426,198.4349,69.2614
47.3329,145.5869,85.6687,250.3634,-12.9159,81.6165,8.2537,137.2608,21.6434,153.1873,36.3032,108.6797,73.7376,120.0332,119.6437,174.8355,258.2678,137.3506,-3.5171
37.5850,137.2697,72.6564,223.6969,-19.5699,142.0053,-46.5269,72.6660,-15.9665,96.1003,24.1895,66.1745,84.7237,115.3842,85.2776,126.5605,168.9010,81.2882,-73.6907
25.2192,89.3330,43.6134,196.8761,-4.6704,232.0461,-51.7187,79.0174,-21.6771,20.3517,-3.2563,-33.2427,77.3125,93.2453,-22.2096,84.8056,118.8468,117.2213,-51.7261
9.9508,72.6743,14.9500,205.5106,-0.8372,307.1673,-32.5425,142.6962,-34.2582,38.1671,-37.5023,-66.9267,66.2761,91.1059,-48.4422,123.1410,108.6543,174.5073,19.6378
-4.9748,103.9842,-2.7460,240.3444,-5.1573,323.1198,5.9563,197.1510,-22.3355,173.1473,-43.9315,-12.2768,62.3348,110.4016,31.1748,204.8005,114.0049,195.6070,61.1930
-4.9563,111.3736,-3.6293,241.5372,3.3051,291.5853,38.2998,212.3007,20.0616,246.7010,-26.8892,10.1265,68.2919,129.0883,33.4010,206.7546,134.1411,199.6963,80.4597
17.3241,74.0871,34.7978,205.4911,29.2661,274.2760,44.4522,214.4153,27.9355,161.6332,-7.9042,-31.9706,88.4539,129.9174,-47.3897,121.8706,135.4752,178.6688,85.7190
33.1695,46.6462,78.3329,175.4387,49.8461,287.4552,39.5842,212.2707,-11.5208,62.0481,4.6616,-55.7334,97.1068,120.8290,-29.1873,75.0555,80.8166,120.6908,53.1349
16.7558,43.3817,57.3395,146.2061,38.4211,280.3335,41.5767,172.7782,-20.6448,74.0154,-2.2377,-38.3829,80.8853,129.1670,79.3901,106.7666,26.6869,54.5182,38.0905
1.0101,38.1464,18.5907,105.2523,25.0467,225.8764,66.2314,92.1025,28.9413,124.1443,-14.4947,-9.3420,89.1721,152.5102,120.3707,121.5603,51.5315,-3.7130,94.8407
12.6722,36.5530,32.6323,67.0237,37.2873,125.5367,85.2538,13.0276,49.1539,111.6154,-3.4242,35.6290,124.8075,158.0864,65.1111,61.1613,102.9682,-52.9836,122.6702
5.7163,35.3578,14.7523,2.1208,16.4369,-36.0084,29.8347,-39.1814,-15.4636,51.8039,-5.8417,72.4563,106.2690,135.4523,-21.2488,-34.9968,73.6408,-90.8274,35.6826
-42.4099,-4.5250,-88.0824,-108.3181,-52.2424,-206.6111,-60.4107,-66.3649,-78.9089,-7.2144,-57.8625,41.6172,39.8215,98.9718,-75.8195,-104.8105,-10.9047,-119.0442,-53.3599
-72.9803,-66.4907,-145.5162,-183.9886,-73.9502,-252.8045,-74.4121,-64.4709,-59.7054,-38.4120,-98.1060,-28.1253,23.5190,68.6811,-39.0790,-95.1287,-58.2896,-103.0869,-37.7239
-64.9262,-78.5679,-108.0533,-173.3484,-34.4406,-159.5099,-33.5270,-39.1059,-11.1151,-8.1985,-80.6905,-38.7124,55.5173,71.5090,43.4953,-14.0036,-85.0196,-22.4435,13.0701
-66.7440,-41.9857,-94.8188,-138.9526,-10.9745,-65.8544,4.4685,-10.0749,-0.5620,61.3784,-51.8665,18.9022,78.1525,110.2130,53.4496,40.0763,-132.0100,38.6715,38.8842
-79.7487,-29.1183,-121.0674,-122.5598,6.1056,-37.6182,77.9174,20.8386,-11.5801,73.6914,-34.5935,54.5022,114.3954,142.0465,15.3256,21.7384,-141.7427,27.1874,79.9689
-69.8537,-64.6695,-108.7616,-120.7463,32.7244,-35.1942,137.3709,47.6815,-26.7611,10.8691,-16.0417,11.2964,149.8787,120.3780,27.0903,-3.7984,-106.4835,12.2187,119.9164
-63.2584,-119.5222,-102.3888,-168.5837,-0.5117,-67.6852,86.0602,40.3390,-42.7253,-25.6762,-28.5823,-75.9144,99.9702,42.0545,42.5731,-24.0453,-126.9313,3.6605,108.7151
-86.4509,-156.1138,-146.4902,-232.2072,-61.2682,-117.9076,50.6744,19.4206,-17.3600,16.6909,-75.9035,-120.8757,16.2798,-24.3419,3.7198,-60.6678,-184.2090,-33.0719,109.6356
-95.6193,-126.5541,-146.6909,-177.1418,-33.3996,-67.5977,161.5783,58.5362,55.5031,94.1973,-86.9983,-65.6962,27.1473,8.4135,-1.0132,-28.3354,-145.4747,-9.0019,177.6581
-67.6483,-43.7073,-74.1182,-28.4947,31.3985,66.7109,257.0714,133.2826,109.1748,162.1406,-46.9634,25.5720,78.0772,90.0147,67.7516,81.0220,-49.8778,82.1819,213.0979
-47.5691,-16.5861,-42.5435,15.0480,17.7841,92.5231,205.4410,117.6070,115.6589,172.9829,-21.9303,17.2869,50.6575,68.6218,99.9202,87.8410,-39.8959,60.9163,141.2269
-55.3827,-72.8715,-84.9190,-61.4631,-21.4298,-8.3873,131.2014,4.8428,95.2253,89.3867,-32.3949,-85.1255,8.8254,-34.7239,51.2268,-26.7769,-66.6850,-48.8351,55.0459
-61.6099,-94.3447,-117.1628,-81.1869,-21.1683,-55.5501,102.3502,-65.1453,32.8449,-15.5124,-45.3145,-128.6587,37.2452,-53.7245,6.3179,-57.7241,-21.0420,-31.7270,32.7451
-56.7500,-48.1901,-113.3576,-33.4030,-39.4153,-30.2136,56.4665,-48.0562,-62.9079,-36.7901,-51.3861,-78.2666,50.8196,0.0027,0.4093,-0.0348,23.2463,40.0839,30.0075
-47.3103,-32.9350,-97.8019,-35.3564,-70.2679,-43.2630,32.1194,-33.7532,-106.5522,-10.1778,-52.6029,-46.5153,-9.7945,-2.5098,-12.1941,-23.2682,5.4619,-30.9315,28.0154
-20.6418,-48.8283,-49.5039,-41.9210,-25.4547,-48.8768,80.0628,-44.3779,-61.4164,-23.5788,-38.2128,-47.8995,-43.8254,-24.0143,-33.7310,-77.1757,30.1694,-119.2059,61.7202
11.5120,-23.9396,17.2444,18.4001,52.2557,14.7149,115.2139,-31.0115,1.7700,-43.0762,-22.2558,-17.6011,-1.5737,6.4881,-16.6680,-29.9182,107.4326,-69.6264,97.5168
-1.1154,0.7863,5.9042,40.0842,37.5670,38.0343,80.3410,-5.0528,28.3442,8.0052,-44.2411,5.7140,18.0159,17.7146,38.5798,41.1741,91.4792,-15.9435,82.3622
-60.9102,-14.6213,-100.9339,-19.7788,-52.5730,-16.1091,33.5927,19.4884,36.8137,102.3265,-100.2931,-12.0399,-29.4881,-5.2411,69.8126,53.9685,-18.9275,-37.5057,50.1488
-102.4843,-9.4458,-186.1516,-34.2467,-103.6584,-27.9893,18.9626,67.7313,44.7202,150.4995,-127.8175,-12.2272,-63.5345,8.9625,36.6080,52.0378,-78.3431,-33.1572,36.4451
-96.3572,4.0325,-186.8135,-2.1295,-98.7982,0.4788,17.3771,92.3604,41.4463,118.7823,-103.7369,-20.7734,-55.4438,8.9966,-33.3099,18.8252,-71.3989,-12.5882,11.4225
-74.9994,-34.1112,-152.1983,-26.3477,-91.1039,-17.3775,2.7723,40.8782,27.8434,52.5455,-82.8089,-93.5120,-55.0568,-48.7347,-85.0301,-52.8183,-63.2210,-21.4477,-22.7667
-45.9174,-39.4316,-92.2258,-19.4296,-65.2750,-9.9758,-17.1439,0.4062,12.4858,0.0802,-77.0764,-108.7838,-42.7654,-45.1269,-85.9910,-41.4446,-10.8483,27.4893,-26.2380
1.6937,57.9341,0.9142,113.0806,0.6473,82.5849,-26.5817,31.8734,-22.6243,-37.0018,-32.7588,9.7995,16.9259,33.9386,-49.0893,60.0415,94.7499,124.6001,-32.6983
25.7931,134.5207,33.6646,204.8674,30.8001,132.7063,-66.8134,36.1012,-93.6135,-42.4065,14.9967,84.7243,34.9190,31.8316,-36.6513,91.7231,119.8360,125.3081,-97.6689
-2.7319,109.3651,-37.2686,138.7564,-12.8954,83.7965,-159.7926,-18.0271,-157.7906,17.8226,-22.8762,22.1110,-49.6777,-42.5420,-92.3246,35.5397,35.8160,47.4071,-161.0088
-25.1141,68.8999,-79.5661,59.4599,-32.1186,42.2757,-200.2475,-29.2679,-160.4578,74.9681,-88.4200,-25.5669,-113.8492,-43.8575,-162.2070,2.9845,-3.9019,21.0174,-132.6742
-2.9191,45.7576,-26.1925,41.5477,8.7565,20.0641,-134.1184,-11.4779,-130.8462,16.3206,-75.2995,-9.9499,-75.5441,-10.0908,-170.0865,-19.0794,37.4607,26.5834,-68.7411
11.0358,-1.4433,4.9942,0.4733,10.1227,-42.3024,-93.3439,-50.4279,-136.3882,-110.2735,-42.4140,-41.2169,-46.3783,-56.3218,-136.5830,-77.7441,35.0463,-7.9696,-82.8468
-4.9680,-35.8384,-29.3001,-37.2382,-31.1888,-80.5885,-137.7336,-85.0647,-172.9375,-184.1738,-66.4306,-99.5058,-84.0350,-129.6634,-118.9928,-107.4287,-10.6382,-43.1773,-138.9337
-3.7078,-28.1432,-35.6287,-14.6721,-24.4524,-52.3250,-160.0634,-61.8615,-201.4264,-222.8835,-80.7521,-99.5696,-100.2627,-145.3379,-112.3513,-88.0261,-3.2027,-51.1757,-136.6007
7.7366,-24.0906,-19.6995,-20.6626,-22.8346,-56.4981,-161.5450,-82.0408,-222.4809,-254.9938,-59.2617,-79.1090,-101.9312,-132.1958,-100.7537,-96.3094,-2.3364,-83.8658,-131.5877
-20.0517,-12.3164,-62.5681,-73.3021,-120.0072,-112.5211,-234.5649,-162.9085,-232.0868,-189.1465,-81.3358,-71.3036,-176.7994,-120.9712,-104.0177,-126.7980,-91.0347,-136.1658,-224.7235
-55.1799,46.1667,-117.2223,-54.0050,-219.3873,-115.9363,-316.2977,-181.8520,-205.7311,-34.7319,-125.6043,-38.3548,-259.0991,-99.5822,-126.3488,-111.4963,-152.7681,-140.9957,-325.1309
-34.6648,85.0649,-93.4120,7.1186,-201.0369,-80.2821,-312.2342,-154.3217,-162.9395,21.7239,-94.7959,-4.2686,-233.3031,-86.7511,-142.3826,-86.5883,-90.0948,-121.2809,-297.9084
10.3999,33.1942,-34.3261,-39.8498,-131.0403,-121.4147,-277.3906,-209.4271,-143.1733,-95.7257,-25.5047,-27.3869,-158.6826,-114.7812,-128.1822,-127.0108,-29.3495,-162.5225,-217.1891
7.7719,-59.2699,-36.6475,-167.4808,-118.4134,-218.4430,-269.9466,-311.5294,-141.4237,-248.0754,-26.0202,-93.9890,-145.0273,-171.7456,-80.6043,-189.0689,-81.6013,-229.8759,-213.0994
-39.6647,-105.0087,-104.3561,-221.3338,-158.9751,-236.5386,-268.9182,-314.4693,-139.8763,-295.2691,-90.0273,-151.6322,-171.1224,-207.3917,-42.9598,-180.7151,-164.9490,-205.8134,-244.3559
-73.5996,-82.7603,-161.7718,-167.6701,-184.2356,-149.3235,-257.0543,-209.5663,-132.4890,-229.8257,-129.3674,-157.3694,-171.3918,-187.8103,-61.7685,-116.1796,-185.1595,-109.0662,-222.3228
-65.6315,-42.7765,-149.6888,-99.9530,-142.3282,-69.9431,-209.4794,-114.1393,-101.4352,-139.9636,-107.7986,-111.1504,-142.1879,-147.4776,-98.0420,-78.2710,-155.3251,-59.7536,-160.3656
-39.3486,-45.2953,-91.6911,-90.2273,-57.0730,-71.6714,-124.3617,-97.3450,-53.1549,-108.1064,-71.1335,-78.1065,-109.2912,-139.1954,-94.6976,-81.7188,-112.8865,-56.8376,-101.3353
-27.3734,-66.1479,-57.8232,-107.9239,-8.1316,-93.6334,-83.6587,-125.1369,-33.2588,-107.5297,-69.2827,-85.2027,-93.0376,-140.5971,-85.8615,-76.0857,-78.0445,-23.6318,-71.1814
-24.9907,-37.7089,-53.8603,-81.9044,-1.2712,-64.6731,-112.0039,-136.9728,-45.0948,-69.3454,-74.5085,-69.3549,-95.8928,-107.5428,-101.5632,-46.4638,-59.2688,14.2637,-86.1449
-2.8589,16.6011,-16.7907,-21.3361,31.5025,-11.3996,-116.6607,-114.3860,-42.4781,-36.9795,-32.0370,-9.7157,-91.7687,-57.8715,-93.7598,-18.1766,-39.6704,18.0982,-105.1992
38.5146,44.0269,63.4869,24.6865,91.4845,29.7477,-76.2258,-62.6143,-21.2036,-76.2302,35.1148,50.5667,-58.7100,-7.1683,-60.5885,8.7003,-3.8236,45.6851,-79.6265
65.0177,74.7539,114.9792,71.4443,129.3726,68.2645,-60.3181,-1.5392,-19.0303,-109.8305,69.4363,105.7096,-13.3198,48.9155,-56.2173,45.7738,38.1262,104.4418,-49.3455
60.7178,112.8122,97.5777,112.3253,140.4948,74.8831,-74.3436,1.1184,-46.3037,-54.2036,66.9442,138.6102,2.3014,59.6804,-62.6645,68.1036,69.4381,104.1545,-61.9700
43.9285,94.0218,57.8477,81.7952,126.5426,20.4004,-88.8699,-80.3512,-85.6654,10.1634,42.9164,97.8911,-38.3253,0.6781,-43.8051,52.3111,72.4746,46.6632,-86.8347
32.8859,40.8630,43.7407,20.5842,89.0497,-17.8671,-102.4657,-129.2227,-110.8683,-3.6701,8.6809,24.1397,-99.0675,-40.8087,-34.3435,33.4644,49.3234,41.9391,-91.1678
27.1794,31.9962,41.9786,33.1431,84.0347,23.9941,-84.3182,-59.2669,-83.6701,-16.5978,-1.4770,4.2406,-105.6748,-19.6399,-42.4203,58.3681,39.4818,113.7037,-71.5719
20.9183,47.3014,33.7185,77.1166,128.1386,78.3949,-21.2823,28.1424,5.3991,71.9384,15.0785,21.5251,-58.6777,-4.1872,-32.2079,104.1042,48.9710,172.6141,-21.5508
13.7887,42.6822,33.5699,65.1975,126.7834,89.6796,17.7925,46.9546,107.0310,202.0693,12.9082,27.9545,-39.2671,-9.5634,-23.2173,111.4907,26.3523,162.6525,28.1267
9.0008,42.7952,41.5507,41.5627,37.4411,94.6732,3.1280,65.1730,174.7517,256.6119,-1.8499,37.2669,-63.2868,15.6697,-24.8549,87.7232,-26.2114,115.0215,38.3765
9.8893,53.5310,43.4190,53.2477,-32.5205,105.1575,7.4726,110.2783,213.5641,250.1639,17.4510,59.4869,-57.0123,50.3704,17.5849,92.6538,-39.8393,86.4771,51.6078
18.0528,52.2706,58.3222,65.7887,2.0735,99.2840,77.1553,118.8161,229.9205,271.2762,54.5441,87.2012,-3.5168,53.8041,78.7621,125.1092,-2.0528,100.2374,108.6661
28.0414,48.3916,90.6842,69.3589,73.4121,89.4870,158.6733,108.0184,200.1543,310.9125,68.8206,111.6949,25.9985,50.6488,61.0107,123.3400,33.5934,133.0297,154.7114
26.6870,39.6702,91.2951,66.5801,81.8153,81.8847,174.0372,130.7407,132.0587,311.4249,61.6036,92.9864,-1.8592,45.7070,-13.7555,81.2546,30.2093,150.6826,144.9069
6.4324,19.4625,47.9785,43.4361,42.7550,75.6746,120.0378,143.7464,85.2733,295.5667,27.1146,36.4781,-38.0523,16.3575,-48.0506,57.0131,-14.0951,146.1066,103.5573
-23.5126,23.5358,6.4247,34.6004,29.2194,95.8278,72.5541,107.5105,83.0447,278.5809,-42.3086,23.7929,-37.5434,-4.1809,-40.4128,66.9126,-63.8441,122.4576,53.7570
-44.5447,43.1036,-22.1717,46.7790,37.4961,116.9322,70.4174,70.6811,85.7078,202.6702,-96.0050,56.1350,-16.2876,13.6772,-27.8350,72.5937,-74.6503,73.8768,30.0423
-46.8585,20.7238,-42.9872,11.0250,19.9898,84.5639,74.4024,78.5387,87.3184,107.6730,-88.9379,62.6765,-5.1078,40.3560,6.8314,67.1848,-73.8391,25.3478,73.1295
-39.0761,-9.1935,-27.1814,-40.8342,-4.6620,52.4260,86.8518,123.3937,126.8560,139.4752,-49.2478,65.9813,10.2289,64.6118,64.7728,84.0916,-106.8691,36.5509,132.0128
-29.7889,16.5838,20.5954,-0.0613,8.2935,93.8750,152.5048,165.5452,186.0820,273.2809,-5.4693,99.7681,59.2584,92.1157,109.8588,122.0608,-113.8040,105.3099,136.7567
-3.8156,44.6449,68.4304,86.9307,53.4869,147.2078,230.6473,165.1586,208.1057,299.0471,54.0178,105.5472,120.9070,92.8533,128.6416,137.2440,-25.8384,149.8753,139.0472
50.5036,26.3322,137.0555,116.4061,117.0506,150.5678,258.2834,150.8711,198.2659,160.2400,119.1422,84.1465,152.5521,70.1566,121.7805,121.1740,92.8311,153.7838,193.8249
103.4092,21.7651,230.0694,132.1393,189.0676,159.5084,264.7615,181.5945,183.7541,41.6547,160.3605,106.6593,164.9316,78.5880,100.7305,120.9636,156.4751,192.5220,237.0170
126.4651,56.0408,288.1090,179.0794,235.1806,199.2482,273.2568,219.7487,150.1423,61.4069,186.7588,151.3421,196.8360,119.5318,111.1817,159.6645,180.4149,259.4767,229.0162
139.3990,73.8023,307.5931,192.7480,258.5515,214.2164,251.5396,204.3563,107.9010,109.9669,216.1305,166.5433,239.1632,145.7663,164.6054,197.5205,197.6321,260.5461,226.2502
153.7511,55.3578,326.2817,157.3955,291.5420,192.5037,218.4552,183.7958,97.2402,79.7310,216.4605,159.9376,248.3721,140.4119,191.6510,191.1469,196.7685,201.5591,241.3503
138.7966,21.6464,307.3768,123.6638,288.2743,161.6775,214.8270,197.3759,96.7669,45.8639,161.1485,113.4600,217.1967,107.7861,145.2238,136.8544,173.0165,160.4911,225.4831
97.3585,-7.2434,231.7779,97.7178,206.8903,124.3203,216.9572,184.5433,65.4782,72.9147,108.7210,36.7747,181.2417,73.2210,71.3767,62.4642,142.2168,133.4932,180.3431
78.9407,-3.3801,177.6103,80.1074,135.1335,92.6077,200.8529,135.4431,29.6512,60.3017,130.9171,29.1910,161.7870,83.6938,37.2996,20.4105,118.3879,107.1381,142.6024
89.9368,22.9660,177.3904,84.5107,141.5901,87.4307,176.1819,118.0050,14.6196,-21.6472,193.8285,85.3012,149.6265,113.7435,67.0246,45.9933,100.2134,125.5919,115.5722
90.0549,17.8799,175.1606,76.9741,162.1049,95.2351,142.9216,126.1476,-4.3582,-26.8987,212.2777,78.5167,146.8470,79.4304,134.3656,94.6252,61.2658,158.9220,92.7787
66.3837,-19.0491,140.4206,34.1807,147.9487,92.0760,114.7823,102.0106,-33.3151,37.8332,174.6932,12.0243,160.0139,-1.0484,157.7796,84.5643,-3.9645,125.5720,77.3245
36.6652,-39.7478,79.8430,-5.8309,114.7951,66.4969,100.8600,51.1582,-68.0941,-28.2842,125.1944,-17.1277,155.9694,-31.6163,70.0868,6.4492,-43.2332,60.5725,56.7102
19.4468,-32.5427,22.1771,-18.7670,57.0828,23.4864,60.6137,7.1750,-130.8300,-195.4410,96.2786,-10.6884,112.3273,-2.9032,-60.9469,-67.2265,-29.7525,45.7181,18.4719
25.8756,-8.7957,24.1740,-12.3599,-0.3055,2.1774,7.3946,-17.6102,-183.0253,-209.9010,107.3273,8.4039,80.3757,31.7746,-90.2364,-71.6798,-13.4805,65.2528,-15.0976
36.9579,13.9662,69.5449,3.0522,6.2368,18.0820,33.7555,-15.9448,-128.8302,-62.5990,135.4519,46.7282,97.6615,50.3542,-2.0363,-24.3039,-25.4569,67.1503,-11.8047
21.9561,-3.4987,68.6439,-2.4289,51.6991,13.5060,127.5917,-4.3881,6.8722,15.6276,111.4191,47.1144,113.4771,38.1809,79.1096,-2.5754,-29.7868,33.8218,20.2933
-1.5871,-49.9641,30.1754,-31.7504,66.5652,-30.8238,168.6174,-4.4201,77.6753,-34.5794,34.8259,-6.4027,87.0869,5.8069,87.2549,-23.2254,-1.4575,-12.7706,45.5538
1.5057,-45.5979,31.8814,-21.2139,62.0283,-36.8709,132.8434,16.4567,41.0414,-59.6514,-4.5644,-8.4898,52.3980,16.9422,67.0955,-4.9565,38.7679,5.3626,55.5633
19.6392,20.9269,60.7551,49.4590,66.5134,26.2313,94.5147,81.9284,-1.4826,28.9433,28.2795,63.1677,48.3258,71.0972,58.3937,76.4354,63.8019,105.8699,65.5605
32.0311,59.5647,79.4994,99.8141,69.6091,80.7744,86.7436,130.7441,-0.5642,136.8009,80.1174,94.2522,82.5828,75.1919,70.4447,119.0302,58.8754,156.6421,70.1364
39.4210,21.5773,95.6642,68.2793,71.8663,69.0489,95.7599,112.7107,-11.3215,127.3741,104.3141,42.4286,127.2929,15.8861,93.7314,66.8831,24.2954,93.1065,59.3043
29.3507,-42.0459,77.9839,-7.2750,65.3025,18.5957,103.6102,75.8122,-45.4478,30.6952,80.2888,-24.7496,115.6666,-14.0854,73.3376,-5.1395,-10.5113,33.0892,57.0995
3.2411,-67.9699,19.7573,-46.6548,41.6826,-16.1498,106.2219,73.7817,-41.8890,-14.2740,17.6747,-50.2830,43.8870,13.9941,7.6861,-24.6902,1.3826,30.4775,90.4298
-0.5660,-52.4138,6.6449,-21.1913,51.6519,-8.4315,122.5553,83.9162,-1.1439,-17.7623,-23.2367,-23.6816,10.1398,41.4900,5.1515,8.0978,61.8779,21.9069,137.8801
10.8473,-30.4291,34.4354,12.9231,99.0183,20.4746,126.6054,73.2932,0.0460,-57.1202,-24.0665,14.8310,36.1161,42.6221,69.8953,60.7453,88.4845,28.4352,138.2753
-18.0535,-10.8778,-13.6769,6.3804,79.3518,34.0235,51.9086,59.0524,-51.6131,-47.5610,-52.8065,16.3116,28.9330,41.2851,58.0981,87.4733,16.2674,79.4208,60.0838
-73.3851,16.6599,-117.7291,-5.6473,-15.0928,32.9284,-45.0203,58.7155,-81.5642,36.6478,-116.3233,5.5742,-6.5023,48.7876,-11.5598,76.2599,-75.9795,83.7704,-27.8730
-82.1974,17.2169,-137.3243,-1.4363,-43.1108,25.9936,-23.8640,50.2055,-52.7932,16.7372,-119.5689,13.2651,24.0559,45.7163,20.0933,61.6309,-72.3251,18.1412,-18.3372
-30.8983,-38.4552,-49.7155,-23.0267,36.2887,-3.4942,87.1983,21.0136,-3.2864,-105.2748,-28.7253,-4.9648,97.5706,12.5550,93.9776,31.1444,-0.6283,-17.6497,67.0425
33.1588,-86.9024,60.8114,-55.3628,109.3657,-45.5014,139.5489,-2.4618,30.7769,-109.7018,80.5753,-51.9969,130.8262,-26.6706,58.9932,-46.8800,46.9676,-12.4221,99.3226
67.1947,-69.9598,128.3426,-41.9720,104.4652,-62.6262,117.8125,-6.8439,39.5892,-15.2880,129.5927,-54.0722,126.1032,-28.5378,8.7353,-104.4573,57.9061,-31.2208,51.3852
53.5147,-37.0477,114.4368,-21.0731,46.2789,-63.2369,89.5864,-16.2583,15.4550,-2.7666,100.0488,-16.1033,93.2142,-13.5201,46.1187,-86.6146,39.1134,-65.6559,6.5438
16.1960,-37.3103,39.5352,-49.2444,-21.1980,-79.5148,43.5118,-47.9321,-36.9556,-37.7736,45.2426,-13.5730,23.1857,-32.9457,39.7780,-76.3776,-14.6623,-83.9877,-14.2407
0.3627,-40.7096,-13.7257,-83.6717,-62.3468,-100.4901,-26.4611,-86.5435,-88.6396,-34.8331,37.1468,-38.3110,-25.6137,-53.6214,-56.7618,-116.7642,-54.9070,-84.0848,-44.4595
2.6449,-27.1546,-19.5052,-88.3249,-71.7219,-109.9139,-57.2258,-105.5073,-104.2495,-39.6828,60.0311,-29.0563,-18.2172,-17.7198,-81.4329,-130.0014,-60.8713,-79.1280,-75.3176
-12.2060,-21.8000,-31.1986,-100.5779,-82.3191,-131.6420,-40.8472,-108.4046,-73.3731,-47.9607,46.2181,-0.3075,-18.4411,15.5506,-2.6933,-118.1410,-93.1762,-132.2240,-102.8948
-34.9586,-35.5441,-68.6034,-125.0320,-115.7713,-173.8289,-44.1678,-138.7494,-30.4677,-39.8523,9.9006,-15.6980,-40.9021,-36.5420,48.8215,-148.5785,-132.9953,-247.6761,-139.9634
-31.7768,-50.7838,-88.2161,-120.3599,-152.3395,-189.8692,-83.4101,-193.5114,-17.2097,-76.2793,7.0673,-68.5983,-30.6099,-108.3755,41.8301,-167.3588,-89.3890,-274.7868,-144.9739
-4.0798,-47.2228,-51.0664,-93.4552,-157.4201,-154.6960,-108.9304,-186.2307,-29.1466,-109.9720,26.7087,-76.5734,-14.5754,-91.1983,24.3204,-120.5620,-14.2214,-176.6712,-89.3898
21.3539,-31.5912,17.0907,-93.2245,-131.0924,-126.5116,-95.9049,-107.0030,-39.8281,-47.1326,36.9681,-20.0665,-43.7750,-24.2727,8.0153,-97.6664,-25.9196,-145.5581,-34.8978
20.8696,-31.7620,36.4056,-120.4298,-117.9504,-147.3005,-63.3212,-70.8765,-33.4307,19.4039,35.8750,16.0945,-68.6626,-4.4442,7.9972,-130.3392,-80.0997,-212.6912,-28.4266
-8.7508,-32.2598,-15.8738,-111.7589,-127.7237,-148.0063,-26.3862,-91.4771,11.2859,9.1398,17.8176,8.9998,-52.9654,-12.4076,28.7669,-112.5135,-83.0210,-185.5501,-41.4953
-40.4846,-2.4047,-67.2253,-55.6890,-117.4052,-89.1382,7.1017,-68.1984,79.2530,1.9061,-11.6145,26.4402,-50.2874,1.7642,43.2944,-44.0781,-80.6016,-92.0494,-59.0238
-53.3500,6.5172,-81.7262,-49.1890,-104.8494,-73.9364,14.1917,-40.0782,94.3176,1.8437,-24.5189,40.4309,-73.8425,-8.6623,56.8718,-47.9442,-131.6676,-125.2360,-92.9963
-57.3607,-46.4328,-90.6947,-123.6827,-141.0331,-145.4181,-5.6028,-99.0772,48.4338,-26.7355,-21.2903,-19.8639,-75.2130,-70.9919,70.1880,-117.6306,-177.9876,-204.6361,-119.2257
-56.1791,-85.1806,-86.2524,-165.7618,-176.0051,-185.9971,-8.1584,-152.0903,35.9042,2.6302,-21.9035,-77.8723,-65.3976,-107.1418,40.9938,-144.4014,-163.7808,-165.9445,-103.2331
-45.2698,-75.2940,-61.8560,-150.8175,-167.1788,-172.6807,12.3010,-130.0072,70.0519,72.0557,-28.8117,-65.3560,-93.3599,-87.7786,-13.5852,-145.1519,-129.3552,-139.5389,-62.1217
-44.1956,-87.6292,-71.2330,-180.5262,-185.3697,-208.6914,1.9355,-149.7758,66.1449,35.8932,-49.0708,-65.3546,-140.4118,-83.5425,-30.4555,-190.5291,-125.8065,-243.4124,-47.8999
-57.6679,-101.7330,-106.7142,-209.1729,-220.5790,-240.6828,-34.7831,-203.6900,27.4894,-53.9705,-76.6514,-81.0999,-150.8959,-94.0146,-17.7982,-203.5529,-130.9666,-286.5261,-66.7132
-49.8873,-41.1936,-90.9545,-119.0931,-164.3750,-146.2167,-33.6790,-133.1412,18.0075,-53.3181,-62.8013,-13.0769,-118.1049,-49.9282,-2.6158,-96.0488,-95.6047,-153.9639,-52.4326
-16.3207,21.8225,-38.6199,-16.6948,-73.5868,-34.5031,-10.5776,-12.2281,16.1319,-14.3652,-2.2987,68.8298,-77.4321,5.8993,19.4008,8.8120,-42.7796,-49.6007,7.7704
-2.8364,1.6861,-29.9154,-46.4721,-87.7373,-65.4256,-37.5973,-46.1830,-18.0012,-27.3096,28.3106,39.6473,-59.0575,-19.8581,12.6668,-38.9474,-46.0256,-110.6439,2.5867
-24.1171,-23.6983,-68.2645,-111.4415,-155.1217,-154.7734,-101.5030,-165.4946,-59.6757,-55.3254,-2.4705,-12.6585,-70.4987,-74.3402,-38.7288,-135.8652,-93.9782,-184.5968,-98.1942
-43.0735,14.5578,-100.0072,-82.2527,-167.5511,-149.4140,-125.9777,-167.5176,-77.3524,-30.5573,-31.3257,23.5543,-90.1761,-47.3171,-66.1579,-100.6796,-89.6393,-123.7311,-133.2808
-31.6646,62.0556,-82.2122,3.2796,-141.4674,-59.6745,-79.9700,-62.0213,-47.2952,78.2963,-15.4493,79.1665,-85.0926,22.4138,-55.6714,12.3206,-12.0724,2.5330,-33.5974
-0.2010,67.4028,-12.5534,61.7676,-88.5033,12.6100,-1.5953,5.0375,16.9559,158.7962,10.8246,76.0567,-64.4333,17.7381,-72.6546,29.7300,50.5937,50.4632,40.6081
23.4247,28.7696,42.2682,40.8416,-5.3596,-0.3310,27.2060,-36.8207,10.4990,20.7709,9.6684,36.4977,-67.7942,-51.3978,-107.2014,-49.8190,47.1255,-5.5578,5.2180
27.4957,-16.8600,34.9642,-40.2641,31.3189,-59.6532,-33.8552,-126.7730,-88.8441,-186.6237,-2.6242,7.9282,-76.1727,-65.1070,-96.4645,-82.0702,22.1705,-54.6752,-25.2823
24.4078,-0.7029,22.0438,-57.7692,5.7472,-51.7904,-101.6718,-132.9023,-103.1807,-105.4214,3.5463,28.5377,-39.0339,6.0388,-34.4420,-2.2261,19.3866,-12.0592,0.6382
21.9111,50.4328,40.4622,10.9198,6.3008,14.3331,-81.0600,-45.7735,34.8212,132.6312,16.4269,68.1311,8.4244,47.0664,48.4066,89.5171,21.2440,40.5099,11.6524
19.1030,23.3202,47.8245,13.4643,39.1300,9.6463,-8.9587,-20.3724,127.1734,107.6763,20.8751,41.0139,11.2853,-10.7910,92.2534,63.4323,4.0787,-2.2847,3.2887
24.4612,-58.1055,46.0716,-71.9240,61.0444,-52.5124,43.9718,-86.1276,84.2394,-82.8569,41.6110,-21.1885,22.4779,-73.9730,46.2129,-41.0039,-15.0703,-59.7190,33.3833
29.9603,-79.4636,56.5494,-104.0504,106.8203,-53.6398,97.7337,-82.8892,64.0045,-70.4183,74.2676,-15.5514,80.4786,-55.2420,-12.0869,-60.2291,-17.9424,-8.3088,102.3514
10.5237,-62.4806,35.2221,-75.1005,169.6415,-13.7166,168.5551,15.7721,122.2742,84.1728,65.0360,17.2060,99.0024,-13.2343,11.1425,21.3529,-17.2239,83.8008,164.8234
-14.8096,-63.3966,-11.3846,-56.0598,167.1535,3.3576,190.8196,67.0942,140.1606,129.2139,27.2836,-1.0969,46.5258,-19.8688,35.0623,56.5785,-20.8574,94.1941,169.7311
-7.3832,-41.2242,-12.0399,-25.1749,106.7723,19.8462,125.9523,36.9618,101.2871,80.2462,33.4313,-17.2641,19.8994,-50.9920,-12.8258,9.3662,-23.8781,50.2620,97.1878
14.3491,-6.5745,16.0141,-0.9096,63.1042,11.3335,47.4349,2.2760,100.8688,55.9020,78.6500,4.5625,47.5905,-69.7935,-22.3572,-19.1624,-29.7728,22.3939,21.1409
24.1129,-14.3797,31.8338,-25.1993,51.2895,-45.2654,45.7650,-6.9285,153.3260,73.4552,112.1998,21.8231,66.7832,-63.8206,59.0397,3.9542,-20.8326,14.8279,30.9672
35.7730,-8.4722,62.2113,-11.6597,50.0107,-40.4670,84.0909,9.5516,181.2534,90.6094,119.1365,49.1900,66.6306,-16.6807,107.9795,44.8277,23.5533,38.0804,79.3940
33.0133,54.9376,64.7498,71.4655,31.5799,53.1788,47.0975,44.7725,121.0189,58.5863,74.8331,99.0391,49.6967,46.1690,67.5018,98.6081,54.5564,99.9026,61.5731
-5.3912,100.0813,-14.6988,114.3045,-11.3848,102.1197,-41.3665,76.5966,14.1046,13.0232,-2.4550,116.6714,2.2224,73.2691,17.5528,148.2771,33.3156,155.2503,7.0825
-16.9717,102.8862,-47.0509,122.8788,-9.2333,106.8150,-28.5205,126.0889,-8.2472,39.6466,5.1887,118.5610,-9.7014,79.7761,7.9709,165.3615,27.7512,185.2500,24.2425
33.1756,112.5585,56.5362,173.7176,68.3246,169.4705,82.7297,204.8733,72.1298,92.2695,98.2391,155.1718,57.7332,100.3540,15.3874,161.0497,69.4380,206.0820,102.4477
55.8090,113.8240,121.5914,190.8279,111.1546,212.4209,120.7237,234.8602,95.6335,81.0087,97.6595,170.4893,94.0033,111.4327,1.7738,141.7074,75.6940,188.1512,128.3079
11.5524,97.4592,44.3508,137.4148,68.3895,148.2114,50.8227,184.8463,2.4942,49.0111,-11.9345,138.1565,35.7576,106.9762,-39.1329,107.5434,41.1011,128.1976,69.6028
-4.9348,115.2976,-2.6577,133.3695,38.5361,96.2769,-8.4005,140.4035,-65.7794,33.9906,-34.3727,140.4895,-2.3283,119.8564,-62.6385,93.7545,51.2982,105.1731,3.0990
39.2466,148.5391,67.9038,177.1520,42.5424,125.5183,-35.1444,128.8150,-51.6927,-8.2831,54.6286,173.0054,37.5809,128.3782,-54.0561,92.6503,75.2942,128.9822,-29.9972
58.5460,132.0777,103.1247,151.5617,1.7731,130.3310,-77.0336,94.4029,-54.3082,-67.0084,92.1011,148.9959,65.9863,99.1982,-57.3994,52.4876,35.9554,110.1193,-54.4054
22.1510,92.3636,26.4326,94.1071,-58.9613,90.1210,-86.6534,55.1126,-77.9924,-112.3225,52.5907,98.2126,51.9119,75.5316,-55.8149,14.2254,-7.8861,45.6692,-58.6573
-14.9145,83.1914,-52.1732,98.4388,-62.9020,88.8985,-16.8378,60.2536,-30.1929,-143.4845,27.9361,98.8277,55.1685,85.5937,-8.2193,40.7382,2.6093,24.0827,-20.6651
-24.6751,81.8670,-55.2173,110.1014,-33.0719,98.0848,56.8916,65.8419,58.9083,-103.8846,28.2412,110.8839,76.5935,72.6116,15.0593,53.1368,2.1916,39.5043,-0.5109
-20.0040,46.3881,-25.5589,49.0309,-26.5849,29.9085,43.1539,15.0976,80.5084,6.3067,22.8452,59.0426,65.3642,5.0172,-28.3272,-24.1129,-42.5219,4.3069,-47.7915
-11.4973,-6.3633,-17.8648,-39.9426,-49.0529,-74.6089,-40.5464,-51.7790,38.0800,63.3851,14.5713,-23.0799,23.3949,-56.0865,-38.2645,-88.5385,-64.7480,-63.9357,-92.0005
-1.5752,-10.4481,-21.2887,-47.6056,-69.9316,-92.7159,-100.3742,-55.6341,5.0135,44.6400,11.7728,-32.2432,-0.5675,-43.7759,6.0716,-38.9376,-21.4787,-50.7697,-65.0286
16.1150,52.4282,3.4483,48.2817,-52.7336,-1.9697,-88.7637,8.6896,-22.9649,6.2451,24.4411,46.3726,4.2221,22.3136,-6.6180,42.2526,51.2402,39.6223,-16.4016
38.4089,94.0702,44.2359,124.4364,-13.2874,87.3933,-60.4506,65.4801,-89.3576,-92.4802,38.3465,98.0161,-6.1986,60.5958,-65.8439,44.9561,82.9630,65.3238,-4.7252
39.9168,66.4398,52.5048,102.6616,-2.6163,99.9368,-59.5418,73.6751,-150.6785,-187.3801,14.3442,70.4013,-32.9840,50.7350,-54.6868,18.3904,56.4524,6.6956,-6.5963
19.0413,54.7509,29.9537,84.9584,1.1402,85.6202,-34.9606,70.8567,-119.9721,-104.6729,-16.7496,61.2704,-15.4533,58.5911,19.5188,53.6904,46.1452,-7.4120,6.5697
5.7365,70.3473,9.4641,97.6003,30.3769,62.4765,25.5302,50.1353,-17.8346,33.6247,0.4813,81.4973,19.1508,80.1903,63.4231,79.6069,72.0521,-1.7606,11.8168
1.7884,9.0038,-11.0718,10.0002,17.1760,-28.8550,33.7105,-35.0000,52.4138,-11.4702,12.9021,14.4615,-27.8608,30.8709,53.1613,-12.5962,40.4128,-101.3394,-13.4698
-7.0487,-71.2000,-23.4911,-104.4092,-58.3120,-115.1204,-23.0730,-99.6858,70.8134,-83.3624,-26.4207,-82.1737,-103.6167,-44.4325,27.2958,-103.6191,-33.4820,-176.0723,-45.9369
-4.3138,-19.6092,6.3557,-36.1885,-87.5388,-51.8703,-53.3132,-31.8675,95.2819,60.1866,-45.0091,-47.4910,-80.7116,-22.2667,19.4756,-27.4247,-17.1668,-52.5362,-46.8490
13.8645,69.9155,49.8317,93.9314,-46.2447,65.9052,-40.1950,62.8788,124.5810,250.5667,-23.4722,28.4223,-25.9564,34.2064,11.6401,77.2433,52.3917,70.2415,-15.3977
16.5462,29.7833,45.5729,43.9124,-27.1514,42.9423,-31.8715,37.8691,122.7364,238.9878,-38.4135,-11.3523,-59.0479,-2.2164,-30.3426,16.6041,39.0652,-16.2768,18.2725
1.7694,-43.7089,16.9466,-68.1783,-39.7344,-53.1479,-23.9176,-24.8078,108.3170,101.8464,-73.7137,-52.6882,-105.7493,-47.9437,-50.5283,-66.9785,-14.2716,-110.3698,31.3608
-5.6291,-8.8248,16.6357,-44.2717,-39.3580,-54.9073,-17.4855,-11.2039,91.4325,36.6632,-66.7238,22.5085,-87.7172,5.2461,12.4365,-1.0627,-20.3248,-39.5743,6.8643
-8.6099,60.0486,20.5648,32.6960,-45.2305,-3.2336,-40.6797,22.9371,40.2288,82.3981,-57.3927,88.5467,-73.7960,64.8376,63.4055,79.5506,-9.7343,27.9225,-44.9501
-6.7816,75.6004,8.3580,73.9406,-49.9017,9.3924,-46.0349,36.6083,-16.1609,115.3481,-62.0623,70.3579,-69.2885,57.8191,14.4548,58.1650,40.8732,11.1508,-50.3910
24.6389,69.4814,31.2815,124.2937,-7.3091,6.9810,19.0704,68.0445,-7.3585,27.7381,-11.3285,58.7042,-4.5846,56.4514,-36.2452,28.2408,174.8534,23.3581,24.2663
66.6135,53.2847,91.4189,142.5929,39.4697,-5.2453,79.9423,76.6261,38.9203,-86.5380,63.1213,60.6087,58.8607,71.2288,-12.6426,14.8088,264.1293,33.6083,76.9788
66.2981,26.2206,104.1492,91.5426,30.7319,-42.6898,56.4309,26.0342,39.6459,-78.0279,54.5593,29.2696,42.8931,53.0396,18.8739,-11.9503,221.9784,-11.3734,38.0117
32.8938,34.9734,52.7425,80.1275,14.6387,-39.4372,1.2566,11.4074,2.3549,-8.8053,-6.9987,20.4921,25.6477,45.6646,40.4403,33.2600,179.3312,9.5819,0.7446
16.4750,65.8323,13.3553,129.1983,31.8948,17.1380,-16.5589,71.4415,-16.8531,5.5226,-21.3585,46.0064,62.6199,72.0487,75.6119,130.2425,197.0985,99.1823,24.7745
18.7578,51.0633,9.4653,117.7387,30.8776,24.9464,-14.6357,94.1107,-26.9341,2.6642,3.0573,22.9534,80.1533,66.1260,62.5712,110.6991,177.1517,96.2846,33.2278
20.0218,13.8076,14.3569,56.4916,-0.9960,-25.8094,-10.1771,42.0968,-54.9628,-0.5260,12.5587,-20.5901,60.6551,43.1595,-1.0406,9.3131,137.1898,27.4083,11.3998
32.1167,21.1287,46.4035,63.9093,3.4064,-33.3927,15.7056,14.5116,-69.8276,-41.5959,11.5132,8.5293,70.4003,64.5417,-10.2432,2.6234,173.1176,32.0767,27.2376
53.7270,53.0200,97.2929,123.6921,48.5442,1.9945,36.7152,38.7602,-41.8995,-53.2216,13.8911,55.8702,97.7159,69.9755,28.0175,52.8186,230.6349,64.1887,43.7801
55.1655,58.2429,90.7684,139.9056,55.0735,-3.7446,4.5144,32.6249,-8.0395,-23.1409,14.7020,30.7226,82.4705,11.1827,22.7311,33.7797,226.1035,28.7229,-6.1612
41.8104,41.1246,34.3028,104.5290,12.8982,-45.5381,-45.3428,-30.7383,-17.3497,-72.2430,22.6159,-10.6650,42.3366,-24.5526,-0.9033,-11.2897,203.2241,-30.1444,-48.9414
40.3216,19.4852,17.0502,55.2026,-1.0839,-69.6530,-44.8099,-82.7524,-60.7056,-147.6571,33.4725,-3.2717,16.6220,-6.4568,9.2657,-12.9227,192.7028,-52.2988,-8.9506
29.9228,-6.0032,18.0506,4.9039,14.2942,-78.0746,-23.2334,-68.2624,-87.2112,-70.3521,7.6983,-1.9164,-16.2263,-12.7917,21.0281,3.6958,140.9240,-44.8048,38.8514
-17.4303,-21.7338,-45.2661,-28.9184,-19.9229,-79.9775,-44.2644,-14.5684,-66.7586,80.4109,-63.1122,-40.7708,-63.1473,-37.2762,36.2869,22.6685,43.3417,-41.0125,10.6162
-68.6372,-16.3284,-134.8800,-35.2775,-91.9252,-68.4092,-83.5301,1.7596,-27.2287,95.6239,-116.9138,-67.2715,-72.7309,-19.6944,79.3430,31.9249,-34.3064,-82.2167,-61.2061
-80.6161,-15.2736,-173.9471,-51.7734,-122.8648,-77.1318,-111.2189,-58.3010,-28.6217,-4.9453,-103.9452,-74.4068,-42.3815,-4.0849,73.1939,-15.3157,-63.6580,-153.7604,-113.3525
-59.6321,-41.6525,-167.1623,-105.3298,-114.8773,-129.6250,-161.0941,-149.3614,-87.8191,-92.9824,-60.6680,-106.2184,-38.8733,-42.9364,-33.6959,-103.3321,-60.8640,-178.2730,-127.7452
-26.6245,-64.1609,-121.4148,-133.6919,-82.1480,-159.0712,-204.1220,-194.2047,-146.8582,-143.6376,-41.1846,-134.7306,-59.9550,-82.5347,-126.0981,-141.6649,-24.3447,-136.4960,-114.5970
1.2374,-43.5500,-48.8944,-75.2855,6.0214,-103.9671,-160.2768,-164.6965,-140.0889,-140.6326,-38.0458,-106.2542,-42.6104,-73.7818,-95.8695,-85.6041,34.9332,-69.3658,-93.6712
-4.9198,-5.2480,-34.9393,-0.7362,73.9442,-24.1872,-79.6775,-95.0884,-67.0393,-39.7217,-35.5588,-59.4016,-17.1662,-44.0052,-11.5348,12.3452,49.4018,2.1383,-73.9634
-42.1688,0.7883,-99.2649,-8.6709,11.1390,-9.7617,-64.0433,-37.8870,20.2120,101.9893,-50.6676,-53.0343,-43.3005,-22.8767,15.6231,57.6511,-7.3473,32.4757,-44.9369
-59.9517,-21.1492,-130.3007,-57.5633,-85.3592,-44.2077,-75.9488,-16.9568,70.9701,146.1787,-74.7804,-67.6242,-64.8676,-13.8901,-3.0155,16.2444,-52.6870,-28.2043,-14.6480
-43.1674,-38.7499,-90.4459,-66.1484,-80.6601,-54.3846,-59.7023,-16.5319,70.7813,59.7912,-82.6959,-76.9471,-47.3237,-16.6500,-6.5094,-42.0467,-42.2530,-111.5254,-14.6038
-30.3464,-47.1176,-59.6538,-59.2368,-59.4435,-31.4451,-67.4836,-20.2226,44.8511,-17.9960,-90.9164,-97.6511,-76.3519,-25.9764,-9.9229,-53.6352,-42.4519,-114.3320,-42.4299
-29.4579,-47.7431,-51.4334,-69.3366,-101.8933,-22.1994,-112.9854,-42.3722,14.9444,19.6297,-105.7089,-120.7509,-150.6175,-39.7194,-47.1732,-48.2300,-64.0574,-63.2252,-68.1169
-18.5623,-36.1004,-30.6940,-68.1270,-116.6601,-43.4481,-144.8727,-92.3791,-35.3636,57.0250,-96.3322,-118.6676,-159.1680,-58.6832,-82.6846,-63.8792,-49.4167,-45.1036,-97.3735
-14.4731,-35.5947,-36.0142,-71.6958,-86.3399,-67.2029,-170.7785,-138.3536,-107.6302,-46.2232,-87.7368,-115.7752,-120.4571,-79.1701,-87.2083,-88.9062,-40.5312,-77.5121,-135.6930
-38.7887,-72.2103,-87.6685,-115.2460,-89.5794,-71.9714,-181.3935,-144.5089,-145.4403,-186.0702,-127.9224,-144.9084,-119.9551,-109.1169,-91.0845,-109.1953,-89.7155,-114.7597,-128.5691
-60.7523,-115.9243,-115.0648,-145.4182,-82.9457,-60.9334,-112.2004,-112.9856,-116.5662,-195.7476,-161.1142,-175.8870,-109.3463,-143.7265,-88.1512,-107.3013,-116.6414,-97.9265,-57.9417
-54.2882,-115.1502,-89.5620,-111.1607,-18.3153,-30.5429,-14.6001,-62.6746,-74.9269,-117.3339,-120.2872,-164.1333,-50.2816,-138.4910,-42.9643,-59.6446,-86.7691,-16.3808,-8.1778
-44.3788,-72.6048,-71.4046,-53.0192,18.8849,30.2007,6.0625,-5.8937,-67.5379,-48.9692,-64.0700,-120.0486,-23.0524,-88.9483,-4.7332,9.7723,-80.3683,68.7689,-10.5676
-46.9177,-34.9983,-84.3373,-11.2755,7.6149,89.9124,-0.6726,35.9157,-63.8455,26.8500,-53.6638,-87.6368,-39.9306,-59.7946,-32.1254,44.3770,-83.1905,100.0553,9.9642
-40.6735,-32.2394,-84.3499,-0.8600,16.2729,81.6124,26.6967,32.9524,-41.9158,77.5218,-48.1842,-88.6545,-44.9079,-64.1908,-78.9209,12.4752,-42.6185,62.2883,42.4604
-26.0969,-60.4393,-63.9141,-55.1333,13.0385,1.1212,11.5468,-11.1529,-40.1423,-3.1319,-33.1765,-107.7190,-68.2772,-54.6340,-104.3265,-72.7100,-45.5303,-22.2790,4.6206
-37.8006,-91.1920,-78.0761,-136.2405,-35.5565,-57.8236,-45.8351,-38.6306,-62.3147,-119.7621,-63.5578,-117.1265,-118.3568,-38.5235,-130.4775,-121.3898,-122.8389,-53.4891,-37.0075
-77.9105,-81.1789,-136.1515,-124.2028,-44.1139,-16.7930,-25.2830,-0.5173,-44.7773,-34.4615,-129.3552,-99.9475,-108.4303,-32.7439,-121.5904,-37.5131,-137.7737,38.3075,18.6793
-96.1735,-25.8695,-154.4630,-19.3920,4.6501,87.3138,51.6866,51.8706,19.8276,184.0970,-150.3253,-64.2923,-43.4994,2.5003,-41.0751,92.8821,-68.2910,115.9402,78.1557
-59.6538,4.9409,-83.4090,33.7207,26.0241,165.2825,64.3726,14.6973,43.5829,181.8166,-100.5819,-53.4741,-17.4157,47.0357,6.9427,81.3126,-39.8405,34.6972,48.0500
-0.0502,-31.7498,8.1094,-0.8511,34.0963,198.1089,37.9246,-92.8555,-7.6979,-83.7547,-27.5238,-95.7227,-20.2813,26.3391,-51.8379,-42.5238,-49.2209,-77.2915,22.9194
33.0583,-63.5295,50.9325,1.6648,92.3408,235.2148,57.6062,-125.3018,-51.8556,-250.7584,16.3805,-134.7587,10.8554,-19.7316,-92.2117,-69.9198,-10.9668,-47.3372,56.7660
32.5371,-27.8881,59.1221,82.3305,152.8923,288.8799,90.3460,-42.1064,-40.2403,-174.6294,17.1519,-108.6857,56.0467,-9.6180,-28.0571,28.3873,38.8817,50.9615,68.0580
21.3869,13.6139,44.5103,126.7794,147.9279,306.6654,64.0206,23.3770,-35.7586,-86.4872,2.2456,-70.7031,66.3147,11.2784,1.6801,81.9199,34.7496,80.6728,44.4548
13.4676,8.5913,-0.7534,81.6626,94.1249,265.9754,-24.7471,-11.0958,-86.9819,-95.1049,-4.2313,-86.1522,27.9852,-9.1528,-100.8156,25.2928,2.0729,43.4199,30.4394
11.7115,5.7495,-33.3096,37.2100,37.5439,217.4760,-116.5162,-68.8977,-154.5972,-112.6485,-12.8082,-101.0109,-34.3995,-16.9048,-194.3197,-32.4101,-13.5750,-5.7883,6.0092
11.6877,19.3610,-24.9571,40.0180,16.0441,192.4396,-132.3738,-79.4634,-188.1564,-156.1087,-32.1207,-69.6783,-66.3660,3.9976,-157.8536,-21.2377,-8.4063,-29.2387,-20.7619
-4.9338,-4.1525,-37.6806,13.5853,34.0041,147.9585,-72.2622,-73.9750,-167.5985,-224.5958,-55.0320,-52.4611,-70.4366,-4.2598,-90.6692,-3.9553,-22.1194,-28.9061,-7.1341
-43.9878,-52.9913,-103.2326,-71.5261,41.6665,62.8403,-26.5655,-86.3453,-93.1336,-185.3439,-87.4317,-72.9219,-108.0093,-38.8872,-88.5329,-29.0252,-87.3028,-51.6642,10.8849
-73.7784,-69.2059,-144.9899,-123.8477,19.6826,5.7862,-24.8509,-92.1387,-15.1762,-71.5932,-124.6171,-79.4938,-149.6290,-55.3391,-90.8732,-38.3845,-143.3680,-68.1154,3.2863
-64.7034,-52.8715,-110.6159,-87.0571,7.0419,33.2549,-24.4474,-65.9830,-4.2671,-54.6067,-130.7539,-69.4977,-125.5202,-48.8551,-74.9507,-4.9835,-118.0357,-5.5433,1.5897
-33.1761,-26.4323,-54.0787,-22.1399,1.5464,91.3138,-39.4689,-29.7453,-44.3184,-110.8253,-95.8773,-67.4439,-93.2097,-26.4751,-96.2779,-3.2233,-69.8860,41.2523,-17.2485
-13.9754,-5.5287,-37.6858,1.3497,-16.0215,100.5096,-77.5665,-20.4381,-52.3800,-136.6698,-50.4650,-62.9629,-99.8153,-10.8176,-89.3953,-36.5298,-72.0311,-32.5679,-66.3977
-16.9415,-22.5730,-58.5557,-16.3340,-4.1585,72.2213,-71.0577,-28.7765,-16.5850,-145.3493,-12.8002,-72.5071,-58.6989,-38.0607,17.8449,-12.3168,-83.8154,-75.9770,-63.7329
-30.3615,-57.5735,-87.1083,-38.5164,36.5376,59.6306,-37.9005,-14.0782,-8.7622,-117.0599,8.2384,-109.5858,27.4760,-68.0675,70.1250,41.8388,-79.4614,25.8756,-18.0173
-38.4431,-36.5445,-104.3018,-32.7958,29.3960,66.9929,-76.6268,19.3231,-56.3995,-25.1191,3.6530,-111.1654,34.8997,-31.8031,-51.3620,21.6459,-90.9064,102.3001,-37.7508
-35.2820,26.4424,-103.8006,0.4318,-18.1749,78.1578,-140.9391,30.2404,-96.8158,34.3948,-6.2181,-51.3254,-15.0710,29.4566,-163.5839,-20.3003,-98.8656,65.5040,-87.6011
-36.5738,50.1547,-97.5684,19.9873,-28.0162,90.7386,-112.7973,15.9260,-78.4093,32.0879,-7.4495,2.1486,-15.8895,50.2248,-127.0949,10.0815,-89.6936,60.0850,-68.5530
-49.1234,37.5247,-93.5140,4.7157,-4.1426,87.5432,-26.5132,6.8259,-32.1380,41.1397,-17.8690,30.7480,3.8636,66.0645,-72.9487,49.5809,-95.3845,105.7849,-19.6694
-38.1652,36.8950,-56.8014,2.8882,26.1137,70.0918,38.8413,21.2650,-3.0427,40.4837,-11.7356,69.8319,11.7519,101.2703,-59.5925,49.2730,-69.3145,105.0315,21.4142
13.5154,47.3405,34.3093,61.3262,83.5530,89.2074,91.8963,61.0927,15.5294,29.4752,49.3046,94.4949,57.7839,108.2280,11.6703,84.7542,37.4379,112.0570,80.5151
49.3830,63.7769,102.0980,134.0091,120.2781,139.6042,105.8926,97.0130,28.8425,82.6093,90.9417,81.6836,93.7289,90.6369,92.5730,147.3010,116.1157,161.8805,90.5171
28.0527,83.9930,70.6498,140.3711,58.6672,136.0867,36.2119,89.4301,17.3193,112.0851,39.8808,70.6513,51.6152,93.7151,81.7804,135.4011,79.4025,126.8687,8.8255
3.7458,78.1825,17.5839,93.8511,-26.4788,79.3423,-31.2855,66.1841,4.3865,35.9595,0.6858,71.3990,38.4414,97.4918,69.7008,72.3210,20.4765,6.4246,-41.3535
22.1272,52.7647,39.3755,69.2424,-22.4397,57.3207,-14.1086,75.9565,24.8534,18.9062,68.4888,61.3936,119.4429,69.3737,118.4728,47.9954,8.0791,-35.9088,-10.7307
34.6541,39.0676,64.7506,61.1014,11.4487,52.4161,15.1153,78.9693,37.3997,89.6462,124.6535,44.2818,149.3534,27.6629,119.4971,41.4690,-9.2602,9.2266,-8.4936
7.4713,12.4280,18.8602,14.8274,-12.8226,-8.8758,2.8207,36.2499,8.0761,43.1747,66.7601,15.0051,67.0711,-4.5525,69.2197,11.7310,-32.5085,20.7096,-41.0929
-9.7049,-24.8916,-11.1815,-29.3477,-34.8761,-62.9114,10.8042,12.8324,-5.4984,-51.7943,8.4673,-11.5017,17.0370,1.0359,85.8820,5.5927,-15.5510,-3.0786,-22.4623
6.7920,-0.6989,22.2406,-3.7498,-6.0915,-29.0295,41.9300,40.1436,21.8901,12.8599,46.7114,30.5048,52.7367,65.7269,134.1154,41.3240,6.0421,-7.9400,12.1553
8.8797,54.6396,15.8984,24.4152,-10.9465,-0.7506,26.7093,38.6814,28.5688,81.6896,88.2370,104.0454,66.3855,114.6759,105.2193,41.1835,-19.3080,-32.3732,-4.0556
-18.9126,21.1048,-52.6334,-37.7381,-82.5171,-78.1065,-8.7839,-20.1666,4.9730,-21.5639,50.9780,72.5356,30.5565,58.2643,49.4494,-35.4853,-58.8057,-106.1586,-28.1573
-27.7189,-66.2156,-63.5075,-115.0394,-107.0867,-176.1697,13.0137,-63.3649,2.4068,-110.9351,8.2744,-27.9649,26.8840,-29.4611,58.5130,-105.1774,-47.1905,-152.6969,-17.9456
8.9353,-61.5526,19.7250,-78.9240,-22.9415,-177.4110,60.5143,-54.5079,8.3452,-60.1447,41.7609,-22.5981,70.6329,-24.5225,95.6580,-77.8587,33.8457,-98.4250,-4.6712
60.2842,30.6938,108.1295,41.9187,70.4159,-98.8376,52.7721,-23.3758,-21.9184,-5.5240,111.3642,78.7565,94.6767,33.6018,90.1570,10.5334,133.9773,15.0018,-9.2369
83.0894,88.2759,140.1648,121.7410,86.0677,-14.5179,13.1926,8.0708,-73.0568,-8.5975,126.5248,126.2265,71.9892,52.6423,46.5599,62.4232,173.9879,88.3739,-9.0862
59.3734,70.9552,111.9162,105.4287,62.7100,28.4694,19.9724,30.7440,-101.5397,-14.4825,67.4783,99.0131,45.9155,52.3320,7.3389,51.1757,126.3470,82.9558,10.1482
6.6838,19.8857,37.2488,24.6124,38.4275,-0.6364,55.6249,28.3076,-78.3891,-0.6805,-7.2067,54.5548,44.8900,51.2177,-5.8436,7.5099,33.4290,30.0305,20.0909
-35.7098,-26.9321,-38.0004,-54.5840,-3.9780,-75.4471,51.8777,-3.4575,-1.6364,45.0515,-46.3661,1.4727,47.7685,4.9723,1.4376,-34.0576,-37.3858,-20.9320,2.8889
-40.4803,-43.6676,-56.2354,-69.3168,-19.6631,-97.8750,45.4816,-29.9961,79.5886,79.1786,-41.6682,-24.9043,57.7075,-48.9455,24.2794,-24.3752,-32.7263,-15.9347,17.0714
-14.3183,-34.8087,-12.5191,-28.6633,51.7617,-39.8692,102.9901,-3.9934,110.5455,36.1663,0.2251,7.4342,101.1157,-29.5365,60.5580,33.9968,24.0073,44.3404,91.0983
13.5508,-39.0378,38.6161,-16.5295,124.4746,-9.3453,142.6499,48.1549,89.1147,-10.1656,49.6561,21.2112,129.8997,11.1019,84.0802,45.2662,39.7258,61.8316,121.1363
27.0871,-60.6482,58.1074,-57.1224,99.4399,-54.4096,71.9031,54.8273,38.4938,9.4305,64.3039,-25.9132,87.4150,-1.5662,79.5464,-3.9324,2.4325,8.5882,62.5758
35.0844,-50.7972,70.3552,-63.5063,59.3419,-56.9133,-1.5546,56.0220,6.0711,23.1696,52.1892,-25.4465,43.0471,10.2886,73.2036,10.0398,-5.0186,16.7911,44.0464
35.8592,7.5004,86.5364,3.9348,77.1943,32.2634,34.5488,131.4551,49.8791,35.4593,43.1919,70.2027,62.0434,101.5488,58.3506,88.7360,17.0742,108.4042,102.6131
16.8895,56.2924,62.8306,56.3245,56.3498,74.2073,75.9475,182.8516,115.2621,88.5620,23.9878,130.7711,67.5705,148.7639,0.9996,80.4790,8.3199,106.3041,101.6349
5.8247,47.1966,23.3842,40.0225,-27.8373,11.9744,20.8334,96.8248,80.5821,53.4786,7.4469,80.9761,22.6523,78.9897,-42.0321,-8.7540,4.2387,0.9316,19.2971
35.5389,19.4016,54.6215,20.3637,-61.6428,-33.2444,-52.8757,-1.5864,-13.5571,-87.7867,47.6744,23.3447,12.8631,13.0367,-3.8418,-30.6819,39.1002,-10.6213,-35.9480
65.2861,29.0973,110.2526,29.1248,-60.6580,-39.1180,-84.9061,1.0920,-42.3904,-117.3743,103.1674,36.7440,31.2695,31.0518,29.3127,-8.4109,50.3694,49.9727,-64.0516
58.2328,53.5092,98.5251,25.7067,-101.6788,-88.5607,-99.1342,-6.7046,-44.1278,-36.2260,97.3171,66.5694,5.5829,54.7817,-22.2450,-53.8355,45.0561,5.3257,-98.4026
70.3769,53.6775,115.8745,36.0352,-78.0628,-103.2988,-54.8727,-50.7442,-84.5943,-41.2418,103.8873,75.5728,17.9239,43.5577,-47.0245,-87.0014,101.2286,-41.3391,-68.7246
121.7417,60.9228,230.8698,105.8385,62.6818,16.4210,58.2921,15.2615,-87.3558,-63.0250,189.0016,111.7767,129.0753,60.2636,27.3322,1.2833,157.7788,86.8667,26.3893
122.3186,102.7528,256.6514,163.1676,115.3669,124.3621,99.6657,152.3752,-48.7387,20.6613,213.7291,180.6120,169.4946,115.7711,54.0694,97.1938,113.0420,214.0017,67.3599
51.9982,131.9794,108.2216,140.7143,-1.6015,84.3690,13.0065,180.8921,-76.6924,51.9598,96.1285,207.0522,53.5086,140.5039,-45.9728,73.6567,46.7489,139.4127,35.4871
11.6154,102.7742,1.1129,96.4588,-72.5508,18.6926,-44.3621,128.0824,-110.2393,-29.6214,4.1816,151.1553,-25.9166,99.4408,-109.8549,15.6054,55.6442,30.3035,26.7831
23.8991,27.9536,27.8331,58.2711,-0.8950,20.9177,14.0272,113.9662,-20.0879,-32.0612,35.2420,49.2386,24.6605,20.5377,-38.5138,17.8111,58.6482,53.5747,61.1224
9.9997,-52.0066,20.5391,-22.3531,55.8774,-2.0785,68.2305,114.4695,89.1543,59.2354,48.6396,-43.6309,46.2939,-53.2201,27.2282,21.6519,-16.7549,86.2124,82.0074
-37.5540,-87.6825,-66.9276,-95.7492,18.7770,-63.5584,41.7442,99.0815,83.1945,86.1340,-24.4194,-82.0299,-14.8910,-91.8045,-20.2817,-10.9747,-88.9686,57.8298,70.1837
-60.9468,-60.9992,-111.0930,-73.0601,-35.8297,-69.8395,14.1161,96.7740,55.0707,61.3129,-71.7958,-61.6353,-37.9428,-100.9272,-93.2250,-31.1620,-91.7057,63.8686,37.2951
-51.4726,-29.7390,-84.9929,-21.6013,-53.9972,-45.4464,30.3246,67.9327,71.7240,53.6175,-51.6772,-42.6712,-12.9947,-112.5405,-107.2609,-47.9597,-69.2099,72.7920,-6.9748
-29.0813,-42.8789,-40.5182,-38.0025,-24.8368,-56.9386,28.1059,-3.0040,34.4894,23.0555,-33.0958,-61.5256,-14.8056,-122.8543,-84.0368,-81.8403,-57.9404,8.6783,-34.4634
-6.0275,-56.2679,0.8208,-65.7132,28.4669,-57.5680,-8.8436,-19.5546,-43.3079,-8.6897,-29.7040,-65.6139,-13.3748,-86.8193,-33.0289,-57.6560,-45.6990,-18.6134,-21.2731
-4.9844,-26.6375,9.7791,-39.6203,34.3133,-20.2701,-10.0468,31.5409,-32.5206,18.4631,-20.4929,-15.3539,16.6631,-2.9156,31.9843,25.4616,-35.5551,42.7594,5.7798
-24.4228,10.9155,-18.7864,-9.3875,-12.4111,-9.6579,35.0571,44.1459,23.6146,23.1899,-33.1379,48.2513,3.4658,59.6167,15.7456,29.2210,-32.5054,38.6048,12.7233
-29.6382,25.5835,-40.8530,-2.1706,-33.0932,-30.0115,51.4728,13.8188,2.8563,-59.6036,-68.7868,83.6292,-53.3552,51.4977,-93.9898,-47.4247,-9.4390,-50.6239,23.1991
-16.4642,28.5027,-45.9796,22.7682,-16.6113,-18.5338,33.0838,20.6057,-30.1082,-120.4403,-64.1733,82.9767,-54.5820,4.4911,-128.5748,-46.8652,40.2698,-61.3906,63.0126
-0.9623,18.9518,-30.5002,55.5229,2.2595,17.6176,55.1049,46.1275,23.8766,-85.0631,0.1006,49.4288,12.7464,-21.8751,-15.1400,23.8967,76.4595,-4.7052,92.0903
25.2078,1.8527,35.8769,55.9095,48.1763,28.5971,108.6164,40.7721,77.4037,-30.4474,63.8533,22.3532,68.1890,-6.1751,77.1052,24.7042,80.0299,-14.2823,76.5672
47.4710,4.1088,90.6078,39.3523,101.2960,12.9130,96.3287,36.4805,38.7453,-2.8755,78.3446,28.7635,77.4295,22.1648,43.7479,-25.1020,65.9626,-56.3155,37.8956
20.1399,9.9256,24.2280,14.5629,61.5870,-23.3025,-0.5185,37.7781,-12.5859,19.3955,41.6077,10.8317,49.3092,10.0890,3.4322,-31.9170,21.5064,-59.5232,-20.0038
-42.5491,-14.4803,-107.1122,-43.2133,-54.1161,-83.2971,-91.3531,-9.2267,1.2879,8.1182,-29.4077,-47.7283,-10.5183,-41.4623,26.2416,-20.7253,-54.1761,-69.5191,-83.8987
-70.2374,-32.7359,-151.6193,-88.0909,-102.9633,-111.9463,-93.3722,-65.6705,33.2313,-40.1330,-83.5981,-45.7487,-55.9413,-54.2019,25.4967,-18.5959,-83.5940,-80.4300,-68.5929
-42.6395,-10.8457,-92.2339,-51.3826,-48.1176,-58.8239,-14.9198,-43.8993,44.1837,-41.1125,-61.2655,20.4044,-31.4873,-12.8691,-18.1167,-4.2655,-27.7989,-45.5746,27.8631
-6.4325,-10.3421,-22.9368,-5.3542,8.4029,-4.6664,50.4189,-0.7631,63.4486,1.4855,1.3937,8.2645,20.9956,-21.5843,-19.3160,-17.1582,15.3076,-35.2356,62.9941
-1.7060,-64.0517,-4.6199,-50.9689,1.4042,-42.2536,41.9707,-35.9982,104.0331,-6.1520,6.2681,-79.6317,10.7540,-98.0743,24.0557,-63.9387,-20.4283,-80.1172,12.3198
-21.2157,-85.4278,-28.8308,-100.2890,-36.0347,-90.0631,30.9501,-79.1227,152.3698,-11.1077,-39.9330,-86.3020,-55.6187,-113.1767,37.1723,-54.7660,-48.1019,-72.4490,10.3606
-33.5370,-36.3078,-44.7512,-46.9507,-51.4129,-50.8794,74.2981,-41.8921,184.9648,89.4908,-57.2143,-21.8552,-98.5337,-49.9928,15.4182,-1.8158,-15.3414,-19.2441,48.5817
-31.5136,-14.8020,-36.5997,-12.5988,-49.4000,-28.7886,66.6927,-16.2001,147.1740,169.8910,-58.1232,-32.3032,-104.2775,-40.1746,2.9912,-26.4690,-16.0490,-66.0541,1.4114
-34.6365,-71.2976,-54.2714,-116.6288,-79.2693,-124.1541,-55.5929,-73.3595,37.3345,70.9769,-88.6838,-106.3780,-117.9313,-97.2721,-3.3875,-121.0591,-91.9127,-205.1697,-77.2870
-41.8360,-124.9808,-97.0138,-217.7411,-126.8612,-206.6718,-138.3554,-107.5029,-21.5932,-91.3434,-107.3904,-131.2643,-133.8430,-125.8158,-12.4018,-157.4011,-133.9231,-267.5315,-47.4436
-39.3645,-116.5068,-95.6734,-170.4254,-101.4080,-149.4548,-57.5442,-53.1311,56.9676,-116.4138,-88.7985,-96.3418,-109.2785,-119.4947,16.6108,-78.2878,-83.3238,-164.5697,51.6164
-44.2594,-69.8750,-64.4865,-66.4264,-5.7331,-45.6664,73.1737,16.8844,184.4245,15.2912,-81.5545,-41.0154,-60.7561,-95.3391,74.4040,49.9277,-37.0613,20.3335,90.2955
-59.8537,-17.0841,-66.6526,-18.2627,35.4049,-4.2740,108.6095,57.4362,237.4011,185.3343,-76.1717,7.9590,-42.6693,-35.8570,53.8475,89.0296,-60.0999,106.6750,47.4973
-37.6951,11.3622,-51.6019,3.6360,3.9747,4.2360,70.5979,69.0883,205.3121,236.3209,-18.2356,4.6784,-47.4334,-5.5743,-52.2552,-8.1907,-61.2226,22.2831,1.8174
29.6157,1.3721,39.7307,30.4291,20.6046,15.5434,42.5094,42.4352,138.0619,131.1746,54.0320,-26.4415,-23.1275,-40.3110,-66.1020,-68.0189,29.4095,-63.5960,22.6588
65.8241,3.2338,110.1101,41.1102,81.9771,17.3014,25.5949,22.4757,78.9700,60.9833,67.0382,10.3063,17.3811,-20.7812,69.1956,35.7789,104.8432,-22.3745,73.3967
29.7831,34.6010,54.5307,21.4198,47.1119,2.2033,-29.1216,40.1664,60.4426,116.3621,18.9401,71.1033,0.7889,62.3826,147.7223,117.2289,50.8382,-15.1836,53.3423
-29.0880,4.2816,-65.4712,-52.1862,-75.4339,-54.0567,-98.4579,15.3947,86.1235,95.6122,-59.4699,9.1698,-78.1619,25.1528,76.8553,16.2398,-63.5546,-150.0823,-19.4056
-62.0909,-114.0703,-130.1216,-166.4297,-123.6566,-151.8423,-82.7622,-61.4832,132.6156,-14.9316,-121.2212,-143.2402,-125.0612,-138.1055,39.1467,-99.8320,-117.5863,-230.8980,-26.3200
-64.5523,-190.2447,-108.6134,-215.0259,-65.0367,-197.3081,23.1925,-57.3850,170.6974,73.4602,-108.2652,-220.0352,-84.1978,-220.4560,100.8023,-79.1555,-108.9630,-135.3222,35.5679
-39.9197,-145.8543,-38.9982,-138.9564,-7.4398,-129.7790,87.9815,44.7281,170.3225,314.4602,-46.3391,-183.4371,-20.7775,-169.8960,103.6771,-17.6777,-71.8053,-6.5271,69.4723
-4.2509,-58.7283,29.8553,-26.6087,14.6250,-40.0536,57.9396,102.8063,129.5521,323.9062,-21.5563,-103.7781,-8.6676,-95.6727,29.5964,6.9992,-10.1926,59.8466,39.8151
10.2118,-9.8899,57.8580,21.0312,31.3909,-32.6059,9.6508,54.7453,73.7789,91.1702,-38.5543,-35.2326,-27.5805,-52.8723,2.4241,10.8109,27.5620,84.0365,-45.5737
2.2454,-9.3935,40.7096,-5.2080,28.4892,-82.2942,-42.4201,-44.1733,-0.3318,-43.8143,-44.8527,-37.8433,-32.9775,-72.4748,-6.5541,-35.5633,-4.2864,45.8576,-154.4360
0.7451,-40.5466,14.5725,-55.6962,7.8988,-95.8638,-122.6169,-110.7164,-88.5829,22.8247,-28.8598,-121.3681,-28.7117,-152.8498,-65.4022,-99.1947,-55.6403,-6.0937,-190.3441
11.7393,-58.9990,10.4634,-59.5025,14.6579,-33.4710,-147.8418,-61.8616,-127.4197,133.0659,11.4420,-174.0549,-12.8794,-180.2570,-95.8792,-71.2757,-65.7093,50.7774,-117.2131
24.2121,-29.5909,28.8615,9.4458,40.6503,46.7610,-73.1653,66.7857,-110.8979,160.4867,72.7673,-125.9619,40.8258,-104.7476,-69.2241,3.2649,-27.8224,159.2100,-35.7449
42.2123,18.8651,60.6264,93.2014,47.9799,61.9158,-12.3935,118.7045,-128.0440,96.5878,104.0764,-54.7584,104.1743,-32.7360,-61.3228,9.5012,64.1605,165.6274,-22.7722
59.9950,54.6345,88.0235,145.9602,50.9673,24.7359,-25.6852,69.0431,-175.8094,42.6651,82.5743,-22.6332,110.8860,-7.4695,-44.5717,4.0538,178.9272,110.3882,-56.9578
51.6107,79.9099,75.5548,175.3993,57.6774,4.9117,-34.8034,33.9595,-159.3462,59.2576,50.2001,-6.9092,70.7100,18.3408,17.8363,51.2271,228.2455,105.7862,-100.4626
19.1497,76.8943,17.7405,162.5103,32.0390,-12.0367,-19.6262,20.3840,-104.8560,54.7526,16.9904,-9.8694,48.8068,15.4578,6.1455,46.5444,200.9211,106.6427,-117.1330
-6.9181,39.8943,-34.7388,93.7653,-29.7284,-78.7916,-33.8506,-23.7453,-94.7185,28.3665,-33.1571,-43.5352,44.9202,-34.9709,-114.6693,-56.5411,162.7950,45.3532,-105.0627
-20.0852,19.6445,-46.5390,37.3488,-92.2284,-148.0922,-53.3785,-40.4143,-71.2575,114.2006,-67.2225,-62.5840,21.0540,-51.4659,-170.4951,-129.6228,122.7613,-19.2602,-116.6887
-24.1997,34.0577,-26.5638,49.9669,-127.3037,-138.3894,-16.2983,6.9102,34.8617,235.5395,-54.5795,-40.2963,7.4076,-19.5252,-93.8390,-102.2991,87.6753,-22.5405,-128.8619
-3.7091,32.6958,21.8113,85.4932,-113.4142,-77.9671,61.7021,44.4792,149.1966,213.1234,-15.4183,-20.2677,40.6292,-20.2015,-18.5269,-59.4142,110.2081,-0.4280,-61.5024
26.4338,-6.2209,73.1024,71.6242,-66.6698,-58.4135,118.6307,37.8795,200.6866,141.6294,21.1736,-41.6648,65.2603,-60.9284,0.0187,-69.9834,138.3237,-12.0740,17.9382
16.9313,-45.2419,61.1045,8.7804,-44.6921,-88.9053,117.9618,23.8893,212.4523,152.5382,26.3855,-81.7302,36.9024,-75.5700,24.5629,-91.8698,68.9946,-38.3171,-7.7516
-22.5630,-40.9037,-5.3319,-28.7078,-54.2842,-90.8881,61.9525,18.3511,184.1721,141.5555,-7.6020,-80.2184,17.3577,-36.8336,44.1340,-66.9473,-27.7933,-22.0499,-79.2673
-33.9592,9.9117,-39.6497,3.3556,-59.5424,-37.4169,-22.2243,11.0876,88.9798,61.7559,-30.5921,-26.9883,38.7765,15.4364,10.5992,-24.9655,-41.4536,10.3598,-111.3004
-25.4193,40.5799,-45.1408,27.5959,-73.8338,-4.3472,-100.5006,-16.0021,-31.4375,6.4999,-24.6022,-8.9960,23.7306,3.0758,-27.6414,-27.2121,-46.9565,-9.9854,-144.9565
-47.4594,-5.7322,-94.4938,-32.6037,-109.0402,-33.0180,-145.3933,-57.5448,-110.1090,-30.4919,-50.2587,-77.2066,-52.3653,-82.6322,-7.8664,-43.6389,-120.4498,-45.6901,-177.7505
-81.6690,-67.1184,-162.2644,-109.4405,-128.5239,-67.7464,-159.4271,-62.6423,-133.4652,-58.0728,-101.6235,-140.9688,-102.4499,-129.8991,24.6180,-22.5234,-174.2416,-36.5907,-143.8536
-78.0857,-75.8764,-171.9765,-137.9099,-127.4139,-88.3250,-165.0573,-38.1068,-114.5112,-18.2917,-95.9115,-132.4090,-92.2653,-90.6002,-2.8839,-27.3675,-158.0771,-55.4109,-77.2076
-48.4477,-85.9164,-124.8518,-168.1601,-107.3145,-124.9849,-128.2215,-58.9275,-58.3299,0.2372,-46.1570,-112.6160,-67.5991,-60.8769,-43.3928,-102.5650,-137.5894,-144.8437,-34.1289
-31.3317,-121.7391,-63.4010,-190.2149,-35.1491,-133.0832,-3.3400,-98.6318,16.8078,-95.2868,-26.2408,-100.4705,-29.3023,-67.3769,17.4336,-124.6043,-126.5420,-175.0417,6.2323
-30.9330,-104.2093,-25.5108,-132.9216,29.3526,-71.7755,105.9709,-82.0107,67.9837,-162.0805,-22.9715,-44.0102,29.9599,-36.7255,154.4159,-21.4821,-95.7301,-89.4161,32.6153
-33.9653,-47.8112,-38.9606,-72.0901,-16.0691,-29.7380,63.1761,-68.7429,67.5214,-105.5650,-5.6231,1.2745,47.9378,-0.2115,198.2428,52.1884,-77.4274,-37.0191,10.7241
-33.2105,-58.7984,-71.3286,-114.2554,-98.7997,-72.9751,-41.9323,-110.1705,37.5221,-52.7529,-2.0754,-51.1970,0.8730,-34.1533,99.8674,-23.4074,-98.0025,-101.1157,-17.3185
-27.9025,-112.6901,-70.3021,-177.8810,-107.7169,-125.4651,-55.8219,-113.0950,8.3558,-64.8503,-7.7495,-124.2892,-40.2352,-83.5901,17.3737,-126.0714,-126.5845,-172.0659,-20.0133
-21.9493,-103.9821,-50.0895,-151.8128,-103.0203,-113.2441,-33.8417,-49.8348,-22.7647,-92.4092,8.7499,-104.9583,-38.2520,-73.3363,54.3060,-109.4959,-132.8655,-153.2924,-29.8390
-11.9223,-38.9408,-25.4855,-61.8747,-113.5651,-43.7701,-50.4764,-12.5395,-52.5265,-142.1090,17.2815,-29.0941,-29.4769,-28.1557,110.2449,-13.4312,-94.0531,-65.4968,-46.7177
9.4048,14.3093,27.9416,30.4807,-53.2138,41.0678,-34.0023,-17.4643,-65.6208,-192.1840,-4.2593,19.5950,-27.5076,15.1482,83.3584,45.4784,-5.1069,24.9896,-47.6485
33.6217,32.6191,83.5684,74.2499,27.3432,64.4293,12.1022,-39.0029,-78.1804,-187.7215,-5.7203,34.2113,-9.7561,41.8234,38.5669,39.2044,77.1420,52.4623,-40.4668
52.1095,24.4387,104.7148,43.9533,29.3353,4.8873,5.0073,-91.0554,-87.4005,-172.9311,38.6331,47.5787,30.6883,44.3951,75.0326,28.9814,105.8410,15.4396,-20.7318
69.2279,27.6691,125.3143,28.8588,46.6857,-16.3227,2.6812,-106.5063,-50.5331,-166.3329,91.7514,82.8633,73.7775,67.5903,154.2118,64.1950,115.3409,2.2264,9.1520
76.7812,72.8994,140.9359,104.0772,127.3736,65.4809,55.2710,-10.2705,-5.1700,-101.4260,125.4758,126.6420,80.3031,132.3345,164.7748,113.0902,129.9045,44.6417,12.0254
64.1538,107.0258,97.4904,162.1624,126.9692,127.1072,51.4774,92.6436,-32.6332,-27.2689,127.0579,128.7586,37.8189,148.9351,97.4296,113.1075,120.3428,46.4857,6.4820
49.4705,71.6081,43.2805,111.6867,42.4738,92.5688,-18.9001,87.8909,-73.7858,-43.4961,83.8907,78.9154,0.0015,75.9222,45.3731,67.2814,95.5611,-33.3448,47.1442
50.2034,14.7973,56.1203,46.6545,36.0893,46.6863,-11.8211,49.4891,-36.0832,-101.1177,35.9008,38.6431,10.1854,25.0426,52.3639,34.3537,97.0704,-84.0807,100.5625
61.4013,7.1672,98.4410,50.4935,100.8215,47.9887,66.2847,66.9913,3.1798,-141.7169,59.0731,57.4902,42.1317,68.2368,77.5656,44.3939,114.3918,-31.2742,111.6123
80.6829,38.2704,127.2873,80.8210,121.6838,74.2904,84.2021,100.2793,-34.1540,-179.9616,142.3028,112.1878,70.2093,128.0844,90.7518,70.3970,109.6990,38.6178,100.0007
93.4394,60.2969,148.6425,82.4778,96.4898,95.5529,34.6376,87.5625,-67.6226,-156.9356,176.6421,136.7253,83.4849,132.2675,87.3631,66.1747,70.4150,26.3399,74.7315
68.3450,46.9157,118.5539,30.7332,47.3316,65.9179,-21.5417,32.0953,-58.4067,-52.1278,115.0812,99.0918,44.5892,100.5025,56.5335,22.1230,2.5953,-43.4174,25.6851
24.9193,6.9060,36.5818,-50.1736,-15.6044,-10.3061,-63.0752,-8.7852,-68.9046,-5.7133,44.5945,45.0291,-25.1315,63.7489,24.4076,-17.2926,-58.0208,-93.2539,5.4461
18.6590,-27.6767,14.7083,-78.0903,-22.2885,-36.4277,-56.1052,9.8299,-72.9915,-45.1657,45.3107,13.3537,-27.4513,19.4639,44.0714,-17.2018,-67.1233,-90.5305,35.1121
34.8284,-46.6204,59.3658,-46.4504,28.2076,6.3558,-3.3948,42.4115,-24.3389,-15.6562,77.6054,-31.3945,35.8474,-34.2316,93.9143,2.6263,-50.8200,-36.3808,41.6383
17.0736,-56.9179,44.1774,-37.9022,38.6502,28.3408,21.3987,37.5611,-4.2677,82.0012,71.4595,-79.1469,60.2344,-69.7236,98.5296,23.8801,-69.3550,47.7020,15.1743
-21.1270,-47.4069,-27.7649,-53.9211,8.1759,21.2408,14.9704,42.6379,-44.4084,93.2615,32.2543,-52.6571,39.6442,-54.8196,59.7087,48.5202,-107.2455,97.0580,28.2218
-31.2283,-33.2809,-43.6086,-52.2487,5.6383,25.1661,42.9881,68.3718,-39.0436,23.1110,6.5228,5.5344,38.9375,-10.8155,48.4661,43.4256,-113.2576,52.5738,63.8676
-13.8882,-51.7567,-2.6922,-63.9879,22.5553,2.4936,89.6167,31.2138,21.6520,-17.5806,15.4584,-9.3588,39.6756,3.4127,73.3367,-13.2506,-87.7086,-45.2679,54.7633
9.5176,-65.5482,34.0798,-75.5803,42.5892,-34.1332,97.2777,-43.5035,27.7307,-34.3048,39.4673,-33.8619,16.7469,-15.9286,62.3567,-55.3438,-43.2731,-81.9821,35.8770
30.5627,-20.8910,63.3049,-18.5817,70.5743,7.9310,72.8731,-34.4621,-14.3039,-69.0531,43.5646,20.7259,13.6692,-11.8835,-8.3648,-29.3268,10.0067,-17.9842,53.5414
31.4822,31.9867,68.1566,49.9587,52.2336,94.6616,37.4926,30.4102,-2.9822,-81.8532,27.7668,63.6598,25.1579,34.1343,-58.7359,4.9866,13.1295,41.6038,44.4703
-0.5734,42.2446,7.7242,37.7165,-32.5245,105.1842,-12.4758,25.3828,50.1982,-45.0958,14.4500,38.6031,-5.0417,69.3963,-37.6498,-12.0775,-65.8770,-13.4744,-37.7189
-42.2477,50.1930,-82.2923,1.3786,-98.3490,55.0995,-61.0013,-43.3260,52.6345,-7.9053,-10.2531,38.1233,-55.8434,49.8619,-11.2561,-35.5169,-139.0197,-116.6345,-112.7673
-57.8342,64.9724,-115.9818,13.4113,-95.2494,45.3216,-70.4851,-67.4719,3.9223,-5.1025,-47.8132,66.9387,-69.1796,4.1722,-23.8646,-4.4939,-123.3750,-98.8665,-94.3862
-42.1214,45.4554,-77.3958,39.1737,-55.6486,91.6449,-16.8502,-0.2585,-5.0260,6.2743,-42.3418,47.5099,-57.5089,-13.0522,-20.0943,60.3658,-71.9019,41.4942,-5.8893
-28.1682,5.6636,-41.9316,32.0346,-14.1658,127.1638,71.4205,87.9608,63.7187,57.1257,-4.5114,9.5380,-64.5422,-5.6215,4.2063,83.4304,-70.5890,110.4275,74.9108
-45.4791,-34.9739,-69.5954,-33.8025,-4.5985,84.8777,115.4068,79.0403,132.6811,76.2621,-26.8616,-12.7513,-95.1705,-8.3447,-10.8818,26.2455,-116.4871,20.1549,101.9730
-70.4517,-85.7265,-111.9517,-138.5474,-24.4209,-9.6980,92.1137,-25.8122,117.9876,12.8516,-83.0939,-51.0815,-114.8899,-5.6035,-26.4073,-41.5464,-154.6194,-72.8455,81.4324
-60.7564,-95.2725,-94.9372,-162.3655,-4.1216,-34.4207,68.6322,-86.4493,47.9876,-35.7541,-59.0419,-60.1247,-89.9232,18.0628,9.3294,-23.0483,-142.5853,-30.9257,54.6252
-28.7361,-29.8003,-48.7763,-60.4797,57.7914,40.4312,64.3396,-58.3077,0.1470,-2.4446,7.2738,-1.5724,-47.7976,16.8771,10.3183,43.3453,-82.0360,61.8567,46.0080
-12.1060,20.9417,-31.0072,19.5145,71.0063,92.4110,32.2297,-43.7053,-23.4176,5.2425,9.0923,27.1620,-47.7942,-10.0161,-58.0057,48.4781,-30.6648,83.1380,28.1724
-5.9547,5.9349,-15.4233,0.8848,30.0932,74.1277,-11.4117,-64.5362,-59.8816,-60.7615,-8.7042,-11.7631,-70.4406,7.2073,-77.7515,7.1861,-30.9084,60.3982,-18.5670
9.1417,-4.9672,18.4884,-13.7292,6.0873,60.8950,-28.8451,-61.3309,-92.9957,-80.1593,25.2351,-34.0068,-55.0885,42.7395,-33.7656,-11.6794,-44.3482,41.7463,-58.4513
24.9281,2.9969,33.3231,2.5748,5.8406,53.5094,-55.0131,-67.5264,-96.8022,-41.5680,53.5715,-41.7099,-23.2194,-2.1132,-32.8057,-36.6569,-29.0687,-12.0856,-71.4632
30.1713,-18.4205,30.1099,-13.9748,11.9127,11.9411,-94.6233,-117.2527,-101.7837,-74.7957,27.4851,-80.8184,-20.7002,-89.0673,-53.4074,-78.3298,-5.7160,-78.1646,-83.7854
24.6308,-45.2844,33.9745,-30.1691,28.9204,-6.6018,-82.4581,-129.0045,-128.3163,-163.3047,-15.0197,-102.5370,-23.9519,-104.9394,-26.5848,-65.7149,9.7585,-55.4236,-80.8171
10.8127,-49.1645,25.0315,-10.9322,33.1389,28.8936,-21.5539,-65.1861,-126.8936,-189.4603,-46.7526,-90.7818,-13.6169,-64.5450,-14.5792,-20.5286,28.1427,15.3660,-23.0125
4.6497,-51.2163,10.4542,-8.0437,24.6337,47.1146,17.0868,-6.4632,-68.5210,-164.5085,-55.1019,-80.3665,-7.2175,-27.2952,-44.5396,-26.0417,36.4633,5.4971,41.3380
21.8995,-24.9616,41.0016,-3.9486,51.6068,35.2711,20.7582,6.9784,-15.2540,-135.7335,-17.9277,-21.9331,14.5700,27.4463,-32.0610,-30.1354,38.9207,-32.5198,43.2826
53.8570,46.7007,107.2917,65.1905,104.6954,56.5994,30.0264,19.3381,-18.2528,-101.4862,43.5834,91.3704,70.6790,91.5046,17.7364,35.8181,87.4884,22.5132,32.5386
87.3811,87.0248,161.0348,147.4656,143.2777,114.3113,65.6112,53.7207,-41.1379,-116.0743,95.2355,141.6299,116.5275,110.7693,21.6524,89.3691,176.1653,105.0366,79.6984
111.5420,77.7411,188.4857,173.2668,176.9704,170.8509,100.3066,89.5538,-53.8098,-168.1986,138.9412,119.5372,120.8064,118.3870,-13.6183,78.2608,209.9868,124.3222,125.8692
102.2111,98.2364,172.2188,169.5140,183.0137,206.9818,73.9739,107.4034,-77.0194,-97.2431,156.0511,129.7951,108.2232,166.1919,-35.1804,78.5890,144.6146,126.9109,86.8407
56.4029,131.0616,97.7745,146.3371,111.2261,186.3141,-14.5947,97.6526,-101.3910,70.0440,113.5621,144.5148,89.9843,188.3803,-22.3135,95.2779,44.7775,101.6562,-0.0045
8.2263,90.7500,2.9697,73.1133,10.4767,92.6305,-85.3545,46.7932,-110.1899,71.4866,36.5262,80.3845,51.6510,115.3880,17.9744,50.2446,-22.0193,-24.2033,-58.1246
-26.3132,13.7470,-81.2711,-18.6276,-50.8669,-12.8583,-121.5037,-48.8563,-140.8410,-102.0126,-34.5738,-11.5406,-6.6069,2.7393,20.8095,-36.1100,-55.1757,-162.2148,-90.1005
-56.1561,-18.5507,-151.7016,-77.2110,-92.1726,-69.1516,-175.7546,-137.0375,-185.5274,-184.6796,-97.7940,-59.5010,-74.3271,-60.1716,-53.9648,-83.6440,-80.9482,-188.2147,-118.8555
-69.9751,-19.2805,-170.5980,-99.6839,-112.4192,-73.8089,-208.2241,-139.1736,-171.2881,-132.7687,-143.0872,-65.9899,-133.7052,-48.1117,-117.4064,-77.8222,-99.2569,-143.1729,-115.2051
-54.6949,-14.3371,-119.7304,-84.6974,-78.4447,-42.7951,-153.2977,-75.1172,-124.5629,-114.0265,-145.1706,-33.6227,-158.2355,8.8630,-119.6026,-47.7854,-80.2904,-86.5669,-63.6759
-21.1959,6.2600,-49.7837,-34.9188,-30.1279,-5.3854,-75.7472,-46.4977,-130.5765,-146.3974,-103.8490,16.2458,-141.3551,51.7035,-138.8517,-33.6935,-9.7039,-28.9816,-8.3979
21.4910,18.6323,16.9825,4.3918,5.7324,4.5558,-38.5886,-64.4931,-139.2995,-155.0070,-40.0850,31.7267,-101.0568,52.1477,-159.0629,-53.7654,74.3452,-28.7555,24.8338
51.8973,-2.3155,76.2215,-0.0015,59.8702,-1.8025,-0.8994,-59.9394,-71.1998,-137.8837,-0.8121,15.1540,-64.6890,46.5887,-93.5660,-60.0067,106.2069,-76.3893,50.6127
26.4522,-27.0065,52.1779,-34.6665,79.3471,-7.8187,29.6751,-42.1930,8.1646,-92.2663,-30.4841,-3.2043,-59.3147,53.0967,-25.9149,-31.6071,52.4944,-71.5844,48.5350
-40.2071,-31.0445,-66.0739,-77.8804,7.9465,-39.4799,5.1409,-56.2385,34.5302,-28.1447,-81.0447,-16.4471,-74.3935,40.3789,-41.8366,-24.9327,-47.7693,-40.2133,0.4398
-69.1890,-27.2802,-132.4883,-102.5587,-47.5913,-83.9184,-19.1239,-61.5510,42.2098,-3.4515,-70.1649,-4.6468,-73.6338,13.9937,-35.0022,-32.4027,-107.4482,-52.0209,-29.5878
-42.2145,-29.6799,-79.9964,-88.4822,-14.2911,-78.9917,1.1202,-22.7360,17.6700,-7.2696,-33.6705,10.2705,-74.0286,-1.2925,11.6997,-10.2605,-89.8050,-41.6203,-4.0830
-18.6530,-47.7813,-25.1455,-69.6372,-1.7181,-43.6251,-0.0829,2.5131,-63.7814,3.1781,-49.5196,-44.7689,-103.3493,-33.5897,-40.5783,-31.5977,-55.6023,-9.8440,5.4579
-21.5354,-67.6926,-30.8916,-77.3383,-51.2931,-47.2406,-28.5013,-16.7509,-101.2985,7.5350,-76.9783,-113.7451,-105.3452,-78.0081,-132.3068,-115.8404,-58.5134,-49.1952,-27.0361
-22.5021,-39.8168,-32.8655,-59.9574,-60.0983,-52.9937,-16.3146,-19.7392,-37.9131,31.1258,-47.8050,-62.5429,-49.2665,-57.4765,-92.8488,-103.2092,-61.2841,-68.1120,-31.7105
-13.7569,35.9037,-16.5117,19.4245,-31.6414,8.2475,-5.0821,18.8567,2.2784,95.0512,-8.8722,45.7222,-29.0048,21.6641,-17.5669,22.5787,-23.3554,27.5252,-11.3145
-11.0094,83.7765,-27.2226,83.5955,-60.2080,76.6446,-67.6896,35.3963,-52.1628,76.9642,-33.5202,61.7629,-90.4077,60.8276,-68.7591,62.4712,16.2066,71.8830,-29.7888
-25.5273,79.9191,-65.1862,66.0523,-118.9848,70.8830,-138.7104,5.5632,-87.1044,-25.3270,-97.6564,38.4829,-139.4756,52.8398,-142.1649,5.3049,-0.9961,-7.3963,-63.5966
-60.1456,80.6786,-115.8542,24.2426,-139.7941,36.5098,-142.0165,-2.5046,-27.3470,8.3552,-129.5730,72.4057,-130.1071,58.1187,-114.3642,15.7614,-74.6687,-29.5035,-73.0836
-89.3498,93.2894,-162.0686,22.8218,-145.2061,33.1868,-119.8492,36.2663,38.8878,165.1863,-110.7058,86.5803,-119.8419,52.1190,-81.0326,59.2403,-135.6366,31.6145,-86.5771
-68.8453,76.1264,-132.4525,41.1864,-133.1818,35.6318,-103.6556,52.3750,31.2194,195.4121,-77.5063,33.2685,-115.1752,10.1437,-111.1849,32.5889,-94.4013,59.3118,-84.0895
