Fp1,Fp2,F3,F4,C3,C4,P3,P4,O1,O2,F7,F8,T7,T8,P7,P8,Fz,Cz,Pz
-51.3759,-66.3034,-25.4191,-37.9688,-44.9425,-61.5795,-45.8986,-59.0327,8.9546,31.1578,-13.3230,20.1442,14.3105,9.4189,34.3825,25.6018,33.7540,6.3523,35.0602
-67.5542,-93.1494,-7.5450,-107.6679,32.3022,-81.3030,112.0248,11.9152,67.6180,98.4371,1.4003,-211.5764,-4.5522,-128.3475,47.9371,-78.4541,-134.5648,-32.8780,-25.4552
-55.9098,-88.8660,20.2835,-104.6327,76.3460,-32.3464,201.7878,84.0717,127.3452,159.9781,10.3319,-264.6243,1.2549,-144.8498,143.1029,-97.8820,-186.9044,-56.3717,-34.8980
-23.6383,-41.1878,30.3160,-45.1293,66.6196,4.8821,181.0635,71.1494,151.1427,164.7634,23.6309,-161.5346,31.5279,-78.6972,208.0289,-75.0056,-109.6134,-50.1747,-53.2559
-7.9145,-13.4660,25.1541,-30.7781,87.0494,15.2861,152.8435,44.8945,126.0432,147.2219,64.6521,-151.6192,74.7424,-74.8368,186.2431,-93.4958,-76.2583,-18.6374,-87.1502
-3.7649,-42.3061,35.7453,-56.7625,112.7366,44.7213,131.1803,65.4221,70.1018,140.8016,96.5951,-200.7659,102.6810,-96.4830,158.3452,-89.5162,-106.8545,-3.5093,-98.0334
8.0241,-63.1596,43.3930,-63.4613,84.5335,42.5814,78.9857,61.8924,27.3688,121.7230,94.1805,-169.0662,108.2829,-72.5044,157.7998,-53.4268,-103.7090,-30.2512,-100.1941
20.3528,-29.7723,30.3409,-58.7672,77.4658,-16.4730,50.8535,9.1140,29.1984,70.7376,90.5400,-141.8137,105.9690,-71.4861,154.2027,-92.0095,-70.0942,-68.2555,-99.0932
46.6226,19.5869,39.7990,-48.7155,120.5376,-29.2708,64.6357,-3.6383,41.8441,21.9591,84.8642,-152.6886,73.7560,-94.4061,147.0763,-158.2207,-35.3881,-86.5154,-70.2466
101.9959,50.9080,75.6404,-19.3446,120.8341,26.4395,56.1824,49.2717,13.7389,2.2563,56.7690,-100.9196,6.7195,-56.6721,114.2896,-128.5347,5.3428,-88.3181,-42.9994
146.3694,65.0292,96.6392,-0.8746,94.5482,46.8563,52.2553,87.6917,-19.2259,-13.4920,52.6932,-41.4268,-16.3077,-7.5401,42.7490,-65.3297,19.5392,-81.7666,-50.0959
160.9776,74.3371,127.5785,3.2466,125.1237,19.2287,104.9699,78.6551,2.8213,-39.3589,98.6211,-37.2804,35.5304,-6.3288,2.3777,-41.9785,11.2097,-78.1948,-59.3812
186.8919,101.3335,180.1884,31.3609,157.3675,10.6065,126.8633,59.7064,20.3975,-62.5458,135.6811,7.7833,75.1735,15.2211,-7.6729,-3.2508,34.9432,-89.7323,-61.5222
216.8290,129.3521,181.9348,55.5539,135.8947,22.0763,60.4760,41.7036,-43.1456,-101.3865,145.8807,59.4000,75.5301,42.6582,-83.6974,21.5116,60.0944,-95.0546,-86.4601
208.9556,115.9438,136.2424,51.8812,114.1230,38.8330,4.5251,24.4980,-112.9750,-157.5683,164.0871,11.5720,101.4906,3.6589,-170.7912,-30.1818,46.8928,-75.0739,-112.6739
188.2146,94.8174,118.8425,75.9755,85.4460,61.2640,1.8793,30.7760,-99.5477,-167.4272,156.7760,-16.6612,123.7697,-19.8357,-137.8270,-70.4717,50.3260,-66.6844,-110.5703
172.9504,109.7925,103.8736,107.8594,26.3586,53.9123,-4.4835,38.4108,-53.9431,-114.4802,94.7387,31.2043,71.2245,11.0922,-60.4587,-61.4663,64.0828,-90.2962,-111.4497
130.6254,111.2045,70.8741,72.9021,31.6525,27.0730,12.9013,5.2451,-26.0389,-68.5884,56.3268,1.4803,12.4995,-17.0922,-61.5949,-73.8348,20.7931,-93.0252,-128.0771
89.5402,84.5603,97.3286,35.9209,115.0979,41.8602,81.7577,-23.2026,4.2974,-67.1817,79.3495,-57.6236,23.4829,-68.1129,-91.0411,-53.3619,-27.6986,-51.4410,-117.0150
82.9603,80.2057,133.9483,49.5848,134.4877,52.8243,98.9294,6.3939,-0.4546,-92.8492,79.6288,-20.0275,31.6905,-37.0133,-113.5549,23.8729,-31.9030,-16.9442,-58.5027
40.9934,49.6006,56.6597,8.6711,72.4263,-10.0576,35.8828,40.2477,-57.8958,-103.1889,31.1640,-50.2894,-6.1230,-37.5212,-151.8255,1.3045,-57.3866,-1.9797,19.2220
-37.7555,-34.4226,-19.6421,-58.3291,42.4054,-46.9497,14.7735,44.5537,-55.2980,-23.8263,12.1597,-163.8142,-9.0648,-97.9360,-112.5834,-76.9850,-70.9572,36.3192,71.9135
-27.8817,-19.5821,52.6571,30.1660,38.3896,41.0205,44.7893,83.1105,23.9768,113.1359,28.2513,-58.6656,27.3175,-14.0548,18.2849,19.5445,17.8830,91.0953,65.8764
55.6366,125.0201,123.4880,192.6954,10.3284,151.7141,17.1703,158.6078,15.1673,124.8915,12.0911,176.9782,8.8469,155.5755,28.7590,179.8268,90.9434,129.5779,28.5328
69.3739,176.7944,68.2100,191.1433,22.3156,185.6373,-24.7821,200.6601,-94.7356,-6.9793,-13.0168,144.5285,-41.3058,135.6794,-121.5700,144.8319,29.2495,171.5724,34.8184
34.9750,72.2670,47.9507,86.2113,106.4829,197.2036,46.4062,217.9209,-109.4324,-66.2825,27.4815,-54.7270,-12.3918,5.5879,-177.1065,37.4029,-21.0565,221.8987,99.6512
55.8286,-6.6700,130.0841,57.2647,177.5288,213.7915,179.9623,239.2122,5.2716,-6.5339,98.8291,-83.4714,68.9081,-2.9383,-66.5422,46.0322,43.6314,225.3809,161.1506
85.9145,-13.8902,154.7137,47.3734,184.4290,188.3724,236.4284,222.1272,78.1059,6.6504,112.1004,-33.7636,85.4251,28.3953,4.0724,59.9982,82.9274,172.2518,171.4172
74.9853,-30.7472,105.6627,-7.5386,165.1815,151.8357,218.4552,176.9309,59.4628,-30.5025,84.9248,-61.0700,49.7158,-0.2293,-16.4980,28.4570,31.6738,124.9481,129.2172
80.6212,-20.3056,112.6589,-4.6563,157.3936,159.2403,211.0934,172.1947,56.3387,-3.4495,87.9469,-43.1353,57.9016,16.7583,14.3720,60.8230,-2.5810,106.4577,62.0322
93.2402,41.6498,143.6171,56.1390,154.7061,158.7361,215.9347,181.8482,96.6927,57.4675,99.4281,19.5081,90.1501,66.0192,105.9202,97.5781,-3.2093,81.2900,14.5520
57.2020,59.2173,104.1982,45.0113,139.1409,101.1268,185.9365,153.7813,102.5728,92.3713,78.6551,-15.8112,74.7255,38.2622,135.4627,46.5949,-38.1433,40.8190,8.0129
37.8382,17.1234,67.3351,-29.5249,136.8183,42.9547,140.3966,127.3846,50.2671,113.2797,91.7306,-88.4936,69.2905,-5.7844,80.1491,7.0095,-69.7122,10.3606,18.0268
97.5087,3.4736,122.0357,-50.5368,180.6426,22.5523,129.2810,114.7388,6.5894,78.8657,177.8441,-98.8010,143.0162,-8.9208,29.1815,7.3406,-27.9483,-11.0317,11.5779
156.8490,38.4011,192.6749,-1.3683,203.7849,-4.6447,121.1088,64.3204,5.3397,-32.2813,215.0126,-97.8845,185.6064,-39.9109,27.4666,-52.7064,40.3682,-50.7954,-26.9798
145.4631,78.5121,174.9894,47.2976,125.3197,-46.1482,53.1557,-1.0016,-7.5354,-124.4064,114.2770,-89.8060,85.1927,-79.7279,18.8448,-119.1866,45.7228,-99.6708,-83.2403
98.1796,93.7777,99.4281,58.6430,20.6828,-45.7260,-23.5715,-21.6813,-50.4510,-150.6619,-12.2509,-33.8098,-49.3356,-58.8846,-42.8923,-80.8241,-3.1116,-97.6523,-109.4638
61.0650,82.3672,63.0043,61.1875,2.0864,0.6307,-7.8477,-13.0665,-47.4344,-151.1976,-44.8787,9.1930,-80.8024,-30.0694,-102.9808,-13.7357,-22.1796,-31.5776,-85.0207
55.3725,80.9405,86.8670,86.8751,36.9801,31.9749,72.8957,1.6637,19.4518,-125.3210,-23.1850,-5.6083,-62.4409,-45.1364,-108.9329,-25.4386,13.4835,11.0388,-44.1730
78.7500,94.8541,115.9111,96.9048,60.1641,15.3317,119.4584,27.1154,58.1151,-90.3653,-10.6145,-51.7122,-74.8557,-77.4749,-107.3115,-86.2752,39.2434,-25.4748,-6.2987
80.0583,55.8686,110.5867,33.8424,74.4396,-43.0312,121.9893,30.9411,35.2318,-107.9878,-0.4554,-134.0498,-77.7184,-127.6939,-128.8861,-137.8338,3.4872,-77.8780,25.8191
29.3374,-40.1937,64.4906,-74.3920,64.1323,-131.1432,115.0746,-11.4087,11.5826,-153.5080,2.8906,-230.8433,-44.5036,-188.0676,-119.2536,-166.1136,-82.9631,-105.7670,15.9647
-26.3812,-110.1466,-18.1374,-165.9285,15.5526,-209.7609,97.4792,-66.3507,10.1325,-175.7223,-20.3750,-268.2506,-24.3698,-208.3180,-62.7676,-174.5393,-182.2069,-155.0249,-36.7777
-59.1836,-147.4302,-99.1614,-224.5755,-29.5728,-231.8308,85.0559,-110.2618,22.5479,-196.5849,-58.5169,-254.2227,-37.3723,-201.5963,-10.2415,-176.6889,-246.6489,-213.0482,-69.2681
-97.9970,-185.0472,-132.6042,-235.7928,-63.8117,-217.4641,101.2397,-145.9034,66.8589,-196.5985,-103.9527,-247.4243,-68.8794,-213.5466,25.2234,-179.1905,-254.6581,-218.6750,-73.3152
-133.6327,-176.9921,-132.0907,-198.0182,-103.9605,-224.1551,111.9992,-169.5371,120.6774,-138.0218,-153.9444,-249.2257,-119.3305,-232.8751,51.9959,-193.0020,-242.6180,-213.4660,-96.1018
-129.1811,-129.9997,-135.1254,-178.7858,-119.5722,-249.9475,78.3858,-193.1647,116.0841,-105.9268,-186.2048,-263.9465,-180.7234,-257.4831,43.6126,-242.2365,-241.1872,-256.8119,-132.1004
-111.2287,-147.1704,-149.3436,-219.7857,-130.4708,-253.3856,8.0025,-217.7893,40.2344,-154.0056,-213.0759,-312.4871,-240.8684,-301.4660,-0.4496,-296.3380,-245.5549,-288.8847,-162.2278
-119.7656,-217.0178,-176.3824,-265.2681,-187.7777,-230.6299,-71.0637,-200.1275,-50.6803,-174.4681,-258.1721,-357.4398,-294.1488,-322.7038,-30.8338,-297.5116,-262.4420,-260.8991,-191.1695
-123.7971,-225.4973,-189.8517,-265.4162,-207.4956,-199.6408,-106.1436,-139.1702,-90.9323,-116.0934,-263.9612,-357.0443,-300.9016,-294.3179,-22.3103,-269.8334,-268.3858,-223.6673,-176.6558
-92.5835,-177.3250,-135.1047,-227.1322,-120.5502,-160.8475,-64.8624,-97.1587,-60.4239,-68.4253,-194.6036,-325.9702,-242.3262,-259.4134,1.5539,-251.9379,-208.7636,-197.0517,-100.8276
-68.2609,-158.4499,-57.2792,-174.0901,-63.7183,-121.1194,-16.1436,-91.3628,-18.6523,-74.2732,-150.5879,-291.8264,-199.6323,-246.3232,4.5868,-223.3685,-138.1263,-163.1208,-56.8238
-81.4649,-172.4346,-74.3125,-155.9186,-120.1053,-109.6137,-26.4903,-100.1452,-25.2239,-105.4110,-189.2907,-284.7107,-227.5119,-253.8219,-27.4411,-214.9722,-159.4206,-164.7594,-91.8820
-89.4054,-179.1246,-161.1769,-200.7942,-161.7951,-141.2159,-47.5274,-130.7086,-49.0574,-148.3163,-208.6768,-316.5465,-246.0559,-280.4960,-68.7361,-277.1100,-216.0931,-217.8432,-132.8906
-66.0351,-172.6383,-186.8627,-239.5818,-131.9960,-179.3111,-42.6827,-160.7301,-56.9085,-174.2766,-158.8193,-333.1176,-202.5888,-289.3995,-94.9322,-323.4088,-201.8427,-234.5803,-139.4000
-47.5909,-155.9440,-134.8607,-209.1160,-97.7496,-158.8849,-41.5196,-133.9695,-72.1856,-156.5827,-118.8776,-293.8130,-168.2100,-251.4286,-126.8933,-262.7653,-148.0608,-163.0268,-109.2928
-41.1604,-129.5732,-64.2838,-155.0647,-36.0156,-77.2608,-13.9073,-74.0215,-72.3890,-123.2944,-98.8192,-240.6400,-169.9057,-207.1082,-173.9690,-170.6480,-95.0522,-68.2399,-18.8782
-7.4050,-102.3057,12.0023,-130.4336,65.1221,-24.0768,61.8331,-52.4997,-27.0243,-102.9980,-41.0084,-208.4264,-142.3587,-186.8544,-193.0559,-132.1576,-30.2287,-33.4463,58.7995
43.9372,-84.2363,56.5823,-131.7748,89.5785,-54.3098,84.6869,-63.5252,-14.1852,-107.3906,7.4748,-200.1013,-96.1867,-178.4157,-164.7101,-134.6037,-20.6447,-82.0144,5.2250
58.8222,-87.9597,12.6556,-159.5712,13.0016,-103.0908,12.0372,-68.0103,-82.1142,-155.5943,-30.3389,-238.9659,-116.2343,-198.2951,-133.4778,-178.2391,-112.1649,-168.9288,-116.7905
26.4839,-115.6674,-73.4605,-202.6339,-53.9144,-110.1964,-47.4922,-87.3029,-135.4099,-214.3644,-106.2393,-302.3947,-187.4912,-250.8907,-142.0126,-245.8812,-200.8911,-215.5896,-174.5601
-22.4777,-149.3708,-114.0324,-224.3145,-74.9029,-115.4977,-39.6841,-142.7843,-114.3324,-218.8291,-130.1637,-314.7413,-206.3719,-278.9524,-178.6451,-248.5990,-217.9336,-199.6703,-182.2655
-58.2254,-179.5549,-105.1831,-234.9118,-67.6050,-149.2591,-5.5137,-185.4685,-69.0130,-181.1555,-94.3746,-282.6231,-146.3274,-259.1769,-184.7310,-183.2280,-210.5570,-170.0846,-170.5037
-64.4687,-203.6456,-87.7412,-259.7981,-24.8003,-167.6820,44.6506,-169.1411,-22.7540,-140.6635,-48.8510,-271.4356,-81.4625,-231.7689,-119.3733,-150.4445,-195.6296,-155.0547,-114.8748
-61.3385,-201.5699,-88.5412,-263.8669,-2.3013,-153.9473,82.3104,-132.7361,18.8679,-88.6702,-39.7386,-277.7470,-68.4188,-218.4874,-38.7972,-164.7295,-182.9695,-146.8111,-90.0395
-73.1823,-169.8648,-109.0547,-230.4254,-44.3796,-146.2331,55.3747,-139.4250,13.4163,-51.5069,-64.2641,-277.9819,-89.1583,-222.5566,-34.4275,-174.2244,-215.8196,-155.9768,-168.2212
-69.2753,-142.3325,-113.5200,-211.9702,-71.4559,-156.6676,5.2163,-181.1432,-32.4386,-90.0360,-75.8885,-288.5078,-105.9346,-249.3053,-91.2054,-189.4139,-255.4314,-190.4420,-254.8465
-43.3997,-144.4242,-101.0723,-233.4267,-63.4053,-175.8188,-30.2620,-217.5923,-81.1675,-175.0166,-76.7445,-300.9242,-121.3422,-273.9268,-136.2086,-209.4313,-259.3937,-226.0612,-280.1655
-69.1800,-175.8046,-139.0039,-272.2705,-116.9055,-214.1038,-107.0628,-244.1833,-146.9299,-210.3815,-119.3009,-294.6369,-156.9872,-270.8041,-168.8494,-181.2555,-302.0686,-241.0318,-298.6850
-142.0104,-214.3929,-216.3577,-313.8336,-198.9112,-254.4024,-184.7982,-239.3419,-201.2948,-150.8470,-174.9945,-280.7350,-193.9110,-241.5896,-193.7662,-111.9326,-382.7254,-230.2774,-294.0060
-144.0154,-206.5526,-224.3732,-320.0267,-180.7185,-238.1943,-131.9707,-152.7552,-158.1708,-29.7546,-159.4628,-239.0309,-184.0870,-171.1337,-150.5144,-51.3255,-372.7344,-196.4720,-209.3430
-68.1228,-130.2370,-158.7039,-244.4289,-100.4187,-151.7519,3.4825,-15.9704,-47.7057,69.0116,-94.8629,-141.5650,-125.8886,-62.0107,-42.6181,-1.7703,-280.7433,-155.7153,-109.3468
-32.7929,-58.8880,-119.0303,-136.3207,-68.0163,-50.1600,72.9549,76.7408,17.7820,93.1006,-64.7345,-57.9625,-72.6837,10.4256,25.7986,34.1474,-233.0749,-121.8003,-50.3917
-56.2337,-63.4780,-116.0103,-93.9144,-57.4653,17.3282,96.3252,108.3785,36.2252,91.7282,-60.5689,-62.8788,-52.2404,3.0383,17.6105,37.4573,-233.3203,-95.1640,8.9063
-68.0622,-103.5078,-102.6591,-115.5272,-28.1881,39.6017,142.4188,113.9147,62.1773,113.4261,-42.0567,-94.3867,-42.9789,-19.3126,-1.1185,40.7792,-228.8046,-81.8853,52.1882
-66.3012,-102.3800,-101.2610,-123.8633,-35.2745,22.4345,150.0582,93.1290,74.3246,121.0546,-43.9977,-66.0477,-45.2893,-1.4786,1.1254,70.5551,-230.2187,-82.5698,22.9248
-70.7396,-53.4243,-125.3814,-89.9413,-90.3080,-10.6521,92.1938,64.9812,57.1003,117.3345,-88.1491,-8.9814,-84.7437,29.5022,0.6373,82.2736,-220.2357,-78.0109,-31.1076
-60.8917,9.4827,-119.9153,-36.0271,-116.6357,-28.7826,62.9506,69.7854,62.8850,169.2250,-112.8085,16.2756,-126.4945,43.8656,1.6060,59.9159,-172.6446,-63.9175,-49.6766
-43.6123,66.6162,-76.1375,15.5618,-87.0760,-33.2012,81.0560,75.5847,94.5697,234.6844,-82.0852,13.3422,-107.6178,40.9572,21.2772,39.8420,-139.9465,-60.4600,-70.9840
-44.2953,94.6608,-62.0631,34.7883,-62.7231,-43.6997,46.4066,35.6274,70.9290,205.9166,-50.1924,-10.7288,-61.0908,13.0577,32.7038,9.1119,-153.9818,-70.5345,-127.2612
-56.8314,67.2290,-97.6233,3.1280,-77.0968,-41.8951,-47.9595,-6.5160,-18.7970,130.6260,-56.0422,-55.0600,-58.4591,-26.1294,5.7121,-33.7422,-168.8591,-59.0305,-169.5873
-73.9732,19.4933,-110.9723,-24.9975,-70.2329,8.8290,-65.2232,5.8915,-51.5467,142.1902,-53.1364,-61.3053,-61.4918,-20.8945,-23.1670,-3.1121,-149.4044,14.5846,-143.0677
-80.0330,35.2165,-50.3750,24.9638,5.3089,83.7483,38.2626,49.0053,36.1057,214.7353,-4.2311,4.0171,-7.6626,34.9848,4.2937,88.2966,-88.0612,117.3921,-66.4105
-42.1010,109.8824,29.5638,113.3751,78.0687,112.3099,106.9053,63.6013,113.5230,207.7448,38.9470,48.6222,38.4162,53.9786,57.8594,76.1738,-0.1926,140.2427,-20.9055
14.0402,140.7735,50.5344,133.9437,72.3822,89.9866,47.0871,30.9218,69.7464,106.5863,24.9003,11.0055,0.7531,-0.2429,44.0126,-44.2710,59.9200,74.9107,-38.9057
31.4293,117.9282,31.7913,107.0529,43.8837,101.3576,-6.3673,8.2590,7.4441,46.5006,-9.0038,4.1686,-64.3302,-19.0524,-36.9839,-65.1005,83.9181,75.7476,-47.5017
28.8195,146.9115,42.0603,152.2461,65.1802,199.8409,54.9526,75.0674,44.3202,112.1880,-11.5959,111.2748,-79.7028,73.6066,-71.3068,60.8436,124.1853,199.9580,5.8937
42.7523,236.1297,89.6556,267.9780,118.1797,330.0295,150.1608,205.8746,126.8755,235.1468,14.2591,224.9533,-48.0220,186.2257,-8.5860,171.0085,167.7443,306.6346,79.8196
54.6918,290.2421,149.2323,341.0872,186.8119,409.5824,214.3537,289.3259,176.7734,302.0612,62.9776,263.5582,15.5276,233.8383,60.8520,226.5090,166.0699,329.6777,133.8783
67.8878,304.7878,205.4900,350.3417,256.3082,425.4882,251.6149,289.3006,181.9358,279.9348,122.2571,293.5136,82.3327,256.3795,47.0071,296.5146,150.6503,341.1329,145.1140
101.2823,335.3653,219.8249,361.6089,241.3637,407.1541,199.0455,259.0930,120.1624,224.0380,130.0362,329.9195,78.1243,271.6199,-29.3320,323.3530,151.7390,330.8789,82.4607
109.0538,358.1503,167.9576,377.7211,128.3491,370.0836,56.6525,240.7447,14.9565,213.1510,65.5787,303.2200,-3.8460,242.0454,-98.4316,255.9046,127.3297,261.4389,0.0714
61.2212,336.3504,94.7086,357.1990,42.2455,330.5865,-23.9121,252.5732,-39.4811,255.9424,2.1368,232.6562,-68.1919,199.0360,-125.1359,198.0931,61.9982,219.1590,-6.4172
9.4055,290.1200,39.5564,308.3436,28.7679,312.4093,2.9568,281.9600,-28.6640,266.1711,-22.0112,180.8881,-69.1857,182.8209,-98.5983,192.4969,-7.0398,242.8302,22.5721
-15.5627,233.7324,-4.0185,260.0746,19.9819,301.4198,40.3525,272.1348,2.9983,200.1332,-36.8511,136.2179,-40.0634,155.6134,-7.6362,151.5450,-52.1838,239.4884,3.1947
-30.1169,181.8822,-24.1507,212.7169,26.9226,256.6637,90.7020,216.7921,73.2802,141.3738,-31.0134,96.3870,10.5011,117.3237,120.2378,86.3540,-65.6120,192.3805,-23.5797
-31.1976,172.2134,-10.0945,169.5426,79.6632,193.8562,173.0759,188.2919,150.1362,149.2171,11.1252,97.8751,71.0400,125.1634,198.9874,95.8131,-76.1175,176.2868,-25.2405
-22.4101,195.2053,3.1720,159.2934,102.7091,187.1903,179.7740,214.8387,122.9188,167.5087,34.6016,122.8515,90.7382,163.3163,172.8239,169.5393,-124.3863,199.8132,-55.6641
-25.5383,205.8017,-0.6671,190.0652,69.7468,253.9067,96.2923,259.5307,17.2716,160.9549,21.1214,132.2534,75.0835,180.6409,93.8262,227.3731,-175.4971,232.3203,-90.8723
-31.1320,190.0047,-8.3438,207.1558,54.6114,307.0990,53.7239,300.2214,-36.8115,160.9253,24.3015,118.4349,79.4251,178.4751,45.6806,233.0550,-178.9240,249.7405,-51.6046
-31.2595,135.4232,-31.7723,155.2505,56.6741,278.7033,73.8570,327.1719,-31.6197,171.3649,44.5438,66.9875,97.0338,157.4146,37.3271,187.6207,-168.6310,218.8918,37.4754
-34.0462,59.3447,-56.6027,87.3142,34.5822,229.8319,90.9827,348.2151,-26.4608,192.8181,51.0087,12.7579,99.6105,135.9380,30.0971,151.4255,-160.6003,184.4764,109.1988
-2.1207,74.4791,-25.5023,121.5903,30.7117,260.0449,109.2832,404.3507,-20.0756,252.1338,74.1918,69.9743,110.7090,195.2073,6.7459,209.5929,-101.0076,233.2412,139.6811
88.2313,237.3723,52.6580,271.6602,66.1976,354.8703,118.4692,478.0051,-14.3373,314.3990,122.2629,251.4446,132.2473,335.0359,-25.7326,322.0819,2.8553,311.3316,118.0439
162.6048,406.2819,113.6566,415.9103,91.6750,414.4774,91.0074,487.8677,-12.1070,317.2415,139.3362,402.2924,126.6196,423.5155,-41.9891,366.5056,84.6436,313.8432,82.0479
156.0699,430.3356,141.3445,446.2500,100.7345,397.3563,81.6688,435.8028,18.0627,294.2075,117.5125,411.9719,102.0933,399.6465,-13.1229,336.8845,115.4891,278.7022,88.1731
106.0820,353.9224,141.2179,382.6381,107.1785,356.3631,102.2152,398.3790,44.7272,307.1460,96.3657,337.5659,87.8281,342.2180,31.7261,318.8918,85.9540,278.8167,92.8568
73.4283,313.2764,115.9957,336.9392,95.8873,354.0155,77.9678,389.9070,7.5032,324.2721,82.5718,292.4746,72.4330,318.7122,13.3192,332.3512,33.3851,306.0361,53.3993
80.2612,346.1826,103.5192,362.3164,89.0393,380.6553,28.4207,370.1766,-47.7735,271.0151,72.4534,309.7765,47.1306,315.6714,-75.5491,329.5523,45.5445,337.5281,31.5305
104.7162,368.5594,101.4701,372.7520,92.1776,363.9275,16.1814,308.6971,-61.3053,130.3763,54.1439,317.1502,19.6979,284.1438,-134.9599,272.7345,84.8772,327.1202,20.0038
87.1205,310.0853,47.9301,304.7823,43.5163,287.5495,6.0908,202.1961,-52.5772,-24.5156,-2.8995,263.1013,-10.6097,208.6023,-99.5245,181.1277,36.8998,242.0865,-55.1819
23.5999,233.1994,-18.8550,257.6436,-25.4341,242.8376,-3.7822,108.0720,-16.0424,-82.0581,-56.6838,222.0766,-17.1098,150.4589,-34.1428,129.3196,-20.0668,180.5565,-111.6541
0.0536,231.1092,5.6803,300.8395,-8.2534,262.6362,35.5088,85.9986,53.6438,-28.4959,-29.2200,244.0626,21.0256,150.6190,-24.3481,136.0046,39.5174,199.7849,-55.5346
46.1926,264.8763,79.2644,322.1541,45.6073,236.2994,57.5686,101.7915,71.9666,34.2514,27.2781,234.6221,40.7757,146.4451,-42.4662,117.0439,104.0706,165.3519,-6.5320
93.7877,258.6717,92.4743,253.0988,33.1403,135.6679,6.2631,119.3975,12.9762,56.1294,21.4939,161.8707,1.5610,116.8766,-10.5454,56.4672,65.0647,51.5070,-46.5641
110.4889,243.2874,71.1255,201.4423,19.4670,109.1604,-23.1718,167.4138,-26.7503,73.7241,5.7992,149.1443,-14.9690,142.1101,53.5686,59.8364,35.6894,41.4459,-59.6865
118.4363,258.3006,82.2114,234.8127,67.5970,207.4791,2.6133,217.1786,-22.0627,84.2784,49.4091,224.5435,43.8605,214.3879,64.7120,140.5462,80.6961,149.1634,-13.3407
130.1680,280.9621,112.5852,294.2379,106.9003,289.5866,1.8921,212.3827,-30.2831,69.5031,114.1159,271.9538,121.8938,238.9755,20.0902,179.9960,127.0833,203.7507,-2.2964
159.5052,315.6014,148.2198,338.9507,128.5272,277.4133,-7.0451,198.7351,-31.7645,71.7165,179.3431,265.6168,194.1802,228.9612,4.5897,144.0786,171.5745,190.9439,-15.6202
194.5643,370.9742,183.3460,363.0322,176.1684,224.7562,29.9641,209.0761,10.6730,109.3698,243.5916,271.3251,262.9097,245.8683,54.5218,114.0898,214.3602,180.6757,-9.2518
185.9571,395.5413,177.3555,352.0355,177.4852,171.4731,52.1805,202.4971,47.9716,144.7110,234.6495,289.5425,261.6004,265.8303,112.8007,129.9172,178.5997,145.8871,-28.3500
147.5135,369.6864,135.4821,330.2157,97.9127,152.5145,34.1049,224.6034,38.9359,182.1376,152.9760,294.5865,184.1633,278.8239,122.6297,174.9478,97.1618,123.3315,-58.7662
131.5066,339.9181,108.7291,325.6300,54.8421,206.0763,43.6298,326.9759,15.2744,254.8352,120.1228,294.1410,147.4230,316.7777,102.1211,235.6135,66.0024,197.1189,-35.9676
112.3534,324.5190,93.5859,315.6724,84.7196,269.9238,79.6287,393.1230,17.9700,330.6936,147.3058,282.7547,175.4879,341.0955,102.8780,278.5114,47.9504,280.3773,-7.7692
75.9192,313.0334,77.9528,300.0744,96.6727,266.4055,94.6915,341.0746,49.5921,332.8412,136.2699,262.3041,169.7130,308.6364,120.9695,264.5997,16.9476,263.9365,-27.6812
82.1024,305.9991,86.7413,300.5882,84.4277,236.9199,95.6889,261.9907,70.8208,236.4507,105.5815,258.9128,135.2083,264.1398,106.5553,214.0449,41.9685,214.3826,-48.2935
111.6915,296.0625,94.4057,289.6675,93.5086,221.8766,81.9394,200.0793,51.6801,120.0018,124.1080,262.4601,155.2370,240.1632,65.3610,177.7709,77.7267,191.7154,-67.1010
94.5480,288.6891,63.0676,262.0968,89.4785,189.0323,46.9845,129.6086,29.3919,80.7744,142.7440,251.4997,191.3951,218.3186,51.7794,163.3598,34.6069,151.4705,-123.8008
73.0060,290.7223,35.0574,256.7241,44.5395,150.9064,32.3055,102.9486,35.0411,83.7507,101.6593,239.7575,152.9432,199.0307,50.2896,146.4654,-12.8704,98.9837,-160.2883
81.6429,256.0870,23.3853,238.2166,-13.7673,130.2055,35.5912,121.9335,24.1234,31.2643,30.7749,216.3557,61.3453,174.3409,2.1967,119.0555,-11.9134,75.5377,-136.2229
56.4900,178.6119,-24.0706,163.8654,-68.3111,81.1795,-0.2183,89.9050,-20.9829,-31.5139,-22.7859,150.1095,-0.3764,118.7889,-54.3202,77.2089,-42.7524,56.3684,-137.8773
24.6358,144.1085,-63.8355,108.1120,-85.6026,10.7639,-54.5987,25.1555,-47.4718,-16.4080,-19.2716,65.4470,9.1800,54.2444,-35.7044,-0.2280,-74.0504,17.1599,-192.3129
68.5407,147.8268,-12.2582,106.4225,-30.9684,-14.7484,-68.1451,4.5838,-47.8189,-5.8923,51.4207,-2.1103,72.5930,5.0852,23.6159,-99.4130,-9.5398,-25.6962,-200.5756
116.5646,84.3147,69.4621,67.1127,39.6943,-19.3059,-58.7898,-21.6976,-64.2550,-92.5019,113.5273,-52.8239,122.7726,-44.7950,22.2080,-139.8283,58.6804,-66.4610,-137.0126
94.7479,-13.9365,93.9828,-18.6433,59.9824,-48.9010,-58.6733,-81.7534,-91.0847,-179.5902,108.2632,-67.3794,111.4997,-75.2216,-39.8996,-82.1054,28.2380,-101.1500,-85.2852
80.3431,-25.7255,94.5527,-46.6613,51.9818,-68.3327,-61.4643,-100.1845,-98.1158,-166.1407,85.7848,-38.8186,73.6837,-59.2513,-78.6063,-18.6721,-8.9437,-123.8737,-83.0877
91.3868,29.0934,89.2168,-2.4901,30.1457,-73.2828,-78.1134,-89.1597,-84.8400,-107.6149,73.1251,-26.7014,48.9140,-51.2870,-63.3412,-51.5437,9.9450,-146.9243,-102.2022
58.0747,76.0849,43.4368,55.3291,-19.7969,-89.7519,-102.3618,-113.7027,-50.7250,-84.3320,27.8431,-44.5424,15.7919,-83.4918,-37.5070,-140.9832,23.7751,-160.2252,-118.0627
27.4545,117.4846,4.7894,110.9402,-43.2137,-69.4399,-69.9340,-132.3201,11.3889,-114.9268,-23.2808,-23.1619,-21.9856,-93.8999,-29.1075,-184.1585,37.4993,-139.9888,-105.3719
57.8429,125.1569,22.8918,131.7782,3.6158,-8.9298,34.7575,-113.9424,87.9482,-190.3496,-14.5461,25.7118,-9.5587,-70.3876,-10.1824,-178.3880,85.8667,-115.1885,-45.5324
76.3192,54.2547,34.8354,75.3310,55.4912,-9.2745,130.0223,-116.8901,151.8695,-270.1019,25.6328,10.1011,51.7708,-80.5516,45.9331,-199.6219,118.3081,-125.7315,30.1529
57.1269,-28.6049,10.9639,-5.5925,57.6691,-84.1487,152.8880,-152.6144,179.5446,-311.2851,38.4224,-54.2441,92.2260,-123.0305,110.7389,-258.3221,118.5078,-157.5744,63.7903
56.9496,-52.7414,9.3624,-41.2477,30.5994,-146.4224,122.2515,-178.7205,166.4647,-301.9052,20.7547,-75.6134,70.2123,-137.0953,133.8151,-276.2355,122.2062,-182.4359,34.4197
51.6578,-59.3454,21.2175,-53.9353,-12.2154,-162.5701,78.0226,-173.9097,128.1439,-222.0385,-16.0789,-64.3962,2.5051,-121.7795,96.9594,-216.8714,99.9611,-182.1375,-16.1599
21.9531,-82.5424,7.1034,-72.3946,-44.3655,-127.9792,43.4487,-115.1089,74.0635,-85.9131,-38.6438,-83.2468,-56.6964,-107.5655,17.8679,-145.8614,52.6422,-141.0109,-14.9435
35.7400,-94.5992,22.8650,-77.6086,-8.0235,-59.0923,38.1724,-27.9324,22.2502,3.3141,8.6593,-111.8872,-43.5147,-93.8860,-56.4236,-114.8096,65.4588,-84.1581,50.5928
74.2353,-96.5952,90.8164,-78.6317,64.6090,-56.7270,54.8725,-10.9610,6.6468,-4.6245,90.3953,-118.0476,32.3624,-87.2991,-72.5365,-95.8874,110.7309,-63.3614,90.4742
49.1944,-117.4154,109.8266,-111.4790,62.8684,-149.6872,32.5922,-70.1855,0.1054,-24.2239,95.8919,-146.4425,61.7391,-113.3760,-36.4085,-86.7359,66.8989,-93.5692,36.5584
-4.5139,-166.8185,37.9551,-177.7981,-31.6582,-219.0428,-67.9023,-111.6665,-63.8833,-8.2634,9.8805,-224.3142,-19.8809,-169.9587,-11.9131,-131.6242,-39.5373,-167.8744,-53.6744
-19.6585,-238.9432,-40.3710,-252.5399,-141.1918,-236.2455,-179.9145,-138.2817,-151.2285,-18.9393,-82.8629,-293.3259,-134.8742,-225.7521,-30.7251,-198.1671,-103.1563,-266.5804,-115.4440
-32.6809,-292.9867,-75.1823,-301.3695,-211.2911,-272.9783,-217.6043,-203.0984,-179.2987,-73.3128,-136.6893,-299.8040,-193.2809,-252.5141,-77.1119,-197.7784,-138.3568,-316.4257,-177.3913
-64.4759,-270.5708,-89.5244,-286.0554,-222.5042,-271.8652,-197.9220,-245.7143,-168.6060,-106.2659,-161.6595,-249.3098,-210.3723,-233.0960,-138.0348,-125.3166,-176.0201,-254.6893,-240.0883
-77.0689,-175.1323,-93.8425,-203.5447,-176.7268,-162.8780,-173.6867,-202.7113,-161.4977,-86.2897,-162.9451,-157.4220,-217.6465,-164.3069,-182.1168,-40.2733,-169.2969,-125.1503,-231.6528
-72.9393,-61.4556,-90.5697,-95.3762,-121.5576,-46.7571,-147.7510,-131.5205,-130.5169,-45.2804,-145.4503,-43.8060,-193.0174,-71.6571,-159.7874,23.5762,-122.5450,-19.8411,-170.3357
-63.7240,30.1508,-89.8583,-4.9881,-105.8187,-2.3165,-139.1922,-96.3264,-93.9514,-22.2960,-128.4894,41.0937,-147.9063,-4.4819,-93.0942,44.3824,-88.8608,18.5729,-160.0212
-34.5002,71.3761,-82.0535,43.1461,-123.3857,17.8704,-187.7042,-89.5955,-119.1566,-28.9265,-123.4181,60.3478,-137.1669,6.9364,-66.9863,15.0118,-58.0119,4.6100,-196.0549
-8.0969,56.2835,-64.8785,46.7005,-136.6554,31.4940,-252.6857,-86.8207,-185.2129,-57.4088,-116.1591,35.6484,-143.7764,-14.0200,-106.8240,-16.2903,-22.3178,-5.7170,-193.6521
-6.4466,31.3487,-51.1246,35.5039,-109.3321,42.1042,-254.1601,-69.5496,-222.2633,-103.3845,-80.0767,18.3505,-100.2357,-18.4499,-159.6916,1.3381,-16.5904,38.9368,-152.9739
5.0893,37.6485,-18.5664,46.9692,-31.3404,88.5093,-185.7504,-32.2931,-204.6596,-140.4017,-11.8066,44.7618,-12.9829,14.8780,-170.7856,58.1838,-7.1120,114.3446,-103.4834
34.5766,66.0399,45.3901,84.7349,53.9609,128.0998,-90.4761,10.4368,-125.7045,-104.8647,59.5129,105.2553,66.2846,70.7497,-116.6181,109.9333,60.2272,157.1517,-22.6599
44.8982,106.7411,80.6446,123.2612,98.0268,108.0328,-6.8233,58.1708,-21.4982,5.1369,105.3261,141.4543,121.2467,116.7776,-21.1463,116.4554,118.2116,158.5333,59.1961
34.8797,150.5604,54.9667,138.7497,112.4324,99.9507,35.9363,108.2108,26.4609,85.9915,111.4853,110.6251,133.2934,117.5695,48.4603,71.8894,86.1703,149.6270,65.0027
22.3449,151.5425,36.1567,122.4754,127.7416,128.3665,47.8790,116.8059,17.8168,68.7667,83.1220,36.3002,91.7926,62.1070,55.5542,16.3915,25.4484,142.3167,26.4255
9.0202,92.4443,66.5491,85.2483,143.1273,107.9545,59.5130,69.8547,14.0568,-4.3922,64.1821,-31.8232,60.8870,-11.5116,22.0382,-17.8050,28.0842,137.8142,34.9622
11.2904,36.8296,95.0463,54.0981,151.5679,66.7953,56.1675,26.6827,0.0636,-70.3062,83.4315,-58.4186,77.7915,-46.8881,-36.0667,-29.1456,70.9406,138.8625,76.9792
30.6629,31.4339,85.1371,41.2661,141.0797,82.2274,19.1203,13.0632,-46.6180,-90.2191,89.6277,-38.8528,62.0863,-39.1763,-114.5555,-16.1723,82.2071,122.8825,79.0809
34.0799,34.7397,59.2473,22.9862,90.3036,65.4810,-22.6915,-22.0514,-69.2549,-53.7164,46.1706,-31.2997,-20.0472,-49.0532,-174.3885,-20.7329,59.8954,50.5671,36.7716
26.2264,3.0960,37.2835,-17.9836,24.4379,-45.2792,-52.0242,-91.9708,-52.4781,-20.5898,10.2342,-93.5771,-75.5552,-114.2479,-179.2266,-112.4879,61.1189,-63.7714,3.4516
29.7423,-45.3422,22.0236,-59.1205,-5.8691,-121.6038,-76.8181,-137.5504,-47.8039,-52.5907,1.6525,-170.8016,-81.2412,-181.8510,-145.9988,-228.8278,94.5037,-133.6560,11.0404
6.3462,-93.6710,1.1496,-95.7721,-21.4430,-112.3680,-86.1665,-142.3623,-54.3243,-96.7292,-45.8869,-184.2719,-118.9116,-193.4333,-105.6775,-229.1376,81.2209,-118.9562,24.2665
-64.3664,-149.1348,-52.3955,-158.1207,-65.7624,-130.3123,-83.8830,-165.1734,-43.3547,-70.8945,-117.0098,-174.8010,-173.2583,-181.5954,-70.3826,-153.8816,-12.6768,-102.3197,-13.7533
-112.5265,-185.8074,-117.3530,-217.5916,-104.9283,-188.5306,-92.8228,-218.3232,-29.6493,-11.0704,-121.0275,-199.8466,-162.0471,-196.2651,-58.1107,-153.4467,-87.0932,-148.3775,-71.5447
-94.7714,-181.4911,-129.9880,-209.1597,-111.4605,-199.1392,-97.7721,-230.6837,-29.0129,-13.3415,-86.5963,-227.2964,-128.3301,-221.9316,-86.8273,-217.7730,-68.0307,-195.8533,-65.5813
-62.0253,-184.2277,-103.2216,-172.0334,-128.5571,-180.1055,-78.8956,-188.5951,-34.4232,-92.2720,-104.9018,-242.9929,-152.5172,-241.7701,-132.7822,-258.1106,-25.5507,-193.2340,-14.3492
-56.5885,-211.4791,-101.5982,-180.2656,-143.5239,-193.1631,-41.3883,-176.2038,-17.4342,-168.0016,-135.7894,-265.5213,-177.9422,-263.5160,-138.3125,-285.9341,-14.4168,-178.3556,8.1134
-59.2066,-189.4330,-102.8606,-186.5892,-87.1178,-212.7766,26.7115,-212.7489,58.5690,-172.5253,-99.9671,-249.2336,-128.8103,-258.0698,-79.7846,-302.9554,5.9445,-170.7961,14.8290
-51.3615,-126.6564,-64.5176,-153.1275,-9.6409,-209.6525,97.1339,-223.2507,137.2035,-142.4604,-49.1480,-182.3024,-64.2338,-210.9373,-8.3789,-255.8745,16.2589,-168.5555,26.9582
-46.5004,-142.7196,-43.5678,-169.3368,-19.1596,-205.7671,79.5302,-203.6939,102.2362,-158.7779,-59.0825,-158.5946,-63.3471,-183.3426,9.7457,-180.5439,-47.9986,-197.1342,-2.9530
-51.0401,-218.7770,-69.2798,-241.0180,-67.7700,-203.5641,-5.7308,-212.0036,-2.1772,-209.8609,-89.1757,-192.1892,-91.9232,-198.8979,-16.5179,-153.7940,-114.5060,-220.1195,-61.3677
-41.4322,-209.5299,-58.7782,-236.3892,-48.0326,-193.7386,-27.9529,-226.1757,-20.9367,-222.3660,-76.5081,-183.7730,-86.4441,-195.4080,-23.4480,-158.5350,-68.3926,-174.3520,-66.1295
-11.2373,-131.4633,8.9694,-153.8455,4.7498,-193.4106,18.6132,-204.6333,42.2105,-191.2020,-41.4270,-131.7079,-54.9111,-161.0272,13.3119,-157.9308,31.8224,-125.3938,-17.8602
-1.2380,-111.2674,51.2220,-113.1022,26.3246,-189.4456,43.3768,-179.7304,82.3719,-155.8430,-17.7678,-112.6963,-20.8588,-144.4728,65.6207,-152.6645,64.7733,-141.0802,29.4476
-23.9220,-127.2625,56.1889,-107.7419,57.0473,-141.3563,55.4545,-163.6310,96.6262,-119.6902,15.2476,-103.8478,35.0141,-129.1280,107.9252,-115.8030,45.3761,-134.4834,64.8557
-29.1801,-103.2884,65.9451,-80.9049,99.7445,-86.0422,77.0890,-126.7967,101.5454,-81.4301,68.2412,-60.3883,111.4404,-76.9204,130.1015,-44.2856,32.6860,-71.7721,67.5037
-9.4786,-84.2127,40.2621,-82.3558,66.4797,-105.1939,44.8150,-94.7072,59.8985,-58.7857,88.2782,-38.5798,143.8160,-35.1038,123.6546,-19.8236,5.2866,-70.6069,16.5596
-18.4296,-109.2917,-51.7449,-128.8469,-43.3062,-175.4687,-37.0930,-97.5634,-2.5933,-56.7420,34.2414,-81.0572,89.5007,-55.4884,91.8886,-83.9332,-48.8129,-145.0252,-28.8090
-53.2467,-128.6322,-128.5043,-147.8932,-117.8789,-201.2588,-71.5445,-102.5538,-18.3804,-75.1600,-46.0737,-132.0065,0.9770,-101.6129,56.2796,-161.0946,-78.8413,-176.0714,-14.9452
-68.1171,-119.3401,-125.3656,-129.0031,-94.4201,-168.6183,-29.7505,-97.3742,13.6805,-109.5241,-73.1719,-133.5538,-34.3278,-116.3480,39.3161,-171.4346,-61.0372,-132.4484,30.9738
-68.7334,-95.7261,-76.5419,-104.5809,-4.0845,-124.1868,43.9453,-97.5007,65.2518,-130.2728,-34.7110,-91.4878,4.5317,-93.0473,43.3433,-120.0767,-20.1265,-56.9962,88.4397
-64.9346,-61.3377,-26.4208,-72.5555,81.0710,-86.2865,102.8612,-79.1290,104.4022,-117.5392,16.0345,-50.8431,55.4170,-60.4406,47.4706,-66.0965,17.1849,11.4791,146.4323
-37.7223,-53.0834,3.8400,-71.1015,94.8854,-79.2230,99.4000,-40.8993,83.8842,-79.9429,35.7813,-54.1510,56.5307,-48.1981,36.7465,-49.2597,18.8761,-2.1463,154.9897
-10.4441,-98.9639,5.8804,-133.9117,60.8497,-112.4113,51.3161,-19.0443,25.1397,-26.0065,36.5099,-91.1575,31.5641,-53.4284,29.7687,-44.4026,-22.0617,-89.6876,128.4078
-10.4434,-143.3417,18.3531,-179.5451,78.4726,-106.9220,58.2140,9.0007,13.0273,13.9856,51.2942,-112.9069,39.8210,-48.8919,51.6396,-14.2864,-42.4546,-96.2075,151.0773
-4.8304,-150.3852,71.8547,-156.1545,153.7028,-23.7893,141.5647,61.3861,54.3362,-7.2151,69.6782,-118.2440,59.5726,-45.5755,83.9726,11.7340,-4.4651,8.4159,201.0279
11.0624,-168.1555,108.1086,-147.5955,182.1342,27.2196,199.5938,65.9035,77.7431,-67.8470,56.9540,-150.8526,33.0958,-82.8780,71.7391,-10.3051,23.0124,62.9371,184.3466
-0.4052,-202.0842,77.5659,-185.6020,133.8504,-21.5048,166.3987,2.0627,47.3948,-99.4423,32.2086,-203.4836,-6.7351,-141.5243,-5.7272,-57.3850,-4.8614,20.3063,121.8735
-12.3241,-192.4479,34.7356,-190.9701,77.7783,-88.0046,79.1861,-48.9299,-13.4863,-98.2370,36.7644,-217.9038,-2.0334,-161.1505,-88.1342,-89.6058,-23.2945,-27.3907,82.4180
11.6300,-144.6296,28.7912,-155.5914,44.1175,-118.9344,5.4138,-70.8219,-53.3707,-102.3935,45.5499,-184.0721,9.2415,-143.3945,-102.9346,-109.7133,0.3357,-69.7689,48.8603
27.1811,-126.2974,26.7752,-149.5162,23.1805,-133.3386,-14.8453,-98.7585,-47.1495,-118.4687,20.5630,-157.5973,-18.6016,-137.0667,-68.2094,-123.8717,7.5619,-116.8117,12.7446
9.3156,-156.5582,3.4376,-184.4440,22.8735,-122.4589,9.6312,-96.3784,-31.9292,-139.5914,-11.3109,-166.9118,-48.8139,-143.2609,-44.9321,-119.1136,-22.6669,-117.2297,26.6901
-12.0110,-196.4057,-33.7756,-228.5529,16.9883,-117.3087,42.4305,-58.0295,-19.8945,-147.4274,-37.8083,-174.4695,-66.6741,-131.3217,-24.0327,-101.4690,-58.8413,-105.2261,79.7186
-41.8921,-205.4800,-96.9386,-259.2158,-44.4132,-182.5445,59.1510,-61.5109,24.7355,-115.9476,-95.7319,-154.9933,-114.7092,-112.3163,13.5142,-104.1458,-95.6095,-151.9090,93.1966
-65.5321,-169.1133,-156.6110,-239.2431,-116.2374,-239.3925,44.9081,-96.6816,56.3029,-88.9330,-147.4746,-133.5569,-163.1447,-110.2978,6.6898,-140.4362,-102.9703,-182.0595,55.9168
-12.0094,-106.3406,-112.4230,-151.5933,-88.5476,-170.6126,14.6810,-82.4697,10.3510,-140.2745,-93.4364,-116.2606,-116.8463,-108.1969,-66.1250,-168.4790,-19.9524,-117.9330,33.5392
85.4244,-57.7946,41.2470,-53.5634,35.1156,-63.9662,25.9747,-56.2632,-27.5740,-226.8346,43.2838,-80.4163,16.7410,-92.3328,-110.8924,-140.1880,102.7092,-53.6623,57.0190
105.5540,-50.5997,154.3964,-19.0609,123.7196,-56.2429,72.6187,-94.0445,14.5554,-244.1982,124.2788,-44.0549,109.8369,-85.7061,-90.3143,-77.1747,136.8054,-73.9031,83.4107
62.0406,-76.4743,144.0668,-56.2820,108.9771,-101.0056,67.1946,-141.9059,31.5836,-198.9994,100.1233,-36.8548,84.2792,-89.3493,-87.4950,-31.6897,85.8467,-115.6495,74.5471
54.3420,-103.3846,99.9734,-113.7083,60.6103,-116.7854,13.3152,-132.9186,-23.1014,-166.6880,43.1349,-35.0137,-3.4722,-75.3264,-119.9857,-6.5877,56.3371,-121.6602,58.7952
64.0404,-102.7658,80.6917,-135.4043,36.9955,-119.6548,1.4838,-109.8916,-33.3799,-153.9408,-3.8146,-15.1388,-71.2522,-51.7029,-106.7373,2.8852,63.1325,-115.3164,62.1757
36.4271,-59.8499,35.7644,-93.8770,7.8167,-99.3567,25.5690,-103.6594,26.4887,-126.5852,-57.4767,9.3447,-111.2892,-39.9522,-41.1409,-24.8337,59.2035,-97.7046,46.9910
14.3117,19.2557,-14.3920,3.0178,-25.2856,-20.7400,31.7750,-73.0899,65.7476,-95.4091,-94.1251,38.0234,-125.5070,-23.7231,2.6281,-62.9316,59.1402,-45.9389,5.8802
25.3649,79.6649,7.9379,93.4988,-8.7751,50.2680,42.6491,-25.1732,69.5181,-93.8679,-64.8287,57.4574,-76.1277,-6.2807,4.5436,-60.1158,69.3988,0.5645,-2.1097
16.3077,47.3140,40.3470,82.5686,16.5263,26.4281,50.7887,-24.5440,55.0337,-111.8741,-10.1475,15.5373,4.4035,-30.3275,-7.0420,-46.1522,29.4272,-22.4169,12.0818
-26.8749,-65.8628,-23.1711,-37.7542,-46.3995,-61.6786,-1.3699,-71.4976,2.9809,-103.6231,-25.3098,-76.9140,-2.0629,-87.7540,-29.8722,-71.7545,-60.6466,-100.9240,-21.3061
-56.5422,-166.6654,-114.5546,-153.5583,-157.8182,-137.2491,-63.3314,-112.4375,-39.6610,-70.6313,-106.2782,-144.5731,-108.7531,-133.7814,-62.8906,-119.9952,-106.8912,-171.2097,-65.2542
-60.2812,-213.7715,-126.2047,-199.0200,-195.2426,-197.1086,-42.9781,-148.1790,-6.2811,-83.4129,-158.0638,-184.5462,-184.4068,-179.9123,-72.0334,-176.9715,-85.4423,-220.4033,-47.8649
-59.9256,-230.8765,-98.1934,-221.5585,-148.9209,-262.4110,19.7518,-201.7077,53.1196,-169.1043,-139.4912,-231.3311,-151.3161,-235.4023,-35.4683,-241.7499,-72.2663,-255.9391,-24.0594
-53.2347,-211.1431,-83.5323,-223.2754,-86.9370,-285.6085,41.6700,-226.7694,60.7790,-245.2772,-79.0611,-239.1689,-51.8401,-238.8124,16.3271,-254.8250,-83.8968,-234.4056,-51.1617
-31.5160,-146.1225,-53.8703,-158.9108,-32.1921,-221.0246,25.9377,-184.5229,31.3975,-233.7843,0.3716,-178.6225,57.9645,-172.9617,40.4232,-191.6703,-69.5426,-155.1428,-72.4522
-12.0654,-97.1568,-16.8206,-96.7100,16.3148,-142.7456,9.9103,-146.7686,12.2508,-174.1836,74.6654,-131.9119,138.9238,-125.8359,38.4990,-140.1482,-45.5689,-121.1308,-61.2573
-10.4636,-124.9959,4.2199,-134.2568,59.0960,-152.7538,16.2998,-187.0497,14.9372,-165.6893,113.6019,-166.7151,165.7220,-159.4646,33.1950,-154.2325,-52.0873,-167.9870,-55.0045
-13.1387,-200.2703,44.9550,-215.5627,103.2559,-220.1850,42.3489,-252.6860,20.3786,-231.8481,122.7265,-247.9962,156.8628,-236.5020,18.0467,-193.4769,-44.1338,-195.9796,-38.0456
-5.5990,-235.3655,83.2111,-230.5335,111.5940,-252.9245,43.2314,-261.3907,7.8644,-284.2758,110.1828,-304.1161,129.1856,-286.1845,-9.3529,-236.9734,5.6998,-165.3467,-9.6879
0.3565,-178.9775,41.5309,-170.2817,44.5900,-229.0636,4.3483,-218.4949,-4.9840,-244.2877,59.4007,-278.5953,70.2854,-262.0289,-18.7588,-268.8353,31.6228,-136.4497,-33.0059
-2.5907,-80.9185,-22.5350,-81.2127,-23.8204,-156.2153,-17.7034,-163.4440,8.3907,-165.0716,2.1539,-176.3910,13.6834,-179.9374,-6.8340,-234.9814,23.0573,-108.9144,-72.9052
5.8724,-40.0675,3.8108,-18.8341,-1.8376,-64.3057,0.1235,-121.3499,24.3079,-145.7565,2.1823,-93.4679,13.3447,-120.3231,-2.0003,-159.8158,46.0623,-66.8149,-36.9002
29.7160,-72.9023,61.5550,-45.3340,50.5551,-53.8370,11.0378,-130.8032,16.4870,-172.5260,34.3386,-98.4331,31.6437,-128.7914,-0.9919,-137.5227,69.1963,-89.0091,2.4403
32.8604,-117.4716,30.9641,-147.3736,19.6186,-158.6228,-22.7010,-206.3400,-6.4287,-171.8881,16.1231,-136.2952,-7.7679,-161.5403,-2.5473,-162.2908,13.5031,-198.1743,-70.9689
-3.9227,-152.8014,-59.8354,-226.8750,-88.0844,-250.5034,-106.0515,-290.3514,-50.9573,-149.1523,-62.6204,-142.1896,-101.6101,-176.8786,-43.7846,-165.4536,-61.0861,-272.1736,-177.7414
-48.3209,-187.3528,-114.9434,-222.1933,-190.3066,-233.2771,-197.1013,-314.2392,-107.7909,-147.5896,-149.2951,-131.1375,-194.9351,-184.7756,-114.6880,-153.6971,-58.5863,-241.1496,-196.1226
-68.3916,-191.3863,-108.3260,-155.7628,-235.6033,-161.7592,-212.6142,-268.8537,-119.4396,-155.8835,-203.4750,-126.5899,-248.4979,-190.2484,-156.6436,-147.1602,-25.2290,-172.3938,-156.6105
-76.4921,-159.2183,-78.7723,-95.5334,-217.6176,-112.9653,-155.4440,-197.7026,-90.6038,-142.4441,-211.5907,-130.6588,-253.7802,-186.1396,-171.5922,-125.2578,-42.2498,-126.7208,-114.8629
-93.1188,-136.1057,-82.6133,-103.6183,-170.9721,-116.0669,-123.4996,-154.0549,-86.7776,-106.1321,-190.3352,-147.4710,-237.0752,-177.7957,-185.2879,-104.8679,-85.7516,-106.8685,-64.1907
-101.4723,-127.3593,-115.9676,-146.7952,-139.0910,-153.1147,-119.2904,-141.9399,-85.1191,-60.6413,-164.7047,-148.9805,-216.7496,-156.3864,-170.5446,-106.2410,-93.3301,-103.5448,-17.7691
-78.8717,-105.3910,-103.1951,-123.7509,-117.7246,-137.2565,-60.6406,-109.6236,-29.4054,-20.6146,-130.5395,-100.3021,-176.5732,-109.1074,-136.0699,-82.5128,-52.7976,-87.7275,15.2008
-49.1686,-89.3598,-42.0806,-49.6572,-83.3083,-31.5691,28.0424,-47.2759,27.3601,-11.2081,-95.7798,-39.4971,-136.8796,-64.5000,-144.3073,-16.5238,-5.2118,-32.2701,58.9573
-47.3316,-104.0103,-21.2773,-38.5060,-49.2754,56.1791,65.0147,-20.4341,23.6813,-60.7528,-99.5711,-21.8713,-145.9915,-55.5065,-179.8823,31.6734,0.1461,38.8001,83.5451
-57.7996,-118.3865,-44.4440,-78.2067,-37.8279,51.2605,58.5287,-50.2446,1.2964,-146.5373,-128.5130,-29.1513,-171.7021,-67.0761,-178.1322,31.1052,-21.1757,78.3079,51.4214
-52.9490,-91.2912,-48.5313,-58.1835,-46.1134,21.4510,49.4119,-65.6000,10.4838,-167.5433,-127.2103,-21.1440,-156.4085,-66.6081,-153.9282,3.5998,-10.6478,65.1844,35.4345
-45.0168,-20.9195,-46.3722,24.5188,-56.7738,31.6801,49.5557,-17.9172,45.9746,-67.9596,-102.5486,12.3250,-131.6493,-35.7497,-149.6631,-18.5377,28.7085,30.9295,102.4256
-40.0005,55.0848,-40.2465,102.0210,-37.5519,88.8428,76.0403,57.1392,85.7504,51.1808,-80.8612,77.7867,-121.3239,28.4802,-149.5961,17.6093,64.2441,53.3216,183.3907
-14.6549,88.0517,31.6507,156.9161,29.6998,178.5261,118.6311,107.6101,105.9051,85.8788,-32.1376,154.6028,-70.3992,97.0005,-122.7534,119.0056,112.8808,144.3008,204.4933
25.1855,77.7909,122.4935,172.8872,94.6159,224.4471,130.6094,121.8429,102.1481,85.4551,36.6786,188.7925,12.2624,132.7593,-55.0296,186.0835,163.0428,190.9364,186.3364
50.2498,73.2162,116.3630,135.5023,92.9544,181.3076,103.3841,119.1047,91.1854,98.0584,50.7654,182.3864,35.5510,144.8990,36.9397,161.4398,156.9821,138.2868,149.5541
65.5300,90.2352,63.5291,110.0060,54.6637,151.7227,64.0477,119.7454,64.9110,60.7387,12.3669,188.1102,3.1078,156.7906,86.7092,122.7640,126.5583,95.6653,101.6534
85.7880,106.4282,86.0172,148.2027,60.0547,199.0184,38.8104,131.5784,29.8385,-15.4231,7.4244,206.0359,5.1809,161.2630,75.1277,125.2729,150.9798,129.4420,96.0502
98.2748,128.9269,145.0397,192.9964,110.2041,229.8828,57.4892,164.3214,41.0028,-0.3136,46.0770,213.4381,46.1626,170.8027,89.0536,142.1085,191.4128,163.3314,145.4704
92.8592,166.9830,152.0175,196.0423,142.1257,215.9792,109.9060,223.5550,94.5530,131.3634,66.7941,229.3051,63.4422,215.6362,162.9904,179.5076,164.9473,162.2818,169.0294
72.4454,173.2676,137.5738,180.6553,143.6542,226.7502,150.8413,271.7884,125.0515,259.2011,73.9160,236.9735,72.1677,253.6099,210.3207,244.2715,90.5005,165.3533,134.5211
42.7727,107.0061,146.9438,141.7889,153.3407,224.7918,186.2195,252.9938,137.1720,294.4232,117.6581,182.9423,132.3609,218.7759,193.3180,272.0342,25.8987,145.7035,106.5871
29.8022,13.1532,153.6827,59.9399,170.0821,147.6799,214.4235,167.3512,151.0034,234.4653,175.4665,104.0136,211.8862,145.8442,174.2038,233.3814,-7.7101,67.5523,94.5992
48.1613,-31.8571,138.9195,-13.4808,157.1185,56.8694,162.5949,61.6497,115.6758,115.6808,179.1486,67.6678,223.6705,95.3149,185.7400,163.4225,-4.1305,-11.2527,32.0943
56.2224,-19.0873,111.5812,-31.5780,116.8273,-7.7723,47.6660,-29.1880,43.5651,4.4647,130.6488,35.2727,175.5881,43.6209,202.1446,68.5840,9.9663,-42.8488,-67.0515
26.8137,6.4978,76.1440,-19.4280,84.4469,-64.9634,-4.4863,-76.7265,21.9440,-38.9532,92.1197,-9.6600,144.7636,-6.8015,188.2765,-9.8190,0.6117,-41.3370,-105.7375
9.0507,32.5784,63.5890,14.4174,79.6414,-43.5953,14.7787,-53.1956,36.5052,-10.6801,87.8156,38.3692,136.5840,29.0108,125.2104,38.2570,13.2414,7.1929,-52.6243
35.6294,69.2471,108.9394,84.3100,107.3894,93.7807,35.3807,21.2553,36.4291,45.3352,97.4121,180.9124,117.5532,139.3165,58.2512,188.2135,89.0278,103.4024,35.8172
53.8119,74.1554,157.4830,125.7747,141.7433,186.3756,90.2106,74.0544,71.0062,70.0631,105.9346,235.4679,114.6270,181.0855,59.3069,254.7825,132.2972,150.7304,94.3001
16.0109,10.2656,105.9695,61.4477,113.8293,98.6331,174.7126,48.6407,144.9614,38.3286,94.1467,129.9806,137.7555,104.2952,107.7068,165.1877,44.7943,74.0428,75.1244
-45.1249,-59.5736,-34.8254,-54.6637,9.5234,-74.9911,170.4268,-36.9167,165.1594,-6.7507,42.8639,6.6355,126.6341,11.3954,135.9086,29.1232,-94.2840,-62.0640,-14.5341
-75.5138,-76.1239,-135.0508,-114.4720,-83.8390,-176.8323,83.5714,-103.6248,125.1597,-16.9163,-17.1351,-30.2910,71.5637,-22.2838,134.7905,-46.5956,-148.9791,-144.9687,-83.6669
-69.7547,-92.6888,-127.7442,-113.9644,-113.7587,-167.9430,27.2528,-101.6369,78.1922,-7.7741,-37.2546,-20.1535,33.2052,-17.4243,93.0081,-31.8993,-117.7288,-138.1220,-70.9082
-49.1630,-145.4657,-71.3386,-109.8326,-116.2876,-105.4597,-15.9557,-69.4800,1.7096,-11.2375,-17.2104,-15.5905,31.7795,-10.0539,-2.8263,35.9502,-76.5215,-90.0961,-36.9654
-14.7232,-157.9142,-18.3830,-105.2522,-95.8765,-67.9316,-89.7608,-57.5309,-92.6578,-17.7120,25.5348,-25.8858,54.9773,-11.6893,-62.3602,63.4315,-47.3739,-70.8542,-48.9552
28.8013,-86.3988,30.5013,-76.9827,-33.2943,-82.9527,-123.0420,-52.3131,-118.9753,-3.8675,77.2859,-39.3846,96.7155,-13.3460,-10.5226,23.7695,-24.7759,-89.2414,-82.4496
41.4692,-9.4460,56.0631,-40.1241,19.0746,-102.3368,-101.3429,-37.4813,-86.4210,24.5532,101.8942,-35.3169,126.8320,-2.1476,66.6022,1.5975,-26.8131,-91.3697,-97.7562
13.5549,-4.0732,57.6990,-22.0491,28.7251,-86.7608,-86.6481,-30.0081,-65.6008,33.0403,96.1909,-19.1539,141.0347,11.0000,96.8981,33.0744,-41.5464,-58.9211,-83.2546
1.2789,-45.3049,85.4212,-22.3461,49.1178,-58.5570,-54.2481,-16.0689,-43.2253,7.0177,104.8264,-11.5922,170.8445,16.9317,126.4540,68.0395,-26.5267,-28.3662,-29.3084
18.9604,-59.7622,113.1308,-28.1321,76.9356,-42.8471,9.6338,25.2872,-9.4467,-15.7569,103.9261,-3.0825,163.6728,29.7275,136.0033,85.9006,-5.6186,-10.9124,33.3961
5.7972,-34.7785,49.9103,-41.4790,43.2521,-44.3870,24.8078,45.5934,-8.4766,-11.6366,36.4869,-3.5804,62.3109,28.7112,64.7381,69.0574,-38.6420,-3.7022,44.6244
-39.3650,-32.3995,-61.6185,-73.7464,-24.6116,-82.6181,1.1508,1.6556,-10.1889,-8.8715,-32.2638,-57.7253,-22.0307,-25.7227,5.1070,-22.9888,-93.5599,-41.2960,9.2187
-48.6908,-67.3281,-101.8950,-114.5263,-54.6257,-160.5547,21.5446,-53.6301,37.2402,-2.6223,-22.5910,-132.4633,2.8618,-88.4573,50.3399,-133.1689,-104.4434,-123.6616,-29.0711
-29.5629,-71.1064,-96.8561,-130.9825,-71.3919,-217.3237,42.1019,-60.0079,66.1245,32.7916,-5.8206,-138.5859,23.8784,-84.3774,90.0893,-148.4709,-105.1935,-169.8291,-65.7657
-42.3858,-41.1188,-122.2469,-117.0128,-105.6286,-194.8759,-5.3696,-42.2426,11.1423,40.3469,-45.6234,-87.9281,-27.4638,-43.0717,22.7599,-75.9847,-146.2404,-134.9163,-93.4356
-71.1781,-49.1791,-129.0407,-102.8893,-117.3049,-134.6924,-65.4916,-48.2789,-64.1735,-18.9968,-73.4386,-60.0260,-51.7460,-34.0290,-60.3967,-4.8151,-182.8340,-82.2183,-97.3359
-68.2411,-69.8324,-87.9622,-96.0048,-109.9106,-123.3379,-102.0383,-74.4837,-97.7833,-54.8638,-64.5744,-68.2858,-38.8131,-52.8445,-67.8869,8.8629,-172.4117,-82.9710,-115.0657
-49.8937,-37.3834,-89.1971,-79.0933,-140.7587,-158.3269,-152.5816,-85.0187,-112.1597,-26.0918,-86.2600,-93.3290,-73.7167,-74.4748,-31.0422,-60.6837,-154.7332,-131.0605,-163.1497
-55.2610,-18.3770,-165.1600,-73.7012,-205.7107,-171.5813,-196.4481,-68.3698,-122.1072,-23.1975,-137.0439,-131.3211,-115.1663,-96.7978,20.6750,-164.1273,-176.4125,-181.2300,-188.5747
-88.1133,-75.9977,-234.5537,-108.6763,-248.5806,-153.4163,-189.9515,-54.3085,-110.5782,-55.1355,-161.1948,-149.5632,-93.2146,-99.0911,90.7952,-182.0149,-232.8173,-202.5853,-182.8161
-116.6906,-120.4478,-233.8044,-141.5577,-227.2962,-133.5293,-151.8817,-61.1310,-77.3830,-40.0645,-149.9476,-125.8928,-57.3506,-75.0476,145.9874,-112.6776,-266.3203,-188.7565,-172.8933
-96.8808,-94.6846,-158.1046,-126.4049,-135.7125,-110.6242,-99.4999,-61.3271,-38.2969,-6.6897,-105.7822,-107.8114,-40.7678,-66.5945,151.8101,-80.4984,-213.6763,-158.9999,-126.6561
-39.0810,-78.4728,-65.5061,-110.5982,-43.9592,-98.6661,-52.0692,-40.2590,-26.3611,-16.5866,-39.9622,-132.6719,-12.8761,-86.4403,119.1878,-107.0762,-123.6332,-139.1648,-60.5882
-15.2420,-105.0812,-55.1350,-140.5747,-37.2004,-112.1450,-60.8397,-15.3799,-69.8516,-12.1606,-1.1975,-164.1651,15.5550,-89.4167,71.6650,-105.2424,-113.4161,-115.2414,-63.0809
-35.2384,-117.6938,-105.9735,-157.6534,-61.5261,-81.8124,-88.6484,24.0682,-118.5220,41.3152,14.1777,-154.8646,40.0600,-51.8296,30.5040,-52.7910,-149.4981,-45.2054,-87.5019
-27.3043,-108.0915,-79.8089,-113.3375,-9.1516,22.3572,-38.3394,72.2764,-95.9179,61.3940,64.8191,-109.1044,97.6435,-9.0630,16.3166,5.0858,-104.4820,46.1402,-35.4754
15.6438,-102.0885,14.6140,-67.7524,70.1405,73.0273,30.8370,47.1373,-40.7165,5.1521,131.1701,-75.6227,167.5318,-9.1536,29.7532,19.6883,-17.0888,68.4811,-11.6140
31.1064,-71.3098,43.6513,-52.0937,83.3068,17.1359,-7.3606,-57.1387,-41.6426,-63.9209,153.8406,-72.0389,204.6579,-39.8644,60.5513,-24.0851,8.6856,31.8621,-107.4004
25.0973,14.5799,42.8449,11.4636,96.7728,17.6296,-83.7787,-92.0825,-72.6022,-77.3976,157.1023,-33.0267,222.1462,-23.2963,90.8315,-39.6573,38.0508,71.0569,-153.2265
47.3759,109.7300,125.9099,134.0406,174.1559,148.2612,-69.7498,-4.9643,-67.8756,-31.4473,175.0807,68.2698,216.2103,54.3660,68.2782,51.3873,136.9768,201.8280,-49.9468
78.7406,131.1781,207.8221,187.9536,215.2602,241.2794,-23.9836,54.2054,-60.3648,14.4895,178.4632,120.6074,164.6395,87.0967,-32.2218,137.5631,196.9992,256.0089,26.9194
78.1850,65.9316,175.2254,121.4020,163.1641,195.6409,-32.2347,11.2609,-81.0222,10.6903,163.6733,57.6334,124.2334,29.8614,-119.2967,96.3635,156.8976,172.2034,-7.6446
64.9340,1.5851,118.8046,49.5590,118.2023,113.7912,-33.1676,-29.8529,-72.1247,-16.4167,162.3087,-12.3517,143.5809,-20.2107,-95.1816,16.5137,118.8758,90.8210,-29.0471
68.2348,10.0476,124.4225,52.4103,124.1370,69.8506,5.8085,-24.6639,-23.0017,-37.9255,159.9748,-4.7805,164.2080,-10.9550,-20.4756,-2.3595,131.8784,83.1278,-10.3527
73.4884,65.0418,120.9306,89.8136,113.0538,49.2277,7.7713,-21.4648,-9.8366,-64.4503,136.5229,40.7392,148.7538,17.5360,-9.6291,6.8752,135.2094,93.7020,-21.9335
62.6196,128.9913,85.5638,144.9212,89.9025,88.8695,-28.2925,17.6146,-39.5738,-49.3569,119.9613,108.6425,141.8519,76.6723,-40.6663,54.9179,123.6298,147.5630,-19.8473
51.5631,192.7444,94.4238,227.8750,114.5428,208.2504,-17.1941,138.7096,-39.2584,54.8103,120.9183,190.8760,142.5415,170.4364,-30.7831,155.9795,147.2130,275.1468,54.6669
63.5544,201.1168,139.4076,260.3178,152.9765,286.5161,40.7977,235.8274,1.4170,141.3391,111.1703,198.1079,105.4397,196.8613,7.6965,182.1124,196.1773,333.9511,143.7587
92.2354,117.0507,153.3947,174.8178,148.7339,218.9926,80.5234,201.0122,31.2542,87.6308,91.9170,113.3657,57.7478,120.4636,20.7156,86.7316,217.6878,226.9971,179.1438
112.2642,30.7341,145.7006,59.7486,130.4912,82.9375,90.1301,95.5655,31.8188,-40.9549,90.3240,50.2729,55.4586,49.4257,5.8203,18.0097,193.3063,98.6628,144.8821
116.0667,35.5341,144.3808,28.6818,129.6220,4.4960,83.6852,26.0198,17.2159,-118.8451,100.8891,48.7413,78.7551,34.5370,-17.5632,22.6209,149.7001,69.1567,62.0844
111.0188,90.3531,135.4734,59.0575,131.9045,-2.1644,63.2505,10.1574,4.1497,-123.0791,100.6445,53.9077,81.1507,31.8140,-31.2562,15.1054,116.3270,63.9093,9.8128
90.7958,112.9498,119.2792,73.7780,133.0302,19.7529,46.7212,28.1272,0.9738,-77.6262,90.5628,60.4615,69.6830,40.0678,-22.3345,25.3073,78.8690,34.8394,34.5312
47.2343,75.2983,86.9970,41.7219,107.5908,25.8643,34.0848,52.8994,-13.5176,-25.5311,68.3687,51.9235,57.1737,49.5354,-19.1763,75.0946,0.7349,12.6633,57.8530
-4.5189,-15.9807,-5.8553,-44.2253,3.7701,-44.4545,-7.5954,37.3629,-52.0659,-28.5044,5.8548,-40.2617,8.7580,-8.6823,-42.7064,24.7382,-100.0632,-50.2702,20.0709
-41.2794,-107.5720,-123.4688,-148.1673,-123.7391,-168.1883,-58.1838,-13.7155,-69.9384,-60.3603,-86.4279,-167.7020,-82.6157,-107.4403,-38.9177,-131.4813,-157.7385,-165.2200,-16.4973
-51.6403,-118.8068,-145.6607,-179.5179,-136.7282,-199.6403,-50.4337,-31.9951,-36.0006,-36.1071,-128.9476,-182.6274,-137.8006,-121.9612,17.1063,-170.9787,-149.1203,-192.6850,-12.2118
-35.3536,-48.2596,-60.1312,-112.9919,-35.1826,-101.5600,7.8978,-10.1534,7.2028,15.6665,-83.7894,-74.5888,-103.8333,-43.2745,43.9551,-38.3974,-109.9488,-95.7531,-7.6494
-8.1747,19.2590,14.6772,-38.3855,35.6177,-34.9108,37.1384,-12.3035,17.1613,4.1557,-24.4506,21.3214,-46.4018,14.1419,-0.6734,63.8251,-74.7069,-37.3325,-10.7859
5.6536,19.5951,19.8862,-31.3943,8.7193,-83.4231,1.4605,-45.7599,-8.6569,-50.0772,-18.9464,16.8551,-37.5908,-5.1673,-49.2654,34.2116,-62.2154,-88.5331,-10.3937
2.7167,-41.2004,-3.4994,-84.7983,-51.2073,-152.9693,-69.1361,-70.3739,-70.2534,-74.5029,-36.6030,-66.4003,-54.3259,-64.5214,-66.7222,-34.5701,-88.5817,-156.5188,-41.8206
-3.4260,-107.3595,-29.8453,-162.2930,-79.0298,-190.2792,-127.9910,-93.0089,-138.7898,-63.5505,-31.0302,-146.9231,-56.5260,-110.7861,-85.6789,-66.4632,-135.0826,-190.8294,-101.2681
-15.4748,-121.2928,-58.8915,-207.5816,-64.4436,-201.3307,-134.1981,-110.1245,-147.1434,-14.8112,-10.0959,-148.5224,-46.8506,-100.8827,-99.7066,-50.8939,-142.5792,-175.1080,-107.7517
-41.2191,-84.1185,-69.9627,-162.7142,-28.4009,-134.3781,-79.1068,-60.7607,-82.0027,95.7124,8.2162,-84.7298,-28.2961,-37.6053,-77.1478,3.0404,-89.0169,-70.1069,-30.5894
-58.8951,-41.5614,-54.5997,-61.4118,-0.7804,-9.0413,-1.8494,42.7748,-2.6409,204.6909,18.9680,-42.2336,-7.4668,11.7623,-34.8545,34.1361,-23.6367,51.3642,60.7292
-44.8271,-8.4247,-34.5897,3.7671,8.4088,45.1991,49.9652,89.5899,46.5093,201.9852,9.8356,-44.3350,-15.7674,5.2863,-12.2454,-4.7449,12.4117,69.4313,96.4226
-22.0643,30.3578,-25.5497,27.7119,-0.0938,23.6242,55.8228,49.2275,60.1075,110.3726,-30.0628,-28.3898,-67.6734,-14.4970,-30.2384,-45.7256,29.1787,36.9735,68.6634
-23.1761,60.3797,-28.5166,55.2411,-38.2012,24.4614,23.9633,-1.4571,45.9037,48.3957,-92.1950,18.3652,-143.1266,-13.0499,-77.7056,-28.7441,33.9265,41.8528,11.2670
-32.2333,40.8979,-36.6634,48.6091,-90.4731,14.5446,-12.1514,-39.1253,26.9118,25.6020,-145.2238,21.6734,-206.1756,-30.9099,-105.5124,-25.3673,19.0174,10.0626,-31.8995
-34.7497,-34.7099,-40.7490,-24.9951,-117.7536,-67.6820,-24.7274,-96.1972,23.6153,-27.3097,-160.1523,-45.8520,-217.3075,-93.2422,-85.3422,-84.4079,-4.4169,-89.0176,-41.9897
-65.9667,-107.1919,-58.2494,-77.6608,-138.7751,-134.6703,-26.7151,-142.6256,34.1078,-71.7813,-161.2150,-105.7426,-187.0527,-143.2651,-51.4594,-128.0177,-25.8408,-128.3095,-35.2904
-121.8694,-109.5181,-109.0940,-43.3875,-188.1688,-115.1754,-33.0641,-126.0653,57.0912,-29.4171,-191.4375,-96.5332,-182.6474,-131.4477,-28.3519,-122.4878,-37.7929,-75.7976,-23.4979
-122.9444,-54.0716,-143.8190,12.5533,-209.7482,-63.9127,-14.9631,-66.6132,92.9708,41.6911,-215.6355,-48.6385,-208.4066,-82.7919,0.7658,-122.8842,-8.3555,-28.8839,-1.7438
-57.2477,1.7802,-101.1450,42.5947,-148.4706,-13.9581,40.8697,-14.6917,121.6560,50.4467,-177.5636,5.9080,-192.2227,-29.4272,29.5595,-104.6811,54.9622,7.8184,12.6456
-18.5205,47.7553,-32.3802,81.3123,-73.0132,41.8006,73.8003,7.3692,119.2654,25.8940,-120.1687,73.5272,-132.1784,25.7031,32.6776,-17.5207,76.1091,71.8872,-4.9574
-35.5183,85.5421,-25.7478,116.9513,-51.9288,72.5010,37.8780,-7.2306,85.6569,9.8693,-94.6046,130.1615,-84.5258,63.4587,10.5513,56.5599,48.6108,107.9923,-26.1144
-35.1600,86.2842,-47.4913,110.0197,-37.6896,78.3492,-2.1668,-43.3350,53.6323,-26.1789,-56.1751,148.3791,-36.2647,68.4962,-24.5381,51.2601,59.9803,92.3397,-6.3156
-1.7804,67.4321,-24.5106,102.7803,-2.5976,95.0546,22.7400,-62.5955,62.0711,-73.9623,-2.0432,156.9028,17.4062,65.4102,-49.9096,39.8819,107.1248,77.6618,23.5533
0.6990,77.5706,-7.6188,124.8856,-23.1851,88.9044,44.1071,-57.6532,83.1203,-80.9047,-31.1512,155.9409,-14.1406,56.0016,-48.9424,40.3224,91.2923,58.3592,1.1059
-43.4182,87.1669,-68.6065,114.7773,-119.4622,25.6705,-18.0044,-58.2680,51.1564,-50.7478,-145.1465,93.4427,-145.5864,7.1563,-63.6786,-18.9121,14.6473,15.0920,-52.9366
-80.4526,58.7306,-130.5271,66.0388,-170.9203,-22.9000,-67.7926,-69.2068,8.6119,-23.7950,-202.2699,2.3224,-228.3318,-56.4906,-114.3192,-94.0224,-23.6446,5.0038,-68.2670
-65.6137,46.5919,-85.4481,61.4655,-90.6369,3.9928,8.8898,-69.4129,55.3141,-24.3771,-137.6514,-19.6541,-168.1365,-72.5447,-109.6673,-100.6092,15.8630,40.5222,-32.7076
-9.7779,75.6713,20.4044,104.5906,40.9350,53.0003,115.7699,-64.3353,144.5034,-65.1617,-36.2312,25.4776,-48.6267,-46.0170,-11.0452,-85.6085,103.6619,56.9391,24.7357
29.1042,83.5195,81.1749,128.0615,101.5396,65.8185,121.4216,-67.1763,162.4587,-112.7975,20.0770,73.1241,27.7736,-14.3931,63.9677,-78.6039,191.9274,60.9167,88.3894
17.2864,65.8722,93.6349,137.4855,87.9209,67.2048,86.3022,-49.4960,135.7021,-98.0537,28.2232,111.8242,53.1446,24.6636,62.0318,-17.0524,215.9027,102.9262,126.8656
-7.6032,73.6619,93.7458,157.2432,64.6017,91.3044,87.0759,15.0697,126.2348,-14.9042,13.8299,129.2085,50.0826,65.1070,76.9821,62.5040,157.7284,142.8733,108.6700
-12.3566,79.3995,68.6225,144.3902,44.6099,111.4548,68.9774,81.7937,106.6573,84.5471,-2.8898,99.5752,26.6047,77.0728,132.6198,63.6607,94.4588,119.1160,81.3811
-20.4256,43.6160,27.4924,92.8438,18.9988,93.3645,37.6761,89.8590,100.4708,170.0310,-15.2174,72.4231,-5.3094,71.6663,159.5228,29.6699,94.8643,59.6403,119.4510
-39.5327,16.0356,19.1479,68.7521,16.2974,72.4751,86.3287,65.2587,171.0026,222.8561,-30.2362,104.1982,-36.1808,83.4834,157.1843,48.6097,127.7857,30.0438,196.5639
-43.8888,29.0437,38.0573,79.7029,45.2247,103.8178,167.2382,79.4902,234.6343,238.8684,-44.5436,153.3748,-63.1228,114.0318,152.3257,109.6358,128.5665,57.2042,229.8530
-39.7534,31.2120,40.7192,66.0610,65.5914,155.0315,154.5784,126.5170,185.7367,263.9950,-38.9966,165.5627,-70.7658,145.9862,128.6302,176.1565,93.6259,110.8821,213.6351
-46.7671,-6.0523,27.8762,14.9323,62.5801,151.2172,82.7733,138.3492,102.6697,310.5617,-12.4551,140.4453,-48.7903,154.1682,109.1563,210.8694,62.1581,123.9267,193.0262
-51.3293,-47.0803,14.8357,-39.1665,62.7070,97.8925,53.6395,99.7512,78.6662,307.7681,16.0970,78.6170,-12.7677,112.8775,124.2965,163.8213,41.3145,78.7993,163.4386
-38.8619,-59.5794,1.6457,-73.4468,76.9651,50.4087,50.8313,53.6805,62.6571,234.6877,47.6791,0.8872,28.8860,48.4637,121.3957,74.2213,14.6400,35.3195,105.3855
-14.6314,-45.2831,9.5930,-79.1785,94.8225,15.4426,29.8954,20.4052,22.4532,168.5494,91.0600,-38.6732,74.4045,12.5903,72.3683,28.2484,2.5495,12.6258,55.3585
5.8438,-37.5373,40.5758,-74.5549,96.4709,-30.0982,13.1765,-9.7781,11.8093,149.5298,108.1652,-54.1457,80.9622,-12.0501,41.6878,1.2425,18.2005,-39.6421,49.4559
-2.5119,-69.6443,42.6748,-94.2469,56.8977,-80.5642,10.5578,-26.8417,27.6684,141.7709,57.3477,-100.6927,19.0570,-59.1369,54.0391,-51.0180,14.4057,-102.5900,60.6937
-29.6354,-100.3038,13.8573,-107.0890,-0.4405,-95.6473,1.3856,-3.1875,20.7063,129.2490,-12.1802,-124.1268,-43.6546,-70.9705,65.6664,-57.5032,-11.9764,-83.5500,59.6743
-24.1553,-46.7557,19.7673,-43.4195,-6.8607,-36.7801,-4.3246,55.4984,8.8973,135.1731,-25.3534,-36.2528,-43.8915,7.1782,68.5509,24.8282,7.0839,11.1204,62.3351
1.5438,60.3838,44.1063,53.2508,25.3292,49.8693,9.2157,95.6892,28.3598,154.6747,-18.6864,86.7987,-40.1991,94.4092,75.0260,102.3318,36.1092,57.3531,69.3124
-25.4528,87.5408,-10.5108,57.9777,-10.7773,46.2726,17.0625,81.9675,47.3903,138.2608,-76.8266,91.6878,-97.7657,83.5593,64.9375,85.9018,-39.9656,-0.1385,47.0822
-92.1794,10.7245,-141.4696,-23.0826,-135.3761,-41.7257,-8.3899,58.6942,23.4551,73.1734,-175.8022,-7.4514,-170.4082,10.4624,32.7994,1.9004,-168.6144,-66.8864,6.8836
-112.9962,-44.5988,-224.4505,-51.3080,-220.4616,-50.6926,-40.3096,86.4641,-14.1562,36.5651,-216.3027,-58.6828,-190.6595,-13.2553,3.4644,-58.1314,-182.4762,-44.0650,10.5142
-70.8006,-13.2414,-180.9879,18.7647,-176.3523,61.9951,-25.1005,142.9838,-9.0279,76.9688,-162.1333,-10.9713,-151.9851,27.9937,-16.4738,-41.2377,-74.1603,32.9726,70.0994
-7.4174,40.1932,-66.7148,92.1052,-77.5819,137.3108,21.6455,167.3204,17.9008,109.1931,-70.3721,47.8298,-86.4046,64.6653,-39.4954,7.8624,26.1846,63.2036,119.4386
50.6166,76.1809,10.3253,108.5499,-34.5690,101.3188,18.8485,153.2966,-3.3967,61.9363,-20.7306,72.6466,-49.0430,75.7859,-64.3727,29.2146,50.9856,25.2282,101.2776
82.0508,113.7120,15.0020,95.3372,-40.4513,53.7609,-40.6772,122.7409,-60.7971,6.1218,-24.5257,103.2138,-57.3214,94.4519,-69.0266,44.7221,19.1058,-26.0106,31.6621
80.3415,123.7327,-6.2430,62.4200,-34.3531,38.9916,-75.7095,85.3427,-85.2659,5.0002,-19.9549,127.0962,-47.7488,113.5924,-36.9870,71.8535,-26.3861,-55.6068,-33.0456
69.1536,71.8046,-26.5616,2.0700,-31.5107,12.2725,-73.0236,69.6332,-90.3990,15.5695,5.5993,89.0703,-5.3652,101.0897,1.2160,67.2513,-56.7000,-60.1338,-65.4349
57.0844,16.6473,-50.7919,-36.7073,-63.4559,-2.3147,-87.9360,93.6082,-123.8709,11.0347,-3.6827,25.8245,-6.4100,72.9402,-5.6228,41.1401,-77.5987,-36.9823,-75.9917
42.2621,22.6052,-47.2735,-9.4745,-72.1145,30.8822,-99.7865,114.7053,-140.4767,15.9507,-27.1921,9.4734,-38.5405,57.8080,-41.7879,39.0593,-78.1921,-2.4213,-62.6327
40.8293,58.2414,-9.7703,28.0083,-15.8694,41.4925,-57.1601,103.2938,-89.3623,34.1189,-1.0727,12.6890,-21.2115,46.3298,-36.5379,22.4361,-35.3678,9.9619,-15.4079
38.9472,72.6521,-17.0285,5.7052,24.1963,-10.2541,-2.4302,96.7284,-22.0973,68.0256,14.6646,-6.8210,-8.4712,38.2855,28.4995,-28.8928,-9.6617,-2.4100,26.7244
7.3039,77.1302,-90.1823,-30.5793,-9.3090,-24.0573,8.4334,118.9800,6.7385,121.0555,-51.5442,1.8371,-75.9965,61.9829,97.7045,-32.2452,-54.5596,0.0769,20.5858
-16.3922,107.2605,-135.4265,5.4289,-43.5864,63.7831,0.8995,151.8186,12.3604,152.5079,-111.6147,75.8517,-134.0588,117.9124,112.5908,29.1590,-77.1233,49.7401,6.2833
13.3313,167.9922,-116.0528,92.2819,-24.4821,168.8829,4.7687,193.1180,4.6838,139.9658,-86.7736,165.4131,-112.0821,179.0807,58.2791,81.0265,-13.5439,125.3883,36.2477
58.9113,224.1557,-85.1822,148.3576,8.1661,223.4985,8.9495,236.1327,-24.4573,118.2782,-40.8534,234.5617,-81.8315,233.3762,-34.0562,131.7263,38.8231,178.0256,77.3208
75.2001,238.9121,-52.2381,164.2458,39.1320,256.0093,18.0682,242.7007,-45.9688,99.5328,-7.7019,285.1165,-58.0545,267.5196,-109.7586,209.4625,39.3944,200.3590,94.6546
74.8827,229.8522,-10.7840,178.3297,85.5608,266.5572,47.5576,220.7993,-24.7887,88.9165,49.2540,289.1976,11.6630,262.1888,-122.0200,229.9798,64.8851,218.4131,117.1687
75.8166,238.8793,1.3452,193.6628,112.2652,233.9678,79.5355,233.2152,22.5673,137.0079,94.1486,238.9897,71.7701,237.2524,-56.8100,156.7156,107.1326,225.8895,141.7252
83.1781,250.5452,-4.4861,200.3878,95.0885,217.1418,90.2471,283.3596,51.2258,221.3095,83.0226,199.0658,60.0762,231.9934,34.4720,101.4456,113.1896,211.2222,131.8159
100.0652,226.4975,24.9862,202.8661,86.4975,254.5970,91.9643,305.7209,44.5756,214.8271,68.3768,206.8757,42.6957,239.3065,59.5921,127.4648,116.4831,206.8824,121.1963
109.4432,183.9367,63.8942,183.1310,114.5864,260.3155,103.4822,269.1396,23.9741,92.5830,83.1059,208.3857,65.4800,219.5302,10.4208,156.5515,118.2448,209.5131,136.7621
98.5675,144.0682,52.2357,110.7932,121.5666,161.7744,94.9162,185.3582,2.4341,-23.7904,83.5826,142.8897,75.9526,151.8197,-15.4105,106.9832,60.6783,143.0435,98.0136
73.8044,82.9427,-4.5139,5.1283,59.8133,14.3002,24.3023,72.7058,-33.2830,-67.0781,48.4617,28.5584,48.9792,53.7037,21.2607,-5.5392,-24.0510,10.8702,-24.9026
27.7688,7.9043,-66.3875,-66.2309,-33.3015,-79.9866,-61.1297,-10.6477,-67.6860,-70.9449,-8.9312,-46.7499,7.2856,-12.4772,53.7488,-75.2902,-67.6460,-54.4537,-109.5823
-27.4578,-34.4205,-90.1833,-68.5419,-82.5822,-72.9173,-65.6611,-8.2716,-56.1560,-56.6585,-68.6030,-29.4951,-36.5489,-2.4349,53.4717,-25.7150,-78.5584,-3.0389,-82.5802
-40.7351,-50.1837,-50.4116,-46.8529,-60.8002,-13.1063,-1.1032,31.0401,-9.4557,-29.1543,-83.9033,9.1485,-56.7336,25.5832,55.0911,53.5729,-69.5037,42.1075,-21.7198
-15.7004,-67.4765,1.6071,-51.4871,-14.6304,3.0262,39.2133,30.6863,18.1165,-7.4975,-40.7713,-12.2494,-30.7589,5.3114,57.5174,44.1341,-44.4084,2.4846,9.9276
-12.1106,-63.2911,-5.1275,-61.7807,-7.9456,-32.6050,31.4187,10.4389,14.8398,4.5512,-7.1214,-35.7833,2.3076,-13.1723,36.8235,12.1431,-54.0175,-47.4027,13.7762
-33.4090,-39.6003,-57.6868,-57.3465,-57.0269,-51.4948,-4.0861,-6.0222,-11.2306,-0.2617,-31.0021,-4.9436,-8.4544,8.1680,-0.4228,39.0642,-112.5851,-58.6180,-38.8173
-48.2301,-55.2685,-111.2016,-74.8786,-123.4041,-47.1802,-72.5683,-56.6107,-68.3977,-48.0403,-73.5404,-4.6286,-45.0703,-6.3949,-40.8803,36.6194,-161.5717,-71.3878,-143.4434
-63.5089,-107.2517,-142.7983,-107.5090,-148.8501,-37.3875,-136.9076,-119.4916,-126.9558,-125.7457,-84.3473,-66.3604,-49.5862,-71.3983,-75.5591,-25.3614,-168.0155,-71.8916,-199.2801
-79.4305,-129.5944,-122.8583,-92.1850,-116.7767,2.0568,-142.5335,-133.0540,-141.9069,-183.4872,-61.6604,-82.0266,-10.4631,-93.8522,-97.2427,-26.5861,-139.0110,-12.9665,-165.2648
-76.4536,-111.0318,-66.2454,-43.2224,-74.9524,39.3887,-126.2614,-123.2963,-133.9848,-200.6911,-33.4575,-38.5276,25.8973,-68.1121,-112.1513,29.8899,-91.2410,56.0824,-126.4776
-55.3665,-74.0897,-33.5918,-17.4247,-47.1696,33.1333,-126.0177,-111.1434,-134.0393,-188.6827,-11.7555,-24.0395,39.5686,-53.8816,-107.3447,32.4424,-56.9032,75.2355,-119.3539
-14.0995,-15.2954,-9.8565,10.0729,5.8333,58.7965,-94.2634,-46.8913,-118.5811,-161.2711,19.5910,-7.8886,59.8661,-20.9830,-61.3065,22.0020,-34.4882,81.3025,-85.9062
29.9015,37.7343,36.4482,56.1090,65.7685,137.0969,-32.7458,29.9299,-79.8318,-123.5878,47.2002,60.4922,73.2590,44.4675,-22.2801,75.9002,-1.9637,99.7242,-29.0853
13.6595,26.1032,36.8757,50.6202,54.1690,133.8550,-5.9048,17.3484,-44.9822,-70.7891,31.6535,76.1530,41.8640,48.5207,-46.1033,104.8474,-2.9975,87.6674,-14.7018
-48.5525,-49.4578,-12.6548,-23.8342,8.5110,32.3507,8.0183,-45.3300,-15.6110,-19.6687,13.3592,-29.7609,23.0005,-35.4190,-77.4152,40.5955,-56.2760,37.8726,-31.3765
-59.4731,-133.9868,9.9580,-90.6457,35.5075,-22.9452,49.6021,-58.5905,7.5331,1.3622,62.9435,-146.4939,80.6237,-110.8272,-49.5321,-19.4424,-77.1862,-10.3257,-12.9408
-36.6842,-194.5797,84.1405,-126.5587,89.8791,-28.1080,69.3677,-48.4644,10.8563,13.6666,117.2314,-194.0317,131.8505,-136.9149,-3.2412,-19.3582,-54.6701,-50.5897,36.8187
-72.4969,-229.7901,52.1252,-175.5755,56.2450,-96.4068,56.3603,-79.3193,25.2397,40.1252,72.5138,-225.1449,82.9677,-163.1491,18.3455,-43.4064,-81.0021,-98.4800,53.2941
-126.8212,-239.4633,-64.4658,-232.5817,-30.3351,-197.2443,61.4939,-130.6738,68.4759,43.5673,-24.8715,-257.3084,-11.7491,-195.1203,37.6559,-118.5162,-138.8521,-139.1801,10.3102
-125.8789,-222.8662,-115.9753,-248.9548,-74.5377,-222.1754,51.6453,-149.0833,73.9574,25.4805,-80.2426,-238.2339,-73.5507,-184.7499,54.1230,-141.5408,-144.7239,-137.2375,-44.5566
-111.3594,-190.8866,-94.8814,-211.7930,-81.4427,-167.0203,-5.4403,-114.5035,21.1106,42.8946,-98.3817,-179.5247,-103.3321,-135.0515,46.5488,-77.3976,-125.8836,-93.5170,-52.7702
-107.6907,-161.8609,-73.1587,-153.3138,-84.0387,-95.6329,-21.9847,-66.7018,5.5143,70.7342,-106.1766,-151.4213,-113.9585,-112.2063,38.6303,-44.9860,-121.4184,-75.1313,-32.8192
-83.0976,-148.5226,-64.1689,-123.5190,-84.2487,-73.0832,29.3723,-72.3091,59.8843,56.3827,-103.3995,-170.7967,-115.4305,-143.4135,55.2966,-110.9114,-103.9859,-124.8514,-47.1869
-72.6911,-157.0177,-75.7500,-148.2308,-96.0159,-126.4183,45.3724,-110.3996,91.5516,51.2037,-105.9720,-191.0546,-122.0974,-166.1731,79.4938,-165.4049,-83.5183,-161.2213,-72.6840
-95.0314,-174.2815,-96.9545,-183.2495,-109.6309,-182.2243,10.3559,-94.1330,61.7832,82.1243,-109.2925,-170.1153,-116.1027,-125.2754,83.2516,-118.7064,-69.4211,-99.1236,-35.1958
-78.0116,-154.9822,-71.9508,-158.7624,-88.1680,-152.6323,6.7998,-34.9805,32.6252,78.3190,-91.5337,-113.7423,-98.7050,-63.8758,54.3970,-46.8786,-26.9148,-10.6298,20.7640
-26.8600,-88.9068,-20.3107,-88.4575,-56.7432,-79.2920,26.8049,-20.7332,34.1170,45.1576,-79.7165,-73.0065,-110.1058,-51.4198,18.6728,-37.7069,2.6196,-5.4413,-12.2382
-25.6294,-50.3232,-21.2491,-59.2121,-61.2106,-59.1853,18.5943,-64.8978,42.8275,45.3375,-90.7085,-81.2324,-130.5281,-81.9911,12.7306,-68.1975,-31.9385,-57.2865,-94.8892
-48.6643,-68.7975,-52.0368,-84.6094,-71.0101,-91.8348,6.7208,-113.5880,48.1546,31.1942,-88.0307,-88.1676,-116.5866,-97.4039,6.3592,-84.5239,-42.8720,-79.4620,-97.9250
-25.8331,-49.2923,-35.4452,-63.0062,-44.9433,-90.1794,20.4898,-108.1532,51.8859,-34.1635,-67.4529,-22.7021,-94.1956,-55.8876,-36.0864,-56.4394,29.4426,-37.7209,-14.4017
11.5794,50.4757,21.1569,60.4139,7.0265,8.2884,49.6666,-9.5473,59.7742,-52.8249,-36.6757,84.5127,-52.5144,33.1876,-43.8968,16.4333,97.6389,61.0970,71.0140
31.2948,137.2819,72.9399,194.0650,72.7638,154.3632,86.8961,128.6278,76.6706,11.1145,39.1926,144.8047,64.1837,113.6351,28.1810,78.6670,121.7515,163.8474,123.8135
62.3092,166.4716,105.5733,238.6692,125.2473,220.3394,100.7443,190.2924,72.6072,53.2239,125.5421,153.9443,170.5175,146.2372,68.4044,90.9439,141.4087,191.2005,137.6037
93.2203,184.6647,111.8083,211.0788,121.8922,162.3970,67.4240,155.4196,32.8660,31.3031,132.6730,165.2314,150.5927,148.1829,8.6816,94.4511,134.2829,139.3511,102.6030
93.3741,191.5291,106.6867,170.6492,108.7468,78.0742,57.8644,91.5622,27.7387,1.7850,109.4084,176.1650,108.9968,138.8231,-33.5818,107.0330,96.8438,76.3806,61.2565
92.2125,173.8717,125.6066,144.7231,166.5147,59.3717,118.0921,35.4884,88.5312,-28.8612,157.2617,166.0624,174.3758,117.3280,17.6252,91.0950,96.6347,42.4517,59.9482
106.6947,167.1725,148.5444,138.9241,228.8712,83.1107,138.9474,-0.4473,103.1371,-94.1832,207.6826,152.7333,241.9705,95.6991,59.7154,61.4475,114.2874,35.8789,56.5292
96.6334,160.5606,117.0714,129.7274,179.1752,70.9555,44.5732,-17.2762,14.0991,-156.5965,167.2236,133.1591,205.3884,76.8399,18.6562,46.2935,82.4551,38.6292,6.8661
61.9632,129.8994,51.6487,107.6827,81.8006,19.7585,-49.6619,-28.2645,-52.5179,-132.3434,120.2660,99.3246,163.8369,58.8169,-26.7783,19.6249,56.6553,33.7490,-26.4027
66.2657,134.1284,49.0505,132.8265,72.3615,38.2953,-45.9613,15.3298,-31.1554,-26.3538,149.6345,104.1023,190.4917,81.1821,-9.8674,9.8511,105.5057,45.8313,18.5067
123.9676,180.3932,125.4109,211.1617,110.7316,161.5261,-27.9737,136.0480,-39.7731,37.8955,169.9085,156.7222,184.4907,142.3610,6.3412,68.2582,160.9873,86.5023,76.0991
160.1567,175.5581,159.0437,222.7901,74.3881,216.3862,-82.3980,194.4637,-124.4300,-7.1550,104.0420,158.2892,83.2412,145.1407,-42.4922,99.8921,142.6041,78.5542,59.7383
129.1271,121.6729,80.3218,128.3905,-7.3752,94.8785,-154.8671,110.8864,-177.0450,-69.5637,27.3099,78.8754,-9.2045,68.7352,-97.5093,14.8914,80.5506,-10.0313,8.4181
90.6684,91.7241,4.4861,42.0959,-25.1103,-29.3452,-179.1366,31.3481,-173.3168,-81.9392,21.8412,22.0241,-5.8491,23.2342,-89.0091,-61.3820,42.9766,-72.8809,2.0261
92.2519,61.2754,18.1450,12.4475,-13.7303,-25.8581,-198.1458,25.7958,-198.2013,-103.4485,25.0928,34.0626,2.3492,36.5912,-68.6898,-23.0846,39.9477,-65.5265,4.7211
78.8031,14.9837,8.4512,-10.0370,-96.2541,-26.4162,-280.2941,-19.6451,-256.5475,-136.1555,-60.6684,43.4015,-97.0637,22.1538,-95.0290,4.3794,22.1509,-84.6235,-68.8366
20.7264,2.0149,-91.9537,-33.0260,-240.3093,-109.8865,-396.8289,-103.5116,-300.6060,-116.6591,-175.4197,-7.6276,-216.0117,-39.9641,-119.5760,-78.1820,-40.1887,-156.0330,-187.2632
-15.8624,-32.1401,-146.6327,-70.8303,-289.4362,-171.5398,-454.8741,-131.0362,-340.3516,-100.6577,-181.6704,-104.5128,-204.2478,-104.0949,-116.3386,-158.2041,-101.1025,-198.0961,-241.8587
-12.7101,-143.4384,-93.3343,-150.4209,-231.4853,-175.0278,-429.8840,-138.6447,-370.9451,-144.3653,-109.5158,-176.5709,-123.3066,-145.2635,-138.4445,-130.6871,-110.5109,-186.2406,-208.0552
-24.2300,-210.9881,-58.4979,-198.0060,-200.1007,-175.1104,-384.1656,-161.9902,-348.5887,-155.5809,-97.9130,-160.6598,-122.5061,-140.6895,-175.1256,-60.4973,-87.9372,-158.5452,-149.9281
-32.7961,-165.3661,-76.1973,-162.5397,-213.2525,-174.2615,-352.1566,-145.4061,-296.6020,-110.5296,-127.2538,-101.4795,-159.8950,-99.9146,-173.7377,-40.6733,-62.7041,-142.2872,-110.2027
16.0778,-114.9114,-36.4586,-125.3104,-166.9149,-167.8718,-306.1289,-113.5585,-267.6054,-115.9817,-78.7408,-79.0594,-117.4426,-78.4823,-166.1418,-53.7074,-21.5338,-151.0689,-82.5213
78.4596,-89.3345,59.1785,-99.8642,-71.7494,-160.7502,-235.7323,-119.8922,-229.3924,-159.6726,9.0625,-65.1860,-39.1271,-78.2038,-170.1064,-51.8866,42.7717,-161.6691,-53.7904
84.2351,-25.9330,94.4258,-10.9168,-37.4814,-110.8193,-161.2761,-109.9657,-137.6168,-149.5606,16.8087,-16.5170,-21.8386,-60.4533,-127.6320,-57.2470,98.7046,-129.4727,-25.7457
52.3018,23.4382,56.6047,80.3837,-55.3800,-17.3090,-90.5889,-60.4961,-44.1645,-118.1124,-21.8851,23.5872,-30.3056,-35.1791,-61.5552,-71.9672,111.6843,-65.6136,-2.5209
33.5956,-10.8384,45.7212,66.6338,-26.5128,42.2384,-37.1886,-31.7333,-18.6024,-117.6875,-0.4455,33.2568,10.6915,-15.6815,-46.1576,-27.4225,95.7870,-12.7880,32.8251
35.2934,-75.7717,101.9352,4.7257,42.6268,36.9871,-23.1877,-24.5142,-40.0436,-116.7579,56.0939,28.0051,68.5298,-0.8741,-35.8611,51.0030,102.1327,19.6244,89.0529
30.4906,-112.4127,142.8594,-24.4853,62.8283,-7.2009,-25.6220,-22.7763,-39.6142,-110.0801,56.6137,-24.9592,70.8974,-31.3922,23.8080,31.6308,115.9744,22.8933,105.9301
-0.9043,-123.5207,94.2348,-55.4349,28.1256,-82.0893,-6.9451,-72.1298,-2.7421,-119.3606,21.3130,-125.8995,47.0301,-115.2645,67.5323,-83.3854,56.4930,-26.2033,19.8299
-30.5973,-120.0630,15.1597,-105.6394,3.3382,-154.8411,1.4872,-157.7883,14.3748,-128.7690,27.5798,-197.2888,68.2066,-179.8722,62.6981,-163.9008,-55.9073,-114.6884,-111.4462
-21.7563,-125.9882,-12.8864,-138.6929,-12.9574,-172.1136,-54.4878,-197.3454,-36.5408,-145.8494,40.8996,-218.9839,79.8676,-200.1700,44.8455,-188.0452,-109.5295,-195.1884,-175.2555
-10.3422,-168.1325,-29.4265,-167.9026,-64.6168,-159.0925,-142.5737,-188.8333,-125.2211,-197.9389,-15.4656,-236.2507,-2.6819,-218.1427,-12.9272,-205.4783,-101.2181,-224.4715,-148.3939
-33.7969,-225.6932,-58.9906,-208.0316,-98.2508,-166.0155,-165.4694,-172.9598,-168.1193,-247.3997,-62.5716,-238.6898,-61.3761,-218.3580,-98.4109,-181.2726,-86.7553,-176.4185,-63.2549
-36.0072,-244.5586,-13.7787,-205.3706,-14.8025,-159.9099,-75.7506,-130.5968,-112.4350,-233.8055,29.1385,-195.3467,62.0322,-161.5287,-79.4334,-102.7630,-24.5652,-72.8376,54.8500
17.2073,-201.5939,96.8172,-150.4265,137.2099,-121.0847,71.6472,-66.6008,10.9128,-169.9958,180.0928,-154.5059,243.3783,-102.4742,60.7788,-72.9930,78.5700,-6.7344,138.1157
55.5875,-151.5914,132.8133,-130.0722,201.2367,-120.5516,168.5689,-51.1756,104.0517,-131.7051,214.2250,-185.5002,267.0822,-123.0735,158.2802,-144.6085,91.0038,-51.7675,117.2293
41.8391,-169.9227,85.9067,-173.7021,146.6762,-168.1638,156.7095,-95.0372,96.1896,-167.2477,144.6775,-258.2117,178.3046,-195.2846,135.0678,-222.1410,12.9040,-141.8663,42.3941
19.0345,-231.2894,59.2029,-206.1382,83.2377,-173.2380,93.0806,-139.2512,36.8806,-239.5585,87.8582,-277.3930,118.0483,-230.7244,65.0154,-222.5150,-6.4038,-154.9576,22.7930
1.0007,-251.4651,47.9735,-201.7963,73.2064,-136.6201,82.4160,-167.4889,34.6643,-278.9458,55.0720,-236.2324,74.8413,-222.5783,8.5890,-195.8271,43.5388,-104.0948,70.7155
-13.2650,-220.5816,26.3936,-197.4111,96.5573,-141.9002,145.2836,-181.3786,100.1452,-263.2544,40.2972,-212.8575,43.4955,-216.1094,-8.7690,-203.7838,63.5800,-80.0953,108.9734
12.4582,-171.0478,52.2017,-171.3705,137.5993,-158.8111,207.9558,-151.6366,145.9711,-224.1462,92.9380,-208.7431,103.2322,-196.2066,26.7942,-206.0223,65.2550,-68.3824,86.6899
71.7340,-118.4719,116.1853,-106.1306,181.4810,-112.3449,213.4985,-107.2152,128.6952,-226.8139,184.3078,-163.1810,221.8139,-142.8041,64.2488,-163.4560,95.9280,-25.7941,30.6996
108.3104,-93.2606,145.8231,-65.7862,197.8596,-56.1954,172.0802,-119.7174,81.8810,-299.5971,223.3947,-96.6719,278.0106,-103.8640,49.4726,-117.1911,121.4348,-10.4419,-3.5983
114.4790,-90.8701,147.2580,-69.3239,175.0591,-67.1128,112.6552,-161.2727,39.8854,-348.7364,199.1517,-59.2810,246.4459,-96.9929,15.4336,-94.4401,113.9453,-63.3578,-12.4032
109.8275,-59.2186,127.6867,-66.1035,115.5124,-118.4080,59.5058,-166.7796,23.4291,-291.3960,139.6956,-33.2585,162.2732,-81.4970,3.8487,-86.7525,89.0502,-133.9716,-27.5079
83.6285,-25.8425,57.0146,-64.6552,35.5890,-161.1709,43.0508,-169.0567,50.3433,-221.5056,49.9443,-5.3119,49.1530,-65.8089,-3.9774,-105.2060,67.7871,-178.2984,-30.0761
48.2948,-50.3656,2.8614,-83.9199,-5.1270,-170.0041,68.9083,-188.6944,94.7446,-222.0987,-16.2060,2.3632,-28.4546,-75.5266,-27.0248,-125.6175,83.3521,-169.9741,18.8295
51.1618,-72.8137,48.4943,-75.5039,39.9881,-127.6947,98.7350,-154.2747,99.2529,-202.0736,15.0734,-6.3949,-7.2285,-73.8099,-49.4766,-97.5330,131.6554,-102.0016,84.5067
96.2381,-28.8168,129.0191,-35.3927,129.0247,-69.4441,104.3497,-60.8350,60.3807,-125.7926,114.6509,-14.4571,83.8520,-39.3320,-38.8674,-52.6625,147.7651,-47.9521,104.0968
132.8724,21.6509,154.3732,-16.9297,179.9043,-47.0423,96.6869,-5.6954,33.1421,-98.6146,179.0304,-7.6405,163.4097,-2.9703,26.9099,-35.4754,113.1010,-60.4736,72.5495
116.4623,30.3874,119.2708,-16.0224,143.2541,-52.2131,75.9732,-28.0723,40.9319,-119.8113,143.3911,22.9479,158.0069,15.0798,100.9575,-25.3650,65.1406,-91.2343,10.3883
51.8335,10.4028,24.9568,-32.4860,20.4533,-93.0971,19.4845,-97.8413,46.5040,-108.4942,22.2948,13.0066,38.5269,-20.5917,95.1034,-64.3138,7.0517,-142.9433,-64.8377
-9.1921,-56.4447,-84.4654,-113.8514,-107.0661,-202.1632,-60.5949,-191.4264,15.9353,-113.8797,-97.5512,-98.3408,-112.5866,-133.0045,19.5518,-197.2487,-43.7158,-242.7221,-107.3469
-24.6121,-141.8920,-93.2271,-199.7805,-117.4572,-273.8280,-106.0594,-242.6742,-32.6753,-172.2001,-120.4179,-190.1051,-156.3352,-209.9756,-27.2242,-265.0585,-20.6731,-252.7884,-73.7762
-2.9744,-147.9269,6.4973,-170.6731,1.9615,-169.3727,-68.2434,-182.9231,-42.6365,-179.2599,-39.4107,-124.8197,-69.9660,-141.8228,-16.4183,-139.6706,69.6273,-88.8832,18.5670
32.4242,-93.1632,91.0395,-80.8555,126.9842,-5.3198,41.4217,-85.0925,19.9243,-121.7757,64.9500,-16.1007,44.4904,-39.7346,11.0134,-11.2843,141.1201,40.7742,106.9393
65.8886,-82.2735,107.6247,-57.1706,153.5663,11.8774,129.3462,-62.7064,94.5951,-118.7882,111.4851,-21.9293,99.4558,-44.5892,41.5031,-53.8460,158.9068,-9.6405,134.1390
71.2645,-107.4173,86.4866,-76.6901,82.9628,-65.1431,85.6344,-88.5212,71.3751,-174.6402,66.3362,-82.3627,61.8966,-99.1178,53.3984,-141.3530,138.6865,-91.9100,92.9079
36.3584,-120.9567,26.2147,-85.1340,-36.0921,-94.0770,-63.8318,-109.6848,-38.7617,-198.8260,-46.9194,-110.0437,-63.2173,-130.9441,0.8196,-169.3696,90.4936,-121.3603,34.7228
-15.0524,-147.1812,-54.6538,-107.7485,-139.5778,-112.9164,-153.7189,-157.7003,-87.6245,-187.4383,-148.7954,-133.8883,-189.5886,-172.2991,-81.4200,-203.8834,50.3203,-166.7809,13.3979
-52.2196,-173.6105,-75.0014,-119.3634,-143.7770,-150.5723,-91.1014,-198.5981,-10.1068,-168.8684,-148.3223,-146.7631,-179.6169,-196.4397,-90.0628,-225.3052,64.2374,-167.1722,50.9106
-48.2341,-155.7562,2.3468,-76.7190,-11.4038,-115.8504,53.6797,-136.6669,99.7901,-124.5130,-20.2151,-116.0983,-4.4020,-144.6518,3.8307,-164.4795,119.4749,-62.8172,152.6721
1.1605,-135.8401,111.2973,-51.3588,164.8286,-35.9270,189.2829,-26.6212,174.7013,-60.3402,144.2068,-89.5382,188.9521,-75.8093,128.1126,-90.1303,160.4251,-3.9674,265.6066
39.9112,-159.7821,146.1942,-97.6254,220.9993,-38.2669,269.0015,-11.5037,227.2095,-29.6156,197.1390,-96.8946,234.2929,-66.7089,193.2903,-79.8523,146.8189,-70.1661,273.7770
16.0619,-189.3889,65.5406,-146.9038,105.9025,-105.1848,237.4755,-94.8327,220.8856,-79.7532,89.4120,-122.2075,114.1444,-115.6485,152.8934,-130.0395,79.4951,-142.5482,147.4035
-40.6950,-195.9708,-58.0026,-160.0901,-64.2135,-153.4488,90.4543,-191.8642,118.6446,-200.0510,-89.2072,-184.9331,-79.9682,-210.3534,39.6171,-235.4762,-2.0957,-176.7661,-4.0999
-90.3510,-187.0288,-129.6361,-166.1068,-168.9308,-193.3298,-58.8703,-271.7487,11.2352,-288.3360,-232.6821,-248.1259,-253.4367,-299.4754,-60.3215,-322.1554,-56.7102,-205.2433,-89.8483
-128.8078,-157.3303,-136.2394,-153.8278,-183.9057,-220.9908,-96.7707,-312.4726,2.2843,-254.0302,-271.5036,-208.7654,-305.4721,-284.8891,-99.6443,-272.4868,-63.9155,-176.8661,-102.5714
-122.6990,-119.2390,-96.1072,-118.1228,-107.3523,-192.8649,-26.4631,-276.9643,57.9105,-155.2017,-161.9815,-103.1702,-174.1105,-180.3060,-88.5109,-142.5610,-18.2318,-89.3767,-46.4017
-54.5037,-90.2379,-20.6288,-99.8034,33.2244,-143.3886,69.7792,-183.6083,91.1610,-93.8177,24.4603,-62.0282,33.1980,-98.7076,-48.0661,-77.2320,38.5732,-35.9954,40.3259
3.3789,-54.4458,30.8596,-91.1943,118.3342,-119.1649,111.3744,-93.7695,77.3412,-68.7184,118.9011,-81.5223,126.2444,-72.4831,-19.5213,-72.1249,34.5546,-31.1500,69.9755
3.2553,-30.0924,9.4145,-69.6471,72.0233,-102.0053,75.5033,-62.5553,35.2816,-68.4553,75.9215,-90.3833,76.6440,-74.6223,-48.2635,-73.8509,-17.5615,-42.5677,21.1274
-13.8000,-58.1034,-35.3995,-75.3432,-15.3532,-91.8593,9.3535,-109.4151,-8.6908,-117.7521,0.1411,-85.5112,-6.1924,-97.5101,-105.5395,-84.4359,-36.3027,-65.6194,-39.3902
-38.5713,-80.0752,-50.3555,-89.7195,-45.1603,-72.3575,-36.1685,-150.9188,-32.6531,-139.2531,-58.9782,-40.7940,-73.2112,-80.6757,-115.1647,-35.0619,-16.7771,-11.4379,-65.4503
-89.0064,7.7543,-51.3354,4.7329,-34.7859,55.4151,-44.8361,-46.3445,-28.7680,-4.8416,-110.8219,98.4839,-115.7630,56.0086,-57.0930,145.0613,-9.0975,208.0434,-59.2210
-111.3596,192.7581,-42.6893,216.5233,-5.3667,296.3426,-0.5332,195.5111,7.1656,242.4665,-103.9898,285.7771,-80.0805,266.4716,32.3996,359.4427,-13.2573,468.9124,-41.7741
-75.4018,350.6705,-15.1455,383.4912,53.0348,476.4340,87.1933,390.2735,64.6526,425.1512,-18.7663,405.9925,32.5180,415.2275,111.1731,474.9618,-26.7734,578.8971,-41.3965
-54.2607,365.6838,-3.1149,383.0692,98.2517,481.1214,157.9570,419.7962,109.9735,461.0743,51.9567,394.3438,118.4205,423.9467,148.7850,473.5247,-70.7773,523.4865,-42.2015
-82.0042,250.8672,-23.1366,270.7122,93.3091,390.0551,197.1019,357.8174,143.7189,409.5624,39.5934,289.7677,106.4247,333.3320,156.1541,397.4243,-107.5425,418.3833,8.7476
-97.5971,169.5906,-42.3936,197.2025,75.2245,329.3272,249.7456,326.2416,196.8672,341.4034,-26.7689,227.7807,21.7705,267.7098,160.8892,318.6629,-81.8933,371.9450,94.9279
-75.6759,223.7071,-52.2112,237.8276,64.8555,346.6823,291.1996,345.0421,236.8154,273.0552,-98.6916,285.4297,-76.5814,290.1968,133.2787,299.9213,-23.1430,405.2830,145.6815
-53.6073,297.0051,-64.3528,313.4490,38.8548,403.0230,259.6989,358.7485,209.1520,217.0398,-137.5472,358.5779,-133.1364,322.6374,48.8776,308.6863,11.2199,427.7091,158.0738
-46.4089,280.8928,-64.4038,319.0854,18.9312,413.9171,204.4356,343.6702,160.1857,210.9339,-114.5282,355.0092,-114.2358,311.1600,-17.5569,303.7747,15.6163,379.0805,175.5927
-36.4156,254.6090,-40.4784,279.4753,49.1992,356.1239,209.9368,325.1526,165.1402,251.3578,-42.5086,345.7395,-32.9302,317.0493,-0.6552,320.2750,11.5398,324.4975,193.8860
-8.3289,276.8869,3.6833,273.1599,106.3131,305.3102,243.9365,309.4946,196.8561,274.1066,40.1048,372.2653,66.8360,347.8431,52.4484,348.4479,22.0653,298.6650,182.0402
28.9294,259.9725,56.7632,277.3068,127.5395,298.6029,231.7868,268.2949,192.0014,244.1313,95.3259,351.0166,130.9600,319.3697,81.9041,316.4225,52.5215,244.4901,137.9649
34.9076,160.1836,75.4868,222.9759,88.3523,267.2622,180.2022,193.7333,158.1587,190.6042,82.8486,251.4769,111.5356,220.0279,81.7173,226.9120,68.4425,161.9796,91.1942
-11.7824,64.7267,32.3817,139.5562,22.9655,183.9394,140.7406,123.7321,141.5545,156.3856,9.5782,144.8427,27.8315,122.2486,64.0513,139.6129,44.9979,112.7956,78.3785
-72.3307,31.9523,-19.0528,96.5794,-6.7620,119.8124,139.2989,94.2790,160.0343,161.1233,-45.3012,78.3108,-21.4230,68.6035,76.9729,86.3980,0.1311,100.4397,93.2998
-103.3168,5.1296,-28.0264,63.8489,15.3165,101.1434,163.0457,95.3004,183.9984,177.0572,-31.4901,46.0036,23.1431,59.2518,159.6617,90.8119,-54.8948,91.6354,88.8542
-104.5825,-65.4947,-25.8273,-13.0045,29.6929,82.4654,168.4267,103.1612,162.2133,163.3541,5.8896,32.7952,95.8761,78.1176,234.8235,148.6238,-122.9955,73.5048,54.5101
-97.6600,-132.2057,-55.9840,-94.6328,-16.3222,44.5559,119.1471,106.0288,88.6783,141.5317,0.4574,12.1858,94.6678,82.8783,213.6165,181.3761,-195.4879,19.7017,12.0642
-107.7643,-155.9073,-122.2655,-149.8925,-105.0180,-26.0969,32.9915,70.8479,20.9612,141.4166,-61.3944,-41.6770,7.4186,36.6658,150.5443,122.6231,-264.5055,-90.5119,-39.7786
-139.0221,-178.9109,-201.6028,-211.0491,-189.3307,-136.8823,-27.6171,-11.3008,6.1931,129.7964,-142.7414,-104.5426,-97.0864,-33.5693,115.5856,18.5891,-299.4078,-192.7184,-77.4480
-150.7443,-204.0010,-236.8220,-242.4057,-228.7808,-197.8114,-27.7598,-54.5144,21.3105,103.6882,-188.3332,-122.4927,-164.5823,-64.2823,60.7226,-35.3343,-250.6047,-186.1457,-49.5495
-108.5405,-162.7971,-182.1138,-177.4913,-190.3087,-122.9986,-11.6350,4.5866,1.4878,105.7796,-165.7728,-95.4126,-182.3607,-43.1003,-40.0630,-17.7902,-147.0001,-77.2532,11.9497
-26.9535,-69.4416,-68.3443,-79.0155,-78.9465,9.5922,-23.8770,89.9868,-66.1821,99.0199,-82.3537,-59.2395,-135.5997,-4.4276,-98.8995,27.1910,-67.8473,22.8224,29.8988
64.2399,-22.2477,42.3904,-44.7038,44.9914,85.9062,-13.1456,115.6069,-100.2721,28.9481,28.2868,-5.6182,-22.9410,43.0149,-55.2867,80.3126,-16.7536,43.9062,14.7445
122.7325,-42.9635,103.1912,-60.4504,105.3380,99.4081,53.8043,91.3626,-51.2539,-44.0665,102.8545,59.4955,81.7868,87.0557,33.5724,130.2206,13.7851,5.4289,-1.4187
97.8684,-76.4759,73.4747,-86.3061,62.5192,54.8945,75.2238,35.4938,-3.0763,-59.9432,75.8242,53.6395,80.0721,66.7859,82.3762,113.5550,-26.3334,-56.8689,-50.6506
17.6300,-99.3862,-17.5720,-116.6301,-45.2480,-47.9256,0.6276,-41.3476,-17.9078,-62.5957,-29.5965,-40.2831,-16.2242,-25.2539,77.4078,6.9271,-103.6994,-117.3462,-120.5123
-21.6794,-107.4455,-57.9855,-110.7532,-114.6144,-108.8568,-40.4594,-71.4710,-20.6215,-74.4629,-99.0247,-97.2274,-84.7947,-84.0973,61.2714,-77.2158,-105.5032,-135.6417,-123.7370
1.0407,-71.3237,-8.7888,-34.6577,-79.6715,-39.9915,25.4976,-10.9922,30.6495,-50.7525,-66.8535,-39.6400,-51.9992,-39.5867,50.1779,-36.2664,-38.5003,-82.0583,-43.8751
27.2185,0.4888,48.4123,44.8136,13.7270,58.4022,98.7456,59.0435,68.7451,-9.2109,11.4749,41.2483,25.4835,32.9779,30.2745,48.5941,6.1298,0.9530,30.7361
38.6521,31.7792,61.7513,41.6673,74.4139,51.9440,113.1144,40.3749,68.9985,-23.6723,60.6177,43.3408,72.3264,35.3560,23.0952,47.1335,13.6663,22.9092,23.2088
51.6912,-4.2186,57.2562,-8.4583,71.1955,8.7970,91.5551,-20.0605,50.5030,-68.2164,81.9997,6.9401,103.2962,1.9810,47.9819,10.5702,-1.2668,-21.3837,-54.2814
52.5688,-38.8723,51.3056,-19.1176,38.8868,41.6312,38.4276,-19.1531,-2.7680,-50.5262,103.1295,9.4962,145.4527,14.7182,58.7686,51.7112,-47.2301,-43.7663,-123.6954
27.8831,-47.1211,34.3940,-19.4712,9.1366,55.2501,-22.4940,-3.3991,-59.3917,-1.2232,96.3636,0.9451,139.7719,20.0859,27.1992,86.0897,-92.7059,-41.3030,-141.2538
-5.0251,-60.1755,4.5037,-60.6038,-24.1778,-41.2098,-53.2174,-63.0982,-63.9539,-10.0770,29.0219,-82.3952,39.4449,-62.6774,-14.3120,-10.4031,-96.9926,-77.8807,-142.7180
-23.6305,-22.2625,-28.2374,-44.3210,-60.0157,-85.2720,-83.7064,-102.5120,-62.0529,-19.7429,-49.2382,-128.6277,-79.9735,-125.2654,-72.7230,-114.1345,-64.9381,-81.0911,-141.9196
-14.4265,116.1777,-39.4317,92.7693,-57.3101,35.2658,-104.5510,-12.1303,-81.4024,53.1879,-66.7395,-29.2308,-128.5417,-46.4177,-166.7049,-67.5766,-7.3981,40.0317,-95.4629
22.6136,240.9711,-9.7061,209.5443,3.9567,159.9162,-35.7528,113.2580,-49.4457,135.8302,-26.9165,101.3589,-110.2294,75.3099,-219.3475,38.3992,57.8140,174.6247,-13.7023
75.2177,261.8457,51.8908,224.4297,84.2473,200.4543,74.7847,198.4447,14.8908,178.5730,43.8937,148.2664,-41.1389,140.7027,-165.2386,96.7752,97.9328,208.0081,51.5797
132.3056,262.1692,128.3031,243.6318,155.8058,263.3003,115.2031,300.9996,23.2839,243.4512,146.4784,186.4614,83.7767,214.4893,-63.1718,169.4322,120.0065,208.9964,102.4777
168.8469,284.6706,190.3720,279.9504,219.6637,322.1395,130.3951,355.4948,27.8769,279.5186,230.7950,246.2207,194.9339,282.9590,18.0464,244.1971,138.1828,216.3651,128.7527
147.3937,252.9505,181.3701,230.9603,227.6469,248.8466,161.3676,240.9510,81.4056,182.2465,207.9045,222.6017,188.7157,227.7979,63.7127,196.2304,120.6528,161.6326,80.6764
79.0755,170.3433,92.3079,136.0380,129.5348,106.4732,112.0534,73.3935,86.8872,47.0562,87.4972,122.5019,76.5738,98.0976,56.2142,60.0680,71.1625,72.8058,-2.7532
20.6291,123.8852,-1.4532,106.6280,-3.8186,44.4534,7.2329,24.2464,32.5296,12.7310,-27.4544,83.5028,-32.4503,51.5518,15.8276,-0.3492,43.0409,51.0959,-33.5295
-5.6787,147.0347,-52.1374,145.6948,-60.6208,93.6199,-0.2151,67.6637,40.3182,67.7768,-69.6408,157.0082,-62.9650,116.1972,7.4335,62.8500,32.1165,101.6554,-26.4509
-11.4361,219.0511,-84.6703,213.2332,-51.3889,196.6542,66.8139,138.5968,101.4290,182.9447,-41.4404,266.5951,-18.4567,220.3851,30.0555,163.3125,5.1084,157.2193,-34.0902
4.7023,267.6417,-101.5598,254.5004,-50.6266,235.3431,85.0406,195.7593,114.8802,279.5348,13.2104,299.5323,47.5131,271.6588,40.4144,187.8963,-14.4779,153.5796,-51.3253
30.4764,216.5932,-78.1510,208.6754,-59.1219,139.7666,61.7360,139.7420,86.6153,173.9726,35.6633,215.3051,80.7680,196.3338,36.1459,95.7686,-3.4479,82.3660,-77.4575
28.0085,131.9193,-44.3605,138.5884,-48.5063,37.2800,25.0217,-7.4031,47.1516,-78.2927,11.1014,114.9670,67.2354,64.5504,1.2460,-11.7564,14.9996,34.4940,-107.4780
-16.3144,109.0936,-52.4959,121.1307,-44.4878,26.3576,-40.3681,-79.1293,-9.0584,-171.3199,-30.9863,79.1027,16.5002,4.8481,-73.6627,-31.9332,9.2767,59.8183,-92.4326
-80.8196,66.9040,-94.7219,60.8943,-65.2260,-15.6118,-76.3533,-68.7648,-36.9723,-81.8875,-73.7849,25.1108,-46.7279,-18.0054,-103.3295,-20.1665,-43.9554,63.9086,-38.6473
-127.7352,-43.3359,-118.5624,-73.1337,-61.4748,-117.3379,-41.1056,-80.5762,-12.3001,-33.0189,-85.8028,-74.4972,-56.6450,-66.4691,-39.9684,-35.6637,-112.1705,17.8292,-4.3191
-118.9717,-83.4200,-86.1339,-114.1134,7.5594,-113.5935,5.5618,-67.7370,13.6771,-11.3544,-17.7275,-93.7086,23.9535,-60.7052,23.6031,-19.9720,-97.3029,30.4491,35.8863
-65.4566,-48.3864,-8.5521,-49.7972,96.2948,-8.8219,47.4633,12.1388,33.4380,62.4733,82.8516,-35.7860,115.0470,4.3576,38.1548,31.5451,9.8154,102.7053,124.9653
-27.5325,-103.7844,48.7534,-59.2854,123.8108,39.8466,99.8523,52.8243,58.7432,46.4037,98.7659,-41.3841,119.7878,5.2584,63.8495,37.9058,81.2604,124.3795,187.8393
-27.8122,-207.2766,26.7060,-143.7955,70.9019,17.5221,89.1464,15.1433,35.6921,-84.5942,22.5101,-101.8738,50.5473,-53.9762,100.2855,-7.6042,45.1950,77.9105,141.1288
-37.9718,-206.0544,-40.9542,-187.5952,-6.8708,-43.6748,-4.3833,-42.8489,-28.3725,-140.8176,-57.7122,-133.5329,-36.5361,-92.3025,99.7315,-66.6620,-32.0125,-12.1930,36.6449
-43.1961,-175.8167,-53.1928,-210.5123,-42.5693,-152.6147,-58.9286,-113.4617,-34.1040,-105.4369,-100.4169,-160.4650,-111.9768,-133.5669,90.4151,-125.4899,-60.2885,-135.7177,-6.3251
-35.9907,-204.4099,22.1764,-219.9061,-17.7714,-210.8522,-19.9325,-159.0925,26.8919,-82.2117,-97.0282,-172.9367,-132.7306,-167.4349,101.8915,-135.4002,-3.3185,-199.8073,52.1767
-5.7436,-177.8078,98.6762,-146.1905,28.7505,-149.4012,29.0470,-110.4081,70.5508,-28.6808,-33.7750,-109.4317,-66.1733,-115.1416,108.6316,-75.8247,83.5255,-148.7930,121.3466
18.0953,-85.7415,102.3877,-57.7441,52.5097,-93.7072,30.2257,-38.8319,66.1417,50.9378,48.6987,-43.4879,42.4038,-36.0574,115.2413,-29.0270,91.9432,-95.6762,107.3266
4.3420,-94.5069,76.0209,-78.9266,53.2780,-118.3864,3.4720,-48.7263,31.5861,18.4050,78.6115,-73.7384,105.4613,-47.5601,129.2720,-39.3660,30.2891,-114.0571,71.3929
-15.8312,-198.4521,74.8518,-155.9451,40.9094,-138.5496,-22.6101,-91.4942,-15.4649,-105.8439,40.1249,-141.8095,68.2486,-115.8496,94.2359,-62.5951,5.2356,-140.2952,100.9117
-15.4321,-232.2953,59.4148,-175.6519,-11.6407,-130.8343,-57.7431,-106.0424,-61.6720,-167.7966,-35.1589,-172.1339,-45.5128,-161.4814,-6.6390,-90.8588,-0.3119,-166.7148,106.9789
-26.1290,-196.1741,-5.7094,-159.1411,-111.5433,-150.9972,-143.1083,-134.6959,-122.4079,-164.9992,-108.3005,-189.6732,-139.6429,-191.7731,-89.3466,-135.2422,-70.9287,-237.9515,3.8623
-63.9688,-224.9986,-64.9331,-194.2870,-197.1199,-216.0445,-253.6658,-206.9278,-193.6606,-194.4252,-153.4924,-230.8065,-166.0887,-235.8570,-103.2002,-170.3321,-150.1762,-313.4204,-93.4833
-96.2339,-321.1681,-75.4541,-289.1118,-222.3368,-314.3127,-289.5966,-296.0724,-214.8456,-260.5352,-184.0646,-291.1026,-193.2043,-297.6664,-106.3331,-200.0455,-155.7787,-345.4175,-99.4889
-102.1728,-356.0181,-73.9671,-346.9144,-220.6303,-384.4830,-261.4809,-362.8652,-191.3946,-301.1371,-215.3784,-323.1704,-253.9684,-342.9658,-148.5980,-229.5373,-136.0862,-349.5758,-108.3071
-99.8557,-299.5771,-96.0671,-316.4912,-236.1292,-378.4237,-286.6664,-380.1263,-201.7189,-285.2001,-227.3739,-292.3722,-275.2232,-328.1091,-174.0316,-228.9118,-146.6228,-347.5598,-165.6901
-116.9676,-272.5020,-135.7887,-303.2894,-266.9232,-392.8584,-348.2224,-378.1319,-226.1869,-245.5445,-226.9196,-275.1256,-246.7390,-302.1317,-115.8969,-231.3086,-176.0589,-364.8437,-200.7193
-142.2237,-323.1503,-163.8414,-365.1012,-280.5503,-462.8202,-334.9311,-382.7215,-202.7448,-238.5575,-239.8077,-322.2055,-236.4946,-320.6850,-33.0881,-262.5925,-204.6618,-388.5683,-190.4630
-120.6096,-340.3457,-131.4304,-370.5122,-235.4872,-412.1866,-272.5527,-333.4249,-187.6168,-262.7343,-217.4636,-306.9826,-216.2010,-295.7257,-32.2224,-217.2275,-187.0795,-329.7583,-151.7529
-53.1368,-280.1643,-37.6172,-270.2235,-136.7283,-227.4825,-238.8064,-236.5262,-217.1442,-275.8846,-122.0067,-180.5190,-125.2242,-187.5403,-88.8333,-72.8745,-104.8217,-193.2625,-94.7001
-29.6179,-237.0984,23.2155,-202.2807,-71.3263,-157.9591,-200.1060,-226.1189,-193.1992,-275.7100,-49.1883,-113.4562,-40.9283,-142.9076,-102.3129,-8.5949,-51.5372,-129.0873,-78.8011
-73.2655,-219.2762,-6.7420,-190.5679,-95.8020,-240.4343,-128.7083,-304.4051,-85.6602,-273.9085,-79.1915,-151.9908,-55.7716,-203.2048,-81.2273,-86.9190,-76.3844,-173.2684,-123.9777
-93.1450,-144.7989,-49.8367,-122.2599,-135.9937,-258.7196,-72.6199,-310.8968,-1.6221,-257.5630,-130.8948,-142.9283,-110.3081,-219.0140,-100.1554,-153.3160,-77.2565,-187.8448,-129.2156
-58.6007,-46.8215,-26.8375,-11.9548,-99.1160,-160.7593,-26.5736,-207.8172,24.9343,-225.9662,-110.3033,-67.5217,-102.4030,-151.4853,-134.4734,-128.1977,-4.7670,-102.8854,-39.4356
-27.5061,-0.8200,33.1550,58.3370,-3.0884,-43.4293,61.9950,-85.4134,67.1257,-187.1743,-43.2439,-6.8806,-28.6974,-74.7959,-100.6485,-57.1336,60.8160,16.4834,74.6460
-2.1332,28.1595,77.1297,101.6382,72.4776,55.7515,158.7343,15.5357,128.9660,-145.5576,8.3366,69.6891,42.2271,12.4870,-17.2176,32.9337,84.8097,87.2527,147.9701
39.3875,70.9672,90.8713,125.6676,76.1008,84.0281,160.8822,60.2757,123.6956,-126.6163,19.2859,141.1227,48.3970,78.9675,3.8129,85.4092,87.5088,70.3199,143.8393
54.9402,88.2351,68.7553,102.4301,17.8046,8.9288,39.3128,15.1838,17.7280,-140.3905,-2.9198,94.4633,2.1595,39.9859,-61.9307,33.9078,51.5078,9.8344,35.1539
38.8730,87.8773,32.5085,70.8801,-25.1393,-52.3604,-100.2445,-42.4897,-101.1428,-157.0849,-14.9462,-1.9414,-11.9727,-31.0596,-88.8167,-45.9520,-3.0008,-8.5495,-101.0793
49.7000,103.8835,40.2095,74.7312,14.0088,-12.6958,-124.7905,-35.7908,-119.3401,-160.6170,16.8303,12.6551,41.0162,-7.6816,-0.5971,-36.3735,-3.8297,13.8336,-135.6500
70.0715,105.9151,93.8260,83.6170,94.6150,42.5561,-33.7565,-11.7666,-34.3382,-141.7183,61.1383,85.9914,98.9641,51.6889,104.8760,33.2795,33.4247,20.9264,-67.9580
38.7704,80.0422,109.1927,71.7723,127.0557,42.0166,57.5385,-1.6689,54.6657,-83.2812,71.1232,96.3689,118.0036,62.5725,147.1630,76.3519,21.3488,18.6803,0.4969
-6.7908,74.1962,40.1804,56.8565,85.4122,24.9646,72.2879,29.2617,76.4226,-23.4835,45.4754,87.6143,114.0858,76.8785,170.3326,82.9645,-46.2996,17.7289,6.3048
-9.9857,84.7877,-47.6703,49.4871,-0.5005,17.9703,19.1811,48.6054,40.8743,-12.3520,6.5373,103.0199,90.7850,102.9559,179.4337,63.4279,-97.8797,-18.7233,-50.6963
-11.1697,55.2772,-76.1657,42.9993,-76.2927,7.7355,-48.8638,15.2071,-1.4370,-16.8009,-25.4601,72.9021,56.2281,68.4711,154.3736,18.9884,-106.0673,-66.9677,-116.9215
-45.6666,1.4678,-53.6126,29.6502,-76.9753,4.5618,-63.7090,-5.8120,-6.8858,-7.2561,-32.9541,3.9563,57.8737,12.6315,177.8029,-3.1856,-108.8193,-45.9424,-126.5542
-66.9999,-15.8602,-36.6962,5.3888,-18.8115,13.1968,-27.2945,13.2836,8.4731,-21.7998,-18.0798,-6.2041,92.9572,21.3579,242.0761,31.3954,-124.1622,20.2132,-99.6040
-40.9506,0.9102,-46.1373,-16.0225,-8.2694,2.7288,-32.6003,-5.3480,-16.5359,-59.2593,-7.7873,40.5374,82.4147,51.4962,172.9121,64.9969,-115.9477,19.6110,-102.6562
8.7404,32.8489,-50.3768,2.0802,-64.6552,-15.4479,-99.5701,-47.2921,-81.5375,-83.9343,-23.3902,77.7194,6.0994,48.3339,-13.9865,50.8188,-67.8807,-40.7904,-121.5075
45.3745,89.5411,-23.7121,71.8012,-87.2910,24.0691,-135.2972,-17.7935,-121.9737,-111.8310,-53.5997,105.1944,-57.9306,53.0384,-102.2882,41.7718,-27.9184,-39.2104,-110.7247
34.5422,118.9832,-6.6925,117.2173,-61.2388,88.5614,-123.0754,23.3681,-123.7955,-136.5392,-71.9288,112.7569,-68.5819,59.6588,-86.7447,61.0791,-37.1533,22.0743,-94.4213
-25.2253,52.4008,-54.2923,54.6546,-77.7902,52.8311,-136.9463,-28.7138,-120.9438,-104.9002,-79.0847,56.4211,-67.1069,15.6029,-93.3598,41.5104,-70.1486,20.0219,-92.9648
-66.1801,-29.3371,-112.7262,-33.6944,-122.8182,-44.9377,-165.7287,-68.6435,-113.7124,-46.4632,-86.9570,-3.7918,-68.1294,-17.7667,-64.2197,-11.8865,-68.2377,-25.0566,-57.8096
-33.3417,-7.6085,-73.3455,-1.0613,-89.6095,-30.6187,-140.1455,19.2364,-93.0230,-41.3162,-69.0630,19.9733,-34.6445,27.7936,30.7325,-11.6348,-6.4815,11.7797,29.9557
20.5824,48.5316,23.8999,85.1054,-0.3840,62.7766,-81.4449,108.8764,-77.9162,-70.2721,-12.0528,56.1296,23.1782,64.9713,47.9970,23.8952,57.0465,82.0858,100.0141
14.4595,13.9773,32.9354,54.3215,19.2393,50.9745,-58.0984,76.1695,-74.4911,-60.3149,21.8618,9.0435,40.9661,21.2865,-20.9840,10.9460,42.0062,54.9229,102.4881
-32.3150,-68.7241,-37.1861,-49.7454,-38.4302,-46.5120,-67.3252,4.3533,-66.8883,-11.2022,-4.7390,-54.0070,-1.8725,-31.0410,-73.0770,-23.1358,-9.6651,-24.2959,92.6621
-40.3999,-96.3947,-46.9813,-81.6408,-68.5009,-91.7082,-54.5222,-29.5978,-51.7505,18.0575,-29.7050,-54.9760,-63.7978,-46.6879,-164.5431,-18.8249,7.5899,-52.8367,121.9339
0.4172,-66.4190,10.8228,-53.2199,-36.3701,-85.1687,-0.5012,-50.9368,-32.7080,-4.8246,-9.5559,-36.7220,-94.2109,-60.0930,-300.3703,-5.4748,57.6721,-47.1695,130.2568
29.6723,-33.7510,36.6197,-36.2147,7.7398,-61.9938,56.3129,-52.9253,-2.1029,-29.6002,24.9153,-36.0416,-58.7425,-62.2350,-284.1792,-10.9806,48.2442,-39.7624,73.1973
19.4707,-53.7803,32.2061,-51.3235,38.1845,-32.2443,76.1918,-45.8165,41.7506,21.5723,58.2983,-53.5565,15.8012,-55.2797,-108.5816,-27.2248,30.1291,-48.2553,35.2479
-3.4550,-154.5862,45.1305,-144.5811,51.3668,-97.9786,61.0548,-110.8192,69.1778,106.6517,81.7338,-138.5713,29.6855,-118.9957,-24.2773,-85.3935,52.1452,-136.7919,63.5683
-22.7649,-271.8358,40.6816,-299.5237,25.6762,-276.3144,24.9892,-224.3035,47.2286,121.0011,56.6919,-283.5650,-50.7102,-244.6577,-87.1276,-184.5567,34.2862,-278.0152,69.2846
-42.8474,-318.9482,-0.2826,-380.9080,-26.3209,-383.3053,-16.6376,-273.1018,11.8314,96.4846,4.0970,-367.2626,-118.7521,-310.1990,-108.8863,-249.0170,-21.5823,-343.7121,21.1701
-62.8426,-334.6770,-29.4425,-379.7340,-52.5039,-378.5367,-24.0530,-286.1057,40.4453,110.9838,-12.3132,-370.6171,-107.0598,-312.9229,-19.9029,-279.2481,-19.1629,-352.2963,1.2741
-96.8291,-402.9921,-44.2354,-432.4420,-50.0661,-426.8183,19.8522,-348.7376,125.5671,126.0632,-16.8749,-418.0032,-89.9593,-361.2677,89.2876,-343.0529,-6.8904,-410.6324,23.5144
-156.3158,-501.7114,-71.5109,-531.5876,-55.2315,-513.9944,79.6732,-396.9646,190.9696,119.1691,-54.4711,-528.1353,-112.2804,-446.3715,164.6581,-405.8312,-72.1200,-467.6023,36.4906
-195.9169,-567.9123,-83.5762,-572.0341,-62.2858,-501.2873,132.5086,-370.4764,218.9734,135.1236,-79.9348,-594.7805,-123.9116,-482.5366,200.9351,-403.4058,-137.6756,-452.7309,34.3431
-179.6375,-580.4658,-82.8526,-571.6292,-65.7487,-448.7857,161.5721,-351.1100,221.9657,138.2062,-75.3847,-590.8232,-126.7281,-476.0594,181.8740,-384.7865,-145.5960,-434.0378,-0.7291
-160.0645,-524.4279,-127.0628,-553.1717,-99.6593,-452.0894,118.4912,-382.9134,181.5912,81.6035,-95.8984,-557.5590,-154.2657,-464.4860,125.5958,-403.1968,-157.7856,-431.2684,-89.8961
-172.0493,-412.4089,-181.3781,-457.1615,-144.2012,-436.6028,18.6833,-401.9733,123.5469,22.0443,-119.3845,-490.5605,-144.5512,-429.3937,103.2136,-416.8615,-164.6990,-388.9880,-160.2886
-156.1002,-304.1465,-156.8550,-317.4017,-140.9438,-360.0750,-55.2616,-370.5506,83.4276,-6.4611,-83.6633,-387.0909,-62.2530,-357.6795,126.9460,-373.8028,-131.4539,-349.0719,-165.2623
-90.7749,-229.4371,-105.9562,-244.0469,-134.1146,-295.4407,-116.8381,-300.5447,-1.1823,-23.3011,-44.9245,-294.9418,-23.7500,-274.8712,89.9677,-283.8450,-137.6420,-361.8599,-181.3525
-45.9327,-185.1129,-138.9517,-244.4074,-200.0767,-273.5767,-227.7643,-229.7974,-152.8911,-12.6976,-74.8031,-255.9684,-98.7405,-220.0391,-57.4657,-219.0092,-199.2827,-375.4606,-235.5135
-51.2345,-179.6952,-207.3127,-254.1539,-274.1339,-271.8510,-324.3736,-218.0934,-249.4998,2.0953,-116.8885,-263.5631,-170.8279,-218.9424,-178.5326,-233.8301,-205.4286,-351.2598,-257.7594
-65.6648,-183.1110,-194.0449,-231.6165,-250.1151,-255.6131,-327.2709,-240.7403,-240.1603,-33.3662,-107.1786,-265.8401,-148.3239,-232.7358,-171.0610,-253.0809,-144.3367,-281.5453,-229.6521
-63.1438,-142.9546,-108.3307,-163.7917,-155.5362,-180.4135,-276.2600,-193.7089,-213.6877,-64.3398,-78.4965,-219.6427,-105.4586,-196.4035,-130.5012,-181.4172,-92.8041,-157.3341,-166.3264
-41.6052,-90.0598,-23.5461,-95.1565,-71.0956,-82.8255,-199.3348,-91.5167,-180.4641,-34.4389,-66.4060,-159.3721,-113.1714,-137.1373,-126.0136,-87.0057,-53.5154,-59.2858,-70.8680
-9.8203,-83.1146,40.0462,-86.8794,-7.9597,-53.2687,-77.0312,-49.0198,-90.9356,-17.6406,-55.4270,-137.6460,-123.9619,-120.1510,-90.4536,-57.1700,-27.2703,-64.0608,-9.4926
3.1332,-92.9022,71.4512,-108.7616,41.4510,-65.1303,32.9821,-62.8248,-3.4974,-47.9482,-35.3211,-121.6736,-89.7737,-111.9626,-19.3326,-32.4624,-44.3252,-79.4709,-23.8277
-13.2957,-76.7042,43.8060,-99.2260,53.8202,-35.1925,69.3053,-46.2504,25.8163,-51.9375,-27.1119,-71.3283,-51.8213,-64.0744,18.3570,17.0486,-64.6724,-25.6722,-28.1082
-42.4121,-66.3069,-20.8587,-77.6451,22.2845,10.1793,81.2112,-3.8042,46.5460,-22.2364,-55.6552,-43.5863,-66.4534,-32.9159,21.4176,19.2282,-65.9778,19.5969,16.9858
-76.9713,-73.7831,-57.3821,-63.5119,-9.8462,33.4874,123.6572,29.1117,81.1963,-1.9698,-101.7640,-70.5120,-112.6320,-52.2779,-1.4768,1.0141,-95.3393,42.6865,41.6160
-88.6297,-30.9797,-29.4307,-1.1213,17.3158,93.9563,185.0814,92.6689,106.7661,37.2802,-95.7452,-52.7575,-110.5507,-29.3168,-47.5459,58.5188,-104.3502,138.3556,57.2300
-35.7698,78.5176,45.3786,119.9590,104.1639,205.0906,249.7291,198.2152,145.4385,103.7413,-12.5177,65.7566,-26.2169,82.4405,-35.2479,152.5284,-10.9178,260.9814,121.7116
37.3588,145.4284,112.3130,195.9840,171.9683,264.5808,297.8951,250.3873,198.1491,122.2421,73.2997,164.1723,75.4720,166.2840,52.3664,182.2433,88.6047,267.6766,173.7663
47.5857,97.6134,126.4186,155.2108,173.7767,215.0535,302.8081,186.3305,214.9830,66.9646,98.9979,142.1863,120.3313,133.2627,90.3602,152.2299,79.6045,175.8888,154.5068
17.0792,16.5333,116.3776,68.3759,172.6622,131.2078,288.3759,85.6191,204.8417,3.9921,105.2500,83.8880,134.8064,69.0580,66.9116,128.5798,46.4344,120.0065,135.4222
18.4367,-6.5781,151.8219,35.0914,233.9363,98.8048,298.1968,54.8836,216.2818,-15.7564,151.1983,86.5691,190.3894,72.0141,109.1286,142.5598,84.2247,134.0650,178.6859
52.9400,12.7709,220.8301,48.4431,305.0487,93.9490,313.6072,82.3351,232.2702,-4.3830,209.9747,107.8533,258.2359,101.6199,193.5424,159.9415,129.8443,125.6250,232.8736
93.7876,30.8528,234.7680,40.2751,280.5408,33.9327,267.6039,74.5696,196.9186,-11.8341,206.4881,81.5788,233.8890,79.2721,185.5053,106.2820,120.7082,16.2902,207.6912
126.7521,16.9259,179.2828,-9.4805,153.9819,-76.7249,127.7278,-7.8374,91.9375,-75.6265,131.8166,18.0005,119.7993,5.5468,97.8323,-14.2401,94.5768,-135.1602,85.4519
116.9502,-47.9107,131.6238,-60.2389,38.2267,-138.5267,-34.4451,-102.9856,-29.9146,-155.9011,60.6110,-47.6700,39.5404,-70.3135,36.0138,-92.4424,84.1896,-192.7005,-28.5110
55.0115,-105.7341,108.1695,-72.2872,8.4290,-120.1346,-96.2953,-139.2304,-68.9138,-176.0251,30.7306,-82.7238,34.8661,-106.4201,34.7586,-89.1141,67.1424,-147.7219,-34.1477
-8.1895,-89.5405,48.7088,-58.4048,-0.5674,-101.9891,-52.2302,-132.4750,-4.5386,-139.5071,-8.9002,-61.5558,18.6797,-91.2259,73.9564,-75.1615,23.6725,-118.3530,-0.5066
-34.4532,-48.2359,-38.0104,-56.0739,-55.6789,-116.1647,-17.5449,-126.4819,54.6188,-100.5051,-72.8247,-9.3304,-35.8181,-48.7110,116.3508,-70.0497,-25.1687,-128.4973,-36.3678
-22.6416,-26.1317,-74.3487,-51.8170,-99.1649,-107.0956,-35.8387,-94.8111,40.2047,-58.6907,-92.0434,18.4707,-53.4448,-9.0686,139.7064,-54.7732,-44.3710,-116.4750,-98.8363
17.0606,11.3934,-51.4782,-21.6280,-82.4776,-83.3220,-46.6054,-36.5582,20.8017,-17.7463,-58.8783,6.5832,-26.4470,4.2093,171.0861,-78.6562,-29.9074,-121.9193,-108.0331
43.3136,22.9916,-30.1252,-13.7109,-70.2198,-106.6298,-23.9373,-45.7506,55.2329,-43.4645,-58.5464,-7.1405,-32.9473,-18.4465,204.9242,-137.4298,-2.7022,-189.0193,-80.8448
24.2294,-29.5294,-42.7266,-42.2641,-103.2082,-124.8462,0.5863,-112.7613,91.8453,-131.3352,-110.8652,34.2655,-79.9682,-23.0208,180.3832,-112.2586,14.4631,-205.2056,-57.2911
2.9492,-22.1259,-79.2105,-15.8763,-127.7664,-42.1096,-3.8584,-85.4790,64.1609,-170.5008,-136.0913,132.8000,-86.4864,52.7319,118.6564,5.8122,-3.0227,-98.5388,-58.1887
17.4013,77.9951,-101.4698,72.8174,-104.8263,83.5532,-39.1122,30.8567,-4.0635,-123.1798,-89.6234,196.4992,-19.6139,141.4906,102.4205,78.3013,-41.6469,5.4585,-83.1170
35.4623,106.1742,-61.1067,109.1185,-52.7708,131.5543,-61.3723,68.0553,-38.2011,-70.1298,-13.7449,167.6692,59.2845,137.7772,110.3176,73.4424,-41.9856,13.1664,-87.9567
49.0903,54.8475,17.9832,86.9690,-14.1096,102.7871,-52.8074,18.3358,-40.7111,-76.4562,33.5802,113.7114,86.7820,79.8556,65.6879,63.7263,-5.9661,-16.7882,-79.6858
85.3937,59.4391,42.4671,83.9568,-36.2982,43.9520,-74.6385,-12.8065,-78.7925,-145.1163,33.9902,80.6479,68.5688,40.0504,-12.6833,21.5281,0.6824,-57.2589,-129.5221
106.5623,66.4524,-4.2516,69.8227,-103.1723,-33.8723,-128.0316,-45.7520,-123.4710,-232.8674,2.0568,31.1750,36.9491,-7.6953,-52.3437,-84.7968,-9.3399,-118.9727,-188.1168
72.8532,5.3287,-36.6216,24.6827,-118.5519,-67.9702,-119.8118,-96.8483,-93.2621,-275.2299,-32.9632,-7.0686,6.1637,-53.8931,-39.6388,-143.4319,26.0065,-114.9291,-140.6379
52.1237,2.1115,2.0569,44.2528,-33.9399,11.3799,-50.3608,-77.3509,-40.4392,-276.3293,-20.6096,33.8094,15.1863,-26.9386,-23.7061,-84.5443,95.2789,13.1116,-41.0552
105.1818,88.9579,96.9441,139.5081,93.0751,137.3754,5.5284,3.9309,-41.6494,-285.6916,72.1001,103.5424,101.2851,39.2334,-47.7004,-5.2015,171.5455,156.8593,6.2826
165.3834,127.3892,191.1139,193.2483,177.0061,184.9727,48.4417,48.2005,-44.8132,-279.3303,168.8899,105.9981,181.9269,49.1509,-93.7298,11.9769,234.5061,199.4895,30.9214
160.9947,97.8680,208.4105,160.2849,166.8502,138.8799,60.4093,61.4950,-46.2939,-237.2582,154.4776,51.4265,142.1131,15.3159,-123.8140,1.7652,207.5423,157.5737,49.1864
140.0190,81.0483,162.2029,104.5751,104.4105,86.2658,-5.2803,90.3636,-118.2655,-220.0248,80.5482,26.2301,51.2463,16.6445,-146.7919,23.0327,113.6096,114.9292,29.1088
170.6488,94.9610,175.4537,102.0160,109.1934,102.0642,-50.9108,113.1072,-173.7698,-218.4593,96.0768,82.5252,55.0858,71.0518,-171.1508,83.7922,133.3568,130.7859,35.5761
217.8951,146.3586,262.1976,177.5140,189.1763,170.0894,7.6101,121.5226,-109.9609,-162.4428,173.5405,174.3614,112.8853,128.8220,-175.3796,135.3482,272.8340,193.2018,99.8325
215.4093,221.2225,284.9173,262.9418,213.4160,225.0215,43.7552,137.8564,-56.3662,-101.9327,175.9309,221.8613,104.6206,153.2805,-178.0219,148.6945,318.5758,245.8359,111.7185
184.9409,260.1704,216.9210,288.1651,158.9492,262.3344,-7.3415,157.0204,-102.4393,-107.2355,119.3171,243.9436,59.6177,174.3930,-199.2293,169.2781,245.7713,278.1592,46.0462
177.5876,277.2939,159.0613,299.2488,116.4657,304.7628,-33.5245,178.7801,-125.4413,-117.3691,88.8633,286.2761,46.1469,214.5990,-188.7300,193.3765,212.7289,304.3267,3.6292
167.6349,310.1916,112.4480,335.7791,69.8904,312.4331,-38.7559,214.5839,-102.4195,-81.3013,53.8112,287.9532,25.4646,224.2974,-138.2309,146.7471,207.9612,296.8843,0.1995
126.7705,301.9083,41.7242,332.0289,-17.8800,275.4734,-94.1069,246.8803,-127.9571,-36.1580,-14.1483,231.6465,-32.3220,196.8842,-120.3349,85.6401,151.4298,260.3347,-3.6405
102.2416,242.3883,13.1245,277.0729,-65.5749,263.5200,-118.1729,255.2898,-154.0104,-2.9121,-57.7626,224.6435,-83.6983,203.0934,-130.7429,127.1942,110.7964,249.9129,-3.7096
101.1396,222.1020,27.8569,255.3856,-63.2319,281.5865,-90.9733,240.2382,-127.8818,14.3771,-80.0014,269.8483,-115.7493,232.1541,-106.8031,194.5606,109.7299,264.0895,-28.3840
50.0830,249.3649,-20.8977,279.5111,-109.7949,272.1794,-131.8832,206.7442,-127.6322,16.0645,-142.1061,259.3991,-158.7880,210.8012,-74.3775,167.5662,60.2612,269.8380,-93.6948
-47.1128,253.7850,-123.0004,279.9060,-183.4661,237.4406,-205.6950,169.1994,-149.2917,41.1532,-222.3521,189.5541,-215.9022,150.0115,-70.9555,95.8088,-28.6738,263.5027,-131.0773
-108.5577,210.4969,-189.1722,214.7812,-210.6817,180.2955,-207.6899,144.3681,-136.6268,88.7622,-265.3172,89.6563,-264.9301,79.1112,-62.9724,23.6381,-103.5082,216.4106,-129.0068
-136.3325,120.9687,-245.6815,96.6328,-243.9028,85.1704,-213.9759,138.0142,-159.6416,100.5520,-285.5900,-51.7489,-289.5897,-4.0822,-50.5930,-64.6740,-194.6797,131.7691,-140.5899
-175.2885,30.0602,-325.0970,-1.2142,-303.2299,31.2716,-265.4064,160.5502,-229.7823,84.0510,-313.8389,-135.2027,-298.2400,-34.7470,-58.6916,-89.9037,-280.7303,110.5076,-130.8103
-193.3653,27.1903,-358.0404,-2.2429,-303.8157,88.1137,-250.0993,209.5114,-225.5727,92.6424,-338.5833,-69.8620,-315.9048,29.0729,-52.6994,-17.0918,-278.8880,180.9594,-69.5127
-164.9346,90.6648,-320.4116,59.3222,-242.7723,172.0410,-168.5622,247.1515,-153.5968,121.3180,-323.9966,15.0859,-318.2592,88.4998,-30.2917,30.0052,-209.5968,249.9332,-27.9317
-128.8633,129.4970,-252.9914,117.4650,-169.5968,211.3389,-110.1191,250.7563,-109.0158,145.0879,-241.6690,16.0846,-245.0773,83.0736,-46.1441,11.3233,-125.3537,298.2958,-14.1815
-88.5928,178.9308,-153.4304,198.5683,-70.0865,247.5213,-55.8510,238.8999,-65.1570,150.7961,-125.2922,37.2188,-129.8086,83.9383,-79.1488,9.9345,-12.6683,352.3730,28.7744
-20.4887,269.2022,-50.7729,289.0787,14.9693,277.4470,-4.0223,227.1319,-13.1164,117.1537,-60.2902,110.4165,-79.2501,111.5743,-78.8008,19.0036,83.2362,343.0897,54.5016
30.6369,277.9259,-39.5352,271.1538,-8.0448,247.1646,-27.1222,215.6143,-41.2135,71.8281,-72.9305,118.1438,-110.4405,110.3456,-84.8169,1.0204,66.1854,246.3345,7.3345
11.7815,166.6852,-117.9261,142.6566,-103.3785,177.7844,-98.0273,201.4915,-125.5207,72.0052,-117.4633,51.2732,-160.1374,81.3991,-122.7952,-2.6072,-34.6841,161.6596,-45.1269
-34.4327,78.8438,-169.3749,58.1852,-160.2010,127.9708,-126.5361,186.4391,-149.8521,95.6971,-157.8268,21.0924,-195.5655,70.2820,-134.2330,22.7107,-88.5999,139.5284,-33.0393
-23.9776,91.0504,-128.6640,90.5440,-145.0493,138.8448,-95.6758,201.5986,-108.7786,99.0204,-160.1427,90.4530,-196.4927,116.0310,-112.5122,75.0000,-28.9341,162.0171,34.4044
47.2161,147.6793,-44.3975,165.2125,-82.5868,221.5631,-36.1774,260.6173,-72.2284,109.8734,-100.0385,230.0273,-149.8407,222.8873,-124.9384,182.5667,82.4408,220.5328,111.1722
95.1214,193.8292,-3.8358,201.1770,-28.3116,292.7206,-4.9102,294.6683,-69.7659,146.3410,-32.2066,328.7765,-98.9935,305.0309,-169.8868,279.4341,125.5138,258.9498,131.6452
73.9898,205.5973,-23.5495,189.6655,-24.4377,263.0684,-33.0420,261.6060,-82.8501,176.3948,-11.3291,309.0213,-68.6771,291.6970,-164.0867,270.1751,83.0086,234.0532,88.9652
44.1334,206.9720,-27.9988,181.6107,-17.7734,196.3296,-48.5436,228.5454,-65.7247,193.3441,2.9063,259.2031,-22.8901,258.1942,-79.7232,220.3127,60.6398,214.2537,59.1385
49.6504,244.8838,5.5053,207.3743,25.2558,180.6477,-20.0571,223.2995,-22.2929,207.5846,28.5753,274.2390,17.6438,270.2971,-1.4660,218.5693,79.2609,222.9552,52.5382
46.9265,271.5888,3.0066,216.8846,27.8073,180.9433,-31.3338,192.1458,-18.4620,203.7205,16.6835,292.0971,-1.3007,268.0469,-4.1976,220.4094,59.6113,185.7124,27.7974
29.0072,222.7989,-24.9473,180.2396,-7.7571,164.9240,-67.9749,152.3663,-43.0385,166.0343,-11.7703,261.4597,-31.7208,229.1745,-33.8081,191.0172,36.4961,125.9308,36.5771
41.7827,171.3591,5.9010,154.0687,12.5290,148.8149,-46.2136,152.7452,-33.4099,106.7832,-4.5220,227.5885,-22.2442,200.7664,-17.9916,158.4415,84.7678,127.1802,101.3526
57.7743,184.9232,50.6194,160.1566,52.4695,119.0241,-30.6997,156.3441,-27.2541,81.7915,4.0085,200.3654,-25.2558,180.4928,-7.8431,128.3116,134.4529,168.3038,122.0315
43.9727,209.7000,38.2549,166.2567,51.4528,109.6361,-69.4217,153.1425,-59.7226,136.3317,7.7367,183.8565,-38.1016,175.9203,-46.7535,122.8938,142.8892,220.2536,93.6835
64.6796,234.7278,55.1895,199.1937,97.6615,189.8382,-57.8728,202.7545,-65.2402,203.6219,72.1018,223.6422,21.0080,226.6710,-57.3666,167.4195,194.2444,300.1853,119.6687
129.1087,299.1047,151.4264,277.8271,209.0266,299.3951,11.4891,287.9566,-35.9066,209.0236,157.2337,288.1802,105.3465,290.2959,-15.0581,223.9985,265.3626,365.4935,181.9909
133.0575,332.4049,205.1169,315.4234,255.1777,337.4724,57.3094,338.7972,-14.0258,223.3736,160.0070,305.3435,104.5638,308.7753,2.9315,276.7067,239.1731,377.4333,213.3609
60.2931,255.5242,150.5548,247.6923,215.7326,308.9709,121.4287,337.7443,44.5243,283.6444,111.8433,276.5247,68.3557,295.5760,12.4953,318.9537,142.3462,352.9086,237.2426
2.6846,137.5051,63.7433,129.2929,168.4003,218.4960,192.3009,275.5070,125.5416,272.3042,89.6457,203.1918,83.5137,240.5331,77.8914,263.4161,63.8269,265.5146,234.5219
-14.2774,82.7483,-0.9430,42.9531,112.9389,79.2419,139.3854,172.7546,107.2873,185.0238,68.8802,98.6375,88.3480,146.6177,121.1205,124.0542,6.5015,134.5702,157.8108
-22.1286,96.1776,-37.5115,23.3122,57.4958,11.5610,29.7381,117.5985,20.3428,152.2941,29.0849,65.8671,30.7608,109.0133,50.5158,78.1165,-20.8104,96.9333,88.7214
-17.9948,119.4808,-37.6748,46.8083,55.8236,53.9640,37.6307,119.7954,1.5091,130.5664,17.7605,130.0147,-3.0840,146.5672,-63.9062,150.7363,-0.3343,172.8972,91.5400
10.7551,126.1549,-11.5991,69.6153,89.9450,98.1191,97.2699,109.8293,14.3996,15.4931,50.1382,188.2930,41.9847,174.6222,-126.8454,203.5529,28.8016,240.1934,86.1475
65.3189,161.0151,28.9727,106.4108,117.2911,137.5525,72.2908,111.6291,-36.7176,-88.8392,86.5824,231.3380,87.8266,200.9491,-147.2069,224.8897,62.2400,277.3124,39.7216
122.5528,233.1282,68.3062,175.0786,126.1571,212.3843,-5.2740,147.9461,-109.2509,-102.0428,86.1091,283.6310,62.0480,238.3970,-159.9820,235.0509,117.2806,300.1394,13.1631
124.9778,238.1949,69.6349,201.1686,98.4894,226.0099,-69.4771,135.1240,-142.2305,-120.4593,51.0755,246.3797,14.3955,192.8789,-161.3409,161.1535,142.4547,261.2330,16.4511
82.1382,157.5835,65.9965,167.0754,87.9816,180.7664,-62.3653,99.5955,-117.9058,-132.3815,54.7592,139.1058,43.4020,106.0257,-125.3976,75.8696,142.7312,237.8789,45.9242
83.7122,154.1664,126.9440,199.5108,168.9342,239.8312,63.6559,169.7125,-20.1400,-32.3552,133.0260,158.2022,138.1144,148.0294,-57.8863,136.7828,191.1354,331.7982,112.0686
121.2607,265.4631,179.9009,309.5618,233.8624,356.2076,186.6196,277.5811,79.5768,95.5813,178.4708,289.0543,171.0287,265.0258,-31.7369,252.6728,224.2006,396.1096,155.6327
100.6124,300.3240,125.0024,323.8485,166.0665,333.2477,175.2397,271.3433,92.9916,118.8818,113.0355,316.5483,96.5096,271.7205,-66.0385,251.8241,151.3160,299.8771,146.1238
39.2669,190.1937,49.0896,208.2970,84.1708,221.6460,141.8336,210.8298,87.0752,89.4179,31.3799,227.8369,26.5403,199.3294,-38.1882,190.6461,69.2100,196.4989,149.1820
14.8903,93.6391,44.3652,127.7143,87.4728,196.1005,176.3903,211.1956,123.9303,88.4967,13.3494,175.4037,34.6708,178.2741,95.5385,178.0832,60.0038,206.1545,158.2033
16.2449,103.9550,43.9798,152.1083,93.0789,252.4135,172.9695,240.4617,124.8161,104.0970,21.4117,189.4348,67.0310,202.0837,172.9607,192.5913,53.4095,244.1497,117.8852
16.9052,151.0856,21.0921,198.0683,89.3701,304.2823,134.9582,254.8676,86.2948,129.3026,47.9115,209.5292,93.8922,219.3320,115.2899,200.1609,41.8129,262.8263,96.6005
30.3980,165.2168,36.1881,212.7017,124.9376,319.7679,159.7301,271.6223,96.0227,172.1286,105.6528,217.9710,140.0660,232.2727,64.2672,209.5694,75.6264,278.3857,144.5566
47.7328,165.0086,69.1328,225.8311,132.2953,313.6846,171.3896,295.3400,114.5441,216.7150,133.5208,242.1210,173.5807,261.7639,101.6821,235.0148,109.0499,275.5800,167.8715
67.4256,207.0207,77.9229,275.2335,97.3660,348.4262,115.6482,327.9933,88.5532,250.9584,109.0007,315.5457,152.6323,322.9249,146.6915,280.0895,130.9747,281.2153,143.4860
106.8246,279.3528,91.4915,345.0012,107.1372,425.6468,110.8048,358.4338,98.3046,261.7299,98.6000,405.0973,123.2769,382.3487,154.5950,301.0758,202.1973,314.4915,157.1471
140.7461,305.8792,127.1583,385.3843,142.3184,449.3809,163.9881,349.8615,150.2892,241.8418,130.0431,430.0019,145.8518,384.5131,147.5382,275.4933,281.9803,329.3948,184.6041
161.1498,297.1072,197.2324,404.8719,173.9290,429.8601,162.8843,317.6405,137.1950,208.6438,186.3148,394.8793,208.3082,348.1599,123.6757,263.2259,319.3918,350.8683,145.8772
198.0518,317.7355,310.4723,439.2950,255.0411,448.4021,120.6214,284.4077,72.5373,156.1789,254.2741,348.7847,264.4651,300.9625,98.1768,257.4152,361.1266,400.2574,77.4140
206.5955,309.3309,371.5810,436.0403,309.5550,429.5960,84.4712,209.4656,44.9088,84.3352,285.2971,282.3546,291.2181,222.6246,104.5885,195.6423,376.9523,364.2256,44.4531
146.8720,222.1790,317.4454,357.2975,247.1668,319.9467,49.2737,134.2123,44.9419,61.6752,260.3771,229.6071,300.7458,172.6745,119.8032,166.6483,304.5574,257.0378,53.6174
113.5658,190.4246,266.2592,308.8454,209.1711,268.8219,80.1741,177.7288,57.7762,107.7215,248.0532,264.8777,309.3041,231.2870,112.0884,250.6125,242.1648,269.5025,96.4372
155.2737,286.1325,283.1820,359.9722,273.8463,325.0468,198.1876,286.4399,116.3806,139.2858,265.1448,332.1717,304.9389,309.7000,103.8075,305.2927,255.9629,362.5119,134.5294
176.8672,359.4969,281.0449,411.9566,296.9438,338.8630,280.1250,303.7672,192.1790,133.5338,263.9035,337.4560,295.6781,302.5381,114.5561,250.6797,253.0038,331.3249,134.1469
157.6666,315.9036,262.9554,379.2180,273.0702,270.6941,292.8318,237.6098,235.3256,127.7248,277.8653,305.9204,330.4457,260.8387,135.1661,203.0140,230.2905,221.0280,140.1652
163.4090,230.5756,277.4325,286.2433,304.0738,189.9922,311.0586,165.5685,252.1531,91.0821,328.4399,253.9264,387.7290,216.6688,161.1426,166.7946,247.7971,158.6699,157.8051
160.9123,154.9801,248.0018,176.7597,298.3464,100.8541,296.3266,81.7218,236.4000,20.4686,318.7742,154.7694,372.5407,132.8595,182.3424,73.1784,218.0986,88.7342,99.1348
104.2085,90.5851,171.6695,98.7080,209.9147,38.3651,211.6682,7.6018,179.5666,-5.7106,233.1678,68.0767,291.3601,55.6743,183.7280,19.2960,107.2028,16.1561,-10.9910
44.3095,52.6372,154.5973,74.0029,182.4773,43.7970,157.8536,-17.4904,136.9092,10.3063,180.5087,30.1021,237.9893,21.5057,167.3087,46.5122,41.6789,31.5761,-41.5982
-0.4815,16.8338,133.2252,34.4185,187.4756,20.3202,158.9935,-45.9682,133.3134,6.1757,155.5576,-31.0626,201.0837,-32.0807,124.9960,20.6834,12.4212,40.0539,-15.7977
-55.7926,-38.8794,4.3600,-54.9865,79.1373,-78.6018,127.5244,-101.7673,117.5685,-2.3692,73.7561,-108.6388,110.3463,-98.7862,50.4971,-61.1628,-89.1222,-59.5588,-47.7768
-88.4167,-68.3024,-105.1975,-111.4824,-42.1930,-141.1357,81.8336,-123.0854,89.6476,-1.9545,-19.6166,-127.2645,10.6753,-115.1608,2.9033,-89.6405,-185.9310,-150.9733,-98.5228
-78.8261,-58.8643,-88.8544,-105.3077,-39.5884,-151.6975,85.9421,-112.2320,100.6619,-22.8028,-42.1724,-120.5770,-11.8753,-112.1561,44.9596,-97.8432,-178.8627,-169.8492,-81.3069
-61.7356,-64.4925,-48.7866,-113.5401,-2.4383,-190.0569,93.8834,-115.1161,120.7728,-41.2000,-17.8529,-137.0866,23.2127,-122.1391,123.4783,-129.7904,-145.8197,-203.3296,-40.3237
-42.5734,-108.6520,-46.5775,-164.3554,-5.7728,-214.8250,54.0543,-117.6748,75.9052,-48.1067,4.7535,-158.6179,44.3729,-125.6328,133.6784,-135.2833,-146.6104,-244.3591,-36.9274
-28.8511,-178.4181,-49.6772,-225.4196,-12.3676,-188.2314,-10.7147,-121.5036,-21.6868,-93.3045,9.7516,-211.0255,29.2091,-158.2492,68.4762,-139.7068,-154.5572,-236.0038,-54.8413
-45.8499,-238.9896,-67.3605,-273.0910,-28.3569,-185.6075,-65.8063,-148.4900,-92.3779,-134.3813,-2.4081,-282.0677,4.5184,-215.7345,0.8812,-171.0298,-170.4749,-223.0325,-71.3487
-47.4215,-232.7248,-66.7967,-268.5970,-44.8775,-199.5468,-76.7657,-151.7410,-94.7980,-91.1728,-1.9332,-252.6196,-6.4654,-193.4519,-35.0343,-138.1750,-157.0028,-221.4377,-63.6535
3.2052,-180.4935,2.5485,-210.6256,-21.1476,-159.1481,-43.5392,-110.5008,-65.5376,-32.8188,14.6781,-138.6546,-23.5130,-109.1551,-64.2231,-43.1718,-70.4650,-190.5972,-14.5752
