Fp1,Fp2,F3,F4,C3,C4,P3,P4,O1,O2,F7,F8,T7,T8,P7,P8,Fz,Cz,Pz
26.7717,-23.6493,28.5720,-24.7787,9.0385,-47.7260,-22.1988,-54.3935,-39.0977,-27.5654,34.1808,-20.7739,20.9653,-40.9582,5.9559,-57.2766,-4.4156,1.2367,-30.1158
-24.3465,-79.1978,-29.3837,-130.0845,-57.6320,-96.6363,2.5603,9.2192,14.9756,-30.3102,-48.8896,-61.0515,-51.1041,-86.0054,-44.4507,35.0965,-35.0919,-77.5927,-36.5036
-40.8748,-76.6292,-45.5716,-139.4479,-86.9424,-104.6181,-14.7710,25.1112,-36.1263,-41.8997,-66.3630,-51.2664,-66.1013,-70.7079,-59.9613,71.9308,-24.4838,-87.4051,-47.0710
18.0605,8.6518,37.5767,-10.8985,-4.7535,-28.2845,-23.9218,-29.8797,-104.4931,-138.3826,13.0318,9.8455,9.7873,7.1491,-25.6894,57.3612,65.0937,-28.5211,-87.3770
48.5373,93.2296,78.4234,112.8289,57.9573,33.5168,-12.2438,-83.7813,-85.5320,-273.0143,50.3069,57.8378,47.5340,57.8884,-2.6928,24.8517,152.7221,9.7113,-146.7528
34.3771,105.3050,54.7287,145.7163,47.9601,28.5435,-5.1874,-113.0842,-8.4762,-307.4339,29.9228,53.9639,34.3791,66.7714,27.9191,2.3963,178.8475,5.9262,-143.1477
82.8301,40.2585,117.0749,110.0539,101.5182,30.0829,53.0970,-150.5650,61.0351,-230.2704,66.4354,1.9510,82.1442,94.2969,88.8626,43.6135,192.3283,-9.8428,-71.2880
156.1817,-46.1878,213.7534,35.8184,190.8935,56.6286,158.2212,-140.5325,104.5272,-120.7382,124.9411,-57.7174,141.3663,111.1067,100.0531,101.5942,206.3520,-30.4364,-13.1155
122.5839,-73.8823,170.9613,-29.1118,144.5777,62.5223,206.1394,21.2844,163.7645,6.6361,83.7379,-64.8230,89.5807,49.6891,57.5681,77.8992,157.3239,-46.5281,69.3729
26.3303,-27.6486,58.7332,-31.5675,22.4042,70.1942,198.7743,262.8161,252.8062,119.3531,-12.1316,-11.7261,-2.6724,-24.1617,63.4967,28.7424,62.3600,-38.9160,236.5636
7.1949,39.2633,48.2871,30.3373,0.1797,104.8988,185.3937,344.2824,236.7060,94.8690,-27.9620,51.5758,-7.7519,-5.5848,98.2753,26.3785,39.8931,-1.3061,334.2447
60.4620,87.7750,112.6410,111.5704,53.6181,132.0263,139.3213,206.1668,60.1599,-76.9419,28.7437,87.4385,40.0136,64.5035,80.7266,21.7741,114.4689,51.0712,256.3926
78.1479,97.6885,129.8143,137.5227,85.5754,148.5815,99.3083,74.2415,-55.4577,-202.5828,41.1781,82.3538,54.9519,80.8578,58.8845,36.7998,154.1715,77.0200,174.2721
43.5061,73.8501,94.5303,96.2560,105.9715,166.1711,117.3961,51.3568,-36.4586,-176.7062,-3.6033,52.1688,44.0749,40.2516,67.9956,103.0363,105.2494,81.9483,154.3542
31.8151,67.5364,84.4762,87.0245,140.2034,164.2635,123.9375,-7.0043,-72.6615,-135.9866,-15.9270,42.4754,46.7819,11.8614,51.5234,112.1974,93.4393,136.0976,57.3891
41.9481,73.4902,99.8068,114.5878,177.8321,171.1505,132.2208,-83.1207,-69.2814,-163.0641,-3.9692,41.7689,61.1919,25.0962,46.5037,92.0192,149.4371,209.3869,-40.2167
21.7119,26.7510,88.9965,65.1721,202.5639,204.7973,204.5067,-53.6187,122.1230,-161.7191,-23.5060,0.9931,76.5877,46.2171,114.5578,165.7789,143.8221,197.7083,3.5897
15.0276,-43.6849,85.4699,-26.9137,176.4483,173.8532,204.6972,-48.4326,204.7392,-110.7012,-14.7238,-43.2562,95.6921,33.9660,173.3040,192.9772,70.7165,141.1531,32.7829
10.3656,-101.0565,67.1655,-107.5289,89.5427,64.3596,126.9010,-80.5997,184.0837,-47.8074,0.8249,-68.8653,85.3864,-3.4266,181.5936,127.2348,-15.5100,88.0358,5.2283
-109.7218,-196.5928,-89.4513,-264.3606,17.1970,-4.8830,206.0107,89.1200,471.7453,72.7246,-110.7318,-142.1235,14.0343,-31.0883,201.6539,204.0721,-162.1421,-33.5293,119.2109
-187.8288,-231.1186,-206.4879,-328.1717,23.3518,-52.0757,274.0658,207.6698,593.9802,138.9263,-176.4023,-185.4774,-29.8163,-46.6253,160.9895,229.7886,-221.4952,-102.4673,185.9367
41.7548,-50.7747,26.6173,-27.9540,52.9192,-166.5224,-23.0487,-161.9592,-115.6814,-52.1857,55.0217,-51.6375,34.0716,-58.6929,-19.8414,-154.8955,30.1272,67.3013,-84.9835
293.3261,122.4662,305.1509,271.4673,12.7028,-223.6998,-325.5805,-526.9738,-721.9612,-276.3328,254.9746,86.2586,61.7286,-60.5041,-166.7062,-466.5630,293.1168,202.1761,-291.0834
153.0966,12.9370,145.3916,95.9311,-62.5360,-117.9566,-138.0726,-241.8205,-209.1397,-157.9120,47.1403,-14.9447,-69.1053,-75.1046,-135.9510,-181.5244,159.1056,1.2880,-21.4172
-95.7247,-158.0631,-145.5322,-196.1045,-44.0213,-21.6221,190.4338,210.7444,509.3237,123.6269,-205.4079,-178.9709,-170.0493,-132.9306,-51.3391,153.2544,-105.7952,-218.4413,306.6559
-76.7806,-139.9829,-118.8252,-179.8779,60.3343,-51.9152,230.7109,244.6941,497.8877,207.0862,-141.7908,-175.6109,-96.7647,-195.7598,-8.9330,58.5734,-136.8237,-163.5405,307.7325
-23.7199,-113.5531,-43.9675,-144.2929,92.3200,-87.9519,208.1398,188.9644,365.6149,178.9689,-68.1906,-140.9652,-35.9952,-202.0087,22.7822,-20.3944,-112.9023,-109.0166,252.1847
-99.3375,-165.1455,-135.1218,-232.9944,14.6147,-69.4908,245.6780,262.6624,448.2882,187.9433,-155.0623,-164.7851,-96.1523,-145.2785,2.5202,115.9992,-147.1837,-194.1234,267.8407
-74.9705,-105.9772,-114.8282,-147.4283,-44.4045,-45.2444,139.2235,180.8647,256.3109,131.2436,-134.4926,-104.6704,-116.9513,-63.5285,-73.5897,110.2193,-63.1818,-178.3967,157.5696
12.1888,6.3370,-5.0625,14.5545,-37.4651,-8.0224,7.3531,26.4659,-29.3444,24.9367,-33.7424,-7.5337,-62.8758,-20.1244,-83.2240,4.8493,38.6459,-84.8037,26.7338
-40.0802,-13.6250,-66.6812,-33.8909,-44.1896,20.3804,30.7295,37.0915,21.5951,-16.4966,-71.5209,-28.5130,-65.4865,-47.3393,-37.5306,28.3786,-26.1410,-116.0245,35.4887
-102.5662,-50.2304,-157.1302,-109.6428,-105.5141,-6.7449,0.8525,30.6029,75.5251,-65.6992,-120.0497,-58.5054,-108.3953,-72.9318,-61.3989,32.6721,-110.7788,-179.7442,-13.3008
-77.5227,10.5528,-129.3164,-54.1593,-187.3745,-18.6656,-164.5920,-79.4740,-80.8562,-158.9794,-67.3749,13.0347,-106.7628,-37.3771,-109.9989,-31.7102,-128.3625,-167.5060,-200.3981
-105.6022,33.4826,-156.4331,-55.0367,-244.3380,16.4387,-238.3542,-113.0067,-124.8932,-180.1158,-65.2678,47.8307,-101.3175,-14.0782,-88.5189,-13.4110,-191.0487,-189.8885,-300.6548
-157.5474,-26.4476,-235.1414,-126.2473,-257.6587,-5.9110,-197.1435,-103.5254,-22.6216,-142.5942,-119.9246,-14.3896,-127.6987,-38.6122,-61.8733,15.1410,-246.2242,-260.9390,-244.4743
-130.3257,-64.6481,-216.4904,-134.8668,-246.0848,-60.3691,-166.1932,-110.2058,38.0111,-117.8555,-120.0828,-48.5582,-140.1892,-15.8057,-76.2713,3.9466,-221.2158,-260.6352,-145.2943
-128.2674,-81.8086,-196.3913,-152.0955,-211.5894,-19.9232,-113.4136,-27.9833,81.7781,-74.2967,-106.2181,-36.5291,-108.2952,58.1748,-49.2369,62.0206,-226.2102,-188.4256,-43.2305
-181.2129,-98.3114,-242.4268,-191.7379,-133.5674,69.1028,-37.8664,87.2818,105.6207,8.4846,-103.4645,-40.4479,-51.1870,76.7238,16.5192,107.1433,-263.5764,-103.8673,38.0289
-176.0763,-58.6262,-235.9891,-130.1756,-60.0277,115.6593,-16.7967,138.0730,93.8424,105.6854,-78.3955,-23.6947,-24.8452,55.5013,14.8546,55.4963,-227.7981,-13.6090,72.0124
-151.2379,0.5112,-199.5748,-43.2675,-42.7756,151.3406,-3.4093,204.1899,157.9766,170.8688,-78.9118,19.9565,-46.0241,76.6201,-26.4941,53.3325,-175.9938,46.1634,108.8959
-164.8048,2.8187,-200.1170,-42.5444,-10.6272,187.0081,71.3194,300.6807,270.1276,221.7078,-94.8605,24.9068,-35.9254,109.8790,7.6782,121.4486,-170.2083,56.1044,186.9703
-124.8667,-11.1628,-134.9278,-32.1499,84.7556,178.5589,165.4933,347.5914,321.9806,332.4203,-45.3736,4.8763,39.2605,99.8915,105.5949,124.6849,-121.1453,69.1890,276.1739
-36.5529,-0.2362,-4.0110,18.7090,146.5662,141.3141,227.9587,350.8602,349.8984,390.9436,15.5475,6.5220,94.0075,65.8574,182.2731,91.6736,-11.9520,93.0430,325.3172
-9.6499,23.3900,53.3205,38.7018,135.0493,137.5202,243.8250,352.9939,341.2964,309.6034,17.1106,34.3101,93.5865,60.4699,193.8609,112.7188,53.3902,111.0641,287.1994
-16.5113,68.7181,54.1232,67.2616,142.0891,169.0608,210.5263,366.0719,236.1139,309.4999,35.1156,88.1584,106.6306,114.9021,140.7784,152.5882,48.4401,142.7717,180.7648
1.9298,92.9222,69.3330,92.0452,173.0737,144.2474,151.7082,357.6184,137.5497,407.9086,98.9640,114.9890,148.9536,162.9053,95.1457,152.0615,24.0671,139.0570,89.7774
2.8038,39.1141,59.0421,19.4992,139.9646,35.4239,91.0053,287.0838,119.9952,353.7101,117.3922,62.9611,156.3054,108.7003,108.5784,118.2984,-2.6846,60.6558,38.9142
-12.8828,-17.7451,35.6929,-66.4985,60.1281,-39.3332,30.3182,208.2697,100.0088,255.1422,82.7730,13.2105,114.6234,25.7899,105.0799,107.4599,-29.1256,-0.1799,-11.5008
-4.6320,-5.8894,45.6300,-54.7012,8.6720,-45.9380,-29.3222,163.8796,56.3195,272.2703,67.4636,29.8935,80.2976,36.6908,59.1226,142.9095,-41.0167,-18.6390,-74.3640
-11.9672,24.7231,32.0469,-19.3726,-35.4724,-79.0330,-84.5269,103.3622,41.6651,240.5448,53.6223,52.6244,62.4252,69.0711,55.8883,167.6910,-59.1188,-71.0695,-141.4232
-57.6029,34.1816,-30.0947,-27.4907,-113.9886,-121.7540,-129.1711,48.3538,40.9590,188.5006,-5.9704,58.3027,12.2150,38.2015,64.9524,159.7014,-120.7847,-118.5232,-195.3950
-92.0387,2.0793,-85.0423,-77.3586,-185.5431,-123.9764,-154.7669,29.3950,14.6132,201.0116,-60.8593,48.9722,-49.4933,28.7124,13.1985,156.6109,-189.7020,-114.3947,-196.9299
-101.4505,-76.9781,-121.0091,-157.4522,-197.1932,-139.6202,-151.2117,-17.9835,-34.3682,90.1949,-60.7370,-5.7666,-53.6688,65.0342,-12.7034,133.6013,-185.5154,-117.6369,-140.6117
-99.2160,-89.1901,-128.7600,-154.3290,-153.0654,-142.2511,-103.9288,-47.6161,-61.7046,-34.2867,-48.8325,-33.0594,-26.5769,47.0644,32.2888,64.7626,-125.8020,-107.7724,-83.7362
-84.7922,9.1812,-101.8718,-32.5762,-95.5132,-82.1988,-43.8499,8.2353,-33.9840,60.6625,-63.9544,25.7726,-37.0118,-8.6144,30.6706,15.2465,-106.7314,-47.6451,-74.6479
-93.9344,50.2059,-121.2813,18.4376,-74.5056,-57.5032,-41.3189,38.3429,-1.2804,145.7030,-91.6977,50.5628,-73.4837,4.0258,-46.1735,34.4940,-135.3576,-14.0695,-81.0117
-139.8572,-7.9964,-194.2938,-38.2271,-90.6675,-73.7297,-73.9712,41.1157,-1.2772,162.5254,-121.8423,4.3716,-96.1539,68.5319,-87.1724,104.4184,-133.6076,-2.6357,-24.3876
-152.9814,-15.4301,-195.5078,-26.8335,-82.0738,-16.8872,-50.7201,135.4298,42.7670,334.1909,-135.0962,-0.6821,-91.6404,92.1350,-45.8001,175.3851,-84.6038,39.8515,88.8560
-112.7574,16.5763,-128.0341,28.7408,-38.3178,52.8918,9.2981,209.5521,159.6285,419.7448,-112.7360,10.5244,-68.5659,64.4487,7.7059,181.6426,-29.0244,37.4073,154.2173
-80.1493,4.9952,-100.5571,30.5373,-31.3964,58.5842,23.6619,154.7995,237.3772,223.6092,-95.8465,-16.7325,-73.9353,55.3538,-8.3764,128.3648,34.2808,1.3164,139.6480
-55.1770,31.7132,-79.2123,82.4659,-67.9459,89.8757,4.6102,95.4549,199.1140,48.8856,-103.4300,11.9495,-113.6771,105.7874,-73.0099,85.2141,121.7559,50.7621,113.0932
-6.1626,114.8212,-12.4390,193.9128,-67.6482,150.8046,2.2016,61.2460,82.7129,-50.7508,-81.8119,93.8290,-113.4572,163.0581,-101.6297,50.5183,189.8084,112.8873,85.4865
22.4900,144.3246,16.5478,217.5854,-18.5225,170.6643,9.7604,-0.7909,-47.4564,-177.7492,-42.3817,112.0918,-76.1732,150.0213,-113.4888,2.2355,184.1000,96.4089,24.0205
-2.5721,137.2761,-24.2238,185.1720,15.1321,190.0538,1.5163,-21.9377,-146.3850,-152.2624,-53.4145,93.6169,-79.1591,75.6010,-158.4354,-21.3479,125.3974,105.9318,-34.7789
-34.1515,157.8880,-57.4493,193.8717,19.9982,201.2822,-22.6094,-14.4645,-198.6256,-53.7404,-80.6739,103.2467,-88.6624,15.8848,-151.3327,-21.1622,70.9931,146.1244,-45.2507
-28.2894,161.2365,-38.8569,190.8312,28.6692,146.6259,-33.5096,-40.6192,-206.7334,-94.2664,-53.6737,105.5663,-38.5062,14.8546,-54.9638,-13.7496,39.6018,102.6948,-26.9905
8.4842,132.9037,21.3189,148.7172,25.1783,92.8249,-27.7327,-28.3466,-174.4389,-88.8331,-7.9140,98.4976,6.0638,40.7093,-5.7159,37.0574,21.6015,23.5963,-26.0324
24.9840,99.1910,50.4387,87.1268,-48.1702,58.2430,-73.2705,-3.7961,-143.9057,-15.7189,-13.3212,91.5388,-31.3729,20.7662,-61.0805,89.0625,-12.8249,-30.7483,-82.8091
-26.6802,40.4733,-35.2030,-18.4521,-180.8682,-44.5392,-187.0109,-84.3497,-164.4939,-99.8465,-65.3151,44.6218,-107.4717,-61.1301,-115.1441,46.9290,-96.9320,-121.3261,-191.4563
-85.3162,4.1891,-135.7711,-78.8099,-253.5985,-156.4165,-252.9118,-176.7619,-192.6458,-161.8910,-98.7294,2.2708,-136.8085,-123.1697,-98.5351,-32.0731,-171.3957,-212.4180,-270.8988
-50.5501,55.6009,-86.6097,11.6033,-194.5471,-173.2836,-212.7767,-180.0269,-165.8857,-54.2427,-70.2063,27.3090,-97.3142,-112.8604,-38.5426,-37.1333,-132.6949,-221.6926,-261.5615
23.9020,94.1378,19.8003,96.6243,-108.8402,-162.4374,-162.0939,-178.5411,-128.9063,-23.6682,-26.5207,41.3956,-54.6761,-91.5769,-8.3455,-4.6183,-41.5298,-200.1237,-203.7561
21.7845,29.4475,6.6055,18.4125,-111.3197,-176.7975,-159.9357,-173.7220,-134.8212,-54.3888,-30.5418,-4.9160,-69.8639,-102.1408,-58.9654,-5.3901,-50.1008,-186.6892,-165.2540
-34.5127,-37.9601,-74.9877,-89.8524,-154.5484,-165.0888,-170.0846,-117.9704,-151.9109,-5.4436,-53.1903,-30.3959,-97.9794,-96.3173,-120.4202,-21.6894,-126.6866,-149.3955,-167.7861
-76.2391,-37.6621,-124.6541,-103.8604,-164.6710,-128.1625,-173.4260,-91.3186,-155.0089,-48.0615,-63.8379,-18.6674,-96.1415,-60.3897,-118.8197,-21.3833,-133.6614,-105.9240,-180.3304
-92.3345,-29.4031,-144.1000,-83.9196,-153.1342,-82.6570,-151.5635,-80.6936,-148.0649,-116.0850,-92.6176,-21.5539,-115.5117,-44.4841,-134.2448,-2.2809,-68.7061,-62.2491,-146.2540
-49.4909,-18.6950,-88.6657,-40.4530,-111.6061,-23.6313,-86.1999,-7.5149,-118.6143,7.3831,-101.9062,-18.4662,-145.7259,-56.4779,-201.2068,8.8011,13.7327,5.9259,-63.5209
51.4038,20.6463,48.9280,44.7449,-19.9726,-4.2293,-28.8920,25.1946,-78.3324,60.5560,-33.8799,0.2577,-101.8334,-71.1106,-192.0560,-20.5299,107.9014,51.6624,10.3805
101.0208,26.6387,122.5345,69.1524,60.1803,-32.2023,-0.4874,-23.7716,-40.9675,-89.5134,25.2854,-18.3962,-24.3724,-93.9370,-87.3621,-47.3441,158.9963,44.0912,63.7509
63.0103,-27.6118,80.7502,-5.9809,78.7466,-36.7559,49.7312,-21.4900,12.4868,-102.0950,-1.8065,-67.1742,-9.6050,-124.7944,-23.3320,-14.7175,116.3355,23.4359,102.0270
33.4801,-60.7451,40.1086,-59.7641,64.4095,-36.5138,66.9934,-4.8394,32.1968,6.9909,-27.1465,-86.0716,-26.2939,-133.1082,-43.9085,19.1314,51.0528,-11.0539,61.6839
38.4216,-38.1245,31.7669,-42.9266,28.3619,-68.8898,-35.5315,-74.8330,-43.1219,-26.0238,6.8557,-64.5988,-21.9617,-101.3852,-88.9749,-0.8770,17.5286,-57.8014,-62.1801
32.5167,-19.3662,20.6279,-35.2256,-25.6348,-76.1383,-140.0968,-119.1167,-105.8300,-78.5205,41.8750,-32.0148,-7.4560,-47.9139,-95.5251,-15.0380,-18.7423,-73.3285,-147.3962
43.9597,-27.9764,54.4595,-56.5643,-44.0561,-74.0114,-117.9945,-97.3002,-65.1838,-84.6276,66.9252,-14.6467,27.8354,-20.1782,-22.5700,-0.3757,-37.7561,-92.5639,-149.4640
87.2631,-22.5290,122.7574,-48.8865,-22.4088,-129.0855,-79.5338,-129.1147,-56.8042,-168.5802,94.9885,-14.4912,65.7942,-44.3381,48.8557,-5.7048,-8.2474,-144.6411,-150.8758
89.5755,4.9446,115.9429,-11.6763,-19.6393,-157.1117,-120.7262,-159.6751,-138.0105,-169.4575,83.7215,-6.3906,44.5400,-61.9913,2.5904,-13.2234,2.9978,-135.1259,-159.7935
41.0416,14.2899,47.3008,5.0599,-21.0527,-82.7581,-131.2073,-76.9307,-127.1231,-18.0867,51.0427,9.8175,11.0041,-15.1597,-59.8760,4.8246,-17.1562,-37.1561,-107.4613
22.9133,2.4553,37.6429,3.5046,28.4070,1.3045,-46.9091,31.2972,-1.5419,34.7757,64.6734,10.3936,48.1768,30.0098,1.0254,-1.9662,15.7737,51.7310,-5.6769
54.8272,6.1745,90.6083,17.6391,93.0997,37.8197,35.9948,78.7027,19.0410,-17.2158,100.8790,10.1297,96.6346,5.6831,64.8733,-52.3950,81.2054,97.0116,75.1072
80.9100,20.6025,109.5404,31.8931,102.4212,63.8716,44.0414,75.4611,-100.3289,-79.9125,109.2348,23.2385,84.0836,-8.7812,3.0992,-96.8909,90.4456,96.5351,99.7570
71.7562,16.5670,67.2121,22.7806,48.4972,77.5802,-13.0847,14.2536,-171.1521,-249.4753,95.4394,22.3554,42.6959,48.9841,-84.2040,-101.3129,72.3496,29.2543,77.0058
42.0382,11.2103,19.1693,19.1730,-32.2634,80.1448,-84.0804,-38.7027,-126.7314,-339.4373,48.6180,10.8227,-13.7025,80.0886,-113.1311,-54.7718,75.2474,-25.6063,50.6367
17.9075,23.3832,8.5973,33.6251,-78.1326,84.3962,-91.3979,7.2521,-50.6536,-121.5239,-24.5241,16.0101,-77.2841,22.7300,-117.7455,22.5868,62.4941,-4.0535,51.8173
21.7558,29.0139,33.5286,36.6091,-37.3365,55.7779,-33.1624,69.7145,-4.0278,82.9271,-37.8983,18.2181,-69.7194,-17.7398,-96.2935,78.4969,44.6915,4.4770,52.2830
58.6739,25.6619,84.3115,43.1050,48.9271,27.0860,-6.7111,61.6352,-3.2500,57.6218,34.5723,8.0254,11.1124,33.7346,-62.0342,111.5175,85.3332,-24.8101,32.8934
107.2895,37.0268,145.8599,85.3430,90.3354,74.1417,-34.9444,51.3833,-15.5770,72.5749,98.0014,16.8599,52.0071,107.3257,-81.5627,143.2833,158.0359,0.9192,26.9556
123.2575,44.6427,162.0986,116.6027,84.4895,124.9276,-32.2894,68.2484,26.0361,140.1014,93.0405,28.0360,25.7146,128.1222,-124.6940,131.9864,184.7530,59.3665,49.3528
77.2127,20.2679,94.2332,80.9033,95.6797,101.5886,26.5871,69.3352,105.9620,57.2988,52.3199,1.0866,9.9506,97.9933,-103.0716,72.4172,146.5012,80.5638,84.0533
12.1728,-10.9103,13.8142,20.2894,135.4543,102.7120,84.7594,72.6426,141.2006,-53.7858,21.4398,-33.4489,32.4573,54.2481,-31.1030,38.2731,85.6674,108.5990,126.8687
13.3105,-3.0065,29.4662,26.3458,180.0054,184.8397,126.0876,93.7083,137.1332,-94.0393,34.9267,-24.4749,69.0484,47.2456,22.2477,30.3543,87.6835,167.2993,175.3921
95.0602,58.7541,143.7885,132.7817,244.0905,262.1853,187.1060,125.2221,168.4085,-136.1193,91.6799,23.9463,106.4254,87.2687,37.7113,0.8980,196.8508,219.3255,232.9213
176.7941,142.2020,259.0114,268.6469,328.9235,311.1303,273.6258,183.8152,224.7599,-103.5471,128.5835,78.0637,127.9947,107.4331,37.0794,-13.6334,311.7317,269.5297,299.5870
189.8602,193.1496,288.8144,331.6685,369.6872,357.7627,329.8527,216.4895,221.0778,-29.5317,106.6671,110.1275,121.7907,82.0385,43.0641,14.3542,322.3866,294.2737,321.3004
158.6842,196.2290,245.3723,317.9925,334.5498,355.3005,308.2135,159.5731,148.3268,-83.5304,75.2095,113.5612,106.3179,84.3129,46.8382,39.9304,280.7218,239.8905,259.4925
137.9871,162.5597,203.6167,268.8361,278.1288,270.6110,247.7292,83.7659,95.8053,-122.5341,74.3849,92.4953,100.3035,116.6735,36.1651,57.8499,243.0196,142.5438,170.3394
104.0497,83.4492,153.6400,151.1741,213.6033,130.1127,200.3840,38.4932,97.2459,-26.6140,55.5493,38.1489,84.0652,73.3501,37.3780,80.2178,143.7736,45.2195,80.4728
9.2708,1.8578,27.9831,-2.1691,87.5696,-17.5447,124.5123,-22.7739,79.5918,-9.6982,-23.4318,-21.2542,23.7686,-35.4910,45.9438,76.6898,-0.4790,-58.9037,-48.0882
-77.7384,8.5991,-90.7776,-32.6374,-54.6918,-91.0407,-1.2863,-59.2732,25.6317,-60.5929,-97.4035,-15.9790,-53.8701,-72.7038,21.4337,65.9779,-51.1820,-118.7469,-149.4475
-65.9705,58.9645,-74.5029,41.0567,-94.8654,-84.9184,-70.5301,-28.1468,16.3723,14.1520,-91.9016,25.3437,-72.5784,-32.6402,3.6365,85.9783,-14.6861,-111.6944,-123.8425
-33.0324,19.1221,-31.5002,9.0990,-55.6827,-111.1379,-29.4409,-13.5077,53.6274,83.9057,-59.7282,-2.5876,-36.1078,-34.2877,42.4222,90.4362,-33.4118,-120.7694,-45.9263
-88.8553,-66.8176,-111.4931,-114.3597,-50.4692,-164.9832,15.6879,-8.8132,60.0255,69.7224,-79.4339,-65.7766,-23.5945,-73.5777,78.1041,58.0606,-111.1910,-138.6263,-22.6878
-157.2378,-54.7228,-196.5124,-121.4052,-70.3780,-122.1353,5.2421,69.0943,49.1995,126.1819,-101.7738,-43.2422,-30.2317,-50.7921,80.1106,41.9617,-144.2967,-80.9045,-14.2366
-137.5337,22.2107,-156.6999,-25.3145,-46.6181,-22.3677,8.9913,125.4388,66.4098,149.3882,-66.1702,36.1665,0.4297,24.3804,98.8018,33.9867,-134.7147,1.9427,8.3316
-99.7293,47.0305,-104.9021,11.6726,-8.5590,15.2903,44.6911,81.6582,73.5470,32.1800,-36.0166,68.0743,29.7484,70.4710,109.6623,8.4743,-138.3255,45.4702,-1.7035
-123.5717,33.9365,-132.9632,-9.5052,-15.5849,36.8140,51.0189,76.2445,66.0745,11.2297,-65.7108,65.8442,6.7086,76.2728,79.0566,19.2066,-146.0382,103.7694,-16.0329
-163.5994,42.3461,-167.9022,-10.8599,-57.3316,94.1433,27.9900,153.5267,95.5353,104.5130,-108.0528,82.7758,-29.9895,76.7512,66.6994,67.6222,-145.6990,166.1563,13.4126
-164.1616,59.4992,-166.6905,9.6315,-82.0752,115.5755,22.7140,174.4639,129.7475,80.6874,-121.8480,97.1405,-48.6553,87.9980,66.0818,77.8689,-138.0611,156.1617,43.1720
-119.3340,56.9078,-131.7685,37.3666,-44.5157,90.5512,42.7675,128.5151,132.1148,36.7102,-97.9067,76.0657,-45.6656,102.8122,28.9784,56.0227,-88.7250,110.0597,57.2416
-49.4810,35.6327,-51.6823,53.3774,36.1934,76.3389,77.0126,112.8891,164.2389,103.0513,-34.4594,36.6343,1.0393,93.2556,35.7017,46.9514,-15.6120,85.5145,92.6676
-15.6051,26.0238,1.8765,45.7318,68.7490,60.3983,108.5580,120.0193,217.4383,110.9644,3.1844,23.9880,42.6978,59.6317,97.0080,30.2942,-4.9216,63.0207,108.4534
-45.6254,60.9305,-43.6877,66.8123,18.8924,34.2004,95.9092,110.5824,190.3851,45.5574,-41.2630,55.7022,-6.0502,57.6858,55.5051,6.0456,-33.8526,42.3744,56.8260
-70.9442,103.5838,-101.1041,123.1340,-45.1895,29.1564,30.8313,95.3537,114.1941,46.3829,-89.1756,81.4474,-86.8121,87.4639,-64.2440,2.4202,5.0303,22.8383,1.0643
-54.4154,88.2114,-85.1508,115.4533,-87.2132,16.7870,-26.6808,90.6286,111.2077,59.7306,-72.7364,58.3219,-96.9123,62.4969,-69.2756,-3.5175,65.2072,-28.7996,-4.4447
-52.6600,36.1141,-66.3743,24.0442,-136.9422,-34.5103,-37.9380,121.9596,183.2391,81.8616,-64.3540,29.0527,-89.5087,-17.6829,-10.5927,-15.6057,5.1654,-81.2882,-1.9219
-90.7639,-3.1375,-116.5485,-60.6136,-200.1995,-85.0723,-42.7320,172.7221,257.6633,200.4509,-111.0626,24.3770,-143.6426,-44.2749,-67.1341,-1.4754,-146.5459,-101.7150,-28.0020
-137.3801,-42.3252,-207.8103,-110.1132,-255.5360,-112.6847,-74.8588,160.2595,291.1644,278.9650,-159.2018,2.5918,-210.3670,-1.3197,-172.8245,10.7518,-242.1483,-136.6680,-61.6963
-175.0764,-77.7393,-278.0510,-138.1660,-276.7751,-125.9490,-94.8206,88.9904,258.9128,211.9110,-184.1888,-36.2692,-224.9142,22.9547,-173.1524,2.3961,-236.0388,-168.2169,-68.3211
-185.8400,-71.3344,-275.0688,-123.6232,-238.8955,-105.6550,-66.9154,56.0417,205.1527,132.5591,-192.5229,-41.4311,-192.2678,14.3612,-93.2887,25.7798,-182.1444,-125.6434,-36.6703
-166.2949,-39.0967,-222.3050,-86.5926,-181.0587,-58.7550,-35.3882,64.5768,203.9396,56.3996,-173.0868,-17.7937,-146.6005,20.4128,-31.9470,62.5610,-138.1742,-61.7884,-9.5420
-153.5106,-8.2266,-199.8621,-60.6252,-167.2619,-29.6709,-47.4468,43.0473,195.3750,-93.0848,-147.8724,7.4770,-123.5393,30.9656,-18.8577,36.0478,-126.8374,-41.8529,-36.2151
-130.9764,32.8723,-171.3873,-12.4611,-157.5884,-15.9227,-65.6040,-17.5744,95.7503,-217.4970,-130.7560,36.9718,-113.4742,14.6659,-20.1455,-20.8737,-94.5497,-11.0463,-77.9194
-43.3606,58.1991,-47.3876,47.9735,-92.9766,8.4786,-45.6098,-82.4716,-1.4738,-256.3230,-77.8555,47.3341,-71.1853,-20.9968,2.8604,-44.2786,7.8893,39.9235,-75.5223
50.7375,32.1058,75.8441,46.0633,-29.3068,22.1882,-24.4032,-119.6848,-10.3116,-267.8687,1.2255,17.5623,-18.4549,-53.1660,12.4880,-65.7635,88.6020,38.6496,-68.3244
60.2330,4.1890,66.4184,11.7675,-7.8195,-3.9754,-37.6110,-119.8179,-18.3108,-227.1767,39.9241,-7.6184,-1.6959,-45.5282,-36.3513,-93.4972,56.3718,-9.6193,-102.5471
39.1723,27.3082,20.4041,39.8485,23.5749,-48.8087,-47.2372,-118.1751,-63.9027,-145.3827,50.5048,5.7806,14.8871,19.0941,-65.5302,-71.1615,8.4437,-58.7385,-130.7958
65.1152,73.4045,61.4867,110.8557,55.5554,-62.7105,-33.6564,-122.7047,-69.9210,-112.2035,72.9754,36.0366,49.6486,75.5851,-20.4894,-13.9967,44.3441,-101.7022,-125.7806
102.6804,108.3816,128.4277,153.7593,29.5491,-38.3603,-40.7615,-98.7377,-56.7472,-88.4734,81.5570,68.4614,44.5856,66.4065,-4.2230,14.7970,94.8495,-116.9025,-134.3502
130.7385,122.5552,168.5763,169.3105,-5.2189,-27.5448,-68.0077,-78.6939,-77.3879,-43.1518,80.9805,87.9072,14.1272,45.3769,-52.6430,14.1143,115.1599,-105.4166,-146.1838
177.3895,100.8089,220.9899,169.7868,19.0272,-41.1102,-52.9232,-101.2068,-53.6254,-62.2750,114.6381,65.6549,32.3387,54.6982,-48.5300,0.7673,155.1051,-118.7748,-101.6790
197.9685,63.1841,245.3380,141.8833,49.5268,-20.0111,-3.6956,-105.1432,35.9037,-101.7218,143.0035,28.1431,67.5159,43.0311,14.4847,-29.6392,172.2801,-141.8920,-45.8375
146.8686,55.9618,180.5605,108.0368,26.7914,26.4794,-3.0977,-72.3586,56.4806,-75.2919,113.3938,29.4762,50.3554,17.5665,14.0298,-51.1053,103.8661,-120.9237,-63.3540
96.0109,70.7973,108.1150,106.3002,-6.9366,29.4977,-51.1440,-69.4262,-16.9119,-73.1578,79.5460,53.4148,18.7668,57.4735,-43.4496,-33.7382,51.9883,-90.0148,-97.0453
105.2330,63.3402,113.1345,115.5996,6.9773,23.1164,-56.9650,-76.8206,-54.4338,-118.7225,95.7179,48.2698,34.1115,122.9037,-48.2636,-5.1492,97.2786,-90.1148,-47.4454
110.7849,19.7490,121.2926,73.8527,54.1191,60.1824,-9.2896,-51.0920,-40.7554,-113.2727,114.4569,5.5164,68.7570,103.4392,-6.9169,-3.2825,121.8068,-85.8875,31.2886
54.4886,-40.2042,44.1053,-21.8678,68.5818,71.5949,1.8516,-42.2739,-72.0104,-96.5103,79.3674,-47.7102,58.8287,32.9656,-19.0027,-11.8192,49.1065,-58.7545,46.8191
-10.3028,-69.5671,-51.8395,-76.1880,25.6368,35.3766,-48.9431,-40.8601,-132.6418,-95.7218,17.7361,-70.6701,-0.0260,16.0902,-95.2335,2.2885,-1.4625,-29.2223,49.6077
-9.1425,-35.3723,-49.7910,-21.8543,-12.1216,42.0835,-86.8052,23.3299,-126.7057,0.4696,-1.8576,-43.4052,-41.2593,36.8209,-135.8805,24.9905,46.6175,-2.7973,108.5078
37.1327,12.6781,25.7087,56.9018,-0.8086,73.5385,-71.3331,104.4877,-34.9016,151.8707,26.5560,-6.3222,-27.6585,36.8028,-96.5534,29.5926,93.2901,13.2850,174.1962
42.7050,9.9600,45.4636,52.1667,10.9511,49.9739,-27.6201,162.2670,96.8731,239.1560,26.0588,-0.0025,-21.1791,41.6575,-67.5606,48.1398,56.6502,21.4909,206.1675
-8.0357,-11.8174,-15.4165,8.4612,5.3235,34.4386,31.4559,251.2383,204.9903,318.8407,-32.2489,-3.8736,-61.0464,67.9967,-106.0183,104.1676,-4.2924,43.5788,239.2958
-36.9203,-5.7707,-55.3846,5.5727,35.8300,59.3747,86.4541,295.0475,209.3682,352.1137,-63.1503,-5.5037,-74.2837,52.1678,-126.9163,108.5164,-24.3682,52.8715,255.0316
-21.3032,-14.1072,-50.5085,-15.7385,75.9960,8.2715,75.4335,159.4239,86.2510,149.5937,-25.6979,-33.2655,-27.9758,-36.3423,-82.2219,-11.1853,-52.3592,16.0574,186.6415
-35.7906,-66.7570,-83.4786,-119.1263,43.6896,-93.7058,-6.7002,-30.1546,-80.7333,-165.3383,-2.7669,-70.7822,-1.7575,-121.4513,-57.6169,-138.8058,-150.5206,-5.1168,61.7399
-86.4012,-93.0532,-140.6951,-197.2353,-12.9231,-66.2294,-56.7974,-66.5958,-196.4500,-270.7484,-29.5383,-56.2264,-18.9559,-113.4281,-90.7407,-134.6573,-243.6615,52.8845,-18.8791
-80.2850,-38.1022,-112.9196,-128.8415,14.1931,62.9392,-14.5287,-6.4999,-246.1001,-199.4301,-28.4848,12.2395,-8.5742,-24.1711,-109.2715,-67.2266,-204.7713,140.3412,-23.7006
-16.2476,39.7962,-22.6398,3.3842,82.1951,104.8573,30.3509,-13.2029,-266.1246,-201.0301,19.4544,66.3713,33.1409,39.9245,-87.4490,-68.1278,-74.7620,178.4229,-28.5180
-6.6500,65.4861,-12.4660,41.2643,63.7321,52.6930,-22.2878,-89.5884,-291.0277,-272.6912,26.3493,67.5469,30.1923,11.2787,-76.4498,-98.0645,-17.8697,150.9517,-115.4848
-68.9955,55.5011,-91.5300,2.3557,-37.9905,23.4696,-125.2670,-145.8540,-324.9410,-248.4715,-35.6386,51.6536,-29.1215,-39.4410,-95.2765,-53.7856,-55.6707,86.7205,-243.0713
-88.5819,61.7406,-115.3146,14.5203,-97.4628,20.6351,-160.6241,-149.1243,-327.0112,-127.4657,-71.5348,58.5425,-64.9523,-8.3037,-105.6873,28.5545,-52.8951,23.6053,-284.3652
-19.2287,78.7871,-33.2260,85.0845,-60.8607,-12.6150,-111.8382,-145.2687,-265.1926,-57.4728,-22.3978,68.5788,-32.3886,69.7576,-78.9740,41.7862,31.8648,-26.1553,-231.9042
43.8333,83.3322,37.5566,127.0044,-23.8012,-66.8923,-70.4237,-172.0388,-187.8105,-94.7551,21.6499,58.8858,-7.5163,80.4802,-55.4587,-8.4570,98.5381,-61.4007,-200.7603
23.9325,90.7802,12.3454,128.0429,-79.8374,-91.6924,-91.6191,-172.4906,-165.7856,-133.7149,-35.9356,58.9176,-73.4656,30.9967,-91.7876,-18.5251,106.9573,-51.1435,-199.1363
-30.3253,101.4321,-45.3655,125.3622,-167.0134,-60.6776,-121.0125,-99.3513,-182.1256,-96.1279,-123.6312,78.2685,-157.6988,24.4219,-134.6400,39.9028,122.6873,-5.6009,-142.9469
-41.4407,89.3183,-50.3787,117.1570,-170.5641,-11.8730,-93.4473,-35.1186,-174.3642,-48.4837,-118.9040,78.3800,-138.7309,64.4842,-88.8920,75.6214,159.8925,-4.2923,-73.4255
-14.6733,84.9282,-15.5611,114.9626,-117.7053,-1.7751,-50.5703,-41.4010,-158.3450,-70.1189,-52.5493,76.4063,-63.6316,80.0439,-16.1522,33.2232,156.8049,-40.8130,-88.0826
4.8914,139.8908,8.3726,160.1073,-117.2999,2.3707,-80.3332,-55.4810,-207.7342,-153.2120,-19.0773,134.2419,-50.2089,98.2828,-44.1582,-25.0038,114.3904,-19.6666,-151.0324
17.7580,212.7997,21.9756,231.6394,-165.0450,58.0896,-165.0548,-60.0130,-330.2998,-237.8125,-6.9481,219.2223,-74.8336,169.6196,-128.6942,-41.6907,97.4888,38.3600,-187.0350
36.5138,220.2169,38.0237,244.3481,-182.9074,96.7210,-211.7802,-107.5811,-446.7048,-250.0360,15.5345,235.2945,-67.0894,198.0874,-147.3421,-43.9890,87.2786,28.5380,-206.0248
24.6973,159.8469,16.8996,157.0361,-187.3934,37.3792,-219.8310,-160.3305,-484.9459,-193.9814,6.0158,177.5131,-62.1818,97.4028,-117.8254,-59.9218,-0.1959,-36.0151,-226.7461
-38.8517,100.2890,-68.3735,42.4226,-238.2446,-37.9362,-263.6551,-162.8864,-454.3445,-180.4782,-43.3702,125.2586,-99.7421,-9.7739,-125.5732,-76.1683,-129.4772,-73.7299,-252.6741
-90.4135,99.0939,-146.2902,22.6086,-294.1306,-40.2658,-338.2140,-180.5167,-425.7279,-248.7095,-72.3649,120.2114,-139.7830,-7.7908,-171.7688,-92.7041,-164.4865,-78.8966,-315.1571
-74.7264,135.1784,-139.7237,89.3112,-294.0405,-43.9687,-382.4911,-266.5540,-433.5832,-316.5239,-68.7507,123.9106,-155.4003,-5.0740,-203.2539,-119.5441,-93.8499,-89.0180,-398.2281
-34.0543,118.3331,-88.7922,93.2343,-277.3004,-113.9215,-383.9800,-343.9054,-412.9011,-334.1973,-66.0911,81.9104,-158.6804,-83.7678,-184.0179,-135.2923,-36.4022,-118.5941,-413.3086
-10.6464,42.9375,-52.6353,23.7419,-263.8093,-169.6640,-335.8678,-333.5920,-298.8285,-281.4315,-52.9846,20.4159,-137.1450,-109.9818,-121.3920,-120.3514,-21.7188,-142.0946,-335.8978
19.6327,33.1329,-8.5211,48.2459,-183.9491,-154.6098,-233.5150,-266.0921,-164.6235,-151.2800,-11.7923,21.0442,-83.2714,-27.2241,-72.8023,-98.2091,8.0912,-107.1798,-255.2501
34.8288,103.5432,17.8893,140.3878,-61.4868,-129.6088,-163.5226,-206.3233,-135.5623,-51.3289,11.7533,63.3226,-43.7500,-9.5330,-83.5369,-97.9781,13.5530,-25.0125,-243.2805
-29.7342,97.1193,-60.3186,77.4221,-23.6200,-131.4482,-190.4564,-148.5780,-196.7389,-55.1000,-18.4642,38.9537,-52.5590,-131.4458,-125.4746,-113.0501,-71.4203,24.9368,-251.0369
-108.6703,-9.9257,-164.8091,-102.6177,-53.5051,-121.3646,-210.0590,-53.6790,-240.7035,-56.1041,-46.7083,-38.9504,-68.6381,-227.4884,-152.8075,-129.3163,-153.1738,37.0650,-182.7658
-73.5118,-59.0365,-123.9066,-148.0480,-30.5398,-84.9636,-139.7607,40.9104,-242.9492,-18.8637,-10.7714,-55.7312,-49.7704,-200.9705,-168.3369,-155.0293,-117.4729,66.6906,-50.3777
19.8179,-24.8756,-5.9097,-71.1877,12.6311,-50.3639,-79.5845,70.4009,-225.1846,-31.1649,45.6066,-17.3839,-26.4784,-147.1593,-181.4628,-187.9804,-44.1439,92.8525,38.3968
17.5669,-23.8922,-11.1886,-63.0789,-11.8185,-31.6124,-93.4815,71.1703,-155.0690,-31.1493,49.0184,-14.2521,-28.7583,-124.0217,-161.0087,-195.3575,-54.3736,77.1065,48.6066
-62.8759,-50.4049,-111.5505,-100.9340,-44.1527,-24.8567,-99.2604,91.9852,-44.2670,58.5195,16.4939,-33.2918,-25.6077,-86.9844,-93.4659,-160.4975,-106.7332,55.9296,22.9364
-114.3269,-28.1642,-167.0268,-78.8881,-37.0617,-20.0579,-81.4272,74.0907,-5.0759,107.7064,-14.2729,-15.7006,-15.0715,-38.1489,-42.9268,-102.7380,-133.9365,55.0068,-47.8261
-150.4990,7.5968,-206.5562,-55.5808,-67.2338,-1.9043,-113.7517,-7.6758,-85.8677,55.9310,-67.2342,17.3028,-46.6089,-16.9298,-65.6692,-40.0810,-177.6306,58.1076,-163.5441
-211.7527,9.1539,-286.2382,-79.9998,-138.4128,21.9078,-174.6648,-67.1215,-197.2198,17.6332,-134.2386,32.0798,-97.8987,-1.2384,-104.0230,11.1894,-247.8405,62.1809,-233.5735
-242.6197,11.5045,-327.5070,-82.5628,-164.8992,16.1474,-197.9995,-81.8827,-251.9446,3.1278,-147.6504,39.3436,-95.4999,30.1299,-77.1721,28.1579,-266.3548,42.5527,-230.9691
-209.4551,14.7006,-283.1933,-66.8157,-156.9265,-34.1150,-202.2690,-112.9439,-240.8436,-32.6698,-107.5838,32.1986,-55.9238,33.3525,-13.8120,23.9962,-227.4819,-30.3239,-235.6963
-162.3844,-35.5282,-218.3313,-119.9380,-166.6607,-104.0138,-207.6875,-146.9489,-189.3042,-40.7479,-72.1866,-11.5010,-34.0168,-9.6050,24.0643,28.8674,-210.9830,-105.3941,-246.0093
-132.8731,-115.9234,-178.7983,-213.8342,-161.9169,-151.6808,-182.3796,-135.6429,-140.0652,-38.9077,-45.4442,-67.8576,-15.4621,-50.0694,42.7977,17.3806,-220.0879,-123.1924,-190.9969
-108.7961,-132.6714,-154.1285,-219.6322,-113.3548,-134.5519,-121.0767,-93.9128,-120.4768,-80.8823,-20.2302,-85.6611,7.7976,-59.5376,55.8356,-33.7729,-182.9189,-99.1988,-87.9911
-83.4767,-69.7434,-123.6691,-116.5503,-50.7195,-44.7474,-41.3306,-32.9553,-98.0173,-92.6275,-22.0917,-52.5784,8.3278,-44.6678,56.7128,-61.7333,-96.8137,-50.1748,20.3897
-57.3534,-23.2255,-75.7285,-40.4109,3.7499,52.7918,47.2126,53.0774,-44.1477,-39.3280,-28.2424,-13.6369,13.5373,-0.4910,67.2628,-18.7536,-40.8965,10.4766,130.2814
-43.0747,-56.3223,-43.0085,-84.6700,34.1498,78.0701,103.0242,124.5477,1.1841,5.5142,-1.0305,-16.3048,50.9181,49.5540,89.3432,35.4914,-56.6797,24.7405,188.9737
-55.0440,-101.3517,-60.9281,-153.9545,29.1019,39.3201,93.1306,148.8511,1.5397,30.2704,20.2850,-43.7178,69.2072,51.3603,83.4559,41.8127,-83.4395,-9.6061,165.7555
-56.1862,-84.4716,-68.9909,-125.0905,29.6319,16.4151,69.7752,139.5558,-16.0503,15.7197,15.7467,-49.2845,55.8771,26.8366,66.0449,20.2083,-29.9469,-12.2843,155.5967
2.1227,-54.7233,8.0567,-48.9248,78.0361,47.9624,98.7668,103.7541,-12.5157,-91.4943,46.8092,-42.0814,79.6072,43.5053,93.5258,-3.2474,95.9840,28.5968,212.5903
83.3882,-70.9114,117.1070,-28.6184,146.2460,95.0412,164.3799,59.4308,25.4465,-176.3158,113.8651,-55.9133,141.4179,68.7740,150.6638,-26.9216,180.0615,49.4501,261.0176
112.7679,-87.1891,157.6422,-36.9380,186.0994,112.1189,215.8725,56.9059,96.4908,-101.5997,131.8629,-73.6156,164.7446,38.1833,185.4033,-32.9882,155.1168,34.3305,276.3385
85.3287,-66.8043,124.8779,-19.5948,188.1308,105.8578,244.5571,103.2344,179.2616,35.9046,84.8920,-68.0253,135.6201,4.5777,192.3494,-2.7753,86.6774,10.7015,304.4612
51.1889,-51.0185,85.7552,-6.0110,176.9718,115.9623,275.6240,148.7343,232.4051,107.2509,39.0625,-53.2461,106.9137,27.7490,185.9692,46.1193,65.9112,7.4247,313.6379
55.4451,-51.5326,102.0502,-6.2389,189.7433,159.4870,312.1624,156.0540,229.7223,107.7384,37.9371,-42.6674,109.8233,53.9183,172.1020,74.1851,106.6473,44.3180,265.8485
115.5512,-38.4870,187.6142,21.1774,226.8266,205.8832,318.7298,122.9834,197.7675,45.2141,84.1874,-33.0143,137.7038,48.2181,162.2263,64.6008,175.8874,76.3894,229.8546
189.9721,-21.7599,279.3716,67.3148,238.3176,212.2742,285.5907,87.2828,200.8230,-0.0821,141.6476,-31.7095,162.4940,45.8664,172.3863,46.2595,236.8738,39.0818,256.3120
202.8102,-17.0852,296.3260,86.3323,199.5377,183.1189,261.7354,105.7788,261.2054,89.8690,145.0582,-36.2105,155.7384,26.6291,215.0130,46.6396,252.3432,-25.2180,289.3307
152.6016,-8.3563,246.7604,78.7930,140.6451,170.9859,271.4250,178.9219,336.6778,242.0910,93.7540,-26.7231,122.4446,-30.4658,266.5658,44.6015,219.3890,-41.5670,287.7678
119.9393,5.1763,211.6530,78.6219,91.2646,194.5727,276.6485,261.0175,408.3027,341.9365,62.6864,-4.9041,88.4575,-47.1575,265.8356,31.5153,189.3743,-35.2832,291.3241
136.5598,19.4407,227.5743,104.0280,58.8915,193.1828,255.9209,325.9796,480.0920,424.2463,68.2037,14.8631,60.8525,-4.5050,214.3515,47.2957,198.1252,-50.6722,321.7381
148.5959,42.5201,244.1871,133.7305,37.5912,119.3402,217.9990,329.0437,484.6442,445.3684,57.0671,27.5860,35.9673,1.8291,182.7672,84.8352,214.2214,-75.5002,319.4158
129.2453,41.6297,212.3728,119.2774,18.7288,31.7425,159.1908,219.0491,375.2278,308.2497,37.5174,15.3463,24.2190,-22.4907,167.3798,82.2437,204.1198,-101.6983,231.6680
118.3780,-13.6706,169.6309,55.9934,16.5138,9.4332,102.0124,60.8493,258.7708,133.0279,56.4453,-30.4550,33.7550,4.8445,115.2397,46.3869,189.1329,-118.2350,109.9721
127.8465,-64.8128,168.8625,2.1143,36.0753,25.9602,91.8143,-30.4145,221.0570,29.5222,75.9009,-68.1039,43.9991,24.9948,69.1471,37.5020,194.0056,-96.6133,35.9187
118.8029,-51.3125,179.2554,-2.8170,43.4883,15.5660,110.1724,-65.1825,178.2563,-94.4905,42.6057,-60.9284,36.7783,-25.5895,90.1516,60.7802,211.9875,-59.0693,-1.5241
101.0159,-2.3336,177.9904,40.0354,52.9563,0.9789,117.3267,-106.4526,97.2060,-214.5569,15.8533,-27.0006,46.7137,-33.3591,142.2818,91.8680,242.7234,-36.2102,-41.2599
130.3202,39.5315,221.1215,116.4319,125.9641,35.2796,139.5918,-134.0483,90.5921,-189.9177,61.1140,5.6845,105.3256,48.8619,180.0873,118.8619,273.5759,3.3245,-50.6752
176.4023,53.1653,281.0491,157.6706,215.0198,82.4574,179.4258,-123.7460,159.4289,-74.9582,113.0575,16.1192,156.1655,82.0312,192.9469,121.2923,241.9698,53.3152,-13.1170
142.1881,4.1801,225.7278,82.0320,212.1365,72.6808,165.0678,-98.7571,173.7882,19.7049,98.0646,-19.7414,145.1626,46.7503,167.7542,117.0791,127.2627,49.1398,20.5864
41.1481,-88.4871,76.9467,-58.0914,154.6286,18.4302,102.4352,-51.3850,143.2669,104.1245,63.5371,-80.7257,125.7661,71.4932,137.8723,156.2043,17.7681,9.1626,48.5257
-14.2372,-139.6585,2.9517,-132.5018,148.3819,-17.3798,99.5357,29.6125,177.8089,159.5376,56.4560,-112.3973,135.8351,114.2057,144.4660,197.6160,-18.1860,0.2649,112.6810
-4.6425,-130.9614,20.0241,-130.6470,173.3290,-18.2824,168.9348,96.3319,245.5712,169.0403,37.6173,-114.9867,118.6713,43.4912,141.1336,163.9999,-18.8590,5.9879,171.2723
-5.6346,-114.6600,16.1314,-122.7909,159.7598,-11.8153,194.7812,116.3721,242.3220,183.2805,1.9923,-114.6460,73.9503,-56.9299,110.6435,105.2773,-18.8009,3.2232,164.5154
-25.8289,-95.0672,-2.4721,-107.7462,117.1997,-8.5867,134.4203,122.7440,184.4471,169.2869,-0.7541,-91.5654,68.1637,-47.8653,119.5630,100.4451,2.5234,34.3016,149.7816
-13.6381,-62.5126,27.6495,-67.7247,89.2773,2.9993,84.8377,143.0081,150.2897,100.2708,17.0462,-47.9118,77.3045,2.0389,138.5659,105.3482,38.8382,100.4380,200.9237
24.9156,-63.2030,69.5363,-54.6968,106.4014,14.3969,117.9513,149.9368,141.7629,68.9440,20.1510,-45.2697,58.9450,-12.1130,91.3884,61.9126,59.7664,145.2589,261.8976
50.0329,-111.9699,80.8550,-96.7572,171.3280,-0.6508,179.6660,94.3898,110.3116,43.8677,41.0569,-95.7533,73.9710,-56.1426,56.2281,-9.0567,71.7391,154.5218,238.7406
68.2476,-144.5566,97.8812,-128.6311,232.3301,-24.9809,194.9407,-10.3926,60.8806,-74.1514,93.3798,-135.3889,138.2068,-90.8968,107.0840,-79.8381,93.7794,152.8313,160.7216
99.2362,-117.1058,143.3450,-90.4016,237.4796,-3.3023,173.7887,-61.4302,54.9673,-149.4129,117.8732,-123.4029,155.8572,-124.1656,142.3269,-118.3635,122.0655,155.7714,130.9846
116.9112,-62.4807,174.5145,-25.2417,188.5337,49.8337,151.9276,-15.9996,97.8960,-86.7953,86.3783,-75.3122,100.4077,-126.0206,98.4470,-87.1510,126.9018,162.9539,150.0308
77.9842,-42.0365,130.2393,-27.3470,104.8371,43.1565,115.7304,14.7441,112.2502,-57.9183,29.6419,-37.1661,40.6637,-89.6974,54.8558,-27.9955,61.3778,143.4177,119.9877
-8.3921,-84.2299,8.3261,-111.7872,29.7682,-36.9932,62.6337,-28.2765,81.1875,-67.0248,-21.3007,-59.0827,12.7423,-75.9953,55.7719,-6.4687,-55.2341,77.1589,41.5356
-67.5502,-158.1287,-87.3609,-198.3246,28.7106,-99.2526,46.3267,-33.0839,83.2665,72.5052,-30.1600,-131.8760,24.1141,-101.0834,80.7849,-9.7043,-107.6414,16.3724,37.2654
-45.9713,-209.6299,-64.5603,-234.1321,82.0589,-107.7028,85.5203,44.5877,127.3889,245.8277,17.3413,-184.2645,66.4954,-130.0808,110.8559,-30.4535,-58.2191,11.5984,126.8584
6.2221,-209.6868,6.5756,-231.1668,104.7452,-99.3225,112.7002,94.5836,129.5261,237.2072,60.5496,-177.5790,84.1298,-159.2562,100.6844,-82.9865,-19.5778,39.4764,176.8621
9.6119,-149.1706,13.4915,-182.1129,95.3690,-61.5420,73.9633,91.7413,70.1013,173.9280,51.7339,-126.3390,59.3163,-166.5508,36.8556,-91.0551,-45.1935,71.0280,123.1293
-20.1806,-54.3980,-16.7866,-87.1084,98.3511,14.1096,6.3423,102.3686,1.3337,196.2017,31.8528,-56.7988,44.3705,-108.1632,-17.1415,-5.7669,-56.6595,93.0114,44.4965
-23.8569,-2.4704,-20.4186,-24.3025,92.0039,45.2514,-30.4695,83.5351,-49.7009,161.1970,30.3572,-17.1075,43.5743,-36.0691,-36.3198,56.7865,-31.3087,70.8425,1.2330
-14.9617,-17.9489,-23.9685,-36.1170,53.6363,-0.5929,-40.3225,-11.5328,-65.8174,1.1181,17.9169,-31.0878,23.0389,-29.1831,-40.3058,24.5487,-26.2783,16.1998,-29.9007
-30.1195,-28.0264,-48.7296,-52.0081,2.9840,-38.8167,-61.5900,-90.2274,-44.4426,-133.1653,-6.1570,-39.1456,1.1580,-41.7836,-17.6021,-13.8090,-43.6515,-10.6630,-73.7020
-43.6000,-15.1315,-65.5359,-43.5760,-56.5855,-42.2279,-94.9741,-117.7593,-49.5051,-172.9164,-16.4259,-15.8685,-13.0576,-18.0904,-0.6719,-27.3651,-61.5306,-31.8717,-115.3627
-27.2667,-46.7866,-69.5831,-70.6501,-100.2823,-59.8439,-110.1211,-183.1555,-109.8383,-195.4388,-17.5800,-33.3214,-37.4075,-9.5659,-37.8723,-63.4462,-88.5084,-95.4812,-126.5700
1.6668,-101.5070,-49.4008,-113.2852,-60.9559,-59.4256,-86.0560,-261.7847,-128.1686,-239.7948,-2.7774,-88.5284,-24.0253,-25.3157,-47.4436,-72.4046,-89.3505,-117.2874,-106.9107
36.8412,-92.4784,30.1343,-86.9126,49.0735,2.8796,-16.1841,-250.3397,-43.4926,-268.9931,45.7347,-85.5222,57.8315,1.5451,37.6736,-17.7060,-18.9376,-23.1209,-93.1932
77.0841,-43.6118,117.6186,-16.2958,118.8861,48.8360,63.6646,-204.1788,40.8598,-258.0668,80.1322,-39.3660,110.0349,36.5805,103.4521,10.5140,67.9327,63.0139,-102.6811
85.0346,-23.3052,119.1678,17.0238,86.8006,21.2898,75.6274,-211.3799,29.5139,-227.0343,45.9165,-33.8306,64.1923,3.8007,78.0541,-4.4401,97.3089,15.3611,-105.9214
54.2400,-14.5863,71.5749,18.9648,11.1242,-6.4298,30.2729,-194.2959,-1.5272,-184.6121,-7.2461,-39.3326,7.1392,-30.2887,63.3989,24.8790,92.1827,-76.0081,-82.4106
35.6079,-5.8304,65.1747,17.0099,-15.6016,8.5287,48.8442,-94.8240,60.4803,-113.2677,-10.9610,-15.0450,13.2532,5.8429,103.3704,65.9048,93.3259,-84.2868,-41.0881
31.7231,-35.0524,63.2107,-18.8796,6.3455,6.6505,136.6342,-10.4199,171.0486,-43.7435,-2.8414,-19.4308,25.9413,22.6357,117.5615,33.2964,72.2705,-53.5475,2.6464
-1.1620,-85.7641,5.9037,-95.7577,-10.4905,-41.4616,147.8671,3.2111,198.5828,-19.7836,-36.6495,-64.3511,-8.5241,-44.8011,83.0719,-7.1993,1.4694,-75.2184,18.6809
-37.4903,-116.4493,-43.7725,-167.4613,-72.4106,-101.1001,67.5673,0.3074,135.7078,-4.5769,-64.2116,-88.8699,-40.1849,-102.9080,53.1363,16.9797,-74.5569,-132.7150,-6.8012
-25.8739,-141.4550,-32.6966,-204.6331,-89.8554,-151.6935,21.7324,-12.4029,87.5005,14.4862,-31.0550,-100.4053,-20.5049,-92.7094,48.0409,26.0121,-95.3918,-179.0299,-33.6813
4.9363,-151.2962,-17.7171,-194.4604,-81.9264,-194.2478,-7.8686,-73.8144,60.6815,-33.5464,10.6388,-119.5763,-5.4211,-81.6474,29.5915,-34.9932,-69.5844,-222.5516,-52.3920
15.3380,-92.0192,-27.1421,-118.5714,-143.7492,-223.7885,-126.0056,-162.2363,-44.4772,-126.4887,-0.8999,-91.5441,-57.7616,-98.7232,-44.4246,-83.2532,-44.7383,-260.1736,-119.7366
22.6446,4.9336,-17.1033,-12.7955,-220.1859,-233.6985,-266.1727,-233.7200,-218.4108,-165.9088,-26.4887,-15.9632,-115.9377,-91.5764,-127.9006,-60.5845,-19.4949,-250.7729,-228.0111
33.5013,39.1579,11.5518,30.6122,-207.4517,-225.8435,-310.3028,-281.4820,-323.9231,-183.7378,-7.3083,16.6640,-90.7396,-54.7086,-120.9210,-19.5380,24.0112,-199.6618,-294.2045
40.4487,3.3384,33.8811,-7.2080,-155.1796,-215.3805,-289.9753,-309.4871,-302.4883,-245.9353,40.0796,-7.5531,-21.4060,-37.6844,-47.8441,-22.4324,45.7099,-152.7304,-306.3511
64.2263,-12.6617,71.9150,-24.2686,-124.0487,-204.7424,-256.5254,-313.6781,-218.6029,-280.1998,70.8679,-12.4923,8.8394,-50.3118,-14.9513,-67.3489,25.8876,-105.7069,-301.3166
89.1517,31.8160,110.5335,45.3261,-74.0908,-159.9166,-181.8185,-274.5235,-129.9915,-208.9753,69.3408,21.2769,11.1673,-59.2949,0.5617,-105.4305,24.1896,-37.7057,-253.6064
63.1340,71.5016,86.2775,110.9858,-5.8496,-71.5424,-71.4225,-165.7873,-54.0249,-55.0133,46.7262,41.7908,28.5396,-47.9585,64.9343,-99.0816,49.2181,14.1042,-141.8978
9.6484,32.8986,21.8073,58.8668,40.1314,-1.3246,28.6510,-15.5587,0.6589,120.5296,31.5621,15.3131,53.6116,-38.0149,112.1440,-66.7188,22.4213,21.7977,-16.4183
-17.5456,-51.3868,-15.2908,-66.9687,65.4144,0.8956,98.8329,97.8042,44.9931,223.2301,23.9390,-36.0412,57.8383,-62.7913,87.2718,-43.4807,-62.7955,14.3507,73.7662
-46.4074,-80.7588,-50.8107,-129.6983,39.9602,-35.8783,108.3246,138.6003,79.5115,203.4117,-20.3115,-57.3214,19.3036,-108.3978,57.0991,-23.2722,-122.8454,-3.1188,108.3297
-91.2989,-37.7887,-107.4835,-88.2214,-42.8465,-57.4936,45.9154,126.2570,72.2755,162.4865,-83.0945,-32.2164,-38.6956,-107.4366,57.4626,6.8546,-115.2700,-45.1198,90.3933
-80.8470,-2.6392,-103.7830,-14.6411,-55.5815,-43.0353,-0.4530,87.6989,42.9981,189.2131,-72.3123,-14.9047,-38.1711,-43.1416,59.4219,30.3885,-51.2489,-69.9688,81.0298
-9.5541,-8.5621,-18.1621,25.6348,42.1249,-14.3325,35.8636,62.4273,60.8582,226.9752,-0.5627,-32.9658,22.5518,6.6221,64.1093,46.7968,28.9119,-53.0201,115.1299
20.0154,-9.9314,30.3344,23.7679,71.4624,-13.2129,69.6138,72.2884,96.4364,232.7773,9.7620,-34.0813,33.0152,-1.3794,61.8047,80.6625,38.9742,-56.0211,111.4915
-28.0075,3.3116,-24.5893,-7.0338,-38.7366,-43.2166,9.8829,72.4631,60.2803,226.7834,-55.0210,-2.2757,-34.4498,-13.5930,19.3206,123.8765,-52.2127,-108.3919,25.5222
-79.5925,-10.6088,-103.5926,-52.5293,-117.8946,-67.4439,-75.7043,29.8907,10.3343,194.5527,-94.9935,-3.5653,-81.1469,-4.8925,-35.0523,141.6440,-145.8608,-149.6196,-45.4626
-82.5546,-49.8180,-121.0801,-89.2038,-81.8178,-73.8310,-79.7858,-10.9036,68.0774,147.9310,-84.2039,-50.3045,-70.8432,-10.4356,-50.8728,131.5867,-161.8252,-146.5182,-46.3118
-54.5525,-67.2647,-81.1966,-92.8715,-42.9682,-66.4827,-27.8529,-17.6018,164.8044,135.0207,-64.6671,-67.6210,-50.6193,-11.9825,-27.7238,118.2345,-134.0065,-127.1939,-38.8187
-30.2225,-60.4756,-36.4519,-76.0932,-57.3811,-36.4594,0.2715,-8.9123,168.6841,129.6980,-44.3253,-40.4478,-29.8701,23.8298,21.5075,109.3878,-101.2105,-104.8927,-26.6895
-19.2170,-73.8910,-15.3779,-84.5287,-45.8180,-12.1284,30.1196,16.5169,145.0428,100.2902,-24.2366,-41.8493,-0.9615,36.0785,70.5712,93.3512,-65.5891,-78.1475,46.4180
-1.7746,-111.8857,1.0777,-123.7276,38.1644,-32.0244,118.3692,56.5274,179.6602,71.6910,-10.7923,-89.2960,22.1877,-18.8540,70.5434,55.9665,-45.7414,-61.3918,136.1192
26.1485,-126.8663,22.4616,-142.0002,124.1869,-56.3187,196.0755,63.9577,162.7069,28.0909,13.7360,-115.1948,43.9657,-64.1405,33.1557,-3.2269,-47.8140,-61.7762,155.5142
33.4196,-96.1093,23.0850,-112.6489,128.2671,-41.8128,167.7605,39.0457,37.7020,-23.9601,43.3829,-88.1792,64.8930,-54.2526,24.7118,-49.8164,-45.8985,-70.7700,120.6827
21.0386,-42.8705,17.0550,-60.5036,79.5771,-25.0362,84.5107,47.8711,-40.3957,-2.1532,50.4890,-42.8257,66.9327,-44.9390,48.8871,-41.4694,-31.3645,-77.7330,89.9681
26.0437,2.9077,40.4000,-15.6800,55.6483,-24.0361,40.8190,87.0219,-9.6199,46.0185,50.6657,-6.1414,58.8897,-43.0252,50.7554,-0.1340,-19.1190,-77.4344,67.8535
28.7248,12.3840,40.8724,-12.5686,23.2145,-12.0547,14.3522,81.9297,-4.9773,-9.1184,48.5096,13.7598,39.9560,-7.4968,11.6609,7.2717,-37.0782,-82.8484,44.0705
-18.1359,-19.9331,-38.5622,-65.5326,-82.2116,-7.3910,-47.1813,34.4718,-67.1442,-80.6833,2.6244,12.2857,-18.5827,23.1593,-35.7616,-16.6372,-108.8656,-98.3449,24.4335
-80.0565,-44.2938,-121.5628,-112.1343,-181.2910,-23.4829,-119.8546,14.1262,-108.0140,-24.4225,-60.8621,8.6306,-79.2712,11.2687,-57.6010,-3.5106,-184.9329,-89.9908,1.9887
-100.8843,-37.7397,-139.1790,-107.4930,-176.4193,-22.2099,-166.4888,17.2437,-124.3863,56.4152,-65.0586,10.1831,-76.2421,13.8388,-64.4043,42.8796,-186.1974,-51.1933,-33.6603
-104.4089,-62.3662,-156.8268,-118.4800,-128.3345,-12.0381,-178.7997,-19.1459,-148.6500,37.1119,-33.9962,-21.0230,-45.9725,51.9886,-85.7452,43.5162,-142.3817,-29.3683,-65.6238
-111.6719,-121.3854,-190.1060,-159.2387,-106.6645,-17.5440,-153.3838,-83.0267,-139.4100,-1.1302,-30.6528,-76.7783,-42.5108,62.6840,-94.6229,-7.8376,-114.4137,-14.9502,-61.3283
-77.2214,-104.1501,-135.2612,-109.8858,-54.6067,17.8972,-107.3630,-91.4415,-99.4544,11.0462,-19.4941,-73.0844,-24.3931,38.5833,-54.3841,-35.9876,-54.1449,66.2326,-10.8132
-3.4971,5.3258,-0.4098,37.1688,52.2790,115.8216,-66.8686,-18.6858,-87.4262,26.1973,29.8542,2.8131,29.0941,29.2383,-12.1077,-16.2332,58.5355,206.2813,57.2410
34.6106,82.7766,80.6613,127.9456,133.7345,202.9742,-17.8264,78.7529,-72.1078,28.9597,56.5334,62.7019,62.7796,34.3706,-1.5639,14.7568,132.7406,316.9930,114.8537
35.6057,91.1331,101.4494,137.5847,169.3727,261.5149,67.8955,152.5621,3.6002,31.9130,47.0487,75.0395,74.2278,42.5450,33.1247,38.4633,166.9685,364.3590,171.7750
67.9563,100.5629,153.0114,169.9515,221.7785,310.9386,170.1368,191.6983,80.1802,17.7941,66.1364,80.4273,107.3650,71.1236,87.8023,47.0708,238.8330,361.6487,226.2718
109.7914,109.1437,193.9989,195.8086,275.5771,294.5449,224.9660,190.0412,79.1853,3.6200,101.9880,76.8069,133.6174,87.9578,75.9477,28.5984,274.6003,307.1694,230.4565
86.4630,84.9174,143.0391,142.1857,252.7486,211.3791,197.1696,166.3092,32.9873,30.4051,79.9663,52.4752,102.2117,40.3012,13.0227,9.8418,179.9797,232.6842,178.2308
36.4764,74.5210,82.1219,92.9501,179.1936,178.2111,145.3919,173.1432,15.2620,85.9413,19.8291,49.8842,46.7430,-23.4761,-12.2615,29.4246,80.3883,206.7289,143.0530
35.0820,98.5006,100.4659,116.1066,150.7327,220.9723,155.7542,223.9585,44.4639,124.2142,-2.1839,81.0266,28.4216,-16.5331,1.0469,69.2479,101.7379,235.6434,161.4064
40.0444,102.2270,115.0335,132.4151,166.4216,248.2861,212.6523,265.2095,101.2076,119.6850,1.4106,92.5422,40.8517,33.6644,25.8752,86.3415,150.8427,256.5838,194.6657
9.2992,76.6297,69.4289,109.5221,168.4038,235.9367,254.4772,253.4056,168.6515,79.9956,-21.1424,65.4402,42.9725,41.8574,75.5278,73.6473,142.1304,234.6355,228.1488
9.6235,57.0420,59.0490,100.2369,166.7083,211.9224,288.9713,201.4834,215.2044,26.3712,-43.1478,37.8400,32.1335,19.5426,108.3081,47.3630,127.7928,193.8414,259.6398
51.0260,32.2007,96.0130,78.0395,168.4180,164.3135,302.3047,142.0121,185.4584,-32.0024,-26.2405,26.4646,24.8711,30.6200,55.2389,22.0799,111.6165,161.8808,231.3070
50.0035,-13.4282,74.8447,2.8365,129.0280,103.1993,230.8746,93.2316,84.5458,-77.5146,-4.2021,10.4195,12.3143,51.0076,-42.7872,3.0046,57.0485,137.6053,134.4975
27.7065,-47.4265,35.2991,-54.7475,76.1308,70.3791,131.5900,62.2767,11.8141,-84.7105,1.4149,-15.6613,-3.9052,20.7056,-86.9342,-15.2346,30.7729,118.6413,73.5499
56.0365,-45.4087,78.0185,-42.9679,74.7071,61.3527,109.2394,51.7424,2.8273,-79.0126,14.4482,-24.8446,-0.1430,-22.4921,-69.4941,-18.4135,74.1189,116.3114,91.6389
70.4001,-23.4184,104.2741,-12.7669,81.2115,48.3708,107.1541,48.4383,-27.6593,-92.2304,10.9636,-9.6564,0.1262,-13.0336,-65.4172,16.1899,102.6492,119.5803,108.1334
26.7360,-10.5133,33.3984,3.6761,61.2003,25.6051,72.9231,25.2478,-79.2847,-89.8703,-33.4438,-10.8591,-35.4750,14.3534,-104.6206,49.6999,91.4067,97.6829,100.5006
25.5468,-21.2719,8.6519,15.0760,79.0772,-7.5770,98.7696,-9.4175,-54.4748,-69.6718,-53.1902,-40.9114,-56.4938,7.6780,-127.8737,30.4486,99.9401,57.8200,120.3657
56.4558,-36.8452,51.4223,-6.6901,88.8644,-41.7974,150.1714,-5.4958,-8.7909,-88.1322,-35.4273,-43.9289,-40.7875,-6.0930,-103.2550,7.3762,76.6010,25.6228,130.8188
-20.6601,-37.6419,-33.2297,-76.3405,-30.0805,-67.4464,67.1966,26.1539,-68.9164,-117.4286,-80.7854,-12.1100,-73.8296,-17.7527,-93.1284,34.1481,-53.7431,-17.1233,65.8549
-142.6273,-46.0670,-201.9592,-138.1695,-167.8509,-105.4563,-69.9965,-4.9821,-158.8191,-108.9489,-169.2029,-20.6949,-149.7757,-71.9177,-115.5759,35.5192,-174.8768,-83.6447,-26.6135
-127.8364,-66.7005,-203.8954,-140.2263,-146.5832,-159.6725,-78.6018,-114.6967,-169.6128,-127.4309,-157.8671,-69.6549,-143.3251,-146.0824,-100.0631,-40.7663,-153.6663,-131.6602,-90.7699
-36.3531,-46.4789,-83.7162,-86.5804,-77.5082,-183.5988,-53.7629,-201.5157,-182.0321,-180.4120,-80.5028,-66.4092,-82.9950,-163.4626,-65.4743,-89.0360,-77.2755,-140.8545,-154.2057
-26.4277,23.5289,-62.5243,-6.9744,-126.8132,-153.7480,-135.0227,-205.5553,-219.4262,-156.8569,-84.3757,-5.3936,-107.0846,-124.2433,-95.0438,-42.5239,-66.3684,-144.8527,-203.4084
-56.6532,70.8990,-105.0794,56.2452,-201.6261,-107.8435,-207.9962,-166.8477,-148.4009,-82.6803,-131.1872,27.3159,-170.3009,-87.4690,-128.6057,0.9737,-71.3837,-155.6616,-174.9384
-51.3310,52.6023,-99.7450,56.2203,-197.2788,-94.4505,-183.6574,-132.0448,0.7142,-81.3582,-119.6783,3.0948,-159.9756,-81.5846,-78.2055,-21.2011,-39.5095,-163.2647,-97.7539
-61.6696,-6.5286,-116.3093,-9.6361,-181.9382,-122.6990,-158.9411,-118.5574,50.3411,-97.5763,-105.0300,-48.8803,-134.3628,-99.8498,-34.5463,-41.3391,-30.8218,-178.0108,-49.3957
-85.9590,-62.1972,-166.1579,-70.5180,-174.0251,-140.2662,-154.5334,-113.8474,14.9400,-17.4313,-123.6408,-98.1880,-152.4340,-106.9247,-85.6272,-25.4835,-52.1182,-190.4419,-24.7626
-47.8035,-63.2783,-129.2177,-46.0956,-116.7523,-93.4856,-102.3476,-72.6234,21.4842,103.0425,-98.1819,-99.3305,-146.1258,-75.5683,-145.4208,-21.1181,-24.4615,-170.1347,10.9041
15.2821,-5.0698,-33.4991,36.0572,-64.3012,-30.4314,-45.9088,1.2358,52.6152,167.6506,-45.5263,-47.1833,-108.7775,-60.9446,-127.7293,-42.0572,33.6788,-136.0657,43.2510
8.5335,30.8310,-17.6436,54.7706,-90.2771,-38.3481,-41.5512,33.6429,59.2937,167.0836,-59.9134,-14.3433,-106.1005,-120.7587,-56.1496,-56.4858,14.0124,-133.2856,50.0231
-47.3505,8.2545,-74.8771,-12.1162,-141.4857,-99.0697,-42.1874,9.4784,69.6037,115.8379,-114.5538,-24.5745,-122.9644,-183.9417,8.3252,-52.1694,-85.1814,-161.7031,20.8477
-78.2299,6.8452,-117.2594,-40.3554,-165.7341,-141.6910,-48.4682,-17.4331,54.6516,50.0830,-136.5725,-15.3147,-135.4682,-167.7944,-8.4237,-43.9982,-151.8817,-192.9824,-47.6511
-78.3150,50.9160,-137.9449,11.7623,-200.1153,-152.4900,-129.5522,-42.2216,-34.7836,19.6975,-137.4745,18.0924,-174.4046,-123.0566,-117.0489,-52.4730,-134.4732,-202.7234,-115.7066
-72.6306,57.0419,-146.8514,36.5990,-244.6902,-126.6467,-237.1226,-68.1619,-115.1685,26.3017,-125.8452,19.6812,-203.7390,-101.5502,-191.2631,-68.8357,-80.8782,-171.2562,-127.3338
-52.6982,22.0475,-106.6174,16.5356,-221.8242,-49.6423,-234.3255,-42.8942,-82.8258,60.4226,-76.7025,5.4498,-152.8217,-56.4256,-138.7833,-48.8518,-21.7878,-101.9618,-79.2718
-3.0318,34.2944,-7.9374,58.7552,-107.1710,33.4219,-111.8871,24.3703,20.0118,109.6281,-13.4640,26.0372,-55.7951,12.7281,-27.2667,0.7978,58.5255,-16.9669,-6.0575
50.7265,90.2224,86.5535,151.8779,17.9558,64.9937,0.1083,43.9357,79.8726,108.5333,28.6964,59.9400,17.9711,27.3157,63.3668,2.5468,131.1012,60.7417,45.6383
64.0819,111.8879,107.7481,173.3956,77.3095,53.8234,18.9978,-0.6137,42.7210,30.4949,57.8393,65.6391,63.3355,-12.2842,109.7509,-53.6763,124.3426,88.6492,21.1189
42.8589,91.0752,67.0221,116.4087,79.3494,29.4833,-17.0129,-57.4152,-56.5733,-63.5551,73.9851,50.7517,80.7883,-32.1856,84.3044,-85.1400,46.2920,44.7391,-66.5663
30.8396,63.9445,34.9934,65.6509,55.9417,7.8664,-49.4170,-113.6899,-135.9343,-145.8680,59.9493,33.8007,57.2893,-25.0997,14.5912,-69.5668,-8.8613,-3.2861,-123.2341
28.6944,38.1969,29.7386,37.3525,15.3610,5.3687,-69.0719,-158.5778,-164.9975,-207.4853,26.9432,18.5454,17.7469,-33.0647,-18.8070,-54.2493,-3.0861,9.6580,-121.8411
11.1381,18.4594,17.4960,8.5069,-10.2861,9.6452,-78.8860,-160.9279,-182.1478,-189.3875,5.9308,9.4114,5.0328,-50.7464,-9.8082,-34.5232,7.3934,37.3985,-136.1408
-5.0806,10.7775,8.0103,-14.3167,18.4357,-3.1117,-71.3341,-137.5039,-180.9890,-107.0113,20.5958,7.3140,37.8842,-41.9803,10.9272,6.9016,-17.1950,37.0159,-184.5991
-3.5247,4.6397,18.8847,-26.1547,75.0052,-7.1510,-52.9376,-116.6449,-127.1685,-58.1835,66.0574,10.6951,97.2545,-0.3229,45.2779,23.8226,-54.1238,61.1765,-209.6140
-6.4354,2.8326,13.9846,-25.7749,113.4650,22.8884,-36.1495,-88.2635,-86.5865,-55.4115,96.9093,19.6990,128.4610,42.4720,46.4445,-5.5210,-71.8866,125.4536,-195.3452
-7.2152,12.5005,-3.9074,-6.6696,138.2428,52.3020,-17.5358,-66.1642,-124.5262,-66.3416,89.3502,22.1655,108.9510,49.9926,-18.3542,-37.9687,-59.2327,159.2628,-153.1090
24.1887,10.4465,22.9996,9.8755,153.4363,54.1538,7.4313,-70.5948,-150.1629,-97.0815,85.6831,9.8978,91.8508,34.8552,-48.4067,-56.8070,-27.6150,146.6724,-73.8626
55.8146,-12.7801,66.9004,1.6675,140.2913,52.2633,31.0407,-57.4561,-84.6895,-102.0977,106.7810,2.3206,106.6827,54.0762,2.2324,-71.3186,-8.8529,140.4078,9.0405
38.9447,-25.9972,45.4016,-8.6495,109.6901,67.0327,44.2537,-1.3614,-16.2959,-39.1853,101.7360,10.8356,99.5725,114.1840,9.8653,-58.8427,-16.1142,147.5257,47.7797
-2.9832,-15.2347,-17.8740,4.7327,85.6091,91.0428,55.9822,52.6871,5.3061,30.7282,41.6558,18.0955,43.1485,150.4257,-50.4665,-7.4056,-27.6536,143.3898,87.7758
-35.8191,1.9757,-55.4017,30.5423,75.3623,103.8629,95.9034,98.5512,73.8984,88.8846,-32.6216,18.3244,-4.3524,142.1050,-38.6226,57.8851,-38.0046,131.4746,182.9675
-75.5121,5.4101,-90.5954,31.6406,90.9393,87.1598,162.4510,161.7127,191.3122,172.1852,-75.2129,12.4209,1.7993,138.3034,52.7808,117.3810,-72.3796,102.1947,265.1385
-120.4177,-30.0165,-152.1377,-29.5197,116.3534,53.2666,194.9181,198.3158,230.8380,219.6964,-79.4757,-22.7201,27.0637,139.7651,82.8324,150.9224,-128.8281,31.3043,259.0179
-138.6358,-91.9588,-195.3732,-120.6563,93.0177,29.1480,161.3318,179.0811,193.0088,213.8305,-75.4676,-77.3840,16.7473,102.1093,34.7717,141.3093,-169.0835,-49.2066,209.8528
-149.4371,-105.8170,-214.8975,-141.6593,11.4823,10.5368,101.6568,167.5873,196.0039,265.4854,-100.7204,-86.3621,-32.0775,58.9903,9.1424,121.2414,-181.4355,-81.5755,175.8484
-194.7706,-60.1567,-265.5290,-91.6569,-73.4922,-8.0771,37.7707,188.8641,246.6205,344.2198,-146.7323,-46.7320,-78.7259,67.7463,27.4028,124.6265,-189.1466,-73.3422,146.1689
-236.0003,-47.9697,-316.8917,-82.9140,-124.2761,-3.3890,-27.5353,190.7726,282.3656,327.2329,-165.5850,-41.3891,-96.8903,75.0210,43.3166,123.5146,-185.7336,-68.4026,125.3576
-206.6029,-80.2988,-277.6415,-110.2590,-122.5799,25.4893,-39.3353,179.0882,318.4720,307.7508,-144.5376,-76.4239,-93.6420,24.9064,44.6086,102.1123,-140.7852,-59.5596,136.0474
-146.2126,-54.5994,-187.8071,-59.7157,-72.5230,54.9244,14.6376,202.2399,356.4174,389.5104,-123.6847,-58.6300,-86.8953,-1.0271,30.7713,98.5515,-85.1936,-8.5155,142.0605
-144.4507,30.0185,-175.7504,38.5341,-39.0428,89.8877,41.0367,234.5606,322.6648,425.5296,-135.6432,20.3354,-94.5906,63.7003,-13.7135,124.8989,-81.2146,70.7731,110.7577
-175.5616,66.9551,-218.3817,63.3640,-50.2333,130.2900,9.5170,223.8549,209.6139,314.5537,-153.5811,64.0909,-108.0425,133.5867,-68.0932,149.7406,-97.1174,112.7478,80.9865
-141.7777,41.2386,-180.5067,30.1258,-28.6746,131.8577,-0.7873,172.4426,96.6060,168.0715,-114.5347,43.0252,-78.9271,131.9772,-84.6857,143.8583,-58.7545,88.8299,69.6490
-54.6248,13.0039,-74.4361,12.7389,55.7522,77.2674,29.4593,101.4239,24.2309,75.2270,-23.6761,9.3703,-5.3182,100.1824,-72.9130,95.1921,1.6357,54.6116,39.0939
-6.6794,-3.6448,-19.5321,13.1972,131.5486,23.0131,62.2437,35.4071,0.1486,59.1562,24.9804,-14.9962,38.7499,75.6144,-69.8171,45.7661,29.8369,75.1316,2.1207
-2.7932,1.2500,-5.6913,42.8497,170.6526,26.7203,104.9585,9.9107,41.1883,110.4030,5.6441,-26.2803,39.6202,52.9422,-38.8021,58.6504,77.0964,124.1663,3.5547
10.9520,38.5729,34.6335,103.0289,178.9841,66.7464,138.8185,14.0462,105.6244,106.0363,2.1894,-6.7393,57.7883,53.5789,50.7013,90.6424,151.3528,121.4248,17.0853
18.0214,48.0148,48.3181,105.1616,124.3794,66.1312,114.7161,1.8105,123.9005,14.9958,23.1807,15.9904,73.1692,84.1577,107.4667,70.5908,142.7868,63.8369,4.0035
-10.3318,-1.0413,-0.7623,32.3081,53.0921,7.2322,85.1555,-12.5293,124.0097,36.8607,-2.1221,1.4830,38.4302,107.0098,74.1393,70.3735,52.8125,27.8504,-10.8038
-25.0507,-20.7523,-14.5730,12.3861,72.9704,-28.0137,126.8074,11.7211,170.1969,194.8232,-30.4600,-9.7308,27.0066,118.8960,59.6383,135.1268,17.6636,36.8885,-18.4112
5.2866,27.0033,41.4909,73.2377,139.7363,3.9428,190.2508,39.9594,232.5859,218.1209,19.5274,27.1742,92.5962,142.7872,134.5199,127.4284,42.6007,36.5887,-47.1466
24.6890,47.5040,65.6534,86.7238,135.6241,27.5225,208.8189,22.6486,260.6644,69.9742,77.3033,57.8975,145.2504,161.6415,208.9169,21.2784,24.4304,8.1188,-79.2150
-3.6263,2.9030,24.1956,23.7931,106.8362,-2.3806,207.1247,-10.3042,270.0516,11.9310,59.9907,31.2528,138.2797,159.4421,222.9275,6.9672,-20.7545,-3.6647,-89.3944
-37.3458,-23.5553,-9.7403,-10.8111,141.9570,-14.1077,204.9729,-18.7076,257.7484,69.1208,28.8328,-1.4366,136.8635,154.5670,210.6346,101.9624,-23.5949,27.2932,-104.7377
-33.4828,5.1640,0.8088,20.3862,182.7106,37.9770,188.1289,-19.8535,184.8127,24.7419,42.3824,15.1880,153.0685,164.3187,185.9590,121.1951,10.0122,82.6918,-115.9020
8.7801,37.6935,54.2353,69.9381,175.5009,102.8970,175.7729,-28.7836,87.1102,-119.3664,75.7890,55.5485,161.9748,207.0103,168.9052,76.0090,82.8129,134.2283,-73.9758
70.7406,47.7731,143.9884,110.9244,181.6329,133.6931,185.0851,-37.7797,42.9079,-180.0640,119.0633,77.0188,190.9426,271.3893,192.3791,98.4591,188.3498,156.9769,-22.6292
116.9056,52.8348,207.3415,132.1958,218.7171,131.0901,187.7639,-58.5142,40.8904,-154.6619,159.5982,75.8849,221.9720,276.8050,198.8958,114.8269,223.8932,148.7131,-40.0498
115.0708,57.9078,186.0194,122.5558,223.5744,117.6036,160.3607,-82.1371,22.3119,-159.9560,156.0586,68.6057,198.0217,210.0274,133.9355,46.1040,149.3158,141.0163,-78.4242
79.2125,58.6816,127.2391,102.2738,191.0426,123.2424,116.8120,-57.2652,-4.3486,-166.7927,127.7907,72.2288,160.0029,200.6731,73.7244,32.7738,79.3805,146.6437,-59.5153
47.3793,60.9559,94.9166,94.8508,165.0747,135.2808,86.0080,0.9283,-8.2420,-114.2698,120.5902,89.5002,163.9434,288.5285,74.5181,134.1368,66.8199,127.4909,-35.7920
28.5890,64.3467,71.3575,84.1010,139.0821,103.8170,69.4049,-4.0285,-14.7356,-114.2447,117.2826,100.1883,168.1168,332.8952,81.4546,181.6156,33.9410,59.3771,-87.1588
13.7107,54.3382,34.2606,50.3101,82.8660,48.4795,22.7720,-82.0132,-50.4605,-225.9775,108.9499,90.1845,145.8973,284.8721,68.4799,104.1545,-29.9157,-13.4061,-173.3869
7.8346,26.0550,11.2033,15.1904,10.4705,34.8077,-61.2690,-124.3102,-78.1420,-256.3027,116.6173,71.4287,122.5994,252.2312,50.9633,31.4263,-46.8117,-28.5912,-198.6834
18.8647,2.7146,20.2078,16.2129,-27.0991,45.5324,-92.9661,-80.4643,-39.8728,-104.8394,112.3482,56.4597,89.3954,252.6244,19.1047,27.3389,-1.7656,11.8444,-132.8734
38.9260,10.0144,45.0063,51.7403,2.2170,35.5635,-20.7929,-11.2802,61.7050,20.8342,82.8701,46.2812,54.5347,209.0012,0.5569,16.2430,43.7394,42.6198,-34.5292
49.2496,34.9598,57.3884,74.9745,48.5976,30.9217,56.5247,26.3384,135.9258,-10.1704,70.7615,43.3837,50.8859,127.3470,17.9091,-42.1801,37.4233,23.5230,7.3762
39.3826,42.4439,39.1904,54.5842,19.5217,29.8122,31.4355,14.4692,83.5656,-86.6629,58.4703,44.2710,29.6069,50.9611,-1.7771,-98.1459,-7.0194,-9.4441,-23.7194
31.4257,33.3862,22.6688,24.7767,-65.9869,-25.6452,-61.8474,-43.6802,-68.4269,-158.2310,16.0798,41.0679,-36.7912,-12.9857,-74.1322,-112.0276,-19.0520,-9.7176,-52.0701
60.7191,42.1192,63.1232,38.7285,-87.1295,-94.6870,-125.3152,-96.3561,-186.2226,-232.5730,19.1256,47.6295,-48.7711,-31.3469,-97.2033,-106.6894,16.8767,12.4553,-37.3945
110.4875,68.5652,131.3731,79.4895,-42.2305,-81.0537,-141.9018,-99.8458,-217.5587,-222.6195,90.9864,74.0456,10.7696,4.1969,-73.9607,-117.0623,26.0516,24.9564,-34.3337
123.3615,65.8212,140.7547,75.5320,-50.7313,-32.6328,-169.4489,-99.2083,-231.5966,-161.3225,121.5644,81.6785,19.8001,15.0245,-98.5039,-140.1873,-3.0194,21.7359,-71.2448
99.6880,22.4279,102.5207,19.7485,-100.0119,-56.3446,-209.6915,-132.6861,-253.2679,-197.5514,91.4210,42.0332,-19.0848,-29.6190,-128.9151,-152.5968,8.3057,13.8726,-95.4312
98.5220,0.0711,109.6996,-4.5568,-70.5885,-115.7627,-185.1286,-150.4984,-236.9435,-262.5438,86.5898,7.5643,-3.8926,-68.7393,-90.5450,-140.8833,56.7515,12.3916,-86.0345
131.4205,35.8714,167.9118,42.7157,-1.9231,-129.1181,-104.4870,-134.0739,-201.6727,-217.2120,95.3988,29.3836,24.4293,-79.1408,-56.4321,-114.4081,70.8256,14.6686,-87.8741
155.4684,72.8697,197.2636,95.8337,-15.0570,-119.8877,-85.6836,-132.1440,-204.0316,-147.0294,87.7505,67.9770,3.3974,-58.3400,-80.8885,-115.8638,65.5957,7.6196,-104.4673
159.1874,61.5260,181.8914,106.5025,-53.4852,-113.6394,-126.9899,-131.0684,-214.7026,-121.5508,127.2078,76.8513,14.3858,27.2191,-86.5222,-171.7076,86.7590,10.1645,-85.4526
160.4318,44.3342,174.2684,110.4832,-16.4261,-74.5759,-105.9893,-84.8805,-179.3954,-78.8542,195.5738,79.4490,80.3778,122.4304,-40.4808,-226.8174,111.4219,56.3877,-31.0374
156.6141,61.4225,184.1468,130.0778,12.9821,-22.3457,-47.4734,-37.2860,-122.0185,-75.5473,184.2862,94.8433,86.3381,116.7052,-12.3702,-225.5139,127.2308,112.0350,5.9638
146.1556,82.2172,181.0887,142.3779,-52.1540,-14.0772,-67.3675,-37.0843,-86.3400,-169.1385,118.3865,102.4295,13.3255,53.5720,-38.7203,-213.0215,157.4743,114.7281,10.6544
144.3363,90.3089,168.0494,152.6553,-111.0053,-20.9854,-106.7167,-50.9028,-81.9813,-243.8293,98.7585,106.4318,-31.7106,51.0441,-80.8662,-237.8066,185.1902,87.4794,-2.5374
149.2555,111.9005,167.1818,178.9658,-67.3016,1.1446,-60.3502,-65.2608,-118.4191,-277.4684,114.8170,123.4583,-8.0420,82.1764,-86.2562,-257.4793,186.8587,78.7694,-40.8420
148.4902,135.3831,172.0310,196.2936,1.6424,13.2529,-8.0505,-103.8630,-184.1885,-345.5302,121.9071,129.9106,33.7590,75.2052,-49.4434,-237.6685,180.4984,56.3430,-84.1201
143.7652,117.7085,162.3884,174.8700,-16.0707,-7.2159,-48.5597,-139.1412,-227.1080,-349.8426,121.5896,104.9349,39.1850,58.6300,-25.2159,-207.0270,172.3309,-8.6328,-78.4852
129.6558,64.1261,132.8475,120.7220,-114.7469,-19.9382,-130.9619,-155.0746,-236.5816,-243.0073,96.8288,68.5249,-7.6882,47.8233,-42.0296,-180.9184,151.0168,-64.1489,-53.6824
100.0208,24.3969,97.1844,64.4527,-197.9413,-29.4275,-191.6455,-199.6098,-260.8315,-210.7651,51.7449,43.7509,-55.8362,12.3857,-56.0279,-150.8733,127.5866,-78.6938,-104.2055
84.3209,24.1171,85.2350,45.0633,-194.1271,-67.2299,-230.6503,-263.6801,-297.0611,-283.4653,46.9617,35.0609,-46.6464,-7.8782,-52.3119,-115.7276,113.6303,-92.6035,-204.0802
104.9362,26.2521,106.7419,55.1141,-135.0403,-98.7342,-234.2046,-275.3785,-274.2853,-270.8095,83.7836,23.5072,-10.3907,26.9141,-65.2270,-72.0513,112.1464,-126.3222,-222.4676
123.8610,-18.7319,121.5872,30.9282,-85.5666,-95.2024,-185.9749,-234.8838,-172.6389,-157.2059,102.1721,-21.3389,6.3441,54.1269,-69.2291,-35.4500,125.7999,-145.0997,-142.4481
107.0526,-66.3561,106.3158,-15.6085,-34.2323,-86.6058,-111.6853,-182.6965,-67.1600,-82.1569,101.1845,-66.2625,33.4624,35.1982,-14.2166,-28.9953,129.8278,-118.3372,-71.6908
88.1463,-17.3471,108.4569,19.3288,40.4813,-62.4085,-51.7451,-114.6417,-29.7054,-90.9454,111.1404,-30.7117,85.0381,19.9760,59.5112,-27.2327,110.3307,-58.4610,-54.1273
98.2731,96.6509,147.9693,128.6377,85.4938,11.5955,-29.0490,-49.9739,-43.1720,-143.8765,118.2100,57.6432,108.0418,14.3335,88.8416,-21.7458,106.2966,-10.5883,-47.4644
97.0770,145.2136,146.6504,183.7066,70.4669,83.6728,-28.1212,-31.2215,-48.8556,-141.9370,101.8960,89.4654,85.5589,-20.5259,87.9218,-63.4969,112.6131,0.1278,-40.6755
42.3312,133.1156,61.2640,167.1205,36.0821,99.6866,-21.6883,-22.2227,-45.5122,-52.7202,60.8941,78.7537,52.4680,-50.5462,87.0516,-124.2170,68.4769,5.0056,-50.3772
-23.7481,156.5326,-18.1352,161.8713,-5.2221,100.2760,-31.2956,22.6986,-61.9428,-82.7943,9.8817,111.3662,21.6570,-31.5203,79.0168,-113.5310,9.8768,29.2947,-53.0647
-28.9068,173.9435,-6.6844,147.9676,-61.9408,99.9928,-73.6215,50.3429,-61.3933,-300.1394,-7.9281,139.7228,-2.5487,-19.2865,66.2795,-77.3990,15.7395,34.3090,-26.1136
17.3549,102.7772,48.4258,71.9053,-98.5266,41.8063,-102.1054,16.0569,-12.4724,-334.3100,21.1576,84.9035,-6.2097,-73.4314,65.2085,-107.7244,29.3178,-9.2103,-12.6513
42.8713,28.5805,63.2176,11.5241,-106.3266,-53.4477,-116.2558,-25.6589,-6.8164,-37.9076,44.5159,23.4851,-4.8868,-135.6352,56.8800,-141.8306,-10.5474,-57.4198,-61.5893
29.7002,53.6066,39.2525,45.0661,-123.7714,-93.4985,-172.2375,-34.1819,-112.1854,132.4765,39.6519,44.0172,-18.8222,-114.7646,10.9255,-111.8552,-13.8452,-68.6693,-132.9938
24.0232,104.0458,29.5424,99.5418,-130.5645,-76.6217,-219.0955,-47.8354,-197.3394,-71.3733,43.7859,82.4964,-22.0286,-28.7659,-34.3021,-75.0330,59.3988,-64.4292,-149.7639
40.8385,86.4491,54.7394,90.6349,-73.5129,-66.4549,-165.1389,-86.9946,-133.7554,-271.6059,64.3681,63.0253,19.3919,30.9856,4.8553,-42.9996,101.5649,-64.0163,-118.0341
56.1137,40.1045,95.7025,54.9449,18.9419,-62.7575,-75.5137,-103.5890,-28.9929,-178.2937,86.6613,22.5060,89.8671,35.5532,110.7886,23.6834,85.6718,-40.3362,-90.2970
73.8551,11.3280,132.3082,37.5484,74.0225,-37.8036,-50.9389,-57.0561,-13.7795,42.3793,117.4349,1.0337,132.1394,18.8378,147.8068,61.1990,88.9726,8.9137,-47.8191
108.1023,-29.6547,160.0720,7.6306,72.4863,-17.5876,-45.3947,22.6456,9.6916,187.1989,134.4095,-31.5082,106.0523,-21.8694,76.3526,20.0524,108.6550,24.4399,52.1053
133.0252,-82.3672,174.4514,-36.5862,53.4347,-40.5058,9.8866,80.7682,164.3921,242.1730,105.3331,-88.6093,47.1761,-100.3813,32.8656,-24.2251,117.2508,-21.2177,166.2479
119.5729,-90.3147,157.8483,-32.8764,59.7838,-103.7318,86.8917,113.0107,356.1895,271.1773,60.2173,-122.9365,20.8722,-161.2498,86.4590,-38.8115,137.3029,-73.7562,218.6376
71.9469,-48.6415,92.6329,13.1263,69.2063,-169.6643,130.4912,146.2424,439.6104,333.7727,22.9916,-102.0995,8.8062,-154.0825,114.7122,-60.5855,110.7389,-96.4700,198.3068
0.1718,-15.0772,-13.8921,15.6680,15.7345,-186.2099,101.6505,180.6875,416.8911,409.1270,-35.7005,-57.1503,-46.9022,-115.6706,39.8824,-52.3687,-33.9742,-114.2633,145.8374
-78.5321,-11.9210,-115.8735,-34.1875,-76.8153,-139.9468,9.3247,204.2886,335.5459,415.3133,-96.9749,-28.8160,-104.4374,-89.0727,-29.7550,15.3910,-177.3943,-124.5740,108.7748
-120.7464,-11.6742,-156.3206,-61.3503,-115.5100,-94.7803,-66.7620,203.8346,194.8009,338.7379,-102.1388,-18.3313,-92.4633,-76.8729,-6.7981,58.8572,-173.0427,-102.2236,100.6781
-106.0716,-1.3650,-132.5806,-46.0487,-113.3106,-101.2472,-100.8300,146.0088,32.7382,219.8319,-73.8738,-13.9713,-62.1920,-96.2809,26.2278,20.5123,-86.3553,-78.2968,75.1239
-70.5252,18.4413,-99.8226,-11.4608,-136.5748,-106.3451,-154.5719,40.6742,-74.4742,90.4929,-67.4693,-9.4492,-87.9872,-140.4478,-23.6804,-50.0339,-29.3960,-67.0225,5.2167
-50.3164,57.5627,-86.0823,47.6187,-135.5278,-55.3151,-200.1766,-25.0324,-120.0098,14.7180,-68.6466,12.4030,-118.8047,-140.1160,-104.4098,-88.0080,3.8959,-10.6475,-56.3153
-53.3678,98.3149,-80.5621,98.5415,-66.0319,3.2577,-155.2921,-14.0898,-135.7361,37.4552,-61.8851,51.7325,-93.0100,-81.8330,-117.9718,-59.3889,5.2200,77.0025,-86.0776
-88.1386,101.3546,-104.7295,81.1892,-28.5461,22.8618,-92.9426,7.7698,-108.4504,99.4367,-76.5547,69.5689,-61.3853,-41.5168,-71.3161,14.3711,-58.7671,90.6213,-133.6386
-134.8274,73.5897,-163.6983,32.4513,-72.3952,35.2168,-117.5470,-5.1053,-44.3152,123.1411,-98.6228,46.3661,-67.3875,-43.2112,-35.9015,48.3292,-110.9447,24.3073,-191.1396
-127.4592,44.0625,-173.9271,17.4713,-87.9611,35.2490,-151.2111,-44.3386,-20.9834,99.4244,-75.3407,7.6960,-62.6072,-40.8448,-33.8561,17.6935,-75.5904,-36.3586,-199.9628
-60.8243,8.6641,-103.7460,1.7609,-38.1140,-23.7627,-117.0308,-98.1468,-80.3685,65.4980,-23.1619,-23.8021,-28.3418,-25.0987,-53.3718,5.5458,-29.9294,-82.3016,-187.7923
-26.4176,-19.2496,-64.6892,-38.2793,-33.8507,-83.2952,-114.1011,-122.9867,-170.3131,64.8043,-5.6974,-32.8582,-24.2090,-11.7150,-102.6079,42.5813,-51.6934,-130.5651,-208.6839
-51.4470,-10.8803,-101.7919,-49.1554,-103.7720,-54.2866,-197.9830,-85.0620,-228.5049,78.2688,-19.7393,-13.1093,-63.1752,2.2705,-166.1951,54.8739,-79.3633,-132.0958,-212.8203
-50.3513,-14.5891,-105.4563,-45.7189,-134.0579,-1.8674,-236.2715,-40.8509,-218.1059,56.5570,-14.2318,-12.4908,-81.1044,-0.9091,-184.1229,10.9029,-52.8765,-79.7802,-125.0453
-8.5379,-79.0862,-52.5751,-89.4877,-67.8399,-17.4511,-128.3158,-16.1646,-120.7562,60.5824,0.7863,-68.4878,-56.6507,-39.6531,-135.9267,-32.2370,-24.4874,-33.2391,35.9703
-11.0210,-122.4061,-49.1113,-128.0406,20.4884,-30.9810,34.4837,59.2033,-4.6501,145.2567,-24.3483,-108.1968,-38.4118,-76.4078,-78.5206,-32.7559,-46.9780,3.9907,184.0348
-49.3957,-74.0254,-84.5729,-89.6678,59.4330,30.2384,124.4116,164.2520,21.0412,188.5798,-67.2059,-65.9414,-45.1136,-72.6179,-62.1903,-15.9224,-77.3727,53.8006,252.1006
-33.6108,-22.7537,-53.0980,-33.4202,70.3408,87.4446,157.0095,196.6179,9.5658,146.8650,-63.6608,-16.6026,-40.2332,-49.6638,-55.9346,-17.8608,-54.3192,80.5183,262.1236
15.9934,-44.5548,20.4172,-32.1747,99.8995,78.1794,215.6475,195.8916,111.5484,177.8005,-31.0812,-33.8620,-8.7516,-47.7569,0.2949,-18.1588,-1.9661,74.1687,289.5913
14.5102,-72.6135,41.6191,-61.4692,125.9613,60.4976,275.3451,240.5622,252.1666,256.3565,-37.0793,-61.4102,12.5101,-78.8529,78.0944,24.2920,12.3806,78.1346,321.8080
-20.0595,-56.0877,19.6509,-80.5451,92.0807,66.4958,248.0831,249.0892,208.9466,192.8639,-79.6777,-45.5897,-9.6414,-115.8242,81.8691,85.3238,-8.5141,78.9514,277.9619
-26.0486,-39.9139,6.5452,-81.5714,19.5259,48.6234,163.1334,166.4934,32.4576,92.0142,-107.4157,-25.6385,-52.1602,-111.7437,18.0382,121.7137,-14.2002,29.4215,186.1965
-13.4569,-49.8762,5.1291,-73.0320,-7.9717,-15.2497,118.1213,90.3097,-25.7485,147.9543,-102.7550,-35.3267,-60.7425,-71.2603,-4.1379,147.5913,-16.1044,-41.3456,137.6121
-15.4607,-66.9840,-3.8617,-86.6996,17.4515,-91.5130,101.5840,52.7082,29.9966,193.7580,-79.6341,-58.7089,-30.2180,-63.7780,26.1453,149.0660,-59.7824,-76.3928,107.4293
-38.4819,-78.7364,-43.2297,-130.0301,18.7916,-134.5569,55.6945,-2.7144,-0.2561,63.0375,-61.9988,-73.0187,-14.3784,-113.3933,22.3612,66.7225,-127.8332,-76.4363,30.6458
-77.1106,-67.8666,-108.4547,-148.1736,-16.2674,-121.5746,19.5295,-40.6148,-103.1296,-51.6334,-71.3997,-58.9281,-32.6913,-155.1429,-13.6447,-44.1856,-176.7185,-60.4254,-54.9729
-105.4381,-32.5551,-146.7999,-116.5952,-14.8547,-81.9968,38.6824,-20.7436,-120.0899,-26.1213,-94.0314,-26.1112,-46.8822,-139.8372,-32.5461,-58.0291,-203.9274,-36.7978,-86.4859
-105.9592,-16.7317,-150.4311,-89.5960,22.8517,-59.6818,61.0314,-4.2252,-53.5222,-16.5564,-105.8607,-22.5827,-53.1602,-97.1202,-63.2626,-2.1970,-214.0886,-34.1208,-60.3576
-107.7924,-33.9572,-171.7657,-97.0767,4.4858,-42.1934,34.0575,-7.0708,1.6736,-72.9521,-117.2964,-48.2404,-84.2266,-72.3475,-113.0969,10.8578,-203.5740,-67.6695,-12.8438
-120.2851,-31.5450,-193.2273,-95.3861,-78.9832,-4.5388,-26.6593,11.7199,15.1386,-80.5491,-123.7757,-38.2864,-116.1400,-58.0102,-123.5411,-7.3773,-185.3781,-96.8126,-14.1351
-103.9352,6.6234,-158.6604,-54.3901,-125.6386,17.9781,-96.6874,10.2545,-32.7021,-40.4241,-87.5053,11.2625,-99.3456,-16.2974,-108.9544,2.7257,-158.9865,-93.6022,-92.7874
-59.2616,19.7299,-106.7630,-21.0383,-101.6855,-12.0228,-156.8449,-52.1214,-132.0898,-33.5409,-23.1966,21.9749,-56.6924,34.0234,-126.4950,14.1985,-115.5348,-102.1155,-157.5689
-28.2180,-32.6067,-89.3031,-65.0784,-87.4183,-66.9315,-184.7369,-114.2243,-193.7241,-66.1015,10.5333,-32.3942,-42.9100,19.2731,-153.5059,-5.5939,-96.1005,-154.7269,-145.2041
-16.4545,-108.1367,-78.4945,-165.8230,-125.7798,-104.6677,-198.2505,-142.6110,-188.7750,-107.9885,10.9861,-86.8202,-55.5805,-46.6889,-157.5622,-26.6265,-132.1060,-196.8442,-134.7394
-17.8293,-133.5957,-69.4125,-206.4033,-161.0252,-122.8274,-225.3858,-172.6702,-181.2022,-125.7262,13.0376,-88.2061,-53.4574,-44.8700,-139.4377,-17.9210,-164.9495,-178.3238,-172.8122
-40.8803,-99.7288,-91.4104,-150.6636,-140.8067,-140.8523,-231.5858,-197.4525,-163.8962,-100.8045,19.3867,-60.6136,-18.6101,30.0314,-72.6428,5.4489,-153.7954,-144.9245,-191.4945
-64.3645,-89.6975,-115.3693,-134.1656,-93.1580,-169.3531,-185.8031,-192.1492,-96.0294,-85.3425,19.0458,-68.7472,18.8346,20.2103,14.9801,-5.3468,-161.0345,-147.8612,-171.2343
-66.6708,-166.1208,-114.7068,-251.8575,-77.9492,-197.3322,-137.2818,-176.9364,-36.6253,-123.1467,12.0889,-134.2090,16.8861,-112.0481,23.0799,-62.3767,-214.8636,-148.4718,-157.5324
-62.9106,-256.7658,-110.9977,-377.1879,-86.8532,-206.0314,-119.8836,-163.9713,-30.1887,-159.2467,7.8639,-193.9411,-3.1475,-187.7553,-30.7089,-95.9269,-237.1810,-107.1024,-147.2967
-47.1794,-252.8719,-90.9700,-352.4928,-51.4682,-202.0019,-93.3000,-160.2445,-25.3109,-159.6147,26.0335,-185.4289,16.2356,-118.0140,-38.7832,-70.1268,-192.5156,-73.2570,-129.7968
-6.5512,-174.5872,-43.7652,-225.6484,22.3231,-200.4736,-56.6553,-184.6041,-5.1018,-158.4861,55.2914,-141.7125,50.9909,-45.2536,-18.5199,-54.0391,-144.8543,-89.3608,-120.0124
14.1692,-124.3054,-26.5848,-148.6959,42.5272,-191.8930,-65.3526,-195.7699,8.5953,-143.5615,53.4713,-127.3655,39.9869,-68.6723,-25.1044,-74.6937,-126.8980,-111.1132,-91.6461
-7.3044,-129.9310,-49.1942,-156.2940,-3.0458,-170.1124,-102.7014,-138.7211,29.9242,-83.4674,33.3024,-134.7714,13.7799,-99.1311,-17.0143,-72.5712,-103.4846,-97.8341,-34.2062
-9.8394,-142.8084,-40.0464,-173.0535,-25.1017,-159.4227,-110.7221,-84.6499,32.9181,-50.7379,45.6243,-132.3030,22.8898,-82.4373,1.8599,-55.9954,-57.4831,-77.6842,-13.0712
41.3224,-133.8765,24.3682,-149.3280,8.4555,-162.3748,-106.0093,-120.1870,-12.7613,-114.6194,82.2909,-130.5635,40.5780,-86.9758,-22.1208,-74.1113,5.4178,-67.4945,-36.5071
105.6989,-109.1310,109.2504,-93.7420,57.3999,-131.5462,-101.3294,-163.0911,-14.9166,-183.0010,112.0947,-128.4112,52.1945,-104.6004,-38.3901,-81.2115,83.5281,-34.6068,-23.5099
135.5481,-79.3537,164.4353,-39.4950,101.9647,-51.6199,-49.9736,-119.8661,65.3520,-156.1518,130.5167,-100.7581,76.7809,-54.5486,-11.2183,-40.1481,132.9243,15.6953,19.0473
100.2534,-59.1830,120.5047,-26.9707,119.5630,8.6521,13.2776,-81.7203,73.3727,-124.0767,112.0700,-68.4339,82.2646,13.8764,-12.9374,-13.4954,94.9790,23.7702,-8.7526
19.9070,-56.5855,6.6697,-59.5641,83.2944,-1.9176,-4.1325,-137.5282,-37.6811,-191.1571,57.2858,-63.2963,58.4789,13.4677,-23.9134,-16.3506,12.3421,-13.2353,-109.4309
-21.1004,-56.3802,-30.1571,-82.4348,37.2209,-28.2189,-53.2556,-190.3865,-80.6868,-260.8022,38.5391,-57.0801,67.7862,7.6405,43.0776,8.9923,-14.8160,-27.3329,-177.8113
-3.2554,-43.4579,18.0989,-59.6624,33.4639,-9.8370,-30.7027,-157.4647,7.4437,-230.7718,57.6825,-32.5272,96.7675,42.8014,117.8814,40.0775,18.0842,-3.8088,-164.0248
-1.4929,-21.5220,14.9223,-14.0000,38.8117,15.8819,14.7699,-122.2590,77.5015,-193.1501,30.7031,-27.8598,66.8503,31.4860,110.6358,17.4387,59.1696,5.8167,-111.2756
-18.0893,4.0347,-20.3484,36.8771,18.7762,15.4305,13.6119,-131.2162,86.4358,-212.8732,-22.6071,-36.1462,11.1873,-8.6723,91.6904,-11.9532,115.6624,1.0240,-58.5189
3.7115,25.7278,18.4851,79.4701,-2.6744,39.3401,22.1491,-89.3719,113.1424,-178.8577,-23.4143,-6.4770,1.0108,39.3652,97.4965,20.1213,173.6983,26.2006,-7.4547
23.2584,26.2931,59.3645,66.0724,-17.8533,90.9099,57.5854,19.8497,128.5618,-61.9341,-8.4119,34.7470,0.7631,92.7691,64.5713,61.1955,148.8189,59.8589,21.0343
-6.2225,7.4996,17.4079,-1.0662,-41.1059,77.7025,43.6119,62.5881,60.4066,-14.5255,-24.2602,26.7012,-20.1860,8.6509,20.5652,24.2515,54.1624,37.2600,-9.0181
-19.4076,-5.7207,-15.5330,-38.6325,-63.4807,-7.9851,-12.1390,-6.9292,-44.6891,-93.7982,-23.7305,-3.5736,-24.5827,-88.9432,19.7170,-49.3730,18.1373,-35.3154,-67.4375
14.7169,-5.2423,18.7292,-22.6632,-78.2637,-45.6161,-38.8052,-66.3445,-106.2687,-167.3877,-0.7071,-0.8697,-19.0964,-45.6456,5.6885,-42.2805,57.7267,-80.2793,-83.7043
30.5713,4.9121,47.7133,-8.0654,-86.2959,5.7996,-48.2114,-45.0265,-124.5485,-145.5668,-1.8708,24.0536,-28.5686,18.3295,-34.1120,36.3794,68.6451,-57.0703,-71.1338
11.9027,29.6763,40.0751,-0.5021,-89.0463,38.0243,-72.9620,-24.4474,-137.0309,-103.5256,-19.5372,40.1973,-34.5631,-33.6872,-23.4942,54.3848,35.2109,-25.3805,-91.8088
-1.8058,48.5318,19.7300,13.3425,-119.6062,-21.6711,-87.5483,-70.0265,-145.6607,-141.3008,-49.0238,36.4114,-57.1453,-124.8759,14.5348,-11.0482,17.9941,-64.3930,-118.2485
-6.7824,25.8466,-5.4228,-5.3562,-182.7336,-104.2493,-76.9201,-119.1512,-116.2982,-212.6651,-102.8842,10.0055,-119.4039,-161.3392,0.7677,-46.9339,10.2161,-139.8673,-90.6009
-7.1789,-15.2192,-13.5974,-47.1875,-199.0323,-115.6731,-46.2012,-92.0210,-41.5160,-174.1927,-125.7121,-14.9509,-149.5033,-148.3999,-31.0226,-27.0879,-14.6414,-152.6500,-35.4968
-1.5844,-25.8354,-5.0316,-46.3586,-140.2757,-60.7664,17.3905,-8.0527,34.9909,-18.6532,-96.1873,-14.3478,-113.3790,-104.7092,-18.2380,-16.7230,-30.6787,-115.3198,23.7897
-10.0224,-21.7098,-17.8945,-20.7569,-90.4839,0.5600,99.3972,75.8760,95.8611,113.0413,-95.8674,-13.5604,-90.7933,-62.8752,22.5453,3.6287,-26.4304,-112.7796,135.5112
-30.4306,-37.7763,-33.8289,-32.8011,-81.7900,58.4531,161.2138,164.4925,169.9633,195.2776,-134.4418,-29.0999,-100.3572,-57.5983,66.8777,74.2571,-27.7667,-117.8130,283.2732
-50.8189,-61.6262,-34.5778,-71.8970,-64.4845,130.7326,207.6480,270.1477,244.4664,312.0829,-145.1885,-33.6508,-85.7920,-62.5129,110.0734,131.9969,-49.7739,-56.9625,365.7671
-100.4515,-82.9886,-88.3046,-112.9680,-42.0685,182.6246,256.3161,337.4468,279.7029,403.0809,-159.6849,-35.7280,-72.5843,-56.8364,129.4688,132.0109,-92.7839,14.5970,369.0433
-167.8399,-102.2497,-188.1920,-148.1962,-48.0506,177.6451,280.4468,334.3250,287.5137,372.5761,-219.7413,-61.2490,-107.2432,-70.5935,110.7821,126.4176,-134.6729,9.0227,368.4828
-176.7546,-89.0537,-209.5557,-137.7982,-73.0771,150.5626,251.7031,324.8755,277.6618,333.8333,-254.3952,-67.5227,-150.9035,-96.6000,64.3710,143.8540,-136.1602,-38.7331,373.8699
-131.9084,-53.8235,-147.9571,-98.9377,-108.7877,133.1219,190.4806,343.8266,226.3426,396.2320,-230.5973,-32.8966,-167.5307,-104.0269,12.2988,156.2135,-112.4575,-60.6294,342.3414
-112.5907,-72.9599,-121.8168,-129.6345,-134.7278,103.9794,140.9112,327.0820,159.6448,443.5503,-200.1804,-33.8799,-160.1008,-117.4252,-12.0439,144.3430,-119.7511,-62.1066,280.3867
-121.0919,-136.8913,-143.4164,-211.9632,-106.8153,68.8284,114.2244,255.6141,122.5000,392.4837,-167.6381,-90.7741,-125.2192,-154.5324,-10.4142,102.9176,-150.4888,-58.1616,216.2880
-113.4434,-134.5070,-141.9967,-209.5455,-58.2822,62.2560,78.6275,213.2006,99.5396,362.3909,-130.0293,-104.9960,-95.9682,-181.0916,-30.4140,60.0753,-156.7842,-30.8248,159.4146
-94.6316,-54.4943,-105.8197,-115.8118,-52.7727,70.4086,33.7027,237.7660,98.8696,422.6146,-129.0308,-47.6446,-110.5896,-185.1736,-63.1301,76.9149,-142.3425,15.9198,133.3208
-78.2014,-8.9024,-60.4176,-59.3455,-50.0997,67.1610,39.2199,264.5777,174.6424,473.0888,-150.2141,-13.6498,-122.6472,-184.3817,-41.1108,147.5202,-134.0092,38.8425,154.8021
-75.9711,-46.4000,-47.3694,-94.2532,-23.8077,58.1902,101.4397,248.7661,294.1413,451.3783,-161.0692,-50.1712,-103.8820,-181.8302,26.3292,200.1310,-139.3129,5.5592,187.6991
-118.1895,-112.8121,-110.6781,-173.5896,-52.0738,28.5684,138.2124,224.0712,365.8115,424.4629,-198.8854,-106.0514,-118.5643,-186.5547,61.2174,211.6871,-165.7991,-60.9731,189.9627
-177.7323,-146.5392,-197.9454,-228.3634,-123.5864,-27.2602,118.4509,227.7126,371.4479,442.0547,-249.9110,-128.7748,-165.7882,-203.1377,46.1355,194.8421,-196.5885,-97.5908,160.8959
-183.8297,-105.3423,-206.3602,-190.0299,-125.7886,-36.9348,85.6633,248.8269,326.2468,453.7283,-230.6768,-91.2790,-159.2233,-193.2585,24.4204,152.8979,-191.9778,-67.0274,111.8559
-151.6903,-1.3530,-154.1023,-72.4430,-86.7743,38.6348,41.7319,261.9825,241.5312,417.4787,-167.4893,0.4957,-111.0364,-131.8603,18.5077,130.1770,-169.4003,0.3796,59.4611
-143.1011,59.5834,-134.3234,-6.8957,-117.2189,103.9750,-26.0102,259.4387,181.8543,382.5306,-150.8747,65.0754,-107.4333,-68.2153,8.5547,154.9634,-173.8888,29.2748,37.5429
-137.5853,6.7229,-145.9296,-60.5091,-173.4908,73.0393,-66.8163,232.7462,181.2551,375.0369,-155.1485,26.0329,-138.9912,-66.2773,-32.4604,149.8605,-174.9639,-26.2991,50.2803
-91.7478,-70.2806,-122.3490,-127.9873,-152.8338,-2.9819,-51.0649,167.7836,164.6561,309.3072,-114.0717,-54.7045,-132.0044,-115.7154,-74.1058,65.7875,-133.1339,-109.8986,50.7611
-46.6732,-68.8655,-74.0199,-124.0046,-96.0844,-50.8397,-37.3059,79.0597,92.7449,141.1193,-57.3424,-66.9513,-80.2145,-150.9049,-52.0912,-18.6791,-110.1285,-132.4491,2.5188
-70.9534,-40.8896,-97.2823,-121.3051,-111.4063,-87.9224,-82.7784,2.5835,26.3028,-13.3195,-53.4233,-38.0155,-56.2296,-154.3694,-4.9429,-47.9654,-172.9167,-129.8557,-81.5837
-150.0151,-60.9169,-215.8468,-171.9381,-197.5381,-141.9036,-159.3411,-45.0872,-0.5379,-41.1042,-112.2094,-54.6004,-108.6151,-166.8217,-30.6930,-55.6890,-261.6325,-184.7264,-153.4355
-183.8788,-72.2120,-280.6767,-177.3935,-234.7953,-169.6329,-177.7516,-55.0111,5.2371,4.1907,-158.8400,-76.9545,-161.9012,-175.9976,-78.4724,-60.4952,-268.4175,-223.7069,-152.7706
-114.5188,-20.5743,-175.5501,-86.3685,-154.6535,-133.8428,-99.4753,-21.0441,36.7845,-0.7747,-112.0599,-32.9386,-113.3809,-136.7137,-34.7083,-69.2069,-193.1840,-155.3805,-72.1844
-26.0559,22.0828,-40.5623,-20.5886,-66.4613,-80.5135,-15.5499,19.8239,39.0536,-71.2817,-27.9543,16.7729,-32.4708,-102.0665,26.7367,-106.3057,-130.0543,-87.2426,3.2158
-19.3482,10.0061,-43.5214,-42.0702,-84.5573,-60.3430,-15.2181,29.3027,-16.8429,-110.8938,-28.2024,8.9753,-52.2626,-127.4074,-19.5184,-143.4643,-119.8101,-107.1634,6.4979
-43.9226,12.0929,-87.7995,-36.8955,-118.4523,-48.0093,-31.3170,32.1297,-34.9238,-83.0961,-73.5847,7.1485,-111.0788,-127.4092,-96.9972,-138.2628,-107.0726,-96.3505,-12.3379
-10.1266,39.0000,-34.3913,22.9049,-59.3362,-21.7612,20.4527,40.4678,42.7836,-79.9256,-46.6699,35.5970,-81.1235,-58.5976,-81.3524,-130.9579,-60.9884,-11.0190,11.3785
39.1390,6.5934,36.1092,8.6293,4.9934,-21.9066,84.8294,15.6048,123.5164,-132.6208,12.5995,14.8686,-13.4126,-32.6368,-7.0525,-154.1122,-33.6034,12.6942,49.2698
28.8119,-60.9204,25.0344,-74.8109,-4.7608,-53.5787,102.9686,-21.4164,138.2285,-135.0922,12.1545,-37.5352,5.7614,-68.8994,53.5617,-150.6129,-60.4379,-32.8280,46.0420
-15.0561,-44.7565,-13.4573,-76.2407,-11.3671,-60.6082,102.1482,-11.7849,111.4434,-77.8552,-12.9369,-15.3558,15.4746,-51.8500,94.2536,-94.1270,-98.9771,-22.3762,-2.3555
-32.0821,41.2650,-17.9410,12.9413,16.7045,-37.4699,85.0730,6.0282,53.8471,-82.7748,-7.9003,56.6615,39.5577,12.4418,103.2886,-46.9109,-84.5330,22.5904,-62.7006
0.9879,88.1953,18.1782,85.2844,24.2099,-28.0202,43.0325,-25.3203,-15.5025,-138.1092,17.4191,79.9503,41.4325,36.7822,68.5576,-47.6663,1.6059,10.9017,-95.4337
66.6275,89.8418,85.2662,121.2099,22.5910,-33.1793,17.1905,-64.3117,-55.5519,-138.4621,54.1300,69.7675,33.2445,39.6133,15.5375,-70.4406,89.7820,-26.3337,-97.2518
99.5404,87.3180,115.5861,121.5276,22.7162,-38.9160,0.5923,-79.3033,-98.1946,-125.5746,78.5658,71.4425,30.8209,43.0093,-34.0881,-85.4231,79.1596,-51.7038,-111.8297
66.1325,60.6621,67.7636,57.9923,-25.0045,-55.8200,-48.7278,-97.6747,-169.0611,-165.5178,59.3050,59.8696,12.6018,21.8863,-57.1763,-77.6340,2.1969,-88.6966,-143.6019
35.3960,24.2039,34.8664,2.8654,-84.7745,-69.1171,-80.9221,-100.2499,-188.6674,-188.4637,34.8895,42.0696,-2.6605,23.1258,-34.1558,-44.8233,-3.8911,-106.8230,-136.8862
51.5970,33.8370,65.0507,35.0017,-78.9126,-60.5432,-55.5437,-67.1685,-138.0114,-156.8218,33.5945,55.0883,-4.3618,68.5440,-25.5903,-9.3661,54.9489,-71.5655,-88.6343
50.4450,52.4996,55.5724,67.1155,-54.6604,-56.3747,-40.8355,-47.8168,-113.6807,-116.3563,5.8643,61.4607,-37.6624,76.2612,-89.1689,6.3086,49.1716,-32.3456,-52.6750
5.7966,24.3888,-13.0698,26.2756,-64.0188,-51.6419,-50.7569,-42.3183,-121.5708,-68.6017,-36.6479,35.5644,-71.9820,55.2559,-129.9316,11.4856,-7.4900,-11.1202,-33.0762
-18.8136,17.3870,-27.1831,16.1500,-44.8981,7.1040,-16.9500,-2.6427,-91.6657,-39.3091,-23.3585,44.1256,-27.8096,94.0310,-50.3545,27.0526,-5.2585,36.5843,-9.4731
-10.0388,87.7351,14.6004,101.6831,16.8890,102.3714,36.6897,24.7657,-63.2501,-94.5412,5.2720,105.7960,37.0853,152.1700,49.3447,51.7344,35.6818,104.4718,2.1219
-10.7778,153.6322,17.4351,186.6404,46.9935,154.2935,48.0865,-11.5910,-94.9855,-171.9587,-21.5429,144.6868,27.0278,167.8971,48.0449,70.9668,51.8050,142.1627,6.0919
-23.9939,153.6944,-12.9112,203.0015,39.0006,146.4830,53.7088,-46.2437,-129.9781,-172.7708,-58.3523,138.1580,-6.2471,188.2010,15.3557,84.8096,64.9878,141.5137,21.2892
-48.8169,135.3888,-42.6079,180.1018,32.5046,116.3440,83.6178,-41.8969,-116.2632,-148.0024,-72.5114,127.1051,0.1056,200.5857,52.7378,96.6022,63.3140,118.3952,13.5998
-102.8790,117.8816,-104.0902,129.9946,20.5244,86.0438,100.8474,-43.1872,-83.9662,-141.9577,-104.3183,109.7879,3.2154,146.4421,110.4217,88.9763,-6.0730,88.6302,-30.7027
-152.0560,68.5629,-175.4909,45.9559,11.4356,73.5139,106.8115,-34.8805,-65.0251,-94.6573,-124.1373,74.6010,-3.6671,101.9344,105.0489,60.0107,-104.1933,78.1878,-60.1589
-158.0737,9.0328,-193.2263,-40.4777,35.9433,80.3172,114.2823,6.1900,-77.5060,-31.6719,-84.1089,48.7002,25.3842,131.4210,58.2327,55.0285,-169.4139,86.0449,-75.0110
-150.9887,-13.0011,-181.5161,-83.5434,76.6510,81.1648,90.8981,16.3871,-123.0855,-37.2766,-41.6162,36.6152,65.0025,153.7000,27.5101,97.5023,-192.4154,87.7142,-110.1941
-128.1182,2.5603,-150.1744,-50.4147,122.3219,91.8746,59.8385,-9.4257,-148.6472,-70.9266,-20.7764,24.4308,82.7637,147.7752,15.2209,134.5337,-126.3688,99.2801,-109.8544
-32.6328,36.7810,-29.8259,47.3580,190.4064,143.0983,82.6381,-0.1654,-120.2815,-75.9901,46.7105,33.8980,113.3247,178.5030,1.5535,113.5348,35.9952,143.8918,-38.0826
81.6032,69.8114,119.9470,127.6192,231.7194,178.5073,116.1499,10.3469,-88.8235,-92.9543,129.3244,67.5875,147.7386,209.8992,-7.7101,59.8274,148.4658,182.2553,1.8714
98.2910,82.5930,143.6718,144.3490,198.9849,147.7230,96.0158,-31.8662,-92.2049,-110.9416,127.8526,85.9405,134.7507,204.7290,-6.0259,37.6732,141.7130,182.6802,-40.2590
72.3031,99.0589,109.9111,173.5585,185.7184,131.2875,84.4057,-40.8989,-103.1716,-56.6043,100.1308,95.7462,118.3435,233.7019,-4.7901,66.9437,158.8651,191.8726,-55.9078
132.2132,140.8398,195.0343,253.7332,272.4219,184.3661,137.3810,18.8370,-111.7874,25.4168,156.4151,124.8177,166.9857,283.5610,-3.7872,91.8920,255.0709,234.1498,-1.0296
210.7504,152.2842,299.2600,278.6484,339.1122,208.3296,163.6386,24.1706,-145.2287,22.7992,226.9978,129.9954,216.8047,254.8506,0.0240,58.0390,290.1432,241.1723,26.8574
171.8937,106.9223,230.1203,206.6770,257.7578,151.9258,79.3109,-43.4185,-207.0285,-37.4339,195.4538,90.1080,175.3804,199.2591,-21.3872,19.8288,226.1816,181.3193,-5.4437
73.9913,88.9842,87.5265,164.9699,120.2417,124.8063,-39.6394,-47.5078,-256.1460,-38.0334,114.2772,82.9255,91.2113,235.7944,-73.8680,61.6733,178.9005,135.4205,-24.4797
40.9814,128.9081,51.8896,206.8743,74.4209,179.7007,-80.2341,23.1905,-241.2506,12.2573,91.8328,127.7840,66.6117,314.0976,-93.0436,124.3622,184.2122,151.4482,0.2056
61.5604,140.1671,85.3859,230.1887,103.9637,223.8429,-44.9909,57.0399,-172.6623,18.0798,122.0717,137.4561,99.7685,322.9131,-42.6829,100.7576,199.7437,168.8263,46.8422
98.3886,114.8875,132.3353,218.0702,132.8707,215.2197,5.3622,62.0352,-129.7369,24.2687,151.0637,111.1425,128.1221,281.2098,12.0855,48.9992,225.6627,158.0451,113.7478
164.2965,139.3951,231.2484,259.3580,170.0224,212.4666,52.6782,119.7719,-129.9765,141.3008,173.1006,133.7441,138.5031,258.2216,11.4256,75.5934,253.2484,165.7280,184.4436
210.9026,189.7256,306.8697,316.3188,219.9647,222.5379,86.9024,198.0557,-85.8632,275.9375,192.4561,174.9823,146.7625,252.8221,-18.2572,121.2773,244.1423,181.1550,201.6415
174.5385,166.8559,246.8631,274.2809,217.9789,192.1833,73.2948,209.5053,28.5973,267.0669,189.8122,141.8248,138.6733,229.7441,-40.9017,91.2267,203.9805,138.2176,138.6498
109.0025,90.6443,134.0798,170.8269,150.1630,118.9613,22.7455,147.3323,110.6860,195.1957,155.5583,64.1714,96.3557,182.0048,-66.8713,34.5477,162.7259,52.7678,42.7979
93.1473,50.9254,96.9740,126.8208,97.5900,54.1287,-7.4347,66.5639,82.9003,198.4827,110.9056,24.0643,43.2584,133.1256,-106.7903,22.9442,141.8633,5.6815,-12.4771
116.4580,64.9109,123.6866,156.8044,109.8973,44.4189,-13.2182,15.9945,-26.3606,189.6563,97.5591,28.3566,27.1088,114.5211,-137.5117,31.3615,171.5310,28.5244,-2.0810
151.7918,104.2404,178.6530,206.7618,148.9366,96.6317,-34.1203,1.7179,-157.1491,64.5513,140.5129,63.0963,66.4169,142.3895,-134.3097,26.4930,238.2877,95.8864,25.2481
193.7975,143.8134,248.2132,245.4857,171.9707,157.4478,-60.5286,-15.6642,-259.7737,-97.2681,201.6456,114.2632,118.6241,192.7578,-119.5302,14.6732,276.8076,160.2980,15.6389
216.2150,152.0520,276.2570,254.1714,184.0890,171.8879,-51.9289,-51.4072,-288.2369,-191.9312,216.2677,125.9925,126.6707,201.4440,-131.9115,-6.0416,281.6556,174.8043,-6.7922
210.2767,126.9046,257.9342,236.4856,203.2855,157.9933,-3.8486,-60.5785,-223.9159,-177.2118,190.2271,82.9367,107.1928,144.0539,-131.1877,-31.1278,295.6119,146.7613,11.5974
201.4186,104.7964,256.9634,221.4621,217.3352,144.7816,53.6666,-30.9095,-105.2605,-68.1885,176.5535,54.4050,117.7172,98.9265,-51.7460,-29.4783,299.3453,130.2449,46.8353
184.9251,96.9309,257.6325,209.3421,194.3734,113.6336,73.3452,-18.8604,-10.5461,2.4677,167.3658,66.1593,133.6920,122.8760,31.6490,2.9093,266.8344,140.5816,35.4789
150.6820,84.6482,214.3307,180.9148,140.4777,77.9009,31.2450,-42.2244,20.4429,-48.1925,128.8311,63.8191,93.9041,133.5993,2.5374,23.9988,236.3751,149.1420,-8.1012
133.9023,61.0767,181.8982,141.2978,102.3287,78.5022,-15.7239,-58.8306,25.5213,-96.2946,97.8021,33.4542,44.4241,73.3338,-58.8055,7.2498,219.1929,140.7755,-21.1540
144.1771,28.2524,196.8380,97.6903,87.3429,77.1719,-2.1183,-64.6920,30.7739,-78.2604,110.9549,16.5394,58.4952,40.4268,-18.6156,-21.5490,185.4078,114.7393,-8.2039
137.3035,0.0936,190.7743,58.3718,62.9056,32.4235,30.5208,-86.3156,-0.2894,-104.2138,119.9056,20.7734,84.3988,82.7583,40.2570,-32.5791,154.2258,83.8334,-18.9515
105.3132,5.1340,139.1386,54.5748,48.6808,14.0825,17.6281,-106.9585,-69.9101,-164.6104,91.8950,23.3512,60.7218,90.9346,2.5998,-42.1510,147.7385,85.7234,-44.5019
82.0835,38.0395,101.5812,87.1160,87.2332,64.9021,0.2066,-100.8437,-120.1047,-158.5153,74.5143,25.6064,48.8554,39.6385,-33.2129,-67.5711,133.0682,129.6066,-34.6848
68.4225,61.7120,93.0017,113.6591,139.4365,105.3748,40.6808,-73.3762,-124.8194,-126.2907,81.9302,43.4438,87.5992,45.5847,26.6420,-72.9852,105.4732,171.9090,12.8839
51.3147,74.2229,84.7241,131.5301,152.3226,103.5391,110.2969,-26.6441,-95.5979,-83.3299,68.7241,71.7228,106.5550,113.0007,83.9760,-34.4939,103.6063,190.5442,57.4727
54.3243,95.2295,94.5015,168.2897,166.8431,121.8342,149.6834,24.5057,-58.6943,33.5845,49.7223,86.4430,90.2962,125.3011,68.7313,3.1346,134.8085,206.5138,76.1462
90.4345,113.5532,144.4996,200.4635,209.4327,149.4323,137.0096,28.8816,-74.1636,98.4522,76.1668,80.7986,103.0962,76.8936,50.8920,8.5516,180.9808,216.1368,63.9548
104.1052,116.7397,168.7290,186.4852,186.0367,116.0999,61.2089,-19.4014,-141.2725,-22.4286,103.1280,78.3425,119.3496,45.7196,61.4377,6.7702,197.0054,185.2107,8.6068
31.8551,112.6670,76.2888,132.1509,41.1196,36.9867,-64.5534,-55.2206,-152.3204,-136.9692,52.6263,87.9483,64.6648,27.5338,62.8827,3.1872,109.6851,111.9459,-84.4583
-79.7111,95.5599,-76.9057,69.1763,-94.6707,-30.5541,-157.0032,-54.0568,-86.6201,-59.2493,-27.4239,81.9727,-6.5240,-3.8765,64.6304,-11.2477,-39.4110,40.9866,-169.6686
-101.0409,62.1856,-108.9140,29.7407,-76.9741,-72.5973,-140.5629,-57.4526,-54.0913,58.8342,-26.0860,52.4900,9.0044,-11.9387,81.7456,-3.1314,-82.1001,13.8594,-207.3168
-6.3878,40.9654,20.0076,32.1249,26.6263,-80.2086,-73.7644,-77.2933,-73.1557,43.4151,53.5375,33.6994,76.2683,10.0022,74.7389,27.3114,9.2469,23.1749,-208.6990
79.5076,43.4777,129.8387,47.5626,47.0213,-59.7225,-78.5565,-89.7874,-79.6622,-56.7494,114.5491,38.8050,92.8143,9.9044,31.1537,3.2879,74.2190,24.6606,-200.8767
76.2485,36.1103,105.4660,31.7563,-25.2783,-64.2019,-143.4545,-95.1381,-87.1387,-135.5399,116.6616,36.4919,58.5593,-15.9154,-0.3331,-86.9892,48.0939,-2.8167,-177.4804
44.8684,0.3710,45.4160,-5.2211,-70.1400,-93.1710,-154.4621,-96.3264,-82.7592,-142.5449,97.7164,10.7986,37.0942,-13.7965,6.7171,-139.2236,21.7736,-27.7229,-122.8076
49.6529,-27.4922,54.1594,-15.6174,-61.9127,-62.7292,-109.3557,-74.3205,1.0584,-101.9032,86.8745,-4.8455,33.6282,29.9496,20.3012,-99.5177,41.4624,-4.9394,-53.8213
71.1433,-6.2578,99.2181,19.1715,-63.9289,36.7327,-98.2077,-32.2231,74.9617,-94.0002,77.8555,23.1091,17.2047,68.0046,3.7815,-41.5123,71.2122,61.9680,-7.1898
72.5922,43.5043,108.7434,65.5844,-70.5122,100.2758,-115.6773,-1.5198,11.4648,-103.8063,61.6175,65.8888,-6.2706,59.7360,-37.5990,-30.3240,76.5819,106.6055,-0.4989
50.7670,55.4778,70.3059,69.6914,-43.5309,77.2322,-99.5479,17.5530,-64.0217,-29.0524,39.5512,61.0589,-17.7869,22.3838,-70.4058,-29.8529,48.4241,81.1866,-0.8376
30.2777,11.0445,35.3058,25.2894,-9.2715,35.5540,-51.8578,70.4216,10.3193,114.8873,20.7454,9.8061,-20.5894,5.1876,-71.2684,12.1617,25.8039,35.1890,61.0568
34.5582,-31.4010,51.5938,-12.2075,16.0280,37.1122,21.9655,179.5410,130.1208,233.7197,17.7482,-20.9580,-10.6786,17.4233,-38.2261,69.1069,50.0900,33.2514,189.5562
44.9167,-30.7749,79.2339,-13.8651,57.3453,61.7443,121.0480,287.8624,156.3845,309.5605,28.1939,-9.0664,17.9649,24.2332,4.4685,80.4128,69.3458,42.7044,279.8163
23.6239,-24.6749,42.0393,-18.7592,84.2602,63.9689,167.8695,315.2784,151.8159,338.7499,26.5896,-6.9010,28.9062,13.9162,8.9483,43.0617,23.1008,13.9103,273.6551
-29.7422,-60.7166,-55.5656,-63.0074,51.6751,43.4026,129.4014,272.0670,197.7789,312.2231,-10.8432,-49.6270,-11.0440,-1.7827,-27.3200,1.0680,-46.5641,-14.9260,262.3839
-94.8730,-117.6907,-152.5721,-129.6451,11.9924,49.6928,113.8281,250.1420,258.9127,292.8415,-73.9227,-102.2053,-58.3568,-26.1260,-33.1457,-8.0053,-94.9712,7.6282,305.9024
-141.9506,-126.2983,-190.0819,-157.1290,38.6489,118.6744,172.7722,286.6692,290.2963,311.7399,-114.4478,-102.9996,-52.6147,-36.3896,9.8376,41.0714,-118.9974,76.9666,315.2597
-115.1026,-63.6036,-118.7663,-90.2663,118.8206,207.5288,228.4417,317.0408,298.4096,303.7441,-93.3451,-44.0467,-9.1253,11.2492,21.8842,126.3063,-72.8541,166.4906,256.5878
-19.1844,-6.1364,13.9437,16.2159,198.5611,233.7087,261.0880,284.3712,311.1497,251.7505,-39.3573,-3.8451,21.6530,69.9965,-8.6202,155.9166,38.2656,221.3053,246.4294
31.8352,-35.5415,58.0205,21.2682,228.1084,177.6777,293.4771,218.5097,337.0807,209.1052,-21.4372,-49.2809,25.8164,37.7972,3.2745,97.9128,79.4247,180.5221,313.3908
-20.4055,-112.0159,-22.7923,-90.9007,172.2688,91.5428,268.7499,177.8153,336.3934,192.3738,-57.6134,-123.8889,8.1466,-63.8878,53.9983,56.5493,-0.6607,79.2801,319.7764
-84.1614,-134.3320,-93.3960,-170.5899,64.9983,20.8752,179.0000,164.2645,276.2630,183.0611,-103.0153,-130.3273,-28.0411,-116.3881,60.0808,94.0954,-75.2445,7.5663,214.1064
-77.1288,-83.9970,-72.2194,-130.3588,-16.7458,-17.7884,112.9173,136.0490,181.3961,152.7828,-118.8583,-70.0023,-62.1283,-87.5997,26.8468,132.5307,-60.9526,-22.0377,107.7085
-30.0862,-13.9297,-11.3621,-34.7435,-56.3810,-16.2583,68.4344,83.4215,76.6941,89.5609,-102.0322,-3.4259,-73.1804,-34.7983,4.4849,128.4482,-2.8428,-35.9737,58.6933
2.6030,36.7221,29.9084,37.4803,-76.2127,4.7096,-9.0745,38.5736,-16.8754,47.5139,-71.4386,36.3519,-68.2346,1.7645,-15.8077,130.4209,53.5705,-30.1879,18.8715
12.5043,55.4813,39.1846,71.3403,-65.9489,1.3337,-50.9997,10.5248,-41.6910,43.1757,-54.9156,37.7257,-62.0442,5.0738,-28.9033,129.8620,96.5068,-23.6353,-12.3416
24.3942,59.6272,45.1872,93.6677,-25.1184,-27.5950,2.8841,-25.0678,1.4906,-17.3349,-56.7298,20.7921,-54.7482,-20.1138,-4.3201,81.2556,123.7210,-36.6609,1.2569
56.1014,81.7494,85.1480,130.0718,8.2353,-40.7560,60.8573,-68.4658,18.6214,-141.2275,-49.4754,34.3530,-42.3302,-29.1467,23.6610,25.7393,141.2663,-24.5911,14.2642
79.5191,106.1407,126.2742,151.2630,15.0971,-24.3751,49.7174,-94.7015,-16.3751,-206.0754,-25.5513,72.3668,-24.4305,-5.2578,20.7995,12.2813,128.2448,34.0192,-24.7845
71.3316,93.2111,123.9686,119.3891,8.9092,0.1199,18.3509,-104.3016,-38.8086,-209.1203,-5.3324,80.9223,-3.4389,1.9777,28.2988,3.5020,77.2566,82.2461,-62.4144
73.2781,62.3174,127.0575,77.4622,4.2836,12.7018,11.9570,-125.5990,-41.9410,-258.5072,5.9141,56.9974,9.1518,-38.7254,56.5083,-33.2016,60.4919,88.2263,-50.4519
100.4745,46.8127,156.2479,71.2355,6.3037,-4.2203,25.1576,-177.8283,-55.1022,-349.4045,2.5868,28.6066,-2.1793,-93.0288,56.4940,-67.1664,111.4709,66.6262,-45.6347
91.0172,31.0836,130.6155,63.4632,-1.0770,-53.5325,43.0952,-243.1745,-57.7092,-398.1205,-32.5419,-1.5453,-32.8905,-114.6887,36.8780,-71.2193,139.2024,21.1471,-88.7743
39.9555,13.4712,56.0778,32.2514,-34.0935,-99.3369,34.2238,-269.4947,-58.8655,-373.6158,-68.5710,-13.6138,-50.9891,-100.3736,42.4989,-59.4811,84.0159,-21.4954,-135.0163
19.8469,21.4895,37.8492,10.1195,-67.0580,-107.7211,-16.3964,-236.6958,-110.0228,-309.4166,-50.2626,15.3093,-33.3156,-98.0330,58.2068,-67.5694,-2.3151,-23.5662,-163.7793
32.7906,36.4089,63.6150,-6.7144,-74.7915,-96.8134,-65.2413,-203.1705,-176.1909,-287.1109,-5.3885,42.4014,-3.5627,-138.3483,60.9091,-105.3512,-68.6215,-19.3967,-193.7708
20.9248,19.2369,42.6943,-35.0488,-77.4477,-104.4954,-70.1877,-212.2726,-165.4598,-307.4870,-4.9510,22.3339,0.5509,-164.7491,73.4377,-123.7666,-97.4231,-51.6149,-196.8564
-15.1958,-12.2922,-14.0012,-48.6785,-83.5026,-129.6003,-38.2220,-208.7889,-86.9735,-240.3049,-37.6993,-10.7998,-11.2603,-125.9304,103.6013,-96.6411,-86.9853,-78.6024,-151.4218
-45.4419,-15.8859,-54.7680,-41.2023,-81.6270,-134.6114,1.1258,-146.9433,-40.8181,-112.2750,-49.5530,-6.0867,-8.5999,-80.1769,127.7665,-91.8217,-84.5389,-65.8004,-110.6006
-70.6204,6.7926,-85.3697,-41.9652,-100.0069,-107.1575,11.7305,-89.3242,-65.4750,-134.9254,-47.5334,27.8747,-4.3253,-80.9283,137.1205,-144.1172,-126.2953,-57.6668,-108.9363
-93.8807,10.3226,-118.4666,-64.6511,-147.0955,-91.4330,-16.0305,-92.2918,-88.2692,-260.5775,-60.7404,39.5699,-19.7400,-85.0968,134.9757,-169.9019,-172.1133,-85.1835,-112.4280
-106.7871,-29.7233,-143.0635,-106.5739,-151.2723,-114.5748,-32.5502,-102.1797,-51.8771,-228.5120,-69.5006,2.0031,-27.3917,-71.0598,118.5680,-125.2554,-190.0815,-117.2207,-102.0870
-97.9386,-61.8349,-138.4237,-134.5249,-83.8624,-127.1677,-8.4927,-63.5291,-22.0993,-78.0771,-42.4746,-34.3771,-0.9498,-66.0192,86.3743,-83.6345,-196.2624,-126.7335,-95.7086
-69.5791,-37.5627,-106.3133,-111.7155,-32.5968,-99.6129,-2.0978,-26.5063,-78.2817,-36.6478,3.9399,-13.0057,29.5894,-47.4336,41.4965,-86.8523,-199.9370,-126.2532,-112.6609
-69.3924,-14.9396,-115.3936,-95.2220,-63.8438,-93.3055,-63.6078,-63.3054,-170.3629,-95.3611,18.7349,15.4021,25.0748,-9.7154,-1.1655,-99.0204,-216.2271,-139.4442,-175.8011
-121.0177,-42.8842,-194.2631,-137.3530,-133.4611,-139.7702,-152.0093,-157.0608,-217.0802,-155.7225,-18.1618,-13.1063,-11.2776,-25.6729,-18.7934,-106.4636,-240.4805,-164.7473,-271.1304
-142.0576,-44.5819,-221.3495,-134.5383,-172.3274,-172.4329,-203.9617,-235.3687,-228.9143,-224.0651,-59.6610,-39.9913,-48.6184,-92.8601,-10.5027,-113.4286,-193.5362,-173.0201,-323.6341
-80.3936,14.0145,-129.2549,-30.4998,-164.9704,-152.3690,-206.0583,-255.5618,-212.8988,-247.2409,-55.3088,-13.3080,-60.5228,-112.6313,4.3945,-102.8614,-65.5070,-153.1906,-295.5128
-32.6688,31.0408,-63.1237,22.5883,-141.8560,-126.6573,-179.7192,-217.3790,-133.8516,-161.0968,-33.5900,-2.0356,-54.4051,-84.7084,10.0430,-84.0383,-6.5385,-133.4747,-228.8910
-75.3913,-25.8076,-129.1069,-54.5032,-138.8542,-139.5336,-154.5188,-145.8297,-40.0524,-42.9090,-54.7700,-42.9276,-68.0714,-92.8930,-9.0943,-81.5383,-96.3990,-135.6945,-164.3191
-148.7739,-73.3808,-235.4486,-142.5219,-158.4499,-187.6156,-148.4065,-83.8167,-19.2678,58.7820,-111.2897,-76.5160,-107.0742,-128.1467,-48.7423,-73.1898,-226.4248,-147.4828,-122.0505
-193.7110,-97.4148,-295.3991,-186.7895,-172.9967,-232.9391,-144.7467,-49.0433,-34.6118,183.6796,-148.0257,-86.0563,-127.5205,-128.9688,-67.4276,-39.8751,-302.7320,-149.7698,-114.3822
-208.8193,-126.7916,-311.8958,-220.6611,-162.4511,-227.7051,-114.3638,-8.1353,8.1394,282.2914,-142.9082,-97.6338,-111.8689,-102.8881,-51.2299,-21.1680,-324.8577,-139.3365,-102.1359
-185.3551,-121.1960,-279.6735,-200.0751,-132.6211,-175.7258,-67.3278,50.8247,99.5988,287.8867,-114.8302,-92.0112,-92.1202,-76.9776,-37.7257,-38.6873,-284.6110,-122.1597,-48.9788
-137.9627,-73.7064,-213.4101,-116.9351,-107.0722,-129.2100,-43.4393,71.2077,163.2593,246.9558,-89.6643,-62.3175,-83.0448,-45.2829,-30.0154,-45.4024,-193.0020,-100.4611,-11.3423
-108.4206,-48.5183,-162.4668,-66.6857,-93.0008,-109.8006,-44.6393,16.0081,163.6205,184.8707,-79.5454,-48.1591,-67.4178,-19.7536,3.1339,-11.3345,-118.7933,-81.3291,-38.5120
-90.0363,-54.7737,-129.2346,-73.1065,-59.4883,-112.3661,-29.7911,-66.1152,121.3554,75.5821,-73.3022,-60.0581,-40.4690,-30.7883,38.6814,18.5668,-104.7180,-84.9306,-75.3696
-69.1914,-69.9441,-106.5737,-100.2698,-0.7582,-128.1062,7.4319,-108.9260,80.7975,-24.3855,-58.1000,-81.4426,-14.2586,-69.3234,38.6398,2.2649,-139.0934,-97.5144,-69.4116
-77.5358,-112.0362,-122.9682,-160.3845,29.5012,-110.5639,29.1857,-98.1731,63.6174,-39.8131,-48.2279,-110.4349,0.5739,-95.2273,27.3711,-28.3593,-184.2531,-64.7568,-37.2093
-109.3996,-157.2785,-162.8199,-215.4250,23.5177,-49.0699,34.9150,-63.1047,56.1411,8.7426,-56.6599,-135.7366,1.0748,-96.6292,31.3204,-32.2831,-190.6219,-7.3091,2.0347
-119.7325,-149.3694,-183.1384,-195.0840,34.4594,-31.5293,50.4767,-39.2800,55.7625,67.9685,-65.8003,-140.5463,-4.3087,-97.6633,31.0096,-34.8166,-168.3026,-18.2891,29.8811
-124.5508,-119.2398,-202.6680,-162.0491,26.5962,-79.6688,41.6082,-30.6669,62.7411,103.5695,-72.4360,-128.6004,-20.1994,-110.0883,11.7711,-61.8897,-189.9010,-76.2031,13.9737
-156.7216,-120.3374,-238.8099,-194.7568,-77.3805,-95.5325,-36.3938,-17.9680,41.5572,97.0290,-101.4432,-104.9116,-67.6718,-121.6202,-18.2948,-73.0666,-243.9901,-71.7488,-34.5020
-173.8195,-121.8464,-239.8619,-216.8943,-188.9671,-68.0758,-125.0596,-4.4042,-1.7004,83.3002,-130.1559,-78.3126,-113.9620,-128.1536,-32.4569,-45.9013,-230.3413,-23.3087,-61.3095
-130.9459,-95.2936,-170.8859,-159.9704,-161.0331,-58.8822,-125.2527,8.8108,16.2504,120.5854,-96.8662,-66.7021,-86.1965,-121.0004,4.5239,-26.0729,-136.6125,-2.1058,-34.3360
-66.0565,-74.3944,-81.0454,-94.5939,-47.5172,-23.4088,-46.1290,50.2965,93.5601,189.4757,-23.3066,-60.4702,-11.5441,-77.4991,51.0668,-29.3299,-53.5963,37.2922,30.4142
-34.1657,-73.8790,-41.2248,-81.2165,4.6813,56.0964,9.8216,95.9180,98.5683,193.4322,4.2791,-46.4386,4.3309,-25.1794,7.0820,-27.3836,-26.3517,102.6293,77.4949
-18.7263,-71.3943,-42.3679,-82.7062,0.1335,62.3779,-7.9021,66.7472,-2.7536,81.5836,-4.2408,-48.5830,-31.6957,-28.9064,-96.5747,-45.7052,-15.7544,89.1454,72.3202
26.0083,-61.3224,-9.5596,-61.4730,14.1671,-13.5826,-44.7951,-21.9579,-81.4046,-62.7057,26.3899,-68.4231,-28.1504,-78.9351,-124.8316,-117.3359,12.4173,13.1975,54.9093
66.6956,-55.3684,42.2765,-45.6728,24.2695,-37.7871,-48.5765,-69.2560,-78.3384,-126.3512,60.7246,-69.9476,-4.1207,-115.9329,-86.2220,-177.7899,24.8890,0.8104,51.7959
25.7686,-57.0035,6.8195,-74.9850,-17.1427,2.1228,-53.5721,-47.6528,-62.2756,-122.4958,16.5576,-55.3833,-32.7588,-135.7211,-82.9352,-154.1900,-21.8854,45.0517,22.7653
-62.7134,-52.3105,-86.9243,-112.4063,-72.3897,28.7837,-87.2661,10.6087,-41.1825,-87.9709,-52.4681,-42.4168,-70.9692,-144.1810,-81.1328,-82.1923,-82.0444,70.6664,-13.5380
-84.2991,-31.5582,-95.7736,-90.1100,-77.9424,46.7620,-89.1804,88.0740,30.2550,39.4195,-50.6359,-21.4083,-51.7410,-118.8870,-19.9590,-35.7791,-82.3827,77.4042,14.6150
-36.7867,-29.7463,-37.4515,-50.6934,-36.9386,46.1933,-30.3847,127.4948,105.1137,213.9673,-10.8677,-22.4089,-17.6797,-90.3266,22.5104,-33.6865,-52.5493,42.9911,75.7570
-8.5090,-81.0315,-30.6874,-82.8741,-2.1490,-19.3307,16.6162,81.9286,132.9576,239.0823,-1.5325,-85.4511,-17.0606,-106.3511,2.6285,-50.3925,-45.7570,-55.1485,102.9273
-12.0005,-130.5850,-49.2141,-138.3629,-2.2671,-91.6660,13.0681,31.0221,158.7334,125.5582,-11.7124,-144.9047,-25.8517,-134.3357,-3.3147,-47.9980,-34.4787,-121.2865,113.2980
-5.7059,-100.6806,-21.5621,-115.5196,-23.8473,-97.8061,-6.4804,42.5070,166.6187,61.9503,-20.4986,-114.7433,-34.8101,-131.7731,2.5758,-15.7419,-9.8833,-97.7562,98.9466
20.0671,-21.6720,25.1436,-41.0336,-48.3160,-73.3650,-39.2179,38.1526,59.9702,12.9829,-22.0280,-34.4611,-54.0381,-106.1878,-49.8111,6.5899,-1.2156,-72.0194,29.0911
59.5854,11.8462,66.6405,-4.3198,-63.9724,-44.4319,-82.7255,-25.6388,-108.5228,-126.9053,4.2752,5.7132,-55.5095,-60.8244,-112.1317,-2.9917,21.1323,-79.2273,-15.1619
82.9000,-23.1150,91.4951,-29.4632,-61.8362,4.2147,-84.4913,-62.7447,-178.6894,-200.6737,34.1172,-8.9981,-32.5777,-15.9191,-108.9360,-4.5667,59.8018,-60.7233,15.3070
64.4576,-56.1998,75.4140,-62.3467,-46.0556,39.9399,-51.7967,-41.8186,-146.9924,-100.4465,30.7629,-27.7563,-17.1569,-4.7216,-79.8943,21.2088,56.3935,-26.4421,19.7612
68.0583,-24.9477,87.0721,-19.2842,-18.6084,44.0620,-48.0477,-26.7843,-108.3227,-5.4235,48.4369,-7.3279,5.4303,12.9516,-59.9235,36.4701,62.6543,-20.8931,-22.2613
126.6096,25.6290,164.2110,71.5804,20.8639,32.8172,-58.2502,-40.1177,-67.3403,-16.0694,107.1125,17.9680,46.8808,51.9593,-28.9351,30.4132,145.7123,-38.7465,-22.1987
127.3738,11.5716,159.9262,68.5821,33.6876,-19.8851,-47.1418,-65.7791,-20.5128,-37.1099,91.3664,-17.6731,36.5625,21.6818,-21.8020,40.8194,185.2480,-76.5018,-15.1461
49.6991,-20.2495,54.2958,7.4292,-1.0832,-85.4161,-42.5565,-90.4242,-7.1123,-47.2677,-11.4817,-60.5892,-36.7854,-44.8901,-60.4979,80.3209,130.1512,-101.8721,-47.8628
54.9800,34.3906,73.0877,81.2689,-4.1680,-55.2311,-28.9705,-74.7964,2.9800,-67.2513,-31.7695,-6.3996,-51.9688,16.9139,-64.1096,115.6641,157.8307,-43.8382,-22.2507
143.7036,110.2435,208.5464,214.2249,66.8698,32.6537,31.3440,-22.0454,40.9116,-61.0042,56.9530,77.1803,24.9731,144.2641,-4.2404,110.6040,268.2761,54.2751,54.0824
125.5416,76.5207,186.5991,159.4464,98.0562,31.9519,67.6342,-16.6297,48.6058,-76.1912,80.2150,58.0997,65.6818,124.3846,36.7725,58.6707,227.1459,75.5383,34.2125
10.6212,-13.4084,23.6109,-2.9384,26.6894,-25.4064,36.6449,-72.8519,33.5820,-163.8141,1.0278,-14.3487,19.2669,10.4930,42.8268,-7.4745,63.4518,43.1259,-29.4632
-21.6773,-43.0888,-25.7424,-34.5204,-25.9959,-14.2969,40.7190,-89.8211,82.6454,-204.3787,-48.5812,-36.2272,-22.1800,-12.6867,64.1387,-40.4542,27.9777,47.2383,33.5733
29.7409,-30.6989,42.0123,24.5470,15.2985,46.8257,112.4954,-22.2420,152.3310,-118.6023,-32.6273,-29.9001,-16.0683,26.3258,73.0728,-21.7312,119.5516,74.6407,167.2762
60.3659,-13.0686,89.2139,52.6410,73.6282,102.1876,147.5432,68.9046,132.5164,-22.9563,-4.3903,-17.8207,4.5216,46.3397,38.8337,28.6361,177.0160,99.7577,222.2152
73.7098,20.5744,121.8462,73.2736,100.9451,153.7451,130.5307,122.5971,61.7235,-1.9632,32.3252,22.9565,37.4357,80.7836,19.3221,71.4986,180.7240,132.1869,201.5155
80.2876,20.9804,135.7716,56.4868,106.7546,151.5729,122.7007,107.5814,30.7132,-19.9153,66.8729,39.7730,73.8954,105.4767,36.5011,70.5247,137.4712,118.2563,139.3074
48.7359,-38.0625,78.7370,-37.8829,68.7261,68.8286,97.3402,27.8672,23.1633,-64.7472,59.9518,-5.7711,70.1180,57.3866,41.9789,21.1748,39.2754,37.4208,40.0532
23.8001,-64.2423,32.9590,-79.5898,9.6547,10.5768,46.4240,-42.0030,3.7119,-123.5211,36.1261,-33.4568,38.4609,-5.5325,39.2245,-42.7259,1.5392,-1.3031,-15.8011
50.0913,-23.8989,71.1917,-12.7549,1.2028,25.0526,43.3992,-42.3338,-9.4533,-130.8392,38.3649,-6.6621,28.0845,-24.0827,52.3128,-86.9594,72.9741,39.8076,10.1659
59.2475,-1.0674,81.0758,17.9691,5.3431,8.6019,47.9932,-32.1347,-13.7651,-97.8890,38.9522,7.4484,20.7535,-34.6134,38.7747,-106.2664,87.9025,41.0680,0.1935
6.6184,-8.0997,-6.4481,-22.9789,-71.8375,-78.0621,-59.0033,-79.4356,-38.5172,-117.6655,10.5653,-0.1225,-22.3593,-44.0927,-20.3174,-110.8428,-15.5713,-40.9074,-106.0812
-34.3836,9.9737,-69.8327,-24.7197,-183.2101,-135.7571,-205.3125,-121.3472,-84.0069,-172.8239,-13.4151,17.6769,-69.4976,-26.0322,-60.1440,-101.4781,-65.2131,-101.2776,-178.5985
-11.5657,33.3066,-25.7190,16.5996,-207.0871,-103.0218,-207.3946,-75.5684,-93.6339,-139.6124,-6.5969,45.1849,-69.5608,2.2414,-34.7840,-71.2038,11.0976,-86.0509,-125.2216
25.2023,26.8805,40.6786,35.8195,-148.0107,-30.8009,-87.4681,-0.8428,-27.6603,-31.9809,12.3750,48.2306,-32.4570,29.7308,24.5564,-34.5496,86.5351,-53.9263,-44.2709
31.1918,10.0444,49.9870,29.8967,-110.1786,5.6454,-19.2432,4.9223,36.8208,-16.6093,19.0340,35.9214,-10.4435,57.2430,55.0294,-22.6097,98.3267,-51.7163,-28.1760
42.0665,-7.4503,55.9905,9.9442,-120.1838,-0.7875,-26.6035,-25.4985,7.4355,-109.6524,17.2314,23.5207,-22.5718,60.7261,25.5954,-29.1707,105.0222,-59.7095,-17.1728
91.5564,-14.4075,120.7407,2.9170,-100.9128,13.0174,-1.9093,-17.2166,-50.6941,-132.6183,35.8219,27.2645,-22.4077,51.7326,-17.5824,-23.0887,120.7517,-49.9593,16.8929
128.4095,16.3162,175.0948,38.2984,-34.4499,62.9412,41.5535,-7.7094,-53.6643,-51.7535,77.4106,54.1173,19.0545,57.4433,-19.1357,-16.4962,102.4336,-44.1772,-38.4058
102.2853,46.3872,138.1389,56.5759,-18.6547,67.2911,-3.3839,-52.1980,-77.8818,-12.4231,94.3482,64.5881,42.0343,44.9544,-18.8226,-24.7276,62.1397,-78.8137,-191.5564
67.8481,26.2934,85.1687,20.2950,-75.2790,-0.3156,-102.7981,-98.6041,-164.7235,-19.2803,73.0062,37.5127,11.9010,12.9578,-54.9231,-8.1707,64.9995,-118.8585,-258.4075
86.4265,8.9335,112.1759,20.4364,-79.4129,-44.7344,-132.2245,-96.5210,-196.2113,12.8365,75.1249,21.1174,8.8535,24.9623,-56.0284,34.9637,116.5429,-99.1596,-182.3382
115.1592,39.7361,158.4127,77.9791,1.9936,-17.0084,-105.4825,-81.1161,-133.7297,14.2046,123.5242,36.6767,71.1176,62.4677,4.8167,36.8180,137.8991,-48.7894,-121.0352
105.4548,58.4921,146.7578,83.0113,38.0780,19.5723,-109.3467,-69.8301,-73.9815,-56.6001,152.6025,43.9999,107.0831,52.2608,33.9228,-2.5228,88.6255,-43.1017,-133.0610
80.2924,31.7343,113.7070,23.0485,-16.8873,15.5620,-124.2102,-44.2260,-46.8964,-73.5396,127.3851,33.4809,75.0768,8.8987,18.3347,-23.9327,24.0863,-66.7141,-136.9961
55.8399,11.9947,91.6415,-9.0632,-62.7207,-15.9558,-105.8663,-22.4355,-19.4299,-13.8281,90.1870,30.0584,49.2111,-31.0826,51.0065,-42.1043,-1.7976,-51.7752,-122.1883
41.1495,33.2024,88.9789,24.9747,-33.2312,-31.8101,-65.7755,1.0619,26.3563,19.7356,76.2799,38.3573,63.8518,-65.6114,125.1547,-72.4408,28.8209,20.3907,-79.6788
81.5904,82.5639,155.7729,121.4082,67.7256,20.3924,15.0430,67.7378,118.4553,27.6220,87.1847,56.9712,86.8587,-50.1632,150.3963,-56.6883,134.5601,125.9119,56.2523
157.2434,121.7604,250.7340,225.0298,191.1900,116.5862,124.9523,119.7384,202.3101,16.0472,110.7377,71.3165,101.0495,28.5594,102.3105,-10.6000,259.4006,207.1375,200.8035
162.8432,103.6264,225.8474,222.4698,229.3713,146.2518,146.9961,70.2231,151.5179,-53.2278,107.9770,47.7926,85.0121,79.2332,7.8773,-13.3150,270.2076,196.6569,196.3905
82.7398,59.7848,89.4570,141.0855,159.9402,94.2820,65.7600,3.0976,18.8122,-62.6683,50.8783,10.7867,28.2081,62.3177,-75.7512,-17.8565,161.3729,125.6673,116.8251
9.0016,70.2424,-1.3104,125.0412,110.1000,66.2220,21.3138,31.5748,-34.8995,70.1523,-20.4134,15.5856,-14.0788,29.1354,-73.5565,46.3100,72.1301,92.7723,117.9014
-21.5246,89.9424,-23.6096,132.1767,122.9824,72.4073,30.6526,72.5429,-40.2605,140.6312,-48.2864,20.8450,-8.0071,-10.1785,-22.4570,95.6972,45.2420,85.8273,148.8562
-27.1618,24.4322,-46.0563,41.1315,111.6305,34.8586,-1.7811,30.5653,-69.8209,44.3474,-25.5503,-34.3772,6.0719,-36.8522,-32.2891,69.3820,15.7202,26.2865,128.0831
-3.2783,-60.8780,-40.4831,-51.1967,87.1030,-16.2654,-25.3046,-3.2173,-24.8903,10.1501,17.2484,-90.5521,15.2672,2.6472,-70.8210,53.6964,-13.8992,-51.2414,121.6535
15.5577,-75.3430,-12.7933,-50.8538,102.8668,-24.8224,32.2714,47.0538,121.2974,150.5506,25.2345,-97.4843,24.5134,31.3876,-43.5544,86.5402,-29.7895,-82.7532,160.2128
-34.8771,-87.5438,-67.3656,-78.6843,86.1290,-57.6469,68.5299,101.1295,236.0799,303.7844,-39.7550,-123.7336,-10.0863,-56.5046,-0.1702,108.8730,-80.6674,-114.0576,176.6156
-111.6725,-146.0642,-172.3677,-173.9524,12.6990,-136.6656,26.3761,112.4105,281.1194,368.8606,-111.2053,-183.9105,-68.8489,-147.6759,-5.0774,115.5777,-143.6098,-171.9169,160.6714
-119.4853,-173.2539,-180.4116,-217.1875,-7.8579,-147.3935,7.2830,134.4609,281.8070,344.0239,-89.7663,-189.0508,-53.2061,-107.7351,-6.0318,129.6836,-146.5449,-183.0599,147.8569
-80.4156,-157.4742,-111.2999,-215.8017,30.6414,-71.2213,32.8802,158.6939,197.1389,219.9381,-15.2089,-141.1877,20.1541,-33.7482,17.5523,127.6704,-126.9557,-130.9566,133.3036
-65.7198,-161.6255,-86.2658,-234.9686,35.7201,-30.4457,34.4229,118.6040,76.4688,76.4653,10.9549,-123.5759,48.8378,-21.7808,27.0568,96.4784,-127.2960,-87.1711,114.7783
-51.9319,-158.6131,-80.1460,-206.1767,27.0307,-47.2191,37.2293,38.0147,40.4657,1.0297,8.0906,-122.6792,40.8961,-8.6088,33.3379,41.3232,-88.1124,-65.1933,103.5509
-7.6915,-102.4008,-25.8424,-111.8901,53.1194,-33.6903,72.6204,3.1055,62.2717,-60.2416,25.7152,-82.2517,43.5897,9.2636,34.4616,-26.7983,-19.9548,-20.1968,86.7156
10.2160,-38.7112,12.0390,-54.9431,71.6390,16.2438,84.9428,26.7712,69.6724,-140.2279,19.3260,-32.6373,30.0011,-28.9985,7.2460,-53.2108,-15.9086,43.8351,66.8124
-30.6654,-14.6340,-26.3328,-51.2461,70.8831,41.9208,72.5295,46.2256,80.3759,-168.3275,-21.3201,-20.7233,13.8732,-61.6877,16.6481,-19.8586,-53.6821,76.1905,67.0909
-70.1616,-31.2025,-78.5415,-64.0418,79.4424,28.7609,79.1560,20.3050,59.9963,-134.4721,-25.7237,-38.0941,45.8796,-30.1912,92.0745,1.5147,-65.7202,48.3642,69.9086
-61.4705,-72.6450,-78.1634,-104.2364,66.5533,-5.2323,58.7559,-29.8546,-40.9154,-89.3529,4.1622,-61.2384,74.1490,-7.8245,112.0320,-0.2453,-72.6670,-3.4105,46.6271
-20.8555,-79.0319,-31.5785,-106.2032,25.9414,-30.3362,-22.9632,-62.9698,-125.0327,-61.6143,15.6082,-60.3020,43.3208,-8.9145,27.7010,30.9149,-55.2942,-12.0751,21.3258
25.5794,-12.7593,24.2984,-2.8674,11.7157,-10.0658,-84.6136,-61.4940,-117.5635,-80.6818,32.1017,-13.1517,15.3530,47.9888,-47.2933,50.3069,27.0249,12.9903,18.6998
51.9237,50.4744,49.2807,83.6521,13.7104,38.4005,-77.7835,-31.0422,-98.7293,-114.2715,71.6949,44.0604,29.5440,125.8398,-60.9923,6.4805,68.5111,-1.2928,4.4832
40.2955,50.2691,38.3842,53.2177,-3.6190,59.0845,-56.4046,4.5290,-103.4129,-75.0664,82.9695,62.8600,43.0774,116.2865,-46.6937,-15.6800,-0.7214,-41.9737,-49.0963
17.5829,40.6370,32.2437,17.6048,-2.2950,51.0565,-51.5470,9.7107,-82.2931,-4.9701,63.2149,55.3669,50.7479,53.5936,-0.5737,21.1974,-48.4215,-33.2949,-97.0600
11.0500,60.5773,33.4584,52.5525,29.4401,55.7865,-46.3916,-13.1782,-66.6532,-10.0744,55.4293,56.5557,63.6433,40.4553,39.8613,28.5929,-18.5007,12.5038,-93.4206
-1.7576,88.8874,5.3724,91.8059,42.2844,82.5515,-39.4130,-18.6886,-100.4176,-53.3989,42.6151,76.6974,51.8166,70.4011,11.5499,3.3195,-19.3643,44.1249,-73.6166
-26.6339,116.1075,-27.2794,113.9056,41.0781,107.6380,-32.0932,-12.6746,-122.4013,-76.1059,11.2760,98.0923,30.0641,78.2091,-12.3442,11.4282,-39.1328,63.8191,-82.2736
-27.0793,111.0766,-21.0317,118.8253,46.6493,106.7691,-28.6364,-49.6576,-88.8842,-111.6230,5.5165,78.9977,38.8088,53.1169,38.6640,17.3630,-0.0130,57.4072,-88.3226
-10.2756,51.9110,-13.0122,66.7378,21.7239,87.2588,-53.0937,-93.4302,-60.7173,-126.9345,21.8622,25.0987,38.5784,28.5740,50.7438,-9.9255,14.7024,12.3011,-66.3404
-24.2660,18.6117,-47.1871,9.5800,-28.6030,83.4131,-94.1985,-52.9002,-89.1283,-51.4781,7.4330,13.3994,-5.3766,23.4869,-40.2394,-7.4649,-55.0207,-13.1005,-57.6021
-72.1322,44.4517,-107.3979,7.8046,-51.9060,74.2004,-101.0763,29.3767,-124.4036,54.8879,-37.8539,38.8321,-43.9362,11.3402,-91.0985,28.0930,-117.2406,-25.5884,-61.6842
-117.9053,16.6198,-172.5977,-28.5783,-66.0937,2.1270,-66.1904,45.2991,-85.1591,106.9802,-82.8526,-2.3685,-56.5458,-37.9461,-30.4073,31.1851,-144.9865,-111.5998,-11.3199
-127.0602,-78.3057,-203.1872,-125.4730,-87.6379,-78.0624,-15.7072,32.8766,8.8567,111.5190,-106.3037,-87.3740,-70.6870,-83.3312,14.2673,2.6952,-173.5492,-199.4765,89.9806
-86.7876,-106.0910,-154.4559,-150.7633,-58.5801,-68.6948,44.1039,82.1596,53.4391,104.6814,-84.9019,-92.0215,-70.8627,-70.3908,-32.1411,-26.6442,-169.4113,-147.9596,159.2530
-62.2787,-80.0560,-116.8987,-127.8621,-3.3850,-34.9581,81.1227,147.3929,39.7835,146.5048,-54.1809,-53.2910,-53.7780,-47.0804,-88.5293,-47.3330,-179.8905,-54.0241,161.8389
-145.3542,-129.7600,-225.2155,-219.0902,-28.4687,-72.2331,57.3725,170.7366,71.9615,268.4250,-97.2062,-88.9012,-67.1620,-74.6185,-80.6520,-15.6447,-309.4451,-70.6342,132.8679
-280.8574,-217.7285,-387.6638,-366.0283,-88.0762,-91.0884,45.5840,209.6593,173.3691,374.2133,-186.8689,-151.9683,-93.5450,-88.0793,-24.3016,91.5514,-448.2773,-105.6311,121.3384
-322.6474,-234.5570,-415.5176,-391.7032,-44.1809,-18.8963,135.9360,278.6008,258.9572,401.6896,-212.6093,-154.6510,-67.6034,-24.4951,29.8362,197.1559,-433.0879,-60.8681,149.1201
-278.5423,-209.4900,-354.9270,-329.8206,60.0465,20.2217,239.5046,289.0728,278.1262,432.0609,-176.5108,-142.0379,-16.7261,30.8434,50.8967,219.8344,-356.7164,-36.3965,167.7891
-264.7437,-194.3121,-352.5695,-297.5585,90.0133,-41.4418,219.9335,233.2633,230.4745,467.7368,-155.6080,-151.3555,-3.2386,2.4650,43.7215,173.8735,-343.4591,-63.2578,115.7382
-267.3576,-157.4149,-353.1246,-265.1840,79.9766,-82.0502,136.3961,199.8781,131.6858,421.9156,-137.7559,-132.1096,0.7906,-36.8056,26.6313,131.0978,-307.5885,-28.8305,36.7848
-195.8115,-81.0788,-236.8081,-163.2470,134.0451,-35.6557,114.4774,199.5045,41.6032,337.5325,-77.4118,-74.1508,41.2252,-24.6197,17.7789,135.2923,-171.2392,64.8606,9.7833
-84.6104,7.2098,-71.7783,-17.6361,209.5573,20.4855,125.4377,168.2679,10.4621,266.2362,-8.6474,-22.1253,89.6118,-12.0312,44.1641,148.4186,0.6693,115.6348,14.3699
-40.2305,68.3954,-10.9135,87.4990,200.2035,33.6020,95.1127,99.2818,9.2444,145.1997,6.8573,1.4034,92.8743,-22.3404,93.3546,115.0970,126.9998,104.1349,7.4267
-69.7839,67.7003,-69.7476,97.1099,107.4458,14.4601,39.8857,36.7883,-13.4742,21.9374,-32.7046,-4.4046,40.5830,-4.5951,87.4958,74.2223,158.3086,49.4933,2.4500
-84.8510,40.0671,-117.9926,64.4624,20.5771,-22.0992,-17.2389,3.9310,-67.9816,15.1515,-60.0138,-14.1926,-16.1782,36.8435,11.1599,76.3279,115.5798,-30.5207,-4.6477
