Fp1,Fp2,F3,F4,C3,C4,P3,P4,O1,O2,F7,F8,T7,T8,P7,P8,Fz,Cz,Pz
-16.3384,40.4644,16.2056,12.5981,27.6502,-6.1198,83.3876,0.2811,57.9941,-55.9042,-17.6212,-21.8549,23.0897,-37.0965,58.2310,6.9754,-41.5878,75.0952,37.4384
-66.5119,-44.2171,-97.8947,-122.8458,-108.3708,-28.1346,77.6642,-36.2730,248.9850,-132.8044,-108.8592,-101.3786,-16.2055,-55.3370,164.9545,-39.3130,-132.5625,70.1742,-16.3034
-69.9924,-80.1006,-122.8264,-143.9775,-146.4209,71.9690,64.8176,37.1240,296.2577,-115.5117,-79.7342,-81.5278,-37.9034,3.7010,108.7409,-7.7571,-116.3370,32.6204,45.5972
-43.2204,-76.2836,-82.8613,-113.2346,-114.4953,136.9388,73.2673,104.9104,264.5786,-62.4279,-26.4144,-44.5881,-24.9922,26.0726,65.6965,15.7302,-63.6819,37.3442,67.9076
-30.3053,-68.9659,-71.4639,-118.9836,-105.7770,91.3110,62.7493,82.9613,235.1446,-17.5186,-36.5674,-46.0926,-40.6511,6.7289,82.6214,1.9124,-19.0567,43.3232,-15.7014
1.6062,-48.9557,-32.2533,-74.9144,-71.3661,69.9232,-11.8029,71.4391,112.2114,65.6891,-27.4564,-15.2142,-79.5517,40.9247,44.1041,27.3244,32.2550,11.0416,-95.5336
35.8580,-43.6018,24.3015,-14.2019,-14.3527,101.3312,-88.8734,114.7286,-33.9732,164.8402,-4.5943,18.4283,-75.8602,83.2235,-2.0802,64.7145,24.0421,-11.3662,-130.1436
16.8646,-75.3797,-8.3400,-60.2665,-18.2474,92.4949,-96.1492,144.2409,-64.9184,211.8694,-30.5801,-1.8441,-48.6809,66.2479,-6.1039,47.2207,-29.7843,-31.3075,-145.6297
7.6793,-77.5857,-44.2717,-98.5987,-21.2669,39.7662,-73.8104,132.6124,-90.9812,211.8607,-21.5485,9.3110,-43.2852,49.6054,-32.7767,24.8661,-5.0642,-67.0281,-147.8934
57.9802,-29.9113,22.5577,-16.5458,32.5078,-37.8492,-78.8377,70.1621,-168.0986,173.4816,36.4680,60.7288,-39.2988,46.0345,-32.7441,23.2934,53.0689,-60.6106,-152.3314
76.8859,-16.5760,56.0197,33.2772,17.2980,-117.9081,-76.1378,-23.1692,-157.6817,81.7563,16.8023,40.4904,-32.0751,17.7151,29.4663,-2.9321,33.8609,-46.1171,-119.3293
40.2728,-50.3692,-17.3264,-16.9989,-89.9580,-95.1831,-25.6337,-34.6637,-89.3290,-13.5268,-37.1640,-8.7720,-38.1536,23.0079,36.8390,-25.5544,16.9990,-105.1226,-6.5467
26.9944,-62.3077,-72.7689,-33.2688,-139.6137,20.5605,22.7168,44.4890,-58.5055,-60.3108,-15.0763,3.8202,-30.6550,71.1391,17.8239,-30.4749,49.1694,-133.6232,69.8080
22.5470,-44.6030,-86.2622,7.2646,-116.7142,70.0416,14.7334,63.5250,15.4595,-92.5227,1.6512,7.3610,-6.2149,69.3500,76.6405,-87.0043,42.4457,-43.0537,42.6426
7.0362,-14.8691,-83.5597,60.2622,-87.2782,60.4085,-2.0547,9.5233,96.2798,-134.0203,0.6629,-3.5826,9.4938,47.7459,90.8364,-148.5031,45.6061,29.9088,46.9616
49.3838,15.1421,-5.6023,133.3079,-19.0214,85.5481,24.3967,-12.4547,58.0861,-146.5049,91.4442,59.0237,40.1511,75.5858,25.4316,-107.7545,115.9545,27.6377,67.7791
99.4119,-25.6771,53.2284,112.3510,26.4597,50.6604,19.9171,-44.0356,43.2497,-117.9729,134.5508,82.1909,67.6365,57.9353,73.4859,-49.2444,96.1954,59.0702,-58.9650
39.2653,-125.4010,-32.9689,-66.2295,-60.7747,-63.4764,-63.9748,-105.6841,136.7281,-66.3493,-25.3234,-45.8536,12.0359,-40.3555,164.9068,-85.1346,-37.0852,92.3815,-182.0970
-42.9704,-103.7553,-78.1324,-158.2818,-117.0083,-60.7996,-75.6405,-57.6903,111.5575,13.0421,-143.6045,-131.3344,-67.8074,-83.5101,76.5259,-137.2429,-67.6187,59.6082,-57.2104
-29.0580,61.2742,37.2686,-38.7903,23.2075,38.5498,80.5043,61.5785,-25.9054,91.9958,-45.3193,-51.8594,-44.2452,-66.6042,-41.1990,-143.5035,-0.8301,73.8185,124.1788
-12.4941,121.7338,59.1621,28.7286,122.6425,7.5187,190.9379,27.9324,-5.5589,79.1905,9.2658,-6.9119,16.2444,-103.8665,9.0049,-153.0605,-21.0568,139.7285,85.5529
-52.7454,-2.4463,-77.3376,-71.3111,-34.3235,-110.3436,79.8481,-129.6810,93.7117,-56.3654,-108.8360,-89.4234,4.5949,-149.4629,72.9860,-145.4384,-71.1311,89.8565,-62.6561
-51.1105,-96.8147,-97.7352,-118.9736,-212.8028,-127.0511,-64.6146,-193.9736,45.0864,-199.0391,-179.2362,-142.4250,-6.4662,-124.0548,53.6549,-93.0905,-36.4991,-20.1873,-145.0015
-7.2729,-73.9473,-5.2769,-53.6487,-171.6775,-86.5493,-53.0632,-155.5139,-26.7678,-218.4378,-142.6210,-114.9823,22.9295,-94.6286,58.4928,-74.4648,-12.3586,-11.2205,-180.6494
-6.8950,-58.4573,-26.6687,-28.2821,-50.6889,-85.1059,-14.7454,-130.8920,5.0906,-147.2907,-124.4526,-84.8793,1.8277,-92.4139,63.6567,-104.2808,-41.8861,35.3768,-176.8399
-14.7629,-76.3346,-89.2461,-54.7843,-36.4223,-89.7403,-77.1232,-127.5228,3.2193,-113.8896,-94.1244,-53.1203,-43.4123,-64.6513,27.2610,-109.4775,-39.3090,-1.8877,-130.0590
18.4173,-70.8610,-49.3752,-62.3075,-82.6545,-92.4145,-134.8907,-113.1255,-64.2076,-130.8746,-20.5441,-16.6825,-20.1037,-33.4434,44.5595,-104.7638,-32.4360,-18.5226,-112.9275
40.8258,-84.5544,-12.9115,-76.3821,-79.9668,-94.5399,-107.7324,-80.6185,-89.4802,-111.2867,-13.2583,-21.5994,6.6093,-32.0506,78.7759,-119.9362,-74.2568,38.5931,-119.3119
34.5239,-140.0406,-21.2918,-106.5386,-12.8420,-50.1962,-68.2721,-30.9519,-88.8277,-56.2728,-62.9526,-49.5509,-18.6836,-26.5371,22.0463,-100.4488,-90.3116,59.9299,-91.7219
40.5961,-164.3962,27.7501,-111.7465,52.5881,-9.0733,-69.3590,-14.0159,-93.4100,-40.0871,-51.3898,-53.5084,-7.2010,-22.1809,-23.4106,-58.3324,-63.3706,25.3822,-81.4550
57.8465,-162.5615,73.4317,-109.8568,33.8077,-42.2299,-86.5736,-50.1774,-62.6752,-61.7451,-0.7283,-39.8325,44.4509,-32.1376,28.7050,-70.1117,-83.5488,-12.3215,-118.2357
66.5568,-211.3321,7.3384,-144.5801,-56.4057,-65.0331,-85.4979,-50.1593,-21.5952,-72.2930,12.7665,-19.5484,41.0532,-3.6174,66.8815,-98.8807,-156.4276,-69.0330,-123.1488
59.3436,-279.0239,-86.0891,-208.3599,-112.3103,-10.7993,-49.9385,15.3301,0.6868,-69.1549,6.4332,-7.3185,18.3402,45.9874,58.4247,-78.2320,-219.2416,-119.2184,-81.1747
22.9612,-272.7224,-114.9492,-248.6069,-100.6984,38.5369,-8.4106,44.3088,36.5331,-61.5366,-7.5292,-35.4274,49.3331,24.8793,83.2859,-58.4456,-256.2066,-89.7909,-44.8963
-18.2245,-195.0099,-109.6146,-204.9682,-85.6503,37.6246,0.1971,4.0534,64.9334,-36.1822,-45.1007,-77.2036,65.9485,-38.2750,108.8381,-78.3438,-249.2178,-26.0193,-4.0785
-17.8905,-120.3730,-77.8905,-98.5189,-81.3203,14.0539,2.3874,-35.3149,61.8431,5.5995,-75.8103,-79.5469,14.9619,-46.0498,65.7870,-80.7744,-168.0637,-14.1227,53.2810
11.8792,-103.4365,-1.6795,-44.1392,-47.0815,-34.5365,27.8942,-53.1506,76.0512,47.5796,-71.5177,-64.5033,-30.3667,-8.5511,-15.3808,-48.0373,-50.2467,-21.6230,80.1680
42.1755,-139.9221,76.8006,-73.7396,2.4810,-78.3930,31.1913,-63.3481,97.5489,77.6740,-37.6757,-57.8975,-24.8375,26.0733,-74.7332,-35.0162,36.6591,-2.1569,44.9795
76.9213,-156.6417,114.0776,-74.1945,25.7066,-76.2594,-22.3239,-57.2121,70.1039,80.2383,22.3064,-22.9410,-9.0677,55.3817,-76.4645,-54.6109,88.7775,3.1316,-36.8297
97.9111,-92.8664,117.2144,15.5545,34.1942,-82.8213,-91.6705,-56.0861,25.8294,43.6764,76.5059,37.6450,-12.7597,56.2097,-44.5870,-72.5793,147.6040,-16.7365,-110.7096
86.2937,1.5694,118.5320,108.3617,47.9098,-119.3358,-123.8159,-81.7439,0.3038,-30.0374,84.0681,65.5087,-30.5784,10.3671,-58.0470,-90.9938,214.6264,1.4820,-117.8571
77.5027,41.3378,144.1676,110.9354,43.3102,-102.4666,-100.8616,-98.1785,-28.4745,-119.2256,74.9160,53.5230,-45.3879,-36.9228,-96.2348,-130.7927,234.6544,62.3140,-83.2806
84.4253,23.4525,163.1436,32.1825,8.6249,-41.0851,-52.1674,-83.0283,-42.0327,-164.8918,83.3283,34.6503,-42.5866,-56.8993,-60.2381,-157.6806,178.6025,87.4294,-73.1836
69.7224,-12.2810,119.7688,-53.1687,-18.0318,-22.5883,-27.8220,-55.5614,-27.6102,-122.3986,74.2650,16.7924,-31.9731,-62.3228,5.6625,-122.5764,92.3582,51.5406,-71.1277
39.0393,-41.5336,48.2543,-87.5321,-4.8847,-14.8702,-15.1965,-16.0312,-30.8320,-38.9679,46.1702,7.8747,-18.1907,-38.8484,5.2340,-56.0726,29.0361,10.9537,-45.8082
26.6301,-39.6163,19.6835,-81.1223,29.7840,29.5766,21.8648,28.0134,-38.5652,15.1089,60.7359,23.7176,18.3183,13.6740,2.9355,-18.2979,3.1982,-12.4931,-39.0987
24.6432,-10.5575,8.5653,-74.5536,48.2685,38.7403,32.3630,38.9258,-14.2755,46.1993,113.3942,53.7755,55.5429,40.5982,58.5572,-2.9921,15.9885,-48.8322,-68.3693
22.9554,1.1012,-29.5156,-70.8339,31.4966,-8.4116,-16.9571,21.4754,-15.4905,73.4761,129.2988,74.1932,43.6488,24.7487,89.0491,0.3928,38.3510,-90.8543,-98.3285
23.9503,-6.4231,-56.5080,-51.3694,-15.0718,-30.7111,-48.5194,12.2825,-63.3144,73.0813,83.4237,66.6122,9.0971,4.4124,67.1301,-34.6659,20.4626,-109.6219,-121.2704
3.1833,4.5595,-52.5761,-21.5620,-68.5356,-28.6354,-53.7521,1.2723,-71.3838,46.0567,13.7840,22.7483,16.2640,-14.8675,68.2075,-71.5003,-29.5129,-113.5061,-127.7764
-41.6838,20.3517,-70.0676,2.4546,-107.5983,-64.5547,-110.9032,-32.3934,-25.6128,17.1151,-41.4151,-30.0933,54.5979,-44.1278,103.1634,-53.0619,-73.0449,-99.2544,-93.2326
-67.9266,19.9955,-124.6861,13.6830,-124.4598,-112.4096,-153.3335,-62.6922,-0.8137,-16.6752,-66.0036,-49.1189,72.6212,-57.7041,131.2056,-36.5813,-113.0060,-43.4124,-40.4936
-70.7619,41.4258,-168.5643,6.1790,-109.3229,-115.7868,-73.9690,-62.5736,-4.1382,-41.0305,-62.6180,-34.5755,55.3774,-49.5186,140.3340,-73.8162,-138.9693,16.3461,3.6659
-78.9435,84.5528,-173.0323,-19.1957,-61.6065,-87.2447,12.0593,-40.4736,-1.2286,-25.6198,-38.6029,-12.5178,23.1648,-52.3912,119.2460,-89.7795,-119.5324,22.4458,31.1396
-78.2288,84.0721,-145.3099,-35.1027,-25.1111,-52.1579,-30.1337,-11.3703,-9.3429,2.1415,-1.9500,8.9253,21.1607,-57.1616,78.7536,-54.9299,-83.5048,-2.8615,-13.9341
-47.5220,46.5153,-100.1953,-3.9712,-43.7412,-0.7635,-101.1926,19.3569,-50.2003,8.9378,22.0112,22.3634,72.7702,-21.4609,70.8788,-44.6975,-60.8828,-12.5031,-137.4300
-11.7230,41.0494,-61.9647,60.4753,-87.8559,68.4930,-84.4094,50.0812,-96.8831,12.8732,17.5097,20.6579,118.0734,39.6214,102.4145,-60.5324,-19.1280,-8.0046,-214.7517
3.4105,59.5519,-48.1221,88.2885,-105.4700,122.5435,-32.1976,76.9398,-101.4999,1.9555,6.6466,17.3686,97.3492,75.9720,122.4488,-51.7077,36.9937,-2.6089,-200.1222
-1.7627,58.5996,-40.1062,63.3523,-108.8704,130.3820,-18.0966,89.0789,-54.5650,-44.0600,-2.6955,13.8618,49.9295,87.1527,104.3589,-39.8927,67.5830,-11.4401,-192.5691
-18.3554,65.5709,-13.2856,59.9671,-130.3113,106.5871,-54.5453,82.7532,-8.6949,-50.6234,-25.0835,-1.6229,19.1095,99.0162,65.8396,-29.9032,93.9579,-54.5306,-196.8135
-26.8113,103.3231,12.0063,104.4092,-159.8228,81.5909,-122.3586,69.3016,3.6712,27.9339,-34.0102,-4.9779,-19.0576,103.9621,47.0256,15.0080,118.7248,-105.2272,-135.5557
-19.1528,124.0874,-0.4562,130.5519,-180.3249,46.8172,-152.0941,54.6153,17.2756,95.5527,-13.7863,17.9629,-54.0704,91.4424,69.2992,59.4970,90.3079,-124.4336,-58.8043
-23.4470,100.7602,-37.1197,109.2864,-184.1941,-2.7111,-112.5881,34.4467,31.9307,99.0360,-22.8618,15.8112,-35.4398,79.1012,89.6341,68.5809,37.3726,-134.8351,-40.7391
-53.9385,69.4618,-59.4846,62.5422,-161.1317,-30.7610,-98.4416,4.4890,5.2502,104.2624,-64.1731,-27.1722,11.0426,69.0978,66.5876,80.5976,18.1786,-161.1652,-35.5965
-76.9440,59.7295,-66.5363,-9.5870,-141.5173,-44.9723,-175.7347,-41.9590,-30.4548,108.4933,-38.9373,-34.2843,16.0570,40.4411,35.7119,82.0686,-7.7885,-185.7774,-16.1540
-66.2246,61.1392,-71.2138,-78.0268,-172.1564,-99.1368,-264.3227,-96.3023,-26.0578,57.5197,47.6039,18.2629,-25.7007,5.1413,28.1853,33.0914,-62.9883,-204.9999,-18.5845
-39.2944,44.6558,-66.1251,-88.5270,-200.9012,-153.4564,-262.4484,-121.4359,-18.5081,6.2924,61.0996,44.3309,-73.5152,1.5956,16.8921,-8.7461,-96.8511,-198.2596,-24.2971
-18.8781,-2.0595,-46.9079,-66.8110,-126.6069,-107.9923,-153.5567,-96.4877,-28.5497,1.5792,-13.6758,5.0970,-88.7750,27.2747,-0.3395,-16.9972,-113.3668,-105.6463,-14.5294
-2.7320,-43.6498,-5.9622,-53.5672,21.6598,9.3084,-8.1773,-42.0563,-16.0051,-25.7706,-60.6112,-38.4154,-54.5040,37.4905,5.4093,-61.8902,-118.7229,40.0098,-33.7559
14.6745,-40.7734,63.1991,-19.7828,123.1668,79.2688,64.0208,19.2022,10.1116,-79.4008,-54.6330,-51.9233,-9.2424,11.9857,24.0631,-121.2714,-59.5746,119.4068,-69.2158
16.5888,-15.2115,100.8330,20.2383,150.8026,82.5039,61.6543,71.6330,21.2734,-72.4090,-56.1720,-58.8370,2.3273,-13.8053,35.0614,-113.5376,19.0783,121.2978,-47.7817
-10.2246,-0.1809,45.6677,23.4362,157.2514,89.3406,106.3363,92.7842,46.7059,-33.9424,-71.2373,-66.5223,12.4196,6.8117,47.6748,-87.3761,20.3635,120.6990,23.3920
-36.6205,17.7938,-22.1755,57.0348,151.4955,121.7606,203.9562,88.5764,93.3838,-52.0231,-83.6309,-70.1188,56.9994,64.5734,72.1889,-97.6866,2.1173,110.2288,80.8684
-32.5140,37.0149,-2.7056,142.2835,116.2574,135.3517,215.7282,91.5272,125.1175,-78.4834,-97.5857,-79.0045,94.8709,99.4919,112.6494,-75.4385,30.3185,53.7857,104.1190
-25.7834,20.5033,29.4724,122.4551,61.0840,88.6250,116.6794,95.1187,138.2689,-30.1292,-87.3441,-85.1442,96.7156,86.8999,158.9037,-0.9838,21.3564,-17.8949,87.4639
-46.3166,-20.8382,-18.8807,-43.7190,-7.0234,-9.3637,1.7055,64.1014,129.8282,59.5651,-38.2221,-67.9722,82.9658,65.2843,166.0923,51.4395,-40.6165,-85.8743,20.0954
-61.1685,-37.1507,-75.2215,-162.6306,-85.4852,-102.6194,-104.0685,1.6983,75.2830,123.9827,0.6048,-33.0581,39.7780,59.4525,108.1373,73.1433,-56.0273,-159.9928,-70.5351
-40.3434,-23.9382,-67.7672,-146.5365,-145.4406,-153.5583,-202.1804,-65.0386,-12.4565,143.1056,4.4055,6.1587,-43.2739,47.6406,24.0292,89.7394,-43.5480,-210.2814,-152.2253
-11.6802,-9.0439,-45.9835,-112.9013,-160.9020,-188.5141,-259.6521,-130.9019,-112.3010,125.5319,10.0430,45.2714,-96.4578,15.0828,-35.5957,73.0576,-82.5718,-217.7777,-245.7682
0.3812,-6.4521,-32.6904,-126.7678,-139.3721,-240.8847,-300.1470,-196.8354,-217.1009,109.3830,26.1841,64.6212,-74.4555,-24.6071,-56.4314,28.0160,-132.8983,-210.4695,-368.9732
3.2185,-19.1310,-1.2498,-158.4253,-101.4454,-290.1541,-336.5214,-250.5408,-269.3832,101.0832,25.2925,49.6945,-38.8584,-53.6368,-55.2701,2.8068,-151.1578,-182.6610,-460.6605
-10.1995,-22.0706,7.7266,-190.0553,-69.1710,-292.8817,-284.9183,-274.1143,-224.4914,31.8662,3.1164,24.3665,-50.0887,-62.2628,-64.9468,-14.2113,-169.0013,-113.2193,-437.9019
-52.3137,23.6236,-43.9221,-182.6111,-55.9017,-227.5652,-145.1833,-244.8646,-141.1273,-85.2164,-35.4984,8.2788,-90.7772,-58.6816,-95.0693,-56.2122,-172.5851,-46.2629,-308.1013
-95.7350,84.9892,-92.6918,-104.7633,-40.3323,-98.4646,-43.7994,-151.6615,-68.0456,-99.0890,-84.6931,-13.7632,-118.4952,-58.2970,-116.6605,-95.4917,-126.7571,-18.3198,-152.0796
-95.8953,79.1049,-73.9937,-22.3339,9.1424,55.3260,6.5962,-20.7613,18.2300,26.1236,-109.0394,-43.5615,-110.8778,-49.0647,-109.1404,-90.8206,-64.8439,10.9633,-18.3632
-48.8232,5.8466,-11.7294,-10.5532,82.4697,162.1325,91.1120,97.7871,101.1370,123.1195,-84.7904,-57.5163,-76.0863,-19.3678,-68.8865,-46.6653,-17.6961,65.9024,79.9835
-1.6008,-54.2423,34.1839,-50.4306,136.3160,177.5713,168.2596,159.2553,139.8504,95.3916,-44.2624,-56.3715,-42.0850,-2.7027,1.6716,-4.5134,29.2174,111.9605,113.8349
2.1886,-52.9904,31.4298,-72.3905,136.1165,132.4702,159.1505,143.5845,153.6057,34.1308,-25.4977,-57.7389,-19.3601,-11.9527,51.9506,-0.0577,84.7948,134.3723,88.7694
-19.2703,8.6766,2.9301,-16.2837,82.4142,83.9227,120.2349,75.9301,147.7722,15.8339,-27.3244,-48.8416,-11.0771,9.5004,27.0830,-13.7966,150.0959,140.6424,64.0558
-17.0637,108.3068,5.5738,108.2399,22.6736,43.8035,108.9949,7.5506,91.8767,2.4316,-25.9171,-7.6360,-36.7976,83.2410,-26.1067,-1.8430,216.8094,113.4899,41.6959
10.5015,183.7585,49.4506,191.3842,11.4273,-4.9938,77.6280,-38.9425,18.6411,-45.1806,2.4864,47.0716,-75.4397,138.4086,-30.4485,25.2847,249.5750,60.9032,-28.5361
26.8965,171.2031,82.3722,150.6614,39.6726,-64.2760,9.3389,-70.1736,-12.5344,-94.3738,49.1196,69.9063,-61.0940,122.8936,1.1475,35.3662,219.3571,38.9658,-105.5505
17.8176,88.7935,74.1859,32.8997,51.3205,-129.1348,-36.9883,-84.3041,-5.1149,-88.4483,66.6007,43.3465,2.3875,66.6517,29.7001,37.5482,120.3883,48.4426,-97.5517
-8.8117,17.0029,46.4896,-80.3212,23.3712,-179.6514,-38.1268,-75.7210,21.2755,-24.6154,39.1819,-3.1325,36.6592,13.3274,52.1646,34.9798,-21.4362,14.2266,-28.8400
-39.4587,-2.9469,18.9529,-139.7036,-20.5884,-154.4631,-23.8501,-43.7327,60.2880,34.6267,7.7855,-28.6286,17.6323,-16.5454,54.0270,11.4850,-117.4228,-76.8004,10.7624
-47.5976,-11.5564,-9.1755,-115.4368,-44.3115,-26.8249,-10.1529,18.8829,84.3041,47.2332,-9.0544,-29.1718,-9.4052,-12.2084,32.4619,-3.5234,-101.2440,-138.3311,22.6880
-21.1646,-70.1935,-27.7033,-62.9050,-19.5787,110.8866,15.6083,95.7431,80.2121,39.6323,-35.0353,-39.2393,-15.8868,10.7994,23.3099,23.1679,-33.3723,-120.4287,60.5052
13.1599,-166.8428,-10.5707,-88.9659,40.6227,151.3161,60.1833,130.6947,69.1390,38.7636,-66.1793,-78.0178,-4.7543,19.2104,26.8915,52.2304,8.3818,-64.0533,111.8994
29.6585,-213.9658,36.2347,-162.6678,78.5211,112.7671,92.8004,99.2236,51.7899,37.2250,-72.2829,-113.5367,11.6574,12.4767,19.8156,40.1446,30.9229,-12.0310,120.6355
29.8172,-160.7166,55.9859,-145.5289,63.3755,77.3872,78.9359,47.6070,14.4790,40.2461,-59.6855,-104.7544,14.3824,19.5983,23.4963,12.8476,38.2669,27.5940,74.6102
23.7119,-59.0280,28.4809,-19.7927,30.1183,70.7000,46.4750,26.0500,-25.5516,60.2866,-60.5758,-62.4961,-2.4710,49.0477,40.5688,13.0504,28.3210,48.4385,19.1674
27.3097,1.1848,17.9731,101.5325,20.0310,71.1583,37.3675,37.5975,-37.9867,73.0320,-74.4611,-29.9945,-21.7746,78.9408,31.6872,44.3947,54.6409,50.1442,-10.8126
50.2375,-19.3363,50.2449,133.4090,28.3061,55.8634,20.9503,54.5034,-20.6872,43.5132,-66.1168,-16.0499,-23.8206,86.0770,11.5219,78.0173,112.9190,37.5521,-37.6110
64.6371,-75.7405,50.9960,67.9747,22.5134,13.3568,-29.3200,44.4489,-13.5350,-17.2569,-24.3529,0.3239,-8.1962,62.6835,14.5349,75.6408,106.9046,3.0032,-77.6249
38.9636,-81.8652,-11.3461,-36.8100,-19.5735,-37.2781,-60.9109,4.4584,-52.2462,-52.8967,9.0345,16.6713,-6.5102,15.0116,6.9905,25.2855,28.2155,-42.0723,-85.4796
-3.2958,-22.3130,-70.7531,-82.0459,-96.7782,-63.0269,-62.8516,-28.3348,-98.2185,-33.8246,3.9772,22.3595,-40.6380,-34.3591,-32.5175,-41.6733,-35.5421,-67.5821,-46.7611
-16.5827,20.9060,-89.8064,-31.1009,-190.8351,-62.1513,-108.4627,-35.0831,-94.8561,-15.8497,-6.6770,33.8187,-66.8271,-50.2069,-59.4674,-82.5692,-61.5700,-86.6205,-37.9840
-0.0436,-1.0800,-88.3350,37.1124,-261.4583,-52.0517,-187.3769,-39.9822,-68.3529,-50.7459,-1.9131,50.9251,-51.2589,-22.8874,-52.6267,-74.3426,-80.3947,-122.1895,-90.2963
11.4850,-47.8702,-81.0589,27.8755,-256.6945,-41.8746,-194.0739,-49.5053,-49.2337,-71.1571,-20.8920,36.3682,-48.4981,1.2268,-29.5985,-29.1350,-104.3304,-132.2975,-122.1337
-2.8973,-87.0955,-96.7427,-57.9637,-191.1755,-40.6919,-126.6593,-49.5633,-3.4810,-13.6403,-65.1614,-7.3255,-81.3934,-26.0879,-4.7307,0.3913,-142.0751,-89.8764,-95.5601
-27.0969,-111.8818,-152.7675,-131.5911,-161.4696,-46.8652,-87.2107,-63.0722,42.8562,30.9127,-65.6591,-19.8013,-81.2326,-81.0050,-7.2544,-26.6495,-166.2681,-64.5761,-76.3795
-25.3317,-93.9404,-180.8804,-126.9611,-192.8331,-50.5160,-99.1621,-113.7757,11.5378,-17.9975,-5.1042,20.1701,-50.3718,-105.6335,-41.4611,-81.3013,-130.4223,-108.8805,-92.6564
13.4094,-48.5141,-121.8064,-78.9628,-188.7188,-69.6922,-110.6256,-166.3410,-53.0323,-78.0112,52.0600,65.6021,-68.1139,-95.2544,-49.9457,-105.1188,-72.1364,-168.0491,-107.2402
61.7154,-45.0172,-34.4778,-44.4312,-122.9154,-111.5630,-112.0648,-182.5854,-61.7249,-92.1894,68.6216,83.0177,-112.2903,-88.8600,-28.0898,-85.1646,-39.7524,-178.2379,-121.3354
90.5378,-76.0720,10.5916,-15.4790,-89.5505,-126.5321,-115.5419,-175.3946,-55.1057,-128.2477,60.7275,83.7196,-118.3328,-103.0658,-50.9948,-57.1322,8.7278,-147.9929,-150.9910
87.9583,-70.6583,19.6142,4.9982,-106.6403,-94.7371,-111.8560,-161.7812,-79.5026,-178.6711,45.0536,79.8457,-119.1428,-117.0985,-111.8278,-58.0466,59.7568,-117.4020,-165.9975
52.5415,-37.6883,3.2168,-28.5316,-103.1095,-68.9741,-108.4695,-139.5076,-75.2980,-150.1941,34.8160,69.3286,-128.9530,-107.6009,-119.8275,-86.0492,10.8987,-106.9743,-159.0511
10.5337,-31.8603,-28.7316,-84.2868,-80.2714,-68.4075,-112.6994,-121.3255,-27.1800,-67.2064,36.4413,52.8911,-93.5980,-89.7928,-77.3357,-108.2794,-98.6808,-101.3570,-161.6859
8.5407,-51.2536,-23.6562,-72.3034,-64.6085,-66.5492,-96.3589,-122.7337,2.7303,-10.6808,31.1907,34.6186,-44.0318,-107.7876,-66.1863,-110.1377,-114.2485,-72.1652,-149.4549
48.5922,-88.1536,27.0779,-10.3663,-16.4061,-75.1386,-55.4243,-124.1532,16.5153,43.9268,4.9560,12.6699,-49.0838,-155.5703,-88.6833,-98.8561,-35.7937,-25.6057,-76.2495
76.9117,-151.5024,49.8972,5.3846,57.0667,-90.3525,-25.4870,-88.7933,53.7070,107.9889,-31.3089,-18.4790,-69.2256,-162.0174,-83.8113,-71.1723,20.8327,12.3914,14.4587
66.6558,-196.7052,25.8837,-33.6281,83.5761,-53.6910,-4.5288,-13.7583,90.3511,96.7607,-65.3176,-51.6505,-67.1439,-105.1144,-52.3606,-43.6085,40.9861,42.9556,47.5463
56.5552,-176.6614,33.9471,-46.9188,76.7210,23.3302,27.5928,52.1713,90.7708,12.3893,-82.2994,-61.8786,-86.7496,-48.6056,-47.2566,-58.3021,75.2821,68.5445,24.6683
82.6637,-128.8238,108.4405,18.9398,101.9560,63.8004,41.6123,63.2293,67.4512,-25.5114,-66.9668,-40.8339,-114.3471,-20.9751,-68.9522,-93.0703,124.9664,77.7032,-8.9021
121.0212,-106.2380,179.1262,121.8913,136.1928,76.1494,23.1006,45.3477,54.6402,10.5605,-39.3013,-22.2144,-88.6487,13.2975,-54.4489,-78.2888,168.7268,89.2502,-22.6493
126.0689,-107.7490,176.0360,153.1504,126.4021,105.8115,17.0935,56.7773,73.0859,45.9699,-29.6150,-33.6070,-33.6264,46.8037,16.6792,-30.7978,185.4004,116.7887,-4.8831
92.5736,-118.1644,103.3607,76.6863,85.1233,117.7184,32.0184,95.5985,98.3517,70.4820,-24.0973,-47.7830,3.3472,41.5687,75.6346,-17.4322,149.1686,110.9249,22.7918
49.1780,-123.3209,5.8032,-3.2566,38.9183,92.2559,24.1551,120.4043,91.5925,109.2920,-5.5391,-30.3971,26.2319,22.3031,69.7920,-21.6257,73.7960,43.6282,32.1278
16.0546,-101.7559,-70.0685,-2.8691,-2.8854,82.8094,-1.8275,121.1589,79.3122,119.8758,3.1567,-0.5146,23.3346,21.1883,40.2547,-3.8137,12.8861,-24.9263,43.2298
-0.3972,-62.3179,-86.7409,28.0247,-16.6405,93.3254,-6.2512,102.3758,98.9648,74.5550,-7.1612,6.5826,-11.8217,5.9047,37.3812,8.0132,-3.3542,-42.2382,69.2189
2.5426,-40.3221,-49.9249,31.4206,5.5613,80.1450,7.5519,65.3418,101.4456,29.1294,-12.9405,-2.9241,-27.2108,-31.1875,39.7284,7.2701,14.8059,-24.0765,61.0373
14.9022,-47.2317,-19.0541,19.9589,22.2979,58.0735,20.7272,37.0843,51.9668,27.6194,-13.3269,-6.1349,-7.0320,-34.5569,13.9858,36.1029,44.5660,1.9286,5.3502
23.0266,-69.0282,-29.8823,7.7982,-3.7330,50.0977,27.2973,37.1379,20.6578,57.4102,-21.0228,-4.1162,-0.7416,-2.7091,-16.3608,71.7655,71.2907,18.8805,-31.3012
31.4398,-79.5672,-44.4308,9.6991,-41.8200,28.7258,10.7934,38.4211,35.2321,92.2204,-19.3130,-0.1539,-13.8332,2.1310,-15.7417,54.0725,95.0024,20.4646,-24.7064
44.6448,-48.1261,-26.8289,50.9990,-25.4518,-12.4163,-18.8513,18.8646,12.5783,82.9502,0.5204,16.9054,-16.8036,-22.9862,-0.4979,4.5567,109.9956,33.2638,-22.3573
48.5000,11.2368,-0.6713,96.3608,45.6497,-49.1782,-15.1943,-9.9202,-64.5751,2.1697,13.7166,40.6859,-18.4023,-31.5581,-6.9925,-26.4242,94.6506,68.5978,-32.9053
38.3110,35.8587,5.6285,90.3225,96.4206,-70.0634,14.7894,-30.5738,-99.5723,-63.7542,17.8207,47.7958,-12.4535,-23.2707,-20.8795,-46.7866,51.0931,79.5710,-23.6270
27.1163,6.9170,-11.3352,61.7760,87.5373,-46.2802,17.2614,-15.7337,-59.6791,-38.9398,36.0693,39.4712,37.6854,-13.9153,3.2078,-59.9516,18.1954,44.6553,-4.6858
16.3892,-21.8405,-52.6834,53.6682,38.9118,33.3225,-2.2157,42.8147,-20.0502,-16.2117,55.6473,35.5516,98.5648,12.7952,58.1049,-35.7626,15.4321,7.6327,-6.9696
4.0602,-15.1514,-95.2896,36.1194,-39.8234,86.7436,-9.5119,80.8642,-24.4838,-73.8828,50.6614,39.6640,89.5753,49.5130,87.2099,8.7508,10.8233,-11.8758,-20.3858
4.0769,-6.2622,-99.3474,-11.0782,-113.6396,47.3258,-27.4458,45.9238,-48.8616,-102.4930,41.4959,45.6466,23.5193,56.8006,67.1279,20.8857,-31.6138,-29.4543,-19.4431
18.0347,-35.1491,-79.5932,-52.3839,-105.6542,-18.9267,-65.9993,-11.5247,-73.5523,-28.0391,44.5693,44.9392,-12.2481,32.1192,29.3201,1.7871,-90.9078,-19.9108,-3.9898
25.8456,-79.3342,-76.7755,-67.1027,-30.0183,-31.5028,-62.5940,-36.2755,-82.3523,42.8586,22.7557,18.9435,-8.5613,1.3760,12.1834,-15.7237,-104.5380,51.3997,17.0018
23.9054,-80.2419,-68.0208,-59.2858,23.9752,-3.3235,11.5456,-41.3850,-50.5721,46.4890,-33.7328,-27.9016,-31.9892,-24.0991,21.0888,-30.3009,-54.5294,153.4875,49.2729
22.3626,-35.5885,-22.4322,-31.0837,62.5578,29.7009,92.5312,-32.2000,-1.4585,45.2673,-66.9738,-56.8613,-72.1167,-26.7966,28.1970,-38.6553,4.1112,224.2039,101.0298
14.7607,-7.1719,11.8376,-3.7726,119.9555,40.7551,126.0956,-12.1686,18.1870,50.3688,-53.2877,-58.8744,-45.4981,6.1519,22.7736,-15.9666,29.7171,235.7983,161.1126
4.5875,-18.2806,-2.6183,3.2700,129.2346,-5.9112,128.7126,-31.6028,23.9819,15.2827,-31.8960,-58.8902,33.0373,39.8624,35.9345,22.2949,45.1940,203.3986,200.4203
20.6713,-27.3935,-7.9365,7.4766,76.2170,-91.9360,117.7685,-97.0596,32.8962,-50.6312,-7.5938,-45.3601,60.9755,41.0586,65.5935,23.0112,68.8259,164.4010,186.5439
53.8712,-10.6824,34.1653,16.1551,61.0976,-143.9464,71.0469,-141.3033,-5.6422,-107.2433,45.2723,1.4946,39.0570,29.3964,54.6320,-20.0902,73.6687,134.7853,111.2110
47.2652,21.1261,55.9821,8.9448,83.5123,-135.5500,-4.3766,-140.3615,-81.9249,-117.8979,94.0449,39.7143,52.3375,16.8707,9.0598,-61.3000,48.0069,89.2230,23.9871
-1.4736,56.2679,11.3776,-2.7206,47.6048,-89.6909,-41.3012,-116.5189,-100.7874,-62.2631,86.2427,30.7409,87.4793,-13.7808,4.0646,-72.6471,26.2576,18.5949,-12.5258
-17.3314,66.5862,-29.4971,11.4598,-27.5785,-23.8119,-14.8072,-67.9632,-84.4707,-4.0010,42.1405,11.7775,72.8354,-39.0691,33.2787,-55.4365,36.7335,-38.6108,-21.7965
25.7664,34.1471,-7.5411,31.0454,-65.5876,21.7454,1.5531,-18.9607,-137.6047,-23.1827,22.4370,23.9221,29.0210,-18.8074,26.7552,-16.0455,60.7593,-57.6153,-65.9278
59.7128,2.3289,26.7758,15.4171,-80.6294,3.6792,-41.6093,-20.8698,-200.4147,-69.7452,42.6448,47.7430,9.1337,19.1348,-4.4431,27.1431,63.3231,-58.2987,-109.7246
46.1727,0.6488,27.6288,-17.4339,-98.6104,-36.9941,-87.3810,-52.3711,-154.4403,-53.4495,57.0985,47.0021,-3.6749,26.4099,-15.2817,53.8615,46.4702,-57.9925,-88.9829
32.0199,-21.1324,25.7973,-18.1789,-94.1673,-30.6311,-84.1850,-57.5876,-63.9704,8.2717,17.0210,13.7970,-31.7107,13.4514,-20.9071,69.7409,38.1296,-48.8928,-49.5625
47.2948,-92.3642,24.8218,4.2293,-59.6884,-0.5526,-62.7650,-39.3365,-21.0375,64.2532,-49.0681,-24.6698,-51.5501,3.7017,-22.7476,85.2428,31.4797,-23.4772,-45.7108
59.6923,-165.4913,-11.6588,-12.0592,-18.7965,-11.1308,-58.7761,-13.4504,24.4548,99.7427,-65.2833,-32.5608,-50.5086,-4.3499,7.0213,88.4313,-8.8815,7.0546,-36.8409
46.5068,-203.4300,-51.5065,-77.3506,0.5174,-46.2875,-68.9445,22.2830,89.3070,101.4346,-43.5324,-23.9103,-46.7176,8.5815,31.5672,75.2668,-75.6985,20.4284,-10.6621
20.5659,-200.0906,-43.9019,-118.4290,-4.9882,-34.7786,-76.4812,49.3053,97.4200,88.4474,-59.1831,-40.5802,-49.0154,61.4814,10.2368,65.9267,-118.1490,18.3560,-12.3314
-4.3480,-145.9753,-30.9820,-89.5030,20.0971,37.8504,-52.6073,61.1920,47.5564,96.1039,-89.0825,-61.4667,-38.9607,105.7169,-1.7171,59.3864,-115.7348,36.3209,-25.2323
-16.6040,-73.8954,-55.3023,-43.7060,97.6038,106.1143,7.3310,77.2997,-5.8577,87.9132,-62.4084,-43.3502,1.8991,85.6577,38.2513,24.7664,-97.9072,83.1155,-22.3841
-9.1820,-46.9568,-65.5588,-43.0710,134.3516,117.8899,49.3786,81.6574,-50.1208,36.7218,-17.8559,-19.9352,49.4773,35.7936,73.7302,-34.2712,-91.1565,121.4343,-42.4938
5.9019,-55.8764,-26.0113,-68.9991,85.5494,99.2324,42.3704,52.9940,-64.7113,9.6006,-10.4217,-27.9964,58.4303,20.2665,64.9326,-68.6104,-88.5578,141.7017,-81.2855
20.5114,-46.4335,19.2319,-67.5870,48.0049,83.9624,24.3866,21.1828,-41.7348,31.4701,3.1705,-25.1947,36.6979,29.0835,49.2076,-62.9073,-81.0495,168.7454,-88.6806
36.1554,-26.5927,34.0275,-29.4537,65.5604,51.2658,18.6920,7.5175,-27.7340,44.6749,29.6632,2.3871,28.6774,20.0993,56.2167,-49.8079,-82.2561,189.7864,-84.4471
35.2349,-31.3351,24.6017,5.8146,71.8921,-2.8266,20.7491,-0.2142,-8.1355,54.9807,0.4898,-4.8370,32.7242,4.3411,71.7007,-26.1717,-86.7699,177.4771,-81.8857
11.8832,-47.9327,11.8016,4.0159,54.8986,-40.0999,48.3294,0.0013,76.0947,106.0586,-59.6958,-47.2407,18.2158,15.8912,70.1672,38.3811,-55.2040,146.5616,-30.4427
2.3163,-57.5019,21.3521,-21.4518,39.8697,-68.2977,80.8041,-1.8360,164.1251,166.6082,-67.4702,-59.0905,-13.4086,48.3186,40.0066,105.2076,1.6263,102.4360,35.2234
14.9365,-70.9962,40.8575,-38.7477,-8.7646,-112.5334,45.2850,-31.0616,168.7079,198.5879,-51.6586,-43.6979,-41.8613,73.1514,9.7020,117.7493,9.6874,18.8562,20.3978
2.6350,-89.9299,13.3341,-54.2035,-108.6467,-123.0638,-56.6581,-55.9431,141.4618,206.9232,-73.4283,-52.4985,-48.3404,79.2352,22.1000,118.1807,-44.9650,-89.0160,-41.8895
-50.6176,-97.8746,-74.8605,-89.1059,-221.7635,-68.7713,-144.2736,-30.3876,146.9086,183.8472,-98.9900,-74.1492,-19.2084,68.9823,57.8100,160.4503,-103.3284,-179.0623,-61.0792
-109.1207,-88.9556,-175.6257,-121.8658,-318.1848,-23.7042,-175.1082,16.4377,161.4589,143.9310,-100.6271,-73.8473,25.8401,49.3871,64.6744,193.2816,-152.5819,-253.3277,-43.4453
-148.9885,-67.2113,-249.7696,-120.6109,-361.0086,-35.7592,-152.2684,33.2461,173.1820,141.3953,-112.5350,-63.4704,46.4498,30.0151,53.3210,169.3417,-213.2563,-318.7626,-31.2129
-161.3527,-37.8148,-282.4761,-103.8308,-331.7230,-62.4583,-101.5307,8.8186,170.4087,170.5585,-127.3896,-51.3958,29.0646,13.0299,56.1582,133.2207,-261.0588,-352.4996,-43.2525
-143.8401,-13.0170,-283.8503,-104.5657,-295.0403,-80.4598,-77.5179,-40.0023,105.7758,173.2907,-113.4851,-22.3505,-14.3585,-1.5808,47.9686,111.4103,-278.7798,-355.4304,-82.1368
-125.4673,-4.6220,-286.1872,-103.5437,-282.6690,-87.0917,-76.7810,-58.9085,19.3078,139.2410,-106.5052,-0.5858,-51.2271,-5.1809,8.6490,78.4250,-272.2201,-335.5760,-87.2086
-123.9768,-7.1182,-268.3400,-63.4928,-223.1604,-52.6382,-35.0794,-12.2916,7.5539,90.6961,-133.5539,-23.4100,-39.1865,-0.7726,-25.4614,42.8927,-210.9290,-263.2565,-11.3639
-109.0698,-8.6675,-182.1447,-24.9887,-120.3912,-9.7336,8.1080,27.1549,38.5248,35.7775,-132.8873,-55.8043,0.0891,-12.4890,-35.1647,24.0882,-113.9730,-150.8716,56.7980
-75.7306,-18.6882,-94.1772,-79.4937,-78.8949,-36.7063,-37.8981,-7.4242,24.9897,-9.0163,-65.2240,-41.9996,-4.9984,-43.6892,-39.5779,9.3181,-101.2036,-83.4266,47.0409
-65.3478,-50.6889,-102.1230,-203.1809,-95.1033,-92.4005,-101.1913,-51.0935,3.3636,-19.6485,-0.6033,-10.1850,-45.8837,-59.1420,-39.6726,1.3303,-195.4581,-84.5876,44.5809
-83.7255,-72.8445,-146.3755,-241.8625,-80.2487,-75.3268,-73.0863,-47.1160,45.1957,0.2915,-7.2518,-17.8577,-56.6353,-39.0630,-36.3846,-0.8573,-253.7301,-85.0673,102.1913
-101.7761,-38.1066,-131.8877,-145.8868,-46.1744,-11.6669,-30.3762,-38.9670,117.0940,8.3842,-46.0557,-46.6420,-41.5015,-14.9157,-47.2369,-28.5183,-199.6857,-58.8100,147.8542
-109.8983,23.1525,-97.3492,-53.3857,-45.9241,17.0413,-66.3468,-36.3456,143.4091,-30.2914,-47.0917,-51.3973,-28.7952,-22.0947,-45.7192,-60.8691,-109.3053,-45.7206,145.8158
-97.8335,31.9866,-82.8120,-51.3842,-44.0821,18.4094,-120.0988,-7.4424,105.1717,-67.7850,-17.5049,-43.0343,-3.8075,-44.0849,2.5751,-51.5633,-49.1048,-48.0497,115.4498
-60.7610,-5.4228,-48.3512,-64.4666,-0.5021,17.9564,-140.4717,11.7764,44.1977,-43.9189,-6.0530,-44.6268,15.6193,-39.5583,44.2230,-46.1588,-19.9022,-29.6973,55.3012
-38.1554,-4.6822,-3.0852,-34.7597,40.4702,-3.2238,-151.3110,-10.0046,7.2385,-29.2153,-17.9242,-44.7580,-1.4308,-11.7795,20.3339,-88.6889,-7.7353,8.0083,4.9119
-47.3992,51.3975,10.9400,12.9942,32.1573,-36.4815,-127.3137,-26.5133,-8.7749,-87.7244,-28.6606,-36.8556,-13.3623,-1.8186,-21.0647,-112.1468,15.7415,33.1964,28.6062
-39.6234,87.2069,16.9035,72.0478,4.4866,-46.5626,-50.5367,-15.7829,-13.7599,-95.3520,-38.9108,-33.9741,-2.7446,-16.0690,-20.5659,-83.9319,60.1237,39.9673,101.5087
-2.0427,56.6348,29.1346,127.3753,9.6103,-28.4920,13.3780,-1.3287,33.5291,32.8377,-61.6373,-42.7632,-27.3384,-22.4940,3.6038,-64.9766,84.5160,49.7632,166.7106
10.9332,0.2695,21.9029,120.6928,47.5652,12.9145,51.2286,29.3060,138.3679,165.6271,-85.0715,-65.2040,-62.5207,-15.7019,32.1461,-52.4570,71.9109,68.1644,218.9996
-13.2792,-23.8860,16.3200,63.4729,94.5563,74.6400,122.1987,90.2670,215.5709,216.3874,-81.4493,-90.7096,-13.4697,-17.0304,63.5298,0.1058,65.9576,74.9199,241.1045
-26.8323,-7.9477,42.8393,46.8469,149.4333,134.5828,199.6931,147.2127,217.7895,226.7912,-41.4711,-84.8530,79.9184,-22.4176,64.1953,47.1967,101.8041,67.7682,208.6594
-4.4493,18.2595,79.2111,97.5643,189.7541,175.9324,207.1086,169.2591,185.5781,159.1758,5.8319,-43.1409,95.3313,-13.5173,33.7275,35.8834,168.3700,77.8197,158.9823
34.3255,35.9791,113.3433,151.9878,167.3268,192.0014,163.8302,156.3020,137.0671,2.5807,21.0419,-15.5314,48.6739,3.7562,34.3353,2.2671,219.9695,111.3935,125.1484
50.7138,53.8205,141.5228,150.6460,106.0917,164.2834,131.9438,124.7173,63.4372,-94.1137,13.2466,-22.7501,49.2469,12.4228,76.6410,-17.2560,205.5219,125.3628,80.7740
21.9071,85.9818,123.2761,94.3917,82.2974,103.7959,116.9851,103.2880,2.0775,-83.6993,29.2201,-19.6935,106.0013,8.3906,106.3987,-23.5588,134.1246,95.8356,12.7143
-17.6637,130.6254,65.3939,51.9150,98.6893,59.9385,103.7234,96.0196,-19.0180,-75.2021,72.3029,21.3550,136.4254,4.2362,104.5399,-10.6972,74.7587,58.7911,-54.5505
-18.0652,161.9382,42.3683,80.2532,114.6057,34.6554,82.6931,70.4190,-35.0243,-77.2138,97.6417,67.6006,111.3870,19.5567,79.2854,13.3309,58.0749,52.9592,-104.1772
5.6953,147.1975,65.8834,119.1031,131.7468,-15.6916,33.5500,16.9671,-69.8544,-61.5740,91.5588,82.2192,82.0227,42.6990,30.5846,34.0811,56.2554,66.1677,-131.5580
12.4174,94.0611,76.1322,82.9213,141.9636,-81.3701,-33.0205,-40.7960,-98.5789,-82.9342,81.2933,68.4159,79.1667,28.3919,-11.7872,63.3452,53.9954,65.2418,-142.3137
5.5553,57.7594,48.6269,21.4944,113.9940,-108.6836,-60.7832,-81.0092,-104.9123,-105.6766,73.5817,53.3718,71.8811,-21.0527,-19.7947,86.3530,58.1126,50.1737,-148.2620
-0.3444,71.2652,3.9012,29.2012,64.2700,-78.2981,-32.7774,-74.3368,-103.6064,-67.5914,54.9585,54.3470,41.2928,-39.4826,-21.7719,65.5489,66.6159,42.0488,-137.2514
-7.0960,103.0798,-23.6904,80.3750,20.1462,-8.8439,-5.8732,-11.4178,-103.2534,-65.4519,37.2484,64.2252,12.0313,-8.0238,-34.6091,25.0567,65.1305,33.2999,-94.7188
-7.9489,106.6322,-11.3102,93.0650,-21.7818,55.0677,-20.4911,50.9184,-90.1250,-123.4412,40.9783,68.2067,-2.3491,16.4316,-31.6375,10.4024,34.5083,1.1413,-47.3263
-6.8200,78.6182,1.6768,52.5783,-42.6440,59.6771,-43.4667,63.1082,-65.3415,-106.2589,50.7300,63.0265,-6.7336,9.8049,-19.2815,16.3415,-13.9500,-43.1829,-30.3069
-24.1139,59.9750,-27.4954,-0.9241,-33.6632,17.8268,-36.0306,50.1070,-63.6615,-39.3284,37.1606,52.2893,-5.9286,6.7619,-28.4300,35.1436,-30.5832,-72.1349,-43.8723
-46.9682,87.4919,-42.8038,-21.7679,-35.3094,5.8898,-10.0845,42.8642,-89.9324,-38.9359,8.1721,40.7112,-24.6178,19.4654,-53.4677,62.2267,-5.7213,-78.1416,-59.0918
-48.0622,138.8462,3.3965,8.4660,-40.9846,36.8577,8.7317,38.3521,-93.3053,-37.3014,-5.4998,35.3536,-65.9193,24.3737,-79.6706,57.5727,16.7383,-58.9626,-47.0452
-39.9818,159.5220,34.6188,61.2066,-17.9640,44.2497,1.4873,33.9835,-68.2086,-4.0215,-1.2262,38.3045,-74.8652,9.5949,-96.0867,17.5846,29.7492,-24.3341,-24.2114
-40.6025,152.7141,-0.1857,103.7026,-20.9020,14.3392,-43.7681,22.6441,-75.8446,-54.2023,-5.1736,39.7189,-43.9751,-17.4521,-77.8508,-6.4136,54.6041,0.3222,-29.5355
-43.3340,162.8076,-24.8876,131.8150,-61.5261,11.7668,-72.8646,5.6469,-108.5895,-131.4993,-35.1775,20.1480,-35.5682,-43.3202,-38.7284,-14.1393,73.2090,39.7466,-31.3895
-49.2664,178.6966,7.3382,134.2783,-14.9958,59.8146,-1.0884,14.7025,-91.1420,-95.8742,-68.2995,-20.9339,-34.0985,-57.3209,-28.9276,-36.7146,70.5209,133.8680,19.2416
-53.6197,166.3497,42.6511,98.0623,126.1996,90.4994,117.2513,31.8635,-34.8209,-35.4081,-38.2755,-29.2050,18.6397,-61.4121,-38.3240,-50.4619,54.6099,200.0436,59.8622
-36.0917,155.8077,43.4520,51.9373,181.0586,39.3278,137.3139,-18.7949,-7.9832,-54.9216,75.9836,40.8271,63.6351,-57.8714,-22.5335,-39.4830,10.4163,130.4757,22.4438
-17.5520,176.5727,24.2016,41.4323,109.5152,-51.3421,78.5633,-115.8774,2.6039,-83.4061,160.1550,114.2057,39.4602,-36.7987,-0.1765,-31.9176,-40.2664,15.6843,-24.8307
-35.4389,185.2357,5.9787,77.9788,76.6988,-74.7044,79.6333,-146.1056,32.9421,-97.0812,96.1431,79.3017,23.1137,0.5013,0.7561,-24.4417,-16.1030,17.4284,-16.2296
-60.1726,155.9186,16.9576,121.8033,139.2646,-11.3536,136.2844,-98.1633,47.2083,-134.9900,-34.9812,-22.7720,54.0705,32.1450,6.1385,-4.8843,73.7732,98.9884,4.1060
-45.9035,131.4303,68.3262,104.7253,181.8429,42.1600,154.2497,-59.9691,22.9543,-156.8069,-65.8167,-61.7087,46.4220,42.6231,20.8953,-0.7847,120.2277,124.7813,10.0144
-10.5208,122.2582,115.5074,25.8884,139.7414,22.0950,135.7937,-59.3436,-0.2894,-154.5077,4.4452,-20.0258,-10.0330,33.4331,7.5852,-8.8636,97.7073,79.3539,19.5887
16.6374,89.7487,109.8232,-11.6112,63.7239,-26.3499,101.9407,-61.9517,-12.9889,-157.1010,63.8551,31.6816,-24.6036,17.1863,-28.8046,8.1445,74.6376,17.3673,14.4296
31.9449,54.1212,67.2583,39.6476,19.0208,-38.5345,36.6766,-43.7486,-39.6866,-112.5094,74.8229,55.3873,9.4385,9.9534,-33.1457,34.8865,83.0574,-20.2695,3.1908
25.0132,68.4767,48.1416,82.0465,25.6815,0.2133,1.9355,5.6674,-51.0213,-28.8391,55.2621,34.3678,29.2700,4.5960,21.8115,36.8617,107.2409,12.2414,37.7771
8.9469,86.3806,80.3309,43.2500,54.3928,60.9230,62.8063,60.8244,3.7638,2.1475,23.9516,-21.8840,31.2895,-28.3344,97.3884,24.2442,104.3703,97.8675,90.1454
22.6739,20.6196,109.5636,-25.7128,60.1290,82.9842,134.7202,65.2423,95.3280,19.2289,20.3638,-49.3404,44.9512,-84.8727,131.1441,8.5582,27.7504,131.8191,84.9055
42.0261,-74.0882,67.3632,-66.5071,35.1759,32.3516,120.1674,19.2480,136.0522,70.5051,41.7430,-26.4357,66.2444,-115.3758,113.1220,-9.9398,-63.7779,75.3802,23.8874
14.0993,-58.8791,-2.1286,-59.7888,13.2138,-36.9891,60.6137,-24.2644,90.7550,47.2501,24.3861,-12.3547,65.5965,-93.2204,86.8398,-11.6911,-47.8320,5.4092,-47.4933
-23.6155,49.3876,7.3908,-3.2370,22.2037,-55.5861,20.4842,-51.1909,10.7647,-45.3997,-26.7686,-24.6700,20.8197,-52.4160,64.0541,9.9082,41.0045,-24.5810,-89.4585
-9.4560,84.1323,80.9027,35.4452,45.5565,-40.9645,-5.3947,-69.6143,-39.2853,-41.5649,-38.7363,-23.7517,-36.6633,-40.6184,18.7677,40.3080,46.8897,-38.2684,-69.3524
26.8935,-21.6926,103.0630,-24.8834,37.7884,-54.0400,-30.3511,-68.4131,-45.7523,40.3228,-11.9750,-11.4889,-39.9858,-62.7037,-32.2889,78.3109,-54.5174,-69.5532,-28.0596
36.8797,-158.4124,45.1238,-125.6602,-12.6466,-106.0341,-52.9626,-67.9865,-26.3463,71.0727,-2.4735,-13.1565,8.5095,-83.6741,-42.8208,111.0735,-156.7178,-118.2986,-34.0991
22.6663,-194.9750,-25.4883,-141.3598,-63.5150,-155.4449,-65.6404,-104.6084,11.6999,88.2538,-19.3847,-24.8302,40.6522,-82.8977,-7.0689,107.7702,-193.6680,-143.5047,-42.6674
-13.4347,-101.4070,-64.3499,-73.3360,-75.7815,-157.5292,-53.8559,-144.6041,63.3961,121.8409,-35.9307,-36.9006,37.6262,-76.2937,44.7845,75.7275,-153.7978,-113.3182,-2.7436
-52.6788,19.9665,-56.0687,-23.0334,-53.5193,-107.7125,-35.2484,-126.8007,104.4511,89.3274,-29.1248,-40.2713,31.0260,-66.8376,72.5294,50.7527,-53.2920,-63.3514,2.1739
-38.5992,2.3855,-2.3094,-42.2624,-32.0713,-42.3600,-40.5513,-57.0973,114.6115,40.1057,-17.9958,-46.0680,33.8701,-33.4371,58.3533,50.2132,35.7132,-31.4778,-59.4969
13.5080,-158.7894,33.7808,-89.3235,-42.8384,14.3608,-49.7013,17.3459,104.1953,87.4851,-67.3153,-99.0987,52.9375,3.9276,49.0761,74.5329,57.6863,4.8657,-75.4894
17.3444,-228.9294,3.5338,-82.1931,-64.9288,60.5645,-46.0738,56.1557,82.3736,144.5704,-143.8470,-161.3044,83.1281,-1.9557,79.4280,89.2392,56.9590,47.5212,-40.4559
-13.4872,-72.3138,-18.5870,-0.2853,-50.9069,71.4118,-61.2073,30.1476,28.6496,83.1891,-96.5799,-104.7511,71.3438,-31.2108,78.9996,39.2368,97.4272,57.7554,-80.1365
17.3528,107.2207,50.5372,76.1771,-16.1431,35.9507,-86.9043,-30.0948,-52.7570,-28.0515,66.2922,49.2116,-6.5089,-22.1292,-4.3848,-43.7353,167.0051,50.2738,-173.7564
99.8968,86.1285,153.3897,86.7973,1.6540,9.6799,-78.4981,-35.5884,-97.1773,-61.0311,143.8932,120.3979,-76.3943,21.2107,-88.7077,-60.1383,210.4488,56.7587,-181.6619
136.4490,-45.6101,191.2928,66.1901,30.8328,22.2959,-53.1201,26.1712,-73.7840,-16.1345,90.1174,73.0641,-71.4647,50.7462,-100.2822,-9.2227,192.3590,39.1315,-103.3884
100.2314,-86.2561,157.0890,38.6739,68.7698,14.9359,-43.6520,59.0403,-44.8486,10.7462,44.9297,31.4851,-26.6001,59.2787,-71.6393,21.3069,114.8530,-27.8018,-45.0649
36.6743,-31.9943,79.0804,-19.0875,30.5828,-37.3066,-35.1891,20.4684,-51.2255,-31.1422,39.5914,28.3803,-2.7397,56.3325,-32.6925,12.8123,11.3714,-95.0695,-38.0369
-9.4522,-9.5362,-22.9189,-87.1796,-68.8253,-69.5870,-29.1301,-21.5719,-53.2788,-67.4204,22.6758,23.3248,-4.0663,27.8884,9.4836,8.1286,-77.2145,-137.3174,-50.9197
-9.9540,-65.9682,-97.6242,-127.9508,-105.5756,-55.2008,-38.5194,-23.3869,-45.5958,-25.3161,24.9050,34.3044,-8.3312,-17.9133,13.5406,11.5623,-133.7095,-183.1979,-65.6361
14.1565,-136.7795,-119.2078,-163.0519,-84.2306,-43.4911,-38.1989,-13.6374,-71.6277,23.6144,48.4617,59.1241,-15.6935,-37.3759,-25.3207,6.1562,-169.7919,-242.1261,-68.4700
3.1183,-144.7567,-135.4233,-202.0262,-105.5346,-49.8068,-29.5186,-8.5853,-103.0127,15.0613,30.5515,52.3665,-40.7333,-18.7404,-53.7597,-3.2193,-193.2751,-292.2184,-41.5564
-38.6962,-89.7359,-157.5324,-191.7150,-141.5685,-40.8706,-40.9631,-0.3802,-76.4726,30.5893,-8.1130,27.5620,-73.4360,-2.8542,-59.6789,-9.0520,-183.0916,-298.5439,11.5134
-47.4697,-42.2108,-132.2779,-118.9701,-119.7178,-19.1979,-49.2880,1.3598,-20.4924,109.2542,-15.7028,14.2977,-70.8949,-18.8309,-56.0653,-10.7983,-128.7837,-234.9269,46.9381
-20.7206,-45.0665,-75.1439,-54.0500,-94.3237,-21.4144,-55.8753,-8.7337,-1.1066,152.3231,-16.2535,-2.7718,-18.3308,-40.5263,-24.1892,-9.8277,-72.2981,-143.2879,6.4600
-5.7960,-63.7043,-56.7314,-48.5807,-120.8580,-49.6530,-121.3625,-20.0484,-22.6469,111.3492,-14.6442,-10.1756,24.0880,-21.8363,14.6851,-14.1773,-49.8495,-95.4095,-100.3233
-3.0476,-47.1038,-64.0308,-68.2596,-136.1005,-69.1595,-198.9607,-36.4392,-63.9873,36.4336,18.1528,20.0643,1.5218,37.8792,3.7494,-32.1296,-29.4988,-71.0574,-176.9170
7.5024,6.5601,-41.9154,-47.9366,-84.8556,-66.7574,-171.9611,-60.6828,-106.1288,-35.6174,47.2666,50.1963,-40.7463,80.0605,-38.4194,-63.1868,22.9373,-5.6921,-158.4592
17.2150,47.9695,-0.2326,18.5101,-2.5083,-57.8828,-82.6263,-65.8562,-118.0806,-77.9174,38.9876,45.4792,-35.3887,59.7590,-65.2984,-91.1458,71.3956,75.2727,-81.3791
27.6339,27.5045,36.2862,67.1641,68.6898,-29.5662,-35.4937,-27.3465,-99.9226,-73.5230,24.6710,31.6918,-11.2233,14.7705,-93.3789,-91.5444,65.6470,114.6852,1.1989
47.0631,-37.2556,69.5023,54.2760,123.5308,45.0855,9.5281,39.6637,-78.0010,-59.9887,14.8632,19.0157,-19.6012,10.0707,-120.9403,-70.2624,21.0756,123.5683,76.2103
53.6521,-76.4047,83.6226,19.2862,150.0584,123.6003,86.9964,90.7735,-40.0837,-59.1003,-2.3976,-5.6616,-29.2224,36.4448,-100.9609,-55.0994,3.4460,115.9498,130.7349
41.4653,-67.6612,76.7232,19.0664,126.3986,139.9930,110.9612,97.2031,22.2406,-49.7294,-7.5552,-24.0527,-14.1791,42.3351,-55.5028,-40.7550,46.8919,76.1103,151.7610
41.5729,-47.9276,90.9878,47.1464,78.9076,123.9500,79.0182,86.3264,62.3003,-45.5430,1.8765,-21.1036,-18.3583,30.7351,-47.7119,-24.6324,102.7251,32.3675,156.5631
54.7587,-27.0143,130.1488,64.2499,72.0828,130.5644,95.7564,98.8950,63.8397,-39.4275,12.0226,-10.2805,-35.4894,27.5258,-52.9535,-46.7224,101.3763,23.1537,153.4368
54.3909,8.1099,141.4100,64.7484,99.6363,113.9892,148.1864,102.5353,65.2430,38.6810,37.2419,6.2288,-3.4968,12.0404,-12.9769,-88.9349,50.4660,13.7780,109.3381
49.5341,35.6323,108.3248,70.5182,85.6983,25.8232,132.7448,40.1215,57.1977,152.0072,64.0798,32.4192,39.5276,-21.4826,42.8830,-69.0627,7.4416,-31.1244,13.5583
54.6796,45.3175,66.8651,85.2526,30.6386,-75.0855,46.1124,-55.7813,3.5369,150.1753,59.3954,57.5542,11.0980,-23.9897,50.3818,-14.0210,-6.6041,-66.6914,-73.3149
46.5012,70.9243,46.2105,89.0507,2.1797,-128.1114,-44.2412,-112.3794,-57.8987,29.7275,54.4304,73.2438,-41.3607,11.4982,11.2884,-24.4616,-0.5040,-56.8234,-86.8885
16.0588,102.8261,44.7441,65.3675,-12.0296,-138.1725,-101.7542,-119.1713,-74.0237,-54.1181,68.9964,70.1307,-42.9411,32.2083,-31.8104,-64.9975,8.8380,-44.3609,-36.6457
-7.8794,79.5867,33.0646,9.5946,-55.2467,-101.9675,-102.6913,-89.9710,-59.6299,-50.5078,48.9403,38.7557,-41.3326,28.7381,-55.6401,-46.6973,-9.4751,-56.5567,26.9078
-14.1526,12.5572,-4.2428,-59.3610,-81.1720,-18.4884,-40.8315,-27.4251,-32.4769,-49.5403,-3.2641,-2.0944,-69.8200,28.6080,-49.7393,-17.5401,-40.3060,-45.5005,78.3251
-18.7311,-10.8708,-26.2677,-81.5914,-55.2838,64.6018,31.4030,35.1666,17.2071,-98.8712,-20.2079,-26.7622,-59.7103,26.7690,-7.9514,-33.2292,-16.7370,13.3754,106.0409
-25.5557,33.2616,-4.7112,-22.0751,-36.9529,112.6064,49.2348,63.2118,54.3333,-151.7176,-9.7811,-31.9964,-12.0320,25.2632,33.5741,-28.2115,51.1770,62.6639,95.4828
-23.6257,83.8181,19.5272,46.0456,-54.1478,123.8879,10.5687,61.9946,26.7955,-153.9106,-7.4815,-10.9047,-29.9203,45.0202,9.1469,20.9969,79.4166,61.2703,66.2452
-6.7091,101.1840,26.0581,36.1862,-64.2355,82.8298,-32.4737,30.7458,-33.8288,-110.7060,12.8959,35.2760,-121.5885,55.6077,-72.6054,34.2993,62.6240,44.8904,50.6687
13.2582,98.7773,40.8087,-8.8855,-59.3653,-3.3022,-49.4394,-31.9827,-55.6607,-73.5016,48.7864,66.5761,-168.3564,21.8577,-113.0570,-4.7467,46.5700,40.1574,23.7135
5.8670,94.1387,36.1185,-7.1907,-68.6393,-87.4065,-64.5129,-89.1891,-33.0053,-60.0804,48.4404,56.7263,-104.9080,-16.7214,-68.5168,-29.4774,8.6056,29.7021,-43.2532
-37.5504,85.9590,-24.5951,13.5667,-91.9866,-150.0652,-81.4347,-121.0340,8.0550,-35.8965,3.5941,19.0532,-3.3073,-29.2473,-9.3086,-16.1523,-59.5724,36.1424,-86.9035
-70.8283,56.5864,-67.7108,-5.3634,-97.5106,-174.3764,-44.3299,-131.2107,74.4953,-1.2670,-60.4703,-40.7000,32.7264,-48.0326,12.0254,10.2166,-78.1619,104.3174,-35.6005
-45.0287,-4.3123,-14.9918,-43.8633,-49.4054,-113.5942,48.9020,-87.2106,147.2686,-3.0199,-97.0829,-94.7244,-1.9356,-77.1100,24.2109,24.9996,-17.4940,180.3558,66.4726
23.3442,-58.3395,71.2778,-61.6439,40.1501,-3.8934,107.2134,0.7251,159.0221,-43.9448,-28.2097,-66.9338,-31.2229,-82.5614,39.5435,7.4355,43.7088,160.1794,130.0702
72.5827,-51.4051,91.8342,-48.3698,102.2156,41.5786,102.0648,38.4167,109.0777,-88.6792,118.5629,41.0994,-19.2613,-65.4307,32.5795,-32.2877,51.0389,60.6130,134.1062
64.2909,-5.3388,52.0326,-7.1520,116.7814,22.3546,104.2371,19.8152,79.9137,-130.7457,178.2156,103.9293,17.3108,-36.2414,25.9958,-49.4808,28.1820,-8.8138,100.9111
18.4929,6.0311,16.0992,25.1739,133.8821,33.6788,125.2230,42.5346,90.5893,-155.3857,102.9901,56.4052,78.0470,11.6714,64.3171,-32.2480,8.6240,-21.8866,54.0717
-9.6122,-23.1784,14.0414,9.5083,146.4731,75.6138,105.7156,97.3882,77.9111,-119.7691,37.1535,-8.5688,136.4336,60.5757,112.7269,-17.6970,4.1762,-42.9499,14.3515
4.3165,-31.3407,29.4555,-14.7937,99.5642,83.4259,44.3871,95.6674,31.2365,-48.7647,58.7113,3.0384,120.8573,86.9371,99.7936,-24.8577,15.2070,-98.4425,-27.8988
25.8689,0.5895,34.5548,9.7238,11.8537,56.7822,-17.8130,49.8208,-2.3560,-32.0565,89.1068,55.4926,44.5906,84.6800,39.4184,-25.6936,39.1392,-153.1062,-84.3221
20.8532,33.9840,24.8499,52.9744,-65.1331,9.4285,-63.7997,3.1172,-12.1167,-81.4484,64.7681,64.1239,0.7617,33.7012,2.5332,2.8347,69.9285,-172.2598,-107.1032
2.2875,45.9452,11.3754,57.8196,-121.0158,-64.3050,-69.2077,-54.9441,-10.2020,-120.7705,9.7388,25.7681,-8.6729,-47.8975,-4.5783,30.4130,80.8879,-144.3106,-61.3567
-4.5010,32.3802,-7.9013,25.6158,-137.9335,-106.7218,-26.2787,-80.5717,6.1668,-110.8076,-28.8669,-0.0825,-39.6348,-72.7292,-20.9415,14.3278,45.6485,-80.7396,2.0262
4.9588,-28.0816,-31.3764,-19.0706,-103.3287,-47.7878,9.0977,-14.5256,30.2584,-55.0084,-33.7038,-6.8648,-58.6601,-31.3301,-32.3768,-24.5775,-7.1387,-11.8046,54.2200
24.9871,-123.2868,-34.4406,-54.6982,-55.1062,60.0292,12.0882,70.9444,53.6664,49.8509,-29.0844,-34.8465,-27.8817,-24.6158,-17.2975,-36.2839,-21.2603,43.8625,127.0280
42.3459,-160.6610,-0.0660,-50.4545,-5.0124,104.5581,29.0964,81.3524,69.4209,150.1814,-30.6539,-61.8822,-6.3591,-66.3834,-23.0218,-28.9463,14.7165,87.9100,178.4411
41.8893,-81.4952,59.8195,-3.7770,71.7983,75.7539,48.8222,52.0317,41.1731,150.7338,-13.0986,-38.8436,-24.1824,-65.6361,-69.1703,-26.1881,75.8362,118.3059,135.1229
32.4706,17.0219,113.1704,39.9315,138.4094,50.4807,13.5094,44.4941,-30.2505,73.1314,20.7458,-4.9395,-21.8046,-15.3422,-80.8343,-0.5726,128.9064,133.2107,62.8912
37.2847,9.2776,127.3339,42.2672,148.4582,58.2344,-22.7869,46.2679,-59.8103,29.4342,33.7874,-13.0672,25.6953,18.9907,-28.2156,49.6993,133.4951,136.1871,57.1148
57.1921,-59.6755,112.9980,15.8221,145.0188,62.1055,35.6032,39.9645,-23.9689,34.5933,42.6654,-19.7368,77.3383,32.7287,16.7962,65.8754,89.3512,116.6955,64.8927
72.0193,-62.4978,114.1563,6.9278,165.2699,50.0385,134.1606,37.3935,-11.6304,39.2716,73.9341,9.9666,106.0548,42.4382,28.7570,40.3493,53.9290,75.0662,27.8421
65.0249,-1.5514,119.1403,37.5048,163.6297,45.6097,158.1290,41.9905,-38.6890,63.5061,82.5256,24.3676,110.3742,30.4215,50.3546,27.8564,55.0326,48.3624,16.2536
36.9135,31.5730,77.9747,61.9800,114.7183,37.9786,131.5745,49.5326,-23.4906,120.4273,48.3984,4.0699,98.6699,2.5410,71.3107,34.5744,53.4113,48.8374,70.5703
9.5191,4.2424,14.5346,20.4372,63.4687,9.8942,141.5483,64.3854,41.8932,162.6279,24.8435,-12.1015,94.5221,-15.7705,68.5391,33.5289,13.0262,42.2441,124.6310
-1.2186,-68.9783,-13.8594,-67.0310,48.6364,9.0410,171.0005,94.4155,113.3051,190.5695,9.7637,-37.7803,106.5833,-29.5188,85.3615,38.3310,-56.5711,35.6332,139.9781
-13.7119,-147.6777,-22.1387,-119.6047,62.0664,66.8327,157.4609,127.6724,188.2502,209.2127,-47.6215,-100.9528,114.8136,-47.3691,131.9505,50.1735,-107.0684,73.6885,125.3806
-42.2608,-139.0410,-36.8296,-97.1994,69.1591,111.3227,110.5032,122.1461,217.3069,133.8326,-101.7285,-142.4185,113.7369,-64.4924,150.8536,29.2731,-85.4382,129.8290,69.5677
-60.0907,-14.6610,-38.5868,-35.2521,44.4916,81.7421,60.6146,63.9608,121.9370,-36.0528,-68.0114,-100.0453,117.0485,-82.4866,140.8017,-15.4040,-15.1723,135.5746,-19.8823
-47.6615,100.2307,-34.6301,4.6662,2.9950,21.2338,-9.5438,1.9038,-34.3352,-134.8914,18.5355,-13.5526,110.6940,-88.4556,134.9561,-21.8456,15.0361,93.8569,-107.2992
-19.3340,104.3195,-37.3147,4.8588,-20.0749,-26.0007,-103.6975,-35.6359,-130.0621,-101.3328,64.8093,48.3051,61.5087,-59.2325,91.5772,18.6031,-0.9691,49.4666,-179.4192
21.4997,51.7120,3.8283,7.2644,-16.5888,-69.0815,-170.6430,-70.3503,-176.9596,-57.8204,61.8588,71.3368,-14.8717,-14.7463,-9.6124,49.6951,16.7364,15.8798,-212.6270
67.0610,13.0960,86.9929,34.0677,-12.5546,-96.1986,-181.5472,-87.3689,-214.5514,-45.0118,49.4602,63.7152,-48.6106,0.5525,-76.1258,42.2151,62.1334,-4.1663,-173.8319
64.9381,-10.0972,97.9287,40.0466,-42.2077,-85.2331,-169.5291,-56.9180,-191.6301,9.8139,26.5479,27.9420,-9.7483,-17.3161,-50.9451,27.3674,46.6012,-11.0736,-105.9676
-2.3141,-10.3230,2.8318,-1.0885,-107.1910,-62.2323,-155.8124,-26.4765,-103.2910,78.4433,-16.3709,-16.0455,40.0862,-38.1784,2.1717,36.2703,-28.3876,-24.5998,-75.1649
-59.0287,16.6405,-77.9026,-41.5566,-157.5853,-51.0779,-114.0616,-46.1079,-33.5493,69.2077,-50.1314,-38.6742,34.1574,-40.5543,22.7428,48.2224,-73.0677,-43.9496,-55.5680
-53.9794,28.1870,-73.8680,-45.7294,-153.3455,-32.3613,-35.5189,-71.3552,-6.6706,5.7883,-59.4409,-39.1751,-14.3140,-29.0679,5.7111,28.4387,-59.9783,-42.8987,-4.7995
-39.0740,2.8757,-53.3519,-44.0131,-117.8239,0.7709,38.9301,-47.8762,22.8821,-17.9785,-74.0085,-42.5793,-49.9951,-28.4213,-43.1589,-4.1534,-47.7969,-26.5111,45.2292
-61.8835,-26.6093,-76.9485,-66.8466,-86.9580,20.7584,75.7041,1.4895,67.2872,24.7144,-99.4533,-58.4279,-39.2765,-47.4624,-80.4022,-4.7687,-76.9166,-18.2584,66.9818
-93.5360,-27.6106,-118.6922,-91.1241,-66.0062,11.2609,86.4076,24.4699,99.9825,81.6219,-102.5577,-69.1615,6.9879,-57.5794,-55.1673,19.3169,-108.2023,-10.9582,69.7094
-98.7049,10.8273,-131.0272,-66.7851,-47.0833,-6.0595,87.6198,8.7376,83.9143,87.5828,-88.8927,-58.3147,30.1002,-32.2204,-22.3113,30.7964,-77.9920,13.1027,38.6094
-80.8978,65.9701,-100.9602,13.9191,-9.7742,5.8911,60.4032,-6.1883,3.8906,33.0535,-90.5945,-30.5161,-8.2946,18.1012,-62.6406,27.0404,-3.2221,54.4927,-27.0038
-60.1544,85.3715,-60.2355,80.9598,47.6835,41.7934,-12.4085,8.5131,-79.9512,-32.1198,-94.3468,-8.9930,-51.7272,61.4809,-114.9070,14.3938,28.0676,98.7520,-73.6366
-58.8347,65.9695,-54.9303,69.1460,68.2388,47.3240,-85.2512,9.7068,-100.2634,-77.8599,-86.0620,-17.0122,-37.1946,72.7090,-84.2746,-22.3704,-10.8676,119.3318,-80.5737
-79.9078,57.2532,-85.6833,13.4032,26.0016,13.0263,-91.7135,-34.8307,-86.0721,-118.0603,-94.8502,-46.6414,-1.3553,59.3316,-24.0819,-72.3719,-59.6373,110.1727,-87.0289
-93.6811,57.1162,-106.3991,-16.4064,-10.2594,-0.8776,-49.0646,-61.7043,-77.8677,-142.4082,-113.9041,-61.2873,8.4190,55.2764,-19.4199,-91.1303,-81.1155,96.7110,-104.7568
-78.4696,34.4863,-87.3716,-15.3813,-4.7314,20.6328,-29.6679,-31.1593,-53.8751,-115.0454,-95.0170,-46.9227,14.5830,62.9244,-32.8221,-68.9046,-81.0919,79.4658,-110.4368
-43.4783,16.6104,-40.0457,-7.7817,-5.3997,28.3988,-34.0156,-5.7444,-33.7282,-53.1491,-46.0254,-23.5660,24.2888,54.6779,-16.2798,-42.5688,-50.5814,40.1072,-102.8748
-4.8633,20.1972,3.6699,-4.3482,-21.7844,19.1508,-14.0728,-15.0597,-61.3904,-25.2046,-8.8342,-1.7142,9.0506,49.0606,-7.3930,-37.7039,-1.6906,-0.2744,-90.8010
13.2272,4.7462,3.2825,-23.7343,-30.0053,21.6388,4.5925,-21.3403,-76.4633,-54.5915,12.7200,18.2498,-15.3392,82.9955,-23.8375,-47.5207,6.2854,-30.6214,-75.7674
-9.0131,-25.6600,-59.2645,-56.0446,-59.2944,13.9822,-32.3192,-32.7700,-31.7343,-83.6059,16.1101,25.9564,-20.9841,117.7032,-31.6609,-54.6762,-37.7146,-85.1646,-74.4230
-35.8571,-27.7208,-137.3072,-43.8464,-120.4058,-17.0477,-90.1629,-64.2259,-23.3964,-67.5068,-7.7390,28.8471,-27.3156,95.5657,-34.0980,-45.4440,-65.6917,-148.1697,-96.8271
-17.6464,-22.0447,-161.6279,12.8894,-161.2609,-30.8331,-104.6644,-67.7070,-90.9013,-42.8526,-27.3743,44.7934,-43.4977,49.1511,-46.0764,-17.5382,-42.7124,-163.9474,-114.1513
13.9722,-40.2801,-132.8589,27.7308,-160.5158,-22.4411,-83.0433,-31.5195,-116.8357,-35.5563,-20.7530,52.4705,-44.4999,44.0738,-36.8295,16.7224,-16.7221,-154.6883,-97.0562
-1.2712,-49.3223,-110.5409,-36.9143,-132.5907,-25.3255,-54.4584,-3.4918,-66.1293,-1.3568,-16.4021,28.6110,-32.4506,73.5030,-4.1158,39.1850,-38.5411,-161.7425,-55.7146
-44.1068,-28.3857,-117.2458,-112.1512,-84.4040,-21.3646,-17.9953,10.0771,-33.9666,56.4585,-24.7737,3.8636,-35.5413,81.7159,-2.2232,39.3767,-97.6848,-152.8695,-12.4637
-60.5803,-8.4828,-123.1606,-125.5675,-55.0626,10.9343,18.2402,19.8008,-29.2150,72.0411,-29.4677,3.8759,-58.8954,39.2445,-35.6387,27.1476,-141.4687,-120.0908,27.0364
-45.0502,-12.6134,-114.5686,-86.5901,-73.3449,19.6534,36.3792,6.2292,5.3230,76.2049,-35.2177,7.5059,-80.1030,-30.8026,-45.6833,23.8513,-138.6714,-110.4169,55.0366
-16.4874,-47.0402,-107.8349,-63.2685,-82.7561,-27.0861,35.3673,-14.7544,39.0980,140.5529,-34.2482,8.7089,-74.7550,-70.1704,-21.1946,31.1036,-117.5171,-114.5985,48.9345
9.4220,-102.0546,-107.8276,-93.0642,-53.0467,-72.4712,9.0582,-16.2993,27.1404,183.4545,-8.8919,21.3313,-51.6555,-38.0201,-8.5868,34.0909,-112.6644,-102.3838,1.3681
14.9985,-128.3038,-107.7246,-125.5198,-50.8665,-74.5861,-40.9105,-29.9460,-11.3794,107.4433,4.1239,28.3420,-49.7256,42.7194,-23.9052,35.7785,-100.3230,-103.1173,-54.0952
5.6166,-95.6981,-110.8148,-92.6688,-92.8098,-62.0528,-70.3861,-58.2019,-59.9732,9.2272,-25.5863,20.0896,-71.5221,100.3536,-43.6185,41.1409,-53.5617,-118.3909,-75.6899
4.6307,-46.2475,-117.5338,-13.5910,-110.1763,-57.2019,-54.1371,-47.2161,-96.0637,-11.2822,-53.0807,25.1322,-84.0424,76.7700,-58.9778,28.4354,-11.0928,-100.1303,-68.0971
11.2711,-25.4710,-112.1923,39.0845,-89.2646,-50.0771,-34.7317,-17.6354,-85.0469,-32.3950,-52.5595,43.1416,-92.7319,-8.9043,-79.8410,-6.4225,-7.3272,-56.9995,-69.1691
18.3404,-37.4012,-83.1170,34.4427,-66.3425,-38.9201,-41.2197,-32.0084,-68.7535,-101.0053,-53.7951,37.6805,-106.3286,-67.1480,-96.2445,-28.0400,-14.0823,-23.5022,-83.6356
31.5289,-73.7194,-48.1664,-6.3735,-39.4233,-24.2509,-45.9157,-55.0110,-94.3299,-118.3947,-48.3565,11.8229,-76.6554,-44.4807,-78.8161,-26.8196,-16.4220,8.8429,-80.3338
33.5599,-100.4801,-41.7555,-31.6731,-11.0871,-1.1821,-37.7712,-32.7941,-98.3587,-50.6427,-18.2177,-1.2790,5.6131,13.7397,-31.2994,-23.3004,-31.3490,23.7891,-56.1913
9.4177,-75.9230,-57.2311,10.1544,-8.6531,14.3638,-36.3706,-0.6175,-50.6208,9.7150,-13.0325,-3.9746,60.9012,43.0171,-2.2120,-4.9794,-28.5666,-7.8063,-38.3348
1.0772,-41.9273,-33.9000,85.2396,-8.7808,8.6744,-31.1107,14.6155,-32.9260,22.2239,-55.0470,-20.0008,55.0414,31.9348,-8.0110,36.6841,22.0682,-34.2266,-24.6456
40.0383,-85.4686,42.5774,77.4884,33.9989,2.5071,2.3023,34.8092,-44.1069,38.1987,-74.8048,-47.4128,46.7628,-2.2322,3.0796,55.4046,48.2117,-7.5551,-0.8237
75.0921,-185.3696,83.9262,-41.6800,85.5097,2.1595,40.5492,39.7227,0.8420,83.7563,-36.9624,-64.1403,71.6078,-27.9255,58.5254,36.9819,-23.4575,10.9886,4.8299
53.3510,-227.8744,34.0510,-147.5277,71.8459,-20.1648,33.8783,7.8931,67.4855,126.0634,2.3186,-58.4662,103.3710,-10.1497,101.6326,37.6967,-127.6572,-36.5985,-25.2584
4.1351,-178.4037,-25.3758,-144.0697,4.9285,-54.0958,-19.5735,-9.0331,81.7999,132.5065,3.5317,-41.9288,109.6143,31.4604,84.0292,69.2903,-160.7540,-101.5532,-46.8472
-9.3819,-126.2230,-6.5912,-91.1602,-26.4735,-56.3503,-61.3004,8.2862,78.7036,107.1712,-7.7437,-33.0203,80.7983,40.1623,42.2986,80.6046,-125.4259,-112.3512,-43.8277
31.7283,-147.6290,55.1941,-77.9519,8.3356,-44.9012,-51.6030,-8.0289,68.4044,67.5436,-6.7052,-34.1356,45.8991,13.9064,28.5064,63.2525,-77.7829,-67.6612,-64.4548
82.3413,-193.5661,89.1212,-88.3302,44.1110,-73.4945,-28.1361,-76.3057,3.9821,17.6393,-3.5417,-36.7808,39.6625,-9.3912,29.1161,38.4176,-35.5165,-25.4525,-104.0974
81.0302,-152.2193,88.3657,-56.5940,36.0810,-125.2484,-38.2135,-123.5251,-59.9659,-29.6662,-6.8571,-28.6517,33.3635,-19.9513,0.3172,-4.6027,9.8575,-38.4201,-103.2439
34.1903,-8.1378,71.9174,35.3384,11.6142,-138.1618,-63.8821,-109.3453,-63.2060,-54.4457,-2.5499,7.3453,-11.1850,-11.0538,-49.4523,-54.7420,68.0435,-97.5458,-81.5916
12.1225,121.4515,52.0751,156.8400,-11.0147,-96.3096,-77.4566,-56.3204,-87.4299,-76.1732,8.1907,58.5848,-50.5653,31.2996,-65.3711,-70.3135,139.1471,-150.9874,-96.1551
42.9306,128.9063,54.2834,253.4992,-33.5973,-24.2110,-82.9735,14.6271,-161.0529,-111.4785,-3.8949,72.9109,-38.7645,71.0449,-38.5193,-60.8443,191.0708,-159.3062,-107.1955
83.5365,33.6570,89.3903,263.1931,-25.9609,48.7687,-54.4769,76.5227,-151.8072,-109.3943,-29.5427,35.8507,-2.6380,55.9047,-17.4110,-59.7347,183.6214,-106.8733,-55.8351
96.1748,-66.6730,116.5311,173.0968,14.8804,91.5144,33.8962,96.6628,-18.9323,-45.4613,-12.5279,-0.6959,41.2403,8.8574,-1.7390,-55.0393,118.6816,-23.6347,20.7580
80.4555,-113.5876,84.2757,49.0759,18.6886,94.7142,107.3561,94.8206,102.1781,5.3173,43.8007,-4.5610,93.1995,-6.9466,57.0554,-38.2961,28.9883,8.2965,69.3837
52.9239,-129.9512,-1.4419,-43.3805,-53.3405,78.4901,78.7690,105.7966,126.6557,-3.3054,65.1651,4.2157,90.9446,14.3560,118.1654,-23.3002,-55.9218,-38.5379,89.7503
36.7798,-160.1427,-72.8438,-103.0651,-147.7149,55.3693,-1.8644,101.4936,98.9501,-25.1885,31.4890,7.9879,8.2821,24.9201,85.4359,8.8783,-113.2719,-83.9483,82.6590
38.1382,-197.9682,-70.5576,-134.1624,-191.8756,28.6669,-34.0628,56.1873,73.2788,-34.8688,-10.4637,-3.9614,-45.3986,-3.3270,-4.2005,60.9119,-132.3801,-68.4339,50.3164
37.9037,-199.5513,-10.5921,-101.5363,-152.7382,14.0896,-18.7151,16.2383,62.6853,-43.3155,-43.5375,-41.4279,2.9076,-40.6240,-30.3182,74.1733,-111.9829,-20.1615,23.8325
28.0083,-143.8689,39.2039,-6.1380,-65.9243,17.6255,-15.2507,14.7240,54.1889,-31.0960,-65.5783,-70.3452,64.4182,-40.7498,0.3311,34.0294,-49.5243,25.2031,14.2996
15.0764,-51.3030,35.3764,72.0066,-30.6681,26.3951,-45.4584,24.0735,24.9482,1.3256,-43.5153,-42.1668,56.3759,-15.0597,-3.5316,-3.8296,29.3053,42.7333,0.0537
4.0472,26.0377,-5.0715,75.1489,-78.7439,38.3639,-84.3528,35.2223,-23.5263,15.5857,15.4430,21.9154,8.3756,-12.0313,-45.9645,-29.0464,69.5117,13.9864,-21.4758
19.5241,30.9321,-14.6485,45.7639,-98.6052,58.8433,-77.5060,60.6950,-63.9672,20.2987,40.8943,56.6749,-47.5921,-22.1303,-78.0093,-66.6069,67.0520,-7.7028,-34.6999
77.3791,-30.3052,64.0504,42.4969,-8.1272,79.4303,-2.8541,73.6580,-78.9353,32.3161,12.2409,37.9910,-95.2254,0.7307,-82.8013,-91.4664,74.2617,44.3202,-33.7234
121.6258,-76.8727,177.8873,51.3978,101.4723,82.7489,62.6606,48.8931,-66.9651,-0.5786,-10.0792,-7.9753,-69.9422,34.8075,-41.6862,-82.2684,90.8576,111.7389,-25.0281
91.2279,-59.5610,190.1699,44.3509,102.6151,48.1783,34.3396,8.1989,-34.0271,-87.0050,5.9598,-35.5223,37.1988,29.1590,41.2857,-61.0022,64.0671,87.3162,-34.1177
22.9103,-11.6541,75.0662,42.6080,8.0712,-23.1116,-48.3442,-25.1511,1.7305,-123.4585,27.3655,-12.0006,105.2130,5.6465,85.6220,-28.3706,4.5682,-18.3425,-77.1580
-14.8171,24.9062,-33.8901,51.3691,-67.7755,-82.9165,-95.3453,-46.5706,15.7849,-63.0842,33.1422,37.8490,66.2255,-2.7466,45.4338,9.5005,-34.1230,-105.3451,-114.0639
-23.7500,33.4030,-52.2920,18.9854,-64.5302,-94.6074,-97.4566,-55.0433,3.7019,6.2805,34.8345,50.8482,13.3837,-31.8219,-4.9558,1.7989,-70.3059,-106.3050,-90.3322
-38.6805,1.5765,-47.0675,-76.7829,-37.0811,-85.2174,-85.0477,-62.4836,8.2725,28.2330,27.1868,10.8087,11.8956,-90.3581,-2.2877,-40.4162,-153.1280,-41.3470,-11.2379
-69.0744,-46.1540,-90.7625,-182.1302,-61.7539,-82.1932,-66.3060,-70.1824,69.1181,51.7814,-4.7313,-34.1159,-5.5846,-110.4306,10.7398,-37.8226,-245.3813,-6.4377,64.3188
-107.0169,-47.5441,-163.7505,-230.5023,-132.8922,-77.4585,-68.5838,-51.5511,116.6426,101.5090,-47.1046,-44.6840,-70.7520,-83.7143,-13.9164,-1.5433,-260.6429,-57.6553,78.8974
-132.5599,9.5092,-204.5229,-195.3039,-187.8164,-73.1220,-111.2326,-9.5009,53.4824,129.9487,-82.0074,-38.0203,-110.5194,-88.5099,-53.4938,-7.7681,-185.1760,-108.4427,43.6094
-122.9387,65.1588,-158.9200,-109.4863,-170.7334,-58.3936,-126.4888,26.3568,-39.7740,119.3801,-106.1295,-48.2853,-100.1095,-125.1196,-75.1080,-36.4759,-87.8099,-55.1848,46.2724
-79.4657,71.3900,-31.4256,-49.0322,-61.7304,7.0838,-48.9534,68.3752,-19.9986,101.0122,-97.4065,-61.4220,-98.1681,-108.7527,-87.2127,-26.6855,-26.2214,58.0840,113.7536
-24.2706,45.4328,77.9312,-26.2319,70.6449,94.4368,52.6156,122.5801,42.7630,70.8827,-44.3076,-36.9145,-109.5529,-45.3716,-98.8665,-0.8099,15.0908,125.5862,147.1606
11.0752,55.2218,82.6649,44.1367,109.1068,114.8800,80.8360,132.7769,15.3007,8.6149,2.8188,9.6373,-76.3773,-23.1135,-78.2971,3.1601,80.2536,127.9812,107.4256
-4.2330,151.1932,31.4658,172.3797,70.7834,71.2014,74.6121,84.2235,-25.9324,-40.7166,7.4760,28.5914,-7.0743,-47.6222,-10.4703,-6.9490,149.1139,110.3956,89.5384
-51.9511,268.6234,23.9500,226.3478,101.0377,46.7601,123.4344,52.8211,14.8252,-30.3358,4.7246,21.7448,21.5745,-53.2207,37.1679,-28.0133,152.4043,119.7268,123.0639
-61.5655,266.7950,79.2811,148.5634,228.1487,73.1693,210.9371,84.7837,54.2313,-4.6559,10.9377,9.0959,-1.6657,-23.2368,12.7921,-47.9399,97.1628,182.0817,139.8626
-8.7317,135.5722,150.3087,57.9550,328.8586,124.1915,264.1132,134.2064,50.5705,-5.7744,16.0499,-14.3942,3.7003,13.9760,-6.1586,-34.4479,71.8865,256.9722,141.8880
43.1420,45.3761,177.5188,55.4723,336.2566,148.1224,259.0165,127.9861,82.7854,10.1688,65.7226,-13.8874,73.5253,33.8376,50.9801,-9.7409,99.0825,260.2932,158.7335
35.0214,105.7287,134.6155,109.7918,289.8166,90.7419,214.9310,50.2137,132.6400,57.0239,154.0089,40.7085,134.1307,19.8763,105.6358,-12.6718,117.0253,193.4805,151.3200
-15.7393,209.6002,85.6187,148.9763,241.1786,-0.2138,172.8131,-14.7445,130.1644,69.0804,152.3237,61.4754,129.9629,-11.8953,92.6544,-2.6303,111.8543,158.7646,126.4949
-47.6298,207.6696,105.2341,123.7161,222.6371,-10.2867,161.9494,10.6828,126.0732,34.3308,58.2163,-8.4029,109.9368,-24.9612,86.6474,43.7663,106.3643,196.1747,139.9232
-25.5998,108.8333,132.7454,30.0248,215.9694,26.8974,134.4767,47.2943,156.9292,8.9166,56.6285,-40.9374,108.6233,-25.8605,122.4242,50.5194,61.2090,216.0283,144.7905
19.7793,21.9949,74.2363,-58.5478,159.2475,-10.3325,40.6464,-6.8568,151.1487,-1.4296,162.9491,41.4811,72.9953,-30.4088,119.1813,-0.9332,-33.0558,151.7133,81.0714
32.5265,3.5658,-10.2793,-69.4138,62.0315,-72.0996,-39.9448,-72.6173,98.7883,-22.6385,181.0563,102.5897,-6.6009,-10.9085,61.1776,-17.7156,-67.8036,68.4537,18.9259
7.4477,36.6357,-23.8112,-31.2880,3.2667,-46.1390,-22.3500,-57.4228,63.7600,-41.7965,90.8342,62.7735,-47.9840,20.7395,16.1780,12.4797,11.5348,47.8692,13.5224
-13.9019,82.8890,1.0859,-1.0646,0.2282,1.2944,19.1321,-35.7212,39.2143,-51.6773,50.0284,25.8236,-26.5058,0.0898,-10.7154,1.7050,103.0998,76.3372,11.3796
-6.4158,99.2716,24.4271,26.7460,28.2687,-9.4349,11.1576,-47.5588,2.8906,-60.1353,62.1991,31.8018,-7.6501,-48.1779,-41.5959,-44.2330,133.6075,116.8708,0.7681
20.6373,63.6940,78.9997,55.7097,92.7054,5.5336,28.6036,-4.4642,0.1630,-40.9135,38.2743,12.0909,-9.2807,-37.9108,-46.1902,-38.6113,143.9976,163.1297,35.2030
40.5290,16.5250,132.7610,49.3827,157.7155,83.2311,115.1044,83.8005,42.0684,13.9866,18.1958,-19.6675,2.7457,3.7688,-22.8159,9.1779,148.3623,180.2757,108.8095
31.6928,21.4564,112.0489,11.4339,149.7921,110.6041,184.8825,108.2795,67.3219,51.3417,45.0257,-7.4540,7.7030,-5.2489,-17.7765,17.6300,117.6258,136.1369,174.7646
8.1173,72.0295,56.9130,-9.9691,81.0145,53.8397,185.8652,77.3727,48.7912,43.2870,60.3319,20.1868,-27.9575,-36.1820,-31.8091,-15.8191,72.0216,81.6552,221.5827
-2.2619,88.6578,33.1843,-19.3655,15.3629,16.6821,143.6994,64.3626,27.4188,22.6486,50.8965,23.3552,-59.0022,-28.1700,-31.3264,-19.9811,26.6738,65.6349,256.4211
-8.3256,20.4130,0.1845,-70.0243,-36.9431,39.3753,76.9775,62.7809,47.3788,17.9937,53.0212,7.9238,-36.2564,-12.0601,-11.5170,30.3538,-49.0403,48.5754,281.7689
-26.4783,-81.4044,-71.9468,-152.7903,-77.3148,54.4789,22.1082,55.3960,102.9214,38.1525,45.4008,-16.9433,0.7683,-24.0823,17.7171,79.3608,-133.2340,5.6436,282.6619
-41.2324,-113.3008,-126.8104,-186.5505,-89.3782,21.7609,17.2063,55.4898,145.6251,74.6239,23.2995,-23.2672,-2.0966,-34.5127,38.0482,75.2385,-159.5731,-18.3541,229.1325
-45.1307,-45.2029,-132.3404,-133.5882,-87.0593,-21.2095,18.8934,51.5491,147.8615,86.5081,33.9704,15.9456,-28.3271,-22.9679,20.3799,41.7562,-122.4970,-6.5271,143.3458
-41.3483,39.8882,-93.6575,-39.9351,-69.1427,-17.1683,-3.3566,49.3779,124.3190,58.6461,59.0493,56.0289,-46.1808,-3.3532,-27.7942,22.4486,-49.7460,23.9138,95.5248
-6.7552,62.3586,-0.0068,43.8150,9.1359,45.3624,22.0329,82.2906,81.8607,33.7492,49.4347,52.8615,-60.5819,26.4343,-67.2755,6.6621,43.6030,82.9555,92.7126
52.0309,45.5428,108.8155,100.1412,123.7691,114.1117,113.5033,119.6479,27.6720,23.4477,42.7095,45.6711,-57.6943,72.2369,-81.1224,-16.4631,105.6825,148.5613,82.9781
71.4173,50.7736,145.2315,117.8143,169.7880,124.7893,160.9579,102.7042,0.5820,-2.8442,80.5680,64.6530,-1.8768,110.1591,-62.0750,-12.1608,91.3856,143.5764,49.0669
42.0086,83.4915,107.0414,104.2451,115.2631,66.9590,102.4083,50.2356,0.6612,-20.5849,124.7522,85.1852,69.4534,115.4274,-11.3802,19.6845,53.9922,59.5646,-4.4059
28.7939,108.2619,67.3199,87.6735,37.9979,-8.8663,6.7760,12.3364,-23.7486,10.6717,146.0347,105.8844,71.7186,93.9718,21.1103,28.8471,52.4739,-15.2542,-72.7055
43.9197,95.8268,48.2077,67.4538,3.9432,-41.5223,-43.8760,-5.8723,-57.8619,47.0652,152.8675,128.4906,18.7915,69.5988,-0.5778,13.4559,44.1553,-29.0012,-114.8097
41.2749,46.9601,26.4820,33.5824,8.2457,-23.4616,-43.3660,-15.1959,-39.2137,40.9648,132.9702,116.7081,-1.8860,63.3341,-27.6942,10.2239,-9.3816,-20.6573,-102.2392
20.2161,7.4571,-0.7532,18.0277,12.1065,-7.3354,-48.0424,-19.1828,1.2699,32.2303,89.6567,79.4970,5.3861,76.7699,-20.0488,13.0543,-51.7529,-39.6504,-70.2923
10.6463,20.7641,-28.6745,30.0471,-20.4131,-32.3746,-96.6388,-28.3889,-15.9152,52.5524,68.0161,76.3064,-32.1089,80.3627,-19.2661,12.2846,-39.8774,-83.8129,-48.4395
10.3952,57.9934,-55.9976,14.4979,-94.2297,-81.8328,-147.5969,-51.4452,-81.5148,55.3003,78.4512,104.8907,-97.3278,46.5392,-50.9133,27.4170,-22.6599,-113.0313,-39.2278
9.9378,60.9827,-71.4485,-38.7882,-166.9365,-119.8892,-156.3970,-80.0101,-131.3425,8.1085,84.7502,112.9386,-111.3240,4.5449,-68.9269,38.4698,-47.1217,-96.7231,-60.3261
14.0313,25.5901,-68.5590,-66.8010,-181.9168,-112.3933,-147.3025,-83.7907,-137.2584,-46.2091,69.5477,88.1678,-74.9242,8.1824,-43.5549,14.4749,-79.5087,-47.8304,-88.8545
19.8194,-22.5579,-55.9601,-64.5570,-132.6818,-45.0968,-124.1570,-39.7653,-105.9863,-52.7621,40.4117,48.5227,-49.5613,42.9621,-7.7964,-0.5912,-76.6693,-11.6809,-57.5949
15.8211,-68.1529,-52.3723,-91.2233,-73.1995,23.0068,-59.7214,14.2221,-60.7451,-6.3046,12.8468,13.3284,-46.9458,50.8882,2.3541,30.1022,-70.6935,-25.5208,15.2194
-8.5654,-77.8824,-77.3937,-132.4019,-43.0254,11.8271,-10.4240,21.4465,-22.4844,53.1497,8.2011,6.1955,-33.7357,36.9332,-0.3021,49.9090,-109.7548,-80.6966,41.4957
-49.2867,-18.8713,-115.9813,-108.8848,-23.4267,-54.5032,-37.6994,-4.2580,11.0028,73.1390,24.0940,27.7683,-5.4922,39.6548,18.4627,18.0512,-158.9006,-124.0754,4.8509
-70.1007,72.7432,-120.0819,-19.1029,0.6569,-100.0424,-75.7240,-32.4525,28.1271,23.1706,41.9171,59.2244,11.8918,40.3939,49.8007,-20.1885,-156.7430,-124.4716,-60.5363
-45.1661,111.3387,-83.7675,43.6220,5.1385,-129.2484,-69.7148,-87.0760,-1.2026,-72.3760,62.2479,89.1481,16.2654,16.8149,56.7586,-31.6667,-132.4640,-114.8005,-137.4269
-9.9321,57.4445,-53.5103,20.1802,-12.0556,-163.9000,-71.4839,-152.0861,-51.2712,-130.4390,63.4788,83.9302,28.3692,6.3539,49.1877,-28.3055,-145.9594,-125.3014,-172.8694
-4.0398,-30.0835,-43.4991,-36.1851,-15.6376,-156.1458,-77.8515,-147.1782,-66.0490,-90.5252,5.7682,19.1958,35.8800,30.2144,51.0708,-9.9077,-157.5929,-131.0045,-116.7526
-7.8262,-48.9908,-22.0084,-41.1416,5.7597,-93.3098,-30.1521,-83.7963,-62.4695,-13.4561,-57.3324,-33.3730,5.6398,50.9297,27.9679,10.8911,-94.7829,-110.7523,-39.8839
6.8645,15.0453,21.5487,-0.1257,33.1776,-50.0373,14.3978,-66.0933,-87.9141,-7.7227,-29.1168,-0.9242,-40.1965,34.4905,-34.0281,-6.3535,1.2520,-81.1889,-39.4291
30.5935,55.3238,59.8823,18.1107,51.3334,-59.2556,-20.8784,-104.7792,-120.6047,-58.2398,46.1001,50.7314,-50.2614,-21.6528,-64.7212,-49.4674,31.7352,-49.6266,-73.3966
47.5130,5.3192,60.5225,-0.9419,46.7712,-67.0811,-64.8896,-111.0931,-114.3989,-68.6050,50.6728,38.3763,-41.0371,-88.1125,-37.4926,-62.1608,-0.6099,-14.1065,-46.7775
44.3946,-56.6383,16.6387,-14.9891,18.2328,-33.3899,-41.2979,-61.5355,-71.6461,-45.7151,-7.4001,-1.5101,-54.8556,-113.8591,-20.2086,-48.8323,-14.2488,3.5380,19.4384
4.1502,-46.9715,-39.9876,-10.1139,-11.4757,19.7109,-4.8496,-22.1475,-22.8257,-67.4656,-55.1501,-26.1736,-56.5461,-100.8082,-30.8950,-52.4640,5.6986,-12.4150,30.5498
-52.7727,-0.4710,-71.2665,-9.9500,-33.6810,43.7754,-11.3042,-32.6418,-3.8035,-115.5174,-80.1043,-52.1365,-1.8215,-97.7246,-16.3686,-58.7023,8.3328,-49.4928,-32.5843
-66.8719,17.7004,-63.5612,-29.8365,-56.5496,15.6373,-34.3929,-59.2760,-34.6109,-110.0443,-71.4146,-59.7460,52.1083,-89.1642,19.5305,-37.8746,-4.4046,-93.4582,-97.2312
-21.3152,6.2555,-8.7993,-55.7290,-60.0139,-36.5653,-49.8637,-63.4364,-76.4466,-52.3710,-18.7889,-25.2125,30.8314,-43.1706,23.3504,-19.2564,17.0578,-126.7262,-113.6161
31.0451,-0.7931,83.7417,-48.7231,-25.1240,-88.3888,-63.0395,-68.0861,-76.9420,-10.8880,18.3679,4.9283,-32.6080,-19.1830,-15.9881,-30.1289,66.1882,-125.5115,-111.3415
45.1146,18.6012,150.8761,3.1168,14.9265,-163.4253,-74.9204,-114.0262,-53.5373,-17.7807,11.1566,9.7565,-59.8207,-50.0348,-71.2074,-46.2536,89.9116,-99.3071,-117.0517
32.7848,47.6685,140.0612,46.3032,26.1153,-247.1397,-86.9012,-175.5487,-42.6748,-37.7694,14.3964,23.1204,-45.8210,-65.6929,-102.7572,-57.1299,76.0026,-81.9579,-100.0946
21.9480,41.8982,90.3928,44.3452,23.1547,-254.9166,-93.0153,-192.1390,-18.7917,-21.8074,17.7732,20.9276,-37.1854,-53.9266,-75.3631,-79.3313,54.7238,-68.6205,-53.5640
18.4054,5.1516,70.4345,47.0058,25.0578,-168.5207,-69.7682,-157.5757,38.8729,11.1350,-35.5898,-30.5506,-43.1056,-61.6545,-17.1354,-93.2854,59.1009,-27.5326,-26.7547
22.4869,-0.3791,89.1082,99.0589,27.9906,-64.9042,-18.5332,-106.7556,74.8139,-12.5564,-81.5536,-64.8069,-33.9545,-39.4819,-1.5918,-74.4447,112.7171,33.3705,-29.5802
38.0562,40.3185,115.9426,169.0987,29.2595,19.7939,17.9628,-57.2684,43.5321,-95.0747,-42.6169,-31.1232,-6.8619,51.4808,-33.9218,-56.9519,196.5927,75.6192,-19.7025
57.8210,73.9731,132.9396,222.6362,31.2608,99.0940,15.7019,-7.3768,-9.9275,-145.9571,11.7910,10.1762,8.4006,116.0951,-51.3164,-66.3148,250.0400,89.7361,7.7710
76.7979,70.6946,149.7319,257.2222,41.5925,153.5117,7.5868,45.8664,-24.3591,-118.7225,21.7734,17.5265,11.7626,109.2651,-26.8943,-63.7620,250.2867,98.4192,26.8147
103.1837,41.7958,181.5872,260.6794,71.3627,169.2032,30.1846,84.7506,-6.3753,-63.0777,40.1555,20.9357,34.6780,109.4989,14.3561,-34.9700,231.0157,110.3900,36.7829
126.3697,8.7131,207.9183,239.8244,101.7278,162.6861,59.2074,67.2640,6.3089,-41.2546,71.4323,26.2824,66.7020,134.7220,39.3985,-26.0161,217.4187,104.1995,32.0876
120.0371,8.4496,192.7828,241.6941,91.9129,117.4277,40.6946,-7.5350,2.4763,-70.4341,60.5377,25.1752,61.5453,132.8859,27.5810,-49.1535,209.3449,62.1341,-10.3379
93.0708,45.5177,147.0553,266.3081,45.3475,27.1607,-24.1431,-72.5716,-13.3836,-108.2714,32.9233,37.7953,29.2571,103.1549,2.0255,-62.7311,189.9042,1.3174,-71.3968
73.8296,51.4445,100.6736,243.5872,6.9415,-39.3973,-75.3432,-85.1280,-33.2662,-86.7508,25.6244,46.7331,24.8288,59.5848,16.1970,-45.4115,127.9630,-34.3950,-98.6681
56.5987,-7.5684,51.4553,149.6364,-3.4509,-41.5127,-73.7108,-67.1559,-38.2666,-16.7057,-6.5048,7.4847,38.9144,9.0941,56.1957,-9.6628,46.1798,-12.1898,-75.3238
30.6039,-61.9780,7.7286,58.0878,11.0127,-24.0248,-40.0186,-36.5408,-30.6301,22.6644,-72.9535,-49.5309,13.6425,-5.7596,42.5304,23.1025,27.3328,51.8136,-25.1424
16.0441,-57.6964,-2.0024,41.6094,57.3766,-10.3361,-16.3520,-1.2847,-44.2406,27.9431,-104.4978,-60.4412,-34.9492,18.5755,-24.5760,30.1164,72.4421,103.8773,14.5575
19.4500,-20.0782,14.7506,84.1683,122.7654,16.1854,-11.9376,10.7179,-75.3734,49.8708,-80.4412,-35.3947,-36.5387,27.6477,-48.8438,15.1789,90.3508,121.3016,11.8220
18.1142,26.6825,40.9602,117.6733,162.5034,39.7540,3.9992,2.4973,-74.3015,65.2911,-47.6008,-21.7871,3.4808,27.4585,-4.6909,7.0163,67.4930,132.3036,-14.2314
7.8191,67.5363,81.0028,114.7024,158.9124,52.0286,47.3159,14.6472,-37.4242,46.5590,-40.7661,-33.0393,21.3730,53.9865,28.8687,9.5003,63.2871,148.1894,-1.8001
5.4842,63.8916,111.1110,109.8515,139.6781,83.9326,87.4246,50.1498,-9.1462,38.5188,-65.3870,-59.6035,13.5135,72.5434,21.8729,13.7360,74.5442,149.7173,53.9505
16.2598,25.1053,109.4247,127.4127,124.9499,122.2865,101.8107,77.8257,3.5891,42.2755,-89.9531,-77.5092,21.6078,62.8418,25.3684,28.2483,75.1532,148.9341,85.6882
27.5587,20.7667,105.9673,138.9752,107.9867,111.7903,104.6644,81.2108,16.1421,13.7045,-64.9868,-60.5175,50.5193,75.2267,50.2459,37.4463,78.1218,162.7022,64.9922
13.9502,61.0618,88.7163,121.0529,81.4879,56.7761,95.7989,53.2861,19.2192,-9.1581,-14.1675,-27.7095,83.4682,120.7812,64.2072,16.9378,65.6344,147.9377,28.5076
-33.3723,83.8838,-2.8788,94.5019,37.8656,15.6351,58.2467,14.6243,17.1947,7.9440,-14.3674,-17.8823,104.2510,146.5542,73.2958,4.4442,13.2459,73.6542,-7.9304
-74.3935,69.4869,-124.5769,71.7498,-32.5351,19.8424,3.3375,18.6379,16.1397,0.4345,-55.1837,-16.4535,79.0829,120.3509,78.5348,31.3532,-33.9265,-1.5746,-55.0654
-76.7260,53.9265,-177.0839,32.9322,-107.9260,53.1858,-47.8943,58.3926,-21.4959,-35.6580,-63.1599,5.0819,10.3776,60.8816,41.3401,42.4747,-49.6929,-16.3606,-91.3004
-74.1814,52.2443,-182.0691,-15.6240,-138.8692,72.7975,-82.9996,61.4907,-89.8555,-13.9977,-50.3167,16.9825,-31.6678,23.2239,-19.0291,10.5854,-73.2797,9.4567,-88.6735
-95.8912,46.1028,-199.8446,-39.4668,-112.7093,55.1230,-76.0786,28.7720,-104.4515,41.7197,-78.7248,-13.4508,-16.7654,37.6696,-31.2641,-0.4216,-103.0279,30.3194,-60.2379
-111.8433,18.5611,-204.5992,-51.7429,-72.3121,40.6326,-25.7221,33.4925,-60.1527,33.8963,-127.1971,-56.6743,4.8531,55.0198,-5.8746,25.8565,-111.3247,33.1781,-24.8373
-103.5897,-23.7706,-181.7475,-91.9136,-57.3129,82.3821,15.9166,81.8623,-51.6084,-11.8697,-134.2772,-74.2309,9.0698,43.0808,-6.1025,32.3764,-123.9688,23.7383,15.3352
-89.3151,-50.2027,-161.2636,-129.4688,-62.9333,152.7178,17.2842,119.2320,-89.0392,-14.8833,-109.9098,-69.6529,9.9384,53.6552,-23.0488,20.4664,-140.1229,9.6405,31.8536
-71.3324,-42.8994,-132.5332,-107.3035,-56.2502,168.7686,-2.2425,125.7145,-104.4999,15.1840,-99.8175,-57.4912,-5.9133,90.1206,-21.1971,33.2805,-106.4221,-4.7312,-9.5905
-51.4348,-18.9240,-91.7742,-53.0727,-17.9509,107.6578,-21.7928,108.8041,-100.1872,38.0442,-103.2657,-44.0264,-30.2503,82.2994,-14.4022,54.7677,-38.4286,-17.3585,-66.5524
-52.9558,4.5544,-78.0119,-27.9418,21.4239,40.6744,-19.3894,79.2711,-94.1308,52.6812,-97.7130,-41.1042,-16.6137,37.1623,-10.4298,57.0750,-4.2440,-24.8092,-57.9720
-70.2954,16.2826,-83.1384,-32.6942,13.5400,32.3695,12.4580,62.0181,-50.2225,68.5956,-87.7850,-52.7214,21.7209,14.8470,6.3224,63.2056,-17.3163,-39.3541,1.9015
-72.4963,-10.8593,-78.3576,-60.0576,-26.1700,45.6244,21.7009,57.8675,7.6687,81.4220,-83.0643,-63.1814,37.5199,13.0340,29.9772,89.1260,-62.5500,-75.9200,13.2354
-60.2708,-69.1676,-83.8346,-120.7828,-42.7893,12.7647,-23.7154,30.9418,1.1655,62.7158,-75.6141,-62.8354,41.4516,16.6254,50.9245,108.0973,-113.9617,-103.3059,-55.4822
-46.3889,-92.2491,-84.6533,-164.7427,-43.8238,-40.9541,-69.3482,-23.4858,-50.0143,9.0831,-67.3301,-59.9193,34.5063,22.2236,55.9157,98.0539,-105.8842,-84.4766,-125.2303
-27.0997,-59.0275,-34.9949,-128.6088,-68.2303,-54.0367,-84.8368,-67.2240,-70.1693,-4.8085,-75.3694,-61.0916,-18.0037,-3.8022,13.1633,70.2036,-30.6811,-53.4081,-127.3356
-12.6276,-25.9344,18.4163,-52.4023,-93.8034,-39.3585,-97.2771,-76.3260,-61.2506,42.3741,-92.7874,-62.4573,-70.9325,-44.4811,-53.0098,44.7956,22.3902,-51.3517,-77.6827
-13.7403,-12.6970,16.5500,-3.7929,-91.3189,-26.0870,-87.7365,-54.0940,-53.4945,33.2923,-89.2723,-55.2860,-56.3553,-30.8213,-67.6089,19.1486,25.1965,-46.5867,-24.2003
-9.8208,10.5248,4.5916,27.1539,-86.1091,-7.6247,-34.5263,-20.0467,-37.9128,-64.2067,-63.2234,-34.0671,-31.3138,13.6322,-42.6058,-19.4840,35.4574,-13.9792,14.9383
3.6519,32.0860,9.4205,51.6979,-79.6477,-6.5498,13.7613,-0.6744,-12.0338,-110.3194,-44.0889,-8.1826,-60.2582,27.3335,-47.6649,-54.9261,49.5765,6.4148,52.7998
-6.6590,32.4429,-14.7818,41.4258,-40.3091,-35.0882,38.0069,7.5745,15.6887,-66.9610,-39.9347,2.7057,-77.9632,33.6502,-64.6586,-65.9426,28.4862,-6.8331,98.2605
-45.8922,40.0082,-55.2178,11.5682,-1.5495,-22.1554,61.6238,35.6373,46.3183,-45.9307,-39.7625,-10.6723,-35.3448,34.3168,-45.6922,-65.3357,4.7511,-23.1810,131.6335
-78.1140,54.8842,-63.1322,2.7143,-14.7734,65.4085,56.2409,85.9611,59.1633,-66.0163,-58.0566,-45.1682,6.3723,-9.8107,-12.1186,-57.1114,13.7896,-22.6500,131.4538
-85.0385,39.6740,-56.6717,2.8666,-35.9014,150.0742,17.9738,132.4279,35.4995,-75.5720,-101.1755,-84.8791,8.2809,-37.2185,12.4561,-24.2781,36.4538,-11.8167,108.3328
-70.9747,19.0721,-40.8355,-3.8368,2.8805,181.8279,13.2410,155.0545,2.1334,-84.3371,-113.1911,-91.3394,-6.7898,10.7923,17.3886,10.2767,70.8832,-3.4073,78.5546
-33.6905,37.7515,32.6652,11.9736,82.6069,171.9032,37.8861,134.4754,-16.1009,-69.3636,-55.6179,-46.4544,-31.6194,56.6883,-26.6950,19.6821,130.1088,-4.8691,39.0754
18.6008,64.4982,142.5401,64.3971,143.2121,110.0181,41.7271,67.8461,-19.3020,-4.5336,7.8015,1.6033,-52.4383,63.7855,-78.2091,34.8481,185.3420,-2.5409,-1.3523
52.1726,72.7649,197.2923,118.4799,153.2043,18.8183,55.3157,-9.1400,0.8512,7.0952,24.5619,13.1977,-30.0030,93.0248,-51.4510,61.2937,200.2598,11.1175,-25.5160
44.7141,91.6578,166.4000,125.5328,114.5438,-32.4781,79.6347,-73.3661,25.5202,-76.8741,48.9853,23.7222,30.0931,116.7905,12.6124,54.4524,165.0877,8.9452,-47.2765
18.9102,97.9792,103.1285,68.7022,62.8664,-49.7519,47.3137,-125.9724,1.6220,-117.5764,94.8458,44.6602,77.8141,81.1701,22.4996,35.0809,90.8916,-8.9507,-71.5301
13.0205,42.6289,68.9697,-0.1795,35.9673,-69.7651,10.8630,-131.8844,-58.3082,-78.8230,69.4359,19.5365,83.4814,53.2909,9.3451,44.4887,27.3476,0.8893,-53.2834
24.4670,-11.8091,65.6055,-14.6750,29.3989,-51.7979,70.6377,-69.1858,-80.2159,-70.5733,-16.0568,-32.2519,44.7944,64.3300,9.8391,29.4652,17.5016,24.2820,25.5220
16.5614,15.8335,29.7998,-5.3389,24.9298,12.3879,153.5783,-7.9488,-48.0108,-68.1385,-15.4160,-10.5881,-15.5281,33.1074,-23.9022,-33.0767,13.5070,3.3442,109.6154
-20.5665,68.2883,-63.4558,-48.0973,19.6341,42.6705,157.1302,-5.0986,-2.1573,-7.3177,74.5360,64.5343,-43.5070,-45.5127,-62.8901,-56.6815,-49.5025,-37.0588,145.8413
-59.0411,64.2908,-138.3786,-117.3225,5.4053,17.3574,127.4888,-15.1239,32.8456,7.4921,96.5206,69.8295,-9.1557,-93.2729,-19.8490,-27.0379,-123.4445,-34.3746,122.0338
-75.0411,34.7971,-135.6275,-138.0411,-16.0295,-16.7313,108.7951,-8.0432,44.1919,-56.4534,29.5112,5.8001,45.4328,-99.6294,60.3512,-24.1865,-119.5014,-15.9283,45.0367
-64.4142,23.0189,-98.6585,-126.0717,-31.3478,-48.7759,73.0451,-24.5470,35.7946,-51.8029,-1.2522,-22.3767,58.1455,-93.0712,84.3484,-40.2021,-56.3225,-42.0695,-41.5122
-40.4064,8.4367,-84.5561,-132.9233,-67.7890,-73.2559,31.1694,-63.1969,38.0301,29.6561,24.7669,-2.2511,28.3507,-74.5422,76.1709,-23.6086,-27.9626,-105.1681,-77.7859
-28.7829,-15.3562,-96.6073,-142.7796,-147.1764,-80.1949,-3.5297,-79.2513,44.2153,51.0718,35.4718,8.9191,12.8309,-51.8887,85.1017,-7.6261,-71.3010,-170.8657,-64.2542
-30.9326,-21.0905,-109.6854,-128.1016,-203.2160,-107.7917,-56.3612,-83.5467,16.4152,30.0961,40.2550,16.1112,33.0137,-39.5496,92.6807,-14.7185,-130.1854,-226.3028,-37.0898
-20.4475,0.4995,-86.9645,-105.6935,-180.8329,-163.9776,-105.8472,-107.2361,-19.2341,51.0974,80.8388,44.7279,34.2102,-51.7840,77.4329,-12.7506,-131.9446,-253.8618,0.4504
-3.9993,35.9467,-21.3955,-86.4803,-135.2578,-189.1862,-120.2426,-131.5033,-8.1032,61.9026,111.4651,60.5826,-13.2538,-103.0677,34.2665,-16.1619,-70.8246,-226.8039,44.6527
-9.7918,52.1674,32.5166,-58.1148,-111.0292,-168.5726,-118.7206,-130.5039,28.0897,32.2263,70.2952,27.2536,-55.1091,-146.8943,-34.4660,-39.2167,0.8703,-141.3744,73.4109
-14.2989,19.2557,39.6633,-26.5106,-71.6571,-122.3127,-88.1835,-106.7949,40.6083,40.4788,-7.7621,-23.9633,-65.6812,-119.9663,-86.0110,-35.8224,49.0380,-37.8474,92.7402
13.8172,-26.6939,31.4749,-12.5098,-19.2579,-41.2210,-12.5394,-67.0048,33.2791,87.4851,-36.8936,-35.3293,-86.5549,-70.8881,-83.5598,-11.6713,76.8866,21.0452,105.1802
38.6065,-27.7068,26.4635,-19.5585,-5.3378,31.6273,32.5240,-19.8344,19.4780,92.4367,-2.8502,-6.2874,-101.0683,-69.5055,-49.7918,-20.7763,83.8364,23.4568,82.1016
29.1329,-13.3953,12.8380,-36.2881,-20.8582,31.8327,10.6735,21.1811,1.2407,52.8167,28.1813,7.3249,-51.7759,-69.9217,-8.4424,-42.7107,65.5813,25.0204,47.0951
19.1998,-40.0847,1.9204,-48.4438,-24.4618,17.2816,6.7001,50.5604,9.9711,25.3545,17.8842,-16.9950,13.7417,-36.3315,34.7079,-43.6950,35.1432,55.9996,66.0784
23.5306,-77.5905,-3.1846,-40.0333,-14.0225,54.9503,55.5252,65.2262,71.5451,40.5568,-11.7729,-42.9728,14.1280,-25.5319,52.9008,-46.0578,2.9852,91.4668,118.5099
13.4526,-82.4592,-21.1872,-10.4251,12.1584,80.7110,104.1577,67.0910,149.9889,95.4607,-47.8158,-54.8565,-11.0155,-46.7427,45.1666,-33.3913,-26.6188,123.0405,132.8547
-1.5663,-74.6394,-24.3592,13.8610,62.2925,57.0404,144.2928,68.4158,194.3292,143.1555,-78.0912,-69.5220,4.8421,-54.6131,54.2355,21.5142,-29.0681,151.7140,123.3437
9.6321,-61.8862,26.0180,12.1407,107.1515,38.8746,183.4436,62.5644,203.3936,138.4002,-58.1485,-72.0456,26.6135,-62.1942,78.1987,55.7703,11.7820,142.7765,137.9627
29.9827,-29.3981,88.3310,-2.7322,114.1727,16.7608,182.3204,29.5500,198.0519,115.9290,5.1708,-43.2167,13.9538,-84.3756,75.4003,38.7965,53.5134,86.4325,144.2104
33.3314,-15.7353,100.7979,-17.8287,82.7873,-43.1261,129.9786,-15.9977,172.2271,115.3967,36.0068,-15.6204,6.1586,-87.1857,57.0667,46.6223,34.8078,27.1572,91.5250
28.6625,-54.9431,67.8626,-42.5555,24.8365,-82.5531,58.7877,-45.9761,115.3815,99.1096,20.0094,-16.4795,35.3198,-73.3801,63.3677,86.8580,-40.7516,-20.6453,7.1501
21.5873,-90.9911,17.0555,-67.9295,-24.3338,-75.2608,-7.6721,-67.0288,46.4194,53.7381,12.9535,-18.7927,68.8451,-71.6417,85.8661,79.3927,-105.0531,-80.3075,-52.8392
7.4204,-63.6711,-35.4013,-62.5455,-31.8748,-81.8169,-52.8317,-95.5279,-17.9330,28.0260,25.0668,2.7873,64.4416,-74.9311,84.0681,33.6683,-104.0762,-134.8519,-87.2389
-1.3989,0.2168,-59.3291,-25.3224,-39.9800,-101.2162,-88.0359,-129.4843,-81.4330,12.4592,29.5352,32.3290,19.2696,-83.2380,39.5495,11.3360,-46.9594,-146.0473,-123.4210
2.5421,43.7902,-37.5677,20.0172,-89.2913,-83.3675,-135.2760,-154.6618,-120.2060,-37.5370,16.7108,39.2960,-36.3781,-92.6954,-21.5194,-6.9011,18.0130,-121.5929,-143.6105
8.4860,49.2871,0.9211,59.1194,-110.2266,-52.6837,-138.5659,-139.5891,-98.8627,-76.5601,-20.0759,17.7258,-77.5811,-58.7541,-54.5882,-41.4323,53.5331,-98.8623,-111.4233
13.5399,34.5453,22.7922,66.3979,-54.0319,-51.2505,-48.9858,-71.0143,-50.8250,-42.9475,-57.0592,1.0837,-102.5578,-3.9983,-55.1521,-43.6452,57.7548,-96.6096,-53.5412
14.6384,25.6972,28.3874,24.0557,-7.2039,-58.4201,37.0925,0.6968,-28.2786,16.2129,-49.5940,5.8698,-99.0373,-26.7941,-42.7943,-1.0886,51.3956,-97.3167,-19.8881
0.2835,24.0379,36.2494,-18.4525,-16.6677,-42.5819,34.1287,31.5759,-6.9611,26.0475,-28.6086,-11.9729,-44.1346,-106.2502,-4.4668,25.9600,45.9374,-65.9793,4.3467
-14.8622,3.2490,56.6382,-9.2537,5.0645,2.8463,21.0948,50.8470,35.6617,-4.5822,-45.7083,-65.6781,39.2592,-112.4812,54.3027,-1.0715,30.9036,0.0641,43.0958
-2.5037,-45.5790,77.1500,15.3527,87.8869,71.2851,67.4326,86.9429,52.7870,-25.9253,-58.6289,-92.4500,99.2311,-35.7309,75.9632,-51.0717,1.9879,69.3030,65.1491
27.4560,-96.9718,78.2435,14.5635,147.1341,139.7579,119.0085,119.8647,33.9538,-19.5083,-33.2877,-73.9317,124.4804,21.5061,57.5351,-67.4348,-20.9374,127.8708,55.4041
47.1085,-119.3038,60.8602,17.1421,154.2705,177.6289,128.3206,132.0540,21.2981,0.2932,-10.8846,-50.1068,124.8275,31.9720,58.1784,-45.3702,-34.4237,162.8167,31.2379
50.7501,-101.1836,34.8022,24.3600,142.9461,167.9597,97.8798,122.6342,2.9825,15.8422,10.7724,-15.4745,98.8538,38.1607,73.2976,-33.8660,-70.3679,134.8657,-9.2858
36.2856,-79.6454,5.1591,-14.6182,96.6635,134.8376,46.2824,113.6184,-31.2081,32.1945,37.0853,13.2791,78.1511,43.5890,73.8734,-26.9459,-133.1307,63.4373,-28.6334
6.6970,-114.2169,-10.9917,-89.2318,11.8798,137.2551,35.0093,153.2777,-11.9037,63.5654,-4.3554,-40.2605,101.6369,23.3438,100.7479,36.3143,-178.8471,35.6414,36.1751
-8.5578,-175.2061,-6.4085,-141.7560,-45.0773,165.3631,88.5914,214.2929,70.3268,94.3655,-76.2583,-117.6749,124.5345,-21.6451,151.0592,117.5091,-195.4565,45.4550,112.0057
-2.1023,-150.4019,-15.1527,-171.4217,-56.0988,117.3748,117.7279,183.3437,110.5988,96.8728,-24.0497,-62.8002,79.2063,-59.9629,136.5051,113.1700,-218.7894,-8.4501,70.3109
-13.5696,-32.0742,-58.0852,-194.5127,-71.1750,-17.9201,69.7067,57.2200,71.9327,81.0563,102.5528,70.1860,-0.2688,-63.8433,59.9079,55.7692,-245.3638,-118.5408,-32.1562
-48.2006,47.0470,-98.1278,-184.0117,-84.9660,-117.2785,8.9790,-38.3259,25.5420,77.0718,108.6293,99.0434,-42.5484,-53.2295,9.8040,50.7698,-233.3905,-170.3569,-62.5730
-57.3588,19.5054,-103.9686,-143.5723,-63.7945,-130.2452,-28.4706,-62.4422,3.1250,84.6631,22.0430,43.8602,-57.6337,-65.3335,-18.6908,68.9957,-190.1496,-142.4596,-39.2593
-35.0445,-32.2715,-88.9829,-121.0529,-45.8754,-107.7668,-59.0126,-59.6772,-10.1200,80.7694,-7.6507,23.0176,-79.6907,-77.0798,-65.5074,30.2118,-144.3718,-100.4106,-19.2017
-26.8137,-16.6857,-62.3380,-96.0380,-63.2661,-57.8783,-63.0306,-28.5280,-1.4904,59.0890,-3.3082,13.6993,-87.9128,-49.0678,-77.5589,-27.0861,-65.7125,-56.2802,15.6491
-36.7467,68.0529,-20.6612,4.8959,-68.6926,5.0552,-49.6658,7.2738,22.6581,32.1884,-27.8694,-15.6919,-70.8741,-14.2129,-32.8399,-39.1928,72.6224,-1.7257,39.7335
-27.8512,158.1617,20.9927,155.3853,-37.7390,17.7656,-79.2407,-12.8770,13.4542,3.6915,-32.3534,-5.7545,-69.2397,-7.2817,-14.9174,-29.4330,206.1311,32.6418,11.3204
1.7627,183.7561,49.9418,232.6484,-5.9959,8.6835,-132.8516,-36.1487,-35.9947,-29.8949,-3.5584,34.5883,-93.6012,7.7011,-46.1646,-27.7130,250.0848,55.2936,-12.2057
20.8343,137.9752,71.9999,188.1485,26.1888,55.0751,-135.0578,18.6222,-72.0000,-44.1344,11.5917,35.0403,-88.6594,37.3804,-47.3789,-18.1565,199.5744,110.6890,3.8488
17.7940,74.5126,82.9394,92.8995,82.4499,112.0872,-88.3698,85.8379,-56.7033,-9.4726,22.8680,7.5721,-22.6994,28.3485,1.6577,3.2694,106.5953,174.7672,0.1959
7.8423,20.8444,71.2933,17.3735,136.3076,108.9541,-34.6866,86.3736,-6.4269,35.5967,45.6954,-5.3724,56.5119,-3.9241,38.8517,12.0924,22.0250,197.3678,-22.2648
6.6720,-25.8178,45.8281,-25.1825,160.2372,72.5822,16.1954,54.2643,33.1625,26.4620,57.4618,-6.1917,91.6594,2.8154,36.3636,-5.6759,-25.4527,197.7721,-6.7562
12.3947,-42.6894,22.4993,-44.7302,163.4028,25.8053,42.3880,14.4005,27.1914,-8.3496,67.1745,5.8723,86.7013,10.6128,19.6962,-25.8277,-48.3725,198.4500,20.5600
10.0281,-30.6343,1.5008,-73.1922,132.2364,-26.8384,29.4985,-30.9803,-18.1968,4.4466,78.6219,22.7770,68.7807,-43.2345,5.5626,-3.8916,-85.4694,171.7716,21.6163
-7.7281,-44.8258,-26.0930,-139.8513,56.7007,-27.1519,26.9280,-19.8332,-53.0644,48.7396,45.4115,6.1208,36.2197,-96.9617,-15.6238,54.4170,-142.6550,125.6965,35.7310
-34.3999,-91.0437,-61.2862,-198.0817,-5.8167,33.6968,64.3743,60.4819,-22.5240,75.2683,-30.7955,-38.6973,-4.2831,-75.7739,-46.2893,84.8694,-184.0968,102.4503,74.6848
-56.3747,-102.4712,-82.3755,-169.9510,-17.4910,75.5847,87.2042,117.0091,62.7199,102.2612,-79.4071,-62.1229,-16.3896,-21.7512,-55.9733,67.5186,-177.3092,80.6558,86.3525
-55.5931,-48.8608,-58.3181,-70.1434,-27.3870,73.8338,55.1534,104.4573,112.7681,129.3441,-69.9490,-49.1508,-5.1700,12.2796,-25.4209,47.3827,-112.6896,20.6392,49.7250
-32.0763,37.3024,1.4404,22.2295,-64.4010,60.1043,0.9638,63.3805,67.3906,99.0835,-34.2196,-14.4270,-21.0694,30.5080,-5.6581,39.4445,-13.2885,-45.6843,-11.5815
-16.9158,100.1186,38.6599,68.3074,-92.7142,30.2221,-42.2465,28.2433,-17.3708,34.8046,-11.6855,21.0507,-53.5922,21.9844,-45.2093,32.5690,52.0686,-81.2257,-62.6279
-23.9350,73.0864,9.2928,54.8777,-106.8122,-8.1826,-68.2876,24.1826,-51.9603,29.1924,-21.2213,24.0741,-39.4134,-7.3985,-82.2817,48.4133,25.2061,-98.4778,-63.4697
-25.7004,-37.7851,-67.9560,-20.7940,-124.6651,-24.7788,-55.1273,56.4394,-27.2979,67.4064,-38.9478,-1.5263,13.1999,3.5745,-37.4735,83.2845,-58.1737,-92.6727,-13.3616
-11.3871,-111.3246,-128.4805,-96.7702,-112.9766,-28.8397,9.3920,75.2918,4.5936,59.0768,-23.1518,-6.3172,41.6522,47.7022,38.2562,79.8720,-105.4369,-46.8845,33.5467
1.0779,-83.6425,-125.5888,-102.4524,-55.2111,-22.2109,71.4009,50.9845,5.0836,9.4362,21.9363,21.9342,37.9499,42.6509,49.6033,28.0973,-85.5927,-2.8582,33.0500
17.9702,-48.0131,-89.0919,-63.8996,-20.7777,10.6644,63.8876,15.0052,-24.1382,-18.9936,61.8502,54.5802,24.2576,1.2126,11.5167,-16.5163,-48.8120,-6.6818,-14.8675
47.1914,-77.4283,-82.3823,-42.5495,-54.8286,31.6043,2.7478,-5.1835,-56.2651,-26.3758,73.1499,72.9068,4.5752,0.0846,-7.2665,-21.7876,-35.6590,-26.0578,-73.5674
56.5882,-122.1364,-91.9671,-36.5811,-88.2097,25.8703,-38.4803,11.9455,-77.5793,-23.2803,32.8550,49.6311,6.1067,17.5017,-0.5828,10.5511,-26.9663,-11.1133,-89.8413
33.1106,-125.7085,-58.6902,-22.7792,-49.6304,49.5132,-31.8203,71.2142,-97.1373,13.1883,-43.0682,-17.3875,42.2767,5.2732,5.2483,63.8406,7.8406,18.5597,-70.4049
11.2182,-70.0650,-17.7368,-1.7262,4.1751,76.9538,-20.7869,89.4681,-115.6132,45.3563,-63.3694,-38.8204,48.3651,4.5175,4.1538,81.5879,60.8574,3.5425,-88.8448
4.3877,44.8276,-50.2701,30.2817,-35.4484,26.8221,-58.9137,-1.6072,-130.7828,-5.1674,20.3142,46.1059,-8.1908,41.8646,-9.3502,25.8393,106.8122,-64.4834,-148.3993
0.3904,145.0126,-113.9438,68.0833,-150.2594,-45.0491,-138.9246,-112.3676,-150.1637,-95.0451,114.7545,139.8207,-57.5795,64.3882,-35.6018,-37.0779,133.6031,-113.2412,-167.2266
6.3357,138.5952,-107.6862,75.0787,-201.1393,-50.5786,-181.2344,-136.8823,-153.8628,-93.1555,111.3343,133.8948,-72.2394,40.1061,-53.1796,-20.3186,127.6712,-84.6668,-133.8983
15.6248,62.3077,-57.7671,31.5372,-132.4972,-46.7578,-138.4960,-107.9828,-114.2428,0.4672,33.9175,69.6562,-98.1632,-12.6634,-52.5569,50.1826,73.9353,-31.3043,-109.3827
-0.0855,6.4196,-53.4540,-37.0552,-46.2423,-84.7616,-91.1921,-86.1639,-66.4086,57.3297,-20.3006,28.6960,-109.4037,-71.1880,-43.4336,83.1645,-8.3235,-32.2124,-107.0490
-20.8590,-36.5287,-74.5935,-98.1406,-31.0063,-103.6516,-125.0516,-74.0499,-66.5671,37.7592,-18.6056,10.5162,-57.0425,-102.4068,-23.8636,57.6580,-76.6014,-63.8376,-117.6740
-3.2572,-95.1321,-53.4087,-138.6350,-56.5260,-82.0627,-168.8792,-65.8544,-107.3362,14.3075,-8.1145,-6.6214,-9.6395,-83.6532,-0.2201,33.0304,-119.4581,-66.6032,-139.4172
27.6700,-134.8642,-19.9465,-162.3251,-70.9308,-53.5557,-117.3330,-34.2434,-139.1666,17.1061,-26.1661,-17.2002,-35.3126,-35.8290,-2.4915,45.6112,-154.8424,-55.8714,-104.0930
18.0406,-143.9699,-45.1303,-180.8412,-68.6586,-5.0875,-19.9896,48.0924,-119.0250,28.5749,-51.8982,-24.1184,-72.6152,22.4724,-24.5520,60.4290,-189.2237,-66.1513,36.1694
-22.2900,-145.7533,-113.4461,-193.5652,-56.8707,52.7088,18.2469,116.5747,-46.4049,53.3628,-54.6612,-32.9185,-58.8825,80.4225,-17.1979,43.6673,-215.7771,-87.0150,157.5412
-48.7965,-127.9945,-152.7052,-185.2063,-49.1663,54.1868,-0.1782,92.6264,4.6383,78.3082,-41.2359,-33.2112,-20.2432,82.6842,21.8219,22.7347,-226.4837,-102.9486,131.7662
-50.8665,-92.0891,-142.7232,-156.4596,-59.2985,2.0474,-23.6512,11.5839,-16.9947,76.4355,-34.5222,-28.7522,10.6210,-0.5198,38.0266,27.6785,-214.5514,-107.1265,45.7671
-44.3722,-85.4311,-124.8383,-132.1714,-68.7828,-41.9039,-39.0466,-54.5816,-38.0231,70.5135,-41.1967,-33.3273,20.2925,-81.5127,13.1730,38.1380,-192.9160,-96.1398,23.1530
-38.4859,-108.9770,-119.0777,-127.2351,-61.9573,-58.8020,-47.2167,-87.2063,-0.3965,69.1871,-48.4317,-34.4280,3.0414,-66.8139,-14.1835,33.9775,-190.0165,-94.2501,8.2422
-33.4481,-113.9284,-97.1625,-130.7523,-63.8985,-49.3857,-55.8433,-84.9797,29.4870,32.0486,-40.2044,-22.2228,-6.7149,-1.2402,-14.7888,26.9480,-205.6324,-114.6248,-66.6714
-33.8619,-91.7961,-58.1525,-133.9738,-86.1637,-18.0184,-86.6899,-66.3341,8.7418,-16.3927,-23.1535,-17.9306,11.0702,13.3754,-3.0536,24.6975,-209.1723,-121.9718,-130.2931
-45.7109,-64.4658,-53.4492,-143.3971,-108.6381,-11.7714,-137.6048,-72.7139,-30.5555,-20.4922,-19.7452,-23.4093,7.0366,-23.4716,-15.9048,25.8458,-185.2538,-102.8763,-136.7020
-55.5427,-42.9973,-86.5210,-146.5255,-129.5560,-51.2831,-176.8924,-99.3194,-83.4921,-25.6658,-34.4926,-16.8525,-38.0316,-37.5939,-66.0031,30.6768,-138.9455,-84.2257,-132.1717
-39.9248,-40.4632,-82.5679,-106.7203,-138.1897,-82.7496,-173.7801,-114.1612,-121.9222,-60.1142,-62.2875,-17.2695,-74.5314,-20.0806,-112.7751,24.0634,-72.3694,-59.0066,-108.5259
-3.6230,-46.1046,-17.6801,-25.7402,-91.8250,-87.2265,-120.1691,-127.3929,-92.6168,-44.5056,-97.0445,-44.7924,-92.9999,-25.9353,-111.8947,-4.5470,11.7134,-16.3799,-41.8569
29.9885,-18.4485,37.6765,48.3929,-8.8764,-105.3084,-59.0593,-141.6401,-72.5067,2.7232,-104.6232,-48.5984,-116.8795,-43.5403,-80.4921,-31.3704,102.9135,4.7517,-13.5408
53.1179,34.3505,49.6297,101.6129,31.2860,-118.8796,-43.0100,-121.0684,-142.7314,-37.6355,-71.4427,-5.6198,-117.2133,-8.3987,-57.1175,-38.2097,180.1044,1.8243,-61.2417
60.5845,58.2208,60.4235,156.1890,30.2414,-72.4134,-35.3901,-70.3924,-176.3568,-122.3285,-58.3283,7.5785,-74.7357,50.4410,-35.7528,-44.1368,207.8868,29.8067,-74.5345
51.1824,50.9013,81.3908,196.3493,52.9955,1.9048,25.7146,-38.0693,-83.8917,-139.3016,-81.7874,-28.4534,-33.6368,49.0294,-3.2761,-71.7633,176.0739,82.0474,-10.6320
56.5977,45.7685,83.7885,194.9648,79.1155,32.1223,85.4058,-39.2583,-17.9215,-154.0696,-49.8469,-16.7060,-17.9831,8.6616,13.8777,-119.9920,133.4641,98.8733,25.5767
91.7656,43.0881,75.4416,176.6229,50.6912,27.3601,65.5011,-50.2093,-69.2171,-219.8329,52.8587,61.5883,-10.7879,-1.5064,-6.9347,-156.7496,121.9818,76.2025,-0.8136
105.0124,42.6565,69.5603,163.3380,3.6193,26.8690,12.7572,-46.0255,-121.6493,-217.4499,110.2232,108.6710,-7.4688,3.6816,-41.6371,-140.4395,109.0589,37.2442,-22.8924
65.0238,52.7674,37.3271,127.8724,-14.6400,6.0910,-14.5178,-27.2795,-111.4716,-126.2646,94.8963,102.2493,2.0175,5.7391,-47.0036,-88.3353,46.2225,-26.7864,-38.7882
23.7961,38.8536,-25.9588,55.5157,-46.4333,-63.1916,-54.2288,-28.8289,-79.5357,-82.7451,99.0101,105.7405,32.3953,41.6533,-11.5989,-58.0783,-54.8373,-112.5682,-81.6720
19.0365,-22.2693,-76.8950,-27.2242,-118.1842,-142.4402,-119.5847,-68.7572,-44.6212,-91.1566,129.0820,121.1905,52.9994,80.0561,24.2976,-38.4579,-149.1799,-189.4324,-123.6591
16.1818,-70.5730,-101.8781,-90.8793,-173.7287,-190.3819,-157.9146,-114.3688,-46.4085,-56.6321,111.4946,109.9044,30.8126,31.4871,13.4315,7.4336,-205.6778,-236.9406,-140.8279
-9.3117,-53.3205,-119.1585,-116.4869,-182.7868,-211.2794,-162.3477,-143.8289,-111.7133,-25.6810,47.6127,75.0058,-10.4440,-82.6978,-28.6532,26.2497,-207.0465,-242.3389,-138.0554
-34.7560,-11.2196,-116.1539,-104.5871,-174.0016,-207.6643,-158.4031,-168.4105,-148.4322,-80.9718,-14.3515,27.5200,-40.9323,-153.9850,-48.2473,-23.8449,-149.8485,-204.1243,-101.8173
-42.7753,2.9083,-72.7180,-76.5602,-150.0660,-181.1749,-136.5209,-180.5495,-93.5976,-158.9331,-63.2029,-27.7978,-60.7680,-146.6561,-48.0801,-65.6815,-54.4464,-147.4748,-41.4081
-35.8316,-3.9511,-6.1675,-40.6994,-91.1147,-169.2885,-99.4303,-170.1325,-24.8147,-157.6804,-95.8872,-65.3010,-71.1983,-104.9784,-72.9871,-51.1790,34.2065,-91.7576,11.2010
-18.2898,-13.7297,50.9551,-6.9047,-5.0712,-185.5524,-59.0180,-153.5324,7.4029,-72.6758,-102.7070,-74.9033,-76.0203,-75.2413,-105.2413,-40.1396,65.2216,-40.9418,71.9498
-0.6092,-26.2741,71.9689,-9.5244,94.6088,-177.0034,19.6172,-130.0183,34.4966,24.8419,-89.7230,-76.2157,-75.5125,-82.1332,-77.2991,-58.5451,39.3883,-6.6387,145.4893
9.6226,-32.9863,56.2426,-27.1539,190.2493,-111.9474,131.6279,-89.0696,59.9097,58.6262,-66.4304,-76.1483,-45.2363,-107.8557,3.5172,-82.8296,35.3314,24.4354,175.8264
28.1661,-31.2478,64.0637,27.6614,243.2771,-20.4014,183.1650,-48.6306,78.0010,22.1404,-40.1407,-72.2346,13.4377,-96.8342,44.0504,-128.0072,114.1262,88.7657,159.9492
76.6761,-40.5400,149.8784,157.2368,253.4278,69.4649,149.7959,-13.0106,93.9715,-32.0435,-14.8579,-62.7107,52.3225,-34.0765,11.8389,-181.3904,229.0889,158.5456,144.9930
143.8770,-52.7866,254.2969,262.3311,256.8197,129.2229,119.7762,25.6112,66.9287,-95.0740,23.2830,-28.1639,61.5459,25.2250,-6.2409,-181.4334,297.9490,160.6093,99.8311
184.2821,-25.3697,275.0211,297.9936,228.9962,117.3407,117.5062,32.5853,-19.7933,-177.4329,75.6627,32.5696,77.7179,38.4771,43.0247,-141.7138,300.2336,102.0667,-5.1071
168.2879,26.6124,205.7660,283.9275,135.8273,59.4560,88.6760,-1.8473,-94.0074,-212.5076,105.2054,75.7526,96.2420,34.5174,80.4443,-119.0934,248.3727,56.6614,-81.5401
121.3966,24.7160,106.5385,225.9440,48.2143,34.3350,51.8995,-13.3092,-103.2472,-150.3900,88.2055,76.7449,89.2895,58.1053,45.2373,-94.0721,158.7247,45.4957,-66.4741
88.0758,-33.0217,27.0879,156.9589,30.9134,44.0279,58.9374,15.6819,-75.3468,-67.7890,47.2448,56.0477,74.2219,93.3102,8.1699,-43.0904,81.6467,39.5545,-23.3439
73.9420,-53.8478,6.7529,123.1566,32.2373,32.8269,74.8974,25.6936,-58.3253,-42.6251,16.9093,31.8179,73.1099,87.4851,25.6483,-8.1580,54.5112,36.2703,-4.5415
56.8016,-15.4551,33.1846,88.4558,24.3250,-0.4828,60.9896,6.8299,-74.0770,-39.1077,14.9759,13.1138,71.3552,33.5943,45.0057,-6.2660,37.6584,50.4744,11.5472
27.6932,8.6699,32.9612,14.5930,49.1092,-30.1466,54.1946,-4.4079,-82.6792,-11.3977,22.4785,0.8641,61.9239,-27.8805,40.5447,-12.6304,-4.8967,69.8285,38.4867
-5.8891,3.4163,-0.0490,-33.7591,67.9353,-48.0621,68.6949,-5.7774,-27.2691,4.1316,-0.6939,-28.0241,61.5858,-65.7731,58.8640,-22.8509,-28.7794,72.3600,70.4630
-32.2106,17.2549,1.7085,-17.9469,21.5769,-29.3858,67.4435,7.3642,46.7400,-30.2332,-41.1054,-70.9349,72.9777,-64.5823,94.6366,-31.4501,-7.0980,63.3189,101.5562
-48.8226,43.1704,15.0847,-11.3515,-17.9208,19.0779,50.1654,45.9989,58.4218,-63.8692,-47.1663,-79.7559,73.2224,-28.7751,91.9648,-27.5597,2.2329,57.9374,105.3866
-70.2910,51.3608,-30.4781,-50.5582,3.6364,27.2234,31.8231,72.1991,34.5499,-25.8123,-33.0631,-50.8876,44.8829,-9.1702,44.6346,-22.3229,-30.0620,47.1785,69.2840
-94.9541,60.3503,-79.7507,-73.8951,0.3575,-4.0911,-4.2220,67.2616,19.2127,46.4053,-42.0546,-33.7535,9.2216,-37.7349,-9.7358,-4.3713,-48.8479,20.7158,28.4420
-90.8386,76.5634,-61.6738,-47.5400,-57.5776,11.4969,-35.8292,78.4610,-6.4024,52.9845,-48.9619,-30.2532,-1.7169,-56.6013,-27.7649,39.9289,-27.8712,-3.8913,14.2092
-58.6533,80.0537,-45.7048,-4.3120,-83.0180,63.0582,-14.2453,107.5347,-20.0583,-2.6763,-31.1505,-9.4737,-8.2035,-20.7059,12.3904,51.9977,-9.9361,-15.8328,19.3816
-44.5823,82.5914,-83.0777,27.8316,-70.3376,65.1161,18.2233,100.0322,6.8834,-40.1115,-29.7053,11.1294,-41.5410,8.7339,52.4235,2.1760,-11.6508,-27.6948,22.9999
-53.5812,84.6070,-96.6776,42.6329,-87.8075,44.9336,-13.4383,73.4313,15.9196,-50.4738,-48.1800,7.7184,-61.4450,-18.0738,21.1201,-27.8760,-7.1785,-35.6497,8.8077
-44.2095,55.7702,-55.8879,39.0548,-117.6417,69.9662,-71.1351,86.2588,-13.4454,-53.6695,-39.2447,1.2720,-31.7594,-50.3233,-25.8566,-8.3655,4.3280,-26.1703,-18.9758
-17.9693,28.1865,-23.6278,28.8433,-108.7715,93.0460,-74.8895,110.7538,-27.6038,-14.0832,-13.9167,4.4822,-8.7480,-41.5332,-11.4995,-11.2175,14.3119,-4.2578,-31.9767
-6.7619,57.5909,-4.0654,33.5081,-69.0455,66.7281,-36.9105,84.4772,-38.8950,55.7280,-13.0873,2.5183,-33.1835,-10.6560,3.0131,-32.9743,43.7786,39.6787,-17.0176
0.3595,101.7016,40.0415,61.0477,-7.9586,38.3557,-8.9175,25.5085,-63.6831,67.3158,-13.7557,1.2334,-56.9464,23.0171,-32.6962,-22.3115,95.3899,115.9839,-0.0874
23.0813,110.3845,90.0738,90.3859,76.8141,21.5087,-0.9986,-8.8653,-50.1104,10.4121,21.7104,20.7131,-51.5622,47.7975,-42.3782,-31.1208,136.6158,175.2231,-20.2261
40.2140,131.2206,136.6852,94.9951,162.4902,-18.7656,-3.7747,-14.3254,-33.0906,-36.5670,72.6745,48.4553,-36.6316,32.8821,-10.0173,-96.8332,163.9082,182.5170,-86.7319
37.2718,178.0655,201.4893,87.5304,231.4135,-43.6633,-1.4000,-19.3846,-82.8254,-39.2521,94.5730,48.0375,-5.8060,-16.7313,-14.7585,-133.9372,195.8314,195.8504,-143.1725
32.3270,175.5578,244.2290,96.0892,264.7513,-1.7948,27.2396,-19.5168,-106.2464,-23.2143,72.0386,10.6199,36.9370,-38.7008,-32.1896,-102.5295,208.8807,240.6303,-113.9604
28.3414,119.6456,212.9948,99.9946,225.6138,58.2315,73.2283,7.3372,-25.8980,-29.2309,30.0230,-30.0986,54.8734,-2.4395,13.9967,-65.2936,173.6198,240.2951,-25.4672
11.3586,88.1975,153.2307,68.7112,144.8454,77.9243,105.6332,47.6959,39.5558,-79.2276,12.0325,-40.7454,64.5777,52.8294,74.2694,-34.0907,116.1939,169.4632,19.0785
-5.9297,88.0932,124.2161,34.7719,111.8682,75.0085,109.8705,72.4512,18.3394,-109.9309,33.8578,-21.6137,101.1574,93.7974,80.9178,16.6109,66.9024,98.9035,6.5459
-2.8875,75.9930,96.6987,34.8634,114.6460,74.7314,85.5364,77.4256,-9.3082,-45.0282,68.3841,12.1660,117.4991,125.5743,65.5173,43.9268,19.3679,56.7702,4.1916
4.8740,67.7145,36.2151,41.4572,59.7595,69.5280,46.9713,60.6976,-22.8610,33.2295,83.4474,47.5344,70.9816,139.3367,44.6294,17.9167,-15.3455,14.5277,5.9805
-6.3574,90.2861,-17.4006,28.7596,-41.4400,45.1761,16.6929,19.1468,-53.9094,-0.0299,73.8632,68.1755,15.1461,113.9798,1.6027,-7.5814,-15.6220,-28.9521,-34.7921
-22.4940,114.6716,-19.9540,19.1255,-90.3958,-8.4009,-13.8962,-16.9931,-66.3841,-63.5887,58.1682,68.2842,-3.4281,74.0254,-21.1697,4.2280,-11.7627,-63.0297,-77.7644
-19.9945,111.1523,8.9946,22.1361,-66.6731,-66.8682,-50.5307,-27.1202,-53.0575,-12.5932,50.2571,58.4563,-11.5636,62.0802,-4.1315,23.6254,-30.1304,-85.5384,-59.5812
-6.5473,89.7633,27.7515,15.3989,-31.9578,-82.7709,-50.9900,-44.4403,-53.7719,80.1139,40.7767,44.7535,-36.0404,67.0756,-12.3199,23.9898,-26.4890,-83.5777,-11.9998
4.1629,60.7611,37.0820,-5.2307,-22.7342,-73.8946,-23.2045,-79.3719,-46.5497,70.2853,22.3060,27.3202,-66.1751,54.4752,-52.9608,13.1722,20.7841,-64.8170,-1.9061
11.7792,14.4517,64.4130,-18.5497,-22.9427,-88.8083,-49.0916,-82.0390,-6.4780,18.5590,-6.8669,-6.7357,-64.9271,24.6970,-45.5940,8.0504,53.2166,-50.0998,-18.2518
3.7323,-46.7302,99.3435,-10.5559,-9.3404,-80.4121,-105.7410,-22.8715,35.8467,53.9263,-69.4885,-86.0360,3.4644,-6.3692,20.3110,9.6144,47.2720,-21.8716,2.9526
-24.5674,-85.0362,101.2872,9.8584,9.5547,19.0804,-76.6954,81.4913,65.6118,116.1200,-145.0854,-173.9631,96.4374,-17.2302,69.8245,-4.4275,50.1149,23.8165,66.8253
-34.7598,-62.5116,71.0290,22.7093,10.3039,149.3981,11.9906,190.5231,63.9088,83.4204,-131.5820,-158.6506,113.7466,19.7941,62.5536,-42.2337,68.2881,41.4037,101.1839
-7.9633,4.3499,46.9358,35.2028,4.8503,213.1270,42.5680,235.7309,3.5846,18.4727,-18.4350,-38.1159,50.6847,74.0277,11.1993,-65.1874,69.5105,29.5599,74.6476
6.2645,58.7524,31.2309,76.3843,15.9820,211.6899,39.7762,200.5669,-40.4437,39.2358,40.3688,37.8768,3.1444,74.7347,-45.0008,-39.5842,64.6873,27.1631,51.3897
-24.5833,68.2056,-12.3769,119.8462,12.7764,189.0786,78.1849,178.4240,22.1876,86.3857,-17.8213,11.6485,10.8641,44.2332,-41.2892,10.2418,57.5514,7.3224,72.3400
-63.4266,44.2615,-89.5013,95.9193,-33.3327,172.4149,113.4296,219.2048,119.0377,72.8029,-66.3829,-18.4056,36.8988,60.7518,38.4424,44.7429,7.6336,-58.1249,85.1003
-79.9691,15.4615,-154.0725,20.2984,-68.3765,181.6870,109.7343,245.1522,137.0552,73.7673,-49.7276,-11.4104,59.6023,98.7744,108.2830,65.3402,-69.7711,-104.9375,47.8559
-79.5090,-1.4718,-165.1276,-15.4211,-48.9432,190.1300,107.5506,219.6740,89.8750,127.7933,-42.2192,-8.0047,74.2037,96.6011,97.3975,98.0297,-105.0221,-96.3242,-1.6832
-57.8703,-18.3454,-143.0176,-2.0070,-35.5124,148.1690,93.1045,195.9711,31.8729,132.1909,-41.2081,5.3927,67.8607,92.0812,52.5158,146.3784,-100.8504,-89.5381,-8.3170
-23.1068,-45.5732,-137.7519,-9.1285,-68.7128,84.9601,43.7120,177.2253,-8.5345,107.8944,-3.5568,39.4682,41.0359,114.0914,38.2529,175.2049,-109.1644,-97.2040,41.7601
-14.9246,-54.4485,-144.4769,-39.8761,-72.5118,58.5163,24.2031,140.6625,-0.8191,173.0858,13.7830,39.5443,7.3151,101.0858,35.7371,146.3853,-122.6404,-69.4890,109.5671
-39.6664,-34.0452,-120.7134,-49.3393,-8.7000,49.7677,44.9360,117.3233,38.7018,219.2451,-26.2230,-4.1390,-11.4457,41.4220,18.4377,74.5945,-115.7008,-27.5663,135.1478
-62.5309,-38.4781,-81.7318,-50.7865,25.5983,30.5365,20.5087,104.4395,59.5874,85.3168,-71.9725,-52.6874,10.7789,1.8043,15.1325,19.8318,-102.2035,-27.4790,113.8255
-79.0802,-82.9850,-72.4246,-59.8912,-21.1703,23.7287,-39.8645,63.0005,65.6549,-89.4648,-131.8788,-117.8923,53.2994,-8.6280,32.4323,8.5048,-77.8854,-35.5023,88.4388
-108.0549,-86.9566,-73.1365,-29.5849,-56.9061,27.9794,-52.7893,26.9312,61.7113,-126.0443,-253.5487,-205.4426,50.9424,-29.8765,21.7066,2.9186,-16.5328,0.7979,57.1038
-135.4633,-17.0130,-49.1243,53.3783,-30.7970,20.3924,-40.7157,30.0336,9.7991,-89.2041,-370.5111,-253.8058,-3.0502,-59.2019,-36.3732,-23.3281,58.9602,32.6685,-1.8229
-137.2411,44.1393,-29.2529,123.5870,-14.6775,14.9441,-62.4997,20.0834,-64.1045,-33.9005,-382.8098,-231.7085,-32.1765,-78.2289,-95.7353,-30.2336,95.1745,-12.4203,-57.1790
-118.4763,41.6133,-42.0919,139.7718,-34.5410,9.7657,-89.1182,-21.4093,-91.6947,61.3619,-303.5348,-173.9862,13.7030,-90.9070,-103.6319,19.7000,76.4481,-105.0489,-94.8746
-91.0034,15.1587,-65.8204,117.1688,-30.4192,-24.8110,-90.1303,-47.3799,-97.3510,73.1122,-203.0350,-106.1357,81.0327,-106.4175,-57.9714,82.7964,29.1734,-157.1743,-150.9467
-54.6302,-2.1192,-83.6353,70.3568,-2.1206,-64.5776,-83.3436,-63.6889,-128.4355,-60.8266,-124.4077,-39.1471,66.2564,-138.7433,-20.3608,89.1213,-5.4574,-144.6064,-200.2145
-13.7837,-13.6749,-88.9262,22.6366,-2.9447,-68.0268,-68.9294,-92.4543,-137.7174,-141.6098,-75.2089,11.0462,-44.1266,-181.9187,-46.0164,40.7201,-2.6474,-120.7824,-173.5686
22.0042,-7.5222,-57.6888,10.4666,-19.0592,-58.7285,-41.6276,-93.5300,-79.7682,-89.9983,-8.2418,57.7449,-121.1992,-195.0846,-84.8928,-7.4881,21.7204,-123.5210,-97.1324
56.0469,19.6886,0.7243,21.4892,1.9435,-69.0905,-8.4674,-61.7114,-0.2729,-78.9401,130.9987,130.5909,-70.0271,-178.0812,-58.0030,-28.6270,38.8596,-119.2077,-49.5959
98.2645,32.2758,36.9744,13.1722,63.8531,-93.0026,41.8919,-57.5150,43.6266,-126.7070,297.1892,220.1604,17.5153,-182.8919,-15.7458,-33.3003,39.1958,-61.0285,-35.3857
141.7017,5.3105,49.3854,-13.0080,133.5005,-122.7151,92.4650,-79.8711,49.2915,-102.1579,391.5550,281.9155,29.9573,-208.0242,-43.8125,-26.2650,26.4093,28.1783,-15.7936
173.2523,-49.4525,85.6845,-37.6678,181.2099,-131.3173,96.1354,-63.2060,48.3967,-56.0550,410.3766,288.6909,16.5519,-203.5783,-85.4442,10.2162,30.9064,81.2460,24.3299
204.2587,-108.8927,153.2292,-59.7990,205.6522,-80.2187,81.2443,0.6858,68.9887,-70.0954,432.7755,269.7389,45.0638,-173.6603,-60.8686,77.3386,92.5739,87.9323,74.6073
246.7787,-135.2090,211.2464,-54.6828,232.4479,-9.2791,101.1919,52.8537,96.4965,-59.9147,488.6270,282.4834,68.2343,-152.3600,-25.5102,113.9262,179.8509,102.4593,94.1618
273.0039,-87.5995,237.2780,6.6990,259.2039,9.2080,114.3358,54.0585,95.7416,-20.2633,536.7890,328.9958,49.1660,-131.9260,-37.2738,61.9559,222.8554,142.2909,63.5831
255.0511,9.4634,240.7146,85.5309,256.6147,-1.1341,92.8949,25.2198,92.8413,-67.7238,546.7436,355.5185,27.5522,-98.4310,-51.1704,-14.5495,230.5156,159.4445,42.7952
214.6369,67.2314,222.3239,117.5860,242.4196,11.2133,97.9125,10.2077,148.2541,-154.1898,529.6402,348.0103,22.2031,-67.3308,-39.0153,-3.4649,233.8502,124.1748,65.1700
185.1867,43.6177,170.5644,98.9488,244.1608,13.7149,118.5641,13.1859,233.3174,-120.2236,503.4317,339.2739,16.0642,-51.3226,-27.5167,72.9653,194.7860,59.9465,66.6061
176.1283,-9.0630,111.9399,71.2359,227.3701,-24.5324,79.5293,2.6575,253.3170,31.9814,475.3788,335.0411,1.2236,-42.6175,-24.0146,115.3298,123.0548,-3.4873,36.9690
189.0531,-32.8798,103.9314,69.0464,185.2684,-61.4127,29.1679,-24.7062,203.9371,167.5035,451.7475,322.4434,-25.5641,-26.1602,-32.4275,123.3558,113.7078,-45.6555,59.2759
205.8169,-34.3858,138.1605,89.1626,178.5003,-71.4014,52.2698,-43.3950,179.1383,190.5502,434.1173,305.5725,-39.7562,-9.1659,-54.7643,139.4001,160.8813,-45.9975,123.4428
194.0624,-40.7208,146.7487,87.7104,198.0705,-80.9388,92.1513,-50.3913,215.2287,107.7559,419.5611,283.6390,-2.3255,-30.4836,-52.4594,135.8451,168.6095,-9.7094,136.1086
169.0845,-43.7151,137.1708,50.4340,173.3604,-101.8248,75.4151,-65.2099,254.2156,13.7818,413.9392,256.0963,42.4358,-87.2599,-21.8355,96.0723,158.4886,26.3424,113.3347
168.7668,-23.8276,168.9226,33.9568,128.6159,-121.6888,36.4396,-97.4274,267.7824,-18.8541,413.5326,239.7658,11.2774,-99.5817,-23.4123,63.3048,202.0701,37.4524,129.6296
171.7514,2.1238,204.3461,63.2093,132.8573,-131.7412,12.0287,-124.8478,286.6058,-11.8459,390.7599,233.2719,-61.8369,-36.6491,-56.6599,59.1695,234.2220,37.7103,157.5388
147.3839,-2.2085,173.3911,75.8237,157.2868,-123.2614,-3.2992,-105.9734,306.7324,18.4544,340.2690,216.7121,-84.1167,15.8394,-61.4228,77.0128,175.9915,58.7213,141.2905
122.0367,-34.9776,115.1742,36.3387,140.2630,-94.1299,-10.1068,-51.8541,289.0493,87.5469,291.1743,190.3100,-68.0686,-0.6283,-45.2132,106.7175,90.1306,104.6087,103.3132
106.3504,-58.5435,81.7269,-16.3678,98.1673,-58.0091,-18.8558,-30.1998,243.8936,154.9774,246.5213,154.8118,-70.3764,-34.7570,-41.8887,111.1628,45.7426,139.0517,82.9560
70.2906,-61.5521,47.9264,-57.5671,86.9613,-30.9953,-20.3026,-41.6903,224.5736,188.3564,188.2745,100.4368,-65.8559,-35.2437,-26.0676,86.1072,10.2366,143.9292,93.8493
27.8875,-62.8133,22.9851,-80.7462,124.3092,-25.5673,33.1478,-20.1106,255.0801,217.6088,135.3208,47.8998,-20.1174,-5.8444,9.1693,91.7898,-35.9442,153.3567,137.2466
16.5435,-58.6122,47.6461,-51.9510,164.9685,-36.8555,114.2920,18.2538,308.9612,212.4175,103.5563,25.1348,18.5983,50.2235,19.8649,120.2482,-49.3273,181.3428,171.1998
19.0374,-36.7985,72.4276,24.5950,151.1423,-27.6482,133.0786,13.8046,338.9648,129.1800,63.8900,17.8113,1.5793,123.2482,4.7322,97.0327,-22.3246,185.8929,144.4096
9.4259,-18.2219,46.3443,76.6647,98.2544,23.8064,94.3478,7.5640,322.5349,75.0869,17.7687,6.9028,-28.1383,167.9948,9.2022,61.5742,-2.7761,149.9456,82.2389
-0.9248,-13.7711,31.5880,72.2499,60.6009,80.9817,48.8235,48.4879,274.2077,142.1444,5.4267,-5.1327,-8.6547,160.7510,44.3029,107.1239,-3.2902,104.8687,38.1906
-7.5587,0.6639,71.6264,57.7681,38.3644,106.1071,-16.9994,84.9375,207.5538,209.0446,6.2243,-24.3552,25.9736,138.4078,68.7504,182.6184,15.6677,62.9717,12.9079
-17.6063,16.9681,103.1432,59.0021,20.1537,104.6737,-75.3322,86.1154,138.1961,157.7921,-30.8543,-49.4972,5.2178,138.5468,42.0486,188.0878,49.4368,21.6626,-2.2811
-28.6331,-1.7049,76.2115,44.8319,20.9160,81.9922,-52.5571,84.4520,111.4121,76.3061,-82.0106,-61.5149,-33.2408,151.5876,-7.6852,146.9669,29.3484,-1.2603,-2.5552
-48.6243,-37.5308,11.5537,1.0469,12.0473,39.4713,8.3138,67.1296,134.9936,81.4331,-104.1184,-70.6335,-1.5511,159.7717,-7.8398,120.7738,-47.1982,-4.9844,-8.4632
-78.9247,-47.8995,-54.9596,-42.3951,-39.1465,9.2028,28.1888,16.3828,145.4830,133.9971,-115.4694,-97.3745,68.8672,169.1623,39.3282,107.7323,-89.9554,-13.7171,-26.0636
-94.8213,-39.9396,-98.5550,-64.7107,-91.0551,3.2141,44.3253,-19.8248,127.3852,117.0559,-128.4132,-113.9803,90.1403,169.4373,67.5897,95.5947,-84.0083,-29.6743,-25.6797
-99.5735,-27.1818,-129.8042,-74.6162,-124.4611,-21.1089,79.1038,-25.1502,140.4658,19.2502,-120.7185,-93.4084,77.9710,125.4096,75.6954,83.2671,-116.3939,-41.6381,-23.4383
-123.4866,-3.3911,-183.4032,-78.9704,-171.3571,-67.7234,67.8157,-34.2994,183.1740,-26.5292,-113.9968,-69.0705,73.5336,56.4537,89.2212,56.2659,-191.7850,-50.8176,-59.8310
-151.0436,1.9572,-235.4236,-83.1575,-192.7307,-65.6912,15.1484,-28.9322,192.4946,40.7622,-147.3638,-77.7942,39.7752,43.7553,72.0095,15.1978,-221.4625,-52.7699,-89.9771
-148.8884,-36.7202,-230.0612,-104.9414,-148.4496,12.1292,-12.9962,23.8736,163.7217,85.2941,-188.4803,-106.7831,-22.2589,105.4175,27.0326,-5.6469,-189.8244,-40.7198,-52.3087
-132.7180,-68.6935,-188.6767,-132.2913,-118.2451,98.5639,-20.6014,86.2954,129.2768,39.0182,-189.4819,-126.1500,-37.2041,163.7728,21.5176,22.7116,-146.4042,-20.5867,-0.1795
-123.3404,-48.1840,-157.8222,-112.6117,-144.8820,132.7371,-39.2975,109.7525,96.8964,24.0877,-170.0052,-122.0369,-7.7965,173.4379,37.2341,73.7863,-103.8639,4.5972,-17.6955
-108.8162,-11.0375,-117.5757,-37.1281,-149.1421,117.8956,-74.6439,88.7461,76.7924,42.4733,-162.6815,-102.4611,-5.0765,169.3624,11.8219,82.9999,-67.7833,27.5539,-81.6588
-87.4349,6.7166,-51.2096,38.8322,-109.2144,84.0924,-120.7756,41.4789,71.0802,-36.7080,-163.8505,-93.0806,-19.8600,176.1636,-11.2364,53.4307,-51.3642,33.3464,-117.9503
-72.8330,22.0025,9.9813,82.1739,-73.5070,59.9070,-119.0022,8.1785,65.5180,-131.8582,-170.3447,-106.8024,-0.2805,173.5882,21.9507,59.6743,-32.2973,38.1272,-117.4094
-68.3229,44.5578,50.4039,92.6828,-30.2488,50.1829,-27.3405,10.2960,83.0805,-89.1760,-176.9315,-125.2777,40.1393,149.1681,64.8535,91.4704,-6.4115,63.4530,-116.7696
-74.1360,56.9287,70.0010,62.4250,21.1661,20.4461,57.2727,4.8783,136.3805,-11.6633,-160.8725,-129.7071,66.1951,119.7286,77.7591,65.2496,-10.8071,79.8801,-116.0199
-76.4170,52.4415,68.3739,19.1261,27.8138,-48.7429,56.9722,-41.4294,164.2772,-3.5617,-128.6697,-121.5398,69.1558,106.5032,73.7576,9.3908,-29.7278,64.0778,-87.1061
-48.1083,39.3405,76.5127,15.9610,5.3871,-115.0261,52.9350,-95.9204,134.9663,31.1637,-107.6596,-102.0825,43.8173,110.1478,49.5792,6.6627,-16.3294,40.2701,-52.5629
-6.5297,17.4617,96.8678,23.5966,-7.1978,-128.8034,75.8123,-122.2165,91.3481,62.1880,-89.9957,-72.9888,8.8114,115.8220,14.0321,25.0471,3.1103,6.3668,-65.1961
-0.2633,-25.1710,68.3173,-20.8536,-46.0002,-82.7275,38.5332,-106.4737,52.6518,-50.0666,-75.8294,-59.4311,-1.8797,123.6599,2.4177,22.2890,-2.6334,-50.0982,-97.5619
-19.1557,-76.3565,7.9951,-67.9910,-97.0574,7.0138,-33.1125,-49.2018,27.9007,-169.9415,-98.4015,-82.2511,-9.5216,136.6651,4.8879,33.3762,11.6759,-70.3343,-76.2752
-16.3978,-84.8382,18.9912,-38.5406,-74.0931,96.2857,-38.1723,-1.0081,47.3901,-92.3930,-133.5605,-112.9285,-43.8308,123.5878,-4.4345,35.9152,58.9853,-14.6539,-22.4334
-3.3646,-42.0586,81.6138,14.9804,-1.3469,123.1408,-1.8378,-9.7694,79.3682,53.7840,-120.6675,-116.4695,-49.2710,68.8100,-5.1544,-13.5093,68.1625,48.7325,4.9625
-21.7301,-21.2204,78.3482,-1.4769,26.5059,93.6866,35.1436,-29.9592,95.7110,74.5997,-89.0533,-117.9854,20.4025,28.0375,20.2369,-46.4240,14.0984,71.0698,45.5044
-59.6193,-49.9941,20.4350,-65.3841,23.9551,78.8762,110.4961,-8.5502,161.9047,36.4953,-99.9029,-148.7719,87.0407,47.2571,59.1753,-21.2996,-37.0856,89.7465,132.9153
-72.5287,-63.9674,-2.7336,-97.5763,47.5980,83.0863,184.2442,15.8822,246.7273,35.3662,-124.1408,-168.7613,67.5393,89.2572,95.5516,-3.2716,-43.2179,106.2734,178.1311
-53.2589,-52.2976,-6.9729,-91.8952,74.0395,36.4851,171.3102,-3.8587,199.2181,25.9146,-121.5592,-137.4619,9.4540,101.3144,100.1026,4.5528,-42.9929,71.4200,122.9748
-37.8223,-66.0076,-39.3928,-94.9362,61.5648,-66.0776,109.7701,-61.3207,65.6601,-7.0826,-117.4035,-97.9692,-2.5824,74.7716,63.4883,35.3589,-76.0483,-8.6253,45.1649
-53.9381,-80.4604,-69.9114,-108.2901,10.8288,-147.7564,61.7132,-134.3397,33.9209,-13.5059,-126.1121,-100.6803,30.9397,30.3451,35.9736,35.7661,-108.2010,-82.5591,9.1963
-82.7620,-56.2056,-78.3559,-88.3876,-51.6098,-160.9647,2.9049,-174.7358,72.8370,4.8778,-136.8082,-123.4305,61.6471,11.5544,40.6022,2.2085,-86.1165,-120.1185,-7.6999
-88.6548,-42.3808,-91.4932,-40.5949,-89.3309,-115.9386,-65.5250,-135.2767,53.9412,12.9692,-155.1933,-127.2572,50.3279,42.5503,30.1607,3.1681,-36.2113,-112.3225,-17.5772
-75.9140,-56.6194,-103.8776,-26.3272,-94.1867,-38.4219,-98.1801,-63.7814,36.6395,10.0270,-172.0985,-115.6518,-26.9179,74.8665,-7.7763,-2.5423,-23.0935,-71.8256,-4.0849
-76.6459,-49.1512,-88.6669,-51.8402,-80.6868,37.4442,-93.3187,-34.8697,88.0090,27.7421,-185.4805,-121.6146,-128.5888,61.4118,-33.7119,-47.3321,-38.8661,-25.5916,28.0335
-95.7670,-45.8186,-57.0675,-61.6146,-29.1631,79.3528,-58.1945,-20.1286,125.1292,84.0885,-236.6004,-172.2747,-143.9536,28.5660,-35.9028,-21.1258,-43.5792,21.6437,65.9825
-109.5811,-87.9838,-39.0407,-53.2925,53.8609,84.6018,5.6496,21.4965,105.9528,113.4117,-297.9544,-234.3842,-46.4578,-0.0986,-13.6424,57.7775,-54.0493,65.5338,97.3502
-99.3051,-100.9676,-44.8135,-64.9982,80.7939,71.3604,57.9672,40.5447,76.5894,15.8400,-260.4589,-224.1442,41.1885,-29.2502,42.0442,13.5144,-81.2708,77.1526,104.9641
-65.4472,-43.9290,-53.0179,-82.2063,32.1553,49.3934,88.9102,6.6672,48.9553,-162.0081,-137.7125,-140.1210,43.0305,-26.4165,100.7812,-113.9456,-79.6685,61.2079,89.2416
-32.7269,-2.2944,-27.4684,-81.0906,13.3402,6.8224,130.0967,-39.9616,24.1394,-248.5791,-69.5035,-87.7957,35.0228,13.0966,118.8326,-141.9126,-38.7667,58.6667,52.5527
-31.2953,2.3238,22.2665,-79.1367,52.7469,-74.1316,136.4053,-94.2461,11.3300,-202.9800,-89.8648,-104.6903,54.2965,10.7644,93.3729,-106.6460,-9.0775,63.8553,-12.9873
-53.0377,30.1900,36.0538,-75.2600,54.2557,-162.2584,57.5179,-164.6423,-10.2065,-150.6612,-120.7325,-118.7405,28.8118,-46.9079,50.0044,-118.3642,-11.8902,39.9966,-71.6359
-58.6053,42.2327,2.0081,-54.7671,-0.8847,-166.0311,-13.6884,-177.2204,-36.6344,-137.8037,-137.6200,-109.5305,-24.4171,-65.6973,33.4831,-129.3188,-24.8600,-3.2285,-69.9151
-39.5199,-20.5336,-23.7811,-42.0816,-29.9248,-47.1469,9.3994,-80.0437,-43.1741,-81.2933,-158.2016,-123.6475,-7.6949,-27.4014,65.2665,-116.5091,-32.8605,-34.5126,-37.4251
-33.3092,-75.3371,-25.0188,-50.6255,-17.7638,99.8052,45.9118,36.3665,-52.0415,12.9918,-175.7591,-151.0053,33.9005,-6.9539,78.0937,-134.3841,-33.7294,-48.9367,-31.0450
-65.2014,-45.6580,-42.8397,-62.5728,-21.7956,165.6452,15.7878,74.8049,-66.7571,31.1756,-186.0435,-151.2810,-2.6798,-14.1625,18.2008,-139.9840,-38.9673,-45.7171,-17.5845
-105.0313,-4.4625,-82.8145,-86.3533,-48.8076,157.6763,-26.2609,73.2804,-46.2041,-16.7066,-178.7400,-133.0305,-57.1518,-17.9264,-40.2986,-88.8132,-69.8647,-23.4204,47.2966
-107.6455,-19.3339,-112.1595,-115.8013,-57.7507,138.3867,-23.6580,93.2914,-5.2308,-8.5188,-142.3444,-109.2733,-56.2111,-34.8067,-39.8138,-53.8793,-116.3491,-0.7129,114.7970
-83.8926,-41.8630,-124.8125,-101.2441,-42.1883,122.0341,9.6723,105.9312,26.0972,35.6553,-124.1868,-81.8262,-74.0968,-54.6329,-37.4213,-62.1476,-142.6254,8.2440,135.8025
-77.5672,-30.5930,-121.2964,-58.8353,-24.4237,95.3475,61.0527,81.6740,76.4778,14.5028,-153.8267,-80.3550,-118.1282,-25.1184,-42.1501,-59.4558,-134.9412,13.0159,144.1634
-75.5538,-16.2472,-76.0033,-51.6319,0.5928,61.1194,114.6997,54.2038,131.3356,2.3734,-151.7156,-103.8364,-79.9566,35.5433,5.4148,-55.4487,-93.5769,20.9029,168.5363
-35.3777,-8.4887,4.6274,-40.6975,40.2606,29.0787,127.6388,44.4935,130.5763,86.2408,-81.5572,-93.0623,-13.4684,60.9450,63.0969,-73.9926,-23.3037,26.1437,169.8645
9.5211,28.1958,60.6840,35.6726,52.2648,17.3506,96.0955,45.2796,98.5780,116.1906,-45.3920,-44.2475,-57.9870,44.9787,49.6105,-64.3989,42.0335,22.5304,118.6383
0.1057,81.4131,66.4100,105.2186,10.5072,45.2645,68.8599,64.1308,89.6096,3.3134,-80.1945,-25.9342,-117.4534,19.3156,12.7075,-2.2746,73.4991,7.1824,49.4034
