Fp1,Fp2,F3,F4,C3,C4,P3,P4,O1,O2,F7,F8,T7,T8,P7,P8,Fz,Cz,Pz
-6.2011,-4.8860,-1.7642,1.2985,-15.5649,-63.2311,-29.4781,-59.4505,-6.5066,-102.7150,5.4119,57.5927,35.9714,-0.1631,40.2293,-31.1971,34.5909,-61.3149,-11.2250
235.8796,102.1374,324.7018,110.6468,-72.9772,-20.4282,-33.0457,-95.8020,-52.5069,-346.1501,203.9155,319.3057,346.0240,208.5806,181.2590,-141.2968,281.8946,-171.2620,-100.3958
355.1931,149.2833,460.6331,143.2702,-83.7075,8.5239,-47.6356,-110.8932,-91.4153,-320.4770,301.3059,433.6038,465.1662,294.2699,187.8864,-141.3173,348.0810,-221.7642,-162.6498
231.6203,138.8857,279.1067,111.8101,-78.0112,-1.3089,-50.0378,-90.8527,-68.4723,-84.7902,221.2460,396.1941,367.4470,249.4286,107.5290,-39.9866,223.9613,-164.6752,-176.2932
112.6453,146.1471,142.7778,118.4021,-92.1226,-1.8732,-29.1916,-53.4300,-31.2829,-27.6338,141.3878,360.5276,326.8733,255.7317,101.5521,-4.0442,180.6950,-108.8039,-167.3929
169.0240,172.9798,227.1637,160.2414,-62.0338,24.3793,-19.7533,-13.9956,-49.9418,-85.8659,175.2213,333.0275,359.5922,296.8872,117.1143,-23.0728,249.7518,-108.1514,-148.3564
254.8503,190.3910,304.1603,181.8435,-11.6947,35.1288,-38.6769,2.0398,-87.3936,-28.8669,212.4893,344.5092,312.3909,260.2298,72.5528,-9.9375,254.6990,-105.1405,-153.4482
237.8897,195.4520,255.4000,179.4225,-44.1951,17.6230,-51.7813,-19.6619,-77.7762,6.7006,165.7126,448.8036,236.2038,198.0062,56.9187,-13.7708,176.6443,-89.9403,-201.1164
171.0645,157.3489,180.6627,136.1335,-116.2795,-10.1570,-47.3206,-48.5734,-43.5693,-63.2286,129.3995,487.1278,241.0265,181.6878,108.9292,-45.4714,84.3850,-112.1300,-231.7124
103.0306,59.0830,104.1947,36.1951,-141.3802,-36.7111,-61.3006,-57.2588,-43.1956,-66.5612,173.4438,323.2056,259.1046,165.4757,121.0823,-27.9184,-20.9123,-155.1176,-211.6576
29.8499,-25.9471,11.4548,-44.1478,-162.4047,-47.6180,-105.2679,-66.6528,-90.7594,-30.9308,193.6473,130.1558,186.4547,124.4891,39.9549,-4.1025,-95.2754,-166.1021,-201.1899
-11.8061,-33.9175,-30.7756,-38.4961,-192.2799,-56.0793,-142.7223,-99.5703,-150.4236,-96.1537,119.6482,101.4034,73.0862,97.0626,-60.3181,-45.0670,-66.5207,-162.0352,-219.2042
8.3378,-2.4308,3.8247,0.7853,-157.6310,-79.6140,-137.0110,-124.5891,-151.5855,-151.0259,61.0513,147.9716,42.2228,84.6989,-77.2886,-70.6074,33.6061,-163.2485,-185.6244
58.9640,18.6909,69.7368,19.0169,-83.9195,-61.5639,-88.0694,-93.4596,-72.4493,-105.8528,90.9925,90.4998,86.1131,59.0176,6.1505,-31.1486,123.1736,-124.2621,-85.0789
92.1763,27.2153,122.1480,30.2318,-62.3956,13.8566,-46.9933,-36.5177,-15.4517,-85.6271,110.1521,-44.4253,77.6836,25.4399,67.7122,-15.8657,141.5811,-59.0204,-40.1899
66.7201,21.1711,95.6785,30.7343,-93.7743,25.6342,-77.0947,-41.1588,-67.5366,-110.0390,52.3567,-86.1021,-7.5731,7.2203,2.4307,-44.7020,64.0702,-61.4053,-117.1859
-14.5241,7.6068,-16.2749,14.6731,-131.2915,-53.7530,-161.1225,-97.3934,-146.7503,-83.8885,-3.0286,-35.7508,-66.5316,3.0009,-91.3117,-40.0249,-19.5634,-109.7988,-196.2653
-64.4452,18.4015,-72.1646,25.6823,-138.1013,-73.5730,-201.4845,-100.9909,-145.5036,-51.9978,-1.1893,-80.8076,-63.3244,-3.4622,-78.6737,-8.9441,7.1820,-85.4846,-170.4728
-32.9241,45.7970,-3.0972,61.8214,-90.3474,-1.7134,-154.6464,-47.4327,-101.3301,-66.4894,2.5795,-225.2247,-53.9523,-11.6477,-26.8922,-12.4012,70.5588,0.7288,-123.0488
-13.6713,45.9294,32.2071,60.2773,-54.0471,31.9788,-106.2074,-34.2587,-98.2816,-57.9530,-37.1261,-268.5536,-77.5034,-16.7166,-56.3906,-35.4731,23.5802,39.8287,-161.0003
-94.2716,16.9160,-83.6448,24.1260,-135.2046,-1.7803,-164.9317,-79.0832,-151.6850,-45.2281,-92.3700,-200.3978,-145.8885,-29.8149,-128.7647,-45.3201,-108.4010,-2.3960,-255.0596
-217.4997,-15.4048,-244.2105,-0.9900,-291.6636,-51.9967,-307.7112,-129.2106,-234.7021,-116.9737,-136.2113,-173.4397,-229.8281,-46.9716,-163.1414,-59.9110,-229.3950,-96.8576,-346.5040
-279.6382,-36.5434,-311.4185,-19.0465,-371.4300,-113.7445,-393.7789,-167.1894,-289.1404,-181.7371,-173.8585,-179.7258,-254.2930,-44.1908,-174.4226,-77.5834,-295.4367,-175.8031,-403.0077
-238.5039,-26.4616,-255.1513,-24.8871,-316.0640,-141.1356,-350.8436,-172.9277,-263.7529,-111.9438,-175.9929,-169.2454,-208.8889,-29.5384,-186.7708,-60.1492,-236.3342,-150.8706,-366.3734
-127.9934,-4.8671,-122.7167,-5.8930,-189.0624,-100.0648,-251.8338,-134.7628,-202.0760,-31.7372,-101.8011,-224.1649,-159.7970,-33.6692,-177.5652,-27.3817,-67.3782,-68.0157,-249.4310
-43.4744,-41.2244,-16.4770,-21.9123,-85.7998,-90.6358,-177.0732,-120.4581,-177.2681,-104.6812,-16.9371,-328.7852,-129.5662,-52.1894,-150.8959,-46.8775,13.0806,-73.5734,-180.8370
-30.3649,-107.4802,6.1290,-84.2734,-69.8127,-152.7221,-139.8293,-163.0104,-175.4523,-212.0509,-17.9297,-326.1206,-103.5580,-59.9088,-135.7548,-99.2299,-59.5517,-155.4156,-210.8048
-27.6062,-93.2640,1.0367,-88.8826,-121.2059,-175.5188,-155.0094,-185.9277,-165.1091,-181.1249,-54.1528,-218.2986,-92.2955,-53.9539,-122.4603,-95.0790,-97.0274,-192.4043,-250.1880
-26.6236,-38.1600,-11.0374,-41.2428,-175.3013,-149.4494,-220.4435,-172.2610,-171.4026,-112.4403,-45.2161,-172.8025,-100.0729,-50.1293,-104.8344,-51.2382,-50.0083,-185.2240,-247.2861
-89.3107,-68.9744,-74.9969,-66.7502,-210.9095,-155.3141,-264.0248,-184.4307,-196.6196,-146.2997,-51.0130,-238.4830,-123.2807,-62.1637,-122.7167,-62.3241,-66.9477,-169.5112,-221.8245
-147.0468,-131.8422,-126.7272,-132.8003,-216.0990,-139.8134,-228.8303,-181.9839,-189.5319,-169.4702,-96.4323,-288.0319,-156.7551,-79.7597,-167.8026,-98.9895,-127.3112,-110.3031,-163.0656
-92.4670,-114.7160,-79.1067,-122.9710,-161.2085,-56.4823,-136.1742,-101.6463,-127.7638,-76.0292,-83.5782,-221.0698,-154.3959,-73.3283,-162.5509,-71.2130,-104.7544,-38.0804,-71.2863
-13.0003,-76.6287,-11.3082,-88.1238,-84.6452,-8.5009,-34.9748,-29.2702,-53.9798,4.5700,-32.7759,-104.4141,-98.0154,-41.9557,-111.8370,-28.2405,-55.6039,-18.2484,-13.4859
-7.1710,-67.6360,4.5092,-85.2622,-52.1460,-12.9916,26.3136,-25.0210,-21.7115,5.6353,-57.9232,-50.0457,-56.6222,-10.7144,-101.2759,-38.8253,-51.2191,-3.3778,-14.0170
7.7463,-13.1266,36.0881,-35.4541,-33.1866,34.8745,32.6208,6.6277,-20.5578,47.8972,-100.5252,-32.9466,-52.8384,18.8908,-109.4741,-29.9377,-13.3688,42.8628,-1.1761
61.3948,55.7548,84.3968,40.8680,12.7243,105.0577,42.1905,82.2080,8.3250,111.6776,-57.4666,0.6273,-25.1104,45.6515,-52.4138,28.4565,63.3273,51.8798,55.8917
58.8150,26.5086,76.2866,22.2532,36.6740,101.4926,97.3928,87.3939,65.1341,51.9455,-3.6784,-11.5613,22.8403,43.9037,23.4025,29.9263,81.3695,25.2637,90.7579
26.3997,-37.2161,59.1655,-41.1451,20.3337,70.5082,147.8684,33.6400,95.0428,-54.3121,-6.3996,-60.2924,41.1232,21.8924,38.6463,-32.8435,59.3824,42.1460,75.4469
45.4401,-12.7107,81.9233,-21.2243,13.7595,65.0199,140.9983,24.1691,92.0152,-46.8912,-11.4223,-11.2875,41.8476,16.7321,37.0415,-45.7685,70.3432,73.8504,52.2186
55.2909,62.7944,73.5940,58.3501,18.7846,44.1290,84.2065,33.0311,71.5004,-3.7056,-24.2872,99.0477,28.5079,22.3572,49.3715,-12.3202,99.4596,59.8035,21.4456
31.3972,124.6669,51.1829,134.1086,30.7204,35.0680,19.8985,16.8662,26.2389,-29.7578,-69.5875,120.4316,-6.9799,23.5747,32.5671,-15.2892,142.3711,67.9648,-14.1732
77.6929,173.9440,118.8981,192.8866,100.2756,94.7417,20.2203,39.3474,4.9052,-31.3861,-48.3316,120.7308,13.7937,39.8694,24.8705,-28.7703,210.4168,145.6164,20.3888
171.9879,168.8571,206.3755,181.5344,194.0446,138.2817,101.6367,92.7628,59.4236,42.4871,72.2756,202.2368,115.8134,57.8577,81.8722,-0.9409,220.1034,185.9425,107.9492
166.1868,90.8627,166.4973,91.1341,191.5181,89.7912,157.0139,91.4153,117.1513,88.4590,142.1780,233.3990,163.2661,41.0458,126.8529,30.5753,119.8811,128.4729,118.0253
58.4693,33.4713,42.7087,31.4960,102.5100,51.4963,130.7845,79.4619,114.1326,70.8898,89.0842,146.2941,108.4367,24.1631,111.5652,33.8715,13.6111,86.9641,74.0315
-20.6486,43.3806,-30.2808,45.9677,54.0036,103.7222,116.0799,133.1627,116.7332,64.3818,30.7848,89.0944,75.2030,45.1264,113.3085,36.0853,-12.5116,138.9550,106.7222
5.0371,58.5338,-8.1520,58.2438,78.4006,155.2263,147.2213,174.2339,149.9427,113.3659,55.7752,112.1229,85.7241,40.7253,135.8940,53.6266,1.6604,193.6078,158.4938
118.7065,55.4623,88.0307,44.2819,118.2331,132.4467,148.9719,137.6623,149.3578,198.1634,118.2586,136.5638,52.9885,-33.4192,109.8964,75.5683,18.5096,172.4462,126.9760
213.3532,57.6154,179.1814,38.6298,141.9532,98.0065,126.6954,110.2414,129.3175,254.6036,138.3124,132.4763,6.9175,-91.8556,73.5610,89.5622,45.5601,135.8242,110.4528
175.7549,59.5922,165.5415,41.8282,127.8283,111.7649,134.0898,152.7568,139.0587,239.0034,83.9034,58.4094,5.6547,-59.6886,76.8363,90.8385,72.4112,152.7911,171.0616
68.5982,68.5331,80.7554,55.2809,63.8929,144.3288,137.5833,207.3964,144.2178,211.8065,3.6990,-53.6218,-5.3306,5.1064,69.2701,92.7808,87.4763,189.5323,190.1060
37.7215,94.1434,33.2732,79.1397,-7.6578,149.9031,106.3419,214.6076,128.2422,232.4214,-24.8502,-10.4255,-48.8787,17.4312,44.9476,105.3357,84.7301,177.1907,137.9056
49.2708,94.1581,6.0027,72.7552,-54.8124,127.9030,74.0212,174.8883,126.7394,237.9058,-17.6045,157.3867,-71.8716,-12.2251,54.1186,110.6955,45.7390,106.8873,104.1902
-1.8663,57.4652,-52.3547,35.6602,-93.8263,112.0601,59.2439,136.0672,128.7463,182.1563,-44.4746,153.9469,-71.3398,-14.9425,69.1422,100.5166,1.4247,38.2051,92.7290
-54.9224,39.8301,-79.5658,23.2836,-103.6279,126.6476,73.3395,145.4538,125.2720,142.3030,-80.4185,5.0480,-63.4015,23.2109,57.7105,95.9812,18.8191,31.7364,93.1535
-29.0553,49.0956,-45.9789,35.2097,-42.6587,150.8109,116.3190,168.3784,141.4486,168.9607,-60.8553,-13.5939,-43.0796,36.7892,50.1179,107.4057,75.1638,68.3806,141.4502
16.1794,45.8063,-16.7782,36.1677,39.2542,142.5715,119.7615,139.1989,134.8853,192.7009,-10.0182,37.1061,-37.5879,-0.3639,38.3883,114.5012,96.1443,75.0339,171.8341
44.6417,36.6653,18.4328,38.9526,65.0000,98.1940,62.9225,87.1845,66.0836,138.7722,36.8982,-9.5940,-33.4306,-14.9369,11.2026,88.7109,93.0911,40.4597,109.0474
98.8159,30.1355,102.7079,40.7010,61.9185,56.5091,47.5305,72.9303,20.9680,45.8882,98.2097,-31.9554,28.0792,19.0964,23.3966,37.0734,97.2886,18.5643,48.1295
143.1631,-6.2669,150.9467,-2.4401,85.7067,43.1957,110.0131,74.9746,68.4537,25.6620,142.8873,15.4424,84.7197,11.8420,72.7884,17.5786,69.7303,17.8508,80.4972
109.7769,-65.8724,93.4764,-75.8591,109.2031,40.4153,172.2888,57.8451,151.5352,82.9395,106.6826,-13.0056,50.3259,-59.9256,96.1272,49.4218,12.1683,5.7323,143.7605
44.6688,-95.4498,27.2826,-112.3267,104.0470,26.2622,208.9045,36.2490,205.5766,84.5414,31.2073,-76.5144,20.0197,-90.9014,107.2551,59.1937,0.7957,0.7779,170.7256
34.7610,-71.3052,50.1980,-83.4792,109.1699,22.1546,219.3169,30.7475,196.5043,11.0980,19.6257,-76.0651,78.1760,-39.0421,122.4657,16.9269,43.6661,39.1312,154.8190
96.2165,-8.9955,136.9432,-10.5636,143.9729,62.2939,166.4283,61.9450,111.4597,14.0569,88.6862,-77.2264,130.9925,23.7030,94.5007,0.5912,75.8913,95.3036,108.5687
180.3527,44.5946,219.8213,47.5720,174.5346,127.5347,114.7451,133.4765,42.2260,107.6011,159.9845,-68.2426,130.3591,53.7426,56.1550,32.9463,72.5140,124.6421,99.0121
196.5870,32.0520,228.2102,28.9911,179.4423,163.4464,162.9757,178.6558,81.2116,135.6671,144.5350,-10.2410,128.3822,59.1461,72.6621,44.5810,40.4759,113.8519,158.2493
109.3973,-26.6652,136.8139,-36.3567,155.2265,154.5114,220.5271,143.8673,139.4999,85.1654,41.4181,-31.9210,98.5937,41.2774,80.3208,30.7165,-7.5166,65.8120,186.9364
27.8603,-52.3587,45.0799,-61.8886,104.2152,127.0432,171.2078,87.4525,115.0956,64.9994,-22.7667,-111.0160,33.0956,12.3504,39.2550,34.0112,-29.7045,19.3233,145.5216
36.0414,-51.0146,38.0382,-57.7334,63.2708,99.4627,105.9274,72.6385,79.9432,57.7391,44.6744,-60.0511,37.2641,-2.7411,41.3530,29.4952,-21.7526,30.5831,139.0569
37.6411,-87.9453,31.7882,-92.5281,62.5246,77.3092,121.2028,76.3007,96.7477,17.2987,135.7719,9.5563,106.3575,-0.8412,87.9320,3.0129,-47.6415,74.2704,183.8165
-35.5331,-133.0307,-41.8891,-138.1484,72.5194,68.2814,153.4785,79.5712,112.1504,22.5316,110.3575,-84.7379,109.7406,7.9553,75.7236,8.9985,-109.1505,83.5833,186.3593
-70.8120,-108.0952,-79.8013,-119.8191,70.5048,71.3838,155.1222,96.1953,113.7351,106.7608,35.4880,-156.1784,57.1428,13.2490,33.3564,52.2246,-115.0392,79.2805,147.5843
-3.1354,-33.9295,-14.6713,-50.4191,81.2387,79.5561,154.6426,106.0078,130.0576,165.7355,50.0355,-75.2139,60.0097,11.9205,52.3405,78.1348,-29.8851,98.6780,120.7440
61.2768,11.7858,56.3233,2.3608,103.3439,91.3067,150.0417,93.8632,134.5383,144.5662,121.4915,-46.2184,110.2888,24.5391,96.8808,83.2761,73.3240,92.9836,102.6313
50.3616,8.0824,56.9689,5.4880,99.0409,97.6028,138.4128,93.5986,120.4382,108.4755,135.2820,-112.4169,139.3893,59.3438,106.9312,89.2210,104.0516,48.5742,101.3027
19.8511,-10.7367,31.9147,-19.3726,65.5444,93.1601,142.3386,117.3827,120.0275,102.1078,95.2059,-98.3095,140.6604,82.7322,100.9260,78.4618,49.9778,43.7741,120.6714
29.0883,1.4216,41.3198,-10.2693,36.2211,101.4153,145.1712,131.1260,117.2139,91.5652,76.1093,-18.7372,120.4579,77.1155,93.4188,47.4589,17.9377,88.9824,105.8904
81.2614,62.2667,95.6582,63.0068,32.6489,124.0368,119.6846,111.3236,87.9702,51.8919,85.2072,30.7247,81.4537,63.7163,77.9470,25.3079,104.0190,102.6407,44.2617
138.6665,121.1571,156.0046,132.5573,39.6501,106.5868,67.2315,61.8020,39.5804,14.4917,90.5129,73.1740,53.9959,55.2486,53.6093,16.1341,209.1679,58.1636,-23.6540
142.0740,112.0330,154.1535,122.1749,11.1622,35.3218,-12.3132,8.4276,-35.4531,3.5914,105.1351,83.8577,49.2065,56.3977,7.4941,7.2299,177.6894,-6.4518,-100.2138
79.6104,54.9979,71.6635,65.2250,-59.0109,-20.9408,-88.8282,-16.9504,-105.8896,-1.6848,140.1969,35.6606,41.3126,64.7815,-37.0157,7.0060,62.2692,-60.5984,-171.3154
10.9676,26.2301,-21.5661,39.9559,-97.3999,-33.0041,-114.3028,-24.5972,-104.4226,-6.5262,143.5449,19.0082,21.0442,48.0983,-26.7517,20.6889,1.0429,-78.2558,-182.4193
-9.7377,44.8489,-44.3910,55.9549,-61.6812,-40.3985,-123.3799,-40.9736,-79.1624,11.4813,93.3487,30.9397,6.7295,9.1800,3.2161,30.9805,-14.3596,-58.5820,-159.6092
14.4658,66.0018,6.6270,74.0713,-13.0884,-39.7620,-162.3626,-41.3298,-119.8922,33.5233,67.1507,-22.6446,18.2584,11.6122,-13.9318,25.0956,-35.2559,-36.2617,-156.8349
28.6638,54.5778,42.4113,64.7476,-10.1623,-12.5489,-174.7799,-13.2692,-161.1096,19.7547,101.8540,-73.3312,55.7232,53.8086,-34.8570,5.7349,-53.4645,-11.0175,-144.6565
-15.8367,13.1259,-10.8286,21.3901,-38.0648,-12.8931,-130.4269,-17.1018,-124.2901,-21.9779,122.8341,-24.9731,85.3526,57.9363,-12.3349,-22.8519,-84.3213,30.6338,-117.9154
-55.2936,-29.6757,-69.2751,-25.7144,-54.9291,-59.5109,-96.7247,-68.3684,-85.5539,-58.7515,117.0130,39.0860,78.8062,18.0576,-2.1066,-48.5644,-110.7083,40.0320,-120.3577
13.7123,-38.9232,-6.3690,-30.8241,-27.8507,-67.0058,-87.0865,-86.1549,-93.3784,-60.6064,159.5136,44.4486,57.9952,-8.7229,-24.2027,-45.5379,-53.9768,-1.4731,-112.9753
110.8487,-12.6863,92.7468,0.5243,18.6406,-10.7530,-70.0231,-40.7876,-91.0423,-16.6604,206.8147,36.8048,46.0467,-11.7196,-27.6967,-15.1651,27.1015,-17.2676,-59.2629
77.4991,9.9792,62.7715,21.1017,3.4154,26.7070,-83.6248,2.0093,-92.3350,13.3416,152.0983,35.6953,21.8087,0.8604,-31.1370,-5.8170,-6.3495,18.2969,-35.9580
-12.2851,7.1764,-19.7638,20.0817,-56.5038,27.4316,-125.9103,15.8499,-137.0832,-16.0804,68.3259,13.0311,-18.6706,29.3528,-77.3997,-32.1638,-80.4064,42.7295,-63.1513
9.4614,5.4125,12.6650,23.1519,-35.1829,50.9933,-102.5092,44.9909,-147.4162,-9.8340,80.5901,-37.1022,-24.3387,48.1078,-107.8039,-32.3477,-48.2300,58.7713,-44.9968
80.8457,24.3172,95.4777,32.8331,60.4850,100.3766,-4.7155,107.6864,-66.9971,95.9101,123.5117,-79.2320,31.6935,54.9095,-60.4155,18.1899,9.7921,114.8015,33.8891
73.3963,35.1724,89.3932,28.7342,89.7300,138.8410,79.8580,167.6068,25.3639,171.5647,109.2573,-45.6594,89.1007,76.3962,10.8755,52.1422,-15.5708,168.0578,95.9041
37.6408,8.2460,31.2528,4.1958,42.3516,151.6206,115.1300,178.9410,58.1596,133.7274,100.8027,36.8462,68.3905,74.8790,22.5864,39.1945,-40.2679,157.0466,116.6807
27.9497,-33.7980,-6.4566,-25.5172,16.1405,117.8353,100.6040,129.3794,41.6462,84.2242,119.8331,29.1027,-16.0180,12.1055,-24.6008,25.8620,-9.3706,117.4057,105.7436
0.6598,-42.5531,-31.8174,-32.0176,22.3748,44.5485,48.6577,58.7991,7.3671,66.0979,84.5079,-43.4772,-62.4842,-36.4912,-62.3195,17.5229,0.0741,99.6787,58.6811
-18.6011,-11.7098,-24.5791,-6.0239,43.5729,-0.6174,33.4551,14.8003,-7.8779,17.9562,10.4374,-0.3209,-16.4164,-5.6610,-46.8224,-15.6059,-22.3532,85.0452,4.9965
6.0172,10.1333,19.2114,11.9329,82.6906,3.4757,75.6962,-1.5822,6.4275,-31.4886,-26.4799,99.3744,55.5342,46.4546,-13.1416,-43.0176,-31.2084,41.7841,-16.1450
-16.1114,-9.0034,1.6023,-11.1745,60.9941,5.9379,71.9812,-4.2109,7.2037,-33.7334,-54.2345,42.1395,58.7325,64.2057,-11.3894,-28.0621,-51.4815,-21.8358,-20.0913
-111.3263,-30.2405,-100.9563,-30.9119,-70.1752,1.1054,-13.3974,6.4959,-26.5210,-42.2211,-91.0813,-90.4857,-3.7054,69.6163,-27.7946,-2.5778,-83.9929,-74.5524,-50.7082
-148.7822,-11.1145,-157.6126,-2.2754,-180.7392,8.1081,-91.4865,0.8618,-72.2625,-83.3004,-66.3069,-63.4860,-39.6650,81.5354,-36.2165,-6.3950,-75.2380,-98.5536,-120.2299
-98.8215,12.8313,-118.8683,25.0382,-167.2916,-10.8849,-125.1800,-51.6914,-122.9670,-116.5695,-4.6030,91.4897,-2.8094,93.1840,-55.9109,-39.1908,-56.5748,-107.0319,-176.7806
-77.2488,-2.8049,-89.7244,1.8275,-110.5729,-50.5968,-127.3886,-96.0711,-149.4196,-129.4504,-23.1239,186.6009,29.8718,93.6340,-87.0139,-72.8673,-83.5077,-109.6306,-147.8563
-95.0336,-15.7051,-104.9242,-14.6552,-78.7208,-23.9358,-72.7899,-57.3500,-95.8704,-101.9500,-100.6784,164.7536,-15.5382,66.8185,-82.9691,-60.7202,-94.1199,-86.8805,-56.3389
-77.2701,26.0414,-93.5456,29.4941,-46.5922,60.5877,-0.4636,26.6022,-7.5906,-13.4622,-128.3313,87.2461,-71.7621,34.2098,-36.1719,0.4975,-50.8026,-37.4174,-12.6685
-64.2841,83.8422,-72.2689,80.4092,-43.1536,88.2953,-16.0516,67.2057,1.3209,71.1453,-127.2612,47.2177,-55.2207,47.2154,-6.0155,37.5323,-59.5681,12.7341,-54.5403
-109.4279,101.3838,-106.2927,85.9479,-96.6258,52.9127,-95.0070,62.9018,-63.2658,89.9013,-150.6691,95.9801,-22.4659,89.3981,-34.5872,14.3381,-141.4757,61.0707,-102.7885
-108.4007,84.1098,-112.5229,75.8206,-99.8663,47.7807,-100.9995,54.4134,-95.0229,53.4179,-115.7477,157.3259,-29.6602,92.4706,-78.7697,-18.1607,-118.6786,95.4272,-75.3644
17.3788,47.0353,16.4325,64.3911,25.4504,63.4784,-2.7793,29.0425,-54.0138,-39.6898,17.0365,129.8220,-4.6055,51.5268,-59.4145,-36.5914,66.8210,66.3041,24.9391
129.1406,1.1062,160.5203,29.2114,157.8537,27.5752,101.3798,-22.2859,12.9006,-144.7673,92.4321,52.6884,77.2988,21.2877,12.1597,-60.7759,199.3513,-0.5565,103.0880
96.2909,-0.7109,150.1840,10.6838,163.7523,-23.1099,124.0858,-48.3356,42.3530,-135.3366,13.2591,30.1304,110.0003,30.8604,31.4693,-68.9760,158.3096,0.9714,76.6656
32.3823,61.4175,79.6304,59.9045,103.8500,-19.0386,65.8663,-27.0040,6.4652,-36.4908,-79.1163,62.0243,53.8431,51.8253,-26.9924,-46.0429,115.2105,63.3832,6.9771
82.3088,103.0538,124.4584,112.1427,93.2415,-4.4178,0.4367,-17.2496,-47.1004,-21.2729,-58.3546,58.2984,-13.4087,25.8946,-68.7425,-37.2370,181.4007,67.3003,-3.7522
183.4729,74.1514,232.7802,93.8016,115.8428,-33.1537,-14.0975,-52.9244,-57.6196,-83.8915,9.3443,-2.6117,-43.9915,-46.8237,-56.4591,-57.4982,240.4957,10.9547,9.1347
236.5318,57.8790,287.9449,73.7197,117.4309,-49.5546,-3.9174,-76.6517,-50.3638,-88.7149,60.1025,-12.4493,-30.2650,-71.7099,-45.4258,-66.0525,254.3433,-0.8018,-10.5487
270.7030,108.5717,321.9316,125.4042,121.5515,-13.3690,-5.3011,-40.6825,-64.4666,-60.6304,120.0756,86.3582,32.3670,-5.7133,-40.3171,-54.7805,320.6967,33.8346,-0.3873
307.2651,152.2067,365.3597,176.4106,148.0123,13.8015,8.0585,11.4552,-59.3507,-66.1022,161.0257,172.7432,92.5968,54.5161,-9.5759,-44.7154,405.3463,47.8482,65.1114
313.9784,147.0890,375.5472,164.1304,175.6924,9.3845,50.3476,25.9775,-13.8125,-36.2931,143.4748,168.4853,106.7517,46.3870,18.4204,-30.0227,402.4247,55.0661,102.2224
309.3144,151.4975,363.9760,154.9807,208.7894,30.3071,76.2120,23.4113,9.3577,45.2646,131.3387,170.8829,125.5114,44.3166,20.8382,-3.3523,347.6612,73.6581,81.0294
294.1829,169.3039,338.1024,175.1492,227.2276,58.0995,58.4083,35.1352,-14.3608,73.3947,150.0626,195.1563,164.7810,88.0423,27.6309,21.0686,295.1663,42.4410,41.0498
218.2507,134.3720,249.1370,147.3102,171.5210,19.1066,30.1175,34.8893,-23.7922,30.4964,126.2557,139.0099,151.7124,102.7960,44.0118,34.1378,221.8786,-47.9175,1.2885
141.2263,68.1002,157.1615,74.1060,94.0892,-39.6461,38.9987,9.2227,14.9527,5.7891,78.7738,80.3978,105.1133,63.2775,54.0820,36.6932,165.7130,-98.8152,-2.8115
162.6197,53.3112,170.4901,47.3871,105.1187,-19.3616,91.2267,9.1495,61.5549,34.1363,90.7272,163.5018,123.4932,49.2582,67.0768,32.6375,168.8998,-63.7095,49.8737
197.4617,75.4290,206.5887,64.9744,143.5282,42.7585,132.3805,53.1677,71.7117,71.8760,113.2166,260.4208,172.6956,92.0771,72.8129,32.0435,154.9911,-18.7903,83.7384
132.3290,62.3149,142.3677,53.6331,97.7609,54.6026,116.7132,76.2578,52.6100,70.6271,77.5752,184.9103,153.2050,120.7581,52.9590,37.9808,93.8153,-29.8206,48.1030
52.8023,20.6873,60.4271,15.1138,41.9583,24.7986,88.7646,42.3215,49.5612,38.1118,44.4571,36.6594,104.5967,91.0041,42.6204,41.8005,67.4614,-61.5027,9.6451
50.8293,-0.7260,61.2147,-13.4950,60.5776,-5.6251,108.6087,2.1011,83.7420,41.0788,41.6227,1.7370,109.2751,47.9056,61.5700,38.3645,73.2080,-46.0495,16.9904
55.5661,-3.2926,75.1803,-37.3866,81.5995,-32.2660,147.2231,1.3064,121.8305,98.7631,6.3993,65.5103,135.8944,36.8171,65.1263,27.9388,41.9008,29.0481,52.8870
11.3224,-9.2203,36.7754,-54.3997,80.6040,-20.6715,171.7919,34.2308,140.5767,135.4584,-42.2539,106.7877,138.6873,47.9544,48.2028,15.2081,3.9301,124.2115,119.5113
-31.4311,-18.9652,-8.4139,-48.4521,130.1956,58.1830,226.9348,83.6283,168.7347,108.4454,-39.0933,86.2924,139.8954,61.1069,58.2092,8.5630,5.7931,195.9102,201.9889
-35.0300,-28.4139,-20.8973,-37.4522,193.2671,132.6517,307.7665,120.5122,208.3488,64.8884,-13.3241,67.0320,138.3991,65.0058,83.2000,5.3827,11.1873,212.9406,230.5451
-16.9370,-29.3288,-16.6046,-32.0830,168.4475,124.0025,300.4009,109.3900,195.0487,37.1639,-8.2528,97.0489,101.5423,50.0335,75.0151,-2.2165,-6.9464,162.3063,171.9389
-17.1235,-12.3097,-27.1480,-14.6440,69.0191,66.3902,169.6052,61.1981,107.3166,8.7789,-13.3874,128.8439,53.8339,37.5862,42.4274,-11.7155,-34.8579,79.7670,68.1182
-55.3307,-1.2809,-64.4949,-5.9631,-25.6747,21.7979,49.3255,14.4955,27.0859,-23.9637,-29.9378,131.1758,40.2029,51.6205,14.2833,-24.9036,-60.4409,28.3212,-10.6490
-87.4574,-28.0528,-99.3182,-40.0605,-68.9959,-12.1489,32.7663,-23.8070,14.7314,-41.8081,-48.5025,145.7554,34.7463,51.0257,-12.4012,-40.3405,-69.0946,10.6984,-20.5035
-83.9154,-64.7387,-116.5340,-76.4532,-70.6356,-39.6024,27.3896,-49.8765,13.3378,-31.4947,-38.0287,140.6617,-13.0752,3.6816,-41.0339,-31.1504,-70.6468,-24.1381,-3.0500
-91.1906,-57.6097,-141.9625,-60.3004,-99.4824,-37.0865,-57.2522,-44.3149,-36.1489,-4.6320,-29.9467,73.5213,-80.7174,-26.6146,-63.7317,4.4290,-87.7136,-75.9485,-26.1038
-103.7061,-19.2972,-149.9443,-24.4030,-171.5830,-20.9370,-138.5064,-29.7906,-83.9784,8.4282,-57.9128,70.0772,-101.5170,0.1765,-75.5200,16.9810,-90.3712,-103.1885,-61.5674
-58.1181,-6.8274,-94.7882,-25.1155,-199.0293,-32.6788,-133.4731,-46.5208,-81.8044,0.9218,-61.5909,172.7346,-69.0682,19.2597,-70.3842,-4.5068,-71.2666,-119.0471,-70.6740
-5.1180,-26.2970,-39.7540,-45.2102,-175.2488,-57.2030,-126.8029,-70.8249,-86.6206,-11.8731,-5.6093,164.8064,-38.0971,5.3429,-55.0135,-13.2338,-88.8261,-152.4098,-104.0357
-26.3621,-37.0834,-51.1506,-43.0430,-189.4853,-51.4621,-184.4440,-65.1652,-133.9978,-38.1726,46.0994,7.9923,-26.6634,15.9572,-48.5428,-5.8046,-113.3514,-166.4337,-149.7393
-58.9762,-28.9396,-67.7736,-28.7770,-198.6853,-29.3149,-202.0086,-54.0261,-145.1930,-73.2404,51.1963,-30.8406,-0.8369,46.3807,-43.3466,-15.8213,-62.7365,-126.4491,-104.7719
-41.7736,-25.2179,-44.4637,-31.5658,-101.0367,-28.7621,-106.9909,-56.8292,-71.5434,-64.6774,23.4993,77.7998,42.7978,39.4049,-17.4126,-27.3314,-5.3833,-61.5578,7.9939
-22.0032,-34.9261,-18.1066,-49.4943,35.8565,-30.9985,20.1879,-36.1743,20.3684,-3.4946,-12.3817,86.1275,72.2433,12.5159,13.9939,-15.9649,-26.5240,6.0825,78.2922
1.4235,-55.6838,19.7548,-71.8894,109.2536,1.0002,120.7690,18.9026,71.9918,44.6463,-3.2235,-7.6802,83.9741,10.6470,16.5283,-8.4505,-45.8956,76.4631,112.5841
53.2694,-84.0878,71.7277,-95.5692,138.0026,41.8778,196.0318,53.8283,87.7834,49.0936,59.3861,-27.5441,83.1627,15.0168,-12.1062,-20.2088,-17.9109,113.8431,138.9210
59.5319,-87.7603,66.7069,-92.6496,137.9423,47.8645,196.7195,38.5037,72.6632,38.1238,73.3360,-24.9438,51.0932,1.5626,-42.5506,-25.2912,-3.6042,105.6129,110.8861
12.9226,-30.2055,34.4846,-27.8850,116.5945,44.0837,127.4787,21.2511,47.5453,25.2754,4.0853,-108.3859,6.4966,-7.6192,-42.9817,-15.5792,47.8675,119.9377,69.0440
40.2421,57.8351,98.3911,69.8619,151.6012,83.6577,114.9792,54.5598,59.3715,17.1403,-28.9466,-170.5045,7.9479,6.5718,-9.8005,-5.4190,201.1102,184.5222,113.8770
145.3194,105.9795,216.4680,124.3360,238.8399,152.2031,184.9897,116.7364,97.9530,42.1568,21.5524,-111.9287,47.2522,28.9685,20.8520,7.5944,316.5163,226.6148,201.0316
184.9663,100.0618,236.5113,113.3387,266.5520,192.7099,220.4594,156.9701,113.6690,107.1757,57.8667,-35.2757,57.5816,35.5094,19.1115,31.1390,278.0559,225.0824,234.3892
129.4890,83.7310,163.2317,88.3049,242.6334,196.5389,211.6691,176.5719,120.9934,172.6431,37.8538,-43.2271,39.3814,29.2968,8.2253,56.4737,199.7643,250.0837,239.9971
71.4578,87.9977,105.7207,92.0667,254.1530,192.9316,238.8930,191.9398,155.2121,188.1286,4.8613,-71.1324,49.9601,39.7481,27.4850,69.6922,193.1474,290.2130,255.8510
52.5263,105.5841,92.9935,110.9488,257.3724,178.9553,258.0901,178.5918,181.2880,147.9939,-27.4745,-38.8433,84.7742,67.3630,68.9860,68.8925,215.2687,249.9873,241.8105
66.1487,111.8384,109.3074,112.0999,192.0533,140.5161,198.8197,140.4802,156.6749,112.2831,-36.7304,-18.9592,91.5441,73.1621,89.7517,67.4566,212.2363,150.3402,184.2263
112.3175,97.2948,155.5560,95.4148,129.3854,104.0389,124.3972,130.0914,103.8159,120.8039,26.1103,-86.4512,73.4074,51.1411,76.9103,70.9971,187.5659,104.7136,118.4945
156.8675,78.2463,196.5497,81.3568,109.0137,84.9164,89.1177,130.3461,59.3142,115.7032,112.3450,-126.2124,71.2665,34.8357,62.3916,58.4848,150.5432,105.4504,59.7853
134.3613,59.4338,165.9303,59.6846,55.4146,49.0331,51.2454,77.9449,33.2255,53.3845,99.1820,-42.9100,70.6757,27.4569,59.7385,19.7745,95.4673,67.3980,10.9223
40.5426,29.2140,65.0905,13.6333,-42.4338,3.5034,14.3696,19.6237,30.4701,14.1878,-18.8910,18.4547,28.3499,14.2381,40.2647,-9.2104,15.2760,23.2681,-15.9419
-30.9315,8.9497,-7.4263,-18.8270,-81.3865,12.2638,24.1880,35.7780,45.9664,64.6284,-106.9050,-47.1100,-21.8116,9.0118,7.9721,5.2473,-52.3282,40.7057,-15.8891
-12.7955,17.1640,9.0712,-8.3248,-28.8900,51.0113,40.4864,62.0946,50.3619,115.2817,-77.8290,-93.0648,-6.5492,15.3102,11.3382,34.4916,-57.2587,53.9838,-3.7718
18.0883,5.5477,28.7394,-9.3198,6.4128,16.9981,7.0642,8.9869,22.8051,53.6138,-0.4094,-31.1059,43.8510,7.4313,40.1815,20.8715,-50.6729,-5.1617,-16.6161
-22.3226,-47.0343,-24.0066,-52.3218,-46.0089,-64.6151,-32.7645,-56.6626,-14.1633,-68.1848,16.2199,20.8388,39.0928,-9.6358,33.9618,-34.2902,-99.2864,-60.5336,-61.6731
-62.4968,-67.3157,-61.0886,-71.5951,-100.3612,-63.3275,-25.5573,-41.2000,-20.9861,-102.5353,-22.5488,7.3798,4.0578,0.4932,6.7204,-60.0099,-131.4440,-47.7737,-72.4796
-34.7255,-38.2485,-24.0778,-50.6679,-85.5556,8.3497,-9.0554,10.3996,-2.8131,-29.0884,-29.6654,-14.4208,20.5880,31.0102,15.3993,-21.1398,-101.8563,-38.0799,-23.1683
-28.3878,-51.7490,-31.7450,-69.0875,-88.1718,15.6863,-38.4915,12.6363,-6.7553,19.3395,12.1643,-37.0306,44.1668,31.4892,36.1787,20.7612,-131.7246,-92.4854,-12.8835
-105.0020,-118.1168,-142.9645,-131.3783,-170.2314,-42.3040,-91.5105,-24.2300,-40.7284,-17.0060,29.2761,-57.9886,3.1758,3.0584,19.2721,14.5884,-258.9802,-159.8942,-89.9792
-178.8254,-131.5611,-230.4619,-144.7560,-228.2151,-39.7052,-102.9744,-27.0707,-55.7764,-30.5435,-12.9793,-45.8847,-26.8464,20.0282,-8.9367,6.0961,-324.9369,-166.9050,-138.4271
-170.4668,-65.3337,-199.7509,-84.4165,-183.7556,43.4915,-60.5840,33.3282,-35.4741,40.0858,-41.2006,-37.1991,23.8654,97.9951,-10.3890,36.5192,-244.4150,-103.1450,-88.9536
-81.6240,-2.4309,-88.2511,-13.9027,-105.1747,97.1660,-22.9325,92.3360,-27.6271,89.9001,24.3830,-71.6456,64.5302,132.7163,-4.8698,60.2644,-107.8579,-31.0017,-47.9428
33.9572,12.9060,26.8272,23.9305,-57.9474,66.3102,-37.0247,72.5357,-61.9573,38.1275,135.2761,-88.3162,33.0914,75.0055,-15.1113,35.1473,-12.2201,-21.2673,-86.9195
74.9715,13.6843,65.0365,36.4976,-32.8341,23.6321,-73.2109,12.6714,-99.2800,-38.9750,163.4653,-27.1090,18.6159,33.6661,-23.7685,-6.4900,14.2053,-41.0425,-110.5974
16.6295,38.1810,17.7149,52.0803,-16.5169,51.8981,-69.0809,17.0757,-83.0863,-37.8764,88.0797,59.4116,67.7778,79.6164,-3.5927,-12.4174,0.5025,-7.0871,-47.1022
-29.8091,75.4941,-17.2527,78.4883,-4.5351,123.4099,-21.0148,79.8917,-22.5841,26.8555,15.1051,56.4070,99.8364,128.1311,38.5974,24.4397,-3.5166,37.8344,11.5149
-23.9940,74.3166,-11.7320,79.4921,-1.7629,142.8908,3.0673,98.1032,1.7016,52.7458,7.2792,-53.4541,71.1918,113.1201,53.5741,54.1488,-17.3570,5.8070,-30.4907
-34.4817,33.1595,-33.4703,46.3884,-19.9519,88.6464,-36.7074,46.0083,-44.7944,7.3984,35.8646,-106.6306,35.4159,74.1617,19.9898,30.8405,-74.2045,-33.1947,-111.5654
-34.6255,27.7594,-47.3101,40.3129,-23.1791,29.1929,-81.5103,-1.2159,-84.3503,-10.9379,67.7358,6.6751,37.5158,46.2984,-6.5559,-6.4012,-99.5097,12.1559,-130.4109
19.5999,76.0656,8.4006,80.9632,17.6582,6.6853,-76.1775,-1.7303,-69.2800,38.7417,74.0206,108.9932,60.2419,39.6296,7.0499,2.6285,-44.8795,51.1279,-113.1519
34.9146,93.7418,41.2264,100.1122,26.9854,2.8152,-79.2094,5.5702,-75.8968,39.6174,42.1860,31.7401,59.8425,63.0885,7.5135,22.2795,-11.7846,-9.9079,-134.6513
-18.2719,44.5481,-7.8225,60.1680,-50.9034,-1.8462,-144.4092,-16.8184,-138.4190,-43.9921,35.1433,-74.8939,31.0946,76.2869,-23.6906,0.0866,-64.9883,-90.3746,-175.6755
-32.5293,-18.3724,-40.0927,-6.9769,-128.0249,-25.6229,-191.7414,-56.2340,-163.7383,-85.1540,91.2085,-50.4686,25.7569,42.8302,-27.0354,-27.9858,-133.6769,-113.5640,-183.7877
-15.7795,-64.0189,-34.6811,-70.5737,-129.2133,-88.9664,-151.5904,-96.0660,-113.1696,-65.9998,110.7901,14.1820,57.6742,5.6933,3.3645,-32.7049,-172.3496,-127.5733,-173.5611
-61.1364,-93.6646,-78.4409,-110.7624,-112.9846,-158.1716,-99.5110,-137.9138,-62.8838,-82.6001,18.6646,32.6290,53.0247,-11.4576,12.2729,-41.0106,-202.9744,-165.8616,-171.8560
-128.2425,-102.6487,-154.3580,-122.1645,-145.3238,-169.2429,-106.7018,-155.5927,-46.5620,-95.4391,-91.0705,31.2432,-22.0616,-43.7658,-2.6002,-41.0266,-234.4898,-192.2052,-163.4574
-154.4568,-116.0060,-198.4949,-141.8033,-205.6250,-129.6547,-123.7565,-116.9393,-35.0606,-35.3931,-117.7186,-5.5353,-94.4628,-73.9369,-17.6326,-10.2225,-273.9176,-187.0282,-134.6430
-175.8260,-159.6280,-228.7076,-189.9304,-237.1949,-100.0880,-101.8864,-62.6572,-27.6243,18.8495,-90.2713,-75.8704,-110.0912,-63.9849,-44.6378,12.2934,-313.7184,-163.6086,-92.7493
-197.8123,-192.7344,-247.9615,-220.5672,-213.4709,-94.5624,-66.3932,-54.1913,-24.1384,16.2381,-74.7358,-120.8601,-95.8151,-46.5623,-71.5520,9.0346,-303.1641,-140.7978,-52.9220
-199.1225,-170.3676,-232.4799,-194.6634,-172.2939,-93.6469,-51.0742,-76.4128,-12.7033,-8.6003,-102.5716,-147.3752,-80.9174,-40.4030,-63.7360,4.0713,-236.4485,-132.9998,-43.3545
-218.5357,-116.9235,-225.7784,-133.1071,-165.3044,-105.7078,-73.7910,-99.2287,-23.6567,-77.5769,-169.6569,-148.8999,-75.7823,-20.9197,-45.4345,-21.1891,-179.0156,-128.7047,-74.8693
-248.2807,-76.7152,-251.1001,-80.1677,-173.4350,-126.4070,-126.0740,-128.9202,-68.1274,-155.8409,-212.4020,-69.8969,-95.1830,-16.3866,-58.5450,-63.9303,-161.7630,-107.1817,-107.2438
-216.1168,-62.0782,-241.3407,-61.9509,-155.1077,-106.5106,-149.8264,-127.7188,-89.2496,-114.9405,-172.2940,-8.6846,-130.6127,-50.9065,-85.4499,-55.5887,-156.5154,-74.1337,-99.9045
-135.3226,-57.8807,-165.4350,-58.3398,-121.8302,-42.3390,-117.0175,-62.4401,-73.1941,-13.6618,-97.4973,-94.2225,-152.7778,-69.8572,-96.5835,-8.1685,-123.4782,-42.9960,-68.3005
-71.9823,-37.2898,-73.6277,-28.1254,-89.5116,-14.5411,-90.2067,-26.4000,-72.2036,-28.3206,-67.8774,-198.7068,-147.9006,-56.2883,-92.7906,-8.1720,-37.6549,-29.5163,-59.4935
-25.0264,1.8305,-3.4345,17.3699,-61.5112,-55.5988,-116.5410,-91.7992,-94.0976,-108.2642,-65.9058,-167.9535,-113.9966,-54.7994,-74.0463,-41.4598,54.9522,-60.5024,-101.9657
21.9906,28.5664,40.1033,40.3218,-67.6570,-84.5129,-163.0599,-151.0929,-120.4492,-128.9256,-27.0004,-79.1366,-69.2422,-53.5824,-47.3540,-49.7408,61.4347,-117.9525,-175.7335
40.6132,24.3332,44.5344,43.9780,-116.8623,-59.5765,-201.6728,-120.3783,-165.9057,-160.3286,34.4052,-9.5156,-58.7203,-28.7496,-40.1911,-67.3113,-20.7476,-143.2080,-222.6673
-1.9415,-9.5581,-8.5802,21.2611,-180.1532,-57.8604,-232.1154,-91.5751,-205.5937,-240.2794,32.4115,57.0771,-86.1665,-16.9528,-55.7496,-114.0289,-112.0299,-140.4392,-212.4085
-94.5093,-57.7456,-102.5389,-44.3741,-236.4377,-110.4941,-229.1250,-118.5737,-180.4126,-240.7261,-55.8919,62.3655,-95.2300,-18.7954,-66.9787,-120.4951,-166.9647,-153.0513,-175.9087
-152.8672,-65.6058,-155.2180,-76.5456,-231.2767,-128.7856,-178.0943,-121.1724,-115.3618,-139.1519,-122.5769,-9.0176,-63.3727,4.9978,-59.6350,-64.8949,-155.5297,-155.5192,-151.2218
-98.3324,0.3788,-101.8922,-0.0411,-114.9731,-78.2365,-121.4305,-85.9016,-81.7130,-70.1618,-67.7533,-22.0608,-22.9944,23.8193,-32.2908,-16.3501,-58.5259,-108.8113,-147.5305
5.0631,73.7255,-8.2817,99.3301,9.2536,-41.3985,-106.5974,-91.4517,-85.1614,-94.7672,43.8695,73.6410,7.1721,-1.2636,7.6669,-23.2569,42.7793,-51.1517,-164.7430
33.0023,82.1762,15.0149,112.7538,7.7447,-59.1693,-133.6637,-133.4695,-103.6989,-153.6022,77.8442,170.4408,15.8788,-27.3916,21.3809,-63.9506,48.1160,-36.0955,-186.4525
-17.9047,45.8623,-36.5572,68.3091,-59.5063,-87.0484,-162.1720,-145.0479,-129.2957,-175.1443,13.4146,187.4288,-20.0059,-21.2651,-22.7681,-84.6708,-5.9900,-67.2381,-175.6065
-77.7255,4.9574,-97.4776,21.5001,-85.9773,-104.1638,-150.2988,-130.9702,-131.6752,-150.1023,-71.8921,119.9718,-78.6919,-12.2488,-87.7039,-67.8064,-20.9498,-106.5688,-129.5936
-102.8412,-20.3192,-111.1665,-8.8302,-92.3576,-118.8493,-112.9923,-134.4320,-103.3739,-139.7655,-108.1154,21.1200,-102.0603,-19.7723,-111.3804,-60.6996,24.9693,-97.0039,-100.8006
-59.5059,-1.4690,-47.1964,11.5648,-87.9662,-118.0212,-110.6867,-151.2082,-97.1490,-166.2752,-70.3920,-23.2650,-86.1614,-39.1443,-90.0339,-84.1306,85.5037,-43.6693,-124.7589
24.6856,36.9070,41.0357,57.4854,-49.0750,-103.2318,-147.7516,-154.1953,-125.4281,-161.2573,-6.3998,-21.6896,-79.7216,-66.9724,-67.1807,-85.3100,97.1631,-35.9385,-167.1991
53.9209,29.2863,59.6697,46.0832,-40.0281,-99.4765,-166.5956,-138.6826,-134.7700,-107.3957,-7.0048,-47.5139,-109.2820,-91.7672,-70.5731,-55.3851,35.9940,-85.5291,-178.5519
16.4814,4.4680,21.8506,6.6091,-93.6308,-99.1818,-161.5331,-110.7218,-119.3988,-62.2360,-85.4691,-80.7653,-162.2214,-106.2280,-90.0683,-48.2898,-51.7513,-85.4782,-173.6324
-30.3628,30.1897,-19.4980,24.1035,-140.1076,-71.5981,-177.3651,-63.1048,-117.8134,-15.9894,-160.0106,-92.2961,-204.7435,-105.5806,-97.0541,-49.0902,-130.8370,-11.7675,-194.3515
-85.6258,61.8489,-83.9640,54.7483,-167.7663,-15.7003,-197.3223,6.4943,-117.1115,57.9583,-161.3502,-118.9887,-196.9692,-68.2001,-79.6683,-8.9209,-190.5441,43.4143,-204.5902
-108.9346,36.3542,-122.9667,30.3906,-182.5745,29.0926,-165.2336,50.3533,-93.6101,82.7441,-78.8697,-112.3752,-133.2815,-11.5045,-60.9041,25.2307,-158.2921,43.3635,-133.8459
-18.5969,-9.6274,-33.4699,-7.1868,-108.5219,9.5456,-99.7819,7.2833,-78.4162,4.4946,35.1122,-13.2421,-63.3713,-7.7863,-64.0347,-7.3197,-16.7951,12.0317,-24.2236
89.0056,-35.6375,84.5423,-23.5195,20.2013,-68.9488,-66.0959,-83.3125,-85.2125,-85.2314,75.3615,61.6498,-40.1981,-63.6309,-73.5504,-58.5180,68.0780,-35.8829,16.4599
61.6170,-44.0682,59.3833,-35.9034,49.7897,-111.9723,-66.1160,-107.5281,-74.1148,-78.4836,14.5099,30.9842,-55.0776,-92.8604,-63.2509,-56.7987,0.4396,-54.5410,-10.6120
-12.3366,-28.9271,-23.7317,-31.7290,-4.1141,-72.2229,-57.9249,-54.6759,-41.9506,-2.9848,-23.9937,5.6738,-50.2543,-58.1979,-39.9599,-16.2067,-68.0639,-22.9420,-30.6519
3.3906,-19.6060,-14.2908,-22.8773,-18.1079,-39.5037,-41.9231,-30.3719,-33.8645,22.9117,42.0375,14.9888,-3.5224,-16.7389,-23.8876,6.4472,-37.4164,-25.1078,-40.0181
28.7372,-65.5070,13.9717,-64.7092,-16.6612,-75.1944,-40.4459,-70.1580,-43.7736,-26.8972,110.4713,-49.1930,35.0753,-15.4775,-13.6878,1.0862,-19.5717,-101.0056,-61.0400
-25.3228,-123.3267,-35.1543,-132.9041,-54.0086,-107.5265,-38.3414,-101.4619,-17.5453,-37.9023,64.9832,-161.4135,24.5051,-39.1575,-0.1599,8.5895,-69.8545,-155.9100,-56.2641
-104.7727,-127.2393,-109.9625,-156.9916,-80.5498,-94.5782,-16.9496,-91.4774,42.1003,26.6878,-57.0078,-206.2560,-5.9685,-53.3977,12.1769,37.1916,-105.4261,-130.8085,-5.9939
-162.6288,-107.0378,-163.0742,-141.8862,-77.7303,-82.9180,6.3651,-71.4823,76.2633,47.4207,-140.1619,-186.2757,-23.3864,-48.7389,14.2492,39.5904,-101.7375,-69.1467,38.6251
-170.1092,-90.3916,-177.4891,-108.9499,-64.7273,-62.4930,21.1516,-41.1009,66.6672,11.6981,-117.9703,-141.8859,-36.6959,-38.4306,5.3319,18.3612,-88.9975,-12.9076,38.7957
-91.9669,-54.3557,-124.7768,-55.7704,-24.7821,2.6248,37.1159,9.1283,47.1181,41.9307,-13.7180,-69.1349,-42.7566,-27.7742,-4.3008,36.6385,-59.7974,1.6843,15.5252
-15.7713,-33.9662,-74.6417,-29.6927,6.7087,41.9324,37.1678,34.5458,33.7834,97.7094,76.1894,-9.9952,-30.3689,-17.3585,-2.8591,78.5190,-41.5490,-49.4251,0.3882
-51.7661,-64.6028,-114.5726,-55.9825,-24.7719,-4.4949,-2.0635,6.4227,8.7536,44.5148,70.0398,-23.6285,-34.6796,-20.8182,-3.6293,66.0472,-73.7611,-103.9211,-10.4472
-112.0758,-70.5122,-151.3840,-53.4807,-61.6516,-56.3781,-54.4654,-31.1111,-36.5110,-52.4131,-5.7946,-83.0317,-75.6823,-28.7716,-35.6311,13.7464,-74.7676,-93.5823,-35.9427
-64.8544,-4.0265,-65.7546,16.8704,-40.1561,-42.4575,-77.7718,-41.5913,-76.5751,-71.3371,-43.6501,-115.6690,-91.3416,-10.8322,-79.5059,-10.9385,51.4360,-46.7598,-51.9767
51.6621,56.6873,77.0595,76.9184,9.3138,-11.4213,-69.0811,-40.6966,-79.2303,-53.5217,29.5130,-90.5736,-38.4534,6.5581,-71.7291,-11.3809,219.9182,0.8148,-20.8380
148.8225,66.2381,169.0305,91.5201,59.6799,-7.4969,-53.2590,-36.5221,-57.0401,-52.2382,165.3208,-32.5543,20.7454,-23.2515,-11.3439,-14.4804,272.5966,46.6030,9.5377
185.4250,67.7510,187.2125,101.9841,92.1245,-7.4662,-48.8839,-22.0817,-54.0835,-54.3672,221.4048,18.3036,21.3604,-55.1955,23.7055,-18.4900,203.9399,55.1620,-23.7892
130.0406,71.1482,134.5001,105.2404,78.2004,4.9366,-37.4872,-11.2675,-59.4556,-78.1871,122.1221,47.5045,-3.4516,-24.7098,4.5389,-31.7198,136.4531,26.2778,-46.2795
42.6603,62.6719,73.0085,85.5665,77.4588,30.1852,25.2397,-3.2201,-16.2600,-101.1531,-22.8291,44.9614,7.6958,29.4472,-9.5169,-46.2689,146.9096,36.9408,29.2712
55.2545,68.6001,106.2830,81.5127,143.0699,70.8284,122.0261,33.0424,59.6289,-48.9525,-45.6875,2.7458,48.8488,47.0156,15.6728,-25.9897,206.1939,97.2737,113.6482
151.2945,84.2006,196.2755,96.1784,177.5845,95.9828,168.8638,84.0886,92.2486,29.8413,64.3557,-21.9426,75.4948,37.1335,47.0300,9.5344,236.2423,130.6586,99.5648
189.0117,62.2891,209.0737,77.4687,123.8736,70.6992,142.0721,85.7135,69.9833,23.9846,168.2590,24.0461,75.6157,16.9988,56.8167,1.5618,183.5815,117.2854,33.5411
135.3481,23.1802,142.6281,39.9076,74.0590,24.8608,83.8366,27.3925,24.9641,-42.7686,162.6730,59.4865,62.3966,-6.2844,42.7061,-41.8844,77.6835,96.3108,-28.9010
62.3584,36.1578,84.0122,53.8471,50.2287,10.7486,1.3657,-20.8457,-37.8936,-80.0858,81.1767,7.8056,39.2978,-1.6608,9.2551,-65.7894,21.6145,91.2226,-90.3800
22.2077,96.1782,59.5345,115.5508,11.6678,23.5404,-79.3742,-12.7258,-84.1296,-68.4270,27.2356,-28.1228,21.8395,31.2964,-11.1604,-51.9592,75.4038,109.5051,-100.4494
40.6108,134.5299,72.6239,153.9972,22.1574,22.6423,-80.7027,10.8566,-64.9099,-36.9868,40.0240,41.6094,36.5771,44.1115,8.3274,-25.1311,163.7591,124.6929,-39.4266
81.6184,118.5169,104.9224,133.0347,85.2270,-1.5803,-29.2497,-0.7253,-24.9436,-13.1644,51.0332,97.9277,52.5983,18.0976,24.5882,-15.9389,169.1679,107.1441,1.5114
57.9312,75.7829,82.9959,79.0957,75.0389,-10.5568,-29.2166,-14.1694,-20.7417,18.6598,6.4602,18.9537,10.2026,-22.4468,-3.2179,-15.9323,97.7897,109.8088,6.8562
2.8192,60.3706,25.8208,55.5020,19.3864,35.0241,-52.0018,32.9268,-13.6557,91.7921,-29.3557,-98.9999,-52.3442,-44.6572,-27.0872,14.0443,62.2436,168.4200,51.7022
40.5507,104.6440,57.3474,108.8338,53.1149,110.1045,-28.7408,111.2162,0.8635,146.5922,13.1132,-93.7679,-44.7610,-14.5997,-8.5916,56.2255,111.8374,193.3427,91.5334
135.5697,169.6761,157.4133,192.0488,108.8853,147.6362,-25.5323,140.8010,-34.3698,108.4416,76.3026,11.8542,6.7924,47.0063,8.8497,52.6765,178.9470,145.8211,58.5662
148.3478,172.4219,178.1053,194.8760,71.9182,134.7655,-58.3415,125.0386,-59.1242,57.8446,76.1988,55.2401,18.1351,59.2261,14.3746,26.9762,182.1465,115.7206,46.3242
80.3976,85.9696,102.6485,85.5027,28.9331,114.9335,-5.9737,119.6509,22.7518,91.1311,34.7796,-6.0461,21.0386,22.4385,51.9263,42.1506,89.0731,106.1039,113.2141
-2.9718,-29.0192,-2.6264,-54.3206,46.7073,104.6841,118.2893,124.9872,128.3597,154.3329,5.1864,-44.8818,83.3423,33.8554,96.8311,81.7562,-84.6746,38.1934,155.5408
-102.2233,-96.2595,-128.7896,-135.2316,38.2577,92.9831,167.5013,120.3478,149.7800,187.0818,-17.5693,1.9669,151.3320,101.3836,95.7977,107.4045,-239.0222,-43.3312,135.9965
-155.6473,-90.4439,-199.0359,-129.9065,-4.5218,82.3024,152.5794,111.2467,143.6496,183.6235,-42.3930,65.1045,146.6904,130.3126,80.9910,117.4101,-230.3796,-71.1236,126.4409
-80.4603,-46.7594,-112.5647,-75.3736,-0.8863,64.6297,173.1635,81.2919,161.3683,109.6368,-59.9114,114.1463,99.5484,99.8647,83.3490,92.2357,-63.6064,-97.2331,125.1409
14.2896,-20.5771,8.3437,-42.8804,23.8795,26.8871,194.0997,20.5384,159.9626,14.3570,-83.2803,156.2807,67.4735,63.2060,67.5629,36.4746,75.1230,-121.0935,107.1805
-5.2076,-21.5508,-2.3330,-51.0573,22.1606,0.0910,170.2032,-11.7669,151.4803,22.6464,-105.1328,145.5442,54.2048,31.0473,46.2607,15.3897,80.9293,-49.4468,118.4641
-38.3185,-12.8647,-35.6689,-41.8531,51.6584,15.9769,163.9035,20.6092,167.8266,78.1277,-75.5568,89.6699,59.0636,0.7921,64.9877,24.8239,56.9549,91.6777,158.6206
30.8926,16.8580,54.8690,7.9355,137.9044,47.4452,194.4258,60.7887,158.4754,43.7337,-1.9828,55.0423,82.3800,-2.3637,79.2326,-5.4540,104.3640,190.8820,169.0941
112.5034,50.1269,166.6980,57.8363,201.9996,66.4290,201.8102,69.1343,111.3675,-4.5994,36.4223,16.7007,85.9528,12.5567,42.2048,-43.4073,187.0629,230.9631,148.9619
126.7736,94.5220,185.9241,103.0861,199.8283,79.6300,164.4513,69.4466,81.4320,38.0279,10.0721,-32.6422,44.4892,12.2438,6.2270,-19.4620,236.9493,226.3327,111.0804
126.0245,146.6415,167.6851,154.9579,167.1579,71.4541,96.4091,61.4644,51.1754,74.2592,-31.2453,17.3265,-0.9679,5.9611,3.2307,12.5173,218.7405,162.5167,38.3556
133.1962,155.6687,160.3542,167.0189,138.0331,28.8649,22.6974,35.1331,-7.3096,35.6216,-28.0417,138.6365,0.7587,8.8607,4.0275,-9.2457,135.6162,98.9827,-25.7164
144.1560,111.4444,171.9936,122.4036,135.4801,12.4625,8.5699,35.6230,-23.6000,12.5219,49.1979,138.9268,49.9132,5.3993,22.7820,-32.7376,72.4685,120.7771,-6.9834
190.8452,68.9270,232.4682,79.4962,180.0800,70.4715,88.7713,90.2251,36.8761,40.4649,158.2035,12.6825,112.1409,2.0474,74.2224,-17.4404,97.5368,186.9061,75.9826
220.4032,36.2580,269.9176,47.3502,232.2839,130.0682,193.4871,142.0744,105.3018,60.1764,196.7231,-69.9802,149.6888,17.2664,110.1391,4.7438,115.3806,190.4628,141.6499
143.1803,-18.4821,168.0521,-14.4520,214.6958,107.2247,235.7295,142.0313,146.4182,75.4467,140.5788,-63.4776,139.8103,23.7087,116.5116,30.8589,19.9059,112.5344,149.5704
39.3094,-56.8865,18.1254,-69.3987,138.2330,57.9290,219.1771,133.8982,177.6476,151.2831,75.2117,-21.2289,99.2658,10.5720,117.7897,87.4166,-92.6512,30.8305,134.1448
34.3230,-26.2703,-5.0813,-57.0282,97.7607,86.6173,212.4458,181.8438,191.2844,284.0082,39.8209,29.2260,75.4430,36.7167,92.3648,152.2426,-83.5283,18.9236,160.8114
70.8824,30.0553,54.5690,-9.0569,113.9248,164.4989,240.7083,252.3477,185.5987,357.2361,-3.8105,52.8721,86.0638,111.7421,48.8575,175.1923,-2.4968,52.8656,218.8101
50.0330,46.8114,53.0625,14.1098,112.2308,181.8569,245.9097,252.6729,181.1761,291.9992,-54.4099,57.1635,91.6545,141.3246,52.8557,148.2408,25.6292,50.7054,228.2069
7.4628,33.8885,-1.5707,8.6577,74.3009,143.7911,198.7689,195.7927,175.8550,207.4099,-77.6765,91.6022,58.2775,90.5785,80.6135,117.0869,-4.1409,26.2730,203.0760
-1.2467,31.5038,-27.0879,5.7290,58.1732,152.4449,166.4880,195.6529,160.5312,236.8853,-66.0524,117.6621,16.4521,54.1510,56.5535,118.1739,-21.3661,71.1156,220.3297
7.0420,53.8530,-19.5612,37.7967,72.0251,209.7815,174.3788,258.9219,132.1361,272.4011,-20.3680,104.6322,9.1537,86.5400,14.6970,120.7424,-3.2823,159.3416,231.4568
7.3459,86.1338,-18.0252,96.4088,74.4274,217.6169,153.9400,266.7148,84.8140,178.8489,23.3449,133.6826,15.5210,119.4629,11.7725,84.4983,25.4297,174.2573,169.0567
2.8751,96.4763,-22.6298,120.3891,69.0793,163.0905,110.1556,197.2937,51.8344,66.4361,3.2863,198.1853,-2.1743,97.8667,13.4896,39.8723,58.0937,126.2839,126.7212
31.2587,83.6501,17.1980,95.3034,87.1881,125.5170,120.1186,154.6035,72.0233,74.8790,-27.6651,201.5321,-12.0541,58.8529,2.8374,31.7071,110.3724,125.2726,174.4577
127.5127,87.2783,126.5270,85.9722,128.3409,132.0630,158.0119,178.8568,98.9593,151.6663,51.3479,188.8968,35.2599,50.1460,15.9577,47.7078,163.5523,179.2766,217.4131
223.5670,105.6606,221.4830,108.3875,170.3567,153.3902,157.5369,213.7908,84.4449,185.3721,187.8594,217.7816,105.9261,65.2706,51.2811,57.6576,165.2805,205.2982,202.0037
203.2550,84.2545,195.2611,97.6975,176.7545,168.8073,150.6830,212.6214,78.4270,128.9129,213.1122,208.7517,131.5891,72.1245,90.0714,47.5405,96.7529,166.0146,184.5375
82.1749,15.3819,66.8872,26.4631,107.4042,150.5306,160.5242,172.3279,109.0955,36.6555,114.9473,177.6166,111.7778,66.5694,118.5659,25.0266,-16.9086,78.6184,172.1116
-24.5457,-43.1938,-58.8456,-56.8083,-16.6396,91.4595,137.8293,132.2040,120.3018,50.6899,9.9712,205.4180,80.6597,73.6853,96.2413,35.0177,-126.3069,-19.6771,142.2173
-61.7614,-47.5371,-108.8910,-85.6221,-99.8195,50.2930,90.4983,130.8843,103.9366,164.7146,-45.4576,188.8088,41.7894,84.6509,41.0136,86.7960,-149.1820,-66.6901,120.5978
-36.8093,-6.8355,-70.5799,-36.8621,-71.2100,57.0203,82.0946,126.7559,108.9817,174.1059,-47.4725,92.6620,9.0907,55.3841,43.2050,101.4927,-52.6657,-34.5340,109.4441
12.8542,29.3304,-11.4072,22.3110,23.8337,54.5461,113.7431,69.4385,131.8873,66.2465,-14.0199,121.9721,20.0027,5.2370,92.2120,56.0942,47.5400,5.8275,91.8499
4.9317,16.0072,-39.0952,3.0071,57.0010,8.1426,130.1126,6.0854,141.1157,47.6413,-21.8227,277.2314,54.3961,-0.6018,95.2361,38.9035,17.3377,-28.3648,82.4055
-91.7345,-35.1244,-152.1801,-72.0529,-32.1379,-59.0793,81.7711,-34.4042,124.9129,82.9727,-104.6366,303.7369,46.2624,11.8354,66.0340,52.6652,-111.6270,-110.8717,53.1658
-186.2138,-80.6435,-236.1152,-114.4712,-143.7482,-134.7579,-21.9396,-107.1903,67.4964,-34.4560,-165.6761,203.3474,-2.5680,-24.3263,59.2287,-1.4926,-210.8864,-156.7282,-37.5083
-193.9405,-93.1583,-229.5919,-97.7027,-154.2922,-185.2342,-91.7157,-183.9087,-12.2248,-217.7148,-132.5782,166.0323,-33.1911,-64.8002,39.5026,-95.3635,-200.5680,-140.1209,-119.6122
-129.6839,-47.2073,-154.1957,-30.9387,-87.4582,-152.3222,-86.9179,-170.2700,-53.6451,-240.0019,-75.6460,158.5689,-39.8462,-48.8408,-5.1709,-109.1326,-74.5063,-87.9800,-116.0903
-36.7745,47.7824,-37.5341,65.3990,-32.8056,-75.4182,-89.4610,-111.7694,-56.7539,-142.5488,-65.3351,96.7174,-56.5225,-35.1957,-21.2255,-61.1459,84.8015,-27.2887,-79.6851
54.0592,103.4358,75.3550,115.8424,2.3241,-51.1947,-118.9826,-98.1013,-64.3435,-83.6423,-57.2099,57.6616,-70.1953,-65.6135,-14.5581,-44.0881,157.3186,9.7142,-63.3569
112.7403,79.3286,135.3554,89.4943,40.7147,-57.6807,-82.4873,-73.6362,-52.5502,-59.5930,-6.5279,59.1735,-48.7265,-72.0396,-10.9314,-41.3256,146.1964,10.0719,-30.0581
132.3088,67.1054,149.1039,76.1548,63.7795,-12.5601,5.4863,8.8420,8.3416,-5.4846,29.9507,44.0110,-16.2669,-35.1627,20.7482,-1.1026,152.5349,11.5841,28.9328
118.8824,104.6455,130.2993,109.1647,63.0506,56.5483,38.9799,63.1381,63.7800,56.8555,-5.7747,48.3530,-21.8518,-20.8498,60.7195,44.9450,174.0905,27.1841,69.7176
61.1909,88.2413,60.2278,88.4035,45.0117,73.0447,34.3670,49.5122,68.8009,60.6936,-71.1604,69.5964,-57.3684,-30.6502,42.2300,47.0831,126.4200,11.3694,87.2222
-28.6070,-10.5430,-32.9171,-11.0721,3.3474,43.3114,61.6483,29.8136,64.3778,-12.8644,-106.9045,30.3974,-64.4402,-18.9493,6.0746,7.7681,26.7196,-23.4820,108.8525
-82.8906,-71.2686,-69.8690,-75.9300,-26.7148,23.7775,105.6920,27.3720,96.6368,-86.8997,-120.6202,-0.9586,-22.5659,-4.0335,33.2357,-37.2066,-24.0938,3.3659,144.4823
-45.1326,-34.6782,-22.2114,-48.4247,14.5131,43.5255,152.7241,38.4847,150.5930,-59.7174,-116.7009,83.5574,19.9041,-12.9066,81.7261,-45.8715,10.1104,90.9309,182.5076
50.3713,24.3819,64.0055,6.0393,99.7443,83.4792,207.9428,80.9111,180.9162,53.3521,-73.3896,171.3472,27.8045,-19.9293,78.0275,-11.4481,69.5697,160.0962,198.7361
103.0466,36.8451,119.4936,19.1522,151.1348,97.0664,226.3932,122.5775,170.1496,131.8431,-23.1620,109.4959,33.0050,-12.8549,53.5801,18.1436,77.8027,190.7673,188.7494
71.4006,9.2289,106.1617,-6.5830,171.7209,79.0530,210.2907,120.0866,156.9493,119.9061,-6.9389,-19.1249,68.8885,-8.9254,68.0108,14.3819,30.3494,210.5264,185.8162
27.8652,-15.1941,60.3766,-26.5155,216.8445,73.8867,239.7389,110.0833,186.4984,89.9609,6.9065,-26.3920,122.8785,-2.7590,113.6224,11.2273,-6.9164,220.8145,213.3022
28.9601,-9.3836,40.7968,-19.5877,277.1214,82.7941,312.0139,118.3966,237.1907,97.9391,19.2504,117.1196,170.9029,19.5600,145.5607,21.2459,1.1157,218.9505,255.1973
31.0283,12.5625,42.0716,-2.5810,283.0238,73.2939,338.2259,110.5651,247.7676,84.4355,-34.6071,257.3156,179.7068,49.4889,131.9546,7.4483,37.1939,203.2825,280.4186
24.0804,46.0374,50.8675,34.9441,214.6396,77.4600,288.4886,109.4626,200.8150,35.4533,-115.6741,264.7329,114.9020,72.6150,79.4836,-12.4814,105.4770,164.0323,267.7039
81.0200,118.9636,104.9988,121.3948,154.0815,128.6050,198.3496,159.4447,130.5802,71.0137,-105.4242,213.6512,21.9556,79.6891,31.1614,26.2856,201.2529,123.6991,226.1273
177.0303,196.5234,184.3564,202.9001,166.9004,155.5259,108.2328,183.0031,67.6578,173.6194,-35.2327,235.0803,-5.2200,70.6723,13.2026,85.1160,246.2639,93.8649,172.1583
170.8550,185.1837,178.0735,187.6935,167.2614,89.6838,40.7406,92.9354,15.3566,129.2937,-40.5398,268.2567,24.1136,60.6125,11.2112,60.7754,179.0324,18.2187,85.2741
43.4675,95.0362,60.6468,94.3678,52.5920,-16.0686,-19.8358,-33.0701,-18.4619,-42.2702,-119.0735,194.6304,28.1176,53.0323,18.9023,-8.7805,52.3565,-108.3358,-27.9587
-59.5247,28.6475,-49.6032,15.6600,-91.1009,-83.7135,-81.3713,-80.7114,-15.0896,-75.8755,-159.2937,77.0035,-0.5334,27.6486,40.2314,-3.6988,-37.1497,-190.6411,-88.2438
-70.4116,-4.3576,-78.7912,-29.3859,-141.0855,-114.6052,-111.7261,-79.6089,-4.4910,-1.4588,-143.2991,12.0555,-39.8691,-17.5245,34.6621,37.4603,-64.9158,-209.6405,-76.5300
-85.9511,-67.9730,-98.1992,-83.4141,-160.9367,-136.5388,-121.7416,-109.8822,-45.4551,-71.5680,-150.2491,-35.8006,-105.6293,-50.2339,-34.3228,-3.6225,-87.3820,-236.6459,-70.7961
-170.7199,-133.3945,-173.3096,-136.5173,-226.5857,-143.6655,-152.6441,-156.9418,-106.1161,-217.0004,-201.4854,-84.5835,-155.0524,-48.6167,-100.2627,-84.5797,-147.3639,-249.6173,-94.8184
-242.6274,-115.3694,-241.1904,-121.8170,-253.7788,-125.7260,-183.0567,-164.9682,-111.4382,-222.1117,-223.8436,-83.8777,-125.0746,-30.3177,-76.1115,-96.3123,-206.3958,-187.2268,-131.0596
-215.8563,-21.0442,-219.0660,-22.0680,-209.4441,-98.8103,-207.8050,-133.3129,-105.6345,-157.9476,-179.2981,-46.9560,-85.3303,-24.9309,-9.8817,-64.7319,-213.9246,-112.0430,-209.2281
-118.3437,68.9224,-120.0564,84.6853,-197.1962,-79.2974,-270.2270,-95.3249,-163.3283,-146.6981,-118.5217,-7.6667,-108.0894,-25.3943,-5.1546,-59.7794,-168.2298,-95.1402,-290.6828
2.1753,116.1229,23.1218,132.1831,-207.2429,-55.2360,-316.5458,-71.0397,-228.3311,-135.9120,-48.2100,34.4990,-90.1780,9.2902,-44.7212,-71.7790,-57.0772,-85.6075,-279.0726
140.3710,140.5866,204.1091,153.6448,-115.8690,-15.5675,-270.4040,-64.3154,-241.5194,-118.8752,92.8442,11.5351,48.5875,79.4655,-47.0670,-78.3356,111.1868,-37.7183,-227.1947
245.9247,157.4371,345.1696,188.3591,40.4409,19.6358,-206.8081,-59.1037,-238.5277,-134.0264,259.1970,-130.2224,185.5536,119.5736,-2.1659,-73.7629,223.3629,8.9286,-234.1708
253.4101,156.8201,353.3780,205.2137,105.1558,35.1267,-192.0490,-36.1241,-214.8309,-140.8700,324.7283,-261.9054,204.4581,93.2942,59.8111,-49.7469,217.2296,26.5641,-241.3476
213.9740,141.2726,296.0246,192.4943,60.7893,37.9838,-175.2126,-21.3971,-160.8860,-161.1389,298.1489,-257.5941,155.0391,48.0146,104.2722,-43.7799,199.7836,28.7581,-213.0783
214.7217,130.1053,295.4595,182.4814,11.5729,23.1505,-175.3865,-50.4780,-169.7835,-222.5789,273.9926,-203.6098,113.9109,31.7492,76.7543,-85.2646,218.5625,21.7557,-232.1298
230.3981,114.3049,316.4706,159.0565,6.3375,-4.8775,-229.0731,-81.3316,-243.6827,-199.4468,263.2932,-208.8089,94.6382,33.8653,-4.6682,-100.1970,179.9407,2.5373,-262.0111
200.1184,61.6285,265.3690,88.6783,14.7556,-16.8209,-231.7247,-65.1175,-237.2734,-86.1432,255.8863,-241.7457,94.3083,29.6159,-31.5108,-44.0877,92.6922,-38.3091,-203.6579
119.1141,-24.9605,150.0239,-1.0223,-5.7379,-40.0289,-163.6543,-66.9171,-153.7833,-88.7246,256.5818,-267.5984,97.4978,9.8320,14.2685,-8.9456,37.8466,-107.7844,-142.2868
3.4093,-105.0836,17.0363,-78.9310,-60.6067,-127.2882,-160.8346,-147.7744,-124.3621,-196.5440,212.8899,-289.4020,86.5869,-26.9325,43.6227,-39.3855,-38.5426,-175.2821,-172.6790
-91.3472,-147.5681,-88.9575,-138.8879,-113.2556,-206.8015,-197.8204,-217.9727,-122.8433,-203.3364,123.5225,-259.6910,68.6497,-59.8276,38.0926,-55.3958,-159.3004,-204.4247,-210.7751
-104.3071,-147.5427,-121.2438,-150.7184,-158.3970,-177.0868,-165.5502,-196.3484,-92.2857,-159.0849,74.8598,-169.7543,30.1864,-58.1497,22.8111,-43.9151,-191.2267,-212.6254,-205.0686
-105.5807,-123.3350,-126.9804,-113.0122,-234.7318,-113.2193,-160.6072,-161.2809,-112.7149,-218.1208,32.8990,-123.2005,-56.9291,-34.6980,-31.3081,-67.0185,-115.5123,-225.1505,-206.3242
-177.6227,-98.5696,-182.6176,-83.6211,-304.1326,-120.5695,-229.1538,-171.8631,-157.9761,-264.5403,-89.2804,-166.6247,-148.6439,-34.6597,-94.6358,-88.5614,-59.4314,-213.5022,-190.1922
-209.9920,-70.0190,-208.8893,-70.9764,-264.9518,-128.2349,-194.5172,-154.6945,-88.2997,-165.5683,-179.9679,-196.0388,-170.9332,-64.6224,-77.9521,-44.9997,-21.4492,-147.2536,-115.0790
-107.9321,-31.8903,-116.3892,-37.6399,-138.3931,-74.3388,-56.1604,-94.2479,23.1891,-53.0512,-116.9947,-132.9736,-133.5194,-89.3560,-19.5651,0.6461,54.7076,-58.1731,-45.1087
-9.6475,-18.5359,-19.2016,-12.2665,-56.3447,-53.8560,-26.0902,-85.2419,7.6984,-68.3539,-8.3982,-55.1249,-93.5761,-94.9531,-18.0608,-26.3895,85.9027,-5.8207,-40.6919
-27.1086,-47.2194,-30.3924,-30.8561,-61.3007,-104.6101,-98.3497,-134.7768,-71.2880,-150.4961,27.9247,-64.0616,-75.5337,-97.8494,-43.8619,-77.7240,26.5429,-9.9496,-86.3299
-70.1607,-67.1592,-71.7712,-50.0692,-96.4610,-136.4866,-117.4222,-156.7977,-83.6601,-183.9035,2.1194,-114.5497,-84.6145,-97.2227,-44.5120,-87.2404,-22.8724,-45.0731,-140.2870
-69.5744,-47.6977,-63.4946,-43.9961,-125.9676,-134.1081,-101.4130,-147.7279,-66.6127,-150.4350,-79.5941,-93.6428,-105.9438,-77.9816,-56.7886,-73.7098,-19.5089,-84.5974,-154.0246
-50.6890,-31.6423,-30.2295,-46.4353,-126.2254,-149.4821,-109.5447,-155.8995,-72.0698,-111.9097,-149.5963,-27.6726,-93.5667,-55.7542,-76.3306,-70.9476,-20.1498,-114.8318,-129.2375
-14.2806,-44.5559,5.7027,-57.8496,-79.4717,-154.7194,-104.2732,-156.6115,-72.1887,-103.7007,-80.3534,-36.4143,-39.6941,-56.9463,-44.6670,-64.9952,-48.9053,-121.3472,-129.4159
8.4331,-61.5073,9.9949,-60.8639,-42.7885,-121.4354,-100.9450,-122.0449,-70.6142,-86.9957,47.5912,-99.8865,1.3992,-64.4987,6.2682,-38.7720,-107.9967,-113.4668,-154.7822
-38.9519,-72.0703,-57.9475,-73.9418,-77.1610,-101.2635,-136.6501,-98.3494,-90.0132,-44.2743,57.7323,-89.7178,2.7120,-45.2570,0.7701,-11.9480,-183.9584,-124.7504,-157.0650
-86.9639,-70.0775,-120.4178,-81.6033,-125.7034,-105.6267,-155.0067,-103.9266,-109.3260,-15.5669,17.8160,-2.6289,-4.3041,-8.9090,-44.1540,-5.5514,-198.0160,-137.4545,-157.9212
-55.5175,-35.4044,-89.0731,-43.8277,-106.3479,-80.9627,-123.0099,-83.3905,-101.9934,3.2861,40.2484,45.9273,2.1680,12.9479,-59.3732,-3.1952,-123.2828,-94.4565,-154.1841
-35.4332,-5.8327,-51.0214,-11.4219,-43.3404,-27.5015,-70.9721,-22.7046,-51.5496,37.4003,30.1687,-2.3613,13.5802,13.1783,-22.1636,15.1440,-70.4913,-17.8999,-69.9935
-95.9432,-39.2198,-94.6033,-48.2299,5.4475,13.2351,10.4544,24.5272,37.0454,41.2176,-38.9114,-99.3457,30.5306,7.3694,38.0647,29.0445,-103.5362,22.8706,51.2923
-123.6125,-68.3721,-118.7646,-70.8407,41.5203,47.9775,107.6957,49.6614,102.3016,0.5300,-36.9911,-130.0802,61.3225,20.1108,80.2668,17.3857,-118.8880,49.7335,81.0035
-46.4172,13.9073,-37.1126,24.7721,79.2458,100.8025,136.1281,94.8357,94.9067,-0.4680,18.3213,-27.1927,84.5594,59.8832,85.9779,6.8718,-28.1807,116.9681,47.4462
34.5856,138.7710,50.2923,155.2523,104.5913,151.5949,86.1576,146.0185,49.9831,61.6470,17.9619,97.5753,65.9373,90.3788,60.5452,23.8154,88.7433,181.2758,51.4587
37.2933,163.4801,44.1649,181.2313,107.4402,164.2953,44.3642,149.9595,18.5617,102.5208,4.8583,112.9150,27.1920,83.3041,21.6912,43.4132,116.2610,185.2516,66.9754
7.6024,120.0412,-0.2739,138.7022,100.7570,141.1245,45.3825,120.0068,9.3259,89.5492,30.3899,100.4011,29.9289,76.3907,2.2819,39.6358,81.7442,162.1481,52.4562
12.3311,116.5996,5.6305,132.4841,103.5827,118.7884,53.8598,106.0183,13.2420,75.6376,37.6068,144.7819,58.9461,88.8922,9.9116,30.6490,87.7086,152.0922,52.3500
54.6046,118.7072,56.8057,132.2181,111.0941,108.9619,48.6486,101.2313,12.1972,81.8561,26.7361,124.5409,31.6625,63.0403,-1.9792,30.8436,129.7015,139.6182,77.6347
90.2233,62.0747,95.2655,76.7302,92.1977,80.0115,37.5036,79.9737,-4.2255,66.8732,43.8164,5.8570,-41.7518,-6.8801,-44.5319,16.6055,128.3971,117.7528,81.9381
87.0591,11.1646,96.4657,27.4694,45.2648,29.8316,27.0449,57.3434,-21.3345,6.9996,55.8649,-42.9515,-66.4562,-33.4870,-59.8731,-20.2184,89.7389,98.0495,51.7769
68.5446,16.4707,79.8068,34.2438,14.8084,2.0254,1.8982,38.1767,-38.4295,-41.4876,44.0811,0.2959,-44.0499,-11.1095,-42.4080,-38.1951,60.8758,59.4170,5.5005
73.0979,9.4044,62.4109,21.8183,13.6689,-10.5150,-47.6662,0.1747,-62.1442,-2.5054,51.9553,15.9520,-52.4827,-32.1648,-45.4123,-6.7639,8.6980,-23.8307,-32.6825
84.8406,-43.6601,37.6145,-49.2134,2.2636,-60.1752,-79.4248,-39.9752,-65.1852,87.3229,70.1542,36.7045,-77.0831,-85.9343,-62.9494,38.8951,-82.2560,-118.0806,-40.3295
64.7637,-77.6587,3.6933,-95.7508,-30.1552,-123.8601,-59.0379,-46.4692,-43.9840,106.7184,62.3482,106.3040,-59.6462,-74.8665,-65.1066,45.7369,-113.6400,-155.0322,-29.3735
33.9367,-60.2641,-11.8265,-67.8930,-48.5622,-132.8221,-32.6547,-36.6576,-40.4589,35.5352,60.3856,120.2869,-30.9467,-21.4724,-66.0717,17.6081,-27.3996,-119.7298,-25.1889
46.1695,-28.2024,16.7586,-17.8197,-34.2597,-100.9951,-41.9250,-43.1372,-50.3246,-29.8178,97.0176,62.4567,-29.7372,-23.0209,-54.4068,-3.2276,80.8597,-68.2960,-24.1434
79.9416,-12.7984,59.5219,3.9109,-1.1049,-81.0145,-54.8194,-54.7527,-39.6008,-48.4789,134.1029,14.7339,-19.5531,-61.4753,-7.7585,-7.1081,104.9200,-39.7383,-19.8444
56.4596,-25.0450,50.2944,-9.8114,25.6571,-61.8242,-42.4991,-50.9427,-22.0243,-58.4229,122.7812,-43.6912,12.4541,-61.7418,26.4111,-13.5374,58.4713,-12.6822,-2.3105
-21.3431,-62.9396,-21.2771,-52.4707,30.7052,-25.2347,-8.9758,-29.1560,-0.2224,-51.7803,74.4856,-100.7529,24.8982,-37.4436,18.5814,-12.5232,5.7155,18.3501,61.6650
-71.6550,-103.1534,-94.9694,-102.1167,31.6804,-4.7971,39.4183,6.8244,45.3959,7.9057,46.0396,-62.0351,16.9970,-31.2008,11.5851,20.1203,-38.2189,16.4617,154.3743
-80.8430,-123.9201,-132.9073,-130.0231,44.7469,-17.4709,68.3148,32.3514,70.4147,75.6889,44.4472,10.1792,12.6403,-30.1272,6.4757,56.7870,-87.8480,-14.9356,190.3877
-99.2755,-116.5693,-147.1227,-125.4286,41.0528,-32.9028,54.3874,22.4346,47.4184,82.1311,-6.1092,6.1354,-8.0106,-22.9051,-24.3770,50.5251,-124.4385,-25.8181,148.3745
-117.9376,-83.7423,-138.3761,-99.3678,12.3414,-32.0504,49.8777,2.1156,50.2891,57.5588,-117.8416,-27.7559,-50.1651,-29.6567,-36.8995,23.6801,-114.6841,-9.2492,101.2026
-96.8486,-64.4406,-96.8499,-85.7289,7.7653,-33.0813,75.3627,-5.4487,93.8861,53.9189,-162.2339,-95.8992,-64.7047,-53.7817,-1.3138,26.6904,-72.6732,-13.1639,83.1383
-49.7167,-97.0604,-42.0179,-109.1730,24.6947,-66.7421,53.5961,-38.2182,76.8946,19.1319,-67.9566,-234.1317,-40.3898,-80.1535,21.2181,33.0040,-42.1542,-68.9343,50.7177
-8.7843,-141.3249,-6.1746,-137.5745,-7.0572,-128.9788,-36.2514,-104.8003,-21.0378,-79.6750,41.7523,-257.7839,-37.3914,-96.9283,-16.2559,-8.0820,-39.4489,-145.5784,-11.7664
3.5904,-133.8463,-8.7317,-128.1395,-76.1009,-150.7264,-104.1806,-129.1164,-96.4721,-127.1149,32.3330,-92.7800,-82.4260,-91.0616,-82.5246,-53.8933,-53.5617,-168.5479,-41.5279
-18.9889,-87.5470,-32.7084,-93.6714,-82.8585,-83.9797,-88.3273,-73.2549,-79.1039,-43.4957,-49.6971,-16.5131,-110.4335,-63.9176,-107.4657,-32.4141,-55.2475,-105.8018,10.0534
-14.4608,-45.2767,-10.2292,-59.3513,2.0591,2.0076,-2.6970,2.9265,6.3037,65.6522,-60.9069,-101.2022,-56.2694,-35.6544,-48.7394,27.3933,-12.3539,-19.3372,86.1878
68.2956,-21.1837,80.7668,-31.2766,106.2416,29.3796,97.3040,50.3983,73.3269,100.1547,30.9381,-93.3438,34.5801,-14.1815,24.2070,49.3644,39.2989,24.1841,109.3332
131.4902,-35.1853,134.3258,-38.1075,151.8041,35.1613,138.3055,74.1925,65.9980,93.0604,101.8341,-19.8493,56.2797,-7.5623,16.6059,32.6164,13.7104,28.9222,107.8124
72.8876,-88.6693,68.3981,-92.3503,113.7591,53.9592,125.1646,71.3145,62.2209,69.2433,59.4168,-73.4184,9.6911,-33.6985,1.9523,21.8991,-74.4313,9.5683,132.5747
-24.7694,-118.3267,-31.0213,-129.5204,44.1613,39.5897,143.1008,39.4563,138.9551,12.8593,-18.1023,-109.6792,6.8635,-57.9660,81.4785,20.8681,-107.5825,-23.6193,141.6631
-57.2547,-84.2846,-61.0241,-97.2253,30.8575,7.9823,181.1320,14.1820,186.2608,-31.7448,-36.1869,-14.9480,68.3934,-19.3337,137.5435,9.7038,-55.0876,-18.4546,105.7941
-68.4648,-42.5163,-58.7600,-46.8750,73.5268,30.7403,150.7555,18.5673,109.9707,-19.6293,-41.2303,-15.0209,78.7237,38.5833,56.0172,-2.7265,-18.3522,38.2261,80.5959
-111.7824,-53.9238,-97.9948,-53.2736,81.7487,60.9223,86.3021,26.6697,41.7865,18.4632,-84.9741,-156.7148,1.8261,17.0891,-25.1543,6.2409,-73.5305,64.3897,79.9304
-156.4021,-98.1221,-168.9189,-105.3962,30.8777,20.2715,73.7992,15.7974,82.0785,49.3014,-109.0333,-209.8253,-53.6581,-55.2908,12.1427,33.8451,-178.6391,23.1956,55.1096
-177.7689,-117.9763,-216.6578,-132.4351,-11.8387,-31.2127,75.8732,-5.6826,117.5250,57.6720,-84.6307,-152.2998,-35.5520,-74.3329,63.5987,49.5544,-237.7161,-20.6236,8.4204
-181.8140,-100.3874,-215.6982,-111.3934,-23.8824,-41.7927,41.1419,-35.5822,75.2007,15.2942,-82.6498,-98.6699,-14.7830,-44.5179,43.5679,25.3697,-216.8641,-32.2803,-24.5276
-181.7654,-84.9227,-196.4936,-95.1825,-39.6957,-70.2671,10.4845,-78.3770,31.9579,-54.5806,-133.4718,-34.6964,-25.8907,-32.9065,0.1399,-28.0198,-174.1284,-25.0751,-32.7200
-195.4619,-92.8374,-195.8254,-108.6889,-43.5444,-100.9309,6.8180,-106.8528,22.6985,-82.7974,-165.9991,-8.1638,-19.4918,-31.7505,-23.5227,-60.9376,-154.5327,5.7296,-9.3482
-197.1807,-97.3932,-187.6977,-107.4580,-5.1182,-64.6252,7.6898,-96.8380,17.1628,-77.0933,-123.6498,-99.3807,18.8356,-13.0869,-12.9075,-45.2565,-132.9011,17.6442,15.7350
-151.6707,-96.1874,-146.2743,-92.7780,12.7971,-50.6650,5.8307,-96.3361,12.9722,-102.1116,-62.7100,-165.9694,30.0135,-9.7434,17.7036,-19.8260,-98.6582,-72.0074,-19.3027
-110.7048,-112.6938,-123.7981,-112.2086,-56.6440,-152.4148,-21.9845,-161.5301,-2.9674,-149.9924,-87.3532,-81.9673,-31.6723,-44.5199,-8.3434,-28.7757,-65.5409,-221.1729,-87.7118
-117.7669,-108.7704,-142.1728,-121.2940,-139.9235,-241.7191,-84.1961,-234.4677,-42.9576,-158.6770,-190.1104,30.0582,-130.3204,-77.9921,-97.2575,-45.5301,-6.4176,-294.0573,-102.9750
-108.9478,-52.0808,-131.6391,-65.3625,-138.3428,-204.7368,-111.3252,-219.5859,-58.3619,-120.3769,-252.2450,77.1142,-183.2447,-77.5460,-134.8752,-31.2912,66.0930,-270.6074,-67.5600
-61.6524,-21.7179,-78.8601,-32.9562,-98.2508,-143.3933,-71.1922,-153.5713,-26.8675,-85.2040,-230.1197,95.5609,-162.4938,-65.7075,-94.4475,-16.5595,66.3357,-229.1538,-31.6093
-42.6080,-60.4619,-48.2938,-78.3955,-87.1837,-136.8721,-30.6798,-132.8034,0.1349,-81.8531,-186.8987,59.9129,-121.2087,-72.1146,-67.5233,-33.5566,17.3229,-181.0669,-2.1846
-39.0094,-64.2299,-28.5003,-77.7688,-54.9055,-121.4833,-17.8985,-140.0401,0.6416,-91.5267,-145.9466,-28.4427,-99.7499,-81.5771,-67.2300,-48.6865,47.8197,-105.0178,-0.7278
8.7785,15.2591,32.1456,22.2226,7.3700,-84.2579,-16.1243,-122.1776,-12.5675,-107.4780,-99.2542,-55.1448,-82.4437,-64.2647,-45.9411,-46.0810,141.8351,-53.2602,-57.8575
57.4079,76.1857,92.5235,92.7643,-4.5634,-79.7029,-63.2462,-117.5345,-56.7218,-148.9894,-79.2707,-5.3533,-63.6672,-35.3238,-25.3287,-63.5833,157.4841,-73.2950,-140.3089
51.9063,64.8771,88.8634,73.4478,-92.6703,-94.0673,-156.1877,-144.6826,-121.9762,-177.8302,-75.8707,26.2555,-63.0663,-32.5447,-34.3788,-93.6047,61.0886,-108.8583,-205.9428
13.1883,26.3768,23.2313,25.0049,-143.6629,-92.3648,-198.0600,-134.7141,-147.1309,-116.6191,-45.6784,34.5738,-78.8390,-52.6765,-52.4680,-84.2056,-86.0481,-85.8109,-238.3603
-54.0545,-26.1127,-81.5425,-39.9980,-149.4085,-84.5012,-164.4714,-78.7155,-113.2811,2.4276,-33.7665,43.4929,-93.6106,-67.8953,-66.2128,-43.5507,-229.5005,-23.8921,-195.2226
-135.7411,-86.6288,-173.3276,-113.3079,-151.7578,-70.0764,-114.3203,-49.6830,-56.0605,53.4608,-70.0706,10.5210,-88.9110,-69.2418,-64.5885,-19.0940,-276.4705,12.0726,-75.7849
-142.7794,-106.2180,-166.3205,-124.6315,-91.8089,-47.5532,-48.4739,-60.3367,-7.9262,-2.5572,-62.8431,-33.4962,-44.1894,-52.1788,-35.6659,-19.5966,-170.6035,0.7463,20.2806
-65.2342,-87.2090,-80.7096,-81.8389,19.1128,-51.4002,18.3159,-80.9228,1.2813,-90.9398,1.0326,8.0368,11.3024,-24.0900,-15.3778,-35.4703,-42.1425,-52.0177,26.1033
-37.0881,-87.1229,-58.1091,-77.3475,19.7556,-92.3451,-6.5784,-120.9163,-33.0988,-137.8391,-6.2299,75.9681,0.5453,-27.8150,-31.7474,-54.6822,-50.7029,-130.7527,-21.3779
-110.2907,-106.6202,-136.9456,-113.7818,-113.2894,-129.2328,-105.3615,-155.5128,-60.6393,-117.7560,-89.8198,11.5256,-75.9019,-67.9066,-50.9298,-46.6612,-134.0466,-174.2430,-73.7725
-160.6358,-93.3893,-180.4529,-108.0567,-194.4901,-118.7537,-132.6289,-118.2049,-54.8586,-51.9013,-113.8637,-133.5837,-117.6379,-64.2592,-64.1592,-10.2618,-116.2432,-129.1662,-99.0454
-100.9465,-25.8877,-102.3596,-34.6766,-139.4853,-50.3732,-67.8118,-32.1040,-48.4633,14.1306,-66.1812,-134.7864,-76.3119,16.5875,-91.3619,15.0133,19.3681,-41.8443,-69.1586
-8.7141,54.9250,4.1312,44.6607,-57.7635,30.1103,-14.3091,22.4039,-32.2174,64.6262,-47.8993,5.6704,-18.1400,76.5084,-85.5151,24.9720,129.4179,14.9194,-3.3573
24.2528,74.9366,37.2221,57.5959,-26.9439,57.4520,20.7284,46.8701,35.8777,100.6719,-62.4324,39.1303,-14.9742,37.0027,-16.0758,43.0465,133.1650,44.4726,54.9511
34.3262,25.5862,40.8844,13.0031,-10.7295,47.9792,77.6975,73.0773,98.5170,100.4625,-38.1376,-69.4560,-54.7451,-33.3558,25.2388,51.3140,99.6670,61.1719,84.5175
89.2074,1.5753,94.5571,1.1439,14.8004,61.1482,89.8423,72.4334,57.8265,69.8807,28.3951,-93.9104,-69.9655,-38.4208,-22.2599,26.1057,102.1993,55.8161,56.3201
152.8036,56.1534,171.3295,59.0907,17.8841,77.9764,7.7011,39.7806,-45.4982,52.3808,84.1187,-12.4116,-32.4388,1.3474,-70.1573,-10.6787,121.2342,75.1389,-29.0620
168.9846,119.4530,211.2970,121.8894,4.5242,69.2065,-67.6925,33.0397,-87.4661,45.5393,106.9190,-0.1434,9.5417,13.7728,-43.6667,-32.5090,137.2599,154.2469,-78.0929
168.3741,127.1418,217.3309,138.7677,39.7215,77.0845,-41.4665,60.2090,-48.4894,18.3901,114.8863,-18.2277,20.7772,-3.0476,10.6439,-35.3354,158.9344,197.0893,-25.5713
168.6204,84.5878,191.5161,105.2480,117.8752,90.1725,30.1865,60.8656,-0.8187,-5.1832,118.0943,46.1992,29.3671,-15.5414,38.6033,-20.2708,130.5779,120.8145,46.0507
122.8683,7.2135,110.9749,19.7506,129.1161,32.5246,49.1046,19.7565,13.5146,14.5281,111.7740,73.4570,35.6448,-33.3333,34.3237,1.9928,4.3740,13.4634,32.5594
42.9158,-62.9862,9.9202,-64.6558,41.7740,-51.8164,6.2205,-12.0338,-7.3550,55.0365,105.4150,-6.1406,4.8473,-57.9076,-1.6456,14.9120,-125.0162,-20.4580,-41.5621
-16.5195,-68.1026,-54.4061,-70.3671,-41.3561,-49.9860,-44.0644,-5.3846,-42.2346,55.3844,88.8725,-46.8978,-28.2147,-42.9910,-34.0219,14.5649,-154.4023,-12.2354,-78.7946
-74.7986,-37.6975,-97.1519,-36.1474,-73.1414,8.0115,-59.4193,12.7047,-40.7218,3.0702,14.5748,-31.6033,-17.9251,6.2919,-11.1783,5.2649,-135.6299,-17.6276,-44.0994
-142.8830,-41.1113,-146.3020,-47.4824,-98.9358,25.7101,-44.4040,11.7802,-0.4975,-29.1678,-91.8930,-58.1217,-17.1800,18.6383,20.5164,-2.1888,-146.0430,-22.9536,4.6691
-152.5240,-56.4331,-166.0965,-70.0303,-109.7652,18.3984,-35.3624,2.0583,0.0996,6.1289,-119.8816,-45.8483,-60.4919,-2.3622,-25.0838,0.1338,-154.6750,-12.3956,10.3966
-94.0257,-33.8491,-126.8041,-38.2273,-78.3726,33.3647,-44.5609,7.9819,-54.5406,29.6902,-59.4217,54.5972,-77.1075,11.8967,-93.3493,-3.1848,-120.1180,-4.5975,-12.8423
-46.4364,0.6333,-68.8535,8.8456,-55.0499,42.4871,-49.1533,20.4353,-71.4839,-12.5911,-15.9398,74.4575,-44.4330,37.9553,-68.5281,-13.5483,-75.0174,-15.3038,-38.5456
-49.9976,4.0606,-60.9499,10.9001,-72.0960,20.7023,-47.1041,15.3203,-24.8358,-25.2916,-21.2994,-27.3782,-37.5206,6.6704,7.5534,2.0550,-72.3985,-32.6795,-65.5001
-95.1719,-20.7249,-124.5482,-24.5663,-96.2237,-3.8551,-54.0738,-0.2868,4.2258,32.4388,-43.3088,-72.0016,-71.6641,-39.7142,12.9870,32.0668,-120.7916,-29.7449,-69.0814
-148.3892,-41.0732,-188.6226,-55.4187,-117.8286,-16.9659,-57.4432,-14.1269,-10.4290,53.8312,-92.6102,1.4348,-80.9311,-21.8744,-38.2167,23.5943,-165.4628,-21.5780,-50.5756
-135.7604,-23.7233,-160.0780,-46.5273,-143.4308,-43.4202,-62.4347,-46.9284,-32.7204,11.0258,-133.4855,101.7330,-43.9872,28.1597,-54.1420,-8.6395,-146.5504,-66.5212,-85.7289
-45.4225,9.2816,-60.2923,-14.5863,-157.9483,-95.2444,-114.3796,-106.0698,-73.4762,-30.0361,-79.3201,164.9557,-4.8101,32.0053,-37.5573,-25.2606,-88.2883,-144.4000,-172.3141
20.5257,-5.1814,7.3474,-19.0290,-162.8659,-140.0031,-187.3065,-149.3293,-134.0444,-83.3287,22.3342,152.7087,-4.0917,-12.0644,-45.8133,-56.6764,-56.9755,-147.9587,-190.5627
13.1531,-45.2640,13.2891,-48.7560,-150.0857,-138.5272,-184.3205,-143.4733,-146.9986,-140.3423,41.7270,85.8067,-32.7655,-48.9932,-70.1284,-102.5466,-50.3287,-65.8120,-124.9933
-0.6495,-26.2168,7.5479,-28.6129,-88.0015,-96.6485,-105.7814,-103.7219,-89.7250,-106.2826,-2.6758,58.1660,-38.7673,-46.0232,-60.7580,-88.9366,-17.5948,3.0403,-74.2749
25.5673,31.4261,30.3100,29.0917,-7.0131,-45.3758,-42.1110,-53.4349,-30.1444,-13.4234,11.6378,59.4189,-1.7014,-20.2929,-20.9799,-26.4529,58.1208,37.4015,-40.7079
83.9228,41.9222,95.3856,47.5114,34.7370,3.7804,-11.8295,-3.0270,-19.2460,17.9750,112.8880,0.1505,39.1665,0.0931,-6.0844,-2.4422,142.0593,82.2594,9.6973
151.1300,22.1847,175.5842,36.3446,50.2203,46.3529,12.8001,38.4980,-42.0454,12.1121,216.4716,-78.2740,65.0690,22.7300,-25.5026,-12.1323,173.3740,109.7145,18.3828
176.0252,41.1225,209.6456,56.7230,56.5548,80.2214,15.7243,76.0165,-54.2715,24.7262,229.5173,-92.8822,91.4848,60.4922,-12.9125,-4.1160,143.3278,95.0883,-11.4669
140.9378,85.8843,187.3479,101.2070,38.3695,118.0068,5.7838,112.7152,-28.8262,6.6847,154.6857,-62.6956,105.3169,89.7340,49.3646,2.0337,123.9655,91.5134,8.3931
97.8447,101.4439,140.3535,119.3335,23.6976,139.4456,15.3570,112.0090,-5.0263,-32.5910,100.8337,7.7552,98.5630,97.1275,73.3297,-9.9596,127.7546,96.9531,32.8352
61.7055,78.9181,64.8427,96.2852,24.4895,98.8142,4.1583,53.6284,-38.1574,-20.9061,119.7837,118.5546,96.4882,102.1705,19.8433,-8.6230,76.0218,51.3818,-33.9975
13.2230,51.6746,-14.8508,62.5077,-7.4058,30.0726,-50.0059,-1.2893,-83.3791,10.8280,123.7910,161.5802,86.8966,99.3839,-26.6879,6.7849,1.2081,-10.5819,-106.2172
-6.4065,42.7789,-23.3388,47.2990,-48.9924,9.0270,-66.3484,-0.6818,-62.7056,10.4413,67.7693,87.2045,47.4521,71.2586,-14.2907,15.9632,18.0453,-27.7723,-75.6655
15.2651,28.1170,15.0033,29.8513,-37.4347,20.0447,-23.4494,17.4541,-15.2046,8.5220,32.8957,3.5263,22.9965,45.2502,6.4603,24.3887,59.7208,-39.5712,-16.1815
6.3536,-14.4858,-1.9386,-13.5405,-12.4183,22.7798,-4.7028,23.7281,-15.6882,25.3758,55.5255,-32.8656,38.2486,47.4437,0.5279,34.3805,-9.4888,-65.0583,-8.6696
-33.0301,-39.6011,-57.2095,-35.5071,-5.0411,44.4830,-12.8293,47.6856,-30.9973,51.4313,78.4187,-51.9568,42.3345,55.0364,-8.1140,46.3635,-98.7407,-51.2517,-7.1867
-32.2717,-14.1699,-64.8591,-4.9620,31.2279,70.5237,14.7839,70.9915,-2.0514,77.2579,65.1969,-35.5673,24.2242,45.3591,4.2889,67.0097,-69.0506,-27.8211,18.7320
-18.5040,4.6324,-43.7669,8.8874,56.6905,38.7557,47.9257,40.0055,48.0365,62.1974,4.7546,0.1858,18.3493,21.4739,36.1737,69.0959,-5.6506,-56.5025,39.9481
-56.0998,-19.5900,-55.5956,-31.6636,6.0496,-7.3760,40.6626,-4.9097,73.7790,14.6150,-97.0697,-22.8424,3.4204,-6.5208,50.9249,33.1422,-20.4115,-63.1438,62.2989
-108.0201,-41.6904,-95.2660,-62.5388,-35.0141,7.7727,38.4819,12.0021,72.3718,25.0818,-158.2987,-68.8368,-39.3836,-19.3525,12.0290,8.9513,-59.7506,18.0902,100.8484
-119.7298,-46.7772,-131.5656,-60.4934,6.9347,40.3377,78.5689,65.2434,72.0267,94.2989,-116.3560,-52.6849,-58.2615,-9.0611,-34.8831,32.8659,-70.2160,86.8057,130.7617
-110.8792,-56.1788,-144.4743,-63.2933,59.8676,46.4950,134.6788,92.1327,102.1784,128.0929,-62.9180,-31.8175,-30.6748,6.4412,-20.2539,66.2323,-69.0210,70.5984,142.5904
-113.0578,-39.1761,-127.8544,-47.7463,81.5798,67.8835,175.1068,90.7039,143.5713,108.6936,-105.6982,-69.5762,-5.0426,25.2014,18.8864,72.9387,-27.2666,47.5379,151.2284
-106.4058,24.5114,-88.1118,20.5666,95.6005,96.5940,168.5130,73.9163,134.4569,62.5990,-178.3774,-84.0608,-10.3397,51.3143,12.1894,53.1796,80.8184,61.8938,141.7932
-37.3871,76.4353,-6.8320,84.6581,89.5290,86.2484,109.9191,46.7735,70.0759,3.7544,-149.9320,-25.7025,-26.8149,51.8766,-17.0174,17.1873,174.8750,62.0031,97.8200
81.7945,66.0650,105.2756,77.0334,79.2239,69.0876,60.0747,35.6444,13.9813,-4.4028,-28.5506,22.3394,-23.0597,18.9300,-25.8012,-3.6453,159.2390,34.2655,55.6588
128.9776,8.6297,135.8368,13.6841,100.0667,71.2057,58.3134,48.0853,-4.3025,44.8151,72.6528,14.5310,13.4107,6.1062,-26.0516,8.4215,50.2839,10.7227,57.0476
60.0778,-39.5780,50.1836,-31.3011,112.3188,59.1794,68.1814,59.2683,-4.2693,48.5862,100.2370,-2.7318,49.9062,29.5850,-23.1286,20.1148,-28.7419,7.7636,80.9803
17.3073,-13.6218,9.4962,5.3173,103.5763,50.5653,58.6565,65.6174,-4.4160,19.2120,84.8367,-20.2705,43.2286,44.1990,-16.1633,19.9510,18.1731,34.5730,73.5772
67.1104,64.1451,80.3987,83.6083,108.6528,67.5851,19.2848,65.9064,-28.8689,54.4083,53.4777,-71.3588,1.8809,31.9097,-34.2423,30.4473,102.3750,65.6425,18.8096
81.2928,66.9732,105.0093,75.9419,71.4737,44.7240,-52.5946,36.1144,-78.3554,80.2407,28.3300,-127.5842,-30.8056,3.6901,-63.0110,23.9782,42.5902,50.2534,-50.4768
22.2138,-31.8824,31.4961,-31.6539,-21.7577,-27.6240,-86.7798,-8.5274,-86.2891,10.8110,59.0298,-123.1356,-13.7299,-31.1040,-33.6010,-21.7437,-133.0243,15.8538,-92.4036
-6.8108,-90.3173,-15.6803,-93.3764,-39.7875,-56.6475,-26.0362,-27.0807,-20.9625,-38.0503,127.2105,-61.6243,58.0743,-39.6937,45.1643,-42.8954,-202.4012,23.0550,-95.0567
-21.4681,-41.4274,-35.9667,-45.6829,8.1184,-41.4691,23.2179,-34.9237,30.7400,-4.1619,112.1529,-8.6282,98.9550,-10.6746,75.4978,-8.8194,-112.0679,35.7245,-86.8311
-90.6766,13.4457,-104.1291,8.8666,-32.5542,-55.7877,-34.0444,-53.1680,8.8051,8.0823,-8.3733,-6.8342,33.0629,2.2267,33.6975,13.5573,-38.3440,14.2098,-93.3973
-131.5025,6.0329,-137.5715,-1.0848,-96.9489,-62.0701,-72.4317,-39.9192,-5.5895,-6.8172,-83.9192,-48.0137,-34.1925,-16.8952,12.0795,0.8993,-70.3459,18.6015,-81.4205
-81.8663,-24.7807,-73.8171,-39.2640,-24.0334,2.3889,29.6866,28.6838,56.6977,38.1768,-43.6514,-79.1696,28.2135,-2.1658,55.2360,8.2370,-119.1846,66.4551,-0.9799
-44.5339,-39.8164,-36.9624,-58.8736,92.3333,80.4719,156.7173,109.5681,121.2621,117.0716,5.8689,-44.4138,127.1125,65.5317,83.4044,49.3363,-124.7471,84.5907,110.8687
-69.6386,-24.4775,-82.3875,-34.3237,110.0042,116.6396,163.2051,165.0275,103.9475,154.4455,10.4759,12.6329,124.3510,119.8859,50.0517,83.4912,-110.0906,72.3260,156.9531
-72.9465,19.6006,-88.6482,28.2750,81.9960,141.5872,94.4138,185.6854,47.5772,127.2666,21.4924,-8.4229,75.5246,122.6268,30.2620,81.6583,-80.5491,84.2960,118.0908
-36.0640,47.1456,-26.9537,62.4935,51.5917,158.7350,54.5995,165.9622,27.2775,56.0414,19.9176,-60.8316,61.0812,102.7300,56.9611,47.5916,-50.9408,82.8919,66.6745
-36.0352,20.9731,-23.8660,18.7562,-19.8156,126.3873,38.2333,119.5404,29.9580,31.0700,-34.4756,-11.0451,47.8246,89.0047,54.6612,24.9965,-91.5981,14.4993,41.3722
-83.0368,-30.4268,-108.5683,-55.4672,-93.3029,48.9960,-11.3277,67.0184,7.1584,92.1383,-62.4316,85.2471,24.5243,71.8218,9.4947,44.6900,-201.4504,-70.6239,9.0943
-100.3245,-63.8466,-151.3280,-85.6399,-105.4948,-30.7402,-78.4258,9.2499,-44.2649,94.7635,-6.8076,78.5388,10.8957,36.3090,-23.0793,49.1377,-240.1182,-107.1198,-43.9702
-45.7668,-63.8212,-75.8261,-57.7185,-63.8015,-82.3577,-95.7690,-46.7535,-97.7766,-40.7094,44.3000,19.6855,-17.4654,1.6634,-59.5295,-16.1671,-124.1682,-95.8656,-79.8011
34.7951,-25.8105,38.6075,-2.3696,0.2198,-97.5240,-66.4586,-86.2271,-118.8725,-145.4995,33.0574,32.5656,-43.7229,-15.5945,-98.2121,-83.6848,28.3811,-56.3462,-88.4608
77.6776,36.7512,91.8620,50.9193,23.7554,-93.9361,-66.6064,-104.1008,-89.7874,-106.0722,19.5361,75.2336,-28.9624,-38.3555,-59.4668,-77.0672,79.1679,-7.0735,-115.1808
83.1803,93.9897,90.7186,95.7732,-40.7019,-78.0827,-109.7723,-72.9798,-61.8730,-24.0117,26.3106,78.2701,-29.8492,-52.8623,5.5793,-33.6263,64.3342,24.8416,-163.4878
99.9932,135.4781,106.6964,140.3332,-102.4961,-21.8286,-126.7129,19.9940,-87.3897,27.4916,25.0574,76.1423,-67.0515,2.0960,-27.6171,-2.1503,101.1219,26.2153,-157.3793
156.8716,167.6748,176.9021,179.4307,-55.0761,47.3515,-90.4646,85.2900,-104.2444,53.1680,53.8536,98.4225,-26.2716,93.0852,-63.5897,26.1886,225.6842,-0.4452,-73.1724
233.4370,192.1910,272.7122,204.8970,43.5068,36.4984,-46.0322,38.2073,-54.2112,14.6001,133.4273,146.9348,109.0196,118.3527,24.9204,35.4890,380.3086,-35.3435,-8.2102
275.0516,208.7894,325.0546,224.9535,99.0260,-34.8778,-25.0606,-35.0423,-16.3382,-61.5085,172.7904,215.7844,179.0970,90.8769,98.6960,4.8994,461.5237,-34.0619,-19.2690
249.4713,204.4697,289.4855,226.8618,121.3057,-27.5394,-7.2582,-9.3215,-26.4371,-52.6815,121.9776,237.0466,115.3175,72.0617,53.7201,-9.5824,397.6221,7.4104,-20.6147
187.4604,156.8387,197.5947,174.6177,130.9784,60.9782,38.8043,62.2501,14.7525,37.8541,49.8992,182.2053,24.8655,31.9444,33.8895,31.2204,240.2712,20.1218,42.1119
116.3117,79.9318,102.0943,81.7370,107.7239,73.8010,92.2401,55.2774,95.8695,73.4773,-8.7519,139.6653,-5.3095,-20.4434,72.2598,58.0302,111.5713,-23.1790,81.6162
25.3147,17.3543,17.8452,7.5034,58.2766,-14.9964,102.4190,-8.9384,95.7408,20.4637,-72.7726,122.2778,8.2386,-5.6122,39.2712,22.6041,65.5234,-50.7425,55.5638
-41.2054,-18.4778,-29.1245,-28.8006,30.5965,-66.1463,99.1217,-29.2041,69.0431,-25.8114,-97.3758,53.2187,23.4074,28.7459,-8.3723,-9.5923,76.0933,-23.3310,58.2130
-20.5422,-41.8905,-13.0736,-50.2442,55.3294,-48.8042,142.2455,-9.0530,124.5013,-15.6378,-49.9100,-0.8603,32.7810,-7.1015,44.6312,8.0258,86.0325,-7.4441,107.0934
21.7156,-50.5972,7.5051,-60.4698,86.0333,-55.7412,160.6059,-18.1305,151.4008,8.8748,-2.0581,48.9608,50.2769,-37.0917,88.8873,28.0875,38.9121,-52.2379,83.4234
0.3408,-39.5909,-21.9308,-46.8081,54.5924,-75.9775,73.9346,-42.9153,57.2849,9.8814,3.3024,67.6547,49.1711,-1.5671,34.0773,23.3690,-34.7348,-100.3200,-19.1675
-26.0386,-27.5614,-41.9079,-21.6597,3.4306,-41.6330,-15.9689,-29.9771,-24.5113,-4.0007,11.5491,-55.8551,-9.1853,1.0892,-20.3852,19.8866,-38.4053,-83.6524,-63.8577
-7.4515,-38.1119,-13.3051,-22.1504,12.0771,-15.9070,-16.7091,-17.2492,-24.8598,-23.5273,32.4435,-161.5634,-59.9046,-47.2853,-32.1675,6.6099,5.3298,-24.8255,-27.3981
-5.8665,-72.9586,-0.6212,-68.1600,38.5832,-66.7725,5.7594,-54.6849,-16.2319,-43.0517,36.6368,-104.0432,-13.7619,-57.7951,-36.3911,-35.2447,-17.7651,24.4029,9.8877
-30.2994,-108.5798,-26.4710,-126.6109,42.3394,-95.1107,48.2828,-69.0929,40.2388,-22.4927,24.8412,8.6963,57.6818,-60.0230,9.7996,-52.4935,-92.3281,69.0246,71.9150
-44.0656,-118.4408,-57.9293,-143.7833,79.5610,-13.7252,164.1403,10.4287,171.6650,52.5159,-13.0405,15.0926,37.3993,-97.3556,88.3875,-6.4854,-130.1792,117.0557,180.0467
-86.8510,-100.0075,-106.8749,-112.9658,114.3508,92.3765,230.3010,110.0192,211.4248,109.6747,-71.3239,-93.7176,-24.9033,-77.1156,79.2671,43.7925,-141.1703,141.2584,217.3453
-138.3289,-63.8294,-140.1001,-63.5365,70.6394,144.9896,161.6034,162.9997,116.8790,112.6590,-70.0172,-204.3435,-28.3494,14.6126,7.7655,49.9620,-125.8363,171.2921,170.7628
-85.6360,-13.9462,-66.2969,-10.1521,72.1643,187.4586,143.4619,221.4827,90.1303,139.9987,4.6140,-204.9507,17.1490,61.7607,5.2506,49.9765,-35.4442,265.6768,205.8831
30.1142,30.8434,58.0330,29.9289,208.1722,232.2516,264.6459,289.2954,172.4493,217.5985,43.5384,-90.0985,78.0834,69.1771,51.8311,70.0380,47.6303,346.5208,316.0126
61.3788,39.9467,81.2660,31.5740,277.2324,222.3454,321.4161,278.8064,188.8607,240.8822,29.2764,50.5469,136.3447,109.3093,56.1951,74.7688,11.6999,293.5864,300.5139
22.2240,26.9767,16.7732,21.5463,155.6694,171.3847,220.9020,199.5188,113.8507,161.5779,55.1761,125.6280,127.0051,120.1187,37.6156,47.2250,-47.8857,187.7279,154.4997
-6.0992,39.0173,-28.7679,52.3687,23.3787,152.8846,102.5663,153.2786,52.0117,65.7872,97.2665,88.0469,40.9618,66.9677,31.8590,17.1263,-20.3338,177.7233,48.4022
-47.5001,68.6717,-55.3023,96.2405,-19.9285,171.5418,28.7053,153.4181,-0.0088,20.4261,66.6243,-24.3823,-14.2725,60.1856,11.0648,2.3949,-3.9547,207.0985,0.0967
-95.2109,57.6172,-82.9379,78.3354,-79.1606,174.3870,-31.7724,142.9815,-61.0264,5.3415,25.1826,-100.3757,0.1917,109.8187,-21.8187,-9.8417,-77.1709,168.5142,-59.2533
-74.1538,3.4949,-68.1930,13.7572,-149.6678,147.1505,-52.1539,120.2311,-74.6930,-1.2486,82.0211,-117.9029,4.5711,89.1028,-25.6165,-25.1501,-137.0014,136.1605,-97.3229
-3.8642,-23.8819,-8.6193,-8.7720,-127.5030,121.9910,-33.4004,111.4113,-57.1666,8.7464,189.1877,-161.4811,-10.9400,17.1732,-12.9847,-28.9637,-111.5034,177.8835,-101.6557
38.4072,8.3948,46.8408,30.0644,-55.9898,110.2991,-39.3632,100.8091,-89.4548,28.9356,214.0948,-201.5798,6.8497,29.6514,-41.3315,-21.6790,-53.9483,190.6349,-129.3500
42.3231,52.3938,69.4732,65.3651,-50.7377,75.7249,-90.0861,60.2636,-158.2788,35.8090,123.4713,-134.9419,12.0046,89.0554,-114.3769,-26.7790,-16.1849,120.6431,-167.3212
23.8683,65.7061,46.3873,67.8689,-99.9004,9.0361,-162.1695,6.1464,-188.7392,29.9977,29.1823,-46.8042,-48.4046,54.9029,-149.0205,-39.0267,-17.7092,75.4190,-172.7713
1.7032,64.5898,4.9022,74.4442,-103.1706,-14.3769,-208.1571,-3.6284,-165.3795,30.6256,55.5865,-88.1272,-84.9079,-30.0638,-85.4444,-22.6094,-49.9731,105.3539,-165.3587
14.6904,69.5759,14.4458,99.2234,-37.6898,52.0547,-170.8790,49.0774,-130.0880,24.7713,161.0869,-184.8215,-23.5020,-16.9657,-1.0618,10.0623,-47.3131,125.3407,-151.1720
50.7231,72.8031,68.3908,111.6756,0.1673,120.8420,-98.4041,91.9754,-128.5262,-13.5461,196.3443,-180.0805,42.9310,76.2068,-9.6244,4.3304,21.1166,94.5881,-120.9645
46.5821,71.2016,78.9180,101.8431,-55.1997,109.4856,-102.9692,70.2082,-162.1437,-54.7691,131.1223,-101.1248,25.2628,118.7891,-82.0647,-34.7389,75.9815,70.7729,-106.6542
-10.4731,65.7862,21.7334,81.5032,-130.5621,77.3147,-154.5883,45.0269,-171.4848,-44.8751,42.6545,-70.9046,-25.2418,95.0647,-109.4325,-45.9926,51.0666,83.2959,-87.8679
-76.5852,41.2407,-50.0755,44.2089,-145.8881,92.1312,-142.4743,77.0642,-119.9775,11.5831,-35.0628,-110.7672,-52.9795,72.8077,-85.0252,-12.1577,-9.7257,92.4425,-2.4106
-103.7879,-1.5383,-93.4521,-4.3718,-125.4145,106.1733,-86.2306,110.0728,-66.2188,61.2507,-68.1209,-133.8325,-75.2016,59.4280,-80.1040,25.8274,-43.9497,61.3321,80.0646
-75.7619,-33.4588,-95.5470,-31.3170,-110.6060,69.7121,-74.1519,78.4352,-77.4300,58.0466,-13.1971,-79.4459,-86.9466,39.6576,-103.8887,31.1442,-60.2126,-5.7273,42.0961
-53.7448,-50.0439,-90.9047,-41.7508,-127.4327,14.9377,-115.2511,14.9432,-118.5210,3.7992,50.2518,-27.2394,-70.9330,24.4883,-100.7978,9.2032,-100.3440,-75.0036,-58.0596
-104.2640,-80.4574,-135.4106,-82.3058,-203.2406,-28.1580,-160.6303,-27.5124,-105.8861,-33.8732,20.5873,-88.2133,-67.5541,-6.3728,-50.8145,-1.3997,-168.1019,-109.7856,-94.4288
-166.8361,-131.4917,-195.0808,-155.7578,-274.5037,-67.7678,-159.8655,-55.3078,-43.4932,-6.0836,-36.1562,-193.5057,-88.1102,-63.2934,-7.5755,12.5267,-230.5977,-112.4117,-83.0702
-152.9243,-167.4112,-187.1267,-204.5713,-240.6647,-99.6084,-118.2723,-89.9892,-22.2844,32.3512,-27.8518,-188.2131,-68.3743,-81.6372,-20.2692,15.3723,-271.0607,-124.4118,-99.2146
-98.8113,-147.0239,-133.8447,-181.2065,-156.7398,-111.8199,-117.8190,-120.5179,-69.1383,31.3408,6.6249,-78.0477,-10.4196,-44.5787,-49.3686,1.7061,-277.6737,-154.0474,-135.7382
-57.1647,-77.0725,-99.9111,-103.7024,-137.3311,-114.0046,-173.3115,-126.5852,-97.8656,36.6399,27.6493,30.6989,-2.9952,-39.9961,-33.8632,13.9022,-209.7994,-160.9978,-144.2764
-5.2569,-26.7021,-63.6992,-50.0773,-153.5042,-117.4037,-177.6279,-112.9179,-60.7991,65.5879,48.7674,95.3711,-50.4753,-84.6422,-7.4099,42.1752,-79.6144,-142.8463,-107.3426
40.4477,-44.0828,-10.1925,-70.1494,-138.6071,-119.6869,-102.5248,-100.7107,-17.8487,60.7075,42.6137,99.2504,-69.3907,-94.3467,-24.5481,34.6236,4.4594,-139.3886,-48.6997
21.9096,-82.7199,-1.6149,-111.4772,-113.5730,-120.0638,-46.7470,-101.8944,-3.0547,11.5643,-9.7847,49.7179,-49.5418,-70.4276,-38.6809,0.9885,-11.4232,-141.3338,-10.9443
-39.5409,-84.9738,-55.5994,-107.7371,-93.7043,-123.5282,-41.0621,-117.2233,17.1372,-42.9852,-63.9923,29.8643,-44.8783,-81.2351,-2.0258,-19.1934,-51.4600,-120.6470,-5.4595
-71.9978,-71.1291,-98.2330,-83.2646,-62.9758,-128.1069,-34.5762,-138.0919,32.2716,-80.1766,-86.5091,63.3325,-56.6190,-99.9767,18.7974,-25.6442,-45.4376,-112.8155,-9.7351
-38.4366,-68.5352,-63.2733,-74.8128,-30.5794,-124.1826,-24.1215,-145.1786,5.0377,-78.6802,-60.5311,55.0820,-56.3701,-79.6139,-27.7771,-22.6420,14.0528,-135.7079,-13.5334
52.7712,-59.4398,43.3347,-62.6609,3.0533,-113.8187,-19.7000,-135.3823,-21.5114,-54.5246,16.8120,-4.5977,-43.6634,-71.6297,-62.4401,-15.2070,115.8318,-129.0068,-1.3098
140.2096,-44.4547,149.2740,-49.5469,53.9164,-108.5801,14.3954,-123.9880,20.5771,-53.2150,66.7375,1.8684,-10.3796,-103.9560,-10.0644,-22.8530,190.8996,-78.9299,62.6018
163.2204,-39.2921,184.0161,-58.6128,122.0219,-94.9914,95.9810,-97.6325,110.3747,-32.4030,28.3388,98.3363,55.4783,-107.1373,76.3205,-23.8483,158.0682,-45.1595,154.3219
146.1906,-28.7842,161.8879,-56.8178,200.9293,-53.3230,186.6024,-42.5016,170.7632,36.0264,-10.5974,172.6530,116.8784,-59.1677,115.7814,5.1849,72.6394,-31.3994,184.9188
131.1927,-20.0759,137.7681,-31.2207,242.1611,-19.0790,224.5444,-10.2379,165.3368,24.3797,26.9676,153.2143,131.6775,-26.7765,114.8245,7.2411,41.2287,-11.1317,132.0856
106.0575,-45.8171,117.5137,-39.7131,177.9962,-34.6598,183.0701,-34.2914,125.6234,-88.5365,75.2424,81.2942,119.6729,-32.6203,116.9266,-37.5633,39.3398,-16.5613,71.1203
76.4797,-66.9489,89.0758,-71.1891,64.8154,-55.8948,112.4521,-47.2532,101.0163,-98.4563,75.4534,47.3140,109.4714,-34.5541,120.9202,-40.2980,6.3794,-47.8056,47.9686
55.4507,-18.1016,48.9719,-36.4307,18.0212,-27.2462,70.9050,-10.5921,92.7903,17.0235,29.3785,106.6964,78.8944,-14.4034,102.7765,13.7022,-21.4957,-50.5606,29.9014
-3.8393,61.0274,-28.2470,49.7667,5.4861,9.6609,40.1557,10.1746,67.1205,45.1469,-86.1718,207.9692,6.1684,16.4500,58.2230,34.8786,-12.7174,-55.6092,-8.1528
-100.2483,85.4571,-130.6854,82.9529,-60.9284,4.2564,-15.1298,-9.1080,18.8968,-7.4939,-231.5514,225.1944,-89.6150,41.0098,-9.7108,27.9751,-7.0335,-126.2566,-46.3147
-141.2048,52.4129,-182.6461,44.7514,-152.5835,-13.1677,-88.8814,-17.9794,-34.4146,26.9085,-274.1878,116.2388,-182.8466,24.3014,-87.2557,54.7686,-32.7614,-200.5866,-72.0501
-113.7639,8.1882,-168.3196,-4.1601,-212.2996,-17.2871,-160.3821,-18.8199,-79.4617,81.5062,-203.0733,1.5953,-245.5016,-39.7748,-128.8250,70.2209,-76.0805,-194.8608,-84.9812
-98.4956,-19.3754,-150.9900,-28.0043,-214.8361,-23.8039,-179.3026,-35.0005,-86.2190,32.4851,-153.1112,13.6114,-240.0910,-83.4911,-109.2993,29.6326,-100.1532,-141.0647,-54.7981
-111.4153,-19.2559,-152.3490,-21.3938,-130.3955,-11.1041,-100.9269,-21.9810,-37.6932,-22.1695,-166.8149,102.0311,-173.9744,-55.0484,-69.0145,0.4062,-71.4220,-88.1023,40.0611
-118.0283,-11.1752,-150.1969,-6.2176,-10.1526,47.7089,11.5655,38.0570,23.4385,2.7936,-157.1426,102.0437,-98.9836,3.5364,-41.0647,24.2556,-23.1375,-37.4779,142.4426
-97.3588,-29.5966,-120.4601,-20.5064,50.5781,104.7792,72.5680,80.5513,53.8297,35.0979,-69.9261,-10.6261,-28.8694,33.3387,-8.9942,50.2686,-13.7766,-3.1716,170.7417
-7.7790,-52.9406,-19.2436,-43.7086,88.5385,106.1119,97.1344,72.3858,52.8803,39.4555,64.5724,-86.6160,39.2847,23.8454,19.3917,42.3678,-14.9648,12.5359,125.1729
131.7038,-31.4886,126.8808,-17.6046,162.8900,69.2979,95.1624,46.0497,22.8694,39.6715,158.4226,-37.5827,54.4753,-19.2204,13.9035,15.6606,16.7584,31.2098,73.9509
187.8774,21.8395,182.4719,42.9517,202.4061,37.3998,50.4013,30.3382,-7.6152,28.5331,124.6171,59.3595,3.6928,-63.6776,3.5926,-0.6867,43.6888,34.6717,64.6073
121.5277,60.9224,119.2859,78.1330,177.7227,39.8205,48.4104,43.8562,24.8979,28.6878,3.3530,96.8033,-19.7791,-44.5632,28.3589,16.7369,54.8089,15.3271,87.7473
59.2560,75.2811,68.6662,80.0200,151.9757,85.0093,134.6382,87.9943,102.5272,71.0917,-61.2595,51.2824,23.4509,31.2226,59.2346,56.6099,92.6752,12.7188,102.3105
50.6988,66.2770,61.5423,65.0521,99.6958,120.9788,166.0911,109.2906,128.4812,93.9767,-35.1244,-16.5439,44.2600,68.1383,68.7442,81.4746,119.8890,-7.1531,78.7819
21.4715,39.8072,13.5121,40.8273,-15.6680,73.7771,65.9687,56.4591,83.3544,33.4223,-25.1366,-24.5919,-0.0955,35.6476,73.8727,73.8201,77.9062,-107.9279,8.2632
-31.0026,39.8635,-51.9408,41.0871,-115.2362,-31.2640,-50.8582,-33.9546,22.0654,-46.1338,-81.7953,32.5573,-52.5461,-2.0212,64.3958,39.5009,12.9592,-192.2871,-112.2897
-65.2395,85.4122,-81.8176,76.8283,-169.5958,-87.3409,-124.4625,-77.9968,-26.7847,-32.0509,-151.1305,80.7921,-93.6971,-20.6283,26.1006,8.6907,-42.5317,-135.7497,-233.5213
-116.9650,103.4548,-140.8275,79.1679,-219.4792,-60.9054,-167.7203,-51.1122,-35.1176,63.5685,-191.8737,78.5959,-132.5662,-39.3839,2.8468,22.3942,-121.6523,-32.9646,-240.1969
-180.4270,34.5337,-222.4516,7.5675,-200.7395,-27.0857,-117.9161,-17.1347,11.0229,95.5730,-185.4915,42.4987,-122.4734,-37.8835,7.1028,52.1310,-157.6132,-26.3182,-108.8666
-141.9896,-55.4239,-170.9849,-63.7704,-56.2964,-47.4050,14.9416,-40.2223,42.6774,0.8847,-101.5138,-11.1122,-47.9633,-14.2645,-16.5076,23.6548,-43.4192,-56.4093,21.6950
28.8613,-70.0431,44.9615,-60.1391,107.7970,-88.8151,91.0133,-86.2918,19.5934,-89.5712,35.2705,-55.2449,24.9737,-24.7487,-50.7957,-43.2247,142.5316,-10.2622,64.2309
201.2300,-16.9675,254.5739,-5.6731,194.6902,-75.3856,94.0420,-75.3378,17.4219,-80.5611,133.1493,-55.6535,67.9775,-65.8353,-11.5315,-69.4971,243.8228,80.3306,89.3136
254.7390,35.6832,321.2741,46.0132,231.3664,9.9707,131.7493,-10.5706,72.9061,-50.2341,143.5326,-30.2539,104.1743,-58.8624,71.7388,-51.5400,264.1770,129.4377,138.3999
195.5409,66.8198,252.1611,85.2946,250.3939,97.3718,201.9090,45.8074,123.1665,-34.9686,99.1750,-16.8684,112.2222,0.8814,91.8838,-16.7916,289.9108,134.6949,163.7041
118.8228,102.2547,152.8541,129.4597,261.7565,118.5008,230.0810,75.4149,138.7283,14.1676,59.9218,-10.5615,80.3439,35.4307,58.6325,25.6361,336.8942,164.3691,157.3619
134.4385,157.9707,172.1515,192.3159,293.2103,94.1834,209.7038,82.5214,125.5279,40.6081,82.9640,-2.9710,75.2610,24.7381,53.1694,27.8156,401.0973,253.3011,134.0352
252.7622,218.6853,329.0758,261.7326,343.3662,88.0935,164.9975,61.4724,71.4092,-4.1496,160.5615,-5.0609,116.7379,13.4616,63.7602,-22.2129,481.2921,328.0616,84.9083
329.3958,248.6438,423.7937,293.3136,365.9892,108.9084,122.1325,47.3359,21.8722,-11.3168,179.7742,-9.7080,120.7498,14.3476,46.8798,-33.6968,512.3518,304.6429,61.6120
258.4754,225.7537,330.1376,259.9372,322.2331,123.6014,117.3652,83.3840,50.2344,50.9510,95.3821,-7.7922,75.4738,18.3937,46.5497,19.4449,446.5911,235.5113,122.6665
168.8297,173.2867,225.4708,192.1669,235.7356,127.4758,152.5312,135.0128,124.7879,78.7693,57.0879,-9.8015,87.5676,35.5397,101.7060,50.6826,371.0117,217.2758,201.0911
223.5365,138.7953,289.2100,142.6397,201.0384,129.8417,202.9203,145.3401,168.7315,92.9435,155.7742,-15.7584,168.4673,52.2289,146.6573,46.9120,389.6444,234.5974,213.3198
329.7450,146.3951,398.7162,142.1962,253.5319,116.6487,237.7057,121.1509,168.4035,149.0759,232.8069,-6.5299,196.4770,40.9139,121.4733,54.8019,454.2331,238.9236,179.6021
307.1422,178.1295,368.8174,182.2196,278.7132,87.2234,202.1233,87.1035,123.8275,134.3428,174.2992,40.5636,150.4209,33.1345,74.3129,42.9216,443.7184,227.1348,121.0742
198.8716,182.8628,246.4401,200.9177,196.7386,68.1175,96.2687,46.5304,45.3414,21.8701,118.3483,115.9297,131.3550,61.1865,66.9065,1.0835,335.2606,170.3015,34.2855
146.0454,123.9673,161.2844,141.0180,94.3468,55.7455,16.4180,19.6629,-1.7077,-13.4530,162.8642,140.6318,137.2351,66.8576,77.0014,2.5039,196.4931,62.2914,-22.6718
137.2043,43.5563,122.7394,49.2966,44.1929,23.3337,-0.0547,22.3267,2.5806,50.6549,188.0563,68.2505,85.2401,12.4961,59.0748,39.3219,90.7253,-8.3503,-16.5370
102.9997,18.6475,95.3286,19.2229,2.5367,-15.9813,-28.9187,15.3449,-13.9999,49.4253,108.4237,-1.2195,8.6422,-25.0803,18.2506,27.1941,42.0443,-14.8992,-23.2136
50.6624,39.5520,62.1350,37.8977,-64.9311,-38.0725,-105.9705,-36.0682,-74.7556,-24.9948,4.1281,21.3174,-22.9561,-8.3963,-17.9138,-19.6761,15.4572,-44.5212,-88.0421
-13.1992,33.0014,-12.3143,26.1738,-134.6111,-54.5632,-178.6127,-87.4887,-116.6056,-55.9190,-45.8338,65.1957,-41.6082,-6.5052,-35.8020,-34.6993,-51.1159,-92.2478,-141.1758
-88.9214,-7.9697,-111.1035,-15.4046,-159.6880,-64.9932,-186.6443,-82.8695,-107.0075,-49.5350,-47.6478,73.7220,-52.0756,-22.9633,-29.8741,-31.3782,-140.7581,-70.5527,-119.3715
-123.2625,-40.0318,-144.2144,-46.6750,-105.7386,-50.9052,-115.1309,-48.7311,-67.1051,-51.1132,-38.4292,89.0168,1.1109,3.0486,-9.1141,-39.1157,-184.4307,-16.2508,-50.7470
-102.0238,-63.1471,-108.1514,-80.0409,-29.8278,-35.0487,-26.7993,-31.7935,-20.3387,-18.1480,-47.9087,79.9236,59.6879,28.6235,2.3916,-33.3334,-199.5777,-8.7701,1.2185
-89.3949,-84.7468,-93.8548,-111.5648,-11.2286,-35.0199,10.2285,-8.8370,18.3926,51.8076,-67.8454,-13.2803,32.2166,-4.6652,4.8290,-2.1000,-230.2093,-7.4258,17.6036
-103.7801,-79.4672,-113.0921,-96.6513,-1.9085,-14.1215,33.5845,36.1863,52.8221,71.6843,-72.3754,-107.8501,-11.8997,-31.5022,27.5836,25.7904,-221.1130,16.6410,31.2715
-117.4832,-61.0620,-126.0447,-65.5220,26.5814,22.5471,71.9752,44.7140,88.1458,27.3716,-76.2098,-111.5936,3.0403,-14.4765,66.1032,32.7341,-155.9609,5.3658,57.2384
-144.1618,-79.7019,-160.1623,-96.1048,-39.4228,19.8791,50.4271,7.7197,92.4939,15.5731,-89.2123,-59.2956,7.8748,-13.8857,64.9877,26.3402,-149.7261,-21.8466,70.7353
-178.7194,-119.2183,-212.0989,-157.3879,-185.2918,8.8026,-13.5563,12.1686,53.8232,64.5203,-77.2867,-2.6573,-27.4414,-16.9370,6.1409,14.0885,-219.3174,13.0538,70.1770
-171.4418,-113.9538,-204.0892,-150.4108,-220.7964,54.8107,5.1385,69.9266,30.4491,80.7347,-56.2928,21.8219,-37.5280,29.0568,-42.3146,1.9755,-219.5335,63.9075,67.9338
-135.3267,-54.3282,-148.6087,-71.2918,-139.2546,102.2771,69.5882,90.3293,49.9628,36.4719,-89.0394,-7.8040,-33.8893,67.7238,-28.9073,6.2065,-118.7666,37.0694,40.7314
-122.9842,10.6489,-133.5750,3.1336,-99.4937,76.1446,49.1752,56.8653,52.5075,18.2864,-150.3296,1.4750,-59.7008,57.0212,-7.7483,27.5601,-43.0528,-29.3484,-7.6653
-125.4715,29.6041,-150.0302,17.6737,-110.5036,18.1604,-13.7041,20.0352,12.2725,34.4388,-161.8503,107.9639,-67.9321,49.5695,-34.4107,27.9517,-42.4328,-48.5169,-20.9379
-128.4092,-28.4466,-152.0080,-49.2193,-106.8042,-32.6496,-22.2255,-32.1171,-4.4195,7.6762,-126.1434,142.5900,-32.3668,29.6394,-53.5135,-11.3510,-82.4682,-28.2367,7.0205
-156.6307,-135.2732,-169.4147,-165.4622,-100.8291,-97.2970,2.9579,-105.9567,38.0075,-48.3465,-87.9304,12.1115,1.0712,-47.7757,-10.4919,-49.6270,-156.7335,-9.2724,28.5704
-188.9464,-192.5841,-201.2423,-219.5969,-67.2348,-132.8141,35.8703,-137.6060,72.3764,-87.1429,-59.0424,-74.2724,22.8049,-92.3333,27.3020,-67.3770,-213.2072,15.4719,29.4986
-171.5147,-145.1750,-182.3074,-147.2422,12.8551,-88.3399,63.2350,-118.4757,35.1248,-142.6185,-47.8145,3.8802,34.6120,-41.1279,-4.6573,-93.5926,-166.5276,40.1442,9.9726
-119.3429,-73.5668,-124.0161,-53.9451,34.2168,-46.9708,26.2424,-114.0735,-32.2633,-200.3927,-51.6231,74.5068,5.1022,-6.6320,-45.4473,-114.4410,-79.9941,14.2345,-34.4175
-88.0893,-82.7704,-99.5104,-71.8208,-46.5592,-89.8124,-53.7056,-132.1367,-51.9720,-179.6773,-41.2445,28.5113,-38.6301,-54.5629,-29.6555,-91.6549,-101.9925,-67.0023,-71.9031
-95.1221,-146.1844,-119.0278,-160.0195,-132.9029,-141.5403,-87.3555,-133.8420,-28.5395,-103.0961,-27.3483,-56.4230,-48.4386,-98.9996,1.6804,-50.8759,-214.3593,-134.5589,-85.7185
-119.9540,-161.6370,-148.1002,-188.3981,-195.2123,-122.8765,-103.6533,-122.2979,-26.2058,-48.5535,-46.1299,-119.3246,-72.1003,-99.8980,-10.3763,-25.8803,-260.8966,-150.1014,-108.5171
-117.6574,-112.7905,-148.5115,-135.1162,-257.1943,-89.9139,-165.3512,-116.3765,-70.6350,-34.7861,-65.2261,-123.6119,-141.4619,-98.5543,-60.9608,-17.5511,-182.0736,-138.1457,-135.1666
-53.7899,-67.0932,-74.3903,-74.6578,-254.7246,-104.9891,-204.9203,-117.0059,-128.5482,-82.6462,-35.8607,-58.5929,-172.0656,-95.3558,-110.5485,-51.8303,-58.5785,-104.6308,-128.2422
27.6772,-62.9306,41.3341,-58.0040,-161.2823,-124.4868,-148.0387,-116.5495,-136.2755,-160.2432,4.4084,-39.9594,-125.0628,-81.8803,-117.7401,-110.9770,16.8623,-52.4025,-95.8911
43.0026,-96.8582,69.2508,-96.6750,-74.9549,-94.5612,-29.3022,-94.2069,-52.0349,-136.8912,2.2710,-122.9722,-80.6641,-83.5963,-72.8434,-94.3474,3.3891,-46.0768,-48.4711
-19.8555,-160.1452,-34.1558,-175.4786,-57.0976,-51.7763,77.0282,-54.7825,63.9677,-29.6426,-22.3281,-150.8704,-75.4946,-94.2362,-20.5452,-11.2696,-95.6429,-109.5234,15.9929
-114.2138,-214.1749,-165.6530,-235.2960,-62.8790,-56.9956,110.4371,-44.4137,104.4173,-6.9746,-45.8152,-74.5731,-56.9198,-84.7325,3.7176,10.6851,-227.7253,-140.1918,52.9797
-208.8358,-209.9165,-246.1377,-227.3611,-34.6350,-88.4306,77.1268,-61.7070,78.6711,-44.8979,-88.3260,-81.9717,-8.8315,-58.4734,15.0701,-19.0016,-305.8230,-72.4764,42.6995
-256.1167,-163.9117,-267.6467,-177.2277,32.3485,-95.4246,55.7230,-68.2211,62.5345,-21.1516,-123.5124,-184.2750,24.3457,-35.3078,14.2829,-7.4610,-277.6108,1.0555,26.8771
-183.6165,-128.2374,-198.0277,-131.1173,77.2980,-113.7169,44.8458,-102.6847,28.4734,-30.8214,-73.4966,-147.4846,18.0870,-42.3980,-17.8240,-10.3246,-179.1925,-17.6663,-17.6340
-30.3848,-110.5270,-54.7663,-99.6823,43.2898,-186.9641,-39.0844,-200.9755,-65.0501,-151.3310,30.7715,20.8155,-14.7736,-97.3987,-52.3797,-84.5569,-105.7921,-103.0021,-132.8967
25.6400,-102.8516,4.7830,-92.0103,-41.7344,-240.0868,-161.0284,-270.3076,-141.9323,-223.8508,39.0400,52.8450,-61.7537,-148.8637,-58.4096,-126.1496,-130.6791,-184.4277,-229.6832
-90.0502,-114.1643,-113.2908,-112.8847,-139.0419,-207.3823,-224.5625,-243.5609,-157.6578,-186.2264,-74.9054,-52.5134,-120.4728,-131.2611,-74.2206,-90.0028,-227.4180,-230.8719,-233.9317
-203.8377,-120.1485,-246.0896,-119.2776,-252.5812,-171.8573,-263.9008,-209.6040,-183.1558,-176.4971,-144.2429,-51.5952,-181.6963,-88.3125,-126.6106,-74.5151,-260.1227,-240.8669,-231.5191
-133.8966,-78.4423,-180.1235,-69.7952,-316.7627,-202.1825,-322.4269,-232.0957,-233.8189,-210.1734,-77.5411,25.8728,-221.9306,-105.1124,-167.1513,-101.6601,-126.6789,-216.1360,-271.5452
61.7150,-6.4583,52.7016,6.4681,-226.9056,-222.5110,-325.7428,-241.2708,-245.1206,-182.6125,21.0163,-22.7546,-209.6030,-151.7911,-161.1107,-104.0154,73.6649,-161.8091,-273.1389
201.0349,38.5746,235.1894,50.0640,-42.2205,-176.6410,-246.6661,-194.9214,-217.6111,-107.7619,59.8171,-92.9569,-130.3237,-135.6043,-133.6979,-80.8117,141.2924,-116.1807,-214.9093
190.2492,27.6085,222.3281,36.2064,55.0166,-120.0352,-165.1665,-145.7291,-186.7261,-79.0392,56.4066,-4.1185,-32.7107,-62.3252,-101.9538,-68.9170,43.6642,-123.8817,-160.2029
58.0399,-25.3222,60.1312,-12.7838,17.1267,-90.2494,-116.7299,-126.4575,-138.4241,-133.0372,30.2687,75.4595,2.5468,-20.5382,-56.7553,-74.2946,-68.8060,-139.4240,-121.5811
-68.7333,-63.9888,-71.0342,-40.0703,-26.1697,-73.8947,-73.8540,-120.2759,-74.2249,-217.7730,-3.8287,-0.3628,-9.5736,-32.0376,-4.8480,-92.8147,-82.6203,-85.6893,-84.7955
-66.7687,-39.4665,-47.0240,-14.6199,17.7076,-77.1814,-31.8170,-118.8649,-32.1942,-228.5034,-13.0711,-36.8313,23.1229,-32.3234,31.6799,-100.5217,-19.3344,-18.0508,-64.5919
-1.6667,1.6972,31.0221,12.7013,82.6024,-88.9532,-1.1803,-115.6056,-15.4800,-154.8553,-13.3230,23.8563,82.0034,-1.5673,37.7378,-75.2814,32.1431,-20.1491,-53.0568
-26.9051,-15.7661,-1.2828,-7.2393,90.9403,-58.4582,22.7721,-82.8288,-5.9671,-102.2734,-22.8084,-27.1940,68.7744,11.6407,13.3690,-46.0841,12.4264,-16.4101,-22.7971
-77.3865,-39.4598,-68.3072,-14.7823,95.0764,14.0864,45.1274,-10.6681,-8.7229,-76.7245,5.1192,-127.7919,15.9688,9.6943,-19.9362,-28.8201,-21.9202,54.8617,13.8437
11.6608,29.8122,10.9099,61.1226,133.7319,62.0961,46.2894,57.0885,-26.1737,-1.1842,52.6994,-45.6256,3.5889,30.3106,-35.7226,4.3816,38.5040,78.8621,18.9666
153.0918,131.7537,162.2782,149.4741,114.4147,43.8732,-1.4579,63.8141,-40.7505,64.9135,19.5007,88.2590,-26.3555,26.3821,-33.2756,32.9697,153.6780,8.7963,-9.8073
159.3741,123.1970,184.2377,125.5268,18.5123,-14.0278,-62.0813,14.7673,-40.0202,38.0942,-61.5908,53.2174,-103.2989,-44.9107,-34.0378,9.4347,165.7567,-20.9184,-20.0191
80.0260,13.5548,108.2335,9.1866,-18.6576,-45.0220,-61.8910,-25.3397,-40.5941,-12.5375,-51.3944,-43.0428,-106.6292,-89.5906,-56.0892,-40.7569,65.6068,37.8874,25.7850
57.5290,-61.5584,93.8564,-63.7398,43.4272,-5.9628,-14.1817,-11.5651,-63.8628,-25.8169,34.6952,-86.1256,-15.4377,-37.2104,-90.2515,-69.2986,0.0452,98.4921,88.3739
88.4102,-42.1298,146.4541,-33.9329,128.9115,67.2743,37.0069,44.4572,-63.8171,-24.7274,64.1870,-120.1484,37.9439,16.2939,-87.0869,-70.5433,28.5992,147.3532,136.5056
125.4670,24.6529,188.3427,41.5815,243.7609,107.7819,129.0861,102.9906,28.6907,6.8518,20.2804,-80.6170,37.5692,-2.4805,-10.7266,-41.8312,90.0928,202.5596,199.5037
157.1311,84.4268,200.5933,101.9473,378.4541,110.4250,242.8331,128.1692,148.0437,71.6056,-11.8321,51.1319,70.9744,-19.9830,82.7384,10.8174,136.2128,210.2339,246.9826
147.1163,105.9310,176.1878,121.5530,411.2344,109.7239,262.5869,119.5599,166.9539,116.6883,9.0117,76.2434,120.4732,12.8225,106.2963,52.2394,143.5205,173.7927,207.8647
97.5670,81.9357,122.0693,91.9317,334.1259,111.5659,212.0670,112.3921,126.8205,146.9183,52.3859,-26.6729,135.5264,44.5954,78.0636,72.2812,110.0155,161.5877,145.4319
73.0537,51.7334,89.6009,52.2309,267.8429,108.2988,203.4192,116.8736,135.0107,165.4772,64.6897,-44.0873,135.6082,50.3478,76.7109,84.6188,94.2717,143.8776,156.0216
72.0147,50.5015,81.9144,52.5614,210.8849,99.6762,179.6931,105.4904,135.3440,115.1861,39.0782,14.0091,113.7523,52.8094,89.5930,81.8420,127.9770,63.4182,174.5337
51.4444,47.8365,57.4537,59.7684,107.7126,80.5632,77.4725,80.3911,62.2531,44.1117,30.3085,-8.9760,53.3777,51.5054,53.5785,66.3173,147.2437,-13.8631,132.8271
51.6841,23.1417,54.6405,31.2914,34.9723,65.5516,24.1454,75.8384,11.5710,52.2077,58.2175,-46.0217,17.5217,42.9447,0.6197,55.1472,127.3232,-9.7797,104.5006
114.7526,26.3924,128.0108,26.3079,64.6662,87.4961,79.9452,97.4193,38.2052,78.3204,84.7631,-0.5415,43.2853,43.1813,4.7824,39.7733,137.4196,43.8480,125.7266
174.0117,65.9183,201.1767,76.5809,141.3861,131.5294,128.5504,123.0574,60.5426,53.2829,103.7825,33.7053,70.8434,48.2652,42.0479,23.8593,172.9894,84.8495,135.0436
148.6075,66.9152,163.0539,90.4027,181.4012,141.9408,124.3476,126.8207,48.5192,49.8930,116.2264,6.1170,61.6027,41.6309,42.5925,33.1177,133.2301,87.3036,110.3080
60.1316,24.5509,50.8570,40.6589,140.4778,105.4375,98.6697,88.6359,34.1661,69.9190,82.7351,-9.3391,40.2142,32.4258,13.0531,42.2405,26.6591,56.0003,57.1379
11.9732,20.0803,8.5976,26.2568,55.9156,60.9223,42.6729,38.6468,6.7538,33.0938,32.9568,5.3861,29.8572,32.4672,1.5752,13.4158,-11.4084,39.0464,-7.4744
70.9119,48.2626,91.8490,56.2460,40.8458,48.8840,11.7741,40.1523,-10.5352,-3.4240,61.2491,10.1426,40.4789,24.3710,17.5482,-15.6746,56.2024,76.0902,1.6505
161.8207,35.7865,188.0624,43.7356,105.5521,80.9753,72.6700,80.9154,34.3602,34.0374,138.8286,-12.6316,61.3798,-3.1699,45.1946,-1.4453,114.8519,115.1474,92.8480
154.4412,2.1343,164.4855,5.5973,122.5779,114.2171,118.8688,84.5927,78.6269,68.0216,144.1325,-44.3260,59.6152,-18.9411,64.1221,29.1835,79.7113,76.0518,113.7389
55.9460,2.3464,44.8465,3.2014,48.6397,81.6650,40.4555,40.6848,34.5021,54.6148,68.8537,-19.5251,34.3820,1.7389,48.6932,42.0197,-21.0624,-22.2489,16.8486
-30.9010,1.5698,-58.9404,-8.0305,-46.1010,-0.8156,-74.3141,5.0574,-39.1105,62.7314,-7.8044,60.4051,7.2312,22.8028,4.1592,42.1506,-127.2469,-89.3609,-49.2602
-86.2632,-39.9422,-121.7956,-66.6897,-123.7828,-40.6171,-112.0579,2.2637,-48.1457,100.3827,-59.9007,54.4933,-30.6483,8.8806,-30.1803,47.8055,-191.5894,-99.0593,-19.5088
-135.3578,-82.5598,-171.6423,-111.2210,-155.3227,-11.6900,-76.7947,18.3572,-7.5776,108.2978,-90.6651,-70.2255,-71.6805,-6.8425,-35.5315,67.9377,-180.8911,-105.6316,27.5553
-146.7955,-86.2445,-182.5358,-100.9121,-113.8358,31.0960,-7.0772,41.8731,37.2921,77.9871,-84.4130,-128.0047,-67.4834,9.0687,-15.1220,82.5406,-111.7018,-114.4034,66.9660
-102.9969,-55.1202,-132.8108,-60.4278,-56.2342,69.6839,58.3056,71.1385,78.3908,47.3170,-36.2981,-42.5579,-11.6117,33.4509,30.9303,68.1749,-34.3671,-57.7926,116.2717
-39.3711,-3.0467,-57.4249,-4.6353,-22.9411,110.2477,86.6193,104.7236,98.3716,48.2884,36.9066,35.4795,46.5504,50.4338,73.6502,50.8862,36.7020,48.0955,136.2855
18.9741,49.4513,11.3498,56.5010,34.1484,114.4070,85.0340,121.4705,77.4439,71.2129,85.2922,34.1039,67.5026,63.7971,67.8787,55.7002,103.2223,96.8739,109.1190
51.7103,89.4358,55.1822,103.8744,115.0027,85.5648,71.9720,109.4487,44.4206,82.2456,53.1952,35.7681,50.1839,57.1180,34.1848,54.3202,134.3316,102.2756,90.5854
45.6514,129.1612,63.5184,144.1505,178.4047,108.8980,79.7083,119.7851,48.0147,94.4979,-8.4416,65.8109,47.2405,52.8336,35.4264,41.5789,122.7850,171.2377,114.8405
46.0098,160.5755,70.7783,179.6432,234.7128,184.2052,138.2442,176.0444,77.2700,115.8186,13.2685,93.2269,109.0198,103.4321,70.3413,46.7989,112.2450,243.0965,133.8991
88.1285,153.4054,103.4417,180.4880,244.4911,185.6587,163.1168,180.4844,66.4532,84.4242,88.0288,143.8730,163.8808,151.0371,84.6101,48.8573,113.4504,166.6297,88.5126
124.8060,120.6730,119.6112,144.3466,143.4023,83.3913,63.8297,83.6656,6.9633,11.4971,94.3216,220.9547,108.6287,98.1728,62.3548,24.3175,97.0261,3.6937,4.0543
118.4563,99.4000,96.9247,110.4520,20.2472,6.5870,-39.8536,7.4228,-27.9070,-5.3662,49.3706,243.7018,10.5775,14.4583,34.9797,10.0516,69.8667,-66.9075,-50.9036
85.6671,88.1770,65.5118,96.7435,-21.2501,20.1319,-29.1483,23.7619,-19.6813,4.8578,35.3368,180.2138,-9.4959,19.2023,25.4542,12.2199,45.3815,-47.2031,-78.5011
30.9281,72.0646,20.9191,86.3564,-39.8356,43.0833,-21.4766,41.6424,-30.6626,-32.3730,17.2714,112.0859,5.6527,60.6420,22.5626,1.0059,1.0628,-49.0050,-100.2435
-23.8653,53.4303,-36.5645,63.9775,-67.9627,23.1743,-80.4460,23.7306,-54.9317,-34.4760,-31.2852,88.5322,-16.0257,49.5999,12.2165,7.3552,-44.1784,-80.5730,-72.6187
-27.4326,34.4788,-51.3235,36.4965,-46.4944,1.5775,-76.3223,29.6105,-28.1764,37.9431,-27.9810,54.5071,-22.8686,23.4186,14.9441,51.7123,-33.9453,-90.1546,-9.6764
-12.1002,22.5032,-38.6133,24.7381,-18.7484,-1.9889,-14.9294,40.2238,20.0353,61.6976,24.6962,4.8325,6.3166,19.9269,41.9732,70.8779,1.9650,-68.1302,-8.9202
-52.8782,24.3852,-79.3699,25.7850,-53.6049,-10.5367,-25.0512,10.8724,19.6625,25.1384,6.6751,27.2003,3.3906,13.2877,44.9929,42.1630,-14.8506,-31.1702,-47.4808
-114.8276,16.1362,-143.1741,6.3617,-91.6187,-19.7778,-57.1581,-13.9694,2.1492,22.5685,-83.2717,95.7338,-29.3843,7.5063,6.9264,18.2720,-68.0813,-11.5215,-25.3524
-136.5486,-26.0321,-158.2371,-45.0562,-100.1999,-26.7380,-25.6963,-24.8189,27.4543,12.6213,-130.8864,65.9569,-35.9121,0.0174,2.8279,10.3119,-101.3316,-38.8135,6.5834
-158.3443,-84.5614,-176.0882,-107.6954,-133.5428,-72.8964,-13.2232,-81.8347,63.8117,-41.6202,-128.9321,-45.3244,-36.7987,-49.4153,46.4150,-1.7879,-138.8560,-92.7558,-36.0862
-204.5047,-125.8623,-236.1807,-156.1920,-182.9548,-160.0025,-74.4402,-154.7492,40.3858,-53.9854,-149.7377,-71.6754,-73.7952,-103.9492,28.7309,-9.9377,-201.1011,-134.5352,-87.9177
-216.3272,-123.0980,-258.2251,-151.9973,-214.2391,-204.0596,-149.4541,-160.7921,-47.1811,-41.8380,-178.9866,-5.5881,-129.8075,-91.7683,-70.7379,-20.8970,-211.4121,-151.5791,-92.8959
-179.7262,-78.2675,-210.8052,-88.5175,-232.4387,-167.7215,-197.6644,-127.9758,-118.7477,-87.3803,-166.7467,12.5977,-173.0381,-62.1226,-127.6604,-44.4111,-123.9646,-133.6674,-88.7799
-133.8298,-54.5397,-149.7913,-54.1335,-194.4780,-137.6754,-183.4251,-130.2164,-103.1597,-119.1353,-135.1535,-41.0216,-176.9227,-89.7709,-102.4986,-54.7254,-37.5570,-92.5047,-72.2157
-87.1033,-98.7534,-92.2420,-110.7252,-87.5721,-174.8529,-97.0708,-162.4295,-45.3984,-86.2435,-121.1503,-75.7788,-128.9470,-129.0669,-80.5380,-56.1750,-61.6524,-81.5013,-39.5477
-55.6672,-147.5786,-51.7733,-170.8062,-23.7099,-209.7378,-38.8847,-183.8410,-29.1394,-81.0029,-111.7660,-60.0118,-73.6563,-129.0180,-78.8099,-76.8335,-142.7435,-98.1722,-40.0678
-58.1078,-130.9897,-54.8360,-149.4620,-39.7180,-178.5562,-51.2296,-169.8551,-29.6313,-98.3275,-84.2974,-42.6020,-57.5437,-119.7082,-52.3066,-82.1094,-137.4816,-71.2185,-41.2614
-46.9874,-84.9974,-44.5776,-97.4669,-38.1416,-125.3863,-41.0205,-117.1621,-2.4921,-55.8051,-51.4323,-67.1664,-58.0408,-106.0403,-30.2526,-44.7960,-31.4965,-15.1229,8.8578
-8.6185,-57.0311,8.2362,-68.0730,-20.1229,-98.3811,-17.5226,-75.8079,-5.1035,-24.7669,-52.1070,-103.0291,-54.5102,-67.1327,-50.1674,-24.4782,36.5442,-20.7070,21.1687
-25.2567,-31.8963,0.3460,-38.1128,-56.8649,-82.8050,-66.6997,-91.8815,-58.1314,-79.5111,-95.3806,-78.0538,-62.8992,-36.0985,-64.6125,-52.6812,-10.3109,-61.1491,-60.1172
-95.9237,8.6518,-79.4223,8.5725,-92.5358,-55.5636,-112.0737,-97.1588,-80.0545,-111.1149,-126.8261,-7.7623,-62.1455,-19.6568,-44.8467,-73.4639,-78.1827,-13.3401,-127.2616
-108.5004,76.7835,-90.1693,81.6252,-65.5223,6.9417,-73.8236,0.0325,-65.1128,-34.2444,-102.1854,19.7721,-32.1243,39.0702,-39.1720,-52.1979,-61.3466,130.5612,-126.6872
-60.4374,167.3663,-30.1562,182.7262,-35.0476,112.1210,-50.1756,136.4628,-76.1942,61.9072,-51.9823,-1.0100,-18.4990,115.2114,-52.7487,-11.6281,15.3373,247.9469,-109.2619
-48.8439,195.8662,-26.7012,224.5005,-19.4799,179.4944,-67.7124,172.0332,-73.6045,67.3544,-14.6461,-20.4474,-24.8598,116.4196,-24.4006,18.3952,69.2211,249.7346,-61.7510
-77.1348,101.4872,-66.8700,132.7217,31.1827,131.8082,-11.5056,101.9640,-10.2117,-15.4902,3.2585,-42.1607,16.9630,74.3343,33.2621,13.2265,62.0532,152.2287,22.0261
-95.3235,-16.6915,-80.0879,4.9751,77.8675,50.6244,87.4445,38.4440,36.2221,-85.4603,-11.0065,-58.3018,79.3453,80.2177,36.3404,-14.8960,3.2156,40.6380,60.0657
-91.2193,-48.5619,-87.4800,-37.5972,62.9895,49.2552,94.8625,36.1189,26.0022,-44.2856,-27.1650,-40.8079,57.3909,78.4187,-5.5838,-7.0428,-56.6337,0.9382,52.8583
-37.9035,-35.9141,-67.1281,-31.0082,43.1031,80.5013,45.0817,59.6609,26.5245,70.0305,25.1415,-33.8286,-19.4746,-4.5064,-11.8236,42.4303,-61.3957,30.3046,79.4734
36.6160,-43.6834,4.3650,-42.2485,59.2210,58.5295,36.6801,65.1300,29.8798,112.9727,85.7034,-53.7894,-31.8847,-51.7849,-6.8866,56.8105,-37.4086,36.2509,101.6343
4.9201,-51.5634,-0.5185,-51.4215,49.6820,12.8214,36.7811,31.6701,-22.1017,35.8248,22.8742,-23.7001,14.4755,33.4739,-56.8659,11.4376,-51.9844,-26.1347,47.7268
-103.8186,-41.8168,-108.1503,-38.2589,7.3684,-13.3956,5.4902,-24.3367,-62.1952,-44.4728,-70.7881,33.9119,28.8039,102.1154,-90.7227,-14.3611,-65.2245,-88.2522,-16.3559
-69.7552,-26.3402,-101.4846,-15.4283,8.6655,-34.6882,-13.7250,-48.1636,-20.3988,-21.1016,9.6177,6.9632,1.7654,20.4331,-28.6059,26.8817,10.0907,-90.8313,-23.4794
111.8483,-5.6112,69.9617,11.0530,34.6808,-48.1803,-22.2260,-32.9247,9.4710,36.5758,188.0707,-55.5741,-19.2042,-86.5770,36.2087,63.3062,115.0098,-74.7773,-34.5138
194.3969,9.9538,172.4063,25.8885,-5.6065,-39.6304,-64.5997,-45.1122,-46.3632,-7.3231,221.1817,-28.2857,-20.8803,-81.7402,14.4849,19.4205,127.7783,-88.0903,-89.3888
121.2076,13.6364,126.5317,22.4847,-75.1440,-25.8105,-99.4265,-87.8835,-87.4113,-110.2199,99.8825,41.2668,-10.6215,-26.2992,-13.3178,-49.6289,82.7157,-105.7231,-115.8704
50.0569,22.0026,68.8524,21.2646,-70.2143,-14.3542,-60.6543,-82.6972,-34.3519,-112.1073,-8.5452,46.1321,8.6255,0.5507,19.3687,-43.0538,71.8816,-103.2708,-71.3204
17.9453,18.8540,29.0962,9.9847,-28.5212,-2.3658,4.1201,-38.2120,34.3475,-27.2493,-37.8327,5.7580,27.6917,12.9216,53.0822,14.2605,52.9106,-101.6546,-25.2794
-15.1940,-13.3160,-19.0047,-25.7701,-42.0197,-2.7863,9.1894,-34.3282,38.1468,1.3820,-12.5122,-18.5014,34.9205,10.4391,50.9940,25.4760,-17.5408,-94.3830,-42.5754
-6.2765,-21.2852,-11.7990,-29.3483,-71.0195,-8.5040,-29.3098,-51.5894,0.4260,-30.4152,36.6820,-14.1998,28.5934,-9.1842,39.0258,-8.3330,-48.1891,-53.6394,-87.0379
22.5532,9.0643,25.8835,12.9168,-52.8189,-5.0204,-46.9363,-38.1788,-30.5810,-59.2021,56.4395,-1.1645,23.7503,-0.6931,27.4705,-26.2946,-8.0858,-24.4718,-96.0478
-23.9347,-7.2084,-18.8856,6.4213,-39.9309,-16.6429,-43.3399,-42.4678,-37.7940,-116.0942,24.3051,-10.9757,33.7303,26.9345,29.1480,-32.8821,-18.6259,-72.8016,-78.7942
-92.7153,-73.2220,-97.2185,-60.9337,-79.9094,-52.0613,-55.4351,-89.4622,-36.5334,-186.8166,-7.5921,-19.5794,35.3981,16.6382,42.4771,-53.0390,-107.5568,-152.1813,-84.3554
-67.1464,-78.4779,-82.0698,-73.1572,-127.9507,-76.1065,-91.1726,-108.0498,-67.6771,-174.8990,5.4371,38.6001,6.3340,-3.0936,10.1951,-67.0954,-134.9837,-161.0490,-125.1001
6.9384,-10.4141,-6.1631,-6.7096,-138.6847,-77.3949,-128.9274,-84.5574,-125.5969,-105.9345,48.4463,110.8294,-13.7738,18.5846,-61.0119,-64.1545,-43.9516,-92.9543,-164.2461
35.1530,33.9720,41.5812,41.4410,-100.4711,-62.1739,-125.8592,-72.8858,-128.1749,-87.1977,78.5399,75.4630,13.8472,35.9832,-63.5461,-59.1558,63.4971,-19.5115,-143.7372
42.3876,20.6593,72.4713,29.2095,-16.7811,-25.9118,-47.0184,-65.4901,-41.5597,-105.7259,69.7903,-22.0499,55.2194,9.3463,15.2628,-52.7773,110.4188,16.5663,-46.6195
73.2883,-15.7248,110.5929,-13.7141,59.7951,-1.4380,68.0903,-39.9747,54.0841,-89.0078,53.7057,-44.9157,73.1033,-20.2559,64.5871,-44.3447,108.8875,27.7222,50.2562
106.7519,-39.9548,136.5734,-46.5968,70.3981,-14.0928,125.4603,-21.2900,84.1170,-45.5714,74.7394,-14.4058,68.8442,-33.6756,49.8438,-43.7006,93.0925,53.0678,63.4121
127.5588,-14.6538,156.0600,-19.4013,39.0971,-7.8543,96.5668,-2.9571,61.4079,-20.5720,104.4634,-24.7160,38.8972,-45.3259,29.5720,-44.9196,115.1017,107.0269,31.7573
153.8181,50.1738,193.5499,54.8676,25.5378,40.5172,56.0593,36.7315,37.5829,-11.9673,102.0403,-44.5410,10.0243,-31.4096,25.9055,-31.6905,203.4357,137.8493,41.7695
183.2451,82.6347,228.9743,84.4960,33.4365,64.9174,67.7868,64.7321,41.5810,17.3144,93.5970,-10.8339,34.9769,18.5613,25.6818,-3.1284,270.9263,96.5154,70.6808
174.9083,65.0735,208.5208,56.9074,27.2637,62.5246,87.5634,70.3207,42.9520,55.7905,91.7765,36.2740,69.8251,60.8577,18.1395,18.3179,210.4279,33.1135,48.1737
105.5872,47.6115,122.2997,48.7951,0.2431,91.5266,53.0497,88.8559,2.4843,32.4443,69.2388,42.7008,39.8124,71.5868,-1.7326,5.4748,81.0201,31.1425,11.0681
18.1158,37.5857,29.3156,57.2104,-3.0748,120.8608,21.0751,101.5640,-20.7915,-36.4855,36.1736,22.7250,5.4101,62.9359,-2.4059,-22.3919,20.8897,79.0524,37.2970
-48.3917,14.2601,-41.0634,31.4796,31.6280,98.7491,55.5041,72.6213,30.6574,-41.3351,-5.3886,-7.2471,16.3801,40.4499,26.4697,-13.5263,15.7966,93.9495,79.9146
-120.8421,-7.2582,-130.4362,-0.3158,10.5891,58.7536,49.1102,32.2577,46.3991,-1.0965,-87.2205,-51.1297,-30.2220,14.1568,6.8402,16.1404,-41.8631,38.9683,37.6211
-183.1855,-22.2022,-210.3979,-13.7880,-118.8339,20.1130,-84.5443,2.0586,-54.5941,-23.5923,-150.3612,-71.6185,-142.7147,-5.1583,-76.6507,5.1586,-126.8878,-37.9917,-49.4332
-141.1132,-47.8604,-168.0634,-45.3153,-211.2529,-37.0950,-181.5522,-35.6320,-121.3554,-64.2090,-90.5351,-26.8811,-147.9577,-26.2226,-97.4508,-29.4479,-132.5827,-71.5113,-65.9593
-4.2065,-71.8966,-20.2010,-84.3333,-137.2380,-85.7443,-105.4284,-67.5870,-60.7772,-44.9127,53.2366,36.3547,-20.5598,-43.3769,-25.9968,-36.4358,-68.2890,-60.1018,-33.3495
99.5631,-76.5246,91.0363,-87.6527,-2.4682,-108.8151,-2.5731,-84.2292,-14.6899,-24.6474,152.1467,43.3799,66.1975,-45.4409,3.9220,-32.2549,-7.7094,-48.9331,-37.8632
131.2713,-65.0174,132.0957,-73.2935,54.9308,-134.9739,3.9459,-106.6322,-27.7338,-13.1636,149.5532,6.5905,58.5049,-57.5955,-25.3456,-30.0824,41.6339,-48.5683,-48.1056
140.5186,-34.4740,160.0223,-61.2037,49.8055,-141.5859,5.4990,-107.5746,14.8861,45.0918,73.8447,-24.7831,51.0982,-75.7297,3.7874,-3.9381,72.2270,-45.3169,-24.2818
134.7453,-1.2809,170.7644,-37.6608,24.3052,-97.5724,33.5914,-55.3357,67.1513,71.5501,23.1311,-44.4448,79.0453,-42.5561,73.0599,20.2353,50.0808,-53.9516,-24.9395
125.3798,-5.5755,162.6066,-26.2037,-3.4299,-55.3996,23.7534,-5.6277,29.9143,16.1865,76.6385,-46.6297,111.6062,21.5695,77.4977,6.6593,23.3968,-69.4687,-38.9208
138.9280,-22.3909,168.7601,-36.6094,2.8134,-37.0275,29.8852,9.4600,15.9685,4.7557,135.4531,-12.2558,123.1405,33.5689,55.2661,-1.8079,62.2351,-42.8124,18.0704
130.6813,21.4200,159.3147,-1.9996,16.8069,20.8428,97.7907,54.0306,94.3043,65.1241,66.6634,51.3539,102.3997,31.6791,78.7192,21.9304,120.8181,26.9091,90.5237
74.6240,109.7868,109.2691,89.8809,-9.6270,111.8865,125.9047,134.7327,118.3962,85.1759,-38.3379,118.3621,86.4931,106.7501,92.1040,36.7115,132.4867,75.9761,75.2708
36.6254,146.6952,72.4155,138.9177,-17.8636,141.6505,77.4435,161.2821,50.1030,70.6400,-42.1602,135.5471,107.7063,184.0269,62.2112,38.2993,106.8931,62.6709,24.3179
24.1359,95.1599,44.2741,91.8614,21.0946,81.7642,31.2244,106.1662,17.8388,69.0179,-4.6274,56.9265,107.5640,140.0638,57.6057,54.7939,37.3994,-12.4147,0.3092
-27.3300,5.0642,-39.3214,3.5931,7.1904,-7.9304,-6.4779,28.7330,23.5991,41.1926,-7.0024,-36.2343,45.6044,35.1280,71.0582,64.3560,-79.1266,-111.4294,-33.4133
-94.0175,-61.6396,-131.8513,-67.2176,-74.0779,-71.9321,-58.8526,-34.9176,-8.2889,7.2631,-26.3956,-30.9035,-14.8799,-10.0052,22.7736,44.3157,-149.2475,-159.4179,-61.8921
-115.1672,-76.3723,-145.7058,-95.0947,-118.1479,-96.2856,-85.9506,-82.4190,-41.3866,2.7934,-68.4954,6.9859,-34.5871,-8.5285,-47.4228,13.1364,-125.3646,-138.3514,-52.7358
-116.5276,-52.7042,-117.4761,-73.9023,-124.8457,-94.0360,-94.3986,-106.7279,-48.6751,-43.2563,-131.3891,-14.8218,-39.4646,-7.0189,-48.7853,-22.7479,-104.3019,-116.6209,-76.1918
-130.8485,-30.8241,-117.4886,-39.9772,-152.4344,-76.2526,-127.9919,-109.9688,-78.8802,-125.2926,-136.9538,-28.4847,-33.8407,8.2202,-25.5841,-60.7505,-133.0535,-109.5378,-141.1270
-131.7963,-35.4615,-126.9635,-38.4496,-154.6694,-50.4780,-149.7560,-100.7741,-107.7980,-122.2915,-81.3985,-23.4164,-30.2006,11.7106,-45.5959,-65.9176,-133.5356,-68.3711,-130.8695
-89.6011,-42.5940,-95.9195,-49.4123,-98.3370,-35.0793,-115.2073,-64.9999,-66.0441,-16.1342,-37.6241,-84.2420,-60.2245,-39.1526,-54.9555,-14.7154,-65.2928,-10.7856,-31.7456
-1.1547,8.2104,-11.7537,-3.1567,-46.6480,-7.2751,-54.0768,20.8384,11.8201,119.8216,-3.3238,-115.0709,-82.6760,-67.0625,-19.4939,63.3869,57.3267,37.6276,51.6545
93.5534,132.4947,96.5614,125.1094,-14.4173,90.5270,-3.2193,135.6180,35.4242,201.6563,38.2955,-10.1201,-39.0814,21.2722,-2.6622,101.7523,224.4706,123.8077,87.6066
137.1927,231.0355,178.6818,244.6632,47.3224,203.7178,24.6003,203.9785,-0.8887,144.3926,54.8314,57.3357,27.7837,132.8825,-9.7014,64.1811,342.6528,220.8000,103.4537
140.3168,198.3038,203.6269,225.0555,119.7660,205.6401,45.4386,194.8312,-4.2824,60.7299,56.2144,-15.4845,53.3666,117.8484,18.8040,23.6330,285.0801,223.8387,119.1090
130.6809,95.7486,162.2733,92.0319,138.1509,142.7804,108.1634,189.7352,87.9976,179.7395,54.1990,-36.1949,57.7013,38.6650,65.1511,75.5179,116.4705,172.1058,173.7564
