Fp1,Fp2,F3,F4,C3,C4,P3,P4,O1,O2,F7,F8,T7,T8,P7,P8,Fz,Cz,Pz
-22.1774,-2.9973,-21.4711,-4.4521,-152.3765,-27.9232,-48.2215,-113.9512,-21.1123,-185.7133,-21.3481,6.9711,-54.1017,-46.9188,-12.1548,-32.4864,-24.0575,-67.8988,-64.7787
-40.4346,-15.7477,-51.4673,-25.1437,-73.0247,-40.2065,14.5285,-44.0150,4.2983,-7.4108,-43.9800,0.6059,-41.6017,-24.4234,-40.2382,-9.6743,-26.5397,38.1103,16.4112
-37.9015,-34.1516,-50.3216,-49.4592,92.3987,-40.7408,77.2959,50.5272,31.4376,182.9144,-45.9208,-18.0182,-6.0420,14.6827,-65.1984,4.5937,-18.4626,119.8213,104.4174
-22.9054,-38.8445,-7.9250,-49.6689,219.5770,-23.5978,143.4158,106.0320,71.0331,169.1990,-37.0074,-37.4320,38.3819,27.6646,-46.6706,-15.6848,1.6631,156.1256,161.4946
-29.6284,-48.8730,3.6954,-55.9841,220.6174,-17.8726,156.3605,145.1908,62.6429,85.2017,-36.8502,-66.0753,50.9812,2.1125,-5.6257,-63.8727,-4.7632,190.5287,240.3021
-29.6024,-53.9390,1.4603,-78.4688,171.1008,-5.7787,111.4168,247.4629,16.9489,136.3737,-26.3375,-85.4232,38.2115,2.9057,11.0403,-66.5357,-20.3412,249.3297,353.6161
16.5039,-16.4956,64.7151,-66.0210,178.7756,30.9519,127.5319,340.9944,45.8955,213.7507,5.3810,-56.2355,54.2614,51.5157,14.0518,4.9373,16.0760,294.1902,372.9794
77.4585,57.5842,151.9216,5.9829,234.1562,38.4389,204.6942,261.3885,98.4282,164.8621,45.6955,18.2481,102.0451,90.8991,32.6454,64.5607,84.1678,255.1383,202.9292
109.0333,125.9340,173.6970,92.3676,251.7687,11.0443,180.8720,67.3758,13.1588,84.3049,91.0694,92.8387,116.2176,105.0182,41.1707,47.8896,112.1212,126.5436,-37.2343
100.3069,150.0716,137.4441,137.7706,185.4600,31.7701,47.1243,-5.8048,-134.3656,100.3746,117.7590,124.6952,68.4471,112.9267,12.9170,4.2557,88.2884,0.5276,-155.4988
55.9578,128.5500,73.3846,141.0399,67.3750,100.4041,-50.6209,80.0388,-146.7816,173.7075,93.7888,108.9603,11.4648,102.0509,-9.1897,-3.5106,49.1985,-45.2776,-124.1135
19.5297,120.2127,0.8415,151.8215,-37.9414,130.1006,-94.9612,158.3497,-55.1814,208.5713,57.2291,90.7733,-8.5321,89.1604,13.6886,21.6428,35.1524,-33.8829,-40.9448
35.5880,159.4327,-19.7521,185.0513,-89.6626,112.8751,-134.7288,168.0009,-5.8694,195.5747,59.4031,102.7611,-14.1857,112.5373,30.8768,43.3300,63.6986,-11.8415,48.8730
55.4478,176.7523,6.4758,181.1911,-75.5478,94.1752,-117.7604,180.1385,-11.6083,196.4731,62.7883,106.9400,-30.4195,138.0942,-4.2933,36.5853,82.6092,29.9645,157.7581
17.0718,122.8750,-17.7274,118.1946,-1.8677,78.3988,-35.0631,219.8735,-17.0131,228.9699,27.2202,67.4993,-21.0619,124.2698,-25.5395,20.3709,36.1230,113.8761,256.9083
-29.5959,65.0621,-73.5122,70.8026,102.4810,72.2414,30.1667,264.2323,-1.6459,248.8363,-3.2399,17.7386,40.6360,93.8961,23.4843,38.1358,-18.7053,225.0186,292.1793
-21.3192,55.5351,-36.2173,81.0925,217.2755,85.9783,85.2148,298.3778,12.1468,259.3760,3.7061,-5.3072,103.2544,60.0551,52.5584,79.4767,-5.1204,326.8680,272.6219
16.0658,68.9015,77.0717,106.3476,343.9910,100.7209,188.3965,302.2566,-36.2507,282.4510,22.0592,0.1661,119.3989,43.8226,-13.0548,87.7951,50.1610,385.3820,270.4627
59.7288,105.1007,149.6058,136.6432,433.9519,131.9105,279.8521,285.0747,-129.7902,254.8501,47.4434,36.7624,118.0675,110.7573,-67.9860,53.3641,118.0034,374.3929,319.1718
118.6032,170.3983,172.2297,195.3631,395.3912,197.7969,258.9604,284.9667,-136.4671,161.9590,89.3403,87.4711,122.9986,218.4586,-18.5161,24.6596,205.8218,284.4701,345.5067
148.9927,199.6073,170.6207,229.3030,235.5623,223.2400,127.4611,280.7407,-26.2409,128.2946,113.3612,105.7291,102.5827,225.8353,43.0144,48.1932,233.3076,137.9941,255.3540
111.2165,152.2928,105.8378,173.9809,71.8660,163.9961,-27.9219,220.4619,68.4316,185.5634,94.5330,90.4393,53.3049,154.5775,33.5323,118.0156,130.6460,-16.0336,74.4079
65.8905,95.7423,8.8655,90.6609,-22.8113,116.0251,-115.8611,123.7612,65.8596,201.0232,70.9702,89.5605,19.4265,150.0465,22.4222,153.3306,25.7480,-135.1151,-77.8910
73.0991,94.2507,-15.2644,80.6496,-59.0011,135.2734,-123.1378,44.1962,-2.6841,133.6556,78.9870,111.1975,9.7736,197.9875,48.3765,94.9141,47.4764,-197.4071,-139.5373
81.3935,111.7735,10.4664,115.1615,-61.2441,147.0160,-119.5810,5.9646,-69.0227,80.8693,85.4006,116.4404,-7.4625,185.9568,36.0295,24.7846,89.2347,-186.9224,-135.0946
30.7056,83.9764,-30.7913,94.9131,-61.6028,116.4199,-133.9479,20.2047,-62.6142,82.7539,38.8327,87.2981,-41.7146,131.3423,-37.2832,35.9881,43.0541,-110.3025,-85.7512
-27.6394,21.1035,-113.6981,25.6427,-62.3006,84.7746,-114.3411,59.7905,-21.4275,92.6950,-32.6806,40.8668,-69.1828,105.7031,-100.8482,57.7891,19.8146,-12.7860,10.3259
-25.4571,-25.1112,-109.5128,-18.1447,14.3779,49.9985,-26.1977,70.8990,-56.2600,76.6711,-56.0522,-8.3485,-54.1540,84.8254,-113.3703,11.0401,87.0160,75.7995,131.5187
-10.6753,-61.3224,-32.8588,-45.5632,188.6767,-8.5348,115.7190,75.2459,-93.2333,54.8339,-44.7859,-62.9102,15.4980,19.3412,-87.2171,-26.4685,99.5930,156.9089,221.6307
-50.0849,-110.1146,-14.7298,-90.4058,314.3891,-61.0542,246.5309,111.6720,-2.3111,60.1364,-62.9338,-106.1083,89.6053,-58.3501,-42.7152,5.2096,1.2038,190.1832,219.8221
-79.2493,-114.4398,-60.5295,-92.5275,284.2749,-76.4895,259.5196,101.4239,74.6511,40.4263,-76.3536,-93.6275,111.0345,-67.3016,2.5727,32.1529,-43.1323,120.4528,128.4805
-20.8373,-49.6115,-61.7781,-29.1176,196.8656,-64.6841,163.0694,-13.3462,13.0837,-65.9329,-27.0660,-38.2233,101.8906,0.9510,47.2674,13.7876,33.7236,-6.4961,45.6542
50.0418,-20.2323,-10.2857,-5.7962,162.3302,-58.4487,108.8330,-118.4112,-5.6033,-135.2154,21.3912,-22.5958,103.0326,42.3438,85.9227,-1.7585,87.2085,-97.1085,38.4149
42.1749,-66.5478,11.8463,-53.0452,130.7925,-81.2025,105.2964,-124.2621,47.7952,-48.8664,12.7623,-55.0668,83.7037,-9.9756,73.8291,-1.4301,43.7370,-147.5305,23.4526
1.0247,-86.3796,-7.9771,-74.5957,34.9767,-113.5420,-5.4036,-112.0604,-70.3982,23.7539,9.8498,-58.3243,14.8182,-83.3416,0.4650,-11.7009,-19.8753,-185.8855,-81.8446
-19.7758,-72.4434,-36.4903,-78.4159,-71.6721,-127.9077,-181.3018,-138.7468,-267.5305,-42.7139,27.3993,-43.9036,-52.9712,-111.9598,-55.5255,-29.6745,-68.7622,-168.3356,-170.5717
-39.7432,-118.3788,-66.3722,-147.7643,-100.9703,-141.2885,-199.0176,-139.2191,-212.1240,-42.2667,-3.2153,-83.6909,-65.9973,-124.1679,-46.7811,-33.5490,-110.0068,-72.3606,-101.3686
-44.4124,-174.5812,-63.4055,-217.3778,-46.5259,-157.0055,-53.3308,-84.2589,-17.3779,100.5605,-49.0026,-128.9838,-36.0789,-120.7446,-23.0650,-13.0947,-102.9613,20.0693,47.0636
-16.1048,-135.0041,-6.7747,-186.0850,23.2455,-136.2717,60.5081,-18.3047,24.7499,141.3257,-32.1315,-96.8794,2.0645,-77.2391,-8.5300,7.8362,-63.1265,47.5245,89.2173
-19.5817,-54.7750,18.4340,-101.6949,64.4535,-86.6584,82.5981,46.0462,33.4582,70.6649,-6.4302,-37.4883,33.7898,-42.3663,27.6421,-3.8480,-74.5719,67.8602,26.0389
-69.9568,-15.7522,-34.1436,-25.7656,127.3077,-42.8147,111.7114,124.7060,141.9299,153.6056,-31.9304,-16.5091,65.8921,-39.7180,56.3518,-2.8526,-108.9613,145.0900,12.3678
-68.5847,11.6353,-45.0275,49.4284,262.7286,17.1819,207.6951,204.1876,140.5155,339.1568,-40.1204,-0.8424,110.8221,-3.7507,24.4205,74.0745,-57.0252,230.2181,87.3562
13.6872,42.9132,60.8849,93.0050,396.0780,89.0744,317.6339,247.6803,9.2844,340.3163,8.9511,23.0999,156.5162,66.5028,-14.4072,143.0843,67.8693,241.0205,151.3111
85.5819,49.0438,165.3657,82.8501,429.0695,104.0561,346.7064,222.1877,45.6804,184.3519,45.9758,13.9690,177.0100,92.6804,25.5133,88.6692,156.2496,195.6147,164.3531
92.7909,37.5899,163.7664,68.1389,397.3304,69.4945,289.2941,135.3267,233.7701,100.4416,37.8661,-17.7803,178.1461,70.9441,107.0798,-6.3901,149.6122,166.9903,154.0562
59.0619,13.3972,105.0809,51.1386,362.6053,49.7985,230.6854,49.7002,251.6280,101.8144,24.1061,-32.5207,177.4306,41.1179,139.2328,-5.3508,62.7023,154.9996,100.0891
20.4378,-25.8379,54.8083,3.9862,280.9716,21.8395,189.9747,19.0280,111.5079,85.3015,19.3652,-39.2842,162.5048,-5.7029,130.5953,42.2574,-19.3251,119.2685,19.6464
7.9261,-38.3341,15.1422,-20.6592,144.4478,-33.7947,130.5258,39.7546,100.6978,81.7726,8.5639,-49.8244,127.2020,-45.6763,138.3947,38.7472,-1.4024,80.6080,22.1504
18.4856,-19.1119,-13.5525,-6.5116,58.8941,-34.7149,87.9368,80.9732,203.4972,147.6262,-6.4502,-43.3581,90.9939,-13.8666,135.8387,24.6893,59.5719,68.2195,98.7610
4.6606,-29.1265,-34.8872,-33.9445,47.3245,30.8093,72.6360,109.5591,167.3417,212.9568,-16.0810,-20.6786,53.1419,53.7302,70.0349,58.4612,12.7434,47.1475,96.6765
-52.6473,-72.2659,-88.2307,-100.5941,12.8936,50.5204,16.1028,110.5095,5.0640,208.3556,-26.7620,-13.2282,8.9985,57.5826,-6.6798,99.0255,-127.2682,-0.7468,13.2641
-121.9274,-104.4554,-192.5645,-127.7486,-42.8977,2.3392,-38.2247,112.1499,-40.3195,190.9459,-58.3685,-31.5533,-7.8750,11.3807,-7.5239,95.2436,-209.6964,-32.0619,-7.8427
-173.0000,-131.4399,-289.8635,-126.5826,-29.5204,-20.2921,8.0218,130.8177,73.9827,206.3092,-110.6140,-55.9855,12.3749,-2.8941,33.7178,57.4846,-195.7552,-36.5947,24.8606
-185.8254,-155.5384,-300.5999,-128.8935,24.5590,-5.5890,67.5032,121.7741,154.8358,186.8598,-141.6728,-69.8088,18.1765,-2.3978,19.3319,24.7250,-155.1197,-59.8382,5.6333
-156.4288,-142.1932,-233.6820,-103.5749,21.3221,-24.5105,27.1346,63.7225,97.8033,120.1735,-120.8054,-67.8044,-11.5526,-42.5077,-45.9916,24.2261,-124.3529,-123.9593,-44.8854
-120.9703,-105.8573,-182.5827,-72.1380,-33.1278,-73.3627,-39.6595,8.1374,-2.0119,104.0126,-77.2785,-44.7436,-36.3197,-72.1704,-77.7370,46.0081,-118.6990,-209.2607,-90.2621
-109.7622,-93.0039,-185.2326,-90.3395,-76.1797,-86.6286,-70.4827,-8.0044,-14.9044,144.4337,-54.4315,-15.1795,-41.9683,-36.6888,-56.3596,51.1502,-145.8259,-264.5339,-154.7674
-104.8204,-96.8532,-174.2660,-115.9688,-75.8294,-61.7284,-94.2655,7.0665,74.1407,158.4824,-56.2761,-18.1156,-45.4607,-9.4686,-32.8953,24.9903,-161.0569,-217.4160,-164.4850
-86.3043,-84.4095,-108.8148,-88.5135,-11.4741,-47.0196,-61.9871,40.3151,143.0903,153.0372,-57.8922,-48.4005,-29.5447,-43.7720,-25.7407,-1.6345,-132.0717,-74.0010,-50.4919
-63.8307,-52.9877,-44.9067,-36.3239,84.0132,-43.4752,41.1279,53.8287,78.5655,154.8035,-38.6327,-50.2839,16.4519,-65.2543,-9.7788,-1.6096,-103.5594,41.3886,58.8101
-55.6007,-28.8311,-33.0152,-2.5930,126.7767,-25.0835,91.3474,17.9583,-27.5287,128.8829,-17.2721,-29.3884,47.0730,-48.4843,12.1437,5.0162,-115.1038,65.0614,74.4136
-71.1714,-36.8048,-46.4636,-2.8844,132.1546,-18.2855,89.0654,-1.2596,7.0123,99.0591,-33.8384,-42.9854,42.1604,-57.8696,11.7544,-11.9457,-141.0277,90.5117,109.3458
-88.3373,-57.7211,-37.7395,-45.9621,183.0854,-47.7533,156.4137,55.5710,128.6477,92.5213,-65.1036,-65.1149,48.8451,-66.1080,2.4485,-30.9428,-148.9932,164.5378,171.7489
-71.6745,-52.4422,-8.9266,-90.8678,223.3728,-64.9345,209.7131,95.7492,111.8931,43.3594,-46.8217,-37.9745,75.1968,-20.1649,14.3764,-13.2151,-140.5503,173.4962,106.1900
-41.4551,-33.1187,-6.9876,-72.0154,143.7537,-41.3417,91.2656,22.9378,-49.8520,-10.3055,-0.8995,-3.2587,55.0912,-0.8087,8.7736,19.7399,-125.7144,63.0848,-50.2196
-39.6888,-23.5359,-42.6727,-6.5139,19.3894,-22.0071,-89.9680,-74.0577,-132.0865,60.6637,1.1995,-6.2343,-25.1488,-44.8702,-64.8659,26.5221,-105.2630,-38.3957,-97.3016
-43.7932,-5.9382,-53.5852,27.6752,-8.6824,-10.8218,-142.9474,-65.1519,-61.5613,165.9999,-21.2657,-3.1075,-83.4871,-38.5135,-144.8837,19.3951,-85.1467,-37.9535,-32.5543
-26.3544,12.7348,-8.8419,7.9803,36.9639,32.3576,-82.1080,21.3568,-16.3349,140.6056,-10.5523,21.6821,-71.4570,33.4132,-141.0615,13.0319,-80.2417,-6.8015,-0.9163
-16.3372,13.3506,33.2840,-5.1371,68.7466,73.0754,-7.9570,85.9169,-98.5662,75.4027,15.6919,31.2335,-34.5535,54.9034,-90.1596,-12.3728,-75.2971,0.7918,-11.2075
-10.6688,42.9604,49.3018,49.1301,83.2357,62.3573,31.3415,111.0138,-159.9858,77.9381,28.5767,37.3919,-12.5767,24.4449,-64.3768,-38.7546,-22.9299,36.6681,12.8149
31.1554,110.3666,92.1503,127.6615,91.3383,39.1708,18.1658,127.1268,-84.8028,51.5499,48.7734,53.6847,11.3626,13.3334,-35.6642,-20.1193,62.2350,107.0446,48.2692
78.2866,125.1940,155.1426,124.3515,85.5174,36.9465,-3.9991,132.0973,-13.5377,-10.2478,76.6589,48.2661,42.6110,7.3309,15.4004,25.6870,89.5853,151.1926,29.1173
79.1390,81.9678,170.8076,54.0004,101.9659,33.7758,26.4787,113.2845,-56.9868,22.8254,82.5215,35.7547,57.7060,5.9346,28.5910,48.4663,44.1055,179.7665,-18.9619
68.7032,78.0803,149.5128,40.2156,161.5701,38.0942,67.7709,85.4522,-63.3330,112.5024,71.6987,49.9881,61.4312,45.5318,7.4474,46.7924,22.2693,229.7942,-20.2455
85.7278,102.6386,148.9753,86.5194,205.2707,58.7690,58.7785,65.1711,40.9517,128.0076,67.5497,50.2007,73.3486,69.8491,17.7404,42.1570,59.1297,247.6736,23.6583
93.7121,78.0929,159.6179,89.5880,199.2560,54.1300,48.4476,50.1310,56.3136,89.1480,65.2933,14.0680,78.5733,26.0057,28.0968,39.7526,83.6484,199.5882,50.7424
72.5367,40.7257,148.1028,56.9780,193.8619,28.0088,84.5657,44.5929,-74.4378,64.6767,56.1462,-2.4821,65.8948,-10.5358,-12.9047,38.6713,72.0043,159.6431,56.6822
63.4291,47.0430,128.7989,58.5529,199.4962,32.7605,105.8091,54.1258,-136.3152,47.8140,53.0581,13.0031,59.0914,15.1015,-32.6752,29.1573,77.2760,151.2988,70.2473
85.1837,60.8566,123.0143,67.1076,145.4001,54.0550,51.9357,50.1884,-73.6786,16.1011,63.6536,19.5871,52.5965,50.1127,10.8908,0.8927,112.9834,102.7245,62.8327
104.3009,64.6634,123.2914,57.1516,33.2899,55.6310,-30.4446,15.2140,-36.4120,-32.3106,67.6368,25.1869,8.4298,63.3325,14.5533,-30.4586,144.4496,31.5213,32.1792
96.4581,86.0774,116.7458,77.2157,-21.1675,61.8557,-48.1362,2.6794,-38.4731,-50.3501,47.6044,46.5531,-46.1514,74.5925,-59.3088,-35.5160,160.3075,32.3273,57.6729
78.0480,90.2966,104.1080,102.3870,22.1331,76.1824,16.7500,50.0976,-7.1464,24.2527,23.7488,45.9012,-40.2953,72.8859,-94.1272,0.2576,159.5257,73.5596,135.4648
69.1704,30.8569,93.5081,51.9828,58.8259,55.1306,78.5641,87.0634,31.8304,123.0403,19.3206,1.5630,11.8020,33.7906,-38.8672,54.1242,126.3399,48.4624,151.5443
60.7308,-33.0473,77.8830,-20.4568,35.7478,7.6046,67.7928,50.5277,49.3212,130.4320,20.5082,-41.1558,36.1436,-16.0373,19.7372,66.8344,76.4045,-14.0300,94.7017
41.6143,-20.2520,44.3795,-8.1221,29.3307,-13.2496,29.2067,4.4654,39.3398,107.7012,14.1942,-31.8268,23.6583,-18.4127,20.8228,23.6653,55.4314,1.2720,63.1201
24.7806,26.2225,20.7622,33.9834,68.6265,6.5996,29.6520,26.8126,-7.0506,141.4233,8.3264,7.6786,8.9515,25.6672,-18.5137,-4.3009,60.5973,97.5047,72.8975
20.0198,19.2472,42.9038,6.3567,85.9531,41.7495,47.0425,84.2681,-12.9440,134.2999,-2.0250,11.9044,-5.5880,44.5565,-64.2363,16.8108,54.1711,172.4996,73.8376
26.2006,7.1742,76.9089,-13.8101,68.8393,59.4180,33.2819,113.3615,42.3293,44.3454,-7.9790,-2.7181,-15.8571,30.3744,-78.2831,29.8518,57.3487,172.2861,65.6627
46.1558,81.2639,73.3570,75.8789,66.4910,47.2526,6.8271,116.0061,25.7315,29.5587,21.7491,39.4270,0.2612,51.8146,-47.8014,19.6463,104.5720,136.8095,61.3803
57.3133,149.9704,52.6609,166.1298,76.9263,27.9211,16.0721,109.8828,5.8390,131.8725,48.2403,87.8002,29.1340,72.6029,-9.1996,31.3028,134.0122,110.2807,46.7438
26.0712,77.7504,39.5007,110.7182,73.3738,7.4975,51.8319,78.9676,214.2883,180.8127,2.1229,33.8131,39.0607,4.5967,12.9147,50.7621,78.2256,69.7155,9.2509
-17.7868,-34.9044,9.5198,-8.8543,52.7249,-33.6517,42.4886,19.5141,475.6502,120.7117,-62.2401,-45.0143,24.8953,-63.7859,20.0412,39.3164,-5.4285,-21.2757,-56.6945
-23.2517,-29.3474,-33.0701,-38.0686,-3.2088,-58.9483,-38.7621,-31.3728,448.3856,74.2402,-57.3570,-17.3173,-15.3253,-14.1513,-5.1578,18.3357,-36.8556,-120.0532,-120.7474
-5.3101,29.9481,-37.8114,4.7755,-82.5484,-14.3333,-105.8060,-50.7604,310.2336,65.1927,-31.3450,45.2275,-67.8899,60.7616,-50.7702,6.9247,-20.7288,-143.4836,-125.7698
14.6990,42.8552,13.7442,40.5238,-94.8866,49.0144,-82.6170,-68.1731,346.7224,2.0647,-37.8948,43.1811,-77.9516,54.2872,-58.8994,-8.8491,30.0612,-89.1276,-104.7243
49.5222,56.8481,89.6714,74.5286,-7.2389,46.7731,-22.6709,-106.7548,356.0154,-93.7571,-22.4293,35.5288,-35.1101,19.8631,-39.2746,-23.8611,102.8993,-31.0627,-148.1598
73.4245,81.7699,140.7754,94.0866,80.2931,2.2843,-1.7262,-130.2833,185.8789,-119.6247,22.1260,53.3750,-3.5169,-0.6531,-47.8310,-30.4117,125.4655,-4.5883,-219.0395
65.0966,59.5465,139.9136,52.9011,94.9370,-14.9177,-11.7142,-107.2805,89.3812,-84.9835,36.1888,41.2013,1.5732,-10.3390,-44.6522,-30.6094,78.4793,17.9490,-213.6051
78.1580,34.5000,126.2235,3.8544,80.4270,3.8285,-33.1646,-69.6398,152.8233,-38.0415,42.0709,18.8224,23.8534,23.6308,22.2613,-13.9014,60.3977,54.3874,-159.6817
121.7033,63.3617,151.9013,32.7108,86.0638,35.2265,-53.4320,-40.1136,206.1675,64.6115,70.7877,28.0946,49.4576,62.0987,77.9906,0.8791,110.0734,95.5459,-133.8132
121.8794,97.4401,179.9845,102.8933,107.6520,66.4206,-20.5311,10.0652,274.4070,201.0281,67.4122,40.0092,47.9094,44.3695,68.1468,-15.2856,144.2381,129.0972,-113.6332
81.4050,107.7158,147.2710,126.6893,124.9540,88.9084,54.6887,68.5510,416.6600,221.5979,28.4610,52.3537,54.0962,56.3998,67.2568,-12.4638,114.4209,121.3633,-79.6647
67.4869,107.5492,82.2264,92.3324,105.7715,101.6276,58.0691,69.4343,462.5793,115.3242,21.3735,78.7857,74.1962,138.8797,96.9005,58.5454,48.5613,38.8420,-82.6319
67.1525,68.9769,38.4809,33.3910,31.6589,108.8543,-30.3962,19.4407,328.0164,52.0291,36.0539,74.7465,56.3536,161.9506,81.7625,136.2269,-16.0722,-69.6178,-126.8261
43.6210,-0.2730,3.6883,-26.7461,-46.9502,110.6359,-86.7222,-4.2081,160.6519,92.3448,25.9253,38.6258,14.1921,112.6340,36.9677,148.6973,-41.6054,-107.6439,-159.4010
16.6059,-38.5191,-34.9421,-70.7908,-64.5594,102.3521,-63.9994,6.7318,88.2056,140.0672,6.2478,24.3674,1.3965,102.6889,37.1246,96.5486,-29.7004,-65.6731,-173.6461
-8.7062,-40.0315,-48.4325,-80.9034,-34.4910,73.7131,-36.0119,4.3353,122.6959,119.9504,-11.3219,20.9383,2.6241,89.8719,51.7087,17.5239,-36.0971,-5.8811,-185.3493
-39.4424,-25.2760,-37.7248,-50.1520,-2.5519,34.6566,-17.2465,11.2254,163.7869,30.6642,-32.1375,7.1886,2.5380,21.4695,29.6470,-3.2521,-67.6265,52.5018,-151.4247
-51.9293,-2.7833,-48.7602,-16.6010,39.0078,26.1557,38.0349,80.6809,70.5038,-32.9981,-33.1408,9.1117,31.1003,11.0052,7.3944,76.1597,-81.8876,106.2998,-24.4643
-58.4715,-21.6175,-99.3166,-42.2568,98.5968,48.5957,102.1330,172.3262,-76.5341,34.3634,-29.0809,3.6628,58.3596,76.3979,1.1492,120.7534,-84.7254,117.5168,135.1841
-90.4168,-83.3111,-151.5204,-105.9403,124.7054,45.2110,114.6939,203.9599,-54.6000,123.7939,-63.4711,-36.3031,31.7498,90.6603,-19.4031,32.1622,-85.0747,94.4101,201.8275
-107.7274,-101.3984,-160.6467,-120.6268,96.7326,7.2769,91.4171,176.2764,90.9213,87.3167,-96.6858,-58.8161,5.7775,48.0167,-20.3010,-41.6331,-59.5198,87.4168,153.9574
-71.5777,-74.4608,-119.6012,-83.5504,73.8428,-14.9816,80.2074,138.6033,158.4061,68.9684,-69.5958,-52.2021,43.1971,15.5083,43.9577,3.7336,-31.6310,68.5520,89.5128
-12.6337,-59.1925,-48.6319,-49.9740,67.3362,-10.2040,79.0000,96.9283,164.8123,170.0789,-12.9855,-50.6229,85.9629,-1.3347,120.9661,41.1296,-17.9955,-13.4168,57.2004
42.7328,-14.1050,19.5061,-12.2557,17.5240,1.7679,66.6078,49.1328,182.2261,169.5170,28.1248,-15.3147,74.3753,30.9230,143.1729,14.5371,26.5705,-103.5337,33.2448
65.9984,48.3094,29.5779,24.0982,-44.7894,14.2636,54.1080,35.1762,144.9785,55.3357,42.2959,43.7754,44.4321,98.6408,116.8538,12.6732,65.6041,-135.1294,38.4640
13.2796,8.0721,-38.1965,0.0729,-26.3458,6.0537,52.9929,64.0730,79.8878,104.3254,9.0711,18.0821,25.9684,74.9159,68.3585,8.8783,20.5983,-132.0393,80.2394
-51.3456,-72.6847,-88.6650,-41.9552,36.9014,-19.5884,46.4353,73.0072,99.3516,193.5479,-44.6320,-54.3894,3.9901,-13.9022,17.0675,-59.1525,-12.2701,-99.2829,87.2393
-9.5527,-17.3438,-19.7471,5.1873,62.5890,3.7866,42.4051,40.3009,127.8694,14.8516,-36.7236,-29.1744,-4.1638,9.3118,-7.5701,-91.6419,82.2379,4.6781,72.6451
92.1182,102.3951,106.5188,98.8349,98.3668,84.2332,84.5152,39.8342,20.2021,-179.8367,32.1345,49.9984,31.1630,113.4229,-3.9159,-14.2377,185.7461,128.7462,134.0125
121.4188,110.7023,152.4125,113.6971,168.5340,125.4519,149.1287,97.4054,-166.4510,-75.1134,80.2220,59.1578,79.2772,133.5494,3.1279,74.6319,165.6810,154.9118,205.2374
85.2851,50.6315,105.9614,56.9936,159.2984,83.4239,139.9558,111.7100,-262.5259,35.1637,80.4694,31.3737,85.7411,84.8951,13.1692,82.7594,101.7772,74.9958,143.2003
63.5229,34.8731,62.3022,29.7211,58.6325,18.4059,55.5866,21.3772,-208.4525,-92.7959,58.8433,24.8979,45.7191,45.3257,17.5319,26.2201,97.7170,-1.3378,33.1349
70.7047,57.4730,84.7088,71.5186,10.0875,-18.6748,10.8329,-75.6382,-99.7270,-175.7464,36.9339,18.3466,-1.9632,-2.1185,-20.5505,-36.0205,141.9148,-4.1547,37.7187
94.8803,83.4868,150.0981,123.4492,28.2182,-27.8727,30.9966,-83.1105,-53.5775,-67.9335,41.9629,17.7241,-21.1853,-39.3058,-67.2081,-43.7138,181.4128,10.5549,87.3047
116.3549,78.9300,171.8871,95.4341,-3.7506,-32.1592,19.3846,-56.2266,-41.3541,4.8849,71.3811,25.6585,-3.9743,-25.9179,-26.2105,5.1027,151.3558,-48.2100,49.3682
97.3936,20.2307,102.4795,0.8600,-73.9137,-48.5146,-35.3746,-74.0006,27.9997,-31.8121,73.2754,2.0742,26.4637,-8.0023,82.8525,37.5473,49.3774,-152.0354,-18.5961
44.9378,-25.6844,12.0012,-34.5488,-85.6282,-48.2163,-41.7909,-99.4419,87.5565,-65.4991,34.2052,-25.1923,33.7642,-13.8958,120.0973,17.6159,-14.6390,-183.2472,-22.6570
-3.3716,-11.8839,-31.3868,9.5247,-50.4985,-14.9472,0.0333,-81.7347,30.0802,-73.4788,-3.5420,-8.6685,8.1024,-12.5931,48.2671,-13.6442,-12.0139,-130.9467,-1.9509
-46.4330,-18.9731,-69.4869,1.8676,-30.2556,-20.2393,3.9996,-55.5597,-57.2409,-39.6500,-24.3387,-1.1313,-16.5902,-20.5786,-16.6514,-17.8288,-51.0812,-90.5762,-12.1703
-79.8708,-78.8149,-125.0698,-83.2304,-33.8685,-91.0848,-30.9539,-40.9326,-60.2788,62.5293,-38.4210,-39.6736,-11.9604,-58.0010,-5.8038,6.6057,-126.0578,-72.4322,-25.3150
-76.6481,-104.7193,-130.3428,-122.4756,-48.7330,-115.6126,-36.1857,4.8788,-50.6600,137.2266,-39.0145,-63.8724,-1.5491,-76.8533,18.2681,25.4359,-116.0426,-23.1043,-3.2115
-45.2174,-76.0551,-69.1661,-83.6320,-46.4881,-43.1878,0.4868,71.7810,-105.6118,120.1878,-24.3498,-47.4514,-10.9107,-50.0360,-1.2773,1.3194,-26.7792,23.1999,35.9505
-10.4946,-57.3945,-10.5264,-51.5227,3.9772,15.4115,43.2556,96.0967,-142.8990,101.5858,-8.9784,-35.4837,-10.9807,-15.7656,-27.4399,-26.4320,54.9085,26.9520,54.8368
18.2875,-61.6856,7.5706,-55.1277,63.6218,-3.2958,63.4584,94.4748,-81.8719,131.5502,-2.0093,-47.4303,24.2714,-11.2081,-7.6767,6.4816,104.1024,49.8333,52.6688
18.8116,-48.8893,-7.5084,-48.6408,64.0562,-28.9737,39.8080,128.3808,3.6319,156.1879,-1.3342,-50.7206,56.7679,-25.9677,37.9309,61.8956,97.2002,114.1861,39.7318
-10.8597,3.3019,-40.4689,-2.1466,14.4202,-7.1529,-16.6239,165.1572,-7.2684,165.1584,5.8873,-6.1690,45.0135,-9.4815,48.5566,72.4842,27.0339,129.7176,-2.9141
-33.3789,53.6013,-71.6329,49.6670,-36.2803,39.2084,-59.5655,142.1791,-89.4975,184.0878,17.5361,56.9297,7.8560,41.3067,18.4746,58.5176,-34.1470,59.1623,-63.4717
-50.7806,23.3986,-114.4278,34.2149,-81.2664,61.1330,-82.8068,94.2341,-112.5086,197.7831,1.5756,48.8537,-17.0980,47.1899,2.5100,56.2714,-57.4555,-20.2089,-75.7396
-77.6814,-56.6519,-182.1525,-34.2478,-120.7141,30.9183,-113.6050,70.1279,-84.0841,204.1011,-33.3519,-15.4509,-22.1664,3.7416,16.1828,68.5888,-78.1147,-57.1698,-33.9568
-64.8575,-62.8950,-201.2237,-43.4611,-120.2911,-11.5719,-120.5423,35.8460,-121.6564,218.2076,-27.0163,-21.3887,-13.7418,5.5083,15.2652,101.8191,-64.3555,-84.2689,-3.0465
-7.7425,-25.4715,-123.3683,0.4673,-66.7815,-17.6401,-62.8106,-26.4631,-165.7681,189.4489,8.5515,4.0848,4.7433,25.5700,-3.9591,127.0154,-7.3187,-130.7287,12.2907
0.3653,-85.7142,-61.4465,-50.9950,-22.8156,-37.7654,-6.9628,-60.6352,-84.3762,73.4017,-3.7111,-57.7652,20.3449,-40.5992,5.3952,99.8538,-14.9920,-170.6433,39.0453
-60.3248,-205.5486,-118.3585,-205.3932,-63.9047,-121.5512,-42.8429,-49.6306,-6.0763,-32.6802,-52.6730,-152.1735,11.9381,-129.9998,39.4678,54.1006,-110.6829,-166.6323,38.2872
-109.1051,-249.0717,-213.3634,-297.2720,-153.6067,-187.1509,-125.9200,-41.1771,-114.5701,-21.2318,-69.1612,-166.0409,-19.4214,-141.7335,49.9038,24.0170,-174.1382,-116.0760,2.5894
-123.7810,-224.7089,-227.4115,-266.3053,-169.8597,-164.7540,-138.4270,-31.7479,-279.6308,26.3840,-60.8825,-144.1825,-41.4769,-138.4519,31.8962,-28.7502,-164.4592,-30.5751,7.6281
-124.2290,-181.6978,-157.8208,-196.3999,-95.1397,-120.4195,-68.9403,26.0754,-290.2874,4.5221,-59.7577,-135.0528,-38.1460,-161.0271,5.2934,-86.1728,-132.9394,79.2714,65.3481
-86.7091,-107.3029,-64.4916,-131.4538,-47.6111,-109.3491,-28.6502,99.5529,-191.4737,-7.3370,-45.7062,-99.2873,-39.3312,-143.6155,-34.3452,-74.0173,-72.9555,158.7462,111.0792
-16.4960,-36.8149,4.9424,-61.0867,-78.4715,-95.5226,-89.9348,101.3100,-124.0979,43.4321,-13.9625,-62.1836,-65.4670,-105.8605,-79.0606,-22.1672,20.3928,142.4916,132.7218
35.9687,-4.6858,45.0205,0.7134,-104.2315,-65.8238,-172.0322,32.0029,-118.7468,37.3468,13.3563,-56.9483,-84.8515,-97.0419,-97.8563,-6.8110,81.8596,79.2216,141.0820
64.1595,36.3225,86.7800,31.3728,-69.9812,-46.0255,-149.7065,-18.2728,-148.1822,-30.2538,41.3290,-21.2601,-67.9185,-56.3196,-82.1607,-15.9985,85.5179,85.2915,112.2391
79.3159,75.8450,120.1541,28.5354,-19.4867,-26.0810,-47.8503,-0.1980,-158.2607,-3.7117,62.9442,36.5933,-31.7295,18.7652,-44.8893,-16.1729,76.7290,153.6890,66.1625
69.0935,54.9049,99.7770,20.1324,4.0773,8.0546,2.0086,47.6252,-75.9974,102.0262,47.9190,27.1074,-2.6859,29.9523,-4.2535,-0.3515,83.5959,173.9625,60.4514
55.0581,35.3222,58.8315,52.1039,10.7842,33.5736,-12.4256,71.3312,84.2584,149.9176,18.5653,-6.8230,14.8226,3.7085,14.5586,46.1431,95.0634,117.3740,93.2229
65.8234,82.4005,62.8568,108.0291,26.5960,36.7914,13.7981,67.5671,194.7475,152.2909,20.8862,25.2618,27.3966,38.0784,13.1687,93.8160,85.8292,50.9691,129.3675
64.6714,105.5043,76.1529,100.4681,59.8568,28.3418,91.4481,72.4181,158.9615,149.7186,36.0106,61.3771,43.1729,86.6709,23.7208,86.2713,36.3391,32.4482,155.1469
21.8610,35.8062,41.1035,6.3218,95.4053,11.7517,134.6600,97.9645,54.4116,105.7934,22.7109,23.7246,63.5151,66.7399,50.6112,52.0705,-36.6237,76.1318,154.5744
-21.0995,-46.9230,-5.9039,-86.3665,109.0991,-2.7773,130.8704,104.0863,50.6635,68.9588,-8.6002,-33.3165,79.1284,20.9350,77.9417,46.2174,-93.5100,137.9693,119.2897
-28.2158,-65.2041,-19.9951,-98.6768,85.5493,15.4626,118.1804,62.7091,138.4940,85.5252,-23.6623,-41.0545,81.0921,15.0387,104.2588,50.9528,-109.8976,140.4042,60.7759
-9.0887,-25.8245,-11.7785,-41.4968,30.9417,59.9059,71.0246,8.7400,119.9519,65.9072,-7.2585,-3.3514,62.3566,38.8825,102.2479,50.1716,-78.2169,83.3556,-19.6980
19.0790,26.4019,8.7579,14.9624,-14.4897,64.4203,-22.8761,-21.2526,-39.6704,11.8015,29.3950,37.9074,27.3274,48.3165,47.0934,62.0251,-28.3325,44.0516,-93.3368
29.6710,31.3547,19.4137,13.8917,-13.2483,12.2291,-84.5853,-34.5138,-144.5123,45.0195,48.7516,33.3053,6.9300,19.4793,-0.8944,74.1049,-26.3416,44.5812,-91.4994
-0.9540,-15.8552,-20.9244,-19.4358,8.8073,-8.6408,-72.9637,-30.4029,-117.0005,120.2935,22.9549,-9.1706,9.6824,-13.4988,-0.1765,68.2172,-70.0755,49.5276,-26.1579
-40.6606,-30.2052,-76.5654,-10.5544,8.4382,40.3714,-51.9825,-7.1985,-74.9809,100.4369,-21.1970,-13.1041,-10.6913,4.1311,-30.3381,44.3034,-65.3121,52.6492,-0.5441
-37.4485,25.5449,-67.4054,43.9507,2.6880,63.1548,-50.2746,-22.2770,-89.0546,0.1948,-33.2972,41.3514,-59.7911,51.6023,-115.2850,-4.5571,11.7948,44.5477,-48.5161
-7.3116,73.3708,-22.1453,74.8885,10.9928,16.0914,-20.9045,-107.8102,-130.4894,-103.9058,-10.3486,85.5475,-66.4233,68.1793,-133.9000,-43.3650,55.5019,-3.6569,-106.2296
-3.3654,57.2464,-24.7609,58.8077,6.7962,-8.0063,27.6119,-172.6927,-146.5605,-155.1867,5.4231,78.2717,-16.2393,51.3650,-50.3782,-18.1399,7.3585,-56.0506,-122.0444
-15.0866,14.1883,-38.5633,29.4967,7.4763,16.4362,46.7327,-133.0509,-96.2952,-90.3928,1.5396,37.6658,24.4895,23.7546,20.2206,25.7180,-46.4132,-42.8694,-79.8514
11.6165,-11.9523,27.1528,-5.6716,75.3574,5.0921,72.7452,-37.5920,-28.0286,36.3368,13.3200,-7.3765,44.6713,-1.9928,30.5189,22.5668,-25.8109,29.5985,13.1905
60.9740,-16.6453,127.6547,-52.2928,181.4896,-32.6648,146.0527,50.4669,-14.9873,97.3720,43.1201,-25.8206,72.5828,8.0911,23.4726,15.9886,16.5284,109.1191,105.8337
55.9538,-0.6770,138.4640,-65.0019,215.7036,-12.2079,188.6612,130.2948,-16.3686,102.2449,43.1945,-1.9735,75.1361,54.5320,-0.2246,36.3576,-1.3303,150.3722,133.1692
-8.1929,33.7542,49.4766,-7.1783,136.8210,36.9260,131.6375,156.1184,-13.9954,89.6716,15.7986,41.9481,36.5611,71.3747,-22.9367,29.1475,-62.0695,90.0800,62.6762
-53.0018,51.6164,-43.9671,49.5996,5.5433,26.8839,26.2733,64.4656,-69.5475,30.6594,14.2587,66.7060,14.3041,34.1090,19.5849,-0.0272,-111.3902,-68.6287,-78.9224
-51.2043,14.7699,-92.0041,12.5553,-99.5948,-32.1652,-73.3897,-66.2827,-95.1398,19.5202,26.0466,45.1567,12.8075,-9.4899,84.6168,6.0411,-146.7283,-170.4589,-180.0595
-48.1365,-34.2537,-112.3037,-59.8695,-148.5285,-68.4357,-154.2914,-94.2285,13.7174,141.5517,0.4203,2.7346,-26.5840,-25.1511,57.6005,24.0454,-159.7842,-112.1457,-147.2006
-56.4338,-12.2452,-113.7713,-36.4694,-167.8048,-47.0123,-172.3401,-35.6283,90.7568,208.5662,-34.5639,10.3039,-87.2385,-7.9963,-36.6232,12.1624,-115.2204,-32.3789,-60.8860
-48.5340,52.7382,-91.9811,53.7514,-179.8417,-2.1029,-132.3495,-25.1842,14.2294,82.7837,-28.8978,62.0813,-105.1136,19.6158,-82.3734,-5.5780,-44.8666,-77.8994,-59.5138
-27.2642,58.7323,-60.5141,72.3482,-161.8847,-5.7685,-123.8120,-95.2525,-69.6490,-55.7736,-5.6000,67.4229,-88.2824,7.0673,-76.3667,-5.1599,-25.5552,-151.7968,-114.8235
-23.8439,13.8542,-45.2788,11.9428,-110.5207,-56.5850,-136.7848,-147.2257,-123.3044,-71.8977,-0.4818,29.0342,-77.4899,-31.4270,-88.8891,7.3103,-64.6623,-116.3309,-118.6894
-57.9710,-12.9018,-71.6182,-36.3457,-71.1648,-70.2646,-74.5365,-116.1082,-188.2194,-31.7077,-19.7614,22.4454,-73.6197,-27.1063,-112.2709,16.3098,-123.6535,-34.0139,-66.5421
-109.4968,-40.8593,-127.1782,-62.6074,-63.5867,-41.3453,10.7753,-43.6246,-84.4471,38.7878,-66.0374,12.9878,-67.3764,-9.2769,-93.0801,-1.5262,-170.4335,-6.5420,0.7948
-112.0800,-73.7705,-135.3942,-82.0483,-74.3463,-34.8498,-1.4475,13.6796,164.3883,103.8114,-96.0636,-38.3590,-58.4604,-32.1923,-37.7614,-27.5548,-149.2348,2.7827,64.9552
-37.8400,-26.2655,-56.3970,-44.4441,-105.0214,-19.1607,-58.4376,47.5869,169.2871,54.1811,-46.0961,-28.6938,-44.2218,-17.0498,4.3487,-11.8180,-49.0775,33.4587,77.8380
31.1762,84.7194,25.3346,48.7741,-131.1392,48.3211,-52.1082,51.6811,-58.3819,-48.3725,34.1683,71.3908,-32.1269,69.4594,11.0190,19.2859,25.5059,33.4627,12.6069
24.5479,120.1131,37.2935,101.4923,-91.5797,80.4566,-0.9586,17.4000,-101.5747,-42.5845,41.7583,117.3591,-28.8391,93.1979,-10.6655,5.2879,18.9643,-9.2383,-65.1998
3.7609,61.4238,42.7123,72.7021,7.5750,37.7542,53.6466,-12.5174,12.1356,14.0427,3.6384,65.9044,-23.2592,28.2095,-49.4074,-30.4417,33.4790,-32.6411,-92.7072
42.6880,18.9676,100.9392,26.0789,78.3466,23.1748,99.1118,-2.5572,10.6448,-16.0160,4.8626,26.9840,-12.8065,16.1988,-75.3714,-47.8891,134.6649,-16.8767,-82.0907
104.0647,30.6716,156.0471,24.6064,73.6796,53.9954,92.7322,-2.6994,43.1948,-75.3822,26.4623,25.4330,-3.8398,57.8758,-48.0174,-55.8957,237.5658,13.6438,-57.0408
131.6144,60.7463,167.9044,70.1734,47.0207,34.2122,62.1355,-45.4398,224.9174,-54.2899,25.8911,16.4149,15.8085,38.6014,14.1979,-41.6959,269.1833,55.0681,-18.3845
139.4240,92.8255,185.4096,118.9485,75.1289,-17.6384,105.1144,-65.7728,243.1639,3.0467,36.2032,22.2279,48.5616,-2.5736,33.5706,2.1607,260.7464,87.7226,25.8104
154.1370,103.8020,229.4724,121.7058,144.6119,-9.5460,172.1370,-38.8279,-3.5237,-23.5086,76.8669,46.0289,65.1550,17.3217,-5.8642,18.6465,255.8279,60.6910,40.0936
166.3058,72.2929,246.7642,76.5221,150.8317,28.1354,126.8469,-40.8741,-189.0143,-141.0472,109.1399,38.9932,55.9112,41.3732,-17.6122,-13.3156,250.0643,-28.5662,-21.0418
153.4265,36.5203,197.0249,32.6376,51.1005,13.7037,13.4091,-96.3339,-150.7319,-199.9907,110.5314,18.8009,47.2928,20.5574,50.8070,-38.9067,211.2403,-118.7835,-138.0586
103.2932,39.6202,100.0504,31.8619,-62.8332,-40.3489,-39.2102,-137.8448,-43.4176,-113.1493,88.4740,32.8614,44.3131,-6.3067,122.6140,-32.9809,123.5052,-157.7902,-216.0181
28.9105,60.1745,4.9223,61.1631,-112.7170,-69.7950,-44.9961,-133.1503,-19.5450,-16.7841,49.2640,61.1230,19.0275,-24.4172,96.9336,-14.9943,23.5744,-141.4895,-219.8627
-32.8250,56.1532,-55.5970,66.0467,-114.9508,-41.0739,-52.2813,-106.0260,-85.8251,-22.4338,7.1016,73.3043,-28.6748,-20.5983,-3.0081,-1.8939,-37.9775,-105.5922,-201.5270
-57.6674,19.7354,-84.5981,23.8773,-79.7267,21.4480,-26.3143,-75.8770,-116.2646,-32.1636,-21.4327,65.4132,-50.7662,28.7789,-58.4583,-7.3614,-60.1601,-90.3386,-163.2908
-59.6438,-28.5155,-97.4504,-21.2501,-16.7034,44.4239,19.4023,-58.1090,-40.5644,-1.0891,-36.1308,26.0986,-21.6733,49.2074,-25.4969,-12.4824,-73.0611,-93.0154,-91.4266
-69.6487,-63.2617,-104.7996,-42.6535,-8.0927,-7.1091,2.0151,-56.0742,-21.4797,-36.3127,-40.0531,-24.0427,5.9782,-26.6784,9.8007,9.8175,-96.8211,-86.8431,-67.3125
-94.6247,-72.2936,-122.6411,-69.5519,-86.0238,-72.4904,-77.3561,-51.3527,-159.0989,-121.5263,-35.2874,-31.9821,-24.3477,-94.3812,-17.5341,12.5707,-131.5839,-79.9068,-121.4019
-109.4531,-56.6809,-152.4088,-88.6014,-143.9597,-85.2870,-128.7464,-43.1286,-245.4734,-117.1785,-32.1926,-0.3622,-73.4581,-55.5900,-55.2617,-34.1107,-149.8898,-94.1138,-143.0869
-105.5422,-27.6321,-173.1348,-54.1836,-114.4481,-52.8775,-108.8910,-31.1224,-143.2401,-17.5067,-38.0945,26.4757,-72.9778,12.2413,-51.8859,-46.2156,-139.6865,-120.4743,-103.7579
-117.9071,-18.0541,-194.4649,-15.1072,-78.6095,-17.4484,-77.3051,13.0774,-22.7744,68.0033,-54.2426,32.5794,-49.4918,23.7756,-45.6041,9.4639,-147.4130,-145.8519,-98.8925
-160.3106,-54.7970,-243.8017,-44.4105,-110.4902,-13.5137,-110.0576,68.7785,-34.7937,77.0292,-81.0921,8.8322,-66.5201,-8.8426,-72.9794,40.5160,-190.4613,-154.9859,-104.8858
-184.3193,-106.7624,-277.9023,-96.6084,-155.6913,-51.2827,-158.9431,70.6033,-124.1159,28.4352,-105.2936,-46.3419,-99.1592,-67.6050,-104.9452,19.9701,-196.6236,-98.0064,-18.6656
-151.8032,-117.4411,-219.3457,-103.3907,-117.8138,-91.9278,-91.1267,43.5413,-150.8389,-6.6603,-106.9992,-84.0192,-83.3957,-115.3013,-106.0314,5.5521,-124.3878,32.7245,103.7882
-83.3965,-77.1592,-83.3918,-77.4912,-5.0521,-81.7704,67.9512,59.4057,-27.3271,-6.8652,-84.3722,-65.7421,-30.7610,-88.6959,-75.5324,-8.7097,-27.3886,131.3000,142.0419
-13.0167,-18.2555,38.5419,-32.7028,59.6008,-23.8942,125.6775,84.3325,105.3950,-44.3051,-44.1761,-27.3074,-2.1245,-24.2415,-39.9200,-38.1396,47.8192,124.9663,114.5942
38.8178,24.8642,99.7751,21.5722,23.2443,31.8127,39.8674,67.8331,12.3906,-108.8028,4.4660,-9.2155,-12.7258,-10.1912,-34.4997,-38.4111,99.0651,114.1221,88.9923
62.6484,36.1575,124.7880,32.6610,9.2517,54.7943,-18.6722,73.4680,-162.2725,-73.6923,35.4505,-4.0840,-19.7572,-18.2596,-55.6793,-5.3166,126.0039,204.4236,68.1292
77.2435,29.0804,149.1655,0.9017,106.6545,51.4566,26.5156,145.0418,-76.7541,63.6579,34.7729,-5.8382,9.6076,11.6066,-61.0863,28.2069,147.2602,305.9272,61.7655
105.7714,18.7116,185.7887,-8.6442,212.3278,33.6721,79.4005,200.4064,135.4005,167.5480,30.9719,-27.1207,49.3084,25.4667,-49.6750,60.3336,188.0883,283.1448,93.7231
133.9462,0.1330,233.0523,1.5247,235.8281,-1.4977,92.8202,171.1988,108.0754,177.7073,50.1119,-58.5874,59.4336,-29.2673,-55.4663,60.3656,224.0923,185.3080,119.4360
140.6646,-8.6504,274.0237,-0.4242,228.4350,-50.6631,97.4467,95.8678,-44.4384,117.7203,76.7402,-67.2072,52.5114,-90.5850,-57.0034,-2.9171,218.8069,129.0568,75.9160
125.5937,14.7776,257.5458,11.5784,202.1897,-82.4295,79.1805,35.7855,-12.7219,31.8269,81.5276,-43.5534,56.1250,-93.4113,-13.6108,-52.5281,178.0775,87.1952,-6.5187
85.9454,25.9436,149.3771,30.5016,104.5540,-73.5976,31.7573,8.1972,114.8537,4.5422,51.1004,-21.8839,53.7624,-63.3392,39.0137,-20.9999,127.2560,3.0646,-43.5559
40.8377,-0.2521,38.0262,27.5984,1.7810,-46.0647,12.8044,1.5820,136.6626,52.5281,7.0597,-25.4408,33.3138,-54.1382,45.9481,21.5412,104.7361,-37.1819,-21.5833
43.4344,14.1477,60.5995,58.4972,8.3390,-28.1399,36.7314,10.0695,101.6382,71.7406,1.7301,-23.6216,24.5317,-72.7366,21.0299,10.9899,141.5107,43.8343,7.1344
86.9423,81.6851,176.0941,124.4986,84.7754,-18.5720,62.6831,38.3447,69.3991,27.1567,40.2408,-0.1844,35.2159,-82.8924,-0.3179,-16.4618,187.4104,152.8958,34.9499
91.8395,82.3146,208.8221,101.5330,125.3255,-11.9299,101.3872,65.1206,11.8641,-10.1886,51.8480,1.2163,39.6722,-62.7494,-9.0616,-34.4452,161.3387,192.0778,92.6699
47.3999,5.9879,145.1926,-1.0002,134.1705,-5.0637,167.9193,60.5397,-10.1079,-35.5027,13.6485,-30.6129,43.7571,-37.4709,3.7301,-49.1374,85.3489,207.3200,149.4592
28.8617,-16.3283,128.5854,-27.0378,164.8325,13.5719,198.2226,55.4002,26.7551,-82.0958,-0.1623,-45.1630,68.7166,-33.0330,37.0236,-44.0613,37.5048,246.1639,157.5725
50.2242,17.4641,169.0276,13.9709,209.4353,32.9296,170.3823,86.7078,-0.9936,-108.1455,35.8026,-38.2076,98.3693,-34.5080,63.0374,-23.3856,26.6572,261.9524,159.5988
54.0173,2.2610,156.9254,-3.2488,246.8365,26.0069,180.5681,108.8027,-86.0048,-79.7676,49.4536,-49.3431,114.7854,-20.4711,70.8800,-23.7430,26.0831,243.8713,204.8759
34.5747,-35.8112,115.6791,-46.5129,307.3754,11.5651,273.7503,93.3728,-45.1672,-32.5680,17.5298,-62.5633,133.0979,6.1830,74.4088,-40.3722,28.5745,260.6370,243.8884
31.2340,-17.1400,137.0110,-29.7437,407.1170,31.9130,354.3535,106.9721,111.5834,1.5298,2.5225,-46.4501,165.3547,36.5853,80.3831,-30.0964,13.0201,317.2421,234.4523
39.6314,25.2184,158.5073,16.4872,466.5550,78.6713,341.5438,171.5813,168.9893,17.6128,27.5229,-22.3302,201.0011,70.2352,107.1503,17.7206,-26.6785,317.6616,223.0133
35.7835,48.0915,90.5776,58.9890,401.3295,119.9754,270.1524,219.9698,93.5020,21.0885,49.8009,-4.3140,216.5314,107.3923,161.0368,63.6226,-33.0912,224.7560,235.3948
31.5470,63.8326,28.5789,96.9493,279.0562,153.8823,215.5198,235.5461,31.9814,28.5864,44.9601,17.0866,182.8854,132.2150,161.3933,65.5992,27.6747,139.3096,232.5598
39.4830,56.2497,78.9862,87.0759,236.5496,174.2450,211.3444,242.8612,0.0521,37.9152,27.4481,22.8725,107.6925,119.3175,43.4369,36.8675,90.7845,140.9897,204.1858
44.6745,22.0400,145.6739,38.1536,253.8849,158.8495,219.0922,207.4571,-56.1188,21.7420,16.7326,5.8075,53.0483,82.1877,-74.1687,25.2514,87.6337,156.1926,182.4544
43.5640,13.2879,117.2120,26.5437,204.3693,120.8018,166.0519,115.9709,-61.2470,-33.2048,21.7789,-3.9464,52.1578,65.9893,-41.5754,30.6853,41.6257,103.6248,177.5215
50.6105,26.4525,66.5126,33.7394,95.1239,92.2961,60.3723,42.5997,23.5417,-104.7590,34.0508,-8.8786,62.6004,66.5954,68.0489,19.9030,9.5862,47.6111,172.6306
59.9210,11.0716,76.7746,-3.3055,43.5535,69.0401,-3.8418,31.2362,87.1507,-131.2988,38.0045,-28.2602,51.3955,48.1738,96.6163,4.5871,-2.8856,50.8477,149.7288
52.0249,-11.6909,86.4204,-36.6711,69.0817,40.4140,4.8890,38.5455,82.8878,-72.3450,33.6269,-34.9393,43.3592,28.7665,61.3283,10.5526,-17.1801,42.5453,99.9974
27.6306,-7.9415,41.3220,-15.6291,97.1834,26.7571,28.8348,24.1726,60.8961,2.5847,25.9174,-16.1992,53.8428,31.4098,53.3741,20.6032,-29.3010,-3.5090,39.6634
1.3097,-4.9485,-3.5949,8.7483,101.6553,33.9874,41.4702,3.6764,15.4754,4.4489,11.5304,-7.9844,60.1955,23.4105,57.8222,11.7216,-27.6777,19.7824,6.1659
-13.2277,-1.6958,1.0446,11.9709,106.9405,39.0075,57.8565,15.9077,-23.8717,-33.7351,-2.7428,-11.1724,50.3850,3.3808,38.4028,-14.0954,-16.7877,126.7131,22.0761
-4.9921,31.9578,36.6048,34.0778,112.2966,45.1282,71.8187,60.4867,32.1312,-53.6329,-4.0260,4.0313,35.4260,16.7977,16.5267,-36.5316,2.1591,171.4463,69.8800
13.1669,62.2768,57.0876,72.3530,91.0847,72.4678,74.0614,81.2740,108.4451,-69.3054,0.3134,23.0705,24.0549,47.0247,4.2252,-21.7201,23.2379,91.6177,108.9143
7.7370,55.4174,20.0991,95.0590,33.3907,95.7359,61.6515,57.4474,69.1742,-61.1678,-3.5797,24.1116,17.2376,45.9922,3.0408,21.6604,21.7741,-5.3871,122.6712
-22.2257,48.1575,-58.1707,102.5954,-32.1763,77.0400,26.6910,46.2165,6.4837,14.2268,-14.0895,23.6948,9.6833,31.1346,22.9314,29.6441,1.1770,-19.3778,128.1661
-43.7949,61.6148,-99.8761,104.1312,-60.4706,41.1701,0.6564,71.2447,46.7559,99.8091,-27.0727,31.0278,-1.2624,27.1990,37.6583,-1.3782,-3.3879,45.8847,130.8976
-47.6323,77.5563,-80.3577,113.4910,-41.8519,38.3167,26.9823,91.6893,104.2997,122.5391,-37.8126,38.0551,-0.7955,18.5495,31.6878,-12.1981,6.3776,141.3117,127.3272
-39.9336,103.0866,-38.5092,143.6655,-0.3623,62.9901,73.2536,107.7036,101.8497,105.2136,-30.7329,48.0073,19.0176,14.0312,43.1157,-18.2615,14.5118,234.1768,141.5682
-6.0850,135.3426,31.6774,160.6686,64.1351,80.9203,97.2168,147.1646,86.5336,92.1514,-1.0681,57.4383,36.9158,36.6309,57.2093,-55.7979,46.4551,317.4692,180.1066
48.6683,137.0520,134.4241,132.8501,161.7282,97.3525,132.1188,189.1559,65.7127,101.7063,31.4449,54.4593,48.2998,69.0284,23.6219,-54.4080,94.0752,372.8410,203.5116
79.5749,113.1585,188.4447,103.6797,244.2642,128.5861,186.2411,211.7235,54.4038,131.1252,48.2453,44.6806,81.7859,88.5065,4.8571,29.4446,93.7727,366.7810,202.6051
70.2756,98.5733,149.9511,106.3732,251.8925,141.4039,200.6321,212.8853,109.1105,133.3504,44.7519,35.3354,125.5815,90.4551,59.9816,97.6368,58.7618,315.0468,196.5245
54.0112,82.5258,94.2491,95.8589,218.3711,100.5586,173.7102,169.6485,149.6643,91.7768,26.0591,24.3872,123.0652,77.0276,80.0823,79.3693,70.5004,262.1245,165.9980
61.4792,55.3966,89.7738,59.3742,212.5539,55.7639,157.7320,99.0310,85.7526,62.6762,15.3303,19.3147,75.4770,79.3242,2.4607,28.6925,127.0896,187.9597,126.8237
97.9967,56.4088,127.1276,63.9401,201.7236,84.2636,145.7245,67.2773,38.1155,57.9776,35.7311,26.7989,44.5898,118.7522,-38.0100,3.3441,168.2580,66.0402,153.3248
135.9122,94.7290,157.6897,124.0540,115.8551,152.8125,106.3197,66.5861,76.3244,54.1585,68.6117,43.1669,44.2611,147.6664,21.3163,13.9649,177.7452,-33.8996,205.6465
119.5923,111.9280,117.2375,151.1524,3.7894,154.4960,50.8799,43.7802,60.4541,78.2565,70.0381,61.3043,36.2202,123.8517,58.2368,51.2405,144.5878,-46.6204,149.0469
42.6880,67.2980,6.8691,91.1894,-40.2093,77.6727,-7.0817,13.0853,-20.7010,97.9365,31.5810,55.9336,13.4003,68.7558,23.3808,72.2233,63.4072,-20.0690,2.7638
-17.7250,3.3885,-64.5304,17.4373,-43.5117,6.3083,-56.2415,-17.8953,-22.3781,27.8550,-10.4359,15.4669,-5.6237,3.7712,-5.0633,46.9909,6.4169,-15.8718,-86.1516
-6.5885,-1.2020,-34.1421,24.1285,-78.5196,-18.2189,-67.5898,-78.2944,12.3373,-73.4346,-18.2171,-5.6043,-23.0850,-44.3161,-7.3989,5.1329,40.4349,-19.9754,-76.7553
46.5940,59.0576,38.8953,84.2151,-108.8650,-4.0071,-53.7704,-114.4621,-47.6715,-103.7898,15.9246,28.6110,-38.7034,-21.5248,-10.4781,-35.1529,118.9166,-0.5078,-28.1065
100.9880,100.9935,112.3575,100.4135,-70.1943,47.8545,-67.1926,-67.8749,-132.0045,-99.3695,68.9382,54.1428,-33.0680,48.1360,5.8344,-79.5575,164.1866,46.8565,12.0640
143.0292,88.3476,188.0490,65.7044,9.3010,100.5380,-96.5491,-15.2974,-122.9027,-85.6623,107.0530,33.4642,-5.8089,77.0045,36.6831,-88.3821,164.0592,109.0438,6.6580
154.1832,84.3733,223.5033,54.6374,80.1012,101.3372,-71.5426,-13.9600,-57.2100,-42.2538,108.2609,31.6572,16.2172,75.3443,21.2366,-36.1687,148.8774,159.1520,-30.4698
125.3679,101.5364,193.5866,72.2051,133.7903,83.7936,18.6044,4.1843,-9.4321,-38.4250,72.9616,62.3875,17.7971,96.9653,-44.9377,15.1848,146.6316,166.0149,-28.0762
80.2444,63.3611,138.5498,48.5954,141.6743,102.1008,87.9505,54.2282,8.0360,-59.9419,28.7754,49.8135,10.5213,101.7628,-77.3414,17.4493,138.6277,110.7857,4.7931
44.0595,-23.5088,75.7086,-26.8285,70.1197,116.7541,56.5600,70.0345,15.2926,27.8876,11.6927,-3.8182,7.5783,69.4764,-20.8167,1.8113,73.4946,11.4536,-6.2166
18.7787,-60.8030,3.8087,-84.8909,-33.3846,96.3925,-32.6553,59.2249,37.0308,136.3333,15.5023,-19.2833,0.1042,69.1378,54.0022,-1.7372,-22.8124,-57.5005,-35.7108
-10.6940,-38.7443,-50.9019,-75.8568,-82.0934,95.8811,-60.3690,60.1706,52.2329,83.5783,-5.0443,4.3248,-23.0707,96.1976,37.9986,8.1187,-62.8049,-43.3747,-14.4015
-54.7121,-24.0608,-95.5764,-16.6824,-61.7787,121.1784,-8.7100,50.1178,10.7376,-4.1214,-50.7982,14.4146,-39.5258,76.6618,-38.8254,31.0943,-51.1092,-7.3058,24.4540
-88.4333,-13.9773,-145.8479,38.7286,-35.5135,105.4505,17.8263,18.3712,-66.2037,11.9617,-64.0363,21.0310,-25.9146,39.1687,-51.5290,41.8997,-56.4783,-23.1285,6.7389
-76.9178,24.0465,-151.1421,50.3848,-59.5075,58.6418,-37.1426,-15.7562,-119.0255,-14.2897,-28.3405,55.0272,-16.3129,52.9437,-7.1369,16.9572,-69.0991,-49.0373,-80.1933
-37.7927,55.4525,-90.5632,28.5070,-109.3500,45.5590,-122.8337,-49.2844,-143.8845,-108.1248,8.0964,86.8190,-45.8842,78.9885,-15.0331,-8.6410,-58.1995,-34.6622,-187.8203
-17.6842,46.4306,-36.7026,14.6730,-119.3807,53.7854,-186.6117,-59.7106,-158.0255,-95.9406,22.6856,75.8771,-74.6689,53.1957,-58.6590,-4.0959,-57.9146,-33.9863,-240.0138
-23.8621,24.6954,-33.2183,21.1142,-99.2206,34.2842,-221.3121,-41.6365,-165.0770,-36.4119,34.6503,42.0405,-62.5613,-3.2380,-44.8705,-3.9176,-85.5016,-101.9349,-237.2459
-41.3732,7.1958,-67.3017,14.4105,-121.2208,-13.4980,-245.6059,-70.1738,-171.2290,-80.9229,38.2305,26.2609,-49.7366,-41.4858,-1.8668,-29.6684,-112.3415,-209.2079,-278.1065
-63.2763,-28.6209,-126.0482,-32.8151,-174.7726,-67.9718,-274.9893,-164.9241,-148.7018,-115.7597,14.9096,21.1781,-72.6266,-50.0403,-8.6502,-44.4865,-133.5401,-301.1205,-361.8495
-75.8630,-72.9166,-168.4814,-90.1859,-197.7762,-104.1791,-290.4922,-214.2976,-92.3024,-18.8918,-13.8671,4.7561,-103.8364,-43.6697,-52.4396,-23.8810,-156.6423,-343.2447,-360.1973
-78.6414,-81.5149,-166.4275,-101.9352,-222.3298,-102.5289,-275.3168,-172.8308,-92.9862,106.2620,-22.6541,-0.2827,-128.4626,-42.2335,-96.1069,14.2418,-176.4507,-336.3650,-267.5429
-96.7564,-60.2861,-180.6568,-75.3829,-295.2058,-90.9047,-263.7228,-135.1754,-177.8406,142.3959,-30.0095,17.8561,-158.9552,-50.6032,-132.7684,43.2752,-196.6529,-311.2488,-188.1186
-122.0718,-68.4691,-228.7006,-81.3757,-325.4510,-104.6569,-240.6254,-148.2941,-201.2986,71.0732,-54.4972,8.1527,-159.9976,-57.1510,-121.1358,35.3672,-208.1716,-274.6744,-113.2912
-129.3635,-117.3776,-238.7746,-136.0327,-243.4292,-118.2051,-141.9659,-157.0720,-102.6243,-47.6701,-78.1502,-41.6486,-102.6340,-56.6617,-39.2825,-16.0304,-206.5237,-229.6113,-27.7893
-149.6455,-143.6126,-243.1732,-164.2188,-191.8625,-105.7207,-65.9111,-138.6290,-47.5054,-93.0897,-87.8157,-55.9762,-63.0706,-54.9455,22.2315,-58.5890,-238.5073,-235.7025,-40.1968
-202.8587,-117.4764,-321.0458,-131.4886,-309.3979,-103.1267,-174.7391,-138.6873,-134.9083,-68.8457,-95.4140,-13.7253,-118.0512,-66.4121,-19.8647,-44.3973,-310.1904,-309.1368,-155.0423
-230.5706,-99.1684,-371.6559,-116.4951,-462.3253,-145.3695,-340.5377,-191.7719,-228.0048,-109.9401,-105.7453,4.7628,-206.8822,-109.9381,-109.5728,-22.3887,-343.8294,-350.9574,-227.1415
-203.7468,-140.7480,-285.9980,-184.8273,-435.2438,-216.2157,-319.6200,-269.7712,-209.3573,-201.7202,-107.9234,-37.5950,-225.3315,-172.3083,-148.2291,-69.7181,-324.6243,-312.6307,-231.9882
-162.3808,-207.3852,-154.9529,-282.9487,-239.6496,-273.4868,-178.8383,-316.8625,-146.5084,-240.0609,-92.0975,-95.0228,-169.1962,-207.7392,-125.6737,-154.9484,-308.7027,-264.7743,-247.6863
-116.1984,-236.6842,-66.9379,-321.2150,-44.0819,-282.3112,-103.0623,-326.7232,-125.4716,-261.3221,-57.5722,-131.0600,-93.9433,-202.0629,-82.5998,-181.5153,-287.4148,-232.5860,-252.9802
-71.2425,-212.0875,-13.7103,-284.0979,51.7393,-248.6364,-50.6485,-322.4274,-121.1137,-268.7355,-26.1452,-128.0269,-31.9347,-176.1134,-38.9778,-135.3343,-251.6865,-184.9672,-213.3316
-88.4752,-159.8146,-51.4274,-214.1086,39.2554,-207.6797,18.6039,-279.3103,-89.3274,-177.2951,-31.4168,-77.7875,-5.0593,-134.7416,-6.2887,-80.3845,-268.5304,-167.8870,-185.5237
-161.5039,-119.7775,-199.8157,-150.4462,-67.8157,-158.9631,-30.3798,-186.4239,-58.3467,-90.4681,-69.5617,-28.7258,-34.3480,-84.2926,-6.1500,-50.2846,-313.7658,-226.0679,-176.4729
-179.9271,-105.0718,-287.8963,-109.2665,-201.1252,-84.3054,-183.9172,-109.6450,-69.0204,-149.5839,-93.5788,-29.1743,-100.4684,-48.2171,-47.9717,-38.5659,-265.7229,-276.0173,-107.6323
-116.6353,-78.3329,-206.6507,-77.3589,-241.4189,-15.6343,-222.7981,-71.7493,-104.0601,-212.9440,-78.2721,-36.1013,-146.0110,-19.3708,-109.0259,-39.5204,-150.1176,-221.0097,34.7729
-72.9317,-30.3220,-105.7964,-41.9893,-159.0574,3.1098,-106.8432,-30.0498,-113.2171,-137.2586,-54.7152,-11.7460,-129.2690,11.9492,-130.1704,-40.0877,-113.1013,-102.0175,161.8000
-104.7019,-38.9395,-142.6218,-46.4336,-73.2928,-34.6763,-16.0173,-26.5454,-56.3732,-53.4846,-66.7119,-18.8126,-66.6230,-2.1073,-63.1821,-35.1987,-173.2728,-41.8727,178.5967
-157.7789,-127.4047,-249.1883,-124.5326,-90.1930,-118.1536,-28.7194,-115.3203,55.3687,-68.9444,-110.1066,-81.8638,-26.4550,-76.5788,33.8847,-50.9987,-228.7443,-77.9428,83.4953
-157.2936,-170.3984,-252.0118,-193.0789,-162.2973,-192.9043,-73.2613,-186.7684,128.3806,-89.4608,-126.1671,-106.2525,-55.0557,-123.5550,36.9729,-85.2837,-214.6976,-109.1224,-16.1573
-85.2333,-106.1413,-109.1640,-171.2773,-187.3837,-176.6378,-106.7167,-129.7090,96.8865,-34.8983,-77.1285,-58.9295,-106.2412,-95.4820,-45.9559,-81.6714,-141.3681,-58.2826,-40.1464
-5.3962,-59.5622,28.8341,-133.0368,-153.5388,-96.9185,-130.2700,-27.2006,56.1654,58.7452,-12.9390,-36.8698,-100.7583,-63.4129,-70.4415,-22.8157,-77.5550,-7.7394,-33.8683
8.5432,-91.0407,25.4198,-145.0030,-106.1889,-69.1131,-126.3466,5.6038,109.1413,109.3913,1.4066,-67.0587,-41.8948,-65.7947,0.8888,32.8846,-81.0625,-48.3251,-50.6517
-19.4759,-91.3977,-47.0900,-128.1121,-66.1572,-99.9060,-86.0482,-23.0934,164.3064,70.9544,-12.7079,-63.5189,4.5146,-56.4666,58.4856,38.2530,-105.1124,-120.7462,-64.9359
-22.7560,-39.2423,-54.9367,-59.8476,-39.3039,-103.8158,-23.9114,-61.5804,103.6762,8.3707,-7.7260,-20.4374,15.6908,-33.5360,56.6470,9.9059,-80.6862,-138.7049,-56.1153
-6.8936,-27.8183,-10.7051,-36.3571,-24.7010,-69.1990,47.4280,-62.3692,1.9023,6.0327,4.1026,-7.2449,19.4629,-31.1756,43.9225,-2.2552,-41.5098,-108.6279,-35.0780
1.6643,-33.9142,25.6204,-48.0700,-6.2023,-38.6433,96.9253,-10.2737,-5.4103,35.0293,8.5789,-8.0090,30.2598,-25.5264,38.3773,28.8117,-42.7920,-76.1870,-11.0860
15.1194,-5.8590,53.5425,-32.7233,0.1353,-35.3929,75.0888,10.8770,92.3209,53.7485,20.4541,8.1206,33.3993,-8.6171,40.1097,62.7661,-72.7060,-90.8437,-14.7818
17.1819,-23.0493,41.9914,-59.9212,-44.8052,-78.1465,-1.1149,-52.2621,202.6257,69.1738,16.6728,-10.6969,15.4262,-28.6646,58.6182,45.3366,-106.2775,-147.3643,-47.5967
-24.2398,-87.2941,-46.0307,-132.5465,-108.5002,-135.9078,-39.7997,-92.6382,221.6143,35.6385,-28.0318,-55.4029,-7.7033,-64.7523,66.2877,12.4422,-120.4260,-144.4142,-42.3464
-72.1300,-75.1348,-140.2293,-102.4524,-125.4468,-135.3706,-16.8011,-55.1072,139.9213,-55.5559,-65.6329,-43.4341,-6.5230,-61.0916,49.2105,27.9273,-92.8488,-80.8813,-5.3962
-73.2944,-25.1454,-143.6051,-7.2039,-115.9497,-104.6096,-8.6837,-56.7525,57.1528,-94.9644,-52.1833,-12.5620,7.6924,-70.4420,44.7093,46.9277,-60.4359,-108.5009,-29.1920
-33.9867,-47.9894,-46.8259,-28.9133,-112.9690,-125.7881,-28.9120,-118.9136,3.7646,-77.8680,-9.7715,-35.6921,1.0096,-125.0933,49.3869,2.6847,-67.6281,-193.6273,-89.5863
22.0282,-44.2780,90.5863,-94.1843,-66.3542,-151.8205,-10.8401,-116.5228,-84.0376,-121.0536,45.2714,-30.7388,-4.1190,-113.2568,35.7780,-46.3604,-79.6710,-135.8649,-97.8980
65.7936,53.6555,166.4816,-42.8846,23.0638,-112.1268,15.7297,-72.0835,-155.1226,-185.8076,99.5360,47.5754,24.7570,-15.3348,34.0916,-29.9686,-75.5440,-19.3045,-107.0343
47.2589,78.1849,108.0294,17.9662,47.3360,-80.0045,-32.5512,-112.6404,-110.4621,-161.1431,94.5870,68.2122,36.8425,7.3228,44.4186,-8.4527,-99.5895,-76.2062,-170.7915
-27.7763,-11.2148,-17.0369,-12.4882,-10.9673,-111.2011,-90.1373,-180.3418,-33.2905,-119.2672,22.9630,-0.5744,-4.2370,-75.1419,20.2239,-51.0674,-134.3986,-203.2892,-185.1601
-73.3235,-32.5242,-83.6217,-8.3494,-47.1292,-118.7208,-49.2024,-146.0591,-18.9876,-147.4432,-25.0261,-22.1797,-21.2421,-101.6926,15.0681,-102.7754,-104.3056,-194.6902,-108.2360
-39.0032,32.4625,-69.3466,61.1664,-39.5137,-53.3669,18.6235,-60.9135,16.8619,-169.0898,-6.4536,19.4540,27.3078,-29.4589,89.9925,-85.1705,-10.6593,-128.0914,-50.4928
44.9506,61.3319,-1.6483,83.3184,-36.2320,15.9379,15.4066,-20.3943,112.1268,-123.5033,28.6585,30.8978,62.8061,38.9658,141.7705,-14.9450,102.0364,-85.0369,-28.5117
135.6625,80.8866,119.7508,87.7961,1.6957,42.3625,20.0081,6.6636,165.8462,-44.9952,57.7408,26.4874,57.7362,67.2822,95.0430,40.6675,221.3708,7.6544,40.4878
199.4322,128.3004,245.5998,137.0260,96.9444,38.4239,92.5407,50.2988,176.9509,45.1705,93.3690,38.8768,74.1217,66.0478,59.2284,48.2721,305.9258,82.4456,112.8291
207.0954,124.5296,277.4178,151.6164,138.2244,14.6048,115.4006,60.4425,238.7885,114.0709,109.5494,23.6714,104.3801,26.7968,101.3842,28.5721,299.8190,24.2250,90.2920
165.2070,87.2860,190.4175,122.0227,66.6165,-15.2356,34.6029,16.8584,329.9539,112.8846,83.4910,-0.1593,98.8599,-5.4542,147.4851,27.6919,235.2043,-50.4732,17.5003
114.6795,102.6116,68.9414,139.5028,-11.4278,-32.9596,-12.3819,-42.1036,350.4402,78.9292,47.1162,24.6551,86.6860,11.6366,161.7655,57.5503,183.6800,-34.8402,-6.5950
91.7737,121.3524,27.2979,163.4440,-20.3627,-37.3912,39.2522,-81.7811,274.6531,69.6799,37.9031,52.3842,92.7594,27.0105,162.0650,70.2831,154.7645,-19.5390,16.0150
102.7755,91.1041,85.1562,116.1381,-10.3218,-23.3877,71.0685,-88.2879,177.3022,51.5465,55.2097,38.5925,80.3478,19.2178,146.1653,30.3666,129.3727,-34.0710,25.5362
114.4743,70.8945,121.7883,63.7514,-9.4163,16.1483,29.4085,-79.7633,135.0277,-4.2233,71.4431,32.0066,61.1673,47.6250,142.0378,-16.3556,106.1270,-18.4163,-7.8113
92.1679,63.7234,53.2462,56.3454,9.4468,58.3813,8.4865,-90.0368,96.3557,-52.2676,63.7373,45.0239,78.9339,99.1370,166.9861,-7.6853,85.8459,-15.6399,-65.7171
58.9855,27.0486,-20.4740,44.5590,27.4034,73.9166,42.0836,-97.7274,-6.3531,-69.3200,44.6833,35.9502,101.7479,98.7434,168.7722,31.6683,79.5470,-48.4892,-94.4990
57.8252,15.3775,0.8872,33.7722,17.8023,68.8322,59.8688,-54.5952,-42.5986,-73.9511,39.2893,22.2530,88.2242,71.0252,139.3316,28.0941,103.3704,-26.1244,-63.2200
75.9362,60.3928,54.3962,58.1095,20.3265,76.9877,43.2235,8.5853,74.8822,-55.9685,40.4869,37.9210,61.1571,90.4118,117.5245,-19.9653,136.0201,53.4740,-14.8556
79.8277,76.6539,70.6481,66.7002,47.1014,110.6100,25.3207,21.5396,130.0478,-7.8802,35.7835,51.2118,38.0690,125.9472,80.1253,-39.2690,134.0121,93.5137,-8.5524
67.4927,25.6656,62.3411,19.1901,28.3729,118.3843,1.1724,-10.5896,25.9239,19.7492,31.0165,25.1763,20.2748,95.4845,40.1952,2.3474,87.1801,82.5016,-29.4607
35.5862,-31.7387,9.7942,-40.7504,-43.2203,50.5798,-22.5793,-32.1071,8.1318,-5.7901,11.4228,-21.9522,26.8160,19.3815,71.5487,47.7616,25.1729,66.6069,-14.3094
-18.9570,-65.0571,-93.8233,-77.8694,-65.2576,-29.9865,-4.3052,-19.7682,107.8147,-22.4799,-37.2957,-51.4280,37.5985,-8.3319,104.9298,40.5608,-10.1659,55.9315,46.0745
-50.2864,-91.9758,-144.1026,-99.6815,-7.5168,-30.0838,37.7360,12.3948,80.4425,27.9912,-71.1052,-57.8374,16.8261,19.6924,36.0291,13.2760,5.0143,42.6997,91.2148
-15.7846,-110.9942,-79.5197,-106.8215,36.8057,11.2498,46.5703,32.9079,-3.2080,76.9535,-47.5659,-68.7689,9.9855,22.1027,-12.9631,27.4454,49.3055,2.2960,79.7532
36.4163,-102.3373,0.7795,-89.9918,32.8674,13.6955,28.3604,17.2341,48.0208,27.5770,-2.9170,-80.9947,49.7019,-8.6544,58.0815,52.1374,70.4743,-63.7516,33.4775
28.1168,-66.1115,0.9454,-54.8165,40.4516,10.4849,13.8749,-13.7981,49.6641,-72.6525,6.9966,-56.9293,55.2431,-2.4314,80.7105,10.4074,43.1938,-78.0543,-5.1030
-23.4399,-33.1749,-41.1986,-23.7296,66.3841,43.6744,6.7140,-17.8907,-89.6372,-99.8163,-15.8118,-12.6495,-4.8131,37.6193,-25.5535,-62.1780,3.3043,-22.1306,-6.7151
-31.9616,-11.0932,-43.9002,1.0883,73.8033,71.8907,24.9018,10.4548,-78.3723,-39.6490,-29.1649,10.2718,-29.5191,65.8938,-76.4302,-61.5875,10.7147,8.5971,22.1407
17.4854,43.5355,5.4183,58.3196,79.8491,90.6911,62.7035,47.7454,76.0402,18.2607,-4.8401,41.4238,12.8580,100.9727,-16.6562,-5.6403,70.1896,-0.3383,24.7005
53.9290,116.2701,54.7970,140.8353,91.9428,135.2827,50.2134,68.5477,16.2618,11.1312,36.0699,91.2769,26.3837,131.5450,-7.4323,4.4437,125.2881,27.5965,-22.2483
57.6368,115.1889,82.5818,157.5576,74.4955,153.4836,-15.8213,52.2369,-202.1202,-49.1178,51.5510,82.2117,-15.4664,88.9631,-77.7090,-28.6353,157.3088,69.3736,-40.4003
85.5845,56.1014,133.7695,93.0212,52.5446,89.2170,-34.4846,15.7129,-235.6031,-111.9147,49.9806,16.3693,-34.9742,10.7359,-109.2285,-34.1673,202.3976,70.1587,15.2394
129.1762,56.4043,199.0623,62.0145,69.8855,15.4306,16.3575,7.2252,-114.9076,-143.0765,62.0403,1.0108,-7.7105,-5.5721,-76.7066,-16.6538,236.0907,76.1762,63.7070
103.8537,101.4550,170.9071,103.3970,78.5149,18.2968,57.1729,31.6087,-50.5682,-142.6071,56.6342,37.8093,16.3421,18.5948,-34.5565,-16.3674,188.8493,105.4542,67.9523
16.9748,86.8802,36.3121,124.7457,56.8085,74.5228,78.1538,52.5653,-38.2226,-114.4645,1.8177,41.3946,14.9220,36.0734,-15.6938,-27.9163,106.0788,111.4744,100.8749
-20.9068,42.0033,-47.9366,101.1184,88.2462,130.1795,118.9591,68.2065,-46.7563,-74.7602,-41.7448,23.3199,15.1011,77.7822,-30.1533,-30.7388,108.2008,125.0274,153.7730
28.2370,49.7750,13.7909,99.5282,174.8894,167.8905,144.6463,98.1470,-97.3320,-58.0546,-11.8305,30.9078,39.3010,122.5314,-44.0815,-11.5922,181.6376,170.8979,138.9939
88.5090,74.1435,123.2910,114.1600,207.4418,175.0407,123.8755,129.3253,-119.9718,-40.4693,49.7773,36.0821,69.3903,109.0493,-19.6997,30.4135,196.1319,152.6161,92.8762
91.8876,49.1360,150.8550,78.7049,184.7513,147.5516,113.0412,142.1068,-83.4412,32.8743,68.5749,16.8657,73.1242,79.2714,1.0590,57.1673,115.6439,49.4284,105.6456
40.0900,-10.0856,80.1380,5.0302,193.7232,115.3618,147.0357,144.3935,-43.1200,103.7916,28.5407,-7.7403,60.3517,82.3927,-14.8494,40.9076,34.8512,6.8247,139.8530
-19.2245,-53.5917,-17.0070,-28.3459,210.5013,110.9892,177.8736,151.6217,29.2952,83.4698,-34.4450,-33.6277,63.8597,75.8038,-10.8643,17.2393,30.4740,77.2054,141.4159
-34.6374,-52.1848,-56.9673,-0.9164,166.4249,121.3382,165.6866,159.0616,134.9634,32.1984,-66.6195,-49.2270,69.3485,49.8980,25.7596,11.2252,77.7011,128.6651,148.9577
-7.1892,-24.5985,-23.0743,17.5770,88.5364,97.5240,118.0533,133.6973,141.3439,23.7870,-47.1709,-36.8795,41.2570,39.3756,24.3907,0.1200,98.6793,89.6783,156.9252
8.3267,-17.3813,13.4018,-16.6460,16.5222,33.3471,50.3494,60.8723,50.6172,-1.1383,-20.4001,-20.8350,-3.2949,18.6723,-12.1379,-12.3100,56.6037,53.6400,97.6885
-17.4587,-22.1033,-10.0144,-36.5128,-51.5967,-5.5591,-16.7505,-1.3441,22.4724,-53.9660,-27.2373,-17.6844,-22.6907,-28.1157,-10.6971,-6.2617,-3.3144,92.8623,-4.8004
-55.7881,0.0667,-72.8782,17.9259,-86.3215,12.2942,-53.1013,-2.0157,51.4358,-36.5326,-44.6171,-5.3992,-12.4636,-53.9390,28.5243,-3.2794,-21.0108,137.2705,-69.8076
-75.6212,19.8088,-126.1096,80.5846,-59.3170,31.2351,-44.7489,7.2397,30.8045,45.4143,-47.2012,8.5823,9.2787,-49.8230,54.0815,-14.8588,-0.9661,110.0957,-91.1394
-75.9568,3.5809,-142.7211,84.5990,2.5028,32.6042,3.3837,-15.4304,3.6275,86.3207,-51.6435,2.5243,29.3274,-40.0749,51.1421,-20.3404,26.4588,79.5228,-91.8547
-54.1801,4.3776,-95.4337,85.9554,79.5640,74.1161,74.8418,2.1927,16.8319,72.1415,-54.6360,3.2701,41.3957,-10.4293,24.9190,-21.4815,76.3182,143.3960,-59.6488
6.6121,63.3443,23.2682,136.6870,150.2608,146.2099,125.3695,99.4873,20.0864,65.9210,-18.2852,33.1145,52.4313,40.0062,-2.0711,-11.3961,159.9676,226.9717,-0.1783
89.2958,125.3513,138.9741,177.1746,140.1167,165.5829,107.1410,183.1093,52.8984,104.6793,47.4625,62.5242,64.9102,78.2218,12.7824,43.2516,215.0239,180.1663,48.5837
126.0056,120.6567,147.2416,146.9694,40.3186,133.5562,38.6163,179.4313,149.0978,178.3322,75.2266,62.0995,57.1675,97.0043,50.7849,108.5497,186.2134,18.7443,62.8335
86.4490,50.3135,53.6919,76.6371,-37.2521,117.8280,-14.7203,128.6977,147.7858,221.9659,44.5896,34.7295,22.8929,96.3661,40.3088,112.0969,124.1775,-119.0751,35.3096
30.7576,-19.8745,-29.2137,22.9872,-52.3649,107.9806,-41.1790,88.0383,-6.0617,189.9010,12.7216,4.8273,-6.2679,61.5183,-5.4750,78.0112,95.7773,-169.6901,-33.1721
9.2389,-35.0946,-40.7105,-3.7777,-91.5307,57.7258,-74.8373,65.2196,-78.4434,129.3000,11.1236,-1.3569,-16.1925,6.1866,-8.7907,67.4824,71.8407,-156.3499,-122.6205
-1.3926,-18.4833,-20.8837,-23.4719,-168.3462,1.9277,-107.4271,38.7254,12.3323,73.1120,7.4799,11.2629,-33.7400,-33.6924,11.5801,56.3931,18.5050,-118.8530,-194.8478
-13.5420,-13.2059,-8.6638,-35.0429,-199.1210,-5.0971,-118.4122,-4.6561,32.4584,9.6943,-6.1602,19.5747,-69.9879,-38.7505,-21.5768,19.4885,-15.2879,-96.1775,-204.0219
-14.1907,-18.3987,-14.0781,-31.1510,-169.9322,8.7989,-128.2930,-32.9262,-92.3391,0.9572,-5.6030,14.8331,-93.3560,-26.1226,-79.3980,2.8497,-12.4315,-83.2813,-142.4606
-34.9428,-47.7253,-52.1647,-46.2053,-124.7645,-10.5420,-124.7467,-13.8572,-168.2881,68.8684,-13.3330,-15.6164,-78.6722,-51.2285,-84.7503,14.8937,-32.2054,-39.0581,-82.7574
-82.8472,-104.3321,-91.7050,-93.1025,-69.0813,-51.9406,-67.2415,11.9356,-140.2072,74.5115,-51.1163,-61.8794,-52.4867,-113.3767,-71.6836,0.1808,-61.9522,18.4854,-82.7074
-76.5780,-99.8579,-56.3491,-96.2472,-14.6517,-66.1320,-11.5100,6.9946,-110.1330,-14.1431,-63.3502,-60.2479,-58.0954,-110.3841,-111.1726,-38.0041,-19.2371,38.8368,-74.6154
6.8255,-7.0504,49.3451,-21.6397,16.5444,-40.1851,-30.2539,13.0381,-78.6176,-30.3157,-15.2026,-8.8130,-78.0819,-29.7424,-158.3617,-39.6166,67.7380,37.8057,9.5957
66.9019,42.8677,134.7896,38.0117,56.2411,-4.9337,-51.9091,39.7093,-48.7346,35.1551,35.3444,0.7202,-56.9579,-8.6475,-135.9776,-15.1702,88.6955,38.8486,83.5583
56.0592,8.6193,156.8456,33.0153,104.8446,8.0317,-6.8421,28.2935,-107.5861,24.6109,50.0287,-31.0367,-11.2359,-65.4138,-79.6556,-26.1576,40.9387,11.3624,56.1314
35.7465,1.2598,134.7179,20.4449,80.0001,-3.4589,17.4521,-0.8903,-190.9565,-22.4239,52.7764,-17.8314,-9.2640,-68.5374,-63.8910,-46.2638,5.1364,-42.7845,8.7736
27.6004,12.2373,80.2603,3.1247,-21.5023,-17.2187,-35.4566,27.0439,-144.1124,28.9499,39.7510,5.3887,-45.9954,-25.6396,-82.1774,-0.9479,-8.8583,-81.5162,32.5917
-3.8562,-44.7342,13.9911,-52.7019,-101.0770,-22.5163,-89.4107,62.3589,-44.8020,92.5034,-1.9846,-33.2877,-72.0214,-49.9053,-98.2945,61.6627,-41.1951,-110.2790,49.1234
-40.7057,-95.7379,-22.5999,-90.7593,-147.4630,-42.3255,-120.9705,3.5872,-70.4611,38.3867,-29.2657,-65.1308,-95.0987,-111.0679,-108.2940,32.3629,-74.3210,-138.0229,-20.6631
-36.3471,-69.1003,-19.9981,-79.8073,-203.2704,-88.0798,-163.4981,-98.0606,-165.2301,-62.6193,-14.8709,-42.8920,-120.5350,-124.9537,-98.6760,-48.7960,-62.8624,-124.0265,-83.0729
-13.0521,-60.6995,-11.0393,-89.9607,-208.9390,-115.7461,-164.7831,-114.9090,-163.3855,-98.1182,-3.0424,-47.7378,-104.8168,-115.3887,-55.8231,-67.4887,-31.2005,-70.2394,-41.7087
-33.1617,-104.4627,-36.7769,-119.2581,-133.9510,-92.1631,-98.9121,-52.6974,-55.9320,-63.0950,-31.2153,-87.9340,-62.1530,-115.4694,-22.7822,-42.6604,-47.4499,-40.5867,25.6821
-98.4908,-110.1642,-113.0734,-92.6967,-86.9419,-67.1512,-56.9152,-21.2366,42.6609,-4.8653,-78.3793,-82.6231,-55.6588,-114.2912,-39.3984,-35.5914,-107.4954,-56.0332,12.3326
-147.0960,-89.0561,-197.0226,-51.8512,-105.2712,-94.3663,-65.2667,-57.1106,33.9234,8.3041,-106.0436,-52.5167,-67.0738,-120.6894,-66.4770,-19.6887,-139.0423,-88.4583,-46.6938
-143.4255,-112.5371,-217.6966,-78.8768,-94.2219,-131.5992,-51.7843,-93.6564,-54.8203,-48.8688,-102.5558,-63.8018,-50.1359,-129.1113,-59.4951,-7.3158,-116.3119,-111.1005,-63.7750
-103.1915,-136.1184,-153.7225,-116.2103,-42.8468,-105.5679,-15.5582,-78.1647,-58.3942,-85.2765,-85.7463,-87.7711,-36.6999,-106.9993,-43.1707,-52.4357,-60.0448,-90.3532,-25.0404
-40.4736,-100.7659,-43.7535,-80.5372,-14.6985,-26.0785,4.0225,-37.0754,62.9144,-33.5715,-66.4523,-79.4561,-46.7150,-63.2332,-49.8130,-84.1175,23.6556,-28.9147,35.4115
13.5305,-49.4337,34.8696,-16.4524,2.2186,28.6078,24.6066,-16.8209,86.8481,24.0746,-38.0119,-51.8347,-40.3481,-33.2310,-66.9991,-30.5332,81.0344,0.3527,77.0502
-5.9370,-34.7996,5.4453,0.7937,8.5089,11.0855,35.1552,-12.6637,-67.1369,21.1412,-21.2104,-29.9167,-25.2016,-36.9788,-72.5472,11.8161,29.1119,-28.4384,69.5935
-74.3324,-48.5176,-87.8969,-19.0737,-41.7055,-42.3885,-1.2244,6.9627,-119.9173,25.4570,-41.3964,-31.3546,-35.0106,-72.6054,-54.8662,-13.1207,-61.7160,-48.5140,40.5706
-74.1347,-53.5993,-99.0735,-26.8903,-94.2578,-65.6154,-37.1170,27.0199,58.7322,73.3829,-58.7651,-47.7330,-39.8770,-93.1847,-19.7351,-13.7526,-47.1374,-47.0462,35.7715
-19.2318,-34.3084,-33.7246,-12.1264,-90.7528,-56.8644,-42.5837,-2.6947,172.1539,87.5131,-38.9436,-40.2923,-34.6376,-71.9257,-12.6918,12.0905,5.2345,-81.5251,23.3510
-42.9035,-22.6777,-54.2000,-7.6115,-124.2651,-61.1756,-95.8883,-60.2103,33.9176,43.2726,-32.6172,-15.5375,-76.0791,-70.3487,-62.9993,-14.8324,-56.6764,-116.4149,-25.9665
-115.8939,-35.7645,-149.2286,-32.1753,-216.3362,-69.4890,-186.9593,-44.4146,-113.7706,22.1856,-60.9477,-13.8646,-132.4465,-95.0536,-105.6114,-39.6791,-146.8339,-49.5735,-35.0404
-100.1683,-28.5173,-143.6979,-55.5094,-203.1794,-39.4727,-167.8382,55.6498,-69.3535,47.9874,-60.9244,-13.9951,-107.5444,-50.1054,-73.1140,0.3229,-117.2790,94.2112,33.3936
-42.2073,4.2104,-54.9658,-48.7448,-65.3971,6.0855,-36.4391,117.0482,17.5348,52.7383,-32.2360,9.6742,-37.3964,32.5343,-26.6175,21.5945,-57.6730,179.2067,79.7786
-70.1451,1.0094,-51.6437,-26.5190,5.3160,12.9908,27.9585,93.2287,-8.8317,29.5774,-43.1987,12.0458,-27.5887,10.6874,-49.0841,-8.7605,-92.0590,153.6175,56.3358
-130.4782,-26.3710,-121.0129,-8.2476,-30.9041,-19.2322,-17.1512,69.0772,-63.0616,43.3370,-73.1259,-13.5275,-51.3415,-75.5312,-85.1401,-5.7091,-149.1924,93.1373,29.3713
-118.2178,-10.4265,-125.3974,2.4887,-35.2277,-59.6573,-39.5219,58.0155,-46.2967,91.2872,-55.9835,-4.8037,-33.6271,-80.9196,-60.5671,29.5825,-155.1221,69.6879,7.9182
-76.7276,20.3275,-63.8266,-5.7300,8.0676,-83.3847,-9.9780,16.7729,-6.1267,113.6414,-24.7414,26.8843,-18.1096,-36.9764,-47.6059,28.0891,-157.2330,79.4390,-22.2780
-69.9274,2.9393,-24.4433,-33.7383,11.6164,-72.5360,-4.6225,17.3334,1.4811,104.4129,-35.5208,13.4955,-54.8391,-39.1120,-111.1170,12.8910,-154.7328,96.3794,19.7440
-56.2506,-22.1386,-16.9685,-46.4761,-23.9613,-45.8574,-0.7454,89.9102,-17.8172,86.0338,-49.0529,-19.2548,-74.0780,-46.5325,-140.0426,25.4941,-77.7574,105.0482,129.6118
-0.6125,5.3259,-2.5793,-15.3425,-68.2840,-40.3553,36.4708,80.5008,-64.1484,51.0837,-14.5481,-0.1182,-32.7015,-11.0517,-52.2894,33.3813,40.4033,70.5521,141.1991
41.7999,46.7948,11.0613,29.5641,-136.1502,-41.0383,8.2084,-41.9937,-120.8052,1.5341,28.9704,43.2313,-18.5156,14.6325,19.7331,13.8944,80.1192,-23.2527,30.1663
20.4859,36.9328,-7.3176,27.3504,-201.5450,-20.1975,-121.7011,-71.2901,-134.9969,-40.2990,23.6662,37.0000,-78.1544,-4.6720,-29.9957,-14.5980,30.8331,-97.3815,-37.0516
-10.4864,0.2490,-17.9458,-19.8579,-187.5915,-2.3962,-195.2327,44.2140,-112.8819,-57.2992,1.1007,0.5162,-113.4259,-25.2938,-84.9615,-43.0390,17.7222,-54.4841,-39.3429
30.6888,18.6513,67.8072,-29.5975,-62.1032,5.8283,-116.1592,125.9718,-111.5431,-25.0717,33.3845,12.7681,-57.1384,-1.4701,-52.6077,-56.3244,90.3971,79.3131,-94.5701
100.3578,92.7550,214.1436,30.2684,122.1926,39.4278,16.2087,126.1418,-127.2795,38.3648,96.5761,71.1123,18.9328,47.6803,-31.3225,-33.1318,128.9221,196.0217,-160.2035
95.6565,127.1691,267.2972,80.7951,263.6919,73.3815,119.1169,123.8906,-129.4214,27.8654,102.5157,95.1881,51.0992,61.0741,-71.7359,-1.2664,69.5552,233.6294,-123.5574
56.5306,97.6372,224.2370,78.9776,300.1748,56.4947,194.5090,90.0633,-129.6334,-92.7315,66.3557,68.5657,65.6168,32.0615,-77.4633,-13.0821,40.0505,190.0079,-50.4084
92.7365,92.4300,245.1060,83.6824,259.6979,30.5954,202.5669,14.0627,-117.7366,-174.5614,78.4754,55.6606,71.9678,20.8616,-32.4541,-55.3691,113.0220,108.7397,-41.8414
167.5178,134.3208,336.9200,109.2986,187.7632,46.6359,126.2051,3.9857,-65.2270,-93.1636,128.6586,75.9307,47.1438,42.7126,-19.8988,-51.9024,166.3608,69.7857,-50.9266
184.6693,148.3764,349.1607,97.4648,110.0771,56.3663,66.0056,59.2219,3.3022,58.7044,141.2322,87.7917,27.5915,60.4618,-18.8521,21.6519,133.5957,94.2254,-27.2489
166.1155,121.9072,276.9595,59.3429,90.8016,36.4825,94.0090,70.4289,84.9142,134.2828,118.3955,79.2322,61.0041,79.2369,39.2162,81.7992,109.5374,118.5748,-11.2797
158.5925,109.5678,238.1567,64.9911,159.7916,64.4598,154.9237,66.1016,209.7982,132.1146,96.9309,70.1665,107.3428,115.5149,101.3715,60.3155,136.8689,121.7562,-7.5040
143.2945,125.4872,238.1432,117.5005,210.1667,156.4820,185.3639,131.5435,287.0875,113.1489,78.5705,72.6176,111.3616,142.4202,99.5752,20.6172,158.8949,134.0081,27.1928
121.9139,151.5548,213.3956,160.2913,156.4476,208.0381,182.7972,194.7737,198.9611,77.1852,75.1712,95.4056,94.4979,153.3506,78.2214,46.7015,148.6324,124.7918,69.8653
113.1401,163.3118,162.8401,149.1013,74.2224,173.4930,153.4070,163.0502,48.7977,34.6153,90.4555,124.4404,87.0768,171.7618,81.3627,101.4307,103.9085,72.0369,65.0863
97.8970,134.3508,111.7169,85.5584,36.9064,140.1417,96.9690,102.1827,6.7622,45.9696,86.0504,123.3256,68.9787,191.7066,78.1287,110.6519,40.5192,63.6186,25.7698
77.3179,91.7030,83.1510,32.1478,20.8383,170.2617,27.6189,95.1912,21.6956,76.9821,60.6582,97.3261,33.0894,194.1572,49.4716,82.2413,20.3093,139.9952,-7.0581
63.5514,78.5766,82.7003,40.0221,30.6649,199.7965,-24.0559,92.8926,-23.2615,8.0103,50.3271,77.2006,13.3635,163.1685,15.0385,56.2200,29.9470,177.3185,-36.9400
17.8392,62.0507,46.1693,62.2804,80.8710,145.6536,-31.3165,26.8010,-63.5168,-108.9160,35.2715,53.7194,22.6066,87.1197,-6.8474,42.3749,-37.0920,84.3056,-69.0323
-63.7805,11.2766,-66.1429,35.0474,105.1596,30.6315,-6.9259,-60.5402,-0.4277,-86.5935,-11.5209,19.8904,34.4804,13.5860,-1.4713,38.3719,-170.3736,-44.9111,-69.3709
-118.9918,-39.0748,-167.4332,-30.0873,79.2059,-54.9636,18.4545,-89.3356,89.0565,42.6764,-55.7746,-3.7339,30.4380,-2.1116,17.2493,32.9696,-254.8009,-81.4489,-26.5210
-146.0701,-92.6355,-194.0248,-108.0604,73.6280,-72.2354,46.5034,-59.5891,64.7823,87.1632,-82.2935,-32.7394,12.7768,-7.5018,-2.3697,10.3081,-283.6980,-31.7545,21.7790
-180.3721,-165.0466,-207.4432,-178.7491,80.7306,-54.0220,65.7299,-16.5520,-49.7154,62.0129,-110.9190,-80.8990,-14.5477,-43.3602,-56.7286,-18.5478,-298.0112,7.2251,61.8796
-189.2684,-183.7227,-247.7224,-185.4106,15.3233,-29.2312,32.6445,28.5982,-87.7147,74.8667,-124.4031,-96.6776,-39.2813,-39.3741,-62.9830,-27.4868,-260.8725,-13.0134,114.4239
-165.5613,-129.0319,-286.9426,-125.7757,-96.6974,6.3171,-18.6578,73.3275,4.4712,64.0871,-118.9737,-64.5367,-41.0070,18.9047,-0.2627,-7.5467,-186.0200,-45.3585,161.6650
-166.1618,-106.3854,-312.2041,-90.0719,-141.4845,46.1732,0.9124,94.3029,89.2075,11.2388,-133.7260,-47.7654,-23.7756,41.1686,40.6284,30.9001,-151.8981,-33.2902,163.2558
-165.9839,-126.7321,-285.0166,-101.1766,-82.6431,62.4426,62.6674,84.6270,85.6818,27.8551,-144.5520,-53.2352,-12.1256,28.0456,8.4543,55.9744,-137.6137,1.3992,118.4535
-98.6884,-87.4058,-163.5920,-84.6079,18.9225,55.8202,65.1267,51.2222,74.0367,65.3152,-91.9570,-24.4011,-7.6675,56.7253,-31.0489,38.4204,-92.9380,4.9250,46.3334
-15.7976,-3.8536,-32.7068,-28.8170,82.1835,66.5811,17.6862,2.4562,91.6492,20.5547,-15.5541,26.9697,1.1074,110.5654,-21.3662,1.9272,-63.5197,-19.8695,-21.8127
6.0528,27.0793,5.5156,8.0456,77.8783,100.9825,-9.0452,-17.5691,87.7565,2.8806,10.6426,43.8841,2.3479,123.9357,-3.5738,-9.8808,-70.7307,-36.5053,-35.8275
-11.1515,7.7590,-4.7856,8.9450,56.0858,94.5726,-11.6212,13.6523,66.1646,52.0391,-0.5730,22.6383,-7.9769,78.7141,-18.5972,-5.1993,-72.4314,-43.4104,-14.0882
-31.3808,-15.6608,-9.0458,-11.2292,59.0212,10.5245,-3.4120,21.6279,59.6810,16.6216,-10.2643,-6.1653,-0.5426,-2.4234,-22.9195,-7.0060,-79.6641,-60.3318,-33.2512
-37.6028,-25.5669,-26.0792,-34.3374,51.8058,-77.0804,21.8700,-33.6591,76.2231,-36.9745,-10.5322,-14.2998,29.9004,-42.8149,23.4786,5.8906,-101.4538,-78.0893,-64.1657
1.3946,0.8787,-16.0368,-28.4714,7.0840,-88.1133,28.7374,-66.1173,131.9317,75.4271,11.1037,10.7781,43.1009,1.5164,72.6439,44.6507,-88.1615,-76.3640,-35.2049
49.8470,36.1332,47.5948,-2.2743,-47.5234,-65.4069,-24.9190,-52.4902,172.6151,189.8057,42.9297,30.2628,17.8086,19.3353,65.7960,61.1166,-56.8759,-80.3618,-28.2303
26.1526,9.2903,53.9953,-4.9945,-93.5204,-90.2649,-102.8904,-92.8601,110.9940,91.7217,32.6127,1.1199,-25.6754,-71.8778,14.9918,19.9458,-65.6567,-132.4501,-113.8108
-41.7195,-48.8461,-39.6483,-27.7252,-120.2716,-139.3698,-133.4038,-180.8324,43.4653,-48.3379,-22.1010,-38.5421,-62.4413,-146.6096,-37.6841,-34.2318,-84.6085,-203.4911,-161.0621
-74.5756,-57.0599,-112.0266,-32.4605,-117.2749,-143.4376,-114.0323,-195.3817,91.8045,-51.5983,-60.0639,-35.6286,-78.0119,-112.2790,-62.4681,-44.9751,-99.3397,-226.6511,-104.7356
-88.2868,-46.9694,-124.2333,-49.4737,-129.6974,-115.2445,-118.2255,-141.9667,110.8276,-37.2647,-56.7184,-17.6141,-78.3620,-69.2689,-45.9168,-35.9726,-163.2756,-212.6478,-84.7502
-113.5576,-77.9491,-152.1182,-105.7013,-190.1212,-111.4990,-181.7948,-128.0684,-20.9138,-95.9526,-46.3440,-29.2774,-91.3526,-81.8524,-22.9810,-55.9448,-233.9482,-207.8176,-126.1355
-131.3172,-117.3807,-197.0577,-151.0704,-223.8285,-133.8841,-226.3120,-162.6011,-121.8612,-156.9921,-62.6508,-59.0456,-116.2022,-99.8315,-43.2993,-80.9522,-235.0293,-178.3923,-98.3242
-156.9010,-127.7216,-227.7631,-151.3865,-169.6242,-146.5915,-168.1800,-179.5045,-73.1574,-182.0910,-104.8409,-74.4149,-111.3175,-108.6040,-72.3066,-79.7891,-229.5834,-74.5065,-27.9662
-188.8791,-105.8744,-234.1960,-120.8634,-72.1195,-135.8920,-49.2881,-151.4026,-10.8526,-171.1411,-129.4963,-56.8520,-67.5545,-107.4674,-49.3871,-96.3819,-242.5401,58.2209,-32.0842
-140.7401,-36.7286,-139.7793,-52.0636,28.8773,-108.6761,39.6577,-93.9104,-14.2567,-131.5916,-87.5319,-11.4075,-23.4300,-73.1395,-19.0401,-139.9671,-146.0160,134.3320,-68.1592
-3.9775,47.9572,62.4070,40.4655,113.9747,-72.0684,77.5216,-52.6450,-54.5071,-108.1095,1.3291,25.9223,1.0418,-39.8490,-42.4483,-125.7386,50.4639,121.4508,-61.2018
91.2283,73.1770,185.2711,80.7687,120.0445,-29.9226,74.3538,-59.7080,-124.6447,-93.1934,60.7618,33.8030,9.3774,-28.2396,-70.9499,-41.5513,149.3270,50.8835,-43.0783
79.7205,48.8231,129.7765,56.5193,44.4650,8.8972,32.8549,-74.5888,-141.7866,-59.1055,53.2943,33.1820,-5.4293,4.3679,-59.8474,3.1455,106.6583,-13.8286,-34.3205
18.4167,30.8728,28.1167,43.8245,-17.2805,12.5783,-10.6713,-60.9358,-42.8877,-75.7192,6.0262,24.8862,-33.4360,10.5919,-48.8397,-35.9233,50.3893,-49.3194,-22.5092
-47.0774,1.9774,-36.1977,49.6012,-27.0190,-42.0018,-3.4106,-48.9543,36.9089,-144.2656,-41.6826,-16.8251,-32.9089,-79.4154,-34.9798,-83.2018,14.4398,-73.4124,-3.5477
-86.8259,-44.9517,-90.7978,17.7215,-8.5751,-94.4063,64.9023,-24.8943,34.7293,-111.8810,-66.2852,-62.9365,11.5199,-140.3214,24.9599,-75.0517,-23.5687,-35.9701,70.8949
-59.6575,-49.2238,-86.2954,-23.9967,51.7249,-53.7411,147.6158,67.1027,87.7124,42.7126,-58.6746,-60.7464,62.9040,-53.1325,81.7404,-14.4819,-16.9933,107.1473,195.4040
2.5586,-22.6525,3.3429,-28.4922,129.4454,37.1389,170.4934,158.8316,168.7431,156.1840,-27.1887,-38.6262,86.2232,37.6526,79.2461,47.5225,22.4517,216.4951,219.4933
19.0260,-44.9045,58.3385,-47.1454,147.8572,39.3681,117.0723,127.1982,102.3329,155.8577,3.9551,-51.9845,86.6376,-6.2953,70.1778,48.6501,2.3356,168.0151,87.0028
-7.5243,-86.9715,24.1180,-96.8753,132.0083,-43.8278,67.3063,18.3615,-41.6174,91.3742,12.2087,-71.5123,83.5610,-70.9273,79.8433,8.8234,-57.3407,110.6116,-34.2256
-6.5772,-60.8920,4.3602,-81.9119,169.3035,-60.0032,79.4735,-28.0563,-61.0750,24.9666,3.7214,-49.3710,85.9459,-37.5023,56.1855,13.2351,-38.8294,178.2654,-24.2758
43.1782,-0.1994,56.4061,9.1203,238.3039,28.9055,120.0197,-2.3336,36.5312,26.3132,9.3964,-20.2447,101.4779,30.1530,30.7981,57.0632,61.3480,223.9050,48.5870
89.8284,10.2908,115.4451,53.7322,253.5157,88.9258,153.7247,12.9781,107.0798,62.5608,33.0297,-27.4738,126.3274,44.7917,72.2331,60.7010,120.6632,144.3534,96.9703
76.7373,-14.3709,110.6592,16.5827,188.7843,45.7900,162.5970,-6.1065,69.2812,5.3207,39.7979,-42.9347,125.9449,7.9147,119.5464,21.1723,74.0552,64.8906,101.7163
19.3036,-26.0470,43.0956,-19.0515,83.9990,-26.5024,117.0984,-29.1523,-26.6450,-89.2405,20.3815,-39.9373,83.9423,-36.0004,105.3579,-16.3959,-8.2965,33.3710,81.6590
-12.8977,-31.5866,-15.2467,-25.2836,13.2799,-59.4369,55.1163,-29.2052,-43.5313,-49.0305,5.0261,-37.7206,42.2699,-49.6942,81.6420,-46.2270,-32.7675,-25.1205,67.6752
-9.8985,-34.3220,-18.7164,-26.2651,-0.1679,-63.3327,37.5874,5.0228,19.2713,57.2734,1.0385,-36.1477,24.6245,-43.0983,63.6220,-50.4391,-9.4790,-73.2205,52.3735
-24.7227,-23.3318,-30.0064,-19.0657,-31.4605,-52.2312,1.6674,54.5261,11.7096,73.8851,-10.1885,-22.0279,-4.1595,-44.9051,6.6530,-4.4127,-17.5679,-55.9738,30.5854
-53.5104,-29.3895,-93.8173,-27.4976,-98.4303,-23.9942,-102.4994,80.7079,-39.0068,71.6719,-24.2894,-25.2034,-41.6191,-33.2247,-30.9348,42.7325,-72.8400,-37.8807,61.0329
-51.6379,-66.3139,-135.8502,-76.4991,-102.4824,2.3668,-157.0754,71.2014,10.0541,123.9128,-27.2722,-55.3836,-37.3139,9.6293,10.9109,41.6270,-114.2264,-36.2525,127.6689
-36.0718,-74.8632,-117.2286,-95.7103,-40.0349,14.2910,-106.7564,43.7800,63.4473,128.6704,-24.7055,-55.7749,-5.3675,38.7811,44.0573,34.3575,-106.1714,0.8740,107.3651
-34.8656,-29.7975,-104.8708,-33.0655,-21.0282,30.8603,-73.7160,17.1680,-0.2428,66.6295,-21.3602,-13.6404,3.1150,38.1291,18.0190,58.4478,-66.0993,38.2107,23.4169
-21.7286,4.8069,-111.3157,26.7604,-44.8010,44.7307,-85.3728,2.1227,-31.5661,29.3433,-16.4606,3.5908,3.3753,40.7328,16.9388,71.8343,-7.7253,34.6493,31.5855
10.6770,-4.4132,-74.6394,17.3442,-35.4337,11.3631,-42.7223,-4.0325,59.2365,1.6057,-17.9772,-24.7443,17.6001,26.8601,49.0507,38.1856,63.2027,35.7737,113.8593
30.9403,-19.0621,4.0970,-3.9584,-4.8340,-52.3451,29.1147,-9.9446,124.9669,-38.0600,-21.3114,-53.8837,18.0025,-33.8730,39.8468,-18.5331,110.9185,47.1261,148.3915
38.9604,-25.6332,66.9525,0.8267,26.5394,-59.6946,41.8249,5.8380,107.4404,10.9073,-7.0212,-72.9548,8.6498,-79.7535,16.7645,-54.2603,97.5770,32.2068,174.6346
47.0907,-37.5975,80.0366,-4.8295,69.7656,1.7358,25.6084,76.5874,72.7055,164.9329,17.4256,-85.5975,17.5718,-45.7074,23.8675,-36.7534,45.1349,14.5040,256.7834
36.6162,-39.2827,37.7001,-29.9151,66.4526,41.1252,22.3009,168.0582,28.9332,267.2442,20.1901,-65.4513,14.3037,27.6180,4.8952,27.2187,4.1935,1.6390,308.8569
1.2034,-33.8244,-33.1328,-56.3691,-9.1034,24.9637,16.5397,198.9328,14.2007,224.2383,-7.6565,-29.4588,-18.0761,67.5277,-41.3698,78.6778,-23.5494,-33.2689,280.5730
-29.6032,-54.2868,-78.1667,-81.3406,-37.9186,22.5131,42.1975,169.6328,78.6262,142.3884,-41.8073,-32.7573,-17.7589,66.9907,-26.0202,77.6499,-48.7968,-32.6115,254.4525
-28.2242,-72.2121,-68.9023,-75.7570,47.6631,61.0014,122.7922,165.6623,141.2701,166.7438,-50.6036,-54.4069,38.2776,63.9193,37.6232,64.5632,-30.8260,53.3307,262.5222
5.7652,-27.4410,-16.0732,-9.0018,141.4289,87.0798,167.5623,206.0336,142.5665,262.8560,-23.2204,-32.6813,81.3245,73.3473,52.7616,79.7257,41.5809,128.7411,237.1730
45.9126,54.4261,52.8596,78.2180,151.8639,82.8800,111.9210,221.1369,135.5035,265.3188,17.7443,15.0706,70.6974,73.8733,21.0326,81.3765,101.5658,123.1971,162.3015
69.6788,108.1479,106.4385,131.9147,123.0579,81.9629,42.9963,201.3270,127.2110,167.6091,44.5109,38.8221,47.4958,60.0921,11.7150,35.0795,129.9775,119.1847,113.1605
86.9968,128.9006,141.1837,158.6228,140.2689,84.8927,71.1240,205.5726,124.7380,144.0085,54.7097,42.1780,59.6205,53.0266,32.8718,-1.1127,175.8043,164.4323,128.8230
106.8777,131.4972,178.8294,174.8862,219.0886,74.1728,170.3651,218.1247,186.0408,210.2352,56.0264,39.1883,101.4336,45.8737,48.4409,18.0046,223.2499,186.5620,145.0026
124.0806,122.2648,216.2240,179.2547,270.4398,76.3199,214.2357,175.2487,231.5513,198.6156,57.6754,33.2391,121.3863,33.9808,40.1304,46.9790,234.1630,154.1319,111.6944
153.5301,140.9817,238.4084,191.1691,203.1670,114.7659,149.2690,106.1490,146.3390,108.4973,77.3408,57.0517,84.3695,66.4930,7.4777,57.5179,251.5680,111.8787,78.8960
186.4941,196.1161,239.5165,216.6645,72.6555,148.6439,63.3168,76.9452,40.0656,82.7265,103.9538,117.6989,22.8148,143.4972,-34.0372,73.8313,279.9938,72.3903,77.3660
165.1179,205.7093,190.2511,205.2104,-1.5172,138.4600,33.9323,74.1204,48.2733,102.4770,93.2789,142.8623,-6.9867,174.2270,-40.3826,72.5403,241.5422,32.9171,70.2946
97.6833,128.4870,92.9371,126.3695,-19.3195,114.6143,25.7623,73.5238,116.6178,80.0088,47.7939,87.6101,4.6821,139.0392,23.0128,25.2484,151.7567,31.5327,77.1943
60.8602,43.7649,35.6058,33.2011,-38.3252,100.4011,9.8656,87.1851,162.6047,62.7024,20.0091,16.2407,25.3661,99.4442,100.9585,-6.6135,90.3845,72.1361,116.7332
44.0640,14.4398,50.2116,-12.7612,-48.4291,45.4501,15.2225,82.8288,140.1015,82.0405,19.0358,-3.4890,26.0940,38.1976,93.9008,18.2355,25.2493,87.9052,87.2825
-9.7470,10.5674,40.5463,-19.5709,-45.8997,-65.0308,22.4610,32.1836,42.7308,76.7146,13.0392,6.3341,15.3668,-66.5160,37.7732,42.5522,-82.2436,58.5716,-36.2758
-61.5790,-0.2250,-37.2914,-28.2073,-73.1548,-134.9948,-8.3137,2.0042,17.7059,54.9431,-3.4536,1.5692,23.7804,-117.0838,66.4423,34.7318,-147.5146,47.5590,-100.7462
-67.7600,-14.8551,-107.7373,-47.3961,-112.6867,-103.8258,-35.7262,24.8357,134.3314,52.8336,-23.5685,-11.6168,41.8373,-68.4843,149.0632,19.8432,-123.9591,71.9399,-68.4902
-67.4893,-28.7559,-126.6964,-55.3586,-95.8166,-48.7036,-17.1191,17.3371,164.4826,32.5243,-41.4934,-10.3165,38.0050,-21.2736,143.3449,1.6790,-86.8925,75.6510,-76.3691
-73.7788,-32.6511,-124.2418,-42.2529,-31.7075,-45.4524,5.6350,-48.1715,20.5625,12.8701,-33.5396,3.0862,38.4531,-24.6378,91.6060,1.7731,-93.9475,44.4871,-146.0886
-69.7491,-24.6836,-137.0762,-27.7743,-10.4405,-65.0837,-10.9272,-100.7700,-41.2752,44.3632,-10.5826,15.4860,63.1042,-26.1448,107.7686,48.8003,-135.9499,-4.4065,-193.5236
-82.1631,-30.0061,-182.2587,-34.7363,-72.0738,-64.4621,-49.9940,-134.0076,42.7123,33.4734,-27.8308,22.0032,43.1108,-6.0633,106.0457,74.6300,-167.4796,-92.6285,-207.4123
-93.5502,-56.3899,-213.8196,-58.0622,-139.6198,-41.0074,-70.0523,-177.4194,66.0053,-63.2616,-72.6270,18.2932,-39.9350,28.2592,4.9542,22.4372,-117.4036,-199.3868,-172.1078
-41.2094,-79.0246,-158.6790,-74.1941,-128.4530,6.3442,-49.2019,-177.1861,32.9723,-66.3100,-69.5651,-1.1179,-77.5254,72.0203,-58.9832,-18.5428,2.7821,-248.3206,-75.5966
24.8919,-86.8705,-69.9582,-69.9399,-88.8090,58.7139,-31.3115,-113.8359,62.3071,58.9935,-22.6251,-24.1958,-33.3490,79.4046,1.9040,10.1993,61.9112,-256.6491,-40.9302
7.9284,-74.6805,-72.9246,-44.3699,-126.6127,65.3014,-85.0882,-83.6207,77.2772,65.4850,-0.8331,-21.9287,-6.3770,32.2502,76.3817,21.5675,-0.4556,-286.1209,-139.3468
-56.9848,-27.0579,-143.3889,-1.8503,-206.4962,17.3347,-169.1792,-125.9443,21.4833,-86.0506,-11.6143,14.7865,-31.1930,-9.7619,85.7730,-19.9708,-96.4097,-272.0258,-235.0096
-83.7121,34.1764,-157.3896,40.6629,-196.2678,-30.6819,-172.6799,-160.5048,-43.5603,-144.5170,-14.6072,59.3077,-44.2229,-16.1653,53.1826,-38.2149,-139.7332,-152.9485,-246.4633
-61.8662,64.3135,-99.3177,66.3538,-81.5085,-33.3024,-106.5804,-141.8099,-126.2697,-67.1586,2.5331,82.5723,-28.1589,-4.8897,-4.6115,-15.5310,-104.0065,-37.0696,-243.7664
-10.8058,62.1646,-37.1406,78.2879,25.1525,1.2760,-71.3973,-101.9339,-189.3435,-18.2152,24.6511,73.5952,-13.3061,23.7653,-52.4285,-1.6252,5.7500,-18.3996,-211.0624
38.2647,40.5511,-3.5583,74.0640,53.7320,26.7197,-74.2938,-67.3720,-107.2540,6.7075,25.0818,30.9440,-9.9064,40.8332,-53.4666,-5.3070,114.2965,-30.9211,-91.9446
38.6130,-4.6716,-0.3443,34.6126,32.9567,7.2967,-59.1195,-48.2052,49.1332,48.1883,-5.9356,-23.8778,-12.5237,1.3687,-36.7675,-5.4298,127.7521,-8.5669,4.4379
10.2294,-40.3251,-9.2774,-20.9119,11.0558,-32.1741,-29.8137,-47.1846,101.6523,6.2097,-26.2695,-45.6705,0.0676,-45.0839,-10.6025,13.8833,64.4012,22.4649,-23.2367
19.8440,-26.2104,6.7074,-38.7710,1.8198,-32.4816,-12.8482,-42.7528,76.8419,-78.3516,-1.2237,-23.3602,34.1801,-22.2594,42.4243,55.3961,18.5645,21.6356,-65.6205
60.9761,-4.6221,43.6327,-27.8255,0.3568,17.1705,-4.1691,-25.0287,68.3184,-34.3223,31.5078,-1.6341,40.7818,45.2175,56.9656,82.3932,24.4480,-34.3662,-10.1723
75.9196,-31.4774,49.4555,-49.0427,-0.4446,61.6394,-7.8493,-22.8663,69.2557,69.7115,29.4686,-12.7381,4.7816,91.0046,11.9738,59.7610,37.3193,-121.4997,62.0022
50.2356,-68.9490,2.3276,-84.2128,-22.8022,48.7046,-30.5407,-50.1669,85.6832,57.5558,6.9451,-36.2708,-11.0901,80.9182,18.4966,12.8462,21.3771,-156.3016,53.0231
10.7672,-55.3408,-52.4121,-50.7569,-74.4726,1.8398,-50.4426,-70.6344,83.8206,-22.1236,-11.1042,-41.6779,-0.6413,15.8083,70.4202,-22.7904,12.1379,-111.4032,26.0344
-9.4454,-2.2476,-50.5764,39.4784,-98.8179,-3.8675,-52.3058,-45.9331,-27.6475,-74.9842,-14.8278,-23.2267,-20.1705,-40.5242,31.4506,-47.2296,49.2501,-40.9214,56.4283
4.5300,43.0492,13.0184,80.7321,-47.3637,31.8798,-38.2147,9.0736,-144.5194,-117.7799,3.7122,5.6893,-39.4943,-26.2352,-41.7206,-62.9056,82.6658,43.7079,75.3163
34.3013,58.3132,78.0302,39.5423,30.3676,24.7008,12.3481,50.1665,-77.4021,-95.4570,32.0365,24.3874,5.3687,16.7728,10.3808,-64.4401,67.5885,147.3327,30.3653
56.5634,47.3845,103.5587,-7.1899,78.0880,-19.5678,110.2688,73.2675,77.0937,27.5090,41.0685,22.1176,71.7579,32.7151,111.7301,-49.9133,68.3202,200.7314,16.4429
56.2593,28.0328,90.7055,1.4485,105.3642,-1.7700,188.8794,100.8694,124.5925,87.6247,21.3926,9.0570,91.1736,35.7314,113.6120,-26.3200,116.7680,170.0883,64.2933
21.9501,26.6744,33.7813,50.5535,92.7361,57.1401,162.9509,116.3185,108.6251,11.4290,-10.9310,6.0214,72.5500,28.9645,73.5581,-21.0026,143.2725,131.2650,52.7063
-8.3113,66.3831,-35.2683,108.4248,21.5073,60.2031,64.4677,114.3727,100.7841,-27.3529,-21.7602,31.7382,50.6372,20.2874,77.6500,-30.6929,148.8758,143.6153,-19.2296
25.6768,134.9673,-28.6689,158.0400,-4.9743,58.2096,24.8691,155.5919,41.7247,34.5525,15.4806,81.3151,54.2550,72.0450,89.3599,0.8770,194.7602,185.6409,-7.1226
93.3323,173.6481,56.8249,175.9066,75.1114,131.5065,78.8289,235.5996,-40.6969,54.7621,73.1164,112.5695,93.4275,164.7598,98.4650,54.1076,238.0276,199.5223,66.8178
126.4113,153.1826,126.7904,153.6036,115.1778,187.1107,91.4366,232.6473,-70.4367,-7.3953,105.8076,99.9825,108.6671,184.1746,119.2542,31.5371,231.2496,121.4118,47.6876
141.7155,128.6338,155.6219,129.6667,12.0434,142.8851,-23.4288,118.3650,-118.4004,-66.9332,123.7910,82.8441,47.6412,127.2192,91.3216,-30.5811,224.0238,-36.3088,-51.0066
154.2667,139.2476,164.9138,135.0531,-100.6568,90.8089,-141.2301,30.4546,-213.4475,-83.2351,140.8418,94.9627,-21.8000,91.0981,12.8591,-4.4548,202.6454,-152.3283,-95.6354
111.6118,134.2639,112.2347,135.4722,-100.7014,102.8439,-126.0299,53.6842,-207.8403,-30.7429,119.7376,100.7391,-19.3608,95.4073,-8.4743,72.8108,99.3227,-154.7756,-48.1793
30.5514,78.7914,10.0665,89.8923,-37.9404,123.0907,-34.4670,128.1279,-72.7234,89.4676,59.1367,68.2294,16.7564,103.8716,32.4003,86.2181,-16.7890,-106.8521,39.8385
0.2334,19.1881,-20.0612,21.9783,31.1418,104.7989,29.3349,169.3555,1.8591,165.9610,23.1869,28.6831,27.8920,100.3177,25.6020,66.6535,-40.8223,-76.6696,88.0191
23.4601,-3.9569,41.5540,-17.5585,97.9455,56.9586,64.5383,127.2208,-71.4208,117.2013,34.8828,15.6688,30.8368,69.6666,-23.8738,65.9846,-11.1523,-62.2991,35.7358
39.5318,2.1091,78.5727,-14.1401,122.6593,-0.3974,67.0545,11.7025,-179.0414,20.5776,56.2052,20.0281,42.2137,23.3782,-21.7362,36.2261,4.1409,-39.3473,-62.6288
32.9053,15.4432,55.3278,5.8808,98.1842,-39.5575,9.4042,-81.9309,-245.4000,-33.1230,61.9841,19.3841,37.3055,-9.9978,4.9597,-19.7733,2.7378,9.3345,-104.6895
4.7284,6.8705,33.3413,2.6302,86.7204,-60.5476,-37.2270,-88.2003,-273.8252,-50.3413,44.6499,1.5036,10.5357,-50.7225,-27.8236,-46.2040,-25.5864,63.4398,-88.6165
-38.3758,-24.4482,24.9923,-26.1997,102.8770,-86.4932,-3.5752,-50.5869,-211.2642,-49.3202,4.8441,-26.7362,-13.7229,-98.2520,-78.0385,-70.6441,-69.5761,78.7405,-44.3933
-45.1217,-23.1112,20.5232,-24.4448,96.2264,-84.3391,29.0844,-5.6432,-48.5146,-14.3093,-20.9880,-35.7271,-22.9055,-85.7778,-69.5348,-104.0060,-55.6751,71.5377,37.0770
8.4840,33.0597,51.0454,33.2127,49.6159,-16.9859,-16.0901,50.4834,45.8566,47.5893,2.7962,-5.7998,-26.9645,-16.2989,-47.2359,-66.6838,21.3059,75.5586,91.1756
54.7892,74.8004,102.9441,72.2287,-15.4770,51.2055,-87.2219,69.3750,-54.3861,81.5513,48.4717,37.8006,-45.7654,18.7191,-77.9605,22.8579,46.1027,44.1315,20.1830
28.6843,41.8645,100.9676,23.5387,-77.3635,40.9305,-145.0805,17.9760,-212.1466,55.0758,59.0938,44.0063,-86.3549,-16.6574,-128.5879,35.2122,-47.0881,-40.5714,-113.0123
-36.1597,-35.1512,40.5230,-68.3591,-106.6379,-29.3902,-191.7105,-34.0364,-242.4211,26.9304,26.2527,-2.7228,-122.2198,-83.9009,-148.6055,-31.7404,-159.1108,-91.8287,-160.6820
-63.2098,-86.3024,4.0546,-121.2280,-90.4493,-98.8504,-178.6269,-46.4738,-169.3314,43.3994,-6.5560,-49.4688,-122.0765,-131.3891,-143.4666,-68.2608,-169.5305,-89.4653,-131.4825
-47.5510,-77.8938,18.3794,-117.0484,-61.4189,-133.2320,-108.2096,-77.1225,-99.6375,21.9965,-10.9248,-39.3594,-97.9361,-125.2589,-125.4327,-68.3095,-123.0208,-102.0054,-150.3060
-43.4385,-29.7185,31.4495,-75.9071,-49.3750,-122.0432,-75.0904,-123.7040,-54.9025,-68.4824,-6.9360,4.5771,-84.2716,-94.0311,-103.9914,-82.9735,-123.3557,-84.9950,-208.8597
-48.0657,18.7251,33.1803,-19.8270,-37.4352,-70.7331,-74.6825,-82.3720,-31.0731,-71.5402,-12.2463,26.1368,-78.5544,-72.9100,-99.5902,-69.6878,-121.8607,59.4488,-153.9168
-20.8153,35.9731,53.4715,3.0881,5.9274,5.1613,-12.3996,64.5690,-21.9469,61.0748,-13.2835,18.7648,-49.3273,-26.1646,-92.2510,-0.7605,-50.7328,248.1317,32.3852
2.2763,-2.7742,70.3075,-48.0146,74.7112,63.9632,86.3342,173.5101,10.8963,127.6176,-12.5628,-10.0237,2.1390,28.6600,-40.8167,29.8524,-12.8241,314.0834,150.1914
-15.4705,-70.1310,64.6788,-117.1054,109.3628,47.1579,120.7403,134.8366,47.2626,53.9926,-22.4661,-55.9390,31.5292,-4.5550,18.1251,-24.4967,-53.5692,259.6171,101.6153
-9.4318,-66.1057,80.6530,-92.7409,55.5845,-19.4367,80.0840,41.0548,27.1452,6.9624,-17.9374,-65.9820,9.4770,-80.8871,12.5448,-68.3021,-25.2078,201.3798,44.7010
42.1806,30.4103,114.7915,19.3503,-41.0883,-27.9747,18.6213,40.1974,18.4549,27.9130,7.0614,-12.2898,-36.4494,-62.5717,-36.3095,-46.1552,91.5032,168.4005,95.6666
58.1466,88.6300,98.1783,83.2308,-75.9587,40.8104,-2.3218,111.0893,113.1358,18.6617,4.3818,28.8658,-54.3443,25.0684,-53.2498,-12.9186,135.1701,120.1374,176.7422
34.7000,44.7218,45.6852,44.4174,-40.3974,102.7353,54.2963,153.1821,202.1806,26.3920,-25.9267,12.5637,-30.3333,80.1045,-28.8597,14.3235,105.3473,74.6332,217.9090
31.9966,-1.7163,32.4559,0.1624,-9.4263,114.2856,131.9257,169.4913,158.4783,104.4492,-27.2606,-3.6410,10.0802,82.5662,6.2068,56.0722,103.1656,71.8885,202.2061
16.8016,-4.9867,44.5960,7.0931,12.1416,72.8963,149.5380,171.2827,81.7164,113.4098,-5.9372,-6.5933,50.6117,12.2627,51.8764,64.9705,65.4001,72.3747,99.4537
-35.8270,-19.6055,27.8901,9.5476,60.5262,-7.1623,129.3816,110.7894,84.6103,1.0041,-6.1155,-33.3612,84.3303,-94.4114,100.8072,16.1239,-52.6308,36.1638,-1.2579
-54.9877,-28.2223,-5.3922,-8.9153,96.8750,-35.4628,126.4190,53.4263,104.7411,-41.5041,-16.6675,-43.7649,87.2187,-81.3618,106.8048,-10.0287,-122.1078,34.0352,59.2047
-31.8052,10.2859,-18.2084,-0.8510,100.2456,43.0675,151.7845,123.5746,100.9198,80.0070,-22.5207,1.1732,56.5814,55.7415,46.8593,31.2945,-85.7843,125.1266,210.8221
-20.8138,46.0840,12.9712,30.8043,138.1004,131.1347,212.0924,240.5570,101.5660,193.9177,-33.6433,43.5292,34.2722,126.7791,-38.4794,73.5822,-18.6506,229.9012,243.9072
0.5964,50.8819,92.6715,56.1946,203.4422,157.7654,259.0546,242.4484,59.3096,153.0597,-24.8063,44.2587,39.9866,92.7313,-78.8834,57.2413,52.3063,270.9116,163.6375
48.0767,65.1164,162.6985,86.0066,200.7532,171.0028,212.1303,181.4830,-5.1771,46.4785,16.1726,30.7881,54.5174,60.0708,-29.2638,1.5483,113.6561,287.6600,120.9762
60.9713,87.8940,159.2223,119.4035,153.3511,167.6584,137.5621,190.9390,63.6684,49.2429,36.3704,18.2764,75.4109,37.5520,65.8574,-27.5827,118.5734,308.4730,133.7474
44.6842,101.8718,124.5783,134.8279,152.1733,119.4960,143.7750,239.6029,207.0926,174.7366,22.1609,26.6087,90.4352,25.7527,81.7097,15.4265,107.2896,286.1432,120.1035
69.7457,132.7800,143.6561,151.2151,149.5636,99.6149,145.0452,227.0382,162.1836,252.3731,32.5232,78.5138,55.1733,66.9382,-22.6764,82.1499,155.1296,207.2098,47.0334
126.6142,178.7405,217.1153,188.5406,77.9804,122.3188,51.5947,139.9492,-39.3504,168.7505,81.1837,129.0768,-11.3658,90.8250,-119.5287,84.5726,221.4743,125.9558,-57.1923
157.5499,212.5287,280.7948,219.5241,19.9061,86.8945,-24.9651,46.0566,-129.6571,26.1632,122.2390,138.2978,-29.2919,40.1883,-104.2441,30.5174,230.2351,100.9735,-128.2684
153.2762,241.5938,292.0009,231.7509,51.4867,18.5120,-8.0735,31.4331,-110.4802,-36.0178,139.5450,142.7876,7.2056,12.6498,-38.1729,-13.0065,193.4390,143.6095,-121.8064
133.7176,253.0873,267.9250,239.5814,122.6317,34.2616,31.6071,85.1236,-142.9422,-35.3887,146.1198,150.2021,45.8425,42.3999,1.5981,-27.3755,152.4877,185.5691,-80.1615
111.6304,209.4159,244.0729,221.6237,173.6669,87.3132,71.4913,81.9092,-173.6161,-36.7109,137.3661,125.6139,75.5080,43.3851,23.6771,-10.8295,102.4024,151.6874,-77.3114
82.3650,140.8783,201.6565,162.3655,177.5777,73.1317,113.0419,-3.9807,-114.4235,-12.7936,103.2083,95.4124,83.8921,20.3652,22.8328,32.7233,31.6190,81.2050,-114.5999
44.9355,109.0995,123.5050,117.9182,117.9692,41.4901,85.1993,-42.0699,-41.7763,58.3957,60.5708,91.6956,46.0993,27.2579,-11.6521,51.4534,-13.1058,54.2166,-127.0026
36.0786,113.3764,78.3987,127.6861,39.3428,61.5341,-7.8697,3.4475,-8.0757,99.0423,46.3279,84.5064,2.9918,40.1625,-22.6910,23.7118,15.8818,55.4816,-81.8073
60.2695,114.5453,97.3639,126.8986,-6.4631,83.3783,-72.4416,29.7339,-13.8711,43.2269,64.6939,67.3215,-5.2346,42.7265,8.2633,-3.0606,46.2528,43.7660,-41.2892
46.2480,84.0327,93.7367,56.0724,-47.3165,58.8149,-97.2173,19.1336,-94.0238,-46.4496,70.4381,59.8334,-19.7649,37.1267,9.3857,-13.7259,-20.3102,26.3075,-71.8458
-13.1856,34.6763,36.9956,-13.6501,-102.4222,19.2464,-121.4830,28.2313,-175.6671,-63.8832,43.2215,45.9068,-57.8732,-1.2281,-34.2895,-21.0194,-109.2262,-9.2049,-118.4439
-35.9824,29.0047,-11.6739,14.5907,-140.6237,2.6629,-141.6924,22.6214,-140.7664,-18.3316,18.3744,37.0581,-77.2879,-31.6985,-60.2411,-5.9893,-97.7479,-76.2706,-104.5395
-24.6205,74.0418,-58.5346,90.3601,-168.6026,4.9810,-154.1720,-49.7397,-83.8556,-12.8298,9.7738,67.6455,-79.2285,4.3017,-56.3603,14.8236,-44.3319,-129.8463,-83.2137
-43.3067,69.9132,-119.0469,85.4066,-185.0256,-5.5831,-146.8292,-138.4800,-129.7015,-68.7580,-6.8402,83.4176,-85.3684,31.6410,-55.1693,-4.0393,-51.8750,-150.8489,-112.9232
-68.9047,-23.1594,-122.8669,-6.2125,-134.5152,-47.3878,-100.2395,-175.4619,-172.0825,-90.6461,-29.8618,19.9318,-77.9822,-32.6780,-65.9572,-38.9043,-82.3642,-169.2231,-134.2557
-62.2885,-104.1488,-70.1990,-79.4177,-45.3869,-93.3705,-67.6463,-155.8692,-120.1970,-35.2052,-39.1631,-59.4473,-61.0847,-114.4154,-83.2585,-49.0822,-75.4645,-163.3115,-115.6703
-49.3872,-100.1937,-58.6456,-84.5815,-17.2460,-97.8328,-94.5917,-98.1906,-65.1247,18.9378,-37.9898,-68.6215,-58.7637,-108.5587,-90.7884,-40.4557,-41.2646,-102.1750,-99.8937
-45.6167,-55.9264,-99.4775,-53.4599,-32.3414,-44.1795,-110.8317,-22.7710,-42.7761,20.7030,-40.9071,-31.1481,-55.7790,-23.8041,-78.2238,-16.2871,-0.5492,-34.8036,-60.0429
-54.6304,-32.4772,-136.7598,-16.1824,-15.0468,32.8611,-65.4608,36.0713,-12.0503,21.9655,-55.2275,-11.3951,-40.9458,46.3425,-63.0066,1.8509,10.9902,-7.9149,32.6630
-88.6375,-43.4938,-159.3839,4.3246,-7.1205,55.7393,-22.9508,43.5301,-18.8736,41.3637,-69.6222,-24.9493,-29.1732,17.3401,-37.8549,-23.2118,-36.1716,-14.5849,75.3035
-112.0513,-76.4406,-163.0988,-26.2477,-74.5312,-14.8230,-37.5627,-11.9539,-78.8168,16.9901,-64.2389,-51.4441,-25.8808,-79.3485,6.9956,-46.4062,-97.6223,-55.9771,11.3323
-98.4969,-115.1313,-156.0359,-102.3521,-161.8609,-103.7422,-81.9869,-89.3526,-99.3885,-26.6647,-57.7901,-71.9458,-45.5649,-122.2265,8.1995,-20.1547,-121.7185,-113.7720,-32.6321
-86.2254,-137.9560,-173.2109,-147.0925,-172.8405,-113.1102,-99.5405,-108.4531,-65.5308,26.9105,-73.3087,-79.0739,-78.0874,-79.0257,-42.6704,-3.5042,-104.4556,-127.8771,21.0644
-71.4228,-108.0960,-176.9858,-94.8146,-99.7908,-61.6280,-62.9795,-57.1581,-50.5059,126.8520,-67.0401,-61.1828,-56.2208,-24.0022,-32.6594,-23.5239,-37.1676,-95.4098,61.4811
-23.1810,-26.1924,-108.7172,3.9450,-13.4146,-33.9146,-10.9007,-30.4537,-54.0376,71.8121,-19.9215,-15.4658,6.4745,4.6761,27.8208,-36.3359,53.8934,-59.9327,14.8356
5.8743,23.9497,-29.6265,38.9136,39.1209,-41.6862,11.6798,-74.5580,-39.2465,-104.4641,-5.7924,14.6779,6.8560,9.7496,-5.4382,-57.5974,90.0167,-9.6245,-33.1862
-14.0862,-14.1212,-14.0632,-0.0142,71.0154,-35.6035,14.2536,-100.0679,-30.4255,-136.1524,-39.8050,-13.4365,-33.2830,-17.9727,-89.5693,-83.8878,74.5696,52.5200,-26.3809
-17.8042,-84.1558,-30.1520,-42.1106,74.2799,-15.5427,-8.0778,-55.2489,-49.4267,-4.2956,-44.4381,-74.2682,-18.3695,-63.8652,-66.7814,-57.9457,82.4041,48.9980,-11.6006
6.7301,-126.6350,-38.1888,-79.7138,18.9589,-24.2620,-56.0059,-23.0899,-53.6198,37.9293,-22.5582,-118.6405,7.2829,-87.4171,15.4765,-41.6517,110.0579,-15.8701,8.7882
10.9394,-136.6834,-38.9032,-125.4709,-36.9764,-42.5442,-46.2063,-40.0920,-4.3165,-48.5831,-32.1994,-121.2251,-12.6104,-61.4166,35.4206,-91.9945,109.9160,-29.8464,55.3217
-2.9129,-112.9478,-42.8184,-127.9226,-17.7539,-20.0978,32.1874,-33.5621,39.7882,-67.5116,-47.5340,-78.4658,-11.3677,-3.1369,23.2360,-88.1300,84.2604,6.4383,43.4061
-25.4670,-91.5522,-80.5202,-88.3745,27.1378,-1.7563,52.2956,-10.6976,-16.7573,-4.1769,-39.6737,-41.1560,23.5142,9.4610,25.3293,-17.3409,54.7805,-18.9467,-67.7656
-50.5142,-114.3995,-129.7844,-78.0690,44.1387,-42.1581,10.8835,-45.1933,-118.7789,0.7676,-37.4291,-62.4664,35.1129,-46.1270,31.8451,-31.2331,47.8692,-78.2224,-131.2695
-26.7458,-116.0082,-100.8259,-71.5226,83.0200,-56.8418,25.9099,-75.7145,-104.1849,-25.8046,-27.9952,-87.5615,53.9392,-58.8531,62.9377,-70.0363,77.8378,-43.6813,-55.0132
36.8721,-45.1730,-7.1131,-9.9823,138.1626,13.3633,63.4659,-10.6019,6.6638,29.4464,10.9458,-54.2191,94.1485,7.2493,96.3562,0.9408,100.5140,45.5029,37.5182
58.6837,14.6752,43.8423,44.0082,123.9024,57.6551,37.7244,63.0313,34.3600,112.4467,35.6782,-12.4048,77.8899,37.9661,63.0660,50.6687,91.9796,59.6547,50.8861
48.6856,32.0102,39.4816,49.9765,55.1667,30.3303,5.1188,48.7934,-26.6947,94.2995,29.6429,7.5111,20.3256,31.0305,5.8882,0.1956,106.1820,37.5107,43.8507
66.8549,67.9346,32.0691,73.7211,29.3259,34.3185,22.6282,30.2293,-21.7412,8.6268,29.5523,35.3925,24.6852,74.1313,22.2094,2.9003,160.5334,77.1677,70.1071
90.3557,90.6953,41.8529,109.2204,79.5453,60.9849,84.2605,90.3496,65.7598,18.1926,37.2641,35.9497,87.1969,99.0387,94.7329,44.1663,210.8366,129.0721,130.2000
98.7097,73.6358,90.9448,107.2980,155.7724,36.7659,176.7145,176.8556,123.3272,147.3158,44.2374,1.9582,125.0479,56.0733,136.1692,-5.2368,244.6729,147.6579,203.0444
114.9923,100.7913,157.8379,118.0011,177.3286,50.7328,212.6612,231.1181,120.1622,210.4243,57.9472,21.1279,108.4949,66.8862,104.2897,-36.4855,258.9401,202.1999,229.5322
112.5658,135.7348,163.4412,141.2640,141.5572,138.8108,165.4845,240.4804,114.5052,132.6636,51.5177,60.8697,76.4126,120.4631,45.9694,33.3456,224.5584,264.6560,203.2572
59.7551,54.4267,101.5602,80.3147,156.8759,131.0928,189.6672,198.3092,142.2446,99.2045,10.2862,8.7094,89.3263,72.2233,53.8737,53.2175,137.2559,211.1521,191.3260
-7.3360,-50.0697,18.7420,-17.7737,227.7966,12.6990,281.9097,137.1387,170.2156,163.2051,-27.5075,-57.3533,128.6625,-1.6446,104.1067,-7.9737,38.7435,100.0104,184.6918
-37.0539,-30.8560,-53.5532,-18.6426,207.7350,-9.6180,236.3902,99.6778,133.7470,103.2125,-44.1761,-26.0513,99.9105,41.5741,71.4875,-29.8653,14.5033,95.2455,153.9952
-2.9380,25.9033,-36.7048,34.1883,104.3713,74.1201,111.0591,77.4088,43.6596,-84.0841,-41.5872,8.7635,23.1160,96.9255,-12.6941,-29.3396,107.4451,170.7471,176.1329
63.3775,17.8478,75.7141,31.9804,83.3060,84.3385,114.1367,71.3637,1.7382,-107.5598,-9.4607,-26.9239,17.0185,56.3729,-6.9210,-52.1180,193.1717,207.5086,259.2733
81.8980,7.8109,129.7913,8.9250,148.1734,24.4545,168.0041,101.9151,52.6323,37.1367,20.4997,-47.2526,66.5382,18.1358,54.7096,-51.0970,156.2965,215.7253,281.4189
48.2578,36.5319,93.0425,28.2186,183.8682,25.8116,157.6402,128.8139,121.2044,60.5484,12.8538,-15.2389,77.0736,43.2217,59.8542,-43.3688,90.1820,225.9663,214.8976
8.5597,56.2520,64.9659,59.4990,165.8800,77.5545,151.8822,110.4025,131.0480,-44.2347,-6.0563,19.0437,58.7246,58.4269,37.9385,-57.0512,39.6322,185.8202,118.0277
-66.8523,30.5147,-28.1389,45.7993,101.0052,85.1558,121.1406,84.4693,85.0241,-50.7502,-33.8365,29.4161,39.8988,35.6596,28.9471,-29.9852,-92.4086,94.7123,24.6458
-156.8797,-37.4277,-215.4580,-22.0124,19.4166,41.0939,29.4121,86.9673,33.2924,47.1614,-89.4988,3.9288,2.9107,27.9787,-5.2103,22.6764,-200.1287,32.7027,27.5089
-148.5741,-91.8234,-265.2265,-91.1666,11.0839,11.4657,32.0875,107.6827,33.3398,118.6512,-117.8186,-35.4224,-22.5806,61.6911,-42.9550,15.7370,-128.6178,30.4086,157.0080
-86.5078,-94.9406,-146.6536,-118.9232,57.7746,33.8755,138.2288,141.7472,112.0829,144.0025,-96.3555,-43.4050,-6.0231,90.6127,-26.2779,-11.5819,-63.1948,56.0290,236.5859
-91.5872,-101.7015,-95.9261,-135.5041,60.1165,73.7822,174.6713,177.9159,211.6184,132.6229,-92.8327,-45.4473,17.9327,72.5744,17.4992,11.4162,-131.3403,82.5602,186.5753
-90.9128,-114.9831,-95.4411,-141.5178,44.4488,89.1010,153.7743,188.5491,216.9056,103.7138,-96.2801,-54.4160,20.6930,55.6189,20.2015,33.0092,-110.9244,85.1204,130.4222
-24.5564,-65.0099,-14.9148,-89.2451,42.9195,90.4264,137.6221,163.6018,114.5540,133.7293,-51.9046,-14.7556,-6.2639,79.5230,-28.8018,-6.1513,26.4375,45.2500,69.8344
1.1049,-14.8839,31.4220,-41.3919,2.0713,84.0648,71.9797,95.2459,34.6551,180.9554,-15.2884,32.1053,-50.8735,83.8527,-63.3854,-69.8999,50.5942,-7.4613,-42.8266
-10.8161,-43.9941,11.5830,-76.8752,-24.6300,47.8502,24.4583,-3.3776,22.2240,101.4244,-19.7336,10.5153,-57.1068,51.0134,-43.0280,-96.8364,1.8863,-24.6706,-90.9164
15.7330,-54.5632,54.4582,-97.7782,27.0350,-1.3068,58.8238,-49.7183,-12.8809,-17.0929,-8.6455,-10.1182,-32.8871,26.3377,-47.6400,-77.9164,22.1728,-6.7427,-57.1551
13.6885,-19.6326,95.8986,-42.3560,54.1905,-40.5520,45.5620,-6.3760,-11.4427,60.9787,-0.8960,-4.1647,-46.4258,-35.7725,-106.1956,-61.1958,26.9564,8.4586,-58.1835
-19.4877,-47.6736,66.8119,-35.4273,20.3729,-91.4143,-15.2771,30.9315,133.2900,242.6467,-26.9943,-52.9130,-60.5547,-135.1904,-93.5966,-80.0673,4.2768,4.7720,-55.9737
9.2330,-76.5946,74.8797,-95.2780,1.9678,-125.1609,-16.8115,17.9741,195.6408,213.2690,-18.8885,-79.2775,-41.1905,-121.9814,-27.7778,-102.5048,34.1095,1.7847,-29.9305
17.4415,-20.6045,78.8278,-100.2976,-45.9713,-87.2542,-60.8948,29.5637,-14.9181,-3.9512,11.0523,-3.4871,-80.1349,-22.5758,-82.1205,-105.9522,24.4690,5.8828,-84.4168
-56.8882,-29.1286,-8.2624,-92.7420,-133.9227,-55.9956,-160.5487,36.7428,-178.1766,-132.8734,-25.4281,4.6931,-158.2167,-44.5713,-184.1997,-119.6303,-39.9580,-23.2832,-120.3714
-65.4882,-138.0030,-44.2276,-166.5989,-135.2780,-113.8023,-129.7299,-54.0164,-74.8542,-151.1773,-73.2051,-98.0304,-153.4253,-122.3756,-163.0622,-149.0781,-15.8337,-97.8436,-15.3676
4.2537,-142.7466,4.7314,-213.3903,-90.4606,-148.4008,-59.7541,-149.2522,-24.2568,-184.9427,-49.8177,-91.9414,-129.5016,-44.2018,-130.1507,-168.9011,49.2985,-142.8460,35.9091
16.4916,-36.7350,-3.3531,-132.0751,-113.8616,-63.6255,-132.7459,-125.4889,-139.6379,-165.9679,-14.2980,16.6604,-167.2030,82.6326,-177.5302,-170.3476,55.4883,-114.9474,-48.6600
6.3397,9.4542,-15.8639,-20.8057,-116.0882,30.0003,-175.0902,-66.2663,-122.9778,-58.6764,-13.8662,32.9173,-165.5878,74.0112,-176.8253,-147.0210,78.9837,-76.1107,-52.7815
11.7557,-8.9005,18.9474,-1.5712,-76.7218,25.2527,-85.6927,-63.9193,9.5010,-63.3781,-29.7572,-6.8540,-119.6742,12.4153,-130.9784,-120.1292,93.4075,-63.6363,14.3485
-39.0975,-45.3713,-19.1757,-77.2358,-121.0258,-55.0924,-65.7441,-78.7585,46.3440,-238.4317,-65.7223,-25.5931,-124.8600,-37.1813,-119.5243,-137.2723,17.4812,-48.3281,-17.5827
-64.1837,-90.5321,-44.7456,-140.0639,-174.1704,-152.8994,-137.9798,-79.1238,76.3504,-317.5567,-80.7208,-77.8527,-131.0608,-129.6121,-95.1198,-155.2227,-11.5031,-32.3376,-46.8652
13.0586,-60.9773,76.3892,-96.0434,-140.3889,-194.3449,-183.5079,-56.2136,106.7154,-152.8683,-27.8357,-97.9209,-128.9859,-182.4284,-122.4277,-109.3859,49.1328,-36.0629,23.0463
44.5341,0.6792,143.5389,-48.2030,-139.9403,-161.8187,-216.6541,-20.6073,21.4722,38.7672,12.7036,-42.8356,-183.8301,-130.1518,-222.7402,-89.5223,25.9724,-61.3846,67.8228
-0.3864,-67.9355,57.4167,-126.3047,-152.3235,-148.2608,-163.5486,-39.5255,75.3021,63.4998,-17.5199,-70.8833,-159.3735,-100.3712,-131.9260,-146.5282,-46.3949,-111.0235,81.9103
14.3406,-173.3442,33.1787,-204.0632,-48.1819,-167.6099,27.2795,-80.7635,379.1685,20.7365,-44.8393,-168.4959,-0.1596,-125.8451,109.3220,-130.9551,-23.8108,-151.2444,147.3927
44.9203,-155.5411,87.3358,-174.5900,25.3046,-144.4801,116.7486,-47.1322,448.4434,0.2372,-38.2879,-159.8372,44.7295,-113.0331,98.9536,-26.3554,3.4567,-155.1799,182.0472
14.3406,-131.0150,76.8949,-169.5223,-40.5829,-121.2723,26.5307,-18.8080,139.3671,-91.9970,-32.4869,-113.2521,-53.8863,-100.1336,-74.4279,-15.3075,-30.6763,-171.3577,137.9745
5.6478,-148.5916,60.2664,-180.7323,-56.0284,-132.1589,6.5071,-64.0997,-43.2566,-222.2750,-22.5485,-124.9112,-58.1256,-124.2734,-68.9447,-67.7275,-18.4563,-185.7827,113.2818
29.2674,-79.4408,78.6458,-62.9639,27.0096,-92.6110,85.8648,-59.2572,58.3445,-196.5439,-18.1698,-94.6804,3.2352,-106.1592,-25.0157,-26.9287,54.5878,-119.5532,143.0267
42.1451,-2.0260,79.6102,54.2848,75.0078,-39.8783,108.0921,0.6397,161.2019,-34.0867,-22.7845,-51.4312,17.3290,-70.6330,-45.4450,29.2976,120.9204,-29.3012,180.9501
84.6006,-14.3054,121.6672,30.6102,104.7048,-64.4493,106.4429,16.0819,212.6999,86.7703,16.0064,-78.8684,74.9028,-85.6330,64.9060,23.3868,139.6772,20.0672,181.4614
106.0693,23.0616,179.3887,26.5644,118.9044,-76.3229,89.0415,59.2749,244.9140,159.5209,66.3101,-53.3280,121.5502,-83.5162,148.1944,60.3841,62.3806,98.5063,114.2906
47.9213,101.7779,130.8889,85.4035,49.5798,-35.3952,-5.2559,134.9692,171.2555,236.0326,50.9579,34.3565,41.1789,-45.3497,13.6729,127.3578,-33.2861,170.2848,34.1068
34.5143,73.1239,81.5474,61.8444,1.9784,-30.6736,-42.6570,110.8565,69.1916,242.8598,32.9508,30.5596,1.5333,-38.9801,-41.5105,127.7297,-0.2989,142.8550,6.5428
99.1264,42.6414,149.9077,28.4264,46.1459,-1.0304,48.8894,77.1013,56.9330,150.0345,66.2688,5.8245,71.4757,-17.5431,66.7818,105.6577,93.8047,134.0236,1.9357
123.1693,114.0325,214.5583,91.1443,78.5845,123.4249,119.6776,162.7355,95.4928,62.3256,76.8085,64.4210,75.1345,77.5166,63.4514,84.8699,141.1479,212.7453,34.4426
120.9565,162.3948,206.2628,144.8532,110.9523,208.2168,138.2562,228.8199,163.2507,60.7967,58.8394,103.2977,44.6914,171.5272,10.9993,45.3108,183.8003,230.1275,112.5217
119.5768,167.2276,162.3285,167.9234,173.0949,186.6740,171.6785,189.1529,220.3093,104.6730,58.6989,108.5763,89.5187,195.0672,56.5067,58.6476,185.3423,169.6739,105.7614
68.7334,193.2823,81.9921,217.6409,163.0623,154.1137,195.5055,146.8607,202.3095,143.2789,44.9841,143.5685,115.0928,174.1348,77.7732,114.0738,108.0604,136.7457,35.0547
51.6380,182.9126,48.5274,212.1103,128.9735,144.7487,208.3895,136.0634,196.1891,228.5950,33.3196,144.0760,100.0546,175.7442,72.0054,112.5784,80.1602,99.7284,74.8454
109.6776,159.0117,112.5115,155.7177,176.6650,150.9749,199.5520,148.2186,206.8968,334.8284,68.3548,125.2223,99.0659,228.2380,74.6148,85.6543,110.7379,70.7830,133.5775
106.7211,200.8521,140.1556,172.4539,205.1971,175.4842,140.4117,180.9402,93.1945,269.5321,86.0102,163.4581,65.1360,256.6577,-0.4571,69.0533,95.0846,139.8197,74.5409
55.7726,212.8638,102.9177,206.0863,180.2838,164.5092,144.3714,164.1374,-24.5157,82.0172,59.3961,167.3020,49.3398,199.1980,-28.0985,29.7431,86.3957,200.0903,48.5236
59.5055,139.4796,89.1948,161.7593,191.7270,121.2583,235.1202,115.0148,30.2603,86.2905,47.7327,102.3005,110.2627,137.5082,69.2991,33.4537,104.0613,130.3889,91.7769
43.8600,85.4013,48.7850,109.9298,187.2375,127.1634,235.1873,122.1731,84.2900,220.6549,29.7129,82.3580,112.8046,141.0659,63.0985,93.7116,67.1545,66.2849,53.9500
-7.3628,66.0883,-24.3322,83.4998,154.6924,157.4632,168.7760,134.3076,31.5256,168.2404,-13.7066,84.9014,56.3043,156.6474,-20.7872,87.8852,41.2822,126.0654,19.4297
-2.6341,45.9620,-36.4993,60.0652,182.5559,155.3075,183.8364,126.9650,51.9599,57.0743,-21.7288,49.5843,84.4432,160.0805,36.9129,44.3241,65.3053,195.4931,104.7461
1.6154,60.7626,-48.4624,73.8900,168.7120,165.0275,184.7588,179.3575,166.2052,119.6637,-14.9941,51.7568,106.4760,185.7961,93.8990,66.1918,37.3498,150.1825,170.7459
-30.6662,70.9811,-98.3144,76.8404,29.0431,170.4310,90.9945,197.1866,225.9084,148.1798,-39.2396,78.8040,26.8957,196.0565,27.5230,80.6736,-5.3996,26.2587,127.1776
-16.5044,20.7004,-76.4592,7.7918,-92.3554,94.4609,3.0969,72.6318,206.1788,27.3266,-38.4038,41.6778,-21.9691,121.2030,18.3078,42.2832,-3.4473,-65.9540,43.9342
-1.1337,-17.9679,-30.4367,-40.2568,-155.7393,7.4425,-41.7017,-34.2626,157.0978,-12.5360,-14.5602,-1.4896,-19.4229,14.8224,67.0064,20.2977,-44.3917,-81.5172,-10.5105
-26.5631,-10.7916,-50.9797,-36.4307,-196.9076,7.0174,-8.3930,-36.7043,135.3582,28.5019,-36.2871,15.3459,-53.4074,19.4348,32.1633,-5.8805,-62.6860,-60.1521,28.3540
7.6107,-6.2554,-30.2804,-49.7124,-104.0212,39.8527,124.9412,-77.5149,146.0693,-32.5951,-57.7394,39.7638,-60.6649,129.1419,-26.8783,-57.5064,57.5480,-30.2436,105.3350
47.7603,-3.8017,20.3556,-31.9758,64.9102,53.8775,168.9579,-150.4775,88.2986,-115.3140,-35.2678,36.7059,-12.0515,151.5381,-38.4467,-66.5428,124.6907,6.7886,50.2168
-29.4568,-29.7588,-47.8373,-1.4132,84.1796,44.2670,43.0120,-141.0208,-26.7015,-108.8268,-39.2095,-0.1165,2.2191,24.3722,-31.1921,-48.3902,5.0280,23.5629,-91.8033
-92.4116,-109.8488,-123.3269,-83.8896,25.0558,-32.7770,-49.3310,-106.5836,-73.9187,-88.5846,-61.8014,-66.6564,-9.4213,-82.1403,-15.3331,-52.8906,-85.1202,7.8851,-134.3014
-38.1378,-133.7501,-61.8156,-155.5335,50.3275,-112.2729,-59.9228,-87.9402,-99.1057,-70.7496,-24.5159,-91.2898,3.6039,-85.1348,-10.3625,-39.3133,-44.9482,-14.7583,-109.4570
-16.5179,-74.9467,-19.0170,-78.4246,49.1120,-73.8538,-93.6909,-34.5225,-163.4771,-33.2064,15.6434,-56.4432,10.2205,-83.2684,-11.0076,-11.8078,-29.7754,-24.5108,-138.9506
-61.8376,-65.0201,-70.9378,-33.5372,-25.7318,-21.4584,-96.5787,-22.4106,-150.9442,-46.7498,-11.9371,-43.9967,0.8148,-107.0607,15.3186,-25.4348,-47.7145,-7.7688,-185.6778
-27.2710,-60.1632,-40.2019,-49.5600,-40.6917,-43.6203,-61.7734,-82.8094,-55.1427,-88.5517,-18.6562,-39.4739,-3.8975,-83.1615,20.7332,-37.4505,11.3782,9.3457,-168.0468
73.1870,37.3112,101.7762,41.6556,-38.6810,-3.6538,-96.6050,-77.6868,-28.0616,-64.9973,50.3188,11.9377,-19.0942,-27.5056,-14.0698,-0.3313,84.6235,-32.4439,-108.2106
121.0527,69.5278,217.1286,76.4358,-102.6116,36.2347,-153.9889,-38.1460,-108.9454,-40.3548,111.5287,20.6068,-38.2613,-59.8980,-19.1395,26.7756,62.4646,-89.2487,-99.4493
129.3171,-7.0688,282.1697,-48.0226,-110.8261,-82.6423,-166.4901,-83.1578,-212.4026,-62.7061,135.2799,-41.1079,-35.2358,-167.7466,-9.0918,14.0259,-8.1645,-68.9835,-136.1603
143.6344,10.6473,293.7987,-54.3160,-53.8615,-127.7642,-186.6032,-96.0521,-206.9413,-21.1224,142.9717,-37.4811,-46.6143,-143.3740,-55.0663,16.7629,-22.6008,-31.0472,-61.3488
149.9529,59.6144,223.1571,10.1880,-67.9465,-2.4764,-178.1860,-44.2249,-49.8547,43.4127,101.8144,8.7168,-89.7899,22.9719,-112.8373,35.5272,46.2107,-61.0055,111.9981
131.3792,-15.9532,157.9294,-67.2195,-56.7705,-17.4224,-88.6109,-52.6466,26.2940,-33.6186,53.7724,-31.5294,-55.8399,30.2154,-67.5255,34.7856,102.8787,-75.4927,105.6734
61.5701,-60.4795,131.8707,-39.1826,113.4494,-96.5278,14.8713,-6.4776,-110.9133,-168.9817,65.6020,-92.5546,106.6246,-166.5504,78.1021,66.0636,43.5797,-23.4918,-75.4147
35.9716,-67.8832,127.2767,88.8609,344.4340,-27.8090,176.4436,76.9721,-95.8376,-209.7318,60.9244,-147.4901,262.7157,-258.8885,165.9698,169.7935,55.3045,-19.1032,-2.1168
242.1542,-136.8291,310.0676,29.0907,573.5454,-97.6969,414.9807,-71.8681,224.9623,-161.5621,56.7729,-246.8664,328.0482,-188.6403,102.4948,292.5588,373.9530,-74.8748,375.9472
467.8850,17.0448,577.0934,154.6320,686.5091,-234.6882,412.0141,-177.3190,311.7466,-15.1755,178.3085,-189.7041,337.6361,-148.2535,24.2436,362.0518,628.6342,-84.8888,500.2411
277.1134,304.5250,404.5220,484.3042,404.4119,-66.0844,56.3085,47.1563,-19.6502,98.7806,233.2612,51.4425,224.1900,-135.3406,33.3532,259.1424,321.7039,-35.9395,158.8666
-84.2150,196.4500,-66.0961,201.2619,-56.7817,-74.8849,-168.7777,-0.9729,-166.6780,-53.9477,31.7325,130.8421,-37.8657,-51.4132,-20.5106,-71.6492,-127.6605,136.4343,-169.6800
-50.7501,144.0430,-81.0274,-140.6741,-125.8323,-385.4683,-11.5065,-354.2338,63.7996,-142.5033,-74.9650,190.9174,-194.1627,143.1704,-166.5381,-312.9921,-39.8098,439.1371,-160.2810
101.6256,670.0123,128.6751,587.5161,-12.0048,62.6258,118.0303,12.3645,189.4607,257.2213,78.2631,529.3320,-115.1672,416.0009,-164.4995,-134.0593,246.0486,430.1843,-7.8421
-148.5655,653.3831,-209.1501,977.1836,-254.7289,911.7128,-31.4714,739.3083,76.6314,528.8975,13.6812,520.4842,-81.8532,458.4253,-30.5293,102.6101,62.5760,-77.5571,49.9340
-388.7603,-390.5021,-596.2181,-320.1573,-463.3180,457.1515,-153.4249,382.1739,8.2862,78.5314,-299.2856,-145.6989,-216.5935,107.3417,-47.7735,-98.3277,-290.5867,-298.2171,-6.7506
-106.2792,-760.8547,-225.6568,-1187.7058,-142.6472,-622.1454,27.4036,-473.0259,124.1141,-290.5888,-281.0284,-429.3609,-219.1387,-108.4057,-160.2066,-344.7522,-113.2374,154.8377,-0.0115
262.0370,11.1802,282.7330,-202.1463,218.2565,-379.8774,352.8577,-293.0183,400.0350,36.6585,-7.7945,-0.8462,4.9757,124.3859,-104.5515,-88.7136,453.0546,350.2761,250.4769
198.5150,264.9816,166.3768,506.7583,175.1637,429.1472,413.2499,339.6010,511.8236,286.3169,9.6437,127.1853,140.5767,252.7983,36.3161,236.3446,571.5734,-73.5065,463.5853
-120.7735,-166.3888,-183.4054,-67.7614,0.9543,265.0351,23.0523,288.5571,31.6032,121.1709,-77.5614,-107.7075,30.2616,36.2289,49.3696,82.3404,-130.2451,-187.7590,160.5344
-406.2929,-160.3247,-411.1490,-349.2333,-178.7355,-122.0155,-432.5331,46.7836,-603.0760,186.7430,-33.2809,6.3336,-141.9814,-78.5823,-7.5615,-174.7898,-959.8329,95.4643,-384.8426
-541.0248,-36.4652,-643.5972,-102.8599,-400.5166,65.4035,-456.0304,110.8360,-487.5364,396.3789,-120.4180,139.8415,-212.1234,-10.6122,-30.6810,-129.0380,-1005.9050,-16.1268,-454.8500
-416.6437,-179.3314,-644.6786,-135.4155,-381.7505,184.1352,-183.2280,110.6729,104.7100,269.6350,-282.2338,2.5141,-209.9545,78.7273,-93.6060,-69.5414,-426.5565,-147.9394,-115.9747
-205.6446,82.8927,-313.1543,-21.0460,-157.4501,95.1899,-89.5070,70.2707,134.3360,167.9782,-160.6171,160.4923,-201.6213,249.7760,-173.8430,-163.8048,-179.1673,293.7104,-28.7607
-222.0893,462.5547,-149.9227,324.0330,-169.7244,157.1826,-195.9201,175.4984,-364.4222,267.1359,75.9847,447.0703,-118.0677,248.2050,-15.3284,-140.5032,-551.1693,489.8305,-340.9225
-305.4276,276.3383,-209.3183,278.1903,-308.2061,182.0289,-188.4469,229.4292,-514.6548,144.1057,135.3835,292.2496,93.4040,-65.3227,367.2134,37.2960,-820.2806,47.4817,-582.9037
-135.1619,137.1251,-60.3090,226.9361,-167.0109,191.8878,-14.9968,280.4009,-123.6274,5.2866,116.2905,106.3613,215.0982,-124.8244,446.5050,148.2825,-414.1379,-103.1982,-337.6418
87.1248,264.0510,123.0391,391.4074,51.2683,289.5674,89.9090,322.2463,236.2908,162.5511,55.4302,134.0352,76.5855,119.5243,54.4958,146.2537,210.4272,97.1267,178.7785
52.0026,68.7450,-2.0189,182.7186,33.2467,149.8453,2.6182,99.9146,184.2894,198.0272,-55.7995,10.2877,-73.3960,84.4462,-193.3606,87.1968,258.1486,-6.7164,281.8011
-42.3967,97.8011,-79.8855,133.6687,-13.2626,95.8764,-57.9255,65.3587,-6.4445,168.6620,-17.4007,84.9157,-40.2705,75.8004,-70.3111,31.8515,-14.0959,68.5184,-14.8765
74.9897,709.5281,157.9501,806.1514,92.5733,544.1489,132.1445,547.0858,110.9911,490.2554,113.8285,518.4964,1.4467,443.2332,-85.0485,97.1218,249.0955,537.4954,84.7684
211.9034,637.6927,290.4318,899.5225,187.4096,552.8374,258.8518,545.5440,282.4943,497.3377,93.5595,372.6106,33.1587,326.4781,-175.8509,223.9504,617.7339,307.6965,425.0667
151.9321,-251.0385,141.0468,-85.1950,201.2823,-284.5580,-48.0000,-284.1706,-56.0277,-219.5304,77.2055,-319.5427,177.6141,-387.4397,101.0396,175.9911,160.8499,-500.4009,92.4072
178.4935,-380.4916,217.5198,-484.3929,272.8592,-566.3540,-258.9874,-538.0438,-420.3695,-500.0919,213.2788,-360.4153,228.8108,-409.1435,269.5949,5.6799,-153.0218,-383.6787,-334.5695
550.7803,262.6057,738.4030,185.9899,470.2205,102.2420,274.0477,212.7056,28.4574,84.2856,262.5314,84.2972,127.5697,248.5841,-79.9190,31.4656,889.9867,454.4478,293.8887
861.0321,314.8167,1129.1835,483.9870,651.9337,296.3196,889.1111,557.6577,604.5377,241.3891,217.1687,-26.7327,254.4402,210.8778,-140.6020,245.4961,1819.0078,492.3858,1018.5536
673.1127,-228.6115,929.7890,-61.5023,595.9807,-380.9853,645.9398,-78.7248,232.8124,-448.3133,294.0985,-468.4581,564.0328,-524.2989,437.5110,298.7005,1027.7994,-224.9427,458.9581
314.5034,-565.7831,488.6447,-611.2047,335.2136,-895.4243,77.6706,-716.4250,-343.6320,-898.0632,304.3735,-599.7719,537.4543,-849.9162,681.5363,115.6071,-48.7968,-579.7102,-339.8390
232.7317,-590.6127,297.7120,-682.2830,172.3618,-783.2051,97.0750,-648.9155,-72.6351,-668.1341,64.3695,-553.8253,209.5111,-606.3326,227.3835,-19.3735,177.2062,-380.3795,-8.6354
268.6013,-375.4296,296.3213,-352.9858,178.5713,-358.8521,319.1731,-149.4724,328.0466,-349.1502,-91.6215,-415.4720,33.9041,-278.1555,-130.2783,-1.6411,703.2975,-89.2915,571.5549
196.0180,10.5763,252.2597,47.2614,143.7376,34.9407,156.7458,183.3599,120.5387,-253.0812,17.3505,-85.5070,25.5730,8.0578,-88.7124,6.0097,503.1823,73.1230,359.2941
127.0059,232.4428,185.6181,203.3669,63.2662,190.6903,19.7042,140.9566,-40.3618,-181.7261,81.0733,164.5713,-26.8622,219.4845,-79.8757,-36.5876,229.6454,138.3304,46.8853
112.5565,286.4567,157.8180,278.4706,68.2909,268.6457,159.0184,110.9613,107.3598,44.0287,5.1122,233.7806,-103.3876,326.7415,-230.7986,-26.2830,294.6022,231.7911,186.6665
75.8466,382.5695,126.4083,405.5969,38.8271,445.8287,61.2578,275.4135,-46.1212,304.9238,27.2704,332.2230,-159.2710,412.1199,-319.1101,13.9432,245.9553,286.5410,110.7467
-26.8417,317.6114,-12.3480,254.9135,-158.5955,385.1526,-297.8988,208.5477,-367.2796,287.0651,104.7877,353.7796,-176.7583,354.9966,-181.1384,-22.0154,-115.1885,102.7864,-410.7428
-289.2276,47.1431,-354.2205,-94.4437,-334.0325,45.6911,-273.2884,-87.2963,-252.6613,55.7064,-4.4437,206.7724,-72.9107,106.7264,163.0775,-99.0517,-685.3439,-64.5782,-649.1185
-595.8603,-68.7195,-685.5807,-160.9661,-288.3960,-48.1204,121.8647,-107.6961,94.4493,24.8643,-205.9908,126.9931,70.5036,-28.8122,403.7041,-100.6656,-1176.5414,74.9279,-353.0489
-551.1793,-65.4631,-605.8910,-89.8393,-154.4781,12.6260,175.4152,-34.7970,208.5455,102.2053,-218.6077,75.4611,72.8752,-39.9627,311.9969,-51.0553,-1083.7748,94.1752,-101.1535
-202.4600,-188.6943,-248.2861,-220.4697,-127.9175,-206.1059,-196.8441,-279.5557,156.3896,-81.5939,-70.9422,-115.7319,-4.6771,-182.6782,147.2456,-59.0445,-544.8388,-256.5466,-197.1126
-37.9343,-266.3935,-101.1206,-315.2419,-156.4060,-389.1632,-333.4213,-482.8412,118.6473,-310.4553,-4.2623,-216.3233,-10.3883,-286.7874,148.5666,-101.4478,-261.3150,-442.4653,-303.3962
-77.2449,-210.9794,-131.6202,-246.3477,-144.8173,-283.7365,-46.7814,-413.5500,79.4167,-318.7068,-47.5400,-133.6631,19.7458,-191.5580,159.8892,-95.5590,-230.5471,-343.0356,-194.5699
-39.4314,-259.1232,-87.6983,-297.7837,-161.5945,-255.7600,133.5129,-449.5906,3.9399,-334.6751,-68.9468,-133.6017,-1.2928,-146.8404,91.9376,-82.7546,-109.6725,-419.5554,-116.8573
-35.0921,-381.6073,-129.0816,-457.1502,-221.0710,-292.1601,-58.2216,-585.7982,-100.3736,-384.4167,-70.2897,-199.1514,-73.4724,-153.1723,28.4934,-117.0082,-148.2136,-564.5703,-247.1408
-133.3425,-375.8684,-286.9480,-471.0792,-212.9911,-173.9959,-374.1646,-560.2075,-144.9428,-279.8151,-94.7011,-173.5619,-164.7747,-57.8513,-67.4547,-141.5622,-366.2351,-465.4925,-369.0533
-120.0325,-302.8909,-289.7005,-363.4989,-176.7197,-135.5685,-644.4714,-485.2236,-58.8430,-192.6144,-92.9321,-178.6663,-238.4975,-58.4333,-197.9982,-124.5106,-321.5453,-345.9635,-319.3331
-94.0470,-257.8921,-249.5338,-282.7884,-229.1421,-115.6931,-785.6061,-312.4733,6.3287,-182.6553,-88.3317,-205.6685,-276.2857,-119.5777,-247.4472,-103.7369,-195.5755,-268.2424,-239.3904
-215.5667,-210.9461,-358.1111,-256.7618,-262.3956,159.0493,-621.8089,73.6709,-69.3217,-16.1527,-136.0362,-100.3592,-270.8616,51.6997,-226.9999,-73.2239,-308.6743,-60.7314,-199.4056
-220.4952,-199.9145,-340.9971,-260.8770,-162.1816,259.9958,-276.6888,234.5128,-143.3018,153.2757,-143.5284,-34.2028,-195.6956,173.9602,-194.8948,-25.3176,-266.5473,6.1313,-109.8430
-86.3468,-242.9293,-165.4397,-272.9882,-95.0676,-43.5564,-108.9383,47.2660,-204.7441,117.4293,-80.2478,-126.0541,-100.0313,-46.5025,-128.2374,-15.2570,-28.1318,-121.6329,-58.8392
-181.3049,-230.2113,-225.0689,-289.6237,-184.2064,-123.7596,-112.1812,117.0116,-394.5745,181.8054,-85.9340,-100.2249,-100.9445,-152.9917,-86.3884,-47.3347,-158.3085,58.3494,-187.2416
