Fp1,Fp2,F3,F4,C3,C4,P3,P4,O1,O2,F7,F8,T7,T8,P7,P8,Fz,Cz,Pz
-52.0189,-59.8484,-81.3517,-57.7489,-192.8394,-41.2797,-59.0686,-71.6021,-38.7916,-197.3591,-37.2932,-33.0971,-58.1770,-4.9935,-42.5879,-10.3834,-63.2558,-150.4505,-98.5588
-41.0846,-12.9503,-65.1165,-12.3313,-196.0324,-30.0865,-126.9837,-92.0556,-84.4149,-133.2229,-14.0342,11.1404,-52.8422,-22.1413,-44.4081,-20.3356,-35.3267,-128.8800,-86.1659
-40.1650,2.3210,-49.6123,-11.3611,-126.1665,-40.5116,-170.0104,-99.1619,-94.8891,12.9098,-12.0057,11.9700,-50.0288,-68.0060,-43.4599,-25.5064,-52.6931,-127.1972,-88.6744
-58.4030,-49.3135,-69.7057,-67.1843,-81.0023,-79.4117,-165.9854,-92.8833,-67.7175,52.4629,-42.9110,-32.8102,-72.8530,-76.7914,-68.3354,-37.9996,-64.2264,-125.3327,-94.9150
-58.2782,-60.1058,-77.4181,-57.3845,-77.3277,-100.2647,-139.0450,-91.4272,-45.1348,-17.1471,-51.1444,-29.8209,-81.7865,-31.6050,-92.1057,-45.7321,-11.3837,-71.0754,-62.3899
-28.4146,-7.9464,-42.9350,-3.5712,-38.8079,-100.2135,-116.3820,-106.8262,-62.1066,-37.5342,-27.8191,4.0853,-52.2261,-12.2231,-68.0729,-40.5253,21.2933,17.4582,-9.8848
-3.0596,15.7986,-16.4519,-17.0600,21.5047,-92.5903,-100.6744,-101.6676,-102.1891,13.1641,-24.2058,-3.6922,-25.6212,-20.5495,-19.6877,-27.6933,-30.2810,104.1707,14.4500
1.6023,40.1409,-16.2591,-13.2869,42.9988,-35.9691,-94.9743,-30.3280,-118.2849,83.4253,-38.9707,12.1563,-26.1440,18.8660,-15.1314,3.1108,-85.7112,185.7726,25.1924
-8.9965,123.1254,-16.8321,93.9730,40.0548,58.6962,-116.4160,59.1430,-113.6449,163.6098,-33.0752,104.1800,-30.5499,74.7534,-54.4686,34.1993,-87.2912,223.4317,54.1794
-36.3054,153.3979,-32.6523,149.3196,49.2564,86.5585,-145.8684,71.3878,-133.4877,186.0223,-26.1495,145.5649,-33.6243,61.2539,-75.4558,2.9051,-75.3872,182.3653,88.0983
-55.9544,66.4333,-55.9974,59.8618,82.3540,30.6128,-120.4848,13.6928,-153.4476,115.5570,-44.6697,59.2778,-41.4009,-4.7560,-67.4066,-76.1809,-64.6910,134.5342,121.0194
-25.0399,-2.4800,-21.2343,-25.0832,137.5722,1.4887,-33.3724,-22.9087,-103.0115,58.2782,-44.6606,-31.3352,-28.5421,-62.5126,-62.4525,-95.1940,-27.8733,166.2347,165.6900
34.2453,13.3741,55.2268,-22.0301,176.9212,46.8514,38.8500,-1.8681,-2.0891,56.1567,-2.4026,-33.2035,12.7389,-82.0364,-36.9674,-39.1004,25.5057,254.3707,195.0548
49.8703,24.9785,76.4758,0.2104,176.2106,105.3134,56.1556,43.4234,80.7488,46.2303,21.0235,-4.1811,40.1250,-41.4753,38.9634,-12.4586,59.7095,331.9287,176.3749
15.9635,11.9809,43.5041,25.1103,180.1591,129.2740,56.5179,75.3135,148.7560,57.7518,-4.8333,5.0339,31.6807,20.0557,103.8549,-40.9448,62.7853,364.4369,129.2179
-7.9349,16.0637,34.5915,57.2354,208.4514,114.5869,54.3060,75.0189,207.1449,115.9201,-29.3135,4.6731,13.2042,17.3187,93.8445,-50.2799,57.4592,344.2376,79.9031
-0.7850,15.0722,55.8835,60.5501,217.3795,72.6086,22.2806,52.5011,205.7514,127.7403,-32.4352,-4.3726,-1.2060,-21.6388,50.0283,-35.9430,76.8670,309.7641,33.3616
16.1477,13.6861,78.8972,72.9118,195.1217,36.0783,-24.4764,30.8068,158.8943,94.5457,-37.9980,-9.5062,-13.7381,-1.5505,33.6942,-52.1329,117.7719,306.7785,4.5033
35.2876,52.8389,105.4739,127.7152,153.1747,19.3790,-45.4904,4.0396,137.6801,112.1502,-28.8998,13.0769,-10.9850,34.7460,37.1248,-76.0303,136.1842,288.8618,-10.7988
44.0857,77.1557,105.1325,125.7440,85.3984,-9.2641,-52.9921,-35.9392,119.4627,143.6450,1.0708,27.7400,0.6688,-11.8297,36.9349,-49.3480,104.6122,191.6332,-47.1942
26.4323,34.0160,52.9994,35.1367,35.4403,-55.3472,-74.3968,-57.1548,52.6387,136.6904,0.0649,-3.1974,-8.4363,-84.7863,36.9148,11.9241,50.2576,81.6180,-86.8067
16.7134,6.2299,20.5340,-6.4733,58.6688,-67.9902,-82.5133,-35.8594,-2.4182,163.5588,-21.9468,-23.0908,-18.6792,-71.4771,38.1343,56.0658,34.9799,62.7185,-70.2501
49.3801,46.3039,59.9805,48.3099,113.2348,-21.9871,-47.6487,7.9094,12.6579,223.7953,8.4487,21.4078,11.6709,-0.7280,30.4811,67.6455,89.4281,107.7864,-7.1579
83.6650,79.6149,105.7184,95.6306,144.7098,43.0660,-1.3858,51.2948,46.9980,236.8651,64.9764,73.0701,51.6822,33.4945,11.8576,58.0832,166.5194,137.4698,53.6122
91.2090,78.2874,121.0468,107.8552,171.3438,81.9234,27.1884,87.5899,69.2763,242.4144,71.8743,72.8481,57.3927,27.7251,3.5538,52.6964,213.3025,161.3130,114.2190
119.7933,93.1830,163.0415,131.1975,197.4747,95.4662,74.4974,125.4821,116.2789,291.7389,65.3206,53.1216,67.1633,30.8114,42.6090,74.5237,246.7931,216.7365,171.5246
176.7555,114.0173,234.6626,144.6946,209.4786,112.1073,166.6438,183.6536,176.9613,316.7197,93.9849,42.9551,112.8287,47.8309,118.6985,99.7421,273.4329,271.7679,180.9701
203.3544,108.6338,274.9401,131.6029,229.9860,132.7358,246.0711,234.8490,203.6785,290.9363,111.9529,27.8975,147.3018,63.0550,154.9472,89.5885,253.9177,279.3182,153.5089
201.1772,111.7486,281.7136,133.6751,241.4125,131.0575,250.3248,225.0746,194.8942,270.0089,112.5564,30.6501,149.9047,86.5775,123.7149,68.8502,217.6676,252.5230,149.9767
207.2693,136.4540,273.7167,144.2661,198.1394,117.6602,203.0883,191.6386,153.9772,266.7786,141.0707,74.8863,155.0940,115.5835,94.3223,77.5291,219.8515,229.3370,164.6166
194.5041,140.7800,233.2074,125.5500,146.7275,129.8297,162.6683,208.7239,75.9094,273.7047,152.6950,104.7780,152.6562,114.6498,95.3815,87.7298,200.2040,213.8253,149.4547
153.3058,129.9281,187.6206,107.2710,142.8114,148.5812,139.9166,231.5421,10.7720,284.9901,103.1804,82.2201,119.0086,86.5250,77.6871,74.9806,109.6629,191.4278,112.0428
136.5094,135.5152,182.2660,112.7236,149.1379,131.1613,119.2712,196.9435,5.9505,270.9791,68.6360,62.8246,98.2492,81.6999,58.5563,82.4068,38.7169,168.1338,88.4595
134.0429,130.7257,165.8165,95.1335,161.1647,107.9815,113.2356,169.9769,21.0130,261.6013,82.1166,73.9594,115.9439,99.1274,101.0331,123.0305,28.8299,163.3643,85.5510
93.4661,101.9194,92.6952,54.8672,219.5355,126.1174,147.0327,194.5475,9.3034,299.0349,69.1624,71.8721,121.3029,82.4549,145.2370,140.2406,2.8429,182.3815,90.8386
54.4224,101.0844,43.9305,64.0588,264.3026,152.7632,199.6304,192.6575,-10.9610,291.3142,33.5959,61.2190,97.6913,35.8461,94.4524,109.6971,-30.0156,208.7869,85.6717
65.4128,132.7598,72.0992,119.2537,230.5035,145.6984,204.4763,141.1403,-27.3140,181.2266,44.8413,81.7847,89.4190,26.5830,16.6772,53.8698,0.5809,214.5985,66.5690
75.1834,133.3137,99.1805,138.5057,195.3502,131.7578,141.5772,113.7280,-50.0830,105.3755,73.1999,106.2450,99.3076,68.0686,17.5592,-12.2573,43.4733,193.6382,66.5511
56.0068,104.7561,87.3814,114.4313,227.5680,137.8484,82.9517,120.7305,-51.6691,132.7486,68.2232,103.9545,97.1754,103.4021,35.7588,-47.7058,36.1278,185.6070,98.2039
57.5421,107.1411,93.6007,109.2410,271.5667,142.6727,85.0859,119.1064,-10.4267,150.7198,66.4613,108.1503,93.0168,97.9585,-3.3904,-9.8085,30.4480,219.1850,112.4497
72.8624,128.6766,109.9608,122.7982,280.7147,130.5935,105.2007,112.0462,24.7420,136.7105,79.2109,123.9701,98.4708,71.4005,-23.9588,43.8826,43.2029,252.6322,82.2422
48.4666,118.8446,73.2600,107.5150,276.9846,110.4309,100.8915,105.0532,15.0380,170.9771,60.2286,110.7351,89.8132,43.6191,16.7735,36.8801,14.9104,249.1047,58.3306
6.6022,94.0818,9.4425,72.3255,282.8588,90.2947,111.1894,87.8436,4.9505,214.7589,23.7117,80.5953,67.0537,11.9223,33.6961,8.6433,-30.9485,257.0396,92.3617
-3.3155,87.0659,-11.5290,62.3256,309.5811,85.4520,160.6285,90.7110,37.1616,201.3803,17.4907,72.7107,64.0949,-7.4819,21.7204,9.5206,-13.4117,314.2111,172.1583
10.2329,84.5951,12.4411,83.3841,344.0039,109.8794,199.1447,131.6801,78.5405,190.3028,27.0671,71.9901,81.6590,12.3091,57.2078,6.2025,54.0001,352.7370,244.0454
30.2199,88.0237,53.4740,114.8800,341.3398,140.8462,196.6055,163.5798,91.6250,233.1352,27.7034,61.3636,87.3187,38.6276,81.6605,-0.1646,95.0815,306.8312,261.2973
47.2399,113.1124,85.8439,141.5732,298.9461,143.8418,186.6938,160.5149,98.4577,280.2534,28.3879,62.2026,71.4668,19.0401,11.6550,29.1566,83.5088,224.2605,228.6522
21.4389,114.8137,55.5081,139.7459,252.1627,124.6286,184.2096,155.7416,122.8698,280.0714,12.3321,65.1026,42.8961,-10.2678,-43.7668,44.0444,44.8606,179.1223,193.0744
-49.9487,50.6168,-39.9601,93.9025,194.9898,109.8840,153.7593,157.8975,143.3384,231.0645,-36.8031,36.8517,4.8589,6.9775,12.4631,-5.0013,15.3115,161.2707,174.9550
-82.3139,-14.4603,-84.2122,41.9963,129.4775,98.6797,86.5911,131.4843,144.0468,162.5450,-56.9067,5.9144,-17.7859,27.6706,62.6541,-47.3441,25.6576,123.3130,158.5197
-27.9763,-2.3819,-6.6687,41.3887,108.1016,73.6189,39.6552,70.6469,140.0395,107.7374,3.5063,19.8593,10.2071,4.9739,28.7471,-30.0935,77.6406,68.9645,141.5801
35.5637,44.1578,81.5319,79.3066,125.7000,42.7844,58.6054,23.4365,125.9797,66.4537,64.8147,41.1509,59.3691,-23.8813,26.7132,-2.6563,120.7544,36.3746,125.5120
31.1334,43.7251,65.7413,82.9881,116.5462,33.1891,105.7445,25.8261,81.9632,38.3896,36.9010,8.7849,61.2191,-43.2314,94.1994,7.2390,95.3510,28.7786,95.9501
-2.5456,12.4216,6.1108,37.1546,86.8516,43.3843,121.2485,47.8783,35.7205,60.4189,-16.0372,-35.2737,27.1246,-67.4533,99.9476,14.4771,22.6021,12.6474,59.9683
-5.4027,11.9186,-5.8086,12.2841,83.0624,42.0598,109.1946,47.0258,24.6279,119.8308,-2.0571,-15.1402,20.9535,-51.4165,18.5478,8.0251,-15.8148,-21.1708,37.7159
-3.2881,34.6463,-5.3814,43.1842,82.4965,26.7002,92.1311,39.4940,17.3767,131.2234,21.3925,32.6883,30.7145,10.8893,-13.7417,-6.6005,-4.3399,-41.3237,25.6889
-28.0870,35.9191,-35.0658,77.4756,63.8908,30.9777,59.1114,51.4251,-25.7129,77.8706,-13.3081,31.9172,14.4978,31.5493,48.9562,-6.3914,14.5533,-28.0876,29.3625
-35.3778,24.5450,-37.8433,83.2243,76.8509,52.8964,26.6569,59.8745,-70.5110,39.1667,-29.9635,15.4232,9.0612,9.1349,96.0788,-19.0803,48.4027,-1.0645,59.7730
3.4908,35.6785,16.3907,90.5361,134.9816,45.9043,35.8465,49.0795,-83.1641,47.1179,20.9883,40.2127,44.3659,28.8900,57.3417,-57.3996,100.1426,10.9501,77.0510
35.0488,56.6741,56.9425,102.4300,167.1654,1.3359,59.0814,32.4601,-97.2917,44.3538,48.9952,60.1960,64.7304,63.4733,2.5629,-66.3612,102.2214,4.4740,50.6833
27.2173,59.8603,42.6011,96.5297,142.4678,-37.8809,48.7049,-2.7285,-130.5209,-15.4407,20.7190,39.6225,49.1506,45.2006,14.7381,-39.1061,58.4084,8.7438,28.2417
28.7354,66.2801,36.1028,104.1784,127.3889,-49.3095,37.7930,-58.2538,-142.5401,-99.3524,28.8931,44.4224,57.9860,26.4180,56.4344,-37.5794,79.9420,47.2738,33.3821
73.1825,99.0766,97.7295,150.9377,165.5483,-50.4470,50.7276,-81.4992,-121.7568,-129.2791,97.4563,98.1679,102.0074,44.4774,35.9175,-66.8465,175.9231,81.6497,18.7842
121.1432,124.1703,185.8679,175.3028,198.2870,-66.2827,30.6832,-61.5326,-104.6107,-80.8164,148.4337,125.0409,124.9283,34.6003,-31.1661,-82.5772,225.3946,53.4613,-11.0973
126.7100,108.9709,210.2278,134.3789,169.3772,-108.9922,-27.1783,-57.1042,-100.3989,-23.8454,149.4741,98.3152,115.1800,-7.1864,-38.2390,-82.1332,190.6508,-7.7923,-3.2252
98.9414,79.8069,162.8313,92.7581,120.7123,-149.4577,-42.9178,-77.2466,-90.0278,-24.5581,125.9493,69.4387,103.3960,-9.5667,31.5637,-83.3389,151.9991,-24.1881,20.0319
78.6311,64.2297,126.9108,99.4386,101.0663,-136.3212,-16.7172,-78.1266,-79.3743,-62.9336,97.2820,55.7748,91.4723,23.1571,70.0961,-90.0777,154.9196,-10.7480,10.0025
75.0009,47.1846,130.4271,100.7724,70.9217,-93.7223,-33.3886,-67.8192,-90.2984,-96.6438,79.0189,40.0135,66.4287,27.8409,22.6948,-105.2187,164.2885,-38.9479,-14.3036
60.7414,26.4930,111.0847,62.4688,-7.4280,-101.8498,-95.0548,-79.2733,-123.5707,-125.4280,72.1432,29.1777,35.7749,-13.5384,-26.2890,-111.2388,140.0881,-87.3642,-34.3049
38.3689,32.3853,67.3010,43.2072,-79.1677,-140.7438,-124.9495,-92.5248,-151.0148,-146.2052,58.6873,31.7819,14.5399,-67.3222,-13.8161,-83.7211,101.2231,-79.4775,-57.6544
40.2529,57.1969,66.7437,69.6059,-83.5434,-119.0258,-101.3927,-75.4159,-133.8598,-127.3632,40.6473,32.6903,3.3180,-85.2525,-14.1460,-47.0323,96.9164,-28.1448,-50.7690
54.8637,49.0163,92.4056,70.5807,-45.8850,-61.6302,-58.0696,-40.8752,-69.4347,-67.7588,29.8202,15.1626,-7.4984,-59.0488,-79.4007,-36.2398,112.5362,-7.8724,3.7578
50.8762,6.1737,80.7808,11.0226,-23.6229,-60.0107,-15.9821,-18.7526,-7.2573,-8.8594,23.8755,-15.7959,-11.2811,-35.6230,-109.2290,-31.3280,88.0943,-28.4574,43.7804
40.0573,-13.2864,49.9334,-41.5414,-28.3125,-84.5869,8.5550,-4.6669,21.8168,43.8493,24.9139,-29.8032,4.5663,-34.9053,-34.9440,-1.5999,30.2002,-35.6558,39.5203
23.2721,-3.8384,18.3783,-53.8245,-36.5790,-59.6187,10.6625,33.7818,52.6291,122.8757,19.8848,-19.2784,12.7091,-38.2155,43.6424,37.6803,-20.4662,-2.0741,44.9023
-20.6534,-21.4808,-40.4409,-78.1596,-36.6269,-20.0273,35.1946,88.9526,117.9376,193.2188,-14.7659,-30.0356,-12.9745,-60.2789,55.3594,50.3742,-62.4277,44.1952,81.0603
-41.0711,-55.1478,-66.6157,-107.2234,-32.1202,-18.2847,106.7924,106.6163,185.6181,183.6299,-34.8315,-67.3399,-24.2396,-94.4215,59.9798,25.3295,-60.6989,69.1560,111.1647
22.0264,-30.9501,21.2940,-67.2254,-14.8722,-19.2874,147.3005,90.4064,199.0456,143.2630,16.9967,-56.1945,18.4900,-73.6956,63.0249,-2.4672,27.0390,80.3925,122.4983
99.5390,35.2293,132.3285,6.0865,24.2326,4.8341,95.0877,106.1813,152.0459,174.0554,81.1305,10.7662,58.2031,-8.2527,16.4602,12.6534,109.6065,106.8301,124.2765
97.5363,51.2002,130.5936,7.0224,60.6097,23.2260,34.0232,144.0414,110.2525,231.4150,79.4782,41.3532,54.0310,15.2023,-5.0993,52.7616,85.6239,136.1037,120.0556
48.9366,15.2954,59.8915,-33.6095,62.4104,14.3465,40.9957,128.0536,134.5756,217.8127,56.8559,23.1517,49.9739,5.3148,63.4739,56.1920,36.1688,117.1760,123.6330
28.5426,5.3117,38.4492,-17.2097,35.4493,-23.5236,38.1245,60.1889,180.3450,173.3560,69.5894,29.2693,58.5511,18.4900,102.4262,17.4519,62.1982,47.8131,132.0368
48.6766,28.7101,77.5599,21.2555,-1.1856,-78.3867,-26.0122,0.0278,160.1234,163.6916,85.7011,46.8674,46.0629,20.7730,36.5430,-14.8928,108.9161,3.8636,118.2710
84.4606,32.6146,116.4358,4.1828,-35.4977,-97.1839,-54.1391,-32.2007,101.9928,157.1679,78.6956,16.8616,29.3813,-13.8015,-5.3462,-17.2578,113.5558,32.7104,100.7132
92.8139,13.6108,112.4005,-25.5054,-37.9440,-48.8708,-15.6530,-29.0381,95.9759,144.4118,62.1821,-23.3642,31.6625,-33.3020,41.4132,-0.9041,101.0934,71.2473,117.2507
50.8387,3.9702,73.8865,-10.5918,3.5244,7.3740,-17.5554,5.4681,116.1488,159.6687,37.2119,-18.1831,21.8051,-27.8704,53.6261,11.3673,76.6099,40.6126,120.9540
4.0381,4.2472,40.4908,8.1006,34.9529,13.4814,-74.3448,14.7146,80.4165,172.7634,6.2398,-1.3236,-10.4821,-29.8323,-19.5403,-0.8305,19.1480,-29.7963,47.7606
-15.5487,-1.0994,7.0364,-6.7399,7.8042,-4.5041,-95.8276,-17.9391,16.5359,159.9396,-19.8165,-7.7794,-35.1820,-22.4399,-62.3346,-19.7817,-48.3944,-62.0944,-43.8394
-39.5610,-7.2418,-56.7071,-26.0910,-44.9041,-11.8664,-77.9608,-18.8871,-2.0124,173.3251,-36.0624,-5.1669,-41.2274,4.1431,-10.2284,-6.6463,-86.7270,-55.6176,-56.3794
-59.8376,-4.2128,-103.9756,-29.7539,-66.5822,-21.8609,-51.7172,28.1129,21.1467,211.0910,-23.0513,22.9070,-26.0125,16.5067,57.4712,25.9623,-77.1432,-56.1264,-12.4505
-39.3945,-2.7461,-84.9632,-31.1489,-53.0105,-41.6262,7.2342,39.9518,51.3641,194.8688,10.5689,31.6862,3.1040,14.6149,65.3475,35.7254,-38.3326,-65.4184,5.3400
-19.5210,-18.1765,-59.8347,-38.6180,-39.7942,-47.5561,55.5376,-3.4223,63.8556,121.8787,2.4017,-4.0946,4.0286,19.9985,42.0381,27.3857,-30.2952,-63.0001,-9.5458
-38.3384,-38.0191,-78.6917,-52.7957,-51.2417,-28.7565,13.1744,-26.8587,29.5106,73.6589,-43.9508,-37.6224,-28.4408,23.6553,37.6084,24.7522,-69.4854,-48.4446,-16.7410
-54.6514,-46.7310,-100.9068,-77.6647,-67.4242,-8.1535,-49.0586,-0.4193,-22.1366,81.9090,-52.3167,-29.3511,-42.4711,22.8218,33.3826,15.0778,-98.4284,-26.9971,-12.3355
-61.9507,-66.4211,-118.0580,-114.1370,-54.3624,-6.9562,-24.1981,28.7047,-16.8882,88.3867,-34.3260,-19.3727,-33.9966,26.0504,6.7563,-11.7349,-105.8386,-16.7681,-14.3242
-88.2273,-101.1320,-149.2730,-144.1965,-29.4133,-7.9352,24.8284,28.7669,13.4837,37.2596,-46.4147,-39.5656,-35.7580,22.8273,-3.4537,-26.2715,-133.3423,-42.5720,-28.6129
-92.5309,-91.6078,-148.2989,-129.1512,-29.8155,6.1618,9.9894,15.4919,-28.5110,-30.2175,-45.9605,-33.6377,-27.6221,15.6539,15.3725,-9.6473,-154.0591,-78.8204,-51.9484
-53.6135,-24.8314,-100.7484,-67.6402,-29.3843,0.9412,-10.0777,3.6295,-104.5140,-41.4000,1.6275,23.3881,8.3444,17.1838,21.3607,3.8330,-126.9393,-76.8266,-69.1031
-31.2600,14.9646,-69.7848,-27.6004,7.1340,-38.6893,27.6200,-11.8562,-110.2268,-35.5316,31.0595,51.5972,37.8718,17.1447,25.4672,-18.3927,-106.8993,-48.0847,-75.0370
-33.7384,3.9938,-64.4658,-34.8424,29.3675,-38.8551,61.4139,-12.7887,-93.1191,-81.9565,13.8163,28.7887,42.5853,33.4806,53.2303,-34.0072,-143.8545,-23.1850,-109.7021
-29.7752,24.4226,-65.1451,-8.0212,-18.1728,44.4749,22.6413,41.4224,-150.6910,-115.0599,-15.8042,47.8194,21.1237,102.0061,40.9373,14.1637,-187.2685,7.0363,-190.3677
-56.7774,84.6866,-108.7773,88.7187,-80.2239,131.2480,-42.4814,131.3560,-214.8932,-66.3803,-55.3361,122.9153,-32.1703,166.3356,-33.7926,80.5059,-174.0858,29.6432,-229.0372
-109.6903,99.7977,-159.7721,163.4032,-63.6235,151.3888,-42.4224,177.6726,-174.0427,-19.9782,-85.4329,150.6735,-68.6760,142.7158,-67.5528,80.8188,-98.0967,9.4848,-144.4976
-92.5744,64.7558,-104.7736,157.8276,22.1270,135.4672,10.0956,158.5337,-80.1294,-39.1855,-60.6929,102.8236,-39.2090,79.4471,-35.4064,42.8346,3.1763,-23.3258,-10.4492
-14.9254,40.5662,12.9877,115.6852,81.6248,111.7054,13.7403,126.9124,-39.6181,-48.0141,-16.9968,54.1034,0.1288,68.9530,-36.1678,44.8086,61.4155,-24.4893,57.5038
13.2187,20.0209,40.8373,55.1457,74.9937,75.5538,-39.9253,110.4976,-42.5740,2.2093,-8.4148,34.8704,-4.2248,85.2200,-68.1458,72.4178,43.1544,-20.3657,79.4707
2.2531,-19.9032,2.7981,-28.5665,65.1525,56.9670,-54.1267,95.8893,-41.4783,56.4214,3.4740,17.2096,0.8088,66.3068,-44.8197,72.1800,13.7301,-25.7438,125.7374
42.5879,-37.4388,43.7784,-71.1863,97.9006,75.2918,-14.5353,78.6360,-44.1671,55.1211,50.6531,-3.5004,48.2775,34.6511,9.2738,46.3769,49.4879,-2.1662,171.5927
113.8620,-14.2612,152.8799,-39.4749,126.9235,92.5003,12.4947,61.3291,-45.4286,-5.3882,91.1451,-13.5849,89.5470,29.8908,27.9125,18.7362,113.7276,39.7943,168.9572
130.6530,-0.9677,185.1801,-21.5642,114.1779,87.8803,29.5299,46.8490,-20.9727,-53.1800,98.2790,-14.8130,99.9607,40.3651,36.8407,8.3433,105.1489,48.3315,138.8692
80.4850,-23.5088,93.9905,-74.3836,89.9618,70.7344,55.4048,37.3812,-0.8453,-13.2342,80.0831,-15.0746,90.3341,40.5002,61.3057,25.8867,11.7289,26.5880,109.6763
21.3138,-50.5009,-10.8707,-129.2214,67.5452,22.3633,46.4006,11.8544,-10.8323,52.1381,53.3880,-16.9370,63.8053,13.4823,65.2475,35.3533,-60.1064,-0.6274,70.5181
13.4080,-53.3417,-14.2445,-130.1481,36.1530,-59.7901,2.9165,-45.1305,-14.4340,35.9626,58.2449,-16.7880,47.5590,-41.1472,38.0213,4.1483,-37.4346,-30.1578,10.2278
57.8981,-35.3973,66.1026,-107.3231,35.6374,-124.7901,-24.6323,-104.4838,-16.7804,-28.1336,95.5516,-14.8293,65.2901,-82.7244,15.2955,-33.2012,13.7411,-36.8742,-63.4119
86.1176,-22.5522,119.8279,-89.7776,93.6721,-144.5076,-41.2001,-139.0327,-69.9643,-77.0174,97.6707,-25.4830,83.3341,-75.4239,30.9926,-63.9530,8.9619,-3.6557,-117.0271
51.6145,-31.4863,90.0507,-70.7361,148.8519,-130.8063,-43.5502,-145.3690,-127.3702,-129.0380,50.0362,-48.2464,73.4670,-56.2871,81.5667,-120.9273,-22.4919,35.0713,-102.1625
-2.4303,-34.0891,22.7334,-41.0641,147.4130,-85.2314,9.8420,-110.2375,-98.9574,-140.2878,13.2260,-48.9732,51.7632,-69.6109,101.0404,-158.2339,-19.6098,66.7488,-28.7398
-16.4980,-3.5649,-9.7477,-4.2229,111.7256,-31.3147,61.1689,-49.4268,-16.2417,-38.7976,3.9111,-17.9265,25.8202,-78.3766,44.5122,-107.8468,4.1296,105.9215,26.8995
-5.4918,12.6443,0.0132,3.8343,59.5216,-24.3452,16.1540,-22.6403,52.8754,82.1618,-6.8472,-4.0569,-6.2564,-50.5498,-10.3650,-33.0129,4.7846,103.2497,24.6658
-32.8402,-40.7076,-24.2466,-54.9753,-27.8237,-66.0724,-76.2864,-42.0135,110.5807,99.2341,-33.6648,-40.0199,-45.0583,-48.2130,-0.8702,-15.7647,-36.1218,7.2189,-26.8406
-109.6122,-117.0651,-127.9155,-136.1355,-150.5848,-113.7675,-143.4424,-78.5388,124.0071,61.4290,-86.7765,-86.0952,-112.8028,-106.0986,-22.4072,-21.7743,-106.6491,-121.4511,-133.6446
-165.0280,-135.4287,-221.3047,-160.3147,-277.2227,-162.5264,-224.0839,-138.2357,52.9294,52.6473,-145.4622,-95.1498,-198.8703,-145.3807,-133.5519,-21.7043,-163.1272,-190.2784,-256.8106
-154.2090,-107.7984,-213.2822,-142.5982,-356.4181,-200.7692,-307.1801,-192.7572,0.8776,64.0059,-156.6154,-81.4607,-233.5255,-123.8207,-201.2714,-39.2133,-177.3246,-180.6672,-276.3758
-125.4816,-92.6436,-163.8933,-141.0495,-343.3849,-169.4909,-293.0849,-158.6584,59.9705,83.6441,-132.4030,-81.7839,-202.6934,-107.9892,-143.0896,-37.6235,-171.0884,-117.6828,-153.3429
-116.3409,-89.3475,-150.3468,-140.8841,-259.1910,-79.2115,-197.9506,-58.6394,116.5892,122.0580,-127.7892,-91.4639,-171.0127,-120.9277,-87.1970,20.0806,-155.5221,-51.1633,-9.1351
-101.9973,-75.3247,-144.0495,-119.1047,-172.4807,-38.5477,-135.9926,-11.5159,67.2172,166.4161,-131.5923,-87.5428,-161.8819,-113.9185,-128.8286,63.9762,-122.6763,-41.1216,44.2866
-95.5697,-71.2866,-138.6591,-109.5315,-107.6496,-81.8103,-124.9199,-30.4356,7.1290,195.2453,-127.6898,-81.0846,-157.0146,-98.8313,-181.0159,39.9421,-108.2166,-67.9891,19.1265
-131.7456,-89.5627,-173.2637,-115.0943,-47.0695,-110.1201,-108.2599,-35.0666,23.5917,191.1081,-151.9178,-89.9526,-163.6007,-106.9096,-168.1055,4.9013,-134.6538,-49.8664,-24.2216
-159.1079,-91.9369,-198.3626,-88.2705,7.3217,-51.9753,-73.0834,-7.2388,63.2362,164.4235,-184.5416,-91.4074,-168.0093,-88.5154,-127.6132,10.3188,-146.1142,15.9215,-48.2231
-124.5976,-52.3445,-150.5560,-20.3744,43.6531,46.3099,-40.8063,19.2153,77.4069,156.5439,-163.0406,-58.6217,-133.4383,-24.5673,-86.4516,32.4530,-106.1325,59.4294,-53.8041
-77.2779,4.1294,-79.2373,59.9465,56.5497,111.1459,-42.6154,24.1963,71.2507,148.3866,-110.4507,-7.2035,-85.7265,8.0195,-42.8897,37.3118,-43.8715,63.8760,-73.9124
-54.8453,46.5842,-31.6658,131.4052,33.0707,128.9444,-105.2807,4.5526,34.4500,79.8514,-77.0522,37.4047,-73.4832,-10.6594,-40.2294,22.9643,32.0910,63.3198,-105.3725
-19.2800,71.2737,20.3248,169.2379,-14.7083,134.0568,-193.1263,-8.9396,-36.8984,-7.7709,-44.7593,72.7887,-75.6443,-8.0856,-89.4806,13.3456,121.1027,74.9552,-92.5514
37.2132,92.9541,77.5383,173.9130,-33.9944,151.7966,-231.1498,7.6358,-120.8236,-38.6991,-1.7968,99.9888,-51.3904,34.8311,-108.4697,26.1313,177.6223,106.2051,-36.4753
84.6600,128.4006,119.4881,192.1059,-5.1816,163.2564,-205.8955,7.3218,-195.0348,-43.7462,29.7446,118.1457,-7.9970,73.7638,-64.5218,36.5194,190.4265,155.5079,-4.0615
125.0447,168.6556,163.6158,230.5260,25.5929,141.1216,-155.1998,-32.2460,-219.4854,-57.9554,58.7411,131.5220,30.6216,92.7876,-36.1634,19.6154,210.4914,191.5812,3.6870
154.6626,177.5140,197.4390,233.7393,24.5809,103.3135,-88.2325,-42.2804,-168.7514,-46.2421,86.4752,127.5558,50.3674,87.3348,-52.2633,8.4972,244.3729,191.8609,38.8651
148.4048,144.5529,177.8622,186.8936,22.3750,75.8668,-7.3838,-9.2535,-102.1140,-5.2388,74.0332,84.5554,44.8741,46.7176,-47.6082,40.1221,242.4724,171.8806,85.1192
120.0495,100.0414,124.1799,122.1985,61.3365,37.5515,43.7677,-10.8445,-89.8684,52.6422,26.8810,20.1577,28.0299,2.8472,-14.7147,91.2803,188.7270,147.2803,106.8953
96.2370,60.0321,79.2280,42.3322,128.9195,-25.1438,38.6612,-45.6944,-108.8607,135.2715,0.9418,-20.2097,20.3665,-5.6798,-18.4702,117.4500,109.0618,117.1423,138.6426
67.6414,17.0524,41.5261,-47.5577,175.9091,-66.7571,22.7074,-42.6942,-103.9075,172.9671,10.2593,-26.1058,24.0068,-1.3685,-61.2384,99.1716,29.3946,88.0583,193.5215
33.2670,-17.6066,14.1630,-98.9653,188.9641,-53.9367,42.9067,-18.2693,-71.7104,93.8631,26.4058,-22.2162,35.7735,-14.3300,-78.1534,42.9596,-30.4391,74.2485,205.8995
15.4485,-28.9456,12.9546,-94.0428,199.4183,-8.8988,77.6669,-23.5721,-33.1327,-16.5710,36.0116,-20.7855,55.9061,-21.4315,-38.4542,-16.6321,-56.4323,85.1277,154.8784
15.2962,-34.4514,22.0723,-78.1048,220.4725,50.9241,93.3289,-24.4144,3.7705,-56.4026,38.6686,-20.8184,74.1324,0.9577,26.4597,-36.0573,-48.9911,119.1384,111.7985
17.9880,-51.2494,24.7264,-80.9271,228.0830,119.9882,100.3336,17.4856,43.9328,-51.2177,30.2072,-28.4705,74.7658,31.2829,60.5087,-8.0721,-26.5998,148.2908,120.2553
16.5434,-60.5305,26.0275,-75.6089,202.3663,159.6538,105.4427,62.1122,95.6384,-25.2802,14.1900,-38.2242,54.8217,39.4412,41.8019,32.0507,-3.4665,134.8338,146.1494
12.1774,-41.9841,32.1782,-30.6630,148.6803,140.9151,90.2512,72.6540,149.0241,30.9795,5.6877,-31.4979,29.4902,17.2231,18.5636,44.5231,42.6150,89.6655,154.0752
20.0274,-12.8464,59.8789,30.9714,90.0504,96.0745,60.4049,71.5516,188.2863,73.4921,9.4449,-21.7628,16.4957,-21.3879,40.7028,23.9904,120.8248,71.2730,148.6026
43.0774,-6.5046,106.8124,49.5734,53.7666,69.8857,37.7818,87.7374,222.7786,91.6937,5.6939,-40.6950,10.6149,-38.6018,79.3410,5.6270,164.0484,99.8758,148.5757
50.2472,-25.9051,120.4992,12.3808,53.1119,65.9960,21.2693,116.7388,250.3905,140.5875,-11.9918,-67.3737,-0.6704,-14.4074,78.6717,18.5838,127.4613,119.8718,159.6407
38.1869,-40.9554,96.0165,-30.6451,89.1090,45.5081,11.6787,125.0770,232.4269,194.5229,-8.2383,-61.0196,0.8881,0.8645,41.0016,43.6191,77.3738,81.5758,160.5486
43.1041,-39.0154,99.4506,-57.0286,154.5043,-45.8377,22.4735,74.9500,167.3614,177.6342,23.8958,-53.1172,30.2962,-44.1850,15.3860,42.2012,51.3315,17.4988,121.9326
45.8761,-47.1495,110.4660,-94.3706,214.1952,-192.6752,46.0043,-20.7470,116.4941,112.4970,24.1394,-90.8565,51.4761,-100.0274,35.2720,8.3371,-17.8207,-13.0995,52.8994
-5.0781,-82.0972,43.1541,-141.2858,232.0207,-277.6600,64.6934,-87.9211,114.7505,63.8987,-26.0572,-133.3651,34.0250,-97.6303,70.7300,-26.9143,-128.9628,-19.3921,-2.3406
-68.4456,-116.8083,-48.6215,-162.4539,221.9100,-233.0886,70.4683,-87.6552,133.1441,31.0269,-55.6982,-126.2887,9.1864,-71.2860,59.1489,-34.9179,-171.9857,-43.2208,-24.8698
-58.6521,-118.7842,-34.7189,-147.3303,203.7095,-136.3992,55.3682,-67.5797,140.1333,-13.0315,-24.4860,-96.0038,13.9239,-70.5680,12.1980,-28.3469,-112.2906,-60.9983,-31.5732
12.2729,-87.4370,63.3298,-105.5776,158.2616,-57.9703,35.7235,-59.0281,134.7509,-57.5729,26.3279,-76.7374,39.5666,-63.9180,4.6755,-35.1418,-20.9964,-28.1663,-26.2186
63.9878,-51.4919,124.2340,-55.8376,95.1067,26.7664,39.8920,-25.9634,117.0589,-59.8816,53.6351,-60.7941,56.9806,-39.2367,34.3615,-42.9939,47.9154,10.2613,0.7040
59.1216,-45.4309,107.0717,-34.4814,63.4579,109.9990,38.4496,26.8437,75.5379,-10.8838,45.8011,-53.3842,47.0336,-34.2861,38.9654,-35.4103,76.0102,-12.2987,36.0961
17.8581,-63.6386,46.9795,-44.2594,57.9389,137.5438,-4.4813,45.7584,25.9384,32.5513,14.9360,-52.7493,16.7922,-25.5712,21.4800,-39.1437,61.9644,-47.1945,69.4282
-19.8957,-56.1573,-10.2322,-37.1072,28.2618,130.3602,-41.3899,54.9381,15.4292,46.1662,-3.8889,-22.4300,-7.3022,17.8941,4.8111,-53.0712,36.2611,-16.7731,121.1011
-31.8249,-15.7494,-32.7001,-7.9043,-34.5736,133.4199,-37.1611,103.1043,40.8965,73.4381,-3.1563,20.4008,-21.5081,33.3025,-23.2579,-36.2549,19.3876,30.5483,190.1535
-34.5506,-5.6515,-39.8378,-13.3805,-98.5155,113.7589,-35.9744,129.0312,43.8138,102.2385,-17.5791,6.9644,-40.3811,-4.0856,-22.7531,-17.7942,0.9611,27.8252,237.2166
-44.5840,-44.7827,-65.2011,-63.6273,-109.1109,54.6779,-29.0330,83.9826,40.8006,95.2248,-46.9035,-50.7620,-47.7766,-16.6710,52.0247,-45.2350,-17.0271,48.8202,262.0185
-46.8988,-68.5602,-83.1780,-105.3234,-16.7411,18.8588,50.6156,52.1346,109.6923,110.4957,-52.8723,-78.6999,-21.2891,0.9186,125.7009,-54.7449,-37.0001,160.7338,298.2156
-40.2183,-51.9895,-72.3757,-116.8569,130.3638,30.4590,166.5900,77.8215,210.0645,165.0669,-33.1110,-66.0811,20.2238,-17.8606,123.4605,0.9592,-82.1115,250.5262,313.1248
-50.7303,-46.3493,-73.4887,-119.2794,218.5991,49.4707,218.2844,91.7292,227.5072,155.7268,-12.2575,-44.8339,48.0558,-40.6224,91.8483,33.0033,-132.7525,202.5546,245.6636
-76.4582,-67.6468,-93.4484,-109.0696,233.9598,80.8695,192.4101,90.9455,175.2364,77.7970,-6.7000,-23.7749,50.5356,-8.3732,62.3353,0.5305,-138.4269,96.8776,135.0452
-85.6194,-73.3408,-82.8388,-63.0213,239.8702,154.6664,138.1604,127.4370,131.0729,28.4220,-25.2281,-9.3508,28.4925,34.3347,16.9280,-11.5597,-98.1563,52.0918,68.3111
-65.3498,-50.5284,-42.3818,2.0281,238.2354,224.4295,101.0267,149.2384,80.6615,-10.8697,-37.5079,-1.7248,17.4364,48.4209,0.8869,15.7818,-39.7314,38.4711,39.1863
-25.4980,-25.2748,-9.8308,40.0341,202.0661,219.6152,102.7094,96.5616,-1.6201,-84.3095,-0.4154,16.8876,47.3811,58.4593,28.0826,21.3278,21.4931,-14.3243,-9.9167
15.3201,-4.4941,16.9315,47.3340,128.9928,160.5339,87.2137,26.5952,-83.3666,-131.1215,45.7792,37.9851,67.5148,60.9243,9.8791,11.1302,58.5752,-81.7555,-72.0602
34.7435,22.7895,36.2828,62.6243,11.4955,117.8360,-3.8305,-8.2549,-154.5394,-139.6239,39.3268,45.4752,31.8283,52.7181,-49.4338,15.5797,56.7716,-108.9565,-107.2548
33.1707,52.1327,27.4312,88.1890,-95.9233,91.3374,-79.8577,-28.5968,-204.3551,-150.5789,22.7929,59.7392,4.1837,66.4111,-40.5831,16.1545,40.1250,-102.6682,-116.4116
30.1230,64.1850,11.7558,79.8794,-81.0242,19.0084,-32.3982,-48.8655,-188.7489,-125.6242,48.0836,74.9149,38.7673,71.0945,19.2367,4.6731,9.9130,-113.3428,-120.0565
17.1089,44.5696,1.2003,22.6092,26.5266,-103.2162,61.9130,-78.8098,-143.4489,-72.9004,68.5883,49.3727,76.8994,6.5192,35.5972,-20.2448,-55.9251,-156.2124,-124.4685
-24.9353,4.0825,-46.4281,-45.4818,82.7775,-193.1269,91.4890,-120.3060,-147.8816,-79.4376,49.3852,6.4878,70.2296,-77.9827,30.2806,-72.3195,-125.4501,-169.3070,-130.3953
-68.0293,-26.4385,-109.3532,-76.7047,79.5225,-189.5936,89.1548,-116.9128,-154.9290,-112.8195,20.2751,-4.5729,47.9151,-92.7146,45.3642,-115.6974,-145.7330,-106.4556,-133.9777
-71.3511,-36.2707,-97.7570,-51.2477,87.0733,-119.7029,100.0308,-50.4586,-86.9970,-111.7695,-11.6613,-13.5945,26.8556,-39.3999,43.6530,-113.8389,-117.7017,-42.0592,-121.0437
-42.5140,-37.4949,-23.7224,4.7543,70.7178,-37.4631,93.3060,-4.3926,-9.4475,-146.2498,-34.9332,-38.3062,10.7922,29.5504,30.9815,-105.0463,-59.2877,-52.0989,-80.5101
-6.1509,-19.9118,26.1851,51.9948,19.9877,44.5674,74.1503,2.0633,1.0345,-209.4435,-0.0810,-14.7212,31.0105,75.2227,53.5634,-99.0431,26.2929,-65.4878,-20.3449
31.5325,31.3336,53.2345,97.9910,26.7027,135.8076,81.3770,52.4081,-8.6199,-173.6648,67.7761,62.7389,75.9071,86.8118,74.3474,-51.5914,111.8511,-3.3600,30.0930
55.9409,81.1327,87.3984,157.0573,83.5219,217.1881,89.8825,138.0581,1.3484,-71.5717,84.3378,113.5724,85.6425,98.3021,42.6531,2.8887,160.1647,67.9709,39.3802
55.1089,91.7929,93.6326,187.9688,79.7553,247.3191,52.4643,161.1661,-10.6968,-36.3283,62.9161,123.8318,59.8023,128.8509,-0.1251,5.7654,173.8807,81.2618,7.8706
53.8926,87.5867,72.7779,171.3691,14.0583,218.3381,-10.1995,118.8845,-58.4640,-50.9824,64.2742,132.4445,44.7601,136.5731,-2.0548,-2.3340,177.2920,82.8699,-28.8352
68.8924,91.4005,74.8736,152.7450,-24.2015,159.6296,-29.8389,76.9829,-96.3728,-59.3024,63.2081,118.5267,40.6056,112.3840,15.3142,7.7322,175.4162,102.7328,-39.6086
77.4839,79.9346,85.8629,136.9460,-2.8921,72.7156,18.5796,39.4117,-92.1689,-83.5472,40.1246,73.1207,34.0040,100.2227,6.1903,-5.5213,162.8025,110.2932,-28.5150
80.1187,64.7716,83.7884,96.1255,53.8353,-59.1499,74.9224,-13.7126,-54.1209,-101.6004,54.2846,60.7143,50.0180,90.5682,-20.7189,-24.2778,145.5090,125.0118,-26.5772
100.6068,94.9118,104.7039,76.3831,102.5992,-183.2279,78.7657,-56.0567,-20.2836,-70.4904,102.1583,95.4602,87.4519,52.4905,-5.2056,-1.9787,124.2524,189.4729,-61.9885
105.3586,148.7538,119.5531,114.9127,100.9919,-216.8538,47.3690,-58.6439,-34.6244,-23.8374,92.4908,114.5205,90.2430,18.6540,53.3039,21.5742,75.0499,258.2010,-133.6577
48.0118,161.3161,52.8440,148.0685,52.8680,-178.6162,-9.0072,-39.6844,-98.9775,9.3132,24.5414,114.8330,36.8234,14.4369,54.1445,8.5967,-0.9243,237.7960,-207.2633
-19.1047,136.7784,-31.5936,137.8754,-16.1495,-149.3807,-120.2247,-39.1566,-161.2094,26.2038,0.0804,142.8796,-16.9798,27.9028,-34.4815,-12.8732,-35.2226,108.8580,-233.4945
-14.9775,109.0457,-17.3187,119.1218,-89.2277,-134.2880,-220.8452,-58.4944,-176.4924,-2.3086,42.2421,165.4380,-20.3577,66.1475,-100.7202,-34.8862,12.1801,-43.2961,-186.2848
33.6011,70.8426,50.1201,90.3255,-120.5066,-92.7212,-203.3850,-57.7155,-168.4070,-55.2373,71.2366,121.2520,1.7543,93.3993,-97.7602,-54.8531,72.8950,-127.1653,-108.1985
51.1446,34.1277,67.5159,49.7968,-105.3570,-45.8240,-142.7629,-37.3360,-193.3088,-65.9619,54.3075,54.3124,-2.8407,32.8361,-111.4000,-36.5496,84.3726,-164.2883,-84.8154
37.2192,42.8653,47.4606,49.2133,-162.0690,-49.0309,-189.5963,-57.3491,-247.0654,-50.8488,37.9412,45.5581,-36.7195,-65.7654,-156.0290,1.0454,70.1405,-228.7976,-133.9081
27.3677,82.5707,25.0973,75.5094,-342.8671,-108.8346,-294.0673,-127.9936,-276.0440,-55.5248,38.0507,75.1967,-71.4094,-82.4112,-163.3891,-2.5787,38.6936,-285.4157,-179.6516
12.8101,93.3107,-19.8429,57.1208,-478.2484,-178.5285,-313.0570,-178.0403,-270.7574,-52.3931,18.6414,73.9165,-99.3881,-51.9010,-149.9223,-34.0318,-27.1192,-256.0843,-175.4097
-20.6036,59.6928,-72.5719,6.6860,-414.8700,-216.9328,-247.9765,-177.9099,-246.7771,-30.4829,-18.4398,36.8488,-113.6967,-74.4581,-155.6609,-52.7661,-76.7535,-192.7326,-158.4648
-47.1658,8.7803,-90.3433,-33.3902,-237.1949,-243.3482,-162.6640,-185.1623,-183.9811,-33.1722,-29.6836,-3.2000,-92.3741,-118.2219,-136.3690,-65.6418,-73.1501,-171.6466,-155.9269
-49.9279,-26.6262,-91.6274,-74.4806,-98.6699,-295.4611,-64.6351,-226.6728,-97.2069,-52.2230,-19.3555,-34.7566,-50.9606,-128.5183,-82.1389,-65.4268,-78.1002,-136.2007,-143.1103
-48.2999,-19.3396,-103.3924,-89.2204,-17.5941,-325.5876,20.0807,-237.0849,-54.0776,-32.4397,-25.7998,-44.5978,-33.4809,-134.4333,-62.8369,-35.8005,-106.8401,-42.6888,-98.8995
-42.4509,14.7203,-86.4214,-41.0116,54.9092,-252.6897,51.7429,-165.6107,-45.9473,32.4242,-27.2550,-19.3451,-27.8959,-130.8425,-85.8296,-13.1325,-78.3721,22.5051,-25.1698
-5.5923,25.3520,-17.3038,-1.6221,105.7369,-115.6944,58.5052,-61.8382,-8.4915,95.4533,17.4190,12.7098,7.8927,-77.6290,-86.0323,-12.2614,4.4318,12.9873,53.9666
41.6211,9.4455,39.4809,-20.5090,90.8001,-12.0198,70.5988,13.2444,35.5513,125.1588,60.3599,16.9716,44.5362,-12.6704,-47.4480,16.8124,48.2768,-1.2207,91.7398
44.0636,4.2359,29.9125,-20.9594,38.2818,65.7806,64.7022,76.1619,41.3015,147.8512,34.8000,7.5625,26.8199,16.5241,-18.3202,77.8600,44.4259,12.1919,81.4993
16.3826,7.1625,-0.3297,15.1502,17.2104,150.4078,45.9542,135.1167,47.6152,189.2953,-11.8461,8.9132,-13.9661,34.7854,-39.3015,110.1913,46.9292,9.1084,75.6634
19.9452,-2.6784,3.7389,4.4428,3.5242,175.5066,45.0715,133.3703,66.3612,196.5374,0.8769,13.9212,-15.0523,53.6027,-80.8921,99.4532,50.4208,-21.6588,82.8636
46.8469,-3.7607,17.8552,-35.4729,-76.2756,106.3706,29.8327,67.2279,37.5942,128.6243,42.0914,16.8964,7.1191,46.6126,-62.0602,81.6870,35.3938,-43.7824,56.0388
50.2077,27.1882,15.5587,-12.0104,-164.9831,37.7990,-24.8996,13.0677,-25.9494,59.1180,43.8540,26.9935,8.2672,22.3592,15.0736,67.0898,25.4291,-31.1309,14.5910
34.7899,59.6900,14.6225,43.8602,-140.0878,31.0529,-31.2931,-5.7585,-33.9514,41.5928,21.4933,31.6762,1.8959,-4.6143,48.6824,42.3690,25.5009,18.1089,27.8778
14.4890,45.9668,1.1776,34.0048,-28.8112,22.0268,80.5750,-19.4859,36.3203,16.8554,5.8861,1.9504,10.0810,-49.8049,30.7667,7.1328,8.2359,87.5484,85.3521
-18.0567,-8.6394,-41.7143,-30.7934,60.0158,-34.5193,203.6144,-20.7611,115.0802,-30.1252,-21.0129,-54.5596,14.7600,-89.4293,52.8119,-24.6440,-24.2346,153.6406,124.0912
-32.2429,-41.8290,-53.1202,-64.2594,120.3689,-83.8253,196.9088,-7.0986,119.6249,-28.7493,-50.2386,-85.0055,9.4022,-69.6626,89.8957,-34.5246,-39.4073,197.8393,129.6595
1.1370,-17.3217,-1.3372,-38.4357,172.6615,-68.1957,100.4746,0.2055,29.6523,20.0276,-39.2477,-56.6668,15.6323,-11.3580,58.4567,-16.6625,-20.7439,202.8083,114.2517
41.0443,22.9857,42.2862,2.9705,164.6652,3.5982,39.7828,26.5055,-81.6966,46.9218,-1.5853,-5.7388,31.3987,16.9682,15.3560,10.3871,20.9850,168.5484,82.5433
57.7301,35.4591,52.2312,27.3922,91.0840,93.0111,24.0462,84.5228,-141.8758,34.6340,15.4265,15.8742,32.3582,15.3715,17.6544,27.7699,66.7212,130.7872,55.6837
78.0238,36.9091,78.2834,49.7584,35.3738,174.7471,1.7063,116.1496,-169.1936,5.9722,9.6906,12.7420,16.8992,35.9542,-8.7927,41.4656,106.0956,113.1971,43.8433
95.3633,39.3223,102.5717,78.3914,17.2396,232.7927,-14.9866,108.1203,-179.7922,-24.8452,1.1314,12.8004,4.2132,86.7407,-53.6966,59.4632,131.4129,82.9532,18.3077
74.7719,22.8062,78.9377,86.9818,-40.0723,242.8936,-19.0373,99.7478,-132.1302,-49.0625,-6.9489,10.5782,1.3371,126.4266,-1.4825,59.9830,121.6319,5.0760,-32.0665
26.8776,-3.7562,31.1696,65.3253,-157.3408,188.6162,-54.9337,67.5880,-45.0440,-64.2496,-19.2477,-4.7353,-11.8019,115.8665,91.4370,23.6755,61.3916,-90.6865,-81.9046
-25.0818,-19.8123,-20.1445,30.7719,-240.8440,93.7304,-114.3585,2.8804,6.5626,-55.2967,-48.3526,-25.5456,-54.9328,46.6182,79.3335,-10.6997,-21.6176,-142.5111,-121.6624
-62.4697,-32.1685,-60.9271,-6.1907,-211.3871,8.6098,-133.5844,-18.2241,26.0335,-4.1353,-83.7113,-46.8618,-93.2746,-39.6199,22.6114,10.1771,-76.8757,-132.4708,-149.5881
-53.3879,-29.0789,-42.5398,-32.1649,-110.8772,-38.7245,-102.0639,8.0891,53.6955,46.7478,-75.3880,-52.5805,-69.6164,-76.7231,40.8842,56.9104,-101.8857,-84.9650,-136.8389
-31.6190,-0.0703,-13.2950,-40.8457,-24.8566,-60.8099,-51.0093,-0.8865,70.6243,36.2368,-33.0271,-25.8048,-15.0404,-60.3036,67.4845,51.6532,-146.7274,-5.9418,-73.8575
-72.8564,1.3211,-78.5660,-63.3212,35.6595,-84.9820,0.3855,-44.4347,57.9830,-23.7731,-40.6366,-7.9188,-13.3173,-53.1324,28.5285,-13.3579,-215.0214,99.7443,-10.5037
-122.0262,-44.6800,-146.5580,-98.4534,89.6366,-111.7182,14.6934,-76.2501,20.0739,-95.5500,-88.3796,-41.0506,-46.6558,-75.6348,-3.8896,-79.4921,-221.3765,167.4482,2.9829
-65.1674,-53.2030,-61.4036,-77.7622,107.3063,-101.7053,-30.4868,-97.6118,-57.3254,-157.4409,-70.8501,-66.6336,-32.7787,-80.1972,7.4841,-104.2253,-111.5205,153.8089,-16.5023
50.9395,8.7644,90.3440,5.6432,85.8095,-29.7577,-70.8007,-76.4883,-136.4758,-158.7295,11.3163,-24.3528,19.5659,-47.5941,5.7113,-81.0246,47.2481,136.1184,-8.3938
119.5366,55.5571,170.2000,64.4757,97.4760,67.5149,-46.6660,17.5752,-129.2618,-78.4675,68.5162,27.7210,54.5221,-6.4016,-14.4316,-36.0312,167.0072,178.4154,49.9897
156.4355,49.5619,224.3069,69.9627,158.6721,142.0126,-6.1447,104.7090,-58.2731,14.0762,90.5815,29.0979,75.8490,31.3061,-19.8014,-8.3957,236.0063,209.3499,110.7352
187.8654,47.8878,275.0964,81.5970,175.6714,189.8785,-2.9882,126.7005,-20.8774,68.7186,99.2493,17.2847,86.3198,64.4848,-17.8042,10.8427,265.4313,180.0403,123.5680
176.8327,76.5541,256.9890,132.1316,106.0297,213.5372,-4.1919,134.5163,1.6784,102.4023,74.1248,26.4186,63.9650,77.3109,0.0494,49.4144,260.2739,149.8611,103.9595
146.2181,114.5862,225.3098,203.7718,44.2865,193.4671,19.4785,133.0518,62.9769,114.1554,47.5950,42.7900,46.1449,71.5952,45.3560,64.4821,253.0944,125.4867,87.0969
146.1204,146.1119,249.8170,252.9040,69.7115,128.8372,43.9027,80.4274,95.1682,95.2654,75.2910,65.3815,73.2237,60.8235,54.0639,17.7115,252.0963,66.8146,62.0859
138.7401,142.3737,237.7591,220.0710,122.4608,44.8012,70.5797,23.2567,67.2011,71.0852,100.5556,75.1616,91.6913,31.5169,1.3449,-19.0751,206.1322,38.0878,16.0941
85.9574,85.5700,134.7446,110.6314,118.7809,-36.9084,119.1850,9.0798,84.7704,55.4809,51.3392,27.4232,58.4475,-21.2197,-0.0505,14.5077,106.9789,95.7879,-11.5620
31.2270,23.6469,41.8151,19.0233,94.4307,-90.1931,147.5410,-0.5003,149.2276,49.4739,-14.2579,-43.2004,26.7047,-62.0840,98.0772,54.6278,27.7156,156.2341,16.5981
17.3206,9.0559,24.2546,-2.7250,116.7442,-87.4782,113.2921,-11.8309,119.7572,56.0689,-18.0460,-53.4075,34.1294,-66.0735,153.8334,40.5258,15.6385,161.7447,76.6932
38.3291,20.2619,50.8953,2.5658,143.0273,-36.3931,70.7269,12.0956,22.4498,49.2798,16.0175,-17.8017,46.6587,-40.5155,81.3562,8.6364,46.5093,158.0127,119.2691
58.1257,9.4602,74.2980,-5.5223,106.9301,27.9008,74.9271,51.6306,26.7165,29.0406,31.9947,-8.5471,39.7240,-1.2275,-1.2173,1.1802,70.1190,139.3948,122.1381
33.2035,-24.7332,45.6407,-30.2547,37.7908,75.6413,69.0351,73.9880,99.2922,45.5913,13.6771,-26.3878,15.4699,14.1584,-4.3004,13.2673,41.8754,67.8657,90.7545
-18.2028,-48.8829,-17.8454,-62.9097,-30.8014,86.2953,-3.8315,80.7194,82.7839,72.5185,-21.5164,-38.5823,-25.2544,-30.3397,0.6149,31.0460,-24.4286,-4.8575,43.2642
-21.7718,-41.8498,-18.8285,-69.4078,-115.0112,64.6009,-82.8500,63.2868,22.3748,35.6009,-34.7617,-44.0560,-58.1058,-89.3950,-33.1126,41.6438,-43.9805,-30.9990,-2.5933
24.0380,-12.8359,47.4806,-25.2176,-172.2312,45.3970,-96.9514,28.4364,29.6011,-15.5619,-9.7566,-34.1477,-51.0064,-77.8484,-51.1690,38.6252,9.1454,-48.8862,-45.8621
43.1216,11.8450,70.5711,27.0642,-136.3896,36.0496,-64.0762,9.9745,39.0632,-3.7444,13.1356,-3.7627,-20.5940,-6.2197,-31.0533,33.6415,42.3077,-80.6578,-90.0911
9.2083,9.6314,15.9885,36.1584,-55.4989,3.4219,-12.9408,-4.6034,9.5556,10.7443,-6.0435,3.0236,-6.2746,35.8343,9.8898,29.2973,0.5390,-99.7889,-117.7789
-38.3987,-15.3073,-47.0640,20.8269,-4.3138,-52.8560,54.4211,-39.4339,36.9800,-31.0041,-45.2662,-31.5909,-6.4821,19.0455,81.5434,13.9436,-46.4591,-91.2071,-110.4365
-57.3357,-22.8839,-63.2705,26.4325,42.7158,-92.7945,108.2896,-56.3017,93.6236,-71.7269,-50.3760,-44.9083,9.8177,-7.6243,153.2661,-5.9184,-34.3961,-49.9390,-78.0083
-29.7251,9.1705,-25.9442,52.2330,112.5084,-100.3562,126.9084,-28.1647,57.3033,-67.0912,-11.5965,-8.9709,44.8366,-12.3874,147.9572,-12.9704,11.7513,8.1606,-32.5854
9.5247,34.1663,23.3984,66.6053,161.2304,-78.6020,138.1134,17.6128,0.3313,-39.8755,13.7639,10.4018,59.9240,-3.4008,80.3029,-1.1814,49.1569,35.5081,30.3076
12.9316,17.3962,39.1836,67.5236,159.5857,-20.2024,144.8858,71.6645,46.0478,-20.2953,-11.2178,-13.4235,36.6950,19.8920,40.8804,29.1022,67.5235,28.7079,92.5825
7.9326,11.7716,48.9065,84.4600,115.6447,64.3622,118.1833,136.4000,108.4644,-32.6447,-30.6047,-12.4124,17.8321,66.7847,48.0643,62.5564,70.7128,35.2995,118.1030
30.5857,44.6950,77.8247,109.6118,44.9079,143.0339,82.8722,184.5762,96.3717,-58.2522,3.1809,35.3973,36.5544,118.4389,67.0377,69.1940,63.0463,53.6468,116.5533
32.3103,45.5230,64.7636,88.9672,-24.8308,191.1489,70.1995,201.1697,82.5646,-41.4142,32.0221,57.1972,50.9428,138.0335,92.1669,45.3152,39.5588,35.4882,122.7960
-16.8767,-9.8665,-11.8347,17.4774,-92.0046,187.2641,37.1867,193.4983,96.5389,7.4164,4.4234,24.5072,16.6522,112.6564,103.1081,23.4291,-8.0859,-25.5416,124.4167
-60.6690,-48.6476,-79.7464,-43.0747,-168.0868,133.4047,-26.3672,166.9547,79.9689,42.9962,-35.4419,-6.8231,-36.8479,64.6652,69.7378,28.7882,-58.2253,-80.2322,104.4872
-67.7845,-48.5135,-108.5423,-65.2449,-185.4156,80.6472,-31.3695,141.5261,51.6342,79.6817,-48.7715,-14.4911,-57.5201,32.3260,32.9442,51.5417,-74.2892,-79.5896,102.0718
-59.1006,-51.6509,-112.9782,-74.8943,-90.4523,49.1487,44.9066,117.1072,46.0112,109.2899,-48.5851,-29.2645,-36.7251,33.2682,35.7020,62.3682,-68.9850,-53.1249,125.3010
-42.8507,-59.9022,-83.7022,-89.9099,5.6526,-23.0544,86.8076,47.4167,27.2357,79.1521,-39.5716,-55.1523,-8.7096,30.1198,24.8845,50.3532,-95.7316,-97.6497,97.8960
-41.2987,-71.1285,-60.6156,-130.6341,-4.5309,-163.1396,39.5487,-58.5982,7.5965,26.6802,-33.4349,-81.6489,-15.9299,-30.1809,-38.0019,31.7938,-170.2514,-206.3048,-6.1320
-84.1818,-113.2974,-111.1538,-215.0956,-35.9837,-298.2510,7.1707,-123.9393,37.5723,23.5040,-52.6590,-116.7453,-49.5748,-128.1543,-77.4691,6.0733,-254.9747,-241.8097,-97.7566
-132.9941,-158.0913,-185.3568,-287.0300,5.4705,-364.9997,52.1107,-144.4062,71.1304,29.2991,-66.8297,-141.2503,-51.3618,-187.0722,-37.8227,-47.1807,-302.9323,-180.2388,-120.2375
-130.0866,-149.5597,-180.4969,-266.4327,53.8385,-361.1580,70.4094,-169.5474,42.4890,-13.1943,-43.8146,-123.2668,-19.0965,-173.3536,9.2293,-106.7825,-276.4290,-141.9008,-116.0775
-86.3743,-114.5414,-102.9867,-184.7757,33.2992,-289.0859,-14.2433,-166.7764,-15.4374,-70.7336,-25.7895,-91.1700,-17.3044,-113.6170,-13.6339,-127.8529,-179.0820,-134.3109,-103.2928
-45.3099,-103.2329,-35.1427,-137.6063,-24.1618,-166.2984,-97.0268,-85.3879,-50.0187,-96.7948,-42.3863,-87.0762,-51.6895,-51.6603,-71.3700,-116.1746,-90.0359,-73.1986,-45.8728
-35.3934,-97.6124,-27.6547,-128.1247,-72.1903,-50.2935,-82.2359,21.6515,-56.9893,-81.8486,-58.1966,-87.0655,-71.5634,-33.7574,-96.5738,-100.8226,-70.5234,-9.5264,27.3932
-56.1225,-75.4316,-60.1420,-91.1354,-131.4164,15.9759,-65.3460,69.1753,-46.0851,-45.7552,-59.4662,-60.0671,-84.4708,-61.3332,-100.9948,-84.7172,-57.5720,-38.0531,29.5672
-64.8786,-61.2743,-70.0084,-37.9524,-246.9587,23.7522,-149.4401,45.1633,-37.2446,-29.6807,-63.2673,-33.8634,-123.4327,-70.5639,-130.4947,-73.9016,12.7859,-116.9167,-45.2660
-47.1942,-73.8337,-59.6879,-42.1137,-378.8665,-25.1710,-245.0387,-8.6646,-44.8152,-29.5189,-67.3341,-39.8664,-162.1632,-45.8370,-166.4456,-72.8765,62.3437,-172.7598,-118.7519
-55.0390,-95.0852,-92.5072,-87.9960,-396.7724,-96.3241,-231.9868,-61.6382,-43.0006,-11.3137,-73.9981,-61.1375,-165.8768,-52.0684,-154.9048,-62.5932,25.2670,-199.3242,-159.0634
-84.5284,-90.7183,-130.8990,-75.9358,-273.0544,-138.0703,-157.1582,-120.7523,-22.1193,-11.8537,-81.1856,-62.7776,-139.2793,-84.8601,-105.0627,-51.8403,-6.8288,-196.2269,-201.5455
-66.8396,-53.6431,-88.0355,-5.3335,-151.0326,-152.2499,-126.6752,-185.8269,-24.0696,-59.5589,-60.8325,-38.3561,-99.5676,-73.2518,-84.2491,-66.2558,27.4655,-174.7424,-249.6515
-30.9001,-34.0807,-29.1985,8.6649,-110.4988,-173.4769,-149.2566,-212.3454,-52.8273,-90.8540,-31.7081,-22.0309,-77.1631,-47.9096,-119.0642,-78.2145,36.9744,-168.3940,-260.0260
-55.1593,-71.2311,-52.9446,-60.9329,-88.3718,-204.0082,-172.0981,-193.2290,-54.5680,-103.4979,-44.9878,-44.8367,-91.6014,-82.0045,-153.1846,-71.7952,-21.7770,-170.8049,-230.6449
-96.0147,-119.1027,-96.3830,-119.2731,-83.3797,-234.2584,-167.8773,-198.5451,-34.2319,-171.7447,-70.4191,-83.9028,-105.1404,-129.5523,-128.4161,-94.1125,-68.4815,-171.2657,-216.5455
-86.2769,-124.7183,-93.8332,-132.0823,-148.6942,-260.7453,-159.5204,-245.1847,-66.7254,-249.2290,-60.0735,-99.0223,-92.9189,-127.0271,-82.8455,-136.7891,-82.0112,-194.1151,-238.7633
-71.8882,-106.5383,-102.4964,-140.1662,-220.8402,-258.4323,-182.0690,-261.6786,-154.7061,-239.6975,-54.7655,-89.4949,-96.9170,-109.1835,-96.7085,-133.5989,-113.5933,-212.5332,-245.8439
-90.0434,-86.5394,-139.0901,-131.8702,-217.9703,-209.4947,-201.1249,-226.4869,-197.2708,-185.2759,-74.5220,-65.2859,-119.5553,-95.2800,-145.5831,-105.1746,-143.7460,-171.2500,-195.1137
-96.7122,-57.2564,-145.6976,-86.8470,-176.2360,-137.6341,-146.6069,-177.9596,-144.0462,-149.9510,-64.2347,-27.2718,-103.0585,-57.0696,-140.1495,-104.9227,-129.1336,-111.7789,-119.3718
-76.7069,-35.7552,-118.9024,-53.2077,-146.7238,-69.7506,-61.9137,-120.8077,-68.5012,-109.8155,-27.1563,-0.0129,-59.9738,-21.4667,-98.0126,-97.1936,-97.4221,-100.4825,-72.9563
-50.1088,-36.4217,-80.7654,-55.7388,-139.8600,-19.8902,-50.6754,-62.7266,-40.2716,-74.5302,-12.3558,-2.7189,-46.8172,-17.9053,-86.9951,-59.7490,-70.3488,-97.6949,-52.0396
-9.2008,-33.6785,-27.0570,-58.6131,-162.6389,-7.5199,-68.8752,-41.7230,-38.8811,-97.0320,-0.3073,-13.8181,-38.8727,-10.0302,-64.5810,-48.0112,-26.6491,-41.7270,-17.6127
31.7832,-24.6390,13.1494,-57.6976,-160.7112,-29.1656,-0.0649,-47.9709,-32.7473,-162.4778,26.0462,-25.0488,0.0829,0.7553,6.0816,-71.7203,13.8198,41.3485,33.6284
28.6986,-32.6398,6.4527,-70.7375,-65.1786,-49.7007,114.3017,-42.2050,-28.1284,-206.2450,24.5847,-48.7427,28.4094,-31.5509,33.3928,-88.3799,3.8865,92.7169,72.5420
-3.2149,-37.1724,-15.4870,-73.4579,59.1037,-51.0437,162.9892,-29.0736,-30.0657,-184.7699,1.5815,-60.2542,27.3197,-74.9583,-5.0268,-97.7988,-42.1228,103.2060,87.4587
-7.4786,-15.4716,-13.2303,-55.0523,121.0882,-40.5238,167.8775,-19.1983,-42.2248,-114.1347,6.2180,-43.6773,43.5156,-72.7468,11.2213,-104.7572,-69.4499,110.5466,89.4156
19.2268,-5.6338,8.2575,-55.8890,167.6243,-30.1004,193.0953,-3.8651,-65.8919,-59.4693,26.1911,-41.4523,80.2643,-57.5613,83.9169,-86.3601,-57.5642,133.4803,88.8870
42.6618,-31.6318,33.3376,-90.1015,242.6694,-37.0677,211.9476,8.1859,-71.7736,-26.1188,34.1702,-66.4330,94.9769,-70.8696,81.7916,-53.3670,-23.4935,134.6359,90.4406
54.9211,-54.6489,54.1054,-116.6092,274.2761,-56.4520,195.6674,15.0253,-50.2566,31.7009,44.7723,-77.1751,89.0552,-85.9940,23.1818,-38.3034,11.6355,93.7615,89.8079
61.2550,-51.3724,69.9063,-100.6669,226.5292,-49.3716,167.5471,29.4304,-38.4293,50.2357,52.2345,-71.3578,84.6440,-80.3063,29.6287,-47.7391,36.9453,53.6519,75.1037
54.5165,-36.7759,85.4259,-45.1841,153.6417,-4.7966,129.8350,31.2368,-31.9668,-44.9911,40.9989,-64.7452,75.2536,-63.6174,71.8247,-72.6757,50.9508,29.1716,44.0720
41.2483,-10.0012,94.9345,19.9221,79.7055,44.4571,73.3375,7.6071,0.4111,-133.8946,41.5483,-31.6747,62.7301,-40.0797,68.4594,-82.7925,52.9826,-13.7953,0.9184
43.7258,24.3419,91.9674,50.7810,-4.1822,71.7865,23.9515,-6.4414,15.2584,-100.2607,64.1727,14.5663,62.9154,-19.0439,69.9391,-50.7354,37.2657,-64.6954,-53.7093
52.2263,27.2652,74.7139,23.6983,-64.9561,57.4584,6.0173,-5.4766,-23.9924,-37.2642,66.2168,13.1090,64.4557,-11.6831,112.0035,-15.6378,2.2859,-90.4297,-93.0380
35.8095,-1.9206,31.7410,-29.0410,-55.5754,1.4392,25.6577,-16.6770,-54.8791,-16.1461,43.7727,-15.1640,53.7425,-3.9135,110.4240,-15.0680,-37.1846,-93.7196,-68.2171
8.4053,-1.2742,-20.9795,-45.6619,15.2221,-27.0762,81.9294,-10.3263,-37.3015,38.2242,34.2498,1.0728,48.3370,15.5229,48.1814,-4.1152,-66.8712,-51.1617,11.0235
-0.2386,49.9805,-42.5783,-6.4577,79.9501,32.7027,137.1768,52.3662,-2.1517,144.6627,27.6690,47.9103,52.8181,45.2936,26.7250,40.1079,-101.2998,64.7500,71.3667
-14.0948,98.0730,-54.5992,52.3163,95.9202,127.2785,149.6667,132.5603,49.2054,246.3916,-8.1027,77.7471,39.7132,98.7051,59.8956,75.3250,-146.8945,181.3159,91.7053
-47.2988,108.3538,-93.1535,95.4262,108.4957,176.7636,145.4094,175.2608,113.4198,324.6126,-49.9906,94.5251,9.0801,160.6419,54.0498,108.1219,-148.4676,209.2718,126.9104
-49.0268,90.6963,-100.2144,106.0462,155.6049,177.0112,157.3375,167.4565,143.8998,346.5265,-54.1388,89.3548,-0.1628,169.0232,11.5897,157.6021,-69.3195,163.4276,191.7878
-7.0836,50.5140,-38.2198,69.0107,179.7915,151.4591,154.6910,121.4754,150.0808,284.9367,-23.1212,40.9983,23.7511,119.0067,25.7042,168.2357,12.6869,96.0941,232.4636
20.9153,7.8379,15.7168,10.6755,144.9591,133.5643,121.3365,86.6120,168.4962,207.7576,11.0778,-1.3742,51.2644,82.1704,86.3145,132.2130,19.1517,37.2295,219.5351
18.7114,-2.1001,19.5163,-8.4540,102.3849,167.0940,89.4891,104.0204,161.3124,166.7577,32.6846,10.8211,62.8796,79.1547,107.8378,121.2031,-5.2250,-0.6219,167.5568
4.6014,-4.9012,0.2105,-1.9674,58.3864,210.1059,60.1935,116.3950,112.2621,121.7628,38.5873,29.9908,56.8969,65.2344,96.1900,118.7648,-8.6656,-58.2743,82.6008
-32.6838,-44.8504,-54.1221,-29.1480,-33.4278,169.9847,15.7059,52.0589,71.9332,57.7702,18.8211,6.9430,23.8407,31.9958,89.6150,67.1511,-19.3683,-160.1725,-21.0884
-68.3794,-75.0438,-112.7679,-52.7773,-138.3953,74.4423,-27.2036,-42.5689,43.1697,0.1284,-21.1896,-26.3033,-29.8593,0.0462,55.0325,22.7580,-34.0691,-220.0460,-95.6845
-54.6995,-49.1022,-87.2960,-19.1227,-187.0161,12.9130,-63.2261,-92.3988,25.7246,-50.6760,-43.3958,-35.5755,-61.9813,-27.3491,7.4487,25.4023,-19.6824,-192.7510,-125.9212
-38.3174,-32.6400,-34.6742,-0.3873,-183.5513,-29.5440,-99.4749,-113.0451,69.2737,-81.2873,-29.4089,-30.4367,-50.3173,-29.9869,28.7211,-1.9601,-26.0193,-169.4927,-157.6201
-75.7662,-61.2974,-75.2821,-44.7604,-146.7743,-91.1446,-102.0022,-141.9758,127.2381,-72.1621,-15.6090,-18.2309,-29.7334,1.3593,75.7033,-63.4306,-91.8459,-173.7385,-200.3086
-107.0100,-58.6101,-135.7050,-60.2374,-70.4123,-140.7751,-60.8793,-176.6960,106.8831,-50.7384,-26.3231,-2.5414,-30.0476,2.3395,43.1017,-65.0115,-134.3813,-127.7793,-194.4275
-80.6953,-11.1957,-102.3219,-14.7662,18.9289,-170.6011,-33.0527,-213.0051,63.9525,-47.1837,-26.7481,2.3975,-25.8989,-58.2169,-8.5581,-20.7861,-93.3449,-59.5858,-131.8486
-38.8499,-0.9556,-38.1423,-2.6376,77.3044,-183.4027,-38.5960,-233.2655,54.1100,-66.1763,6.9253,-0.4136,5.7412,-85.7821,9.5942,-13.0570,-24.9897,-39.9791,-86.2017
-3.0375,-29.8136,-9.8730,-37.7974,85.7593,-118.6763,-47.3575,-195.8619,0.2048,-98.4797,33.8109,-1.2456,28.3879,-24.9866,16.0258,-19.6320,22.0411,-17.1870,-71.0588
30.3547,-35.2069,14.0647,-41.5259,44.4092,23.1687,-61.3652,-114.5363,-75.7912,-103.6604,14.9086,-12.2434,5.5538,31.5795,-36.7059,3.5587,51.8824,43.9297,-21.2468
32.2001,-18.7331,26.8365,-5.0211,-17.6504,129.8900,-73.5540,-63.8974,-62.6890,-84.1309,-18.2488,-26.9448,-26.6116,30.7253,-47.8101,15.0949,57.9237,68.7438,48.2846
14.5528,-1.0656,8.8111,30.8876,-75.4964,157.7407,-55.7200,-67.1122,-34.1482,-116.1080,-16.1531,-9.4983,-23.8519,44.4919,-15.4487,-7.3624,43.3350,35.3935,51.6557
15.4032,21.7617,-8.8775,53.3017,-157.6332,158.1078,-60.0995,-79.7395,-90.9829,-169.7983,-2.8477,24.9635,-26.8362,77.4224,-45.0824,-20.4850,36.2124,2.1297,11.8491
3.7863,30.3527,-30.2163,57.4380,-257.0787,136.3154,-137.4665,-86.7942,-122.8933,-118.2661,-35.6110,17.9446,-84.7891,42.0095,-106.1688,-13.1553,42.5991,-4.6468,30.0213
-24.5775,30.4563,-55.0377,62.3172,-279.5039,85.0749,-187.3265,-103.4319,-63.6216,4.9875,-82.0112,-13.0218,-136.9047,-32.8017,-110.7115,-7.8567,57.1873,22.0681,101.1599
-0.5634,67.7844,-23.6151,95.4799,-190.9945,51.5459,-116.1868,-100.5553,-21.6527,81.1350,-62.5627,1.1763,-103.3159,-32.7286,-90.9391,9.7663,74.9188,74.3857,147.0348
49.3632,105.8880,32.2038,109.0467,-70.3606,42.4554,-9.4372,-49.5208,-11.4621,147.4814,-10.7002,34.1244,-31.2178,22.1468,-70.7086,56.8591,62.6482,95.9464,160.8943
33.4842,72.5302,9.3289,53.2563,24.0330,12.7873,38.7761,-2.3632,31.4397,240.8275,-16.0730,11.0685,-6.3896,27.5600,-5.1042,99.8507,11.3381,75.0292,169.3893
-5.2116,26.3102,-45.7700,-2.0247,81.8421,-30.0991,58.4823,-8.6139,41.5587,257.2032,-40.8228,-25.1868,-6.1010,-12.5031,61.8944,102.2150,-19.6122,74.3025,155.4575
18.1013,56.6867,-20.2019,21.3354,97.9691,-47.8131,66.5136,-20.5650,-29.1185,183.9435,0.9090,14.2294,24.0709,-25.8937,46.0297,79.4181,6.8910,98.0808,113.5536
61.0753,113.7365,53.4012,83.6821,101.7359,-33.3053,20.5953,9.0341,-85.9542,141.8811,60.8973,88.3985,55.1222,3.5856,-9.6076,69.4321,50.3668,94.0876,74.3923
65.8499,121.7867,86.9205,114.8099,110.1402,18.2639,-58.6079,45.9347,-88.4026,155.4303,57.4764,107.9529,47.7180,50.8694,-21.5647,81.2984,58.3895,72.2096,52.4227
47.8593,102.8303,62.7941,100.0992,84.5643,104.6374,-84.7848,73.7076,-87.9676,160.0740,30.2416,96.1848,31.3811,87.7710,-0.0296,94.0209,16.4327,70.8204,47.8732
20.6889,89.6911,4.7779,68.7951,43.2837,188.7345,-27.0704,122.2751,-79.0117,132.4102,39.4650,114.6007,39.9967,101.6312,10.7588,88.1778,-33.5873,80.7631,55.2110
5.9079,84.1626,-19.4239,76.4935,45.2540,241.5257,37.6931,165.7102,-47.4852,79.0087,61.5955,145.8912,56.6970,124.5334,-2.0779,68.5487,-19.2335,81.3807,40.2063
32.8229,95.7444,32.7818,127.7451,33.6680,251.3989,18.9444,156.3633,-37.2566,34.8150,61.4130,148.3868,51.5126,162.3184,-24.5215,60.0908,40.3931,66.7147,-7.8459
50.4146,103.0124,64.4325,131.1332,-53.4648,199.8672,-49.4644,120.3909,-47.1553,35.0695,38.7780,115.9761,22.7696,134.6848,-14.1079,77.2133,32.1910,37.4038,-35.2013
5.2871,66.6353,-3.5440,48.4906,-116.4936,108.2773,-64.3341,88.1178,-28.2019,38.0964,6.2672,64.5207,-2.4938,30.4959,46.2211,99.8147,-54.7777,14.6499,-19.0598
-46.5139,20.0805,-78.3794,-18.8127,-76.3383,35.2160,-35.8614,45.8472,12.9344,15.0555,-14.3997,34.2844,-5.3754,-14.5381,92.3886,95.6755,-109.7524,21.2471,-7.0521
-63.8353,17.2337,-93.9828,-3.4820,-5.4726,-13.8245,-27.3807,14.1305,41.5431,14.7330,-21.6780,50.0503,-5.3091,43.1989,67.6554,57.6830,-104.9325,53.6290,-5.1527
-87.0270,28.8429,-107.4054,27.8256,58.8306,-66.4247,8.3725,14.3806,65.3609,22.9467,-38.1032,61.3272,-14.3965,62.0567,21.3547,1.1028,-104.9601,94.0050,31.2086
-102.3075,14.9769,-105.0218,22.9388,151.4125,-100.4438,98.5567,2.8108,101.8029,-16.4252,-45.2165,26.3292,-0.0106,-4.6387,26.9489,-54.1059,-107.3465,116.2494,82.5117
-57.6253,10.1324,-23.6914,32.4604,228.9621,-81.5297,140.1697,-18.1585,131.1542,-56.2062,-12.2401,2.6283,42.8551,-17.5236,52.2091,-82.1360,-57.5052,114.0309,98.7543
13.9678,43.4185,79.1125,96.9080,233.7327,-13.3579,112.7789,22.3224,119.8789,-62.5104,23.9819,34.7052,62.7540,67.5854,14.1412,-64.8673,46.8240,131.7912,108.4071
63.8035,75.8641,131.9652,159.7643,202.9326,83.2594,122.0957,96.1525,83.9170,-89.4314,32.9994,62.1841,55.4680,119.1287,-48.7783,-17.3332,156.0689,180.8031,151.3881
99.1098,74.1562,162.0757,156.6868,179.3116,159.7587,166.4040,112.9999,87.6160,-105.6480,51.0482,40.8812,75.4774,80.4546,-2.3957,27.7301,207.5751,184.7262,182.7030
107.7310,64.2969,172.8799,132.0074,156.6069,160.7941,172.0256,99.2430,137.3417,-45.4603,74.8772,19.9290,113.8542,48.6132,139.9503,55.6185,182.5644,110.5558,152.6581
74.8423,78.4425,131.6127,162.8996,117.1412,111.6192,163.0583,105.3849,158.6330,13.1904,59.5681,38.8162,109.6321,80.6082,201.9245,68.7595,145.2865,27.4790,89.6225
46.3712,100.4121,79.6270,205.0583,32.7701,76.3029,145.5120,74.0843,131.0035,2.0386,36.2522,67.8190,69.8490,108.5715,138.2734,65.3864,141.4047,-20.8958,39.5353
45.1110,92.7016,64.9697,166.9324,-78.4102,45.1801,63.8393,-5.7490,112.2192,-13.7152,47.3833,68.5387,41.5530,71.2345,81.3655,42.0750,122.9322,-48.5915,13.2137
31.4108,49.7713,53.7805,76.2706,-124.2441,-8.7078,-17.6253,-30.0798,112.4866,-5.6590,45.9989,35.8457,21.4014,8.8911,71.7303,13.3519,67.6588,-53.2738,13.5332
0.9124,-5.4557,13.8295,1.7855,-86.6855,-53.4285,0.8865,19.0543,97.4094,-5.1200,5.0443,-12.7815,-5.4274,-17.2070,46.3953,3.6320,28.4594,-31.3975,41.8918
-12.0598,-53.7273,-27.7956,-66.6186,-47.0711,-74.2738,48.1798,40.6705,70.7667,2.7458,-24.1870,-55.8243,-19.6517,-19.9045,29.4389,9.0867,16.1556,7.5115,83.1675
-6.8648,-78.1572,-36.2243,-120.6092,-7.2430,-90.4067,32.9393,9.4958,36.8399,5.8613,-23.3832,-77.3678,-12.0278,-29.9197,49.7925,3.1660,3.9808,62.6917,118.1247
3.1113,-65.5439,-7.6598,-104.1949,76.9390,-77.3783,4.2837,-5.1507,-13.8381,-34.5065,-13.9059,-63.8188,5.2740,-24.2292,40.6622,-8.0920,9.0961,100.4363,129.7389
13.2243,-33.8092,24.6341,-47.0563,133.9691,-13.5701,2.0306,21.4659,-42.0532,-67.4911,6.9327,-21.3703,25.1642,2.0024,6.1899,0.5729,28.3681,81.9294,107.3894
6.1898,-19.6455,22.1332,-28.3793,95.7549,55.2826,-7.8994,55.7348,-20.3683,-45.9566,20.2252,3.4178,31.1796,0.1013,25.4939,7.6480,12.1911,51.3391,74.4973
-18.4349,-32.2028,-5.4546,-43.0822,31.6860,93.5350,-27.4063,71.5737,-6.2272,-20.5371,-7.4949,-18.7534,5.7341,-23.2211,50.8305,-15.4811,-29.5731,46.1999,73.4247
-33.5350,-53.1808,-26.7885,-58.3530,-8.3786,106.6281,-49.1624,60.5316,-31.1174,-16.0579,-43.8187,-48.8329,-33.3926,-13.6087,-3.4262,-34.3508,-48.2357,13.9039,101.9043
-38.6833,-69.7568,-43.9347,-85.8462,-76.4998,78.8357,-93.7804,29.7103,-34.9347,-6.7200,-51.2155,-56.5710,-64.2930,-4.1322,-71.8735,-22.5122,-55.1196,-46.0307,120.6179
-49.5516,-81.8647,-61.7856,-120.3606,-178.5764,7.6594,-137.8723,5.1516,10.3282,2.4377,-58.2136,-71.4503,-94.1999,-50.7701,-76.9854,-18.8923,-67.1241,-55.4765,122.0664
-53.1515,-89.6313,-68.9465,-136.0444,-245.6603,-55.5668,-139.9707,2.3856,52.3802,26.1225,-73.8836,-96.4406,-116.2917,-90.0791,-55.5645,-32.2211,-59.3926,-32.0487,123.4745
-46.2583,-83.9077,-77.2126,-131.7517,-247.7265,-92.8315,-119.8815,1.4322,58.9913,100.4956,-67.5394,-90.1167,-107.0921,-63.0145,-28.9279,-17.1263,-45.5877,-55.5777,113.6476
-53.3276,-58.8734,-98.4343,-111.4936,-209.2486,-142.3335,-109.0388,-25.5812,49.1202,188.2071,-55.5631,-63.9011,-83.7096,-48.4606,17.2903,17.0370,-69.0770,-109.9718,72.6363
-65.3677,-37.7992,-103.9933,-95.0182,-159.7486,-201.0004,-94.9925,-66.2580,42.5061,227.1004,-60.2618,-65.3821,-74.7757,-101.7359,38.3188,21.4573,-109.8545,-139.5184,13.2327
-47.9041,-49.3702,-74.4044,-120.6965,-107.8665,-217.2358,-54.0022,-74.4509,49.3005,204.9241,-44.9149,-82.3493,-58.6222,-141.6618,9.4622,11.3894,-117.8757,-133.9587,-37.9649
-14.7117,-77.9926,-36.4454,-160.3103,-39.7216,-164.7313,8.7935,-33.5768,70.8743,126.8621,-4.6700,-77.8496,-18.2240,-105.6632,-12.6403,23.9588,-95.2777,-97.0103,-66.4146
-10.3180,-91.7058,-21.5178,-145.8344,23.4246,-56.8838,39.6695,27.7870,85.4201,34.0056,2.2330,-60.9232,4.4218,-33.5571,-3.2651,44.1244,-73.0801,-64.3856,-67.7385
-34.7622,-96.0605,-34.4237,-102.8682,12.7977,57.1408,-5.0810,86.4422,71.9873,-8.3958,-27.7335,-48.9989,-15.7503,23.2008,6.4175,54.3336,-59.8746,-84.8340,-54.6726
-50.4707,-106.8879,-55.9230,-100.4946,-67.9609,107.6066,-68.9653,125.0420,41.9511,-22.1342,-38.5735,-40.5274,-40.5306,34.5739,7.6737,62.3449,-44.5471,-126.3562,-55.2087
-44.4661,-116.9381,-60.4625,-122.9745,-124.0298,82.1288,-85.7096,109.7012,15.0570,-64.6204,-25.7275,-43.2227,-45.9713,-3.4541,-2.4116,59.5390,-22.2747,-138.0554,-79.9972
-34.4413,-116.2083,-49.0590,-124.5260,-128.4820,44.3684,-99.4769,55.0717,-12.2169,-97.9802,-23.4122,-52.1416,-52.8692,-31.8770,-34.0831,35.7766,-5.4592,-130.2668,-105.6394
-26.3778,-95.0221,-40.6834,-103.2755,-137.3829,40.3890,-132.2641,43.0238,-43.3825,-73.7830,-26.7367,-36.7031,-63.0664,-8.0161,-58.5038,7.5941,2.0383,-82.0399,-95.3630
-13.1852,-51.5763,-32.6560,-65.4487,-139.9352,58.0548,-102.0334,90.0528,-54.7161,-28.3831,-22.8525,-8.9620,-56.7426,6.0735,-44.6912,-12.3002,16.9705,31.0478,-37.7898
-3.4119,-18.7858,-14.3199,-22.9857,-78.6254,68.2202,-8.0582,109.5331,-30.6123,-5.3739,-29.9383,-19.8428,-39.9392,-38.1567,-8.0217,-26.1367,35.9636,116.2897,24.1245
2.1382,-8.2687,13.7250,9.4385,22.8704,42.4700,56.3920,68.5734,1.6103,-7.6818,-39.8947,-49.1835,-18.1750,-73.0323,33.9829,-32.9674,42.5315,119.6949,35.5644
29.7930,29.8175,56.6501,54.7290,107.7445,-22.2955,101.2001,34.2827,16.6307,-7.7949,-10.3462,-23.5913,27.0390,-41.7486,68.7714,-33.6399,57.7775,140.8300,11.8048
70.4216,87.7909,100.6237,107.3440,173.2911,-77.1510,167.7985,34.2689,33.5805,26.9427,40.8760,34.3294,77.0038,8.8995,64.0122,-27.6085,90.2152,192.3079,7.8285
72.1534,71.5080,105.0156,92.5475,211.2609,-82.0436,182.7468,26.6997,67.8050,48.1117,43.8814,27.5767,79.3158,28.8619,29.3342,-9.3220,90.7246,155.6996,15.9310
44.4193,-12.8565,81.3649,12.0837,191.3065,-52.6564,121.5189,8.9631,90.6604,-9.9223,10.1714,-35.5624,50.4110,26.5654,32.3736,9.9208,57.5156,60.4667,-3.6614
50.1005,-46.0949,88.2123,-25.1544,154.1080,5.9810,88.2087,26.4061,81.7013,-54.8430,20.6150,-52.9522,60.5757,20.3272,90.4884,19.4958,61.0336,30.7806,-30.9472
81.2324,-13.7670,123.8793,9.5549,170.3592,112.7698,105.8845,86.4789,64.1572,10.2259,72.3366,-9.6489,106.9693,26.0246,137.3690,37.6504,99.6338,16.3907,-40.9608
87.5558,1.3263,146.4771,47.7911,194.9032,225.2264,91.8139,138.5011,51.9496,64.3162,95.8943,24.7710,125.0222,59.6564,117.9418,62.9442,106.5535,-83.4029,-73.1652
82.2621,0.8574,155.4210,73.6070,118.0322,265.9395,30.3983,128.0062,20.5306,3.1077,89.6358,36.2949,100.6418,101.8606,50.3094,56.8831,90.8893,-205.0510,-142.8346
82.8867,18.2681,143.0292,93.2921,-49.6621,235.2777,-42.8690,59.7582,-38.2885,-65.6450,80.5564,46.1501,59.6633,116.3573,-4.2040,22.5881,84.1544,-256.0689,-190.2742
56.6643,12.2852,78.3017,64.5074,-182.8066,187.9920,-107.0903,0.7482,-89.5016,-73.1050,47.8544,35.9511,10.1256,106.6723,-19.1433,6.5137,47.3984,-246.3318,-187.6378
13.3258,-22.7342,-1.2050,-0.5108,-199.5960,137.6526,-108.4513,-12.0567,-110.0952,-80.4576,5.8449,10.5726,-25.2182,90.0448,-35.6857,9.3691,-16.5679,-205.2126,-176.9288
4.5985,-19.7978,-23.3302,-18.1129,-116.3806,71.0882,-23.8532,-23.0567,-113.1936,-88.0627,14.0290,14.7039,-10.3760,48.9052,-71.6796,-4.8254,-29.2784,-150.8921,-171.9043
19.2785,20.8756,5.2346,20.8935,-1.6526,4.0124,61.2588,-61.1146,-97.6571,-79.7174,56.0973,37.4560,36.3697,-21.3000,-67.3858,-38.3854,9.8579,-106.9644,-135.3697
18.4601,39.6952,32.6011,51.9983,70.4495,-31.7589,89.8622,-79.9579,-47.8301,-102.8445,69.4899,37.0950,64.1451,-64.3369,-12.6740,-69.8681,31.5970,-64.0352,-62.6442
9.7758,36.3525,35.2969,66.1334,83.4374,-18.1556,104.5561,-55.5279,7.5622,-128.3070,53.0529,31.6860,58.0806,-34.4233,0.3336,-81.1470,40.0584,-12.6937,-1.4621
3.5420,40.1025,17.7707,98.2335,88.6472,41.4966,111.1532,-27.1246,26.3027,-91.4977,26.6958,44.3586,31.1824,30.4271,-51.3344,-56.1213,72.9417,16.6753,19.6025
6.6128,50.9516,23.0696,139.8185,108.7110,119.2303,79.3719,-5.5399,24.5081,-44.8631,2.5177,51.2538,11.8527,68.3181,-65.7845,-7.4944,110.4591,28.0706,30.8650
51.6810,71.6821,90.8624,157.3216,116.1632,178.5675,63.0534,36.3699,28.1596,-27.2608,25.9473,52.9516,42.8616,80.7360,2.1324,27.8603,135.8071,58.6537,64.6369
121.9145,99.3115,165.1467,148.3349,120.1611,200.2714,109.9990,82.3566,19.3099,16.2587,98.2847,74.8203,112.6018,102.1748,70.6509,48.4021,159.4453,79.3615,90.3620
144.9846,109.3543,172.0293,135.1782,131.8987,180.7589,141.8645,90.4440,1.5071,65.2776,135.6470,99.3756,142.5435,125.2173,65.2711,76.4450,160.7458,47.5914,65.8566
120.9543,107.8136,144.7005,128.7737,86.1423,121.9770,90.2915,58.5154,7.6292,52.2469,115.2653,103.7600,105.9762,109.5587,4.6163,97.0079,129.1673,9.2900,21.7153
102.0091,109.9751,122.5357,110.5199,-39.0783,34.4621,14.7978,3.6869,17.2648,22.6621,96.5105,94.0260,56.8587,43.9585,-38.6063,79.2148,103.4426,8.4820,5.0659
72.6088,79.4994,65.9126,54.4052,-132.3083,-64.8584,-22.8874,-64.5236,-3.5926,30.2624,73.7234,56.4239,20.8537,-31.2013,-21.5313,26.4504,83.6048,5.4177,-9.5841
11.2315,4.7228,-17.1282,-26.2716,-121.9403,-156.8825,-43.6902,-124.3630,-21.7452,23.8956,12.5817,-13.6078,-17.8281,-68.2131,12.6990,-32.7812,22.1537,-17.8550,-55.9125
-30.7041,-43.1446,-52.9164,-78.5281,-76.5997,-220.9317,-53.6661,-156.4630,-6.8093,-26.0244,-35.7254,-60.6214,-43.6764,-76.9203,4.4148,-64.1110,-57.9516,-16.1998,-103.1749
-22.7550,-27.3272,-34.7510,-73.5465,-44.3076,-252.8389,-20.3718,-171.2619,14.5337,-61.4402,-26.3463,-56.2928,-32.7658,-107.5127,-17.3592,-50.4604,-77.0141,6.6878,-128.1112
3.8454,-3.6170,1.2525,-44.7105,8.4527,-273.6628,27.3802,-186.1974,21.4522,-42.0746,1.3901,-49.1244,-3.7253,-152.7783,-8.1908,-28.6290,-33.7567,-6.6516,-159.3171
27.9976,-10.9474,45.6635,-39.3237,63.7892,-286.9456,18.6542,-200.4421,2.7273,-8.7912,15.6882,-59.1568,11.9454,-143.7723,-19.7137,-48.6459,-4.8989,-57.8371,-207.3143
34.3955,-28.9000,57.7460,-58.1038,51.0656,-251.2239,-40.0447,-195.3776,-57.1454,-28.4059,20.9150,-47.5813,3.0855,-64.4502,-94.2924,-89.6623,-29.1628,-100.9596,-244.3373
3.3546,-45.2989,1.3841,-72.4691,-22.3638,-143.0359,-86.5438,-148.4739,-114.5749,-95.6964,12.0443,-10.6890,-20.2777,24.0175,-149.2697,-94.2467,-70.4919,-121.5711,-250.6456
-33.6827,-61.3564,-55.2765,-68.5576,-74.6147,-15.5608,-111.9612,-74.0397,-113.5567,-141.4831,0.7645,16.9909,-29.5726,73.6718,-104.8383,-64.5662,-71.4159,-122.3599,-225.2439
-31.3925,-55.3712,-42.0226,-36.0460,-73.1509,62.7006,-139.2496,-26.9693,-97.0577,-158.1053,13.0174,35.1440,-11.7114,80.9457,-19.1604,-43.6820,-14.9997,-101.8214,-190.5249
-7.5901,-13.9018,-0.4983,32.2952,-84.9301,89.1879,-155.3266,-26.2699,-111.5100,-186.4729,33.9679,62.5904,3.5532,69.3304,10.3534,-39.8459,52.3629,-90.0285,-180.7789
1.8035,24.1746,8.8550,87.7524,-177.0415,83.5380,-156.5794,-39.4695,-99.5297,-188.8425,33.0304,81.3149,-13.7301,79.7833,-16.4992,-36.9801,75.6674,-117.4330,-179.0947
-8.5524,7.8093,-17.4044,59.5430,-285.0642,20.1290,-177.7889,-62.7365,-36.4017,-123.5408,9.1884,58.1645,-54.1871,102.8624,-43.1830,-40.1922,57.5016,-148.1766,-142.2762
-36.2137,-39.5428,-59.3991,-21.6662,-279.3067,-103.0271,-210.4871,-109.5777,-1.1957,-58.4721,-24.4569,9.8617,-89.0672,66.9108,-58.4515,-57.1281,18.9810,-123.3794,-111.4477
-65.6435,-34.8924,-89.6102,-50.7645,-173.9884,-189.5691,-192.8533,-134.6070,-20.3932,-38.5534,-52.0763,-2.4175,-98.6957,-15.7646,-83.6344,-63.9045,-58.9827,-32.0430,-156.9709
-80.8277,28.8607,-108.7214,-13.1322,-96.7240,-157.9728,-118.6245,-94.4726,-27.8523,-8.0496,-67.9771,36.6899,-89.2574,-37.5113,-98.7801,-36.0276,-168.2846,95.8355,-224.9080
-100.2618,57.5894,-147.1106,12.0915,-53.1321,-77.7068,-53.2778,-40.2782,3.5249,43.7223,-86.0007,62.9041,-81.6640,-4.0152,-63.8787,1.7890,-218.6917,191.1790,-210.0018
-115.6208,14.7091,-159.5547,-5.5768,39.5469,-71.6998,-27.3740,-44.6464,36.0963,50.7937,-90.0011,29.6955,-65.3413,-28.7047,-0.7043,2.6570,-159.0457,169.4264,-133.2533
-76.3274,-30.9867,-77.3194,-36.1547,130.3928,-134.8449,-9.1947,-98.3013,39.7966,-12.5548,-42.9844,-25.1276,-16.1781,-97.0599,29.7029,-34.2541,-71.6603,47.2741,-85.2672
-14.6613,-48.6976,11.5928,-70.7173,113.2652,-168.2358,11.3586,-140.6349,19.8897,-104.1902,17.8211,-51.1047,30.0374,-100.3950,15.9877,-71.0716,-47.5589,-51.9838,-76.0606
-14.9902,-70.7013,-6.2259,-105.6412,38.2164,-141.7547,2.3606,-139.5246,3.0247,-150.2716,26.2169,-49.6253,22.8184,-58.9810,-13.4439,-88.7250,-63.3827,-79.1758,-67.8703
-39.3229,-82.7510,-42.1846,-111.4887,9.0012,-108.9450,-29.5422,-117.4078,-4.5374,-108.9809,11.7146,-43.5510,-5.3299,-64.2727,-51.2381,-88.7674,-55.9893,-101.8049,-55.0711
-4.4112,-54.3447,7.5685,-83.5118,-4.6241,-102.9962,-32.1060,-109.3336,-20.6726,-37.0971,28.1699,-43.7920,-4.8726,-99.1085,-94.9493,-71.4398,-18.0184,-146.8428,-28.4028
38.4857,-24.2411,53.1487,-58.6339,-78.1735,-113.0305,-15.9430,-101.1556,-20.2715,0.3823,42.1520,-47.7787,-6.4393,-98.9645,-118.6467,-47.9979,20.9840,-171.6303,35.7098
13.6491,-33.4958,13.8263,-66.1144,-184.7633,-130.9408,-52.0755,-61.1445,30.1867,28.0423,16.1699,-47.7461,-44.7347,-73.6712,-108.7287,-34.4383,24.7773,-164.0150,104.4513
-31.1824,-60.8171,-40.3438,-106.7037,-236.4879,-155.1420,-115.2266,-22.0928,65.6892,47.1005,-18.2064,-52.0510,-80.6744,-67.0829,-86.2005,-28.5963,-26.1059,-134.8947,107.0768
-32.1457,-79.2863,-50.0889,-156.0236,-187.3243,-175.6411,-91.1290,-33.6210,19.7099,1.3010,-28.0033,-75.6317,-70.1706,-87.7891,-68.8648,-29.2846,-88.7066,-84.6410,45.1256
-5.6413,-84.9511,-26.8507,-173.9396,-69.2876,-190.2065,13.6006,-71.1855,-36.3956,-73.5682,-13.4852,-100.5194,-24.4482,-111.8309,-47.7487,-44.7757,-100.4444,-41.4332,-12.1422
10.5884,-76.1064,7.6502,-150.9017,47.6644,-201.3400,70.3143,-88.9785,-33.2845,-89.9981,9.4470,-96.4871,18.0317,-116.2169,-21.4433,-63.1243,-79.1840,-31.7879,-44.2001
-3.7661,-64.5801,9.1267,-121.8140,139.2546,-188.6781,55.4814,-81.1020,-27.2611,-55.5472,11.4386,-71.3277,30.3392,-107.2487,-14.6201,-66.7835,-82.2739,-24.7478,-83.3421
-38.3667,-63.7967,-29.2267,-103.2223,221.1291,-130.4606,54.1607,-39.4610,-39.1015,-5.2555,-10.7228,-50.7858,22.8629,-96.3777,-20.9480,-60.5976,-97.3136,4.4444,-110.8967
-45.9045,-60.0759,-28.9288,-76.1348,259.8356,-46.7551,68.3348,34.7309,4.4010,57.5993,-19.0945,-39.5311,27.5341,-64.6408,12.8188,-39.5289,-78.6571,27.2452,-76.1429
-14.2165,-43.7144,23.9054,-41.2292,208.5645,25.6605,41.5799,92.8530,85.0525,93.7260,-6.4159,-29.9219,38.8385,-5.6108,76.7713,11.8937,-34.7543,29.1948,-9.6044
12.5349,-26.5242,47.4082,-16.6362,110.3110,81.7076,-5.9845,112.7413,90.1155,82.4882,-4.8911,-16.2477,25.8315,45.5792,81.2863,66.4465,-1.8641,28.6454,12.2618
21.8927,-10.0909,38.9650,0.9159,30.1204,128.6684,-38.6904,127.3823,13.1630,71.4773,-16.6910,-2.1730,-2.0189,69.2470,26.7132,81.2386,7.9528,27.1768,-4.0504
30.6584,3.3788,45.7656,12.5949,-47.8977,153.3655,-80.1147,138.2542,-41.6929,71.1867,-24.9496,-1.5528,-22.2760,73.5403,8.3310,63.2425,9.2132,25.1030,10.9625
25.1876,-0.6500,34.4871,6.7203,-138.3775,151.1896,-128.2840,128.6015,-26.4499,67.3558,-35.2591,-9.6329,-49.9508,60.1867,12.2119,47.2793,31.8549,49.1895,76.4089
8.2476,-5.5439,-4.0656,1.2939,-182.1133,146.7499,-135.4615,130.9462,15.9704,102.5441,-52.9820,-5.7813,-88.5116,46.3716,-41.4696,57.2688,70.9402,107.8798,146.5465
4.6798,18.3625,-11.8880,23.6248,-141.8216,147.5320,-99.7100,160.5737,43.5424,174.8655,-77.6515,0.1349,-105.4727,51.5862,-85.9184,97.7056,57.6085,164.7184,174.3382
-16.8033,43.6735,-18.0609,47.2560,-58.3837,122.0372,-53.8566,172.8023,60.1177,201.2266,-114.5847,-14.5645,-96.2219,42.3525,-28.0092,124.5438,-39.3334,185.1370,158.5183
-83.8221,23.8849,-88.3109,22.7977,21.5462,60.0495,3.9834,149.4660,76.9340,162.2755,-147.3122,-38.1884,-87.5433,-5.4449,42.4853,86.8588,-144.4203,176.8655,143.7182
-133.2986,-25.9307,-163.7743,-46.5860,88.1034,11.7345,78.0516,120.6858,74.5180,111.3262,-148.9152,-56.1526,-79.3340,-43.4026,24.7843,32.0930,-192.3011,166.1012,158.5333
-120.8657,-62.2628,-169.1484,-112.6087,138.5433,26.3893,128.0692,113.0424,37.2841,80.7695,-130.6740,-75.8763,-60.0598,-45.1283,-17.3722,41.6303,-208.2437,149.2222,171.4825
-96.5742,-76.2394,-139.5946,-138.9721,153.3733,87.4354,113.7204,142.3281,-1.0408,89.5512,-119.1133,-87.7598,-47.6313,-41.3634,-23.6541,82.9531,-216.2743,106.0115,151.9572
-90.6999,-75.5478,-118.3263,-123.5009,121.8448,146.5147,55.5833,185.7624,-2.6726,129.8693,-108.6530,-69.7338,-53.2121,-23.0780,-35.0571,84.4626,-195.1364,56.7390,114.6230
-74.1426,-54.5052,-98.3269,-79.6509,89.5557,185.8968,18.0193,176.1974,7.0871,149.5726,-78.2657,-21.8120,-47.4168,36.6100,-62.9872,66.9024,-143.6566,37.2698,64.4699
-44.2116,-10.6384,-77.8940,-14.3460,112.0112,211.4058,20.2320,109.2146,-25.5328,133.8686,-27.6953,44.0940,-10.0917,102.6082,-71.8172,60.6897,-84.7778,29.6713,-7.4962
-24.8835,37.8445,-57.9061,61.8152,139.2361,219.6523,1.4799,54.6324,-100.1020,100.8598,14.6315,105.8590,25.7139,140.3231,-58.2915,39.0861,-31.0701,2.9946,-71.5379
-18.7642,71.1536,-41.5337,118.7527,77.2176,201.2820,-72.4390,23.4164,-162.6266,37.8264,25.7283,138.0553,25.3613,154.4504,-32.4645,13.1321,3.9596,-22.2990,-100.8589
-18.6613,91.2934,-46.8094,135.1212,-30.0300,153.3251,-134.1904,-16.0325,-185.3095,-33.4930,27.4833,150.9698,11.2270,133.7717,-5.2684,25.9712,12.3348,-27.2883,-112.3599
-18.3006,100.6812,-57.8149,118.4180,-61.2492,85.9230,-124.6215,-35.0494,-193.1671,-63.9979,39.3826,155.4324,14.2095,89.1357,-6.8173,48.7374,0.6734,-26.4960,-99.3400
-16.2136,84.0064,-47.4317,80.3083,-14.7591,30.8183,-73.1283,-20.9925,-187.0121,-83.3426,31.2428,123.8753,18.1019,79.0805,-37.6328,29.5996,-37.1442,-10.0193,-34.0235
-28.9713,51.6155,-50.9021,38.1372,42.8060,16.2341,-6.2750,-27.5620,-123.3355,-111.4944,5.3772,77.3010,15.8544,97.3809,-54.6107,-8.6315,-96.2562,31.9546,43.3313
-59.7465,39.7064,-94.3335,18.5586,106.5156,31.1526,78.5019,-47.0690,-24.4861,-85.7016,15.5538,81.2857,37.9521,81.8788,-30.3718,-15.0578,-131.4325,50.3014,73.6563
-82.4892,31.5619,-131.9640,5.5085,161.4269,53.6311,129.8848,-13.4588,17.2781,-18.2579,37.2757,98.7020,67.8011,55.1452,24.6803,15.3752,-132.9255,17.8717,80.9581
-92.5072,-14.1961,-143.2277,-40.3506,145.9822,84.2635,94.2963,51.6620,-5.5435,6.6975,0.1877,53.1790,46.7359,68.9106,62.6632,45.0255,-148.3667,-13.3895,103.7446
-101.3864,-56.1297,-146.7847,-81.1446,69.1156,111.4532,16.6613,73.6015,-24.1429,-6.1466,-48.2542,3.9008,-6.3460,77.2402,35.1823,32.4530,-166.1312,-16.1707,113.5898
-87.1239,-33.4404,-116.7684,-48.3725,7.7452,107.5414,-35.0961,46.8651,-49.1985,-40.8509,-26.2852,26.2461,-17.4598,40.7134,-16.0759,-14.1507,-119.0419,-24.9494,84.2459
-38.9094,18.5179,-45.2584,28.8271,-11.8085,85.1566,-55.0943,5.6778,-115.6364,-125.4219,23.3440,64.8193,13.4814,23.2236,-14.1222,-40.3594,-27.8080,-44.7419,39.2897
-0.7429,51.4710,0.7033,83.6911,-22.3839,75.3348,-48.7966,-31.2060,-149.7528,-183.2835,40.5251,78.6545,33.3392,55.1533,6.4289,-32.0945,22.4331,-49.8610,6.5943
1.0388,82.9057,-2.2460,116.9030,-56.5382,58.4398,-22.9969,-51.2584,-93.3205,-129.8989,46.9106,99.9277,28.4756,58.0744,-13.7694,-31.4539,24.4504,-42.0405,3.3367
-4.3870,107.5933,-1.0105,135.3788,-109.2792,5.2768,-13.8192,-63.2844,-23.9580,-64.0798,47.0253,100.0617,12.3529,-5.1076,-20.9887,-55.5080,31.2169,-22.3695,36.2662
3.7059,91.8043,17.5011,122.1389,-122.1808,-56.1582,-15.4151,-85.0256,-4.4597,-72.0830,24.7562,50.6192,-0.6639,-45.9561,18.3746,-79.2842,57.1778,12.6729,79.1670
16.6884,65.5289,25.3081,102.7229,-58.9133,-88.9898,27.0355,-93.9934,11.7299,-66.1565,19.8534,26.4765,12.8231,5.3639,34.8354,-76.8103,81.7256,24.3576,101.3709
34.3784,72.2518,34.6492,101.8403,22.2660,-96.6585,96.1451,-65.3248,54.0582,6.3651,57.4081,60.3618,52.0664,72.6724,10.9208,-32.9553,89.4094,-6.9831,107.5241
61.4797,89.2369,67.2243,87.3740,66.1648,-83.2767,122.3342,-22.5627,86.6696,80.6555,98.7441,84.0717,83.0230,50.3554,-8.5695,34.1586,83.0294,-18.8100,110.5647
83.4035,86.8729,97.1509,55.5985,96.9647,-36.7609,114.3790,11.9422,89.7152,114.8367,118.1548,79.5562,91.1742,-16.8975,-29.1004,72.4856,90.5323,25.5704,116.7732
83.8920,71.7579,94.6623,56.2762,125.6961,37.7859,114.1948,44.5563,68.2291,103.1873,113.3481,78.8997,86.7974,-7.6276,-41.8196,63.4781,133.7775,67.3623,134.8230
80.3018,61.9245,91.3575,103.7266,129.8062,115.6284,99.3494,66.8058,21.6103,64.1281,84.6013,74.4752,76.5961,73.0396,-7.4242,35.6902,193.2367,69.8448,136.8936
108.9984,83.1615,142.8468,167.5737,129.0540,166.1662,54.1966,59.4655,-36.5420,59.8947,70.7896,70.2022,75.6107,119.0188,26.0666,13.7415,236.0812,64.9150,76.2794
154.6319,125.8943,216.8058,201.1819,134.0159,154.7022,16.1592,24.4530,-73.3542,87.7330,99.4533,84.0792,92.1480,88.7803,3.8460,15.9856,236.7253,45.9183,-10.2121
144.8733,123.1357,206.4696,154.9402,96.4372,71.2293,-9.3851,-26.7752,-64.5618,71.7480,119.4794,82.6665,93.5921,17.5725,-21.4501,37.2808,170.6644,-27.2001,-38.6595
63.5552,65.0405,101.0472,62.1536,4.0543,-38.3806,-46.2551,-80.0218,-16.9450,19.8841,88.7848,50.9507,52.6312,-43.7294,-23.7446,17.2848,60.5137,-116.0384,-24.2957
-8.2605,29.1396,11.3021,26.6964,-98.1639,-106.0833,-74.4136,-117.0193,20.9661,-14.0994,40.2005,30.6501,-3.2036,-47.0077,-45.3179,-60.7578,-14.3440,-142.6400,-36.9561
-13.0376,39.2191,-6.5341,47.4056,-175.2209,-109.4597,-73.9001,-134.0404,-0.9908,-44.5539,14.0353,27.4981,-29.9884,-9.8381,-56.3893,-104.6838,-22.3888,-105.5322,-53.6454
16.5004,54.7392,7.0714,38.7989,-179.1463,-86.7414,-63.6843,-134.8771,-61.3480,-62.3981,24.2374,24.5173,-10.8795,-17.6886,-11.4425,-66.2344,-17.2628,-47.8100,-21.4637
35.1682,71.0980,23.8822,15.4562,-65.6278,-79.1388,-28.5713,-114.2112,-83.1354,-20.4494,57.2608,35.1046,38.1111,-74.9246,43.4628,-15.4509,-29.5416,21.1016,20.8480
40.9912,80.7249,39.0545,29.9576,105.7131,-74.4331,68.9279,-75.9430,-42.8922,35.7245,65.0605,39.2425,78.2937,-83.3364,73.9920,5.4860,-18.5348,94.2077,30.0328
55.7779,57.2277,54.2558,48.5639,223.1917,-33.5491,177.0206,-33.6942,-15.8724,25.6679,44.5141,12.6231,92.5013,-17.3433,78.7745,14.5932,44.7738,139.0343,45.1219
91.8084,43.9303,97.3466,61.8390,250.8560,43.8702,195.9687,8.7747,-74.3095,-38.2719,56.5415,11.5118,99.8292,42.4235,20.3477,-3.7542,126.1484,148.4777,87.4990
118.2696,77.4225,148.9714,106.8006,210.9385,119.7880,130.0068,42.5165,-165.0539,-97.2953,85.7305,51.9848,97.4659,44.9295,-58.8546,-49.4240,170.2899,149.1494,110.7065
92.3106,85.5111,133.1755,135.5668,140.2926,163.5183,71.9051,54.4936,-170.8538,-113.5737,52.7054,45.4147,63.4249,9.9326,-34.5970,-63.5128,159.0455,147.9646,97.3844
42.7334,37.9100,72.3241,103.8787,89.3142,165.6166,65.0573,57.9239,-90.1588,-94.0499,-10.0566,-13.7184,26.0783,-19.0666,63.2766,-39.2223,124.9689,129.6916,82.8581
32.1431,19.2776,62.7647,84.2926,58.6980,132.2826,83.4476,66.8165,-22.5284,-89.6445,-13.8462,-29.5241,25.6772,-15.0935,97.0568,-32.7912,109.3194,95.5180,85.2059
47.5658,47.8122,85.5247,107.7243,-1.9027,85.9108,97.0402,68.8694,9.7948,-86.7586,15.4203,-3.0109,34.2823,-4.6019,72.1619,-45.7339,117.2182,60.8110,101.5704
40.9628,55.5141,66.2115,106.1017,-85.1085,52.9376,79.9444,70.0714,49.7205,0.7706,7.8657,-2.9460,6.9432,-22.8712,53.2582,-28.8635,121.1187,32.6609,128.2538
18.9465,40.2057,26.7374,71.2577,-137.9418,41.1925,21.9263,91.1252,74.9181,140.8879,-31.8827,-21.8035,-45.6704,-41.5431,11.6864,26.5741,89.8792,10.5906,139.6776
2.3982,29.3255,2.3033,38.7073,-151.8644,27.2637,-23.8671,101.2316,60.6199,198.4380,-65.9926,-35.0067,-80.6310,-36.2516,-36.7182,68.8651,23.6790,-7.3371,114.3089
-13.0428,4.5185,-23.6756,-3.9531,-131.9346,-18.2928,3.2413,56.6501,52.1781,144.6523,-62.9396,-50.6573,-64.3858,-37.4282,-5.8469,36.2581,-29.7079,-19.2606,78.5354
-23.3790,-22.9128,-41.6107,-34.4066,-68.9574,-64.3895,63.7736,-7.4814,52.8530,31.1543,-21.3688,-46.9064,-7.4411,-29.6681,76.5011,-50.8389,-29.6171,-7.3188,65.7791
-23.4197,-19.9277,-35.0916,-3.7890,21.6567,-26.5983,85.9705,-20.1417,21.7533,-103.7472,1.5336,-13.5103,32.4493,30.0636,108.5687,-85.5553,3.2156,48.6819,69.0560
-16.1007,-8.1556,-15.3812,43.1892,125.1076,98.0143,95.4747,22.4073,1.3107,-174.2060,-9.3768,10.1714,39.2586,80.4154,80.9847,-40.2006,37.4577,127.0213,64.2815
11.0162,-4.5305,30.0728,48.8569,226.7999,192.4118,134.5647,67.6516,33.4824,-126.0980,18.2279,21.1322,63.4094,51.4976,40.8607,-12.4409,75.0800,165.0450,38.2950
46.7667,6.8771,86.8335,42.6483,255.3592,186.6855,145.0571,85.9528,42.3450,-51.2013,71.0909,35.7162,94.3343,6.3629,11.7348,-33.9281,101.6303,131.1501,-0.4838
44.9717,5.8088,84.7414,42.8270,168.5904,137.7824,73.9962,85.3515,-12.5017,-16.8689,43.0978,16.5397,58.5422,4.7787,3.2598,-30.5803,91.5080,61.7612,-25.2077
14.8521,-18.4549,39.0576,29.9729,45.6395,92.4085,-26.7750,64.2499,-43.1431,28.9758,-36.8287,-35.5373,-20.6386,0.8384,3.5590,6.2132,68.7488,-1.5908,-39.2548
8.5679,-21.2877,30.5576,19.8691,-48.6377,21.6821,-105.9413,4.5238,-8.8919,87.8728,-48.3718,-47.3144,-54.6432,-24.7882,-5.0792,22.5060,61.5558,-66.6799,-78.0193
18.2544,-3.7025,38.1216,12.4030,-150.5060,-76.1209,-168.6157,-69.3675,27.5391,106.4553,-8.7703,-19.7997,-50.8169,-36.6246,-6.8350,25.4139,52.5587,-140.9972,-117.0955
16.1097,-15.0137,14.8530,-28.7273,-261.3300,-141.7873,-191.0943,-88.9898,47.5547,106.2783,-1.9857,-25.4308,-62.6396,-37.3158,3.3626,42.4781,32.0139,-179.4369,-92.8473
9.7162,-45.2426,-13.1022,-85.1467,-310.3596,-141.2958,-140.4299,-40.8708,87.3644,125.4405,-28.0527,-62.6179,-82.0252,-29.4593,3.3747,60.6953,-6.2268,-143.9342,-42.2446
-23.3595,-63.3529,-64.8057,-113.6845,-274.3507,-107.0764,-63.4656,7.2419,132.4869,154.2528,-73.1475,-83.3580,-95.7731,2.2049,10.7579,72.7527,-93.6059,-79.7968,-57.1919
-94.9962,-75.7029,-158.7917,-117.2781,-194.6625,-87.8639,-26.3408,8.9161,131.4547,167.1874,-121.1303,-80.5739,-105.0367,12.4870,49.3700,72.4302,-190.2146,-64.9474,-119.3864
-122.3481,-68.0197,-180.4678,-94.4511,-114.4411,-82.2846,-19.8712,-13.3592,76.2998,113.0679,-98.5627,-51.3167,-75.0441,-31.7424,74.7892,31.6005,-188.3584,-97.7294,-155.2932
-68.6660,-34.0005,-85.7134,-46.6233,-52.9095,-45.4734,-5.2152,-25.5600,17.8935,-11.1602,-9.1907,-2.1658,-8.6385,-59.8563,46.1822,-41.3943,-102.7058,-102.3294,-172.3267
-28.4429,-25.3547,-19.0333,-20.7642,-1.0986,25.7042,14.7919,-18.8236,4.7376,-88.9973,26.2664,16.0376,18.2160,-29.7224,-2.0327,-93.3296,-49.5402,-47.3105,-192.1577
-33.7567,-39.6639,-26.8419,-12.8685,33.8384,75.1230,14.7591,-7.3706,11.2582,-69.8006,-9.9972,-2.9977,-5.6960,0.9106,-18.2170,-95.0525,-26.8475,14.1130,-177.4860
-9.0040,-9.4669,-0.8069,37.5043,11.3346,77.2576,-4.3182,-14.9260,-15.3849,-58.6768,-16.5173,-2.4381,-8.8935,7.9695,15.4249,-64.2952,38.3710,34.9635,-116.5848
40.4604,39.3513,58.8025,95.6830,-43.5790,57.8529,-10.8355,-33.6961,-43.1228,-86.6299,15.2398,12.7536,18.8339,15.9885,75.6677,-44.3559,105.4889,26.2305,-50.4121
54.2991,35.3009,84.5624,83.1422,-48.9810,27.8407,7.1832,-28.2001,-12.5608,-71.6344,31.1966,-1.1008,35.4484,8.4142,101.9652,-59.4980,106.9540,3.4585,-8.5017
56.8277,14.9513,101.3873,35.6768,-33.2195,-14.9304,12.3316,-4.9217,26.9448,-25.9719,49.5947,-11.5476,42.2465,-17.9824,67.3891,-73.7131,75.6357,-34.5707,-11.6772
65.9296,22.6742,100.3583,11.7160,-93.4340,-57.2610,-21.3657,-6.0300,-3.5010,-18.4153,68.0910,8.4996,36.2031,-24.7199,20.3647,-53.3515,48.5181,-66.9851,-65.4063
30.7056,11.6774,22.5349,-14.8093,-191.1713,-101.7129,-63.3036,-32.3410,-62.5167,-27.3021,23.2851,0.6312,-16.7599,-34.4600,-6.9634,-35.5575,9.2409,-63.4536,-111.3600
-37.5817,-23.8897,-69.7334,-48.1270,-209.2338,-160.2743,-81.7165,-53.3163,-63.1577,-10.6723,-61.5162,-49.1348,-90.4038,-95.5563,-37.3732,-47.5252,-33.1069,-26.7028,-89.2602
-67.3743,-27.7290,-85.2178,-47.5403,-139.8170,-206.6354,-67.1224,-61.4281,-12.3555,17.1779,-94.5021,-73.2540,-111.7765,-155.6210,-59.1603,-55.9504,-46.5501,16.8399,-22.6484
-49.8428,-15.6568,-55.2963,-30.6761,-50.1772,-197.5704,-1.1528,-54.2083,25.9882,21.1533,-70.5905,-65.9908,-70.2417,-133.5955,-28.6235,-52.4192,-32.4930,40.2095,33.6174
-17.0707,-30.9916,-21.2632,-33.3848,22.1482,-117.6750,92.4603,-14.8021,27.5291,-16.3180,-44.3541,-73.0738,-14.2192,-50.6186,32.8066,-50.0285,-16.2671,34.3343,47.1998
6.4039,-40.4965,9.4076,-33.3587,54.0042,7.7303,118.2858,55.2961,7.0894,-44.6957,-36.9671,-70.2773,10.3453,15.2490,52.8135,-18.3305,-28.1753,30.0029,-9.9119
-11.6930,-12.7305,-10.4958,-8.0931,28.5607,101.4250,38.4662,121.4775,-25.9308,3.5576,-53.0310,-21.3518,-19.5114,24.0897,3.0728,43.6074,-71.0646,48.3121,-111.6509
-55.5864,20.5246,-65.4749,27.5948,-26.4285,88.9253,-54.8870,134.7550,-63.4075,67.1184,-77.0205,27.6290,-70.9608,-9.3520,-69.9707,68.2937,-90.3219,33.7752,-154.7218
-60.1420,26.0286,-57.9373,46.7928,-54.2186,-8.5635,-73.3127,64.5719,-68.0069,41.0088,-65.7379,21.6736,-74.8740,-45.5267,-93.7551,30.7868,-58.8515,-65.1755,-107.1115
-37.9458,-14.3413,-11.9060,7.1828,-44.8120,-118.7872,-46.8271,-60.1852,-14.5056,-36.8873,-28.7189,-32.4477,-37.5289,-74.4935,-54.3385,-28.2268,-38.8908,-192.4555,-74.2868
-53.6938,-101.3247,-37.0396,-105.3382,-77.2818,-214.7537,-68.7464,-166.0879,37.7062,-86.1536,-24.5517,-100.0199,-39.3912,-116.5785,-16.8282,-77.4162,-63.3759,-265.5954,-118.1389
-83.1625,-172.4786,-102.1905,-212.7886,-209.5233,-279.2738,-175.0219,-210.9210,12.8416,-111.9764,-49.6409,-140.2050,-93.6972,-153.3678,-27.5578,-93.5102,-80.1123,-275.6345,-154.4642
-76.3256,-159.2112,-113.9207,-227.6295,-334.9518,-284.2126,-283.7480,-208.0367,-53.8964,-114.7240,-57.3576,-124.6936,-132.4178,-150.9904,-62.1209,-68.8731,-77.7578,-237.6848,-108.2605
-69.7457,-98.1192,-103.3189,-176.9357,-311.9296,-257.9594,-286.2932,-181.0465,-79.1425,-79.9764,-57.0273,-82.1913,-132.6146,-135.6116,-101.1830,-46.8542,-99.5411,-159.5281,-23.9527
-94.5530,-79.2293,-130.8224,-150.1774,-187.9415,-232.6402,-200.6297,-132.4004,-63.8710,-40.4809,-77.6050,-65.4986,-129.1851,-122.6396,-140.7430,-49.8374,-123.2114,-75.9325,37.3843
-106.0507,-109.8139,-156.8395,-159.1813,-83.0570,-159.7855,-123.3326,-53.1388,-47.1258,-12.2819,-98.0817,-73.9472,-120.6600,-61.2441,-126.7690,-36.8449,-94.3569,-12.5450,80.4250
-71.3745,-116.4984,-115.6254,-132.9422,13.3996,-25.3585,-62.1891,37.9734,-30.4483,0.2242,-84.0556,-69.8508,-70.8992,33.8948,-27.5239,1.5541,-29.4218,41.9207,116.2839
-7.4172,-61.8817,-9.2410,-44.4066,132.0038,74.5806,22.0885,84.4081,-14.4233,-35.4566,-33.2151,-43.5126,11.4108,58.8884,69.3395,29.4024,37.4403,84.5363,129.6051
55.2167,3.0455,96.1980,38.7641,220.4722,91.8129,95.1977,69.4822,7.0913,-75.6709,25.2985,-16.2711,71.1944,4.9160,74.4176,47.4222,111.5475,105.0808,122.4770
85.1511,23.3046,140.8588,69.9269,264.1101,91.4340,126.0399,51.8980,63.8070,-47.2627,55.0284,-0.9442,85.3284,-24.5797,31.5990,67.7901,178.9759,118.4579,106.9035
86.0935,26.6888,146.6823,94.4696,290.8204,105.1032,148.3102,58.2224,123.5249,-13.8842,64.1498,18.0424,91.3565,9.7250,18.8311,67.2222,206.6840,114.9371,69.0183
99.8834,57.6112,168.8570,139.2994,279.4309,95.1868,159.9688,45.5346,111.3885,-35.1920,94.4432,56.4585,117.0608,56.9167,21.6961,40.2832,209.5502,69.9987,12.8036
122.2508,86.4411,188.0561,154.5979,220.9671,63.1115,127.9719,21.2353,59.3385,-32.6208,130.2845,90.2878,130.4836,74.6022,3.9035,22.6940,214.0618,25.0155,-9.8518
108.6731,77.8090,156.6307,118.8294,141.7033,45.7010,83.3314,44.1488,55.7058,15.8427,116.7850,85.0519,101.8452,53.9104,-2.4421,43.5885,190.5642,28.6717,23.4465
73.7429,59.7594,96.4835,65.5238,36.7298,36.1939,61.4892,95.7588,76.5077,53.5577,70.4381,54.3386,61.3499,22.0092,41.3173,93.3329,111.4019,47.8769,67.5672
57.5321,47.7988,48.0386,5.1649,-59.7299,7.1830,45.0521,115.8513,57.8137,100.4034,46.8271,32.2755,45.9638,24.1749,103.8393,118.9573,19.6546,54.5144,84.1374
37.8007,16.1346,3.2262,-57.1120,-63.0615,-26.9132,43.9244,113.6881,34.4714,129.0843,36.6233,18.6826,42.6255,47.1404,124.2786,78.5472,-34.4725,86.2563,77.3987
-9.9871,-24.5636,-50.1377,-85.0863,-1.0164,-26.1039,79.6259,112.2272,49.9785,49.9006,5.4507,3.8183,23.9042,43.4297,87.8423,17.3018,-58.9536,145.2780,61.7373
-51.7784,-38.8831,-94.3237,-68.9631,33.3954,19.0160,103.0048,94.2333,65.5088,-40.0065,-30.9686,-1.1799,-5.1485,31.0717,31.2625,7.5874,-66.4841,166.9513,53.4125
-60.4089,-33.3164,-104.7001,-36.0482,56.9594,74.7246,73.6870,72.8111,50.2640,-6.3603,-40.0005,10.4933,-17.8338,45.1357,-4.0740,36.4863,-39.1934,113.0712,55.1676
-47.3677,-30.7960,-72.3808,-7.7094,87.4259,102.0578,24.4723,77.5455,26.3666,42.5778,-18.8208,26.1130,-4.0925,63.4079,-6.5219,49.5741,5.8575,8.0696,31.6630
-26.6548,-37.7553,-29.1409,-10.3800,45.3049,89.8422,-34.7205,75.1625,-7.8056,14.0164,6.4316,28.2104,8.6666,76.6291,2.8299,35.2218,9.4879,-95.8465,-41.5002
-15.1193,-52.4374,-26.6965,-48.8862,-57.4228,49.2523,-119.8046,25.9391,-85.2438,5.9359,9.5592,18.1221,-6.9928,98.0658,-10.3518,2.2829,-30.7334,-164.4027,-133.4791
-20.4203,-50.0882,-53.0848,-60.1317,-103.9252,-11.5336,-186.1353,-45.5890,-190.8562,24.9589,7.1030,25.3154,-28.2421,89.9250,-56.8972,-33.6217,-43.9329,-212.5206,-206.1430
-9.3593,-7.0168,-36.6969,-5.8594,-105.1330,-104.7696,-204.4220,-105.9334,-249.6750,-5.6311,29.1458,56.6858,-26.2643,38.4963,-103.6674,-38.3354,10.1410,-252.4102,-233.4385
35.9851,45.3787,34.9056,53.3019,-154.3024,-241.6342,-225.8487,-143.9896,-214.5451,-21.9578,46.0472,65.3068,-28.0762,11.5115,-114.6513,-7.6225,86.6905,-242.1416,-178.0942
61.0427,65.1030,81.3810,62.4567,-211.4258,-382.9268,-250.3753,-144.7809,-125.3043,17.6346,18.8463,34.2039,-56.4712,19.5557,-104.5801,16.4272,103.8865,-170.7200,-57.3154
18.7417,51.6475,39.4064,29.6915,-181.0420,-453.9975,-204.8960,-117.6007,-48.1400,33.6491,-23.0139,7.4044,-76.8152,3.2298,-100.0028,7.7790,24.7727,-104.9738,22.6564
-52.4426,5.6717,-56.0736,-36.4660,-85.8813,-429.5004,-110.4790,-95.7001,2.6048,37.3465,-55.0629,-13.8056,-72.4107,-15.2768,-71.3819,-12.0318,-94.8951,-71.8831,5.7686
-92.7371,-59.9721,-123.3849,-112.1644,-1.3951,-350.3093,-58.8445,-66.6522,36.5641,78.7555,-97.0808,-61.1588,-70.3270,3.5238,9.0987,3.3640,-167.3442,-24.4548,-29.3241
-91.9471,-84.6194,-127.2902,-140.4513,64.6575,-257.8034,-33.2445,2.2656,45.7495,92.9925,-120.8510,-91.4662,-61.6535,-2.2911,82.7183,70.7914,-172.8848,46.7866,-0.0454
-60.9158,-51.3063,-85.7677,-115.7842,132.5377,-172.3136,30.4916,76.8262,35.3080,57.4727,-79.4132,-60.2686,-19.4851,-42.5323,80.1738,126.7187,-133.0506,104.7260,70.0350
-8.6179,-21.5110,-19.5916,-77.8987,170.6257,-108.6439,79.1433,99.8148,23.6433,26.5514,-15.7361,-17.1456,22.9209,-14.0388,23.2684,100.0127,-49.5768,135.2986,115.3528
30.0839,-13.7333,40.5420,-30.8703,135.1506,-67.1134,42.5364,79.6403,6.2654,-25.6817,6.2494,1.2991,23.1466,73.3445,-31.8695,29.9739,31.8054,127.6928,109.3054
13.3988,-4.8757,39.7325,7.7489,58.1695,-49.4420,-19.9775,50.8613,-15.3164,-102.0625,-10.0752,9.2663,-4.6988,86.1654,-62.5499,-1.5819,19.5641,60.9209,60.4578
-43.2775,-26.2653,-24.9282,-18.3267,4.2824,-77.9845,-40.7969,13.3461,-11.3116,-104.9630,-47.6865,-20.3085,-36.8315,12.1842,-49.3971,0.7523,-69.0978,-45.9214,-7.0920
-79.4786,-81.8915,-73.4558,-84.2837,-38.1206,-152.1137,-57.8851,-35.3494,30.8745,-41.2245,-82.2945,-85.7130,-63.2851,-53.2818,6.8232,-7.0598,-112.2116,-137.0995,-57.9178
-71.9992,-91.9080,-58.3828,-98.7149,-107.3167,-233.7968,-91.8604,-77.8616,96.6481,-14.0404,-67.1622,-100.6705,-65.5595,-88.3403,50.6508,-29.4820,-81.2866,-166.4131,-66.6561
-53.1177,-49.7651,-27.8803,-69.0970,-161.8394,-301.7337,-93.9855,-109.1495,158.1330,-14.2807,-29.6622,-67.1488,-52.3662,-109.9365,52.8003,-54.4326,-61.5914,-128.2713,-47.8373
-53.1489,-44.7433,-35.0163,-78.6594,-148.9753,-352.2147,-74.4719,-133.7476,161.7349,12.7149,-50.1097,-83.8661,-62.8570,-108.2901,44.4460,-62.7443,-92.0266,-77.3136,-38.2237
-70.3135,-79.7565,-72.0382,-125.2066,-98.5534,-359.2099,-84.2582,-138.0746,93.0437,34.3625,-101.5477,-129.2320,-91.9232,-111.3504,23.7333,-33.8233,-129.9622,-63.2112,-38.2247
-83.7456,-80.0171,-100.4296,-133.8660,-62.9920,-298.5743,-86.3243,-107.2041,39.1350,16.7812,-105.0951,-113.1497,-101.1458,-142.8569,-30.9397,8.6939,-127.5295,-40.9414,-13.6574
-71.6476,-48.1552,-86.7614,-81.5308,-50.5852,-182.4188,-39.0470,-49.5197,59.2719,-18.4700,-86.8630,-71.9045,-92.5555,-132.8661,-68.1021,21.1962,-69.7532,39.9249,38.1456
-36.8501,-32.9350,-30.9889,-12.6112,-34.7829,-49.8473,-10.0936,13.8286,85.1231,-38.7769,-90.6516,-64.5242,-81.3106,-31.6934,-40.2464,-0.3585,9.1156,114.3552,82.1262
-10.4157,-28.6797,22.8694,28.9581,10.2424,44.9841,-47.1327,58.1454,63.5726,-19.1175,-80.9728,-50.3394,-59.2861,71.0080,-4.9265,-32.2177,50.4960,116.5715,97.3696
-8.5895,-9.0226,35.8042,42.9534,48.5163,70.1342,-86.9700,64.3506,39.7630,25.1263,-53.7008,-13.8738,-43.2853,67.9988,-22.7898,-39.2245,46.3459,101.8613,89.7344
-15.3627,23.9877,17.4120,56.6454,17.8740,53.8821,-79.2802,46.3310,36.9890,44.3632,-52.4809,1.6166,-57.7748,-18.3007,-59.1592,-1.6670,36.1814,120.8793,79.4342
-17.2479,48.0332,0.6393,70.4565,-38.7223,29.8943,-40.3808,32.7640,29.9949,23.4729,-53.9251,0.9771,-65.5636,-87.6757,-62.3732,27.6037,35.2964,114.7381,81.6630
-15.5747,36.2604,-0.0506,53.0058,-52.6651,-14.4495,-1.2701,8.7491,20.3514,-30.2028,-20.9457,1.1601,-34.6757,-93.1238,-38.2263,-5.6668,29.2982,30.5696,68.8330
-15.2491,-4.4423,-2.3123,5.8132,-101.2208,-81.3785,-14.9933,-55.9385,8.0999,-99.5149,-3.5174,-23.0484,-21.6140,-73.1315,-14.1757,-50.1450,7.1832,-81.8316,9.2767
-25.6835,-25.9022,-29.4120,-24.7194,-232.5332,-137.4312,-92.0930,-123.2683,-18.5636,-110.9626,-40.1275,-62.2935,-64.3356,-75.8586,7.9354,-49.2026,-29.7876,-139.2233,-45.3783
-41.9993,-10.5210,-62.5131,-22.1323,-278.6894,-169.3309,-115.8578,-126.3324,-28.2646,-27.8272,-70.8122,-70.5197,-89.9507,-96.2814,37.4171,-30.2528,-61.7591,-121.8969,-31.1373
-35.9896,8.6097,-60.0431,-22.2267,-140.1354,-179.6720,-22.0833,-76.9857,-12.4935,56.5742,-44.2522,-47.1621,-45.6970,-108.8679,44.7094,-1.2196,-69.2489,-78.8747,4.5426
-2.4583,12.8245,-24.5990,-42.0056,14.6639,-152.5672,52.4417,-36.2937,-33.9781,73.3427,0.7615,-22.5217,4.1035,-106.3830,-9.7664,47.9728,-57.3461,-47.0561,-3.5547
31.6767,5.7497,15.8383,-56.4791,63.5139,-86.9086,19.0819,-11.7849,-95.0861,67.0052,16.7508,-12.9802,7.9184,-78.8166,-79.7939,54.6671,-24.1255,-1.3003,-17.9094
60.1531,-17.5383,59.4351,-59.3629,97.4743,-8.9789,1.1877,26.7681,-113.4841,54.3128,19.8308,-24.8865,11.8376,-27.3307,-82.5071,-1.2327,42.5228,77.3969,3.8371
89.6901,-43.3518,100.6544,-63.7257,161.8507,63.3358,73.7738,71.5702,-74.6167,5.3405,35.9340,-44.5304,44.8360,2.2872,-36.3615,-28.4534,111.7146,151.9557,32.3191
103.5661,-34.6154,121.2039,-41.7082,182.3868,113.8864,136.4785,84.4936,-27.7019,-60.3958,45.0118,-47.3653,65.2060,-15.4605,-0.2384,-1.8648,142.5490,198.4833,50.0282
102.7190,9.7814,139.3159,26.9907,156.8685,119.3687,135.5442,53.0518,20.6313,-103.9392,36.3742,-36.6353,64.1772,-35.9372,43.1908,10.3401,149.5659,228.0012,70.0216
119.7093,46.0405,176.5762,69.6818,145.3005,80.8779,124.5001,7.2568,59.1410,-91.5802,52.9928,-26.3215,84.6361,-30.5832,96.6935,4.3035,149.0473,214.1647,85.4090
149.5929,45.4698,200.3123,22.3239,131.6721,22.5694,109.9020,-16.1163,46.6832,3.9567,108.7220,-14.7438,121.3423,-23.3995,100.9327,9.6605,124.9109,121.1006,92.8328
151.3370,23.8645,178.7061,-44.0114,65.8346,-32.5999,61.0774,-22.6740,12.7645,118.1783,138.9891,-7.1202,120.1015,-12.6209,61.8902,6.2875,94.2942,3.5899,98.2598
121.1023,13.8034,130.4777,-44.7729,-25.1857,-68.7264,10.5098,-46.5171,24.4302,152.7024,105.9505,-11.1526,73.1676,6.2672,37.1077,-3.2491,86.7635,-32.6695,90.9692
92.4426,29.5731,88.5288,-17.0944,-54.0327,-91.4774,16.4008,-79.3204,58.5138,137.5550,64.5693,-14.0547,35.2286,-22.4070,27.0611,6.8911,81.3980,38.4351,85.8823
89.4188,58.7639,79.1008,-10.4372,9.0989,-109.0891,81.6058,-73.1613,46.3681,134.8515,66.8744,-7.2248,47.9653,-101.2318,28.0836,13.9447,67.0820,139.9685,114.3357
108.5269,74.4388,104.6208,-2.9301,83.6219,-83.0640,143.1655,-21.1945,-15.6504,106.6946,85.1836,-1.9032,84.8692,-115.6151,52.5055,-0.4637,70.7921,189.5006,145.7833
118.2457,53.4446,119.1213,3.6265,107.4686,20.1123,140.6023,38.0728,-79.3315,50.0080,71.4128,-7.5761,88.7820,-23.8409,53.4344,-11.8506,81.5187,185.5096,139.9454
96.4521,3.4278,92.5526,-19.2042,138.8461,146.9820,105.5894,87.4762,-101.4226,37.7186,31.1143,-23.1112,58.7615,60.7106,7.1752,-3.7712,72.4403,177.2249,122.6720
71.1177,-30.6243,65.8965,-34.9035,207.4898,230.1508,108.0446,134.4012,-78.4309,66.1260,2.7914,-34.7641,41.8908,72.9160,-19.0093,31.3033,71.0043,176.8514,108.8816
74.6593,-17.1953,76.5166,4.6462,216.4434,276.0798,121.0566,171.9688,-52.3121,78.7987,-3.9752,-26.8300,40.9872,68.4457,-1.4492,82.0890,105.2185,168.1983,78.1729
94.8270,22.6514,111.5553,72.8080,135.4936,297.3195,87.0578,180.5173,-46.6042,66.1188,-1.2437,-8.3265,31.9950,64.6241,21.4830,94.7455,158.9086,164.3427,57.8000
109.3082,51.5367,146.0603,115.7103,81.2949,271.3903,58.3935,148.0290,-30.2423,28.2322,20.2944,4.6980,39.0376,32.8799,52.2813,58.4112,204.0025,166.8027,76.4380
101.0856,51.0864,138.8136,107.8502,89.5690,215.8712,93.9564,90.8299,18.0459,-9.1502,48.7793,10.5647,63.1142,6.6270,68.3781,31.2675,196.2906,135.2473,98.3750
52.1556,21.3031,63.8887,60.4770,48.7731,182.9410,129.6234,58.5955,88.1981,17.7360,23.4154,-6.0362,33.4265,9.1869,16.7591,31.4965,114.1771,72.8791,117.2274
-11.7133,-12.5934,-16.4676,17.2897,-70.9765,167.2103,103.9673,72.3301,174.2517,80.3354,-50.5846,-49.6366,-48.2633,-10.7626,-36.1636,38.7852,26.3452,36.8973,164.7570
-46.9608,-30.8283,-50.4786,-14.7375,-146.6304,118.8442,68.2379,77.6286,245.6141,86.4736,-77.9386,-73.8476,-78.0747,-55.8797,3.2147,44.9380,-19.1164,34.2174,196.6575
-77.9953,-61.5652,-97.3191,-81.2647,-90.5051,45.0067,81.6942,34.1078,260.1288,59.4028,-48.3247,-64.4805,-36.0503,-61.8948,82.9759,11.6243,-87.7810,29.0962,159.2661
-129.9073,-111.9267,-169.0064,-151.9245,44.0752,22.4479,131.2919,-3.9627,250.5997,62.5903,-47.5034,-71.8490,-1.1905,-34.9762,132.6329,-58.6788,-188.3380,24.7698,106.4675
-142.2283,-116.7335,-164.1192,-129.9789,151.6864,91.7892,178.0460,19.8730,260.5103,53.6406,-68.3035,-85.1560,11.4729,-25.0696,152.4768,-57.7734,-209.0801,34.8100,89.7371
-88.5486,-59.4767,-83.1784,-42.2690,189.1501,198.7369,195.2692,76.7828,231.7321,0.0837,-41.3283,-43.7047,36.8265,-9.1447,122.6572,27.3940,-138.3899,48.4596,68.7894
-44.2744,-19.3588,-45.6786,-0.0907,186.6783,285.1621,179.0159,127.7660,128.5820,-44.7899,2.6461,22.5472,62.0154,50.9917,74.1006,67.3300,-86.4095,68.8056,24.5765
-40.7700,-18.7663,-59.6054,9.7717,177.4142,360.5826,155.3004,178.0323,51.3041,-62.5446,14.6315,58.6114,75.6194,129.7813,103.0419,54.0349,-66.1001,94.6444,-0.2775
-25.2642,6.0011,-38.8912,62.2394,170.2014,419.4486,154.1805,211.9487,60.1321,-78.7378,37.4751,96.3158,101.3200,186.0081,159.1546,73.6673,-16.8648,96.6942,2.8837
18.7159,62.9892,21.6359,124.7514,188.5804,412.1556,178.0082,194.7462,64.0890,-79.5871,95.7731,149.6592,139.5630,193.4150,124.8430,81.0587,38.1057,85.7250,4.9609
62.4720,103.7879,78.8163,141.5065,244.4110,355.8114,198.7910,155.0317,5.3427,-47.9475,141.0612,169.4471,169.3697,148.5555,65.9540,41.7070,59.0577,106.8567,-1.3219
84.9788,115.9360,108.5183,132.5066,271.4066,311.9592,180.5087,144.2259,-41.5720,-1.0853,142.9576,154.7357,172.6233,98.4606,68.5475,44.4894,59.2909,133.8673,-16.0712
66.5783,102.6081,83.8852,107.7556,201.0198,255.1003,125.6394,133.0430,-17.0207,47.2218,112.6419,132.5207,136.0040,74.4349,75.7952,72.3032,28.0630,102.1148,-44.9066
25.7213,66.1026,29.3291,49.7756,90.4080,143.5211,87.2387,71.5958,43.3872,81.1640,85.0453,93.9737,96.4787,39.9519,88.9170,31.0187,-36.3051,37.8431,-65.5674
23.8491,41.4192,18.6518,-5.9108,51.6735,42.4751,104.4611,3.6939,82.1246,70.0307,102.7554,62.9214,113.1406,0.3173,153.4927,-16.8158,-59.6692,24.3839,-43.8376
58.7809,48.0287,44.2218,-10.5589,93.0195,17.5099,160.6617,-3.9840,65.0041,19.3425,140.5492,73.2040,155.2743,19.3195,179.8779,-3.3419,-12.0577,65.7559,7.0379
74.9693,54.3838,49.0121,17.3475,145.5196,38.6184,214.7715,19.4151,-11.7198,-16.2947,131.5904,77.5471,156.5060,71.4943,123.2076,-1.9823,34.3004,84.0102,36.0752
80.6632,46.4165,51.8640,32.3707,185.1296,81.7987,231.5021,19.9659,-102.5585,-4.6468,101.6924,48.8452,141.4112,83.1688,79.4079,-12.8235,49.1059,44.4179,33.0977
103.1695,46.3621,74.1509,32.5735,224.0830,166.5690,200.0925,26.3020,-153.0812,23.9500,114.0757,55.0081,147.9088,85.7487,46.8114,41.2155,76.8839,15.5593,35.1792
117.3610,65.3183,85.3701,55.3270,251.2235,270.6832,148.2103,76.6921,-173.0816,34.0165,138.4067,114.5542,148.6355,127.7176,-19.2954,100.9656,125.4925,64.7330,43.5738
126.7509,101.9234,109.0382,118.3100,259.4263,338.4740,108.6481,128.2404,-202.0555,31.5783,140.7329,158.6901,146.4182,162.4979,-22.6178,86.1247,169.3052,146.3120,25.1330
154.5356,139.2892,170.5761,176.6915,259.9255,348.9783,87.1088,128.0107,-220.1882,10.4089,150.6193,163.6655,167.7918,154.0948,51.7571,46.3207,193.8768,182.8268,-5.4987
150.1726,141.1195,183.8176,178.2624,235.8221,318.6227,75.5288,90.0956,-195.8952,-63.0562,151.3641,155.1261,166.3173,128.7874,55.7895,13.5205,170.7887,184.1651,-17.3529
92.8725,114.4401,112.8480,148.2157,159.9842,279.7012,50.8533,47.5073,-184.7580,-154.5813,111.6234,143.5517,112.9520,110.2078,-18.8195,-35.5860,106.1500,176.5103,-31.6352
71.1843,115.7388,72.9035,145.3728,47.0474,249.8056,-12.8700,9.1727,-233.9207,-171.5586,89.8638,148.4453,72.1950,127.5581,-59.7405,-68.2331,74.4390,140.5507,-51.9415
100.8969,156.8364,96.2775,168.6518,-75.2150,210.5478,-87.7633,-7.6820,-251.3587,-93.1697,109.0197,181.4244,62.7783,183.7479,-70.5392,-59.2329,74.5794,110.6178,-38.4642
74.1820,191.1412,60.5397,179.7111,-184.3391,155.4175,-118.2517,21.6676,-157.5173,27.9614,81.0221,202.3962,22.2502,198.9310,-73.7415,-35.3190,2.4239,146.0965,-16.5274
-21.1654,183.6926,-56.6679,161.0957,-223.8094,115.6096,-101.0450,79.5833,-49.2438,138.8228,-8.3878,181.2392,-42.4981,144.4633,-38.0735,10.4513,-128.5307,179.7022,-36.8546
-78.6144,133.8307,-133.8154,114.4377,-151.3076,101.4903,-51.2401,113.4857,-15.4584,182.8124,-54.6877,142.6619,-56.9494,110.7563,-6.7295,70.5354,-178.8854,118.4917,-49.4403
-75.9172,72.8099,-128.3837,63.9196,-24.9812,90.7841,28.5205,102.3418,11.8487,146.4597,-25.9125,114.0838,-15.7074,120.3138,-16.1714,71.3399,-140.0185,23.0061,-14.7869
-77.8967,37.9580,-105.0363,47.2041,65.0838,74.6617,84.1058,75.1991,66.6241,94.6730,2.8077,96.5701,19.1310,105.6756,-12.7079,4.0475,-115.2238,-23.0923,-11.5205
-92.0766,15.2803,-89.4549,58.8621,102.7839,55.3098,65.5009,56.7856,82.8655,47.6472,-11.3576,73.7472,11.7807,80.5497,-8.3520,-48.0829,-95.0350,-53.8845,-70.3367
-83.6560,-22.2449,-61.5550,60.5834,102.4060,40.3475,28.6659,35.8278,77.1980,-28.3513,-40.4521,31.4135,-20.0839,77.8890,-53.7256,-45.0469,-29.8287,-95.8275,-115.5776
-58.1158,-41.6110,-29.0880,50.3965,54.7251,42.9387,14.7495,1.0375,95.9957,-83.5827,-45.2253,-2.0265,-38.7251,51.8095,-89.4318,-15.9203,16.5971,-124.2618,-144.3300
-39.8188,-19.8408,-13.1968,46.1544,-24.8762,26.0075,-38.9175,-40.4594,67.7909,-77.8947,-16.0316,13.9195,-31.7760,9.0349,-73.6553,-1.3078,1.1784,-164.0874,-210.3147
-31.8607,4.3580,-10.2131,42.0044,-85.2162,-70.2530,-128.3586,-90.4015,-20.9557,-89.4040,21.3117,52.5191,-18.5762,0.7122,-62.4603,-19.6094,-15.0677,-220.7643,-261.0516
-32.4613,17.6440,-13.0171,37.4007,-106.8233,-197.7705,-152.0766,-145.2241,-36.0999,-123.8906,31.8527,60.1021,-17.8101,-16.2484,-66.6493,-32.8510,-17.1477,-222.5995,-221.1648
-51.3625,27.4391,-40.9148,34.2232,-128.5722,-248.2917,-120.1707,-167.9795,35.7386,-95.1957,-0.7155,37.0909,-45.1083,-59.2095,-72.7032,-4.4032,-44.4674,-172.4202,-134.4455
-88.7289,-5.1737,-105.1955,-2.3837,-187.0434,-228.0881,-135.2065,-144.0540,54.2043,-51.0740,-62.8085,1.5015,-106.2323,-52.3085,-111.8450,15.8474,-74.6014,-148.1289,-74.4848
-113.4354,-74.6915,-154.3727,-82.2386,-239.8478,-213.9344,-185.5350,-117.1165,11.4905,-61.3157,-107.5013,-45.9913,-157.4722,-38.1128,-149.9543,-11.0637,-77.6156,-128.1392,-38.8890
-93.0961,-94.7787,-122.6512,-128.9470,-199.8371,-205.7617,-177.0507,-105.7039,15.6294,-37.8581,-100.7994,-87.4694,-145.9139,-119.0383,-115.7158,-25.9294,-63.8313,-57.4434,10.4626
-43.7178,-57.6437,-37.6151,-88.6266,-75.4083,-171.8294,-90.1842,-70.7694,66.3430,42.1095,-75.6504,-106.4289,-92.1673,-187.2800,-35.0395,6.5696,-16.5912,3.3025,84.6976
-9.6510,-47.1557,12.1174,-28.7723,22.0457,-125.7640,14.2553,-4.2524,105.3968,75.4671,-76.6667,-117.3719,-52.1700,-102.5098,34.5621,46.5948,53.1828,-8.5475,142.9915
-2.2418,-71.3102,14.7946,-21.5573,50.1619,-72.9160,60.9548,60.4663,124.8440,84.8637,-90.0548,-123.4411,-41.5837,19.9389,56.9834,80.5692,66.3448,-54.7727,129.8983
-1.6429,-69.9450,30.4689,-21.7444,66.0738,-5.4350,27.7737,116.1856,108.7592,125.7059,-93.7195,-110.6710,-52.1817,29.7614,-3.5927,109.7930,31.0819,-93.7247,61.5227
2.5343,-38.6997,67.0075,31.7631,76.3373,42.0742,-16.6312,155.8606,56.4030,113.1151,-97.3586,-89.5219,-68.5232,-9.5234,-74.0294,103.8929,45.9569,-113.4722,13.1529
10.7869,-8.7262,83.6024,98.4248,39.5547,41.2365,-17.3272,149.2596,24.9902,46.7760,-96.0514,-73.7600,-65.0965,1.1380,-37.9080,70.4497,103.6702,-102.5505,15.9310
28.8157,15.1287,90.5390,124.3315,-15.9156,27.9149,-25.3768,114.4345,10.8760,35.6315,-71.1626,-51.6309,-45.0748,38.2456,20.3650,48.1943,134.0489,-92.3790,42.8674
60.8799,37.1767,130.0254,133.2896,-40.7758,41.3345,-80.5920,101.3051,-48.3838,31.1873,-29.0800,-17.5607,-31.0746,57.8163,-27.0062,29.5468,160.0571,-109.9331,66.9353
99.9250,60.2157,184.4019,149.4687,-52.3433,66.7151,-124.7150,97.1777,-118.5900,-36.3661,12.3094,15.4266,-16.7684,67.7146,-92.1499,10.6468,199.4594,-98.2611,76.4242
123.2495,87.6306,193.6592,154.4557,-71.2386,67.8013,-119.7604,66.5432,-135.2108,-62.2596,32.6577,41.0329,-3.3632,91.7512,-97.8925,23.5503,191.5655,-30.4223,71.2159
103.3005,104.6518,138.2716,148.6184,-79.2937,35.9449,-109.9605,22.9433,-142.8608,-24.7633,11.5574,57.4790,-18.5752,126.0333,-114.4795,47.6879,129.0630,17.8072,55.6974
44.8067,88.3767,50.4516,130.0487,-76.9837,8.8159,-124.7387,-18.1542,-183.1559,-44.7798,-31.6301,52.9911,-46.5407,129.3481,-111.1910,32.7048,58.2871,15.0245,30.5530
-5.2336,42.4359,-25.0725,64.9229,-79.4260,42.2527,-131.2934,-42.6327,-215.6893,-93.1280,-53.1177,22.9092,-45.8780,90.4728,-25.5157,8.4745,-18.9115,11.0662,16.2070
-19.3717,-0.0610,-64.3577,-19.0383,-71.8545,137.7206,-93.8919,-0.3547,-234.7144,-69.9066,-53.2456,-6.1693,-33.0552,62.4202,9.4875,26.8842,-93.4202,5.7596,26.4096
-32.4514,-12.4564,-87.8465,-38.8034,-43.7984,224.0352,-36.7186,90.9326,-261.8175,-46.7114,-57.8619,3.9069,-39.7517,74.3951,-82.0477,52.8655,-134.1591,-36.2731,2.7624
-78.4954,-8.4175,-131.4563,-3.5910,-28.8609,243.7134,-30.2779,108.9019,-255.8497,-95.9018,-65.7179,46.3156,-51.7176,102.3456,-141.1426,35.1667,-165.0076,-96.1991,-95.8537
-131.1406,-16.2298,-185.3776,10.6324,-61.3048,210.9697,-90.4773,24.3983,-188.9237,-126.7135,-75.6046,66.2994,-61.4256,123.4577,-86.8112,4.1352,-205.7375,-142.1122,-171.0810
-156.6628,-25.9006,-211.5945,3.4927,-112.7016,158.2488,-142.4786,-45.4176,-101.1845,-65.5839,-98.8061,40.6216,-82.6809,102.1850,-16.9891,6.0430,-220.6771,-162.3799,-128.2676
-162.9728,-13.2278,-203.0471,11.1146,-118.9726,91.9272,-141.2059,-49.9904,-27.6196,26.9970,-118.7752,10.0609,-98.7789,22.0383,17.9107,18.0256,-215.6175,-145.8281,-49.3484
-156.8729,4.6501,-173.6427,15.0947,-90.6709,23.1560,-135.3252,-49.0621,13.8689,71.0328,-111.8738,5.6443,-94.1673,-36.4977,15.8304,4.5079,-225.8542,-119.3679,-42.4398
-135.4769,-8.7891,-141.8352,-17.7317,-116.3939,-33.2301,-162.4590,-58.7044,28.1549,77.3242,-97.9607,-0.4811,-102.1619,-21.3264,-49.2141,-16.8155,-227.9397,-130.2973,-62.7335
-128.9174,-63.7564,-143.8871,-94.4898,-203.1265,-94.6828,-188.1293,-61.5161,80.2046,103.6302,-110.2872,-44.5383,-145.9202,-20.2406,-134.7503,-30.5018,-211.5194,-152.8962,-33.7718
-156.0847,-131.5397,-184.7008,-180.5529,-240.6127,-160.5133,-167.7915,-75.1273,190.3501,133.0550,-140.5366,-107.9691,-185.9329,-75.1219,-155.4543,-49.5041,-210.0495,-129.0448,17.1036
-174.6756,-153.5774,-208.0031,-193.6552,-179.9676,-166.7466,-99.2478,-78.8665,267.4919,129.1540,-156.0424,-135.0614,-178.5266,-105.0739,-100.4623,-45.3319,-199.1230,-74.3548,45.9455
-155.6144,-110.8897,-183.6872,-119.7326,-88.4754,-96.1085,-26.3803,-27.5784,272.8035,172.1735,-146.5857,-113.0157,-139.7854,-103.4584,-23.7815,15.1049,-142.6763,-39.9804,68.9700
-121.1833,-69.0548,-135.3058,-69.2947,-12.4829,-36.9545,9.8839,40.8499,278.3123,296.9088,-118.8733,-87.7779,-106.8830,-121.9974,-2.4828,74.7925,-87.3519,-38.9570,100.1131
-81.1310,-72.9397,-71.9322,-90.7752,47.5275,-26.1567,32.4796,79.5184,317.5659,355.1968,-72.7898,-78.3938,-77.0557,-110.7816,-62.8470,83.1797,-67.8936,-62.7195,114.1841
-46.2620,-81.6969,-17.8910,-96.8185,68.7276,12.1797,68.2534,118.9121,361.2276,297.0679,-27.0751,-57.0656,-41.2033,-41.5610,-98.9004,93.0439,-50.4791,-97.0766,92.0743
-52.4797,-73.9635,-26.4774,-51.5594,49.8485,92.7209,76.9185,157.1083,374.8345,248.4367,-21.1424,-30.9916,-24.8533,-4.7685,-23.6586,127.6271,-13.6896,-119.8322,51.5050
-67.4628,-66.9385,-52.0853,0.2246,46.9404,139.9708,57.9850,150.4267,313.7943,196.9161,-37.7546,-25.5646,-24.1737,-14.6320,67.4908,130.9323,52.1149,-112.6632,34.8764
-11.6598,-35.0696,12.8513,63.3584,96.3768,161.8105,93.2128,147.4685,208.2497,78.4891,-8.7891,-7.5952,13.5543,29.5448,74.9290,110.1495,159.0820,-59.4262,75.3327
79.6927,20.8044,127.2414,134.7406,165.0092,221.5247,164.8957,202.5742,169.6860,20.4288,61.0071,45.6953,80.5671,134.8013,48.5235,104.6768,264.5754,22.9444,150.7500
108.4358,33.0521,164.7264,154.3642,178.1044,269.1997,147.0944,228.0048,172.0555,37.1439,103.3918,85.1353,106.0475,193.5943,40.7380,71.4752,324.2838,60.0342,186.1260
89.3729,17.2835,136.2829,144.4255,99.3214,221.5343,48.1600,149.1609,86.4139,-65.2667,109.5664,92.3384,85.4594,154.3987,35.8532,1.5549,358.2306,35.0966,142.9120
85.3829,56.7512,122.0453,185.4143,12.3878,128.5577,2.5377,50.1980,-29.5504,-224.0292,100.9102,103.9661,66.2638,86.7101,33.2706,-24.7932,365.2440,53.3964,78.9168
91.9121,114.3069,128.7388,238.4182,30.3588,85.9749,28.6348,15.1052,-40.2850,-210.3553,71.9120,110.4665,57.2966,83.8798,38.0623,-14.6867,323.9965,155.6798,64.8505
106.2523,100.7246,155.4765,207.7297,118.3806,86.6838,50.1584,16.0524,-7.4476,-128.3957,64.6845,85.3838,70.2329,123.4309,45.0936,-53.2638,283.3695,227.5585,80.5101
135.8806,46.0826,196.7736,109.5791,171.0693,78.4575,70.9720,15.6128,-17.1169,-164.2435,118.6106,56.8743,119.4357,100.6689,60.9091,-112.7982,267.6720,216.1751,65.0410
130.5760,14.1305,181.1727,31.1892,194.2254,65.8287,113.7294,9.8199,-6.0698,-199.4086,145.8995,41.5507,143.2789,24.2642,65.5477,-105.6829,217.1977,209.8417,22.3274
77.3658,4.1813,106.9274,19.7797,220.9063,70.0512,120.5929,-5.8254,38.0226,-150.0986,88.5316,26.6210,101.7939,-3.0991,45.8351,-51.3339,151.4405,231.9467,-0.2878
53.5995,14.7990,85.8647,57.0329,209.6652,65.0253,68.2078,-19.4617,45.2377,-142.4153,58.0575,34.9841,76.0188,20.1118,51.2940,-23.5080,153.6044,210.7876,9.6257
70.5270,42.3606,115.7666,80.6673,168.4790,23.7270,27.3396,-23.2730,32.9279,-165.6053,103.0072,75.3571,105.2776,42.8290,83.6708,-31.6678,167.8568,159.4924,22.8335
49.7128,53.8147,73.1146,60.9979,158.9583,-25.2495,21.8435,-46.9217,18.3174,-109.1579,106.4541,99.9962,107.1739,71.7518,75.5973,-43.6210,90.3088,150.2828,2.9093
-11.5724,45.9282,-28.0806,32.1630,149.1339,-56.6856,-7.2947,-96.2470,-42.7497,-47.8069,43.9920,89.8704,57.8125,72.7605,42.7863,-57.4917,-23.6502,161.0307,-46.2538
-44.4832,32.5444,-68.3577,3.6976,88.1414,-100.5669,-60.6234,-130.7948,-92.6953,-69.0708,14.1012,66.0747,21.8914,13.2211,28.4295,-88.0935,-74.6046,132.4333,-54.2186
-35.7550,11.3408,-50.8946,-38.3426,30.6043,-157.1661,-72.6415,-131.2460,-52.7839,-85.1455,20.8522,41.4676,9.1871,-4.9006,-12.7216,-90.3469,-77.2873,93.8787,19.1653
-17.0452,16.1166,-46.4443,-48.4963,14.1452,-164.9064,-51.4798,-103.1800,-12.0239,-46.7575,21.4422,49.7943,1.5603,52.2866,-65.1241,-12.1451,-72.3865,98.0004,83.5802
-6.6172,60.0447,-46.1978,-9.4040,-6.4883,-125.8441,-59.8670,-58.2385,-47.4523,-46.3835,46.8720,104.2824,19.8488,50.3084,-38.3578,48.6688,-57.1397,118.1507,48.6577
-4.4701,68.1317,-22.9866,3.6724,-24.8517,-109.1984,-78.4581,-38.2033,-82.2168,-121.5922,95.2023,135.4577,55.4034,4.1164,15.7270,-34.8944,-35.5650,112.2013,-23.2361
8.6334,33.3009,5.8851,-16.3944,9.5778,-107.4984,-49.4386,-59.1139,-86.1207,-173.5771,108.7203,113.6480,72.1271,49.0617,-1.6558,-141.7558,-21.0934,104.0264,-50.7046
30.8124,47.4399,19.8739,2.1013,59.0170,-87.8250,-7.0346,-66.8036,-104.6417,-118.3873,85.4553,95.9700,66.8785,66.1244,-28.9879,-76.4893,-22.4216,107.5420,-75.6870
19.4660,81.3396,6.4331,16.5996,46.8728,-121.7066,-21.6729,-53.0568,-103.1822,-10.4786,50.2900,74.7905,35.4431,-97.2421,-18.2995,70.2404,-51.8575,62.2371,-135.4646
-17.8305,37.7054,-26.6634,-52.9502,-17.6971,-242.5144,-83.7792,-82.0838,-62.8577,44.3910,16.5537,17.3841,-16.3170,-232.4051,-46.2895,97.1770,-95.0754,-45.0929,-178.2775
-18.7586,-20.2318,-36.7591,-126.1877,-66.7302,-322.6429,-135.2063,-139.4070,-53.8265,39.6512,22.8771,-2.2755,-29.3869,-139.2896,-95.3957,22.7421,-115.6559,-107.6758,-185.4136
4.5945,-6.8145,-16.7416,-106.2849,-70.7408,-287.3761,-141.5119,-156.2688,-67.5254,19.8610,59.3195,40.7684,7.9613,-1.0900,-61.3205,-45.4963,-113.7012,-72.2812,-196.9894
-7.9099,13.4388,-17.4916,-53.2379,-67.0572,-240.1828,-112.6321,-159.2273,-38.6809,-22.4649,52.1264,46.8297,21.3453,-2.6619,20.1453,-81.6467,-108.9829,-37.2623,-213.7171
-35.0871,3.7431,-45.8008,-37.3603,-92.0271,-254.4779,-98.9039,-183.6854,-4.2571,-66.3498,17.5354,18.3605,-5.4376,-56.8058,36.4503,-64.6155,-93.0018,-58.7118,-207.5189
-26.6611,20.4888,-43.2203,-32.0399,-104.6302,-278.3983,-115.4149,-169.6445,-0.7709,-43.2900,30.7105,43.0059,-15.1332,-76.4803,-20.8649,-18.0361,-60.0874,-48.3854,-175.1728
7.6629,51.2396,15.5979,-15.1395,-51.0401,-277.5727,-93.1569,-104.9108,22.0252,17.6509,62.4198,72.2474,1.5058,-72.3706,-83.5464,-40.5412,-31.4428,34.4187,-124.8070
44.6412,54.8405,88.4749,2.7179,21.4485,-260.8398,-15.5110,-62.1491,59.0104,37.6383,59.5649,42.2475,21.5330,-25.3109,-90.3306,-107.7339,-24.6043,94.5410,-80.7691
63.6169,57.7158,117.8949,17.1687,37.4561,-213.7277,11.3613,-33.9253,59.6151,50.8811,51.7289,25.4044,40.0659,33.1075,-35.4022,-93.9018,-43.5543,74.4407,-70.5653
39.1293,57.7748,91.8742,6.4405,21.5892,-150.4098,-40.4785,28.0590,61.7526,112.5020,49.5956,39.3829,40.0479,2.6564,21.3951,-27.1004,-80.2454,29.3622,-64.6948
1.9075,21.4509,57.8792,-44.9711,21.3798,-126.4836,-49.6596,66.5128,109.3902,172.2588,30.4062,2.1197,22.4290,-98.1593,48.7616,-13.3929,-112.1725,-0.4689,-25.7415
-3.1186,-20.6671,42.7885,-98.5628,2.3077,-134.8491,10.5417,28.9163,158.9486,175.0914,15.9238,-62.0986,16.5068,-152.6275,67.4507,-22.3185,-128.1548,-37.2404,4.5707
-12.3213,-41.6046,7.8069,-114.9909,-67.8629,-118.1975,12.5008,-21.0221,166.9159,130.5175,4.9702,-72.8517,-1.6539,-121.9873,49.8832,-8.3494,-133.6462,-82.9846,-15.9039
-52.7052,-64.3075,-50.9401,-100.8733,-147.1305,-88.4355,-78.6538,-42.0862,124.4230,61.5177,-37.5188,-57.0444,-60.8660,-42.0514,-22.0266,-27.7781,-123.3059,-112.4100,-54.1312
-72.9849,-78.6833,-81.3589,-82.7014,-200.4770,-106.5686,-157.9714,-74.2073,33.3140,1.3313,-73.9752,-55.9494,-103.5268,23.0106,-64.9850,-78.8530,-104.1464,-138.1076,-93.9764
-70.2064,-67.5164,-97.8710,-90.8150,-245.7085,-167.9414,-185.1215,-116.5749,-61.7771,-22.8025,-66.4343,-50.3515,-102.9991,-14.7423,-55.6509,-70.0166,-117.7357,-182.8187,-162.6997
-87.3443,-56.1252,-136.1607,-123.6785,-293.6324,-209.4409,-213.1967,-134.4905,-120.6808,-32.9196,-66.9950,-45.7146,-121.0968,-138.8575,-84.6292,-6.2900,-167.2501,-207.5132,-230.3086
-83.2218,-39.6971,-129.2032,-119.7252,-329.5597,-207.4151,-249.7017,-149.3508,-166.7121,-54.7274,-86.5339,-56.2703,-148.8190,-193.8681,-124.2738,1.2144,-182.6366,-168.5141,-240.5371
-25.7494,1.9463,-48.7803,-52.2324,-353.4110,-194.7956,-250.8559,-183.8473,-203.7794,-82.8646,-69.5817,-56.0960,-120.9500,-129.2231,-58.0921,-73.5326,-126.5818,-109.9078,-215.9466
5.6393,31.2976,-12.1256,8.9022,-367.7428,-186.4154,-207.3976,-201.9995,-201.1808,-108.4130,-41.7080,-41.6092,-81.4125,-80.7122,36.6129,-126.9836,-57.7619,-86.3110,-196.7870
-16.7041,30.3955,-54.4549,19.7575,-340.5866,-151.2953,-145.8088,-175.3896,-183.7915,-105.5101,-54.5277,-33.9256,-93.2921,-102.1100,-1.7905,-100.7196,-33.5423,-63.4278,-160.0710
-13.7990,41.3962,-54.7478,30.4661,-251.0436,-88.5613,-89.7136,-122.4835,-183.4940,-57.0629,-64.3928,-22.2333,-100.8673,-87.7940,-103.6141,-63.4429,-28.8339,-13.9526,-95.9833
22.1172,69.9884,6.9095,72.9809,-151.9382,-66.2966,-53.6180,-73.0746,-185.9146,-21.0420,-40.1758,-0.0146,-62.0456,-27.3042,-102.6800,-54.6955,0.8126,2.1173,-48.9039
33.8661,87.7959,32.1593,110.9494,-104.9207,-115.5527,-32.7935,-49.8975,-203.2524,-47.0628,-24.7463,10.3035,-29.9949,-28.6298,-37.7000,-18.9223,45.1590,-40.4438,-28.3244
38.1362,89.5520,31.3415,112.9916,-83.6831,-151.7328,2.1406,-53.5112,-219.6476,-83.8063,-17.9428,4.0970,-17.5081,-63.1143,-26.6765,25.6499,69.6080,-75.8961,2.6496
58.2495,56.9174,64.6219,75.8507,-40.0332,-103.2338,56.9004,-57.2625,-138.8736,-91.6240,11.4952,-11.2588,14.4896,-7.6494,-33.0461,-16.7477,62.7410,-77.3438,37.1469
49.6938,-18.0120,77.5114,8.1389,-12.5986,-44.6624,81.1232,-59.3744,4.3182,-114.5941,28.4699,-42.1779,37.9716,75.6986,0.7359,-107.8635,32.1522,-87.6816,33.8537
5.0676,-75.6270,21.5838,-57.6910,-55.9520,-76.8703,41.9581,-92.5813,26.3806,-163.9006,-4.8345,-85.0905,1.8133,18.9280,7.4088,-119.5344,-2.3980,-113.2034,-0.8329
-26.2428,-76.8114,-42.9288,-87.8229,-131.7719,-159.5833,-10.9542,-145.2545,-68.1270,-182.2985,-55.1197,-120.8124,-60.9824,-140.9792,-30.2007,-57.0653,-18.9365,-115.4163,-30.4046
-32.6320,-57.7877,-69.0619,-84.6754,-170.9097,-194.1604,-22.1147,-160.0111,-97.8909,-149.2807,-78.1048,-129.0476,-85.5092,-212.1754,-19.2875,-17.1154,-21.8144,-74.4801,-46.4576
-25.3007,-43.0195,-64.7369,-70.5450,-167.3217,-174.6005,-9.0402,-133.3388,-55.2604,-112.0560,-66.7391,-100.5731,-69.9481,-141.5034,15.0409,-36.2557,-25.7795,-0.0404,-51.3808
0.6077,-34.0835,-32.8444,-66.1089,-149.1024,-142.6505,-3.7245,-116.3114,-52.1101,-109.4463,-39.6152,-67.9298,-54.1002,-45.6869,-37.3617,-93.9012,-21.1670,65.0186,-44.1806
26.3338,-47.6719,2.3901,-84.1322,-130.7136,-107.3173,-1.1843,-119.9705,-68.3754,-115.8058,-25.4939,-77.0475,-51.2546,-26.8689,-102.1911,-127.3515,-7.1362,69.1292,-44.5094
29.0527,-63.5940,7.5796,-103.9872,-121.7312,-87.2267,-6.3613,-119.4735,-63.9745,-94.7600,-30.4200,-106.9600,-46.0926,-81.9010,-49.7767,-80.3540,-7.3288,29.2196,-62.8268
26.1608,-38.4729,5.3684,-85.5159,-130.6452,-106.5746,-35.9296,-118.7986,-78.1208,-80.9501,-31.6489,-100.1971,-36.4410,-128.9921,31.7919,-14.9932,-18.9523,16.0105,-73.0025
22.1446,9.2568,7.6687,-33.3255,-153.7445,-123.3248,-64.2137,-123.5478,-80.1272,-106.4395,-26.0048,-52.1451,-35.5217,-93.3318,27.8221,-13.2495,-38.2353,49.0782,-75.0391
-6.9255,39.5687,-28.0721,7.3954,-173.8425,-88.5595,-53.4429,-107.4697,-21.3898,-106.0048,-32.5020,3.3316,-43.5011,-3.7415,-3.1890,-17.8682,-96.0552,80.1785,-102.2628
-37.4940,46.5008,-76.5037,15.5715,-163.3175,-46.2565,-15.9265,-70.6787,18.4949,-47.8038,-43.5604,31.2090,-48.0037,43.1116,-22.6959,18.1421,-151.5652,54.4214,-128.6245
-17.2158,14.3639,-46.8482,-6.6114,-110.4573,-60.7589,13.0791,-54.8432,-15.8630,-22.2444,-29.5239,-1.3529,-34.6845,21.3666,-51.5575,13.9358,-95.6607,-44.6518,-99.3390
41.5862,-58.5078,44.9276,-64.2685,-49.2222,-111.9673,25.9552,-65.4568,-52.7880,-59.5798,14.5098,-75.0538,6.2569,-14.0235,-27.8591,-44.6006,32.8097,-161.2272,-51.8491
79.9642,-112.3538,95.2758,-140.1084,-25.0440,-145.1486,31.0357,-65.0923,-63.8023,-72.0391,55.2290,-121.6570,48.7799,-45.3294,41.7145,-67.4262,68.4669,-212.4891,-58.9725
72.8600,-113.8257,81.5844,-182.0292,-39.3601,-151.3516,23.3897,-50.0207,-85.8220,-42.2893,56.6561,-126.7514,45.0214,-106.3284,32.1076,-55.6109,5.0957,-204.7043,-99.4878
40.5198,-101.5931,50.5845,-165.9188,-65.1958,-150.0916,-0.2215,-49.2180,-95.2802,-32.9875,28.4607,-125.0658,7.1913,-172.4552,-19.3590,-59.9448,-18.1261,-206.3657,-113.7332
17.2828,-96.8719,16.9531,-126.7419,-91.5097,-143.6740,-12.8657,-63.4018,-72.5055,-48.6322,10.1458,-112.9038,-9.0111,-153.1052,7.1962,-44.4317,20.9228,-215.5398,-102.4871
18.0835,-89.4424,-15.6283,-105.9837,-113.2205,-114.0840,8.0006,-71.1676,-55.6163,-61.9927,6.9344,-84.0473,-5.2075,-42.7784,28.7864,5.4621,38.9128,-190.9379,-84.2319
18.2646,-89.0219,-26.9412,-108.0231,-110.4943,-62.1160,31.8902,-70.0718,-26.5358,-63.8913,1.8431,-72.8556,-8.5737,29.2221,-8.9436,15.1068,13.3188,-157.6029,-53.0916
-8.4101,-94.7541,-27.8133,-116.9538,-83.3072,-35.4139,30.1612,-75.5984,49.4433,-39.1173,5.4548,-83.5221,3.5381,-19.3380,42.6079,-35.6343,-37.5108,-156.3586,-18.6302
-42.4713,-85.0901,-53.3192,-126.4620,-72.4627,-70.4907,30.5158,-98.2161,88.1309,-7.0124,21.0345,-83.1556,34.6246,-105.4984,172.1342,-67.4547,-100.1784,-174.2985,-7.2218
-52.6760,-70.7621,-97.8583,-140.3278,-95.5788,-121.5133,36.6987,-126.8993,19.6192,-7.9348,22.1008,-70.1007,37.1106,-124.0604,184.2422,-31.0262,-134.5884,-188.9267,-15.8688
