Fp1,Fp2,F3,F4,C3,C4,P3,P4,O1,O2,F7,F8,T7,T8,P7,P8,Fz,Cz,Pz
-0.1139,19.9638,0.1537,22.0804,-4.5327,7.4378,44.0508,9.6456,56.8564,5.6041,0.6583,14.8244,13.7677,14.5985,49.3971,15.2692,-14.8834,-6.7032,21.4792
-83.2136,-12.1208,-59.0004,-14.8537,-35.3522,49.4290,22.4275,93.9809,127.4105,85.0163,-37.0622,-14.3882,-22.8499,16.0987,65.8021,28.3276,-55.2789,-6.3667,116.5370
-104.0186,-38.9519,-84.9375,-59.6873,-63.6949,0.6604,24.3481,164.6936,197.2159,178.9205,-50.6302,-35.5456,-38.1096,13.7767,83.2705,83.0133,-100.9062,-94.4058,131.2317
-61.7580,-36.8146,-70.6972,-76.7568,-93.9166,-96.1397,4.1614,161.0035,174.6823,213.0643,-40.5565,-31.8767,-42.4418,4.6379,68.7355,122.1304,-122.3898,-209.0217,22.9370
-13.3427,-28.1802,-23.6210,-52.3720,-50.0103,-29.2788,-44.3288,118.6186,45.5410,166.9630,-17.4986,-19.0859,-33.6641,20.3146,-10.9758,97.3624,-46.8479,-162.1119,-23.2127
17.4333,-48.4543,22.2925,-40.9427,47.7352,110.9603,-68.2882,70.0443,-85.1780,90.0922,1.9418,-24.2768,-18.4262,42.3441,-113.1447,53.2397,54.8378,-38.4660,31.2965
7.7663,-114.1724,2.8583,-111.9598,47.7773,38.8107,-63.0491,-8.9057,-114.0149,3.2399,-9.8406,-66.3943,-33.7727,5.6575,-143.4510,33.8454,23.3434,-86.8154,37.0147
-55.1598,-206.9407,-77.0522,-239.1504,-50.0449,-184.8114,-60.2193,-96.4239,-57.4543,-85.7225,-48.0056,-138.3100,-64.2000,-89.8834,-76.0326,-0.2710,-112.7671,-255.7893,-22.5932
-132.9524,-250.3725,-144.9095,-306.9190,-103.0661,-281.7346,-68.3154,-107.0103,0.1126,-89.3842,-79.8359,-184.8325,-62.0798,-169.8096,20.1104,-67.8756,-200.0305,-286.8184,-67.3363
-176.1659,-167.0408,-169.5856,-233.9595,-104.8258,-207.6682,-101.3377,-21.4720,6.9259,36.4293,-93.2262,-138.7849,-54.1937,-167.8169,61.9503,-97.6832,-202.5946,-134.6369,-115.8581
-151.6749,-5.0360,-143.8756,-65.5134,-116.6450,-77.1046,-159.9964,75.6162,-37.4720,163.5717,-81.0921,-22.1940,-75.0435,-85.3325,17.0086,-56.6777,-143.6520,27.4296,-174.9580
-47.3270,90.9889,-44.9563,65.1647,-90.5937,29.0807,-190.0903,98.0829,-99.7772,158.6012,-27.4762,53.0334,-74.3394,-3.0482,-71.8958,-19.8542,-8.9169,74.7258,-178.5974
76.0021,72.6276,76.2666,82.6496,-19.5916,31.8691,-160.8612,27.1701,-145.0923,36.0759,43.0333,40.1656,-23.8237,7.2711,-119.4444,-35.1469,134.3988,37.0543,-142.9332
115.4494,23.3601,108.3139,36.9345,1.1485,-60.0180,-114.3155,-90.2935,-166.0477,-114.6168,69.5247,8.8760,12.6403,-24.9211,-98.2211,-59.8366,156.3024,10.3423,-138.8520
62.9320,0.7335,46.6047,0.3532,-30.3684,-119.0234,-85.5390,-176.7654,-164.6494,-205.0883,36.8507,2.1313,-3.2697,-49.2620,-64.3688,-78.0338,66.9443,21.1673,-151.5854
13.1359,4.5416,-2.2259,3.4531,-40.2730,-105.1607,-67.9092,-197.0718,-150.6414,-210.1372,-1.8618,0.7036,-28.3989,-71.0085,-56.0956,-121.8460,0.4472,31.9801,-146.4627
18.7934,55.7649,7.2186,72.0588,-35.2870,-64.6955,-51.5386,-180.2257,-152.9701,-198.5409,-4.6306,26.5826,-31.4100,-68.7138,-56.9489,-161.2818,6.5535,54.8869,-140.0506
39.4408,139.5246,25.7689,176.2238,-31.6489,24.1939,-27.0905,-144.5336,-154.6699,-182.4917,3.9350,92.8462,-34.1849,-5.2396,-65.9497,-132.3402,27.1160,114.5981,-112.4258
46.1040,170.7066,36.5724,214.7459,11.2034,147.0641,13.2723,-82.8988,-94.5145,-96.6502,-0.6028,127.4486,-41.9896,70.3195,-90.5524,-49.6144,49.3000,166.1427,-15.3093
75.6950,137.0958,77.9993,178.4575,87.6386,198.0876,68.0949,-26.9418,0.9806,-8.8998,18.4553,106.7498,-13.0123,105.5986,-92.0002,31.7980,112.3740,187.4027,106.4970
131.8033,111.6784,132.5706,152.5934,148.1752,169.1992,139.3117,-7.9540,52.1848,-10.8417,67.9459,95.6924,60.7139,122.0375,-41.3416,88.1603,167.1650,199.3831,156.7330
133.4012,87.7009,125.2442,121.4457,172.4719,139.1346,198.5201,11.9050,87.5409,6.3599,75.0500,82.7319,110.1716,109.7506,28.0661,97.4846,124.3740,161.7194,140.2859
51.5995,21.1275,60.0907,37.3526,132.1462,113.0321,175.8958,57.9419,152.4367,75.0484,31.9400,20.3161,95.3189,55.1615,90.2919,60.5964,45.4353,68.7807,141.0562
-20.4249,-15.9402,20.7517,-2.5486,21.7052,89.1498,79.5923,88.0206,172.7243,32.9557,24.2857,-13.2022,67.7094,45.3559,149.0396,47.3187,48.5814,39.4015,168.4931
-23.6647,43.8281,21.5175,67.4810,-54.9627,111.6925,26.6797,93.3465,114.2689,-48.1392,48.5220,46.1818,62.5791,110.4816,171.2237,90.1472,76.6682,106.1184,154.3190
-5.1703,108.8403,14.3256,124.8508,-15.0568,145.8608,61.2882,100.7473,62.6385,34.5145,30.5687,98.0227,58.1081,129.9086,130.7882,108.3283,30.6169,141.1917,82.4908
9.1993,86.0357,9.5929,87.3421,52.3249,115.3032,91.7279,70.9819,35.4615,104.0896,6.4976,70.2385,64.8753,66.4666,93.5070,53.3743,-16.4848,94.7013,-0.5149
30.2427,35.1655,28.4900,41.1246,35.2564,57.8423,64.2068,-13.1066,-11.8594,-36.0110,33.1354,38.7666,96.9920,31.4099,123.5645,1.4062,3.9715,41.8515,-66.1391
23.6610,41.0108,26.8701,51.9564,-30.1694,58.9839,29.0297,-45.0892,-30.1359,-129.1909,46.6357,54.3152,102.7696,58.2514,174.7824,11.9641,10.7867,21.0120,-95.1443
-21.7144,83.3133,-10.0289,86.2199,-64.7311,100.5872,20.6198,21.1844,15.2531,-18.2502,10.4918,76.1077,62.9899,77.8225,183.5647,36.8004,-30.2319,25.9973,-73.3602
-48.2693,97.2242,-34.3537,98.0855,-71.0649,102.2691,15.9287,58.3265,39.2538,36.6253,-10.4520,77.3135,32.3625,67.3052,158.9040,27.2917,-53.3447,43.1756,-48.2141
-44.2068,58.4697,-41.4745,57.4552,-74.4599,50.8598,-6.8450,-8.0779,-0.8004,-48.6787,-9.8133,56.8333,14.4686,42.8792,109.4853,6.8045,-57.6816,31.7764,-66.9541
-51.3418,-6.0967,-58.6999,-21.7096,-71.4114,2.9459,-50.5176,-86.5609,-52.2077,-88.3338,-31.7025,15.4501,-30.6330,10.3566,21.3098,-0.6826,-70.4934,-8.2285,-87.6417
-62.9268,-46.1388,-69.0749,-68.9771,-71.8210,-23.4801,-103.5583,-112.5889,-91.6401,-84.7506,-49.8469,-18.7569,-77.5181,-18.7015,-64.1649,-16.6733,-61.4523,-22.5228,-81.0444
-58.6772,-39.4085,-62.2828,-59.5334,-93.3825,-66.7485,-144.7034,-120.0074,-119.7157,-110.9354,-41.8939,-23.6617,-92.9760,-44.6815,-91.7443,-52.9406,-37.2567,-8.5437,-99.9443
-54.6432,-16.8368,-61.6613,-43.0271,-112.8013,-114.6542,-167.9181,-124.9232,-132.4953,-109.3281,-37.8755,-16.3224,-96.0079,-71.1436,-89.8391,-82.9753,-37.1212,5.2050,-155.5904
-42.3340,-16.7096,-59.5208,-42.4516,-95.5348,-118.1735,-173.8752,-123.0346,-165.4232,-117.5086,-27.9845,-10.8955,-82.1543,-77.3929,-104.2774,-94.8014,-40.2072,19.7600,-197.1137
-11.3155,-45.7238,-43.7538,-56.8197,-57.5997,-119.4615,-148.9372,-130.3047,-212.3661,-180.6702,-2.1128,-18.3635,-43.0448,-77.5288,-112.4309,-106.2736,-40.2001,-4.7345,-212.6614
-7.9419,-98.8369,-47.0220,-116.2678,-37.7405,-183.0865,-100.7320,-131.3143,-185.7009,-156.4070,-11.1409,-64.0624,-30.4143,-113.2215,-95.2570,-107.6012,-78.0072,-109.8036,-195.7070
-43.0648,-163.1248,-75.4312,-208.1475,-32.7752,-249.2118,-63.2752,-95.8449,-87.2443,-28.7038,-50.9033,-127.1075,-55.7563,-149.1230,-82.1454,-66.8413,-128.8102,-214.8787,-125.3353
-54.6745,-201.2114,-86.6904,-252.9134,-18.5286,-246.6053,-38.1726,-55.2728,-24.0199,12.0201,-53.8660,-146.5694,-56.3876,-132.2594,-80.0218,-10.0203,-140.3207,-235.4660,-55.1332
-33.8804,-192.8284,-74.1052,-228.8681,-4.0225,-223.2818,-8.9616,-58.9384,-12.6665,-45.7931,-33.7226,-128.1523,-37.2564,-109.2261,-75.7833,-4.5145,-131.5324,-220.3377,-35.8607
-20.2358,-167.4378,-52.4034,-187.9953,-0.7975,-214.5047,7.7408,-96.1986,5.6806,-82.8233,-35.0920,-123.4725,-50.3158,-121.7103,-86.4745,-50.4712,-102.3183,-210.3111,-3.9630
16.2907,-139.0403,6.1516,-136.8130,22.8915,-169.2902,14.0237,-125.0324,24.3490,-122.3165,-14.0339,-117.3583,-49.3993,-113.2564,-104.6422,-80.2355,-2.4472,-154.0525,70.1355
101.4069,-84.4888,101.4458,-53.5282,81.9285,-91.4178,53.5620,-127.5384,30.3453,-174.2757,51.8803,-73.7714,18.0777,-60.7746,-80.1367,-67.0515,126.7341,-57.9289,109.1090
147.6517,-34.5878,150.1919,3.0517,115.6467,-63.7852,107.0244,-115.4323,62.9083,-153.3542,81.2718,-41.1966,68.6786,-37.1108,-25.2063,-53.0141,170.9393,-20.1563,107.1587
88.9680,-51.4999,103.5116,-33.0532,71.3334,-108.2934,92.0695,-103.5355,113.8657,-77.8688,33.2032,-73.9589,21.3024,-78.0868,-10.6130,-70.2203,114.4774,-77.0591,121.0133
-0.5075,-88.9889,24.8608,-90.7965,-8.6138,-150.9871,14.3205,-82.5898,125.1557,-21.2744,-26.6199,-115.2080,-58.6960,-122.2605,-34.2973,-95.8811,38.4209,-143.7954,115.3884
-43.9147,-57.0084,-20.8586,-64.4111,-53.2366,-123.3079,-30.0053,-40.5703,99.0419,18.3636,-49.2415,-88.7171,-85.8823,-110.4369,-34.9845,-96.6045,-11.2707,-124.4945,68.0793
-64.6778,-1.9790,-46.1400,-4.1808,-43.3839,-45.1362,-7.7587,5.9102,87.8546,46.6353,-54.1452,-35.9266,-74.1314,-66.1809,-16.1108,-75.6293,-43.5248,-31.9957,65.7682
-76.6545,-14.9430,-58.8613,-14.1292,19.5402,14.0545,40.4311,53.0216,107.1270,80.8043,-52.1398,-32.1062,-49.6100,-41.4151,-21.4473,-43.7617,-53.0331,48.3409,134.6727
-43.2235,-50.9990,-30.3127,-50.7204,122.5138,49.1326,100.6170,125.2625,128.8287,156.8282,-23.5726,-46.7678,6.5432,-20.3632,-34.3164,14.6276,-21.6351,94.0128,200.3480
7.6396,-43.2578,13.7936,-35.0473,196.8022,102.3571,159.7649,196.9240,129.7957,211.5408,17.0020,-27.1415,73.4301,29.8056,-16.0998,83.2265,17.7371,126.9247,233.4847
-1.8799,-43.5686,7.8880,-26.5317,181.3807,140.1452,156.8426,201.5739,117.3568,183.5840,18.0915,-20.3827,81.6427,50.5479,9.2783,86.2791,10.1908,111.1847,236.0908
-56.6673,-86.8746,-34.2981,-78.3705,119.7740,105.5970,81.3674,151.5293,106.6744,150.9507,-20.4002,-66.0152,30.2676,-8.5200,-0.2935,10.5691,-23.9541,42.6938,194.1756
-79.2356,-104.9357,-53.5827,-108.5461,86.9784,46.2603,26.5003,123.0000,93.9649,153.2700,-40.5377,-94.3321,-5.4887,-63.1223,-25.8947,-43.0596,-37.1209,14.1222,145.9436
-69.6128,-72.2458,-59.0112,-74.3719,78.5261,25.5789,48.7353,129.2784,79.6861,136.3549,-32.5720,-62.0706,-0.9051,-43.8437,-23.8982,-19.6933,-59.2471,35.9759,131.7730
-71.3526,-51.5511,-76.2111,-55.3796,63.1615,24.3583,82.3431,127.4619,78.4299,125.6295,-37.2200,-34.0312,4.3817,-15.4603,1.8271,16.6938,-107.9799,14.7658,112.8241
-69.9869,-65.9088,-72.3588,-79.7932,53.7814,34.6851,63.1375,110.4088,75.0878,141.8729,-41.8557,-43.0979,9.8057,-14.3096,23.1661,26.2116,-108.0054,-29.6865,69.6385
-40.2328,-72.7609,-33.7788,-83.0995,54.5729,76.0267,14.0314,97.2872,31.9684,105.7432,-9.9780,-39.5379,39.9055,8.5611,35.1950,35.3582,-39.6351,-15.8515,28.3198
-10.9728,-48.5285,-6.9637,-46.6288,28.5175,103.4806,-43.7095,82.0664,-48.7780,34.2691,21.3291,-10.7808,54.7474,36.1123,29.1003,30.2491,5.8963,-0.6871,-39.6690
-16.8596,-9.3841,-20.0953,-10.8127,-37.6228,74.4003,-124.8634,53.3682,-126.4993,28.9369,2.3945,7.1860,4.1491,15.2488,-15.0024,-14.7302,-11.8014,-44.1574,-148.5362
-49.0937,26.0603,-55.4822,11.0357,-100.8494,37.1741,-195.0112,30.4768,-169.3749,61.4585,-36.9784,18.2987,-66.9895,-13.2087,-66.6495,-49.7992,-49.3408,-59.8140,-220.7165
-66.3503,58.3344,-76.1384,40.3186,-115.3351,46.3550,-195.7187,43.5004,-173.4946,66.5892,-42.8683,47.4266,-77.4217,5.6410,-66.7867,-32.5352,-68.9570,-1.4711,-221.0296
-35.1331,95.5170,-45.9351,91.6842,-84.2223,96.1712,-148.7985,86.8575,-159.3243,71.4854,-11.7299,82.8816,-31.0035,49.8543,-29.9369,0.3764,-39.5029,47.3336,-193.3959
18.9890,120.4494,13.3197,137.3158,-44.7891,144.8158,-104.7432,114.6105,-139.1338,80.8865,21.0661,98.8281,5.5016,84.1540,-16.7534,21.7319,25.2850,44.3164,-143.6349
35.3743,95.6908,29.0743,114.3539,-21.3318,128.3961,-61.6779,90.7244,-101.8994,65.0970,23.4658,81.8445,6.4601,87.5436,-24.6673,45.9073,37.3427,19.5372,-80.2079
9.3234,19.1448,-4.4736,13.0084,-19.6255,35.0833,-40.2498,31.2732,-68.3867,32.1793,4.8671,32.4148,-2.9731,49.4252,-21.0623,62.5043,-10.9217,-15.7617,-62.7398
-15.6144,-55.0940,-24.7805,-80.7422,-38.5116,-37.2709,-81.7093,-9.7287,-76.5731,-7.6059,0.0083,-19.0045,-10.8169,11.7584,-22.6664,59.5075,-16.8064,-38.9803,-72.1962
-20.4991,-64.2451,-13.8520,-83.9508,-44.9519,-14.8232,-115.5123,6.3753,-82.8598,-12.2514,7.4119,-28.5107,-20.5996,21.2373,-40.9773,64.1270,28.8338,-10.8981,-25.8628
2.6041,0.0585,16.0703,-4.7160,0.0783,51.8621,-50.7803,54.9429,-27.5525,62.3355,10.0946,7.2125,-14.8686,52.3977,-43.7742,79.6313,60.3911,48.6211,52.1304
62.1382,75.5831,74.3929,88.2639,59.6105,98.1286,30.4985,71.0704,26.1060,110.9192,29.1936,48.5334,14.3031,70.0374,-32.9044,71.9909,107.4946,88.7694,81.9198
122.2532,99.2335,135.9686,132.5946,68.2757,106.7434,17.0373,38.9523,-0.7106,41.4184,67.9186,62.3753,32.8511,76.4685,-49.2631,44.7019,188.5113,91.5022,66.1285
140.0294,79.2923,152.8760,115.2103,43.3377,60.9983,-34.2944,0.2632,-54.3782,-17.0864,79.8000,45.1258,19.2803,57.0932,-84.3395,22.0302,219.4925,54.0079,33.1372
124.3671,55.9317,135.6380,75.2117,15.6400,-18.7630,-61.8425,-37.2017,-71.6963,-5.9558,57.0857,13.7195,-7.8879,5.0734,-95.9139,-11.5513,190.3955,-5.9814,-14.8729
90.8976,44.7536,109.1745,58.9783,-52.5646,-66.1377,-123.2251,-90.3436,-94.7243,-67.0587,38.0344,-2.7983,-45.4751,-30.1102,-93.9220,-62.1758,172.0613,-39.8663,-58.8861
44.3952,59.1524,64.3997,79.6624,-147.0314,-69.7539,-209.2119,-115.4312,-148.8113,-160.4456,23.3118,15.4045,-98.5340,-21.9417,-114.4670,-87.3815,145.3897,-32.7419,-92.2714
15.8662,97.2322,19.8837,110.9642,-168.2787,-66.6955,-212.9511,-73.9174,-170.3657,-110.0349,0.6124,49.1993,-125.1132,-7.7525,-135.0934,-68.6541,78.0356,-12.9889,-125.0928
16.7276,110.6025,10.1918,112.4415,-112.5110,-55.7780,-137.0225,-30.1312,-120.4309,-14.5148,-7.2163,60.1010,-93.4384,-5.4176,-102.7794,-41.1096,35.1143,11.9510,-121.7996
13.7921,88.7537,17.2379,91.6428,-84.2803,-29.7216,-83.8822,-47.7731,-56.4518,-43.6754,1.2931,50.0732,-54.5568,3.2927,-37.3693,-31.3801,43.4360,36.5559,-72.3236
2.1737,91.5184,13.7363,100.7357,-108.2861,-11.6355,-81.8748,-84.3796,-49.1539,-95.7377,-5.1518,53.2430,-62.2103,13.5756,-14.8043,-38.6775,43.8782,29.8117,-52.6461
2.3396,118.9549,11.1089,130.8414,-112.7821,0.1554,-82.9537,-85.5414,-72.8706,-66.6898,-20.4746,64.6707,-78.0227,7.6768,-29.7537,-60.1662,27.5170,9.2776,-79.9720
13.1109,111.5004,25.8022,127.5144,-62.5138,30.8669,-49.0984,-65.3346,-52.8429,-45.2767,-8.0686,57.1865,-34.3395,-2.9497,2.7257,-82.7351,39.3533,35.5038,-79.0403
45.4052,97.6910,63.1680,125.0751,4.2218,76.7294,11.1022,-48.2700,-18.2470,-73.7647,34.0960,57.2165,51.0558,11.4435,75.0568,-81.5430,80.3324,87.1783,-57.0447
93.5500,132.4086,98.4543,173.9033,21.0462,107.0394,39.4734,-36.7833,-49.7164,-94.4260,64.4645,94.1357,87.0694,52.9272,87.4169,-52.3544,100.9123,80.3537,-81.1928
80.3016,149.8267,69.8305,186.8864,-31.1248,86.5930,13.5411,-31.0915,-81.3831,-81.5561,42.6651,112.8070,38.6398,72.7760,47.9061,-17.6456,52.1003,19.0671,-106.5235
-15.0081,84.9228,-19.2946,89.6395,-76.1908,17.6651,8.3953,-19.0867,2.6624,-26.8255,-15.6339,62.2477,-16.4470,34.9214,61.4079,3.2610,-46.9695,-15.1163,-51.5843
-82.8795,12.2975,-71.3108,-9.0914,-49.3236,-26.3251,65.4648,8.5457,129.3185,44.4412,-48.1994,1.0605,-9.0323,-10.8492,122.6809,10.8821,-104.2943,0.4129,41.7642
-66.3352,8.4125,-50.3933,-5.7873,-1.8282,5.1081,110.8952,21.1724,158.9910,54.0431,-35.0716,-1.5034,23.7786,-4.3739,142.2483,13.0294,-82.0409,28.2943,82.5813
-28.1299,39.7706,-16.3434,40.6703,11.2072,54.9959,104.3956,-6.2061,115.1757,1.3795,-12.3161,30.6007,37.2142,27.6365,123.9537,13.5190,-37.8256,60.4158,60.5690
4.8540,63.3571,13.0474,66.4712,23.7909,66.7373,101.3571,-33.1719,83.3112,-31.4339,10.0077,54.5609,56.1974,47.5976,120.5781,25.7815,1.2352,104.5541,33.2516
48.9854,76.4961,53.7129,82.7215,54.6672,60.9462,122.3830,-9.8173,73.8443,-17.1807,41.8172,67.7106,85.0299,72.1860,113.9336,68.6025,49.7880,132.1532,53.8525
69.0113,66.0584,70.9713,75.6265,73.3035,52.6988,134.0185,49.0575,86.6151,30.6043,55.9997,61.8803,83.7286,92.9836,79.3432,121.0339,73.5400,117.5402,115.7697
39.9986,29.6171,43.6593,33.1469,87.7154,50.7364,139.2820,106.2676,126.4214,109.1870,34.1495,30.9967,60.9402,79.4539,50.0488,135.0671,43.1533,87.2384,170.8294
-4.9636,-0.2192,4.5106,1.3006,118.0056,101.4837,156.9676,161.4740,167.3424,186.7628,4.2895,6.7274,54.7175,65.5459,49.8202,120.5185,-4.4583,82.9843,209.9544
-41.0434,-8.5453,-25.8710,-2.8079,137.9271,188.6441,170.8314,211.8055,197.5069,227.8875,-11.5266,10.0585,59.1556,88.9832,64.2880,131.2584,-34.9364,109.9116,247.4494
-51.6749,-7.6951,-34.5227,-5.4910,137.8434,216.9927,172.3998,221.4256,216.4546,228.1748,-9.4142,20.4538,67.2748,110.8530,83.5214,157.1472,-37.0710,143.6251,256.7914
-19.2340,0.9070,-3.1610,2.5817,151.6222,173.3327,192.7287,183.3215,212.6241,187.1208,14.0119,22.2622,98.7016,94.9043,110.3960,140.5298,-5.8213,164.2427,233.5856
17.8633,13.1842,33.9789,26.0702,185.9471,135.7373,246.0404,143.0539,209.1810,136.9800,36.1487,18.8645,142.3600,62.6518,146.8779,85.9880,18.9825,174.1840,224.2327
10.6229,15.3048,28.7181,31.2514,205.0190,145.9276,276.1548,133.9104,216.0326,131.4826,31.4745,16.1863,162.8557,45.7289,179.1706,51.0480,1.0450,185.2942,216.1116
-14.0473,19.3733,2.9932,29.6338,183.0052,203.8052,223.5722,158.1015,177.3460,160.4133,18.7726,30.4813,149.8907,69.6916,170.2970,66.7079,-20.4971,186.5691,164.5218
-18.1799,35.1625,-8.6174,47.5972,136.7298,270.6331,138.8811,214.3050,109.7002,200.0948,15.5627,58.8931,113.2053,127.8439,113.8658,124.8573,-21.6950,144.5535,121.1954
-16.7396,15.7761,-17.3956,23.5720,107.5750,242.5315,116.5859,265.9507,114.4760,258.0515,7.3484,47.5456,77.2752,144.0961,68.6278,182.3499,-41.3389,45.1417,139.2091
-20.0594,-77.9790,-27.3618,-92.8243,100.5170,83.8807,131.9182,235.2220,162.5212,260.6764,-2.2367,-33.8246,70.0515,67.0874,72.5391,173.3813,-75.6185,-87.9771,146.5269
-19.3994,-188.7232,-29.2600,-218.6986,77.9695,-85.9247,104.4319,102.7838,133.0671,123.2085,-0.4858,-125.5086,78.6094,-42.4485,89.7543,83.0450,-88.9197,-205.6214,76.6853
-26.6768,-224.9416,-40.2944,-254.7354,35.2142,-163.6857,52.8776,-46.2138,42.3571,-49.6038,-6.7787,-154.7191,68.3946,-109.1069,88.5909,-23.3376,-104.0103,-245.3049,-28.6457
-54.1027,-174.3565,-73.0972,-208.4169,-3.1344,-161.2576,15.4428,-112.0096,-22.8245,-97.3773,-32.6599,-119.1011,33.9500,-121.4488,71.1943,-75.0692,-140.3791,-184.2628,-111.2439
-89.9797,-95.5536,-108.4084,-133.6156,-47.8607,-105.2710,-35.9800,-66.6694,-49.1461,-32.6545,-58.4826,-60.8756,-21.1682,-82.4804,29.0797,-51.9448,-160.5995,-98.6718,-128.1646
-111.9651,-46.3153,-119.5960,-74.1635,-95.5451,-31.2695,-79.6586,37.6459,-20.0700,55.6775,-70.5506,-25.4117,-80.7755,-17.1976,-20.2972,15.6681,-143.0976,-86.4702,-45.1199
-99.5931,-48.4984,-91.1181,-64.9891,-87.4067,-12.4473,-42.7222,115.6291,81.9397,129.8078,-62.7658,-39.3521,-86.0417,6.0454,-12.4797,61.4818,-101.7339,-129.5901,83.4904
-60.0619,-74.0976,-39.4385,-88.2276,-14.3575,-52.2325,53.6531,125.6232,180.9357,159.1657,-35.2211,-76.6789,-19.0744,-30.3168,57.9654,44.2398,-56.6114,-135.7583,152.6768
-25.9420,-72.9055,-4.2695,-83.2974,50.6218,-78.6179,127.3448,85.1143,204.3106,126.3516,-11.9826,-85.1111,44.5229,-67.3732,112.3894,-7.1970,-33.3518,-89.6306,145.5073
-1.9712,-39.7780,13.3112,-42.4786,62.0422,-77.2212,137.6366,14.2449,162.9448,52.9040,-3.5856,-61.0259,55.8956,-76.3830,110.2705,-53.0085,-20.1040,-45.6687,95.3575
27.3607,-2.3933,41.3170,-0.0727,31.7724,-70.0962,66.4904,-59.7268,66.4772,-29.1387,11.7392,-31.8795,43.3126,-70.2883,74.4412,-84.7049,31.2890,-11.5623,5.9464
53.4941,44.1528,73.8322,51.9452,-7.1102,-27.9410,-48.9860,-76.8586,-55.3119,-65.8303,35.6351,6.0925,25.6792,-38.5662,19.0113,-86.8475,112.4822,50.7155,-75.4454
75.3042,98.5690,100.9284,118.1795,2.3979,58.4058,-92.2322,-23.3199,-107.3385,-28.3966,55.4935,51.5580,21.0340,16.2876,-29.5254,-53.4882,175.7297,138.0862,-68.8246
103.8860,106.4306,130.9699,138.2592,80.4813,126.2982,-28.5076,33.8686,-67.9046,18.1955,78.8982,63.0383,65.9687,46.5009,-23.2008,-24.4734,210.2964,199.0264,-0.2856
110.5995,56.1959,135.2690,87.0305,149.4507,133.8361,34.0539,55.5991,-26.9043,33.6019,91.3552,33.3139,119.3923,34.1342,11.5920,-20.1069,200.8123,200.8969,33.1410
79.2886,23.8439,93.4405,39.5462,137.5276,103.9755,23.6263,62.6623,-28.7735,62.1888,66.7555,14.9793,98.3350,17.9275,-3.3388,-9.8755,139.6538,159.5851,10.4625
59.4875,37.5539,60.3939,41.3413,69.7383,60.4984,-27.2653,48.4966,-50.5103,76.2292,36.8643,25.1396,30.5168,18.9582,-55.1981,9.7094,93.5126,93.9658,-32.4825
62.0711,26.6824,52.7621,25.2291,-12.2548,-16.6118,-83.0064,-12.9019,-89.5680,2.5512,30.3462,18.9671,-11.2071,10.1387,-73.3161,11.4630,75.8245,-13.0336,-92.6293
24.8232,-46.7279,-3.3024,-68.1817,-107.3582,-153.3219,-132.6909,-100.9497,-140.1539,-109.1381,6.1104,-23.2006,-48.7430,-29.8705,-66.0877,6.9732,-14.4395,-163.5033,-174.2976
-55.9503,-131.3606,-109.5755,-186.4905,-205.9007,-300.3670,-174.4091,-178.0565,-172.5338,-189.7616,-47.5872,-67.8104,-112.6889,-75.1653,-74.2673,17.8603,-166.0366,-289.3243,-240.8893
-115.4556,-167.8405,-174.3213,-237.5823,-277.8010,-353.2472,-215.4449,-230.5137,-181.8924,-260.5809,-80.5536,-82.9770,-162.7882,-86.6277,-80.5275,22.3448,-236.4337,-320.8693,-254.3428
-141.5329,-140.5786,-185.5314,-200.2997,-305.0286,-298.3907,-237.1123,-249.8311,-177.5378,-295.4244,-93.6705,-65.5499,-187.2396,-72.4169,-77.8497,-1.7997,-225.9626,-273.4540,-228.9439
-163.7747,-74.4020,-198.9999,-125.1209,-287.1332,-225.1532,-214.2596,-225.0008,-150.9727,-228.6076,-122.6969,-32.5005,-215.1205,-69.0545,-96.7287,-38.0312,-237.3237,-196.2292,-196.3685
-167.8082,-14.2916,-196.2145,-59.5685,-232.5130,-166.8867,-166.5560,-153.7616,-96.9544,-109.2718,-135.4021,-5.9409,-218.4204,-68.6281,-113.6037,-53.4773,-231.6151,-100.8427,-142.0808
-116.9648,17.1312,-129.7622,-12.5103,-146.4268,-97.7287,-102.3206,-62.7199,-32.0929,-31.3514,-88.1150,10.6147,-149.3669,-36.2140,-79.1671,-23.8955,-139.1502,-5.2809,-54.5549
-18.6554,27.8797,-30.6551,15.9830,-40.3911,-53.0075,-4.4761,-17.4223,6.6063,-14.5988,-14.3306,26.0454,-41.3665,10.6579,-26.5081,34.2875,-34.9251,37.4036,4.8976
64.9363,23.4900,36.3186,20.3067,36.9362,-66.1678,73.6490,-45.7948,-3.7117,-36.6375,26.7790,28.8971,22.8488,19.8258,-18.1535,54.9195,7.6786,10.3169,-3.1671
72.4155,12.8377,46.8931,16.3580,34.9693,-80.6143,57.5252,-78.9759,-32.6403,-53.4863,18.1803,7.6646,7.6252,-13.1804,-43.6126,2.4559,16.1330,-40.6587,-20.9915
20.5917,23.2263,16.4165,34.9627,-33.4860,-60.1461,-25.5489,-65.1161,-57.3213,-43.3748,-15.0269,-5.8883,-51.8433,-41.1171,-65.8916,-67.7263,8.0782,-71.6063,-28.0504
-16.3121,65.8586,-17.7270,80.5291,-120.9987,-42.8204,-116.6751,-50.9485,-115.8633,-55.5833,-33.4411,24.0076,-104.1846,-28.5205,-88.0797,-86.7329,-13.3545,-75.0420,-87.5199
-9.9950,115.6630,-21.3626,127.0653,-191.4837,-40.7003,-201.5841,-63.7200,-203.5300,-89.2192,-26.4016,72.0493,-133.2023,8.3748,-117.0167,-60.9197,-5.9741,-64.3479,-182.1166
13.9690,133.7918,5.0424,139.5216,-204.8297,-40.1492,-245.4003,-62.6738,-243.9989,-67.9440,-13.2932,84.0287,-136.1176,24.2135,-134.5532,-36.4790,37.6618,-60.5448,-219.6764
38.5959,94.5587,32.0488,93.5151,-148.1732,-56.2702,-216.8409,-49.7629,-232.6232,-25.5607,1.2941,51.6724,-99.4947,6.6536,-128.1602,-26.0960,64.6653,-70.9227,-202.9825
46.0657,18.4790,31.2453,9.9952,-79.6967,-80.7996,-160.7433,-62.2515,-223.8921,-43.7949,13.4350,9.1779,-46.8209,-13.6108,-105.7451,-15.4597,46.7072,-80.8394,-184.4105
14.4739,-34.1216,0.3194,-50.0424,-53.4254,-81.0851,-122.9442,-79.4500,-207.3822,-58.0186,-2.4410,-20.6581,-31.9237,-25.6715,-80.2296,-12.1150,2.6795,-81.6003,-150.8621
-26.8626,-36.7358,-28.3108,-54.9851,-50.2265,-72.4944,-97.0956,-70.1996,-176.8981,-19.2287,-32.9959,-35.7772,-45.3989,-46.7177,-60.5077,-37.9775,-31.4337,-70.2399,-105.0016
-28.2883,-17.3491,-23.5916,-25.1323,-38.0493,-77.1264,-80.1166,-53.2695,-181.0160,-21.4391,-28.0510,-33.0551,-34.6504,-64.3217,-51.9533,-77.8008,-23.1809,-31.2903,-85.2958
-6.2110,3.1215,0.2138,13.5188,-22.4183,-69.9897,-67.6192,-42.0366,-198.3955,-70.9707,0.6018,-17.0366,-11.7600,-55.0239,-53.3647,-92.9466,15.5688,26.5502,-57.3783
-8.5148,23.1049,8.6626,45.0915,-15.2317,-40.7642,-42.4446,-29.1567,-166.9399,-66.6818,-1.1874,-8.7757,-20.0341,-40.6164,-55.2251,-90.6526,35.9092,58.6193,16.0199
-31.2369,32.4663,-2.3809,58.4703,-13.7596,-10.3408,-19.7326,-29.9514,-132.8622,-35.7357,-27.6334,-13.7772,-42.6590,-44.5605,-53.3035,-106.1178,22.9910,53.8562,68.2013
-42.1975,29.0113,-14.5976,58.6239,-10.3240,15.1397,-11.3667,-59.0111,-164.0052,-59.1263,-41.6168,-13.0026,-45.4227,-42.9380,-53.2699,-121.0602,-0.4110,43.9460,58.8120
-36.8754,23.9895,-15.9094,51.5381,-2.8586,22.5275,13.9614,-90.9270,-196.0864,-89.4211,-41.6976,-4.4445,-31.5937,-20.3910,-39.8913,-90.3509,-16.1015,39.5580,54.8904
-22.2990,20.5900,2.3353,35.9764,7.1792,-4.1344,61.8367,-86.9104,-141.5487,-65.0092,-28.4495,-5.1288,0.5835,-2.9260,19.8888,-32.6469,-3.7423,40.1384,87.2469
5.8808,23.1819,41.1294,32.7160,26.4489,-27.3757,98.5003,-48.4949,-67.5592,-28.9652,6.0634,-9.3765,58.3549,-0.6910,101.7450,-5.8994,41.8003,55.1430,105.1147
34.0457,33.3329,69.2867,56.5663,43.0681,-11.4256,103.9530,-28.8854,-114.3859,-48.2251,33.4603,-0.6981,97.4539,8.7016,119.9512,-16.0248,69.9310,57.6436,86.8323
23.7725,30.9129,44.2578,67.6666,14.1201,6.7489,65.2270,-55.0752,-267.7461,-114.5627,19.4894,12.7330,66.3775,33.6252,52.8279,-13.2117,31.2461,17.7863,54.7483
-23.1745,7.0843,-19.0081,31.0940,-45.0417,-6.8603,3.4587,-69.6889,-361.1023,-132.6683,-16.5745,16.0544,2.2712,58.6029,-16.6934,36.9980,-42.2438,-23.6082,27.7783
-40.9135,-21.9415,-45.6266,-24.8962,-47.5143,-35.1187,-8.2419,-38.6528,-319.0613,-57.0160,-29.8060,4.2196,-14.5867,64.1295,-31.4910,101.7436,-73.4451,-36.7358,23.7661
2.8164,-53.1309,-3.2625,-65.6241,6.8223,-75.8285,27.5576,-29.3174,-238.1475,-3.5402,-9.2005,-27.7771,15.2429,35.3104,-25.4917,109.1028,-32.3751,-67.5305,37.0774
48.6558,-81.6280,47.2144,-86.3345,24.0061,-132.5277,22.0867,-71.1446,-212.1167,-48.8716,16.2566,-65.7737,31.5355,-17.6124,-30.2899,46.1776,28.3471,-121.0813,23.1247
48.8249,-83.9690,48.1511,-86.2787,1.6524,-160.6774,-18.9708,-94.9231,-239.9399,-86.8475,19.5071,-75.4754,28.1434,-53.0777,-31.8311,-13.4343,33.3857,-139.1659,-37.5128
36.4055,-70.7009,23.6093,-76.9084,3.1380,-129.5851,-31.3824,-84.2717,-285.2048,-75.8309,12.1708,-54.0399,34.4808,-42.4508,-32.5821,-14.0684,-6.9941,-122.1790,-103.1098
38.7746,-67.4381,18.1373,-71.3556,4.8456,-74.9548,-42.9827,-82.9065,-295.3544,-100.4967,19.5509,-30.2602,37.6827,-0.5398,-42.9038,22.8941,-7.6196,-96.2856,-113.7267
40.4832,-44.7915,36.3096,-42.4900,-12.5019,-31.2792,-49.4755,-64.5443,-224.9521,-112.8603,35.9254,-10.3022,35.1747,40.2199,-21.0978,59.8766,46.9044,-38.4280,-45.3057
51.8161,20.7221,69.8779,31.7054,18.5899,7.7559,37.2885,0.1108,-120.0125,-25.5523,46.3314,16.3011,72.2895,60.2222,61.3122,73.7671,83.9747,28.9789,48.2413
84.7377,82.2625,105.8189,110.7981,90.9169,49.4740,156.8297,54.8193,-94.8951,58.8767,55.2496,41.4874,136.7021,61.1770,131.7008,48.6724,81.0986,45.0436,76.7972
93.5584,104.9103,113.7626,148.4024,110.8912,92.2184,152.2372,75.6100,-173.5553,67.3841,58.5956,54.4794,151.5009,62.4379,117.7440,13.4467,83.2016,54.9058,46.5278
64.7951,114.8101,100.1486,156.1006,93.2552,144.4589,73.0613,109.2873,-237.5239,98.0356,51.9419,62.8693,123.5844,82.0241,72.0090,22.7199,113.3267,132.3211,51.1413
79.3441,153.5952,130.5318,194.7857,122.9974,217.4826,71.5754,161.5258,-196.3641,168.5788,68.9489,90.6058,134.9095,124.9377,71.1601,68.7635,182.2558,236.6726,103.5693
170.0682,249.2813,223.8512,315.0301,179.3535,306.3517,129.2690,209.5917,-114.8288,203.4840,126.0819,158.3963,185.6698,187.2205,92.9778,101.9418,294.5019,319.0043,139.7579
240.0379,361.7239,297.0202,456.5225,196.5047,380.2412,166.1452,256.3365,-68.9679,221.6027,169.3947,233.3931,210.4493,244.9766,105.4797,116.6187,382.8035,388.1740,168.4172
224.3004,385.5304,290.0346,484.2805,190.2057,405.6721,195.7102,279.4698,-21.9159,242.1579,162.0507,247.4327,207.5450,263.3187,134.2535,131.3800,376.9635,413.9261,222.3064
194.8168,322.0450,256.9351,407.8554,204.9523,393.8749,227.2852,257.3173,35.5765,226.1446,146.5784,213.3983,216.3184,250.2734,164.0017,145.3006,327.9425,384.1064,244.4784
213.5724,294.9182,255.4536,372.2887,233.7615,381.6916,239.1343,233.5849,41.7508,210.1873,153.2727,209.5009,229.3489,247.4294,146.4921,159.9734,309.1275,366.9177,201.1515
226.0210,310.9911,250.2271,381.9393,234.4125,356.9905,243.0563,232.7225,40.9820,231.0727,149.0345,224.3506,215.5502,245.9903,116.8964,171.3272,285.3619,352.7112,163.4939
191.1448,273.2805,209.4593,330.1489,187.3439,282.5303,233.7289,213.7397,116.4029,224.4391,121.6314,192.0343,176.6508,204.8452,123.9759,154.7999,225.7933,266.6356,156.0234
169.9004,221.7184,183.2448,264.8902,131.8209,193.6701,185.7849,173.5735,168.4245,176.2027,110.4969,151.8040,142.7511,154.3232,121.1377,122.8603,197.3808,181.3872,115.6878
196.2432,245.6331,202.4697,287.7863,114.9922,170.4534,132.9429,157.8952,79.2924,149.9870,129.0417,172.3884,137.3682,162.3472,79.5866,127.8271,231.3499,209.0391,54.7517
207.8024,282.1686,216.6221,332.4786,117.9473,214.2308,115.1251,176.6423,-40.5581,149.6625,142.0212,207.0187,147.8305,211.4737,57.9213,167.2475,259.7653,271.6393,56.0690
169.2626,261.3216,190.7323,316.5222,98.4662,245.8754,105.6195,207.3615,-47.8812,158.7315,125.7541,192.8455,134.6783,224.7864,66.9805,178.5279,240.7509,255.1331,109.8334
119.4845,228.3235,148.0068,278.1775,59.6825,216.3447,76.3377,218.1041,10.1404,183.5154,89.5831,155.0257,83.9879,180.5491,52.3873,136.8596,196.6693,191.2127,129.4923
76.1481,195.7727,98.7028,229.0588,18.0128,146.0155,35.8406,175.2712,32.0523,182.1735,47.3648,120.0337,25.3583,116.4286,18.4085,80.5296,133.7280,127.3745,83.7694
22.9151,132.2498,31.7438,140.9732,-25.2420,73.5932,-10.2727,107.2423,-0.6082,137.9949,7.2239,81.7624,-15.5626,67.9797,-2.1783,53.9650,44.9668,62.5520,8.8724
-36.7963,74.1066,-43.0396,58.9548,-65.9747,13.9604,-58.2503,81.8203,-58.4223,115.7613,-27.6598,54.5155,-51.7658,43.2051,-30.0751,61.3078,-47.2288,27.3786,-45.9391
-96.5708,44.5269,-110.7330,13.1132,-110.7034,-49.5272,-104.5953,76.6423,-102.7239,110.2868,-63.2422,35.8863,-105.4378,15.0539,-77.1835,55.5928,-119.1740,25.5252,-59.4480
-150.0932,1.5841,-159.7051,-38.7293,-165.9193,-133.3720,-154.0204,14.1714,-132.9775,40.8265,-95.9038,-4.5813,-158.3947,-42.8192,-105.4888,-2.0538,-162.0226,0.9917,-65.1614
-165.9567,-42.8476,-167.3016,-84.5228,-199.2163,-195.9657,-178.8211,-80.8796,-176.2818,-70.2476,-102.7332,-43.2574,-161.9976,-89.6564,-84.1385,-62.7850,-167.0139,-40.8102,-92.7788
-141.9306,-38.9797,-139.9520,-73.7644,-184.2763,-163.9270,-141.0971,-114.1329,-183.6057,-122.1790,-81.6978,-31.7494,-110.6419,-65.0668,-16.0104,-52.4157,-148.0179,-42.6776,-104.1735
-126.5882,-12.4463,-122.1090,-39.8247,-143.4634,-48.6614,-78.6740,-71.4508,-102.1166,-88.6653,-64.3957,4.8010,-57.5525,-1.9644,58.1413,-0.2458,-137.3674,-6.4717,-76.5403
-129.3577,-16.0668,-122.7194,-42.8783,-90.9170,46.1698,-53.0133,-17.6901,-28.7134,-25.4455,-60.6372,12.4992,-29.0154,21.0705,79.1564,16.4855,-134.3313,35.5728,-59.0823
-112.4024,-56.6029,-111.1366,-84.7919,-22.8962,54.5660,-43.1835,2.4887,-63.1811,-0.0953,-46.8205,-12.2707,4.4994,4.3124,51.6551,9.3829,-121.1704,56.3882,-65.2763
-76.8728,-119.0474,-86.0260,-146.6354,27.8812,-6.8900,-11.8128,-12.6470,-135.0373,-32.5727,-22.1687,-51.9948,47.5948,-14.0228,36.9755,22.3366,-109.7596,13.0053,-57.4521
-51.9689,-170.4793,-67.7863,-201.7569,30.1328,-95.4420,8.7919,-55.9096,-155.8309,-80.8383,-10.0316,-91.2193,64.9781,-41.6362,45.7673,25.5253,-109.0106,-74.6700,-59.0139
-43.2672,-177.9563,-61.0360,-216.9931,7.7000,-148.0689,-7.9077,-111.0363,-137.1985,-117.3748,-10.8868,-103.6419,56.4417,-74.1575,54.2976,-6.0290,-105.3459,-110.4091,-106.1041
-49.4446,-162.2984,-68.2630,-201.9318,-11.2722,-117.0043,-31.8298,-143.9277,-108.1976,-157.8808,-11.8901,-85.7451,51.8687,-71.8693,70.3682,-30.4330,-106.6502,-88.0551,-154.7323
-61.1958,-155.3586,-82.7710,-187.3645,-28.5100,-66.4219,-49.0792,-148.3927,-110.1752,-191.6132,-15.3660,-69.7432,47.7243,-53.5316,77.3249,-39.5707,-122.9398,-92.6668,-179.5684
-58.9625,-138.4871,-84.7594,-168.4902,-44.5013,-90.5253,-73.7773,-157.5158,-168.2566,-187.0103,-25.0298,-66.3821,22.9731,-68.7137,37.7734,-63.6863,-129.6095,-110.9832,-209.7437
-62.6353,-95.9150,-90.0879,-134.5951,-63.2256,-136.1173,-91.3896,-155.6760,-189.6281,-140.4773,-40.9407,-49.8840,-21.5587,-79.4844,-14.7006,-61.0532,-128.6841,-72.6264,-207.2326
-98.7458,-59.0565,-122.8714,-102.3883,-97.0266,-107.6849,-86.5516,-97.3664,-110.5525,-72.2942,-65.2277,-20.5271,-74.3901,-36.0612,-34.9426,4.7142,-151.9559,-34.9860,-122.2886
-122.3673,-66.4728,-136.1139,-99.2177,-125.4649,-69.9264,-83.0350,-53.8172,-49.5320,-44.7030,-82.7936,-27.5769,-112.8604,-7.6573,-46.5474,38.1006,-158.7891,-88.7256,-25.5377
-92.0692,-117.6305,-83.6171,-135.3246,-105.9897,-106.7665,-86.8930,-117.3055,-70.8483,-103.6639,-71.5928,-89.7556,-105.5253,-60.0698,-57.5248,-31.6162,-85.1846,-157.6390,19.0601
-52.4646,-147.0189,-19.9899,-155.3490,-37.8562,-117.7709,-63.4384,-170.1045,-55.6669,-147.8362,-41.5891,-130.8223,-61.7394,-105.5648,-46.5864,-95.7104,15.6618,-99.9782,68.5086
-38.7241,-86.7417,-1.1896,-80.3820,38.7026,8.6793,-9.6416,-57.0992,19.4034,-59.5660,-16.0918,-77.2940,-24.3910,-44.4631,-43.1223,-51.5943,58.8490,63.6147,153.4006
-22.0360,3.6528,8.7777,33.8712,100.7126,183.5759,39.4882,116.3468,32.1601,76.9998,4.4257,7.6366,5.7763,64.0060,-58.5022,36.5908,70.8352,179.8837,220.8132
-1.0955,-2.1905,32.1866,38.7666,153.1044,261.1489,75.9048,176.9581,-11.5904,133.8426,18.7387,12.1365,49.6867,109.2862,-46.6172,85.7216,86.9957,169.7765,256.1108
-7.1995,-90.4017,25.1208,-62.2144,187.2781,229.7149,99.6341,151.0290,-10.6006,130.1737,13.1465,-46.3798,75.2230,82.5288,-28.4130,95.7043,64.1723,97.6448,265.3899
-23.2480,-134.1365,-8.5283,-121.3363,184.3081,160.4262,88.2647,108.1852,8.2852,98.9252,-1.7463,-73.5207,56.6165,33.8586,-54.3532,64.4031,13.1361,67.8704,214.8155
-11.6099,-90.2762,-5.1008,-79.5436,167.6823,116.7957,61.8176,54.7831,-17.2056,49.2345,3.0314,-49.7330,49.0269,-1.8350,-65.2358,-1.9131,17.8031,121.2032,126.6087
20.7472,-19.0437,37.3754,-1.4305,178.0513,133.2866,72.7310,49.7913,-32.1804,50.1894,28.6196,-11.6243,89.3841,-1.1222,-14.2926,-37.3145,70.6141,200.4971,82.6972
45.9521,5.5469,59.8213,30.9994,187.6594,164.7425,91.0439,95.8090,5.5980,75.7791,50.3851,9.5174,117.6282,22.7865,16.1998,-19.5993,88.1353,194.2708,76.6301
51.3806,-57.1397,47.4326,-35.6113,142.0042,112.3312,45.5111,52.0080,25.3647,-6.4184,53.3444,-19.3228,90.3167,12.9931,-13.0272,-9.7052,66.7206,71.9379,36.1750
40.4395,-152.3830,32.4044,-154.4774,70.3353,-17.7714,-32.1096,-90.7797,-12.7862,-141.5949,42.2065,-83.4338,51.7881,-39.2595,-31.1106,-25.6466,56.3850,-48.2105,-31.0395
26.5994,-166.2315,26.1371,-190.5283,33.5085,-98.5277,-62.4016,-157.4537,-38.8187,-158.8790,28.3475,-104.6423,34.4045,-72.9284,-17.9336,-34.0178,55.9208,-57.7596,-66.8989
12.7147,-98.0160,15.5304,-120.6199,17.2172,-77.6824,-51.2962,-116.7414,-11.9819,-96.4007,14.4688,-67.2584,17.9961,-64.9161,-5.8505,-42.5487,40.3252,-13.5492,-65.9677
-10.5031,-54.5816,-5.3705,-65.4999,-10.7811,-33.6161,-34.3967,-82.4980,10.8527,-75.5958,-2.9919,-39.2571,2.7892,-44.9015,18.2281,-49.7542,4.3536,-24.3867,-49.7222
-30.9036,-63.5747,-30.1092,-70.7214,-28.6274,-15.4320,-2.2840,-59.3849,2.7499,-70.8663,-16.5867,-35.8800,5.4235,-14.4614,49.4356,-9.4926,-48.7138,-85.9899,-22.6486
-27.5555,-69.9501,-43.9922,-72.8165,-19.4519,-1.3936,34.9381,-20.6912,6.9022,-56.5705,-16.3046,-23.7827,9.9584,20.6146,42.0484,44.7691,-89.7130,-125.4341,1.6655
-13.5895,-59.2572,-34.5677,-51.9637,-4.3454,2.0026,38.3181,-25.3616,18.4087,-76.9527,-9.9135,-18.6294,4.1503,9.2624,12.4156,13.5149,-76.4379,-107.1647,5.4384
-9.5065,-38.3962,-10.1488,-22.8248,2.6647,-13.9709,18.9875,-59.3669,-2.0870,-100.2959,-6.4158,-29.9759,4.0575,-39.2558,10.0805,-75.0168,-24.0717,-48.5081,3.7338
-6.4508,4.9092,6.5127,26.2992,0.8246,-2.4229,14.6007,-32.7127,-24.4505,-63.2750,-3.2717,-14.3300,5.2264,-37.7066,15.4341,-89.3229,7.5136,-1.3464,19.2664
-3.5837,49.2443,0.8373,71.8118,-13.0493,41.0192,14.2197,33.4870,-21.5609,13.2062,-9.5374,25.3731,-19.2354,16.9285,-14.0987,-19.9285,-5.0598,-5.1336,38.1113
-21.1638,50.4823,-26.9744,63.5425,-38.7563,39.9121,-12.4019,49.2454,-31.6641,59.9274,-35.0504,31.1751,-67.7113,31.7418,-66.9308,17.9882,-41.5838,-42.8165,33.0654
-45.9145,10.5829,-57.9764,14.5864,-75.8196,-29.0336,-56.2105,-9.0666,-54.3693,3.4901,-55.8925,0.1172,-108.6508,-13.1776,-104.4783,-21.6157,-75.2847,-89.5268,-2.1866
-39.4353,-32.7885,-62.1482,-26.7052,-112.7156,-105.6827,-84.5988,-116.1079,-68.1907,-152.1116,-47.9338,-25.1886,-115.3883,-56.2981,-104.7532,-81.0021,-84.7727,-146.5983,-62.4315
-8.6328,-51.5581,-37.3661,-44.1852,-118.6761,-153.0371,-78.3287,-210.0542,-107.3688,-262.4937,-29.3902,-34.7625,-86.4926,-74.9006,-73.1815,-109.9396,-71.3472,-185.2565,-121.4110
9.9523,-45.8722,-14.7290,-43.8718,-92.5984,-169.5172,-41.5651,-222.3402,-133.8054,-244.8392,-20.1920,-36.4030,-48.4380,-77.3840,-32.0985,-100.7431,-58.7039,-176.0543,-129.2543
13.2267,-48.8104,-11.1118,-51.1222,-78.6703,-157.7189,-4.7655,-189.8444,-49.8444,-210.5779,-12.9000,-33.7142,-30.3591,-60.3790,4.8014,-62.7976,-59.2193,-174.1811,-93.5852
5.3820,-82.8781,-25.3856,-96.2228,-101.0015,-146.5415,-14.8296,-189.6070,60.9490,-214.0260,-14.8475,-42.3150,-41.7743,-44.5260,23.7072,-21.9150,-75.5804,-230.3262,-95.5061
-30.0483,-109.4177,-60.4000,-144.6582,-141.9008,-151.8062,-86.1739,-178.4102,54.7654,-156.8721,-42.6822,-60.2451,-82.2103,-53.3530,0.3538,-5.7065,-106.4212,-279.5248,-147.3004
-64.6913,-76.9074,-85.7293,-119.6842,-172.2579,-136.8042,-156.9682,-101.3498,16.1655,-45.1641,-66.1639,-51.7236,-128.4864,-58.6530,-48.7995,-10.7747,-111.8398,-250.4156,-162.9563
-35.0354,0.1382,-49.1593,-23.3237,-155.0312,-84.9820,-144.8715,-27.7647,52.0218,9.7337,-43.8090,-6.6192,-126.4227,-29.2950,-65.9110,-8.2979,-52.8901,-171.0425,-116.0423
34.4966,62.8541,22.0188,62.9748,-72.3069,-13.0553,-54.2120,3.9491,72.1263,28.2716,-0.1351,39.1713,-62.5196,18.4965,-42.7664,17.3116,21.4232,-82.9342,-55.7211
57.0046,84.0073,47.0827,98.7220,33.5373,85.8469,35.7847,60.1214,41.9387,88.6966,16.2321,60.7910,5.0121,56.2778,-22.9192,41.0498,38.1579,11.0387,3.6043
33.6398,82.8682,27.7949,109.7877,97.4924,177.1934,75.4123,124.9817,42.5896,133.8698,11.9861,65.2509,37.2564,64.8699,-13.1760,21.3951,16.6078,84.8292,42.4575
20.5563,76.0398,16.1699,107.3667,90.8626,171.5053,68.0735,100.1816,36.9711,79.2531,13.0977,60.2352,46.3858,42.2227,6.6371,-27.1080,5.7830,101.7086,17.2395
8.8922,50.8721,2.1608,69.8580,36.5793,88.3428,37.1822,16.1376,-3.8954,-19.2010,10.7642,46.7795,32.8714,25.4310,20.5813,-28.2725,-7.6964,77.5298,-20.0831
-17.3582,-0.6550,-32.4620,-1.7444,2.9136,38.4334,24.1714,-7.7954,36.1622,-48.1800,-0.8975,28.1116,2.6544,39.0651,7.6826,40.5217,-41.1603,49.5327,10.4793
-31.2553,-62.8110,-61.3035,-81.7575,28.9698,17.5289,51.1935,21.5716,136.1348,-6.6400,-9.0641,0.1597,-5.5305,40.5845,-10.5815,100.3840,-81.8278,19.2650,54.0792
-54.4430,-123.7548,-92.1948,-159.8485,52.9360,-41.3050,75.9364,12.1389,138.6031,15.4931,-27.8291,-44.5913,1.8709,-2.9260,-5.4150,92.0339,-138.0953,-22.8595,46.5746
-121.1354,-166.2074,-147.2290,-216.3125,17.7227,-93.0638,57.0120,-23.8466,100.6333,5.8470,-70.8186,-87.7504,-24.1926,-54.0268,13.6446,46.2419,-202.3079,-53.0467,41.4954
-161.0421,-148.4844,-172.4984,-198.3051,-22.0969,-80.2276,22.2364,-5.6419,162.3796,33.7249,-95.4148,-90.6993,-66.0021,-76.4899,14.5502,1.8027,-211.5804,-44.8720,54.9310
-112.3826,-76.0749,-127.4854,-108.2974,-19.6824,-52.8038,11.2093,50.1839,231.8601,79.0780,-69.5723,-51.9637,-71.5396,-73.2842,-8.8834,-28.9290,-155.6998,-33.1585,33.5568
-54.0652,-38.8252,-82.3608,-54.9672,-24.9931,-61.3256,13.0391,52.9636,193.9002,54.9549,-40.2648,-24.0888,-61.1184,-51.5653,-28.3019,-19.5369,-120.8705,-78.8815,0.8356
-68.5569,-91.1093,-102.5800,-117.9718,-67.2411,-99.8033,-7.7066,-13.3580,120.8272,-15.9004,-53.1010,-45.4611,-76.6909,-34.3983,-29.9869,29.4696,-153.5501,-161.3042,-10.4425
-121.6972,-172.1347,-154.8909,-230.7228,-106.4975,-154.9859,-58.8101,-79.4730,83.0987,-49.8657,-84.3808,-91.6372,-104.2479,-54.1869,-31.5203,56.4813,-204.1990,-200.7321,-40.8415
-156.9490,-203.3712,-184.9605,-277.6633,-121.9269,-184.6625,-100.0843,-92.8577,75.9447,-41.2954,-102.4755,-118.9404,-119.8832,-91.6051,-34.6215,27.2000,-226.0232,-195.4292,-73.6892
-162.6539,-180.6528,-179.3891,-238.7332,-128.3060,-151.6181,-101.5448,-58.2655,107.2068,-16.3104,-107.8203,-119.1582,-127.1912,-106.1623,-25.7291,-24.3584,-217.5673,-214.6594,-57.3340
-145.9622,-141.8018,-154.2421,-177.3840,-145.2054,-115.0565,-106.5052,-18.2776,142.1014,6.6453,-103.0120,-108.1862,-135.9441,-107.2729,-20.7806,-66.0602,-191.3068,-264.9300,-47.9366
-127.4404,-103.5468,-138.2879,-132.9779,-185.2953,-131.0080,-145.9507,-15.0863,128.5277,-4.6485,-93.0293,-86.9281,-153.6546,-105.8684,-35.0724,-81.2214,-169.5118,-284.6455,-90.7540
-117.9071,-51.9163,-136.6212,-83.0151,-217.8578,-132.6208,-160.3023,-31.4701,109.6741,-26.9372,-88.3309,-42.1922,-169.8223,-73.9531,-44.0872,-52.1561,-165.3020,-244.7211,-118.0090
-106.0505,6.0065,-129.9076,-19.8281,-200.8825,-68.0782,-127.0725,-14.6071,118.4861,-9.0323,-82.6970,10.5653,-159.6118,-23.0310,-36.2769,-13.1792,-161.4578,-171.4254,-106.7961
-103.4642,19.8118,-125.2312,4.0014,-162.3798,-12.3657,-114.0042,17.8222,100.7823,3.3641,-72.4181,24.1313,-133.1344,-12.7210,-34.1223,-27.2717,-150.3405,-108.3560,-100.7788
-115.1143,-12.8401,-127.0362,-23.8852,-137.3120,-17.8596,-115.8640,6.6291,63.5188,-28.7300,-68.6478,-4.0057,-114.3065,-41.4338,-32.1012,-69.7929,-139.3217,-76.1605,-84.0740
-88.3563,-8.6140,-91.2430,-19.8265,-91.2492,-17.7464,-63.2744,-19.4715,73.9964,-24.1200,-56.3162,-7.9331,-80.8944,-41.0988,-5.7476,-62.2353,-99.7868,-38.2073,-44.7152
-9.1201,57.3703,-8.8277,51.4492,-15.8789,38.8233,2.7879,5.1438,112.0124,40.3956,-12.4369,37.1535,-19.2423,4.1926,24.0382,-14.5958,-8.0906,43.8560,-26.5365
51.3409,97.8414,54.0071,103.6615,29.3558,87.9353,4.7054,41.2933,118.9526,60.7821,34.0737,67.6359,23.2070,32.5365,21.1997,-2.0774,80.4362,113.2709,-33.1465
63.6327,76.4142,64.0026,87.0660,14.8581,47.9227,-31.5120,5.0534,91.4382,-1.7826,43.8239,49.5812,12.5146,5.7566,-9.1137,-39.1187,100.8581,87.3127,-57.6560
55.5161,50.8067,44.5476,53.8390,-46.6252,-56.3810,-76.0153,-87.8570,46.4179,-92.0822,25.9616,25.8592,-33.7175,-41.5687,-42.8064,-82.7493,67.6961,2.3332,-120.1918
13.6965,27.8494,0.2493,20.4706,-125.5629,-127.9208,-132.5278,-150.1947,30.8860,-164.6432,-1.1227,8.0186,-86.8286,-73.7431,-55.1683,-112.8102,21.2841,-48.8415,-159.1208
-57.5014,-38.0102,-55.8363,-53.4194,-150.4588,-138.9988,-142.2964,-147.1924,101.1962,-177.6517,-31.5794,-41.7200,-106.0975,-108.4996,-21.8148,-140.6193,-28.4555,-71.3586,-108.0672
-83.0177,-120.4058,-75.0932,-145.4658,-93.9646,-155.8627,-83.1468,-130.5116,187.8437,-137.9121,-43.7501,-106.9479,-69.5361,-159.5258,29.3108,-167.4842,-66.6449,-114.9664,-65.3055
-44.1103,-145.4760,-53.2312,-181.2762,-46.9018,-204.7980,-56.7019,-153.4905,154.9154,-127.1917,-28.9796,-122.5107,-33.5158,-183.1686,24.5458,-165.2788,-69.1313,-145.6159,-123.5742
-6.1135,-100.4697,-32.3992,-142.8716,-67.4643,-221.8734,-102.1163,-181.9253,26.3383,-141.4823,-14.8783,-77.2803,-48.8847,-140.7353,-37.1141,-108.2090,-44.4557,-118.4502,-193.9835
-3.2955,-45.8665,-32.5180,-90.6718,-101.7696,-176.5709,-138.7589,-154.4402,-60.5929,-97.2496,-20.5182,-27.4361,-77.7274,-70.9186,-75.1361,-27.4504,-37.3061,-95.5514,-202.7653
-43.9824,-56.6357,-74.6703,-106.1731,-128.6268,-137.1860,-153.3890,-107.5541,-80.2289,-41.9826,-48.4817,-27.9027,-94.7757,-48.8007,-66.3959,3.2423,-98.3252,-152.1625,-210.4087
-135.6285,-145.3516,-173.0115,-205.6781,-176.0148,-163.5501,-191.9910,-118.9593,-98.9897,-83.5138,-97.4494,-81.4805,-125.1609,-96.3445,-55.2892,-44.7467,-225.5469,-245.0785,-250.7573
-212.6087,-232.8134,-255.1068,-301.5480,-214.2350,-222.2261,-225.7094,-174.1458,-123.8464,-186.5940,-130.9262,-136.3594,-143.7073,-161.3019,-42.8834,-119.4500,-324.0365,-290.5821,-291.1805
-196.9519,-242.6562,-239.5662,-308.5750,-215.4678,-255.6616,-224.1721,-214.3257,-125.2333,-253.2320,-113.2260,-143.7753,-123.0319,-180.0054,-20.6838,-147.9834,-305.3250,-287.3870,-312.6115
-130.2186,-193.2021,-168.5742,-252.7810,-208.8014,-262.3972,-218.1986,-223.1592,-116.4568,-241.3610,-81.4524,-116.8836,-119.7167,-150.1820,-40.1167,-109.6680,-213.4867,-272.8911,-288.9894
-90.9140,-146.3977,-121.1570,-202.1718,-187.5799,-257.3857,-199.2775,-189.8585,-100.8973,-151.1127,-78.0905,-100.0908,-149.7103,-122.0015,-102.3504,-56.9718,-146.2920,-251.0786,-200.6558
-79.6745,-127.1669,-99.6136,-170.1305,-124.6470,-220.2975,-131.1464,-112.0592,-28.4593,-52.3296,-77.2983,-103.0126,-140.3582,-120.8108,-113.1523,-54.3661,-121.3624,-215.5144,-90.2278
-86.6747,-119.4240,-97.5685,-142.2414,-62.7799,-140.8191,-52.9108,-34.7173,98.8186,-16.4349,-65.8526,-100.0762,-94.7632,-120.7101,-56.0493,-87.4031,-121.5163,-161.0610,-10.7712
-114.7784,-98.0231,-124.3954,-115.1708,-43.6345,-62.0729,-24.6439,8.4230,164.8922,3.5674,-72.0708,-74.4039,-83.9353,-97.9196,-27.4033,-87.8618,-148.1340,-87.9236,16.3525
-119.9088,-74.9582,-138.5515,-99.1833,-40.3505,-42.8590,-31.9509,7.4112,92.2104,21.7660,-80.2692,-46.9935,-89.8401,-70.1623,-52.1022,-52.9148,-168.3096,-44.9280,-11.6898
-85.7399,-91.7718,-112.5725,-115.7220,-34.0454,-98.8699,-28.6851,-61.4426,-26.9146,-56.8160,-62.1821,-53.2833,-68.7941,-69.3602,-66.0966,-40.4719,-149.5489,-62.2338,-40.5435
-74.9274,-116.5588,-97.0274,-136.7494,-29.4421,-155.4305,-2.9349,-136.3187,-50.8444,-159.3127,-49.7479,-71.3530,-57.3177,-82.7436,-58.4616,-49.4435,-124.9740,-40.3249,3.9020
-89.5522,-51.6029,-98.8257,-68.9867,1.0267,-84.8120,37.0985,-72.4265,43.3386,-76.5422,-54.6687,-29.9992,-65.2163,-50.9594,-55.8810,-25.5434,-102.7668,102.1579,94.3148
-43.7914,87.0759,-45.1259,91.3334,75.1806,106.3421,92.7350,102.6625,168.9822,127.7235,-29.2128,64.6242,-36.7332,36.2053,-49.1610,26.5042,-30.6257,237.9401,155.6339
59.2609,163.1349,55.3442,202.4918,150.3334,224.9559,159.6510,186.4957,226.2635,199.4432,25.5887,117.3496,22.8560,100.1433,-39.0228,55.8004,67.4315,230.6555,185.3188
116.8867,144.5133,102.8936,194.6339,179.4241,180.4162,203.3220,138.3857,187.1654,130.5585,55.4779,106.9463,57.0205,100.8946,-40.5214,65.1215,99.9606,179.1329,192.9039
106.0516,134.4357,85.1840,169.7145,168.7372,131.8128,199.8725,106.7952,128.1661,95.0910,57.3048,110.2417,68.8903,102.5920,-26.5720,90.6151,77.0157,214.5173,161.6310
94.8273,161.1830,81.7843,191.8222,155.9524,184.2690,186.6703,136.8122,135.9203,121.5075,63.6796,136.2604,92.5243,132.8501,28.3835,112.5033,81.2777,256.2941,131.8490
102.7488,141.7852,106.9464,183.6645,151.6944,214.1254,198.3068,145.0563,202.6423,117.6902,72.8493,111.6130,119.8643,122.6088,95.9541,81.7087,107.0914,179.8851,146.1623
89.6450,54.5541,98.4020,96.5533,121.2417,128.1114,193.5283,98.9996,266.4630,51.8764,64.6922,35.8273,114.1110,51.6331,128.3463,17.4882,83.5635,25.7299,147.3638
42.3194,-20.9619,34.1924,-1.8848,51.7046,12.5581,135.0676,38.5446,283.2560,-9.1042,30.5701,-12.6361,49.8262,-2.8069,87.7901,0.1897,3.7237,-78.0693,100.0840
-4.6460,-31.7383,-27.7568,-41.0900,10.1099,-30.1090,79.7226,26.1104,259.0277,24.9582,-10.7660,-8.1350,-32.7119,5.5209,-4.8633,59.1289,-53.5208,-53.9556,95.8062
-0.6266,-4.6141,-12.1483,-19.0555,66.2853,15.2462,103.7196,94.4357,267.6617,132.6413,-6.4345,8.3612,-29.2859,39.5299,-39.2369,120.0673,-8.0426,68.8628,186.6377
67.2145,28.7778,81.0634,40.4992,178.9039,103.9176,181.7552,174.4465,327.3949,194.0412,54.4803,16.5417,74.0654,52.3224,27.0750,99.5032,114.7412,171.6732,261.9521
131.9018,83.5243,156.5340,125.3270,231.0285,176.1464,202.5990,192.0281,302.3295,195.1397,95.4582,39.5074,138.1838,48.6300,62.8666,26.1182,196.7909,193.9284,221.8880
127.0384,167.3185,149.2892,219.5860,178.1700,228.0252,118.5442,202.8287,153.8612,218.1099,77.8322,94.1255,88.7937,74.7986,-3.8735,3.6093,195.6988,211.6234,135.9940
101.7415,224.0622,122.7194,275.6047,103.2691,274.4439,28.8041,241.0092,89.6586,227.3030,71.0967,148.3784,39.4785,132.6448,-44.7645,50.3080,193.9152,259.4835,100.4420
137.5646,199.8611,150.8450,246.6869,94.3949,248.9170,28.3803,201.1112,181.0752,137.7509,112.9811,149.7590,76.6701,142.6009,7.3434,72.7723,231.6808,252.0113,68.6685
196.6174,138.8468,193.0156,171.5094,125.2910,131.8210,53.8384,66.3651,204.1249,20.8065,143.2615,107.2594,123.5221,76.2936,37.3039,25.5018,254.3154,190.2188,-22.4436
196.2788,125.0691,187.2111,146.5509,125.1708,65.1012,19.7337,-11.6184,85.6186,-11.8888,128.1590,86.8474,110.6674,23.6853,-3.0350,-31.0610,240.8860,184.5455,-104.6587
152.5751,151.8871,152.1260,179.1618,87.3524,108.6737,-38.4180,5.2368,9.7630,0.2587,101.0061,100.5799,73.2577,23.9378,-31.0772,-68.1589,216.4736,209.8294,-129.6442
119.8788,150.9355,119.9428,184.0513,25.5418,115.6257,-92.6632,-13.3254,7.8020,-35.0771,76.0085,95.7087,29.7694,4.3154,-40.0528,-121.7378,179.0386,140.9490,-175.8296
102.7158,122.4781,90.3864,145.5774,-60.6373,24.8237,-172.2548,-97.6958,-39.9310,-107.2960,47.0455,71.4276,-42.9764,-36.0618,-96.4026,-156.5237,137.9751,18.8135,-254.3157
104.6262,119.6756,77.6362,130.1667,-123.1937,-39.9782,-227.1938,-145.8579,-99.0662,-144.6403,34.5871,80.1091,-110.0850,-12.3255,-177.1183,-92.4755,129.6531,-23.8797,-263.4764
131.6984,134.9768,90.7940,141.9118,-119.0572,-29.8760,-199.8521,-131.0474,-88.2327,-133.2661,47.7572,112.0768,-115.1004,54.8934,-201.9063,16.6676,139.8434,-14.7014,-216.8721
137.9381,125.9817,92.2767,133.5500,-111.6808,-12.4411,-170.4653,-115.5629,-64.0536,-127.0697,54.0617,114.0698,-88.2470,71.7244,-160.5753,40.3129,122.3948,-53.2290,-222.3528
90.8506,112.5833,59.1445,122.7874,-166.1510,-1.4295,-211.9324,-115.6116,-91.8244,-142.8233,31.2926,95.7170,-97.4144,49.4416,-113.8700,-11.8876,83.9578,-113.4047,-260.8341
40.2786,128.5563,26.9260,142.6180,-232.2623,16.7724,-269.7022,-104.5043,-158.0005,-134.1305,0.4185,95.0992,-139.7784,50.1151,-115.0678,-34.9903,63.1804,-132.9109,-259.0152
35.4755,137.3712,26.5229,150.5449,-244.2802,5.4699,-290.1884,-94.4858,-204.7422,-106.4301,-9.1095,94.1615,-165.2734,53.6188,-152.2886,-22.6726,71.4030,-132.3914,-239.3772
55.9751,100.9785,41.4743,108.6509,-204.4184,-45.5584,-260.4971,-110.2674,-155.0493,-112.4636,2.0392,65.8304,-155.3299,24.5113,-170.3844,-25.4832,87.3186,-131.3185,-209.5350
58.6223,54.2539,38.9188,57.7410,-137.5877,-81.0218,-173.5570,-116.0970,-45.5787,-115.1731,5.6009,33.8075,-130.9282,-3.6152,-157.9837,-24.4850,73.7492,-105.8146,-126.8803
24.7054,41.2018,5.9355,45.3691,-84.8860,-52.2096,-99.7515,-61.8524,-23.2373,-53.3826,-14.2990,26.6340,-119.3801,3.4821,-152.2152,-2.0144,24.5886,-57.6562,-35.3175
-20.5555,62.6577,-29.2866,76.4869,-80.0164,25.6453,-103.2619,16.4481,-71.4744,6.2761,-32.9812,42.3445,-121.3008,26.5674,-150.7429,-3.2939,-7.6338,-4.9654,-2.3649
-20.7406,100.2508,-20.5623,130.0989,-76.7593,77.7464,-90.1631,39.1454,-44.3275,-7.9857,-21.7390,66.8309,-102.7760,38.3282,-116.2947,-32.2043,10.4537,46.4507,11.3117
27.1362,114.1875,24.6871,148.8120,-22.1672,49.0826,10.2888,2.7054,27.5597,-35.1253,4.2110,71.4771,-48.1011,29.3327,-57.3612,-37.4592,37.3857,66.7895,43.3348
52.9154,67.4613,46.7934,86.7730,36.9045,-19.8129,88.4189,-36.5828,52.6423,-27.0127,13.6386,33.5004,4.1705,-3.6469,-9.7837,-26.8574,33.7368,40.0747,53.5093
28.0067,4.0855,25.6680,6.4163,48.2379,-48.7027,82.4495,-44.3327,92.9770,-23.0253,8.3627,-10.5043,22.4393,-40.7915,24.4160,-41.6075,12.2636,22.4517,36.8671
-4.4560,8.0737,-4.5208,9.5375,36.4512,-12.2387,66.5568,-4.6396,151.0832,-4.0798,0.8538,-3.8809,19.3893,-43.5721,46.8983,-60.6201,-13.4342,49.7310,25.3644
-24.6197,73.7898,-26.2025,82.8345,12.5398,52.8768,42.4774,70.1614,125.1679,77.0265,-17.0694,39.7501,-6.4801,-16.3966,29.3767,-61.0477,-41.7600,66.5354,0.3582
-34.7719,120.4144,-39.0017,132.9783,-43.6224,73.4054,-28.8766,98.0603,76.0322,125.5815,-39.3978,64.8649,-68.2492,-6.0107,-32.7220,-69.1526,-51.6478,26.2660,-45.4347
-9.1691,104.3160,-24.2477,117.0172,-105.0357,-1.8311,-80.0474,15.0634,91.5563,23.8555,-34.1224,55.9683,-122.7150,-15.5082,-90.1626,-68.5244,-26.8792,-54.0099,-63.2825
41.7935,44.1875,14.0537,52.0022,-132.8357,-119.9262,-76.5349,-106.1439,57.8632,-128.7728,-5.3616,27.2130,-123.2878,-9.6239,-107.4605,-13.8779,10.7616,-142.9795,-48.4467
52.0839,-8.3947,30.1817,-15.3088,-130.9373,-173.7339,-89.3412,-137.7374,-57.1181,-136.1914,1.5044,-7.7842,-102.9419,-3.2205,-105.1340,41.8139,29.7256,-185.3857,-46.0942
12.7421,-6.8333,10.6182,-24.0398,-104.4429,-130.1907,-115.5105,-64.1754,-81.7739,-9.8628,-18.8343,-23.4644,-97.3411,-25.7283,-99.6544,16.0241,26.0739,-128.6250,-49.9816
-17.4277,30.0581,-7.9819,24.4477,-57.0666,-35.7161,-85.6040,16.7409,0.5557,70.6992,-28.8406,-7.8245,-78.8593,-41.0897,-70.4765,-48.7136,12.5507,-34.3287,-28.1596
-21.7221,40.2740,-12.6194,52.2295,-21.0101,39.0522,-23.2177,28.5673,41.8898,46.8943,-25.8113,7.8593,-42.4508,-24.4840,-21.7802,-69.4761,-9.0629,-10.7468,-1.6649
-23.0453,17.2770,-17.6313,27.3802,-10.4064,33.6045,14.1243,-13.4589,49.4619,4.7137,-29.0645,-0.8971,-25.8853,-22.8490,7.7476,-61.9947,-31.1196,-31.7201,5.4843
-16.5612,-1.4150,-11.4905,-3.4669,-1.3472,-32.0094,33.7955,-61.1234,96.8547,-29.0853,-22.9266,-17.3795,-20.4716,-50.8577,19.3931,-67.1277,-19.7298,-4.1067,17.2385
-6.9376,-13.5709,9.4666,-18.6014,12.5385,-66.4893,42.2273,-90.6133,118.6504,-75.9137,-0.9031,-29.2748,4.6131,-65.4147,45.6574,-75.7279,26.8119,62.7456,46.2088
-27.3588,-24.9079,9.9712,-27.1183,24.9239,-33.3851,34.5818,-75.9961,76.4485,-75.2036,3.0832,-41.3919,32.1799,-64.4816,80.8232,-88.2231,48.8984,116.2872,71.5316
-51.6678,-8.9680,-3.1478,-4.9827,56.4237,33.8726,53.4747,-5.8575,63.4509,5.5604,-7.9002,-37.5720,53.9134,-62.4145,106.3264,-107.5139,31.8854,152.0238,87.0114
-9.9033,32.9952,27.1064,50.3518,105.6404,95.2411,117.3158,46.6521,111.6083,59.4131,10.8472,-3.0503,91.8747,-31.1327,127.2343,-89.3104,37.8961,149.0813,87.5066
68.9886,48.7314,82.5295,69.3994,117.5983,87.9968,157.2841,7.9679,130.8092,17.6003,47.1052,26.8658,120.9680,16.0618,135.0698,-21.3206,69.3663,81.4654,53.8440
83.5069,12.5689,85.5142,15.8171,83.9771,-3.7493,140.7767,-58.9541,82.4493,-37.7317,50.8479,9.6641,112.5237,14.7254,127.4821,24.6223,61.7362,15.3814,20.6437
37.3993,-31.7540,48.8725,-37.9716,89.1987,-53.8659,149.6320,-57.5557,50.9714,-35.7958,32.3810,-30.1867,117.2028,-25.6496,144.5781,0.0556,23.3772,33.9886,50.9862
12.9512,-29.8128,33.4829,-19.2592,157.9461,22.4044,218.3048,-4.3066,98.5751,1.1143,24.9150,-35.0807,155.0440,-42.4577,181.2539,-57.6234,-1.3591,97.4016,105.5411
1.5531,3.3355,13.9920,30.2260,175.4434,105.0032,232.4117,54.2228,154.5701,43.5679,13.1574,-9.2646,144.3353,-35.2411,165.6222,-92.6170,-34.4445,105.5920,102.2188
-40.0660,-2.4509,-33.2725,18.9698,91.8656,83.4511,141.5807,101.4492,147.6725,66.5639,-9.8392,-10.2305,71.8498,-30.7347,107.8985,-75.7424,-72.9874,45.6939,82.9585
-57.1818,-62.7404,-40.4241,-58.8351,39.1801,18.4116,85.6657,87.0274,129.1105,47.4099,-10.4166,-49.3230,46.5767,-24.4258,99.1741,-13.9835,-55.9601,-9.4703,114.8067
-19.1710,-107.8026,5.8579,-121.4432,89.0046,-12.4677,123.5523,13.6414,127.0881,28.4574,9.3319,-79.0810,92.3331,-23.7838,132.2030,31.1421,-0.2627,0.6050,134.5488
-10.9906,-88.1790,22.4661,-107.0265,127.3755,9.6129,117.6219,6.7476,85.9023,65.5637,11.9298,-74.4744,112.7994,-39.4004,131.2216,1.8124,29.4615,75.0552,101.8093
-42.3825,-26.3616,9.7226,-25.1674,106.3375,84.8231,60.7152,101.8898,57.5584,121.8760,8.1176,-46.1195,95.1123,-38.6282,115.7242,-58.4258,48.0792,155.1592,104.0566
-4.8630,33.4597,39.5327,60.9431,113.2993,133.4296,109.2726,153.8886,135.2385,123.7430,31.7622,-0.8399,105.5882,0.4689,126.2967,-47.8983,68.4263,153.1924,144.5823
86.4223,42.8818,77.2740,65.7476,123.6255,54.7798,193.5750,82.9530,204.3688,58.3349,59.3167,34.2157,112.1959,38.6072,104.5895,42.6993,43.7698,36.1887,103.0882
96.8051,-26.9739,50.3695,-37.7558,39.1888,-94.4132,107.9589,-31.4700,143.1661,-42.6960,50.6718,9.5982,50.1703,27.7933,28.6574,105.2887,-2.8551,-105.5216,-10.6873
29.2607,-120.8820,2.9862,-159.7570,-62.6798,-185.6290,-50.3733,-118.0635,82.8615,-127.2176,22.7983,-62.7731,-17.0363,-32.5864,-3.7280,65.9974,-1.6320,-153.6263,-65.9398
-7.9299,-150.9880,-5.7274,-197.2428,-57.8189,-201.7173,-66.8271,-150.2410,111.2762,-130.9953,7.5221,-107.4462,-12.8936,-94.9723,34.5213,-13.5924,15.4111,-113.4830,-52.4665
-10.8584,-115.0490,-9.5074,-155.2520,-6.8118,-169.0191,-19.2166,-101.5126,86.6071,-48.6861,-4.1880,-93.8440,4.1698,-105.7643,32.4162,-42.0550,-7.9358,-70.1323,-46.5034
-22.8370,-71.6204,-29.5567,-98.2691,-6.9304,-95.5335,-49.1100,-17.1388,-12.9530,32.2940,-21.2544,-59.5706,-27.8637,-67.7783,-43.1887,-24.0647,-34.0534,-62.8766,-50.5579
-17.9845,-57.4872,-32.5856,-74.1266,-37.9740,-57.7180,-86.4789,1.9307,-33.4154,27.8778,-23.8963,-39.8823,-61.5590,-33.2213,-89.9073,0.5575,-35.1987,-105.9241,-56.6881
6.6836,-79.3451,-26.3214,-105.7563,-75.4166,-120.0340,-89.2628,-55.3643,-4.8550,-40.9314,-12.6176,-40.5860,-66.0982,-24.1973,-78.7435,40.1216,-47.4505,-189.5493,-99.1780
-1.7029,-98.0171,-41.8401,-144.3155,-120.3330,-179.2835,-134.1326,-98.1479,-66.0283,-77.9977,-14.3767,-42.3264,-80.3703,-16.0462,-85.0396,83.6620,-61.1809,-203.8144,-148.2074
-36.0834,-49.6153,-52.9634,-92.5750,-130.8457,-102.3188,-187.2126,-56.7322,-127.6634,-33.8079,-23.7850,-13.8659,-96.9109,8.1334,-101.3202,76.6105,-29.1514,-76.5852,-129.9903
-38.8976,46.6826,-28.8925,33.8176,-100.7269,50.5519,-164.8736,38.5704,-45.9073,38.7245,-13.2645,39.5216,-75.3743,38.1076,-59.0160,27.0884,25.7983,50.8920,-74.6582
-7.3307,112.3411,3.5732,119.0140,-92.1668,118.1084,-123.9667,89.6354,54.0665,72.2353,6.3257,80.5715,-46.2581,58.6681,-1.7115,5.9890,46.6954,44.6475,-83.2941
27.3398,148.5012,24.2973,147.4616,-106.4701,82.2449,-125.0335,68.3471,-15.6820,81.6313,14.7986,108.6701,-40.5162,76.8029,-5.3450,41.1918,47.4250,18.8699,-149.9325
64.9874,190.0851,60.4377,180.7894,-74.6408,65.3084,-102.9999,73.8922,-157.5946,119.1924,36.9509,142.1716,-4.5617,121.6141,-13.4299,119.4115,86.6097,101.1922,-150.9556
106.6316,193.2025,113.5157,190.5611,14.5922,115.2349,-11.7078,153.8756,-146.2974,175.9310,85.2630,154.5984,84.1780,183.7190,41.7143,215.5215,154.1822,197.5813,-36.8083
122.9416,130.6089,130.7783,132.6529,96.4752,143.6029,90.5336,200.5712,-9.3684,194.5899,109.1848,122.2617,144.8541,198.1298,94.1407,263.1768,163.5329,190.9531,79.1615
100.6325,69.0467,95.8756,65.9469,114.8418,94.0686,135.8995,151.0132,45.0108,158.7717,82.1336,78.2202,131.9770,147.9532,88.2733,224.6492,94.8234,121.0945,93.4358
75.0082,43.9511,70.5861,37.2174,81.0011,25.3877,122.7220,92.6943,4.2244,106.3192,59.7059,48.4102,113.8439,96.0660,95.7224,164.1131,52.5080,63.7289,57.3052
77.8061,13.5515,94.7316,8.5022,65.2723,-1.7491,106.4983,80.8864,20.1237,67.9033,80.6834,14.7158,151.0373,68.0053,167.6819,128.0076,94.7390,37.2394,52.4845
91.8542,-25.5357,127.0439,-27.7742,115.8490,15.9967,134.5212,85.7213,81.6681,66.0091,105.2643,-21.3075,212.3537,39.9465,235.0711,91.0433,141.9684,51.3588,72.1287
101.8222,-21.9398,136.9262,-19.7908,204.9474,77.6404,195.9678,131.4585,83.7809,140.5199,107.1278,-18.5849,248.1446,46.8775,226.8811,95.8533,145.6655,118.1105,114.1694
123.3552,29.6332,146.1033,39.8699,275.0364,169.6421,256.6059,242.7698,80.6089,264.4773,113.5530,33.8076,252.9471,127.8351,167.7749,200.2057,151.3571,205.6139,204.5618
126.9998,63.9639,137.9449,83.3780,285.4487,233.2120,289.5929,319.9682,140.3151,318.8788,114.0404,75.7572,230.1596,196.8357,127.1902,285.0511,141.4643,234.3830,287.8839
56.5736,34.0614,72.3229,54.5226,237.8257,227.0001,273.8833,290.1749,179.2020,283.2755,64.8899,46.9266,179.8499,153.7173,132.2081,215.8556,61.3984,178.1489,294.3116
-25.7071,-10.9006,8.7264,2.0074,204.5317,187.5412,240.3733,246.0379,154.3062,270.9805,8.8482,-11.3542,143.8949,63.3716,147.9742,96.4317,-8.8900,142.3915,271.4056
1.2958,11.2252,37.8044,30.6016,240.3437,179.8456,251.8396,255.1312,137.6645,272.6024,31.1069,-2.9975,167.6600,51.3815,138.1536,72.0672,33.5939,210.3808,273.8545
95.3192,90.6549,110.1476,137.0932,274.0994,216.4279,284.8074,241.1677,154.0868,187.0544,94.8137,72.5059,201.9707,107.5090,112.1760,93.1521,115.9277,294.0418,260.5446
120.9434,161.4546,122.3163,217.8501,237.5351,265.1318,271.2659,199.9474,189.5286,130.7579,100.0038,137.4228,168.5572,156.9391,86.8060,111.8511,130.9922,318.2460,230.1280
96.2524,207.8696,104.1716,243.3169,203.3248,313.8335,240.5303,254.1402,244.6313,265.4699,70.2971,170.8422,112.7926,208.6042,61.6519,201.1465,127.7029,343.1306,257.0514
116.9534,215.8027,132.7410,242.9108,229.1486,346.8782,249.4896,373.1602,270.6949,416.1601,86.9650,177.1170,127.9289,262.8887,57.6047,312.2075,171.3107,346.0936,325.6978
148.7980,151.8936,168.5530,196.5599,243.5699,297.4878,267.6928,367.5004,247.6725,351.3234,117.3456,123.7235,175.7401,227.8220,92.2620,271.7960,196.9381,233.9341,336.2443
125.5927,84.6380,146.1423,135.4052,205.5926,168.1561,257.7332,232.9685,243.2616,194.4845,95.7792,50.2253,161.0437,100.1791,115.2418,101.3482,149.2939,116.5548,272.1673
91.7047,111.3451,99.9507,155.5465,157.9411,97.9180,221.1148,143.7921,240.7876,132.1062,55.8398,55.5461,92.1675,31.1750,65.0055,-1.8343,90.8612,129.9802,195.1563
84.4310,149.9658,72.7787,196.5507,97.6945,123.9659,142.0432,120.5430,161.4573,96.4302,38.0841,100.5227,20.5270,69.4899,-30.7192,20.1077,66.5850,123.3132,133.6553
56.6993,67.6421,32.7060,101.1951,7.9592,84.5944,41.6316,65.4540,75.7482,23.7078,14.2768,63.8504,-41.8129,85.4499,-87.5396,72.5052,21.3373,-41.3876,84.3011
-4.0634,-67.1475,-34.5486,-76.1349,-48.2877,-60.9320,3.5189,12.1624,80.7617,0.9749,-20.5975,-26.4785,-65.2740,25.5985,-62.8317,98.2964,-70.5630,-188.8525,47.4766
-46.7507,-112.6521,-76.4155,-149.1317,-30.3381,-134.2689,35.9456,29.0470,120.6483,45.9559,-32.8897,-64.5718,-27.1431,-30.4390,13.0571,79.2282,-134.3389,-172.3725,19.6705
-52.3481,-78.1076,-65.9440,-104.6593,-2.2262,-81.4463,54.1451,63.3515,152.4179,86.7220,-29.6031,-57.1053,8.4005,-54.5975,69.2688,7.6695,-120.0179,-120.4700,2.7423
-43.0635,-48.9833,-44.7150,-61.9466,-27.1335,-56.3406,26.1549,66.4128,199.4887,101.4878,-35.0936,-56.4104,-20.0776,-71.8243,59.2502,-46.9511,-86.9184,-164.1180,-0.4286
-39.6908,-64.9232,-55.1696,-85.2173,-90.0268,-135.3073,-11.6876,52.0888,207.2150,87.6940,-45.3211,-67.0793,-76.4689,-74.2397,9.1647,-13.4177,-107.0463,-271.3150,-7.6588
-59.3147,-124.7625,-93.5810,-167.2075,-142.0424,-237.7856,-36.0694,14.2257,164.5079,43.9513,-59.0730,-92.5671,-109.6059,-71.2478,-18.3302,55.5613,-164.5530,-356.9539,-19.4875
-93.9118,-172.6737,-125.5871,-232.7151,-150.2216,-263.0145,-36.6178,-18.7378,185.7001,15.0314,-71.5593,-116.2723,-111.8454,-76.5404,2.6865,80.1448,-192.4822,-342.0619,-1.6609
-102.9097,-139.3092,-119.1099,-189.8639,-113.0069,-171.1065,-7.8155,24.6402,256.0466,30.4907,-56.1973,-88.0483,-76.6000,-49.7001,49.8338,75.9184,-159.7336,-212.6704,47.1194
-74.3648,-60.1159,-75.5047,-83.2223,-42.5487,-31.9445,41.7836,115.3399,244.7245,82.2166,-19.4779,-29.4687,-9.1608,9.3110,89.8127,83.1239,-94.0322,-61.8191,96.0660
-39.3485,-22.4818,-27.8012,-34.9533,55.2417,46.5435,112.1907,171.9982,199.7801,171.0159,1.8330,-9.6924,55.2973,38.4623,108.2027,103.4320,-39.9574,39.5988,150.0048
-13.2610,-16.1188,-1.2004,-31.1521,144.0902,80.1513,185.9895,205.1703,226.4106,250.9399,11.5392,-6.9134,96.2063,48.4597,111.7306,132.2488,-17.8532,104.4037,200.5960
1.6150,15.6197,-2.1522,10.3729,152.9992,127.5222,198.0401,227.4893,232.6867,242.2270,21.7517,31.7829,101.8539,83.1137,99.4179,149.9807,-29.5939,125.3527,181.4433
-17.7760,50.2860,-35.8785,52.2240,75.5220,136.6770,125.1668,190.6317,142.0282,171.5843,3.3092,67.0141,49.3705,98.2618,55.0890,127.7165,-71.9536,92.3581,94.8477
-65.9694,41.5712,-84.2057,31.7529,-0.4774,81.5350,46.4013,113.8026,81.4093,118.6872,-39.8351,53.8450,-29.7086,62.4398,-0.9408,84.6864,-114.7123,64.3406,47.7445
-81.1241,23.0892,-93.2328,8.0632,-9.7920,54.0964,38.3668,72.5417,138.8436,79.6899,-47.2223,36.6392,-51.3646,37.3211,-8.1326,61.1676,-106.7545,88.8843,74.3700
-34.1555,59.3147,-41.1617,58.5379,30.1127,97.0368,85.2041,84.2238,219.7388,61.0195,-6.2839,64.5681,-2.8284,61.0886,36.1045,64.2314,-39.4129,155.4766,105.0655
27.6111,131.1959,25.2764,144.9969,85.4314,165.7449,125.6481,130.1105,225.6510,113.2273,32.9978,112.8518,46.2222,104.1637,52.7890,87.9030,39.9081,237.0934,118.8186
67.7477,148.7757,67.7086,172.4967,138.6659,213.2425,127.2647,152.0532,157.0451,154.3750,50.5597,122.4589,65.8099,121.9010,10.3696,95.8831,95.0340,270.6496,124.5373
98.8352,87.5374,98.5114,120.9262,159.7479,171.8769,102.8455,52.7614,49.4904,43.7275,62.5513,73.4462,82.0619,72.3361,-20.9320,23.4583,127.0979,204.3343,76.9101
107.9707,24.4834,110.7039,57.6127,121.6140,38.4199,75.5687,-117.2083,-52.3451,-136.0273,61.7832,11.7274,89.1393,-18.7949,2.6855,-90.2862,126.3752,101.8260,-9.2057
53.3780,1.0322,62.8558,20.3023,47.8512,-48.3458,49.7859,-164.4431,-80.3463,-173.8734,26.9516,-16.5063,53.6239,-58.7359,31.4869,-117.9709,65.3920,44.0316,-26.2295
-39.2562,-26.9820,-26.6251,-26.1056,-0.9080,-31.8603,36.4821,-77.6252,5.3746,-72.1264,-26.7753,-30.8639,-4.4153,-45.4252,34.1978,-64.2623,-33.7172,12.0458,37.8904
-86.7096,-68.0622,-73.9652,-79.6133,3.8103,-17.2204,58.5514,-30.6470,134.1164,-12.9099,-52.7805,-54.7457,-22.9677,-51.5014,48.3808,-41.4036,-88.1116,-4.1740,94.7323
-74.7246,-77.0958,-57.1088,-83.1492,34.7691,-15.4020,100.3995,-42.7570,176.3990,-39.6376,-39.0538,-61.8167,4.2527,-55.9470,75.4262,-49.3488,-67.2564,24.7202,135.9158
-69.6640,-62.5659,-46.9425,-50.4211,55.2499,31.6163,118.1679,-0.0833,111.7450,-27.0688,-32.5841,-50.4977,16.2384,-25.5202,61.0293,-34.1976,-54.2440,42.9767,187.2930
-96.3723,-62.8647,-79.6106,-46.8509,44.9120,46.1531,97.4861,72.8357,36.2976,53.3477,-58.7010,-54.3251,-14.0582,-20.7530,10.6920,-24.9127,-105.2884,-11.2185,189.1362
-106.2253,-56.9372,-97.8289,-55.4100,-1.3800,-4.0106,50.4441,77.0637,11.9475,82.2331,-71.1661,-53.3942,-43.2941,-34.0616,-5.8810,-19.2738,-132.8801,-58.6126,123.8316
-65.4127,-9.0201,-49.1600,-12.1256,-38.8644,16.8170,12.9479,33.8015,47.0033,33.9569,-36.8521,-9.8310,-35.2437,15.4634,25.8210,29.1894,-47.9530,-6.8894,93.8617
11.9808,69.0783,46.2275,86.8113,7.8078,134.2513,43.7380,24.4501,135.8974,23.6248,13.4758,47.1031,3.7749,80.9540,51.5192,56.2264,93.8381,103.5822,145.1769
99.5760,145.3230,140.2603,199.9156,118.8400,225.4971,126.5955,63.5518,195.5834,69.7490,55.8362,81.7314,55.2081,85.9133,37.5817,0.8341,199.6160,185.5577,198.7403
160.0425,182.6676,193.2269,267.8304,169.3766,258.1180,149.3311,96.8075,136.4904,65.8147,89.1311,102.3341,84.8352,91.4730,-2.0307,-34.7888,249.5466,192.1585,196.2919
155.3178,152.0087,178.6496,234.1727,110.2828,244.2734,79.1010,66.8921,33.3039,-1.3001,89.6115,101.0187,59.6905,124.0929,-36.5680,12.7419,236.8617,120.9485,151.4556
104.9602,83.4634,117.6040,130.4850,33.4223,158.1725,15.2805,-11.8287,12.5266,-51.2560,54.5117,66.8266,11.4705,105.5511,-41.6642,46.5178,163.5290,36.7612,85.1483
71.1096,37.4857,70.4042,53.5853,13.9681,64.3540,10.6462,-72.0897,54.8168,-73.1790,30.6365,36.9884,-1.5525,51.3663,-22.6511,27.9921,93.8718,13.4100,20.5818
61.1463,15.5079,52.0042,19.8987,18.9139,39.6764,8.8607,-93.5459,82.5219,-89.9054,27.7741,27.8181,2.6379,30.6650,-15.4577,16.9193,69.0043,22.9370,-14.5318
32.3449,-15.6401,24.9341,-19.8660,0.1230,20.8433,-32.9961,-91.4407,71.5205,-75.7283,8.7316,2.6321,-27.4784,7.6413,-45.7703,3.6261,48.2172,-1.2680,-23.9592
-2.5138,-40.2904,-6.6862,-49.1305,-24.9932,-25.6700,-85.9012,-53.3996,20.0876,-31.6466,-13.4659,-29.3705,-66.1419,-32.7655,-95.8754,-28.0949,21.4037,-34.4303,-28.8342
8.4481,-25.6059,0.0354,-25.5448,-20.2587,-21.1774,-97.5873,1.7863,-25.4516,-10.7611,2.0559,-17.3632,-57.0695,-20.5216,-116.3588,-19.5817,31.0744,-21.7379,-30.4909
35.1227,0.4808,24.9304,8.3319,-7.0858,20.2464,-68.2700,8.0443,-11.5427,-31.2736,26.4628,13.4574,-23.0733,21.9864,-80.8427,15.7520,56.2516,8.3278,-23.0813
-0.7703,-11.7675,4.2383,-10.6361,-33.8067,9.9545,-64.5716,-31.6316,-4.3667,-59.7322,7.7629,-1.3282,-24.2928,8.2244,-28.1569,-1.9604,36.5418,9.3074,-11.9874
-76.8566,-41.6467,-52.5912,-52.1168,-77.7553,-24.2191,-98.3213,-46.3482,-56.6548,-59.4481,-33.8169,-36.5776,-52.9374,-31.2277,-8.2885,-41.7475,-15.6014,10.8434,-1.7487
-102.6200,-28.6474,-78.6029,-42.9635,-75.2791,-11.1445,-86.5833,-22.5358,-59.5442,-23.9865,-50.2728,-26.9282,-61.4036,-26.4364,-8.5488,-34.5322,-47.8215,44.6814,11.9869
-75.4428,16.4943,-62.3106,9.2340,-42.6727,30.7587,-27.3096,-4.6238,16.6307,9.5459,-45.0972,8.5543,-50.9508,-3.2527,-0.4060,-20.3963,-50.0114,62.4263,24.9123
-54.4791,27.5888,-44.0478,30.0415,-32.2043,52.7709,-14.5838,-10.9133,7.7656,5.9667,-40.7788,14.0607,-40.9465,-1.1591,2.8542,-36.9379,-43.3768,27.0387,7.0815
-41.0661,-1.7399,-37.1445,-0.0381,-18.6279,38.0721,-35.0961,-26.7713,-129.8248,-19.2353,-29.7744,-0.3776,-8.1313,-6.2968,-0.8346,-40.9421,-48.4843,-5.5983,-59.3056
-28.9883,-29.1076,-39.3304,-34.6430,17.9977,11.0715,-23.1473,-33.3589,-243.1866,-39.7387,-12.6621,-5.9216,44.7080,-9.6557,11.8987,-29.4856,-70.5493,10.2303,-122.2685
-61.9425,-52.9382,-65.5802,-59.6619,19.4524,25.8286,-31.7792,-22.2009,-262.4836,-50.8649,-19.0570,-19.3768,56.5512,-18.0323,33.6352,-45.7600,-92.1882,36.2716,-119.6162
-119.6721,-76.9169,-101.3376,-84.4717,-15.1096,71.1614,-81.4520,-8.1958,-237.2637,-49.5566,-41.9296,-40.3179,33.3278,-26.9882,52.5563,-74.9119,-102.2745,45.6809,-98.3573
-109.3114,-64.9762,-100.2312,-78.8571,-13.8575,59.8884,-77.4328,-15.0885,-201.8647,-52.0219,-34.0811,-28.0440,46.8173,-34.7711,73.7485,-83.4727,-110.7582,53.0734,-149.7129
-46.1067,-28.0023,-72.4632,-45.0636,-1.0995,-22.0347,-39.0903,-50.6218,-200.8876,-86.0918,-7.0485,4.5832,67.1838,-45.6193,63.5566,-82.2137,-121.4067,32.8808,-237.8282
-43.3512,-36.0333,-80.0514,-56.8446,-45.9284,-96.2447,-68.3438,-101.3566,-258.1708,-127.7859,-21.0744,-4.0133,19.0674,-57.3187,7.5934,-76.4610,-137.7193,-33.2701,-251.7122
-106.3500,-89.6040,-126.8036,-123.3215,-94.2650,-120.3547,-110.6677,-130.2657,-289.9801,-133.0935,-64.0515,-46.5959,-37.3322,-67.5873,-16.8212,-60.9067,-170.6142,-73.0955,-196.0649
-137.9363,-112.9516,-152.2829,-153.9749,-78.9792,-103.8017,-94.9504,-108.2850,-238.9102,-110.2112,-73.5125,-60.1688,-28.4230,-73.5934,9.9654,-57.9963,-192.6407,-39.0773,-165.3650
-102.4812,-77.2046,-122.9613,-107.2147,-54.5727,-67.5445,-99.0185,-63.5087,-186.6971,-83.4583,-48.5387,-34.2031,-20.3628,-64.0971,-13.5272,-67.8900,-151.0858,-2.9053,-175.9290
-30.7903,-16.6684,-53.6998,-27.4781,-63.3282,-47.0870,-137.9237,-40.8301,-202.1325,-62.6729,-18.5748,0.6945,-48.5169,-30.2925,-93.6059,-48.0664,-56.0468,-21.0802,-170.9116
34.3438,31.9590,12.8933,37.9839,-69.4898,-45.8156,-128.5662,-34.0812,-237.4435,-61.2770,11.0458,29.5054,-47.7263,14.2351,-117.9829,-1.3688,19.1427,-51.3299,-136.6340
33.5860,39.3158,20.7483,51.8357,-77.8790,-28.6502,-110.3699,-25.5295,-232.1228,-64.1395,13.3485,33.2155,-38.6129,33.0334,-87.4092,14.4076,26.9697,-63.3014,-101.5557
-28.3754,4.8485,-23.6210,9.7115,-102.5131,-7.5221,-137.8316,-27.5821,-185.8562,-45.9291,-23.9850,0.9723,-73.4139,8.6463,-78.4991,-14.9200,-4.9893,-73.0347,-70.0050
-41.3036,-18.0478,-24.1261,-15.3931,-78.5303,-12.3073,-113.9527,-34.5619,-117.3299,-32.1255,-32.1948,-27.3471,-70.8917,-22.8599,-62.4836,-45.9619,2.9461,-58.5929,-23.7632
37.3966,10.5485,57.8962,29.8162,9.6689,-11.1701,-13.2930,-21.1935,-31.1842,-28.4315,20.8207,-16.6465,3.1028,-22.1031,-20.0337,-50.4137,89.0179,0.6898,38.8620
110.6161,55.9116,131.2119,89.1787,54.9850,7.8654,25.1420,-5.4695,42.3976,-3.3959,58.1048,7.6479,21.1535,-3.5960,-38.0178,-36.6489,177.9225,29.3279,80.2491
130.7684,69.3946,140.4583,105.5763,6.9530,-9.3863,-35.8529,-31.6081,21.0960,-21.5060,52.0688,17.2110,-38.5595,4.0970,-116.3050,-29.8408,192.2024,-42.3573,46.6940
151.8438,55.6221,146.7601,101.0235,-50.4542,-65.2782,-90.0509,-101.1468,-106.7242,-151.0023,67.0354,16.9979,-41.6579,-0.5425,-130.8777,-53.2989,185.2005,-131.0370,-47.0070
169.6083,34.6111,174.1357,84.2672,-55.4555,-101.7876,-96.5541,-167.6317,-195.9364,-263.6476,98.4482,2.6088,19.7980,-18.2747,-59.5089,-91.6776,218.2140,-123.1905,-100.7973
134.8719,-7.9628,160.5115,18.7746,-37.1416,-115.1733,-87.2201,-185.6506,-141.8988,-231.1886,85.2669,-35.6722,37.2061,-47.0504,-5.2836,-93.2607,221.5103,-78.5911,-72.6794
83.5833,-80.9417,99.2581,-84.5835,-27.1273,-136.2565,-77.4169,-160.8561,-57.7062,-157.5515,49.2889,-75.6144,13.6594,-60.9263,-13.2252,-43.8940,141.9961,-118.6306,-51.5934
70.3370,-138.7128,56.2132,-155.3567,-26.9941,-154.7408,-84.7927,-144.1221,-81.2765,-155.2927,40.0115,-89.4175,9.1454,-50.2297,-42.8032,6.2791,64.4240,-196.6845,-97.7987
70.2279,-136.0153,48.6493,-153.9823,-30.4141,-150.0921,-107.5748,-155.5760,-164.5651,-172.4270,40.0666,-79.1804,11.3515,-41.2706,-61.3549,10.5000,52.4892,-187.7179,-143.4499
53.6761,-103.3597,40.7070,-115.2651,-15.9493,-122.0077,-94.3414,-160.0303,-191.2273,-173.5802,31.4440,-63.0015,14.5481,-47.0585,-55.6466,-25.5261,51.2715,-106.4866,-131.8239
32.8319,-102.3124,20.2464,-102.4467,25.7945,-76.4142,-30.6123,-142.7598,-147.6734,-187.9116,27.9759,-58.3952,47.0352,-53.0503,-12.7132,-61.3445,15.7491,-54.6953,-97.5818
5.7895,-138.8306,-5.9909,-136.4083,50.2160,-39.7447,18.8134,-139.1886,-111.7773,-207.8816,20.5078,-73.5815,80.8044,-51.3317,46.1492,-65.9541,-30.6395,-65.0304,-74.2217
-29.9097,-171.7682,-37.1929,-174.7829,16.9047,-43.4651,-1.2982,-172.2057,-149.1584,-243.9096,-1.3505,-91.3464,62.0932,-48.6465,53.1952,-57.2295,-64.9079,-101.6822,-69.9885
-44.6583,-161.8741,-59.3272,-162.6875,-35.2476,-66.1705,-67.3831,-213.1809,-217.4806,-300.1604,-17.9007,-81.2581,-0.4467,-49.6713,-25.0175,-70.7508,-75.4374,-105.8690,-94.4985
-37.1301,-99.1086,-60.1087,-97.1618,-48.9489,-55.0837,-106.0834,-203.4342,-214.0471,-269.4422,-27.4266,-41.5969,-59.4804,-43.4407,-114.9925,-80.2350,-58.8324,-43.7099,-104.0518
-49.2512,-27.7690,-60.2673,-32.6792,-35.8253,-8.0281,-77.5870,-114.0667,-136.8436,-108.4233,-46.2679,-7.1620,-81.3539,-17.8927,-115.7191,-40.1554,-51.3802,25.5850,-41.6467
-83.0837,-6.8625,-76.7440,-16.0547,-29.1751,23.4571,-18.4252,-7.0554,-63.7352,21.5251,-59.3175,-3.9138,-56.0778,1.1000,-31.1870,0.0013,-81.3604,31.5941,31.6906
-94.7599,-27.3754,-86.6630,-34.4105,-18.4678,7.5707,19.5697,19.0463,-11.4928,9.1420,-47.8473,-19.6603,-7.8174,-23.7661,49.6827,-31.9992,-108.3742,20.1980,23.6772
-71.1018,-49.8053,-68.2844,-58.7133,8.1503,-35.0950,29.5447,-33.3035,22.2868,-55.4515,-27.1017,-36.4036,20.1961,-65.3939,63.6681,-82.1298,-87.4848,39.8093,-13.8861
-31.0990,-82.5446,-32.4132,-93.2306,31.7973,-75.3068,23.0149,-72.1567,2.2055,-88.0271,-7.9614,-57.2538,17.0067,-67.5764,9.8970,-57.1430,-35.5579,27.5791,10.6416
11.7485,-122.9420,2.3409,-129.0751,42.2020,-110.2228,9.8435,-61.7265,-53.5913,-95.9242,14.4171,-78.3201,8.7385,-42.5268,-60.7738,10.0794,8.3102,-38.7561,58.1532
27.2604,-121.9779,14.1911,-127.4685,38.3863,-132.3360,2.9409,-42.2073,-87.0232,-69.8753,18.7019,-81.6026,5.6491,-40.7556,-79.6623,25.0976,14.3155,-78.6880,52.4731
-20.3108,-83.5579,-21.7179,-96.4826,6.8091,-111.1195,-8.7687,-31.4266,-85.5973,-8.4873,-19.2288,-71.6840,-12.0691,-63.9895,-38.1325,-23.9716,-34.6977,-73.6237,8.1110
-92.3367,-65.0101,-81.5484,-82.9138,-42.6754,-48.1154,-46.6874,-14.7156,-48.4864,28.3475,-64.0899,-64.1226,-44.6227,-75.4659,1.2552,-72.7612,-98.9511,-75.4782,-32.0176
-100.3120,-71.3416,-95.8212,-88.0337,-72.4931,-6.5142,-97.2765,-4.2647,-12.8302,4.2312,-60.8702,-52.4306,-63.6127,-54.4445,-14.0840,-62.8139,-101.5019,-89.1120,-64.4278
-36.5111,-77.0706,-49.8276,-91.8234,-75.5916,-36.1430,-136.2553,-28.9355,-64.0545,-48.8194,-22.0045,-39.2956,-67.2312,-20.8255,-82.2956,-4.9353,-39.8249,-110.9216,-90.9803
25.8672,-82.8269,2.8333,-93.5995,-69.3859,-95.3532,-147.3200,-80.2831,-136.0936,-95.8735,3.3142,-43.9613,-73.6025,-15.3488,-145.6944,21.3738,19.2466,-151.8292,-93.9601
52.2317,-73.4702,37.6577,-71.8123,-54.0233,-97.7389,-113.6586,-117.0664,-65.6153,-131.7653,13.5061,-50.7967,-65.8965,-35.6962,-127.3920,-22.3392,59.4412,-159.5242,-61.3799
55.1869,-34.3728,64.3047,-18.3608,-33.9309,-31.0037,-69.9245,-118.2289,61.8433,-143.5943,25.8531,-35.5647,-34.3273,-38.9220,-46.7517,-73.8145,106.2880,-86.1668,-15.4954
35.1855,0.9843,66.8508,17.2695,-20.9435,33.8030,-74.5874,-91.2796,62.8230,-95.7337,21.3907,-18.7968,-24.7280,-25.4277,-20.3456,-81.0547,136.2957,13.6561,12.0924
10.3436,21.5489,43.6841,29.3408,2.0605,61.4233,-80.6233,-35.0420,43.1002,6.9163,-1.0909,-8.8654,-50.0101,-19.5210,-69.2106,-61.9095,120.3171,79.5743,38.3473
21.1333,54.7425,35.3583,68.2738,46.0021,84.7566,-13.0530,41.7410,126.2363,80.9987,-0.1710,21.2851,-49.9477,1.7096,-93.1093,-28.8577,89.0078,111.2345,87.1706
49.6140,70.7845,45.0134,100.0190,76.0307,103.7623,57.4736,80.4488,143.6923,68.3953,21.6894,47.8468,-11.1280,35.1455,-69.5341,1.9440,66.2453,95.6346,105.3046
40.8256,30.9636,32.9525,62.0450,65.3518,78.1163,39.2004,41.5406,17.3671,17.8356,14.2640,20.7020,3.7097,14.0423,-62.3477,-28.3328,32.5745,22.0299,47.2045
2.1394,-7.7867,0.3069,16.8545,23.1637,19.4302,-15.6246,-20.7939,-68.4636,-18.2879,-20.5623,-24.8981,-27.3104,-54.7462,-73.1559,-114.9681,-10.8951,-57.0131,-22.0235
-23.3982,10.2791,-25.8233,35.8630,-36.9481,-29.9362,-44.3939,-42.1772,-75.9014,-56.3793,-36.9513,-21.2879,-62.7317,-80.1014,-72.9050,-156.2546,-42.6228,-80.2840,-48.7516
-28.9929,49.2312,-43.1759,70.9820,-83.9634,-59.4947,-68.8149,-37.3023,-129.8062,-91.6456,-28.5168,20.2811,-72.9066,-47.8823,-76.4290,-116.2630,-60.3565,-35.8082,-81.0375
-21.5279,74.3806,-43.0593,83.0899,-80.1314,-54.1922,-92.8867,-39.5284,-185.7581,-82.5165,-17.8269,51.3755,-63.6523,-21.5048,-88.7411,-76.2069,-50.0076,44.2390,-129.0318
-4.3966,89.9641,-14.7840,97.8395,-48.8386,-4.7990,-102.3449,-48.1872,-148.1774,-51.1776,-12.6900,55.7076,-60.5251,-22.6872,-98.6886,-91.7636,3.2729,95.6177,-127.7766
8.6451,86.1619,11.5841,106.4652,-39.8552,31.5388,-110.0965,-65.3643,-87.0543,-62.8514,-11.3491,41.8496,-75.2421,-34.0907,-114.4985,-129.2042,51.3800,81.3181,-90.1759
20.5148,70.1161,14.1227,95.5528,-45.4526,10.8663,-106.5368,-90.6365,-75.3424,-106.0695,-8.7716,34.0678,-84.0071,-41.4416,-131.4948,-138.0382,44.5125,34.6859,-93.8937
40.4889,75.6969,15.2509,96.0594,-47.0207,-20.1595,-89.4140,-95.8771,-76.5911,-99.5116,-6.9805,44.6338,-84.7189,-35.6277,-141.0646,-112.9120,19.0705,-10.9396,-128.3717
43.8228,92.7523,20.4701,106.5110,-61.8807,-23.7506,-93.1796,-70.4379,-43.4120,-28.4697,-18.6357,47.6857,-108.0202,-29.2147,-150.0849,-87.4322,20.3064,-51.3254,-120.1228
25.5562,92.2224,16.3946,103.9542,-78.7694,-22.4583,-89.7584,-40.1687,32.2926,10.2569,-26.8744,37.5088,-123.3183,-29.6574,-130.4490,-77.0819,28.7494,-57.0533,-62.0869
24.8454,86.5426,14.8813,105.7451,-67.6420,-23.2106,-38.5826,-22.2391,88.8602,-35.6959,-5.2007,44.4628,-83.3846,-14.5015,-70.9317,-61.6962,22.9071,-23.2927,-17.5213
28.2253,78.2816,9.0493,100.6304,-56.5581,-26.4680,-13.1246,-20.2220,44.7519,-69.8374,6.3906,51.6615,-51.6343,0.5035,-47.2871,-44.3180,0.4116,-19.0599,-28.4216
-11.9881,46.9474,-29.6003,49.8733,-74.3838,-53.8048,-48.1128,-38.2443,-41.1777,-22.6687,-34.1961,23.1253,-84.3289,-22.2598,-76.0561,-42.8724,-50.2901,-63.4975,-60.9199
-57.3737,15.0807,-68.8819,-4.0714,-81.7610,-75.2512,-46.7549,-56.7108,-55.3362,20.8143,-71.1185,-3.6142,-100.5744,-39.9968,-62.5171,-30.1491,-100.7720,-78.8527,-58.5878
-56.3065,10.4002,-64.0899,-7.3346,-55.8819,-37.0383,-7.5984,-44.4702,-35.0316,12.8986,-57.5351,4.6736,-59.6278,-11.8814,-11.8647,0.9570,-96.5004,-40.6697,-30.6258
-56.5529,5.1892,-56.2486,-3.9239,-36.4194,21.3160,-25.0155,-6.8734,-31.6749,29.5492,-47.8551,3.5104,-48.3916,-0.4498,-18.2793,-5.0007,-69.0433,-13.4392,-15.2979
-85.0249,-16.6253,-80.2975,-26.6373,-37.3554,25.3962,-49.2303,26.2068,16.4501,68.7510,-65.7541,-20.9625,-76.7771,-31.9218,-46.6171,-41.0473,-84.6498,-24.8229,1.1149
-74.0001,-28.8385,-79.4360,-34.5887,-28.4169,-15.2550,-3.5229,36.4062,80.1145,47.3284,-54.5354,-27.4910,-63.1307,-42.0266,-28.4460,-39.4142,-101.4691,-51.5906,28.7051
-12.2540,-34.1976,-25.1654,-28.9462,-8.8945,-60.2330,23.5261,13.0268,52.0217,-7.3472,-14.9891,-30.4180,-26.3715,-38.2845,-24.7107,-28.3301,-52.3033,-89.0366,28.5482
27.0877,-51.6217,23.0503,-46.4265,-2.5391,-105.8034,-13.0647,-37.3262,3.8318,-22.6519,-2.4321,-61.6630,-28.9774,-75.9465,-57.6991,-66.8901,14.1546,-131.1805,0.5687
29.8889,-56.8804,32.6570,-61.1765,-5.1544,-142.1705,-13.7168,-72.9236,62.7362,-13.3326,-9.7331,-80.8585,-37.9273,-114.6573,-45.0193,-101.5566,27.2993,-146.1645,-11.5032
26.7294,-35.8713,24.8279,-46.8836,-4.2572,-148.2975,26.9114,-62.4121,161.1966,4.3032,-9.1943,-63.9718,-26.7622,-113.0219,2.0163,-92.0403,6.2423,-125.4526,-9.1309
6.4021,-29.9586,3.7103,-43.6971,-5.1067,-137.5388,25.0247,-33.1458,184.2048,31.5736,-17.3342,-59.1787,-31.7676,-116.6051,5.0790,-97.7614,-15.9892,-101.4607,-9.9831
-20.3844,-62.6338,-22.7593,-75.7676,0.9561,-141.8652,12.6649,-33.7553,134.2898,15.9233,-29.3838,-80.7376,-36.1436,-134.5053,-13.4131,-119.8904,-43.3386,-99.1673,-6.7144
-7.9314,-103.4806,-24.1627,-115.9503,28.7555,-165.2022,42.5254,-73.3229,50.7084,-55.0153,-16.7458,-91.6041,-0.6958,-126.1367,-10.4370,-97.8936,-64.3038,-110.3907,-17.5286
13.3909,-127.7529,-14.6818,-145.7971,40.2066,-175.8518,46.9552,-121.2372,-15.2105,-112.5259,-1.8077,-90.1148,26.5414,-106.3177,-5.2776,-62.3737,-64.7367,-120.8407,-56.3405
-18.2269,-134.4701,-33.8185,-158.0941,-12.6070,-146.8602,-19.2344,-146.5467,-24.7006,-139.5901,-15.7323,-91.8956,0.6072,-98.8769,5.2258,-68.7998,-62.6138,-128.0515,-85.9563
-58.0640,-118.4358,-54.4321,-138.9039,-76.7526,-103.1662,-85.9733,-145.1829,-43.3715,-156.2362,-30.9457,-83.7061,-28.1366,-86.2236,23.3330,-86.2781,-58.3563,-123.0312,-97.5780
-32.9486,-85.7832,-28.0851,-100.5066,-60.9208,-88.8308,-95.1997,-128.1363,-106.5884,-126.2182,-20.2769,-66.4235,-21.8970,-75.8898,-2.7950,-85.0400,-24.7747,-95.8995,-110.7292
17.0545,-67.0505,14.8878,-80.2922,3.3353,-96.6166,-68.6416,-90.9113,-94.6753,-43.1761,-4.8282,-64.2093,-16.2830,-84.1064,-62.4898,-76.4813,21.1438,-73.2885,-90.1043
20.4002,-77.7990,17.3833,-93.0863,19.2902,-100.7788,-41.8732,-32.6081,21.1556,22.9576,-2.9743,-76.1600,-21.0843,-87.8922,-62.0374,-55.8875,22.3891,-97.1481,-36.6708
-11.2429,-102.6790,-14.7328,-124.3425,-12.2519,-113.4083,-26.5309,1.2162,78.0995,31.0411,-9.4578,-87.9854,-4.8708,-87.0358,11.9560,-39.8046,-32.1430,-158.0518,-41.3760
-44.2385,-122.3136,-46.8588,-151.1175,-42.5473,-128.2601,-34.2266,-26.8125,32.5542,-4.9963,-23.1812,-98.8825,13.5771,-103.3472,74.3838,-65.1801,-86.5038,-195.8970,-104.2410
-72.0852,-114.9985,-63.1925,-141.5081,-71.4116,-95.8623,-78.5223,-64.1471,2.7044,-49.8774,-36.5227,-94.4335,-6.0581,-106.9831,73.8791,-102.1332,-83.3050,-161.0412,-124.4236
-72.4482,-65.0690,-53.3591,-77.6950,-83.1810,-22.4491,-131.9703,-49.5304,-16.3100,-57.8185,-31.6069,-58.1899,-36.9167,-77.6872,21.2754,-113.2554,-30.7559,-67.6360,-108.3010
-38.9223,-7.4997,-26.2893,-3.3248,-50.8317,12.8592,-141.4000,-26.7018,-88.3269,-35.4587,-20.0373,-22.8579,-43.6095,-69.2367,-49.4603,-138.9908,5.5718,-3.1479,-123.3150
-17.5576,4.1266,-13.3569,16.5582,-27.7997,-16.6201,-119.2597,-48.2569,-126.2206,-37.2075,-24.6029,-27.1990,-48.7974,-100.1652,-84.6557,-184.5336,-0.1284,-27.5733,-138.6866
-12.9406,-7.6226,-2.4354,0.1225,-53.0511,-40.8443,-116.9854,-65.1601,-75.7439,-58.6002,-17.0154,-35.9903,-44.3354,-95.6079,-45.5537,-163.9130,15.2388,-61.3109,-124.2339
31.3869,18.7923,50.0757,21.4602,-51.3149,-4.4237,-102.7208,-40.4125,-52.2268,-60.4083,34.9177,2.1107,19.7344,-17.1703,35.4531,-57.2174,90.6562,-6.2127,-112.8651
97.5445,64.6682,113.3519,74.6959,10.1344,46.9047,-27.3744,-25.1150,-89.0279,-48.6148,80.3835,50.0041,94.2785,57.1683,78.7014,29.9792,150.6667,63.7501,-85.2398
104.6868,69.8459,114.0253,90.4613,40.4763,34.3863,38.8465,-32.2909,-78.3596,-31.2669,61.8362,43.3790,78.1262,45.5402,47.9877,18.3230,124.1782,27.9629,-23.6151
65.7871,46.6195,68.5232,69.0831,2.9416,-29.8519,20.1533,-13.9337,-29.0619,-11.6896,24.3020,9.7282,8.2645,-10.7284,-10.9346,-36.1334,63.6541,-55.6537,0.9441
54.5351,41.2146,48.2578,60.2527,-27.2965,-53.8449,-24.2911,22.6895,-40.4631,-9.7854,28.3329,13.5720,-10.7741,-7.4554,-40.1080,-21.1898,49.3926,-59.6371,-20.6186
70.5311,52.4875,59.7329,66.6386,-6.7921,0.2939,-22.3432,42.4432,-80.1144,0.2525,48.0869,46.1336,13.6301,59.7483,-41.9063,67.4863,73.0501,5.9238,-11.6149
85.2928,67.5015,72.5416,79.5819,31.4991,70.0783,-5.6270,43.7863,-86.0009,23.5965,53.9768,71.0029,29.5371,102.5081,-49.1351,113.0105,92.3209,63.1339,-3.8470
112.5684,94.4606,87.9702,114.0067,43.7253,85.5485,-19.8918,-3.0170,-118.8676,-35.7122,67.4248,96.1149,36.6261,96.5301,-71.7061,70.3349,107.9365,100.2165,-74.6784
144.8266,124.8156,108.5968,149.7410,17.9472,46.0461,-51.0847,-106.7598,-189.2318,-162.3642,83.3888,122.3819,28.4049,87.2221,-97.9407,29.3248,133.6186,128.3491,-153.6364
142.5826,131.8889,116.3800,148.2570,-8.3764,6.2675,-64.0250,-158.6975,-175.9429,-178.2208,73.8167,115.0797,5.3931,70.2266,-95.2801,19.2979,153.1586,129.0761,-148.6495
99.8942,110.4952,97.2285,121.8752,-0.6397,14.4960,-43.4951,-95.9041,-57.9381,-81.1060,51.3612,74.2556,10.7363,22.8000,-33.3057,-28.9592,134.3433,103.7173,-103.3555
36.9287,83.2631,47.2479,101.0528,9.9328,62.9305,-10.5901,-22.9841,27.2179,-37.3783,29.4399,48.2930,33.2159,-6.5206,42.5091,-84.7407,69.1067,94.7487,-70.7601
-20.1554,68.9110,-15.5598,81.7703,-4.7340,104.2526,-2.0615,-7.0616,8.4248,-38.0194,-1.3385,58.0170,14.0999,25.7517,42.9029,-44.6302,-7.9128,113.6712,-43.0607
-42.1307,44.9341,-57.8489,37.2684,-23.0165,94.1611,-25.1733,-0.8396,-50.7869,-7.2189,-24.3773,65.7437,-25.8702,68.6838,-20.1051,54.7195,-63.4054,92.8464,-46.3757
-48.9973,-25.7398,-82.4708,-54.8090,-54.5949,4.6099,-58.3501,-20.0123,-82.9705,-25.5866,-28.4662,27.9569,-36.2823,52.6223,-34.8094,94.9440,-108.1388,-13.0232,-96.5645
-84.5682,-109.1683,-108.6640,-159.7876,-108.9293,-128.2195,-69.3512,-93.7698,-74.6917,-100.7513,-39.9275,-41.0092,-28.2650,-11.7637,41.2543,67.0945,-146.8521,-111.3620,-119.1193
-116.2083,-126.5508,-112.4935,-186.0218,-112.0486,-182.4781,-35.8487,-125.3950,-57.4803,-101.5780,-53.5875,-78.4480,-9.0039,-58.1065,118.2249,27.0103,-145.1379,-90.6635,-71.8925
-97.5039,-80.9285,-84.4075,-118.0342,-44.4740,-105.5071,-1.1026,-66.9315,-78.7239,-44.6622,-42.8147,-58.2413,15.6953,-53.2661,97.9141,-10.5564,-105.4496,-3.5175,-28.3897
-70.7203,-35.4559,-70.0638,-45.6723,-22.1665,-17.2012,-32.0771,-26.3484,-120.0357,-42.1646,-32.7943,-17.9528,-9.2780,-23.2898,1.4368,-30.3974,-78.1717,33.6837,-36.2783
-67.1855,-1.3329,-72.7275,-9.1953,-81.0524,-16.7150,-80.5274,-50.1804,-101.4151,-75.1007,-39.6920,12.4640,-73.7267,7.1473,-58.2907,-1.7826,-64.2611,26.1630,-30.7497
-49.9928,22.0495,-49.7919,11.2539,-105.0525,-40.4876,-40.3269,-65.2785,-0.3147,-90.3413,-27.7469,29.5923,-75.9710,38.5584,-15.8111,56.1782,-34.9144,29.4410,36.6889
-32.3009,-1.2356,-25.5897,-13.3073,-51.0214,-29.1479,64.3898,-50.0220,126.0087,-80.1778,-4.7453,17.2085,-3.1522,49.1964,92.0694,89.3160,-26.0021,33.0105,103.2696
-58.6934,-52.0431,-45.6290,-82.3700,-1.1573,-21.4932,129.3352,-30.3162,212.3494,-21.0081,-13.5344,-19.5654,56.7281,20.2295,193.7677,83.6814,-71.5483,21.9528,101.1056
-90.2683,-62.9010,-76.6504,-107.5553,1.5899,-26.2345,125.6325,-5.4299,208.1430,44.6161,-36.0277,-32.9204,58.4076,-3.5872,213.3190,69.8105,-118.2866,11.2090,64.6181
-85.6780,-43.8561,-86.5245,-75.8132,-21.8695,-17.8793,70.9904,-1.2473,117.4495,30.2824,-46.9975,-15.2137,-0.7761,9.8390,99.7452,66.8677,-123.8452,-7.3522,51.9896
-79.8722,-49.4390,-100.8590,-73.1262,-52.3040,-35.2447,-5.2506,-43.0461,37.2557,-19.8338,-66.0791,-12.6133,-92.6120,9.1823,-62.6246,58.6290,-126.7152,-43.6514,41.1742
-84.1592,-71.7233,-116.8677,-109.2931,-65.9019,-107.7740,-35.0426,-80.0548,42.4538,-29.4376,-78.7979,-33.4350,-124.9404,-36.0338,-106.8254,30.0765,-148.0203,-71.5480,-4.5657
-72.4993,-77.2308,-103.7427,-121.7006,-50.7649,-161.9917,-5.4793,-63.7622,83.9589,-28.8658,-52.4587,-44.4897,-63.4710,-71.9871,-21.0299,-0.3488,-145.3224,-58.3362,-46.8820
-58.6963,-52.2171,-71.0876,-86.1893,-30.2567,-116.0044,7.8385,-8.3646,92.2776,-12.2511,-17.5507,-30.9417,0.9802,-56.2454,57.8758,-7.7267,-93.1880,5.6090,-38.5353
-50.5068,11.4311,-36.8380,-7.6139,-18.3953,-0.7251,-8.0901,60.3891,70.5144,65.8092,-7.2296,4.8900,14.7543,-7.9471,72.8831,5.8871,-24.8093,79.3431,-3.0109
-28.4423,74.4216,-7.9275,69.7114,-10.8073,68.3337,-2.8456,103.1470,41.8363,134.4377,-7.8721,40.4312,6.6065,29.0764,53.2297,20.5289,7.5440,87.6872,15.7352
-18.3544,67.4065,-10.2024,63.9330,-14.8002,32.4699,-2.0910,84.2211,23.9985,130.0805,-18.6999,32.6817,-22.9123,16.2492,1.7988,16.6398,-9.9275,33.6337,13.2130
-38.6657,9.2351,-35.3857,-9.7056,-21.9377,-34.5161,-35.3334,50.2183,40.0622,118.8935,-37.0028,-12.1272,-59.6306,-31.7564,-48.1928,-4.1051,-30.4215,0.0711,7.5853
-33.5928,-23.9310,-26.0032,-50.0452,-3.9546,-53.5302,-33.1123,58.1209,79.1928,135.2977,-28.0241,-38.8936,-41.1027,-51.4882,-30.6538,-6.5101,-15.1398,-12.4236,11.5261
8.3297,-34.0554,11.0316,-55.0407,22.8422,-62.1102,29.3559,69.4005,105.9681,136.8492,-1.4183,-42.7683,14.0650,-35.9522,30.1039,25.3649,-3.8761,-77.9860,18.6152
7.2315,-63.3566,1.4455,-87.5253,3.7989,-100.4461,58.7157,48.3277,108.9188,110.7269,-6.7961,-58.8657,25.1583,-37.6734,70.0858,42.8202,-47.4270,-176.7882,6.8465
-58.4492,-93.9694,-59.3231,-122.7808,-65.4496,-125.3979,17.2744,26.7265,76.9179,53.3830,-35.5543,-78.3623,2.7087,-59.2956,105.5556,8.6473,-117.2564,-220.4398,-24.5148
-112.8832,-85.9059,-98.8328,-112.0154,-118.0383,-124.2558,-12.7920,10.5617,15.5898,-9.8474,-48.3534,-73.5260,3.9514,-65.5612,158.5434,-29.8105,-148.6617,-177.5575,-40.9995
-105.3647,-27.7974,-79.6817,-58.9576,-99.5773,-111.5375,18.8794,5.4355,18.9674,19.3230,-42.4730,-39.3959,20.5168,-47.7705,187.1594,-12.7567,-114.6372,-61.4509,-15.8345
-52.2672,62.1116,-24.0164,28.4649,-36.9650,-40.3525,64.9047,71.5964,156.3288,149.5303,-19.3533,20.0208,25.7011,-0.1064,166.1766,47.7995,-31.3460,71.6212,43.4488
9.3217,119.1904,34.2331,105.0882,12.0768,63.2314,83.8279,179.7590,298.7354,244.9426,17.7611,65.2031,27.4782,58.2472,121.9332,98.5973,53.7969,114.5190,111.3004
45.4180,90.8449,69.6396,92.1908,39.8581,60.2025,97.9948,195.1135,274.7554,239.3444,35.7379,42.3342,37.5018,61.9280,88.4132,107.8560,89.9369,52.5108,157.3746
37.8330,28.3397,64.8627,21.4184,49.1200,-35.9559,116.0421,120.3600,144.9838,186.5210,23.4036,-11.5855,50.2554,18.2023,87.9950,90.6809,66.8635,-1.0915,161.1090
-0.3267,6.7452,23.5483,-7.4031,9.2754,-65.0856,97.3064,93.2825,81.4948,128.1000,11.5647,-15.9906,50.1732,17.2626,115.3706,93.1511,14.4057,-8.2599,128.5908
-28.0493,8.3769,-11.9572,-6.0311,-57.2664,-34.9262,46.8672,117.3589,71.1372,88.1090,12.7937,8.9447,40.6665,60.1450,140.3518,130.9188,-23.4603,-36.2834,83.0268
-16.9063,-2.8902,-2.3106,-26.0325,-69.8317,-51.4217,32.0486,92.6036,11.9075,85.3452,14.2018,5.1292,45.1908,74.0183,143.2739,165.9020,-18.8325,-75.3191,54.0540
-1.4673,-5.4066,11.5027,-32.7988,-32.3662,-53.9554,61.9101,56.6029,-20.6603,101.9982,5.3543,-0.2342,44.0827,71.9473,115.5620,176.1375,-11.6507,-66.3261,70.8382
-33.0796,-0.3017,-36.0857,-19.9076,-15.8429,16.8568,91.7206,99.8476,88.6376,127.1360,-20.4366,19.5053,3.6086,93.2064,69.6804,186.3129,-71.7680,-45.8627,126.0617
-80.2367,-33.7846,-103.2902,-54.9327,-8.9996,40.3060,131.4250,151.3272,231.8552,146.3780,-46.3696,14.0867,-21.7577,92.3620,62.3693,196.5226,-166.9112,-68.9921,169.7142
-81.5285,-100.9710,-106.9913,-132.7112,33.5565,-36.3806,191.3648,106.5386,255.8556,113.0758,-44.5216,-38.6807,22.8733,35.2221,112.8196,163.3414,-195.4471,-101.4490,171.9679
-63.8197,-146.5316,-77.0471,-179.3553,77.3829,-92.9864,212.1229,27.6040,216.6999,50.8848,-31.7849,-88.7097,70.9553,-34.2043,149.9164,80.3206,-163.1145,-99.2475,146.6249
-81.4104,-156.2683,-87.9603,-185.6127,79.0638,-81.7202,171.3918,10.7118,197.0161,27.9356,-38.4469,-103.8708,65.0277,-74.8084,136.6766,3.1783,-159.8972,-74.3814,105.5649
-116.8932,-157.2345,-124.1987,-187.4818,53.8082,-62.5831,115.8030,20.8773,138.3931,11.8748,-49.7757,-98.2552,48.8201,-79.4462,117.7624,-22.5549,-187.0760,-42.1385,60.3046
-127.7177,-151.4847,-126.0822,-181.4517,34.3540,-36.3364,67.8158,9.0099,47.2900,-19.1628,-45.5052,-86.8355,46.9054,-54.5533,107.0567,-7.3030,-163.9506,8.0148,48.1234
-89.4228,-117.0020,-66.5734,-141.3965,60.3404,16.9847,50.2536,8.5582,32.1174,8.4554,-22.3315,-71.4917,58.7857,-27.3939,94.4017,9.3605,-60.2424,80.6632,80.3457
-0.9403,-60.0384,36.5880,-67.5359,140.8934,61.1473,94.9023,26.0088,54.2015,59.2193,26.1054,-50.8442,115.1513,-18.5640,102.9997,-4.0430,68.4720,147.8840,107.1201
72.7714,-17.6282,108.5211,2.4105,198.0779,84.4119,137.9671,20.7627,-7.1835,29.9782,68.3247,-29.2740,171.9084,-15.9142,107.5945,-44.6273,135.8397,165.9165,90.8359
68.2149,-6.2863,93.6634,27.0229,171.6999,106.9059,98.4620,5.9675,-102.5119,-7.5592,55.2343,-15.8022,138.3302,-6.0716,49.0875,-64.6870,112.4088,127.6140,53.9847
37.7151,-3.5002,49.9503,19.0427,111.7310,113.5356,29.5490,6.6820,-129.1046,18.4078,19.3316,-3.8181,59.7111,14.9261,-28.6933,-27.9028,64.9509,73.2679,22.1849
40.8246,17.5374,40.4659,32.7141,59.1362,104.2612,-5.8001,-5.8215,-122.1923,5.0673,15.7714,23.7263,25.0421,46.7779,-48.7957,18.8044,52.0651,41.4510,-13.7223
29.1997,61.7190,26.9937,82.7263,-3.6424,120.9917,-46.7332,-24.9464,-134.9752,-48.1411,13.3077,60.8466,2.7037,66.3659,-36.3164,6.2523,41.7223,47.4169,-62.8983
-15.6642,108.7615,-11.2437,127.5392,-46.3147,153.4168,-93.0988,-5.0947,-150.7888,-11.1304,-15.9771,84.7553,-30.1352,55.0278,-32.8517,-40.9406,5.8997,81.6789,-115.6961
-27.3437,121.0242,-26.1859,127.3093,-35.2476,139.6407,-93.9218,16.2720,-158.2607,55.3120,-29.1469,85.5277,-28.2823,31.6255,-29.4774,-57.4486,-21.4445,96.5651,-160.1595
-2.9883,87.8792,-16.2966,87.6951,-26.6070,79.5412,-85.9262,-21.2640,-140.1764,9.6084,-14.6793,68.7228,-19.2445,13.0272,-38.9190,-53.5708,-21.0620,62.2379,-183.7072
10.4817,55.4588,-9.2752,57.9728,-50.0082,40.4434,-114.4445,-70.7675,-94.0543,-78.8317,-2.8918,53.0310,-44.8664,2.6431,-74.5251,-59.9182,1.9975,32.6782,-174.0113
25.1211,61.5688,12.1980,72.3622,-41.6137,60.9729,-128.4978,-72.3463,-106.3145,-90.7124,7.1255,56.3484,-54.2421,16.4756,-109.0235,-52.9707,48.0933,63.6011,-136.1639
43.5191,79.2598,37.6715,99.8402,15.7989,115.7365,-96.2104,-50.4545,-193.8925,-47.7872,11.9350,67.2181,-32.0933,45.8287,-134.7003,-28.1480,79.5727,119.2536,-87.6280
28.8135,78.0760,25.1339,102.5292,55.2791,158.5598,-56.1186,-21.3840,-194.1461,-2.5757,-2.4759,66.5441,-28.7571,55.5635,-144.3331,-18.8316,59.7310,147.4942,-34.8995
3.1382,73.3072,3.6093,98.3902,45.2251,169.8259,-30.5298,26.5874,-53.1005,17.5049,-5.1186,63.7561,-29.8623,53.6964,-100.1402,-17.8092,38.6965,150.8661,15.7030
10.8925,74.9352,17.6556,104.7871,18.0653,159.5589,-25.2189,47.4678,34.9169,-8.1240,17.1994,65.6028,-12.1768,61.7093,-42.7487,-9.5010,60.9995,131.9482,35.0792
35.3214,68.6363,40.2529,101.5770,8.5404,137.4317,-41.2429,-3.0196,-26.4771,-50.2673,21.9315,58.4944,-15.4292,56.8745,-60.4299,-18.4522,81.0543,84.2041,5.6498
56.6668,63.3409,53.0814,92.6640,19.8086,113.6177,-39.8286,-68.5911,-71.7145,-67.6997,11.4371,50.4587,-29.5866,38.7722,-97.5538,-35.6166,79.8022,43.7071,-31.6183
71.3167,81.7089,72.3592,106.3746,24.4196,114.8579,-2.1091,-69.3643,19.0935,-46.5877,19.6447,59.3707,-9.5012,44.0454,-41.2412,-22.2284,94.6402,44.0556,-21.2107
51.2418,105.6587,70.7230,124.4692,5.9098,141.5785,27.6679,-11.3713,140.5608,27.9567,16.2785,67.3079,4.7818,60.1255,47.3425,4.6143,95.6129,47.4068,24.0619
1.6271,91.3535,20.6595,98.8794,-20.0954,139.0614,22.1724,36.3064,150.8832,105.2081,-21.4655,54.5127,-28.7964,58.1153,43.3293,26.5236,26.9119,-2.0168,40.0167
-32.8285,34.9011,-42.1464,28.7136,-58.7922,71.8411,-12.8926,27.6312,52.2865,83.7305,-50.5732,33.9705,-74.2805,56.6546,-26.3971,68.1988,-69.1433,-94.1495,3.6881
-56.2563,-14.0372,-84.5265,-31.8349,-128.0654,-22.6327,-74.5342,-14.8837,-40.8432,-0.6545,-60.6759,15.6622,-115.6215,51.5937,-74.2907,96.9597,-121.6622,-166.8179,-39.4667
-80.2114,-9.3107,-99.7307,-29.8016,-179.2421,-87.1417,-116.2429,-40.0929,-42.2903,-28.6880,-74.6453,2.2048,-157.2563,13.0533,-91.1839,52.3485,-121.9050,-168.1823,-38.9192
-63.2859,44.1718,-68.1343,36.6832,-147.1678,-85.2508,-75.8462,-38.1020,24.5031,-11.8550,-66.9150,13.8669,-148.3342,-20.3079,-77.1398,-18.1202,-75.4342,-86.6764,1.2656
-7.6171,109.8903,-0.7549,120.7277,-64.0809,-8.0470,10.9106,-29.7057,83.1399,-6.2588,-24.6587,55.0167,-67.8381,0.1611,-6.2703,-39.8959,2.4119,38.4670,29.6214
20.7049,150.8996,39.6245,168.7225,-12.7452,83.6446,53.6509,-20.5660,81.5277,9.7121,2.3741,88.1668,5.7148,34.4203,73.5362,-35.9439,48.1381,119.7598,11.8307
7.6814,135.1499,24.4186,151.0877,-12.0976,98.1754,32.9789,-11.5419,12.9175,25.7769,-8.1120,80.0440,5.3777,34.3266,60.3219,-37.2162,24.9175,95.6726,-18.2791
-10.9223,71.6504,-8.8237,87.2574,-20.5871,54.7686,-1.7458,-2.4858,-53.6134,14.2037,-25.4987,42.1060,-37.7564,19.2981,-30.9296,-26.1108,-15.9798,21.0642,-0.1268
-23.8904,26.2889,-20.5923,44.6631,-6.1778,58.1022,7.0044,21.1843,-17.4379,20.7160,-30.6632,13.4621,-49.5138,18.2851,-56.3162,-9.9287,-22.6012,-4.1887,67.1737
-30.3232,25.7993,-13.2159,46.6826,20.2997,106.5903,75.4235,54.7102,105.7475,51.2861,-23.9101,12.3399,-5.4543,32.1415,38.5083,2.9176,-20.0803,8.9223,126.2795
-32.6342,9.9478,-18.3271,22.8471,33.5086,99.2528,148.2207,76.9958,205.3201,65.9536,-14.8828,9.9152,42.3922,45.0775,134.8464,43.7443,-52.1426,-15.1531,148.8306
-43.7569,-45.0133,-43.8512,-55.8841,44.1905,29.0553,177.4499,105.2754,259.5132,113.8487,-19.9251,-19.3997,45.8760,38.1850,139.4412,109.1857,-98.9817,-59.0301,170.9162
-44.2699,-73.4648,-49.4945,-101.0098,77.9123,-10.8504,197.0316,154.8373,323.2309,209.8954,-27.1705,-43.6137,29.1909,26.6346,96.3563,155.2890,-103.3939,-58.6971,227.6655
-5.2206,-47.8541,-12.9724,-63.3721,121.0621,12.7351,234.4028,183.4728,390.1452,239.2823,-9.2246,-28.6383,29.8262,40.9455,61.3425,168.4287,-56.5184,-24.7963,289.3216
47.8399,-16.2299,33.7128,-9.7503,152.0556,49.6475,254.2431,169.4498,420.4892,184.0967,24.6465,-1.4261,48.9723,56.5416,44.2645,148.1087,0.4385,8.4704,294.5934
75.2015,-2.8846,65.4008,11.4594,168.8970,59.0914,236.4252,151.4117,392.8274,151.9053,48.6719,2.1410,81.1805,36.6485,59.7606,93.9520,44.2405,37.7186,238.7385
69.4381,-0.0563,77.6619,14.7720,148.0067,38.9778,185.7301,140.9851,279.8171,140.1216,55.1921,-12.0149,102.3643,8.6255,88.0911,43.1379,71.6329,44.2841,180.9119
37.9686,-11.1039,58.7122,4.0700,78.6423,3.9037,101.2442,113.6010,115.3778,89.4794,42.5131,-25.7254,74.6937,2.6072,68.7599,27.0583,68.5700,16.7855,145.8023
12.1263,-27.1913,24.7865,-21.3480,15.7818,-38.1568,17.2415,72.7696,12.2732,47.3698,20.7217,-31.4327,18.4085,-3.1887,3.7759,28.6681,39.1681,-21.6872,89.5005
15.3821,-42.3715,6.6066,-55.1602,-8.5774,-96.5524,-27.7034,30.4403,-3.2639,44.2716,6.1629,-37.2855,-20.5226,-27.2979,-51.9556,28.0175,6.8838,-72.9634,4.5720
1.4947,-76.7834,-16.8004,-102.3264,-27.3935,-155.3639,-53.6063,-8.5190,-20.6366,24.7275,-10.3623,-62.4370,-44.8564,-62.3450,-77.7300,9.3045,-27.9765,-121.2667,-38.3507
-53.7277,-103.2888,-56.2402,-125.9765,-32.7984,-149.4936,-68.8143,-15.5812,-76.7956,-4.9432,-31.8344,-87.1606,-49.7263,-89.3146,-69.5781,-39.8699,-55.8318,-76.7635,-11.8588
-75.5141,-61.9036,-58.7617,-71.9006,5.8465,-58.6572,-48.0565,12.1314,-126.5099,14.5564,-33.2947,-62.2449,-16.5531,-75.1895,-36.5076,-73.7672,-42.1015,51.1332,12.4680
-37.5588,0.1314,-25.3455,-3.9745,32.2933,21.5620,-22.3193,13.4691,-126.9202,49.1636,-23.4574,-11.8478,1.7705,-27.9215,-28.0010,-45.8518,-15.5495,82.5314,-15.0438
-21.3261,-22.9530,-32.7489,-34.7665,-10.5747,-10.8290,-30.1914,-45.0015,-65.4246,2.7660,-34.1504,-13.1518,-38.1903,-16.7667,-51.8784,-10.0309,-50.5411,-46.6055,-52.6494
-54.7623,-107.2063,-85.9503,-127.7703,-73.2947,-126.6480,-41.6504,-119.0641,-8.9786,-127.4712,-50.5871,-59.8550,-77.5937,-59.0337,-57.6665,-24.4173,-128.1755,-163.7169,-58.5700
-86.7547,-143.0538,-118.9273,-166.0956,-99.0046,-203.7838,-51.0622,-158.9281,-58.8074,-219.6091,-53.4800,-82.6622,-80.8984,-90.0303,-53.2806,-51.2379,-159.6212,-142.7454,-51.0438
-91.6067,-106.0814,-107.2911,-129.9033,-87.6734,-170.3910,-80.1898,-148.0355,-155.2463,-183.0918,-53.5401,-64.9952,-77.8321,-77.9058,-69.9371,-52.7867,-119.3760,-44.3908,-50.9562
-51.2086,-40.8443,-52.3947,-57.2022,-32.3879,-65.6375,-73.7801,-90.5094,-143.9910,-85.1167,-30.5901,-25.4313,-47.2475,-38.9195,-69.1514,-35.2906,-35.5540,52.0661,-40.7907
45.8884,21.2958,40.8176,26.4546,59.1649,25.8755,1.7358,-21.6158,-58.1802,-29.0594,32.6047,25.0695,25.4088,20.2024,-49.2746,11.6466,67.5119,118.2208,-2.0712
143.0458,51.5279,124.7422,76.8062,127.1842,60.3861,62.4051,4.4274,-33.7834,-18.2528,84.6503,55.0473,66.7716,71.1202,-77.6530,69.9487,150.8229,115.7274,40.9475
187.9342,36.1791,159.0411,70.9378,136.1623,45.8561,60.0447,-34.4562,-48.3129,-50.3860,93.0496,43.9967,50.1577,70.5587,-134.4794,71.3875,179.4305,35.1494,40.4345
187.4372,8.4730,150.1779,49.4743,98.7839,7.1657,35.1230,-103.4841,-34.6858,-143.2824,85.3882,22.6995,27.0493,32.2355,-142.2176,8.7270,156.9950,-56.0687,-9.5977
130.2593,2.6888,95.9219,39.5130,23.7929,-29.9216,-12.6970,-140.1401,-45.2501,-204.5864,56.8135,13.7568,-5.1248,-5.7625,-113.6174,-55.8661,95.0133,-85.5399,-67.0528
28.9249,18.6823,12.9948,31.7015,-62.5090,-49.1017,-94.0024,-117.5243,-118.0000,-138.4935,-1.7428,10.1217,-60.2254,-31.2158,-96.2265,-81.2555,17.8774,-59.8967,-114.2838
-18.0323,45.2944,-24.8577,36.6081,-111.9286,-51.6120,-157.6998,-63.9538,-210.1586,-31.3535,-31.7175,22.1401,-89.6152,-18.4759,-100.0621,-44.4772,-15.5458,-44.8004,-158.0030
17.4613,64.2469,2.1292,57.0435,-122.0540,-38.0072,-177.7387,-5.1119,-267.0561,11.7615,-7.3055,49.0026,-85.3541,44.2328,-129.0784,50.0234,15.8145,-68.7051,-153.8516
48.1059,55.9024,34.3685,60.2893,-112.3019,-12.2606,-159.6224,47.1773,-209.4695,29.2431,17.2111,50.8674,-82.0570,90.4352,-143.3209,119.0529,62.1466,-97.5906,-66.0674
56.1234,25.5385,54.9436,34.3544,-73.2129,-14.0814,-92.2702,47.8930,-39.6392,42.7191,20.8071,14.7543,-62.9940,56.8789,-94.6043,87.7108,82.9153,-124.5260,14.7325
71.4496,-13.4157,67.0976,-6.5357,-35.7090,-74.7662,-37.0062,-23.6607,53.3292,-0.6113,19.0519,-29.5300,-36.8399,-24.2611,-52.0724,-5.7530,69.1934,-178.7910,-13.0252
38.5275,-53.2635,24.6423,-52.0458,-71.7516,-141.5456,-83.5316,-93.8239,-22.6165,-76.8479,-6.9770,-60.6608,-68.1096,-82.4138,-82.5415,-78.2112,11.2017,-230.7969,-88.0700
-51.6190,-69.6025,-61.8126,-75.6853,-159.1030,-144.7618,-166.2003,-104.2000,-92.3125,-115.5292,-54.7976,-65.6711,-136.4817,-87.6411,-109.8530,-95.8489,-68.8435,-233.3976,-108.1911
-93.5586,-55.2611,-105.5052,-63.8502,-199.9715,-118.3856,-180.4859,-103.2307,-72.2316,-129.7793,-77.5726,-45.4487,-167.5707,-67.4143,-104.6173,-83.6914,-115.1029,-216.3392,-104.7587
-68.6071,-52.9194,-94.8257,-60.3447,-182.6235,-140.0427,-183.4328,-139.2414,-92.0280,-167.3007,-69.1594,-38.4837,-175.8162,-75.2180,-154.1992,-93.3119,-104.6599,-197.7560,-127.6895
-47.3521,-75.5641,-73.3115,-85.0930,-160.7585,-191.6980,-225.1115,-185.4074,-152.8746,-218.9754,-52.5387,-58.0252,-187.9467,-105.2102,-230.7626,-118.3460,-47.8709,-133.4145,-126.7235
-10.0544,-71.6128,-22.0792,-83.4687,-122.1887,-196.3420,-212.0063,-205.0657,-152.1353,-232.9069,-18.7737,-56.9150,-154.1682,-91.3772,-222.4822,-89.3495,40.1476,-42.8066,-81.1679
69.7288,-28.2080,62.2507,-35.6650,-36.3599,-145.4896,-118.5404,-184.9075,-148.0969,-179.9373,29.7931,-23.4742,-60.8166,-38.5492,-153.7036,-22.5997,119.8018,13.4319,-57.2143
111.9362,3.9931,109.7359,4.2022,48.3105,-85.3342,-48.2732,-131.1396,-180.8601,-105.6554,59.6870,-4.2656,25.7050,-18.8362,-94.2876,-13.1997,155.4792,69.1222,-62.0370
91.2621,10.7972,106.0843,16.4151,83.8012,-30.0095,-24.5803,-81.4403,-140.6040,-75.3488,67.4225,-3.5651,66.0497,-22.8723,-39.4341,-40.8204,167.2468,156.0782,-30.0882
94.3605,23.3840,114.9147,36.2444,106.3016,21.5289,19.2059,-59.3831,-46.8994,-71.7887,77.1391,11.6614,81.6944,5.3098,-8.8028,-17.7440,184.7795,201.8107,35.6540
138.0359,43.9904,147.5653,68.5079,152.1784,44.0170,88.2333,-41.0082,-23.2230,-44.8097,90.3177,29.0220,102.2369,31.9184,-15.7453,14.4762,195.4062,180.2812,73.6963
146.8483,50.3973,154.6239,79.9535,185.7770,35.8491,136.7426,-11.7443,-11.6993,-2.5987,90.8922,22.2215,129.6508,9.4835,9.9669,-13.5749,178.7944,161.8655,75.0344
100.9033,42.4882,118.2949,61.7615,170.3526,42.1305,141.4005,22.9710,55.7893,38.1955,74.6074,11.0443,142.3947,-13.1599,82.0102,-38.8945,134.4700,165.1457,60.1018
46.8141,41.7786,64.9370,46.6488,129.1758,79.7570,108.5803,71.2060,57.0589,80.9378,55.1153,23.9160,140.5992,10.0904,128.7835,-8.1596,73.3295,167.2744,17.0201
12.6884,62.2595,24.3527,62.4815,102.3027,118.6139,75.6413,111.4633,-34.3362,102.0592,44.6792,53.3718,146.5179,40.2859,144.3065,13.4810,20.5994,191.1220,-47.0764
-3.8377,88.0349,7.9574,91.2798,97.8208,152.4780,70.4700,101.5688,-55.4061,91.3465,33.9910,73.4074,142.6117,42.8794,149.2500,-11.8984,1.9137,230.8103,-73.1953
-8.4997,96.6097,9.3287,107.8178,97.7738,201.5758,66.8046,76.7866,19.9338,82.2199,18.4776,75.8566,104.4984,44.0987,117.3703,-34.2415,17.9780,235.2860,-33.3724
-0.9313,105.5097,22.4763,133.8179,91.5762,260.3629,50.1553,102.3898,59.7326,86.0528,19.3465,82.5803,74.5529,69.9810,75.4827,-27.0373,50.5639,218.2513,22.5510
19.1478,141.9498,45.4890,188.9010,98.0651,314.0418,55.7325,151.2067,33.5911,97.8875,37.9520,110.7232,90.0764,107.3056,75.7534,-12.1980,80.0431,235.6444,44.1146
41.6511,184.7593,70.0650,238.1084,132.1654,363.3551,84.6265,171.1830,0.4624,130.2610,50.2553,141.8414,119.9205,135.9163,89.3017,3.0346,103.9814,291.6430,44.2334
53.9894,203.0952,88.5257,254.0899,161.0251,396.4277,98.6473,181.4022,-11.7368,160.3148,59.9987,156.1445,143.1189,155.8697,102.0127,25.4250,132.6920,349.4018,53.0661
46.5681,193.3389,86.4312,241.2158,148.5813,387.3413,100.0472,189.6895,8.3431,147.9879,68.5465,152.1757,159.8400,160.9522,142.0243,38.7825,135.0387,353.1298,60.4283
10.4872,135.2000,39.8010,171.7538,114.5479,316.6536,99.2695,146.9296,28.1576,103.9986,41.1413,112.8554,136.1469,119.9660,150.0761,16.9537,59.0869,258.2866,39.0948
-33.4623,19.3086,-29.5900,32.8057,86.6063,177.3610,65.3581,47.3366,-29.2127,35.0183,-8.8199,32.6092,72.5593,35.3392,68.5015,-24.8719,-48.5370,114.1231,-11.7250
-41.0389,-82.4908,-56.4722,-89.0740,53.9576,17.4764,-1.5630,-41.9234,-145.7962,-64.7132,-16.1040,-34.0691,35.7727,-25.6789,-15.0677,-34.8827,-80.0828,25.7715,-64.7897
-22.8273,-98.7463,-38.5193,-113.0087,17.6576,-61.5828,-41.5376,-63.0140,-197.5641,-117.7616,9.8224,-42.2138,41.2542,-23.9394,-15.7208,-3.7041,-44.8687,17.9312,-82.4300
-33.2298,-61.1692,-37.8861,-79.1219,3.2336,-35.3089,-26.1513,-11.5642,-129.7841,-44.5915,4.9783,-22.3513,38.9202,-0.8817,23.4014,28.0524,-39.9688,36.7071,-47.7737
-64.2196,-38.0493,-64.3370,-61.7359,5.9193,0.8342,8.4271,70.9304,-20.4237,82.0155,-22.9625,-14.9642,17.3556,7.8476,39.5281,52.3882,-79.2846,28.7498,6.7839
-67.4962,-56.6386,-78.3912,-83.0645,4.3930,-22.4396,27.9508,120.2272,41.9767,133.4608,-30.6957,-27.1642,0.2259,7.5414,22.5053,82.7276,-111.8079,-36.7425,39.3043
-56.0880,-115.1612,-76.1682,-142.8138,2.2588,-83.0366,35.5544,105.2254,75.2874,101.4679,-26.0184,-66.6810,-5.7889,-14.1650,6.1433,89.6562,-120.9661,-129.4894,59.2601
-63.1435,-167.5338,-71.5666,-203.7336,0.4506,-142.7251,44.3830,65.6713,148.0038,74.0775,-27.5387,-116.1331,-2.5000,-60.7615,37.2301,60.8591,-108.9948,-167.9158,88.1624
-69.4137,-141.0736,-62.8847,-184.5661,-17.3041,-157.7067,45.9630,61.0651,211.7433,100.5694,-30.9103,-112.7896,-6.6137,-74.4167,76.2682,47.4687,-87.4028,-140.1892,98.2818
-56.6215,-48.8555,-55.2104,-78.7450,-50.0680,-93.7713,22.7111,88.9106,155.9852,127.1997,-34.0348,-44.7387,-35.6669,-20.1955,43.3620,68.8663,-79.7724,-111.2919,72.0887
-35.7163,9.2641,-40.5841,4.4517,-73.5061,-18.9633,-3.6450,92.3879,59.6181,85.5868,-25.8817,8.0386,-51.6554,37.9019,1.3854,81.8584,-62.2351,-105.0493,55.7839
-1.0754,-14.0255,5.1546,-12.4311,-61.7715,-41.4936,13.0543,46.9557,93.4059,12.2253,7.1060,-11.8863,-10.6419,26.5557,50.1973,65.3363,-1.0387,-113.7622,71.0897
39.7349,-75.9483,51.1808,-86.5091,-19.5343,-135.5759,53.1889,-13.1284,177.2997,-27.5663,37.5738,-68.7466,44.6178,-37.8221,109.6715,29.1858,45.5597,-148.9821,63.1225
32.8434,-119.2983,33.4369,-138.1160,-1.6723,-185.9562,39.2851,-50.8228,121.6495,-47.1239,26.2252,-102.2441,43.5168,-89.6460,79.2017,-19.5202,12.1875,-178.5585,5.7435
-31.3330,-109.9894,-31.0937,-132.0895,-35.8200,-157.0838,-27.0358,-45.4280,15.4298,-36.6501,-16.0302,-94.1525,-7.6618,-98.5055,23.8478,-54.6394,-49.1243,-139.8613,-35.8447
-71.1887,-53.8677,-58.9166,-77.7967,-49.0490,-89.6719,-43.0663,13.2812,58.3537,45.8117,-39.7558,-59.7170,-42.0075,-76.5544,14.0212,-48.2620,-57.2181,-48.3963,-2.4798
-29.4555,-3.6272,-16.8212,-14.0288,11.4325,-20.1081,25.9747,82.6679,182.8464,108.0338,-10.4899,-22.0579,-11.1243,-37.3513,27.8729,-14.5939,-5.6671,27.2351,71.6552
48.0785,-1.0095,56.3213,11.7806,71.8651,22.6013,78.1694,90.0232,206.4035,42.9125,54.6189,-3.2551,62.2011,7.7479,53.6553,19.5356,79.2680,57.4778,108.4495
94.6203,-30.7152,112.5041,-12.7575,80.8833,26.7451,53.8681,48.1415,148.3405,-39.2853,101.0602,-14.4227,113.3495,29.4745,82.4815,41.7811,163.4099,56.1652,92.4833
101.7059,-55.5207,131.6763,-48.1311,110.6845,23.0273,51.2608,46.0753,142.3595,3.8765,103.9577,-41.0044,132.4122,13.3415,92.3718,43.6336,195.1170,62.7785,96.0229
88.0092,-58.2128,118.8726,-53.4251,195.0276,49.8489,151.5211,111.2213,219.0657,118.9218,87.1624,-52.7781,161.1088,-3.2678,114.9533,42.0870,156.7393,101.9604,169.3084
64.2274,-44.2750,89.7041,-36.4127,252.6958,104.9893,264.7486,185.9868,310.1712,206.4473,69.9882,-38.5736,191.5381,15.9828,167.0027,69.0018,88.5005,128.9511,243.9509
50.1587,-23.8986,65.8686,-19.1116,236.2207,145.2193,285.4301,219.3096,357.2909,242.1310,58.3627,-11.4178,188.8058,51.2964,196.6285,110.0826,40.5043,102.8008,233.3230
58.1112,4.4478,63.9579,7.4427,186.8149,139.4331,253.1916,209.2212,352.8854,222.0532,60.8488,15.8956,172.7430,70.6670,200.7334,125.3859,30.6138,65.5579,173.3054
55.8806,32.8045,65.2811,40.4290,140.3304,123.0340,226.8645,189.7909,304.8178,188.6405,59.5707,30.8615,160.7274,74.0927,211.7602,111.6747,32.1601,49.1569,144.1016
19.0267,34.8270,40.0963,47.4166,102.5693,144.9402,179.0865,191.1645,219.1115,187.3296,35.0195,25.8231,129.4732,73.8755,191.7888,89.9399,15.1239,35.0718,141.0564
-10.0347,22.8001,10.6493,41.6597,80.0140,176.0366,118.2306,197.1903,130.6180,165.1232,19.6676,25.0367,92.5328,84.1197,127.8872,83.0735,0.5926,43.6355,136.3955
2.6974,36.8063,10.5911,63.3677,68.1985,164.0933,100.7362,177.1645,60.2691,98.8486,31.8726,49.2811,78.5818,109.2818,77.1815,104.2439,7.2512,79.5537,134.9633
17.9046,51.3476,11.7458,76.1876,44.3472,118.8824,80.0904,131.2245,-42.1393,59.4616,28.3622,63.4684,54.9865,115.9073,28.2726,118.0779,-2.7303,58.5085,94.5743
9.6657,25.9213,-10.2085,36.7334,-9.1854,54.9118,-22.5361,62.3453,-182.1899,31.3438,1.8059,41.9415,-1.9755,76.4767,-55.7173,81.4299,-32.6490,-32.2615,-30.9218
13.4797,17.5911,-16.2256,13.9828,-78.7262,-29.5652,-134.9451,-21.7422,-250.3908,-41.5476,-2.2760,32.3960,-50.8606,31.2575,-112.3762,31.1960,-25.1242,-73.3312,-161.3848
38.0666,74.6702,7.4576,65.0236,-121.9008,-80.7974,-151.8392,-76.9210,-208.5025,-88.1946,11.4672,66.8404,-67.0746,28.6351,-100.2785,23.7926,12.4571,-29.8044,-199.0077
47.1150,117.7659,17.7103,108.0893,-122.8068,-56.6731,-122.9447,-83.5188,-154.2807,-74.3869,10.9773,96.8157,-67.1883,49.3025,-76.2459,38.9100,20.2503,0.9840,-187.9720
34.7655,82.9004,4.5854,73.4574,-115.5400,-21.4839,-130.9783,-74.7981,-122.1095,-85.7621,11.0689,83.0215,-58.6297,53.0579,-65.4482,39.6226,8.4047,-17.6329,-190.5905
16.8746,30.3085,-7.5700,19.8923,-118.9227,-29.9065,-149.8009,-56.1707,-73.2953,-102.8033,16.4957,48.2813,-52.9577,34.2863,-52.5285,27.6446,9.0384,-40.3158,-170.6680
-6.2967,16.3904,-17.1207,6.3762,-115.9092,-43.3994,-145.8598,-20.0783,-47.7565,-48.5748,0.6579,19.7006,-65.5107,4.4376,-52.7077,1.4084,3.9823,-56.3016,-123.8001
-17.3723,26.4442,-17.8918,18.1917,-108.9549,-42.9521,-137.3313,-6.4774,-71.9723,6.1359,-18.8944,7.7823,-76.5549,-16.0093,-58.7270,-25.6593,-1.9721,-71.9856,-106.4098
4.6390,48.1695,4.1388,40.1934,-104.4907,-51.5303,-118.1437,-13.8198,-70.4947,9.8876,-9.0051,21.2798,-67.6322,-3.1451,-49.8603,-5.9286,19.1797,-62.9353,-98.3427
32.4235,77.4119,24.7637,69.0980,-79.0685,-46.8125,-81.2284,19.6695,-47.3159,43.9439,9.2332,49.2455,-54.1484,32.8417,-57.1340,53.2651,40.5048,-16.2878,-60.8332
35.3280,95.9757,21.2461,90.2128,-42.5354,-11.7269,-71.0643,65.5492,-113.0092,91.4208,11.7939,69.0805,-42.1916,55.4530,-88.1149,77.0255,34.4833,40.2280,-57.0037
26.0848,101.5095,13.1516,103.1989,-45.6245,8.2765,-104.4684,37.5923,-251.4117,45.3019,9.1210,74.9447,-31.9071,50.3604,-98.5321,36.0436,26.4126,63.4416,-116.0150
13.2948,102.2214,8.5832,115.2813,-83.1790,-2.0724,-129.7741,-33.8498,-315.2581,-51.6889,0.3611,68.6865,-43.5518,29.4292,-88.7381,-26.8106,24.1268,42.9910,-142.5303
-7.0407,102.4374,-4.0563,123.2537,-103.7006,-1.5473,-114.0387,-62.8247,-251.6953,-85.0270,-18.2767,59.8888,-70.4630,13.0485,-79.4720,-62.8185,10.4649,21.8400,-99.2900
-11.9482,112.6798,-11.3614,131.0874,-99.6771,13.0330,-79.0386,-53.4396,-142.9829,-63.8407,-25.0172,68.5986,-76.7185,18.2163,-58.3347,-52.5728,-4.6721,23.6629,-70.6674
10.5108,117.7262,-3.7241,129.9201,-89.7110,6.1130,-50.6119,-50.0023,-70.0030,-55.9245,-13.4311,82.9525,-64.8323,31.8797,-43.5111,-19.5960,-12.2879,9.2452,-86.2839
29.5779,90.3764,4.2366,99.0464,-69.9770,-17.0510,-27.8934,-57.9197,-29.0625,-63.8006,-4.5885,70.2898,-56.0732,28.1004,-49.6369,-1.5453,-15.1496,-24.8291,-81.2900
27.4842,67.1787,13.0651,71.2690,-38.8513,-9.0831,9.3293,-46.5927,35.3576,-26.8716,-5.7417,48.1537,-39.7811,22.7122,-21.9972,11.2698,-2.1819,-21.6176,-24.6651
13.1835,80.2198,20.3551,82.4998,-7.8000,48.1471,58.0905,25.8576,119.2010,83.3659,-11.7933,45.5414,-15.6116,38.5257,37.3170,37.3132,10.4796,5.6402,52.1353
-10.6312,65.8842,3.6718,77.9972,12.3799,96.8440,73.1787,122.2019,140.7295,164.6638,-20.8244,30.7281,-9.9763,43.3183,40.9123,39.4814,-11.0156,-18.4977,106.8342
-27.5645,2.8932,-19.6359,27.4396,7.8614,68.2354,48.0599,122.4050,88.9408,100.5704,-22.9263,-10.1152,-20.9075,13.2494,-1.4957,-0.4698,-37.7786,-78.4523,116.5196
-16.8818,-15.9994,-11.6187,12.1208,-7.5359,2.4940,50.6199,34.4338,60.1722,-20.1193,-13.5080,-22.5015,-22.6753,-8.9036,-5.2702,-28.5009,-26.3586,-77.8250,116.6724
-2.7327,24.1610,10.2557,53.4566,26.7708,9.2412,110.2013,26.9967,96.9857,-12.8129,-3.2680,1.8644,-3.0909,7.1983,17.4977,-9.6759,5.5977,23.9707,179.9815
-0.5096,33.2490,30.0281,65.3592,137.2219,99.5608,181.2848,143.6483,154.6422,123.3814,12.5812,6.1417,47.1603,36.7119,25.1982,36.3517,52.3979,173.7665,306.9396
34.2100,10.0455,82.0095,42.9530,258.4322,177.1886,244.3936,233.0341,214.9918,232.6636,49.7820,-9.8498,124.2996,60.3879,49.3580,85.5841,133.8033,273.1392,404.0681
106.1583,9.2243,151.6402,45.8833,311.8453,174.6643,297.0083,201.4025,260.3514,208.9843,93.2758,-9.1697,187.9453,65.3719,94.4045,95.5982,200.1731,263.9140,392.2236
144.6308,2.9815,172.0022,45.6927,294.2735,101.3359,292.8030,102.8112,213.3121,81.7013,111.7733,-12.9406,207.0542,24.5900,107.9616,28.1075,194.8435,197.8843,285.1498
128.5222,-22.8227,147.4737,17.6466,251.2217,17.6310,226.8803,21.1746,60.5188,-19.5699,101.0648,-36.8937,194.2048,-36.2616,84.1617,-58.7355,158.0144,154.3167,167.5198
98.3305,-14.0729,121.1501,20.6355,196.5954,-4.6449,162.3664,4.5708,-67.6001,-18.7464,76.1319,-37.8085,161.1111,-45.2739,61.8888,-75.1277,129.7151,124.4450,109.0861
58.8012,21.0445,83.0609,54.7058,114.1024,35.3535,111.3336,35.4052,-58.0255,2.6120,50.3599,-6.2091,109.0098,-3.9014,62.7233,-40.5762,91.3448,87.6009,96.6299
21.9532,38.6005,48.5854,69.2832,39.9793,78.8688,57.4579,48.6658,33.8737,-23.2751,41.5998,20.9418,71.0420,29.1665,84.2350,-19.3359,74.5547,92.6844,85.5334
46.3818,69.4229,83.0398,101.1586,45.3673,128.0800,47.5206,34.6669,77.4646,-28.4030,60.3409,45.2553,82.2172,56.3680,101.4723,-4.5973,136.4221,148.3797,86.0367
114.0725,121.3973,159.4173,170.0666,102.7574,210.5155,89.1237,28.4729,47.5429,7.1349,83.7688,75.8643,115.5348,99.6418,98.4809,16.6995,219.9734,169.1449,109.0656
127.9290,121.5181,170.8602,179.7110,105.2249,255.6502,96.2190,10.8673,21.2793,-0.4404,78.2590,78.8607,117.4637,116.4442,98.9136,16.0657,215.2468,102.5366,92.0882
80.1407,63.9214,103.7343,100.2323,35.7613,198.5778,39.3886,-33.6510,21.8874,-46.8349,46.4856,52.9690,80.1734,87.9655,101.4406,7.8653,118.5649,-8.0506,-7.3754
38.9853,29.4149,30.2267,36.5870,-41.3954,115.2665,-33.7994,-47.2652,-17.0543,-55.1691,16.3403,48.4081,25.5844,75.2047,59.8630,39.0447,13.0500,-97.0986,-123.2199
5.6653,34.8898,-21.7813,34.0401,-110.7089,83.0622,-110.2351,-11.0872,-120.8695,-39.6757,-5.4342,64.8971,-32.8484,95.2626,-11.5366,79.3068,-48.7634,-137.8042,-173.8911
-44.9358,25.2594,-62.2925,27.0905,-165.9768,53.9309,-166.5720,4.7576,-217.9329,-53.2226,-28.6677,49.7242,-70.7331,80.4584,-36.7017,56.0541,-79.5924,-148.3936,-164.8369
-82.2234,-18.5031,-88.0244,-23.0558,-160.9556,-13.9309,-148.5589,-34.1210,-228.3512,-79.6054,-49.2231,0.2993,-65.2756,11.8000,-6.9794,-13.6620,-112.7005,-153.5508,-151.6076
-87.2256,-61.7126,-102.7665,-85.3440,-116.5188,-72.3274,-98.2743,-79.0059,-153.5294,-83.3507,-57.3286,-31.2259,-46.7954,-39.3048,13.7333,-38.0430,-147.3764,-143.4864,-163.2210
-76.8152,-68.4800,-108.6736,-111.4374,-114.0186,-96.9294,-104.1513,-87.4554,-96.7452,-74.5958,-50.4941,-19.6802,-55.0476,-25.6747,-5.0699,14.8686,-151.8208,-118.8521,-185.6075
-53.5316,-48.7000,-91.8123,-92.6533,-151.5713,-125.6441,-147.0557,-76.5668,-156.1543,-86.8091,-32.1069,2.4245,-72.4737,10.6193,-43.2158,73.0773,-120.8458,-123.3054,-194.5253
-40.3486,-51.4414,-70.5359,-83.7466,-168.2435,-159.4896,-178.7636,-81.7861,-246.8860,-110.5813,-24.8343,-12.9006,-83.1028,-2.6240,-77.4453,50.3092,-86.8173,-153.4726,-184.2306
-73.8952,-84.3122,-81.6590,-115.0800,-152.5792,-154.5104,-199.5861,-97.0744,-187.2757,-95.2841,-49.0340,-62.4852,-105.3987,-74.1801,-88.0502,-50.9563,-74.9534,-144.2141,-157.8989
-111.4255,-98.3436,-107.1333,-132.4904,-123.6133,-121.0929,-171.7074,-96.4254,-14.3886,-62.8800,-73.7125,-86.7472,-114.4962,-128.2577,-56.9940,-130.5249,-94.8048,-108.1376,-128.4588
-98.5419,-86.3884,-117.6346,-119.0458,-118.8420,-127.0430,-101.1746,-97.8266,48.3171,-93.0307,-65.4665,-59.4863,-87.0033,-104.0278,-7.3039,-97.7916,-148.6857,-138.0155,-142.3729
-87.9364,-90.4222,-138.7690,-138.6418,-197.5296,-187.9304,-135.6714,-120.7619,-48.2328,-145.8775,-59.4026,-29.2035,-100.2511,-43.6859,-10.9351,14.3751,-204.4720,-238.1035,-225.8056
-118.9300,-105.3833,-171.4255,-183.8776,-323.3963,-245.2416,-300.3583,-131.0207,-155.0307,-128.3200,-81.4003,-31.2819,-188.5939,-18.3566,-86.1443,91.5144,-208.4716,-312.3811,-308.4662
-123.7114,-95.7785,-161.9466,-177.4836,-361.7299,-266.2718,-375.7685,-125.0043,-197.3604,-99.2212,-88.2536,-41.0614,-232.8877,-30.8910,-137.7303,80.7489,-165.5711,-314.9345,-309.7975
-95.5255,-73.3121,-128.3842,-132.8995,-297.0439,-266.6582,-283.3033,-145.6137,-196.2272,-127.9146,-75.6812,-42.3773,-186.1779,-60.4497,-104.4658,12.7778,-148.3875,-278.0496,-265.6487
-119.8659,-58.9872,-146.4505,-109.1254,-251.5794,-235.9268,-218.2443,-160.6821,-164.2032,-130.1861,-94.6655,-45.2160,-162.6951,-101.0470,-62.0378,-73.3631,-185.7377,-225.5675,-254.6249
-165.9532,-35.1904,-181.7779,-82.6851,-251.6941,-156.1924,-251.0402,-113.1453,-150.1426,-77.8753,-117.1458,-32.3733,-178.4426,-106.8381,-64.4728,-118.6144,-206.6258,-158.5635,-268.2318
-123.1147,4.1439,-141.0724,-28.3482,-219.2599,-69.9295,-240.7552,-54.0716,-190.1796,-62.3792,-76.9613,14.8808,-136.7634,-29.5961,-64.5486,-48.3636,-150.2369,-95.5180,-248.9093
-32.9564,27.7243,-62.6140,4.6521,-161.2338,-26.5327,-173.9614,-34.8744,-202.4876,-62.7920,-20.3188,58.1561,-83.8365,72.0867,-71.6865,94.5483,-66.6956,-67.5307,-179.1313
-16.5245,11.3098,-49.1641,-14.8434,-135.8355,-22.9620,-154.3756,-14.4856,-130.8776,-5.3852,-26.9732,47.1508,-122.2270,92.4103,-141.9783,156.5895,-42.6694,-86.0041,-84.0754
-60.6878,-40.0962,-91.2637,-64.2951,-117.3218,-52.5746,-141.7813,5.1217,-53.9094,37.6885,-68.9710,-8.8486,-176.9379,25.6183,-204.9244,92.3851,-90.8839,-131.2442,-8.5180
-93.4892,-103.6070,-126.1914,-125.6912,-69.6444,-110.6099,-59.9496,-24.3280,-13.7478,-1.3858,-87.6051,-65.5872,-143.6332,-55.4295,-155.4562,1.8518,-164.3393,-159.7775,15.0884
-121.0990,-150.4334,-147.1824,-180.1514,-26.5746,-148.0745,17.0767,-59.6213,29.7720,-50.0045,-85.6219,-101.5593,-70.7358,-109.1776,-40.2102,-56.4600,-208.7168,-125.3097,11.1989
-143.3704,-160.1720,-147.0296,-192.9662,4.9912,-124.3307,31.9823,-43.2392,54.5420,-45.9694,-73.7905,-114.2636,-20.4795,-126.8443,31.8838,-87.8265,-184.8557,-24.7034,31.8834
-108.0622,-132.0195,-99.6189,-155.2394,67.6065,-61.2761,57.0944,-8.8058,37.2182,-6.7943,-45.5210,-95.4998,18.6719,-95.7653,28.5490,-65.0188,-110.0773,72.9600,79.8792
-24.0551,-92.0848,-33.2214,-99.8104,138.3965,5.9369,114.4915,10.9614,46.2417,20.0336,-9.0457,-51.4991,46.3338,-29.5691,-16.1828,7.1242,-49.0610,89.6536,110.8488
