Fp1,Fp2,F3,F4,C3,C4,P3,P4,O1,O2,F7,F8,T7,T8,P7,P8,Fz,Cz,Pz
-31.2921,-4.2379,-22.0049,5.6113,-38.6405,53.3690,84.1964,35.9488,74.5141,-72.6515,-26.5279,-20.7581,-25.9299,-9.2057,-0.3961,-8.0447,40.3498,80.2237,126.4698
-33.1372,-33.7851,-39.1446,-40.9732,-51.8024,-13.2230,16.6946,-13.5525,31.0005,-40.6185,-32.6958,-25.3948,-59.7515,6.9388,-3.5535,7.7949,-16.2257,-12.3936,51.0661
-37.0884,-54.6807,-56.1322,-78.1411,-15.3263,-65.4586,-56.3781,-46.8229,16.6301,49.5794,-39.0287,-32.4379,-16.6514,4.5468,22.0085,3.6674,-105.4587,-100.2620,-44.4110
-30.9150,-19.8583,-42.6147,-13.9213,5.5332,-44.9586,-100.1085,-34.5960,-27.9394,98.1053,-32.2864,-26.1767,18.9237,-13.7912,15.8118,-10.8174,-114.1174,-105.2470,-122.5712
-41.1837,12.0324,-42.0651,62.1771,-66.5058,-24.5598,-168.9722,-38.9673,-147.6972,54.0630,-40.4210,-18.0615,-48.0306,-42.3029,-69.7636,-37.4075,-78.8719,-101.1600,-189.3192
-79.9760,-15.7349,-85.2480,41.7745,-161.2976,-57.8485,-254.7540,-87.7468,-232.8884,5.6156,-78.2369,-31.3183,-144.9787,-58.2144,-143.5417,-60.0203,-105.3436,-162.1445,-231.6226
-108.8264,-55.8555,-130.3587,-39.3562,-191.4690,-103.0784,-276.3809,-120.8866,-216.4574,16.4022,-108.6519,-43.5886,-169.2420,-27.2272,-125.0583,-28.5083,-176.4565,-245.7677,-255.8185
-111.9588,-53.5282,-148.8533,-102.4487,-204.1999,-124.2115,-274.6703,-110.8104,-210.9647,31.9996,-112.6893,-24.3344,-158.2563,18.1074,-96.3852,29.0282,-217.2063,-295.8945,-314.1000
-123.7423,-36.4762,-163.5740,-112.6117,-267.7044,-134.5226,-359.9682,-113.9979,-296.3039,2.3556,-121.4022,-8.1001,-194.3412,2.8647,-153.6615,19.5524,-224.3494,-314.4839,-402.4157
-151.5159,-47.8679,-186.5113,-80.5725,-346.6687,-158.1350,-479.6029,-167.2992,-396.0679,-46.8534,-145.0260,-30.4465,-258.9416,-48.0533,-247.2542,-30.6283,-236.8852,-326.6944,-454.3922
-150.7747,-68.5053,-189.1135,-62.7202,-362.4528,-193.6818,-497.7485,-225.9837,-432.1271,-82.5500,-143.5901,-46.1285,-272.7008,-44.0042,-281.6134,-18.0077,-253.1682,-334.6947,-449.7939
-97.3785,-54.3570,-139.0515,-79.8772,-291.7208,-200.4536,-427.0447,-236.6557,-412.6198,-104.5836,-92.1216,-13.3701,-219.7693,-2.5044,-254.4384,25.5828,-222.6203,-295.5062,-407.1805
-30.9218,-11.6940,-57.7186,-77.7239,-188.7672,-157.5323,-358.9001,-209.2690,-369.2719,-121.9075,-27.2534,27.2507,-162.0371,-4.3537,-218.1142,4.6271,-135.2509,-196.6130,-337.4884
-4.3230,10.7698,-15.0227,-47.4890,-128.4653,-122.5469,-306.0632,-192.8418,-329.1501,-135.8959,-2.0264,36.3425,-140.0096,-30.3385,-188.9486,-47.1565,-77.0448,-136.0344,-292.3420
-15.0270,-7.7329,-31.6309,-48.1712,-128.1694,-155.2988,-277.1255,-216.3433,-318.2933,-141.7193,-14.9740,32.3449,-135.1517,-21.8793,-161.5966,-54.6154,-106.8584,-191.8723,-333.6031
-22.8812,-37.6194,-54.8247,-79.3137,-149.5171,-217.7353,-312.2163,-251.8457,-332.5716,-131.5788,-24.9072,29.5423,-137.7182,0.9044,-151.0877,-31.7473,-159.2968,-276.9757,-404.6446
-23.1915,-42.7296,-63.1937,-90.3724,-150.3849,-217.7087,-348.9708,-228.0733,-323.4007,-91.1321,-25.7678,19.1707,-154.4754,7.8192,-151.1820,-7.0880,-171.5726,-273.3637,-375.4083
-40.9727,-23.9609,-81.2408,-78.2578,-114.8512,-137.1994,-283.4351,-133.5214,-253.0666,-18.0556,-43.1744,2.8145,-157.2957,6.1012,-120.5077,8.2100,-168.1453,-204.7643,-249.5378
-62.0956,-18.9695,-90.8697,-61.2648,-80.6860,-74.5093,-179.5450,-74.7298,-166.7071,32.8559,-64.2958,-14.5358,-125.8537,-11.5694,-71.2164,-14.7402,-155.3923,-163.4594,-177.1247
-43.6928,-43.0578,-54.1997,-36.6371,-93.1985,-104.1084,-161.8793,-117.5341,-136.5762,-2.8850,-46.5790,-21.1637,-90.2432,-24.9827,-59.0982,-42.0132,-100.0815,-171.4597,-209.3848
7.0431,-50.3370,3.4763,-12.5650,-102.9811,-140.1754,-174.3539,-160.6884,-138.1512,-77.1168,3.0378,4.5285,-64.0823,20.0535,-62.6957,0.6512,-29.5605,-178.5014,-216.5138
24.4921,-18.9575,17.6206,-11.9355,-56.4295,-90.8137,-119.4995,-122.1364,-115.5320,-84.0883,20.1251,37.8422,-40.6085,71.5129,-38.3790,49.3814,-16.6794,-152.7396,-143.3649
-21.3789,-11.3229,-30.7827,-38.4785,-38.0231,-45.3790,-78.9121,-82.7820,-111.3814,-34.9284,-23.9764,24.4323,-53.4973,26.6747,-39.2190,-5.3649,-68.3040,-134.7160,-113.3753
-54.6041,-45.9869,-66.6268,-58.5424,-89.0576,-81.2903,-125.5545,-92.7967,-149.8214,-3.2095,-56.6138,-8.0771,-100.4994,-40.3635,-82.4293,-70.4241,-92.2207,-155.4321,-157.4925
10.9940,-36.7036,4.6808,-30.0498,-64.6012,-88.0819,-143.7770,-76.8548,-143.0891,29.0242,2.8702,16.4345,-92.3371,9.1771,-62.8879,-7.3721,-9.1123,-156.5800,-147.4745
116.7064,30.9893,129.0739,17.1085,75.5854,-18.0575,-62.6960,-31.2275,-81.3270,83.9483,100.0879,75.8084,-10.9383,100.0036,26.7828,85.4503,101.8121,-102.2657,-82.5532
138.9557,51.8004,156.2304,2.7389,153.4029,-3.0562,6.3327,-37.1634,-60.5918,97.0144,121.7605,86.5093,41.3373,86.2270,57.1546,63.5833,101.4196,-55.3130,-72.7322
102.1480,5.2294,104.5543,-51.6483,124.8782,-65.6117,10.2743,-72.9061,-53.7376,52.8042,89.9358,50.7279,32.2332,20.5086,30.6799,-4.2131,43.0639,-37.0123,-72.6651
109.3987,-12.4902,113.7099,-42.5781,128.1451,-80.2008,32.2355,-68.4564,19.4581,14.4458,97.8921,30.4943,36.7476,6.6451,59.0530,-21.8923,73.1816,3.8614,-19.1050
137.6641,26.3708,162.8497,27.2945,162.4799,-43.2852,73.8015,-52.4868,68.3669,-7.9108,125.0729,36.1507,71.4353,6.2414,107.9296,-32.5109,136.8476,49.5019,-32.8349
130.1131,63.0949,158.5921,69.4375,145.7963,-44.0207,44.5646,-64.4909,3.2856,-14.8199,120.3973,39.2819,87.8685,-18.8406,87.3074,-47.3721,111.7223,50.4766,-155.8854
131.5769,65.7639,146.5229,59.5531,128.2286,-76.0051,-44.5355,-77.4498,-73.4221,41.4111,122.5840,33.6564,81.1560,-18.9217,45.6009,-10.4343,61.1213,27.7312,-226.8422
146.1190,36.6671,153.0907,14.5002,131.5495,-98.6169,-97.0878,-79.9223,-77.5917,120.9020,133.1123,27.7891,65.0146,9.1680,40.3605,39.1502,52.3510,-10.1389,-200.2128
106.2475,0.6400,108.1370,-39.0014,83.4457,-106.5885,-88.4539,-81.1673,-68.2003,124.1019,92.8506,22.6823,32.9398,16.9879,36.0472,33.6403,24.2015,-74.2253,-192.9031
57.9482,4.8710,61.1387,-24.6855,28.1291,-82.2298,-77.7350,-66.2572,-83.7284,91.5607,47.5009,19.5612,4.0773,5.8437,20.3758,8.8303,1.4964,-101.5812,-218.0765
81.1529,40.4232,101.0977,60.5527,39.6698,-41.8987,-109.3082,-44.9195,-110.4360,102.0450,70.1246,24.0011,-0.1725,-8.5077,4.1552,-3.8933,59.9537,-62.3386,-218.9021
103.9380,43.4172,131.3327,81.5519,37.0099,-44.5604,-150.7487,-55.5878,-146.4289,83.2201,93.4411,31.1953,-9.1280,-27.8082,-34.9676,-24.6924,104.7251,-33.2551,-206.9346
70.0369,17.6050,80.9361,13.0315,-8.9900,-77.3963,-135.1020,-96.5613,-151.9375,-14.4828,64.7919,23.7027,-38.4566,-24.0226,-65.7000,-20.3266,52.3603,-27.8168,-175.0921
64.0610,15.3679,66.3727,11.5952,15.3445,-83.0773,-71.8469,-132.9595,-96.6334,-80.0735,59.8601,0.5247,-44.1620,8.4917,-31.1966,20.1200,14.7872,7.0608,-103.9830
89.5875,19.5193,101.6515,95.4553,87.4061,-69.4600,-39.7665,-138.4585,-51.0839,-55.5779,81.9661,-14.4356,-10.5898,8.7704,10.9398,7.6327,37.5146,26.2366,-53.7049
46.3954,-8.7779,53.6237,90.3345,69.4992,-67.0740,-52.8014,-109.0081,-61.4753,-19.4035,41.7189,-15.8786,9.4651,-34.6422,-12.6400,-60.2902,1.2693,-16.7265,-54.6840
-27.5305,-39.9043,-42.3888,-21.7034,-0.6184,-73.4571,-59.8631,-78.5651,-64.8170,-8.0299,-25.9397,-26.0786,-12.4377,-53.8902,-43.1711,-69.1270,-91.0811,-47.1630,-54.5634
-23.1181,-36.6280,-42.5518,-62.9244,-3.2433,-77.4196,-54.2556,-75.6050,-29.8213,3.9766,-22.8710,-41.3556,-36.7488,-34.0415,-16.4562,-23.3715,-100.0700,-26.3536,-44.5481
24.1605,-10.6367,22.9501,4.2561,32.6569,-56.4265,-45.8029,-66.3749,4.9768,9.8617,19.3109,-32.4676,-27.1799,-11.0509,27.7980,-6.7795,-20.7557,-10.4415,-45.0533
39.1611,17.3086,51.9001,39.6657,41.5694,-4.4977,-12.2048,-24.5247,30.7733,12.1487,33.5190,-2.3051,6.2182,22.2541,53.7323,16.3100,34.3329,-10.5779,-35.9647
38.8865,35.2397,52.4010,10.3698,44.6325,32.0607,25.7625,15.2022,47.7884,41.4173,34.0749,17.7387,35.7398,51.7677,68.3970,59.8222,39.0215,-2.3501,-27.7074
31.9944,32.4729,45.4727,13.5797,55.4888,32.6577,22.8380,34.8502,34.0119,88.9078,26.7863,10.3218,36.9693,11.7819,59.7925,17.4553,32.4825,2.9770,-42.3844
-0.7724,11.1219,10.6843,44.4620,57.4009,25.2238,13.1328,42.4849,9.9859,122.4480,-5.8510,-19.5391,6.1397,-63.9674,32.8482,-78.5504,5.1157,0.3183,-34.4756
-22.7111,-21.5327,-26.2961,9.7036,60.6826,0.6184,38.2867,20.2173,24.4545,131.8358,-27.9339,-44.7359,-11.5665,-56.4345,32.9100,-61.5919,-52.0506,-12.0753,17.0326
-1.6841,-57.0913,-19.7886,-60.9468,78.4435,-38.7303,64.8679,-9.7313,89.1933,126.3723,-7.8244,-40.8342,32.2366,20.7578,70.7846,37.0426,-74.4875,-35.0523,76.5138
31.0676,-69.7776,22.6589,-56.4465,116.1841,-20.7950,94.0159,23.1081,186.8946,145.5051,24.3217,-30.1758,104.7224,50.6899,119.7469,64.1897,-13.7254,-13.0023,156.9588
57.4583,-43.2424,70.9167,12.6429,182.7038,56.9448,175.0498,100.8836,271.6856,212.3221,47.8873,-36.8932,139.0986,36.0236,170.7922,49.0834,70.4972,69.6404,253.9524
82.8438,-3.0461,102.6157,53.7128,243.6834,102.1499,261.8487,139.3107,282.7204,259.9920,68.2972,-27.7959,139.7644,49.5095,209.3162,67.5281,101.7330,107.7235,273.3163
73.6587,15.8077,86.2272,43.2077,237.6808,95.4643,264.2322,133.2381,226.3244,231.0667,59.1403,4.2380,134.8911,55.1040,199.9110,50.6855,73.7779,62.1368,198.0473
4.0484,2.4017,3.7593,-3.5414,166.6396,76.3606,204.5547,118.8209,167.3113,190.4523,-3.3362,-6.2308,103.0269,1.5172,144.5591,-15.8211,-14.3839,26.0393,129.2451
-73.8352,-33.4874,-96.7772,-74.3206,93.2848,39.8943,153.7169,94.7141,138.6497,203.4941,-74.3374,-64.5539,54.7764,-44.9325,94.3406,-24.5146,-142.8655,21.1864,107.3557
-89.9913,-64.9522,-126.2531,-111.8957,66.1712,4.6853,124.6095,77.2742,148.2226,230.6650,-89.1403,-88.9862,57.0495,-28.9641,88.4803,21.9814,-193.9639,-2.1759,108.3950
-49.8709,-70.6322,-71.6261,-79.8482,83.8070,10.3818,116.9872,87.8419,188.9193,232.3459,-51.6624,-66.8573,99.4600,-2.7532,113.6576,32.2768,-115.3136,-14.3092,130.6404
-14.6077,-55.5599,-22.1871,-34.8873,106.3956,22.5072,126.8446,92.6375,197.7465,221.7870,-18.8426,-56.9124,105.6238,-6.0805,123.3451,19.9610,-46.0103,15.0363,140.1895
-6.8164,-18.0033,-16.7565,-5.1244,117.1053,29.2811,118.3942,82.6814,139.8277,200.8586,-9.9900,-53.4984,87.2697,-17.4923,99.8653,20.6088,-58.5084,52.4935,103.3640
11.7606,52.7396,14.9081,61.4736,147.7515,93.0884,92.6892,105.4243,86.6376,167.6229,11.1148,-18.4382,100.4102,-25.0288,80.0021,-0.0306,-26.6550,102.4085,80.9957
61.0213,116.7516,90.6963,145.1364,189.1861,171.1283,90.8910,144.3240,84.2706,134.7016,59.0505,26.5554,117.3324,-8.6287,88.9765,-7.7315,83.6046,156.2113,108.9119
103.9935,111.2459,130.4765,144.1294,178.5237,140.8385,96.7344,123.1318,80.8106,96.9631,97.8166,52.1536,106.7327,60.7939,98.1333,69.0095,132.5023,127.7791,112.3230
107.1269,50.6942,109.3218,54.7682,129.4587,36.7472,71.7155,43.9778,51.4947,61.0306,99.3189,61.8566,102.8036,123.4399,83.5219,142.7218,80.8912,23.1770,62.4784
81.9907,12.8016,79.5016,-1.3766,114.4680,-6.9808,42.5281,-9.2805,20.5462,59.2334,75.1110,51.4527,97.3536,89.8954,56.6847,91.8428,29.9981,-24.8179,25.0689
64.6649,36.5267,71.2458,58.9802,122.6666,24.0719,34.8168,13.2976,-18.4989,74.0617,58.1958,29.0549,49.4215,9.6593,27.6399,-0.5433,38.9505,26.6065,20.6160
81.3556,86.5693,91.7751,168.6582,111.5956,56.1042,23.3616,65.7725,-57.3518,51.9101,75.1943,31.3711,10.1191,-9.4810,6.4936,-7.7527,94.0376,90.5798,12.6749
109.4898,100.9334,124.1941,188.2992,106.8419,50.0357,8.2536,58.8691,-52.9651,-2.1125,104.5826,55.1345,39.7782,16.8756,11.1064,16.8570,133.7583,99.2238,-5.6599
94.8086,69.5753,107.6293,107.9404,112.1327,17.1452,15.6198,-5.7442,-23.4521,-43.6483,91.8322,57.1653,76.9541,27.3616,28.1649,6.7064,85.5690,57.4911,-18.7411
40.8625,50.2518,36.5255,68.4014,81.3317,3.1914,26.2893,-24.5907,-24.5818,-52.2726,40.6288,33.9505,55.4202,34.6529,25.7015,20.8391,-10.5782,18.6242,-24.3324
5.6910,63.3944,-10.0480,110.6945,32.0022,21.1497,7.0123,18.6898,-51.0219,-29.7946,7.6500,13.9335,14.8421,37.3760,4.5957,53.4345,-47.4645,18.0345,-34.0836
0.3866,51.6985,-10.6503,108.0811,12.1173,10.8068,-30.0900,19.4285,-76.9522,-8.4157,2.0832,5.4072,-6.3109,-3.8361,-22.2152,7.7190,-34.0900,14.2819,-58.1755
0.8564,11.9922,-9.5621,27.7592,5.8306,-38.4976,-52.2235,-30.7942,-109.6972,-24.9783,1.2765,11.0300,-28.4682,-48.8109,-54.6067,-67.4411,-31.9968,-13.8597,-78.6232
19.4652,18.8636,1.8416,-12.1442,3.4606,-46.8521,-47.1334,-30.5434,-147.0520,-42.0411,18.9431,36.5658,-48.9788,-29.7240,-77.0550,-42.7598,-17.3759,-6.5505,-72.3363
58.2371,67.3966,41.5378,26.9464,33.2762,-3.2492,-34.1357,18.2119,-174.3508,-3.6961,55.5947,65.7265,-40.8454,12.6708,-76.9156,26.7192,24.1657,31.1331,-57.6624
76.6672,83.2921,68.5961,80.3459,69.9329,25.5450,-39.5561,38.9685,-188.2906,47.3551,71.7413,78.2019,-14.9514,16.4692,-73.9779,24.0751,49.4368,25.2845,-52.0463
63.0174,72.7684,59.0913,111.8198,63.0834,39.7975,-44.6248,51.4084,-169.6577,50.3862,58.9748,76.6511,1.5364,17.1334,-70.6646,10.1611,53.1384,2.6678,-30.5996
37.8017,68.6153,27.5174,89.7231,35.0755,64.0494,-3.0037,95.8143,-97.3215,44.9668,36.4366,65.4981,7.2662,47.9099,-39.3373,60.1993,39.9999,17.6998,22.5650
5.3937,33.1625,-18.1100,-0.6111,40.2068,63.7397,80.8018,128.4936,8.2208,87.7292,4.2156,39.1047,18.9834,61.3377,16.7151,88.5754,-7.8137,21.5972,95.8912
-23.9827,-30.8485,-52.9057,-74.6562,85.2857,43.7557,160.5749,130.2600,115.2582,160.2347,-27.4588,2.3639,50.5350,32.6701,74.9351,41.5907,-55.0730,-0.9907,172.6105
-37.2217,-49.2711,-56.8941,-72.3862,129.0280,61.1221,209.6087,143.7112,210.0110,216.3561,-42.0011,-29.2195,89.4381,9.6906,135.5666,8.2812,-65.1844,7.4649,213.8375
-49.1230,-27.9096,-58.1463,-59.6224,126.7060,94.8201,218.8693,159.1303,272.2504,225.0804,-52.8525,-46.2997,107.2763,19.6348,184.6733,28.8801,-69.7557,22.4531,194.1988
-51.4142,-29.3433,-53.4534,-60.9950,98.8895,85.2220,198.5358,136.0363,281.1828,185.3374,-54.1100,-44.2559,112.8697,26.3160,191.1853,28.4755,-59.9996,2.9178,152.2545
-8.7607,-27.8922,1.4488,-13.5183,115.1138,59.1192,185.0316,107.4123,236.5434,148.6175,-12.9235,-19.1699,136.2837,1.4788,165.2009,-21.4817,9.3841,7.5903,114.6593
53.3508,21.7116,73.4253,57.4335,165.7596,65.9815,176.9916,120.1650,156.6810,157.9441,46.7842,20.3560,161.0019,-21.0887,138.5697,-47.6298,82.1054,54.0451,57.4821
81.5445,74.0270,97.5445,69.0530,173.1234,82.0522,133.9238,138.9814,86.6510,176.1778,74.5246,50.1528,155.0133,4.4334,119.4832,3.9731,86.7844,69.9380,-4.9245
85.5349,81.6440,96.2505,46.1727,137.7986,70.2713,74.0705,111.2296,62.0409,154.7449,78.4621,55.9893,129.2729,56.6607,111.3414,77.7441,68.1499,38.0217,-38.1171
85.6180,65.1447,99.6794,56.1589,107.5602,40.1965,44.2404,56.6764,44.2144,108.9505,76.2905,51.9846,94.4563,76.0629,106.2406,83.4425,71.7080,-14.3919,-69.3385
68.8533,48.5165,80.7929,82.3396,67.1740,8.5988,17.0359,21.6429,-16.5052,65.0511,57.6325,54.8091,39.4602,63.0273,74.1157,39.8092,65.9630,-79.9077,-117.7360
46.3426,35.0153,42.6941,67.0777,6.0518,-26.8354,-44.5367,1.1597,-85.1242,20.0025,36.8818,58.5453,-16.1457,66.1275,22.1603,42.6917,30.5960,-123.6467,-150.9397
38.0776,32.1436,18.1902,0.8489,-36.6279,-58.8616,-112.3255,-31.2283,-122.4175,-19.4977,32.0825,59.2332,-43.7085,91.4983,-11.3277,95.9195,-18.7636,-129.4581,-174.0903
38.1183,45.2184,14.9627,-43.2322,-59.7553,-65.1108,-172.4893,-58.8415,-170.6862,-40.3206,33.8857,73.0794,-59.2240,108.5715,-39.5241,124.1185,-42.2745,-142.2301,-217.9115
57.0383,70.1014,42.4371,8.5889,-86.1998,-54.2630,-242.7116,-59.9563,-259.1682,-64.6916,52.7592,103.5628,-82.3537,106.2113,-94.8053,111.7036,5.2814,-155.3436,-263.4731
92.0672,82.5405,81.7532,76.8756,-100.8464,-74.0182,-299.4851,-70.8421,-339.5073,-119.2380,88.0602,125.9336,-102.6873,83.3269,-155.4255,78.0222,70.4727,-134.5980,-284.4813
92.6816,52.0634,73.0762,27.4956,-97.7236,-128.2623,-316.7540,-119.8050,-366.7206,-169.7591,90.4911,124.2176,-111.4050,44.5614,-190.0203,22.1814,50.6237,-127.4016,-278.1725
67.5757,12.3534,41.8505,-65.2538,-80.9743,-147.3764,-309.5078,-150.5990,-343.7574,-151.8931,66.4904,110.6069,-103.4366,21.1404,-191.0284,-14.5438,-3.9355,-143.2337,-240.4545
77.4967,26.7747,61.5202,-46.5051,-36.6784,-102.2333,-276.9499,-114.8458,-293.7112,-70.6891,73.8656,96.9930,-80.9422,29.6413,-151.4630,10.5857,10.5347,-113.7475,-198.0207
81.0622,55.9138,71.2501,14.4139,-10.7571,-61.7895,-225.5095,-66.9908,-249.6451,-2.7688,74.4185,74.3852,-78.3474,38.2482,-101.7026,44.5810,21.1561,-82.3474,-194.8112
17.2258,23.2509,-3.8018,-6.1745,-70.0880,-79.7526,-220.6207,-67.4781,-236.1804,7.3581,12.6158,37.3037,-111.0006,21.3008,-101.6419,31.7447,-52.4755,-132.0305,-219.0422
-32.8601,-24.5738,-62.1889,-23.4264,-149.0232,-117.9537,-279.5074,-84.6703,-245.9423,-17.2356,-33.0599,10.4677,-134.5728,-8.4399,-141.0614,-1.6662,-95.6783,-179.1423,-234.9481
-6.9157,-15.2307,-25.1075,40.1714,-151.8818,-113.9374,-308.7267,-70.7613,-253.5074,-39.7719,-6.3039,15.1821,-125.9745,-32.7843,-160.0480,-30.5511,-28.8045,-140.4365,-228.2053
6.1334,11.2037,4.9620,82.5306,-126.0940,-59.7970,-251.1330,-40.8728,-236.0784,-38.9069,6.0054,25.0535,-114.9705,-39.0167,-150.2641,-45.6993,28.7988,-93.2196,-187.1824
-28.7144,10.1294,-25.8547,54.2551,-128.4875,-18.3506,-172.5118,-37.2819,-200.1341,-30.4452,-27.3554,12.8524,-108.5095,-24.4051,-133.1917,-26.1858,-2.4813,-87.7372,-144.7966
-22.3871,2.9376,-27.3553,37.4863,-112.5129,-53.4857,-149.1570,-76.2187,-188.5526,-62.9878,-20.7208,6.3657,-92.5323,-14.6236,-116.8327,-12.0701,-31.6584,-85.0711,-158.7107
30.1879,-3.3576,24.0352,57.5062,-65.6441,-113.4597,-172.2038,-119.4901,-201.7249,-112.7433,29.0812,23.7262,-74.5159,-32.0871,-111.2906,-57.0432,7.0888,-79.1550,-183.9816
50.5117,0.4167,59.1940,78.8430,-25.2302,-89.1079,-182.4388,-100.5304,-172.4717,-82.8861,48.3527,26.1175,-48.3520,-60.7122,-99.1298,-102.8616,54.3351,-49.8775,-150.0323
57.9460,39.2071,82.4773,108.8435,28.8966,-13.9790,-145.3689,-32.3689,-93.5555,2.6291,56.6905,6.6983,1.9908,-76.9259,-47.8992,-92.3473,76.6052,36.9396,-107.0522
113.7519,67.8063,145.6911,160.2536,105.4212,-5.4623,-78.0744,-5.9494,-35.6846,18.7923,109.5903,12.3704,57.7843,-72.3934,9.4406,-78.8861,136.3453,108.7016,-87.4412
168.0191,43.8523,209.3776,211.2711,144.9749,-29.3258,-16.4975,-19.5460,-3.4514,-7.2668,159.0129,36.5822,101.8823,-45.6760,31.1155,-78.9591,227.0328,98.8160,-35.8970
135.8604,31.8556,180.6328,216.7973,123.4430,11.6990,12.3844,14.5057,40.3159,32.1038,128.3189,32.0079,130.7869,-13.4925,48.1409,-41.6015,211.8580,64.6541,3.3262
44.8457,54.3102,67.4874,137.6184,71.2228,55.5877,-1.7035,67.1051,59.1280,70.4929,44.0768,14.7333,117.4649,4.8661,69.3605,5.4660,64.6706,30.3899,-43.2079
-6.3354,34.8212,-9.5694,31.7025,22.1286,20.3285,-22.8455,46.4483,39.4028,23.5352,-3.8846,17.2464,74.6507,16.2284,57.5086,10.4709,-34.8251,-26.4419,-76.1892
14.8816,-11.3304,15.3607,13.7479,24.9529,-16.7470,5.3481,7.9966,54.3073,-0.6303,15.0300,15.5000,75.3839,16.5263,44.5680,-2.0244,9.3063,-31.4256,-15.9868
61.5118,-4.1307,81.1420,65.3568,93.1489,9.7623,66.8074,39.6936,110.3442,67.9412,58.0593,1.8072,118.4549,-9.9246,76.1864,-16.3171,91.7566,49.8629,45.3375
97.6045,22.8317,126.6543,90.2885,155.7101,39.0649,98.7712,77.7602,138.7799,118.9381,90.2773,6.8370,131.2425,-22.6057,110.4081,-28.7355,140.9552,101.0441,69.3902
110.9634,17.7553,140.7363,92.9893,157.2852,35.4757,93.9785,54.9824,139.2763,94.8060,100.6798,17.9968,111.7323,19.6259,118.1237,3.2945,155.5855,68.4703,92.2299
77.7417,10.4783,96.0513,73.0422,112.0814,14.6015,66.1440,9.8101,126.1608,38.3402,69.6996,10.0293,86.9605,58.7418,115.7993,45.8667,86.6213,13.6352,57.6876
17.7024,-7.4961,11.6221,-28.1565,46.6267,-43.7061,8.0753,-51.7863,62.4386,-53.8062,15.2826,9.8095,36.2326,37.5106,74.9128,6.5481,-31.0089,-47.3319,-31.8350
1.9641,-63.5169,-17.2227,-137.3656,2.1939,-126.2023,-40.1042,-142.5235,-18.4557,-152.2591,1.1905,24.0885,-20.4732,0.9925,-3.0128,-69.5823,-61.0918,-97.0472,-46.3207
27.2432,-99.4103,11.8363,-140.3839,9.8957,-161.2277,-31.0518,-186.0954,-36.7296,-157.6989,24.0204,12.0715,-38.3433,-14.6539,-37.5321,-83.3223,-21.7676,-78.4114,8.0647
23.6655,-80.3043,10.3828,-98.2877,27.6611,-131.9903,-1.9293,-142.1852,-17.9329,-81.3669,19.2144,-18.7582,-45.3204,-34.5457,-19.8509,-70.6996,-24.1411,-30.0979,18.2452
-1.6481,-48.8868,-8.5305,-63.9684,31.9967,-67.6374,16.6356,-79.2554,-8.1655,-16.3888,-6.1762,-24.1216,-49.5463,-43.9967,-2.3099,-75.5845,-33.3098,-23.1279,14.0268
-8.8290,-20.6863,-3.6445,8.2165,59.6067,5.7551,50.0581,-31.8567,27.7866,26.9946,-13.8624,-16.8940,-11.3755,-11.2566,32.5795,-48.2047,-21.7739,-30.9101,50.1537
-31.7777,-12.9263,-39.1151,26.3712,61.0569,21.8755,70.4781,2.3902,76.5332,45.9319,-35.4245,-27.9794,9.1665,27.5991,74.8445,7.1872,-73.4421,-45.8661,64.8417
-81.8461,-57.8756,-116.7569,-91.6937,-37.6595,-36.2708,39.2325,-5.6032,59.7329,4.8912,-82.4269,-36.0084,-56.7697,35.8447,42.5740,28.4868,-141.4260,-100.7911,40.2348
-104.8678,-87.5203,-137.3142,-159.7990,-141.0836,-50.9352,1.1387,-19.7400,-16.6136,-28.0520,-103.6214,-18.4011,-115.3406,28.4480,-40.6199,20.4657,-114.2222,-142.0164,14.6819
-101.7238,-38.5212,-116.8609,-76.0503,-141.5087,16.8467,-29.1250,23.2203,-91.3806,25.8063,-99.2902,5.0956,-93.6020,15.4621,-80.7180,11.6515,-80.9411,-134.0390,-31.2148
-101.9480,-0.9600,-124.3757,-28.8347,-103.6729,35.4200,-83.4033,50.7897,-136.1605,77.3354,-98.4773,12.5030,-71.6245,2.5353,-84.9167,3.2647,-125.4922,-134.6510,-78.0786
-76.4673,-26.0156,-107.8621,-73.6372,-78.4057,-24.6757,-105.8343,-7.2482,-118.7419,33.6447,-73.9041,5.1508,-72.5180,5.0171,-76.1746,2.7128,-136.7215,-126.4159,-61.5712
-26.2019,-22.5955,-45.3117,-69.0679,-20.1270,-44.1889,-60.0501,-56.0915,-52.7711,-32.1365,-24.8380,1.5314,-34.9279,8.0744,-32.0282,-1.5729,-84.0750,-59.6955,-25.8801
2.6724,28.7816,-9.0403,-20.1312,45.6374,-5.9471,-35.1452,-30.5031,-43.7089,-37.9349,4.3074,23.4819,9.0555,3.7199,-2.8581,-15.8774,-60.7389,-7.1812,-32.4256
29.6835,64.0132,17.3282,14.3732,67.0418,25.4092,-47.0494,0.2361,-114.6451,-8.9966,30.0678,63.2074,16.1362,27.8620,-35.1941,13.6770,-34.0865,-4.0654,-34.7809
72.7287,83.3620,69.2843,53.9525,70.9877,43.6741,-25.8333,0.1201,-153.9066,6.5762,70.4467,87.0352,28.5001,77.6675,-55.7810,89.7819,28.2823,9.5422,-24.1386
73.6044,78.5007,70.3505,25.6215,51.7084,23.2891,-29.0380,-26.5394,-126.5155,-22.6542,71.3078,85.0838,34.9384,104.4163,-29.8926,121.8223,19.8537,-12.2111,-61.5106
35.7284,24.7539,22.0369,-77.7110,-11.8024,-51.1951,-109.2743,-97.0224,-99.1237,-94.8925,34.4510,67.4223,-10.5714,99.6363,-18.7488,88.3816,-41.4907,-100.0009,-117.1047
26.9059,-7.0826,25.4900,-65.3899,-41.0101,-80.1718,-146.9000,-151.2661,-77.4065,-136.0960,24.8673,29.7468,-52.9441,64.7254,-23.3682,38.6309,-23.5033,-104.5322,-113.8293
17.4892,5.9887,32.2118,26.6609,-4.9622,-35.8016,-96.9351,-119.9055,-41.7700,-90.6272,16.3810,-20.3484,-49.9602,-8.5303,-17.5454,-24.1264,-0.0957,-8.5348,-56.5436
-42.6539,-37.0240,-50.5001,-51.8237,5.0518,-40.1492,-62.1002,-85.1784,-23.3392,-15.1379,-40.6372,-51.2731,-52.1688,-59.9503,-31.7272,-72.2723,-98.0104,-7.6466,13.6701
-86.5456,-116.2947,-121.7468,-199.1430,-17.7806,-94.6816,-34.4017,-116.0171,-16.1323,18.6244,-84.3685,-56.9465,-56.5503,-36.6542,-47.3724,-49.5778,-193.3982,-92.8088,64.5028
-57.6679,-110.5996,-81.0646,-160.5196,-0.3477,-86.7325,39.0161,-126.7811,17.2766,16.6769,-58.1004,-54.0205,-19.8322,1.7275,-15.3006,0.8337,-146.4877,-81.0858,72.2865
-4.0109,-62.5977,-9.8692,-64.2686,22.5915,-53.4456,74.6782,-83.6314,54.4464,3.8954,-6.2260,-39.8327,13.9728,21.9410,23.2551,35.9779,-45.2586,-14.1504,64.6122
22.7916,-66.5137,11.5626,-82.3331,-5.9835,-70.7328,50.3328,-64.7721,77.2047,-18.9167,19.0699,-21.5218,2.8143,71.1174,35.4017,98.1742,-2.0293,-24.6135,74.8437
7.1728,-75.5177,-3.4204,-78.8196,-34.3515,-67.5784,74.5171,-67.7855,114.5653,-37.7180,2.6987,-30.7676,-9.5548,104.5566,61.9742,132.9963,-6.7994,-54.3396,80.2100
-35.1964,-53.9741,-30.0803,6.6166,-9.8889,-6.1384,137.3863,-32.5231,147.3652,-17.2905,-37.8839,-56.4932,7.4664,45.2767,88.2701,45.8885,-20.3566,-30.5914,83.4525
-44.0706,-40.9020,-34.1712,34.8984,45.3463,36.5675,147.4397,21.8929,134.7137,45.9316,-45.4993,-52.0982,34.0147,-25.8874,73.2064,-50.0762,-18.1209,8.6028,119.0824
-14.0677,-31.7677,-13.8632,-22.3778,75.8564,36.5905,132.1499,50.9521,114.2147,88.6134,-16.1871,-28.2296,41.3695,-18.3702,57.7247,-23.9464,-7.4863,41.7092,148.1679
-19.3256,-28.3171,-26.8374,-84.3606,37.1248,25.0978,138.3460,49.7908,129.3634,60.2821,-20.8940,-31.3628,7.0272,8.5132,67.1254,27.8169,-17.9986,51.5480,133.7711
-47.1765,-50.6430,-46.6933,-73.9273,-17.8819,25.4194,150.6255,38.8745,155.3262,25.6065,-49.0072,-50.4534,-30.6737,8.2052,70.7666,16.0309,-3.9437,21.8867,137.8262
-23.6252,-37.6074,5.0909,50.6444,14.8874,80.3994,185.9019,57.9588,172.0431,62.0899,-29.0335,-47.9803,2.5332,12.8599,84.6298,3.2097,79.1994,25.3818,176.3687
6.0957,32.6975,55.4246,148.2271,83.9599,158.9288,231.7618,98.9425,181.5485,104.1344,0.6407,-31.0636,73.6193,21.7339,119.7914,20.6941,117.9344,84.6061,159.2388
-13.0131,61.8348,19.1333,66.7637,63.1927,146.7786,206.9968,90.6235,166.4224,67.0460,-12.9238,-17.5291,90.6388,42.1089,125.8048,65.0420,37.9725,88.2101,75.9595
-9.0861,32.8446,0.9876,-15.2632,6.1732,69.0225,134.4395,38.0240,138.4894,11.4062,-7.7936,-7.1079,71.0027,92.2749,106.2304,134.5830,-4.1387,30.1965,24.8189
30.5461,23.7982,56.9436,78.1855,8.1809,51.2553,114.3542,17.2132,138.3434,1.3892,27.5776,-13.8886,66.3745,90.7865,106.1861,124.4273,77.8258,26.6511,24.2377
12.8406,26.9610,61.5371,154.8371,-1.3484,66.1714,114.7052,16.6902,139.2725,-16.4797,10.6158,-40.7435,49.3147,1.9631,97.5330,2.9183,117.0010,54.2721,-7.3989
-35.5232,20.3123,0.9112,92.5471,-60.6319,36.2604,50.2098,-14.1378,85.7374,-66.0379,-32.4623,-45.2568,14.7929,-32.0325,57.0770,-38.9237,40.0342,20.7955,-88.1485
-24.6443,39.4410,-3.7851,58.7192,-80.9901,12.3195,-37.2306,-54.1547,5.1315,-98.8126,-20.5591,-14.2257,0.3513,27.7255,23.8377,36.8363,-7.1152,-27.1951,-148.2251
-10.9307,48.8622,21.1193,81.8058,-78.1447,15.3757,-80.6947,-92.1569,-50.9207,-124.8092,-7.5661,-3.9784,-19.5385,14.0764,-12.0649,6.3979,17.2612,-30.4514,-165.3162
-51.0411,2.6733,-7.2155,62.1724,-131.4336,-15.1557,-106.3520,-143.6540,-86.1437,-163.1681,-44.3771,-39.2523,-62.0964,-86.4340,-77.1707,-120.5063,17.6689,-24.9918,-178.2016
-49.9768,-32.5374,-8.4912,61.7502,-156.5431,-51.1800,-130.3434,-166.1094,-82.0099,-145.2794,-41.8155,-66.4516,-49.0022,-94.2880,-100.5794,-100.1671,15.0263,-18.1980,-164.4487
33.6935,-20.7005,80.4031,101.9086,-63.2974,-34.6938,-102.0122,-131.4507,5.3712,-51.4605,36.6243,-50.6021,54.5772,-6.9902,-27.3434,27.3479,80.7898,13.9196,-88.8370
94.1236,-6.8941,157.6455,98.0430,35.0976,-0.0394,-24.1729,-83.0355,111.1694,14.1954,92.2320,-20.1049,154.3001,19.8782,61.0431,41.4031,161.8436,44.8660,-41.7851
88.3018,16.5444,161.8907,114.1081,38.7908,34.7817,11.9898,-33.7001,119.9940,10.6499,87.0429,2.5938,171.3219,-11.5365,74.6144,-18.3103,197.4308,54.9030,-71.4658
86.6790,55.2981,152.4513,185.3809,52.9107,95.7416,-7.7067,33.8991,65.9291,32.2052,85.5355,29.6589,145.0197,12.4041,42.7357,3.3916,202.3206,62.1693,-9.9698
102.2134,57.7835,135.3428,142.8337,163.4492,142.5185,23.5256,86.5573,49.5518,113.1353,97.5959,62.9588,134.0804,84.2064,32.3164,77.7760,145.6975,70.4920,205.9070
68.3384,36.4498,46.8965,-39.8825,244.1828,117.7113,99.7244,83.0107,15.8907,144.6498,63.9969,76.4816,99.3053,102.9822,18.1718,99.0490,-21.6120,70.7070,324.4916
-25.5539,22.9959,-96.6405,-183.1728,167.1421,37.8227,63.6473,23.0055,-123.1694,65.5910,-22.2004,50.8970,-20.5490,33.7280,-74.7185,41.4462,-221.0229,53.6015,227.8261
-102.6287,-20.8715,-196.8168,-236.6000,36.5295,-43.5958,-69.3697,-53.0691,-263.8993,-19.2040,-92.1846,6.7974,-153.8733,-53.6761,-207.9308,-41.1036,-322.8793,23.3259,154.1430
-108.9846,-71.5573,-209.7919,-255.7227,15.6071,-82.2789,-103.8531,-72.8591,-279.0996,-13.0105,-98.5801,-14.2566,-186.3278,-82.5569,-253.1673,-70.6757,-321.6338,18.1639,214.1809
-81.8871,-58.7745,-186.2541,-246.6391,59.2665,-80.9101,-48.5753,-33.9196,-236.9529,19.3188,-74.9302,-6.1663,-165.0402,-70.8546,-204.9344,-54.7546,-297.5592,39.3375,223.1606
-64.9198,-22.1822,-160.8447,-212.3380,49.5493,-77.3272,-58.8589,-14.1318,-219.0446,2.5402,-60.6712,0.6114,-181.0788,-67.8236,-159.8820,-55.9794,-260.4790,37.5765,133.3601
-29.6081,8.9615,-95.6461,-105.4816,32.7899,-41.8537,-79.1428,16.4259,-162.9361,-0.8299,-28.6214,0.2029,-169.8198,-48.0647,-110.3873,-36.3092,-150.6036,47.0178,93.8283
30.7346,84.1709,0.7956,96.9535,64.2123,61.9004,-17.4503,135.9666,-62.7323,56.4752,28.5304,11.7835,-87.8635,1.4092,-23.1892,40.1805,6.0894,118.7704,104.5046
35.4444,135.9597,21.5262,196.5450,35.3020,124.1479,-9.4001,225.2206,-42.4519,92.3052,33.7170,23.0604,-61.1918,12.3388,5.4074,68.2949,69.0528,135.6865,44.5786
-43.2125,71.0925,-65.5416,76.1368,-106.2546,56.9048,-124.5418,155.0386,-122.8652,63.5303,-41.8132,8.8676,-139.1645,-18.8593,-68.0142,20.3402,-13.8475,-1.7205,-78.7506
-113.9300,-7.5606,-148.1277,-29.7659,-226.0030,-24.0476,-210.4983,50.8951,-184.5046,40.2267,-111.3692,-15.6700,-199.5163,-8.6205,-121.0797,23.8026,-117.2924,-159.6594,-174.7443
-131.6190,-12.3038,-168.6718,0.1634,-247.4002,-31.3010,-212.4390,29.8339,-181.4925,48.8447,-130.2570,-27.9194,-198.8484,32.3749,-100.5663,73.4517,-156.4228,-220.6183,-214.3684
-157.3933,-25.1992,-197.8247,-17.0377,-254.2157,-36.0191,-214.6553,20.3736,-170.3114,50.9328,-155.9064,-37.8352,-207.7072,27.2328,-89.9108,55.4781,-194.5068,-254.4109,-223.0484
-208.0226,-57.8754,-255.5033,-87.6515,-294.6243,-46.0815,-216.1712,13.6276,-175.7844,57.4951,-204.0560,-50.5067,-229.2083,0.3694,-110.6340,18.4388,-249.7546,-292.3963,-228.1202
-231.1022,-44.0058,-278.1848,-73.3975,-322.1730,-12.4224,-205.7176,56.7368,-183.4327,84.6681,-224.8088,-50.9308,-226.3560,-1.2311,-121.0511,31.5554,-257.2430,-287.0082,-236.3178
-223.3660,-30.1688,-263.2300,-67.6926,-313.6169,4.3098,-230.2513,66.6847,-189.9008,81.8332,-215.3110,-39.8242,-206.9704,-18.0909,-130.5605,8.1311,-237.8847,-266.0650,-241.9554
-203.4713,-43.3284,-237.4880,-128.6479,-279.2421,-23.3574,-238.1509,19.0738,-183.4617,28.2924,-193.0578,-22.4431,-164.6182,-53.0365,-138.3485,-56.7163,-225.3762,-241.5476,-241.6805
-138.4441,-9.8028,-161.2069,-97.4219,-209.5443,-11.3160,-156.5525,26.2587,-147.4483,-11.4294,-128.4910,11.7805,-86.4643,-35.4344,-103.8762,-40.5302,-145.4809,-163.3056,-219.6524
-44.9186,41.6729,-49.1517,-4.9563,-117.8701,26.2940,-76.4579,58.6080,-106.0562,6.4508,-40.7070,44.1602,-21.3666,14.5203,-48.6728,23.6788,-24.0831,-85.3167,-179.4402
-28.4063,21.7641,-25.8109,-37.4695,-82.0870,1.6652,-99.2297,0.0327,-104.3762,41.8438,-27.7699,25.8482,-23.9881,4.6109,-41.3769,12.8503,-33.9040,-96.0256,-181.6704
-94.2491,-28.4909,-97.1586,-119.4955,-143.4245,-51.2850,-164.6910,-90.4639,-132.6320,36.3110,-90.2337,-32.6184,-75.7020,-46.8169,-79.5742,-31.3597,-142.5084,-141.5392,-238.8103
-104.0939,-46.1919,-96.3585,-92.5155,-203.1854,-74.6654,-179.1432,-137.3849,-129.0918,-19.8069,-99.2420,-58.8481,-103.1390,-49.9938,-91.5008,-28.3427,-122.2367,-150.5158,-269.1414
-19.1634,-51.0985,17.0099,-28.6399,-163.1906,-102.8332,-148.2562,-203.9424,-86.8353,-95.7974,-20.2140,-36.7498,-60.1938,-13.2561,-53.6354,-17.5152,11.6809,-141.1727,-262.5634
41.1337,-44.3326,92.0925,-20.5839,-106.7269,-139.5768,-139.6409,-290.5189,-80.1588,-162.4071,38.8739,-22.8792,-3.0683,-4.5458,-35.7322,-20.1553,55.4943,-111.1450,-291.5392
43.8105,-11.4923,96.8031,-10.1784,-123.9122,-131.4104,-176.6158,-307.7501,-127.9651,-197.8781,46.1234,-29.6248,-13.0706,-22.5960,-75.4493,-9.0159,47.9725,-47.6530,-323.2967
80.3766,25.5012,151.3497,57.5267,-101.5459,-77.2200,-180.4289,-257.2676,-142.7742,-175.2653,79.3157,-13.5003,-40.3749,-34.2409,-85.1364,-25.5350,144.4985,5.8445,-283.2518
141.9020,54.1757,230.2596,137.9731,33.2470,-29.3039,-97.1598,-193.8358,-83.1016,-93.0485,131.3719,14.1287,5.7432,-44.6605,-6.4917,-81.6582,235.9353,30.5369,-225.1917
133.0328,52.2262,197.7726,136.3318,113.6601,-37.6304,-20.7653,-139.8906,-14.9521,1.4246,121.1727,-2.2269,67.5979,-45.5855,66.3537,-70.4328,157.0717,34.9888,-205.8308
82.5137,-4.9235,105.1840,45.4795,52.6074,-98.2955,-22.3692,-120.9846,19.6690,55.5405,74.1587,-43.6915,60.6164,-7.4091,66.7937,32.1367,35.9302,-2.3338,-179.7657
85.8779,-49.5459,103.0656,11.5420,8.1721,-128.7131,-24.2375,-127.6442,43.3426,52.5246,75.2778,-43.8498,41.5067,37.4597,64.0825,85.4396,58.5570,-49.1773,-138.4584
117.3711,-23.7244,155.2891,90.5631,47.9116,-86.8667,7.2390,-105.9527,62.2104,16.9340,104.3958,-13.8107,62.3359,35.2347,84.9896,39.2810,146.3680,-32.6682,-108.9971
106.4737,-4.6394,142.1813,121.4919,59.9973,-46.5011,13.4898,-59.7223,71.8186,2.1844,97.4992,-10.3522,70.6487,18.4633,73.0043,19.0996,148.6584,19.0974,-45.4361
85.1572,-28.7449,99.8267,54.8143,43.3115,-43.1626,24.3214,-25.7315,88.9577,22.1725,80.0869,-21.0355,61.5187,34.3184,45.7157,69.6165,108.6767,53.9075,61.9687
109.0132,-13.0735,120.8686,44.2087,92.4896,-19.0876,85.7335,6.4680,115.2191,21.1485,104.2508,0.1086,95.0061,48.1289,60.1470,85.2477,132.5367,107.4646,130.9451
153.6189,39.0273,179.2597,102.9611,177.2408,30.0379,127.2526,42.3896,144.4593,-8.3264,148.9065,38.7252,156.3292,41.6176,96.3627,47.4755,196.5729,173.6151,159.2991
175.5568,47.7032,207.5178,114.5631,225.5630,63.0633,130.1661,69.3866,187.9402,12.4184,169.4042,55.6814,189.1624,62.3107,125.8771,53.3897,227.4334,183.3810,221.7632
173.7795,38.2900,201.8090,99.2413,256.1240,91.4016,173.2475,104.4883,226.6630,86.0258,164.0404,55.7669,194.7733,99.5276,156.3089,96.8836,218.9544,163.4303,291.9779
156.8723,59.0788,176.3392,99.0623,275.6854,119.2513,221.2469,149.2857,217.1942,123.0740,146.5979,61.2972,186.3058,93.5117,166.1560,91.5747,189.4781,170.3419,294.2881
123.7711,70.8741,131.9272,69.3498,239.9652,125.6158,180.1543,179.2179,172.9724,120.6457,116.5397,68.6602,151.5324,68.0275,135.8203,63.0232,148.9763,159.3461,256.1611
82.7970,54.2080,86.7803,54.8529,158.9418,132.1304,106.9604,197.3179,143.6703,135.9306,77.3728,60.6830,102.6889,74.9174,98.5194,78.1968,126.0326,104.4283,240.3978
44.6169,39.3552,52.8373,111.3880,84.7666,141.4320,89.0719,196.6597,129.7456,133.9625,40.2890,36.3470,70.6679,86.8107,76.5255,100.7740,117.6040,58.9947,225.2498
7.5429,27.6487,9.6767,123.2516,23.9741,109.0425,75.5450,157.3096,96.3831,74.0520,6.9253,19.5911,52.3154,74.9041,51.0449,89.8188,70.5656,27.1509,158.8266
-17.2546,13.2726,-31.4559,28.1822,-28.9148,52.3480,15.7872,117.8632,41.8645,21.5146,-14.1533,31.5707,30.9977,57.9156,15.8171,67.5318,9.2817,-15.5190,64.7192
1.8993,4.9476,-11.4840,-33.7579,-31.6724,21.6117,-25.6631,106.0805,6.2728,20.5106,4.1099,56.0331,28.2934,30.5506,-6.5815,24.4702,32.2908,-27.8649,16.0514
53.0639,-2.0709,55.5972,-3.8639,28.0618,-2.0239,-2.1200,76.4074,11.1840,17.5150,51.6237,62.9259,61.1595,-9.0231,0.5730,-40.0487,104.2127,5.3861,18.4221
64.7726,-4.2053,62.9968,2.0081,59.0052,-36.0756,21.8034,30.1880,11.8123,-17.5028,63.1612,52.2112,72.5989,-18.0048,11.5467,-50.8955,82.6147,22.8907,5.1488
18.8049,3.6468,-3.1154,-39.2692,0.1360,-45.9837,-15.3724,23.0564,-30.3447,-42.3431,21.2164,35.5886,16.3777,-8.5097,-17.1418,-12.8276,-4.2133,11.0589,-32.0554
-9.2539,-0.5660,-23.5832,-21.7362,-55.9723,-26.7993,-62.0544,36.7368,-60.8417,-28.6985,-4.9837,12.5439,-34.7462,-45.4733,-62.3728,-39.7416,5.5727,21.5003,-32.1244
12.8215,-14.6368,28.8659,51.9261,-36.2745,-10.4424,-52.1932,29.9296,-35.2269,-5.1068,14.5835,-6.3555,-18.4477,-98.1477,-63.8284,-112.8833,95.3347,52.4026,-3.4252
24.6880,-9.7786,42.2634,54.3870,-27.1926,-17.9408,-39.9480,17.1846,-24.2158,-10.1639,25.1657,-6.6771,-11.6461,-84.3007,-45.4707,-94.5945,99.9999,52.2580,-19.7233
3.0599,-1.3707,-8.7583,-41.0618,-70.2464,-54.5819,-90.1874,-7.0290,-76.8335,-30.3013,5.4335,-2.4907,-61.1622,-39.3451,-63.6493,-13.4864,2.9143,19.1836,-79.8518
-10.2647,-13.2741,-34.4624,-115.9863,-67.0611,-85.1936,-126.4180,-50.5532,-119.8519,-21.3434,-7.3397,-6.5590,-80.6816,-47.4825,-87.0950,-16.8844,-64.4337,-2.8739,-107.1899
-2.6836,-22.0775,-12.9287,-106.1740,-1.9944,-62.1424,-64.2416,-54.1595,-95.2244,4.3561,-1.6829,-1.2152,-40.9295,-80.6934,-71.3046,-86.9802,-40.8833,8.5677,-59.3639
19.1826,-4.6095,21.5905,-62.1186,49.8305,-5.3142,39.0012,3.2138,-29.6719,4.4363,18.4760,19.8170,-2.5764,-69.8824,-30.3667,-97.7578,31.5719,55.3178,31.9356
58.8368,41.3884,69.9645,-8.9813,105.1858,47.4334,105.6359,57.6401,39.0381,1.9600,57.3150,36.3192,43.3746,-34.0738,26.6261,-51.0941,91.6694,128.4024,86.3864
74.0984,98.9535,93.2717,43.9759,157.1698,93.9499,125.0993,78.7585,61.3004,22.8576,73.3203,42.5364,96.5575,-16.5359,73.3177,-20.6558,83.9327,165.8162,49.2002
25.2524,108.3519,32.3413,19.8740,95.5948,98.0960,83.2160,77.4080,6.7251,19.2682,27.1016,46.1475,63.7013,4.2931,50.2602,8.0958,7.4425,99.2210,-26.8042
-27.2611,49.1062,-46.1785,-78.3422,-31.4089,41.9974,8.5109,54.6222,-36.2917,-14.4252,-24.7920,41.1615,-34.8881,49.8624,-1.3955,64.0708,-53.1145,-12.7550,-35.4587
-26.1688,-2.1620,-48.1037,-106.0444,-37.7198,17.9711,13.5599,45.6698,28.8910,3.1291,-27.1522,21.2563,-51.2372,77.2783,23.2522,89.5969,-41.6713,-45.8847,45.1687
-24.7695,-10.8387,-29.0024,-32.5839,48.2870,66.2108,120.7327,80.4587,134.9270,80.3280,-28.6285,-7.2337,16.5929,53.3949,93.5050,47.2797,-17.2994,-13.4778,135.5989
-63.9754,-28.1569,-65.5575,0.8555,55.2926,82.8282,202.3596,102.8116,171.2608,121.3494,-66.7353,-34.3871,47.2665,18.1889,112.5683,4.3712,-46.6060,-17.7687,148.4700
-97.1229,-55.3779,-112.6331,-56.9010,-12.7116,26.5205,184.3511,63.7907,148.6056,82.3566,-97.1385,-49.8121,22.7412,13.5076,93.0650,12.9143,-103.9600,-57.8058,75.4067
-102.2275,-63.4666,-126.8149,-119.3286,-60.1978,-26.0101,128.8235,7.8561,123.1890,20.3850,-100.8708,-53.0188,-11.9513,24.6646,80.5929,33.9349,-138.0419,-82.8590,3.1731
-104.1372,-71.4002,-131.9453,-127.1606,-79.7737,-40.1655,98.3874,-7.1084,112.1353,0.4725,-103.7417,-52.8374,-42.7062,36.9876,73.6049,41.8373,-141.0407,-107.8348,-0.1648
-101.0254,-66.0072,-129.4588,-86.3468,-83.3143,-25.7011,82.6989,19.6901,106.6028,13.4127,-101.9577,-39.8692,-43.3360,59.1709,76.1044,56.7341,-126.2457,-136.7008,7.6985
-93.4457,-24.9454,-118.0623,-51.8024,-83.9744,1.0805,49.0877,38.3870,74.3007,-14.9462,-92.0201,-7.0363,-19.4348,70.3380,70.1598,57.9249,-115.7628,-139.1493,-43.7114
-103.6408,-13.0888,-131.1727,-76.9448,-117.5180,-19.5558,2.7843,3.5496,18.4153,-99.9944,-96.6955,7.5061,-24.5578,43.9061,25.3298,22.2752,-134.9706,-127.2655,-103.5833
-115.4500,-50.1377,-155.8134,-104.7770,-145.6604,-87.2699,-13.5513,-44.7253,8.8202,-148.0810,-105.3129,-23.0649,-39.4192,6.3923,-4.6527,-3.8950,-169.7608,-108.8512,-110.0240
-106.0137,-51.7089,-150.0049,-68.7918,-111.4430,-104.4684,4.1575,-42.7866,43.5684,-120.0715,-96.2226,-54.9067,-20.2892,-15.7131,21.0486,-6.9418,-182.6076,-66.6575,-100.3071
-104.4150,-24.6833,-138.9744,-46.4699,-80.0512,-70.4009,-1.8312,-32.1305,27.5083,-97.4118,-94.9907,-52.0299,-20.0314,-42.3222,20.8476,-44.5387,-177.8482,-44.6395,-109.6609
-126.2009,-48.6247,-154.1619,-83.2746,-117.0678,-72.7311,-53.3653,-63.2119,-34.4310,-108.5726,-116.2461,-47.0874,-65.0008,-75.2492,-40.8946,-102.9650,-176.3917,-80.6122,-110.2241
-145.4599,-95.3249,-170.8654,-90.1993,-170.5486,-96.1955,-100.0274,-87.6440,-45.7118,-102.6798,-134.9548,-67.9193,-89.6484,-85.5178,-80.0473,-111.8601,-172.6786,-118.2416,-89.3094
-166.9624,-121.5028,-192.3457,-78.7306,-203.7322,-103.3913,-103.7819,-91.8896,-9.4947,-97.3404,-155.5606,-97.0136,-95.1494,-78.8573,-73.4015,-93.1002,-184.9545,-133.1397,-66.7635
-204.1109,-153.7671,-244.0390,-144.7534,-235.5407,-139.2582,-84.0863,-122.7721,0.7420,-129.5869,-191.5277,-116.9759,-129.9625,-82.3270,-74.1745,-98.5126,-246.7248,-160.9110,-65.0721
-219.3831,-163.1259,-280.3521,-223.2263,-250.0472,-188.1603,-94.7124,-145.8921,-37.7188,-149.2034,-205.2699,-119.1991,-158.8099,-101.1422,-94.2001,-108.7789,-310.2372,-165.5847,-110.5876
-191.9698,-119.3533,-253.1416,-217.8333,-240.5782,-180.1387,-164.3724,-120.3967,-116.6411,-121.6622,-176.4920,-96.8791,-160.7296,-132.8116,-136.7686,-121.8719,-292.1727,-119.4914,-174.8256
-158.2828,-96.6201,-200.5862,-183.3547,-230.8456,-135.7057,-222.0359,-94.0304,-189.4192,-85.3366,-144.8235,-64.4756,-178.7169,-153.5522,-194.9111,-154.4999,-206.2804,-98.8595,-154.4921
-132.0912,-108.3487,-159.9848,-149.7689,-194.6507,-87.8530,-175.1477,-68.9316,-178.0984,-56.2400,-123.8726,-38.5179,-181.4813,-122.7268,-199.3369,-151.8506,-125.0269,-109.9549,-31.2513
-90.2292,-74.1624,-108.7503,-72.4522,-111.7910,-23.2654,-77.9430,-12.7578,-109.9560,-27.6637,-84.5329,-17.4000,-114.5974,-72.1681,-142.6741,-98.9902,-64.9837,-57.0784,68.7858
-30.4530,-18.3843,-31.0999,11.6238,-28.6061,22.8381,-35.1612,15.3487,-81.3865,-8.1080,-24.2770,-5.8998,-31.8077,-73.6524,-113.1524,-80.2118,3.8065,50.9060,89.1836
37.0061,-4.8038,58.7194,55.4967,43.4782,33.7874,1.9163,1.4192,-64.8965,22.4576,39.7650,-1.4111,20.2547,-84.5553,-101.8535,-82.3321,94.4584,124.7763,122.5679
98.9823,11.8420,131.8581,79.9524,123.5825,68.7291,107.2599,34.3634,9.3365,80.4905,94.2880,21.5614,72.5179,-14.5106,-27.8323,-2.6050,171.9465,146.6356,192.6396
122.5231,48.7993,151.9274,79.2985,172.1355,117.9958,203.2431,100.4327,88.6013,129.9705,112.9921,53.5623,117.2095,82.6297,67.9953,107.2194,184.2350,129.0291,212.7162
109.3248,57.7108,137.7126,85.4382,188.5220,141.4512,231.4108,139.9287,137.2659,165.7580,98.6900,57.2260,142.5073,98.5960,119.1881,113.8696,166.8380,101.1687,202.2647
112.6116,71.9772,156.6329,187.1848,249.3496,197.1233,272.4797,217.6113,221.7233,220.0907,101.5521,49.6751,205.8029,60.3454,174.9812,47.4721,212.2408,135.3093,253.7458
136.4426,118.7281,192.9632,299.6960,331.2301,271.4371,352.0933,325.2658,324.4008,256.3925,125.6956,60.9868,293.6724,49.3759,254.2499,21.2217,274.4001,209.5183,311.6594
134.9845,124.2477,173.4802,253.2969,333.2444,240.3338,383.3599,323.0769,345.6839,225.4384,125.8088,64.5777,308.0104,70.4705,282.6460,57.6179,229.9837,216.5570,281.1508
123.4633,91.2515,131.2622,142.4669,285.2924,148.5491,353.8305,251.2053,303.3316,166.9857,115.8904,57.5284,267.1924,98.9454,255.2299,114.0546,145.8722,180.9269,232.6865
138.8184,106.8167,139.3799,163.8340,278.1379,141.7773,333.2318,266.4760,280.4258,119.7152,132.7658,81.0723,266.5428,110.5084,240.3038,122.0112,164.2278,192.1400,230.1699
142.6016,146.2696,152.7416,253.2334,280.7857,170.2343,317.5367,312.4175,268.2773,67.5321,138.5552,108.0186,279.8710,72.6848,243.0918,42.8996,211.6258,206.4478,185.7718
103.1992,143.9165,113.4144,253.5590,236.2265,142.2325,256.2196,276.8255,234.0430,32.9061,101.1586,84.0147,236.0448,18.2283,228.2362,-29.2669,162.8052,173.9033,84.8297
62.1880,130.5233,65.2655,185.8900,180.8585,124.6889,180.9283,230.4149,197.2224,52.7121,61.1303,46.7291,165.3932,15.9485,199.5605,-1.7879,83.7136,142.9936,42.2989
31.2896,115.8408,30.1318,129.3966,138.7694,132.6996,156.4879,216.2402,160.0470,83.2654,29.5799,35.8096,107.7113,30.7986,166.9405,28.3915,44.7664,106.4851,50.2210
-23.9499,54.9023,-33.4894,82.1749,66.6873,74.2630,148.1924,155.3201,99.3760,71.9676,-26.2395,8.1840,39.2231,-8.3645,114.3551,-28.0795,-13.9210,21.5889,4.2884
-78.3646,-19.5011,-103.8184,12.2426,-36.2904,-29.0760,69.9772,55.8794,25.0943,39.8807,-78.2674,-40.9188,-34.9450,-53.5873,39.0717,-61.9919,-100.6959,-52.2096,-73.2717
-80.4410,-46.6212,-119.3886,-80.9723,-106.8730,-93.5690,-59.2671,-12.3346,-41.0847,6.5310,-76.4055,-49.7562,-72.0805,-43.1135,-30.6306,-12.6122,-143.3008,-67.6780,-116.6109
-53.3583,-45.7014,-94.0951,-133.2653,-126.3357,-125.3838,-142.1153,-56.6122,-95.4890,-52.6206,-47.8503,-19.4115,-81.9373,-29.4164,-73.2683,-1.9611,-126.3361,-74.7816,-146.6954
-46.9358,-39.5623,-77.9893,-88.5400,-143.8435,-129.1702,-163.5026,-75.7029,-134.0831,-127.6183,-41.7690,0.7989,-108.1494,-48.5850,-97.7384,-62.1409,-81.2240,-91.4236,-170.8713
-58.2442,-12.2945,-82.3947,-30.0109,-178.2516,-90.6471,-186.0787,-48.2699,-165.8428,-159.6431,-52.7650,13.9510,-149.0050,-43.1118,-116.1331,-70.6315,-52.8055,-101.2654,-180.1059
-58.1453,17.8485,-90.7946,-63.2769,-190.3434,-73.3780,-230.6699,-40.2455,-221.3729,-136.5770,-53.2244,38.3464,-172.0111,1.4653,-130.8080,-7.0235,-84.7726,-130.7178,-222.1431
-34.2527,17.8009,-76.3351,-121.7805,-174.2642,-117.3977,-280.0893,-100.7589,-293.4346,-121.8854,-31.3113,55.2458,-172.7955,23.9891,-155.5172,29.0560,-122.8869,-165.3703,-286.6319
0.7226,0.0600,-32.9534,-105.7652,-171.8423,-161.2001,-321.8639,-160.7349,-323.0255,-158.2629,3.5320,47.8412,-170.3026,-0.5681,-191.3777,6.1460,-80.7397,-138.8718,-291.1691
24.1127,-11.0482,4.7148,-58.8654,-173.0728,-175.6824,-324.8189,-178.9370,-289.6761,-208.9310,28.8171,22.4348,-164.9882,-45.2366,-202.4326,-36.2500,-13.8401,-60.5975,-248.7047
42.0526,-10.9084,29.1695,-35.3212,-125.4672,-177.8575,-268.9983,-189.4341,-243.0236,-222.7848,46.7698,3.2048,-139.5259,-74.0026,-178.0269,-66.0587,7.7555,6.0807,-205.2433
73.7257,2.7059,72.9734,-4.0550,-46.2319,-130.5356,-186.6453,-169.8535,-210.3343,-188.8411,75.3732,20.5182,-94.2429,-57.2752,-151.4457,-61.9071,54.3288,42.2769,-117.9636
92.2248,24.0535,113.4978,41.1788,-0.8689,-28.6941,-114.0342,-87.6401,-171.3645,-117.2811,90.5488,57.0880,-53.8517,-22.8195,-129.7330,-46.1477,141.0907,51.6341,-11.8525
66.9637,28.2884,98.5295,60.5129,-1.9215,26.9013,-77.7342,-20.8766,-142.8768,-40.3403,64.5519,55.5490,-40.1288,-39.5335,-112.5674,-70.9608,154.6723,39.8412,2.6489
36.5362,-2.5714,58.2467,38.5739,-17.4900,-12.8328,-95.7711,-37.9484,-147.4766,-1.9250,35.5087,16.3353,-47.8459,-85.6877,-123.8444,-103.5951,93.8824,29.9005,-27.9966
47.8208,-43.8393,58.3543,-4.4038,-9.8185,-58.5581,-100.0425,-67.2462,-112.0423,11.4601,46.1670,-6.4084,-40.3938,-68.8743,-118.5905,-63.5909,75.7904,34.7496,26.9696
86.3419,-42.0133,103.2850,-15.0341,55.2030,-28.4321,-5.4881,-28.1196,17.3792,50.1348,80.1310,-0.6803,14.2229,-6.2344,-23.7004,7.4593,125.6411,62.3948,119.1330
118.6072,10.3195,156.9329,36.6428,148.1679,46.3723,103.5364,40.8720,126.2591,100.1068,108.8883,11.0082,86.4860,0.9146,81.7816,2.6064,185.8653,122.2539,138.8571
122.2478,54.4526,172.8193,82.1531,181.0420,95.0070,94.4522,74.9627,106.3741,116.0453,114.6651,21.3917,109.4155,-42.8522,75.4197,-51.8303,203.6517,171.8292,117.5164
85.5618,55.9204,124.1436,64.3588,137.8760,98.4646,26.5217,75.0051,45.1820,110.0866,82.5186,16.7476,75.9948,-53.8096,20.1553,-51.5091,145.1257,159.3464,107.0887
39.5474,37.3247,61.8501,41.3727,87.9421,79.0492,12.4265,59.2695,50.5046,107.1401,38.3878,-13.4241,43.7439,-29.5498,22.2492,-4.6220,63.1854,116.4939,91.5391
23.0279,7.9727,43.1052,34.1614,61.5376,52.0668,27.6703,37.5089,84.8180,103.5721,21.4991,-39.2195,39.5318,-22.2029,39.4605,10.2102,44.1645,90.5336,86.6462
16.2561,-29.8397,32.6200,-23.0544,52.4903,30.9156,50.4293,36.9145,105.8877,108.0106,14.8944,-39.0194,45.1922,-34.0709,32.2722,-10.1386,48.4096,80.7114,123.9813
7.5492,-36.6288,14.3323,-76.0083,90.0617,37.3194,125.1950,61.9678,147.5559,119.4377,6.8862,-36.9014,65.3562,-44.6171,55.9587,-26.1796,24.6761,110.2722,178.1341
41.2761,-3.7656,55.9276,1.1170,178.9265,59.9110,213.2229,69.0557,205.6247,109.1988,39.5263,-45.1364,118.3952,-51.1425,112.3630,-34.8448,50.3471,189.9818,218.2418
101.1044,18.0777,133.0777,126.0466,245.0596,59.0262,229.0699,42.4155,224.1188,84.0803,96.6201,-43.7534,170.8395,-44.3388,140.0360,-36.2939,121.3417,231.2552,228.0604
96.8758,16.3624,122.1122,117.0823,219.2167,35.0558,170.7897,13.5665,176.1034,56.5606,92.7234,-27.6257,158.4718,-23.9252,119.2234,-24.2024,95.6177,175.3857,174.7963
37.0149,24.0120,41.9631,21.3108,119.7906,15.2884,77.4774,-13.2561,80.4158,-12.3526,37.8669,-9.3500,80.1482,-13.1993,61.5085,-16.5462,0.3325,100.3277,70.2597
33.0603,40.6166,38.2217,18.1955,40.1692,-4.4285,-1.3293,-49.5544,-1.9076,-106.0204,36.3308,8.0531,19.0227,-5.4209,5.5396,-8.4461,12.2322,80.2635,-9.5278
101.9019,56.2082,120.2759,109.1493,52.7512,-25.0283,-11.8182,-68.1902,-21.0115,-127.8207,100.9054,25.2738,37.1721,24.8198,7.1818,31.2021,109.4365,94.1792,-36.9245
138.3218,80.5897,158.6195,158.2785,107.3222,-19.1114,5.7385,-56.4085,-16.0309,-84.6269,134.5953,34.7012,82.5893,44.8742,37.2302,63.0895,124.9390,107.2220,-54.1341
94.9558,91.1563,110.5193,121.8767,103.0987,3.5415,-14.6828,-50.6658,-24.2015,-86.3499,95.1313,25.6227,68.5663,13.3188,29.2356,21.7338,59.5117,109.9641,-64.4654
44.2897,57.8873,59.8862,59.9883,57.8282,-2.5838,-4.1103,-65.9963,11.7062,-139.0167,46.8247,-0.2605,14.3139,-27.0535,25.3115,-44.7065,33.8708,103.4276,-33.0477
43.8293,11.1976,58.5914,12.3127,50.7764,-37.7682,81.3221,-77.1892,92.4505,-154.5509,42.7784,-19.4831,-0.1340,-23.1690,68.5348,-49.5415,57.7215,95.5279,13.5417
53.9330,-9.4652,58.6639,-29.0540,55.2530,-63.2796,110.9013,-66.9974,106.9571,-112.4311,50.7896,-14.7664,18.3436,-0.1725,82.1573,-10.3511,51.4351,75.5313,16.1617
30.0440,-11.0238,17.6418,-67.8920,13.6690,-64.6089,31.0743,-35.4049,41.9246,-56.2963,29.1860,-2.2595,4.0361,11.2155,35.5877,23.5493,-1.2528,30.7428,-17.1225
-4.6410,-5.4239,-28.3031,-83.5152,-40.6921,-53.0118,-37.5750,-5.2459,-8.0428,-23.9696,-4.0738,-0.4498,-40.3210,20.2410,3.0857,46.1150,-45.7988,-14.5627,-52.3805
-31.2287,4.0463,-50.6612,-66.3156,-79.9936,-38.0023,-68.2635,-7.2452,-38.1197,-28.3920,-30.1471,-3.9849,-71.4143,17.0729,-10.2246,37.4918,-61.9064,-49.5539,-100.5498
-68.9111,3.8057,-80.6641,-50.5629,-125.5232,-20.6827,-121.9260,-15.0787,-78.0730,-31.2858,-65.6914,-8.8852,-94.7775,-6.4149,-41.5466,-2.1993,-82.9425,-92.6518,-146.9543
-101.3680,-10.6100,-116.8557,-80.8522,-150.4937,-8.5038,-139.0068,8.6503,-71.9977,3.0511,-98.2517,-17.5459,-123.9802,-14.5136,-44.3835,-15.6750,-109.4137,-125.2420,-136.5836
-93.4312,-35.6973,-113.9461,-144.9918,-128.8093,-25.7136,-76.9719,14.1121,-12.6648,25.7984,-94.1961,-22.1339,-129.5993,-1.6286,-2.3673,-4.5563,-103.8519,-128.7767,-95.1612
-67.0816,-62.8781,-80.5611,-170.8777,-108.8566,-60.2560,-35.2881,-24.8633,23.0266,4.3272,-69.2505,-21.2247,-92.4276,-3.5348,14.8836,-14.9363,-69.5671,-121.7684,-85.4438
-49.4126,-50.7271,-51.2490,-108.3393,-96.4333,-38.0863,-35.0465,-14.2096,43.5367,2.7035,-48.3378,-24.2754,-33.0591,-4.7998,11.9224,-1.0877,-33.3672,-73.2552,-61.8187
-23.4465,13.7236,-17.8860,0.0428,-36.8863,47.0115,13.9614,65.9569,100.9634,32.6063,-19.7945,-27.0563,25.0249,21.5855,50.5405,62.6077,2.6487,38.9744,18.8133
8.1600,49.5550,17.2610,63.2219,40.4958,81.6302,91.9751,91.9366,148.0607,23.7507,10.9796,-20.2788,69.0807,35.4923,96.4170,75.6226,29.9606,107.4163,76.9406
31.4015,16.7603,41.1218,60.9463,81.6425,38.7755,128.7664,52.8122,146.0942,6.8122,31.5530,-5.5203,104.0332,21.3493,98.3903,25.3465,49.3243,80.5205,87.4314
68.5772,11.4752,82.9551,63.0939,134.8166,44.9420,160.9602,70.8058,146.7849,60.1893,66.0053,19.2704,155.7982,26.1715,100.3848,24.6068,92.7936,88.2829,123.6333
108.4939,85.5032,136.1065,111.1712,213.8981,130.1426,196.5905,132.7729,146.3072,111.0111,105.5346,54.2692,210.9815,43.7088,123.5213,53.4744,136.8699,162.5450,143.9544
105.5323,149.6568,139.9314,159.9367,219.1722,171.4480,149.8739,130.9607,76.4765,65.0860,104.7629,84.6464,202.6960,41.6391,107.5796,31.7385,125.3711,161.1409,63.5467
84.5258,146.7005,109.3810,158.5868,126.3269,130.2052,30.6256,84.0373,-29.4843,-8.0933,84.4632,99.3930,121.0305,59.9051,45.4142,39.6792,97.7382,72.3619,-35.4750
76.9002,109.9444,90.1837,108.1249,18.4042,66.5193,-56.4464,36.9687,-81.7854,-50.2801,75.4987,92.6259,34.2346,101.5867,-1.3205,105.8234,93.4064,1.7679,-81.9429
37.1150,58.2586,45.4672,46.8483,-79.5222,-14.5684,-107.6878,-53.8083,-109.4702,-134.1893,37.1920,60.6783,-34.8583,78.9009,-34.2594,76.2508,50.8807,-62.1351,-163.4464
-16.8863,21.0926,-10.0949,37.3964,-161.2839,-88.8474,-181.5101,-151.2483,-193.4643,-247.6613,-12.9059,36.5461,-102.7967,-4.1847,-101.1577,-51.8580,-3.6259,-122.9074,-276.2582
13.0530,51.3270,27.4273,97.5243,-152.5200,-70.1463,-235.0860,-137.1637,-287.5144,-251.6570,17.2262,62.1575,-122.1855,-37.3731,-168.4268,-91.3436,53.0398,-84.2247,-280.4185
91.5667,101.8380,117.1381,130.4634,-58.7870,4.5200,-201.8408,-49.0366,-291.9230,-139.1151,91.8219,105.7118,-66.8845,-8.4329,-166.6144,-31.6729,153.9783,7.5136,-188.7241
95.1068,83.4781,112.4041,63.5307,-5.6881,8.2162,-138.3603,-21.5982,-241.9905,-49.5809,92.4552,106.7167,-28.5250,6.0028,-126.1289,-8.9639,127.9202,0.8640,-142.3026
49.7453,38.3018,46.7688,0.5042,-20.4025,-35.9976,-127.4435,-41.5176,-228.1196,-26.1038,46.4270,79.2603,-55.1454,-3.9063,-114.7573,-24.7164,37.7513,-60.4567,-147.6515
48.2683,37.0862,43.8329,44.0919,-9.3098,-27.4460,-129.6935,-17.9804,-200.8929,-1.7856,44.2994,61.4827,-57.4612,-6.7361,-99.8292,-21.6547,38.9977,-48.4399,-113.5261
52.6164,35.1218,57.4718,100.4427,26.3473,11.8727,-79.4000,37.6250,-83.2371,39.8773,48.2924,38.2643,-7.3321,1.8904,-32.9602,-7.5314,71.3833,-10.1346,-30.2779
-3.5792,3.9501,-6.5342,63.7652,-0.7553,35.6149,-27.6125,78.1918,26.9019,69.5419,-5.9995,2.5600,-3.6846,25.3404,20.7673,25.8767,17.6381,-31.5528,41.4850
-79.7341,-12.8975,-96.1269,-0.9872,-75.0176,64.0596,-42.4645,95.4555,22.5003,85.6803,-78.8061,-18.4816,-64.0993,48.2451,-0.7877,65.1017,-69.1616,-80.1517,68.7994
-117.4075,-42.5894,-131.0728,-18.6405,-111.3421,68.4037,-74.0315,71.8868,2.8587,101.6588,-115.5954,-39.0968,-96.3289,35.1503,-34.1440,46.4648,-100.2007,-119.1753,88.2369
-122.8719,-126.2640,-130.5130,-24.3268,-111.1805,11.6486,-49.3206,22.4045,78.0316,132.8289,-124.1410,-90.6384,-82.8273,10.1801,-13.6286,13.6068,-91.7025,-149.8934,146.5938
-127.5822,-185.6022,-140.7755,-51.9714,-124.6915,-32.5305,12.1808,15.1758,165.4703,176.7369,-131.1987,-137.8242,-73.7098,19.7025,23.7326,53.7099,-94.8312,-151.6441,199.0253
-150.0745,-175.4259,-172.4433,-99.7927,-144.3381,-24.2572,58.2760,35.6408,171.6687,182.7039,-150.9647,-139.8409,-68.3318,26.9114,29.0770,85.9954,-133.3075,-134.2102,179.5934
-183.2546,-186.4300,-215.5456,-172.7518,-144.9594,-46.1044,73.1515,5.6175,150.9857,134.5738,-179.9538,-132.6048,-60.8664,-11.0152,12.3405,21.5339,-196.9774,-144.1369,150.6830
-192.9718,-237.3144,-236.8741,-222.0953,-128.7695,-95.7037,81.7285,-27.2264,180.9635,111.8359,-190.0504,-146.7552,-66.8326,-34.3192,15.4765,-27.3917,-225.9199,-162.0482,203.9446
-154.3402,-218.4470,-195.0950,-167.2501,-79.4921,-56.9776,137.9539,34.0884,254.9731,151.3470,-155.5053,-138.1304,-39.7180,17.7846,73.7284,37.5182,-166.9105,-129.0438,287.4826
-95.1378,-120.5226,-114.1268,-52.1742,3.4543,49.3930,226.6879,117.4163,301.6353,176.2406,-98.2374,-86.2328,54.9684,87.9280,149.9261,116.9258,-79.5886,-66.1433,289.3740
-76.4827,-63.0670,-85.0546,-16.3370,35.2654,70.7326,220.1154,95.2347,239.9699,145.5079,-76.7522,-50.0577,114.5287,83.6761,141.8178,103.8820,-83.4052,-52.5967,183.9176
-102.3322,-83.7764,-124.7565,-80.7045,-33.8538,-16.0328,82.2501,7.3289,88.1780,104.9131,-99.0777,-56.1393,51.6986,15.2657,38.8720,33.6728,-157.2884,-100.9569,36.8891
-94.9490,-101.7243,-125.3161,-116.5222,-91.5978,-77.8524,-27.8017,-25.0974,-21.5070,87.0207,-92.8611,-51.3052,-31.8996,-28.3209,-41.5942,-11.0200,-146.2884,-126.1652,-33.5621
-26.1343,-65.9484,-41.0737,-49.8276,-24.1434,-31.7349,-6.4198,28.4440,-13.7326,108.6836,-28.0105,-13.2750,-5.0815,-17.2522,-32.7030,-9.2695,-29.9870,-62.4853,37.0882
26.8998,-8.5376,29.8319,28.9079,102.6105,66.5258,67.2648,112.1442,61.4801,169.6245,24.3651,18.5150,101.7741,1.3097,26.4195,3.6354,42.2401,31.8716,145.3780
30.0855,28.0138,39.2150,17.3477,162.7766,116.1107,123.6466,144.1251,137.6173,188.3585,29.2293,33.6415,183.1068,24.2597,98.5731,22.7723,25.7704,56.9713,144.6994
25.9532,39.4666,35.1537,-39.7662,136.5169,92.6708,155.5812,91.5028,166.6943,114.8027,25.0579,45.7045,193.7924,79.0159,149.3777,77.1517,-3.0067,12.9235,50.3271
-1.1172,34.6032,1.7972,-49.1783,75.8410,61.3468,125.8857,35.9467,128.1875,54.5811,-0.2663,33.1298,154.6559,98.1316,130.3690,105.3978,-51.6905,-30.4981,-18.4477
-69.4432,14.0803,-74.9687,-26.0856,33.8422,70.5767,54.4738,62.1182,92.8039,89.8097,-62.9979,-5.4257,121.7323,22.1119,75.3553,24.8358,-122.6695,-39.0776,-9.1219
-95.4424,-8.5596,-98.2279,-29.6805,35.5419,89.8711,47.1399,113.9734,132.8209,135.5885,-87.1469,-22.1061,128.4957,-36.5524,73.1179,-51.0292,-117.3261,-22.7954,43.8259
-55.8793,-18.4756,-52.4315,-50.9223,46.3213,80.1681,110.2851,99.8969,190.4760,116.1403,-51.7982,-13.6179,137.6935,19.9088,113.9283,16.0999,-57.5348,-13.6914,85.4719
-53.8325,-32.4841,-55.4638,-55.1100,25.5808,53.4706,141.5854,44.4155,189.0522,72.7110,-51.5508,-24.0087,113.6634,74.8709,118.9647,87.6070,-74.2464,-39.5623,92.8783
-101.8481,-57.2388,-109.0867,-40.2993,-3.1918,33.9719,107.1804,13.8048,147.1185,45.3521,-96.6632,-47.0287,79.9852,22.8647,77.7114,9.9300,-131.4318,-72.4331,79.6298
-108.6478,-59.3820,-116.3363,-36.0866,-14.8419,18.5852,51.6456,6.7536,91.0589,29.1299,-102.1019,-47.2583,47.3146,-35.9464,31.0874,-67.5846,-130.2756,-64.3901,54.9126
-69.0367,-33.9107,-84.4654,-72.7514,-20.0197,-1.1839,18.7951,-5.1816,29.6619,13.8305,-63.9448,-29.1241,5.8751,-15.4763,-0.8922,-14.1069,-108.1872,-25.2326,31.1694
-28.1056,-12.1346,-45.9723,-96.8189,-7.8363,-9.1200,30.5697,-16.6867,-5.0611,-13.3006,-24.5755,-6.6833,-11.6120,9.0694,-17.3091,29.6071,-72.0492,17.1125,35.8733
6.9168,6.8328,6.1557,-21.1797,14.5718,10.0227,44.4811,-6.9645,-28.5009,-32.8712,9.0301,12.5645,0.6627,-13.1780,-33.9719,-12.3239,11.4934,52.1174,44.7492
11.3890,23.4372,17.0423,70.9942,-1.4886,25.7609,10.6190,14.5007,-77.8125,-5.9055,12.4339,9.4811,-16.5733,-25.2471,-61.9815,-18.4756,39.8467,47.7180,18.1196
-8.8076,5.5417,-19.4070,32.1243,-22.1076,2.2245,-3.9552,9.8236,-94.6205,32.0155,-9.1999,-5.1919,-51.5603,-7.9760,-66.9455,18.4092,-16.1623,8.2150,8.1604
17.4140,-27.1904,8.8059,-51.6617,23.7035,-35.3666,49.9693,-28.0729,-44.2896,18.3582,13.6029,2.2424,-32.1557,-14.9086,-33.4545,-13.1008,4.8563,10.4428,39.3076
74.2205,-18.0029,91.1509,-30.5268,64.9984,-48.8274,58.1017,-63.0292,-32.5007,-22.4374,68.4076,17.3347,3.3323,-54.7469,-23.8109,-79.0664,102.6236,60.6051,12.5928
81.6891,18.6424,109.0125,23.7371,25.7986,-38.2750,-19.3873,-70.6838,-94.9945,-43.8580,77.9227,17.6297,-18.8472,-68.4703,-60.8816,-75.6047,125.5811,79.5554,-67.3406
68.7706,44.6525,96.4432,42.6568,2.2447,7.5486,-29.1648,-39.8303,-106.7558,-44.4145,65.4669,28.6086,-44.5962,-29.9571,-65.0476,-28.3654,124.6257,70.1916,-52.0376
76.2415,66.4414,114.2198,87.9478,40.7518,83.1530,56.0173,31.3371,-36.7073,-18.0885,69.7328,50.2454,-24.1482,14.8300,-10.0596,-2.1662,176.3115,74.6552,36.8341
56.1583,70.8123,89.3152,89.2174,29.2666,101.6879,72.6111,73.1317,-5.3967,8.4714,49.5763,49.4844,-21.2742,30.8919,18.5689,16.1948,158.0636,52.0879,32.5595
32.1726,50.5809,43.5136,-21.9480,-24.4105,33.2489,-1.5543,11.5742,-54.5163,-38.6413,29.2054,50.5859,-44.9916,40.0544,-12.1430,39.0807,70.0157,2.9459,-53.9192
76.4240,64.8808,90.5239,-45.2481,5.1697,-9.1216,-47.8373,-79.5051,-115.2607,-131.5185,74.2883,84.1191,-23.2077,50.2321,-38.1088,31.3185,78.2682,6.9407,-107.1628
124.9345,112.8547,158.5783,97.8009,68.7574,15.9337,-68.4251,-87.7484,-149.3471,-157.6279,121.4116,104.8594,17.7663,34.2865,-36.4711,-11.7022,142.8837,39.0327,-133.9496
101.0720,104.9483,127.6607,146.0988,44.0501,6.0592,-113.1216,-57.0458,-157.2502,-124.2771,98.1436,82.4117,-0.9605,3.7892,-43.5598,-39.9033,119.4988,19.0113,-158.7577
60.5830,50.2207,63.2423,31.4342,-16.5417,-52.3971,-132.7043,-70.5512,-149.2773,-120.4647,59.4665,53.4911,-51.0571,-7.2168,-64.4325,-29.7198,51.2305,-7.8027,-148.5282
44.8598,35.2753,39.8205,-8.7508,-31.8089,-68.5782,-112.6805,-95.4014,-156.4429,-140.3022,45.9204,35.3837,-69.8214,-15.2685,-85.9724,-20.5177,19.2751,16.3608,-123.5506
40.2027,46.5491,44.2904,62.0938,-29.8202,-44.6429,-115.2983,-92.3433,-171.5652,-136.5410,43.2171,20.7792,-59.9724,-37.3031,-106.4176,-37.0470,30.3824,46.9877,-110.3809
72.1792,40.2089,92.0969,94.7185,-12.2546,-36.3432,-128.5072,-87.3960,-141.3658,-118.8986,73.2518,23.4381,-33.3887,-37.4980,-96.3977,-42.2944,97.9446,60.9734,-81.0928
119.1874,39.8835,145.0712,84.0949,39.2237,-44.3833,-99.7379,-89.4321,-87.5238,-98.9594,115.3831,37.0537,-0.0102,-4.9372,-43.8696,-12.9106,144.4300,64.5542,-62.3729
102.7360,37.8095,104.8539,55.7289,62.4401,-71.7850,-65.9102,-89.5416,-99.9241,-69.0060,97.5501,38.5498,5.6942,15.4026,-20.4751,12.4587,60.5060,20.7446,-97.3900
55.2571,9.9445,27.7762,-17.8900,35.9869,-104.8426,-76.4776,-86.2597,-166.7367,-41.2254,52.4137,45.0634,-13.3065,5.3952,-65.5559,2.0797,-41.4800,-41.0934,-119.3722
53.5387,10.1212,29.4428,-71.2437,31.8542,-76.9724,-96.1545,-61.1510,-181.1250,-34.7154,52.2123,69.5923,-17.9227,-4.7740,-94.8025,-20.2392,-19.7585,-30.3152,-79.6437
57.3520,61.1060,50.2592,-55.3979,46.8555,-3.5700,-90.3691,-26.1960,-140.8100,-60.2312,57.2681,82.0949,-19.5442,5.7605,-63.1522,-17.5928,16.9247,19.1314,-58.7622
27.6991,96.3083,20.4225,-24.1295,11.9334,26.3638,-89.0038,-23.4158,-149.6179,-104.9215,30.3057,74.7329,-47.5569,23.8134,-56.4441,9.7346,-16.0810,20.9062,-98.1026
19.2493,97.0745,14.4528,27.9089,-36.4379,25.7974,-103.9803,-26.9909,-199.2209,-118.6613,23.0779,69.3482,-68.8514,23.3128,-98.7720,23.2059,-2.0680,14.2535,-120.3414
47.8831,94.6926,59.8378,101.4769,-13.0644,41.7239,-90.1001,-0.8999,-166.9840,-86.1301,49.4201,63.4803,-41.4148,5.1011,-86.3469,0.3476,73.7574,42.8992,-86.7549
66.2818,77.7241,82.2929,96.8062,52.9640,30.6413,-40.0039,7.0501,-60.7335,-57.6094,64.7374,50.6465,10.9826,-2.0520,-5.8675,-25.5442,85.6391,51.2761,-53.9005
58.0527,47.5564,61.3034,28.7123,71.5867,-11.9137,-22.1809,-17.1541,-24.0945,-44.4797,56.3460,39.3743,34.6544,-2.4971,22.5123,-26.0510,32.7443,29.0849,-59.7107
31.6349,35.9563,26.6951,6.9100,36.0589,-19.6734,-61.1173,-17.7155,-75.2947,-11.8008,32.7983,23.2181,13.7589,-26.1676,-28.9590,-25.4421,-8.8545,29.0089,-71.0227
-0.2057,27.1801,-6.9306,-12.2357,9.6304,-5.1698,-83.0175,-11.4860,-93.5422,20.0778,3.0829,-0.8992,-17.2132,-50.6397,-60.8018,-33.5347,-41.3594,39.6626,-50.9151
-18.9895,-0.9595,-26.9499,-72.4012,7.9918,-14.0633,-51.2640,-37.7864,-51.1192,16.6851,-16.0341,-18.3318,-25.2484,-44.9208,-42.3607,-30.8631,-68.9742,27.6190,-15.4201
-32.6926,-32.4764,-39.2449,-66.7388,-14.9054,-30.7798,-25.9131,-48.1563,-14.2305,2.8800,-29.5919,-37.5030,-24.2903,-47.1261,-33.8222,-36.5362,-64.3658,13.5653,8.3327
-41.8871,-66.5423,-47.7989,3.4560,-54.0295,-56.2191,-29.7181,-30.3566,17.0196,-4.9603,-38.1249,-67.2188,-28.7491,-72.8072,-39.1506,-61.1209,-33.1541,13.1892,31.9552
-12.9446,-85.6992,-20.1431,20.4895,-41.9536,-90.2929,-14.3222,-38.1376,56.2557,-24.1430,-11.4811,-69.3897,-15.3805,-60.3165,-15.2102,-50.8222,4.1685,17.0026,54.6360
28.8791,-42.5166,20.3812,4.9796,6.0383,-76.7286,9.5785,-44.5680,38.9271,-50.0630,28.0789,-23.9959,5.9536,-7.0297,8.4596,-0.1398,19.8784,24.5351,34.3554
13.0388,20.7557,-4.9051,5.2331,-4.5778,-31.8595,-20.7024,-9.8511,-55.0396,-69.5629,15.8243,17.4090,-13.9105,1.8802,-30.4705,9.8034,-18.6899,27.9054,-26.2708
-37.9110,19.9891,-68.5729,-28.4719,-60.9577,-32.1719,-83.6532,10.2174,-127.6037,-71.1198,-29.3864,12.5562,-55.6354,-52.5879,-98.1254,-42.9462,-77.2319,23.9399,-62.6443
-56.9364,-4.9314,-83.1985,-70.1328,-63.0117,-37.1492,-98.4695,-0.8794,-113.8966,-40.2376,-47.3155,-11.9620,-60.5100,-98.6601,-109.3178,-91.1731,-93.3005,34.6906,-47.6437
-57.1653,11.2139,-71.4460,-59.2603,-27.5425,5.3062,-64.6869,5.9954,-72.5717,-16.4217,-49.1750,-20.8950,-54.8465,-93.9738,-74.2031,-91.1329,-86.3166,54.5819,-14.8625
-63.4618,23.3169,-81.0889,-47.4932,-44.6519,18.6270,-54.4319,12.0938,-66.1083,-41.8417,-55.7746,-22.5926,-84.5826,-62.8960,-65.6834,-51.7861,-90.2889,54.3210,0.2726
-53.7739,6.1676,-74.3495,-48.2307,-82.9544,-14.0525,-83.4165,0.4975,-67.0667,-47.9417,-46.7517,-34.4974,-103.7611,-49.5376,-75.4836,-15.9816,-73.6285,47.7951,-12.5609
-35.5794,4.5429,-43.1951,-12.7026,-59.1768,-7.7722,-88.3790,21.3532,-35.0272,18.2102,-31.3481,-44.5150,-72.7112,-69.2335,-47.6659,-34.8983,-36.3303,50.0982,-30.7789
-40.6865,-0.9768,-44.2036,0.3286,-10.1781,6.4222,-41.9184,47.6423,7.7224,68.7676,-39.3342,-44.3348,-41.8385,-90.2086,-2.9148,-85.9633,-39.3997,29.0169,-23.8201
-58.0419,-48.1208,-72.8274,-46.9533,-6.1090,-38.0489,5.5371,11.1801,40.1299,60.3658,-57.9204,-60.0586,-38.8368,-85.2512,14.9401,-92.4884,-82.1337,-10.8431,1.2429
-56.9403,-79.5891,-68.5018,-60.2258,-4.9523,-57.1455,33.6257,-22.2912,92.4471,78.6162,-57.2344,-90.7420,-13.4862,-68.0395,36.2533,-52.6735,-90.0366,-8.1114,33.1515
-27.5009,-52.1359,-22.2458,-27.8318,53.3860,5.0074,84.3111,28.5732,165.6407,138.0458,-28.9425,-81.5408,56.3920,-43.9641,88.8544,-18.1491,-38.1203,39.3263,85.7177
11.2867,-19.4384,20.3799,-22.6150,121.3527,56.0666,148.4004,97.9840,207.1322,163.4527,8.1103,-30.2414,121.0844,-8.5013,131.2277,1.8544,17.4859,65.5092,138.5393
23.6057,-18.4165,31.5642,-13.3937,132.5376,58.4973,170.4865,108.8179,210.7064,149.0381,19.5827,-8.9639,136.8284,10.4357,137.6882,7.8518,38.0305,54.5270,154.3962
12.9883,-16.9117,31.9366,19.3547,112.0988,72.0898,168.4781,89.4132,208.8612,132.4694,9.1479,-23.9311,120.1477,7.3626,131.7764,3.9020,47.8165,53.0632,150.1035
12.6502,8.0794,36.3113,0.3094,105.9249,98.9238,177.3179,84.7115,179.0021,123.6998,9.8748,-11.6503,112.5773,19.1086,115.9934,26.3360,48.0395,70.7576,136.0509
2.4603,33.0801,10.1979,-53.1314,98.9137,104.1818,151.6114,96.2157,107.0248,128.5021,2.7233,17.4834,110.6216,29.6065,78.5462,50.4631,-4.1584,65.7887,95.7574
-36.5203,26.8943,-43.3528,-52.4611,76.2187,98.6751,93.5410,106.3200,65.9564,127.9454,-33.5198,9.9377,76.6020,3.2582,45.5213,13.1015,-65.7578,37.1590,88.9423
-42.2076,-0.1279,-44.0948,-12.5863,66.0567,100.3188,105.7238,106.4021,97.2227,104.3350,-41.4879,-9.9095,31.9553,-4.9952,45.6906,-15.3692,-29.9351,35.8151,170.0200
0.8668,-10.1112,10.4954,7.1579,67.4202,103.8025,175.5272,102.3032,132.9996,95.1407,-2.8424,-1.3555,37.5241,48.5927,62.7160,53.3017,57.3838,52.3922,230.4053
4.2052,-6.0455,13.7759,-13.0552,32.3922,85.2935,150.0589,70.3002,110.5798,79.2594,1.7815,10.5880,61.2474,89.0137,58.8419,113.1037,42.4830,14.6236,154.4740
-41.6302,-13.7997,-41.7350,-60.3516,-42.9308,25.6064,16.7514,-16.1493,40.9410,-21.3207,-38.3373,3.8330,21.4844,64.0517,18.2622,68.0938,-49.8645,-57.2251,14.5390
-37.3999,-9.5602,-39.4360,-53.5395,-89.6043,-27.9177,-61.6104,-81.1918,-35.6007,-119.8735,-32.5877,-0.5317,-42.2225,29.7821,-32.4078,25.6569,-48.9818,-54.0133,-65.2308
35.2114,29.5083,48.3602,51.6946,-52.8488,-10.2535,-27.4934,-44.5291,-76.3024,-72.6321,35.2013,12.1589,-32.6926,23.8086,-47.8607,50.3463,66.8829,25.1306,-66.6788
94.1307,62.8255,125.5347,135.8189,31.9867,40.1582,8.3412,9.4152,-70.4669,22.0085,88.4183,33.1822,14.7137,24.3825,-25.1357,51.1606,155.0630,67.5647,-30.0918
91.4007,61.5852,123.6655,112.3798,68.7472,46.5704,-22.5050,-13.2565,-65.8240,14.3450,83.7584,40.5834,-1.2047,22.9596,-10.9355,13.9832,133.3488,38.3889,-9.6764
44.2882,41.7022,58.7844,60.2572,11.2582,9.0611,-78.5845,-50.8378,-99.9845,-21.9193,38.7112,17.8377,-69.7630,16.8778,-36.3135,10.6365,49.1625,-7.6795,-47.4528
-1.8538,3.7803,-9.1882,21.6286,-78.1756,-49.7009,-122.8113,-61.6672,-145.8875,-10.7268,-4.3979,-14.1681,-114.6193,-0.6643,-83.1282,27.6095,-21.8673,-48.7071,-107.3491
-12.9109,-42.4977,-31.2178,-24.0945,-117.6304,-107.6827,-150.9898,-93.1380,-156.5246,-14.1773,-14.1724,-28.0304,-116.9363,-8.0676,-109.5736,30.8930,-47.8016,-80.4804,-120.6649
-5.2834,-55.7945,-15.9505,-28.6753,-109.4198,-109.4729,-146.5897,-118.2041,-113.7791,-31.8376,-6.6815,-35.3172,-97.9656,7.1420,-89.7305,42.0462,-34.2373,-79.9130,-90.9123
-10.1274,-44.0438,-5.5525,0.3090,-102.3283,-67.0109,-116.6180,-101.1090,-51.5156,-28.6657,-11.6084,-43.7718,-78.4161,19.5493,-48.9740,49.9766,-10.0123,-67.9696,-67.2952
-24.7106,-52.7053,-20.6454,-23.2507,-106.5170,-67.9988,-109.1377,-106.1945,-31.1387,-54.0440,-25.3858,-40.4805,-77.4675,16.8319,-37.4430,27.4865,-22.2354,-85.5235,-63.4556
-37.1541,-67.6292,-46.4245,-49.4116,-92.9340,-92.4798,-109.9528,-126.4099,-40.2438,-84.6628,-36.2214,-39.8493,-79.3714,6.3359,-47.1765,1.5095,-66.3194,-93.8336,-43.4220
-27.7501,-53.3457,-33.2958,4.9759,-38.3770,-50.6866,-36.0872,-74.7519,-1.6765,-34.6016,-27.1729,-48.4258,-43.6119,-7.1296,-26.0099,-3.6133,-44.5820,-32.2360,30.9418
27.3448,-25.9974,43.2803,52.6839,40.2714,16.4785,87.3131,1.8718,69.2839,37.7340,23.5809,-30.2244,18.3967,0.9822,22.0583,12.8008,69.7176,54.5456,121.1693
84.8828,-3.6630,106.7027,37.3255,92.0895,30.0528,119.4345,20.6861,83.7438,56.7067,77.1296,10.7210,55.9001,42.6455,50.2311,55.8173,133.7100,73.5495,136.7524
79.0933,23.3716,86.5858,42.0582,95.9224,32.3540,47.1593,36.6795,51.9110,76.6253,72.0065,26.6647,58.1923,72.5494,56.7373,91.7150,77.6029,32.1690,81.6476
46.2997,47.1990,47.2741,63.2978,84.2598,59.4879,13.8391,72.9118,45.0024,87.3010,41.5927,23.3730,45.5475,63.8621,62.5937,79.5411,31.1856,19.1118,53.2754
47.9471,47.2993,54.8270,39.0259,79.6847,63.0529,65.1683,61.6848,63.3618,21.3015,44.4285,26.9912,31.5869,47.9530,60.8985,50.0181,62.2736,61.1548,83.5523
58.5473,26.9042,69.4935,28.1820,80.0179,43.9221,108.9625,39.3237,88.9080,-27.5799,55.8821,20.2107,36.9182,31.9004,55.9664,28.5913,95.5384,99.0021,126.7262
63.6799,9.2501,80.9358,73.4710,98.5788,47.9599,113.2361,72.5198,124.3683,25.5617,59.6184,8.4228,65.1653,5.1069,70.3100,-6.8517,125.6756,99.7008,154.2592
95.8341,14.3070,123.4482,111.0805,127.4925,52.0268,115.4911,87.9261,125.2044,56.0561,87.6001,20.9988,74.3202,-2.6057,82.4116,-28.7357,183.2472,98.0464,149.7164
127.1035,35.6377,154.4610,130.8564,117.5719,22.9300,99.6913,36.5350,53.1135,-13.4167,118.3758,34.9302,45.7714,7.8383,46.5208,-8.8372,205.4490,118.3036,101.8278
122.7401,53.1798,144.9856,161.3674,72.2717,0.8011,39.7974,1.1284,-37.9232,-69.9646,118.5261,33.8683,23.4066,-6.5684,-19.8337,-2.5658,185.9469,135.9563,39.0281
128.8443,73.1008,161.2241,164.4271,60.7000,24.8276,-21.2364,15.2756,-77.0011,-48.0340,125.8949,54.7184,36.4312,-15.4061,-45.2307,-13.4967,207.3893,128.6160,-4.5020
160.0990,101.6780,207.9566,135.6445,98.8171,68.7746,-33.4270,32.0293,-53.2090,1.1043,153.4992,87.0590,66.8629,26.0702,-5.6285,22.6287,245.5144,112.7600,-17.4543
162.0484,109.4092,209.7266,131.0278,131.0081,86.6887,-4.8784,46.4676,-3.7023,36.1165,154.4099,80.7626,94.0178,48.7716,38.8565,54.3470,229.2475,117.3846,0.6052
133.2757,90.6228,170.9021,145.0324,123.7092,69.9663,21.2145,60.4306,8.8694,33.0017,128.5111,56.3215,96.7715,6.5615,32.1389,11.0257,194.8880,134.0431,16.2081
109.9355,82.7321,139.1349,149.4895,94.3456,53.8717,18.0347,55.3124,-21.9124,5.2764,106.5348,50.9886,66.6776,-10.2344,8.2786,-12.3904,169.1238,118.6765,-0.1397
85.4314,85.3806,106.7737,160.9387,77.6537,66.3291,10.1060,61.0277,-9.0507,23.9847,81.0249,42.8134,51.6308,38.3376,33.0231,45.2799,120.6510,65.0869,-6.5292
58.2615,69.0362,72.5901,153.6822,85.6055,79.6472,36.3008,94.4367,68.1036,76.1946,53.6876,28.8226,87.6243,69.2489,89.5352,79.0716,75.0133,22.8062,17.9864
40.5091,48.7891,46.6401,86.0853,82.3416,61.4500,74.8522,101.1312,103.5084,63.1637,38.2331,36.1945,119.3410,60.2026,107.0483,58.3725,47.6857,11.1040,12.8588
11.5759,48.9758,7.1300,31.2400,42.6272,45.6544,76.1922,75.5586,67.9404,6.1076,13.6268,40.7158,102.7362,57.8048,78.0571,59.9000,-2.2998,5.9414,-22.4209
-21.6954,58.8686,-23.7194,76.8502,12.2549,76.7264,53.5387,81.0578,53.8924,6.9607,-16.4134,17.3182,84.2064,52.7745,56.6181,68.8557,-31.2804,13.1905,-12.5114
-13.7105,68.0221,-0.7126,142.9046,27.4351,118.6100,52.4813,110.3281,74.3959,43.8014,-9.9596,7.5119,85.5221,45.1214,62.6025,59.5572,14.3975,35.0147,32.9845
14.1288,66.8087,20.8251,93.1486,47.2127,102.4463,65.8124,103.2396,56.0547,40.0710,13.9124,34.8269,64.3971,71.1863,63.6521,78.4646,33.3505,22.1397,44.5554
4.0880,42.3151,-19.8613,-30.2349,39.1909,36.9435,53.3641,68.2297,2.5655,11.7131,3.6925,55.7566,28.7700,81.2558,38.3708,82.6673,-41.7634,-23.9387,17.4515
-20.9422,20.4205,-57.6385,-68.1143,24.3714,-7.6403,14.1068,46.2109,-27.2731,-3.9026,-17.9326,41.8312,20.3549,26.8229,7.9580,20.3473,-96.2051,-28.9027,-18.7413
-10.2473,28.6310,-34.0186,-7.3179,13.3290,-7.3547,-10.4954,33.0101,-28.6836,-13.4966,-6.7730,20.7014,17.2218,3.9367,0.5175,8.1974,-62.7179,3.2497,-38.7408
17.3696,32.6319,1.6186,11.3093,1.0136,-2.5923,-1.8460,9.6892,-27.9516,-26.0032,17.1580,24.8823,-3.7972,62.3240,6.5843,84.0476,-18.5968,-5.7300,-21.5550
20.1710,0.0767,6.2728,-57.8645,-9.2234,-22.5898,4.0494,-30.7772,-27.2177,-57.3253,18.3625,43.0178,-12.1049,83.5408,-1.9582,81.4542,-7.6900,-50.3855,2.2520
-2.5345,-40.5873,-9.1975,-115.6813,-26.0731,-54.0434,-10.8481,-83.8028,-11.6797,-115.5965,-1.6526,33.5264,-11.6599,30.4123,-17.1706,-11.7778,-15.5053,-65.0185,0.7592
-31.5699,-55.2168,-38.6384,-109.6567,-45.2686,-63.2379,2.7474,-103.7759,22.1686,-141.0762,-28.5977,-7.2907,-33.2951,5.2259,-9.2433,-30.7061,-45.7069,-43.8963,15.9009
-59.6921,-42.5018,-75.3836,-81.4257,-36.7088,-23.1446,63.8782,-43.8287,51.3839,-75.1746,-56.8676,-32.9089,-44.5959,10.3762,13.2172,2.4068,-81.9108,-18.6445,60.8613
-83.2207,-28.9483,-99.1610,-71.0934,-12.7931,37.0873,110.4891,43.5869,60.9006,29.0565,-80.2809,-28.5926,-20.3027,-10.2462,20.1695,-15.2291,-92.6145,-9.2951,92.4028
-77.8395,-49.6490,-91.7934,-96.8969,-0.5581,45.8998,122.1519,60.1327,77.7754,80.5745,-76.7543,-23.4021,-5.8196,-0.9332,21.1115,-6.3925,-76.7595,-23.4482,139.0186
-24.1006,-80.8403,-39.3630,-132.2419,40.0744,14.5415,149.1649,26.3522,116.6174,85.1777,-29.1294,-14.3032,-2.3912,57.6683,44.4469,57.8497,-28.9126,-28.4015,225.2144
33.9256,-54.9497,29.7354,-100.2249,113.8891,35.5622,181.1178,46.6263,139.7850,108.3515,24.7003,12.7687,37.7381,72.5464,77.8504,64.1202,41.4270,9.2652,254.3330
32.5899,9.2052,45.3767,-7.7941,120.0759,105.6777,161.6996,113.4293,124.6395,146.1024,25.6711,23.3649,69.7935,46.3287,85.5428,41.7199,70.3649,44.5889,187.6318
-13.0428,27.2019,0.9286,33.2042,37.4894,128.1689,114.0420,120.6740,102.4157,133.0448,-16.1433,-5.4536,25.6739,53.3466,65.8084,79.0217,34.4788,32.5586,132.8952
-49.9847,-7.4457,-42.0830,-5.3262,-16.0842,93.2277,92.8972,61.2243,106.0509,77.7453,-51.3056,-42.5749,-31.3951,49.4031,48.4113,79.6751,-13.9894,12.5148,141.6792
-69.8840,-47.9252,-64.0973,-42.9256,0.3779,57.0507,90.0389,25.0477,126.8207,67.2786,-69.9817,-66.1256,-27.0932,-9.2359,45.1675,-6.8811,-46.9081,9.2556,159.5923
-72.6841,-76.4431,-73.8450,-42.2429,10.2203,21.0390,82.5219,27.5344,118.5661,104.1210,-73.4604,-76.3180,-14.8282,-48.3786,35.5693,-53.6626,-59.9927,-6.2727,149.0473
-57.6679,-71.9807,-63.0518,-19.8605,-8.9647,-3.2200,69.2701,20.6076,58.7299,102.2608,-60.4946,-67.4031,-42.4600,-46.4034,6.9288,-42.9552,-43.8719,-19.4348,104.3994
-68.8293,-32.6777,-66.8412,-0.1301,-26.0777,29.8987,48.0557,15.5712,9.7927,68.8889,-69.3128,-56.8136,-62.4760,-53.2589,-16.3516,-52.0316,-48.9988,-6.2738,57.9299
-117.0877,-15.8609,-116.7828,-16.3933,-48.2527,74.4566,33.4962,32.1896,28.7502,75.3616,-112.3438,-67.5572,-49.1737,-41.0340,-8.1305,-29.0343,-116.1046,-13.7245,53.1368
-130.8911,-36.6456,-143.9620,-45.8335,-79.0399,43.1888,30.1925,16.8300,48.2251,74.1620,-125.4528,-73.4420,-34.6599,6.3874,9.1393,38.4091,-162.4802,-63.7861,29.6835
-102.8347,-50.4235,-117.7493,-35.5139,-105.4246,-35.4331,-11.2883,-57.9794,-3.1979,-6.9503,-98.4725,-60.4371,-38.9488,8.1024,-10.6816,27.1273,-145.3768,-103.8240,-67.3987
-126.0416,-71.8879,-143.2210,-37.1991,-148.5408,-86.7533,-96.5051,-122.6725,-58.7719,-84.3086,-117.8061,-76.2951,-73.6466,-48.5108,-63.4051,-52.5840,-177.0590,-122.0583,-123.2942
-210.1168,-127.9147,-248.8446,-107.5837,-215.4407,-111.1424,-143.3613,-127.8637,-53.0411,-69.8564,-197.2497,-129.4028,-137.9427,-87.2701,-98.8337,-83.7581,-287.3473,-157.0729,-81.3114
-259.6122,-166.8492,-311.8542,-164.4783,-268.4939,-130.6467,-138.6207,-117.9258,-46.1101,-38.8067,-246.8306,-155.6235,-186.9921,-96.7293,-106.6040,-86.2694,-341.4342,-203.9219,-77.8334
-247.1443,-170.3396,-294.9273,-166.4104,-294.4218,-149.4954,-153.1592,-134.6084,-81.2066,-60.9493,-235.9847,-135.7171,-196.8606,-90.0407,-122.6984,-90.6952,-310.0885,-238.1602,-127.7084
-224.3328,-187.6095,-283.4067,-198.9543,-294.4804,-177.7083,-166.4065,-151.0122,-99.7860,-72.6438,-214.3219,-115.1871,-194.8205,-45.9317,-139.3796,-38.6072,-305.5046,-259.5792,-96.3028
-205.7708,-199.0236,-282.3858,-242.9250,-245.5458,-191.5499,-114.2409,-135.3086,-71.0078,-36.6183,-198.1382,-107.6644,-176.0085,-11.3648,-114.1355,10.0647,-326.4696,-250.3633,-31.0872
-173.1275,-147.2330,-229.4688,-178.8776,-172.2321,-144.5946,-58.1948,-99.0434,-50.1334,-24.5769,-166.6785,-89.0789,-124.6457,-50.9604,-75.5037,-52.2690,-266.8628,-185.3212,-56.2791
-127.5123,-61.3295,-142.6150,-37.6311,-142.4496,-59.9913,-70.3841,-61.0241,-76.8647,-72.9965,-119.0341,-56.9967,-90.4111,-100.2199,-86.1535,-126.3508,-134.4004,-85.4837,-98.2397
-79.1650,-1.7132,-79.1783,40.5064,-142.4937,-7.8353,-84.0903,-28.7898,-109.3817,-112.0224,-69.7438,-29.5479,-94.6547,-75.2953,-112.0338,-78.6500,-38.9304,-2.1040,-76.0847
-37.9947,13.9244,-43.1459,11.3757,-104.0392,-9.0148,-39.4525,-23.0434,-85.4382,-80.2491,-31.8189,-16.1909,-69.6152,-17.1042,-77.1054,13.7262,-25.2189,21.3211,-59.9589
-7.6518,-5.8633,-11.2233,-56.0041,-31.2409,-36.2050,7.6220,-52.9011,-19.8321,-22.5034,-6.2551,-7.4858,3.5294,11.8581,-5.2242,35.2924,-38.2778,-14.1472,-75.5917
25.7842,-21.6355,26.3716,-71.0471,27.9197,-60.1379,21.7600,-78.7980,18.5340,-22.6430,24.2073,11.8988,59.3783,22.1532,33.9109,15.0000,-18.5020,-38.6091,-69.2963
57.5328,-9.0460,54.1058,-35.2131,56.3580,-69.0231,43.5011,-71.5819,26.2997,-71.9929,55.8264,30.4500,75.5437,34.3685,42.0103,19.1323,16.1442,-5.9283,-39.5627
55.5469,-7.9804,47.5440,-37.7843,49.8798,-66.8650,81.2962,-57.6131,45.9456,-89.1393,54.9487,24.7538,71.9152,40.3425,46.4911,38.2789,19.4081,24.8890,-9.9275
31.2480,-16.0896,29.7457,-50.5121,18.8069,-45.7473,89.9532,-46.6183,45.4239,-67.3447,30.2708,14.3994,42.9879,30.9445,36.8204,28.7574,22.1440,11.3073,-4.4060
25.1219,23.5427,35.1225,32.3607,-13.7013,-8.3151,39.9448,-25.3913,-21.3131,-82.8556,23.6243,27.0037,-4.5142,17.5936,6.4152,1.0563,54.2260,-1.9618,-60.2117
5.7873,53.7398,8.8619,95.6918,-68.8680,-20.5306,-53.4778,-44.2676,-99.2151,-152.3690,7.4581,26.1680,-55.1532,13.2805,-32.3958,-3.2179,21.0762,-24.7851,-148.8906
-75.9616,-17.7894,-99.3846,-16.9700,-164.7520,-112.7897,-137.9166,-135.1459,-127.5999,-203.9104,-69.3166,-25.8619,-124.8078,-15.7045,-75.3108,-28.7130,-124.1709,-108.4679,-204.7904
-153.0312,-100.0582,-187.0928,-130.4279,-225.2543,-175.1439,-167.1830,-187.6733,-128.4886,-184.7854,-144.9996,-80.8587,-188.4271,-94.8916,-106.5756,-126.4412,-217.5464,-172.0739,-221.4130
-133.1980,-77.5743,-151.2373,-61.7438,-188.2487,-126.7881,-151.2983,-121.2752,-119.9519,-117.0437,-127.3866,-78.9228,-176.9780,-138.3539,-102.5327,-176.9568,-148.2847,-123.0554,-193.2423
-68.2760,-29.1312,-78.8838,12.9250,-127.1422,-66.7862,-128.4484,-52.1699,-102.7557,-63.3456,-64.4970,-42.2114,-114.0504,-75.0312,-81.8292,-83.6639,-67.4877,-64.7557,-126.2328
-58.1517,-41.3896,-82.7955,-44.0090,-123.1317,-86.1855,-120.2161,-77.8127,-116.8523,-59.7866,-54.7364,-19.2795,-87.9784,-4.9134,-84.1904,4.0746,-102.7792,-106.7157,-114.2322
-79.9817,-58.3048,-114.6712,-78.7199,-142.8532,-116.8555,-136.9375,-103.5988,-158.5605,-73.4358,-75.6603,-11.2773,-94.6275,-13.3468,-105.8357,-19.5380,-149.3854,-159.4723,-161.5842
-68.0537,-45.3700,-97.6896,-21.7765,-132.6256,-84.1504,-151.3293,-49.0753,-148.2384,-58.8426,-62.5446,-1.1190,-75.6264,-23.7941,-113.3141,-33.9502,-103.2510,-127.5630,-115.7240
-40.7425,-33.9358,-55.3034,25.4795,-92.4441,-14.3776,-97.0948,21.7813,-73.9624,-27.6115,-35.4235,7.8599,-34.4669,-6.1317,-90.9758,-12.0983,-17.5064,-56.8681,21.1666
-28.7852,-11.4782,-23.5480,45.7407,-29.7224,46.2617,17.3239,60.5104,-4.5502,2.8257,-25.2776,9.7961,7.2431,-23.4731,-39.7242,-43.5460,32.6216,3.3792,73.6712
-8.5482,30.8226,2.8611,50.9954,45.3067,76.0830,95.8477,91.6978,46.7075,47.5351,-7.2395,13.9721,56.9545,-30.6342,31.7642,-47.8495,34.2064,49.2586,41.2857
24.6114,53.7515,24.3170,16.5747,99.9323,72.5328,112.2156,110.4601,100.5598,79.4058,24.2141,26.4980,103.0976,24.8959,95.7510,34.1038,14.1439,65.2661,40.7892
36.5656,52.5783,34.7013,2.1499,114.3019,55.9597,117.7926,88.8326,127.1072,41.9489,36.0860,31.5780,117.4466,40.5848,119.3897,42.1074,13.0816,64.8712,40.0022
25.3375,39.4771,35.0568,32.7498,96.6674,29.0712,108.7729,35.5658,115.4960,-37.1781,26.4404,15.2500,99.7781,-17.1056,102.2399,-50.2106,26.7035,69.5955,5.0393
21.1563,-3.5170,28.3760,6.3726,65.2586,-18.5356,73.7541,-16.3672,111.8966,-81.6571,22.7347,-1.1062,73.0692,-27.0691,75.3545,-67.0000,25.7656,51.4924,25.7718
34.2327,-44.5091,32.7595,-68.5632,50.5065,-42.5258,75.8673,-30.1370,125.1593,-84.6117,34.6106,10.2863,65.0900,17.6570,59.1742,-12.5557,39.6676,32.1081,104.6631
53.0791,-21.0000,59.6887,-68.7676,78.1146,-0.6567,133.9479,0.0388,126.8802,-75.3939,53.7725,33.5808,92.9087,25.1623,57.1104,-1.0543,81.2035,79.3780,143.3529
61.9139,31.0678,78.9488,-7.4426,128.3430,51.8824,174.1268,24.0907,131.7990,-48.4548,63.8060,35.3943,139.6520,19.7074,81.7565,4.3763,80.8614,131.7901,123.9095
42.1060,38.9604,57.3700,27.9496,138.1037,47.1214,149.2262,10.7887,138.7793,-8.4908,43.1241,16.0217,157.5481,25.3853,117.3406,11.7176,19.8018,81.1130,49.7404
-14.9522,18.4651,-9.2052,11.0366,52.6465,-5.3766,47.1453,-19.1456,63.6821,1.4371,-13.2823,-5.5291,95.8220,-20.1854,84.1108,-44.9570,-59.2827,-22.9820,-109.4345
-84.2140,-2.2703,-102.7643,-87.5717,-100.2374,-79.0959,-122.7639,-72.1952,-111.9986,-37.2092,-77.7198,-19.5105,-43.7970,-74.6719,-43.9772,-81.7526,-161.4153,-100.1837,-271.0879
-111.4675,-43.5523,-154.0553,-215.6922,-198.5174,-145.1498,-237.2905,-148.8258,-225.1241,-83.5769,-103.7564,-20.1762,-157.0746,-47.6054,-141.3528,-31.6464,-229.1655,-166.3509,-291.0697
-77.8381,-81.1353,-101.4237,-212.2802,-171.7030,-139.8284,-181.0363,-165.6780,-149.0975,-84.2595,-76.3289,-13.2158,-142.9927,-10.7208,-102.0157,-23.4032,-141.9522,-190.2852,-196.6644
-48.5041,-65.9499,-30.3977,-104.3047,-117.4543,-64.2476,-77.4337,-93.3069,-21.1037,-42.5715,-50.5461,-17.7716,-73.7175,-44.0649,-21.6501,-89.0504,-3.8508,-131.8125,-139.7321
-83.2019,-43.5520,-68.0509,-92.8998,-147.2416,-31.7317,-101.9541,-47.6071,-36.7152,-18.1147,-80.6554,-35.2835,-89.6667,-79.7900,-43.5234,-103.2425,-35.0082,-94.6369,-155.6854
-130.4651,-80.6609,-154.0615,-177.2958,-206.0934,-93.5053,-179.7571,-86.3059,-137.9793,-35.7572,-123.5904,-48.1488,-159.7947,-82.2790,-131.5926,-81.8375,-156.7814,-136.3356,-153.3339
-118.4087,-122.4265,-155.6138,-211.2983,-189.8616,-144.9791,-165.9823,-114.0563,-148.5505,-52.9849,-112.3438,-47.0787,-162.1354,-91.6660,-155.3915,-100.5357,-161.9126,-139.3276,-98.6453
-75.8901,-81.8637,-97.7933,-182.6468,-117.3521,-94.9769,-102.7383,-78.7435,-80.9681,-47.8884,-71.3516,-29.2599,-109.3981,-76.5917,-97.6629,-89.0469,-99.4843,-69.1020,-54.4549
-51.9193,1.6155,-58.9443,-119.8470,-65.4261,-2.1544,-74.3801,-40.3960,-62.9254,-43.6459,-48.3219,-1.9197,-84.6800,-18.7880,-48.7408,-23.1003,-74.2233,-28.5427,-52.6019
-36.4775,26.3863,-34.4597,-41.8130,-62.6146,20.6732,-76.3754,-42.8109,-108.5589,-44.5529,-34.4655,8.4734,-89.7464,-3.0337,-66.4122,-6.0697,-43.4939,-31.4631,-67.3233
-30.1231,-16.4311,-29.9623,-63.3777,-102.9288,-44.3209,-114.5483,-86.6710,-163.1225,-57.4146,-27.6561,-0.0634,-104.7029,-44.4497,-125.8250,-44.7726,-27.2664,-43.7029,-100.0621
-42.4596,-53.4157,-56.1262,-177.3682,-150.4697,-111.9664,-183.3058,-150.3537,-208.8912,-113.0716,-37.8511,6.6976,-139.1979,-53.2861,-170.2837,-60.3040,-69.7359,-85.3132,-141.7882
-30.9605,-46.7829,-45.8090,-172.0932,-144.5421,-110.3260,-195.8354,-168.5166,-212.3292,-175.4824,-27.4861,27.8649,-160.5989,-20.4536,-166.3521,-51.4834,-56.2148,-103.6791,-115.3037
21.3867,-25.5764,23.6187,-48.6329,-79.4577,-63.3108,-115.3425,-117.1012,-145.7869,-164.4928,20.9427,32.0500,-124.5472,-3.2253,-124.1256,-38.3224,52.6335,-33.3929,-8.6871
59.7411,-19.8504,70.8498,-35.2998,-15.2200,-34.3778,-18.9438,-79.7554,-77.7395,-109.3072,56.7621,33.5768,-66.0988,11.2069,-81.6211,-6.0721,108.1078,30.6850,68.6368
65.5976,-22.5259,74.1289,-99.9104,21.3878,-34.7880,38.6655,-106.3638,-69.6517,-97.2359,60.8609,49.8103,-39.3088,42.5191,-59.6561,22.1533,81.2390,12.2480,73.2599
64.4298,-24.6980,75.1856,-48.0565,49.8359,-39.9881,62.5512,-130.9046,-63.9631,-104.4016,58.0865,39.1986,-29.3200,40.4163,-41.8802,3.7754,67.5392,-3.9676,72.5935
40.4311,-37.8446,51.7753,33.5497,57.5511,-43.7351,50.9636,-109.9506,-19.4505,-69.8639,35.8348,-8.6589,-11.5158,-10.6138,-22.4320,-45.6145,43.9707,13.0311,80.7678
-0.7679,-49.0232,4.6141,1.2049,23.1934,-35.3494,25.4597,-75.6952,-0.9339,-30.0022,-1.5695,-27.9045,-7.5161,-35.6257,-26.1732,-57.5195,-1.0864,6.7500,68.8491
11.9115,-15.4448,23.3700,-9.2591,-0.4613,14.5691,38.5067,-31.4819,-24.7780,-14.8120,10.6524,6.3721,-14.5765,10.4364,-38.0987,7.9497,42.8410,14.3465,69.2011
80.4327,49.6413,111.9107,99.9541,54.6113,90.7241,85.9454,41.9064,-10.3861,32.4504,73.7743,43.2029,16.5036,64.5795,-2.0253,77.8356,161.2263,67.6798,102.2908
114.8769,73.2074,155.7934,165.2267,144.2886,127.7496,112.8721,105.8582,51.6157,119.8093,103.6920,53.0787,77.1774,58.4397,65.7899,54.9449,202.1462,82.9668,123.6091
88.4915,48.6402,120.0957,104.0410,162.2402,110.5972,104.2746,118.4437,82.8245,162.2067,77.4929,48.0441,95.2650,27.5507,90.6659,1.6918,148.3340,44.7881,109.1987
56.9247,45.0596,77.5778,51.8676,108.8280,98.2894,90.8471,113.1801,79.5331,135.1506,49.4599,37.3016,70.9717,36.4846,80.6280,31.7291,100.6919,38.1746,80.1646
47.1474,68.4317,66.7444,70.9402,85.5385,117.3584,100.7415,133.1868,107.2171,116.1687,42.2151,27.8337,74.4329,59.0028,100.9577,79.3506,91.3900,62.8945,66.7174
46.5777,64.1306,69.5723,82.1849,125.5643,125.9404,138.0852,153.0604,160.6753,140.6378,40.2041,22.8994,103.6025,42.2329,144.0820,42.1140,93.7962,63.8660,84.0170
46.2701,44.5592,69.7306,67.8971,157.1371,108.5388,170.8364,140.1208,180.1724,150.2417,37.3821,17.2980,105.6246,15.7427,162.8496,-10.1338,89.9899,51.8824,93.6299
37.5768,54.1093,60.3022,75.3628,132.2082,107.4830,158.1583,126.7406,162.3961,119.1656,30.1165,16.8747,93.0693,25.3822,154.0051,4.9131,78.1022,45.9084,64.8569
17.9301,60.8218,41.7955,82.8117,84.3397,132.6074,117.9155,141.6206,154.3316,109.6520,14.1261,18.5020,91.8555,49.8174,132.9432,45.7307,70.8929,36.3062,66.9758
-0.9854,23.7178,19.0533,41.2263,62.0477,127.9437,108.6448,138.8533,177.0089,139.6021,-4.0889,-3.5099,78.9278,54.6170,118.7650,65.7285,53.6478,28.7201,130.3871
-16.3334,-16.7948,-11.4696,-17.8846,70.1803,65.8801,128.4434,88.0515,203.1954,125.8650,-19.7134,-39.1702,61.5804,32.3241,131.6532,46.9457,-7.6534,26.4428,138.6473
-33.4177,-12.9747,-43.7217,-30.0023,78.3859,9.2608,117.5207,49.6180,194.8745,50.6881,-33.1663,-47.4880,70.4750,-13.6653,144.0992,-19.8498,-76.0584,27.9833,52.5606
-44.4248,15.6228,-54.3116,0.1587,66.1437,20.3943,68.9915,63.6408,156.6975,17.6017,-40.1283,-36.2175,73.8416,-46.8715,121.5999,-65.2823,-85.6126,41.1058,-0.7365
-37.7973,29.7668,-38.9566,18.4441,41.3716,52.0207,30.1420,73.9419,124.2775,42.3511,-34.4445,-31.0268,47.4001,-23.5784,94.9891,-24.3975,-56.0809,38.9256,7.4236
-13.5692,28.6155,-16.8128,10.2570,11.4968,25.6816,-1.9616,43.8944,86.3308,11.1767,-11.9423,-7.6396,36.8731,27.3767,78.9592,35.5815,-34.5139,-0.7712,-29.1766
18.2683,43.2750,5.0596,13.3790,-15.7369,-17.1292,-55.9062,23.7054,2.4845,-71.3583,22.2486,43.6633,50.3514,48.0348,30.9184,49.6728,-11.5896,-19.4534,-101.0007
41.4248,83.1199,27.4932,42.5359,-7.5642,10.8076,-86.0595,50.3713,-88.8874,-67.9256,46.6070,76.5509,38.8007,41.1713,-29.0498,52.6616,17.6419,21.0977,-103.0227
46.2375,99.3912,36.0380,45.7796,41.7500,63.5498,-43.2175,90.9298,-102.0926,22.7660,47.3873,71.9169,9.7916,30.4836,-33.6584,51.1084,27.8834,57.3755,-31.2896
40.8397,52.8109,23.6838,-15.5290,76.2884,46.7351,23.3751,105.3693,-37.7406,76.7828,38.2056,57.9360,11.1180,19.3603,-0.4634,27.0772,20.6247,46.0083,47.5470
33.6503,-7.4593,9.7149,-77.6814,70.5940,5.2768,62.6353,97.9572,30.9144,89.0058,30.4666,46.3719,40.5850,23.8861,23.0091,25.8850,15.4069,16.7348,95.8768
15.5598,-19.3164,-0.2341,-67.0667,62.3529,25.8973,94.0928,99.7863,64.7175,129.1355,11.9410,31.8016,65.0922,41.5078,44.0102,50.7250,6.0889,-10.1778,101.8848
-19.3881,-2.4621,-27.0375,-35.2502,60.2738,72.6903,110.9015,117.6788,72.8077,165.1219,-22.0096,15.5700,67.2878,31.5724,56.9095,39.8615,-24.9193,-19.1333,88.2604
-48.4060,7.1454,-58.7454,-55.6139,44.8646,86.7485,81.8404,124.6370,78.7087,155.4807,-46.8183,-1.5860,55.7599,5.2865,49.5638,20.9292,-64.9268,7.4406,84.1449
-50.2408,17.7692,-58.7847,-73.8958,21.5343,89.1797,36.2682,119.9409,89.7288,149.9946,-46.7369,-10.7757,51.5087,14.8619,53.4441,51.9252,-72.9808,20.0042,58.7793
-50.7312,20.3194,-53.4017,-36.4043,-25.9959,86.1642,-10.8210,127.4128,71.2380,156.1846,-49.1158,-3.2203,35.7470,36.8802,53.3896,72.6845,-48.8474,-38.4262,-7.1132
-77.1024,-13.6572,-87.5299,-21.3807,-109.9223,42.9929,-84.3636,114.2034,13.8922,105.6026,-75.1031,2.5686,-22.1982,26.9819,3.1005,36.5796,-48.7320,-120.9687,-49.7791
-89.0782,-60.0988,-112.7364,-76.6037,-152.2314,-30.0463,-119.0266,35.0742,-8.4629,8.6458,-85.6457,-7.2360,-67.6357,25.5388,-31.3826,20.7018,-80.1263,-153.5690,-43.8115
-53.8129,-76.9863,-79.8384,-121.5493,-109.5420,-95.5710,-50.7305,-59.1943,33.3549,-53.5749,-53.1985,-18.8780,-44.2090,52.5195,15.7060,52.8815,-91.0995,-140.0702,-59.8310
-29.0072,-74.4676,-51.3978,-115.1678,-76.3596,-132.8943,6.4316,-100.5511,55.6353,-69.1197,-30.4273,-33.4115,-18.9905,38.8242,51.2244,46.0891,-85.3706,-111.9499,-109.6405
-44.7672,-70.4112,-56.7493,-99.1056,-84.7164,-116.4809,-31.5204,-107.1551,34.2996,-69.1408,-43.3390,-55.1791,-37.9078,-21.1462,16.4473,-16.6017,-83.1225,-70.7490,-106.2344
-26.2823,-47.0712,-19.3771,-70.9335,-37.8158,-58.8290,-39.1483,-97.8649,41.4251,-46.9905,-24.6524,-51.7307,-21.5083,-34.6029,9.5409,-36.0250,-41.8363,-15.6207,-40.4409
43.0234,-4.3639,52.3021,-21.6938,46.3371,-33.8344,27.6535,-56.0791,56.9046,-7.4771,40.2089,-11.7099,43.1253,15.9512,52.7611,27.5782,20.4125,24.9579,-19.9217
65.3737,17.8783,54.6313,-3.9080,43.2581,-59.5145,13.1157,-21.4058,2.6911,14.1078,61.7518,17.3633,55.0788,46.9766,43.8092,82.7146,9.2670,7.2355,-83.5936
12.2399,-2.3534,-5.3222,-24.0878,-26.4537,-75.0654,-98.7816,-42.2852,-71.3674,19.5612,11.5658,4.4934,1.6422,15.9368,-16.6597,42.1955,-56.0747,-63.9473,-142.1533
-38.0993,-41.8000,-42.3209,-30.3565,-61.6575,-73.9135,-145.9945,-81.3955,-84.0977,27.3833,-38.4520,-30.0855,-45.5338,-45.9098,-47.4353,-55.2042,-79.9356,-111.1772,-141.8701
-39.5161,-65.7128,-37.1707,-31.6334,-69.2192,-94.1157,-115.5957,-99.2279,-71.6450,16.6676,-40.7251,-55.0204,-68.7075,-90.8781,-56.5702,-104.6387,-53.9212,-82.1579,-123.6862
4.9860,-56.5321,12.9838,-41.6924,-65.4496,-104.6146,-112.3770,-107.3122,-67.1733,-19.8765,4.0459,-44.3471,-61.4239,-82.7638,-67.0789,-76.7326,10.5085,-17.7812,-101.9039
69.8065,-19.3868,95.1132,-0.9407,-14.8178,-67.7682,-120.5108,-95.9923,-43.0731,-45.6695,67.3550,-2.1156,-10.7006,-36.6524,-44.0880,-38.1714,102.2735,21.0696,-64.5316
88.6938,20.9302,116.5880,84.9802,32.7778,-33.4733,-101.6480,-62.9353,-41.7218,-52.6729,84.9970,25.7836,23.9101,-14.5903,-13.5944,-38.0900,120.3403,17.4005,-70.1824
49.4242,42.5375,58.0530,113.3326,-0.1344,-43.9165,-115.6089,-56.3260,-125.3943,-64.0524,48.6344,24.6818,-6.7359,-29.2896,-48.8884,-45.1127,41.1990,-9.4500,-151.6909
38.6045,49.4212,41.7714,75.8827,-48.9661,-55.4701,-165.6526,-77.8224,-217.6320,-68.4415,40.0529,31.0704,-44.9192,-36.3262,-115.5909,-28.7566,17.7741,-14.2458,-205.5549
78.6308,52.1572,98.4727,63.9889,-17.6533,-32.9193,-160.1011,-75.5826,-202.8652,-50.0662,77.5814,45.7088,-32.7212,-33.3203,-117.1582,-28.0826,92.2093,23.2371,-152.5381
101.2729,46.3787,133.5715,95.9086,56.4244,-9.6686,-85.4501,-56.2787,-110.4882,-32.5295,97.5377,39.8869,15.2060,-43.3382,-57.2137,-62.7935,137.2171,60.3299,-70.0832
108.1670,38.7405,141.8738,130.5353,95.4782,-12.2059,-24.5797,-53.1658,-55.1915,-26.7259,103.9547,30.4212,64.9790,-41.1941,-16.3769,-66.2561,139.0157,71.7206,-43.4215
127.8728,45.7823,160.1992,152.6048,89.5669,-17.3496,-22.0465,-52.1444,-69.6271,-21.0383,123.4543,33.5786,75.3101,-16.3140,-25.5462,-15.3404,156.5997,85.7725,-46.1316
103.4474,41.6709,128.9585,129.2576,47.9355,-10.8027,-45.7104,-48.3168,-82.4049,-29.6568,100.9544,18.3138,28.0821,-10.6681,-51.0704,9.7213,132.0886,92.8330,-21.4490
19.1030,-8.5843,29.1575,41.4770,-15.6821,-11.1466,-40.4482,-49.1257,-34.5368,-46.7542,21.1159,-18.7235,-19.1907,-16.3714,-55.7046,-1.0260,39.1885,52.3090,43.7201
-36.6389,-61.0103,-43.5119,-23.5497,-45.5383,-11.7532,16.6317,-23.0687,37.3216,-15.7945,-33.5478,-38.5384,-17.8314,14.6256,-29.1265,31.6901,-26.6708,-3.5772,121.4009
-33.4336,-58.2386,-43.7293,6.1772,-5.9046,18.1817,90.8019,23.7539,73.0358,57.9220,-34.0727,-40.6334,0.1285,43.9113,8.1845,70.6650,-26.7997,-7.7157,174.7961
-29.4852,-44.8714,-26.5113,43.6872,48.3327,51.2032,131.3616,22.5247,86.5216,88.0076,-31.6416,-55.9674,8.6056,9.1997,21.4821,24.6861,-15.8494,33.3333,207.4198
-51.3265,-77.4505,-47.2270,-9.1176,49.9143,27.7955,127.6862,-22.7534,105.3974,63.2037,-49.7940,-82.0815,18.0941,-38.7344,5.7285,-32.1009,-49.4943,55.8860,232.9068
-82.8992,-104.9368,-106.4426,-87.6251,21.6978,-20.6843,101.8130,-30.6824,102.4251,60.6794,-77.6180,-92.4697,18.3500,-34.0377,-3.9138,-8.6520,-139.5776,28.7932,215.8528
-97.3135,-70.6157,-136.4451,-76.6672,20.4148,-11.2865,80.4531,12.9484,71.7222,89.4231,-92.4415,-75.6541,8.3523,-17.2271,12.3954,11.7121,-189.6406,-7.6725,144.0541
-68.2958,-17.1337,-84.0003,11.6623,32.2257,35.3586,77.6029,48.3405,48.2646,87.2579,-66.5329,-43.0342,13.0229,-24.5933,28.1476,-21.5445,-106.3436,-6.1278,73.0112
-25.3472,-0.1179,-23.2140,69.4276,11.7044,29.7678,70.2724,37.7016,21.1981,43.8061,-25.3423,-18.1884,21.9025,-15.2780,16.1180,-16.8036,-12.1378,0.2760,21.0132
-30.4991,-14.9282,-45.0034,42.3464,-36.0119,-28.7321,19.6534,-9.6899,-28.5663,-6.4226,-28.1624,-16.6433,8.3426,7.2925,-16.7403,23.3157,-56.0124,-35.7810,-36.8172
-79.4473,-42.4396,-108.1845,-17.7642,-90.5710,-73.3897,-63.6711,-59.1185,-55.1062,-54.7905,-71.9026,-41.0856,-26.9508,-22.3497,-51.0247,-9.8787,-143.8433,-70.2622,-79.3666
-117.8247,-74.0972,-139.1228,-42.2923,-146.6660,-96.4524,-120.4882,-89.9917,-37.1192,-102.0858,-107.2955,-82.2889,-81.5002,-92.0037,-71.7256,-97.0543,-151.3966,-63.3119,-88.6451
-104.7793,-94.9215,-119.2078,-25.2524,-157.9607,-125.4207,-110.6103,-107.5649,-18.8968,-126.2328,-97.5770,-99.6451,-119.8687,-116.5395,-65.5213,-133.5244,-104.1696,-56.4032,-82.6416
-32.9213,-83.0644,-44.1490,11.0721,-80.1281,-127.3162,-53.5882,-86.8520,-9.6117,-103.5939,-32.2437,-54.9856,-72.8929,-77.6853,-34.0589,-109.1979,-23.5487,-50.4324,-48.0960
30.5048,-25.3118,25.2613,43.2324,12.5621,-59.1736,-19.2276,-7.7522,-2.7945,-51.7535,29.6065,15.2839,19.3945,-28.0892,-6.1874,-63.2766,44.5191,-11.1932,-4.7403
18.2381,48.8470,10.3127,28.0620,17.7080,22.8561,-56.3596,49.1044,-39.8602,-30.8280,21.6122,51.9734,32.6006,10.7085,-11.1394,-4.1566,7.1830,8.8590,-32.6258
13.4799,83.1678,1.3359,-18.0129,-14.1095,33.3752,-111.0221,27.2584,-105.8796,-53.8037,17.1050,72.3862,-14.9555,47.6291,-33.6968,47.1920,-24.0946,-15.0023,-98.5891
100.4322,86.8305,102.1899,18.2382,17.9829,5.7615,-108.8250,23.7319,-127.9236,-47.9134,96.5263,107.8755,-9.2677,60.7297,-34.8368,53.9516,106.6979,-0.7266,-107.8506
156.8950,113.9602,174.0950,145.9999,53.9108,18.6843,-112.9806,78.1870,-147.0648,-1.2459,149.0895,122.5306,18.0591,29.5984,-36.2979,19.7676,214.6934,40.0304,-125.8597
91.9510,135.2419,104.0835,199.7360,-7.8009,34.9909,-210.1182,65.1118,-231.4613,-12.1247,90.3301,95.4336,-23.8768,-5.5514,-92.7640,-7.4102,123.4484,11.5154,-206.4552
45.8642,94.0641,51.5956,130.7858,-81.6113,0.3065,-284.4284,-22.0150,-269.0864,-79.0652,48.8880,70.8661,-72.4689,2.1358,-149.6746,5.0921,52.7024,-33.7453,-203.8331
95.7623,49.5406,112.7870,97.2102,-35.6256,-15.4827,-188.6684,-29.0832,-164.2171,-75.6224,93.4340,71.8893,-38.1920,28.3438,-100.9329,23.1735,144.7340,-4.4832,-83.2540
122.9166,71.4734,151.2224,147.7133,63.8601,32.2606,-44.1232,39.8446,-63.5294,-10.2002,114.8475,77.3298,18.7419,24.2384,-4.9649,-1.9120,196.0255,36.0207,-30.7946
94.1101,104.2337,117.6600,160.6618,91.9208,62.7760,-32.4248,59.9192,-79.0464,-3.8384,88.3503,78.9262,24.8075,-3.3588,5.0189,-44.4564,138.2188,43.3447,-61.8202
90.9494,97.8904,104.8094,129.6999,87.9063,55.2002,-61.8641,65.3903,-79.2922,-29.7028,89.4209,78.7084,28.8062,-14.7542,-20.8515,-47.3541,123.4541,80.8625,-16.7703
111.2042,102.3583,121.7631,154.6638,124.9528,75.0071,11.5411,124.2570,1.3913,-3.0330,109.7210,75.7150,77.5448,5.5456,24.5452,-6.8677,154.3315,137.7775,61.5200
129.5615,135.6417,139.1118,209.1624,159.8217,91.8188,91.0333,148.9720,20.6119,12.2189,126.6343,82.1967,117.8344,36.0217,66.9150,41.7720,159.7154,160.4050,39.9921
162.0396,145.9575,169.9100,209.4553,163.0801,53.1588,72.0744,95.7965,-55.6103,-32.7537,158.9633,96.4218,108.5951,29.9586,24.0142,43.9564,173.5909,180.4664,-7.7260
166.5983,124.8633,178.3035,183.7570,175.1566,32.6641,45.7947,64.6108,-83.2934,-41.0543,164.3206,89.6626,98.0787,-23.6277,-15.6746,-24.8031,182.8521,204.5378,14.0954
124.2847,113.0095,145.0583,189.6340,190.3123,77.6278,71.0248,92.5575,-28.3833,28.4921,122.8303,62.0607,120.9579,-50.3757,12.5058,-62.6348,149.0968,192.1599,48.2657
116.2813,124.2225,139.3498,208.5332,188.9819,120.2763,84.1860,128.4337,17.2106,98.4198,113.4256,47.8564,132.6048,2.0705,49.7682,23.0844,137.2803,181.4902,74.4750
141.0368,134.6210,157.6812,203.5196,200.8827,140.0039,86.3512,164.9232,43.7815,131.4384,134.6170,53.8063,107.3886,60.2939,71.0069,107.6253,161.3991,194.4236,141.5902
110.2758,116.5328,125.0805,182.1722,201.4871,161.4097,111.1963,190.1806,82.4004,126.4919,102.9823,59.5254,89.6997,59.6713,91.9335,67.1794,149.2853,153.4220,193.7465
57.0398,80.9420,73.8076,170.7316,129.8604,140.7746,99.1937,153.2459,82.0036,61.8314,52.8256,61.8131,93.2497,61.8002,84.5650,30.1703,112.7083,53.3605,136.2999
48.1036,62.3850,52.5940,146.5454,30.5941,60.2377,24.6528,66.4144,9.0198,-29.1485,46.4368,66.0040,70.1265,109.1505,42.9689,99.5453,71.2641,-26.4092,7.9743
28.1132,37.2617,8.5772,60.3974,-26.9392,-19.1783,-34.0681,-15.3972,-60.3074,-79.3379,27.5650,59.2995,19.3579,135.2237,5.7930,145.6674,-17.3822,-88.9230,-72.5126
-25.8801,-32.4209,-54.9591,-27.6880,-60.9958,-70.7196,-43.3628,-77.0085,-50.6739,-89.0089,-24.5597,25.3592,-1.8372,101.4656,-13.3024,93.3489,-96.6876,-148.0163,-61.4784
-53.3419,-80.4025,-71.4849,-3.1304,-78.4961,-90.2803,-40.9470,-102.7606,5.1612,-83.7214,-50.0698,-29.1328,7.6422,43.4437,-11.5490,29.6201,-98.2318,-135.8876,-29.0864
-74.5288,-47.1834,-85.0872,62.4254,-69.4646,-60.4336,-45.3566,-83.0363,28.7945,-67.2845,-68.6267,-76.9805,-6.0090,-14.1422,5.5612,-8.8007,-119.4899,-62.1242,-50.2671
-118.4386,-22.4024,-135.2385,22.3270,-87.1545,-33.5897,-61.7061,-67.6578,14.7263,-57.7184,-108.7979,-97.2080,-43.5771,-45.8759,-2.5684,-25.9525,-187.3491,-34.1928,-77.7432
-110.2887,-69.1880,-126.6371,-36.1730,-128.3981,-53.2077,-75.2889,-73.1886,23.8185,-55.2223,-101.8666,-91.0437,-62.4364,-22.9241,-31.0450,2.1094,-144.4513,-57.1315,-14.2890
-52.5273,-93.4584,-49.8045,15.0446,-109.8268,-32.7147,-37.9812,-40.8484,68.2685,-28.8539,-51.2560,-72.5375,-63.7801,13.4328,-22.3314,26.6179,-1.5436,-49.9806,107.5165
-54.6172,-50.9630,-35.1730,50.2891,-61.2660,62.2262,34.9291,22.3149,96.2998,8.2087,-55.7890,-55.3234,-66.3817,14.6309,8.6826,5.1555,37.9186,-17.7975,169.2515
-91.0208,-22.0098,-74.1371,-19.4897,-58.6720,106.9712,63.3670,39.7800,90.4803,22.3958,-88.3334,-41.3140,-47.6121,17.4532,15.5882,10.8946,-25.2117,-16.0755,138.6554
-48.6754,-16.1463,-39.0749,-41.7920,-43.1680,54.1136,36.1125,10.4525,62.6974,19.2609,-47.1881,-16.4899,-4.6746,41.4643,22.2952,48.6685,-22.8944,-33.5952,53.6341
30.5445,18.1115,41.2189,19.2307,12.7435,-2.3333,-5.2611,-22.2835,-3.7755,-6.9364,26.5026,18.5619,7.3852,32.1502,27.5970,23.9887,34.2081,-29.5502,-56.3668
38.8297,44.2652,49.6953,17.2428,13.8756,-22.1457,-47.6613,-52.6467,-80.1001,-50.2281,36.0417,27.0778,-22.7221,-17.3943,-10.9577,-35.5159,29.5164,-2.3747,-132.3305
-8.4647,24.9265,-1.1790,-20.9884,-28.5538,-19.1288,-60.5350,-53.1318,-80.5870,-35.6895,-5.3739,-13.2748,-37.0269,-64.5817,-48.4720,-55.9231,-21.2628,34.5606,-113.7374
-51.7539,3.7981,-42.9977,15.9712,-29.6283,13.0357,-22.8545,-5.9000,-23.5631,39.8270,-46.1513,-68.4645,-29.3956,-111.1578,-41.8435,-82.0382,-49.0870,75.6420,-38.8352
-71.5539,-12.1439,-58.8895,48.5938,-36.0446,33.2035,3.7332,14.2393,-8.7984,63.1201,-65.4460,-92.6617,-43.0550,-136.8463,-54.9388,-106.7932,-41.5366,95.6225,23.0271
-39.2572,-45.9508,-23.3022,18.1632,-66.1230,12.6795,1.0842,-16.1766,-9.9818,36.5497,-35.4091,-73.5547,-48.2930,-74.2158,-78.9971,-33.5106,18.8829,71.3914,84.1604
44.3771,-46.9420,70.5387,33.8922,-8.3595,24.3245,51.5760,5.5842,60.2555,78.0198,39.2399,-28.2372,7.3963,37.6851,-10.8621,81.8306,127.1025,43.5878,152.9915
100.7584,5.1546,135.9573,97.8270,109.3216,72.4786,138.7757,74.8025,133.7542,148.4807,87.8659,6.6415,74.2262,73.9860,97.5836,97.4700,182.1941,55.2507,154.3750
82.3899,24.6308,106.1899,80.5472,121.9176,44.0572,132.0172,49.0227,90.9920,112.9092,71.9543,10.6723,77.3710,35.3921,96.4086,42.7454,113.8020,47.8489,57.5531
42.4041,-9.2287,43.3391,-6.4977,35.8786,-44.5876,21.4853,-54.9963,-25.2982,7.9797,38.1314,15.7021,33.8566,25.7655,8.1348,27.2632,13.1673,-27.8320,-44.1121
35.9964,-8.3351,30.1021,-42.1584,-14.6106,-53.8556,-70.1121,-74.9444,-90.4155,-44.6109,33.9025,45.2598,-1.7490,53.4428,-42.1968,46.4316,2.5150,-73.9928,-66.5053
46.1855,35.7575,53.0864,-1.7189,-6.8095,13.5283,-71.9682,-9.2625,-65.1195,-42.3542,44.9722,55.6706,-10.0374,48.6691,-30.7197,43.0945,59.6059,-12.0536,-28.9932
33.1085,42.9058,50.8357,42.8030,5.0354,44.7813,-9.5756,17.6155,3.1915,-33.5698,33.3425,16.2468,-3.3769,12.0235,-0.1108,18.0594,75.8222,60.6235,15.1615
-6.5196,7.9273,2.5164,16.4332,-4.5126,19.0934,44.3238,-8.9197,42.0287,-27.9708,-5.6945,-27.5179,-15.3241,-4.8715,18.1897,8.2472,12.1196,51.1653,31.3353
-44.3811,-17.2123,-55.7654,-72.8177,-36.0766,-20.8341,33.0320,-38.5311,21.9961,-38.8398,-42.5661,-37.3222,-53.8455,-2.9137,8.0480,12.6419,-72.8772,4.0685,1.5081
-60.9883,-26.5420,-77.9794,-110.7026,-61.3947,-45.0721,-5.5660,-60.1116,-2.8326,-61.8448,-57.9276,-34.0693,-70.3862,-14.8716,-6.5922,-10.5693,-103.6336,-28.9138,-44.2541
-61.7636,-24.1814,-64.3811,-47.3859,-57.9910,-22.0239,-5.0355,-45.4775,12.4308,-49.1234,-59.0654,-35.1776,-46.4516,-27.9575,2.7147,-41.1542,-70.7859,-39.5233,-48.1082
-55.0407,-7.0946,-51.9648,-4.2775,-51.4817,21.1039,7.2250,6.3256,28.9950,1.2183,-53.1607,-33.1906,-34.5902,-10.8928,12.1632,-8.1460,-40.8603,-22.0565,-14.9487
-47.2032,-18.3888,-58.7801,-68.9007,-54.4663,-3.9096,-7.6722,1.7634,24.2877,17.6270,-46.2059,-34.3713,-56.4071,11.5374,6.4745,38.9359,-64.0151,-19.4597,3.7987
-53.4493,-72.2747,-74.2969,-150.6161,-52.8212,-80.2060,-7.7744,-80.7352,33.4961,-36.8686,-53.6693,-45.8087,-74.0305,-4.9250,7.5715,-5.9568,-101.8140,-61.1115,0.6078
-66.0191,-82.9491,-75.7841,-141.6470,-56.4958,-87.3944,23.1318,-119.3794,40.7785,-110.5378,-64.4580,-47.2607,-68.7191,-41.0299,3.7889,-80.3753,-89.3650,-59.0692,-6.7228
-40.4833,-16.0833,-31.0178,-51.4410,-48.8891,-20.7182,40.6199,-77.7705,1.8435,-137.2160,-35.5650,-23.7730,-44.8430,-56.2868,-23.5794,-83.8447,-15.8445,31.4244,-17.9657
33.9663,31.0554,61.5282,47.3427,19.4709,6.4380,45.5401,-58.6122,-34.8377,-110.1982,35.9793,1.6388,-3.5073,-65.5634,-33.9077,-84.5876,83.3623,107.2600,-15.5026
100.7366,17.6436,139.0384,92.9146,117.4257,-26.0189,61.3243,-81.5072,-7.8427,-65.5525,95.6770,0.9264,36.3157,-90.9962,0.3201,-131.5968,147.4645,128.2152,10.0585
113.7279,13.9376,145.3815,69.4393,163.3641,-49.4514,59.3999,-82.6996,26.5756,-31.8986,107.6418,-15.9699,53.3863,-113.2598,31.2763,-146.3479,124.7062,156.0264,11.0117
88.9096,18.9162,104.2350,6.2578,150.8224,-62.3601,27.0561,-84.3575,3.2435,-19.1738,86.4779,-23.9313,47.0480,-122.9412,16.1477,-133.1426,49.7615,162.1602,-22.1363
61.9945,-16.8225,72.2247,-48.2752,123.3726,-79.0210,15.9887,-110.5885,-19.1276,-16.3202,59.5203,-27.1452,20.0834,-125.8007,-12.4738,-147.7926,18.1765,113.6420,-6.8414
53.1440,-29.9962,72.9739,-36.1275,114.1064,-35.0628,65.0372,-78.5624,34.6017,6.5489,47.9625,-36.1642,-4.2764,-97.9946,6.8158,-122.1504,57.8580,111.2319,87.5026
67.5355,31.8491,100.7997,51.3675,140.7814,80.1066,149.9681,35.3214,129.5437,46.3792,61.0669,-29.9274,13.5310,-33.4567,76.3748,-29.6681,126.1039,182.6529,185.0665
93.9132,74.0582,138.6799,120.1010,177.7337,159.3130,224.0756,128.4402,203.0164,67.5776,85.6624,5.9825,67.2747,23.1333,138.5558,20.9599,201.1738,205.1302,244.1731
117.0348,48.2713,166.9164,104.5860,196.2533,164.1917,270.9059,162.8112,256.5859,93.3263,105.7059,44.3481,128.4471,62.4775,172.9862,33.2920,258.5225,155.4757,283.9012
122.8844,36.9571,162.0165,58.6417,214.3119,157.3615,289.3278,180.0169,280.5873,165.8571,110.3337,58.3361,186.0398,115.0232,202.9987,107.8157,224.5878,111.2555,276.0316
79.9224,40.7379,88.5638,-2.6943,198.7740,122.4534,240.5539,150.6225,214.0702,217.4692,69.5706,45.8972,180.5506,139.8649,190.6542,169.5854,69.0596,44.7356,176.2976
-22.2406,-15.4334,-47.8888,-117.3700,81.1235,21.6191,104.0669,57.3418,70.4627,176.0221,-27.8143,10.9045,60.1723,71.4116,90.0912,87.7764,-112.0519,-79.2557,34.6392
-115.6077,-77.6243,-152.9538,-190.8929,-64.9518,-45.2356,-35.0746,3.7277,-32.5470,118.0161,-116.2712,-25.1316,-71.1261,-25.3547,-16.9202,-39.0155,-191.1685,-167.4470,-53.9015
-134.9917,-59.6388,-161.6149,-132.2762,-126.1395,-11.8977,-102.6330,30.3020,-51.7558,107.1431,-133.1471,-31.7435,-100.3743,-31.0956,-41.8432,-38.9697,-167.3364,-172.5076,-80.9879
-127.4643,-24.7321,-150.4020,-79.9562,-164.2616,6.4870,-151.3669,24.9269,-71.0336,61.7360,-123.6160,-24.2539,-107.1616,19.0575,-47.1281,34.3367,-156.5296,-172.9231,-117.6778
-160.7609,-46.8416,-193.1945,-146.0397,-247.5869,-54.1431,-210.4108,-49.0313,-122.5426,-42.9863,-152.2616,-40.7596,-169.5029,-6.7203,-98.9580,10.1310,-204.4963,-188.7061,-185.5021
-188.3428,-77.3274,-219.2128,-194.1861,-278.9594,-98.2104,-210.1552,-88.3813,-139.4755,-93.0029,-175.7211,-66.2670,-189.1468,-100.1557,-138.2709,-99.6068,-219.1731,-156.9185,-218.8835
-137.7954,-72.6851,-157.2418,-143.0404,-201.2663,-91.6467,-153.1754,-65.1089,-100.6884,-54.2015,-126.4881,-59.1933,-107.6147,-124.2562,-115.7266,-124.6100,-152.3945,-90.3376,-175.0905
-49.9711,-59.3746,-69.1851,-110.8214,-93.6176,-85.9998,-101.7428,-45.7434,-40.5229,-13.7211,-43.9213,-23.5730,-16.8038,-45.2017,-57.1080,-32.1205,-85.0348,-57.2985,-87.9327
-7.8063,-44.3147,-26.2454,-118.0192,-2.8073,-52.8284,-26.9829,-22.2735,36.7674,4.8724,-6.5445,5.8915,30.0453,21.6991,16.2620,21.2140,-55.8772,-47.9328,3.6013
-5.7110,-11.0742,-3.7970,-55.3178,65.3365,33.7930,70.1819,47.3665,101.1732,47.7996,-7.2361,15.5322,59.1490,4.3988,72.0805,-30.4371,-4.2785,-11.6060,66.0110
13.4284,25.5244,34.8649,45.8228,68.9040,80.9432,69.9994,105.5138,76.9355,90.7394,10.4618,22.6756,63.2697,-29.7335,61.3328,-64.7881,74.4534,25.1006,40.4172
53.5458,39.0043,70.3853,57.6869,7.2379,26.7716,-40.0077,73.3456,-17.1280,49.2574,49.6621,46.6018,26.7611,-0.7136,10.5026,-9.2623,111.7926,-0.9013,-67.2631
77.3605,29.9555,79.3028,-3.7539,-50.5918,-57.5552,-122.5431,-18.0705,-73.3854,-76.4617,72.9524,71.8561,-22.8706,60.0798,-11.7309,52.8328,98.6208,-60.8394,-150.4558
85.7583,27.1210,85.9721,-18.3404,-52.2662,-90.6319,-136.9403,-78.2872,-74.9679,-160.5083,81.2349,69.6555,-48.7711,68.6648,-7.6958,47.8231,90.9959,-62.4433,-161.6999
109.5222,48.5504,123.0477,39.4849,-2.2090,-74.0144,-147.5198,-79.6056,-87.6911,-120.8728,104.3482,54.8112,-29.4873,22.3739,-13.0315,6.7649,116.6877,-3.6232,-163.6062
137.6659,63.9120,160.4682,72.3154,44.2364,-60.5497,-158.5292,-69.9651,-114.5180,-54.0092,131.6159,58.7618,12.4881,-4.0584,-25.5353,-9.6409,140.2351,28.4561,-175.6604
135.6263,48.8060,145.5820,11.1068,47.1638,-77.6895,-148.2185,-79.8392,-125.2455,-64.4923,130.8121,74.0734,22.1909,14.6701,-39.4793,10.9347,112.1091,17.5017,-150.4727
120.2933,44.4988,109.0509,-71.5792,54.3103,-78.1093,-124.3787,-70.3123,-135.7322,-87.3618,118.3065,89.8121,10.1838,30.9636,-58.3120,31.5717,61.7761,33.2708,-88.7353
128.1268,76.8778,117.7463,-62.7627,100.5126,-18.6651,-74.5392,-12.8753,-141.2292,-53.4196,127.1283,112.2096,32.6312,28.9084,-64.2454,31.7030,77.6068,88.6233,-24.0958
148.9632,101.4545,157.4509,26.1657,133.3405,49.6611,0.6700,48.4607,-95.8993,-25.2534,146.3240,122.7861,69.5883,42.2083,-37.5579,41.0893,158.3389,131.6093,45.7990
172.5932,101.0214,192.8273,105.2065,155.5348,75.2922,60.3609,77.1022,-8.5837,-22.7464,166.4513,110.4874,85.6414,77.1936,18.5386,77.0494,224.3419,152.8967,121.6647
211.8757,103.6700,238.2443,144.0168,221.9491,84.4930,98.4977,90.8283,65.4136,23.0315,200.5470,106.8783,124.5236,111.6153,85.5125,113.2473,259.8127,161.8423,168.7085
230.4599,96.8606,264.3487,160.1216,270.2489,87.5055,132.1432,93.4739,108.6522,87.4981,215.5074,112.3359,190.0938,132.9528,135.9722,127.6869,267.5902,126.4911,155.5978
182.2995,72.2642,211.1885,154.1885,231.5057,67.1496,144.8305,77.5845,121.3450,89.3933,168.8983,94.1502,201.2611,128.2922,151.5201,113.6132,204.4016,56.4872,93.5570
111.4065,73.5072,122.3333,115.3479,179.7615,55.2901,133.7368,69.3384,90.5948,51.2465,102.5344,73.3289,149.2874,96.9922,136.6161,76.6486,98.0454,26.5479,30.8374
64.4574,88.3026,61.8757,41.8002,146.7335,59.9675,111.8086,63.4100,33.3968,23.6913,60.2928,72.2347,101.3920,65.6182,96.7003,47.5748,19.5993,33.3020,-8.4598
2.1612,53.3604,-9.8163,-29.6147,57.1344,29.6668,56.7175,18.0057,-18.2205,-7.6295,4.1003,47.3491,60.9768,38.1193,31.6781,32.0698,-58.1770,-2.7152,-48.8334
-79.9117,-4.2763,-101.3995,-31.8901,-63.3551,-14.7233,-23.6525,-29.1154,-64.4924,-42.3032,-71.8289,-7.7610,-2.6055,-5.9116,-42.2525,-3.5954,-138.6232,-60.7651,-79.1717
-118.2736,-25.7194,-138.2422,24.2044,-126.3153,-9.0893,-61.9328,-12.4956,-93.8247,-49.2854,-108.1777,-39.8888,-66.3160,-52.1622,-95.6845,-52.0437,-132.1761,-59.9459,-48.1036
-124.8926,-47.1965,-136.9496,34.5037,-151.2000,4.3121,-46.3426,15.8967,-71.0947,-32.3232,-116.0805,-55.4730,-100.0205,-74.8658,-107.2299,-77.0039,-84.1857,-43.5039,10.3003
-149.4325,-93.6147,-166.7385,-32.0127,-169.5939,-31.9129,-32.6400,-12.3318,-24.9086,-14.1231,-141.6686,-81.8939,-105.5415,-75.3233,-83.8538,-77.3332,-123.8825,-86.0752,11.4125
-145.5961,-104.1886,-174.7317,-84.9692,-154.3451,-70.3875,-38.4732,-48.2024,-26.6399,-12.0844,-138.7103,-76.0644,-86.8667,-51.1220,-65.7176,-50.4233,-173.0202,-124.4665,-28.5562
-81.4238,-72.8323,-110.1765,-75.2892,-121.4450,-80.4330,-44.1551,-51.1756,-68.3755,-37.4379,-76.3814,-27.3646,-56.8259,-14.8062,-74.5991,-8.2193,-113.8316,-101.3106,-51.4755
-40.7453,-64.0436,-64.2372,-60.9818,-103.2043,-97.2189,-45.0414,-65.3321,-91.7924,-66.2266,-37.7758,-2.1911,-47.7306,-12.2093,-81.5599,-16.6389,-60.3475,-90.5987,-68.6398
-65.0857,-73.6366,-91.9857,-87.9814,-92.0274,-106.5191,-46.6026,-88.4373,-99.3958,-70.6924,-62.7802,-10.7066,-71.3638,-38.7969,-77.5066,-69.1705,-104.8023,-118.1435,-82.8043
-81.8461,-58.9928,-110.1651,-108.8403,-97.4820,-75.8929,-58.0762,-69.0618,-112.4985,-69.3487,-77.5563,-7.7996,-92.3898,-45.8685,-93.8384,-74.6645,-120.3847,-99.2964,-60.0834
-45.9916,-36.3734,-58.8067,-54.0666,-105.3708,-38.6675,-69.8728,-24.0243,-98.3654,-66.5190,-39.7232,2.0138,-62.9760,-41.3159,-109.7391,-44.8355,-28.7799,-26.1485,-18.9580
17.2312,-19.4300,27.8026,46.1009,-50.8462,-17.4405,-43.5940,5.6225,-45.1448,-28.9076,20.4677,7.3298,10.1344,-39.6651,-71.8659,-37.4601,80.1255,27.5203,3.7323
71.1423,12.7359,90.6344,83.2890,37.7809,4.6940,6.4874,24.3083,-18.1815,23.8391,68.6935,28.3388,57.5801,-15.6296,-17.3781,-15.9228,124.6248,49.8232,7.6590
71.7535,37.2151,80.3190,34.2005,57.6837,9.7371,7.9885,25.7121,-62.4050,34.7483,68.9405,46.5135,40.1196,-8.4120,-26.4003,-2.5587,86.2676,53.9756,-16.8018
18.9713,17.8372,13.3835,-19.2983,19.4969,-16.0397,-36.2926,-2.0600,-125.2783,14.4109,20.7016,32.7834,1.4027,-60.4955,-81.7777,-65.2315,2.3650,30.0312,-51.3532
-2.8718,-11.5201,-12.3287,-44.0711,4.7996,-30.8186,-53.3788,-23.1407,-130.0621,10.0372,0.5941,19.3577,-6.4198,-76.6759,-104.8979,-87.6062,-25.9097,14.4903,-24.8102
42.8287,-9.0100,38.5857,-61.9889,24.0468,-13.3349,-29.9343,-13.6000,-75.2801,23.2646,43.5679,32.7907,16.5798,-1.2425,-74.9065,17.1815,31.8013,40.2827,52.1446
75.2573,5.1484,81.1336,-46.6462,52.2916,16.1386,8.2660,5.7103,-18.7971,34.2425,73.1731,43.8065,41.5390,46.2526,-31.1741,72.7423,84.5665,59.8509,97.2720
48.8867,4.0742,63.2486,10.4304,70.0557,47.6110,57.9411,31.5592,14.1151,37.4382,46.4260,32.4154,44.7849,10.9331,-8.3955,1.2783,87.9237,54.8130,123.1152
19.9944,-6.7520,33.6112,46.9411,64.8452,62.9574,98.6970,65.3568,52.9388,34.6931,19.4016,8.4916,39.3568,-24.3430,-0.5390,-43.5637,83.3663,78.9259,171.2191
25.4315,-14.4716,37.5427,58.7533,80.2102,52.2511,127.2794,84.3758,111.7436,43.3917,26.2388,-16.3701,65.9290,-47.5234,25.5691,-50.8124,90.9315,131.8612,199.0118
43.5186,-6.7977,64.7423,95.3045,151.1223,65.8290,199.4323,98.6018,166.4768,86.4108,41.6630,-25.7994,115.8533,-68.9789,78.2844,-82.3254,108.1356,163.2570,213.1175
56.5877,10.8479,82.6869,111.4835,212.2867,117.1106,305.8402,125.4828,206.7098,148.1727,49.7776,-17.7024,139.0483,-18.2970,128.8666,-26.0299,117.0492,165.9726,274.3393
52.4402,7.5030,64.0650,47.2850,208.1253,122.7541,338.7730,122.3664,230.0174,175.6446,44.3828,-15.4978,137.7286,67.4707,153.0522,98.2060,69.8635,140.6788,310.2509
13.8055,-14.6050,9.2623,-20.9202,160.4858,68.3125,260.1572,77.6754,203.6070,138.3207,9.8604,-24.2427,126.2019,52.6273,136.2328,78.1003,-18.1273,82.6464,225.1845
-47.0199,-18.6432,-51.7078,-8.3450,74.6438,47.1764,142.7839,57.0269,123.9010,69.5866,-45.2270,-34.6571,64.5592,-31.5323,71.8057,-44.8376,-62.2396,36.5528,115.2894
-87.9769,-16.9071,-85.9984,36.2960,-24.4731,64.8748,63.7168,64.7221,70.0137,29.3429,-83.1502,-57.1941,-26.6940,-63.2504,8.0524,-73.2374,-49.2848,32.1863,98.3992
-88.1459,-40.5848,-82.6595,45.7881,-47.8030,48.1680,66.2935,46.3283,102.5142,34.8537,-84.7594,-85.5852,-41.8026,-51.4200,18.3344,-43.8612,-37.6033,28.3915,116.6463
-82.0396,-60.0784,-77.4047,25.6627,-8.7797,18.8494,119.0214,25.2952,168.9938,60.0723,-80.9481,-96.2622,13.8262,-41.3674,82.5251,-39.1656,-61.2560,1.8903,91.3467
-110.1636,-62.2782,-111.8476,-14.2607,-24.2587,20.2138,116.1316,31.7010,193.7038,81.8269,-107.4905,-107.2028,22.2084,-32.4854,104.9934,-19.3509,-114.1422,-21.4237,61.0225
-126.3617,-87.7306,-127.6863,-57.6360,-70.8239,11.2706,59.6054,21.1370,190.9345,92.2021,-121.9860,-130.7547,-15.3722,-45.8055,71.5037,-13.0687,-118.7206,-15.2304,85.9604
-54.3146,-104.7747,-36.3447,-42.1259,-20.7852,0.3835,88.1234,12.0899,215.3712,102.5321,-54.4713,-120.1251,10.0301,-60.6081,67.7252,-33.1268,4.6766,46.5841,161.6871
42.5690,-51.9802,78.7704,34.2457,96.0759,50.1854,206.8387,66.5724,262.7155,130.3179,36.4409,-71.8742,92.4296,-22.0962,126.6397,5.0349,136.6863,135.4176,225.3004
24.5349,-5.9024,54.9343,57.4295,128.3201,100.1918,253.2175,106.2158,285.4892,141.7000,19.7217,-61.4355,119.7683,8.9816,172.5913,38.6690,87.5527,138.7297,212.2608
-83.1376,-49.6939,-69.6392,-21.3092,40.8768,62.2057,184.3783,45.5370,263.3144,88.2380,-81.4422,-100.8794,64.6301,-30.4023,145.3573,-26.3838,-65.9805,41.5226,141.5479
-134.7916,-89.0457,-132.7498,-84.2734,-56.6998,10.0879,108.3128,-12.0998,208.0894,16.9441,-128.3815,-115.2038,7.7285,-48.9362,84.1465,-50.3588,-127.5357,-17.7731,88.1934
-114.1917,-48.2052,-122.6665,-51.0175,-77.3890,23.4597,68.5026,12.6181,140.1574,0.6037,-106.1580,-84.5441,-0.4003,0.4808,48.7459,31.0405,-120.7324,-5.8154,67.1257
-111.6067,-22.7418,-127.1273,-5.4655,-57.9435,39.0803,35.5822,24.6457,90.8011,14.5342,-104.1656,-63.6377,2.2076,23.0460,38.8593,46.9392,-145.2897,-36.6859,47.8872
-133.0442,-59.2944,-146.0030,-16.8983,-69.9044,15.9374,7.6829,-8.5379,74.9208,26.1128,-128.0605,-73.4049,-24.9651,-0.9443,27.6552,-10.4439,-162.9195,-105.0295,34.5013
-122.9649,-75.8503,-137.2705,-42.6593,-97.6653,-6.1905,-10.9033,-10.2156,51.5081,45.2735,-119.7307,-78.4526,-58.9327,-7.6672,1.0601,-0.4101,-138.3929,-102.6221,32.9493
-78.9251,-55.3161,-101.1427,-49.5409,-98.0212,-30.5187,-20.1358,-6.1816,-12.6930,19.0956,-75.4052,-52.4810,-68.9694,-6.5177,-42.7709,25.8695,-96.7658,-48.0417,18.7958
-30.6689,-37.1712,-43.0492,-26.2444,-90.2247,-53.9734,-11.0480,-48.2065,-61.6608,-79.0787,-27.3063,-14.0908,-58.8009,-9.3147,-69.9079,1.4676,-23.6436,-20.4146,-15.7636
2.9986,-5.7956,15.6609,43.5289,-85.0230,-28.9993,-8.9909,-66.8960,-38.7914,-127.5077,4.5674,3.3249,-32.2095,21.7080,-36.4312,17.9902,50.0012,-20.9506,-55.7878
0.5311,16.9882,11.9296,64.2139,-68.3116,-7.0889,-45.5135,-44.4821,-4.8529,-70.9994,0.3308,0.6570,-10.6938,64.3491,17.2104,72.3965,15.6196,-61.2743,-95.4231
-45.7909,-27.4779,-68.5823,-65.2669,-87.9004,-66.2385,-95.1793,-65.2523,-40.8824,-28.7497,-46.3195,-1.5434,-46.3736,69.0803,3.6896,72.6517,-113.0860,-160.2229,-130.5931
-98.6166,-78.6573,-138.3972,-175.2009,-167.4970,-110.5643,-135.1888,-96.9234,-108.3421,-34.7344,-97.4228,-9.1216,-118.1230,46.2353,-65.0151,46.6549,-177.9727,-226.1066,-149.9183
-105.3859,-52.3613,-120.6435,-66.7695,-212.2243,-49.1001,-177.4287,-51.5409,-129.3562,-10.0912,-101.7801,-26.1254,-131.8474,12.6080,-103.7603,29.5552,-109.5783,-180.6846,-147.9632
-60.6740,-11.7391,-52.1415,72.5905,-174.2469,-3.5845,-197.4759,-5.5311,-118.8056,9.5407,-57.4880,-22.9586,-92.0094,-14.9792,-98.2978,1.1787,-10.8740,-110.4735,-135.4697
-11.1843,-23.5329,-11.7760,2.4805,-134.6527,-60.5252,-171.9393,-50.5799,-134.2410,-39.0505,-11.2536,8.5871,-89.3770,-0.4876,-97.1550,2.6662,13.8690,-102.7680,-132.2174
12.1072,-31.3051,0.0710,-106.8540,-129.0898,-102.6740,-149.5059,-105.8953,-175.6013,-91.7062,10.4313,35.1137,-118.8999,25.0569,-118.2725,30.0704,5.4648,-101.5833,-134.9804
24.0235,-1.9755,25.5712,-45.1826,-113.1399,-65.8214,-152.1138,-95.8276,-199.8449,-107.5481,23.6310,39.9880,-116.8987,-0.1417,-139.9744,-1.4481,46.0323,-51.5957,-120.0620
33.8325,23.1875,48.3637,42.7014,-78.6294,-33.8816,-118.7604,-70.7607,-173.1057,-121.1878,34.4388,30.8496,-93.4518,-36.7031,-123.8533,-49.9976,85.8045,9.3606,-97.7675
41.2250,43.0415,50.2173,25.9060,-20.0537,-28.9362,-28.6442,-53.3605,-90.4735,-111.1437,41.1108,17.0625,-56.9965,-30.4874,-46.1004,-31.4792,60.0315,59.5178,-90.1606
72.9012,77.6480,82.1715,31.6486,88.7695,-1.4969,60.4812,-10.8585,5.1002,-61.3681,71.1074,21.9567,28.9862,-21.8084,49.2027,-19.2296,57.0532,119.0406,-69.1727
121.4249,102.6177,142.1791,98.7779,189.9908,31.0998,104.7996,23.9754,43.8166,-32.3629,118.1451,50.0758,120.3197,-27.6815,87.9312,-49.5402,112.6705,162.2703,-24.1621
119.3803,105.2357,136.4701,96.9596,192.7930,38.2895,100.8070,5.2090,15.8667,-42.4520,117.0837,61.0162,127.9704,1.7357,69.4822,-16.4438,91.0396,147.1714,-7.8855
68.0193,107.0235,71.9929,42.5219,128.3352,48.8336,72.2073,-19.7843,-10.0354,-62.2705,69.4426,47.2059,84.8772,50.8783,48.8846,63.6098,1.2010,108.2990,-22.6532
45.5674,112.3906,55.9923,68.6264,87.6610,76.2941,56.7246,4.1368,0.2901,-92.0200,49.9734,47.3350,76.9177,46.3953,40.1260,50.8376,15.9396,106.7759,-17.0413
45.9122,106.1217,68.9639,136.4206,73.3398,82.7189,44.5946,32.3288,-4.5629,-108.1850,51.1154,49.3884,78.9115,-9.2815,19.3625,-35.6680,77.1937,117.9751,-15.9906
8.5405,69.8722,16.7280,90.4949,39.3100,35.1260,3.1547,-3.0044,-42.7309,-85.8617,13.7416,21.1042,34.0059,-35.7066,-8.4250,-58.0403,2.0174,66.8953,-53.5931
-31.9257,2.1988,-54.6797,-57.6477,0.0134,-43.9299,-20.9150,-70.0068,-45.6825,-73.0367,-28.4419,1.8257,-12.0910,8.2727,-8.4732,-2.7110,-118.3334,-39.9102,-62.3113
-28.3134,-43.0720,-62.6282,-122.6591,0.5883,-77.7153,19.4705,-76.9206,1.6659,-75.8631,-28.2314,19.4863,-0.1619,60.7740,23.8460,32.4407,-122.1976,-109.3280,-19.8193
-28.2429,-17.7625,-54.3346,-37.9127,16.1824,-33.5066,45.5198,-14.4135,8.8471,-28.9935,-29.2031,25.2742,21.6874,50.2693,40.3521,15.6023,-91.3074,-103.6653,-25.0753
-53.2884,23.2949,-76.3384,30.5075,-21.5544,5.2580,-15.0108,30.9589,-56.4605,34.7307,-53.0411,8.9937,-15.0752,22.4430,9.4088,16.3608,-110.4633,-98.3663,-102.3209
-50.3739,8.5814,-79.0307,-26.0289,-94.2037,-26.9752,-95.8447,14.6886,-106.7494,34.3567,-51.5033,18.4222,-70.4909,52.7926,-27.9093,67.7243,-102.9466,-148.6915,-152.6494
-19.6541,-27.3441,-45.0508,-77.5627,-115.9182,-61.2158,-125.3559,-9.4895,-89.0941,13.5613,-23.6183,41.8201,-67.4709,93.8259,-28.3977,98.8826,-48.7748,-193.8118,-133.5608
-10.0375,-32.8396,-21.5720,-39.3730,-89.1046,-36.6986,-118.5971,6.5813,-47.2876,35.0030,-14.1371,38.3703,-30.0276,80.4670,-13.0918,71.7474,-10.0527,-178.0125,-88.7102
-15.8560,-37.1912,-16.8250,-30.4677,-80.0152,-6.7668,-91.0991,33.6960,-13.7945,64.3956,-20.2885,29.1107,-24.6201,58.6605,-4.2774,43.6653,17.3032,-155.7375,-46.5331
-6.7681,-60.3968,1.8871,-80.5491,-68.1573,-4.1926,-46.3117,27.7360,24.3668,83.3382,-14.6700,33.1666,-24.7192,62.1786,15.7539,32.8797,52.6651,-166.3985,-11.3785
12.5438,-59.3321,37.0766,-63.2037,-1.7437,15.1739,-6.9577,4.3805,65.9163,115.7636,2.5834,24.9315,24.7272,56.4373,50.2240,16.8975,67.3537,-146.5045,18.4854
22.9043,-21.6689,50.2692,-3.8176,69.3724,53.4598,31.7618,8.8923,92.6121,141.9468,14.6019,8.8907,77.5960,61.4052,80.9261,43.3028,39.7040,-81.0912,48.8349
