Fp1,Fp2,F3,F4,C3,C4,P3,P4,O1,O2,F7,F8,T7,T8,P7,P8,Fz,Cz,Pz
12.7758,-8.0096,7.5612,27.2232,19.3462,-2.9336,-12.8054,7.1684,14.9447,1.4836,-1.7542,-4.7058,-12.7987,26.5215,-24.4190,2.5251,47.8928,31.4197,45.1166
27.1546,-36.2781,-8.8114,-1.3897,65.3108,-10.2259,65.8166,10.3281,82.3735,25.1820,-12.9157,-6.5817,25.5972,44.0114,47.0905,20.9302,-14.0531,-52.8176,8.9654
23.7506,-38.1372,-18.9410,-29.4467,123.8826,-1.0110,126.2405,41.9175,103.1701,58.8560,27.3115,1.9069,64.8953,78.3475,97.4133,32.9201,-63.3468,-118.3949,-21.7474
-0.4401,-40.8474,-46.1524,-46.3850,110.8227,5.0677,92.4081,57.3618,101.0951,70.6649,28.9429,2.0037,57.1483,90.3720,88.2527,39.5093,-92.9584,-132.3643,-50.5500
-10.2664,-60.5715,-116.7649,-24.8174,-9.9771,-9.9558,-9.8342,24.8765,69.0955,37.1469,-24.6450,-3.3987,3.7661,62.3887,42.7634,38.1153,-73.7825,-127.3861,-76.3834
-4.0450,-66.2485,-168.6731,27.8621,-104.3214,-0.9029,-82.0615,24.7341,-10.1426,14.1320,-41.2901,-0.8662,-31.7765,59.9647,-1.2757,29.8381,-2.9448,-91.2306,-47.8221
-11.9419,-55.9157,-137.4405,48.1931,-61.2742,56.8442,-59.9561,102.1134,-36.5095,58.8504,-19.5310,-1.8154,-7.8703,108.3959,-5.4584,32.7562,29.5412,-18.8230,27.9512
-19.5072,-41.5298,-49.3004,21.9765,30.1519,97.3239,12.0219,157.2117,15.3969,111.1081,-23.3393,-8.0993,37.9166,139.2288,28.3516,43.8175,-6.3691,11.3061,56.6656
2.2571,-9.7851,24.1340,8.5815,51.4942,72.1142,36.3535,122.8485,-5.9922,90.0225,-29.9623,0.3303,49.6353,126.3517,39.3151,34.6910,-18.8301,-30.0354,23.4850
23.6382,11.6882,23.9291,20.1856,29.1273,31.0177,-0.1153,70.2561,-117.4139,33.8679,-13.2440,12.8770,30.5904,111.4618,11.9622,10.2210,7.2314,-59.8502,9.6206
12.3195,-22.4019,-38.1492,5.6585,46.7390,22.5799,-14.1930,52.8394,-139.3999,14.9697,-19.6809,1.3669,22.6067,97.6741,13.1987,2.9014,-16.7299,-43.7327,22.6921
-5.3179,-68.5017,-63.9558,-44.8383,110.4642,19.2754,31.5342,34.2262,-35.9733,22.3062,-52.1352,-21.4036,37.3346,63.6857,58.3200,11.9285,-95.3230,-40.4361,8.6270
-7.8744,-65.2405,-18.6476,-87.2928,137.9497,-6.0213,68.4752,-2.1358,49.4031,18.3508,-65.7236,-28.5936,44.6777,23.8786,77.1441,14.4651,-151.8808,-61.7856,-19.4603
-11.1673,-41.4560,5.1187,-85.9493,73.5673,-27.0268,38.9358,-28.9171,48.1843,1.3369,-70.4935,-24.3646,24.2432,-6.1093,48.4552,8.4545,-145.9481,-55.2672,-30.5180
-11.9705,-31.5981,-17.9551,-41.8774,3.4317,-28.3562,-11.9780,-42.7311,-4.2990,-23.5502,-84.3449,-17.6556,-0.3159,-19.8281,26.1820,-0.4425,-77.9608,-12.0535,-46.2390
1.2292,-18.3993,-10.5491,-3.1494,30.1081,-42.1819,-17.1008,-60.8237,-57.3236,-49.2916,-83.6694,-7.1668,1.0943,-4.3003,37.4876,-10.5960,-6.6826,14.8574,-80.8914
0.0010,-7.6911,0.9325,-25.4567,74.8600,-86.6375,-1.5718,-90.6029,-68.4715,-63.8776,-72.1635,0.4497,13.1777,12.6309,60.5778,-13.5299,-33.2424,-22.6557,-138.3105
-33.4462,-11.5574,-56.5777,-90.8829,22.7062,-134.6767,-35.6885,-137.6236,-60.9297,-83.0035,-68.8752,3.9217,-0.3456,-23.1390,67.5407,-12.0811,-141.7252,-112.4341,-238.5209
-56.4609,1.0191,-102.9557,-128.0885,-59.2919,-169.7830,-105.7579,-200.9085,-81.5467,-127.5166,-57.5645,12.1710,-38.2563,-95.1243,41.5751,-22.8208,-194.3986,-183.2562,-335.5143
-34.1451,25.8971,-60.6699,-112.9725,-78.5435,-203.9770,-134.6711,-257.1781,-81.9829,-171.4744,-46.0877,17.0031,-70.1529,-137.6008,-1.6166,-38.2526,-149.6682,-185.4923,-334.4743
1.6739,9.8219,-29.5023,-83.2357,-72.3800,-226.1178,-104.6598,-275.3862,-20.2499,-177.1724,-65.6630,5.6287,-77.8467,-135.6199,-15.2614,-36.2306,-102.3297,-150.5018,-250.9321
7.6491,-37.6545,-75.3826,-79.5312,-54.1952,-210.5914,-54.0249,-244.8043,24.4642,-148.1358,-81.5261,-9.4600,-57.2094,-111.5583,16.1889,-23.4547,-116.8091,-130.0622,-182.7432
-10.0548,-56.0542,-107.0237,-107.2871,6.9027,-177.1490,-7.1119,-189.7223,7.8350,-109.1941,-49.5241,-13.0573,-20.0603,-75.0046,49.6944,-17.9891,-169.2586,-130.5980,-147.8444
-21.8673,-45.0931,-90.0464,-129.9685,31.8338,-161.9915,6.6514,-152.8459,-7.5042,-82.4939,-16.2585,-11.9016,-5.1525,-48.9109,41.5957,-16.6369,-204.3028,-133.2208,-110.6231
-21.0533,-48.0443,-98.5230,-115.5470,-37.3943,-153.5910,-31.2287,-146.6971,-1.8020,-80.7989,-29.9582,-16.6104,-30.1823,-60.1412,1.9618,-14.5600,-189.7331,-117.5690,-69.0986
-15.6925,-68.8184,-125.3347,-90.6446,-73.8348,-130.1182,-51.2518,-138.6989,7.3349,-82.0639,-49.1991,-26.2184,-47.8406,-77.6289,-18.4531,-14.2406,-157.4283,-80.0511,-20.2803
-4.8101,-74.4511,-96.2224,-89.5779,-0.0503,-109.6847,10.4766,-108.4792,47.0705,-54.9609,-30.0788,-29.8950,-19.4734,-54.5216,6.2367,-8.6521,-151.3082,-63.2152,24.3086
9.1383,-45.8556,-33.0770,-88.3498,47.5466,-103.6927,68.0108,-82.7413,93.5588,-23.7522,3.9287,-16.8989,10.3172,-22.6274,32.9663,2.3523,-142.7476,-98.7767,7.3458
10.6625,-6.2692,-7.4074,-62.9382,-7.9009,-83.6161,30.2670,-74.8418,81.7799,-23.0325,18.5775,1.7901,-4.2058,-33.6025,14.6853,4.5746,-98.0226,-128.1966,-53.8357
-2.1274,4.4152,-1.3199,-42.0920,-30.0162,-34.0590,-9.0325,-42.1570,58.9729,-12.6937,11.1599,2.0189,-15.8901,-41.2534,-8.4047,3.9387,-62.6956,-85.7134,-50.0941
-9.6658,-13.5591,39.8388,-46.4816,68.9515,17.1810,62.1843,33.6122,91.8628,46.6109,-12.3164,-13.3960,32.6406,19.0862,32.7887,17.9785,-76.4562,-12.7885,20.7735
-0.7640,-31.6472,86.9963,-53.8425,180.2282,40.9426,165.8985,85.6157,113.4762,94.4550,-51.5231,-23.1122,99.1720,88.6628,112.0631,32.3815,-101.7261,18.2669,50.3041
16.9051,-46.4180,82.1255,-43.4614,203.7612,42.8694,184.0137,67.3674,72.8253,73.6451,-90.3715,-26.3280,111.6262,82.1704,144.3901,25.6839,-91.7714,18.5974,34.6248
30.7589,-54.3158,58.1482,-16.7503,183.2710,47.8417,154.3093,40.4030,45.4619,39.6375,-88.7326,-28.3863,86.1679,42.1866,119.0448,12.0338,-42.5894,40.0387,54.3545
33.8332,-28.3772,87.6361,14.9262,184.4009,58.8090,168.8478,58.4544,64.3480,49.9321,-35.8965,-19.9753,84.9574,42.1019,98.6985,7.7993,23.0732,93.7878,98.0703
37.0537,15.6572,149.9066,37.5392,199.2490,49.0980,216.4810,71.3140,68.8116,63.0994,12.3466,-4.3796,107.5464,59.8074,108.5149,3.1140,72.7571,140.3993,111.5333
54.4576,19.2077,154.6164,44.4015,189.7081,11.3122,223.3992,39.2281,56.9212,42.1133,11.0910,0.0363,104.9569,61.8776,110.6736,-1.5019,83.0917,119.9767,105.0595
61.9301,-20.0040,73.6829,34.8194,128.3374,-16.3507,164.0874,11.7913,80.9023,26.7495,-10.7030,-6.1912,66.4232,59.1057,83.3643,10.1132,50.5976,30.8111,85.8167
27.4826,-47.2126,-22.2588,10.5893,29.2705,-5.6997,83.0130,21.1660,126.4223,41.0163,-23.1587,-9.9406,28.1828,42.3480,56.0586,29.7964,-6.1496,-35.7990,29.4472
-17.5076,-38.2777,-47.8844,-11.3674,-27.6494,14.6067,31.4356,29.0263,139.0193,49.3580,-36.1047,-9.1099,13.0639,11.0562,48.6313,34.7525,-41.3076,-27.3670,-41.8589
-23.1228,-10.7263,0.7255,-17.2064,6.5785,2.8092,7.4055,7.8728,106.8879,28.5191,-40.4506,-4.7369,7.1602,5.9283,36.4240,24.0919,-31.0105,-12.2940,-82.3671
-6.5549,9.7362,47.4580,-19.8012,64.2400,-35.9837,-10.0770,-26.4527,57.5900,-3.7388,-29.5670,-0.0093,-1.4878,23.7700,12.8970,10.2510,-15.0465,-24.9119,-88.2679
-1.5575,2.3537,49.7702,-19.0617,88.6787,-61.2866,3.9711,-45.0843,32.2798,-19.3942,-40.3344,-4.7194,4.4272,32.2308,19.9230,1.9678,-12.3165,5.7256,-65.4077
8.4181,-21.4316,49.1266,5.9186,118.6898,-50.9416,72.8567,-27.4734,62.7181,-2.0108,-66.9997,-13.9243,35.7999,48.9254,68.1125,6.6132,16.5792,74.7226,-19.2339
29.3984,-25.7255,68.5820,30.9195,143.3107,-21.1942,143.9496,4.9712,131.5912,30.7681,-52.3937,-11.8398,63.2944,58.9767,104.5048,19.1192,51.3392,79.0089,9.3539
24.4021,-12.4901,69.4969,9.8143,99.1178,1.5061,159.1334,7.9276,178.0027,41.9181,-17.8910,-6.3216,62.7334,5.4466,103.6179,21.5613,18.3589,33.4581,-2.8402
-10.3173,-15.0483,41.3660,-35.6527,47.2863,3.4634,149.5975,-5.7554,164.4541,35.2878,-24.4422,-13.2384,61.0642,-50.6917,104.6247,13.0416,-58.7709,46.4742,-11.5909
-30.3900,-30.9306,13.8776,-54.1781,75.4288,-18.2526,169.4631,2.8642,115.1625,39.9786,-31.6109,-19.9732,82.8868,-13.8063,126.6230,8.4085,-96.3399,91.8916,15.7711
-16.8525,-32.8104,-3.7605,-46.8692,107.0526,-45.6328,199.7749,13.4844,79.7224,45.9656,11.3881,-11.6913,99.8974,40.7213,136.0695,7.8504,-88.6499,70.9053,48.4858
6.2200,-21.1877,-4.7207,-32.4192,68.7437,-42.3263,196.7731,9.8164,76.4074,40.6510,45.6372,-1.5802,88.9495,26.1768,116.1345,6.4686,-67.2863,18.3639,62.5563
15.8831,-12.0128,20.2820,-11.2217,34.2703,-5.6849,165.0917,32.9394,81.7364,51.5255,28.2954,-1.3844,73.2642,23.1206,87.3711,12.2507,-37.2969,13.8390,75.5909
13.5641,-8.3060,40.4147,3.7313,31.3926,24.1773,124.8091,79.4859,72.4397,79.0470,8.9037,-3.4165,63.8597,72.1681,56.7993,24.2017,-19.5493,20.7491,97.1625
14.1482,-10.1211,32.6944,0.4587,-1.7089,35.8138,77.0474,97.6972,60.2982,87.9831,5.3447,-4.8545,42.6967,88.2779,16.6458,30.5547,-32.0260,-14.8529,115.9177
21.4347,-20.2835,25.1167,-5.0454,-36.8234,51.7440,38.8018,100.6263,71.6312,88.9213,-15.4550,-10.2414,20.6866,76.8257,-12.4086,36.8256,-48.6647,-58.7052,123.3335
26.0773,-31.4845,26.1154,-2.0888,-21.6597,55.3914,33.4243,108.1207,97.4303,98.5356,-42.3420,-13.1903,20.7508,98.8401,-3.6533,48.1040,-49.0698,-79.3659,101.3282
30.2265,-24.0817,15.7460,2.2873,-15.9029,13.5628,24.9694,62.6446,84.4369,67.2172,-43.1846,-3.5409,15.9052,93.3360,13.2962,42.9847,-34.4331,-106.6701,24.7094
37.7661,10.2556,4.8772,5.7512,-62.5111,-43.2124,-44.3269,-34.5119,3.4357,-16.5304,-23.2699,15.7422,-24.7614,24.6257,-15.1272,14.8773,-6.1599,-158.9728,-83.2932
30.3646,43.8938,-1.6430,5.2996,-111.9600,-55.7646,-141.7604,-71.8815,-94.4769,-63.6877,-6.5031,30.2674,-66.4569,-6.8085,-69.9814,-3.7465,7.6470,-199.0978,-149.7888
3.3107,45.6577,-21.1957,4.3833,-138.1861,-17.2422,-183.5082,-22.4574,-146.7118,-38.9191,-20.2379,29.8458,-66.9569,23.1061,-82.8141,1.4193,-5.5019,-177.6243,-150.4632
-12.0079,39.0702,-28.7749,27.5733,-156.7025,32.0763,-183.3176,13.5134,-171.7279,-22.1763,-64.4981,24.8246,-53.4946,23.1098,-58.9955,3.6118,19.1084,-106.1938,-152.5467
-3.8593,67.2296,-2.6765,74.0370,-180.3766,44.2478,-225.4172,-9.9849,-212.6288,-54.9942,-82.1769,35.7443,-73.0093,-6.7730,-70.4121,-8.1928,106.6367,-71.0550,-211.1038
1.6658,107.7949,10.5648,90.8896,-225.5727,-1.8978,-296.4411,-50.8185,-236.2541,-87.8120,-49.2152,56.9117,-111.7779,-5.6622,-118.0808,-13.2321,150.2803,-125.0454,-284.5678
-9.2543,104.8553,-12.5525,44.3154,-259.8887,-64.0601,-296.5774,-80.0512,-190.1560,-86.8704,-27.9847,58.6565,-118.9223,-0.3502,-124.5849,-4.9993,70.9060,-198.7398,-304.9259
-33.3208,66.3517,-34.5753,-25.7953,-219.5486,-74.8200,-218.2734,-80.8583,-117.9952,-63.4142,-41.4340,37.4038,-83.3950,-20.7981,-73.2303,1.1826,-50.7894,-191.8990,-271.0867
-67.2636,48.3016,-43.8533,-52.7579,-146.2218,-33.2780,-163.3248,-39.6881,-117.2991,-34.9294,-35.8643,23.0682,-45.3520,-23.5471,-33.5817,-2.8428,-90.4934,-100.9117,-226.5005
-86.0189,65.4538,-41.0540,-21.6590,-117.0500,4.6641,-166.8519,5.8801,-197.8698,-23.9211,-6.9933,27.9373,-31.9019,3.3283,-38.4373,-15.1568,-32.3195,2.0657,-187.5935
-62.4724,76.1647,-5.1551,14.5154,-76.2412,16.1311,-137.4071,19.2104,-251.7074,-28.9708,6.4330,30.3244,-17.3187,24.1705,-39.2008,-27.6108,31.1227,58.4974,-122.5372
-18.6437,44.8663,37.1129,11.1366,31.9090,27.6651,-13.6037,38.6567,-189.2976,-4.2291,14.8954,14.3261,27.9511,42.6950,2.0064,-24.3356,22.6406,70.5020,2.9147
4.1825,-3.7839,42.9156,-4.9707,115.9863,60.5955,122.7261,97.9567,-73.1684,60.0395,31.8943,-6.6156,81.0461,73.7463,52.2998,-4.8237,-19.5391,83.6832,146.7235
-0.1301,-11.5581,42.3447,0.6421,112.1117,98.2182,159.5005,150.9150,-34.8704,103.7826,41.2711,-10.1202,100.7837,93.8947,65.2171,7.8449,-22.5756,105.8103,197.6535
-16.2153,23.7526,56.4636,6.8753,86.1763,101.3634,106.3093,151.9039,-74.8948,97.3004,51.3640,5.3044,86.8431,97.9481,47.3778,6.0001,-3.5986,89.9328,121.0126
-30.2139,38.5680,43.1916,-2.2997,77.3227,58.1508,49.7605,121.6607,-85.0188,78.1148,56.2533,16.1591,64.6363,115.0269,32.2141,8.3311,-8.7792,43.5292,29.1903
-35.4646,6.9882,3.5431,-10.7183,57.4380,10.1062,24.7403,97.9915,-45.6239,73.1091,15.9612,5.3009,47.6743,141.0084,27.2013,19.8302,-33.3950,33.7721,21.6492
-43.8631,-24.0171,-20.5014,-26.1344,33.5838,0.8179,17.6412,91.3600,-20.3983,75.4642,-35.6024,-11.4086,42.2441,137.5771,29.2678,25.9896,-72.5706,51.0916,43.8133
-59.6830,-18.5283,-28.2786,-50.6262,32.6545,14.9366,22.9098,80.8323,-8.5321,70.4599,-24.4352,-9.6591,45.7353,91.8516,44.4311,22.0551,-104.8966,35.5979,-0.9789
-56.6781,9.6474,-17.2681,-42.6173,39.3092,3.9765,21.1394,28.6317,17.0788,33.3427,13.4318,5.6733,33.6690,23.6686,53.7475,10.0174,-64.5067,14.4749,-93.6039
-35.1536,31.1572,14.2837,-9.4744,20.6096,-39.5359,-15.0092,-54.9558,26.5818,-30.9051,0.5153,11.8247,-3.2880,-37.2607,30.2047,-7.4187,13.8363,32.2239,-148.7459
-39.4596,19.9195,3.9331,-21.9161,-24.5647,-71.3026,-56.3889,-94.9899,15.7232,-59.1938,-43.1015,1.3833,-28.7918,-61.8754,4.9300,-13.4700,-9.8780,41.6156,-145.7404
-69.4170,-17.6038,-57.9267,-78.0878,-49.2047,-67.3005,-51.9052,-70.8792,18.8387,-32.0450,-65.2717,-13.5705,-16.5834,-51.1815,20.2607,-2.5770,-125.2984,13.1680,-124.1977
-72.1687,-26.9579,-60.4954,-104.5467,-12.9101,-62.2287,-13.5949,-60.0335,13.7768,-20.9735,-55.8144,-17.6035,6.0162,-46.3097,43.0971,-3.2284,-170.9762,1.6649,-104.1919
-44.6320,13.0946,21.7090,-90.0273,42.7727,-80.0841,19.4007,-92.9834,-12.4039,-51.2286,-16.6713,-7.6210,12.4370,-68.5615,34.2488,-24.7745,-119.2019,24.2998,-85.0082
-33.3924,43.2548,69.0214,-78.4871,49.6142,-89.0236,44.1843,-104.0749,2.0280,-56.8561,20.2000,1.8255,15.8787,-84.5587,28.0780,-32.1252,-85.5010,36.8797,-75.4477
-41.8316,23.4854,41.6767,-80.5855,16.7673,-71.0365,62.4458,-68.9045,53.1451,-20.1362,5.5062,-3.3524,26.2676,-66.2278,45.4391,-13.8004,-109.0710,31.2165,-60.0789
-37.4656,-8.6404,18.7987,-79.8823,-8.2307,-46.3632,60.0939,-30.5305,59.5340,8.4321,-37.5947,-16.8876,29.3127,-34.2441,43.1747,0.4713,-134.4434,27.5095,-3.0720
-21.8232,-17.0818,23.5104,-63.0861,-15.3113,-11.3353,35.0920,0.0464,33.2942,18.3493,-48.0756,-22.4803,17.9455,-17.9677,10.5053,2.4754,-115.3679,25.3632,57.3915
-16.7857,-5.1044,18.3235,-26.5846,-11.8832,34.7732,-6.4854,25.1309,20.5593,20.7236,-22.8545,-13.2343,-0.5524,-19.4111,-14.7027,3.3605,-46.6711,22.0074,37.8368
-13.5589,16.4108,8.5149,6.3797,-0.3046,46.4955,-46.9731,20.7032,-24.7560,1.0293,10.1657,3.2456,-15.9489,-19.6467,-27.5070,-3.9756,21.9611,12.0567,-21.0718
9.2382,21.7939,19.3740,10.6346,15.9649,23.4990,-45.6327,7.1925,-81.8962,-16.4952,22.0392,7.9059,-15.2490,1.7522,-38.2947,-12.7166,28.6513,-16.7426,3.0813
34.4604,-5.7494,38.0130,-2.9181,30.7342,24.6016,-5.6974,26.0851,-36.8513,9.1493,-9.4478,-6.2726,-1.6900,31.5644,-32.2987,1.3873,-12.1093,-50.8069,76.5480
22.0714,-18.6089,30.5414,-19.3669,16.6753,35.8296,-0.2132,36.9307,49.2289,33.5883,-28.3800,-12.2278,-1.9141,23.0306,-19.2462,19.0405,-44.3986,-71.8174,48.6367
-22.0040,23.3698,-10.6349,-37.4028,-45.1722,4.8303,-52.9965,-3.8877,13.7779,2.2900,34.4794,11.3680,-22.8079,-28.6677,-29.0154,4.9111,-52.9971,-89.6272,-74.8209
-46.9161,61.7490,-50.3430,-39.3641,-110.0865,-24.5196,-100.7769,-37.6233,-73.3547,-34.1536,96.6526,34.3789,-40.8859,-62.8786,-48.5363,-15.5183,-43.7464,-101.4930,-144.2520
-37.3303,36.5490,-61.7768,-20.2825,-139.6978,-1.7713,-118.2894,-13.2591,-50.5052,-16.7896,47.7074,23.1691,-50.2067,-43.2881,-58.5442,-2.0891,-31.8789,-94.4335,-108.8153
-26.4869,-8.6092,-62.7039,-13.0676,-159.6443,25.6759,-138.3521,29.3670,14.7603,21.8620,-34.7377,-1.5902,-61.7797,0.9988,-78.5327,24.2482,-47.9285,-89.3663,-35.6524
-27.6319,-12.2676,-54.4449,-24.1385,-159.5387,25.8370,-149.8950,52.9512,-4.2935,37.2929,-34.9069,-7.4074,-63.7346,34.3878,-104.9471,26.9646,-72.2314,-88.4326,22.3472
-27.2525,16.9935,-11.9817,-25.9815,-103.8525,22.8635,-119.1380,55.0958,-49.6776,31.9778,8.5595,1.5220,-43.8962,40.8242,-98.8095,12.3384,-57.4035,-59.7659,34.7260
-30.3773,42.3356,24.6925,-32.0328,-61.2314,7.5704,-72.7164,31.2081,-38.4989,20.4534,34.2235,10.7984,-22.2835,17.0322,-63.9408,2.8877,-48.6968,-41.9968,-10.3671
-45.6848,36.2494,-14.7535,-71.3333,-96.9530,-23.2147,-55.0700,5.8109,-3.8765,18.6502,50.0365,13.9079,-17.2215,-9.9918,-40.2742,6.8472,-118.1737,-99.1963,-56.8545
-57.2826,-8.1347,-96.5977,-110.6880,-128.3996,-30.3940,-60.5938,7.7451,11.9180,28.1534,39.0803,2.4539,-20.2859,-11.2702,-32.8023,17.0304,-203.7919,-159.2636,-45.8587
-52.1922,-49.5754,-124.2471,-99.4356,-86.7721,-19.8043,-53.0261,7.4412,6.2409,21.1736,-9.9185,-15.7529,-16.5780,-4.2651,-16.1965,15.8498,-192.3516,-106.5037,-9.2940
-40.2288,-44.0844,-82.7842,-51.9973,-28.8803,-12.1490,-7.4827,-5.8522,-11.0721,1.9873,-38.7719,-18.1397,5.0587,-13.7633,22.6370,1.6717,-103.4542,11.8800,-2.4282
-36.7241,-18.2781,-41.3664,-27.9675,4.3796,18.6439,52.7388,8.2840,-10.4674,9.7644,-18.6508,-7.8296,37.5739,-31.6480,66.4873,-4.7790,-54.8994,61.0963,-20.6575
-44.4397,-19.6475,-58.0908,-58.4246,11.9067,38.3865,62.8205,16.1641,11.9586,20.1863,10.8550,-5.2868,42.7164,-55.5835,75.1680,-1.2865,-101.9609,3.6530,-44.6118
-44.0576,-38.4277,-119.9947,-106.2919,-32.7734,-20.4701,14.7214,-49.1467,14.5778,-20.0168,26.8602,-7.2948,5.7414,-95.1418,41.9895,-6.2627,-178.7239,-104.0280,-74.0768
-18.9332,-42.7996,-155.0827,-109.4211,-92.3068,-85.0077,-13.3558,-125.0912,-9.2854,-74.1340,31.7676,-1.4614,-24.4534,-132.1044,21.3362,-17.7180,-185.7907,-180.0360,-98.4289
2.8063,-29.3969,-129.6718,-73.2563,-84.3096,-69.3814,6.1725,-130.2222,-33.8415,-86.6153,25.5150,6.3619,-15.2611,-142.7314,40.2105,-24.4085,-125.0756,-163.5191,-113.1954
-15.0599,-12.3348,-104.5168,-58.8776,-51.8812,-56.9566,-0.2893,-123.7820,-66.4834,-90.7796,13.9289,8.3295,-7.0830,-138.1590,51.1363,-32.2280,-89.5069,-88.6209,-141.2042
-46.8102,-12.0558,-126.0690,-69.6070,-87.8464,-97.1925,-54.8457,-149.2408,-94.5763,-109.0646,-18.5199,4.4049,-26.4358,-131.2443,34.4914,-36.1380,-106.2008,-45.6998,-176.7164
-49.1089,-35.2422,-144.3947,-58.8731,-149.0611,-98.9760,-70.0158,-133.3044,-66.7320,-89.1286,-85.4084,-5.2288,-30.5847,-102.9093,39.4739,-18.4106,-116.3183,-37.9771,-169.7680
-42.0602,-47.0292,-122.7056,-40.5190,-152.1643,-74.4534,-8.7123,-78.6373,-14.2796,-36.9624,-115.7221,-10.6818,3.5216,-54.0022,76.8252,2.2310,-110.2677,-6.2039,-121.5224
-61.7576,-18.2149,-116.2918,-54.1140,-123.5237,-120.5947,39.6995,-87.7449,-36.0552,-38.3575,-36.3793,2.0331,27.3679,-41.0006,90.5084,-11.6475,-115.1320,38.7791,-105.9145
-82.5531,18.5023,-159.2065,-60.5983,-123.5673,-176.8173,8.8868,-144.8750,-122.4652,-94.7410,80.0268,23.8409,6.0787,-81.5791,57.2400,-46.0245,-89.9962,52.5291,-134.4135
-63.6559,24.3818,-182.3798,-16.2176,-149.1309,-157.0789,-37.6536,-144.9816,-157.7244,-113.9115,112.7599,32.4600,-24.3164,-93.3692,15.1913,-53.5943,-11.7459,46.9205,-118.3673
-22.7293,17.7175,-124.3829,21.4057,-157.5061,-141.6637,-19.9441,-104.3219,-103.9398,-77.3553,73.0835,25.8714,-22.5535,-34.2266,-2.1703,-32.5039,30.2901,39.8448,-36.9376
-4.7411,27.8607,-41.0954,-3.2876,-126.1301,-181.1007,29.2843,-103.3554,-48.6226,-54.3658,53.9046,20.3982,-2.7147,10.8497,1.2292,-21.1666,-12.8421,18.0966,7.3276
-18.1017,43.8721,-29.2496,-32.3261,-92.6930,-182.1976,29.3633,-110.6654,-59.5785,-59.2772,82.4823,25.6304,2.1620,-3.2613,4.0308,-27.0564,-45.1646,-5.6625,-29.6189
-39.3679,39.9699,-90.8748,-4.5393,-106.3345,-107.1786,-20.6911,-56.7595,-90.1661,-40.2628,109.0984,33.1219,-9.3297,-3.8952,-5.1556,-22.0944,-1.3568,1.0939,-63.3776
-49.0525,13.7333,-142.5814,38.1726,-136.9243,-25.6359,-64.7840,21.2655,-70.8920,4.2197,90.6417,27.7534,-22.2902,27.6121,-20.7286,-1.1160,49.3013,27.0410,-40.9715
-39.0476,-6.2559,-126.7484,47.8774,-127.5562,27.3390,-88.4997,50.5769,-23.8787,22.7120,49.9879,13.2609,-37.3126,21.8999,-42.8473,10.7541,61.1199,29.1577,-8.4354
-12.1419,10.7046,-54.7630,47.9301,-84.2143,69.8224,-105.7804,42.1424,-7.3290,8.2612,47.0602,10.4555,-54.6720,-24.6944,-75.9294,3.9364,82.4800,-1.7078,-2.7414
14.7793,49.2863,28.5376,54.8730,-15.4338,108.1424,-89.2989,38.9032,-10.3106,-3.9950,90.9353,20.4672,-52.8544,-63.5115,-90.4577,-9.1073,123.9396,-25.2847,-6.7956
31.1915,65.2604,78.8103,50.2607,78.2995,126.7502,-22.4056,30.4344,-4.1159,-12.2070,127.7246,24.7780,-24.3276,-93.6194,-57.2357,-21.8547,139.2576,-18.2538,-7.9645
45.5795,55.4543,81.3064,42.7886,114.1799,113.7498,12.1225,0.0821,-18.3285,-34.2521,112.2948,22.3130,-9.5369,-113.0848,-24.1682,-30.1947,128.5676,-28.6535,-23.3238
54.1474,46.4593,66.4978,43.0703,38.9744,94.3610,-58.7581,-19.3461,-59.7074,-51.4515,42.3340,19.9145,-37.7406,-98.9140,-49.3275,-23.6836,107.3667,-87.8523,-60.6452
38.2287,37.2199,76.4965,21.7111,-19.0441,104.6180,-128.2937,-2.5214,-54.3080,-35.1287,-36.9834,7.4157,-60.4783,-79.2540,-81.3222,-7.7662,54.1026,-111.0401,-75.7102
16.0356,21.8313,119.9753,-13.3603,54.0747,129.7122,-47.2186,29.3850,35.3015,6.1040,-51.9573,-13.6334,-22.2281,-85.6792,-43.9460,-0.9999,2.7562,-25.5423,-12.6171
28.8669,15.0523,164.3457,3.5018,155.6610,149.8995,104.5165,65.5610,126.7062,46.5457,-2.1159,-20.3355,37.7840,-79.0607,17.9385,-0.5180,40.1305,80.3768,96.4085
62.7148,14.3196,171.7541,68.2574,164.7997,189.0475,135.5986,115.4879,125.1924,72.9576,16.6046,-12.8523,50.8769,-33.7923,23.7536,7.6996,134.3767,100.0250,154.9055
66.5869,9.5635,160.1217,85.6744,132.3813,229.9476,68.9618,152.7728,56.0979,82.7950,-29.5685,-12.4731,36.3913,3.6260,0.5432,15.9318,143.6356,66.8053,139.5086
38.4135,17.5494,183.7920,20.5749,127.0981,216.0078,56.1763,146.4580,23.6455,85.5729,-64.8896,-18.9575,46.0462,0.8902,4.5926,14.5315,33.6055,39.1765,108.3758
12.7522,34.4077,216.3591,-48.2229,107.3392,176.8651,79.3570,126.4664,60.5178,93.8842,-57.5977,-21.8485,56.8539,-20.4933,7.4513,14.9419,-74.8930,11.7587,99.0602
2.6769,24.7260,177.1289,-46.5846,41.0069,180.9520,43.5433,131.8183,102.9185,101.8854,-44.4363,-24.5979,29.4946,-38.2964,-27.1181,22.3243,-77.5201,3.3046,118.7708
11.3504,3.5922,116.9315,9.5832,-2.7719,206.8796,4.5989,150.8534,111.5625,102.4107,-29.4404,-25.7762,-0.1985,-37.0425,-60.6846,25.4885,7.7866,40.8503,165.5303
40.0047,19.6326,167.5777,59.2073,48.6696,211.6695,37.2899,166.7836,97.7057,106.4303,-19.5009,-18.7502,14.9608,4.0452,-53.1639,23.1455,95.1017,85.4557,198.8092
64.6243,56.1517,288.0257,77.5825,149.6529,209.7871,73.6147,178.1682,46.5795,109.0128,-53.2358,-12.4173,49.1415,65.4763,-28.0380,18.9604,136.1067,114.4546,185.4810
66.3600,65.4697,325.3742,85.4528,187.6673,201.5752,60.1150,165.9119,-24.5936,88.2759,-96.6990,-14.6732,55.1518,84.2004,-22.3998,7.7691,153.5663,157.9122,170.1280
59.3820,57.2145,287.5455,90.0614,153.9594,164.3320,62.8930,129.4298,-3.3385,65.5232,-69.6802,-17.2687,39.9415,49.1895,-34.7680,-2.4132,167.6560,201.2129,199.8801
50.1279,62.4181,287.5014,76.1922,150.4065,124.3316,114.6189,117.1626,133.0537,84.7198,5.2797,-15.4946,39.5756,30.8259,-39.4181,5.5907,161.0522,212.7536,235.6427
33.9637,79.2680,327.0913,62.9178,202.5072,127.7881,147.0445,147.3997,209.4138,123.0975,33.9757,-11.2669,58.5260,62.7435,-23.5929,20.3072,151.8574,217.9375,214.7655
33.0260,98.8934,350.4449,84.4746,220.5694,164.3445,110.8353,166.6556,115.4049,117.2613,-8.2110,-1.6090,66.4994,87.7088,-7.3609,17.4373,183.9207,215.8717,137.1218
59.0134,114.8921,354.4194,112.8125,172.2954,176.0263,45.1930,134.0057,-13.5870,67.6841,-62.6638,9.9286,47.1427,66.6040,-15.2113,2.9329,220.5941,161.6622,58.8857
78.8738,109.0181,330.1142,96.8477,128.6105,135.6060,24.7867,77.0883,-29.8365,28.2701,-65.1001,12.5549,25.8404,29.2910,-28.3414,-4.5872,191.2431,79.7752,34.1087
74.2907,81.5135,260.6980,58.5455,127.0739,89.5063,58.5405,43.4678,14.3223,18.8045,-14.9268,9.8712,26.8573,5.6092,-15.6714,-5.6474,128.9884,29.5867,48.2612
62.4827,62.8080,191.0559,51.4200,129.4103,82.9298,65.5410,46.3417,11.6719,21.0684,20.3277,13.0686,30.9527,10.2744,0.7760,-4.0704,113.7545,9.6044,35.2383
47.0025,62.6494,167.6920,60.7044,112.2211,83.3325,16.0164,61.2510,-16.7905,26.6487,0.4765,16.7224,20.1428,47.2112,-7.4154,3.5434,122.4376,5.5648,-9.4995
29.0215,52.5903,160.2481,31.9285,96.6607,52.6527,0.0733,52.4113,-9.5884,30.5239,-36.6201,9.3392,18.6925,67.3290,-5.2459,10.4738,66.8859,-1.0607,-27.6619
29.3367,17.7874,115.9146,-34.5576,87.0136,18.0545,47.3499,10.0212,-7.5316,13.8018,-52.6419,-3.0562,36.1603,24.2412,31.7808,5.3134,-56.3950,-68.5641,-19.9775
40.5423,-15.3371,35.0525,-85.2561,55.1928,8.4925,64.5217,-32.9874,-61.1384,-20.2857,-43.1357,-6.3325,39.7822,-40.5062,54.8769,-7.7753,-154.8403,-177.5910,-27.9716
27.9848,-22.1422,-34.2712,-97.9131,-2.1719,15.5090,40.7851,-39.8669,-97.7189,-32.3720,-8.9430,-1.3829,27.2333,-78.1236,44.9032,-14.9527,-181.4053,-212.3559,-37.2138
-7.6282,-19.9111,-67.7942,-109.5488,-52.6159,18.1846,53.9619,-24.5461,-51.2318,-10.0176,19.2199,-0.5964,31.7788,-98.8448,53.1700,-10.2513,-202.6765,-170.6806,-36.1914
-39.3902,-39.2275,-107.5965,-143.4943,-79.2915,-17.8045,66.0332,-31.5373,5.2962,5.5859,5.3383,-8.0595,38.1387,-91.4335,75.1788,1.3841,-267.5979,-163.2951,-56.0302
-51.9136,-73.6257,-170.0520,-163.5312,-86.0449,-86.1203,5.1981,-58.0092,17.1859,-5.4163,-16.9054,-17.3982,7.5170,-38.5809,46.0041,12.2224,-306.8175,-197.9366,-67.9814
-30.4428,-85.7773,-174.7244,-136.7945,-68.3884,-92.6868,-49.5117,-53.2469,27.8842,-10.1062,-6.3728,-21.5800,-29.2894,-1.5859,-15.0942,17.1134,-256.7481,-211.9637,-17.0662
22.3594,-58.7075,-87.2969,-79.9003,-30.6317,-0.6555,-21.4102,-11.5634,12.5313,-0.9196,8.5084,-14.8739,-21.5257,-24.9577,-28.8147,10.7383,-155.5371,-206.1107,42.6080
59.7365,-20.6127,-19.5827,-16.6544,-1.5876,74.2885,10.2564,8.7985,-76.9244,-14.9680,9.6359,1.0711,2.0004,-53.3975,-3.5243,-7.8934,-45.8054,-169.4599,34.4306
42.1817,-10.2423,-58.4017,34.1175,-10.7786,57.4866,-28.7795,-10.3921,-136.3190,-46.3494,20.6765,10.9729,-12.4274,-50.5184,-5.1576,-22.4444,49.0592,-75.5147,-7.7763
-14.5326,-26.1643,-140.0516,39.4918,-63.9121,28.9382,-94.3841,-9.5436,-83.3402,-38.4949,30.0303,6.1691,-45.7436,-39.6557,-32.1451,-13.1033,62.2184,4.1911,-34.0850
-65.7385,-33.3994,-172.9748,7.3762,-116.5093,40.3630,-122.4441,39.2615,-29.7489,12.9253,16.9933,0.9074,-46.1508,-7.7012,-35.7166,10.5478,-5.2376,11.2567,-54.4745
-75.0759,-18.3767,-144.6358,6.5337,-102.3742,43.0256,-100.9906,77.4567,-57.9125,43.3648,5.1195,6.8424,-16.9533,52.6461,-10.4227,19.1938,-17.2810,21.3102,-65.4683
-45.4334,1.5789,-96.1088,57.8716,-41.2879,40.9931,-72.4897,68.3585,-105.0785,22.5494,11.2128,15.8364,-3.0595,71.1710,4.5739,5.5901,79.6995,75.0253,-57.7114
-27.7292,15.9156,-83.4238,93.1593,-21.2155,81.5998,-88.5191,57.2626,-138.4812,-6.2636,33.9715,21.9877,-17.2596,20.4993,-10.6890,-11.3501,156.0783,96.3528,-63.4319
-55.3498,17.5310,-134.2256,62.0492,-50.7893,112.9563,-118.2396,68.5312,-158.2580,-3.7273,73.9481,26.3597,-26.4744,-20.4660,-21.4679,-14.8330,108.2377,56.5792,-94.7367
-97.3126,-9.3716,-219.6183,-15.0831,-86.8661,61.6563,-99.8168,57.5190,-127.2762,12.4955,95.5824,22.4799,-13.3198,-16.1575,7.0143,-4.5457,-33.1561,-7.8725,-123.8838
-115.8874,-48.8917,-288.5842,-97.1379,-141.8920,-28.3643,-72.6839,4.9889,-73.5114,7.7527,76.7220,10.3260,-8.1653,-24.5251,33.4111,5.1809,-189.4318,-93.2386,-136.1024
-110.2416,-59.7639,-298.5490,-149.0488,-187.9216,-85.5454,-82.5915,-45.8883,-49.5982,-13.8845,75.7512,2.3977,-28.0994,-55.8985,4.9502,2.4199,-277.8717,-166.6857,-112.3408
-92.9322,-51.4469,-244.4357,-152.6305,-131.6306,-88.1510,-61.0653,-41.5843,-19.5665,-8.9026,107.8332,-2.6397,-29.4419,-48.9372,-24.9124,-1.5593,-266.5324,-152.2771,-35.6414
-78.1544,-66.4898,-192.0726,-122.7381,-12.1025,0.6550,24.8005,46.1734,-1.0192,47.1665,92.0141,-13.9297,23.9124,-0.2984,23.7671,8.1998,-221.8178,-70.0128,45.9770
-65.1640,-91.1685,-192.1212,-79.6899,32.5361,153.8652,92.2960,159.7945,-72.0853,103.2600,34.2362,-20.5829,86.6728,19.5515,102.9336,16.3297,-185.8145,-17.4958,83.3897
-30.2180,-87.2793,-189.3645,-35.7208,8.9976,198.6614,104.3249,164.2539,-127.1253,87.1854,33.1850,-14.3480,89.0212,-13.3697,107.9473,5.1297,-121.9267,-19.4550,107.4348
10.5106,-71.8234,-141.7964,-19.7332,5.7586,65.0611,86.5794,47.2698,-21.0100,23.8567,71.3322,-12.5196,33.0439,-37.4064,39.4353,-4.6821,-60.3109,-33.6479,134.3967
6.8437,-68.2478,-101.8229,-35.4576,6.2196,-57.4477,26.3520,-29.6469,105.6231,-1.9784,56.5474,-21.5833,-22.1731,-11.0505,-28.3226,5.6749,-60.0812,-32.4278,121.9183
-7.4548,-53.0911,-71.7246,-20.8282,-12.0226,-27.8714,-46.1322,-4.1901,72.7082,5.8573,5.4275,-22.2348,-40.9763,14.2503,-57.5465,11.8623,-37.6923,-10.7497,83.8522
42.7529,-19.0525,8.3449,51.6285,3.6917,48.3117,-40.1743,13.9440,-5.6110,-9.8107,-22.4951,-9.1631,-31.9918,-5.5940,-49.1591,-0.4741,82.3275,3.6421,73.0790
106.4457,2.1735,92.9436,102.2459,46.1491,60.1795,15.7819,-3.5736,17.1581,-23.5760,-34.5188,1.7688,-16.5057,-13.6938,-21.7085,-1.6330,170.4781,-28.5321,60.8345
83.8543,4.7533,95.4532,68.5270,44.3144,28.4934,10.1801,1.6593,71.8340,0.8718,-42.1387,3.1157,-12.5282,23.9617,-12.5015,16.7240,112.3507,-69.9295,8.1678
18.3739,7.5158,60.6690,8.1057,2.8077,-26.0198,-36.8403,-16.6641,90.2612,3.7094,-40.8357,-2.8976,-27.9250,24.6682,-32.1615,18.6180,19.8432,-40.7364,-30.8691
9.5492,8.1785,70.3721,-5.1060,-4.5460,-91.6779,-29.8667,-97.6000,115.0812,-46.9043,-48.5612,-12.5424,-44.1685,-40.1361,-40.1798,-2.7025,19.0947,34.1485,-21.0109
38.0193,5.2662,106.6467,6.2674,53.3350,-104.4618,19.4866,-140.2842,135.0885,-76.4341,-62.5748,-15.7267,-32.2429,-74.7499,-9.5697,-13.7536,50.6641,50.5605,-25.6116
34.2164,14.1742,122.7438,-12.1708,109.2202,-41.6171,36.4207,-97.1601,86.9738,-54.8535,-64.7222,-9.2696,-1.1285,-65.2906,28.2795,-10.7573,18.1376,0.8412,-78.9805
2.5705,28.0817,110.5888,-38.9238,71.2254,26.6662,1.5891,-53.0515,-5.9395,-39.4053,-81.2484,-5.9408,9.2550,-84.4804,33.2891,-14.8328,-37.5692,-13.5511,-118.2555
-12.9285,26.7637,88.1441,-15.4140,-6.7375,37.5225,-34.6788,-38.5346,-58.3453,-39.2879,-117.5740,-9.1981,-0.6331,-81.6863,18.2602,-18.0578,-16.2383,52.8937,-94.5999
2.6611,20.4298,99.0412,36.0703,31.3495,0.2606,-0.3442,-19.5160,-38.7951,-20.9024,-118.4449,-7.3988,14.8073,8.6643,32.3238,-7.9702,62.2937,120.4739,-47.6187
29.4522,23.2561,151.9586,34.0632,149.9248,-26.0639,89.6156,-13.2384,13.1994,-1.2117,-90.7262,-2.9768,56.0163,65.7198,79.3007,0.5586,69.0391,96.8307,-39.3261
41.6682,17.2917,174.1863,-15.5504,148.3371,9.0305,112.1819,-24.0416,59.0941,0.8558,-106.7036,-9.2150,61.2350,-1.7910,93.3117,4.2409,-14.2403,-1.9427,-64.0224
41.7684,-8.0634,126.5908,-21.4246,27.7030,81.7313,34.1669,-5.8967,97.2156,9.3216,-148.5277,-20.8342,15.1618,-73.6807,44.5834,16.9393,-45.2836,-70.6115,-59.9578
45.0163,-28.7328,76.9194,25.6042,-21.2446,121.1741,-11.6047,28.9263,117.9690,23.6574,-142.9957,-25.0325,-14.9223,-67.5823,4.3951,25.6379,22.2060,-38.5265,-7.7261
47.2453,-29.4696,92.3769,42.5726,46.0924,109.7518,47.2540,31.2913,108.8091,22.2439,-115.3516,-28.0238,10.1405,-53.2638,25.6069,13.5288,61.8774,54.5893,54.6841
57.4802,-25.3358,168.5587,23.5793,132.5489,95.0860,132.8560,31.8009,118.3022,30.9077,-123.6063,-38.7570,50.6561,-38.3267,55.9592,5.5282,39.1704,116.1129,127.0342
98.3752,-26.8980,257.3249,39.6879,191.1061,121.8302,186.8949,87.6183,182.9259,81.3586,-140.0829,-46.6504,72.7507,29.5927,51.0696,25.9217,56.5434,103.7081,224.7431
134.8824,-29.2908,289.7206,76.1852,197.7014,181.3371,207.5349,162.2093,230.3431,136.7969,-138.4107,-42.7556,83.4808,88.5200,46.3255,52.2712,97.3836,48.1086,272.6212
113.4357,-33.2571,244.5512,59.2013,147.2540,207.5029,186.8552,171.2168,212.8939,141.5604,-146.1927,-39.5175,83.0094,60.7519,60.7975,55.3617,58.2905,14.7792,217.5460
68.4771,-38.8837,198.6609,17.3745,131.4465,166.4821,175.3544,124.9033,205.8760,113.6173,-141.4615,-45.2171,77.4633,11.8939,70.7233,41.0766,1.6791,61.3766,177.7085
62.8339,-34.7392,211.5188,34.5345,199.8415,134.5945,236.6696,125.0840,233.4590,118.4146,-87.6177,-45.6573,98.2150,35.9787,84.1030,32.5123,48.7504,164.9810,242.7447
80.2282,-20.3332,233.7490,89.8310,235.4468,167.0000,277.9894,183.1742,204.5118,150.1679,-59.0319,-33.6507,127.2006,100.6143,103.9315,37.2401,133.4033,209.4443,282.6313
78.9655,-9.6870,214.6571,106.8923,148.4196,178.2303,174.6766,175.1178,109.1185,126.3413,-121.4502,-25.4393,94.5227,104.6686,76.1301,37.5873,144.1864,157.3049,196.8603
59.2969,-0.8220,187.2436,92.7074,35.4440,118.4022,27.2152,76.2919,53.9150,45.1381,-179.4241,-29.1382,16.0262,30.2049,-0.1223,18.2322,131.8939,145.6021,112.7066
36.0401,14.2775,197.7230,92.8795,36.1868,94.3824,28.6458,41.5237,83.7316,22.0616,-145.9638,-32.3374,2.4666,-22.7115,-19.4865,0.7945,159.4396,245.5908,134.0461
31.3801,15.1252,237.3973,93.7275,155.7078,154.2448,167.3109,123.5031,148.1183,92.7962,-101.1375,-31.2035,79.5091,18.7531,64.4190,13.8607,162.8551,301.0444,176.7316
62.2157,-13.4896,252.1118,72.0002,261.5243,180.0436,265.5110,166.6218,198.4861,139.4186,-114.1361,-33.1069,136.6449,79.3375,144.3121,38.4477,109.3975,200.0101,164.5905
91.1056,-37.3326,200.6184,51.4512,224.2301,109.1686,213.2399,86.2725,209.4045,87.9184,-123.0409,-32.5287,93.3653,57.3018,115.3835,38.5660,73.1872,62.7327,115.2956
74.2052,-26.6107,115.6003,45.3703,80.0934,35.0716,63.5717,-9.8492,169.2452,10.2923,-98.7797,-21.9798,3.4871,-14.6736,22.8508,21.5964,75.5572,-1.1392,37.4181
36.3029,-12.3265,56.9310,26.0634,-16.9150,34.9605,-42.0548,-26.7119,98.4285,-13.8393,-99.2245,-13.0951,-35.8150,-49.3486,-16.9543,14.9247,42.4601,-38.4811,-47.9139
10.5411,-30.9980,12.3719,-22.8126,-33.7641,68.5657,-45.1185,2.5206,49.9573,6.1959,-130.9725,-17.5582,-14.5264,-48.0481,17.0803,21.5627,-60.2213,-94.1691,-89.0091
-10.9185,-64.9975,-57.0731,-80.7471,-84.2508,60.4289,-45.9746,1.2837,68.1508,19.0506,-150.1331,-27.0378,-11.1571,-62.6714,34.7437,32.5952,-178.2277,-168.1065,-105.7158
-20.9502,-76.2333,-116.7209,-111.0994,-187.4845,-2.6772,-123.8877,-58.4881,114.0919,-9.9060,-150.6723,-27.5588,-65.4352,-97.9671,-15.6834,38.3564,-231.0556,-256.4048,-151.8292
-11.6665,-50.4251,-111.6040,-95.1494,-219.1062,-61.2991,-192.1827,-127.4952,78.1586,-67.1257,-135.7088,-15.6635,-108.9131,-121.2671,-62.7947,22.4835,-184.8566,-276.4119,-204.1665
-19.9794,-3.6714,-60.1546,-68.6923,-143.4065,-57.3332,-164.3564,-138.9363,-53.5537,-101.0777,-105.8346,-0.6988,-78.6309,-127.5990,-34.6439,-12.1369,-114.3507,-165.2799,-226.7193
-49.9399,16.9490,-20.9440,-84.6729,-74.0265,4.2248,-95.7247,-92.2603,-136.9189,-81.2340,-100.8866,-1.3096,-19.6789,-138.9375,23.3412,-29.8130,-134.4916,-61.3665,-212.1200
-45.2514,-24.1132,-15.4476,-122.5399,-59.3839,77.1537,-43.8731,-25.3555,-72.3543,-22.4779,-136.4742,-25.4681,6.5898,-139.1545,39.6472,-9.9041,-221.7104,-87.2109,-116.6699
-5.3788,-83.8078,-14.5957,-119.7391,-23.1895,110.8891,14.0434,31.7875,46.8119,34.3964,-156.3292,-52.0553,15.9816,-93.1128,31.0523,18.4061,-241.4615,-111.6437,42.4133
9.3551,-84.7596,7.0446,-78.8144,35.3586,85.2935,62.1708,38.9290,67.3779,40.6645,-131.9763,-52.4298,31.2190,-45.7665,39.5466,16.4078,-165.9379,-26.2761,109.7841
-2.0485,-31.9993,21.4905,-39.2253,14.1954,52.3782,42.0012,-1.8921,-35.9157,-6.3082,-101.6507,-27.6282,29.7677,-63.1890,46.2700,-10.5850,-81.5092,41.9210,32.7709
3.3431,-0.2632,1.5639,-8.0281,-70.9156,64.5989,-17.5182,-13.2230,-135.6022,-35.7749,-83.4276,-6.9697,7.1782,-89.3131,20.4603,-24.0696,-34.0960,10.4807,-17.7336
16.0286,-16.6494,-14.5861,-2.4471,-87.9949,73.1948,-28.0018,24.8156,-97.4070,-4.0131,-62.9883,-11.0455,-4.8477,-46.9772,-15.3950,-8.0054,-37.1631,-25.8906,55.9093
6.8992,-39.5887,1.1411,-39.0229,-33.7722,38.3892,17.8994,46.1079,31.6786,41.3662,-44.5768,-26.7022,5.6002,4.1300,-20.4644,13.6461,-93.9779,-20.7664,130.3328
-3.4165,-34.1088,15.2237,-52.3377,-21.7802,32.6545,46.7763,45.8799,75.0310,52.6918,-37.6789,-26.3921,18.4037,-2.3118,-0.5920,17.6496,-111.1622,-11.8998,114.3713
13.3089,-5.8263,20.9377,9.5289,-60.8643,65.8663,15.5687,47.9894,2.2938,31.5510,-36.2730,-8.1725,8.8530,-17.0306,-3.7288,7.5591,-9.8179,3.4679,68.5185
32.3185,16.5326,32.9809,58.0325,-81.9760,24.4590,-46.6896,3.1180,-43.1852,-14.3414,-34.5819,3.4780,-28.3125,-10.3755,-45.9081,-4.4965,83.3403,18.0700,39.2271
14.4655,8.9634,8.5292,15.5769,-84.5687,-75.1998,-88.0325,-73.9219,-18.3966,-55.3040,-32.1652,-1.9652,-59.8901,-17.2063,-74.6668,-10.6644,30.1551,-2.0679,5.3586
-19.2858,-11.8714,-48.4562,-30.4159,-77.4550,-74.9621,-86.0275,-72.5801,-28.7424,-50.1586,-34.4679,-7.3638,-47.8601,-27.4374,-46.0588,-9.3963,-50.2562,-19.3678,-33.6064
-12.6132,-1.3392,-32.7880,7.6570,-28.9374,21.5858,-54.1976,-13.3896,-98.3893,-30.8193,-42.6844,1.3494,-10.6244,-25.8753,4.3023,-12.8192,7.1760,12.0415,-61.5294
25.8172,37.0768,50.1709,66.9892,30.6854,63.1732,-20.7070,-12.1496,-135.5223,-47.7800,-35.3375,16.1310,6.0482,-41.2796,24.3986,-26.6945,122.3742,47.0186,-81.5958
29.9873,44.6955,51.2320,65.5629,27.9617,23.9949,-8.6768,-42.0892,-102.3431,-60.1078,-7.4046,21.4617,0.7186,-49.9487,22.4968,-28.6362,129.3344,35.6836,-92.0309
-6.3490,4.4465,-49.3015,15.5938,-26.0253,-25.7088,-21.0352,-37.1187,-44.0973,-33.1630,4.3377,13.4239,-6.0374,-15.8722,23.0619,-7.9001,26.4728,-14.6535,-90.9277
-27.2522,-27.5873,-115.6672,-34.7101,-63.8616,-76.6593,-41.0232,-54.6967,-3.1281,-27.3903,1.0025,4.2902,-19.4427,-1.8587,14.1275,4.5743,-68.9366,-75.2601,-94.7789
-21.5679,-9.5393,-97.6435,-41.9551,-59.6557,-112.2660,-48.2458,-101.9778,3.7440,-60.2396,35.8792,8.9543,-36.7988,-40.0317,-9.5312,-9.5401,-59.2268,-80.7259,-100.2155
-17.8033,36.4932,-43.9275,11.4433,-24.9833,-84.9325,-25.0122,-82.0291,-17.3904,-59.9345,98.5382,25.2674,-27.2752,-44.7160,-15.8397,-24.2861,53.7322,12.9601,-79.8431
-14.0050,68.4859,15.9018,67.1867,13.0166,-29.9892,22.7413,-10.1219,-40.9780,-18.4842,118.1291,36.4558,9.5526,6.1444,7.4962,-21.8365,145.4296,106.5328,-42.5620
-8.0060,64.3349,37.7218,57.2491,20.8964,-1.6497,36.2940,26.3148,-59.1503,7.3580,89.7952,32.4290,27.6040,35.8129,18.1034,-13.3137,113.6231,84.0688,-21.5148
-20.6155,29.7291,-10.4957,18.8192,13.9379,36.7977,-21.1580,59.3235,-77.3646,24.9174,63.4925,17.9382,9.7087,47.5765,-12.1819,-2.3648,35.9492,19.0888,-4.6317
-37.7345,-2.6253,-44.7931,21.0349,55.8821,91.4046,-61.9879,123.6938,-64.9245,62.8258,48.8497,3.9780,0.9309,96.2642,-34.1243,13.8322,34.0046,38.1522,31.3086
-28.7292,-5.7221,11.5721,40.0996,147.1729,83.4900,2.9390,143.3024,0.8930,89.4959,31.1576,-1.6503,32.4944,150.0584,4.1723,24.9975,71.5915,101.6937,52.3250
-14.6406,5.9401,72.9957,27.4325,195.4876,29.2883,90.6421,110.4806,56.5008,88.8643,22.1948,0.0636,68.7493,160.5235,57.8819,26.3406,56.2805,109.1416,37.4747
-15.2871,5.1172,49.2380,6.2759,163.6448,35.9951,104.5921,114.7776,43.4068,93.4917,47.8283,3.4997,74.8994,140.9368,61.5981,24.8391,13.3742,63.0158,47.6500
7.4032,-0.5060,18.8344,12.9262,142.6183,78.8259,122.9239,133.9961,28.3893,96.6912,108.9282,7.5531,72.3687,103.7856,43.9528,18.1637,20.5028,18.2229,115.5480
63.2638,11.1365,79.7619,40.0369,184.3953,46.1785,193.0364,81.0685,86.6280,65.0255,149.7987,10.5633,73.5005,60.9142,42.3237,4.4662,85.6768,17.3451,175.6523
92.2933,28.6285,169.6204,72.0775,197.9339,-22.5282,195.8249,16.6808,161.5524,31.8329,115.1059,4.9890,50.2709,54.8762,14.7441,-0.1074,159.0297,79.7525,196.7187
72.3949,21.3150,171.2971,93.7416,131.7592,-10.5288,119.3860,45.5138,185.3456,51.7363,58.9220,-7.4823,15.8721,83.8409,-38.4181,13.6136,183.3770,143.7620,229.0042
52.6708,-9.0128,91.9158,83.3665,77.1581,45.2443,109.5199,105.3427,190.5976,92.6786,69.5929,-12.7920,18.0119,87.7012,-38.4767,28.0811,140.7164,119.3575,262.7834
50.1909,-27.9429,25.1632,55.2243,76.1848,38.3856,144.9276,88.9778,191.8851,85.5676,107.4250,-8.4387,32.1651,56.6889,-1.6752,25.7138,89.5339,54.4494,233.9709
32.5783,-21.4468,3.9890,48.0621,60.8530,-7.4366,89.7861,38.2585,153.0262,44.3340,96.5320,-5.9861,7.0266,41.0123,-18.4841,13.7775,89.9133,65.4911,172.7650
2.6186,-13.6298,-13.3740,48.6564,30.0311,-20.9686,17.0293,28.8267,109.0889,28.7046,77.6664,-6.6296,-19.0146,46.0448,-50.4757,8.3914,96.3156,107.4219,139.5669
-11.6739,-20.6392,-58.2351,13.1178,21.8016,-28.9862,37.3172,14.0137,103.1833,24.4131,93.3039,-1.6372,-4.3831,20.7396,-13.2555,7.7832,33.5301,50.6631,80.8088
-24.9771,-25.7243,-127.7164,-41.6420,-18.6690,-71.7360,27.3872,-58.1267,71.1240,-21.1209,97.1985,8.6235,-6.7339,-45.6523,26.1806,-1.5063,-58.1660,-67.3705,-54.5073
-55.6458,-15.3967,-193.9095,-61.9829,-91.9001,-106.8299,-87.8805,-119.6029,-18.9870,-79.6890,86.5601,18.2630,-53.6143,-90.1619,-7.1833,-17.0284,-84.2013,-115.1398,-178.1140
-70.9057,-1.7989,-202.7160,-50.5028,-70.2462,-92.8357,-141.9564,-105.0685,-81.5757,-86.5655,104.7145,24.6459,-67.6959,-68.7072,-33.9089,-23.5628,-53.5324,-95.7478,-201.0880
-49.8736,2.3049,-141.3437,-49.9121,43.7466,-60.6159,-74.2625,-67.4505,-85.3886,-61.6779,113.8125,23.4929,-27.0118,-28.9909,-0.7685,-21.9091,-45.9617,-90.4049,-165.2180
-29.2166,-0.6157,-87.9967,-64.3683,84.4004,-54.6155,-42.0253,-73.7169,-92.2336,-64.7566,74.3270,14.6979,-10.2950,-32.0466,14.3967,-24.6652,-71.6786,-99.9503,-142.3319
-32.0523,-3.0261,-99.8624,-66.7453,22.8858,-74.2308,-80.8390,-103.0734,-113.3104,-88.3994,46.6606,10.0638,-33.7114,-59.2974,-11.4592,-31.4098,-80.6260,-92.2713,-137.9573
-35.4488,2.5624,-124.3935,-54.8681,-15.5330,-92.5011,-72.2181,-113.8478,-126.0664,-96.5380,72.6666,16.4104,-34.1544,-69.7761,-9.9879,-37.5683,-63.2764,-72.1718,-128.6322
-31.9615,20.0810,-105.9952,-46.9008,5.1484,-100.4684,-17.3067,-109.8100,-141.0915,-93.0496,113.0932,24.7622,-8.2052,-66.4000,13.3397,-46.0893,-44.9604,-39.6739,-104.4271
-37.9778,40.3349,-71.7956,-43.4495,21.8040,-109.8985,-11.4181,-102.2141,-136.3556,-86.2218,138.3448,27.8074,-6.1578,-51.8141,-1.7138,-49.2139,-27.6027,-1.7175,-79.9251
-44.4303,46.7154,-59.0935,-30.9870,2.8969,-111.8784,-56.2135,-84.0723,-84.1618,-67.3145,139.3021,27.7120,-31.2726,-22.1090,-42.4062,-34.8292,-3.6890,-0.5295,-77.1837
-29.2324,33.4629,-64.7450,-7.9969,-39.8550,-82.0682,-87.4796,-56.5766,-39.0340,-45.2485,108.2901,24.7917,-49.6123,-5.5510,-62.2472,-15.2880,17.5497,-39.6782,-72.2990
-1.1838,8.8531,-81.5945,10.6051,-78.2937,-39.2623,-74.3436,-28.8166,-38.5727,-29.7101,79.4367,18.3647,-46.5583,-8.8349,-58.5398,-6.8370,22.0491,-71.9516,-20.4315
9.7704,-18.0140,-115.5472,5.3187,-99.2496,-22.6417,-40.4167,1.6416,-31.1147,-4.4467,82.3716,11.9454,-32.1161,6.5562,-47.8876,1.7189,-9.6093,-97.2140,46.4942
-7.1936,-42.1724,-166.9207,-26.3325,-126.6462,-21.9667,-36.4921,32.0096,-0.0123,29.5540,89.2372,7.2442,-25.9675,33.6859,-42.1404,18.8022,-80.5225,-145.2422,60.0634
-27.2140,-52.2849,-207.9459,-51.3339,-153.5875,-19.7942,-58.0058,39.3147,11.3012,39.3749,95.8788,6.1751,-32.9214,29.8593,-46.2216,25.6185,-127.2169,-179.5023,37.8572
-22.5327,-37.5356,-199.2000,-34.7095,-138.5543,-39.7454,-49.5538,13.6322,5.3533,17.4519,127.2872,12.8951,-36.6139,12.8373,-49.2523,13.6412,-83.9435,-149.0878,34.8316
-8.8166,-15.7928,-160.7486,3.8898,-115.1878,-70.3462,-34.2145,-13.4921,-1.3236,-5.7068,141.3562,19.7843,-37.2684,15.8881,-50.9809,1.5834,-4.2314,-83.1064,42.8484
-18.3122,-17.8580,-160.0294,16.4879,-142.2039,-53.3346,-71.6923,-0.7658,-40.8512,-6.4161,99.7122,14.0778,-46.6109,23.4250,-65.7739,0.2203,8.5916,-40.0029,50.6057
-41.0243,-35.0020,-195.7057,-2.4857,-172.8943,6.5880,-104.9395,51.1242,-109.6293,16.6336,68.5057,4.6852,-42.6896,29.5460,-72.7704,2.4733,-43.4524,-36.2946,75.8992
-51.8128,-35.0119,-205.8750,-29.6657,-144.3019,36.5060,-69.6811,87.6140,-140.4684,41.3949,93.3178,7.6267,-12.0315,41.9100,-44.1599,3.6871,-94.1144,-62.6070,79.4151
-54.4804,-21.0880,-180.5466,-59.2938,-84.4250,-1.0579,-38.7833,49.7989,-113.4831,25.8594,115.1991,13.7162,0.9360,30.0729,-16.7065,-0.5468,-122.6300,-94.9043,16.7909
-51.2469,-13.5873,-149.7622,-83.6634,-37.7560,-67.4400,-60.8132,-41.8343,-78.7721,-32.6873,108.5012,9.8354,-26.2267,-21.0920,-32.2232,-15.8873,-128.5856,-102.3087,-41.5816
-38.4087,-11.2536,-137.6263,-84.8256,-32.9595,-81.6203,-69.3934,-84.9037,-61.6299,-65.7114,122.9747,6.4306,-47.7426,-73.8598,-57.8031,-29.1760,-112.9387,-98.7400,-25.1346
-37.1211,-18.5109,-179.3651,-73.9681,-93.6368,-8.3700,-55.7160,-30.8330,-38.7499,-29.7751,155.7977,10.8961,-42.8140,-102.1310,-54.4057,-18.8183,-113.0525,-134.2398,1.8037
-50.8474,-39.8233,-248.7297,-75.8368,-167.5565,65.7347,-75.7192,31.4380,-11.5610,15.8291,149.6890,12.9089,-42.8110,-107.1237,-42.0981,4.8518,-145.5288,-204.0836,-28.5891
-46.3230,-39.0574,-237.4185,-85.1438,-180.1414,36.2952,-109.2821,1.4443,-22.6350,-2.7511,104.9697,12.4997,-55.5267,-99.5205,-45.9507,7.4639,-163.9328,-243.9908,-81.9711
-27.0855,-0.6255,-150.9764,-89.9162,-165.2980,-51.2909,-122.9358,-91.3879,-62.8774,-67.6011,75.7281,17.6156,-69.6442,-119.2093,-61.8110,-15.3865,-148.1449,-233.3828,-124.4079
-26.1695,18.4986,-122.9501,-93.6821,-169.1188,-68.8750,-137.9885,-143.1122,-52.2084,-105.9711,84.4532,18.8101,-89.7006,-183.7459,-80.5186,-31.6184,-131.2359,-215.9271,-148.6873
-34.5377,-5.7749,-152.5406,-93.5728,-150.2517,1.3493,-142.5706,-111.7675,20.5627,-85.6449,100.5597,7.6987,-101.0173,-229.8597,-89.9130,-24.4786,-123.8080,-204.9198,-125.5471
-40.9458,-12.5701,-126.4654,-87.7640,-111.7511,61.1951,-123.8975,-49.6111,57.1254,-41.3664,93.4524,-1.5311,-86.1202,-207.3170,-88.3406,-12.6999,-116.4561,-162.3725,-75.2231
-61.1979,21.5642,-68.6265,-81.9003,-116.7834,49.5334,-133.6050,-23.2394,14.3376,-23.7656,82.5103,2.4078,-75.3347,-156.7705,-101.4749,-14.2013,-105.3515,-89.8230,-58.5972
-68.9172,44.6610,-59.7340,-61.4619,-142.4453,22.0616,-160.4737,-26.8001,-39.5100,-34.0992,97.7722,10.4862,-84.2913,-131.0524,-126.8781,-23.0589,-67.9722,-42.9838,-45.8662
-34.7284,36.2158,-65.4388,-22.5748,-137.1355,60.4470,-122.8344,-11.2670,-61.3831,-35.4130,111.6370,12.8028,-72.7778,-144.4179,-113.7941,-28.6204,-12.2029,-38.2007,6.2405
-12.4261,21.5451,-63.3973,-10.9355,-129.6891,138.0005,-55.3641,13.4494,-65.5757,-24.9911,91.3547,8.9148,-39.4623,-197.9991,-59.5816,-31.3816,-7.5806,-40.9308,23.2390
-39.6543,8.0562,-97.1124,-44.4540,-135.6768,163.4681,-57.2636,3.0420,-50.8782,-30.3180,74.0212,2.2428,-36.3561,-256.6042,-33.2749,-33.6983,-60.7216,-43.8353,-31.2190
-61.0280,-1.5988,-136.6178,-67.9406,-129.1199,138.0614,-102.9882,-20.1489,-30.2810,-44.1858,91.9123,-0.4552,-62.2395,-265.6511,-58.1549,-33.7017,-86.0288,-61.7575,-63.4097
-50.1955,3.6535,-138.0260,-57.0303,-132.7605,133.2437,-117.3417,-17.4283,-44.8816,-46.4040,110.9485,4.8219,-71.0347,-249.9592,-76.9531,-33.7113,-67.4482,-84.4485,-52.7134
-44.2790,10.4127,-147.2802,-54.9085,-157.2138,151.3166,-99.7884,-18.7551,-81.5141,-52.7393,114.7128,12.1406,-58.5910,-276.0752,-53.8758,-39.5364,-71.4422,-107.5169,-75.0220
-42.1044,4.5831,-170.4057,-72.8141,-148.2870,150.3031,-71.8502,-41.6942,-97.4092,-69.1150,121.4923,15.1362,-44.6903,-311.6734,-18.9847,-46.7312,-101.0987,-142.7042,-113.2125
-31.6635,6.4907,-149.9814,-79.0132,-114.0097,140.2775,-64.7667,-42.4236,-119.2377,-70.1153,110.7544,16.3128,-35.2927,-284.0769,-10.6678,-45.8072,-112.0358,-168.8353,-122.0863
-42.3625,28.6464,-118.0278,-72.4164,-123.6238,145.0755,-115.3010,-21.8516,-193.2092,-66.0042,75.2025,21.1303,-38.8409,-237.4383,-27.9909,-44.9831,-105.8804,-158.2434,-151.9495
-65.9194,44.8899,-138.8198,-66.4175,-154.0837,149.0965,-160.5859,-31.5993,-274.6474,-88.4520,69.2916,28.3407,-47.5442,-253.5891,-32.3881,-58.3774,-92.6311,-125.2394,-203.5226
-61.8818,29.6146,-175.1480,-52.5764,-136.9663,144.3493,-112.3940,-55.4411,-266.6599,-107.2379,90.4044,27.4508,-34.3167,-292.6279,3.1718,-69.8402,-65.3703,-82.6585,-194.0320
-49.5578,-7.7414,-176.4649,-33.9055,-98.9752,152.6833,-45.1169,-36.0143,-152.5993,-75.7359,63.2738,11.9497,-14.2306,-274.9510,41.3076,-51.5955,-44.1485,-35.8978,-143.2050
-53.2320,-32.7958,-153.0884,-28.6979,-94.4676,171.4121,-67.9791,7.4659,-34.0041,-26.1450,-0.9563,-4.9705,-26.0707,-220.8719,26.4348,-17.1181,-47.9288,-31.9357,-129.0515
-45.0929,-25.5845,-118.0534,-37.6468,-107.3364,166.4481,-121.3852,16.8689,-12.9287,-15.4814,-19.2127,-7.2420,-52.2495,-189.5903,-23.3136,-4.7042,-63.1893,-86.1881,-123.9446
-31.8970,-8.7898,-92.6264,-51.6001,-111.8448,140.4572,-123.8782,1.8773,-68.4200,-30.8815,1.9993,-3.1322,-54.4706,-183.6804,-48.5922,-16.4468,-83.4066,-113.1130,-86.9303
-46.5548,-11.9029,-95.2227,-57.8832,-108.0182,140.9527,-115.5620,13.6089,-111.8505,-27.7690,-7.1284,-9.1985,-42.6333,-172.9115,-44.9757,-23.8498,-97.6301,-55.2813,-47.8799
-48.5912,-25.0894,-67.1275,-35.2580,-71.1583,186.5191,-108.9988,59.8438,-117.2817,-2.2091,-57.4598,-22.8152,-29.3111,-140.1014,-38.2960,-18.1949,-67.8794,26.6887,1.2781
5.9785,-26.8881,41.4613,11.0128,22.4597,247.8097,-36.3486,109.3531,-107.3024,26.6324,-111.7503,-32.5129,8.0386,-97.6786,-10.8674,-11.7031,0.9604,69.1771,85.3428
66.2178,-17.1817,150.7779,40.3900,127.4415,286.3719,94.5401,136.6049,-79.7793,50.1208,-124.8317,-31.5415,68.4329,-77.6097,54.5479,-9.3765,46.9467,72.6098,140.1654
75.0618,-1.0058,165.6534,33.2191,163.3562,260.5821,180.1798,121.2463,-28.9796,55.1033,-64.2759,-18.4227,100.7875,-89.0913,102.2797,-10.4545,45.7909,50.7062,120.1878
50.3298,8.6560,109.4128,13.3684,112.8054,165.7244,154.6044,59.3054,22.8777,27.0912,17.9614,-8.8282,66.8503,-111.1918,65.5071,-16.8834,33.3983,41.4129,102.5864
31.8137,-7.5311,65.5271,13.8033,57.3675,97.9365,65.3753,9.4233,46.1299,-8.2652,23.6173,-22.3669,2.7091,-122.9938,-21.9143,-24.9010,47.3721,98.8397,159.0763
40.2365,-28.1539,87.5122,46.1833,91.8321,142.5642,38.0168,42.5848,30.6647,-1.2537,-20.5314,-41.8519,-10.3903,-104.2941,-57.1574,-26.7666,100.3221,190.7502,252.2055
71.0424,-12.1607,153.8789,88.0775,188.2049,217.2015,119.8381,117.3038,2.7348,39.6748,2.6462,-34.3650,41.1377,-56.5383,-16.6101,-24.7509,168.2547,224.6274,307.6546
89.6340,18.5851,174.6151,106.1256,218.2023,203.6206,186.0917,126.6603,-9.4267,49.0223,76.9422,-11.6118,73.0376,-30.7643,15.3232,-27.6075,203.6351,197.4751,300.4290
80.3227,13.2203,122.0617,101.1108,160.5744,143.0036,144.6707,75.2185,-20.2891,14.8024,84.4855,-8.5570,44.6162,-46.0183,-5.1978,-33.8687,195.8972,182.4887,271.2509
72.8914,-15.3498,90.1563,94.0068,147.4795,120.9162,109.5061,58.2399,-21.9750,3.3335,34.7187,-21.8176,28.1308,-35.5706,-14.7578,-30.6936,175.4624,194.3237,272.4597
78.7982,-26.7796,121.6967,85.6355,221.2729,121.3013,170.8366,94.4394,44.4809,46.5960,24.9376,-26.2449,62.8853,27.5354,25.1691,-10.3412,156.2346,185.6087,284.1782
73.4717,-25.2563,133.0836,73.7896,248.2596,118.3999,213.4912,126.0624,151.6709,94.7306,44.3340,-19.9267,84.4885,71.1660,58.7809,17.3358,133.8395,134.0267,242.3061
54.1463,-26.6198,85.2569,63.9284,175.3622,119.1722,161.2443,121.9173,196.5489,101.1844,38.6992,-12.5709,60.4514,55.5679,52.9148,33.5197,109.7887,62.6291,149.3965
38.4328,-24.7055,35.2271,47.7677,120.1115,100.3538,122.4661,88.7290,200.6251,80.6547,49.6745,-4.3990,39.8393,17.5751,50.6047,33.1538,84.2651,6.4494,67.4833
27.3247,-19.4542,8.6502,28.0353,126.2588,72.0938,154.1764,61.8261,238.4002,72.7649,101.2997,4.0525,47.3135,-11.4888,73.9226,30.0691,63.5357,-17.0703,27.5240
16.6103,-16.3448,-4.1435,26.6634,113.5606,89.6241,174.3445,82.2132,236.1913,88.6309,113.4342,8.0171,62.6191,-12.9098,94.3848,32.4546,55.3257,-10.5071,20.3097
5.9128,-3.8376,15.0948,30.5353,90.4046,116.4932,157.2342,115.9897,138.3980,98.7970,71.8932,8.5046,77.5761,16.6704,98.4623,28.4008,45.4254,22.6634,26.8227
-7.8794,22.5746,58.0520,13.0379,126.9297,86.0886,154.6677,98.8294,76.1648,81.4648,77.4993,11.0309,85.7930,28.7541,92.4669,12.4125,32.4162,65.1244,23.9825
-17.3968,33.3873,65.8559,-2.2224,171.4402,62.4239,162.2611,73.2971,131.2715,71.1570,131.5634,13.9366,77.1207,4.6956,81.7788,7.4548,35.5889,69.4925,9.4910
-14.4062,0.3960,19.6088,2.1334,146.7812,102.0827,155.0549,106.9478,207.1376,103.3270,116.0403,7.4726,69.7290,8.3678,87.2470,31.0964,25.1308,19.1329,4.7632
-9.9427,-47.6897,-29.7149,-7.7197,103.6232,112.3142,153.2832,134.5764,229.4942,133.1961,37.0624,-6.2109,77.5882,49.6856,114.4479,56.5999,-32.3870,-35.3811,4.6479
-7.0843,-49.1391,-36.5303,-30.7195,99.3890,41.6986,149.4901,78.5896,197.5018,98.0102,26.3784,-6.1892,73.0631,51.2929,116.1010,46.6836,-68.5479,-58.4475,-14.7453
6.1140,-6.6641,-14.6288,-24.2279,92.5500,-15.5838,104.8700,4.9988,113.4927,29.3227,84.3469,10.5337,40.5492,10.8025,65.3345,14.2145,-26.7098,-69.2774,-33.8852
14.7268,6.0364,-11.5239,-5.3976,48.0217,-9.5678,43.4581,-2.2999,54.5449,8.1293,79.7564,14.0645,10.6768,2.2205,17.1760,5.4067,4.5875,-75.0284,-23.3521
-5.5866,-29.8634,-42.3633,-21.8532,-6.8800,2.3573,19.6792,23.2059,101.1543,38.7301,0.1682,-4.3004,5.9120,21.6844,22.2800,27.5381,-50.8794,-69.8205,-19.5793
-32.8828,-49.1606,-74.3660,-54.0130,-43.9768,-9.8662,25.2027,15.9457,161.1454,51.9765,-35.5655,-12.6722,10.1232,5.9384,49.7802,40.2859,-115.3165,-77.2195,-62.7193
-29.5863,-31.1225,-85.4547,-54.4543,-57.1794,-26.0290,22.9769,-26.9965,129.3455,14.7755,2.1362,-1.2794,2.2737,-46.7960,50.0947,22.5538,-101.7282,-94.5643,-101.5025
-3.5569,-19.8251,-79.9950,-21.1127,-54.5783,-41.2467,6.8901,-70.7044,78.5612,-33.8372,25.6777,4.3699,-18.5879,-83.0307,23.7541,-0.1397,-31.2413,-73.2966,-82.2292
12.0998,-11.5523,-45.8565,19.5355,-47.5572,-62.4261,-17.1002,-88.4262,61.6823,-54.3516,0.3682,3.0915,-34.8231,-63.9167,-0.2080,-6.2953,42.3529,-14.2424,-62.0264
6.4120,25.2048,17.5826,44.1646,-24.9107,-79.0785,-36.4558,-74.0617,-3.0968,-51.4726,-22.3814,12.9330,-25.1827,1.4045,-3.2081,-8.5268,87.2922,38.4763,-88.5764
-5.4603,53.4105,57.9969,48.9284,22.4661,-63.2737,-22.6654,-32.3618,-106.1736,-36.0022,-14.7604,21.1193,7.0566,58.8970,10.7388,-17.0714,95.9926,88.7097,-77.2178
0.1388,32.6144,48.5904,54.7460,66.2112,-8.5163,26.5243,18.2805,-120.5046,-9.3996,6.5532,10.7005,31.6900,63.7221,20.6837,-20.3979,99.7625,138.0821,27.1270
29.1144,3.5905,36.7134,71.5012,83.5684,39.7957,68.7952,39.2761,-46.8815,6.4086,30.1241,-0.1841,31.0235,28.9570,15.9044,-15.7552,125.4439,135.2088,116.4420
52.5257,2.8075,40.7304,84.4936,80.5254,55.5575,70.7179,28.8160,-7.5900,-0.2945,41.6869,3.2522,19.8807,-0.6548,10.8593,-12.9437,150.6400,87.7086,104.3016
42.3598,-0.8925,14.2646,89.8489,58.2197,84.1520,43.2961,48.6055,-26.4498,8.2815,24.7205,6.2660,17.4019,3.5810,18.0265,-6.4686,150.0583,69.4369,60.6541
16.0182,-25.5876,-41.1784,87.6488,28.3993,136.6381,23.9739,110.7240,-22.2848,51.4153,2.0140,0.7226,24.0220,32.1289,30.3888,12.1569,123.2692,70.1080,55.0460
6.5055,-44.0745,-67.4913,67.0025,16.8494,151.9489,36.9346,141.6044,31.2153,85.9632,3.9289,-3.9165,31.4381,47.3938,40.2459,29.7153,76.3549,32.6043,62.6557
9.6437,-45.8246,-61.3484,46.5858,10.8018,129.3652,55.0550,126.1103,76.1801,88.1822,10.5264,-5.1186,32.3283,38.5129,43.3620,34.2736,43.2400,-0.9246,61.7567
2.9293,-42.4172,-60.4042,56.1271,-11.0020,126.8445,32.7493,120.5809,73.7433,82.2487,-4.1956,-6.1677,21.5310,33.0027,32.4745,33.0259,59.7055,26.0337,54.3828
-14.6169,-33.8272,-57.6007,65.9693,-23.2645,131.8792,-6.7813,118.8532,50.2556,73.8744,-25.2055,-6.5912,9.2099,30.0420,20.1832,29.3094,80.9256,70.5716,26.8900
-35.6067,-21.3652,-37.2877,34.8651,-8.1653,108.0079,5.5370,92.1031,43.7754,60.8681,-34.4565,-7.7101,19.8852,7.9468,38.9717,20.7676,40.4087,92.9876,-11.2764
-54.0693,-14.1186,-18.6832,-7.0936,23.4856,82.0055,68.1489,75.3758,70.8797,65.1778,-23.2979,-8.4951,52.0151,-9.1331,83.8836,17.1263,-21.3661,104.5040,-32.1559
-50.0234,-10.1338,-3.2986,-15.1357,71.5777,65.7076,108.0633,72.6788,134.2919,76.5545,13.1579,-4.6745,63.8824,0.3371,99.8171,23.3183,-22.4892,86.4032,-40.0830
-20.1295,-8.5489,20.9699,-0.7128,100.4225,35.1782,87.9111,40.9906,199.7126,60.1026,32.2338,-2.8017,34.3642,3.9297,63.9712,28.1748,18.3444,38.0818,-41.5623
-1.0588,-15.0311,30.9114,12.1547,61.4432,15.4117,45.6674,12.6005,206.2463,38.8700,-7.7344,-8.5313,4.3618,-3.3477,29.7757,28.9729,34.9940,21.4104,-32.4124
-3.7235,-13.7496,22.0262,25.2415,23.1098,37.2952,43.3994,38.4155,145.0682,48.9594,-38.1061,-5.9248,18.0032,15.3559,46.1673,29.8964,35.9856,33.2754,-34.5284
7.6134,12.7120,31.1581,38.3284,61.5104,66.1691,87.1045,72.6592,59.7493,59.8139,15.1214,14.7236,55.3515,42.9953,81.0897,22.4046,56.2368,4.6291,-49.4148
28.5658,37.1212,39.5589,38.9933,70.4788,70.1895,97.3458,68.1604,-21.6488,42.1773,73.0547,30.2612,61.7084,34.1307,71.9032,6.0960,63.4638,-46.9964,-37.3143
19.3362,27.4410,-3.4754,25.8127,-39.8991,60.2684,22.2007,49.2845,-70.9202,20.9070,45.6376,23.3991,22.8055,3.2504,18.3375,0.0148,26.1567,-65.3465,-12.3155
-1.8938,8.2777,-53.1846,18.7609,-133.7266,43.4852,-62.2314,30.0866,-56.7177,9.3288,-2.0238,13.4746,-21.1310,-13.4359,-23.7989,6.8820,2.6046,-69.0704,-31.7052
-2.4076,16.7747,-41.1930,30.7168,-103.5755,22.4971,-81.4259,4.7075,-21.2876,-5.7220,1.4914,17.8942,-35.1880,-13.7370,-27.4095,8.1388,39.9281,-66.3094,-86.9607
-10.8851,36.3743,-15.3112,30.5118,-61.5102,-3.6109,-86.2688,-23.6208,-33.8053,-27.2686,8.0633,23.5763,-34.8767,-16.1514,-20.8349,-1.1999,59.8607,-39.5969,-136.8755
-35.1482,31.4959,-43.3615,-16.2998,-94.8625,-54.2683,-118.8204,-77.4158,-80.2067,-64.0890,-15.8701,17.6733,-47.6079,-48.5655,-27.0357,-14.8489,-15.7412,-47.9895,-171.1786
-31.2667,9.7630,-87.5764,-73.1754,-129.6108,-110.2454,-124.6424,-150.2955,-131.2824,-115.0098,-26.4155,8.8360,-59.1212,-105.5944,-32.0345,-33.8911,-113.9595,-111.3764,-164.5554
-14.4629,7.6374,-87.8812,-81.0673,-108.6884,-108.9185,-93.8007,-156.8724,-205.6032,-132.0769,-4.2870,7.7627,-44.6483,-117.8975,-29.8945,-52.1654,-127.9194,-110.5902,-102.3448
-33.4836,35.6074,-47.9073,-54.5699,-64.6720,-54.5814,-90.7226,-76.2901,-269.0216,-91.2674,25.0098,13.3018,-21.8931,-56.9141,-40.5077,-54.0495,-79.5234,-16.8674,-47.5031
-55.4557,62.5191,-0.7951,-39.2021,-35.9811,-16.9416,-118.8059,-12.8723,-254.3975,-47.6265,33.4470,18.2033,-20.2177,0.7089,-61.8842,-40.3745,-45.8691,25.5909,-53.5472
-37.9644,60.3172,20.7160,-33.9825,-38.2392,-19.0170,-133.4709,-26.3118,-205.9678,-50.0310,3.4911,17.6267,-33.0102,-1.7233,-65.3306,-29.5495,-37.9916,-23.7243,-91.3786
-17.6102,48.9708,10.1972,-28.8051,-56.4969,-45.7115,-135.0625,-78.2319,-207.8081,-86.5827,-30.2936,16.1430,-42.6698,-36.2709,-52.1366,-35.4708,-32.6340,-52.9012,-126.6216
-19.0013,62.0661,8.1809,-33.5875,-56.9012,-94.0764,-130.5413,-137.3435,-224.3796,-129.2275,-5.5974,21.2227,-50.6035,-77.4016,-52.5625,-54.5273,-22.7744,-33.6042,-148.2964
-14.2249,85.7139,38.5857,-35.2110,-42.3780,-127.4895,-102.8956,-171.3158,-179.6860,-145.2603,52.3542,27.9386,-55.1935,-110.7560,-64.7932,-64.9995,-1.0659,-17.4903,-134.4127
4.2767,85.5129,72.8375,-9.1158,-24.6658,-94.2836,-54.5148,-133.4353,-94.6400,-108.2469,65.3543,27.0960,-41.4745,-98.6069,-54.9066,-50.1922,39.6791,-4.0721,-89.3461
30.3729,67.1729,97.7621,30.6100,21.7008,-26.7875,-0.4891,-60.5565,-39.3912,-53.8581,41.4479,22.6824,-11.1240,-47.9533,-19.8639,-26.9100,87.1640,4.5294,-47.3813
60.3857,57.3046,123.4020,52.2186,80.4531,2.2143,39.0357,-33.2829,-38.4795,-38.7977,34.4355,20.5817,9.0104,-17.9968,-0.8108,-22.0792,117.8184,-2.0572,-10.2372
56.9917,59.6978,133.1699,53.6473,84.6600,9.1570,37.2955,-23.8707,-60.9295,-38.1630,41.9653,16.2173,7.9290,-17.9422,-18.4956,-29.1774,123.2619,39.1001,39.7516
13.9295,61.1744,122.1453,59.4079,57.7325,67.3915,32.7124,44.7970,-59.4630,5.8876,50.0584,8.2461,16.3297,-13.1411,-29.7557,-26.0168,127.9907,152.6308,102.1463
1.8525,44.9864,118.2406,77.5449,91.6976,158.6021,98.8527,129.2637,-18.5181,64.9036,57.4929,0.1139,55.6189,-7.6401,11.2860,-14.8508,147.3864,230.1641,164.6301
32.3018,5.1993,112.4401,70.2085,162.6123,164.9670,181.1714,119.2366,33.8985,67.0652,34.7128,-12.2127,86.1103,-17.8474,69.0684,-10.0649,128.0463,205.3475,187.8077
22.1298,-28.8667,72.3201,8.1745,161.6071,50.2488,165.4224,25.4125,54.4875,20.5862,-14.0161,-26.8506,70.0571,-23.6893,76.8602,-12.8663,25.5613,157.7734,142.7310
-34.1070,-24.1715,21.7890,-50.6028,94.1207,-46.8041,101.2936,-24.5149,15.0042,-3.5728,-20.0784,-27.6655,47.8648,-11.2949,52.4495,-18.8104,-70.4730,162.1194,90.4777
-50.1115,1.7305,5.9811,-27.0129,62.8695,-5.0882,99.6200,20.7784,-61.9880,12.4053,23.4405,-12.3125,61.8914,-3.0014,55.5106,-26.0413,-36.1659,197.4882,94.4058
-13.1950,12.4581,19.6792,50.3947,83.1623,93.9490,110.2454,71.6366,-109.3675,19.9590,39.3878,-0.4451,70.3811,-13.3704,64.5927,-30.3237,88.9592,216.6900,109.8552
15.7357,7.6390,34.2325,90.1602,81.0432,117.9083,59.0586,63.8540,-102.2712,2.4870,8.8272,-2.5167,37.7128,-22.0645,30.1923,-28.1575,157.5632,200.9002,103.6346
16.1920,3.9893,43.8916,67.2033,45.7470,82.7700,16.4565,43.5831,-77.1796,-3.0314,-11.4786,-9.7674,10.0776,-15.7130,-13.0994,-22.5307,117.9047,164.3805,118.8478
3.7673,9.4700,59.2575,21.5372,30.3649,56.4553,30.1672,36.2815,-40.2134,8.3701,0.3624,-12.9647,13.3132,-21.7450,-20.3089,-18.5523,43.5522,132.5520,131.1083
-7.4475,26.1255,82.7548,2.8886,32.9554,43.1034,29.7517,16.2116,27.1161,7.5536,18.5339,-9.4807,5.3966,-51.0652,-23.7055,-15.2566,29.6918,115.7267,85.3525
3.8083,37.0604,99.0851,47.0242,19.9899,57.0566,3.8408,22.7714,91.5014,14.2032,22.6495,-2.6631,-16.4339,-47.9247,-42.5362,-3.8054,109.6353,119.7818,57.3833
35.8205,20.0058,90.9146,117.6325,6.1547,108.2595,19.2982,91.4593,120.6495,58.8149,8.7886,-0.4138,-8.6290,16.4803,-36.2018,19.1050,199.6244,128.1399,110.0220
44.2665,-7.2181,52.7669,116.5310,-10.5268,120.0231,45.0379,129.7645,129.1809,92.6695,-5.9076,-2.6415,10.3873,63.1791,-10.2446,37.2928,168.6630,80.6701,131.3119
7.0227,-7.1375,-3.4224,36.2970,-73.9911,61.7864,-6.5464,76.8396,107.7135,66.2168,3.2466,-0.6444,-10.8634,25.3996,-24.8422,32.8387,37.1571,-14.8924,51.1735
-35.8690,20.5028,-27.1264,-11.7679,-150.3070,42.4688,-98.3602,35.9322,49.3909,29.9278,23.1752,4.6953,-51.0272,-39.6621,-78.4300,15.2167,-26.0281,-39.0820,-11.2193
-40.0969,45.0554,25.2305,15.9361,-152.8547,105.9940,-119.7255,77.4406,26.5127,44.4468,18.5406,3.9113,-55.7896,-51.2754,-107.4218,10.1158,27.0904,32.2090,26.3215
-14.9074,40.2078,91.9790,39.2605,-93.0341,145.2864,-57.6393,124.6771,79.4345,84.1826,-7.9112,-4.1604,-25.9212,-13.1962,-83.7070,23.5653,59.1978,66.7223,88.1331
2.6886,6.0083,88.2535,13.5061,-26.2248,118.9585,13.6629,124.2366,124.3394,101.1109,-28.5726,-14.1040,7.5835,27.3871,-33.2057,36.2428,4.5030,23.9342,106.8580
2.0528,-21.2230,63.2168,-20.4217,49.4863,102.1609,46.9167,108.6211,99.4841,90.6911,-39.7923,-21.9417,30.5272,38.5117,6.8456,32.0964,-51.0836,0.4935,93.5676
-8.4246,-13.3018,81.9533,-33.5317,101.1196,109.4276,50.3096,97.7391,63.9104,75.6764,-45.9385,-23.0156,40.4053,23.1971,21.8822,20.5501,-58.5483,26.7728,63.8616
-28.5356,4.4482,87.8388,-19.6337,74.8983,102.0749,61.5474,102.2554,84.0636,84.6839,-36.5285,-16.8166,47.3914,21.5660,34.8146,21.3545,-32.8081,84.3891,43.5203
-37.2132,4.0288,77.6863,31.0568,53.3270,99.5969,114.9116,133.7041,150.7406,118.2591,-21.1169,-13.3115,67.7412,52.3213,65.8935,32.6699,42.4135,187.4939,77.0503
-0.5240,-2.0688,141.1074,75.3837,134.5598,111.7367,185.3035,146.4601,205.8800,129.9781,-32.6465,-20.5467,90.1007,75.5077,88.0012,35.0908,121.8194,256.5109,147.4595
45.7576,-7.8759,209.9101,41.0962,221.4749,92.8999,201.5969,101.2311,183.6765,95.2869,-61.2312,-30.8359,90.4756,61.7527,78.4610,23.6872,77.4271,177.1618,171.6036
31.4945,-19.2139,142.8845,-39.7250,193.3472,50.1024,158.2145,49.4061,83.6767,53.4971,-51.6467,-29.3179,78.7029,29.2396,70.0867,8.7110,-60.3812,47.0546,116.2440
-16.0585,-16.3423,32.0358,-58.9200,124.6231,40.7525,127.0639,39.7557,4.1962,37.1617,0.1536,-14.5957,76.4890,-1.6000,85.6649,-3.5171,-95.9421,40.1533,43.6616
-23.4569,2.7500,31.6961,-10.4341,120.5923,57.7071,127.4924,47.0868,25.3354,37.1879,28.9533,-3.6354,73.2487,-13.3310,91.4001,-5.9415,-3.3856,109.7501,16.8823
-10.5585,-0.2296,66.6920,11.4528,135.3564,53.6538,102.3569,47.2317,100.1960,44.2794,6.5874,-9.9039,50.3165,5.2745,61.5645,6.7018,40.0212,119.8372,27.3055
-21.4576,-30.6207,26.2288,-17.2035,90.9548,31.6376,37.6096,42.6861,129.4184,48.5311,-27.0985,-24.4189,15.5373,22.0240,16.3335,20.0627,-19.2171,75.3493,44.6931
-21.0716,-51.6913,-32.0748,-26.2369,10.7756,22.7511,-15.9796,32.9043,85.8640,35.0497,-46.5303,-29.3770,-11.4214,13.9631,-16.8375,19.5055,-53.8793,31.7486,64.9076
10.2453,-44.1322,-39.2141,18.0791,-34.8720,36.9870,-35.1165,34.0851,11.2155,18.3276,-54.5800,-18.5077,-18.6663,19.6250,-25.1946,13.7010,4.4058,5.9181,68.0892
23.5691,-6.8846,-5.9741,70.4685,-25.5667,64.8844,-40.9349,55.5891,-54.5491,16.6951,-41.1685,2.5469,-8.4838,44.7021,-13.7365,9.0917,94.1558,19.7972,20.2392
10.1622,39.6290,43.6650,81.2982,-0.5093,82.7486,-47.1120,63.1128,-87.9056,14.2478,-13.9531,18.7868,-0.1524,38.7404,-8.9919,0.4043,132.4287,46.8039,-40.6969
10.4171,41.1989,59.8220,46.7164,4.0207,72.0340,-53.3360,45.0004,-74.2443,6.7985,-11.4330,14.3606,-7.8556,16.3862,-25.0636,-1.9631,82.1463,6.8660,-37.3714
15.4643,-9.6221,-1.7485,-6.0926,-15.8731,43.5047,-69.3623,29.1518,-43.2045,7.8110,-34.9811,-3.2651,-23.3226,21.1937,-40.1959,9.8148,-23.8942,-90.2610,-3.6732
-6.5393,-40.3542,-92.1418,-44.0748,-63.0276,17.7896,-110.7473,5.1719,-59.2332,-6.2150,-46.7293,-7.4381,-39.8576,8.4381,-39.1405,13.0431,-99.5618,-153.6970,-50.9805
-30.4230,-17.6053,-130.3491,-40.7130,-121.7134,9.1506,-160.8008,-35.9419,-115.9123,-46.1042,-39.3666,7.6215,-57.9493,-47.4330,-34.8933,-1.7184,-85.4721,-157.9513,-162.2616
-19.0726,11.2534,-99.0999,-4.3736,-135.7712,27.8499,-164.9486,-41.6294,-122.1038,-57.2317,-30.5478,20.6517,-61.7656,-71.1621,-33.0517,-6.8886,-16.9274,-145.3335,-202.3131
3.3418,15.3295,-42.9364,0.7026,-100.1922,48.6416,-112.7684,-9.0569,-48.4758,-21.5608,-19.5727,18.5236,-44.1183,-49.9025,-27.5851,6.6352,-8.9659,-158.2532,-150.9876
-7.9220,5.7595,-36.3236,-69.1639,-88.1327,19.5133,-75.3790,-19.3258,20.6911,-4.6631,-0.2274,9.4713,-33.6722,-62.5866,-23.9704,13.7801,-121.9653,-216.5607,-127.9281
-38.5100,-1.2220,-86.5285,-141.4710,-112.1622,-46.8190,-90.8617,-81.0670,10.0860,-37.4103,20.0116,7.0039,-44.3781,-105.4087,-26.1305,2.4232,-232.9538,-267.2826,-171.4587
-38.0175,11.2335,-87.9662,-119.8279,-104.1211,-68.7459,-105.9527,-112.2824,-66.7792,-74.8186,17.7512,12.8965,-47.6881,-112.2368,-24.3690,-16.6557,-188.3915,-219.7451,-192.1557
-9.7645,29.5413,-7.7806,-43.3840,-52.8532,-18.4620,-85.9172,-78.7288,-132.8616,-74.4657,-30.5966,12.7225,-27.6411,-80.7950,-11.3573,-26.3073,-62.1238,-98.9416,-148.3315
0.9196,12.2116,35.2694,-12.6791,-3.4155,37.6231,-49.5914,-13.4139,-111.8398,-29.6768,-88.0361,-1.1003,0.1073,-27.3249,12.3577,-11.3264,-26.9727,-28.5248,-86.2638
-2.9239,-27.4763,-1.9322,-28.7647,32.0516,37.5443,4.9142,32.0574,-15.2463,23.9870,-72.4916,-11.9294,22.4818,28.1975,37.3115,14.4311,-68.4158,-44.6519,-29.8244
5.7474,-40.6940,-30.0419,-42.5151,53.9928,2.4073,71.0192,18.0453,67.5966,31.7790,3.2102,-11.1529,32.1414,17.5489,47.3789,16.3864,-83.0103,-63.9538,23.4058
2.7722,-36.5808,-21.7593,-48.0290,61.0941,1.0893,104.6891,-10.2497,98.4873,13.7515,30.8893,-14.9228,33.2424,-47.9368,51.1464,1.6195,-75.2549,-14.7613,50.1033
-24.0317,-37.5603,-9.8581,-40.9503,70.4738,44.6108,109.3438,23.7678,97.6851,34.8125,-9.4342,-22.3095,49.3984,-48.4323,75.4137,4.4832,-66.6768,69.2987,39.0265
-24.9977,-26.4375,4.4692,-21.6911,65.0798,55.3717,112.1851,57.6139,52.7740,55.5784,-37.4451,-14.2827,70.0399,7.7175,100.0940,13.0541,-51.1167,72.8751,9.8917
4.1896,-19.2611,-11.0235,-36.7079,11.1006,-7.5948,82.3239,-6.5732,-18.5917,6.5016,-37.1760,-3.6532,50.2138,-4.4383,81.3245,1.4608,-83.4638,-38.7181,-22.3829
2.2381,-50.0266,-75.5635,-88.1732,-38.1738,-66.8574,33.3852,-76.5617,-22.6032,-38.1081,-48.7507,-14.5242,12.8089,-50.4901,48.7331,-5.9364,-170.7442,-119.4784,-30.8153
-26.6077,-80.3175,-99.0068,-98.2372,-11.1305,-51.8169,55.3449,-30.3837,55.5081,8.6082,-60.3108,-30.5616,25.8742,-13.3393,62.1754,12.6121,-193.9230,-56.2996,13.3841
-21.3890,-68.9919,-36.7663,-47.2267,48.0468,-0.6083,122.5672,51.4964,116.0557,72.4018,-57.0327,-29.2774,65.1311,55.1927,93.5765,31.0206,-113.0556,37.4773,66.7948
10.8203,-50.6957,15.9238,-0.7893,64.7649,28.9764,115.5191,62.6683,113.4737,70.7093,-67.0835,-22.2143,59.5395,64.0760,82.6427,32.3637,-32.2567,36.0935,64.1626
20.2354,-50.3435,7.3210,8.9437,48.8742,25.3736,55.0592,39.9582,85.2948,44.4093,-84.4453,-20.3247,29.3636,55.0314,52.2955,29.3240,-12.8001,-0.1734,28.5363
2.1229,-46.1791,-17.1585,-11.2891,30.0452,-16.6413,35.2227,15.5377,58.3480,29.4157,-74.5694,-16.9880,23.0263,59.7134,47.1911,24.1551,-43.8057,-6.8157,1.6958
-24.2349,-36.0670,-39.5951,-58.9994,6.2621,-79.9673,24.8057,-31.1293,42.4309,5.8064,-50.6988,-13.0604,17.7213,40.6943,44.5275,14.5356,-113.7067,-30.5175,-38.2032
-41.7064,-30.8579,-60.4186,-94.6686,-19.1957,-103.9483,-16.9894,-61.6280,28.6671,-14.8892,-37.1791,-11.9511,-3.5329,11.5633,19.7062,8.1778,-163.8507,-70.9853,-73.2310
-28.6834,-29.8709,-64.5142,-69.2537,-38.7417,-69.0441,-24.3541,-38.9484,-1.8422,-11.6155,-24.5460,-10.6934,-8.8301,5.6560,0.7669,4.0380,-127.1280,-58.5716,-25.5835
4.3850,-40.8283,-65.5291,-9.8125,-51.1040,-38.4795,16.7438,-12.3743,-2.5654,-2.4614,-13.3549,-12.5336,-0.8484,10.0940,0.7784,1.3392,-40.9990,1.7148,76.0303
16.9098,-48.7179,-65.9741,23.3223,-52.6151,-67.5534,21.1078,-28.3202,70.3301,-5.1785,-5.8727,-14.6911,-16.7343,19.3448,-12.6488,7.4065,19.4187,37.0738,101.7213
4.7677,-16.0275,-34.9625,19.5475,-51.5115,-127.5170,-28.6837,-73.0515,129.2591,-24.8643,24.1208,-3.8179,-50.9982,20.0276,-51.7392,9.2949,42.6878,21.2611,29.9566
-6.7802,32.6977,13.6934,6.5721,-47.2123,-136.4429,-52.5511,-100.2479,96.8640,-49.6069,62.5340,10.2869,-60.9239,-18.0913,-73.3827,-7.3247,48.8889,18.5583,-22.8401
-14.3572,38.3608,48.8165,17.9344,-1.5505,-53.3648,6.8682,-50.8585,52.4322,-29.2284,50.6396,4.3634,-18.6663,-44.8686,-31.1595,-18.9261,67.2192,116.0961,20.7724
-11.1701,12.9876,89.6370,60.9300,98.7310,59.5219,129.6278,60.6835,67.7305,44.0628,7.8485,-12.3825,58.7120,0.6786,54.0267,-7.9832,118.6147,267.5447,123.5207
25.6393,3.7162,146.1207,92.3967,203.8013,104.5748,240.2201,116.5586,103.7374,86.1834,15.3552,-16.2845,111.8682,47.7225,105.4101,0.3738,165.6966,305.7894,207.5463
72.1687,19.3545,199.9331,82.7396,264.6953,72.4901,272.3661,74.6313,132.0295,61.5544,62.8191,-8.6623,108.3131,33.1232,91.7176,-6.6408,170.7729,216.5709,218.7576
69.3337,50.8463,242.7312,64.7435,257.5989,34.4452,234.5971,40.5481,151.5729,45.5281,70.2365,0.6434,87.6192,28.3472,64.9808,-6.1203,158.1634,166.7780,153.4955
26.3231,70.5885,235.4215,60.9211,180.5413,30.5069,183.4743,70.4550,148.1094,75.0103,35.5969,8.3397,84.0176,69.2597,65.2804,11.0962,136.7789,177.6189,75.8075
16.0537,42.8052,153.1703,54.3268,91.7004,30.9211,158.0438,92.3816,148.9249,96.6295,17.2541,8.7129,77.9039,92.6595,71.1328,29.3663,92.0984,114.5311,58.9608
48.3768,4.1989,79.7614,44.4406,47.9934,-2.7868,157.6232,56.4202,172.3148,77.6615,26.3138,6.9887,59.8171,78.3709,66.5794,35.3354,57.6611,-2.4251,70.7786
49.0251,19.0655,69.1321,28.5648,7.1611,-55.1538,135.5691,-3.6306,165.0394,39.7551,39.5527,16.5031,41.2711,42.2090,58.4124,26.4199,39.5686,-53.6909,9.4997
-9.0544,50.2850,42.1337,-13.7817,-66.1388,-77.9334,59.8467,-36.3410,129.4742,17.0534,47.0003,26.2412,16.6854,-6.1174,39.7646,17.1583,-17.2674,-58.6512,-105.0826
-54.0612,35.1231,-14.8947,-49.0988,-92.0317,-69.2218,0.0122,-19.3838,126.5323,29.8077,38.8827,19.6448,-0.3850,-1.8079,21.7977,24.7413,-78.5212,-65.0228,-139.3324
-31.5413,17.0137,-0.1027,-21.8884,-24.8886,-65.5745,21.9647,10.4519,112.5192,46.3408,17.1601,14.0664,16.0720,71.1185,33.1890,32.4117,-41.9571,-43.7953,-91.2923
19.1952,46.9902,76.3180,33.8528,37.6968,-62.5331,40.1812,-9.1498,32.6797,11.4421,9.5842,26.7319,26.1197,84.4090,40.9884,14.6475,61.8929,-29.1707,-95.2127
37.9344,76.8808,98.0514,48.0610,8.0479,-45.5391,-37.2251,-63.8121,-32.5740,-51.4468,15.3244,36.3008,-19.4604,-1.3163,-10.2272,-9.9268,108.2756,-67.9024,-149.9860
19.0872,56.5160,45.3303,25.8332,-75.8922,-47.8586,-132.4830,-75.7620,-37.0565,-64.6688,-2.4745,23.3183,-72.1971,-31.0868,-82.0937,-9.7561,65.8996,-87.0803,-122.4140
1.2806,11.0117,-19.8643,11.2345,-130.9592,-70.4665,-143.3637,-28.9712,-50.9505,-24.2731,-34.4176,5.0949,-69.7782,51.3731,-99.9493,7.1870,3.3217,-61.4330,-12.2314
24.0984,-15.3138,-53.1827,27.5126,-116.6003,-60.2425,-96.7460,10.2086,-87.3120,-0.6089,-27.4576,3.8652,-42.3146,107.7599,-75.4590,13.4826,4.8195,-76.6390,59.5477
79.7706,-3.3989,-25.9486,75.9705,-53.6062,-30.1127,-53.7115,-9.6252,-111.7777,-32.4997,15.6731,16.9532,-34.9896,69.8795,-59.6358,-2.9333,100.9065,-103.8943,62.8345
108.6942,31.7971,41.0817,114.9775,-1.3171,-35.3835,-33.0101,-57.6047,-139.3469,-80.7976,39.2823,26.9468,-37.1061,19.8356,-60.0472,-29.2642,196.8501,-52.1181,51.6485
83.1721,45.6680,75.3730,89.0518,12.4875,-53.8261,-34.3101,-60.3289,-134.6028,-76.1713,31.1575,21.7884,-32.5818,24.5746,-66.3430,-32.5286,164.2818,-3.6395,55.7038
50.5715,21.2639,60.0829,21.3223,16.3959,-54.6041,-26.6030,-14.1245,-45.4980,-16.4501,28.3439,7.2799,-23.2311,67.8762,-70.1273,-4.5423,40.2232,-53.2859,82.7759
47.3342,-0.0976,37.8940,-12.7416,24.0280,-72.6133,4.0876,-0.8526,21.1130,12.3604,45.4323,1.4531,-13.4837,92.1376,-61.6437,11.4250,-24.6134,-104.5221,109.2069
48.2444,12.6772,17.0239,-4.6740,5.2057,-111.3725,-3.4041,-55.8889,-51.1619,-37.9275,60.1553,10.5827,-19.4562,55.5046,-55.7697,-11.9524,-2.4492,-86.8887,75.5511
30.8502,33.4524,-14.1442,-13.4652,-46.9159,-135.8788,-66.7467,-124.7733,-164.6127,-106.7520,52.0502,20.3058,-44.0123,-16.3214,-65.1572,-41.6266,-5.2444,-86.2423,-15.5774
3.3299,27.5805,-45.4769,-64.4862,-91.8827,-158.8083,-103.8818,-165.6790,-175.7558,-130.3092,22.7516,15.5219,-58.1389,-64.1809,-64.2852,-46.0950,-90.2435,-125.9327,-83.2430
-29.1410,-2.5272,-80.0833,-114.8812,-111.2649,-187.7657,-103.2716,-173.8157,-97.3370,-113.0705,-6.9451,-1.0594,-60.3393,-67.0860,-55.6715,-31.8701,-180.9561,-128.7165,-88.5773
-55.5183,-30.1732,-127.3105,-117.8310,-135.2456,-191.6873,-136.6362,-150.3174,-13.6883,-84.1041,-9.4211,-12.8143,-82.3428,-42.6140,-81.7765,-12.6859,-190.4063,-102.0938,-64.0423
-53.6247,-32.0545,-154.2406,-88.4240,-163.2856,-184.0769,-169.3540,-131.6771,14.9085,-73.1708,21.8366,-8.7014,-105.9664,-26.6931,-116.7920,-4.8453,-141.6023,-100.6488,-42.0765
-34.4303,-5.9955,-115.8136,-74.2309,-141.2314,-188.1789,-123.2203,-141.9664,-30.3094,-86.7259,50.1165,2.8257,-83.7470,-35.7669,-96.4413,-19.3841,-111.4159,-90.4635,-33.8824
-34.3109,23.2318,-34.5268,-78.6058,-79.4043,-170.7385,-71.1729,-125.1398,-97.9057,-81.3363,27.8849,5.1875,-39.9773,-19.4682,-57.3102,-31.3151,-113.9879,-34.7800,-31.6436
-52.3279,22.3553,-5.3978,-73.6929,-78.3657,-136.6620,-112.1122,-63.6391,-131.3162,-42.9697,-34.5875,-3.6522,-36.2333,51.9820,-72.4446,-16.7439,-121.8724,6.2234,-13.9368
-54.1852,-8.2856,-71.8555,-60.1641,-156.1979,-146.0301,-184.0729,-43.1291,-148.3271,-31.4820,-69.2102,-9.8185,-67.6930,102.8267,-112.7433,-0.6964,-128.0866,-24.9237,11.2155
-33.1168,-21.8867,-131.5660,-49.1217,-198.8367,-188.7624,-197.1005,-80.6969,-170.4096,-60.8627,-40.9433,-2.7760,-86.4022,97.2566,-125.2383,-5.6824,-117.3029,-83.3981,14.7092
-17.1751,9.8283,-80.6537,-33.7170,-149.2112,-201.2584,-172.5631,-84.7353,-172.8020,-64.8220,6.0068,10.5740,-77.5943,112.6734,-127.0947,-11.6844,-72.9293,-84.9052,11.6501
-18.7088,41.6607,13.6419,-12.7348,-76.0341,-165.4998,-142.7285,-32.2187,-145.4966,-26.5367,14.3816,12.6259,-55.0198,157.1942,-126.7362,-5.6782,-23.1280,-13.0102,41.5889
-15.5425,24.9809,39.4782,13.2461,-32.8879,-105.3054,-99.7265,15.5007,-99.7364,6.5779,-15.8877,-0.6056,-33.3132,162.5786,-102.3121,2.3124,15.2589,68.8376,95.9073
3.5255,-6.9248,16.0617,46.6939,-9.2086,-76.4763,-68.4611,32.2664,-54.9922,17.8677,-33.0264,-8.8223,-25.9201,165.7250,-78.6487,10.6277,61.2447,93.6348,127.6876
8.8460,0.7637,1.1687,56.7710,4.5675,-122.8329,-71.3201,24.3954,-58.2857,16.4335,4.3978,3.6428,-27.5053,216.5449,-81.1929,15.0839,80.8979,61.2322,106.5393
-20.4700,31.9961,-7.6029,17.6485,9.8042,-173.8244,-64.6596,4.9428,-105.5361,8.2384,59.0852,20.8044,-12.4725,230.2732,-66.0185,6.4066,27.9673,31.7834,42.4772
-50.0083,39.5725,-6.6280,-17.7767,8.2933,-140.7045,-21.6356,3.5814,-100.0058,12.6323,49.1629,20.5697,17.8442,166.1268,-9.6836,0.5766,-28.2598,48.6832,-18.8333
-37.6294,20.6405,10.2714,8.0072,-5.5637,-93.0884,10.6441,9.1089,-14.8254,24.8206,-19.1517,10.1860,26.6900,123.5333,31.9641,13.2354,2.9876,76.3754,-43.2479
-2.7417,5.4750,6.7565,51.5066,-22.1599,-129.5907,-3.1090,-27.1187,41.6250,4.9450,-48.5276,9.8215,2.2801,134.5288,23.4038,22.1968,70.6721,57.6073,-55.1188
-3.4720,14.6107,-19.1570,40.7753,-27.7873,-198.6202,-39.1203,-85.4956,17.1376,-37.3595,-9.2051,18.4512,-24.0181,127.6795,-4.8590,9.7846,69.4495,23.6264,-86.9986
-45.1217,37.0208,-15.9017,-7.4313,-29.7329,-217.8101,-59.0643,-98.1239,-2.1101,-44.1639,29.8983,19.2821,-29.3223,100.7562,-26.9429,-2.8827,9.8632,47.9862,-96.8649
-53.8960,33.7397,17.6400,-18.0252,-19.0884,-184.1908,-36.0857,-60.0390,42.5371,-11.5827,28.6472,6.2013,-21.3068,98.2577,-40.7901,1.7982,-7.0580,101.2104,-15.8531
14.3507,-8.3281,30.2266,34.6481,11.0303,-117.2978,15.2966,-21.4216,85.7627,7.6384,6.4942,-8.9075,-15.5319,100.9329,-42.3233,10.8975,60.2293,91.3448,116.9228
85.3732,-35.5763,12.1459,92.3195,9.9164,-63.6681,24.4500,-18.9682,50.2697,-12.6584,-7.5625,-8.7058,-24.0488,79.2946,-43.9831,7.5054,138.0811,27.0598,165.6581
78.6993,1.1134,13.1797,97.3909,-30.4194,-67.0325,-27.6530,-42.6901,-23.6428,-43.3524,15.0252,9.5600,-42.2051,51.4052,-63.6960,-6.3392,156.8699,-4.1596,90.7213
42.3433,58.2759,73.5789,80.5846,-16.9239,-66.7369,-47.6820,-36.6637,-19.8470,-35.4226,53.9630,24.8558,-41.1205,44.7661,-75.1683,-10.4108,157.4029,22.1339,18.6089
50.9929,58.1023,143.2015,96.5084,57.9832,-10.6128,3.5841,18.6494,74.4321,14.3537,34.6516,17.2370,-15.3732,71.2145,-50.5803,8.7477,187.7319,59.3161,42.7130
72.4102,8.6617,125.2795,120.0789,76.5379,18.2986,28.8535,55.9911,136.2235,47.2308,-25.1315,-0.7890,-6.0080,112.8787,-29.6168,31.2262,201.2463,67.3590,96.8924
60.5019,-16.2366,45.6712,107.9142,35.7227,-14.8359,-2.7936,42.2736,114.5032,36.7644,-11.6217,-2.9981,-23.3530,122.7885,-45.4506,31.2745,170.8852,43.5043,106.2082
43.9048,3.9831,28.3979,83.7977,47.2095,-11.8649,6.5941,36.7113,99.1955,30.4197,64.8587,8.7048,-19.7739,88.0937,-47.1251,19.6978,149.2682,21.4021,86.0358
37.3527,24.0522,70.2762,75.2368,94.8326,36.8010,60.4092,54.4347,116.1336,44.0469,78.6886,13.6063,12.4210,50.8185,-2.7908,16.1256,147.2138,37.4969,50.0171
20.3258,23.8392,77.1525,69.4755,93.1703,43.3618,60.7678,44.8271,85.2987,34.3853,25.9963,9.0178,24.6706,34.8587,28.3106,10.9835,134.0995,81.5550,5.2153
17.3569,23.5321,76.7297,65.5250,91.8534,29.4157,38.5251,18.0890,24.8818,5.2157,-1.4381,5.3459,18.4341,21.0872,23.7174,-2.6618,129.6874,105.3576,-3.0212
50.0207,24.6679,115.2216,63.3319,148.1853,48.2189,81.3671,9.6301,29.8834,-2.8895,4.5402,5.5768,33.2408,0.0899,41.3825,-7.6473,132.9250,64.4271,6.8793
62.6644,18.2857,99.8107,33.5216,167.5786,32.6784,109.0961,-15.5927,52.5077,-11.0399,19.9133,11.3576,43.4146,-17.4367,71.7324,-4.1313,83.8563,-35.6743,-48.3383
14.1454,17.8851,1.5744,-23.8121,96.5572,-42.2470,37.3530,-68.7413,-10.8252,-46.8485,51.7280,19.6051,16.1784,-32.8358,52.2169,-14.1380,-8.8410,-93.3510,-132.3262
-42.9389,19.8547,-34.2013,-61.7811,70.1935,-52.1162,1.2809,-69.0115,-74.7694,-53.5835,52.4804,11.9205,12.5186,-48.6728,37.7702,-28.8150,-66.5591,-11.8152,-125.2022
-44.3266,-4.1426,37.9966,-56.7705,172.3389,50.3515,108.8792,12.6295,-8.2648,9.7752,-14.6592,-13.3481,75.5451,-42.4745,109.3117,-16.3467,-67.2352,106.5493,-48.6377
1.5924,-34.6805,71.0955,-27.4638,244.4370,117.4091,193.6079,68.9698,83.9968,59.9932,-52.2915,-20.4269,114.5147,-8.0768,169.1228,11.2284,-38.3324,64.7623,-25.2853
39.3220,-18.2714,3.9608,0.0962,133.2217,52.5051,96.4122,16.0367,36.9722,13.6549,16.2217,7.9668,50.6270,-1.2028,93.2982,9.8425,2.7279,-102.8839,-71.6868
41.8854,29.6614,-38.6516,14.0358,-31.3309,-16.9288,-42.0238,-58.8775,-54.8755,-56.7951,89.3181,34.0948,-32.9893,-52.5038,-23.1896,-14.0805,38.2176,-178.8180,-102.9597
42.6048,40.8657,25.0434,25.1023,-34.3582,43.2386,-26.9161,-26.0585,-16.2182,-33.3845,57.2640,25.4784,-26.2888,-81.2690,-26.2066,-10.9098,57.5028,-122.5343,-68.1225
71.5775,8.3192,111.3353,37.4465,80.9257,141.0022,67.9626,66.4716,74.9162,42.9216,-28.4916,2.2028,30.1402,-25.8402,36.3529,19.3608,58.1497,-92.9816,-1.6692
98.4521,-12.7017,119.7187,28.7201,117.4245,127.0634,56.9474,68.4375,48.4770,42.2839,-63.6082,-5.1814,28.8243,25.2971,26.9758,26.2141,32.2056,-154.4452,23.1602
93.5841,2.3064,70.3049,10.1402,49.4736,52.9874,-42.6195,-11.5579,-49.3769,-29.8192,-25.6504,4.3540,-27.6930,-11.6951,-46.3436,0.0584,16.3740,-207.1614,-3.8526
76.6547,25.4566,37.0484,26.4530,10.5650,44.4033,-63.0439,-33.5900,-77.8323,-55.7379,42.6880,17.3016,-45.5257,-59.1114,-68.6198,-18.5405,61.1124,-165.5574,-12.4455
56.4726,26.9137,37.3490,51.8405,65.9492,82.1974,40.6453,28.9166,-34.1792,-4.2526,85.3894,20.3144,11.0766,-31.6859,-0.9970,-12.6784,102.7385,-51.8347,26.7266
20.3922,8.5280,56.6890,22.6794,161.2633,103.2690,143.3472,85.6950,7.2642,52.0092,66.7730,4.9454,78.1851,13.9937,77.2089,-2.7940,50.0304,55.2041,65.5033
-7.8076,-0.9124,92.3790,-27.6826,211.2294,115.2922,144.1341,90.5111,9.2984,59.6764,13.4344,-14.8520,90.1369,5.8525,85.2843,-4.6072,-26.8097,98.3402,70.9872
-0.7171,19.3156,116.0592,-27.8151,184.7243,108.4483,83.5062,48.9471,-25.6857,19.2188,4.1209,-11.7082,55.7467,-39.7824,42.7050,-18.4368,-12.5478,76.3324,37.8306
18.4889,47.3468,92.9974,-2.1549,143.8623,65.4945,56.3125,-21.6010,-43.1852,-37.9136,66.9827,11.1739,24.5946,-97.1454,23.4457,-36.2550,49.9093,25.0085,-30.8123
19.3108,43.2557,45.1300,-8.8732,144.0838,32.7442,77.2252,-73.5044,0.0496,-67.5006,118.6449,19.7306,18.0727,-151.7491,43.3896,-43.4844,53.6385,-10.6248,-83.5552
-1.5015,8.2860,1.0388,-41.2004,125.0179,26.2563,74.4824,-72.4241,31.7690,-56.3276,80.8081,3.8371,18.2565,-154.1995,54.6623,-34.2972,-13.7904,-9.6269,-76.0337
-31.2143,-19.7652,-44.1405,-65.2481,33.4804,7.9132,12.3267,-37.9990,-2.9775,-26.4982,6.5606,-10.9422,6.0066,-86.0127,28.0766,-15.8601,-92.3332,-9.3933,-43.0056
-38.9772,-22.2725,-60.9590,-64.4798,-53.7482,-10.8410,-49.9162,-4.6992,2.0566,4.6371,-14.5935,-10.9269,-18.2493,-18.1480,-20.1005,5.7984,-116.1071,-49.6580,-19.4035
-21.0763,-4.8559,-21.2190,-45.0482,-81.0333,-22.7908,-73.0596,-8.8715,105.1004,15.8112,7.1341,-5.5191,-48.8227,-16.4192,-64.7310,20.8835,-74.0037,-87.4136,-17.5262
-35.1090,27.6775,6.0554,-39.7161,-108.3604,-70.0902,-102.7853,-60.8966,168.1864,-9.9561,29.8134,3.5917,-77.7692,-55.0473,-89.1917,16.4968,-38.4036,-64.8928,-80.9221
-93.5402,53.0855,-36.8386,-60.5648,-145.0381,-112.3998,-138.3752,-90.5357,113.9669,-32.4286,53.7358,15.6861,-80.8107,-71.9018,-78.2226,2.6811,-59.7084,-12.1855,-175.3028
-118.4631,36.8952,-83.7417,-77.3527,-125.0020,-86.4807,-112.3511,-52.9630,51.4953,-12.6295,53.0264,13.8066,-47.5608,-48.2452,-35.8766,1.5354,-101.5675,11.0257,-174.4781
-93.2029,-3.8525,-86.2240,-86.4482,-90.8664,-79.5509,-77.2689,-31.3532,30.7625,2.8796,-2.7938,-3.4220,-25.3523,-2.6893,-14.7217,9.4004,-142.4362,-7.6539,-102.4308
-93.7847,-16.0680,-101.1374,-104.5686,-138.4499,-147.2679,-149.6525,-64.0912,-20.8214,-19.9131,-56.7972,-10.7545,-55.8859,43.5805,-57.9893,11.1801,-186.4193,-42.1420,-99.5962
-125.5632,-3.3332,-144.2214,-98.0665,-202.0251,-155.8680,-233.4123,-53.2189,-97.1113,-25.2041,-52.0367,-2.9471,-81.7688,69.1980,-96.8950,8.4433,-180.1626,-26.2856,-129.4649
-126.7715,-6.2707,-155.2372,-51.7976,-163.0638,-79.3689,-152.2902,8.2582,-122.3346,4.8346,-26.3116,0.2806,-33.8811,66.8363,-37.5683,3.0415,-110.2027,77.3493,-83.0174
-110.3480,-18.2060,-138.2205,-38.6398,-97.1894,-93.4691,-16.0492,1.3538,-95.2340,9.9968,-16.8470,-3.2383,24.9326,62.4777,45.8425,-4.8942,-90.5458,156.1367,-31.6909
-119.2172,-19.2734,-147.6979,-91.3636,-143.3772,-194.7163,-41.1869,-58.9271,-47.3203,-7.6693,-14.9851,-4.9842,0.8060,70.4452,17.6123,0.7428,-176.2646,82.7695,-53.2580
-128.1340,-22.1542,-164.2322,-128.0941,-235.0532,-194.9718,-151.6008,-54.3318,2.3280,5.3772,-32.5791,-8.1494,-56.2755,70.7285,-62.0345,22.7620,-245.7209,-44.4538,-83.2133
-119.3902,-18.7766,-148.1192,-97.6628,-238.5663,-131.1994,-175.6702,-16.6049,-11.6810,20.4909,-66.3820,-6.1390,-57.6829,75.6783,-59.9889,30.7584,-203.5046,-48.9785,-109.5807
-127.2304,9.8130,-144.8187,-56.0728,-214.3858,-179.0866,-174.5453,-46.4744,-118.8218,-15.7376,-66.5092,11.3766,-41.4955,111.7279,-26.3886,11.5764,-126.2435,31.7497,-175.3056
-143.7270,27.6207,-187.5359,-52.5403,-249.3093,-273.6085,-206.3760,-106.3151,-198.1345,-63.0119,-29.5186,25.4431,-56.7289,126.9268,-40.2647,-7.8835,-111.3694,56.3338,-208.8385
-123.6680,7.5522,-201.7584,-67.2129,-240.5436,-267.6866,-149.8732,-122.8843,-140.2425,-66.4891,0.3911,18.7125,-49.7749,74.1469,-27.7180,-11.0831,-133.9680,28.8326,-157.3855
-91.1391,-5.4837,-154.2069,-72.9223,-144.1285,-239.0581,-34.2152,-127.5674,-41.7759,-56.6259,18.3779,10.6443,-12.3187,28.1596,26.7144,-11.2600,-130.3794,29.6738,-118.2471
-103.1275,12.4572,-147.1600,-68.4166,-136.2710,-301.1652,-69.5123,-162.1734,-55.7596,-79.6734,29.8360,17.4880,-29.3851,55.6666,5.9016,-16.7134,-107.3250,53.1418,-154.0644
-132.5806,26.2678,-216.9437,-55.3721,-260.7047,-386.8033,-210.9304,-202.4411,-152.9837,-119.1794,25.1282,29.1289,-90.4404,98.7960,-70.6444,-22.3363,-92.9114,48.9929,-202.3259
-114.6208,26.5325,-244.5011,-33.7819,-307.7997,-406.7575,-207.5542,-214.4551,-193.1396,-131.8512,32.1136,38.5641,-90.5850,107.0982,-64.9081,-25.0818,-71.7973,20.3106,-202.4879
-69.4718,26.4117,-192.6515,-13.6854,-223.8042,-371.5793,-80.7632,-186.1441,-144.4421,-105.0022,66.6556,42.1092,-38.4208,111.2393,-6.1047,-22.0658,-39.0221,11.0842,-144.0434
-63.0083,20.1548,-171.6368,-7.9146,-190.3909,-322.3332,-57.1370,-137.4348,-102.4825,-70.3141,86.9773,35.1717,-30.8381,120.2955,-17.9680,-14.4099,-27.9940,29.6110,-71.6382
-87.0951,25.0864,-199.6060,-14.4374,-241.6755,-295.1929,-139.0804,-124.5655,-129.5230,-72.9786,95.6787,33.9020,-67.1960,98.8490,-73.9008,-16.9174,-34.7756,29.9064,-73.7274
-82.3070,57.2955,-181.8497,-13.0262,-233.7251,-288.7177,-155.3840,-157.6195,-160.1187,-107.2595,139.4699,48.1764,-79.4930,41.7677,-85.4712,-34.6800,-8.2374,4.1549,-127.5200
-38.5407,66.7195,-115.5948,12.9656,-139.1121,-254.2745,-71.5171,-162.4913,-89.9968,-110.1383,186.5079,49.6042,-60.7780,-1.9893,-66.3195,-42.3977,59.8050,16.6609,-80.9393
4.3578,24.5473,-71.8017,43.1724,-56.8634,-200.3510,24.2414,-107.9399,62.9620,-56.8593,184.2642,25.4039,-40.0470,14.4691,-57.6772,-22.2386,105.7270,67.3894,79.0748
16.0167,-9.8110,-65.7937,30.9681,-43.7728,-184.0585,76.4998,-62.1389,154.8896,-5.4394,168.2000,8.0240,-22.5746,51.4773,-50.3798,0.5937,66.0863,60.7725,175.7651
-0.7284,-4.0888,-82.4702,-21.0746,-72.5626,-175.8538,84.5480,-58.2391,113.1589,0.1816,174.8044,11.9127,-6.3230,30.2398,-31.6388,-1.4762,-29.5744,-8.2020,141.9082
-14.2713,6.2434,-93.5744,-43.0972,-63.7992,-112.8201,83.9655,-41.5927,38.0817,-4.7409,184.5842,17.0864,9.3056,-19.6175,-9.5363,-14.2530,-63.6736,-31.6925,98.5183
-3.0841,14.2552,-54.7360,-10.6451,10.8780,-18.4529,105.9121,14.9323,30.0999,18.4465,192.9986,18.2465,28.1944,-24.7805,5.5531,-14.6135,-0.5369,4.5382,110.6434
8.2647,27.8198,-2.1095,10.1853,61.6322,58.5936,128.4890,70.4523,47.9581,51.4188,196.0572,20.5532,46.0904,-18.6129,16.0975,-7.2130,38.2751,12.8112,118.3498
3.1310,17.0853,-16.6377,-5.1900,38.8730,85.8203,129.7864,88.4930,35.0969,64.5372,166.0165,17.2066,56.0700,-23.6825,34.5564,-1.0089,-3.1982,-16.6200,102.1532
13.3051,-17.2875,-59.4473,-0.5158,15.2443,35.4271,122.6821,66.9942,29.4668,55.6322,113.2473,9.4676,52.7663,19.7841,47.8716,7.9205,-18.5661,-34.4309,102.6893
34.2232,-31.1195,-54.7601,21.0868,-4.0594,-24.0682,80.9949,32.2239,48.3535,37.1096,57.9063,4.8602,25.9261,65.0929,25.3653,17.6797,8.5032,-52.2566,91.4900
9.2609,-22.4872,-49.2533,-0.3804,-82.3101,12.0052,-24.8363,23.6925,34.9090,24.6177,-11.2237,-0.7642,-15.6890,14.0394,-15.7787,20.8831,-29.0788,-84.3813,10.1980
-42.2780,-18.6995,-78.8561,-39.0431,-139.3785,73.3472,-108.9496,37.4070,-4.8394,23.7880,-56.2759,-5.7453,-35.8500,-45.7690,-27.9917,19.6178,-94.0599,-90.9096,-80.8084
-41.3794,-17.4382,-74.4543,-36.3358,-74.1194,36.4488,-80.8114,28.0511,-8.1495,20.2790,-34.8438,-1.7944,-20.2068,-5.2048,-7.6745,17.7400,-79.5198,-73.7397,-88.3732
-7.4326,-12.8747,-36.9971,-25.9845,-1.6592,-27.5144,-29.2611,-4.6872,-25.6455,1.4816,-26.3863,3.6834,0.6844,45.0155,16.0772,12.2276,-56.6096,-86.1680,-75.5615
-15.1465,-8.0029,-47.4141,-42.2736,-50.6063,-19.2939,-87.5946,-25.7276,-142.1167,-30.6112,-89.2646,4.2797,-8.3647,22.6437,15.1781,0.2444,-96.3004,-117.3323,-139.3484
-40.2815,3.5916,-78.9636,-41.8444,-124.8771,-0.6246,-203.7275,-39.1307,-254.1084,-64.9086,-129.0047,6.8015,-48.2068,-6.0895,-29.4550,-12.6943,-97.8299,-117.1170,-203.2746
-23.7167,8.8246,-56.3370,-13.3501,-113.8681,-2.9092,-243.5204,-44.6374,-211.5610,-71.9815,-110.5725,5.7276,-82.8588,-2.4925,-83.9599,-10.9371,-34.7107,-108.0053,-170.8870
9.6352,-10.1830,-10.4527,5.4965,-78.4759,41.0918,-205.8471,-8.4061,-92.8662,-34.0520,-125.8046,-6.8391,-80.9195,5.3909,-89.8313,9.8559,-7.1096,-119.4045,-101.5741
25.3209,-19.8375,22.8821,25.3545,-67.3511,96.6468,-154.3477,40.5774,-38.0744,5.6723,-145.5025,-14.8306,-58.5266,10.4391,-69.6733,22.4394,13.2688,-90.3493,-42.2807
43.7560,9.5704,86.6228,63.4962,-17.2762,76.6711,-75.7731,35.5071,10.4195,6.6198,-70.7943,-8.4826,-41.7063,4.9053,-71.8961,9.1639,102.1104,10.9718,48.0708
65.5540,34.9793,170.3515,81.5432,73.9992,36.7340,27.7716,14.3626,107.6660,8.2583,2.5935,-5.7749,-17.9667,-0.7634,-60.5393,-0.0388,166.0131,92.8848,125.8554
64.2130,16.5973,192.1010,66.0115,117.2030,66.9506,74.1463,53.9808,136.3371,46.2373,-47.8764,-15.8686,17.6021,33.7334,-12.6233,16.3666,124.3229,90.7192,125.2094
57.9898,-17.1630,154.3083,54.7317,113.7884,122.6001,69.0177,114.3231,84.4440,81.7865,-109.3539,-25.7051,39.8660,78.7979,17.0955,31.6056,71.2248,60.4049,128.3369
78.9888,-30.1915,150.1738,58.3477,160.3562,115.4266,128.3212,117.6118,119.9934,89.2510,-64.2963,-27.3077,55.3372,85.2125,28.5371,30.9005,81.0638,57.0678,192.9281
104.5225,-18.8837,210.6703,60.2848,254.9127,43.0009,237.8934,74.1577,232.3479,85.3920,-13.2615,-22.9806,84.5714,95.5002,68.9442,30.6173,109.6461,76.6946,211.2289
97.5709,6.2306,256.5512,54.2186,286.8703,-13.0067,253.0611,30.3347,217.3183,61.6978,-38.6008,-15.5851,99.3147,108.1093,102.1352,23.9741,111.7737,98.8902,131.7323
67.6864,19.0366,211.8283,27.8956,227.1353,25.3658,173.1131,11.3341,74.2231,20.1186,-58.0785,-10.3807,81.0812,36.7806,90.0958,0.2709,68.0514,76.4903,50.1282
43.1512,0.0050,115.8877,-18.6691,165.7694,100.7853,124.2773,17.1662,12.9430,5.7149,-33.1950,-12.0868,63.0936,-65.3125,79.1242,-11.5567,-14.5864,-4.0776,15.4460
30.3816,-25.2534,75.1306,-49.1030,169.0720,68.1421,118.7057,1.4027,91.0028,12.3496,-27.4630,-19.2215,51.6838,-61.6605,78.0944,1.5721,-63.7622,-44.5005,-2.1719
30.5828,-30.2337,103.0204,-42.9160,221.4588,-45.4179,110.9839,-55.7517,170.3751,-7.4611,-39.9148,-26.2232,32.3573,-2.6032,58.8115,6.8871,-33.5172,7.6043,0.3915
49.7164,-33.6889,111.5340,-14.3206,276.0458,-34.4871,145.7850,-63.1811,165.6382,-21.9143,-18.8268,-26.6300,40.8579,-16.7502,70.7474,-4.5382,25.7605,53.2049,33.6107
72.3998,-41.2951,86.5014,30.5608,293.1655,142.2463,223.0664,36.4943,117.8654,20.5266,14.6624,-18.9434,90.1329,-73.3168,133.5103,-7.0185,81.0495,53.9269,67.9896
73.5323,-20.5580,105.4492,76.5479,268.5281,267.0816,232.4808,124.7159,75.2700,62.9403,14.3426,-8.8562,112.8580,-83.2931,152.4352,-2.2652,142.6366,83.6306,69.2074
57.1037,16.7473,147.7987,79.1739,223.3196,197.9537,145.2560,83.9688,17.9073,30.5796,-14.1672,-2.8309,77.1366,-53.5797,96.0228,-10.9743,158.0120,114.0788,30.2508
37.7814,14.3130,113.8141,37.6744,162.3617,72.3443,51.4222,-2.9727,-73.6221,-31.5791,-51.8200,-7.3867,34.0704,-32.1335,42.3900,-26.7092,89.0547,93.9383,4.6934
19.5439,-14.0633,60.4657,24.2396,116.3554,74.7412,11.3530,12.5282,-130.3179,-29.4032,-81.8902,-21.4395,22.1227,-17.7739,17.0877,-28.7364,47.6894,122.0845,63.1027
23.1917,2.1701,131.5661,75.9687,148.5601,161.3439,26.9249,111.6566,-92.0722,35.3185,-83.0977,-24.2434,36.9282,35.0692,0.7933,-12.6877,131.1878,213.6067,145.8091
52.5160,48.4279,244.2721,118.4256,206.3622,167.4736,54.0627,145.7406,-39.2760,68.9921,-76.6687,-6.2644,54.4948,107.5925,9.2960,5.7516,211.1450,195.2183,109.4351
44.4939,43.4235,189.1377,65.9173,151.4466,85.4081,13.0707,67.0637,-53.8763,27.2319,-99.8479,3.4798,37.6144,90.3582,27.8075,8.4008,117.0513,51.6675,-35.3664
-24.6872,-6.0406,17.9125,-37.7458,17.7697,24.4480,-76.3394,-15.7174,-60.4434,-19.3106,-125.2562,-9.8951,-6.5472,-8.1652,21.3675,3.3829,-67.0363,-36.5887,-144.3754
-62.1625,-24.4573,-42.0725,-71.7292,-42.6328,-9.1504,-99.1019,-32.1161,4.7117,-12.8930,-124.8938,-16.7614,-23.4795,-26.7138,15.1141,13.0312,-127.4920,-38.4830,-167.5649
-18.3892,-11.2182,20.0161,-22.4931,-41.9870,-54.6384,-69.7588,-33.7749,47.4353,-1.5872,-144.7427,-8.7724,-17.5279,46.6588,17.5467,28.0512,-56.3514,-48.4298,-146.6115
22.7583,-16.4819,48.2830,6.7452,-62.4495,-64.9225,-91.4772,-46.3584,-8.2695,-22.1462,-192.9745,-12.9391,-30.9334,68.8951,-8.9253,23.7805,-22.5275,-62.7018,-97.0621
8.8221,-33.6998,13.3612,-28.9263,-55.4222,-26.4871,-120.3589,-33.4096,-100.9725,-33.2080,-191.4837,-24.6538,-35.3775,39.6446,-32.1808,7.2193,-83.2353,-62.2025,-46.0574
-12.7362,-36.3808,-24.4037,-67.9177,-6.6578,-1.1506,-78.3992,-6.6615,-145.9556,-19.3898,-127.8751,-20.9575,-4.1273,32.0720,-3.6811,-1.7372,-142.4318,-75.9669,-34.5173
-12.8308,-35.8617,-47.7634,-59.8822,-5.2373,19.4194,-36.4576,12.3407,-112.9014,-1.8521,-79.7144,-13.2739,11.6680,19.7575,20.3068,1.7162,-129.2279,-83.3178,-32.2912
-0.5730,-34.7096,-38.2586,-18.9843,-29.2428,56.3305,-47.0013,48.2010,-41.6617,26.1602,-69.1030,-11.6829,-3.3841,28.5756,-3.2283,17.2935,-64.3377,-74.2588,-4.8835
18.1075,-22.3285,-4.0249,16.5521,-8.2146,47.6926,-60.5872,74.9244,-32.4225,45.7101,-68.4650,-3.8117,-6.5437,103.8102,-19.8250,30.9929,-7.9416,-84.9288,0.5844
19.4036,-20.0508,-16.2115,23.7339,-4.6812,12.8978,-80.6762,47.6372,-101.5235,17.6590,-85.6261,0.5991,-8.5124,123.0389,-14.1506,21.6059,2.8371,-80.6406,-31.9273
2.0034,-38.9903,-58.9649,13.6021,-35.3233,43.1874,-110.9481,20.6499,-126.0383,-14.4805,-110.4262,-11.8370,-27.3042,36.3626,-20.3929,4.9006,-9.6293,-37.6263,-36.8011
6.0138,-44.7608,-34.3793,-3.6072,2.0904,60.1884,-76.8447,23.1869,-57.9010,-2.8549,-102.3748,-19.1658,-20.1099,10.3615,-12.6314,8.7134,-28.6300,-42.3783,-18.3822
9.5832,-24.8496,23.7613,-49.6565,66.8787,-42.0582,-13.6720,-18.2688,-4.3977,-0.7593,-85.0538,-11.5876,8.9439,65.4937,22.2455,16.0310,-92.9393,-97.2674,-60.8220
-31.6838,-12.7524,13.3697,-104.4303,28.8710,-121.0639,-44.5480,-81.8611,-15.7719,-31.9578,-108.0551,-11.7872,-0.7050,43.8142,26.4769,8.1577,-175.2549,-98.2468,-145.0096
-50.0223,-24.0596,-25.9953,-90.5279,-49.7945,-38.2516,-118.7330,-61.6946,-28.3510,-34.9704,-148.0199,-19.8242,-33.7574,-27.6942,-2.1543,7.3021,-160.0657,-77.4410,-165.4983
3.8362,-37.4817,-20.4786,-18.6029,-53.0649,62.4920,-120.1143,-3.8210,-19.4829,-12.2571,-162.1452,-16.6907,-38.6155,-24.6361,-7.0691,20.5712,-59.2208,-118.3693,-131.2218
30.1819,-31.0124,-5.5548,1.0281,-29.8585,30.5821,-100.8863,-17.3632,-16.2477,-18.8626,-147.2252,-7.5075,-33.8893,8.7399,0.5519,22.9998,-25.9082,-151.6184,-138.6992
-13.4258,-7.5307,-8.8733,-53.2904,-33.9243,-54.1504,-120.6111,-71.9293,-23.8798,-45.4942,-109.6208,-3.9085,-43.8291,-3.8142,-16.0141,9.0816,-91.4971,-131.5036,-178.2363
-20.6600,4.0069,0.6675,-85.5889,-27.5785,-85.6021,-126.4967,-111.5295,-54.7626,-75.5678,-85.7520,-5.0935,-51.9576,-40.3397,-35.5021,-9.2004,-128.5302,-130.4884,-167.2882
35.4928,-5.5689,30.7358,-41.0394,-8.0293,-73.9582,-121.7070,-139.2050,-117.2384,-115.9308,-125.6498,-9.7524,-58.6922,-57.9219,-42.7527,-25.1650,-59.0627,-125.5846,-118.1588
66.5851,1.3430,79.4689,35.0996,14.5884,-46.5303,-138.9473,-124.0309,-161.3958,-124.7583,-179.5236,-9.5607,-62.4150,-22.3793,-48.2281,-27.7122,63.3426,-50.3858,-100.3047
49.4464,28.2193,124.7282,55.4933,61.6052,-17.2662,-111.7972,-68.7747,-129.8597,-81.2804,-154.3470,-0.9116,-37.6926,25.2809,-30.7923,-16.8249,106.2107,7.2741,-110.2075
17.6967,10.8303,90.7846,-19.8827,93.1111,-10.3714,-22.2516,-54.5931,-26.4518,-43.3939,-91.3993,-7.1878,-1.2212,-16.2528,17.2912,-8.6103,-12.9984,-26.4918,-98.6572
-11.3524,-58.3130,-6.6835,-105.2158,64.1240,-23.4512,34.0039,-67.9519,90.8997,-22.4634,-93.7491,-35.1094,9.3240,-76.6814,50.0558,3.4941,-171.1028,-64.7365,-49.3914
-6.4582,-91.1405,-27.8201,-86.0734,28.1466,-33.1161,31.4228,-27.7474,139.9804,18.1714,-138.9034,-47.1228,8.0649,-1.4797,42.9621,29.1551,-169.7336,-50.9219,13.9007
28.9399,-50.2779,43.3911,1.0774,13.5550,-24.0601,13.3218,22.6129,87.6081,41.0327,-144.8492,-27.4928,9.7974,99.9680,18.7239,38.6326,-37.2682,-21.6820,38.9423
29.9308,-2.0435,74.1488,45.1706,-23.9110,21.5032,-19.5724,22.9843,13.0799,16.9934,-117.9236,-9.1513,-2.1227,48.4615,-0.5694,18.3243,50.3327,21.5515,3.9224
-6.4084,-1.2096,34.9970,37.8191,-59.0826,95.7530,-35.8808,39.6847,11.5292,17.5351,-101.7398,-11.9136,-7.7972,-42.1923,3.0148,8.0948,46.3206,72.9381,-18.4438
-21.5867,-31.0844,0.6111,15.7420,-39.5717,141.2795,15.5808,102.3570,67.1265,72.9370,-86.8879,-21.9693,21.2780,-22.5072,32.2584,25.6413,-5.6459,72.6792,34.0747
-15.2761,-45.6179,-6.4814,-15.0717,-5.1090,119.8647,72.3510,131.1116,98.6667,109.4788,-51.7051,-23.6444,48.6954,33.9068,47.9397,38.9203,-67.3835,21.4623,91.2006
-6.2208,-19.0223,18.5570,-11.8097,11.8841,69.1686,53.7468,102.6379,63.9112,86.9523,-17.4876,-11.3984,38.0172,60.0427,23.1404,30.3895,-47.0671,0.2774,76.7627
17.6103,20.7370,76.8724,59.9910,42.0914,72.6647,7.2261,86.5907,-8.3485,49.5731,-15.0316,2.9104,16.7491,71.9832,-9.4924,12.9240,93.9703,63.4417,55.0294
34.5711,24.9811,110.5075,138.8335,87.7977,170.9405,13.8380,134.4957,-44.3931,53.3332,-26.8029,-0.7487,21.9088,52.8187,-10.6507,1.1817,232.3642,194.1443,113.1075
27.6461,2.9953,103.6286,163.7074,143.0639,264.1087,86.5225,210.6374,-20.7983,99.0400,-10.3061,-13.1197,59.5826,44.7118,24.2867,2.1845,269.4725,304.7288,210.9076
33.1133,-0.9366,110.2246,138.5259,202.2644,205.0636,176.0947,205.0807,-7.2827,112.7039,25.7134,-10.4315,102.5369,95.4521,70.3551,3.6728,226.0009,296.0233,243.6333
41.9506,12.4452,109.6274,78.1551,183.6759,55.9890,186.4241,90.2365,-29.9994,51.7823,39.8411,-0.8761,96.8660,89.0414,76.8121,-10.4892,134.4067,194.1199,180.3359
15.6236,24.2748,69.9115,40.5573,67.9133,18.0073,97.6153,11.6476,-14.6544,0.0232,40.5197,0.9705,39.3226,-15.4947,26.6282,-22.3195,84.9971,144.3109,99.6822
-0.4799,45.4224,79.5014,98.3120,20.9811,74.3998,42.2869,49.7445,39.6069,19.9909,51.9568,6.3961,8.0646,-31.3588,-13.6855,-13.9051,190.5471,221.1805,89.2576
29.6196,71.6926,171.5719,180.6024,121.8049,59.3690,93.5178,81.6451,39.6596,39.3500,44.8779,15.9744,38.9596,77.0020,10.7823,-8.6379,335.0736,329.7049,119.0624
50.9936,71.4216,221.9551,156.1988,210.4186,12.9891,154.3270,44.1034,7.7105,18.4858,11.8045,13.8727,74.7079,101.1989,62.0679,-16.4719,298.5168,308.7693,96.0918
50.6790,45.3397,176.8788,56.3361,196.5508,35.4610,176.0314,11.6606,52.5712,10.8355,20.1113,7.8997,79.0307,1.5178,90.4862,-13.1820,128.8451,121.4378,30.6084
65.8945,25.7113,119.1705,-11.6241,171.3941,-6.1992,205.0220,-38.9534,142.5406,-0.3846,88.9667,11.9487,68.0403,-58.9652,92.3268,-6.5942,18.7989,-60.2004,4.3789
67.8275,29.8639,93.7710,-28.6667,151.3464,-183.9965,206.4264,-155.3081,157.6707,-63.2457,134.6109,16.8671,42.4960,-44.7889,66.6743,-23.3607,8.9107,-52.4461,14.1251
39.3564,55.3564,96.1963,5.9455,78.3407,-258.5413,137.7347,-203.9651,102.4810,-105.1305,112.1579,19.1101,8.1392,-37.6231,22.6481,-41.3542,75.5805,82.5520,11.0144
35.1766,78.8404,118.8462,78.8646,6.2600,-103.5519,80.0135,-92.2077,72.3841,-52.7411,86.8404,26.1085,-1.4424,-41.9565,-5.0674,-28.1561,178.2622,134.0990,19.3757
49.2720,58.4962,87.7057,78.4643,-7.4364,37.3997,79.4663,27.1144,92.3166,23.4692,112.1413,26.6432,9.3724,-27.7505,-12.0697,-0.3110,149.6787,20.9637,63.2087
21.7710,-12.0038,-56.0928,-52.4653,-30.1353,-18.4237,69.1741,8.7202,112.1472,33.4175,142.3385,9.6536,3.0483,-23.8420,-15.9456,13.6660,-89.6602,-169.0352,76.8714
-26.3268,-73.8076,-207.2520,-178.2666,-96.0123,-130.5104,41.5584,-77.9485,100.5602,-4.8084,124.5926,-7.2332,-10.9868,-58.9869,0.8045,11.3773,-315.7504,-286.7993,20.2238
-37.6983,-65.0793,-211.4800,-158.5857,-120.5830,-130.0833,62.2231,-94.8528,75.7880,-19.8916,99.3115,-2.9234,4.4309,-88.0619,42.4681,2.4281,-286.1458,-223.9570,-26.3323
-3.2324,4.2369,-66.5919,-22.3101,-56.5198,-30.7311,117.8179,-13.7097,58.7902,13.6961,112.0863,18.7236,39.5895,-50.3674,62.7311,-1.8485,-44.7787,-50.2082,6.1215
60.4914,56.0386,87.1431,106.9903,21.9829,67.5446,133.0436,66.6092,43.3908,44.2603,100.3066,33.1997,51.3222,14.2580,44.3597,2.7184,179.3301,40.3779,61.7516
99.0954,29.8450,108.1042,124.7706,23.4532,91.2492,89.9465,56.8004,38.9601,27.7364,19.4625,18.4132,25.8028,11.4865,18.2778,7.7383,197.1895,1.5188,79.7907
54.4712,-38.2602,-6.3244,23.7960,-39.2160,67.3830,39.0589,22.9965,68.5167,17.3204,-24.1851,-13.3570,-3.3713,-46.4986,-1.9920,11.6746,13.9446,-57.4670,93.1043
-20.6197,-62.7662,-104.9698,-82.5586,-66.6156,84.7382,25.6930,62.2528,85.0087,57.9806,37.5503,-23.9325,1.2510,-69.9805,-11.5355,17.9474,-164.7123,-99.7760,108.2793
-33.7461,-23.3884,-77.8760,-92.5494,-26.1915,115.9327,25.2457,99.2533,15.2372,73.7043,85.3708,-4.8707,22.7519,-44.1546,-1.9198,13.9590,-170.6963,-130.4879,58.1858
-2.6285,35.8523,19.8937,-28.5830,3.1568,57.2354,-22.2295,37.2304,-96.7484,9.5333,43.6676,16.8520,9.4987,-8.3192,-12.1060,-7.1467,-44.3986,-92.3356,-35.4471
19.5042,83.6102,107.0057,38.4034,-10.0582,-32.2385,-105.8702,-34.3644,-144.6468,-52.7425,8.3513,26.5706,-39.5600,27.1442,-80.4298,-24.0719,91.1193,-8.6412,-56.9074
29.6817,98.6562,150.5022,62.4492,-16.0447,-13.0505,-158.7527,-9.7188,-121.9390,-40.5979,16.2844,25.0880,-71.5861,48.6720,-147.9978,-18.2357,139.9814,2.6356,-7.4974
8.6588,57.1410,88.9869,20.2464,-37.9641,66.8620,-169.7351,52.0130,-90.6790,6.2671,-8.0539,10.5031,-65.8769,36.0107,-137.0314,2.5087,45.9037,-62.6449,-2.3620
-49.5606,-16.8870,-82.7025,-50.6111,-133.9659,68.6715,-173.5061,60.6420,-77.0121,28.4547,-58.7189,-6.8241,-53.1998,11.8436,-75.9357,20.6216,-116.2506,-114.6606,-57.9052
-82.2009,-66.3909,-219.2762,-78.9301,-234.7245,7.6453,-175.7669,28.9857,-81.8796,19.2545,-84.5962,-14.1874,-53.5600,7.7170,-40.5894,26.0710,-196.2890,-125.0555,-81.5682
-75.6011,-79.5661,-218.8159,-75.3969,-240.3319,-2.0001,-165.1075,23.6509,-90.7207,14.7881,-107.0741,-22.9710,-51.6529,10.6762,-41.8733,22.8454,-197.6285,-93.7713,-34.8668
-89.3991,-76.6123,-162.5566,-96.3364,-179.6597,65.4694,-137.5558,72.1072,-74.3396,46.2794,-114.9433,-37.3067,-31.7522,-4.6773,-42.3961,21.3854,-222.2294,-32.2308,25.4096
-113.2288,-58.6796,-144.0281,-118.4479,-125.7422,110.0042,-99.6780,114.1563,-51.2918,78.0813,-54.7995,-33.2030,-7.5123,-15.7118,-28.8632,20.7392,-241.6409,-10.9593,32.9106
-94.7590,-34.2054,-152.1524,-89.6040,-99.4039,49.1016,-77.1977,87.6752,-57.7353,61.7866,23.6936,-8.6566,-3.8275,23.1076,-20.9490,16.9896,-180.3174,-44.5826,-1.3043
-58.3044,-28.4773,-156.5890,-33.8444,-94.4687,-15.1493,-63.8319,53.2945,-55.1300,38.0198,50.8058,5.4638,-11.0301,66.9528,-21.0771,15.8168,-86.3668,-47.0633,0.1329
-40.5903,-38.9755,-151.5486,-7.1460,-73.6414,58.3281,-2.7541,81.9634,-2.7560,54.4477,73.2277,0.9083,5.7317,11.2544,2.4719,14.0654,-40.0874,-9.0137,54.0255
-29.1471,-50.0075,-142.6438,-24.5969,-10.7919,154.4279,99.3671,105.4011,58.6968,70.3469,121.3588,-5.5948,42.2995,-93.3398,52.3918,5.1686,-56.1659,-5.7277,95.1381
-20.5929,-68.6557,-146.1089,-60.8230,34.8675,98.2797,158.0212,68.2810,96.2417,60.8228,131.0826,-12.5022,60.4641,-91.6001,80.5917,3.4532,-112.8114,-31.0619,115.0260
-14.2454,-88.2644,-150.0401,-70.1889,24.3553,21.7915,152.3636,44.2013,111.6262,57.9947,92.9428,-21.3742,54.3262,-30.7394,71.2646,12.6449,-141.4960,-37.3009,144.1235
6.3815,-75.3579,-122.7500,-29.1724,20.9099,90.8442,118.3543,62.0416,72.1136,48.7998,73.2784,-17.3188,41.1697,-59.8709,55.2949,7.2050,-71.2997,-34.0812,129.8498
23.5916,-31.6301,-79.5759,27.4599,49.1927,155.8413,60.6946,62.3891,-9.0665,15.3546,87.9079,1.7964,20.9045,-96.8971,33.2213,-10.7083,47.4207,-24.4371,54.7820
20.2671,-2.8373,-48.6733,46.8472,67.8644,81.8989,23.9525,45.3748,-19.2603,7.2308,108.3031,14.0382,5.4039,-20.1226,1.4406,-8.5472,93.7281,-6.9146,31.9631
24.0738,-12.1531,-29.8253,12.6211,87.3205,-2.9399,68.6611,30.0972,66.5414,27.3818,125.5975,7.9381,14.3757,37.8527,-1.8434,5.8926,35.6246,-32.3913,85.2783
26.0978,-36.8037,-53.8970,-51.0726,93.7457,-30.3195,102.1926,-22.4923,113.9175,5.2414,128.9105,-3.1990,15.7202,-30.9374,15.4900,0.4801,-65.3886,-103.4636,79.0947
-10.9343,-45.2484,-136.0452,-91.3742,12.7295,-79.9082,10.4262,-100.6119,43.8309,-57.9648,102.7350,-4.4380,-25.5494,-98.4601,-4.9214,-17.7850,-128.6493,-130.3826,-18.4932
-44.1719,-29.3219,-181.9781,-67.8875,-93.4899,-125.1240,-97.7780,-136.3867,-63.6913,-100.0063,63.6183,2.8361,-64.8580,-93.4234,-42.0259,-30.9473,-96.0945,-72.7534,-82.0144
-25.5905,-7.6429,-127.1344,-12.8019,-83.0424,-97.5946,-87.2964,-126.1439,-106.9829,-108.7789,45.3373,6.0317,-58.1759,-93.7277,-42.1952,-42.5514,-1.2209,15.1005,-51.2525
-6.7719,-0.5466,-57.0730,0.5431,-3.1760,-54.7934,-42.8948,-100.3892,-69.0500,-93.0398,58.0651,-1.1019,-43.8382,-100.4359,-45.0078,-45.3858,37.4292,64.0825,16.5005
-19.0964,-8.5518,-40.4508,-40.1444,28.0056,-57.2071,-46.6863,-74.6414,-1.1353,-59.6096,73.7149,-11.1129,-48.2942,-72.0196,-72.6367,-30.6072,-24.3129,34.7625,56.7253
-11.4795,-24.8541,-34.2140,-69.1150,47.7289,-79.8335,-9.8473,-78.1926,47.1492,-44.5670,55.7803,-16.8992,-32.1058,-51.5413,-47.4579,-18.0163,-81.3927,-16.2649,55.3700
13.3171,-37.1015,-13.6285,-33.3398,92.9969,-76.2465,89.7150,-85.9615,79.3696,-43.8470,24.3092,-18.3552,12.1887,-56.1903,34.1409,-18.1764,-30.0419,40.7158,53.2489
-4.3293,-16.0278,5.2949,32.5904,100.1659,-24.5836,131.5885,-28.4712,102.9370,-7.5028,40.8136,-9.8832,39.4493,-38.9399,68.7244,-14.4452,81.1081,182.9976,61.7014
-47.7800,39.5753,31.8046,51.2993,73.6406,13.8271,81.4248,34.7818,86.7785,32.2275,89.1453,11.5476,35.8020,-1.0410,42.8883,-6.2616,123.9211,221.8376,5.1152
-55.9842,74.2216,59.7017,18.9540,67.1220,-32.7530,17.4592,-4.1863,44.6701,6.8969,80.5787,27.0210,17.5939,14.3729,26.0720,-6.3737,81.7253,123.3070,-119.0288
-29.9829,61.6377,73.9386,5.5517,69.5644,-76.1480,-18.4004,-70.9213,38.7297,-39.2304,18.2836,20.3744,-6.6682,-4.9991,16.8291,-9.8447,60.5952,56.1484,-168.7210
-8.5762,48.0532,99.5858,25.6285,92.1214,-23.4954,-19.0932,-52.3836,51.7315,-36.7072,-1.4241,7.3569,-15.3023,-29.2812,-4.9487,-12.4882,95.6556,87.7634,-98.6541
-13.7019,51.9640,119.3276,22.8363,155.7765,11.6291,12.8810,-13.7582,30.7187,-16.9620,31.0412,4.7332,6.1379,-15.1564,-1.3533,-18.1625,100.0330,132.8096,-42.2456
-40.5229,37.4370,76.0711,-8.2033,187.8478,-43.3084,37.8884,-27.8567,21.1694,-16.9015,43.4935,3.4540,25.9137,20.5805,31.8549,-18.3724,48.4693,147.1129,-61.9250
-52.1021,14.3512,23.7063,-20.5187,162.5380,-56.5524,49.8168,-42.7871,63.2490,-17.6293,41.4843,-0.8856,25.5576,-1.6409,52.5928,-13.4954,21.3632,139.3064,-79.6842
-26.2206,22.6546,43.1096,-18.1057,157.4339,3.7563,92.2587,-42.7886,83.9884,-22.8501,74.0647,2.4323,32.5387,-87.1710,62.0028,-22.8246,31.3795,103.4897,-60.7760
-6.0359,34.2347,53.0684,-35.3981,145.9809,8.3638,131.5128,-63.1283,53.6631,-40.2079,108.9823,8.6138,44.1120,-138.0188,70.5451,-37.3636,4.3631,54.8191,-41.1076
-29.7225,8.7555,-31.2955,-62.2014,50.4379,-34.6125,94.5785,-64.5223,50.4790,-30.7232,102.7205,5.1172,28.0279,-112.8562,54.1565,-25.9734,-66.0786,14.4733,-33.3322
-58.8566,-16.6646,-110.1297,-72.7670,-44.0101,-19.8177,30.9520,-21.6771,79.6223,6.7730,87.7192,1.0229,4.1670,-81.4670,26.8401,-1.1104,-110.8858,-27.3175,-39.8251
-48.6006,-4.0324,-90.8130,-63.5100,-49.6069,15.0708,22.6990,-8.1578,61.7004,9.8487,80.5669,7.4890,5.7664,-91.0762,29.9857,0.3493,-97.8425,-60.5694,-69.7629
-17.2337,14.2647,-47.2398,-38.2211,-49.7680,-9.8182,17.5166,-55.6164,11.5890,-32.8904,48.9645,14.2124,0.5354,-106.7619,33.3636,-13.4603,-51.8523,-68.0985,-102.5878
-1.9687,10.6238,-60.4113,-15.0614,-102.0605,-42.7088,-51.8497,-95.3434,-6.0684,-68.3788,23.7389,13.1470,-43.1706,-113.0915,-15.4477,-17.5046,-14.4572,-81.0919,-105.7679
-10.5406,6.1178,-105.4291,-13.1160,-140.1942,-5.2284,-115.2622,-73.2725,-35.9834,-68.4794,61.6486,12.7036,-76.4332,-133.0983,-73.4044,-21.4995,-8.9819,-96.6734,-68.0511
-26.8947,10.1350,-119.1116,-3.7905,-128.2431,59.2256,-89.5595,10.6268,-126.0539,-26.6535,92.3656,14.9841,-42.0290,-90.6769,-63.2368,-24.9804,-7.9375,-39.3036,8.4340
-27.1220,3.3204,-63.6305,46.7326,-86.5742,32.8209,-24.3391,116.3858,-172.6577,57.8405,10.3486,10.2115,26.1461,132.9032,-11.0810,5.6337,28.6625,83.3546,100.4909
-1.2263,-18.5579,23.8290,99.5710,-34.4033,-102.4361,-8.1670,153.6720,-81.1423,123.2271,-117.5119,-2.6693,45.7059,406.7461,-2.9850,59.5976,78.8645,144.0802,158.0204
31.1099,-37.4587,50.9473,99.2173,-3.6803,-201.0602,-27.2038,78.7071,36.4833,94.1018,-148.0058,-12.0402,8.8306,431.0619,-32.6351,72.2466,91.4212,94.7450,146.1272
38.6592,-37.6347,10.9190,63.1895,1.7662,-154.1075,-10.6655,-7.1140,28.7683,17.2229,-90.6233,-10.4204,-7.6189,221.5172,-18.2375,32.7947,66.8423,43.2523,86.5716
11.0856,-17.8062,-3.8037,43.5016,22.4902,-54.2934,40.0424,10.1734,-44.8370,7.9732,-45.3215,-3.2479,29.4425,103.9318,36.8701,4.3438,49.1073,86.8196,48.3077
-20.9365,11.9174,40.6261,54.4635,54.1113,-15.7581,60.5071,86.5223,-47.5426,62.5425,-21.1913,2.3561,58.7062,162.5266,44.3789,12.5939,71.0960,173.6611,71.3890
-8.9459,42.2560,90.9968,72.0937,50.5542,-7.8642,32.8462,94.6488,-23.3745,66.3431,15.4033,9.8888,36.2445,163.4243,-6.6134,12.8875,116.4422,166.4304,94.0338
41.0087,65.0856,105.4553,65.3530,4.8182,-0.1788,-7.5760,3.8650,-76.9743,-16.5507,34.5309,22.3282,-4.7809,27.6977,-41.0595,-16.2598,123.1903,31.8173,34.1293
62.7694,66.3107,81.2467,34.6561,-46.8421,-21.6763,-41.2119,-88.4908,-139.2255,-90.9337,7.6527,28.1255,-28.0048,-75.8918,-34.9085,-37.4231,74.3028,-86.7169,-66.2180
38.1703,47.9991,53.4603,19.5968,-47.7503,-29.7897,-55.1414,-88.4643,-108.8210,-82.7096,-26.1991,20.3285,-28.8267,-66.4789,-19.1665,-27.7916,44.8919,-71.8535,-104.4834
23.9196,35.3325,60.0123,29.3272,16.2572,6.1685,-27.8198,-34.8472,-49.3054,-39.1880,-21.3373,13.0886,-10.6089,-26.1809,-2.3881,-12.9512,64.1844,-16.1576,-78.1951
35.2947,26.8339,53.3152,10.3546,56.4809,-8.0015,17.9663,-35.6041,-22.3350,-31.3831,19.0959,13.9009,4.6881,-18.0091,11.4628,-11.1763,35.8674,-56.9779,-51.3446
28.3260,-3.3579,-25.4338,-58.9877,21.2961,-80.7389,32.8849,-90.7757,28.2665,-48.0455,60.4491,10.0857,-5.3623,-50.2961,12.5714,-9.3170,-82.5299,-166.6532,-56.1543
9.1184,-31.5557,-98.3385,-115.6151,-3.0653,-68.5453,17.9986,-116.3671,76.1393,-57.8790,75.3391,3.5476,-20.4254,-126.2737,18.4523,-7.0797,-174.2118,-253.5565,-107.0714
18.4558,-12.6276,-83.7801,-107.6322,4.4948,27.6928,-7.1779,-109.4275,18.7592,-77.8669,72.0755,12.0397,-24.1826,-211.3595,26.6037,-20.6165,-150.6445,-296.0110,-180.8893
32.0857,23.7816,-60.6131,-69.0410,-51.2663,51.4829,-55.5558,-118.9027,-69.7526,-107.8238,77.7153,26.5623,-44.9234,-243.8295,-6.2166,-37.9049,-83.0774,-288.4494,-198.6926
8.6818,23.4658,-95.4197,-63.8120,-138.2125,-8.5996,-113.9551,-137.4647,-48.5561,-113.8530,89.8585,23.3167,-84.4534,-228.4102,-66.3908,-36.5272,-75.9508,-240.4218,-155.7743
-25.0180,6.2339,-122.1925,-104.1744,-147.8969,-45.3890,-141.6926,-153.2939,7.6646,-110.7467,87.5837,9.6011,-103.8985,-232.1590,-91.8452,-31.6140,-135.5110,-219.5945,-143.5067
-31.6505,6.2713,-115.0130,-135.7179,-121.7646,-36.0472,-154.8708,-167.8034,-20.4866,-126.4023,81.1842,4.9269,-106.3735,-261.8868,-96.1309,-40.8737,-178.1321,-239.1473,-159.9046
-18.0461,4.9000,-111.8843,-100.0613,-109.4052,2.5414,-175.4760,-136.8824,-46.9328,-120.0877,88.2862,4.6702,-115.7081,-245.2455,-121.4805,-41.9092,-119.3837,-213.8893,-115.2842
0.8122,-4.7868,-86.8734,-23.4661,-60.6548,59.3083,-156.0035,-61.1213,3.1337,-72.2520,84.0735,1.3612,-106.6236,-174.9707,-123.4791,-23.7446,1.7086,-126.3473,-42.0080
3.2952,-1.3157,-49.6827,2.8872,-28.4927,79.3848,-94.1565,-30.0443,15.7146,-45.7807,51.7242,1.3145,-66.8317,-143.4789,-68.4870,-16.8082,35.8123,-60.9751,-41.8440
-31.9663,0.3448,-93.9537,-41.5293,-88.8677,48.1291,-68.0365,-50.6888,-51.8532,-55.8822,43.8655,3.6466,-40.5448,-169.0423,-24.8881,-28.5379,-52.9794,-50.8105,-74.3711
-60.0464,-20.0345,-178.5656,-78.1488,-116.9560,24.5452,-67.2711,-44.0403,-62.2464,-46.1846,95.6535,2.8515,-39.7223,-162.3345,-28.6353,-28.3290,-120.8075,-72.6482,-47.4794
-26.2601,-34.7306,-168.3742,-66.5350,-47.5158,21.0239,-29.8744,-30.6482,19.3858,-26.0853,132.7312,3.6266,-35.7055,-124.4314,-27.7115,-12.9551,-96.1404,-130.4885,-15.6795
9.3588,-31.0609,-125.5418,-52.0897,-56.3056,13.6602,-25.6233,-59.4299,64.4639,-38.8147,91.3747,5.6816,-43.0821,-139.0042,-19.7086,-5.1839,-75.5862,-191.1285,-57.6668
-23.7717,-42.1253,-181.5351,-56.5003,-173.1589,10.9735,-95.5862,-62.9053,53.0780,-41.0573,43.7484,0.2283,-71.5107,-157.8257,-41.3761,0.2050,-102.3182,-173.3389,-87.4310
-54.7625,-70.1498,-238.3950,-55.3484,-185.1069,1.0463,-80.7567,-9.4461,90.6761,7.5408,62.4119,-8.9007,-60.7681,-89.5937,-41.9929,16.6897,-116.5880,-106.0857,-10.2345
-20.2539,-78.2143,-182.2988,-64.5322,-73.6980,-26.3003,67.2602,12.9279,155.6417,46.3130,95.2959,-10.5307,4.3256,-25.9983,22.9262,26.5386,-134.9749,-112.1104,71.8538
-6.9448,-63.4118,-144.7866,-109.4348,-38.7403,-24.2195,131.4639,-14.4979,128.9115,31.0812,101.1627,-5.2284,38.8402,-74.0019,71.8161,14.5745,-204.7118,-180.9247,31.9962
-63.1777,-52.1508,-222.5630,-137.1642,-104.7873,6.8173,40.5388,-22.6060,41.2205,5.4739,120.7038,1.6890,10.8927,-140.2614,49.4840,-1.6999,-242.0151,-178.8504,-56.9864
-88.9220,-46.5423,-269.2173,-96.9135,-135.9332,-3.1605,-14.8872,-23.1572,24.4738,-5.0450,138.3173,8.5788,-14.1573,-129.0116,27.5129,-4.8227,-167.9861,-104.7141,-85.2313
-42.8502,-35.9650,-192.4563,-49.2953,-105.1132,-55.6905,10.1485,-66.8481,78.9163,-25.8584,94.4658,10.8295,-16.7561,-100.7453,37.0817,-0.2318,-83.7593,-91.1138,-98.0479
-11.2814,-26.0860,-104.1725,-65.0198,-56.9169,-92.1403,-8.1774,-116.7028,103.6220,-53.9235,33.9553,4.8231,-31.2201,-98.5808,21.8739,0.8042,-96.9895,-147.3842,-135.8243
-17.9714,-20.8745,-71.2517,-94.6133,13.6529,-94.6872,-40.2667,-118.6624,65.5325,-63.0890,31.7032,-1.5332,-38.7070,-80.9198,-6.5868,-6.4173,-127.9966,-152.7801,-129.7714
-2.3708,-7.6497,-34.2204,-57.0194,94.2521,-71.0180,-2.3493,-89.9618,-3.3660,-60.9439,52.7347,3.0898,-11.5733,-43.2117,8.1875,-19.1627,-57.4151,-80.4110,-80.3752
31.1747,20.1510,32.1274,26.6096,134.5316,-37.1387,39.9999,-65.2357,-56.0592,-61.6611,40.5518,14.9600,15.1294,-13.2691,37.4742,-27.7312,81.5576,11.4136,-63.1376
34.4507,46.2159,100.9539,81.0752,137.3009,-22.8961,42.1262,-46.0898,-36.1433,-50.3209,12.3228,17.0115,17.2634,8.7022,33.6325,-25.5400,177.2104,115.8793,-51.8591
22.2379,50.5765,153.5103,81.6669,143.5560,-27.2361,42.0594,-29.1965,32.9201,-26.2669,-10.2110,4.5100,11.9213,26.9211,9.2182,-16.9234,184.3000,190.7403,1.4201
30.4156,32.8119,154.4674,48.5404,140.3316,-39.2615,9.6460,-31.6791,39.5256,-23.9352,-31.8055,-6.7206,-6.1118,42.7141,-26.4920,-9.9159,123.0308,126.4324,34.2965
39.9021,8.9902,83.5689,4.4807,87.9277,-75.0148,-62.2669,-63.3865,-27.7197,-51.6198,-37.3901,-6.7012,-38.6940,48.2414,-64.6222,-9.5620,33.7492,-24.4202,10.7972
17.4561,-1.3538,0.7364,-21.2071,18.8841,-103.0721,-81.3042,-87.9622,-65.1573,-69.3240,-10.8103,-2.4134,-47.8397,19.1523,-64.0178,-16.8376,-17.5718,-55.5093,-12.0000
-16.4678,10.9947,-11.1422,-1.4944,17.4838,-58.4847,-41.8838,-58.5453,-62.9063,-53.5590,18.5870,0.3486,-23.8912,-17.1382,-30.5071,-25.8966,22.8245,65.5805,-6.7552
-14.9872,25.7025,59.8863,41.2292,102.2179,19.0520,-6.1728,4.6120,-81.1299,-23.6637,0.1594,-3.2211,7.3863,7.8509,-8.3811,-27.8670,101.8037,181.9555,31.6455
11.2296,6.5882,135.7086,41.5638,194.8305,32.4042,59.3562,39.6746,-72.1753,6.0185,-64.3462,-21.9801,46.3211,71.7628,20.8943,-19.3234,90.9759,223.9390,116.3286
8.1204,-41.1115,119.8589,-10.2771,214.2363,2.1246,151.6877,42.7381,20.9923,39.1770,-96.8010,-44.7204,83.4556,85.5952,72.3769,-3.3672,-15.8317,219.4709,183.2508
-11.1611,-62.7360,40.3937,-28.9094,168.8148,21.9346,172.1273,56.7467,114.3202,64.5198,-44.3934,-43.2002,81.4111,43.9971,87.5479,10.3708,-52.1604,174.8866,169.3616
14.4444,-32.2942,35.9316,33.4224,135.6768,78.1053,142.6678,74.0264,124.9590,61.2320,25.2594,-19.2449,56.2771,9.3564,58.9461,9.9782,62.4255,133.6438,136.1500
58.8596,7.6657,120.2092,91.3675,148.5794,67.5270,152.2119,49.4733,100.0251,34.2145,24.8660,-4.8159,52.9942,10.9797,49.4327,-1.0907,170.3179,151.8582,132.4377
53.8412,12.6135,158.7615,69.0583,160.2455,-10.1259,160.4101,9.2724,97.2754,19.4214,-17.7411,-10.3417,59.2730,46.0607,56.8102,-2.6769,134.1731,174.5459,124.0508
32.1044,-5.8776,121.7379,29.8075,138.9206,-13.0438,143.8052,42.0368,97.7428,51.3584,-24.9815,-16.2148,62.6625,88.7654,51.2013,12.6442,51.3897,128.2665,134.9190
47.2604,-12.7889,82.6040,46.6403,99.5317,122.1382,161.9456,152.1261,75.6433,114.5562,20.5992,-7.1052,82.5073,86.7909,56.8827,28.6167,50.1097,45.1459,181.9737
50.9454,2.3447,26.9979,80.4941,26.7401,249.0832,153.2156,220.8970,44.5870,142.1278,87.7823,14.4461,84.1033,25.7354,62.3489,31.1725,93.7233,-20.1714,151.9136
5.0138,29.8080,-55.6750,80.7545,-83.9457,222.6271,38.2461,169.7158,21.4508,98.4564,130.4676,35.4495,27.8510,-39.7730,22.9067,21.8397,111.0578,-48.8701,5.8603
-36.5328,54.3498,-82.7969,56.1919,-155.8575,105.7497,-70.0250,69.8005,-0.2763,33.4307,121.8539,42.7846,-28.1524,-61.4015,-26.0246,8.2133,92.7959,-41.0162,-107.7326
-46.8744,52.6351,-67.6089,15.1883,-162.6668,49.5150,-85.5993,31.9942,-17.7177,14.3068,92.6145,33.6185,-35.2823,-57.5261,-41.3383,2.1553,26.5826,-43.7733,-99.8976
-53.9470,19.3792,-98.0374,-18.3908,-180.2094,95.9498,-92.6472,72.0914,-2.3683,44.0249,73.5374,16.5580,-36.4768,-64.1546,-55.0749,12.5141,-46.6179,-75.1449,-38.7372
-45.5390,0.2590,-109.4791,18.0118,-194.8082,171.1385,-111.6966,127.2671,28.8578,74.7839,51.9032,8.8701,-46.1172,-60.6161,-69.7375,26.3041,0.9407,-55.5571,0.9183
-4.0406,39.5578,-21.9612,108.1245,-126.2965,193.0714,-95.9413,135.7447,1.1898,63.6556,47.6616,26.3849,-35.9898,-24.6238,-56.4449,20.7916,165.6963,4.5079,-26.5215
27.8432,98.9121,52.1602,132.2949,-57.8820,155.4981,-106.1867,78.6695,-81.3745,7.6807,86.5954,54.9347,-37.8865,-26.3871,-55.9828,-2.0250,239.3818,-42.4224,-126.4725
20.2806,100.6627,25.0245,45.1812,-105.8014,104.4192,-159.0746,-7.9697,-107.8994,-48.7559,94.4513,53.9689,-72.2083,-114.7707,-88.1227,-18.0920,106.8867,-181.4997,-193.7128
3.2024,39.4600,-18.5160,-58.4148,-168.7667,65.1552,-136.5647,-54.3765,-40.6146,-53.6725,20.4755,16.7998,-75.1641,-182.4188,-81.8885,-13.9720,-88.4308,-229.1360,-132.5216
5.0393,-18.2635,-31.7605,-84.5468,-131.6653,58.7285,-39.8876,-23.9416,23.0798,-11.2133,-31.7881,-11.8178,-30.4200,-142.6236,-28.9151,1.2047,-159.9878,-178.6787,-19.5766
25.7078,-22.4368,-46.5706,-31.4250,-85.5255,106.8440,-7.2667,33.3135,4.2569,16.3075,7.7371,-2.5019,-9.7977,-94.1057,-10.8733,6.8845,-78.0899,-161.3768,17.2424
52.8280,18.4780,-25.6307,37.9395,-103.0783,152.4932,-43.9863,31.8343,-64.5979,-13.3123,47.0819,20.6121,-29.4455,-128.2126,-35.0271,-9.6225,51.1229,-156.6316,-18.9923
67.0458,53.1860,53.3245,52.7519,-100.6832,125.0541,-44.5881,-29.2531,-97.8690,-63.1449,16.5614,22.9234,-36.3686,-179.4471,-40.1240,-33.1023,95.5171,-100.4332,-41.6638
70.8626,38.1082,111.9415,13.8129,-39.6999,86.5471,-2.3654,-54.2357,-60.6193,-65.1304,-39.6236,2.2917,-18.9798,-168.5838,-24.1799,-33.1957,34.5440,-70.5237,-1.0245
91.4549,-7.0676,122.2317,-3.3203,25.9120,127.9095,28.3458,10.2727,-20.3244,-12.9459,-78.9072,-19.1027,0.8056,-101.0939,-19.8167,-9.5754,-15.4635,-107.3798,92.0528
116.3675,-27.8532,136.7175,19.4669,82.8496,203.9426,52.2422,95.1900,-48.1454,34.3383,-89.7326,-26.8226,24.3200,-36.9587,-17.8602,2.8730,3.5763,-109.9234,182.9610
96.1294,-16.2674,149.9311,12.0170,126.8927,225.3297,82.4255,109.0007,-96.5116,34.6703,-70.8197,-27.6113,48.7302,-49.9870,2.2026,-12.6346,2.7267,-33.8282,201.4421
39.8376,-3.9981,128.5458,-31.5702,114.3155,184.7659,78.7110,58.3515,-81.4096,8.0979,-58.2126,-29.5986,46.8039,-115.1246,18.6173,-28.4953,-46.3201,36.9044,135.4026
18.3046,-2.4162,109.0843,-31.1670,59.2993,129.2540,21.3565,23.2108,-12.0032,-1.3198,-73.7897,-29.0608,10.5676,-111.2145,-8.6027,-17.2962,-40.4965,38.8301,76.3515
54.1958,-8.3925,129.2317,19.0913,40.5538,114.6980,-16.3778,39.6262,56.8593,16.7000,-87.5247,-28.0084,-20.6786,-45.3158,-55.2773,6.0446,33.8301,4.9528,109.2579
93.6376,-25.7771,156.6343,47.8209,78.2748,152.8698,35.5148,63.2813,93.9729,32.7594,-99.8812,-34.9578,-5.0248,-40.9572,-39.4730,12.1902,73.2270,5.7529,174.2842
95.1973,-45.4765,147.8244,50.5888,112.5071,175.3206,105.2979,59.5740,87.4699,29.3690,-133.5611,-42.1675,32.8360,-70.4211,30.8876,5.8584,70.1880,54.7840,166.9186
75.6382,-47.0138,113.0921,69.3702,103.2306,136.5352,80.6563,51.6728,66.6251,24.0689,-147.2277,-36.4305,30.5944,-25.4300,44.2049,9.6129,97.4916,90.1454,114.3748
61.0867,-25.6328,104.0376,87.5089,89.2162,92.5406,6.9826,50.9778,66.3288,23.1333,-110.2082,-24.0393,-3.8924,32.2829,-9.7980,16.0357,140.1468,85.9713,85.3881
51.4871,2.5378,138.8455,77.4719,115.7285,99.8038,-9.8597,43.1139,46.6430,11.9705,-87.7345,-17.3887,-8.3435,12.5167,-22.9627,6.3989,144.3058,89.5786,52.2692
