Fp1,Fp2,F3,F4,C3,C4,P3,P4,O1,O2,F7,F8,T7,T8,P7,P8,Fz,Cz,Pz
16.7105,35.9169,-55.4684,-96.2614,-150.0864,-24.9321,-63.6806,-9.5401,-46.4224,11.8849,21.6829,8.7712,118.7494,53.8262,35.9035,19.9464,-4.3611,3.8129,-70.5972
110.9578,133.7783,5.2333,-48.2460,-52.9286,88.8825,12.7452,16.5881,8.5789,135.4628,116.3565,101.7762,308.0902,241.8178,112.4071,124.1610,158.1330,167.0515,35.3700
126.3272,133.0386,72.4858,-46.4954,23.9030,148.3771,50.5786,33.0988,-5.0735,97.3101,144.0872,129.4277,358.4749,322.5855,132.9907,160.9156,148.9100,175.7838,53.2725
115.6388,37.3329,93.3668,-94.2830,26.2157,64.0278,28.8061,-80.8155,-54.8772,-154.3559,145.5670,43.5142,343.0123,174.3268,115.7317,29.3479,131.6928,9.1027,56.3665
139.2596,29.4946,123.9150,-276.1274,58.1832,46.8860,62.0992,-64.7950,-62.9819,-156.9112,166.0281,-10.7464,417.2628,105.5792,136.8350,-25.7524,143.9261,20.7867,196.3150
125.8354,127.5921,125.7520,-455.1179,92.6015,160.4386,98.1859,188.8068,-21.0826,153.4574,138.6008,41.4360,425.6512,245.4447,157.3475,114.9323,56.7269,210.1626,335.3440
25.9977,161.1388,-13.9075,-211.2566,1.9456,203.2880,5.5594,311.6678,83.8942,310.4798,36.0966,100.5250,208.9178,252.6906,106.8769,196.1494,-38.6415,241.0546,251.6733
-88.6810,116.3880,-187.5611,394.4798,-134.7271,172.2908,-111.9786,186.4990,199.7967,239.7986,-70.5757,117.6868,-105.4866,0.9809,5.3287,99.7896,-5.7959,146.4131,43.9600
-126.0870,89.0946,-179.0573,702.3724,-154.0504,176.9627,-102.0644,81.7575,175.9234,164.8570,-117.3732,122.1301,-329.7422,-162.9698,-88.1533,13.0666,62.8422,105.6887,-60.6689
-59.8613,48.7626,-32.9569,503.2498,-76.9938,108.4510,-29.2733,11.0866,50.9621,15.9171,-78.0997,104.4338,-366.7660,-24.2703,-115.4035,33.8632,101.2014,11.4246,-37.0938
43.1625,-3.2465,55.5112,291.2069,8.6081,-34.4398,24.4800,-98.3642,48.4985,-152.7451,14.0642,89.6086,-226.7930,223.2642,-54.6343,102.5859,163.1028,-88.9248,50.4807
69.1763,25.2990,64.9411,316.8113,70.9369,-27.4627,74.8833,-59.2487,147.5453,-61.8643,57.1717,117.0117,-81.4911,288.6223,12.7205,150.9431,190.8548,23.7075,156.9263
6.7688,66.4368,67.6128,337.8378,60.3729,78.7250,73.7073,87.4314,132.0148,88.6488,22.4743,108.2733,-48.9396,94.5196,9.1810,90.2653,115.4032,146.5770,181.6897
-29.9216,17.1455,53.8008,245.8227,-14.9361,54.1987,0.1767,54.1438,39.1345,-38.8518,4.0367,29.9670,-24.1986,-106.2758,-6.3249,-42.1053,49.0514,33.6514,109.8140
8.6720,3.5447,20.7186,176.0083,-37.7673,10.6214,-17.6087,-46.6489,46.7681,-144.0694,32.6188,22.9919,27.5305,-20.8361,21.0087,-31.6971,82.3930,-27.2694,93.8799
36.6706,103.6068,7.7707,170.8354,7.3636,127.9010,48.1377,46.4051,86.3185,44.7564,31.3394,123.1250,-15.8414,212.5135,26.6824,127.2492,114.9657,139.2843,154.4365
-0.0538,151.3981,-2.8769,161.0397,5.6503,234.1928,50.0128,152.1702,3.7041,135.8949,-8.8641,168.1714,-101.1327,248.4315,-15.0663,175.3291,52.4400,203.3435,124.0975
-38.9031,88.6909,-37.3507,102.5013,-42.2788,168.0308,-28.0589,50.9604,-129.4100,-88.7712,-19.6566,111.0385,-70.2025,122.6219,-33.8108,62.8783,-31.9426,64.6674,15.9275
-29.6884,49.7082,-64.9579,13.4158,-44.6578,61.6168,-58.3855,-97.3209,-160.4768,-249.5274,-1.5963,60.8406,9.6036,73.4166,-14.3870,-13.9058,-48.3839,-2.2582,6.3530
-17.3400,52.6368,-94.4488,-50.5052,-42.3801,35.2175,-41.3553,-126.2939,-100.5892,-160.5813,-8.7818,43.6181,15.4898,87.5780,-1.0836,-0.1170,-54.9234,33.1466,63.6386
-34.0012,38.8938,-164.7857,-90.0599,-117.3213,45.9568,-54.1419,-80.7560,-53.1908,-61.6529,-33.2466,25.1385,13.4701,81.5611,9.4545,22.6933,-106.9609,30.1462,48.3644
-23.4323,49.4710,-208.3504,-135.9730,-188.6130,34.6259,-69.3685,-27.1853,-23.0970,-43.2344,-23.6775,18.2758,54.6146,87.2735,32.1888,31.0525,-78.8093,32.2825,28.2633
39.2437,81.6239,-132.7000,-115.3994,-136.0745,-13.8934,-45.8621,3.7584,72.6642,37.6920,14.4332,10.5714,52.3563,58.6316,41.1516,20.8639,98.4644,65.0066,103.5041
71.7060,55.4482,-6.2993,18.1930,-4.1738,-56.8245,-11.0862,25.1782,206.4054,193.8723,22.6997,-20.3532,-24.6247,-47.2459,21.6692,-2.3356,218.7094,52.8049,171.8512
31.5649,-0.1772,35.9503,130.1034,80.5275,-40.8900,19.4937,73.2502,214.8014,253.7179,-6.2139,-28.6910,-94.7214,-99.2904,-9.1825,2.4478,148.5929,26.4476,139.5853
-4.0241,-5.9148,0.0391,132.3620,95.2843,-14.7898,44.5803,85.9428,64.9733,123.0614,-13.7743,6.4110,-100.7483,-42.5243,-35.9200,14.8929,74.9937,33.2293,87.4234
9.7127,16.9848,-13.2768,116.4303,115.0396,-36.8788,51.9309,19.5216,-65.9858,-50.4075,12.8532,32.7889,-77.5343,-4.6748,-52.8024,-11.4961,124.0622,36.5208,93.8212
26.7239,26.1224,26.3848,120.4668,184.4727,-46.7106,71.5571,-13.1935,-72.1337,-90.2850,26.9101,34.0190,-82.5606,-15.6892,-58.3892,-33.2806,170.7595,49.7109,133.1366
32.7919,21.9068,73.1233,93.8428,272.6218,-2.2158,131.6168,20.5721,-33.0969,-51.0547,27.8346,36.4913,-88.5323,11.0937,-49.4768,-10.6513,153.8722,90.1753,159.7404
47.7961,-1.6794,86.3025,64.5426,324.6396,41.4295,174.0504,8.7856,-26.3399,-25.2964,42.1884,37.8543,-38.4805,67.6335,-28.5657,21.4254,126.5109,89.4529,140.6511
49.0345,-36.7375,55.4916,62.4046,314.9528,57.7425,145.5340,-32.7774,-50.4544,45.1964,41.3030,29.1446,4.1391,93.3755,-23.5315,47.2993,77.5137,30.7485,74.1871
30.6754,-55.2973,1.6100,45.7081,264.4646,51.3099,90.9980,-24.9512,-68.5472,133.4383,10.6594,14.3868,-39.4179,84.5415,-46.0134,64.6136,29.8106,-26.5637,23.4646
31.7661,-60.5247,-30.5309,20.6337,213.8061,16.1920,64.8714,-16.8167,-11.2067,132.8408,-3.3938,-8.3067,-87.5661,61.5207,-48.3024,54.4606,51.0528,-59.4605,37.1150
43.2198,-63.4180,-24.7760,7.3892,171.1420,-3.6278,56.4694,-11.0928,123.5148,138.1439,2.2423,-30.0754,-63.8886,48.8818,-6.5461,50.5102,66.6370,-60.6720,84.2212
25.7913,-57.1917,-18.3435,-35.9579,123.0860,16.4269,44.2176,56.8629,207.7973,224.4866,-13.3690,-40.0444,-43.3062,47.7855,23.5334,74.4941,0.4197,-32.8215,140.7536
0.2873,-43.4671,-31.4750,-82.5887,98.2596,21.3506,39.2041,107.8756,180.5001,212.1057,-29.9958,-43.3428,-58.6147,20.9692,15.1860,61.4302,-40.2770,-8.3840,220.6656
-0.7430,-16.3216,-25.9048,-45.8921,131.4516,28.6792,60.4452,73.8669,138.1179,58.0301,-12.1557,-25.8571,-43.1561,-10.9703,13.6422,9.6676,6.5570,33.0319,282.2781
8.9828,30.2311,14.4287,37.0776,179.2705,106.7598,99.8340,54.6634,127.6117,-32.3195,13.3611,24.0110,-8.1346,14.9119,29.4013,4.3044,52.2845,113.3777,262.6543
19.6525,60.6389,43.5097,78.6247,192.0810,186.5350,131.7796,74.8551,90.9596,-45.8678,25.9658,62.9164,-7.9565,54.3366,26.2923,23.8740,84.8140,156.2381,209.7720
33.2781,56.3695,47.7629,100.1993,212.3921,188.6248,160.5928,59.1839,26.2142,-121.0252,39.9097,62.0974,-29.0057,21.8992,1.9371,-12.1099,153.0218,143.1500,213.6556
32.0628,47.2548,67.6343,134.8822,267.8366,176.8197,198.9337,48.2882,-21.8243,-197.7738,45.1476,55.1036,-60.0498,-41.0947,-24.2926,-62.0266,196.4822,148.2776,239.0442
14.2947,23.7720,85.6798,142.5213,274.9757,161.3106,194.4574,71.2651,-57.2357,-178.0023,30.1887,50.2585,-94.1877,-44.9452,-45.6299,-52.8386,152.4677,117.5360,191.6850
5.1518,-33.4096,41.1920,101.2155,182.9664,60.5663,96.0387,32.9400,-88.5814,-114.2523,15.0641,23.5763,-84.3753,9.2559,-52.4741,-8.3016,69.8746,-23.4055,88.8833
6.5253,-65.9615,-32.1048,38.1333,77.3219,-65.2560,-26.8059,-67.4891,-111.5539,-46.7542,3.3564,-4.2614,-50.7960,57.1498,-51.1835,20.9942,8.3017,-141.6893,4.2341
-1.6001,-48.1739,-58.7712,-15.8554,29.3349,-101.1027,-86.8336,-140.0625,-148.7407,2.6424,-21.2124,-14.1527,-72.7710,40.6525,-68.7622,10.0623,-29.9438,-149.0452,-71.8950
-26.7975,-56.1163,-77.7586,-54.1857,-17.1865,-112.5347,-128.8772,-203.5578,-186.6756,-35.0956,-56.4149,-42.2713,-133.0815,-37.1891,-96.2250,-42.2755,-80.5296,-185.0699,-165.0674
-60.5675,-113.6182,-157.2562,-120.3120,-123.4537,-203.9761,-215.2534,-290.6742,-150.3643,-135.4767,-94.4490,-105.7651,-169.1894,-103.6637,-95.6213,-94.6175,-170.2043,-308.5844,-216.0318
-78.4302,-150.4296,-237.4749,-235.5749,-240.1293,-322.6342,-285.8321,-338.7847,-24.0990,-200.2620,-123.1936,-167.5845,-182.1435,-121.2313,-62.9485,-115.9980,-240.7183,-386.3508,-178.8508
-65.6125,-134.3424,-236.3191,-303.3484,-282.9726,-365.2477,-270.0674,-314.3549,103.1693,-205.6734,-120.0188,-189.5269,-169.7842,-129.3415,-24.2574,-124.1816,-216.7919,-343.0545,-106.3837
-52.6152,-89.2902,-192.7536,-241.8005,-249.7054,-311.5321,-206.8255,-242.6548,144.5952,-156.7980,-98.5724,-161.0246,-135.6509,-147.8268,-6.1271,-122.7634,-149.8207,-228.0077,-57.8054
-62.0856,-40.1953,-165.8342,-131.8242,-202.3039,-214.1086,-168.1163,-155.3873,97.8582,-88.5554,-93.6572,-108.5286,-141.3174,-158.5982,-23.6284,-106.7534,-112.4107,-130.8415,-37.1273
-57.2563,-7.9896,-128.6884,-66.4556,-166.0772,-136.0782,-163.5652,-115.8096,19.6096,-105.4357,-85.8489,-70.5843,-180.1286,-155.3780,-54.8589,-104.4861,-56.0926,-119.9003,-41.8361
-19.7564,12.7679,-55.9954,-15.4611,-110.0992,-86.2435,-151.8018,-151.4490,-57.0800,-198.5836,-46.0662,-40.1786,-166.6115,-132.4619,-66.7474,-118.1163,43.0891,-138.1340,-63.7716
4.3745,32.5998,9.1457,38.8114,-23.7868,-46.6839,-102.9591,-193.3335,-147.1285,-227.1612,-10.7388,-4.4554,-117.2375,-105.8992,-74.0320,-120.3250,92.2403,-91.9539,-71.1594
-7.8892,18.0521,21.8475,38.9283,52.5218,-41.6351,-50.6688,-196.2075,-230.8546,-164.4468,-15.5650,-2.3219,-107.2528,-119.8971,-98.0005,-119.9770,49.8605,-50.3852,-65.2364
-24.6277,-24.3728,-12.0093,-8.1455,84.0784,-76.4069,-56.7917,-180.2300,-236.2721,-70.1471,-36.7292,-37.3556,-111.7504,-154.8204,-109.8139,-118.3485,-11.1869,-83.5811,-87.8649
-24.0242,-21.4947,-45.5108,-20.8769,81.1247,-104.0726,-108.3737,-157.5956,-158.7302,35.5639,-43.3062,-48.8997,-82.6351,-157.9931,-88.3658,-97.0283,-21.5873,-91.9791,-139.2301
-4.6330,9.5288,-25.4504,11.4635,76.3665,-129.8302,-124.4896,-165.4935,-84.4225,55.6003,-24.2944,-38.8390,-36.1970,-156.0911,-57.8747,-95.4797,29.8221,-52.4388,-173.0722
29.4447,-13.2149,40.8873,21.9177,84.1324,-180.3930,-82.7314,-240.3455,-67.9661,-85.7920,14.6169,-54.7226,4.6259,-165.5254,-37.4623,-137.1888,95.4347,-76.0575,-178.6101
45.1457,-46.1958,69.7966,-3.1456,83.0925,-193.2611,-48.8501,-304.2660,-92.6088,-218.6152,31.6833,-63.9258,9.4543,-130.1772,-32.8121,-149.0955,98.1416,-123.7129,-185.4047
16.5318,-9.0231,15.4842,-5.1966,62.1460,-119.3071,-55.4860,-269.4461,-114.8390,-183.2467,-0.8493,-25.0043,-46.9849,-67.3326,-48.0184,-102.1546,39.4431,-73.3447,-178.4091
-14.3872,46.2600,-43.1343,31.8148,81.8542,-4.7348,-26.1218,-171.4335,-79.8914,-84.4278,-33.5492,18.8012,-104.6792,-43.6720,-55.9289,-59.1469,12.8824,42.6009,-79.2023
1.4496,61.6106,-11.6419,58.5663,210.2602,128.1853,118.1951,-47.2039,18.9423,-28.6456,-14.3740,40.3943,-95.0178,-23.6728,-28.4629,-30.4718,64.5648,167.3491,135.2873
35.8232,70.9997,73.1564,67.9759,391.9640,276.2945,311.5252,118.7212,96.7732,25.5752,29.0917,68.9695,-50.2663,26.1273,6.3569,13.4095,138.4263,306.8217,347.5236
36.7935,81.5192,102.7727,101.9676,491.3387,364.6730,404.9817,274.2655,95.7822,95.2934,47.1568,100.1088,-22.4611,53.4283,13.0373,54.6107,161.3725,391.6665,426.0240
14.0772,71.2556,63.1172,141.4796,469.4238,358.8837,368.3765,339.5915,73.6017,160.6788,34.9120,110.0529,-23.1440,65.4733,3.2266,87.4137,125.9397,366.2270,383.8850
11.3558,62.8611,34.2345,129.4479,409.1008,317.8770,301.3629,310.4719,90.0432,200.2952,17.9411,102.8258,-52.1799,93.7663,-2.2949,111.4378,101.1558,305.0333,304.5446
35.3057,56.7120,52.6647,85.5771,375.2064,248.0369,259.7383,210.0987,117.2449,155.0561,21.6724,72.5336,-60.3128,66.3187,1.2854,74.6853,135.1725,252.7543,204.0195
54.1609,30.6980,81.8085,70.7004,349.9974,137.3352,215.4925,77.4882,107.0108,55.5389,43.3664,26.2045,3.1862,-28.9140,13.5016,-11.1942,168.0642,190.8872,79.3751
45.5409,23.0114,87.0264,90.8928,296.9374,75.9416,152.3626,-13.1932,54.2854,8.8303,50.1920,16.0867,68.0478,-71.3807,19.6084,-49.5628,135.8309,154.0354,-29.7587
16.4878,53.6770,42.3771,118.0657,211.6129,103.2566,78.5543,-58.5722,-5.7425,-37.7190,28.9798,45.8043,56.0636,-47.7983,9.8219,-43.6683,77.8172,145.1410,-110.3468
-15.2542,60.2000,-77.1370,131.5808,115.0833,105.0670,4.6152,-136.1009,-25.1953,-165.7663,0.6726,47.1908,24.3364,-65.4768,3.3967,-75.4023,39.7186,102.9288,-182.9765
-35.8845,13.5678,-236.6205,111.2930,37.3071,17.6733,-42.9052,-248.1982,-0.9522,-246.4340,-23.6729,0.5998,21.0850,-119.3376,5.7815,-123.6691,5.9866,33.2799,-228.1661
-38.9196,-48.4599,-366.0316,47.1976,-3.1911,-89.7519,-62.6675,-307.5409,14.9768,-198.4782,-45.9389,-48.3565,-3.2122,-113.0649,-6.0051,-116.2622,-24.5177,-45.8495,-206.7688
-33.7067,-98.3060,-458.8830,-38.9466,-14.0994,-162.7947,-88.5583,-258.6272,-3.8331,-144.1788,-58.6910,-71.7539,-56.6252,-31.4139,-31.0725,-57.8606,-31.9290,-153.1734,-107.6149
-33.5258,-105.6438,-526.8938,-89.1769,-1.6472,-172.7459,-92.2165,-109.4997,-26.3217,-100.9565,-58.4957,-60.3881,-91.3503,55.0582,-47.9913,9.7948,-8.6468,-192.2609,62.1755
-28.2248,-55.6579,-518.9214,-49.9103,61.0917,-70.9344,-1.9948,82.4712,-27.4627,23.0546,-44.1703,-15.6804,-90.9901,75.3730,-52.6434,55.4036,61.6984,-63.0416,246.7924
-7.1730,-17.6084,-427.4921,43.9534,181.2484,92.6718,137.3626,219.6823,-23.1852,141.7763,-11.7425,21.7640,-51.8721,30.0279,-46.6882,59.2935,151.6526,87.8790,329.6927
0.4520,-34.8519,-362.7639,95.6410,272.0370,166.7881,183.1461,234.5275,-43.7000,121.9582,10.9315,24.6947,-2.4132,-11.1617,-38.2706,36.9137,165.8744,94.5020,250.3761
-30.9343,-30.6444,-391.6831,91.2733,236.4640,122.5144,96.4405,145.7212,-86.3848,17.6372,-12.2897,25.6526,-12.4265,-21.7581,-45.8403,10.6646,91.0531,50.8977,85.5854
-63.6143,20.4742,-436.3802,88.9063,128.8100,81.4805,-5.4653,22.9848,-87.1606,-76.9221,-50.2517,36.9045,-58.7821,-41.8285,-51.5588,-25.1776,33.4927,63.5029,-38.7280
-52.4581,20.2548,-418.5057,83.1112,84.1488,80.1717,-15.4906,-78.6265,0.6788,-159.0339,-47.8720,17.2681,-46.0777,-70.5036,-19.6106,-64.4758,36.8684,56.3500,-76.2753
-22.9915,-43.8226,-373.8624,46.4457,89.3848,36.1453,24.1184,-158.8253,97.3608,-232.4816,-25.2422,-30.7050,-2.2583,-73.7615,20.9367,-86.6184,39.5755,-6.3602,-91.1828
-17.1947,-61.9323,-362.5424,23.4624,33.1157,-40.8855,9.0315,-244.1296,100.4894,-276.9846,-29.5899,-45.9392,-20.9667,-52.8358,19.0306,-91.3215,21.9284,-44.2148,-146.4573
-16.6579,-15.4854,-363.2183,40.5024,-42.0452,-45.7885,-34.5604,-305.9052,72.2326,-262.4814,-44.1898,-16.3823,-70.2779,-9.7149,0.9599,-73.1704,25.0352,-23.8239,-176.3810
3.0848,11.2475,-320.4296,48.2792,-6.2204,18.5846,5.1155,-265.8567,134.4390,-156.1199,-34.7101,6.6180,-60.8740,45.6082,19.4443,-24.5373,44.3492,38.7854,-85.4245
15.0273,-0.7603,-245.9298,21.8484,96.8351,55.4160,99.6249,-109.9358,241.2370,9.5252,-13.0707,0.1484,12.3493,61.4044,62.1127,24.7594,34.8497,121.4488,72.7577
2.6122,-14.4245,-198.8297,-14.7798,134.9322,51.2028,125.7323,76.6635,261.2267,149.2365,-0.5366,-13.0475,89.8900,34.3289,83.4878,51.9155,0.4594,153.9657,194.0387
-6.7627,-22.1179,-186.7165,-42.8167,121.0607,58.7681,98.3050,212.7610,191.9328,230.9968,5.1995,-15.2585,114.2546,24.8157,69.4058,73.7911,-8.5269,116.3178,282.7687
-2.1956,-12.7662,-161.8477,-36.6018,130.4259,88.3456,112.8398,293.0292,119.8244,261.5771,13.0930,0.1364,94.2801,32.2939,43.5386,88.1624,26.9923,114.5138,340.2830
5.8164,25.7956,-96.8237,17.1304,150.8079,127.3262,151.1738,325.5765,76.1463,227.9379,31.1107,30.8173,99.5187,13.7339,35.9753,72.0007,82.6669,181.0921,294.6482
22.8999,53.0038,-8.4418,72.2350,154.8602,151.7926,139.8840,267.7839,41.1609,137.3450,55.0101,48.8337,126.8801,-16.8808,39.8365,32.3343,131.1203,188.5344,149.6229
33.7458,42.9557,57.7525,93.9272,133.4367,105.7241,63.9527,103.1432,-8.2739,20.7102,55.8880,38.2590,99.0980,-39.1629,21.6310,-14.1399,132.7853,92.0411,-17.0172
-1.8271,40.7587,48.2545,105.8668,38.7207,-4.9332,-61.7885,-84.4973,-84.8115,-114.1270,17.6283,29.4025,31.6641,-63.8468,-13.5160,-61.6250,46.6872,4.5063,-183.0902
-61.8076,58.4871,-35.6421,102.9548,-126.6975,-81.4280,-188.1071,-216.1947,-149.5358,-243.1537,-29.6737,35.5986,4.8121,-70.1168,-25.7557,-90.6051,-86.6630,-30.9786,-321.4875
-75.6665,41.9902,-111.5462,54.2791,-245.3056,-92.5952,-234.1644,-303.2161,-134.0735,-295.2682,-49.3730,23.6021,9.8736,-29.6210,-9.0349,-82.2522,-163.2967,-79.1944,-355.5973
-37.1974,-6.3570,-106.6224,-1.2271,-243.2038,-112.3255,-197.1812,-344.1711,-53.6257,-231.6757,-40.1623,-7.3335,1.0796,32.4397,6.9213,-44.5625,-145.7026,-135.3589,-289.0729
1.5652,-27.4939,-36.0968,-12.4382,-187.3491,-159.9915,-150.9074,-290.4655,0.5260,-102.8238,-21.3884,-21.3434,-17.3716,66.0825,3.6050,-3.8119,-80.1375,-145.6215,-195.6903
15.6655,-24.6308,33.8660,-8.8696,-157.5642,-177.2721,-120.1371,-154.4682,4.5235,19.0513,-9.6514,-26.1041,-37.1556,42.0143,-12.6499,13.9533,-19.5944,-130.1310,-87.3012
11.7267,-36.9944,61.6680,-22.0638,-140.8884,-143.6065,-76.3058,7.0382,17.2441,122.6581,-7.0281,-42.5748,-40.5829,-12.3348,-18.3702,17.8677,1.6703,-114.2330,47.4945
1.6213,-52.0767,63.3592,-31.9054,-89.5369,-86.8982,-12.0004,163.3974,48.8014,211.4322,0.6422,-46.7721,4.0445,-29.0469,-0.4459,40.5447,-12.9008,-68.1921,165.7597
-4.6532,-47.7769,75.4899,-38.5103,-19.4034,-34.4506,47.6042,260.3696,44.6276,230.0809,14.1758,-32.1077,54.8646,-17.3076,15.7385,57.7780,-25.5028,-6.0424,223.9309
-17.7014,-37.3385,88.5816,-52.6908,0.1608,-1.8134,62.8748,257.7136,0.4424,163.0358,8.4445,-29.5105,42.1661,-51.1809,5.1115,25.9520,-40.3794,15.8371,214.3264
-45.9008,-29.7659,70.5201,-52.7372,-42.3699,14.9965,24.1966,219.0993,-33.4611,105.6029,-19.1271,-32.1711,-2.8073,-93.6225,-12.8984,-6.0912,-88.1353,1.2856,144.9389
-53.1977,-24.4380,53.7326,-47.0938,-81.1688,16.1042,-22.0202,172.4061,-55.1246,72.6551,-29.3807,-18.8256,-15.7414,-54.4896,-16.2585,8.8912,-120.7356,-30.5755,31.2087
-17.5043,-23.1785,94.7877,-64.7065,-94.1432,-17.5889,-55.9739,37.7074,-107.2098,-52.3444,-5.9110,-9.6597,-6.9313,9.0469,-17.4343,3.2487,-82.1189,-96.9583,-124.9347
10.5147,-8.0363,154.3325,-63.9873,-123.0321,-64.5471,-113.7559,-151.2290,-185.0460,-240.8306,13.0033,-6.8265,-11.2771,6.2615,-29.7494,-55.2997,-34.4254,-161.7791,-302.5258
-6.2849,21.5238,144.4349,-14.6585,-167.4322,-78.8353,-175.2859,-249.4864,-227.8459,-320.4159,-3.6287,9.3851,-48.0344,-18.1054,-48.9290,-88.6229,-45.7534,-166.8040,-396.7203
-23.0707,14.2342,77.2957,1.7199,-196.9152,-88.8341,-172.0172,-263.5535,-186.0400,-273.0689,-34.1264,2.6363,-116.9844,-19.2974,-63.6720,-77.6326,-67.0303,-159.6904,-321.4298
2.7778,-39.8393,49.2859,-57.9545,-209.8944,-134.5581,-110.2463,-271.2961,-67.3658,-178.0219,-39.0597,-52.7381,-153.9095,-27.4598,-54.0590,-69.4641,-39.5774,-186.0903,-137.9510
45.3999,-70.6638,100.6090,-96.8525,-174.7469,-162.2699,-31.3252,-213.8555,64.2328,-35.5219,-9.3456,-91.1603,-99.3894,-35.3901,-15.1034,-51.1294,18.5181,-160.8606,57.6474
61.8942,-48.5436,175.9973,-56.3297,-52.4988,-125.7856,63.8246,-55.5750,141.1931,99.1491,26.5791,-72.0103,-18.8000,-36.5811,19.0775,-18.5390,71.7581,-36.6277,242.9523
43.8066,-13.4561,210.4345,-1.2715,84.5889,-54.3651,144.4788,111.3406,145.1145,153.7857,34.4260,-38.4865,-6.7240,-65.3646,17.5335,-9.2192,94.0608,90.2246,368.4641
14.5501,24.6566,203.8496,31.6457,139.7581,46.6602,156.7632,246.8391,89.9637,213.7050,17.4777,0.0293,-40.3944,-73.2188,-7.1920,13.5167,78.4050,153.6597,353.7960
5.6048,73.1262,200.9144,69.3511,143.4630,168.0394,125.1908,340.0964,2.1032,269.2278,14.3592,63.7509,-48.6982,4.9206,-24.6522,77.7645,70.1539,172.9574,232.5146
21.2535,90.4694,220.1195,96.1266,151.2703,217.8921,97.8193,295.6150,-69.7085,133.7077,38.3192,102.7820,-25.4295,78.9416,-22.6229,89.8321,96.2267,133.5439,107.9941
35.6129,54.2419,240.2266,77.9174,130.2170,159.7960,57.1684,109.9086,-104.6942,-106.3351,53.9116,74.1062,-10.5338,55.9715,-17.3722,17.1967,100.9892,25.5601,-6.1901
39.2481,15.7015,247.3265,33.3754,65.1602,83.0992,-7.1695,-68.5506,-132.9911,-171.8618,40.0749,30.9152,-26.4613,18.3713,-28.2097,-31.1882,57.3703,-76.5619,-148.6726
47.9223,11.9185,242.6401,-13.3442,7.9086,30.5852,-53.5779,-176.4883,-139.1009,-134.2635,24.3661,18.7663,-46.5920,47.7699,-34.7271,-20.7967,23.3165,-112.8794,-287.9149
58.5440,12.8841,220.2783,-60.8270,-17.2832,-33.8365,-58.7356,-256.7964,-75.1967,-191.9365,24.8419,6.5944,-32.7315,77.4172,-9.2704,-25.5671,16.6298,-105.3809,-343.5092
52.8440,-7.4748,188.9084,-91.5025,-12.5918,-85.1686,-28.4651,-291.4899,6.3844,-223.1780,23.1971,-24.8206,-0.0807,40.2991,19.8885,-55.4166,-5.8306,-77.1804,-271.9598
42.4081,-19.2392,178.1149,-89.9759,40.7572,-63.1994,39.9788,-234.0893,46.5418,-102.4687,19.1009,-39.9058,25.9393,-6.4619,27.9601,-56.1482,-26.5841,-4.0308,-87.9904
52.1113,15.2934,189.2153,-64.6614,133.3492,35.5482,139.9485,-73.8950,127.8588,74.0837,35.2565,-8.9913,68.0078,27.3862,54.8887,3.2340,8.4474,136.6989,152.9706
68.3258,73.5085,199.2468,-15.0514,211.9950,180.2549,233.4660,182.5721,280.3957,272.8843,59.4979,49.8386,117.5835,122.7956,107.1657,113.4883,68.7419,293.7615,360.0274
61.1825,96.8422,218.4291,49.0187,244.8892,301.4959,271.3498,440.9838,345.4601,467.6377,63.0196,91.5162,121.5680,172.1175,120.5901,206.9663,85.0963,355.5234,434.8686
40.9960,77.8787,263.1545,81.0035,235.1073,307.2812,234.6045,547.1777,255.6729,498.4080,59.1924,96.4390,104.1330,151.6665,89.5911,219.4475,62.2384,290.5410,359.5783
32.8257,57.3297,292.3160,68.1869,187.4984,213.0781,153.3014,484.9836,146.9214,372.5707,65.5063,86.0141,117.7222,139.6351,70.2020,186.9280,38.3042,187.7975,225.0099
27.3513,45.9630,263.4998,52.0852,107.1466,128.8544,62.4501,361.5893,81.8485,265.8511,58.1061,74.5065,109.3985,141.5923,55.5893,159.1569,13.8441,95.9596,108.0747
17.2200,32.6263,213.6814,40.3576,16.0999,85.0536,-25.0842,227.1385,8.7001,176.2636,31.0067,53.7576,36.7783,103.9740,16.7592,113.3022,-0.8325,-7.1450,-8.2775
27.2971,28.8607,195.6856,10.8131,-46.0673,34.9191,-80.2820,83.6914,-41.6946,45.1833,22.3029,29.6930,-13.4897,57.0387,-8.0708,48.4097,29.7514,-81.6563,-142.8569
55.9093,27.4846,193.7488,-18.9225,-62.5984,-28.0961,-88.6924,-58.4001,-24.3438,-54.8786,38.7905,7.1879,18.7797,30.3104,8.1222,-4.2892,75.3345,-94.9206,-265.1651
63.0922,-5.5584,170.6660,-40.6295,-79.2876,-98.8762,-108.7931,-216.7251,7.9207,-131.6121,42.8710,-32.4414,70.0769,-17.0678,31.3486,-59.5088,53.2962,-131.7786,-358.1289
45.8335,-54.2431,123.3868,-89.3704,-139.9055,-191.3265,-166.7238,-368.1925,36.4842,-226.8097,23.4080,-81.9327,80.1059,-53.4813,44.1286,-106.0799,-29.2426,-215.3724,-396.1998
32.5117,-67.5174,60.4286,-147.7573,-199.9322,-264.0800,-178.4029,-389.3230,106.5367,-196.2630,-1.4962,-101.8646,51.7401,-17.8049,54.0366,-82.3393,-84.0966,-217.2289,-305.0069
16.3954,-44.3377,3.9045,-146.4366,-192.9185,-246.8570,-107.3283,-212.1812,195.9654,37.1606,-26.2613,-86.2791,5.0410,19.2414,51.9961,-4.2852,-90.2810,-96.5513,-77.9192
-12.3410,-16.8481,-7.9969,-88.5909,-132.1694,-153.1578,-37.3719,59.4002,236.2875,285.8849,-43.4697,-57.8885,-28.7217,2.6824,37.8046,60.7322,-85.7241,21.6093,153.8084
-24.8694,-0.3886,13.9790,-39.6597,-66.9337,-62.6092,-10.4959,258.9120,192.3485,381.3184,-36.7461,-23.6189,-34.1914,13.1444,20.3300,105.3852,-63.9818,52.3994,264.4322
-10.5117,-1.0953,24.9463,-19.3216,-12.2713,-12.5911,11.1420,299.6926,66.7121,317.5518,-12.9281,7.5298,-37.3574,63.7435,-8.5028,122.6339,-12.9618,20.3132,253.9642
4.6087,-6.9915,44.6992,-9.9010,29.7829,22.9203,26.2514,222.0481,-72.9809,146.6817,8.8625,21.0116,-41.5831,65.8371,-37.4531,81.5338,31.3973,-25.0402,186.3508
12.0446,8.9528,105.3975,-9.8521,51.9017,55.7064,12.1335,126.1841,-154.6752,-32.0884,27.5333,26.2300,-16.7644,21.8020,-41.1370,12.4269,51.2860,-42.1075,100.7066
15.2173,35.0763,149.2218,-14.3934,61.2048,48.7127,-7.5909,46.0768,-216.8934,-144.4122,41.5065,33.6497,21.9550,-13.1603,-39.3900,-39.4068,59.3136,-26.0739,9.7340
-0.4784,44.4738,126.2640,-3.8599,69.4709,5.4943,-18.9827,-31.1756,-289.7585,-202.7703,34.3014,40.4028,28.7621,-33.5389,-55.4938,-69.4555,33.0453,-3.1179,-78.0154
-35.9452,58.8828,74.9935,24.7270,62.4125,6.6292,-49.7115,-62.1836,-280.6370,-182.4598,1.2508,59.0256,2.7874,-12.9224,-59.5117,-49.9699,-48.2731,29.0496,-161.0901
-64.9693,81.0508,14.9799,38.4696,10.3023,52.9999,-105.1113,-33.6959,-161.1508,-75.5794,-37.6939,79.9046,-22.1782,53.5980,-32.5702,19.4680,-139.2086,52.4383,-227.3333
-67.4983,45.6160,-59.5074,-16.2202,-70.5836,13.4699,-141.1746,-42.5597,-27.7045,-12.8739,-56.8080,41.4007,-17.5008,71.3043,2.2902,45.1755,-186.2504,0.6706,-222.0033
-42.9312,-46.1887,-89.7603,-142.1778,-103.4675,-135.0809,-117.0293,-110.0628,96.5193,-24.6408,-48.2439,-60.7386,24.1456,6.4989,38.6138,-3.3231,-187.1381,-86.2136,-110.1936
-13.4506,-81.8076,-52.8329,-239.9200,-59.9936,-217.1526,-57.5319,-101.7502,219.9505,36.0570,-31.4442,-123.6669,68.2419,-47.1455,73.9669,-30.8379,-157.7257,-70.5152,32.9095
-10.9194,-27.6872,-29.7468,-221.2277,-17.4706,-139.8984,-23.8370,32.6800,248.1934,152.7341,-27.5489,-94.2745,68.7067,-55.6953,76.8816,-6.2691,-111.6801,30.8646,117.3320
-28.8109,6.1554,-37.5884,-146.1216,-22.0268,-32.0537,-12.1469,163.6636,160.2550,177.5279,-30.1383,-52.3977,32.9593,-71.3733,43.6268,5.6820,-76.6385,63.2638,169.2401
-31.9238,-32.7654,-10.0152,-119.8328,-18.6714,-8.9991,17.9410,196.4539,72.4702,144.4680,-24.4739,-59.0761,5.6303,-91.1362,12.1600,-4.7599,-69.3251,5.8577,218.9225
-19.7211,-56.6548,31.1294,-119.7026,12.2557,-20.9999,37.7238,177.0171,6.6941,118.6953,-9.9673,-59.6579,9.6138,-71.1517,-3.1263,-2.2930,-60.9799,-31.2256,207.7381
-12.6644,-14.1898,32.7756,-67.2749,22.0340,10.0489,20.5527,165.0998,-88.6536,38.7508,10.9117,-7.3638,32.8002,-15.2224,-13.0755,10.3123,-20.0280,-11.0387,137.2285
-8.9707,31.7218,39.3112,18.8787,11.2558,69.7014,13.2048,151.6473,-159.9605,-49.1339,27.8382,47.1838,39.4409,22.1552,-21.3667,14.2752,27.5331,19.9015,80.9419
-7.0340,48.0084,76.6559,75.9415,10.3666,105.0051,10.0356,108.0455,-175.6108,-43.2170,23.2545,58.1051,9.7305,-9.4806,-36.1957,-4.3324,45.9168,32.9399,9.9538
-8.1618,77.9094,100.5959,105.2313,8.6420,108.1862,-42.8341,30.2321,-209.2158,-44.1623,10.6267,61.6147,-23.8874,-67.3634,-58.7240,-43.8183,62.0997,31.8452,-129.2906
5.0005,114.9525,117.2203,124.8627,8.8074,100.2464,-89.5520,-77.2567,-241.0686,-142.9650,16.7862,83.1103,-34.1874,-52.9891,-64.5946,-66.8490,97.1019,26.8405,-255.1213
25.7320,98.7811,134.5677,108.1341,21.5713,68.0350,-62.5659,-193.6660,-163.3312,-202.9399,19.4153,74.2348,-48.6315,1.1739,-43.9855,-60.2842,92.3453,20.5285,-282.1936
18.5604,43.6921,91.0968,47.3122,11.0015,-2.0394,-22.6441,-236.4721,14.8403,-118.3261,-10.9418,12.9945,-74.6908,-22.6845,-13.6297,-58.3859,25.8584,24.2715,-210.3774
-4.0208,18.6529,5.8624,-0.2274,-11.6302,-47.3081,8.8546,-120.3337,201.2570,37.8772,-38.4392,-37.4941,-72.6079,-85.9174,21.7931,-50.0359,-10.1370,76.1843,-21.3673
-3.6283,26.6786,-14.2474,8.7317,26.4797,-4.5518,96.1303,108.5993,335.0135,186.2622,-27.7953,-31.2357,-48.3306,-69.7707,55.8461,7.0143,28.7213,172.5631,241.9949
1.1218,25.9542,19.7819,39.6011,89.8704,70.7604,179.4453,308.9394,361.8726,288.7726,-11.5104,-3.5513,-47.9614,-12.0984,60.6594,77.1244,58.7853,221.3627,401.7577
-15.4069,7.0314,24.0390,41.8822,77.8223,84.9585,151.4230,394.1710,273.5968,295.2185,-14.7461,1.6529,-59.8361,-6.2172,35.1901,94.7103,34.4745,159.2598,377.9482
-23.5070,-18.3825,20.9494,21.8027,25.4019,41.0625,71.0555,344.5002,151.7029,190.3631,-10.2102,-9.5935,-40.4752,-20.4629,14.7970,66.0589,8.9818,44.8807,260.6186
-6.8492,-26.8584,49.1568,18.4855,12.5424,0.6226,19.2673,183.8890,50.6824,31.8886,11.9940,-4.5429,4.9912,6.1070,12.1428,34.1439,7.5777,-29.4840,93.8696
4.3691,4.8497,57.3211,42.4708,-7.9570,-13.1417,-44.0993,14.6791,-49.9696,-87.9799,24.7349,29.3671,39.2314,56.3263,7.0087,20.5937,5.1566,-48.7843,-105.4172
1.6240,35.4372,20.7060,56.2194,-85.4824,-33.3715,-124.2056,-97.2041,-158.7996,-150.4725,18.4686,55.1612,30.4786,86.8981,-17.0206,14.0436,-0.6434,-80.7793,-240.9026
7.7527,7.4588,-11.2306,23.0065,-152.2709,-98.5982,-160.1196,-227.7874,-262.9337,-252.7361,9.1295,33.8747,-26.0124,80.9796,-58.0424,-22.0614,5.6378,-175.9956,-303.0073
26.7210,-26.6547,-4.8013,-14.6115,-151.0002,-167.8079,-158.6494,-395.6761,-337.2570,-401.9252,9.2837,4.1158,-80.6840,60.5704,-91.3241,-80.5589,32.2188,-254.6326,-385.6259
43.0943,5.5907,37.6053,21.6402,-117.4140,-154.4144,-152.5549,-455.7075,-315.8907,-423.6889,18.7089,20.9168,-79.7975,57.0625,-85.4813,-95.2469,72.9569,-210.9904,-453.6123
46.5363,41.6879,83.4296,88.2805,-100.7782,-89.1242,-129.9939,-358.1971,-178.6478,-271.0920,24.7945,43.0282,-40.9250,59.7032,-43.9512,-54.0030,85.2669,-116.2700,-405.5808
37.9722,12.0870,74.1789,65.0518,-103.8174,-75.0536,-90.2510,-219.2293,-16.3862,-111.9101,18.8464,16.0244,-2.8189,56.5881,2.7752,-8.5180,42.0132,-86.2841,-270.9429
26.8310,-19.9115,11.1274,-12.0856,-95.6352,-73.9051,-40.0380,-72.8672,97.1738,6.8179,12.2953,-14.0113,36.2076,66.1145,39.8332,32.5516,-0.9184,-56.9175,-97.8286
16.6052,-13.3713,-31.5512,-11.5737,-60.4632,2.7920,27.9039,116.8605,171.3403,157.2851,13.1586,-9.5517,65.6428,57.3541,60.9183,72.5860,6.4463,26.8528,123.4337
5.5969,-35.1162,-27.2047,20.9976,-19.0914,73.2447,87.0353,263.1560,198.9014,252.9109,12.4533,-23.9454,55.9715,-11.5343,55.0077,69.5113,25.1583,46.2413,318.8453
4.8984,-87.9776,-13.2839,-32.9207,23.1335,44.7385,107.1704,265.4167,151.3273,194.5952,12.1682,-67.2716,30.1046,-70.6348,31.4689,25.9410,24.3567,-27.5074,377.7233
19.2401,-92.5309,-7.6357,-97.9597,78.7398,5.1997,101.0514,167.8643,52.2479,74.7715,23.3555,-70.0537,33.6944,-47.3085,12.6815,-0.7992,32.3866,-62.3326,312.0990
28.8104,-62.6020,-12.2426,-69.9007,113.2964,19.5301,75.8296,41.1963,-57.7019,-35.6870,37.7268,-32.8635,58.5225,-4.0772,-0.4398,-13.8604,45.8872,-57.7987,190.8333
25.8385,-67.8023,-28.1227,-32.1858,94.7742,9.3291,35.7560,-108.3266,-159.2334,-173.6269,40.8772,-22.3323,67.5687,-4.3232,-17.1786,-51.0762,32.3894,-106.5335,45.7831
23.3864,-72.3162,-31.3419,-43.0012,61.1175,-32.8714,5.0908,-248.0364,-214.6159,-281.9988,31.1316,-27.6414,41.9876,-7.1818,-33.2380,-85.4689,8.8304,-142.4119,-84.9874
14.7320,-17.5777,-25.0262,-18.3896,23.8431,-24.0773,-36.7774,-306.1810,-185.3924,-255.6179,5.7118,0.9637,-15.3527,17.9395,-40.3047,-71.6979,-7.2897,-92.0093,-163.0306
-14.9743,32.1674,-65.1202,27.5543,-64.3563,-1.1215,-120.0832,-267.3463,-97.3479,-124.5833,-35.8343,25.8670,-70.3417,34.7958,-36.4996,-25.9976,-54.1588,-57.9909,-193.1267
-50.8416,0.1760,-154.5563,-13.6438,-174.0417,-56.2394,-183.2303,-183.9297,-11.5057,20.1207,-75.5783,-12.6712,-80.5292,6.5070,-24.7030,2.8258,-141.3451,-101.1011,-188.8363
-69.8746,-62.3376,-213.7535,-100.6315,-211.4692,-140.5747,-166.2807,-104.1635,58.2783,139.4234,-94.8883,-79.5644,-55.2363,-61.2375,-9.8328,-2.6205,-203.4507,-123.6495,-143.4832
-65.4565,-77.5722,-196.2944,-127.6074,-164.1312,-154.5283,-101.9563,-41.3248,140.0805,207.3504,-91.1701,-108.6220,-37.4869,-114.3004,8.4047,-16.3565,-190.1843,-72.8801,-47.9881
-39.2991,-57.2393,-128.5582,-111.5050,-76.6347,-99.2692,-12.1520,10.5202,227.4856,213.9078,-67.4577,-97.7664,-30.6185,-107.6526,32.1770,-12.4819,-122.2029,9.7014,87.5714
-5.8830,-27.5072,-42.3725,-72.0987,34.3475,-7.5600,105.6344,82.2968,276.1412,209.0358,-28.5086,-62.6155,-3.2116,-64.5012,55.7206,9.4454,-38.8431,114.2727,225.0043
19.9524,15.4344,49.2594,21.5368,151.7499,113.8105,205.2113,203.8169,277.4888,236.6825,17.7647,-0.7640,49.8841,-8.8211,73.8483,51.8646,45.2482,224.5338,333.3035
46.8064,31.3153,126.8202,96.3725,249.0260,210.0903,266.2953,309.8570,251.8126,253.5982,61.2243,49.1997,93.1762,64.9556,82.3950,103.4674,114.4685,256.8268,400.3637
72.4424,-6.9064,159.7890,70.2916,305.8739,209.5430,303.7093,285.2296,184.9867,196.2107,82.5777,43.6149,90.8501,108.3620,67.1944,110.7843,141.4670,194.7451,378.0864
65.6608,-5.5224,142.6256,54.7442,292.8420,157.1456,269.3299,168.1188,76.4271,104.6674,68.7553,38.3682,48.3992,78.9987,27.8842,64.9163,134.1454,162.3587,236.3133
30.7079,96.6647,124.1858,163.8066,233.0476,169.6965,162.9773,110.6036,-7.7524,73.7090,42.2701,101.3448,5.7285,46.0148,-5.0772,39.5760,135.2503,236.4436,73.7408
18.8318,173.9296,150.2291,275.1210,220.4885,242.3876,113.6355,107.8672,-25.7555,92.4558,36.9179,164.1992,-7.9516,62.4691,-11.3315,55.4727,150.2778,305.1353,-2.2392
44.8063,123.9634,189.6159,245.5598,260.1325,249.8788,152.3302,37.4315,-7.1836,80.4725,49.8412,135.4223,5.1969,70.9327,-2.3499,49.6185,149.1851,251.2820,-33.3315
67.3468,48.1269,191.9504,156.2988,254.7015,166.5362,163.9168,-68.1942,28.8899,49.8161,55.0019,63.0344,25.8637,25.0383,9.4816,6.0673,137.0900,158.2899,-77.8172
60.0550,39.1104,174.9958,129.1907,213.3313,115.9216,144.1313,-81.3014,76.9702,58.4739,46.5034,24.2504,40.4649,-66.3243,20.4908,-43.3715,134.0962,156.2617,-87.0896
45.6224,32.4029,177.9573,122.2849,226.5491,147.4114,177.8035,-17.5935,105.8625,76.5098,43.6775,1.8377,63.0987,-157.3619,30.8465,-82.8514,127.0518,193.1472,-31.7511
56.2105,-6.6799,192.3558,73.9091,262.6652,160.1907,227.2658,26.9210,129.2750,58.2274,63.9393,-14.8537,116.4043,-128.6240,56.7714,-67.8140,112.1858,172.6162,51.2636
79.2865,-12.0162,186.1456,40.3389,245.4626,117.8558,229.3310,52.3725,198.8388,43.7904,91.0783,10.6317,172.7540,48.4405,102.5266,26.8956,101.8161,156.2807,149.3043
67.1361,16.0365,140.4554,62.2815,209.1577,110.7438,220.0003,111.1908,265.5523,74.5517,85.1869,49.0411,173.6324,158.4311,125.6793,101.8556,73.9859,201.8985,238.5821
15.7138,4.7749,67.5954,73.2290,185.2603,140.5451,201.8567,183.1453,216.2427,99.3598,45.1768,32.9379,122.6568,57.8818,92.0954,66.9944,17.6625,197.9473,248.5430
-23.2727,-42.6063,12.0526,28.3709,125.1673,94.5657,120.8865,178.9689,55.7871,43.8062,13.4788,-17.2333,71.4349,-78.3789,29.7266,-12.2227,-26.9920,67.7135,163.7188
-31.6330,-59.4406,-6.8177,-19.9100,24.8541,-21.9364,0.9233,67.0621,-102.2585,-57.7974,-0.6686,-38.3937,25.6292,-99.7397,-22.7609,-53.4556,-45.0566,-71.5528,43.3691
-40.5281,-31.5457,-20.8342,-21.5283,-66.0688,-84.2803,-94.9422,-50.9695,-188.2731,-86.6374,-23.7702,-30.7426,-30.7090,-101.8429,-60.3403,-71.8928,-60.6604,-113.2803,-67.1814
-54.6984,-2.7752,-48.4061,3.9192,-146.1559,-82.1482,-165.7262,-89.0926,-214.8867,-39.6577,-47.8736,-24.1882,-65.6863,-135.9666,-80.0251,-82.9026,-72.3462,-119.6762,-161.4616
-51.9250,-0.7646,-75.5035,12.6640,-221.5170,-107.3430,-221.9035,-121.4602,-215.0440,-54.8477,-48.0108,-19.4691,-56.2934,-106.2777,-73.7922,-69.4060,-74.5803,-164.0204,-250.4169
-32.5163,-5.6020,-91.0319,-8.6943,-245.7699,-152.1666,-237.0721,-214.9411,-204.2690,-160.3195,-34.7992,-9.3851,-41.9683,-13.4679,-56.3574,-48.0802,-71.1292,-199.6048,-322.6050
-7.2602,7.8768,-72.5567,-28.4156,-194.0370,-142.9047,-193.6839,-275.7778,-185.4101,-228.8521,-19.6782,0.5352,-44.0072,28.5189,-46.9765,-50.3741,-31.3117,-167.7491,-311.0693
15.5974,22.4387,-9.9643,-12.0634,-107.0039,-94.4992,-113.6697,-229.5217,-151.5656,-204.1245,4.3804,1.7001,-25.6925,-10.4532,-37.9676,-70.2016,40.1725,-96.5294,-184.9313
18.9978,10.9705,31.1787,13.5692,-35.7191,-59.4684,-42.7279,-132.4753,-76.2076,-116.6238,18.9749,-7.9756,14.3924,-49.1978,-14.8652,-66.7300,56.4424,-39.0073,-29.6458
3.4294,-8.6217,-7.1188,0.9570,-6.7729,-27.6481,-8.8418,-24.0655,33.8730,6.3205,3.9989,-13.7121,19.2203,-15.4672,11.2715,-10.1488,3.6055,-9.0860,72.2391
-6.4467,-0.2729,-63.6657,-22.8338,-16.8652,18.9563,0.7791,91.5289,79.9933,71.0678,-11.4126,6.8235,-16.8469,67.5638,16.2844,61.3405,-16.6572,5.0579,123.8611
-3.5137,40.8692,-54.7210,1.5285,-27.1466,65.8567,1.3598,165.2952,5.3330,29.7253,1.3842,52.6446,-28.5529,120.3899,0.9240,87.5609,27.0953,28.3409,132.0824
1.8873,85.7074,0.3036,57.7248,-8.7693,106.5617,-8.1141,192.0959,-72.5015,34.2381,20.0166,93.9700,-3.3254,128.0399,-10.2885,91.8646,64.4019,68.5185,106.5882
2.7109,86.2719,26.4575,80.0019,0.3038,118.5930,-18.2920,216.8756,-60.2390,130.4672,15.7752,97.0030,-8.5958,128.6367,-14.2699,113.6111,57.3878,68.1966,91.7785
-13.1486,25.4373,-16.9499,44.6873,-50.3050,55.1239,-27.2069,190.1656,-48.7109,100.9640,-8.2151,52.6682,-60.3057,102.6486,-28.6924,98.5945,10.7103,-16.5762,78.3954
-41.4973,-38.3980,-98.1889,-18.4860,-123.0009,-56.7272,-47.3349,55.4490,-72.6207,-79.8256,-34.3512,-9.1687,-88.2350,25.1283,-39.4087,16.0353,-57.2472,-100.7634,24.0249
-49.7533,-48.8143,-136.3714,-69.4644,-141.4527,-121.9819,-61.8646,-82.4194,-12.9339,-151.1209,-49.7655,-50.5595,-71.0542,-45.8288,-18.8645,-50.3102,-96.5684,-90.2206,-30.8128
-34.4940,-38.4100,-114.0704,-98.9919,-122.5524,-124.3865,-59.2831,-108.9727,119.0548,-58.9277,-57.3602,-70.9405,-71.1337,-64.7494,9.6049,-49.1391,-92.4178,-54.2494,-46.8708
-24.0453,-51.9437,-103.4043,-128.7986,-135.1496,-134.0309,-77.5063,-75.1132,172.1905,21.7404,-65.1050,-88.7993,-100.0701,-58.1164,10.1953,-26.6574,-85.7958,-93.3614,-69.9808
-12.8859,-68.0499,-119.4462,-159.6495,-160.6444,-175.6008,-115.6639,-66.1384,141.5443,42.6587,-58.7627,-100.2009,-90.6189,-42.5581,3.0077,-14.9620,-70.6004,-156.5279,-105.8271
8.8890,-66.5800,-103.5135,-165.0443,-144.7221,-208.7625,-117.9219,-69.3843,111.5575,34.6767,-30.5976,-95.6654,-33.0090,-21.9781,11.8572,-11.0934,-30.1503,-164.2856,-117.4648
7.8412,-61.6874,-75.3146,-145.4556,-127.2485,-201.7856,-103.3380,-46.2614,58.1349,1.7726,-17.1743,-80.1727,-8.2878,-15.6423,8.1010,-11.9621,-24.5812,-151.7603,-142.5517
-16.7064,-50.7669,-94.6162,-122.4292,-157.6717,-157.3485,-128.9082,-10.4402,-31.6716,3.0780,-37.0802,-56.1994,-57.2888,-2.1736,-26.1693,3.9703,-57.2863,-167.0784,-186.8298
-9.2814,-32.5011,-114.2570,-105.7737,-171.7500,-110.4084,-142.4698,-8.6282,-79.2488,27.3301,-43.5692,-30.7847,-114.4630,48.3197,-54.1637,34.9442,-29.2010,-184.3843,-153.3523
30.9255,-27.6920,-67.9637,-108.9307,-105.7106,-93.9579,-78.8672,-51.7071,-62.0701,-30.0155,-10.0375,-22.0270,-97.0856,91.6292,-41.7942,34.7984,45.1907,-161.6363,-44.9637
40.9290,-23.7935,-5.9014,-126.7777,-28.1283,-83.8565,-10.8483,-77.8397,-19.3026,-102.6165,17.6693,-22.5401,-12.9201,86.8420,0.1029,10.7448,37.1532,-88.6129,8.8347
6.8606,7.6146,-6.8076,-119.1687,-34.9444,-48.9228,-28.8895,-40.5571,26.7368,-66.4296,4.5973,-6.6701,45.6708,71.8659,33.7020,16.9701,-47.9574,-9.2490,-22.6767
-25.0704,36.3671,-61.8080,-96.4320,-103.8438,-31.0548,-96.6029,-1.2160,25.1611,-31.4307,-22.4012,12.3118,24.4780,73.5684,28.7173,35.1701,-93.0102,-3.4448,-73.1433
-30.8303,19.3768,-106.7973,-119.2015,-147.2420,-74.3413,-140.8917,-39.1780,-54.4877,-101.2081,-31.8425,-0.9114,-12.6176,58.0752,-2.0590,11.5384,-88.8714,-78.4446,-133.4343
-31.9317,-21.6101,-110.5438,-171.8683,-154.6050,-145.4315,-166.8868,-125.2808,-124.4030,-149.5825,-32.8957,-40.2292,5.4461,6.8294,-16.8168,-35.5112,-117.5187,-149.2181,-203.8957
-56.1611,-41.0177,-118.7426,-194.1714,-189.7539,-193.3016,-211.5624,-161.0799,-106.7981,-92.9916,-54.1338,-68.6650,25.0725,-41.4210,-10.8327,-51.1943,-199.1926,-168.0252,-227.1203
-95.7134,-30.0593,-186.9397,-201.4155,-254.5741,-189.9288,-258.3284,-97.9354,-54.0480,-6.3103,-97.0559,-67.0750,-27.3682,-35.3153,-14.2761,-17.9117,-273.9085,-158.1892,-182.5121
-112.6594,-14.3583,-270.4991,-220.4312,-271.9836,-132.6698,-261.6693,-0.3986,-38.7505,36.9664,-121.0628,-49.1289,-84.4958,10.4439,-24.8307,27.4684,-284.8297,-146.4821,-135.4744
-102.8418,-25.9632,-284.3437,-229.1372,-237.7784,-99.1628,-242.2881,15.7393,-71.1680,-12.6517,-103.0145,-47.8700,-47.8574,14.7696,-19.1510,20.8585,-261.7127,-162.6138,-158.6932
-106.3605,-47.7374,-250.7002,-231.7913,-242.2175,-161.7990,-273.8313,-45.5318,-130.1500,-109.9614,-83.6945,-63.2313,28.0295,-23.1754,-9.1230,-22.9396,-286.1752,-205.4765,-240.3228
-126.6828,-12.5090,-247.3214,-224.5334,-297.9707,-209.1705,-344.8873,-43.9048,-172.2965,-76.9959,-95.1811,-36.8851,35.1688,13.9971,-15.5693,4.5130,-334.2074,-192.7340,-275.4466
-121.0210,73.4316,-262.6158,-153.7516,-313.3658,-103.5091,-350.1575,61.2358,-169.8138,93.4444,-101.1977,45.4052,-6.4625,135.4434,-26.6281,109.3888,-294.7346,-94.0546,-202.7331
-87.9593,104.8259,-231.4922,-61.6939,-254.3706,38.8341,-261.7610,135.0081,-145.3231,177.8238,-76.3271,91.0307,-16.4163,179.7155,-25.4352,152.7115,-193.6779,-18.3936,-112.0121
-71.4336,54.5660,-155.4099,-68.9899,-180.4096,38.7354,-177.8913,106.2276,-115.7470,126.2128,-57.8260,49.6969,3.7390,103.9050,-15.4059,97.8747,-174.4910,-26.3688,-101.2900
-77.9356,21.1890,-102.1708,-144.7704,-143.9115,-33.3384,-168.9942,62.9871,-81.4991,91.4159,-67.4540,8.1269,-1.1618,68.3293,-8.5178,67.1200,-231.8911,-47.2535,-124.3792
-71.3012,41.4646,-107.9108,-167.4100,-153.2309,-36.8278,-189.9409,68.7165,-59.7359,103.8220,-75.7595,25.0168,-47.7808,139.2634,-13.4803,107.2675,-225.9804,-52.7554,-103.8796
-39.9184,44.5895,-116.5200,-146.2839,-176.7521,-6.2254,-167.2521,90.3005,-39.3981,113.8869,-62.8273,36.9145,-89.4790,189.8262,-20.4515,136.7254,-141.0426,-74.4408,-54.2594
-9.1344,12.7332,-61.2588,-134.4143,-157.6959,-0.0431,-100.0297,101.2171,0.0580,125.1026,-35.1601,11.2509,-60.6740,149.7552,-6.4795,114.9234,-78.5524,-80.8102,-8.3636
4.3651,-4.4843,12.3782,-113.7645,-90.3311,7.6734,-46.7995,104.5555,15.6609,104.7332,-2.4360,-1.2686,24.5211,101.1461,20.5841,82.2094,-60.6690,-53.3055,30.2867
6.6291,-7.9689,11.9722,-103.2669,-44.2063,-2.4119,-41.7618,92.7237,-5.4199,59.9199,12.1552,0.9852,62.9712,94.2456,26.2177,67.8658,-50.1391,-51.3815,38.8740
-2.6975,-19.3647,-48.0819,-130.6417,-63.9606,-60.2093,-65.6734,66.0352,9.6681,99.8542,-12.0308,-22.0329,20.9153,67.5912,10.6988,58.8789,-63.1003,-68.2145,1.4786
-29.7284,-6.7484,-88.2102,-123.8971,-111.7146,-88.7960,-92.5350,52.4141,64.7923,206.6137,-49.7516,-40.1042,-12.5805,-4.4811,5.8535,41.2791,-107.8975,-24.0658,-41.3206
-51.8538,44.4693,-87.8311,-47.2759,-129.8322,-31.3663,-105.9817,78.5292,92.8983,246.2366,-57.9869,-7.8283,7.7275,-34.3878,19.0734,38.4903,-122.1610,64.5733,-42.9497
-38.6178,85.8830,-64.8653,25.0594,-104.7483,46.7100,-81.0809,132.6844,104.1987,225.5267,-34.4541,43.3581,27.5618,27.5350,33.6429,73.6787,-67.2478,118.1918,-6.8582
-5.9042,92.5405,-26.8964,74.5219,-62.6803,95.2088,-16.0432,164.1226,108.7039,197.7622,-3.7561,71.4646,25.2057,86.3323,36.6995,100.9368,17.4661,137.5839,33.8209
14.1434,91.0343,18.7675,139.7101,-20.0785,131.8885,46.7674,136.8296,56.2070,113.3875,24.4352,83.0413,33.7310,58.4177,26.0219,65.1042,91.9556,155.3115,49.9347
27.6400,94.7240,74.3424,190.8752,34.1805,138.4625,70.3845,72.3168,-4.6085,-2.3859,50.3701,87.7544,57.8201,6.4055,17.6876,6.6657,147.4003,160.3022,24.3594
41.5040,100.0808,128.6137,205.7963,78.8557,86.1465,49.5834,11.9343,2.7857,-47.3273,64.7798,87.6445,75.1805,3.4540,22.9277,-10.6956,170.0310,150.0242,-39.0682
38.4724,103.8229,132.6573,215.5063,58.3663,20.4062,1.1514,-36.1746,-11.9587,-65.5723,60.0241,88.4182,63.8590,10.7109,14.3250,-13.2710,162.6238,122.8457,-101.5857
33.9671,74.1983,94.3155,184.8080,-4.8098,-19.3021,-29.9652,-91.8512,-102.1585,-154.0167,51.8571,64.5280,24.9989,-19.8487,-18.6525,-50.9128,164.0329,35.4314,-110.8437
63.7321,-1.6193,95.7239,71.2967,-15.9364,-67.5943,-8.3560,-160.0391,-120.0218,-243.9933,66.0953,-5.5026,26.0706,-62.0009,-22.2217,-102.8304,188.3299,-86.5827,-63.4997
101.8259,-42.5941,131.5486,-20.7476,34.7135,-118.1824,36.5066,-191.7870,-22.5864,-200.1390,93.0779,-55.7234,107.3848,-72.1123,22.8961,-112.5972,203.1318,-96.5611,-22.4112
93.0381,20.7933,114.4164,33.0423,63.5169,-78.4825,52.3691,-124.4095,27.1961,-25.5111,90.2328,-7.7182,157.8478,-33.2815,45.8603,-55.4555,190.2259,50.3538,-37.6274
46.7477,109.4783,61.5016,171.6358,36.8667,54.1964,25.7712,1.9587,-13.4771,124.1916,51.5401,86.2118,86.4241,28.8659,14.2584,27.7847,157.5663,169.1860,-79.9062
13.6133,109.9501,50.6773,222.4717,-9.7476,121.7942,-27.3816,60.4687,-35.9668,116.2493,22.2040,107.5912,8.4531,49.4808,-10.2431,56.5142,108.1966,113.3226,-88.5864
13.2724,45.8845,57.0035,125.2295,-41.8474,40.7975,-59.8904,21.7646,-23.5436,19.0629,25.7392,48.1577,34.3235,18.3035,4.0447,19.2021,64.3167,-2.7810,-51.7410
33.0856,1.7172,31.5656,1.4790,-33.0332,-50.0104,-17.9217,-15.1070,-10.3115,-11.0275,38.4486,-1.6327,76.8249,13.1850,19.9653,-2.3620,63.1739,-24.7481,-5.7526
48.9009,-19.1275,5.1230,-23.3220,14.7412,-26.3307,58.2212,-5.2219,25.7533,16.0137,38.5879,-6.0524,50.4336,56.2764,20.9023,24.3928,80.4057,-4.1336,20.7000
40.3860,-53.0267,-4.5455,-10.8060,50.2896,19.4414,73.0229,-2.1753,66.3177,0.9042,24.9658,-14.8912,8.5184,68.8269,19.6782,36.6140,49.1382,-46.2357,33.7572
17.7439,-93.2926,-24.0279,-83.0066,49.6657,-22.3159,41.8977,-17.7922,63.3562,-30.7049,4.3788,-54.5615,-2.6731,32.8089,15.7000,12.9699,-25.5854,-110.3648,47.6325
5.2234,-109.3987,-42.9680,-177.5207,48.3936,-76.1931,41.1603,-3.7074,44.2417,-14.6872,-8.6797,-81.0796,1.9559,19.9377,12.0861,6.2952,-77.2390,-114.6554,57.3954
-4.2921,-86.0338,-41.3463,-157.8046,53.1053,-40.7792,45.2630,40.5452,38.8804,24.8693,-11.8604,-58.8903,9.3354,34.6752,14.0583,26.4678,-90.2524,-70.7475,52.3906
-26.3729,-37.3909,-42.8783,-63.4885,34.2870,38.1361,12.1107,64.8301,23.6275,50.6075,-23.6358,-17.6911,-4.4624,18.8355,6.5175,30.8240,-95.2426,-21.9086,32.5355
-39.8482,-5.0540,-56.6291,-18.3715,13.8373,73.6745,0.6429,49.3950,15.7785,45.5045,-38.7182,0.5923,-39.6648,-6.6944,-5.8177,16.7761,-91.2182,17.3607,5.7041
-26.2186,-11.7839,-54.3539,-29.8120,33.8517,58.3252,36.2852,17.0030,55.8895,7.8553,-31.5491,-3.7579,-39.1362,13.8228,6.6833,16.1214,-73.9939,32.0653,-8.7326
-15.5774,-31.0971,-37.7188,-44.4203,65.1935,23.5779,42.9263,-6.9881,103.3067,-0.8661,-20.3360,-13.9396,-7.6008,41.3567,28.2304,26.8830,-82.8982,17.3373,6.4202
-35.5190,-38.3397,-45.0225,-54.3992,59.2468,-3.3074,4.7996,-11.0797,95.3955,55.7581,-38.7073,-26.5153,-14.1332,13.7314,19.1561,24.0072,-134.5250,1.8605,30.0484
-60.7703,-45.1144,-85.0786,-73.6316,36.0294,-6.4236,-9.7869,-0.6586,50.0197,91.3461,-60.9196,-38.8014,-27.9323,-31.7889,0.4346,8.2145,-181.0198,1.6421,22.2372
-61.3824,-56.0091,-119.4720,-102.0894,31.5310,-1.2731,2.5401,2.3120,16.4836,45.0483,-51.5630,-42.5317,15.5229,-29.5992,9.3390,-0.2306,-188.8077,-2.4705,-11.1196
-52.6584,-50.7273,-121.8081,-110.1177,29.3548,0.0049,-0.9097,-8.1661,-0.5927,-10.8838,-35.5724,-31.4359,51.1661,4.8674,21.5218,5.4578,-178.2725,-8.0603,-23.1701
-56.8281,-24.3895,-116.9879,-62.4150,13.1359,29.1614,-1.3508,-1.0553,-15.2375,-11.7092,-39.5824,-5.9626,19.9023,18.5606,9.5531,14.7056,-161.6484,18.7545,6.3950
-61.2635,-3.7342,-123.2112,-0.0268,4.1638,85.6956,21.0742,31.2951,-19.1014,10.8469,-43.5022,13.9297,-9.6297,2.0058,-2.0711,14.9849,-131.2309,58.1546,41.7599
-49.6446,-13.6536,-104.9264,-1.4184,0.8704,89.1546,21.4816,34.2644,-12.1436,3.3046,-35.0440,3.8266,-6.3136,-13.5012,-0.2068,5.1446,-105.2754,32.2307,27.6227
-33.5487,-38.0523,-50.6179,-42.4506,-23.0227,8.5970,-18.2645,-16.6514,-29.4387,-42.5794,-28.9787,-19.7063,-23.6122,-7.0285,-9.2968,-5.7063,-97.8732,-52.8500,-38.9281
-26.0032,-36.7839,-15.2160,-45.9196,-46.8017,-64.1834,-46.6323,-69.1187,-82.0923,-90.8972,-27.1813,-23.9945,-55.3867,-13.2205,-33.2291,-25.1088,-74.8343,-88.6905,-92.3926
-16.8639,-16.1640,-13.4823,-24.5624,-37.3423,-69.9266,-37.0856,-106.0144,-121.3421,-130.1333,-20.4896,-25.9196,-66.9273,-78.5945,-51.0352,-76.5771,-10.6510,-62.6630,-95.5339
4.7840,-24.9255,9.9095,-23.5053,-24.5611,-74.3297,-19.6853,-162.8502,-120.4384,-192.5402,-7.6284,-49.8108,-76.1717,-146.1922,-56.8062,-134.2604,55.8776,-82.3282,-90.1873
23.9391,-53.2379,54.7840,-26.8759,-40.9570,-113.6429,-17.1731,-200.8759,-112.3169,-236.9894,6.8322,-59.0613,-77.7793,-107.8614,-52.3692,-124.4364,67.5825,-140.4469,-97.4463
17.0484,-37.4572,55.4101,-19.5781,-60.2280,-112.2281,-29.0381,-150.9711,-103.8514,-170.1439,7.9009,-24.6813,-50.7350,-4.1648,-37.0883,-49.2975,20.8448,-115.8971,-74.7352
-7.7428,12.7565,13.6020,-16.3340,-60.7280,-42.6336,-45.7783,-60.0693,-70.5526,-47.8603,-11.4236,8.7519,-38.6045,24.6685,-24.4521,-2.0022,-25.1159,-29.4935,-17.4180
-16.6140,28.0510,-2.1892,-14.1157,-51.4326,7.8627,-42.2716,-8.9375,-40.8174,-13.8396,-22.7402,7.7477,-59.9798,-13.7547,-25.6385,-10.9275,-17.1314,-2.9983,21.9095
-4.0240,12.0121,18.0575,-12.8536,-30.2313,-1.2952,-11.1088,13.5525,-54.1237,-61.0458,-6.2969,4.9244,-56.4895,-6.2235,-27.0671,-14.1485,17.7266,-19.9988,28.0255
1.4122,9.9225,18.7949,-30.1715,-2.1305,-17.3101,10.5808,19.7621,-81.1917,-97.4938,7.4362,14.7795,-27.7006,34.9044,-21.6456,-0.7661,18.1029,-9.5935,32.9855
-6.5202,-1.5728,-18.7514,-60.4766,17.9405,-33.0902,5.1547,-18.3531,-86.7993,-106.7476,-3.5186,1.2703,-34.1855,24.7742,-26.3739,-12.5190,-8.5429,-18.7033,59.0415
-8.1319,-49.7168,-49.9390,-93.5050,44.2535,-85.0146,3.8856,-59.0597,-83.4646,-91.0297,-15.0453,-40.6249,-58.6072,-16.3144,-41.3741,-35.4183,-22.8346,-77.9508,102.0422
-6.4411,-79.5030,-44.0208,-132.9792,69.7090,-133.6347,11.6202,-37.9721,-81.0603,-63.1391,-12.1819,-64.4461,-43.6146,-24.9609,-40.7352,-34.3925,-36.4445,-104.1633,126.1110
-11.5283,-50.3092,-29.1656,-147.4274,49.5168,-121.3246,1.2219,-6.8957,-75.7499,-85.7364,-5.0822,-48.1168,-1.0445,-11.5002,-19.7941,-29.5970,-50.1353,-64.4752,95.4800
-8.8629,-16.4823,-37.2289,-104.5140,9.3821,-88.4921,-14.0984,-48.1817,-70.4221,-141.9975,3.7345,-27.1875,28.9203,-18.8739,-3.8794,-47.5347,-26.9166,-30.5215,40.7201
-1.9808,-33.9668,-59.1023,-58.4299,10.7995,-97.8013,-9.0688,-122.6281,-58.2843,-137.9388,3.8985,-40.5597,26.5983,-57.4858,-7.8511,-73.2397,-4.8650,-44.2279,21.2003
-21.2082,-78.8576,-83.4633,-78.7603,11.9675,-133.5562,-4.8865,-135.7063,-43.4422,-92.9817,-23.1968,-74.4362,-17.5161,-90.3501,-23.6869,-79.0694,-62.1929,-81.9894,32.2609
-56.4245,-90.2675,-109.9275,-125.9839,-41.4048,-156.5219,-26.2666,-81.2458,-54.9379,-79.3287,-57.9855,-79.0827,-75.2558,-65.7694,-39.5293,-51.8739,-148.6027,-101.9925,30.1441
-67.4124,-36.5091,-114.3964,-108.4115,-90.9361,-156.1766,-64.4666,-30.2038,-84.4383,-66.0763,-65.7105,-35.6553,-100.2066,-7.9389,-49.3207,-12.9875,-147.7011,-62.6834,5.8853
-58.9575,46.4743,-88.5960,-23.8093,-89.8085,-124.1886,-93.2800,-16.1099,-94.5572,-39.7764,-55.9525,17.7109,-104.5624,-1.9548,-55.0425,-7.2028,-72.1950,21.3298,-14.2447
-57.1634,74.3040,-76.4749,39.1606,-68.5721,-62.5843,-72.9966,-2.7656,-92.6221,-62.5590,-50.1885,35.3197,-115.1793,-42.5628,-58.9942,-31.7801,-21.6769,65.3187,3.3963
-48.7426,20.3750,-82.7676,28.4966,-23.7509,-3.2761,0.6852,31.0216,-86.6807,-103.8145,-34.6260,17.2786,-90.7993,-39.1578,-47.1741,-31.9654,-21.7402,32.1551,58.7427
-18.4880,-39.8028,-49.3043,-12.4735,48.4299,19.5591,49.6940,49.9313,-50.6152,-77.4830,-0.1154,-3.1045,-2.6124,16.4865,-10.0485,3.1996,-30.7594,-21.3202,88.0765
9.7180,-50.0948,12.9631,-40.0738,79.9569,-13.3297,22.6999,21.7565,-18.1273,-32.9122,26.9704,-13.7935,76.6010,41.4221,20.2185,17.7516,-25.2286,-53.6093,45.9981
15.1632,-42.6560,29.7521,-68.2492,55.6706,-87.1445,-14.9905,-50.5472,-53.2976,-67.3626,25.3121,-31.7887,67.8032,-5.3791,5.7558,-25.6260,-8.4227,-72.2971,-14.7325
9.5594,-29.2214,17.2342,-69.5655,47.3673,-119.9129,-4.0721,-122.2929,-112.7363,-125.4698,9.0494,-42.2114,0.4095,-76.1009,-33.1160,-85.5833,20.7154,-50.9877,-33.9310
9.4790,27.1442,45.5019,29.6381,72.5891,-37.7367,30.1706,-96.8021,-121.3394,-79.0297,7.3801,3.8534,-37.5728,-84.5205,-49.3614,-79.6207,71.9245,46.3552,-25.0336
15.0829,87.9767,89.6409,172.8941,99.4859,93.1561,70.4489,45.7600,-102.3948,50.8182,26.1050,82.6458,-18.7644,-13.6358,-39.4845,-0.1023,123.8276,153.7330,-1.0942
15.4202,67.5280,85.7027,196.3175,125.3473,129.8769,113.2968,143.9366,-76.9630,115.7819,35.7994,92.2127,5.4624,28.5613,-26.8210,47.6867,118.3442,161.1692,52.6742
3.6078,-4.2569,48.9773,88.9214,133.2654,52.0364,115.8555,98.6221,-3.6054,91.2659,14.5248,17.8538,-5.4732,-26.5180,-14.8372,10.7979,48.4885,89.6026,111.2939
-13.8159,-30.1664,17.1456,-1.6837,104.7601,-29.3429,75.3104,65.7449,95.7612,117.5608,-16.8332,-35.5515,-28.0442,-72.6021,-0.0444,-10.9148,-19.6131,58.2416,136.1346
-30.7050,-15.2056,-18.5871,-23.8442,77.8606,-41.6666,52.1197,156.7257,148.3081,234.9454,-35.4243,-25.7587,-31.5719,-29.4813,10.6960,45.2970,-63.5384,87.7340,138.5561
-54.7053,-18.9755,-70.2311,-46.0337,63.3684,-11.8539,45.2598,243.4475,151.7571,317.9424,-54.6974,-17.5886,-31.1468,5.4924,12.9047,92.1801,-126.6144,97.3057,132.4992
-86.9802,-31.2846,-127.7616,-84.7150,12.6401,8.0692,-1.9710,252.5718,119.5027,308.5111,-83.4150,-31.3308,-49.1274,-21.9833,2.7777,81.9942,-200.2954,56.4558,95.0408
-102.0069,-29.8263,-166.0900,-105.9837,-62.1200,-15.9884,-73.1384,250.9238,29.5185,246.2589,-94.7710,-27.3518,-75.5174,-13.0235,-22.8286,78.2331,-218.0236,-13.3629,23.7496
-73.2607,-38.0242,-141.8053,-109.2692,-93.1233,-85.1537,-98.6440,198.1804,-67.3846,136.5307,-69.7284,-14.5933,-90.6263,57.2385,-46.5863,87.7977,-157.7597,-94.6960,-39.4033
-19.4674,-53.3708,-54.6495,-99.4758,-72.7963,-142.0413,-64.2490,47.9309,-69.4957,21.8757,-32.0245,-23.1891,-86.5013,85.0259,-43.4195,59.7441,-71.3481,-131.9476,-61.9952
2.7139,-50.4546,2.9740,-80.3539,-48.7762,-131.8058,-21.0285,-59.5062,10.3034,-12.3465,-19.1933,-37.6620,-63.9104,44.4533,-16.4211,17.5185,-44.9812,-89.0367,-55.7916
-21.6294,-48.1362,-35.7737,-83.1510,-63.8486,-93.8960,-22.0247,-56.9369,71.6815,-10.2980,-34.3195,-45.4574,-34.2332,9.1589,10.8038,3.5734,-103.2696,-51.9609,-49.6809
-35.2633,-59.6328,-98.7570,-105.9203,-118.6341,-88.9199,-57.8038,-71.9751,79.5043,-51.0930,-42.6230,-55.0305,-15.1900,10.1312,23.6048,-0.9840,-140.4767,-87.4937,-48.6227
-7.8943,-54.6547,-91.0182,-102.2394,-149.6450,-90.5134,-71.8213,-120.5985,57.7429,-74.2405,-26.7047,-52.7405,-17.1836,27.1321,18.4316,-4.9637,-81.7843,-122.0809,-46.1360
9.9255,-41.6655,-42.4726,-87.3013,-121.9891,-76.9021,-61.6760,-110.6224,19.5804,-52.1384,-15.8820,-38.6088,-36.5717,42.1226,0.9600,4.3064,-36.8804,-120.9432,-60.0297
-9.7781,-60.4271,-40.3162,-118.4749,-109.0743,-100.4849,-76.5020,-100.4915,-12.9002,-64.6989,-31.2848,-47.7778,-55.9541,41.8367,-12.1142,6.0322,-93.8301,-149.8705,-99.8083
-24.1904,-80.4329,-89.0704,-160.2281,-151.6217,-146.7707,-104.7165,-152.9966,-13.4606,-89.2961,-49.3530,-69.8056,-64.5798,32.6192,-13.4439,-6.5162,-143.7155,-182.7859,-129.1037
-12.9299,-51.7946,-110.0187,-134.7499,-171.1327,-130.3873,-99.2517,-173.0453,0.7324,-64.3008,-47.8896,-56.6743,-74.2729,31.8404,-14.4342,-7.5199,-98.4127,-142.9618,-125.7469
3.5885,-10.8538,-48.7330,-76.6561,-133.5794,-93.1041,-77.9415,-136.0581,10.4315,-55.7880,-30.9075,-28.7600,-81.7094,24.9767,-16.2762,-9.1175,-24.7154,-88.4971,-116.1282
27.3712,-6.0604,46.8488,-67.4053,-99.1302,-128.9126,-68.8462,-122.6972,45.4301,-70.3826,-4.0558,-36.9197,-53.6223,-1.9289,-2.2980,-29.0267,30.9749,-85.7533,-100.3586
54.9946,-11.1381,80.0513,-77.6869,-80.1319,-152.3945,-43.8323,-97.5828,109.7803,-4.3396,20.5671,-53.1384,0.5695,-16.3873,24.0490,-28.1386,80.3521,-68.6678,-44.7186
56.4959,0.2098,44.1881,-33.6481,-46.9954,-54.8181,14.7135,-4.6957,140.6696,99.8248,25.6473,-30.1425,21.1616,2.5142,35.1081,10.3825,100.6673,-1.4995,35.7149
44.9760,7.9824,31.2331,41.7925,-8.9507,63.9015,81.3405,72.8487,119.2939,121.5866,25.7793,5.2503,8.0651,21.8013,27.7638,36.9691,104.6628,53.2539,88.6260
56.4603,10.9502,80.2257,88.0241,30.8082,94.4190,121.8742,76.5707,93.4022,90.7434,44.0114,18.8475,16.4938,15.4838,23.7888,27.2938,143.2399,72.9155,87.8846
66.8685,27.4113,128.2813,108.3196,72.2583,93.3905,102.6858,48.1114,46.4575,56.6480,59.1434,28.8701,34.4399,-2.5514,16.0901,5.5073,174.9247,68.7757,33.6880
45.9251,38.7799,124.1593,113.0514,70.9266,92.7852,34.0852,0.8374,-67.2158,-7.2220,46.9735,39.8078,16.6483,-21.6343,-15.8203,-19.2083,140.8235,25.1471,-35.2459
24.0339,21.6414,77.4526,79.2015,24.3854,46.0393,-11.2621,-52.0135,-161.9102,-66.7665,30.0528,24.7218,-1.4155,-47.0857,-43.9041,-48.0372,95.1090,-29.8479,-46.3393
24.6956,-0.4459,21.5445,31.3773,9.2279,-0.2718,1.4266,-58.0317,-127.2064,-81.9454,31.3256,-3.4022,25.6186,-65.6042,-28.3549,-63.6452,92.4670,-35.0949,8.3459
31.0063,3.1260,5.7737,36.2191,55.2514,31.3757,37.7947,-31.2728,-30.7714,-86.9097,40.6290,-0.2651,57.7230,-47.3534,7.3799,-51.5264,103.3043,7.9980,57.9385
36.4021,23.1053,49.4523,88.3929,114.4641,98.0716,80.2352,-15.9409,11.4093,-65.2015,47.0739,32.0668,56.1319,1.5950,20.2854,-18.0408,106.2952,65.3101,78.2106
36.3301,32.3457,87.5816,120.9627,148.2971,128.0163,116.6589,6.2679,21.0300,-5.4913,45.7214,50.1834,43.0638,25.9838,17.3110,8.4791,98.7969,110.1863,100.1557
13.2705,22.0698,65.6346,116.8689,142.1577,108.7476,103.1247,22.9865,34.7459,-16.4410,29.0178,37.8221,28.3284,-6.2768,15.0221,-4.7347,60.1857,104.3449,104.8849
-20.0121,10.0482,27.9241,109.5328,102.2758,47.2753,44.7528,-11.4632,14.8700,-106.7858,6.3273,19.6888,5.1029,-55.7630,4.1101,-44.5201,8.1749,61.1081,59.9709
-35.3205,21.3043,14.8626,110.4045,71.2520,-2.8661,1.5087,-36.5261,-17.7651,-111.1519,-5.8077,19.9354,-2.9356,-74.5009,-8.1897,-57.0178,-14.6609,58.5622,12.0341
-34.1693,53.8125,4.3538,109.5898,74.2242,35.4320,-8.9295,24.8240,-0.2866,-6.9782,-7.8223,37.3301,11.7264,-61.9787,-1.9864,-27.9748,-6.3018,103.9573,17.9633
-19.3827,73.5571,9.0241,103.7912,90.9433,120.2242,1.1279,100.8504,31.6584,49.7711,1.5534,53.9620,21.7357,-30.5176,11.1999,4.8428,26.2799,119.7231,45.4184
8.8537,54.9917,54.2885,82.6819,103.5976,129.3202,20.8564,86.7299,18.1231,12.1294,22.9634,50.4314,28.7331,6.5444,13.8878,13.7228,60.6623,74.9916,27.2003
18.2097,11.8995,76.9231,32.0122,96.2313,50.8255,7.9606,-1.3263,-21.1040,-50.2039,29.5958,21.5497,43.9248,15.0100,10.3606,-3.0850,33.1049,1.1743,-30.3274
-3.5447,-18.9605,27.4158,-31.5686,51.3351,-22.8444,-41.7991,-78.9096,-67.5706,-100.2518,7.4456,-9.5280,33.4606,-5.0440,-3.1347,-29.0066,-39.9262,-62.6315,-58.3149
-11.7508,-17.7823,-16.7175,-65.8499,1.2681,-42.6477,-50.3401,-89.0785,-118.6337,-114.4356,-9.4578,-13.0681,-17.4503,-0.4319,-29.8971,-31.7983,-46.0039,-77.2640,-33.9158
7.7326,-5.0175,12.0133,-54.0886,-7.3255,-39.0173,-3.8289,-50.9149,-124.2626,-85.8251,-1.2109,-0.6748,-55.7963,23.5050,-43.9761,-14.1060,14.4723,-48.2799,-6.6267
11.3275,-10.9405,55.2139,-25.5453,3.7587,-55.6492,13.3401,-34.6214,-83.6196,-57.5730,4.7709,-8.4275,-46.6252,-4.8465,-35.4250,-21.4218,26.4946,-33.6971,-4.3270
-13.4481,-22.2892,42.7343,-13.6687,-8.9102,-79.2692,-19.7729,-37.6870,-90.6960,-41.5349,-7.0445,-25.1294,-25.0380,-68.0344,-35.3775,-48.8441,-20.0910,-43.7286,-5.6952
-40.5006,-7.1972,-13.6678,-20.8495,-42.4580,-56.4029,-57.5105,9.7162,-155.2798,-9.1928,-24.6735,-12.5222,-28.0070,-74.0127,-52.0164,-39.6896,-59.7566,-40.3451,-10.0984
-62.9271,15.4357,-74.1306,-41.7668,-78.5229,-6.1636,-91.6487,77.0920,-166.8823,28.6106,-45.1966,7.9318,-43.0073,-37.7770,-54.3832,-3.4857,-102.1067,-30.5499,-23.4023
-73.5211,9.9679,-107.8736,-76.9493,-92.2029,-4.7716,-101.5236,72.6263,-92.2039,51.8727,-60.8930,-8.0748,-39.3649,-42.7671,-33.2694,-0.1889,-145.0069,-23.4430,-11.8325
-52.7514,-0.0110,-87.6167,-99.1489,-45.7569,-28.7431,-42.0502,29.1002,-5.8842,59.3704,-50.4606,-30.6911,-18.6862,-62.8761,-8.4832,-19.2569,-119.7471,21.0857,21.6460
-16.9988,16.7896,-23.2048,-69.5990,45.0177,-0.7905,46.1245,23.9613,51.9593,28.1142,-22.9816,-11.9705,-18.6192,-28.5002,7.3514,-12.3632,-39.3039,90.0940,14.4733
-0.5316,29.3258,28.2211,-7.4867,105.5533,36.6568,81.4575,18.0677,82.8121,-34.5356,-11.3248,17.4518,-58.2712,21.7252,7.0214,5.7543,8.9233,104.8430,-30.0419
5.7121,16.0916,36.1832,30.3564,109.9206,15.4266,72.7278,-34.0921,77.2540,-67.5531,-13.3593,16.0473,-101.4330,26.2962,-9.7526,0.1581,30.4146,64.8231,-42.7166
28.9619,12.9917,43.0965,33.5068,107.1890,-4.3428,74.6067,-75.5977,54.8108,-67.7217,1.6950,8.4203,-94.8084,14.0872,-17.3302,-15.7224,85.2225,45.6065,-23.5666
59.2815,22.6893,84.9251,27.8477,127.8405,26.2720,91.5455,-68.7686,46.9988,-80.7193,36.8373,14.8014,-26.4209,22.5151,3.6209,-19.5782,140.2170,52.5178,-19.5087
67.2711,5.9111,114.3983,22.4978,140.3774,39.5095,92.7332,-55.6877,25.4753,-85.1599,60.4873,13.6903,51.3501,34.1883,24.0851,-13.5869,127.8695,31.0227,-21.8670
47.3264,-11.4113,81.6842,29.1373,112.6570,16.3488,61.6869,-51.6488,-33.5831,-40.3712,49.4021,11.6841,59.9675,34.6063,8.5986,-1.6349,77.6248,0.5688,-7.5995
20.2781,24.4412,32.5754,67.1820,70.6071,32.3762,26.1207,-18.9153,-66.8995,25.9658,19.2000,35.0091,-2.1726,25.7952,-22.2937,11.8693,63.1861,33.3693,13.8233
9.2695,69.9034,31.7977,112.1521,62.7234,90.5534,34.8149,46.6109,-20.9026,71.9845,7.4016,59.4451,-34.2385,8.6187,-21.1745,18.9957,83.2718,108.0896,46.6601
18.7109,49.1059,62.9170,113.0647,84.4506,112.0591,79.3345,91.7905,51.8318,76.2216,24.8918,47.2734,12.8573,3.7169,12.3457,22.6953,88.0504,118.7881,92.5842
33.2623,-9.1120,81.0304,69.4448,92.4159,78.4856,102.7045,78.1410,79.7864,21.1818,43.2251,15.0981,53.1683,22.5337,34.8197,22.7328,73.7616,48.5929,109.3468
35.4488,-26.8205,75.2477,27.4004,74.2248,43.7895,89.2511,36.4253,66.1074,-57.4537,39.7885,0.2034,30.1241,32.5308,28.9826,9.9341,65.5102,-0.6451,76.9924
23.3847,0.7537,49.3412,13.4937,42.5463,41.2294,58.6393,20.7316,47.5600,-79.8657,26.3274,7.9452,13.1538,21.2911,21.9176,-2.5396,54.7194,18.4789,38.3432
14.1944,25.2558,24.0207,20.1954,6.0729,49.7684,25.1189,33.2240,42.1610,-37.1221,24.1119,20.6878,49.3963,21.8304,31.8806,6.4440,37.2400,44.5320,27.0466
21.0522,18.2129,24.6058,32.0133,-14.3464,38.4709,18.4296,40.5125,44.8621,2.0510,35.5149,21.9025,90.6174,38.0063,43.6738,23.0258,38.1752,35.9989,29.3690
28.4398,-18.9034,22.7283,25.7567,-15.7616,9.3445,39.4176,23.8685,26.1964,-0.2319,42.9746,6.0573,102.8960,44.7754,41.0594,25.1829,34.8317,-0.9749,17.3674
17.7446,-64.1050,-18.9255,-28.4496,-45.0452,-30.6842,18.7436,-24.0528,-21.0288,-20.1843,29.6432,-22.5520,99.0270,43.9782,29.0230,18.4827,-23.2020,-73.2568,-25.1395
1.5471,-79.9383,-64.2032,-113.0561,-115.0583,-88.5362,-62.8857,-80.9987,-34.4371,-15.3599,2.7125,-51.5758,84.2840,40.0656,23.2034,12.8152,-96.0633,-144.1822,-82.1355
-7.7564,-41.7138,-75.5338,-140.6510,-164.9272,-118.8058,-126.6072,-79.4106,22.8194,43.0097,-17.8826,-51.0488,65.7159,33.5062,31.0847,19.5188,-114.0533,-121.5766,-114.0749
-26.1640,29.8010,-85.4608,-71.2820,-175.1499,-54.9508,-146.7094,-2.2752,72.6188,132.3473,-31.9885,-0.6891,54.1812,55.0856,40.1757,58.0937,-114.3622,-18.3305,-116.9864
-53.9901,80.2475,-115.2523,-0.1798,-200.7239,44.2384,-172.5231,69.8721,49.2096,177.1077,-47.9549,56.2991,37.8340,103.2135,34.7901,105.9101,-145.7298,35.8691,-118.4213
-59.6047,78.6310,-134.0543,-10.3886,-247.2598,64.0264,-184.1800,88.1995,8.5192,141.9464,-51.1812,59.9076,22.0868,111.7829,24.5316,107.1911,-149.1259,8.2491,-105.4213
-36.8266,45.9468,-122.9629,-40.5325,-248.5032,29.7939,-127.2874,88.9912,0.4666,93.2690,-29.2005,28.4389,39.0451,70.7722,25.4216,70.6376,-91.6659,-9.8294,-54.5194
-17.1631,14.3575,-92.7702,-32.2350,-182.7039,14.9162,-52.0808,82.0615,-9.6832,97.6988,-6.4122,11.1442,69.8763,43.4599,25.9357,51.3447,-53.3667,3.2734,-8.0852
-18.8043,-9.5643,-71.9846,-42.9105,-105.6315,-16.4001,-43.2549,43.3631,-28.4509,113.6727,-11.3640,-3.7099,57.0912,29.9682,11.1346,42.3755,-75.6066,-14.1228,-7.2066
-34.8174,-27.2089,-95.1814,-94.6535,-74.1814,-77.6672,-82.2299,3.5844,-22.0184,79.7191,-36.7224,-34.2541,3.1932,-8.8080,-7.5822,12.6592,-108.6343,-59.5568,-15.0939
-53.9421,-36.4454,-145.4433,-117.5033,-98.6905,-97.9020,-103.8779,1.3431,-3.7984,42.7050,-58.5282,-49.9330,-37.0451,-31.2383,-14.5395,-2.5338,-134.6803,-81.9282,-3.4474
-64.3076,-44.5051,-171.7779,-104.0183,-157.4220,-93.9347,-112.6231,9.1735,18.0614,78.7602,-69.0416,-45.9424,-39.4827,-1.4002,-7.4788,25.9530,-171.7946,-88.5308,-6.3110
-62.3281,-59.7793,-182.3993,-115.8486,-219.0569,-136.4495,-144.3891,-5.9962,73.2406,154.1407,-76.1214,-64.1173,-27.3791,4.3797,7.0631,43.6114,-196.2375,-115.9213,-25.7032
-56.9955,-80.3283,-195.1276,-154.2074,-246.6887,-180.9024,-170.9914,-33.2128,120.3807,177.5563,-82.7616,-107.0759,-30.3196,-64.4746,11.4968,6.8518,-186.0589,-155.9021,-21.5881
-50.1442,-94.2380,-166.6386,-178.0716,-219.5648,-171.2915,-146.2460,-51.9270,84.3815,132.5163,-77.7889,-124.5439,-40.3909,-108.7715,-1.0628,-30.5160,-168.4901,-171.4254,-15.0339
-38.7130,-78.4819,-106.1353,-171.9100,-170.0210,-149.0922,-107.8915,-48.9571,7.7969,80.5266,-55.7503,-84.9956,-18.5239,-24.6476,-4.9769,1.9539,-166.7183,-142.2669,-55.0161
-34.0859,-33.4322,-95.1866,-135.2120,-147.4132,-127.3283,-114.7294,-29.0616,-27.6652,66.0891,-34.8591,-16.7782,35.5588,117.2640,13.1256,77.3811,-178.0476,-89.2080,-111.8746
-45.0295,-7.5633,-124.9521,-100.5533,-147.3629,-85.7045,-138.9216,-23.8799,-40.3818,60.4007,-31.4856,16.1007,78.2904,157.6345,27.7387,101.2007,-201.9216,-61.0434,-133.2973
-59.7577,-21.5817,-127.8831,-113.6170,-144.4507,-69.1493,-141.5472,-37.9183,-59.1741,26.6815,-35.8477,-6.0065,101.5398,81.9039,29.4157,53.6510,-229.6707,-69.0510,-132.8386
-65.5438,-25.0523,-122.5412,-138.9534,-145.9886,-82.5315,-148.0013,-29.5594,-62.9390,15.4801,-36.4242,-23.1115,118.3152,33.1346,32.1586,24.6565,-236.8152,-69.9081,-131.5652
-58.9377,2.2901,-129.2648,-116.5009,-145.0853,-51.0498,-152.9868,10.9309,-70.4391,88.2061,-35.7336,3.7468,105.2521,75.3520,24.7795,62.9903,-211.9559,-44.8196,-109.3218
-41.2723,8.4864,-105.9868,-90.9790,-117.7137,0.1509,-110.0051,45.2815,-89.6904,183.6585,-33.6180,22.4439,62.3186,114.9359,2.9448,102.1248,-173.1139,-26.3364,-59.9783
-25.2504,-29.1071,-77.5497,-126.6113,-95.4151,-26.1286,-49.3488,54.8371,-38.9856,215.5707,-33.0409,-12.2288,32.0377,93.7534,1.6004,95.0437,-153.7356,-37.2136,-9.4240
-22.4774,-75.3001,-106.3823,-188.9062,-118.3512,-100.9915,-36.4903,44.0622,86.7676,213.1220,-45.3968,-66.2564,12.1599,66.2209,24.2884,81.1629,-168.0193,-74.3730,15.7542
-25.2653,-99.3548,-152.1387,-221.5293,-152.5163,-135.4415,-62.8469,16.0424,143.9446,216.3652,-61.4856,-92.6986,-12.9739,63.5672,30.1682,81.0760,-188.0259,-120.8770,-2.9567
-26.1293,-83.6275,-157.4257,-206.1113,-157.4050,-124.9088,-94.7683,-5.3609,91.7018,200.0921,-58.8119,-80.1772,-4.4560,59.2868,20.0193,72.9063,-179.4884,-129.9961,-42.9187
-30.5886,-32.6790,-147.3500,-138.7003,-142.5605,-82.0228,-112.7485,13.1544,67.7682,197.0241,-46.3250,-42.1438,35.5283,49.2625,26.2269,67.7161,-151.6627,-67.8372,-36.7757
-39.8726,13.0350,-142.7420,-61.8085,-115.5811,0.1714,-86.4212,76.9982,112.7006,269.5924,-48.1048,-5.2454,40.9562,47.4193,37.2154,87.8650,-137.4715,30.5361,21.3640
-52.3835,38.6021,-135.3853,-30.2026,-84.1714,82.5847,-39.7961,161.2999,101.6769,346.0257,-57.6511,23.0519,18.0132,54.8071,26.9489,114.4924,-144.6360,105.7920,48.7057
-67.1674,57.4042,-134.3613,-20.0254,-73.6960,117.5041,-47.3231,202.2623,3.7561,318.7042,-58.1909,49.7983,16.7387,65.6903,5.7046,119.4352,-157.2584,116.5496,15.5026
-70.8982,43.0423,-131.8673,-5.7085,-68.8871,101.2350,-90.3775,143.1412,-59.2801,234.6605,-54.8596,46.8262,15.9863,54.7180,-9.2043,94.8811,-163.1647,50.2889,-7.2867
-60.8303,-11.8645,-120.3459,-28.3252,-35.5521,45.2152,-86.5970,46.2208,-31.3389,192.2885,-55.6962,-2.0830,1.5898,4.7191,-12.5373,51.1850,-165.8515,-22.6260,24.8961
-59.6972,-48.6998,-132.2806,-81.5952,-3.6297,-24.6345,-48.9039,15.5105,16.2116,171.0078,-57.0765,-46.5521,12.5858,-46.0073,-2.1351,14.0828,-175.8884,-22.8725,70.9045
-63.3510,-60.5067,-152.4942,-109.8896,-8.5771,-74.1824,-37.1040,3.4027,31.3179,113.4805,-52.4470,-63.1754,40.8122,-65.0535,11.4774,-9.0153,-182.8550,-16.2525,79.6792
-41.0379,-81.8659,-118.9950,-119.3552,-15.3630,-93.5802,-43.1148,-73.3461,27.2519,59.6442,-35.8622,-80.9054,59.7821,-72.6978,17.4196,-32.4946,-159.2200,-68.0845,55.5497
-9.3231,-63.6090,-58.0736,-112.2140,5.7451,-64.3790,-41.9933,-123.9154,6.3029,72.6623,-13.0611,-72.3908,85.0206,-68.7262,19.3861,-40.1862,-107.0379,-65.3893,45.0345
-4.0212,7.6880,-32.2363,-51.3179,28.5906,20.3349,-32.6703,-71.7022,-41.0550,102.1532,-1.4480,-13.3157,87.0270,-37.3425,10.4685,-17.3040,-55.1984,23.2299,64.3188
-4.7968,17.0264,-18.2792,10.5878,30.4552,72.9628,-12.0872,-40.6850,-88.1047,55.5531,-0.8360,13.1474,30.5123,-23.2363,-15.9512,-11.4362,-16.7511,19.1899,63.5229
7.1066,-43.7742,0.2304,-1.2983,14.5052,23.4115,-4.0532,-100.4097,-107.3133,-23.1894,2.7032,-27.2318,-0.9149,-57.1723,-31.7588,-46.7977,-2.3387,-81.1226,10.2146
-1.3618,-35.5299,-18.1047,-24.5442,-8.2209,-39.9300,-40.8273,-125.8101,-118.4677,-13.5354,3.2329,-34.8377,52.6984,-78.6704,-20.0348,-61.2637,-29.4031,-67.2171,-52.2905
-31.0606,42.4983,-56.7540,6.1132,-25.3097,-30.2746,-92.8527,-65.6131,-145.1406,69.0012,-7.2245,20.0475,98.4565,-43.8465,-11.7649,-22.4785,-69.6632,41.8460,-86.0957
-36.5073,73.3005,-59.2717,37.6110,-43.1661,-2.0432,-116.0188,-17.8662,-173.2473,111.2496,-11.4807,56.3286,79.2256,10.6085,-22.5729,21.0085,-68.8760,58.1461,-100.0683
-15.7205,59.2277,-24.6837,37.2203,-66.8472,-3.7692,-110.3970,-15.2101,-191.1419,88.2341,2.4473,58.4318,61.8445,52.1164,-29.3217,38.9850,-34.7257,8.3336,-89.3739
7.1093,46.6955,33.9231,23.8848,-56.7421,-13.4328,-72.9818,-19.0358,-204.9376,47.5289,26.9193,57.3223,80.8552,80.3561,-23.5495,42.2001,-4.8198,-3.9205,-43.1671
38.8377,20.2918,102.7399,-8.3546,11.3057,-28.6197,-3.1976,-27.4228,-191.8662,27.3790,56.9917,42.1959,114.5600,96.0041,-10.3035,39.0778,31.0907,-3.3160,17.1856
70.1976,7.4905,133.6454,-26.2863,86.1436,-29.0061,56.2214,-21.4927,-117.9052,58.0788,80.1697,29.4951,146.6069,107.7707,14.2307,45.7273,78.6981,20.7068,76.5221
71.1198,28.2065,125.9332,7.7799,122.7529,19.3668,80.9274,18.5874,-12.7976,104.5699,77.7742,40.3629,145.4312,109.7620,38.5135,61.2208,95.4471,80.8434,120.3435
54.9556,9.2633,129.7740,13.6439,129.9159,40.9847,83.0026,24.6502,52.7180,81.3193,61.4425,21.2083,120.8292,67.9662,48.0789,42.2573,61.4239,67.3356,99.2066
40.3685,-41.3290,117.6339,-53.7693,103.0335,-28.7168,47.2478,-39.9042,64.8285,22.5138,48.1534,-35.2259,137.5195,-5.5468,55.6328,-11.1969,-1.3206,-7.6999,19.4818
5.5010,-18.9146,41.7370,-84.7741,32.8847,-71.6097,-22.9631,-79.1971,64.2989,36.5895,20.5174,-41.8223,161.9689,-41.0747,63.5572,-30.2767,-76.9816,16.7892,-14.3975
-39.9754,45.1282,-34.6601,-42.8141,-38.4227,-5.0665,-62.1791,-34.8361,56.1636,90.9816,-20.4526,6.3642,109.8598,-12.5227,50.7487,4.9639,-137.7731,98.8872,34.7715
-47.1604,50.7243,-42.9767,-26.1609,-69.0543,47.4046,-47.3772,19.8127,12.1425,92.9629,-31.5566,30.2425,45.1442,35.5211,24.9284,39.7097,-137.4873,90.2423,70.3600
-21.8203,38.6067,-12.1615,-41.0727,-66.3843,16.4282,-28.1790,32.4537,-42.5127,72.0133,-8.3798,29.8118,53.9539,59.5200,13.7915,45.2618,-84.5731,59.4324,32.8754
-9.3757,66.5894,19.0683,-21.5095,-51.7292,3.6234,-34.4687,37.3733,-48.5667,81.5575,3.8829,45.5372,67.3870,61.9677,14.7138,45.4337,-43.5694,89.0426,-27.4889
-16.0257,84.9016,34.0052,11.2553,-48.0892,35.3607,-69.9612,54.1571,-20.7300,93.2410,-6.7324,62.5278,33.3060,78.4936,12.5001,63.3506,-48.8626,80.8008,-68.9202
-25.4099,69.8938,16.4416,21.9107,-72.7657,24.1254,-126.7619,52.0072,-27.2119,67.0766,-16.0126,65.1981,7.3942,113.1200,5.3277,84.3495,-74.3563,6.2184,-98.8635
-25.4670,55.7025,4.0065,16.9269,-94.6913,-31.2426,-149.4583,7.8760,-66.7113,-1.2164,-14.0662,55.5347,-1.1244,106.9417,-6.9251,64.6086,-67.7165,-38.4636,-112.5810
-2.0592,46.6924,39.6881,-9.4798,-68.2477,-54.7398,-104.0339,-45.3550,-80.5516,-54.0463,-0.2962,28.5978,-9.2783,42.3404,-16.2755,6.7328,-6.0619,-32.8972,-94.2104
28.8388,43.7239,73.1400,-21.1644,-10.9198,-25.4514,-45.2971,-43.3916,-67.1718,-15.8044,20.4562,13.7880,9.6075,1.2851,-13.3121,-16.9037,63.8804,-5.4045,-51.7807
32.8914,44.8366,61.7498,23.2334,31.1459,19.5701,-10.2541,3.7122,-67.1452,38.1068,28.6002,30.8622,20.1660,19.0270,-13.7876,7.6179,86.0194,22.6356,-6.0193
26.0516,14.5538,55.7000,37.1076,58.2050,31.7699,31.1516,2.6670,-67.5487,-26.6428,23.9845,23.1031,-16.9591,16.8747,-23.4993,-1.0443,78.9852,2.7554,31.1539
38.6458,-27.7021,73.4037,-32.9310,93.5133,6.1305,76.1306,-53.7867,-30.5455,-114.0331,29.3046,-24.3076,-16.0447,-31.9592,-12.5915,-52.3595,81.6936,-27.2640,57.9448
43.7055,-8.7234,65.8150,-49.5948,124.6049,12.5519,87.6062,-56.4305,15.0614,-63.5915,36.3338,-25.2128,41.1155,-46.2658,13.8603,-56.0964,81.1312,33.5996,65.8764
20.1373,62.2664,34.3100,59.0878,118.5837,91.8130,66.6492,15.3763,4.8036,32.4626,20.6148,45.7515,19.0667,5.2767,4.4009,1.6798,76.6707,130.6235,33.6075
7.1264,119.8148,29.2486,169.7930,88.0707,180.9674,40.1024,61.3129,-53.1328,49.8535,2.6592,112.7902,-77.1865,58.9182,-36.0863,45.2779,108.1250,158.4309,-27.6452
25.2272,139.6152,69.9169,208.2601,89.7735,217.0040,42.8881,49.6275,-77.1281,41.3621,15.7525,132.4068,-87.8327,70.3985,-44.3573,46.9226,158.8245,161.1239,-53.2045
39.2428,105.6466,132.6005,193.7107,127.7164,191.8885,86.9668,27.1118,-32.2756,4.7135,39.8174,107.6047,-24.5641,52.6873,-13.3922,26.9073,152.5117,156.5735,-14.4840
26.7079,32.8723,155.4081,115.7467,134.7909,111.2793,100.4441,-0.8623,15.6728,-106.3461,33.8193,52.3756,-26.6651,33.9712,2.3914,-1.1843,79.8765,75.6658,30.0632
8.5552,2.9879,98.2580,16.0649,96.0972,29.8027,35.3071,-31.8981,9.3361,-162.5934,5.0594,16.0170,-81.1123,36.7140,-13.4846,-11.0427,23.3689,-16.2065,44.8895
15.9391,21.7056,33.6151,-35.1351,79.4217,20.0930,1.5429,-29.7974,-9.3533,-81.7964,-2.7030,15.4726,-85.7913,54.4059,-23.5289,6.6841,38.6975,-16.2830,76.9123
51.1059,3.2791,51.2599,-90.4892,108.7935,42.8344,80.7945,-4.6298,12.6639,-14.8479,22.8046,-4.6158,-35.2314,54.2512,-5.1223,10.9893,84.0244,10.8897,132.0590
74.0038,-31.6537,101.4683,-182.8747,129.8759,22.2513,143.8546,10.1052,41.8057,-48.2020,44.4532,-41.8399,12.1408,39.3427,20.2020,-8.6108,90.6636,4.1538,131.0864
60.0486,-8.9554,91.2749,-222.8701,106.7197,-11.7605,82.8156,24.6363,33.4403,-97.4807,37.1788,-36.2799,18.1046,49.3473,25.1838,-10.1524,64.3684,-6.7419,66.1050
52.2496,6.4799,52.0974,-219.1988,66.4075,-33.5842,13.3150,28.2894,22.0609,-124.1856,28.7717,-25.9881,-3.4053,70.5817,17.4563,-0.0422,67.5295,-46.9586,40.5684
81.3573,-46.6597,64.6431,-256.7696,59.9621,-84.8852,47.3839,-10.6042,49.4075,-126.3973,44.3703,-72.2214,4.5747,42.4100,21.5820,-23.0684,107.3701,-107.2179,76.0773
95.0217,-66.6520,109.3936,-266.6471,86.6437,-123.9214,91.1119,-41.1740,75.2314,-76.6801,56.0768,-101.9907,46.7188,-18.9204,33.0950,-54.9972,117.8235,-79.3066,59.5814
55.1820,12.2251,105.1294,-172.7959,66.7389,-71.1310,27.0329,-1.2627,42.6330,-15.1590,35.8656,-43.1657,56.5538,-28.9430,28.1927,-39.5869,74.9556,15.9229,-40.1145
10.1329,91.6725,45.7718,-66.8840,-28.7242,7.7495,-81.3581,51.3900,-19.7930,12.7948,6.9807,28.9073,25.1772,3.8246,8.6638,-1.1769,37.8808,50.4526,-103.7876
0.1089,85.7025,11.0403,-21.5758,-94.2474,8.9309,-101.9072,33.1069,-41.1700,24.0331,-1.2680,28.4678,11.9535,-18.2496,-2.9768,-8.6528,35.7531,29.9419,-79.3013
-0.5078,22.7207,28.5145,-18.4265,-70.6475,-38.9223,-46.8823,-41.2634,-17.1344,-11.2101,0.9688,-19.7766,28.2187,-92.2934,2.2598,-60.3293,13.0097,6.5418,-57.8481
-17.9050,-29.5147,16.7252,-52.5053,-57.2492,-65.6951,-39.4179,-106.1617,6.1248,-98.0347,-8.9849,-53.7790,43.0318,-113.2734,16.8067,-87.8407,-64.8369,-40.0180,-90.4394
-48.9675,-32.2207,-72.2768,-81.0916,-121.7279,-57.9903,-108.4236,-114.5699,16.7047,-127.8535,-35.1527,-49.0133,41.5433,-69.2037,27.5985,-62.1502,-150.9569,-80.0290,-129.5316
-81.0029,-17.6951,-167.2423,-68.6282,-198.1440,-37.2484,-163.2139,-76.8898,21.9539,-101.5716,-63.9764,-32.7381,17.2946,-43.1357,24.9689,-31.6619,-202.2979,-85.4560,-145.6602
-85.8469,-45.0550,-198.4302,-106.9374,-219.0160,-48.6739,-152.3306,-68.1690,15.3235,-129.4221,-70.3729,-50.2069,3.7402,-40.1718,21.5452,-32.9659,-221.0505,-118.8372,-134.3931
-49.2552,-79.0727,-176.4761,-206.2562,-173.3124,-87.4860,-106.3667,-96.5998,25.0216,-133.0579,-42.7867,-77.7606,57.7517,2.2082,41.8300,-24.2063,-203.9264,-143.6358,-77.9697
-19.0816,-50.8937,-139.3816,-201.5314,-94.8832,-61.8314,-61.2251,-51.0629,81.8383,-6.1549,-15.2176,-51.8688,124.0196,69.4533,72.3584,31.1414,-166.7386,-61.7807,-6.8401
-44.8129,-23.0200,-135.5399,-111.5167,-71.7893,15.2514,-45.8299,66.5688,118.0466,81.0704,-32.9529,-13.4804,80.4742,83.4991,65.6390,75.0401,-180.6579,0.2491,16.9159
-89.0125,-84.2062,-192.3768,-155.1185,-125.9736,-15.3465,-73.1860,77.7204,60.8287,-8.4655,-80.2600,-55.6026,-38.6307,28.7988,16.6757,41.8227,-256.1252,-114.0176,1.9647
-90.2373,-160.4398,-247.2933,-307.1954,-153.5355,-152.8491,-104.0550,-48.7470,-25.5174,-107.3462,-102.5503,-135.9126,-96.0442,-29.8793,-25.2343,-25.4536,-293.1021,-253.6351,-15.8682
-71.2117,-149.8743,-241.2993,-347.0370,-129.8152,-204.9524,-109.5181,-126.1495,-63.8893,-85.0459,-99.3741,-147.6603,-98.2658,-49.8906,-41.2622,-49.5585,-261.2075,-244.3888,-49.9161
-84.1941,-109.5507,-233.1526,-282.4663,-151.1951,-146.9951,-121.8283,-97.1682,-83.5626,-37.7932,-112.5037,-117.3693,-133.5074,-65.7138,-58.0373,-43.8801,-252.8056,-197.9389,-83.5131
-105.1364,-119.3789,-264.2913,-273.8963,-196.3037,-136.9563,-145.1545,-90.3547,-86.4534,-43.5193,-131.7795,-128.6048,-163.6920,-103.6886,-68.4282,-59.4606,-281.2362,-223.2442,-59.4754
-88.3055,-128.2648,-261.3969,-312.8578,-156.4061,-186.2846,-130.2697,-129.8658,-31.0458,-81.2046,-116.2147,-151.5585,-123.7752,-119.9906,-44.1840,-84.4316,-257.3282,-216.2619,-11.2306
-61.7103,-79.1320,-200.3086,-286.0686,-72.2644,-174.2436,-79.6611,-124.5718,13.0855,-105.9555,-85.7863,-122.0491,-81.4888,-103.1401,-19.3326,-87.3959,-184.3002,-113.3789,-21.7853
-64.8813,-19.9419,-155.4822,-177.2960,-45.2016,-94.7608,-47.5108,-62.6892,-27.9542,-41.9615,-81.7114,-68.5777,-99.1411,-113.5174,-38.3246,-75.5319,-135.4319,-10.6212,-57.0931
-66.2195,-2.2506,-134.0951,-64.1111,-41.9131,-24.0395,-36.0062,12.1868,-55.8251,99.7808,-80.3109,-41.4959,-112.9548,-141.2306,-60.4425,-54.1845,-94.7722,22.1953,-26.5322
-31.6476,-13.5980,-77.3868,-23.4058,8.6085,15.1403,3.1972,71.5669,18.7771,159.8707,-48.6566,-37.8464,-81.5249,-113.5051,-36.3832,-23.2139,-26.1216,16.1287,48.5839
6.8648,-33.5299,-1.2447,-47.6786,86.0655,25.1998,80.1243,73.8598,116.4937,106.9275,-16.4305,-46.8498,-56.0132,-68.6067,0.5603,-12.1820,21.1973,24.0015,90.1947
10.6736,-45.6512,30.4174,-46.0194,131.3652,15.6834,135.1958,37.2778,170.8909,125.8559,-16.6814,-60.7568,-49.3247,-90.0253,13.4280,-25.2347,8.5750,69.5838,101.8602
-14.5092,-35.2001,4.0408,12.1741,114.5316,11.7143,105.9905,56.4447,207.9029,252.5647,-35.9555,-58.8855,-36.1386,-133.4441,16.8311,-18.5240,-31.9460,108.7950,118.3839
-40.5573,-37.6484,-45.8814,33.2725,58.5995,-19.7154,19.6707,105.4419,212.1260,283.4099,-53.5710,-58.2908,-45.3197,-134.8392,12.3419,-0.0917,-67.3503,53.9272,102.8797
-39.7865,-86.0339,-72.1547,-35.7613,13.9561,-131.6488,-39.0662,47.0912,164.3432,172.1266,-59.6447,-95.1106,-78.7473,-129.1370,-7.4464,-20.5570,-81.3772,-77.4009,8.9680
-16.8675,-109.4652,-62.0157,-93.2466,-18.2608,-243.3990,-60.8170,-83.9852,123.4977,119.9190,-51.5251,-123.5116,-68.3899,-126.7057,-14.7872,-47.6682,-71.8731,-131.8193,-113.4992
-18.4495,-40.2358,-66.1012,-30.3130,-60.2214,-221.6309,-97.1264,-109.5215,109.9393,193.6445,-47.9367,-72.8717,-22.5775,-90.0175,-3.1491,-19.3943,-69.7138,-42.2505,-172.9155
-52.9369,45.5051,-109.0329,107.8131,-75.3853,-102.3490,-127.4749,-19.2084,75.9832,234.1639,-56.1343,13.5664,-13.8115,-50.3869,-5.0487,25.3691,-75.0005,66.9473,-159.1145
-59.9258,63.5437,-120.5365,210.0532,-32.4481,-18.4680,-92.7035,47.4829,29.8152,177.6925,-41.1427,55.9121,-10.7779,-42.1542,-13.9207,30.7306,-29.9129,100.7796,-127.1371
-20.4176,59.9440,-50.8745,259.7410,28.3408,14.3428,-21.0702,55.0986,5.2483,125.1693,8.3059,73.3807,44.6357,-19.8628,-2.1958,28.4975,61.1111,116.9933,-98.9517
6.5118,76.8255,31.2644,285.9782,68.1777,42.9096,11.9493,63.1401,-19.8088,109.1309,42.4868,99.1884,85.8611,22.1644,7.1990,43.5765,108.1435,140.8691,-61.6415
-6.6821,67.2127,38.1864,255.9193,75.7562,43.8604,-8.5769,80.0212,-46.5193,80.3456,30.6704,91.4828,51.8957,16.9467,-8.1779,38.7545,79.4509,102.5582,-14.1481
-22.5048,17.6494,-17.1080,159.6211,45.2472,1.6980,-38.5347,79.1489,-33.3668,43.6167,5.0245,35.5957,5.5150,-33.7813,-19.9436,6.8519,37.2024,10.4100,40.2187
-11.2278,-23.7707,-46.4358,86.1470,22.8335,-30.3748,-27.3762,58.4834,11.5108,10.9220,6.1346,-7.9442,8.5217,-51.0973,-7.0026,-12.2815,38.3504,-43.9907,91.1554
19.3676,-31.7027,1.1152,94.0071,56.8464,-23.2733,27.4623,37.4497,51.4821,-22.3185,36.7413,-3.8627,52.1033,-12.5604,19.7284,-3.1765,79.0318,-26.7103,101.3292
34.2135,2.4242,72.2487,140.8630,91.0571,12.9449,58.9548,50.7371,86.2340,5.5401,59.1348,27.8584,104.4413,17.5787,46.8425,17.2515,99.6945,49.9887,56.6882
6.1324,70.8357,89.1155,185.9362,72.4334,82.9083,26.7622,110.6177,112.3346,112.0690,38.7676,65.5595,112.4998,-1.9227,55.9588,34.3087,58.5335,153.5565,11.5672
-26.0720,107.4863,70.8283,210.8042,59.4767,153.7816,-7.1989,164.0393,109.8520,164.5759,5.9216,90.0694,54.9891,-9.3548,38.9818,50.5194,15.3770,186.4653,16.7004
-5.4830,67.5187,75.0348,183.0791,78.8560,146.5402,9.0103,144.6118,86.0993,94.7294,12.8876,82.8949,2.4221,57.9876,21.3014,73.0271,39.5152,97.0261,43.4043
36.9645,7.0818,74.2112,124.6421,71.3758,64.9863,30.5152,55.0629,63.4277,22.6465,37.9831,54.0135,5.1610,126.8940,18.8128,83.6820,79.2086,-7.9048,34.0639
39.0362,-11.4370,26.6274,107.1419,41.5651,7.0520,19.8091,-25.9416,57.2252,40.9891,33.1621,32.5349,25.1454,108.5031,19.2074,67.4080,65.0199,-20.3973,-10.7034
14.8465,-3.5129,-23.0794,130.8354,34.6345,13.3026,2.7532,-21.6969,69.8097,99.1173,15.4436,32.9520,41.5416,71.6247,22.8917,62.1046,23.7887,15.7447,-48.3347
-0.8657,-8.0885,-36.2758,134.4859,18.7512,23.4941,-18.6197,26.6577,59.5362,105.2433,10.9986,42.9619,55.3141,99.0144,27.7646,87.8568,-16.1686,0.0058,-79.9689
-9.3745,-31.3005,-44.2324,98.1914,-24.3503,-18.1091,-69.3862,-14.5306,-11.1692,3.1236,5.0132,37.7476,32.4076,134.1549,10.7925,87.8123,-53.8738,-91.2519,-144.5588
-0.1991,-47.4227,-53.5684,48.0149,-39.6594,-94.4018,-121.4984,-155.5662,-82.6628,-151.2611,1.9214,17.3075,-10.1739,130.6862,-15.8171,41.4153,-43.6318,-182.9240,-216.7957
27.8677,-32.0177,-36.3400,18.9204,-24.1088,-144.3903,-128.6012,-240.7437,-83.0387,-207.9935,16.6565,8.4418,-9.8243,121.1184,-16.7641,8.7935,18.2938,-184.2231,-220.0354
34.3101,-2.1084,-10.8834,28.7552,-23.1260,-133.9224,-104.5426,-199.9036,-56.9889,-139.2578,23.8536,15.3663,10.5912,95.8783,-8.0128,6.3673,48.7946,-113.8693,-160.7882
18.4916,15.2405,0.1687,53.9671,-14.7890,-89.6799,-87.1779,-129.4375,-65.8786,-63.4982,16.0121,22.9883,11.1539,51.6210,-14.5451,3.3506,39.6141,-60.7343,-117.4935
21.5849,31.4900,22.6074,74.4749,28.0981,-51.9575,-80.0376,-94.1088,-77.8033,-29.6537,24.4487,37.5122,29.5587,47.9933,-14.0899,9.2910,55.5751,-34.2657,-106.2040
25.8045,45.3904,50.9335,101.9664,51.7652,-31.6194,-74.3082,-76.5039,-71.5708,-24.8801,36.1751,55.0341,54.5147,66.8290,-3.9401,21.9076,64.6886,-11.4750,-96.4195
-2.2508,24.4374,30.7629,107.8366,21.5881,-32.1029,-72.0726,-74.0975,-84.4929,-62.0541,14.8098,46.2980,19.9221,47.1371,-15.1368,11.7095,8.8485,-28.0290,-94.2997
-23.0171,-14.0796,-28.1055,45.8592,-6.4336,-51.3474,-65.8191,-75.9525,-102.2161,-79.7465,-14.2013,19.6099,-36.2603,46.2580,-34.5675,11.3189,-50.0756,-73.0070,-91.5701
-2.1898,-27.3692,-43.2605,-38.3332,23.9514,-64.3804,-39.5377,-58.9332,-74.9497,-21.2610,-12.5507,6.1280,-44.3053,99.1033,-30.6244,45.3225,-42.5714,-81.1104,-49.0333
26.3489,-31.4106,5.9171,-70.7144,95.5648,-58.3430,-1.2025,-52.1848,-24.3131,13.6303,5.1281,-4.7596,-29.0807,107.6383,-16.3657,50.1853,-3.0174,-68.2078,7.3554
34.0383,-39.0498,39.9579,-50.8645,141.6866,-37.9191,21.3471,-60.9128,8.7366,-13.8807,17.6343,-14.7829,-5.2872,66.5318,-2.7181,22.1346,18.1487,-61.1984,18.3851
27.4001,-17.1259,9.7816,10.9356,102.9114,11.2372,24.1239,-25.3577,33.4057,2.6694,25.1171,13.1785,41.2668,85.2042,20.9715,42.8517,19.4154,-15.2549,0.0894
15.2315,20.2470,-20.5809,94.4965,-8.8527,70.6456,32.4357,30.2202,40.5075,13.2077,25.4933,59.9199,51.4482,132.9608,34.2052,82.1651,22.2320,44.9609,-12.4040
9.1289,19.9262,12.1818,105.2856,-104.2625,61.6529,55.2846,13.8706,-0.7585,-103.4424,21.5257,56.3023,0.3423,99.6752,16.3775,43.2572,36.5745,38.0783,-29.7279
12.0203,-9.2366,56.3103,12.9621,-122.8211,-15.5252,72.5635,-40.4960,-56.2317,-212.3914,20.6222,7.3817,-23.5322,20.0769,-3.4710,-31.6301,36.7954,-1.8043,-27.2835
11.6758,-23.2608,50.6689,-56.9939,-109.1308,-42.2531,76.3676,-35.1973,-74.0697,-167.5172,20.4332,-20.3030,6.7316,-15.8143,-3.0035,-48.8459,16.2092,-3.8325,45.2821
15.1483,-5.6404,44.6453,-28.8040,-123.6533,28.2441,84.5238,15.3105,-74.5451,-82.7021,24.9502,-2.8365,22.1122,-6.0397,-0.0035,-24.4664,31.1871,23.1808,138.9695
30.2195,37.2976,84.5935,25.6991,-140.5430,110.7702,106.2026,59.3018,-88.4955,-49.2341,37.6900,34.5679,12.6475,14.4364,-3.8913,-5.4948,89.4357,72.6968,159.5705
32.8349,62.2940,112.2085,47.7162,-111.9744,142.2320,126.3638,91.7442,-100.2864,-30.2515,39.9748,52.0809,0.7948,7.1856,-11.3402,-4.5681,115.3945,117.1798,123.5644
21.0672,30.0434,91.9608,37.8544,-60.8989,124.6163,125.8808,85.2427,-101.8935,-57.6539,25.7157,22.8161,-37.2088,-53.1650,-29.4473,-39.4502,107.2247,76.0579,109.8561
26.5207,-7.7191,82.6598,7.9824,-23.8198,75.5446,108.4540,36.5060,-90.7940,-105.5225,16.5104,-21.3515,-91.5235,-117.9897,-50.6059,-87.5937,132.4864,-2.6778,127.1534
41.8288,4.0984,108.6149,12.9428,15.2630,52.6183,105.9278,34.3593,-35.2397,-22.6667,16.1073,-26.5523,-109.0611,-126.9361,-50.4741,-80.8155,167.1062,16.0993,141.1156
38.4173,11.9178,119.8317,74.9377,61.4278,92.1084,132.6769,110.8509,52.2032,148.5919,14.6907,-8.1800,-78.3729,-102.3460,-27.0963,-24.6891,148.7163,82.7539,145.0427
26.3463,-24.0112,99.9694,94.6667,80.4604,110.8068,147.8670,163.3260,91.2483,187.4509,18.3845,-13.9523,-25.3842,-88.2457,-1.9296,2.4116,100.1325,69.2953,140.3437
16.3266,-47.6374,79.4646,17.3461,67.6319,45.9871,115.9785,122.6680,61.3443,62.1379,19.1154,-38.6678,0.8685,-93.9813,5.3528,-28.0803,57.9710,14.5467,121.3088
0.0372,-35.1380,64.7113,-58.6244,43.2284,-5.9797,69.8771,42.7802,39.4993,-64.4240,-2.1283,-54.6261,-40.7968,-117.6442,-5.5056,-73.7922,20.8423,-5.1262,92.8985
-12.1813,-12.9718,42.4112,-52.5951,-0.2092,41.5209,50.3122,12.5414,73.1794,-60.3268,-24.7560,-48.5145,-78.0277,-127.0965,-4.3494,-78.0976,-3.4311,14.8354,64.1473
-15.6567,26.8277,11.6724,10.5113,-62.7781,125.2125,43.3706,71.8961,119.2298,77.9723,-19.8324,-8.7072,-6.4641,-84.0448,30.6435,-21.2655,-18.2673,91.4260,48.1209
-21.5941,59.9979,-18.2722,74.5705,-109.2198,159.0989,38.4710,155.0046,117.4791,183.5964,-0.1925,36.1445,99.9369,-26.9911,63.5089,37.9985,-30.3518,163.8814,66.9614
-10.8216,22.5048,-26.5898,77.5586,-125.1317,126.5253,60.9070,138.3704,68.1273,99.8561,17.4228,25.4655,106.5778,-14.1898,54.9606,28.2795,-4.3054,106.6301,109.4908
20.4501,-35.1118,-3.0818,18.8983,-132.1260,50.9446,91.3795,36.9104,32.7281,-33.4951,30.1588,-18.4419,59.4433,-20.9532,33.5150,-13.9054,43.6036,5.5358,116.8900
15.0087,-3.0277,14.2171,5.3117,-152.6444,3.3992,59.2371,6.5732,36.2102,0.1950,19.1032,-6.0226,51.0479,0.2428,32.2571,-1.5933,19.2522,42.0596,58.7973
-35.6100,83.0482,-10.8153,75.1346,-200.6420,41.4627,-31.7188,71.8110,-0.5656,99.6181,-15.5575,64.0748,36.7075,45.5173,21.4656,54.4416,-61.0551,129.5051,-20.6926
-51.3967,116.2161,-34.7972,128.4490,-250.8239,103.8397,-77.9498,90.0084,-116.1109,66.1961,-26.1464,112.9151,-13.9139,96.5136,-16.0443,82.0591,-62.4465,108.8822,-56.6714
-7.1021,103.2580,2.4260,139.2123,-237.7049,113.8182,-25.4236,30.3605,-180.6093,-26.9493,9.4655,120.0479,-18.9682,136.3028,-29.9220,73.5924,31.4638,74.4434,-27.1538
29.8333,95.6801,52.3663,174.2477,-171.0814,112.3902,53.1121,9.5090,-99.3677,-20.3330,48.5896,115.7680,52.8284,134.6463,8.4678,66.4119,99.0290,127.8217,25.6038
19.9794,75.3168,-5.2502,196.2538,-159.7780,131.4040,68.6327,48.6321,2.4842,55.4654,48.0453,94.3401,120.2665,83.6348,47.8519,61.2579,78.9415,157.0215,30.7445
-12.0885,26.8350,-188.9574,136.8072,-235.6917,101.7842,22.7238,58.7400,4.7839,88.4589,10.8510,45.9741,108.7355,23.3784,39.4660,42.1506,23.8184,87.5691,-10.7586
-30.9465,-3.5140,-356.7880,70.0823,-294.1837,22.2045,-14.7122,34.3535,-11.2117,59.6783,-25.7049,10.6538,31.3590,6.2425,7.8462,27.2300,14.8577,22.2238,-4.4195
-18.2819,19.4289,-365.3397,88.7858,-259.6579,8.9946,17.9502,49.9440,30.1932,30.5822,-22.6020,26.8831,-20.9234,39.2082,1.4915,38.5000,79.0955,60.7753,89.1077
11.3768,73.7068,-241.2732,160.7929,-163.1076,96.6785,112.6640,121.0084,59.4222,61.0253,17.3038,78.6719,18.0757,77.7557,22.4107,64.3099,157.6464,189.8509,183.8434
28.4914,118.8386,-128.8422,225.0781,-63.4708,192.3101,194.6779,210.9882,52.1298,158.1007,50.9104,127.2048,86.5627,101.9779,40.0868,97.4020,193.2299,317.0869,220.5954
31.0906,128.8133,-103.8843,267.8856,-13.5352,236.7820,210.2202,293.3350,88.2244,268.8636,54.6702,148.2539,93.1988,132.4843,46.3051,144.2381,200.0039,348.3855,236.1115
24.7572,94.5610,-128.0282,269.7659,-46.4135,234.3378,174.8749,326.2193,168.6127,313.1806,39.9438,126.0586,67.5077,135.8108,56.3389,166.4559,175.0904,277.2848,231.8259
2.4265,33.1937,-152.0968,201.3329,-127.5235,172.9032,115.2274,273.5068,206.1942,270.4985,16.0853,62.7619,69.6030,67.3935,67.7124,124.5702,87.4481,169.2880,161.4617
-16.6014,-12.4026,-165.3162,88.6614,-188.6546,63.5264,47.0643,183.5447,183.9250,231.4964,-9.6046,2.6011,66.4073,10.5382,61.5800,78.7463,-4.6261,77.8853,61.0615
-7.5590,-20.2435,-165.7474,18.5856,-205.4745,-16.9766,9.0020,130.2171,153.5773,252.9138,-20.8640,-9.8727,27.2753,53.2446,41.2709,96.2293,-20.0843,29.6663,12.4107
8.7434,-20.7077,-152.0547,34.4454,-191.1665,-30.4939,15.4934,98.8678,134.5918,241.8632,-15.2100,4.4181,-6.4680,109.9243,26.8166,120.6678,8.6906,10.5838,13.7352
16.9756,-41.7250,-120.6379,65.5803,-165.4578,-33.5285,24.3559,51.9418,117.0651,164.1672,-3.0571,-3.4900,-8.8427,88.3677,21.4760,91.9576,31.5419,-28.0342,20.1354
33.0003,-53.2781,-60.7688,51.3238,-145.6622,-53.4802,21.2853,35.3414,103.4151,155.6919,13.6986,-22.3866,16.2438,48.4706,22.3441,63.2370,57.3311,-56.0432,29.7939
34.4519,-7.3904,4.9123,63.0672,-126.7939,-18.0173,28.4760,104.5053,96.3434,246.0039,27.5598,3.2112,73.4828,42.4391,36.6342,77.5145,60.6771,27.4960,52.2410
-9.3434,86.1860,21.4866,159.7162,-100.3198,108.7712,26.3930,224.2405,83.6009,296.2528,20.8705,77.4366,121.1829,33.6639,52.6027,97.1040,18.8683,192.3869,78.4196
-53.9838,144.4387,-5.9806,238.9417,-85.5889,217.5176,4.0378,301.7489,53.9971,274.0125,-1.1659,125.1482,95.0477,3.0910,40.9328,91.4148,-9.2710,267.5211,95.5274
-51.7008,96.7653,-9.3696,193.9159,-84.4887,189.9529,6.0423,266.7263,23.4880,241.4671,-12.6766,83.0281,41.4885,-46.1532,13.3872,55.8967,-9.4627,185.8580,86.3616
-31.3758,-2.3722,18.2297,80.1169,-67.2729,78.7625,26.2448,148.3868,31.6949,201.9608,-8.7667,-1.8616,55.2619,-90.5412,15.3991,9.8293,-47.0183,66.8507,56.5251
-26.6658,-37.1723,10.4869,0.5911,-46.6619,20.1874,9.6247,68.5215,85.8438,183.8964,-10.2388,-34.6815,94.0952,-67.0871,43.0712,10.1916,-106.6845,26.0479,40.2344
-29.8207,-18.8076,-46.3153,-35.0531,-63.4387,16.9040,-24.6212,57.6822,128.4684,184.9805,-27.6568,-26.9405,59.7362,-17.0475,47.2828,36.9600,-119.4550,24.2194,21.6489
-33.7870,-38.1137,-88.8594,-55.6512,-99.9097,-23.0573,-43.5548,-3.3071,108.0879,83.5890,-43.4030,-54.0767,-3.8839,-67.0576,23.1597,-12.3988,-100.9675,-32.6422,-45.0001
-30.8986,-63.2928,-75.3442,-49.6896,-113.9345,-77.8620,-82.3469,-121.4068,52.8594,-64.8144,-36.2822,-84.0820,-3.0529,-145.6549,9.1285,-92.6929,-81.4692,-110.4663,-105.2528
-10.6159,-26.1734,-29.7743,-9.5649,-108.3065,-56.5038,-125.4011,-132.5421,14.7624,-29.8842,-14.9721,-46.5947,24.0360,-86.8722,8.2376,-59.5215,-43.6436,-113.8249,-73.3087
7.2602,1.9655,4.9871,20.4736,-90.9059,1.6286,-104.2434,-34.4424,-20.3091,95.8343,-4.2786,-2.4166,2.3508,3.4874,-8.5876,18.3410,-3.3090,-86.9688,-9.6402
9.2690,-33.6363,30.4076,13.5416,-48.1325,0.2269,-52.0604,-14.0936,-82.2690,36.6376,-0.6843,-23.5748,-35.4372,-48.4695,-38.4518,-18.9662,23.8674,-118.1811,-17.2053
24.8654,-50.6722,89.1549,11.1756,13.2141,-33.3802,-32.0465,-89.5747,-116.2358,-100.3747,17.1457,-47.3302,-39.0076,-119.3196,-49.3775,-93.2097,73.4650,-147.5404,-51.0180
60.0022,-30.9678,171.4959,25.6209,68.3666,-43.4856,-8.2841,-118.0672,-52.3327,-83.8341,39.5739,-31.3788,-34.6494,-61.9043,-31.9426,-67.0825,125.2583,-119.1162,-34.2524
74.2782,-46.6483,196.2640,9.0858,106.8123,-58.3517,30.7624,-84.8830,52.3509,-4.0995,39.6275,-33.2267,-46.8532,9.7972,-10.3475,-9.5353,115.2047,-104.8288,-14.5949
54.4123,-54.2752,148.5987,-6.5655,129.6339,-63.0160,22.3470,-41.5460,83.0398,47.6420,20.1546,-40.0954,-56.1345,4.0247,-8.8427,4.8432,74.0972,-96.4310,-43.0465
24.9632,15.3526,113.2284,58.2510,145.5314,11.3684,-17.6252,42.0454,47.0753,158.4778,2.4900,14.1562,-55.8605,10.2580,-21.0207,38.4845,55.9900,-6.8633,-62.6382
4.8607,74.1656,122.0819,136.2252,169.1426,112.1603,-18.7801,144.2448,38.2051,267.8849,-3.7165,77.5659,-49.7419,64.6635,-20.2689,100.8731,33.9636,86.1263,-18.5193
9.0421,48.4780,134.3256,116.8017,204.6572,130.6454,9.8255,177.0662,72.0457,255.7659,5.6936,73.2331,-30.3232,105.1264,-2.4479,125.2294,15.3405,67.4002,55.1371
36.5942,9.4562,154.7616,60.8555,238.3871,93.2263,37.0526,154.5275,90.6625,199.6833,25.2079,42.2879,-21.5940,111.9621,5.0752,112.1422,50.9902,10.6369,94.9505
49.6510,-7.1784,190.9775,44.9105,243.1796,66.6347,64.3611,131.8223,68.1325,159.9722,28.7486,25.7903,-59.0773,90.0519,-13.0403,88.2542,83.1980,-12.5188,80.1644
31.4428,-36.8243,187.8520,12.4732,213.7306,30.2990,68.5077,94.2467,26.0122,94.9875,9.8411,-0.2268,-102.0049,48.8618,-34.8464,53.0737,40.4858,-48.3456,48.0008
22.3286,-47.3589,151.5524,-30.5971,204.5722,-8.5424,45.5609,57.7124,-0.4355,54.3444,5.7622,-13.9788,-80.5907,40.9401,-33.4369,36.5499,8.2950,-68.6294,43.0738
42.9164,-14.6785,164.9495,-2.9018,251.5357,0.5517,45.0572,57.3770,2.8184,43.8620,32.6953,12.7409,-29.7096,71.7239,-17.1807,46.1628,63.5581,-31.0694,47.6747
57.3958,-15.2119,211.3374,27.2925,279.8444,3.4552,60.4245,20.4225,5.1004,-55.2757,48.4623,13.1415,-38.3204,52.5499,-17.1480,14.2089,111.5649,-43.2766,20.4379
44.8299,-73.8710,201.7512,-35.8046,222.5437,-81.1107,34.7768,-103.3795,-8.1373,-183.4001,27.1017,-53.8460,-83.3615,-44.2780,-33.7221,-70.5802,69.9060,-142.4466,-17.0353
27.1095,-99.9914,154.3516,-92.3225,154.1000,-180.9008,-12.0371,-193.0330,7.0389,-155.5346,3.8865,-102.7267,-69.4645,-114.4113,-31.5410,-112.6598,6.1765,-170.6224,-21.6874
18.2600,-53.3278,139.2199,-47.0345,161.6783,-173.3652,-22.8067,-140.7540,53.9420,-22.1804,5.4792,-67.9049,-9.9171,-82.4214,-5.9827,-66.7565,-10.3400,-71.8595,-4.8573
8.5086,1.9003,141.5409,14.4983,204.8414,-77.5664,-9.6618,-15.8375,71.2694,59.2930,7.5484,-8.5851,0.3195,-20.6685,3.6554,-4.1448,-3.8433,18.3013,8.1118
-5.3632,17.3807,126.4480,25.2520,215.7406,-3.0951,-8.6206,67.5914,68.6481,96.0640,-7.2934,3.5521,-40.1140,-34.0507,-9.4155,6.4642,-3.4531,32.3142,17.5444
-10.2377,6.4672,115.3417,28.8725,204.6815,3.2865,-11.3863,84.0546,107.3344,114.5367,-16.9631,-17.7302,-59.1705,-91.3665,-9.8712,-16.9173,4.2297,20.6740,16.6966
5.5292,-7.0409,132.4976,37.0450,210.4828,-16.0826,7.5721,68.0790,152.9330,75.6027,-4.0147,-23.9722,-51.8916,-76.4493,5.1259,-16.7176,31.5070,7.9114,-0.7050
33.4447,-17.4517,169.3152,19.9453,246.1899,-13.4845,45.7357,54.1776,144.4234,24.9847,17.6632,-9.9296,-51.9802,11.8502,9.7678,17.3818,59.9364,-10.6025,-14.9984
48.3933,-31.8615,194.6278,-22.8534,293.3313,-6.0246,64.9509,40.4311,111.2946,20.9753,27.2757,-10.3418,-45.7848,55.9181,5.7887,34.9140,55.4375,-32.8045,-17.3860
40.1971,-51.4580,179.0436,-81.0357,311.0559,-33.8171,43.2221,2.9475,69.9340,-1.6026,24.0770,-35.1165,-15.5344,21.1537,3.7363,5.6616,15.5830,-63.6819,-25.3076
26.8174,-59.7675,144.4753,-125.2718,281.0209,-74.5665,15.2662,-44.7048,-12.5689,-83.8884,25.0707,-46.9939,24.0074,-4.4851,-1.1308,-30.2975,-19.0877,-87.4932,-47.6265
20.0620,-44.9192,132.4964,-109.4737,233.3666,-77.8446,3.3704,-65.7337,-91.8630,-141.3237,33.8278,-25.0269,57.7373,16.8901,-4.4301,-31.9742,-29.6979,-77.8473,-77.5316
6.6305,-20.1941,118.3539,-54.5079,209.4326,-48.3111,-17.9765,-62.9671,-106.2498,-125.3379,29.5843,0.0412,68.4180,20.2823,-4.0214,-23.5686,-41.8866,-48.9160,-94.2301
-16.7702,-2.0831,69.3787,-23.8197,223.2990,-12.6095,-34.3269,-53.6099,-106.0723,-96.7880,10.1675,6.6451,52.6962,-22.4719,-12.8046,-37.7479,-59.8600,-16.1046,-68.7411
-26.1642,7.3269,32.2568,-11.9784,252.0666,30.4589,-3.0538,-28.7565,-127.9863,-88.2239,6.1034,14.9156,51.2377,-42.0728,-20.2250,-45.6770,-55.5765,26.9186,-15.3310
-10.3543,0.7128,43.8379,14.0731,262.3432,64.9991,44.0826,4.5419,-110.1715,-67.4027,23.4317,28.3608,71.8568,1.4926,-7.8315,-15.2378,-29.5305,43.0187,12.2131
9.4126,-27.0976,67.6392,27.6997,263.5312,53.9069,60.0136,13.3123,-55.2535,-55.4061,33.2098,19.4777,57.8299,34.9862,0.6799,8.8158,-2.1947,0.0015,11.5845
17.1388,-44.4413,84.5927,8.7466,285.0793,15.0903,70.0376,-1.3834,-44.1159,-99.5500,31.0196,-5.9931,12.0659,-7.0761,-14.2585,-24.5966,32.3219,-30.8980,25.1565
21.2185,-25.2962,108.6326,0.2985,301.7891,7.9309,89.4278,-10.4246,-65.1882,-142.9029,34.3091,-15.2769,-2.9811,-79.3157,-26.7882,-78.2513,78.2746,3.6536,43.1346
27.4166,-11.1126,127.0140,27.4651,274.5017,36.0878,84.7831,-19.8858,-58.4425,-128.8871,37.7223,-17.3033,0.7952,-127.4631,-25.9766,-103.5078,109.6108,15.9031,27.9882
27.5220,-29.7613,136.8127,58.1562,226.0491,55.2903,54.3382,-49.8107,-52.4546,-137.1751,34.1842,-30.1336,-11.1951,-158.4184,-28.5299,-119.1168,108.4614,-42.4204,-6.2384
15.0544,-17.5517,153.7424,78.0875,185.1103,66.7799,20.5179,-67.0507,-83.5630,-189.8496,32.2219,-17.6940,-5.3080,-158.9682,-28.8271,-127.4109,83.5443,-53.9173,-32.7670
-6.9456,46.8635,149.9067,107.7387,141.4406,102.8037,-11.9721,-29.8806,-110.8301,-164.2375,24.5741,32.0823,14.8050,-119.2888,-22.7629,-97.3064,49.2067,26.9203,-53.5275
-22.5832,64.7182,109.5203,127.3489,107.2892,132.3526,-24.9328,18.5133,-101.7786,-89.8520,7.6283,47.2386,-2.7028,-109.0344,-26.9131,-70.3574,29.9630,54.6964,-56.8960
-10.0828,10.3254,93.4065,89.0746,113.7008,100.3494,-0.7467,8.5049,-71.6695,-137.8438,12.1383,0.6780,-16.9503,-152.1958,-26.9102,-102.8440,55.9582,-15.3931,-25.9937
23.6547,-5.2308,129.9768,22.2088,151.0286,45.9477,42.4790,-32.8095,-34.9238,-241.8896,44.7137,-28.3816,31.4115,-166.2525,-0.2425,-142.7945,112.3045,-19.0345,11.1921
37.2695,40.3399,155.5548,10.5037,190.4755,45.9400,81.6343,-40.5463,-12.6530,-214.1183,58.0603,-7.2305,71.1711,-148.3612,18.2967,-138.1114,136.7032,87.6133,16.1821
14.1732,50.3753,131.4526,52.7808,214.1057,77.1129,93.1555,-33.1287,-35.7813,-125.8540,31.7308,3.3883,29.6826,-176.7077,-6.9967,-133.6708,104.7951,133.9202,-4.3946
-10.3870,18.2711,92.9784,70.2573,212.6926,74.7400,58.8266,-46.5702,-93.1470,-117.0581,5.7950,-10.8299,-25.1185,-210.6448,-43.2994,-144.4626,63.5545,65.7734,-25.1480
-9.3249,6.4205,72.9815,39.5555,205.2358,48.9089,17.9490,-55.7353,-135.1548,-133.0310,10.3226,-12.8420,-2.6926,-180.1960,-45.3342,-132.1139,47.2152,12.4212,-49.3334
-2.3032,-1.1145,68.6142,-1.4265,206.7864,21.6372,8.6583,-64.5982,-136.9398,-154.8035,28.6512,-17.9369,78.8220,-158.5421,-17.2253,-128.1095,28.8835,6.8013,-96.2568
-11.4963,-24.1372,55.6560,-35.2748,183.0778,-26.7112,-9.9101,-117.1143,-126.6319,-253.7141,32.2901,-43.2324,128.0849,-190.6711,5.0209,-166.6699,-9.3904,-21.6471,-152.6904
-26.7448,-23.5423,14.3818,-59.0428,127.7291,-74.5975,-50.4814,-168.4391,-148.3230,-329.6849,14.9146,-46.5781,92.4399,-178.7466,-6.2213,-176.7063,-39.5448,-52.0359,-173.7606
-32.0175,-13.2969,-26.9954,-68.2992,94.5888,-81.8136,-59.3290,-142.3046,-191.0864,-254.5092,-5.1126,-23.5635,25.7122,-98.1808,-37.0624,-116.9363,-54.0582,-54.8519,-153.8193
-27.5291,-48.8652,-24.6190,-95.8849,86.2506,-98.8525,-54.4092,-99.6934,-190.1621,-160.3833,-10.1623,-35.4730,10.0803,-53.8696,-44.8214,-70.0542,-79.5252,-103.0124,-140.5213
-19.1695,-104.4700,-3.3640,-174.8811,65.1578,-178.7647,-82.3825,-137.1782,-137.1234,-200.4413,-3.8739,-89.7610,46.2001,-75.5172,-20.0373,-91.8385,-112.8645,-195.3937,-148.7529
-17.1118,-113.7485,-21.2597,-246.8369,53.8800,-240.2274,-99.4221,-194.3273,-110.0860,-261.5419,1.4091,-117.0016,97.7402,-92.9219,5.5382,-122.1614,-136.3360,-203.7661,-151.8333
-33.8514,-72.4591,-72.8085,-212.9322,58.9936,-191.4689,-94.9169,-172.3688,-142.1323,-201.2779,-4.0522,-78.9045,132.5377,-69.7857,8.7128,-97.6372,-159.8792,-116.9943,-160.9441
-57.4792,-25.5387,-109.6230,-94.7866,28.5854,-96.2348,-122.3411,-125.6623,-162.1032,-113.2221,-26.2154,-19.0229,82.9037,-24.6640,-11.5225,-43.6682,-171.2766,-70.3354,-188.8693
-60.5890,-12.1464,-113.6793,-27.8846,-11.4097,-61.8737,-128.0908,-134.9207,-108.7115,-130.1030,-51.7224,-1.4081,-45.2865,1.9294,-35.3554,-24.9037,-142.2114,-84.8793,-181.1262
-53.2002,-32.4840,-101.7968,-61.4961,5.4039,-71.4865,-57.1699,-136.8712,-16.7810,-173.5840,-59.7879,-29.9449,-102.1781,-21.6885,-28.6227,-46.3844,-122.9660,-65.2217,-114.6937
-63.1194,-60.8886,-95.8815,-112.8820,29.6879,-70.3799,-21.9610,-75.8853,31.2843,-132.5286,-55.9363,-60.0968,-36.0232,-62.8701,2.0541,-55.7882,-170.9542,-45.1206,-65.8350
-63.2733,-92.1278,-97.9522,-147.1707,13.1957,-92.0096,-62.2651,-46.8952,8.5391,-104.0496,-46.9795,-78.3960,16.4905,-59.9913,11.1104,-44.9573,-200.1348,-115.4863,-72.1395
-17.3069,-110.8702,-84.2980,-185.8574,31.9744,-140.9957,-28.5198,-90.6340,-14.2955,-166.1884,-18.2903,-90.3565,6.0775,-22.2089,2.3051,-48.8977,-107.4164,-160.7252,-65.8730
28.0258,-65.6072,-42.6121,-155.0623,105.1087,-106.5541,92.0787,-71.5730,27.3992,-154.1194,15.1944,-62.6936,9.9405,-3.6884,11.9814,-47.7031,24.1462,-28.0570,-10.5555
16.6059,24.4468,2.3357,-9.1942,130.1222,36.5677,134.0439,57.8456,82.1362,2.5278,15.3910,10.0908,15.0972,-4.5484,23.5414,-4.8138,60.4024,147.8617,42.3552
-13.3579,67.8884,18.8767,107.5793,91.0069,142.2029,86.3186,153.7740,79.7942,90.3960,-1.4150,64.8968,-12.8936,23.6948,15.8038,47.3845,29.4463,174.1011,56.3636
-11.1108,60.7174,1.9998,101.4387,77.3029,145.6009,71.5387,153.5451,49.6363,28.4071,5.0098,78.5348,-12.8761,85.6631,15.2885,71.6194,24.5326,132.6163,50.2635
5.1926,42.0181,-18.0647,67.4522,108.3915,124.2243,91.5757,114.0352,24.7953,-40.1237,22.2712,68.5954,17.5023,99.8482,20.3520,58.6139,47.1027,110.7253,40.7838
20.2648,-25.6445,-0.8424,20.4845,137.5697,66.4390,86.5113,11.7103,-12.9685,-115.6151,27.5841,3.5493,8.3470,4.1533,0.9229,-18.9920,64.3682,-1.8616,27.4029
44.6222,-103.0218,43.6332,-89.4142,152.2559,-56.2230,75.1300,-125.8224,-21.1302,-207.0038,29.2025,-90.3534,-21.1998,-108.8125,-17.8961,-116.4464,83.2556,-135.0434,28.7958
56.8626,-59.7652,62.4458,-120.5791,160.7364,-92.3106,90.6470,-112.3703,60.7039,-113.5319,24.8906,-88.3056,-30.5808,-108.0275,-4.9127,-105.9674,111.6016,-45.3352,72.9813
44.3704,31.2923,52.9631,7.2619,165.2290,22.3897,128.2787,40.5876,168.3905,119.9486,11.8949,-14.5293,-43.5977,-62.7839,12.1744,-21.1249,137.0486,142.8379,133.2398
39.9295,-9.2827,56.0495,78.2704,172.1725,80.3969,167.1158,69.8183,214.3519,136.9395,12.9544,-33.4583,-42.6213,-126.9599,18.8616,-40.9831,144.9638,121.0204,136.3331
45.2047,-85.7119,62.7231,15.5658,176.6414,2.4608,169.2511,-42.1638,210.5866,-41.0875,25.5296,-105.6833,-1.2962,-227.0275,31.6745,-137.5138,131.8298,17.3079,75.1541
36.5119,-19.5374,53.4967,39.3162,163.0669,-18.6262,125.2329,-59.7119,169.2821,-74.4563,27.4337,-57.0263,15.9461,-175.6327,31.9807,-120.5001,132.7165,82.6188,33.4071
44.9539,78.1097,74.3456,169.5187,137.9397,63.5511,95.5071,20.3529,94.8974,7.0732,39.9983,54.4301,-13.4382,-22.9468,9.2500,-15.5143,195.3261,159.2367,61.1207
92.7430,65.9144,145.9214,206.2750,133.2663,104.9924,128.4320,42.2393,77.8347,8.2784,79.8682,67.5179,-8.0547,33.2277,7.9076,13.7341,291.7614,108.5346,127.6211
123.2900,46.8017,200.5086,177.3887,172.5310,113.2400,188.3743,45.9504,155.0218,38.7943,104.1256,32.9212,38.6720,-22.6455,36.5462,-17.4425,341.1008,127.4368,199.7699
103.5541,88.5727,201.2601,223.7954,230.4009,165.5529,217.3745,103.3014,204.7054,147.6805,88.3896,50.3688,33.5102,-71.5213,39.6540,-18.7925,332.6364,244.1746,256.6739
80.5952,92.5742,195.8252,285.0046,250.6078,193.1294,217.0593,137.0294,165.7001,143.1716,68.9657,69.5857,-38.4655,-76.1131,5.7281,-11.9581,322.9923,243.2661,271.1330
88.7429,38.6174,214.7655,272.7337,229.6243,147.3380,226.6618,110.4992,127.1789,39.5283,73.5151,50.1647,-84.3776,-49.4120,-13.8862,-14.6422,328.2087,141.1522,251.1368
108.5101,-4.7142,231.2086,219.8322,212.7625,86.9554,233.8314,47.9330,122.4072,-11.4389,88.5245,23.7949,-56.6533,-18.8105,-3.1935,-15.6219,319.7254,76.4303,221.8822
102.6999,-21.4842,206.6902,165.6953,192.2124,37.7774,182.0363,-51.1988,104.9115,-61.6082,80.4535,-11.2502,-34.0229,-76.1067,-1.3798,-67.1568,285.5694,28.1839,176.2902
45.7258,9.9150,121.3140,162.3030,131.1364,30.2822,92.5932,-80.3710,86.7628,-94.6240,28.9037,-26.1434,-84.2479,-201.5364,-23.7713,-137.8168,220.6500,42.5089,131.3573
-27.6965,92.9861,17.3171,236.7981,75.1906,113.5275,56.4255,61.2993,82.8213,41.3260,-23.8508,41.4602,-115.8615,-182.7255,-32.9181,-79.2625,123.9588,189.2947,134.6925
-45.8698,115.4810,-14.5023,267.2928,91.1145,191.4838,77.7509,193.2249,57.2010,179.7425,-17.6781,114.2561,-40.2880,-4.2024,-7.9225,59.3650,36.4647,261.3475,155.7120
-25.0905,30.8256,19.7797,169.9519,130.8558,135.9537,75.9826,136.7782,21.6013,71.9833,10.8250,73.0091,31.2162,46.8086,12.1404,61.1378,-9.4509,123.4330,120.7232
-41.3725,-30.2861,-2.3910,70.3999,93.6427,22.6192,24.8959,50.8845,5.6037,-58.2190,-11.5225,-7.1908,-5.4270,-75.0289,-5.2633,-34.7775,-47.9084,5.2981,48.3908
-69.7088,-21.9172,-97.6824,55.1054,-11.2107,-36.4923,-37.0058,62.0861,-30.5576,7.8233,-49.4068,-12.6911,-63.7653,-89.7327,-36.4789,-26.3676,-81.3275,-10.4099,1.6387
-39.0029,-49.4798,-125.1532,45.7032,-68.8581,-80.3888,-64.5841,12.1964,-98.6505,-16.8437,-34.2965,-5.1853,-86.2844,15.9745,-57.0968,20.2863,-41.1695,-116.0966,-17.5646
2.7937,-92.4474,-52.3390,15.8831,-32.5265,-117.4911,-39.1810,-119.7595,-134.5487,-238.9731,-4.2627,-34.6846,-116.8994,9.6064,-68.7770,-40.7401,34.0706,-220.9774,-32.5741
-26.6512,-28.0046,-29.1993,22.3930,-6.8014,-68.5865,-27.4561,-111.5335,-119.5445,-239.5284,-25.5835,-12.6612,-125.6140,-47.2755,-64.8264,-72.9045,-2.8799,-91.0364,-53.6014
-85.5541,95.4363,-108.7058,67.5082,-74.2102,34.9176,-99.4484,48.7032,-86.9478,57.7806,-74.5846,75.8374,-106.9828,31.4993,-50.3108,43.1714,-116.6820,99.5827,-73.1679
-90.3581,138.5829,-159.2858,119.1245,-136.3696,86.6536,-156.9925,140.7935,-39.4390,175.5638,-88.6439,124.1513,-145.7497,133.0657,-48.6283,134.6759,-108.9154,106.3419,-46.5305
-54.7643,106.2090,-120.7365,148.0896,-91.3150,83.0282,-87.7436,108.9407,16.1281,10.2812,-58.4033,102.4625,-175.4388,105.5807,-42.2708,86.2387,1.6270,66.5344,24.9947
-45.0667,75.7512,-87.1552,130.8450,-32.5710,65.5955,-12.0359,68.0921,45.7265,-55.8920,-34.7189,67.4937,-98.6907,25.6160,-13.3495,22.4133,10.2017,103.3804,45.3330
-71.0793,64.6144,-106.6100,93.3419,-69.4904,22.5506,-67.7237,62.1481,33.6291,32.8157,-60.0323,44.2020,-88.4819,-16.3106,-18.7331,17.3815,-69.4688,83.8577,6.7083
-79.5614,63.5509,-122.9233,49.8149,-128.4993,-45.9397,-145.2523,60.1611,-26.9235,9.2227,-91.6970,30.8351,-225.3527,-16.4500,-77.9646,13.8294,-55.8334,-14.2015,34.6319
-37.4660,38.2362,-96.3840,-26.7113,-111.0321,-101.2375,-108.1352,35.7860,-103.2881,-116.3180,-55.5542,4.7759,-224.0182,-19.8379,-95.0204,-25.7740,42.2735,-77.0444,122.9219
14.0591,-49.1859,-38.1768,-74.7160,-57.3119,-130.3503,-18.6964,-15.7990,-91.1587,-156.2918,16.0176,-64.2214,-23.3907,-105.6660,-35.8001,-94.2156,89.1543,-120.5438,124.0139
23.5734,-126.1988,11.0692,-33.2811,-44.2912,-151.6038,14.5086,-54.5090,9.3761,-129.5490,22.8860,-114.9787,2.6940,-168.3507,-10.2401,-117.8460,73.0737,-182.6123,56.7165
12.4380,-110.0776,13.2102,-28.7233,-65.0015,-185.1915,-4.7951,-65.2597,24.5949,-159.3008,-30.1912,-79.0586,-241.8710,-19.9063,-73.7691,-36.0104,59.1454,-225.9004,76.4297
29.0813,-97.2292,13.8121,-146.5041,-45.0986,-234.9141,6.1991,-113.6574,-84.1309,-260.9433,-43.6985,-62.4442,-377.9166,108.0527,-131.9628,-1.1610,77.0210,-265.8236,173.2324
58.9260,-166.0661,82.7659,-222.7029,54.3496,-257.1298,91.5785,-186.8994,-121.7594,-331.6206,2.8120,-150.9521,-238.0344,-94.4459,-109.2978,-144.4618,119.7055,-281.5983,209.2552
46.8872,-166.1965,139.2226,-144.4240,140.8661,-191.1151,150.3361,-155.0777,-33.3586,-264.2300,14.9754,-179.0787,-135.4331,-285.8490,-69.1313,-230.5322,124.8443,-175.8399,156.4424
-14.7133,-25.2432,58.0162,-46.7878,99.0440,-66.5825,71.4593,-32.6427,4.7789,-136.2680,-62.3016,-42.3153,-316.2987,-75.3470,-101.0988,-67.3036,39.4075,-34.5006,89.0002
-64.6861,51.0762,-73.1589,-56.7359,-1.3821,-8.3708,-33.9297,4.6245,-46.2583,-114.8920,-145.6338,54.3858,-549.4637,177.1280,-165.3076,88.7233,-62.2239,-46.1217,55.2430
-49.4026,-34.5306,-81.3324,-127.9203,-8.5185,-67.7237,-13.5268,-65.0703,-46.1968,-137.7852,-133.1604,-20.1186,-494.4228,98.9497,-154.0421,33.4054,-76.0671,-140.4915,47.2127
-3.3301,-96.2481,-0.9350,-157.3624,58.0497,-131.7384,41.5053,-112.6407,-5.4594,-91.9021,-64.3206,-94.4832,-263.2382,-49.9906,-88.1024,-55.1991,-26.5970,-141.5114,22.4708
2.5513,-42.3599,31.2798,-110.0631,89.2311,-105.3311,13.5278,-130.1023,-63.8631,-126.7481,-42.8741,-55.3043,-209.1081,-50.7849,-84.4944,-68.0343,9.3607,-92.0363,-37.3175
-20.4140,6.8043,20.0257,-54.8631,83.2010,-71.6016,-17.2316,-168.1270,-191.5866,-277.6729,-59.7561,-4.5231,-301.3873,-28.4915,-135.5276,-84.2819,20.2553,-82.2179,-86.2468
-11.3992,-4.1404,29.6733,-76.5704,75.3271,-121.4202,-1.6392,-176.2331,-231.2497,-280.5384,-47.0617,-10.0550,-274.4181,-17.8319,-138.0839,-84.1455,27.7857,-84.8833,-86.5982
23.8960,-32.4550,43.4381,-157.8951,61.9170,-189.1797,-3.1886,-165.7581,-159.8103,-169.0161,-22.0329,-53.4754,-186.0934,-26.0283,-100.6387,-75.9727,52.0372,-110.8705,-59.7775
46.5438,-62.2945,43.7159,-230.3886,66.5164,-211.5698,1.4786,-237.8891,-82.7718,-244.2050,-21.0490,-115.2644,-207.2788,-119.2344,-90.2391,-151.5635,100.0722,-164.7430,-30.4810
59.2151,-56.5173,54.3514,-251.0405,97.2914,-216.8080,46.5819,-317.4484,-58.4250,-358.4677,-11.8756,-126.4924,-205.3632,-150.0398,-79.3675,-202.1334,131.4324,-128.7415,-14.6919
60.2365,9.7165,64.2393,-184.8340,101.6018,-176.8387,61.7116,-244.0265,-72.7718,-216.4592,15.6314,-51.4177,-75.2704,-41.6049,-40.6683,-114.5489,112.2579,12.8745,-32.8902
32.7976,52.9634,50.7631,-76.7986,81.4814,-56.7652,52.9826,-101.4691,-107.5814,-57.4972,17.6099,6.5326,-3.8715,-26.2947,-29.4879,-56.8837,78.5125,97.1212,-59.2018
4.0685,35.2335,30.0483,-48.7788,85.2975,42.6843,83.2185,-52.2001,-148.4746,-122.0340,-2.8338,3.7289,-62.5453,-84.8949,-53.9997,-87.3369,55.4756,81.7210,-53.4297
-0.2680,48.6275,12.8887,-65.2523,73.2817,54.8446,69.4657,-39.1812,-169.4108,-161.6498,-6.5806,35.3626,-84.0896,20.9605,-55.5343,-34.4406,27.8489,72.5326,-43.2158
-8.5807,99.5594,6.6521,24.1844,0.9546,55.5750,-38.3900,11.9840,-139.2598,-65.1186,-2.8507,83.1648,-44.2936,82.3450,-37.0613,27.8671,25.6867,73.9989,-44.6615
-29.2738,85.8961,31.6376,146.3720,-58.0014,61.5256,-92.5014,27.6409,-45.0263,-30.7804,-11.6531,38.5362,-39.8705,-129.8284,-28.4739,-67.2447,59.1630,43.8886,-9.8595
-33.1281,17.4044,48.7159,129.0343,-48.4904,21.9696,-39.5446,4.9035,76.7728,-22.2408,-15.5885,-38.4805,-13.8059,-267.4631,0.5661,-138.5610,38.2473,27.9928,33.7335
-26.6146,-24.0581,2.0235,74.7628,-30.5225,-19.6114,-20.1756,11.4856,161.5111,64.0359,-7.8052,-41.4968,72.8476,-136.9853,52.0090,-49.5024,-44.2554,22.7865,-5.1899
-25.1954,-40.2779,-46.3723,148.2645,-44.0280,-27.0505,-64.8696,2.3895,188.0877,84.7315,-4.0150,-18.8559,87.0453,-54.1358,62.7989,8.2907,-51.5655,-32.1231,-86.5238
-9.5491,-42.1152,-21.8063,241.4631,-53.4936,-38.4599,-72.9109,-28.7553,182.5594,51.5530,0.0313,-8.9464,13.2265,-58.9110,33.8249,1.0798,27.8475,-75.4545,-92.9317
15.4255,-19.1654,12.5999,239.3265,-37.4118,-22.2616,-29.6952,34.0503,172.5994,137.4889,19.3362,25.9165,21.5358,42.9531,35.3102,71.0695,63.8280,-29.5376,-19.5958
20.5927,-21.2913,7.2786,247.0575,-5.0409,49.7753,33.0959,164.0110,190.5188,228.7758,47.5711,43.1215,126.4056,76.7361,72.1485,116.3579,62.3632,31.0672,78.6269
12.8871,-51.2548,20.0755,317.4880,20.4659,91.6403,98.4699,220.1143,239.5233,202.7561,58.8511,18.8050,150.8125,-36.0580,85.2828,61.4685,94.8289,51.8058,164.7312
-1.5955,-10.9392,35.7114,353.9901,-9.1023,97.9586,92.2904,237.7275,236.6566,232.9900,30.9032,56.2997,44.3961,21.5449,54.9169,102.9740,84.7314,92.3985,174.7289
-33.7918,79.8715,-16.1169,331.2936,-100.1419,154.5686,-4.2270,303.8927,134.8973,342.5746,-15.8820,150.6285,-57.0805,225.9888,13.1930,241.8062,-2.7562,126.9545,115.6600
-42.5918,77.3781,-54.5045,288.6140,-161.4215,192.3229,-54.8067,337.1416,56.0071,338.6686,-20.0558,150.6223,-47.3297,232.2850,1.2533,247.7130,-25.5722,67.6715,122.6966
10.5817,-13.0316,26.5504,227.5818,-116.4016,111.7342,15.7926,280.4450,104.9484,250.4359,34.8666,60.7035,45.3956,116.3816,33.5201,154.5896,60.5949,-20.6197,218.0528
55.3598,-60.8174,117.3014,179.3916,-25.7862,20.9103,95.5015,220.4131,166.8653,191.3515,80.2165,18.2829,124.0106,103.1207,69.7086,121.7124,108.1133,-26.0940,245.3947
16.9562,-46.6456,62.5018,173.4349,-4.2005,27.9442,87.9931,195.3506,106.2728,117.0960,57.3758,24.5396,119.5802,58.5125,56.2197,83.9880,48.5409,15.3153,170.3470
-43.2111,-32.5845,-58.6357,161.4927,-47.6541,60.1512,43.9951,160.4618,1.3416,48.1670,1.9763,8.0672,41.5816,-81.2845,4.4350,-3.2493,-9.5236,24.0790,127.3633
-27.0568,-43.3251,-53.9304,121.8251,-43.6290,40.6844,51.6216,96.1663,-26.2187,14.6836,-5.6233,-17.7414,-27.7626,-120.8185,-26.7631,-42.4326,34.4061,-13.2244,142.6287
43.7895,-81.0016,83.5329,89.5300,44.2304,-27.1226,112.7315,-0.9257,-24.6340,-101.6261,50.1362,-35.8050,-8.2254,-67.1009,-18.2088,-54.5074,136.2782,-77.7304,130.2205
68.7628,-92.0731,171.2388,74.2086,115.7673,-96.8429,139.4892,-77.5698,-80.5310,-227.4448,89.8487,-42.2915,58.8554,-73.7358,-9.8367,-96.2762,169.1298,-83.8916,94.2952
15.3278,1.8007,102.6446,98.3720,99.5996,-55.8653,85.0409,-10.0394,-149.9837,-122.5846,52.0469,11.4673,51.0897,-92.2009,-31.4643,-81.9093,107.3406,52.8162,91.9515
-40.2121,117.2951,-7.2019,173.6629,59.7300,111.7236,41.4429,168.1431,-156.6291,77.3066,-1.2697,94.9315,-16.9731,-68.8566,-54.3288,-10.0485,71.2138,207.9493,114.9200
-29.3665,99.2751,-1.9375,205.8483,73.6140,200.6066,83.6258,228.8636,-125.3523,63.6523,10.6633,89.1701,-16.9521,-99.4656,-45.9700,-19.6534,116.8398,192.1466,124.5168
7.6205,16.6285,77.5865,145.1103,108.5450,107.5756,118.2233,110.8109,-116.0813,-52.6940,42.7074,19.1959,26.7997,-158.1147,-32.4721,-88.3714,142.5303,87.3740,94.4059
6.1288,21.6176,72.6781,89.7607,93.9209,12.1768,68.0155,9.2411,-110.6057,-27.2509,22.0590,12.7248,-4.2883,-109.6282,-40.7406,-70.0947,91.6015,72.0700,36.1581
-10.2896,37.9665,-30.1756,71.7655,48.5041,18.8325,29.2351,21.6965,-56.6350,60.9909,-11.1121,33.6190,-48.3483,-13.2825,-37.6605,3.9634,37.4165,81.9553,27.0663
-2.4354,-43.1885,-98.9445,22.6721,47.6487,24.7949,71.2695,54.3182,19.1221,92.3555,-0.3292,-17.6992,19.2998,-23.2420,-0.4299,10.8178,12.5826,17.3927,96.0007
-1.0270,-114.8743,-92.9294,-41.4825,84.8311,6.5078,104.9969,67.7075,39.9992,115.2963,18.3258,-72.4980,129.7531,-78.3255,34.5983,-14.4354,-40.2167,-25.4553,138.6099
-26.2001,-96.7135,-104.1762,-107.0607,76.6746,18.2649,69.3300,93.3910,1.1610,113.9540,4.9404,-56.4254,158.1920,-29.5882,42.8647,14.0139,-131.8677,-10.2949,97.4568
-39.8814,-81.5268,-167.4391,-231.1422,15.1272,16.4456,22.4466,96.0250,-48.4427,41.3210,-15.8973,-48.6259,127.6857,52.5489,36.7556,42.8302,-192.3544,-42.8661,64.2471
-27.7393,-101.7991,-207.1101,-344.8220,-19.9353,-23.0808,8.9129,44.0492,-113.9137,-28.6432,-17.9593,-88.6235,109.9605,14.3183,16.7380,-4.5420,-173.0418,-105.7956,82.7695
-10.6812,-109.7111,-176.1627,-350.0478,-3.2367,-57.8564,16.9712,-31.0628,-211.4879,-84.5363,-3.2501,-114.6926,110.3956,-86.6681,-15.0495,-85.1706,-107.8112,-128.5858,77.6906
15.4847,-132.5451,-113.1978,-353.6956,21.3452,-121.4490,31.2963,-127.1978,-274.5081,-204.7153,21.3378,-133.4304,112.9976,-117.4046,-30.5676,-138.0845,-53.6162,-177.6675,24.1318
53.7577,-158.8412,-68.9522,-417.6036,34.5283,-216.3841,29.4837,-230.7864,-242.0751,-298.9861,40.7892,-166.2269,110.4877,-102.3103,-21.5392,-163.3642,-7.2093,-240.9766,-27.3748
74.4336,-103.7633,-56.1160,-399.2101,38.3203,-216.4465,10.0989,-244.9122,-161.6354,-222.3291,41.5541,-146.5265,97.8003,-84.5393,-8.8216,-146.0992,49.1218,-177.9960,-51.4340
72.2450,-23.4992,-46.4251,-296.7776,37.4335,-113.8040,23.4648,-156.8635,-92.7108,-81.2699,38.7084,-78.2782,95.4155,-26.4160,7.6821,-78.5882,75.3041,-44.4025,-42.3767
77.8219,-25.8013,0.0166,-248.5427,62.7404,-57.2229,75.0561,-105.1750,-28.2768,-46.2640,52.4622,-55.1353,125.0826,32.2292,37.0361,-31.2084,63.7109,-5.0721,-17.8091
86.7683,-30.6253,60.4205,-190.3588,109.8260,-57.5792,85.8582,-133.7396,15.9194,-56.7630,63.7549,-52.8547,133.9105,20.6662,47.8569,-39.1168,80.6293,-1.7043,-40.0169
59.4554,40.0392,55.9384,-40.1104,112.6715,-15.3705,32.4818,-129.5189,-4.5888,-8.4281,34.3880,2.0647,41.9961,-6.8640,7.4984,-36.6611,107.2266,61.6079,-114.8775
-1.7741,80.4768,-15.9427,63.9328,63.3145,39.2739,-15.3773,-62.2619,-41.4240,48.3354,-26.5993,48.3681,-95.3075,-5.7236,-45.2276,-3.9872,49.0736,96.3465,-163.2090
-44.9702,46.2897,-64.4885,73.3712,20.7680,38.6509,-34.5371,-12.7821,-6.9283,73.9190,-61.6503,34.7390,-130.6911,-14.2417,-46.8764,14.0548,-47.5209,64.3438,-160.1081
-43.7773,30.7098,-57.0788,98.0069,-10.9409,17.3630,-62.8844,-0.5391,54.6488,102.3363,-51.4976,28.4345,-77.6578,-2.9583,-16.0912,31.5245,-64.2027,37.2965,-155.3632
-29.0462,40.5707,-44.1063,105.1631,-50.5553,1.7855,-97.2677,-2.4502,39.3014,102.2447,-41.7915,44.9720,-82.4706,56.5753,-18.4538,63.1285,-39.8909,1.7387,-167.5928
-32.5054,31.8137,-40.4189,53.4603,-67.2509,-20.4007,-114.6064,-21.6885,-19.4209,36.1985,-50.7737,40.6018,-127.9822,81.3403,-41.4205,61.6105,-57.8398,-46.8325,-175.4306
-40.9278,27.8939,-32.8790,52.2522,-56.7187,-29.1919,-115.1293,-28.7063,-14.5174,-32.9469,-40.1179,33.9758,-76.4624,51.8408,-21.8535,32.8535,-74.4379,-39.6913,-140.7973
-30.9118,3.7416,-42.2160,65.0404,-44.0031,-31.6386,-78.1042,0.8134,47.4485,-59.5272,-5.7016,17.3953,38.9648,25.7894,28.0797,16.1366,-56.4786,-25.0537,-34.5273
-13.6839,-65.7897,-59.1841,-24.4797,-14.4576,-55.5530,-4.2333,19.8187,88.0404,-50.1884,8.4797,-44.6424,82.6390,-22.8905,47.1670,-11.8779,-51.7161,-59.4305,69.1215
-16.7939,-59.0801,-37.9206,-52.4385,1.8625,-45.0965,20.1083,31.8809,91.1469,42.1318,-10.0532,-56.5837,41.9585,-62.0338,29.8635,-18.6664,-62.2267,-21.4235,56.9804
-44.0533,67.2128,-1.0124,112.4200,-71.9777,40.9400,-43.8140,113.2801,80.2458,210.0001,-39.0478,56.2497,-36.4654,35.8803,5.1291,80.1698,-67.9389,111.1184,-7.7822
-69.4324,137.8499,1.5219,232.1126,-173.1834,114.5850,-89.7811,226.6746,69.0903,289.1719,-59.9359,149.0801,-116.4773,183.0112,-12.7508,196.3887,-88.7670,156.0918,29.9319
-63.7979,87.1175,-2.7793,166.8724,-164.4125,117.5034,-40.4271,261.0557,91.2601,209.8806,-51.8443,116.2167,-119.4789,185.8772,-2.9102,186.8353,-93.3298,103.6358,148.9515
-31.4402,53.7947,9.3954,113.8916,-84.6454,116.7517,34.9706,246.5224,172.9619,141.7519,-16.2217,73.6013,-38.8435,131.3092,40.7500,135.8093,-37.0518,114.4747,225.0145
-8.5652,69.6476,-2.7807,147.7143,-61.5764,140.2575,61.6295,269.1657,269.0922,206.0367,2.8734,86.1282,9.6085,161.2959,76.9833,164.2920,11.3779,165.6668,236.4058
-8.0649,54.3116,-25.4166,142.3565,-90.9397,126.3946,51.3822,285.7731,309.5295,295.7598,-6.8700,74.2018,4.8511,168.5361,81.3850,188.6642,-3.5436,149.7083,204.6930
-1.4299,26.3600,3.5244,102.3138,-112.6054,63.2528,31.0714,237.2692,284.4592,285.5691,-1.6916,36.8913,32.1601,108.0979,79.5931,146.8715,-9.5121,102.0202,130.6882
22.6674,18.7205,48.3001,90.9295,-120.2567,7.3135,10.6320,167.3194,233.4189,194.8667,25.1843,34.9001,67.7907,128.0806,81.2380,130.3604,23.6860,52.9106,57.4580
38.0530,-2.3981,39.2834,79.1323,-104.6741,-7.9551,-0.5762,105.8383,183.3656,102.9815,34.7709,45.0414,48.8281,211.5773,69.7197,153.4821,30.8199,-19.3970,14.2345
34.5321,-14.8635,24.5087,81.4789,-62.7753,7.4352,-3.8948,34.2180,127.7588,48.6399,27.4378,39.5520,23.6227,188.6281,47.4961,124.4649,23.6596,-47.5652,-28.1266
29.9551,21.2658,78.2636,133.3705,-26.2356,26.4209,3.4095,-13.0465,60.9042,20.9521,30.5967,41.6151,23.9690,64.0992,23.8182,42.3445,65.9582,13.5356,-51.9774
27.9400,61.8382,164.5303,181.9182,6.3521,40.3800,27.3994,3.8834,7.8947,-9.3326,40.3878,52.3169,15.2327,-31.4218,3.2930,-18.3137,119.5173,82.5414,-23.4371
16.7882,83.2204,208.8752,213.4993,42.2817,75.0349,33.1282,30.5739,-19.2260,-59.3455,43.6665,71.2935,12.0924,-48.8335,-1.8368,-33.1338,119.2042,111.2310,-5.0716
1.3929,113.7740,199.2108,267.9645,36.7233,126.5657,-8.8944,2.4829,-56.7981,-129.2504,41.8259,109.4342,18.4451,-17.1476,-1.6757,-26.5022,97.6449,116.1106,-41.8359
0.7180,122.7104,175.4947,294.9193,-6.3639,135.5992,-46.9396,-54.4014,-112.6166,-197.6920,38.5162,126.9245,-12.2561,11.8417,-20.0378,-26.5591,106.6570,76.1036,-68.5743
20.6058,78.4021,181.2532,250.4470,-21.1475,87.6805,-38.3819,-88.1399,-132.1591,-223.1297,44.6050,97.4882,-37.0080,23.8939,-33.4423,-29.9361,126.4941,-3.9184,-57.1926
42.1496,34.8194,201.9857,196.5220,-24.1387,40.5836,-36.9267,-99.6944,-112.1626,-194.9308,61.2600,71.1890,6.8590,60.9057,-15.4772,-8.0337,115.7237,-66.4938,-55.6094
41.4977,24.4907,173.1598,155.1501,-65.4885,17.9188,-72.7787,-116.7788,-120.6772,-160.5668,58.5645,64.0437,35.3406,92.5962,-7.2594,13.0541,78.5392,-99.7141,-64.9629
24.4093,16.3412,108.0425,99.5169,-91.0801,-4.6519,-80.3453,-153.9105,-158.2647,-168.8446,30.5548,36.4172,-11.9141,32.1340,-33.8227,-27.0279,55.5061,-106.8904,-65.8850
