Fp1,Fp2,F3,F4,C3,C4,P3,P4,O1,O2,F7,F8,T7,T8,P7,P8,Fz,Cz,Pz
95.9886,-8.5664,133.9954,30.5024,106.9059,46.4231,108.5531,36.1569,141.1603,12.9684,125.8619,-15.7792,144.1491,58.3090,151.9059,73.4793,117.4755,-21.3743,146.1727
237.1154,140.9078,261.2754,179.3495,32.0221,58.0319,-179.4169,-343.0800,-43.9619,-232.2041,106.2019,236.7628,-14.6590,141.0544,-88.7568,-142.3594,272.1294,-56.1406,-227.8299
256.0231,255.4830,240.4635,286.8416,-47.8253,2.5335,-368.8905,-541.7391,-184.3192,-260.4584,4.3793,420.4643,-161.2468,131.9359,-253.1780,-266.5674,304.6968,-34.3770,-458.1497
224.5212,291.5976,180.9811,366.2366,-4.6091,-18.5716,-254.0298,-438.7369,-115.0140,-79.2631,-34.6839,439.2594,-137.8506,79.8192,-182.4871,-188.8618,301.4916,2.9935,-378.7000
239.0094,286.9161,169.2415,392.2902,51.4213,-4.1127,-174.6745,-379.2945,-63.3218,-62.7405,14.5703,434.3842,-79.7777,148.3671,-119.7305,-117.7388,312.5057,-28.9414,-333.1984
231.4891,237.9682,127.1012,288.6027,28.8651,-45.1514,-286.8510,-463.0370,-166.9408,-217.7110,35.1184,453.1941,-102.0391,251.1985,-189.4402,-186.9697,252.1886,-103.3562,-401.2481
162.8976,169.0688,43.3286,147.5560,-11.8253,-111.6785,-321.1094,-474.7093,-199.2247,-262.5793,-15.0306,404.4293,-131.1322,188.1599,-224.6506,-285.4546,144.3457,-138.4833,-358.9255
116.4595,147.5017,6.6131,119.5505,-51.1053,-128.0254,-212.8183,-386.9396,-79.2856,-225.3058,-58.7187,303.7147,-120.5993,64.4893,-163.8454,-298.7855,103.3052,-136.1469,-243.6025
120.4473,141.5976,17.6287,129.9444,-98.5146,-131.9603,-150.7078,-320.4881,-30.0826,-272.5042,-42.7370,243.9361,-102.2465,96.2963,-116.0893,-233.0483,109.0017,-147.3249,-192.2589
113.4551,90.7608,10.1291,57.2575,-105.5990,-144.6406,-141.3386,-272.5254,-91.7337,-293.5690,-18.1081,241.3238,-99.6901,193.3819,-134.0027,-165.2676,77.4954,-162.1680,-143.1304
72.7286,54.8360,-23.5161,-5.0839,-85.0688,-105.5158,-94.0349,-202.9126,-90.7766,-156.5834,-57.1301,270.4465,-133.6278,164.6004,-187.8983,-160.1221,26.0335,-138.7104,-78.2274
35.5695,69.3521,-48.2634,19.4203,-100.0404,-54.0395,-45.2521,-134.7516,-42.0430,-19.5981,-116.5783,286.9136,-170.2106,68.2001,-210.3100,-163.1415,1.6439,-115.0386,-65.1089
41.1631,44.1548,-35.6206,2.8206,-117.5439,-102.3959,-38.6485,-108.1736,-60.3904,-61.7339,-86.5640,228.8060,-128.6502,44.4650,-152.0697,-95.7729,-0.1044,-169.3477,-58.4170
87.9610,-34.2218,18.2565,-106.3977,-81.5495,-208.5300,-49.4125,-147.7085,-87.1027,-180.3503,9.8170,136.2629,-48.8052,78.4498,-90.3996,-52.2656,16.4506,-256.3555,-26.2548
119.9364,-58.5486,73.0767,-156.7603,-26.1009,-239.4728,-58.6571,-203.8490,-76.0945,-187.4652,41.4612,116.7757,-46.7380,95.4191,-124.1302,-135.3268,53.3372,-244.2904,-35.1657
96.7414,-8.8756,86.6679,-77.3889,-0.5461,-190.7959,-82.9980,-201.5444,-127.4359,-126.6244,-7.3728,151.7124,-102.3843,77.3353,-192.2413,-223.7595,83.6355,-128.9504,-91.9535
61.2225,44.9956,74.8895,25.1684,-0.6116,-127.4782,-154.4878,-192.0453,-225.4034,-148.3989,-44.9534,169.3841,-128.7675,51.7937,-207.0601,-206.7504,90.6787,-14.0675,-162.1898
62.1572,83.6436,75.0326,75.6002,18.8335,-39.5970,-233.4094,-242.4071,-221.7526,-202.1756,-50.6057,205.6216,-143.1846,61.5216,-224.7230,-195.9396,98.1042,79.8667,-231.5661
69.6231,104.9606,83.4842,95.9493,89.6641,78.6312,-224.1633,-263.3147,-149.3312,-163.5636,-57.8914,258.8625,-182.9601,98.0215,-302.0999,-258.5248,114.8246,169.5011,-243.2114
43.4761,90.7377,73.4770,111.7390,148.3084,154.4769,-173.6624,-190.8670,-166.1970,-115.1727,-57.3794,231.7326,-205.2293,103.4570,-357.8473,-268.1313,109.6342,196.8517,-190.2959
10.1851,71.2515,46.1113,126.2087,114.4014,147.0879,-206.6802,-116.4119,-231.6476,-158.3852,-42.0844,169.2154,-173.6660,90.5020,-305.7433,-165.2413,74.9759,154.6278,-166.0731
11.4248,74.9942,35.7429,124.8935,53.7498,105.8740,-252.8284,-86.6871,-208.0225,-180.5764,-36.7758,209.9151,-123.6390,114.2121,-205.1012,-53.3651,52.9240,129.4904,-174.2609
36.5530,66.1914,61.0038,90.8023,58.2985,76.9285,-190.6190,-60.8234,-156.7342,-109.0993,-41.9877,283.5784,-110.7707,128.0616,-182.2084,-14.3485,65.3982,125.8750,-147.7106
51.1969,40.4951,92.3085,58.8464,69.5693,52.9837,-109.0425,-60.6393,-189.7889,-76.5534,-44.2604,241.1447,-144.8416,72.1025,-246.5562,-51.1134,87.0422,81.9937,-127.8935
60.5057,50.2552,105.1759,81.0830,38.3676,25.7737,-108.7156,-111.8500,-216.5525,-139.0741,-44.5686,164.5798,-174.5143,25.8881,-285.7061,-128.9728,110.4861,32.1760,-149.4746
87.9605,89.4884,118.2600,129.5678,29.7206,14.4306,-138.2590,-155.8703,-145.8849,-174.4560,-31.2433,194.4611,-149.3772,70.0312,-239.3748,-167.3774,144.8523,28.6166,-150.1579
101.8272,100.8844,118.8113,132.9057,33.5578,25.9398,-161.7102,-152.8010,-86.6633,-128.5522,-8.3554,261.4048,-89.8106,127.7167,-155.3101,-126.9172,143.1597,26.9678,-138.1007
52.7496,71.9086,44.7094,66.9730,-23.6172,22.2905,-157.9169,-126.7108,-90.8200,-78.8821,-28.2590,240.4743,-65.2348,97.3799,-101.2905,-89.6932,53.1252,-4.3042,-151.1600
-23.0223,19.7289,-88.7844,-51.1513,-80.7950,-27.8235,-62.2873,-102.9395,-32.8819,-66.0717,-95.1753,142.5791,-105.6761,10.3524,-117.5376,-108.1109,-73.1400,-21.9612,-118.0546
-54.4918,-35.0114,-164.1981,-157.9453,-46.6792,-61.1684,67.4565,-78.5599,74.5810,-36.0287,-118.3519,47.4090,-134.8251,-23.4730,-149.6425,-96.2338,-136.2261,14.5975,-28.5547
-54.0164,-43.5568,-125.4322,-146.6927,23.8693,21.3631,104.1357,-19.8294,60.3687,41.1591,-63.3401,25.2359,-60.2327,42.2715,-73.5850,-20.7216,-115.7189,116.9207,0.6843
-63.4888,10.2392,-53.7888,-17.8697,54.0239,174.1408,81.6744,63.2372,-37.3795,73.1375,-28.8381,86.7878,28.0958,119.3881,36.9066,-2.9385,-61.6877,239.6218,-33.7989
-66.7839,54.9064,-41.1506,70.9107,66.9830,240.3576,85.8583,77.2054,-32.5813,-10.6141,-73.4249,133.8879,-36.0368,96.2859,-41.3831,-78.5529,-24.7995,283.4049,-23.1265
-56.1052,40.1771,-75.6379,46.3458,105.0287,210.8192,103.2769,31.6741,42.8531,-74.2949,-108.6500,95.2931,-151.7012,32.9041,-205.1316,-97.7696,-25.6768,259.8612,34.9394
-61.3218,19.9926,-82.9165,36.5786,174.3526,233.7999,128.1847,76.5820,56.8999,8.6117,-62.7235,58.3847,-97.8386,78.5319,-153.4012,-8.6888,-31.2618,302.4282,74.8909
-68.3635,47.7179,-36.8081,130.3683,255.7471,332.8068,157.9173,195.0326,54.6076,102.9407,-3.3059,93.2208,25.4159,181.3848,-2.9832,37.6478,11.4071,400.2487,94.3570
-48.7346,91.5919,6.9441,236.5058,302.3407,371.4345,144.8739,210.9742,92.9368,101.6112,-2.9231,115.9351,12.8632,149.7766,-26.2053,-12.2890,78.1554,399.7851,103.6042
-36.2623,108.6612,0.0672,266.3589,278.4634,306.6721,124.2939,153.9280,103.8735,135.4639,-22.6783,77.9651,-9.3413,2.4217,-40.0656,-18.5364,91.5653,303.0764,84.6868
-47.9701,106.0678,-22.8048,247.6940,197.1161,217.8498,150.7767,164.0017,75.4187,204.8258,-13.4793,52.4828,92.3455,-59.5799,137.7485,56.1977,56.3193,228.3071,35.0680
-34.1736,98.1863,-13.5512,219.0827,99.8520,124.5943,146.6784,165.3171,55.7989,130.7875,-3.4422,51.6658,118.3189,-6.0618,198.7460,75.2162,48.2622,157.2910,-16.0894
4.7632,78.4977,-2.4659,172.0012,30.1905,5.0701,95.4350,71.9615,34.2903,7.3732,-22.7812,7.8474,-22.4447,6.3434,0.0469,1.0023,67.9870,33.3401,-24.9806
-1.3513,47.8483,-50.3587,98.3347,-9.9619,-92.4810,116.1243,11.0601,34.3755,65.6173,-49.1146,-63.6096,-86.6286,-62.6609,-84.9009,-48.3224,32.9061,-69.2134,1.8071
-55.3164,21.0373,-144.8029,13.0315,-65.5378,-120.5726,177.3952,39.0726,89.1652,190.1454,-55.2255,-91.0697,14.1733,-83.2317,87.6126,-12.8315,-73.1338,-88.2551,-10.5999
-83.2137,6.3206,-200.1685,-43.9030,-126.0174,-103.9170,142.5986,42.3078,93.0442,173.1382,-42.2139,-77.1410,69.6509,1.1824,180.1904,47.2153,-148.9730,-72.3403,-67.4432
-61.4439,4.7724,-161.6311,-29.9126,-123.1998,-73.1197,68.0803,17.5288,4.6019,114.4074,-29.9050,-72.3001,-9.9918,73.1069,41.7888,64.5550,-116.5891,-60.1212,-72.2238
-38.8260,11.1254,-85.9147,27.0655,-79.9781,-44.3342,72.3472,54.7346,-6.7268,127.0176,-36.3147,-95.8550,-87.6816,30.2223,-85.6768,37.2514,-42.2873,-51.4626,-14.9780
-53.6424,5.0942,-74.3745,37.9537,-77.1021,-44.0133,110.9159,123.7530,78.2784,114.9817,-49.4668,-123.6780,-62.2942,-47.9300,-31.9466,21.9111,-42.1533,-54.1090,12.9126
-89.7877,-23.7653,-122.0353,-14.6678,-82.6580,-54.2531,114.4005,160.0262,44.4238,56.8293,-43.3282,-101.7485,14.5881,-20.5953,78.3179,51.5354,-104.9798,-45.2306,10.1248
-104.6493,-49.0185,-135.2998,-51.8104,-28.6513,-16.3750,93.9655,175.7905,-99.7898,49.0735,-30.1795,-16.8632,23.8517,91.1573,48.9665,71.6278,-126.4190,1.1595,39.5810
-92.9985,-47.1445,-111.7661,-40.4172,32.9667,54.3340,68.8222,171.8181,-123.9027,82.4378,-38.8977,41.5477,-54.8508,138.5742,-96.0446,40.2315,-99.2615,41.9836,74.2598
-96.1419,-33.1329,-131.3245,-26.4476,39.4144,84.7092,58.9722,138.8141,-34.8327,102.9240,-54.8555,1.7745,-91.7844,79.4611,-137.7417,13.0921,-104.7830,51.3637,57.6281
-117.7605,-13.9098,-163.7258,-5.1268,38.4458,89.4682,54.4115,114.9324,-16.9191,119.4277,-50.9490,-46.4242,-32.0030,27.2550,-34.3251,26.0061,-126.0925,93.2881,4.6778
-103.4193,30.7313,-106.7295,78.8266,82.8278,148.5625,3.7308,108.4120,-87.0902,102.0370,-38.8545,22.6190,0.1329,54.1947,0.9543,28.9819,-69.6695,191.5216,-45.8430
-46.2998,82.4638,0.7012,181.5199,142.6640,239.0620,-50.4399,72.5205,-166.0658,2.4078,-34.9576,156.4543,-38.0607,82.0421,-82.4226,-3.5476,36.6880,253.0034,-73.8512
-5.9052,90.6204,39.0427,190.1770,161.7787,247.1837,-16.9612,-2.1756,-217.6046,-113.6884,-27.1483,195.0154,-28.8655,27.7327,-87.3501,-47.4722,76.9420,211.5305,-89.6318
4.9505,69.3976,28.4967,125.1805,121.5814,161.5993,34.0620,-75.2349,-199.8428,-135.5361,-2.6826,114.8100,43.4880,-39.4590,22.3352,-86.6266,56.8694,136.5198,-141.1747
27.4982,80.8677,68.6320,122.1135,59.3533,102.5865,-17.5093,-110.1238,-148.3157,-68.8463,27.5158,53.4768,64.5696,-4.8033,67.8030,-94.9906,78.4797,124.4356,-226.1345
59.8573,115.4758,148.3520,191.1704,27.1274,121.2615,-115.3242,-99.5150,-177.8128,-31.8580,38.9270,91.2896,16.5082,77.0681,-0.4526,-73.3633,144.4776,149.0139,-254.2293
67.9442,103.0206,191.4604,189.2978,16.1248,122.5310,-145.7319,-79.9417,-243.5194,-91.0616,24.6541,138.2647,-11.1522,49.7786,-50.3703,-97.1523,165.5828,109.2118,-200.0131
51.8716,34.7806,181.9999,58.9243,-22.0097,47.7610,-114.2510,-88.3014,-206.7490,-146.2535,10.7333,93.5899,22.6272,-72.6175,-0.2162,-168.3045,111.3478,12.1557,-156.7975
26.0726,-26.6388,139.6527,-84.7041,-80.8851,-23.8335,-79.8999,-93.9582,-119.1519,-89.4038,12.0168,10.3814,68.3172,-117.7288,82.4846,-165.9339,29.5958,-24.9884,-160.5827
-7.0584,-45.2945,72.2827,-136.9444,-107.1878,-29.3960,-63.3776,-61.4028,-90.9312,-21.0770,0.9152,-8.2065,59.4716,-49.8575,87.8213,-90.6983,-34.3442,18.6951,-144.4296
-41.5154,-42.2788,-10.8262,-126.7321,-85.7591,-21.6816,-47.5187,-35.8459,-78.6872,-72.0337,-33.5506,7.5778,16.1917,-21.2683,37.6138,-80.4596,-76.8370,39.9699,-102.6381
-73.2203,-40.4427,-92.0899,-119.7743,-50.5933,-47.4815,-23.4763,-63.3006,-61.6316,-134.0291,-55.2236,-32.6975,25.1902,-104.4661,58.6429,-116.8993,-116.6003,19.4296,-104.1919
-90.2431,-31.2160,-131.8230,-109.7555,-23.6013,-67.2564,-27.2183,-108.0385,-93.1717,-77.8868,-47.6044,-85.8330,73.2757,-177.7057,130.9273,-78.7413,-135.7963,42.9167,-140.0455
-55.9633,-0.9268,-84.2793,-59.6931,14.9704,-40.9469,-52.1534,-123.8375,-102.8495,-18.7035,-31.7795,-36.1710,62.0221,-124.6497,104.7767,-29.2310,-78.9938,106.6107,-130.6168
16.2374,32.0116,4.6413,3.9318,67.1999,5.6451,-16.8961,-117.1228,-28.9108,-71.3963,-19.7961,82.1686,9.7197,-20.8223,7.7543,-77.3660,22.3944,113.5983,-78.0728
30.4926,29.3154,9.9924,6.9160,70.4973,17.2854,46.6627,-110.5721,-11.5157,-141.5085,-22.1659,113.8560,8.5398,-31.4551,-2.4240,-133.3181,32.1871,46.6918,-66.0693
-37.2082,-10.2406,-73.2843,-57.5838,1.4267,-24.4122,9.2276,-110.8944,-121.2120,-151.5678,-46.9342,30.3083,32.3189,-147.5018,48.6672,-106.2696,-68.4820,-17.5276,-106.8265
-70.5401,-35.4359,-93.3610,-94.3352,-45.5111,-65.8976,-77.9701,-110.3459,-199.3820,-148.2279,-58.4462,-32.6234,9.8149,-180.0430,25.4856,-74.7998,-108.5663,-23.8375,-121.7738
-10.4209,-7.5374,10.5747,-30.2024,-15.4403,-43.1138,-74.3227,-99.4382,-167.6257,-137.2952,-29.8148,-6.6256,-30.0552,-89.9011,-47.9663,-85.2356,-5.0523,15.4963,-90.3645
41.2296,44.1331,99.6698,73.9101,-0.2523,9.3346,-42.3087,-90.3814,-120.9507,-104.8813,-10.2068,13.5312,-34.8532,-77.3713,-54.5060,-86.9501,92.6587,39.4962,-82.2962
10.1897,57.0422,60.0991,93.3981,-55.0601,-4.4394,-76.7566,-100.7719,-93.6739,-106.7842,-34.9712,-42.2302,-12.4097,-202.1101,12.5523,-86.5876,56.2144,0.6771,-111.3335
-31.5045,11.9659,-26.1324,-0.1351,-95.1448,-86.3546,-83.6914,-111.8334,-68.3874,-139.9128,-51.8441,-101.3264,3.9794,-247.9794,52.0149,-95.9707,-31.7172,-64.5274,-100.8434
-12.9426,-44.5641,-31.7635,-104.9691,-74.1684,-138.4544,-9.6092,-99.5134,-75.8631,-126.3038,-28.3343,-98.6761,-18.1422,-134.1699,-7.0000,-60.8122,-46.5523,-82.1553,-36.5429
20.1156,-54.5836,20.5208,-116.1622,-50.7539,-107.1345,41.1692,-80.8041,-84.9961,-91.8536,-14.6772,-88.7990,-68.0088,-67.6954,-95.7541,-13.0834,-5.3197,-38.3369,-2.5337
2.8543,-15.2727,31.5647,-39.8721,-43.3962,-28.2716,28.4660,-66.4702,-36.6782,-109.2672,-39.4085,-112.8926,-76.1808,-143.5671,-85.5221,-43.2950,12.2463,38.0128,-23.8136
-37.6149,25.2259,6.1653,41.1907,-15.2715,46.1482,12.5023,-29.4983,2.6158,-118.5360,-59.1563,-109.1458,-28.5014,-194.0620,1.3391,-81.4963,4.8174,117.5716,-24.0653
-34.2412,34.1749,18.3228,75.6673,26.7604,85.0075,26.9538,27.2134,-18.0607,-51.8380,-40.8774,-51.4302,2.2864,-126.7164,30.6871,-18.7967,22.7424,151.4275,30.2706
4.9004,23.6497,54.6310,72.0757,50.3550,72.4318,74.9883,53.2575,-18.1040,1.6872,-12.5984,-17.5972,-6.1492,-63.5049,-2.1264,45.8108,59.3131,114.2057,78.1359
11.6370,16.1995,43.9292,54.8220,46.3061,18.9842,110.2909,31.6612,9.6745,-36.0170,-19.4048,-39.0337,-14.7252,-97.5796,-10.7089,-4.7089,58.7186,61.4450,64.9735
-20.8190,23.5635,-2.6230,50.2434,13.1422,-33.0062,58.2918,-1.5316,-21.1914,-79.1344,-60.4052,-45.2676,-35.2525,-155.8921,-17.1717,-67.7706,21.9840,49.9050,-5.3771
-27.3333,52.4825,-12.8374,86.9785,-29.4564,-39.5426,-35.9528,-24.1637,-84.0174,-52.6424,-83.6819,-6.1880,-84.9673,-133.9422,-71.7818,-38.2473,17.0059,62.6534,-98.4105
13.7762,89.3253,34.7753,153.1912,-35.7117,-3.6642,-73.2347,-53.3102,-119.4661,-33.1126,-52.2860,26.4997,-101.8627,-53.7532,-108.7068,-7.3893,71.1956,59.9335,-164.8736
57.4502,98.2703,99.7099,182.1366,-6.0965,12.9268,-96.8201,-109.5465,-159.4970,-86.3789,6.3032,26.1272,-45.8348,-34.6261,-67.2392,-58.2991,128.8833,13.4872,-176.6408
76.0090,68.2300,126.7636,130.8888,-0.2369,-38.0480,-164.1692,-174.8038,-175.8084,-134.1426,39.6764,12.7025,11.6340,-99.2511,-12.5444,-110.5664,130.8512,-82.5960,-157.9104
72.9396,27.4436,87.7327,41.6329,-41.6697,-118.6353,-179.8210,-186.9669,-115.4211,-106.8864,28.3618,-3.0630,-8.7685,-125.2644,-30.6475,-78.7501,81.0110,-166.8408,-128.3732
43.2602,-2.2172,11.1362,-18.0012,-92.2156,-158.1733,-93.4840,-120.5101,-82.5850,-74.0085,-12.8055,-23.5956,-80.3565,-77.5127,-102.0223,-3.4412,17.9520,-177.5379,-78.1337
-5.5052,-17.5739,-52.4015,-33.8457,-124.1428,-148.6764,-22.0575,-51.7092,-127.5987,-86.7847,-53.8403,-52.7602,-113.4321,-82.9266,-125.8706,31.3990,-35.4874,-156.5913,-34.3625
-34.3744,-11.4304,-82.6450,-26.6645,-131.2779,-119.3703,-27.4987,-48.2749,-100.4474,-64.3798,-64.4926,-80.0773,-76.6486,-150.2949,-59.8304,22.3098,-65.6228,-143.6943,-32.2096
-18.1923,12.5448,-74.2524,-3.8511,-94.9187,-67.7120,-26.6751,-55.8885,6.7178,17.6589,-37.7121,-53.6466,-30.3795,-99.2630,3.3071,44.5623,-50.6181,-85.1487,-32.3839
21.3759,31.7195,-33.0913,32.0045,-23.9750,10.6105,22.6012,-16.4913,12.4632,39.0065,1.7687,47.1411,-25.1758,96.7993,-18.2293,118.1064,1.0172,17.6079,-4.3980
36.3422,38.7435,-3.7695,62.9622,23.1324,75.4443,47.3069,14.6959,-70.7672,-32.3341,19.7651,120.9099,-27.1603,202.0177,-47.8120,150.0708,31.4292,77.6049,-4.0929
3.2470,37.3714,-15.2889,66.9960,30.7904,85.8313,-7.3520,-11.5161,-103.4337,-75.6588,8.1746,68.2609,4.9701,79.4657,1.5209,99.9478,8.7701,95.2465,-53.7668
-37.7148,15.9258,-36.5176,33.3600,50.1912,53.0376,-86.0274,-51.4016,-107.8605,-54.4626,-3.3844,-39.9554,33.8628,-96.8299,48.3662,74.6952,-28.9154,118.4497,-92.6977
-31.9496,-16.7671,-48.0366,-19.5403,86.9226,28.2915,-97.1696,-64.7593,-99.7148,-22.7995,7.0281,-68.0188,4.3543,-104.1352,-9.9508,137.8801,-44.0431,118.7401,-90.1235
-0.5977,-20.2994,-58.8702,-41.9879,101.2417,58.8168,-28.9557,-45.6536,-6.3931,55.8879,15.0988,-12.2284,-51.9203,20.9984,-98.9019,195.8010,-40.4020,114.4080,-57.3846
-5.9257,1.6613,-52.2521,-17.5149,108.6703,129.6713,43.8262,6.5446,80.7934,178.7035,1.2671,23.4489,-48.9391,56.8244,-84.1381,172.1416,-31.5916,173.5689,-21.2425
-43.2845,-2.3888,-38.0603,-6.1909,120.6090,149.1900,32.1975,28.7599,32.1418,176.9071,-4.4096,-23.3836,18.0627,-67.1584,12.2784,115.0018,-42.5507,201.3485,-61.0800
-62.8832,-37.6095,-72.5057,-55.3355,81.2778,67.5644,-87.9791,-44.0875,-53.9127,19.8523,13.6660,-103.6304,49.3736,-163.8736,48.4759,91.2064,-95.5484,84.1969,-184.3441
-61.5499,-62.4382,-131.2674,-120.0578,4.0179,-19.8479,-212.4974,-117.3527,-78.6816,-54.7778,17.7863,-114.6021,-4.4453,-98.0110,-25.8245,112.9886,-150.8885,-30.8083,-229.9150
-61.6706,-64.6967,-124.4600,-137.9246,-19.0850,-8.3964,-203.3880,-74.8601,-97.8139,48.9795,-7.7729,-40.3867,-60.1733,-8.8466,-101.5965,137.4913,-149.7509,-3.3135,-143.3295
-54.8301,-50.2242,-69.7778,-107.7425,-17.3167,39.1897,-110.9035,-15.1423,-104.9544,121.7025,-31.3226,22.8616,-50.3799,-54.2338,-83.8902,96.1801,-112.6054,10.1101,-113.4407
-35.6531,-13.7712,-62.2064,-59.0733,-88.2684,9.8517,-103.8428,-62.7157,-68.1946,52.3169,-44.0581,34.2347,-30.8772,-138.5444,-29.8371,13.6820,-96.9162,-104.9846,-204.0941
-30.6630,19.9264,-109.3364,-26.6227,-170.3515,-55.7918,-152.1636,-110.4114,-53.9994,-7.3520,-63.6304,58.3263,-52.9817,-102.0232,-26.5251,5.6954,-110.0297,-179.5406,-227.0360
-53.3037,11.3309,-150.9817,-40.1109,-151.0450,-54.0637,-97.8804,-36.3632,-47.8808,28.8598,-81.2591,99.0353,-70.8744,3.7891,-45.3744,54.4344,-132.8341,-116.0975,-127.5659
-79.6364,-19.4590,-159.1741,-71.4014,-81.0989,-7.9131,7.4674,55.4164,8.5895,63.7759,-80.8120,85.8886,-49.7978,20.6297,-32.0591,21.9616,-148.2152,-58.7599,-60.5482
-85.0525,-24.0173,-147.2606,-63.0900,-59.0492,0.8618,12.7789,47.2934,24.4056,60.3655,-75.7961,37.2128,-33.6733,-61.7495,-19.2288,-45.5204,-140.1603,-88.1911,-64.8983
-73.8263,-10.3806,-153.4088,-39.5762,-80.1634,-18.1630,-22.9127,12.8326,-1.4221,80.5620,-79.7015,26.1680,-55.0344,-100.0362,-39.6094,18.9260,-132.2025,-116.9356,-49.4359
-68.2788,-21.0386,-189.9520,-72.6593,-103.2651,-13.5150,27.4441,49.5837,95.2473,97.9823,-80.3879,27.7125,-79.2965,-19.4986,-52.7703,142.1593,-160.4369,-90.2233,-2.2258
-82.5230,-63.3893,-197.7299,-144.9746,-101.3106,2.5812,101.6897,117.9605,210.3243,51.4569,-67.7866,-26.0220,-72.0307,56.7784,-41.6122,126.0827,-191.0880,-45.7465,35.4412
-103.2683,-99.9747,-139.2917,-166.3073,-66.0682,-9.3442,80.6382,137.5105,85.7623,12.0576,-51.8510,-109.9460,-53.7133,-2.9502,-50.0911,20.5438,-169.0877,-30.6650,48.6499
-95.4679,-80.5815,-65.4698,-91.2337,-45.1180,-34.6886,-8.4332,103.5701,-124.1516,35.8888,-41.4735,-134.2659,-52.9255,-95.3579,-74.8903,-15.8392,-101.1511,-50.3939,27.1943
-40.0517,0.2712,1.3357,46.4173,-62.2872,-20.0202,-57.1907,66.7572,-113.1220,7.4897,-27.2542,-60.9350,-49.8789,-44.6531,-57.1399,-18.4057,-5.6409,-49.3513,1.9048
35.9779,70.8998,105.5782,163.2947,-42.7303,45.1817,-29.9188,64.1286,4.9273,-115.4911,1.8455,39.0338,-24.7218,69.9745,-15.9396,-57.5119,113.3488,13.0011,33.5141
87.5726,66.9945,230.7303,191.8687,35.7646,103.4145,8.0347,89.6987,-3.0887,-158.0901,33.1113,61.0830,-21.3424,57.2141,-47.1036,-60.7191,210.1778,69.4829,98.2030
105.7101,27.5898,300.0500,160.4421,71.5996,114.3071,8.2251,122.5137,-48.7192,-44.8071,45.7400,20.0746,-67.0519,-21.4812,-142.3437,4.6563,241.0914,52.8063,127.2021
111.0477,23.0749,294.7298,144.9269,33.7209,116.1996,33.8997,161.2595,10.0784,77.7525,46.3986,27.2006,-85.5806,17.2997,-158.3541,61.0594,228.6295,19.8421,134.9259
104.7130,38.3288,249.0832,141.6285,11.1396,139.6357,132.9353,201.1177,92.6171,136.4777,53.1923,85.2484,-16.6595,118.8466,-42.8161,76.0702,199.0014,26.0842,163.7988
74.3872,19.3121,194.3834,99.6515,29.4648,135.6756,208.2576,211.8506,81.0418,168.1986,54.6030,81.1755,54.2920,101.4852,53.8114,55.0559,150.8565,17.3018,197.2934
30.8064,-28.3095,148.9476,32.0773,32.4388,76.2742,182.5611,194.3385,9.2701,135.7391,27.1057,-3.6076,23.8277,-15.9768,3.4893,-1.3172,99.0408,-30.1433,220.3988
-9.8074,-65.8205,93.5234,-20.0434,23.7537,32.2468,151.1800,211.0630,7.0530,55.3359,-13.6657,-68.0043,-50.9802,-67.2454,-90.3577,-5.0483,46.4445,-31.9545,251.3401
-46.4642,-83.8600,6.3556,-53.2414,58.7288,64.1401,202.6643,282.6148,104.0749,47.3863,-23.6186,-60.7941,-42.6268,-2.3103,-63.1372,103.2529,-22.0318,45.7025,282.1311
-66.8869,-86.8973,-53.8811,-61.0600,126.5571,122.3679,257.5193,316.7744,146.6782,66.7234,0.4795,-24.1574,32.8543,66.6146,31.9185,166.1219,-64.3493,106.5891,278.8250
-51.6394,-71.6749,-23.7982,-30.8032,146.7998,121.4532,223.2584,244.4649,45.7506,-11.9891,9.2756,-7.6776,41.8063,31.7432,19.4268,60.2713,-29.5719,71.0351,233.9468
-13.9769,-45.6266,39.0049,5.9599,86.6216,53.7146,142.9973,138.4651,-49.8492,-85.1487,-14.2142,-17.7453,-38.5733,-56.4019,-90.0862,-43.8076,31.5150,-13.2611,164.4045
19.8929,-19.9127,52.0517,20.3393,22.4601,-6.1193,84.1155,74.7348,-26.0156,-42.8882,-17.0704,-16.1350,-84.0184,-46.5396,-131.1932,1.0868,50.6567,-51.3807,78.6326
51.2214,14.8486,46.1669,46.4067,29.4280,9.3374,21.5008,7.2719,17.2145,-17.3042,25.2422,29.7378,-47.3823,68.5536,-84.0862,52.4412,60.5659,-21.0416,-18.7350
78.5616,60.5200,74.7609,106.3480,61.3004,69.8517,-73.3291,-93.5526,-12.8585,-65.4379,53.8078,78.3798,-23.6400,105.4275,-72.8310,-7.0464,99.5795,14.1105,-106.4666
74.3712,78.4960,95.3957,136.3812,37.0764,71.0315,-140.6098,-154.4509,-84.5089,-52.6006,35.7210,52.0627,-39.9188,-17.9565,-93.4321,-66.1591,112.6993,-17.4973,-164.7854
34.7811,38.1491,52.7164,67.3181,-31.9600,-28.2542,-137.4200,-151.4990,-137.4110,6.1712,20.6071,-50.8462,-16.6370,-143.1071,-40.1392,-56.0832,49.4340,-107.1149,-204.5325
-2.2970,-24.1254,-14.4854,-61.2231,-98.5403,-138.3217,-135.8463,-152.6676,-130.2997,-32.3162,30.1803,-137.1166,29.3512,-129.1130,38.3689,-55.3509,-42.5365,-166.9602,-244.0319
-14.0803,-48.5487,-39.0586,-137.7219,-153.8261,-154.0462,-198.2554,-177.2523,-104.9233,-139.9165,21.1139,-124.0628,6.2421,-47.3808,15.0971,-83.1374,-91.0857,-150.9874,-277.8077
-14.9690,-29.2019,-33.7853,-122.8613,-189.6636,-96.5110,-258.8742,-196.0315,-143.7263,-182.6475,-12.5883,-45.4111,-46.3428,-35.0253,-49.3765,-77.4756,-95.2584,-120.2199,-293.2206
-10.3856,-0.7675,-42.1016,-82.3174,-188.5118,-70.0001,-231.2275,-210.5221,-158.2070,-96.4444,-25.1411,-10.4392,-27.2847,-97.3222,-11.1642,-28.1432,-87.2889,-122.3221,-274.7311
17.9267,18.9898,-34.0490,-61.6359,-151.9835,-94.3102,-135.7856,-208.1223,-26.5026,85.8655,-2.0071,-37.4989,25.7740,-116.5871,75.3529,28.6100,-53.8835,-107.7202,-211.4315
64.6811,37.7104,29.9218,-23.7738,-91.8895,-81.5881,-71.3809,-174.1315,80.6047,190.6100,28.3999,-25.5582,18.9761,-29.7835,55.0228,53.6045,21.6508,-44.8351,-157.9739
88.3177,68.7613,94.6416,60.3287,-34.5571,3.6023,-109.8753,-164.5555,-24.2003,70.8415,34.0967,60.7930,-27.9543,50.2360,-43.5523,18.7311,90.2490,22.0212,-193.0038
71.5533,112.0275,103.6954,153.2216,-10.0363,88.0982,-204.3428,-199.0565,-164.3590,-104.7308,8.8090,126.4156,-40.7178,3.1114,-68.5952,-35.1564,108.7070,77.2759,-270.2478
52.7860,137.4327,102.5507,201.2125,2.3039,124.1585,-237.1454,-189.6584,-145.4016,-81.6035,-1.6522,119.7871,-7.3240,-61.6655,-5.7565,-25.7931,110.9127,132.2257,-271.0934
65.3547,118.2718,128.2749,183.5229,32.2113,139.2663,-202.4253,-121.9609,-78.8296,56.8862,42.2475,108.9863,27.0256,26.5475,24.1332,36.4054,123.3649,142.1231,-205.4183
85.5978,84.0793,130.8338,130.1315,39.9374,138.4013,-191.8057,-99.0224,-69.7583,76.7540,77.8752,141.0156,9.4917,167.5806,-34.7664,49.5261,116.5377,84.0861,-165.1973
74.8473,75.9273,86.7282,97.7892,-2.9807,95.6080,-184.3138,-124.3499,-46.7822,-11.2428,28.5006,159.9299,-58.5115,139.4680,-113.7039,-32.8509,86.5205,17.6882,-139.6367
33.4637,69.5027,37.4691,84.1181,-47.2986,24.4167,-103.9057,-93.9482,14.2417,-35.5837,-47.2421,106.0500,-94.3057,-15.0017,-118.4509,-137.0215,54.2370,-32.5197,-73.9843
-12.4159,29.5245,-6.5594,32.0100,-73.0132,-42.6478,-21.2071,-6.0015,54.5652,49.1816,-54.6752,26.8523,-40.9403,-68.1665,-26.6207,-155.8944,1.4182,-92.1832,-13.8058
-44.1627,-9.7662,-60.7287,-41.6944,-112.0454,-88.1014,-15.6629,46.1630,33.3952,101.8882,-29.2762,20.8321,31.3499,17.7349,76.7570,-89.5112,-71.5118,-128.2090,-28.1387
-60.9431,-11.9193,-103.8774,-64.2409,-142.7155,-94.8565,-13.2686,33.8088,-58.5070,2.3565,-48.1226,70.8832,28.5903,66.0411,83.0884,-55.8721,-111.2825,-105.0424,-79.7832
-74.9467,-7.4266,-118.0567,-52.7223,-124.7052,-72.4971,23.6938,6.3160,-134.5781,-108.7178,-86.4976,60.6157,-18.2910,-7.5580,19.7640,-97.3239,-110.9742,-65.5432,-81.5898
-90.1981,-16.6365,-121.6130,-58.2681,-87.0198,-51.6016,14.0652,12.0912,-88.0760,-33.4768,-83.9922,-4.7773,-19.2311,-62.8695,13.2565,-99.3025,-114.8955,-29.1298,-35.8167
-89.2944,-5.7823,-120.7457,-39.7671,-59.0221,-10.0216,-43.8288,44.2593,-7.0099,78.4224,-46.6761,2.7112,17.5961,35.2035,60.2117,-18.2218,-115.5331,35.9682,-30.8788
-62.8310,27.9967,-98.3915,23.1849,-18.1253,76.3479,-68.8962,40.4900,-27.2701,-1.0695,-17.0582,82.3181,15.3110,173.7087,36.4598,15.1174,-80.1716,104.4079,-89.1239
-35.7146,42.8924,-62.6257,48.5320,34.4665,133.9845,-55.5970,-22.5592,-68.6798,-86.5780,-18.0596,110.3628,-22.3601,147.9701,-43.2769,-53.3029,-37.8269,129.9569,-130.6286
-35.5983,41.3574,-55.2968,21.1565,59.9055,105.8177,-41.7848,-76.5931,-27.9848,50.2912,-39.5298,81.5522,-19.4423,4.2098,-35.1723,-99.2422,-34.2228,135.5971,-130.2126
-53.9732,57.9985,-96.6387,26.1066,50.9043,67.6634,-38.3828,-76.4091,19.6284,195.1008,-50.4019,84.1597,26.5812,-31.1998,54.9677,-64.9014,-60.7945,144.5483,-146.6454
-58.6925,77.3180,-139.3870,60.2718,39.5528,80.2460,-49.4786,-68.8246,24.4140,119.4746,-38.1234,114.9070,41.6403,69.8140,80.5896,-48.4375,-76.8904,133.5318,-169.8573
-30.5137,64.4845,-117.9245,47.4691,47.5159,79.8867,-48.7647,-91.7262,55.4175,-28.2908,-19.3322,111.6108,16.0872,118.2368,26.1299,-101.1559,-54.6535,90.7855,-140.3602
13.9610,29.5348,-48.3177,-4.2355,45.4767,10.7547,-15.1494,-121.8606,123.2111,-85.2480,-0.8753,44.2841,8.9027,31.0833,6.3657,-147.0651,-10.9809,12.2155,-88.8844
31.1816,-8.2357,-13.0366,-54.8791,-20.3959,-94.0502,-13.7070,-130.1643,155.3040,-67.4784,20.6376,-89.0823,20.2478,-74.9646,35.0552,-118.4783,-4.9591,-100.5142,-70.6027
-0.3294,-45.4862,-42.5044,-108.5125,-132.9326,-174.9900,-79.3903,-101.8405,109.0476,17.0651,25.1396,-215.0101,-3.9084,-79.8236,22.4916,-43.5418,-58.9178,-181.9655,-69.2238
-47.9886,-59.5117,-88.4943,-134.7480,-203.4509,-185.5352,-121.3252,-42.2971,15.7625,105.3517,-6.0158,-213.2711,-56.5790,-5.9691,-35.8652,3.6268,-115.2520,-168.9977,-70.2629
-72.7781,-42.0390,-105.1999,-106.9490,-205.5896,-138.9798,-96.3452,11.9607,-34.4986,87.5323,-49.1653,-117.2428,-76.5851,23.0454,-52.2352,-5.3642,-127.6890,-115.4848,-69.9587
-87.0543,-43.5739,-100.9144,-104.3006,-202.1668,-125.2943,-80.3555,46.8372,-6.7141,73.6196,-70.8315,-96.8684,-56.9760,-40.5994,-13.2843,-23.9295,-133.1859,-106.2177,-32.0310
-118.0068,-83.9177,-117.7288,-168.6306,-222.6844,-166.3754,-85.7830,93.2811,19.2975,205.5495,-75.8573,-169.2878,-56.8273,-75.2289,-7.3941,-1.7216,-172.7500,-119.7646,27.5006
-143.7741,-96.2281,-162.8178,-190.7942,-234.4713,-156.4456,-44.0546,150.4981,15.4841,295.4739,-90.5995,-178.4949,-106.1822,13.4397,-71.8748,42.6720,-208.0137,-87.8667,48.1698
-128.1430,-50.5424,-171.5292,-116.5770,-221.6381,-66.7603,20.8602,168.4405,42.6020,168.0259,-115.9280,-87.8709,-158.0552,102.7741,-132.3748,51.4491,-181.1816,-18.1562,53.5309
-86.9617,-9.0500,-96.5225,-44.4349,-196.6799,-16.2022,10.5348,129.7140,59.8089,43.2707,-122.5133,-25.9964,-154.6846,50.6868,-125.5943,7.1542,-104.8290,22.8055,79.8735
-55.4339,4.9069,4.4621,-10.1354,-167.4695,-45.0583,-77.1254,74.4653,-3.8275,114.4769,-99.6085,-32.2110,-113.7012,-57.2164,-88.4797,-42.6723,-30.2096,15.6165,74.0282
-25.4616,39.7603,61.4183,58.5934,-137.9194,-49.3397,-137.7449,43.0908,-59.4101,195.7305,-78.0304,3.1490,-103.8956,-56.4006,-92.0578,-50.6623,32.3062,14.1551,27.0054
22.2707,93.4854,98.1651,147.2742,-113.2032,9.0471,-121.8101,28.7174,-38.6569,123.5807,-78.1227,117.5290,-141.0633,32.7524,-148.3955,-52.7750,98.0129,39.4855,5.5512
64.1516,112.7797,149.8590,172.9953,-106.7288,37.9800,-108.7167,-7.7159,-32.9716,29.3036,-79.8932,187.3264,-168.8273,48.3754,-198.4335,-113.3440,148.4734,23.8164,-8.0531
69.1034,94.9373,178.1363,145.3443,-138.5808,-20.3592,-154.5490,-57.6929,-54.8707,29.6648,-70.2876,117.9928,-150.1036,-69.0291,-176.7517,-178.8729,151.2980,-67.6002,-58.4767
49.5786,68.0011,147.8609,109.5648,-202.9310,-112.0496,-176.6171,-51.7272,-6.4845,67.3813,-61.2261,-12.2264,-117.6826,-176.3026,-104.8549,-135.4675,109.9259,-165.8351,-78.4144
35.2307,31.8706,91.6829,46.1114,-266.0366,-167.7841,-121.9401,8.8586,67.2192,91.7938,-56.1978,-66.5003,-114.8721,-124.5439,-75.4197,-29.1382,52.6168,-220.1951,-24.2859
27.5875,-9.2165,49.6323,-51.0114,-302.5164,-190.3949,-88.6710,16.0748,49.7039,83.3611,-58.5251,-25.5534,-132.3333,-8.4534,-108.7390,-28.6907,-0.4827,-254.9743,23.1178
2.2864,-40.1033,6.1187,-137.8981,-301.4330,-219.5450,-135.1407,-61.3289,-13.1423,8.8386,-81.8542,2.8981,-133.9752,-34.2606,-127.1098,-147.6293,-54.1327,-277.2022,16.4172
-55.5260,-70.5877,-80.5057,-200.0082,-270.1014,-246.5939,-169.2848,-106.9378,-11.5536,-52.8203,-110.6964,-65.4035,-116.5869,-156.5713,-99.4334,-212.9881,-132.2142,-264.9095,12.4999
-117.8771,-99.9019,-197.5124,-242.9085,-243.1446,-227.6086,-110.3624,-47.7412,50.1385,18.1308,-116.5296,-151.1422,-106.5485,-138.5660,-75.4886,-141.4384,-222.7096,-223.7116,59.2387
-130.6833,-94.6541,-259.8967,-241.4836,-224.9550,-170.7056,25.6172,36.4722,94.5539,119.0997,-112.1423,-101.8390,-103.2865,33.6325,-67.7950,-58.7530,-251.8046,-167.5648,131.3947
-83.8162,-56.4297,-210.4186,-189.6847,-166.9896,-123.5111,172.7938,49.8685,70.0404,77.2786,-108.5377,50.1171,-70.0922,132.6492,-34.0745,-86.9836,-181.1441,-105.7472,158.1902
-31.7059,-28.4715,-108.8887,-132.2291,-79.9100,-88.4137,238.7346,6.1035,13.9888,-10.4908,-80.3608,105.2834,-6.5734,79.0928,25.1216,-156.8859,-85.2723,-57.0847,107.5563
-14.6914,-16.3033,-56.7794,-99.0239,-56.0869,-35.5746,203.7815,-23.1667,33.9669,14.7777,-41.0560,28.8808,21.4825,36.2563,53.0759,-138.3232,-49.1714,-12.0083,52.1618
-3.5302,11.9705,-48.9769,-68.0149,-105.5244,34.8385,169.7289,-24.3663,135.5762,44.5845,-35.3162,-3.8296,-15.7627,105.2334,26.3849,-65.5845,-41.6167,57.2960,58.8082
43.3210,59.9503,20.9792,-3.9710,-124.3632,100.8959,168.2950,-50.5196,166.6351,-34.7672,-35.9964,66.7271,-38.7646,168.8925,5.1577,-69.9629,28.0068,126.0783,70.1865
106.6270,99.5946,183.0942,87.3150,-80.4918,137.7822,117.2050,-101.5917,62.6836,-77.5318,2.4693,113.6371,16.0495,96.4516,50.2827,-137.0418,158.7297,148.0406,40.4418
131.0113,106.3353,301.1444,140.9397,-69.3506,116.2259,56.9411,-93.5312,-22.1432,16.8040,32.0891,70.5750,68.6506,-41.3462,108.7962,-135.8547,238.0590,117.4134,44.3500
109.9913,79.5925,259.6288,104.8611,-144.9045,41.8596,116.3920,-18.4525,35.8391,95.2307,5.9146,0.5357,30.9879,-70.4443,92.2565,-64.6317,198.4212,41.4778,113.1326
99.3913,50.4233,157.5111,25.5745,-231.8783,-31.5064,237.2645,1.3825,134.7384,28.1963,-22.2707,-25.3049,-27.7992,18.1737,43.3442,-54.5434,125.4026,-55.1777,149.7280
123.0425,45.2395,146.8558,-19.1120,-252.2699,-75.8492,252.2124,-86.0397,135.5306,-96.4614,-17.5505,-0.2732,-21.9174,43.7076,46.3117,-137.9288,119.4500,-107.7424,100.7873
122.8829,40.1678,178.2312,-42.6820,-237.6612,-115.0076,163.8474,-163.0784,85.9553,-115.5613,-33.1816,-8.0614,-16.8125,-86.1534,49.5358,-195.0417,128.1908,-91.5960,47.6606
53.3919,0.7507,113.2074,-103.3107,-249.5311,-149.5614,113.3428,-124.2332,100.8945,1.6454,-85.3955,-119.4602,-73.8185,-222.2222,-4.7536,-143.0177,51.6339,-50.8511,77.1640
-38.6598,-54.4790,-26.7257,-186.7024,-262.0167,-140.0102,170.2870,-16.5012,146.6858,91.3074,-114.4272,-228.6989,-100.8660,-192.0890,-22.2077,-56.2134,-76.7352,-9.2786,159.0194
-83.5761,-84.4872,-112.0206,-230.6564,-219.8989,-88.1762,265.3867,50.6606,123.9847,15.4050,-96.3746,-204.2286,-35.3732,-60.0225,50.8237,-57.9187,-148.3130,25.0418,191.4015
-72.0896,-82.9997,-89.1369,-212.9010,-152.0100,-53.9411,289.8151,39.8707,56.5689,-98.3505,-71.9604,-138.1533,14.5610,-29.6873,82.6869,-142.8744,-124.6369,19.9185,149.7799
-32.9513,-63.6638,-1.4682,-153.4815,-111.7593,-61.0646,252.5754,7.3174,33.4882,-76.3089,-71.3784,-152.9825,-35.2947,-130.9557,-4.8245,-186.3456,-40.7414,3.0893,121.8102
5.9206,-32.7347,72.9236,-80.5733,-76.5200,-55.5502,261.9529,19.5945,67.5167,5.3808,-80.6232,-159.4455,-94.9835,-187.0272,-82.9222,-135.8999,43.6239,50.1478,157.5276
17.1400,-9.8104,83.4342,-31.3476,-18.0302,-3.5842,316.9661,73.8173,106.0620,43.6651,-69.1209,-94.3681,-63.5331,-122.5949,-41.6210,-71.9699,71.7757,123.8222,204.1956
-14.2283,-34.7569,52.1004,-50.8129,15.4852,29.2163,312.2230,135.4513,97.4273,108.3015,-38.3239,-93.6511,9.1312,-85.6386,38.1260,-48.5897,30.5129,107.6815,233.5366
-74.2729,-110.4311,8.3932,-142.8996,-22.8292,-28.2108,253.6626,202.2554,61.7819,188.5213,-35.4665,-214.4955,17.3835,-171.0820,41.8876,-29.8714,-52.5680,3.0414,272.8157
-128.2441,-163.8463,-65.2862,-222.7468,-96.1516,-118.7440,224.8665,259.5386,103.4435,169.4157,-78.4567,-307.3952,-36.5851,-244.2281,-0.9573,-3.0922,-138.6306,-73.7334,302.9582
-141.3367,-128.6653,-134.4525,-187.2977,-129.1925,-119.2444,204.8947,261.6397,201.5370,111.4915,-108.4405,-261.8759,-67.2903,-168.7648,-7.8441,2.8381,-168.6023,-56.1735,280.8685
-111.2183,-50.7160,-106.0193,-59.9821,-92.9761,-27.3228,128.3361,216.4155,132.1291,111.6942,-86.2207,-136.4152,-61.1890,-34.3963,-18.3029,-8.6216,-106.7065,7.0338,217.2591
-75.8926,-25.9917,-1.1355,24.7046,-35.3097,28.0815,13.6782,173.0111,-136.2719,63.0619,-58.6074,-53.7588,-91.1464,-12.4822,-121.2744,-29.9882,-17.2081,20.6563,140.8514
-60.7854,-58.9888,53.8568,1.7531,-23.0774,-15.7817,-76.3042,129.7280,-296.6005,-76.6309,-56.9046,-72.7190,-156.2177,-78.1428,-248.5723,-68.4165,9.3235,-36.9257,75.3557
-49.3157,-83.6194,34.6050,-60.0862,-41.4269,-65.3251,-103.1223,81.2448,-229.8840,-128.6931,-35.2539,-116.0606,-152.4965,-48.6128,-245.3846,-76.0446,-14.5681,-77.4947,58.5509
-33.1924,-78.1907,24.3821,-73.8900,-17.5962,-32.9895,-92.3308,73.3043,-177.1658,-49.7972,19.5179,-78.7073,-64.0654,82.3908,-134.7993,-13.6483,-21.6798,-41.7405,78.7461
-34.4751,-60.9961,40.1426,-28.5757,32.7339,25.2934,-126.0451,97.6410,-208.2565,-22.8925,34.2488,-15.5470,-19.5856,88.5132,-87.0590,28.0853,-8.5365,-0.1476,58.5237
-53.9729,-37.0842,22.9085,16.1687,13.1348,20.3523,-204.2160,75.0171,-138.3364,-86.0961,-21.8464,-35.7440,-79.6867,-76.8969,-140.1608,-32.3858,-17.7136,-27.6330,-17.2540
-58.8453,-18.4499,-30.4666,-2.0802,-71.9883,-30.1875,-213.7250,3.1660,-6.0025,-75.4833,-66.8321,-82.6436,-135.5927,-148.8928,-171.5564,-96.7520,-52.8783,-83.9174,-75.6399
-35.9118,-25.7178,-46.0496,-63.6882,-108.0483,-67.8548,-145.7040,-42.9705,-23.6990,37.4838,-37.4162,-63.4672,-100.3117,-34.0486,-126.2127,-64.4884,-68.0140,-99.7607,-96.1173
-13.2888,-47.8043,8.3235,-93.4459,-70.8357,-97.3406,-139.1036,-53.0016,-166.0320,80.9584,8.8704,-44.0006,-47.0890,11.4381,-89.1294,-22.6718,-40.0003,-85.2494,-141.2597
-17.0319,-54.2827,58.7595,-74.8139,-59.8507,-135.0907,-234.4286,-77.7242,-260.7397,-26.6590,-1.7528,-88.1026,-70.4956,-116.3158,-128.6258,-63.7498,-13.7901,-87.4619,-237.5463
-26.0489,-25.5799,47.7656,-32.6594,-102.4450,-141.4309,-322.6907,-131.8490,-256.8335,-157.5143,-40.4715,-108.7437,-129.3357,-196.3696,-184.2918,-117.1040,-15.9112,-90.5902,-334.8569
-4.1379,40.1855,40.4333,48.1229,-107.9527,-79.0532,-351.6656,-186.5479,-186.7619,-187.5980,-42.9723,-45.9117,-127.8620,-140.6655,-162.2564,-114.0890,9.5002,-31.8183,-382.3296
23.1822,100.9754,83.7795,147.1954,-48.7431,12.0794,-369.7295,-206.0045,-128.7285,-146.4948,-18.6354,10.8581,-72.6489,-116.3805,-87.1879,-100.1391,70.8574,66.8538,-377.2986
-2.1338,95.0436,87.6094,163.9453,-7.1518,52.3425,-389.1508,-182.9828,-185.9962,-106.9121,-13.7282,-15.9791,-41.6530,-178.9757,-58.6949,-99.1406,67.3585,95.6068,-348.9448
-56.8514,42.6232,3.5230,85.9348,-15.5134,31.0249,-370.3864,-164.1262,-308.4580,-100.0073,-26.2998,-61.3267,-48.0217,-197.1788,-81.3435,-78.1054,-18.8307,49.7833,-333.2379
-59.6046,35.1270,-52.0360,50.0540,-12.9496,32.7446,-328.6782,-186.7999,-330.2426,-150.0370,-21.2376,-21.6962,-42.0502,-103.7438,-78.7190,-56.8424,-55.9386,53.6609,-347.8889
-8.8998,93.4082,-4.4984,131.1059,26.3327,107.5530,-330.4658,-215.2340,-247.8481,-222.2465,1.7657,87.6599,-22.5961,14.3442,-55.7048,-75.6040,11.9196,127.8868,-368.0341
18.7766,144.7383,43.5689,229.9901,60.8869,178.2193,-356.5107,-209.5668,-187.4153,-211.3344,1.3060,147.8909,-38.5641,24.5625,-79.2365,-97.2739,76.6942,163.2541,-350.1009
-7.4614,140.2706,-3.0442,238.3502,72.2259,173.3441,-305.0475,-180.2564,-169.7310,-116.7635,-33.5788,98.2518,-79.5011,-79.2875,-123.0572,-63.5621,53.9573,141.7124,-290.6763
-47.2535,99.2206,-86.4796,178.1774,83.2753,148.5097,-198.8556,-135.0419,-160.6330,-55.2365,-42.7203,13.2046,-71.7482,-122.8876,-103.8810,16.1915,-13.4454,130.1496,-228.2862
-59.8588,55.4238,-112.1103,125.0845,105.0214,154.1293,-184.5978,-79.9290,-177.2776,-47.2601,10.4735,-8.6281,-11.7885,-10.2814,-48.1471,83.5514,-51.6096,111.1790,-187.8075
-51.0257,20.5062,-98.4845,80.8728,118.5753,130.9606,-252.6876,-54.8234,-183.5408,-31.8348,50.4444,25.1447,5.1312,88.2833,-59.8332,82.0167,-60.1779,44.3102,-168.0380
-55.9860,-8.7273,-126.8621,6.7776,99.9306,50.3645,-245.7642,-73.5662,-110.1586,-33.8802,12.1867,27.8740,-49.0467,38.9937,-125.4781,12.5560,-91.8740,-17.3439,-169.3619
-68.6116,-21.0116,-170.3306,-48.9900,63.7680,-8.1777,-170.4025,-99.7704,-30.9689,-85.7452,-23.6306,-20.7747,-68.1138,-12.5967,-119.3929,-36.7220,-127.1957,-15.8612,-185.3495
-37.7950,5.3796,-120.0402,-1.6471,59.1728,6.1212,-164.9339,-115.0843,-74.7470,-122.8493,21.0178,-22.3399,-8.2251,62.0137,-38.1647,4.4892,-76.8642,29.0822,-188.3899
17.0721,46.0809,-19.4026,87.5267,85.7045,45.0641,-205.7558,-109.4487,-173.2256,-90.7725,58.3091,79.1689,14.9291,145.7117,-28.2309,75.2832,19.6987,64.2913,-150.4036
12.6965,40.7237,-33.9998,73.0597,91.6156,45.3372,-158.6653,-60.4347,-137.7846,-9.5238,4.5149,168.5972,-49.8101,116.9863,-110.2203,81.6397,11.1385,43.3225,-68.4522
-25.8999,-9.6090,-133.6706,-31.8387,94.0711,-0.2039,-25.2932,-15.0789,26.1398,60.5226,-42.0283,134.1418,-72.6963,42.0759,-123.1043,42.3959,-74.8947,-25.2704,18.5335
6.4844,-41.7870,-121.1702,-85.5410,159.1235,-30.1854,76.3466,-49.5412,119.7399,45.7063,23.9019,53.8511,16.7612,37.4120,-25.6541,24.7586,-60.1879,-57.4921,56.6546
87.1720,-31.9820,12.1256,-45.5543,241.2233,15.4774,79.3839,-109.4680,80.6102,-39.6170,121.0141,40.9235,92.1075,97.4412,24.6577,22.5953,54.1978,-17.9452,52.0519
117.2637,-4.6206,108.5220,25.5084,232.5260,81.9063,33.0696,-91.1962,53.7293,-86.0026,123.7585,68.6930,53.7927,102.8249,-35.8897,1.5016,128.6390,11.9290,59.9326
116.3327,27.3155,141.0511,88.3327,161.7284,69.2281,38.1089,-40.3023,88.3398,-84.3260,62.4826,90.5806,-11.1901,12.6797,-81.6421,-19.7949,159.1658,-12.3321,80.6655
143.1988,56.9748,169.2832,131.0136,148.8356,19.4245,101.7671,-47.2193,70.1168,-100.3749,49.5664,131.5466,6.3613,-15.7675,-35.5743,-8.1322,203.4018,-16.1650,77.2689
160.1387,72.9657,172.9204,156.2231,213.9902,44.8367,132.7472,-55.8871,12.1978,-71.8005,96.4231,181.7519,69.7944,117.6079,25.1323,27.2506,227.8309,48.3711,80.3563
140.3265,82.4495,154.1109,197.6170,288.1786,115.0405,118.3641,10.3929,51.1989,27.4851,119.3689,189.8157,80.5393,219.4361,19.6442,54.8300,227.9051,124.0522,124.7405
135.8089,90.9315,183.2354,251.5680,330.2071,127.6581,119.3019,74.4594,126.7852,22.2950,96.7850,160.6309,43.3840,124.0171,-21.7366,60.5192,260.4401,152.0728,144.4834
164.1221,82.4842,252.5265,254.5803,334.3158,101.5219,104.4771,36.9927,62.2511,-125.4198,103.5140,133.8867,46.1854,18.7661,-23.9227,54.5354,303.9671,140.4735,88.1902
187.3910,58.9364,289.7373,196.5668,308.0535,113.3457,32.0425,-49.7931,-78.2773,-197.1348,162.1868,133.3188,94.5553,103.7675,5.2666,51.3805,302.4982,124.3996,29.4913
188.9581,46.4365,277.8605,146.7574,279.9949,150.4010,-13.7648,-77.5285,-98.8352,-140.5721,188.6695,170.4483,106.6433,228.2157,2.1979,49.4734,273.0571,117.1656,34.4722
167.8924,49.6565,225.9224,137.2912,263.5798,148.8880,20.7941,-47.7796,-16.2072,-111.0334,143.8433,210.4843,83.3867,188.9595,-4.2850,46.2443,234.5238,97.6593,55.3741
131.8834,48.6422,148.7146,127.6046,235.5758,94.9222,53.1473,-31.5744,30.0742,-97.2371,103.5557,195.6670,100.6880,82.8136,56.8592,63.7802,177.4555,47.9647,44.8098
118.9044,31.4575,112.2718,85.7135,196.3163,39.8838,34.8158,-36.7971,34.9966,-18.4266,118.0508,157.2622,134.6810,95.5056,113.2417,107.4743,137.2776,2.1694,39.9573
137.7059,7.2470,144.4837,35.3301,186.7205,41.0393,11.8115,-29.5408,56.8598,12.3352,136.0412,170.3783,105.2994,187.5972,55.6191,116.2130,143.8486,8.4097,66.4894
140.1207,-0.0789,165.5838,22.0371,207.4962,80.0424,-3.3241,-33.3529,69.7369,-78.5897,116.1551,199.3259,49.1249,197.9738,-34.6875,45.9247,153.5841,44.4924,67.8120
111.7208,16.2377,130.4009,50.0695,195.3938,83.0031,-48.6021,-82.4887,30.8529,-163.7853,94.8886,151.0820,45.0383,110.1114,-29.3487,-24.0766,132.2802,39.7560,-5.0703
87.8958,25.6603,92.9934,70.4184,119.0782,40.6870,-131.9545,-125.3276,-25.5272,-171.8970,104.8571,41.9780,63.4820,49.5861,19.0753,9.7644,98.6901,-17.2564,-96.2968
68.8938,7.0896,65.7615,45.7852,37.7734,10.1771,-195.3764,-97.5034,-27.6608,-138.1952,111.9767,-28.6019,46.3460,70.2463,14.9355,104.7495,55.9885,-61.3558,-109.2019
29.4755,-20.2255,2.1106,-12.5571,23.6937,1.2187,-156.3275,-35.8674,23.4254,-45.0496,75.4081,-24.7392,11.1228,90.5602,-18.5098,132.5731,-6.2353,-47.1734,-46.8198
-12.5430,-41.7173,-66.0415,-73.2310,76.6000,-11.2373,-33.4855,-10.7155,31.1487,77.9324,27.2900,-6.1066,-3.1674,59.3789,-37.9419,74.8947,-55.3094,4.1715,-2.6370
-21.7787,-58.7185,-57.6153,-91.4358,151.4041,-0.8003,45.5018,-4.2410,-35.9131,103.1981,36.3610,-30.8100,16.8237,46.1520,-37.0403,36.3955,-45.9068,63.4294,-9.6091
-2.4666,-54.0084,8.7004,-27.7977,220.2919,62.9064,46.3600,48.2868,-63.3466,28.5824,98.0873,-67.8679,63.5494,109.6842,-2.8062,79.3777,13.3262,124.7870,-4.2289
13.7252,-20.9336,46.7622,78.8256,275.1339,141.3359,53.3671,130.9871,-8.1954,-21.4059,135.0892,-45.2199,101.3556,182.8703,42.1868,133.3893,67.9185,168.9501,39.1181
11.9551,8.9003,44.2187,136.4090,304.4435,179.1032,53.1934,145.0550,0.8131,-24.3195,115.5626,29.5144,104.6398,161.4422,47.8236,101.7938,83.6140,171.3000,49.6726
13.1576,23.9277,55.3850,135.0894,294.1288,172.9733,-29.1422,56.7087,-76.4355,-36.7168,89.0649,86.3785,97.7978,72.2839,34.1599,23.0936,84.8013,151.5229,-14.7666
45.3641,49.6588,99.7696,150.6009,250.1747,165.6978,-123.2560,-31.8554,-117.1444,-59.2569,97.7573,118.0811,99.7842,64.0714,40.7607,20.2397,114.4438,144.4624,-79.1787
97.7105,83.3564,151.3573,204.0419,213.3811,190.7980,-127.1166,-37.8205,-99.5171,-77.6552,125.2539,170.5486,89.6068,174.6664,30.1227,83.0207,170.8624,135.1763,-63.3602
133.5073,93.1499,186.7325,233.4014,217.9880,207.9416,-86.1093,-21.3962,-109.1068,-79.4148,135.8563,228.8093,65.0589,234.7155,-19.4340,87.1379,214.7407,88.5355,-7.3088
139.2570,77.6865,190.2711,204.8424,228.9471,139.3710,-65.7576,-44.5982,-118.4659,-31.3262,119.5647,227.3547,54.8689,143.0712,-38.8763,38.2352,218.9790,18.5044,4.1544
123.6273,60.6244,155.2043,157.6080,186.0878,8.8142,-58.0689,-52.6534,-66.2849,30.4575,97.8231,163.3271,67.4257,50.5604,13.3993,48.4448,185.4320,-31.6289,-22.1668
93.6789,42.9651,102.2211,120.2431,109.4108,-70.8590,-67.7210,-8.3117,-11.8176,23.9785,89.1376,107.3961,84.1943,74.1741,76.0027,99.5907,130.2351,-61.6450,-19.2396
55.0330,0.8938,43.6474,47.6164,65.1176,-90.4699,-84.0219,21.6511,-3.9069,-26.7367,76.1081,84.1903,84.5232,81.0906,82.8559,92.8772,56.8083,-114.4136,21.2367
9.1474,-70.5686,-51.1534,-96.3669,51.3088,-154.6287,-50.9464,-13.2614,8.4842,-52.7690,41.0620,21.3393,68.3484,-36.2490,59.9479,43.8789,-48.3397,-197.4760,40.7659
-41.6315,-128.0557,-181.8103,-234.2549,23.0559,-268.0703,2.4415,-82.1277,53.5776,-56.2238,10.0631,-112.7490,62.4096,-154.8901,73.8413,17.4556,-164.7945,-256.1490,1.3065
-75.5152,-126.3197,-265.9890,-259.5303,-15.2151,-312.4969,-16.0174,-129.8853,87.7340,-21.4939,5.8169,-208.4327,65.9499,-153.5251,103.0213,14.2477,-224.8404,-251.6506,-60.8571
-75.1556,-85.9201,-249.9499,-190.9019,-31.2647,-255.0938,-73.0977,-124.5021,59.5397,53.1010,-0.2022,-176.3853,28.0935,-91.1084,52.9977,18.8732,-199.8791,-206.9668,-77.9929
-58.0647,-53.1127,-191.6801,-118.9005,-21.2466,-184.1552,-58.2724,-97.9038,-29.9956,32.0058,-32.2966,-97.1906,-49.9528,-71.0237,-61.2859,11.4120,-138.7023,-147.0267,-48.2392
-41.8223,-23.3998,-155.3643,-58.5066,10.1379,-135.6579,21.2091,-109.2887,-94.4653,-120.3034,-57.5574,-69.5355,-79.0198,-102.6480,-98.6846,-23.4103,-84.5045,-70.0205,-32.8544
-21.9460,16.3472,-124.6494,17.8262,63.0231,-61.4364,73.6709,-118.5327,-66.0653,-181.2767,-37.4701,-63.4290,-30.2526,-109.0648,-31.5898,-23.1158,-35.3756,7.9133,-37.7499
-2.8569,38.8409,-75.8724,86.3729,113.9456,37.3633,75.7706,-49.1928,-13.7371,-74.7534,7.6563,-36.9411,4.3809,-26.8327,-2.7846,46.8890,9.6149,59.6067,-10.2210
15.4157,42.1074,-18.0729,123.8486,131.2247,93.3383,73.6680,26.2846,-2.7414,-10.7407,27.4184,-14.3726,-32.9315,68.0735,-74.6114,72.8920,55.1203,79.9404,35.0639
57.2173,66.2550,56.7861,160.6543,116.4057,81.3812,81.3490,0.6998,26.2288,-9.1262,14.7102,2.9225,-83.7490,35.9623,-142.1718,3.6167,125.2371,62.1644,30.8470
110.9374,104.1217,140.4342,203.9868,90.9025,42.4489,49.2082,-56.5700,96.2032,110.7273,11.6043,31.1182,-83.0324,-72.5690,-126.2814,-21.7770,196.8457,10.8078,-14.2176
116.5677,99.1696,157.8639,191.9384,60.9301,14.6737,-42.0389,-41.8099,141.6132,228.1282,38.6486,37.0921,-38.0144,-62.8155,-58.3197,50.1576,188.1143,-23.6925,-33.1051
59.5479,34.7294,70.2600,82.4797,24.4668,-4.3160,-102.0715,6.0006,142.9711,98.7192,61.0152,-3.3125,12.3582,57.0614,10.5922,89.8001,76.7546,-27.0148,-3.3943
-11.1837,-50.0957,-44.1364,-66.3169,-10.0802,-43.5442,-39.6970,36.9750,97.8214,-108.3599,43.8466,-65.6100,43.2065,70.1547,56.0963,55.6859,-53.1385,-62.1048,50.7315
-64.5685,-104.2425,-110.6815,-154.3677,-32.5574,-109.7842,88.4417,72.6562,11.5686,-85.8735,-2.2634,-130.5834,50.0254,-70.7354,78.4557,39.7845,-125.3244,-118.6114,99.5664
-98.5776,-97.7302,-146.2657,-147.0286,-29.1217,-137.1608,164.5504,109.1648,6.8803,80.3060,-43.8733,-172.1783,40.4977,-162.3664,92.3851,66.9024,-142.8634,-76.8080,131.9315
-104.7065,-51.5056,-162.9467,-80.7076,26.0760,-45.5616,191.2110,139.1137,133.3250,131.8968,-61.2432,-140.6802,17.6435,-93.9099,77.8469,86.9100,-124.8228,78.4708,173.9998
-92.2973,-16.7127,-136.7245,-2.6617,118.9392,124.0067,250.5672,191.2202,185.8804,66.0577,-67.2390,-46.3292,-18.5110,-4.5139,6.4826,72.6767,-78.3721,207.1827,239.1241
-95.6859,-7.4863,-105.2674,42.9890,167.3925,232.4055,336.8408,239.4222,64.5343,48.5809,-87.8280,29.4781,-42.5225,-21.6409,-54.0140,39.8806,-48.1849,237.1240,275.6943
-123.1604,-5.1213,-139.7824,29.3435,133.2310,225.2210,355.4331,232.6779,-22.5154,129.2113,-107.6644,42.1892,-19.1010,-54.9195,-10.3218,46.9612,-84.6200,230.7204,244.3489
-148.3120,-9.8529,-222.3537,-14.1550,93.4163,176.6473,280.4520,204.4395,37.7698,190.0094,-87.5131,20.1042,34.7957,17.0696,84.3201,111.2146,-158.1970,222.3570,191.0156
-151.5419,-29.6888,-278.4279,-51.3882,102.8304,147.5190,217.1093,191.7825,123.2062,137.6507,-51.0019,5.4752,61.0076,108.9994,111.9687,142.4510,-202.7169,180.1155,175.6732
-139.5601,-54.7995,-288.3728,-102.3590,99.3865,121.1027,239.1064,162.1624,170.3422,69.7818,-55.9034,4.8022,46.9026,66.2102,86.3961,104.1528,-217.6673,107.7230,185.9903
-133.9278,-71.7113,-278.1035,-160.7585,32.4006,74.9994,241.3106,113.1004,172.7790,97.6161,-84.9263,-13.7846,29.6722,-62.1089,81.8420,88.7255,-236.0715,42.4301,154.9928
-140.8701,-69.9660,-261.5489,-160.7600,-54.4372,18.7429,108.8272,77.1558,83.9064,115.9305,-86.5465,-54.0425,12.4821,-101.1208,71.4264,105.5070,-246.1236,-11.0297,54.3114
-134.7953,-53.2798,-235.3906,-119.5986,-107.7583,-31.5890,-46.3175,41.1177,-23.0798,23.0545,-74.6492,-58.2552,-27.1515,-29.1907,10.0019,58.8941,-223.6923,-54.9371,-35.5618
-101.5640,-53.7261,-186.3814,-132.6041,-103.6603,-63.5642,-43.6373,9.1730,-22.9055,-48.9013,-72.1436,-20.8844,-51.9593,20.4830,-36.7733,-23.7152,-180.6889,-58.6033,-23.6204
-74.1384,-83.3454,-118.8956,-184.7667,-42.5313,-71.5822,60.0462,32.2720,38.7845,5.9080,-51.5466,-31.3172,-4.6955,-19.9759,13.6370,-29.7682,-142.9435,-10.5866,32.3580
-77.2350,-101.0617,-77.0312,-183.2883,17.2069,-61.9333,86.6630,93.1224,81.7847,93.9946,-11.9245,-99.9888,76.0759,-80.2480,117.7712,37.8934,-126.0456,41.8859,28.4135
-81.0107,-79.7501,-76.3343,-131.8873,28.5203,-32.3828,50.3156,119.6937,113.0520,135.7368,0.9905,-108.4785,92.3023,-69.1322,146.4124,89.9522,-117.5974,68.8467,9.3755
-56.2849,-38.1775,-57.6112,-69.2726,48.6069,33.5858,82.3361,105.4572,93.2293,110.4379,-18.0613,-16.2222,36.6023,3.6480,62.4061,56.0075,-71.0442,112.0698,45.0028
-21.2897,8.8237,10.9021,22.3567,119.4230,122.2276,159.9754,81.7027,12.2205,-9.7843,-25.2800,67.9262,14.1437,34.7818,5.0103,-58.2027,20.8214,187.4278,66.3074
-8.1469,41.1054,58.4184,97.2270,158.7306,172.3313,160.6466,54.4467,-14.9214,-110.8451,2.4276,53.9216,87.3689,-18.8247,97.2977,-119.2203,70.8076,215.7915,28.6390
-30.7305,18.8947,9.8348,54.4241,110.7433,148.6920,90.6419,43.8730,35.9741,-34.1137,39.8117,-30.9159,169.6339,-56.2241,225.0041,-23.9601,5.8641,154.2587,12.3718
-77.8878,-33.2588,-104.7898,-53.2880,49.3909,103.5816,59.9241,69.1829,76.6088,96.1039,37.5564,-91.8473,151.0595,-5.7926,212.3806,92.2593,-111.5997,94.7200,34.7985
-103.2941,-26.8841,-172.6271,-59.2220,42.8623,101.5934,90.5706,83.1055,107.5718,70.3333,-10.5165,-61.0704,75.3974,38.4420,123.3057,61.0987,-149.6433,116.5231,12.0305
-58.8569,45.8168,-107.1338,56.3136,74.1247,115.7548,96.7269,27.4074,119.1996,-24.2720,-30.9972,19.5458,58.1985,2.1094,108.6927,-41.1100,-55.8772,156.8714,-62.8614
34.5862,95.4139,48.4512,151.6115,106.8003,86.6879,31.4772,-72.8421,25.9984,-32.6804,22.1444,59.1901,85.1072,-23.9047,114.9673,-76.1846,92.1807,134.4057,-117.7077
96.9456,80.1551,154.2002,138.2648,110.3589,40.9278,-49.7234,-138.0249,-106.7289,-17.8006,78.1059,64.2125,72.0522,23.2342,48.9209,-67.0451,166.4762,76.6501,-131.3595
86.0653,40.6756,143.6574,58.2327,61.8747,31.0298,-87.1110,-136.2951,-137.7196,-46.9421,69.7293,82.6945,46.3501,47.2166,6.6947,-70.3168,121.1947,31.2824,-142.8104
39.4132,9.0402,73.4365,-22.3405,-24.4062,8.4097,-106.0692,-128.6304,-111.1510,-84.2643,37.4139,71.8417,69.5982,-18.8780,69.7293,-77.1411,23.1609,-31.9876,-195.3584
11.5163,-17.1436,-5.9808,-94.5752,-111.4006,-104.3241,-153.3748,-187.6518,-107.7820,-146.6623,24.2293,5.9610,90.3574,-92.6800,127.6650,-87.3369,-58.3103,-145.4811,-282.3303
9.7852,-39.0940,-87.1135,-169.4183,-171.1058,-257.6454,-201.8611,-277.8853,-94.7384,-229.6999,3.4452,-23.6021,42.1508,-89.4888,79.3450,-108.5606,-113.1095,-252.0535,-324.1721
3.5749,-48.8754,-135.3363,-214.2415,-191.6729,-321.1381,-208.2543,-292.4838,-83.3694,-230.6145,-40.2191,26.7101,-37.2250,-37.9945,-19.9093,-124.3440,-140.6750,-265.3544,-274.6529
-25.1571,-41.0474,-126.5073,-189.1219,-188.0745,-257.0039,-208.0552,-208.4957,-95.7647,-144.6173,-80.1549,72.5173,-84.5758,-21.2002,-78.5204,-121.0255,-140.4652,-189.8871,-205.6212
-55.7658,-26.6103,-99.3827,-125.9682,-178.2600,-155.3082,-247.2797,-113.0256,-64.9450,-88.6452,-93.3090,57.0094,-90.1108,-68.8616,-77.4394,-92.3149,-133.5970,-123.0998,-186.9422
-54.3355,-32.2389,-80.2523,-97.5088,-147.0069,-108.1082,-284.7221,-83.8959,-16.5000,-102.8113,-61.3694,2.9236,-67.9673,-106.1238,-59.1752,-50.2844,-123.8590,-133.3961,-184.7899
-21.6730,-66.0479,-55.9498,-126.0303,-96.3436,-114.0447,-262.4113,-109.7203,-47.5013,-140.7938,11.0612,-63.4742,-37.1541,-52.1639,-64.6668,-26.9325,-100.8157,-188.2603,-152.8829
-2.9465,-101.8903,-48.5496,-174.9870,-78.0425,-129.8704,-199.6830,-110.9860,-76.5049,-139.2397,60.4423,-112.7802,-16.4890,25.5600,-68.3124,-12.3159,-96.7543,-229.4530,-103.7795
-33.1378,-115.0114,-94.9015,-200.0138,-112.6046,-160.3552,-146.5748,-37.4034,9.1649,-34.0166,36.5089,-131.1789,-8.2444,3.7224,-27.3578,20.1079,-141.7834,-257.4879,-63.6317
-85.9856,-108.7835,-168.3955,-190.6144,-165.9609,-225.2312,-122.9443,46.7653,105.9397,107.8918,-19.2303,-160.1053,-17.9374,-72.2516,12.9814,36.0135,-197.0556,-293.4899,-45.1506
-106.9291,-103.1799,-209.2262,-181.9428,-213.1094,-284.0216,-120.0270,50.7990,85.9181,111.3832,-44.9990,-205.3971,-54.9566,-75.9938,-15.0691,22.8264,-215.8105,-321.8174,-40.3212
-87.3429,-112.6237,-193.6622,-200.3040,-234.8135,-292.6709,-96.4944,11.9885,-13.6207,-1.4554,-44.7789,-205.2719,-90.7266,-46.4128,-73.6549,33.6172,-200.3706,-328.1230,-10.5544
-67.0263,-125.0503,-145.6095,-208.5094,-219.3285,-282.6626,-25.1037,21.9939,-102.3441,-40.6482,-50.7772,-168.1342,-86.8271,-96.1244,-80.5929,52.4070,-166.8745,-331.9315,59.9842
-65.8523,-111.6020,-109.4726,-167.1985,-207.5929,-289.2408,36.3131,59.6854,-118.8549,-13.6400,-66.8081,-161.5228,-61.9129,-176.0247,-36.9849,20.7623,-128.9740,-332.5743,124.4165
-60.5930,-73.3244,-95.0584,-107.2029,-222.1544,-276.1650,34.7190,62.1371,-55.2013,-51.7453,-77.0811,-160.9374,-59.1341,-163.9410,-8.9264,-16.6410,-98.4076,-289.7087,141.7150
-38.4320,-42.3640,-67.9370,-69.1856,-199.4212,-208.1725,36.9754,60.9281,18.9105,-83.3800,-71.3705,-112.3044,-68.5506,-81.6144,-18.3194,-7.8437,-65.2323,-193.8545,137.6559
-26.1165,-26.4997,-32.6790,-37.5109,-113.0488,-116.9028,105.4267,99.7625,58.4664,14.6093,-57.8861,-60.5736,-44.4887,-50.7967,-4.2970,9.1217,-29.4573,-92.2315,152.3011
-45.5004,-7.3466,-43.7986,8.6870,-39.7341,-50.9142,172.1395,144.7814,84.5725,156.2016,-57.3408,-53.3650,10.4311,-106.3457,68.9028,31.7317,-24.9849,-28.5875,178.7646
-79.6726,7.5676,-99.9373,44.5496,-25.0586,-21.0461,183.3067,178.4529,100.6800,220.9489,-74.0567,-62.1434,33.2125,-156.9188,117.3850,85.9392,-57.0287,-10.5577,208.3593
-109.4085,-8.4043,-149.9744,32.4465,-38.7588,-8.3240,201.4807,240.1212,129.6242,219.1545,-93.6764,-75.1744,-2.1476,-128.6963,76.4834,111.0502,-96.7960,-25.3008,276.0264
-143.9718,-47.7277,-193.8637,-24.9155,-59.9535,-1.3737,258.3776,319.0902,203.8034,180.4868,-112.8074,-107.2539,-28.9451,-87.2242,45.7542,73.9779,-147.2080,-44.0826,369.6326
-185.1161,-69.4548,-244.9838,-70.8098,-77.2096,-15.1351,285.5061,342.2910,228.4548,133.2384,-133.2662,-135.0348,4.2499,-124.9486,109.8488,43.6656,-204.8840,-36.0179,375.0693
-203.2290,-50.1846,-261.2997,-51.0715,-73.8116,-46.8160,232.5242,288.9250,130.4854,131.0965,-137.9801,-141.6364,41.7992,-178.2651,169.2643,37.0097,-216.5272,0.5111,244.9669
-179.1133,-11.7788,-219.1843,7.6897,-63.8788,-47.3222,125.1141,211.9462,50.9541,142.2414,-112.1948,-139.5053,30.6324,-135.8923,138.8373,18.1269,-169.5280,39.2548,110.0894
-131.7565,3.9673,-156.3943,27.3765,-59.7152,-8.7190,29.0098,147.0773,68.0766,95.3485,-71.1860,-119.8078,17.0637,-62.7776,96.7430,13.2116,-120.2709,48.4507,80.8103
-90.1046,-12.5468,-104.5479,-9.7573,-49.1927,-7.3663,0.1530,84.4856,39.8509,53.3524,-42.0200,-88.4174,39.6684,-83.9794,103.1478,28.8712,-94.2899,12.2713,97.6959
-68.0778,-25.4972,-77.1502,-42.7861,-49.2511,-68.1345,19.5564,30.6658,-43.1950,94.5052,-37.2023,-84.1547,49.7180,-141.3307,103.8187,15.8007,-76.0071,-37.3490,86.8532
-61.9212,-9.9136,-84.1281,-27.3271,-72.9330,-103.1041,24.5586,23.7840,-20.4603,130.3461,-48.7004,-86.7259,11.4164,-103.2524,62.1452,-7.2692,-65.8952,-47.8518,70.7723
-52.9865,2.8325,-88.8414,1.1148,-73.9863,-68.0383,23.9554,67.1975,66.1519,81.2880,-49.5421,-50.1605,-27.8616,-4.9368,12.1941,3.9997,-58.2722,-35.8235,83.0965
-35.2910,-26.8426,-47.7058,-23.1697,-38.2010,-33.1321,56.1685,110.9428,56.8032,36.3096,-23.0545,-20.2488,-12.3165,24.1366,3.0610,16.4614,-41.8491,-57.7052,129.0607
-32.2890,-73.2664,-3.2147,-88.6095,-20.6252,-39.4145,83.8910,130.2105,0.7096,61.3831,2.9677,-37.9047,42.9058,-18.0026,53.5996,16.2853,-40.6057,-79.9743,188.2666
-48.9809,-75.8779,-10.3687,-100.8427,-24.0513,-27.9404,90.3229,158.1974,14.3130,85.7957,-2.8864,-32.8079,71.2966,-12.3802,105.7348,46.0308,-57.4390,-24.8691,207.3919
-48.6575,-38.1881,-21.7088,-32.7761,6.7782,49.0085,148.0812,209.8794,62.6640,79.0327,-14.9795,17.0388,42.7222,76.1413,76.6500,83.4303,-39.6917,70.4656,196.2479
-20.9179,-25.4510,24.1400,16.6049,72.6114,148.9854,264.4482,250.8930,99.7987,103.7034,3.6338,13.1808,11.7107,121.4831,6.2406,62.8816,19.1079,110.7451,246.5474
-8.8734,-53.2600,77.3545,-7.6871,130.7535,200.1897,346.3238,265.9423,158.3326,147.2498,27.4958,-55.1668,39.3381,35.5020,15.8292,-3.4345,50.2106,103.6492,340.3744
-32.9123,-63.5094,50.2971,-29.2232,152.7409,193.5417,361.1993,271.9066,221.6796,128.0832,15.9410,-67.5150,95.2404,-59.6897,104.5852,-37.2858,18.8927,104.8724,342.4359
-56.4933,-32.1820,-39.4552,-0.9433,122.0267,180.4913,343.4597,263.0366,217.3744,90.3053,-10.4816,7.4826,106.0127,-17.2112,149.8154,13.1989,-34.8835,99.1779,249.7858
-48.2648,-8.1175,-80.9217,15.3641,68.2212,183.4627,299.0517,227.8933,150.2951,153.7000,-10.8066,70.1599,69.8317,84.3669,104.6952,98.8018,-56.4905,66.4573,187.6852
-21.8864,-20.5119,-24.8416,-11.9262,61.5229,169.1225,241.3683,188.9679,107.3316,251.3875,10.7048,61.7727,51.9318,83.3720,57.7678,105.5574,-28.9594,47.5503,174.9263
-9.3417,-34.7137,32.9863,-26.4361,96.0131,130.1275,198.1732,157.8948,109.4204,197.1743,25.8372,18.2460,74.1148,7.7545,74.2281,32.3544,4.3318,56.1081,138.7340
-24.8517,-18.0188,-12.9913,6.4654,89.8167,105.0072,146.4025,116.1039,76.8421,28.2505,17.3094,0.1347,72.1788,-2.5882,82.2416,2.5939,-13.3903,46.0862,74.7176
-50.3471,16.0111,-112.9963,49.7936,36.8216,100.2571,79.6793,71.7800,3.8871,-52.3424,-17.6542,39.6114,8.0467,61.2206,13.4216,27.5911,-61.7993,14.1729,26.4204
-55.6202,37.4044,-141.3279,61.6115,18.7847,88.2812,59.1850,44.2276,-10.3620,-42.3587,-55.3822,99.5893,-40.4426,76.8827,-41.6745,-4.3249,-70.4766,18.4217,9.2968
-34.0503,37.3323,-77.6604,51.5488,67.8035,73.1869,90.0368,14.6742,21.8117,-70.8670,-58.0285,108.8925,-3.8118,-12.0851,4.7581,-80.7166,-24.4356,67.4708,20.1938
-4.2953,25.5869,2.2186,52.5405,131.4802,75.6215,106.1549,-5.5827,-2.1607,-92.1709,-23.1021,73.9257,49.9120,-93.0035,54.6039,-85.9894,33.0391,95.7743,51.7857
7.2600,-1.4936,36.4920,41.2645,153.9555,84.4955,101.3436,47.3298,-39.7047,-29.9834,16.2731,54.0360,47.8656,-29.2615,21.7197,-20.2840,49.6962,76.8437,91.0702
-20.3830,-58.4563,11.3193,-42.4214,129.7144,78.0114,98.7997,147.3726,-11.1859,16.4881,41.8446,29.3674,49.6883,110.9254,12.0786,30.8962,-8.4052,64.5516,112.7594
-70.3524,-118.5352,-35.2254,-160.3600,87.9194,55.5456,64.8785,167.7651,1.8438,5.9634,56.9411,-54.2269,106.7444,122.9807,97.0826,43.9837,-100.4275,81.1597,82.0973
-88.2143,-126.8798,-51.3889,-197.3509,43.4264,29.9239,-2.0643,84.9051,-39.8881,46.7556,61.0084,-144.7615,144.5523,-1.3364,161.7433,52.0421,-136.5585,65.2994,12.7230
-60.5795,-94.8392,-57.9442,-164.0180,-7.8405,13.4141,-33.6949,8.7859,-27.4853,112.0243,57.6059,-151.2482,108.6526,-37.6764,125.6184,79.0412,-122.9636,-7.5570,-30.5108
-38.1055,-89.8131,-99.7688,-183.4422,-43.9105,7.4168,-21.8573,-17.3859,29.5553,66.6524,63.0944,-95.8306,67.1860,100.0295,69.3431,93.9070,-142.4874,-59.6302,-46.8276
-42.6600,-113.9893,-123.7357,-252.4499,-35.0498,3.2656,-36.5092,-53.8186,15.9691,-32.5469,79.9077,-64.7871,86.8715,205.4206,77.5063,35.0862,-177.6483,-38.6334,-100.7846
-41.4542,-105.2859,-72.0557,-246.8667,-11.9090,-3.1219,-100.9170,-110.9747,-27.5733,-36.0990,80.0058,-72.1940,119.5467,111.6524,113.5073,-62.3589,-150.9561,-3.4101,-182.8986
-25.4795,-50.2647,-19.4844,-143.7751,-32.2361,-8.2594,-166.3296,-135.5104,-27.5168,13.5514,40.5833,-63.2442,70.6397,-35.1362,71.6238,-82.0345,-89.5094,-12.8889,-225.0249
-7.7466,16.0893,-25.2574,-16.0452,-86.6461,1.5261,-192.5304,-128.3369,-71.0275,-33.0820,-7.5441,-3.8655,-49.5396,-7.4897,-64.5449,-32.1540,-44.7863,-37.3470,-228.0871
28.3067,81.6623,3.0998,112.4081,-120.7168,42.6753,-203.2602,-147.5885,-201.7559,-178.7179,-10.9343,73.7550,-120.5637,128.1493,-164.3868,-35.9683,26.9268,-39.5001,-237.4594
81.9216,136.8068,118.1754,223.1923,-130.5865,87.9726,-255.0245,-199.4962,-285.1564,-258.7710,16.6290,104.0939,-105.8413,124.2341,-156.8159,-98.4561,135.7647,-40.1883,-254.1049
105.8199,151.2779,200.1652,250.4082,-156.7650,82.7725,-329.5490,-213.1064,-222.3736,-173.3692,10.5514,80.4299,-115.1139,-2.3037,-156.5324,-108.9842,185.0007,-56.6541,-254.4399
94.4944,129.0079,168.1022,196.5661,-194.9269,45.8726,-336.7948,-161.6738,-94.2937,-68.8280,-20.6308,78.0321,-182.9673,11.2541,-225.7168,-48.2922,143.8626,-69.6123,-244.7088
106.7113,107.8066,131.2461,147.2473,-191.1701,35.0211,-289.3294,-142.1699,-58.3619,-119.4129,1.6859,121.4630,-195.9088,182.7173,-256.4578,-11.9524,116.7770,-79.5145,-262.4986
155.1115,92.3502,198.1426,123.6983,-144.8890,10.4899,-306.2768,-234.8784,-171.1895,-223.3981,76.5829,111.2946,-124.6672,229.1911,-210.0878,-63.0981,166.1205,-106.4113,-324.1342
170.9835,66.5303,278.7703,82.2102,-133.2538,-79.6253,-377.2999,-345.6143,-301.3338,-215.7646,105.9682,-7.0993,-77.7964,60.5578,-169.2921,-145.2964,207.3511,-129.7332,-373.6884
111.5426,47.3371,209.8684,35.8608,-189.4760,-141.3617,-361.6464,-334.2591,-284.2827,-158.2810,47.0127,-111.8175,-100.6127,-83.9184,-154.7543,-144.6044,139.6367,-121.2502,-347.4907
29.4372,54.0531,15.3779,21.4121,-251.1529,-91.1674,-254.9444,-234.4868,-148.3203,-111.4928,-32.6087,-80.1398,-143.6332,-40.5053,-150.5558,-50.5712,0.3434,-114.5799,-279.3836
1.1558,62.2625,-105.8974,7.7404,-268.9017,-36.9105,-188.1394,-186.2680,-43.8458,-28.9559,-61.3474,12.3181,-166.3057,68.2985,-164.8085,5.8889,-80.9695,-144.9841,-243.8797
19.8592,39.8376,-73.5051,-43.7797,-259.4834,-87.6342,-184.2938,-219.6571,-27.7952,-22.4661,-46.8240,6.8273,-144.3812,52.1317,-148.6149,-57.9835,-67.9367,-176.5325,-239.8390
13.4482,-5.6519,-34.0746,-105.7857,-238.4998,-171.9389,-160.7949,-243.6924,-49.9672,-164.6443,-40.4935,-104.5507,-92.9077,-93.5196,-80.6884,-146.7418,-58.6226,-181.2802,-217.9139
-29.1759,-41.3417,-103.8565,-142.7797,-209.0818,-200.4086,-100.2294,-202.5186,-42.7092,-192.2450,-52.9278,-176.6656,-74.5912,-170.5091,-51.1893,-126.1368,-113.5144,-202.3153,-164.8143
-39.4331,-50.6922,-199.3098,-168.9156,-199.0614,-204.0842,-50.5703,-154.7494,15.3973,-16.0135,-42.8563,-116.2204,-79.4221,-39.4134,-63.8288,-18.5867,-172.5834,-262.5475,-124.9405
-0.9166,-51.3178,-211.8763,-212.5873,-222.5013,-233.8539,-44.0425,-189.0204,50.9836,0.9252,-3.7289,-13.5287,-36.3414,132.9910,-14.1335,15.4203,-182.9341,-312.1968,-151.6500
20.5025,-64.9583,-160.8164,-262.1425,-245.5506,-280.7487,-77.1038,-284.4056,-5.6207,-227.1287,8.5489,-21.5788,13.2721,94.7603,51.0361,-93.3598,-165.2890,-306.0292,-210.4055
8.2532,-72.9415,-105.2478,-260.6728,-231.2611,-297.8852,-102.4263,-324.9355,-77.9659,-307.8758,-22.5091,-122.4889,-24.9196,-75.0706,-0.2472,-191.0965,-129.9155,-245.4530,-202.2227
22.3072,-43.5502,-50.9691,-176.3640,-174.4191,-240.1425,-84.8658,-273.5896,-66.3696,-161.1244,-36.3868,-141.1505,-105.8517,-98.1052,-117.6088,-135.3821,-59.3115,-158.7452,-134.4801
74.3772,0.4110,20.7320,-74.1170,-101.9139,-139.6476,-89.2564,-221.2036,-24.9273,-107.3104,-4.3923,-32.1334,-126.9391,24.3468,-170.8331,-44.7289,25.3253,-92.7537,-115.5275
105.0090,16.1574,102.9764,-31.9633,-55.0116,-95.7631,-183.8236,-234.2842,-36.4683,-185.7926,24.9373,36.6302,-94.2500,35.6293,-151.4232,-76.7667,81.2665,-62.4980,-166.4618
90.4865,27.3558,151.3281,-4.6009,-34.0555,-113.8918,-284.0484,-270.9374,-61.8165,-169.3576,15.4445,-25.7094,-70.2028,-120.2421,-112.3182,-137.7568,107.1543,-9.4019,-222.8655
72.3151,78.1595,141.7749,91.8527,5.5441,-84.4029,-267.0445,-260.2743,-53.2915,-32.8219,-5.2758,-79.7491,-75.8946,-205.8562,-94.4039,-79.2576,133.1386,100.8001,-250.1636
89.2759,134.4419,138.0976,207.3437,67.4943,25.6198,-170.5878,-191.0629,-45.8339,77.1775,9.4373,-8.2775,-83.3571,-75.1414,-109.0152,37.4390,178.5606,195.0219,-220.5665
134.8832,137.7788,205.7590,236.0726,105.1367,126.3088,-105.6569,-127.4000,-46.3997,54.4576,64.4644,91.3000,-44.5254,95.1266,-93.4359,72.6861,233.7149,203.4160,-132.2688
167.8528,109.2472,286.2995,197.9533,110.0518,158.3692,-68.9894,-124.6282,7.0302,-82.6032,104.2024,88.0024,31.8919,67.2821,-6.8673,3.6899,267.4581,165.8229,-63.2251
157.3639,104.2555,291.3908,189.7852,110.6120,145.8444,3.1193,-125.9896,105.1324,-131.2518,80.6587,19.1408,65.3054,-101.5509,63.3655,-76.3360,266.8921,150.8235,-37.6335
124.8119,120.5131,246.5979,226.5869,104.2046,128.3078,86.1212,-51.7988,130.9482,33.4577,37.3812,1.5804,37.0171,-145.3299,53.3276,-50.1660,252.8451,157.5281,10.3272
107.2881,117.9160,206.8563,234.5485,76.9153,124.7967,104.7414,35.6764,59.0558,161.0837,46.2176,50.5739,30.4383,11.7995,42.9303,60.5184,225.7874,145.6798,48.7951
90.0197,82.5100,144.9488,158.8211,39.2067,115.8661,61.2577,28.5414,31.1810,26.7379,79.4764,79.3251,81.4009,149.5950,102.1690,81.1977,149.7552,99.1865,-4.0605
42.5865,39.5155,38.5199,42.9949,0.7714,65.2534,25.2139,-40.7849,102.0159,-131.9083,61.2543,37.2929,124.2346,85.5832,177.2230,-15.6363,34.4121,37.4943,-79.1025
-4.9534,18.3361,-51.5676,-18.7887,-29.4966,1.6063,21.3377,-80.5074,120.4227,-57.7267,12.3116,-24.9491,107.7158,-60.8691,180.0408,-37.3121,-44.2815,-11.4631,-81.8893
-8.0651,5.2284,-68.8512,-30.5047,-32.8968,-8.2709,1.9363,-85.8979,10.0109,76.3510,15.5069,-38.6265,63.1027,-54.6338,101.2325,56.0773,-55.9127,-43.1693,-61.9719
11.7473,-35.2018,-38.9049,-86.4928,-16.3693,14.6272,-68.0718,-93.5736,-89.1762,54.6934,70.2558,-9.4218,50.9922,94.6087,28.1612,80.8384,-57.4399,-72.0339,-78.9807
12.8831,-78.8190,-21.1844,-170.5921,-7.2863,-1.9802,-148.4812,-117.6060,-74.4331,-31.2292,93.9282,4.0135,65.8158,144.0939,19.2394,-0.1516,-80.0000,-94.1010,-110.6273
3.2499,-67.9329,-29.2497,-158.3441,0.1944,-35.3510,-164.0400,-144.7421,-15.7432,-58.6419,53.5966,-28.1609,37.2293,12.5628,3.7350,-41.5452,-77.5034,-77.9920,-121.3473
1.2340,-21.2653,-25.9388,-52.7575,27.4232,-5.3402,-96.9669,-115.2452,4.7066,-54.4754,11.3596,-67.2448,-24.4915,-80.6443,-52.6113,-3.9766,-30.3829,-6.3907,-81.3001
-4.8681,-2.1098,1.9485,16.4038,58.2917,79.7227,-25.7600,-3.2965,-9.8020,-17.4535,23.5130,-46.3168,-12.3826,15.5897,-38.8753,50.4164,3.3894,81.4550,-15.7278
-14.5336,-8.3786,14.7454,12.3220,69.5326,137.6201,-24.6985,87.0412,-8.1343,79.6427,59.1552,32.7977,66.5488,147.8161,56.3148,101.5420,-10.2376,113.8053,-4.8106
2.0380,-6.6951,7.1226,-0.5185,81.3952,128.8037,-34.7955,61.2288,42.4996,132.1346,64.1576,78.9044,78.8958,136.8155,69.1001,116.1708,-14.4795,72.6489,-12.3353
57.8191,2.4276,47.4151,19.1277,126.5441,87.2141,41.0943,-16.5254,90.0089,38.2663,53.4305,52.6647,18.0632,37.1611,-23.9733,53.4188,58.3322,25.1725,62.6534
132.3719,27.5949,167.7289,90.9806,193.0229,73.0352,134.6295,-49.8381,73.4815,-86.9686,72.9844,47.7455,4.5028,-2.6594,-63.6705,-17.5559,194.4374,38.5309,142.8626
190.7673,82.3236,293.6354,204.2007,227.0749,108.5075,109.4682,-38.0882,43.2678,-84.3839,111.4992,122.4929,47.5217,49.4107,-14.9479,-4.9282,311.9680,99.1813,116.8638
199.9536,126.8247,336.2533,278.6729,189.0457,140.1558,21.0159,-11.8543,50.4714,-12.8727,118.2493,174.1543,63.2052,99.6133,24.9775,42.6986,343.5058,138.0687,68.0786
162.5809,125.6926,291.7534,264.4248,96.4744,99.9242,12.1871,2.1927,52.3632,-0.4080,79.6733,119.4067,40.7370,52.7099,33.3915,25.2462,296.6401,103.3712,55.6280
126.5051,106.6273,221.4162,205.6936,5.3193,2.7979,32.9209,-29.5792,43.8471,-19.9671,32.1635,52.9415,13.6813,-45.8556,31.5028,-38.2699,229.5163,9.9415,0.0059
119.8773,87.8245,174.7110,140.7480,-40.4539,-77.6402,-41.7204,-89.5858,36.6875,-40.8793,17.3435,79.9590,-4.3609,-47.6006,10.9578,-67.2480,178.6711,-73.2713,-69.7383
113.3077,53.8626,148.5103,75.7469,-38.8975,-111.2307,-150.1372,-126.3303,-56.7872,-135.0561,34.8634,135.2333,-2.6849,51.2313,-17.1153,-75.2311,140.4824,-107.8408,-66.0172
79.4356,20.2741,113.1688,36.0632,-31.1239,-127.4353,-172.6990,-143.0669,-219.0919,-251.5825,35.2823,103.5496,-6.3014,65.1081,-47.9364,-127.2742,104.0229,-124.2016,-54.3644
35.1066,8.0756,61.7633,13.5174,-60.5220,-158.0802,-140.2088,-156.0814,-240.8728,-229.6218,-14.2417,4.0517,-55.1344,-72.9214,-94.6058,-186.8819,61.1780,-142.4888,-76.5108
6.8636,-5.4811,15.5786,-36.7058,-106.6645,-199.9491,-119.2777,-132.6927,-88.9998,-108.1018,-64.4472,-56.9583,-95.4559,-175.7420,-103.7066,-156.4943,11.4534,-135.8898,-46.2149
3.3075,-37.9142,-5.8310,-101.0447,-100.6990,-217.7284,-92.5630,-68.1437,24.0583,-43.1818,-42.4045,-49.7310,-48.3168,-98.8847,-29.3720,-45.5479,-24.3781,-106.8922,24.5895
13.2249,-79.0417,-11.3905,-156.0098,-36.7529,-204.6109,-50.0864,-28.1915,30.6011,-9.2191,26.7876,-47.9484,24.4352,28.3473,31.1996,33.0921,-40.5328,-102.4788,46.7506
12.3058,-118.7119,-31.8272,-228.4908,8.3465,-222.1057,-16.2843,-59.1877,39.5117,55.4375,40.9695,-96.1177,9.3178,10.2472,-19.7389,7.2188,-63.8314,-129.4337,41.0119
2.7621,-125.2414,-55.4469,-270.1432,2.1351,-282.0855,11.8304,-119.7302,69.0308,49.3196,-19.6584,-125.7300,-61.8696,-115.8641,-99.6723,-83.1007,-75.9971,-130.0306,44.9315
16.9739,-71.0968,-16.7164,-182.0816,-2.1381,-262.1866,32.6148,-121.4482,79.2576,-57.8872,-58.1597,-69.2509,-74.9345,-155.6420,-86.8231,-123.3693,-19.6603,-59.3295,49.1674
41.9398,-14.7594,71.9930,-45.8044,16.1338,-111.0379,39.7521,-34.2622,74.3441,-108.4930,-26.8125,3.0586,-23.1140,-72.5163,-15.0263,-58.1871,60.9472,38.8433,97.9419
19.4841,-30.2228,86.3379,-37.4441,8.8483,2.4898,87.4027,72.5487,56.6867,-24.5393,-7.6200,-19.1726,-0.0501,-27.0401,6.8504,11.5663,49.9875,69.3043,200.0069
-45.4524,-73.8100,-3.5423,-113.0366,-29.9576,-38.1252,197.6320,144.8666,67.4558,105.4957,-61.0682,-97.6532,-42.4654,-92.5456,-29.9008,-5.6051,-35.0483,29.4700,256.7467
-86.9937,-62.5962,-69.2115,-94.4666,-45.4364,-88.7541,257.1777,216.8297,143.0635,197.9948,-121.9246,-104.3108,-83.7777,-146.2904,-46.1696,-15.3795,-71.1829,25.8390,242.2091
-91.3859,-19.3113,-57.4039,5.3147,-29.7437,-25.6310,190.4146,290.0795,166.3984,218.4835,-121.7902,-30.3202,-75.6988,-90.9912,-23.2101,65.9253,-48.9164,81.5743,230.0018
-89.6054,-14.4304,-48.8461,35.0286,-22.8817,42.0275,114.7816,299.3530,59.7723,172.1451,-89.4104,18.7484,-60.6929,6.1603,-28.6263,130.0081,-47.0451,91.4649,230.5154
-80.2300,-47.6238,-57.0546,-23.3742,-22.3241,13.2044,140.1599,259.4471,-14.0997,134.8588,-68.8555,-3.4276,-72.1472,38.3109,-73.9408,98.1257,-60.3925,28.6269,212.0633
-63.4466,-75.3957,-35.0661,-71.5853,-12.5855,-47.2676,177.6820,247.2969,34.3517,162.0599,-52.1921,-55.5151,-63.5008,-3.1602,-71.0512,63.5904,-52.5829,-21.5667,184.4244
-70.2540,-86.9997,-28.6477,-86.1844,-25.2998,-76.2111,133.3705,257.0789,67.3705,218.6067,-26.3390,-105.0606,-5.5871,-33.9052,14.6208,96.8624,-64.8414,-40.4459,171.6481
-95.5752,-98.2260,-88.5190,-114.7108,-62.1336,-77.6921,107.9289,260.7374,78.6715,266.1685,-3.5827,-139.7567,49.3497,14.2252,99.5282,158.6391,-121.6396,-64.0571,203.1134
-101.0756,-106.4414,-147.2496,-142.3920,-56.5762,-45.2022,205.9620,288.9380,184.8382,274.5611,2.1776,-138.1449,61.5751,89.6349,123.0438,188.3239,-158.1754,-62.8035,266.7901
-86.9263,-90.3210,-129.0908,-105.3404,5.5677,6.3275,322.8430,322.4288,257.2489,186.5165,-7.3993,-105.0751,61.4463,86.8970,121.4732,139.9069,-123.2395,-8.4565,268.7315
-67.4464,-52.1988,-46.4654,-14.9404,55.9863,39.0841,327.7894,299.4168,134.4257,40.7937,-10.5982,-76.2332,77.3010,21.5132,131.5161,61.4296,-41.3400,61.7903,201.5828
-32.5977,-24.4771,42.3396,48.8398,74.5927,75.9557,291.6438,261.5637,1.6371,-11.3110,12.0980,-57.6719,92.7698,9.0127,136.1654,83.0299,36.0508,117.2952,202.9530
-1.6013,-18.9464,69.4570,59.0794,99.9388,134.9114,319.9964,275.2462,53.8476,68.2173,34.9585,-27.1897,87.7947,63.5071,117.3822,165.7064,64.3787,141.9599,284.9363
-10.8013,-8.9614,27.0675,61.8313,117.4205,155.1305,336.0675,282.6777,140.9992,158.3700,16.2317,12.0312,64.9262,75.6520,87.2955,133.3924,42.8751,123.6199,290.9518
-26.1446,23.0842,15.2404,94.3027,90.9510,127.3633,247.6768,224.6112,109.9571,178.3815,-22.7168,39.4910,37.9538,7.1603,64.5977,36.4935,39.3395,109.5937,198.7784
5.2868,58.4115,87.5783,150.6808,61.1440,130.6181,145.6771,171.3676,57.2176,148.8761,-20.5126,55.0787,24.0513,-32.9005,54.4808,63.7344,95.7577,139.2588,139.9444
45.9491,71.1469,143.8699,197.4051,77.3903,165.9085,139.7473,193.8860,51.3632,123.4424,21.7709,70.3176,30.4719,41.9620,50.1063,161.1010,149.0592,156.6218,153.1271
36.0069,65.3115,113.0954,205.6292,102.8223,163.1611,176.8130,246.8514,35.8874,157.1067,38.2562,86.9725,37.9908,143.3102,46.2143,177.2765,138.0827,142.6393,174.9180
4.6680,70.1569,74.6439,198.5724,97.7452,142.5972,171.9677,259.4746,29.8740,231.5730,7.1537,97.0784,29.3091,135.8505,49.6546,159.6416,109.0353,177.3144,171.9535
11.1210,90.0154,102.8355,218.5335,106.4879,167.2399,150.4504,236.5995,70.0396,244.6948,-8.1057,94.9958,28.0913,65.3650,64.8972,178.6559,129.4099,253.2475,155.4861
52.3276,90.7802,164.5330,239.6388,160.4015,207.1029,161.6757,218.5197,83.0024,176.8793,40.3169,92.4735,61.2287,81.3869,80.6464,179.9026,182.4165,258.1259,150.6505
86.1570,62.8678,192.0308,204.2850,190.3573,198.5017,187.8997,197.0695,53.3712,120.4045,98.9654,98.3923,99.4997,163.8575,88.6201,145.7062,200.6039,181.8656,152.2072
79.8131,35.3699,144.3214,116.1519,138.0875,143.8965,189.7616,135.5188,68.2932,103.3220,90.9767,84.9124,98.0633,158.9923,92.8851,107.1601,144.8176,114.8885,113.9177
37.2291,13.7440,51.0943,21.8885,67.4717,82.6027,164.5342,55.9079,101.0889,83.2178,39.0820,36.8631,74.8185,59.8321,95.8671,58.8245,49.6149,88.0106,46.3973
10.7964,-7.8751,6.5597,-31.7106,56.1739,43.3538,139.2134,14.6673,66.4296,64.8441,24.9896,6.0026,82.1416,5.8204,108.7579,31.1242,1.4723,72.0672,16.5440
31.0907,-4.6356,23.1826,-20.0817,61.2237,32.4777,129.0814,1.4859,31.3144,59.9340,56.3455,23.4756,119.3315,40.8075,147.9362,62.5499,18.9762,41.3526,13.3818
43.4203,16.3050,-7.4604,-2.1226,8.6992,27.3941,120.0590,-30.5654,69.2089,50.1994,65.2251,31.3883,125.9090,79.9360,173.1386,90.6093,6.3467,-17.1765,-12.9705
1.7860,5.9303,-116.1547,-59.1907,-70.5915,7.0053,100.7557,-71.1482,106.2567,48.6939,17.8491,1.5697,63.3090,70.0048,114.6188,61.3628,-84.8536,-70.6105,-33.1611
-47.5482,-19.9008,-199.1878,-131.5360,-104.8956,-12.5339,82.7116,-75.3335,112.3455,68.2921,-45.3846,-0.7229,-14.9690,42.3677,23.9965,33.5268,-164.4175,-64.4240,-13.8602
-68.2892,-12.9922,-214.6443,-114.2200,-100.2717,-9.0109,72.4610,-19.9022,132.1238,86.0747,-73.6650,43.4873,-21.8732,40.4794,30.9871,59.7485,-176.0614,-28.7891,18.0802
-95.6760,-8.3753,-226.6662,-68.7658,-114.6554,-6.2360,57.1392,75.0618,99.3742,98.8578,-70.3566,59.8979,19.5429,58.8977,98.0264,107.8740,-188.4846,-53.2099,38.3089
-125.9574,-37.7711,-245.5036,-87.6317,-167.1114,-55.6642,19.5431,118.4450,-23.8412,94.1785,-72.5800,21.6930,6.1760,52.0177,74.5780,116.4864,-222.8341,-143.9503,14.5333
-102.7686,-39.7945,-215.5215,-101.2959,-210.5575,-153.3658,-53.5322,31.9300,-95.0543,40.0152,-78.2843,-17.2517,-48.4928,3.9435,-2.8413,58.2217,-199.3365,-212.3085,-83.0290
-40.8091,4.4860,-137.6232,-48.6693,-186.2796,-212.2126,-151.8304,-102.0557,-66.6474,-1.1034,-49.2960,-23.8237,-37.9072,-32.5650,6.6010,-8.6803,-112.7409,-201.1674,-183.2745
-2.8224,24.0814,-66.6965,-6.7341,-116.4024,-177.4663,-235.6781,-145.2131,-71.8828,40.1345,5.7521,-0.5776,11.1728,0.0467,40.2069,-3.1280,-50.4089,-156.9597,-200.1762
15.4298,8.1342,-30.7739,-16.5816,-92.8751,-126.5570,-282.2244,-124.8783,-109.7132,61.4787,32.3925,41.1802,-17.9687,84.9500,-35.1842,41.2203,-34.6642,-155.9372,-180.0273
42.0479,6.1554,-22.5321,-31.4418,-126.1617,-148.8012,-290.7055,-143.0309,-69.4011,-15.7575,22.6828,58.5727,-91.1153,143.0357,-131.5666,44.7278,-23.0237,-180.7896,-179.8747
52.2952,8.7793,-22.0387,-43.7257,-114.2949,-191.2875,-245.3608,-173.7416,-12.4111,-69.4878,17.3695,22.9431,-83.9067,121.7116,-106.5971,20.8255,-9.2841,-141.0302,-157.0204
29.7051,-8.5070,-6.1986,-61.7816,-22.5387,-152.8945,-163.0512,-146.1431,-42.9157,-42.9969,26.9125,-9.5333,-9.5848,67.5264,-20.2118,-3.8482,-3.0449,-23.6511,-99.2636
1.9271,-24.1278,17.2391,-64.8825,54.3200,-51.8633,-114.9520,-82.5932,-95.4367,-44.2904,30.1108,13.0052,30.8710,65.6896,8.2189,-40.6898,-2.3981,78.9669,-58.0173
-23.5626,-36.5398,-3.6850,-77.6560,54.5878,11.3394,-110.3968,-36.4849,-90.3713,-67.9567,20.1673,28.9959,20.1023,94.3240,-11.4917,-48.5389,-34.0557,97.8679,-42.9417
-57.2814,-59.0810,-82.8964,-123.1258,28.6009,-10.5275,-91.0807,-28.3790,-50.5109,-14.9383,2.9311,-30.4776,4.1294,52.6006,-17.3407,-2.9563,-102.7394,59.8229,-46.2982
-72.6022,-54.7928,-133.6339,-124.5252,39.3136,-65.8417,-77.9078,-57.6487,-9.8889,65.8695,-12.0365,-94.5162,1.9564,-38.7950,-1.8871,22.0951,-126.3573,49.1812,-76.2169
-39.5190,3.7852,-79.7418,-21.3889,93.2828,-58.3795,-120.5908,-87.8092,4.6530,71.0941,-8.3448,-42.7433,4.6318,-37.4514,2.7070,1.9895,-46.0889,116.5961,-100.2290
20.3611,72.1089,18.3601,112.1877,157.4505,33.4383,-143.0158,-83.7586,-15.7902,-1.4652,14.7237,102.7847,4.6868,78.5318,-19.6216,-14.1212,69.0529,193.3073,-91.2514
65.5213,100.8317,64.6833,174.9421,184.6759,106.7218,-82.9647,-81.1133,-34.7353,-112.2220,35.4724,199.3803,4.9028,162.2313,-43.4079,-48.7654,128.0047,170.7295,-89.9621
86.3662,92.1083,79.5013,158.0232,151.0063,80.7668,-56.6323,-122.0092,-61.5400,-191.5562,45.5974,187.0185,7.8220,138.4258,-47.1935,-107.1717,136.5711,76.6024,-115.6435
99.8282,76.5962,112.7394,121.3342,80.3095,19.8743,-145.9073,-173.0594,-126.1492,-179.6570,54.5613,153.6693,2.1132,101.8871,-52.2608,-90.5873,138.7608,13.5916,-125.2939
113.0241,79.7299,113.0462,111.4708,11.0437,2.2768,-218.8303,-192.5662,-130.2042,-151.7250,54.6021,176.0150,-18.3549,130.7911,-66.3793,-12.4361,129.6833,-29.2064,-99.4166
109.7222,88.3375,31.2039,96.5317,-42.4595,-13.4601,-157.6736,-193.6368,7.4061,-186.0903,29.8394,204.4586,-37.2605,173.0238,-61.7485,-24.7112,82.8643,-108.3134,-59.6017
76.6512,61.3941,-66.6651,13.6957,-90.1709,-80.1886,-53.4176,-196.1895,137.7260,-198.6817,-3.4722,156.1611,-38.7527,160.0466,-35.1772,-126.2248,5.0971,-183.3757,-34.4748
30.6023,6.8401,-103.4384,-95.6909,-142.3442,-148.3580,-34.4605,-194.5465,98.3326,-132.8520,-13.4897,45.8182,-21.1798,101.4414,-1.5389,-159.0708,-64.7615,-201.7901,-52.2583
1.8820,-17.2133,-88.9102,-122.7074,-180.6980,-151.3474,-79.0230,-177.5675,-33.2010,-72.0823,-7.0440,-26.3721,-3.6791,46.4969,23.4209,-91.0927,-88.8542,-179.1078,-94.5058
-0.9993,-3.1476,-63.7507,-79.5715,-173.4539,-107.7679,-86.2045,-139.8456,-97.1219,-60.6772,-19.4493,5.3039,-24.7244,39.7141,-5.7653,-44.9059,-68.3652,-136.2909,-92.3347
2.8008,-2.9575,-50.7716,-76.1484,-125.8523,-76.7541,-23.1132,-88.7693,-57.0687,-83.6725,-48.2848,83.8533,-69.1904,82.8529,-74.7062,-91.2908,-48.5344,-87.3169,-31.8096
-6.1915,-27.6570,-53.6648,-115.1718,-68.1420,-63.6496,49.0583,-48.0229,17.1184,-146.1826,-51.2847,92.4399,-52.4423,101.6481,-61.4957,-153.2141,-55.4317,-40.5949,18.8610
-15.9403,-34.4983,-39.3497,-100.8462,-1.6901,-19.4722,57.6242,-39.4219,27.0344,-199.6930,-11.2785,16.0826,31.6611,52.9171,44.2518,-119.6420,-48.6627,36.9326,14.3070
-0.7057,-15.9540,19.0193,-31.3655,78.1711,66.3755,2.3501,-60.1156,-58.2666,-186.5845,45.4504,-39.6564,76.8318,33.8693,75.1833,-31.5065,4.3122,137.1131,-19.6535
21.9757,-11.3917,70.2428,-2.7032,133.9907,123.1918,-55.1007,-78.7159,-152.1908,-143.6583,80.9201,-16.1834,50.1675,105.8548,-9.8643,-31.7976,48.9008,164.7361,-44.1054
16.3988,-23.6345,59.3381,-30.1850,128.9616,92.7665,-70.7375,-73.8233,-160.5648,-90.2178,70.4686,25.7280,27.5050,133.8276,-54.2174,-100.6367,34.5343,105.1863,-58.1744
10.9369,-8.1156,38.6263,-23.6839,85.1000,19.3142,-57.9229,-71.3737,-82.2194,-11.9504,34.1452,23.9727,28.6127,39.4835,-10.5760,-91.7847,23.3839,66.0569,-77.4662
50.5581,40.8307,82.5389,54.2554,56.3744,-6.2832,-53.8159,-86.6527,19.9588,25.2005,30.1172,-4.3199,11.5786,-7.0408,4.5805,-27.8890,86.3065,86.5446,-78.7896
99.0292,79.0055,159.4455,143.2922,69.5198,47.5984,-67.8898,-76.6457,67.0539,-0.8766,66.5582,-7.1898,-17.1710,95.6787,-47.6276,-33.3504,174.9739,113.2752,-33.2693
113.0355,96.3868,203.2373,200.4139,102.5691,128.1563,-73.5803,-43.5803,33.5409,-8.9710,85.1105,42.0176,-27.0738,172.1635,-90.2247,-73.0135,219.5388,123.5782,6.7645
126.8599,116.8487,219.2545,231.0289,115.4716,153.1390,-46.8747,-61.7964,-5.8574,-5.2132,69.9689,110.9536,-12.6317,100.8152,-69.2950,-62.9385,237.9075,111.9112,-18.5986
144.2083,125.9800,219.4956,223.3318,98.0458,105.3218,1.3541,-99.9018,7.1421,-21.9862,55.8754,132.7509,17.2410,17.2057,-5.8431,-40.2599,241.9762,87.4183,-49.7026
96.9715,96.8995,170.3564,169.9529,71.1896,68.1798,38.2447,-28.0541,29.6776,17.7775,35.0224,94.6399,30.2901,39.7558,34.6566,-27.6317,184.9317,119.6633,-8.9848
4.1819,49.2349,92.8576,108.3994,60.1209,109.5143,56.1760,121.5356,33.0742,93.3330,0.3997,45.8722,12.6774,95.9043,24.0118,8.7267,87.9287,209.9576,69.1489
-19.6174,12.6451,80.9124,64.3526,88.3102,167.8719,94.9527,170.3084,47.1511,88.3787,5.4628,7.7987,19.4968,82.8042,19.1772,27.1638,57.0106,238.0812,131.8410
43.4335,-2.0803,152.1895,37.4249,150.5962,156.2667,179.2501,91.0734,79.0155,71.7448,56.6341,-23.0952,80.9217,2.4260,70.7447,-6.4336,119.5052,190.3468,172.0054
103.4548,17.6018,216.2553,47.2903,190.4018,115.0485,248.4935,17.2798,129.0580,126.5388,87.2292,-18.4185,141.2285,-55.3060,150.3838,-13.6772,188.5248,191.5923,162.6396
120.5528,53.4468,219.8151,84.5460,174.4052,125.7205,229.8873,-1.9959,189.6637,116.0564,92.3622,18.9688,163.0111,-14.1450,203.0479,29.0273,201.2265,237.3013,100.8877
115.7006,50.1508,190.7364,79.2890,146.2153,147.0449,154.9960,-27.4024,183.2838,-17.8813,109.4917,18.6165,156.3359,57.6158,187.1331,21.4670,171.9250,205.4396,47.3340
94.8959,9.0540,152.6000,16.2114,131.6409,94.1133,92.5845,-86.4307,80.3001,-132.8949,105.9577,-33.2621,120.3095,21.2327,113.1641,-57.1029,127.9124,115.3659,5.3098
69.8222,-5.6413,118.1733,-26.6510,97.1256,10.6369,35.7799,-141.8154,-4.5473,-161.2292,64.7426,-52.3305,85.0446,-77.7971,77.0382,-92.9405,89.7881,82.6161,-62.9912
68.3180,15.7045,115.0158,-8.8781,50.3663,-5.0707,-23.3734,-141.5144,-17.1896,-121.1710,54.4692,-3.8776,96.2351,-55.4929,116.7076,-29.9465,82.1835,98.3510,-95.4172
80.7686,19.6819,131.2405,20.1708,29.6958,15.7435,-36.0835,-84.0760,-65.8562,-52.9747,88.5409,33.2790,105.9007,76.7273,116.6298,50.3863,97.6690,67.2302,-41.1006
80.1189,-4.4359,129.1823,16.8985,4.7151,-23.3280,-9.3975,-50.0354,-176.0654,-70.3697,95.1195,-6.7958,54.4969,114.4249,26.8541,56.6143,102.2919,-24.3688,3.9772
83.5921,-10.9298,142.4939,6.3966,-52.2469,-91.0857,-13.3268,-86.2800,-197.2339,-125.3355,67.2318,-76.5341,-1.4908,13.4445,-34.3671,-2.7634,111.1753,-91.9212,-17.5495
114.7758,24.2641,220.2874,41.6095,-80.3521,-76.1283,-42.0588,-106.4050,-60.4435,-12.1224,58.7080,-79.6059,-6.7373,-49.2366,-18.1569,-53.7509,168.2164,-63.0281,-21.3226
138.3169,70.5373,286.1010,119.5387,-48.9213,20.5518,-37.6177,-45.0557,74.3595,122.9911,65.7425,-7.7658,0.0904,17.7219,-4.4266,-59.1697,229.3949,25.1388,11.8611
108.5098,89.8928,225.7035,172.9899,-21.3717,97.9922,-18.7935,0.6454,35.2104,-30.3304,52.2875,47.8853,-7.9544,101.0604,-16.0299,-47.9529,201.7003,72.2252,-4.6751
56.2754,96.3539,96.1660,183.3383,-22.7741,118.7324,-35.8287,-52.6770,-97.8446,-255.4709,24.5471,51.8138,-14.8822,101.6042,-20.9399,-49.7758,120.2102,68.5326,-66.4631
51.5152,128.3530,63.0466,214.2518,-8.4525,132.1812,-64.8179,-110.8843,-113.9502,-189.5104,10.0299,82.4481,-15.8190,79.8611,-17.1388,-52.8335,114.9113,92.0119,-86.9758
90.5259,168.7149,139.4174,278.6171,22.0958,165.6395,-52.6018,-73.3401,-30.9811,-24.1563,18.6620,165.5400,-3.6266,119.4821,1.0959,-36.5144,188.7096,142.1218,-51.7977
100.4220,167.9149,171.5674,305.0182,27.9325,182.6998,-6.5846,-0.1359,-45.3542,-40.9282,29.4752,199.2257,7.4736,172.6107,11.0720,-9.0470,215.8498,137.2677,1.4911
51.8453,127.6114,91.1464,261.6101,5.4769,142.5460,16.9317,27.0557,-140.0868,-88.8339,8.0776,126.6198,-26.4097,141.3570,-36.9349,3.5218,149.6733,72.3853,49.4606
-8.4579,81.6562,2.1212,182.4182,-24.3243,61.0910,-5.4392,42.6418,-134.0447,-3.0503,-29.9732,28.5844,-68.3504,55.5733,-79.9187,-2.9047,62.7879,20.1500,63.8050
-32.2519,47.6409,-10.7911,111.1766,-44.8254,1.9469,-36.3236,80.8387,-46.2863,117.2747,-28.3035,-6.8465,-40.0070,43.0944,-29.8901,-7.3044,19.0071,5.6519,38.9541
-19.0525,43.7355,9.4412,95.9059,-42.7194,2.9405,-56.9399,84.7028,-15.8897,155.0908,6.6372,14.4491,7.1209,116.1424,24.4626,-5.3082,22.9941,3.9468,11.3248
0.2418,70.4815,14.9595,139.3673,-36.1219,32.7634,-97.8553,25.7533,-40.9879,74.8247,14.9233,26.1949,-12.1995,131.5745,-9.2084,-13.0638,46.3705,8.5070,-23.4870
4.6618,86.8013,33.9337,168.3029,-61.3920,45.6803,-147.1891,-34.2494,-76.3492,-63.4845,-1.7342,-19.0017,-44.2840,31.3259,-40.4998,-30.4768,60.0849,22.3165,-108.2756
11.6495,80.9448,93.2585,159.3622,-97.6822,53.3786,-153.7603,-48.7369,-112.7115,-112.7387,7.5591,-77.4606,-25.8067,-37.7775,-8.9425,-46.3492,77.9453,42.0704,-199.7603
39.7143,88.3984,165.5702,176.4586,-86.6491,99.4655,-132.4836,-20.0055,-87.8892,-54.3098,41.8626,-61.6576,1.7292,30.4522,14.4977,-53.4992,126.3139,78.6365,-193.6238
58.6601,106.3474,206.4363,224.6917,-34.3114,175.1063,-115.6360,48.0204,-9.4174,2.9466,57.0228,12.2159,12.5767,110.7820,16.7597,-32.5668,170.0122,128.0828,-90.4612
44.8263,109.1291,201.2633,255.0066,2.1092,217.7126,-69.6822,117.1464,-6.8168,50.9872,38.3377,50.5308,22.2765,63.0692,32.6561,17.7475,172.7366,144.5792,10.3387
37.8556,116.4627,185.6966,282.1144,12.1176,203.6041,6.7757,131.1356,-64.9082,111.6498,12.5436,47.5114,19.5621,-38.4476,37.5014,51.1151,178.9665,114.7238,68.9003
64.1719,131.6537,205.1935,311.4153,33.7811,176.8300,61.1498,127.4731,-25.1199,146.3767,16.9923,50.6039,22.9588,-51.0372,44.5406,51.1299,219.8522,98.7318,124.2278
86.0899,106.8911,237.5108,275.6809,85.2475,167.6053,113.0990,174.7365,103.7317,172.0675,58.0834,37.0241,66.7872,20.4763,91.0232,59.4885,239.9153,125.0810,183.9880
78.6602,44.3165,214.4536,173.1554,148.5270,159.0302,192.3331,216.4615,184.3748,177.9945,90.5746,-3.5480,98.1532,70.2451,107.6071,74.4697,199.9523,138.9201,205.3367
58.7585,6.7526,131.7149,94.1333,192.6250,142.4113,225.6489,173.8923,195.8106,118.8123,75.6785,-11.3854,70.9683,41.4389,54.1841,60.9375,133.9021,113.8253,169.7066
36.1782,8.9932,60.8130,70.1357,191.3841,120.8347,176.2454,106.4744,182.0556,129.1228,43.2971,4.6670,46.5933,-24.2117,28.0097,52.8397,82.1256,93.2913,112.5391
18.8296,9.7269,51.3098,57.0202,156.3827,83.3272,124.0626,94.1719,141.6050,264.6856,40.3885,-22.7869,57.9088,-41.3871,54.2022,76.0499,63.5231,95.4101,89.9698
16.8694,-11.9896,73.9390,29.6894,144.4909,46.7087,122.3418,112.1287,87.8241,243.7692,51.3525,-52.2397,56.9806,1.2713,44.2974,57.3940,71.1890,98.3251,123.9177
11.5396,-36.0319,60.7217,-2.8082,176.3109,45.9302,164.7088,116.7948,68.0586,9.7085,33.6617,-7.8942,49.3387,9.0719,21.1715,-25.1865,60.3299,92.9611,161.2979
-3.1410,-28.9432,-0.5452,-14.5173,181.6013,48.0299,226.0979,93.6441,108.4611,-66.2134,-2.1720,52.2055,76.1273,-70.0897,76.0959,-62.6913,18.0263,60.0988,123.9199
2.5700,8.8074,-44.9940,6.3165,100.2950,-7.1709,215.5102,31.9713,165.9617,78.5285,-16.3620,47.7651,100.3844,-150.0144,153.6049,-13.7102,-7.7880,-21.7208,17.2947
11.8798,25.7152,-53.2090,10.7643,-18.1949,-98.8217,93.7175,-27.6240,144.5766,134.9541,-15.5884,12.6836,73.9073,-142.7154,145.9406,21.5068,-19.3238,-113.9202,-67.9671
-19.1741,-2.5943,-91.5755,-42.2956,-98.3315,-168.7170,18.2201,-21.4566,63.7596,95.3810,-34.8883,-6.4646,27.6366,-85.0486,89.2064,-2.2498,-69.3552,-169.4058,-66.2418
-53.7570,-26.4383,-155.7506,-96.0753,-143.7680,-195.0325,95.6220,27.5267,74.5566,131.8981,-69.7150,-8.0033,3.6058,-53.1675,73.9158,-16.0421,-126.1535,-198.4049,5.5804
-49.8894,-19.9956,-160.1985,-99.7752,-183.4076,-170.4218,170.6711,65.8410,147.8367,182.3238,-93.8746,23.1602,-8.6465,-53.3499,80.9900,8.9720,-130.7160,-206.0259,80.8603
-66.9822,-34.7645,-135.9221,-114.8463,-212.1135,-127.9024,117.1110,108.6314,85.1518,193.2757,-109.2795,51.8796,-32.7918,-52.6870,44.3277,31.1212,-142.5587,-186.3235,101.4890
-140.3353,-92.5919,-185.2362,-184.1735,-234.2819,-141.2441,41.2024,167.8831,-60.8468,195.8358,-119.3967,-23.2421,-58.3627,-40.1836,-6.1970,36.3967,-223.3397,-180.0955,77.5796
-202.1896,-135.8394,-260.1776,-224.2785,-251.4097,-179.8828,27.9693,213.8342,-85.4490,103.6959,-112.7706,-175.5033,-54.5772,-40.2362,4.7611,37.4498,-294.6902,-188.7511,74.1062
-223.8099,-131.2219,-261.3597,-175.9782,-212.8566,-128.4413,15.0376,251.7890,-60.1120,-25.3753,-104.4855,-238.1710,-26.8442,-85.5765,46.1185,38.9756,-289.6306,-136.6549,105.6705
-237.2528,-123.0874,-234.5403,-129.9656,-105.0636,-23.3424,-4.5192,300.2344,-100.2113,43.2500,-105.1855,-176.6369,-10.4813,-127.6571,39.4224,71.1151,-269.1599,-41.7644,128.7956
-218.5484,-152.6005,-235.7108,-184.6576,-23.9328,-12.6601,56.3202,327.6140,-64.1290,203.9986,-72.4879,-130.8510,2.3592,-47.5174,21.5079,148.7468,-273.0447,-20.4696,149.4383
-148.7601,-190.8712,-206.5389,-277.0079,-29.4144,-75.1876,180.2451,305.4235,59.6039,156.8181,-0.9340,-155.5350,38.4086,118.9866,56.2066,195.6908,-250.3329,-61.2735,194.8190
-93.6559,-176.7992,-123.2829,-261.6454,-37.5881,-61.3171,222.4697,254.3703,55.2587,12.5346,32.4496,-154.5304,67.0386,156.2597,88.8730,155.1998,-179.4520,-39.4070,209.9199
-84.9474,-104.3377,-54.2727,-121.2918,24.6310,37.2561,129.7276,209.6232,-44.4765,28.7567,7.9243,-78.4081,60.3671,29.3368,70.8933,107.4967,-102.5939,44.9797,143.9694
-78.8262,-46.8439,-42.9722,-2.8388,95.4449,95.1166,32.6282,188.6905,-63.1075,91.0381,1.1644,-4.0550,54.2952,-36.4714,51.9115,120.8334,-63.3738,65.3848,62.9897
-62.4159,-57.5365,-71.5817,-12.6906,101.3069,61.2556,44.3023,173.3995,-69.7202,39.7695,33.8299,1.1335,62.3713,41.7835,43.6002,127.6633,-72.0340,-22.4560,43.8200
-39.4342,-78.8126,-79.5013,-65.3035,60.7363,6.3745,105.0969,135.5294,-83.9801,19.0579,51.6148,-15.2112,54.9790,101.1065,22.3373,82.1626,-76.1474,-119.9647,65.2590
10.9019,-38.0622,-8.8798,-33.8398,16.5943,0.3339,127.1033,100.7097,54.4874,114.4660,38.9223,21.7635,48.7956,57.7469,42.5738,42.4946,-13.2633,-129.3887,83.9383
55.8941,16.5797,87.9587,39.2555,-5.9058,24.2422,130.9849,111.2617,209.6131,149.5438,21.5730,84.7192,73.1525,-10.3698,116.5631,31.7382,67.6502,-76.3515,109.7804
44.4350,4.5613,108.5664,39.5073,24.5659,34.7876,154.2953,146.3943,126.9406,65.3909,13.6160,108.8538,95.7010,-27.7896,139.7740,25.6307,78.2341,-31.6680,170.3233
23.4659,-35.8736,87.5595,-7.6382,107.5194,58.4329,184.4177,168.0804,13.6491,32.5564,23.0986,118.0391,92.4094,24.4313,93.1213,35.7245,59.6069,23.6104,251.3176
51.5059,-26.5719,123.4630,1.0357,193.6314,124.5791,196.3209,167.5339,117.4753,75.6483,48.5370,152.9336,99.0443,90.0796,81.8943,52.2780,97.9012,127.5309,287.7673
94.9697,19.9460,197.3494,78.7905,261.9245,186.6678,167.6834,132.9634,203.4322,49.9414,79.1370,183.0967,139.8844,87.8143,132.5625,46.7407,175.0502,223.2231,249.7132
121.4070,61.5902,242.8412,171.4039,323.5541,214.1223,132.7533,81.8954,118.1526,-4.7525,106.2510,197.6961,180.2301,48.6262,171.0398,53.0017,240.0212,259.2254,206.1546
137.3718,88.2491,245.2827,218.8083,354.1721,227.6872,180.0225,68.0696,112.4488,32.8336,99.4372,220.0298,167.5268,27.2547,153.0651,66.2733,270.2866,268.0027,214.4977
123.4068,74.5548,205.5967,168.9214,342.2731,207.0972,274.1650,81.1063,228.2954,64.9667,50.0187,208.1875,115.9851,-27.3109,105.2235,14.2364,238.2620,264.3000,232.3622
83.3068,18.1459,162.9874,69.0027,334.9208,142.6280,269.5219,74.4394,215.3582,28.3704,33.0295,131.5312,115.2078,-105.8753,102.4093,-41.7528,174.2368,234.1722,222.8770
74.4514,-7.5228,180.6537,52.2497,334.1020,112.1623,179.0384,69.3314,88.9109,63.2974,82.1808,74.4470,171.2066,-100.0843,154.8920,14.8716,166.8591,205.6085,202.2581
104.8190,31.2917,228.6454,127.9582,285.6036,143.5744,130.3470,73.8071,36.4767,123.5610,101.6937,102.4894,147.5267,-31.4774,124.0970,81.9970,213.7145,188.2355,158.1351
128.7878,67.2378,241.0636,173.0369,211.8388,154.3668,96.6490,34.5364,28.0982,23.3790,51.6039,160.4102,12.4052,-11.7097,-45.7654,24.8865,238.6192,143.4407,80.3639
135.5614,62.8296,235.7682,153.8079,165.4122,104.7525,-8.3281,-33.6706,-2.4505,-103.6721,23.7358,180.9922,-64.4466,-42.6059,-152.1994,-46.9259,228.3848,63.8943,7.5379
132.3823,53.1722,230.1956,126.4352,102.6676,31.2817,-132.0047,-72.4353,2.5274,-71.8064,44.1979,153.0623,-14.8791,-84.4486,-72.4194,-27.6867,199.2914,-26.5441,-56.7863
121.0298,56.6928,213.0089,108.0138,5.0061,-26.5626,-195.8317,-97.5402,24.3817,-30.6994,42.0597,113.6569,15.6429,-122.6460,3.2202,-16.3279,164.7219,-89.2892,-126.1616
123.5421,73.0994,224.6469,118.0819,-37.5777,-28.0339,-189.4597,-118.7514,-7.7824,-71.1306,5.2115,133.3840,-46.9060,-122.1967,-69.1024,-73.1164,177.2786,-73.7571,-150.8347
133.0330,93.7736,247.3641,150.5172,-25.3627,-3.8684,-135.8615,-118.4197,-60.9425,-62.7571,-27.8665,180.6342,-110.4691,-114.1937,-160.4414,-122.8666,213.7610,-38.4621,-132.1179
101.1592,67.9295,168.4471,93.8428,-76.5895,-67.4837,-126.4578,-152.3007,-99.9885,-37.4657,-38.3274,100.1751,-117.6277,-159.4880,-159.1660,-116.6398,145.0534,-116.4896,-166.3694
32.7146,-12.3293,9.6137,-68.5296,-192.0645,-191.7084,-218.7072,-232.0486,-151.3814,-93.4165,-21.6069,-94.5548,-105.8076,-177.1154,-129.4716,-69.2627,-22.2350,-252.0381,-255.3288
-31.0652,-62.5106,-105.2058,-178.2042,-281.1317,-232.2111,-297.6414,-260.4297,-201.6084,-169.3741,-27.9308,-185.3434,-119.5488,-124.0412,-136.5473,-59.3803,-149.0751,-287.9410,-310.9044
-104.0893,-60.8581,-209.1248,-217.5008,-357.1688,-244.1792,-298.0294,-255.9549,-209.2579,-228.6471,-125.1708,-145.0654,-173.5737,-171.8046,-166.1923,-169.7972,-244.0093,-279.4722,-345.0031
-194.0375,-72.6861,-358.4209,-301.4577,-442.4836,-353.8293,-332.8627,-300.3087,-174.3929,-178.9787,-248.0927,-158.3577,-229.1024,-358.7226,-177.0588,-266.8505,-376.5501,-316.1618,-392.3725
-240.1817,-83.3208,-426.7508,-334.5999,-454.2008,-413.9618,-386.1230,-286.4725,-134.3434,95.3207,-266.1612,-243.1727,-228.8172,-432.4483,-147.7314,-146.1676,-437.4879,-281.2747,-381.1314
-220.8835,-53.2912,-360.4295,-210.4987,-373.1947,-273.7248,-313.0313,-164.2561,-143.0259,220.2478,-193.9157,-308.5161,-204.6536,-305.1782,-139.5199,19.3439,-356.5343,-151.6999,-304.0115
-202.1642,-46.5783,-320.9911,-126.5767,-301.4964,-107.6021,-198.3649,-146.3434,-197.4093,-187.6933,-140.2095,-398.8177,-221.6721,-201.1709,-210.1183,-78.5222,-294.8961,-94.3907,-288.8953
-226.0244,-75.8428,-378.4676,-188.9742,-288.4246,-71.0339,-210.8086,-268.8830,-233.0778,-562.1401,-134.9184,-493.4604,-232.0798,-214.9403,-248.4435,-265.6436,-346.1010,-92.2237,-365.1847
-261.3666,-49.1330,-429.6866,-187.6240,-308.0717,-59.5696,-275.7863,-277.8088,-272.7528,-292.5194,-145.3442,-440.1083,-182.0149,-189.2327,-158.7706,-171.8527,-395.5279,-16.7233,-415.8781
-264.3050,10.9013,-434.0572,-79.1666,-332.0002,-16.2655,-280.6504,-153.3153,-339.8941,91.5997,-147.6522,-295.4714,-157.4804,-69.8223,-99.7389,89.3693,-380.3224,35.1962,-377.4565
-216.5132,14.1325,-401.5076,-30.9102,-290.7829,6.3858,-240.3109,-91.0972,-260.1563,20.4527,-125.2068,-244.1670,-199.9992,10.8882,-175.4454,163.0384,-326.0389,-14.8924,-273.1667
-139.1136,17.2579,-296.1690,13.6780,-145.4067,54.6762,-133.1869,-51.9412,14.9796,-106.2428,-80.4256,-220.8659,-172.2065,1.6405,-169.8056,65.1990,-211.3090,-12.0577,-138.4105
-84.5082,68.8977,-164.5827,133.0298,-8.5625,136.7686,13.7135,55.8528,150.2521,31.2155,-36.9390,-106.0952,-28.8840,-0.9756,14.5836,46.1671,-79.7822,80.4014,-36.5687
-67.9021,67.8653,-109.1779,144.7911,33.8398,135.9524,60.1831,110.7030,14.5780,139.9978,-5.2960,-14.9934,55.2865,57.3858,110.3542,143.1873,-42.4714,127.2103,-3.5725
-45.6049,5.9163,-87.2285,37.4764,89.8863,87.3735,48.4559,95.0335,-24.3125,127.0754,18.2145,-13.8202,19.1095,113.1654,21.9942,213.6335,-46.1698,157.0072,20.7192
-9.2364,5.8724,-21.7355,58.1337,218.2339,136.3063,129.2331,144.9322,160.7196,135.9982,30.2184,9.8543,20.9566,81.6930,5.7773,191.5083,19.2317,234.5493,67.5559
-14.7270,47.9374,8.4041,165.9017,276.5115,206.6083,200.5702,205.4734,232.2206,118.7737,16.9297,40.0449,88.3276,-47.5462,108.8968,116.2677,64.2241,239.2909,94.6201
-69.1597,28.9372,-51.0633,137.4250,217.4505,155.8163,154.5407,184.6138,127.7700,96.3288,-28.2553,-11.3528,77.0597,-172.8096,107.5732,43.6548,5.7292,156.6028,143.1537
-105.4006,-1.8256,-96.2277,79.4293,202.6203,95.3369,166.3029,212.1956,105.9350,162.2390,-73.4372,-40.8432,9.0341,-170.6579,21.9080,19.0280,-30.5994,165.3025,267.0128
-103.1514,29.8000,-77.0424,165.5535,274.9529,165.1139,299.9238,332.2289,147.7369,197.4050,-75.9357,21.0557,23.6377,-88.0464,43.2975,44.7292,17.6626,260.2753,341.5535
-106.9520,57.3478,-66.9264,236.4902,265.2460,241.5330,349.7667,370.0029,111.3210,165.3316,-61.5848,27.1146,69.8295,-99.8749,109.5777,52.1077,28.4718,247.6387,266.1900
-121.1800,16.9738,-91.6617,124.9246,106.0070,153.9018,266.5764,283.2770,75.6300,184.5333,-89.0766,-56.8255,21.0986,-211.9531,66.2329,13.6943,-42.9843,96.5442,175.0269
-112.2801,-42.6245,-123.6579,-46.2678,-62.0180,-38.1345,193.0726,192.0029,56.5931,151.9225,-140.8784,-60.8268,-72.5373,-247.8429,-28.5072,16.0080,-112.8773,-53.4357,166.4149
-89.1315,-53.1474,-154.3497,-101.8848,-124.5391,-156.0963,144.7343,125.6425,-27.1950,-9.5321,-161.9658,33.9994,-110.5389,-174.7162,-67.0031,66.7983,-135.4551,-109.4343,132.8173
-77.4687,-11.4519,-143.8778,-37.5165,-115.3157,-146.5342,57.5322,70.1490,-61.6197,-64.2391,-150.9353,71.4776,-99.1119,-145.6020,-53.8147,35.7046,-110.1121,-88.1528,26.6594
-63.8499,24.4189,-64.9644,31.7690,-106.6392,-103.7130,-56.3862,46.6180,20.2468,62.0548,-122.7903,20.7017,-73.0263,-211.3372,-23.4059,-47.5317,-55.5871,-76.0478,-60.8847
-38.7728,13.7212,0.9572,25.6752,-112.7076,-99.8449,-155.4771,21.5875,41.3024,148.3368,-85.5009,-28.3644,-65.4880,-267.1080,-30.0947,-17.3862,-28.2830,-114.5781,-101.4311
-33.7374,-6.6572,-22.0366,-10.9629,-102.1270,-109.7019,-191.9501,-34.1036,-38.2937,120.8731,-77.2191,-46.7084,-109.6314,-253.7762,-113.1255,27.2487,-46.0644,-131.2049,-119.6860
-65.1256,-6.5398,-93.3043,-26.8043,-63.2815,-123.3593,-167.6392,-84.1336,-86.0547,43.6837,-106.6768,-52.2807,-149.1429,-221.5922,-179.2103,-102.8077,-76.2071,-101.3340,-114.3839
-94.2615,-19.8533,-147.5472,-62.1357,-38.5115,-171.5658,-179.9545,-126.2968,-107.6972,-43.8253,-111.8550,-59.8881,-110.0352,-225.6744,-132.8852,-221.5207,-114.1296,-117.0792,-118.0962
-80.3471,-45.6958,-146.2929,-104.7635,-56.8495,-199.5142,-223.4245,-141.9573,-83.8723,-16.7955,-67.7079,-104.9223,-59.0820,-235.1787,-65.2983,-108.0149,-133.8435,-163.6817,-127.3306
-39.7342,-40.5518,-59.0833,-71.5722,-64.0992,-112.5027,-156.1900,-44.7394,87.0501,139.2362,-22.9397,-182.7917,-74.8779,-172.7531,-79.4851,27.5937,-72.9938,-97.2600,-58.7677
-19.3637,-14.4795,68.5456,15.9288,-4.4551,44.1810,-18.0168,106.4851,205.0216,168.7968,-4.4671,-197.5249,-81.0672,-74.2673,-95.9785,-28.9448,31.7272,75.8103,37.7822
-34.0838,4.5895,126.4254,80.6467,64.1990,133.7083,-8.0276,127.2884,-6.7690,-27.9514,-5.3411,-105.2370,-16.5758,-75.0780,-37.2685,-126.4202,74.2722,177.1208,7.6086
-61.1875,10.5415,81.9308,98.7963,48.4535,108.5091,-110.4924,46.1746,-316.5346,-206.9899,-19.6699,-28.1399,23.7869,-142.2812,4.4799,-111.7751,37.1782,121.2255,-81.1005
-69.6423,-20.5789,1.5820,38.8186,-21.5802,25.5952,-130.9366,39.5179,-310.5416,-162.4667,-17.3285,-70.9763,-19.8636,-86.6793,-46.1918,-19.4412,-24.8898,1.5676,-35.5250
-38.9324,-55.2011,-36.1880,-46.1051,-40.5279,-33.3623,-20.5085,94.1603,-30.4760,68.1407,20.4468,-136.2385,-45.5086,69.3221,-71.5480,75.2361,-46.4283,-52.4275,89.1903
12.0395,-0.7021,9.5365,15.6622,1.5224,-22.2099,100.7007,110.3395,207.3059,278.0084,54.3673,-104.0626,36.7363,122.4029,60.6416,57.8022,24.4761,-8.1202,112.8135
34.5762,85.5842,96.8137,168.6220,29.8288,28.5867,109.1411,114.8574,222.0453,247.3776,67.9940,-37.7603,145.8917,96.4439,227.8303,-52.4124,120.3428,65.4025,39.7632
29.5780,54.1834,144.2489,146.5299,19.6134,69.3686,-13.9666,111.7371,12.9793,17.9944,95.0171,-23.7239,137.3765,160.3987,181.2152,-18.4927,117.3909,102.2267,-43.7889
43.6136,-39.5761,163.6256,-10.3940,-1.1852,99.0240,-144.6992,41.9243,-212.4108,-141.1886,122.7413,-25.2241,26.3277,242.5643,-38.7013,93.5504,66.8771,81.7948,-112.6354
69.8775,-44.2044,190.4452,-43.3903,-20.7857,86.4603,-149.8512,-37.1211,-165.1406,-115.7615,113.1055,-19.9077,-17.0984,190.8901,-116.8421,-72.0056,84.7687,-23.1066,-115.5075
79.7744,0.5478,151.4311,1.4893,-27.4982,-27.7160,-47.6066,-61.3790,101.7257,-9.6081,95.4494,-19.2090,60.1629,116.9468,25.4753,-324.2405,106.7031,-180.0421,-25.9274
103.7633,-2.9247,29.0126,-55.9309,-11.6835,-159.4457,57.4314,-122.5449,205.8043,29.3718,106.0702,24.4167,109.4064,182.7557,117.3352,-183.3297,56.2357,-243.8581,38.8222
136.6438,-23.3770,-45.0108,-142.6949,-15.6204,-153.9715,76.7763,-260.4915,8.5472,-112.5031,118.1587,79.7436,54.6992,292.7701,28.3370,85.2959,4.8298,-172.3506,-30.3631
115.3311,-17.7396,-31.1338,-141.3413,-67.8329,-62.5044,-35.0198,-361.9457,-193.7281,-320.9086,107.4693,37.1073,2.6498,273.6940,-59.6946,-0.7795,-10.7468,-118.9376,-167.7694
88.9522,17.2462,-2.3374,-76.9533,-99.3701,-45.6419,-189.8713,-391.0437,-144.0345,-313.3704,82.3775,-8.2889,1.4154,137.1908,-42.6102,-145.1864,1.1203,-127.7157,-243.2275
145.1526,82.1161,67.7455,16.5261,-41.5822,-59.1473,-213.7471,-390.4182,17.6923,-143.7543,49.9196,104.8483,-17.3756,31.2536,-33.0525,-23.2012,90.4045,-43.4926,-214.2169
179.7178,101.5126,165.6998,64.9495,67.0158,31.3017,-94.6289,-310.0998,14.5842,-127.2610,31.0828,228.9265,-37.1749,54.8846,-75.0021,14.2171,180.4523,128.4726,-130.0446
86.9217,14.2066,124.1506,-24.2339,142.0115,136.7533,11.0691,-170.4438,-138.3539,-247.9184,42.2103,193.4887,12.2640,129.6238,-71.2636,-158.3217,99.3779,156.7237,-76.6015
21.0814,-64.4783,-26.0688,-153.0437,136.1811,75.2371,21.6292,-162.7181,-192.3426,-296.6068,43.0270,176.6261,75.7747,77.8280,0.2692,-144.4687,-49.9138,-9.3408,-89.0920
111.0099,-38.3301,-21.0366,-180.9566,72.9254,-95.5547,0.0340,-295.9915,-56.0128,-272.4688,3.3776,300.7925,65.7619,-101.5765,47.9656,52.6917,-25.9337,-133.0518,-84.8461
206.9858,-7.2685,141.2208,-164.0191,55.5650,-154.8305,55.7241,-302.0572,133.4670,-167.4127,-26.2467,367.5857,29.4760,-205.0505,40.3919,101.4759,106.3249,-73.0375,33.3051
184.0583,-34.5375,202.2898,-151.4024,139.9895,-52.4410,216.0486,-100.5910,233.2262,33.9741,-7.9738,313.7403,52.2084,-161.6534,50.3771,86.7832,142.1154,26.2924,199.1277
122.6871,-47.2040,121.9115,-92.0289,209.5156,52.7627,323.9883,63.2364,173.0985,81.0450,14.9097,295.7139,109.3271,-119.9287,105.9274,170.4539,91.0313,4.5844,244.2252
77.5893,-45.3260,56.2160,-53.6994,155.7463,58.1537,234.3617,60.4596,-13.0545,-118.4973,14.8896,284.5587,125.6953,-114.8544,126.8683,170.8773,36.4925,-78.1894,163.7361
40.7841,-80.4994,46.5569,-117.5960,74.4376,33.8959,103.3435,30.8640,-128.2620,-217.0588,26.2961,201.7511,97.1875,-21.3140,74.9750,74.7015,-7.8701,-89.2227,137.7934
64.5545,-102.9229,74.1320,-177.5774,68.1491,52.3395,141.2540,64.4251,-28.9918,-78.2403,51.4836,203.4905,78.8902,110.5702,42.0502,132.1135,-0.6934,-43.8165,227.2253
138.0424,-72.6002,149.9021,-154.5432,63.2744,71.5260,232.2270,101.6201,142.1728,27.9234,38.1722,346.6082,87.3717,79.8469,86.7100,285.4967,62.5083,-26.1984,282.9376
149.2663,-40.1324,216.7009,-111.3030,14.3303,53.1476,200.9132,119.8024,186.5532,25.0492,-22.5480,423.8303,83.1717,-96.1274,128.7332,283.8117,98.1883,-18.0911,238.7793
99.9878,-21.5234,217.2010,-58.3064,12.7638,48.9871,154.5457,154.7000,135.4607,53.5251,-67.9585,376.5577,59.8016,-196.3012,114.3879,195.3432,99.9651,32.3900,217.1267
87.9113,0.4966,199.7447,9.4988,69.7341,92.5192,214.0775,200.3917,111.7881,101.8673,-59.7328,355.0297,60.7796,-154.6772,107.4414,217.9990,120.3938,86.8265,266.5809
101.6912,-3.0696,198.6977,6.6998,81.0616,124.8474,273.4060,223.1064,127.0845,130.5332,-37.8239,366.9531,82.9452,-114.7857,132.8669,296.9791,120.7218,90.4480,280.9441
79.2507,-35.6458,174.3175,-65.5784,34.3601,97.2914,231.0213,206.7004,129.9038,156.9453,-42.0478,314.2958,75.7172,-145.0448,127.9805,292.4375,67.6520,61.5852,220.9825
41.2059,-52.8268,113.4945,-100.1256,3.9394,52.8266,140.2931,162.4445,101.0460,111.7799,-44.3946,222.0977,46.2176,-131.3992,87.4866,236.1467,14.1681,42.4500,165.9148
21.5306,-52.9579,51.7463,-89.0455,12.7634,54.3279,84.8599,139.5930,73.5529,17.6586,-7.7966,156.9698,50.9413,-0.7984,80.5570,237.4111,-15.4638,54.9747,151.8911
17.3040,-48.8147,38.3951,-63.8501,59.0238,104.2220,84.8416,170.3986,90.4757,55.5278,47.0177,123.5255,98.6084,120.0244,126.5262,290.3206,-17.2156,107.6941,130.1643
30.7838,-13.7133,102.3644,17.7005,140.6429,168.9698,78.2719,200.4079,142.4851,210.0589,80.4339,120.0454,147.6478,98.4260,177.5533,280.7229,42.8595,181.1774,59.8100
59.2418,43.0560,189.0693,123.3241,203.6432,226.8553,12.6031,173.4982,222.4290,273.2375,92.7589,138.1913,168.4173,28.0532,197.9784,184.6960,128.2484,235.7298,-12.6412
94.1583,65.5964,221.8867,148.2894,211.3637,266.5253,-14.0346,141.7416,354.2104,212.6914,112.0217,157.3664,167.5971,81.5998,195.9149,138.1516,165.3512,249.3262,15.3727
135.1824,44.5423,223.3685,109.3539,204.5598,272.3356,84.1884,160.8399,425.9593,133.8877,150.0795,178.4250,175.5578,221.0767,196.6120,199.0098,174.1590,211.1057,120.5096
148.3560,6.4630,224.2726,66.6444,187.0080,223.2841,140.8418,150.8796,240.8804,31.6829,183.4518,170.6547,195.5934,268.1385,192.9503,225.7838,168.5799,112.8541,115.3809
103.8098,-38.6761,175.2856,-11.2646,104.0229,114.6792,-2.4401,25.8805,-100.3495,-123.5737,180.3977,86.3636,177.2191,207.6383,142.5203,141.4124,97.3280,-4.5036,-45.9384
60.6453,-62.0839,96.1033,-93.0435,-5.3934,10.9074,-176.0323,-107.8090,-235.2598,-226.1275,149.7537,-6.3169,102.1447,198.8930,52.0459,71.1684,15.1484,-50.5182,-144.6229
71.0917,-33.3196,84.4842,-65.5351,-33.6279,16.7964,-179.3638,-86.8466,-79.8907,-162.3976,130.7720,-3.9377,38.2504,290.3265,-5.3813,96.8156,29.1546,2.4398,-65.2887
76.6511,1.1096,101.5431,15.7099,4.7873,112.9095,-114.8991,26.8008,81.7763,-14.9296,132.5003,32.8352,33.4902,350.4617,-2.1096,143.8473,63.7391,56.6737,21.1559
33.7792,-18.5453,29.1649,-13.1798,7.6691,138.9523,-123.7992,42.7049,87.8094,30.5438,132.5840,-4.2022,53.2527,325.2723,22.2346,159.9771,-6.2369,29.5455,-11.8599
1.5782,-50.3821,-76.5061,-105.0811,-18.3201,56.2192,-127.4882,-29.6882,64.6224,-19.3697,126.6818,-57.9846,66.6427,326.9985,50.1998,161.9156,-94.9862,-1.7545,-72.3284
21.2847,-28.6611,-66.6678,-85.8678,16.6970,27.3409,-53.8160,-31.9218,101.6808,10.0556,131.8206,-35.1949,77.3669,401.1460,70.1908,147.0087,-60.0719,65.6458,-75.4501
52.6342,8.6675,31.7888,9.3889,101.0856,108.8450,-7.1748,29.5003,110.8495,122.6661,152.4709,5.8108,75.1919,444.9478,42.3743,126.3309,38.2587,160.9035,-63.8615
50.4870,-3.5163,59.9148,11.6285,129.4908,142.3085,-74.5780,19.0579,47.7592,140.8993,169.3934,-20.4168,63.3091,410.3457,-1.9684,127.8746,46.6024,160.9139,-98.6711
17.6144,-37.6791,-16.1890,-72.8298,73.8303,66.2718,-181.9909,-57.9415,19.2041,22.8023,160.6045,-70.4480,67.9698,372.5744,15.0822,111.5026,-38.0466,100.6413,-167.9340
-1.8158,-42.7057,-68.9090,-112.0936,10.1485,18.6174,-205.4907,-81.9570,72.7444,-92.9428,134.1267,-69.6174,61.1330,392.9943,34.1557,51.3731,-86.0833,71.2842,-179.4255
26.2568,-36.7157,-17.6753,-86.1066,-5.4667,60.4421,-113.7075,-23.8322,83.6037,-93.1166,126.1248,-35.1199,3.8033,461.2243,-50.4691,32.8798,-35.2515,60.8998,-75.7697
73.2202,-43.6248,73.9938,-54.8854,19.0052,99.4584,4.3165,42.8998,-5.0878,-1.3834,149.3735,-17.5638,-40.8614,513.1954,-147.1944,81.6568,48.1980,37.5759,35.7108
98.1853,-42.0474,129.5712,-29.7924,55.2677,82.7712,30.7691,48.0723,-58.4058,44.6330,172.5569,-13.3789,-9.4829,471.0249,-122.7853,87.7127,96.5540,13.6657,27.4779
108.4892,-27.9488,141.7006,-14.4445,65.1713,35.5760,-37.0602,-5.4092,-18.4173,-23.7978,166.8412,4.7822,24.9968,371.3665,-65.0794,41.4053,108.0782,-16.6366,-32.0193
107.1932,-21.7449,116.9913,-20.8826,26.6895,-15.9713,-90.6138,-36.8470,-9.4639,-81.1163,137.8390,27.9373,-7.6193,352.0926,-88.5357,47.6674,93.6904,-41.3120,-22.4815
79.6843,-12.7736,84.1891,-7.8340,-14.0050,-37.0406,-83.5615,-0.6479,-65.3846,-49.5354,108.8078,27.4304,-39.4046,401.5944,-111.2378,67.9378,76.0745,-10.6977,17.9585
51.0888,3.5472,91.7157,36.6506,-6.7950,-19.7045,-75.6886,37.2380,-76.2590,-42.8707,92.8756,-4.4245,-15.6813,348.7887,-65.4954,11.8729,84.7129,35.0041,25.0536
36.6494,-9.6633,87.9672,26.7485,1.6769,-29.7825,-88.2202,30.4941,-30.5100,-76.5285,74.8807,-53.7676,-3.7973,187.1764,-39.6640,-13.8910,70.9636,-0.7607,31.7145
0.1858,-43.6831,-15.6233,-47.0138,-44.7147,-84.7674,-78.0155,29.7994,-10.2758,-26.2974,33.4507,-88.3070,-47.6255,106.5197,-73.8463,85.0061,-21.4803,-68.4375,39.0763
-47.8053,-25.4532,-130.5469,-46.0742,-87.4535,-84.8257,-53.3343,48.7813,-18.9748,70.3276,-16.5036,-67.6929,-92.3413,148.6004,-98.4518,165.2401,-98.0246,-30.9005,1.2036
-49.0391,50.7878,-108.1377,74.5727,-50.1202,11.3387,-56.3374,41.7775,-15.4270,102.9659,-44.6469,2.1700,-96.3723,142.6138,-89.3248,117.9719,-48.0787,95.7505,-38.8681
-15.4945,96.6457,-1.7070,172.3586,34.4621,98.6414,-58.6985,30.6370,7.9508,102.4573,-51.1982,58.2379,-75.4010,16.6400,-72.7587,47.2874,51.6575,170.4609,-2.3747
5.3991,70.2744,54.7736,157.2261,102.0889,109.5902,0.2851,62.9960,43.1822,71.7000,-44.5756,70.2806,-47.2111,-89.3015,-54.2993,36.0883,87.9211,150.1831,86.7258
22.5101,26.4832,69.4978,106.1435,156.9262,118.1752,107.8461,108.1387,56.6971,-23.8813,-17.8546,82.7046,-15.1485,-67.5890,-37.1632,58.5398,90.9734,128.3222,151.5332
47.7400,16.2595,110.7326,101.6366,218.1763,182.9275,171.5287,124.9907,22.2843,-59.4487,18.3289,125.0697,24.1269,-16.9218,-14.6804,96.6562,118.9566,171.6476,161.4525
65.0694,33.0565,187.0739,139.3414,258.4323,235.2511,121.9182,123.6175,-12.8367,36.5761,38.5742,159.8792,66.8457,-67.6584,27.8084,116.5639,165.9934,222.9536,127.7766
79.7440,54.4983,257.5428,185.4512,245.7879,204.7310,39.1610,120.9827,-6.1424,97.5527,39.9059,159.3941,83.6662,-146.3613,58.9998,86.3980,214.7242,210.2049,90.9221
91.2530,68.9664,248.1003,203.2177,196.0435,137.2327,83.1230,124.7994,18.6915,36.0490,29.0283,153.9896,70.1535,-108.6967,65.6060,65.0560,227.0533,168.1722,99.4676
79.0960,69.2526,149.5626,166.9441,149.8468,95.6116,224.6924,121.0464,60.2532,-24.1312,10.6838,164.8544,85.6017,-29.6961,118.1937,77.2213,171.9632,139.7087,139.7816
60.9611,57.0062,74.1017,104.0849,105.4205,47.9109,256.1563,74.1190,122.8717,-8.4358,1.3660,157.6913,144.7859,-78.1666,222.9746,55.9134,104.3666,67.1801,140.8756
58.5943,41.9494,63.8071,58.3138,16.7944,-37.5155,144.9030,10.6962,143.2231,42.8532,2.6963,107.8036,160.7757,-179.8026,261.3663,37.7556,68.7716,-68.8262,83.1260
47.4065,24.7249,23.2043,15.0235,-113.8804,-100.7247,70.0977,-2.4766,112.1046,70.8981,-5.3156,54.0303,100.3261,-144.0056,201.1852,102.8381,15.7149,-171.2087,30.2541
22.3458,-1.0636,-60.6728,-60.7905,-219.9747,-112.9582,79.8279,-0.3927,110.7468,37.2170,-18.5673,34.6120,49.1902,-19.2932,149.6373,141.7979,-67.8407,-215.7713,22.9182
4.3105,-30.4030,-113.2641,-149.8779,-282.9623,-153.5825,55.7928,-55.1755,121.5921,-1.0564,-27.4128,20.8244,40.2547,15.9966,137.8795,45.1755,-130.2467,-288.6044,12.4626
-23.0332,-49.8441,-151.9400,-209.0182,-343.6845,-251.1727,-28.2299,-123.6068,62.4782,28.4757,-54.8291,-25.8225,-3.4544,-26.3030,80.5916,-69.0942,-174.7128,-368.9782,-52.7383
-59.1910,-49.3223,-196.5552,-220.4172,-380.5297,-297.6418,-101.0618,-147.2836,-5.6946,52.0481,-95.4487,-75.9489,-99.0405,-14.6812,-38.6428,-96.1932,-208.3836,-334.3932,-133.4644
-58.6771,-24.7819,-181.4056,-176.6809,-324.1778,-213.6366,-129.6081,-152.3722,5.0357,10.0850,-97.4243,-74.1617,-151.2432,57.0623,-120.5244,-94.9053,-180.8434,-186.3669,-156.3048
-33.2873,8.4796,-117.3774,-91.6009,-197.1796,-73.4292,-114.5712,-146.2978,10.7479,-25.4186,-61.8050,-28.6845,-110.7846,77.3012,-100.9648,-94.1926,-108.8029,-57.7150,-126.1761
-32.9285,18.0996,-82.1685,-25.3571,-96.8599,-6.0842,-93.9696,-122.0244,-80.5255,-56.5999,-43.7197,-2.2892,-51.0941,-15.9942,-49.4632,-79.7959,-70.0648,-33.6775,-111.0316
-38.4874,-2.5431,-61.0855,-24.4329,-58.8662,-42.2044,-125.3576,-129.9388,-187.1088,-117.6308,-48.5036,-22.0330,-50.6718,-142.5331,-68.6070,-93.9340,-59.3056,-78.9505,-132.7619
-21.7122,-24.6971,-24.7145,-64.1279,-43.4180,-88.5302,-168.4152,-167.1799,-194.6136,-109.4390,-44.1053,-43.3121,-82.3212,-172.9993,-130.5547,-135.6300,-40.6291,-97.7816,-141.0466
-7.2899,-27.4098,1.6859,-87.7472,-18.6745,-58.8740,-141.4622,-164.2988,-112.2454,-40.4442,-33.6297,-18.6351,-66.8711,-135.3368,-117.2314,-166.2115,-26.4373,-57.5891,-102.2842
6.4043,-6.8097,34.3627,-57.8634,3.0042,-10.1448,-85.0033,-152.2037,-29.1719,-73.6320,-34.7037,31.3498,-2.6453,-185.0665,-19.9653,-218.1185,1.2611,-42.3085,-61.8656
38.4679,32.6001,71.5719,12.7847,-4.8693,-56.1591,-61.5182,-194.7232,-11.7864,-165.2505,-47.4448,51.6743,29.0052,-309.0374,45.3599,-268.5357,57.4903,-101.9796,-71.5569
55.2612,54.9060,41.4077,47.7428,-25.1230,-160.4722,-26.2714,-226.9060,-44.4586,-174.5505,-62.0472,33.3353,-6.9905,-317.2260,18.2177,-217.3605,74.5816,-144.1926,-92.4044
37.6998,22.7710,-24.0995,-6.0838,-2.8018,-180.0681,28.9803,-196.5116,-69.7528,-179.4407,-56.7813,10.9896,-42.4395,-198.7540,-40.0646,-136.0201,30.3830,-106.2360,-58.7315
14.0885,-35.1011,-22.3482,-92.1770,54.9206,-107.6207,26.4328,-169.3138,-80.8839,-205.3065,-29.7854,-3.6747,-13.5056,-162.9718,-44.9602,-179.3918,-6.8071,-71.5165,0.4159
-25.2125,-63.4902,-13.5034,-133.3842,66.0531,-70.5170,-22.2149,-153.9275,-91.0689,-96.3554,-33.6368,-33.6605,28.6924,-268.8871,-3.6492,-270.3654,-38.9922,-90.6023,22.5545
-96.0854,-52.8790,-98.1041,-116.6637,16.1023,-91.5017,-19.2734,-80.3281,-60.6141,81.1299,-97.6180,-77.4939,-13.3287,-326.1717,-17.5328,-267.4979,-102.6634,-83.4730,39.4302
-143.8569,-17.2571,-188.9878,-43.1571,-4.4079,-61.5574,61.6096,32.4189,20.1105,94.1778,-156.2365,-86.9378,-108.7956,-212.6221,-105.9092,-247.5771,-129.7464,-8.1298,113.6238
-132.0970,16.6002,-184.8490,41.6049,44.7344,33.7092,172.8682,107.4624,71.5531,-20.7255,-144.6813,-37.0665,-113.8721,-53.7715,-120.7013,-281.2267,-84.6938,57.7987,211.7233
-103.3952,2.5061,-148.2221,24.7305,96.2159,73.1642,257.6301,122.2044,54.7307,-66.3611,-98.0238,20.6450,-11.1850,-26.6693,-4.0176,-241.8299,-64.3239,59.9979,249.1646
-89.5955,-44.0298,-148.6670,-77.5605,105.7370,27.9324,270.9939,88.4350,22.4518,-3.4514,-81.8107,27.1718,40.8409,-116.3024,65.0180,-78.4121,-101.9747,55.6938,201.9278
-84.6855,-48.5248,-153.3768,-96.4653,112.6902,19.8591,228.8891,52.1660,-3.3212,77.1793,-92.0824,-3.5080,-17.8609,-165.2406,-12.0334,43.6332,-111.0858,107.9284,124.2175
-88.1500,-26.7578,-117.6533,-25.4772,151.6732,89.3630,201.4073,75.8933,-47.5466,65.2902,-80.4856,-31.8461,-50.5681,-128.2572,-77.2269,4.6386,-69.8149,169.6589,97.6445
-91.3123,-58.7750,-53.0538,-34.8888,190.9066,118.4605,212.9412,125.5912,-99.6458,-46.1858,-39.1690,-59.5756,14.6520,-113.9005,-26.0494,-106.5131,-41.9110,153.9150,140.0485
-88.1350,-114.9779,-21.1055,-125.5897,179.5784,58.0894,219.3757,124.3214,-141.5961,-95.1930,-12.7097,-90.4881,74.6110,-151.5805,38.4555,-138.9309,-55.4333,89.2186,167.4363
-100.7277,-111.8919,-54.9089,-139.3076,124.1094,19.6963,186.4908,113.9724,-172.5568,-17.1516,-27.6894,-99.9848,55.0792,-148.9529,33.7373,-63.3427,-87.3867,81.6512,127.2911
-118.7621,-61.9876,-84.6719,-49.8585,85.4503,74.9190,140.2798,157.4520,-150.4754,39.5247,-54.8172,-78.3846,5.1256,-105.4505,-2.4011,19.6480,-91.8988,133.4084,93.4430
-95.2440,-11.9675,-48.4137,49.1499,87.5799,148.5842,134.5678,186.5006,-49.6990,50.0783,-59.0388,-40.7238,-12.8014,-107.1065,-12.9713,28.7283,-40.8412,146.1664,110.4379
-51.1081,22.7841,-16.0730,88.4824,75.5131,145.2076,153.3051,133.4621,26.8555,114.3592,-45.4566,-11.0380,8.1940,-137.2587,20.8467,-2.2520,2.5885,82.3988,86.2363
-54.5823,14.0518,-61.1673,36.9143,7.9020,62.3429,100.4164,48.8622,-44.9484,121.3069,-36.8056,-22.8958,25.4575,-123.7203,49.2535,-12.5182,-44.0581,-2.9994,-31.8625
-94.4277,-24.7300,-129.1032,-42.9647,-68.8144,-15.4645,-33.0501,-18.8923,-223.4841,-47.8064,-39.8809,-67.5023,0.3208,-76.5915,11.6462,-12.5592,-127.1348,-43.6862,-149.6148
-106.7137,-16.1455,-146.7211,-36.8462,-99.0024,-12.5687,-125.6829,-89.2841,-351.8639,-208.0432,-45.8698,-74.4004,-28.9576,-36.1420,-32.9815,-48.9765,-139.6355,-16.9965,-199.4749
-90.8219,32.5061,-136.8392,6.6950,-109.6452,20.8563,-145.7564,-173.4283,-347.2726,-204.0824,-51.8312,-32.7236,-18.2410,-23.9615,-11.2422,-132.8567,-113.6834,17.9957,-245.8805
-93.9665,33.9022,-165.4799,-45.9496,-158.8566,-20.0981,-203.8875,-252.7383,-268.9506,-162.6587,-73.3363,-26.5021,-31.6404,-60.9822,-12.4972,-207.6085,-152.0883,-17.8515,-342.8685
-122.1972,-0.5584,-234.1295,-134.2338,-231.2336,-90.9350,-314.0585,-298.5450,-232.0346,-184.8786,-110.6706,-70.7454,-115.3928,-101.7487,-108.1280,-194.3997,-234.1275,-75.1107,-427.3581
-135.1443,-0.8310,-258.6381,-127.4678,-252.9472,-65.7679,-351.6797,-285.8603,-267.7570,-220.3410,-124.2947,-77.6272,-169.9296,-66.9151,-177.4873,-126.7288,-253.1796,-48.9973,-419.6315
-116.5395,12.1771,-210.3147,-87.2636,-214.7937,7.4327,-290.0377,-251.3067,-294.0409,-257.2086,-101.0835,-32.6374,-132.5844,-8.0546,-144.8766,-142.3508,-207.2440,-7.0204,-355.7329
-103.4861,-2.1847,-203.0968,-116.4174,-201.9052,-14.0022,-246.7790,-272.7955,-260.2556,-292.7375,-90.7105,-18.0906,-99.7719,-29.9875,-115.1870,-244.3712,-203.3053,-85.1853,-338.7591
-121.0005,-13.8508,-287.9514,-163.3485,-256.4263,-96.6892,-278.2802,-333.2382,-222.3362,-264.2201,-115.5924,-53.9037,-133.4135,-84.5520,-144.1695,-268.2665,-266.2308,-202.5354,-374.3775
-137.8809,-3.0792,-329.1258,-158.1435,-300.9136,-105.6880,-304.5543,-331.9961,-213.4175,-202.7188,-136.0170,-77.5658,-166.3813,-78.8244,-162.4501,-188.6136,-294.4902,-180.8101,-367.7586
-132.6297,2.3334,-261.7212,-131.2181,-265.2099,-43.4312,-256.9218,-260.5482,-199.5737,-218.5617,-135.9968,-63.1903,-153.8370,-56.8781,-143.8915,-172.8932,-247.6617,-57.1199,-294.9351
-127.1365,-11.5677,-201.6693,-128.1116,-186.9617,-7.4196,-181.1254,-205.9228,-197.7837,-262.0141,-131.8127,-46.3838,-129.7098,-76.4467,-133.4668,-240.7393,-204.0173,4.6486,-233.1525
-114.7530,-30.9849,-181.6080,-136.3477,-116.9835,-24.2635,-140.2447,-185.2279,-227.2643,-182.2159,-111.1221,-50.3013,-122.6529,-92.4686,-153.8494,-215.7632,-181.6807,-9.0983,-209.3474
-61.4767,-33.4785,-108.0236,-108.7810,-39.6868,-40.6115,-101.1903,-149.2681,-186.6484,-50.6744,-65.7759,-54.6924,-118.1093,-81.7136,-171.6754,-96.9550,-107.2716,2.4183,-168.5085
1.8047,-11.4180,-2.4454,-44.7640,50.1494,-6.9477,-15.3683,-109.4791,-27.1879,-91.3212,-29.5841,-38.1943,-75.6150,-89.8334,-121.1295,-99.4839,0.2214,58.5198,-86.6965
1.9749,-4.1902,14.4089,-26.4989,100.7034,44.0148,81.0390,-92.1756,86.9535,-259.8729,-27.0365,-27.0150,7.1582,-129.1215,-5.2017,-246.6967,22.6239,83.3152,8.9839
-68.6585,-52.7196,-82.3510,-101.6054,78.9259,14.3094,151.7182,-41.2510,32.8635,-285.8712,-54.3681,-68.9692,46.4252,-167.7169,54.7437,-302.1710,-71.0590,26.1320,103.8468
-148.3558,-125.2108,-206.6429,-196.3689,22.8247,-91.8611,220.0904,86.6087,-62.5512,-134.0611,-98.0348,-145.1215,-10.5562,-167.5913,-7.0778,-178.8325,-185.8886,-59.1093,205.8026
-180.6150,-163.2335,-247.4510,-230.4443,-1.2284,-127.0441,281.6077,228.2028,-56.1088,3.4136,-121.8463,-167.9457,-78.3084,-101.0075,-89.3139,-59.9602,-224.3925,-73.5106,314.4549
-162.6524,-159.0079,-178.9464,-205.3357,27.5603,-46.2154,296.9572,309.2695,4.9998,65.3762,-105.7696,-107.7165,-76.1496,-21.5535,-102.7428,-64.5075,-180.3668,-27.6406,383.6368
-144.2123,-136.9113,-127.5346,-155.8251,54.6508,-0.1057,265.9288,320.3459,28.8347,82.4202,-92.7710,-54.3436,-52.9675,-33.6647,-83.1195,-100.3358,-141.0047,-31.4099,342.3255
-165.8976,-122.0483,-192.9186,-134.0132,16.0603,-63.2781,196.5538,283.3517,19.2657,43.3423,-111.1726,-86.1175,-62.2619,-101.6324,-69.5204,-71.2277,-183.0864,-90.4534,215.2096
-204.6650,-131.8629,-276.0679,-176.0865,-64.6831,-114.2698,94.3286,253.6320,17.1799,25.9104,-121.8054,-140.7182,-72.4138,-79.5475,-52.6615,-7.2379,-264.9036,-103.3254,140.3284
-219.5229,-151.2373,-270.3738,-223.2008,-108.9273,-81.1001,22.6009,282.5368,31.1629,86.3972,-109.0516,-122.4028,-59.7071,10.6093,-37.9376,7.4722,-296.4879,-85.2584,173.8408
-213.1741,-150.7397,-239.2101,-210.1802,-111.6186,-56.2817,19.1048,312.5836,34.9026,94.8875,-111.5575,-67.6850,-53.8452,4.6146,-41.2457,-51.0333,-280.1114,-138.0280,202.7505
