Fp1,Fp2,F3,F4,C3,C4,P3,P4,O1,O2,F7,F8,T7,T8,P7,P8,Fz,Cz,Pz
-19.9303,47.3777,38.6440,-27.0943,-69.1528,51.3579,-78.4371,48.7604,-69.9865,-13.1176,13.7734,-63.2237,-24.0614,-44.6906,-40.7217,-80.3997,83.8913,64.7866,122.6127
-51.5026,-147.5141,-3.8677,-52.0675,52.1090,12.5499,84.0565,78.5179,247.6196,1.5854,-23.4884,38.1202,48.3110,88.9100,132.1399,-17.1019,67.3377,-80.9972,84.8877
-19.3573,-201.8534,-21.2992,-5.6377,127.0022,-53.6485,187.2831,76.6761,339.2319,23.4106,-37.3560,141.5595,63.6606,196.4261,172.3668,72.0626,20.9139,-164.1471,-47.8310
-43.2466,-178.4256,-27.4782,70.4495,112.9636,-73.0889,186.7341,67.8334,255.8254,77.3335,-34.7854,200.4280,61.5276,242.5549,147.1927,96.2775,19.2777,-103.2124,-101.7049
-62.5776,-146.4566,-2.5105,157.7832,98.4766,-52.2708,200.8457,78.8403,271.6888,135.1039,-14.4793,212.5464,99.4791,204.9844,191.1518,67.0299,35.4820,-12.9236,-82.8044
-2.7918,-59.0469,22.8588,211.5192,71.7921,-71.6951,189.5347,80.8965,302.7517,128.0708,11.4247,173.6611,120.1217,91.2504,212.0882,37.4251,-5.1978,17.5164,-97.3547
29.6651,20.2215,-12.0612,166.5098,9.0537,-118.7666,92.5519,77.6968,219.2293,93.6491,10.0083,116.7501,88.4609,15.9990,144.7831,34.5406,-80.5734,9.8357,-103.8096
-12.5655,-10.9508,-71.1924,59.4407,14.4050,-120.6062,31.4927,97.5450,148.4763,113.3849,-12.0115,99.2299,64.6567,63.4519,94.4840,79.7351,-129.1754,-25.2953,-60.3077
-44.3675,-95.3658,-100.9295,-39.8792,95.8512,-96.4013,45.8979,96.8032,132.6508,131.2893,-26.8726,105.8439,64.4219,152.4846,90.8802,145.6886,-144.4378,-98.3835,-44.3653
-60.7868,-155.1494,-136.5970,-128.8025,113.0745,-95.1165,27.0443,44.0565,95.1000,70.2312,-48.1055,87.6562,46.4587,184.1064,75.2719,156.9688,-131.0498,-173.2195,-67.9888
-93.8648,-186.9665,-179.5301,-164.6983,68.3102,-82.7845,-0.1155,10.2628,87.1424,20.3239,-81.9863,58.9419,22.1918,160.0034,59.7822,113.5856,-77.8702,-184.9139,-57.9605
-98.4864,-162.0958,-155.9695,-73.0621,80.8982,-23.4447,51.8522,32.7323,135.2498,78.8207,-89.2221,50.3228,21.4588,100.5766,58.0683,87.3580,-3.6632,-106.1683,-29.7417
-69.8455,-82.2283,-63.8174,89.0495,123.8796,56.2156,117.8002,55.7256,155.9344,170.6488,-57.7243,57.4249,26.6929,33.0694,46.5437,91.8998,52.3821,13.0840,-41.2798
-55.4888,-30.6171,28.1880,197.3196,119.3816,125.8126,138.7247,76.1788,162.1511,203.3182,-20.5865,79.1534,29.8636,24.9413,53.3924,103.7665,78.1378,87.4184,-46.5721
-49.1919,-45.5287,81.6486,202.4946,111.8328,148.8344,162.1568,137.8824,204.9542,198.7696,3.8615,106.6223,55.2201,91.6645,103.1661,140.7304,80.0080,81.6427,24.9069
-43.6539,-101.4539,81.0124,97.6511,119.5927,81.8087,175.2418,190.6974,232.7993,175.2637,12.3728,106.4822,89.5856,166.1281,149.5484,190.9482,62.7398,14.6389,117.5110
-50.9855,-163.0336,39.3069,-51.5190,59.7038,-28.6177,128.4925,156.1063,213.1026,101.7779,-1.7578,83.6225,77.4738,197.9868,149.3024,180.9247,41.7105,-76.1483,113.9729
-35.0063,-159.0182,4.1245,-82.6967,-76.0443,-74.8787,64.7095,64.7037,166.9099,7.6387,-29.1804,73.7524,8.9566,170.2138,102.0901,93.8493,30.1599,-126.0441,20.1667
8.7418,-65.6265,-25.3674,36.7296,-183.8388,-39.6270,32.3560,-4.2626,100.8187,-23.3487,-51.4472,64.7691,-43.7620,72.3427,49.1287,2.1893,14.5237,-87.8065,-42.1207
13.7898,15.8706,-74.2379,135.9624,-184.9221,18.9576,21.4164,-22.2060,63.0947,27.2401,-58.3887,31.8724,-18.1837,-45.8956,55.9960,-35.6434,-15.7167,-5.2233,-32.5392
-18.4871,23.2094,-100.0541,116.4098,-83.3221,63.6435,24.8674,-3.0566,82.9954,90.5850,-43.1349,2.6546,41.8035,-94.3776,97.5911,-23.2394,-44.4932,43.8738,-27.8247
-31.8210,10.4534,-75.1712,40.9650,45.9266,62.1940,22.8254,21.1669,72.6350,101.3895,-16.1963,1.5020,50.6878,-56.9399,65.0288,3.7306,-60.3896,45.4810,-44.6296
-45.2411,-11.0748,-41.8519,-37.5897,115.2069,9.2896,0.0686,37.3751,11.7011,76.0376,-1.5654,13.6330,16.4850,19.2905,-22.5966,20.9624,-54.3175,33.0889,-10.8827
-78.0100,-71.6437,-0.7173,-82.7458,133.0293,-20.3104,21.9095,75.0893,21.5636,78.0187,5.1758,37.2092,13.6636,106.5675,-30.6715,46.1068,-0.9002,31.1917,73.2841
-67.7475,-106.7226,69.0896,-31.6342,164.2296,17.4376,115.2118,124.0701,106.8179,99.6415,22.7555,69.1785,51.2790,157.2718,41.9869,79.8513,82.2505,39.9792,118.7772
3.5760,-40.0331,109.2516,89.0474,176.4061,56.2858,161.9360,111.4006,135.4676,68.7108,40.8842,64.6166,76.7256,88.7352,83.4763,54.6117,115.4416,53.4465,87.9922
56.6943,74.8606,74.7644,159.4008,97.3612,50.3228,95.9831,51.2537,94.4451,12.2365,42.9296,8.2166,75.3200,-72.5481,76.4106,-31.7109,62.9842,85.7874,35.3550
43.2590,128.4431,9.2362,111.1708,-21.8008,30.2925,14.1678,62.2673,68.5575,52.9109,31.3800,-42.5281,69.1691,-161.3494,69.6060,-44.9172,-28.9537,126.4269,25.6489
7.2972,89.4785,-43.7145,-33.2887,-88.0066,1.0375,-25.0831,156.8092,62.1491,179.7025,11.9604,-51.1597,54.3275,-91.0874,62.9000,62.6320,-114.8497,88.7189,53.8860
2.2889,4.6828,-70.7086,-192.4160,-123.8927,-53.1275,-68.9387,193.8667,39.4757,219.3303,-9.8897,-40.8516,10.2214,41.7111,44.7565,145.5316,-165.2705,-70.1407,47.8830
11.7390,-79.0001,-73.9995,-259.2718,-195.9559,-98.4298,-115.1505,87.7132,0.6300,97.9953,-36.5446,-20.6357,-60.1810,125.5433,17.6125,109.0441,-147.0696,-232.6649,-25.0591
-2.3770,-128.3902,-88.2608,-194.2333,-284.9038,-107.3617,-121.4531,-89.8091,-57.1477,-65.9491,-77.4164,15.9809,-132.8773,137.6841,-35.8056,24.1236,-84.6337,-268.0706,-109.1668
-2.7008,-90.7755,-109.2075,-64.8581,-317.7452,-109.2673,-110.6381,-220.6577,-129.6770,-164.5405,-100.9826,35.1802,-171.9418,70.2788,-106.7957,-50.4172,-53.2782,-193.8184,-162.5038
60.9287,37.5001,-72.8553,22.4848,-255.7706,-127.1507,-106.8489,-253.1474,-173.9904,-210.5443,-54.8367,-1.9195,-139.4291,-68.3714,-131.8654,-124.6415,-64.8031,-88.3527,-186.8400
120.5520,138.2977,1.3285,-7.7610,-119.8553,-135.7938,-80.8292,-209.0524,-160.2977,-226.3746,33.2762,-75.9945,-39.7625,-192.7867,-82.4594,-177.1314,-68.7586,18.8688,-147.9621
76.8048,118.4678,19.6461,-118.9387,39.1584,-97.4268,-29.0900,-122.5117,-107.0867,-177.0300,82.5201,-122.3244,68.5480,-211.1969,-8.5142,-159.8682,-53.3724,120.0170,-39.1165
-35.4920,51.5512,-14.4491,-150.3683,175.0853,-10.1945,11.2591,-9.0614,-52.0123,-54.1871,77.6796,-89.4804,134.0022,-126.0938,38.1309,-60.8948,-36.7320,197.4879,38.6825
-111.7729,19.5692,-44.6493,-36.9594,232.4039,62.7803,20.8990,79.0113,-20.2756,62.3406,46.0566,-2.0130,142.5984,-14.9503,53.3622,65.3605,-16.8502,205.3985,27.8907
-113.1280,-21.3338,-81.3795,57.3944,163.1732,37.5502,-0.1044,56.5277,-5.1719,78.6051,-9.6505,46.0137,92.7085,41.2401,48.0626,107.4760,-1.9541,83.3750,3.6156
-50.0096,-85.5897,-105.4170,1.7328,30.1929,-76.1076,-34.8199,-65.4811,8.9477,-16.4458,-57.9144,7.7209,9.0067,16.9129,21.8743,20.9178,-7.1488,-117.7792,10.3323
45.4039,-96.3351,-45.8498,-113.6026,-25.9886,-164.2525,-48.4126,-170.1113,8.5090,-158.6898,-38.0781,-60.9544,-43.5490,-40.7936,-12.8988,-93.1439,-14.3332,-230.2222,6.8876
105.1059,-50.9400,48.4346,-188.3357,3.4931,-160.1365,-46.4115,-194.9967,-13.7823,-263.8171,27.7579,-103.8593,-32.5562,-79.8042,-21.2563,-139.0591,-18.0042,-200.9394,-16.5452
85.9068,-22.1114,46.0155,-229.7221,-2.0727,-114.6847,-73.9503,-168.1136,-31.3451,-259.2823,50.4322,-119.6224,-4.5276,-95.4309,0.7703,-126.4813,-48.8147,-142.6434,-43.8440
28.6749,-7.3738,-34.7080,-201.4608,-56.4931,-72.4998,-115.7613,-109.1621,-44.0518,-144.8367,14.2495,-100.3109,-9.3324,-85.3107,0.7628,-64.7230,-91.8351,-106.3467,-74.9415
6.2792,33.9653,-49.8451,-63.0233,-68.0591,-17.4572,-110.3687,-37.4241,-78.6504,-21.8070,-13.5920,-41.9401,-40.1679,-38.7747,-48.8059,38.6135,-92.5696,-57.7620,-79.0282
33.2119,64.7959,21.4265,56.1711,-48.2941,10.1884,-79.2953,-6.9371,-112.4871,26.5914,-3.7186,3.3534,-71.3272,13.5913,-97.5251,105.9725,-68.0106,-45.5391,-44.7785
50.9541,32.8719,44.4305,1.7077,-71.3320,-66.6207,-100.4243,-30.3379,-110.4073,31.5329,2.4015,-7.4790,-88.0485,31.0593,-99.6430,104.2217,-82.8346,-124.1331,-43.8752
17.0877,-26.7946,-39.3862,-149.1465,-102.5365,-180.3873,-159.7332,-59.6835,-100.4942,35.9461,-19.5556,-43.7242,-75.7096,18.4872,-72.5709,94.6293,-124.5050,-202.8643,-100.2216
-27.6415,-45.6360,-118.1341,-195.6834,-75.1839,-180.1086,-171.0759,-75.7379,-103.6455,12.6261,-34.7070,-61.8532,-30.1691,-11.1511,-33.0312,79.0481,-122.7352,-177.1272,-124.5164
-40.8848,-19.4718,-115.3034,-98.8501,-28.0513,-80.6512,-124.5876,-96.5395,-80.9228,-46.8506,-22.9347,-59.2262,24.4180,-64.2766,21.5172,10.0067,-74.1397,-78.9698,-81.3223
-46.9174,12.9111,-110.7492,7.0048,-24.3140,-18.0830,-88.1976,-111.0815,-30.1101,-89.3289,-20.4439,-50.3543,50.1025,-125.9391,51.7572,-66.4052,-49.6430,10.6209,-42.5397
-48.0221,43.9023,-140.4585,25.5833,-38.6467,-15.4426,-78.5177,-84.6156,-7.0675,-77.0932,-37.4067,-48.9223,31.3689,-158.8633,13.2096,-80.1623,-75.5728,63.2855,-31.6010
-12.2332,69.2923,-101.4554,-12.4841,-6.5487,-12.7069,-43.1650,-15.3377,-12.9095,-21.5735,-27.1363,-58.0630,-1.1420,-140.1812,-52.9255,-44.6582,-81.3292,83.3498,11.5258
9.6291,32.6201,15.7104,-45.0652,76.9579,-7.8656,36.1454,50.1023,10.7551,38.4950,9.7357,-52.9316,-3.0559,-65.0715,-67.8583,9.1537,-6.3336,82.1641,107.4934
-46.5579,-83.0078,74.6849,-40.7394,149.9524,0.6585,118.4462,66.1142,70.7527,59.5904,11.6866,-7.3169,20.6009,46.5419,-27.2414,59.8296,101.9372,73.0878,199.7406
-103.9388,-169.1127,55.0101,17.8984,164.8011,51.2404,169.5603,45.8679,112.9959,36.5222,-19.6886,58.3391,27.3753,135.6983,11.3567,67.3942,161.5141,61.2570,225.9891
-63.9933,-129.7733,68.1024,97.6853,142.1776,110.9547,173.8871,31.1545,103.8104,10.3113,-17.9445,86.2457,9.6072,140.9991,14.4884,34.2613,153.9693,46.4328,171.0996
25.5958,-15.9931,113.4865,108.3026,116.6296,98.5488,115.1721,25.5963,51.7776,13.5479,24.8118,46.3450,-3.6400,60.5281,-6.1824,5.8887,91.6482,28.8225,69.6616
72.8362,71.8734,101.7918,40.0983,85.8687,29.3439,23.5511,23.8169,-9.2921,42.8006,53.7496,-16.4106,-3.1663,-32.6163,-27.9514,-13.1623,-1.5206,16.0513,-11.9974
65.3964,93.2851,45.4044,9.2267,54.0482,-1.5905,-11.7777,47.6670,-26.9833,64.6908,38.6371,-24.3930,-8.4618,-48.9410,-44.6809,-31.1848,-45.5412,24.4671,-12.6557
25.9945,42.4581,12.7551,72.2167,46.0272,46.6057,53.4100,85.5987,20.8763,38.6666,-10.2969,35.4934,-32.7971,28.3220,-62.6122,-25.3515,22.7880,49.3987,69.2667
-17.8472,-46.4000,17.0768,147.7721,60.8601,129.1571,159.5127,87.6616,77.3652,-18.5777,-55.8476,101.6551,-57.6828,127.1877,-71.1899,-4.1720,139.6846,68.7861,159.4144
-29.4469,-80.6583,57.0903,185.0064,83.6960,184.4475,218.3807,50.2207,73.2569,-44.7160,-45.4437,127.0643,-44.5833,162.7952,-47.4617,-8.2014,193.2952,98.9040,174.3608
-10.7365,-14.0936,127.5376,217.5303,112.9119,194.1875,192.9572,12.5893,30.7616,-39.3551,27.3043,115.1144,14.5128,106.7899,4.7693,-37.4358,156.5270,166.9590,104.0350
6.5641,79.6646,180.5638,230.4291,134.9164,180.0702,120.5409,2.4402,22.8600,-35.7234,101.4790,80.0143,80.1210,7.2357,60.6505,-56.2052,77.5129,229.3714,16.7371
20.6971,108.1099,185.7290,172.9561,137.6481,156.4325,85.2374,33.9795,49.4895,-1.9289,127.5590,38.1364,115.0656,-42.7882,101.0885,-32.6002,24.8627,221.7371,-8.7337
38.2530,66.3035,173.0980,89.2930,142.2755,126.1737,121.5927,80.4779,47.4819,62.8943,111.5756,16.6309,109.9211,-2.9417,100.6105,31.0868,47.1987,160.9588,38.6348
47.9287,15.3877,169.1517,74.0639,161.8357,117.0618,175.5878,83.8039,9.7481,63.5505,79.5030,28.2299,70.9710,66.3156,49.2297,71.1336,120.8289,112.3166,98.0615
55.8223,6.1286,169.7497,135.9066,181.7397,155.1721,206.8443,66.4777,0.1274,-9.1462,55.0871,58.9407,33.5525,100.9101,2.8981,41.4758,180.0693,104.0655,124.8628
74.3208,38.2791,170.8625,210.7922,196.0284,212.5961,226.0139,96.8413,42.4965,-39.2239,52.0563,84.1586,36.4884,98.8683,16.9820,0.3285,197.3667,119.9639,121.5140
86.8938,82.7607,160.6204,251.3285,190.5981,236.5656,209.9006,130.0345,75.8648,-2.7034,58.6472,82.8436,57.2288,61.8850,51.7011,-0.7377,166.7213,131.1184,78.7278
80.6497,115.5516,120.7928,235.8098,139.9326,203.5338,132.1650,95.5563,53.9006,18.9794,56.3438,55.3789,52.7170,-2.5020,49.4592,-7.1081,84.8503,119.0057,8.6723
62.3530,106.5262,64.8906,151.3494,68.5972,123.7289,48.7387,54.0570,21.8119,15.3642,42.7775,25.0011,33.0241,-33.3271,29.3810,-32.8167,1.2698,78.2371,-8.0661
22.1045,27.0075,23.8433,21.0877,18.9102,35.4768,12.3372,53.6005,38.7193,20.8622,18.4502,8.3689,15.4110,5.6506,22.8782,-18.4036,-26.8104,11.4139,42.9472
-38.5718,-82.1233,7.5376,-79.6573,-20.6121,-8.5381,4.9046,27.6401,82.7646,13.0393,-8.0876,8.4575,-4.3958,60.3985,28.6194,27.1980,-17.4523,-44.5407,56.9369
-65.8660,-122.5366,16.3873,-75.0327,-49.2952,10.0678,23.6037,-29.3067,101.1143,-28.0608,-10.2626,26.1343,-1.9095,72.9054,54.3418,30.1581,0.0614,-32.0190,7.2275
-34.2954,-70.9356,41.8882,26.5287,-23.5826,51.7917,71.0349,-44.6495,98.2629,-66.5800,13.1903,46.3541,37.8090,41.1935,94.2258,-11.7358,32.8220,32.4238,-19.9926
-4.5410,-6.5707,44.9917,122.2451,35.8678,62.8606,86.1231,-26.4310,103.2884,-54.7856,26.6353,44.7095,73.7902,-15.4651,113.5264,-37.9956,47.9986,69.9780,-19.7178
-16.3980,21.2025,0.6153,118.8992,61.9601,27.5948,42.2263,-4.0958,104.7543,16.5263,21.2683,21.9278,90.7872,-64.9839,114.4736,-19.6951,-0.8280,67.8208,-40.1559
-26.7577,32.0736,-47.7989,26.8603,63.3589,-24.3738,-2.1385,44.0355,80.4217,83.3892,22.0565,-5.1865,107.5831,-71.0122,112.5851,26.3538,-72.0344,57.2502,-41.9082
-18.8753,19.5354,-48.5811,-71.3131,74.3384,-47.4353,-26.9419,74.6253,41.0696,68.6022,25.7789,-22.8966,90.9266,-28.4900,76.1352,62.3092,-97.1763,16.9133,-2.2861
-34.1104,-40.6270,-28.7449,-116.3354,70.8088,-18.0119,-47.5495,28.1601,9.7582,4.8048,10.3263,-10.4116,27.3730,44.6248,16.7780,55.5039,-82.2974,-52.7665,14.1584
-60.9548,-100.0020,-54.0287,-108.5237,43.7124,39.3608,-31.0750,-28.1022,-2.1516,-21.0012,-15.8658,31.9935,-1.4075,110.9559,19.8134,12.1548,-70.0075,-85.2766,-13.9943
-56.4456,-96.0470,-134.8984,-71.7602,16.1817,69.0201,7.6202,-36.2331,3.8886,-9.8932,-39.6123,59.4392,34.5666,109.1479,85.0296,-23.7737,-84.5455,-74.8189,-63.6135
-53.3034,-57.9094,-221.9903,-20.4417,-28.8157,53.7152,-16.9037,-53.0413,10.0750,3.5092,-70.3725,48.6884,53.8596,35.5029,115.9978,-14.0415,-124.1037,-76.6660,-135.7734
-81.9081,-40.6340,-261.6462,24.7852,-92.5595,38.7891,-84.3658,-82.6690,-0.4362,28.4105,-99.8922,31.3751,26.4950,-21.5529,90.1023,27.2534,-152.7571,-84.6066,-178.1602
-92.9719,-49.5432,-229.3236,20.8372,-115.5161,43.4775,-90.5751,-63.1394,-11.3071,47.2585,-100.2429,26.6296,-0.7161,-3.2402,54.7207,46.0973,-135.6388,-74.0549,-109.6618
-78.4151,-94.7506,-146.2789,-47.7621,-91.7661,23.6737,-33.0361,-18.3291,13.4449,31.4769,-80.3692,25.7184,-23.4941,62.7260,19.1026,32.8323,-81.2694,-72.3232,33.4721
-83.4685,-171.1602,-73.8284,-123.9790,-82.1938,-20.3937,26.0776,9.6649,74.2667,16.2557,-74.6046,31.3858,-54.3107,130.8769,-11.8193,28.5883,-18.4528,-86.6334,145.2851
-65.5293,-183.5515,-49.4692,-143.8322,-89.3432,-27.4204,59.7921,35.4812,112.1065,16.4509,-74.6716,31.0143,-65.2394,144.1390,-12.7274,21.1978,17.4877,-95.5886,157.8301
23.1483,-75.3094,-49.1451,-116.4987,-82.2159,-10.7787,31.9657,15.6574,67.1779,-15.0303,-45.3291,-5.0198,-46.7715,52.2716,5.5540,-34.0283,-12.8384,-108.3306,30.4333
85.9430,35.5034,-59.1627,-91.6832,-87.7210,-45.8826,-65.6114,-101.2141,-28.3144,-73.2369,-1.2828,-51.1345,-15.7812,-81.1701,30.7757,-93.0783,-99.9379,-127.5509,-183.6119
43.1255,26.7153,-111.3240,-97.7164,-121.6273,-120.7162,-146.9181,-216.7911,-75.0614,-103.0768,5.5482,-50.8115,21.5025,-123.6175,76.5491,-84.7462,-185.2431,-142.0564,-313.6932
-31.2503,-57.9436,-189.7652,-139.1011,-134.9116,-166.1006,-158.5971,-215.8546,-47.4493,-96.9741,-30.4608,-9.9568,37.3875,-47.8470,105.0109,-31.9659,-229.6521,-174.2186,-284.7938
-79.5997,-137.0718,-217.5862,-193.5462,-100.0925,-172.2922,-143.6850,-145.2919,-8.6403,-81.2742,-65.6929,29.5960,7.9956,68.5795,68.5318,15.8819,-215.8714,-216.7283,-190.9063
-123.0656,-192.1785,-177.9619,-206.9527,-42.0450,-150.0479,-114.1759,-99.9467,14.6715,-84.4377,-73.3287,56.3882,-19.0035,150.1056,20.9421,48.3885,-141.4025,-202.3750,-110.5344
-129.8178,-187.3387,-119.3073,-150.5490,10.4535,-95.3439,-53.1791,-90.2920,35.6161,-118.9441,-54.2681,63.6138,1.8636,145.2897,26.8799,49.8368,-58.4144,-122.1302,-66.3076
-72.8251,-100.8079,-60.5434,-59.7500,30.3723,-42.4827,-7.0547,-84.9854,33.5483,-123.7829,-15.5047,41.3036,39.5224,60.6806,56.5351,30.3395,-25.3876,-38.7199,-78.2285
-34.6657,-14.2894,-25.7804,21.1235,9.2071,-17.6528,-10.9985,-56.4634,9.0878,-39.4410,13.5648,19.7636,65.7454,-11.2581,82.0451,39.0990,-33.0247,16.8283,-94.9842
-72.5542,-13.1831,-73.5486,69.9210,-17.5370,14.3614,-31.1210,-3.9089,8.0010,62.5688,-6.7151,38.8021,83.8286,7.9079,115.5796,66.8798,-54.0143,27.5192,-52.4164
-126.0562,-82.8216,-173.6273,53.0564,-30.2081,53.5026,-43.5280,24.0421,17.0972,86.7681,-66.6516,84.6598,60.6434,104.1668,115.3676,73.6946,-76.7123,-38.6423,-13.5283
-132.7892,-157.7054,-203.2278,-31.3925,-58.5082,49.5791,-44.6333,-6.5668,-13.3455,44.3242,-111.7294,110.2258,-27.9241,203.4345,32.8175,70.5274,-63.2474,-134.5640,-40.1127
-85.1318,-160.2823,-123.9283,-80.3633,-99.6270,28.9054,-17.6395,-58.7830,-52.8247,-32.0407,-107.1241,90.0411,-116.6577,204.7149,-74.8379,37.4891,6.8989,-140.9762,-67.8850
2.4605,-47.0726,-8.9431,9.8673,-97.3588,61.0484,30.9304,-89.8520,-52.4058,-118.1391,-59.4706,39.9870,-129.8520,65.8406,-118.7153,-61.8720,88.3703,-27.2798,-66.5973
82.1754,97.6008,82.5359,175.8269,-35.6176,122.4038,77.6056,-100.6065,-39.5039,-146.9494,-0.8599,2.2118,-82.5340,-97.1481,-99.1702,-135.8277,139.8216,106.1173,-88.3994
101.9392,145.0184,131.2579,256.7463,43.8922,142.1240,111.9225,-96.8770,-40.7349,-104.4296,34.9933,1.2771,-35.4470,-138.8029,-71.4867,-87.4652,148.6624,160.8932,-119.0634
63.7923,92.5728,127.4010,195.0221,109.6627,104.0789,104.9070,-80.6208,-34.6658,-60.8258,45.3084,20.7887,-9.3746,-71.7194,-56.0726,4.0336,94.7977,129.6333,-116.7235
-2.4226,0.4350,81.4617,51.3921,144.4632,26.3336,44.0834,-79.9869,-20.4967,-41.1837,44.1316,37.4285,7.9137,17.1236,-33.9183,47.1183,-1.9468,47.1472,-114.4175
-69.3696,-113.5863,13.2889,-92.6657,125.6394,-54.3333,-11.1954,-120.5333,-17.0849,-38.3814,20.8557,48.2070,8.4684,97.4247,-8.5644,66.8006,-70.2360,-57.0541,-127.1979
-105.8804,-195.0286,-43.9743,-150.0659,68.0199,-76.0340,-15.9711,-158.0563,-10.5672,-64.0500,-24.0769,54.5413,-19.8970,141.9277,-11.9917,70.0768,-68.4265,-120.1554,-101.6868
-99.4908,-172.0664,-28.9717,-70.3188,33.0303,-20.9573,15.7903,-109.1219,25.1549,-63.1023,-44.6736,48.6209,-39.7410,115.9071,-27.1501,48.4397,12.0446,-76.1941,-10.4547
-53.2800,-94.2333,57.6457,62.7486,50.3940,50.8527,86.1760,8.6887,82.5636,5.3568,-25.1406,18.8881,-12.8278,48.0712,-1.5313,52.6102,151.6305,12.2161,112.3507
32.8039,-50.5863,115.8237,106.8357,81.2060,75.0724,170.8860,65.5115,111.9771,32.6362,-7.3137,-27.3217,19.3765,-6.6198,38.4491,70.4851,243.0203,9.9855,185.6485
112.7090,-30.6080,98.1616,43.8154,76.1927,38.0410,170.5043,13.0526,68.2904,-40.6635,-0.9504,-46.0597,6.5654,-17.0994,29.1515,32.6544,186.7688,-73.6138,119.6448
105.2245,-24.1813,50.9013,-49.0326,22.6933,-31.4818,60.1023,-66.8535,-15.7618,-103.2812,12.5010,-10.6075,-21.1936,29.6745,3.0367,-18.9851,44.4381,-130.9270,-61.8508
14.1012,-76.0060,-25.7059,-139.0146,-59.0716,-90.2549,-58.6695,-146.4010,-67.0332,-120.3697,1.6723,26.4517,-31.6609,82.0432,9.7955,-18.1473,-68.0501,-158.0665,-214.1962
-73.5434,-148.7054,-142.4388,-198.2710,-125.0715,-115.5631,-119.5225,-253.9130,-81.7280,-164.5634,-55.4230,7.4039,-48.1237,49.1660,1.8708,-11.1495,-118.9246,-178.6268,-254.8707
-106.7535,-144.4761,-201.3125,-145.0269,-137.1010,-106.4624,-120.5741,-315.9375,-87.1950,-197.4152,-100.8338,-32.6241,-67.2656,-53.1903,-43.9980,-27.6183,-84.2708,-126.7741,-218.6983
-80.5250,-67.5861,-129.0376,25.7741,-108.0809,-68.1757,-50.3708,-262.2797,-63.7255,-162.7162,-88.7775,-34.2698,-56.2747,-123.0636,-60.7656,-32.0325,42.6774,-5.4282,-148.3300
-4.2831,6.0325,-9.2740,171.1519,-83.6451,-35.7023,41.6357,-180.0103,-26.5869,-128.8757,-47.2253,-9.8263,-37.1634,-127.0814,-41.6115,-38.7214,139.7356,60.5449,-79.5316
63.9495,41.7716,58.5528,163.3594,-79.7684,-53.6635,44.7636,-145.2775,-39.4284,-122.1949,-6.7109,6.7513,-46.4069,-84.5395,-47.6126,-61.7722,94.1615,23.1817,-59.1847
60.4276,26.0869,65.1296,26.6081,-79.5424,-103.5292,-41.6790,-107.0016,-70.7242,-96.0854,22.1471,18.7860,-60.2842,2.5688,-59.9657,-61.2972,-18.2032,-55.9994,-82.0943
8.0736,-41.3187,26.2309,-122.3783,-68.9831,-135.7152,-102.5967,-55.8485,-35.5256,-84.2605,21.7196,30.6334,-48.5059,89.8463,-27.7841,-50.2041,-71.2551,-126.5454,-99.9911
-28.1234,-96.9149,-24.1319,-176.8190,-41.0566,-139.9209,-80.3659,-48.5640,31.7409,-108.4416,-0.2513,31.4556,-25.6451,100.3745,8.6711,-64.9810,-54.3571,-137.4776,-96.9349
-39.4316,-78.2947,-34.0733,-98.4062,1.9310,-100.3147,-17.7694,-56.9519,51.7643,-89.2213,-11.3669,25.3071,-6.4374,39.6271,5.9244,-62.1449,-6.1937,-48.2949,-79.5350
-54.0282,-18.8659,-9.4179,47.8431,42.1884,6.4477,33.0096,-22.6448,49.2526,-13.4965,-6.1478,25.4883,22.5068,-19.0724,13.1356,-15.0034,50.4527,80.4444,-49.8862
-68.9918,15.6044,20.8662,149.5601,76.6503,124.8953,68.6511,27.6452,67.3021,43.5258,9.5249,32.2941,66.1304,-36.1603,63.0237,18.9316,92.1512,163.3501,-12.6900
-64.7601,12.4202,72.8429,163.0446,123.4536,185.7673,119.2545,61.6207,85.5118,69.9295,36.5981,38.6892,92.8854,-13.7209,92.1596,8.8261,120.9805,204.7745,53.2050
-62.1476,-26.9018,121.1634,119.3173,173.4893,210.7903,182.9075,97.3578,104.0987,91.2286,44.3918,42.9133,73.8992,39.5824,58.5076,-9.8764,157.2311,220.2786,166.5787
-94.5219,-105.1159,86.6849,44.8988,188.3614,208.4230,209.9180,134.6943,150.1853,105.1860,3.8233,48.1587,38.9625,102.7876,24.3103,6.6278,176.7416,176.2468,251.9092
-126.5431,-169.5975,-9.9014,-34.4761,152.9491,122.2543,177.2136,145.9282,196.2434,128.2632,-46.7020,47.8451,32.8256,128.9659,40.9141,68.9793,137.5376,77.1728,214.2544
-103.1624,-149.6147,-71.5520,-63.7337,78.4069,-14.9268,105.7457,119.7480,193.8816,170.9696,-62.3855,24.0456,35.1997,73.5499,59.7213,122.5656,49.4636,-10.2755,99.4187
-63.6940,-70.0846,-95.2550,-32.7893,-23.6316,-90.8362,9.5508,75.1590,147.1614,205.1709,-62.0368,-16.6535,12.8887,-31.8719,40.6398,116.9607,-43.5108,-42.3572,18.4257
-63.6136,-14.3503,-123.0048,-12.5374,-123.6554,-93.8002,-83.4645,56.6289,87.6094,219.8163,-66.6560,-34.1329,-12.0133,-78.9064,21.2634,100.0316,-106.5313,-42.5598,-24.0122
-58.3816,-0.6900,-112.8003,-37.3827,-168.1367,-80.9803,-119.5190,78.6734,32.5395,204.4661,-56.1152,-8.6954,-29.2305,-15.7213,11.1372,105.6999,-115.4763,-57.3847,-68.4557
-21.0909,-12.1100,-28.4783,-55.2889,-127.9603,-55.7950,-90.4963,87.0177,-2.0033,131.1140,-23.2547,37.0869,-55.3416,93.2666,-16.6846,78.3543,-66.0422,-87.8764,-82.1985
-17.9690,-65.4032,62.4709,-44.8434,-37.6506,-25.8283,-38.2153,43.3598,7.6210,37.5031,8.2712,74.6531,-56.4260,171.0149,-18.3927,32.6897,4.4022,-102.5874,-47.9636
-54.4137,-132.9835,88.7927,-42.6680,25.7972,-33.4723,-1.1234,-15.1897,58.5755,-3.3216,21.7661,79.7190,-9.7925,175.6618,41.1850,42.5191,36.5072,-103.3312,-32.6842
-59.7051,-119.2665,63.4182,-28.7988,16.9145,-61.7842,-10.6037,-43.2301,100.2943,13.2262,18.5481,38.1325,23.5283,78.2712,80.2948,60.2278,12.5199,-88.1432,-54.0193
-42.3246,-14.5078,29.5077,56.3166,-23.6839,-50.5358,-50.6516,-23.2306,91.0383,69.7269,7.7704,-14.7945,19.9695,-67.8967,51.4742,28.7878,-13.6308,-11.1205,-34.1401
-48.3070,64.0501,7.5201,173.2570,-23.8335,12.0275,-33.9810,42.2708,59.3933,149.3764,-3.3078,-17.6507,30.7171,-122.1826,30.0416,20.7254,17.3361,104.3080,42.9457
-52.3802,43.2536,10.4332,212.3650,24.8396,93.0862,63.7261,104.9933,51.2551,174.4989,-12.9731,32.0175,44.9920,-32.4224,39.6542,54.3850,91.6746,149.0779,98.6539
-35.4281,-24.0450,52.7356,150.7482,79.1750,144.0143,146.0391,113.4740,55.3184,101.1408,-10.9632,76.6662,17.7428,95.7896,18.7779,46.5722,157.6965,111.5241,109.4242
-15.4374,-58.1508,129.4518,76.2794,119.6390,127.9943,162.3857,80.3167,41.8761,-2.7368,15.3088,79.4888,-17.2029,148.7428,-31.0202,5.7207,204.2071,85.3487,112.3082
26.2405,-27.7395,211.6092,84.5914,154.2739,78.0000,165.2448,27.4370,10.1844,-89.1469,52.1034,57.4808,-28.3567,109.7163,-73.9884,-16.5876,246.9031,98.8920,93.5799
94.1464,52.4815,269.6026,192.1167,177.3508,61.0768,179.6671,-37.6632,-28.2992,-146.5290,76.8781,40.0497,-36.9006,20.2709,-110.0685,-48.0434,275.5186,129.0731,45.1768
137.0200,135.3194,274.4641,312.3926,160.5813,82.1736,186.5318,-54.8034,-41.8929,-99.9015,83.0488,20.9970,-26.7704,-80.3622,-104.2137,-77.8901,261.6512,175.3328,36.5741
137.9660,173.4852,189.8438,332.5924,80.8041,111.0008,179.0718,13.6885,-1.0102,55.1245,53.6927,-23.6366,8.2603,-167.5173,-37.0062,-49.7616,198.0284,192.1567,82.6968
119.8164,156.0992,37.3995,239.3984,-28.6946,134.9245,138.8633,74.8615,33.8186,149.8282,-16.6480,-67.9859,-1.8099,-197.8131,-5.4073,-6.1621,113.5785,126.5387,87.5928
91.1299,106.1625,-60.5618,114.4385,-75.9909,121.4823,66.8653,33.9587,-30.4595,70.7005,-64.0650,-56.0591,-66.1774,-126.0627,-71.1854,-14.7390,52.0781,35.5642,17.0955
75.3289,51.3133,-21.6368,10.7080,-16.1934,45.3751,26.1058,-70.7289,-147.3351,-99.4610,-30.0885,-6.0590,-95.3970,-2.2065,-141.8248,-57.7278,32.4431,-8.1599,-42.6869
82.4244,4.5636,70.9480,-66.9378,86.8257,-35.5625,42.2607,-152.1878,-183.7763,-232.0431,35.0974,10.8781,-65.2377,57.3380,-140.9257,-104.7281,44.5128,-18.4652,-38.0631
65.2708,-20.2321,108.9617,-76.6196,159.4262,-43.3129,65.6265,-160.1052,-126.5741,-258.6916,58.5521,-1.3455,-27.5012,36.8261,-106.7018,-134.5347,81.5875,4.7793,-2.5223
28.2790,10.6954,117.0286,36.2457,197.1393,25.1235,84.0804,-83.7219,-67.0245,-178.6765,56.3555,15.6089,2.7054,12.2250,-77.0949,-122.9021,138.5753,89.2537,28.0528
47.9991,103.5705,143.2782,215.9167,209.9799,119.0708,121.1808,25.1590,-42.1267,-70.1286,64.6455,51.0837,28.2464,-5.8352,-49.5570,-104.2686,183.4890,180.2246,44.6139
110.0039,184.9004,139.2589,301.8093,192.9175,171.9479,148.7459,95.2674,-26.4695,-2.6957,65.7493,44.7582,42.9067,-51.0112,-22.2082,-103.4670,177.4170,197.1033,50.5821
122.7192,176.2382,69.6752,207.2386,162.6658,137.4171,138.0466,119.5593,-6.5868,40.8808,44.7724,-9.7312,62.2550,-95.8141,9.3090,-58.3794,122.8041,148.8206,59.3797
79.6163,96.4359,-3.2700,29.0953,136.1911,53.7268,108.9083,114.9774,13.5949,75.7579,19.7684,-64.0297,77.7610,-100.6712,31.4543,31.7410,62.1867,84.9694,68.5684
34.4149,18.5773,-26.3789,-82.8091,100.9682,-1.9140,69.0370,75.0329,23.2964,66.1013,0.0332,-81.1463,49.6527,-74.5871,12.4308,71.4059,30.0207,24.0788,60.4195
10.5915,-19.1251,-17.6353,-93.3642,61.9206,-20.9682,22.2886,17.7495,4.3770,7.7369,-13.7829,-63.6278,-2.7315,-37.5792,-33.0442,53.7674,28.6503,-23.8745,37.8050
14.9358,-13.5864,10.7430,-38.6583,47.8121,-19.4759,9.6383,-26.7201,-42.6859,-56.8571,-9.8927,-31.1371,-27.5776,-5.1113,-61.7696,37.6475,55.3492,-29.3794,8.5485
33.1788,23.3129,75.7709,72.5956,46.7182,31.3577,45.5953,-57.7630,-83.7285,-89.6275,14.5404,10.8126,-31.4236,10.2450,-69.1613,12.6118,109.1009,34.2382,-28.9306
41.3274,64.3762,152.0118,193.5786,22.9782,119.7473,86.5955,-58.9401,-81.6500,-72.6721,41.7832,51.2304,-35.3070,14.0575,-60.8586,-22.0801,146.7035,125.3065,-42.9197
54.8229,83.5295,166.2827,200.4987,-9.4969,158.9935,91.8195,-8.1409,-38.1765,-23.5140,51.4567,48.8616,-28.2345,8.8363,-32.5422,-22.2802,102.5695,137.2288,1.8975
66.7922,65.0714,86.4375,52.1158,-16.8326,108.2464,46.8857,53.2236,5.1263,22.7204,34.7985,-3.8054,-13.0040,-5.4215,-5.8856,-0.8846,-11.2149,45.1908,58.3779
22.5580,6.5434,-35.9555,-123.9583,-13.3069,16.0073,-27.9403,74.1838,23.9399,63.3205,-0.8047,-44.6947,-2.8424,-4.0529,4.4792,16.0127,-106.4204,-47.5427,58.9667
-48.8429,-59.1788,-123.7350,-193.7183,-24.5255,-60.2907,-69.3672,61.3242,41.0920,97.7312,-36.9090,-42.7795,6.7873,11.0503,18.0152,42.9142,-134.7239,-81.4098,34.2391
-64.5239,-83.0334,-142.6558,-156.9889,-32.8932,-95.4735,-56.3738,32.4194,58.5956,96.8333,-55.3013,-36.0210,12.8009,-0.6109,29.3555,56.3030,-115.8651,-88.8399,42.1794
-54.7184,-58.8920,-102.6796,-83.6389,-12.4038,-86.0549,-44.6299,6.8114,30.8537,66.6409,-41.6102,-29.4149,14.9529,-16.7241,16.7130,37.0300,-69.5139,-55.1120,56.9382
-71.1731,-17.7371,-19.1623,-9.9782,39.3396,-37.0056,-34.4663,20.3155,-34.3193,51.8750,5.3380,5.4895,34.5903,16.9374,2.6483,40.6538,-0.6860,50.6827,46.5027
-57.0923,15.6126,91.4910,57.8265,114.4270,40.0066,35.6372,57.9231,-56.9557,63.3484,60.8825,37.3747,66.5839,57.5807,14.0901,76.4226,70.8515,148.9732,51.0897
-1.1917,19.2911,175.6939,83.3045,177.1018,95.8168,116.1068,65.1925,-18.3972,85.5266,92.1820,22.5773,80.7149,48.0010,38.8612,82.6528,105.3436,144.4127,91.6955
4.8542,-21.7245,150.4061,9.8904,169.1011,67.5437,94.9480,50.7112,19.8783,101.7452,80.4921,-11.4906,77.7752,34.0325,61.7612,61.7811,64.5161,58.4169,122.7431
-51.1349,-86.9044,-7.3468,-134.5042,92.1417,-15.4048,10.3297,51.7058,45.2683,84.0005,18.5807,-27.8286,68.4777,46.8980,73.3352,48.0195,-34.5947,-32.8839,124.0335
-99.4905,-134.6079,-199.0777,-215.2541,13.2480,-56.1615,-25.3223,51.5795,88.0771,39.9788,-72.4163,-28.7688,46.4310,39.4064,65.0371,30.5256,-107.3087,-83.1566,113.2737
-121.5411,-137.5927,-280.1887,-150.8258,-39.3853,-43.9771,-26.6066,28.7602,111.2875,13.9289,-127.5270,-10.5088,22.7532,14.9629,53.3143,19.3614,-97.2385,-81.4410,76.6879
-111.0890,-94.1874,-191.7020,-16.1631,-78.7436,-31.9687,-44.5007,-6.1336,65.1279,-3.6849,-97.8504,26.7881,12.3779,22.3646,51.6411,27.1901,-33.4427,-49.5298,7.6104
-45.5761,-27.4992,-4.2662,80.8082,-81.2102,-5.1368,-36.0096,-39.0074,-2.8223,-35.4912,-13.8472,50.2061,1.0923,41.5379,39.8082,17.6177,32.0029,-12.3201,-52.6987
30.0406,31.4301,145.4112,115.5264,-37.1715,58.3386,8.4305,-39.0972,-24.1633,-23.5835,54.4818,48.5959,-16.4876,39.8016,14.1521,3.1542,57.7596,22.6259,-93.8968
45.4487,56.7848,167.3249,95.5119,-7.2794,94.6855,13.4693,12.8339,-8.1615,62.2401,70.7434,47.1831,-22.8870,45.7059,4.4211,34.8537,17.6144,30.8122,-132.6103
3.7927,15.1058,85.4189,14.8334,-15.7141,58.4545,-18.3563,60.7785,27.9374,132.7674,41.0290,43.1232,-11.9769,69.5700,25.9595,71.3774,-44.1626,-12.9778,-117.4591
-51.8136,-98.8718,-22.4020,-112.6171,-5.5635,-15.3364,-11.7983,44.8627,101.4863,114.4629,-9.6058,9.3419,15.7564,69.7010,71.9630,55.7868,-55.0254,-86.7456,-18.1953
-82.1369,-202.1492,-116.2262,-242.5563,33.4849,-102.0181,15.2696,-19.1217,172.2486,34.1571,-50.5928,-45.2281,50.2618,25.1139,113.9721,16.6589,-42.7367,-154.1314,44.7939
-68.0288,-205.0961,-172.5922,-313.7020,40.5031,-186.6092,-6.6744,-100.2171,153.2355,-50.7299,-57.9376,-79.1794,59.8131,-36.1655,109.1650,-25.7830,-77.2977,-184.6140,-30.3659
-53.2030,-138.9873,-146.3667,-277.0630,10.5004,-203.9904,-56.6505,-165.6270,57.1210,-79.8608,-25.2130,-65.3883,47.2765,-61.9355,73.1381,-63.6181,-122.2184,-135.0479,-139.2969
-77.7482,-86.1846,-40.2486,-163.3699,8.6522,-124.4257,-70.9020,-151.2643,-10.4659,-26.4041,29.2031,-20.4955,54.7529,-26.7929,67.2441,-46.2332,-99.1453,-21.9795,-146.6206
-78.3353,-52.1537,65.6118,-73.3616,56.2128,-29.4992,-41.1729,-69.6212,-11.9986,32.4559,69.7513,3.2665,71.3243,14.9907,78.5350,1.5142,-22.3227,45.9218,-92.7274
-2.1336,-17.2365,110.1822,-55.3216,96.4370,-11.2093,1.7211,-36.8832,2.6949,13.2036,76.9736,-19.8390,54.7551,-4.0934,57.9535,-14.6300,34.5173,9.8957,-70.7174
67.6869,-14.5614,94.0304,-77.4229,77.1475,-73.3488,20.5569,-83.4147,17.6996,-36.6211,61.4002,-51.2789,30.0389,-51.5356,42.7952,-75.5283,23.7277,-70.0390,-63.4175
48.2266,-64.4691,26.6742,-124.6913,19.9639,-159.9324,-1.6837,-116.3646,63.0147,-37.4326,34.3852,-52.8653,35.0666,-59.4017,73.8079,-117.2949,-46.6985,-125.8213,-24.9411
-16.0365,-122.6192,-78.6965,-205.0191,-29.1528,-213.7510,-38.8584,-105.1269,124.2967,-14.8996,-5.2478,-41.4707,37.6661,-44.7097,95.9725,-173.2589,-122.6175,-143.8433,5.4629
-59.2540,-149.2988,-180.7369,-286.0099,-88.4967,-213.6989,-77.5586,-107.0957,142.2716,-29.1113,-51.7314,-41.5322,2.1018,-44.5794,67.9798,-238.8489,-167.1643,-148.1155,-27.5361
-76.2731,-156.0920,-228.2383,-320.6787,-181.3288,-184.2321,-136.8089,-136.9271,95.4011,-80.2942,-86.7395,-43.2873,-55.5284,-28.7183,22.6223,-233.9988,-182.3130,-182.6963,-88.6834
-66.4232,-150.8293,-185.3113,-280.4078,-232.7984,-149.0556,-177.4033,-156.9392,23.6248,-137.0308,-90.2708,-27.2787,-105.8742,23.7190,-21.7449,-185.5502,-142.2254,-228.0173,-105.8884
-25.6018,-101.5552,-64.3355,-139.5777,-172.8119,-89.3873,-125.7619,-136.6037,-25.3388,-162.4321,-55.8164,12.9722,-122.5589,66.0035,-64.4570,-175.0342,-23.9692,-178.4734,-80.4794
21.8428,0.0180,55.0044,69.2762,-59.4495,17.4578,-8.5322,-65.5419,-40.8128,-116.2998,-7.4876,59.5212,-94.1438,60.2812,-80.2674,-178.8711,99.8128,-17.6580,-43.1397
59.2092,91.7561,104.4193,211.8288,33.3545,134.7787,84.8854,27.2569,-37.2562,-6.7624,22.1305,69.9745,-49.9165,24.0366,-65.8490,-170.7098,142.0613,113.9406,26.9902
90.0435,115.4974,96.0268,188.3641,105.2656,180.1918,123.0447,85.3521,-17.8637,89.5258,32.6881,31.5483,-20.0455,-13.2970,-45.8091,-190.2886,111.3776,124.0635,112.9543
86.2391,80.3517,52.9025,65.1258,133.2469,120.2710,107.4117,90.2290,28.2039,114.8014,31.0875,-6.0616,-0.5495,-35.3789,-21.0729,-216.3428,51.4498,73.1198,118.9200
13.0958,11.8509,-22.9180,-22.0152,82.5494,26.2449,49.7682,63.1276,93.3139,94.8074,2.7052,-1.9505,10.4897,-32.6913,12.5737,-186.1356,-0.0338,36.3637,42.5482
-83.4897,-66.9369,-74.7208,-20.0539,13.1474,-11.6695,11.5602,17.6156,137.9865,66.2107,-36.4848,24.5039,11.2309,-10.5417,40.7262,-120.5139,9.0154,30.0538,-5.9126
-116.8329,-100.6362,-39.6442,32.9921,-1.9474,7.6254,30.8667,-32.5964,128.1084,11.7136,-33.3079,48.3202,20.9694,14.1722,59.2407,-75.6631,65.0380,57.6902,-11.9137
-79.3138,-63.3770,34.1208,76.8434,21.0287,38.3567,62.0811,-58.9105,80.0437,-64.4910,12.2425,67.0179,43.9180,30.4500,69.5415,-53.0482,76.8736,100.7327,-36.4044
-27.3492,-8.5446,62.2402,84.8269,51.4034,69.7005,66.3508,-47.0929,41.0675,-95.4923,42.2953,63.2919,55.9820,28.0300,64.2675,-25.9113,26.5918,106.1340,-43.7612
13.7553,24.2063,42.6113,74.5383,73.6774,88.5188,45.4530,-11.8830,24.1001,-57.4109,35.4379,25.5134,50.3719,0.8722,51.5580,10.3913,-16.9744,49.7176,-2.8327
43.4032,44.3718,7.3694,57.5882,46.1866,57.0693,-1.8979,17.7445,2.6456,-4.5329,16.5620,-9.8739,37.0723,-23.2833,47.8504,26.8609,-28.8513,-32.2068,3.7908
47.9984,41.2678,-22.9175,22.9526,-31.6965,-9.4870,-50.2240,19.8154,-30.7778,27.8821,3.2653,-9.8348,19.6497,-7.8985,51.8520,6.3502,-26.6670,-88.5573,-46.9679
35.2187,21.3961,-14.9822,-5.2181,-99.5033,-47.9904,-69.5486,2.1941,-59.7733,35.5911,5.5675,4.9826,5.4560,25.7877,53.3017,-8.9442,-18.7421,-96.5799,-75.8442
33.8856,42.6359,32.5252,15.8238,-138.7634,-44.4432,-93.7397,-9.7244,-88.2738,1.8032,25.8719,11.9547,-7.4167,31.0606,34.2473,10.1224,-23.9164,-65.7663,-79.8101
42.3048,95.2629,74.2791,63.1294,-154.2811,-25.8272,-126.3538,-12.5333,-120.0470,-48.3955,43.8443,21.8609,-32.7135,21.0794,-15.4797,20.5535,-40.2884,-20.8954,-96.7692
45.0840,101.1453,101.6006,88.0080,-105.1456,2.5224,-94.6237,-21.7432,-122.4004,-46.1123,50.1962,34.0748,-50.3402,25.2055,-56.4348,8.1709,-34.0165,15.2985,-88.8488
42.4684,67.0748,122.7155,95.5215,-1.3309,27.8290,-18.8373,-39.7950,-79.2413,7.4686,57.6318,27.1277,-26.8050,11.1274,-42.6521,15.1121,-21.7306,32.2775,-55.0256
23.9589,50.1588,94.7261,90.0477,66.1133,17.8364,-0.1505,-52.8661,-29.2368,44.5688,57.2272,2.6076,21.2776,-42.2031,4.4276,30.1369,-35.6850,38.7015,-59.8363
-12.5722,34.6889,18.0863,50.2649,82.6739,-17.9770,-12.8422,-49.0859,-0.2336,41.4196,37.6642,-16.7427,62.0490,-81.8096,43.4771,19.1286,-33.0273,50.1909,-81.6703
-30.1877,3.3156,-11.1791,6.8812,120.0292,-43.1435,19.4389,-39.6020,20.2205,22.0025,30.1394,-23.9960,94.1906,-79.1344,69.5783,12.2829,9.1721,61.8015,-63.8802
-14.1020,-6.0595,40.5902,4.3454,174.0533,-55.8718,46.3863,-52.4675,23.8193,5.1331,54.5231,-28.2525,107.7535,-72.6875,73.2476,28.5930,29.7704,56.9176,-46.7215
2.4298,5.8315,85.3349,9.1888,170.7434,-57.7789,21.6788,-77.2400,-12.0790,2.4273,72.6718,-32.7208,86.4822,-67.7408,46.1786,45.6145,10.0162,36.3702,-57.3304
6.3606,2.5972,67.8566,-15.2881,104.8759,-29.7890,-1.2874,-59.3223,-49.8535,16.7411,55.5384,-32.9192,54.3974,-32.3554,25.9739,80.1712,-14.8181,3.8292,-38.4042
4.2637,-9.1433,26.1739,-42.6562,39.3791,3.9424,-23.1412,5.2043,-31.6100,43.7672,26.7594,-31.8811,38.0816,8.0747,36.4562,137.7896,-55.6281,-47.3894,12.2229
-19.7079,-18.7778,-0.9009,-64.3573,-0.2093,-11.1926,-90.1696,45.7927,15.2231,81.0929,10.0455,-40.5603,23.9414,8.3580,42.7219,158.8167,-106.3769,-99.2869,31.0655
-55.5249,-37.2310,-8.5617,-88.6538,-44.3578,-59.6493,-144.9503,27.2931,18.4361,102.1118,0.2179,-49.3474,-0.8717,-4.5353,22.3730,134.6610,-105.8945,-110.6273,12.5463
-57.2705,-45.0364,-1.7915,-74.6107,-100.8939,-75.0832,-117.7288,-11.1621,-20.3409,74.2262,-8.8397,-30.0362,-26.7642,11.0107,-6.4730,119.8756,-65.0967,-75.8262,-12.7012
-28.1760,-25.1198,11.0470,-11.8241,-126.6935,-47.1170,-58.3443,-39.0134,-45.0728,22.2310,-12.0856,4.6942,-42.7664,26.1506,-27.1388,106.5047,-43.3337,-31.4330,-32.2398
-10.5299,-6.5345,30.3431,41.4755,-108.8708,-16.0279,-29.7170,-61.2911,-42.0496,-15.0746,-6.5985,7.3479,-40.5276,2.1212,-28.5490,65.3579,-15.3389,-3.4118,-19.8733
-7.0179,-3.2082,54.5839,77.2165,-93.8963,-1.2180,-18.0524,-75.2139,-35.0704,-47.7232,-2.0559,-11.5891,-29.0925,-30.9264,-17.4180,36.9896,43.6430,10.6806,26.9212
-3.0124,4.6715,55.9960,124.3361,-87.7875,2.9926,0.1661,-70.6355,-31.5232,-69.2037,-11.5787,-1.1502,-34.3904,-31.5226,-31.7647,49.0335,68.6460,24.1588,51.0653
-6.2754,13.6859,22.3950,138.8863,-41.8707,7.6669,26.8756,-52.2070,-24.9082,-42.9029,-28.2699,17.4251,-45.5990,-25.6992,-70.0967,66.0569,42.6187,48.8500,40.7970
-15.5380,5.6582,-8.8043,85.9069,31.8224,23.1322,62.9711,-29.3484,-6.0402,6.0400,-31.1864,-7.5367,-22.7951,-51.1705,-68.8425,66.1710,34.5197,79.1196,55.8673
-16.4164,-10.6009,-9.0789,26.8206,69.5301,33.3592,92.0662,-4.2680,29.8244,28.5018,-17.4109,-41.9170,22.9088,-75.1940,-15.9080,57.5212,49.8201,90.4920,94.4978
-10.5461,-14.4324,9.7555,3.7584,62.3084,7.7418,83.7962,27.0447,56.3020,45.1395,1.5519,-33.4886,44.1143,-52.0879,22.9031,51.5532,35.8055,72.5432,96.8368
-4.9137,-1.8263,35.4515,-11.1113,33.3579,-36.3996,37.1294,64.4100,47.7417,78.2519,20.9829,-12.6828,38.5400,-8.6960,25.8089,68.0336,-0.9227,41.3018,73.5084
-2.8536,12.2119,48.2954,-20.2956,-14.6184,-49.5278,-16.0766,82.8668,33.6189,87.8212,30.3641,-14.7175,33.5937,3.7287,34.4965,99.6930,-30.3359,11.0677,58.4279
-17.9191,14.4894,11.4931,-3.8821,-61.0366,-32.4686,-59.3306,48.3083,37.1678,52.3208,14.5950,-17.7934,30.8645,-20.5493,52.0871,100.5709,-60.5638,-9.4080,10.5284
-55.2909,18.0907,-55.8156,27.7652,-78.2295,-24.3523,-104.2846,-23.8165,19.7823,9.4402,-12.1138,-11.5556,21.7871,-62.3128,41.9403,64.4148,-83.8255,1.7272,-82.2799
-83.7802,38.9462,-71.7123,66.8960,-76.5991,-28.2133,-133.5807,-68.0563,-28.2464,-3.7219,-16.6787,-7.5017,12.9748,-93.3736,9.9577,38.4831,-65.4918,49.9748,-138.0007
-57.7194,66.0733,-6.6918,113.0687,-64.6515,-22.0664,-98.2988,-55.3209,-59.2222,7.6026,7.4424,5.3522,10.0641,-79.3698,-6.6063,47.8973,-10.7631,88.7572,-134.3664
19.8856,85.5569,77.3143,145.8709,-43.5523,-8.3105,-20.4402,-32.3110,-73.6407,3.0174,35.8811,29.6892,2.5511,-27.6483,-10.1740,78.9193,33.5546,70.3162,-138.7487
70.0960,80.3433,108.4476,151.6218,-55.7164,1.2421,10.9244,-39.2376,-98.5889,-34.5056,37.0989,47.6775,-23.8738,25.3874,-27.9167,108.3374,35.0212,14.5554,-129.5938
28.2805,23.5472,61.0447,126.7405,-117.2465,11.1594,-12.9235,-39.7333,-97.0091,-55.3118,-3.1583,62.5156,-58.2040,80.1344,-49.3018,118.1481,2.5501,-23.1086,-27.6861
-53.3975,-51.2890,-34.1097,63.0342,-155.8472,25.8315,-27.7497,9.3836,-53.1353,-24.7260,-56.7720,71.0269,-66.2417,128.8174,-46.7027,113.5071,-26.3614,-25.6024,104.0016
-80.3630,-63.4089,-99.5730,-14.8904,-122.7742,36.7193,-32.3160,69.5755,-27.9767,11.2363,-74.9490,40.9769,-42.5978,115.1397,-32.0093,106.6800,-28.8115,-16.1052,144.2110
-50.9612,-23.1378,-85.6825,-59.5682,-61.5916,34.5259,-48.4564,79.9287,-31.7253,17.9612,-50.6447,-13.9132,-22.0464,46.0177,-30.4197,87.8808,-23.6198,-14.5748,113.1656
-27.3096,-12.3445,-33.8868,-59.6174,-17.1263,22.0985,-43.4264,48.6421,-13.9580,19.1120,-21.8991,-29.9076,-19.2301,11.4542,-31.7874,61.7830,-30.6129,-19.2420,83.6773
-37.2091,-40.6344,-13.1185,-27.8928,5.1487,12.6346,-17.0239,7.8199,15.7819,12.6668,-15.9516,-0.7979,-14.2600,28.2562,-17.2544,56.6196,-34.9208,-20.5338,56.8731
-62.2304,-70.7882,-34.6196,3.2285,4.0945,11.3965,-11.1312,-38.7687,23.0673,-26.9411,-29.2772,16.9914,-2.9130,34.6768,4.0383,60.8089,-28.0836,-26.1057,45.6187
-63.6635,-89.9790,-74.8022,-28.4234,-8.1010,10.4647,-15.0463,-56.9923,15.1500,-68.9729,-47.6947,4.5280,-3.5899,33.2010,6.9821,49.5896,-38.1431,-53.6870,74.1374
-31.1825,-71.3075,-124.2160,-112.8955,-21.6765,7.8251,-27.1733,6.2690,-13.2494,-54.5468,-64.0680,-8.2206,-27.4398,61.1961,-28.2707,57.5802,-83.9849,-93.3107,88.6674
-17.9322,-18.0424,-173.6043,-151.7838,-65.5112,3.3010,-93.9686,104.2469,-54.7506,16.0731,-84.7328,-12.1441,-68.4294,83.5853,-84.9391,106.9692,-136.2037,-121.2159,60.2392
-39.8637,-4.1293,-187.5537,-133.0359,-136.4888,-17.9288,-163.3136,125.2508,-45.7365,64.7037,-104.2627,-31.3863,-96.1362,51.1612,-102.0411,135.5060,-144.2250,-140.8281,58.3106
-15.3064,-30.3135,-132.0996,-128.2424,-152.4237,-58.3477,-121.5476,61.6909,15.4246,14.9462,-88.2878,-70.4722,-76.4265,-17.0756,-57.6813,93.1852,-92.7685,-149.2720,96.4689
64.6667,-20.4903,-40.0311,-127.9906,-84.0425,-93.2466,-14.7430,0.5694,53.7150,-88.8854,-34.1675,-92.9901,-27.6156,-70.9470,-11.0932,17.0148,-31.0465,-121.0150,102.8736
79.8548,-8.5864,-8.1025,-108.0920,-38.8458,-112.5908,18.9863,-25.6683,66.8770,-124.6347,-7.2105,-73.8739,-6.4234,-77.7301,-0.2901,-29.7013,-26.0844,-83.8317,68.7037
5.7828,-61.4845,-73.4310,-116.6080,-104.0261,-123.9129,-24.4047,-40.1990,83.6742,-84.3309,-44.2858,-36.8058,-26.2094,-34.8018,3.1053,-14.1397,-72.3679,-96.7165,34.9390
-44.0153,-102.8533,-139.8436,-132.4650,-199.3408,-115.2128,-58.0509,-33.0911,61.2860,-61.6670,-85.7376,-5.4444,-48.3292,28.9670,7.6266,45.3639,-94.9790,-124.3333,10.0574
-33.2128,-69.3817,-108.0681,-85.5768,-193.7565,-84.1169,-47.9682,4.0766,6.0795,-68.5767,-70.2730,26.5717,-46.5775,78.3943,-5.6806,77.5304,-59.4089,-88.7358,6.3173
-14.1045,-30.0671,-11.1866,-28.3213,-95.0186,-61.3940,-10.3008,22.4925,-7.7333,-64.4882,-18.7097,46.6721,-31.7509,88.2454,-25.6544,41.1703,-8.0904,-16.1563,20.7156
11.7168,-2.9155,65.6181,-7.5840,-9.8307,-49.6378,18.8777,-10.2020,-11.9567,-66.3744,22.9145,30.8997,-25.4141,46.1406,-45.0310,-7.3513,22.5075,27.2796,0.3750
49.4583,60.4425,107.3627,63.9688,27.1333,-19.4233,13.2029,-51.3206,-71.3468,-70.5675,45.3699,10.8560,-29.8070,-13.5739,-73.2561,-11.6648,39.9387,52.3914,-49.2065
61.4586,113.4308,135.4379,192.5389,58.7444,18.8207,4.7026,-57.7903,-111.8019,-36.5191,58.9221,34.3331,-24.6170,-26.7195,-79.2807,-17.4667,49.8856,79.7342,-58.7039
52.7032,105.7759,145.6160,249.8688,86.9790,37.8763,26.1814,-39.9642,-70.2120,5.3021,69.7462,81.3783,-3.4287,8.8844,-37.2275,-89.9851,45.0796,90.1288,-39.6608
57.1843,94.5356,135.6075,211.4853,75.0287,52.2678,42.4650,-8.7566,-22.8294,19.5166,78.6384,102.7945,10.1997,37.8126,7.4903,-202.2900,34.8846,91.3085,-37.7337
66.1832,109.7199,127.8252,162.4865,28.7059,76.3372,33.8403,43.0179,-14.1854,49.3221,81.3093,93.8261,1.4523,42.5010,15.2960,-282.6886,39.0929,105.0068,-16.3942
77.2043,117.7190,132.3029,145.3966,-19.8013,100.3348,40.7712,92.6767,-2.7175,94.2234,71.7282,80.4188,-24.0947,42.9781,0.3305,-313.3181,58.8510,111.9831,39.7217
109.3392,126.7602,122.9426,168.8619,-64.7608,123.6500,63.5680,103.8611,5.5081,89.5236,46.1451,78.5017,-63.9056,40.3006,-30.0301,-322.0567,69.1140,90.1723,70.9494
141.1249,148.8830,76.2926,201.4344,-110.3658,124.5147,48.7313,81.0440,-20.6872,41.9944,12.7933,79.5318,-102.2766,27.3108,-67.6573,-330.9742,43.5748,46.0901,65.3561
144.7244,158.4833,19.1876,168.5385,-143.1380,70.7362,-8.6639,48.8572,-64.7885,-3.5143,-1.1313,63.9559,-106.1238,7.2003,-77.6121,-359.0618,-2.7204,5.2545,55.7597
131.4037,160.6495,-1.0327,93.0195,-131.6880,23.8939,-47.7365,24.2508,-108.3979,-44.0727,18.2943,38.5072,-74.4370,-13.3056,-61.8529,-411.8888,-17.7407,18.7634,52.1079
106.8995,164.2987,20.0096,69.5780,-43.9961,75.2657,-12.9214,37.0985,-124.0097,-52.5608,45.7268,28.0348,-34.7455,-20.4176,-53.6085,-443.9057,25.1058,108.6534,86.0300
83.1572,148.4874,66.0008,95.3629,100.4577,170.4518,91.4302,94.9394,-65.8368,-2.7587,63.4890,28.8649,7.7049,-16.1848,-38.5384,-417.0398,105.5586,206.3045,159.0443
103.6892,139.7338,128.5558,144.9082,212.5763,193.5484,192.0375,129.3829,23.9488,37.5406,84.8397,31.4586,50.1932,-30.3212,3.8619,-380.3291,182.0077,235.1096,163.2352
148.6413,159.9830,146.8178,228.2283,216.0036,151.7700,204.5343,73.0406,43.4548,8.1496,93.2449,50.6020,64.6789,-58.1321,41.9807,-380.8565,190.8627,187.9170,50.9913
132.2709,136.0061,52.0360,242.9680,118.6920,95.5299,111.9967,-39.7446,-3.3240,-48.5947,54.3374,75.1316,44.0670,-51.4264,57.7119,-367.7880,85.7356,76.7701,-70.8160
65.3315,56.3978,-79.0545,103.6444,-18.5440,9.3611,-35.3169,-122.7312,-50.3849,-91.3975,4.9557,71.8914,14.5234,-7.2371,65.6212,-305.4785,-74.4947,-65.2259,-151.2252
44.9724,42.2288,-116.7652,-38.5522,-137.8558,-87.4612,-167.0806,-131.6894,-104.2170,-119.3956,3.7283,54.5424,-12.1048,25.4471,53.6204,-255.5302,-172.3081,-149.7781,-230.9751
74.7405,109.4028,-97.5588,-55.5631,-203.1534,-119.8365,-217.7639,-74.3374,-164.8409,-100.4173,18.6205,45.5585,-36.8205,25.5190,12.6935,-248.0148,-175.3489,-133.3857,-254.5710
82.3899,129.5385,-107.6674,-45.1888,-205.5681,-86.7040,-165.7333,3.1086,-162.0567,-15.8682,-2.0859,25.4165,-51.5088,8.5652,-23.0002,-228.9076,-128.3047,-77.3704,-161.8421
67.9103,81.3526,-91.2761,-51.4671,-163.4489,-50.1908,-71.1270,39.3996,-89.6417,69.9581,-23.9741,0.1824,-57.5601,-6.8509,-33.3629,-178.5026,-64.2626,-45.0952,-63.5965
66.5176,48.5758,-23.5508,-20.2483,-112.8939,-33.8468,-25.3993,19.7907,-34.1583,85.0613,-11.8730,1.7654,-60.3443,-6.0706,-30.2185,-133.1792,-27.8852,-49.9508,-58.8744
49.1749,22.2786,-25.5187,-44.8929,-79.5333,-34.5547,-49.5083,-14.5183,-25.9508,37.5767,-4.3969,3.5297,-46.9827,6.6400,-14.9251,-112.8756,-67.7205,-81.6529,-71.5833
-7.5499,-35.7114,-115.9412,-188.7337,-46.0180,-49.9803,-79.9120,-32.9137,-24.6210,-13.7760,-20.6683,-23.3548,-17.4066,12.0809,1.0704,-123.9682,-134.5503,-91.2867,-39.2713
-50.1194,-60.6737,-154.8031,-264.4563,10.8116,-63.7677,-70.1850,-42.6203,-33.8639,-39.1203,-23.7389,-36.5297,0.4548,3.7041,-15.3841,-160.6687,-124.8514,-36.5531,-26.2282
-31.1019,2.2690,-96.2679,-141.1695,58.7567,-66.7422,-47.0243,-56.8412,-80.8918,-51.9693,-3.4838,-19.1968,-2.4882,-28.6414,-57.2028,-178.6207,-31.4472,40.4240,-68.1759
32.1910,97.9856,-0.5793,56.6361,67.0891,-53.9800,-27.4670,-79.0176,-129.7798,-55.8065,20.8845,-15.8562,-11.9105,-93.2057,-83.8920,-153.8082,71.6790,80.7135,-113.3241
107.8011,150.2851,113.3778,182.2847,73.8546,-10.1220,17.5014,-108.4019,-134.1180,-45.4285,49.8935,-28.3551,-30.4775,-140.4397,-93.9055,-125.1385,131.2307,76.6937,-128.6043
160.7733,128.1014,193.3085,166.2350,95.6169,28.0281,58.3379,-139.3346,-110.3425,-50.2276,72.9922,-28.9214,-59.6305,-111.4614,-100.7081,-115.8814,111.7170,12.5495,-132.3445
137.2190,34.1337,133.4330,-17.2663,67.7420,-11.0822,8.7422,-159.2137,-82.0530,-75.9752,56.4580,-34.2343,-72.1229,-37.1746,-77.3286,-98.1833,-4.3213,-119.0555,-148.1017
36.9892,-79.8239,-39.8621,-247.8727,-38.4956,-101.3680,-118.7222,-159.4799,-46.3807,-71.3287,2.1608,-50.5012,-58.8732,15.4346,-15.4309,-63.5907,-158.7196,-243.5152,-179.5171
-51.8797,-129.7234,-178.0304,-335.2238,-161.2457,-157.1070,-219.0836,-152.0079,-33.7845,-45.1987,-49.3146,-48.2598,-54.7288,29.1804,19.8592,-43.9179,-250.8174,-277.0234,-202.8477
-72.1565,-83.4211,-199.1604,-254.6159,-237.5494,-171.8103,-248.0202,-143.1992,-72.6072,-52.1697,-66.8583,-32.6410,-74.7042,4.2717,-19.1766,-51.9925,-235.7549,-204.5783,-184.5294
-56.3759,10.8969,-106.9191,-104.5276,-229.6881,-155.2515,-214.1882,-95.3316,-99.5789,-36.0268,-39.0591,-25.2325,-83.1983,-46.8021,-79.8822,-50.1817,-140.9371,-53.1193,-120.6547
-27.9109,78.6270,46.3117,35.2380,-123.8257,-75.8713,-112.5318,1.9614,-50.7576,56.6656,15.8900,-19.6648,-58.9331,-73.5930,-91.1845,-3.5809,-26.6612,87.7232,-38.6239
16.6178,66.4910,135.2800,67.5372,5.5305,12.2463,7.4469,54.8587,21.2749,101.3292,45.1051,-26.7197,-26.1514,-59.0831,-56.2843,47.3155,38.0564,95.5606,35.6146
27.7502,-24.4284,73.1326,-64.1248,55.1785,8.9649,49.1375,2.7784,46.6041,16.1233,23.4356,-58.4533,0.4493,-35.7274,-8.6552,41.9405,12.2197,-9.7963,83.0058
-39.1295,-126.1159,-64.5097,-239.7131,43.1272,-45.3439,6.1779,-57.5125,33.2518,-64.9523,-11.9304,-67.4390,33.3161,6.7739,38.0213,21.0825,-71.5780,-79.2066,81.8113
-124.1105,-167.9849,-148.8885,-288.8650,45.4149,-62.2615,-45.0973,-51.8120,-2.7643,-55.3221,-26.5186,-22.9290,64.7351,80.5443,65.4835,57.5199,-124.4344,-67.8742,31.6165
-147.6972,-146.9939,-135.7243,-192.5995,48.1464,-65.8872,-66.2584,-51.7731,-49.2075,-36.0620,-23.7913,19.8061,69.1040,110.5206,59.8357,107.5015,-90.4234,-42.6581,-21.4238
-115.8299,-87.7825,-43.6905,-41.0885,24.4773,-65.1730,-59.4168,-70.5718,-55.5159,-26.8431,-6.8463,16.0087,47.3458,48.8652,33.3873,105.5629,-1.8049,-1.8193,-24.5874
-59.9922,6.6781,76.5699,89.2766,28.0222,0.5529,-21.7340,-11.4031,-13.1532,27.4735,21.5881,-7.2006,14.2940,-32.2724,-15.0071,99.8967,74.6057,83.2846,12.0201
8.6247,91.4534,147.4984,144.2710,68.1183,83.4059,29.0112,86.5147,20.1176,84.1074,34.8239,-22.0635,-28.1968,-64.0405,-84.3449,131.0777,101.3742,132.3424,27.4124
47.3821,67.1247,119.3585,71.0211,54.9184,67.3141,41.4995,72.0746,34.1460,73.0294,12.5470,-32.7086,-67.6089,-47.8661,-111.7178,148.8239,54.8986,45.7871,-12.0931
10.1539,-71.1233,3.5357,-126.9667,-32.9573,-26.2980,-22.6468,-45.4672,50.0508,10.8254,-30.9946,-43.3209,-78.6160,3.7195,-57.2340,140.4058,-65.7621,-138.6104,-93.4820
-68.2760,-184.3978,-133.0258,-310.0814,-92.9536,-95.0510,-131.8686,-140.6438,33.6898,-65.3498,-66.0365,-50.1996,-58.5477,51.7650,8.8606,140.8209,-178.2653,-273.0352,-189.8337
-109.3930,-166.7937,-184.5090,-285.6726,-61.6940,-96.0513,-188.6050,-176.3542,-25.9993,-121.3178,-66.2938,-40.6722,-22.6018,39.7955,26.3642,133.4121,-176.3758,-249.0436,-258.1632
-89.8723,-53.2062,-105.5082,-53.6054,13.3116,-20.8573,-143.3944,-152.1550,-78.7385,-107.7305,-26.6851,-5.7011,16.0925,-6.0417,21.4227,112.1553,-72.6100,-94.8576,-243.3096
-45.5850,72.1844,12.3610,160.8317,76.7743,93.7423,-64.7353,-43.5593,-116.7096,-28.7597,21.7669,25.6850,40.4079,-19.0082,1.5553,125.2829,25.0795,72.7871,-136.3017
-14.5992,143.5960,63.3004,193.8940,121.8836,146.8088,-15.9913,94.4745,-144.0033,59.9951,43.4656,16.4630,43.9523,-9.8172,-43.8604,167.2962,61.5863,168.7932,3.3076
-14.0002,106.3861,54.1664,91.9897,150.5168,106.4417,32.7443,159.8871,-98.0227,130.7137,32.8480,-17.6589,41.3443,-5.6947,-63.9295,191.1937,62.2410,168.9563,112.7313
-41.2349,-30.9645,21.9957,-43.6208,153.8620,37.7407,87.9845,138.1027,29.7875,166.6575,-4.2531,-43.3059,32.2132,13.3286,-34.5471,206.0776,49.7872,72.2006,175.5689
-77.8191,-169.5281,-51.0716,-158.9408,117.0116,-37.6386,80.1422,70.8213,134.9563,142.6653,-63.1908,-64.7140,5.1736,27.9725,-8.7996,216.1749,15.0058,-81.6531,189.8962
-103.7877,-222.2833,-163.3526,-208.0297,28.3666,-119.3255,-6.1344,-12.1427,155.6475,73.8784,-121.2740,-84.8655,-20.2803,-4.3668,3.4799,181.0496,-39.6327,-205.9572,141.9525
-107.1235,-191.9953,-240.6038,-170.7483,-76.5764,-140.3600,-91.3359,-69.5847,115.3703,-4.4662,-148.3360,-78.2162,-30.0286,-38.8535,20.8161,116.3432,-69.3536,-242.5356,53.4400
-82.4522,-126.0548,-205.3359,-90.6046,-113.5535,-78.0460,-112.2124,-70.8192,35.5001,-71.7588,-130.8321,-45.6664,-48.2687,-15.1360,-3.1053,82.3355,-30.7903,-200.7530,5.1471
-35.2349,-58.2155,-53.6891,-25.9060,-44.0986,-8.7800,-72.1920,-28.8587,-37.5271,-86.5986,-65.6037,-27.1768,-64.5113,25.9430,-64.5763,85.1576,51.4386,-115.7728,41.6762
19.3945,2.3926,130.4769,9.3696,73.7527,23.2778,-7.7828,36.7185,-33.4273,-27.0558,30.6510,-40.7479,-25.6826,19.1435,-59.9240,103.6613,111.6385,-26.8586,99.3566
66.5803,52.4560,229.5583,30.3905,150.2197,22.3096,31.7915,94.9716,26.9280,42.9699,101.0702,-70.1007,50.9469,-34.2156,20.8471,126.7344,120.2304,13.0127,110.4562
83.7402,64.1061,188.4916,26.0432,131.1654,-25.0318,10.8663,94.6706,64.6380,70.8394,93.3533,-102.9017,82.2352,-97.6545,72.6993,129.0226,83.0388,-29.8617,100.1130
42.7677,11.3923,55.8407,-28.1650,31.7911,-86.6456,-51.8526,44.8561,74.1697,91.9536,23.2905,-124.5341,50.6923,-127.5266,69.0042,110.0610,15.6043,-112.7370,94.8929
-37.6644,-62.1891,-77.4422,-91.5808,-59.5299,-90.2259,-97.5008,7.7423,84.6615,115.9246,-47.5597,-107.2729,12.4438,-100.2930,57.5536,106.2364,-50.2476,-148.3222,52.0340
-91.8618,-90.3038,-165.1610,-105.8632,-78.1803,-58.2813,-109.7254,-19.4585,79.0361,85.7991,-85.1516,-60.6814,-5.6867,-57.7769,39.3951,115.5017,-102.6272,-130.5621,-39.7203
-109.8034,-96.3146,-217.9538,-121.4996,-66.2842,-72.0616,-142.8789,-77.0257,46.3566,5.0448,-100.7029,-41.2993,-19.6532,-47.0741,7.1869,118.1141,-160.6584,-144.0952,-110.2191
-138.6246,-132.2474,-231.5943,-191.1443,-72.4316,-118.1789,-208.8712,-132.6552,10.1419,-58.7933,-103.9044,-63.4491,-32.5223,-42.6887,-15.2482,131.7904,-190.1442,-194.0760,-108.0874
-151.3104,-144.5606,-166.0691,-205.4172,-69.3482,-111.9601,-217.4710,-129.2055,-23.9085,-93.9236,-79.9790,-72.1673,-33.3868,-15.4857,-25.9136,141.1139,-124.7056,-175.7490,-52.0104
-82.2972,-62.8491,-42.9848,-74.1050,-50.4529,-15.1650,-130.6334,-64.3583,-59.6063,-113.1014,-32.7921,-40.1771,-27.8530,10.9088,-33.1991,101.3388,-8.1598,-75.3686,19.0946
7.7587,44.8787,30.6973,80.5190,-47.3555,127.0288,-45.6065,37.1497,-71.5551,-71.1031,-5.5716,-3.1377,-28.4466,27.6764,-27.9882,55.5720,45.0848,-0.4012,81.3876
10.7027,67.1609,7.6993,121.5908,-30.1443,208.9666,-22.6171,128.0048,-35.2489,35.2344,-18.9394,11.8296,-26.2497,45.1854,-16.1068,68.7833,19.6050,13.7940,132.1231
-38.6465,12.6899,-40.0961,70.7017,34.1920,160.8034,-10.0362,139.5205,34.2290,95.2994,-38.4661,3.3328,-7.4781,35.1417,-10.9109,94.0692,-18.5588,11.4560,171.6109
-52.8184,-44.5827,-48.4094,-15.6886,95.4799,49.0629,12.2165,79.8194,103.8358,54.7522,-35.8921,-31.9255,15.2038,-16.7084,-3.6199,74.4630,-31.7880,-5.7558,178.5052
-49.2045,-73.2432,-20.6080,-95.2722,127.7332,-7.0259,21.8578,52.7395,162.3929,20.3557,-16.6850,-73.3302,36.7239,-63.0254,22.2640,52.4169,-8.6677,-19.8324,153.0546
-61.9585,-65.0070,25.0598,-97.2267,162.0370,9.3857,41.2226,111.0491,212.2290,77.1195,14.7166,-81.4540,83.6888,-74.3182,78.0001,69.7820,37.0064,28.9132,144.6729
-72.1094,-28.9832,48.6556,-28.5261,164.8324,42.5230,62.9685,190.5263,231.3076,160.2206,39.3292,-58.9967,140.5445,-65.9462,144.0516,110.1719,52.7175,100.0634,166.2367
-90.7694,-13.5588,1.7332,21.2697,93.6231,76.4539,36.6455,224.6029,195.1098,192.5656,15.9684,-31.1719,139.9904,-31.9531,158.1508,159.1167,28.9678,104.3285,175.1357
-127.7900,-29.6745,-74.6253,52.9279,20.7542,130.0306,5.7626,232.5025,133.5757,186.5294,-41.0489,10.1875,85.4642,38.9597,106.8316,198.5703,20.6221,84.3192,178.3799
-120.1947,-17.9866,-82.8796,117.8637,15.3136,204.6083,42.7127,262.4188,96.1921,170.3444,-62.4902,64.5117,46.7870,112.8490,57.2347,202.4696,36.9108,107.0825,210.8996
-43.5646,33.8990,-25.6456,160.5432,33.0940,274.3089,87.3129,303.2622,76.8128,143.2369,-42.6004,88.7211,18.0729,153.8286,22.9691,190.2081,33.2192,102.9349,232.3800
25.1688,59.4661,5.1794,108.6019,23.4875,290.8726,62.0158,302.9439,48.9082,94.0415,-40.0598,64.3080,-45.9958,163.0716,-43.8742,186.2409,8.0496,18.4459,207.0686
41.8924,36.5658,-17.4373,1.0503,-5.9355,215.7228,14.6294,254.4576,28.1723,10.7546,-58.9727,24.5877,-99.0133,146.7534,-108.4007,159.4835,-6.4073,-59.7793,185.8376
43.2725,14.0030,-37.3590,-81.4385,-30.4056,74.1237,2.3132,191.4381,28.0935,-76.8386,-54.3966,-3.6900,-83.5493,102.4879,-105.9644,93.1867,-3.2520,-65.3688,182.3695
50.0682,18.9657,-25.7188,-89.1881,-21.4515,-49.8492,3.9037,116.7030,21.1330,-99.8037,-27.2042,-21.7493,-40.9611,34.1063,-73.7445,27.6258,10.0409,-39.7103,134.1759
52.9352,43.2628,-8.7679,-19.5474,10.3805,-91.1332,-1.3870,28.1692,-5.2084,-61.2754,-9.0293,-32.8021,-20.5703,-45.2743,-61.3162,-10.3476,19.9492,-15.2589,42.8765
57.3345,78.7855,6.2544,59.2317,15.0830,-61.3424,-2.4820,-31.5237,-22.4162,-43.8879,1.5994,-35.8293,-15.9853,-107.0851,-57.5755,-29.8057,14.2083,24.4892,-27.6780
73.4009,104.8158,54.4146,82.2439,23.9838,-15.5116,18.8340,-48.0678,-14.8449,-74.7767,22.9131,-31.9908,-25.8286,-123.9941,-72.5781,-42.3914,19.8637,70.8015,-69.8442
100.2509,94.1993,131.8747,69.9418,107.5374,11.9585,69.9797,-78.3721,-5.7090,-112.5776,49.7060,-26.8499,-47.1912,-106.9712,-110.5884,-59.2271,63.0253,75.6959,-109.8962
117.2852,44.1664,162.6875,45.5000,189.3306,6.0634,107.5486,-148.1087,-15.3243,-135.3309,57.9789,-27.5312,-51.6102,-83.3508,-113.6313,-73.8254,95.1590,12.8984,-141.6542
89.9071,-25.3013,111.6323,-6.6777,155.9112,-37.8359,81.9618,-199.9272,-22.3807,-129.7110,36.8050,-31.6653,-38.0408,-58.2753,-67.0952,-59.2359,65.3707,-71.7618,-141.5487
28.5914,-75.6642,49.2072,-44.9156,80.1301,-71.8261,39.1997,-174.8158,12.1970,-81.4210,9.7782,-33.4294,-17.0304,-42.0790,-15.2537,-23.6440,23.9700,-93.9118,-81.1302
-9.9828,-72.4731,34.1862,-10.2343,75.3669,-38.5012,52.1322,-77.6875,85.1674,-26.4519,6.0442,-36.9007,35.5528,-54.0797,48.8427,2.6784,43.2498,-33.5432,36.0254
-18.3540,-44.8651,34.9862,44.1702,93.1748,10.5699,93.8910,23.2234,141.5260,-6.3279,13.4414,-39.0401,102.1578,-68.8638,120.5532,33.8604,95.2947,39.4352,131.5241
-31.6506,-57.6795,25.6011,27.2892,61.5443,-22.6194,107.0625,51.6542,138.4053,-2.4284,5.0212,-28.6315,105.1129,-41.4217,118.3448,80.7366,109.0891,57.2722,154.0786
-26.8867,-99.9652,44.2667,-43.6979,22.0256,-113.7645,109.0945,15.0485,94.0619,-1.0055,-3.7602,-18.7733,43.0084,10.6640,37.3133,96.4457,93.0446,20.4482,162.4902
32.2393,-103.1977,105.7598,-84.8706,28.0818,-164.5784,138.0274,-13.2289,59.6784,-30.6667,14.1456,-28.9599,1.7770,28.8442,-19.6383,57.2056,106.2033,-17.7415,197.7886
90.4627,-64.7513,142.7164,-65.0076,58.4034,-149.1493,177.1270,-16.4815,57.3218,-80.6847,34.2088,-44.6886,8.2443,-3.1902,-21.0705,2.6727,140.1894,-6.4049,213.6165
79.0450,-35.6167,81.0131,-22.2671,46.8224,-92.2577,173.9370,-28.6482,57.3658,-90.4528,10.2161,-48.3561,11.0884,-52.6717,-18.9474,-37.0893,127.3098,35.0716,188.4042
33.8091,-17.2061,-46.0880,5.1454,-33.2320,-18.3379,111.9776,-39.4442,23.0443,-51.1815,-47.9843,-48.1112,-15.8317,-84.6953,-32.3260,-60.2616,67.3264,45.0387,144.1114
30.5020,25.0221,-97.3309,34.7507,-83.6811,36.3842,62.4530,-25.9232,-32.2829,-32.7277,-71.7684,-42.8883,-44.6311,-88.6390,-59.0428,-67.4366,49.5707,45.7086,91.0372
69.0898,79.6346,14.3385,98.0819,16.3646,74.2549,109.3900,-0.3500,-51.5758,-71.3545,-17.7471,-20.1411,-36.2364,-71.6966,-88.5512,-68.3736,122.5549,115.6078,66.2543
92.0386,91.2077,197.2612,164.9264,199.9243,131.6801,220.3440,35.5097,10.3232,-87.5968,69.2809,10.9584,13.9955,-38.1440,-69.1299,-50.8714,219.1231,213.8841,94.4128
68.6603,32.2644,290.8133,178.8573,284.6559,160.7917,285.8159,73.2016,136.8186,-1.2656,108.0675,34.8338,63.3586,3.4811,14.4421,23.0625,239.5799,214.8792,97.5634
14.0353,-53.3044,237.1259,135.0347,224.0625,85.7493,255.6484,70.4639,238.3385,119.3396,78.3011,46.0777,79.8596,22.7064,93.7163,119.3604,164.8375,121.0806,26.5620
-38.9532,-86.6124,94.5305,70.6663,110.2984,-21.1196,163.0169,46.8496,228.8248,161.4381,24.3936,36.6294,81.8924,4.3128,119.7914,145.0203,67.8567,55.1761,-23.5757
-51.3475,-37.5682,-31.8381,33.4131,23.7764,-30.5725,79.8901,72.6555,133.5574,139.2436,-11.6461,13.4124,81.6913,-22.5035,104.8294,94.9575,21.1413,65.0048,5.5045
-6.6262,43.2809,-67.2249,53.4989,-9.6143,34.6518,59.6699,112.0519,51.6944,104.6155,-18.3371,1.2774,65.3718,-38.7989,70.9851,35.7725,18.6961,91.1707,34.6933
47.0314,89.7896,-43.7237,96.7942,-14.6531,68.5244,72.4795,79.9877,15.4525,39.7349,-7.6184,0.7771,47.6838,-60.3486,47.8754,-14.7966,21.7044,95.1218,18.3923
47.0580,91.1141,-42.4851,111.1943,-25.3905,63.9593,68.6590,25.6242,-13.1899,-29.5400,-2.9806,0.4362,53.2171,-75.4518,50.5266,-49.7741,32.6885,108.1666,10.9917
13.9546,75.2906,-57.6928,112.6423,-17.3576,87.6328,85.7112,46.1987,-35.3597,-22.6376,-10.8349,14.2710,63.0564,-43.4683,46.6191,-29.8446,54.6165,151.6750,62.6738
11.7800,53.3219,-44.4338,115.4361,11.2649,147.0178,151.3848,117.9411,-17.5847,36.2822,-18.6822,43.6312,51.1440,30.5731,25.4470,26.8958,43.5830,173.8800,169.8161
43.8665,26.8873,-27.9618,71.6556,-27.7459,175.4324,187.6900,166.8855,28.9303,56.2624,-24.7427,58.4260,19.8414,94.1460,18.0605,53.0929,-21.6307,126.2338,256.7455
80.7336,28.4926,-24.0081,-5.1873,-133.9368,137.6106,151.3921,169.2628,50.0933,31.7779,-24.2040,52.6809,-21.2353,107.8453,8.5469,41.5556,-100.2336,62.6695,222.3092
111.9580,75.1372,4.0645,-25.4978,-163.5706,82.5919,100.4132,126.3764,22.0320,9.4129,1.1222,46.2990,-48.2052,72.6971,-28.9798,26.7959,-160.6489,55.5111,98.4667
109.8251,107.3836,29.4359,11.3807,-83.6487,54.4630,68.1081,69.6523,-3.8151,17.4345,32.1561,44.2455,-32.0113,26.9262,-43.2381,21.8664,-202.9584,73.9274,19.9348
56.0705,74.9009,-0.7994,36.7282,-11.9300,32.6549,55.1786,46.5105,34.4993,69.6101,25.9712,49.9018,3.3754,6.6038,-10.4169,31.0599,-213.1852,74.4631,-1.0602
0.7989,25.2627,-35.9485,44.3365,24.1717,6.3508,81.1187,34.3907,98.6012,127.6672,0.5504,62.3433,11.6362,-4.7128,0.0644,37.6303,-183.7563,93.8952,-40.3831
-8.6939,12.2443,-18.8717,37.5819,79.6553,-3.7264,118.5793,-8.0312,101.2555,127.9258,5.5836,54.3190,7.1913,-32.4839,-28.9253,13.5333,-151.3432,135.5930,-66.1092
19.8932,26.5575,10.9204,1.9158,121.7439,-2.6816,121.4177,-23.7928,53.6187,83.6176,32.7596,27.0166,22.0026,-42.0977,-35.3143,-8.5913,-149.6252,135.4643,-19.7105
85.9817,76.0383,27.9555,-2.4143,104.3115,8.5931,120.7059,43.2548,14.8543,39.0902,51.3353,25.6154,35.7200,-7.8181,-21.2923,8.1110,-162.3296,103.9512,46.2723
179.3135,175.4543,47.5295,68.4689,68.3097,45.2756,136.9161,118.1562,-34.2990,-10.0680,63.0702,41.5793,28.2753,7.6379,-35.3429,6.7658,-155.5114,106.8723,73.0318
242.1601,263.4381,44.2573,126.0759,42.2761,68.6402,125.1648,116.0550,-113.7919,-56.2440,63.9963,15.6175,13.3879,-50.4195,-69.6634,-49.3732,-118.5557,125.2955,70.9666
275.8892,301.9694,31.5348,124.9351,8.2993,50.8975,101.8224,72.7947,-181.3694,-83.9008,49.6775,-41.4169,-16.2421,-130.8919,-115.5687,-87.0246,-62.5306,115.7705,50.0400
349.6375,356.7002,92.8580,155.0810,-16.5851,53.2907,120.5315,49.4608,-241.3968,-127.6039,56.7422,-65.6155,-72.0874,-162.9200,-193.0847,-73.8636,-8.2669,111.2169,14.1924
434.0973,433.4529,208.0332,224.3014,-4.1643,80.9361,140.2798,35.5159,-317.0039,-173.5266,104.2610,-52.4427,-106.9159,-151.6499,-252.2376,-66.5953,13.7190,126.9805,-22.4497
427.7539,427.8186,249.5208,218.7587,21.4385,39.8887,107.0759,5.8826,-335.1846,-140.0487,145.8008,-38.2273,-74.1957,-132.3652,-210.7546,-63.3060,-30.9355,106.6156,-69.1226
331.5763,320.4697,171.5986,117.1627,15.1768,-62.6007,40.5774,-31.8167,-255.3932,-49.8149,137.0243,-31.1865,-13.6684,-113.2275,-102.6716,-26.7849,-145.5784,30.1834,-125.7707
210.7693,198.0594,24.3365,-0.7785,-34.1584,-126.4879,-44.6936,-69.3007,-171.6126,-6.6508,81.5747,-29.8817,11.0083,-95.8379,-29.5815,-2.7058,-266.0895,-54.3009,-153.4747
92.5361,93.1331,-117.4065,-85.1259,-83.1993,-145.4762,-122.9090,-106.1080,-127.4862,-17.5098,11.6683,-38.7016,7.3261,-88.6671,-3.6339,-29.7774,-295.7049,-107.6042,-135.5819
14.4513,3.3389,-150.4293,-102.2128,-71.8507,-152.6573,-116.6755,-129.0186,-61.7579,-37.2349,-23.1291,-43.1470,16.9784,-84.5444,25.9265,-56.2901,-206.1365,-115.7818,-93.4033
8.3106,-33.5836,-54.8610,-39.0848,-14.2179,-129.4921,-33.0700,-126.7976,8.4840,-62.1374,-0.1926,-21.8268,40.2006,-62.2405,60.0071,-45.2608,-84.2649,-78.4357,-57.4165
16.9250,-27.3149,20.3788,25.4721,4.7430,-99.9260,12.8152,-112.0365,13.3851,-66.2281,30.1905,23.1634,52.9495,-11.0400,76.1707,-12.6726,-47.5780,-38.3418,-66.8463
-20.1091,-54.9742,-35.8279,-6.2601,-55.2880,-111.9132,-26.3785,-105.1052,-16.3547,-25.4036,12.8926,62.9011,49.6966,59.6390,92.2014,39.5605,-120.9705,-67.9561,-117.9157
-75.7713,-132.4412,-154.0480,-134.2285,-166.3865,-149.4805,-112.2729,-118.1345,-34.7230,-0.8027,-37.1824,63.7572,31.5165,121.8318,116.9180,98.1461,-226.3210,-180.4929,-152.1098
-120.4853,-195.3620,-243.6823,-272.0738,-290.3072,-208.0633,-214.2852,-156.1387,-70.8928,-40.6326,-78.6468,33.2977,1.9025,143.0709,117.9828,112.8455,-279.6623,-280.2373,-169.6422
-156.5171,-197.6976,-272.2592,-303.8682,-361.3927,-281.1983,-271.2381,-198.1167,-114.0340,-93.1680,-89.0776,22.9160,-11.4493,118.2249,94.4786,69.0260,-251.5637,-254.8649,-208.1588
-159.3191,-151.8962,-206.1332,-181.5611,-304.4473,-264.9219,-208.4584,-200.2630,-96.9622,-101.0763,-60.9612,47.3415,10.8691,75.5749,87.0659,3.4999,-152.1721,-119.8370,-207.9825
-119.6337,-105.4625,-77.6532,-19.7577,-152.1362,-122.1991,-67.7533,-159.4871,-29.4336,-70.5770,-18.4321,61.8237,36.4897,42.7313,91.2605,-46.8127,-27.2022,3.1332,-122.8795
-78.9838,-86.8507,3.9780,33.1027,-34.0715,0.1985,27.4294,-120.0734,10.8416,-42.6402,1.3869,50.8606,30.2377,33.0123,69.0033,-52.4015,46.5847,43.4313,-64.3613
-53.5236,-74.4197,2.7663,-16.6965,-22.2614,7.0011,19.4028,-96.6315,-3.7298,-52.1068,1.4342,44.8285,8.9165,53.0118,39.1358,-10.1621,26.6984,10.0505,-116.0338
-36.5769,-64.2902,-46.7560,-91.6101,-86.9503,-43.7446,-62.9496,-83.8537,-33.8698,-80.9103,-7.4221,43.3125,-4.3256,82.2935,43.6194,27.8134,-51.4791,-83.3395,-199.2345
-67.3717,-103.8880,-135.7090,-165.1781,-170.0492,-110.0788,-159.5181,-116.3323,-35.5728,-80.6351,-43.0196,29.6400,-18.4290,83.1700,64.5441,19.3978,-122.3857,-188.8448,-247.3534
-161.0075,-185.9209,-216.9956,-192.2950,-217.2990,-165.9606,-213.7983,-189.1317,-6.7376,-54.3385,-90.8915,28.0977,-32.7689,66.1635,68.9947,-2.4688,-140.5973,-215.4484,-265.2419
-229.8079,-224.4911,-207.7824,-130.9707,-192.0785,-146.8271,-194.8020,-203.7853,17.9297,-29.3576,-103.1518,51.2572,-30.4095,74.0868,61.3439,10.8764,-89.4412,-152.6983,-223.6987
-200.7094,-193.5271,-131.2022,-52.5027,-112.7959,-74.2584,-101.9127,-126.1306,25.7684,2.7151,-84.2490,60.8652,-20.9658,92.8066,41.4352,52.3957,3.8506,-78.5424,-124.6501
-130.0720,-154.1299,-64.8835,-29.8512,-41.7971,-38.5431,9.2619,-56.6652,46.0712,36.4957,-67.3015,43.2119,-22.1541,78.5350,10.7808,85.6451,74.3991,-31.3361,-63.0364
-104.1209,-136.3389,-9.4066,-24.9261,-23.7536,-44.8755,32.7707,-53.1033,86.8167,43.5703,-43.1004,29.2341,-19.3676,45.5331,12.5559,94.7864,79.9836,-13.8396,-84.3719
-112.9778,-119.1534,31.8981,-17.8858,-48.9750,-61.6727,-44.5121,-62.7962,109.6928,34.4999,-7.6439,23.2072,3.8179,25.7034,62.3302,84.4647,39.8797,-37.2596,-128.2157
-108.9816,-94.9084,6.9693,-39.2664,-74.6384,-90.0923,-94.4211,-55.1860,89.3580,30.2667,4.2209,12.6544,32.3758,9.8311,99.8387,58.4588,1.7796,-51.6701,-143.4069
-109.0408,-75.3996,-68.1033,-51.3464,-79.8159,-97.8925,-62.0579,-45.7757,51.2696,28.7503,-15.3964,17.9793,49.0886,-1.5998,93.0109,25.9105,-10.8704,5.0434,-131.3513
-140.6057,-76.2324,-118.2914,-24.2692,-76.6836,-62.3693,-37.2549,-30.2362,40.3595,38.4493,-37.2583,42.7033,55.4635,12.6753,86.2528,15.3456,-6.4561,64.7658,-108.6043
-158.1667,-103.5674,-112.1592,-23.8412,-63.0434,-28.7328,-39.0811,-12.0290,64.6559,49.5047,-46.0192,46.6083,48.8492,39.8584,91.7537,39.4113,12.5347,39.0669,-85.1984
-123.9148,-129.5385,-53.9830,-56.9686,-25.1956,-6.6238,2.3731,-6.6823,80.4713,28.9686,-40.5983,29.1473,20.3689,64.0334,62.7145,65.6314,59.4139,-6.3808,-47.7926
-89.4832,-123.8807,18.8887,-38.2758,15.2285,37.8496,60.7633,8.1133,53.0908,4.8671,-27.7407,37.4781,-14.9415,103.1960,2.3942,71.8526,120.5046,14.2646,13.2217
-93.5622,-103.7617,34.8938,20.7131,37.2568,85.4664,74.4254,45.3285,7.7674,16.0311,-27.5956,65.4921,-24.5143,146.3430,-27.7136,74.2457,159.1685,51.9187,69.4997
-85.7258,-88.6679,3.5529,34.8163,66.3360,116.3959,80.9836,65.8550,-14.7941,16.8684,-35.5501,60.3375,-6.7883,143.8286,-15.8474,62.6708,174.1703,50.8384,95.3716
-37.7503,-55.8680,16.8507,21.5738,107.2469,146.7594,103.7239,50.8243,-14.6096,-15.3868,-19.1841,24.9330,5.0218,89.6854,-8.4618,10.1893,183.7720,51.5570,81.7199
-6.9356,-6.2920,76.7713,41.4048,118.5365,152.9693,95.1521,22.0779,-10.5783,-24.7823,17.7735,8.1849,1.4606,30.5315,-17.7787,-44.5030,179.2238,87.6285,16.4159
-30.6112,8.0208,109.8333,78.4838,114.3260,125.1102,77.1441,-9.1827,-3.4723,-8.8755,40.2677,22.4543,11.1886,5.7964,-12.8455,-43.9475,170.4694,138.3094,-55.2376
-71.1815,-25.2782,119.4660,113.2299,162.2273,123.9171,122.1808,-25.9106,14.3654,-4.9539,43.7816,46.5964,43.7669,21.4231,8.9198,-5.2715,202.8029,190.8105,-44.0868
-82.3248,-49.5475,138.7093,160.8322,247.0176,159.7136,201.8844,-3.0638,32.6718,7.7682,43.9843,64.2880,73.5545,48.8318,21.8597,31.6989,265.3698,231.0860,33.1865
-49.9562,-31.2072,146.1404,192.6058,278.1692,176.1284,226.0943,35.5366,24.5760,23.2493,42.7664,61.0878,81.6769,57.4738,24.7360,66.6396,287.2023,209.9311,76.2325
7.5136,-3.5695,136.8531,155.8205,227.3025,167.2768,174.7910,53.4137,-12.8572,0.7383,39.9950,33.2139,62.7711,61.8071,24.5499,95.0907,247.5212,107.4293,71.2260
41.5697,-2.1783,121.8171,61.7560,135.9531,148.0242,95.4870,67.1142,-41.5510,-5.7624,29.9404,5.0096,12.7676,83.8912,2.1730,100.2353,183.9137,-6.8380,56.1937
16.6664,-21.8112,62.9684,-32.4028,35.9458,106.5660,30.0115,87.6268,-35.9194,49.7655,-4.3237,0.5999,-47.9204,101.2795,-43.5370,87.8176,118.5260,-50.1432,10.9842
-44.2145,-52.1192,-36.5313,-95.4841,-45.2879,60.4318,-11.6270,79.3485,-8.5415,71.1113,-50.0662,12.7045,-76.7973,96.7439,-64.6769,66.5389,65.3405,-36.9074,-62.3536
-83.7974,-94.0671,-79.5658,-127.9615,-75.3507,21.2310,-25.1811,29.8259,29.2911,3.2620,-65.4770,18.5822,-63.7734,86.5032,-36.5602,39.5450,54.2748,-37.4381,-97.8690
-70.1056,-124.1609,-27.8118,-122.6497,-70.1003,-30.5654,0.4509,-31.7060,57.3318,-60.1047,-46.9493,10.0604,-49.3777,68.7685,-11.0469,18.9284,89.5759,-55.2740,-82.0748
-22.4952,-103.4633,37.3836,-64.1405,-77.0021,-54.9069,39.6317,-80.5270,30.3294,-65.9222,-32.2252,0.5438,-71.2678,35.7848,-42.6240,-1.1900,130.3329,-46.5843,-63.6619
16.7971,-43.4788,51.3925,17.1953,-94.5036,-18.9881,38.3490,-98.5862,-36.7865,-60.0448,-33.6025,0.6786,-105.5515,8.2376,-95.2900,-32.8639,132.2732,-25.0936,-52.3689
29.2911,-7.9186,21.7927,41.6306,-87.7026,-10.8490,7.6400,-83.9645,-54.2556,-62.7279,-31.9386,-6.0356,-85.5599,-12.9595,-79.0465,-49.8627,88.7111,-33.3403,-23.1754
15.3857,-29.7975,-34.9720,-17.9231,-57.0887,-77.4415,0.9057,-72.4062,-4.6960,-61.0397,-25.1438,-31.6095,-2.4323,-45.9569,14.5609,-38.7823,31.7899,-53.6084,13.9572
-34.5688,-73.7757,-92.3642,-89.4401,-11.7059,-120.6328,4.6311,-79.6862,25.0731,-42.3280,-23.7163,-46.8850,66.2535,-62.5100,81.5185,-32.0226,2.3518,-34.8909,22.8566
-98.3816,-87.3476,-83.5537,-99.8102,77.2835,-84.4709,2.4214,-62.3509,-3.6498,14.6920,-9.4734,-30.7128,81.7720,-33.0454,61.8515,-22.5975,29.8820,38.6829,8.3807
-98.7932,-53.5016,30.2812,-44.9559,209.6969,-13.2553,52.0398,-2.5887,-41.4490,86.2342,42.6407,-12.2824,95.6267,5.8422,29.3346,24.1985,117.6516,129.0199,17.8359
-13.7977,4.2851,175.0429,43.1475,292.4591,62.2958,137.5124,39.6728,-56.6684,110.1085,103.6650,-11.6477,116.5279,15.6980,42.3772,65.5945,200.2718,157.4034,43.5337
64.9189,48.5107,219.9685,116.6012,237.3738,97.6017,129.0620,14.6342,-61.7283,88.5832,111.4261,-10.0039,82.6977,1.7219,44.7040,47.8699,179.1058,84.3844,10.2632
65.1337,58.1396,129.4444,122.3392,90.6852,43.0016,12.3254,-48.4463,-67.0622,57.1467,57.3791,-8.2465,6.8817,-30.4426,2.4017,10.6383,70.6281,-19.8326,-80.5813
25.7457,39.8731,-1.7856,61.3344,-21.7143,-33.5324,-79.2050,-98.6301,-79.0827,-0.3517,-5.2496,-23.1085,-34.7612,-65.6901,-32.8381,-7.5614,1.5450,-70.6185,-142.7175
4.2517,17.7113,-75.2451,-6.5128,-55.7408,-40.5652,-99.8168,-130.5422,-104.9261,-78.5621,-35.8604,-36.3254,-45.0267,-69.7888,-45.8957,-33.3149,3.2169,-79.9376,-170.2874
6.1738,11.4408,-74.6042,-50.9545,-69.3543,-26.0563,-111.0643,-158.7877,-131.7248,-108.0057,-31.0127,-37.3365,-61.6471,-57.0539,-60.7517,-62.2254,-12.0097,-85.8962,-207.8513
22.0546,13.9592,-29.1008,-101.8028,-96.5522,-64.8116,-114.7005,-171.1539,-129.1378,-67.1104,2.0117,-56.5952,-54.4957,-73.7742,-47.6982,-58.7444,-63.1544,-79.4884,-211.1819
31.5430,-1.0194,15.5975,-172.6357,-102.2795,-123.3244,-86.9891,-148.9965,-85.9961,-10.6569,39.3204,-90.8888,-7.1993,-99.4028,7.9281,-38.2858,-91.2399,-59.2144,-149.6152
-1.1322,-31.8938,7.7282,-214.6756,-72.3482,-134.6051,-74.2388,-100.8090,-35.1111,29.0246,41.9141,-93.5617,23.9306,-84.7429,40.7944,-21.7672,-88.6337,-43.0578,-100.4554
-59.4319,-40.5429,-50.5804,-177.1125,-46.2741,-84.2559,-97.1236,-49.1054,-16.3659,58.6843,4.1304,-66.5524,11.0768,-56.4098,17.8313,2.7658,-71.9467,-24.2876,-95.7147
-72.2657,-16.0885,-91.8288,-85.6339,-35.1859,-18.4086,-87.9708,-19.1452,-18.2333,63.2958,-34.1510,-53.0388,-9.1385,-66.3679,-14.8740,13.3421,-27.4962,2.7325,-74.0021
-29.6228,0.7825,-80.7798,-21.8400,-6.1300,1.3842,-18.0581,-27.2548,-4.7375,22.3670,-42.5177,-55.3635,-10.2764,-93.5220,-25.7832,-18.3539,23.6930,20.0825,-16.3532
-2.4478,-14.4882,-59.1687,-26.9316,32.0783,-11.9672,38.6504,-38.1852,20.4089,-24.2361,-32.8866,-54.2982,4.0067,-88.7615,-16.9856,-46.7467,33.9683,20.7133,49.7094
-14.9481,-31.3932,-55.6368,-64.1266,37.7305,-1.8550,32.2788,-0.9728,37.4369,-16.3881,-24.5687,-56.4061,23.0530,-60.8819,9.2696,-29.3546,17.1911,13.1408,103.8765
-13.5877,-22.1577,-35.4909,-82.9596,32.4169,15.4363,12.9425,44.1773,47.4600,13.5859,-9.6659,-64.1119,35.0304,-49.7106,33.0032,-11.7647,16.4197,5.1240,110.5399
14.9622,-8.9529,8.3523,-84.3403,63.1789,9.8409,17.7378,21.0896,43.8797,-9.7518,16.1121,-68.9190,37.7734,-59.2713,34.5542,-36.3756,24.1494,-5.6778,72.8803
21.0341,-15.4722,12.3308,-92.2254,98.0105,24.2865,-4.6765,-26.7142,17.5301,-42.5917,20.6447,-79.0652,28.7985,-64.7528,22.3141,-62.8139,10.9376,-43.7312,57.9852
-3.9429,-17.1575,-33.8573,-83.1851,88.0843,71.1907,-78.6653,0.1962,-8.6666,10.8740,-10.4696,-87.2315,-3.3095,-49.1875,-2.2693,-44.0046,-15.5330,-107.4993,81.5597
-18.5708,9.1937,-37.2024,-12.5578,67.5438,102.3370,-130.5778,88.5790,-9.2214,99.7970,-30.4545,-63.7692,-37.7585,-10.3878,-34.0870,0.0143,-16.1283,-132.8082,124.0426
-11.8913,31.8610,35.9126,88.2425,81.2341,120.5012,-110.5117,158.8442,18.9357,106.5067,-13.5329,-29.4518,-37.1562,28.4841,-38.7321,17.1307,37.7919,-100.2514,227.3493
6.6215,22.0455,105.3706,147.1776,114.9156,147.8070,-54.3924,183.8984,70.4170,43.0746,-2.1957,-35.1833,-24.8244,28.0900,-25.0035,-11.6143,132.2130,-82.8941,378.2980
50.3030,14.2464,152.7855,178.8970,156.8293,152.0555,5.5820,166.5644,110.1857,-10.5686,-4.0932,-56.2577,-40.6452,-1.2144,-43.7975,-52.8797,212.1483,-101.9163,444.9478
108.7044,42.9022,231.2854,224.2259,199.7509,117.0612,45.0174,117.4763,91.9784,-32.3832,32.3929,-38.3177,-50.3327,-5.1407,-67.9720,-64.2900,216.9150,-102.5259,378.8118
131.3423,79.6204,289.3638,222.4061,195.8204,67.6345,14.6881,81.0167,42.0780,-27.8885,94.5257,-15.5435,-14.5091,7.7426,-31.8929,-53.0297,140.5267,-88.8420,280.6916
107.6210,87.7860,243.6114,139.5975,139.5625,25.5751,-55.3486,83.8277,29.7264,-15.5922,110.5522,-36.3186,31.3143,-14.4879,32.9549,-61.0309,66.0560,-89.8511,225.9960
77.4484,70.5237,157.2980,83.2492,103.9193,21.3834,-62.9543,90.8380,61.9957,-32.3227,79.0894,-53.9111,48.2561,-45.2375,63.7473,-92.4559,67.0352,-78.6898,198.3544
55.8841,42.5273,111.2059,97.6400,102.4996,48.9730,-32.5339,61.3837,95.2890,-67.5803,48.8045,-31.8887,40.1506,-41.0890,66.3250,-108.7434,81.1771,-69.7388,149.3928
31.8235,20.5402,62.3750,77.3325,72.6864,38.9011,-81.6584,-3.0343,88.6431,-83.5951,23.2205,-30.2525,8.4009,-51.1141,43.9850,-101.1496,22.3612,-115.5018,60.7228
18.4369,25.6262,-4.2339,9.7406,22.3145,-3.1656,-177.9600,-60.8327,23.1891,-89.8990,-5.1703,-73.3502,-38.0418,-97.5636,-15.6662,-100.8264,-43.4723,-171.4351,-0.8090
37.6950,49.1722,-14.7820,1.8281,9.9860,3.3160,-192.6565,-63.2348,-49.8206,-94.1100,-12.7859,-90.6145,-62.2865,-101.0024,-59.8718,-107.5479,-31.5585,-177.7474,21.2069
78.2404,59.2101,31.0674,38.2403,20.4816,28.0388,-138.1722,-25.8928,-53.6683,-78.4234,7.0992,-57.4686,-49.3649,-44.5117,-34.7284,-88.5281,-10.7222,-181.6312,39.3964
100.3574,50.0549,51.7926,20.3768,9.6316,-8.7626,-119.2244,-18.4638,-20.6053,-65.4033,29.8124,-31.3146,-20.7933,-9.6994,21.1988,-54.8379,-50.3177,-211.0485,-24.2368
72.0001,31.0775,10.6886,-36.5928,-24.6690,-68.6887,-155.7442,-48.1685,-24.7351,-71.6671,29.8410,-33.6575,1.3082,-16.9182,51.3928,-51.5663,-98.8009,-217.2095,-81.2199
4.8269,-3.0593,-71.7894,-78.4952,-80.7552,-101.6112,-201.5621,-59.3079,-30.3378,-59.4750,-3.6306,-37.2104,2.2601,-23.4313,54.1829,-74.9389,-124.2532,-200.4856,-58.4630
-49.3385,-38.9009,-139.4898,-110.2945,-136.4348,-117.3215,-219.5084,-36.7311,2.5523,-33.3816,-44.5189,-33.4043,-15.9577,-16.6960,40.9269,-82.4564,-142.6588,-186.7693,-11.0640
-58.2947,-41.6371,-133.8193,-117.4879,-135.5202,-81.4705,-195.1458,4.2168,13.9853,-37.4137,-51.9239,-23.4157,-32.6401,10.3103,12.8063,-66.5016,-126.8030,-152.0626,31.2406
-42.0105,-17.9768,-92.5782,-88.7316,-98.7657,1.9923,-156.2343,54.1155,-8.0812,-47.6006,-42.1841,-8.6457,-46.8920,49.5453,-20.5703,-52.6547,-83.0710,-109.8387,78.1735
-33.3520,-10.1869,-109.0392,-74.0334,-112.8454,21.8347,-136.4978,75.6408,2.5203,-27.0243,-60.9362,-8.4050,-66.6124,44.4351,-41.1180,-55.3746,-74.0051,-102.7037,94.5417
-42.5161,-20.8152,-166.1218,-67.5191,-154.6046,-19.1716,-111.3608,58.1293,34.5086,5.9860,-93.1954,-18.1007,-65.8781,-3.8142,-33.1638,-65.8337,-73.8487,-86.9722,80.0332
-53.7982,-10.0845,-168.0336,6.6380,-116.3465,8.9079,-56.8655,62.3328,36.8046,50.3266,-93.5292,-0.9691,-34.5332,-18.6128,-8.9598,-58.7083,-22.2711,-21.7325,67.0198
-36.6492,32.9969,-95.2720,114.7625,-5.8299,76.4544,-18.8690,82.2294,27.6859,103.8836,-57.1187,31.5674,-13.6686,-5.7816,-5.4621,-26.6757,17.7547,21.2777,10.1346
10.5059,68.8055,-6.6583,128.9588,61.3446,41.8192,-43.8670,23.5273,13.7061,103.4114,-3.9223,26.4943,-18.5910,-32.7797,-21.8807,-9.0832,-26.8735,-15.0706,-116.0375
37.9744,64.4741,29.5803,30.1228,32.6603,-68.3430,-115.2354,-89.9690,-31.1205,31.1444,35.0894,-13.7263,-23.8804,-75.3925,-25.9278,-35.1432,-99.9749,-81.4722,-215.1912
12.9539,37.1073,-15.3854,-72.3312,-37.7951,-119.3282,-176.7692,-123.5481,-62.7857,-41.1581,23.8723,-39.6336,-32.0438,-77.8042,-28.7628,-72.6479,-122.0978,-108.3241,-211.1717
-26.3582,22.5089,-76.6597,-83.4386,-71.0710,-74.0897,-165.5275,-62.1738,-32.5865,-76.8562,-19.8516,-30.6853,-50.9352,-56.7572,-53.3642,-89.9673,-83.3895,-65.0305,-132.2161
-32.6952,30.5970,-70.3437,-5.5231,-42.4056,14.2554,-79.4800,-0.9301,3.5181,-90.0641,-36.7705,2.9862,-55.3255,-29.9391,-72.8819,-100.4151,-14.6602,23.2022,-35.5613
-13.5862,50.4794,-24.1822,74.3240,8.2515,75.1461,-9.5004,25.7988,-13.5862,-82.6585,-17.5584,37.8737,-37.3605,6.6305,-67.1849,-110.3218,31.9890,81.2073,23.4627
0.6280,63.3130,1.2580,81.4611,45.7917,69.6751,-4.4489,29.8081,-46.5217,-76.8636,7.8401,42.9038,-10.4990,22.2074,-48.5235,-108.1044,35.5647,83.8608,30.9764
1.3024,45.4412,24.7981,47.1920,68.8998,38.0141,6.7955,6.8412,-41.8241,-102.8739,31.3999,25.4771,27.6668,10.9579,-9.3860,-101.3538,41.5524,84.7107,46.1872
0.1877,8.9681,59.7380,54.2821,59.4873,42.4124,62.1332,-17.8212,-11.6374,-138.3972,44.0838,31.9356,57.6904,23.2423,41.0046,-95.0235,75.6559,101.6897,88.7917
11.0476,7.9253,78.0400,120.8413,6.6989,87.3009,99.0286,-1.4521,-0.3816,-154.1629,33.1925,66.0331,44.6511,61.9616,51.9241,-74.6017,113.0868,109.5551,105.9225
29.5724,46.9587,90.7087,188.4653,-41.5757,140.5808,93.5950,45.3127,-12.1506,-143.6596,21.1064,83.5020,13.6502,79.5183,29.2450,-40.0846,140.6693,113.5937,97.1616
33.9830,60.0640,99.0611,186.4528,-58.9792,153.4060,73.7069,73.8339,-13.9613,-95.9295,21.7334,75.6078,2.8587,79.9776,24.4327,-3.3491,128.4295,99.3214,84.0393
14.6179,23.3353,52.4884,100.3164,-82.9256,84.8847,18.9083,50.7304,-16.0714,-43.1756,8.1211,69.5046,-13.9389,94.7546,17.4689,27.1318,36.3141,24.1960,25.4448
-12.0732,-17.0440,-25.4535,-2.1094,-110.0904,-28.2978,-72.3193,-21.1719,-49.8937,-41.3836,-18.2066,61.8995,-50.5843,99.1583,-24.2184,29.7575,-71.9143,-73.5795,-69.1782
-21.5758,-34.1897,-36.5781,-46.3103,-101.8663,-118.4826,-121.3801,-100.1499,-66.3663,-52.7579,-18.4265,33.2068,-64.8281,51.4187,-50.5969,-1.8354,-98.3956,-113.9741,-123.2006
-5.0588,-30.3450,24.4229,-33.9813,-90.6218,-176.7982,-103.9711,-140.3963,-22.9734,-13.8117,8.0973,0.9138,-53.6503,-23.6141,-35.7314,-27.0439,-75.2960,-99.2956,-145.5621
16.3857,-3.8038,74.5950,-6.2175,-113.1382,-190.9779,-88.4285,-132.9262,-1.0718,30.6192,26.8100,-4.5261,-59.2361,-54.2263,-37.3313,-18.2259,-68.8302,-71.1143,-171.9576
11.8085,13.9097,80.0808,13.1928,-119.8796,-131.7355,-86.9129,-94.4532,-37.9417,25.2957,23.0380,9.9710,-75.0350,-17.9419,-64.9416,3.4321,-48.0223,-41.6116,-142.8030
-15.3374,-20.1193,67.4610,13.2046,-78.0186,-54.9239,-45.7066,-46.5280,-25.6637,-1.6229,8.1804,21.8642,-58.9345,35.1297,-51.2072,24.4779,6.7864,-22.9072,-42.3367
-40.7701,-75.2105,54.6151,0.2634,-33.6399,-28.2153,20.4585,-5.8559,58.3115,-21.3724,-0.2964,34.3505,-11.0682,68.4851,14.0419,51.8905,44.2260,-13.1160,32.4983
-65.5591,-93.4221,27.1761,-8.7703,-20.7183,-16.5557,48.3698,35.1388,100.7393,-16.7252,-5.5695,50.2998,26.0138,89.7245,58.3948,78.3446,46.7841,14.6065,50.2930
-82.9665,-77.1907,-20.7553,-16.2092,-31.7387,3.9994,47.9945,90.0147,87.7556,43.5828,-27.3803,46.9982,21.3671,88.1736,39.5342,98.0538,43.3138,49.9892,70.2613
-53.9747,-42.5865,-36.7549,-17.3026,-48.5207,0.2810,71.2067,142.5582,81.6367,128.4171,-44.9472,24.8188,-6.0006,58.0585,-4.7224,114.3238,45.5982,66.7219,95.2853
6.1846,12.0279,17.9541,6.8105,-38.8776,5.6913,100.0781,173.4580,57.6171,175.5827,-17.5648,21.4339,-14.8375,49.2749,-25.0746,117.8314,45.6936,82.6202,84.4111
17.1241,51.7633,69.4784,34.4193,-1.0137,54.8276,79.5048,181.1410,13.1359,196.4903,23.0634,40.6406,-5.6364,72.7287,-22.8875,106.7918,26.7334,105.8657,39.3033
-30.6743,42.4295,49.9898,40.8484,14.4320,72.0990,31.5016,150.8292,21.1364,201.8095,23.0249,47.1921,0.9208,59.9016,-12.9842,91.8832,-0.6943,116.3433,-18.5889
-60.5325,19.8533,26.8092,63.8000,2.0824,23.2614,29.3477,78.8818,58.2736,154.2247,11.5892,41.2477,18.8199,3.0777,13.3484,65.8949,22.9502,132.4590,-73.8862
-49.9135,21.4902,58.3774,117.6764,17.1726,-8.0665,73.5919,18.1421,49.2050,90.1520,27.4800,45.9561,49.5545,-27.6893,40.8578,31.8608,98.6889,172.1655,-98.5449
-40.8893,26.9518,94.3246,145.8399,65.8401,8.9107,106.1793,19.2315,40.6268,90.1378,44.2688,48.7986,63.0019,-24.9386,41.1989,19.6359,133.9394,198.7424,-62.5839
-39.2367,18.5209,112.1659,131.4070,113.0321,24.8267,126.0297,65.3626,93.4031,129.8368,53.7544,35.8758,78.2479,-27.3169,53.3188,24.5909,110.3693,200.2970,30.5274
-33.1547,0.5033,139.5113,111.7650,157.2075,38.3095,169.6945,114.2096,156.2337,146.2318,76.0292,27.1563,128.9515,-19.5330,116.4376,24.2626,113.2639,208.8370,127.7381
-41.4235,-29.8583,157.1510,100.4488,194.5305,79.8680,218.8089,151.9307,182.1021,160.7691,84.4010,35.9323,162.6831,21.6954,163.0446,50.5892,156.9178,217.1325,170.0928
-61.7783,-55.7773,154.3503,109.2403,200.9229,141.7558,234.2592,183.1908,184.6378,208.0978,59.6811,54.1926,127.6312,73.2777,131.8482,119.3695,182.3307,202.1828,160.2233
-66.3886,-53.1210,159.6908,135.1740,184.2394,192.9958,220.9794,199.8795,168.1853,254.3243,39.5951,67.5144,73.3644,102.6117,77.6615,161.7399,183.3440,183.2182,135.8477
-62.7569,-41.6616,157.5648,114.4703,167.2140,203.9422,198.3677,184.6508,140.7089,247.7473,38.8879,55.6109,51.7871,91.3047,51.8943,142.1676,175.9213,181.5938,107.9922
-66.5271,-37.1696,137.8758,45.7228,158.6227,181.0967,182.4639,161.5246,127.0144,194.2505,43.2297,28.9420,54.4582,59.5640,37.9221,118.0828,150.5304,204.3290,96.5801
-60.9160,-18.1603,143.4722,26.9713,171.1038,166.7601,197.8536,186.1904,128.7930,159.9193,61.4924,32.4327,79.1376,60.8319,42.6238,117.2718,124.8865,253.2961,136.2219
-50.6086,-6.4522,152.4122,53.5370,187.6694,154.3281,238.2460,237.3590,149.4553,177.7641,76.1264,58.1170,116.1172,86.1774,77.9752,106.4796,127.6983,289.2594,195.9583
-65.6479,-46.9431,116.2655,37.6014,168.1320,115.0368,268.2726,234.8420,198.6297,198.1978,50.5057,54.9626,122.2832,76.6196,100.3965,87.9488,151.5065,278.1555,219.6980
-86.0964,-93.6118,98.8076,25.0039,143.6884,104.0191,285.9410,198.5486,237.8753,195.8486,20.4394,40.6153,99.1503,56.3576,90.7033,91.5354,182.4505,259.4502,220.5523
-76.4165,-85.2260,127.3570,70.3080,160.7995,149.1102,288.5313,201.8985,228.0237,204.3151,26.0967,55.9522,89.1717,78.3602,86.3168,105.8748,195.6986,246.6626,211.2595
-70.9910,-73.1569,86.5276,61.3600,156.6468,139.6637,226.7691,197.0031,194.4243,200.9395,20.4738,63.4730,89.2796,95.6116,96.4515,107.0278,144.4734,179.6426,153.9044
-106.9498,-106.3819,-33.6747,-40.1312,79.0630,32.5120,106.0445,115.5092,160.1594,142.7503,-17.1242,37.7755,79.2914,67.7512,99.9698,99.1412,42.1960,79.0823,63.0275
-134.2941,-119.3194,-83.9990,-86.8108,7.3030,-36.6285,24.9580,34.2342,111.7033,80.2602,-26.6529,30.9157,69.8352,51.0625,93.0801,85.0022,-30.5504,48.6130,5.9056
-103.0992,-66.1749,-39.5759,-41.6043,-5.5493,0.8325,24.2783,36.3687,57.5525,57.2943,1.7733,55.8520,59.8063,70.2449,72.5014,58.0753,-43.1542,88.8917,-10.7736
-60.8021,-7.3943,-5.7625,-13.1563,-6.8712,52.9544,41.5742,80.2798,18.0254,43.0132,19.4909,71.7275,43.3972,90.8581,41.4198,38.5023,-28.0839,127.7019,-16.2904
-62.7377,8.6612,8.6608,4.4390,5.6796,73.2335,52.5738,113.8266,-4.4110,45.2832,26.0676,85.0806,46.7811,115.0926,30.8435,57.1775,0.7759,161.2957,-3.6938
-72.1539,-5.8890,40.3259,63.5947,65.4058,86.6835,91.5322,119.5753,7.0022,70.6481,36.4110,103.7363,75.4255,134.8506,56.1476,93.6877,41.4750,175.4060,28.6964
-47.6884,-55.1931,44.0724,70.3489,106.6578,49.0472,136.7048,62.6635,60.5196,44.8549,26.6348,80.4827,94.6390,104.5840,96.5059,95.7508,67.2040,99.6083,59.2588
-35.4300,-139.4171,-1.1618,-46.4487,68.4384,-74.1426,131.1208,-32.8010,108.7885,-22.4655,-2.0877,18.3725,92.0778,51.3883,122.8764,69.9793,52.7278,-23.1469,81.7398
-70.8383,-185.2247,-36.4788,-165.4043,2.0962,-174.1199,82.3081,-67.7206,102.0367,-21.0060,-13.0526,-9.2944,76.1616,41.9515,105.5406,64.7691,0.9392,-45.5284,86.0651
-96.2699,-126.3110,-39.1003,-160.3653,-45.5663,-140.7892,30.7357,-21.1372,45.7144,27.5680,-3.9969,12.1640,45.3626,56.2407,45.9083,74.4413,-56.9017,40.8690,51.9247
-75.1832,-22.2960,-49.4104,-76.9696,-78.3614,-40.3418,-13.2973,32.6357,-20.6373,30.8916,-3.8076,32.2928,16.0534,50.8586,-1.2219,76.5035,-80.6286,97.4103,-3.2962
-54.0753,20.6600,-85.4811,-23.5557,-71.1684,2.5146,-36.5992,53.5358,-61.3837,28.4002,-20.5235,35.4437,12.4728,47.0657,-5.8557,98.9341,-68.1463,69.8057,-47.7956
-40.5801,15.7920,-116.5720,-19.1316,-28.2870,-7.7250,-28.5464,44.2524,-86.5257,49.0091,-32.4459,41.6384,18.6406,60.9925,-2.3963,128.4443,-64.2138,22.6520,-101.2676
-4.5104,39.8647,-120.9574,-20.1835,-40.9537,-12.3970,-47.2789,-0.4864,-138.6555,18.9770,-23.3506,55.5139,4.6080,70.9643,-11.3248,97.4969,-101.7081,-13.4852,-193.5388
-5.0389,57.2799,-129.4652,-21.5853,-137.7266,-31.6887,-139.5744,-64.1930,-191.0665,-34.9736,-19.7389,64.5100,-25.8355,70.4923,-18.4865,45.6159,-157.9667,-54.9783,-274.1339
-77.2166,3.9590,-159.9642,-40.8569,-208.7156,-69.5271,-208.3970,-100.5387,-171.0526,-26.5534,-48.0202,56.1752,-48.5307,63.1906,-24.8082,64.4446,-176.8435,-77.0437,-256.5267
-90.5972,-28.8938,-150.0538,-48.7612,-181.5446,-48.0070,-150.8470,-84.8308,-117.7858,-20.3985,-62.5050,33.1906,-49.8128,43.7510,-35.8408,90.5932,-137.7424,-46.8946,-157.1715
12.3865,49.1657,-71.7371,-20.4324,-126.4051,31.8182,-60.2477,-39.9395,-124.7275,-77.3439,-21.0448,10.5489,-37.9847,13.5297,-44.7634,35.7748,-93.9820,7.6418,-83.5035
58.2514,120.7884,-29.1873,8.1146,-115.2810,68.1480,-61.1742,-12.8358,-149.4324,-86.0739,13.1717,-6.4764,-25.4373,-23.9349,-44.3903,-9.9387,-93.6059,50.2602,-66.8947
-36.5070,73.1924,-87.8400,18.8347,-115.4094,55.6293,-85.7926,-17.3748,-106.7056,13.0565,-16.5344,-12.9330,-3.2370,-55.3539,-18.6832,25.0408,-101.7494,87.1431,-50.3045
-118.9322,2.7298,-151.1458,35.0461,-89.2166,66.5969,-53.2871,-16.1996,-47.1714,108.5786,-52.5458,6.9222,24.9642,-46.0330,23.9896,48.7756,-84.5610,114.9743,-37.7133
-125.8492,-10.5702,-142.9040,38.7872,-77.0183,82.8045,-39.8373,11.2669,-36.1290,135.7791,-49.9726,45.0611,20.2338,12.2141,29.9530,38.5781,-75.3245,109.9526,-65.0832
-151.3491,-36.0892,-112.3531,13.7342,-99.8384,71.6395,-67.4897,38.6344,-26.8018,146.1232,-49.5568,71.4778,-14.9039,76.8754,-1.8211,80.8692,-74.6800,91.3296,-81.1853
-170.8385,-70.1034,-85.2752,19.7445,-94.7235,81.6203,-35.5995,45.0612,-1.1559,142.4323,-56.0438,80.0906,-24.7410,102.6966,-12.0566,131.3402,-31.8356,102.9482,-53.8189
-99.7120,-12.6449,-24.9944,88.3455,-33.5330,115.9552,31.9897,29.5763,-26.8338,71.0931,-25.4821,75.7308,-9.1265,69.6446,-18.3789,87.9644,32.4394,144.7752,-49.4144
-7.9647,109.6547,50.4643,159.2635,15.4408,119.1278,21.9982,7.5609,-100.3896,-26.9052,26.7840,52.9904,-10.4705,-4.0568,-66.9700,17.9894,45.4007,189.6942,-73.3936
16.1584,176.6055,74.3920,178.8897,13.1353,108.9631,-22.4644,24.8507,-132.9975,-35.3805,51.7024,29.2816,-6.0157,-50.7494,-87.5413,22.7556,6.5980,216.9303,-56.5982
-5.3393,152.7795,26.1835,134.9380,4.1057,123.9855,-11.4120,91.0496,-98.8340,47.8647,44.2192,30.7227,38.9250,-23.3714,-17.1509,59.0711,-29.3165,209.1598,-19.5141
-54.2669,78.5588,-40.0576,52.4885,14.4067,139.0205,11.8332,140.2217,-47.6738,101.1273,24.0661,48.7886,81.6047,43.3416,61.2146,72.6512,-28.8471,181.6535,-13.7096
-103.7196,17.8999,-38.7675,25.1604,19.6065,142.4434,10.0228,139.4622,-14.3347,87.7654,14.4198,73.1499,77.3223,98.6362,71.0807,89.8162,-0.3043,168.5539,-21.2206
-77.1828,27.5703,33.2440,93.9103,-0.2503,130.0164,7.1029,111.5297,-11.7654,74.0572,30.8665,107.3354,42.6655,126.5966,46.7596,108.5278,-2.6508,140.9343,-62.7333
-7.3509,69.5536,58.6843,137.1854,-56.0506,51.1187,-38.1155,44.6348,-47.4989,40.4350,43.1164,123.4533,3.5099,115.1593,20.3707,82.9129,-73.5106,56.2819,-156.7577
-4.0879,65.7350,-16.5066,69.4260,-138.8894,-71.7811,-136.9122,-39.9970,-93.9391,-53.5606,15.6517,91.1505,-30.5193,67.7426,-17.7634,15.5967,-140.8736,-23.1059,-181.3086
-30.5816,47.9509,-85.9658,-17.3399,-192.7419,-119.3828,-179.6745,-45.4084,-106.3108,-95.1120,-23.7458,33.9659,-60.5194,16.0000,-68.6331,-35.5068,-138.2873,-24.2299,-80.8527
-4.3923,67.5761,-84.6264,-48.6156,-176.6563,-68.8359,-136.7476,17.0066,-85.5399,-10.6026,-39.7803,-11.4496,-94.0252,-23.5900,-119.9596,-25.5065,-121.0611,-1.1433,-15.3655
21.0188,71.4969,-74.1714,-56.6895,-119.3822,-15.0629,-101.8356,26.8364,-66.2699,56.8050,-42.3673,-31.4513,-107.4732,-41.6510,-135.0304,19.2936,-128.9117,-22.7284,-56.9615
11.3433,38.0027,-74.3660,-52.5441,-70.1626,-13.8314,-94.1807,-15.5795,-56.9969,12.0532,-35.3397,-19.8494,-75.8148,-23.9931,-90.7568,24.1662,-118.3454,-56.9384,-88.0040
17.1645,23.8212,-68.3848,-49.1388,-69.0833,-65.1464,-92.2439,-41.9828,-48.5176,-42.3823,-21.4676,1.2926,-48.4113,-5.5675,-50.2280,-23.3239,-110.6241,-75.4828,-96.8639
8.9775,11.8655,-114.4227,-93.3974,-136.7172,-144.2144,-134.4445,-86.0580,-50.3416,-51.7563,-39.0181,-1.9394,-69.9778,-24.8940,-62.8114,-53.6479,-162.7205,-106.8552,-155.7627
-48.1926,-34.6248,-205.9613,-129.8241,-217.6977,-179.1675,-189.7175,-146.6923,-63.4471,-67.2146,-84.3963,-4.8773,-87.0235,-33.3238,-64.7215,-37.6441,-214.8230,-137.4290,-188.6072
-70.0730,-42.4590,-213.4664,-64.3624,-234.6533,-134.4466,-176.9630,-128.0276,-60.9133,-73.4296,-91.3512,25.5749,-64.5776,0.8118,-27.4956,-16.0346,-200.6055,-116.9968,-132.2740
-37.5210,18.9195,-144.0356,23.7567,-218.2951,-76.6783,-149.1540,-53.5484,-40.0569,-43.3494,-61.7463,43.6012,-55.2689,3.8439,-22.1474,-8.2373,-176.2857,-60.9473,-89.9638
-43.8118,45.6271,-154.2543,5.0284,-227.6102,-59.3745,-171.2131,-36.2307,-35.0177,-27.8280,-66.9032,10.6558,-67.9833,-46.9596,-48.2173,-4.6089,-178.7493,-30.3330,-101.6860
-72.9670,10.9174,-225.5015,-62.3667,-209.1970,-52.8250,-162.3066,-53.0914,-57.2423,-34.2384,-95.6924,-18.7030,-56.3176,-61.9277,-46.5456,-6.5077,-158.0450,-30.0932,-91.9425
-43.8545,21.1396,-192.0025,-46.2266,-118.8766,-17.0042,-94.1674,-21.3261,-89.2478,-16.4168,-77.1799,3.1303,-43.0227,-15.3140,-56.6491,-9.2423,-106.0983,-6.4239,-76.9379
5.6741,94.5708,-69.8745,46.2372,-41.3971,49.9997,-65.4393,29.9989,-119.0586,1.8296,-30.1668,39.8200,-75.8946,21.9657,-123.7477,-10.6525,-57.1060,46.0057,-100.0124
25.1195,121.1671,-10.0297,106.4194,-41.4876,97.7695,-77.2440,31.6401,-122.3134,-19.9049,-25.9227,46.0682,-127.0084,24.0565,-179.2832,-27.8786,-17.6818,42.6445,-99.9477
39.5533,60.9202,-31.9493,76.4007,-77.2037,63.5350,-62.5911,-21.9908,-74.5752,-47.4853,-58.1707,26.2452,-153.5887,12.9963,-172.0593,-52.2193,-16.3431,-51.3258,-67.9509
33.1108,5.8912,-71.1569,12.1494,-116.6668,-2.8651,-71.6908,-73.9367,-17.5452,-45.1945,-77.0245,7.0376,-154.2272,-10.7681,-141.3858,-57.3555,-77.0648,-121.7062,-83.4980
-23.4763,18.7414,-119.1489,-2.0833,-149.4081,15.3837,-133.0799,-54.2375,-8.9617,-23.4032,-79.3099,3.2126,-128.0984,-35.2555,-110.5024,-55.7750,-124.1573,-74.4105,-112.1915
-75.7616,31.6099,-144.6454,21.4425,-121.0599,92.2870,-128.1678,12.3059,-15.2327,7.0662,-76.4813,10.1955,-77.6081,-27.0294,-68.6732,-54.5306,-81.6788,16.8608,-61.2122
-75.1102,-11.4767,-75.4704,37.0202,-19.8664,116.8490,-9.5940,24.1259,10.2977,32.9119,-50.3589,21.9333,-32.8802,8.7098,-35.1121,-24.0557,8.3723,67.8062,14.5493
-35.4811,-26.3300,53.1397,80.7012,71.8999,111.2004,104.6251,-7.5911,12.3726,26.7627,-2.3344,38.3867,-16.2119,32.8856,-38.9049,19.9529,88.8189,109.3081,26.5061
25.3935,44.6803,119.2831,155.2965,105.7980,143.2170,142.7445,17.3083,-45.1930,-6.7613,25.2263,43.9904,-18.4147,30.6123,-70.2512,30.6874,156.4622,151.7748,25.6511
73.6196,92.9862,101.9488,157.7442,114.9501,165.8056,146.9839,79.0110,-70.5861,-20.3318,17.5145,23.1379,-21.7912,20.7786,-86.3558,26.3399,181.5834,136.0303,67.8937
77.5056,55.0075,84.8004,75.5999,113.6448,137.4604,136.9593,91.5210,-12.4924,4.7921,10.7359,-5.3492,-20.1961,15.2970,-63.1936,31.0892,135.1461,67.9932,96.1998
75.2403,35.4271,94.7382,29.6932,82.9814,104.0263,96.1453,66.5252,32.6706,14.0211,22.8203,-22.0601,-17.3822,-4.5424,-30.6077,9.7828,75.8744,19.2958,73.2607
90.8886,71.6019,90.6255,55.0984,43.1610,82.3367,56.0841,40.1267,9.3335,-33.2801,30.8090,-34.4262,-8.4703,-46.4257,-16.0742,-32.5836,72.4454,18.2003,50.2235
82.1001,72.9473,81.6832,83.4063,40.9799,59.2427,68.0363,3.3180,-8.8844,-76.2683,30.1451,-35.8937,13.3402,-71.9466,-2.2720,-45.2365,107.9233,50.6062,47.4134
61.3904,45.4140,102.4743,93.0952,79.7539,64.6633,115.0381,-23.9528,0.6541,-64.5495,39.9543,-11.1201,25.2913,-51.8054,4.6438,-48.6589,131.1119,92.0399,19.4272
71.6222,58.5843,111.4200,91.7653,116.0407,104.7444,133.4877,-12.6869,-24.2686,-60.4334,49.4526,21.5056,10.9458,-6.6708,-20.7357,-71.5960,124.4284,109.1787,-31.4474
69.7030,70.0606,73.8454,82.9286,124.5130,129.7946,120.0315,18.5872,-60.4805,-86.4726,37.6136,41.2993,6.1982,36.3422,-37.0577,-59.8466,112.3646,102.9760,-34.1382
40.9936,43.6255,67.8377,104.6306,124.8174,117.9753,129.3995,46.9307,-33.3495,-62.4699,28.1128,50.8836,27.3012,55.8149,-9.5337,-12.5510,134.4698,105.5445,21.3555
57.3054,45.4078,139.6207,150.3305,123.8349,85.4862,152.9914,56.2692,16.8532,-4.0000,48.8109,45.2970,30.3296,31.5382,6.9155,-15.8647,173.1708,109.4742,44.9094
93.3834,76.4519,181.8024,146.6783,93.6838,50.9596,125.9605,38.1561,13.8461,0.3847,69.3997,28.4559,10.1386,-2.1989,-7.4905,-45.8403,157.3992,89.4721,-0.3555
59.2116,65.2262,118.4386,108.1378,50.1764,49.9918,71.5908,40.0934,-7.7799,3.5764,49.9442,26.8586,14.3371,9.8338,4.2851,-1.2394,96.9081,67.9260,-21.1113
9.9646,36.4024,40.9612,118.4701,63.0079,109.6837,83.3067,97.9648,7.8745,65.9372,12.6802,34.8053,43.0103,37.6602,39.9993,69.5133,89.8183,75.1452,43.9693
32.4886,39.7644,38.9403,153.2548,141.3273,198.8387,161.5254,146.5463,45.4121,79.5386,4.6104,26.2264,65.4597,31.6997,61.4660,53.9218,150.2877,93.2809,120.6500
67.3622,21.8503,85.7324,131.1811,208.0469,247.9414,216.1482,121.2527,88.2892,2.5448,26.5067,15.0707,77.8263,29.0349,84.8692,-10.8142,187.1264,78.2871,137.8745
64.9563,-41.5440,131.1016,58.2917,199.2537,197.4064,195.8668,43.0517,116.0029,-45.1412,45.3183,13.8125,59.9095,53.7468,92.5609,-43.1341,152.7070,4.4253,108.9030
79.2912,-66.8848,133.4806,-22.4460,106.2798,51.9005,108.2969,-49.2450,64.0107,-44.9534,42.4698,-1.3496,-4.0719,52.3494,35.4264,-57.7117,67.4968,-102.3543,40.9164
107.8009,-24.5766,58.3460,-88.8900,-31.8313,-93.1933,-15.0950,-118.9206,-59.1054,-70.4751,19.9957,-29.3665,-59.4720,13.4267,-33.9450,-59.8364,-37.8843,-180.1333,-59.2958
96.3078,19.8432,-34.2210,-104.4435,-128.0281,-150.6273,-116.1656,-133.8370,-148.4111,-93.7763,-6.2499,-42.3097,-68.2051,-15.4372,-54.0478,-24.5152,-106.9089,-197.9364,-124.4219
79.7310,49.9786,-33.9323,-57.5428,-126.9195,-134.5820,-145.8535,-122.5956,-185.5804,-96.5623,-6.8035,-36.5558,-72.7230,-20.9177,-78.6742,-5.8613,-93.9654,-163.7542,-121.4423
103.5124,86.2897,39.6391,-10.5835,-76.8047,-90.9839,-112.8479,-115.6060,-219.8747,-126.4303,24.5863,-22.4081,-82.8876,-8.1204,-118.3777,-43.4546,-44.4277,-102.7106,-92.3014
112.6266,66.1496,65.3228,-37.0820,-36.4230,-47.0175,-55.3358,-86.8586,-182.5696,-132.5434,42.3319,-24.0213,-49.3908,12.8617,-74.8717,-54.7513,-25.8808,-84.8648,-30.1842
64.9502,-55.4838,11.7938,-139.8275,3.7817,-49.0575,1.1452,-57.1367,-20.4008,-64.5389,14.4749,-73.6013,20.3584,-5.8057,48.6866,-2.5424,-30.6625,-150.8721,86.0552
15.8910,-157.2081,-41.9282,-231.5340,41.4264,-97.1934,38.0839,-73.4307,105.7342,-20.0208,-15.3985,-133.2155,66.5234,-65.2403,120.1189,19.1975,-25.4231,-191.3640,166.9255
9.3730,-120.3371,-27.4269,-212.4339,43.6055,-102.8967,46.7905,-76.9341,70.0417,-39.2707,0.4507,-126.0676,70.4549,-85.2600,94.1529,-22.6094,3.6647,-101.4518,148.2001
19.5199,-29.3167,52.6601,-90.5112,35.4005,-38.4114,48.8284,-25.0129,5.3956,-45.5556,36.9671,-67.1397,52.0385,-48.2713,46.9907,-54.4120,69.7409,20.8832,107.1692
32.1878,5.2498,140.3194,46.4295,61.6363,18.8650,72.0968,-7.5295,16.8179,-60.2315,55.6709,-13.3022,27.6059,-13.4925,21.1270,-60.4853,145.1388,58.7114,79.5165
61.4191,26.6551,183.7771,145.8754,97.2254,36.5566,103.3013,-51.8277,0.7650,-117.1419,65.2291,36.7936,6.2305,12.4474,-9.6795,-69.7480,164.3857,63.8692,17.0296
83.1371,56.6596,187.1304,169.8992,116.4137,31.9338,109.0025,-65.9406,-67.7740,-113.0368,76.6572,63.0061,0.4269,39.0866,-39.0173,-54.9279,132.9537,76.3113,-22.8062
69.6330,22.9262,169.6624,87.5901,151.0087,-14.6414,99.3819,-41.6378,-57.7787,-32.3368,79.4015,21.0635,31.0547,27.6387,-10.4997,-13.4657,109.0440,38.0305,33.4559
57.8516,-32.3701,121.4392,-25.4820,187.7556,-87.8416,94.8129,-37.0726,17.3584,-3.3138,73.4254,-36.6690,83.9002,-17.8621,59.7836,-3.4748,75.4995,-28.5422,77.1932
66.8541,-0.6106,45.0828,-67.9517,145.1044,-112.6841,53.3310,-37.3903,5.3984,-19.3791,59.6068,-45.2312,87.1132,-48.2491,63.1404,-20.0845,-8.2858,-37.6919,12.8122
40.5016,68.5552,-19.4319,-53.6583,23.7031,-68.4930,-42.6564,-20.7492,-90.6638,18.0785,30.4560,-38.8424,21.9975,-60.1801,-20.1604,-8.7737,-82.5202,12.3221,-54.3672
-22.6534,93.1871,-46.8894,2.7503,-64.1914,12.8285,-98.7710,5.8749,-146.5298,66.3625,-0.3821,-25.3304,-28.0978,-52.8637,-80.9645,17.1151,-76.2142,87.5557,-36.9704
-40.3728,107.1931,-57.2519,111.4735,-66.8697,93.7441,-61.5413,54.5630,-134.2535,58.7296,-19.3325,26.0435,-26.8165,-10.8618,-77.2461,20.8441,-30.3586,143.2009,12.4676
0.6353,91.2776,-71.2258,137.5070,-45.8933,94.8104,-8.6650,81.5079,-79.1667,28.5274,-37.8690,38.3583,-20.6346,10.8282,-50.8860,5.8170,-8.2620,84.1182,73.0337
48.5996,-8.7848,-66.1636,-18.0536,-31.1527,-13.2020,26.6385,19.6578,17.3745,-19.3885,-42.0689,-44.9492,-1.8165,-34.9313,13.2725,-37.9128,3.3992,-74.6514,147.2115
88.4328,-79.9370,-28.4050,-157.6268,0.0199,-108.6563,69.6393,-58.3019,89.6627,-89.0102,-8.5875,-102.9553,47.4667,-77.3708,97.8099,-103.8621,16.2173,-155.1413,142.2285
86.0651,-23.8621,-21.6210,-115.1143,0.2608,-110.5260,40.5864,-54.7357,53.6746,-100.3093,13.9750,-58.9845,50.4273,-63.8048,84.3313,-117.1981,-12.0932,-99.0613,22.1781
14.4376,45.1866,-72.5419,-40.1921,-72.4651,-105.2869,-90.6112,-26.4291,-33.8199,-35.9554,-11.7495,-16.8166,-12.9443,-54.0691,-19.6248,-62.4773,-78.6247,-31.9297,-76.7410
-11.0720,66.6013,-48.5241,-39.0559,-106.3451,-131.7734,-146.4622,-33.0829,-64.2254,2.1166,-1.0166,-33.6925,-33.3964,-83.6632,-60.4788,-35.9863,-107.5759,3.1942,-74.0160
98.6774,140.8406,124.6759,-3.1218,-18.9770,-111.4729,-69.0343,-35.9439,-65.5252,-22.9487,98.3465,-49.1790,5.6919,-116.0833,-34.1611,-69.4261,-82.3002,48.6780,-77.2790
200.7845,236.7048,258.2443,62.6614,47.4896,-55.8755,-54.3211,-41.4641,-112.0748,-57.7408,170.4326,-48.1872,-0.9540,-128.9602,-55.4346,-87.8551,-73.6190,52.8552,-153.3348
166.3377,204.8304,195.9667,44.4635,-14.4433,-55.5555,-130.3076,-79.7196,-146.3910,-75.5412,127.7313,-49.4887,-44.1390,-110.3945,-81.3297,-64.4835,-96.6310,-24.6992,-192.8589
85.4681,69.8289,79.9479,-13.4311,-71.6788,-101.1438,-111.2651,-101.6266,-78.4146,-61.6502,57.6116,-33.3205,-26.5644,-57.7248,-15.5033,-32.3028,-96.3045,-94.9562,-125.2227
52.4467,-4.6442,70.0103,-20.0673,-44.2199,-123.3634,-32.8906,-86.8912,15.3079,-16.0485,48.5412,-8.4904,16.8737,-24.9269,52.1336,-7.2753,-82.8377,-86.7779,-69.9608
67.3763,69.4509,121.1820,14.5352,-55.7190,-94.0347,-68.7567,-74.3019,-24.0832,-5.3059,76.3160,-4.9274,-15.6467,-48.6691,-6.8176,-17.0861,-100.7252,-23.4478,-135.9780
138.8582,235.7379,178.3119,85.5521,-127.1071,-8.5796,-141.0713,-46.0338,-173.4437,-49.1717,106.5844,-5.8592,-94.8537,-78.9986,-131.7807,-69.6267,-105.4607,58.4891,-223.3325
207.9083,323.2869,241.4926,167.1824,-113.0587,95.1267,-95.0658,10.9137,-232.4388,-56.8966,127.5849,-3.0757,-116.4349,-77.7272,-176.8188,-88.4244,-47.2319,118.7537,-177.5856
171.3825,238.0014,258.0916,179.2920,3.2194,151.3403,16.8201,42.8793,-128.1765,-8.8349,117.0325,-12.5578,-66.1935,-64.5052,-120.4968,-42.4414,27.0219,136.0554,-20.3906
96.5645,131.9956,223.8337,167.4540,101.1737,182.7370,106.6760,61.5665,-17.4168,2.3046,89.4741,-2.3769,-14.9442,-36.1539,-64.9912,-20.6451,78.8274,165.1373,115.6011
99.3754,156.2374,215.7693,234.1118,134.6077,249.4483,161.1392,124.3041,-20.3880,-27.8922,82.8043,48.7589,-9.6624,18.5313,-76.9198,-46.9441,120.4803,230.3360,170.9361
116.3390,213.0064,215.8642,287.0018,116.1379,292.3709,135.5456,180.3230,-71.0831,-18.5068,82.0765,78.6416,-33.2508,55.5294,-112.8819,-36.3953,115.6744,245.6308,160.2928
94.1220,206.6989,167.7632,214.7437,55.4912,231.3000,38.4360,162.5079,-98.5030,20.9580,68.7399,50.8225,-50.4765,37.5893,-121.9075,14.5663,33.4735,180.0470,90.7316
106.9654,214.9893,129.2899,131.8672,8.7297,130.1101,-22.7801,119.8562,-127.0622,39.3318,70.0267,18.0600,-52.7365,-5.4986,-122.8808,38.7494,-47.9317,126.5883,-14.4909
137.2644,244.4969,128.7808,146.3066,17.7348,77.6347,-26.4081,100.6332,-153.4357,51.5724,77.5296,13.0182,-48.9946,-33.2731,-130.2560,39.0548,-55.5646,114.8870,-71.9242
109.9841,202.9787,89.9611,178.2596,35.8833,46.3439,-29.4357,74.6628,-132.6120,50.5919,47.1018,12.9090,-44.5942,-40.1724,-120.2583,21.8279,-26.3254,75.9119,-16.8229
72.4903,121.1125,5.9037,162.5287,14.8141,2.6142,-22.2389,39.7090,-82.4096,6.0073,-5.8306,18.5493,-44.0264,-26.6594,-95.7469,-38.8104,-18.6077,14.2305,83.8720
49.5747,72.5090,-76.7553,117.6493,-44.0828,-12.4780,-11.0104,42.5742,-46.1223,-9.1274,-45.2841,46.6964,-50.5572,15.6089,-74.1185,-76.4536,-56.7897,-13.4193,96.4023
-11.1027,24.5744,-171.3326,20.3735,-122.5688,-4.8157,-61.0720,77.2309,-17.2455,62.2013,-82.1212,64.8821,-61.1145,67.3466,-48.4529,-18.5852,-145.7289,-50.3615,11.8721
-50.5653,-33.2934,-245.2587,-138.4439,-174.5492,-61.7514,-149.6493,70.3849,-1.0360,102.4304,-109.0367,25.1272,-78.2523,71.5039,-41.2127,42.0596,-236.4580,-154.5381,-55.8495
-8.6740,-44.4497,-223.5121,-270.5573,-173.1915,-184.0885,-199.1257,0.2976,-37.4136,46.7696,-97.0099,-53.4336,-112.7516,11.1359,-100.4946,22.0148,-261.4204,-239.3503,-59.0996
5.9107,-21.9598,-160.9223,-298.5820,-169.2433,-234.9578,-205.4646,-29.1042,-96.0909,53.7477,-80.6844,-101.1363,-156.7007,-40.4392,-194.8191,21.6212,-223.7147,-198.1643,-24.2500
-48.8555,-26.0513,-140.2646,-237.3393,-173.0937,-146.9562,-160.1584,65.8753,-72.8950,194.6561,-99.3430,-94.2876,-169.3619,-25.3324,-219.6303,99.7928,-152.5050,-96.6511,71.7436
-50.9539,-57.5623,-108.4661,-144.8490,-109.1997,-34.8921,-31.2919,179.9043,52.3833,277.7072,-106.4941,-71.3431,-115.2808,9.8305,-129.8503,130.9164,-50.5578,-60.0104,222.9220
8.9098,-80.7781,-36.3620,-70.2388,4.9558,-0.5561,103.1177,170.0051,155.6002,180.2879,-63.2234,-51.1408,-17.1879,14.8612,5.8217,47.1319,41.3421,-64.6733,304.4155
21.1315,-70.2678,-6.5680,-29.6652,56.0864,8.5159,130.9469,76.4834,124.0402,23.3537,-13.0649,-17.9766,58.3730,15.9679,86.8357,-48.4362,65.1923,-17.8328,238.9804
-2.3797,-30.2632,-24.3877,-14.8956,39.8054,42.0412,81.6284,-0.7188,1.8245,-79.9458,11.9463,14.6778,77.4958,30.5825,86.8606,-86.0847,42.0842,50.7427,110.7113
21.8097,4.0989,-3.7527,-21.6905,34.9409,42.9327,49.0188,-60.0918,-86.8793,-139.0577,35.8581,17.5277,64.3655,31.4677,58.0983,-107.1621,20.6010,51.4196,25.7013
85.9948,29.3284,53.0929,-36.6967,43.0890,-10.8673,46.6782,-89.4824,-101.0938,-160.6762,64.8831,1.3267,47.6782,13.0812,36.8089,-132.2763,-0.4733,5.2586,3.9938
128.1388,70.9287,77.2134,-32.6305,31.6633,-47.3847,41.7365,-50.5227,-87.4684,-140.7998,72.6490,-11.8494,28.9198,-10.9244,7.9308,-131.7442,-11.8166,-2.8892,12.0610
117.6116,98.5485,73.4463,-3.0182,13.0456,-24.8394,33.8772,-2.8670,-76.7567,-107.2646,54.3156,-22.6756,2.3284,-35.9942,-32.2480,-101.1415,26.0813,33.3526,14.6872
88.2862,77.7123,93.8170,42.0399,-0.3629,25.1094,56.6214,-1.7163,-56.8239,-66.6506,32.6205,-29.4574,-26.0432,-47.2172,-56.2085,-60.6567,99.9079,59.7909,27.8867
94.1364,45.6568,120.0190,80.8416,-13.3560,50.1025,112.9258,10.5664,-7.4507,-11.6759,17.3740,-32.6027,-35.3003,-44.2357,-43.0959,-16.2574,139.4931,45.2266,90.0928
93.6806,5.2802,70.6563,56.1999,-31.6996,0.4911,130.4335,44.9727,74.1261,30.9452,-10.1841,-45.9022,-11.7373,-51.5883,7.9183,24.7794,103.1251,-15.1085,162.7201
11.3269,-94.1520,-52.0069,-55.8674,-58.8791,-119.0586,70.0901,32.5531,152.3627,47.6650,-54.2679,-58.3571,24.8378,-48.7972,72.5381,38.8862,26.6583,-96.4180,189.4985
-80.8442,-198.2494,-119.0361,-168.0781,-59.6560,-217.8595,26.3529,-1.9030,177.6022,59.0690,-71.3892,-45.5191,49.9641,-1.2755,108.6050,22.4031,-11.1979,-132.0978,196.1934
-68.9664,-193.5531,-68.8845,-187.5714,0.8776,-224.5003,66.0820,6.6387,144.1885,61.1000,-36.2323,-25.2701,64.2785,39.3738,98.7637,3.2377,17.1559,-90.1467,186.7701
-0.8507,-100.2344,-4.1223,-132.1257,65.4384,-166.8696,100.1213,19.4708,80.4468,31.0078,3.4515,-25.2739,61.2836,15.6760,57.4627,-12.8210,59.3679,-27.6731,117.6055
31.3235,-18.6130,2.4640,-64.4095,75.3661,-96.4228,71.1898,5.7674,14.8085,-17.5496,8.9809,-31.6753,36.3926,-26.6509,9.4258,-48.6854,76.3072,5.5298,51.3322
37.2594,19.9346,-6.4406,-19.8688,82.9963,-25.9236,60.0770,21.2298,-9.8871,-39.0848,6.8251,-30.4307,31.5103,-37.5361,-3.4174,-83.4733,81.4500,33.4375,74.3171
37.5963,25.2161,-22.1738,-17.3929,122.0079,36.6294,99.8155,69.6460,23.2711,-12.8263,9.1520,-30.7970,67.5488,-35.9639,37.0391,-69.5276,73.6673,62.8192,111.6792
20.5611,-1.9103,-72.1726,-51.2438,125.9958,63.2906,115.5552,74.7542,53.4343,9.3947,-6.8932,-30.2043,89.2841,-29.5590,77.5462,-38.1855,42.9508,49.5030,80.2909
-2.9659,-46.0478,-111.7648,-101.3967,77.1766,24.3104,78.0776,4.3514,40.8492,-40.2164,-25.1383,-32.6450,75.1955,-24.6938,81.9861,-59.8975,18.2146,-0.0002,33.9743
-17.2853,-77.6962,-96.3083,-152.9214,41.7625,-62.7170,32.7788,-98.8792,34.2666,-120.6363,-12.4458,-63.8159,76.3712,-72.0687,90.2395,-109.8324,17.3123,-25.9793,-1.7428
-11.8275,-74.5755,-51.0665,-158.3952,45.6176,-111.4204,13.7726,-169.5306,50.4091,-130.6479,16.1509,-103.4634,96.5875,-150.4295,116.2226,-112.6762,18.3621,-26.8650,-63.1251
13.2572,-59.9159,-8.3979,-91.2733,65.9555,-79.9519,20.6797,-178.9982,50.4772,-79.9260,29.5365,-90.3819,94.2784,-144.9797,129.7757,-69.2622,12.5087,-59.1730,-111.1368
1.2440,-111.2445,-16.1923,-56.6490,68.4088,-65.5595,18.4290,-174.9252,59.5457,-50.0803,7.9580,-35.5634,71.8435,-46.6814,136.5161,-22.2949,-4.5107,-148.5872,-111.9833
-75.0874,-231.0868,-132.0080,-153.0663,-0.0732,-148.3321,-30.9577,-200.3979,103.8021,-48.6272,-66.0469,-12.2082,30.3252,25.4864,126.2350,14.7050,-55.6766,-264.7007,-119.1693
-125.7799,-289.3407,-297.3400,-275.6299,-131.1266,-238.2983,-101.1068,-210.2040,107.2289,-52.9736,-161.4370,-25.6843,-45.9820,31.3377,55.5822,26.2562,-124.9448,-341.6502,-145.7273
-100.1716,-231.3276,-371.3232,-285.8715,-216.9225,-234.6140,-134.9348,-176.3923,45.2213,-73.4759,-200.5758,-29.1090,-103.6514,20.8550,-22.6737,-4.7456,-154.2791,-331.6362,-151.9728
-62.9678,-165.1607,-310.2497,-233.9452,-190.0822,-186.8793,-120.5284,-159.5810,23.0667,-91.5408,-159.8741,-37.7031,-82.3203,-13.3088,-13.9264,-52.4543,-122.8753,-268.4381,-140.9460
-32.4768,-139.6833,-175.1787,-208.7848,-96.5885,-164.8205,-73.0061,-172.0882,71.2406,-78.9261,-83.4344,-81.3590,-20.9849,-88.2047,45.2725,-80.3041,-62.5095,-207.3021,-118.9536
8.8731,-98.8207,-53.1725,-188.7651,-15.2281,-152.2781,-24.2761,-148.6031,104.7492,-55.6928,-12.4768,-111.8309,30.4004,-137.6559,83.9386,-81.0973,-25.0236,-144.7603,-86.7201
6.4588,-77.2643,-35.9079,-179.4702,-8.0298,-160.7591,-31.5003,-108.2865,119.1191,-35.7819,15.4772,-98.4441,73.2213,-127.8877,130.2447,-61.0004,-53.4626,-116.4990,-84.2871
-40.6972,-148.7397,-132.3558,-246.8816,-86.1054,-253.1402,-96.2210,-141.2934,169.7067,-22.1474,-25.1009,-103.4576,84.4197,-126.1784,187.5699,-44.5303,-128.8923,-216.9992,-107.6564
-48.6380,-239.4660,-239.3977,-349.6801,-179.7123,-397.7753,-150.1968,-230.8878,207.2991,-45.2116,-92.0429,-145.0979,44.8020,-158.7872,187.6040,-65.8989,-184.5346,-384.8414,-109.8182
-34.2371,-238.2947,-296.6444,-371.9298,-229.8766,-468.7449,-176.7924,-276.9290,155.2370,-86.5273,-125.8192,-148.6934,-1.6400,-168.6203,126.2228,-110.9498,-200.0646,-423.7580,-126.2906
-60.5905,-173.9772,-322.1090,-314.6351,-252.1707,-417.7860,-207.5307,-258.2090,60.3758,-84.9381,-130.7690,-107.0580,-30.4099,-147.1065,57.9992,-133.7512,-197.0622,-322.0483,-186.5108
-79.4217,-126.3473,-293.8675,-259.3845,-247.8616,-313.0963,-218.8809,-221.9677,18.5820,-62.7098,-122.2223,-88.3131,-55.4434,-133.8060,12.2868,-129.3394,-173.8157,-238.7157,-205.2436
-59.9291,-105.0712,-204.8762,-212.0404,-194.0784,-215.1389,-183.4965,-174.9069,42.2838,-61.6936,-89.5949,-82.1469,-53.3863,-112.5214,13.0834,-118.3406,-134.0299,-205.0253,-148.3077
-56.4489,-95.5822,-145.5223,-152.8603,-125.7991,-137.8918,-132.9798,-108.0474,84.4586,-42.9873,-59.4824,-49.6558,-15.9862,-67.7175,55.8182,-106.4456,-100.3976,-162.8329,-91.4635
-56.8553,-104.2329,-165.7441,-135.9518,-81.8110,-111.1361,-85.5742,-71.1503,118.4710,-14.8102,-70.9804,-41.8613,4.2391,-60.0317,77.4098,-104.4350,-70.1495,-151.9019,-65.2865
-23.4973,-123.3408,-208.4675,-188.0619,-48.4454,-155.4017,-49.4868,-114.8543,137.2283,-49.7386,-97.2977,-87.6513,-3.9260,-118.5264,59.7846,-119.7617,-53.7125,-200.2273,-77.4327
-6.5687,-123.6575,-241.7724,-233.0979,-42.4286,-220.8017,-74.4948,-202.9660,120.1695,-116.4502,-101.0428,-120.3657,-3.2845,-180.7056,51.6926,-131.4843,-91.1534,-239.6216,-167.4792
-31.9234,-107.1733,-285.1129,-237.5881,-103.1229,-256.1494,-159.5501,-270.0428,63.2986,-147.9549,-104.1807,-120.0671,-5.3875,-206.9130,53.3661,-130.4038,-151.1259,-249.9395,-278.8506
-58.5715,-119.8200,-323.8763,-267.2963,-185.4433,-278.5210,-214.5379,-308.9196,11.9085,-176.5699,-126.9288,-132.2761,-31.4404,-211.7144,32.9165,-131.7835,-151.8747,-266.0687,-302.0582
-73.9978,-164.3908,-320.7884,-312.7753,-204.4511,-295.3360,-195.2662,-326.3004,-4.5660,-204.1396,-140.6456,-141.1701,-50.8611,-187.7569,9.0391,-130.2007,-103.2682,-270.5989,-253.7664
-59.3688,-167.6150,-267.2268,-274.8560,-151.0397,-268.5164,-140.0099,-302.0688,-18.1609,-173.0208,-120.9034,-114.4015,-43.9459,-138.1976,4.4237,-116.8072,-71.5252,-248.9162,-197.3068
3.7645,-111.1520,-195.5739,-176.9783,-82.8629,-210.8835,-85.8299,-255.2867,-39.7988,-127.3536,-84.2754,-93.4589,-23.5478,-118.2171,14.8123,-109.7262,-60.6230,-231.5514,-138.2299
34.7889,-86.3094,-164.7875,-153.8985,-54.1789,-181.8278,-61.3796,-237.0469,-26.8184,-129.7260,-63.6427,-108.3923,3.8921,-140.6695,45.0429,-109.1446,-51.3950,-222.4779,-104.8412
-15.8875,-135.2337,-186.8311,-223.3466,-63.9198,-176.3969,-74.1237,-234.6169,22.9438,-123.7662,-71.6634,-126.6830,20.6147,-145.4356,78.9849,-91.7774,-51.8507,-219.3131,-108.7542
-53.6735,-187.6059,-205.5286,-285.7752,-59.3462,-154.1736,-76.7144,-208.0251,59.3001,-84.8558,-89.4612,-129.7764,8.4203,-110.0353,78.6393,-62.2854,-57.4259,-243.6692,-87.0626
-46.7272,-203.3850,-204.2829,-299.0921,-26.8280,-133.2935,-54.9792,-184.3737,63.2840,-75.0363,-97.0707,-125.1168,-3.1028,-76.8084,61.0077,-35.5061,-56.6525,-266.4000,-49.3031
-69.3080,-201.4099,-211.2483,-278.3235,-12.3780,-136.8426,-56.9520,-193.0036,46.6977,-86.9417,-94.1215,-112.3726,15.2218,-73.3214,67.8293,-12.7169,-47.3042,-233.7796,-70.4903
-81.1499,-164.7941,-190.1338,-215.3059,-17.1698,-129.6943,-66.5452,-201.9380,17.3027,-92.2251,-75.4922,-96.8237,35.3351,-90.2213,79.2880,-20.7061,-17.1699,-169.8019,-116.5272
-19.0865,-97.4025,-111.2511,-129.8357,-7.2664,-96.1003,-37.4332,-206.8203,-1.2293,-135.2124,-39.0338,-79.5193,27.1142,-103.7717,63.8546,-76.1171,11.0168,-130.4619,-132.3484
4.7583,-90.0897,-65.0737,-104.5345,-8.0934,-83.5162,-24.4991,-238.1908,17.7020,-185.3071,-20.1713,-52.7334,7.0404,-88.1171,49.1924,-111.9645,-20.9668,-129.4595,-152.5861
-81.9559,-178.3791,-112.2490,-174.8640,-30.5517,-112.0571,-59.0029,-244.9403,68.9619,-130.4715,-43.9975,-37.8214,8.5541,-43.4763,71.8285,-63.0946,-81.0870,-156.4717,-146.1234
-145.4895,-250.7878,-155.1381,-248.2865,-6.4384,-129.4990,-45.8182,-151.2989,127.5458,0.9751,-67.6451,-50.3296,42.4998,-1.1187,115.8328,19.6188,-69.5024,-172.2838,-40.7561
-98.9934,-207.0113,-115.3283,-212.3999,61.8809,-102.0369,23.5808,-22.8846,149.5286,65.8425,-49.8609,-53.5453,75.5962,13.9939,130.9935,47.6276,-2.6230,-137.9551,65.4112
-28.0909,-97.6299,-61.3326,-95.5636,60.9761,-74.5210,20.7230,8.3354,94.6245,22.4176,-23.1103,-32.1551,60.1489,-0.2406,91.5707,12.1046,21.4263,-97.7008,50.9973
-0.4470,-36.4854,-51.7107,-21.3026,-26.3930,-83.3179,-46.2470,-49.9527,7.1320,-58.5784,-25.9737,-20.0693,5.2284,-19.6169,27.7945,-41.9720,8.8036,-100.3748,11.7931
-0.0024,-53.7598,-34.2016,-20.6595,-69.8467,-82.5657,-33.2649,-77.8507,-18.1797,-100.1443,-35.0446,-14.0312,-32.9761,0.2580,-15.8636,-74.8267,26.3557,-90.0471,77.7118
-8.8519,-89.3416,25.1648,-28.5597,0.1628,-38.4736,55.6464,-27.2217,23.1987,-65.3126,-19.5466,9.4580,-31.2693,60.2031,-30.8983,-63.4470,60.4284,-35.1189,189.1627
-11.8329,-92.7193,66.6300,-31.7499,101.2683,-5.3206,97.0073,42.6016,57.2939,7.7365,3.1837,21.8676,-10.1983,96.9660,-27.0817,-22.7059,69.3359,-11.5805,223.9404
-0.6238,-74.8363,51.3847,-54.8225,141.3722,-9.9925,81.7351,69.7126,55.4438,43.0090,8.5939,6.3590,8.6799,83.5483,-10.6082,-1.5811,67.1911,-35.4353,168.3190
3.9596,-62.9350,34.1407,-61.4324,130.3645,9.3592,79.4818,50.3822,45.7636,33.7112,8.2227,-0.9155,16.5898,60.9694,7.2628,-20.2427,76.1126,-28.9522,95.9429
-5.8757,-59.5159,59.1080,-15.5163,121.0941,63.2213,95.7441,15.7606,58.2192,28.0741,16.3867,6.6569,17.8181,40.7569,22.0917,-49.6122,94.5460,12.0121,64.6252
-10.8137,-57.1627,85.5741,45.7288,124.3153,81.0518,109.8318,-10.4240,94.4960,36.5027,19.1162,4.2154,20.8545,1.5573,35.7919,-63.4982,121.5320,32.8796,55.6211
-3.8256,-51.6194,79.1217,74.5090,131.3994,62.4674,127.0259,-23.3417,113.7517,39.0411,11.0340,-1.4740,24.0437,-31.3262,37.2744,-60.8065,140.9451,37.7976,35.6989
9.4419,-42.7306,71.9401,54.4985,147.7522,65.6258,135.6131,-17.8872,91.4091,33.9031,14.4867,-6.4738,29.0982,-26.8599,30.4807,-42.4900,124.4246,38.4857,37.3105
18.8829,-35.7217,85.2730,1.4030,156.7812,76.7932,112.3411,10.7488,68.8502,30.1373,33.6145,-24.3551,41.4544,-9.9108,37.7756,-14.8495,87.8279,22.2546,78.2284
9.9911,-22.5760,98.1425,-12.9491,138.7625,68.9637,73.4697,40.8614,60.0741,26.1069,47.0684,-25.7021,48.5710,2.1729,44.4296,-1.4102,75.7960,25.2876,91.6349
-0.5509,13.0898,108.0117,66.9392,129.0383,81.2477,58.9326,40.4296,21.3184,7.1174,54.1876,22.3345,43.3820,29.3103,27.4721,-10.1490,86.4592,72.7241,42.0799
28.2637,54.6484,132.4477,176.7922,146.8213,113.0410,78.4800,16.1741,-23.9541,-29.3404,66.0078,76.4670,39.1222,60.3455,15.6854,-14.8135,89.9014,91.4601,-13.0630
93.1565,71.2427,169.9641,211.5321,135.5603,101.5015,104.5222,4.2491,-14.1569,-49.3692,74.8866,76.6057,31.4588,57.6513,26.8711,-4.2309,91.7314,34.4036,-24.7065
148.8099,73.5842,202.1786,149.1304,80.2299,53.4480,108.7974,17.6613,9.5923,-27.5503,79.8661,27.6823,10.4400,24.5009,25.9618,-2.6728,93.4754,-25.7131,0.3097
161.4811,81.9224,193.5462,33.8041,40.1443,25.9314,77.4636,38.7657,-14.1131,5.6947,84.2276,-26.0680,-8.4432,-4.3837,-2.9842,-9.8622,51.9762,-34.1234,28.0289
118.2144,79.1100,121.1622,-59.5023,19.4040,14.6435,8.2951,49.6426,-52.5129,17.2086,66.4130,-44.3946,-22.9837,-4.6681,-40.3802,7.7116,-29.5060,-28.6954,18.2891
48.0334,60.1534,48.2733,-53.8971,-2.9431,9.1840,-51.6605,48.0337,-81.3331,20.0082,31.7275,-11.4309,-40.1839,32.5056,-68.5355,41.6591,-57.5360,-22.1541,-23.2972
27.1877,55.3529,70.0688,34.8940,29.1806,47.5346,-15.4011,43.2566,-121.8225,27.3264,33.1206,42.5431,-35.4054,89.5453,-71.1457,45.8107,17.9864,20.7703,-41.2443
77.9474,66.4326,169.6608,107.7666,130.8704,116.2181,111.1043,38.7700,-141.8268,23.7671,73.1930,68.4394,-12.2753,121.2397,-61.4977,23.6541,128.1225,78.4648,-23.2929
121.6241,63.6831,246.6961,124.3971,206.7802,141.9403,201.0129,27.1088,-103.7356,5.8273,96.2106,56.4608,-10.3410,103.3751,-69.7979,18.6109,192.7219,99.5142,-6.8493
103.3812,45.9836,254.2382,115.6067,217.6104,122.0768,195.5541,20.1434,-46.0800,5.0300,97.2617,34.6201,3.5036,64.6842,-50.5455,32.3030,191.6548,99.8993,7.7873
63.8746,33.3762,208.5344,88.0387,215.7006,117.9632,166.5076,51.7988,-7.6099,49.2906,105.8340,25.9331,74.1666,51.6265,42.1401,37.2370,129.7431,109.5859,48.7484
40.3055,27.1295,139.1575,37.3310,208.6350,133.4894,145.8344,120.7958,9.4892,107.3314,105.4221,29.8481,131.7397,78.3420,118.4342,37.5361,42.9415,105.9505,116.4109
13.7092,20.2272,81.6088,-7.3376,177.0357,125.8396,96.3314,178.6861,0.2154,117.9585,84.0853,33.8582,126.6626,116.2415,111.0795,54.1893,-5.4313,83.3023,180.2678
-16.1798,17.7025,47.9801,-15.9484,140.6492,90.5151,37.2321,192.4486,-17.5566,92.0899,69.5891,36.3674,125.2411,128.7448,107.2056,81.5513,-10.8459,66.0296,183.8139
-8.4236,30.9340,24.7219,12.6318,100.5804,46.8827,6.9155,166.1039,-23.5570,87.6117,63.8327,44.6187,132.5781,112.1078,132.4922,90.1169,-25.3290,33.2932,101.7891
43.6053,63.1571,28.2173,48.4686,50.5590,1.5656,-14.9802,112.4962,-51.3889,79.6809,55.1257,47.9680,82.7047,85.8883,90.1141,61.4305,-49.8449,-23.0803,11.3462
83.9592,95.7965,72.4161,55.0719,31.5023,-23.8326,-33.6180,54.2088,-106.4347,15.8753,61.8596,31.3617,19.8713,55.8559,-0.9237,16.1312,-42.8878,-27.9937,-4.8640
68.1546,106.2610,105.2952,51.0282,53.5504,4.4243,-24.7845,24.8003,-128.3448,-38.6599,77.1967,11.7392,16.2156,22.5550,-35.4829,-6.6131,-13.0471,47.8110,23.8268
26.1439,107.0147,88.0846,87.7144,71.1709,78.6546,-3.7830,44.1923,-113.8559,-1.4129,67.7934,15.5379,30.8094,8.2356,-26.9541,1.1697,5.3991,122.8118,48.3265
11.3883,120.8434,63.7392,147.2607,84.6787,152.0830,21.7129,111.5688,-100.2946,73.3525,50.3328,39.4622,36.5659,31.1773,-17.6192,21.7994,21.7146,156.2238,79.6202
16.5749,124.8182,66.4317,170.6942,121.5520,187.8936,73.2024,192.0109,-50.5390,100.3416,52.8773,65.8211,67.4875,68.3850,20.8559,46.6426,52.9728,179.4471,102.5147
1.8817,88.8511,68.7795,160.6687,152.6812,172.8493,112.4460,207.6444,47.3218,83.5932,52.5229,82.7070,94.3695,77.5692,66.7545,56.4239,70.8010,179.1249,74.7881
-18.6585,50.4389,52.8610,148.6095,145.3576,122.5419,90.3943,126.6994,92.6234,46.4748,39.7926,78.4431,78.8772,43.2040,63.6924,21.4096,40.7513,142.8865,22.4954
0.7175,69.9620,34.7660,133.9267,114.2102,88.1896,51.6950,40.4667,38.8794,-0.3422,40.5447,50.6047,59.2966,-13.8876,32.9086,-36.1965,-15.0641,128.3440,2.4658
46.8362,124.2373,23.6826,111.3651,76.3600,95.2913,41.3461,39.6123,-27.2805,-17.7115,46.0258,14.5675,50.0745,-56.1554,7.1643,-60.8674,-40.5047,142.4048,24.5525
62.9424,126.3276,13.1736,74.7590,44.4786,90.2418,31.8874,73.4342,-38.2680,6.1176,32.6861,-10.2231,29.9869,-56.3891,-10.1948,-51.1873,-30.1454,111.6180,65.0004
37.6873,58.0086,-9.1707,17.1053,33.7775,28.7592,9.5004,54.2321,-18.7664,21.9206,15.1438,-8.9909,23.3824,-18.2495,3.9349,-33.6199,-40.0561,28.7074,72.7418
5.1153,0.8462,-44.8820,-28.5391,24.1922,-36.6061,-33.8930,5.9046,-21.1090,12.8830,5.6987,18.0411,26.5914,33.2334,26.2189,5.8007,-98.4050,-50.0232,-3.4487
-15.6090,8.0629,-71.7161,-38.0143,-28.1003,-56.0627,-138.9041,-14.7894,-71.3408,14.4213,-7.0060,43.0885,-20.3486,73.9654,-14.8967,63.0389,-175.0081,-118.7942,-125.9091
