Fp1,Fp2,F3,F4,C3,C4,P3,P4,O1,O2,F7,F8,T7,T8,P7,P8,Fz,Cz,Pz
-17.2916,12.2201,15.0870,33.7158,17.1988,30.2039,0.5599,4.5665,15.9333,19.1237,19.5843,18.1253,-21.1058,18.8921,-145.0959,-13.8242,21.4073,28.7409,23.3489
-54.4290,-67.7816,-87.6959,-90.8907,-89.0625,-86.6847,-85.3912,-91.9754,147.1077,151.7805,9.2697,-45.1154,20.9314,-5.1598,-12.8112,0.4429,-84.5620,51.7086,183.1041
-114.5364,-78.5390,-128.5738,-102.4484,-143.4338,-163.8111,-206.8333,-239.2690,162.4313,160.6044,3.2138,-58.3540,-8.0385,-12.9123,-59.0219,-10.2687,-102.0335,52.5531,219.7369
-183.3905,-39.5038,-106.7527,-26.3133,-112.5702,-202.2359,-256.3198,-323.4753,98.5379,83.9469,-5.5520,-30.0521,-79.5500,0.0539,-220.3610,-18.8869,-52.7487,32.7282,158.3233
-184.3127,-16.8765,-80.6214,13.1901,-103.3138,-373.7175,-271.7058,-301.6888,63.5550,59.4197,-4.6611,-11.1622,-109.9926,17.7088,-281.0847,6.1625,-11.3124,39.7857,121.8663
-101.1670,6.4921,-43.7123,28.4937,-125.7191,-783.8924,-329.1644,-218.8244,29.0626,58.1701,13.9483,1.8712,-101.1228,34.9606,-230.4547,40.9249,37.4063,102.4681,86.5019
-36.4450,52.9333,0.1998,67.3821,-95.6131,-1279.5050,-362.7829,-154.3824,-46.2378,-3.4776,23.2964,21.2884,-91.6502,47.0789,-171.0647,46.7797,81.6161,186.7533,2.3361
-24.4509,96.7458,13.0534,97.4097,-51.6382,-1625.5930,-348.3665,-169.0754,-128.9395,-91.2893,25.9788,38.4157,-67.1087,50.6831,-150.7234,26.7325,64.7010,238.6433,-90.8873
-10.9197,133.6863,9.8938,117.2956,-68.1952,-1780.9604,-394.8281,-224.0000,-196.2788,-146.3492,50.1184,62.2775,-30.1453,54.7551,-199.2998,-5.7024,18.0355,229.8922,-161.0412
-27.1130,159.9657,5.7073,144.5735,-87.5342,-1853.1809,-467.2765,-222.6579,-220.2710,-161.3171,53.0786,81.7776,-29.3153,51.2876,-242.7737,-49.2467,-7.6050,169.5333,-188.5560
-102.1806,139.2024,-31.8405,125.5879,-64.7050,-1885.5135,-408.6513,-170.6840,-172.5953,-141.6197,-11.6397,55.3151,-56.5613,22.3285,-123.6784,-72.0281,-37.3420,109.0254,-150.7609
-129.3647,90.5800,-77.0983,56.5343,-62.9050,-1856.8463,-285.8888,-156.8169,-122.7379,-118.3198,-71.7791,5.3499,-55.7537,-8.8089,85.2187,-44.5583,-66.1291,101.9236,-106.5765
-71.1946,82.6504,-73.8869,30.2194,-97.1697,-1795.2305,-274.4072,-196.1336,-142.1066,-128.5494,-57.6074,-3.2333,-31.9637,-11.2267,139.7028,-20.8310,-56.4790,133.6341,-122.2349
-57.6905,102.9480,-66.0564,50.9086,-111.4355,-1736.7001,-318.3829,-240.1234,-166.4394,-145.4910,-31.4313,14.3125,-23.1390,-6.3180,57.5355,-51.6486,-59.5931,136.2393,-142.1091
-124.5989,85.1194,-102.6187,30.6508,-94.0379,-1655.0128,-307.3619,-265.4435,-133.5751,-129.9555,-45.6807,3.7628,-12.0143,-15.6099,52.7700,-69.5874,-124.5581,89.6931,-110.9681
-146.6895,38.7004,-118.2586,-24.0909,-49.2325,-1528.1305,-319.3347,-252.3716,-91.2252,-101.5169,-41.3739,-20.3180,30.5035,-15.6147,136.0076,-20.9109,-174.5061,68.6502,-74.1406
-84.4268,14.6958,-70.4655,-43.9330,27.0226,-1391.8790,-400.9014,-190.5916,-63.1485,-77.0965,9.0962,-26.0352,75.5791,0.3356,182.2662,15.2656,-140.5890,140.5494,-47.7434
-35.7523,9.0913,-31.0031,-36.8273,73.1091,-1285.3372,-443.0092,-126.4299,-17.8896,-38.7894,36.1001,-29.1637,75.5484,3.5598,189.6731,-8.7080,-77.7685,227.3578,2.8359
-54.0104,-0.9650,-46.3413,-37.8757,32.3643,-1203.4985,-396.8403,-83.6642,26.4275,7.7388,3.7193,-37.8125,34.9153,-9.3153,199.9176,-24.6303,-59.5485,184.7277,49.6110
-82.6642,-5.0852,-70.1257,-37.7598,-25.4290,-1107.4434,-317.1331,-3.2078,43.8137,43.2898,-33.7709,-32.3149,13.4258,-17.4486,199.1399,-20.6553,-88.5483,43.8540,56.1042
-56.5607,1.2497,-63.2592,-35.1565,-14.7490,-966.0505,-235.0737,134.2314,65.0762,77.1203,-29.3493,-18.0069,49.1765,-19.4219,205.4022,-54.2306,-124.6905,-20.8302,60.5063
-2.1060,-0.7288,-46.3032,-44.9500,17.1535,-807.8442,-171.4359,242.1499,101.8652,113.6102,-12.3145,-17.5690,90.5569,-25.3456,248.8815,-97.3700,-130.5636,4.9837,88.8715
-2.3255,-11.0970,-53.8266,-52.7712,-11.3098,-698.0988,-141.9406,258.0585,122.3852,133.7291,-33.5841,-27.2024,68.0382,-37.5045,284.5281,-100.8313,-113.4730,-25.4437,109.8890
-62.4669,-11.8796,-84.8485,-45.2443,-64.3739,-641.3022,-115.0281,216.2328,116.5260,125.7494,-79.0537,-30.7445,16.6748,-52.3271,271.6762,-102.9813,-119.5889,-122.1768,104.1911
-100.6752,-6.8717,-108.0806,-47.1560,-64.7222,-578.8190,-88.1136,153.5969,88.6605,86.7137,-92.2726,-30.1505,23.6512,-61.9217,264.6418,-118.2296,-164.4292,-168.9104,71.7171
-77.8995,-10.5260,-114.9688,-77.6507,-51.0104,-493.5114,-106.2352,56.2805,31.2027,22.0237,-68.9353,-34.5895,85.3036,-65.3175,319.5680,-99.5356,-215.9307,-166.8087,9.0444
-25.0738,-13.3193,-121.1302,-110.1713,-110.4439,-423.5706,-155.4212,-75.7234,-47.7602,-43.3193,-47.9638,-38.6510,125.5520,-68.4229,379.7341,-51.2035,-235.6170,-185.0504,-68.0817
19.1827,-3.0599,-114.7826,-108.3772,-192.8026,-375.1386,-183.0202,-200.6332,-124.3040,-98.2998,-36.5124,-31.8822,111.7344,-62.9280,353.5389,-1.5055,-200.7744,-195.4507,-135.6862
16.7376,6.5682,-87.3310,-79.3782,-179.0172,-307.3189,-175.9878,-288.5338,-175.2762,-154.0803,-28.7849,-22.7627,72.0027,-46.0140,267.5232,44.8294,-137.2899,-157.9213,-180.1837
-26.2294,6.4470,-75.6110,-60.0541,-105.8430,-198.3987,-136.6726,-333.1050,-178.0780,-188.1751,-35.0115,-25.3215,45.9462,-43.0790,218.7287,40.9829,-110.8677,-112.6127,-182.2191
-19.3266,10.0227,-80.3362,-59.1656,-101.3382,-74.6128,-105.1813,-321.2442,-152.3158,-170.7442,-33.0141,-26.7463,53.1851,-54.8402,212.0760,-15.9279,-117.7769,-95.8686,-155.0632
76.2677,17.9225,-44.9147,-56.1175,-151.9611,20.8427,-169.1086,-273.3789,-168.0175,-149.2284,10.7485,-9.1736,78.8827,-42.0476,196.5277,0.8644,-84.4002,-104.5604,-169.4739
159.4138,16.7172,18.3850,-47.8716,-160.2219,75.1920,-318.4086,-258.0577,-230.6635,-177.2394,62.8826,10.5103,94.8538,-10.1920,191.1257,107.3066,-20.5829,-130.2813,-235.6426
161.0636,12.3646,37.1234,-44.3772,-132.4448,126.5287,-424.9704,-263.1267,-238.9652,-192.1057,73.4100,9.7541,95.0180,-10.7462,220.7209,116.8563,-1.0957,-143.9397,-245.9520
150.9935,13.5184,24.0759,-40.3288,-116.3591,212.0703,-423.3185,-177.2630,-148.2287,-118.8779,62.6063,0.9348,90.9927,-37.5187,241.3822,-4.9959,-8.1342,-118.9990,-151.9084
184.1331,8.7858,42.3146,-35.9831,-84.2776,296.8757,-350.0605,-7.8539,-63.2574,-30.0391,71.4811,3.2756,100.9596,-36.1802,233.6560,-54.6320,7.8339,-81.6626,-70.2437
212.5388,-6.2458,76.9425,-45.9109,-8.4190,319.0846,-258.0172,89.4098,-68.4907,-29.0453,94.4542,9.8955,139.1099,-5.0910,233.0653,30.7651,7.9420,-59.5224,-89.9935
202.6837,-25.1876,85.8805,-69.1664,70.4437,309.3730,-192.4344,78.7270,-92.3652,-65.9023,106.7870,3.9967,178.3312,14.7021,254.6290,108.4667,-19.9066,-27.1517,-123.7092
196.5033,-51.6244,86.0557,-93.5516,115.1844,365.2902,-146.0795,77.9514,-53.7955,-47.6280,102.4376,-17.7272,178.1144,14.2162,297.4175,128.7532,-4.5205,40.5549,-81.4886
227.2761,-74.7943,102.4591,-112.4351,146.9242,489.3349,-81.7354,118.6324,-11.3275,-17.5075,100.6116,-36.8136,172.0925,12.2429,353.4685,143.9763,42.4811,112.8388,-36.2921
272.4742,-68.1251,124.6326,-116.0042,189.5898,575.0165,-46.4042,151.0663,-37.5812,-45.6719,122.8983,-30.2395,217.9625,15.1579,387.4017,141.8023,31.6160,132.1068,-73.6104
304.7437,-46.3901,133.7927,-110.5990,207.0618,577.3935,-56.4679,195.0755,-77.9368,-77.0790,144.0337,-11.6917,275.5319,13.9318,410.2702,112.7701,-19.0119,89.3172,-129.6779
318.3147,-53.3773,115.7539,-129.6260,164.0076,559.4042,9.0536,251.5743,-60.9535,-49.1481,120.1695,-19.6669,278.3664,1.8673,480.1301,111.1114,-35.7623,47.5119,-117.8558
299.6811,-88.3097,75.7196,-176.4302,123.9795,556.4348,140.5432,250.9029,-14.7094,-7.4482,78.0151,-51.3314,262.5277,-10.6361,561.8656,145.2499,-48.7478,51.6160,-67.5033
248.1627,-116.4712,42.0023,-212.3803,153.6521,545.5601,211.0488,219.0100,17.6698,7.4788,66.3955,-70.5090,280.5028,-9.3600,573.8324,170.3134,-103.6721,68.0492,-34.1332
213.7029,-121.5744,17.8539,-222.1979,177.4622,541.4666,392.0211,249.1178,36.2944,17.9084,46.4499,-73.2143,291.0038,-5.9059,545.7466,171.8145,-150.7310,73.9057,-21.9812
227.2756,-98.9923,-11.0543,-209.4981,114.2348,575.8042,845.7532,305.0916,25.6721,13.9248,-23.7514,-72.1245,246.0419,-16.8332,515.8376,152.0248,-139.8794,93.1878,-39.8906
243.7452,-56.0477,-13.6506,-159.6686,39.4018,611.8757,1114.3982,296.6424,-20.4987,-20.6713,-70.1694,-54.4195,174.1753,-22.9475,421.1604,119.4998,-82.4991,101.2995,-84.9513
224.7056,-34.1664,32.2482,-94.9209,25.4538,600.2316,772.8195,249.0170,-39.1582,-22.4211,-27.0850,-22.9431,118.6860,-2.4962,268.3541,117.9538,-5.9161,52.5889,-88.8076
179.1099,-64.8766,58.5807,-84.7943,18.2246,561.4617,292.8224,224.5867,22.5287,56.4859,28.1901,-17.4844,87.0713,22.0917,180.4601,164.3400,36.9472,-11.2859,-5.2549
110.9854,-118.2959,9.4848,-133.8140,-17.5520,531.3721,268.9007,232.7690,130.3718,164.8164,7.9728,-47.1463,67.9489,22.5133,181.6998,199.6991,2.1734,-34.3993,117.0582
47.9852,-145.3696,-51.3841,-164.4215,-56.0131,504.7593,473.4325,279.9642,224.2511,252.0962,-46.5870,-71.3670,38.8112,9.6100,177.6649,180.2956,-40.4233,-38.2274,216.6991
36.6552,-139.0730,-52.5654,-140.5497,-89.8431,480.5464,501.0165,348.3675,271.6986,305.7842,-71.7370,-69.5884,-15.4462,3.1232,143.2827,143.1583,2.3299,-46.3670,269.9163
31.1299,-125.7672,-27.6538,-104.8627,-83.7469,474.7547,454.6147,362.9161,259.3527,289.3423,-86.8295,-63.8235,-68.3366,0.5768,134.8769,137.7711,70.0413,-54.4743,258.0243
-24.1666,-123.3904,-29.6213,-98.0361,-20.7502,470.4402,446.8282,288.1537,205.9644,205.9696,-106.7937,-68.3990,-75.4164,-4.6056,169.3275,158.6256,56.8321,-76.5475,194.9677
-35.3016,-121.1746,-45.4961,-115.7363,-21.7867,437.1277,325.5448,168.0554,151.9389,144.5498,-90.0482,-70.7784,-35.4592,-11.7212,208.3646,160.6069,4.2246,-100.2248,140.5938
61.8361,-98.4018,-47.5190,-126.4739,-145.0508,397.4749,115.8852,48.5875,104.4452,131.6050,-38.3350,-61.7707,4.7435,-23.4672,223.2328,113.4079,2.1369,-85.2957,111.2088
143.0992,-55.2681,-32.0093,-101.0974,-221.3323,399.5711,4.5049,-47.4707,36.2294,78.4487,-11.7473,-46.4719,9.6330,-40.6441,224.3703,39.8478,38.6734,-53.9130,53.2420
149.1601,-5.1708,5.8281,-42.3885,-163.6697,436.4827,-39.7491,-118.6339,-69.2093,-50.7727,-11.2162,-24.9891,-5.2687,-51.2792,219.7655,-9.9350,79.3288,-47.0959,-62.9592
182.8720,42.5910,59.1333,14.7851,-123.5374,461.6570,-146.1583,-196.5711,-189.9746,-176.4974,16.0666,5.1218,-8.3607,-45.3464,184.1338,-17.9299,129.9418,-44.6269,-191.5974
234.6437,65.3828,86.4062,35.0364,-160.3481,459.7719,-270.8685,-277.4869,-256.1691,-222.3357,57.3325,25.1125,0.7405,-33.1598,128.4731,-4.6161,159.5766,-35.0513,-250.7436
195.0446,40.9485,62.2249,9.7867,-150.0796,443.6367,-287.5981,-285.9375,-206.9335,-180.5529,56.9400,11.6788,9.3787,-31.4957,122.1838,2.7615,124.0560,-29.3455,-195.8622
108.4395,-2.3445,21.8089,-29.4802,-66.3104,423.0481,-163.2090,-194.5377,-88.9926,-98.4178,21.7127,-20.1530,16.6074,-39.5078,169.4312,-13.9772,64.2167,1.1242,-81.5395
68.3100,-19.4336,5.7213,-39.1519,-9.4855,418.4773,0.3519,-80.1562,-6.9969,-37.4832,-10.9223,-35.3800,7.7051,-45.4720,190.0033,-42.6355,48.2764,35.5136,-5.1662
34.5886,-24.7784,-1.4270,-26.5347,-27.6538,440.0965,63.5257,-7.2139,31.1315,6.1649,-41.5889,-34.2335,-36.1491,-45.3340,158.7565,-38.6950,64.0187,-17.1444,31.0629
-26.6651,-54.5479,-31.0158,-38.4091,-91.4257,441.3655,45.3960,30.3308,92.1204,85.1419,-71.2278,-41.3515,-85.0142,-39.7009,116.5443,9.1422,58.3191,-118.7469,98.2215
-76.9751,-94.1199,-73.2303,-77.1867,-125.8839,382.0154,88.3917,51.0771,176.4618,177.5329,-85.0335,-59.7460,-93.2953,-31.1237,85.1549,47.3992,18.6842,-129.5369,193.2811
-134.3983,-116.8100,-107.2491,-104.6289,-75.4251,307.8991,184.5948,65.4983,238.3031,216.1197,-100.1922,-78.6399,-77.7726,-32.2592,88.6967,36.0086,-36.1876,-80.5501,256.5006
-217.8016,-131.1108,-139.4099,-117.5828,-13.8523,271.4798,202.2036,76.4052,275.9517,218.6625,-135.8990,-96.8592,-78.8481,-50.8759,148.5961,1.5344,-88.3490,-104.5089,286.6681
-244.9921,-140.8511,-165.1797,-135.0389,-33.9931,254.1483,150.4421,57.1373,289.9377,225.4919,-155.6312,-110.0279,-80.3430,-69.3686,214.4338,-17.6273,-115.7256,-148.3180,300.6108
-172.2560,-128.9648,-151.6697,-141.7658,-70.4216,251.8297,114.7602,-13.7697,248.6775,196.2859,-123.6414,-107.3229,-54.3415,-68.3499,225.5484,-19.5394,-95.8461,-83.6560,267.7714
-90.1012,-98.6464,-99.8066,-115.0760,-46.2111,304.0961,59.1218,-98.8074,164.3282,112.4040,-75.2666,-90.5428,-35.0875,-57.3173,197.7105,-18.2663,-35.3140,12.9017,187.2143
-79.0382,-72.2072,-59.9831,-70.1849,-31.6572,374.3842,-53.9574,-139.9350,96.6160,43.2356,-64.9273,-71.3137,-63.7097,-54.9390,168.5611,-16.9549,22.7584,-17.7188,116.0776
-107.7606,-60.8745,-58.1327,-42.8440,-78.0291,364.2127,-143.8972,-128.7831,68.9139,30.8984,-86.1507,-57.6652,-106.6613,-57.8373,152.4946,-3.4797,38.9044,-142.0582,83.4100
-119.6556,-70.5149,-68.1639,-52.5564,-105.9992,288.3746,-156.2845,-91.3607,77.5276,57.1037,-91.1004,-55.3222,-104.9846,-49.5065,150.9630,34.9070,17.1430,-200.0124,89.1543
-117.4964,-100.6630,-62.1653,-82.4649,-45.3257,272.2231,-122.5482,-27.7414,132.2411,110.9632,-62.8520,-62.7635,-63.1985,-25.9503,135.5302,81.3328,-8.6896,-140.9829,143.7883
-114.4145,-123.8782,-36.2492,-93.6468,69.9884,350.0006,-64.2499,75.7982,202.6790,165.9881,-28.2375,-65.5632,-23.7706,-2.3566,96.6145,93.6108,-14.5216,-47.7872,211.0368
-81.0524,-113.6494,-8.4137,-80.1873,134.2596,415.3362,-1.9407,176.8015,222.0001,179.2548,-10.6567,-56.2316,3.5100,1.6051,93.0650,55.8934,-8.3219,-2.1584,221.1291
-27.8076,-90.2408,-18.8998,-81.5214,71.3353,393.0832,27.2503,194.4292,197.9326,172.3070,-12.5458,-49.0943,28.7832,-16.8239,142.4019,-0.7386,-31.2101,-25.8259,193.0936
-44.1488,-88.1468,-83.2953,-111.2335,-47.3105,325.4135,34.7995,112.9172,190.6844,181.1977,-36.2551,-56.8569,40.3204,-41.0007,171.3726,-37.1768,-107.9257,-101.1666,192.1595
-142.6540,-92.6003,-147.3420,-123.2834,-99.8304,257.9680,20.3816,-19.1781,177.8512,158.0482,-74.1542,-66.2601,17.5840,-56.5283,145.0978,-46.2324,-178.7282,-183.9398,185.1190
-211.5756,-66.9793,-155.4334,-82.7371,-116.4330,175.3035,-94.8785,-171.4597,103.7927,69.6335,-96.8132,-57.4952,-40.8477,-64.1176,91.3616,-52.5370,-158.8961,-233.0757,116.4202
-211.7557,-27.2879,-132.4713,-25.2581,-172.0676,93.3079,-291.2415,-303.9981,23.4715,-5.0549,-95.3481,-39.1455,-108.7095,-69.2985,30.8047,-72.6634,-78.2357,-250.3946,49.0901
-214.9019,-21.1399,-130.8801,-9.9359,-214.5014,72.2148,-384.9313,-350.6011,22.6609,-0.8909,-97.2670,-38.1764,-146.3147,-73.7164,3.9905,-85.4128,-39.5189,-253.5179,59.6842
-236.3792,-43.5782,-149.6469,-32.9543,-214.9804,96.8484,-324.3234,-350.2588,62.0610,30.5552,-113.2472,-55.1271,-154.7675,-76.4306,22.1328,-70.3997,-46.2758,-236.6836,103.1319
-249.3402,-45.9066,-155.7105,-31.5429,-229.3694,97.3113,-280.0683,-423.9024,50.0197,13.2715,-121.8829,-60.6692,-182.1929,-72.8728,-14.6087,-48.1705,-22.8291,-199.7342,100.0099
-269.5233,-20.2142,-127.3056,17.2965,-198.9319,96.7280,-306.4871,-526.7521,-10.4651,-58.1869,-110.9608,-43.2943,-225.3638,-56.6934,-135.5497,-34.5183,34.9066,-152.7903,46.6613
-269.6803,-4.9469,-60.3606,61.3554,-35.0117,171.7619,-265.0558,-472.5732,-46.9289,-123.4351,-84.7009,-24.8826,-217.6217,-30.3656,-188.9258,-10.0280,82.7042,-78.0746,-5.4199
-191.3370,-13.7392,16.1263,63.2274,129.9361,285.2584,-150.6256,-259.7484,-21.8448,-111.8553,-48.6505,-20.0224,-159.7185,-7.2063,-120.5427,20.2528,123.7036,22.0617,-4.0876
-81.7626,-18.1672,52.3599,50.9107,122.3244,316.5902,-105.6846,-93.5771,25.1720,-36.1948,-15.8114,-15.4248,-120.7335,2.5185,-76.7744,17.7548,156.3600,76.2108,39.7198
-19.0938,4.5734,45.2209,55.5734,18.3457,243.4258,-122.1015,-72.8068,16.0867,-5.2504,1.5945,1.5418,-104.6414,0.8512,-108.2008,-18.1433,145.1665,52.9473,36.4792
16.4535,43.4865,50.4035,76.8800,3.2490,182.5572,-82.4389,-100.7165,-59.4432,-71.7699,11.1148,22.5138,-76.0420,-2.2520,-119.3658,-51.8772,121.4201,45.8654,-47.4396
55.1445,69.3049,102.8385,109.1172,117.9848,234.1352,3.9033,-77.8756,-114.5985,-152.5740,26.8637,33.8773,-58.7547,4.8271,-107.7731,-62.9398,164.9616,140.8284,-116.1384
78.7825,69.5786,168.5473,138.5141,256.2939,336.1430,65.3719,-12.3552,-107.8332,-174.8460,45.7076,35.8236,-71.6759,24.1206,-127.2122,-42.6205,253.0931,267.9442,-114.5655
88.2558,65.2284,190.2087,144.6901,284.2362,346.9119,93.6061,23.0410,-112.1243,-177.9895,48.3342,38.2287,-79.7757,36.6520,-133.0807,-2.8807,282.7407,281.2905,-122.5102
88.1214,75.5853,155.4766,132.9798,177.0510,258.1582,73.5639,-25.4655,-167.1435,-205.3052,26.9378,43.8584,-75.3500,24.8999,-94.6212,13.2672,234.0125,159.0688,-181.8642
67.5915,84.5797,106.5693,118.4094,58.0783,182.5996,-13.8597,-129.2701,-212.9211,-229.8962,8.8558,45.4735,-73.4461,5.6980,-70.3144,2.6234,172.6250,37.0607,-224.5532
55.2349,76.7901,83.6940,96.9910,23.4814,152.9015,-117.0287,-213.5985,-223.7903,-236.5574,21.3651,40.6173,-52.4066,2.2711,-63.2664,8.0946,132.1092,11.7087,-228.7851
82.3112,71.9208,82.1567,74.3749,21.1025,128.7036,-191.4541,-243.8502,-240.0179,-249.2125,43.8960,36.9786,-9.4710,0.6814,-11.8572,14.5116,103.8438,17.8320,-245.4384
126.9567,81.0446,79.7814,64.8172,-20.6282,126.8724,-252.3460,-224.0553,-254.6511,-250.9677,49.0864,38.4471,17.9628,-15.6808,66.9320,-19.2255,87.3592,-20.5365,-264.4359
159.3924,80.0259,66.5278,51.9690,-94.1944,143.0284,-294.6482,-176.4730,-229.4063,-203.0225,47.5144,38.1089,26.2919,-28.9498,108.0391,-49.2709,74.3958,-74.8749,-237.7234
148.7652,59.8141,31.2373,20.4058,-165.3179,91.2601,-303.1368,-166.3062,-190.4311,-144.2386,38.5299,28.7907,31.4351,-31.4205,120.4829,-32.9026,34.7321,-125.2307,-192.9737
68.8478,35.3557,-26.5913,-14.1254,-194.6302,-24.6595,-293.5327,-223.8528,-165.6092,-126.7110,5.4069,9.4107,27.0940,-39.8439,143.4525,-12.3266,-35.7943,-178.6940,-164.8004
-13.4077,-5.5611,-71.3804,-56.1007,-158.5694,-77.3470,-239.0027,-235.7707,-95.0107,-80.1672,-19.8147,-19.3457,28.7842,-41.7387,165.8138,10.3165,-91.5069,-164.5502,-90.2755
-0.0073,-76.1357,-73.8661,-123.0088,-97.1736,-20.9718,-88.1763,-80.7116,59.0065,71.7767,-4.6203,-52.5668,60.5089,-16.7186,186.7336,79.1000,-95.5944,-47.1360,70.5732
72.5867,-128.6837,-53.2464,-177.2077,-45.6263,62.1313,112.4809,155.6355,192.4658,217.5476,13.4486,-73.9503,104.6721,5.4311,244.0449,132.0044,-80.3125,58.7776,200.6613
117.4533,-116.4411,-33.2462,-176.6731,23.5822,101.1704,254.1660,280.3540,190.8090,208.0326,16.2253,-68.3441,153.9230,1.4459,310.8373,97.7841,-100.8763,87.8594,178.8294
148.8273,-78.2099,-6.9900,-153.8254,101.1730,95.3310,281.0435,256.8318,100.7361,106.1759,47.2980,-44.9290,217.7724,5.7273,308.6390,67.2428,-138.8758,114.8058,71.3256
190.9826,-67.6296,26.6656,-146.4305,125.5589,95.3644,213.4129,207.5658,34.3098,52.0643,96.0060,-26.5119,256.2522,31.0880,262.2079,120.0501,-134.8001,137.4081,2.7074
214.2837,-65.9551,49.8644,-137.6155,108.7778,148.0415,148.4795,216.6157,-0.3297,34.3574,107.2789,-15.5248,251.8614,41.1288,260.0376,166.4271,-109.6738,82.8016,-36.4496
227.6249,-46.5535,57.0144,-123.3150,110.7776,205.4893,176.8860,255.5320,-40.3786,-0.2283,102.7640,-0.7751,268.9984,35.0072,280.6243,148.0817,-130.5112,15.3672,-91.6174
244.7720,-33.0132,49.9009,-127.2020,109.9923,168.5315,227.9937,247.9881,-69.3859,-22.3972,116.9586,9.4244,310.9260,38.4985,266.2994,136.4116,-177.8848,17.0414,-126.2718
212.6651,-33.4867,13.7985,-137.2236,43.5204,37.3259,176.0641,144.4821,-81.2273,-31.7795,98.5463,0.1029,288.9129,27.8104,268.6271,134.1162,-194.9538,0.0656,-126.3744
120.9286,-22.3813,-58.1187,-130.7855,-85.7819,-90.6725,77.6390,-10.7376,-94.6404,-55.2404,22.2811,-18.2322,202.9700,-20.4026,314.6725,66.0125,-206.6432,-107.8756,-125.3811
49.6497,-11.2015,-131.9198,-128.3457,-221.7991,-144.1466,49.3419,-101.3592,-75.9030,-32.9112,-36.3891,-27.1999,144.4549,-60.4445,307.1767,-20.9746,-245.8123,-214.3811,-93.5958
33.8657,-31.5145,-162.7063,-145.5352,-306.3280,-128.7556,49.0324,-88.0710,-4.1407,66.2059,-31.5425,-28.5941,129.2279,-50.6801,211.7568,-12.8657,-264.6377,-241.3824,-5.5193
31.2883,-61.2485,-147.6106,-153.0848,-310.3189,-97.9773,27.3837,-47.2050,51.6253,139.1599,-11.3180,-29.6427,107.8560,-20.3527,126.2219,62.2994,-226.9549,-220.6824,61.4306
33.4740,-59.7712,-112.3007,-128.8476,-255.4453,-71.6116,57.7035,-11.3862,48.8604,126.1265,-13.5923,-26.7783,76.2368,-8.5444,105.9561,89.7065,-162.9437,-178.0753,56.4252
76.9307,-35.0052,-63.3786,-91.7358,-178.7733,-0.3905,138.9868,61.7152,27.5627,89.2448,-9.7559,-15.8685,70.0111,-8.3189,117.3776,57.1598,-101.1722,-109.2661,24.5989
143.5368,-17.1855,-10.5686,-70.7772,-98.5116,107.8241,156.3475,135.9759,10.0950,65.2116,26.5441,-1.4699,106.3619,-0.5172,125.4017,31.8469,-68.1537,-41.8807,-3.2847
146.7149,-17.7852,1.7758,-73.6386,-40.0432,146.3393,116.1142,132.8817,6.7358,52.2641,56.5378,3.1469,146.4523,7.5627,111.7116,25.6880,-92.9923,-13.7985,-10.1966
63.3374,-27.6138,-30.4044,-75.5406,-13.5727,103.1604,147.8742,101.8328,37.7842,59.2675,26.2677,-8.4652,122.2155,-0.0009,90.9663,8.1894,-123.7600,-22.2279,23.0695
6.0985,-17.7924,-26.1232,-39.2463,28.6267,89.7231,261.3363,132.1174,41.5906,35.3591,-30.7053,-13.4685,46.8344,-11.2130,93.5024,-8.2444,-69.7088,-20.4609,21.3400
59.4713,23.5823,54.2806,30.8317,106.4074,130.1560,316.2332,186.1148,-36.3434,-50.4529,-26.0292,12.3393,7.1598,2.4975,67.6998,3.3446,48.0369,36.0422,-69.2894
133.2670,52.9412,129.6836,82.2822,150.1192,164.1197,242.7822,199.5588,-80.4947,-80.4250,34.8372,44.1590,5.5889,35.6189,-49.9303,21.1518,137.0316,124.0432,-109.2341
121.8519,38.5247,133.1234,88.7653,126.2238,186.5041,147.9152,192.0313,-8.3811,1.8008,61.3067,44.8090,-24.6083,51.7485,-171.8381,16.9616,173.0307,171.9827,-14.6579
75.8899,25.3252,108.3199,85.1864,95.4079,186.4648,142.9352,175.6700,35.6337,40.7867,35.4272,32.9514,-65.8880,43.2699,-189.4352,6.3232,179.3875,154.5970,38.7702
70.2744,51.8964,105.4093,104.3931,80.7385,129.6183,173.4040,128.8234,-42.8689,-39.0461,13.5068,42.8176,-73.6564,33.6499,-162.4154,3.7110,171.2706,104.0921,-50.0326
62.1496,79.5901,102.5714,129.1385,48.9930,75.2607,150.8767,66.3094,-112.5547,-104.8092,0.5392,56.0378,-89.3255,26.5012,-171.5484,-6.4091,169.9017,52.0782,-123.7903
-1.5143,69.1034,72.0223,126.7178,28.4488,87.5305,128.0332,6.3229,-86.0900,-94.0171,-30.6083,41.9050,-131.5259,11.8462,-178.4863,-25.0493,167.3483,27.7145,-88.7744
-77.4942,35.6741,31.6973,92.1803,68.7621,112.7694,165.7512,-50.4897,-28.5732,-69.8478,-51.4869,13.0373,-133.7419,2.7439,-161.4532,-28.5875,125.1945,62.4276,-24.2122
-102.5792,6.0796,14.5081,52.3538,135.8258,116.7524,197.6255,-75.8900,15.8425,-46.3902,-30.6998,-4.5810,-85.2838,11.8699,-161.1206,-14.1048,70.9810,140.3694,23.9813
-86.3131,1.3315,27.6760,45.6247,176.9614,137.7500,176.9395,-71.6986,23.7191,-43.8029,-4.5953,-4.5253,-56.4052,20.2900,-167.5200,-12.0209,65.9691,188.7760,32.3851
-75.0093,33.2872,48.4287,79.4114,192.3807,153.8275,142.2557,-94.1538,-44.9104,-118.2672,-7.4491,11.0683,-61.5880,11.4369,-152.5679,-40.5921,82.8923,158.5199,-46.0835
-59.5892,69.6838,63.8374,109.8558,191.2212,131.6791,89.0942,-126.5497,-133.3329,-202.5721,-2.8232,33.0580,-48.8417,5.8477,-142.9569,-60.5745,73.7855,99.7440,-146.8679
-2.2827,64.7858,90.3391,99.0617,192.1841,121.9435,11.3935,-88.4240,-141.4987,-187.0398,42.8359,43.6249,-4.2614,26.2574,-147.6613,-18.9908,72.2582,107.3850,-156.4287
49.7768,26.5894,115.7605,62.7366,222.3727,147.5672,-4.0294,18.8137,-73.1916,-102.8420,81.9721,34.2599,33.4812,51.6087,-127.4259,47.0060,87.6652,166.4059,-85.3534
22.1480,-13.1547,85.1373,20.1057,233.4286,162.4306,83.2995,148.4428,35.8783,2.5382,57.9604,10.6807,45.7639,44.2332,-62.7034,42.8466,45.2044,150.9506,20.4785
-33.1754,-47.2622,1.6468,-36.2834,163.8530,144.4687,190.0578,288.7593,166.2285,139.0089,1.8262,-16.0030,62.7040,9.3308,36.7195,-27.5303,-67.9104,39.1514,145.5736
-32.0062,-63.3073,-53.9832,-82.6982,88.1710,83.2882,247.1014,386.6786,232.4691,222.9326,-26.1419,-30.7267,98.9467,-16.4880,140.2912,-75.9040,-156.2585,-42.1106,206.1798
-25.8935,-46.8826,-54.5671,-76.2247,88.5730,-21.5675,245.1411,374.8866,188.6675,178.0816,-34.8807,-26.6883,108.2058,-23.5219,186.0302,-83.7730,-168.4689,-57.0564,155.0169
-79.9993,-30.8990,-62.9737,-48.7607,80.3508,-103.6194,206.0595,308.4405,146.5423,128.7355,-58.7744,-19.7629,67.3253,-26.7717,151.2271,-81.8224,-162.8560,-105.4252,112.5752
-138.0344,-59.9559,-113.4309,-75.9626,-4.5293,-121.9824,217.4436,292.6041,204.1522,202.4994,-85.9329,-32.3235,36.5298,-27.1774,110.8501,-52.4062,-198.1340,-180.6342,181.3666
-160.5911,-122.3547,-171.0058,-152.4480,-65.4624,-125.8181,336.1775,335.7313,325.2069,335.9084,-104.7355,-68.5417,45.1839,-24.5643,138.9968,-1.8707,-247.7540,-167.7373,315.9519
-197.8224,-170.1247,-207.3852,-200.9176,-47.7850,-128.5407,464.2526,379.5973,441.8199,428.7076,-140.1527,-110.4433,26.6477,-36.2170,204.4260,-2.5972,-250.2335,-87.0058,443.1294
-248.4414,-171.0020,-218.4274,-182.5695,-32.9239,-94.8681,496.9457,368.0453,486.8000,440.2729,-188.9783,-129.7906,-46.4189,-62.5135,229.2470,-64.1600,-196.1091,-51.4370,496.0134
-243.8542,-130.8657,-191.0453,-126.9556,-29.7950,-42.8981,469.1111,287.4254,415.9120,354.6795,-200.8547,-115.9125,-100.0021,-74.2815,195.7697,-108.1951,-122.7186,-34.6414,426.9505
-190.0909,-94.1974,-134.3600,-83.9807,24.1781,-4.1686,436.4601,203.3846,315.0452,246.5163,-161.7158,-93.2504,-93.7584,-58.6192,142.0837,-97.7721,-60.7798,46.8854,324.6331
-180.5869,-92.7796,-105.7178,-73.0691,77.3447,-1.6876,398.4102,158.0570,293.1304,216.3408,-131.1536,-87.9817,-87.8114,-39.3730,90.4309,-66.9012,-31.2940,118.8119,307.1034
-254.6735,-95.6458,-134.0514,-63.2426,39.9185,-81.5826,354.5995,83.6560,292.5633,212.9821,-159.5945,-90.8039,-138.9104,-41.2895,36.9620,-53.4310,-35.0389,66.4720,314.9013
-316.3994,-66.0741,-160.0058,-24.2224,-45.7259,-185.3332,285.9133,-34.9027,227.0520,151.8273,-203.5139,-80.2905,-212.8781,-57.2429,-8.5348,-69.9831,-21.5509,-36.5451,254.4830
-260.4280,-26.6693,-116.7318,21.9260,-67.7550,-155.2392,168.4400,-95.6465,145.7018,81.8293,-176.8247,-55.9230,-229.1484,-55.2767,-47.0436,-88.0903,44.4887,-29.6768,175.7385
-148.4713,-3.2705,-20.2176,57.7036,25.6479,-13.2452,47.4965,-94.6364,85.2880,29.1677,-78.0558,-24.0163,-177.6378,-16.5402,-133.6273,-61.1433,120.6599,93.3946,115.2303
-111.7995,27.8210,78.0437,119.9357,189.2742,64.8699,-45.8388,-137.1574,-6.7971,-76.0087,10.4640,16.9569,-146.0387,37.0889,-299.4370,-6.8572,185.0781,210.6299,17.5963
-124.8981,82.8374,159.3690,218.7892,301.9051,66.6383,-159.9144,-216.1057,-124.8226,-212.6936,46.3418,60.6259,-188.2454,67.5566,-462.2300,5.6293,278.8608,255.5980,-105.1157
-93.7691,128.3153,207.7178,288.3841,280.7905,88.7226,-282.9783,-247.8996,-194.1989,-274.6127,52.4436,87.6313,-246.5764,65.6565,-518.5885,-26.5003,376.7648,240.6921,-171.9189
-58.4414,128.0219,197.2964,281.4330,174.8080,105.5092,-328.3749,-231.6510,-187.8257,-240.0327,39.1522,86.0994,-268.5838,52.3036,-478.5208,-31.2553,397.0721,174.2317,-160.4099
-73.5908,91.0849,147.8971,230.2943,69.5444,71.5380,-300.7761,-190.5336,-134.3057,-158.0140,8.2853,67.2850,-272.5525,45.4188,-417.4700,17.0387,351.2890,71.9624,-104.2558
-72.1074,58.4407,106.3301,177.4725,-7.3601,24.5519,-270.7004,-129.0953,-82.8168,-79.3286,-5.2995,52.7620,-246.6632,42.4356,-354.3207,53.9826,288.9689,-5.3097,-53.6691
-28.8328,44.6355,67.9349,116.8717,-42.7072,-32.1678,-239.6906,-95.7980,-59.5931,-40.3762,13.8821,42.5235,-150.4480,31.7084,-258.0137,30.1391,179.9880,-14.8744,-35.8303
-31.9984,12.4096,-0.9913,28.4777,-43.2251,-110.8455,-175.7935,-110.5496,-11.6412,-1.2605,21.8400,13.0358,-37.9415,13.0817,-131.7083,-1.3494,24.1314,6.2225,8.7477
-104.6115,-57.0793,-84.1065,-66.0949,-60.9033,-153.5088,-72.3681,-112.0767,100.3429,95.3189,-16.3892,-37.7110,-9.9663,-1.2571,-26.4317,31.7569,-78.8328,0.6237,126.9936
-165.1469,-108.4889,-128.8834,-111.4904,-98.1763,-140.2513,50.7763,-90.0576,181.3904,171.7063,-70.7999,-72.7281,-56.4100,-5.9711,17.6777,94.9679,-81.9293,-25.5087,214.8151
-163.6307,-97.0423,-119.2200,-94.1816,-98.3390,-134.4750,113.9697,-102.3121,146.8627,135.1341,-86.6652,-68.3650,-81.2909,-5.3359,11.2995,109.7402,-52.6675,-27.0000,176.8388
-122.3884,-70.8641,-95.6736,-78.3050,-70.5633,-150.1286,67.1754,-128.8602,90.7190,80.0853,-52.7674,-51.3826,-40.7584,-1.0796,2.3344,86.9284,-61.2493,1.4371,115.5282
-89.3103,-91.0860,-107.5363,-122.1685,-63.4144,-137.1578,29.2306,-93.2907,133.5897,130.8855,-15.9698,-58.7715,34.2904,1.3110,42.0667,76.9562,-125.5036,24.4177,158.7702
-85.4535,-133.9102,-150.4052,-193.3990,-65.1613,-94.2705,113.9308,-13.0890,224.3463,220.5918,-18.8295,-86.6916,98.4206,-10.0758,143.0917,67.7671,-212.2124,27.2693,246.6393
-60.9701,-133.3607,-167.4158,-216.1057,-72.5122,-79.2384,199.5117,17.3847,225.2506,216.2559,-35.5492,-97.3768,128.7166,-30.9389,245.0515,32.6607,-246.0314,24.7473,238.9697
40.0204,-71.8557,-120.3624,-166.1533,-111.7710,-109.5016,129.3718,-19.1810,103.4580,114.1434,-11.3992,-65.6373,136.7892,-38.6316,262.7672,-11.1918,-191.4262,26.8438,110.6899
158.4325,4.6308,-28.7896,-79.6521,-115.3089,-111.9871,-23.9025,-35.9844,-41.7895,-2.2300,48.3671,-10.1514,139.4725,-22.2552,188.4562,-34.6117,-94.7581,38.2983,-41.5025
166.1517,40.1567,56.1695,-1.8088,4.8741,-39.5444,-122.6062,-2.9672,-109.7991,-82.4695,82.9560,26.0487,115.8372,5.0238,90.1653,-18.8566,-8.5168,56.5788,-121.3680
39.1082,21.5268,82.4833,34.9695,159.1622,12.4411,-170.1826,-0.5185,-87.6802,-109.9272,59.9846,21.5417,49.2413,22.0506,23.7455,29.5632,37.8060,55.2602,-104.8362
-101.2334,-31.9880,32.4219,5.4538,187.1466,-37.1277,-180.2388,-16.5412,12.1344,-39.8742,9.5302,-13.0918,-8.0629,19.2646,19.7716,69.5395,14.3798,23.8632,4.5831
-136.3015,-101.4444,-47.9664,-84.4071,100.1875,-92.1832,-82.0981,81.6332,177.9942,141.0677,-26.6477,-57.7944,2.2176,6.1171,99.9507,82.5032,-62.2569,-0.5187,183.1797
-84.9668,-149.7268,-95.9905,-167.4465,21.8924,-78.1145,98.3216,239.7455,298.7593,289.4965,-43.1714,-88.5029,52.3325,-5.3191,220.5399,87.9487,-125.8807,-3.1912,304.1211
-46.1461,-131.9888,-104.8017,-174.3840,-14.4741,-90.4261,186.7948,225.6158,241.3563,241.5870,-52.8735,-83.9487,79.2785,-16.2815,278.8669,81.1099,-153.2418,-29.6264,236.8481
-60.1677,-76.3646,-109.6797,-129.9352,-59.6558,-170.2341,125.9825,48.7039,87.3121,88.3780,-62.2165,-57.6912,67.0962,-27.5143,245.6146,60.6995,-168.2290,-103.3675,77.0621
-96.9926,-59.5042,-131.6054,-111.9785,-129.5467,-219.8318,90.3179,-48.7952,33.4812,43.8371,-84.7119,-48.8921,29.8800,-33.3895,202.4672,67.3006,-174.6323,-183.0019,26.6718
-113.6184,-78.9475,-160.8157,-131.5560,-190.0277,-209.8022,199.5527,-14.6193,78.2387,99.7415,-119.1026,-61.7978,-0.5080,-37.9219,209.0313,88.1545,-176.2515,-215.1820,75.4913
-83.5626,-74.6591,-173.1481,-144.1211,-205.0856,-190.5982,327.2959,16.3105,91.4987,116.2247,-122.2165,-64.1786,23.0375,-44.6168,224.1269,56.6934,-198.8801,-181.8651,87.1015
-51.4810,-46.8227,-160.9680,-130.0618,-162.3094,-173.7503,330.2917,4.2914,64.6345,82.6936,-85.8419,-47.8968,76.6586,-44.4260,189.4041,-9.2440,-232.2802,-126.8643,56.3972
-87.0508,-19.6739,-134.2531,-82.8837,-84.7301,-175.1416,238.9900,-30.7622,27.2825,24.0024,-70.0601,-28.7513,67.2442,-38.7151,115.9406,-44.7966,-218.9965,-115.9679,15.3068
-114.5287,25.2795,-78.1573,0.3659,-15.1105,-193.3856,119.0680,-91.4336,-62.8431,-88.6031,-73.2812,-3.2681,0.3111,-34.2315,50.0182,-57.1178,-124.7368,-114.8852,-79.3199
-13.3645,76.6019,20.5587,73.8517,33.8960,-145.6126,-12.4778,-117.9526,-167.6960,-189.6460,-21.6795,30.3819,-19.0565,-17.4482,3.7683,-59.3786,12.1407,-27.0326,-184.5889
108.7198,83.5017,103.2519,91.0459,84.7675,-26.8330,-102.7379,-69.5681,-176.8693,-183.8522,57.4518,47.0215,13.1805,12.0974,-35.7836,-34.8965,104.7711,101.2523,-188.0099
91.4172,62.5102,112.1085,83.2346,134.7159,37.3828,-123.5975,-27.5649,-124.3288,-138.9301,74.0118,42.5871,20.0567,24.6751,-69.0831,-21.1207,105.7012,128.8869,-132.9901
39.9087,65.6650,93.0810,88.1008,149.4993,21.4923,-154.6373,-37.6832,-121.1280,-143.5958,67.3104,46.9414,25.8702,20.7101,-94.4297,-45.1660,58.2212,77.2895,-133.8766
87.5857,72.5070,101.6727,79.0847,134.2646,18.7568,-234.1184,-37.5447,-137.6335,-139.4585,112.9258,60.6812,82.4426,30.8129,-113.5409,-48.8911,23.4173,74.7847,-150.5901
131.8602,54.9715,110.7962,53.2904,129.9589,41.8757,-280.4018,-5.0851,-105.2267,-90.2386,153.0685,59.7891,124.9872,45.6198,-120.5880,-25.3018,11.7605,108.5235,-113.0785
102.3975,58.4134,105.1371,66.9885,135.6234,57.7623,-259.2896,16.2286,-86.9256,-79.8664,133.7180,59.6794,99.0076,38.7038,-135.1498,-51.4258,18.3750,91.0183,-95.5371
89.1271,103.7376,107.6177,117.9387,122.4575,82.9838,-238.2752,-4.6431,-137.5452,-134.8095,116.9432,82.1928,72.5778,23.8141,-187.7507,-129.0909,24.1124,47.7680,-151.9874
84.0251,128.2005,84.3006,123.9126,99.3253,91.0696,-249.9127,-77.3879,-167.0104,-167.0441,126.2280,91.9572,101.3592,10.3202,-219.7782,-200.5032,-31.4062,37.2627,-180.2474
7.6442,98.7415,-1.5398,61.8719,79.9986,24.5697,-263.2139,-158.7350,-96.4921,-123.9305,101.0633,55.8971,138.8088,-24.0613,-138.7657,-272.6777,-152.2608,34.3718,-100.8372
-80.3167,71.7551,-86.2961,17.0934,38.3356,-73.9473,-259.6439,-174.5095,3.3225,-53.2140,36.3637,13.6974,119.8371,-73.4997,-17.9892,-368.0249,-223.8553,6.5844,7.6740
-94.5016,100.9150,-95.7297,62.4085,-33.6193,-116.2272,-239.3339,-137.2469,28.0246,-26.4349,-13.8537,17.3379,34.0462,-101.7902,-31.9032,-460.8948,-162.6264,-21.9654,39.4937
-47.7002,163.9160,-41.9547,160.7147,-83.7448,-87.9753,-197.4268,-89.2161,-17.2794,-50.2001,-23.3228,57.3393,-59.6640,-97.7088,-172.8220,-518.4591,-30.7203,-14.8411,-1.5998
39.5778,197.4758,30.6854,217.0313,-60.5708,-24.3594,-130.8298,23.8181,-42.7185,-53.2156,8.0219,90.3800,-76.8118,-71.9398,-264.7056,-513.7482,66.6207,42.9254,-31.5712
136.7763,174.7700,90.4060,197.5027,26.0718,46.6484,-57.3184,220.9694,11.4709,16.2539,61.3898,94.1580,-13.9420,-38.6067,-240.1011,-457.8312,96.8947,137.3917,12.5185
188.0655,138.4070,118.5725,159.7875,110.9884,115.8650,-28.4777,372.7721,98.8107,102.2271,101.2980,81.9803,47.0615,-20.8382,-190.3215,-433.2855,93.7111,224.6514,95.5851
207.6293,139.2575,126.2445,158.4462,125.7867,177.5012,-70.4829,378.0741,116.8950,115.2536,119.1443,81.0120,63.0156,-25.4050,-185.6159,-469.0266,96.8674,257.4925,116.7423
224.2877,157.8794,122.0654,167.5568,68.9205,200.5356,-106.2025,286.5377,53.4627,62.8920,121.8697,90.4340,59.2953,-30.5864,-200.1478,-469.2513,97.3356,221.5116,55.6737
198.5891,141.4210,89.6245,136.7779,16.6678,166.1054,-48.3407,202.6833,9.8343,28.6792,99.3725,81.1659,59.7274,-27.3891,-174.2291,-387.7778,58.8114,157.1890,10.1099
140.4257,95.1626,48.0184,78.5969,35.1957,109.1624,47.3571,192.9549,35.1580,41.2443,65.8663,50.9646,75.2224,-26.3915,-85.7585,-303.5817,-2.6494,127.0657,29.2569
115.1206,64.3034,37.4226,38.8612,100.9271,53.0082,70.1255,231.4072,56.8042,45.3483,56.6590,30.4919,111.2779,-26.0905,19.0555,-259.1378,-46.7189,128.1900,39.9964
108.1640,53.0965,34.4214,15.1886,138.2899,0.8673,51.0468,222.0824,28.1665,11.2041,61.6430,25.3509,152.0914,-22.3307,86.8942,-215.5886,-90.1863,105.3224,0.4926
90.7053,32.2917,1.6970,-27.3216,120.6113,2.6780,107.4403,155.6948,4.7109,-14.1023,49.8493,10.4532,181.6356,-24.8674,144.1375,-163.6656,-148.6147,72.7790,-26.8143
90.6017,-3.5730,-37.1859,-86.4635,88.8843,58.3852,231.9623,118.7540,29.4701,3.2610,22.3139,-22.4556,194.9021,-38.5441,246.8603,-126.6472,-178.8567,87.4507,0.3592
88.5419,-35.7907,-64.2350,-131.3798,62.3929,50.1242,294.3645,107.8656,64.4563,28.8518,-11.5940,-55.9498,183.7894,-55.5798,366.8639,-100.2064,-175.0963,106.2631,39.4163
55.7912,-47.0675,-98.6070,-151.6041,-3.5090,-57.3227,240.0395,48.1130,52.9978,24.1783,-40.3925,-68.5167,164.4329,-67.3064,420.7538,-72.7512,-196.8485,37.1584,31.4525
39.0295,-32.2990,-137.3632,-154.3602,-128.9289,-150.9866,154.2899,-45.1863,-9.1535,-3.8440,-48.8260,-54.4442,164.1987,-72.2393,393.2489,-56.4604,-253.7512,-102.7413,-28.9702
35.0123,-14.3013,-171.1404,-150.4130,-252.2835,-186.8111,119.0961,-116.5291,-51.6738,-15.3384,-59.1175,-40.9893,154.1073,-80.3051,350.7808,-66.0651,-290.2475,-209.7198,-67.0922
-5.0815,-24.7916,-202.2980,-154.2231,-312.0420,-214.7107,113.8636,-154.3679,-8.6925,26.0657,-90.4098,-55.2665,101.6346,-93.2627,335.0083,-84.2087,-274.6057,-219.0410,-9.7768
-22.6978,-46.4471,-198.0569,-155.1032,-312.1451,-234.8180,77.9318,-138.4899,58.4218,88.4645,-96.2434,-69.5724,54.5379,-88.0950,308.7473,-71.2714,-218.3380,-164.5960,72.6053
13.2082,-36.7278,-144.1421,-121.9519,-283.1394,-244.5421,-4.4552,-74.5496,42.8106,91.8391,-60.0792,-46.2675,47.0538,-58.6143,236.4199,-26.6006,-160.1231,-156.8450,55.1737
-10.4977,-14.8443,-110.0675,-74.2608,-252.9042,-275.1491,-89.4098,-35.1472,-8.9260,51.8516,-51.4242,-15.3817,28.4551,-37.9910,160.0891,8.8760,-143.2828,-246.2548,-9.1161
-97.4945,-26.6030,-129.2652,-64.0372,-247.7631,-298.9985,-123.3634,-35.5768,15.2856,66.2102,-85.4004,-19.4135,-19.9755,-39.4323,130.0587,24.6916,-148.9220,-322.6395,14.6717
-93.6789,-42.1884,-127.1739,-70.2556,-258.5809,-284.2012,-121.6282,-24.2863,62.1377,113.0891,-86.6551,-30.2379,-45.7372,-36.6524,116.3867,32.3428,-110.5825,-275.6987,72.7696
9.7800,-7.9074,-59.7213,-31.3979,-227.2576,-257.5437,-136.7097,-22.1194,7.6210,66.1910,-37.8243,-8.6701,-35.9767,-20.8460,75.9349,21.3360,-22.8386,-155.3237,21.1054
92.8364,50.6191,30.7632,37.7122,-117.6540,-198.0056,-144.9444,-71.4285,-128.9803,-87.2303,9.3133,25.4142,-21.5368,-4.4841,37.0329,12.3718,66.7071,-42.6900,-127.1129
157.6088,92.2075,114.4976,89.0515,7.8695,-79.9294,-121.8204,-135.8788,-269.2038,-251.5677,47.2354,50.3038,-2.9812,13.2370,26.9359,42.6190,143.3015,50.0974,-283.0829
247.9861,140.9591,180.2201,134.1396,37.6313,-1.9707,-162.7380,-205.6145,-411.3947,-387.3143,91.0574,82.6680,22.2507,25.1950,9.6621,56.3048,198.5897,82.0200,-435.6320
300.8416,209.0036,195.2169,185.2212,-34.3472,-32.1788,-289.7429,-323.5789,-547.4891,-504.2955,112.3500,119.4085,32.8739,10.6642,-21.8812,-13.9300,199.7808,23.9431,-574.7100
281.3313,245.9587,165.2737,203.2866,-81.7337,-78.4438,-324.2289,-437.6962,-613.7037,-578.1977,94.6733,127.4072,33.0580,-17.6911,-11.7040,-94.8644,158.4747,-22.4115,-641.6708
265.7017,225.6237,147.9572,173.0270,-35.5432,-68.5327,-201.4006,-433.3093,-583.1922,-569.8494,81.1468,106.7741,52.1069,-22.1836,38.5847,-89.9150,132.2377,37.5511,-613.1407
300.9416,180.5495,162.9703,128.4559,29.6768,-28.7807,-86.8273,-313.3271,-490.8882,-478.0076,106.4101,87.8884,90.8518,2.0169,57.1876,-32.1310,137.4944,147.5319,-519.0051
330.1756,137.5750,174.1980,91.4374,62.8699,27.5724,-26.1586,-191.1024,-384.9173,-362.1892,135.4682,74.7360,117.5590,26.4133,37.3404,12.6774,144.5982,226.2363,-406.4708
286.1691,101.1728,156.2259,65.3475,98.0071,78.2671,81.3267,-142.8254,-303.2661,-294.8596,118.1684,54.2473,104.9189,32.5878,25.5617,38.3039,136.5674,260.9180,-320.9320
188.4352,75.4155,122.0614,57.3418,124.6049,73.4745,178.1913,-140.7968,-244.8712,-260.8286,71.0175,35.0888,57.1225,29.3743,1.8718,52.3343,123.7553,247.7392,-259.9648
110.1238,55.0311,101.7320,62.7007,118.1114,44.0751,175.6494,-104.9348,-177.5368,-195.5376,43.6126,29.1127,3.8934,35.3851,-65.2450,67.9579,127.8997,205.2841,-185.9814
68.8112,35.1523,109.1466,73.3161,133.8125,56.0890,168.7875,-11.8985,-108.9360,-121.6493,34.9265,29.9446,-37.1152,51.4760,-131.3539,98.3418,155.7823,178.9041,-114.7151
34.5783,28.6818,125.0987,94.3775,169.0198,85.7642,189.5841,74.2190,-78.5498,-93.6866,18.9777,34.7341,-74.3709,61.3831,-166.8303,120.1289,186.3525,144.6014,-89.9429
23.5354,33.4086,122.7476,110.2698,109.9672,81.2060,131.1392,104.5247,-78.6877,-73.9242,2.9196,43.6411,-110.0348,58.9506,-183.4344,126.5222,202.4594,51.4579,-90.5239
56.3663,24.1323,97.4490,86.2393,-33.5107,39.0889,46.1607,97.3376,-74.2552,-28.0875,-6.4579,39.9616,-122.1907,49.2923,-139.4910,149.2434,199.1331,-43.9918,-77.8605
80.8171,4.4442,64.4271,35.9831,-91.8510,-17.9957,70.5864,70.4250,-70.6261,-15.6455,-18.0920,18.8497,-92.4521,35.1270,-27.8757,168.6683,159.5061,-53.6777,-72.7123
60.3421,2.4503,46.4300,12.5883,-18.1942,-41.8983,136.4612,26.4445,-87.7920,-64.3148,-18.8335,6.7656,-39.7817,24.8873,36.6399,144.6256,94.2250,-5.8726,-98.6705
47.5892,14.1389,51.8029,19.8388,45.6134,-11.2808,130.8225,-8.2594,-116.2388,-112.4997,-3.7194,12.5806,-7.5717,24.3454,27.6472,117.8808,62.9496,16.6318,-133.7017
88.9463,20.1119,60.5274,17.4629,10.7286,10.8369,99.7122,-20.1184,-143.1827,-126.9612,4.0756,15.3888,-0.3844,20.9647,59.5703,123.7388,77.2632,4.7978,-160.7769
151.2398,28.0607,60.1210,3.6671,-41.2614,3.1775,106.6159,-27.3422,-166.1995,-131.8701,16.6214,16.9040,27.6049,15.0253,103.6093,115.5122,71.9189,12.5375,-183.0456
175.4068,34.0180,65.5117,-1.7175,3.4803,47.0007,160.3815,-3.0722,-155.1670,-120.4021,57.4152,28.3553,89.1233,28.5365,42.9070,88.3817,24.0849,69.1932,-174.3704
150.4659,0.3667,73.9007,-24.3155,122.3747,146.8700,263.1284,121.3174,-62.6622,-44.0843,84.0067,23.1033,136.4501,53.4285,-7.9631,105.8180,-17.4759,132.3767,-88.1118
113.2700,-71.9446,58.9120,-82.7466,177.0338,197.1037,348.9830,315.9628,95.6992,104.2714,56.6815,-15.0736,134.1364,57.4188,87.5228,159.2905,-26.0103,135.7271,66.7740
64.6837,-126.0870,15.5297,-125.8712,105.5728,155.5669,339.9156,425.5864,232.0834,251.2388,5.9340,-49.4695,80.6145,43.6964,160.5580,181.3163,-20.0301,70.8390,213.3947
-41.4387,-142.4223,-48.9291,-126.2756,-12.3326,54.1456,282.2533,366.9952,293.8116,325.4294,-43.9863,-59.4900,-3.4371,33.7650,75.1736,176.1080,-36.3852,-32.3528,294.9900
-169.2950,-159.3945,-128.1257,-141.9925,-106.0236,-76.1607,241.6778,252.6563,310.8508,346.1230,-94.1889,-70.4880,-52.7204,24.1541,17.8555,194.2525,-108.5157,-161.0031,323.0898
-217.0068,-185.3915,-187.6522,-192.5498,-173.6723,-175.7153,199.5591,215.0986,314.6377,360.5736,-121.3766,-87.4077,-29.1175,10.4794,104.5362,228.3686,-202.1874,-281.1439,323.2038
-200.8656,-189.2834,-200.1086,-213.0509,-205.5645,-198.2052,161.9949,230.3022,304.6539,361.6819,-123.5225,-90.2320,-1.9279,1.0419,177.6118,230.9484,-237.1432,-337.9270,307.0295
-199.3128,-176.4606,-194.1041,-196.8244,-199.5204,-170.3437,165.5976,232.0062,296.1893,348.5938,-126.4000,-84.9681,-10.3553,-4.5178,167.7699,201.0640,-226.1817,-336.3994,297.2691
-170.2231,-179.5170,-191.1390,-212.3562,-178.5585,-110.6411,184.5097,232.9081,301.9779,350.8347,-105.0255,-87.3628,29.0731,-4.5632,183.8852,186.2358,-245.9948,-294.5608,302.3901
-76.7482,-191.6037,-168.7180,-255.3782,-127.3681,-33.1605,183.2295,217.9799,295.4033,342.6675,-40.0422,-94.1369,128.6280,5.8069,240.8644,196.0326,-272.1203,-171.4549,296.1479
-14.7540,-178.6112,-129.7837,-252.6882,-48.3622,-20.0945,149.8421,120.4792,250.0658,272.2179,7.9378,-97.1255,167.2370,11.2939,255.0599,180.6974,-232.6153,2.0137,257.9880
-10.4122,-127.6169,-94.9748,-187.5017,-22.7940,-84.8327,52.1935,-24.4261,157.3427,156.7242,14.5885,-80.8029,119.3637,4.4708,198.1606,127.4175,-152.1299,80.8016,173.9804
34.4051,-54.9218,-43.0008,-99.8119,-63.5565,-105.1807,-95.5356,-108.6425,21.3970,41.3651,39.6123,-32.2133,82.9165,9.5221,90.0932,91.6958,-79.8540,37.4818,36.9900
111.2875,2.8068,27.1857,-29.2000,-70.9890,-55.0446,-210.0201,-128.2684,-101.6421,-52.8002,89.4504,18.4509,84.5020,31.1890,-12.0107,97.5597,-17.0521,5.7809,-93.6994
125.9133,20.5774,59.4085,-3.8592,-25.5676,-49.2463,-257.4841,-154.1653,-151.4426,-108.2459,110.6145,32.3458,90.0924,41.3026,-38.4436,106.1610,7.9646,28.9115,-147.5901
101.7527,21.1214,44.4759,-10.8015,-9.1760,-101.4236,-263.0242,-195.1260,-161.1961,-129.8946,106.3295,27.6626,102.3215,35.9710,-22.9597,95.2603,-22.6996,34.6073,-158.2126
108.8265,31.2573,36.7894,-5.7834,-40.5495,-123.5239,-242.3250,-203.4612,-168.8980,-127.3329,108.4333,34.8848,104.5286,36.3937,-55.5755,81.2932,-34.2652,26.1889,-163.9806
118.8337,29.7167,47.1936,11.2741,-75.2244,-109.4332,-220.1627,-140.0975,-122.0763,-64.2278,105.7184,39.9274,62.6045,45.1750,-123.8672,80.4651,16.1999,37.3390,-108.1567
78.3603,0.9800,43.1772,13.7968,-92.1854,-101.2231,-205.5739,-19.9523,-15.8944,51.1232,81.5227,31.4727,1.9306,53.5380,-171.9357,99.5285,56.9523,12.2580,5.9702
-3.1082,-27.1258,21.7241,11.6719,-89.6653,-104.0712,-154.3119,77.7195,60.7686,128.2790,41.5986,24.1004,-45.8503,59.5647,-206.5767,132.3685,48.7351,-68.4314,79.9867
-69.6148,-43.0137,-0.0479,10.1197,-77.8263,-119.5318,-54.8677,115.1266,97.8028,155.3165,1.0033,14.9247,-83.4343,59.6889,-221.3286,153.5856,40.1144,-104.5700,113.9687
-67.1012,-55.4451,-5.7422,-2.4138,-59.7231,-123.9861,47.3301,151.6354,144.1508,188.6210,-15.9879,-1.7982,-94.8980,53.3936,-188.0972,140.2949,58.3882,-35.9897,163.8731
-20.5485,-46.3040,22.2002,7.8075,-10.1801,-68.6247,113.4319,188.4990,156.2584,184.9183,-7.2602,-5.3581,-91.1644,48.5010,-162.0476,99.5773,105.1117,69.5180,176.3924
-14.1559,-12.1422,66.6422,64.6670,43.1772,9.1020,86.4502,129.8803,95.9386,102.9254,-2.8652,9.6969,-133.2221,48.2995,-214.1511,70.3545,186.0961,122.8479,116.4681
-43.6893,12.4250,85.5109,112.4739,25.8614,15.4377,-55.6127,-3.7586,27.6856,28.8491,-4.0374,23.3239,-195.9987,49.8885,-292.7054,75.9602,249.9726,102.6014,57.8107
-30.6351,27.3684,81.8458,117.2460,-28.1800,-48.4423,-186.3918,-71.0817,-23.5280,-4.4118,11.5096,35.0412,-184.3203,48.5492,-297.4692,78.1027,232.9810,47.2454,8.6435
13.2185,55.1857,84.1240,117.4054,-34.7630,-112.9331,-204.3703,-60.9300,-92.7545,-62.7147,24.8028,50.5111,-123.8948,39.3282,-229.2437,49.9575,178.6416,-0.5276,-76.9038
21.2615,68.8456,82.9429,120.6346,-41.5785,-148.7397,-205.0909,-80.4424,-142.3232,-114.3583,11.2428,52.3508,-117.3614,27.6416,-165.9592,45.1830,169.2667,-35.9928,-135.4409
10.7521,51.2095,65.8138,105.2747,-104.7973,-149.1150,-257.5983,-130.6164,-123.5491,-90.2131,-7.0536,36.5179,-155.6306,19.3265,-141.0603,67.5104,196.5853,-53.3304,-104.3978
11.0559,44.1386,46.5074,94.3878,-137.8051,-108.8072,-276.9679,-138.8133,-69.8562,-42.4745,-15.1688,22.3646,-169.0606,0.5854,-122.9126,8.8487,202.9791,-23.6558,-38.8601
-33.7461,51.4944,15.0610,96.1577,-91.2341,-59.7916,-242.7707,-117.5895,-0.3217,-11.3716,-34.9808,9.2066,-161.3458,-34.0147,-97.1210,-135.5027,159.2238,19.4753,32.0367
-144.7910,27.0722,-47.3354,71.4787,-56.7207,-49.7199,-220.0353,-101.4652,100.8755,54.9598,-71.3977,-14.4582,-161.7370,-59.2618,-84.6825,-217.1777,72.4313,-7.2197,135.1895
-215.0017,-14.8804,-101.9040,26.6928,-84.8837,-89.3931,-192.1944,-46.8664,195.1129,153.3548,-96.8591,-34.5015,-158.3547,-61.5476,-75.2088,-199.9191,-1.4750,-74.3877,232.0697
-158.4172,-24.7347,-98.8078,6.3609,-116.9855,-134.0542,-124.9449,77.3543,241.6802,226.3645,-88.3295,-35.1054,-133.0342,-55.4320,-43.6544,-191.8176,-5.6744,-63.4812,276.6295
-56.3509,-16.9329,-62.5365,3.5084,-96.4255,-111.3625,-36.6672,213.1162,267.5723,268.7221,-54.9544,-27.1948,-87.0594,-46.9182,-17.3164,-214.4257,17.6450,21.6170,297.4313
-43.6469,-28.2311,-53.4151,-11.4636,-23.9317,-22.9710,75.8620,300.5722,302.0800,295.2359,-37.1128,-27.0438,-38.9159,-35.9917,-20.7766,-214.7610,-15.8504,62.5152,322.0550
-116.1487,-52.7077,-83.9740,-35.7011,37.2059,21.4691,181.2724,346.0944,346.4001,320.2797,-55.8214,-36.9160,-15.1952,-33.9571,-21.5154,-204.3277,-92.9020,25.6119,355.3986
-167.3224,-73.5903,-121.6311,-60.0604,18.0325,-30.8031,189.5230,364.2374,392.4537,366.5550,-76.4100,-48.4944,-14.7688,-38.8873,-9.3785,-200.3331,-144.5271,-25.1356,402.0291
-161.9556,-80.6617,-139.8347,-75.9973,-47.6923,-85.8309,115.4050,338.8706,400.5318,394.4781,-70.1268,-49.8851,-10.3754,-39.1284,-11.8011,-189.5442,-163.2230,-61.1372,417.6857
-149.2658,-67.1943,-140.1351,-71.4972,-74.4471,-75.5623,56.9240,276.4554,350.8275,350.5584,-61.9372,-42.4204,-0.0017,-43.4612,-6.4228,-192.6224,-173.1055,-92.6493,367.0495
-155.3056,-56.0257,-136.6886,-62.9715,-54.7465,-50.5616,32.8091,226.0731,310.9201,293.6662,-72.5356,-44.8414,-4.3519,-57.3066,40.9198,-211.7553,-166.2137,-96.9792,322.7037
-170.5798,-67.9228,-133.7745,-67.4439,-25.9877,-46.5246,31.3619,207.7673,326.5133,289.4584,-87.9609,-61.0327,-28.6712,-64.1275,83.8775,-206.1052,-133.1863,-55.1550,341.9178
-195.5815,-68.3880,-128.6723,-51.7551,-15.9607,-50.9690,54.1907,174.7063,327.6400,278.6344,-105.1668,-65.8568,-74.9131,-62.7726,54.9496,-194.7531,-87.6141,-24.1901,349.2606
-228.6194,-25.4379,-123.3373,9.2459,-51.2449,-79.8692,50.4830,89.4527,254.9196,204.8360,-130.0626,-43.7959,-142.5729,-67.5993,-39.5049,-223.1292,-44.1275,-65.3800,278.8062
-240.2514,27.4489,-110.9752,72.3225,-84.7781,-115.4905,15.6683,-0.7773,157.4281,111.3688,-139.1752,-13.8981,-185.6020,-71.4726,-127.8049,-259.2763,-14.4292,-112.3047,180.0413
-203.1247,49.6255,-77.4831,90.0311,-20.7257,-80.4671,25.1191,-27.1941,97.0377,41.8851,-106.7699,1.0327,-148.4095,-61.5159,-143.9868,-263.1520,-9.5989,-56.9223,111.9849
-159.4273,43.3120,-43.7892,71.6444,96.0976,3.7315,46.7849,-14.4847,75.6200,1.7962,-58.1027,1.4966,-67.3237,-46.2063,-108.1143,-243.0779,-33.8888,32.8283,79.3838
-201.9670,17.8017,-59.1455,43.1969,133.3463,17.7560,13.4369,-30.8448,84.8451,2.3443,-53.3816,-7.2575,-38.0304,-38.9678,-89.4418,-198.4510,-87.6486,-3.4139,83.5107
-312.3864,-21.3081,-121.1795,6.6376,96.0344,-40.5841,21.9615,-45.9967,127.4474,42.4189,-104.9765,-28.1663,-64.3022,-45.1773,-64.3956,-144.5951,-157.4989,-132.1174,124.5509
-332.9708,-51.1753,-165.6867,-39.8023,50.4642,-65.7688,111.3884,5.0958,176.1591,97.2443,-141.4626,-50.2549,-55.8825,-59.0116,25.6045,-126.8147,-209.6642,-190.6009,169.2809
-223.1725,-59.0388,-162.6711,-79.5167,-21.3134,-52.2091,114.5948,69.2182,194.5954,152.4225,-107.0751,-52.2103,5.6558,-59.3490,96.0666,-125.7992,-224.7621,-169.7871,189.9099
-144.0167,-64.8823,-149.0785,-96.2098,-99.1587,-67.2828,10.4049,79.9320,205.1732,207.2103,-54.7531,-41.7489,37.7710,-39.8477,54.0287,-93.5653,-215.9655,-158.7425,212.8501
-168.0032,-80.8541,-149.5776,-96.4967,-103.6638,-91.3949,-7.0627,95.8643,245.1015,252.5266,-53.8632,-44.3292,12.2739,-26.2077,-1.5055,-62.0594,-197.5924,-151.8466,260.9415
-182.4115,-88.8456,-145.5304,-94.7695,-67.2002,-69.2981,75.9413,150.8534,274.0656,268.4480,-73.8135,-52.2759,-5.7942,-28.0541,17.7658,-61.5037,-178.8127,-130.4356,286.1003
-137.4185,-82.2227,-128.5346,-93.9643,-68.6908,-10.5155,113.4293,180.7064,256.0450,262.9126,-54.8619,-42.4393,18.7137,-20.0862,10.1567,-51.6686,-176.4328,-124.1398,263.4078
-92.7924,-79.9499,-105.7278,-91.6234,-61.0486,67.5282,134.5704,203.9356,256.1054,282.7801,-7.0485,-24.6982,54.8862,6.7147,-86.1458,-28.6584,-179.9872,-88.1084,265.6920
-58.6149,-77.7608,-63.7683,-73.9469,21.5348,159.7231,212.9525,272.9979,286.7581,307.6755,32.2368,-13.4210,71.7813,32.3156,-177.9770,-30.2603,-144.1469,24.7333,297.5602
-24.7599,-45.2785,0.1717,-20.3925,116.8333,212.1545,228.1569,280.7250,228.8097,231.1875,52.6313,6.0229,58.2867,44.6495,-218.7877,-39.1909,-65.4034,108.0494,232.5359
-17.4260,9.1307,47.2426,47.8712,137.9410,183.2713,94.1990,148.3176,73.7677,67.7346,58.7345,35.5266,24.1936,45.0665,-245.9767,-33.5097,-1.6536,76.6820,69.9504
-12.9307,44.2693,61.8933,83.3435,107.0146,129.2220,-64.7580,9.9359,-30.2313,-34.0130,68.1871,52.8176,5.6403,40.0748,-264.7909,-39.4007,24.1803,41.1085,-31.5734
32.0559,62.3906,90.1194,99.3562,112.7791,116.9491,-155.9644,-53.5252,-74.9062,-77.2757,100.9330,61.9638,15.1485,44.9957,-281.1257,-46.9330,60.0378,99.0889,-70.1754
76.2288,92.0123,152.0866,140.0085,182.9767,132.1981,-225.5825,-131.4609,-176.0390,-188.4871,138.7875,81.7255,18.1694,63.4489,-315.0588,-14.5675,127.7374,170.9216,-174.6089
60.1823,115.1171,187.8046,178.9506,241.9891,135.3528,-262.2413,-221.7925,-278.3437,-307.9546,139.4044,95.8406,-5.2238,73.7387,-337.9618,30.1631,171.3710,168.8861,-285.0987
-6.9772,104.3626,148.4705,171.2671,212.8507,110.0630,-204.4510,-239.9377,-257.0748,-293.9701,95.4836,84.6173,-39.6171,62.1358,-336.0157,30.3360,144.5036,109.9533,-263.2365
-77.9284,83.5835,71.0027,141.3441,104.0568,37.4207,-133.3846,-233.0349,-181.3935,-206.7208,41.1623,66.5845,-73.0329,41.2109,-338.1615,1.8832,80.9934,20.2743,-178.4485
-107.3045,76.4255,12.2390,118.5733,-36.8552,-88.2748,-170.3749,-271.0370,-165.2120,-163.2259,4.8400,57.9345,-99.1078,22.9792,-315.5718,-2.8511,38.5229,-88.0174,-153.1171
-97.7622,69.8040,-22.5779,94.0844,-163.0146,-217.2397,-253.3653,-316.0223,-174.0271,-144.8173,-18.0579,47.5231,-116.4982,6.7094,-244.2746,13.5806,27.8856,-166.0321,-153.9333
-100.9946,63.0856,-44.4602,81.5067,-221.6510,-271.9603,-260.9034,-337.1701,-157.0492,-121.4531,-37.6114,36.2365,-138.1124,-4.8117,-213.6994,8.4801,32.9678,-177.0202,-129.1361
-109.2178,63.7072,-38.3578,94.0313,-203.2261,-217.7486,-210.3201,-313.2512,-129.0640,-99.0386,-37.8793,38.1675,-155.1282,-0.4487,-267.0237,-7.7670,52.6932,-143.8478,-97.6555
-64.7497,45.0405,3.6833,90.3675,-148.6388,-97.8539,-150.7062,-196.8810,-91.0188,-51.2640,-7.4878,43.0582,-138.3284,27.4565,-298.5262,47.3651,90.2020,-97.9233,-63.8984
-2.7052,-6.7723,54.2016,47.8904,-79.8345,-2.2373,-85.9561,-65.3431,-62.8519,-5.2605,28.0035,34.5107,-98.9059,71.7149,-253.4536,213.0124,126.7849,-61.2799,-45.9404
2.1976,-50.8235,82.3209,8.1861,-16.1964,9.3357,-81.1457,-66.2266,-103.5446,-40.2471,47.1380,25.7793,-67.5603,110.7045,-204.5449,401.2401,129.1233,-78.0874,-98.7132
-32.0556,-58.2340,84.3868,-1.8964,12.4867,-38.7828,-167.4550,-152.7529,-183.7334,-121.4061,56.2723,30.7015,-43.7164,126.7185,-189.4976,495.3218,90.9743,-150.8118,-189.4280
-73.2026,-57.6574,77.7559,1.4535,50.5409,-64.5104,-209.2299,-168.0075,-190.9679,-142.1240,53.5046,31.7216,-35.7246,125.1444,-189.1188,488.1031,60.5169,-176.9208,-201.8432
-123.0069,-75.9631,79.8567,2.9383,146.9633,-26.9134,-135.3912,-111.1083,-114.2329,-100.9806,40.1263,16.0579,-54.0122,125.1978,-202.4297,461.8146,74.6925,-96.9043,-123.5970
-136.3469,-92.4759,82.0481,-8.9935,206.6963,6.2539,-84.5878,-84.0144,-71.7986,-78.3328,40.8908,3.4690,-47.1988,127.3569,-191.7452,459.2032,76.1840,-33.8215,-80.4095
-95.5450,-80.2239,54.1419,-37.2845,134.8744,-43.1095,-134.0686,-132.0033,-124.7003,-113.2195,47.3803,5.0121,11.8957,107.5182,-97.5569,433.5802,3.1216,-100.8386,-139.7379
-76.7027,-52.5315,2.9539,-54.3540,16.4587,-117.1438,-202.7098,-233.0907,-190.1411,-167.5642,23.9355,2.7014,40.0970,62.6048,20.7090,351.8940,-69.5359,-199.0207,-207.8621
-91.7737,-35.4314,-14.8872,-36.2532,-43.4602,-113.9517,-264.3060,-306.3721,-196.1738,-181.5840,-3.9962,-2.8723,-8.8655,33.6843,36.8527,281.9390,-40.4057,-213.7254,-203.4252
-69.7548,-19.7238,16.1765,0.9903,-65.0018,-80.0469,-329.9702,-285.6523,-199.1828,-170.1338,8.4159,13.6158,-48.1040,43.0260,-37.1125,276.7589,26.0440,-214.0093,-200.0139
-29.7088,7.0741,29.7443,19.8560,-85.1554,-116.7510,-325.0023,-226.2294,-234.9725,-181.8417,25.3957,38.5413,-18.9512,48.8514,-59.6994,259.6268,5.2078,-260.0187,-246.2617
-33.8714,9.6805,-21.1250,-11.9767,-108.9072,-180.1421,-216.4108,-193.7064,-202.8570,-158.5285,-2.2652,23.7354,22.8960,16.3130,38.2811,172.4622,-80.4459,-267.4295,-220.3301
-53.2426,-38.6997,-91.3218,-86.6477,-141.5116,-170.2920,-75.0063,-135.7404,-55.3185,-32.2863,-48.0711,-29.3459,31.9264,-22.6182,178.8127,101.0564,-130.4047,-203.1260,-61.2480
-52.5977,-93.5383,-116.2621,-142.8441,-141.2094,-93.5272,55.0019,-15.7152,85.1769,101.1189,-72.1895,-68.1395,26.8414,-31.0069,258.4484,106.5720,-126.1045,-143.9736,86.9128
-48.4112,-109.3966,-94.4207,-144.8102,-70.3183,-10.5087,159.3866,94.1536,130.8137,136.2278,-74.1011,-72.8492,28.1595,-20.7241,266.0792,125.2717,-104.0809,-104.6915,124.8889
-25.2687,-100.4666,-63.7567,-129.7220,-4.1297,28.0439,205.2522,130.5759,120.4478,115.9259,-57.1393,-65.3906,42.5933,-10.9496,251.5821,122.5784,-82.7061,-46.8788,108.5665
40.5475,-79.8965,-40.2529,-120.2855,-20.3597,-10.4930,195.3193,94.4753,70.9382,81.2975,-24.0821,-52.0407,66.1965,-0.6550,227.8286,127.5053,-62.0660,9.2591,62.3454
106.1211,-45.6481,-17.0357,-94.8242,-71.6443,-67.3928,156.6203,29.8218,-3.8262,30.2150,5.5874,-29.9066,72.1301,8.2638,175.8786,126.6345,-30.9914,36.2919,-7.0622
108.8848,-39.2563,-7.1547,-76.8625,-90.5950,-44.8100,112.1773,25.2626,1.3474,42.2390,11.6559,-22.7023,48.1224,12.0366,125.0864,118.7556,-0.3509,35.3708,4.4786
44.4028,-91.5809,-32.1075,-111.6456,-78.7439,19.7231,110.9949,104.2903,114.5675,150.7125,-7.1452,-45.8712,27.7062,16.9751,126.3777,156.5381,-16.8334,-0.7401,122.5250
-10.4345,-137.4257,-60.6684,-156.0237,-54.6574,29.8924,137.2193,137.7682,180.1544,210.0739,-17.8500,-66.6899,40.8760,25.0708,148.6697,213.1557,-66.1749,-28.3359,187.2781
24.2235,-105.4395,-36.9685,-132.4153,-34.6485,17.1135,80.8638,20.7723,94.6173,117.9423,15.2967,-51.5179,61.6457,29.1780,113.2440,196.9518,-51.8932,32.7498,104.2840
89.0870,-31.3863,18.6141,-54.4612,-28.3033,38.5704,-41.6064,-170.7148,-47.8509,-37.4984,53.1292,-20.6818,37.0133,23.0216,33.1255,121.1317,43.3131,137.5113,-27.8153
55.4309,12.9138,34.7047,7.8515,-9.0321,49.8189,-74.6575,-308.9134,-132.3239,-154.3057,25.1611,-11.9111,-33.8573,3.7112,0.4766,64.2515,113.3377,161.8129,-108.8768
-45.9966,19.7459,7.5954,26.1067,39.2575,26.0821,-4.7804,-353.4736,-151.8212,-214.2044,-37.0765,-22.0641,-80.4365,-18.6329,32.4649,36.5748,96.1575,113.8140,-138.2412
-80.0603,12.4980,-9.5568,13.0971,77.8815,8.1558,43.3751,-318.5324,-137.0720,-209.8067,-45.7321,-25.1499,-53.7059,-20.5688,53.0960,30.2989,39.9271,88.2047,-133.2618
-31.1625,0.2326,2.5287,-9.0578,77.5867,-4.1622,28.6678,-235.7483,-111.2750,-155.9382,-0.7979,-15.2998,5.9426,2.9369,29.2268,64.6607,5.8715,92.6611,-110.0135
32.8796,-3.2756,32.4489,-13.9020,66.4396,-23.2876,-19.7766,-156.9826,-105.7244,-117.6918,42.9551,-0.4368,41.7198,27.8450,2.4858,108.2253,14.1804,95.8597,-105.7289
76.7397,10.8209,68.3651,6.6688,87.4157,-10.8082,-66.0601,-112.7206,-121.1578,-125.6658,66.6437,12.9479,49.1845,35.7941,-6.1523,103.0275,49.8272,116.6878,-124.2546
75.5246,19.8687,89.7553,29.8518,138.0111,47.1933,-56.6063,-77.1036,-108.5119,-128.8162,66.7082,16.1027,34.5789,33.3150,-18.8985,68.0933,83.0883,153.0581,-113.5987
48.0268,8.4896,93.7744,39.2225,158.8467,110.8068,-18.7908,-13.9622,-54.7799,-82.2130,51.3177,11.8932,-0.3056,35.1749,-48.9357,63.1944,111.3919,155.4542,-58.1486
57.5783,-3.5697,104.3449,43.0223,127.5984,151.1855,-24.8377,60.5429,-13.5972,-20.2883,52.7374,15.8102,-25.8593,47.2298,-89.5714,92.5500,144.2589,127.3949,-13.2565
75.6457,-10.7594,117.1140,42.3889,126.4613,167.0379,-12.1476,104.4343,6.9297,11.9602,65.6606,19.4388,-25.7848,60.7737,-121.4400,117.4944,161.0915,140.9738,9.2581
39.1875,-30.8809,108.9212,28.3012,190.0904,174.4953,60.3845,111.9909,54.6491,33.2646,56.2504,2.1854,-28.5212,61.9978,-117.9907,117.6551,156.8479,209.9202,59.5582
9.0553,-48.5254,90.9528,11.2024,199.5717,186.6928,43.5516,84.2684,91.7118,52.0703,41.1604,-17.3245,-41.2608,49.7581,-80.2941,103.3693,155.4461,232.6684,103.0284
27.5307,-37.1790,69.3263,3.1090,96.3604,174.3987,-85.4155,1.7680,43.0860,25.0832,39.2936,-13.8569,-36.6045,31.6202,-35.9826,89.9966,132.4032,139.0273,57.5517
7.5319,-19.9048,25.1930,-6.6312,9.4253,113.4571,-114.7787,-99.3223,-27.5134,-33.4947,17.3098,-9.3662,-22.5490,11.1016,2.8765,75.3726,61.0255,23.0875,-18.0482
-58.4748,-16.6484,-12.9051,-10.1867,21.1606,46.9724,-26.4219,-148.0490,-37.4255,-65.5166,-21.4991,-18.3316,-32.0883,-3.9659,18.6562,51.6783,12.7414,2.3284,-32.3433
-72.7775,2.5995,2.2637,23.0794,48.0641,18.3372,-22.2898,-167.3825,-57.8306,-97.7474,-27.8822,-10.4450,-62.6765,-3.4736,-22.7831,30.6456,48.5130,31.2772,-51.7180
-49.1812,35.8338,37.9935,71.8819,34.6291,27.7952,-92.9305,-201.5070,-122.0180,-152.1315,-16.1955,13.4423,-95.0175,3.4917,-86.3996,27.9785,108.6067,18.8891,-115.2395
-54.7038,33.7931,41.9140,78.8648,26.5947,72.7124,-79.4736,-185.5921,-116.3541,-146.7675,-30.3137,11.8903,-120.6317,0.7231,-82.7918,33.7327,133.6846,0.3341,-109.9619
-53.9755,5.8059,34.5786,52.7163,40.9141,111.7040,-20.0865,-88.3175,-37.7663,-73.2357,-44.9441,-7.2817,-121.4776,-5.2034,-23.3164,31.0863,137.0665,19.8570,-31.5989
-27.9483,3.6168,37.7862,43.8964,36.7253,72.8269,-27.0376,-5.0302,-14.0370,-34.4706,-32.0356,-2.4806,-92.0509,-1.3389,-5.1256,25.2584,115.2341,4.8146,-12.7930
-33.8850,17.3678,23.2738,49.9330,-12.8462,-14.2098,-58.3458,28.0625,-34.4973,-28.0278,-29.9564,16.2764,-73.8685,2.5766,-34.2356,24.2222,63.1503,-95.2638,-40.6364
-57.2186,16.6575,-6.1744,47.2658,-88.2338,-51.4797,-43.5363,61.3611,-18.8501,7.5695,-58.0321,18.6067,-94.4836,-5.7379,-36.8582,19.5285,36.8778,-193.8238,-26.2965
-23.6855,20.6723,-7.3941,45.0421,-135.8977,-30.2931,-10.1077,69.7618,-20.6401,15.3049,-69.1551,15.2855,-107.4676,-15.7645,-2.8777,8.5783,60.9676,-193.7691,-25.7076
46.4737,37.2421,11.5916,41.8483,-135.7925,1.6281,-7.5671,19.9223,-74.0131,-36.5706,-42.1886,19.1436,-70.0349,-18.6540,34.6179,-3.4738,71.2578,-133.2654,-79.5736
50.4878,36.2227,-8.0360,20.2021,-142.0642,13.2198,-30.7364,-24.4654,-83.4025,-50.7318,-33.9421,13.6585,-30.9006,-29.8814,75.2915,-29.2777,21.2088,-137.1169,-89.8366
-48.5511,13.1630,-80.3157,-9.3479,-186.7484,-35.4130,-20.2255,-30.7480,-18.2672,4.0719,-85.6796,-7.3739,-48.4436,-55.4655,109.0971,-66.3069,-60.7577,-235.3960,-22.9976
-149.1208,-13.0535,-143.0910,-36.3603,-211.2858,-120.5368,47.3561,-42.3340,36.0537,47.8245,-135.6153,-27.2500,-72.6303,-66.1912,112.6944,-60.7058,-127.0078,-300.6282,33.2745
-133.6145,-34.2559,-142.3924,-71.2533,-177.9670,-146.4199,73.4501,-84.5508,26.0482,37.1745,-106.4381,-35.1312,-24.3672,-46.3504,117.0622,5.9714,-156.5599,-241.4360,24.5661
-54.1680,-38.2118,-115.1363,-100.0204,-155.5126,-138.1183,-34.6026,-178.0277,-33.1223,-16.5599,-42.0476,-35.2102,50.7734,-31.4638,157.5042,52.4935,-163.2927,-160.1470,-31.1943
-54.8200,-23.0420,-127.8438,-96.0733,-211.9050,-198.4014,-193.4746,-309.1323,-85.8626,-69.1969,-41.5428,-36.3773,41.2580,-49.2862,189.2099,27.1247,-162.2240,-187.1075,-75.3775
-125.1974,-11.9031,-158.3118,-67.3896,-293.6320,-268.5722,-256.1423,-359.9653,-84.2169,-66.6908,-95.8776,-37.9378,-47.3605,-70.4345,164.5606,-3.7719,-135.7822,-281.1017,-65.1819
-142.5059,-8.4088,-141.0243,-37.9010,-288.1504,-245.8897,-207.4144,-274.2849,-66.2498,-43.3706,-117.7680,-29.1667,-96.5706,-63.3087,123.4842,10.3610,-89.6659,-317.6262,-51.7159
-96.6282,-7.2620,-96.1186,-33.1836,-189.2353,-188.9934,-133.2204,-165.8107,-68.0120,-47.3895,-82.3312,-16.8531,-46.3660,-40.2710,117.5907,34.7824,-85.9666,-260.6815,-68.1004
-69.3305,-37.5510,-91.4109,-78.3756,-114.1000,-157.1805,-93.4871,-100.8928,-15.0098,2.5342,-36.2823,-25.2316,38.0429,-20.3504,130.3319,60.9777,-142.8013,-183.4184,-18.3657
-86.4566,-96.4687,-123.2581,-142.4740,-122.3059,-114.4764,-74.4176,-24.0983,107.7194,135.7934,-22.5658,-49.1973,72.0106,-7.3172,131.4331,103.7219,-196.3530,-174.1800,113.3205
-105.7381,-114.3293,-138.3870,-155.2748,-135.8242,-79.9309,-18.4007,52.0270,163.6923,198.1117,-38.2659,-55.0709,63.6263,-7.1091,128.3573,108.6235,-210.9529,-209.2391,168.0606
-71.7490,-71.6117,-119.5946,-122.6812,-94.4187,-86.7566,76.5546,56.6643,102.7947,124.8805,-36.3358,-38.2491,84.9176,-16.5880,134.7696,42.8958,-211.7440,-167.0255,95.2101
6.3589,-33.8511,-89.0577,-107.8423,-40.1774,-85.2604,117.7579,-2.5279,32.5148,40.1967,4.1908,-26.6005,142.0193,-19.4734,147.2580,-15.7433,-206.9448,-36.7762,22.1386
31.5923,-30.9574,-69.3411,-107.1237,-6.5114,-60.0762,59.7148,-79.0877,7.8917,1.3438,29.1018,-30.6507,152.5486,-17.5859,153.5459,-16.9083,-177.6839,46.1759,4.4647
-24.6529,-29.2634,-59.8949,-78.0797,22.5392,-34.4831,-0.3660,-134.3333,-2.7476,-33.4130,2.4887,-35.5303,86.3575,-23.4367,137.7456,-13.1528,-121.3293,38.6336,-2.3368
-57.2300,-16.6983,-45.4120,-39.6691,42.2158,20.1131,29.3123,-133.1948,-9.3797,-55.3735,-26.4071,-31.9991,23.0758,-28.4927,103.6418,-27.8825,-62.3657,32.7472,-9.3369
-25.4243,-16.1733,-31.7857,-37.7699,41.7272,75.7671,102.2943,-98.0231,-4.1872,-43.4231,-20.3965,-29.0470,23.8285,-21.6423,88.0070,-18.0705,-40.1310,61.8672,-4.4475
-1.3558,-37.3233,-35.1067,-70.6392,46.2174,56.3150,136.4254,-68.0872,20.0101,-10.2886,-3.3571,-36.9470,60.7604,-10.2104,110.6162,21.3096,-63.9707,90.8291,20.0168
12.3121,-57.4061,-32.8520,-96.8472,67.1132,20.7849,121.5691,-26.2271,46.6095,21.7513,14.8001,-43.1645,94.8165,0.7660,138.0080,55.4111,-85.1138,107.9776,45.1659
58.1674,-41.3197,3.4010,-76.9385,74.3230,39.7480,60.6845,7.9037,4.7508,-4.1562,40.4924,-24.0607,109.2707,12.2238,130.0072,73.2196,-61.0716,86.8878,-3.9950
90.7979,8.9983,44.8803,-15.4922,46.8675,22.6141,-50.7981,-29.2551,-107.2865,-98.0444,51.2103,11.8078,84.3637,15.7351,86.4737,69.4443,-10.9815,15.9639,-123.9552
74.9577,46.0219,48.2997,30.9272,-0.1509,-69.1700,-141.7458,-94.0167,-165.9096,-151.2412,36.3411,29.3858,36.9002,6.0573,44.8722,33.5317,20.1477,-33.0801,-179.6266
63.0550,41.8783,20.4021,18.3414,-33.9679,-124.6519,-118.4657,-90.2810,-127.1466,-112.7969,21.5944,19.4856,32.3620,-6.6920,58.3998,-5.0335,-0.2250,-24.2290,-134.4274
76.0030,10.8765,-8.4976,-37.0520,-27.3728,-111.5463,-9.8198,-18.3121,-66.7519,-51.9175,19.9654,-0.5648,88.1423,-11.3725,138.7685,-0.5729,-66.8363,-8.4157,-78.9035
79.6343,-27.1260,-23.6311,-88.3636,13.5273,-85.4654,88.0347,78.1695,0.9092,11.2595,20.4580,-20.8533,137.3982,-8.1429,214.7774,27.1885,-117.4918,11.8821,-18.5213
81.6916,-41.6106,-20.2751,-95.4940,35.9445,-51.0305,136.3320,150.3077,60.5607,67.2097,19.8011,-28.4305,133.6530,-5.5114,211.6975,18.5539,-104.8610,50.0813,43.4097
128.5125,-9.0121,3.8559,-58.2053,-8.9935,-18.4330,108.3320,141.9591,21.5506,47.3205,35.1084,-5.9308,116.4105,-3.5839,149.1385,-11.6349,-61.1626,47.3725,7.8379
225.1153,21.7010,45.2687,-33.5963,-78.6003,9.4774,5.7884,118.1619,-61.0600,8.0308,83.1753,25.7520,134.9380,13.2845,99.8085,15.6217,-22.6478,19.6445,-73.9068
293.1022,-11.6562,80.0790,-63.8450,-68.2850,94.9115,-35.0652,196.6433,-20.4441,72.9187,131.0147,23.1392,169.5889,42.4710,101.6514,98.2919,6.6360,59.3576,-29.8897
247.5178,-70.8986,66.5316,-112.7765,18.2711,196.5930,83.8292,302.4887,98.3231,166.4593,117.3180,-9.4781,180.3468,49.9863,144.7223,139.7144,-13.6710,108.0771,87.0600
151.3449,-91.8897,5.3583,-144.0863,54.6685,183.1871,234.6462,320.3874,149.6529,186.7250,65.7724,-31.8211,190.2113,29.5027,193.5011,107.1393,-109.0704,68.0460,128.9172
151.9281,-96.5703,-39.0512,-179.1777,18.8798,115.4767,310.5386,342.9893,178.9905,224.4386,62.8329,-37.8153,241.9022,18.5908,224.3081,68.0875,-199.7762,52.7348,156.0264
230.5775,-112.1574,-26.5547,-211.2877,31.8386,146.3770,381.8182,423.6969,237.0683,293.1025,101.0413,-45.2300,296.5852,28.2310,243.7621,59.9864,-201.8090,162.8304,219.0876
248.1227,-98.2735,16.6227,-181.5001,112.5513,216.1630,414.2310,407.7461,204.0499,235.6841,108.3606,-41.8636,279.1046,33.5111,235.1028,59.8907,-134.4400,249.2387,183.5564
194.8026,-41.2465,58.5056,-92.1128,154.1179,196.4702,266.0183,248.5531,47.1029,55.7237,93.4692,-10.7539,205.9948,32.5941,165.4285,62.8755,-62.4009,185.8953,18.9626
138.7250,1.0890,75.4445,-28.0089,133.4027,108.0213,30.8472,99.3321,-79.5209,-68.3983,91.8908,20.2960,155.0869,35.9536,85.7932,79.3557,-37.9537,65.4839,-109.7426
79.3525,-5.8149,43.4502,-34.4168,89.1103,0.4823,-78.0016,36.6842,-84.0905,-67.5137,77.6165,17.9715,138.7778,32.8159,73.0805,95.7112,-74.9342,-15.8528,-109.8060
35.9653,-26.9374,-8.6305,-63.6060,9.9792,-97.3522,-74.3712,27.9100,-30.5605,-3.6259,46.4431,1.1881,118.7142,21.1610,88.0710,93.9548,-113.8690,-66.1329,-46.7313
50.1904,-23.9976,-24.4443,-62.6164,-72.8031,-125.6014,-73.0992,56.4216,-0.5098,48.0149,34.0208,1.9228,94.3756,13.0149,74.9914,68.3537,-103.3730,-95.2145,-8.6877
62.4041,-10.0338,-16.6401,-43.6764,-86.1062,-107.2367,-78.1380,92.4433,3.3894,54.6451,26.6710,7.9572,77.5345,4.3181,76.3686,29.9748,-81.2192,-107.2453,-5.8953
26.0077,-11.7016,-16.1301,-30.6681,-55.3795,-117.4301,-76.3485,111.8707,25.8594,60.0930,5.1678,2.1186,45.4404,-2.3410,82.4363,12.4170,-60.5327,-103.1244,16.2125
27.4351,-8.8702,15.2599,0.7949,-32.5831,-97.9831,-68.3503,141.3156,47.9123,80.1912,7.8206,7.5278,-4.6551,11.9533,7.2080,23.9262,18.2373,-47.4096,46.1702
106.7531,27.5481,88.0063,59.6518,2.0961,10.1875,-30.5619,166.0681,0.5915,40.2417,43.4057,35.9845,-28.1664,33.2843,-93.1852,20.2220,127.3396,46.2011,0.4035
163.1135,62.1242,116.2092,84.1007,26.2736,87.0031,7.6704,139.0303,-67.9171,-34.5339,60.1232,50.7773,-4.9558,26.7344,-81.9390,-22.0419,145.4730,87.2406,-75.6004
134.1241,50.3824,58.6622,41.1261,-5.8981,47.6600,26.9179,96.1779,-45.0197,-22.4009,39.1331,30.3406,31.3210,-1.2334,4.4372,-71.9895,56.1836,59.5280,-52.7624
81.7919,25.9432,-0.2946,-0.5562,-23.2930,-2.0665,102.6380,99.0537,24.8418,35.4658,11.0689,6.5139,46.3309,-18.8719,43.7844,-107.5219,-20.2304,54.5413,20.9487
89.6359,36.1760,18.9161,19.2228,31.7983,31.4743,225.3050,142.2453,32.4154,26.6088,3.5735,7.9684,33.2922,-17.2715,26.5360,-129.8508,13.7908,125.7336,25.1001
168.8595,64.6827,88.0373,67.7081,73.2752,112.9114,268.8566,186.6979,0.3701,-5.3493,25.4010,25.0139,5.7554,-5.0140,-12.5079,-137.1433,129.1232,228.3359,-6.6264
245.3804,91.3546,134.9225,102.3038,52.1777,177.4444,222.4552,170.8092,-42.1860,-32.6746,55.8372,43.1726,-9.8439,3.2228,-58.7023,-144.8420,210.6162,280.2925,-42.7443
254.9398,131.3681,146.2670,136.0912,42.4132,195.0742,153.5580,56.1601,-145.4855,-139.6931,64.5158,62.8687,-7.5942,-4.9500,-78.8531,-174.2512,212.2710,251.7724,-150.0680
233.1870,179.0539,169.3789,188.1182,87.3495,191.0143,53.3814,-76.5300,-276.7906,-294.5854,63.4670,84.1180,-18.0976,-15.2253,-84.4003,-203.1074,224.4918,217.5347,-292.1021
221.9402,204.3913,216.4582,239.4223,155.3036,211.1864,-56.0312,-140.1440,-344.7893,-382.5770,74.5108,99.2918,-52.9304,-7.8583,-124.7713,-196.9133,293.7680,240.2458,-362.1575
180.3281,200.0194,226.0518,253.4174,190.3553,218.3853,-122.7585,-185.6696,-356.1317,-406.9508,73.4763,99.5577,-79.4128,-0.0078,-160.0252,-168.9339,315.3151,235.0749,-371.3258
93.1230,176.8505,162.7724,218.0666,141.0698,141.5995,-194.6723,-255.5892,-341.7834,-393.4821,45.3675,85.1273,-75.0337,-12.7969,-132.3993,-154.7501,223.2475,118.8189,-355.8808
22.8500,143.9745,77.4612,156.6985,48.0135,21.6638,-273.7901,-280.1860,-287.7643,-322.0146,26.1097,67.9348,-38.4145,-28.2004,-88.0118,-156.5285,85.2518,-17.6816,-298.7162
0.0392,106.2718,20.1185,88.1969,15.4943,-56.0513,-262.2159,-235.6904,-218.9847,-236.6642,35.5864,53.3209,36.6800,-26.4563,-50.2848,-141.5338,-44.4126,-70.6135,-231.4141
2.5340,61.6865,-13.2613,14.0768,34.5283,-90.1458,-195.5399,-173.9581,-164.6302,-176.5551,48.8462,32.7791,120.9601,-18.8010,32.5977,-91.7257,-146.1257,-74.7644,-184.4686
19.3311,18.9792,-25.9217,-39.9209,30.1502,-99.9438,-166.4894,-94.2599,-102.2808,-105.4924,47.4311,9.9232,150.3681,-15.4099,125.4131,-37.8622,-169.1402,-74.7273,-123.6843
39.7970,-0.1588,-13.0011,-46.6327,23.5762,-75.6068,-114.9908,18.6984,-43.6382,-35.1174,39.1747,3.4141,129.3293,-8.2788,140.0297,-10.6126,-128.5627,-66.5865,-64.3918
48.8375,-3.3702,0.2273,-39.7427,39.4565,-37.8477,-26.4171,122.2984,-17.1650,0.6915,36.5039,10.5013,126.3521,3.0381,114.5860,5.1002,-118.8970,-77.6408,-44.9312
57.1228,-16.2629,-6.5626,-58.0215,32.4068,-13.1670,-0.1967,182.1852,11.3308,37.7443,36.7450,7.1902,145.3190,3.7643,140.4097,13.6686,-142.1170,-102.8835,-20.5915
74.1618,-28.6654,-15.0767,-74.4876,4.4335,7.9508,9.9491,196.3233,50.2778,74.2203,22.5941,-9.9327,130.3050,-10.8723,199.8033,-5.3260,-118.3023,-75.1047,25.2481
85.3159,-25.6314,-14.6894,-65.1853,-28.9176,13.9911,76.2638,166.0955,57.0684,74.5632,-4.6543,-21.5564,76.2136,-22.2637,211.7518,-17.2638,-52.2367,-20.7932,42.4792
81.0508,-22.6489,-16.5858,-49.9513,-100.8970,-17.3684,83.4621,117.2472,42.5678,77.8414,-19.0327,-17.8657,19.3497,-14.5292,146.7136,21.2530,-2.6520,-35.8423,39.5952
71.9238,-11.6396,-6.7612,-20.8894,-158.2867,-44.9753,4.2428,79.2076,15.7019,73.0672,-16.7454,-1.5894,-27.0926,-1.2185,55.1800,54.5475,37.7786,-86.0930,20.6674
84.6579,31.8082,39.7141,42.4345,-113.5672,-14.4154,-25.6996,54.4704,-60.9559,-15.9370,-14.7760,21.8789,-61.4335,-1.3305,14.5561,24.7227,106.1629,-72.0229,-62.6083
133.3382,78.5682,105.0630,105.5278,-35.5726,62.5413,-26.9730,57.0746,-139.9386,-116.5072,-6.9714,41.8033,-82.7591,-6.5816,22.8459,-21.7195,196.6053,-9.1922,-151.9320
172.8095,102.0291,157.7994,149.1196,13.2367,142.3215,-74.8136,78.5910,-160.2963,-145.0720,13.6775,56.0397,-103.7832,-2.1510,-9.0363,-50.1491,276.8425,50.5171,-172.0723
144.0577,144.3102,201.0949,220.4317,112.7413,184.4152,-91.2723,29.7671,-218.2186,-233.6643,24.7854,80.9028,-135.3729,5.6877,-120.1979,-96.1367,328.2897,106.2551,-233.4628
67.0859,217.3765,232.8815,319.6680,221.5545,150.0668,-117.2801,-136.3301,-368.7465,-431.3668,14.5419,116.4822,-180.7067,4.0638,-243.5766,-154.7016,356.5986,117.0955,-394.6410
12.0450,255.1973,223.4855,365.6798,179.0465,56.2710,-297.4784,-312.2791,-461.0856,-531.0504,1.6019,131.9445,-229.6631,-9.2877,-297.2599,-186.6142,367.4907,48.9587,-480.3361
15.6533,234.0496,183.9960,330.5429,54.2028,-5.4321,-477.8513,-369.3577,-414.3528,-460.0042,2.9373,115.6128,-239.1590,-25.2868,-261.5080,-199.2905,352.4399,1.0264,-413.1843
67.2382,203.5863,169.8091,277.4229,34.8394,24.3004,-431.8277,-310.7403,-344.5069,-381.1854,19.1151,94.8667,-191.8473,-28.7253,-188.9425,-201.0573,327.2897,58.8457,-337.7957
125.0981,191.0204,189.6973,254.6063,80.5701,99.2942,-314.1203,-240.7955,-324.9091,-363.1091,38.6415,88.4156,-149.2080,-19.8146,-147.4203,-182.2551,331.9818,137.9382,-323.6643
163.7240,194.3342,209.4901,256.8756,75.2490,143.3942,-355.4406,-254.2208,-344.1248,-376.5675,56.0955,91.3574,-143.6076,-16.8570,-137.7007,-172.1745,360.1638,157.3869,-341.0270
204.4433,215.8026,224.4738,265.9725,62.1320,140.6172,-472.5193,-339.8561,-406.0656,-434.4119,87.4829,101.9588,-117.8773,-19.5964,-132.8925,-190.7688,363.2904,172.0065,-400.2755
231.0033,224.6566,230.9277,259.7210,88.9062,124.6172,-496.9589,-374.1966,-432.3331,-459.9145,125.4415,110.6500,-63.6144,-10.6361,-154.1659,-199.4209,326.7623,213.6258,-427.5026
182.8602,178.3508,201.2152,220.3086,116.2225,131.2528,-402.1995,-263.3922,-304.2398,-331.9262,123.6761,93.8091,-49.3633,4.5411,-198.1142,-178.7889,276.7295,232.4876,-294.7765
104.9384,105.0364,158.1307,167.7527,138.6751,175.1631,-236.9454,-65.0119,-97.9500,-130.6050,85.7159,58.5668,-74.5803,12.7200,-209.6089,-151.6121,247.4713,236.9236,-82.4098
91.5375,69.7962,155.9660,147.4301,169.7413,227.7565,-90.4502,76.5362,3.6433,-32.0167,65.5111,41.7085,-92.3626,21.0910,-203.7446,-125.6838,264.4160,268.8994,18.6213
86.9385,78.7037,170.5719,168.4035,183.8486,226.3926,-27.2023,76.2782,-19.3731,-58.3838,53.3468,46.9935,-121.6488,27.5814,-232.1129,-105.2843,300.8106,281.2016,-6.5148
11.5932,85.1334,143.0273,179.6905,179.4976,159.1445,-0.2158,-9.7864,-57.6998,-113.0609,13.4763,43.9688,-158.7994,19.0422,-243.8984,-96.0656,281.9887,229.6899,-46.9692
-45.2956,54.8160,88.8020,127.9731,178.8602,106.0026,53.7989,-35.2619,-31.6795,-97.1873,-8.5746,22.2889,-123.4767,10.6165,-180.9870,-74.3186,185.6842,186.5464,-25.3070
-8.9464,1.2145,50.7649,35.4739,172.6532,123.2222,134.9067,48.7016,59.1097,9.7595,21.8580,-2.1738,-18.1123,18.6976,-102.4772,-39.2865,76.5429,213.4140,64.5099
36.3294,-20.4920,30.1674,-14.3307,149.4269,145.3837,213.2352,93.3386,104.4775,70.2391,43.9758,-12.4801,46.4332,21.6095,-68.4043,-36.1663,18.7660,247.1565,111.2926
26.0639,17.9973,19.7912,11.9556,118.3651,92.8907,216.3889,-39.3299,-2.2232,-45.0186,22.0706,-2.5673,31.2693,3.6296,-54.9350,-63.5232,12.9041,212.8907,0.3514
-11.3667,62.8404,14.6086,52.0216,91.3677,2.6624,111.6794,-231.6087,-153.3454,-209.9335,-5.3236,10.8881,-1.8892,-16.0333,-31.1244,-71.2713,16.5373,131.7893,-157.0086
-45.9364,56.0958,2.2443,47.1267,76.4546,-48.4041,13.5315,-248.6652,-163.0882,-219.9383,-21.2117,6.6033,-12.8997,-23.7058,13.8550,-55.3844,1.2439,55.4649,-169.9615
-30.8047,26.8618,-5.5018,17.4301,47.4390,-70.7104,-6.1364,-80.2798,-75.9691,-109.2634,-27.4349,-2.0553,0.3128,-24.4927,82.0616,-43.3913,-16.7899,-7.8466,-87.8196
57.5525,23.4919,1.6469,-4.2408,-32.2093,-110.9268,-38.4361,57.7395,-48.7334,-36.2395,-10.5028,4.2143,37.5716,-25.1221,154.4439,-40.6193,-24.8844,-61.4132,-65.4853
114.1589,21.1202,-14.5139,-33.7062,-117.9156,-151.1384,-86.7749,62.4523,-49.8854,-9.4324,0.3455,1.1248,71.4108,-35.2941,221.5054,-48.0557,-52.0823,-92.9236,-63.8250
40.2472,-24.4938,-78.7971,-86.1012,-148.1482,-157.3968,-38.6395,65.4063,49.4208,76.5995,-41.1791,-34.5187,58.4982,-53.5120,273.6676,-53.8759,-108.1022,-118.7271,44.0516
-85.1987,-96.5447,-152.7720,-140.3290,-173.5416,-157.7724,68.4336,179.1509,233.4904,253.7685,-103.6868,-74.2149,9.3018,-58.4407,268.9028,-29.3427,-160.1502,-182.1179,237.6811
-127.3676,-148.8990,-197.1331,-182.9762,-243.9116,-182.3149,143.4340,346.5105,385.4665,438.4080,-125.9655,-88.7998,-7.9073,-46.1236,228.2088,9.4578,-200.8670,-256.4753,396.8580
-69.4804,-170.1242,-207.4793,-223.2275,-280.0121,-195.1227,255.2347,484.7344,455.2612,539.4675,-108.7418,-92.0141,43.3954,-35.4668,246.7076,22.7698,-240.5710,-242.9670,464.9733
3.6290,-178.9825,-192.7292,-253.6943,-227.2925,-163.2466,433.0164,570.0374,476.4560,558.2101,-87.3861,-99.7419,107.5497,-28.2849,304.8661,26.7644,-254.7486,-132.9304,478.5684
13.4581,-181.1174,-174.0198,-249.9888,-167.4725,-122.7570,541.7755,577.6513,476.6937,543.3541,-82.2978,-102.4168,108.8751,-17.4565,285.0889,43.8062,-229.0924,-49.2667,477.7200
-19.9446,-164.7379,-166.7918,-214.6042,-171.3635,-117.7657,521.4825,515.5168,446.0779,508.2265,-90.4518,-91.2879,62.2702,-12.3080,200.1068,45.4229,-194.5879,-58.7479,452.1285
-19.2250,-141.1636,-163.2348,-187.9322,-209.1204,-134.6400,458.8900,463.9783,403.1825,473.7582,-89.4097,-76.9721,42.6582,-15.3752,158.8808,26.4651,-180.8243,-93.1455,411.7870
8.9651,-140.5743,-162.8229,-197.5366,-228.7003,-128.7377,423.8203,463.9128,400.2368,479.8709,-75.1587,-75.9049,64.5291,-17.1781,178.2500,19.6579,-191.1685,-94.5911,409.6759
13.7195,-146.9655,-159.7985,-205.3349,-212.4501,-83.0281,408.0490,454.8858,406.2327,478.5607,-69.9853,-81.6503,72.3845,-19.8007,199.9601,17.5901,-188.7806,-77.2240,416.3122
36.4663,-109.4116,-113.1120,-150.8745,-184.8911,-31.6861,335.7581,372.8656,318.4619,379.4779,-59.5550,-63.2404,36.5598,-19.0358,162.9980,5.7799,-108.2726,-46.8972,328.6023
119.2634,-38.1496,-14.5469,-52.6535,-172.5815,-9.9985,145.2539,230.8727,144.8661,217.3775,-3.2986,-14.1452,-5.7957,5.4106,36.7334,25.0277,36.7508,6.8089,159.7189
196.2605,4.4499,82.3473,14.6674,-127.5833,17.0535,-74.0352,101.4973,5.5374,90.9574,79.1944,27.5296,-11.8026,47.4217,-97.9778,91.8769,150.7988,81.6126,26.9781
218.9878,11.5326,153.7319,43.8736,4.5496,100.9331,-195.1511,33.5209,-57.4298,0.4047,129.6228,36.8075,-2.2580,71.9158,-126.8781,138.9690,223.4206,184.6098,-37.5604
226.4188,29.8748,212.2590,83.4680,143.1650,202.5897,-256.4381,-18.0252,-102.5775,-94.4719,143.2878,35.6792,-18.5391,67.4391,-97.2882,109.3677,307.1515,300.1298,-86.2893
251.7667,71.1283,240.4461,126.6500,171.5010,253.2367,-328.9420,-107.2055,-166.7043,-174.8693,165.9359,52.2335,-20.6124,58.7630,-136.4220,38.5118,342.5271,356.9723,-147.4650
290.3471,106.5858,231.5216,133.9635,126.3966,262.4169,-364.7900,-180.4670,-235.7152,-214.5436,223.4360,87.4570,58.1562,71.8070,-251.1594,3.8288,253.8805,324.6464,-217.8226
304.5489,110.5805,214.4638,111.1126,122.7085,263.1870,-332.4249,-170.7595,-259.1517,-206.4125,282.2887,115.4592,165.2987,102.2163,-359.2991,27.9004,121.8500,274.5552,-250.6343
239.9604,71.8655,186.6385,74.2696,190.4786,265.3056,-251.1755,-105.6835,-179.2099,-143.3126,275.8378,98.7296,193.8722,111.8026,-362.3597,51.8322,53.1107,279.3876,-175.1729
127.0353,13.4057,139.6160,28.6877,287.1530,297.0302,-107.7042,-22.4005,-37.1774,-67.4734,189.5898,37.8951,146.7553,75.0251,-196.9660,19.7979,45.6195,321.4074,-35.7180
64.7240,-11.5270,111.4456,10.8133,336.2359,337.0779,35.4621,58.3774,33.0773,-47.9372,95.4947,-6.6384,87.9241,27.5423,0.6099,-29.6830,70.9589,318.7900,24.3595
61.5531,7.6003,106.5913,37.6799,253.6096,283.0696,59.0381,78.1351,2.3084,-53.5114,64.2315,7.4006,38.4285,24.2700,-24.7014,-19.8097,95.7434,225.4050,-8.8455
54.9090,14.8343,72.9138,45.9894,78.5014,144.5896,44.7544,55.4929,4.3080,23.0998,85.5022,40.4872,20.0096,60.8954,-252.5020,39.7108,56.2096,118.1949,10.6585
19.8319,-33.2780,3.4198,-15.7837,-8.6618,79.0752,189.1020,123.1946,138.9675,195.0417,93.2148,29.6311,49.8788,85.2714,-375.6705,75.7203,-45.0188,110.4495,162.0610
-61.6060,-118.3096,-63.2793,-110.0255,81.4545,136.5806,463.0711,296.9547,340.5167,353.5950,36.8739,-32.7439,77.7407,68.3463,-235.6212,72.4863,-131.8550,170.5801,358.4958
-172.3705,-191.5197,-109.8535,-181.0630,230.3351,217.0567,676.8815,429.4063,473.7520,408.7813,-59.5538,-103.4495,67.3431,27.6049,30.3075,69.4704,-172.8836,189.6430,472.1375
-211.4474,-212.7182,-123.7713,-206.4667,292.9789,268.2408,752.9694,438.9709,475.1978,367.6712,-117.3714,-136.7440,54.0898,-3.6826,217.4463,72.3458,-173.4029,174.6987,458.7373
-159.2265,-173.4256,-96.6333,-172.7418,257.6218,283.8554,701.1001,349.8916,370.8760,271.9600,-107.0063,-118.0338,44.7434,-8.8312,216.9079,63.1558,-129.3762,168.4300,353.0196
-129.9728,-105.0732,-52.9622,-91.7148,208.6792,230.8390,524.2293,199.6948,217.8355,141.9663,-71.2697,-68.5929,14.1349,5.8257,70.4390,57.1389,-73.4999,127.2023,203.9664
-151.4922,-54.5004,-15.0500,-21.0319,216.1394,141.0197,289.8042,80.0845,89.4741,22.3884,-39.9411,-25.8559,-6.0122,23.0381,-48.8859,68.2437,-49.9336,52.9280,72.7505
-145.5252,-45.4384,4.5040,-11.5858,240.1866,87.7310,120.6644,76.7057,52.1002,-11.7316,-16.7501,-14.6852,18.3653,25.7957,-19.7182,73.8266,-60.3032,7.4982,28.2647
-103.1924,-56.1098,-19.5843,-51.2907,162.1962,41.1831,50.5096,111.9564,65.3139,27.3380,-13.1307,-22.2577,61.2564,10.4334,86.7653,65.3234,-109.5640,-59.5594,39.2251
-57.1641,-40.7613,-70.6669,-78.5033,-35.1802,-68.8747,-14.2351,60.4233,14.9704,35.6830,-16.3061,-10.8750,91.9365,-5.5610,121.9663,59.4650,-186.0153,-210.0535,-8.7353
-15.8030,3.3428,-93.5290,-56.7510,-224.5582,-226.2263,-148.1130,-44.9569,-80.1164,-0.4672,-7.1269,20.5668,84.5288,-10.0645,59.4705,47.4823,-208.4423,-337.0918,-95.3482
-6.3765,23.3367,-93.9996,-28.4490,-312.0948,-361.9064,-263.4409,-85.9703,-86.2489,11.5675,-15.6547,26.8409,27.8855,-17.7591,25.2631,18.1594,-152.8460,-343.9882,-85.6455
-20.0941,-5.7599,-108.6902,-52.7933,-304.7374,-395.9092,-213.9862,-14.3814,2.7890,84.1259,-51.4011,-4.4736,-4.0212,-35.1247,117.9900,0.8376,-122.7287,-294.9260,9.4324
-6.4854,-51.3007,-121.3377,-114.0817,-232.9021,-293.1416,-38.2988,131.0005,92.7364,157.2903,-61.7153,-34.4170,52.7965,-40.4689,247.5311,13.8757,-170.4597,-252.5056,86.3552
-0.3046,-89.4406,-126.1024,-157.6574,-170.7960,-166.5864,77.9512,254.4900,178.9084,240.5354,-43.0670,-46.1199,110.7082,-27.0623,259.6721,34.0336,-222.4963,-221.9794,165.5466
-49.0862,-115.8236,-149.2486,-166.4136,-203.1138,-150.5073,75.1653,277.6494,265.1304,335.5458,-47.6098,-52.6328,76.9328,-15.7554,163.1731,46.4996,-224.3961,-230.6928,266.6758
-92.0169,-115.3930,-163.9496,-146.9380,-265.4866,-181.7550,39.5554,222.6849,279.4605,356.6643,-69.6677,-52.5367,7.4849,-15.3737,82.2609,51.8482,-186.1806,-255.8685,296.0269
-97.3825,-97.4193,-139.2396,-112.8215,-242.9638,-143.4443,7.7299,158.9550,232.3515,293.1646,-78.8262,-48.6017,-35.9899,-19.4174,70.6094,47.7234,-122.3486,-232.8776,250.6110
-99.6921,-93.8671,-115.5792,-95.4375,-204.9861,-86.4411,-37.0630,115.8904,210.5293,250.2938,-85.2516,-54.2646,-67.7850,-25.3730,96.7866,48.1636,-63.2306,-197.0960,230.4986
-62.0242,-91.7009,-110.3141,-100.7775,-244.3670,-80.4851,-77.2491,95.1798,196.1330,249.0370,-73.8545,-53.4620,-62.7940,-26.3706,112.6704,54.6236,-48.3216,-193.7976,220.4279
15.5092,-61.9288,-83.3365,-91.0939,-237.3112,-66.0324,-110.7289,72.8939,134.6919,202.9637,-18.3152,-29.5473,4.1025,-15.8799,82.1435,31.4262,-68.6209,-154.2699,155.0935
7.8368,-25.3396,-32.8226,-44.3758,-69.2999,0.7574,-159.6423,-2.1626,58.7898,84.0688,33.0421,-6.0417,48.7897,-1.5214,3.8718,-11.8146,-69.9440,-50.6036,69.6039
-82.5430,3.5192,22.9952,32.5010,129.3490,77.1928,-206.0752,-134.0578,-19.3404,-64.7425,37.5457,6.8614,-4.0310,12.5808,-107.8036,-16.5716,4.1115,47.9911,-12.6432
-84.2178,53.1761,97.4028,126.7196,197.7956,134.4397,-247.6779,-271.7180,-138.5188,-210.6213,41.6954,32.1374,-96.5285,27.7495,-230.7871,-0.1947,157.3215,134.2094,-126.2952
29.9330,118.1788,172.7910,198.1073,178.1905,176.5119,-315.8082,-388.8310,-274.1482,-337.9481,79.9545,63.3751,-127.8726,31.9608,-286.5891,-25.7368,292.0381,236.8589,-253.9764
103.8241,152.6033,207.2030,208.8721,237.1247,218.4070,-343.2384,-474.2108,-370.6374,-453.2105,117.5037,72.1859,-68.7516,22.9871,-224.0293,-68.3956,297.0110,325.2630,-358.0044
44.8379,145.7915,206.3278,187.6962,444.7326,276.4622,-230.0490,-496.2006,-405.3005,-551.9622,125.3568,62.3478,21.4138,22.6105,-152.0447,-75.6173,195.8975,383.8773,-419.4589
-94.7253,117.7232,178.3946,174.5837,621.1531,301.2910,-77.9115,-458.4637,-347.8754,-550.9877,103.7368,49.4978,47.2078,32.9644,-193.9991,-71.2171,100.1929,401.0486,-377.8216
-192.8091,84.3202,111.7048,156.9764,532.6087,223.0857,-57.9098,-407.9095,-212.1053,-399.7985,65.2567,35.8056,-9.8366,31.6328,-295.1194,-87.9241,60.3976,333.5585,-223.2930
-170.2289,67.6348,51.5787,130.6427,294.7012,111.3341,-96.3864,-365.3260,-103.0127,-226.9720,44.4521,27.7125,-62.1040,19.7464,-346.2410,-118.1096,63.2088,263.7993,-83.8671
-82.1552,72.3669,53.2476,116.6020,223.1736,99.4273,-43.8904,-326.4748,-72.8364,-172.2655,61.1161,25.2887,-46.8611,14.8082,-329.8440,-153.0964,87.0285,334.9803,-42.6944
-35.3776,62.8636,73.5971,95.7376,302.2124,167.3616,15.1275,-294.8723,-52.9481,-174.0807,82.8755,11.9673,-0.9836,12.6869,-259.2027,-170.6062,93.2212,449.5848,-25.9311
-64.0550,18.5121,43.5631,42.2338,308.6025,203.3428,-10.3622,-261.8545,13.4520,-115.6432,70.7710,-15.9275,21.8289,3.2313,-162.2546,-147.2159,46.7315,417.7715,39.4991
-148.2274,-33.0643,-21.7158,-14.1456,269.2539,193.5414,19.0632,-210.9551,106.3626,-21.7873,26.4218,-44.6410,17.6650,-8.0153,-102.4462,-116.8277,-33.4260,309.2518,131.5471
-222.2215,-56.6725,-67.6525,-37.4485,273.2142,182.7863,152.0892,-162.5754,167.2681,27.8941,-16.9905,-60.4559,6.9446,-15.7321,-93.7456,-118.0054,-90.7390,263.3078,187.9867
-200.1649,-33.7823,-70.6201,-21.2231,216.7856,165.0330,186.9821,-174.1334,127.0151,2.3544,-29.3471,-49.4807,-5.9549,-23.4427,-97.5361,-135.2556,-83.4927,226.1752,145.5822
-110.6943,31.8235,-32.6498,37.6987,106.7267,119.8082,56.7968,-268.4362,-20.3789,-109.4443,-16.5085,-13.3105,-33.8806,-31.9817,-109.0269,-156.4795,-11.3376,167.4752,-1.7843
-55.1790,94.9373,28.6518,112.1975,109.8310,69.3349,-51.9889,-351.8214,-162.2586,-248.9417,-2.7040,19.3439,-68.2653,-32.1569,-129.9822,-172.5934,82.6977,177.9401,-148.3891
-47.9458,94.3120,72.6280,133.5238,200.8433,58.8242,-16.3273,-273.8333,-158.8210,-257.8351,4.0043,23.7616,-79.1251,-14.3201,-136.8907,-139.1668,135.3356,234.0663,-152.6428
-87.8957,22.4137,56.0886,79.2149,244.0119,101.1825,138.6816,-39.1522,8.5751,-82.4537,-13.4880,-1.1359,-74.0557,8.9347,-125.4886,-60.2734,107.1672,220.1999,10.0249
-186.3774,-54.8436,-11.7134,10.0026,232.7970,132.3058,322.6953,154.1120,185.4969,98.8959,-71.4140,-36.2696,-84.7554,11.0286,-91.3535,-5.6661,24.8435,122.7800,182.1631
-237.2371,-73.3722,-69.8866,-21.5404,142.8912,66.0714,375.0120,180.2485,205.2491,133.5732,-128.6104,-50.2558,-102.0670,-8.6320,-15.3525,13.0881,-36.8076,-21.9438,195.4562
-185.1534,-58.8778,-107.6398,-40.8447,-66.9169,-83.6112,263.0053,136.8705,139.8039,125.0181,-155.6214,-46.3429,-110.5271,-33.9416,93.0660,27.5189,-59.1896,-192.5080,130.9636
-173.7941,-80.1088,-179.4476,-95.3527,-265.4647,-219.4001,195.0781,147.9527,184.9243,213.2019,-198.4921,-68.2800,-120.2392,-68.0221,221.6425,15.1500,-110.7053,-330.4727,185.3596
-230.2368,-119.7250,-268.3772,-163.2764,-347.9491,-295.7705,240.5828,187.0113,291.0406,318.6512,-251.8199,-106.0178,-109.8005,-105.0175,344.1192,-32.8561,-210.4113,-404.7434,295.6487
-221.7293,-115.5653,-297.8210,-183.7772,-397.9526,-335.7083,220.6701,178.7147,284.6234,328.2184,-244.3074,-102.1296,-66.0043,-113.2284,362.7902,-58.7086,-282.6457,-458.9122,286.6244
-222.7741,-105.8261,-295.6549,-170.6661,-439.1405,-347.6230,155.5288,150.3557,255.2404,325.2457,-219.2778,-80.1956,-59.3966,-93.8656,261.7515,-29.3328,-300.9750,-515.9576,259.6384
-340.8574,-154.7123,-329.0847,-187.6958,-418.5920,-326.7628,228.2104,191.4610,350.0986,406.0308,-265.9485,-101.9136,-122.2347,-82.9245,208.8308,36.0836,-306.4374,-563.7484,359.3104
-387.1039,-204.3706,-346.1635,-221.9689,-403.9729,-298.6285,334.2238,295.6076,437.4336,485.3252,-312.8905,-131.5385,-160.2932,-83.0431,278.7857,100.3992,-291.9456,-589.5342,443.8660
-267.4833,-188.6742,-301.9065,-221.3622,-429.9051,-291.4667,285.5906,337.0985,394.9783,470.4904,-272.0817,-119.3139,-121.8632,-76.8371,333.9821,112.1181,-249.2643,-552.7809,398.5624
-203.2414,-160.3133,-269.0556,-204.6087,-403.3969,-297.4798,191.0845,254.9207,336.9790,408.5347,-220.9964,-106.3429,-83.6159,-73.3507,315.8441,75.7529,-228.5244,-456.7878,346.1027
-251.8790,-162.6931,-268.8762,-197.8207,-332.5709,-288.4420,177.7653,157.7776,325.8448,360.9625,-223.3575,-116.3347,-97.4117,-74.3354,295.6947,70.2396,-218.9729,-388.2750,340.1219
-252.9815,-157.8540,-235.2745,-171.0172,-287.6109,-250.2017,179.0005,153.5615,307.1769,332.8102,-220.6501,-110.9276,-129.7069,-62.0110,258.0333,99.0682,-157.1943,-352.1611,321.6055
-226.0800,-134.5108,-182.0735,-122.6720,-225.2832,-204.1004,169.0634,185.3183,292.6678,312.8842,-194.0227,-90.8892,-149.2304,-44.5873,171.0892,85.9566,-85.3306,-279.6870,307.8203
-240.7596,-104.7175,-155.5616,-80.5883,-151.4894,-190.2722,146.9162,140.6868,246.7796,246.5753,-175.4286,-72.4801,-148.6408,-37.7341,96.2848,51.2284,-72.3328,-235.7758,258.7105
-196.3654,-45.8010,-112.3910,-25.4643,-159.5652,-207.0952,25.3453,26.7388,78.9011,94.6709,-139.3689,-29.4200,-130.6843,-26.6148,39.8718,63.3500,-58.1841,-291.5778,79.7743
-73.5816,25.3242,-31.0077,45.6371,-198.8886,-198.3773,-147.4729,-62.9439,-100.4636,-45.5867,-71.5043,25.9611,-116.1141,-4.7426,-41.5984,81.5160,20.2290,-304.3369,-103.8623
9.3048,54.6684,30.2491,84.2501,-164.2809,-137.7552,-210.2512,-102.7558,-139.4566,-85.2501,-18.1797,43.4147,-114.9274,9.1635,-108.9080,56.7928,109.1885,-169.9837,-132.5965
28.3991,62.5989,58.9646,100.4205,-99.8389,-75.1101,-204.2089,-162.0062,-147.2413,-117.6807,4.8991,41.2471,-119.5433,14.0681,-146.0183,35.7359,160.3569,-40.1674,-131.5771
12.1437,89.5637,82.7281,138.5774,-60.5808,-58.8243,-259.6029,-269.8593,-229.9257,-215.3074,15.5914,57.1043,-135.2331,20.6071,-204.7852,41.4890,186.9400,-28.8304,-215.5557
-37.9143,100.7232,81.1865,160.6677,-37.8153,-74.6138,-331.9685,-359.1264,-266.5912,-267.6197,12.6073,62.8246,-156.2668,20.8887,-252.5098,37.7997,186.6494,-44.9472,-250.2824
-55.5743,83.6640,53.2219,135.6544,-61.4051,-84.4754,-354.9603,-393.1414,-222.9587,-228.3702,10.7081,47.4267,-152.5567,12.7014,-243.9831,19.4443,163.0106,-24.8465,-196.0170
10.2635,98.5600,62.2337,133.6748,-97.2024,-52.8753,-366.6180,-415.8808,-243.2181,-232.5418,42.9746,56.5591,-119.6839,13.4390,-258.6483,-6.7421,162.7582,14.5399,-211.2357
100.1461,154.4562,133.9781,190.8740,-26.2502,48.9148,-379.3625,-438.8076,-344.3867,-334.6815,105.0760,95.7262,-79.5653,29.5924,-337.3041,-46.9015,208.5767,101.4790,-320.5536
161.7953,196.2613,215.2169,246.8028,108.2749,175.0963,-398.2397,-449.5959,-424.3426,-436.8173,162.3507,125.1698,-48.9094,48.2709,-399.6115,-73.0233,269.7179,216.9624,-410.2894
176.0252,215.0760,247.7482,274.0701,146.8958,208.7603,-475.4028,-508.3433,-480.3949,-501.9783,183.7616,137.0663,-51.2475,54.2932,-424.6028,-70.7929,305.4757,244.1639,-467.0823
115.0317,235.3618,223.4594,298.5050,98.5240,133.0322,-577.3892,-632.1920,-536.3021,-561.8721,158.7524,143.6783,-92.7945,41.0622,-456.1256,-87.7953,294.8688,163.2625,-519.0383
32.9429,245.0695,183.5926,313.0239,71.5058,83.8221,-586.7968,-686.2532,-537.1409,-577.1143,114.9614,140.8462,-133.8286,19.9667,-470.9804,-135.1551,264.1745,90.5582,-519.0043
21.1490,224.4516,172.5928,300.5916,74.5899,140.3822,-477.5114,-577.7805,-455.0706,-499.0859,87.6247,126.3530,-155.1942,12.8640,-446.6555,-151.1083,274.5457,97.6792,-437.1379
52.0518,178.9681,188.2374,273.4543,94.4259,222.5555,-318.8868,-386.2388,-322.7458,-360.2585,76.1888,104.0927,-179.8242,25.9801,-424.2162,-110.8246,336.1105,174.1943,-300.1556
54.6675,119.2046,201.1228,236.6446,165.9998,262.4650,-153.1034,-187.7986,-160.3416,-206.1372,68.7330,73.5695,-196.3929,46.2829,-409.5715,-60.3794,385.0758,293.4066,-131.6915
30.5330,67.3500,200.1095,197.2586,275.6214,289.3703,12.8766,6.8435,-11.9677,-78.2768,63.3037,47.3232,-175.6463,60.1627,-381.9311,-42.8166,370.6198,385.0000,12.7477
0.4015,61.2181,192.4627,190.7761,346.9991,311.9308,129.0650,114.2375,25.4714,-51.6500,59.0883,50.3213,-139.0092,64.9425,-387.0522,-59.1319,309.7644,370.0933,34.7386
-18.3075,97.0608,186.3805,217.8910,342.8455,301.1905,118.6138,60.2159,-58.2903,-129.4317,67.0387,78.4577,-112.2884,66.3783,-446.7389,-80.9665,250.4044,287.8692,-61.3164
-17.0558,107.7573,172.7694,211.0711,313.1749,275.3943,27.3430,-33.8103,-112.3203,-177.8524,82.5198,84.7532,-81.9163,61.9825,-440.8385,-84.5284,206.3371,247.7267,-115.4357
-26.7522,52.8073,126.6340,128.8456,307.5757,253.0208,15.7366,-4.7637,-25.6644,-103.9171,64.7538,39.3721,-40.2464,39.2899,-261.3531,-76.6467,145.6175,255.2707,-26.7084
-34.9353,-15.5785,56.1519,21.8710,270.9944,196.1892,95.5305,103.4832,100.7857,17.7434,20.2321,-17.3835,7.4396,5.9099,-15.6080,-72.7004,56.5211,229.6130,96.5475
6.2642,-40.7203,1.1459,-49.1740,160.7172,105.3041,135.8535,162.8476,140.1078,89.5127,6.2127,-36.9313,66.0338,-14.0505,127.4485,-71.6107,-33.4628,157.1301,132.6870
32.0535,-57.1044,-43.3434,-105.5289,91.7351,49.3745,182.8766,196.4160,153.0824,128.3759,7.4322,-44.7388,135.7985,-22.0116,209.4873,-62.7580,-135.0659,90.3490,138.9291
-21.0374,-114.9787,-109.1337,-194.9302,130.3497,42.7049,357.8026,296.6586,240.0518,201.4060,-24.0825,-80.7634,211.5818,-32.2210,349.8802,-32.0405,-277.1669,42.3164,209.2095
-53.4893,-181.3182,-173.6254,-289.1543,125.3293,26.6024,525.5760,442.5058,359.8975,326.4720,-53.5487,-117.2311,274.1827,-37.4632,477.4214,11.8544,-398.6161,-12.3411,318.2758
-18.2115,-202.8580,-202.0180,-321.1200,-4.3012,-18.4915,537.0660,553.5972,435.7391,452.4333,-59.1613,-120.2387,273.5159,-36.3128,483.2074,26.8957,-417.6179,-86.4169,401.4816
-16.7883,-189.8566,-208.1189,-292.2144,-117.2203,-67.6583,520.0834,613.6617,455.2694,506.4685,-88.9666,-108.1415,204.1144,-41.0240,435.4225,15.6257,-371.3891,-176.1050,427.3640
-46.9245,-177.9059,-207.2670,-263.0724,-146.0495,-120.7358,558.2652,643.4886,435.3991,494.7570,-125.5728,-99.1058,149.0063,-41.0966,413.0013,34.5828,-341.8184,-248.2695,402.2347
-26.7427,-180.4616,-205.3517,-269.2864,-181.6180,-180.1934,528.5106,646.2683,427.0591,505.8376,-115.3543,-95.0284,154.2279,-31.7007,405.2188,67.7927,-340.6183,-263.4862,396.2096
1.8787,-190.6909,-221.6450,-293.9566,-251.6332,-220.0740,416.6312,616.3945,453.7361,549.3549,-100.0336,-103.7915,166.3453,-39.6363,433.7446,53.0968,-348.5273,-261.2500,436.0273
3.7230,-180.6939,-231.6174,-288.6835,-316.8895,-229.7351,321.6658,541.2545,417.4670,520.0352,-111.6008,-104.1482,143.2000,-54.9435,461.7213,42.1168,-335.5592,-312.2299,404.7264
28.6294,-133.8308,-183.3127,-222.5660,-360.4421,-230.0247,232.1365,416.8492,261.7658,388.7656,-96.5273,-64.4131,95.0684,-32.1449,350.7082,112.9773,-258.4309,-375.7520,247.1348
45.4213,-82.5949,-110.5105,-134.4331,-353.0779,-237.7999,120.5343,271.1577,108.1760,251.5587,-56.6557,-16.1590,36.8760,10.6373,146.9823,194.6525,-149.2768,-368.5536,98.4993
12.1629,-55.0131,-81.4240,-83.3993,-306.7165,-246.6954,7.2010,118.2319,35.4936,156.4858,-40.2865,-1.5757,-5.0923,21.0060,40.7666,194.6232,-92.1057,-316.2370,35.3031
-4.6632,-29.3901,-71.8938,-55.1412,-281.7318,-224.8579,-130.1943,-47.0527,-27.9485,69.2730,-20.3173,5.1421,-13.1954,13.6876,-4.3029,151.4743,-75.2417,-272.1570,-18.8662
7.3702,6.4269,-37.3470,-9.6141,-245.4573,-150.2726,-253.6379,-166.8119,-99.9995,-13.5118,22.6041,29.0556,-11.1648,21.7908,-107.4451,116.3008,-44.6204,-225.7382,-84.9821
3.0407,31.1328,-1.7559,28.9336,-152.6283,-67.0313,-267.5241,-173.4986,-137.1245,-72.9815,43.7286,46.4953,-1.6787,28.0631,-158.8217,83.3833,-28.8627,-189.0008,-130.2343
36.6788,43.1680,25.6067,35.3292,-87.6877,-30.2835,-227.4078,-119.7677,-172.2392,-119.3011,48.9145,51.4157,30.6093,24.6984,-86.9575,75.3325,-27.6247,-177.1268,-182.1862
119.2062,53.7019,72.3955,45.7865,-77.6643,-8.4276,-226.4738,-85.2728,-209.4912,-145.6216,70.3151,58.3758,37.6160,33.2789,-47.9551,103.3311,37.4407,-126.0621,-222.8321
123.9250,46.8076,107.9717,67.4453,-21.9302,42.0636,-199.0219,-45.9292,-168.6590,-119.3476,73.6946,53.9900,-6.3955,45.2824,-92.6948,112.4006,123.6267,-29.2073,-173.8975
28.5243,9.9966,75.0479,45.8444,57.4234,73.6049,-102.4495,14.0870,-57.1060,-44.6932,42.3548,28.1902,-21.4099,40.2973,-99.3292,90.0362,87.6660,2.8471,-60.8918
-52.9245,-31.6304,0.0463,-16.1702,52.9477,47.9146,-10.6893,26.4481,26.2967,26.0595,13.1530,0.4254,14.0287,27.8688,-58.1959,82.4609,-34.4188,-41.6376,21.5084
-95.1196,-45.5778,-44.3117,-40.3039,11.5516,18.0173,40.9573,-38.2807,45.9123,38.8949,-14.6587,-16.7165,0.7863,15.5598,-47.6519,78.4379,-68.3921,-50.9539,48.7007
-144.4653,-36.8647,-48.8711,-12.2157,14.7556,18.8116,36.4907,-132.0863,40.0550,5.2658,-49.1466,-26.8624,-74.2672,0.9000,-72.1455,49.3854,-7.7474,-11.3155,54.5609
-188.2626,-42.9380,-57.4110,-5.1702,21.0736,25.0377,-24.7550,-194.4607,60.2248,9.8047,-56.2734,-34.7854,-108.4116,-2.7607,-108.2236,36.4646,10.6328,8.7218,85.8364
-188.3307,-65.8291,-73.0791,-34.7408,6.5189,34.3960,-37.9384,-178.9804,107.7326,68.1594,-37.0167,-40.7696,-80.7176,6.9572,-131.1076,53.9070,-25.1651,15.0524,139.6119
-131.3643,-52.2253,-47.9046,-25.8422,17.6029,55.0905,3.8590,-119.1941,97.0256,66.5069,-19.7116,-30.7314,-59.1501,10.9579,-121.8099,40.4964,-7.7466,47.3186,123.5242
-47.7469,3.0676,27.5104,39.9613,71.6225,72.6061,-66.3386,-106.0916,8.5112,-24.4657,14.6567,0.3062,-59.4630,13.7956,-132.8885,-6.5153,79.3671,110.6818,26.9932
-0.3414,28.5514,96.9501,85.4891,152.4207,103.2193,-218.8219,-105.6830,-31.6583,-69.0016,72.4599,24.5997,-48.4092,34.4899,-196.1350,-14.3937,145.5162,184.2288,-12.8953
9.9929,14.6125,125.1268,84.4646,213.6666,163.8285,-242.2750,-33.9311,-0.4316,-34.7569,106.9717,31.6959,-23.1900,58.5380,-242.0862,18.4596,149.3244,208.9454,15.4057
20.7335,27.2595,127.9662,94.7606,204.3664,201.5413,-164.6483,-8.7896,-27.1258,-54.9298,97.7177,41.2857,-21.8977,57.9104,-246.6069,17.9924,144.1063,175.4769,-19.8389
-9.0092,55.6749,106.8639,120.7790,160.5667,173.8591,-138.9932,-148.9831,-84.6350,-130.8370,58.6367,37.9686,-75.8204,32.0742,-248.2592,-32.4552,169.3035,180.9716,-69.9187
-94.4264,38.4313,51.1018,107.8593,120.1198,115.1816,-136.4156,-263.0615,-28.5067,-107.5434,0.3273,2.3449,-149.5000,-0.5574,-220.8690,-83.1076,182.4653,214.7154,7.1685
-133.4862,6.7825,-5.4784,71.0780,29.0229,62.9622,-117.7448,-154.5420,81.8011,20.7004,-44.9832,-18.3705,-171.3126,-21.5414,-162.4493,-109.0561,137.9548,117.5058,121.4449
-93.7338,16.1173,-20.9600,65.6512,-81.7524,30.9497,-116.1271,27.3289,95.0568,93.7767,-51.2880,6.0871,-139.6474,-23.8246,-136.3200,-115.5125,73.6749,-75.8111,116.8318
-57.8745,30.4427,-12.2815,66.4705,-96.2517,26.0181,-81.2336,68.3488,40.9654,58.0805,-47.8470,20.7751,-106.5054,-21.4007,-98.4495,-94.6704,46.7806,-142.1174,46.7725
-46.7819,6.9624,-25.4296,20.2296,-69.7691,12.2937,-9.1633,-7.0506,17.0561,13.5806,-58.1028,-7.3522,-78.5832,-28.7369,21.4296,-45.7951,32.2082,-80.3891,21.3195
-47.8700,-27.2206,-64.3060,-43.4335,-100.2901,-37.8676,4.2826,-83.0133,21.8377,15.0627,-66.1370,-37.1423,-44.0042,-37.3491,128.5710,2.2283,-18.1709,-69.3130,30.3798
-87.5593,-36.9704,-84.6700,-60.1530,-86.2045,-75.9842,-8.8612,-112.6916,8.5431,-4.3627,-73.0727,-41.3348,-24.7599,-37.2842,149.8693,26.2754,-70.2848,-115.2904,11.0913
-121.1586,-19.5502,-63.5587,-32.5824,8.5807,-90.3521,11.0327,-103.4883,-45.6578,-84.5775,-84.9080,-32.1610,-22.4392,-37.0311,172.8154,28.2133,-73.9464,-133.3682,-61.5347
-88.4358,2.1241,-46.8718,-18.4221,12.3773,-146.6676,-15.1786,-93.0575,-94.0377,-129.4360,-81.6708,-22.4785,-9.0118,-42.5938,219.3539,14.2551,-67.3178,-144.6333,-118.5422
-62.6095,-6.6809,-78.7905,-46.7423,-86.0751,-222.9608,-55.9865,-91.3793,-52.1838,-57.4713,-70.0363,-26.1351,9.6135,-46.0268,211.0993,-3.2758,-103.0615,-159.0019,-63.8587
-117.8885,-43.0529,-125.3822,-83.3892,-102.5314,-228.9478,31.4190,-69.0044,46.9192,38.5199,-85.8698,-46.5505,4.8175,-43.8242,170.7326,-1.0003,-149.3605,-143.1477,46.4172
-209.9516,-69.1157,-144.1133,-89.1293,-27.3449,-191.0009,169.0160,-42.7130,95.1027,52.2121,-130.7178,-65.2789,-32.0275,-43.5226,165.6466,23.6919,-156.7789,-138.8963,89.5490
-285.2427,-82.1170,-155.5487,-80.1836,-1.3114,-182.7003,204.2423,-37.0576,113.2954,48.3506,-179.5408,-78.0052,-90.6590,-51.5606,183.3290,42.0528,-135.7992,-181.4317,104.4152
-305.1477,-97.4148,-178.4109,-88.2789,-68.0623,-182.0671,191.4668,-9.7028,168.3645,109.8808,-214.6155,-92.9551,-140.5899,-67.6155,213.2796,29.1508,-111.3834,-221.9991,168.1694
-239.0013,-98.9792,-193.0280,-102.5300,-195.9945,-165.6868,197.0799,41.8164,217.1967,191.8458,-224.0988,-99.7653,-160.0766,-85.5112,251.3796,-11.3414,-80.4985,-232.1657,229.7091
-156.2256,-86.7013,-189.6809,-99.0412,-311.3706,-152.5300,205.1063,61.4252,237.4767,246.4238,-215.8035,-95.9166,-180.0439,-92.6402,235.5944,-47.4293,-28.3647,-201.8264,265.4685
-130.4147,-83.4110,-158.6140,-74.9129,-292.6143,-104.9659,264.6209,73.0937,262.7648,268.8618,-204.6006,-93.6416,-219.3099,-78.2329,153.9681,-45.3022,54.1806,-94.0405,303.1266
-101.3514,-69.6085,-84.3859,-33.2860,-138.6856,3.8707,348.9413,109.3887,234.2305,211.4026,-172.6313,-80.2891,-219.9008,-50.5322,90.8776,-21.3064,135.2431,44.9459,266.9663
-32.6379,-22.2073,-6.9954,11.6927,-0.7828,93.4982,292.7314,87.7662,105.1480,65.8680,-107.8890,-44.5069,-146.4600,-33.1334,80.3482,-30.5825,146.1695,100.6335,115.6587
15.5248,27.6903,23.3565,38.9366,32.6365,106.9063,83.4027,-33.5373,-29.1476,-68.3488,-43.1488,-10.9172,-65.0376,-34.0653,74.1205,-77.6874,99.0281,77.9181,-29.3192
62.5736,57.6226,43.3086,58.2336,-2.0401,99.8312,-127.8375,-159.2845,-105.6704,-134.1214,3.4971,6.8870,-42.4741,-35.7781,49.0916,-106.4833,110.5078,84.0857,-97.4537
149.4229,75.3129,93.8980,82.3222,-37.4467,124.5926,-263.6932,-217.7542,-153.5910,-163.2124,45.3132,18.9738,-58.7658,-24.7291,22.3708,-87.9992,207.2476,149.8306,-132.0407
181.0311,65.7408,122.3487,80.1508,-17.7799,156.7460,-302.2048,-227.1767,-158.5380,-164.8745,69.7129,18.1795,-58.0776,-8.8424,11.9089,-41.1127,250.5765,199.8781,-132.2398
105.9024,30.9953,88.1543,39.9048,35.6520,143.8064,-267.8469,-236.7017,-133.3272,-155.0710,62.7882,4.1674,-21.6584,0.2109,24.1361,11.7731,161.9384,159.1468,-114.8135
47.9663,25.4744,49.8702,17.3669,30.6169,75.0227,-293.7291,-302.3134,-174.5389,-194.3876,59.8784,7.5918,19.9051,3.2063,23.9642,45.8190,57.9690,59.6094,-165.7834
99.2920,70.9707,67.6183,51.6956,-37.5276,19.8925,-404.4890,-402.1674,-282.6060,-273.3385,94.0012,40.3897,33.2204,9.9275,-44.0066,37.7459,63.0281,23.8000,-271.8690
207.3409,128.4733,122.6804,109.9368,-81.9233,40.7957,-442.0415,-428.2395,-363.2300,-322.9760,145.4703,80.8694,34.6473,24.0742,-156.0972,-1.4824,134.8999,82.5021,-346.3094
278.2362,163.1012,158.1124,142.4984,-72.0342,81.7631,-373.8008,-369.7749,-390.2599,-336.7101,174.0285,105.9448,55.6617,32.1204,-210.0780,-44.2389,159.9010,131.2319,-378.1034
248.3817,154.5043,145.4423,130.5724,-11.0760,82.2233,-299.7753,-306.8552,-353.4298,-320.9969,159.0625,96.4544,76.8857,23.3508,-164.3341,-74.7084,119.3809,139.6716,-350.9849
149.6541,104.4627,119.7134,94.4762,116.8115,108.5543,-202.1723,-223.9814,-242.3126,-261.6756,119.7133,58.6692,73.0181,14.8241,-87.7436,-74.0621,84.1244,179.2459,-246.4203
106.2806,65.1148,131.6480,73.3000,257.1453,200.9249,-71.3100,-100.6554,-163.4608,-219.8780,104.3806,36.7491,80.9758,23.2520,-37.8099,-41.6659,83.5220,234.6606,-179.8088
143.0826,60.2294,152.0206,59.6605,314.6512,260.1768,-18.9079,-29.1216,-169.7636,-227.1606,124.6507,39.6858,133.3346,31.5398,7.6685,-23.2251,62.1142,248.7088,-200.0226
133.4302,28.2099,110.3263,4.8099,298.5496,240.1321,-14.6634,-8.4798,-98.5701,-155.9709,128.2007,17.9519,180.1851,22.5587,64.6535,-38.3166,-12.1244,254.6158,-124.4840
38.7371,-50.8920,35.9059,-73.0549,299.0372,245.5165,104.6795,85.8919,95.5124,20.9683,84.5476,-32.8598,170.0566,13.9206,104.8824,-29.6771,-78.4248,268.2948,82.0307
-14.2008,-93.8597,29.1902,-95.7807,361.7973,333.5291,297.0330,224.1088,176.3631,90.3811,48.8143,-49.8262,151.0095,27.4734,114.1227,38.0090,-83.3626,250.0627,152.0321
32.3997,-67.0301,86.5301,-63.8919,437.2260,404.3985,376.0260,267.7877,70.6849,-7.1462,75.9687,-17.4381,187.5137,55.7952,86.6422,105.3354,-71.5156,227.0470,21.2032
71.1493,-42.1882,98.6354,-51.4050,418.3424,355.8698,336.1489,241.8121,13.1860,-42.0028,114.4120,7.7599,229.6998,70.7491,26.4683,108.5291,-100.4702,214.2986,-39.2365
32.0910,-49.9671,33.7696,-68.0548,272.0783,225.0042,310.6829,242.8533,78.3899,51.9770,79.1368,-0.0246,193.0534,52.6569,2.2307,67.9140,-141.4522,126.4744,41.4583
-8.3180,-43.4033,-23.4202,-63.8471,102.1702,120.3718,331.2657,253.7757,92.6792,95.2788,2.8173,-5.0438,113.8512,21.1252,36.0510,41.0807,-144.9507,-33.7702,60.1198
-0.9728,-22.5965,-32.3365,-42.2145,4.2317,70.5415,335.2095,258.5576,57.2332,91.4415,-16.9715,11.8675,80.1692,18.8179,1.1835,46.1939,-136.1276,-130.8378,23.8225
-15.0973,-38.5805,-42.6193,-48.9997,-24.7146,24.1754,311.1994,308.5623,126.6676,187.9936,13.3978,21.8432,88.6832,46.5924,-133.6056,66.8380,-162.8973,-130.9585,105.1895
-61.2355,-80.4852,-65.9664,-83.6954,-2.6152,-25.2084,296.3221,384.8391,235.5934,300.3459,25.4297,8.9910,106.2198,63.8703,-177.8441,92.1755,-209.6606,-120.7566,221.4908
-56.3017,-95.6383,-65.8889,-111.3393,43.0036,-45.2246,286.6775,407.9784,230.6229,282.2563,21.9224,-4.9500,141.7363,56.6970,-61.4592,111.7081,-235.7398,-123.6770,205.5301
-20.9214,-89.4434,-60.3082,-123.4592,53.1834,-63.1774,267.1716,380.9683,188.3922,228.8937,15.8920,-14.8199,163.3083,38.0659,64.1623,99.6396,-232.6236,-109.2943,156.3015
-28.8075,-88.5165,-73.2535,-123.6008,33.0829,-113.8660,262.2408,362.1197,205.1731,226.1813,-25.8573,-36.5360,118.8149,6.8253,164.7312,51.1612,-191.9094,-83.6012,178.5406
-29.9456,-75.3606,-68.2822,-105.7166,32.9261,-160.8516,256.2315,342.3977,186.7585,177.6020,-84.0701,-58.0087,52.9461,-33.3578,315.2105,-0.4964,-113.3996,-61.3360,159.1149
-9.3026,-55.4379,-57.2329,-92.7217,37.3727,-170.3963,206.3817,276.6083,128.5591,96.6685,-109.0464,-68.2586,30.6659,-64.1176,440.1512,-40.7570,-67.2384,-44.5809,97.6503
-55.0349,-69.1452,-97.9023,-117.7131,30.6310,-145.6523,177.9276,200.4407,160.9327,109.8948,-117.7851,-85.8979,39.8738,-81.7326,454.7795,-83.3981,-116.8057,-37.8594,138.4438
-79.8033,-79.7408,-129.7760,-142.9822,37.2933,-82.9719,226.5842,185.7574,190.6084,135.5183,-106.3877,-88.6013,84.0145,-82.0299,420.6770,-107.9255,-195.6756,-42.7852,168.3467
61.8764,-21.0154,-69.5607,-110.8084,22.8693,-29.9507,234.3406,188.2243,37.2376,26.6822,-31.7323,-34.9741,175.4683,-56.3859,372.0417,-89.9882,-208.6244,-60.5552,-4.3098
195.0299,49.5190,-13.3360,-62.3293,-40.8906,-73.6462,145.6537,105.5003,-139.8724,-102.3022,36.7726,19.2459,227.5269,-36.0691,301.8625,-79.3965,-187.2375,-74.7458,-188.3157
133.2897,51.5714,-53.8879,-59.6640,-85.4011,-166.7995,91.8314,-20.4509,-124.7951,-100.6386,16.7693,8.1742,187.2277,-50.3959,253.6995,-122.2740,-196.6152,-56.1249,-154.4728
73.9497,48.4196,-74.8382,-49.9104,-85.3740,-170.4049,57.6564,-74.0705,-86.9271,-80.5633,1.8388,0.3061,148.6148,-58.6965,199.2656,-162.5487,-192.0135,-38.1815,-104.1676
148.6065,105.8258,14.1412,33.4758,-73.4271,-92.2688,-121.5056,-90.9639,-212.8650,-180.5719,57.8035,53.7594,134.9921,-32.7067,88.0942,-145.8770,-98.3065,-71.7454,-237.1851
128.3073,147.6107,101.7598,135.6985,-6.7057,-40.8652,-355.9353,-156.9784,-317.1687,-301.4334,61.3540,84.1369,31.0828,-20.0378,9.1027,-117.9041,61.3486,-98.4346,-343.2592
-46.7359,116.0180,105.2895,180.0815,100.6063,-17.0861,-415.6210,-190.2310,-227.8825,-284.8516,-23.6492,48.2449,-142.4505,-34.1263,-13.6379,-114.5478,192.6928,-62.9578,-239.3944
-120.7431,75.4487,91.4999,177.7934,116.6193,27.2601,-327.8382,-88.2589,-90.7995,-156.4655,-56.3498,29.8873,-215.7386,-23.2174,-95.7672,-96.1192,233.5941,-39.3719,-89.4178
-39.0759,73.8119,110.1942,168.0629,75.0157,62.4231,-242.0029,50.1558,-61.4880,-74.9501,-6.9847,54.8225,-161.0048,10.9053,-187.2520,-59.1922,210.3783,-45.5212,-63.0537
29.5004,91.2679,142.4852,169.1209,126.9631,59.9518,-193.8511,75.7713,-111.4268,-119.4546,35.4100,70.6915,-93.5003,26.2051,-181.7611,-50.7436,193.9006,12.3271,-124.1232
80.4839,119.8660,183.1620,191.1130,191.8665,55.2482,-211.9399,17.5155,-187.1441,-202.4494,82.7982,89.3084,-50.1308,41.4753,-218.2906,-53.3225,206.2646,100.7417,-203.3662
196.2878,155.3214,235.1450,218.5458,146.0522,79.6526,-300.4592,-2.0475,-262.3202,-227.2117,169.6451,133.3801,2.2952,78.2249,-353.6228,-28.0475,227.2270,128.9929,-273.8427
311.4027,173.0101,284.2056,224.9081,146.9119,130.5943,-343.1776,34.2028,-293.2505,-234.5014,229.6731,151.6118,53.3233,93.1354,-359.1496,-29.7152,260.7736,197.2782,-304.9423
327.6787,169.8644,312.6947,217.7975,312.8014,187.5667,-289.9353,43.3823,-271.9149,-282.2619,225.7486,121.4094,77.2497,67.2337,-205.0994,-104.7730,298.1121,380.5231,-289.7411
257.9906,158.8285,303.8607,210.1322,467.9106,222.9810,-225.6615,-1.9870,-239.2820,-325.2941,200.7555,90.3377,80.4662,43.3067,-123.1794,-171.6137,287.4632,504.1666,-260.3864
184.8984,142.2489,268.9295,191.3370,498.3819,235.7524,-169.6503,-26.5634,-223.6930,-329.0978,177.3427,79.4016,87.5622,38.7001,-119.0561,-164.5655,224.7719,464.9791,-250.1460
170.9283,128.6771,244.6741,162.2112,504.1676,241.0822,-81.5319,16.4395,-215.0478,-320.4511,162.1766,72.2985,121.8267,34.1021,-61.8024,-150.3900,161.5017,416.4578,-253.5293
179.6730,117.4088,225.4491,132.8660,520.8139,220.9969,10.1314,65.3821,-176.2720,-284.3120,165.9585,63.5213,166.4882,31.5313,-30.0776,-170.1669,108.5148,449.3665,-218.0384
132.2621,86.8719,183.4909,101.0340,493.1790,165.6427,63.9388,61.1526,-98.0223,-202.3516,159.8595,48.5757,163.1925,39.7965,-89.4867,-154.8991,66.2888,468.5365,-126.3428
57.2297,45.6871,141.2049,74.5084,424.0646,119.6966,56.0448,33.9178,-34.7579,-130.4861,121.9186,27.1276,102.3369,43.8682,-118.0021,-87.6047,68.1044,409.4212,-48.6259
24.9838,21.9902,110.2356,56.0687,315.1837,100.3604,-26.7041,26.3608,-13.5065,-87.4094,81.3389,13.5687,48.6698,31.7559,-68.5029,-42.3058,78.8085,281.2018,-21.5772
-5.1465,0.7699,49.1681,20.2125,163.8556,57.7964,-91.7596,34.3103,22.3910,-14.4173,47.7604,4.8640,34.2336,14.8688,-30.0010,-29.7837,18.3292,111.6474,18.7178
-81.1587,-38.9968,-30.3165,-29.1002,53.2711,-20.3105,-30.5211,44.9715,102.2696,89.6869,8.1006,-12.7933,19.3199,12.4767,-54.7283,5.7340,-67.3575,-0.5843,107.1830
-143.3424,-76.9653,-65.4804,-54.9312,29.9905,-77.1461,71.0059,54.2582,182.0417,173.9184,-12.4574,-29.2346,-14.5583,29.9881,-133.2042,64.3691,-79.8265,14.4893,200.1874
-153.6860,-98.0379,-71.6205,-65.7006,1.5981,-88.1577,65.3135,62.2300,231.0065,236.4131,-4.4790,-33.4347,-33.0066,46.2751,-199.9651,102.3089,-66.2590,30.9863,261.6731
-156.8994,-100.0635,-97.5901,-77.0123,-88.8810,-84.0986,-19.5781,84.4426,236.5563,270.5496,-12.5911,-27.9709,-28.6096,35.9677,-180.2934,95.4018,-107.6897,-99.7591,265.2397
-161.1571,-66.7195,-107.6348,-48.5004,-156.7369,-72.7489,-76.3435,123.0795,183.8468,234.9876,-44.5752,-8.6220,-42.2721,9.6755,-129.0703,42.4071,-131.4720,-270.4502,196.0018
-133.5712,-20.7246,-62.2605,15.5640,-129.0009,-37.4190,-75.2447,142.1237,121.6431,162.7419,-56.8039,11.6702,-85.8773,-0.8606,-131.9247,-9.9790,-50.8656,-262.4702,125.3784
-90.3288,-20.0694,-15.5851,32.4097,-71.0907,-8.4892,-57.3444,118.1856,118.6534,138.8724,-46.1438,1.9200,-119.2692,5.5477,-122.5753,3.5389,57.4085,-111.6166,132.2475
-65.5439,-45.9363,-23.4258,-3.9709,-107.9555,-47.5598,-103.5743,64.2452,132.2776,155.5079,-44.9076,-21.1665,-121.9702,2.6777,-51.4396,46.9827,80.5418,-67.6118,157.8515
-58.5851,-27.5757,-60.1284,-8.2230,-247.3078,-149.9727,-228.5210,-15.9919,81.8466,137.5257,-55.9564,-12.9363,-124.0738,-16.4803,-25.7952,26.5817,40.1306,-191.6040,111.5289
-74.3613,19.6363,-81.5922,32.3583,-344.4434,-235.0745,-300.1371,-114.6889,5.4957,78.1563,-70.8812,11.2275,-152.5023,-32.8390,-86.6352,-33.7126,23.4784,-284.2425,37.8818
-121.6043,29.2016,-84.9575,54.5257,-312.2674,-250.7626,-237.4266,-172.6573,-14.5641,34.4623,-96.2762,9.0233,-192.2969,-35.9047,-121.2171,-40.5812,44.5052,-256.8039,19.1447
-150.1835,11.1454,-82.0458,44.1853,-250.1749,-230.1415,-155.1831,-150.1553,-3.9253,21.8131,-120.5986,-6.6182,-204.0744,-36.3928,-66.5294,-5.7609,55.9662,-236.2748,22.5194
-99.3536,17.8971,-71.2471,32.4186,-253.6643,-235.6456,-160.3449,-120.7568,-42.6154,-8.0619,-113.0043,-4.0591,-164.5182,-42.5022,24.3689,0.4688,41.2646,-259.7480,-27.9639
-15.6415,48.4959,-54.7918,32.0810,-274.7966,-284.7853,-222.8844,-177.4588,-125.0022,-77.5703,-75.5113,9.5418,-104.0678,-47.8033,75.2163,-25.4931,24.4024,-233.4662,-114.3864
-4.7997,66.8052,-47.0285,43.2930,-255.1542,-325.0909,-286.3266,-264.6458,-165.4077,-127.2632,-50.5460,16.0400,-85.3670,-47.2055,48.7670,-51.9263,21.2805,-178.5509,-149.7858
-69.5877,54.7348,-46.1749,56.9390,-196.7338,-290.3492,-287.9135,-235.0494,-117.8616,-99.6350,-61.9818,12.8173,-116.4006,-41.3110,-5.6663,-54.8954,30.6046,-175.7756,-101.1600
-117.8714,18.9261,-40.2058,46.5562,-114.1556,-209.8822,-174.3079,-77.7071,-28.5426,-24.2230,-83.6463,1.3925,-130.6830,-28.7623,-3.1241,-16.5873,32.9102,-186.5940,-22.2529
-104.5502,-15.2982,-49.2554,1.7024,-77.0277,-188.6858,-33.2071,52.4713,39.4263,47.8014,-81.5612,-12.1417,-82.4922,-18.2650,47.3519,20.1734,-13.1551,-168.9014,36.3409
-53.0724,-23.9018,-88.6390,-48.1213,-148.3856,-233.7528,1.9767,60.9111,79.5652,111.8710,-54.9992,-18.6028,-8.3947,-24.8960,71.1817,-20.0732,-96.7805,-143.7187,83.6696
-0.6277,-12.9227,-107.1241,-62.0019,-205.2248,-237.9741,-6.9997,20.3384,109.7410,152.4693,-23.8324,-19.3362,27.0295,-35.1790,40.4337,-103.0657,-120.1837,-61.3937,130.5269
3.3256,-7.7047,-68.9371,-36.5604,-88.8322,-177.1219,100.4685,11.4838,125.8531,132.0092,-8.6067,-22.3692,10.9826,-21.6875,-25.5456,-119.3748,-53.8771,114.1626,152.6486
-60.5095,-20.9919,-41.1390,-21.7798,97.4075,-141.8532,326.9532,13.2297,129.0694,79.1925,-22.7661,-32.9312,-7.5324,3.1397,-78.0630,-63.7919,-20.5486,257.3319,147.5084
-125.5475,-44.1437,-78.0356,-54.7685,151.8260,-163.6552,539.4370,-4.9884,133.2209,60.2078,-53.8241,-49.4471,12.1750,8.5853,-65.2985,-14.4680,-90.8507,266.0854,141.8306
-122.8198,-50.2694,-113.9458,-87.4374,98.3910,-193.9860,628.8939,-26.5382,112.1140,52.1655,-68.6274,-54.6951,43.0144,2.4067,-20.5808,7.1902,-155.4386,213.4739,115.0665
-77.8697,-18.6762,-82.4945,-54.4972,76.3325,-219.6189,578.4163,-41.2900,35.0523,-8.3258,-56.5352,-32.5923,37.4147,6.9223,-30.7666,15.3922,-118.9825,186.1371,32.4259
-60.5754,16.6012,-27.1552,8.7623,115.7764,-249.9069,484.9163,-29.0334,-14.5423,-57.5757,-39.4886,-6.1098,0.6193,19.6109,-99.6127,6.5234,-39.0364,203.3652,-19.1411
-94.2939,-7.3263,-8.9231,16.5049,189.4688,-263.6656,474.8622,66.8654,85.0689,26.8813,-34.5346,-14.9933,-30.0737,35.0989,-154.2076,7.9457,5.0353,279.6586,88.6838
-122.9383,-70.0147,-9.7673,-26.5840,265.0335,-249.4822,525.7550,217.3449,243.5589,172.3354,-32.3994,-45.7275,-30.8050,52.1013,-140.7647,47.8863,15.7887,364.1768,254.5900
-66.6718,-70.3145,17.9270,-34.4800,278.0767,-218.0233,487.0230,264.0306,216.5378,156.4359,-11.7479,-41.1301,3.2162,56.6757,-74.2303,76.4691,24.8155,352.1899,217.8272
42.1491,11.1087,73.4705,24.7806,230.4337,-179.1973,316.0680,139.5342,-6.3065,-39.9292,30.9679,9.1487,43.1953,49.3793,-49.8563,53.8520,45.9805,263.4414,-22.8470
77.0342,73.6240,111.2012,85.0939,207.6793,-166.7137,136.1572,-18.1350,-172.9237,-194.8129,68.2969,51.2230,50.3402,52.9711,-119.4702,39.7169,64.9738,205.8974,-194.3981
32.2363,67.3459,100.7953,84.7511,202.1006,-213.1354,31.2929,-92.8835,-190.2883,-211.4832,75.2862,53.7503,44.2690,62.1295,-164.6084,73.7508,44.9605,165.9948,-207.2364
23.4533,54.5321,61.1019,49.2369,115.3663,-286.7106,-39.3724,-131.0331,-205.3877,-206.6431,59.7203,44.9576,60.7586,49.0750,-87.0102,98.9007,-12.4173,59.6335,-223.5907
62.7990,67.9602,24.0749,30.8728,-42.4473,-343.7444,-82.9663,-163.6122,-252.5864,-215.1193,36.0177,47.1642,65.3320,22.9378,1.0313,85.8953,-48.2672,-73.1374,-272.4293
75.0558,64.0512,-4.4722,22.5166,-160.8701,-388.7343,-28.9993,-126.2469,-215.3076,-147.1535,8.1124,43.6705,28.9998,14.4499,-5.6972,80.6651,-39.2034,-122.6103,-226.2006
60.2996,27.2969,-28.7919,-5.6917,-198.6800,-417.9525,88.7871,-19.9818,-99.5228,-16.8429,-10.5125,26.3731,2.6603,23.7332,-37.6817,104.5861,-33.5208,-97.3889,-99.2129
39.9389,-10.8257,-46.7424,-39.7553,-207.5602,-423.0462,116.0901,64.6708,-16.5671,77.7056,-12.8592,13.5080,8.3801,35.3207,-41.2446,146.5369,-58.3561,-115.9152,-13.3256
-0.2898,-33.8455,-61.6238,-52.2268,-253.4204,-455.8571,10.7836,94.8898,6.8745,123.9049,-19.4449,14.6657,-6.4109,45.5857,-55.8906,206.9846,-80.2296,-235.2933,9.7541
-31.8658,-38.7856,-77.6383,-44.3465,-355.5367,-536.0632,-106.7074,109.8704,7.5904,160.8453,-38.2926,24.4281,-51.8748,50.6000,-90.8586,253.4869,-77.7464,-383.2733,13.4757
-23.1042,-24.8392,-86.1315,-27.5574,-448.0889,-568.7640,-152.1750,132.6459,5.0851,188.9522,-47.4215,38.2655,-79.9105,47.2253,-128.5528,239.9778,-69.5585,-466.4001,14.3821
7.3500,-6.8963,-71.9187,-11.2272,-448.9207,-505.0767,-149.5637,152.7301,-8.8665,179.8619,-34.1173,50.6546,-68.7793,45.0451,-147.1162,204.3271,-63.3772,-464.5530,-2.4322
71.3101,10.0296,-27.6190,-2.8311,-377.1178,-435.0330,-147.1441,144.9544,-72.6582,106.4175,1.1452,60.4758,-21.4323,51.7563,-108.0810,210.1053,-45.6838,-401.7378,-77.0846
166.1343,34.9557,29.0239,6.0697,-307.9984,-406.5963,-180.8294,100.6782,-172.2349,1.5779,52.9672,73.9166,40.6281,62.3026,-56.5597,228.4920,-18.3861,-313.1409,-186.5454
199.0034,51.8282,58.8434,22.4640,-261.9199,-353.1750,-240.7363,49.9452,-209.9176,-48.2527,85.1937,81.7552,60.3485,64.7911,-69.2540,205.4711,5.4347,-246.9927,-222.9215
153.2990,47.0091,48.4144,28.4166,-229.0642,-260.2901,-252.6599,0.9816,-181.5384,-53.2952,63.7806,66.2592,27.1160,45.5369,-58.5508,155.0411,23.9963,-215.5277,-188.1904
131.1653,42.7645,25.3724,12.5166,-207.0161,-194.2316,-179.5999,-72.5318,-186.5734,-98.5687,21.5827,37.7459,10.9232,10.1724,58.7800,107.9723,28.5289,-173.8237,-193.5257
130.2070,40.5790,8.6281,-8.7743,-168.8414,-164.3197,-72.1997,-130.7733,-197.2753,-138.6187,8.7458,19.5705,33.9818,-6.6102,127.4380,79.3079,4.9676,-102.0536,-205.9814
74.8173,18.7501,-5.1087,-18.7643,-105.7621,-130.7637,23.5352,-117.2478,-133.5900,-93.6366,11.9914,11.8778,36.4154,8.9133,41.9055,86.7726,-21.5299,-42.6299,-137.2820
15.3063,2.4713,-12.2100,-11.9573,-76.9870,-96.1324,86.3894,-103.7788,-87.1019,-59.0097,-4.8667,6.7129,-3.0767,19.6517,-33.7624,107.3735,-8.2361,-31.8593,-85.8883
12.2504,16.2986,-14.7774,5.0650,-116.5463,-73.8172,85.2768,-158.5107,-121.5387,-99.1483,-35.7230,3.2085,-49.4577,0.9749,-0.7785,89.7568,33.3660,-53.9849,-118.1604
19.8330,18.3701,-23.7963,7.1126,-168.9435,-51.2743,35.7077,-179.4261,-105.2087,-80.9082,-49.5561,-4.1860,-79.0396,-16.8405,24.9429,52.5329,61.0698,-60.9196,-92.9636
31.6727,-7.4227,-23.7641,-10.6332,-184.2412,-37.4131,-16.5974,-100.9888,-12.4627,25.2185,-30.2906,-11.7698,-78.4198,-8.0078,-2.5999,50.2921,72.0901,-32.2030,11.6065
66.6775,-8.4818,-1.3182,-8.3039,-181.4228,-57.5068,-91.1911,-49.5446,0.4196,54.8791,1.0533,-2.2573,-59.6194,6.1279,-23.1881,63.0236,83.5364,-23.4335,25.5979
59.0760,26.0072,12.0959,32.2096,-196.2923,-100.5517,-201.0555,-99.2488,-72.3713,-13.6078,1.6282,19.4242,-76.2838,1.6016,-48.8886,41.1671,94.0425,-88.5828,-52.1599
15.5821,55.6888,-0.4173,72.7450,-244.7778,-137.5236,-275.8807,-147.6773,-106.4579,-46.4233,-24.9715,33.5153,-125.7331,-14.2941,-91.9283,-9.6309,101.2697,-173.3130,-85.1368
53.1346,77.7318,-4.9607,85.5284,-314.0612,-155.0867,-289.5531,-127.6501,-111.4753,-31.5492,-25.3523,44.0085,-128.7498,-26.6328,-94.9390,-63.8645,104.8245,-198.4486,-87.6066
142.6827,96.8793,14.9774,85.5009,-340.0384,-136.0674,-286.1030,-77.4185,-127.9562,-27.8566,4.1189,55.6172,-85.2707,-29.7467,-62.5525,-100.6741,107.7109,-171.6171,-107.3446
147.6551,89.3511,45.3153,91.7448,-254.3986,-63.7117,-243.7514,-19.2308,-111.8918,-29.1123,12.6799,53.8071,-80.6403,-19.8785,-56.3981,-86.0677,136.3601,-118.7570,-97.7226
103.9906,73.2368,85.8598,108.4637,-98.7866,32.8967,-139.8849,35.5373,-104.6060,-61.3881,3.0107,48.2166,-101.5081,-0.4035,-65.7717,-27.8162,182.9679,-58.4706,-103.2284
130.0079,95.3041,121.1512,125.7939,-12.6309,92.6190,-61.2524,52.8737,-190.0980,-157.0393,17.8909,66.4838,-56.9596,10.1999,-45.0412,-3.1378,168.8204,-61.8940,-211.9398
192.6975,137.0732,115.7358,126.5236,-43.3577,104.3525,-42.6456,33.4810,-286.5703,-235.6694,41.7830,91.6862,28.6722,-2.4423,-1.9532,-56.6845,83.7225,-126.1695,-326.8650
209.3930,148.1861,89.1712,112.0888,-62.3804,128.3207,8.0006,-4.3904,-283.1893,-242.4549,39.0075,84.2890,59.1976,-26.2861,38.6124,-136.3214,42.1261,-91.4001,-321.2775
