Fp1,Fp2,F3,F4,C3,C4,P3,P4,O1,O2,F7,F8,T7,T8,P7,P8,Fz,Cz,Pz
29.1980,91.3878,-15.4573,20.0802,-34.8398,40.3436,2.2989,71.8879,-80.4963,46.5894,23.9620,75.8931,-72.2394,68.3258,-40.9579,66.2970,43.2583,-16.1992,33.6009
122.0246,241.4735,20.9287,56.8558,-7.5465,9.0606,-82.2438,35.9395,-71.2409,27.8262,99.9438,166.9906,-78.8779,73.8693,-64.3737,50.0169,161.4469,-41.3519,-13.9344
163.7261,281.6168,26.2758,51.2336,7.7499,-68.6079,-231.1272,-45.6088,-101.4062,-27.3421,133.1773,139.8805,-105.2109,-27.3122,-104.8395,14.9689,185.6972,-68.5785,-138.9962
110.7986,200.7011,2.3100,-35.8224,-11.8536,-109.8761,-299.2792,-120.9496,-123.1205,-71.6922,82.5002,53.3215,-118.6492,-125.2708,-145.4931,-47.4215,107.8138,-43.6853,-210.0673
34.1411,107.2786,-13.1330,-119.5690,-34.1676,-110.9967,-295.7430,-145.8103,-111.7230,-83.6440,1.6256,-0.8944,-130.7324,-157.8895,-172.9483,-105.3205,37.1877,-22.5859,-185.0721
-32.0198,6.3969,-33.4742,-154.8760,-42.0354,-149.5362,-295.4973,-124.9798,-87.7563,-58.1688,-73.2628,-58.5968,-149.0940,-204.2526,-177.5405,-119.1631,-18.8611,-77.9550,-131.1589
-104.6186,-110.2702,-95.8627,-205.0923,-80.6243,-237.1949,-267.8510,-90.5462,-39.1680,25.9211,-143.2319,-139.2023,-173.8517,-279.4007,-150.5757,-88.9027,-98.6591,-168.5537,-80.0945
-157.7646,-175.0602,-170.6266,-273.9578,-149.7314,-305.6014,-226.4612,-77.3227,12.3357,118.6369,-181.0836,-197.2643,-218.3415,-308.2756,-132.4346,-65.1938,-162.9875,-216.0515,-44.0013
-171.6375,-183.4229,-199.7375,-273.0547,-177.7119,-313.0596,-264.3265,-102.3040,-16.7241,128.9415,-179.3911,-223.0833,-249.5551,-290.6270,-189.6549,-94.8788,-185.8659,-211.7252,-49.4025
-183.7737,-194.1971,-191.2728,-210.0850,-160.5432,-293.1567,-336.8009,-143.9270,-101.9060,98.3487,-188.5740,-218.6089,-238.5640,-277.1371,-287.9418,-143.4722,-197.8113,-198.2659,-70.5073
-208.7336,-206.3321,-191.5620,-196.6437,-168.3396,-307.7481,-331.2470,-169.0763,-118.9840,122.7432,-225.6720,-184.4568,-257.2755,-274.5359,-319.5419,-145.0618,-204.0050,-211.8536,-68.3250
-228.2291,-206.4129,-209.8948,-242.4830,-208.6928,-358.1204,-288.6693,-175.1290,-70.0004,144.3126,-259.5190,-164.1407,-338.7612,-281.4188,-287.7741,-125.1664,-202.2590,-233.7452,-59.3429
-257.0322,-215.9416,-235.2201,-253.9124,-239.2413,-371.9017,-275.0540,-170.9506,-52.6951,68.8957,-294.1857,-160.9642,-380.0187,-289.1454,-279.9413,-149.5184,-217.4267,-210.9887,-43.6040
-297.6519,-218.4221,-271.2224,-221.7753,-261.7560,-316.8364,-239.9562,-156.4305,-62.1075,-45.2367,-337.3365,-120.6589,-342.9591,-257.1148,-279.3017,-189.4641,-238.7563,-163.7734,-5.6857
-301.4654,-185.4780,-306.2463,-202.8773,-282.4754,-250.5658,-186.7844,-150.6234,-57.1487,-116.9384,-344.0861,-70.0707,-310.9923,-191.3164,-221.4479,-181.5550,-231.1350,-165.4781,-11.7973
-261.3734,-145.1489,-309.0576,-179.6170,-272.5471,-210.2185,-207.4115,-173.2121,-79.5829,-166.3028,-300.4059,-75.0200,-286.8911,-147.7456,-154.6650,-143.7989,-212.5769,-188.1040,-115.1227
-232.6691,-124.8365,-280.4176,-129.0577,-230.6917,-169.6026,-284.1256,-195.1552,-145.2246,-202.4856,-259.2509,-100.2485,-213.8279,-124.8711,-146.0767,-117.5836,-219.0229,-146.4343,-229.5492
-232.1702,-116.3100,-250.7982,-112.9204,-187.4677,-133.4288,-320.5491,-191.5325,-204.6011,-191.3029,-244.9573,-94.3026,-134.7381,-89.2244,-166.9646,-100.2075,-239.5322,-81.6286,-273.1109
-237.0283,-117.8711,-234.6677,-149.4659,-156.4896,-137.1582,-321.5479,-198.0937,-259.2097,-151.9103,-245.6782,-72.7091,-100.2403,-58.5995,-197.0546,-93.7815,-250.4325,-95.1235,-288.3139
-259.7245,-127.9249,-240.5195,-159.0569,-153.4229,-155.8990,-336.4388,-227.0191,-321.1441,-126.7447,-280.1073,-36.8766,-72.5484,-46.5045,-255.7380,-110.0092,-256.0910,-163.5905,-297.9731
-315.7208,-139.3826,-279.7560,-120.2909,-195.2337,-141.3811,-332.5750,-221.9023,-315.0656,-97.7251,-353.1204,12.8888,-40.3418,-33.1020,-292.5203,-122.6879,-270.2643,-193.0491,-242.5560
-370.5396,-162.2019,-318.0354,-91.5262,-251.1130,-111.9216,-266.6680,-164.2384,-201.7348,-35.6311,-417.0930,34.0242,-44.4619,-34.5019,-248.2005,-99.0249,-288.8831,-155.5852,-126.9361
-390.8367,-186.0415,-295.1154,-75.1914,-280.1094,-102.3492,-179.5949,-96.2967,-88.1269,17.8963,-450.2817,31.0679,-80.0971,-67.3442,-180.0641,-48.0765,-287.3151,-76.9836,-38.0503
-386.0351,-180.6136,-222.3363,-42.6430,-288.6715,-93.6572,-131.6526,-24.7620,-75.0582,-2.2349,-471.1938,39.7010,-108.1752,-80.6246,-156.6229,1.5120,-257.0740,-0.3428,-7.0126
-372.9830,-171.6973,-165.6821,-23.7373,-281.9925,-65.4124,-106.2184,56.1980,-116.0697,-68.4559,-468.4070,27.6297,-102.0652,-37.7510,-141.8859,32.4881,-234.2017,33.9235,5.7566
-355.0985,-199.2763,-138.1643,-29.0057,-242.4460,-30.5575,-51.1288,95.4567,-120.4960,-92.4944,-426.6329,-17.1961,-45.8007,15.5176,-100.3251,37.9872,-243.9556,53.3816,21.7308
-327.7345,-221.7596,-110.0366,-3.4508,-189.2527,14.0328,10.9957,62.4939,-89.4526,-91.0862,-371.1990,-32.5595,34.4568,23.9515,-69.3838,15.6058,-251.0132,119.8108,24.0921
-272.5372,-188.4072,-80.3848,60.2958,-152.0570,72.6547,14.4573,1.2432,-70.5669,-155.4911,-306.7570,-18.1355,84.9645,-15.5215,-62.7013,-29.0025,-217.1686,203.1977,-8.0485
-183.8530,-129.1927,-49.6099,104.4916,-107.0235,101.3874,-22.4970,-55.4424,-53.3119,-245.8838,-213.5533,-22.7020,107.2099,-62.7491,-40.5274,-73.4169,-152.1521,220.5192,-67.1243
-102.9759,-86.3210,3.0395,116.1516,-40.9284,74.5695,-34.5295,-107.9365,4.1493,-235.5175,-131.3773,-18.7349,132.5309,-75.7464,-1.4086,-92.8491,-79.8522,177.9682,-104.8388
-70.2243,-62.5189,59.7735,116.9124,-1.7623,35.3215,-25.0901,-138.5089,95.8985,-111.8455,-112.7596,17.2815,143.2331,-77.7305,13.6927,-87.7892,-20.0150,140.8457,-79.2235
-68.6003,-66.2084,75.3041,83.8364,-5.2403,-1.2144,-4.9471,-142.3669,200.8108,64.8183,-121.3803,30.8238,118.6511,-126.3192,17.3137,-68.0345,2.0913,119.0650,-9.5319
-68.9053,-109.2395,59.1023,1.1863,3.8687,-68.2080,66.4572,-141.2901,323.3976,243.5658,-105.1437,2.9288,97.1742,-185.6927,69.9603,-36.7654,-16.2593,85.7343,58.5451
-72.7361,-168.0905,55.6235,-75.8158,51.1257,-125.9749,163.5335,-118.7334,426.2709,323.7285,-82.5545,-34.3880,123.6613,-172.7979,160.0182,-21.0204,-42.7837,45.6868,117.7053
-69.2834,-204.5147,70.9530,-101.5960,98.7032,-98.2815,207.7032,-46.4640,438.7131,268.6035,-60.4871,-80.6943,186.9535,-120.3439,198.1859,-46.8448,-50.4393,28.4585,188.6606
-29.8340,-203.7869,94.0709,-103.9846,124.6623,-24.7248,235.5811,38.1774,384.4154,219.4572,0.6354,-124.1677,237.2487,-103.6222,164.5587,-78.7398,-34.7615,49.2787,272.0836
36.0513,-178.5026,139.2413,-105.9138,151.0281,7.7641,315.5405,81.2719,346.2165,242.5906,88.1195,-125.1096,245.2213,-90.8174,134.2530,-79.1299,5.4985,82.2429,333.4885
100.0505,-143.9084,213.4025,-80.5131,196.2209,6.9472,368.6745,82.9897,318.8734,215.5230,148.7089,-97.8136,230.1285,-50.4266,133.9891,-77.1419,71.8420,75.8674,332.0056
166.3133,-96.1634,285.1641,-26.2923,247.9637,-3.5343,322.3089,66.2495,272.7368,122.3736,191.4292,-80.2241,220.3512,-42.1686,128.7658,-90.2965,152.3116,22.0633,273.4532
231.4091,-40.8744,312.7836,11.3120,282.0303,-51.3165,270.6311,45.4269,259.1932,78.2166,248.2072,-68.0474,218.1306,-70.9200,135.8145,-87.7813,213.8395,-32.7753,213.4102
260.3279,-13.8880,285.1449,12.2101,292.7024,-106.2382,283.5932,29.6780,289.3468,68.9973,293.3273,-60.4099,221.8202,-61.4624,182.8655,-74.7305,225.5491,-73.1464,182.7300
252.5586,-22.4186,229.7057,-5.2993,291.3487,-92.6540,295.0330,10.7194,284.5156,40.6308,300.5955,-65.6075,228.7172,-18.5895,222.5236,-77.7017,201.2403,-129.3674,158.4117
243.2816,-28.3948,177.1645,-23.3388,277.7981,-31.4253,281.9548,-22.9254,240.2503,41.2639,293.4076,-62.0370,222.0361,-2.3685,224.7439,-78.3801,178.6329,-186.1070,125.9672
231.1331,-27.9211,131.3754,-23.2877,249.3507,2.7853,288.8564,-59.4876,221.9056,43.1909,287.5432,-50.9831,208.4569,-1.4193,227.3475,-73.1756,153.3970,-180.8719,94.9167
196.5946,-51.6894,97.3257,-4.4603,230.5261,6.9602,282.6576,-85.5529,208.6584,-37.8096,269.0211,-69.4527,217.9335,7.7912,232.5052,-92.5460,101.7545,-111.7089,53.6572
157.6092,-86.3791,98.8309,-9.1743,241.7603,9.6157,222.7829,-100.0864,161.7812,-131.2602,233.9830,-105.3659,246.9585,1.0212,216.6298,-118.1057,49.4694,-48.6536,-6.0953
132.0925,-101.6817,125.8817,-49.5228,259.6052,6.4723,171.3153,-102.2738,141.7841,-155.6966,191.4960,-115.4412,277.6962,-21.2058,215.1002,-119.2732,31.4298,-30.2229,-49.1778
103.0154,-115.8855,124.0512,-71.8298,254.9578,-7.0136,172.0809,-99.2855,184.7798,-169.8457,148.5521,-110.1642,312.2873,-40.1969,246.6556,-122.9461,20.4305,-27.7346,-47.7716
62.6773,-148.8944,79.5043,-65.4620,234.5655,-25.4525,184.2377,-93.3078,220.9680,-185.9487,115.0448,-118.6972,330.2165,-66.1204,259.1462,-135.8647,-19.6474,-12.9034,-18.6439
35.1307,-169.5908,47.1591,-78.3228,219.0412,-46.4320,189.7942,-69.5185,201.4042,-161.3145,99.1783,-123.0135,307.4575,-80.1513,231.3793,-127.3877,-56.9875,2.6016,13.5206
44.1751,-138.4695,67.8804,-96.8087,218.9045,-57.6996,189.8063,-45.7555,150.5375,-151.9833,103.4024,-90.7180,277.4407,-48.6811,185.3169,-121.9592,-36.1071,2.1187,29.0981
86.4032,-63.5110,120.8521,-78.8250,232.7542,-57.9479,146.0900,-57.7481,96.9275,-175.1969,126.9183,-33.7303,267.5737,-16.8382,117.7851,-147.4439,34.8751,-5.3080,14.7598
128.8164,1.3123,167.2080,-60.6913,248.8979,-63.3596,70.6209,-73.4546,52.6300,-159.0380,154.3764,0.3580,253.0694,-29.6279,47.9797,-159.4219,91.6269,-2.0512,-9.3648
147.0077,24.3078,195.0226,-62.2931,260.8792,-55.0635,40.1916,-58.1502,11.4494,-159.9324,167.0443,4.8658,232.8979,-31.6432,23.7940,-145.5904,107.9889,13.5671,-24.5505
161.7548,47.1910,215.3122,-13.5296,265.4978,-5.8795,51.5661,-71.6894,-40.5909,-251.9351,170.7301,36.6305,222.6968,9.0672,22.4013,-152.3047,131.7402,28.0368,-58.2321
190.0880,101.9494,230.1476,87.5206,246.5080,34.5557,40.0463,-141.6856,-68.6284,-294.8591,176.3983,105.3205,200.1131,28.7362,-3.3356,-162.9827,186.5573,26.2022,-112.0068
202.3180,138.1425,219.9531,128.4327,211.5619,-3.1159,22.1195,-183.7724,-32.0547,-196.3728,180.3064,140.3020,172.9459,10.2914,-22.2943,-139.1197,215.0591,3.8295,-127.9911
188.4272,136.3258,180.2165,77.3293,206.2509,-89.3669,34.7112,-172.3769,8.5725,-111.7481,187.3489,141.1676,181.9329,11.3513,-14.0959,-121.4729,190.7338,-26.0102,-104.7479
184.0789,165.6550,147.2382,30.2571,228.0616,-133.1346,29.0320,-180.9529,-24.2894,-123.5126,198.0220,188.4531,195.6454,37.5546,-29.1722,-130.8176,176.5745,-39.6436,-116.1980
188.9786,230.2409,149.8450,42.2638,217.4532,-98.4711,-21.0587,-216.2819,-79.2056,-127.0661,184.0123,262.6587,169.5156,55.1268,-65.5824,-117.9790,198.6708,-15.7529,-172.0251
169.5594,245.7645,163.5562,75.6516,173.9865,-26.4386,-43.6506,-231.8607,-63.8424,-107.5958,143.2448,275.6394,145.8720,71.3343,-57.5561,-91.9100,201.9882,48.9892,-203.0487
137.5295,214.0131,149.3037,97.3052,144.5724,25.7093,-3.3709,-234.9247,2.9871,-125.5175,117.8104,251.6333,152.9286,94.4889,-12.4615,-100.5418,172.8645,121.3533,-181.7240
116.7735,204.5951,108.4008,109.6632,115.3821,42.9720,36.1240,-218.3201,41.4121,-116.6238,111.4418,252.9381,149.8619,106.4518,0.5185,-103.9393,149.8684,154.2632,-131.8763
89.5181,196.9200,74.3942,112.1646,69.0832,50.4672,35.6246,-138.7097,36.9119,-19.1824,90.2007,239.2290,130.2509,105.5636,-25.6707,-54.9474,125.2073,156.0243,-59.0386
53.2823,145.2977,75.9557,104.2465,59.3618,61.1145,35.8584,-26.5641,41.3777,77.5724,64.4259,181.2613,117.8628,98.5055,-38.1094,-2.1709,81.3768,187.6517,34.7863
40.7332,102.5728,118.9990,108.0413,101.8166,70.5043,62.7490,48.3107,70.2255,86.3884,58.7667,149.8107,102.2946,90.7052,-17.6936,17.7245,61.7462,262.6915,107.7600
54.5711,122.2510,185.0607,143.8098,130.1170,94.8738,78.1555,80.5400,63.5734,34.6251,54.5299,178.9523,81.7565,107.9938,-3.3780,36.2123,93.9107,327.6917,112.8775
70.3178,157.6960,235.1144,190.8127,119.7650,139.9805,60.1549,88.2999,3.3240,-25.2950,45.4657,202.6171,65.6943,144.5963,-19.1620,54.3257,131.7867,352.5276,67.9868
83.9691,149.6618,235.0705,212.7254,106.8342,161.3730,55.9596,75.9171,-25.0807,-63.2741,58.2492,174.8431,38.8831,140.8259,-22.8439,49.7296,136.5874,338.1320,42.7140
103.2121,117.8638,200.6519,209.3508,102.1913,130.2345,88.8799,58.3241,8.1920,-49.5794,86.9740,134.1281,12.2987,93.2169,14.4226,51.3610,133.8255,259.1644,47.2137
130.7630,122.0718,187.1899,197.8400,98.6592,82.2129,90.0945,29.5653,13.8566,8.2686,103.5166,132.0426,8.3215,72.5729,40.1103,79.3288,162.3331,119.7092,9.5440
161.0042,177.5190,206.1711,181.1411,94.6832,53.3276,19.4757,-25.5862,-25.6046,40.6528,106.0060,164.8669,-5.3463,94.0956,26.4920,97.9797,214.5403,12.4045,-88.0941
172.8537,239.5011,212.5361,180.7392,76.0258,46.4876,-52.9723,-76.4958,-33.2904,-9.0430,96.7140,197.8141,-31.3677,112.5806,31.0389,95.1634,247.0662,10.7195,-181.8921
164.6503,275.8933,197.2449,228.9295,49.1733,68.4694,-86.1506,-113.6214,-29.4122,-114.1872,80.3339,222.2177,-14.5812,124.7292,60.9981,90.3205,246.8194,71.5758,-261.5132
168.4249,298.3505,190.0691,295.6324,46.5664,113.2051,-130.7064,-175.3712,-78.0838,-207.1667,84.7457,239.1200,14.4853,144.5317,47.8405,66.8669,243.6447,113.5278,-348.2794
176.8204,294.8102,172.7045,310.1735,59.4314,141.1357,-183.2139,-225.1399,-129.5231,-250.8298,106.1194,222.3543,-13.8322,149.0038,-0.3687,19.2888,232.1742,113.5988,-378.6569
141.4166,235.0679,117.9305,265.7353,52.7997,147.2504,-180.6766,-184.4441,-140.0033,-237.6489,93.8061,166.4830,-42.3906,133.0871,-15.2878,4.8878,171.4372,98.7911,-314.0042
74.1081,159.2933,61.6439,221.3104,24.0036,175.0688,-150.4364,-90.4305,-157.9461,-176.5072,43.4909,112.8009,-11.2731,126.0418,-7.9501,47.9518,84.6145,100.6482,-238.9560
26.4931,126.5538,17.1116,203.0399,-21.8252,214.7313,-150.1940,-17.8546,-178.5850,-101.3165,6.5782,79.8444,-0.4094,129.1797,-22.6105,92.4140,27.4394,121.9982,-187.4622
-11.6164,100.7666,-54.1313,165.9690,-73.7876,197.7840,-132.1629,51.7079,-153.4391,-38.7301,-8.1624,47.0452,-56.7544,110.5167,-39.7645,107.2169,-23.6255,140.9839,-91.3285
-66.6700,22.8741,-111.9049,71.5410,-88.9656,121.4794,-58.5531,129.0569,-114.3167,10.3420,-37.9427,3.0549,-98.1924,44.7841,-28.5418,120.8447,-103.2953,156.7333,19.2923
-106.4780,-68.7121,-77.1158,-32.7362,-61.0345,53.8138,-3.1241,166.8017,-91.3878,24.5746,-84.2546,-51.9902,-78.2942,-53.2137,6.2543,139.0291,-157.7148,182.8412,39.8304
-104.1867,-98.6246,-9.7508,-72.6637,-43.0582,12.8277,-2.0177,168.3450,-61.8530,-23.6200,-106.4104,-95.0102,-38.7710,-113.1929,45.6611,136.1066,-145.4462,191.9022,-1.1694
-79.7456,-62.7144,-17.0455,-60.0864,-47.1943,-32.2621,5.7600,160.8251,-53.3996,-108.1395,-81.2772,-78.9017,-13.7352,-90.5024,56.7452,103.1080,-110.0228,149.8701,-13.7393
-44.4002,-11.3501,-54.1287,-44.7428,-47.7428,-66.3890,26.9373,112.2897,-88.3412,-195.0604,-33.8583,-25.5481,-10.8099,-51.0291,24.3022,40.0036,-72.5927,83.8078,-21.4714
3.7372,25.5387,-30.0543,-15.8431,-58.6087,-59.6969,1.0208,15.3042,-101.3990,-281.0858,-4.9201,-14.5508,-18.7083,-61.1118,-12.7328,-40.8895,-4.7830,29.2436,-78.6474
50.2335,61.1631,20.0037,29.3849,-79.3291,-50.0017,-58.9732,-68.4503,-80.4314,-324.7476,7.7157,-28.3695,-9.5954,-74.7593,-25.5767,-90.9458,75.2770,-32.6646,-155.1104
85.7112,102.3240,28.0010,42.1302,-64.9744,-89.0891,-86.3280,-109.7185,-95.1168,-284.0625,38.2866,2.0462,14.3601,-54.9653,-34.9799,-83.0878,116.6180,-116.8120,-205.1690
109.3620,119.6834,9.3441,30.5630,-17.7315,-152.7341,-87.1678,-139.6999,-136.1046,-233.1527,80.7975,39.8241,35.8616,-42.7553,-50.1897,-69.1423,116.6486,-187.8498,-233.8203
113.1753,111.5851,3.5803,38.7872,27.3228,-175.3793,-112.0704,-189.1957,-150.1681,-264.6632,98.2800,44.9617,71.4760,-22.8079,-59.4684,-107.7700,107.7007,-213.3736,-266.4305
104.3260,118.0780,15.0975,28.6984,75.2922,-136.5274,-149.4336,-257.2662,-147.0094,-328.9020,93.2613,68.2930,119.2037,50.4823,-60.7620,-177.6636,107.0051,-202.1221,-304.0204
96.9144,122.3185,24.5178,-27.6775,110.4161,-73.5890,-150.1472,-295.0859,-115.2189,-324.6978,87.0531,89.6326,131.5018,99.0656,-40.2736,-214.8336,104.2138,-177.4145,-301.7248
72.8297,70.3233,4.3910,-61.1056,80.3115,-25.9087,-112.4283,-251.0968,-21.5369,-248.8662,64.4177,32.2346,92.2731,46.7123,5.4778,-198.2647,75.6677,-147.8029,-216.1667
14.2461,-3.9992,-49.4123,-56.4154,2.6183,8.7498,-63.2228,-158.8880,77.9792,-152.6147,9.5027,-37.5276,27.6751,-12.6029,34.9866,-160.1482,21.5369,-108.2525,-77.9146
-53.0883,-38.8184,-106.3744,-83.6952,-55.3554,44.1362,-7.8285,-81.2584,126.7346,-59.3635,-52.2955,-31.0586,-39.4199,2.7556,37.4115,-125.2172,-31.1174,-63.4462,48.2753
-97.4381,-63.1085,-141.8273,-130.4979,-80.2332,61.9726,39.1370,-3.0851,154.9052,19.4353,-88.2414,-28.0686,-80.3047,11.5519,52.0285,-81.5170,-74.9399,-27.1521,140.8987
-111.6397,-102.0356,-146.7689,-128.6044,-86.8778,50.6648,44.3028,91.3708,159.5322,62.4899,-89.6162,-87.7707,-80.1014,-38.4381,62.9879,-29.1348,-112.1919,10.4048,195.0936
-96.2528,-105.3945,-114.1455,-89.0345,-76.1969,40.1469,18.0767,136.7460,110.5624,67.9122,-67.1779,-118.8403,-73.0143,-73.2584,26.4881,-1.0448,-115.7995,61.4164,194.5643
-66.6540,-72.7020,-65.4642,-53.5389,-61.7974,39.5306,3.2559,97.2385,74.6382,77.9525,-43.8089,-89.2911,-81.4563,-64.0749,-15.7479,-3.1893,-81.8988,93.8082,153.9391
-53.9154,-73.7101,-43.4095,-39.8793,-53.6353,18.5007,9.7715,33.4968,111.4795,123.3594,-32.9548,-84.4171,-73.6848,-64.3154,-5.4344,-6.6525,-67.1875,88.6568,113.9304
-61.0500,-114.5608,-50.8887,-63.2867,-43.7282,-14.3212,38.6050,5.4270,153.5443,151.2152,-20.2511,-127.6657,-24.0148,-78.3195,33.7149,-5.9394,-100.6034,96.3795,87.9163
-53.1037,-127.3609,-48.8699,-85.6647,-34.7607,-18.6196,90.9175,18.0543,134.0119,105.4391,12.2464,-156.6986,51.9071,-65.0208,63.0432,-1.8853,-125.9593,139.5295,60.6887
-7.5756,-67.7164,-10.1844,-41.6142,-17.2292,0.6407,108.4249,47.3507,80.6755,42.8820,55.8139,-121.0984,114.8833,-20.6916,76.3065,25.8033,-81.4451,155.8078,21.3562
48.1071,33.2853,51.4613,35.3500,31.1004,25.6351,49.7622,55.4670,44.1172,33.3237,82.6234,-27.2071,132.1850,35.8201,70.6062,58.5697,9.1992,125.8390,-16.2534
64.9768,83.4182,93.6829,79.4454,81.9261,74.6152,0.4283,34.9553,53.5236,39.5905,78.3149,43.7254,124.5030,95.5658,70.2898,53.8263,59.4506,120.8078,-21.3255
44.9880,44.9414,100.6669,113.7076,97.1937,140.6458,28.4445,31.1751,94.8908,23.0177,63.8149,26.0914,131.8986,143.6709,106.8875,39.3942,41.9944,155.5995,5.8529
44.6610,10.1548,107.8798,149.0153,98.5651,172.4115,55.0886,59.5199,109.1408,13.3198,66.7953,-14.4316,125.2859,159.8404,140.4298,55.2302,35.7729,149.0290,26.4782
70.6328,36.7900,123.4837,133.1310,90.4919,155.1967,36.8678,74.1659,96.1130,15.0561,71.6363,-5.6838,71.7335,142.7001,123.5222,56.3885,81.6476,80.8339,38.3070
59.7042,34.1973,101.6121,71.4212,37.7280,127.3630,59.9453,66.3453,128.8161,19.3426,47.6193,-10.0283,22.8588,114.2769,98.6920,13.3158,95.9362,36.3404,86.3281
10.9604,-39.1719,46.3766,11.1218,-27.0261,117.7600,140.1593,82.3680,199.5401,62.4463,17.9506,-74.2105,1.1153,90.0543,109.9988,-11.7233,39.0888,50.2236,170.0951
3.7959,-77.3457,15.2394,-38.9027,-46.2783,115.0809,184.5525,122.0601,222.4829,130.7388,28.4298,-121.1089,-52.4978,56.6898,125.1216,14.4557,5.8049,49.8731,226.1917
51.1596,-32.0280,8.6238,-54.7819,-50.8702,87.8068,179.1380,136.2548,198.4563,141.0541,71.0992,-105.5124,-128.4365,12.2805,121.4462,43.6942,42.9272,8.5244,219.9678
89.1663,19.9320,-0.8749,-18.2588,-71.2080,35.8089,179.8954,120.2832,191.4447,82.1120,109.1541,-80.7778,-149.0847,-11.2996,117.4597,40.6067,80.2148,2.3263,187.2711
103.4678,31.5123,8.0599,7.9565,-63.2631,1.9549,176.0016,106.6959,193.2555,25.9661,134.4299,-85.3137,-119.1658,-21.4827,106.7950,12.9907,86.3049,40.1965,170.8683
122.6030,20.9446,36.5547,-13.6220,-19.4096,-12.4363,139.0101,90.0347,169.4342,22.0007,150.2725,-102.5119,-87.0117,-68.3895,81.7823,-13.1863,95.4784,13.0178,156.0529
138.5107,12.7355,39.7397,-37.0248,8.6775,-65.2601,104.2739,45.7237,151.5099,66.0673,151.0022,-98.6326,-46.8050,-129.8473,76.4140,-9.6031,109.7189,-101.8490,106.4690
132.0242,20.1732,15.5177,-60.7350,6.4015,-146.1608,105.6478,-6.8079,165.9705,103.0868,139.3603,-67.6063,6.8563,-137.7425,97.9589,2.6868,109.2321,-186.2494,45.9509
104.2810,11.5945,-11.0121,-111.5500,-12.7795,-167.6641,125.6717,-29.0149,167.2668,84.9485,118.7305,-63.7810,57.0756,-111.5090,100.2115,-22.4235,83.3144,-192.8951,28.6902
53.4142,-47.6909,-48.9434,-141.8453,-44.5628,-125.2200,138.4546,-22.6528,129.2173,63.1570,79.2864,-109.5085,103.6231,-94.9726,76.4985,-51.4582,22.4053,-189.9449,42.9642
-7.6557,-91.8623,-92.2171,-130.1387,-66.5979,-98.5495,140.1460,-16.2744,107.3096,84.4152,26.0614,-114.3719,129.4061,-51.5515,73.2196,-36.0149,-39.1254,-186.2667,45.8596
-39.0450,-49.6999,-108.2783,-131.3389,-65.6278,-99.1563,132.9840,-20.4893,128.2328,68.6014,-8.8997,-35.4751,114.8433,21.2174,84.4082,-32.9825,-43.4798,-138.6025,47.5886
-29.9147,10.9719,-99.4751,-142.2573,-66.1960,-80.0004,104.7255,-25.4755,129.3651,2.9675,-9.1683,18.0085,92.7226,41.3962,54.7450,-78.4310,-9.9766,-88.6496,63.1949
-15.3945,1.8793,-81.0270,-128.1949,-76.3706,-46.3056,50.9705,-22.8831,100.9841,46.4388,-2.4677,-23.4275,76.8628,0.3344,2.2563,-86.2561,2.5062,-105.0035,71.3066
-27.5886,-60.6246,-59.0418,-135.0750,-85.4439,-33.0248,12.2729,-18.7022,136.3609,232.2607,-25.7196,-98.8374,34.7554,-30.9067,1.5335,-32.5335,-10.3548,-169.5549,83.5474
-71.3536,-140.7708,-70.1746,-186.5127,-106.7465,-39.2340,28.4206,-21.3809,247.3135,371.5343,-75.5195,-164.3889,-6.4249,-40.4269,44.5047,-20.5891,-40.5807,-228.0490,139.0137
-124.0759,-212.1992,-127.1467,-215.6911,-138.5684,-46.1186,74.3750,-15.4842,319.0688,366.6231,-114.9562,-210.9432,0.4942,-41.2236,63.6917,-69.4730,-88.8794,-253.1951,217.2844
-145.7863,-222.3624,-160.4207,-194.9878,-147.5132,-46.1797,112.9388,17.3109,296.4717,293.2657,-123.9782,-197.6085,10.0001,-15.6628,59.0111,-85.0915,-112.6330,-234.0959,256.5332
-121.7269,-173.7208,-128.7786,-158.3133,-132.0399,-47.1781,148.0759,52.5011,218.8722,193.6000,-110.7805,-132.3970,-12.6368,2.0136,57.3426,-52.3199,-84.0697,-189.0579,233.2830
-78.1823,-129.6324,-87.7662,-116.5240,-115.7791,-65.8834,170.9036,63.0042,114.6533,75.5491,-78.9552,-87.2031,-8.1283,-37.5109,32.7929,-34.6935,-49.4938,-153.1264,177.9957
-41.9428,-102.3275,-76.7699,-83.0685,-94.6731,-99.5854,154.7994,72.5692,24.6013,5.0921,-28.9741,-81.7517,40.5845,-87.4815,-16.0869,-38.4891,-44.0923,-118.7551,140.1896
-17.7708,-78.9425,-64.1743,-77.8581,-62.0840,-125.7077,116.3900,85.9975,0.6771,11.3000,17.9395,-91.6359,70.2725,-99.5256,-41.9474,-35.8848,-48.3836,-65.2042,125.9509
3.3491,-75.1990,-25.1617,-67.6895,-33.6479,-142.1001,80.5670,50.3041,3.7649,27.3150,45.1861,-110.2884,58.1082,-110.5909,-53.9138,-39.8019,-41.5196,-21.2593,82.4901
36.1412,-64.4466,27.7471,-28.2045,-15.1994,-157.0004,31.3536,-34.9431,-31.9030,-10.0250,68.2754,-117.9785,29.2077,-128.1093,-92.7599,-68.5597,-11.6127,-5.0053,-7.8832
73.0628,-14.9629,73.0523,-1.9706,2.8875,-154.8148,-33.8560,-93.9953,-76.3618,-87.7625,95.7125,-101.1931,5.0825,-113.7939,-131.6325,-105.2223,30.3716,26.5689,-87.7314
77.0754,13.6887,88.9674,-8.4935,24.3723,-130.8895,-75.7429,-98.8568,-88.4070,-132.2966,100.8008,-86.6133,7.1323,-92.5581,-138.2949,-121.2952,34.0317,83.2018,-110.4393
41.6188,-14.4729,71.5887,-14.1307,43.5800,-112.4970,-63.5705,-79.5438,-88.7385,-96.4394,70.3705,-67.7311,21.2156,-91.9010,-137.1117,-107.2844,-4.6040,105.1243,-73.5603
10.9361,-28.1097,54.9775,-7.3227,49.1868,-98.6769,-11.2351,-43.2831,-87.3742,-44.7160,32.9487,-12.8101,1.0833,-64.4018,-134.9137,-78.9602,-15.9401,83.3184,-1.8299
4.3972,1.5232,68.7435,0.5036,35.3097,-54.2261,26.7006,1.5791,-74.2451,-57.6810,3.9418,39.8671,-41.1380,-0.4156,-109.4048,-56.1520,16.7361,77.4977,44.2742
-13.1382,9.7621,79.4625,1.6407,6.2491,8.0614,17.6881,27.4110,-46.3370,-90.3173,-37.2183,37.4677,-59.0248,36.4639,-67.4315,-41.6005,28.6638,89.6565,43.2047
-58.4705,-31.9331,38.2407,-16.3072,-29.8049,34.3562,10.1390,37.2466,1.5888,-79.3785,-83.9263,-4.0175,-52.2457,32.3631,-25.7469,-34.6362,-13.7913,84.4587,50.9398
-91.3803,-80.8596,-14.2086,-34.7248,-45.8451,31.5459,39.1111,29.1631,28.1704,-76.0884,-92.8465,-44.3082,-19.1452,27.6057,3.8087,-40.7666,-72.1881,93.4058,54.7173
-70.6034,-78.9005,4.1140,-16.1783,-10.4865,48.4249,39.7828,-29.4500,-22.7547,-108.7245,-59.8942,-37.7717,45.5765,31.3407,-5.1139,-54.0154,-78.7784,120.2228,-20.1846
-10.8732,-7.6870,62.5620,3.3725,48.9490,59.1988,-12.0014,-105.5026,-89.0251,-93.7673,-20.2432,39.5159,82.0953,38.3139,-46.3697,-60.9475,-10.3588,77.4380,-105.5160
32.0275,61.4524,61.9938,-31.6790,71.2831,5.3687,-27.9561,-120.1391,-79.2339,-12.3539,15.2542,107.4565,62.4924,55.6155,-64.9553,-57.2937,50.9711,-25.0931,-91.6228
30.0316,55.4551,14.0191,-69.7106,58.5395,-66.8226,6.9258,-93.0795,-41.0571,35.7697,44.0779,85.7871,61.1200,69.1047,-45.1561,-45.3858,28.0310,-53.6388,-55.9268
21.9574,32.8236,7.2534,-39.3124,57.0427,-70.4751,-1.8929,-98.7298,-43.2295,11.3264,55.6237,45.8657,94.8899,57.9883,-38.1785,-42.8674,-6.5976,7.3067,-86.7328
52.8687,74.6053,51.4065,27.4405,75.2183,-30.6067,-63.4512,-130.8952,-63.2377,-42.8906,71.2043,69.4776,94.0252,38.2449,-77.2102,-73.7220,36.7115,58.8736,-116.7094
98.9068,132.6113,101.6332,82.1579,97.6433,-12.3274,-98.8272,-146.1848,-91.4109,-123.8935,101.6361,109.3793,68.2950,39.1363,-123.3742,-116.6916,103.1478,86.1981,-119.5638
112.4090,134.8686,143.4597,126.1835,117.5059,9.0958,-90.9536,-137.2415,-119.0701,-213.7763,102.3483,114.8362,65.7524,53.4269,-117.2495,-124.8442,126.6398,104.6398,-133.2685
99.8408,98.9485,166.1498,147.8596,118.6004,67.2573,-69.4163,-112.9994,-87.3662,-220.1398,67.8728,95.4784,51.2532,54.7009,-72.1662,-108.8615,133.0524,86.4392,-106.6039
90.5730,69.2250,159.9974,144.8155,91.4783,119.7297,-49.4926,-103.6357,-21.6643,-136.2533,55.8050,60.5998,10.1000,55.8401,-57.4709,-106.5965,133.0841,75.5285,-44.2782
88.1461,67.3986,147.1437,151.4914,59.9774,127.3738,-48.0035,-131.2961,-8.5086,-86.4330,71.7380,34.3684,-9.0486,85.3276,-64.4149,-98.6755,115.4923,115.7737,-66.9677
87.6280,81.9939,130.9636,143.6918,47.9194,99.1120,-51.4534,-141.2332,-5.6106,-106.6060,74.3149,32.2791,-15.7947,114.3027,-12.0740,-59.2290,106.0937,106.5256,-137.3988
73.3681,64.5992,82.0264,64.9577,44.9174,57.1354,-14.8194,-79.6376,63.9732,-84.8456,53.7173,22.2959,-36.9278,102.5593,76.5145,-26.3808,99.7950,-6.8121,-83.1367
20.9864,7.7317,0.7964,-34.4243,15.9130,31.2214,51.2330,18.5212,144.2553,39.9235,13.0846,3.5093,-39.3117,71.3313,78.6488,-34.8094,59.0545,-98.6147,109.4925
-47.8743,-41.3953,-99.6435,-77.7169,-55.7595,27.9603,100.4057,112.0406,162.4386,186.1760,-22.0524,-13.6039,-29.2933,36.0057,-9.2237,-48.3338,-15.7407,-81.6297,304.3435
-89.3157,-89.7341,-194.7905,-97.8937,-108.0829,21.0446,132.1370,172.1583,115.8689,209.2788,-9.9966,-78.1317,-23.8408,-15.4326,-26.2464,-7.6018,-127.0276,15.6724,329.9501
-105.9412,-168.3139,-169.6137,-121.3499,-39.4812,31.8055,152.7390,129.2496,25.4780,42.7390,0.0580,-163.1061,61.1648,-37.7033,127.0855,89.3993,-244.7646,152.4491,71.6229
-88.5136,-215.7802,34.8564,-93.6321,120.5001,85.7061,151.8672,1.9917,-17.4654,-142.8993,-46.3380,-152.7801,218.4274,-5.4971,314.5957,155.9006,-225.0944,197.0820,-246.8439
3.4848,-157.1044,195.4994,-33.9388,189.9682,91.3949,150.0416,-54.0818,68.3435,-80.2392,-37.0671,-69.3055,239.2072,-1.2370,299.0266,97.1762,-26.0373,10.9867,-195.2712
109.5928,-18.6387,89.6042,-35.8073,91.0255,-2.2970,148.1096,11.2763,146.4016,165.4188,94.2574,-4.7722,77.4904,-32.8006,54.2301,-43.0199,135.5581,-221.6423,170.0821
115.1497,134.9867,-99.6929,-79.2247,-18.4381,-43.0311,83.4547,79.0447,24.8830,236.1631,174.2966,93.1545,-9.2109,19.2241,-183.5123,-110.6764,117.3130,-183.2322,328.9851
66.7825,268.2060,-95.6851,-60.8746,16.0975,58.3238,-60.1603,81.9315,-227.2493,34.6970,118.8631,255.0249,104.5061,135.1279,-238.4013,-55.1663,60.8246,43.6736,117.0989
105.6526,343.6868,13.8306,25.1528,155.8597,135.4600,-204.1932,40.1236,-418.8019,-192.3080,123.7766,334.9884,244.1936,142.8649,-190.7493,14.2860,74.4083,149.1677,-162.3287
207.9104,319.2252,20.1318,92.1412,289.4241,77.2892,-269.2421,-41.3351,-487.8239,-292.9513,276.0709,249.2263,292.7953,26.4877,-151.3951,10.4313,59.9027,121.4822,-315.8642
228.7691,181.3968,-56.4785,75.3351,359.5999,4.6795,-223.0771,-114.6001,-441.3825,-292.7166,389.2852,82.4149,306.1306,-66.6384,-93.6406,-31.8790,-51.5760,117.7983,-340.8780
133.5195,-29.1032,-120.4507,-19.4727,344.5806,-3.4176,-81.2705,-97.1676,-301.8795,-198.1895,342.7290,-80.9567,295.1549,-78.0283,-6.2195,-53.7861,-192.2643,118.0135,-219.8298
-0.3173,-219.7429,-149.3342,-117.9680,260.2415,-17.0680,85.9979,-21.0940,-131.8267,-56.1987,197.8394,-182.4790,219.9299,-52.1131,49.5913,-62.2139,-275.0498,58.2418,-6.3800
-104.3388,-313.2499,-106.8249,-140.4386,167.4749,-59.2207,204.6637,10.8879,44.7622,14.3537,25.6861,-173.2713,110.8266,-17.9316,65.4040,-98.4435,-249.1438,-5.5199,172.8287
-133.6593,-298.7211,20.1000,-79.6273,110.2108,-80.5765,235.7286,-23.1989,203.2320,-19.4453,-102.6388,-99.8991,24.1472,4.0885,60.4937,-166.0393,-122.9835,-15.8154,250.6284
-76.9298,-201.1366,164.7358,23.3630,98.4680,-70.7267,157.6765,-96.2068,231.6719,-121.1574,-119.3448,-35.6046,-6.4395,-3.3881,15.2859,-220.6491,23.0454,33.1814,179.5550
11.4593,-71.6554,286.8980,128.8393,135.5319,-39.7006,1.7396,-190.9341,113.8595,-264.6721,-73.3520,22.8294,33.7684,-24.2646,-41.6298,-228.2718,126.0178,115.7112,-37.3229
75.6315,21.9650,387.8362,194.3515,186.8710,3.5637,-138.3816,-258.8616,4.7501,-367.2873,-52.4944,67.2773,89.7328,-38.2700,-42.8000,-191.8098,195.9974,148.4058,-253.9847
114.5756,71.1945,429.0840,205.6839,183.4049,22.1053,-211.0300,-246.9787,-34.0726,-348.1197,-48.1505,65.3147,76.1228,-40.9742,-7.9011,-114.4372,246.4013,82.4128,-352.7438
120.9099,103.7665,369.2597,189.0394,102.2237,-0.9973,-228.0290,-165.5773,-65.7294,-240.9231,-46.8319,46.0395,0.4444,-34.5237,11.3626,0.1247,249.5797,-21.8499,-357.6511
61.6891,89.1545,210.6192,129.2966,-28.4000,-36.1839,-184.5981,-55.8160,-54.9050,-81.1038,-87.0931,24.0516,-77.9565,-35.0204,40.1900,115.2289,177.9106,-123.9720,-278.4010
-44.4111,14.7646,-16.7578,-10.4462,-186.7677,-75.1351,-88.2850,60.9288,54.4153,138.8240,-153.9092,-38.6712,-152.3717,-49.8355,104.2843,198.0004,52.4770,-244.3015,-111.6880
-136.2429,-44.6238,-236.3948,-161.2760,-347.4529,-129.4254,2.6104,168.8536,186.6869,343.6104,-199.5285,-113.0189,-230.7523,-64.3086,167.4408,260.2181,-61.7781,-339.1891,52.1904
-190.7641,-57.8481,-360.8643,-205.6743,-467.6129,-159.0436,58.5225,236.8174,265.3040,448.4817,-229.4280,-138.2252,-299.7433,-81.8028,193.1052,310.0651,-123.7321,-327.7200,144.7485
-208.4057,-57.8872,-385.9603,-139.7649,-527.5319,-106.7850,81.7583,240.0740,270.3775,472.0404,-236.2540,-134.7440,-353.7002,-102.4825,154.8114,318.7394,-147.4066,-207.7096,182.8361
-185.4994,-24.9704,-362.4807,-40.2784,-534.2778,4.6353,47.7611,210.1267,170.1443,423.3793,-189.6271,-124.5158,-370.4299,-79.8958,34.6663,270.9237,-148.8050,-37.2936,180.0358
-163.4817,36.8835,-318.6081,40.4055,-499.4088,93.1504,-23.2008,214.5327,17.9824,298.0619,-147.8303,-83.6752,-328.3470,3.5090,-106.0690,197.6762,-134.0556,102.1742,175.0623
-191.3774,46.7498,-276.0227,68.0186,-450.0009,122.3795,-48.1363,247.7275,-54.7578,187.6820,-187.2726,-28.7539,-280.8997,93.3415,-156.7128,152.0551,-127.6275,132.3008,202.0201
-217.8645,32.4153,-254.7166,40.5538,-411.4576,115.2721,-26.9993,236.8698,-59.1870,151.8649,-237.2570,15.7850,-285.9484,158.4425,-102.7262,169.8262,-126.8188,74.5790,169.7646
-163.1117,104.8034,-242.3108,20.2318,-371.6967,86.4045,-36.9800,181.7590,-108.2455,127.3093,-181.6294,70.2394,-306.7679,207.3020,-45.8869,226.5223,-94.4746,38.7734,28.0029
-67.3001,208.5438,-215.9382,55.4698,-311.5045,48.7621,-73.9582,145.3156,-194.5387,90.1017,-60.4231,120.8371,-300.0154,216.1458,-62.8040,254.6765,-46.3471,73.2364,-81.6186
-16.1458,217.2502,-161.0308,124.6613,-239.7680,48.7038,-86.7956,123.7576,-246.6477,68.6659,5.7105,128.8012,-279.1754,169.6980,-113.9756,236.8441,-26.5859,138.0953,-92.9541
4.6089,177.2687,-77.2537,189.6681,-172.9353,96.5948,-102.4864,80.5335,-264.0276,35.2856,11.2486,109.5600,-239.4322,112.1160,-125.4049,214.1622,-12.4482,185.6807,-125.2847
42.2210,174.5566,-12.5029,219.8784,-130.9164,136.0081,-151.0104,44.7894,-260.4690,-0.7291,32.1618,74.5187,-176.7783,77.8127,-110.1624,193.1552,23.8388,179.0828,-184.3080
63.0641,157.8188,-24.2396,190.9922,-139.4136,146.4641,-168.7525,65.3678,-232.1997,33.0748,63.6602,5.2418,-140.2585,56.9617,-119.8638,158.0521,35.1284,113.2484,-138.3140
16.3653,80.5275,-90.5780,119.6347,-180.3677,147.4379,-99.0581,143.1200,-193.0460,118.1466,33.2980,-52.9267,-135.3162,40.6836,-123.6723,147.6092,-14.7072,38.5299,6.0416
-64.7869,10.0057,-136.5163,44.0243,-189.5030,108.8161,3.4145,232.5806,-154.1059,173.9633,-54.4766,-27.7576,-105.1230,30.5176,-81.0456,183.9403,-74.7554,-9.4304,123.9556
-100.2134,11.6289,-121.4539,-18.5494,-150.7470,28.1434,43.0017,262.8510,-136.7794,174.2945,-114.2328,54.6110,-63.8906,28.8018,-56.7825,197.6872,-72.6033,-51.1408,155.8328
-69.4152,58.0892,-64.0483,-47.3879,-119.9096,-3.4723,2.2653,209.3668,-168.1391,113.6934,-112.8153,101.1815,-62.8586,34.0696,-95.4127,145.4746,-9.2346,-96.1990,107.8244
-33.3959,64.0464,-23.1204,-31.1869,-115.6618,31.9489,-50.9537,130.4625,-188.2910,23.2386,-92.6470,61.9356,-54.2267,23.6868,-107.2992,84.9169,29.5956,-118.5767,22.1602
-41.5434,-15.9177,-36.4582,-13.7543,-77.9383,34.7253,-56.6228,68.9075,-116.9885,-10.6567,-74.6721,-31.9905,19.3939,-10.3670,-29.2283,56.7041,-22.6660,-106.6306,-35.1609
-69.2533,-122.9991,-73.3752,-30.4299,22.4901,-10.5276,-25.1675,16.7548,-22.7191,10.7034,-43.7470,-101.3894,103.9721,-26.9360,61.0658,32.9036,-120.3735,-76.5535,-43.4469
-79.0381,-174.1055,-96.3105,-49.9661,125.1097,-27.1240,-2.0542,-7.3376,-17.0580,2.7468,-6.7257,-105.4856,147.7692,-9.1637,83.4285,2.4141,-182.0560,-49.5785,-25.8124
-67.7105,-157.9081,-99.8112,-45.9413,175.5764,-17.9861,-9.7593,-0.3900,-65.7842,-29.8662,20.4273,-71.9224,180.0986,6.6816,54.3159,-19.1947,-186.4945,-35.8453,-10.6233
-31.1155,-96.4487,-60.7255,-35.3599,194.0316,-26.2819,-35.7944,-26.9329,-84.2591,-45.3635,46.6734,-23.2035,203.0909,15.8905,23.5525,-37.5479,-135.1697,-24.8048,-39.8673
27.4184,-12.5900,20.9138,-25.8000,207.7616,-35.6809,-58.2575,-92.3325,-72.2746,-72.0674,77.3483,34.3398,177.0061,34.7047,12.6774,-57.3431,-44.9229,0.7025,-108.0440
72.9417,50.5878,78.9039,-6.6311,205.2599,-37.0422,-79.6808,-115.2375,-56.5266,-106.8475,101.9941,62.8783,124.2637,32.7036,2.7179,-69.1348,23.9938,40.0859,-135.8339
92.7910,74.2192,97.6721,22.7361,183.6297,-43.7275,-113.1282,-85.1104,-39.8539,-106.0315,117.8007,43.3930,97.0606,-1.2153,-31.7122,-80.0281,53.2312,73.9057,-101.2239
100.2736,71.8503,127.4522,49.7930,155.7145,-34.5231,-128.7696,-57.5165,-15.5759,-85.4396,113.5507,12.2513,80.9430,-20.1102,-69.6847,-100.6331,83.3033,79.8221,-47.5669
76.4463,31.6517,148.6289,52.9052,114.9839,-6.1150,-83.3616,-30.9223,30.1529,-54.2246,68.3333,-10.3831,44.9247,-17.2581,-82.6241,-120.6017,98.1215,60.9312,38.6984
24.4931,-32.8046,122.2463,28.8685,66.9837,2.8636,-7.3983,12.0699,75.9415,9.2240,11.0003,-29.3715,13.1166,-30.8478,-87.2163,-121.5405,66.8756,45.9118,149.1754
12.3667,-48.0240,91.8340,5.1683,49.2869,-15.3787,29.2754,48.0840,69.9981,54.7804,4.9737,-30.5826,4.4260,-57.5959,-81.6952,-87.3929,44.0769,28.9371,181.6741
50.6535,-13.4933,72.0770,-12.6625,63.2965,-46.3555,21.0580,68.6465,40.9986,37.4910,44.9074,-25.6285,-10.5521,-84.6990,-29.2594,-28.2254,56.3657,-26.8476,124.4761
64.7957,-16.9914,26.1932,-39.1647,59.6446,-81.7404,13.7089,69.9649,74.0477,11.9370,63.6948,-58.2569,-40.4188,-126.3629,47.1076,1.2652,47.1180,-89.9945,85.1956
41.4366,-63.5452,-2.1850,-46.6088,22.0953,-85.9764,30.4790,20.6510,153.5282,3.8063,43.9929,-111.2312,-52.2303,-153.1600,86.1200,-29.0265,21.1788,-85.5486,74.2437
30.3156,-80.5549,35.2988,-16.7429,-8.6857,-48.1431,61.3529,-67.7437,193.7721,-23.4978,21.8623,-119.1979,-40.3404,-110.8600,90.4224,-73.9965,32.3295,-34.5383,26.5911
25.8578,-71.8934,76.5144,-4.4806,-0.1242,-27.3092,89.1799,-132.7722,190.5244,-59.4090,5.1672,-80.4418,-24.0079,-27.3698,95.8258,-99.7147,53.1696,-22.6355,-23.4539
1.2228,-95.8148,78.0081,-38.0227,33.4709,-43.9915,117.5330,-154.6589,196.4192,-91.9211,-20.8715,-56.4026,10.8880,18.9273,112.9130,-130.4672,40.8201,-58.6528,-20.7010
-25.1445,-154.3813,74.1970,-67.9557,55.4901,-53.5699,168.5175,-160.1590,220.2971,-140.3463,-47.9625,-76.0770,78.3975,7.0063,151.9904,-160.9484,14.4103,-92.1420,-6.1343
-36.3096,-200.2105,68.9536,-73.4971,60.5190,-57.0647,222.8728,-163.7368,241.3549,-161.8029,-58.5268,-101.4440,139.6099,-30.1703,209.1486,-147.1058,-11.0769,-102.7635,-24.0671
-26.6351,-191.1853,59.3517,-71.5524,84.4415,-74.8588,217.7263,-172.8269,242.4707,-125.7458,-40.7131,-86.4258,156.2509,-60.5830,236.4884,-106.4706,-24.3649,-90.6549,-60.0320
17.0699,-128.7347,83.5365,-42.0162,135.6331,-68.9124,149.1427,-199.6221,207.2992,-114.3161,10.0396,-42.2860,145.8430,-64.3607,198.4834,-106.7844,5.1173,-48.6637,-96.1142
70.7912,-64.5641,138.3637,24.5840,170.2425,-20.0555,83.6607,-238.5511,147.2949,-166.2602,65.8919,-11.8950,137.5606,-39.4793,116.0443,-158.8182,59.2770,19.4033,-120.5499
95.0611,-35.0914,185.3972,87.6727,171.5982,32.7465,48.3768,-263.4475,102.2169,-197.6875,88.1881,-2.1128,125.7315,-9.1200,34.8598,-206.6819,94.8959,82.9525,-117.7104
104.8198,-22.2919,218.7541,125.5132,171.0238,71.6084,23.0190,-251.2188,83.7209,-167.1814,88.4574,4.4021,96.5618,2.2231,-11.3938,-208.6730,119.5977,105.1548,-89.6889
119.6071,-7.1894,226.2598,141.1499,177.3209,96.0453,12.9959,-207.6211,74.5829,-121.9187,99.1338,12.1511,64.4298,-2.8190,-21.0433,-178.9472,136.6344,96.4101,-49.9070
118.1792,8.6789,196.6894,122.8963,176.0886,85.9631,22.6515,-160.2597,79.0367,-89.8434,111.4721,24.1449,52.7501,1.0746,-12.9346,-151.1193,124.3189,105.0168,-11.2347
104.1525,25.6502,169.6527,79.0262,171.8098,49.1006,23.1003,-120.0493,107.3921,-57.4919,113.1333,30.2406,50.9894,29.6284,10.0464,-126.1099,104.6944,122.5282,9.0355
103.4740,34.5117,159.6295,45.3262,164.8223,23.0228,10.2915,-90.7192,134.6659,-5.1871,119.2859,10.7573,29.5428,67.7072,43.7681,-88.2071,101.4200,94.7215,5.3081
105.6120,37.8032,136.2079,37.0560,149.2071,19.5635,0.6273,-96.3595,131.9030,55.9174,122.9077,4.7522,-0.6738,92.3353,57.3133,-53.9095,99.7944,34.8040,-13.9838
100.5919,70.9250,123.9103,47.7557,150.7555,30.3773,-29.5697,-131.9559,107.1615,68.5626,100.8188,67.4499,3.8425,105.3422,44.8185,-46.8418,113.7052,-2.4804,-48.5153
99.4211,124.9893,156.3895,60.6970,186.9443,41.6153,-90.2960,-150.5183,82.0719,22.1929,64.9068,152.8084,46.3538,120.1002,37.7366,-52.9792,152.0755,-16.9474,-90.9167
90.3635,137.3596,187.2167,57.5043,214.6259,29.9814,-123.6578,-151.9003,71.0915,-1.9142,33.4845,187.3706,78.3427,126.2246,34.7747,-57.3892,168.9300,-34.8405,-109.5392
68.3245,107.0606,182.5580,54.2673,189.5126,5.1242,-100.9062,-170.7048,86.2302,30.5353,2.6669,184.6161,70.5872,104.3449,11.7560,-72.8727,162.6844,-61.4481,-86.1884
59.1218,91.5494,175.2653,74.0763,137.5613,11.8549,-77.5763,-180.7456,102.5722,49.3138,-17.2526,173.2626,60.6618,79.1174,-23.5136,-99.3458,173.9883,-79.6311,-46.7510
60.0173,97.2874,174.8982,90.8732,121.0888,48.1608,-82.2659,-142.4550,57.7927,7.5154,-7.7286,154.6974,103.8718,94.5062,-58.7441,-115.8239,169.8203,-47.4916,-25.8877
47.1120,81.9546,155.9916,70.9887,160.0685,52.4953,-64.3011,-75.9483,-36.2985,-49.4856,20.3526,142.3535,184.8576,112.3036,-83.5812,-108.8013,107.0739,30.4530,-12.3817
34.4084,37.8504,120.1821,10.9578,210.3931,-4.2780,-6.3012,-4.0598,-73.5587,-40.5171,46.8350,126.5236,228.3951,51.4486,-69.7822,-74.8350,35.6419,64.1848,34.1939
47.8443,32.9022,97.3904,-77.9097,217.5008,-59.9687,24.7815,66.5821,-24.3907,41.6936,65.4070,110.3528,197.3593,-32.1821,-41.5666,-41.5987,34.4832,20.1289,114.5456
79.7306,134.0389,103.3351,-149.1687,167.9441,-26.0257,-4.9160,105.0538,25.9695,74.5166,67.7759,161.4428,110.4332,-2.5013,-70.0887,-70.8641,123.1080,-12.6651,195.8984
93.0916,253.0216,114.5035,-169.1056,89.8858,77.0173,-25.7220,93.3565,38.1293,-38.5147,47.7992,244.0777,15.9862,93.7165,-123.0542,-157.0699,209.6129,52.8861,236.7546
69.7878,219.9746,139.4059,-198.1682,60.6811,132.6292,23.8656,56.0568,10.0414,-215.5135,33.6072,191.8784,24.4045,93.4572,-82.0469,-181.3523,156.0130,236.7307,138.0724
77.7487,65.6773,249.5170,-265.5341,162.6016,114.5724,83.6399,31.4400,-85.9776,-318.0287,90.0082,-12.9219,190.7632,0.8472,61.8026,-75.6844,14.2845,436.8462,-130.7624
184.3359,-24.7327,359.5623,-270.8656,311.3121,83.8146,48.3923,49.5375,-131.6398,-260.3050,236.0435,-218.9596,304.2030,-96.1996,184.5723,41.3216,-9.3079,397.9433,-301.8953
278.3936,-12.7464,210.6436,-185.0341,278.7201,7.1119,-61.2412,74.2151,65.4705,-16.6733,354.0347,-317.0015,129.1808,-208.3988,184.3400,17.0236,78.1883,45.5647,-103.7696
206.8664,35.2317,-146.6455,-131.6175,58.5104,-143.4748,-107.8211,6.4725,346.8742,234.0480,299.0861,-220.3848,-135.3775,-284.0435,77.1566,-114.2071,93.0362,-258.8817,216.6947
58.3936,136.3158,-297.4199,-162.3352,-58.6234,-209.3324,-56.6836,-147.7140,339.4423,206.3363,125.0543,90.9771,-106.0557,-178.5537,-33.0062,-203.1869,50.2369,-209.4237,216.5953
25.2919,288.7047,-130.8130,-204.5928,62.1052,-76.6715,-40.4308,-246.4770,64.6877,-53.3441,36.1698,396.3089,168.6097,67.4493,-80.5757,-218.3702,81.5262,3.5690,-35.7942
101.8139,393.2864,42.0172,-227.6969,233.2391,102.1483,-117.8498,-222.5330,-157.0221,-236.0555,104.9369,466.4740,354.0017,252.5759,-107.6213,-235.1031,145.9165,107.3115,-172.2868
168.7464,385.9523,77.5058,-253.3454,306.8732,152.8219,-169.1397,-138.5932,-249.8961,-265.8062,219.0515,356.9563,365.0136,278.3383,-153.7199,-257.3689,145.5425,121.6749,-136.2105
192.6859,276.3795,73.6131,-272.2155,308.0703,92.8876,-126.1671,-48.5214,-308.6886,-256.4142,281.3742,193.1279,303.0497,144.7012,-190.5656,-240.9557,92.7453,109.5054,-66.2069
188.0980,103.6869,47.9518,-254.3117,252.2223,6.8443,-66.7253,28.2799,-309.4985,-214.4318,290.7977,-13.3849,183.5121,-100.9730,-207.7352,-205.6786,24.6609,61.3323,19.4601
153.2719,-64.4620,1.7232,-182.9300,149.7363,-59.7118,-35.1684,75.3415,-227.2959,-132.5311,261.1231,-215.4677,24.8194,-303.2061,-200.9713,-165.9553,-42.9590,30.6010,104.0859
91.7030,-183.0714,-11.9294,-67.4905,56.3611,-95.4738,-7.3137,92.4199,-103.0900,-53.3647,190.4684,-336.8969,-99.4910,-338.3850,-132.5531,-93.2416,-91.8981,42.1907,124.7188
20.8829,-247.9574,2.9317,72.6846,-12.9583,-111.0144,9.0784,68.2251,31.7402,20.5654,100.8948,-373.0107,-163.6972,-251.3881,-52.3008,-26.7620,-113.6708,72.5418,102.2215
-20.0410,-237.6006,76.7094,234.4790,-50.0877,-73.8369,7.3011,-0.6336,80.2767,43.3680,36.6143,-320.3296,-153.1902,-108.1339,-73.0376,-26.8727,-86.3806,177.2892,62.3403
-2.0900,-153.7614,252.1829,391.4993,-12.4286,59.3239,-3.6259,-62.9453,-34.0088,-33.4063,11.1270,-189.6957,-68.0386,71.3944,-156.8516,-39.7142,1.0467,335.6211,-32.0231
41.5472,-62.2804,408.3098,496.7278,66.5253,211.7208,-46.4483,-100.2064,-182.8537,-109.8129,-0.0380,-63.0324,10.8275,211.2477,-176.4198,3.0505,91.5489,390.4878,-171.2035
74.0764,-2.2209,443.7882,559.6720,111.5535,276.6856,-98.1357,-140.7884,-228.9046,-112.0214,-0.8461,14.1877,49.3468,239.2476,-126.4439,70.9408,136.7228,348.5329,-289.5141
105.4289,42.5794,420.2616,585.2187,123.1608,279.6069,-85.4353,-128.2144,-215.6372,-98.8316,29.4301,55.9807,97.0884,187.2978,-59.0359,137.9567,148.9448,344.1400,-329.1008
133.4187,85.8253,351.1451,514.5678,108.2885,275.9571,-39.5652,-14.9037,-196.1857,-68.7156,81.7747,54.7387,124.7210,123.7357,12.5318,213.0490,134.1705,348.9674,-277.3456
153.9853,137.3830,242.3873,372.3644,66.1536,251.9142,-45.1060,77.2043,-170.0097,-10.9539,136.1741,26.5137,94.2973,81.1377,51.1803,250.6797,111.4399,308.8944,-221.0672
190.9747,196.6476,190.1707,255.6836,47.2636,215.7535,-76.3092,59.7402,-148.3886,-6.2402,195.2279,16.1448,71.4271,56.2527,41.0176,207.8104,124.8943,284.2144,-224.0337
220.1710,253.1292,148.3777,145.8501,37.1150,203.6550,-94.7889,29.1689,-93.2012,-29.1703,237.5283,26.1671,56.9868,40.5492,27.2866,121.2753,152.7900,267.9449,-188.5362
198.7876,320.1890,32.5213,12.0746,-30.3446,214.4324,-132.7900,34.6144,2.4568,0.5257,226.9819,59.7757,-4.5339,60.0364,8.9159,39.6915,156.9285,232.2078,-82.6175
166.5504,378.1373,-37.7775,-71.9989,-102.0656,230.5559,-163.8337,15.4514,46.5719,26.5298,190.0416,110.1147,-62.0961,114.3990,-28.1736,-14.9763,163.9332,218.0494,-33.8002
147.1651,366.3375,-61.1190,-119.9445,-137.9892,223.0992,-138.5189,-5.3484,58.3470,53.3652,166.0663,111.3945,-102.6500,135.2668,-37.6643,-31.8051,158.7729,175.8628,-17.8699
97.5813,319.8480,-173.9138,-199.4205,-205.9506,169.0131,-110.8675,8.8061,107.0057,135.3399,132.3424,77.0625,-176.9328,113.6497,-26.2237,-26.8120,102.2608,80.4240,46.9266
34.9574,285.0193,-263.3327,-258.9041,-267.1353,94.6399,-101.9887,11.6804,122.2873,160.1039,69.2577,71.9088,-200.8511,80.8350,-6.5845,-3.0859,42.0605,17.0145,42.3740
-54.7674,156.4296,-354.8083,-334.9344,-307.2358,3.4633,-28.6013,63.7945,226.1432,235.2179,-40.1007,18.4295,-186.8547,-23.4171,109.9590,57.4328,-36.7242,-152.6290,102.5763
-278.5556,-63.9397,-719.2524,-529.3350,-508.8843,-114.4584,96.8433,273.9659,664.6129,699.6508,-254.8792,-87.2725,-356.0827,-157.7115,248.6673,100.7104,-193.7621,-535.1415,617.3597
-508.5631,-166.7568,-942.9664,-651.5042,-756.6616,-158.8588,180.5780,499.8820,1052.1499,1220.3071,-505.5438,-73.0071,-592.0684,-129.6247,182.7008,90.6724,-259.1714,-695.8953,1216.4825
-455.9360,-208.4100,-422.2693,-548.3247,-630.7734,-121.5591,270.5957,524.9305,811.5902,1097.3043,-568.9558,-61.9418,-528.9938,-50.3257,75.7832,162.1283,-119.6657,-432.7362,1048.0554
-265.2591,-462.6533,122.7981,-493.5788,-321.7787,-269.5451,438.1154,394.4230,363.3321,639.9146,-445.8253,-344.3886,-352.2615,-263.6068,269.2211,372.4837,-97.6332,-369.9596,358.0967
-309.1237,-743.6221,-228.9106,-548.7828,-433.3766,-646.2860,524.9778,223.5883,381.6939,613.0533,-389.8568,-647.5756,-451.9257,-630.0977,469.7041,473.5305,-361.6893,-706.0981,95.2691
-423.5233,-591.7667,-713.6395,-324.9331,-737.4967,-765.4394,343.1319,5.1784,438.5213,727.8950,-396.7193,-480.2637,-512.2780,-644.0610,175.2446,293.7089,-477.4740,-681.0389,178.7322
-213.2399,-78.4936,-377.1176,115.6899,-516.5908,-362.4507,19.2895,-180.4614,-12.1344,381.3091,-193.8109,-5.1179,-107.6737,-267.4219,-301.8552,47.0723,-187.9280,-96.0999,-26.4649
164.4172,348.5721,116.9007,232.9030,76.5709,103.4913,-159.9023,-203.8190,-428.5915,-81.8398,198.0467,318.5028,392.8463,87.3944,-346.2865,-53.1538,121.6781,307.1068,-313.5201
330.5257,540.7913,32.8148,25.4292,371.3730,205.4582,-162.0262,-163.9435,-340.3403,-238.8387,462.6221,439.3708,508.2951,218.8891,-103.4944,-102.5154,169.6619,284.6453,-292.8280
321.8011,593.1951,-120.9602,-52.2153,346.3226,134.5221,-193.2316,-217.7200,-230.8766,-392.8041,490.6137,463.8570,408.4766,221.5922,-56.7707,-215.0423,148.7181,266.7684,-265.0193
318.8079,519.1753,78.2162,66.1996,355.0811,154.3327,-318.8491,-296.6989,-399.2977,-689.8655,415.5224,359.7828,366.3455,177.0519,-177.6334,-311.7115,190.3253,347.0880,-435.0496
298.7391,332.9246,305.9056,181.1508,408.1434,178.4045,-386.7922,-294.1138,-489.6556,-804.2584,327.3375,167.3793,321.4398,101.5967,-210.8964,-309.1676,194.3239,365.7137,-527.5783
245.9176,135.4930,414.0994,290.2942,407.1431,133.6580,-324.3832,-252.8543,-402.0932,-700.5327,256.4075,3.4449,243.3991,26.1736,-169.5177,-238.8513,145.9696,405.3355,-480.0890
219.8944,-8.6809,531.5176,422.7536,415.6198,131.4119,-226.3090,-213.1192,-359.0150,-598.3769,225.8885,-103.1993,218.9892,-7.1932,-146.9019,-158.9644,113.3641,506.5053,-442.1674
198.9019,-115.9092,599.7988,507.3747,441.4967,188.9381,-147.6012,-148.5191,-330.6887,-469.0826,206.0856,-168.9265,209.9815,9.2864,-125.6761,-91.0372,88.6477,535.0006,-355.8756
155.9845,-213.8773,573.0914,524.6007,421.7939,213.1378,-64.7840,-71.0244,-216.8792,-249.8748,170.8157,-223.5909,141.8317,27.4051,-80.3000,-26.2536,55.2296,463.7245,-192.8307
119.3875,-294.8073,513.2268,486.6077,361.3135,184.8228,1.7809,-15.7434,-62.3354,-45.5124,131.2709,-295.6430,45.8442,4.1265,5.6476,41.7359,31.9790,333.3781,-74.5963
67.5348,-332.1969,396.1032,403.1536,276.9276,123.7961,30.4820,25.6320,134.7771,114.4388,64.6393,-329.3700,-28.3693,-36.4300,138.2106,104.8756,9.6704,163.7126,8.0899
-19.9248,-322.8844,238.7267,325.3894,181.6095,39.4493,64.3337,84.1753,330.2554,259.9428,-36.9239,-268.0909,-68.5676,-52.2387,257.2725,173.7667,-27.4345,42.9282,113.5901
-91.8482,-285.7823,119.8858,251.6236,107.3900,-33.2773,116.8768,167.4842,422.6076,353.9704,-115.3151,-174.3626,-95.7811,-41.5292,324.9360,251.0789,-62.5365,-1.1927,201.9215
-139.3436,-248.3289,3.2228,128.1498,36.4651,-90.2329,153.2809,244.2918,512.9025,429.1767,-160.5804,-125.4461,-141.5224,-26.4272,382.1391,288.0286,-85.5347,-70.9225,296.0844
-194.6524,-240.9924,-130.9447,-20.3974,-57.7342,-154.5855,183.3784,297.1440,657.4421,553.9044,-210.3774,-121.1258,-173.7251,-28.8819,423.8165,278.4146,-109.4599,-190.7425,428.1925
-224.8667,-249.2888,-221.9132,-168.4066,-145.8883,-196.2548,230.3850,358.3433,638.4901,664.8564,-236.5351,-136.9159,-161.6255,-60.7892,394.7851,295.6086,-138.8778,-315.8004,501.8273
-208.3202,-223.5443,-295.7387,-333.0698,-221.8666,-201.5442,267.9692,414.4579,445.6267,687.1752,-217.5397,-140.3036,-174.8190,-113.5947,311.1143,327.6560,-156.6073,-442.7365,493.2106
-189.0128,-167.7041,-357.5223,-428.2533,-287.5602,-202.7921,279.7966,387.7653,350.7650,634.1829,-200.8436,-99.6151,-230.1764,-151.7025,221.5614,270.2697,-138.9802,-492.5893,498.2267
-169.5604,-109.2266,-324.3796,-386.2917,-295.2575,-171.2169,278.1172,293.4610,360.5105,511.8777,-189.1615,-32.1647,-226.4621,-131.4580,147.1169,145.2094,-86.2465,-391.2680,497.2446
-125.0630,-31.4928,-248.0636,-334.8255,-258.5294,-88.3095,251.3130,231.4693,316.2292,367.2724,-152.5134,23.8489,-159.4707,-64.1868,122.7259,81.3291,-28.9946,-274.5782,418.7724
-81.5504,49.8582,-222.8069,-340.8404,-240.1163,-27.8348,193.3395,215.1882,251.3725,303.9352,-115.1697,55.7339,-113.0784,-13.9247,133.3200,93.6694,8.1068,-255.3369,318.7298
-50.2465,82.9145,-186.6247,-298.3533,-210.6549,2.2623,139.7151,204.5813,160.6435,300.7643,-79.8816,64.4802,-69.0901,4.9873,91.3523,113.3230,21.2724,-230.1093,250.1665
-10.5263,96.4556,-119.2124,-220.7274,-141.4896,56.3643,113.6924,203.5571,-13.1852,258.4951,-24.5838,77.6884,3.0557,22.8152,15.5860,136.7184,18.0155,-151.6685,174.2427
20.0500,133.3382,-86.6706,-201.7889,-86.2467,79.1022,90.7171,186.5188,-130.9216,183.9132,10.1066,118.2477,50.8832,25.1765,1.3934,162.1137,17.5344,-99.9106,75.7342
36.6619,155.2310,-42.0729,-171.0893,-41.1641,38.6138,31.4853,103.2438,-151.8412,90.0266,20.4038,136.8058,72.5741,17.5567,1.2790,135.0978,29.9685,-52.5824,-43.9089
81.6003,167.1275,55.2324,-58.8655,31.2808,39.6389,-69.6487,-25.8158,-248.9071,-75.4313,75.5293,110.8978,114.1385,51.4892,-61.7348,61.6668,48.8407,54.6586,-220.4980
143.1731,212.9700,125.7210,59.8193,88.2878,75.3022,-166.8630,-167.9158,-380.3063,-271.3693,148.5893,110.5021,167.1419,78.0589,-117.2961,-0.1329,72.2280,165.1205,-433.1581
175.7891,234.1831,144.0772,138.8417,122.6486,29.2284,-236.2842,-324.8284,-408.8377,-416.6029,181.7512,123.5976,220.0116,28.8785,-131.5305,-68.6412,85.8852,199.7830,-602.6254
206.6816,216.2344,139.0924,185.0688,177.7592,-45.4593,-328.7288,-474.8096,-443.0865,-555.5104,236.0360,79.5398,259.6618,-12.4481,-172.8929,-179.9272,78.4558,175.1114,-733.6157
240.8498,268.7244,101.0821,182.0693,194.3246,-78.4769,-442.1247,-611.6964,-493.3987,-708.9890,282.3086,88.2577,240.2853,-31.4021,-213.5913,-277.3373,88.1477,165.2892,-871.3379
184.5397,339.3542,60.8455,144.4070,127.7201,-162.6295,-472.3590,-749.8813,-394.1299,-786.5230,158.4323,247.9960,196.6499,-130.0885,-204.5960,-334.7495,118.2935,182.3165,-939.9090
33.2491,262.8140,42.7278,78.9439,66.7901,-230.7579,-404.1916,-802.6976,-254.9548,-798.3711,-58.5101,345.6115,188.1435,-130.6804,-225.3457,-442.5565,96.3167,139.6556,-815.5312
-55.3806,138.4134,0.6357,-9.0839,21.5702,-68.4723,-302.1778,-636.1615,-220.3713,-783.1260,-99.5897,213.9568,105.7905,175.6569,-290.5479,-579.8243,47.7291,70.2161,-477.5301
31.7918,168.7309,-14.7984,24.0701,-58.3307,217.6481,-108.1139,-246.4319,-106.8025,-565.4562,81.2643,67.5181,-136.4650,409.9091,-282.8276,-509.2646,100.3623,208.4477,15.6967
244.3296,275.4073,104.9700,243.4408,-35.7110,369.1631,186.2629,229.3297,87.5660,-73.0496,344.4154,74.9324,-345.2334,181.3094,-190.2246,-142.3224,230.0171,556.0425,507.6462
371.6562,224.9648,270.0356,369.1251,149.3147,399.9689,361.1212,583.1072,88.4905,364.2497,483.9944,60.4707,-311.6751,-120.1038,-94.3660,232.1186,251.9262,677.8067,744.6558
149.3496,-105.8090,300.7032,202.0627,201.6515,332.0663,354.5255,657.4843,29.9723,533.6622,193.6306,-101.3186,-98.3956,-75.9942,14.2690,348.8625,75.7910,305.3701,689.6910
-323.7502,-588.8598,183.5721,-0.7408,-8.2355,80.6176,386.9525,522.8879,226.0182,658.2377,-410.7203,-282.3035,121.5803,27.6923,142.4631,299.8262,-189.0695,-227.1674,616.5590
-501.9474,-796.4686,-17.5587,-17.2995,-128.1119,-162.8613,453.4299,376.3228,435.1226,810.1205,-571.6621,-358.4824,233.6933,-27.9129,194.3200,236.7335,-338.9758,-479.4353,636.6847
-199.4155,-473.4264,-261.0057,-26.8367,25.7680,-179.5521,347.6267,270.4223,324.7670,743.7452,-57.0999,-269.6437,194.6688,13.7219,139.5129,142.3251,-281.4622,-453.8736,570.8500
68.6658,11.6626,-417.6593,-181.3687,156.7962,-164.5161,154.3778,177.5326,122.4623,503.2973,315.9883,15.8552,83.3932,145.3199,82.4056,66.6904,-138.1162,-383.6338,387.5915
19.0178,244.4889,-355.4117,-360.2914,82.9936,-253.6527,16.9273,144.6473,80.7296,367.0916,112.5234,312.5634,-9.2439,70.2920,84.6179,129.6953,-31.6681,-324.9921,201.0094
-0.3265,326.1559,-155.7664,-445.2582,-33.3942,-215.5860,-173.8949,176.6760,45.6925,298.2343,-78.1055,315.7175,-124.4751,-121.3054,95.7391,247.0786,68.8676,-210.6013,-8.8230
148.1185,351.5563,3.3201,-384.3894,-65.8441,-12.6509,-342.1885,220.4852,-57.3653,180.2385,72.5675,36.7964,-230.1801,-158.5512,89.4416,277.9942,140.3679,-54.2938,-176.7198
181.4935,147.5226,90.7311,-140.9311,-15.2028,109.7826,-231.3222,290.6416,-63.7893,151.3708,185.5560,-231.9462,-156.9647,-125.4835,110.7454,279.1540,72.3947,80.1981,-103.9476
64.3828,-188.2497,144.7987,126.7803,74.6114,109.1111,-4.7046,364.2362,21.0389,215.6588,102.2011,-367.3773,22.7150,-206.4163,153.5774,297.4639,-74.6870,146.4650,99.8251
-23.0680,-359.5610,136.7909,174.7705,68.8442,65.4955,24.5928,325.5279,35.3406,159.9339,-6.9094,-440.8112,19.1154,-333.3925,136.7327,247.3472,-151.8592,109.9055,131.0185
-104.9886,-385.4230,72.7018,56.6040,-81.4206,-49.8701,-26.9438,167.1828,-21.5634,-10.9896,-144.7056,-441.8126,-174.4856,-374.9372,51.6798,135.4239,-171.2624,10.9788,5.3816
-212.7489,-388.7387,24.1178,-0.2269,-211.2422,-174.4828,-13.5531,-6.0389,-36.9395,-161.7029,-316.2776,-334.8148,-323.3106,-341.8572,-9.0282,41.1224,-179.4695,-48.6955,-98.7640
-246.7709,-317.7334,1.6543,21.3627,-238.3576,-191.5125,-66.1769,-148.8513,5.9095,-296.7586,-397.2001,-198.7764,-368.7769,-305.4195,-12.6361,-43.6846,-137.6989,-55.1773,-180.9109
-228.0931,-202.0558,-19.2547,21.4533,-259.7479,-171.4621,-145.3456,-248.7455,36.9548,-367.3759,-404.9785,-90.4601,-371.6570,-281.8387,-34.6382,-116.5284,-71.9051,-55.8682,-239.4906
-229.6299,-144.0218,-23.7145,7.6037,-288.1410,-197.9641,-83.7113,-296.6985,46.7699,-295.6008,-404.9720,16.8743,-328.8215,-242.0079,-109.0528,-158.8103,-40.3673,-33.0084,-193.2878
-194.7098,-79.9908,-18.4027,13.5345,-270.9364,-190.2748,8.2042,-345.9890,127.4347,-228.2251,-341.9009,110.7024,-272.6319,-177.5174,-150.4082,-237.4161,9.2193,28.3634,-93.5583
-100.8047,49.8922,-16.6958,48.0079,-236.2416,-91.9281,0.2537,-410.9286,280.4634,-287.0738,-226.1519,166.2660,-240.3168,-97.0237,-89.4039,-335.9246,111.5007,92.2745,-63.3322
-16.4304,163.6347,10.3258,125.7306,-182.6246,34.4878,-7.0918,-406.6842,331.3129,-345.9507,-128.7472,217.5050,-175.0243,8.3290,12.0524,-314.9643,185.6748,154.9772,-103.3514
45.0333,221.0857,38.9843,184.1053,-83.9066,122.4722,29.5222,-299.3266,215.6669,-329.1269,-26.6917,259.1926,-64.6441,119.8515,60.1939,-199.7112,187.1895,202.1614,-122.7080
94.1283,245.7239,15.8498,143.8127,-1.6647,160.4872,59.4856,-139.0078,89.0674,-277.7028,83.8450,244.0665,34.2519,192.3151,53.2228,-129.5016,161.1895,175.5621,-47.7381
117.3586,230.1106,-10.1640,70.2786,47.7246,176.6309,113.0636,28.7514,15.2190,-140.9460,156.1393,205.3223,134.5007,235.6297,29.8804,-73.9998,134.1611,95.5708,92.8115
133.3843,189.7401,2.3144,40.8281,127.4436,177.6477,173.0728,150.2997,-83.1589,72.4941,213.6392,191.0714,240.9062,271.3758,-1.0468,27.1963,96.0966,26.8807,180.1754
150.8750,157.0540,-3.2792,1.2101,199.4957,135.7135,167.6829,195.0631,-170.0642,206.1700,266.7917,163.0139,295.3396,263.6459,-26.4887,91.1038,54.6199,-41.4231,182.6836
149.3566,121.4730,-21.3469,-64.5520,206.6220,80.9215,142.5021,213.7712,-176.5307,244.9556,274.5418,102.3756,319.8362,207.0565,-29.3026,93.6021,29.7143,-108.0990,182.2238
142.7492,77.0235,-5.4202,-90.3236,212.6984,59.4199,140.0720,238.4102,-170.0153,310.9938,265.4840,51.5718,359.0391,151.9081,-24.5141,118.4430,12.2434,-136.4609,189.5493
133.1183,32.1952,-10.2413,-106.8560,230.3783,20.5373,110.2671,241.1439,-183.6664,401.6669,264.4469,5.7067,341.6614,104.6087,-21.4176,168.5515,-26.9440,-162.1825,162.4703
93.5911,-12.3039,-51.4636,-164.9824,182.3977,-52.2902,67.1934,226.2389,-151.4005,456.5845,218.8438,-51.9344,230.6169,49.3530,-6.5137,199.4588,-71.3526,-199.8549,130.2467
58.6834,-24.6428,-47.5280,-176.3854,106.3946,-62.1624,43.3255,200.1345,-90.2248,471.6341,147.6778,-71.0785,116.9744,10.7620,13.8642,219.0029,-69.7474,-179.0892,101.1697
69.6322,7.7474,-9.0080,-84.6525,91.0545,-2.5323,-13.4657,136.4425,-68.8816,410.2940,127.1142,-47.9350,53.9760,-2.5173,27.6556,219.7685,-33.9393,-105.7909,25.0786
89.4433,27.7869,14.3576,12.7865,100.0024,32.2341,-102.8950,57.5614,-71.8600,259.7374,135.9358,-64.2349,14.2744,-11.4005,38.6287,179.7858,-14.6376,-40.4225,-83.4729
97.9798,30.3794,58.7337,72.8240,85.6748,50.3068,-172.3755,-7.2324,-73.1345,94.6257,130.4807,-112.4276,-11.9377,-10.2425,39.7198,123.3977,2.3968,34.9164,-184.5029
118.0892,81.2897,107.4075,169.1154,83.3122,97.1176,-245.1973,-88.5575,-100.4450,-82.2957,127.7334,-87.5033,-19.2414,13.4620,27.0420,70.9187,44.6154,123.9418,-298.5498
122.1633,171.1749,107.1031,287.8174,89.4893,125.2431,-325.8942,-181.6651,-171.1425,-352.8315,106.4814,21.6401,-3.8970,54.0754,10.6220,6.2170,80.3673,198.1474,-433.4717
59.7932,229.2693,91.7606,330.8857,50.0413,94.4674,-360.5698,-259.9246,-265.7096,-713.5421,1.1520,144.7918,37.2403,103.6979,-17.6569,-89.8584,82.1112,264.9645,-563.0699
-95.1372,182.4688,4.8826,279.7303,-38.8099,-5.2082,-348.0223,-332.6468,-330.7524,-1017.4462,-206.6632,237.5375,59.5036,112.9761,-51.1360,-203.7504,11.5943,218.4463,-624.3398
-337.3874,-69.4604,-254.2820,145.7662,-146.9814,-178.9192,-254.4960,-275.4779,-291.3496,-964.0088,-451.9871,192.9508,-4.8228,-4.6163,-48.3107,-222.5362,-205.9382,-48.0001,-437.1797
-509.3131,-446.6735,-446.0048,-55.8613,-233.0236,-282.8226,-5.9787,78.1311,-119.0667,-347.4866,-549.9230,-85.5185,-165.3957,-228.1683,-18.6186,-31.8041,-460.2243,-237.6920,88.3041
-346.9708,-557.4760,-216.2138,-166.9732,-204.6156,-128.1116,252.0989,472.9344,114.2857,410.8120,-304.1092,-390.9937,-368.6521,-375.8764,-28.0701,196.9306,-410.7036,25.5249,603.6588
122.8904,-224.8211,323.8259,-49.6268,-11.4643,163.2447,263.4321,413.3428,256.7287,540.6790,171.7930,-416.1884,-496.4770,-299.9055,-85.7966,132.2537,34.5854,488.2283,608.6924
464.3158,95.7849,764.5065,132.2100,212.7656,300.0003,92.9542,-29.5893,217.1891,58.9979,430.0369,-276.5475,-401.1601,-73.3070,-104.9112,-153.5831,456.5442,589.5101,143.3554
329.9871,-72.3355,845.7037,183.9249,263.1763,260.6588,25.7612,-245.2795,142.0325,-184.9835,202.2155,-306.3024,-98.2366,100.7030,13.8381,-210.5863,416.9962,283.7391,-201.6230
-132.1082,-512.3392,453.6880,189.9903,110.4953,179.7666,110.7856,6.8616,251.4687,186.3861,-243.9112,-436.8229,154.1575,133.4470,224.9600,63.3074,-27.1159,-68.0763,-6.9919
-523.1804,-670.2428,-274.5760,184.5304,-108.6812,38.0333,179.5992,354.4752,457.0394,661.3701,-497.3572,-325.6836,123.9438,124.2273,306.1406,281.1680,-457.7878,-289.5952,520.7464
-664.0710,-426.8547,-816.7684,-16.5112,-302.9227,-178.9335,150.0786,467.5965,488.1300,785.5670,-564.4890,45.5619,-136.6502,169.3937,158.5903,245.0141,-559.9691,-446.4935,857.3228
-645.9781,-121.6370,-823.4659,-388.9670,-460.7218,-339.3786,29.7641,396.3221,340.4312,669.8916,-669.7092,323.6781,-387.4047,190.2772,-11.6282,171.0389,-385.9615,-594.1028,742.4306
-518.2112,11.9517,-548.2491,-652.2196,-512.3365,-365.4472,-166.7538,304.9411,183.3663,589.3005,-676.4056,243.1403,-435.3679,76.4207,-54.1490,197.9546,-201.9598,-650.1628,374.5616
-220.3009,67.8765,-318.4618,-681.7385,-358.1553,-277.8974,-323.2598,273.1134,34.9174,654.5658,-289.4316,-71.7891,-239.5070,-81.8735,-91.4469,224.1035,-120.5762,-484.5900,112.8807
166.8005,143.3572,-111.1362,-508.7237,-31.3892,-90.7577,-278.7204,284.0764,-117.8013,770.8790,312.6475,-286.0605,98.7066,-117.4127,-166.6747,202.8125,-44.3676,-169.0966,77.8555
412.6438,146.8320,78.9934,-191.8808,286.8170,95.3748,-76.5122,232.0540,-194.2283,726.0974,673.4000,-280.5036,386.8732,-66.5852,-143.8046,168.4583,42.7574,18.5060,100.2691
429.8750,41.9009,103.9496,49.1867,413.0656,122.3356,58.5394,51.6464,-197.3132,469.5213,685.6568,-224.1271,457.4197,-76.7847,-48.9375,91.4813,45.3201,-33.2062,9.7712
318.1051,-45.1180,11.4895,42.6953,306.3627,24.6592,36.8631,-162.7982,-189.5132,190.7064,512.3152,-213.3546,315.5861,-131.3739,-24.6583,-24.6621,-4.9913,-152.7244,-158.2558
163.3525,-53.0745,-19.5965,-24.5154,96.1020,-35.1569,-32.0406,-302.0116,-155.4155,-7.1827,239.9295,-154.5372,128.1409,-113.0239,-41.9632,-99.2447,-5.9042,-194.9294,-294.6692
18.8741,-18.5885,5.3493,45.2991,-55.4928,-33.6581,-97.2623,-390.7432,-128.0399,-226.5406,-29.8559,-16.4956,10.7514,-21.8529,-34.9947,-125.9066,24.7771,-158.7031,-414.3726
-50.8645,70.6451,17.4246,150.1989,-111.1928,-17.1786,-209.5167,-470.2629,-196.6452,-502.1098,-169.0013,128.2329,-65.6786,67.4604,-51.0624,-151.2981,48.1859,-60.1152,-574.2288
-62.2843,186.3411,51.5165,216.6981,-125.5582,43.7433,-325.9908,-503.8684,-296.3705,-720.8006,-228.7238,246.5935,-119.2018,129.9458,-74.5257,-153.8708,87.5956,57.9785,-711.9191
-82.6404,213.3149,99.6917,317.5114,-122.1791,134.1726,-363.4538,-480.3052,-305.5482,-811.5049,-292.9059,301.3217,-104.6198,154.7416,-40.5927,-120.1285,112.4616,128.4559,-745.2936
-90.4556,161.0538,101.0666,408.2576,-91.6403,166.7758,-365.5907,-439.4195,-274.9479,-794.5135,-281.9411,249.2752,-48.7742,131.9341,-9.4305,-95.2687,79.4894,169.8000,-711.6318
-39.8484,147.5508,90.5160,410.3688,-35.8939,137.3102,-374.5901,-379.1826,-301.8038,-712.8884,-159.2122,166.4467,-24.1716,106.2012,-48.1180,-82.1359,43.5417,231.0037,-658.9610
30.5024,162.4215,119.8876,372.1937,41.4886,101.5666,-325.5776,-274.2726,-357.1156,-616.5063,-24.4554,133.3995,-15.4011,111.3019,-107.1839,-61.1225,43.4964,286.5758,-550.8181
83.2490,128.4886,158.2526,315.5014,126.8124,68.9127,-223.6936,-143.7767,-367.0749,-519.3881,86.2140,79.4224,14.5339,102.2044,-142.8091,-60.0235,38.8491,313.4768,-375.6118
129.9244,70.2777,186.8860,229.1821,185.7074,45.3732,-153.7360,-20.3722,-297.1184,-376.7407,189.0930,-39.6590,32.8662,52.0976,-154.1102,-73.3462,28.3697,333.7908,-186.9265
150.9612,18.5558,209.0167,164.8796,199.7263,38.7669,-90.8812,81.1417,-163.6060,-184.1664,235.4585,-131.7107,14.4000,3.1986,-131.6094,-58.1593,32.0954,334.6667,-7.2633
115.5971,-60.6423,182.3158,93.4103,172.7338,3.6409,20.9534,154.5623,-29.7457,-17.7268,204.9674,-174.1453,-23.7330,-36.4718,-93.7165,-41.5363,10.3575,274.8718,169.4173
45.3179,-168.0408,97.4968,-65.3041,112.4162,-79.7544,129.4379,214.7292,85.2005,94.3464,137.8132,-239.4268,-66.0546,-104.4638,-52.1793,-52.5348,-49.4692,147.0590,323.6877
-33.4319,-265.6356,8.3948,-230.2873,40.8662,-158.0647,206.7257,275.9961,221.3220,230.6089,42.8327,-298.4677,-84.8194,-183.2294,23.1605,-34.1819,-102.2107,-20.2239,447.2177
-115.0371,-330.2826,-75.4312,-316.6829,-29.2615,-212.4346,289.8499,312.8553,350.9295,431.0828,-62.3767,-284.0565,-67.0950,-222.3165,97.6219,29.1948,-142.3475,-172.1524,545.0402
-176.3119,-344.5952,-168.9741,-401.7704,-111.7296,-265.7730,343.9669,304.9825,410.2876,592.4125,-126.2018,-248.9836,-57.4177,-223.5145,109.7896,63.9528,-181.8857,-265.1756,586.6879
-201.2730,-318.4683,-237.6375,-489.5272,-182.7617,-293.1050,330.6721,272.6993,422.0872,608.1181,-152.6897,-240.1700,-69.5006,-208.0355,110.5257,51.5271,-196.6115,-316.3100,553.9245
-206.5399,-284.8551,-268.8600,-478.1518,-196.9689,-270.4651,302.9510,225.2214,406.7760,528.3651,-170.7716,-200.7206,-61.8675,-170.2640,137.1220,39.2639,-187.7632,-352.2920,484.0239
-198.2110,-236.3830,-288.6856,-412.9533,-186.4895,-231.6292,273.8046,153.6352,324.4437,446.6510,-165.6702,-123.8016,-52.0562,-115.6215,115.0064,27.9906,-178.1457,-354.7577,395.8274
-173.9029,-169.5365,-279.3417,-385.2095,-201.3318,-192.7002,202.3490,75.0043,210.9576,329.5899,-147.1681,-85.7203,-80.8483,-70.3536,48.0585,-11.1959,-154.7343,-313.7334,277.5565
-154.9064,-131.2808,-232.4198,-329.1191,-215.1046,-136.7264,124.1898,11.3177,147.2986,129.9807,-152.8057,-92.5333,-108.2067,-43.0500,26.4073,-67.5379,-118.8393,-252.0663,159.2148
-151.6237,-122.4065,-201.9284,-198.4269,-216.6121,-78.3760,69.2340,-43.0157,94.1663,-60.6816,-168.7039,-90.1862,-104.4182,-25.5591,21.3294,-103.4347,-102.9866,-191.2838,61.7893
-151.8185,-99.6029,-195.9657,-88.7178,-238.7066,-47.6491,-23.3167,-105.6295,-25.4982,-136.0821,-179.9865,-78.7219,-106.4823,-12.0071,-40.5693,-94.6808,-106.2504,-164.4261,-68.8345
-164.4684,-81.0528,-170.9843,-61.1715,-251.7576,-55.4601,-158.6263,-191.9833,-178.0291,-118.0113,-214.7677,-68.2450,-109.7131,9.6853,-125.4914,-60.9921,-118.0276,-191.9592,-250.7756
-209.3912,-77.3102,-154.1655,-79.4035,-231.1043,-100.0872,-271.8517,-292.3841,-316.4501,-105.4057,-278.2014,-19.2918,-80.5107,68.4194,-202.2359,-50.8708,-151.4944,-233.4556,-417.9226
-297.9902,-50.8551,-205.1705,-109.7094,-240.7911,-150.2648,-363.3256,-362.4370,-452.2806,-173.0420,-381.2160,85.6300,-35.7555,191.0656,-272.3202,-67.4134,-204.4268,-283.8172,-540.6856
-444.9165,-74.0438,-312.1622,-125.3328,-273.1170,-163.2111,-388.3331,-373.3702,-496.3004,-243.7459,-558.8068,201.3384,26.4981,332.4995,-242.8770,-56.9928,-283.3670,-399.9416,-577.7408
-592.5276,-260.7724,-420.5246,-64.3978,-233.3885,-126.8845,-180.1017,-311.6168,-265.0781,-97.6401,-702.6175,241.8977,119.5310,341.4466,-37.3993,14.8858,-406.0935,-477.4333,-372.6053
-576.4629,-493.4877,-455.1346,101.1441,-164.1302,-30.8172,210.3068,-148.1597,158.8648,235.2297,-591.4612,97.3297,137.3966,117.1393,200.0064,115.0212,-495.5983,-279.5256,60.9486
-333.3441,-535.7901,-305.5829,251.3292,-152.3711,109.5345,393.6828,54.7428,374.8068,336.4664,-246.8788,-223.5334,-22.0574,-193.0139,251.1215,151.0753,-419.8494,141.2556,336.5448
-32.7882,-371.4860,69.5038,221.8278,-88.3894,187.0762,196.2702,113.3859,267.6704,66.7597,31.3071,-467.3017,-218.1950,-312.6580,135.4872,59.4752,-167.9988,429.3549,203.0718
154.2255,-170.1427,517.9914,111.0287,109.2254,152.2930,-48.9777,-19.6122,227.1832,-104.4629,101.3726,-420.8743,-227.9691,-177.4685,61.5687,-75.1261,140.8249,453.9116,-43.3792
235.7448,-51.6483,755.1194,198.6415,248.0510,134.1126,-62.6746,-149.1990,403.2072,105.8389,124.5888,-249.9170,-85.9998,-1.2929,76.2261,-102.4043,343.5836,415.8313,-63.7699
236.7750,-42.5909,602.4086,426.8858,175.9672,187.6514,17.7432,-130.1890,420.3764,352.1302,197.3619,-207.1846,4.4041,36.0470,33.6599,-22.6463,298.6623,402.3015,49.2586
106.9070,-99.6084,194.4535,428.2450,29.4600,162.0508,57.6663,-22.2420,191.9405,373.9906,176.7540,-193.6607,1.6406,16.0135,-53.7553,53.9313,50.1887,292.8815,132.8570
-113.8134,-120.6204,-132.2861,155.4303,-48.1580,12.1971,124.2883,99.1988,109.1600,342.5294,-28.9901,-15.0489,-2.8770,95.3804,-15.2058,103.2348,-146.5401,81.0547,237.4625
-249.8180,-41.3702,-203.2602,-100.1365,-89.2590,-105.2528,155.4135,224.9925,203.4199,335.5543,-247.5427,197.4286,-18.0085,213.7526,88.8117,147.3483,-134.5890,-90.1451,338.0411
-174.7602,107.0586,-131.2873,-264.4950,-120.0964,-144.1129,28.6499,327.1055,132.4101,273.8080,-227.6363,209.5898,-85.1247,173.9712,37.2113,152.1073,-13.2815,-151.1745,314.8300
55.6807,247.4434,-91.0976,-458.3499,-105.4811,-209.0047,-99.4847,372.6356,-56.8862,284.2599,63.6341,52.8879,-116.4988,-40.0196,-125.3411,113.1839,76.8385,-148.3421,245.8163
250.2417,295.9586,-153.4290,-612.5500,-62.4957,-306.6768,-41.5266,344.3358,-90.7902,449.0392,384.8695,-85.2660,-35.7805,-233.4402,-187.7880,78.0299,83.3090,-162.7220,253.0147
259.1872,215.8129,-295.9051,-593.0788,-42.8730,-356.2625,84.3185,209.2075,-38.2982,518.1170,474.7953,-115.3781,73.6995,-265.7171,-134.3152,39.1459,-1.0366,-254.4209,232.9616
129.2778,71.6515,-424.1545,-457.9197,-66.3224,-342.6120,115.7367,-21.7472,-36.2081,333.9342,335.6993,-90.8192,108.2846,-177.0594,-56.3989,-38.0598,-112.3526,-391.0169,74.8909
8.6038,-58.1580,-443.9175,-320.8649,-115.7395,-294.8229,73.1380,-268.6178,6.9681,87.1675,156.9257,-114.4968,70.1563,-79.9984,29.0735,-134.1122,-164.4212,-467.1016,-140.4429
-73.6051,-178.5467,-362.1355,-204.4650,-142.3436,-236.9541,-9.4061,-480.9713,114.4183,-64.7631,8.5953,-195.4405,15.5419,-31.3968,105.6743,-215.0793,-176.5043,-449.6948,-329.4510
-174.6715,-294.1707,-251.1298,-102.5948,-120.7749,-189.7107,-123.8389,-648.8231,190.5482,-171.0191,-168.0139,-235.6755,7.3132,-0.7596,162.5569,-261.3914,-201.0695,-404.3707,-503.0133
-265.1696,-343.3849,-154.9125,-20.3694,-82.3639,-141.3639,-215.8761,-748.7884,229.1898,-266.8262,-334.0302,-191.4131,63.6798,54.3024,227.3289,-262.8731,-209.7215,-363.1730,-649.4322
-283.6287,-297.5757,-82.8700,36.2038,-41.1637,-69.4453,-262.5881,-777.2568,224.5952,-336.0933,-397.9000,-96.2960,111.6570,113.7488,255.7884,-251.3674,-175.3090,-295.6514,-717.6810
-263.4232,-211.0552,-36.6614,71.3697,6.7402,12.0907,-254.5289,-745.6285,141.3184,-392.5413,-396.6624,43.6204,103.1272,154.8302,196.0123,-256.5512,-126.6290,-206.1774,-674.0438
-246.6252,-132.9004,-15.0792,118.0879,30.2382,94.0972,-148.7266,-640.0154,47.0334,-421.2084,-386.6617,202.0688,101.2988,207.0503,121.7795,-244.8479,-80.2943,-128.5848,-524.5914
-196.5659,-59.7159,-1.4178,190.6916,43.7600,183.2923,-1.9819,-480.6426,-16.1335,-393.9670,-311.3513,301.5509,132.5315,269.4595,73.5351,-203.4388,-33.1026,-42.6045,-332.7535
-91.5290,19.4763,42.1553,249.0701,104.3601,247.7886,74.0019,-319.0563,-125.8620,-367.0124,-150.0583,328.8118,127.7390,290.1425,-23.1881,-178.3982,15.5014,84.4833,-166.3598
30.8757,100.7571,128.4096,281.6501,169.8917,255.6653,109.2120,-154.7675,-285.2207,-407.6677,17.0360,325.9445,89.2986,255.5682,-163.0919,-173.8615,79.7779,222.8382,-35.1709
155.7195,188.4814,224.8720,326.1375,183.8640,226.0724,147.8461,-1.9214,-408.8148,-472.4738,163.3168,304.9737,93.6799,172.6172,-275.3653,-160.5948,167.2877,338.8685,51.5829
292.5716,285.4247,316.0639,367.5038,206.1676,169.6522,115.8505,68.0361,-479.7190,-470.1229,316.2743,275.8134,124.4253,27.3159,-375.0548,-151.6182,260.0688,432.3175,65.3977
413.5015,355.1212,403.0243,350.1196,253.0686,76.1226,21.0413,61.8607,-501.1500,-382.9076,448.1521,228.5913,111.5152,-141.5294,-466.5230,-154.7434,335.9029,477.8354,36.0329
483.9540,357.4408,448.9683,281.5316,254.6656,-29.0304,-41.4978,47.3375,-447.8951,-253.0272,531.2241,119.7254,62.5057,-264.4600,-497.5457,-153.7769,370.9922,455.9929,18.6914
504.9426,317.5143,430.0604,203.4962,232.7196,-120.9693,-95.9685,17.4950,-338.3496,-104.5510,574.7162,-8.1688,9.2258,-348.7346,-480.7055,-155.5100,357.9341,399.9388,13.0074
477.9119,278.8553,374.8387,116.7628,222.1978,-210.5806,-173.7783,-30.9605,-206.9175,51.9162,554.6577,-71.4558,-45.6561,-415.2655,-438.1765,-147.3330,321.4070,322.0183,2.1463
401.1820,233.1629,292.5919,15.0282,164.0145,-283.9640,-203.0103,-51.7518,-81.8639,182.2734,464.0741,-101.0379,-77.0940,-424.5236,-348.3201,-100.1418,266.5978,210.3246,-19.3273
308.2549,183.0131,175.7554,-79.8336,74.5907,-313.0419,-194.8190,-80.3498,-21.6817,263.9547,368.3210,-124.1449,-76.0190,-374.3235,-265.5552,-54.9545,185.8058,95.8085,-67.4847
231.0786,164.5444,55.2957,-152.9870,23.7772,-320.3328,-215.7445,-172.5183,-30.9700,307.1339,292.6371,-82.4159,-90.3395,-316.2607,-251.7893,-59.0896,115.5375,-6.5483,-134.9987
155.9290,151.3911,-49.0881,-214.4836,-34.0135,-334.5991,-226.5595,-274.7374,-30.2752,319.4036,200.3633,-21.6895,-131.1750,-264.8064,-239.4927,-77.2432,70.7115,-126.1093,-196.0898
73.0208,90.9279,-151.0288,-282.2181,-118.4174,-347.1710,-224.5332,-354.4372,29.4754,341.2225,103.7355,-47.9512,-158.9523,-226.7867,-172.9777,-82.1739,9.9345,-253.5593,-256.3104
4.7349,21.6217,-243.0117,-359.1485,-166.7633,-355.1519,-269.2947,-454.0925,149.2404,436.8739,33.7514,-108.6937,-176.4704,-216.6065,-92.0195,-92.8651,-53.8029,-367.7050,-314.1214
-37.9022,1.0207,-313.7960,-409.9928,-208.1701,-358.7574,-295.0387,-553.2953,273.7881,525.9473,-18.2264,-113.1052,-195.3581,-191.7771,-21.1762,-106.6748,-74.5065,-464.7845,-354.6259
-64.5501,3.9959,-367.8181,-399.5039,-255.2159,-342.4103,-261.1460,-616.9755,280.5136,457.7847,-46.6242,-85.3104,-187.1318,-127.6089,10.4222,-131.1993,-87.0818,-499.9177,-404.4674
-82.2078,-4.1478,-384.9765,-358.2161,-230.7095,-309.9551,-270.9002,-669.2670,183.6902,316.0465,-52.3675,-56.8996,-157.3151,-73.9020,-28.7741,-186.6668,-116.5757,-472.6465,-458.3168
-94.1626,-12.6826,-351.6410,-320.8849,-195.2763,-262.1171,-292.5509,-686.7078,144.7286,249.0760,-71.3996,-38.4095,-128.3701,-19.2782,-59.3001,-230.2658,-112.0548,-453.6542,-461.3042
-108.0289,-5.2601,-297.9809,-247.6650,-206.6841,-164.9324,-228.8105,-650.2637,144.1843,128.9310,-102.3808,-17.4792,-57.9114,113.1201,-12.4897,-235.7577,-85.0282,-398.7571,-456.8389
-148.3226,29.2735,-248.8570,-133.3975,-109.7236,-19.5147,-198.1193,-619.8573,82.5338,-124.1468,-148.1893,109.2611,88.7658,308.6803,44.6433,-262.5499,-92.6965,-251.7560,-477.5623
-223.5107,69.3893,-218.5867,-62.4333,83.4505,119.2732,-189.9447,-533.3817,84.6656,-271.1231,-237.4495,339.7113,288.6531,476.5829,93.7807,-302.7359,-104.7430,-146.1968,-348.4428
-239.3656,55.8497,-193.9789,-15.4973,164.7307,207.3874,63.3718,-262.4463,172.8602,-225.2079,-242.9703,449.7037,499.4405,515.0224,184.4754,-241.0595,-90.8488,-87.8111,-14.5921
-56.0950,4.0960,-37.7027,138.9591,241.2733,217.4781,419.8024,45.4973,84.9219,-190.3710,15.2160,330.5462,561.5806,301.2346,222.7372,-52.6161,-56.4486,160.0204,193.1740
288.0180,-13.6482,357.3809,338.7947,434.3650,166.4090,427.4541,146.2795,-166.1795,-186.3075,389.3459,75.5509,274.0423,-144.0540,94.4408,119.8441,78.8360,513.0958,85.2184
522.8279,-58.9621,721.1844,356.8568,404.1321,131.3209,243.8211,59.9254,-200.4312,-66.6596,530.5887,-254.6844,-176.1760,-526.7745,-87.7035,107.8909,299.0398,543.5671,-29.2327
397.8972,-230.6590,602.7498,217.2886,35.2279,99.2350,312.7097,-143.0444,119.0310,180.3876,331.2778,-458.7639,-304.9131,-560.3255,-138.1069,-93.0848,326.1630,183.2917,96.8364
-19.2528,-367.4216,68.4996,179.7023,-207.4126,-21.6801,378.5192,-440.5668,546.4158,496.4945,-62.5605,-220.9823,-89.4455,-274.9426,-55.1182,-266.4858,76.8026,-199.0205,260.0422
-333.2854,-224.9705,-249.5017,289.8020,-153.2820,-130.3369,36.0918,-551.5267,750.6981,669.0408,-397.5090,233.8327,4.8750,60.1566,24.1725,-214.0395,-73.2883,-292.6294,227.7853
-247.5749,67.0951,-14.1950,352.8104,-86.7633,-49.6440,-328.3069,-221.1494,530.7335,389.5273,-396.5485,297.4140,-120.9735,195.0105,35.0395,-2.2612,75.6731,-29.5518,62.3104
43.6613,150.6358,379.8340,300.1370,-15.2056,76.3520,-223.6946,249.0634,87.8876,-85.7928,-86.2189,-20.4569,-103.6324,98.6426,66.1112,206.0320,198.4374,358.0612,-70.4693
178.9276,13.3847,464.0197,213.0472,172.5855,-6.3769,64.7990,424.8809,-115.6040,-95.9143,175.8775,-209.0951,119.8985,-53.0172,168.4891,368.1045,89.1417,466.0139,-103.5971
188.8648,-10.4172,282.0033,84.8199,266.1314,-205.1479,57.3780,346.9149,-31.7938,308.7830,281.0992,-184.6095,235.9348,-145.5557,194.0849,433.3180,-11.9043,264.1248,-88.2437
291.9981,205.5789,73.9066,-135.4386,172.6368,-295.9319,-172.4967,235.0268,-18.7369,487.1607,445.3699,-167.1985,157.1198,-212.1643,35.2682,313.6865,41.3645,108.9408,-105.7189
403.1690,430.6195,-106.0531,-366.9655,106.6307,-278.2028,-280.7419,110.0155,-175.1542,284.6526,623.7997,-97.4472,93.5920,-193.1018,-148.8951,81.2386,90.7991,76.0577,-151.6429
331.9373,478.5073,-242.5130,-471.9505,120.4087,-210.3855,-168.6486,-37.2036,-336.7002,-56.5002,553.6050,126.5201,164.7157,22.0306,-187.9749,-110.5103,60.7107,-35.8915,-190.0324
153.7528,403.8380,-270.9687,-417.1828,117.2767,-94.8205,-10.1586,-162.7225,-457.3669,-470.4839,291.1832,347.2777,298.4468,294.6534,-138.1049,-242.4653,24.3645,-165.7527,-258.5857
29.3498,301.1484,-223.2258,-261.0879,141.6771,-8.5516,14.5669,-276.7165,-521.0617,-861.4874,97.8932,416.7871,384.0380,399.3658,-92.7036,-345.9255,-13.7235,-138.1944,-378.6916
-28.0713,186.4765,-164.6192,-69.1171,229.6382,6.1128,-70.5320,-387.8723,-472.6833,-1072.3829,23.1567,365.4244,392.3930,376.2889,-16.5089,-388.5120,-69.3870,-30.8725,-509.4218
-55.2082,67.7495,-82.6625,103.5641,325.1999,42.8789,-126.6661,-467.3703,-378.3206,-1187.5020,-22.0323,277.3377,385.9901,369.4795,132.7675,-362.0698,-105.6926,34.0592,-642.1202
-68.7319,-34.9384,5.9014,208.8421,412.7201,121.9163,-124.0931,-498.2568,-314.2872,-1274.6223,-63.7423,210.6575,391.2181,362.7072,290.6918,-309.4486,-125.2757,69.8634,-737.5578
-88.9460,-112.1399,45.4230,228.0553,452.6544,155.1700,-107.4043,-457.8557,-236.2797,-1204.2800,-99.4875,164.4961,348.0015,308.0166,356.7058,-261.8777,-143.9675,84.1374,-683.1589
-104.0980,-159.0337,67.0777,190.2856,393.2657,146.7952,-62.7888,-351.3319,-122.1902,-986.8732,-128.1902,104.2728,245.9280,230.8362,324.9047,-229.4819,-128.6786,80.8563,-487.2044
-88.5627,-184.7225,122.8356,150.0733,305.3600,154.8267,15.9566,-232.8253,-16.5216,-737.3245,-130.9241,36.9748,138.3423,139.1221,269.4169,-188.5566,-80.3014,103.5136,-278.2222
-58.8312,-202.2735,175.3596,134.3657,239.7169,170.2009,89.2701,-97.5602,52.9060,-431.2424,-105.7224,-21.3038,24.6176,50.8264,209.8976,-98.2284,-42.5724,135.9998,-79.1142
-38.3896,-202.6411,190.8083,133.5521,140.2361,194.9471,153.8051,87.7640,85.4336,-86.4484,-78.8825,-77.8562,-100.3771,16.2671,130.6009,27.0911,-14.9158,142.0171,143.7784
-18.6900,-183.9008,204.2563,142.6903,36.5709,251.5727,210.5511,264.7951,126.7213,177.0805,-60.7125,-123.5661,-182.2401,1.9388,81.8683,133.4695,22.5916,159.3452,338.1472
10.8685,-164.2190,225.2666,154.5703,-10.4732,294.4876,219.6724,384.9863,223.0369,351.9556,-34.0386,-168.7389,-218.2210,-63.2699,74.7060,186.7749,62.8153,200.6298,487.6333
38.9238,-144.3554,217.2876,133.9749,-67.3847,276.1308,190.4533,481.0449,321.1778,485.0748,2.8463,-237.5243,-258.0057,-144.3472,25.2175,174.3955,99.2832,209.0504,642.7021
48.4645,-126.4289,179.0178,68.9625,-146.8189,215.8328,178.7462,548.3041,353.4582,573.9495,26.6379,-292.1378,-275.6453,-185.1459,-55.5707,137.5457,117.1977,165.3663,758.7371
42.0919,-135.6948,138.7705,0.7851,-162.4701,132.9513,170.8674,570.0883,330.5067,651.8508,36.8200,-316.9512,-228.3911,-215.7922,-81.6810,153.2581,91.6056,90.4525,762.8239
37.4106,-157.0310,100.4464,-44.5807,-149.4412,34.7809,125.1218,585.1133,263.8867,728.3429,51.9500,-353.8356,-159.6153,-261.4673,-97.0352,205.1947,45.7659,1.2549,704.0088
44.8442,-130.9184,61.7996,-82.6777,-170.4964,-50.8884,82.2630,571.5668,169.0107,739.2214,69.7804,-349.6394,-113.5172,-293.0748,-152.7620,219.2238,30.6439,-62.8812,632.4150
70.0577,-51.8484,31.5831,-116.9117,-163.4067,-112.7722,86.4335,465.5971,94.4935,694.8450,95.6444,-240.1466,-83.8522,-287.1604,-172.4915,211.5912,46.5983,-90.1806,507.0981
104.2767,24.8489,0.3279,-137.0852,-125.1024,-155.0877,83.4082,309.9843,33.7167,649.8626,137.3421,-127.5870,-69.1336,-232.2473,-149.2910,210.5301,60.3824,-136.0614,329.5385
112.9166,75.8199,-44.3647,-153.3167,-122.8898,-159.7346,28.0302,177.0079,-28.4847,561.7559,152.7955,-82.1032,-55.6010,-131.3808,-142.4128,172.4361,61.8192,-205.1765,166.8355
90.7419,118.6814,-83.3360,-171.0008,-117.3475,-121.4262,-22.2835,67.5733,-42.7588,406.8398,121.7082,-23.1490,-23.2399,-22.3569,-96.5161,114.1341,58.2659,-230.1751,36.3103
71.5400,151.2857,-104.1747,-167.2224,-88.7128,-68.9009,-27.4268,-19.8018,-27.8240,274.5491,90.5489,52.4260,-5.3370,67.4646,-3.7350,100.3716,52.4423,-216.8178,-77.2017
49.4587,158.8904,-125.9375,-129.4732,-103.7276,-23.2190,-34.7391,-91.4831,-45.7253,207.4645,58.3793,88.8164,-16.5273,138.4821,26.6624,96.5269,43.0375,-223.2081,-161.5703
7.5121,150.8920,-143.8400,-85.8431,-123.4431,11.9683,-63.1716,-171.0706,-47.0617,138.5249,-0.7993,122.5529,-10.8625,183.7835,24.8649,57.1365,29.8941,-221.1073,-219.2156
-17.0859,136.2581,-126.2895,-66.1244,-87.6510,41.0353,-78.7505,-223.4802,-9.8569,28.7920,-34.2217,137.5330,-0.7109,210.7350,75.9716,21.2458,15.8989,-160.0164,-269.7054
-19.9134,105.4522,-82.5176,-43.7029,-58.7278,75.6209,-88.2388,-228.3620,-5.2405,-89.3951,-34.4203,87.6658,-21.9444,237.9091,113.7455,0.1951,2.8593,-78.9503,-308.1688
-49.4467,66.9142,-52.1331,35.0184,-37.6717,115.0915,-112.7363,-249.7380,1.2595,-195.8788,-75.5113,72.8815,-11.0583,256.3806,134.3065,-23.5639,-13.8966,-17.9120,-339.7841
-92.3861,43.9645,-43.7914,153.9733,24.9236,158.9624,-137.3053,-282.6094,51.3703,-302.7061,-127.4280,119.3290,62.9112,290.4037,210.4184,-28.2371,-40.9303,53.6847,-380.3994
-127.8571,31.7490,-46.2868,243.8334,62.6187,223.1823,-145.9747,-253.8198,49.6283,-410.7736,-144.5195,129.3722,140.6183,390.6570,249.1877,-35.6819,-78.5282,146.0924,-382.3029
-222.6370,2.4442,-67.4840,296.1689,88.2252,292.7108,-85.2187,-195.3031,16.9032,-500.6569,-235.6229,224.0927,269.5441,502.6355,221.5979,-79.6734,-133.7084,224.9112,-275.4427
-395.3778,-86.4737,-120.2651,335.3372,203.3580,338.1006,107.5609,-142.0764,59.6795,-535.2626,-424.1427,472.8832,492.7188,552.3423,276.2218,-92.4646,-242.3161,290.0983,-80.1747
-528.5056,-261.4982,-167.2540,312.9794,285.5671,388.0283,306.3932,-18.5150,61.7393,-474.3144,-520.2527,499.6114,583.8677,597.1748,325.6209,-52.7598,-398.9679,350.2520,123.0607
-487.0178,-396.6277,-116.0394,196.0262,228.5787,454.4993,290.5092,147.0119,-37.4585,-357.8424,-415.9350,162.7919,339.1240,631.8642,194.7000,-68.1348,-440.4738,353.5358,278.1112
-224.9140,-268.9590,41.2940,85.9600,237.7954,474.7347,108.3394,184.3982,-29.5276,-318.2253,-175.1828,-29.8453,-65.7211,491.4812,71.9497,-153.2743,-198.6868,252.3782,345.4628
120.8880,41.7651,149.9762,75.6233,335.6011,454.2372,12.2832,81.3491,47.6055,-390.5614,89.9062,120.9277,-343.5427,187.1375,84.5897,-207.7813,164.8519,77.6811,316.4968
259.8824,117.0543,136.6928,85.6112,221.6353,456.6132,103.0367,17.4870,-73.0075,-405.6063,184.4411,139.2063,-386.0668,-36.8477,16.7721,-199.1420,291.6364,-103.3834,257.6238
112.1999,-170.7091,169.6497,7.6671,-44.4416,401.0895,326.3510,86.8699,-205.5930,-205.9675,13.6722,-134.5979,-188.0842,-98.8251,-70.6729,-108.7908,149.7243,-211.5664,239.3177
-33.2171,-426.2494,321.5507,-70.9811,-80.2161,203.7863,582.3556,221.6938,5.0601,118.3598,-143.4877,-305.8136,122.3296,-113.6059,113.4125,88.3345,28.1948,-160.6522,270.3078
2.7630,-387.2283,373.0702,40.5556,96.4794,46.9981,697.8032,355.7322,334.5688,335.0862,-44.3573,-230.0198,289.8682,-88.8962,375.9384,266.7083,29.1105,16.2089,377.3987
7.6750,-266.2280,214.1729,283.8205,157.0387,96.8779,609.5612,503.3457,401.5042,400.8512,39.7710,-92.2738,234.9846,19.4845,356.9167,309.6917,12.2874,117.9251,601.3422
-123.2809,-193.7641,54.8946,274.2126,29.9862,162.1708,488.5632,673.2360,279.3509,484.9688,-122.9584,54.5623,114.1336,108.5252,168.3334,321.9123,-22.3447,37.7421,820.5538
-100.0075,48.3293,18.3656,-191.1471,-117.3812,21.9618,394.9240,773.2983,132.1290,616.2195,-158.1870,187.4618,44.7323,62.9522,27.0843,364.1094,62.1659,-85.4487,791.2136
238.5577,501.2432,-56.5098,-714.9250,-140.7491,-204.8800,162.5711,698.6049,-58.2317,576.4536,272.7539,184.0462,49.1348,-80.4647,-84.1551,303.2338,229.6590,-130.0460,477.5817
593.5294,819.5942,-249.0040,-770.4988,-10.4165,-294.3705,-161.6646,524.0737,-238.3308,257.3524,818.0612,74.8578,120.1671,-206.1087,-138.6984,135.6776,300.9167,-130.8900,149.6689
648.2327,766.8282,-371.2049,-405.9138,141.5685,-202.5368,-284.2764,431.2108,-325.8004,-161.0825,964.5577,2.5187,162.7730,-214.5210,-89.4135,26.1955,226.8011,-81.4570,44.6067
454.8568,477.0865,-261.6160,-42.3809,176.6544,0.4160,-173.8420,419.7964,-363.8923,-502.3008,706.8338,-41.0592,108.0943,-88.0993,-39.7863,-18.0149,118.1161,64.2842,84.0312
224.3703,159.7458,-6.9433,149.9361,146.0310,202.2810,-77.7437,330.2947,-374.1952,-758.4818,340.7712,-127.9982,59.8851,51.6957,-37.6394,-104.2592,51.6926,216.2758,48.2970
35.4613,-110.2399,197.6189,244.0414,129.4806,277.2733,-84.3273,130.8960,-307.6246,-895.0591,27.3490,-224.9580,96.4744,72.7243,-14.7002,-203.2062,-3.9279,263.9767,-97.7436
-120.3101,-296.4123,269.6109,266.5819,103.5647,223.6520,-111.9248,-80.6379,-141.6858,-840.5613,-209.6678,-267.1504,138.9142,19.9848,57.2629,-237.3631,-71.8125,242.0474,-240.0278
-215.7630,-356.9355,267.8814,244.3532,95.9157,162.4828,-144.6803,-268.9955,88.1813,-690.4308,-348.6412,-230.6219,146.5422,20.5679,187.8197,-221.4412,-107.7872,215.0051,-359.6920
-235.0465,-321.2997,259.2060,235.2925,143.9398,143.0105,-168.0250,-425.6665,241.6694,-579.2703,-393.2601,-119.9261,148.1930,73.9360,327.2336,-175.7978,-95.6405,173.0140,-488.1718
-221.7027,-269.8798,236.2983,215.9642,154.6485,116.3322,-117.0592,-495.8965,188.9390,-444.8742,-388.7189,10.3246,106.1974,108.7005,322.4649,-101.7773,-79.5343,94.8934,-545.2477
-202.8004,-233.1481,181.4219,169.5217,82.5730,80.0029,-22.7052,-479.2508,33.4026,-211.3952,-351.5807,89.0681,3.8712,137.5448,167.2421,-36.6520,-73.5725,-8.6524,-472.7589
-159.6390,-183.7779,126.1242,156.1780,16.5222,78.6332,30.2886,-430.4981,-51.1866,27.3347,-275.5940,118.1862,-100.2971,184.5453,34.8528,9.3049,-47.6101,-95.9622,-354.3425
-94.5428,-109.8149,100.7132,165.9905,-25.9112,109.1347,49.1549,-349.4224,-72.7030,209.3913,-192.0834,138.4076,-210.3854,186.6761,-33.5587,68.5470,4.9037,-124.5165,-237.7400
-33.5609,-39.5460,87.1952,138.1078,-84.5434,144.2443,61.9535,-209.5635,-74.2864,374.5803,-123.0092,131.4100,-338.9677,121.5851,-101.8253,129.1756,57.3597,-107.6933,-74.9053
12.6137,0.6263,58.2713,108.6990,-116.2761,187.7801,61.2582,-14.8819,-47.2205,491.0978,-45.3707,69.2334,-392.0191,84.9893,-132.1816,172.3169,78.2003,-80.0793,120.8883
30.2808,19.5990,16.1619,114.6209,-113.8098,243.3064,85.6415,210.7283,-24.6203,522.9510,20.8742,10.6316,-332.1733,126.0910,-108.3462,216.7221,64.1099,-39.0077,307.7690
11.4501,41.7727,-28.6508,102.2977,-145.1216,291.6097,164.5707,388.1677,48.7619,532.0031,27.2553,16.4548,-254.7720,181.2238,-90.8335,209.8109,62.6732,7.9042,521.1495
-14.0114,70.0708,-77.8602,56.6397,-187.0839,323.5637,241.6453,445.0309,257.6922,514.0550,9.3973,49.3285,-199.9989,225.3608,-68.4955,80.8645,99.8539,33.5403,753.6299
-23.6201,95.4757,-125.9181,10.4952,-174.9319,348.9792,290.3014,465.2567,383.0925,406.3452,20.6156,78.6854,-130.3397,293.2779,-37.6369,-51.5754,118.6667,42.6369,893.3792
-26.3911,123.6086,-159.5586,-52.9418,-138.7851,373.0174,338.0679,555.7139,175.0281,266.2974,38.6796,135.5317,-49.7359,359.5583,-69.8363,-30.5689,80.9703,28.1247,881.6562
-20.0557,155.3746,-189.8780,-126.2471,-114.0347,384.7697,349.2168,626.4487,-145.1905,143.6527,49.4897,193.2545,34.8340,374.9843,-129.4059,46.3912,35.3418,-37.5503,768.4330
-7.2309,179.2301,-231.6307,-145.6634,-88.3695,364.1086,291.8110,563.8410,-257.6872,-32.7402,61.6556,208.1033,135.7768,354.5727,-111.2481,21.6235,19.1015,-110.4559,610.9900
-6.5889,205.3644,-260.8076,-120.8452,-68.9936,303.1960,228.9353,434.6956,-248.9610,-241.3399,52.6963,235.0955,219.1676,325.9114,-47.1636,-36.4744,16.4229,-126.9671,431.2043
3.0924,249.8707,-264.1219,-115.6833,-47.1828,219.0661,189.1381,311.0058,-277.7028,-367.1409,48.8761,297.5884,250.2882,296.1997,-0.9841,-34.2686,17.9900,-120.3488,234.4439
42.5877,294.6134,-272.9250,-123.7894,0.5526,134.8665,126.4207,157.3709,-274.6904,-433.9821,93.6375,328.9173,240.6831,276.1564,59.1662,-34.6064,24.9469,-139.3663,29.3094
68.0668,315.9110,-281.7356,-113.9222,33.1705,65.6718,45.4900,-16.4703,-215.9171,-507.8505,114.3949,333.4356,205.5577,248.7876,129.5625,-64.4362,35.6035,-165.8842,-159.3258
64.0508,316.2202,-256.7271,-95.8702,24.7374,16.8880,-32.7293,-159.3386,-184.9739,-543.0906,71.2660,339.5202,171.8639,192.1194,162.1881,-69.9935,51.6306,-194.1219,-327.3524
78.0163,312.6400,-233.8689,-65.5246,25.4318,-33.1083,-138.4042,-299.8707,-174.8270,-544.6040,63.3842,309.4649,159.4959,129.9748,177.5018,-68.7518,60.6272,-228.8001,-508.5618
106.9089,326.0474,-231.3780,-4.7669,40.7986,-106.1536,-248.7470,-460.4930,-152.9269,-592.0537,91.1236,287.9146,128.9695,63.1369,194.4063,-87.4187,65.2086,-221.4262,-696.7442
116.9240,340.6440,-174.8076,70.7560,36.9382,-163.7610,-311.1917,-581.4307,-138.1075,-656.8107,63.3346,314.3544,67.3601,-24.6920,184.0993,-98.6335,96.7748,-163.6790,-828.4874
123.3755,303.4102,-78.8222,143.5210,28.9664,-161.5242,-377.8061,-635.2988,-112.3425,-658.3771,34.2089,251.8080,15.1710,-77.3661,152.3161,-118.2357,130.8184,-127.2539,-878.4482
118.1294,234.0834,-36.7120,212.3561,3.0469,-127.6220,-456.7709,-629.3088,-44.1577,-564.1867,35.6349,107.8865,-34.3633,-79.8762,126.6702,-128.6427,123.5879,-100.8148,-849.9975
50.7408,170.2510,14.0007,247.6519,-61.4491,-95.6525,-408.5598,-528.9178,51.0164,-346.0401,-56.3277,78.9362,-62.2147,-106.1185,118.1023,-40.6573,100.4253,-4.9942,-718.1979
-102.6844,-34.5374,121.3211,197.6134,-57.8301,-65.9739,-248.9343,-371.0242,130.0414,-81.6957,-236.5037,25.6734,-5.9096,-91.5476,124.2477,53.4565,-1.2244,91.1167,-504.1063
-339.9028,-478.5764,128.6735,70.6618,83.6528,-53.6394,-173.5666,-249.0217,138.7622,63.2417,-386.9069,-266.8465,19.9825,69.7194,86.9188,-27.4429,-295.7498,82.1180,-242.0744
-520.4091,-801.9345,63.9297,-14.5905,212.4129,-22.3241,-143.2878,-88.7392,87.9395,130.3089,-478.1280,-450.1876,-146.9622,165.7549,-47.3779,-144.2961,-531.9930,95.4763,124.1233
-344.9396,-604.0528,199.0439,49.9182,192.8701,113.7615,-6.5905,188.9978,48.5445,249.0650,-356.3921,-284.1170,-367.0650,-52.7397,-210.8748,-78.5295,-306.4971,264.0319,508.1455
156.9392,-173.7929,461.4569,158.9512,96.6761,279.8330,57.1085,366.4298,-29.7639,275.1217,104.4304,-282.2179,-430.9230,-373.4405,-323.6462,2.2476,156.5550,404.7390,566.2927
441.2646,-79.2926,509.8514,101.2074,-5.4911,274.1996,-126.0802,250.8692,-220.2856,80.4324,460.5001,-668.5897,-406.6950,-479.3632,-405.2290,-96.6018,271.8995,316.8262,225.0895
228.9937,-252.3037,341.4557,-56.3755,-169.4436,79.0007,-286.5049,26.1076,-326.7186,-84.4824,233.7611,-810.3192,-393.9337,-455.5106,-453.3681,-200.5504,71.9382,119.5239,-78.5124
-88.7991,-248.1451,113.8348,-14.2454,-389.2939,-136.6572,-194.4919,-86.3189,-145.9977,-8.3661,-204.8604,-418.9958,-349.2529,-446.4255,-421.2900,-162.2665,-15.1093,-9.4142,-35.7212
-187.7594,-48.6406,-183.1882,207.7926,-521.1442,-264.6693,-52.0163,-93.7071,101.2471,127.2791,-301.8058,8.5388,-297.1046,-335.1796,-338.8324,-91.8219,7.3580,-77.0776,152.6979
-184.7838,131.1442,-408.5979,191.7736,-491.4926,-306.0831,-39.5978,-21.8248,121.0966,124.6684,-215.0341,208.9474,-288.3743,-114.4849,-249.5228,-31.8085,-23.8337,-115.6281,206.0300
-123.5309,367.0620,-381.3070,-225.6557,-423.9217,-331.9841,-73.3038,101.6474,62.1588,82.5358,-180.8234,366.0042,-280.3762,-2.4347,-123.3051,64.3595,48.5049,-139.8210,108.5067
91.3189,725.0409,-359.7686,-667.7302,-444.7561,-453.6154,-121.4205,148.8624,177.7356,168.0130,11.0671,469.0894,-301.8818,-55.3942,16.8825,130.1093,262.1113,-234.2260,-4.9373
307.4977,914.9982,-577.7707,-780.3593,-473.4372,-651.2327,-239.9201,96.2819,306.3142,326.1738,360.7462,363.8144,-384.5088,-163.3297,48.6021,109.1435,323.0404,-399.3540,-41.0030
327.1322,706.0547,-715.7395,-654.6629,-352.5708,-734.8909,-360.2293,69.4303,160.9948,341.7359,525.4687,94.1459,-354.1020,-299.2805,-59.9253,50.9845,137.5359,-476.8412,-42.7819
233.5327,284.1367,-518.3158,-507.8221,-98.0768,-607.0419,-379.6653,89.1343,-163.6444,150.1902,456.7653,-197.9708,-119.7521,-406.8073,-169.0873,-7.4984,-75.4440,-398.1835,-102.3881
144.8722,-55.5304,-222.1254,-350.4733,129.2465,-374.8603,-328.2199,61.8942,-370.4219,-84.7057,326.9965,-380.9088,93.0333,-351.0064,-162.4410,-52.9665,-182.2285,-281.5415,-205.7247
24.2055,-247.7278,-16.3629,-151.3597,228.9484,-167.6897,-290.2740,-47.1586,-377.6359,-247.5909,120.4058,-383.2969,131.5033,-167.0863,-91.7781,-86.5355,-205.0162,-211.7197,-293.4904
-128.8015,-373.0152,157.2398,6.1287,234.2469,-34.2216,-278.7513,-205.5717,-270.9637,-361.4866,-154.5302,-309.0646,126.8972,-16.7434,-45.6432,-157.3160,-187.4770,-142.6830,-359.2952
-232.8816,-467.2921,285.9496,75.0133,230.8853,27.2115,-257.8063,-357.8114,-123.2344,-429.7978,-327.9278,-289.0099,171.4653,65.2656,-7.7100,-255.6442,-181.1121,-39.6600,-407.9441
-258.7117,-505.9836,341.2598,121.1415,255.3465,59.1380,-229.3973,-461.3076,-25.0894,-475.8780,-361.4049,-291.7319,214.9587,113.3459,63.6375,-290.3647,-190.4207,56.9112,-479.3934
-235.7883,-484.3517,385.3243,193.5201,277.7952,94.6346,-215.9349,-526.7757,-6.5349,-560.2972,-352.8117,-265.2367,251.0760,115.7794,148.6829,-257.7757,-172.4058,129.6655,-604.7785
-204.2566,-440.6422,402.5443,263.5683,274.1978,113.9668,-176.6595,-545.1379,46.8838,-599.2341,-324.1023,-228.5072,283.0578,91.4238,210.1592,-230.8197,-143.4590,215.2344,-641.6990
-187.2745,-401.7026,361.4734,290.4088,255.4139,120.1534,-60.3613,-457.9439,156.6542,-472.6586,-273.6543,-171.0618,250.0480,77.9451,215.1666,-205.9730,-130.9685,307.2084,-449.6110
-168.4865,-356.2982,332.4944,273.2924,219.2116,161.8194,87.4884,-284.9759,184.8906,-256.4230,-238.5641,-85.7489,143.8022,67.4320,149.0682,-143.6220,-98.8248,345.4828,-158.8159
-133.4396,-291.2588,319.2751,242.1084,151.1802,226.9843,190.0256,-117.9329,145.9098,-62.0420,-210.9162,-18.7411,23.1860,50.8641,63.3359,-65.9431,-42.0396,330.3607,66.4633
-93.8585,-213.9299,260.7702,207.0813,66.1218,240.9642,236.3770,19.9630,172.2811,98.8472,-158.4798,3.5140,-86.0024,10.7043,12.7458,-10.9377,-0.2018,325.2540,247.9375
-46.4627,-142.0049,199.3521,153.3377,-9.8567,186.1057,233.7869,145.2177,196.1291,185.9445,-88.3028,-22.1832,-174.5695,-82.5583,-28.7699,26.3202,25.7604,335.8457,368.5186
-0.0579,-97.5574,159.6289,87.5268,-73.4012,102.7471,171.6394,236.4234,93.9651,189.5264,-25.2198,-94.6225,-225.2148,-187.6646,-99.8033,65.9447,28.1799,303.4403,359.0256
2.9097,-89.2288,70.9105,13.1405,-132.4811,9.0880,76.1664,303.6152,-51.2500,204.3069,5.8761,-171.5066,-249.8284,-251.1659,-194.8570,92.3896,-19.0470,209.7681,330.7343
-30.4570,-89.7252,-54.0480,-95.4071,-194.4316,-84.6239,-2.1957,382.5877,-144.4174,230.1433,-1.3082,-213.4563,-269.4916,-298.8930,-304.6899,66.2227,-73.0840,89.3158,399.4114
-50.0988,-68.9300,-146.5920,-207.7552,-259.2741,-152.1733,-55.6422,431.4390,-216.5662,184.2731,-18.5519,-226.9507,-284.7719,-334.4069,-397.9398,2.1131,-83.5795,-34.8450,457.9249
-52.5066,-37.0004,-217.1626,-254.0013,-302.0351,-192.9412,-99.6962,395.1578,-254.3885,118.2219,-24.4799,-216.6282,-283.9925,-322.5712,-417.8463,-40.0208,-77.4080,-151.7409,412.7736
-45.9767,-6.3653,-274.1556,-266.7367,-298.2921,-231.1875,-128.0891,308.5128,-219.6980,102.3002,-14.4099,-183.1487,-250.3345,-297.3970,-368.5143,-56.6320,-72.0934,-244.3447,329.7770
-11.8546,46.5320,-307.3235,-314.4941,-266.0222,-273.1339,-131.9929,216.7615,-161.4801,88.9154,26.4845,-136.2033,-192.0757,-281.8439,-289.5111,-70.9897,-48.4324,-314.4605,237.3454
36.4748,125.8464,-344.4572,-349.5413,-232.7486,-307.6011,-124.6954,114.8213,-108.1982,68.3855,88.0715,-71.3682,-134.1883,-234.5880,-180.1078,-57.1012,-20.6351,-367.9868,103.5928
69.0823,187.7650,-357.0671,-319.7101,-191.1085,-323.9826,-126.7559,7.4414,-51.6670,59.3428,127.3644,-2.8865,-59.1011,-182.1490,-66.3237,-20.6954,-2.0929,-379.4234,-46.7779
91.4663,212.3141,-297.3687,-267.9193,-127.1097,-317.0169,-135.9311,-90.3788,-33.9004,7.4528,136.2692,46.2029,42.9429,-163.5234,4.3292,-8.5069,20.1321,-340.6954,-189.7387
111.2689,227.6488,-229.5392,-202.3288,-49.0167,-287.4102,-130.8742,-183.4709,-41.0396,-54.4083,144.5225,102.9448,114.8362,-115.8668,71.4815,10.3109,37.2303,-292.2705,-326.0890
132.4530,249.8041,-185.5600,-101.6057,27.2503,-227.2266,-115.8748,-255.2668,10.0246,-22.6024,166.0757,167.5766,145.5303,-32.7411,170.4913,68.7057,53.5916,-241.9286,-414.5392
166.5845,271.0913,-96.1203,-15.3181,90.0008,-131.0927,-104.4565,-271.9947,89.9330,31.7422,191.4767,192.6381,205.3791,6.7090,240.0295,104.7372,95.8935,-145.0548,-430.7241
185.7890,280.5857,7.0510,58.0657,135.3989,-33.0769,-64.2711,-247.7730,111.7903,-11.7158,199.4148,210.7419,293.1068,35.8393,263.4202,103.7731,129.6661,-4.5898,-414.7224
161.1892,254.7099,54.3134,180.8621,162.4952,41.6429,9.7606,-225.6427,99.4399,-94.5996,177.0028,246.1998,332.7351,117.0698,280.2876,109.0794,117.9563,116.3536,-387.3269
131.2629,198.4411,118.9727,277.4311,164.9040,139.5447,41.3124,-202.3902,111.8358,-131.8345,136.1453,217.4988,322.9518,192.6927,268.3963,85.2822,118.3546,192.5694,-327.5637
101.8328,170.0565,226.2493,272.6302,150.6268,278.3852,34.5781,-137.1439,154.1335,-130.1274,63.6687,182.3218,329.4742,253.0719,237.7306,37.4046,158.9339,258.2970,-220.1711
-0.2814,139.5397,273.9629,292.2237,145.1005,368.3183,112.3785,-31.9862,203.5339,-117.7602,-81.7762,274.6989,376.7146,360.4835,240.2145,39.6716,152.7081,327.9746,-57.1563
-167.8043,-69.8655,286.8704,352.1723,160.5545,365.4508,266.4615,58.5631,199.0552,-155.6272,-253.1343,263.7338,410.7490,445.6317,192.9771,-11.8938,39.7904,350.3289,156.2245
-290.8557,-493.5697,346.1725,236.9852,200.2801,336.0702,328.4335,110.7897,105.5533,-238.0257,-324.9720,-137.3863,332.1318,403.6213,15.7614,-237.7201,-139.3429,272.0705,374.5384
-319.8743,-828.7742,349.0442,-37.3198,247.7967,255.2505,236.9387,127.9958,-6.1322,-211.3735,-273.8472,-600.8047,120.1652,258.5618,-172.0200,-435.4893,-300.8194,128.9050,498.2492
-272.7078,-792.0249,228.1416,-199.3785,241.8670,20.7453,64.1667,51.2205,-81.7458,-74.0525,-191.6737,-642.4438,-102.8734,41.0166,-279.3419,-417.4680,-340.5416,3.6800,406.7075
-161.4704,-518.2607,139.2120,-215.1329,181.9702,-253.7512,-152.0046,-163.3352,-160.4833,-56.6788,-130.4905,-413.8138,-257.9571,-216.9817,-357.9342,-351.4412,-226.9097,-91.8473,99.6264
-49.0090,-326.4517,155.0079,-219.2347,170.8727,-328.7971,-371.0424,-392.6057,-253.8829,-184.9332,-96.7184,-285.7984,-416.3322,-379.2578,-384.9782,-350.6657,-95.0643,-184.0107,-228.7757
-32.9635,-263.2806,139.4665,-161.6832,181.8120,-224.2066,-471.1421,-436.2680,-308.2809,-214.2882,-126.9187,-209.6454,-580.2179,-380.0868,-316.5845,-249.3843,-70.5937,-213.7969,-362.1538
-111.6746,-169.9976,44.6480,25.5125,17.4504,-112.3485,-353.4908,-208.3932,-257.7568,-36.3088,-228.1300,-47.6774,-615.9812,-288.4874,-233.1153,11.4516,-86.3504,-85.7345,-218.1167
-204.0825,-25.8084,-45.9498,263.9347,-316.8992,9.3425,-66.3006,192.0820,-70.3390,234.8501,-328.6836,102.5942,-517.9645,-99.4560,-156.5449,289.0420,-54.0218,152.7376,135.3098
-251.4950,91.4585,-151.7535,468.6643,-538.3451,135.6890,190.1127,488.8035,149.8008,433.3704,-347.1581,207.9974,-439.1944,165.4217,-19.2227,480.9886,-21.0371,290.3927,435.5471
-191.9117,260.1671,-333.2853,491.2624,-517.9246,94.9183,224.9618,472.6646,242.1177,455.4219,-232.2993,372.4876,-438.0818,291.9669,134.8723,552.2994,5.4019,190.3433,411.4895
13.7354,606.1591,-496.2268,166.0721,-440.2500,-90.2810,79.9021,341.7687,234.5052,385.0240,11.1670,559.1424,-460.9342,201.2229,225.3308,531.8057,127.4624,-1.6924,185.4462
255.5033,981.9652,-529.6031,-320.0849,-472.0993,-172.9664,-41.9923,412.8043,222.2212,356.6841,268.7602,602.7108,-469.6509,84.7986,247.1748,508.6021,311.3957,-51.4486,91.5715
363.0472,1059.7999,-495.6075,-567.4725,-532.9167,-156.1750,-82.1767,551.6838,104.8247,278.1652,409.6084,433.9597,-405.4055,-3.6441,168.8765,461.5501,348.0840,3.7027,95.9831
323.8630,770.7305,-501.4592,-530.6872,-451.6157,-220.7496,-140.0142,470.4883,-182.3026,47.2358,439.2571,136.9023,-224.8389,-166.0497,14.4627,317.9872,163.1656,-60.1755,-34.3109
238.3947,391.5876,-537.9288,-441.5793,-245.0764,-277.0274,-222.7073,312.7213,-427.9111,-176.8013,416.6314,-126.3772,-25.4283,-288.0584,-53.5293,169.1519,-65.6203,-271.1047,-185.6624
136.5318,156.7726,-540.6089,-358.7939,-114.5904,-156.5551,-212.9592,311.3088,-430.1477,-239.7981,311.0116,-223.6994,78.3285,-198.7510,14.5255,109.0055,-162.2231,-451.9529,-114.4258
8.5575,32.0753,-463.7249,-230.4643,-125.4837,24.8422,-74.1976,311.7166,-236.9087,-172.8449,109.2441,-160.0363,109.7070,-8.5776,84.0196,59.4240,-136.2983,-496.8925,85.7138
-95.3405,-96.7159,-275.5661,-108.5993,-112.9027,117.6990,59.6565,148.2821,-9.3038,-36.9139,-79.5210,-85.1879,119.6187,101.8813,94.8347,-26.8323,-86.9212,-417.1786,173.3609
-134.6008,-243.5497,-7.6663,-38.3620,6.9616,176.4783,57.0723,-40.5607,124.3184,74.8765,-169.7783,-133.7722,122.4883,131.8654,80.9269,-101.8736,-66.6596,-249.8283,116.4237
-142.2594,-367.7557,229.4356,20.7079,133.6196,236.6733,-13.6617,-153.0511,130.1000,72.9484,-199.5693,-242.5689,164.0334,125.6827,28.8007,-173.1173,-70.4675,-68.4509,27.1160
-151.3559,-452.0061,359.6133,94.8536,219.2411,232.8091,10.3349,-252.0883,83.6157,34.4765,-213.0520,-254.2010,263.3299,78.6998,-47.0988,-240.9296,-86.6926,58.5267,-22.1617
-149.8005,-501.6772,405.3955,159.0438,296.1698,170.6555,132.6984,-317.3293,62.7615,33.4018,-192.2677,-191.2308,379.8405,0.5088,-79.5392,-263.3329,-113.3274,154.1487,-17.4237
-129.1741,-522.0267,417.1598,176.8274,339.4064,108.9122,237.5969,-299.3820,92.3565,6.7082,-136.5311,-185.7967,497.9671,-79.4461,-73.9422,-286.0153,-131.3319,248.9688,35.8819
-109.7222,-519.1175,413.8574,139.6402,338.5333,56.6871,303.5406,-278.4980,184.8955,9.9779,-91.2237,-207.7815,588.0511,-111.5293,-62.2791,-341.1462,-119.7927,281.2916,115.4390
-92.3284,-492.6295,406.3466,78.4939,373.0011,10.4102,369.2313,-310.2748,298.7186,165.0315,-61.8507,-145.7596,577.5040,-59.7065,-19.8535,-336.5642,-90.0787,222.9396,175.9099
-29.7933,-406.7283,421.7662,24.5997,490.8958,-34.6065,395.5566,-346.2363,386.3658,333.3990,12.7214,-14.7892,475.2599,-9.2325,55.1815,-270.2898,-37.1223,193.3111,190.5569
87.7045,-241.6371,452.8456,9.9140,607.1635,-88.0935,335.3487,-359.2569,526.9142,300.5923,133.5022,100.3840,349.0574,-76.7823,149.8604,-258.6216,68.2210,287.9391,188.1414
177.4584,-68.3343,427.0870,97.7025,572.1900,-96.4445,229.8334,-307.8741,705.8447,109.7905,203.9484,136.4364,217.6910,-179.3078,264.4505,-261.6365,180.5666,407.5959,193.0324
205.3340,57.9188,328.5065,272.2480,371.3468,-15.4780,143.5346,-118.7529,623.7566,-53.0668,219.8479,93.0642,119.9364,-136.8060,271.6461,-156.4851,227.4389,415.7678,189.5610
245.8480,182.5911,260.5509,350.2300,187.2157,49.7128,93.3481,123.9530,179.8295,-73.3058,283.5968,76.2440,84.8838,12.8386,27.9482,-22.1998,242.6597,337.4459,191.5330
299.9087,304.1490,257.3636,217.3487,128.0990,-3.0361,43.3532,240.4209,-241.7316,25.2758,360.3018,138.5034,2.4830,83.1917,-305.5119,10.2734,269.3002,258.0448,217.3365
304.6080,369.8631,213.7026,60.7406,103.0951,-85.4308,-76.6545,234.5639,-404.9317,149.3347,361.6203,184.3084,-196.6619,64.0153,-466.9896,31.2644,265.3198,170.8480,194.8825
325.7548,439.1942,100.9240,99.0152,99.9364,-103.4273,-265.3659,212.3179,-499.9359,311.1766,399.9349,207.1324,-375.2995,85.0285,-481.3288,167.1851,239.5202,44.4495,76.0488
419.0773,555.7124,8.0971,234.4078,179.3610,-106.6673,-381.4766,165.8353,-564.2290,487.0339,541.8719,294.0000,-423.7466,146.6347,-456.0497,301.9718,260.5015,-74.9978,-31.4736
482.6736,641.9164,-21.3432,289.2369,193.4907,-99.9538,-341.1428,77.1037,-489.9093,419.8997,610.2626,380.7051,-389.5538,160.9384,-397.6962,258.6260,329.1130,-99.4192,-63.7819
499.7345,718.3864,11.1905,340.9383,29.8931,-24.6667,-290.7655,-7.5210,-498.7506,83.7082,568.6229,400.5278,-322.0509,131.8673,-423.0698,121.3357,419.7567,-4.2927,-153.6481
544.4852,830.0281,67.7173,475.0926,-119.3542,49.0826,-372.1029,-76.0020,-720.2369,-121.3922,565.8683,422.3688,-269.6441,85.9731,-578.8623,97.4130,490.9784,109.1853,-352.3971
518.9337,826.8589,32.5764,545.6626,-176.0701,49.5849,-489.4682,-100.5982,-813.4943,-113.5700,524.6247,396.9428,-293.4520,11.3440,-616.4250,165.2675,449.9399,115.6905,-477.6565
355.1688,653.3074,-102.3537,445.8482,-297.0843,46.0423,-506.8452,-41.2793,-645.5633,-168.0254,340.7800,227.0548,-319.1958,-44.3853,-458.2124,169.7365,309.3329,33.5455,-441.8219
196.9363,425.9347,-193.7073,214.6304,-378.1994,2.6522,-426.0299,3.9608,-464.2497,-146.2764,198.9808,4.7645,-236.3198,-65.4413,-316.7089,124.2874,143.8954,-38.3316,-370.6445
47.4375,57.5129,-255.0919,-135.6093,-228.2922,-206.8165,-272.0122,-47.3984,-255.1560,111.8671,143.9463,-240.1711,-117.9574,-198.0875,-166.0766,91.7836,-133.2947,-96.4109,-292.5591
-190.2655,-450.9209,-398.7655,-474.2655,-102.3253,-427.5559,-93.7722,-76.1265,42.3010,188.2711,-24.1488,-554.9232,-67.2909,-511.2209,60.5854,3.4425,-490.8293,-174.1068,-135.5367
-329.6365,-686.2487,-492.7156,-559.6793,-234.5488,-432.2874,-12.6378,-42.6683,134.4083,-19.0194,-209.7062,-730.3073,-35.5476,-813.4421,73.0247,-143.2767,-601.7910,-230.3033,9.6828
-264.5367,-607.6178,-400.5727,-503.1675,-317.6674,-388.9406,2.2823,-86.6216,46.0379,-1.3667,-198.1951,-665.6198,22.6044,-906.6913,-134.9736,-240.9943,-468.8456,-235.3268,64.1203
-301.8051,-738.0309,-315.1301,-606.9236,-142.4638,-493.1991,161.7525,-144.4808,244.8798,181.0535,-178.8870,-677.7583,72.9217,-755.6512,-56.6517,-300.8833,-517.0568,-210.2181,186.2659
-542.7562,-1050.0511,-368.7068,-708.9229,-31.3693,-499.1824,474.5472,-13.8452,677.8885,47.1292,-353.9486,-803.5931,124.9821,-408.8403,354.5407,-349.5241,-728.3781,-138.7676,447.0585
-660.0764,-1012.3172,-330.1214,-503.3067,-137.5162,-216.3965,697.6771,184.8910,837.2852,-137.3825,-537.5200,-652.2422,218.7311,-41.5307,551.5589,-291.9958,-673.1373,-2.3690,639.8580
-559.1641,-730.7841,-66.2660,-221.8907,-127.1488,81.3051,733.8481,210.4523,725.3960,42.3347,-560.9894,-274.7991,353.4761,166.5588,420.3584,-179.1728,-394.5570,120.0963,671.8848
-451.3441,-644.1517,176.8067,-170.7843,138.1919,184.0053,716.4451,187.7077,716.5892,260.8880,-464.8226,-119.5147,487.6078,342.4104,371.6097,-176.4204,-252.1558,138.2691,725.7146
-364.7661,-650.6807,216.3308,-132.6315,359.3314,253.9137,726.5197,324.9016,848.8036,264.4302,-278.9413,-211.0352,520.4448,618.9942,517.8126,-197.7372,-228.2403,116.6541,886.1285
-229.4044,-550.7877,231.5531,118.2111,382.8727,408.7111,707.3102,470.4116,934.2259,276.5999,-103.1014,-253.2879,393.7845,680.2618,594.5894,-111.8636,-130.3781,216.1047,1005.6868
-102.0685,-433.1287,418.3220,373.7353,380.6265,555.6740,594.9201,402.6645,891.3551,289.7990,-94.6530,-132.4992,220.9142,304.8428,462.3370,-66.9396,47.8067,427.7490,971.1895
2.9010,-256.1587,658.3860,470.3347,396.1008,613.7193,373.5713,177.4445,684.5920,185.7482,-172.6074,105.9055,95.4903,-80.4328,189.4904,-136.4547,265.7005,540.9495,768.2614
99.8938,18.6087,736.8321,565.0374,270.5188,548.2834,62.1616,-59.5866,306.4235,124.6903,-175.1873,299.9292,-68.6594,-95.5598,-125.9153,-124.4055,435.1807,477.9674,371.3262
101.8657,164.2682,640.3301,717.1619,29.0975,354.0610,-271.3273,-220.2342,-120.8633,132.3224,-178.4826,285.0847,-291.8749,16.9145,-373.1881,37.2572,411.1246,362.3996,-121.6631
10.1238,168.3344,412.1737,701.3606,-138.5910,106.0749,-486.9971,-212.0361,-361.1406,159.6334,-245.5443,218.2891,-438.3447,16.3818,-426.4178,220.7037,260.0285,163.7592,-393.8647
-36.6065,270.4084,30.5211,397.0216,-216.3026,-137.5780,-439.7475,-69.3380,-264.0960,409.7108,-222.4742,332.1741,-472.7636,51.9248,-288.9952,352.1367,173.3782,-219.6234,-261.1144
4.1700,426.1245,-304.1823,41.6616,-268.8526,-355.3258,-176.7983,6.4745,-53.9166,732.9291,-58.4430,499.8962,-443.5689,176.4602,-170.8874,370.7044,161.6552,-509.3180,0.4308
97.8733,505.0107,-238.5554,-96.2483,-216.3809,-438.5757,12.3435,-33.8172,-154.6879,584.5388,96.9860,557.1230,-314.9385,225.4780,-236.1294,265.7523,196.8804,-366.3924,-21.4193
241.7507,621.2102,88.5229,-118.0097,-60.2387,-350.6396,-60.2140,-18.3393,-514.3729,116.0594,194.7322,570.0739,-130.8143,165.4657,-346.6175,206.1806,307.4447,-59.9775,-289.8373
340.0691,719.3399,73.5121,-311.5004,-7.8759,-324.8439,-201.2648,85.4399,-605.1052,34.0210,302.4714,497.3158,-55.3243,40.4051,-295.6751,243.6134,329.5193,-103.8902,-379.8750
261.7007,533.0638,-434.1834,-680.9337,-101.7106,-542.9126,-145.2134,115.1362,-286.3758,336.8959,397.5368,230.1835,-62.0466,-174.0678,-137.1796,171.6516,71.8295,-465.3302,-130.9323
95.9979,138.6411,-890.4835,-959.2496,-123.9047,-801.6501,28.4529,35.5970,-1.8342,431.5322,431.0451,-103.8843,34.7729,-406.3004,-37.5990,-60.4274,-291.6575,-718.4843,131.1922
34.5240,-178.7564,-892.6401,-999.2662,-6.3809,-826.9182,70.3376,-54.3489,-11.1237,155.6663,448.6472,-410.0919,209.8842,-546.5635,-34.7114,-288.2428,-476.1476,-671.3181,124.3241
63.3672,-419.6710,-650.2073,-873.8161,80.5455,-664.1458,-30.6076,-147.1211,-88.8763,-189.6974,472.4472,-776.3632,261.7655,-655.4078,-82.7313,-474.7260,-509.2037,-470.6116,-14.3089
42.2385,-662.9597,-511.9054,-670.9857,51.9984,-496.0194,-101.6261,-239.4870,-19.1200,-356.8570,430.5012,-1100.7675,145.0629,-764.7833,-104.1564,-607.6401,-542.2868,-329.9637,-38.9894
-45.5439,-782.6331,-493.4569,-417.2635,-24.9683,-355.4198,-96.9823,-227.0730,112.7472,-304.2850,295.1050,-1156.7750,-0.5069,-727.7306,-44.2789,-552.3461,-559.5054,-292.6300,38.9436
-107.8473,-703.8234,-389.7562,-154.2417,-85.4444,-210.7373,-110.0207,-125.5758,127.0661,-163.1635,144.8101,-986.8443,-52.9347,-528.3967,-9.6578,-349.7617,-485.9869,-207.8424,54.1936
-94.2796,-527.3547,-107.6071,60.8093,-81.2349,-82.8206,-175.2055,-107.8867,-9.3046,-85.5117,42.8039,-743.0901,-12.8417,-352.9395,-127.8268,-216.6875,-323.0264,6.7390,-51.5463
-46.2020,-338.5411,211.2120,215.2113,-10.8662,20.5858,-223.5319,-203.2518,-152.3372,-71.9805,-38.1764,-439.8172,27.5598,-245.1767,-284.0007,-183.5443,-121.8308,206.3221,-179.6410
-36.8743,-179.5411,360.1172,328.9011,24.6060,105.6614,-185.2681,-283.6456,-147.1860,-69.6212,-133.5425,-128.8360,5.7064,-102.7409,-295.0790,-153.1061,36.9702,260.1034,-214.7916
-66.5928,-78.4724,326.2944,415.4626,-22.8622,156.5620,-68.2269,-320.9771,-18.1466,-83.1511,-206.6578,87.8016,-33.7185,56.9189,-193.1982,-126.7548,110.0549,245.3066,-172.0279
-61.9153,19.3506,301.3993,493.2271,-53.6057,200.5682,43.3888,-359.7844,98.2543,-111.6107,-217.1135,248.9427,-40.3246,168.0644,-93.4550,-105.6125,169.0724,293.1142,-157.7466
-6.7384,164.0359,412.5866,575.9786,-20.8307,288.1445,71.0655,-373.6235,182.2672,-160.4774,-212.1135,409.8381,-51.0732,252.2659,-6.9956,-61.8199,293.2350,423.4629,-194.6597
41.2126,291.0442,573.9818,644.8419,6.5949,402.1996,26.9176,-336.0891,300.0994,-253.1469,-243.0779,504.3698,-95.4677,305.3641,86.9854,-33.2766,437.0697,567.3116,-209.7088
69.7624,349.4581,654.4922,701.2288,29.8179,506.2621,-27.4683,-265.5496,380.0843,-355.4727,-263.1539,520.5912,-133.5530,304.9883,174.7742,-9.9758,513.8318,644.8486,-194.4691
95.2909,380.2708,632.8571,779.3746,87.3209,571.9778,-75.7168,-178.3346,300.9774,-418.2146,-235.8300,545.1109,-155.5840,318.5044,228.5943,77.8430,511.8158,622.8613,-212.3550
79.6075,387.4153,523.5821,821.7559,101.1984,524.6478,-124.0408,-124.0804,174.3677,-432.2599,-218.7754,563.6660,-195.4992,374.0882,232.4519,163.0725,451.2628,518.0468,-254.0347
15.1465,319.8300,318.7330,704.7416,22.4856,365.9650,-138.4971,-144.9055,204.9239,-402.3031,-216.2078,465.6115,-215.4401,372.8897,236.6195,123.0392,332.1148,366.4037,-245.5954
-19.1860,194.9228,61.0178,455.3518,-40.4950,245.6585,-90.2692,-170.6243,330.5203,-374.1445,-140.1144,252.6909,-144.7143,263.6656,306.0786,8.3049,175.5788,207.7077,-177.4571
8.5341,97.6810,-155.6574,222.2644,-38.4364,212.6517,-23.8656,-127.3567,336.1761,-351.4619,-0.4120,59.4888,-38.4222,120.2830,367.8789,-46.3552,41.8522,58.2179,-108.1359
38.9462,74.1915,-276.4061,29.1136,-73.5843,140.2234,-6.2226,-47.1948,192.8842,-182.8364,93.4875,-35.7311,-17.8106,26.1092,285.0152,-2.4969,-30.5066,-91.3597,-66.5976
41.2539,92.6391,-311.4227,-193.2066,-162.1129,-10.1461,-36.3436,42.0835,5.9204,166.7177,122.9390,-80.7139,-74.2234,1.7752,84.6857,95.3695,-65.2549,-225.7938,-34.3251
36.8120,95.4611,-306.5938,-390.0259,-181.7726,-153.1450,-72.6731,140.1168,-171.8978,438.4665,143.0803,-113.0416,-107.6318,-1.4056,-82.2413,181.2006,-103.9407,-317.5561,-5.4650
30.8564,66.3916,-308.1198,-447.0016,-105.1134,-250.9557,-112.4390,199.2168,-307.1610,493.6413,157.7932,-112.7052,-97.4852,-42.1912,-158.5529,219.6344,-151.1500,-372.7893,3.8451
13.9921,23.1979,-319.8261,-393.3485,-41.6143,-290.5265,-156.4019,219.2739,-373.7011,482.6846,153.0831,-114.2197,-74.3866,-90.3439,-191.2550,234.5092,-194.8130,-387.4202,5.9196
-17.4985,-35.3507,-314.8312,-349.2501,-36.0623,-258.5904,-153.7256,277.2780,-399.6414,452.3881,136.6016,-172.0752,-27.6709,-86.8476,-197.1018,242.3382,-243.6877,-329.7517,36.7204
-61.6635,-110.9700,-286.9138,-353.7981,-15.6555,-207.9671,-83.3903,359.3963,-390.3634,332.6537,105.6371,-232.3326,39.1319,-61.1624,-149.3635,225.8006,-298.7736,-218.7117,92.7008
-93.8760,-172.5395,-237.4526,-370.6862,55.1626,-169.7611,2.2619,372.3403,-312.7694,217.2314,72.6435,-232.2936,97.4268,-52.4254,-66.2338,181.4783,-325.4073,-113.2359,140.0652
-93.2770,-206.5821,-154.2421,-373.2758,120.9314,-98.2721,89.7922,319.0717,-193.6194,192.6799,65.6963,-214.1845,176.7423,-34.2412,-10.9582,109.0285,-303.4099,-15.4234,186.9812
-86.8964,-233.4392,-61.5992,-347.5547,149.5367,-4.3726,210.2474,277.6602,-77.6636,197.8264,65.8949,-198.9960,298.2165,-2.5047,12.2330,29.4782,-265.6654,96.4018,264.7587
-102.4612,-250.6134,-17.3054,-297.6303,165.7275,41.1165,316.0271,268.1565,46.9572,222.2645,39.6260,-150.5890,381.2813,17.4835,62.2323,3.8707,-243.3375,169.0795,347.4614
-123.0339,-250.6364,-18.5699,-262.4196,173.4591,39.6601,349.3384,248.4108,174.5315,236.2909,-0.5576,-101.1294,377.9398,38.3350,136.5150,-0.2062,-221.2070,155.3203,387.1199
-133.6591,-261.1052,-7.9443,-244.0313,160.9976,42.0213,362.5551,190.3033,260.3610,99.6518,-36.7026,-96.9613,356.3150,51.9889,169.1165,-95.2692,-184.6631,133.4066,397.9312
-137.8064,-289.4580,13.0161,-188.7761,139.8036,53.5834,384.9152,116.1895,287.8953,-145.5782,-65.1533,-110.9666,338.0435,10.9835,149.4239,-239.8697,-153.1030,161.5308,402.6214
-132.1781,-308.6647,-6.5485,-113.3889,112.1099,48.6502,362.6688,53.1523,275.5424,-297.6363,-75.9690,-129.3970,276.0753,-51.1347,127.3629,-310.2914,-137.3331,132.5528,374.4013
-129.0406,-312.0567,-42.1747,-87.3633,82.0148,30.2747,339.6973,-19.6785,292.8346,-359.7578,-97.4104,-128.2393,216.9085,-42.2867,150.3258,-344.5978,-106.6173,-9.8338,326.4127
-144.4344,-285.2908,3.2133,-50.9859,84.7601,35.9421,406.3047,-130.3128,425.6476,-432.7958,-187.2274,4.6099,228.6552,19.6004,226.1344,-412.8141,-7.6987,-121.0649,324.5697
-165.3674,-220.1668,165.6526,96.9682,135.0123,71.2506,504.5665,-271.2809,616.6979,-468.5790,-334.8165,282.5750,268.3428,44.9129,276.8431,-475.2053,156.2305,-94.1598,362.9947
-205.0702,-223.0647,364.9308,248.6672,222.5630,79.2460,559.3165,-410.2143,694.7300,-424.5359,-465.9730,491.7222,307.3494,42.4866,219.8600,-521.1620,245.5207,28.7660,378.1037
-256.4131,-362.7966,485.4989,234.0584,307.6487,15.3330,535.2269,-473.3735,575.9638,-326.6268,-496.7658,414.1378,313.5588,17.3972,86.4329,-530.9673,151.7510,158.4029,320.4645
-153.8052,-415.9853,492.2098,135.1231,231.5853,-121.9670,240.4545,-411.7740,245.9919,-183.4239,-331.7129,42.8304,84.5091,-190.9493,-133.3412,-416.2322,76.8974,105.6838,105.6962
196.2783,-167.6725,462.9661,137.2177,-104.4428,-303.6582,-378.2199,-326.7420,-256.8391,-91.8258,2.0903,-404.7521,-426.3432,-619.3754,-532.7507,-256.7716,278.6947,-228.7373,-274.3889
489.9643,144.9355,478.3051,215.4709,-427.8472,-406.8257,-853.1534,-336.5884,-676.0162,-143.8414,229.0205,-604.8528,-782.5358,-901.9164,-924.7771,-220.0158,549.4217,-484.0381,-589.7531
411.3594,204.4853,493.7773,247.5166,-405.0854,-309.3910,-826.8950,-377.1806,-735.7373,-193.2295,141.9583,-429.3974,-651.0306,-724.9818,-912.7559,-191.1403,507.2808,-309.8386,-672.2169
177.6810,190.1315,384.2248,243.9543,-182.8754,-132.3167,-652.8361,-364.5214,-536.4941,-106.6083,-42.1318,-91.4718,-358.1284,-297.3736,-512.1182,10.9733,281.7703,-58.1065,-705.6792
165.8125,429.5964,113.8919,269.6990,-110.5387,-87.9115,-680.9592,-362.9465,-347.0223,-39.7231,-3.0782,197.3853,-313.0450,60.2717,-101.0928,254.8418,253.7562,-184.3873,-861.6678
316.0008,819.7350,-183.1733,329.5592,-183.8745,-117.5853,-693.0747,-405.9570,-228.6533,-146.2093,192.9939,468.9257,-418.1055,352.8356,177.2990,376.8485,399.7076,-440.2135,-1015.5699
396.7779,1070.3799,-308.5773,401.1562,-217.0684,-56.0749,-546.3609,-418.6410,-182.5621,-336.9583,295.3353,729.1782,-452.3183,592.6927,349.0143,424.5364,500.4204,-436.1069,-1058.1173
420.0386,1123.4048,-209.7631,412.2528,-204.9904,18.1476,-449.7965,-379.8708,-255.0768,-453.6513,292.4442,820.9488,-436.2812,615.4794,302.6702,402.0196,556.3005,-292.3015,-1017.1172
446.2537,1021.0421,-39.5218,274.7664,-204.7297,-22.8687,-402.5630,-310.1617,-360.9084,-415.1378,311.1266,677.0263,-402.8976,420.7079,47.5315,258.6828,577.7820,-193.3563,-845.5229
429.1393,777.8215,33.1670,72.5834,-202.0432,-84.1077,-247.1662,-179.9998,-388.4890,-228.6467,371.2995,394.4899,-322.4490,188.2695,-169.3291,124.7810,466.0099,-72.6229,-542.1622
377.0867,504.8734,-52.0212,-24.6266,-211.8671,-86.9457,-121.4085,-7.6875,-366.2458,22.6435,442.8727,72.8414,-253.3866,-10.1774,-222.2687,139.9261,250.3542,19.6230,-290.8058
304.4711,293.8141,-280.8389,-55.3215,-239.9842,-126.6240,-155.7128,130.4355,-292.9031,259.3820,494.0577,-214.4763,-212.8661,-143.9746,-175.4508,208.8118,21.9330,-54.3626,-145.9371
137.4263,59.2685,-526.3756,-147.2303,-208.4369,-195.3080,-156.6794,243.3542,-118.4993,431.7502,437.4113,-399.0355,-94.1974,-137.7053,-76.6457,192.4933,-229.6986,-166.1404,67.0503
-101.1378,-242.0444,-601.0327,-238.5067,-90.4042,-144.1615,-4.9685,380.7992,92.1101,512.3784,244.3719,-473.4407,102.5586,-56.4083,41.0428,120.8535,-456.8157,-138.4756,394.7088
-277.7587,-482.3372,-523.6534,-247.3096,26.6046,11.9043,161.4021,511.9554,288.9944,576.5789,32.1699,-480.4145,239.9934,-27.4604,157.3096,91.9043,-558.7029,-58.7790,693.1278
-375.4359,-590.7415,-479.0186,-251.4887,85.3294,118.9914,261.5296,589.6254,494.6642,702.3221,-105.3249,-449.0852,284.5012,-5.2629,296.4135,130.6997,-589.8331,-28.9522,870.5466
-444.8618,-614.7997,-447.7615,-270.2603,129.6822,164.9852,315.2791,603.3575,591.3571,767.9301,-193.8109,-376.3249,330.9989,83.0480,400.8694,186.5854,-620.7572,36.6243,889.3232
-454.8508,-565.9803,-270.3877,-213.0544,214.8433,240.6283,301.7452,543.0898,459.9299,652.9365,-264.3548,-237.8472,432.7826,178.1418,376.5272,209.1801,-575.9449,177.0031,733.8968
-407.6120,-450.8660,-13.9781,-108.9973,321.4116,333.1785,247.0669,438.5655,259.3850,488.6369,-319.2316,-36.7177,541.9128,244.8526,293.4761,210.5653,-441.1114,290.7688,523.1951
-365.6590,-322.0168,145.8384,-44.7545,373.7963,368.5330,233.6618,349.5248,173.7397,393.8596,-363.2693,168.3011,557.7271,305.2036,263.1688,222.0678,-309.0766,335.6291,389.8108
-297.3637,-177.0990,218.7995,23.0070,339.9471,351.3613,252.1402,262.7054,135.9245,273.0553,-353.4411,323.4289,433.8771,324.9983,248.6936,229.9724,-178.4559,370.6099,280.9756
-150.4478,4.1068,274.8985,140.1156,271.5301,338.5875,235.3424,140.5151,47.2926,83.1935,-238.1346,409.4359,259.5728,284.0666,193.9847,211.6571,-21.3585,428.5078,112.5889
16.7200,163.5675,314.2252,246.6331,217.4825,334.5689,166.2832,8.9138,-61.8254,-85.5266,-67.9476,414.2377,137.0578,216.2589,103.8179,159.6909,109.2821,490.5992,-65.4506
158.4847,271.8503,372.6761,302.7953,172.0991,285.7023,57.6337,-122.9765,-165.3995,-231.6956,75.5013,362.7273,34.6451,123.2014,-36.1144,57.0172,222.2628,522.6405,-214.3031
293.4279,366.1825,467.3816,318.4419,129.9574,177.6333,-63.4235,-266.6405,-275.1482,-397.9171,187.7250,307.5016,-99.3693,21.7325,-199.7638,-72.4182,357.9142,495.8683,-367.2462
386.9262,418.9183,521.6116,302.1088,107.5988,76.0396,-160.8241,-355.4368,-382.0405,-520.6636,272.5212,243.9124,-210.9054,-40.0905,-310.0948,-150.5569,437.4198,437.3797,-493.0680
406.9672,389.8541,524.9893,290.2513,108.5538,28.9755,-240.4537,-343.9347,-467.3086,-554.9678,307.2538,148.6550,-253.4874,-98.3538,-378.3854,-168.5167,419.8643,411.4839,-527.0971
412.8985,346.3976,540.5200,295.6142,119.3129,4.9404,-318.7907,-302.3345,-517.4602,-563.4943,319.9819,57.8191,-259.7929,-181.2508,-450.7641,-194.4744,403.6590,403.7236,-500.7883
434.7908,340.5824,532.2241,261.4761,125.0958,-26.2643,-370.8456,-265.3571,-554.6462,-584.9564,355.3481,-8.5804,-243.0930,-191.7726,-488.5991,-226.8839,409.2617,333.0838,-483.7804
