Fp1,Fp2,F3,F4,C3,C4,P3,P4,O1,O2,F7,F8,T7,T8,P7,P8,Fz,Cz,Pz
54.5855,35.4541,32.6340,54.2929,30.6001,-32.3594,-13.7936,8.1814,-19.6559,-59.2358,31.9349,5.3280,36.2969,7.7263,-13.6763,85.1598,66.2549,10.9183,-47.4050
-74.6232,38.4250,-53.2430,15.4498,-49.0916,90.9218,-14.1432,10.4140,-29.6570,52.5253,-25.3722,24.7744,52.7264,34.7651,-19.1619,-115.7322,-32.1309,71.5110,37.9421
-111.8170,2.0984,-70.5837,-39.5231,-70.4791,122.8689,48.1682,21.7211,26.4686,121.9687,-36.4867,36.2527,31.8697,36.5152,26.8774,-205.4265,-91.6606,60.8489,97.4901
-64.6720,6.5216,-22.3478,-44.6866,-39.1961,76.1250,80.2097,58.4719,34.4335,141.4145,10.3599,50.9119,26.3432,37.0726,5.3359,-147.1044,-53.5619,23.6771,116.1831
-42.3374,43.2194,20.9647,-28.3970,-8.4164,57.2131,21.8946,62.8623,-30.5768,145.9250,54.0328,58.9731,46.8384,29.4329,-72.3855,-173.4038,-1.0784,5.1272,117.7655
-57.5019,-4.5117,22.1082,-83.2395,11.7556,26.8972,-15.2933,12.8534,-47.8074,142.6775,50.8856,23.7294,35.1053,-13.2073,-83.3898,-258.3719,-36.4131,-49.2843,94.3373
-68.2684,-83.3398,-4.2848,-150.2332,16.5441,-34.0135,25.2845,-17.9498,-10.5921,153.5210,17.7763,-25.5765,11.7070,-46.1183,-55.3626,-213.7196,-102.7379,-102.3005,61.3193
-83.6612,-38.0059,-20.2298,-102.3115,-7.7890,-0.6736,45.3858,6.5688,-33.4865,180.9249,-14.1658,-21.8441,39.2145,-14.4593,-96.5330,-129.1360,-84.6572,-46.4654,71.4977
-107.9482,52.5882,-8.2658,-12.2534,-33.7273,116.6999,22.9435,24.0594,-102.8502,155.2355,-35.8609,13.7346,65.5289,35.3447,-160.3439,-150.8726,-21.6348,48.5494,107.1302
-113.7886,40.2146,-3.9304,-5.2904,-40.1469,160.9466,16.0581,-0.7498,-113.6346,62.9338,-47.4108,25.0451,28.2245,42.8320,-140.3261,-188.9195,-18.0308,65.7233,99.8126
-104.1962,5.3164,-35.2794,-16.6418,-51.6159,133.3629,-1.7096,-32.6060,-71.6063,3.7096,-55.7161,20.1691,-13.1311,27.9463,-64.9151,-173.3855,-49.2948,53.3290,57.4946
-106.4182,10.2759,-74.0098,-1.0789,-67.9329,118.1428,-27.0333,-53.7982,-37.2500,17.9123,-81.2943,1.7285,-25.6316,9.9949,-20.3762,-162.0254,-69.1592,34.5096,35.3152
-129.6160,-46.6956,-111.1062,-52.7333,-74.4070,82.3823,16.7752,-59.1504,-10.7900,44.1647,-120.9089,-41.7378,-56.9207,-12.7404,-13.7313,-132.7408,-125.9425,-45.0836,37.6522
-155.0219,-126.1065,-156.2673,-133.8823,-88.3688,29.3806,83.6983,-28.1958,12.5569,63.2137,-130.7089,-58.8795,-69.0078,-7.3939,-7.1941,-63.0198,-199.2590,-96.9121,41.0029
-140.7789,-96.0964,-148.8621,-110.2810,-87.9582,35.7175,76.7135,-2.5753,26.8455,86.3867,-98.2774,-32.1220,-7.5856,14.7339,19.1219,-57.3588,-180.1870,-32.4840,33.3079
-85.4810,-36.8437,-70.2103,-42.5312,-43.3032,63.7400,20.1432,-46.7812,49.7189,77.5309,-72.9102,-31.3745,29.1226,-12.8223,67.9661,-136.3645,-101.8720,36.0786,6.8627
-60.7112,-49.3469,-41.2641,-43.1684,-26.2067,52.3013,-55.5730,-107.1368,62.5913,32.8010,-74.3264,-48.2955,-26.6727,-56.2081,110.5847,-180.4576,-91.7349,43.3824,-22.9143
-87.1382,-58.4815,-88.8463,-63.9279,-67.4520,47.0657,-121.5449,-108.0637,27.4218,5.0754,-61.4398,-13.6329,-64.9824,-37.0938,97.5579,-175.3469,-127.3660,51.0216,-29.1980
-90.9511,-50.2631,-76.4837,-72.5650,-61.1802,52.4358,-75.3357,-97.4925,-6.2753,7.7865,-27.1804,23.0006,-32.1522,-9.7081,45.2038,-203.2526,-122.6680,28.9770,-19.2157
-63.1860,-70.9260,-15.4530,-94.3270,-7.6267,31.8652,27.0453,-101.3017,16.9889,29.2682,-12.6553,4.8899,-11.1851,-30.0384,30.3114,-239.2720,-103.2542,-22.1284,-3.3608
-62.0902,-40.9960,-29.0314,-66.8656,-18.1601,37.9330,11.2704,-56.3667,36.8918,63.7374,-17.3782,0.6365,-8.3752,-28.4968,48.1051,-225.8813,-85.9856,10.0176,29.8114
-54.0001,30.5920,-27.4157,6.5180,-23.1006,74.7126,-6.3851,-10.2253,8.9831,55.8628,-13.1556,15.4081,18.3113,-4.2627,17.3531,-211.3731,-24.9059,41.1391,56.3804
-6.9256,-14.3977,75.0501,-11.0088,69.0459,47.9860,129.8838,-64.7582,-5.2763,-11.7318,-26.3350,-41.2787,9.3122,-46.9171,-46.2175,-219.5675,21.9989,-76.2895,36.7734
-22.4463,-124.3518,75.4286,-104.4048,89.4804,-15.1955,165.6115,-129.4349,11.4693,-13.1902,-89.3311,-126.4717,-57.8620,-107.3008,-50.0054,-169.4733,-48.6735,-151.6601,3.3228
-124.3577,-122.2665,-99.4554,-131.8423,-50.6323,-14.7523,-37.6612,-69.6312,21.4380,120.4154,-150.9497,-130.8026,-86.9947,-82.9649,7.1305,-47.9245,-168.5264,-8.9655,18.6692
-165.9378,-78.5808,-183.8730,-117.3961,-137.2317,17.4600,-127.7146,50.5748,61.0600,240.9267,-146.5413,-90.5625,-59.5265,-28.1460,72.7934,37.4510,-199.8556,134.7878,81.3619
-124.4277,-109.3360,-114.8949,-136.5995,-97.3528,37.0416,9.6087,125.0371,134.6458,220.4898,-112.8868,-75.7019,-59.5795,-10.7711,132.7520,36.9639,-164.1289,135.4676,146.3948
-142.4540,-120.6984,-126.8183,-131.8199,-109.7924,83.6329,44.6168,154.8555,125.9787,142.8897,-127.8656,-66.5851,-90.8456,10.3108,138.2260,12.6882,-159.8806,152.1862,179.8775
-217.4529,-76.8696,-213.0021,-96.6363,-174.0802,127.9302,-47.7094,146.7786,27.2144,130.7072,-178.0852,-63.6700,-90.5099,35.4828,52.0282,11.2916,-184.4733,214.7821,175.0744
-224.4276,-86.3071,-181.6422,-117.1833,-145.4970,105.4970,-15.7766,111.4712,-7.7132,178.3384,-193.6290,-96.4617,-57.7245,14.3223,-20.4375,11.4098,-187.2639,214.9687,160.5047
-183.7104,-139.0953,-94.6276,-169.5556,-70.8332,59.5956,69.9716,94.3578,37.8379,205.5199,-173.4129,-136.8927,-37.5004,-32.0407,-2.8075,-32.5363,-175.0077,201.3178,162.6970
-183.5746,-145.9390,-92.0749,-176.3118,-52.6818,40.3668,51.7761,74.9567,24.4412,163.7088,-161.9479,-145.4105,-57.3544,-61.8876,-7.1367,-135.2174,-171.3515,211.9790,164.7285
-199.8375,-115.6597,-119.1514,-155.3808,-64.5648,28.7600,31.3408,18.5099,-55.3663,97.0085,-149.7523,-108.4931,-104.7118,-64.8709,-96.0192,-226.5205,-171.2941,170.8131,152.3604
-199.9006,-82.9082,-133.7352,-142.8120,-91.0744,24.8906,51.5391,-8.9441,-100.2476,90.1660,-113.3418,-31.6841,-127.2980,-26.3200,-162.6758,-217.5117,-177.5479,108.2112,144.1064
-209.5713,-63.8268,-164.4116,-141.3902,-127.9156,35.6918,30.0243,30.8976,-105.0517,135.9865,-88.9007,12.4522,-96.3500,21.6090,-164.4194,-143.9427,-192.0882,95.9352,146.0962
-204.5582,-83.0536,-139.7277,-152.1024,-102.1071,44.6253,21.1693,79.3352,-91.6719,158.4880,-102.1719,-40.1489,-46.0979,14.1895,-145.3904,-100.2521,-172.4970,104.2285,154.4226
-149.0234,-107.4147,-38.8600,-145.1591,-27.7835,63.0348,65.3048,115.1730,-25.0066,146.3973,-112.6765,-110.2039,-12.7904,-19.6136,-72.9564,-79.2456,-103.3614,133.7780,170.9930
-102.4981,-96.2677,-11.0938,-108.0877,-19.9560,86.4991,72.1215,132.4370,63.8809,123.2848,-101.0886,-99.6789,-6.4849,-14.4692,51.5933,-50.1208,-70.8543,185.1290,163.5530
-123.2444,-87.2191,-101.7797,-87.5729,-78.7827,81.7689,51.0153,80.1263,78.8338,73.3705,-106.4536,-50.7766,-29.4416,8.2947,101.3247,-55.1237,-127.1084,172.2989,106.0949
-163.1518,-75.7673,-163.0510,-68.7234,-109.0377,83.5891,66.9767,-9.3631,10.0379,5.0077,-138.5613,-31.7475,-51.6082,15.0867,26.8794,-99.9753,-165.4538,124.9004,52.4660
-157.2413,-15.7527,-120.5920,-3.2961,-83.5607,116.2952,66.2185,-51.8038,-72.2703,-42.2012,-154.3166,-36.8014,-43.5722,9.1507,-76.2644,-140.1220,-99.2672,148.9962,45.2498
-116.8249,17.3272,-49.1778,28.1035,-32.4448,101.2975,20.6194,-75.0986,-119.4797,-72.0987,-129.0414,-50.7969,-44.7158,-22.0209,-131.7472,-178.9645,-27.0334,154.6231,37.7965
-92.0770,-37.1067,-19.6038,-36.5990,-3.0409,40.5686,-24.3934,-110.5272,-129.4056,-96.3884,-85.2175,-52.7150,-84.6730,-53.1563,-134.6531,-204.3424,-43.6889,58.7546,9.5597
-106.6126,-62.2116,-43.5484,-74.0097,-35.2070,50.5133,-79.0385,-103.4916,-143.9719,-108.1508,-62.1163,-16.3290,-111.7467,-25.2099,-125.4762,-177.9590,-77.7307,8.1283,4.4595
-139.2715,-6.7835,-89.9173,-20.8853,-82.3011,109.5663,-124.1655,-83.7754,-199.7158,-137.7319,-72.1526,21.9452,-101.5588,21.4884,-164.8214,-168.1665,-66.1000,45.7414,12.3099
-154.8972,9.0501,-109.6232,-1.7254,-76.7849,101.6709,-100.6372,-130.5677,-255.6696,-191.7995,-78.0914,26.3067,-96.5905,15.7102,-231.8661,-239.9604,-66.2055,17.0560,-12.8327
-147.0689,-30.3662,-95.6789,-51.4686,-55.7665,60.5436,-79.3644,-184.3082,-260.8550,-198.7588,-47.4154,37.4473,-98.9531,-0.1685,-243.9332,-293.8734,-97.1090,-63.0905,-47.3092
-132.9875,-23.3535,-80.1115,-62.1284,-64.0508,64.3289,-123.3057,-171.0446,-240.5576,-145.5592,-14.0592,65.6515,-83.2462,15.0237,-213.2420,-265.3780,-97.8839,-62.0782,-47.3677
-123.0640,12.7446,-81.3875,-27.5652,-70.6178,71.4981,-123.8691,-132.9536,-215.7618,-103.7492,-17.6809,65.9476,-75.2190,19.6960,-196.9517,-234.4623,-73.5148,-28.1919,-19.2213
-117.0576,8.9743,-101.9098,-26.5083,-74.9984,49.1186,-51.5097,-86.2162,-159.9605,-69.8198,-27.9609,57.3789,-92.2848,17.0728,-165.4792,-203.7493,-80.6421,-48.0070,20.8655
-109.0822,-5.5322,-122.6607,-52.5968,-99.7801,35.2867,-37.5641,-6.7890,-95.0649,-0.1513,-6.5649,77.4285,-99.7755,42.2158,-104.3701,-116.7455,-101.3805,-74.3132,62.9244
-95.0003,-0.9980,-107.7999,-63.8172,-106.8070,40.3657,-86.3227,64.5483,-75.8290,57.3458,23.7887,89.0316,-81.9620,63.9757,-77.4042,-42.1708,-86.4117,-67.5545,93.0432
-82.6485,4.9615,-69.7766,-59.7689,-85.9582,55.3166,-83.7276,107.1691,-79.9320,72.2752,31.3686,75.4282,-56.9825,68.4168,-87.5829,-19.0433,-51.2129,-45.2774,119.0807
-73.5863,20.5829,-56.5289,-41.3143,-85.9522,74.5156,-32.5441,150.8801,-47.0905,113.1144,22.9985,74.3376,-34.6008,85.7183,-71.2400,37.3650,-32.7526,-21.4350,148.4613
-56.6884,40.8952,-65.6807,-19.0450,-96.0327,64.3566,4.0581,166.3619,21.9339,189.2009,11.0512,72.5374,-24.0284,86.2986,-18.9541,99.3800,-35.2102,-24.1681,156.5629
-45.9871,26.2744,-76.7101,-25.3777,-83.8907,25.4212,16.4886,133.1155,80.6952,219.7113,-6.1488,39.1753,-33.7238,42.9605,37.3683,64.2129,-56.5019,-43.6594,139.9191
-63.7237,-5.6088,-102.0859,-48.4910,-84.8214,13.4671,0.1126,118.7665,97.9143,197.3634,-24.8338,10.7261,-46.6538,16.1991,75.1587,6.1019,-86.8499,-16.3338,132.2869
-80.7733,-3.2371,-122.1832,-44.4961,-104.9815,35.3370,-21.4171,144.8209,88.3676,183.6148,-31.1843,17.1534,-42.1147,34.5325,81.8694,22.5907,-91.4989,33.8774,141.2444
-66.8512,13.7227,-101.9345,-25.5054,-97.7607,52.7620,5.0138,153.9763,87.0695,174.0466,-18.8874,34.2388,-28.8913,50.7556,75.3947,32.3616,-67.2588,24.0477,146.3588
-60.7605,-0.2702,-86.9609,-32.9599,-84.2960,62.8999,41.6742,133.0795,82.3085,125.7162,-6.2475,47.8800,-31.7379,55.0360,74.4071,-11.8510,-65.5234,-15.7951,136.8291
-89.5325,-20.7890,-122.1932,-46.5725,-106.3255,72.1279,14.5943,106.5807,44.9402,64.8258,-20.5054,53.1896,-50.3311,63.6495,59.0048,-23.5687,-95.5066,-8.4847,110.7865
-105.2124,1.3945,-144.4734,-17.4832,-117.9946,77.2564,-35.5483,86.5037,8.8791,52.5494,-51.7192,31.6990,-47.0240,56.2042,29.4200,-5.1731,-90.1596,25.5039,88.3114
-83.8869,49.0069,-103.9896,33.5872,-82.5355,91.2340,-37.7762,89.0699,2.7686,77.5216,-60.2607,-0.0072,-8.5368,34.3909,7.0060,-36.2536,-30.4357,27.9575,98.6662
-69.5897,63.3213,-65.8726,43.4581,-55.0038,104.1348,-16.1063,100.8823,-12.2681,79.1970,-43.6764,-0.8759,13.7087,34.6738,-22.1659,-67.0048,4.6388,-5.7728,115.5050
-75.0701,35.7257,-79.9130,12.2391,-70.3761,84.7515,-14.3972,82.0095,-29.7212,59.7533,-33.6245,21.6163,-9.1883,49.9462,-39.3393,-20.5978,-26.4148,-40.1640,91.5651
-61.8980,10.0712,-90.8717,-7.9781,-76.4735,46.2808,-22.3591,41.4183,1.0199,55.0444,-28.8977,27.7331,-32.2207,38.4976,1.7129,10.3415,-57.5331,-51.8363,49.8962
-28.5162,7.5242,-56.2380,-1.1501,-35.9162,20.9791,-21.8653,8.9689,32.4850,35.5876,-13.3549,8.3541,-29.6499,-2.1160,41.0275,-67.5492,-35.3014,-60.5506,32.3737
-13.2289,19.8444,-25.2391,22.2301,1.3133,20.1246,-20.4131,-8.2508,11.4816,-8.6109,-14.3599,-17.7495,-20.0196,-28.5675,19.1328,-132.2515,4.2687,-63.7477,26.6813
-20.4826,51.2326,-31.9282,66.0999,-14.4135,56.9382,-30.5336,4.1867,6.0998,-1.2521,-50.4371,-30.5898,1.1339,-12.4041,17.0233,-62.5565,24.1730,-2.9834,23.4170
-20.4311,93.4851,-21.1655,109.6134,-37.4285,109.4017,-49.8250,17.1383,20.2063,39.5699,-69.7945,-16.9312,22.6551,13.9685,38.1326,3.7959,45.6153,93.5591,30.8834
-11.3901,104.5656,30.0700,106.1242,-14.4072,109.2957,-74.0353,-38.4983,-56.4843,-12.2420,-37.7467,13.3964,-6.5371,6.5248,-46.2129,-70.6904,72.5730,105.2277,21.2696
-22.9777,67.3097,33.5270,57.1474,-0.0079,52.2793,-115.6637,-114.2321,-169.4104,-108.7235,-13.6530,25.0961,-72.9697,-15.7438,-167.2298,-127.2550,52.9978,40.5744,-18.8008
-48.3256,23.6032,-44.9515,16.2477,-46.8496,6.2884,-160.3871,-105.3533,-142.7851,-78.9140,-41.9131,6.9374,-104.8811,-15.6306,-128.0068,-14.3831,-18.9599,9.8853,-45.1350
-40.7376,33.1461,-89.9893,30.6542,-87.9478,6.5672,-152.7124,-61.8672,-30.4157,27.0969,-61.7737,7.6931,-84.4827,1.9351,-8.3638,104.8031,-49.9960,17.3674,-41.1367
-7.1938,108.8039,-43.1924,101.9348,-73.6894,53.3493,-102.0157,-71.1322,-23.7248,40.0295,-27.6473,62.3104,-31.7712,32.2952,-14.1651,67.1420,10.4583,33.5290,-37.4260
-10.3044,174.9265,-5.2254,160.4960,-59.3943,121.3478,-89.4436,-85.3684,-100.3317,-6.7533,-1.9430,106.5135,26.8986,65.7660,-91.5864,-27.3062,69.6789,80.8419,-34.5084
-46.3949,143.8811,-25.1702,129.0234,-62.0761,133.0402,-113.8028,-72.7019,-114.1270,-8.0500,-27.8495,69.0214,34.0704,51.6997,-92.7487,-72.1191,44.1171,108.9851,-21.1505
-47.8831,53.6375,-27.9049,43.7719,-37.3369,65.9116,-101.8751,-82.9095,-66.6841,0.9638,-41.3375,9.0500,-8.7688,-4.4555,-46.2314,-94.8427,-8.6216,61.5450,-22.3979
-15.2471,9.4299,4.6138,-4.3876,-7.3018,12.2589,-63.8208,-101.0576,-41.5169,-9.6559,4.6421,23.4528,-11.5825,-14.8502,-25.6000,-98.4536,-21.8196,12.3767,-46.4471
-4.2332,11.7693,14.9083,-20.4819,-15.1559,13.9776,-56.3749,-88.5797,-43.9522,10.2246,59.3444,81.4092,30.8971,27.4436,-23.1135,-71.4988,-28.6886,-1.8000,-61.3751
-11.5266,-0.3797,1.9935,-47.2905,-28.2588,8.8061,-66.5295,-73.8881,-31.5690,58.1375,71.2330,91.6663,37.0626,37.7134,-13.8432,-52.1218,-53.3552,-49.4086,-54.5826
-0.3539,-18.4205,-1.0700,-62.2486,-16.6294,-20.2567,-64.6212,-58.9643,16.8675,104.1423,56.9824,51.8598,21.3789,6.7547,24.0665,-37.2003,-61.0547,-112.4527,-40.4309
25.7949,-17.1912,9.5064,-56.2411,-2.0468,-36.1315,-58.3350,-18.0567,84.6171,157.9403,58.6034,25.5328,38.0989,-9.0598,89.9451,-6.2192,-46.8077,-127.2216,-22.4923
48.9194,-17.3092,35.7757,-64.4238,7.0552,-36.0751,-46.3863,25.4792,124.2406,193.9173,91.2545,41.8147,56.5033,2.4506,130.5009,12.2812,-32.5368,-119.6322,1.3972
55.8960,-25.1620,60.7457,-78.4006,12.5450,-23.7543,-24.2866,65.5927,113.1007,180.0167,121.1809,67.2758,71.8333,30.7680,119.9684,35.9326,-18.4174,-93.4377,20.6331
38.0170,-23.0034,50.3304,-68.5187,6.4945,-0.8880,-5.0099,110.4795,83.8018,161.5048,109.4205,59.7096,127.2157,63.0049,95.0317,95.8194,-9.5833,-27.0796,19.3987
30.7954,1.0187,38.1047,-35.6711,8.1962,4.8337,11.2882,104.0934,67.6340,159.6069,89.3552,45.0976,171.9739,66.9978,73.6070,108.5600,1.4371,4.2348,-1.2779
71.2859,60.1894,69.0790,27.3451,29.4205,-3.0345,24.1232,38.6178,67.4085,128.4155,107.2286,73.8265,132.0137,42.6776,57.7764,24.8968,49.6149,-36.1416,-11.1401
106.8681,127.0379,77.3058,103.8749,28.4764,5.4395,20.9516,8.1187,90.9297,93.3331,110.7126,103.1972,51.8816,22.2867,74.6381,-41.9277,99.4671,-66.8290,13.1972
77.4774,129.6679,6.6435,119.3479,-10.5665,8.9503,12.9229,31.2796,132.0107,118.0711,52.0494,69.7040,8.1626,8.6115,116.9881,-18.9555,68.5608,-71.7925,40.9054
35.1566,67.5503,-48.0987,60.0150,-30.9702,-15.5978,9.5872,37.3314,142.4234,143.2104,12.7463,25.0686,14.0377,-1.0679,133.1518,20.5357,-1.7977,-81.6160,25.9800
44.3566,16.0223,-4.6738,6.7258,1.0890,-38.8064,-5.3020,16.1844,100.3119,85.3002,50.1466,27.2661,43.7448,0.1253,110.4770,16.8368,-6.2402,-44.4995,-18.1762
67.3595,0.9779,56.5771,-2.5495,39.9283,-47.9845,-13.0839,-10.4994,61.1597,12.9403,76.4012,29.1512,48.1024,-10.1713,83.2846,-10.4583,26.2370,34.3517,-42.4952
51.8778,-3.0674,44.2963,1.5285,36.1654,-52.3688,20.2954,-47.3137,67.6356,17.7244,32.0839,3.8244,14.1961,-34.9783,72.1302,-29.9670,9.3422,54.9148,-39.3926
12.8159,-9.4687,-5.5618,-1.2103,8.6546,-38.6869,56.3796,-72.2333,70.6952,38.6308,-16.7394,-11.1394,4.1586,-35.8421,61.6269,-39.6827,-34.1188,23.5641,-39.8460
-15.2553,-24.9197,-18.3788,-15.7065,7.0632,-14.8056,42.7063,-67.9120,22.0453,-2.0350,-20.9351,-17.7787,33.5908,-21.6068,27.1276,-67.0737,-43.0153,18.0664,-49.8280
-15.6201,-31.8990,15.3485,-28.7783,29.6262,-5.4032,2.5569,-59.4892,-32.3520,-39.8802,-2.9764,-24.9012,37.8898,-25.3716,-19.7530,-102.5387,-17.0472,26.7757,-42.4519
3.2345,-4.0368,49.3229,-11.8519,35.5804,3.1586,-18.5633,-52.7362,-37.9475,-14.2624,9.1021,-12.4750,8.9354,-28.4835,-39.5834,-95.8102,15.8853,18.2042,-13.7939
8.3090,17.8831,45.4689,15.3132,27.0915,17.4558,2.1794,-43.8639,-14.0300,3.1567,-8.6271,-12.8893,-11.8588,-28.0993,-27.0563,-78.6363,27.6260,7.6587,8.0332
-3.4367,-1.2891,27.0541,16.4157,31.5988,22.2248,65.1552,-43.0403,12.5180,-22.0046,-44.3191,-43.5005,-15.1636,-40.1460,-4.3512,-99.7168,15.0225,5.4283,14.4378
3.4345,-5.8611,36.8576,12.3000,33.6482,32.4062,109.0732,-27.2471,36.1896,-5.4527,-32.4466,-29.1659,22.5071,-18.6352,17.9516,-72.8087,12.9306,12.9754,11.1206
17.8023,15.6206,48.3773,9.5151,15.5629,42.5814,80.1756,2.2709,25.5634,53.1305,24.8252,32.3597,98.6982,42.7914,14.2129,30.6089,15.6874,6.9783,-16.0988
-6.7519,-0.9944,8.5966,-19.1291,-3.7646,18.6710,50.1465,-12.1568,-23.9877,45.9420,36.7364,46.6893,114.9113,59.5691,-32.4234,51.9879,-21.9093,-41.3255,-51.4644
-51.1591,-30.0178,-57.3923,-37.7929,-22.5306,-3.2329,88.6924,-46.7457,-50.9082,-21.8026,-4.1550,29.7536,44.0746,34.8166,-68.7296,-34.5128,-70.5404,-73.0222,-42.8581
-63.0365,-19.0769,-86.9646,-20.1814,-45.2477,9.1678,108.5092,-33.1158,-44.1586,-54.7412,-16.3481,46.1565,0.1148,41.8719,-60.0710,-55.1385,-74.5674,-45.4547,-14.5348
-43.6059,-22.0970,-63.0237,-30.4042,-34.6683,-7.3125,33.5716,-21.2179,-64.8324,-48.7925,12.1215,44.9083,19.6382,44.7066,-65.3584,1.2003,-57.0707,-49.6670,-37.6901
-14.0220,-44.1914,4.7119,-66.0124,16.8317,-47.3957,-43.2314,-43.6424,-106.1325,-33.3829,42.4877,10.0503,34.9797,8.9834,-109.6597,6.2337,-29.2704,-99.5906,-65.5885
12.5473,-12.0053,74.6765,-46.8335,45.4597,-16.6708,-34.6511,-8.8604,-105.3056,3.3054,64.5656,17.0969,38.9619,9.3324,-128.2520,-14.4548,29.9063,-81.3875,-11.4422
4.4620,18.2771,64.7947,-13.1337,21.9008,41.8407,4.3479,69.4136,-65.5528,28.5620,49.7740,30.4766,36.6115,40.1890,-90.8404,4.5844,51.0252,-35.9218,59.8635
-35.2794,-30.4393,-19.6535,-37.2210,-7.8733,25.7713,8.9075,66.0598,-22.0942,13.3908,-16.8516,-25.7340,0.4512,14.1017,-31.2668,10.3179,-15.0210,-72.5104,51.2964
-44.7317,-59.6690,-52.6073,-48.6682,-8.7882,-3.3090,-4.6009,11.6912,18.3968,19.9834,-64.1571,-78.2376,-20.1247,-32.2307,18.7796,-7.6053,-55.1004,-95.2064,13.8637
-12.5884,-17.2789,3.2005,-11.0011,8.4996,21.0735,-4.9635,15.6974,42.8193,71.4937,-49.2389,-66.4979,22.8331,-25.4256,38.7809,15.8707,-9.0284,-24.2940,16.7117
4.0508,-12.0320,41.5440,-13.8123,19.9132,27.3969,13.5113,49.6755,44.4401,100.3471,-24.8815,-51.5539,63.3048,-2.3495,33.3285,72.4985,13.0463,27.3764,24.8163
-3.8078,-47.6924,28.6623,-53.1469,15.1772,0.8649,36.8584,49.3675,36.4556,84.4710,-9.8124,-38.3340,65.1370,9.0260,25.5460,93.2624,-18.8001,24.5348,9.2118
-1.4693,-29.9617,29.7932,-40.6724,10.2283,8.6249,35.4621,19.3460,10.4573,48.2113,16.7633,4.2778,66.7054,24.5103,7.0092,47.9257,-15.1908,29.8171,-8.9525
10.7739,4.8638,41.9586,0.0092,17.3602,28.4692,8.1332,-18.0560,-9.2650,10.2600,20.8556,15.5982,59.6087,18.3313,-3.3655,-4.1850,14.7332,9.7548,-25.4000
31.0738,-0.4513,40.8933,12.9584,25.2914,21.3087,7.4902,-14.5102,47.1694,21.9969,1.6095,-16.2595,56.3582,-0.7922,61.0364,29.7183,20.2294,-27.0813,-34.5768
65.0563,-1.7705,70.7997,15.8584,40.0596,24.4923,61.3908,41.9468,131.5617,81.0661,22.7002,-13.5882,114.4457,15.6278,146.3369,91.6713,36.3338,5.2969,-21.2006
68.0897,-3.4940,113.1029,2.6459,69.0141,35.3731,117.2162,54.4838,121.1888,92.9320,48.9938,-3.4163,164.2702,23.1539,121.9372,33.6143,52.3884,47.6162,-3.6566
15.9791,-41.2679,79.8489,-38.5992,69.6464,14.9864,125.5501,1.9518,70.9082,73.2055,-2.5348,-51.8159,105.4734,-24.7796,49.4422,-72.6595,5.9041,18.9733,9.0020
-20.7515,-59.2717,7.0647,-54.2727,28.3172,-9.0550,108.6939,-0.1380,101.9540,111.4214,-63.0977,-87.7604,20.8175,-56.4903,69.4327,-61.7514,-49.1756,-2.0543,38.9528
-2.2184,-39.5417,1.7133,-36.9453,12.7294,-7.6695,93.8266,45.1429,135.3324,123.3670,-40.8437,-59.8732,2.4129,-39.7794,110.7544,-23.6927,-34.1728,9.0034,65.3407
9.7720,-45.1797,40.8117,-37.3866,40.8253,8.4773,66.1555,31.3993,74.1152,26.1712,-11.1278,-48.9676,-1.4048,-36.5665,68.1463,-77.5423,1.9108,-13.2585,51.8330
-11.1828,-53.6645,49.2199,-32.0223,47.6520,49.2841,28.4676,-10.3769,12.5540,-44.9554,-42.1627,-74.2748,-6.3070,-42.3191,24.1962,-110.3809,10.5344,-27.9331,26.3748
-19.3648,-19.5462,41.1192,6.8593,28.6136,94.7873,8.5094,-22.6216,6.2856,-36.7295,-62.3963,-66.0023,12.7528,-23.6334,26.8278,-89.5025,21.0249,-14.5021,15.1446
-16.3304,-7.2722,37.0130,16.3904,29.0310,82.2496,-6.9561,-62.8189,-30.7064,-81.1791,-45.6080,-42.1583,-8.9030,-26.3951,-9.1745,-133.4087,24.3258,-43.3294,-6.2817
-38.8245,-40.7703,10.0727,-16.4180,26.0435,35.2062,-42.0941,-115.8257,-88.3356,-143.2166,-61.0806,-59.2837,-75.4598,-58.8520,-67.9313,-171.0485,-8.0764,-52.5809,-29.5792
-69.3260,-44.2575,-37.5898,-20.3083,-12.5484,27.7076,-67.0173,-85.4949,-72.6253,-88.0865,-106.6652,-84.7356,-87.2151,-57.8993,-54.4195,-83.4671,-40.6993,37.3857,-14.9786
-77.5294,-21.0071,-72.6220,0.7008,-43.7650,35.2455,-54.6479,-18.6996,-18.1718,-10.5928,-125.3323,-87.1808,-69.3856,-40.4412,-5.9492,-9.5712,-47.4024,101.9128,22.7854
-70.4429,-29.4640,-70.1369,-7.0686,-26.2284,6.6169,-28.8864,-23.3289,-11.9101,-28.0655,-119.6124,-96.7140,-100.2390,-66.5969,-12.3458,-70.3763,-44.8988,72.7604,39.9940
-56.7447,-39.5116,-28.0323,-22.4474,13.1949,-21.7433,-6.9827,-66.8080,-43.0769,-52.8389,-101.4273,-103.0084,-105.0218,-94.7184,-60.7128,-143.7088,-30.9835,62.2095,28.4606
-45.5893,-18.5729,-2.1059,-14.9917,21.4597,-13.8079,14.5389,-69.5359,-69.0902,-41.0078,-62.7108,-63.1937,-47.9126,-63.1617,-94.4778,-134.4858,-14.8882,69.4279,10.2901
-54.8586,-1.8594,-45.1059,-3.8429,-17.8175,4.8127,28.1070,-32.1412,-69.4004,-49.2749,-40.6132,-8.3902,-46.4759,-12.2393,-89.1013,-93.4260,-27.9283,25.0088,20.6010
-67.8609,7.0930,-92.2625,8.5359,-57.3391,16.5755,41.8229,12.3032,-28.7724,-29.3265,-62.7756,1.2242,-96.3967,0.7014,-51.8437,-54.4565,-44.4548,14.8421,65.9884
-55.4918,17.2675,-67.3742,16.7587,-47.3009,18.9080,71.0779,40.7569,21.4820,51.5512,-77.5669,-22.0632,-68.1155,-7.2097,-19.0894,-10.9947,-31.7444,72.2971,89.9126
-38.9103,-11.5119,-30.7512,-16.6377,-15.4542,-3.6778,84.6823,45.9042,26.5084,80.4793,-52.9539,-37.0248,2.4856,-5.7012,-15.1627,24.9509,-31.8051,69.3564,58.3006
-40.1276,-56.3042,-40.6040,-57.8191,-6.4762,-30.6546,57.2256,43.4899,-1.4694,18.7501,-29.5196,-39.8270,1.2852,-5.2574,-22.2958,22.4906,-50.1773,4.1785,27.5081
-32.8905,-25.2461,-38.3464,-18.8638,-5.2831,-6.7667,21.1851,42.4513,-18.4168,-38.2918,-25.2693,-30.5193,-29.1649,-10.6775,-22.9140,-37.8150,-15.3937,4.6833,41.6090
-16.3372,53.0339,-7.6891,64.2775,-4.1017,60.8990,-12.8316,38.1714,-26.1257,-57.7672,-24.6703,-7.4236,-28.2840,-3.5973,-17.7443,-99.2680,52.3189,61.9779,64.3545
-30.8734,62.3830,-15.2392,74.7044,-26.9809,101.2766,-62.9312,33.6193,-37.6387,-63.5723,-42.1346,-2.3787,-46.7024,7.2887,-10.9250,-86.5268,51.1424,81.6916,67.7885
-67.0585,18.1292,-52.0212,26.8284,-56.8755,95.8336,-88.3856,26.1220,-38.9627,-35.4916,-81.2981,-26.9021,-87.6718,1.0469,-12.5737,-37.7949,-5.2717,62.7377,69.7982
-78.6808,8.4967,-63.7147,10.3007,-65.8938,84.3352,-56.1567,16.0395,-20.1805,25.8894,-103.0583,-38.6106,-88.8416,-3.9464,-17.9280,-7.1065,-33.4951,40.4507,73.4738
-71.9218,3.5687,-70.5096,-1.2628,-66.2140,56.7951,-28.6971,20.1507,-4.2396,63.8085,-93.1006,-33.2097,-74.9487,0.1350,-18.6833,29.2862,-47.1444,1.4249,66.2799
-74.0927,-45.9862,-83.8214,-60.4824,-52.1696,-12.0988,-43.3687,30.5745,-31.3978,46.2459,-67.5191,-47.4626,-92.0369,-17.4073,-52.4168,31.5263,-74.1935,-64.3701,57.2286
-68.6221,-72.3311,-53.4819,-102.5828,-9.5526,-57.4976,-38.1041,31.1744,-89.0019,12.3133,-23.9780,-52.8049,-85.1314,-37.0855,-125.5517,-47.4714,-63.7328,-110.4679,61.5291
-40.8475,-37.3293,6.6111,-81.5948,20.3277,-31.3336,14.0276,45.1433,-88.7999,34.9404,25.2830,-12.9616,-22.5570,-13.5399,-139.5039,-93.0499,-18.1497,-93.5245,76.6000
-15.3548,-12.7249,17.1009,-59.8052,7.9789,-11.2460,59.6746,74.1115,5.0645,121.0269,38.3885,16.3657,14.3213,10.1628,-47.3321,-43.2045,-15.4670,-62.9516,90.8405
-9.1653,-10.9846,-26.2898,-50.2741,-18.2455,-32.2297,78.1674,87.4436,103.4105,189.1820,11.2058,3.6503,-15.8841,-5.9755,47.9258,-4.2947,-45.8772,-76.6844,105.8236
-16.0765,22.0268,-62.0970,-7.7667,-46.4466,-14.6275,94.2523,113.6525,131.3527,207.1373,-22.5448,1.3254,-43.9490,0.5035,66.6050,32.5257,-40.2933,-72.0352,136.1509
-29.0837,47.1892,-64.7239,19.5564,-67.0994,26.6207,110.0206,176.7221,110.5153,219.5349,-42.2874,5.8649,-25.0882,41.0247,36.0319,132.2717,-16.5971,-7.7111,169.6027
-28.9399,15.8052,-38.6919,-18.0288,-38.0196,-4.7772,114.4434,203.7740,68.8382,212.7607,-26.1980,-18.0652,11.2436,38.7316,-15.8157,163.2776,-9.9312,13.0468,164.6483
2.5110,0.3542,4.1676,-40.1978,15.4586,-60.0910,107.2187,160.2902,28.3593,159.5407,31.9633,-12.6411,34.0157,12.5282,-56.4506,76.3646,9.7836,-41.9037,121.7385
34.7348,39.8305,19.7537,0.5212,8.5952,-44.4001,89.1983,113.4190,36.5502,123.7353,69.4198,49.3008,20.2250,29.7845,-30.3334,51.8986,31.8639,-61.4441,90.1861
23.6582,62.6877,-22.2438,34.7072,-46.2985,-5.2912,66.9675,80.8550,70.9222,116.8816,37.7328,82.7610,-33.7624,49.0153,25.4786,90.1516,7.7562,-31.5060,80.0300
-12.5239,58.4234,-72.6063,45.6737,-71.0849,13.4947,46.9901,30.4041,43.5440,51.3866,-2.0460,74.4290,-63.0191,40.7479,18.9763,31.3873,-22.0961,-21.8859,54.3940
-26.6680,74.6702,-71.8302,70.2341,-64.9941,53.9008,23.8537,-9.2785,-27.9212,-44.4848,10.5533,95.3320,-17.4086,61.1851,-22.6111,-46.1364,-5.3603,-6.7181,9.2484
-15.1700,84.5798,-38.0801,78.5713,-59.3206,87.4011,7.2739,-18.3220,-42.7370,-52.6610,34.6140,121.2503,37.9233,91.1265,-18.0822,-21.1258,12.5289,29.2946,-22.3611
1.9926,68.3095,-10.6976,61.0773,-38.4841,61.5983,22.5724,-38.0318,-5.0726,-3.7625,28.8970,96.1880,40.4748,63.5090,6.5309,-10.9444,7.3696,28.9771,-29.6944
14.6401,64.7211,9.7277,65.2379,-1.6910,31.0024,56.1746,-77.6071,3.1177,-10.1543,16.3904,59.7375,35.9414,17.7364,-3.2242,-82.9177,18.1108,13.0893,-37.8756
12.2566,55.2626,18.6295,67.0271,16.6441,33.1301,63.6659,-109.3488,-22.6140,-63.5086,12.1237,47.1242,55.0181,8.9480,-19.2895,-125.4575,23.1196,23.0290,-67.6909
5.1784,20.4173,12.7811,34.6242,11.7004,28.1019,40.8034,-116.8866,-30.3617,-85.3450,15.1456,45.1562,55.5882,14.9005,-8.9427,-98.3395,-0.6771,15.3070,-92.2963
27.6012,30.7312,29.2730,34.4835,6.8469,24.3069,17.9762,-81.2169,-12.3670,-51.8818,42.3822,67.1042,42.9993,29.1248,6.6718,-40.2768,15.2609,-7.6322,-72.2289
64.7965,85.3841,64.9313,77.1907,5.7923,44.8319,1.5699,-25.2200,0.8851,-6.9543,81.6584,106.8879,62.7262,62.3077,12.5296,31.8450,70.9881,-3.4012,-42.5665
56.0491,83.8404,40.9516,75.5055,-12.8776,51.1444,-18.1689,-19.0202,-7.1791,-9.4780,86.2888,120.3144,85.9875,85.7998,18.0853,73.9538,56.1293,-17.6661,-64.9306
3.0160,35.3373,-48.0406,32.3166,-57.5536,34.7835,-31.8431,-49.6267,-19.6453,-35.7612,50.5844,110.8688,59.5978,88.1312,21.9879,76.8622,-28.3346,-66.4483,-98.5062
-29.3666,17.2567,-96.1061,9.1817,-89.4231,24.1490,-29.8198,-35.5133,-7.8706,2.6653,13.8190,93.5815,11.3672,80.1672,19.3820,101.1246,-71.1602,-82.0327,-68.3011
-17.2808,12.7768,-60.3573,-9.0164,-70.3630,10.1263,-23.9068,19.4871,22.0571,90.8043,8.9107,58.9084,3.5017,59.5823,19.4317,138.9080,-52.7795,-73.3341,-10.1019
10.7222,13.4233,-9.1011,-18.9983,-38.5737,3.6713,-22.1509,60.9036,35.3571,128.6510,42.5949,54.4371,37.3716,58.5085,24.6761,150.3909,-19.2372,-72.0969,11.8558
23.3208,55.6103,-2.8787,19.4821,-52.9375,32.3679,-20.2388,84.8862,26.3409,110.6040,73.2103,107.9726,51.3565,97.9719,23.3733,166.8492,10.5606,-29.9699,20.8739
-1.3421,77.1065,-48.8710,49.0008,-91.7847,50.5939,-25.3815,88.8378,18.9389,85.4866,40.1302,118.4000,6.3704,107.5535,20.0022,177.7216,0.4124,31.4248,38.5141
-46.4858,19.7792,-103.0232,12.1699,-98.8294,29.6002,-44.8049,59.6850,15.4382,45.5937,-30.0044,42.3445,-41.3127,57.8188,28.8551,134.2578,-52.9334,33.7223,29.2996
-57.4912,-21.2342,-93.3338,-18.1699,-73.8462,26.7892,-68.1505,25.8120,-7.3369,4.4996,-42.7226,0.5841,-14.7136,34.6338,26.3580,90.8346,-65.8837,21.7517,-9.7190
-28.5081,15.8705,-30.3890,2.6649,-50.6623,46.9156,-91.7018,10.6325,-52.6724,6.8327,13.5184,46.3421,53.4177,64.8988,-15.5847,95.3628,-19.0324,49.0073,-40.4356
-9.7820,48.5417,-5.0164,13.9947,-45.2205,35.3639,-112.4809,8.4935,-81.4519,25.2936,62.3208,90.6937,73.8716,80.9857,-52.2362,90.0476,4.4542,65.2493,-45.2352
-11.6366,32.0860,-27.4115,-1.5259,-49.1134,5.4561,-101.0501,26.8224,-54.6035,22.8188,62.1755,83.6292,37.9853,64.0319,-27.4030,67.3048,-12.0457,66.9707,-22.4932
-9.5359,4.6894,-36.4022,-11.8268,-42.8046,-15.1816,-54.5532,53.7027,2.1899,31.4951,24.2986,37.6577,-4.7880,33.3138,17.5209,84.6907,-21.0206,80.2306,12.0351
-9.0618,-16.0313,-31.5615,-19.3412,-26.3538,-37.2658,-28.7385,57.2440,25.0490,61.9564,-25.3103,-27.9411,-26.0835,-3.0494,15.7154,131.4482,-22.2033,57.8420,24.2092
-14.2130,-18.8313,-30.6834,-18.9286,-22.2516,-32.6946,-37.1415,56.8973,14.6662,78.0205,-47.3954,-55.8568,-19.0977,-9.1029,-2.9846,164.0785,-19.6534,16.5519,20.2869
-8.9187,-1.3617,-21.9504,0.2258,-31.9641,9.6137,-25.7529,73.7453,31.7579,73.0171,-34.8287,-25.4565,-0.7482,19.7216,27.8397,164.3851,-6.4879,36.3636,29.4564
-0.8345,-4.1867,-25.6075,7.8254,-35.5278,22.0637,-3.0993,71.5432,81.6776,59.3255,-30.8347,-13.0453,2.8925,21.5689,97.5051,132.4474,-12.5943,75.9002,27.2615
3.3161,-25.1701,-38.0534,-2.0126,-26.9658,-3.7029,-30.8741,48.7448,103.7732,47.0340,-39.7460,-42.0671,5.9562,-5.5327,138.1992,116.6643,-27.8526,70.4039,-4.3813
19.2920,-12.4359,-5.8534,2.4433,-13.3875,-1.9206,-78.9833,52.2675,80.2732,59.1641,-20.8504,-41.5513,20.2355,-4.7518,116.8464,139.2986,-0.5056,62.2361,-10.7199
28.1758,16.9388,25.0176,10.5681,-12.7502,14.7820,-71.2269,79.1685,65.3823,95.6557,5.7449,-8.2260,9.5217,11.8701,79.6737,134.4354,26.7875,63.0872,34.3264
-2.6159,11.7723,-33.3441,-2.5194,-42.3778,-0.7782,-26.1317,104.6159,93.4543,135.6274,-15.5840,-8.4358,-25.3739,7.4157,86.2550,105.7059,-14.9336,47.8296,79.3544
-46.7642,-17.6880,-106.1792,-28.0667,-73.0811,-20.4137,-9.7450,126.7150,118.6046,170.9813,-65.5524,-48.0394,-38.0631,-5.5519,105.4549,120.0982,-72.9745,56.3206,95.6149
-65.9263,-41.9819,-92.9511,-53.3896,-64.9917,-11.7805,-35.0164,113.1086,85.0846,160.2217,-86.2914,-77.1396,-46.8130,-20.4895,74.3247,104.6196,-80.0778,84.4890,96.5126
-64.8040,-35.6958,-60.1751,-45.2788,-51.1392,19.5919,-74.4413,49.6029,29.3838,73.3970,-74.2041,-57.0364,-85.0508,-30.6004,37.6411,-2.0211,-58.9163,78.6339,81.3885
-53.8247,13.9038,-75.6808,17.1390,-73.4232,63.0958,-85.0592,9.4257,33.9887,9.3726,-62.6055,-2.0383,-96.6854,-6.9779,70.3199,-50.9248,-40.3492,77.4966,56.4560
-45.6703,37.2997,-96.0584,49.0013,-93.1890,76.0085,-45.3021,30.2061,84.7718,50.0626,-68.2355,14.0494,-44.8980,23.7984,123.2690,27.8140,-43.7465,106.6320,40.4425
-57.0788,-19.0826,-93.8657,-8.8210,-72.2999,34.5512,-15.2909,35.7949,84.3572,81.2532,-77.6901,-30.5798,1.1669,10.6962,110.7321,69.4474,-77.7605,102.2033,17.2151
-59.0938,-55.4639,-66.1575,-43.1821,-36.2700,5.2376,-59.6537,-29.9645,7.9335,-2.8706,-65.8925,-52.1514,-7.4690,-20.8485,46.2885,-1.6870,-77.7910,83.8718,-32.2539
-24.3875,-1.2261,-8.9158,19.3939,-9.0949,23.8060,-125.6202,-120.0685,-66.7618,-109.9633,-41.2388,-20.8078,-36.5882,-34.4552,-10.7780,-78.9181,-9.6309,107.6366,-79.5903
1.7606,41.0220,16.0423,70.8643,1.9655,34.0540,-127.7027,-163.2520,-71.2659,-138.7954,-40.2513,-6.9953,-52.9347,-43.3988,-17.5621,-102.5010,28.9856,109.5815,-95.9492
-8.1904,16.4536,-21.2684,55.4206,-10.4668,25.9673,-83.1624,-151.9918,-16.6670,-118.5095,-59.9633,-21.3396,-54.1034,-46.5713,36.6630,-96.4204,-7.2662,64.8944,-91.9029
-18.3487,1.7558,-39.4564,42.6449,-20.0964,32.6921,-58.9889,-144.6006,12.4509,-102.8337,-68.1310,-23.0670,-47.4036,-42.0946,68.8429,-101.4437,-30.5141,50.8027,-87.1409
-30.6373,7.9721,-18.4731,37.1014,-0.9585,29.5292,-69.8920,-168.6438,-56.9837,-115.2391,-65.4385,-31.5512,-37.5499,-52.4044,-17.3301,-150.1747,-17.1466,53.5614,-89.6865
-58.8230,-5.6523,-13.6335,7.3706,20.9148,11.4032,-83.7327,-168.6563,-161.6941,-142.1665,-55.6629,-49.8570,-6.1948,-55.2136,-140.5373,-191.1189,-14.5031,28.9159,-94.3932
-48.9589,-6.6336,6.1172,-4.6730,28.4040,18.8152,-76.1739,-121.5256,-164.3118,-122.6404,-18.2830,-29.2069,43.9960,-25.2409,-141.4409,-158.9348,-1.3991,25.1164,-85.8362
4.4041,15.2823,50.3284,8.2606,31.3067,24.5542,-63.9533,-81.9762,-76.5213,-56.5227,30.8020,15.9373,48.3654,-6.1813,-50.7594,-108.1412,26.1635,29.0563,-60.6823
12.6581,11.0977,24.8634,-6.1076,9.2467,-7.5609,-72.8410,-56.7647,-40.9101,-26.7438,46.4989,37.4207,-10.1471,-7.5445,-22.6224,-80.6722,7.2808,-15.3388,-31.7603
-32.8254,-9.8103,-48.0502,-35.9879,-32.9911,-32.0252,-79.2811,-24.2501,-81.9924,-33.2601,29.3579,40.7704,-46.5521,9.0851,-74.4097,-36.5128,-40.5757,-33.2896,-13.1728
-47.7781,-11.8661,-46.8828,-38.6072,-29.2762,-36.4209,-54.1827,-38.7323,-97.5616,-11.3344,6.2097,21.2868,-19.6278,4.4449,-105.1346,-23.0925,-49.3453,22.4333,-23.6267
-20.3361,-9.6017,4.7584,-22.9864,26.6304,-57.6702,-27.1947,-101.4238,-68.2708,7.7273,-10.9914,-32.6510,25.7104,-50.4619,-84.7870,-89.1507,-25.6235,54.0099,-62.0258
1.8954,-11.1823,31.0773,-10.4713,64.3737,-59.5161,-18.9942,-92.8615,-52.1685,-13.3081,-2.0676,-61.9725,76.9857,-65.4228,-56.9583,-119.7964,4.4911,40.8812,-78.5058
12.6869,-14.9610,54.8209,-18.3714,63.5775,-13.4280,-4.3800,0.1544,-35.0183,-10.9604,39.3147,-30.4916,131.5222,-10.6162,-20.9183,-67.3702,28.8274,51.7718,-44.5872
21.9036,-41.4523,68.9545,-58.1030,53.0964,1.5644,11.0638,45.5961,23.4024,28.2259,75.9955,5.4519,129.5549,13.8523,50.3324,-57.4084,10.2797,55.8321,-10.8002
27.5712,-76.5457,42.1023,-98.3386,43.5713,-51.9214,13.5669,15.7161,77.0695,38.8624,89.3189,16.1597,66.9868,-15.5935,107.3769,-104.0648,-38.6779,17.9898,-13.4472
27.9364,-86.7072,32.1300,-114.5787,45.2967,-96.0632,40.1628,4.5406,69.0737,41.4782,94.2794,19.2475,39.3696,-27.6658,77.3864,-103.5260,-53.8162,5.2990,-12.1707
10.5345,-81.6247,58.4389,-120.7365,60.2060,-81.9791,91.9446,38.1617,29.2757,86.7080,78.2597,-1.8144,83.9664,-16.0782,-0.5489,-71.0846,-37.9572,46.1538,18.7228
-18.5070,-65.5358,58.1716,-101.5447,63.8083,-41.4511,113.6660,66.1889,1.2386,110.0926,35.3098,-41.0745,125.6461,-12.4948,-44.4976,-69.9525,-21.9978,85.0298,45.3503
-24.3130,-37.7610,42.7731,-57.9518,55.8546,-13.7336,108.8576,50.1754,-26.2835,48.5357,13.3619,-40.2373,100.7241,-10.0924,-66.5220,-92.5003,-0.7013,66.7981,43.4944
-14.8308,-39.1365,39.6120,-54.1471,45.3638,-9.5272,105.1695,-3.8859,-50.3494,-35.2227,31.6016,5.7056,29.4294,-2.9216,-81.3818,-129.2263,-4.4161,-15.4555,24.3038
-22.8080,-52.9830,3.0149,-70.2325,10.2056,-2.3217,69.2488,-30.3077,-38.3004,-66.1960,47.7187,49.2872,-15.4838,12.9632,-40.9576,-146.9223,-42.6051,-68.0154,6.9877
-26.3474,-7.7487,-35.6448,-19.3365,-25.4159,30.2090,13.5154,10.2920,-19.9360,-58.9060,46.8501,68.9683,15.5933,43.1325,9.4845,-104.2891,-29.6290,-4.1980,5.2323
-8.1744,42.1100,3.1533,37.4386,3.3145,48.3638,16.6741,37.2850,-50.9110,-60.0977,44.7688,49.9772,79.0288,48.1444,-31.8096,-78.7476,37.9009,64.2147,6.7366
-4.0466,0.3831,55.0554,1.9236,62.4531,21.8432,57.6789,-13.9339,-83.9684,-79.6276,26.0785,-11.1009,87.5401,0.1322,-91.1052,-134.4269,44.7617,11.7028,-12.8955
-18.1753,-62.1383,34.0279,-45.1834,66.0665,-2.1645,52.3763,-67.9335,-49.2715,-92.7790,-16.7449,-63.0554,35.2645,-47.5637,-46.7463,-168.2227,-7.5827,-55.8114,-35.7199
-22.3428,-56.9427,-5.5628,-29.5163,31.0629,2.6496,17.6373,-62.9392,-7.7862,-87.2324,-41.9839,-63.1475,-9.4830,-48.7776,12.8658,-125.0358,-25.5227,-38.5888,-32.2956
-18.9327,-35.5860,-10.4784,-19.6913,16.1345,-2.9620,0.6932,-48.2420,-30.3235,-85.2223,-18.3779,-27.9962,-15.7643,-27.1723,-13.2321,-94.6908,-17.6682,-20.2000,-26.9392
-3.1851,-32.1420,-4.3431,-27.5474,14.5226,-22.6353,-14.7347,-43.7518,-42.7217,-95.4970,27.8635,12.8400,-6.4625,-7.7185,-19.1083,-80.4121,-15.1273,-24.7788,-42.1063
30.7140,-27.7397,7.7236,-10.3305,12.6666,-17.4667,-19.9416,-7.2474,22.8091,-88.7894,44.6305,23.9678,9.5630,7.2141,70.3088,-9.8144,2.2809,7.9756,-46.9548
38.3270,-52.8077,25.8766,-17.9545,21.9786,11.2086,17.0334,42.0429,89.5788,-51.4168,16.8591,-16.2979,46.7048,12.2469,144.2185,63.7216,6.0887,26.2342,-31.3087
12.2344,-79.1131,29.4517,-51.7062,29.3451,29.0283,57.4165,42.6554,84.9419,-3.8645,-4.2435,-42.8690,87.1150,13.6508,122.0385,53.1973,-18.7467,-12.5870,-24.5028
14.1631,-17.5727,26.9929,-20.9519,17.7578,16.0316,56.1128,5.3662,45.2545,38.6573,28.4826,14.4379,78.3984,21.2066,49.7045,-5.0869,-8.7607,-31.5859,-18.1988
40.4161,68.0911,32.9881,33.0298,1.3697,-15.9562,31.8311,-6.8604,12.2010,70.4542,77.3425,90.2215,19.2109,26.4237,-19.1386,-29.6500,30.1086,-13.5776,13.5535
38.6043,56.9905,47.4723,8.5602,1.6035,-30.2955,-0.4531,23.6916,-16.0480,81.7699,84.7510,86.0982,-19.4610,22.9411,-59.0428,4.2663,36.7749,-6.2530,46.6022
31.1251,3.3637,77.5209,-36.0078,25.2861,-23.1833,-31.8739,54.8226,-32.8592,67.5043,64.1804,27.4486,-6.5854,10.7018,-62.7622,54.2909,39.5768,7.7536,49.3188
42.2275,-8.1868,90.3751,-26.7159,48.2998,-28.5152,-23.5794,49.4197,-26.5895,28.5070,49.0457,-6.9062,12.0419,-5.1528,-46.0195,61.0999,55.4274,27.9554,27.1054
36.3212,-6.7638,50.1836,-6.8064,34.5208,-28.2946,15.0256,19.2708,-11.4183,-22.3244,39.3137,6.6460,20.0201,3.6265,-17.4016,39.6537,35.3858,14.6637,-8.4505
21.3386,5.3445,24.0076,10.0673,6.9954,11.2420,22.0733,-3.7619,-22.9612,-54.4460,40.0072,45.1028,38.9923,40.2549,-10.4599,38.5127,19.8897,1.8049,-36.4937
31.2001,46.3346,65.3607,38.0808,21.1972,29.0444,3.4772,-11.6438,-78.4025,-53.7366,55.7933,61.9848,43.3162,46.4118,-83.1828,25.0549,65.3225,15.9497,-24.9359
37.9728,56.0672,95.0019,31.4654,55.3110,-20.1147,6.9397,-16.8259,-122.9814,-35.2656,60.4629,35.5279,9.5571,3.6410,-171.4090,-26.6965,91.2797,7.5007,7.9531
24.3468,29.9796,63.5734,5.1424,44.5875,-45.4140,9.1291,-30.7612,-93.0103,-13.1325,42.9384,18.0716,-17.1448,-18.1804,-142.4997,-45.4330,51.0881,-14.6930,7.9485
17.5447,44.2403,31.0431,32.2526,1.5148,7.5711,-21.8736,-57.0419,-45.8993,-12.1956,25.1294,46.2642,-12.5535,9.2162,-55.5720,-16.7484,27.5786,-0.6306,-23.7293
15.0562,69.9059,30.9105,71.5631,-5.9691,46.9443,-44.5353,-87.7192,-71.9414,-65.8288,10.8321,55.4861,-13.8653,19.3424,-63.4416,-29.0965,47.0338,14.6567,-46.2371
13.1741,35.9498,59.6331,52.9097,42.0454,22.9962,-35.2181,-102.9740,-123.8482,-141.0517,-9.6347,-6.2568,-31.5533,-24.4786,-124.7211,-84.1378,68.4790,-3.1721,-47.7146
26.8597,-4.2556,110.9431,23.5007,94.0087,5.8739,-30.7313,-79.0008,-128.8261,-158.8509,-25.1830,-76.7991,-43.0889,-67.3927,-139.7411,-93.5435,97.2996,-19.7607,-23.1923
23.2909,8.5821,120.3846,25.9631,87.9459,30.0921,-30.8291,-10.4751,-127.3625,-115.2678,-25.9767,-79.3020,-45.8234,-51.1359,-152.9144,-52.4883,117.9005,-24.1698,34.8170
-13.2197,39.7635,56.0632,35.2567,30.0318,55.7334,-3.6695,62.9146,-130.0946,-61.8283,-18.5690,-26.6618,-39.3471,5.4064,-170.8667,-16.1781,93.0095,-18.8706,90.0111
-20.7481,63.5742,2.6416,52.3967,-15.4621,56.6676,27.5169,90.5281,-71.3134,-6.2823,-11.6334,17.8756,-26.2815,37.6861,-110.6051,18.6266,61.4512,17.9624,100.4131
3.0155,66.1049,-5.2018,61.8053,-24.6635,27.7621,37.1042,77.1616,8.8696,44.5993,-17.7993,17.6073,-33.0928,24.2805,-27.2972,68.4327,45.7813,57.1593,82.7701
-13.8433,11.2909,-30.3928,9.6192,-25.3856,-25.7496,61.8442,56.4636,12.2470,45.0943,-40.2075,-13.1768,-63.5817,-0.6312,-36.6990,90.1369,-4.4996,46.8324,67.7291
-54.3897,-59.7061,-68.0980,-62.5990,-27.2142,-64.8533,108.1988,36.3142,-22.0150,4.2131,-54.8267,-32.2259,-88.3893,-12.6141,-81.9869,52.6694,-68.6973,7.2344,58.8729
-51.0235,-58.6022,-68.3159,-61.8240,-27.9673,-51.8317,121.0963,34.4815,-10.6029,-10.0721,-40.0238,-12.8940,-89.8465,-5.1058,-63.5933,13.4279,-69.4269,-23.6099,63.2006
-16.1761,-7.4104,-38.6807,-14.0586,-31.4253,0.3095,103.9355,73.4732,27.5472,14.9541,0.9483,34.4434,-48.4305,33.7747,-6.6062,33.2851,-21.9958,-37.4407,76.2155
14.1139,14.3863,3.7058,2.7530,-25.3961,45.3406,102.0379,102.7126,59.0158,44.5388,48.2338,77.3279,35.5978,80.5270,47.9537,75.6548,7.4472,-21.0922,60.4941
27.0773,6.2363,22.6516,-7.8400,-22.0517,45.4995,79.7635,58.3628,81.7451,71.0050,62.9136,89.2121,77.8861,83.9250,89.8156,90.3128,-7.6024,2.6701,7.7826
-1.9311,-4.2247,-43.7537,-18.1156,-60.0800,4.8751,3.7235,-19.4902,67.8277,81.7232,19.6272,69.8193,18.8608,51.7070,82.2684,103.9584,-67.2486,-21.7146,-41.3554
-57.3273,-23.7992,-144.5241,-30.5125,-108.8452,-28.3299,-43.5185,-57.3283,19.3538,50.1702,-41.5581,39.8141,-49.4398,34.2110,32.1696,128.0535,-131.3540,-74.9326,-65.8157
-76.1720,-40.6705,-160.8689,-36.0155,-105.5434,-22.0035,-7.5579,-57.5037,-6.9513,9.3991,-60.7606,22.6375,-32.7962,40.1919,3.0737,125.2979,-140.2194,-95.8867,-75.9245
-49.3866,-24.3813,-104.2728,-19.7018,-74.1639,-0.9295,26.8403,-58.3116,-7.7138,9.4332,-36.6641,34.1417,13.5933,50.9987,-3.7435,116.4656,-100.1602,-86.8517,-80.4611
-19.9318,9.5920,-58.0029,7.6414,-62.5690,4.6872,-13.9711,-79.8793,-31.7312,8.2893,-12.9045,57.3839,8.3297,54.2843,-28.7443,138.8390,-58.6679,-65.0176,-92.9208
-22.4744,13.8795,-50.6644,22.3463,-64.4855,7.8600,-90.5969,-113.1027,-83.3251,-52.4997,-34.6045,40.3083,-38.5358,37.6871,-63.8187,155.7997,-41.3665,-21.2531,-113.2889
-71.9217,-15.6033,-89.2268,14.8146,-78.3522,29.0359,-135.7351,-116.7284,-131.5579,-115.8210,-109.9976,-27.0663,-79.4206,13.9088,-95.9545,154.5208,-59.0451,22.6308,-108.5656
-119.4646,-29.7199,-126.6893,7.1001,-92.2580,48.9994,-124.3239,-89.9998,-152.0458,-102.8168,-173.3670,-81.6438,-86.5424,3.4717,-129.6949,158.9348,-78.8861,35.5534,-75.2049
-96.2732,-5.2352,-87.6174,22.7825,-63.3190,35.7709,-93.9914,-99.2931,-138.7923,-60.9067,-162.4266,-86.5772,-81.4544,-18.7975,-144.8364,116.5183,-49.4361,27.3826,-56.1858
-52.7492,21.1231,-36.4324,42.2361,-25.0183,6.1382,-109.9096,-150.0934,-128.1919,-71.0926,-124.2394,-72.5022,-113.0456,-60.6017,-140.0214,7.3717,-11.4127,16.9226,-58.8221
-67.2942,31.5893,-61.6619,48.2196,-40.4693,7.8685,-147.0286,-173.5258,-148.3376,-100.2383,-122.2207,-57.0564,-149.1075,-68.9837,-148.6689,-63.7568,-21.6825,18.6823,-56.1014
-81.3579,49.8961,-72.4893,60.0457,-54.7209,34.0950,-124.8098,-169.1937,-155.0187,-80.4753,-120.3933,-34.8148,-112.1093,-42.8401,-158.1382,-67.0372,-27.1590,38.6355,-56.0150
-39.4502,56.3520,-7.0482,59.6783,-15.1896,31.1858,-83.0724,-175.2603,-116.4194,-35.8069,-78.1916,-20.5588,-45.3734,-39.8459,-126.6414,-74.3753,0.3622,41.4261,-72.0185
1.3283,15.3847,38.3880,10.9690,12.3579,-1.9015,-105.4713,-167.1283,-70.2670,-18.4871,-22.6831,-10.0324,-33.9678,-46.8144,-62.0299,-59.6952,-1.9578,5.5569,-88.8631
29.7629,-24.1364,54.1781,-32.7412,8.9193,-18.3134,-133.9917,-142.4312,-30.7738,-20.4198,28.0941,23.2861,-34.5680,-23.6676,6.3541,10.0924,-17.3601,-26.4800,-107.0401
78.4818,-7.4782,98.5036,-11.1541,27.9612,-13.8200,-93.5280,-143.9934,15.1275,-19.7364,70.5215,61.3612,-2.7169,-3.9731,56.5088,36.5152,13.5169,-40.9960,-125.8805
96.9688,22.4956,104.4802,19.3441,40.2866,-17.5625,-32.7887,-140.6297,38.1371,-15.9343,86.2496,79.6684,3.1920,-4.6656,60.2838,-12.3689,35.3891,-74.7725,-108.4743
69.6253,23.4409,52.2599,4.2474,14.9012,-30.0610,12.9918,-79.3271,40.5079,9.5350,96.7027,100.9000,-8.2086,13.9326,41.5195,-37.8289,9.5998,-105.4077,-52.5479
72.4020,26.6782,47.0797,-7.8258,12.2550,-34.2812,61.7225,7.1074,83.2621,73.4410,128.8752,119.3259,39.9893,39.9893,73.2355,-22.6931,9.5438,-79.0491,-4.0741
98.1010,47.1967,77.6299,15.4988,38.6960,-22.4730,80.2001,77.4748,150.0442,133.8049,138.6885,93.7327,102.4113,33.3036,142.3082,-26.8981,49.7841,-22.1613,33.6634
81.7389,55.7080,65.1524,34.9776,39.6359,3.6544,66.1713,117.5670,154.8766,127.6489,102.4419,51.0561,92.9921,16.7572,151.8895,-56.2397,67.4308,4.9197,75.4136
44.1807,43.5152,47.5566,30.3510,29.6857,32.2762,82.2398,93.8584,86.7139,50.2647,70.2397,45.9616,51.7729,20.5874,79.3705,-100.0768,57.8407,-4.5660,84.2075
15.1831,27.0237,46.1600,20.4477,25.9718,60.2728,96.4703,31.6750,4.2549,-39.1313,53.8196,58.1584,35.3951,34.2578,-1.1494,-134.6051,44.4392,-25.2252,50.8816
-9.0628,20.2372,22.6643,18.1156,0.4530,88.7964,48.3145,17.4886,-30.5336,-65.1327,30.7996,56.7898,23.2899,49.7626,-18.1708,-97.6443,28.1625,-39.6908,31.8197
0.1502,18.8134,3.9719,12.6037,-27.8114,81.5956,13.6341,46.3490,26.5983,4.7780,26.8560,60.4376,8.5472,58.6614,45.0946,2.4593,9.6403,-53.4716,38.1379
24.0059,-1.0529,-10.2884,-20.3117,-39.9266,20.7746,41.9256,57.5230,119.0553,111.0789,46.7630,72.9988,6.6802,53.4618,121.6648,79.8061,-32.5027,-80.4349,33.5745
0.5284,-22.6560,-55.5961,-59.1793,-64.5238,-17.2910,45.4440,62.4633,114.1980,146.7354,56.5951,88.1212,6.5912,62.0944,107.4961,95.6899,-83.7579,-96.6579,28.6762
-18.2693,8.3622,-53.5800,-39.2986,-74.4409,16.3102,9.7493,66.6815,22.7176,92.9439,73.8533,122.4952,8.8822,91.9505,19.2528,67.7302,-58.2173,-74.4513,36.3056
22.6768,57.8871,13.5090,18.0554,-41.1670,42.6904,10.5510,39.4808,-7.3714,45.8928,97.2185,143.5954,26.4387,97.2042,-11.8065,52.8091,15.1601,-49.8157,19.7353
33.7280,37.1164,5.4098,21.8643,-30.1198,19.3406,21.3360,24.0278,40.4610,59.5842,59.0749,90.0813,50.7614,73.2221,42.0456,119.4336,4.3333,-48.4325,-21.3131
-3.9692,-14.0874,-42.8430,-8.2779,-42.9314,17.7862,-2.5961,63.0903,53.5005,69.5418,-5.4133,9.5193,79.2434,63.0031,73.3287,205.8697,-34.5158,-27.2183,-33.4484
20.1914,0.3284,29.4605,6.8023,1.5290,41.4151,-0.9182,96.6797,20.6180,41.5645,15.2731,-2.2532,104.0211,61.5587,35.7970,186.0275,32.8261,12.5553,-5.6408
69.6708,34.3906,108.0677,23.6591,53.5912,12.0881,42.8290,94.6748,7.4834,48.6870,71.4003,23.6200,95.3613,43.5336,-15.7257,118.0920,96.1227,3.2424,26.2104
23.4922,1.9866,26.2120,-26.2394,21.5233,-49.4455,63.7585,105.1334,10.6880,117.8267,43.7812,0.6284,68.9197,26.5687,-44.8817,126.4259,19.4716,-51.0942,43.4387
-48.6435,-59.3895,-74.5839,-92.8141,-26.3233,-74.7990,62.9873,129.4355,17.3459,172.7844,-14.4614,-46.2293,61.2554,22.1497,-43.2997,167.8799,-79.6346,-82.4683,50.9882
-33.7488,-88.5750,-58.5021,-121.9869,-20.6671,-89.2743,73.0415,147.0855,58.1423,185.6493,-3.3099,-47.3452,39.4813,16.2253,0.8021,190.3616,-88.4457,-80.5221,64.7422
15.6391,-85.2139,-16.0881,-122.8700,-10.6468,-111.8593,69.9641,173.8720,106.8099,192.4974,39.8143,-15.3143,-12.0054,14.3346,49.1671,225.8562,-60.0760,-72.0460,92.8273
36.0830,-45.3874,12.1353,-82.1786,-5.9529,-85.8803,54.2929,180.1637,89.6352,167.8051,55.9135,9.1852,-21.7991,26.6335,33.7289,224.7634,-13.7513,-60.1140,105.1199
45.2056,16.6592,54.8097,-6.0148,17.5172,-15.4014,65.4322,130.3379,23.7537,90.4470,54.7082,27.3327,26.3727,44.7353,-26.3533,155.6100,52.8753,-53.0234,75.3272
36.5715,36.0236,49.3183,27.3122,17.6502,20.7166,88.3081,90.3645,3.6833,51.5945,37.7401,31.2363,63.7924,57.4279,-38.3868,127.3343,59.6975,-61.0751,39.7215
4.2659,-8.1408,-8.6625,-11.8864,-3.0148,1.3535,91.6760,110.2319,56.1863,102.5932,-1.9170,-14.6930,73.2301,40.6745,21.7773,144.7307,-1.7505,-65.4920,41.2184
-13.3200,-66.2600,-22.5962,-63.7373,20.3920,-37.8770,96.3696,121.7890,106.6359,139.3247,-39.1758,-97.7943,66.2328,-21.5143,72.0302,80.9879,-38.1281,-54.8411,61.9658
-12.9258,-92.7950,7.1164,-83.4701,63.5001,-68.7082,103.7515,72.3074,77.8455,84.1743,-52.9157,-141.8914,22.9285,-81.0764,33.4916,-36.6569,-29.7906,-46.1323,63.9860
-17.5885,-59.9517,18.6160,-57.5265,59.1875,-60.8244,67.0647,2.4153,-16.3938,7.4202,-41.5654,-101.8245,-26.3988,-78.1658,-65.3571,-90.4164,-9.3845,-43.9536,42.0186
-13.3376,21.3023,12.3978,11.8783,19.5671,-9.6137,-5.6131,-30.0860,-71.5012,-14.6148,-16.1360,-21.9863,-35.0327,-31.4889,-105.2354,-77.4369,22.8391,-32.4329,21.6241
5.2195,68.9246,-7.9283,66.1960,-20.5375,34.3469,-35.5186,2.3913,-10.7920,3.9194,-7.2899,23.9516,-39.7528,5.3165,-16.3901,-18.9147,38.9347,-9.5688,31.6109
13.3471,41.4323,-40.4949,57.6507,-48.5808,44.1341,-7.7663,71.5986,98.6092,27.2492,-21.5039,19.6194,-54.4664,21.3894,117.1341,66.1971,14.3678,8.5357,59.1731
10.7263,20.3971,-51.2010,42.1203,-52.6083,51.8542,-6.3538,103.8216,134.5412,40.6477,-21.7339,9.2629,-24.3965,30.6199,170.8815,90.5949,0.3171,14.9362,58.6757
17.8869,66.4449,-42.1821,81.2168,-46.6664,70.2804,-53.9555,78.0507,102.2364,33.6117,1.7658,30.3739,19.6742,36.9212,151.8173,35.5315,28.8399,17.6078,32.0650
38.3269,124.4232,-33.6005,137.5860,-46.1293,77.5127,-67.0729,36.4639,83.7275,5.7600,23.2928,70.6570,9.3885,38.4768,132.7358,-20.3647,63.2707,15.6855,17.3865
58.7169,144.0090,-8.0881,157.6085,-29.8857,70.6362,-40.0054,-6.0833,70.3199,-23.2965,42.4265,95.5233,2.7538,34.9570,109.4367,-60.6734,83.2404,5.6168,-0.0842
63.8117,137.7662,20.8492,146.2747,-3.6843,58.1358,-58.0767,-45.9141,29.9095,-33.8383,58.6637,89.0969,47.0472,27.3006,70.9678,-83.7552,89.7028,8.3387,-43.4310
52.5839,104.0175,16.2383,116.0928,0.2780,36.8344,-95.8950,-60.7604,14.3676,-37.3904,40.6247,54.0511,48.3842,9.8526,64.5991,-53.2130,68.8239,25.3416,-69.9049
28.6207,36.6442,-9.4783,64.6431,-7.6510,11.3233,-78.7447,-76.5892,24.2893,-68.6330,-10.8276,6.5759,-30.4451,-20.9311,70.5160,-26.3651,20.7764,5.1168,-63.8651
-15.3848,-10.5735,-48.7296,23.0646,-20.9925,1.8028,-78.3846,-131.0907,-28.6220,-126.4822,-50.4305,-16.4165,-84.7443,-38.1895,14.7997,-64.0118,-30.8250,-51.7682,-83.0798
-54.7557,19.0471,-96.1786,47.7219,-54.3375,29.3723,-147.6575,-179.8775,-109.9014,-164.9055,-63.7243,3.5022,-71.7352,-19.3652,-48.7214,-95.4329,-46.6014,-57.5813,-125.2193
-43.0254,89.0796,-93.5194,128.1349,-69.7179,86.2162,-159.4848,-171.2715,-89.5393,-158.5431,-78.1784,21.2721,-59.1710,-2.1409,-18.6945,-91.0234,-1.2598,-5.8118,-112.2803
-12.0060,105.2484,-52.3359,160.4467,-42.9718,111.6633,-65.5110,-120.5569,2.9067,-113.5670,-102.3690,-9.4066,-70.6190,-20.7204,48.1628,-95.9837,41.6709,0.2381,-42.5381
-24.6065,42.4111,-62.4928,85.5032,-28.9975,63.2359,-1.7518,-48.1715,47.3988,-36.6501,-106.4519,-54.2805,-66.4263,-38.2112,60.4103,-69.9244,2.8240,-49.1815,10.4989
-44.3668,-17.9037,-87.9821,-2.6237,-37.5913,6.9780,-7.2244,23.4881,54.9486,36.4014,-74.8302,-59.5952,-36.5799,-26.3291,59.9314,-8.8595,-51.5099,-56.1466,30.0055
-23.5062,-6.2051,-46.3469,4.3671,-21.7715,24.7437,9.1914,53.9969,74.9083,56.8448,-50.4681,-45.8272,-7.9671,-14.1666,80.1528,-4.4641,-21.9361,-9.0101,50.2305
-8.9802,32.0826,-9.2920,57.1706,-3.9522,71.8491,53.6687,64.7767,81.1759,45.7483,-71.7398,-56.3958,1.4581,-11.8325,73.8659,-11.9909,31.2020,16.9425,76.7688
-19.9645,14.7671,-31.0734,44.6088,-11.0749,58.0960,87.2943,101.6547,82.8125,50.6075,-89.1078,-73.8204,-3.6565,-5.1301,60.9095,46.6074,19.3107,0.7034,93.1697
-6.2809,-51.6111,-26.6236,-32.1227,4.6703,-8.3294,122.6042,115.9898,115.4745,54.9345,-42.5949,-62.7519,-7.2194,-11.4253,92.8637,48.1668,-21.6825,-27.8816,86.0405
20.7059,-102.2517,13.3439,-97.7167,45.9935,-68.3648,143.5891,65.2459,132.0660,40.5379,24.9802,-39.0684,6.0438,-36.3298,116.3538,-55.8849,-46.8739,-51.6251,49.1923
15.4999,-119.0659,11.9924,-123.2506,58.9725,-101.2632,131.1990,28.8202,97.2444,30.4357,44.4628,-38.1454,35.7116,-44.3512,82.4439,-88.7851,-65.2395,-64.4810,8.2105
-1.0864,-127.4044,-11.3709,-126.0494,50.2818,-104.1749,133.5950,61.9825,68.1352,18.9601,27.5895,-56.0195,53.5115,-28.7155,49.1001,-20.0460,-68.9890,-68.8542,6.2463
-4.1395,-125.1460,-14.0595,-115.0339,45.6064,-80.3581,158.0661,102.2646,77.9329,5.3260,14.1079,-61.8579,41.4695,-17.8125,57.0124,0.0803,-55.6108,-67.3691,39.3739
2.8319,-92.1211,-8.1561,-86.4677,38.5521,-57.1080,150.6492,98.5319,101.6868,34.1875,16.0334,-45.8381,38.0187,-17.3256,81.6267,-30.7864,-41.6457,-51.1511,55.5885
34.9565,-53.8078,25.7933,-53.4252,48.0880,-53.1472,119.1610,58.5568,122.0547,67.6018,38.3055,-23.7704,62.4567,-21.1928,108.6792,-37.2412,-16.4572,-30.0167,25.1279
73.7003,-55.2457,79.2742,-43.8113,74.3180,-58.1676,91.2864,-6.8770,107.5398,0.7403,62.8699,-6.4208,45.5058,-30.9928,113.2057,-42.4093,11.4715,-26.0361,-27.2467
62.8498,-74.8057,72.9805,-50.3402,63.7212,-57.9436,41.0430,-62.4825,36.9852,-118.0780,51.0719,2.8585,-35.2718,-36.1044,62.4304,-47.7842,6.4499,-26.1639,-57.2630
19.8954,-55.9858,19.1529,-32.3912,24.0401,-43.1487,-23.8378,-69.3414,-28.2598,-142.4456,9.1623,-6.3965,-81.2664,-33.6155,-1.0564,-32.3980,-6.6992,-12.4414,-50.2789
3.4994,-16.6199,5.8970,-0.5651,14.9620,-22.7617,-54.6436,-60.6504,-36.3038,-82.7317,-19.3705,-29.3939,-63.0307,-42.5024,-21.1265,-42.1615,5.2945,-1.5445,-30.6224
6.8339,-13.0329,22.3158,-8.5317,22.6966,-31.0860,-49.7576,-70.9912,-27.4658,-38.2402,-17.1380,-32.4401,-66.6227,-56.1363,-28.0597,-62.4425,4.2785,-1.2215,-18.6540
8.5755,-25.5266,18.1477,-40.4585,10.1872,-66.1493,-27.8354,-53.6100,-22.8870,2.4214,7.3775,-3.1006,-87.8109,-43.8325,-44.9980,-18.2137,-18.2245,-0.3080,-1.9735
20.0794,-9.2075,12.6894,-36.4354,-0.1743,-71.0730,5.6495,17.0262,15.2163,67.0770,32.6971,20.2592,-57.9559,-14.9436,-21.7575,42.7597,-11.7423,-2.0704,33.5175
33.3593,3.0488,29.3055,-13.7275,12.2935,-29.2675,30.2849,81.1716,72.2684,87.7078,30.9518,3.9313,-21.9384,-8.2795,45.9347,31.0329,20.0527,2.3163,74.9930
38.0811,-26.2435,69.3688,-22.1637,43.7319,8.2951,42.3859,99.4066,89.7987,38.6967,12.2464,-37.9146,-22.2629,-26.1418,83.3699,-13.6182,44.5680,30.1205,96.3698
46.6828,-56.6212,119.0588,-44.6161,85.6527,6.8843,55.1465,92.3727,66.5579,11.5514,10.5082,-74.6135,10.0905,-41.0672,59.9912,-17.4249,63.4406,47.2441,80.6822
44.3395,-55.7800,114.4736,-57.1056,95.4498,-30.6646,45.4290,75.5737,47.0363,70.1956,15.3421,-91.0574,64.7431,-47.7211,21.9200,13.8430,50.2433,14.2174,45.4683
14.6890,-52.3323,37.5468,-78.5957,50.0956,-85.8695,14.4883,65.5979,56.3977,162.4505,4.4066,-84.6483,35.9558,-57.4138,9.0599,38.5845,-13.6924,-30.7771,45.7980
-9.6178,-53.5008,-14.9088,-98.3896,8.6677,-110.5735,15.9000,93.1365,75.1485,206.9340,-1.4575,-64.1011,-40.8722,-60.3088,8.8673,31.3089,-53.6254,-30.7262,101.6964
-11.5737,-37.6459,4.6761,-86.0001,13.9792,-79.8490,38.2535,131.2679,54.4008,182.8949,10.1345,-48.0853,-45.4435,-44.5215,-17.2289,-0.9423,-23.5768,1.6018,146.0656
-16.8404,-30.2319,25.9852,-72.6253,33.0958,-52.8166,29.6218,109.5444,-7.9448,117.4640,16.8857,-47.2373,-7.0579,-34.4486,-68.0082,-42.2331,1.5559,9.6509,119.1043
-29.7846,-61.7399,5.1085,-92.8149,35.5839,-72.0164,21.0989,46.3428,-38.1097,49.6367,6.8623,-56.2935,-23.1873,-49.7835,-84.3355,-82.2463,-28.5780,-33.5583,67.7837
-37.1556,-86.0376,-35.1446,-101.0076,17.1328,-81.9198,46.1941,42.2023,1.5021,30.7096,-21.4708,-68.7597,-72.5105,-58.9929,-41.7132,-66.9586,-59.8675,-89.5792,70.4480
-33.9440,-52.2493,-53.4706,-59.0025,-8.5184,-46.1860,63.9415,115.3856,52.9494,88.4643,-53.2004,-78.7424,-78.3395,-37.8781,-1.8290,31.9361,-38.9340,-100.2160,121.9545
-6.8616,-0.9976,-9.7318,-20.0473,-0.2494,-17.4815,67.5187,177.9987,72.1203,170.7476,-37.0174,-69.0090,-33.6616,-14.3885,-2.7979,104.0163,16.1423,-77.0397,162.2051
28.7569,5.3520,50.4629,-32.8632,31.6279,-27.0884,88.0280,184.5747,87.5387,207.2264,24.3941,-35.2478,10.6547,-6.1026,5.3796,76.7624,40.8881,-72.4435,164.0215
20.4990,-14.4792,21.8913,-52.2945,17.7283,-38.7997,102.9580,169.9481,111.5776,196.9447,34.1589,-16.6583,10.8853,-1.4209,43.2659,47.8186,4.6357,-72.7654,147.3430
-22.9519,-9.2459,-60.5986,-25.0788,-23.5039,-30.5961,97.0759,150.7729,103.9032,151.2161,-30.4737,-40.4381,-26.7209,-9.5762,47.2467,38.5312,-29.7687,-41.3055,138.5048
-33.6082,14.7049,-67.1629,16.3011,-14.6793,-17.1413,100.4433,121.0691,54.1324,65.5958,-56.7242,-55.1872,-51.0606,-26.3637,-1.4769,-32.5739,-2.5604,-9.0436,135.9092
-2.2336,29.8874,-5.5105,26.4528,17.7261,-1.5792,105.0640,109.1442,12.4199,3.3736,4.5479,-8.6068,-17.3302,-3.9368,-32.5310,-76.9286,44.1563,2.2007,117.4766
27.6898,54.7388,40.2296,40.7287,21.0246,29.7854,94.5334,117.3070,6.7935,16.1213,62.6977,51.9528,63.2387,51.0175,-19.9667,-14.6330,72.4412,33.8564,81.5082
41.7544,102.4620,67.4224,98.8137,32.2228,67.6816,96.6720,76.7627,-1.0439,6.2402,54.6610,58.3633,109.3805,56.6564,-21.7650,-31.9994,110.2188,79.6081,49.2265
43.4927,123.3000,81.9383,145.3401,67.0612,72.0647,102.3032,-25.6964,-41.7522,-103.9213,17.6899,24.5321,54.7974,-4.3221,-62.4544,-200.8409,141.0275,69.1442,26.1151
32.9462,85.2345,71.0325,122.4342,84.6889,38.6696,73.4843,-85.5087,-88.5393,-203.2845,-5.0181,-12.9599,-23.7864,-53.6783,-103.2663,-280.9418,128.4400,6.0869,6.2475
24.5945,44.5090,73.1310,83.4415,90.8781,30.1773,36.9198,-51.8744,-112.4743,-205.3292,-9.9917,-46.7079,-2.1478,-48.0542,-118.0452,-201.1721,119.6412,-23.6275,-5.0804
29.8321,51.9775,97.7635,95.2857,100.5610,67.2146,27.8203,-20.3178,-113.3115,-196.3379,-5.6234,-53.6230,65.2355,-24.6903,-103.8612,-160.6681,144.2686,9.5924,-12.6847
38.0898,74.2965,90.1818,123.2458,85.2625,80.0113,27.8986,-49.9168,-94.7666,-220.2527,0.6157,-19.6566,49.0241,-16.9861,-70.5729,-184.7176,144.9991,47.7291,-26.9952
34.5826,71.3709,54.6560,112.3002,50.9025,50.4764,25.7951,-62.6160,-76.3187,-196.6854,3.3881,10.9980,3.4222,-8.9739,-58.5111,-136.1781,108.6280,45.2068,-32.0568
15.0331,48.7100,37.1003,72.5887,32.2468,39.7800,15.4262,-27.8693,-84.2156,-125.8665,0.2653,4.8391,27.6688,11.7408,-80.1594,-40.9807,76.4622,15.4333,-27.6666
-5.2876,12.7581,22.6845,33.0339,22.5866,38.5598,-29.7235,-38.9487,-97.1645,-110.1708,-12.2456,-15.4027,38.7194,11.5261,-79.4184,-6.8851,41.4724,-14.9879,-53.2165
-4.8575,-15.0754,-5.2376,20.2390,8.6408,10.0353,-83.6479,-107.3202,-78.3141,-157.4609,-32.3634,-26.3313,-32.6552,-22.8215,-33.1469,-25.3815,5.8869,-28.2791,-95.8262
5.5408,12.6736,-19.8306,59.1178,-6.8544,17.0219,-84.8786,-119.1401,-45.5938,-171.8336,-44.7819,-14.0924,-73.6860,-29.4486,6.1812,-35.8698,15.1532,-1.4420,-88.3962
1.2955,66.0102,-16.0037,103.4114,-25.2583,74.6625,-52.5609,-68.6443,-40.7254,-136.5980,-34.0762,26.3697,-29.7071,16.5756,4.6356,-26.5511,44.3778,56.0134,-48.5906
-10.9980,50.4202,-5.9050,73.6481,-23.7989,71.3905,-50.4236,-69.2708,-80.6450,-143.0264,-12.8534,45.1535,-13.3338,31.8858,-38.0658,-34.0869,33.2084,83.4178,-52.4340
-19.5887,-11.7232,8.6021,11.9014,7.1763,10.8087,-80.4784,-110.5198,-144.5655,-209.0776,-16.2749,3.2809,-65.3272,-14.0909,-106.9073,-68.7963,14.8231,63.8702,-73.8934
-26.5513,-12.5308,8.2250,19.7494,10.6613,22.3807,-103.0644,-85.2626,-156.0508,-223.4579,-44.8402,-32.8102,-95.2156,-29.3631,-119.9954,-59.8331,32.2894,55.2448,-45.0828
-21.1165,28.1824,-18.5417,61.2427,-31.8856,73.6944,-90.3379,-17.1517,-69.2641,-142.3027,-51.8352,-4.4235,-73.7938,12.1035,-24.2746,18.6195,35.8027,72.5392,-5.6666
-1.9131,22.7892,-43.7238,46.6166,-52.5265,39.0745,-42.3816,3.0825,24.3972,-64.5983,-19.7595,34.9757,-49.2510,30.5174,67.8211,64.6211,-2.2306,72.8913,-11.8229
10.7074,8.4254,-42.1944,19.3248,-31.5857,-23.9985,4.2769,-1.2379,30.6422,-44.5404,18.1009,45.8547,-22.0395,20.4586,53.6713,35.4963,-17.1075,60.8783,-24.8646
19.2583,43.2302,-17.6827,46.6571,-15.6933,-4.6554,15.7803,16.5025,-3.8231,-49.4656,43.3019,64.0101,22.6805,39.0455,10.1899,12.3505,22.2112,58.7517,-16.8044
28.6905,64.5598,0.8675,77.1584,-14.5224,43.6291,2.2580,16.8829,-17.4035,-89.5653,49.5041,80.9108,36.6711,61.5435,14.2605,13.5302,53.3283,38.9753,-23.7178
20.8415,31.7718,-16.2685,64.8461,-16.9050,44.6401,-12.4575,-12.4644,-8.3909,-139.8352,17.2094,50.7697,-4.3140,40.7937,41.2192,7.5734,33.5701,-1.4929,-42.7875
19.5252,11.1558,-29.9477,50.4351,-16.7586,23.7328,-17.2382,-10.4386,43.0346,-84.1045,-18.8652,2.0521,-20.2318,8.5114,85.8630,37.6531,12.1275,-26.9178,-36.8951
62.3654,25.0948,22.9276,45.9451,11.6268,3.7150,-7.1959,38.4151,106.3055,47.9014,13.2029,-7.7527,44.3110,7.1907,125.5199,111.3742,39.6830,-49.4697,-19.7351
100.0210,18.9285,86.8086,18.7971,49.4884,-18.1725,7.7818,79.6742,93.5329,78.8623,83.6178,17.7154,102.6142,29.0860,98.4659,150.5179,72.5374,-85.5086,-17.5379
82.0609,-14.4593,70.4163,-17.3490,37.2039,-25.0031,17.2709,73.2979,57.7465,17.8512,97.1540,43.0982,66.8966,43.5502,69.2746,133.5877,45.1922,-96.1836,-18.7272
57.4715,-34.3231,22.9946,-29.1971,1.5041,-22.3008,26.0220,30.6672,106.5346,19.3932,57.4299,43.0231,-1.1406,24.8038,128.4676,93.4670,-9.9685,-74.0912,-15.6569
59.6872,-31.5363,22.9157,-23.1991,6.8494,-27.6137,25.9067,1.1260,158.4073,69.9212,29.6269,12.3274,-10.3732,-12.4657,176.9727,50.3779,-20.8144,-60.9721,-13.3760
52.6608,-23.6625,36.2023,-16.7162,25.2731,-22.7593,16.5216,14.4421,121.8585,73.7738,19.2619,-17.5595,17.9144,-20.5968,129.9434,42.9664,1.0449,-61.9273,-6.5107
31.4086,-17.8381,26.3851,-13.3057,15.7965,-3.7263,27.3484,28.1605,69.9364,52.3006,11.9188,-10.7712,30.4500,3.5742,69.4826,65.2820,3.9923,-59.6450,-1.5099
10.2983,-4.8034,8.9990,-9.9904,-2.9244,6.4488,41.2747,6.6640,24.0126,34.9251,15.7385,22.6208,25.8350,25.0026,14.1768,47.2903,-8.6127,-52.8851,-6.3794
-19.9308,14.2153,-19.5972,-5.5498,-26.2814,13.4278,12.4234,5.4722,-40.6773,18.1656,17.4720,45.3809,10.2824,39.5576,-55.7352,20.4086,-15.8592,-35.1306,4.9221
-33.9183,11.1054,-44.5871,-13.7273,-51.2172,21.0084,-20.8091,57.9396,-25.8698,48.2171,7.4914,39.8989,-10.2451,47.9003,-34.8644,63.8940,-25.8386,-15.9443,41.2148
-8.6653,-3.3551,-26.7790,-28.8423,-45.0252,9.4747,-19.8417,77.1337,51.5882,106.6261,17.5672,32.9435,-7.3939,37.2178,48.8827,93.0147,-31.1831,-14.6367,50.2799
13.1684,34.6023,7.3575,-4.5201,-21.3253,-7.2260,-43.1625,0.7671,3.3699,87.2524,61.9145,71.0477,23.7566,30.6007,-1.0761,11.9530,-6.7659,-8.2116,-1.3896
17.7323,95.3795,19.2154,43.2133,-11.1017,-16.3715,-93.0237,-90.6595,-115.9306,8.1738,105.2740,126.5384,46.9336,38.7815,-118.9346,-79.5645,26.7961,4.7310,-67.8948
32.8349,62.5577,28.1983,21.4253,10.5467,-50.4466,-92.6179,-109.3626,-101.0137,-21.5393,108.0220,103.1227,35.2869,13.2776,-96.4977,-86.8104,20.2197,-22.8466,-91.4350
27.4488,-25.9685,28.7596,-49.2776,35.1193,-88.9523,-76.8600,-86.8945,-42.5714,-10.9845,65.3600,14.8348,-0.7619,-39.5636,-36.2478,-68.1930,-16.6037,-53.7489,-74.1026
-10.5943,-10.5968,2.3138,-32.1333,13.2900,-57.1792,-101.6478,-82.8476,-87.5889,-21.8958,21.5534,-4.2046,-18.4697,-38.3661,-83.7455,-73.4857,-18.1011,-4.2432,-53.7386
-14.8814,89.2997,-6.7610,73.5908,-16.9954,24.8688,-81.6336,-81.1904,-116.2891,-51.4630,16.9604,56.0637,11.5399,13.2263,-109.2785,-90.6307,34.4098,80.5275,-42.8148
8.3539,121.6785,13.5527,131.3952,-0.5224,67.5633,-3.9337,-52.4670,-74.9966,-92.4470,12.1447,60.6874,39.8662,27.1296,-64.1581,-112.2386,82.5462,113.8213,-23.3564
-4.3134,77.2952,14.7379,102.9097,20.3072,50.2570,-0.4530,-24.0207,-79.5201,-116.3428,-31.9018,-13.5460,3.3606,-11.0756,-76.3686,-102.1753,82.0117,106.6700,5.3946
-15.5468,37.3588,10.5164,47.5226,17.9150,-1.3268,-49.0643,-10.3677,-92.5320,-57.4145,-50.4475,-55.9965,-47.4377,-41.2972,-111.5843,-30.3235,53.8316,78.9673,23.6459
5.8468,7.7401,24.9970,-8.5120,23.3655,-59.1632,-15.9551,30.6721,-44.0802,42.3626,-4.8229,-37.6609,-28.5635,-33.5185,-88.8144,41.1642,27.4556,49.1154,38.0997
-13.0852,-16.8196,6.1325,-43.3980,18.6712,-67.4220,38.3604,91.2365,-34.6104,64.1035,13.7898,-28.0710,15.9787,-9.0122,-85.1402,42.2322,3.3731,84.9584,64.7070
-69.6646,-18.5350,-47.7792,-33.0522,-14.7819,-18.7107,4.6208,88.7724,-69.4562,16.5184,-42.0748,-51.7508,-2.5238,-8.3870,-95.9301,-8.3051,-20.1697,150.9662,76.9032
-75.2057,-18.8887,-69.2835,-11.7147,-31.5144,12.6528,-35.5028,27.9458,-39.2064,-19.8383,-81.7417,-65.8999,-47.1892,-29.6460,-34.5219,-49.2350,-35.5426,123.2000,49.6280
-47.8305,-19.6015,-66.3440,-2.8101,-31.1836,19.3784,-12.6223,17.8836,-5.7794,-49.2515,-48.2221,-28.1491,-22.6740,-3.4839,18.3234,-31.3543,-34.1422,54.3021,13.6460
-49.7378,12.3908,-77.7672,22.9720,-57.1246,60.2548,1.4475,65.9009,-45.6510,-79.4857,-2.8133,44.1731,47.8192,78.8379,-7.1272,39.9277,-17.3258,71.8015,-0.2592
-59.7889,36.1811,-90.1980,45.6390,-82.8884,85.8337,-11.7047,59.7214,-61.1920,-73.1957,-15.3450,64.0915,44.6134,101.6293,-21.9148,84.5280,-17.3150,99.6032,-5.0289
-70.2764,-4.9839,-111.3163,14.9368,-72.7434,18.9406,-13.8768,-17.0297,-43.7059,-59.6182,-79.9104,-9.6328,-52.4377,19.0256,-31.6509,54.5720,-59.7393,44.2925,-15.4480
-95.1334,-56.0317,-131.9213,-35.1884,-51.0946,-55.1367,-46.0716,-64.5094,-99.7591,-91.4303,-115.2820,-80.0132,-113.1491,-48.2792,-106.8937,5.6976,-92.2219,-2.9136,-29.8769
-86.8180,-52.2170,-81.0343,-48.2190,-28.9207,-32.9410,-125.7388,-50.2410,-177.4050,-126.2021,-63.1953,-58.9399,-71.0829,-26.4913,-162.7754,-7.3165,-53.9513,5.7574,-41.7783
-50.6639,-31.1439,-5.2830,-39.6459,-10.9053,19.1046,-175.0148,-32.1865,-180.6814,-114.5400,-10.8805,-20.1228,-38.0093,3.5944,-145.5683,8.6224,-2.8576,-1.9595,-37.1368
-75.9555,-36.9203,-46.4590,-35.4486,-36.4309,21.2438,-170.3961,-38.9528,-161.9535,-90.5414,-71.0016,-55.5062,-84.1043,-13.7822,-138.4348,41.3949,-30.3658,-11.9584,-22.3369
-137.9767,-51.4610,-149.6155,-31.7297,-90.9586,19.3032,-166.1867,-52.6291,-146.2394,-76.3240,-163.4890,-103.5485,-113.4141,-27.3707,-121.4745,75.6829,-99.1808,31.1618,-29.0743
-129.7519,-56.1334,-146.5415,-35.7406,-103.0384,39.2435,-163.0221,-67.9758,-84.9908,-46.2771,-151.4427,-78.5358,-83.9710,-14.2533,-34.4642,71.5648,-120.0508,80.3930,-50.1572
-82.8842,-60.5066,-79.2554,-51.5452,-72.3089,28.1647,-132.1099,-98.6642,-31.8070,-24.7633,-95.0614,-37.4293,-84.1810,-22.6697,19.4643,12.8835,-106.4141,91.5278,-53.2853
-86.6327,-73.6628,-76.6233,-56.6763,-47.8559,-6.3592,-105.1294,-141.6703,-53.8581,-63.7551,-114.0182,-68.8505,-112.7885,-63.7055,-18.9956,-56.2143,-108.2647,92.0161,-61.4257
-96.4551,-81.7321,-80.0534,-36.2195,-18.9732,-6.5120,-102.9420,-167.1613,-83.4620,-117.9006,-161.0953,-138.4814,-73.5012,-92.7321,-42.3159,-71.2648,-93.0941,94.7271,-100.7708
-40.1693,-60.9091,9.4832,-3.5206,44.5251,4.6061,-79.3445,-162.4081,-60.3541,-95.4874,-142.6822,-167.7986,14.4059,-100.6397,-24.8688,-37.1003,-21.2496,85.8935,-126.0119
34.9083,-29.2060,125.5270,9.3055,115.0068,-21.6856,-26.3723,-158.1703,-32.7962,-22.8341,-79.0219,-154.0411,56.7331,-115.5874,-40.5343,-43.2703,52.9424,51.3978,-109.7328
55.8045,-29.6664,162.6175,-13.5133,140.7765,-45.7095,-4.2531,-164.6851,-36.1190,0.2415,-28.6066,-126.1316,55.7564,-122.3828,-63.9934,-108.9157,62.5070,-4.0611,-93.9086
31.3722,-44.2911,124.4939,-32.4033,110.1224,-21.0605,-15.5975,-141.1989,-40.6335,-22.6205,-13.9887,-93.6644,64.1960,-87.7993,-43.3988,-118.5365,32.0395,-14.3980,-91.6027
-0.3418,-33.4942,65.6385,-14.1652,60.1327,12.0623,-4.2995,-86.9717,-28.2902,-16.1854,-40.9595,-79.8992,80.5999,-43.9646,-18.3756,-38.2544,10.2176,56.9612,-76.1194
-36.3767,-30.0752,5.4437,-8.8450,22.0620,9.6815,14.0297,-60.5525,-15.7516,22.8061,-85.8173,-95.8410,75.2202,-37.0758,-16.9938,11.4695,-24.1959,111.2485,-57.5488
-77.2794,-63.8996,-59.9281,-55.5217,-16.8011,-11.8690,-3.9854,-63.8998,-5.3272,60.2336,-104.5538,-98.8166,38.0058,-42.8852,-6.8918,1.7993,-94.8529,74.8349,-48.4690
-93.3295,-88.9568,-108.4039,-96.4757,-55.5284,-34.2984,-15.3272,-35.0793,21.5694,93.6361,-89.8923,-70.0641,-6.3348,-28.7006,21.5232,27.2423,-145.6699,28.7337,-24.7410
-69.4202,-83.9415,-99.8738,-93.5268,-51.2453,-54.8563,9.6021,31.5605,49.5126,103.4140,-63.0156,-56.9101,-16.3446,-17.5355,39.7640,75.0125,-123.3387,36.3919,13.8375
-35.9941,-84.9599,-39.7015,-90.5046,-3.9266,-58.2738,18.8463,81.2200,48.3542,80.0695,-34.1084,-75.3978,5.5205,-27.1796,37.3377,62.9248,-66.2772,54.9439,41.5476
-17.3614,-90.9787,13.8599,-98.8528,29.5056,-45.6608,19.0929,89.8537,51.4004,78.9126,-16.7087,-85.7550,18.1535,-38.8117,41.8312,23.5865,-36.1160,63.6886,57.5862
-5.7312,-78.9064,28.6499,-81.8017,36.1122,-39.2632,64.8356,70.0793,86.5226,102.5981,-28.2229,-86.2616,18.8504,-46.5763,64.0276,13.9305,-30.6249,74.7952,59.8304
7.7187,-65.6400,45.5718,-47.0124,61.4157,-34.4781,108.5406,37.6518,90.8043,69.3406,-51.5897,-111.9966,36.4169,-63.8309,61.4486,-6.7174,-5.4328,73.9521,37.2983
34.8669,-58.8029,114.9315,-21.7961,124.4011,-18.0944,92.8696,12.2157,45.2278,-8.9824,-46.6743,-151.7375,71.8235,-91.2229,26.4642,-72.9845,61.4686,68.2684,12.9781
77.7427,-36.3388,197.2035,1.9546,180.0197,-5.4780,70.5009,-2.2247,23.5661,-44.9388,-7.0962,-152.7897,105.4007,-106.4245,13.4146,-138.6349,130.7820,78.0312,3.0901
88.2625,-4.3693,191.7380,25.6410,165.5104,-2.0896,72.1351,-25.5215,10.1857,-62.8529,30.1922,-91.6784,115.4851,-77.9760,5.6134,-152.8220,135.1457,80.9802,-19.6926
43.2458,10.3719,100.4784,30.9105,91.2706,4.5058,63.8677,-53.8200,-49.0488,-111.6569,36.1587,-12.3546,86.6462,-19.8967,-44.8008,-122.9055,78.1867,64.6545,-51.0403
15.4928,4.1337,46.3746,20.1720,45.6723,2.5635,58.6597,-56.5580,-59.9676,-116.9389,23.4720,14.4471,42.7144,0.9245,-55.7959,-85.8940,36.5918,53.2598,-48.5755
44.2198,-8.8778,69.7007,9.1907,54.5939,-12.2562,59.4652,-35.2456,26.8118,-45.3678,18.3691,-8.8753,25.7682,-22.4095,28.7607,-42.3160,37.1569,53.7006,-27.4461
62.1118,-9.4070,83.1716,7.9442,48.9709,-6.1241,25.1160,-17.8414,63.6073,-7.9154,26.5082,-6.0293,34.8707,-14.3965,79.5284,23.4047,41.1507,61.3635,-32.5313
43.3364,14.7560,56.9798,26.7482,12.4332,28.6324,-1.0818,-4.5533,5.3509,-50.3280,40.9637,45.9759,40.7124,39.3083,34.4857,68.5706,42.6026,74.1887,-41.2848
36.3290,54.3671,32.1222,62.2544,-16.8385,55.1440,33.6813,16.1076,-10.6083,-73.1940,53.6913,100.8147,23.8593,78.4149,9.9172,66.6221,52.5633,73.3042,-15.0542
35.3926,92.8718,-6.0771,90.4525,-57.0174,56.6984,54.3361,29.3175,27.7560,-24.8252,55.0899,144.2499,-17.1741,95.1014,32.1060,81.7834,40.4281,60.8598,17.9828
10.9195,114.6465,-67.8225,95.5569,-109.3705,45.7750,24.7152,27.6780,31.6085,28.9355,48.9579,176.0998,-40.0783,112.0334,30.8066,116.3900,0.1376,64.6052,20.7967
-1.4396,106.3275,-89.0062,85.7180,-107.2934,36.0961,25.5963,35.6255,36.4081,38.8666,52.4699,165.2800,3.7573,110.0918,43.9606,85.1322,-16.3319,72.7743,8.7800
29.4040,85.7595,-39.8955,78.3355,-54.1787,38.7640,54.9630,56.5616,82.1777,34.0706,72.9000,131.1856,76.0926,93.1615,105.5510,38.9919,12.6499,65.2093,-0.5548
83.7000,79.0838,40.8716,73.7714,-12.7445,35.4441,47.2048,50.7962,108.6175,43.8957,111.5129,134.8435,107.8482,92.0723,139.6096,86.4734,53.2096,58.4178,-25.8039
133.7463,64.1244,110.9691,49.2307,21.7219,-8.1931,34.0723,0.8885,103.6690,47.4174,161.7046,158.4784,107.7544,84.1137,128.8008,129.8414,69.3173,38.4620,-73.7856
136.7594,23.4498,109.2904,3.3386,41.4952,-61.8781,40.8854,-53.5593,100.2808,28.8209,181.3054,154.0545,93.3592,53.1519,123.4890,59.9988,35.0461,-22.8195,-108.1404
70.6530,0.2904,7.5391,-23.0748,-12.5002,-62.2053,21.7597,-67.9583,84.7509,19.6881,137.5648,146.6170,39.6283,47.7610,113.9983,2.7334,-41.1656,-74.5658,-96.4726
4.2531,18.5748,-92.1378,-10.0341,-94.9299,-26.4569,-11.5619,-39.7826,62.0289,40.4522,78.4500,156.9604,-23.6586,75.4127,89.0282,50.9511,-90.1128,-60.6186,-54.6702
1.2746,46.9655,-91.0612,12.7822,-106.5312,-12.3855,-27.5434,1.3744,53.8349,70.7802,67.4815,154.7899,-34.5682,83.7217,68.9033,95.1707,-67.4156,-18.1887,-16.9586
21.7440,64.8856,-44.3087,17.9647,-77.4739,-16.3163,-45.8523,32.0331,45.6533,108.2041,89.5151,143.9505,-12.2726,73.5046,47.8401,87.9353,-26.1792,-1.4481,9.6414
23.5478,60.2459,-28.1364,-2.5000,-73.5231,-14.1458,-37.7449,64.0994,55.9039,161.6145,106.2906,149.0378,6.1176,82.4831,46.0941,101.6013,-26.4483,-16.7991,34.9973
21.5253,26.2448,-31.2684,-41.7736,-74.1427,-12.9650,22.3530,117.1124,98.8205,198.4459,123.3204,156.1047,39.1581,106.0134,84.0675,131.3976,-49.7963,-52.3891,57.5094
12.7185,10.3924,-49.0119,-58.9070,-74.4423,-10.8331,48.4589,161.6392,99.9578,189.7043,141.9504,162.4236,79.5590,128.4861,91.1711,129.9028,-59.1644,-83.7775,64.7893
-10.5919,38.7950,-91.5390,-29.4627,-96.9388,2.2109,7.8270,147.8220,46.0513,146.0783,135.8823,176.2215,82.7726,141.7965,49.0560,104.2780,-59.7194,-93.6256,46.8113
-21.2970,46.7566,-118.2160,1.6986,-104.1687,12.4979,-11.5484,85.8186,32.9958,76.0087,97.1575,158.8046,46.9404,119.1081,53.3357,54.4559,-64.0887,-96.7321,13.6607
-14.5855,14.2249,-102.2868,2.7751,-73.4287,10.1576,7.5915,32.1884,62.9138,11.5126,47.8167,96.5546,1.4098,62.2178,94.4382,-12.9888,-61.7587,-96.7978,-0.9216
-8.4479,4.3976,-75.9064,-1.9529,-48.5392,-0.9274,28.6166,24.0041,74.5141,23.2024,24.5314,56.9761,-21.3111,26.8645,88.0809,-36.7378,-49.8995,-86.8118,18.7410
0.3530,9.3617,-63.0898,-19.2887,-46.3926,-23.8067,72.9671,65.1002,90.6637,101.3384,53.2903,77.6733,7.7125,44.1131,73.0814,6.6786,-51.9477,-83.9943,45.5562
-1.0731,-13.8620,-60.2893,-64.7523,-51.2417,-43.6060,105.1770,117.0884,93.2742,144.7077,98.8382,111.8664,50.7953,80.2849,66.4937,56.1335,-72.8935,-71.1247,57.7692
-32.4390,-18.2687,-61.0536,-79.1797,-62.4985,-27.2784,58.8366,115.8186,21.7220,120.8996,87.7463,110.1118,35.3006,86.3572,-2.0755,50.8925,-76.1147,-3.6835,67.2240
-59.9413,8.2556,-57.0187,-36.5802,-62.3548,13.3843,11.5957,64.2433,-28.8913,79.1071,14.6122,59.3631,-15.4850,46.9877,-51.9708,-7.9524,-52.3972,74.9068,76.0640
-57.3572,-19.0798,-56.0195,-24.1735,-35.8511,20.5053,34.9726,28.8264,25.5002,33.0031,-46.6251,-16.4698,-31.2246,-7.2791,20.6503,-66.2065,-52.1238,87.5672,61.1162
-57.1624,-89.3905,-72.7739,-77.7819,-15.1951,-29.3210,35.4570,10.2083,43.2073,-21.3066,-43.4696,-52.4979,-22.1374,-34.1516,63.9676,-86.5780,-91.0969,55.0413,14.1652
-68.0196,-96.1081,-86.6649,-108.8942,-18.4151,-84.2998,-34.0113,-35.1124,-57.4916,-54.3109,0.7575,-20.3005,-17.9916,-28.0298,-37.1088,-91.6830,-111.1086,30.2612,-40.2603
-64.1652,-43.0894,-73.6972,-70.6038,-24.6310,-74.9463,-93.5824,-74.4347,-132.2274,-57.8065,16.7599,11.5340,-12.0100,-13.9091,-119.6596,-81.0126,-81.2047,22.4497,-66.9118
-54.8053,-10.8640,-47.8948,-15.3799,-25.7279,-11.2921,-126.2083,-76.2914,-121.8890,-64.9796,-34.3169,-21.1721,-29.5474,-17.8656,-99.6120,-28.2796,-35.9761,36.0458,-57.7446
-48.6608,-6.1275,-22.0029,16.6040,-13.1203,20.4430,-161.1106,-96.9928,-124.5166,-101.5718,-95.5918,-79.6806,-84.2210,-52.1722,-97.2840,-4.0708,-0.7869,42.8407,-50.1995
-23.2468,-7.6335,4.2126,23.9059,22.8500,-11.8104,-170.0573,-140.2354,-140.7658,-153.4361,-85.0054,-96.5135,-108.4283,-89.2786,-115.7919,-64.1521,23.5161,-6.6940,-72.3527
12.7751,-26.2223,18.7422,6.4670,48.0420,-45.2202,-148.6490,-119.8164,-98.8101,-164.8377,-30.5646,-79.5886,-74.6850,-86.3892,-61.1988,-78.3979,28.7088,-68.5074,-89.0934
29.0353,-50.3979,21.4880,-15.1863,38.4838,-41.8729,-125.2409,-47.1969,-26.6320,-112.6198,-20.7414,-78.1985,-54.9979,-60.8663,17.5652,31.7551,20.2436,-72.7099,-66.8528
29.7250,-48.5241,26.4831,-7.3934,29.4883,-27.6600,-91.3572,-30.8946,4.3545,-74.7205,-52.3011,-92.2095,-73.6641,-58.4035,31.3030,98.2173,21.3551,-58.9618,-43.0173
30.6717,-26.0390,38.8448,21.1668,46.2376,-15.6704,-61.3296,-82.4405,-17.6152,-107.2388,-60.1592,-91.3128,-67.7139,-71.5003,0.4268,17.3671,37.5897,-68.9361,-58.7975
40.3542,-19.2598,75.5210,24.9348,80.8808,-12.6394,-66.0863,-122.9111,-47.1442,-128.5760,-38.5633,-93.2365,-20.9640,-84.0045,-24.1956,-66.1431,58.0270,-68.3492,-88.9605
60.9244,-44.9869,127.7716,-12.6474,114.7955,-41.5825,-75.3831,-123.7809,-36.7216,-74.7821,-22.2002,-117.8869,2.0749,-105.3900,-25.5451,-43.0044,63.7567,-61.2170,-93.9509
58.3960,-72.3897,116.1875,-53.1533,97.1006,-75.8793,-82.1990,-111.6160,-16.9520,-26.8507,-20.2451,-113.3045,-40.3391,-107.7093,-18.8062,20.6787,30.1149,-71.6507,-79.6244
6.5059,-65.4870,20.2545,-54.1888,14.8836,-57.3125,-126.4646,-109.9325,-50.9301,-57.4835,-34.0673,-58.2252,-103.9502,-65.3038,-34.4097,49.0990,-27.5150,-64.1362,-74.1469
-43.5325,-44.6140,-47.7423,-23.3200,-38.8752,0.3184,-155.9776,-118.7419,-95.6457,-116.2415,-72.0580,-38.4779,-120.6802,-32.2061,-54.4489,38.8997,-49.7025,-40.0396,-79.1608
-40.0494,-37.2225,-23.7754,10.5260,-12.5373,41.6857,-90.4717,-106.0594,-71.0223,-125.8952,-120.6842,-90.3870,-97.8225,-45.3738,-41.4963,33.0985,-15.6819,-45.6140,-59.8518
-12.0646,-12.5695,21.0666,46.8658,17.4934,61.3490,9.8254,-52.3937,-9.8363,-67.8214,-146.6182,-124.7174,-84.4219,-54.4302,-21.5721,69.4070,34.3615,-48.1961,0.4091
-2.5694,36.2095,23.0538,79.7517,2.0751,72.9646,49.2533,3.2101,24.9504,15.9590,-135.2971,-95.2586,-69.8055,-30.6276,-14.9777,107.7909,55.4386,-9.1730,52.9681
-18.7557,42.6345,-18.4447,65.4769,-27.5426,61.0219,42.5012,25.5188,38.2991,63.4619,-105.1009,-55.3071,-35.1233,-4.4003,4.7803,99.9475,20.1528,12.6497,52.9614
-45.5013,-10.7115,-70.5854,-5.1265,-48.7817,15.0199,39.5018,35.7729,38.8532,74.0996,-75.3068,-35.4909,-23.5842,7.4296,15.8247,89.2546,-50.7872,-19.6796,36.2350
-36.3929,-46.8750,-56.9745,-57.8899,-31.7376,-39.9530,51.3525,53.6421,31.6218,91.6202,-41.8591,-34.0301,-36.8188,-2.3160,-9.8425,99.3587,-65.2912,-55.5111,46.8230
22.4328,-22.5123,34.0083,-31.5694,36.3988,-60.2754,57.6897,65.5762,35.1648,94.3159,-10.7812,-58.9643,-16.8917,-35.2180,-24.5937,78.1130,16.1364,-51.9038,60.4023
45.5864,9.2342,70.3202,19.3575,67.9366,-32.8957,22.1078,66.1469,22.6261,39.5636,-12.8240,-83.1524,8.0371,-50.3188,-15.3562,37.8716,78.2622,-13.0458,52.0227
-18.0030,-12.8390,-13.1687,-0.2362,7.0703,-4.0301,-34.9028,67.9429,-25.6255,-19.3532,-43.2138,-69.9326,-26.3095,-23.2621,-28.9911,37.7606,21.1247,22.0752,46.1828
-80.2488,-59.2665,-90.0998,-64.6219,-51.2531,-12.1052,-41.6135,73.0786,-58.9745,-17.8236,-54.7499,-43.1159,-68.4941,4.0246,-60.5107,54.3602,-65.0542,16.4747,55.6190
-68.6701,-42.0834,-66.5072,-58.2431,-35.9668,-27.5197,-12.5876,56.2537,-75.9740,1.8396,-39.6811,-30.8283,-62.2348,0.7488,-104.0064,40.4009,-50.4733,4.2223,56.9423
-31.1740,33.2897,-7.7085,17.5126,-2.8084,-22.5807,-20.6929,-8.1238,-124.2828,-18.8786,-29.0387,-16.4580,-58.7229,-15.8358,-174.7533,-0.4940,23.5425,22.4783,33.8529
-17.1902,56.0522,8.1863,40.9355,-1.2614,-18.7086,-47.0548,-84.2836,-142.7434,-47.9552,-19.1574,10.7417,-74.0723,-22.1849,-184.8633,-38.9269,31.3088,18.5710,-9.3181
-13.7566,12.8682,-20.5006,-0.9590,-25.5612,-22.1334,-37.9764,-102.6468,-66.3933,-29.2673,5.8197,45.7677,-50.2942,0.2315,-72.9009,-22.0781,-30.9837,-20.5133,-53.5437
-5.3246,6.4202,-45.3897,-6.2391,-48.2370,-18.9640,-9.5523,-74.3043,5.8982,17.5190,23.9406,74.1331,-0.1260,33.9071,16.1765,40.1229,-59.4044,-18.6411,-70.7073
9.8089,32.0412,-11.6070,21.6738,-19.6951,-19.4277,21.2738,-65.2335,-3.0092,25.3478,20.0953,55.8478,17.7578,20.7184,-15.0808,25.1107,-17.9873,6.4226,-53.4535
28.0795,6.7578,58.7605,5.7122,47.7179,-21.9216,54.8214,-69.6407,-14.3812,-9.9998,15.0331,-1.0586,12.6511,-27.7155,-41.4044,-68.8573,24.4184,-18.1297,-27.3717
38.3839,-22.0826,83.7934,-16.8966,62.8713,-9.3224,51.9869,-52.9522,7.6737,-23.1157,21.6823,-13.5384,13.6315,-30.4053,-4.1110,-68.8258,28.7723,-34.7222,-20.7904
41.8980,15.7341,59.6198,15.3937,23.8497,-3.0579,7.9021,-45.1094,1.8851,-4.8446,31.2022,28.8129,15.1242,4.9926,-0.3893,24.6210,30.4080,9.1778,-37.9939
40.9515,45.6669,41.8709,43.1813,14.4899,-18.8143,-12.3245,-63.6819,-28.9463,-16.0465,33.0963,41.6246,14.1919,6.7196,-35.8758,30.4420,37.7545,26.8694,-56.5369
23.4524,13.2444,28.7318,15.0192,27.8629,-28.0573,6.3506,-71.3913,-41.4308,-51.2762,25.3768,17.5917,7.5895,-12.2306,-47.3477,-43.1558,19.1663,-20.6387,-53.2921
3.5882,-8.2827,4.5818,-14.2897,14.1625,-31.1720,12.3286,-61.9482,-44.4994,-46.3088,24.2136,21.5546,-15.3134,-9.5642,-54.1779,-61.7734,-9.8240,-64.8682,-35.3312
10.7264,16.7563,-5.1454,-4.2090,-1.3224,-44.4925,-4.5141,-42.1594,-37.9376,-6.0456,41.6970,46.3025,-35.1023,-2.4191,-59.7374,-40.9379,-5.7579,-78.0836,-13.3593
30.0271,48.4364,6.4222,25.0706,1.2081,-29.2234,-4.8247,18.8917,-1.8362,29.1955,57.0428,52.2613,-17.9687,7.2651,-24.0080,-27.0014,29.4497,-61.3337,27.1874
40.4424,80.3782,26.8411,60.6977,3.5339,23.7409,27.1919,99.1544,36.5488,65.7256,59.4049,54.4888,34.3350,37.1842,15.6890,5.1408,71.1311,-15.7742,74.9294
56.6807,108.8386,53.8236,86.4504,15.9865,42.8273,58.1992,118.3419,50.7276,100.4154,69.9899,62.4141,79.0416,51.0005,18.1081,18.3645,100.7332,-7.5166,84.4929
69.7043,94.1133,61.6462,70.4366,32.8161,12.0923,51.3221,87.2580,61.0435,104.5867,79.4085,51.8347,70.8031,26.5220,25.8867,-9.9256,92.6452,-64.5686,64.4900
50.2644,38.9047,33.7794,20.5950,21.5166,-4.6797,31.8796,89.9356,72.3882,90.0787,59.7404,25.2710,30.4724,12.3008,50.0738,4.3509,49.0431,-100.3769,64.3900
23.0045,-1.7255,12.9597,-16.4022,6.4529,4.6497,47.1887,123.2305,67.0785,83.1072,40.2754,10.6012,32.4550,28.8669,49.6917,54.6473,18.6896,-84.7218,74.8594
29.9461,11.3169,32.9212,-5.8249,22.2781,11.4355,61.5421,114.4647,52.7923,79.3927,55.9167,18.8314,73.2052,35.0667,33.6244,29.1047,35.1254,-72.9850,61.8245
62.2444,67.0148,78.8407,48.2611,48.2570,22.3814,19.5226,50.8753,41.9294,71.2296,73.1952,31.4218,76.9005,9.9763,27.1543,-56.7904,85.1539,-57.6903,38.5066
86.6078,99.8236,119.2690,91.8931,68.1914,34.8293,-27.7382,-13.9365,37.7368,50.7659,56.9733,16.0543,49.4348,-25.1831,30.5858,-97.6804,124.2456,-25.8614,16.0143
76.4650,60.5428,98.8300,75.3514,65.6314,29.3154,-17.6631,-35.3955,61.6614,20.0892,18.9479,-20.5562,38.5707,-40.6162,69.9731,-73.7449,95.2314,-24.7285,-11.9577
29.3404,1.2863,6.4279,31.3812,12.9798,25.4563,10.9528,-20.9424,111.1551,14.0581,-25.7661,-32.9813,16.1365,-27.0852,140.6986,-28.0546,6.4479,-32.2841,-19.8159
-11.5353,-11.8843,-46.5627,16.2910,-28.2193,35.8669,21.6758,-16.6963,111.8862,19.7462,-56.5142,-26.5271,-14.5228,-15.8826,142.3501,-23.5559,-39.9235,10.1314,-2.9501
-13.1204,-7.2205,7.2561,18.1013,22.2909,30.1449,33.6003,-51.7167,16.8198,-40.3976,-48.9872,-47.5114,12.0049,-36.4799,28.6246,-105.9850,1.2423,47.4463,-14.7109
1.0082,-20.2724,66.1743,13.6226,91.9613,7.0732,29.0836,-111.9977,-82.6494,-144.7026,-29.8304,-79.8333,48.9571,-67.9091,-74.0396,-197.4769,44.9334,13.1186,-67.3544
14.8105,-33.5407,58.7253,12.3599,86.3661,-5.8486,-17.4506,-167.2653,-70.4316,-176.3496,-35.2103,-81.0389,11.6953,-82.9463,-40.6386,-180.8608,30.7026,-48.1318,-114.5018
31.4004,-52.9140,40.5215,-3.0028,54.0180,-14.5234,-54.2475,-183.6901,5.6837,-134.3146,-37.9461,-64.9564,-25.7454,-78.2827,57.6597,-90.2497,-6.8102,-77.5844,-139.4642
18.5469,-82.0037,29.2220,-42.7019,38.7271,-16.1927,-38.2493,-142.2318,6.4267,-114.2171,-16.8609,-43.7203,9.5478,-42.1603,63.5362,-29.8980,-35.1986,-55.5030,-138.6991
-31.4257,-72.5337,2.5478,-52.1534,8.9993,20.9447,-19.1543,-86.2528,-76.7745,-132.6177,-9.6425,-7.8974,35.9929,12.3010,-29.1923,-25.6230,-42.5146,17.1007,-99.5538
-60.6099,-31.6975,-7.6717,-15.4451,-8.2304,66.9801,-36.5220,-88.5544,-135.4543,-161.1626,-31.2172,2.9292,13.6808,21.1363,-92.7058,-80.9176,-22.0258,70.5644,-67.8332
-52.8854,-26.8670,-4.9912,5.2758,21.6429,52.5654,-36.8278,-145.0835,-128.1488,-196.9775,-50.0958,-35.1743,7.2490,-28.5444,-81.5738,-190.6577,-11.5922,35.9358,-91.1880
-47.7344,-39.6299,-28.5535,1.1096,45.1893,3.6816,28.2043,-174.1190,-95.7564,-207.4509,-48.9824,-55.3200,20.8880,-63.0073,-61.8446,-282.9755,-30.5576,-23.9974,-108.8488
-41.6077,-24.0813,-27.3633,4.9220,46.8338,-1.2279,108.2250,-126.6074,-62.0728,-162.4582,-28.3783,-31.5997,33.2889,-49.1484,-56.8311,-301.8637,-24.5712,-22.6360,-59.2460
-18.5180,-38.3374,40.0915,-24.3821,77.8445,14.4794,137.4568,-35.7774,-23.8805,-86.8254,-0.9147,-43.8690,69.3724,-39.5339,-34.5463,-260.5211,9.3997,3.0134,6.8495
-2.0144,-106.9787,92.5807,-102.8169,115.4191,-17.0934,139.5516,44.7842,30.6157,13.1274,1.3849,-110.9125,96.9852,-62.0362,5.7115,-166.2272,4.6959,-7.4656,46.4504
3.4518,-128.8234,75.6545,-130.1891,99.4293,-52.0363,158.5309,104.5036,109.0449,127.9800,-24.7208,-144.5301,69.1347,-73.2060,56.3663,-41.2900,-21.3747,-33.5026,89.3695
7.1526,-79.9280,30.6804,-71.6671,50.8869,-14.5447,173.0985,149.1552,176.8369,169.2314,-49.3327,-119.7401,39.7825,-44.6553,124.1001,31.9681,-15.6907,-47.6145,126.8124
-6.1939,-58.9791,-13.2483,-27.3376,17.7564,46.6853,166.8094,156.1382,198.7470,114.2771,-70.5251,-102.8058,44.7472,-15.2454,183.5103,23.6543,-16.6367,-57.4987,118.3721
-17.1901,-63.9888,-32.7609,-22.0178,7.3762,56.1695,161.2597,122.3758,202.4157,91.4922,-90.0395,-107.1913,41.5717,-18.9483,201.2110,7.9494,-34.3477,-51.7144,92.6257
9.0731,-13.7052,1.0907,16.4156,12.7076,49.1239,150.2728,100.5010,208.5984,148.9373,-82.1009,-91.0007,38.1046,-26.8292,185.1281,28.3220,-1.7719,-6.8186,95.3719
34.5663,34.6951,40.7375,56.8255,24.8081,59.4527,138.2164,109.6359,195.9198,165.0655,-59.5450,-69.4486,52.2562,-19.4924,163.0050,35.3907,48.1072,44.7440,107.5081
28.0687,-17.5450,37.4856,15.4738,41.5053,35.4598,160.7085,99.4194,182.8925,91.4790,-53.9243,-82.8693,37.5535,-32.2581,162.2837,-6.9354,27.3534,34.6830,93.1647
33.6527,-94.9498,38.5821,-53.6147,67.1104,-20.6780,163.4036,56.7564,182.4077,20.5770,-33.7729,-98.5532,11.2621,-62.3464,179.8829,-56.1443,-12.6611,-27.3016,50.0317
50.7369,-83.1801,55.6446,-52.2945,73.3319,-29.4921,68.4935,26.5116,135.1671,-12.0746,13.3582,-69.3831,29.8215,-54.8451,161.1935,-65.9587,3.0205,-48.2924,1.5262
29.6559,-27.2101,23.1557,-7.7800,33.3099,2.9401,-26.7381,21.2020,55.2892,-44.9731,25.0402,-23.2032,31.9809,-18.3946,102.3664,-55.4562,18.2272,-6.5779,-14.0709
0.8363,-4.9853,-36.8904,10.8692,-12.5422,1.1525,-9.4115,24.8971,41.8354,-52.7957,4.6115,5.4307,-23.7304,-4.0916,75.0902,-51.2733,-6.4370,15.9716,11.6735
10.0381,4.0553,-38.8536,2.5368,-16.6218,-33.6416,22.4245,28.0012,54.2277,-3.4666,24.7313,29.3491,-41.0446,-3.9445,57.5746,-40.7032,-15.4611,-8.5395,28.5637
18.0239,11.0776,4.5593,-16.6868,8.9355,-57.1827,-20.3202,0.0614,-12.0621,29.1756,58.5394,35.0704,-6.4922,-8.3057,-26.6992,-42.7951,-0.0607,-27.5674,4.3631
5.0775,-14.4777,28.9986,-39.5850,34.8283,-66.8716,-51.1594,-64.2532,-73.8898,-13.5366,37.6824,-2.1644,-21.3107,-42.9360,-89.9707,-93.1754,-2.7281,-28.4290,-26.8674
11.8024,-37.3075,29.6082,-38.5969,42.0914,-61.5485,-45.5998,-95.2031,-30.1015,-53.1957,8.8402,-30.1991,-58.7101,-72.4404,-26.9283,-126.9579,-10.2165,-25.8563,-37.0109
30.5342,-6.1053,27.6105,-4.2885,23.7054,-29.0000,-80.2068,-52.5804,14.1523,-26.2133,24.4490,-6.6086,-27.8770,-42.5732,43.0802,-68.2417,10.5622,-2.2446,-33.8951
22.6356,30.6309,28.0932,25.6542,8.8236,11.9462,-110.4374,11.0225,-22.9872,-9.1256,30.4623,6.2758,20.7384,0.9244,8.6795,6.2611,43.6076,32.4796,-14.6164
0.5755,9.1926,27.8867,17.3256,18.9716,34.2309,-57.0848,44.2834,-50.4820,-54.7870,0.9469,-24.2412,18.5965,4.6133,-29.6199,0.8645,50.6524,35.9714,16.1660
-11.5825,-35.5241,21.4023,-20.2016,24.9125,30.1115,10.4030,36.1030,-37.6422,-89.6348,-3.2167,-26.3901,6.8127,3.1811,-19.0627,-38.6305,20.0092,12.5226,19.2565
-6.3690,-40.3131,28.4871,-45.8866,22.7510,3.2960,17.7238,-9.9849,-58.3451,-77.2984,39.6105,22.5618,17.0547,16.2975,-47.5238,-57.1504,-3.9794,-11.6633,-14.7914
28.5331,-9.6817,78.5770,-32.6346,50.3205,-22.2503,3.5013,-49.9544,-96.3070,-71.9256,89.6157,56.9791,32.4692,14.8369,-102.1011,-74.2806,30.9748,-37.0900,-41.7751
70.5325,10.0296,135.2842,-12.8553,87.9477,-27.0198,-0.2392,-37.9022,-90.9255,-72.0988,120.5900,56.1830,49.6959,6.4497,-101.7668,-76.1050,84.2627,-56.0331,-37.3001
68.9598,2.0882,130.0504,-25.5400,80.0811,-28.6709,-0.0163,0.9014,-66.8259,-29.4958,118.3357,49.0560,54.8864,13.1111,-81.6206,-28.8209,77.1099,-54.9627,-16.3525
34.7643,-4.5151,70.6652,-38.4164,35.3829,-33.7298,16.9795,34.5910,-43.1300,38.1240,81.1312,41.6963,39.5920,26.6528,-74.6906,47.7120,30.7921,-45.6067,9.3367
22.1581,0.6197,19.8127,-26.7406,-4.3580,-25.5195,49.4931,70.9111,15.5687,87.3918,52.4711,44.7416,36.0930,46.9995,-19.2719,126.0126,1.7464,-41.2470,26.1315
33.7737,-19.8303,2.4210,-43.2025,-26.1492,-25.1059,71.6560,82.4252,84.3171,100.2857,70.8522,77.6665,36.2561,70.1334,69.7298,166.6950,-29.1671,-50.8795,15.6326
37.7475,-56.1346,1.8163,-89.4957,-28.5595,-55.1663,72.3738,36.4182,82.3534,65.0060,109.3271,118.2368,-0.7726,68.4173,78.4585,114.3243,-66.2571,-83.7746,-8.7958
34.2697,-37.3194,2.6251,-82.3798,-17.1093,-83.9572,50.5450,-16.6866,12.9795,25.3789,124.6795,131.2049,-32.2971,47.4881,-6.9306,29.7769,-57.4460,-118.6350,-21.7210
38.8948,19.6635,0.2804,-32.0537,-12.2101,-94.7694,16.7817,-18.4357,-28.4471,57.6098,116.3261,117.8416,-9.6667,39.5007,-71.2449,49.3360,-20.4882,-129.1470,-25.9306
42.3573,24.4369,-6.8278,-31.7922,-23.1549,-102.6061,-8.1363,20.9158,-2.1060,127.6390,105.5812,99.6519,7.8421,44.1694,-50.5359,143.6145,-21.7632,-123.5267,-17.0349
27.4071,-1.9403,-13.2914,-63.6736,-37.2216,-85.7408,-31.1957,72.9408,13.5573,142.2311,104.2541,94.2883,-9.7827,52.5502,-21.5487,159.6329,-36.0246,-99.2825,22.7763
4.3077,16.4720,-5.3584,-52.6584,-33.5367,-40.8336,-63.3537,100.4796,-40.0431,109.9278,109.7873,96.2163,8.5717,61.8325,-62.8774,78.4258,-10.3106,-49.3814,55.3347
-1.1475,37.9829,8.8144,-26.5766,-9.7503,-27.6413,-79.9151,64.5995,-86.9019,76.2524,106.5831,79.9628,60.8841,50.6287,-102.1180,6.2829,13.6062,-18.3504,23.0900
10.6910,17.1826,-2.6542,-21.6295,-1.9759,-47.1727,-74.5325,2.6224,-50.2417,33.9208,85.9307,58.3948,56.6420,24.5679,-43.7201,-6.0437,-5.3803,-24.7392,-35.8663
19.1420,23.7806,-23.9744,6.2611,-26.4071,-30.4010,-77.7329,-25.0744,-1.4010,-2.0146,63.1567,70.6070,1.6233,21.5818,27.4070,2.6215,-13.6799,-9.1910,-45.6854
14.7182,75.0820,-9.6933,55.1531,-39.8982,16.5526,-96.9051,-48.4297,-29.7786,-6.6834,47.2061,91.4225,-22.5197,29.3428,-5.6868,-18.9459,16.7904,43.6992,-29.4271
-9.6703,85.6225,-2.8164,62.7174,-37.5123,35.6307,-122.7125,-96.2050,-83.8122,-11.1238,17.7861,72.3839,-16.2160,16.1867,-64.7524,-56.6474,17.1235,85.3436,-45.5338
-49.3741,53.0618,-57.8421,42.4236,-64.7387,35.1548,-147.1475,-115.6842,-83.6046,-26.3909,-30.2039,39.5315,-28.5946,5.5181,-45.0712,-48.7283,-33.6351,115.0549,-67.8008
-66.2530,43.4841,-92.0435,45.9550,-88.6369,44.0830,-143.0318,-102.8161,-64.2510,-37.2067,-64.0356,26.2012,-53.3497,7.8472,-17.3236,-13.4949,-52.8176,145.6137,-60.0375
-55.4653,37.1785,-51.1718,49.8004,-60.0938,53.0717,-118.5598,-123.2857,-89.3584,-81.7266,-71.6528,10.4517,-64.2051,-4.0938,-50.8008,-30.4370,-25.6746,144.6118,-61.8934
-71.0508,4.8989,-47.3354,27.3165,-49.9936,65.0980,-132.1215,-163.3545,-137.2007,-157.9068,-77.8439,0.5186,-63.7375,-6.4641,-79.7732,-69.0142,-37.2129,122.9422,-96.9869
-105.9429,6.1729,-104.7208,24.5265,-98.2741,91.0191,-178.5203,-157.9535,-161.6967,-173.8878,-79.9832,31.7081,-54.3441,31.5537,-76.1424,-43.6931,-73.4231,135.0546,-115.4387
-90.1667,60.8744,-87.0277,60.7787,-107.9302,101.1911,-191.9758,-126.5096,-168.6411,-116.4245,-56.5196,66.5707,-39.2179,55.6257,-101.0345,3.4681,-38.5725,169.7510,-90.1715
-48.5791,90.1079,-13.3799,75.8049,-60.6417,68.4626,-166.6238,-121.1572,-168.2448,-61.5049,-36.4993,53.3741,-45.9417,23.8359,-146.0708,-4.0915,17.6890,183.7968,-56.3258
-60.9102,61.9442,-33.1368,42.8497,-58.6473,22.1842,-139.7621,-130.0314,-147.3782,-28.9353,-55.5242,25.3376,-81.1652,-10.8447,-147.0527,-29.5583,-16.7509,182.3694,-40.1973
-96.7454,35.1905,-100.9391,17.3601,-95.4546,10.1414,-130.0494,-128.7460,-132.2565,-28.0181,-76.7152,26.5402,-98.6691,-5.2956,-123.9692,-30.3716,-75.9893,179.4796,-43.0775
-88.9107,37.7599,-85.7104,26.8531,-87.1992,33.4572,-151.8761,-128.0316,-162.7782,-88.2003,-55.3134,42.4224,-74.5625,14.7359,-131.2127,-34.8861,-54.2119,169.6866,-64.9982
-63.5492,36.0453,-33.8916,27.3884,-59.1360,53.1525,-175.6306,-125.3280,-190.3175,-140.7766,-18.4708,56.8541,-55.6521,26.1886,-140.4940,-46.1680,-14.7800,154.8647,-77.2722
-62.2291,21.4562,-27.4568,5.1380,-65.3344,60.1889,-139.9474,-93.6046,-158.1166,-111.5991,-8.7237,71.8744,-72.5909,37.5354,-117.3067,-35.9536,-25.1262,143.4224,-40.5774
-78.8674,20.4434,-41.1776,-0.8458,-80.5021,77.3818,-89.0014,-46.1617,-140.4912,-75.8965,-23.9837,72.8718,-83.0382,52.5099,-120.3794,-15.9907,-33.6931,145.2860,10.7335
-105.2546,28.0619,-58.0384,6.6391,-81.6166,83.4201,-109.0498,-41.5224,-201.7041,-92.9123,-43.9422,50.4826,-57.2502,55.4768,-186.1951,-12.7454,-29.3605,158.3905,3.5507
-121.5119,17.5996,-79.2424,-5.9544,-76.0267,47.2437,-140.1731,-84.3193,-238.0736,-90.2914,-56.5730,22.7700,-30.3901,34.0855,-223.6249,-24.5171,-52.3610,156.3271,-43.7770
-103.1886,-1.9698,-72.8023,-19.5536,-61.1555,17.7909,-92.1773,-98.6468,-165.3878,-47.0779,-63.0177,3.0498,-29.6058,7.2680,-160.3728,-32.9906,-69.6851,140.2719,-48.3278
-76.7887,-6.2511,-51.3679,-7.4912,-49.6809,37.4221,-22.1745,-53.7957,-72.3464,-25.3479,-71.0530,-7.6572,-36.9458,4.0302,-69.2669,-22.3264,-52.2478,144.1479,-5.6148
-68.8369,4.0845,-52.5927,7.9245,-56.1808,55.1599,0.0145,-11.2730,-42.9288,-19.2811,-68.5000,0.9475,-32.8425,20.8986,-37.9198,6.6246,-38.7212,151.9086,19.6771
-58.7682,20.1763,-51.1291,14.4924,-60.5772,46.4763,6.0427,-1.1299,-51.3684,2.3706,-44.3893,27.3514,-8.0234,43.2386,-55.6122,50.1737,-32.9599,129.6043,10.1629
-48.9415,28.2491,-31.1557,19.3498,-54.1969,55.0396,21.1403,11.1458,-68.9991,15.5807,-30.7018,38.5544,34.8207,69.2588,-82.0351,113.6005,-17.4263,108.8664,-4.1462
-52.6386,12.9840,-20.7649,9.8176,-49.9977,69.2557,34.7190,24.4085,-70.4180,20.6476,-43.7945,22.1876,58.7478,79.3777,-83.6990,162.9122,-17.4965,110.9738,-9.1639
-34.8586,5.1546,-10.6808,2.6398,-42.2844,51.6746,50.8599,11.8882,-15.1894,52.7778,-41.4170,17.6476,41.4209,58.0415,-31.4116,144.8166,-25.3508,103.2675,-4.6510
-0.5393,32.2204,0.4521,24.0613,-36.0792,29.8084,54.1998,-11.4554,53.7511,102.1386,-18.3886,37.2830,28.4329,35.9383,34.7189,97.7590,-18.3410,90.8988,-3.2237
-16.1155,21.5199,-33.3637,10.0738,-49.4961,9.0423,28.7629,-32.1670,56.4349,124.7164,-26.2508,28.5536,46.7276,29.8158,45.2185,101.2945,-52.8148,87.2736,-33.8790
-64.7616,-72.4210,-91.9060,-80.8175,-63.5664,-41.4153,12.1238,-53.4214,23.8126,94.6007,-52.7734,-13.1930,40.7128,17.2910,25.4897,130.9956,-140.6757,53.3969,-79.7975
-69.6054,-130.3457,-110.0263,-134.2276,-66.0869,-74.6067,19.8772,-47.6859,22.8147,37.4237,-40.4420,-10.8910,-10.2367,13.1583,34.5092,131.5430,-174.7959,3.3265,-80.5060
-47.2250,-74.0941,-110.2227,-79.3057,-85.9442,-42.0404,7.8955,-12.4637,35.7461,20.0045,-10.9678,44.6619,-34.5010,44.2729,55.8663,135.2283,-133.7132,2.2273,-48.0494
-50.8703,-16.7257,-132.1072,-22.1578,-116.0233,1.1156,-29.6605,-6.1741,35.5133,41.1363,-16.5054,70.7853,-5.7270,73.4635,68.9823,162.6123,-116.1475,26.6574,-54.9134
-56.0047,-21.9608,-132.7997,-13.2479,-112.7977,21.2058,-46.1303,-36.9711,33.4563,18.2734,-38.8020,50.4132,13.5394,67.8750,84.7170,157.9011,-118.4402,26.3653,-87.9281
-35.9020,-7.2249,-86.4737,18.7998,-78.0646,48.6305,-30.3748,-47.6368,20.9170,-40.0500,-47.3398,30.7720,1.7694,50.2926,72.2253,106.7507,-66.2909,22.8300,-76.7572
-22.1446,21.6540,-44.0130,44.7487,-43.6923,51.2716,-17.7262,-38.4054,-7.3940,-33.7879,-51.3109,6.1407,-1.4775,27.7885,14.7971,69.2962,-14.7749,11.4774,-43.4319
-28.0070,-14.7919,-40.7535,-11.3892,-27.0252,-6.3785,-26.4549,-44.9699,-13.3587,35.6326,-46.0850,-25.6781,12.5936,0.6001,-15.3047,82.1217,-46.3983,-32.2756,-51.7229
-21.3048,-54.7783,-47.3342,-65.6276,-30.7749,-48.3174,-26.8460,-37.1837,28.4192,92.0073,-16.3560,-15.1350,33.7351,3.9421,30.3966,120.9512,-89.6144,-50.1260,-69.9446
14.8102,-18.9632,-14.5941,-27.3240,-22.4991,-19.4977,14.0912,14.5403,93.8936,124.7353,10.3043,11.5937,64.0585,24.9398,97.3236,134.4099,-47.1343,-15.4780,-35.7835
53.2150,11.2630,56.8988,20.0931,29.2573,17.5824,73.3871,63.1940,139.4775,134.2836,-2.3008,-29.7555,78.4268,2.0473,124.6453,100.2870,33.5392,-2.7945,24.6387
63.2472,-22.5577,104.2129,5.1620,80.4785,17.7612,107.1478,74.5909,145.5246,103.2523,-31.8075,-100.9970,64.0324,-42.2337,119.8284,60.7821,63.1233,-20.7166,51.9115
61.2709,-39.0159,98.4449,-8.3196,84.0735,7.7571,112.1696,80.3353,142.5117,76.2907,-23.3177,-100.6962,66.1602,-41.9846,124.9426,47.2083,55.9942,-15.8139,47.2095
75.9736,-7.8290,81.7125,10.1023,73.9394,-8.1482,94.4201,95.7871,156.9528,88.5126,22.4912,-56.0500,81.0324,-28.0752,147.6806,16.1164,61.9117,-21.1242,47.8792
84.2143,2.5737,71.2287,10.4325,80.6071,-44.0786,64.4270,98.0529,157.1416,90.7212,41.6283,-55.9411,41.6327,-56.4362,141.6322,-51.8082,67.5216,-64.6701,69.3716
68.2065,-13.1770,63.6115,-1.2333,89.8696,-62.4312,75.2773,96.9321,133.8886,65.9562,11.3350,-93.1610,-14.6933,-90.1337,99.2911,-92.8781,65.6520,-74.3471,100.9566
69.4351,-6.2040,95.1855,20.0492,106.7617,-21.8132,131.2892,121.5294,138.1727,57.0241,-14.1482,-114.9036,11.2038,-82.2567,94.0867,-76.0925,97.0713,-24.3178,123.5457
92.7288,9.1859,145.5477,47.2507,127.8607,32.2320,150.5755,145.5559,165.7708,60.5091,-7.7727,-116.0911,76.1550,-60.7229,137.3628,-51.7128,139.4812,14.7477,121.3066
82.8878,-1.6457,126.0336,32.8284,116.5059,23.1393,128.2520,130.6311,155.7556,56.0105,-1.3326,-107.1279,85.1693,-54.7398,138.7727,-49.1526,116.4221,9.4238,96.7119
44.3826,-15.6646,55.2861,4.6103,79.4775,-21.5272,134.4718,113.8767,118.7326,62.2750,-5.1448,-87.7108,69.5304,-44.5485,87.3347,-36.9596,56.1500,-3.8918,79.2095
25.4484,-9.3867,26.3184,7.8638,55.1325,-15.0404,144.0684,138.8425,107.1824,72.6135,-16.7625,-78.9631,67.0862,-24.2103,68.5020,4.9786,44.1036,11.8805,93.2735
19.1039,-10.8527,32.6643,20.7199,48.7776,21.1756,115.8523,155.3928,107.9974,51.7356,-50.4861,-104.2010,42.4398,-26.1996,83.3019,37.5092,59.1867,48.3008,110.3263
15.4613,-35.3137,42.4871,7.0704,65.8968,5.7857,102.6397,108.0758,79.3612,1.9557,-68.4496,-132.2621,20.5659,-53.8603,59.2993,10.4257,54.1663,50.5452,81.6657
34.9714,-40.5513,74.9084,-9.5356,96.7771,-32.6528,99.4263,44.8754,25.6850,-37.2162,-19.9185,-105.2673,40.0522,-59.8802,-0.0278,-40.7507,59.9836,2.3231,28.2804
54.0133,2.8354,86.0961,6.4711,75.5260,-26.6285,48.5171,34.6823,-1.4607,-11.7680,38.3390,-27.2874,37.6147,-22.0345,-26.6501,-15.5761,73.6647,-36.0503,18.1955
45.9485,60.1191,30.6820,40.3899,-1.6932,-3.9967,18.6944,68.7499,37.7295,87.6485,43.3043,43.6472,0.3147,27.2413,3.4827,85.0907,51.8008,-43.7203,52.8375
45.4741,93.7666,-5.0236,63.2943,-37.3402,2.3067,66.4369,100.7657,86.2588,160.5944,51.1288,85.9590,16.0082,61.9086,34.5185,134.0881,36.4202,-58.4804,73.9096
65.8251,106.3454,38.7409,71.0244,-5.1633,12.9346,90.7521,102.7577,60.3942,127.1712,96.4237,111.3202,62.8986,75.5989,9.7890,78.3002,72.4781,-63.2087,67.7922
80.4070,101.5991,88.6563,64.9776,28.5894,11.0088,58.3557,79.5066,17.5458,71.4226,118.1111,107.8220,48.0392,55.2215,-24.5706,11.5658,105.0114,-33.1878,64.6211
95.2149,78.5703,104.8236,45.6898,47.6384,-29.4076,56.9220,62.0384,43.0755,78.5270,110.5291,78.7954,11.0841,15.5293,-5.8635,2.0701,100.6142,-19.2567,65.6965
101.9683,52.4205,107.9838,18.8113,64.5294,-70.8257,72.2701,53.0832,54.1796,87.0818,116.1350,60.7784,13.6777,-5.0658,-2.7775,-2.2590,86.2200,-34.4666,53.3379
61.3849,27.1797,82.8416,-12.0712,61.3298,-81.8439,49.3944,22.2026,-16.5842,46.2945,102.5914,45.8795,12.7179,-14.7698,-70.7831,-57.9667,55.8838,-14.1557,34.9047
10.3173,2.5552,52.1636,-27.9110,52.1322,-62.8233,36.3684,-11.9172,-62.3049,0.3728,51.9606,8.6054,1.4062,-33.5864,-105.2626,-127.0605,24.6400,49.4040,27.6609
13.5587,11.0727,71.3260,0.5653,57.8299,-9.8766,46.7621,-5.6512,-42.2582,-31.3286,30.1164,-3.8231,15.3514,-28.2670,-64.9943,-138.0444,49.5111,98.6389,33.2412
32.8024,56.1583,86.4806,49.8386,42.7611,35.6972,33.1621,16.0770,-49.7529,-59.0650,46.3137,40.0721,5.6849,9.3876,-62.7567,-92.7725,92.2153,102.9240,45.3569
10.8820,71.3606,31.4043,59.8707,-0.3176,27.5610,25.0925,24.2481,-73.1473,-66.8112,32.6341,64.7854,-55.4132,25.0068,-98.9419,-55.7570,71.0373,70.1223,64.3036
-29.0412,38.2859,-29.4889,36.0717,-24.7415,21.7108,46.5041,53.0111,-51.6797,-56.6243,-20.3320,21.5075,-91.2927,10.3366,-83.5310,-50.1310,26.2492,48.3711,96.1349
-58.4342,28.5750,-40.4500,33.7315,-28.3296,59.2222,49.0890,99.3010,-46.8193,-32.2261,-66.1852,-27.7480,-70.6466,8.0396,-78.1221,-37.8173,25.4939,78.5754,131.6534
-70.5259,62.4641,-35.2426,52.6375,-30.4239,67.2522,46.0631,109.4239,-79.2822,33.8361,-80.4086,-37.7030,-35.1568,14.4376,-139.5125,-4.1062,39.6888,97.2737,143.2923
-54.8456,77.0471,-24.3930,52.0618,-17.7013,34.1198,69.2897,90.4027,-66.4144,109.4237,-66.3287,-36.0379,-2.8724,6.5760,-157.3192,11.8769,37.2783,37.4796,128.1205
-48.6636,50.6722,-21.2366,29.4227,-11.5571,39.4455,61.0195,70.0299,-28.2684,109.3621,-60.8890,-41.1750,-8.0747,-5.7461,-101.0948,-29.7777,18.6473,-27.3125,116.1424
-98.3897,14.7226,-85.8650,3.3588,-52.1597,60.9853,11.7003,22.4867,-42.9307,34.2474,-97.6906,-42.7811,-86.4091,-19.5149,-78.2274,-120.1312,-41.2434,-29.5833,109.3753
-153.7897,-20.5864,-184.7576,-25.7220,-101.3667,30.2567,-5.4398,-41.9064,-74.4085,-44.1818,-129.4424,-32.4804,-165.6695,-33.4596,-91.6994,-193.3162,-124.3292,-29.7926,80.0095
-148.8750,-45.7376,-205.5871,-50.6117,-105.8912,-6.4528,0.3471,-54.2882,-75.6104,-80.1965,-98.9964,-7.1296,-161.0728,-23.0821,-80.2175,-186.1133,-151.1996,-53.1798,43.9648
-114.2260,-32.6959,-161.6168,-47.7936,-92.7333,-0.2650,-18.1579,-6.0617,-61.6933,-46.4427,-50.3165,18.6901,-109.9368,6.5611,-59.0183,-114.8280,-116.4909,-42.4496,45.0396
-94.3515,3.5327,-148.2249,-20.7715,-98.1434,7.7275,-29.4997,43.4458,-15.3090,42.3220,-42.6943,22.2452,-77.4989,17.7122,-20.4655,-48.7222,-92.1079,-4.8941,70.9344
-81.6475,12.1378,-156.6716,-7.5002,-103.1523,-1.3945,-20.0011,56.2697,51.6278,95.6600,-54.4039,9.8121,-73.7347,5.5441,46.2952,-26.8555,-96.3566,17.3264,79.0464
-76.1403,-5.9408,-137.0772,-19.3177,-90.2245,-5.2642,-27.0277,42.4079,47.0622,65.3597,-56.8079,-1.4524,-92.0920,-8.0194,48.9953,-38.3067,-92.3158,41.3180,73.8613
-87.6005,-6.4686,-123.4400,-20.3205,-80.7346,-3.4467,-42.5581,43.7157,-23.1200,17.6866,-63.1606,-11.6979,-107.5428,-8.9146,-29.1639,-37.4599,-72.7531,66.8286,80.4599
-99.3059,5.5188,-152.6313,-4.5002,-97.6132,1.7277,-48.4592,76.1964,-37.1780,15.5502,-77.9539,-17.5683,-106.5561,5.5106,-46.7884,11.7686,-69.9202,51.0841,90.7332
-93.5789,-17.1654,-178.1168,-20.1505,-119.4338,-0.9373,-58.7654,86.8133,25.6097,40.3756,-84.1413,-16.8940,-125.0744,10.3292,32.8147,67.5284,-100.3208,0.6784,84.1987
-64.4156,-63.9520,-141.8622,-64.0728,-97.3670,-30.0992,-62.7698,50.0717,70.1154,43.9522,-65.3740,-22.2499,-141.9724,-11.6381,89.0956,75.6596,-117.8038,-32.1203,53.4837
-13.9103,-69.1391,-55.7244,-61.2501,-36.3348,-44.3856,-55.7547,22.5085,53.4849,6.8232,-24.9385,-27.6367,-80.7651,-18.2162,78.4113,87.1635,-66.3188,-15.3890,2.1315
27.0655,-22.6221,16.9754,-0.7451,-0.8828,-3.6269,-63.0423,13.6014,12.7270,-38.4200,-1.3773,-14.1439,2.7253,11.6500,49.6587,144.1087,13.4863,35.4360,-44.8771
25.7678,17.0183,25.7603,44.1480,-12.8964,32.7614,-65.7223,-33.2739,-17.8599,-60.2103,-20.6683,5.9737,-12.7048,22.8512,14.5330,149.4076,33.0290,55.0634,-60.6219
-1.8569,17.1810,-18.7861,45.9414,-27.4550,14.5780,-42.7280,-105.9845,-40.3238,-97.8427,-50.2672,6.8590,-85.0212,-8.1682,-24.3194,42.2021,-2.0506,4.2059,-63.8428
-15.6753,-7.5750,-48.6711,34.1258,-11.6287,-16.8145,-37.7276,-153.5349,-61.7583,-171.3034,-62.3974,-20.8241,-109.8078,-46.6705,-39.1078,-69.2777,-22.1980,-56.6252,-88.1140
-1.3559,-34.4886,-14.8961,18.8422,25.2678,-30.0344,-61.0287,-176.0100,-61.3623,-194.1704,-68.6305,-65.8105,-97.3244,-80.3832,-26.8359,-91.4314,-9.8471,-63.7099,-113.2114
19.5934,-31.5030,34.3345,12.1738,44.6821,-22.5035,-68.9931,-161.4216,-33.9901,-128.6728,-59.9101,-76.8174,-76.8072,-87.1836,-8.0012,-64.7491,10.7241,-46.5311,-97.6250
10.2308,13.8518,9.4345,35.4716,6.0223,18.1513,-67.0616,-97.9277,-26.3599,-81.8743,-25.9337,-12.0280,-53.7788,-32.0214,-0.5621,-54.6489,15.9503,-43.6636,-52.4063
-26.9228,50.7225,-74.1580,60.5434,-60.3337,47.1627,-64.4847,-60.5118,-50.8076,-113.7070,-6.8871,66.4496,-75.9050,25.5361,-14.0132,-79.0301,-9.9166,-41.5518,-22.7580
-36.1780,42.9218,-104.8380,56.7580,-68.7987,8.6633,-25.3102,-90.4767,-54.4589,-141.5149,-19.7334,69.8341,-123.9024,8.5105,-33.8960,-106.5091,-34.3684,-34.1118,-25.3548
4.5073,41.5414,-47.5531,63.4054,-15.0186,-31.9815,25.1068,-96.6749,-27.3734,-108.0785,-21.2568,25.7867,-93.6419,-26.5440,-37.1265,-79.5727,1.8060,-35.8854,-34.7497
47.2370,77.5577,16.4976,101.4933,21.6196,-1.2120,32.5448,-29.7016,-0.0279,-52.7093,-1.5429,9.0072,-11.0555,-10.0634,-17.0226,-8.7760,74.0318,-51.1625,-16.2774
53.1658,86.9079,21.4161,106.5191,10.2656,34.6108,37.8782,31.5546,38.5069,-6.2207,5.9318,19.4845,5.2250,16.8110,23.8369,37.6347,85.3682,-79.8995,21.9818
29.9576,35.1428,-21.0658,44.8542,-17.7335,8.3527,70.6876,37.6294,78.6051,35.2127,3.7182,28.8470,-15.6510,23.5187,59.9198,60.4797,13.7557,-113.6441,27.0847
7.8044,-12.3106,-51.7205,-15.0670,-29.7408,-26.6488,69.2178,29.1722,72.8480,59.9581,16.7678,32.6022,17.4521,33.4816,59.2742,85.1712,-45.8167,-130.0441,-8.0520
24.7825,-11.1695,-9.4607,-18.0847,-1.8123,-19.2382,35.6368,42.5073,54.6773,55.0983,44.6777,27.3633,62.7368,34.9878,53.8438,77.0720,-14.8074,-114.9206,-17.6546
74.9987,-3.8991,82.2165,-4.2914,48.6312,-1.5109,38.9537,61.2960,79.3090,34.5462,72.9833,20.9017,58.1727,17.7673,83.9294,47.5100,53.4975,-71.0135,10.5540
92.7195,-18.8800,121.0583,-15.4813,65.0055,-6.4755,47.1403,39.3720,81.4368,9.8055,83.2631,26.8471,43.9687,11.6055,90.1948,51.5974,62.7494,-21.7991,-0.5741
65.3282,-19.6101,94.2766,-16.9028,51.8117,-14.3016,4.6105,-27.7804,9.1023,-29.7185,70.8696,30.1465,62.1012,15.0913,28.1219,46.7301,37.5332,-2.9472,-65.4237
60.8459,-2.3995,94.7962,8.5689,66.0180,-4.3378,-17.2164,-67.6529,-33.2540,-74.5373,64.3301,18.0254,90.9362,5.9226,-4.5679,-7.0113,53.7647,-15.5518,-101.3563
85.3065,-33.1300,122.1733,-7.8196,94.4289,-7.6268,30.2067,-44.1550,29.8981,-86.1309,71.1779,-1.9505,89.4255,-10.5350,65.4998,-32.0110,62.1758,-34.6123,-83.5073
75.2691,-115.1035,93.4068,-83.8915,85.6448,-45.7854,47.5597,-18.5030,99.4290,-72.1718,58.5848,-31.6481,43.2848,-31.3834,146.3323,-9.0210,-0.7525,-61.2926,-67.7606
44.5973,-140.8812,45.9713,-111.3465,59.7645,-54.5392,-9.1408,-12.3773,84.7864,-82.8701,39.5491,-48.1906,6.2288,-39.8154,147.4093,-10.3284,-37.6297,-82.5693,-64.0048
58.7806,-70.3598,72.4719,-41.8585,59.0451,7.4896,-23.5838,23.1109,53.1919,-101.1059,58.6920,-12.9959,37.9830,-2.5930,119.7264,-10.4102,30.5459,-58.7262,-39.8076
97.0293,-11.7870,118.9055,20.8624,69.3129,50.7297,50.7949,66.9268,89.5799,-75.5403,77.9986,23.5345,76.2408,33.9541,137.6195,34.9334,93.4636,-25.1727,-7.5482
91.1564,-31.8853,82.1237,13.2875,60.4578,13.1139,99.2784,54.3690,146.3087,-46.2405,32.7768,-13.1463,26.7758,-0.4945,173.3372,48.7550,58.7969,-51.6470,2.9849
42.7289,-63.3696,-1.1489,-8.4827,33.1693,-27.9058,71.7295,7.7792,132.5786,-64.3912,-35.1594,-67.6462,-52.7296,-50.6605,154.0723,5.4522,-4.2420,-98.7507,-4.1674
3.3049,-60.8559,-37.3915,-16.5770,11.7644,-26.8341,46.4229,-13.1776,61.1743,-79.8253,-48.7526,-62.8630,-55.1803,-41.3932,76.5068,-9.1482,-28.1840,-102.5979,-15.7189
0.9013,-50.9776,-17.1176,-28.1846,19.4087,-29.9297,42.0943,0.7334,7.7218,-55.6381,-15.2717,-40.2179,-2.7723,-14.9681,8.7823,15.0082,-17.7992,-101.7364,-22.8934
32.5866,-29.1269,28.8012,-18.2969,45.9957,-30.6879,24.3003,35.9545,1.0896,-27.1237,27.5068,-29.9567,41.2398,-4.3125,-3.2258,36.4125,26.9474,-128.1972,-15.0863
72.6190,8.9234,76.1573,14.2736,56.7235,-1.1903,32.4059,72.3866,33.0784,8.8005,63.5823,2.7723,69.3180,21.9985,26.3247,76.6116,75.9036,-144.0234,4.6461
78.4984,4.5840,80.9293,7.0801,42.9245,11.3856,76.4855,90.7755,90.3851,66.5693,56.5651,14.3899,58.4807,34.0160,71.5894,124.2012,62.4641,-142.0862,29.8469
43.6842,-50.5126,36.8757,-39.8266,27.6205,-8.1743,83.4231,109.0045,139.5494,102.9963,-5.0350,-51.0629,3.4930,-6.3824,116.6437,124.5210,7.4253,-135.4032,65.9596
23.8571,-69.8097,19.3702,-51.6316,29.3619,-5.7092,67.6399,140.0141,159.6069,114.8844,-40.7312,-103.1225,-7.7640,-34.0061,142.9519,98.8757,-1.4695,-105.4640,97.3989
47.7178,-34.8538,56.4856,-26.9431,45.0457,10.4678,96.9990,146.9443,164.6326,135.4057,3.0000,-62.6121,57.1314,-8.3813,145.3343,79.9291,30.3700,-69.5082,91.5208
58.8372,-37.5859,66.9195,-39.7441,52.2431,-8.8776,119.0568,113.7625,158.0763,127.0149,44.5386,-22.1441,86.7372,4.1302,140.4902,48.3601,19.1187,-68.5396,57.0772
28.2531,-101.2281,25.0724,-93.2053,41.0688,-40.6226,89.1523,75.3234,143.7093,74.5700,14.9866,-54.9729,34.2309,-24.4095,144.4575,27.2964,-38.7964,-89.2908,29.9782
16.5278,-133.7729,10.7279,-112.4583,35.4179,-42.9306,85.2440,53.6553,143.4110,43.1748,-14.6612,-78.8358,-1.0315,-36.6783,151.2073,44.7161,-61.8298,-116.6987,16.5858
36.2761,-106.8264,25.2523,-87.3449,37.5428,-30.3040,119.0597,54.4673,136.5184,27.7483,15.2085,-36.6817,14.8734,-8.0001,136.8372,55.2455,-38.3954,-159.3676,11.1801
20.5455,-105.3871,-11.9530,-91.7395,12.4125,-28.1730,120.5733,80.4487,103.9316,-15.1111,40.0701,5.1349,9.8423,27.3023,112.1692,56.7806,-51.4299,-182.2892,16.0734
-17.9498,-144.4502,-70.2359,-128.7668,-28.2299,-31.3893,109.1546,93.9651,102.1891,-27.9343,18.3985,6.2089,-11.7245,43.8881,126.7742,100.2581,-108.7650,-157.4305,11.9580
-7.9438,-125.6019,-60.7980,-109.1126,-35.2358,-22.8984,103.7991,56.5068,127.9828,15.9634,7.3243,11.7924,7.8734,45.1554,152.7966,136.9514,-111.5600,-128.1919,-18.2015
20.7796,-40.1333,-22.0586,-37.1948,-20.3734,-12.5805,56.7616,4.1734,86.7145,40.6945,30.3117,40.1090,34.1674,40.7268,97.8630,99.7694,-52.3364,-123.9454,-42.4884
9.0324,-0.5865,-32.3704,-21.3664,-24.8637,-35.2283,11.5128,-5.8711,12.1743,48.2117,47.6272,57.7789,21.1276,35.8787,1.9913,58.8337,-37.9140,-123.8030,-32.5897
-11.8864,-26.8442,-66.8356,-62.6082,-40.1819,-75.9618,23.9721,19.0112,12.4729,87.6678,50.9382,56.3747,16.4270,36.4601,-12.8174,80.9199,-79.0760,-119.4000,-18.9859
-23.4009,-38.0287,-87.5374,-72.1212,-47.7268,-77.2281,11.1182,35.0824,22.7994,103.7473,43.0359,41.9852,44.2270,39.9463,8.0517,100.4256,-95.5461,-110.3201,-27.6562
-59.7323,-36.8068,-108.8959,-65.4590,-50.7380,-57.3397,-51.4525,26.7352,-42.6026,65.9334,3.8777,-0.7975,39.9257,23.3633,-46.4763,64.2191,-92.7719,-94.4547,-29.2868
-93.6753,-60.7585,-117.2606,-89.9104,-43.2529,-69.1519,-62.0302,16.8378,-94.5484,45.5423,-39.2179,-51.4273,-10.9449,-13.4443,-117.4321,19.6651,-103.3533,-85.4154,-1.3138
-78.2756,-54.0990,-81.2848,-86.3011,-24.7021,-67.4781,-34.2148,27.3284,-85.1447,58.1076,-34.3803,-53.7330,-26.8570,-23.4038,-125.4706,5.0595,-78.9156,-70.1199,29.3841
-45.8033,11.0965,-22.3473,-27.3164,-6.8574,-16.0230,-47.4274,37.5784,-90.6159,74.9060,-2.3080,-20.6737,24.7013,-0.2242,-127.6862,-8.6610,-9.8788,-31.2406,37.3226
-29.8912,59.7015,17.6115,7.3630,12.5367,1.7501,-59.3564,21.8176,-109.7954,113.2118,17.2049,-7.7282,67.0124,-0.2787,-159.5386,-48.5138,30.4710,-18.5110,36.8986
-18.6914,63.4376,21.6894,-6.2860,21.6835,-44.9895,-40.0599,13.7363,-107.4274,147.0857,40.2470,4.3743,40.1368,-18.4062,-186.2233,-79.1499,25.7415,-55.7193,52.9524
-16.5929,59.4662,-1.5478,-20.2531,-1.7348,-65.0718,-24.2965,53.3227,-107.9409,130.1151,71.7011,50.3866,-7.3927,6.4917,-193.0735,-51.2562,14.9013,-77.7140,83.9594
-23.9366,40.5652,-25.6165,-33.2283,-33.4524,-33.4990,18.7271,105.9697,-74.5962,110.7867,83.2853,90.2921,-5.6170,57.6296,-142.5811,9.4403,-5.9937,-71.7536,101.8222
-19.9988,9.0678,-43.1622,-48.3916,-49.0550,-7.8655,76.3410,122.9579,13.0934,122.8503,81.1074,102.3833,30.9879,85.2306,-29.6662,48.9706,-40.6027,-83.8862,86.0044
-19.5367,16.3147,-69.0211,-32.8902,-73.0304,9.8319,54.6109,119.6783,37.2133,119.5788,81.6102,120.7617,54.5178,108.6590,21.0609,90.7316,-53.6182,-82.5116,54.5992
-35.9156,45.9144,-89.3871,-2.7859,-99.1747,29.2762,-3.7470,115.4176,-22.7044,99.4053,66.7775,130.2187,60.5767,132.8515,-30.5320,158.1475,-43.6938,-45.8838,32.4344
-40.6613,30.8217,-92.6515,-3.4585,-91.8129,15.1250,-8.0313,72.8326,-35.4627,74.7709,32.5391,95.4147,44.4781,108.6249,-45.0283,171.3140,-52.0818,-48.6702,1.9097
-39.3265,-9.5332,-104.6039,-20.3305,-75.7726,-16.5552,-23.3428,-24.6488,-10.4294,15.1386,0.4415,54.5484,-7.7616,47.5465,0.8679,80.1528,-85.4208,-84.0308,-50.3657
-49.4389,-8.6317,-98.4623,-11.8312,-71.7065,-1.6919,-71.2860,-103.2122,-31.0229,-33.2076,-21.2499,43.0847,-44.6618,13.5476,1.4467,-20.4590,-89.8188,-45.0572,-76.3149
-24.2550,33.2653,-12.8232,29.0897,-35.8157,49.9259,-61.1352,-97.3800,-41.0111,-14.8330,-19.4534,37.6958,-10.2477,13.1959,-18.8761,-36.4939,-18.6070,48.3893,-50.7907
32.9297,66.0032,84.8686,64.7893,20.0042,64.0342,-48.0300,-64.5778,-46.2221,-16.4574,17.0139,35.2663,36.8811,17.1927,-34.7778,-2.1157,71.2666,75.7151,-39.7223
20.8594,50.6838,68.7367,36.6508,19.5452,18.2121,-125.2165,-88.0506,-152.7872,-84.7745,46.2339,47.3545,14.2492,18.2441,-137.0275,3.5767,63.5182,25.7818,-76.9589
-63.8473,-0.1305,-29.7052,-36.2833,-32.8088,-19.8493,-192.4918,-128.4813,-265.9108,-127.2122,23.0762,49.1224,-52.0291,16.0583,-250.9257,-34.8523,-30.8108,-22.4647,-93.4744
-104.0051,-23.3115,-86.5382,-48.4860,-69.9905,15.4168,-186.9045,-112.0297,-230.9912,-134.0462,-22.6087,33.4265,-91.7536,16.3911,-198.6747,-63.1227,-74.3614,-27.9911,-62.5686
-75.8109,-0.6600,-70.4434,3.9543,-69.9890,78.2172,-197.9131,-71.9075,-153.8000,-153.0870,-37.7083,22.8533,-81.9006,25.5413,-83.3043,-39.0329,-32.0477,-7.4235,-46.9851
-53.4972,10.2744,-26.4007,5.3817,-46.9229,76.7735,-217.4913,-60.4978,-163.4159,-122.6570,-13.4061,22.1388,-45.9892,28.1290,-98.3501,-12.2441,-1.7764,-7.9072,-50.8732
-46.2947,2.6382,3.9169,-41.9776,-26.6186,30.4090,-177.2227,-52.0173,-175.8009,-42.9188,38.1736,49.1616,-33.6301,24.9148,-155.1688,-50.3424,-12.0827,-46.5123,-22.0672
-15.3977,37.3039,10.9098,-21.5595,-27.0302,19.6501,-127.2718,-32.6777,-135.4028,-31.3996,97.6202,116.6530,-45.2345,41.4112,-125.8367,-111.4590,5.1381,-73.3522,10.0500
28.4991,99.3288,30.4102,56.4848,-13.7177,35.2535,-103.4601,-37.0331,-116.0934,-74.0884,127.5655,153.8472,-8.5758,59.5415,-95.8854,-121.5821,63.5310,-59.8455,-12.5883
50.0225,106.3075,76.0989,82.5543,36.6577,30.9974,-70.0190,-64.4299,-130.3444,-88.7872,112.0314,105.8812,66.8787,40.7066,-119.1644,-111.7557,103.2517,-47.1460,-57.9008
47.1758,57.2854,99.2553,50.1495,70.3063,24.0728,-46.0367,-84.4691,-127.4464,-118.2299,85.6397,50.4203,74.8118,9.7332,-113.6119,-134.2273,95.9366,-58.7652,-73.7067
47.6269,31.8414,93.0481,32.9242,61.2684,32.6685,-42.2701,-87.5008,-106.8525,-160.1291,87.5710,62.4483,29.8910,11.3144,-75.9430,-149.7296,80.8236,-77.2514,-66.8244
64.9446,64.0671,101.8433,53.2309,54.4048,34.3064,-17.0552,-71.6393,-96.2866,-123.2545,114.5383,102.0980,41.8501,35.8481,-82.3639,-118.5874,96.1943,-95.3113,-55.3537
78.0149,102.1811,112.2601,72.5326,59.6806,19.5934,7.0666,-47.3406,-103.2882,-56.5878,141.8743,123.3169,94.1917,54.3623,-118.6872,-84.6606,116.1483,-104.9507,-49.1622
75.8465,86.3425,105.5406,48.7785,62.9913,-2.1263,3.5328,-35.5562,-105.8117,-51.3221,164.4425,129.3139,118.2077,57.9967,-116.3120,-93.2996,101.9742,-101.0622,-57.3399
71.3136,33.9289,113.2072,-6.9762,76.0554,-17.9576,14.4174,-29.8973,-89.9107,-57.5376,181.3573,121.6137,128.1012,51.1433,-88.1549,-124.1573,72.9978,-103.3637,-60.5588
48.5724,7.5318,104.4190,-33.7835,71.0258,-11.3414,19.7592,-35.4964,-102.7330,-66.7260,162.4369,107.6225,108.0992,45.2386,-102.0792,-142.5141,50.5051,-102.2358,-50.5038
-7.6554,12.4835,31.7893,-10.9382,23.6059,7.7908,-28.9002,-88.4184,-170.9690,-148.5594,88.3865,88.6646,30.2447,35.5910,-158.3363,-152.1553,18.9093,-60.2728,-66.5943
-51.3568,12.1657,-22.2042,19.5162,2.0663,19.8489,-79.7011,-156.9384,-225.4279,-234.7433,2.4833,33.8475,-17.3236,3.1925,-194.1724,-170.7227,0.6864,-5.9784,-106.7916
-49.6011,7.4040,8.4198,30.0322,34.8205,38.5244,-102.2848,-164.0987,-223.3810,-226.7833,-38.3413,-37.0609,6.1752,-33.0102,-189.3619,-185.2434,27.0760,-5.0655,-109.5981
-38.8685,3.9785,34.1865,17.5296,39.5005,58.9148,-137.5199,-128.0100,-201.1219,-183.0996,-28.7279,-44.0286,-0.0069,-32.8100,-163.4944,-167.5824,41.1129,-47.0392,-77.1968
-42.2576,-15.2525,6.2633,-19.1672,2.5785,42.9352,-160.9540,-110.2573,-178.0280,-159.3824,2.4221,4.8351,-41.1185,-9.0607,-130.7551,-129.5570,0.6189,-66.0100,-66.1585
-42.8312,-24.6905,6.3049,-42.4730,3.9114,11.9881,-147.0596,-99.0391,-178.1311,-126.1697,21.1101,13.9938,-26.4086,-6.7617,-143.3172,-116.6825,-13.6441,-36.8362,-63.9136
-31.2722,14.6591,63.3061,-8.3485,48.0171,20.7487,-143.5438,-70.0393,-216.9483,-92.7343,9.0228,-31.2142,6.5017,-30.4442,-216.1299,-133.4976,54.7144,3.2590,-25.1292
1.9511,60.3372,111.6920,45.5576,75.7256,47.1597,-132.1111,-29.1087,-189.1562,-67.5346,-2.2022,-56.8780,-1.7678,-46.9264,-206.5953,-129.6987,126.0899,2.9201,27.1301
43.8360,52.5843,99.4824,51.1605,64.2418,43.6521,-69.9498,25.3624,-39.8397,-22.2955,22.5761,-30.6007,1.1052,-31.4690,-40.5350,-85.5267,115.2339,-36.6493,47.3133
40.8444,18.6834,27.1314,21.8253,18.4872,26.4622,-24.9305,63.7878,69.3893,7.3604,42.1044,9.6678,10.1374,0.7792,95.9776,-45.4583,45.3605,-62.1217,40.9430
3.9253,14.0297,-35.7512,20.2614,-24.9661,27.3935,-27.1798,50.7062,60.8291,-1.6847,6.8372,14.5319,-27.9987,8.1463,88.9041,-28.9759,1.5801,-45.9892,39.3675
1.7267,30.5203,-23.7163,48.2800,-22.1868,40.0899,-17.8529,32.3893,63.6467,17.3669,-44.6569,-23.0532,-51.4086,-13.3956,73.2225,3.1630,17.6843,-7.1716,48.6513
7.1669,18.4880,-2.3074,39.2266,-6.0382,32.6132,-22.0670,37.7509,75.3170,50.1336,-59.0772,-57.4385,-24.2269,-26.5335,81.4778,43.1099,22.4556,26.8267,40.7579
-34.6844,-33.1553,-42.9507,-25.9556,-19.0244,-12.2324,-62.5727,12.3860,-0.3778,11.2927,-52.3832,-59.4769,-30.3068,-28.3163,13.4527,28.8153,-34.9726,34.8340,5.7715
-61.2567,-63.8767,-64.4099,-58.6648,-20.7389,-44.7758,-53.9450,-27.0853,-53.1056,-38.5150,-63.3511,-65.7280,-68.3633,-44.5474,-48.3937,-12.8443,-67.1386,42.2466,-8.0273
-35.6186,-30.1703,-17.2699,-4.0928,5.0290,-9.3013,-6.8122,-12.3662,2.8345,-5.3099,-106.6017,-108.9771,-63.4575,-67.5117,-8.7446,1.7609,-13.3183,104.6585,26.3464
-37.0330,2.5421,-0.7006,43.8600,9.7359,35.4139,-13.6557,13.7201,24.2922,36.2259,-162.5315,-161.0868,-43.9702,-79.3773,7.1532,44.6739,24.4986,168.7379,52.4710
-69.2060,-34.6414,-42.3349,4.6202,0.3871,11.0713,-18.0224,13.8407,-11.5472,21.2132,-175.0744,-181.0289,-39.4825,-79.9266,-30.5763,52.4990,-16.3116,118.5289,36.6097
-49.9850,-84.6217,-57.0289,-47.7393,8.6473,-32.1805,40.4967,49.8897,44.1250,23.3442,-122.9409,-157.4311,-11.8222,-62.6373,30.5906,65.4738,-50.5945,10.9249,26.2777
-2.2189,-74.3820,-41.1947,-39.6907,5.3233,-33.9218,62.2147,88.7403,137.9592,54.8777,-65.9547,-104.0780,0.7366,-37.4872,141.8415,92.4936,-40.1071,-9.8618,35.5079
5.1768,-40.8189,-38.9475,-14.7868,-12.9828,-30.1964,21.9347,29.4587,114.2443,31.4543,-49.1847,-54.3787,-47.2138,-35.1316,124.1664,57.0613,-36.0189,12.7105,17.6511
-2.4892,-37.3786,-33.1656,-12.1507,-9.2837,-34.5398,18.4818,-63.9322,43.8060,-32.9476,-49.4328,-33.2357,-76.6012,-41.5206,46.8053,3.2735,-42.9314,-29.1185,-29.6433
10.9188,-48.7052,-21.6539,-10.7046,-3.4190,-20.4552,38.2918,-77.7592,60.1755,-46.8360,-49.7769,-32.2714,-49.8749,-27.0863,72.4130,48.6285,-42.4821,-77.8144,-63.0273
29.1330,-49.3589,-20.8710,-1.2099,-11.7714,-8.6948,20.9045,-34.5757,126.0460,-7.2995,-57.9314,-45.8794,-40.5046,-20.9726,154.4091,129.6029,-35.8215,-68.9775,-53.9887
41.5930,-41.1503,0.4670,12.2248,11.0531,-0.5759,20.4659,34.5317,157.6218,19.3263,-71.7602,-91.7194,-50.4199,-45.0174,176.5573,120.6576,4.5416,-71.5484,10.0098
44.4775,-35.3834,43.0966,26.9441,59.3950,37.7796,65.3957,129.1032,147.8963,13.9943,-89.6001,-155.3192,-29.0293,-60.0407,142.9335,77.1180,71.6684,-125.0686,96.2300
37.0318,-38.1862,52.8551,24.4246,67.7958,64.6415,79.5345,175.6312,128.6919,15.8960,-95.6214,-172.1084,-9.2918,-45.7704,114.6156,98.7336,90.1633,-175.0928,125.2420
36.1380,-34.5827,25.3078,7.2339,31.4558,34.6880,31.2579,143.8708,120.5493,49.1215,-64.8466,-118.5246,-20.7048,-23.4575,112.5152,153.6370,51.4573,-179.4046,86.9098
32.0403,-15.6599,-2.2742,4.1164,-0.1888,5.0682,-13.9637,115.5963,106.6939,78.3070,-33.5155,-66.2825,-24.4488,-8.1719,103.6106,165.6114,23.3555,-134.0005,59.1570
14.8818,-5.7935,-8.6432,13.3206,3.2477,9.6557,6.5729,111.9026,86.5404,67.0462,-44.7628,-73.1223,-14.3986,-15.2419,76.8234,108.6236,25.4448,-73.2536,70.5501
29.4423,-7.3905,18.4445,18.5719,30.1622,4.6848,57.7958,93.6078,112.6155,57.4985,-46.2626,-83.9698,-21.1231,-39.6692,92.5884,40.5830,38.7435,-59.0663,81.3825
66.1940,3.8765,39.9860,15.2994,24.5562,-13.5075,43.0067,92.0134,162.6624,111.4218,-4.2172,-41.3254,-37.5295,-31.6994,141.8414,78.9967,40.5379,-87.5936,80.5814
41.1835,5.3765,-1.9907,-15.5463,-26.8939,-28.7698,-19.1188,120.0664,128.6280,188.1996,14.7934,-1.3080,-28.6893,12.5555,101.7041,201.5562,-1.5894,-99.8664,74.1068
-10.7796,-27.3936,-35.7902,-63.2138,-29.1882,-58.6945,-3.6027,111.7391,30.2999,180.3741,6.1729,-17.8269,25.9955,25.6365,-17.1156,211.6860,-43.8619,-91.6654,43.7467
19.3747,-51.7328,39.0404,-68.2400,54.5531,-72.9612,65.1478,54.9399,-6.1164,66.5135,38.8445,-37.4793,87.9186,-3.4559,-47.2511,71.8351,-1.8363,-80.3101,-5.6069
77.2134,-46.2973,126.3101,-35.1295,103.8144,-30.8709,53.4652,3.9169,14.5782,-54.2549,75.0397,-17.7203,77.3560,-16.7284,20.3702,-24.0325,63.4065,-52.5198,-36.0641
51.4670,-45.6300,90.3193,-27.6183,57.0321,8.9175,5.6683,-15.3346,8.7531,-87.8561,43.3275,-0.2765,7.5204,-4.4979,38.1292,-8.8811,39.4037,-31.8506,-30.3540
-5.4012,-48.2925,1.1157,-37.4743,9.7003,-5.2224,38.3521,0.3740,1.7918,-43.5023,-7.0288,-14.6867,-20.1110,-3.0116,3.0517,0.1596,-19.1316,-50.1940,-0.6349
-10.7243,-37.2279,-23.7655,-24.3223,14.0124,-18.2126,96.2888,39.6696,50.7396,13.2987,-27.5688,-44.7713,2.2221,-18.6645,28.7596,-22.5488,-22.0706,-62.2725,35.4214
3.9388,-26.4689,-6.8207,-1.3856,20.3466,13.6954,105.6768,74.4748,122.8658,47.4278,-46.0854,-68.3847,8.1027,-29.7544,111.4608,-27.5906,-0.6031,-21.6927,69.5170
10.3720,-1.4213,6.4292,29.2457,14.8559,57.0802,104.6088,104.8625,159.8423,55.5197,-52.6438,-62.8621,3.2598,-24.3151,161.1304,-47.0463,25.0446,45.1540,106.8015
23.9749,46.7315,24.4577,74.3001,20.6579,76.6584,91.5394,133.0135,147.1555,40.7824,-34.9735,-43.9913,0.0060,-19.6629,148.1827,-86.8025,74.0412,96.5999,140.8692
