Fp1,Fp2,F3,F4,C3,C4,P3,P4,O1,O2,F7,F8,T7,T8,P7,P8,Fz,Cz,Pz
-24.6933,4.4866,-2.8642,-3.4687,41.2823,-19.8814,-5.8034,-91.3553,-55.3510,-96.7913,-16.0569,-34.7478,-29.2960,-58.7251,-19.8895,-81.6318,-41.8793,-45.4142,-82.6199
98.4668,130.0809,130.9522,155.8984,122.6684,125.6142,15.2851,101.8645,168.0427,173.2878,101.9794,148.9720,96.0306,121.0113,84.1598,150.4121,43.5921,151.2042,99.1092
136.6028,142.5571,133.5522,168.9041,80.9775,156.4036,20.0421,199.7072,252.4149,295.6541,141.7219,209.3200,158.4737,177.1358,124.1654,256.7710,85.5770,196.7785,184.8555
86.1720,76.6402,65.5167,82.9934,36.7481,89.3802,28.6113,153.3324,178.1252,220.5146,103.4753,134.0872,127.5632,98.0510,98.1624,180.7296,34.2256,132.5519,151.2405
71.3579,62.7080,63.6870,73.5460,44.8792,61.8261,27.3996,117.1608,132.9743,166.4965,83.8451,101.3436,78.3660,58.5351,76.4896,122.9050,10.0951,133.5961,133.5796
90.9364,85.6452,89.1814,116.2651,26.8783,71.3304,6.6202,139.2280,177.9925,204.5280,77.6957,123.3293,39.5029,66.8425,79.7887,145.0437,39.3246,156.3729,163.5129
71.3384,80.7019,76.1204,115.8204,-7.5119,67.1648,6.8958,148.9638,244.5726,242.9345,41.0549,109.0418,13.8110,54.3087,97.6992,171.6348,45.8830,117.4759,162.2989
52.2685,74.1194,58.6898,101.1220,-4.3466,73.8458,23.3346,133.8092,262.3822,241.1489,28.8699,100.7813,27.2911,80.5395,109.2991,194.9583,49.8896,71.6942,105.4599
76.9864,74.5980,39.0094,86.3769,-7.5312,76.4215,0.8931,123.4862,195.4858,212.5254,76.0740,133.8518,61.7655,147.0257,84.1016,206.4319,70.7735,31.5852,55.1108
95.3224,50.9091,-2.7426,41.5109,-41.3571,40.4048,-44.4374,125.3398,95.5514,178.8564,117.9234,142.1133,73.8037,144.4644,37.5544,173.5573,57.0684,-21.8967,62.0375
102.5685,47.3223,-1.7805,33.3520,-40.4214,30.4814,-65.4211,125.8989,36.6042,149.0468,132.2318,139.6073,78.3989,95.4454,8.9651,133.1725,50.7666,-4.7978,86.4395
139.2118,105.9402,74.8950,111.5885,19.6767,87.1714,-76.1067,100.3379,7.1873,103.3039,156.7928,182.3706,103.6617,100.0606,-3.6809,113.9286,104.5991,102.1817,74.9085
161.8218,148.7473,133.8288,165.0387,81.4581,121.6656,-85.3143,62.1414,-9.7597,61.9849,170.6570,201.6070,131.7276,120.2816,-6.8523,82.7632,113.0429,166.4454,75.1568
125.9822,103.1988,104.9233,101.6599,89.0863,75.3475,-75.7667,60.1614,-14.6368,64.0405,143.9284,137.6001,146.8377,92.2190,-1.3398,37.4950,21.6619,133.0084,138.0749
78.3307,18.9575,40.9913,-4.1665,48.6708,12.0639,-60.9165,93.0127,-48.7352,73.5017,108.0528,59.3618,152.3302,60.8999,-13.6104,6.9930,-47.8103,88.6940,205.0254
43.2070,-30.1632,18.6669,-48.8740,27.2787,2.2923,-27.1392,136.2358,-57.1934,88.4518,66.9732,15.5982,133.3063,64.4111,-22.1740,16.1623,-43.0217,91.6888,232.1192
-1.9553,-32.8767,45.3119,-21.9420,59.3737,46.0779,59.8434,197.4565,76.6034,177.8840,-1.3316,-10.2664,86.1150,82.7701,32.6566,91.8031,-26.8777,123.8336,248.2874
-30.0325,-12.1061,71.2242,22.9546,82.1519,93.0411,129.0358,231.5237,225.8596,262.5933,-49.2714,-9.6458,53.6038,101.5574,98.1766,175.2892,-2.9366,140.4937,232.3795
-18.4698,1.7019,54.9031,29.4101,47.3769,87.2491,95.7942,157.4994,177.1295,185.1569,-38.8250,5.4989,58.6460,97.4961,78.7082,141.3558,27.4085,101.4565,150.7206
-11.9071,-4.1472,15.3583,1.9885,2.4263,31.4033,21.4611,16.1438,29.6786,14.7772,-27.5522,-13.1168,49.0879,47.1588,16.1091,8.5922,11.1140,22.2837,56.8326
-24.6021,-3.5969,0.0087,-0.1456,-9.2059,-12.5567,-22.2351,-80.1791,-35.8666,-87.0626,-48.5985,-44.7353,-17.4875,-18.2969,-22.1066,-87.0592,-17.2698,-43.9323,-12.9826
-19.1555,23.1651,17.1287,38.0269,4.6520,-7.3837,-63.8021,-115.0674,-85.3422,-140.5404,-52.7119,-34.8954,-86.5657,-58.2019,-68.3054,-121.3526,15.4247,-79.1049,-84.6812
5.7380,58.7393,45.6219,78.2374,37.6967,24.7289,-98.6090,-134.4491,-167.9545,-199.9919,-21.0509,1.9232,-92.5387,-74.2986,-117.3617,-144.7705,67.5643,-72.5796,-143.2272
31.1907,88.8023,73.5169,109.7752,67.0113,44.5036,-90.5792,-157.4704,-175.6703,-221.1941,12.6464,34.0277,-63.3318,-75.4165,-105.0801,-146.0997,80.3686,-8.3468,-164.3232
54.6834,110.1358,89.0700,134.7372,57.4020,38.5121,-72.6684,-189.5957,-111.1913,-207.6464,29.5364,56.7254,-43.6605,-60.2250,-52.9451,-128.0112,72.7675,63.0352,-167.1231
58.2091,107.2374,83.4012,131.7512,38.7283,32.9938,-53.7944,-215.2348,-88.3025,-215.7230,27.6244,54.6715,-20.1008,-27.3958,-24.3595,-137.3363,56.2058,79.5244,-144.1400
42.4037,86.2441,74.7296,112.2118,65.0477,55.3821,-3.8329,-199.7536,-137.7306,-241.9627,26.1030,40.1184,0.7285,16.3778,-30.1338,-164.6278,37.9229,71.2080,-98.1149
51.4528,85.0077,82.8697,114.9750,113.3415,82.8133,11.5495,-151.5185,-222.1314,-253.7275,60.3643,60.8763,-13.3506,30.3914,-71.1953,-165.0133,55.9432,75.3009,-95.7837
82.0212,102.4629,92.1615,123.7202,121.4566,73.8325,-62.7941,-111.8899,-263.6993,-227.2209,103.3402,97.0812,-30.9074,-13.1287,-120.9780,-132.9151,91.4254,64.8645,-137.8536
83.8047,97.8776,82.0230,104.9513,78.9523,35.7468,-124.4225,-96.4649,-196.8294,-162.8170,92.0627,88.8400,-20.5787,-52.0764,-113.6992,-90.1195,88.2033,46.6371,-142.0600
68.8201,78.9274,67.5614,92.0694,32.2677,19.2679,-93.7267,-92.2989,-105.9292,-116.7350,55.6123,66.5162,-20.8693,-24.9276,-63.0404,-65.9293,69.1918,58.9178,-95.0153
74.9490,87.3504,68.5389,118.5064,26.0044,58.0238,-37.9844,-62.6944,-87.5994,-100.5123,61.1382,90.4171,-28.5056,22.1361,-38.8044,-60.7833,76.8004,64.5726,-26.1074
75.4665,99.3348,64.8869,131.3837,42.4078,109.3725,-17.1232,19.6194,-72.0000,-37.0916,79.4101,119.6225,-3.5794,32.8047,-36.4733,-29.5877,79.1008,12.8024,60.9376
41.5302,51.2285,24.6611,66.2755,29.1964,79.0437,-23.6218,106.7012,-33.2338,59.0378,57.0420,81.2753,-7.5522,17.8097,-39.5877,20.6959,38.6972,-60.8061,111.5851
-7.4603,-47.7322,-44.9741,-51.2228,-14.5244,-38.1674,-37.3021,136.2310,-49.6651,91.8156,11.8594,-11.0878,-91.2479,-16.5456,-64.4793,24.5787,-32.8465,-112.8964,89.3111
-60.9446,-129.9342,-112.7572,-148.2778,-65.0629,-130.6092,-18.6083,136.1627,-42.2497,102.4015,-39.4653,-96.9416,-150.9318,-66.9671,-59.9366,7.5152,-105.5873,-156.7477,82.8161
-116.9916,-172.7817,-163.7201,-204.0372,-129.7435,-153.1191,35.6704,158.3583,103.8128,188.1521,-104.4026,-151.0834,-117.8729,-97.3941,19.0344,57.3916,-149.1174,-193.4582,128.8339
-155.1848,-202.1375,-191.4188,-245.0433,-179.4837,-171.5094,70.8026,201.3385,279.3069,313.1604,-155.0676,-184.4091,-77.6759,-105.8219,101.2864,161.2796,-163.8472,-189.1265,141.3387
-176.5943,-227.1545,-185.9303,-272.5623,-160.9707,-190.5273,102.8604,265.4158,381.0050,418.7759,-176.0143,-208.8185,-79.8123,-114.3753,143.6832,252.4414,-178.0639,-129.6928,135.0430
-195.5690,-239.3408,-158.6456,-267.4570,-120.4332,-164.2018,171.0509,339.5813,448.8426,494.3652,-199.4316,-222.7836,-87.3654,-97.0032,178.2176,309.0102,-177.5576,-50.1433,186.8444
-190.8536,-237.2816,-139.1209,-244.4755,-128.6291,-135.4435,187.1050,351.7651,435.8873,481.0379,-215.2981,-217.5725,-98.4280,-47.4040,169.4334,304.9200,-136.9150,-16.1243,218.3200
-148.4928,-215.1420,-132.3617,-224.2761,-140.8917,-142.2753,109.7061,282.4319,306.3569,372.9133,-176.2003,-185.5025,-103.3594,-10.8008,100.8692,239.0484,-98.6589,-43.3856,160.5122
-105.7258,-173.9971,-119.5018,-194.0533,-110.5407,-124.7430,76.1634,220.8784,224.2117,296.1490,-111.8856,-135.6372,-59.3754,16.8709,78.2202,193.6096,-95.6582,-56.8428,121.4280
-94.8926,-143.6863,-99.8501,-159.8907,-84.2865,-74.4203,123.9815,204.0435,254.3296,289.0340,-93.9420,-105.6285,1.1594,59.2643,120.0060,198.7569,-91.5732,-24.4567,143.2433
-99.1346,-135.2772,-89.4011,-149.3232,-79.2650,-56.0278,122.2029,168.7392,239.3424,247.8622,-107.6300,-110.5869,24.7161,81.7956,115.3615,176.0418,-76.2020,-27.4463,128.0336
-82.8354,-110.3483,-83.1259,-131.7060,-65.6167,-49.4554,72.9802,99.3062,149.1806,153.8809,-86.9483,-97.2588,39.2431,77.5686,71.4732,105.6256,-69.6984,-72.7999,85.5954
-38.1709,-54.2424,-58.1368,-65.4761,-57.4056,-7.8262,78.8240,44.5521,105.3613,83.1329,-35.6390,-35.0640,58.9881,78.8276,75.7797,54.5720,-47.2706,-40.1194,90.9467
0.7674,-8.7246,-13.1185,1.3259,-53.0537,21.0908,95.1330,14.8166,109.8283,51.5964,-8.0290,11.4275,55.6457,60.6958,95.0402,40.7935,-6.5478,74.9612,91.1407
6.8648,5.0556,24.1573,14.8999,-15.6218,10.4199,60.6842,-4.9947,100.0024,36.5123,-9.4250,2.9527,54.5149,16.1949,78.6784,32.3943,-0.4057,136.1476,50.6126
2.1506,7.4626,35.0107,10.1078,21.7017,12.6117,47.6323,-6.4294,78.7933,28.2972,-6.5049,-7.4583,73.5145,6.1081,65.2114,14.4071,-22.7931,126.6784,58.5107
4.3482,3.8605,35.7738,19.1068,15.9613,30.5654,79.4072,7.2284,48.1766,8.6396,-5.1577,-3.4765,63.6843,13.9855,61.7629,-16.2967,-20.9210,145.2664,119.0329
-3.5773,-5.7623,49.9869,23.3660,13.6641,23.3176,78.2422,5.1738,14.3652,-21.9187,-28.4404,-24.1279,20.7007,-24.4597,37.0291,-46.1084,-2.4228,189.7476,118.3280
-10.0303,3.3115,73.7477,34.8503,37.1199,9.1785,35.2824,-26.3118,2.1431,-47.8592,-49.3807,-41.8557,-13.5780,-58.8562,8.4399,-56.0102,13.5546,195.1821,43.6229
10.9856,34.5819,89.9462,75.0342,38.4703,22.6455,1.4184,-61.7347,-17.3212,-81.3636,-39.1754,-13.2432,-41.0345,-30.5614,-12.1449,-62.7486,49.6547,169.8558,-11.7427
26.7009,53.6431,93.0633,104.5042,20.3481,53.4622,-14.7868,-65.8018,-55.7855,-111.2800,-31.2282,15.3608,-50.5013,1.2189,-37.9941,-77.0846,93.7372,135.1952,-9.0142
7.4593,49.0685,83.6979,93.3386,16.5853,81.2746,-13.5385,-37.3004,-45.8876,-91.7918,-48.4723,7.1702,-10.0222,-0.6916,-41.3314,-66.6243,102.7233,87.8725,23.2247
-8.4587,42.7199,66.7933,75.6072,16.1287,92.8488,16.4730,-7.0922,19.6205,-34.2515,-52.0191,5.1209,33.4464,4.3852,-2.2732,-21.8463,83.5432,64.1835,45.3250
-2.9309,40.3866,55.4488,70.5942,23.5941,83.5109,56.7425,5.8228,62.6329,4.1354,-29.2855,20.1688,26.5448,20.3694,36.3897,18.9680,62.2484,83.0011,29.5076
-4.6047,32.5912,50.8820,59.2652,52.6067,71.8031,77.7819,3.0606,49.7299,0.8265,-14.8024,17.7642,12.4576,32.9487,40.4360,23.4566,39.0674,87.2648,0.4645
-0.6462,26.7358,39.4431,44.9053,60.8302,73.9079,75.3157,-7.4935,-1.5327,-30.4380,2.5537,20.0472,37.1658,61.0053,24.7388,-2.2311,25.8130,58.8501,9.0302
34.1088,34.5349,22.0984,40.5601,34.8282,82.4352,62.1968,-9.1918,-55.7141,-52.5370,57.1084,62.5018,91.9630,91.0826,16.3232,-12.0758,37.0173,53.3322,34.2443
66.9203,48.2350,13.0538,35.3538,27.4708,86.4856,50.8635,-3.4444,-70.2778,-42.7573,117.0852,107.8791,156.7250,91.0920,25.5388,18.1612,50.2907,77.5332,15.8290
75.8702,56.8047,17.8516,32.8700,45.6571,81.7455,44.1658,-17.5926,-68.9500,-44.1214,138.6815,117.9993,185.4946,80.6447,33.3303,29.9795,44.9808,98.0481,-19.7207
84.9158,65.2425,35.4683,53.2096,54.4594,76.8467,40.3726,-38.8961,-88.1352,-72.8589,136.5663,116.1927,155.8490,81.8186,25.3042,-7.6271,35.7792,121.9154,-1.1367
91.8231,78.8881,48.1195,76.3112,50.2226,84.9607,37.3611,-31.4424,-61.5766,-56.1767,132.1263,124.0470,143.5141,80.2641,33.5838,-10.6457,34.1101,127.3612,37.5619
82.7233,89.0378,23.7620,64.9901,28.9936,86.0584,27.3441,-29.5842,37.3574,9.9257,131.5363,134.4840,194.4164,77.8701,78.1872,55.8147,25.7199,61.5573,2.9597
81.1912,89.6133,-19.5414,35.6285,3.6298,62.0942,18.0883,-68.3738,91.9682,31.0900,151.4279,145.9161,240.5365,94.9641,116.9186,100.0010,1.6938,-14.0086,-77.4705
93.3000,90.0152,-14.8458,33.6449,35.6144,58.1820,31.9040,-87.3600,50.3552,0.2064,178.3907,153.6035,245.9841,128.5080,113.4383,82.2693,-17.2266,5.1861,-92.2150
93.6263,99.7494,36.2212,63.3390,114.2691,98.2708,52.5332,-60.7056,-6.3006,-24.0963,175.7112,149.0724,233.6693,153.2684,82.2425,52.1483,-10.0213,60.9941,-49.8415
88.3072,111.0755,51.3475,88.2896,136.9804,112.9700,52.1211,-63.3778,-26.9587,-44.3752,163.1148,146.7140,187.7663,146.4782,61.5984,28.2082,-3.6772,41.4509,-53.0299
91.9165,106.6445,10.1433,78.0007,93.7921,67.3183,57.7833,-97.9378,1.8667,-42.8213,175.9680,153.4527,133.2203,120.1413,86.8796,27.6023,-37.0773,-5.4652,-96.9462
88.2182,86.3485,-17.6774,41.0348,72.6169,27.9966,79.8025,-86.8014,76.3178,18.5490,186.2892,146.9384,153.7728,110.4392,138.4577,78.0823,-77.7909,12.8106,-103.8042
80.2922,76.5322,-2.0835,22.0240,84.6516,30.0737,72.8793,-59.0163,116.4344,62.5687,174.0372,131.4754,212.6432,111.4935,151.7082,120.4345,-70.8054,63.1121,-93.9469
93.1972,94.8583,15.6934,49.3581,80.2813,38.3239,54.1500,-95.0150,81.6435,12.0725,175.0115,142.0504,199.6662,99.6764,132.7271,88.1177,-41.4434,85.5283,-118.2568
117.3080,121.2653,16.5389,95.4141,60.9560,47.2934,72.8281,-152.9810,36.8818,-64.1418,194.3953,173.7934,143.0639,106.3190,129.9606,28.1840,-29.6415,86.6113,-130.2926
127.1168,129.6405,19.3278,118.3329,44.8412,70.6121,75.7538,-152.9808,5.3310,-90.5530,193.4497,188.1498,126.7224,144.0839,114.2591,-0.2330,-9.8347,66.5885,-88.7864
112.5619,116.9111,16.2376,107.2183,21.2354,77.1783,33.4014,-108.1971,12.4809,-54.8105,158.7935,169.2587,125.8230,155.1774,83.8893,11.8458,9.6088,8.4607,-41.4509
64.9280,81.9236,-22.4718,63.6841,-17.1111,41.4727,46.6916,-62.7999,152.4134,58.2580,99.8464,120.8138,101.8453,132.8175,132.8368,78.2007,-36.8118,-65.0946,-17.9232
7.5025,32.4851,-83.4689,4.8379,-66.0167,-0.6957,127.8429,-34.2930,325.3862,170.4685,42.7238,67.6947,84.8715,128.5220,230.6020,151.2178,-110.2890,-115.9464,3.6927
3.4907,12.0276,-110.6757,-15.1726,-109.8802,2.8875,142.9134,-32.9297,271.9973,132.6477,41.5643,66.0640,89.5734,126.1560,214.1351,127.6192,-85.4561,-123.1463,17.4675
60.1684,42.6904,-78.0670,27.1280,-111.1005,47.3022,66.9804,-43.9398,33.4437,-12.2028,102.7464,123.9816,91.8475,96.1488,86.6234,32.3758,24.3507,-79.6211,9.0121
107.9637,74.1765,-20.1215,68.7826,-50.5008,66.1664,-2.7940,-34.6687,-113.9994,-78.3365,154.4837,161.0630,75.0194,79.0450,-4.5380,-16.3837,73.0402,-13.0966,-0.9759
113.8414,67.9683,22.1377,61.2787,36.7770,28.8245,-38.6573,-8.3946,-125.9169,-44.3170,163.1989,136.8914,41.5961,81.7979,-30.0902,-8.8615,23.2795,35.8098,-5.4503
115.4926,63.6696,48.5059,53.7153,98.0280,1.5020,-57.9116,8.5462,-130.5909,-20.1508,171.3205,120.0950,19.9177,65.5538,-43.1714,-1.4714,-13.0973,74.2197,-17.6274
137.5295,92.5265,74.7240,90.6231,112.1505,34.2720,-59.7043,12.3870,-149.2785,-33.4328,194.5540,154.2305,32.3501,55.7905,-50.3235,-0.8597,24.3704,117.2036,-18.8433
153.0766,114.9168,93.2837,124.7879,101.2912,70.1180,-64.0880,16.2320,-155.2298,-44.0159,197.5724,178.4325,48.8496,73.8241,-55.0069,-10.1727,59.6380,130.9698,19.5338
127.6426,95.4168,89.5467,108.2111,98.6475,58.4130,-64.7159,34.1526,-132.7855,-22.9343,158.2989,138.5519,35.3459,62.2214,-55.3398,-32.0240,22.3707,102.1965,88.0060
75.2087,60.6616,78.4641,77.4510,98.8484,36.6309,-39.6198,74.6899,-57.2079,38.8727,90.7045,73.1457,-2.7179,14.4724,-34.7320,-27.4486,-30.3345,73.5993,151.2518
51.2376,50.3513,84.3346,82.6673,74.2970,33.7437,-50.7889,128.0850,24.5797,115.3112,35.3085,48.3888,-57.6005,-0.0105,-30.7064,19.6530,-11.2710,54.5277,176.3253
63.6209,56.3765,88.9682,97.3919,32.3002,26.6634,-117.3159,172.9041,64.9583,179.4735,20.0649,63.1094,-102.3608,21.3287,-55.8499,79.9336,42.0836,15.5061,161.9056
51.2449,39.0492,56.1364,64.8427,-0.6186,9.1507,-115.6451,188.4938,118.9909,228.0595,14.4048,56.6810,-81.0107,23.7017,-30.3997,127.2521,32.8943,-23.9131,146.3417
1.1805,-0.9636,5.6145,2.0550,-21.1866,-4.3806,-26.5000,160.6653,186.4533,233.4578,-14.5363,10.7213,-11.7663,-1.4908,44.8260,136.2185,-22.6722,-26.3907,140.5019
-20.7153,-14.7259,-13.1383,-23.4348,-31.6513,-15.3065,4.5600,107.3352,189.9067,189.6093,-29.8993,-14.8640,23.4644,-30.0348,70.0911,112.2916,-39.9243,-13.7084,102.5230
5.1875,8.2520,-3.5906,-7.2458,-21.1964,-21.7990,-35.2039,73.0852,153.0950,156.9901,3.7428,12.2441,26.0036,-38.4473,50.4348,105.2918,-24.2162,-10.9411,39.7347
31.1674,25.9209,8.9855,7.4746,15.6860,-9.0254,-32.1727,68.7499,112.3627,139.3023,49.6983,44.4984,43.3344,-9.7300,43.9080,102.1772,-26.6780,8.2567,27.5240
40.9617,33.1392,36.0354,29.9737,63.9621,25.4100,2.7502,66.7851,38.5148,85.4828,64.5519,52.5819,45.0548,35.2094,24.7186,52.7129,-27.1982,48.6553,72.1742
43.7599,50.5032,69.1164,72.2495,88.2296,60.5175,8.6272,63.1560,1.6813,47.1898,48.4021,56.2881,7.6921,62.0833,-1.6012,16.3645,0.3605,59.8692,95.6398
28.3536,46.4891,60.5119,71.1296,68.5715,64.7326,8.5763,79.8687,56.1783,86.6618,21.0825,49.4129,-7.2861,76.7127,9.9757,57.7435,17.9237,22.8786,76.9011
8.7443,2.1676,16.7339,3.1461,38.7522,33.5794,3.7901,111.9604,67.0761,128.3778,15.7221,25.2720,27.6170,92.4831,12.4222,105.0480,7.5824,-15.4420,58.2863
20.9420,-23.7250,-8.6364,-45.0999,31.9967,4.9036,-22.0988,124.2542,-1.5444,117.8902,52.6921,27.7237,63.6894,102.5348,-15.6899,108.6322,0.7349,-19.6293,41.3095
46.5918,-6.2753,-17.8691,-33.5280,24.1740,-0.0754,-15.0796,102.0854,2.7227,112.6821,94.6645,63.7341,72.3460,108.8309,5.3642,116.8625,-5.2787,-12.5067,15.6593
37.5773,-5.1924,-43.1706,-30.2337,-2.1270,-8.0652,38.1710,77.2427,73.4576,127.8999,89.1193,66.2978,54.9182,108.9055,63.2648,125.8587,-36.5572,-28.9669,13.7671
-3.5243,-41.2109,-69.8140,-64.9073,-20.8901,-33.1486,67.9705,77.9163,98.6928,133.6929,40.2971,14.8623,19.6176,84.6419,74.7808,111.1057,-70.6059,-60.5132,28.7437
-33.3836,-63.3028,-73.8509,-92.1798,-21.3190,-55.1246,54.4123,72.2834,105.3884,131.8191,1.1934,-28.1695,8.2218,42.2216,63.2258,109.4227,-74.0487,-65.5175,-4.4419
-18.2196,-44.6664,-54.8350,-84.3450,-2.7508,-63.9842,15.1751,26.2597,77.5456,92.1151,20.0139,-18.9919,35.0922,9.3026,48.8797,100.5842,-57.2008,-28.5715,-79.9827
37.2490,0.5861,-8.9069,-36.0749,43.9282,-56.4292,-51.0125,-18.1783,-37.7596,10.3066,81.8160,27.9877,33.5198,7.9968,-9.7997,42.0842,-34.3331,14.9352,-113.0319
84.0463,52.9593,48.7638,45.5446,80.8565,-19.4290,-90.1906,-15.5171,-82.5770,-12.7528,109.6765,77.8144,-16.5942,53.6683,-49.3809,12.9295,0.4303,34.6697,-79.7134
88.6368,84.1643,77.9414,107.1374,68.3672,36.9023,-48.9768,4.0635,13.9213,32.8407,82.7633,103.7460,-27.2271,122.4275,-4.6186,52.9419,40.2900,52.4905,-29.7869
84.6199,80.7247,78.8663,108.0911,58.7124,77.1577,-1.4340,13.7548,10.6644,20.3328,79.5142,110.5958,28.1145,155.5988,13.7474,55.9105,67.6479,90.0206,7.7081
103.9936,68.6745,86.4880,87.4181,95.7662,84.3543,-26.8663,36.5461,-144.1478,-41.7661,124.9665,120.0015,56.1456,149.8402,-59.0611,7.7091,81.8643,118.0041,24.4515
116.3309,70.1413,103.5833,91.7148,121.8782,76.9437,-68.0772,67.4384,-184.2822,-30.5630,137.3063,125.3614,23.9808,152.1676,-101.6874,14.8059,93.3309,116.3543,15.7940
94.3049,74.8556,111.0295,108.9923,103.6157,86.2020,-43.7493,74.2897,-65.2664,28.2867,88.3149,110.7585,6.0740,162.6882,-53.8071,64.5803,102.4668,116.6741,13.4568
62.7294,67.0687,99.3365,106.5065,85.7001,108.6532,25.2273,60.9360,-3.7383,29.6335,50.5855,90.1360,28.3606,153.4712,-3.1351,65.9185,97.3623,127.7504,33.3795
53.0764,45.1707,67.1313,71.4944,83.0072,99.1983,51.9844,35.3779,-81.7493,-33.7307,67.1328,78.7230,47.5414,130.6605,-15.4887,14.2944,73.0489,111.2607,28.6938
66.0481,25.6129,41.2921,29.0239,79.3825,53.7122,-3.1181,-4.8653,-207.9266,-111.8090,101.8356,69.2990,57.6326,107.4757,-72.8980,-54.0942,45.3672,76.1349,1.1671
71.8998,23.3967,51.4377,21.6836,78.4458,28.5943,-52.8019,-20.9610,-226.8974,-124.3571,96.0599,52.4156,64.6627,94.7969,-94.3273,-86.1521,25.4443,77.0049,24.8552
40.5310,19.5301,63.0122,36.1528,73.4739,33.3248,2.1673,16.7405,-60.4507,-19.7048,36.5044,25.1758,33.6271,106.3888,-19.9008,-22.2756,1.1849,96.8042,74.5607
-3.0354,-2.8638,35.4622,22.7818,69.6982,26.1918,93.7595,57.1161,84.9350,79.5995,-5.2066,2.3627,-27.8907,115.5070,57.0215,66.3521,-26.3640,74.1639,45.5593
-7.2396,-13.4445,5.8852,-1.3230,96.4347,16.1331,113.7842,47.8818,6.2885,36.8961,31.2638,10.3912,-51.0269,83.5262,33.4270,52.3833,-38.1516,37.4816,-30.6423
11.7653,3.6868,6.3120,7.2728,116.3701,21.3484,108.5523,2.7340,-94.4675,-50.3767,75.8796,31.3831,-32.7904,26.9913,5.9088,-18.4255,-44.0632,53.5055,-49.1495
8.9399,16.0816,4.5413,26.3221,72.0854,4.7421,123.7558,-54.4130,-25.3602,-63.6344,52.3207,23.7886,-43.0227,-19.8267,53.5521,-41.2349,-58.0191,85.5609,-45.7309
7.8641,20.6644,-3.8297,36.6088,24.0551,-28.8702,94.1917,-103.8764,17.0792,-73.7032,25.0698,13.5903,-92.7391,-35.9178,63.0159,-48.3591,-54.2140,63.2995,-90.2088
35.4352,40.9648,9.7266,61.6065,46.3046,-21.2654,43.7474,-110.7807,-65.6049,-112.9380,55.6629,42.5948,-126.6885,-2.3656,6.2247,-71.8329,-30.5284,21.9899,-120.1815
46.4341,52.7013,21.5367,79.7717,81.2215,10.9098,70.9146,-80.9020,-77.7461,-100.2041,79.3362,66.7989,-119.5700,42.3695,8.1679,-61.9056,-31.1678,23.3553,-87.8837
15.2744,31.8622,3.8594,56.0769,58.8083,12.1434,124.9257,-61.7789,16.8703,-45.6645,44.1151,40.7867,-90.9488,37.3609,65.8136,-20.8133,-48.4482,36.5198,-60.8178
-16.7920,7.6263,-13.8292,26.4398,3.3266,-4.2050,116.8061,-53.7861,108.6737,5.4782,-14.0410,3.1323,-71.2285,26.3408,93.9808,26.8472,-32.8783,23.8963,-69.9303
-29.7003,-4.9617,-16.0018,17.8763,-39.2148,-18.3228,99.0538,-29.8503,209.0420,79.4461,-57.7838,-13.8950,-79.1465,61.3425,118.5399,98.1604,-8.2542,17.8993,-81.9511
-38.9309,-13.5377,-21.3587,7.6693,-36.5630,-36.0954,117.0081,-14.4584,283.2244,137.0226,-67.6769,-22.3819,-93.1277,76.6363,153.6943,149.5921,-27.6061,21.8553,-101.2299
-44.4773,-1.9049,-23.1905,8.8123,15.7713,-23.0053,139.9155,-23.8148,266.1449,124.0159,-44.1481,-16.1148,-77.4558,57.2767,159.8366,134.6734,-64.5290,-6.2751,-115.6823
-48.3700,17.3047,-11.6213,31.5401,57.3022,26.5430,175.2889,-9.1470,268.5958,126.6530,-35.8072,-0.3023,-48.2825,86.1870,170.8475,131.6279,-71.1569,-30.6146,-79.5887
-54.2522,2.4234,-0.4542,27.5867,50.4845,38.1983,195.5112,40.9561,309.8369,178.3113,-56.8654,-8.2777,-43.3199,129.7548,183.7855,176.0890,-50.5609,10.2117,-38.2535
-37.5948,-16.7068,12.5407,3.0431,46.9320,7.1304,121.6862,63.4056,228.0566,164.3853,-47.1671,-17.4696,-48.4387,118.4094,117.1240,172.9130,-17.2856,49.0764,-57.7324
-0.3497,4.9161,26.4037,14.0622,67.6300,11.0706,29.2863,47.2999,94.1432,97.8158,0.5069,12.8279,-31.9308,123.8186,32.9591,121.6037,7.4294,7.1124,-75.9095
7.7334,19.6960,11.1049,22.0846,66.5166,27.5184,43.0395,44.8132,86.0952,92.0291,28.1466,37.1948,-11.2894,111.1934,43.7002,106.6450,-9.8698,-31.1094,-50.3451
-14.1976,1.6076,-23.2911,-16.0571,41.5255,-18.6722,58.6913,39.5449,71.8984,77.4254,36.7478,13.7337,-26.5655,-115.5525,52.2288,70.0067,-45.3719,13.5674,-69.5914
-15.4542,18.6406,-28.5933,-19.0869,18.2610,-72.4765,-37.4201,-15.3510,-48.7570,-25.5534,52.0311,-1.6845,-74.9960,-453.4389,-26.2148,-48.7596,-41.3383,40.6529,-135.8943
-3.6784,67.7504,-19.5358,37.4742,-11.2351,-54.9940,-97.1128,-60.6011,-58.2796,-69.0687,46.0335,21.1209,-106.6339,-539.9306,-51.0963,-111.1598,-23.0309,-28.4661,-127.4954
-20.4150,54.2024,-42.4577,35.7676,-36.8720,-32.8150,-25.4409,-30.7860,76.1749,19.7852,13.2409,19.2555,-96.7500,-371.5062,26.6611,-39.9328,-49.9347,-94.3702,-60.8141
-40.7921,-12.8513,-69.4669,-36.8419,-46.2225,-80.4540,4.5028,-5.8998,77.4916,47.3207,-8.8830,-29.5488,-96.9960,-269.2902,35.1697,-7.6945,-82.2120,-75.9032,-53.7467
-24.7993,-33.5285,-53.2612,-46.1911,-73.6265,-129.6865,-82.4902,-67.4907,-90.4785,-86.9302,-24.0073,-62.7714,-158.4427,-296.6202,-67.8070,-123.9744,-50.8438,-36.1756,-75.2167
-3.1319,-4.0209,-24.4582,22.5176,-114.5070,-110.5182,-122.0378,-141.7067,-188.1567,-215.6263,-50.8460,-53.7788,-243.1684,-284.0703,-128.6514,-242.1819,4.5895,-42.9621,-53.1294
-16.6708,2.4678,-32.9770,46.2860,-114.9709,-87.3204,-68.0692,-157.5159,-156.6183,-223.6121,-70.1430,-50.0170,-289.2155,-233.0350,-103.2822,-241.1060,4.5446,-86.4631,-65.1040
-42.4800,-25.7338,-62.3674,-4.6136,-93.4615,-133.1859,-65.7839,-180.5972,-147.3492,-218.7804,-74.6315,-82.7335,-298.0911,-244.4443,-96.2698,-216.7295,-35.6337,-125.3905,-165.3590
-39.9332,-47.0139,-70.0197,-46.0327,-104.2322,-200.3265,-147.8701,-259.1085,-241.8578,-307.8319,-76.6159,-119.2910,-299.4167,-282.9138,-152.4568,-278.1849,-45.0423,-123.7965,-254.5013
-12.6478,-43.0043,-56.5040,-37.1337,-126.7663,-217.6144,-210.4311,-329.0459,-371.9343,-428.1035,-66.7110,-118.9949,-307.7593,-280.2505,-218.4590,-371.6288,-14.3455,-98.5614,-272.3490
12.5293,-26.7107,-44.2183,-13.4421,-123.8790,-206.1091,-235.9201,-346.4525,-441.4359,-477.3127,-43.4562,-94.1777,-320.8964,-255.3223,-254.4357,-404.5113,11.8230,-99.9176,-278.9967
31.1609,-13.4055,-25.1944,-5.6464,-97.1712,-208.0473,-282.2115,-345.5296,-461.7357,-473.2762,-23.8799,-80.6379,-308.7071,-228.2099,-278.5595,-393.0189,19.2788,-104.8400,-302.7597
51.3531,-3.2890,8.2068,-4.0697,-52.1997,-208.0557,-332.8845,-352.8685,-501.4989,-485.7676,-4.3149,-76.9279,-262.2805,-187.3724,-307.7644,-397.0311,20.4345,-77.0018,-310.4471
57.4232,-0.9191,8.7926,-7.9647,-24.7460,-198.8476,-327.7577,-364.1275,-535.0272,-507.6860,14.8868,-71.1028,-233.2560,-145.2691,-312.7749,-414.5374,1.1353,-93.7641,-301.5800
31.0170,-29.2752,-55.6957,-51.8731,-58.5534,-212.5534,-278.8739,-378.2400,-520.4774,-509.5049,11.7363,-84.8417,-226.5292,-124.1831,-281.5110,-417.7617,-44.4774,-192.0085,-303.9530
1.6811,-72.4047,-111.8738,-120.9192,-102.0375,-238.1199,-259.8649,-386.8945,-517.2072,-511.1439,-1.1233,-116.5752,-173.4379,-128.0793,-264.1382,-410.3925,-67.9564,-238.8113,-316.6858
14.4967,-64.6975,-85.5293,-126.2353,-84.1068,-224.5830,-299.4085,-366.0884,-537.6534,-502.3608,14.9000,-109.3873,-95.7871,-155.6342,-282.6691,-395.2001,-40.1526,-179.3451,-308.1111
48.8292,-16.5174,-41.5939,-70.1493,-50.2031,-189.5182,-335.3932,-307.1996,-503.6361,-434.8576,49.7390,-58.3425,-93.1515,-183.2197,-287.8237,-356.4013,-18.2286,-154.5919,-262.2969
39.7266,-35.3439,-77.1608,-89.5499,-64.4576,-210.2649,-304.9462,-235.5140,-428.2759,-331.8207,54.8859,-54.5945,-145.5259,-171.0731,-255.5531,-295.7304,-62.0432,-216.7249,-220.1636
-18.2198,-136.8757,-154.2722,-214.1795,-96.9962,-289.2829,-242.0995,-184.5592,-379.4376,-257.4489,16.1853,-134.6258,-156.3291,-141.2747,-218.6465,-237.8999,-137.4347,-245.8860,-220.5990
-59.4734,-196.2337,-173.6592,-286.4656,-103.3114,-325.5698,-210.8579,-152.1046,-345.9253,-217.1835,-24.5949,-197.5854,-127.7132,-155.7347,-199.1755,-204.7497,-163.1328,-198.5429,-213.8868
-49.3275,-156.6022,-127.3062,-226.6900,-79.7109,-260.4904,-195.2758,-105.0159,-311.8670,-183.9746,-25.6357,-166.5605,-112.6021,-186.9314,-190.9547,-189.6442,-120.5356,-144.0855,-147.0287
-29.1984,-106.5102,-77.7483,-149.5354,-42.1498,-179.1379,-168.7838,-42.6047,-270.1258,-133.2960,-13.2684,-114.0966,-114.1546,-164.1682,-179.4849,-153.4548,-73.2913,-113.7078,-80.1625
-39.1880,-112.2859,-64.2691,-154.5060,-35.6301,-185.3814,-181.0079,-11.0252,-190.2938,-61.3101,-40.0198,-129.4554,-109.5941,-131.1652,-160.2793,-93.3934,-73.3869,-108.2575,-78.6882
-64.6740,-140.1143,-82.6623,-204.5929,-79.6353,-233.9445,-237.8160,-31.8456,-133.0371,-33.2457,-86.2513,-180.5264,-67.2067,-158.5430,-152.8009,-77.3825,-91.5516,-134.5579,-95.3792
-86.2272,-146.3738,-103.8592,-225.8787,-112.8782,-212.0053,-232.6733,-62.2803,-141.3060,-72.2813,-107.4834,-197.0420,15.8942,-181.7733,-145.2873,-107.4677,-82.5476,-165.1856,-77.2533
-102.7268,-123.7815,-105.0069,-195.6235,-104.3409,-133.0201,-137.4516,-54.9399,-65.7504,-52.2270,-115.4304,-171.2862,75.8197,-135.1339,-79.0533,-68.3322,-59.4793,-171.4315,-59.1793
-89.0511,-85.1413,-99.7409,-153.4918,-106.7543,-98.7900,-84.4900,-34.7985,95.0247,49.7631,-96.5054,-118.3966,99.1702,-92.9133,13.7036,43.5532,-46.2380,-157.1067,-87.1444
-29.6098,-57.7445,-106.4094,-152.2158,-122.7325,-122.2110,-143.1399,-67.6369,49.0224,29.5112,-7.9824,-55.8249,157.2372,-108.5535,6.0856,55.1525,-33.4885,-126.8827,-146.8398
16.3764,-48.8904,-100.0461,-164.0488,-96.9195,-125.3610,-209.6878,-133.4478,-181.8404,-130.5263,69.2983,-28.7017,221.8941,-121.3248,-87.6075,-62.6089,-19.3795,-103.4935,-170.8340
-6.5336,-30.5409,-54.7168,-119.2029,-45.6836,-69.8741,-191.4185,-125.1503,-183.9585,-150.1929,20.2478,-50.6516,202.8055,-103.3539,-103.6815,-106.7261,-13.9481,-112.8518,-103.0675
-57.6493,-8.4453,-10.7910,-61.6703,-21.6997,-5.3552,-123.7761,-34.1359,61.6585,19.5539,-78.1589,-76.4085,170.9881,-88.1342,-15.6217,-6.3181,-16.5778,-121.2405,0.9009
-84.7000,-30.5794,-26.2336,-97.5241,-21.0778,-1.8955,-79.4593,18.2392,168.2942,115.4882,-96.0753,-94.8371,229.4852,-77.3513,42.9422,72.8930,-40.1736,-112.2434,28.2076
-101.7481,-88.8555,-83.5594,-196.6275,-39.3079,-59.6793,-87.1157,-2.0625,101.0335,83.4659,-79.0955,-133.7174,298.0557,-81.1978,31.1661,57.8443,-87.5549,-136.8330,-6.0463
-119.9871,-126.0426,-123.7366,-251.1426,-96.9297,-115.5225,-123.5456,-6.3347,99.2074,88.8170,-101.0886,-172.1660,294.1537,-140.1811,20.1059,43.9353,-111.7190,-171.8054,-1.8304
-129.2954,-144.7547,-140.1225,-264.8044,-166.2761,-138.7085,-129.6735,22.6337,134.6007,120.8006,-128.1047,-187.6639,268.8524,-221.7559,26.7389,51.6610,-93.8630,-140.4253,37.7956
-153.7656,-181.2028,-155.2089,-289.2169,-193.5157,-144.5007,-82.2985,35.7555,107.5027,96.4667,-160.0405,-219.9151,238.6552,-240.8968,22.6252,30.2062,-82.0180,-100.9765,60.2400
-196.6118,-205.1162,-152.8426,-294.4495,-177.0360,-130.2398,-42.6244,43.7837,121.9476,92.0541,-224.4959,-267.5402,192.2661,-191.8952,19.4603,19.2735,-87.5738,-137.9645,75.6799
-192.0601,-169.1045,-117.9419,-249.9281,-148.7442,-92.8882,-62.9634,55.5899,204.9575,147.1770,-240.2057,-250.7038,207.7050,-129.9861,38.3957,65.8062,-73.6663,-169.8327,83.4642
-120.2838,-101.7859,-81.0685,-191.4397,-126.3332,-53.5573,-93.5610,49.1253,233.8409,176.4700,-151.8184,-155.7002,297.4327,-72.7738,67.4259,118.2998,-43.3558,-117.5711,74.4608
-59.1216,-57.9825,-54.8286,-140.8734,-103.3755,-6.0142,-69.4293,64.5671,199.4399,170.6323,-66.8688,-70.4814,341.0819,-19.5792,79.8461,135.7119,-9.6742,-42.3603,98.8718
-49.3054,-36.1731,-4.1557,-86.2758,-53.5518,62.4151,-29.0164,121.9567,162.0901,167.9872,-64.1525,-44.9527,314.1802,1.0796,57.1386,135.0948,44.2868,27.9987,151.8251
-39.2951,-5.7538,73.2795,-33.8218,23.0101,111.5820,-48.8820,130.6645,92.2149,120.7879,-70.4152,-41.1530,310.9767,-21.4873,4.6052,101.8218,98.2989,123.8184,152.8739
1.0907,31.5304,124.5967,2.9288,69.2082,119.4332,-112.7179,68.3197,-16.9734,22.7904,-32.3783,-19.6740,343.4861,-36.5024,-47.9382,24.0835,114.0387,187.4994,134.7182
36.4949,52.9927,130.6152,27.6276,56.6193,136.4236,-141.0724,56.8867,-73.1349,-12.4803,2.3593,15.7675,364.8367,5.7040,-70.0976,-18.4872,119.9336,170.3267,193.6079
46.8496,63.3812,135.7692,54.2180,42.7251,190.7728,-115.1506,145.1779,-26.7636,66.9799,6.8413,51.7665,374.5965,74.1348,-56.3959,38.2290,154.2220,150.8522,289.7245
52.5369,79.9359,164.0462,91.6075,61.7813,237.7167,-85.8956,240.0426,43.5971,164.3176,5.4212,80.3514,356.2744,97.9179,-38.0541,112.8052,188.1027,180.5028,350.4637
53.4344,80.1116,174.7153,110.0089,63.3248,231.0685,-77.6045,280.1509,62.2071,199.3204,-3.4810,78.6723,286.5186,68.4214,-40.7052,111.4474,177.6680,196.1778,401.3530
20.9542,36.7497,132.7695,64.3985,26.8034,177.4386,-56.9393,294.4378,103.1068,234.3255,-39.0718,31.3097,228.2705,36.0747,-22.3563,106.5749,119.2978,153.5441,431.9489
-33.6896,-13.1760,65.4374,-15.4263,-1.4965,125.9303,-6.1554,308.0684,243.3133,332.3562,-74.2670,-17.3198,244.1268,26.6719,56.2159,197.0916,53.9771,84.4989,373.6876
-51.8130,-22.6194,14.2787,-55.9722,-16.2569,108.2916,32.7595,294.6436,336.6533,387.0580,-57.5155,-8.0127,286.4055,22.9463,122.4373,290.2613,38.8638,37.2977,253.4409
-16.9397,-10.7688,-15.2750,-56.4594,-46.3916,94.0250,24.1078,228.1443,239.8693,295.0329,5.7990,37.1980,288.5065,8.6168,103.3006,255.3790,63.9198,34.9390,159.7518
18.4445,-3.7478,-26.8423,-50.9921,-60.9581,63.0347,3.6927,152.6083,116.6325,181.1078,55.3382,60.2158,257.0831,-8.4379,66.4651,169.5267,58.4878,51.0088,116.8754
27.7865,19.8217,-8.1547,-20.5649,-23.5477,62.6421,12.0082,127.2035,131.0564,173.6438,67.4089,71.0675,225.8387,-8.6154,79.3436,155.2715,30.9720,55.5844,102.7412
42.6337,65.3410,41.3329,43.9218,22.8867,104.7709,7.4820,116.6459,146.4600,166.7283,68.7454,96.9862,209.0119,5.7813,77.7005,152.9818,55.8297,77.6071,94.9457
60.7045,93.7588,88.4209,90.5266,29.6268,125.5711,-47.7723,71.5181,79.5323,88.4292,54.0174,101.1893,196.4206,6.9791,25.8795,92.9818,108.4177,111.5054,85.1251
34.0048,78.6896,84.3177,80.5890,9.4436,106.1753,-69.9482,46.6297,89.4387,70.6670,0.6560,57.1517,164.4633,-4.8367,12.6783,60.0484,97.2534,71.0575,90.4604
-23.6034,34.3263,16.5557,29.2353,-14.5373,84.3320,22.7791,79.7875,200.8113,150.1342,-39.4236,16.4769,125.5084,-2.2747,83.1774,107.3348,24.5493,-27.0388,105.5536
-37.0022,-1.3666,-50.4579,-22.0998,-30.0938,60.1761,129.3946,105.1206,240.2735,193.5675,-2.8670,24.1469,122.8313,1.4334,151.4388,151.2896,-35.3960,-39.8025,98.5340
-0.6719,-6.9158,-40.8279,-36.6179,-18.1274,27.5506,109.2586,101.6729,167.3729,166.3558,51.7621,41.3000,139.4135,-18.7321,131.2272,132.2049,-44.2010,52.3012,96.3887
6.5681,-11.4368,20.5836,-23.8811,15.3989,17.1638,32.4925,117.6452,87.0891,132.9412,21.9983,6.9243,111.1488,-39.8124,52.4294,78.2268,-19.2858,128.1451,142.5345
-41.8988,-37.4046,46.9746,-21.6203,33.8523,27.3131,52.0947,131.3484,72.5914,107.2976,-64.5369,-62.1391,45.4247,-63.3860,21.6568,29.2443,-12.3525,145.2828,187.6984
-74.1903,-40.3973,24.8599,-17.7753,25.5866,26.3387,130.7545,105.0877,136.3036,105.3935,-90.8430,-79.6641,4.5969,-122.6954,76.6707,20.3244,-44.9819,139.5795,171.2267
-40.2611,2.7817,6.7302,15.1034,17.2568,20.5540,141.5811,85.0962,197.4318,139.7110,-26.2477,-14.1395,-7.6560,-162.1932,126.8902,59.9314,-63.3324,117.2412,116.0531
10.3662,32.6086,8.0478,40.1616,28.1212,17.8479,98.8680,90.0695,155.6923,144.4578,45.8575,51.7858,-29.3489,-122.1741,101.7701,93.3778,-37.4148,93.9949,50.7022
15.6202,21.1911,6.1979,28.4283,35.7336,-3.4817,70.4513,62.6158,78.9461,90.4627,51.4438,44.9266,-63.7764,-98.9238,56.9286,72.6340,-20.0515,84.8808,-19.8099
-6.5554,14.2405,-8.9468,18.1276,-0.5312,-39.5266,35.7720,-6.5660,70.9208,33.5495,10.1784,6.6011,-98.3421,-168.8494,42.7414,18.0656,-28.8444,46.8070,-69.2535
-6.4731,21.4524,-34.0940,20.5320,-60.0856,-61.0250,-13.8509,-67.0065,48.2360,-20.8224,-3.4448,2.7172,-119.0500,-212.5933,22.5446,-33.2656,-22.0206,-25.1385,-96.4840
16.1239,17.1300,-48.1209,7.4873,-54.4849,-50.6028,-26.7218,-91.6900,-67.7704,-94.3504,38.4953,25.8667,-86.3859,-133.1491,-19.7349,-67.4995,-5.4860,-57.7028,-119.2158
30.2625,17.2310,-18.0069,1.3332,31.7771,-0.8035,-17.1610,-78.6723,-183.5452,-146.5003,76.3753,38.3674,-1.4135,-21.0130,-62.1119,-88.2507,4.3145,-35.7050,-100.8776
21.8680,31.7463,44.5128,28.5836,93.2995,58.0316,-52.3819,-49.0199,-227.0989,-162.4590,42.5223,20.1854,45.6914,13.2239,-113.0889,-113.3265,42.0233,-13.2872,-38.0224
-7.6222,30.7185,85.6265,50.4168,74.3737,69.7028,-109.5044,-47.2257,-217.2283,-176.0933,-46.8856,-30.7292,10.6042,-33.2627,-158.2504,-142.3945,96.8934,0.1437,-15.2070
-42.4768,16.4409,87.1606,45.9445,38.4019,55.8410,-105.1552,-75.9728,-168.4869,-187.2995,-115.2188,-77.9546,-16.1384,-86.6648,-145.8871,-155.2970,110.6961,19.7168,-32.3785
-49.6805,19.3367,71.8724,48.2750,26.6369,83.3804,-37.3543,-93.5900,-143.4083,-201.7738,-111.2297,-69.9830,30.2213,-76.6320,-97.9806,-168.5001,95.1259,30.8689,6.7011
-22.1897,31.6290,50.1740,56.5937,22.4534,115.0157,12.6362,-89.7748,-201.6019,-235.0319,-48.0314,-20.9448,72.2424,-57.1092,-84.8793,-201.8878,80.8408,28.1598,70.1750
-3.2556,24.2456,21.9557,31.5247,29.2078,64.6598,-7.7930,-88.5268,-252.4623,-238.0927,6.8548,-5.8506,35.5624,-116.1235,-102.0896,-214.3002,35.8756,8.6705,37.8408
-22.3444,-19.3918,-10.5907,-35.9444,26.7280,-47.7561,-73.6470,-115.0545,-217.8330,-199.4278,-13.5768,-62.6909,-32.3672,-120.3336,-111.4503,-185.5300,-36.0421,-55.6184,-64.9436
-45.0828,-94.0548,-57.1355,-121.1655,-42.2848,-148.7883,-136.1300,-182.5633,-187.6637,-202.2927,-83.9215,-142.2268,-59.4189,95.6920,-118.9193,-165.1873,-73.3160,-160.7162,-131.6000
-32.0740,-149.9371,-117.1452,-187.5881,-138.0355,-214.6817,-174.0533,-250.5219,-211.0834,-239.7062,-97.7216,-164.1122,-44.6148,338.8349,-123.2016,-160.3364,-82.3611,-254.7321,-163.8707
-5.1128,-144.2883,-159.1876,-206.7991,-148.7032,-240.5964,-172.8272,-249.5558,-206.3447,-211.2516,-27.1265,-119.0587,-30.3724,337.9585,-99.8495,-123.3629,-114.6295,-299.7277,-207.2307
-6.4137,-115.9726,-160.2285,-188.6777,-83.5788,-225.6154,-116.6331,-186.5166,-137.9834,-123.0368,25.0245,-79.8218,-52.6356,210.9098,-54.0315,-56.1509,-148.8705,-282.3573,-239.4541
-25.3666,-105.8724,-127.9268,-152.6599,-45.9062,-194.0335,-42.9824,-128.6526,-37.8817,-46.3595,-2.0903,-79.6752,-105.3587,184.5338,-7.9903,9.7336,-132.5354,-207.6085,-235.9081
-16.8992,-78.4614,-79.1820,-92.2722,-49.8733,-157.8624,-23.3011,-109.6668,40.5412,-9.0755,-31.7310,-63.3153,-137.5916,205.3130,17.7966,52.2950,-72.9920,-122.4719,-225.1962
24.8515,-20.9415,-36.8584,-23.4670,-36.3615,-114.0066,-53.2844,-130.3712,4.2827,-49.2924,6.5482,-6.2825,-124.2362,174.2399,-1.0387,28.1544,-20.7804,-76.6972,-229.4103
58.3514,11.3901,-20.6230,7.7350,7.4668,-85.5856,-59.7485,-160.0240,-121.7076,-139.4727,68.9448,36.0782,-110.8211,147.0221,-42.9781,-46.0022,-16.5792,-63.1834,-229.3621
55.7966,2.4082,-19.7628,1.5926,53.0537,-92.0394,-27.6817,-138.8443,-155.3748,-140.4284,87.3258,32.4255,-146.5823,139.1108,-49.4966,-60.0339,-52.9665,-53.2840,-217.2246
36.2609,-9.5946,-15.3318,-1.5105,70.9997,-116.1004,-15.2633,-89.7490,-85.8726,-64.1179,62.6003,10.7888,-221.0186,100.9640,-35.2058,-14.3698,-76.0141,-48.5410,-221.2324
30.9883,-10.8915,-17.1068,9.8897,38.6424,-134.5825,-38.7877,-100.2812,-88.1618,-77.5426,36.0306,-1.5733,-288.7534,58.3554,-54.5362,-36.4333,-61.5708,-62.6022,-230.6789
35.3357,-8.8184,-39.4133,23.8822,-23.3473,-131.4341,-32.1267,-127.5919,-119.9780,-128.2562,28.3149,5.2690,-318.6663,38.3595,-61.2717,-97.3299,-52.7041,-93.0970,-182.6274
19.9429,-8.5385,-71.0939,28.3120,-57.5662,-106.2887,45.4024,-67.0093,-11.5520,-38.7899,25.5725,22.3980,-318.5027,10.6795,8.7760,-47.8453,-74.4349,-118.8944,-101.7302
-9.2551,-21.2671,-89.7638,12.1966,-50.8147,-93.6066,112.7770,9.2534,107.7547,76.6693,13.5544,21.0417,-320.5219,-13.3652,69.1099,54.4819,-82.3053,-119.9369,-106.2231
-12.3100,-35.3385,-81.4817,-4.6354,-36.9371,-109.1758,70.8208,-16.2224,22.1875,16.1388,5.5741,1.8701,-335.9644,-9.4797,11.4768,33.7606,-48.0526,-113.2054,-186.9521
7.1573,-24.7574,-57.8569,8.3722,-24.3808,-114.3859,-17.4855,-67.3868,-130.0769,-99.0953,11.7192,-3.2675,-351.0591,-18.7691,-84.3222,-66.2132,-21.7477,-133.5496,-202.8434
5.0386,-8.0546,-53.3254,27.2176,-5.4966,-96.4384,-11.2027,-44.7496,-113.7481,-76.4587,16.8920,5.1182,-357.3483,-54.6276,-78.7704,-79.5590,-47.6152,-164.4940,-147.2554
-9.6642,-13.8045,-73.0432,15.6256,1.4253,-94.8507,59.4101,-15.4393,-15.7433,-3.0755,22.6598,9.4908,-345.8977,-59.4497,-8.7765,-18.7150,-84.0326,-156.3293,-141.7266
7.5753,-21.3186,-77.6388,-1.9921,-6.2702,-114.7214,59.0410,-32.8338,-19.6490,-7.3971,47.8706,19.5423,-312.6515,-26.0178,4.5485,2.6816,-81.6921,-110.2074,-177.4508
34.1080,-12.1616,-52.2561,6.5545,2.6842,-116.6901,17.5052,-24.3309,-54.8437,-12.6085,69.1726,32.4771,-287.2715,-19.2718,-19.8400,-8.1920,-70.6870,-63.6539,-146.9912
20.7685,-4.6205,-27.5206,28.9870,21.9483,-87.4492,53.2460,29.1201,3.6096,41.7617,46.8784,25.6662,-291.3506,-59.5313,4.5415,3.9877,-78.1268,-21.0847,-60.8997
-2.8600,-0.1957,-14.7179,54.2398,11.7918,-44.2794,118.3086,43.8674,44.3368,42.3210,7.9840,14.9864,-293.4199,-99.5107,34.6814,-7.6713,-57.1475,26.2416,-3.1295
17.3783,19.8612,5.4908,87.1176,-7.6853,-4.4587,100.1058,3.1899,-67.1911,-66.7586,15.4133,34.9433,-270.3457,-108.9145,-13.8252,-87.3323,5.9250,61.2920,14.3859
63.4949,51.1205,33.0669,118.4808,14.4557,20.9657,45.0925,-16.1710,-196.3600,-145.1100,70.4382,80.0222,-243.2237,-96.4516,-78.0918,-142.0724,45.5098,79.3980,15.2806
86.4145,73.3936,48.4996,135.4007,53.0227,31.8478,47.2132,10.6536,-160.8106,-93.0515,111.3535,116.2059,-223.9529,-69.8802,-57.4929,-89.0272,38.5205,96.1240,2.4270
71.4028,69.9046,39.5810,127.5985,46.9941,19.7779,66.3936,20.4929,-51.1212,-21.2764,92.0452,107.1290,-222.7199,-52.5993,-5.7364,-25.4491,17.9556,82.0696,-17.6964
30.8816,35.4616,0.3861,83.6676,-0.1122,-39.7115,30.1783,-27.1955,-36.9803,-43.2211,31.7372,42.8129,-269.8918,-93.9481,-17.4352,-64.2985,-21.4493,-9.8371,-49.2295
-4.4088,-4.3261,-53.8910,24.4534,-45.0562,-123.5351,-25.0353,-89.6012,-73.7668,-93.7415,-7.2427,-20.7818,-333.8681,-171.3795,-52.0868,-127.9385,-76.2389,-120.8423,-110.6067
-0.0519,-15.0551,-75.6503,-3.2274,-57.3456,-154.1879,-35.5410,-105.1432,-71.3837,-89.5244,12.0417,-18.0362,-321.6886,-177.4555,-44.5500,-102.6620,-82.7667,-123.7751,-173.4817
37.5041,2.0137,-40.5933,10.0914,-21.0288,-110.2244,-22.5196,-69.4316,-85.3594,-68.1776,64.6922,30.8734,-227.4718,-100.4322,-35.8644,-41.4601,-31.3100,-19.6842,-176.6739
63.7624,23.8088,8.6160,34.0469,33.2844,-53.4581,-24.7637,-27.1652,-123.4264,-62.3139,97.0601,61.5323,-141.0606,-53.7269,-51.2166,-28.8741,3.2256,59.6704,-118.3481
50.7604,33.9591,23.2812,46.1193,46.3819,-26.8349,-5.8213,-15.3031,-71.3993,-35.5247,77.1029,52.8987,-102.4643,-63.5292,-23.7923,-28.0652,-11.5694,66.9446,-58.6010
14.5578,27.8375,23.7489,46.8886,45.3324,-14.5311,64.4955,-25.8624,47.5635,3.8984,26.1756,21.1506,-85.2257,-53.5039,50.2199,-3.9607,-41.0351,85.7579,-33.0699
-1.9623,26.8870,61.5039,58.3358,109.9838,11.7071,117.8462,-19.4867,61.5413,1.6377,6.3117,0.0342,-73.4025,-30.8149,68.3092,-4.5386,-51.1325,160.8137,-18.0867
20.2335,53.6445,124.8998,97.3067,197.3728,57.3730,97.2577,12.4981,-41.0605,-36.3715,35.2685,19.3215,-63.2054,-45.5158,7.4656,-41.5992,-21.9666,233.2635,13.3059
45.6703,82.0389,150.1002,136.8881,193.3616,91.0988,59.2074,24.2437,-92.6591,-61.2719,51.0974,52.0375,-63.3068,-55.3920,-32.7380,-62.7263,29.5607,241.4350,37.8569
44.6521,83.7535,127.3463,147.6154,124.7896,82.7274,61.7399,-5.3247,-34.6186,-55.6969,26.4554,56.9342,-92.8190,-21.3848,-5.6820,-48.4471,48.5708,200.7551,21.3460
41.3308,81.8775,107.3354,144.1726,104.6283,58.9645,77.1037,-28.5870,30.7057,-30.0294,21.3822,57.5916,-119.8527,6.2237,32.4493,-16.7627,28.7226,171.6809,-22.4655
48.0312,86.4784,96.1961,132.3736,122.9439,52.2870,72.6847,-20.5741,36.6648,-7.2642,53.3169,75.0954,-101.1370,-4.7661,39.4027,17.3766,18.9510,155.4998,-68.8318
43.5020,78.8508,63.2117,107.4975,100.0790,48.3845,54.8107,-23.5896,10.3016,-16.6568,65.7112,82.2288,-82.7851,-17.3478,24.0019,29.6692,33.7642,92.6248,-118.0928
45.2608,86.7313,37.1183,117.0901,58.5326,55.3023,39.9703,-55.0153,-13.0828,-54.1787,63.2881,96.7149,-106.1915,0.8884,8.9963,10.3777,56.9985,8.8406,-148.9594
76.4505,131.0355,49.2012,173.8193,57.8550,95.0080,53.7325,-78.2251,-10.5743,-74.9285,96.1461,150.8510,-107.4401,37.1672,24.3739,-0.8157,75.4147,-2.8734,-137.9637
92.3238,145.6388,45.2712,181.1550,64.6702,109.5037,90.8664,-75.2865,29.3066,-48.5654,131.7730,181.8715,-59.9443,55.2740,70.5414,26.0269,58.0721,22.1400,-120.8146
67.7378,96.2640,1.5117,108.4048,37.2456,60.0689,94.3909,-46.2973,65.6426,6.0541,119.3009,143.2547,-35.5532,50.7519,89.7957,61.6420,12.0960,-3.6049,-110.2220
54.5381,58.2960,-7.8284,68.3459,18.4393,36.5377,58.9461,16.5132,50.8453,49.7873,94.4645,110.8726,-47.0572,58.6729,54.1859,76.6219,12.0605,-21.9433,-56.3734
67.3802,72.4092,21.6401,98.6991,23.5642,77.8158,44.1759,70.9510,31.3921,68.8764,93.8671,130.9815,-46.4658,70.6277,25.4103,86.6837,61.8635,1.7283,0.9021
64.9123,83.1558,-11.5003,98.7467,-23.3087,74.2485,44.4053,39.0587,73.3485,70.1298,97.2783,146.9809,-37.8896,43.1572,52.8373,101.6593,67.9650,-54.6747,-44.9110
51.2857,56.5624,-113.5170,29.2409,-136.6428,-12.6829,13.3050,-65.6734,111.7842,39.5975,100.0018,129.6792,-20.7228,1.7581,92.3373,86.3579,10.2016,-192.7104,-140.6648
45.4061,11.1997,-184.2810,-50.7534,-218.7255,-88.9384,-26.6423,-142.5619,51.3500,-31.1175,104.0017,94.0042,22.8479,-13.4635,82.6690,19.1817,-41.7481,-257.3979,-152.3677
27.7036,-34.2372,-205.6194,-106.2766,-237.6509,-122.6107,-49.5859,-148.2401,-39.5256,-83.9130,85.1251,45.9741,34.0818,-31.2113,36.2370,-44.0885,-62.0361,-265.4142,-115.5625
11.5370,-55.1810,-226.9913,-127.2868,-254.4107,-140.1560,-61.4797,-116.2748,-36.0051,-54.9725,66.7945,28.9978,-9.9464,-37.5457,18.9786,-28.2630,-65.1602,-321.1056,-117.3390
28.4575,-38.9308,-229.9604,-105.9628,-250.7753,-107.0444,-16.4692,-62.2936,38.6556,26.4233,97.0733,76.6843,1.0713,31.5720,65.2612,55.9077,-51.7784,-323.9408,-102.6640
37.9889,-20.0571,-179.5264,-74.4177,-169.1024,-22.8935,97.8110,6.2413,100.5826,89.7866,125.8211,112.6885,94.4991,113.3199,133.4862,130.0882,-35.8250,-181.9167,-36.1857
4.7455,-21.1894,-109.6752,-58.7130,-75.7061,27.4010,171.8153,40.1120,146.7661,111.1369,81.0588,73.2114,141.5744,97.5658,163.9049,149.0161,-28.3576,-27.2098,-1.3810
-14.8691,-10.5992,-52.2054,-25.3215,-45.5702,36.7617,160.9261,19.7512,167.9713,89.2029,20.9046,34.0951,109.9912,48.0389,152.6656,122.8602,-3.4161,55.9820,-8.2274
23.1569,32.8880,12.8306,49.8148,-17.0358,82.4513,145.0593,3.0925,104.1147,27.3450,34.1916,69.2987,89.6612,70.6536,117.1352,73.6655,52.8615,141.9064,22.1226
82.3442,84.9904,93.0711,130.9962,51.9067,149.6365,115.8200,27.7382,-25.4364,-33.9781,88.4894,130.2453,88.8253,105.8974,47.3124,20.3755,114.8347,236.2598,85.5687
117.0461,111.1952,156.8217,169.1010,93.8171,158.8935,19.2375,60.1069,-113.2649,-50.7027,103.8311,142.6398,74.1091,74.3321,-36.0867,-20.4221,147.6982,286.2239,137.1148
104.6474,93.5358,176.1545,148.2334,89.0554,122.8004,-49.7283,69.0990,-113.1685,-37.4562,63.1902,94.0132,74.0604,28.6306,-68.6545,-46.4828,130.1797,301.5464,183.2457
56.4965,57.7800,155.4301,110.1396,78.0445,109.7659,-18.4747,55.7293,-81.2974,-41.1907,2.6748,32.6782,78.6762,29.9622,-50.6973,-67.1265,93.4510,267.6488,207.6926
38.4442,57.6124,122.6220,116.6071,47.1344,124.9887,-0.4909,38.2839,-82.2967,-63.5509,-18.0885,33.4005,36.5100,53.5237,-53.0621,-81.6174,101.4195,160.4869,189.8598
74.6388,78.2870,89.6027,137.8652,-11.3651,121.4759,-52.3943,62.9580,-108.5237,-45.0652,25.7616,91.5386,-16.9972,56.9083,-83.7727,-69.6486,129.0918,56.2596,191.3613
81.6069,43.0479,35.5300,79.7359,-51.4090,72.1996,-60.4694,141.4770,-81.2216,51.3020,62.7073,98.6581,-16.5874,36.8708,-70.7457,-16.9640,79.9135,12.7187,247.1522
16.2684,-39.4201,-34.1694,-34.5336,-65.7864,8.6464,21.3334,193.9965,40.8002,164.5241,24.0120,20.2223,22.8311,25.7964,12.4229,48.9009,-33.5895,-12.1424,291.2715
-42.5870,-76.2414,-67.8217,-84.1239,-74.1336,-5.9299,104.7348,172.0221,166.2915,206.4409,-34.8017,-39.9023,67.1272,41.3174,99.9172,81.4939,-96.4051,-27.3573,289.7607
-44.7927,-54.0493,-55.3035,-62.9374,-61.5682,27.1355,124.6895,141.0018,186.9525,185.5410,-36.1648,-28.3233,111.1050,43.0448,122.3484,83.4902,-78.4810,-12.9292,263.1259
-27.1111,-39.5984,-44.0527,-64.6083,-35.0119,32.0283,83.0674,149.6785,147.5910,183.5642,0.9680,-4.0823,147.1327,11.6884,94.2360,107.9442,-49.5181,2.1850,201.7542
-5.1362,-44.2395,-39.7604,-92.4053,-18.4754,-2.3756,28.8432,172.8406,155.0392,233.6618,38.6339,9.5957,181.6411,16.9241,84.7535,176.5320,-43.2084,32.5914,133.9718
26.7034,-31.7414,-4.9177,-76.8893,11.9962,6.1108,32.2120,193.6290,186.9597,275.6393,69.4404,38.3040,219.6214,96.2659,106.8247,234.1051,-28.1342,120.6754,132.1060
42.0146,2.0582,53.2783,-9.2805,61.8140,78.3791,83.3469,191.3816,166.4623,236.9519,68.3841,65.2623,219.7216,168.2918,109.2351,216.7022,18.7227,201.6486,164.6123
39.0434,44.9228,98.0162,69.5763,84.6258,138.9035,109.3152,144.7264,144.8700,159.8588,36.8120,75.4753,170.1269,164.1715,97.3256,155.2893,64.7361,217.6766,162.1611
41.3031,76.9665,118.1233,119.3503,75.9288,148.3950,122.6797,115.9750,219.7193,169.2884,17.5420,84.5197,132.1312,134.3276,134.0497,148.6123,61.7679,233.4573,170.5936
21.3451,59.1465,111.4192,107.4270,64.4769,138.5782,176.3709,146.4429,332.3213,247.5611,-11.8237,64.5716,126.1700,157.9115,196.7903,202.5933,32.6928,260.4002,207.1300
-33.3306,8.6482,93.2014,61.6805,57.3548,138.2657,209.6824,137.7291,319.3343,217.7905,-85.1460,-1.5691,115.8027,216.9191,183.5032,202.0495,49.6671,228.1361,168.0025
-45.0364,11.3117,114.7774,66.5971,80.4010,153.5418,137.7811,45.9898,145.8342,48.2348,-115.6273,-30.9160,108.0120,222.4264,75.5857,101.9239,117.3686,188.0070,53.5693
17.6820,78.7508,183.6825,138.5994,139.7172,180.0411,24.5212,-19.7940,-38.1723,-90.8825,-52.1749,22.3078,110.6133,166.5887,-32.0976,-3.4986,174.8769,231.2739,3.5193
65.0548,124.2981,228.9564,201.7409,164.5358,200.9602,-4.9745,-26.0581,-95.9662,-127.4857,-8.6900,68.9554,87.0978,141.5914,-61.0376,-53.1432,190.9446,289.0144,48.4932
64.1831,122.0150,216.2206,209.8504,137.2478,201.3556,35.0635,-31.7679,-70.2754,-127.2005,-14.1191,71.1762,67.2592,148.4698,-31.6075,-69.5608,173.0234,292.4279,96.1687
99.5177,128.5542,196.0528,188.1271,136.5196,173.8130,21.2134,-3.0011,-75.8286,-84.7906,66.1685,114.2502,113.9877,82.9754,-15.6225,-38.1451,142.8866,325.1620,98.3231
176.7896,149.6578,199.5631,168.6042,162.5473,121.9331,-63.0308,73.2176,-104.8471,7.2710,204.9941,194.8166,161.5129,-19.8749,-33.1406,46.8412,134.1558,412.5777,59.5307
190.7121,141.6053,196.8744,159.5876,145.3629,84.4299,-98.4871,85.6879,-93.8486,37.7543,213.4429,199.2728,121.5974,-17.0260,-43.8278,83.7333,145.3055,425.0193,15.5424
129.0145,108.6423,169.8127,148.5968,108.6455,92.3522,-65.9250,23.4397,-108.7581,-44.0904,110.4930,127.5275,56.8861,48.9835,-59.0736,8.5602,143.1023,307.9399,15.7907
85.4927,81.1956,133.5003,113.9890,98.5835,97.6463,-100.0109,-8.0094,-236.6317,-146.0233,66.4695,77.6515,36.2718,25.0164,-140.8239,-92.1807,140.1446,156.4344,12.7229
76.3104,54.3168,94.3286,58.1823,75.7463,47.0962,-214.9844,-20.7027,-372.4373,-205.5279,70.9842,52.1376,11.5146,-54.2710,-246.7393,-137.2170,152.9556,39.0448,-70.5954
48.2856,14.1582,46.4050,2.0955,25.6043,-18.0121,-250.0162,-61.8445,-369.3883,-220.3747,34.8571,5.0914,-24.7442,-60.8196,-258.6128,-140.1466,132.5747,-40.6108,-148.3523
16.7237,-27.6357,-2.6937,-50.2862,-4.9407,-45.1756,-172.6353,-65.4950,-290.6451,-182.3171,13.6181,-27.8954,-3.5680,-18.9072,-187.7682,-114.0770,71.0591,-59.5163,-124.4053
22.5341,-49.9549,-31.3162,-91.1382,-12.4412,-54.2306,-126.1571,-28.2804,-277.3163,-141.5031,53.5160,-14.4784,54.6025,-17.1450,-150.9759,-71.9097,48.8838,-17.7808,-103.1301
37.7574,-47.6825,-26.3538,-95.5541,-19.2304,-64.5994,-158.5621,-42.4227,-328.9028,-174.6336,73.4765,-3.5875,64.2119,-52.8640,-179.3927,-75.4238,83.9883,21.4493,-157.9265
32.5269,-39.6626,0.1545,-72.6388,-20.6687,-70.0466,-205.8894,-85.4952,-388.6395,-247.8543,38.0849,-29.1356,17.4736,-99.9491,-230.5473,-150.1770,104.9021,27.5211,-165.2724
28.1734,-45.2954,20.4564,-61.7112,-29.3763,-92.4369,-258.0392,-78.9932,-439.4117,-275.9450,3.9941,-63.9620,-46.8337,-167.7964,-283.7132,-234.8845,85.4963,26.3743,-73.9892
22.2058,-65.2903,10.1804,-78.3009,-62.4257,-144.0846,-298.7718,-50.4094,-428.5845,-241.8579,-17.8741,-94.9451,-110.2806,-240.7378,-301.4305,-265.6120,41.7114,9.3735,3.1974
-23.2891,-107.6488,-42.1838,-132.1587,-100.5543,-201.9383,-263.9117,-37.1961,-315.4765,-165.1818,-62.3485,-147.5636,-148.9131,-280.3290,-244.5910,-233.6518,-36.0088,-51.1240,16.6638
-97.9852,-178.1123,-119.8404,-229.4498,-136.5336,-267.0110,-194.4793,-30.8866,-175.8147,-79.2791,-124.4421,-228.2006,-147.5399,-295.1737,-161.8670,-173.7372,-130.1653,-128.2691,-7.2593
-148.4440,-229.2119,-179.5432,-311.7077,-178.3151,-333.6153,-191.6237,-46.2478,-80.0010,-23.9491,-170.3440,-290.7736,-130.6827,-321.2243,-117.0462,-125.2871,-187.0406,-197.5893,-66.6919
-162.8680,-221.9201,-207.4377,-319.7137,-207.4684,-349.0662,-210.7262,-59.8377,11.9457,26.8556,-184.9144,-292.3053,-125.7789,-339.2129,-82.8524,-81.1571,-204.2471,-283.2746,-110.3060
-178.2457,-214.2694,-243.3537,-308.6527,-229.0471,-320.2578,-147.3532,-9.4815,126.9845,120.6202,-187.7637,-268.0289,-143.2969,-309.4930,-19.5548,-13.5758,-224.4734,-375.5462,-72.9641
-211.1123,-256.9146,-305.1039,-346.4201,-275.0844,-324.5701,-39.9245,69.6663,227.8189,222.7806,-203.9204,-276.1895,-183.1468,-282.8200,49.9886,58.9335,-258.8006,-419.9550,-14.8265
-231.9129,-289.8545,-346.0042,-384.0384,-313.0876,-358.3590,12.3470,110.1390,299.8617,291.0966,-211.7655,-290.2045,-215.7447,-330.0016,96.1525,112.3200,-282.6749,-408.2674,-17.6237
-217.3893,-267.9973,-329.2715,-369.5826,-285.3481,-354.9273,2.1219,133.0084,330.4215,333.1291,-181.6555,-264.2769,-203.6569,-381.9529,107.5579,155.3677,-276.3627,-369.9056,-49.0886
-187.9586,-235.7806,-275.1595,-335.9314,-216.6431,-315.1083,-25.7147,143.9009,291.2740,325.0037,-148.2561,-232.7269,-153.2516,-335.3918,81.8533,169.5908,-242.8123,-314.0007,-61.3384
-163.9565,-201.8900,-216.0597,-287.3124,-166.4621,-261.7705,-41.1008,106.7558,231.7747,256.1945,-141.8170,-212.5453,-107.1208,-250.5425,53.8565,137.8837,-194.2078,-258.5940,-67.2318
-134.3640,-135.0131,-173.6395,-197.2969,-151.0784,-194.2190,-34.8480,54.0222,222.1017,194.9435,-125.7961,-156.5707,-108.4764,-231.2898,56.5794,109.0308,-136.1437,-242.4410,-91.6022
-107.0694,-84.4019,-168.4337,-130.2478,-165.1437,-160.6171,-28.9229,14.3932,218.1439,156.6066,-98.4886,-98.1497,-157.4172,-237.5184,60.3765,99.2795,-92.8742,-271.2573,-145.9010
-117.8785,-109.6472,-194.8368,-161.0236,-186.3911,-197.0846,-39.8228,-42.8487,174.2184,96.8598,-113.9516,-126.1134,-179.8400,-199.1648,43.5026,63.9458,-106.9198,-314.0284,-201.3868
-155.3087,-161.2245,-217.6680,-233.4403,-181.9707,-237.0644,-44.4215,-80.5671,156.0774,66.4897,-155.2067,-197.2715,-128.9412,-147.7063,40.2512,36.3984,-158.4691,-342.8612,-207.8558
-163.3549,-175.4304,-224.2534,-259.8162,-172.1338,-236.7348,-44.4708,-51.2880,173.3311,103.3175,-154.9381,-206.3997,-85.9469,-124.2206,46.9843,66.4700,-170.9220,-353.0135,-190.2167
-131.7979,-169.3767,-235.2776,-252.1500,-200.0246,-243.4988,-73.8598,-34.9105,123.0644,97.2351,-116.1154,-169.2125,-112.7743,-116.5292,17.3331,69.5213,-142.8531,-365.4212,-196.1619
-101.1376,-172.0549,-256.2136,-257.1758,-233.2146,-264.2550,-103.2174,-71.1101,9.4766,16.4601,-76.2695,-149.0025,-127.6587,-109.9808,-25.5963,-3.6239,-145.0300,-385.1159,-181.6346
-95.6338,-183.3177,-267.0870,-278.4585,-216.3490,-260.4989,-74.7221,-59.7550,-31.5953,3.8308,-46.2920,-145.6328,-82.1295,-99.5340,-20.5358,-29.5862,-181.5795,-371.1967,-122.9200
-111.1799,-202.0517,-261.6399,-299.8867,-180.9088,-248.1964,-13.4137,14.5334,38.6960,93.2460,-46.0340,-153.2525,-49.7937,-86.4967,23.7912,44.3026,-199.7622,-312.2790,-86.3766
-132.0165,-215.6707,-255.7859,-306.3478,-186.6875,-242.2500,27.6614,49.1828,122.3167,153.2433,-78.8622,-171.7285,-45.0042,-85.3395,64.3307,96.7024,-193.3131,-264.6383,-70.2774
-135.8809,-203.3631,-248.2999,-286.2820,-214.1231,-215.7185,38.8846,27.8007,137.2672,128.6244,-99.8416,-172.4373,-14.8857,-100.4640,78.5356,67.0464,-176.0307,-248.6811,-25.5729
-117.1103,-167.5707,-208.0574,-239.5766,-207.4280,-179.1920,-2.0264,-4.4009,78.0730,61.2747,-99.5803,-156.0789,7.2257,-130.6765,40.7022,6.6101,-132.2557,-217.4412,-4.1603
-93.8964,-122.2622,-132.3039,-174.8605,-169.3558,-156.9078,-91.5601,-47.5935,-0.7404,-18.8737,-112.8488,-151.4658,-15.0346,-176.2627,-33.5763,-60.1902,-71.7033,-160.8387,-30.1911
-82.9949,-87.6524,-81.1206,-123.4966,-141.6981,-134.4841,-124.2313,-82.6915,-22.6172,-65.9288,-127.7176,-150.3271,-24.6728,-200.9528,-57.0609,-112.1948,-52.2488,-120.4886,-15.9798
-93.7476,-95.0585,-92.2372,-127.3126,-131.1441,-123.3131,-49.2043,-76.5838,20.5792,-47.1695,-127.1079,-153.7590,-11.4067,-170.9366,-5.4172,-111.8820,-97.0328,-108.9994,39.3127
-122.3355,-128.4990,-105.6125,-156.6992,-111.5373,-133.8447,17.6762,-54.6452,60.0070,-14.9846,-150.7266,-186.7755,-29.3864,-125.4772,28.3751,-90.0450,-138.2142,-101.6561,57.0226
-135.6828,-119.9055,-59.2082,-127.1673,-76.4615,-106.3420,-0.6827,-40.3908,63.4304,-14.8051,-196.0126,-207.3085,-56.9569,-103.5129,-0.3253,-87.4816,-99.6456,-81.1006,54.8347
-113.2617,-65.1816,-3.6348,-52.5679,-46.0428,-44.1390,-33.8231,-33.9993,66.1906,-18.1720,-194.1812,-166.2259,-57.8613,-88.7968,-23.3138,-74.7913,-29.3343,-67.2536,42.9407
-89.1942,-38.4376,-17.6566,-37.8394,-38.1348,-57.8828,-41.3582,-60.3420,90.4539,-5.3551,-145.5076,-124.3276,-70.6349,-91.7755,-1.3467,-45.3433,-45.5331,-103.0857,-32.0345
-92.9950,-59.3106,-71.9774,-87.6308,-56.4441,-137.4969,-55.5477,-99.6510,115.3171,9.1804,-121.1487,-137.3219,-98.4136,-128.5550,22.7966,-39.8954,-125.7925,-171.0994,-99.7776
-101.6069,-72.4131,-83.4974,-101.5569,-84.3149,-146.7473,-68.0053,-91.9986,109.5923,8.9910,-138.0374,-153.4015,-99.2864,-148.8378,13.3254,-57.7252,-129.6678,-187.8756,-62.6816
-93.6719,-55.0662,-46.3842,-60.3957,-88.9326,-93.0149,-74.0919,-74.8627,63.8983,-26.4824,-155.5897,-141.3049,-94.1634,-141.7361,-21.5035,-84.2030,-58.5997,-142.5358,-15.5138
-77.3424,-33.8205,-15.5995,-35.9343,-55.1494,-86.8010,-102.6492,-104.1284,8.5563,-76.5085,-140.4018,-132.1030,-96.2782,-162.8626,-51.7650,-121.2807,-46.1579,-108.0046,-40.9407
-55.4836,-19.5936,-7.0278,-39.7540,-0.5841,-95.7564,-109.6573,-109.6418,-16.1202,-75.6272,-85.6862,-111.3346,-57.7154,-172.7203,-47.6389,-125.8520,-91.2790,-89.9831,-46.8220
-31.9207,-0.7765,9.9395,-17.5435,46.1565,-36.2978,-42.7327,-53.9214,-0.5927,-31.2388,-33.9130,-58.4032,1.8680,-93.4666,-12.6503,-68.2378,-76.8801,-39.1182,-8.3233
-23.0633,26.4334,46.5527,36.6055,67.1198,37.0474,24.3648,-37.4252,40.8831,-20.5938,-37.6571,-22.5792,17.9012,-4.3143,20.7835,-20.9498,-11.8139,25.7046,-9.5945
-22.6333,51.5331,75.7845,71.0229,75.1493,50.3695,19.1652,-92.5623,58.3691,-60.9352,-57.8543,-26.0281,23.1419,-16.4778,30.7965,-48.6515,1.9681,59.2581,-33.7828
-7.1925,61.3516,75.5627,61.7336,100.1871,37.1648,-12.6652,-131.3880,-23.1080,-122.4090,-18.2594,-20.0845,61.9188,-71.4577,3.8770,-112.1715,-29.9635,60.3123,-36.2306
20.0901,60.0488,62.1627,44.2546,129.3685,41.8017,-36.7405,-128.6524,-172.9386,-188.5300,49.5605,10.7388,85.5422,-64.6572,-58.3062,-154.1542,-25.9901,34.8429,-53.6655
42.2734,68.2345,67.9706,60.3693,124.3678,61.5490,-71.7661,-116.6312,-244.8197,-216.1522,67.4638,37.7760,69.8410,-5.9948,-108.5116,-159.3058,22.5134,3.0341,-63.6462
55.0332,87.3905,94.7971,100.1192,105.3592,90.1486,-94.6425,-81.3564,-202.9180,-174.5236,48.3295,54.6145,54.8107,37.4584,-112.4643,-134.5393,62.9466,3.6938,-7.9864
53.7714,93.9406,116.4222,120.8586,111.7481,112.2571,-89.4516,-19.2625,-158.5728,-112.8305,34.2935,58.7958,40.0814,28.8671,-107.6812,-104.4330,76.0254,25.7801,57.7726
42.0669,84.2326,128.5284,118.2194,124.2312,114.2948,-91.7683,36.9429,-143.4061,-67.1727,16.8800,45.2541,13.6676,-3.6993,-119.9959,-80.7849,83.9484,44.0152,85.8372
43.0240,83.8479,147.7653,127.5914,132.5756,124.8688,-86.0128,81.2577,-109.9627,-20.3775,7.5223,45.2818,9.1157,6.2701,-113.7633,-50.7885,94.0622,80.4598,126.2630
56.6034,95.9244,155.7379,145.5509,161.2265,155.7547,-25.8759,109.8874,-85.4313,8.9593,39.2779,76.2069,30.3402,48.3126,-76.3957,-25.3962,82.0404,117.6135,167.3242
51.6569,89.0779,117.8795,123.9503,174.9128,156.1083,48.3103,104.0745,-76.9399,11.2102,78.4041,93.1658,49.3567,44.1963,-31.2743,-11.1328,40.2414,102.7921,142.0658
31.3447,58.7702,62.1095,65.4755,134.9084,109.5780,70.9346,79.6447,-29.0806,30.6981,81.1001,74.9647,76.2777,8.7639,12.6398,22.8637,5.3944,76.9400,76.4609
33.2923,43.8902,43.5231,33.8140,101.1750,71.9918,47.1558,53.1963,-3.2053,38.6805,81.7527,66.0761,104.8011,12.5249,27.3363,50.5063,5.1094,86.6532,22.6657
51.6707,53.4673,45.2198,40.0689,108.6366,60.3398,8.5820,12.3841,-76.8091,-21.4495,104.3654,77.3004,90.8380,21.7193,-10.4019,9.8950,9.3868,64.5562,-18.9013
49.7206,48.7652,23.3886,27.5088,102.1213,36.2598,-15.8550,-15.6684,-126.7724,-61.1047,111.5854,69.4061,63.3477,-6.5734,-36.2757,-37.4850,-18.7377,2.3415,-30.9248
44.5804,28.8035,1.5486,-6.3662,86.4930,10.8839,1.5403,4.6290,-70.6578,-6.6662,116.9693,61.0540,92.6514,-3.1703,1.8488,2.2084,-52.3937,12.1113,-13.7746
75.1367,39.6872,9.0826,0.0817,108.0085,28.1643,42.5089,27.2250,-48.5405,28.5548,171.6262,107.1713,140.8619,57.6617,39.8751,64.1396,-41.4891,82.5664,-28.7041
106.8066,76.8252,12.1646,46.5348,119.9458,68.2594,73.2830,8.6266,-84.3802,-8.8043,223.1898,170.1245,127.6387,88.6658,43.4651,65.8563,-5.8123,80.8686,-73.8865
84.1668,88.6763,-4.7206,69.0340,93.9136,87.0974,109.7576,-11.3863,-21.3921,-4.4027,190.4779,167.6790,92.6937,74.3695,76.9016,64.1591,-7.2729,19.5485,-78.4344
40.7709,74.8634,-4.5602,56.2497,97.8250,95.4344,157.8393,-11.1117,93.5512,45.2976,129.9366,123.0516,121.9782,90.3273,136.8303,92.8155,-39.4774,15.8883,-48.8704
38.2971,70.1551,10.0204,45.3758,124.3540,111.4583,175.5798,-18.1643,90.9766,36.0821,130.1940,114.4859,190.0959,134.0868,149.6837,95.0142,-44.0249,58.1648,-34.4061
59.4817,71.9228,4.7042,45.5115,98.4874,118.5897,150.4098,-21.8151,27.4415,0.2601,152.5074,135.0783,210.7438,152.4091,119.9293,73.8596,-13.6454,56.9380,-22.3592
70.1079,74.4509,5.0656,59.6547,60.7218,121.6295,100.9432,-8.9779,-12.6912,-13.3065,141.7587,142.9613,171.4066,163.1929,73.3295,58.5327,29.3286,17.6946,-7.1579
91.0103,100.1926,45.6959,104.2361,79.8284,144.9402,28.7329,-23.5008,-113.0326,-80.6420,138.2766,156.3486,126.6753,182.3401,-9.8768,9.7765,89.9329,1.7764,-28.0686
125.3168,139.8308,79.1303,149.4534,99.2003,159.9319,-42.0957,-78.5251,-229.7545,-181.2448,167.5639,187.5451,110.7256,155.1773,-80.3802,-57.0197,139.5032,6.7389,-85.6680
133.2301,148.1625,50.4573,137.5038,63.0066,119.9023,-68.8837,-124.4595,-205.6134,-187.0711,188.7625,197.3002,114.9723,78.3467,-60.8279,-58.6566,118.1912,-15.1326,-144.4798
113.3740,115.8525,-3.8945,77.0175,26.3698,51.6839,-60.9008,-142.1805,-130.6937,-139.8055,186.8973,169.7251,120.5802,40.0053,-11.3860,-24.5212,50.9985,-53.5906,-185.4176
92.2905,77.0843,-11.1070,32.2627,47.6465,18.6277,-49.1182,-147.4431,-156.7212,-153.3350,168.2074,124.8596,115.9826,64.8946,-20.1185,-35.7318,17.5870,-38.2615,-198.2437
68.9831,67.6620,39.2255,40.5859,103.9538,29.5182,-43.9441,-142.1990,-167.1740,-168.7945,119.1852,80.6626,96.5401,71.4239,-42.3056,-46.5649,33.5995,35.6360,-205.4543
61.0724,102.4761,92.9868,91.9550,126.2012,49.2465,-77.3680,-151.6972,-99.5616,-148.3799,76.5754,74.9437,67.1695,17.3057,-43.0142,-17.3573,84.1553,80.7447,-263.5623
104.4922,153.0112,103.1473,143.1821,82.5658,51.5932,-167.3348,-216.1221,-167.7500,-226.0779,110.8130,128.3392,43.1830,-54.6082,-94.0768,-54.0238,159.5447,65.8673,-355.3341
161.8721,169.4988,85.7917,152.1478,34.4373,33.3473,-249.9266,-304.6402,-409.9899,-414.5376,184.4787,172.4751,36.4584,-111.5443,-198.6473,-201.8706,199.9122,56.1420,-383.9966
163.4064,155.5139,87.6624,140.0349,39.6105,16.6277,-263.8481,-342.8182,-529.0004,-512.3394,185.8167,146.2562,30.2660,-147.1106,-245.6790,-318.4092,167.6603,71.0735,-323.0570
119.9193,148.8388,103.7698,154.8027,44.0378,22.7369,-223.2586,-313.3106,-388.7276,-431.7816,105.4868,97.1385,-10.8370,-145.3088,-192.7842,-299.5648,125.1439,58.4560,-236.8450
76.7978,132.5930,86.4827,162.2673,1.2974,28.6085,-151.2837,-250.3699,-197.4726,-299.8111,30.8765,68.9898,-74.6800,-119.0890,-110.8593,-220.5892,102.7053,18.9522,-163.7590
41.2053,78.4546,40.2387,107.2979,-30.0449,5.8910,-75.0844,-192.3145,-140.9244,-233.7596,4.8876,34.2727,-94.5412,-108.3386,-68.4269,-179.9915,64.7514,12.1949,-113.4191
27.1931,36.6748,24.2027,51.7070,-25.0016,-18.3778,-70.6839,-181.5762,-202.5996,-256.0696,4.1439,1.8827,-66.0168,-110.1694,-91.4402,-191.9625,53.9257,39.2796,-117.3149
50.4748,52.7873,47.7639,70.4297,-37.7054,-22.9126,-165.6423,-229.5709,-304.4163,-340.5263,4.5529,7.5170,-74.4247,-111.2686,-168.8835,-245.3468,110.6932,31.2672,-167.2460
70.9977,70.6882,50.7124,93.4537,-71.9040,-45.1975,-260.5130,-273.6224,-379.6664,-404.5121,2.9984,13.6964,-130.9838,-142.2893,-236.1998,-312.3663,132.5484,-32.1619,-185.6897
54.2249,37.5923,9.0282,43.2727,-92.8604,-89.4059,-262.2945,-249.3666,-379.6549,-376.1463,3.7038,-14.0182,-139.6344,-195.6208,-233.7990,-328.7549,67.7515,-80.6307,-134.5698
27.6988,-4.8763,-26.4340,-13.9369,-109.5958,-101.3005,-208.1759,-182.1572,-319.9553,-295.6349,-3.9990,-38.4491,-95.3162,-204.2249,-189.8605,-279.6360,27.7225,-71.8828,-65.9969
6.5425,-22.8904,-25.4998,-22.2965,-125.3251,-93.5121,-180.5856,-139.8863,-253.7602,-239.2626,-42.7162,-59.2170,-99.3788,-182.0279,-166.0492,-236.7713,38.0894,-56.1882,-30.5266
-24.8182,-43.7898,-22.5984,-39.5779,-121.8142,-130.7969,-189.3855,-141.8676,-204.9456,-213.8619,-94.3470,-111.9743,-147.0744,-220.4680,-160.5298,-241.4573,1.8659,-61.0417,-28.9222
-43.3739,-60.2019,-38.6442,-75.3359,-115.0581,-180.3804,-194.9568,-165.1127,-180.7971,-206.9308,-99.9327,-145.8302,-145.9709,-307.9954,-143.0611,-253.3738,-56.0671,-53.4129,-55.0382
-26.1449,-39.9870,-57.9610,-68.8682,-124.2947,-170.2566,-176.1601,-183.6977,-177.1703,-214.4127,-53.9886,-105.5379,-110.8844,-336.9631,-116.8655,-241.4163,-55.0529,-57.9247,-89.5836
-17.2966,-28.6865,-88.6031,-58.3305,-142.7849,-144.3468,-129.7813,-172.5337,-147.3027,-191.2371,-24.8342,-65.0306,-105.6030,-286.2873,-81.7524,-209.5027,-55.6247,-115.8622,-86.1174
-50.3274,-74.2880,-134.6550,-111.8603,-165.3364,-166.6801,-68.9184,-136.0475,-72.8559,-123.0328,-48.7601,-96.6562,-103.5388,-234.6750,-31.8099,-160.1579,-103.8854,-157.4736,-56.3191
-80.5004,-109.2861,-143.7679,-152.9386,-172.8540,-187.5323,-53.7860,-130.6767,-38.2402,-102.5233,-87.3899,-139.7715,-89.1174,-227.0440,-17.7289,-129.1565,-105.1973,-133.8567,-84.6599
-68.6871,-71.9324,-99.7153,-103.7240,-155.2689,-166.7682,-128.8505,-183.9267,-100.0452,-178.3081,-102.4889,-130.8458,-117.3939,-247.5202,-80.5854,-163.4258,-32.9401,-136.2542,-175.9935
-47.1307,-33.6465,-80.8202,-58.7669,-157.4196,-165.9768,-216.8006,-232.0844,-164.8618,-241.4268,-97.3768,-110.5612,-170.1637,-279.1462,-143.6277,-215.3116,1.2502,-199.3856,-229.8952
-55.4869,-61.3802,-121.9934,-105.5468,-185.1903,-210.6878,-210.9470,-224.4882,-143.0217,-211.0185,-87.5657,-125.0550,-165.1390,-309.3646,-122.6305,-203.3143,-46.2441,-223.5025,-224.5364
-79.3649,-97.7908,-151.0737,-163.0909,-170.3887,-240.1358,-149.4494,-213.0566,-90.6303,-167.7946,-83.0973,-151.7162,-122.8639,-311.1482,-67.8759,-159.1529,-100.9630,-190.8808,-242.7325
-84.3776,-86.7781,-133.2906,-150.3616,-129.9319,-235.3083,-138.5250,-251.9528,-74.0210,-185.7568,-90.4564,-157.6027,-123.5924,-270.3968,-55.2030,-154.2609,-108.7968,-187.1177,-301.1870
-73.2330,-68.5740,-126.2389,-120.2894,-157.3816,-237.7697,-170.6128,-307.4431,-65.8748,-221.0899,-107.6302,-149.9958,-156.1932,-215.8444,-61.9364,-168.3634,-83.1431,-222.1683,-344.0426
-78.4055,-86.6367,-162.0830,-138.4119,-230.2459,-256.8438,-167.2692,-332.2241,-46.6659,-231.2301,-126.2593,-155.9208,-165.5607,-189.0635,-48.0006,-163.5645,-67.2468,-254.2243,-360.1343
-108.6133,-123.7018,-207.5231,-184.9411,-260.5619,-268.6454,-110.5027,-324.0058,-26.1051,-221.0976,-142.3269,-181.1961,-152.3749,-192.1485,-17.1632,-153.2448,-91.2740,-277.1062,-352.6326
-138.7357,-150.9112,-229.7357,-214.3279,-260.0014,-264.4987,-38.9919,-290.8430,22.7034,-181.2965,-160.6167,-205.4030,-136.3484,-195.4401,26.3200,-134.9963,-127.9892,-271.4750,-302.2750
-152.9124,-161.8045,-219.2731,-215.3028,-263.5513,-252.0140,1.5013,-254.0548,86.0199,-132.6125,-187.2861,-220.2301,-124.4752,-186.8743,60.4323,-105.0114,-128.3383,-220.2479,-247.1560
-152.2466,-158.8403,-181.4024,-198.1372,-243.1723,-241.4934,-13.6280,-254.6704,68.9097,-149.9195,-209.6363,-233.2204,-132.5450,-172.5461,38.1949,-113.5614,-97.6942,-163.0641,-248.0889
-128.3516,-138.2799,-134.5041,-164.3820,-197.7796,-228.2532,-64.5543,-290.5691,-43.0792,-236.4837,-199.4778,-226.7003,-151.4834,-143.8927,-30.3205,-176.8704,-65.8644,-132.9647,-270.7678
-85.9316,-100.8865,-97.2453,-117.7610,-173.3905,-197.0623,-117.1629,-310.3435,-131.1311,-294.8951,-163.7000,-186.3746,-138.7932,-95.2041,-81.2372,-223.7145,-33.1131,-130.5247,-250.9554
-66.9479,-78.9715,-86.5088,-95.8307,-184.4637,-166.9180,-147.1828,-288.4086,-118.4099,-269.8843,-151.7559,-157.7308,-98.0093,-59.5743,-85.7999,-208.2762,-9.9702,-155.3588,-203.7137
-88.9503,-101.7692,-104.0275,-124.4938,-200.1730,-168.9970,-122.8295,-241.1978,-65.4165,-210.1248,-170.9592,-176.5515,-78.1941,-75.2277,-61.2958,-170.9777,-22.8997,-158.9906,-162.6109
-102.6081,-128.6299,-108.8917,-151.9427,-176.8877,-177.9864,-65.2954,-200.8758,-77.5372,-194.3437,-163.4591,-193.5104,-82.5356,-124.6561,-48.0284,-168.6626,-48.7954,-87.5029,-132.0048
-76.5739,-110.5794,-76.3868,-130.9307,-115.1584,-167.4063,-67.7091,-205.4038,-172.8851,-247.5393,-116.6088,-171.8068,-85.4769,-155.9453,-83.3267,-214.4146,-51.2084,-20.4778,-133.2008
-59.9620,-91.0954,-64.5999,-117.0143,-82.8685,-175.6949,-121.6360,-242.8019,-237.6644,-295.9081,-94.8476,-163.0168,-98.2342,-151.9835,-125.1410,-259.4726,-65.5684,-66.3762,-163.0782
-90.6610,-122.3352,-114.0886,-161.8963,-101.4530,-205.7206,-90.9854,-234.2063,-175.9740,-248.1894,-113.6958,-191.6989,-108.1681,-128.2993,-88.0493,-235.9556,-128.3992,-156.4223,-153.3327
-122.7232,-160.4403,-161.0080,-212.0973,-101.5469,-193.0384,24.3938,-163.1336,-87.4768,-155.3372,-110.6221,-200.6846,-59.9132,-92.8085,-8.2695,-164.4412,-180.1930,-165.7728,-90.3473
-114.8352,-163.7866,-162.1227,-224.0668,-80.7287,-154.0430,60.4992,-120.7927,-118.0538,-145.4905,-76.3297,-176.8648,14.7420,-62.6207,-3.7401,-139.8581,-162.6895,-133.4027,-59.1477
-98.7463,-165.7222,-165.3713,-230.6289,-111.7396,-165.4126,-10.4799,-136.6552,-201.7036,-195.2593,-69.5972,-172.5728,16.0533,-67.6941,-64.0651,-173.1651,-124.1830,-158.1842,-77.6811
-100.4385,-173.0443,-176.5659,-229.9368,-159.9585,-187.7449,-50.3935,-122.5654,-195.2490,-180.1537,-92.9403,-182.2313,-38.9627,-94.9656,-86.3055,-181.6708,-113.8872,-197.0493,-54.0467
-94.3898,-149.6948,-138.9571,-182.7430,-138.4861,-144.7979,-21.6446,-51.5383,-132.0028,-108.3646,-99.0400,-160.7321,-60.0738,-105.4709,-66.1758,-143.3508,-93.6978,-145.3134,24.0438
-74.3880,-111.5571,-70.6798,-120.1252,-83.4634,-94.4812,-9.4880,-10.7577,-102.9114,-75.2256,-93.1950,-131.7631,-62.2638,-103.2583,-61.4737,-112.5774,-50.6047,-40.4058,51.7891
-64.2944,-90.1846,-35.4215,-88.5326,-56.4718,-92.6434,-31.9130,-33.7935,-89.1016,-82.4862,-99.9757,-128.1693,-83.7602,-89.1827,-66.4673,-109.4153,-36.7048,-9.8017,14.9694
-53.3092,-61.1959,-13.4178,-52.0644,-25.4854,-59.7905,-33.6425,-47.2643,-78.6961,-87.2796,-94.0030,-107.8813,-73.6320,-27.1503,-62.3507,-112.9693,-36.4599,-39.1464,25.4135
-22.4602,-14.4170,37.1297,17.1197,22.1470,31.4008,-8.4741,-11.3577,-107.4773,-93.9685,-63.8455,-51.1156,-34.6567,44.4371,-70.7450,-113.0891,14.3017,-2.7680,96.3659
-0.2316,11.8711,77.9794,64.0612,40.0090,72.6077,-1.2459,17.3016,-130.5077,-98.9656,-49.0769,-17.5078,-46.8395,32.2091,-86.7165,-103.4919,75.0778,78.1012,104.7027
-3.7851,16.1308,75.6341,61.7775,34.9939,38.9605,-28.5425,-6.4274,-97.1181,-88.0343,-54.8812,-25.0600,-79.1281,-24.6031,-81.7073,-85.7975,70.7817,77.2632,30.2648
1.3376,31.1217,76.3880,62.8492,55.2089,31.3415,-60.9465,-28.6891,-78.7462,-79.0927,-43.2556,-20.2807,-55.4135,-11.3706,-77.6050,-81.8762,42.8212,28.4922,9.2225
18.1654,39.7645,105.7570,82.2077,96.0563,68.5527,-57.9585,29.7820,-105.4752,-52.9013,-25.4099,-2.5100,-35.3072,50.5595,-95.5463,-82.1676,42.1165,43.1583,106.4401
-0.1036,4.0815,108.8546,64.1998,117.9149,83.9941,8.9620,151.4751,-65.9573,46.4065,-42.3276,-20.3626,-62.0174,93.8631,-79.0975,-35.7235,18.3203,75.7733,236.9176
-47.5280,-54.2502,58.1665,-1.3374,111.7836,82.8854,126.5989,248.6861,58.2916,178.6708,-67.9371,-53.6822,-37.2047,159.9780,5.4404,58.2151,-45.1561,51.5693,321.0879
-64.6572,-85.4814,9.9781,-55.0009,107.1772,98.1839,216.7133,290.4881,127.5737,248.6400,-48.0702,-48.6683,56.1703,247.1036,79.4738,133.8307,-83.0407,28.7463,351.4414
-48.5632,-86.7090,1.3386,-72.4642,121.9863,94.8293,220.3096,311.7812,113.4378,268.6958,-3.4244,-25.4604,96.4674,246.3354,85.1000,164.0696,-89.0112,48.6755,336.9540
-44.2987,-88.0293,-1.8072,-83.6516,126.8862,60.2357,194.8530,323.4464,124.4844,296.7923,12.1317,-25.0843,70.5113,172.8126,81.0180,185.4984,-100.7611,65.7759,295.2689
-50.1894,-94.1583,-15.1611,-94.8629,110.6250,50.4341,212.8779,311.1815,158.6584,306.7764,9.4011,-26.3516,77.0748,169.6366,106.4116,213.0464,-96.4345,76.8706,253.0438
-41.9595,-86.9311,-4.9358,-86.2580,122.9632,75.6654,237.2316,287.5029,149.8238,279.9137,19.3885,-11.2841,117.4772,236.4919,118.6315,226.4606,-69.1312,108.1523,217.7864
-40.4869,-65.2112,31.7529,-60.4191,167.6920,89.6617,223.6389,263.6227,157.9503,266.3177,11.8456,-13.5665,125.8971,241.3990,115.7770,222.7484,-63.4554,135.2773,187.2750
-61.6495,-39.2787,59.4997,-25.9617,173.6451,94.0931,201.1028,217.4918,220.0821,256.4029,-38.8611,-37.6159,103.0694,172.5594,126.8367,205.1320,-58.1451,132.6002,152.9163
-70.4582,-9.0554,70.5414,18.1565,137.9466,116.9451,175.8106,144.6269,226.2045,189.3908,-80.6635,-38.5680,78.6717,141.5251,116.4735,166.5767,-4.5021,100.0723,93.7170
-51.4799,17.9962,76.5634,55.3001,126.1074,137.3211,142.4688,85.1921,160.3931,108.0078,-73.6443,-11.9790,52.7352,187.7042,78.1403,127.8684,43.8608,50.4838,30.6181
-35.4662,26.5196,73.9135,70.5968,127.0385,130.4028,144.7287,64.3085,150.7717,93.3492,-57.4660,4.8771,18.4701,237.0651,79.3370,119.4602,34.2785,29.0860,16.9752
-24.2383,28.7887,63.0118,78.8720,94.3010,110.8376,159.0868,53.3481,182.2019,103.0803,-49.9458,16.0300,-12.5877,226.0585,105.2095,120.6403,23.3697,46.7162,25.5175
8.2200,43.9608,48.4586,81.2207,56.3645,89.2497,106.2729,21.4882,132.7038,66.7683,-7.4888,48.6383,-4.2019,181.4524,82.4071,99.6457,40.3603,39.1711,-10.1829
39.7687,52.0646,20.8459,57.9960,38.9009,65.8789,49.5113,-7.0377,65.8077,34.2607,55.2874,81.0494,52.2199,158.2201,58.7889,82.6147,30.5610,-0.0999,-44.5141
25.8265,30.1798,-15.7598,23.9132,8.6857,51.1517,95.3821,8.6446,120.8930,75.2897,56.5244,72.2630,82.2440,145.2205,108.1975,104.1930,-8.8147,-5.5888,-6.0258
-18.7700,-3.9082,-39.6441,3.1840,-34.5436,36.0322,166.5545,49.2939,236.3440,148.5895,-5.2493,29.4030,34.7240,104.5268,166.8338,142.0681,-29.9219,10.9263,40.7129
-37.9846,-23.7498,-46.4654,-14.6906,-45.1853,5.7625,158.7622,61.7035,257.6540,170.2365,-33.7008,-0.1399,-12.4287,61.8890,161.7119,152.9277,-36.3557,11.3516,20.6912
-8.0953,-17.8998,-33.8742,-21.3502,-10.1210,-6.0587,119.6528,46.4198,158.6239,121.0656,17.3279,18.1895,12.7285,59.7101,118.5986,121.6656,-38.3421,41.7788,-4.5642
38.4116,12.4280,6.4080,10.3889,42.2250,29.6977,92.3399,36.7024,20.9928,41.1524,81.4090,61.7893,58.9999,74.7538,63.3856,59.1554,-14.5365,101.9715,25.0210
48.6856,35.7855,44.5469,43.4215,75.2427,65.9872,50.3082,19.9335,-73.9086,-31.5109,79.8502,64.7924,71.7430,68.3125,3.1099,-14.4256,11.6540,101.7963,60.3412
21.0340,21.8092,44.8995,27.3488,72.7133,53.3716,8.3373,-20.6384,-115.8078,-87.5939,30.8767,15.0641,66.3954,52.6131,-36.6046,-78.4897,0.7321,47.9897,61.1673
13.4379,-0.3760,32.4120,-0.8713,58.2216,17.4896,-20.0854,-44.0312,-148.8955,-115.3808,16.7442,-13.0801,51.4565,51.0445,-59.5639,-104.6774,-13.0063,31.6067,42.2832
40.2155,8.2674,36.2792,5.2926,54.3453,-0.4270,-55.7044,-36.1411,-162.3657,-101.8791,48.2451,13.9113,30.0405,53.5433,-75.9006,-75.0541,8.7426,46.0452,-5.6113
47.9098,30.0635,37.5126,21.3109,49.9614,4.4390,-69.4999,-62.1920,-130.9566,-98.8429,58.0506,35.2311,38.9235,45.2509,-62.5963,-43.6904,33.1194,36.6160,-80.5992
37.0618,45.5329,37.8009,32.9429,49.0946,28.0298,-49.7963,-139.0182,-145.0639,-176.0256,45.5699,29.6329,85.9207,37.4423,-47.7239,-92.9550,37.3573,31.4447,-111.7757
62.8663,67.1491,67.8085,60.7645,69.8412,56.7160,-67.7117,-178.9411,-254.2005,-272.7750,69.6293,45.4397,123.8788,42.9497,-87.8913,-182.2762,50.7569,72.6330,-65.2470
98.3940,79.8202,108.4278,81.2334,88.8664,59.5806,-132.4336,-137.1073,-314.3922,-265.9983,94.5032,64.7483,121.9027,45.6583,-141.9599,-193.4939,76.6432,123.3341,-10.8756
74.6603,54.4533,116.5851,57.8907,84.3132,34.6095,-166.7219,-76.8387,-253.0221,-183.3373,47.3276,24.8776,93.5929,32.0578,-151.2982,-142.0417,77.1886,120.0944,7.6552
25.6086,14.7413,95.0398,18.5818,72.4853,14.2962,-154.0177,-47.0171,-207.1181,-142.4481,-15.8614,-35.1543,62.7624,20.9402,-147.0741,-133.2418,46.5928,65.9839,36.6354
22.0709,3.7754,67.4764,10.3590,47.5535,10.2504,-128.9072,-33.9026,-222.7245,-145.7603,-10.2687,-32.9527,36.2124,7.2074,-144.6454,-155.9890,26.9171,31.8800,80.9057
40.9654,21.7222,51.1377,33.5299,5.6050,10.0443,-105.4621,-30.7556,-190.0081,-129.0009,17.3053,6.3059,7.2776,-45.4052,-114.8136,-139.4813,40.7883,49.7424,76.0271
27.9652,35.6608,55.7812,50.6025,-1.9699,7.5991,-94.0587,-32.7132,-96.5847,-83.4282,-4.3503,4.6261,-15.5148,-99.5156,-76.2518,-96.7139,46.1960,60.7046,35.2178
-12.4505,13.8875,54.5938,24.7554,26.8031,-10.1988,-78.4500,-11.6577,0.2164,-11.4312,-54.0754,-44.1618,-24.8385,-76.9249,-43.3259,-51.3611,-1.7814,25.2551,34.1760
-49.7544,-35.7392,19.4416,-28.4810,13.7304,-51.9903,-36.7909,25.4516,96.5218,74.7960,-95.6483,-92.4129,-53.9460,-16.5740,2.3944,5.8695,-61.1154,-17.0588,54.6209
-62.2164,-59.1172,-11.5372,-45.9935,-32.8536,-76.1902,-17.9267,42.4380,138.0025,109.0488,-115.7780,-102.3762,-107.3773,-4.0372,18.5159,38.4511,-58.5356,-45.3128,41.1844
-45.4296,-37.8665,-4.8628,-19.7558,-29.8792,-43.8719,-44.8953,51.9231,75.3969,79.8825,-94.9608,-70.0805,-115.6227,-0.0061,-24.0649,26.2993,-12.9230,-80.5839,29.1768
-28.0285,-23.2614,-7.4603,-12.2888,-9.3063,-5.5238,-46.1576,71.9606,27.6415,72.0437,-55.2870,-32.9405,-71.9379,47.8156,-41.8492,35.1990,6.4347,-117.9763,34.9068
-30.8485,-33.2733,-46.8132,-33.5046,-47.4472,-23.2706,-15.2352,62.4748,88.6768,104.8045,-45.4094,-22.4077,-63.6402,70.4254,5.5574,82.9955,-5.1609,-146.0929,-5.8708
-25.5632,-24.0581,-69.6562,-30.2975,-85.9134,-51.7671,-15.2343,22.5801,143.6907,112.9246,-38.3309,-9.7330,-86.6272,39.1395,40.5186,103.1763,-11.8845,-160.6831,-69.5845
7.5671,7.2446,-47.9789,-0.0256,-50.5576,-23.1240,-18.5634,25.6415,97.3086,93.3751,14.7845,35.6417,-58.2632,39.0085,29.5596,93.4253,-0.1225,-128.9007,-63.2379
36.4691,21.0544,-15.4603,19.1507,2.6353,23.5073,3.1468,67.2963,22.2370,78.3410,64.6005,73.8957,-14.5270,74.8534,7.0007,94.3652,29.7320,-53.3920,-27.1488
33.7800,21.3901,10.3387,30.4822,13.6968,23.4896,-10.9102,53.3775,-4.6989,46.5197,44.2796,58.7386,-35.6428,60.4561,-16.7968,74.9755,55.7913,-7.0872,-48.6162
16.0183,33.8305,31.0898,51.7136,8.7596,2.3605,-45.5415,-19.4707,21.2305,1.8633,-8.4795,20.6797,-74.0134,11.7972,-19.8972,22.1903,44.0464,-12.6823,-79.3998
12.3130,50.2963,32.5057,70.7932,4.1496,6.6140,-21.9805,-58.0096,80.0602,0.7837,-19.0572,20.3987,-64.8649,13.4896,23.5651,9.2289,15.2513,-18.4173,-64.2781
26.3418,57.1085,12.4051,73.0987,-7.8639,24.2298,29.5376,-39.9747,123.0929,38.0226,17.0140,58.3391,-33.1611,52.8349,71.8944,54.9793,11.4085,-14.5419,-54.3603
31.0704,56.8826,-8.8756,59.4033,-2.5079,34.9068,56.0967,-28.8258,118.9951,48.4382,50.6751,81.1510,1.8479,62.2972,87.9722,81.5049,8.0315,-29.6102,-74.6416
13.3952,54.6629,-22.0842,43.3916,20.2149,40.3791,77.5915,-54.5724,107.8146,22.1071,52.2753,69.0006,34.8620,39.4526,97.9241,60.7822,-20.3218,-57.2306,-94.0992
5.6452,55.2886,-34.6541,40.6461,11.8646,31.5843,89.2070,-80.9707,123.7483,10.7127,47.3823,63.1575,29.6836,21.3224,114.2262,49.1100,-38.3076,-75.0937,-109.5233
22.7034,45.4504,-55.3973,27.8297,-24.3081,0.0750,84.5294,-66.9795,132.9833,36.2570,70.3632,77.6350,7.5027,14.6223,123.2262,68.1326,-45.4193,-64.2436,-105.6622
24.4218,4.6280,-78.7201,-27.2526,-30.4212,-34.0255,100.1432,-26.5942,96.4575,55.0025,94.4603,63.5301,32.4384,6.3097,120.7614,71.7532,-78.3775,-20.9194,-60.6274
2.9114,-29.4435,-74.1017,-67.6681,1.7986,-36.6021,111.1242,-10.6859,35.2291,28.7109,78.6951,22.0043,67.6299,10.6507,94.4433,41.1107,-95.7534,9.7664,-26.4172
10.3415,3.0702,-23.3172,-10.1333,37.2819,12.5079,83.0265,-18.6629,2.8405,-6.8749,57.2395,33.3022,40.5879,60.1238,52.5679,24.5620,-37.3686,7.0670,-40.0113
52.9636,67.6244,42.7735,93.3513,69.1424,84.9806,67.2487,-5.8615,-7.3170,-15.5708,73.5291,99.5426,-7.1284,129.1084,26.9251,40.2167,50.3255,37.1612,-46.7968
74.7230,84.1638,86.5207,127.0144,95.8732,113.1594,59.7321,13.3312,-54.5772,-35.9344,85.2247,117.6755,-9.3393,134.2767,-1.6822,27.4707,92.3554,117.9459,-22.0079
60.5257,65.5923,103.0285,102.9812,95.7959,90.3948,11.3455,3.4588,-104.0777,-72.0589,54.5318,72.0883,9.5562,64.1111,-42.8899,-24.3959,90.5720,158.6080,2.8905
48.8097,72.6092,100.5618,106.9069,83.3244,91.9625,-2.3801,8.4405,-68.7051,-51.9835,36.9630,62.9413,14.5118,8.3562,-35.4957,-30.8621,79.4151,132.5414,31.3741
54.6957,96.0211,98.5574,134.2850,109.0265,138.6397,57.7587,59.9668,-19.8617,5.6476,68.9567,106.3967,22.6179,12.8170,3.7411,17.7106,78.1122,122.2039,59.5808
53.5858,95.4470,117.9067,131.5103,171.0199,164.7304,77.4911,94.5264,-57.1675,9.8305,87.6162,110.9939,47.2238,29.3317,-11.2112,31.2930,81.2584,150.2692,58.1593
30.5235,76.1425,130.6074,103.2168,203.1411,145.8733,48.8331,83.8535,-71.1600,-0.6818,55.9332,63.4710,66.5123,26.4110,-32.3907,12.4912,56.4514,148.2295,52.7775
13.2790,61.9043,96.0934,79.7974,168.2847,112.9412,57.0319,78.9873,8.8815,46.9359,37.7592,46.2609,52.2350,19.8751,7.7559,37.0499,13.2676,91.7651,54.0541
31.3041,56.6915,49.3870,65.1077,104.8689,73.4253,36.7573,78.9358,21.6729,70.5972,67.9771,74.4645,9.5508,5.4195,13.3919,69.0046,17.0424,38.1293,5.7523
48.9413,49.7993,40.0131,51.6663,64.6199,37.8538,-42.5026,49.6017,-67.3455,12.7185,77.7356,75.4914,-15.6802,-29.6563,-50.4995,36.9101,56.6307,26.7741,-54.5236
15.7070,28.6054,35.0423,29.5827,48.8165,32.0700,-43.5806,26.7817,-71.6748,-18.6982,26.0695,24.9742,0.8629,-57.9190,-56.3783,-11.1347,40.7441,14.0807,-17.9692
-29.4859,-0.5735,0.8031,-2.4265,31.7567,32.4114,24.3196,40.3871,8.9872,22.1923,-19.3603,-18.2319,18.3903,-49.2215,0.0946,-15.1193,-25.1465,-38.5345,67.7325
-23.6330,-15.1757,-21.5036,-19.4906,10.2468,9.1492,21.1532,58.1912,13.8155,47.5160,-9.1944,-15.4483,-3.7242,-22.2470,2.0280,-2.8368,-44.4291,-69.2654,85.4769
-2.4659,-17.1164,-11.1061,-11.5395,-3.7386,-3.8129,-6.0017,78.5231,-18.7899,49.0536,3.1292,-1.5459,-43.7161,-17.8883,-27.2438,6.7980,-10.7399,-32.8360,75.3312
-22.3304,-28.0795,-8.3917,-12.5787,-8.1784,9.1847,28.2236,123.7167,25.7349,92.8139,-23.8347,-15.4625,-58.0525,-43.1015,-10.3801,33.6421,-2.0187,-8.0096,110.4217
-48.7846,-42.1352,-22.3842,-36.2049,-3.2373,3.2947,47.1401,161.3238,101.8015,163.4003,-44.2342,-36.7729,-44.5574,-65.7388,21.8229,76.8252,-33.8842,-34.0901,130.9075
-38.5816,-38.5364,-23.4157,-45.2827,4.8370,-28.0058,23.0726,159.7854,153.2634,210.4317,-27.6174,-29.9102,-42.7119,-61.9360,41.6453,126.0252,-52.6272,-31.4785,80.8709
-15.4500,-21.5146,-12.5467,-21.4419,-8.9270,-40.8844,10.9298,137.7969,183.4220,217.5152,-13.8188,-4.7890,-71.5034,-44.2318,54.9753,158.6690,-25.7936,4.3010,17.9059
1.8960,-1.5283,-3.6606,12.8214,-45.7535,-25.0490,-18.2391,107.3956,150.0329,169.3003,-18.4583,15.4929,-93.5176,-33.8136,29.5012,130.2980,26.2628,-3.0870,5.6056
27.6290,21.1677,7.5311,40.6694,-63.6459,-6.0359,-69.3246,72.6603,55.1439,89.4816,-2.2931,38.2195,-85.9505,-34.6508,-23.2773,61.0361,61.8730,-23.0860,23.2072
50.1383,34.2048,9.7804,50.7655,-52.4502,-6.7463,-72.3916,51.9021,3.6357,51.0731,36.0679,62.7808,-83.0035,-45.6573,-34.4630,35.1525,60.4828,-4.0990,8.1032
43.3013,28.1095,-10.2050,33.7545,-48.8611,-28.3092,-42.1291,37.6844,47.4306,71.5853,46.8382,61.7463,-83.8900,-57.5815,3.7212,63.3953,30.0809,-4.3740,-38.7600
21.9555,25.0987,-22.2250,19.8983,-45.3773,-27.5441,-13.7488,26.3793,135.3060,112.1013,27.2525,45.5727,-41.9028,-33.8632,56.9913,94.1754,-7.1972,-33.1582,-35.9782
21.1189,42.9446,0.6369,45.5578,-1.7257,30.3799,46.2646,57.4500,190.3989,152.9977,31.3431,63.4466,13.9493,42.2024,101.3791,124.5037,-16.5387,-15.7998,31.3792
36.4254,59.6566,26.5022,80.6802,47.8432,92.4419,102.1241,112.7748,165.3260,166.8745,60.9621,103.5282,14.9557,106.8609,100.2430,151.4506,16.5628,21.0171,63.7082
28.5218,50.5997,20.8072,76.0727,34.4909,92.9553,93.0315,103.8811,116.0081,127.1842,48.0106,94.7332,-11.1623,91.0960,68.0340,132.9043,48.6956,11.3363,28.3087
-8.9425,25.6107,7.8949,47.7934,-13.0059,60.5746,75.5117,42.3774,131.5670,80.2759,-20.0770,32.5888,-9.5825,37.2324,68.8435,86.9125,44.1079,7.4692,7.4141
-29.8478,11.3315,28.0672,40.4446,-5.1689,54.8991,83.8379,35.9107,155.2987,78.3318,-63.0828,-7.9983,-1.9478,28.4874,76.6231,72.3734,35.4256,57.9516,34.9515
-15.1675,21.3803,74.6802,61.2429,62.5938,78.6714,70.0723,91.9610,113.9262,98.2028,-46.5290,1.0298,-7.1425,44.5525,40.7999,76.2887,43.5727,108.1596,79.6857
-7.7067,40.4313,106.8293,88.4771,104.1658,100.3992,56.6303,125.8158,106.8028,117.6183,-40.4639,9.3334,-14.1083,25.4537,24.0775,67.6640,39.0284,121.7229,130.2105
-22.9855,37.7217,104.3942,97.0283,74.8870,95.3215,78.0395,123.9305,174.7248,142.5472,-76.0935,-7.5422,-39.9997,6.9525,56.1098,70.2275,29.4728,127.4642,162.2638
-14.8616,18.6020,94.1899,85.3727,40.5369,76.9541,86.2570,124.9351,160.9819,135.2309,-76.7028,-7.4373,-64.4330,43.2427,53.5838,80.3380,50.8079,159.3461,150.4696
32.9377,31.4649,116.3692,94.0165,78.2944,95.3260,70.1410,111.1565,24.1829,59.0720,-4.8072,37.3142,-18.3609,96.5781,6.1629,50.1130,84.5978,225.7640,128.4009
77.7040,89.2375,162.5115,144.5121,149.0847,148.0697,48.4536,46.4233,-77.1568,-40.7567,62.1191,91.0653,68.1409,117.1495,-19.3697,-11.6486,101.2786,265.7273,105.9096
93.3043,139.8239,173.8685,187.2919,152.3203,165.9928,-3.7605,-33.6947,-76.5148,-92.7780,72.8868,118.1156,93.2720,105.6754,-24.0380,-43.7408,111.7003,200.8195,45.1841
93.3889,145.2882,124.9083,180.4309,83.7935,139.4897,-40.9392,-46.9403,-36.9744,-68.4364,76.5779,135.6322,56.7256,64.8643,-18.8772,-17.4300,118.5564,90.4678,-11.8252
87.4089,120.1645,68.7742,149.6501,29.7746,119.9439,3.0371,23.4404,10.3740,11.2095,95.9103,152.1119,18.7222,20.3725,12.3755,41.5202,107.7450,58.5091,9.3618
67.0100,79.3679,53.1204,113.0915,22.2072,94.6764,40.3377,92.9049,54.0391,84.7448,75.6895,121.9295,-12.2835,22.1812,31.4283,77.1721,74.8100,79.5034,72.9431
29.4227,25.2761,41.0505,50.8784,9.8486,28.9276,3.9021,100.6359,85.6179,118.6684,11.9296,39.1793,-28.3379,32.9664,22.3127,66.3550,13.6316,53.0585,115.0016
-5.4359,-20.8076,-11.7379,-20.1926,-37.9481,-30.8244,-6.8237,98.9421,125.9394,150.0732,-18.8450,-14.2033,-13.9447,-17.4800,40.8606,63.2424,-49.0317,-5.3933,135.6699
-14.7567,-37.9766,-60.5221,-49.3922,-83.8763,-34.1173,36.1036,131.5243,158.8614,189.8304,-3.2370,-0.2440,-3.5021,-54.9809,73.4156,107.1641,-46.2324,-27.8746,128.0661
-7.5994,-30.7696,-42.1242,-28.0355,-78.2000,-0.5097,41.9509,144.7294,152.1012,188.5616,-8.7510,17.3433,-7.5950,22.3113,61.4036,143.3479,14.6478,-14.4143,93.2313
-1.0105,-8.3379,18.3860,10.5618,-23.0472,39.9139,10.2963,119.9565,128.2682,152.1810,-34.0232,11.3998,17.2069,128.3003,31.0462,129.5143,50.5160,6.0052,87.1383
19.7808,18.8180,50.7899,34.3574,26.7856,64.4310,-19.9806,124.2954,87.5385,139.0354,-4.7783,32.0735,54.1955,130.3929,7.0543,108.2676,47.2665,16.5492,114.1297
56.9569,30.2717,30.4230,27.1622,25.2827,48.8898,-54.3257,161.7072,26.1124,154.0148,73.8577,81.8171,55.7779,62.2455,-20.2209,113.5567,39.9349,2.6307,115.2485
69.9372,24.1017,-15.0802,3.6638,-12.5492,24.8781,-37.3065,175.0603,45.7060,186.8141,117.7757,109.8919,62.8338,30.6694,9.2441,141.9324,16.3374,-21.5763,108.7876
47.9416,20.5505,-32.6237,1.4627,-23.6452,52.4573,61.3893,187.9378,170.8291,248.9698,101.5168,110.3020,108.2137,71.1405,103.7940,195.1219,-10.4949,-9.2300,149.7063
29.1645,22.8756,9.9942,29.7476,30.0755,111.9027,132.5927,234.1446,220.2776,285.5583,66.8497,101.4270,115.0939,149.8100,129.9142,234.1479,13.2936,51.0588,192.1274
22.7038,21.9323,62.7163,58.1333,92.1680,134.5744,124.0159,238.5866,138.6271,231.3991,35.7655,79.5538,48.8135,194.6971,65.9341,201.9667,56.2578,92.6565,166.6696
8.5589,21.2746,49.3885,60.5896,69.9061,107.9893,111.1120,157.3063,115.1182,155.9731,7.7099,54.8875,-0.5128,166.3554,55.1596,142.2278,46.8426,52.4063,104.4108
-4.9961,16.4216,-8.4253,35.8872,-15.2439,63.0825,112.7252,82.8884,195.8268,151.3334,-6.7368,43.7781,12.9772,116.7694,113.5778,132.9908,6.1304,-14.6321,70.9926
-9.9126,-5.6460,-40.3353,-3.0956,-50.1208,21.7948,113.5091,76.1955,229.2376,175.3487,-2.8086,30.9938,29.5344,93.1572,139.9457,150.1605,-24.5090,-15.6380,62.0616
-27.9962,-32.9089,-54.2408,-42.4680,-19.6190,-2.9726,143.7057,77.5578,212.6109,172.1603,1.7166,5.8697,30.1621,74.2207,145.5056,155.1044,-58.1292,4.0646,24.9212
-57.9278,-47.3916,-81.1559,-77.2530,-6.9315,-13.9724,161.9631,45.7506,230.1422,162.3902,-10.1518,-18.1158,56.6789,62.8664,163.5308,169.1438,-80.3543,-42.8022,-53.1067
-59.0521,-51.9135,-88.2388,-97.6469,-21.2171,-29.1932,99.7961,2.7758,189.5164,120.1206,-18.1320,-30.3304,88.1642,79.0999,128.5583,158.3849,-58.2119,-85.9055,-120.9525
-10.5063,-40.8746,-60.5501,-82.7547,-13.9879,-47.1141,20.0755,-46.1908,12.1917,-1.6250,26.6897,-10.0330,73.3111,78.4976,36.6981,65.7730,-23.1926,-35.2546,-142.4210
57.4193,-5.7402,-43.9156,-43.6437,1.6564,-51.3705,-7.4417,-92.9738,-154.4283,-118.0214,122.1605,53.9623,51.8012,35.4352,-17.9350,-31.6191,-14.4190,30.4933,-144.3422
92.8309,20.8186,-50.4942,-30.1909,1.6552,-49.7409,-25.4746,-98.7251,-186.1033,-126.8802,185.7116,103.0915,76.9986,-2.3757,-19.7823,-36.7698,-17.2700,32.0333,-152.1106
72.7823,0.5246,-56.3281,-60.7341,2.0908,-63.0956,-42.8102,-68.5516,-162.7272,-87.5994,163.8392,75.8729,92.7502,-21.9800,-24.7495,-9.2970,-23.0635,20.0573,-150.6471
26.9142,-46.1633,-73.8541,-102.0387,-7.0543,-89.7050,-14.8075,-51.9088,-153.9416,-81.3345,105.4102,12.2009,49.3624,-43.8648,-28.0635,-22.8842,-48.2328,11.6078,-131.6184
4.5243,-68.1134,-107.5948,-123.4289,-43.9205,-111.5165,8.3243,-54.8369,-115.7993,-65.6709,78.1328,-11.6243,17.8467,-45.3433,-6.1757,-26.5779,-78.5798,-39.2296,-112.7177
25.1933,-45.3872,-113.1721,-110.8837,-75.9412,-117.4369,-49.6058,-57.1886,-67.2031,-24.7583,91.5584,15.1065,39.8298,-32.0378,0.6367,4.9021,-72.2621,-94.3043,-114.7121
62.5302,-2.3723,-76.4892,-63.0707,-77.7909,-107.1280,-132.1900,-73.1068,-91.5275,-40.8811,111.6604,51.5041,36.8755,-51.9837,-37.8591,-3.0847,-24.3798,-84.1575,-137.1262
68.1804,14.5017,-40.8079,-20.0076,-68.5747,-92.8845,-137.3172,-106.6705,-146.1323,-112.1465,92.6086,47.8002,-18.6218,-77.2069,-70.5970,-65.8069,8.0654,-34.8477,-138.6191
33.7786,-12.5338,-36.4217,-30.1426,-67.5917,-100.4581,-91.7743,-121.0390,-127.2126,-130.7090,34.2252,-5.9571,-50.2621,-61.7334,-55.3415,-104.7282,-21.4992,-13.4180,-91.0047
12.5749,-44.0096,-55.6334,-71.0329,-86.9549,-134.4201,-102.2987,-98.9521,-85.8776,-85.0443,5.4086,-45.3886,-42.7463,-61.4198,-44.2202,-96.8862,-65.7870,-41.2949,-40.0133
30.8951,-41.5278,-70.2865,-78.6239,-115.4386,-147.1942,-163.2540,-59.9632,-123.9565,-63.9920,32.3298,-24.7488,-49.5700,-113.1284,-84.5712,-95.0976,-52.4951,-82.6884,-17.6147
40.2531,-25.0161,-51.2710,-47.4163,-106.8324,-107.6181,-170.3179,-19.0684,-176.6413,-75.2299,40.5092,-2.4655,-70.0419,-145.6061,-123.7031,-112.1692,-8.7468,-75.3310,20.8266
11.0075,-36.0479,-15.9921,-34.6351,-73.9722,-79.0857,-128.0377,16.2608,-146.0716,-56.0043,-14.2233,-40.1697,-86.8017,-131.7732,-117.1145,-116.1645,-5.7617,-22.7188,87.0690
-29.7071,-81.1166,-17.2178,-73.1460,-88.5222,-121.3030,-126.0675,39.4236,-87.3630,-11.4557,-86.2672,-113.9174,-120.4307,-141.5829,-107.2734,-116.5338,-46.1562,-9.3061,143.3286
-68.4055,-128.1622,-52.6818,-126.1274,-129.6514,-171.9707,-136.9189,60.6633,-63.6953,18.0995,-137.2862,-176.1268,-155.6849,-193.4458,-111.3293,-137.9399,-97.1216,-59.5383,200.7476
-98.1154,-147.5860,-76.8575,-151.7139,-125.7800,-170.8457,-101.0777,93.6554,-30.5263,55.6863,-154.9286,-199.6864,-152.0350,-215.4685,-90.9039,-133.5207,-139.4963,-105.5912,250.3346
-95.1347,-159.7311,-95.3853,-180.1671,-109.5133,-183.7334,-84.7313,131.9393,19.7479,128.9712,-127.3858,-186.1464,-129.6519,-165.1664,-61.1263,-50.4035,-156.7322,-119.3717,212.4943
-83.1337,-198.4673,-132.1606,-244.6741,-125.3167,-242.1821,-110.6920,161.6857,31.9620,191.3276,-93.3495,-180.6232,-122.8003,-93.7697,-60.5004,51.2632,-152.7601,-128.8239,107.6730
-104.1872,-224.5865,-153.7075,-275.9816,-132.5165,-246.4963,-84.4707,172.5168,35.8635,198.9094,-107.4474,-196.8301,-122.3540,-75.0587,-56.0780,84.9075,-138.6416,-138.8999,58.7122
-127.4403,-187.7383,-133.1883,-214.4621,-130.5108,-173.2104,-20.3282,156.8729,107.8313,191.5312,-149.6192,-186.8279,-127.6185,-91.0844,-14.3539,83.9293,-100.7790,-143.9605,69.0050
-120.9495,-144.4020,-106.7631,-150.1021,-153.6740,-136.4388,-14.9529,124.5805,210.9637,210.9587,-178.6624,-162.7334,-137.5273,-52.8638,28.8100,113.9482,-60.0319,-145.7524,53.1187
-113.3839,-152.3428,-94.1501,-161.3558,-146.9614,-154.5546,-38.4943,95.5795,221.9984,207.1942,-186.3056,-174.3496,-112.6346,38.0527,31.4580,132.0866,-59.7312,-128.4962,19.2973
-99.3159,-147.5901,-66.6828,-161.1028,-81.3180,-131.1119,-41.9383,72.5180,105.7699,127.7872,-154.9085,-169.2089,-64.4508,77.7215,-11.2694,82.0994,-54.9594,-89.6183,8.7087
-61.5857,-96.7443,-30.3523,-95.5674,-50.9306,-79.1497,-59.9112,51.7836,0.3540,45.3431,-109.4200,-114.3230,-73.7071,45.5174,-59.6937,21.7370,-3.6329,-64.3982,4.4974
-63.5333,-86.6442,-28.2474,-67.7387,-90.7707,-84.6586,-58.9257,43.8083,62.6218,65.4573,-138.4402,-114.0059,-129.8758,31.9151,-39.8232,29.5084,9.7750,-67.9696,9.8983
-120.0756,-128.1518,-47.3763,-105.3697,-114.2798,-103.7433,16.4536,54.5521,219.1823,144.8540,-218.9397,-180.0561,-124.7885,66.1327,45.5018,80.0130,-39.6705,-60.9022,47.7127
-125.2172,-114.8570,-31.7666,-91.4863,-79.8544,-49.8443,80.4016,65.8739,241.6590,149.1673,-210.0408,-165.5618,-53.9409,84.7874,82.7701,95.4126,-32.2604,-13.3388,75.8082
-54.2327,-38.3411,8.9728,-13.7125,-25.0651,19.2128,51.8640,45.7136,103.8262,62.0557,-101.6570,-60.1558,-18.8134,60.6758,30.9072,57.5555,35.1161,24.3274,31.9897
-6.6816,6.3269,12.8391,14.4208,13.1836,9.9279,-5.3452,-16.4429,4.1384,-12.6679,-18.7418,-3.2269,-25.0304,31.0966,-9.9601,16.2063,30.8113,-10.2451,-64.4327
-9.2529,2.1551,-11.2844,-15.1930,21.7530,-31.3141,-16.6038,-73.4861,19.1357,-26.4389,-2.3229,-15.0844,3.5666,26.9357,13.8578,4.0812,-32.2727,-49.6626,-111.9184
-13.5511,-3.7032,5.5363,-13.4429,29.2125,-10.6867,24.3874,-66.7529,33.4446,-27.8206,-14.4535,-25.3992,45.7560,52.3367,38.2158,-5.6819,-36.6221,17.0967,-47.3034
-15.0106,0.1572,53.6558,27.7587,59.8011,53.4878,81.8427,-28.3424,-10.6334,-57.7014,-37.1710,-25.0439,32.9667,93.6138,21.5734,-34.5916,12.6433,111.0120,37.2005
-9.3492,11.6469,51.5407,47.6899,56.3115,76.1810,80.6386,-42.3060,-59.9793,-101.1063,-31.4210,-7.4547,9.3868,112.4585,-4.3207,-55.5599,44.5933,75.7915,12.3522
24.1083,26.3326,-5.1782,25.4230,-10.0333,35.8742,8.5165,-99.9610,-89.1955,-128.1786,30.5664,37.4115,46.0031,80.9281,-12.1045,-54.7435,42.8916,-21.4069,-73.9753
53.5743,24.9253,-33.6859,-5.2189,-46.1664,-10.3794,-42.1173,-130.2618,-122.1187,-143.6045,82.4742,57.6632,91.1467,37.2987,-16.5811,-64.4603,22.9469,-21.5723,-100.5801
52.0574,22.3253,0.4664,5.9342,-8.3384,-7.2529,-45.9035,-137.4771,-171.8159,-182.9083,67.6251,37.3689,69.9936,42.8515,-46.2677,-105.1517,25.3193,30.3505,-85.6287
46.8557,46.4334,46.1933,60.3444,27.1548,33.5944,-59.2896,-155.5157,-209.3817,-234.0247,29.8435,30.2144,15.5189,78.3778,-87.7827,-150.2735,62.6537,17.8240,-82.8198
39.3255,63.7464,53.0510,86.0181,35.8706,52.0086,-60.6105,-150.4429,-177.7164,-217.6433,14.2278,33.3081,-10.3162,75.4758,-84.2940,-149.8673,60.1201,-28.9903,-70.4477
16.3704,43.1375,27.2512,47.2696,52.9505,27.2678,-18.9480,-108.5219,-89.6356,-129.1976,17.8267,17.5780,1.8995,40.5628,-31.1534,-87.7752,1.1677,-36.4161,-70.2884
15.9652,28.3218,12.6678,12.9841,62.4712,8.2882,0.6675,-96.1563,-65.7368,-96.2551,42.6007,19.9971,42.4969,28.7397,-4.0396,-37.3657,-10.9251,2.3109,-116.0333
51.3735,49.5179,34.0740,35.4904,59.8953,28.8074,-30.8320,-131.4380,-162.2186,-176.2279,78.4022,53.0399,79.9416,37.2122,-43.2761,-78.9335,40.7436,54.2802,-135.1291
73.3737,72.8246,67.1227,76.0595,75.3802,59.2870,-67.7297,-145.8272,-268.1268,-253.4501,86.8891,68.6125,63.2181,40.1547,-105.7144,-156.2089,73.7420,60.8048,-93.7560
66.8963,79.5295,86.1003,100.5289,84.0802,75.2015,-101.7383,-120.2304,-292.6278,-254.1070,58.4351,60.0655,6.2103,42.1246,-151.2899,-174.7851,96.6980,16.3839,-67.9843
56.3136,81.9649,98.5199,117.0492,64.8159,89.3498,-126.7098,-102.0971,-285.6322,-247.3418,21.2549,49.2639,-24.7834,29.0480,-175.5483,-174.1957,136.2084,0.3652,-56.0845
39.0021,74.0095,96.2739,114.6832,55.7299,94.8661,-104.2099,-89.3391,-272.6590,-243.5840,-1.8031,29.8484,-28.7317,-12.8970,-166.5836,-198.1026,121.0993,8.2674,2.0843
9.1821,41.9939,49.3476,72.2242,40.5216,61.3567,-53.6761,-42.3696,-188.2735,-158.3748,-12.4357,3.9726,-52.1388,-45.6602,-114.7717,-169.4961,38.6489,-45.4771,64.2293
-25.8334,-13.9041,-27.5570,-1.6247,-29.6799,-5.5812,-17.3714,19.5664,-51.2830,-24.0374,-36.2716,-29.2807,-85.0840,-60.1609,-47.7222,-82.0670,-29.3668,-118.4414,89.3177
-72.5717,-80.8823,-87.9522,-81.8977,-100.3216,-62.0678,22.5179,52.7038,31.3889,43.8938,-85.7964,-89.4979,-89.3379,-91.7871,-2.1168,-42.4557,-71.6347,-132.5924,118.2454
-119.2853,-123.0438,-119.5699,-133.4576,-103.8788,-74.3565,77.6366,71.8460,72.7789,72.1631,-124.3067,-138.9206,-73.6454,-104.0555,29.3691,-29.2448,-111.9505,-150.9209,137.8507
-131.2318,-115.9019,-128.2524,-127.5361,-84.9878,-51.3674,120.9135,105.1172,165.8685,148.3690,-125.0849,-123.3578,-71.0069,-54.0016,76.5707,53.9409,-114.1700,-190.5700,106.6572
-118.5248,-97.9292,-114.5233,-96.4247,-102.8393,-41.3421,134.8741,123.8016,260.1078,212.0283,-127.8248,-95.7252,-92.2652,-20.9232,116.5738,132.0042,-76.0127,-154.2393,73.2561
-124.0924,-114.5355,-103.0451,-100.8030,-146.9082,-71.8591,110.3918,97.0412,252.2526,179.4579,-168.7836,-128.8480,-122.7746,-59.4860,101.5013,100.8581,-51.2433,-88.1805,72.7934
-146.4694,-138.7836,-114.4492,-126.8946,-175.5445,-101.2050,71.8876,56.3970,201.6488,119.2295,-211.5520,-176.0707,-142.0358,-89.2558,62.2504,40.3656,-52.7894,-119.1070,61.7630
-143.4307,-119.1086,-116.1769,-109.8553,-148.9272,-82.0590,74.3193,40.8582,187.0780,102.5860,-194.7055,-157.9277,-144.5766,-75.1775,58.2861,31.7271,-60.3342,-173.2988,36.8957
-97.4484,-60.4021,-74.2868,-43.9794,-77.2338,-30.5740,92.2881,39.8670,147.2353,81.0137,-120.3200,-86.6996,-128.6207,-73.9019,59.3242,21.9709,-51.3615,-124.3052,37.3620
-51.4365,-11.2256,-9.6229,16.9648,-26.3182,19.3912,67.2980,39.3124,86.2088,43.1751,-75.5715,-37.2948,-86.6648,-70.3217,31.2566,-1.7318,-5.1730,-27.8044,62.0845
-62.5042,-4.1976,35.4907,36.1258,-11.5973,53.3611,58.5361,51.6673,135.7089,65.8499,-121.9187,-56.7365,-42.2251,-28.3994,37.7502,21.5741,31.6206,24.8241,92.6829
-106.2366,-23.4313,32.7316,17.1115,5.1597,48.5376,118.6411,66.7475,268.1916,141.5192,-174.5221,-100.5591,-34.6146,-13.1217,107.3612,75.0765,-13.2219,29.7898,103.1639
-101.3013,-27.0848,-18.7822,-11.1794,7.7277,7.6650,164.7176,53.0525,309.7704,174.1653,-119.2692,-79.0029,-42.5257,-50.3488,164.0000,100.7664,-91.0508,-8.6276,59.7277
-50.3820,-6.1407,-73.4046,-18.1896,-25.5057,-10.7381,161.1166,19.2391,262.1528,149.8593,-13.1309,-0.0161,-17.3243,-48.4828,177.7026,111.3620,-102.8468,-62.1433,-8.6139
-28.8337,9.3798,-78.6124,-5.4264,-43.2987,13.9820,165.8491,-7.0365,246.7894,122.4098,13.4292,36.5710,24.8517,15.9307,184.9371,126.7824,-63.5519,-65.2646,-46.3293
-39.9170,11.7618,-41.4918,5.7548,-19.7237,28.7961,150.8710,-42.5549,237.5304,82.1016,-25.6865,9.6394,45.3799,53.3236,169.9986,111.9047,-33.4481,-24.0911,-76.2847
-25.3180,32.5463,0.3170,26.7141,12.3420,23.9101,78.9205,-106.9554,161.4432,-0.7870,-28.9191,0.9605,54.3683,44.5216,116.4773,53.5575,-11.3640,3.1626,-128.8639
22.5176,83.7465,34.6191,79.8855,47.8604,53.0595,36.0660,-157.7897,76.0649,-77.2540,26.8810,54.9970,74.8413,66.6618,80.5962,5.9636,14.8904,13.0236,-158.6874
63.2195,125.1650,50.8065,126.1906,78.8060,109.5108,59.3269,-153.7734,39.9368,-94.9850,89.8870,123.6357,113.0174,133.0847,85.3419,8.0877,36.4218,17.1880,-139.6232
70.1883,114.7304,33.0187,107.5107,65.5065,123.8207,65.7601,-132.0168,3.9642,-97.6821,110.7381,137.2608,156.5070,169.9637,76.9077,12.7317,46.4720,0.1422,-110.8997
60.0382,76.1319,6.9501,58.3379,30.9063,89.6242,32.0373,-136.7893,-74.2868,-139.7161,98.5007,103.5172,161.2503,154.0497,32.1892,-31.3148,42.5357,-19.2400,-95.9927
78.0137,71.5967,11.4622,58.6409,35.2836,69.5673,4.4142,-134.3803,-152.3082,-174.0702,119.1116,107.8019,119.6675,139.1949,-11.3794,-71.0322,41.0114,-6.1834,-86.2801
116.9513,100.3360,29.5886,91.6433,62.8572,88.1999,-4.8097,-88.2946,-171.5426,-141.5277,177.4483,163.3350,106.5456,138.3023,-22.5610,-43.2768,56.1699,16.9755,-72.4920
114.1943,107.3987,30.6712,92.2313,74.8790,115.0430,7.5195,-47.0043,-149.5273,-102.1167,188.3616,176.8928,145.6072,116.0051,-11.7049,-12.8049,63.0571,17.1996,-46.6314
86.6880,99.6173,39.6291,91.2086,82.3727,132.7258,24.5398,-58.2279,-159.0158,-132.9256,147.5942,143.8666,153.4672,95.0587,-17.6977,-49.9100,64.3131,21.1274,-20.5738
109.4765,122.3612,77.6882,137.4264,88.5109,142.3696,-4.1820,-73.4366,-193.3831,-167.7802,144.7423,157.9892,104.3818,111.0622,-48.8956,-79.4643,99.4371,58.7111,-18.0979
143.8307,141.9057,100.8282,162.9315,86.0029,127.1507,-54.3316,-42.0716,-172.8528,-118.3833,170.7168,190.1963,69.4712,106.0934,-61.6424,-35.4944,124.7065,92.8461,-32.3693
111.9103,109.2218,80.6759,109.3994,94.9749,82.4871,-58.5533,-12.4711,-123.4055,-58.3364,151.1785,146.1386,74.2593,34.4897,-46.5910,-3.1052,75.3546,86.1690,-43.2748
68.2960,71.3001,58.7979,53.6482,107.5116,45.6852,-42.1813,-35.1398,-129.6723,-79.4083,117.1452,81.7467,90.7639,-34.4750,-40.8580,-42.6046,14.1535,79.3435,-43.5250
72.6619,69.6490,56.2774,51.3308,91.4042,35.2346,-34.7307,-64.1479,-136.5704,-107.1238,118.7165,77.2500,104.4645,-47.2943,-29.4698,-73.6627,0.4113,108.0365,-24.2904
62.9560,55.6594,42.2461,41.2511,74.1113,25.5338,9.2896,-49.5302,-78.2978,-68.9915,108.1549,69.2690,93.9726,-36.5784,11.7154,-49.5054,-21.3866,123.8295,1.8195
10.5933,15.3359,24.5946,4.7637,95.0625,17.7105,67.8780,-28.4228,-46.6112,-47.6352,55.6553,13.2466,59.4905,-27.1679,27.6249,-38.3627,-54.7841,96.6761,-0.3953
-20.2732,8.8283,37.9652,6.3446,114.4043,35.3484,68.6165,-44.0497,-67.4285,-84.8337,8.2478,-22.4288,47.3679,-33.6498,3.6267,-66.1500,-38.1020,78.9531,-19.0563
-11.8256,40.5422,55.4978,48.3909,82.3043,55.6077,58.3904,-65.4371,-12.3948,-81.3530,-5.9019,-4.6222,52.8763,-70.5940,25.7865,-64.0040,-5.0056,102.4247,-12.9602
7.6493,59.8924,47.3930,79.2284,31.1638,57.1593,102.9258,-53.5870,97.1207,-18.4352,8.5008,34.4734,35.2728,-81.7593,97.2585,-10.9850,2.5451,148.9999,7.9701
32.8872,62.0583,50.5657,90.8911,21.5820,70.7677,136.5069,-30.1176,96.4310,-3.9713,39.0695,68.6284,38.6412,-26.4978,113.6988,20.3599,27.7903,204.4993,20.9692
38.0041,58.2387,75.3485,82.1716,56.0252,96.2385,110.0093,-24.4538,15.9387,-44.7009,44.1457,62.3419,102.4090,14.9594,69.4648,-4.6909,51.2168,228.1341,41.4755
3.4001,37.7796,79.8577,48.0889,92.2647,97.9912,91.8800,-13.4231,6.1447,-41.6464,8.3922,12.8971,147.9906,7.1035,50.3619,-23.3057,19.7443,191.3033,71.9781
-14.2438,25.2401,78.4314,41.9585,107.9552,105.1588,114.1160,30.3930,39.2750,5.4681,-10.8778,-0.1391,123.4458,32.6397,56.7508,8.2241,11.1231,168.2918,92.5301
17.7218,51.1410,107.4824,93.2414,113.7174,148.3373,117.8225,76.6962,19.9185,21.3341,13.1083,50.9809,84.9919,83.1971,36.3420,42.0704,80.0574,201.7491,99.1227
39.4271,75.5275,127.1857,123.7800,117.7154,164.2918,78.1684,86.9915,-8.5952,15.9587,30.2305,79.4775,69.8877,71.3772,4.8816,44.4961,119.4298,201.8640,85.1662
27.4949,65.0643,111.3996,91.2277,123.6521,124.9619,32.2085,81.3682,13.9310,44.3277,25.7538,57.2052,76.5949,39.7309,-0.2880,59.8344,82.5571,147.8331,47.8542
35.0720,64.5785,109.6863,74.2440,135.8089,105.3779,-1.0320,89.7679,39.3853,83.5549,41.4505,60.2535,104.8386,56.8209,3.9065,97.1439,65.5720,132.1386,24.7419
63.0036,88.1000,122.6765,102.7145,125.4310,117.5905,-30.0258,93.2638,19.0486,77.5478,65.9443,92.8868,104.8963,53.4197,-11.5001,89.4118,89.4000,140.3141,43.1003
49.7836,74.1413,94.0840,92.7160,68.7970,90.5713,-43.5234,74.0609,-0.9471,46.2884,40.8380,71.2756,54.4064,-14.7251,-26.9535,34.8836,78.2662,98.0169,69.6521
-6.0143,19.3853,41.9798,22.5918,20.5838,37.0006,-23.6566,53.7415,43.9484,52.9931,-20.7335,-2.8717,46.3504,-65.8768,-2.6179,22.6215,27.2452,50.0910,63.3607
-39.4122,-5.7135,19.1616,-23.0869,25.9199,20.2058,7.1493,41.3538,111.3236,84.1737,-44.2090,-38.0934,98.4010,-57.7706,42.7534,60.9774,-8.3847,37.7892,27.2277
-30.2488,0.1093,8.0377,-17.7499,26.8424,17.7133,12.5114,23.8802,90.2737,64.2772,-24.7325,-22.0925,79.5108,-39.6257,40.3626,53.8419,-12.4140,10.7402,-0.9167
-22.3246,-16.4353,-13.6012,-18.3583,-12.1300,-4.1024,-3.2352,15.6254,-5.7774,3.2590,-24.8165,-23.8028,-11.8325,-36.6196,-13.6866,-8.3579,-0.9018,-30.6939,10.4648
-25.7811,-29.0892,-14.6992,-24.8527,-29.8125,-3.4710,-21.8140,31.4008,-37.0969,-5.8823,-41.4089,-35.3165,-24.4364,-21.9688,-42.5603,-23.3787,16.1335,-45.0246,39.5272
-1.7377,12.3086,15.3429,14.2607,-9.6506,34.8589,-42.5878,37.7871,20.1086,35.4069,-20.8049,5.0193,34.4434,21.9670,-19.9573,23.4993,38.7583,-39.9265,41.8780
35.8329,57.6367,39.6436,67.1699,-1.3785,54.6770,-47.7795,8.2391,47.9853,33.3273,14.6935,55.6728,40.0693,55.7555,3.2412,35.1668,53.2852,-16.3768,23.8852
26.9144,43.5988,29.0416,51.8112,3.1292,33.9974,-19.4395,-24.5672,17.0490,-11.0812,14.7818,37.4531,24.1451,24.9891,7.7702,-4.9585,25.7967,8.3137,9.7791
-15.1126,4.5119,-7.7757,-14.5604,28.6587,12.7914,14.0722,-27.0706,-2.2919,-20.8504,5.4780,-9.2035,64.7829,-22.2412,15.3665,-19.7853,-32.8749,-26.2790,-5.4654
-28.7905,-11.2970,-27.3814,-43.1034,43.1435,13.6658,29.1776,-18.4963,-8.3705,-13.2319,8.7132,-18.9494,91.9004,7.9697,18.9392,-8.1826,-53.9268,-68.3162,-12.0658
-14.2274,-7.7884,3.9408,-13.3856,41.0149,21.8863,31.7641,-31.6175,-38.1155,-49.7602,-5.0738,-17.6314,52.7010,61.6724,1.4886,-30.8226,-18.9263,-6.4542,-0.6555
1.0337,14.3592,52.9961,30.2890,48.2577,26.4630,6.1681,-61.5983,-61.4351,-95.0345,-20.1778,-18.4472,21.6682,25.9692,-20.4130,-70.6144,16.8250,83.0937,-3.2264
10.8663,43.8251,62.9655,56.7176,39.1036,26.2639,-36.9070,-75.0973,-38.6626,-88.2837,-15.5896,-2.9420,16.7962,-44.3260,-24.0025,-75.7731,24.4693,67.7733,-15.5162
-5.5282,32.4221,38.3146,51.1361,-1.7076,16.8553,-31.9537,-58.9654,5.5980,-55.8729,-43.7693,-14.0880,-25.8927,-46.5504,-13.8562,-61.2163,21.6544,9.7049,-0.3390
-39.1805,-6.4406,19.3930,24.6327,-26.1160,2.7927,4.4467,-43.9882,18.3438,-50.6111,-93.1729,-55.3296,-77.5330,-27.0580,-12.3521,-54.6280,25.9590,1.4609,-2.2212
-26.6000,-0.1341,13.0382,19.2766,-27.2256,-5.6924,-18.3688,-56.2937,-8.9692,-64.8703,-66.3660,-37.8641,-66.4269,-50.6087,-25.3978,-43.9243,42.9359,2.3869,-61.9469
16.8191,28.1231,-3.4305,26.0362,-53.4950,-23.7085,-72.8842,-70.0194,-17.1033,-54.8024,0.3766,17.4866,-37.9451,-83.6045,-26.6070,-23.8882,48.1401,-19.8832,-102.1815
5.3041,-0.1105,-37.7281,-9.8389,-97.6536,-68.6315,-72.9023,-62.6267,20.3269,-21.5084,-12.4243,-4.3275,-59.7543,-103.8265,-8.4303,-12.0218,15.9762,-41.6585,-89.9390
-29.7050,-42.9177,-58.8114,-56.3302,-109.0830,-104.7631,-64.2927,-66.5208,13.3205,-30.2296,-53.9231,-59.0017,-85.1514,-120.2734,-16.5873,-25.1911,-6.6591,-52.1014,-103.3927
2.9640,-20.0848,-35.9507,-37.2023,-85.1886,-91.0191,-113.1637,-93.2276,-87.4701,-97.1427,-13.6060,-29.1205,-61.3538,-112.4507,-68.4660,-60.8812,28.0584,-34.4112,-138.0340
61.7581,22.2088,-2.4582,6.5434,-64.0667,-63.0578,-165.9515,-88.6504,-166.2002,-125.3922,54.4990,35.7893,-31.6558,-86.6948,-109.4926,-75.0359,67.1904,-3.1070,-124.7242
69.0747,18.4674,-7.0747,-0.8027,-66.9946,-68.8828,-180.8622,-41.3133,-147.7652,-71.6302,67.1647,45.7890,-34.5309,-83.2826,-111.8848,-40.5273,62.9727,-16.5867,-97.4588
55.7682,6.7302,-21.2224,-17.2038,-77.6630,-81.1848,-185.3154,-25.6700,-121.9338,-43.0817,53.3285,31.8139,-42.8891,-94.5424,-107.6459,-25.6601,49.9054,-48.4927,-92.5613
56.0607,18.8015,-4.5579,4.8103,-71.8802,-68.6018,-172.9180,-66.9376,-134.7544,-91.5300,40.7407,24.3580,-36.2721,-91.0438,-101.9576,-81.6687,37.4325,-28.4402,-56.0471
50.4801,19.9463,11.3702,14.9182,-56.6589,-55.8666,-138.8322,-87.2177,-131.4144,-116.9053,26.4296,8.8537,-16.3732,-75.0800,-82.1952,-125.9907,8.3180,8.3350,10.2520
49.4231,3.9874,10.0609,-7.6813,-40.7100,-52.6395,-128.9803,-37.4869,-127.8454,-74.1229,36.7199,6.7410,14.8276,-50.3789,-80.0399,-94.9046,-1.4131,22.4577,48.1758
57.8001,-5.3871,25.7830,-16.9289,-6.7931,-38.8349,-132.7492,37.3383,-150.6040,-26.9704,56.1016,16.3850,27.0199,-26.8001,-102.9125,-54.0654,14.2250,53.4705,78.5640
33.2832,-18.3086,43.9398,-15.2925,31.6194,-24.2048,-84.6175,81.5632,-122.6920,6.6798,27.1142,-9.9760,1.2631,-32.0518,-90.8821,-46.2501,-3.4891,88.3069,127.7844
-10.7315,-37.5229,32.9994,-27.8503,37.4302,-22.3003,-7.9084,79.2232,-47.0338,27.8823,-20.9464,-51.4132,-12.7233,-53.0519,-37.8795,-43.8721,-42.8499,94.9278,149.0300
-7.3811,-31.9598,36.0794,-22.8291,36.4750,-17.3549,6.1995,43.3025,-57.8199,-8.8049,-16.7775,-48.1224,7.3155,-50.0416,-27.7852,-60.1662,-36.5406,122.8564,126.3193
34.5389,1.2816,81.2191,17.9532,69.8041,-6.2011,-56.2700,15.0118,-149.1380,-71.1287,18.5509,-15.2605,1.7101,-33.6250,-84.8886,-94.1821,6.6044,165.7919,88.8472
59.4842,36.3692,117.7054,59.9261,104.2873,8.8055,-120.1196,23.9100,-173.1485,-66.9692,36.1424,15.2994,-29.8933,-27.3160,-128.8780,-75.9987,48.6201,151.9315,37.3649
72.3277,68.2111,124.0065,88.8158,109.3240,39.9604,-131.4172,33.5074,-135.5172,-36.0081,55.7044,55.9597,-14.0511,-19.1851,-118.9893,-20.1538,89.8517,126.2951,-18.5125
94.8332,90.1194,127.3660,106.5863,107.5506,54.5884,-125.3334,-5.1111,-163.2762,-79.9513,89.8637,87.9771,20.3660,-20.7934,-111.5930,-35.0954,107.2380,155.3262,-48.6707
102.0494,78.7181,121.2554,94.0921,94.1462,6.1006,-152.3666,-67.5380,-235.7173,-159.0593,92.4793,66.0765,-15.7856,-58.5050,-139.1678,-117.5597,75.4354,170.9333,-58.4256
77.3100,46.1426,91.4905,62.5754,51.0374,-47.5196,-166.6611,-91.4692,-230.8962,-171.9934,50.4048,18.1514,-77.2624,-88.1042,-146.4324,-155.8275,37.5519,124.9576,-50.5757
50.1565,30.6753,52.3180,49.8720,6.0807,-24.0330,-100.8399,-60.7294,-149.1286,-119.7629,23.5694,15.1046,-66.6490,-52.8792,-94.1244,-114.4365,34.2096,67.4542,-8.0138
43.1753,27.3155,7.1633,41.2245,-25.9752,20.2723,-17.0221,-16.2253,-89.9515,-65.6388,43.9318,50.6938,-20.9374,-2.3867,-35.5389,-53.1282,40.8548,17.6242,24.6925
39.6559,9.2164,-32.8011,8.5296,-55.3786,-4.4988,-14.5231,-9.2577,-89.7182,-50.6353,59.2196,54.3545,-26.6167,-15.9799,-30.6266,-27.8822,34.4096,-22.1037,-14.3179
22.9164,-8.4424,-39.5047,-13.4475,-62.2410,-49.9832,-47.4291,-39.8249,-95.6759,-68.6133,31.8654,18.0978,-71.1479,-55.6869,-49.4323,-40.6429,23.5491,-34.0817,-77.6692
3.5809,-5.2655,-40.0553,-1.6438,-48.4877,-39.4701,-11.8991,-53.9264,-56.3093,-66.2241,7.2448,5.1176,-95.8693,-39.4977,-25.4041,-45.0374,3.0735,-62.7354,-77.7259
-10.4466,-5.5940,-81.1699,-5.7336,-58.7454,-17.7660,67.6712,-38.9772,12.3599,-23.7926,17.3272,20.9725,-83.8372,-3.7369,38.1801,-21.5146,-43.0211,-135.4734,-34.0139
-26.8378,-23.9327,-128.0261,-46.3688,-86.7755,-43.5978,88.3409,-47.5785,52.2371,-0.8011,21.9784,8.8553,-52.9228,-31.0593,75.8288,-15.7330,-95.9151,-188.4395,-24.3967
-38.0316,-32.1534,-130.2057,-69.9155,-95.7630,-71.3430,31.3517,-73.1381,39.1819,-17.7142,2.6264,-20.6733,-32.0099,-79.0615,52.1436,-37.5043,-104.5082,-208.7529,-46.5769
-35.6734,-30.1807,-114.0354,-62.4931,-98.4388,-54.6686,-22.2999,-40.8002,6.4328,-11.6046,-12.6608,-21.4905,-35.6229,-60.8091,2.4896,-32.1456,-60.5517,-236.9621,-33.1133
-47.2283,-58.3083,-116.4016,-81.3494,-104.8525,-43.3021,-11.3116,32.7122,-1.3099,31.5202,-31.6341,-35.0202,-46.9933,-21.0609,-16.5923,-3.6014,-40.9633,-237.4320,24.9313
-85.0357,-111.0778,-134.8208,-141.1095,-104.8533,-85.4961,28.9133,54.3283,29.3402,61.5332,-68.3303,-97.3792,-45.9631,-47.3821,7.7597,-2.3975,-96.9416,-198.2887,63.3944
-104.8275,-136.1264,-162.0014,-186.5432,-119.7561,-135.5149,37.1939,32.9988,75.5222,80.5402,-78.1315,-131.6254,-27.6871,-103.3344,42.8999,0.7242,-153.4283,-190.6421,49.2559
-86.3378,-123.2537,-172.9759,-186.2265,-139.9268,-136.6328,16.6441,43.2469,101.9660,114.0250,-47.7405,-98.4974,-1.2054,-110.3875,54.1687,50.4114,-131.0355,-198.1257,9.5991
-71.6764,-106.4896,-134.0126,-159.1443,-113.2404,-111.8691,-8.8755,66.7518,93.6934,126.0889,-45.2416,-80.7882,-2.1283,-83.1310,29.7227,87.8731,-72.9765,-152.0608,-26.1421
-77.0842,-95.9893,-74.1930,-124.2260,-65.3076,-103.5807,-41.8474,52.3659,63.1812,89.7711,-87.0654,-109.4694,-51.2200,-77.7861,-13.8243,51.7342,-48.6981,-101.5982,-34.1817
-69.1057,-79.7360,-52.2967,-93.7593,-57.3757,-104.2941,-63.8138,30.4279,33.9427,53.6025,-94.9163,-111.7156,-93.3514,-102.0086,-36.7714,-2.0132,-53.5885,-96.8152,-8.1779
-42.2081,-65.3153,-63.4369,-87.3873,-65.5595,-104.4073,-56.7835,33.9978,25.2793,59.1072,-44.9383,-72.6086,-74.8964,-119.6011,-22.7174,4.2432,-60.3153,-83.4634,-1.6638
-28.4595,-69.3587,-68.4033,-106.0600,-58.0993,-120.8276,-62.0497,33.2362,29.4516,75.0187,-14.9261,-59.3776,-42.7276,-101.7528,-12.0085,42.7452,-60.3966,-55.1940,-49.5514
-38.6632,-81.8227,-58.6741,-118.5997,-50.4321,-136.2432,-93.1192,16.5404,18.6336,61.3239,-42.1246,-86.9824,-49.6165,-69.5834,-34.1728,40.9079,-53.3770,-62.9383,-83.3849
-50.6160,-71.2060,-37.9841,-94.7575,-27.6353,-105.3537,-84.0717,10.7213,6.3626,36.3381,-67.1631,-97.6185,-57.0415,-60.9608,-45.7347,7.9171,-47.9025,-74.4795,-52.8468
-45.7511,-32.3151,-6.4671,-38.7378,12.6869,-41.8159,-24.6130,12.4515,33.0845,31.4134,-58.2965,-67.4107,-41.1864,-59.5250,-13.2610,0.5875,-38.8278,-38.3399,-14.5682
-35.8427,-2.1725,25.8741,13.3516,26.2730,-2.2630,10.2419,0.5903,64.3612,23.3824,-62.7443,-44.6136,-51.8406,-36.8704,10.4953,4.0280,-9.5260,11.7638,-9.5314
-39.7581,-0.0724,51.3428,32.9673,38.5722,4.4613,1.0192,-15.7169,34.1135,-14.3931,-89.2566,-59.8995,-89.2026,-22.6124,-16.1980,-26.2018,12.1622,32.3026,-15.9528
-41.1632,0.9081,65.2753,28.8676,85.8050,-0.1555,-13.3523,-21.6699,-10.8284,-37.1754,-80.1205,-69.9467,-90.0305,-36.7000,-41.1938,-51.5423,-8.7160,33.2554,-27.6810
-19.0268,10.0788,56.4009,21.6589,84.8709,-19.9751,-25.4403,-24.3532,12.7869,-8.8026,-38.9887,-45.6526,-59.0006,-44.3945,-18.3078,-27.0827,-33.9444,42.4478,-37.0601
1.2649,7.9676,35.8221,18.2294,14.4909,-38.1379,-26.9394,-34.9089,48.2960,5.3729,-26.7894,-25.0067,-45.5219,-34.7305,10.5257,-6.6226,-17.1364,68.3091,-28.2547
-4.0067,9.1945,34.5802,26.4022,7.9781,-8.7145,4.4448,-59.1017,3.4738,-53.7613,-31.8511,-21.9638,-31.5554,-27.3569,3.9955,-37.8349,13.2650,81.8653,-37.1963
-12.2358,29.3751,44.1689,41.5988,72.4180,37.6391,35.4154,-96.5452,-62.9207,-126.0641,-14.4544,-12.1052,3.0034,-19.7526,-9.4379,-77.1496,13.8344,55.6331,-81.7379
-10.0766,28.4060,24.4623,29.8079,57.2478,16.1501,21.7247,-128.3813,-59.5044,-137.6336,-6.8244,-12.6017,7.2814,-15.9335,-2.3799,-87.0264,-9.4471,15.7437,-103.8680
-10.0157,-6.4899,-23.4068,-12.5360,-31.0845,-48.0130,-5.5594,-130.2440,-36.7860,-114.4888,-18.0730,-30.2693,-26.0524,-26.6347,3.5554,-82.6276,-28.1387,-16.8350,-89.5464
-5.9009,-22.7266,-61.8074,-39.9645,-57.3363,-56.9419,-6.4550,-101.5559,-73.0165,-105.6498,8.2775,-16.5237,-27.8509,-27.8922,-10.8009,-75.0801,-31.3364,-70.0655,-81.7295
2.7424,-17.2097,-78.0914,-46.2672,-32.8212,-28.3300,-3.6144,-56.0626,-117.8929,-90.0307,50.6193,14.6790,-1.0748,-11.9864,-30.6068,-61.0186,-32.5801,-132.3583,-63.6323
-9.1072,-38.7615,-78.3925,-64.1962,-47.9536,-41.7418,-21.3690,-1.2122,-82.6090,-28.6190,22.7385,-7.8767,-17.0925,-4.8492,-37.1809,-30.4354,-34.4301,-139.4407,-14.0617
-34.4782,-70.2889,-54.9521,-76.3804,-79.2102,-69.2896,-45.3678,47.4117,4.1966,47.7072,-56.2089,-61.9195,-62.0720,5.4636,-35.2444,17.8289,-11.9026,-87.2644,21.5563
-36.6796,-63.8398,-13.7352,-53.6681,-61.9573,-54.8035,-63.3261,63.1581,25.7939,63.6964,-87.8508,-74.0757,-72.7595,25.0266,-47.0764,34.1944,22.0459,-38.1245,27.8266
-7.1925,-30.4683,13.4857,-19.7054,-10.8437,-31.5221,-77.6551,42.9568,-59.0376,5.5343,-38.9760,-39.4831,-63.9840,4.3252,-79.0733,-14.9252,23.8711,-16.1493,23.7934
39.2138,8.3405,22.9753,15.6141,15.6705,-23.9870,-86.3624,11.4465,-145.4945,-56.1569,40.0395,19.6017,-69.0471,-43.1702,-98.9472,-58.3266,26.0655,14.7270,-6.5731
71.2469,45.6360,43.3396,61.7398,1.4107,-6.0424,-87.0826,-15.3731,-119.6945,-64.0605,65.7888,65.3407,-64.4289,-42.3880,-77.5333,-39.3456,67.9113,68.6116,-43.3866
43.9583,46.7762,69.1818,72.8668,-2.5009,3.6653,-81.8047,-31.1110,-16.1472,-31.2653,-1.2319,27.9799,-44.8135,-14.5942,-39.9590,-15.6605,72.0928,89.7167,-31.0466
-29.0641,2.6004,64.7388,22.4448,34.6805,-17.1900,-63.3490,-25.4495,49.8199,2.8319,-91.6418,-69.8859,-42.7308,-13.9065,-24.4309,-24.6934,-1.1485,34.0272,2.4936
-75.9960,-37.2292,27.1956,-27.3861,52.9542,-27.9043,-21.7878,-11.5768,47.7005,9.5632,-122.0176,-116.7590,-54.6171,-1.9684,-21.0941,-30.6655,-51.8422,-47.9338,4.6056
-76.7017,-51.5427,-23.3497,-47.6764,12.3829,-24.0216,23.3651,-15.3268,24.9084,-8.4917,-99.3601,-97.2250,-54.7767,24.6755,-6.7655,-28.4361,-50.5735,-100.7863,-7.5087
-58.0897,-54.8392,-72.7030,-71.2810,-23.5302,-46.5246,28.4554,-20.1536,1.3630,-10.3661,-44.4327,-63.3078,-45.5538,-2.0819,3.5113,-21.9166,-68.4371,-142.8633,-32.0867
-22.2553,-37.3691,-86.9483,-76.6145,-13.6346,-69.2439,-17.3061,-8.8630,-35.1322,5.4535,28.8321,-16.7830,-38.7409,-48.3525,-14.7545,1.3503,-75.6397,-162.4964,-83.7878
10.8598,-8.7032,-47.1937,-40.5052,-0.7128,-61.9796,-72.1725,-25.6669,-73.1322,-21.9130,47.4988,8.5730,-38.9718,-41.8515,-48.2324,-8.5622,-34.2334,-115.6104,-107.5248
5.9765,-5.3927,-12.7776,-22.3915,-5.5653,-69.8572,-90.0362,-79.9369,-71.9083,-72.1860,3.0289,-26.2794,-39.1418,-40.7795,-51.0869,-70.1769,-38.9678,-59.9059,-72.0905
-4.9660,-13.1547,-35.5023,-42.9788,-13.3787,-89.7681,-49.9768,-85.3065,-7.0036,-38.5093,7.8263,-36.5247,-11.7804,-79.2496,5.5540,-67.6250,-102.6605,-54.8474,-32.8085
5.6531,-9.4320,-62.8152,-47.6371,-22.2786,-58.5932,40.5636,-20.5937,83.9291,56.4160,56.6844,15.4120,40.3569,-53.1852,86.0493,34.6141,-101.4859,-24.3931,-16.6608
-10.2534,-18.8130,-38.2403,-32.3476,-11.3702,-1.1962,127.4941,11.1455,133.4789,78.3365,22.5185,13.8714,63.2718,50.4988,123.5966,95.4755,-40.5253,58.3761,-14.7381
-46.2872,-24.5406,0.7106,-15.5550,28.3224,26.7684,154.6752,-15.5567,142.2202,40.4548,-47.9464,-33.8753,45.1402,95.1076,117.7020,75.5920,-18.6710,87.9948,-34.4969
-31.9075,13.5244,8.7261,23.3740,41.5067,49.3876,146.0288,-4.3025,171.2729,66.8980,-22.9009,4.0444,33.2203,51.2780,126.5123,90.2366,-15.1105,58.9230,-38.0768
0.3965,34.7877,-0.3637,46.4653,7.4897,63.7410,149.0855,60.7994,219.0382,145.2746,22.1430,61.7546,32.1854,28.8907,150.0974,146.3100,3.3139,66.3466,13.0375
-19.0903,-17.1287,-10.9500,-4.0263,-18.6140,26.9195,137.8700,104.8472,215.1893,177.0809,-15.7594,12.8801,18.9983,53.9204,131.9098,156.2315,-5.3531,85.2049,62.8585
-38.1367,-60.8158,-29.2642,-60.7363,-25.2463,-6.3180,90.7005,133.1222,151.3843,173.1252,-36.4436,-31.7780,21.4896,53.6889,77.7392,136.2132,-19.8692,42.2485,86.1727
-10.8949,-41.4769,-50.5886,-54.8985,-34.9039,26.4162,67.4166,201.0982,107.3052,207.3579,25.3661,25.2548,56.2171,23.4723,52.3668,149.1316,-7.4120,-23.9669,148.1517
-3.7409,-33.0315,-57.0950,-48.8647,-11.0451,60.6504,97.0385,290.1329,135.5838,289.6620,59.5118,58.0759,74.7179,29.7216,68.2778,191.6579,-27.5094,-55.8422,236.3249
-33.7126,-60.3343,-38.7906,-69.8947,48.7114,51.9283,119.4375,360.0678,202.6434,381.4001,22.6251,15.3032,47.9829,82.7913,81.4485,244.8613,-72.4396,-56.2705,277.9476
-37.7448,-64.9746,-19.0223,-60.2229,56.7803,53.2842,110.6859,413.9869,257.9168,451.8845,-2.1917,8.3816,9.5061,121.8013,81.6528,299.4310,-56.9407,-48.3587,295.0107
-29.7959,-61.4609,-42.9609,-54.0335,0.6186,61.3008,123.2776,444.6565,301.8544,494.3878,5.8471,35.4516,3.8458,109.6580,104.5129,335.2679,-33.4674,-65.1827,319.5110
-61.8575,-96.8248,-101.1139,-117.7191,-25.2415,30.8106,173.8629,434.3803,347.1251,515.1930,3.6004,7.7674,51.0738,72.1590,156.7222,350.0487,-92.4258,-98.8182,310.0990
-96.5979,-127.7951,-124.6659,-178.0076,4.1892,7.0466,213.7116,404.0363,364.9010,507.1891,-4.0885,-35.4141,122.2910,48.7477,192.7935,353.5349,-149.1218,-86.9571,268.0809
-80.3472,-100.4218,-95.2013,-147.2891,29.5611,37.8112,215.0394,375.2750,343.5131,468.8537,12.4104,-12.3644,156.7774,56.6557,191.3667,345.8542,-116.5689,-37.2776,236.6065
-31.9593,-38.2732,-58.5922,-66.3323,36.4774,81.9337,207.6834,335.2862,336.1994,431.5658,53.2023,57.3167,148.5528,94.6485,195.9650,339.8496,-65.6342,-7.4255,207.6935
11.3830,16.4120,-27.4638,3.7268,48.5578,110.3727,217.2907,281.2128,351.4261,399.2899,92.0110,116.4139,142.0665,141.9832,222.0277,336.0169,-42.2206,30.8924,173.1446
36.9665,46.5866,15.3757,52.0340,66.1397,138.1183,210.0631,235.3192,302.1334,328.7665,100.8047,139.0007,140.7040,168.8367,203.2446,300.4644,5.1720,100.6779,146.3447
48.7608,56.4491,58.3411,73.8976,91.8514,156.3743,148.6839,208.3153,171.0534,230.9590,92.9030,133.4006,129.7789,163.8531,115.5636,237.9190,71.0133,137.6682,109.6484
65.6449,71.5952,88.1096,85.3448,126.6243,158.0326,74.2057,192.3777,72.3331,174.6670,108.2551,137.7435,131.1829,140.0535,43.8640,198.4086,100.1037,139.8987,71.3683
89.4620,96.4246,104.1205,107.8004,134.4656,160.3949,46.7702,177.3589,62.6857,165.0228,134.3080,161.3619,145.9248,121.9353,39.8377,184.8599,99.7029,156.7495,76.5295
92.9934,99.6798,98.1642,115.5548,102.1440,157.9400,44.9307,157.9610,69.6357,149.9874,126.6592,162.5811,142.8602,118.2055,47.1194,163.1895,100.8599,152.8415,100.3356
77.6988,85.5455,89.3886,101.4160,81.3164,140.6467,20.2808,137.9960,48.2412,122.0348,97.4251,134.9745,122.6467,100.6729,23.9062,135.4580,104.3443,124.4051,87.1934
77.1706,93.8701,112.5617,113.6085,95.8436,125.7681,-17.5574,117.6379,35.4151,102.3744,83.2916,121.5071,92.9989,54.5925,-0.1803,117.7304,113.5536,147.0859,50.4453
