Fp1,Fp2,F3,F4,C3,C4,P3,P4,O1,O2,F7,F8,T7,T8,P7,P8,Fz,Cz,Pz
64.6123,76.9272,70.5219,297.5205,-77.1932,0.4936,-245.5571,-71.9680,-116.1447,-112.6423,96.1076,-71.5840,44.9203,-27.7635,70.1582,-80.4043,0.3315,7.9130,-74.3971
-7.8569,99.2162,-13.8346,-19.6588,-55.6951,120.8087,41.3657,192.7127,42.8621,142.7118,25.0198,37.8301,-87.0139,65.0341,36.3384,124.6449,-85.7179,124.4392,-82.0599
-77.8607,83.6481,-91.1493,-193.6652,-55.7092,128.4953,103.5600,308.0473,81.3479,291.3904,-9.1629,12.8774,-118.1455,30.4362,-12.5924,217.0625,-161.3654,159.8912,-121.3780
-54.3987,4.7146,-73.4887,-196.1158,-19.7324,24.8052,111.0014,185.1185,96.1754,215.0829,74.6406,-88.3409,-19.1387,-66.8926,33.9702,141.7662,-175.1568,53.6302,-157.0357
-43.8875,-120.3389,-83.9172,-378.7013,85.9426,-116.4383,261.8345,31.9142,181.6646,70.2130,129.8317,-141.2848,-5.8698,-131.9108,96.9503,25.2400,-191.6794,-48.9397,-148.7697
-90.5873,-136.4026,-151.1105,-460.7427,103.1574,-163.1714,150.1757,11.8930,123.4624,17.1805,72.1551,-147.7996,-72.8809,-125.6436,58.5979,-17.2198,-223.7406,-70.6117,-93.6532
-114.8809,-101.9784,-171.4365,-313.1343,8.0741,-133.6875,-118.4423,-1.0130,-27.4321,-6.8075,1.9622,-156.0110,-79.8532,-107.8396,-23.0152,-32.6229,-242.1738,-129.4542,-54.1412
-102.8221,-191.0136,-137.4913,-401.7621,13.0916,-174.3278,32.0142,-118.0714,23.3319,-75.4387,-2.0417,-150.2567,-58.2468,-157.2755,-49.2708,-90.3542,-231.7588,-219.8523,-64.6289
-90.3711,-258.5223,-103.5946,-560.6768,78.4399,-235.3450,255.1892,-214.7870,112.7979,-124.0516,13.6153,-121.3179,-69.2389,-209.0503,-50.3816,-137.9388,-201.7732,-222.1786,-96.2620
-95.3164,-209.3592,-112.9211,-439.4567,0.2893,-217.1630,109.6802,-246.7046,27.4209,-159.6910,-18.2558,-115.7870,-104.5108,-191.6247,-66.7187,-157.7900,-217.4370,-204.5180,-152.9480
-127.1410,-223.0794,-187.5448,-480.4887,-101.7810,-219.2619,70.6643,-312.0497,3.5971,-230.3510,-67.2914,-135.5309,-157.7884,-182.8011,-59.8651,-204.3223,-263.5891,-193.7677,-224.5975
-142.4949,-190.8600,-241.7742,-656.0781,-96.8757,-251.2051,64.4979,-352.5522,-4.8805,-248.1672,-66.2218,-115.8323,-173.6242,-198.6731,-45.8686,-235.9521,-187.9245,-22.5200,-219.9492
-111.3424,20.4273,-210.9961,-449.3315,-126.1982,-226.6776,-474.8947,-336.4935,-291.1979,-238.2927,-66.9285,-75.4911,-147.9359,-177.6474,-94.1540,-244.2089,-25.5591,153.8962,-139.8092
-103.1501,10.9252,-191.0442,-378.7043,-177.7950,-254.1031,-803.3198,-407.3188,-471.4811,-336.3352,-144.9789,-111.2809,-201.7238,-195.0858,-164.8931,-312.5825,-27.5489,-43.2122,-102.5306
-128.7040,-293.0818,-196.3110,-707.4012,-143.5682,-308.6100,-209.8513,-436.6897,-163.1191,-348.2504,-214.9032,-178.2142,-286.6841,-251.7193,-174.1208,-312.2437,-170.6911,-376.3363,-101.3512
-102.5104,-306.0138,-133.0230,-490.5923,-120.9069,-151.6130,298.1606,-185.7422,121.1054,-98.3248,-185.5515,-121.5011,-207.6467,-166.1695,-133.4204,-108.1283,-155.9928,-286.2172,-47.2919
-40.7721,-27.9051,-72.4161,86.8134,-57.9250,55.3475,139.0254,60.1868,53.6839,44.8274,-113.1201,33.7371,-33.1979,4.3328,-59.5066,24.2298,53.8353,78.9720,23.1776
4.3530,28.7912,-54.7895,37.6467,126.7819,13.9719,75.4286,8.1117,20.5875,-95.6656,-36.0734,106.9088,50.6120,37.2362,39.4371,-72.3349,213.6546,201.7519,65.1938
70.5031,-4.2960,59.8290,0.3822,111.7229,-56.0757,123.6751,-46.6357,56.6538,-108.8823,44.7262,55.2634,79.3171,-0.5107,72.3243,-86.2666,210.1459,103.4428,95.4708
109.8990,68.5555,163.7219,319.4799,-92.8900,-25.5115,-84.8513,5.5064,-33.3738,7.3258,56.2831,-18.4595,71.6988,-28.7952,40.1739,-5.7312,126.7736,34.7311,43.7184
47.5197,-45.7898,45.1800,-115.5587,11.1972,-163.3880,-63.5909,-112.7459,-17.1139,-118.7743,20.6551,-61.9695,-35.6366,-159.6495,79.9442,-124.1197,55.3771,-29.7162,-102.4084
27.0451,-83.6966,-23.3703,-446.9494,80.8836,-242.2634,-79.3994,-149.5405,-19.0961,-172.1635,56.5225,-86.0982,-88.4472,-201.3967,109.9975,-168.3323,3.1591,-73.8153,-164.9659
134.3093,409.5320,205.7652,1006.7012,-543.1142,142.9159,-924.3248,231.8852,-459.1944,176.0137,85.3628,-89.4426,32.6059,103.3168,-63.2041,160.3166,-75.3393,14.8069,-108.8260
160.1033,744.7756,335.8692,2256.0562,-1033.5784,492.7305,-1484.4763,488.2187,-787.2994,325.3584,-4.8627,-53.6680,117.9651,381.7057,-231.8788,342.7361,-137.1824,101.9416,-94.7740
31.3063,301.5781,112.7361,1061.3320,-416.9208,286.5341,-560.2019,208.6961,-334.8264,-9.7186,-57.7148,35.6635,64.1578,252.1742,-102.8392,74.8257,-76.2568,43.4303,-86.1575
-43.3275,-140.0186,-69.2057,-397.2532,387.3718,21.7057,452.4344,-26.2286,218.8822,-137.2091,14.2453,137.8841,46.6301,60.7026,84.3220,-71.5988,41.5199,-7.9568,39.3159
-20.9976,-10.6183,-7.4525,-93.7192,370.8543,96.9302,321.4383,121.3179,172.5844,124.4229,30.3704,171.7049,88.8551,108.8874,26.1603,113.6849,72.5077,68.1297,144.8998
-22.2695,108.5300,45.9684,324.3249,183.6462,145.2823,109.5734,214.1714,35.2667,188.4101,-28.6071,148.2092,82.7503,145.8363,-67.2227,163.5341,81.1437,144.2317,112.0600
-6.5844,-18.7919,44.4187,-64.6162,346.6989,64.5124,403.4318,125.5243,166.8692,28.7142,-2.0160,153.7244,76.3735,87.2577,1.6161,43.2862,161.0871,116.0409,70.4901
63.1551,-10.0217,104.4627,-88.1598,348.0554,126.2133,429.1225,116.1576,181.5458,18.9016,52.0080,178.4089,93.7098,122.3495,40.6291,58.2124,203.9150,38.7294,69.4634
74.7380,67.5936,132.1645,145.4530,147.5012,211.8046,225.2728,123.5185,61.7157,54.2896,22.4210,153.3351,51.1099,161.8548,-23.6984,98.7183,148.9537,6.1876,19.6358
25.0581,10.1140,82.2862,-76.5345,154.1758,143.3694,279.9410,54.1290,81.6315,-7.7804,4.3512,97.8892,-9.7970,84.9622,-29.2070,30.7781,100.4810,44.1239,-39.2312
15.5328,-2.2573,63.8029,-157.4400,183.1662,91.0431,276.4200,48.1665,96.8568,-14.9356,27.9364,62.7907,-12.1897,52.9108,3.9083,14.0209,84.9207,68.5545,-41.0223
25.9664,41.1320,61.7415,73.3960,61.2564,97.5029,118.1428,57.2772,14.7380,4.9620,0.9725,53.5849,-11.8100,97.6152,-31.8516,40.9011,58.9373,9.5805,-40.3209
9.5291,-19.6506,29.2455,-24.4132,66.0438,34.4779,172.0076,-31.2062,27.2164,-41.7503,-31.9093,70.2865,-31.6962,65.1891,-63.1042,-2.1160,48.1660,-51.5804,-48.7660
-3.0914,-70.2564,23.1160,-219.5412,160.3752,-29.0357,252.7724,-74.3540,87.3351,-30.5911,-18.6093,81.9405,-30.6648,-2.6522,-34.9593,-17.4545,42.7208,-44.8055,-26.1015
-14.8002,-49.9505,18.5170,-140.0169,96.0304,-21.1426,140.8287,-18.7652,64.2623,33.4799,-46.2100,35.8815,-44.5431,-1.8632,-18.9818,25.6164,2.0427,-46.5538,-2.8423
-37.7612,-85.9154,-45.6749,-155.8123,-9.3724,-10.9971,119.0502,-2.1594,57.5425,18.4360,-110.2094,-27.4190,-100.2908,8.5202,-35.4297,19.3675,-20.8967,-89.8250,-3.8444
-36.4853,-108.7269,-102.7570,-255.7441,-55.9406,8.4170,176.8089,-8.3685,71.1313,8.0063,-115.2379,-33.8727,-145.5764,2.1748,-62.2138,11.6605,-6.2059,-99.3008,-19.2558
-23.8914,-37.7623,-104.1367,-144.0437,-137.7111,46.7609,89.3014,24.0193,14.6673,71.5434,-89.8592,-12.3480,-150.6724,22.3977,-100.4287,61.9786,-27.8761,-75.0152,-58.0200
-37.4357,-11.8940,-84.5228,-79.2764,-153.8005,36.6316,36.0034,24.0208,-11.4284,94.4242,-80.8593,2.2192,-107.6207,37.6070,-110.8195,80.4518,-73.2833,-70.1547,-63.2115
-54.8029,-49.0320,-50.6089,-156.4346,-22.0230,12.1770,102.6094,7.2601,49.6039,83.8561,-55.4680,37.4792,-20.5578,27.0383,-65.1728,63.7619,-84.4946,-54.2223,40.2439
-73.2119,-50.3045,-36.5961,-127.5724,84.2417,20.0591,85.9287,50.1696,93.3600,128.4102,-34.6939,53.7193,44.6767,13.5625,-4.9807,81.3623,-101.8914,3.0149,170.2057
-110.1752,-67.7041,-86.6991,-142.4351,106.4567,-2.2356,45.5300,101.4779,123.0270,174.1961,-43.4922,-8.7035,63.5192,-21.2968,48.1904,95.5585,-131.3179,57.1115,226.3985
-113.7403,-105.7623,-119.2208,-282.6948,126.2362,-31.4568,99.1346,125.9610,170.1084,190.4584,-28.6628,-68.2277,85.1791,-47.6644,82.8871,96.7656,-98.4784,74.5056,258.5550
-59.1948,-69.3282,-70.4894,-254.7034,105.0552,5.5908,125.0667,145.8045,159.8903,219.9633,-7.1626,-33.3314,77.6198,3.8392,53.0650,134.9007,-22.5788,52.7213,280.9318
-15.0309,-27.8039,-24.6586,-148.1769,50.0879,35.1235,134.1022,108.8128,119.5397,215.8586,-41.3135,34.3184,3.2412,65.8616,-6.7984,156.4045,23.2290,1.1437,221.8837
-10.0086,-56.6196,-23.0367,-194.4865,58.1351,9.1105,196.6730,26.9045,128.1529,147.6270,-72.5936,56.9647,-35.5407,45.6077,-4.9646,109.1089,41.7460,-25.2296,124.9705
-13.5255,-52.1778,-21.9246,-182.9722,87.6953,10.0502,182.6963,12.5110,117.5921,82.7807,-46.9953,54.9973,2.2143,12.3441,29.2477,56.5322,47.0838,19.4538,68.3957
-21.8621,5.0445,-34.4377,-62.7956,75.7678,42.5116,109.1783,43.3346,63.1282,51.3107,-30.2067,56.9850,7.4682,32.3151,23.5525,40.7031,42.5103,89.1461,10.5537
-24.5886,14.0123,-65.0153,-64.9659,54.5103,49.5115,127.6610,40.2070,60.6083,59.4303,-49.8435,55.8019,-32.7493,44.8652,13.8065,51.9517,53.9682,102.2506,-48.0308
4.4385,-13.3791,-73.5752,-90.1439,-13.5435,52.5375,140.8301,60.7270,88.2784,110.9812,-66.0204,48.4978,-54.8575,32.7220,23.2964,88.2870,63.4900,21.4956,-24.6301
49.9849,-23.9277,-89.4721,-15.8079,-160.2468,62.5992,71.6336,123.1126,62.2436,124.1168,-82.5765,46.5573,-115.5498,57.2411,-7.9126,110.7075,45.5143,-130.2863,36.8823
90.1204,-23.9714,-130.4196,-0.0890,-287.4409,57.8096,50.4456,123.9902,14.5754,60.0942,-99.9986,70.0072,-240.1621,106.5442,-75.3945,88.1994,40.6441,-256.9391,19.0678
109.0386,4.1005,-126.9058,-10.9566,-339.4374,61.4270,48.5977,55.6900,-17.4921,15.3557,-94.0608,114.7173,-300.6887,112.5923,-101.6901,61.2987,40.6643,-246.3307,-55.2161
63.4594,50.3892,-92.4151,58.5597,-315.8218,76.3202,-14.4025,19.6256,-31.9191,39.7033,-91.9883,137.3268,-239.0538,78.0040,-72.3568,58.6227,-11.8225,-95.5604,-77.3851
-31.5014,59.5867,-113.7612,62.8822,-171.4447,81.2376,-7.3026,67.0911,10.8595,115.3862,-103.7694,126.0819,-130.8615,65.3603,-32.1423,91.6230,-60.2741,80.2475,-13.3096
-82.1809,54.7826,-152.3334,-10.4360,33.2695,97.0628,75.9349,167.2714,80.7671,239.0102,-70.5539,109.7438,-13.2087,90.5963,-7.6147,175.9306,-35.3305,166.3422,78.6036
-74.2152,59.6359,-122.5595,-32.4121,160.8158,102.9921,76.4753,224.2786,89.0048,304.1884,6.0857,76.1430,110.4491,95.2388,3.4529,223.8918,-1.9629,149.8027,126.7395
-70.9705,19.0821,-48.7898,-85.4780,232.3114,54.1800,59.2159,172.4832,72.7819,199.4449,51.1830,14.6595,196.2246,51.0873,23.0983,140.6830,6.3199,114.7625,145.5910
-65.0645,-42.2288,18.1854,-167.5120,307.4131,17.0136,132.5992,94.4812,106.3030,59.2949,48.6226,-11.6488,217.4947,22.7345,62.5560,34.0006,48.1420,115.2244,195.5336
-23.0540,-39.1704,62.8485,-112.6040,330.0280,49.5277,185.9256,83.3522,140.2618,47.1458,40.9880,28.6993,193.2887,47.3653,93.6203,34.0082,108.0727,110.6073,235.3942
20.2826,1.2614,76.0445,-15.0164,303.9045,80.5639,175.1792,97.7553,130.5781,88.5259,54.7850,70.4307,163.4988,58.4429,94.1520,70.9755,140.0959,97.2494,192.9476
36.5862,26.9502,94.4063,-19.0730,297.0787,71.7152,182.6110,100.6171,112.5068,89.8740,88.2078,69.1025,169.5011,20.4194,80.2557,62.9853,170.6807,141.0842,120.9890
45.9631,55.7120,152.5712,-20.4699,284.6880,61.1875,187.8287,109.8461,93.4355,78.9535,111.1469,56.6387,192.1537,-1.4666,67.3078,48.6786,199.0843,205.3188,79.4212
61.9506,77.0574,183.1132,7.1504,239.0220,46.1230,172.6256,88.4063,68.2530,59.4720,96.6983,73.9950,161.5772,31.5690,54.6906,48.4026,197.6163,180.4256,29.5793
86.9189,69.8605,125.2866,11.5264,168.3019,33.1939,182.0114,28.7558,57.9825,24.5851,60.2901,126.0317,68.9239,79.4599,39.6298,43.7325,197.2894,87.6832,-23.7542
113.8056,59.0830,39.5761,71.8253,25.5482,52.1626,169.6875,10.8442,48.9567,-0.6979,17.1897,163.5516,-40.3250,104.9645,16.3552,35.8842,192.9918,10.0459,-24.1433
116.2904,37.6618,-6.6236,117.5410,-168.9664,51.5520,99.9115,29.1733,23.7889,-29.2683,-32.7287,124.8954,-146.5773,91.9106,-10.2384,13.3142,128.3439,-58.4564,-3.3721
90.2462,-6.6086,-25.9300,-7.4932,-284.9127,-5.4778,38.7920,1.0262,6.2720,-44.8228,-57.8739,36.5265,-219.3528,27.8430,-28.0371,-16.1499,36.6916,-107.4310,-10.0451
48.1794,-29.1473,-48.6361,-147.2477,-290.0318,-54.5160,-6.3115,-57.1321,-6.1517,0.3133,-41.8067,-23.0175,-207.5002,-58.5198,-51.2028,-16.7801,-22.4605,-75.8090,-10.9347
-15.8091,-27.6166,-83.4953,-143.1271,-235.3470,-73.1712,-54.1859,-87.5643,-31.0617,37.7348,-25.4838,-46.8348,-125.5450,-101.4662,-87.6685,-14.6241,-68.3515,1.3889,13.6135
-72.2943,-36.9610,-106.7605,-123.3068,-111.6854,-77.6648,-42.9886,-93.7582,-35.2391,3.0964,-18.0433,-58.4728,-32.8296,-69.7675,-93.2454,-34.9850,-84.2202,46.3103,37.1611
-70.0688,-28.7810,-72.4578,-125.6936,54.7271,-21.0637,24.9221,-73.0521,-2.1077,-19.3982,9.7703,-39.7430,50.4953,-0.0219,-40.8880,-26.3104,-27.8131,71.7268,47.1478
-44.6506,2.7880,11.3770,-83.7617,179.0883,70.6969,61.2326,-16.9217,23.5941,-5.9974,36.3562,-3.4053,124.7023,42.0324,22.0162,4.3449,25.0385,94.8119,27.5045
-56.9247,3.3641,79.4599,-89.7279,250.6951,74.7758,51.9336,42.1677,20.0551,-29.3685,36.4320,1.7559,176.8298,23.9569,48.0628,-9.6118,3.0699,89.4638,-17.8294
-74.7682,-14.5681,100.1444,-152.0714,281.5138,-1.3450,30.8949,82.1672,14.2061,-32.5647,38.1438,-19.4530,194.5871,-30.8053,45.2319,-27.9717,-24.2421,78.9695,-25.9420
-61.8040,-14.1232,89.6823,-144.3438,256.2849,-50.9130,17.3804,94.3821,28.3065,51.3193,48.4627,-45.3019,172.8303,-81.0053,37.3297,8.7323,-8.2826,93.6635,22.1936
-46.3669,-22.0407,80.4357,-118.5584,220.9100,-65.8522,43.0753,70.6928,60.5009,121.8650,51.1579,-86.2906,132.9120,-101.7052,36.9149,46.0116,8.1705,105.6624,71.4174
-28.1667,-28.9949,106.2006,-147.8490,207.9593,-68.7834,92.9561,62.0613,89.5860,125.1879,63.7765,-117.6226,115.1523,-81.0768,47.9063,53.0343,27.9021,109.8105,110.7252
11.5355,-1.8716,141.6585,-141.0771,161.5530,-37.3167,111.5629,103.5313,95.0039,122.2382,78.6196,-96.1615,106.1289,-30.4027,55.6188,66.8926,70.2188,113.0448,147.2366
34.8091,10.2431,114.8818,-97.8110,79.3212,0.2238,100.9066,113.3301,75.3250,89.7433,54.0382,-44.9524,55.3170,7.0331,37.3811,59.3938,80.2415,70.8875,130.9350
22.8928,-13.4448,41.1026,-80.2788,16.0810,2.3045,72.0324,44.2576,34.6360,-4.5516,13.6337,-2.2498,-17.3668,-0.1527,-2.3443,-3.7437,38.3628,2.3179,66.8104
19.3466,-12.6788,8.6067,-35.5118,-45.5396,-3.0061,27.0499,-20.1353,-6.6104,-71.8122,4.3535,28.0484,-54.9364,-34.5287,-33.7948,-62.2413,16.9830,5.2055,37.4408
39.6142,5.2203,29.3902,8.9220,-122.5289,-1.1205,31.1738,-27.3532,-9.5977,-62.3432,1.7840,25.3133,-74.8056,-56.5882,-44.8099,-65.9801,50.0773,55.1894,41.3468
60.8518,-0.3716,50.9535,-29.7004,-177.4005,-9.9050,87.6511,1.4104,11.8876,-26.1993,-18.3528,-14.3534,-119.4639,-43.3032,-53.8156,-32.9161,83.2303,34.8076,12.7416
69.4328,3.3820,45.6916,-60.4564,-206.2475,-6.6858,83.4437,51.9064,3.9237,0.1694,-30.0657,-29.8848,-156.4724,1.1844,-63.6559,7.6627,61.8437,-43.7993,-36.2755
46.9526,13.6394,4.9833,-38.7357,-187.6829,22.1857,19.9998,67.8527,-18.2025,-13.1474,-25.6562,2.9238,-122.9089,50.7707,-42.9699,18.0579,-8.8920,-93.2319,-63.3968
-6.3978,-18.3070,-43.5365,-69.0514,-63.6910,41.3013,-1.8199,0.3570,-12.8163,-72.3647,-12.5015,27.7395,-18.0334,71.5016,6.8992,-15.7207,-77.9177,-115.1411,-74.4033
-42.8762,-51.9540,-34.9649,-102.5086,102.0876,35.7363,-10.7058,-56.3836,-9.4556,-100.3226,21.0155,16.8025,94.6845,43.9703,33.5976,-42.3228,-104.0252,-130.9455,-70.8680
-35.7710,-42.0296,25.1707,-42.9611,183.4954,16.7505,-49.9118,-22.8379,-21.6105,-62.4801,64.6095,-7.0030,155.0432,-11.4719,32.3807,-32.9397,-93.1850,-122.2243,-42.3049
-6.1137,-35.0197,67.3711,2.5892,180.5502,-10.1603,-52.8221,6.1049,-4.1599,-34.9875,92.3576,-29.6511,157.1681,-43.5648,58.4742,-24.4841,-71.7017,-110.9184,-8.8607
31.3555,-38.2422,87.8461,-18.4974,138.0021,-27.5253,-33.3754,-30.3983,22.7447,-49.7064,107.9695,-29.8881,130.2361,-35.6779,104.0021,-31.3991,-58.3392,-126.8415,2.2351
59.0793,-11.2348,116.3356,-14.1631,69.5916,-35.1485,-67.9117,-54.4402,-0.2444,-59.5328,116.0477,3.7975,95.2601,-33.2947,100.1928,-36.1697,-66.0109,-135.7603,-19.5622
51.9185,7.2110,130.0655,-20.1312,43.7125,-66.5427,-101.8582,-49.3056,-36.2124,-54.4730,111.2384,13.4763,69.0925,-63.6477,58.3909,-41.9949,-84.6301,-123.2089,-60.2927
31.5285,-33.1077,121.4485,-106.2120,84.1510,-112.4296,-74.7019,-70.1767,-23.9364,-67.4935,105.2454,-49.6666,65.3760,-91.5316,54.6887,-58.9494,-89.4460,-141.6051,-68.8867
27.2080,-105.3597,108.2206,-197.2423,77.2449,-132.5348,-47.4941,-107.1402,1.7256,-122.9701,86.2756,-133.1678,56.7071,-102.4019,74.2200,-98.4041,-86.8759,-214.6473,-27.2142
18.1192,-174.0780,55.5556,-246.3064,-22.0956,-148.1272,-52.2842,-154.7520,-13.8856,-209.2122,24.8396,-168.9346,-1.0274,-130.9672,33.1136,-166.1436,-87.9107,-297.1461,-3.8575
2.5989,-211.9069,-41.0034,-264.4005,-115.3842,-192.6659,-51.2282,-244.1068,-52.4097,-275.6523,-36.1113,-157.6490,-84.7435,-169.7387,-48.7052,-227.6133,-70.4394,-327.6858,-42.6883
6.9048,-191.2468,-86.9603,-219.5414,-155.0152,-226.5206,-40.0055,-323.8007,-71.4649,-315.2755,-34.7270,-125.5369,-119.9105,-166.9619,-69.3909,-259.7297,-46.8434,-275.2376,-93.3911
-3.5356,-145.8526,-48.9186,-156.5602,-164.5525,-207.4895,-43.5932,-322.8727,-77.2058,-362.1083,-16.0048,-99.0441,-93.7020,-129.7674,-39.8742,-284.3781,-75.2044,-177.5665,-114.3996
-60.7144,-128.9214,-17.0046,-166.5313,-136.4863,-166.9503,-81.5006,-279.6032,-103.0329,-364.2784,-47.7962,-105.0813,-74.6271,-113.6115,-63.4258,-283.0526,-138.8532,-121.6437,-112.2409
-96.8676,-132.6469,-33.4285,-204.9617,-78.7686,-156.5288,-131.0591,-250.4784,-130.3516,-283.1167,-86.3930,-127.8496,-94.9322,-124.4212,-120.7703,-232.0347,-149.7935,-142.6386,-84.0637
-65.9925,-144.0885,-48.5265,-203.4327,-33.0735,-179.6949,-122.4274,-237.8065,-110.1671,-242.8120,-64.2519,-130.1164,-97.9741,-135.8625,-104.9826,-206.6208,-105.8739,-190.5333,-47.0422
-35.8599,-162.8799,-42.5275,-181.9035,-8.7444,-195.3447,-80.9531,-250.7688,-75.3928,-295.2432,-9.5088,-127.7775,-50.2422,-159.3732,-45.0974,-246.4510,-91.0074,-203.0134,-51.0809
-50.2246,-150.6794,-30.0181,-143.6161,2.6849,-168.4171,-113.0748,-265.3885,-85.3743,-279.7404,21.4297,-149.8807,-4.1262,-199.1394,-33.9670,-247.2003,-122.8389,-159.3002,-81.0530
-62.1221,-100.2373,-7.3717,-103.0385,3.7916,-113.7615,-175.2604,-206.3474,-90.8981,-152.3221,30.3767,-164.3402,6.0691,-200.0390,-26.0519,-161.1039,-153.4301,-98.6461,-72.2303
-48.2498,-66.1850,10.2850,-109.8301,-0.1223,-76.2775,-168.4932,-98.7479,-49.8167,-76.3376,36.4359,-132.7801,6.7281,-130.9681,33.3230,-85.3442,-178.2929,-95.9057,-39.4301
-38.3863,-54.2930,-6.8009,-115.1108,-26.8847,-74.5049,-167.5751,-61.1109,-42.3595,-87.6085,24.9855,-75.6055,-7.2054,-52.3831,55.5807,-65.9341,-207.6485,-151.9525,-40.6509
-42.6903,-28.8548,-42.8007,-56.6217,-90.9440,-88.6695,-216.7408,-100.7914,-91.0064,-73.2025,-21.9964,-27.8798,-65.1815,-24.5296,-8.4963,-52.0686,-203.9530,-164.2377,-55.7457
-50.4615,0.8775,-68.1235,2.2930,-156.5150,-89.1160,-196.4215,-122.2321,-99.1524,-17.4714,-82.8357,7.9819,-135.1314,-18.7399,-69.1814,-23.0529,-155.6096,-77.8474,-41.6044
-60.6615,29.8639,-93.7661,27.9557,-198.3721,-59.9033,-105.5758,-93.8311,-56.7246,40.4970,-120.1177,47.9378,-174.9403,15.8133,-81.4828,18.1172,-120.0595,40.5296,-25.7282
-72.7668,79.9657,-131.0058,66.0015,-230.4665,-2.1661,-66.9406,-37.1402,-40.0469,111.5265,-134.1477,99.8086,-202.9908,69.7889,-92.1735,79.9007,-125.3954,124.4557,-44.3727
-85.2369,135.5700,-154.8856,107.2000,-243.1933,78.5772,-66.5109,34.0958,-54.7923,166.8034,-151.5979,150.9996,-233.5980,114.8632,-120.2262,132.5585,-127.8591,186.4768,-86.2104
-94.2180,183.0950,-138.4708,161.1680,-224.2405,169.4246,-39.9642,72.8820,-79.9013,145.1237,-170.9609,190.0830,-243.7616,160.1179,-153.1114,132.6714,-87.5424,269.5823,-136.8591
-78.8891,239.9358,-78.7323,273.9998,-195.3317,242.1974,2.2229,44.1134,-106.6210,66.0304,-163.8177,229.8811,-221.2146,214.6333,-166.5865,92.4935,-2.0278,386.2481,-177.7258
-32.8216,273.9236,2.5719,357.5017,-160.8766,278.4939,71.8745,8.2580,-85.0185,10.9600,-122.3676,263.2260,-161.7865,245.6889,-123.5038,61.6116,95.0674,474.2000,-169.3045
3.1611,249.0039,60.4454,316.7273,-119.2163,279.8318,136.0696,27.1719,-21.7943,36.9764,-70.2100,250.3727,-72.2018,231.3733,-54.6463,79.1452,124.7879,447.0055,-125.2148
-2.9698,220.2137,63.2493,243.4764,-96.9015,248.2620,90.8268,69.1343,-4.3747,129.9573,-33.6489,209.6429,-5.1233,210.7707,-26.5898,144.1060,45.1943,333.4879,-110.3816
-26.1838,215.6498,25.7218,201.9337,-85.2762,196.7466,-12.9806,92.0855,-13.8348,214.2401,-20.9724,201.6927,1.4854,207.3571,-4.4933,204.0136,-70.6514,240.0321,-106.2025
-37.9791,169.6556,-21.3975,122.1016,-48.3368,149.8876,-35.0723,103.8419,38.2938,246.2446,-17.1618,199.2513,-6.0276,174.9485,65.0462,214.6388,-138.3227,183.5146,-29.1535
-42.0898,96.0182,-58.3013,37.6886,-3.9081,119.4481,-4.1657,120.0816,110.1293,258.5520,3.1485,152.6163,27.2911,120.6889,128.6405,204.0320,-156.9421,139.0503,86.8040
-31.8469,83.0503,-70.7435,44.6574,17.4448,115.9857,6.2604,144.0605,124.9986,263.0721,42.3397,115.6038,83.1124,125.6006,148.6688,209.0826,-137.9951,120.4291,119.1998
8.7016,48.2873,-71.8506,44.6563,17.5961,97.4949,22.8594,123.3523,117.3070,187.1821,73.1602,78.4859,113.5681,108.6758,163.3805,161.6680,-82.2903,29.9476,70.4559
60.2149,-200.3449,-92.9469,-147.2107,-6.6731,-101.3480,39.0004,-73.7705,119.7338,-61.5026,81.2566,-131.1789,105.7007,-150.9781,168.5906,-69.9298,-27.0838,-299.8467,45.6851
95.1063,-617.2476,-113.3076,-530.9235,-28.7991,-548.5278,42.9663,-479.0638,113.5558,-466.6786,87.5852,-530.3726,86.5449,-600.5954,148.8084,-470.5160,14.4149,-772.1417,55.2334
115.1383,-933.1201,-88.0256,-920.2208,0.0308,-980.7087,92.6926,-884.7576,113.2874,-834.1562,104.5704,-855.1068,81.1615,-907.7073,144.8940,-812.2087,67.4850,-1082.8425,44.8011
118.2441,-1035.1707,-50.1898,-1134.9539,29.9867,-1134.1101,157.7746,-1078.5356,128.3959,-985.2020,107.2226,-957.9807,72.6306,-975.9222,154.1814,-939.1708,99.8733,-1143.1924,42.9803
93.5535,-1052.1416,-60.2040,-1159.5487,-12.7247,-1124.2603,162.0517,-1096.2709,135.5942,-1003.0916,81.0539,-976.3416,44.1025,-1007.7128,140.0265,-968.2272,80.3530,-1089.5670,92.3904
56.5003,-1066.9539,-102.2871,-1106.8922,-62.7765,-1141.2229,165.4438,-1074.5220,145.9186,-1040.0066,48.8719,-1002.3602,25.6973,-1058.3701,134.7253,-1020.1234,69.4234,-986.5405,139.8302
26.2867,-1024.1288,-144.7458,-1040.5323,-50.2593,-1113.5657,197.9172,-1032.0375,165.1030,-1024.5823,24.8216,-968.5741,31.0246,-1009.9246,153.9418,-1004.7612,91.6038,-841.3807,142.0544
8.8145,-918.1703,-183.1830,-952.1282,-35.8334,-980.4188,172.5761,-931.8267,163.9907,-869.3646,7.5609,-874.9282,31.0912,-885.1728,151.3268,-866.2216,95.5563,-726.0653,162.7009
27.1841,-828.7165,-165.4168,-873.2924,-46.1414,-870.8027,134.8376,-793.7964,168.9600,-686.2203,18.0856,-804.6143,36.2404,-798.7712,139.6030,-718.0129,106.3666,-676.5114,256.0359
87.1731,-778.5624,-50.1601,-838.8085,-17.2908,-835.5616,196.8137,-666.0619,217.8674,-565.3137,68.9749,-763.0414,79.7600,-760.6122,156.8940,-623.4121,168.2549,-651.7186,356.4022
133.5508,-728.9355,71.5226,-805.3615,44.5872,-787.5794,269.4211,-584.0731,251.5005,-495.8347,121.3497,-701.2482,128.8307,-730.4749,174.0749,-560.0331,200.5508,-632.8839,358.3010
128.1593,-665.8180,90.8038,-725.6747,73.8982,-712.0735,234.8026,-559.2062,218.5051,-508.9358,137.2880,-612.5311,132.2781,-684.7973,183.7200,-546.4399,142.0592,-613.8864,250.8609
99.8872,-593.9885,26.9502,-624.2935,52.9753,-651.4844,152.0100,-554.7786,168.4402,-552.6221,126.2964,-525.0627,92.8425,-606.1929,204.7043,-549.2531,56.7700,-569.5264,133.0659
66.3474,-519.5836,-61.1600,-555.8024,-14.9135,-588.2593,80.7201,-507.7795,140.2773,-470.1890,103.2367,-464.6960,32.7004,-521.5138,188.8884,-470.8683,-22.8339,-512.3970,101.4589
20.4005,-458.4937,-146.8656,-535.1206,-97.3418,-501.4683,13.6857,-398.1661,119.7238,-307.4775,68.4377,-420.1212,-15.6422,-453.3979,128.2607,-344.4361,-107.7875,-471.9191,143.6907
-12.8574,-406.5661,-181.5405,-521.7850,-106.9226,-418.8966,-10.1222,-274.8287,109.2283,-236.3739,33.7493,-349.9639,-11.8157,-361.2764,104.3411,-270.4233,-140.1989,-430.3700,176.6430
-19.8846,-344.7242,-152.5252,-482.2357,-33.5043,-360.7473,16.3943,-201.9845,107.5300,-214.5620,11.0985,-261.9896,23.2478,-256.2975,111.4194,-224.5640,-99.0613,-363.3853,163.5735
-32.1894,-280.4773,-141.1131,-425.4213,13.4535,-311.1555,17.5229,-180.9808,90.6933,-142.4381,-0.3955,-202.4216,33.3416,-208.6613,85.7289,-163.3862,-74.3743,-280.7384,127.6349
-53.6298,-224.7384,-182.3005,-352.2756,-17.6335,-252.2539,-30.3948,-160.3248,63.5900,-87.6104,-2.3720,-160.7338,17.2745,-189.2886,66.6697,-122.1284,-112.4955,-210.7688,87.1974
-57.6181,-172.0211,-202.6595,-272.2129,-64.0771,-190.0346,-82.5592,-124.1063,44.4064,-72.0482,-6.3806,-106.3715,-8.3970,-132.2822,81.5137,-92.4107,-165.1468,-187.5096,56.0129
-46.7160,-121.8535,-167.7121,-228.9160,-80.0448,-128.5117,-102.6911,-89.4345,31.0624,-21.2493,-20.3917,-49.3693,-41.5130,-63.6996,69.3009,-34.0666,-183.9243,-192.2878,53.2779
-26.1888,-54.6976,-124.6233,-179.8906,-78.6855,-42.5119,-67.1677,-45.4593,25.8442,24.6749,-19.7197,29.4771,-46.2810,13.0137,44.1759,20.2475,-139.9189,-131.6511,54.2014
7.8061,52.5118,-95.7836,-25.8843,-76.4798,69.5073,-1.7406,1.8766,25.5347,6.4126,2.4391,154.5406,-11.7404,133.7750,61.8043,41.0548,-47.5761,22.0507,16.7893
27.0307,151.3925,-64.7205,155.8386,-73.4757,141.1926,21.6717,22.0674,13.9585,-0.2838,8.0636,250.1204,9.4193,231.3290,77.2912,60.7438,17.0230,165.8762,-20.6423
20.2889,188.5520,-26.0516,209.5781,-50.6710,126.9905,6.0017,67.2979,8.7316,64.5918,3.8835,251.1719,28.2473,245.4194,64.4308,103.4479,34.1513,228.0140,11.7269
26.7474,202.9810,18.7734,190.4911,10.3662,81.9244,14.0332,198.6251,32.5440,168.8362,34.2787,223.3125,95.8684,243.8373,70.2080,172.0707,64.7899,241.7215,82.2802
46.6019,229.2513,67.7800,223.8963,72.6975,78.2952,34.9547,318.0714,52.7346,278.0601,59.4259,222.7558,137.1185,248.6982,69.9061,251.6020,100.2839,238.8228,104.1412
41.8603,241.3745,110.6219,281.4676,66.2623,116.8116,26.5553,325.9871,43.6814,351.2034,14.7005,225.2347,70.4625,217.8542,28.2890,296.3260,83.4366,233.6797,74.5672
25.5956,253.7998,129.5977,333.4578,1.2908,172.7139,13.9377,314.1172,31.7177,359.1425,-52.7466,241.2383,-8.2331,215.4723,2.7459,301.4740,54.4615,262.5338,48.4021
18.1859,296.2520,107.0234,409.7981,-11.1852,244.2516,34.3149,360.4757,23.9634,336.3878,-72.5905,290.7640,-0.0025,298.3329,2.2168,309.6311,80.3969,325.8089,28.1144
0.7518,336.5312,69.3885,463.3745,88.0975,319.1957,76.6874,381.8466,1.9819,297.9215,-59.8908,334.2261,40.8345,392.4247,-22.0520,312.3214,128.0903,379.5869,-18.0690
-12.7445,362.4888,82.9602,461.5027,194.7758,363.5043,98.8965,343.2127,-25.5480,218.4195,-37.3509,363.1841,58.8858,462.1800,-30.9250,282.1008,132.5372,401.0859,-74.8604
2.9864,384.1273,132.9209,455.1959,184.5732,355.8276,60.9498,300.4315,-49.9863,122.2977,-3.0068,393.1544,69.4974,517.8001,3.7560,235.8921,85.6594,374.6779,-91.1665
9.7799,336.1215,121.8093,417.1725,108.4721,287.2194,-12.0814,223.9774,-74.7022,34.8373,18.1528,359.2689,65.8202,471.1373,10.1287,161.8410,19.4576,277.9384,-57.2057
-11.4647,189.2101,54.0193,286.0672,90.6800,155.5770,-42.2942,80.1875,-80.5019,-60.0337,22.0706,217.5280,39.2016,286.8037,-20.5419,41.4087,-27.0964,134.8201,-27.7824
-12.1012,54.1642,38.3230,121.5792,108.2614,-0.8163,-32.2995,-38.9382,-66.6097,-122.7621,46.1523,51.5747,12.3036,96.0467,-27.1501,-53.1265,-48.8643,-1.4348,-55.8112
12.5358,2.2495,80.1172,-13.2911,59.1834,-117.5677,-63.5303,-80.0953,-71.9984,-105.7168,78.5192,-58.3532,-20.2276,-27.5467,-25.3829,-69.0434,-83.8169,-106.2750,-124.8130
15.9859,-30.8499,82.6921,-124.4872,-37.6347,-177.5719,-134.1224,-110.5442,-92.9452,-64.8028,75.4538,-124.6057,-65.9860,-138.0309,-40.9804,-68.9060,-137.0705,-173.6863,-173.3047
-0.2981,-85.4732,34.1671,-184.9369,-88.3980,-223.0963,-168.3999,-147.9415,-90.6780,-54.3354,54.6236,-180.9988,-91.0324,-239.4874,-45.7926,-92.5803,-166.1374,-210.0247,-178.4402
-12.5886,-116.4532,8.5002,-191.0072,-84.0260,-289.5213,-173.4144,-138.4021,-90.0481,-56.3001,51.9662,-241.7252,-88.5400,-285.9693,-52.6049,-108.6668,-166.0751,-228.0859,-186.8228
-25.5366,-90.3615,32.9572,-196.9988,-77.9461,-349.9100,-207.1205,-93.9917,-131.2066,-67.9863,55.0921,-281.6758,-86.3796,-276.6721,-80.3028,-113.8915,-164.0099,-203.3967,-238.3194
-34.8633,-32.6045,71.6320,-191.7951,-80.0847,-338.7932,-234.2495,-72.8703,-169.4014,-77.9184,43.2703,-248.4413,-82.9410,-232.4315,-96.7467,-110.1091,-147.5164,-121.9970,-278.7534
-31.5068,0.9140,87.6645,-153.6870,-67.0303,-243.5865,-177.1048,-72.9591,-151.0002,-42.5466,14.3101,-161.4984,-79.2570,-177.3043,-116.2543,-75.5581,-92.9730,-45.4566,-222.0073
-28.0180,2.1101,76.2531,-116.9685,-46.9695,-122.6208,-62.2247,-44.7770,-106.3686,7.7061,-30.0682,-85.0699,-96.3018,-119.2716,-166.4453,-30.8087,-16.3902,-1.7466,-100.4775
-23.6908,40.0086,61.8273,-38.0907,-39.8061,-8.4891,21.0600,28.3505,-78.0708,29.2713,-69.2030,3.9559,-105.2214,-21.4593,-183.0922,8.3271,53.2688,73.5545,-35.5107
-9.1783,135.4882,60.7858,116.6713,-22.4042,100.7278,57.0166,109.7568,-54.7657,89.3106,-67.6253,127.2548,-62.5385,104.6159,-136.7337,85.4615,94.2463,187.0474,-51.3732
-4.4429,216.0356,55.5391,206.7957,19.8051,168.7885,74.2092,176.6191,-28.1306,222.1673,-25.9937,196.4037,-11.0608,176.7043,-104.9504,196.8752,90.1475,272.3755,-64.4828
-17.6182,277.1512,29.5620,185.9477,26.8243,203.8044,62.3002,271.2417,-19.3591,346.8961,6.2429,203.8388,-22.4773,218.3273,-110.9980,290.3911,63.3525,353.3444,-37.0333
-17.6003,398.5923,3.1897,254.1334,-31.7860,323.7787,38.5172,429.5978,-25.3868,451.3790,-8.6108,302.6738,-78.2139,350.2069,-113.8220,394.8284,69.7794,496.4354,3.6453
3.7943,568.4532,2.5836,486.8259,-67.6780,563.1314,62.3127,603.1299,-24.0239,591.8663,-41.4516,534.5387,-100.3470,555.0618,-128.7033,549.0346,114.6604,653.8845,32.9956
13.8934,697.5151,15.8856,710.1277,-19.5781,782.2591,99.7838,720.9357,-26.0268,723.6619,-41.1213,744.6216,-61.9004,697.7939,-161.0473,684.8550,132.0357,744.4498,21.5484
-1.7723,763.6964,19.6537,810.6036,42.5800,891.5490,70.3022,778.5410,-44.4125,788.6231,-26.7379,834.3571,-12.7500,756.4616,-160.2463,752.5688,91.8403,775.5771,-31.5025
-17.6918,793.4688,29.5712,821.6779,56.6924,952.7083,29.7997,819.2061,-50.0766,831.2845,-54.2828,853.7114,-8.0421,811.8076,-134.3614,802.3431,61.5697,780.4092,-54.4444
-8.2668,801.0891,63.9960,809.6509,45.9468,1017.0607,64.3485,869.6743,-29.7250,869.8748,-102.0113,864.5790,-36.3286,874.2064,-133.3946,850.2468,93.3984,768.2702,-23.1837
10.7674,804.8231,80.1291,831.6625,27.0065,1054.6322,100.4212,915.4171,-20.1959,863.9929,-105.3373,883.9775,-41.3469,889.7365,-138.8942,854.6176,119.3901,757.0766,-21.1739
1.8828,810.1067,35.5363,858.2494,-4.6380,1040.5691,58.7440,938.3689,-27.9958,846.3526,-76.0970,903.3898,-8.9996,862.0374,-111.1884,836.3598,63.3981,757.3990,-65.6114
-29.2247,802.1573,-25.7833,820.9951,-37.7228,1008.7288,10.9091,956.8015,-14.1850,875.3111,-70.7680,896.1245,6.8823,846.4259,-70.0260,849.1680,-21.0163,761.9813,-65.8517
-41.4255,786.1820,-48.3506,782.1560,-72.9100,1013.6060,21.5410,973.0583,15.4208,911.9199,-88.6186,857.3441,-32.1121,846.3954,-60.4925,869.7670,-41.8716,777.5627,-4.7336
-31.7020,763.5382,-60.2046,812.9913,-101.4160,1047.1593,61.7105,940.7378,30.3527,899.8473,-89.5443,816.2422,-75.0094,818.7352,-89.2106,847.7798,-4.0653,802.5524,67.4143
-27.9710,708.9797,-110.8255,829.3020,-89.8068,1046.4539,112.9482,869.9439,59.6381,871.0640,-70.3859,784.7412,-58.9496,769.0298,-104.2577,805.1208,37.0953,802.2762,163.8191
-35.9665,630.1632,-195.1750,766.7063,-63.5588,1004.7450,156.8264,847.2526,125.3047,877.9713,-69.8242,749.5088,-28.8885,728.7304,-64.1941,790.5425,52.1969,764.1157,281.0999
-56.4934,563.6259,-282.4315,642.6075,-77.7138,957.9411,147.6187,878.3723,170.5031,901.6446,-101.1372,699.1509,-57.4292,671.8961,-20.8413,787.1679,32.2467,725.4753,341.6313
-89.3938,510.2657,-349.9319,417.6680,-99.4719,886.9449,105.2174,874.0662,160.8906,883.8881,-107.1889,622.1113,-96.2962,578.4378,-27.5612,745.5061,-0.5424,712.2281,335.0630
-99.9489,458.9576,-386.1188,127.6270,-88.9940,784.9443,87.1214,805.5167,142.5811,814.1737,-40.5600,527.5406,-77.1900,500.0617,-30.1363,673.0067,-10.1816,692.5928,319.3087
-73.7639,414.2484,-399.6175,-49.1377,-101.7963,720.4654,79.0855,712.7829,140.9854,736.8347,28.8718,460.8962,-62.5325,465.4369,4.3639,613.8799,-16.5192,618.9321,299.2879
-60.7680,365.0400,-406.5703,-86.8592,-158.7018,721.3307,57.8206,631.0922,133.9224,682.4954,6.7261,442.7942,-106.4848,447.9785,6.5963,578.1984,-50.3060,502.5398,286.0504
-80.4152,311.3528,-405.3238,-129.6368,-179.5877,740.7924,50.1370,604.2769,125.2021,648.7121,-59.2417,439.2357,-126.8598,448.9006,-27.1612,558.4565,-76.1451,405.4440,317.7081
-90.0990,284.3688,-384.1511,-203.1987,-132.5383,746.3278,40.3185,626.9220,122.2516,620.8644,-62.8148,419.9941,-75.3092,457.7769,-13.4998,547.1893,-79.9024,350.7821,323.4765
-90.9189,272.4289,-343.9780,-262.5580,-71.3654,711.1393,-20.2431,592.5542,95.9825,562.4540,-21.3056,379.6876,-23.3497,406.6574,36.2518,502.2643,-116.3486,309.5317,221.7130
-122.8134,226.7820,-308.9937,-333.1485,-27.0242,612.9017,-96.8671,464.5377,48.8976,458.8624,-16.4648,318.6040,-3.4736,298.9147,44.8357,403.0379,-182.0352,272.1442,119.0645
-162.3731,165.1411,-303.7589,-382.6472,-3.1613,510.8885,-115.2992,358.4367,27.9096,375.4926,-49.0071,265.8295,9.9597,237.1607,15.0272,320.4877,-202.6499,250.9160,136.0398
-160.5444,152.4250,-307.2741,-333.3920,-19.0498,495.6684,-79.9946,337.1560,32.0363,356.0712,-75.5139,268.3358,-7.5547,256.8067,-19.0630,306.7519,-167.3010,252.4005,192.8279
-128.5020,203.2549,-277.3371,-223.2641,-74.3857,566.6981,-46.9672,344.1772,19.0386,339.7421,-86.2411,323.3569,-63.8203,303.7594,-47.0715,309.6616,-119.3496,305.0097,176.1848
-94.6785,284.7490,-219.4364,-118.3051,-127.0021,651.4009,-31.5395,357.6581,-2.9327,299.2935,-79.5278,383.0254,-86.8533,353.8541,-35.0691,298.9995,-65.5317,419.2042,98.0273
-61.2485,353.5911,-156.7818,-9.3290,-131.2806,690.1245,-3.6751,381.9877,1.4115,294.6539,-56.0309,414.1669,-49.6771,399.8665,15.8624,312.5589,-5.3300,518.3524,13.2208
-40.7405,372.7336,-84.8169,92.7656,-82.6662,672.3819,45.4570,381.2489,19.8981,322.6701,-42.8792,410.9702,-10.2498,407.5021,30.6663,336.0859,35.5983,541.1219,-22.3810
-51.1830,355.7327,-30.8285,150.1969,-24.5662,639.7658,76.2684,374.6719,28.4548,337.2985,-54.2672,392.4609,2.2105,379.2774,-1.3655,334.3243,41.6153,542.0593,19.0546
-77.6805,353.7291,-39.9793,172.3891,2.6088,632.6544,63.8746,415.2389,36.8293,375.3961,-71.9945,392.2075,3.3013,362.2372,-7.0103,351.3360,15.3356,566.8990,55.8115
-88.9828,370.3427,-65.2881,180.7827,2.7809,640.2092,44.6601,447.0803,46.2575,437.2675,-86.5700,409.5416,0.0974,377.6332,17.5949,401.1733,-15.9328,566.1365,13.8303
-72.2868,364.1097,-39.2540,184.6417,-5.7176,645.5752,51.4152,394.3431,36.5260,404.5526,-91.0441,408.4946,6.8899,408.5635,22.0828,393.8558,-6.2800,510.0035,-30.2386
-43.4723,322.3943,-13.6240,196.1556,-10.6420,653.1074,58.1204,299.1095,14.7506,256.4888,-61.4927,376.5633,41.0173,415.6645,22.6531,297.8925,27.6943,435.4746,-11.3255
-36.1808,263.1425,-45.1076,203.6516,9.2499,642.0568,38.6834,220.6216,11.7215,145.7709,-8.0328,322.4925,85.5702,360.2373,49.9844,207.4202,11.6155,371.5772,14.5710
-61.9333,201.2402,-67.7534,191.2567,59.4828,587.9316,16.5200,167.4713,34.3647,160.9916,13.5110,246.8780,115.1894,265.7651,72.5159,188.8703,-49.4116,327.1530,39.5034
-89.5024,153.5744,-27.4583,175.9125,117.3139,521.7834,20.1494,164.8133,61.6701,221.7869,-13.8090,175.5748,130.1292,205.1071,67.0248,208.7224,-72.3325,302.3446,100.3793
-91.5900,136.5859,30.1629,173.0519,171.1935,481.5575,37.3134,203.2449,69.1070,232.1852,-41.6625,150.4020,143.0731,192.5762,61.6817,213.4448,-43.7590,281.3600,113.6107
-80.1707,143.2794,70.8372,182.5560,215.2652,445.2196,34.3862,203.3898,50.8140,195.8186,-30.3249,146.8183,168.8263,170.3005,77.1879,189.7585,-22.9219,267.8684,10.2639
-72.7579,140.9361,99.9952,185.5410,232.0744,377.4749,9.2854,163.1375,36.4583,176.5865,11.8548,94.9509,207.7370,110.2297,102.9464,162.8496,-29.7163,268.8409,-79.6501
-66.7089,98.5863,105.1625,128.9571,228.2068,297.2468,1.6120,166.4872,56.5173,187.9656,48.8923,-5.8913,224.0823,47.4715,119.6642,149.1978,-34.5580,241.5911,-22.2970
-56.6426,27.0668,84.9239,24.7535,213.4433,249.9143,33.2011,203.2952,90.2827,165.7185,45.5944,-84.4153,189.7960,10.7006,111.5692,119.2080,-9.5096,175.9908,111.7657
-42.9822,-26.9448,56.5979,-7.1384,156.1870,236.8761,79.3949,189.6317,102.9408,96.8198,5.2033,-101.9828,131.1047,-17.2066,80.8859,59.8844,44.7579,143.2760,183.4216
-26.2113,-45.4765,13.3026,67.3330,54.6595,223.3701,118.9049,131.2055,103.9405,58.1504,-29.9428,-88.8350,80.0376,-47.2497,49.1095,20.9123,89.6707,150.1455,164.8811
-9.3483,-53.0066,-39.4561,142.2218,-25.1814,210.1418,150.7884,93.2816,110.8488,58.5217,-41.9707,-81.7654,33.0119,-45.9179,33.1443,22.8776,95.2496,119.8841,119.9580
-0.3994,-61.1575,-68.4120,175.3944,-53.7198,218.5902,158.5356,89.2583,111.7773,33.3389,-52.8604,-79.3888,-5.5459,-9.7919,35.2407,20.7933,80.0822,63.0950,100.2888
-5.4646,-62.3043,-78.9368,199.7867,-60.9212,219.6911,125.2265,90.4997,101.3016,10.3309,-59.9210,-72.8036,-7.0925,-7.5866,50.1205,7.8446,54.1263,43.2069,82.6394
-17.3956,-62.1990,-91.1489,197.6142,-53.4827,189.8330,67.4303,62.0558,85.5846,40.6158,-37.2754,-75.4136,27.7579,-57.9918,65.5947,17.1976,-0.9785,20.8387,17.1106
-17.2425,-66.9268,-81.5257,176.5847,-39.1821,179.2789,7.5323,-16.4422,50.8034,43.3579,-7.6785,-87.6225,52.3910,-81.5580,64.9039,21.0112,-56.9879,-59.2396,-72.0778
2.4699,-70.4372,-44.1015,195.7563,-64.1000,202.9572,-44.6972,-113.0282,-4.0517,-41.0592,-16.5329,-82.2093,31.0782,-58.5016,42.7179,-22.7156,-61.2434,-144.7975,-119.4503
23.2648,-74.9126,-13.3974,229.1100,-121.5308,181.5740,-71.7202,-182.6761,-39.3335,-112.7598,-45.2621,-67.1333,-12.1105,-69.2639,18.0068,-75.1552,-37.6336,-173.7138,-134.3569
21.6898,-86.6423,11.6253,213.3285,-133.2805,89.4600,-69.6785,-237.4786,-38.3780,-111.5895,-43.6273,-90.6152,-23.0049,-132.1072,16.1480,-95.6062,-49.3076,-160.5057,-174.3499
-4.0458,-102.2243,47.1278,171.0078,-76.8934,1.4452,-77.0617,-291.7477,-40.5745,-117.6668,-21.4672,-148.9071,6.0169,-184.7523,28.6383,-115.2728,-96.2942,-149.3417,-235.8349
-33.4814,-116.5269,68.8120,139.3624,-21.5252,-49.2147,-123.1631,-305.8585,-70.8408,-151.6437,-26.9352,-182.1576,25.1840,-213.3678,18.8029,-145.9527,-131.5037,-167.0772,-266.1823
-42.2661,-122.1890,75.8178,122.6143,-15.4371,-96.5571,-165.0529,-272.5805,-95.5145,-136.9757,-59.9612,-174.8190,10.7037,-241.2525,-13.3903,-145.7374,-124.8498,-190.9934,-251.5881
-26.9910,-118.0624,103.9950,133.7801,-28.1105,-144.7719,-139.1469,-257.4937,-81.9353,-92.9362,-76.2809,-165.6783,-2.8582,-259.2469,-26.3769,-124.3024,-85.9639,-177.4790,-234.7642
-6.8317,-123.1727,130.2576,156.2302,-33.8498,-164.2191,-71.2234,-291.5093,-58.4890,-125.3241,-62.6391,-171.8450,-6.8198,-259.3330,-16.2156,-146.6452,-55.3306,-158.8786,-252.8885
10.0036,-139.5420,101.8932,161.4882,-76.4932,-138.1402,-43.7143,-327.1324,-68.8794,-232.0064,-50.3290,-175.3731,-47.2784,-248.7929,-23.2665,-212.5463,-48.6721,-187.2593,-281.5453
30.5157,-137.9796,42.3575,176.6514,-176.9444,-80.1043,-50.1212,-323.7088,-92.3761,-303.0602,-57.2382,-160.9100,-125.8700,-227.2485,-52.1688,-253.5939,-34.0983,-205.0368,-272.4193
41.9009,-124.0380,-0.4093,199.8996,-252.4524,-36.9022,-20.6261,-287.5323,-79.1304,-289.5609,-67.4514,-134.4598,-172.7411,-209.5632,-69.0510,-243.3661,-11.0720,-164.9978,-230.8942
27.0553,-136.6069,-38.6536,181.9866,-243.5805,-28.7157,19.9430,-240.2222,-46.1165,-243.4124,-75.7020,-117.9052,-166.7347,-205.5964,-73.1067,-212.9392,-23.1790,-161.2241,-190.6891
10.6795,-162.5189,-82.5543,160.6011,-222.5181,-7.6410,5.0041,-206.8358,-46.6673,-220.7990,-99.1174,-113.9600,-175.2224,-180.1058,-94.2904,-187.3444,-51.4927,-243.1290,-147.9611
25.5364,-158.7679,-93.4734,193.1690,-256.6133,43.9304,-20.0570,-198.8498,-70.5238,-230.7779,-131.8013,-97.7785,-229.4474,-125.9607,-129.6344,-176.8799,-31.3118,-300.2856,-99.1896
49.2577,-140.4402,-64.5872,217.6091,-303.9952,63.2836,0.3130,-192.0860,-75.4323,-251.4900,-146.0626,-81.6192,-271.1509,-107.9786,-146.8336,-187.8188,14.1338,-270.5864,-78.8148
38.0373,-147.5798,-48.2086,182.1912,-314.0865,21.8922,4.0229,-171.2420,-70.5368,-251.2871,-140.6520,-115.0196,-252.7277,-156.3327,-142.3819,-204.2439,10.9730,-228.9958,-90.6817
-2.3391,-177.4564,-57.3520,130.1676,-269.3864,-43.0482,-40.4395,-166.4194,-75.5184,-221.7302,-130.5017,-182.5018,-188.9294,-223.2417,-139.6389,-206.8634,-28.1430,-225.5894,-85.5896
-34.6296,-211.6970,-37.2898,66.3749,-151.3820,-118.7945,-52.8387,-191.2141,-66.9601,-196.1205,-113.0992,-218.5896,-110.3404,-273.3897,-135.1401,-208.6283,-46.0401,-235.1434,-46.5375
-50.4068,-241.5038,22.6275,-24.1313,-9.1382,-196.4876,-11.3036,-212.4505,-34.5757,-199.4709,-93.0263,-225.5528,-46.3971,-305.3765,-108.7514,-223.3959,-45.7833,-231.0326,-11.0701
-62.1397,-251.5128,53.4945,-76.8448,56.7769,-219.7889,15.7470,-225.3535,-14.5825,-214.1140,-90.0663,-238.1117,-19.8416,-306.8041,-82.6495,-235.9288,-39.6388,-201.9297,0.7885
-57.8310,-239.0895,36.2240,-56.3103,58.4658,-169.7054,26.8213,-256.1831,-20.4200,-227.6634,-91.8832,-233.8522,-7.3798,-276.3750,-86.6566,-239.2906,11.9674,-160.2840,13.4729
-21.5798,-228.3715,43.4893,-18.3763,89.8352,-111.5129,81.4064,-268.8934,-7.6799,-239.5448,-67.8241,-210.6682,29.1922,-248.9234,-84.4645,-240.5583,114.9270,-131.9562,49.1878
14.3459,-229.9068,93.3788,3.5568,138.7079,-97.7894,162.9569,-206.7135,45.2087,-220.4737,-36.7365,-227.8149,62.2883,-250.0233,-42.6685,-226.0408,185.8750,-105.7449,86.1582
13.3409,-223.4995,111.8924,20.5055,122.9914,-106.0983,183.6936,-123.8963,76.6623,-175.8429,-38.1416,-273.4320,40.9043,-256.6142,-13.2661,-195.6154,168.9696,-77.1921,80.9390
9.1452,-198.5350,84.1420,37.3327,44.6859,-92.4633,114.6010,-122.0734,34.9608,-186.4500,-55.2080,-261.6286,-14.0601,-231.7901,-30.4483,-192.8540,122.5974,-98.0966,36.1581
43.1291,-177.3783,67.6707,60.2595,-40.2401,-62.4427,40.3587,-183.5999,-18.0128,-257.8899,-49.5609,-200.7765,-53.8702,-191.6740,-38.8289,-225.3862,110.0348,-168.7032,9.5738
76.4413,-182.7483,58.1647,82.9532,-108.3456,-63.5637,45.9744,-215.1167,-2.1389,-267.6948,-35.6819,-177.8952,-83.1419,-189.4457,-21.3694,-231.6869,106.2326,-203.3706,40.2468
68.1259,-202.1420,24.3796,89.8172,-149.9698,-99.7598,95.8975,-201.6108,45.7636,-184.7612,-48.3863,-194.0132,-115.1510,-216.1109,-35.5805,-190.9663,91.9305,-182.6518,111.0368
55.2998,-207.4648,11.7999,94.1202,-150.1861,-116.1027,120.8591,-189.8152,58.1872,-136.4211,-73.8747,-184.7530,-120.4756,-205.3744,-71.5279,-162.0943,106.1403,-168.6931,178.3316
63.5752,-194.2864,52.0785,91.7221,-108.6401,-103.8223,132.7706,-188.8675,52.9036,-169.7544,-71.4079,-147.9111,-79.5522,-155.6883,-63.4904,-169.6877,133.6713,-170.2484,191.1292
57.8788,-172.5919,94.3531,56.0880,-36.5541,-108.3535,134.6456,-183.2991,49.3755,-193.0838,-37.9586,-124.9557,-16.3158,-123.8260,-26.1378,-170.4360,108.5066,-164.3234,124.2435
36.0559,-149.1760,125.6561,25.7073,53.2558,-117.4620,89.1209,-176.9014,22.2578,-184.8158,-8.4710,-126.5552,44.3841,-113.7268,-6.4429,-154.4632,61.2128,-173.0084,33.1414
32.2283,-143.7465,180.9380,34.9059,138.9659,-94.7616,45.6237,-171.3376,-5.8418,-206.4918,-4.5004,-148.1360,90.6482,-106.7043,5.6697,-161.1830,73.0711,-194.9782,5.9015
32.3288,-166.7510,216.1703,28.4786,191.7713,-82.0337,70.8239,-154.3108,4.9580,-235.5463,-11.0287,-187.5255,110.5965,-124.6854,9.2914,-187.1779,119.4142,-182.3527,49.9189
14.4104,-181.7351,175.8729,8.6148,202.3248,-112.6495,103.7899,-125.4542,23.2175,-210.8301,-5.3311,-214.5053,113.4453,-155.1947,-12.6701,-186.6688,132.8721,-137.9807,97.5203
7.9168,-161.3809,120.6175,52.3452,189.6972,-135.8717,89.6179,-107.4234,22.6527,-174.6197,9.1630,-186.9617,116.5012,-145.9738,-14.3023,-162.6221,113.7249,-118.8425,91.3409
24.0058,-140.4840,106.3184,108.2463,155.5017,-133.7956,67.7724,-127.1095,23.6348,-192.0348,11.4192,-119.0624,95.7807,-118.3179,28.9588,-160.3088,65.5650,-154.5104,21.9837
26.8633,-150.3212,78.0279,74.4271,70.5934,-147.5136,25.1089,-176.2647,8.3606,-223.9162,-5.9755,-84.8496,27.4214,-129.4071,38.5573,-178.4319,-18.4795,-231.3973,-51.1561
10.0493,-174.0529,8.2089,9.0519,-44.4938,-159.8247,-57.6000,-201.1092,-32.2843,-207.2097,-30.1393,-121.4705,-42.5397,-155.4253,-17.0939,-175.5337,-82.7567,-305.0880,-33.8277
1.3419,-193.7395,-43.1049,-8.7347,-118.2550,-131.7826,-81.2388,-174.1611,-31.9265,-162.9347,-47.6167,-170.1265,-68.9739,-154.3401,-50.3559,-150.0925,-85.7190,-322.2315,59.0358
6.9472,-198.0187,-54.9330,-20.9882,-154.5777,-106.3785,-27.1792,-146.8654,11.0453,-142.4384,-55.2991,-166.4465,-87.0941,-150.5109,-26.2161,-136.6447,-77.4624,-286.2229,84.1749
17.6122,-168.2364,-55.8171,-42.0703,-210.6079,-129.1831,-37.4730,-167.4046,-0.0437,-151.8803,-49.7211,-136.2286,-121.1448,-161.9225,-9.8195,-143.8594,-93.7568,-253.6639,-12.0248
20.3990,-121.0702,-45.4125,-32.8332,-245.3403,-166.1915,-130.3344,-202.2721,-68.3155,-174.6504,-28.6601,-127.8855,-122.1698,-165.0080,-22.7220,-158.2979,-113.7558,-238.2804,-112.4501
-7.1060,-97.9680,-28.2112,-19.2199,-176.9393,-180.0402,-177.6527,-204.2510,-106.9394,-202.1365,-10.9590,-124.7633,-70.9910,-161.1955,-33.8416,-178.2586,-130.3479,-197.5154,-133.5065
-55.0935,-96.2317,-14.2675,-24.2921,-29.7616,-177.4189,-158.9783,-183.1009,-109.0722,-223.5857,-19.3361,-105.5251,-3.8818,-167.6071,-42.7756,-200.7607,-115.3231,-116.2459,-113.7174
-72.4698,-89.6892,47.9028,-14.1172,131.0087,-169.8817,-118.3622,-163.6710,-104.5802,-229.4362,-33.4055,-98.2767,76.8349,-168.9828,-46.3033,-210.7025,-19.2849,-29.6132,-79.3326
-39.9142,-77.2313,184.2420,5.4035,278.2553,-161.1382,-38.6228,-147.8656,-70.9877,-219.2077,-5.7575,-108.1244,174.2183,-150.3386,-16.5643,-199.7293,104.5510,27.5488,-21.9784
9.4530,-55.6868,296.3693,12.6589,363.4684,-143.2740,45.6441,-135.1902,-19.3917,-193.7004,63.6984,-94.4899,240.6077,-121.8651,35.6389,-171.2884,156.6615,50.6273,17.3920
47.3736,-19.8598,300.5461,37.4485,351.2952,-102.3040,60.7423,-133.3600,-1.9783,-173.9725,122.4112,-53.2187,258.7892,-89.3706,78.2852,-144.0531,158.4301,58.0949,-3.9052
66.2970,5.0276,244.4096,82.0259,289.4938,-65.5092,42.2662,-152.0296,-10.2857,-198.2721,137.4618,-23.6256,252.9986,-60.7228,110.8975,-149.2116,165.9599,69.3663,-65.4649
59.9736,7.1185,188.2934,107.2505,207.7555,-75.0398,42.9441,-184.5208,-13.9847,-238.9901,116.3311,-21.1817,192.8521,-62.4292,119.3912,-177.4105,139.8909,89.9975,-135.1201
36.3471,20.4468,133.4095,116.4175,83.2024,-93.6049,27.2273,-185.5917,-25.3861,-202.0853,74.4320,-30.4873,66.4805,-87.0961,75.9243,-162.1180,68.3025,121.6772,-186.1569
24.1460,62.8516,98.2040,131.2130,-27.2973,-48.2142,-3.6099,-125.3029,-39.6728,-88.3428,38.1748,-25.1807,-17.8906,-66.3412,21.8258,-81.3004,36.9284,160.4382,-176.9859
44.6143,104.0249,103.6024,152.6796,-32.4442,43.6795,15.8140,-61.6884,-30.4077,-28.5293,40.3686,23.9907,7.3151,31.2247,17.1876,-12.1303,84.6448,173.9448,-111.1269
89.5381,108.3334,109.9435,184.6627,16.0054,105.3227,83.3052,-62.1911,-12.2543,-80.7675,69.0251,101.8144,47.7255,121.1684,27.9800,-18.3854,155.5445,123.7144,-53.8382
127.0526,68.1366,81.9948,202.3776,-5.6529,109.4956,127.8632,-97.1683,-13.5408,-159.4397,75.7076,137.1130,20.7168,112.2115,-0.9232,-69.5126,190.0193,19.2261,-45.9036
132.2517,13.8707,44.9082,163.5358,-98.1999,71.5502,100.3628,-118.9083,-37.1429,-210.1937,54.7655,95.6577,-32.4081,43.8700,-36.1469,-118.4808,161.9894,-85.4274,-81.0402
109.4778,-13.0108,23.6258,98.3737,-158.6560,0.6610,9.8245,-147.2739,-77.6301,-255.6038,44.5512,23.9634,-59.0734,1.5300,-35.1082,-158.8764,88.3082,-142.8395,-137.9930
70.9183,-17.2284,13.4735,57.8778,-117.5739,-89.7305,-80.5435,-188.1414,-112.1001,-270.2760,56.1908,-31.6464,-41.2509,-30.3305,-20.7484,-180.9620,22.1779,-140.5364,-176.4036
19.4503,-30.7930,16.6310,13.5339,19.2273,-164.3896,-116.9733,-201.1850,-108.4160,-217.2360,72.7429,-70.6829,42.2660,-88.4089,-2.3243,-167.2240,-12.8399,-100.6191,-176.7311
-32.1133,-50.6862,34.2168,-63.6066,190.6213,-186.0959,-111.4979,-190.3029,-78.9150,-156.8659,82.8395,-99.2163,160.2692,-120.5500,40.1019,-137.0789,-28.3351,-60.1275,-175.2470
-63.3359,-62.7795,45.5209,-133.8834,304.7922,-164.6065,-86.5722,-191.5079,-58.7862,-150.4560,70.1150,-114.8132,219.8651,-99.4594,72.7414,-125.9291,-13.7680,-31.5848,-181.0338
-65.1924,-70.9114,48.2112,-160.5710,304.1061,-165.6718,-42.2110,-197.5910,-50.1352,-164.5961,38.0505,-117.4487,193.2405,-90.1880,52.7135,-136.7237,34.1194,-1.8531,-159.6164
-29.8663,-62.5741,76.7041,-137.5863,227.7031,-211.8294,-5.0785,-199.9114,-49.6307,-180.7227,41.2671,-105.3507,147.8813,-106.3499,20.6842,-156.8403,78.8377,15.3280,-136.8869
37.4106,-35.1682,130.2872,-78.4794,157.0333,-227.9201,-0.0254,-215.8108,-61.9719,-229.8652,96.1528,-85.9974,120.7799,-91.3433,26.4764,-182.0637,103.8653,-17.3006,-147.0495
87.3998,-35.6932,135.5182,-39.2402,93.7828,-177.8148,-2.2403,-220.1044,-60.9860,-264.7432,117.3679,-84.4690,69.7783,-64.3241,38.8268,-191.7596,115.2662,-85.9689,-122.8574
78.6616,-79.5486,51.8416,-61.3383,-16.6666,-139.2905,5.1880,-166.4875,-25.1402,-196.9821,51.7281,-112.5264,-26.4271,-80.5541,18.0297,-153.0641,95.8204,-131.1211,-27.7713
42.9365,-110.3053,-44.6170,-106.9939,-147.3948,-145.7749,5.5196,-71.6657,11.3159,-62.7706,-27.7775,-149.0245,-110.8572,-104.5920,-17.9588,-74.4198,48.5832,-141.3930,44.2099
27.8596,-99.0236,-76.4702,-125.2531,-214.7203,-128.2671,-8.9620,22.1911,13.7419,32.3365,-54.5058,-162.1957,-133.1509,-88.9454,-43.8017,-3.0963,17.0923,-153.7047,45.1552
25.5543,-70.8878,-77.7203,-99.3238,-202.1218,-70.8195,-33.9656,109.9600,1.4990,76.1436,-57.1578,-137.4712,-110.9627,-53.2194,-49.0985,41.9772,16.0034,-160.2315,40.2532
8.0015,-38.1686,-91.4517,-28.2757,-123.9757,-25.3854,-50.8149,187.1469,4.8308,108.8519,-63.3861,-94.5667,-61.3228,-7.1536,-20.9872,78.3985,21.7182,-121.3032,41.2095
-27.6686,-8.4040,-85.5174,37.7327,15.2102,4.1794,-44.7011,228.9379,14.6937,120.3457,-55.3777,-71.9744,24.2988,43.4612,25.6587,102.9342,9.6877,-61.9590,-4.6523
-65.4304,-1.4719,-51.4264,29.5798,135.3736,16.5798,-70.5747,219.8466,-0.1944,96.3201,-30.3402,-78.3294,103.3126,41.0022,55.4982,91.9519,-47.4995,-50.3071,-83.6147
-87.4898,-12.8973,-30.2818,-26.2083,149.5025,-35.2679,-178.4199,153.2303,-41.5972,63.1499,-7.2511,-93.6387,116.4665,-24.8596,71.4581,53.3784,-149.8675,-96.2483,-137.1475
-98.1650,-30.4338,-14.7067,-61.1622,121.4566,-129.7777,-281.7583,47.9932,-70.1767,43.4821,0.8589,-115.7095,97.0524,-72.4949,86.7044,23.0732,-242.7178,-151.2959,-135.6947
-116.3402,-56.4269,20.6021,-85.6484,143.2070,-178.9822,-286.6837,-22.0505,-64.8034,49.2072,-7.2134,-147.7619,104.6916,-71.1136,74.1766,21.9391,-281.3936,-179.2032,-75.7321
-127.6975,-74.9796,37.9914,-129.5187,171.7246,-175.3839,-244.0596,-6.3461,-48.7982,88.8378,-8.5843,-173.3070,119.2005,-72.8033,32.2207,43.4617,-264.7098,-174.2665,8.0157
-111.6676,-80.3360,4.3248,-181.6645,157.9735,-175.5345,-200.9875,38.6343,-25.1480,132.1525,7.6628,-192.1643,110.3437,-91.7331,17.4089,62.8444,-202.1476,-141.9959,65.2172
-100.1083,-105.8212,-59.0692,-234.8555,123.5664,-191.1159,-114.1200,42.5365,28.1973,140.3142,-7.7219,-213.0066,78.0397,-99.1222,35.9369,59.9766,-128.8130,-93.9572,101.0687
-105.5682,-138.0953,-131.5752,-257.8351,42.1273,-198.7535,-3.1040,38.1752,81.7299,131.0370,-74.9873,-202.6914,-5.8869,-87.1451,20.1431,48.8948,-82.2796,-50.0377,141.7571
-71.3296,-120.6604,-187.2283,-199.8030,-111.1147,-172.6503,59.6705,85.8571,89.6234,132.1300,-114.8203,-144.2642,-129.8498,-56.7076,-39.5487,54.8563,-36.2024,-36.9148,172.4528
1.0936,-80.4853,-188.9041,-112.7445,-250.0002,-108.7202,79.3675,152.3754,75.9991,126.1623,-86.5442,-100.0177,-195.8870,-22.8016,-72.2672,66.2845,15.3030,-65.3301,176.7750
23.3355,-76.2158,-166.0465,-95.2866,-304.1043,-70.0917,66.9962,164.1858,72.8000,109.4345,-56.7496,-109.8251,-179.9285,-21.7980,-51.6975,62.7119,-9.2717,-100.7744,145.6500
-15.8761,-70.7544,-179.0160,-120.1993,-299.2919,-102.0999,-3.8877,123.7715,52.4676,112.6966,-52.4756,-121.6396,-163.2377,-45.7519,-23.8113,60.3829,-110.7987,-98.4722,59.7808
-43.4536,-32.6244,-199.8303,-119.3985,-244.2105,-126.7431,-79.5805,86.5079,9.3451,128.0647,-36.5466,-101.2150,-147.6698,-50.1720,-18.3106,70.9503,-157.6151,-69.1791,-40.7025
-47.8266,-22.9409,-165.4499,-118.1693,-131.3949,-82.5563,-77.2842,64.0273,-12.1305,112.6262,-25.9168,-84.8711,-77.9460,-41.2101,-24.6621,66.8239,-108.6248,-59.1409,-76.9261
-52.4997,-56.1475,-88.8761,-123.5224,-18.5779,-46.7373,-35.7006,24.3091,-14.0735,57.5107,-42.9907,-91.0716,-8.1150,-47.4961,-36.6547,30.7115,-52.6951,-83.7078,-65.1781
-32.9058,-68.1480,-14.4411,-83.3581,35.9908,-74.5360,-34.6821,-38.2987,-36.3718,-10.3896,-39.9579,-99.3195,-7.2065,-57.0637,-52.4814,-16.4978,-21.4714,-124.4181,-66.4994
8.2418,-58.2000,40.8351,-30.8105,30.6548,-117.1103,-65.5141,-89.3532,-59.3191,-54.3919,-6.4593,-105.3201,-22.5361,-67.5437,-48.6494,-48.8113,-1.7032,-157.6779,-62.3606
21.1953,-67.9158,65.3934,-48.9619,-20.7462,-159.7874,-88.3478,-96.4182,-39.5183,-42.7757,6.4505,-117.4102,-11.2750,-99.6322,-5.9520,-51.6971,-32.0844,-166.8397,-38.3722
12.2506,-78.1922,60.5444,-117.3293,-90.0093,-222.6148,-99.3811,-59.5056,1.2571,15.8604,5.7823,-136.8441,-30.3010,-137.5465,42.7175,-24.7229,-107.0042,-158.8491,-27.8496
16.7274,-73.8949,43.4110,-169.3367,-145.6427,-269.5712,-104.6773,-15.1923,18.8537,76.2329,19.5735,-167.4079,-98.3456,-161.1775,37.7162,6.0899,-143.8641,-150.3787,10.0467
12.1566,-89.6141,10.0055,-200.7433,-193.2091,-276.7786,-97.2210,-6.0435,19.5997,104.5006,10.7399,-201.2725,-143.5012,-182.9530,-20.9461,8.1225,-118.2088,-125.2202,126.7318
-18.0291,-122.9433,-42.4805,-217.0906,-226.0710,-262.5943,-57.9676,-35.1897,26.6109,80.1693,-33.2004,-209.8894,-129.0284,-187.9198,-70.7183,-23.7154,-69.1532,-67.1754,228.8501
-30.6439,-135.0149,-83.2215,-198.7086,-208.6229,-212.1333,20.3998,-76.4240,34.2551,-0.6129,-63.3997,-174.4852,-105.2971,-148.3011,-84.7483,-70.8947,-1.8225,-16.0892,220.3068
-1.0222,-126.1592,-88.9270,-153.2936,-164.4037,-129.8315,109.3245,-115.0216,38.2351,-86.5850,-67.7489,-107.1395,-116.8121,-96.5949,-89.1210,-109.1764,87.0117,-6.0407,170.4030
42.4764,-111.6420,-64.7016,-111.1057,-146.8323,-82.4684,169.0811,-136.5739,50.3976,-124.2033,-54.8385,-50.1901,-127.5638,-68.6116,-80.9199,-123.4623,156.9732,-3.7113,161.9432
68.2886,-85.5940,-24.7207,-84.4273,-131.7137,-74.7909,171.4591,-111.8843,60.1865,-132.8342,-0.7345,-46.4754,-75.2208,-43.7342,-36.1822,-119.9932,166.1465,14.7499,163.7942
63.5137,-56.4866,5.6171,-74.7304,-71.0908,-46.7240,111.4783,-37.2571,47.4192,-130.2034,71.9911,-77.3229,24.0638,-15.5646,16.4305,-103.8764,120.7226,16.5666,152.4586
41.9135,-42.8669,17.7696,-80.7228,20.0399,-9.8955,52.9743,45.9524,35.3497,-85.8390,92.6171,-75.4049,90.9586,-3.2612,35.1010,-64.6247,80.7287,-6.3277,160.3215
39.9096,-36.7461,44.6719,-82.1778,107.5126,-1.2643,79.7698,86.9300,52.6929,-32.5835,63.5570,-22.9928,98.1985,16.1423,32.9770,-20.9861,106.1755,-18.6779,176.3712
61.9430,-26.9622,91.6726,-44.6626,173.3864,13.6966,152.0039,57.8096,65.2212,-56.2169,39.8803,36.6466,90.3730,59.9781,28.3810,-22.0566,174.2251,-19.6902,156.6341
73.6684,-21.5428,119.6407,40.4917,213.9881,52.2622,161.6201,-21.1079,36.3252,-133.8366,33.7565,72.2291,110.0767,81.5920,12.7550,-65.8376,216.4068,-30.1119,113.4649
70.1026,-21.8832,140.9402,123.6801,260.6197,70.0415,120.5495,-84.6554,4.0815,-170.2396,48.5754,72.1502,169.8124,54.7930,7.9274,-97.8395,226.2014,-31.7898,89.0118
74.6496,-20.0517,195.3438,137.2666,328.3065,52.9753,103.2819,-97.9212,6.8299,-167.5995,99.5784,38.0324,247.4420,19.9595,44.7656,-104.4927,222.9289,-18.1212,76.6227
81.7873,-19.6054,234.9403,79.8150,360.4559,17.3354,91.8240,-94.3720,15.0920,-182.3461,151.5126,15.8143,282.5007,5.3269,91.5313,-113.8602,180.0371,-35.1590,42.9688
73.8202,-24.3191,190.1953,15.5260,312.4830,-41.6056,49.5478,-108.0470,2.9468,-198.1241,148.9071,45.2250,234.8757,0.7422,101.1871,-122.8083,98.8181,-92.9698,-10.1888
61.7396,-22.3540,99.4785,-6.9865,208.8731,-109.6922,9.8969,-143.9805,-16.7064,-187.5309,98.2050,91.7447,131.1089,0.8231,76.8481,-117.3504,44.4600,-129.3197,-69.9660
62.2587,-7.4029,43.1797,12.1581,81.2191,-143.2351,-1.5326,-208.8788,-45.4188,-193.7464,45.3860,109.9329,20.7065,3.0404,31.9260,-123.8211,42.9057,-116.2215,-144.6551
68.2030,0.3299,26.0581,40.5575,-35.3136,-124.6977,8.3993,-276.8169,-81.8165,-246.7101,15.1227,100.2089,-58.4976,-0.0797,-27.6020,-161.9048,60.9091,-93.4826,-203.6122
62.0375,-17.3324,9.9450,37.9609,-78.6112,-61.2833,52.3419,-280.2684,-84.3610,-293.3250,0.6707,69.2003,-76.3708,4.5587,-68.3033,-194.4787,92.4014,-67.3640,-172.0232
43.9458,-37.2821,-5.3598,15.5870,-31.9339,37.4139,131.0313,-214.2830,-40.0206,-283.7348,-15.5189,39.7707,-39.4424,35.5291,-67.8394,-184.1935,155.4098,-0.2575,-61.6213
40.3302,-22.4731,13.3789,41.6852,53.1985,140.6560,203.1318,-153.0891,-0.8026,-253.2206,-23.3847,62.5994,8.9238,77.4362,-53.5096,-154.7382,232.8339,87.4746,13.7159
66.3680,19.7773,70.7924,125.2213,129.6721,206.1974,233.0048,-127.9527,1.5088,-250.0649,6.9374,125.4717,48.2368,102.8017,-41.9899,-141.6641,279.8590,126.9200,1.5888
89.1515,52.6059,120.2293,178.7201,170.1880,219.7431,216.5844,-104.9460,-8.0305,-243.8616,53.8983,154.4373,82.9384,114.0746,-17.4994,-126.0771,261.8347,106.7048,-52.6120
75.6892,64.7167,127.6563,150.2142,166.7545,195.4525,172.9860,-71.4142,-8.2912,-186.7569,67.3599,137.9538,105.0793,119.7886,13.5555,-78.8461,185.9563,72.5315,-113.9976
47.6650,61.9531,118.9049,74.3175,158.0051,142.1343,127.2611,-45.9574,-4.6025,-106.9054,65.7385,108.8798,112.8763,95.8969,30.0162,-28.4431,102.8855,45.5390,-158.3233
31.0066,38.7402,117.1309,-19.8305,166.9215,52.8575,76.1393,-44.3946,-5.6314,-63.8883,88.8087,56.2227,115.6153,29.6586,35.5809,-19.7376,39.9878,12.3401,-148.9791
7.3433,-0.9470,93.7207,-118.7903,149.5156,-50.8660,4.7851,-79.3351,-17.7646,-74.2930,102.0997,-9.7748,101.5766,-29.7965,38.0091,-48.9846,-34.6765,-33.1154,-110.5063
-36.6816,-38.9431,24.4158,-183.6396,86.4997,-113.0453,-72.3176,-141.9904,-39.8219,-116.2066,70.5064,-38.6816,62.5912,-48.6213,33.6137,-87.8674,-134.8621,-78.5195,-99.3670
-77.6780,-76.0118,-62.8607,-217.4371,22.2392,-145.0808,-143.1632,-193.9273,-60.1959,-139.1858,34.4861,-66.4883,23.0861,-85.4553,22.5432,-118.4322,-210.6952,-110.5933,-96.7392
-97.3729,-122.3792,-111.9796,-283.6610,-21.2711,-234.2313,-210.3076,-213.1031,-74.0969,-106.7628,25.9489,-166.8232,-4.3035,-183.5399,2.7265,-129.9608,-233.5824,-140.3595,-72.7031
-101.5658,-159.4799,-94.9469,-374.9289,-54.4122,-366.8836,-250.2654,-211.5581,-87.2411,-76.4696,21.4042,-265.8641,-33.8586,-261.9178,-22.3103,-133.5109,-251.0495,-193.2368,-73.7851
-98.2795,-149.7952,-61.2630,-392.4482,-77.8543,-405.3985,-254.8603,-199.9603,-104.2667,-115.6339,9.2016,-222.9935,-63.4732,-227.5266,-31.7629,-144.6178,-300.9033,-248.7285,-123.0601
-88.1083,-82.6768,-85.9308,-303.7687,-107.7695,-303.9550,-259.9035,-170.6952,-126.3766,-149.8892,-4.4687,-58.6772,-84.9538,-105.5856,-33.6140,-127.7411,-330.0063,-247.6618,-159.8446
-63.3230,1.3255,-145.4756,-182.4907,-157.1288,-151.5344,-245.4189,-110.4720,-136.8277,-83.0445,-32.4877,85.8702,-110.8544,22.4040,-63.1737,-46.0130,-261.8032,-191.9625,-138.6228
-18.2847,42.7638,-152.8821,-81.4298,-182.7070,-8.3808,-143.1242,-26.5947,-101.7397,18.0753,-72.9237,148.2898,-137.7386,112.5178,-100.0938,48.6622,-114.6661,-146.3879,-69.4610
30.4837,34.4650,-109.4541,6.7050,-152.1825,114.6879,11.1088,40.9052,-29.6797,45.6979,-92.9875,164.9849,-137.7833,156.8162,-94.4133,82.9156,22.8431,-123.4229,13.9254
60.4543,28.3392,-76.4059,84.4930,-105.4510,197.5636,111.7564,70.8135,17.6017,13.9494,-81.4192,164.5068,-107.3036,167.5851,-63.1224,65.7348,115.9006,-73.8683,50.2707
68.0761,48.9118,-53.9373,138.4234,-73.3626,242.9571,146.5009,94.3894,21.9388,-13.2546,-62.7568,141.9986,-64.5809,159.0333,-39.8320,45.7513,182.5823,15.0733,5.2861
54.3101,66.6175,-21.4255,154.8689,-29.4590,258.5791,163.5859,128.2095,34.9790,0.3614,-49.3077,104.5900,-10.3476,130.6833,-2.1567,47.5872,204.0231,110.4233,-52.1706
26.0043,74.6290,12.3983,123.5602,48.4592,230.8045,168.6772,148.3491,71.9263,57.9287,-14.7724,82.6044,62.9394,101.6497,53.1562,74.6307,159.9987,185.7894,-43.1669
14.2173,99.4105,63.5311,77.0821,146.8813,197.8825,157.2439,160.0154,85.8768,100.3092,61.8926,92.6710,143.0986,105.4608,83.6791,101.5753,102.3898,220.2879,-4.4832
31.7126,131.0881,136.4310,76.4956,228.5281,207.9629,143.9861,188.9628,70.5858,89.2904,134.3426,117.4058,200.3526,125.1639,91.8192,104.7087,82.7134,207.4356,-2.9910
39.4481,136.5356,163.8989,105.0597,244.5703,206.4485,131.0337,221.7210,70.7104,98.2494,127.5423,131.8565,204.6506,127.3144,103.9185,114.7085,80.3274,185.3412,-7.3643
14.0467,123.3694,117.3456,87.6472,184.5319,149.2084,111.6285,248.6922,84.2099,160.3073,55.5949,125.3454,154.8360,129.1122,92.7716,149.4478,68.7008,191.4321,41.6094
-11.4657,114.2227,67.9569,32.6331,102.8477,100.3084,79.0459,289.6855,73.2154,194.0240,8.3368,94.8046,90.5271,129.5697,45.3446,162.7467,53.5467,203.9132,118.8009
-17.8035,95.4762,49.1674,-5.6548,49.7320,70.5105,28.4740,322.7276,55.2893,204.8537,5.2178,49.6247,43.7552,76.8919,13.8089,152.5563,22.2371,177.1271,162.7828
-29.1848,49.1885,15.0497,-56.0385,20.6647,-11.6088,-22.2044,303.9709,68.8226,278.2274,-11.4323,13.4511,5.2446,-17.6745,20.2993,176.2298,-48.3827,95.2924,158.8087
-54.1379,-3.9306,-35.9429,-144.0053,-5.1014,-123.8856,-69.5921,254.0920,78.9819,354.3646,-46.1360,-11.5330,-32.2504,-79.6784,23.6978,213.6569,-146.0461,-28.2007,111.7816
-72.0540,-29.0666,-57.3749,-201.7032,-37.3788,-189.9953,-153.6863,212.8291,26.2830,323.6911,-53.0011,-47.7349,-54.1998,-96.7445,-1.0300,196.6384,-233.9705,-154.0365,19.9224
-70.6718,-20.6028,-52.7338,-204.7429,-82.6276,-205.1324,-253.2297,169.0525,-63.8349,234.0199,-35.2887,-82.8436,-67.6487,-97.5337,-44.8601,143.2621,-269.8030,-227.6588,-75.5219
-51.4730,-5.8198,-55.8537,-206.4128,-130.2066,-165.0934,-263.4088,105.7642,-114.5132,155.9085,-28.0584,-72.7035,-94.4176,-74.8253,-93.2992,97.7086,-227.7749,-230.2644,-107.8476
-24.7915,-4.9833,-64.9317,-182.6109,-149.6660,-61.6339,-173.1411,33.1314,-108.5716,59.2467,-30.7127,-21.9278,-116.2553,-34.0476,-116.8028,41.3891,-141.3023,-184.2610,-85.9389
-10.2603,4.3414,-60.8592,-74.8453,-123.8504,37.1201,-91.1569,-29.6051,-90.5511,-53.6889,-25.2776,26.7713,-94.6940,-0.7858,-93.2769,-29.2011,-67.9427,-92.1107,-80.7508
-11.2185,53.7168,-33.9673,58.6462,-61.0914,100.8544,-49.3145,-51.6161,-86.8561,-130.5036,-9.5968,82.2204,-34.1000,44.9282,-53.5137,-73.5529,-8.5977,54.3675,-104.4048
-5.4703,121.9361,24.9481,141.5762,24.0462,189.5844,19.8343,-22.6665,-78.6810,-168.3810,12.9860,171.5163,27.7970,119.6743,-38.0613,-81.8814,61.0055,202.2193,-98.1069
17.9248,156.8819,105.4916,191.2867,110.6903,276.7313,122.1940,13.2549,-40.5915,-170.0447,37.1295,240.9439,66.0957,179.4282,-30.5763,-67.4257,125.6620,278.5642,-31.5698
44.4309,149.2416,156.0181,215.3145,162.0710,273.6151,200.6181,30.7332,22.7838,-119.2082,52.4841,223.9889,77.9233,196.9773,4.1414,-30.8081,172.3038,294.1464,57.2757
59.5287,128.6771,134.8329,189.5175,155.8748,220.2601,236.3220,62.2840,78.1112,-43.2861,53.3318,165.4693,74.3867,191.0466,46.9764,15.6659,209.6284,294.5370,110.5791
61.4909,111.2906,76.9617,139.4737,121.2755,194.3523,229.0077,111.4448,94.9295,28.7913,45.0832,145.9697,69.5248,167.1963,51.5771,59.3886,214.0979,256.8974,110.3790
61.4091,104.4034,59.4743,70.2112,108.3380,170.3578,167.7758,145.4497,75.3969,102.8445,50.2217,156.9866,67.1730,141.0457,29.5398,108.6885,163.0865,159.4328,93.6083
72.8234,117.2883,99.4619,-72.5238,117.7443,130.8498,76.8752,177.5806,48.1069,157.4031,88.8430,157.4508,64.2488,146.0546,36.3274,154.9475,88.0950,59.1883,93.9595
84.2039,125.5760,135.1267,-272.7880,97.3090,97.9514,-8.9681,222.8756,30.2246,174.6025,130.5828,148.3875,49.7482,146.5137,70.3203,174.7221,4.5681,-18.6679,89.5247
70.2803,92.2396,110.8985,-445.7197,17.0011,36.6189,-104.4300,226.9859,6.1202,186.7810,117.4440,132.2901,-1.6083,85.4307,72.6776,172.2665,-108.1543,-130.7948,48.1289
39.5944,40.3804,34.2239,-563.2732,-87.4134,-59.6469,-217.4797,153.4731,-43.2036,185.3746,54.6394,112.0460,-89.3637,20.6763,32.7183,155.8233,-211.9449,-269.7720,-17.1786
18.2435,17.6869,-50.7473,-635.1794,-156.7481,-105.7487,-293.8683,54.6057,-97.4685,121.7867,7.2975,114.1640,-155.8384,30.2218,0.5351,114.8499,-249.3154,-341.3580,-70.9335
-6.5865,4.5618,-108.0350,-668.1385,-165.6369,-85.0128,-301.7505,-11.3444,-116.7728,28.9250,-0.2971,115.1194,-159.4235,47.2929,-0.1560,53.7452,-261.7332,-319.5197,-91.1940
-58.0121,-38.8284,-127.6498,-702.9788,-126.1300,-76.3651,-280.3380,-42.1157,-99.7370,-27.9173,-4.4683,46.0120,-136.8179,-18.2468,11.4003,-9.6420,-294.0332,-247.6538,-79.4165
-104.5923,-82.5768,-113.0016,-747.7681,-61.8875,-91.8844,-235.5816,-52.5419,-72.8232,-62.8437,-24.1775,-67.6463,-129.8181,-105.1361,18.9171,-67.4445,-267.9101,-130.8120,-51.5489
-96.2922,-86.3352,-68.3018,-733.2902,-2.4394,-82.5097,-117.5325,-50.5228,-37.7627,-105.3779,-32.5948,-126.7749,-125.8664,-117.4500,15.2892,-109.7813,-123.8516,15.2502,-5.0319
-41.2729,-70.9997,-15.8157,-652.7280,21.7598,-44.5665,43.0549,-48.9838,8.9676,-138.9959,-8.1467,-116.2341,-115.0864,-82.6704,2.4294,-129.5385,43.0210,116.3162,63.7320
10.7587,-56.0543,10.5903,-587.9192,6.7126,4.3926,135.1945,-59.4262,39.3527,-149.9145,27.9191,-82.1919,-119.6077,-64.8503,-1.0209,-132.5707,122.6723,146.9599,98.1588
37.1609,-25.7161,13.6395,-555.2671,-27.0290,48.8638,139.1705,-76.4265,40.6951,-133.6476,39.9883,-33.9073,-149.8006,-55.3802,12.5814,-114.4393,123.5680,155.0873,50.8098
48.8739,6.4326,14.3685,-514.8156,-68.4735,50.1052,134.6535,-77.8237,49.2868,-80.2775,25.9391,9.9710,-193.2627,-34.3973,29.2158,-69.4065,98.8666,159.7957,1.2431
46.4468,3.5221,-11.8063,-482.9400,-109.1686,0.5540,143.2131,-49.7615,84.7396,-2.1303,5.5565,5.2489,-230.4217,-24.8923,40.7842,-17.9822,69.4737,151.4598,47.7470
18.5138,-27.4377,-86.0497,-483.8342,-125.9701,-54.5846,119.2025,-13.8301,113.4182,73.0275,-16.3508,-39.7857,-240.2444,-45.5274,45.3019,18.3410,39.6597,142.9936,141.5020
-19.9739,-60.1531,-153.9588,-495.9572,-122.1882,-111.8976,55.4917,-5.1165,107.8946,120.2487,-35.4903,-93.4913,-230.6255,-95.8421,37.4257,30.1031,1.9579,124.2515,179.7508
-39.3146,-99.6746,-171.7297,-511.2909,-140.5329,-217.2497,-27.7853,-27.0806,76.1218,118.5384,-41.7157,-160.3056,-243.4187,-177.1090,19.7191,6.1902,-59.1498,45.4138,153.1883
-40.0461,-149.4825,-180.7315,-535.6573,-196.9226,-354.0170,-131.0902,-56.3759,28.4125,91.2074,-51.0943,-225.0120,-292.5212,-263.8322,-6.6151,-31.3425,-138.4848,-109.1062,98.1433
-38.3123,-188.0100,-208.4921,-554.8553,-262.7961,-444.5145,-243.6428,-78.8768,-28.5560,88.4426,-77.1146,-250.7065,-346.5865,-309.3866,-45.1213,-36.2135,-220.0271,-299.5751,30.7359
-34.8299,-208.1268,-217.9214,-562.3143,-309.8510,-469.8705,-341.7865,-102.0082,-81.7410,91.2841,-92.1454,-255.6792,-378.3404,-320.0860,-76.2955,-25.1244,-299.6773,-470.2135,-36.0592
-41.5688,-223.2347,-198.3671,-545.3678,-307.4417,-482.0305,-421.1574,-145.5458,-127.3888,45.9938,-94.0709,-272.6258,-372.2924,-340.7715,-80.6292,-53.5725,-359.3552,-562.2193,-100.5214
-73.0704,-226.4792,-168.9416,-465.1383,-226.3798,-491.3851,-456.9606,-216.5756,-166.3761,-36.0253,-118.1407,-279.4120,-313.6185,-357.7452,-78.1063,-115.4039,-346.5702,-527.2092,-163.9563
-84.4644,-191.2071,-100.3564,-329.4502,-90.7481,-437.9381,-383.0944,-282.6434,-177.1084,-126.3207,-123.7734,-254.0464,-213.9395,-317.9893,-77.5329,-172.6573,-219.1268,-366.3547,-193.7037
-24.9140,-119.3246,32.1346,-204.9374,38.1795,-298.3916,-189.5535,-294.0827,-136.8929,-217.2010,-42.4130,-211.4979,-113.4015,-231.9767,-51.6438,-213.8879,-15.8538,-151.5634,-170.6178
58.4824,-49.4626,164.4355,-114.3504,120.3289,-133.6877,24.7818,-237.4724,-66.1032,-262.6435,54.5484,-157.1417,-49.8941,-151.0284,-10.7074,-219.9289,158.9086,21.2100,-128.9276
100.6905,0.9120,221.0547,-14.4255,137.2679,7.0746,177.9732,-139.7074,-2.8779,-233.0023,57.9646,-82.0679,-40.0478,-70.6533,4.1090,-175.6479,268.8542,131.8963,-85.1665
132.0119,53.6510,209.9759,122.4350,103.2354,139.4439,310.6609,-31.9476,54.0938,-175.9561,15.8519,7.7916,-62.8136,41.0997,0.2316,-108.3384,389.0318,238.8913,-18.0663
180.2419,101.5460,170.4792,260.3096,76.4680,263.9072,470.2672,64.9037,127.7137,-106.1664,8.6784,88.1452,-77.0772,151.1085,2.5510,-33.8576,531.4904,340.6652,66.0681
186.2785,95.0002,107.3023,323.5128,83.2906,326.1833,577.2994,136.1178,202.8956,2.7231,-3.1539,121.5401,-76.2943,191.9074,3.4825,49.5466,567.5947,353.1299,146.1974
126.6909,32.7191,26.0764,278.1358,101.2201,295.0938,541.2675,172.0624,240.7239,89.7139,-37.6184,96.5696,-67.0791,166.1566,12.5250,98.9388,443.7046,266.0270,231.0031
68.8633,-27.5704,-40.4730,181.9550,137.2570,212.4774,417.0889,167.5737,238.5982,93.4856,-28.4466,57.3072,-26.7547,137.8087,50.7189,89.9908,285.1205,154.6416,321.5749
48.8934,-63.3839,-80.0068,103.5075,170.0187,133.9438,300.0536,124.3454,218.6900,79.0264,9.3321,34.4578,16.0180,125.6953,83.9795,75.6926,181.6377,42.1653,378.4160
42.8532,-88.2177,-112.7868,51.4110,92.7775,58.9608,186.7112,54.6125,180.8122,85.8388,2.0549,5.7215,-29.6751,88.3615,78.3673,71.9833,87.8762,-70.4148,352.7827
43.5579,-90.6229,-137.5166,29.4905,-90.5178,-44.0955,56.5649,-24.9787,119.9740,50.8711,-13.5994,-31.9739,-138.6672,13.8995,68.8956,30.0169,-26.4334,-134.9483,233.2120
45.1444,-70.5336,-129.3779,49.3074,-198.2062,-159.1216,-69.9005,-102.7605,48.8859,-17.8783,25.6511,-55.5443,-168.9091,-59.1201,77.3069,-33.3629,-137.8183,-165.3585,76.1335
20.0765,-62.2910,-95.2997,82.2550,-160.1336,-223.6173,-194.7791,-170.3738,-27.6179,-46.4763,60.0536,-71.8835,-107.5500,-102.5568,61.0889,-59.0049,-233.8336,-232.1472,-34.2489
-20.0205,-66.0714,-65.4316,113.4234,-103.3964,-208.6969,-286.2284,-218.1901,-99.7832,-62.2139,16.6895,-77.6395,-78.0896,-109.3422,5.0036,-68.0869,-265.7539,-283.5197,-80.6741
-27.8816,-55.1841,-38.6680,179.5658,-81.6872,-134.7538,-234.7119,-243.4657,-121.9832,-124.4198,-62.5855,-43.6788,-98.4294,-77.5738,-41.7229,-103.2840,-160.9703,-213.4616,-107.6031
3.5389,-41.7244,8.4325,278.5075,-26.8463,-31.2838,-38.4036,-257.0612,-74.0582,-190.0571,-103.2076,2.0374,-83.9530,-35.6377,-46.2027,-138.2185,37.6477,-72.1908,-130.5091
43.1520,-35.8633,76.5763,349.8692,52.8894,52.2317,135.0262,-260.3015,-12.0235,-200.2824,-87.6427,5.4211,-34.6126,-22.0649,-27.7011,-140.6015,191.1237,27.7462,-132.4659
72.9418,-10.4543,140.1017,361.9767,87.6038,61.7188,186.9678,-225.2884,17.6751,-163.0110,-30.5053,-15.4512,-5.6154,-24.3292,-5.4342,-115.7934,229.0823,82.3460,-113.1359
93.0498,24.8849,168.1729,327.1095,70.0823,16.6130,172.2696,-139.7032,35.8360,-101.8745,40.6402,-27.6627,5.6983,-14.0689,26.9331,-71.1817,183.9963,96.4272,-83.0064
106.7933,22.3621,142.7616,274.6625,20.2579,-18.1126,130.6173,-47.4410,55.6571,-41.3856,78.9578,-44.2406,4.6159,-5.2144,64.7139,-22.5878,112.3638,18.8379,-50.1993
106.2475,-14.8628,64.3893,235.6662,-59.1969,-37.8123,55.1104,13.2875,58.2667,-4.5645,52.4938,-57.1556,-46.2533,-4.9598,79.4215,8.2497,36.3890,-121.8667,-12.6519
70.9330,-49.9557,-60.5954,195.1968,-157.8250,-77.2631,-31.1522,59.9154,50.8325,28.7009,-15.0519,-48.8349,-144.9775,4.0910,61.5908,31.1098,-67.9897,-224.1410,47.7948
9.8449,-79.3880,-205.9889,120.5284,-260.2780,-136.8046,-113.7114,93.8082,44.0935,76.0999,-64.5934,-56.5709,-226.1563,-5.8952,33.0719,52.1424,-198.7576,-265.2595,107.8919
-33.4476,-105.5867,-305.2024,50.2203,-341.9995,-203.7411,-202.6191,69.1730,11.7572,87.7773,-74.0566,-98.7301,-249.5713,-73.4594,6.6760,35.4978,-282.0804,-282.0693,88.5415
-52.5607,-113.5140,-322.4829,30.0360,-378.6862,-265.3236,-276.6755,-10.0428,-45.9764,31.6698,-84.9046,-130.8470,-248.3566,-153.9129,-13.8751,-26.9802,-290.3893,-265.2566,-15.8228
-84.3827,-107.1517,-317.4708,23.8579,-400.2328,-291.0691,-314.0022,-66.4272,-77.4084,-13.0664,-129.1065,-144.9466,-270.4259,-187.1768,-16.9360,-70.0287,-302.3263,-199.6217,-96.9697
-131.9906,-106.8808,-348.9483,4.3313,-443.3618,-290.3228,-336.6442,-54.5225,-66.5602,52.4988,-174.3969,-178.1599,-304.6484,-198.2757,-21.2005,-34.5435,-362.5757,-142.9755,-85.8632
-164.5636,-123.0578,-383.9301,-10.8524,-460.3196,-322.9973,-369.7370,0.7628,-49.8200,205.0196,-179.1579,-222.4401,-298.6822,-223.5875,-56.1243,58.1167,-437.2060,-183.5794,-11.0067
-176.3008,-159.0032,-377.5147,-48.0071,-400.3225,-386.8451,-418.4589,54.5698,-42.6869,313.7132,-149.6463,-243.9705,-242.2516,-237.8640,-80.0442,130.4696,-518.4747,-330.9439,83.9320
-177.7498,-195.3198,-339.2534,-112.5521,-302.2943,-402.7910,-468.4116,58.1165,-44.6387,279.6205,-115.5527,-235.3827,-177.6745,-222.8351,-46.0789,118.8846,-587.8452,-467.6875,139.2519
-166.3792,-185.0767,-279.5601,-102.3113,-204.3590,-329.4958,-466.7969,-19.6219,-75.6244,125.9586,-94.1886,-188.9803,-125.4569,-194.6667,-14.4416,27.9314,-546.7661,-448.7241,86.8083
-135.5172,-113.0573,-188.1913,44.4769,-90.5136,-185.5355,-366.5526,-132.7615,-126.8425,-48.8269,-81.9348,-101.9446,-65.1369,-144.4317,-44.2794,-76.5736,-349.2440,-263.6479,-34.2663
-74.5426,-15.4300,-56.9806,254.8559,37.6444,-0.3525,-184.4938,-183.1997,-139.9649,-170.0851,-50.9864,-7.1106,14.5498,-55.9182,-74.5322,-135.1254,-80.0933,-28.5169,-102.3583
19.2885,78.7189,116.7829,452.5309,159.4547,174.9388,27.8062,-135.9869,-90.4607,-216.0246,21.2344,66.3920,103.0416,38.2000,-48.1374,-138.2682,167.9918,175.0523,-84.4143
108.9576,158.0996,290.0138,609.0058,263.2738,281.1313,206.2430,-61.4836,-22.1705,-194.1410,107.3188,122.1148,186.0263,98.2949,-3.7076,-104.9656,343.7980,326.7776,-39.6982
152.6748,196.4759,372.2155,685.2997,310.9658,309.8034,281.7827,-38.8350,25.8674,-135.0422,156.5523,165.7631,241.0575,131.0210,32.5843,-55.6942,395.9187,376.4342,0.6340
155.4426,180.9309,341.5431,661.8859,273.6780,284.2935,256.9668,-58.0932,55.2245,-81.8179,158.9622,189.4651,244.7260,148.8237,73.9489,-13.0887,325.3975,301.4860,29.9863
132.1161,142.7116,271.4301,562.0259,204.5705,214.0957,208.2048,-63.4580,67.9531,-52.6234,140.7498,176.9263,208.4777,137.7763,95.2787,5.0341,215.4380,207.1724,29.9467
82.6300,112.2230,214.7459,423.2772,180.4743,124.6154,172.2587,-52.1598,59.3466,-31.2490,117.2638,122.3087,180.3544,100.2906,75.2508,5.1936,144.4228,193.3072,14.7454
38.2655,85.8862,183.0943,315.1108,209.6175,64.6842,141.1937,-51.8902,41.2809,-9.5157,88.2669,60.8676,187.1653,64.5172,45.0287,4.9032,139.5164,202.8236,14.8957
41.4459,59.3458,193.0287,296.8495,245.3684,42.5086,136.1957,-49.4500,29.8765,-5.3107,64.1977,32.4371,200.9753,32.6841,23.0329,-0.1388,194.3392,164.7551,18.1926
69.6539,38.7788,220.4827,319.6700,248.8233,13.5963,168.3121,-32.8836,34.4582,-11.9790,57.0053,15.2231,191.1060,-17.3057,4.0430,-17.8524,263.5458,142.9825,21.8117
66.5557,13.7159,209.1225,294.4516,237.1908,-49.2880,203.6511,-28.3676,65.4652,14.2509,50.8877,-25.0300,178.8430,-72.8695,3.0644,-24.0469,290.5314,183.2634,68.4038
29.2483,-24.4438,169.7596,224.7755,267.5544,-112.5706,223.2847,-27.7018,109.6324,66.6388,30.6576,-59.0453,200.0345,-90.8946,22.1292,-2.4619,264.7985,198.9519,140.5199
-2.2445,-48.0988,149.3564,167.4280,337.6365,-118.5458,219.2252,1.6009,118.6148,63.7196,26.7043,-52.2832,242.5798,-63.6510,37.9281,7.5734,210.1304,141.2871,141.2359
-5.8512,-35.1408,140.0906,144.2657,368.4140,-52.7245,168.6737,21.1034,77.8136,-18.0467,65.7123,-29.7444,264.5282,-25.9461,54.7767,-23.9663,147.7182,78.0129,59.3031
6.2810,-19.4098,114.7134,139.7185,321.0763,29.2690,94.4394,-15.2042,38.0186,-82.0743,101.0260,-23.5630,241.6801,-3.0830,76.3380,-51.4223,88.7394,29.0077,0.9761
6.2377,-39.3796,60.4700,113.6790,227.3268,45.0788,45.8791,-59.0584,26.0735,-59.2941,76.5189,-31.1917,170.9534,1.0494,59.5635,-31.4203,26.7070,-60.7219,1.4459
-11.4429,-71.8755,-31.4954,52.5723,113.4765,-30.2777,5.4695,-64.8540,3.9036,-10.7643,23.3893,-42.7313,73.7782,-16.7628,-6.6795,-2.9522,-37.1865,-169.7968,-18.4000
-17.3850,-76.6414,-115.2650,17.2061,2.0004,-129.0416,-56.7943,-70.2010,-44.7943,-16.2961,2.6231,-55.5408,0.4111,-53.5891,-59.7998,-18.3362,-64.1304,-215.9208,-86.8720
-3.7920,-61.0870,-118.4759,49.2070,-62.5018,-171.6611,-103.0556,-92.6400,-82.1542,-60.8722,7.1754,-71.8724,-14.8964,-93.6477,-63.0529,-61.3317,-40.8082,-185.9931,-150.4285
-12.1072,-54.8224,-72.2213,86.6558,-61.9574,-172.8404,-112.3152,-96.3809,-86.7743,-75.3779,-1.4115,-100.5973,8.5162,-130.2145,-48.0383,-82.9196,-30.8661,-126.4229,-180.8663
-61.9679,-68.1515,-64.5970,58.5972,-27.3338,-203.8843,-127.7223,-83.9450,-73.0957,-29.0080,-25.4222,-143.2343,30.3681,-169.7933,-40.3653,-67.8736,-81.2297,-76.4078,-170.6415
-111.1771,-95.1311,-92.0668,-24.8741,-1.6346,-264.1726,-154.1975,-82.0783,-50.8204,34.4550,-45.9553,-183.2190,35.4595,-199.8390,-33.1994,-42.1250,-143.9418,-57.7011,-103.6418
-125.9303,-123.4618,-109.4412,-115.1627,-6.1341,-290.2883,-140.6570,-81.9333,-25.8667,45.0051,-54.2646,-199.4437,30.4204,-196.0886,-30.7187,-39.8140,-162.9312,-65.9415,-19.8114
-123.8082,-141.4426,-123.2267,-166.2331,-22.5272,-274.4653,-92.4257,-77.9849,-15.7407,3.5768,-54.1027,-186.7941,21.1302,-175.4850,-50.8046,-62.9184,-153.8616,-80.1039,15.6118
-123.6355,-149.8976,-133.4045,-167.2388,-22.6515,-269.0759,-71.8096,-82.2995,-24.9819,-18.4847,-56.0060,-168.8438,8.6732,-183.6304,-87.7309,-80.5015,-145.3309,-93.9187,20.3155
-110.6402,-146.9705,-116.8134,-156.1505,-26.8078,-286.6066,-83.8434,-80.1295,-34.6126,-3.2093,-57.0765,-168.8554,-0.6153,-207.1322,-105.6288,-78.5461,-118.0606,-95.7209,37.7774
-68.6938,-119.4388,-88.3813,-139.8189,-57.9842,-274.0003,-65.1072,-60.3993,-28.3707,-14.5778,-39.9461,-158.5188,-0.6539,-177.2953,-78.7775,-76.4873,-52.3439,-69.2252,34.0938
-15.3728,-71.7119,-74.9939,-64.3163,-82.4763,-183.6973,-0.8005,-55.2356,-18.6874,-73.6572,-16.8382,-94.7662,-5.9677,-86.2225,-38.2802,-81.9940,17.2714,-44.3771,-36.3145
14.6045,-23.9967,-79.3554,74.1079,-88.0614,-38.0025,44.2143,-80.3239,-36.7053,-119.3279,-22.6545,-1.3274,-29.0339,-1.8532,-45.4245,-76.3536,51.6735,-49.6807,-149.5916
15.1291,18.5250,-99.5079,197.8417,-103.1513,88.9531,41.9728,-97.4669,-80.2390,-118.3693,-44.1214,68.6980,-37.0055,44.3192,-96.7831,-54.3208,66.5800,-47.4406,-245.9183
11.9518,53.8636,-108.7384,253.1835,-85.4379,157.9109,36.5382,-73.4525,-100.7172,-105.9611,-31.9899,116.0211,9.5748,81.6499,-112.3769,-32.5914,79.6978,-21.5444,-275.8379
14.7506,73.3725,-69.2344,256.9952,22.3614,196.1791,36.4707,-16.4155,-79.9111,-101.7927,9.6385,162.7349,87.7559,126.2745,-57.9254,-13.7874,64.2309,-20.2432,-234.9127
9.8538,85.7895,-10.0247,259.6416,140.3283,227.6518,7.5528,55.2545,-60.1287,-77.1426,31.2017,195.9177,145.0334,166.7540,-1.3987,18.7922,20.7716,-47.6278,-172.8039
6.6161,100.3322,17.6368,290.1300,162.4189,239.2732,-34.7758,132.9322,-57.7834,-10.2960,31.4034,194.2509,168.9349,185.3984,8.4093,70.9184,-4.7824,-68.9767,-121.1937
21.0374,100.3297,29.6024,299.7071,126.5983,218.5222,-68.8751,198.7203,-42.8511,84.1267,52.3354,154.8112,172.2627,155.0010,16.9450,127.1731,-27.9188,-101.2151,-72.5362
18.7838,81.1076,36.1563,212.7541,104.4695,156.3242,-127.9415,219.5905,-22.4894,167.7639,87.5728,90.7433,159.6339,71.8375,53.2958,160.7319,-108.3128,-133.2238,-50.8337
-34.7008,60.8963,1.1034,62.5383,81.6386,55.1204,-191.8719,187.2937,-22.8846,200.2483,86.0455,34.3067,138.3577,-24.0895,68.8353,146.7650,-203.6556,-77.9707,-67.0518
-93.2129,34.1451,-47.6945,-31.1197,49.7578,-32.4002,-167.5089,138.4200,-13.5577,178.3812,41.7195,6.6389,114.7448,-109.0673,40.0462,88.9384,-204.6066,62.2230,-44.0340
-92.8162,-8.2284,-35.9308,-22.2273,44.4153,-57.9018,-54.3063,104.8435,31.9586,142.8070,2.8659,-7.9602,88.9904,-181.3470,7.2528,28.4122,-103.1601,166.0898,58.1882
-48.9851,-34.9344,22.2904,26.4315,63.9160,-47.2244,50.6227,86.9518,73.5775,119.9152,2.1521,-20.5316,78.8958,-203.8294,-7.8358,0.9766,11.6502,187.3655,156.9281
-11.1773,-26.1015,65.1743,43.0785,80.1985,-28.0684,107.9401,91.3517,85.7715,101.5677,33.5552,-20.2841,102.6220,-158.9633,-11.2361,2.0271,79.9528,183.5436,197.3004
13.2209,-10.9904,85.1971,19.9707,93.7395,14.3442,134.1085,123.1095,95.0734,91.9973,73.9785,-10.4787,138.3382,-110.0770,6.4956,13.3763,103.9857,175.2442,216.2816
30.4560,-10.2872,81.3944,3.2888,104.8077,57.6252,127.5024,147.3117,105.8362,102.0421,89.1286,1.1365,151.9124,-95.9718,37.0440,29.3655,110.8097,144.9455,223.7134
32.9181,-9.9936,38.6191,25.9404,98.6107,73.5725,114.9590,140.2594,104.2381,113.3138,60.4923,22.7231,141.4250,-68.2024,47.9469,47.2010,129.4626,118.5406,202.2800
33.0533,5.0026,0.7480,84.1239,84.6663,120.8359,159.1686,137.8625,114.3710,118.7722,21.1976,53.9325,124.6335,-0.7004,43.2563,69.9396,175.7525,143.2529,186.5401
54.9818,42.5548,27.4774,180.4760,85.1815,236.3183,257.8480,164.0312,149.7776,135.2806,15.9307,93.2393,119.0931,73.0729,46.6959,102.6593,242.3947,222.2862,204.6298
89.8890,97.0020,93.2596,295.1405,92.2164,334.6324,328.7484,183.8009,169.3144,135.6842,42.9880,150.3817,132.8226,138.0085,54.6023,122.3440,292.6140,298.1830,221.1375
108.1483,136.2665,134.3346,348.0099,86.0616,350.9742,307.5408,166.5307,143.7758,77.4850,73.3578,200.0101,145.2929,188.8145,65.8984,99.7413,274.9748,302.4661,196.9748
98.6016,140.9126,139.2775,320.7771,76.9118,330.0912,215.7043,123.3835,94.5031,-4.2808,89.0901,199.9956,137.9257,204.8478,83.3662,54.4883,192.9657,241.7047,138.4572
73.5915,134.1551,133.2705,306.8003,86.4886,309.6286,133.1138,83.4309,48.2421,-46.9076,88.9562,172.2428,140.3243,204.5904,77.7899,29.2408,124.4823,188.3958,90.5644
56.2895,139.0616,137.4376,323.4116,99.4855,275.7041,101.5144,71.2340,14.6500,-46.3097,88.1075,158.0419,170.5606,218.5931,40.3134,31.9720,114.2870,173.0829,83.5337
61.6389,150.5244,163.1647,274.4177,82.0674,226.5900,88.0831,79.3815,-0.3626,-16.1742,97.2497,139.6992,177.5734,213.3142,21.9235,50.7821,120.9242,169.6374,65.2515
75.9603,157.8752,198.5608,163.9251,45.8467,164.8897,68.5956,74.1165,1.8990,34.8082,98.5514,103.6865,134.3927,160.4843,47.2008,75.5962,108.4462,167.1371,-25.7763
75.4822,154.8784,211.0742,106.2778,35.9433,85.2477,62.0443,56.0573,8.4563,64.9043,83.1013,82.0210,103.8672,112.5334,72.2081,85.3617,95.2574,167.0694,-119.8248
62.8607,142.0775,192.1013,129.7234,63.8887,16.4807,67.6168,61.4334,8.2706,52.1886,77.0533,83.7512,131.1100,116.2129,62.9285,73.3696,100.8397,157.3179,-102.2863
57.8393,136.1261,172.2422,171.5240,106.4558,2.4540,71.2883,99.9846,4.3039,41.2918,89.0560,98.3376,177.1978,153.2756,35.8867,70.6485,122.9195,140.7128,-4.6110
71.1098,154.4412,178.6003,197.1034,143.6806,49.1549,88.6401,154.7845,9.2526,60.0781,102.6614,139.9166,204.4000,204.3933,27.3443,98.5780,153.1919,133.8227,52.5959
102.0620,193.2246,202.1401,210.6589,152.1911,131.4977,116.0590,200.6452,22.2275,73.9846,119.7909,200.2354,205.6682,263.7734,55.4908,132.3496,176.6237,139.4678,33.6095
131.4978,229.6665,208.0872,232.7592,106.5651,220.0939,121.0503,190.9545,23.1623,45.7604,124.9868,245.0752,159.1697,310.6396,89.2949,132.5005,183.6900,160.7392,-8.7535
127.9659,237.9537,168.3832,281.7603,31.3044,303.9592,124.4430,118.9509,13.6489,-18.4740,78.2601,283.6079,82.5915,348.2417,83.5374,97.2381,182.9892,196.4628,-15.8254
95.3855,216.9295,100.4189,331.7900,5.4494,389.1266,166.1115,66.4223,21.2857,-56.7742,17.1596,328.7788,64.8161,399.1767,50.2763,80.8707,179.6315,207.9734,25.8693
78.3951,197.5384,66.0255,345.2372,66.9990,439.5785,192.5556,80.7309,34.5678,-8.8343,31.4024,340.0519,125.6168,426.5292,27.7597,124.7887,159.4930,148.8778,56.2074
89.3000,193.3753,90.1563,326.9155,137.7149,387.4381,119.4992,98.2249,7.0429,72.8500,98.5563,299.7413,159.3139,371.4604,14.7936,175.6154,97.5108,26.9163,6.5483
85.4958,179.0441,107.9195,280.3034,107.1283,257.8251,-23.9463,81.8202,-52.8238,88.1590,111.5187,242.9046,107.2032,268.6102,4.8442,164.9561,-11.8832,-91.6534,-95.3269
45.5857,147.4023,64.9466,191.3668,-7.0193,160.3217,-135.9969,79.8221,-90.6255,59.4100,59.1181,180.0265,39.3628,200.3974,10.1203,127.4711,-119.5864,-140.6937,-173.7723
1.8660,123.4904,12.8031,84.9198,-81.8563,118.2319,-192.5861,89.5480,-108.0185,46.2704,17.5427,110.6992,11.1949,166.8490,16.4744,108.0903,-174.3504,-132.0159,-224.8954
-20.2744,109.2295,5.6417,3.1054,-83.8652,61.9997,-246.2599,41.1369,-147.8401,-1.0491,12.9261,72.6328,-6.5441,120.8686,0.7324,62.7762,-205.1375,-141.2610,-284.5114
-33.3701,83.6070,-4.4412,-49.0415,-94.4283,-14.7463,-294.8122,-61.5621,-194.6562,-98.7721,12.9625,71.7102,-38.8642,72.6075,-28.8644,-18.9304,-249.8008,-184.9927,-331.4995
-52.1868,43.5941,-58.2247,-87.1642,-139.6451,-61.3475,-283.4809,-141.7914,-203.4785,-152.6619,-6.0511,51.2471,-72.8952,46.4319,-66.3999,-69.0063,-265.8625,-203.2919,-322.6075
-76.0975,2.7801,-95.9005,-129.4453,-163.9109,-88.8923,-240.1579,-171.3718,-191.5510,-151.5402,-41.8882,-6.0180,-92.2314,18.4028,-109.7223,-84.6442,-233.8907,-179.0997,-276.4647
-102.2309,-16.2023,-71.8919,-178.4250,-150.0948,-131.1550,-243.5637,-172.8166,-196.2240,-159.6248,-76.2663,-46.7579,-84.0213,-12.4561,-129.4980,-106.4883,-212.9357,-136.4927,-236.7552
-117.0001,7.2644,-32.3034,-191.7875,-118.5047,-143.6906,-252.8688,-146.0814,-189.7687,-135.6580,-91.5016,-36.9168,-54.1838,4.1660,-114.4699,-93.3829,-192.0267,-54.5046,-183.6080
-94.3104,48.2745,-13.2421,-143.1990,-68.2325,-66.1366,-161.1178,-81.3123,-127.8033,-41.4630,-82.0663,-3.7173,-26.6125,64.7859,-90.9504,-20.0834,-88.5247,65.1153,-72.5629
-39.4285,51.2013,6.6693,-84.3917,-16.2984,58.3696,-1.2209,-9.5767,-35.5309,29.3565,-50.2585,5.3425,0.6939,94.4720,-66.4902,34.1351,58.1643,136.5801,57.7759
0.2994,11.4205,28.6356,-66.4612,-3.6770,123.3817,92.2812,19.9581,26.7557,34.3000,-14.7827,-28.1847,32.3297,62.3011,-37.3478,31.8545,117.3533,115.9643,126.5876
0.4107,-26.7901,25.6937,-82.5782,-28.8056,94.3016,75.7132,-0.8606,41.5819,45.2117,-7.1356,-78.0929,26.3382,6.6151,-20.6026,25.2814,74.6611,62.6401,133.2508
-12.4961,-42.8225,7.4226,-116.9104,-57.4523,30.3544,14.6899,-37.2910,30.5075,61.7025,-26.8926,-111.5928,-28.2677,-38.4237,-17.2129,21.2455,26.7115,37.4055,127.5324
-18.5595,-45.8732,4.1134,-143.2756,-71.1909,-7.1446,-7.2064,-55.4419,16.6445,28.8486,-45.2781,-126.3896,-60.1700,-57.5572,-17.9392,-9.9637,34.2636,59.6577,119.1134
-31.1592,-46.1561,5.6483,-125.9044,-61.3956,-9.9639,43.9391,-47.3303,16.5233,-18.9548,-62.1381,-126.6200,-39.9486,-46.3897,-35.9024,-42.7535,78.1676,117.0776,104.5912
-52.6071,-52.4431,-16.2655,-89.5125,-29.2092,-7.6009,104.6059,-33.0099,32.0582,-35.7275,-85.6968,-105.6379,-23.2564,-28.4044,-49.1277,-50.9791,94.2624,149.8251,89.9218
-65.4588,-59.8535,-49.2400,-73.1317,3.7056,-29.2178,89.5383,-44.6156,41.4302,-50.1293,-89.1300,-75.8475,-22.2538,-23.0141,-12.8614,-56.7921,46.4709,121.0639,57.0146
-66.8246,-51.6404,-65.8495,-41.4255,14.6536,-60.5227,26.7908,-76.9855,24.4655,-77.5299,-64.5975,-61.6203,-4.4739,-14.3729,27.1468,-69.7799,-10.1294,83.3432,12.4863
-60.5744,-33.6674,-77.4989,16.4731,-10.8964,-60.0885,-1.9606,-74.5933,-2.9863,-84.8772,-50.3360,-59.5037,-1.7649,4.1288,2.3497,-70.4598,-8.0221,77.6285,16.1215
-41.5856,-28.3790,-97.9954,20.3590,-70.3363,-44.2185,5.8033,-16.0608,-3.6874,-52.6271,-59.4891,-54.1791,-51.4641,12.0256,-36.1871,-48.0196,20.4419,64.9874,74.2438
-21.6620,-41.0901,-100.7616,-53.1166,-122.9106,-71.4328,13.7973,40.6930,27.8627,6.5491,-68.2420,-50.9095,-100.1300,4.0031,-24.4737,-8.9164,5.4200,16.6595,124.1596
-26.4951,-66.2886,-79.6567,-119.6133,-137.4630,-125.3130,0.1093,52.3627,48.7841,59.0737,-75.3996,-57.9926,-98.5233,-11.9131,-11.6695,24.4568,-58.0999,-56.8529,147.0957
-49.2733,-92.6304,-80.6831,-132.2101,-148.1778,-139.5746,-67.7753,51.0498,23.2398,76.8519,-93.7124,-69.9349,-91.7972,-31.7823,-35.8902,35.1278,-136.9552,-154.2970,149.4345
-57.4969,-98.2515,-118.3047,-127.0573,-188.2894,-118.1768,-171.9274,69.4781,-24.4582,73.2626,-110.3440,-82.4201,-128.3516,-36.8837,-47.6088,40.4420,-202.8779,-254.4831,101.6776
-49.7659,-85.4660,-154.9013,-135.2075,-231.1302,-94.5099,-229.6379,90.0757,-51.8392,69.2224,-112.2022,-97.5140,-176.2464,-17.7709,-34.5779,52.7174,-234.1780,-308.6496,24.5319
-52.2528,-80.4226,-175.0106,-140.0746,-246.2273,-45.0896,-230.6459,86.2876,-66.0672,48.7019,-110.3737,-107.4050,-179.8954,-1.3042,-43.4937,46.7069,-228.4544,-305.2640,-7.1227
-61.7438,-75.1895,-174.2570,-106.4271,-222.6798,39.5142,-223.9722,49.7928,-89.5579,0.8493,-112.4289,-87.4331,-139.9301,7.4221,-69.7545,15.6774,-192.6396,-266.5619,-7.0912
-48.4474,-47.8395,-126.8075,-42.5015,-152.2893,98.1237,-184.3068,-13.4218,-102.9518,-50.4827,-107.4142,-26.5464,-106.3217,33.7027,-76.1681,-10.8740,-129.2272,-216.3984,-46.0573
-15.3451,-23.9317,-52.1852,-7.0020,-74.3788,82.0223,-97.6789,-80.1675,-91.6199,-80.7422,-90.7054,35.1259,-106.4437,50.7015,-78.3203,-24.8749,-65.1119,-187.3456,-101.3047
-1.9782,-30.2601,-12.8728,-19.2532,-58.5836,10.0846,-57.3560,-124.6937,-86.8782,-80.8597,-80.6289,38.9482,-117.9894,7.4298,-102.4075,-40.3167,-41.6069,-179.3225,-115.9034
-23.4429,-42.0860,-14.6351,-49.9857,-100.4759,-61.9842,-100.0150,-131.6521,-99.6786,-58.7037,-88.8704,-17.1877,-122.6520,-64.7105,-116.3987,-52.2345,-64.3063,-145.5317,-117.5838
-54.1357,-40.7462,-28.2557,-102.7519,-139.4097,-86.3597,-136.5311,-88.0525,-93.5237,-30.8740,-92.7560,-81.9053,-126.2168,-95.4428,-87.1438,-44.1700,-115.0144,-91.5711,-137.4092
-74.6231,-43.0339,-61.2028,-165.3794,-153.7379,-72.4317,-128.0986,-9.9250,-63.6462,4.9924,-77.6159,-112.9928,-119.5661,-82.2287,-54.1750,-14.1958,-169.6425,-77.4776,-129.5930
-84.8530,-50.0276,-101.5074,-165.5850,-141.8245,-71.9745,-117.9758,42.8981,-44.9327,46.4453,-68.7100,-98.2776,-91.2929,-63.5017,-61.0446,16.1381,-182.2508,-90.6253,-60.6105
-82.9172,-49.9234,-99.1948,-115.8621,-95.9328,-99.0250,-105.9045,42.8829,-32.2787,64.9909,-72.7320,-61.9520,-61.4979,-60.4460,-68.7669,20.8922,-143.3637,-67.5480,25.6196
-75.8437,-51.3502,-58.5562,-125.5865,-49.3041,-143.2969,-76.0305,34.0742,1.0713,74.3244,-56.6020,-61.9113,-43.1236,-84.4934,-34.7863,14.2663,-123.5489,-17.3918,71.3889
-82.4768,-56.7219,-27.5339,-197.7039,-39.4024,-218.3556,-69.0011,51.4559,34.2121,124.5834,-19.7436,-111.2194,-20.4298,-122.6775,5.1269,35.7341,-170.4316,4.7661,73.1778
-101.2681,-56.0713,-18.8593,-249.6079,-38.2051,-293.4961,-113.8157,84.6033,42.0663,195.0805,2.2813,-143.3155,3.2366,-133.3003,25.9885,80.7781,-253.4314,-23.8764,75.5567
-117.2828,-63.2187,-31.4775,-289.6454,-14.7269,-291.6328,-180.8473,126.4125,45.1605,231.6177,6.5545,-127.8930,8.9962,-115.5265,56.4384,114.9299,-345.6000,-100.5664,111.6903
-134.5947,-91.1490,-69.2990,-336.1819,1.4932,-226.3144,-237.0693,157.2596,46.4687,237.1297,4.8010,-120.5053,4.9928,-116.2961,76.5331,125.2610,-426.7395,-188.9114,148.0576
-152.4676,-109.5580,-109.5971,-311.7820,-15.4834,-173.4816,-267.4376,123.0378,13.0497,196.5414,-15.9389,-136.4913,5.0901,-131.5629,44.5671,95.6765,-430.1038,-212.4768,118.8179
-144.1787,-87.2345,-129.4471,-186.6360,-33.7947,-111.8840,-240.5539,26.3783,-34.5713,76.2533,-48.4857,-112.7030,9.5286,-97.0522,10.9879,21.7231,-316.5348,-136.3497,32.7061
-101.6959,-42.6048,-123.3530,-39.3396,-8.6378,12.5018,-122.6618,-45.6172,-29.7083,-39.2524,-62.1946,-32.4644,24.2382,-4.0421,23.3763,-31.1087,-143.0725,-16.9789,-20.4088
-50.9448,-9.9036,-76.5002,71.9015,54.6484,138.7823,50.5240,-53.8972,25.2771,-44.7413,-57.3520,42.7188,43.8701,73.4330,29.4902,-11.5368,9.6719,68.8287,-7.8341
-10.0755,8.0470,-5.3081,131.2717,99.2794,180.1275,170.0634,-51.8415,63.1679,-4.8496,-43.5611,69.8529,47.6281,87.4697,12.7322,21.4423,100.7764,104.9737,-4.3081
17.5195,25.3418,32.3977,123.0866,92.6024,150.8711,179.0931,-67.7800,60.5953,-20.3888,-10.7964,62.5079,47.6156,69.4543,28.5972,6.7854,129.1753,129.4555,-42.4863
30.1546,38.3614,36.7472,78.0360,77.2011,110.5760,150.0295,-67.2605,52.5737,-47.8576,25.6256,54.3662,67.9958,60.9537,56.0080,-17.5688,138.0354,159.3219,-34.2823
37.3145,29.3603,53.5391,53.7535,91.3038,91.6045,166.4742,-31.9126,67.1534,-20.1815,26.8593,59.5232,77.8480,60.6039,35.5973,-5.4086,168.2979,160.0797,74.0389
47.3870,0.0029,68.3294,44.5882,100.0331,99.8589,211.0737,22.8895,103.4509,30.4967,-3.3364,56.2458,44.1005,55.5848,8.3665,23.3610,202.1301,129.9447,206.0289
50.9760,-21.7926,57.7075,10.7374,80.0887,106.5669,234.9612,83.4530,144.4165,57.1990,-16.9759,28.6542,12.9428,47.7014,30.6954,36.6415,206.8477,132.6911,288.2148
42.1143,-20.3265,50.8852,-44.2097,75.2005,63.9919,226.5577,135.2388,169.5033,72.1762,19.8307,-0.3006,41.3810,32.0517,73.0013,37.6649,173.9910,176.4382,329.6008
24.2135,-13.7587,44.8384,-91.5879,111.0093,-32.1994,181.4556,166.2253,176.2961,112.0619,90.0063,-19.8386,109.8017,2.6044,106.2916,52.7774,94.4762,182.7836,343.1980
-3.3645,-23.8201,15.2943,-123.7583,160.7070,-125.8767,110.0928,181.7242,178.0043,170.6415,135.5163,-44.6978,166.8195,-15.4294,140.1253,88.4961,-12.9820,120.0774,337.1275
-27.1459,-47.9844,-1.9863,-152.1985,199.6414,-156.8330,49.9819,181.2970,173.1105,190.6378,124.1798,-54.8248,188.6137,3.1635,159.5609,111.2469,-86.0662,25.2770,348.4673
-27.9768,-69.2227,-0.8764,-175.6296,204.4002,-124.7845,3.2110,153.9963,145.9217,161.5416,90.8703,-28.3699,166.5471,25.3898,140.1803,103.1984,-110.1963,-76.8630,365.8736
-21.7707,-68.8768,-36.0982,-166.0719,150.9953,-77.1414,-58.8962,107.3700,89.5724,133.2631,71.7157,-3.5139,106.9144,6.4278,89.5632,84.9084,-126.5382,-143.3662,306.3808
-20.6202,-30.1463,-68.0075,-109.5108,74.9515,-23.0398,-104.9037,51.2040,15.0515,80.3436,62.6651,2.0182,51.1427,-17.4339,39.7178,48.4468,-115.5227,-107.2206,138.1797
10.4965,43.0953,-6.8339,-32.3981,45.9196,65.8524,-70.6639,-21.0343,-46.9110,-53.3604,70.3155,30.7432,40.4152,18.6818,31.8396,-22.8720,-19.4952,8.0643,-81.9113
78.1499,116.2990,99.0995,46.2687,67.9931,154.1835,26.0481,-92.4466,-69.1599,-181.6441,105.4288,77.9700,69.4332,81.3809,67.5210,-79.9582,129.0620,110.5936,-285.5767
127.0512,159.6030,163.7715,134.2604,102.9872,182.2787,111.9961,-128.1023,-60.7327,-199.9380,139.1156,103.8171,111.4818,93.5283,89.0634,-83.3895,242.5475,183.0716,-400.9106
135.8865,176.9615,212.3467,218.4081,150.5464,192.7743,172.3504,-135.2114,-38.9542,-169.5565,150.3567,137.8487,153.2632,81.5735,74.9114,-72.4519,294.9177,256.3187,-361.6090
134.2623,176.7107,247.5703,261.2343,207.4516,243.0892,236.3372,-135.6242,6.4874,-159.5582,152.5613,195.5350,175.8749,111.7475,73.9067,-67.7183,311.1215,312.4006,-202.7156
120.5153,149.0445,205.5928,239.6089,222.4022,268.5832,286.9133,-111.4493,69.1909,-127.0748,137.2179,194.8983,155.5446,136.7115,97.7748,-47.4440,303.6804,335.7326,-57.6037
78.1784,102.3041,122.6253,163.0163,175.2477,208.2912,285.4537,-62.4711,105.5855,-69.4881,95.3465,104.8150,111.6223,82.3263,105.0850,-31.6889,272.7784,359.7962,-8.4853
34.4777,70.9727,87.4064,87.3869,122.8078,130.7944,255.1949,-37.1484,106.4602,-35.4259,70.5432,15.3362,95.2887,5.4998,91.2856,-36.6276,227.3613,391.1320,-11.4278
17.0470,60.7769,70.2454,72.2937,107.5992,102.0516,235.9083,-45.9137,105.5061,-8.7869,86.2612,-13.4197,111.6205,-3.0136,79.3397,-23.7517,179.7751,376.4150,13.2990
17.9455,51.7832,16.6228,96.3146,99.4004,93.9284,198.2518,-49.0678,105.6624,30.3743,102.6171,1.8433,117.1202,37.0067,76.1010,15.1693,127.7503,284.8280,65.4953
28.0134,58.5703,-23.7531,103.1642,69.0937,81.0854,110.9408,-44.5870,86.1197,68.5169,106.0448,48.7093,99.0300,72.1305,88.0421,56.6909,56.9251,168.6579,71.0697
34.8756,97.1598,-11.0940,95.3228,45.7011,72.1061,17.0411,-59.7729,51.6177,120.4196,121.0885,97.0934,90.4226,100.1288,102.0842,108.2416,-27.8308,98.1299,1.1316
12.4219,116.1226,0.6626,71.5477,58.4872,59.2815,-50.0888,-84.7373,14.7261,167.0805,128.0204,85.0420,103.8351,111.6014,87.7837,149.1497,-101.1374,56.4871,-74.5016
-33.1415,67.0588,-30.4776,-4.4342,75.1900,36.8069,-114.0890,-101.3258,-18.1100,149.2803,88.6291,11.7553,99.8807,78.0584,61.0924,130.3751,-150.9446,-16.4798,-94.5571
-54.4886,2.2982,-62.3370,-82.1515,44.8185,14.7204,-163.0415,-125.2525,-38.8325,94.5570,26.7472,-57.4753,44.9752,14.2843,44.8781,75.7656,-156.6241,-82.0964,-88.2414
-21.3690,1.3246,-21.2641,-55.7472,-21.2569,3.5687,-141.3822,-170.8285,-59.7941,45.4044,-1.4821,-81.2418,-21.5597,-29.7192,4.6839,26.4648,-65.5865,-45.8868,-99.7111
55.2310,55.6565,112.2593,57.7666,-62.3692,37.3634,-42.6432,-227.2374,-91.1520,-48.3657,16.8978,-55.0451,-33.1573,-15.1943,-57.9341,-36.7162,120.6076,64.5151,-123.3553
143.8607,107.3671,263.9771,161.8687,-56.3456,135.1793,89.6286,-278.3505,-96.5926,-168.0141,51.1278,13.5741,-2.0364,57.9069,-72.5730,-92.6752,295.3720,130.9407,-150.7329
204.1035,134.6698,335.3511,234.4804,-36.9991,218.6301,197.2125,-311.9767,-62.3186,-194.3801,72.4774,94.7360,7.3337,127.8721,-43.1941,-81.2271,359.9865,119.8356,-192.2380
205.6303,139.7213,309.9846,281.8672,-26.7674,199.3858,215.4289,-319.5674,-43.4212,-132.6080,72.4586,146.0325,-7.9452,126.5614,-44.3487,-37.0079,321.7904,84.0104,-224.6919
157.4722,111.1676,239.3018,263.0202,-19.1166,117.7012,152.6619,-295.4651,-50.7149,-78.4204,46.8502,136.9698,-14.9842,71.9489,-69.6668,-22.4600,247.1605,55.0995,-187.1263
96.4005,42.9427,155.9337,156.1922,-24.2799,49.1879,103.4733,-244.0212,-26.1551,-28.5877,-3.0834,64.0403,-32.0117,15.4422,-69.9771,-14.4182,179.4715,27.0002,-69.9732
43.7069,-36.6495,64.5094,2.3927,-60.2708,-25.5301,88.8621,-197.8011,19.3501,35.0943,-47.7035,-29.2275,-73.0348,-51.1330,-63.6639,2.0046,109.3730,-8.8016,30.6725
-4.9264,-80.4977,-21.9285,-129.1803,-111.1586,-121.3350,31.0040,-184.7242,15.1720,64.1064,-58.3790,-86.5724,-100.6935,-129.3172,-72.6493,-3.8113,10.0457,-41.6807,15.0537
-47.4503,-73.4195,-85.0452,-187.7338,-150.6506,-168.9897,-69.1011,-171.7061,-31.1718,56.7845,-53.5420,-108.3003,-106.8122,-161.8689,-74.5387,-15.9334,-88.9427,-49.6635,-77.0205
-66.9523,-56.9943,-120.0078,-194.2544,-170.6597,-148.7008,-124.3253,-117.9887,-57.3509,54.2138,-57.7968,-127.2220,-112.7399,-138.3282,-70.2615,-7.4310,-125.2554,-50.6490,-113.3107
-67.8861,-78.1790,-138.4005,-212.4779,-163.8849,-144.8717,-121.7476,-56.2844,-46.9246,64.2159,-60.6237,-149.3909,-100.4848,-127.7977,-74.6275,2.6305,-116.5131,-89.5000,-51.3350
-73.9949,-121.7371,-152.5848,-244.6923,-136.2640,-196.2929,-115.3322,-27.5585,-18.2245,92.5028,-60.0534,-168.4779,-72.3037,-157.3430,-67.6271,10.8353,-129.4635,-145.1627,25.9858
-79.3578,-136.9683,-156.9935,-251.6685,-125.9059,-242.7903,-118.7416,-16.3281,-0.0801,110.2508,-71.9286,-173.9080,-85.8746,-177.9088,-48.0916,16.1851,-151.2702,-162.4360,35.1970
-61.9657,-119.9937,-142.3566,-243.1575,-152.9859,-247.7227,-115.6478,-30.7133,-27.5748,36.3492,-86.5386,-148.9005,-140.3267,-164.7365,-58.7449,-26.7263,-127.2144,-159.5238,-33.0616
-34.3496,-111.8848,-111.4790,-236.6537,-185.8532,-235.2470,-95.0811,-109.2427,-83.0514,-109.0678,-89.8642,-120.8694,-164.6403,-152.2870,-102.4361,-117.3991,-64.2874,-168.2964,-127.5361
-16.0828,-123.2520,-62.8846,-209.1114,-186.2050,-211.7129,-49.6399,-204.8265,-102.9614,-208.2810,-89.6308,-132.5450,-136.9928,-159.9038,-119.7923,-184.9495,4.3423,-155.7966,-185.3149
3.3625,-121.0531,-4.3171,-154.3906,-142.2161,-162.5356,1.2732,-225.9615,-82.3153,-245.5151,-78.4069,-140.8949,-84.9195,-150.5322,-81.8284,-205.0036,64.7926,-117.1145,-200.1374
24.3906,-92.0825,25.1139,-87.1810,-69.2467,-101.7998,28.8980,-187.9203,-72.0119,-275.4520,-50.9372,-85.3752,-29.8484,-97.6544,-41.7025,-205.2552,102.7067,-99.6894,-209.5438
24.9412,-67.6200,11.4774,-14.0741,-11.2099,-55.0266,50.7458,-172.9125,-77.0248,-279.6575,-47.1523,-17.3413,-5.2210,-45.8011,-56.1768,-192.9989,126.2081,-89.1421,-201.7362
7.0727,-74.7595,-4.5945,23.2320,6.7469,-31.1165,96.3597,-187.8883,-55.9007,-236.4089,-82.3838,-8.4283,-19.3407,-39.7106,-90.5803,-169.9826,154.1810,-44.3608,-134.0308
-11.3255,-101.9206,-14.2599,-18.9421,15.6724,-35.3375,139.6501,-175.6865,-1.7295,-172.6202,-102.0021,-29.7440,-21.3702,-49.4084,-78.7032,-137.4539,146.5426,-14.8397,-30.3030
-28.8082,-124.9523,-58.1486,-96.1112,32.1583,-60.7824,135.4700,-109.5876,45.2196,-94.5128,-81.5924,-35.5080,-4.9467,-40.8858,-47.0178,-84.2199,73.3538,-57.5229,66.2432
-46.1825,-143.8527,-130.2644,-153.1523,20.9868,-79.1585,92.0300,-17.6620,60.5906,-19.6509,-73.1278,-41.4373,-28.9266,-37.6181,-56.6004,-35.1047,2.8911,-121.9121,177.6028
-70.0484,-176.6494,-193.1458,-215.9493,-25.2760,-83.7507,52.1467,46.3158,67.6912,5.9427,-110.3612,-70.5826,-83.8068,-55.8376,-77.1830,-30.1477,-25.5449,-141.6053,300.7390
-113.5647,-218.4934,-257.4073,-283.6945,-73.1247,-100.7276,21.8550,50.2528,79.1132,-0.8564,-156.9293,-114.7122,-102.0173,-81.3153,-65.8476,-47.7765,-72.7138,-137.2289,342.0797
-150.3201,-233.4720,-319.0924,-287.8677,-117.8073,-140.2607,-34.9070,14.8332,54.7020,4.9373,-164.9399,-147.1736,-91.3543,-120.9171,-71.2960,-53.9471,-145.9744,-157.3174,259.4124
-139.9262,-208.5947,-314.8003,-247.1894,-165.8236,-196.3133,-121.6274,-18.8693,-14.6798,14.5602,-134.6760,-154.6093,-107.9902,-180.1302,-119.3580,-59.0128,-183.2950,-200.4276,144.5768
-106.2613,-177.9026,-238.0761,-265.9445,-196.4991,-272.1306,-182.1602,-34.5189,-58.3807,29.9404,-106.0497,-164.9759,-153.5305,-226.9365,-139.9433,-57.5643,-196.0968,-230.0455,77.2241
-90.8160,-158.4161,-169.9566,-329.8125,-205.7059,-332.2796,-179.2045,-39.9019,-47.6097,65.0259,-103.9246,-183.3677,-190.8339,-230.1721,-110.7199,-31.2554,-212.0249,-223.5795,21.2884
-76.7549,-119.6565,-148.6338,-302.2939,-205.2520,-288.2651,-133.9783,-45.0509,-45.4030,68.7311,-114.5027,-142.7515,-193.8099,-173.2789,-100.1144,-6.8370,-175.3500,-188.1520,-66.0116
-49.9731,-55.3868,-137.9167,-156.1286,-178.4583,-121.5523,-73.9150,-39.9034,-73.7082,13.9305,-120.8449,-36.6506,-160.6741,-61.7925,-125.0530,-4.1235,-77.0815,-139.4702,-144.2241
-37.4714,-5.2500,-112.0664,-29.5564,-124.1398,51.2031,-23.3330,-3.1427,-87.7549,-33.6693,-115.1017,22.6385,-116.1898,34.2950,-132.8544,-2.0495,-7.5374,-83.1634,-174.2796
-34.4262,23.1801,-71.3452,-3.9320,-82.9170,124.6661,-13.7988,44.6273,-84.7740,-40.9320,-79.6094,-1.1775,-78.5147,53.9070,-107.5343,1.6119,7.5621,-21.4230,-179.0813
-9.5341,56.4951,-21.5819,11.8209,-60.5731,133.1811,-22.4822,52.7499,-80.2147,-41.1933,-18.6726,-6.4968,-39.4979,51.8837,-70.5347,-0.9588,27.0867,37.7043,-158.3988
20.5263,79.5147,14.4570,90.7695,-15.8084,152.7574,18.9987,36.9724,-42.2984,-36.0300,22.6783,51.4565,3.0480,92.7419,-31.8211,7.8939,59.2261,80.3407,-63.0134
14.9069,60.8400,15.1158,145.5039,60.6785,176.4774,95.1234,69.5107,27.1130,-5.0517,20.2419,109.9690,44.1858,131.4887,-5.5419,32.7560,59.3737,89.4021,83.7667
-28.2639,27.9225,-15.6444,94.8615,133.0608,171.7506,101.5696,153.9473,60.0683,49.3412,1.7654,123.4152,85.4467,127.1312,-2.5235,66.6164,4.7968,58.8198,164.4536
-71.7315,24.2469,-56.8268,4.3450,165.9728,153.4021,9.7286,218.0348,35.5311,113.9189,4.6446,88.8107,108.9896,114.9447,1.6261,112.8851,-86.3637,5.1374,126.0177
-78.9180,34.2671,-74.0429,-55.8819,142.7110,122.1054,-85.4537,219.8662,2.2854,146.6886,32.7151,26.0942,92.3648,97.2978,20.4453,137.5128,-157.7213,-43.6453,46.7015
-64.2775,21.0431,-51.6344,-110.4370,75.7596,48.3549,-110.3942,177.6733,-12.1278,115.3380,41.0115,-19.2915,46.8393,45.6378,18.4067,101.0340,-173.2428,-61.7167,16.8164
-76.7215,-6.9335,-34.0963,-166.0225,8.4550,-33.6379,-101.4561,134.6854,-18.9742,75.7122,-6.4245,-34.4859,-7.3842,-2.5832,-21.0303,51.4049,-172.6914,-43.1253,44.4920
-106.3718,-15.7615,-53.2598,-197.7399,-19.7259,-55.0575,-116.9800,127.7202,-30.3731,80.2639,-53.0284,-44.2337,-42.1635,-7.3661,-55.6792,46.1551,-183.4287,-18.0349,77.4744
-102.3885,-3.8970,-55.7909,-254.2438,-3.5447,-43.2239,-141.9597,150.0013,-46.5957,90.9941,-33.0919,-39.7281,-13.5048,-6.9664,-56.7626,55.2224,-166.9337,-17.0177,70.4021
-83.9602,-3.4690,-10.0930,-388.1323,30.6106,-74.3895,-134.8634,169.4400,-51.6867,94.6379,-7.1582,-17.3660,41.9895,-36.8304,-49.7478,53.1922,-128.5977,-30.2762,37.5249
-89.5309,-23.7518,25.2678,-535.7846,55.8028,-129.4334,-100.8043,187.2493,-34.6450,119.6676,-42.6715,-13.7902,25.3254,-64.6465,-54.1998,63.0101,-109.2752,-39.6370,24.0077
-80.1803,-31.9260,32.1768,-613.1251,80.4605,-131.2192,-52.0410,206.3718,-13.6654,121.1249,-69.0001,-12.2166,-24.4097,-46.8133,-52.4051,70.2339,-66.6318,-41.2073,33.0905
-37.5275,-12.5432,62.3109,-632.3939,122.3535,-63.8269,20.0730,194.7805,-1.3404,69.3969,-31.0895,29.4178,15.8203,12.0504,-35.5960,54.4672,30.0959,-16.3086,44.1896
-17.5049,9.5852,100.1268,-632.0948,155.3200,36.6569,85.2545,166.5389,16.2112,45.1044,5.9095,64.6971,98.1639,65.3713,-14.9940,53.7313,94.1682,42.9291,59.9462
-22.2917,29.1260,91.4086,-607.8850,143.0230,132.8666,95.2530,186.6052,34.8098,74.9791,16.4944,58.1404,102.5026,85.1976,10.5067,81.1194,82.3382,96.4875,64.8208
-1.3389,66.8085,70.2570,-557.2451,98.6742,190.6959,71.8457,237.8734,33.8614,89.3290,39.8552,78.9534,73.8684,102.2937,40.3565,100.5657,70.9682,117.4546,33.2020
32.3016,110.5622,85.5119,-494.3828,60.3703,199.1698,67.6803,239.7843,27.7690,98.2390,52.7776,158.4671,84.8714,146.7711,54.1274,120.9312,90.2698,121.4956,9.8406
50.3389,130.8265,99.0361,-422.4202,48.0025,180.6601,86.2528,201.0790,41.2965,145.8308,32.1269,236.5611,80.4592,195.0299,47.9092,163.4790,102.6198,106.0185,41.9466
66.4069,130.2708,70.1119,-354.3300,59.1575,161.5280,114.4536,197.6525,62.0032,171.7773,21.1372,276.9563,40.1458,221.1246,42.3206,186.5181,116.4241,74.9608,81.0873
59.4064,118.2581,23.4564,-323.6701,76.2690,159.3551,147.8732,250.5840,76.5292,151.2770,18.4197,266.0105,32.3598,222.3934,40.9377,171.6251,136.2468,88.6508,95.4497
7.4999,95.3127,-2.4532,-338.0722,96.2808,170.7150,163.6646,328.2542,98.3550,173.0157,-1.2446,192.5193,63.4793,189.2924,41.1190,171.7218,118.4018,160.8480,130.6745
-25.1515,82.7091,11.3711,-367.2318,132.0532,158.1736,146.1892,377.0370,120.2420,235.7520,15.0191,118.4093,92.5800,134.3518,60.1841,195.9771,69.5359,202.0418,162.0204
-3.4647,90.2347,47.2021,-385.7293,151.8130,100.8422,100.1775,329.1751,101.8311,225.7184,75.2985,107.6407,113.8076,94.0448,84.9161,182.0628,36.2729,163.9251,106.5653
5.0928,84.9284,50.3638,-384.5862,115.2964,26.3355,28.4628,188.2909,36.4681,135.1485,84.1865,116.7032,114.2411,59.9393,67.1874,113.2617,16.4213,105.6150,-3.2026
-21.5128,54.1506,12.3200,-356.6233,74.1337,-46.7110,-33.8720,60.9197,-22.9843,61.4975,33.4777,97.0314,86.7034,13.3430,19.2054,47.1597,0.6215,64.9964,-81.4083
-28.2596,27.0497,-11.5267,-308.8148,82.8576,-110.2453,-42.5420,28.2296,-37.2099,37.7932,5.9459,70.1535,66.0914,-6.8610,2.1695,26.8789,2.4313,9.6872,-127.3081
-14.2299,14.2523,-5.3547,-256.0388,85.8266,-110.8141,-36.0691,72.8815,-32.0407,37.4980,-5.9913,49.2041,54.7898,14.5423,8.9225,40.3591,5.8362,-63.4124,-142.8142
-10.0305,16.9401,12.3630,-184.3191,46.9205,-17.7933,-65.7974,139.1635,-44.8945,47.4534,-36.5144,46.4508,25.8874,28.1674,-10.2532,56.4354,-4.7001,-98.6170,-108.8648
7.9446,60.6686,66.1312,-72.7669,22.7858,99.4243,-90.8538,174.1268,-69.5614,49.9337,-28.8098,91.2616,5.3611,32.1776,-35.2805,62.1359,-6.5411,-64.4223,-90.8486
51.0626,136.3884,150.0819,53.6035,17.5827,173.2128,-79.4096,160.4167,-83.4410,35.5735,32.7148,141.9255,12.8887,72.2997,-21.4194,67.7368,6.1060,3.5664,-135.5384
81.8885,183.7784,183.7974,156.3506,-12.9491,219.7127,-60.2888,146.0921,-78.0909,27.4708,66.6469,139.1751,10.9853,130.0905,8.3243,79.7661,29.5918,58.7501,-154.5453
93.8045,181.3383,150.9191,236.1940,-32.8896,255.0224,-15.2850,160.3033,-47.8421,28.7889,52.3342,130.1968,-4.1375,157.0906,20.4067,83.5054,85.6376,97.9557,-96.1656
104.1544,158.4205,123.7143,289.5158,-4.4540,246.6002,68.2358,156.1002,2.2255,29.8769,41.9570,155.8550,-1.8660,149.6684,28.1371,74.7804,145.9697,128.5980,-23.4841
91.3047,122.6531,119.3984,276.7155,36.2217,173.8615,108.9602,123.8243,47.9008,65.6585,39.3387,147.5309,15.4372,107.9445,38.3754,77.8590,140.5976,140.2477,53.2127
39.3165,71.1853,102.6848,197.7295,83.5333,66.4352,84.3962,120.9670,78.3567,137.5520,27.9630,72.8651,55.3642,34.6574,43.9089,93.7708,88.5678,151.3131,149.8880
-12.9020,34.6775,80.4365,122.7377,146.1894,-12.3483,76.2398,138.9202,99.0176,157.3881,34.6568,-2.1669,122.6852,-23.3550,65.3501,83.0246,55.8067,196.2428,177.7120
-26.0505,36.0652,66.5772,100.7571,167.6786,-28.8838,86.6681,124.8882,103.3393,104.3722,72.7312,-37.4101,153.0211,-38.1795,107.9530,44.8918,31.8658,241.2730,98.9060
-8.5838,49.9617,51.9785,111.8665,139.1051,-37.6804,63.1388,107.0425,88.4821,77.6914,108.6243,-45.1981,121.5033,-43.5032,123.1778,30.2718,3.6003,221.7867,35.5952
11.3297,42.4933,50.5581,130.5767,131.3884,-95.8166,40.1538,115.7592,68.0747,92.1026,113.0008,-37.7264,107.5941,-57.4824,85.8695,36.5905,17.0119,149.4197,53.6858
21.7495,14.1596,73.2316,161.6396,147.6127,-151.3030,46.5309,99.0081,48.8427,52.3282,89.7724,-28.1155,133.4904,-59.2628,45.1196,8.1445,62.0753,79.1115,81.0909
23.3400,-16.8873,95.2447,192.2094,147.4999,-151.3760,35.2952,41.2530,34.5819,-37.6924,62.8593,-24.1154,137.7673,-55.9202,48.6311,-50.0550,60.4160,22.6858,81.8340
13.3560,-48.2591,105.8086,174.4435,141.6831,-160.5779,-15.0113,-13.0873,24.8045,-95.9581,53.4613,-33.9801,121.4288,-86.2060,73.5859,-95.1433,-7.9847,-37.7845,72.7165
-10.8834,-82.1295,102.2388,100.3064,105.8831,-215.5742,-97.6773,-74.6311,-11.0316,-129.3390,51.9217,-79.6523,98.3779,-153.4960,62.1018,-134.9029,-101.2127,-104.5215,33.3319
-40.5735,-88.8600,55.7822,52.3025,-2.1918,-212.1929,-191.6038,-144.5010,-78.8994,-160.1439,23.2837,-124.9425,19.4528,-187.6658,3.0137,-164.5951,-174.9095,-133.9854,-33.2098
-57.3054,-33.4305,-17.4482,118.3411,-100.3829,-71.6817,-201.2196,-133.0251,-109.2534,-141.5253,-37.2796,-80.5389,-84.4702,-104.0496,-45.5928,-128.4909,-171.1490,-60.6291,-66.8851
-39.8240,54.1408,-41.0519,275.9522,-97.5033,125.6000,-87.5627,-29.3574,-70.1584,-83.4434,-79.6840,38.8425,-103.0624,65.5002,-43.4298,-40.7700,-65.0842,71.5037,-40.0218
21.6931,102.2287,0.5206,416.7072,-56.5232,248.6396,16.7519,36.0019,-33.8823,-63.4445,-57.2589,124.1342,-51.9048,176.2246,-31.7217,7.1314,67.3888,104.6175,24.6319
95.2444,92.7936,43.3340,458.9117,-50.5686,250.9561,35.0590,17.4367,-33.3005,-87.2713,8.1187,148.2415,-30.5375,166.5223,-40.5042,-8.0585,130.3507,13.0183,89.4247
120.3013,64.5863,48.8056,397.2810,-49.5276,177.8738,52.2405,1.5796,-13.5665,-110.5676,54.9313,148.8305,-35.8583,119.3375,-23.6941,-36.6009,108.7589,-43.1806,106.7937
82.3970,41.6588,23.0766,292.7054,-39.7538,97.6826,79.2588,2.0181,25.4788,-115.4998,59.6632,119.4625,-26.0038,85.4323,26.3733,-52.7206,40.4748,-0.0756,68.5293
29.5560,20.2719,-18.0483,232.6744,-49.9620,35.3069,38.8186,-39.5992,26.6203,-86.0713,35.7865,63.1085,-30.4996,27.6023,39.2232,-54.1739,-28.8776,36.6953,25.2817
1.6968,0.3893,-45.8990,245.2382,-68.9181,-16.2188,-33.0903,-90.5503,-0.6066,-39.3318,-6.8877,20.3403,-63.2436,-43.3086,8.6947,-46.6740,-53.8003,23.3022,6.7031
-3.1103,-10.5856,-48.3801,271.3812,-75.2100,-44.7447,-58.0387,-79.9164,-12.8793,-35.1936,-43.6591,-6.9429,-78.9212,-64.8017,-2.6939,-51.6351,-26.2799,17.6161,8.6265
-2.6290,-11.5060,-55.8823,265.1566,-78.0646,-43.0729,-50.9378,-35.9052,-16.1591,-64.8042,-39.5216,-34.9047,-60.8545,-42.6814,-3.6816,-67.2385,7.9009,35.3616,38.0461
-8.7103,-12.0067,-76.8538,251.1774,-82.5434,-41.8902,-37.6355,-26.9746,-18.8821,-77.2735,-7.8125,-47.4920,-33.0255,-31.0995,-22.7351,-75.7444,4.3053,49.7270,71.5153
-10.4581,-17.4253,-69.6663,252.3015,-81.9485,-55.7182,-27.6332,-51.5076,-11.0489,-94.3568,15.1449,-37.3433,-10.3553,-35.3638,-10.2045,-87.6637,-32.8472,37.7132,58.1689
16.4523,-9.1483,-23.4593,259.2953,-70.2047,-53.3977,-51.1188,-60.1231,-11.3600,-119.4966,34.4204,-7.4990,-3.7219,-20.3692,37.3271,-91.5062,-60.4356,-22.3485,15.4500
58.4505,27.4898,14.0467,283.1070,-48.2444,-11.4859,-75.8156,-24.7703,-29.2824,-85.3400,48.9796,52.8902,-21.7566,29.5859,36.5556,-43.7857,-45.3368,-94.9378,-4.9801
69.8354,65.6964,10.8396,335.2353,-36.1468,59.3556,-35.5802,39.1902,-29.0136,-9.5087,20.3590,121.3990,-45.8191,95.9695,-6.5416,31.1271,-4.4504,-99.5413,-13.2075
46.1643,80.6344,-16.9781,375.6449,-33.6411,137.3957,28.1692,98.1006,-3.5427,30.7588,-40.1547,153.7654,-48.1108,153.3836,-15.2454,74.5071,30.8395,-37.7742,-20.2467
20.8521,91.1331,-51.6591,369.8700,-10.0214,207.5857,48.1523,144.0146,7.3438,57.4134,-76.3030,156.6207,-38.5487,200.9451,-16.6359,103.4852,64.2442,21.1815,8.8232
3.1630,108.4274,-96.6427,349.4893,6.9452,272.3056,56.2282,195.4303,3.0602,101.5258,-91.1668,156.2871,-53.9277,247.2832,-53.8593,142.6872,94.5509,63.2516,67.2172
-9.5520,117.7726,-141.2480,345.9212,-35.4901,333.9213,76.2320,257.2428,22.7694,128.4982,-104.9540,152.3759,-86.5604,275.9056,-54.6945,166.9529,85.7904,108.4442,107.1677
-5.4204,133.0344,-153.5729,334.0364,-81.9632,362.3082,66.3099,312.9645,60.7885,167.9636,-76.0866,154.7731,-81.0514,273.0282,13.5446,194.1496,31.8542,142.9223,118.0433
10.2019,173.5918,-134.8946,298.2381,-64.9307,332.6277,30.2791,342.6944,75.8828,259.1243,3.3995,173.1735,-36.1971,263.2464,63.6766,255.8371,-26.0163,153.4203,97.9911
15.6284,207.5247,-123.5087,272.5386,-50.6468,277.5944,12.7936,328.6455,64.9413,317.0858,54.5281,178.6606,-20.7677,264.2477,63.2441,297.7479,-63.7657,153.0627,33.7110
11.1642,209.2141,-119.3060,266.1266,-91.9474,241.0164,10.0511,276.1761,51.5896,287.7411,41.4741,153.7411,-48.1875,256.2630,64.2010,276.5257,-75.7103,164.6713,-44.0916
6.9762,205.9109,-84.5046,236.1714,-112.6471,223.7462,4.6453,225.8498,37.1007,239.8137,17.7984,120.7367,-58.4942,230.1629,71.3682,235.3687,-51.0230,207.4902,-94.2948
-0.7688,204.8698,-31.5924,174.9198,-77.8830,206.9404,8.7644,197.6519,17.7899,194.3543,17.2679,87.6847,-39.8032,192.7152,63.3465,192.3993,-14.3405,261.2210,-131.0110
-11.7671,176.4634,-7.2424,142.5608,-50.5577,169.7930,22.0999,157.2843,6.1193,124.2266,23.6667,41.3125,-26.1652,128.8059,53.0474,125.3238,-1.3263,281.0131,-164.8609
-14.6653,128.8693,3.5087,183.0491,-35.8494,100.0998,28.3513,89.6356,2.4049,70.3068,22.8955,-11.7474,-12.5323,43.7813,36.8806,59.2511,20.4536,271.3659,-153.0544
-1.7281,96.1540,51.2522,263.1024,9.4751,34.4507,35.1125,40.3021,-2.4712,48.0060,9.7186,-43.7702,7.2944,-3.3693,5.3707,22.6828,88.8602,255.4751,-73.0825
28.5795,79.8403,127.0744,311.4522,61.1833,27.4852,62.4704,29.5016,3.6098,13.6639,-1.3681,-33.4932,12.8555,10.3011,-6.6756,1.4958,152.8092,215.8143,16.6141
62.9253,74.3865,171.1241,304.9742,77.5441,67.7897,96.5021,8.1005,19.3939,-19.7339,23.2134,4.6385,18.4734,32.3639,13.5371,-8.4508,157.9582,161.3891,27.5073
78.0102,87.6931,148.9014,308.3282,70.9541,111.2008,98.1520,-44.4086,7.6589,-42.1255,64.9004,36.8437,37.3948,44.9461,23.6075,-13.0755,141.0061,136.9824,-49.2554
79.9638,105.2012,91.9504,382.6935,60.3674,163.0896,80.9139,-73.9705,-28.8697,-102.7581,61.0591,73.6177,27.3417,90.6957,8.6565,-36.8610,153.0151,121.2251,-115.6850
99.0727,103.9104,68.9271,468.8824,43.6051,231.3648,108.2869,-62.8936,-35.6671,-174.7135,23.0439,139.8197,-13.8903,153.1253,-5.3337,-63.4538,186.4703,73.2719,-107.8516
131.8298,92.2337,100.7848,474.2210,27.5795,270.7620,167.5944,-72.1945,-11.4702,-190.1314,19.9416,189.4912,-18.6274,163.0197,-6.0836,-67.5405,216.5084,34.9479,-84.3031
142.1290,83.7215,134.7832,436.1524,28.9260,255.2203,170.4183,-111.4430,-8.5752,-188.8963,43.2430,174.6485,22.5495,129.9624,2.4844,-76.8644,230.4524,39.2663,-84.8206
120.5500,73.4117,133.0123,437.8142,48.4105,216.1208,118.0223,-104.2592,-26.1720,-200.7486,37.2131,136.8998,57.1101,112.5914,7.5349,-93.7070,220.8703,44.7196,-62.8173
94.9470,64.0914,118.4836,444.8820,63.8851,163.3014,90.5554,-44.3964,-25.6643,-158.9479,23.3024,114.4361,75.4977,96.4816,-0.1093,-72.5234,191.8595,35.2618,-38.8067
88.8594,64.6745,116.3904,395.8336,55.9536,73.0121,76.7555,-28.0212,-19.3523,-83.6605,47.4111,83.1408,82.3020,45.3172,2.0889,-35.0597,150.5851,24.9172,-90.6589
99.1765,65.8008,131.8351,327.1819,35.6115,-23.5736,20.3039,-78.6955,-39.2545,-84.5355,80.3217,48.1078,57.7823,-3.5999,21.8217,-47.3177,105.3268,-6.9393,-159.5757
106.0943,52.5794,160.8740,280.3617,22.6822,-57.6969,-31.6180,-108.3819,-65.5354,-147.1735,83.4860,36.4536,23.4498,-11.5134,15.9330,-93.4424,78.9535,-52.2334,-116.7036
93.7073,22.8536,165.9782,234.0801,22.6576,-43.5088,-17.7965,-78.4891,-54.8631,-166.4395,76.3273,23.7610,22.3635,-8.3936,-14.4075,-112.6130,73.4060,-60.8043,19.4081
64.5435,-15.7296,120.7106,182.9534,49.6754,-59.0020,15.4793,-33.6517,-6.7989,-123.5653,74.9627,-6.5865,42.7112,-23.6018,-8.3912,-96.4268,54.0111,-45.2732,139.6623
35.2099,-47.1907,80.8088,147.4915,108.2282,-107.2669,12.7004,9.7937,29.8078,-71.5835,63.0089,-30.2374,58.2001,-46.5416,18.4722,-72.2098,25.4567,-53.3487,202.6129
20.4027,-58.6725,94.6928,128.7620,153.3783,-129.3156,-3.0002,57.1140,23.4075,-42.7602,42.5741,-51.5140,71.1392,-70.6932,3.2679,-58.8212,34.2210,-67.8922,210.3428
16.1454,-58.3991,106.4672,126.3940,151.2144,-132.5819,-5.1387,68.1760,9.6956,-26.4682,31.5847,-82.2034,75.2902,-97.8299,-16.6552,-53.6050,56.8828,-56.6670,167.4467
3.1937,-59.3945,63.8271,128.9032,130.0620,-159.3826,-12.1108,20.0316,23.8271,2.7313,25.2051,-94.9223,64.0270,-114.8319,15.6236,-39.0354,27.1051,-36.7892,104.7231
-15.1328,-57.1304,13.5953,105.1801,110.5270,-172.9778,-26.4031,-35.0378,34.9247,26.8586,14.5210,-78.7403,51.5781,-104.9682,47.6158,-19.7766,-23.5276,-32.5090,50.9867
-8.5378,-47.1352,7.1131,77.9029,78.9560,-123.1103,-11.3883,-54.8783,21.5388,5.0519,8.8361,-50.7053,38.3569,-70.0273,29.9686,-20.4384,-17.7758,-45.3084,14.6612
18.3282,-36.8512,27.7428,104.0900,52.4947,-48.2075,32.7562,-60.4270,16.8364,-35.0384,17.2530,-18.2200,27.0591,-40.2572,7.6174,-35.0882,18.0844,-51.4693,10.9063
21.3766,-25.3214,42.0087,162.2988,62.1516,9.1792,42.0349,-57.0546,24.5206,-37.6138,35.5235,-1.6452,44.9215,-38.8290,14.1067,-37.1385,13.6991,-20.0028,37.4268
3.6968,-2.3351,35.7661,199.7370,84.6829,71.6477,-1.3038,-10.1546,14.9359,-14.9420,47.6949,-4.3634,71.2870,-25.0265,25.7141,-17.6962,-13.4067,15.5532,58.1243
17.0172,29.4800,18.2349,229.1979,72.4489,129.0320,-23.7943,66.2788,2.1400,5.1767,39.3823,28.0619,45.3889,42.8999,26.6394,21.8811,-9.3805,-14.3296,51.2758
58.4511,52.6020,17.9717,249.6472,15.4882,113.8865,-7.9493,97.2256,1.5175,28.0374,22.3308,89.2108,-17.5295,94.1029,19.3567,59.2659,6.9827,-83.6382,10.1017
73.1024,52.0266,34.3584,208.0491,-60.9154,23.5768,-43.2173,47.9787,-17.4474,33.4311,25.0427,78.8153,-54.6178,42.4871,18.1121,51.0672,-28.0613,-120.9731,-77.3646
54.6746,30.6835,27.1268,121.5424,-128.3100,-64.7785,-149.9869,-41.2481,-58.5246,-6.5014,48.7099,-3.9083,-67.9523,-48.7789,42.0208,0.2859,-123.8030,-150.9501,-181.2361
36.8837,7.0829,-14.8283,72.7530,-175.4930,-112.5336,-228.8128,-122.1926,-91.5872,-65.5518,58.7043,-46.5124,-86.2791,-77.5357,56.1501,-46.3065,-203.3095,-203.8283,-237.4413
20.0121,-11.6275,-58.5683,71.1295,-190.2731,-147.7162,-219.7914,-171.1270,-111.6313,-103.7322,28.3829,-36.2335,-95.9058,-78.0193,9.0105,-77.9310,-183.6420,-208.8911,-235.6027
-5.9752,-40.8365,-76.8157,57.4456,-142.6266,-193.6499,-156.1557,-181.9372,-108.2725,-112.4755,-18.7197,-57.3315,-77.3329,-125.9785,-45.2992,-107.7677,-87.8011,-138.4045,-217.1181
-23.2090,-84.3757,-59.4601,5.3308,-42.0918,-245.0675,-98.5581,-181.4014,-66.5891,-108.5918,-22.5306,-124.2916,-25.7533,-202.2089,-16.4372,-132.1039,-26.4608,-80.1546,-199.7184
-30.4632,-121.5720,-24.4851,-63.4942,40.9792,-291.7263,-99.6021,-202.6537,-26.9295,-118.9891,29.4849,-188.8719,47.8623,-255.8890,60.1968,-155.3190,-58.2731,-80.0303,-167.3390
-55.9290,-146.2960,-31.8962,-117.7194,73.5458,-323.6620,-143.4673,-227.9097,-18.6038,-134.2454,62.4745,-220.3073,89.2579,-275.4574,93.3960,-175.5460,-132.3007,-92.8324,-106.9028
-94.4908,-171.7462,-102.2614,-145.3541,91.1668,-329.0932,-139.4202,-225.4195,0.8521,-119.6424,29.4051,-213.1317,66.3415,-264.6928,83.5540,-170.4529,-164.9241,-85.5800,-28.8516
-107.1379,-193.8075,-155.2247,-156.4720,111.8900,-303.4871,-61.6717,-208.8239,42.4192,-102.3504,-7.6385,-198.5099,40.4779,-240.0233,70.8714,-157.4962,-123.6071,-58.6673,39.3456
-87.8383,-198.8378,-122.9555,-153.7736,122.5365,-251.9857,17.1220,-188.7227,63.3749,-123.3332,-0.7867,-209.6628,57.1574,-223.0117,56.9520,-167.6059,-49.6244,-26.8398,82.1923
-61.0483,-184.4289,-51.7869,-132.5330,108.2055,-181.0242,58.3264,-145.8823,68.0363,-138.7761,4.9537,-210.3514,60.7102,-199.4598,49.8481,-166.5098,-9.7710,-16.2650,94.3051
-32.3423,-137.8496,-17.3843,-99.0704,31.8174,-95.5736,70.0860,-97.0585,72.2872,-117.3095,-15.6603,-153.0395,6.5876,-139.9905,62.6327,-127.7941,-9.9228,-4.9127,61.3013
2.8372,-50.0064,-24.6751,-38.7748,-103.5289,-0.3895,57.2885,-71.7113,53.2938,-93.6426,-32.2133,-61.5663,-69.2807,-48.0869,64.5580,-83.0579,7.8358,61.9662,10.7858
36.1013,32.9486,-31.7763,63.3332,-188.5966,95.4936,69.4170,-35.2367,38.6607,-42.4366,-43.0899,24.0431,-119.2804,44.0677,33.3335,-24.2112,65.5845,138.4005,21.7643
64.3957,50.8305,-6.8108,136.0469,-152.5167,161.0063,142.5751,37.0163,76.2996,66.2394,-48.5518,83.7222,-115.9243,92.3361,4.5535,65.9273,114.1749,112.6158,92.9497
89.2239,15.6765,43.8660,96.3690,-74.9081,152.5657,190.9960,87.8150,113.9462,131.3953,-14.7100,84.5073,-63.7665,73.1962,7.9006,114.7920,108.2108,-8.0557,121.8532
95.5806,-20.3480,73.5823,1.4884,-47.2301,78.2296,137.4744,85.3264,92.9602,91.9854,32.8669,27.0870,-29.0832,26.1462,26.4484,83.9717,50.4130,-124.1392,77.5260
