Fp1,Fp2,F3,F4,C3,C4,P3,P4,O1,O2,F7,F8,T7,T8,P7,P8,Fz,Cz,Pz
172.0788,51.2976,142.6916,30.6421,229.6816,31.7726,311.9267,-8.2537,253.2619,10.6815,227.6079,40.3440,157.2740,17.3123,201.3525,-43.3022,198.5568,2.5897,160.5558
162.1511,4.1447,342.9953,-19.3181,341.7966,-47.5235,401.0086,-57.1741,308.9087,105.7281,263.0952,36.1405,214.3177,-32.0037,204.0265,-74.1709,152.2585,-32.0675,127.5885
164.0959,-34.4296,327.1935,-45.6059,361.7430,-75.7389,388.7315,-12.2540,309.4245,180.2434,247.2662,14.1028,204.5549,-40.3444,97.3374,-37.5384,100.6221,-27.5048,191.1305
235.6503,-55.4159,198.7577,-57.2094,321.1451,-61.3309,333.8578,66.3690,244.6004,174.5531,217.6868,-16.3643,178.8759,-26.2292,45.0971,40.3601,59.3356,19.0945,246.5404
242.5849,-84.5751,226.0113,-85.2697,299.5261,-77.8103,339.2088,75.2403,175.2183,188.3792,202.9531,-39.2470,173.5340,-38.9842,105.1365,75.9263,40.7542,23.9028,226.3611
168.4656,-106.7501,281.8295,-105.6919,292.2556,-99.4231,353.6253,61.2018,171.0904,264.5900,188.3137,-45.5817,156.9740,-51.3249,171.9353,82.4697,68.2597,-12.9722,231.3555
195.0488,-75.5382,242.6279,-82.5775,301.6602,-72.0079,358.2880,61.8669,217.4576,249.8086,207.1180,-25.2811,159.6390,-36.8267,205.7137,67.2012,130.8013,-12.5238,253.4989
277.7409,-15.0054,254.7042,-36.2966,330.2166,-32.7441,387.5519,26.5053,210.0079,108.7298,240.2534,9.3906,209.4203,-23.8292,208.8957,12.1196,161.5737,24.6182,194.7071
259.4406,11.0373,294.5858,-7.1427,345.3431,-19.3523,393.5386,-8.4660,145.0798,56.1594,214.1523,24.1707,249.0148,-12.6501,173.3861,5.1162,156.3537,37.5364,136.3900
250.4101,4.1561,269.2879,-7.1191,346.6570,-12.4327,377.5426,17.5975,124.3414,166.0488,183.8654,5.7304,248.8582,6.1629,157.0168,85.4195,178.7512,15.5941,158.1120
326.1065,4.2863,298.6862,-18.7390,336.4470,-5.5879,402.3913,37.2630,120.3520,226.6789,211.0406,-17.2639,228.5541,6.7003,185.6732,121.5952,209.6182,-8.9488,159.1726
336.3100,19.1983,361.5811,-11.8752,310.3789,-1.4054,435.0242,11.1735,71.0303,127.2302,224.5799,-5.0085,210.3768,3.2500,208.5771,74.5654,201.2072,-7.9064,130.5800
290.3563,30.9968,331.1192,9.6520,321.6527,11.5691,470.4802,3.8606,82.2526,21.1468,236.3735,23.2808,240.8487,20.9302,249.6025,47.8575,203.3362,20.1544,169.8021
315.5782,23.6408,337.9376,7.3061,368.6320,22.7558,567.5838,17.8051,188.6923,29.9925,314.2583,2.6638,301.5575,12.0495,335.7387,34.7332,243.8608,47.2637,232.0008
348.9950,3.5879,410.1005,-15.3885,368.2974,17.8799,649.5280,20.8946,243.4710,84.2198,354.8033,-45.0111,305.8938,-30.7985,384.1795,-8.3174,266.1365,61.6319,271.7572
328.1379,-12.1500,357.7468,-27.5150,350.8284,-0.4955,650.3888,43.6733,232.8583,102.7914,301.9485,-37.3595,296.0957,-40.3141,381.8610,-13.3602,252.8039,73.7831,342.1213
307.3711,-31.9489,290.3272,-43.2696,377.5554,-35.4642,672.6011,68.8785,267.0122,118.7932,289.8444,-10.7330,352.9546,-31.9459,404.2584,21.0213,219.6132,66.7034,375.8312
281.0853,-51.1613,365.7946,-62.4027,377.9026,-61.5970,724.0659,39.4330,325.7053,157.1493,337.9536,-35.5265,391.2269,-48.2033,430.5233,23.0859,176.5549,31.5023,300.0878
246.9228,-33.6617,376.2681,-42.4941,335.3416,-41.7408,707.0820,-4.9102,346.3990,143.4357,354.0712,-43.7768,360.4858,-32.5327,420.3980,36.9226,165.3880,10.3715,225.4073
226.0043,-4.9968,268.0932,-7.5614,307.9664,-13.9496,657.6961,-11.0263,310.1048,69.0915,355.8470,-6.4407,345.1220,17.0434,392.8217,103.0969,175.2046,22.8461,193.6317
169.3125,-17.7984,249.8823,-7.5110,258.1105,-12.1286,611.8420,-4.0110,199.8230,74.9088,340.4685,-29.7450,336.5129,14.7607,324.2612,147.3382,156.0451,43.5077,138.6986
136.7640,-20.6106,275.7480,0.4120,223.2331,14.0225,539.4902,-1.6457,118.9650,168.6525,270.7961,-89.0992,307.1614,-9.6754,231.3655,144.2358,173.8740,66.7295,114.3366
225.5783,29.4386,263.6809,40.1530,298.2931,54.4128,509.7368,-12.6041,157.7132,132.8859,224.5730,-54.1444,325.2340,10.3428,199.7060,117.3433,244.8731,91.4894,122.0016
272.3314,50.8526,305.0653,46.6739,330.6628,36.6763,519.4031,-51.2784,146.4810,-51.5917,210.2428,14.0861,334.9932,15.6385,191.3551,58.5910,218.9552,104.9155,56.7667
181.7082,18.8007,311.3172,22.4620,234.0688,5.8064,462.5273,-64.6210,10.7213,-100.7375,159.5978,0.7654,269.5818,-15.9973,156.4962,26.9447,134.9406,120.8225,23.8829
156.4336,8.3121,253.4872,23.9712,250.4807,23.1076,442.0620,-22.6905,-30.6987,49.2172,167.5377,-33.6085,276.0995,-20.8152,181.4892,65.4196,183.6536,139.3923,136.1573
208.7650,10.8085,326.8458,26.4329,371.4290,31.5143,528.2859,-0.3627,28.1270,122.0446,246.7704,-42.9036,361.1749,-18.6278,226.5818,69.0826,246.8653,137.2828,206.1389
192.9533,-2.4394,384.3943,18.0904,322.9037,27.1220,510.1317,-10.2794,-2.2604,15.9062,217.5652,-66.4000,332.6848,-31.1222,169.1814,15.3231,152.3854,141.4423,154.2518
202.7348,12.3396,222.7104,35.6964,211.0267,55.3133,400.6018,6.7864,-27.9801,-72.9210,145.4684,-66.4974,259.4325,-2.7683,128.6600,31.7792,70.0073,154.8220,143.1277
228.7069,20.0164,139.4160,31.3941,205.3549,40.8969,430.7008,19.0162,53.1283,-27.5086,191.1611,-30.0236,265.7220,29.4914,192.0481,104.8649,92.7333,102.8711,150.6136
133.1070,-29.1249,218.6166,-23.7723,149.7805,-31.1865,491.2868,4.7855,116.2039,79.0196,221.0549,-34.7817,225.4114,-1.0282,203.1541,121.9825,89.1272,17.0992,106.3359
125.3956,-42.5487,187.3102,-39.3525,119.8884,-37.9833,480.2422,17.1839,200.3618,145.1209,221.0396,-55.9458,194.0357,-26.6327,181.9357,99.2638,110.0202,13.7942,125.7098
269.5379,-5.2125,208.3294,-17.3005,274.1328,-19.1055,592.0521,13.3891,345.7519,138.4797,345.0894,-28.2809,321.0382,-19.5371,263.2735,75.8524,185.2770,39.8617,162.8699
218.7402,-29.4009,359.2401,-45.8837,298.2485,-82.8887,709.5111,-42.8487,333.8250,137.6583,392.7632,-11.4526,369.0515,-43.0173,310.5391,61.2354,136.9985,-1.9675,101.6208
112.8992,-63.7611,273.6473,-72.5561,124.9004,-110.8825,629.9651,-36.2654,226.9751,206.0888,256.5171,-37.3528,249.9491,-59.0774,273.7526,98.1639,65.5492,-25.3513,104.5367
289.1959,-29.9839,184.7224,-50.6217,148.7350,-42.9844,665.4260,40.6680,283.7983,228.5303,262.7133,-61.1764,269.5515,-40.3244,335.7961,121.0606,176.6918,16.5236,217.8417
357.8502,-34.9898,404.2144,-62.4407,219.1925,-35.5803,867.9333,63.1643,316.7466,128.9654,342.1411,-79.5167,336.9704,-57.7950,400.9576,50.2729,257.0741,22.4283,256.8894
182.3574,-56.5971,350.9139,-73.0922,76.6477,-72.2586,821.5738,63.5771,219.7149,59.8490,206.6122,-45.7571,235.1486,-57.7509,328.4298,23.7038,199.0450,-4.3740,282.7693
299.0651,25.8811,114.9536,-10.4685,156.1802,-38.0350,754.4427,71.6508,293.9802,79.6144,201.7858,54.7005,289.7094,14.3604,338.0702,85.6409,247.6139,-8.5307,336.0625
442.0688,53.0307,479.4182,2.3822,392.1443,-36.8923,1006.8584,-3.4329,365.2681,55.7292,389.8333,55.0516,462.2252,15.3147,416.7920,64.7649,314.5828,-31.3489,254.1380
112.6533,-30.8445,483.0349,-31.0113,105.6451,-54.6896,898.6862,-11.5012,129.9748,53.2149,117.6532,-18.1875,205.2104,-20.9727,283.6944,69.8973,247.9707,-9.7141,301.5931
91.4025,86.1723,-869.3363,93.3603,-235.4471,105.5371,112.7244,213.8899,97.9902,204.8386,-348.7068,121.6029,-118.0903,124.6105,151.2847,278.9918,352.1290,132.0935,669.5142
677.2001,328.6230,-1594.1951,242.3581,143.4192,259.9285,-343.3823,324.6605,428.4225,266.1187,-111.1853,327.1762,160.9024,265.4095,245.8026,341.2150,537.8789,180.8756,618.1357
622.5226,218.4971,-216.8040,112.9967,447.7621,99.5882,-0.7966,48.3592,292.9459,13.7706,336.6443,167.7867,436.9362,85.2078,174.7706,23.7312,272.2276,11.7407,-152.4445
-164.9946,-110.0261,1066.5037,-106.8241,12.2496,-131.9766,400.4941,-201.3278,-281.8256,-237.4173,118.6238,-140.6686,120.9017,-152.7908,-111.8596,-177.8264,-126.9461,-89.7286,-563.5284
-281.9721,-141.0375,677.7485,-95.8303,-230.4098,-109.9219,523.2790,-106.9177,-310.3259,-177.0303,-167.9941,-111.7884,-80.8997,-99.1647,-65.7631,17.5939,10.5557,6.3260,-143.0101
222.4465,14.9565,159.0864,-3.6590,105.7319,-17.8660,568.2060,25.4694,57.9356,-31.6999,49.7821,65.5242,167.6713,31.9923,208.4411,179.6790,297.9451,47.1010,143.3022
227.5192,7.3020,336.1105,-27.6285,148.5161,-43.8606,372.5109,-18.3292,-46.9041,-63.6912,124.3206,34.4421,183.7467,3.2619,114.1795,100.4568,139.5001,-22.8172,-127.9317
-104.2525,-52.7889,282.5935,-50.8172,-204.4357,-66.0317,-85.7901,-80.6646,-425.0994,-148.7941,-195.5219,-45.3027,-122.9349,-44.7225,-211.0343,35.2412,-163.4405,-27.3748,-370.1240
-179.1084,-29.5423,-0.1352,-19.1087,-325.7838,-41.4899,-369.7006,-94.7116,-509.6472,-140.7932,-355.2508,-23.0178,-242.2753,-27.2164,-300.2143,46.7756,-251.5898,5.3619,-382.8780
-184.5414,-24.0722,4.2102,-6.8113,-257.3829,-17.7655,-363.6157,-91.3710,-437.6255,-116.4816,-288.2499,-30.3449,-201.7195,-7.9574,-232.9996,54.6875,-224.0616,-1.4104,-352.3300
-213.6883,-19.7635,-2.1991,16.0030,-266.6475,35.2453,-356.8283,-59.8775,-422.4562,-154.3744,-282.0382,-57.3722,-219.4778,25.0166,-248.7057,92.0561,-160.3909,16.5139,-318.9794
-202.3547,16.3458,-104.0729,43.7894,-330.8149,59.5359,-511.1343,-76.1315,-473.1862,-212.9298,-348.6883,-34.0594,-275.0156,40.0281,-363.2343,94.4434,-174.4506,25.6393,-433.7481
-332.4852,0.8835,-109.0013,15.6108,-490.0446,3.8672,-748.2559,-148.4561,-596.8987,-214.3410,-473.5741,-31.9471,-404.3358,-11.1281,-498.8578,14.9222,-324.1843,-29.1119,-652.7924
-413.6881,-3.6079,-259.9016,6.5544,-599.6985,-9.3033,-839.5977,-145.1089,-570.2237,-138.6711,-545.2238,-18.2754,-501.7711,-28.8106,-485.4075,-7.9415,-312.8210,-44.7810,-601.2201
-239.9086,66.6735,-459.9520,50.5487,-454.5645,28.3527,-733.3118,-112.1236,-337.9835,-67.5614,-395.3212,64.5970,-396.9906,11.9988,-314.0009,16.5909,-137.8021,-21.4808,-417.6414
-206.4139,77.8497,-380.2687,43.8025,-364.9107,-4.5803,-712.7394,-152.0026,-294.1700,-66.4343,-279.1385,92.4600,-317.7473,2.5357,-259.5910,-35.1065,-194.5358,-67.2412,-482.8422
-322.3273,36.5039,-334.1444,11.5059,-484.2183,-36.8148,-817.7946,-144.4846,-436.0862,-78.0956,-374.1160,46.4225,-377.1202,-27.2210,-349.5988,-72.7882,-332.4676,-102.7463,-566.9882
-254.2670,47.5916,-371.3387,15.3625,-506.8916,-16.4607,-881.6619,-103.4459,-501.0594,-87.0832,-406.3868,27.8732,-370.0417,-36.6880,-440.6544,-65.7631,-306.4450,-71.7139,-623.7491
-472.9709,-36.5762,-69.9844,-55.7225,-648.9492,-99.6380,-1200.2012,-229.4433,-817.8391,-184.8908,-506.1314,-51.5412,-534.8173,-129.4546,-728.8439,-158.7676,-580.2319,-111.5118,-1076.8269
-1120.3712,-244.3960,126.8678,-183.9579,-1134.8739,-231.3055,-1788.8921,-364.2716,-1362.1262,-316.1194,-935.0779,-206.6765,-1018.2967,-236.5210,-1144.1375,-236.0072,-1128.2141,-175.8709,-1495.8309
-1157.4227,-265.8391,-273.3170,-166.0667,-1225.3977,-179.8422,-1800.2037,-230.9076,-1272.8403,-292.2596,-1099.3639,-200.0561,-1105.3329,-168.9350,-1075.4857,-113.9638,-1085.3402,-94.0592,-1118.8049
-493.3782,-85.1732,-551.6221,-48.6400,-678.8604,-49.1397,-1169.9181,-41.2284,-645.4498,-143.4537,-661.9883,-44.3862,-597.4778,-38.8619,-591.7994,1.4633,-554.3751,-8.5667,-531.3054
-316.6087,-25.0307,-354.6509,-32.0657,-464.3857,-51.4930,-1008.9623,-54.7905,-561.8318,-72.7964,-411.6081,-12.0769,-394.6729,-36.8644,-477.9435,-52.0142,-473.2163,-86.4601,-580.2819
-647.2170,-86.0442,-372.6912,-63.6948,-781.0343,-80.4813,-1428.5845,-91.2130,-944.2313,-88.9726,-633.1424,-84.5878,-673.7919,-64.3074,-740.4918,-69.6493,-733.0433,-150.2603,-808.3207
-620.0821,-76.9261,-614.3913,-41.1738,-825.1585,-40.1941,-1494.0138,-17.9532,-942.4296,-52.3977,-662.9182,-85.6234,-706.1220,-26.6766,-784.0347,22.7891,-703.0093,-98.8560,-690.2151
-450.9170,-67.6599,-566.8586,-44.8122,-622.2522,-49.4740,-1263.0106,15.3943,-730.3809,23.4992,-485.2480,-63.0245,-525.9340,-12.9703,-667.3286,69.9073,-598.9227,-97.0299,-592.3597
-594.1318,-117.7409,-497.0666,-83.2262,-670.9764,-102.8696,-1340.0735,-18.3877,-775.9034,15.1784,-557.4119,-65.7235,-588.7382,-27.2591,-701.2475,64.1780,-696.8060,-146.2258,-675.6411
-676.1885,-114.7260,-641.9972,-70.8196,-744.5078,-98.0050,-1479.9246,-33.9942,-827.2414,-78.2717,-671.4985,-28.5925,-666.5336,-16.3912,-722.5433,50.3352,-735.4147,-110.1060,-679.6046
-570.3680,-84.3642,-660.9952,-55.5665,-661.9401,-92.3288,-1428.4221,-61.4441,-773.8239,-133.1239,-617.8439,0.8694,-572.2997,-32.9476,-633.3338,-2.9415,-712.8433,-54.1482,-684.0449
-588.0468,-112.0788,-599.8395,-88.1357,-686.6403,-129.8981,-1482.8478,-100.5653,-839.2985,-81.2053,-656.0902,-29.2662,-571.5113,-75.1660,-606.1881,-21.0821,-797.2595,-66.9449,-788.0092
-634.2841,-121.3259,-683.2548,-88.9791,-725.9594,-125.1102,-1598.6033,-93.9129,-898.6624,-0.4843,-740.1605,-37.4323,-627.6173,-64.3517,-630.2838,38.4617,-805.0949,-71.5267,-789.5648
-587.2625,-78.7776,-688.3087,-44.1663,-620.4877,-77.1963,-1565.6716,-81.3563,-839.7927,8.5720,-689.0123,-15.4434,-580.4646,-33.9043,-653.3089,36.3228,-701.2044,-48.2362,-709.5397
-608.0499,-67.3913,-599.8107,-32.7061,-618.4433,-64.8772,-1575.4951,-95.0536,-823.8091,-24.7495,-701.7314,-30.0718,-597.7536,-47.5150,-735.7062,-49.1043,-713.8599,-60.0470,-723.5637
-622.5957,-79.8708,-661.9656,-50.5146,-725.7934,-77.2718,-1634.8754,-96.2311,-766.4746,-32.5187,-801.8478,-43.8416,-679.8966,-66.3205,-765.9832,-86.5287,-771.6959,-78.2609,-742.5059
-554.4758,-65.9141,-726.5377,-46.6015,-709.2720,-70.6180,-1543.2671,-104.2993,-567.9298,-55.2721,-774.2225,-22.5869,-650.9646,-56.5544,-651.3554,-92.0920,-732.1375,-77.0068,-700.1879
-608.3510,-53.3955,-676.9117,-29.3748,-704.1634,-52.0119,-1493.9504,-138.9556,-472.9157,-125.9483,-737.1855,-17.6632,-638.7812,-36.4226,-571.2856,-129.9740,-732.9537,-106.6828,-711.1386
-723.1639,-59.7877,-704.5025,-23.5999,-798.7643,-39.5247,-1601.2028,-152.2935,-515.4830,-160.0822,-795.4878,-32.8614,-719.6451,-15.7540,-586.5391,-131.4348,-806.4988,-147.5478,-753.0832
-668.0911,-68.9408,-734.9065,-32.0799,-752.9381,-47.5564,-1586.4742,-153.8145,-466.0074,-115.8608,-756.7563,-34.4812,-695.5473,-7.6066,-547.9539,-77.3327,-823.8586,-140.5789,-741.5750
-583.5232,-78.4324,-649.8242,-45.7701,-618.9290,-76.6539,-1486.3234,-177.2618,-421.4982,-65.7645,-676.0042,-22.2270,-605.5038,-15.5044,-497.2613,-43.9156,-815.5709,-127.6180,-735.8080
-609.5094,-72.0111,-666.2633,-50.3266,-648.2770,-99.7258,-1566.7380,-172.4914,-549.9451,-39.9389,-742.5089,11.5206,-642.9435,-20.8308,-559.4826,-45.6189,-813.8959,-149.8972,-759.5916
-606.4954,-57.8073,-778.1431,-54.3183,-727.0125,-103.7894,-1686.3237,-121.7723,-669.4106,-7.4736,-805.2931,41.6644,-722.9444,-34.4045,-644.5884,-59.5847,-752.6646,-150.9446,-741.8004
-579.1313,-84.8025,-766.0604,-74.5961,-710.2820,-96.7789,-1673.8640,-77.8246,-658.6194,19.5230,-777.3002,8.3246,-746.6295,-54.6456,-658.8127,-55.8076,-698.7942,-111.9675,-676.9445
-630.1489,-132.3287,-766.5819,-92.4868,-733.6562,-85.1032,-1675.0432,-40.7020,-651.5890,25.9366,-830.6929,-44.3335,-787.1150,-38.6366,-659.9118,8.7089,-730.4160,-96.9966,-614.3857
-681.6385,-136.5077,-891.7111,-89.4221,-812.7424,-86.2610,-1718.2936,-6.6923,-694.6025,30.8262,-908.7592,-33.8958,-814.1896,-15.3228,-683.5084,61.4200,-754.5583,-105.7103,-586.5035
-692.3023,-110.7981,-923.1130,-73.4246,-804.1449,-94.9316,-1705.0093,-20.7005,-731.5632,26.0352,-853.1341,-3.6727,-772.4687,-44.0018,-717.2335,-2.3796,-719.4280,-71.7556,-585.5760
-691.3121,-89.4031,-854.7459,-47.0475,-732.4778,-73.7858,-1685.4432,-56.0857,-748.2464,8.7957,-785.3238,-5.4697,-749.9476,-66.3551,-758.9523,-75.5680,-680.9551,-16.3963,-557.3492
-632.8842,-72.2667,-859.3611,-27.4563,-701.7297,-45.1107,-1666.2440,-46.5931,-726.5685,18.3512,-794.6873,-2.1415,-767.7443,-31.5071,-777.6129,-24.3275,-649.4083,-17.5808,-509.4078
-583.1344,-80.7003,-869.5358,-43.8800,-718.5840,-59.5964,-1594.4685,-17.8644,-693.0591,42.9710,-781.7165,2.1406,-755.0080,-17.0573,-755.6956,46.1177,-624.1213,-46.3395,-515.0956
-638.8047,-114.8009,-834.0786,-69.8127,-741.8489,-81.2113,-1545.6494,-10.4881,-709.3514,20.1755,-764.4537,-20.8030,-723.7962,-49.0298,-720.3504,31.4628,-619.6001,-20.5223,-538.7224
-654.5627,-122.4185,-827.6321,-63.9438,-716.8466,-67.2584,-1528.3376,-10.1627,-729.6049,-53.1170,-806.4018,-24.8295,-694.1647,-51.4972,-682.1296,15.2317,-609.7890,35.4639,-511.1394
-548.1208,-99.0042,-786.4282,-41.5717,-639.5646,-44.3176,-1452.9462,-24.1262,-696.7363,-137.4911,-825.6416,-5.6752,-646.3704,-23.4753,-657.8167,33.3674,-598.4772,66.2931,-495.1341
-504.6480,-82.2369,-696.1968,-15.4367,-585.2458,-11.3435,-1383.7449,-61.8188,-653.6979,-204.4167,-777.7093,-30.2895,-606.8057,-18.6489,-670.4406,9.5038,-610.0015,103.7191,-512.6934
-571.1838,-73.9721,-671.0244,15.1895,-557.9679,32.0328,-1371.1256,-87.6150,-610.2641,-213.3862,-717.5250,-73.3540,-580.2574,-30.7740,-667.7888,-53.2297,-602.0667,154.7333,-472.9047
-591.4233,-78.2095,-642.2960,11.2754,-494.4203,17.9023,-1301.6670,-90.2391,-548.7590,-160.9213,-664.2638,-63.4394,-531.0992,-44.4915,-608.9005,-85.5783,-566.0536,152.3933,-400.2685
-543.0079,-98.0564,-540.1229,-24.2596,-433.5550,-36.1466,-1197.4020,-85.0930,-523.9713,-111.8363,-626.5104,-39.5239,-492.5611,-55.9489,-570.9989,-72.9788,-557.9744,103.9631,-387.0704
-498.8762,-90.9555,-511.4351,-22.9892,-441.9804,-26.2581,-1189.1243,-63.4416,-546.4766,-82.0886,-611.3519,-55.5547,-499.2015,-43.6291,-603.7453,-45.5690,-557.1382,74.1627,-396.6375
-479.9832,-57.6682,-556.5242,0.7555,-483.1794,5.9306,-1218.1116,-40.5439,-560.0974,-31.5288,-592.3181,-65.9478,-510.2334,-29.5049,-632.2387,-44.3452,-526.3458,43.8600,-394.2009
-494.1375,-53.0627,-529.2971,-17.4053,-510.8839,-33.7011,-1191.7489,-49.7511,-569.3834,12.8071,-586.6657,-36.7596,-503.5323,-51.8287,-593.1118,-82.4841,-511.8757,-12.3752,-422.3949
-491.8647,-59.6738,-492.7986,-37.9664,-520.2375,-64.6096,-1151.1982,-63.2832,-567.5047,14.9246,-605.3325,-21.2375,-481.4132,-71.5047,-509.2510,-110.6954,-514.1448,-37.7707,-445.7017
-431.1079,-44.1712,-506.9636,-18.8996,-501.3017,-19.4506,-1088.5756,-44.5728,-495.0058,17.3638,-568.0840,-55.2360,-432.6454,-56.4541,-436.8567,-95.0283,-477.0673,-17.9511,-410.7529
-399.9241,-53.3114,-457.0964,-20.0308,-460.3775,-2.6274,-959.8707,-18.9930,-391.1348,26.8863,-464.6756,-86.3551,-383.8008,-50.6754,-411.1040,-68.9950,-419.7478,-8.0838,-367.9174
-401.2407,-85.9272,-364.4947,-53.9406,-407.0276,-50.9824,-826.1747,-10.3115,-349.2958,4.8281,-398.2951,-60.5812,-351.1690,-63.3638,-398.5954,-52.4516,-373.2908,-12.2047,-348.2907
-305.4102,-74.0786,-333.7222,-59.0835,-335.7616,-70.5029,-752.4778,-5.9741,-363.0616,0.2196,-385.9696,-16.0638,-304.7286,-58.2578,-357.1131,-30.3471,-325.4425,-10.8514,-326.8608
-186.4678,-47.0836,-303.9892,-48.9398,-275.4609,-57.5778,-727.4639,1.7069,-378.2532,52.2448,-365.1260,-11.9627,-266.5065,-48.5244,-329.5248,-13.6271,-300.6365,-24.6573,-313.6100
-211.2540,-66.4239,-241.4397,-64.8662,-244.7375,-73.4234,-701.7892,10.8548,-354.7767,64.1985,-321.0113,-19.5157,-256.8707,-53.9292,-332.5210,-24.4822,-307.4995,-45.7712,-301.8137
-280.7649,-83.0049,-219.1680,-71.8205,-215.6790,-89.3750,-624.7672,12.3157,-282.3319,-11.6415,-254.2323,0.3982,-216.5092,-52.1190,-281.9662,-55.0045,-299.8163,-42.8104,-268.3504
-266.8865,-59.4443,-218.0439,-49.3437,-208.8533,-64.2621,-537.9510,-2.8754,-235.9328,-69.9930,-184.9176,1.7142,-160.0754,-38.6752,-176.0707,-73.3094,-286.4567,-35.0100,-255.6643
-265.0112,-51.5122,-204.1091,-36.9929,-250.8063,-32.3423,-524.3666,-7.5999,-259.2375,-58.0106,-172.2917,-38.4575,-166.7726,-27.4036,-126.8074,-51.6310,-296.2056,-42.8015,-268.3824
-311.1889,-74.0801,-213.9173,-46.0334,-268.0327,-32.5386,-519.4344,21.7857,-252.7954,-42.8599,-199.5508,-54.4593,-183.3001,-16.7374,-144.4748,-18.0823,-296.2088,-49.2288,-229.5998
-289.9529,-77.6217,-210.7226,-53.3261,-217.8295,-55.8221,-426.7863,44.7962,-171.4223,-55.8539,-186.8791,-21.5587,-140.4001,-14.0029,-135.5905,-36.8631,-278.8082,-57.1144,-146.5611
-190.3281,-49.6951,-157.9852,-47.2582,-167.9869,-63.5017,-316.5115,27.0994,-100.9677,-62.5159,-138.1748,8.2175,-110.3399,-19.0311,-78.8597,-87.3737,-257.7403,-74.6427,-92.6971
-113.9909,-20.5977,-131.4983,-30.2493,-153.5609,-39.2111,-262.0995,3.8594,-53.5389,-31.9955,-106.9112,9.4315,-128.3114,-10.0268,-25.7615,-84.2179,-206.0941,-84.6101,-64.2439
-112.8686,-18.0140,-146.2768,-23.7573,-157.5897,-22.6679,-219.6400,8.0079,9.3845,36.2307,-95.2316,-5.5143,-131.4288,1.3993,-5.9712,-35.3741,-145.2634,-91.8122,-41.0663
-162.1963,-38.6230,-143.5912,-38.8026,-186.5579,-37.2340,-185.5195,20.1463,33.9133,75.1004,-91.5465,-20.1581,-124.8718,-7.9053,-11.2649,-12.8659,-125.6903,-102.3587,-50.3230
-211.5310,-48.2238,-154.8699,-43.0740,-230.1113,-43.2666,-210.6846,9.5406,-14.5645,11.9959,-109.2737,-13.3391,-150.2476,-14.0408,-33.4980,-9.2189,-123.4003,-79.6934,-101.4158
-241.5527,-41.9538,-189.0269,-23.0276,-245.2800,-25.0992,-259.6660,-19.4653,-79.0523,-76.7670,-140.8035,-2.8891,-170.7604,-3.3487,-85.6164,17.5018,-122.6425,-20.3456,-156.3740
-240.0401,-47.3890,-143.6226,-8.2586,-187.3736,-4.2428,-232.9255,-19.0720,-109.6046,-55.4284,-128.0772,-36.2737,-129.7434,0.5316,-140.3128,46.2670,-125.2232,24.4412,-131.5195
-167.7598,-52.7904,-21.6122,-1.9851,-52.1027,25.7017,-110.5350,30.9837,-83.8894,35.7899,-41.0213,-90.3912,-37.4873,1.8641,-120.1611,47.4276,-77.6168,40.2797,7.4651
-75.3687,-41.8219,39.1122,3.8299,46.8963,46.4471,6.2316,65.6395,-14.5775,60.6820,36.4902,-96.4384,25.7927,12.0110,-37.4279,36.1406,-13.2896,40.1050,123.2149
-82.3686,-41.4648,13.8379,-8.9714,15.0568,12.0724,44.2458,41.3074,40.9500,15.8952,27.9056,-50.6851,11.5078,11.0715,14.4110,23.2134,-25.7034,12.6160,105.8479
-142.5284,-39.6267,6.1975,-19.6745,-22.4110,-29.9107,68.8993,11.8268,73.4981,-27.4087,-1.7910,7.5465,-3.2525,5.8345,39.6881,-9.0052,-21.5530,-26.5342,74.3136
-124.4104,1.6260,39.3101,9.0497,27.9910,-7.8992,114.4919,6.7491,100.7556,-66.5242,-13.1638,52.4234,34.6648,22.1505,80.4486,-50.5899,79.3936,-38.1797,96.4781
-67.8400,31.9726,32.6365,31.7072,13.0005,22.6583,91.8073,-1.8043,77.2910,-103.8253,-80.0110,57.2461,29.5499,39.9338,74.7538,-39.9780,101.1223,-34.3322,51.7229
-50.7797,-6.0362,-25.9886,-2.6443,-98.3940,-4.2264,14.8958,8.8101,13.5914,-94.7684,-159.4570,20.9682,-41.7436,35.4375,2.0758,40.7055,-17.5543,-40.6280,-36.5744
-35.8604,-62.0809,-28.4654,-51.1443,-102.1796,-44.2792,15.9367,56.8600,5.0424,-32.6088,-130.2437,-13.2923,-52.2011,19.5679,-41.7061,101.3869,-73.3183,-43.0702,-22.2942
-18.9894,-83.0513,74.5280,-70.5908,10.1682,-60.9460,83.5401,81.0252,40.5354,32.9930,-65.3478,-23.2703,10.5589,-2.3221,-27.6400,79.0617,-19.1042,-39.6647,37.8659
-19.7254,-79.2018,172.4053,-72.4417,71.7931,-67.6521,114.7470,63.3650,51.6128,65.9758,-73.2884,-18.0611,44.3387,-19.2733,-4.6237,37.1874,27.6482,-50.5154,35.4107
9.7237,-49.3143,179.8479,-56.5601,77.3489,-52.7700,103.8478,51.2175,63.1460,68.0366,-86.8931,4.3676,35.5361,-9.0310,13.3655,23.0496,77.5752,-73.9231,16.9039
38.8992,-7.4424,148.9302,-32.2138,50.7661,-30.2009,60.0850,38.0977,71.5250,68.8542,-95.0773,32.4751,-8.5165,6.7664,-0.6116,6.6886,125.2819,-104.6144,-5.1349
-14.0142,-16.5157,117.7071,-45.2949,-44.7843,-54.4499,-3.1104,19.0522,38.0999,103.6700,-178.3643,35.0527,-87.7947,-2.6760,-52.2965,14.0362,81.6472,-139.5426,-51.3505
-85.8865,-79.6646,77.8490,-92.0156,-99.6578,-104.3854,14.2711,43.9763,47.3313,160.3175,-248.6302,11.3894,-101.1001,-15.2416,-41.1446,77.9143,12.9529,-148.0833,-27.9752
-103.4524,-125.8100,77.1513,-115.6016,-29.3894,-113.3818,119.1293,88.0680,137.2216,178.1916,-201.3605,-19.0836,-14.4900,-16.5802,59.0274,110.4385,14.2763,-113.9939,75.3887
-120.1545,-129.4062,129.6590,-105.7072,23.6591,-94.6085,164.8117,75.7795,157.1627,126.9255,-143.2971,-43.2096,38.4146,-27.2181,115.3396,56.5408,-0.9604,-71.5633,113.2061
-135.9815,-117.7175,164.0008,-92.4888,8.1250,-91.1312,129.4326,33.3308,63.3964,44.2876,-142.6498,-43.1627,32.6185,-40.5993,95.5130,1.0300,-68.9102,-42.8195,65.0781
-102.2398,-111.2562,183.3940,-87.4963,47.0445,-92.2027,126.9111,17.8558,4.0150,-12.6755,-116.2123,-32.8139,68.0792,-48.1424,104.2735,-16.6649,-89.3365,-5.0330,41.0257
-80.7385,-126.8112,238.6658,-93.1474,115.4270,-82.3927,156.0150,18.4840,11.6103,-22.9634,-72.8205,-60.4658,106.7326,-72.4851,129.9531,-43.0981,-63.1789,54.5514,67.6836
-99.1378,-156.3911,279.0592,-104.0968,128.8542,-71.6665,160.9638,32.2771,3.3300,-5.0559,-74.5145,-110.5755,88.1088,-100.1103,94.8362,-62.0994,-55.2569,109.5799,122.5724
-66.9313,-158.0750,267.0325,-100.4606,158.1796,-63.2845,178.1979,63.7686,-2.7519,22.9402,-64.4370,-120.4610,98.6165,-94.6035,53.6063,-45.8228,-48.7637,126.1240,189.7294
3.0454,-132.3776,255.3792,-85.2452,211.8155,-56.1487,218.2648,76.7219,31.9276,57.8096,-7.5944,-107.6045,158.5013,-79.0969,66.6706,-41.0919,-45.9356,106.9995,219.6194
-3.4276,-123.9207,239.2690,-79.3804,187.9109,-51.9741,225.2397,67.8495,76.0525,72.6199,33.8484,-122.4511,172.1293,-85.6740,72.3043,-67.8997,-76.7688,93.3055,204.4431
-74.5513,-131.6523,189.6616,-78.2081,127.3644,-48.8769,198.1111,61.8539,135.8576,42.5852,46.9570,-135.7158,143.0879,-92.8856,38.6735,-94.9121,-102.3543,97.2796,183.4716
-101.4149,-126.0710,164.7515,-73.9342,124.4715,-50.9499,174.9194,41.6201,231.6974,35.7951,60.9353,-122.1359,130.8649,-88.1149,24.1691,-109.4207,-103.3169,77.8288,149.9869
-53.2586,-117.3354,178.1176,-78.5446,137.4794,-57.8048,166.1029,18.1895,304.8425,133.0677,69.4981,-126.7669,121.8657,-85.5571,49.0152,-89.1127,-112.8719,26.5586,118.2027
-4.2257,-114.3083,153.2819,-82.5546,114.4173,-53.1388,159.0603,25.6563,293.8036,245.4132,64.8970,-146.8419,96.9723,-75.6365,73.3540,-23.0676,-110.1013,-5.1981,126.4774
-37.1696,-90.3909,75.3484,-58.7396,47.6655,-34.0011,102.1095,8.9293,205.8384,223.8087,28.6321,-121.1263,39.9538,-50.8660,58.3101,24.9829,-79.7848,0.5519,97.7524
-119.2773,-44.2770,-15.7640,-16.6533,-81.9866,-11.1915,-29.6856,-61.8707,87.7608,118.6719,-49.1346,-73.2263,-69.9388,-32.5942,-18.2737,21.0233,-78.4426,11.2325,-24.8016
-133.7278,-14.1354,-86.8955,10.9047,-198.0641,19.3841,-128.2372,-82.6860,2.5640,74.8152,-91.6696,-78.7434,-157.0518,-24.5840,-115.3974,22.1390,-101.0393,20.1705,-98.7036
-68.7999,-11.1257,-76.0336,19.5468,-169.5501,54.4009,-81.5059,-21.2643,-17.5207,71.1499,-48.5281,-109.9532,-131.3165,-9.4868,-130.7249,44.5479,-64.3997,42.4347,-22.4739
3.2845,1.3330,18.3558,31.7010,-28.0774,73.1063,56.7577,15.0574,-2.9505,20.6707,5.8523,-82.1335,-37.9667,14.8479,-49.6929,46.1546,42.1941,62.9898,86.0305
86.7400,51.7950,89.8691,63.2806,99.9331,80.7108,162.6290,1.1398,-1.7535,-45.1417,38.8808,-2.9175,54.4862,45.2881,9.4459,33.6459,143.8064,57.4147,111.3877
173.3734,113.8609,109.5798,102.8356,166.6371,97.3551,176.3318,-2.4972,-59.4140,-84.9627,94.4809,51.9473,130.3759,79.9879,-18.7747,33.3180,171.9728,28.0125,62.0912
192.3000,140.2531,144.7585,122.7629,171.1389,115.1843,136.3417,1.2322,-167.8860,-115.2058,141.9691,53.2710,153.2180,106.0759,-44.1227,43.4582,131.7677,-5.9662,0.1769
189.5707,130.6008,185.6870,116.6140,158.8081,121.6670,176.4484,7.2659,-192.0883,-105.5875,159.3464,32.1054,146.5884,118.8402,29.8054,71.7721,119.4363,-28.4197,24.6476
231.9740,112.8159,191.5582,99.8972,202.6190,116.0060,332.8009,40.1688,-57.6465,-50.5609,206.9926,25.5297,192.5877,126.2376,156.5472,110.2303,183.3613,-36.9470,143.3641
212.6233,82.0927,185.7866,75.4742,247.6039,90.0796,422.9218,65.2504,64.1622,-53.7212,253.7244,37.8476,236.2558,125.0627,218.1079,125.2382,217.4410,-35.6723,200.1388
113.7249,36.6789,176.1198,44.9149,203.7303,55.1042,375.4138,60.1982,52.6287,-133.1687,223.4528,40.9862,195.9778,113.6378,192.7521,123.9207,155.3509,-24.6540,154.4430
129.7080,19.3402,158.8335,30.6146,164.6360,44.1911,384.3243,71.4089,64.1059,-159.4364,191.1717,25.6393,171.1396,105.6875,168.4837,120.5080,98.8022,-15.3289,170.7383
262.7363,38.6006,171.1725,36.2803,227.6821,49.3895,504.8870,91.3652,182.0953,-97.6583,230.2818,20.3270,223.7233,102.1953,196.4192,95.7946,110.6938,-20.4420,282.3137
295.8043,37.7925,202.4801,33.8181,291.3614,41.5529,560.5540,79.9471,242.2916,-36.3834,266.2921,21.4322,242.6098,89.3107,224.1765,77.7236,130.5559,-12.8767,353.3599
231.5589,4.5305,201.3797,19.5491,275.9854,37.2219,521.2175,72.6902,178.5825,0.6196,262.4090,-9.1276,201.7918,67.7301,200.5052,106.1619,137.4181,34.8791,359.5914
229.5368,-7.5732,192.8869,16.0919,258.9280,47.4676,487.2755,77.0367,112.3244,19.6957,265.6060,-40.9666,183.2489,46.0346,157.4865,119.5707,154.2185,87.0603,345.2278
264.2834,11.3122,217.7997,21.9459,289.9048,40.4413,449.7142,29.7288,98.4235,-19.1029,268.3371,-13.0115,181.4876,23.8196,148.8125,65.6062,163.1865,111.7637,284.0301
254.2540,23.5879,244.9123,28.0031,324.5383,27.5046,396.2579,-49.0500,106.9550,-86.9154,250.1752,24.8082,175.7868,4.7192,162.7664,14.0232,157.5947,140.9848,189.7527
237.6440,32.3022,244.1017,47.0914,313.0754,54.9015,358.1274,-84.4937,111.5141,-93.8178,224.9938,-5.5907,187.2261,-0.0146,139.6836,16.4105,148.2463,174.9730,114.3307
228.5462,57.9511,221.0821,72.7901,244.6672,89.0264,298.5947,-88.3339,78.3810,-36.3076,190.0330,-46.1077,177.4481,7.7867,69.1516,27.6601,122.9957,150.4571,46.7070
200.5039,75.4246,189.1886,69.8613,174.7888,64.7935,234.9034,-89.2950,43.4367,21.0341,172.1615,-19.5503,134.4218,8.3299,16.4734,13.3896,97.4121,71.2050,-1.9862
191.7219,62.8214,174.5770,39.4036,155.8622,14.5963,243.8513,-69.5076,77.9026,25.5771,198.7915,19.4459,120.2843,-6.9737,8.1523,-17.2237,90.5380,23.2854,0.5440
217.0311,49.0615,173.7731,23.9254,137.5323,5.9757,251.3549,-43.2757,100.8546,-40.0280,193.0947,15.2456,111.6671,-13.8248,-19.3047,-39.5441,62.9839,29.9201,-0.4228
216.2944,57.3166,151.3056,35.8290,84.2345,26.6815,191.9653,-33.2158,29.3996,-100.9725,124.5742,11.2839,63.3649,8.6988,-69.0398,-22.4113,28.7255,27.8790,-22.1212
170.3695,71.2025,127.4689,48.1462,57.9107,38.4556,186.8189,-19.9112,2.1562,-75.9126,111.7734,30.2662,42.0052,37.7503,-35.8684,8.2896,74.4293,-14.3969,5.6272
123.8079,78.9877,127.0630,48.7623,47.2447,45.7469,229.2327,-13.5277,85.0483,-54.3004,171.9657,41.1580,48.6341,45.1559,68.9191,-7.3402,153.0603,-59.2321,23.1009
114.7197,82.0260,98.8464,43.8811,-22.3967,48.5097,155.1632,-35.2077,84.8946,-123.9176,178.7713,39.7624,-2.2155,37.6212,76.9169,-33.7751,120.7052,-65.2062,-73.0169
151.2036,67.5705,49.1843,27.5827,-76.1614,24.9258,62.1665,-41.4017,-35.7514,-141.1571,144.8322,29.1899,-38.6529,18.9106,-16.5211,-8.0084,16.7694,-33.9835,-151.3498
197.3877,38.6953,71.2716,0.9775,-9.5704,-13.3996,152.3613,-19.1626,-54.9898,-15.7519,173.4759,8.6468,40.3198,-17.4200,-6.0121,13.5586,8.2719,-2.6126,-71.5130
206.7354,35.7996,144.6427,-6.4193,86.1244,-25.8948,288.3288,-33.2874,48.2291,61.0418,217.7945,16.6510,116.8168,-41.4341,135.8434,-27.7116,97.2542,1.0166,23.8208
192.4196,64.4151,167.1899,14.6650,102.7946,-5.7522,273.5827,-78.8645,88.5115,-14.5882,207.7996,55.8127,88.2033,-27.4465,209.2979,-72.5235,150.6581,-6.3344,6.7348
180.8327,62.3139,156.4710,20.6929,99.6088,11.2766,220.6062,-70.5838,77.1440,-72.8572,204.2204,51.1427,58.8615,-12.9973,174.4808,-71.9478,131.7500,4.5304,-1.1716
147.0831,2.5300,169.7085,-15.4547,126.5169,-0.0094,248.5658,-3.0839,120.1675,-39.9634,236.3165,-5.2425,90.7871,-22.7594,170.6733,-43.6036,101.9227,20.5296,65.4625
86.7706,-51.5794,166.7043,-52.2463,116.3719,-21.1772,259.7153,48.8494,136.0232,-31.3598,232.3957,-32.9590,102.2681,-18.3090,193.5766,11.8009,81.8623,9.7331,80.4254
54.7121,-50.5122,116.2730,-49.9055,42.2936,-22.8026,203.3279,51.2183,64.0223,-50.6778,173.8582,-25.7469,66.6952,3.8342,153.1809,70.0304,51.2890,-11.8599,13.2153
80.0706,-23.0196,69.4440,-29.0566,-8.5054,-11.5859,187.2345,23.4835,35.3934,-24.4400,128.0315,-28.9354,53.8835,-4.9312,115.5258,59.5791,33.6157,1.9423,-8.9719
128.0464,2.5216,71.6543,-12.2316,35.9822,-8.6600,275.9047,-5.3099,105.2906,-20.1306,134.7320,-9.8870,104.8082,-28.1216,162.9159,-5.1875,78.5896,40.2243,50.5560
153.2738,36.2680,108.2816,12.5676,118.4341,-2.8672,382.5240,-14.8878,153.7133,-94.0314,163.0528,55.4059,170.3711,-2.2002,221.8973,-23.4883,167.6670,37.7658,93.3725
148.1056,67.5908,120.7123,36.8475,122.8949,14.8547,379.7199,-14.6168,126.3600,-133.4788,169.0493,97.5437,158.4714,49.4757,218.9640,22.2196,212.2803,-15.4600,64.3384
142.1603,71.4915,76.4490,33.9614,50.9246,12.9525,282.1192,-30.0060,79.8725,-82.5433,156.0531,89.2159,76.5278,51.1560,175.0611,48.7350,172.1062,-46.8112,10.0468
149.7231,66.3542,38.5620,24.4097,18.5931,-11.7029,238.0887,-54.2993,39.3147,-69.3777,154.2386,89.0752,49.0310,14.6525,116.3956,14.3220,116.4666,-14.6143,-10.6130
139.6849,75.4909,65.1354,41.0694,48.8561,-3.3889,280.4489,-54.5839,12.0049,-149.5831,160.0063,98.2998,94.1182,10.9918,79.8961,-27.3141,119.1980,27.8631,10.4371
101.1628,75.3050,88.1611,56.7846,37.9089,42.1884,280.6041,-27.3990,20.7161,-184.1430,147.2928,65.2236,83.3103,40.3950,103.2500,-13.7968,144.9010,21.5942,40.2820
83.7661,54.6298,46.7394,40.6111,-35.1439,53.4328,219.7901,-12.2431,43.5412,-100.5780,114.1283,18.6478,4.5024,43.1197,130.6648,28.0294,125.9405,-8.3899,48.3283
122.3519,50.9943,17.2382,26.1103,-54.6353,22.6996,232.3647,-33.6154,68.7979,-22.9813,89.4306,20.8985,-8.9101,9.8731,109.6557,16.8424,105.5447,-1.0491,54.3251
177.4945,71.7156,65.6371,41.4934,38.0314,19.1363,353.7547,-53.9903,155.4112,-32.2734,114.7933,44.9765,74.6601,-9.3744,117.6495,-44.9656,156.9280,37.6102,114.5252
175.1802,66.9549,126.2864,50.6309,143.4777,40.2747,476.0008,-30.1007,287.1849,-44.4112,183.5390,35.0377,158.7754,7.4115,197.0365,-62.0296,209.4240,44.4399,220.7803
104.5626,19.4562,126.8392,25.5544,155.5917,26.0737,522.8905,14.2599,330.4688,1.0934,225.5349,1.7073,189.9737,26.6752,248.6839,3.6953,168.1101,16.3311,281.2425
68.3979,-23.7727,100.1431,-3.2643,121.4535,1.5574,505.0600,39.2022,253.6616,65.5984,230.1717,-36.1334,193.3081,16.1383,224.7237,81.0962,116.7122,28.7798,262.1093
134.8112,-28.6838,101.0667,-6.1785,128.8641,25.2682,447.9406,51.9163,164.1488,112.4299,248.3093,-87.7117,194.2495,-15.9456,183.0277,94.8850,144.9268,98.1200,224.9514
176.6113,-14.0078,102.7798,3.3727,116.5209,55.0707,352.6648,53.0524,101.9805,95.6842,225.9001,-116.3957,173.5015,-40.2854,137.7843,40.4899,148.6502,136.6291,179.5199
73.3823,-10.4490,69.9772,0.7648,16.8658,27.2720,243.3060,20.4114,51.8449,-14.2083,101.4219,-73.4245,109.0816,-41.4203,97.0879,-28.4063,58.2173,95.5523,94.2909
-35.1736,-27.5783,66.2955,-20.0616,-35.3907,-23.0588,210.8894,-13.5659,77.6443,-93.2848,10.9529,-13.4354,58.2830,-28.4395,131.5465,-46.6015,-1.6691,29.8543,47.4067
13.4426,-55.2548,133.9109,-49.2699,57.4609,-44.4467,292.2546,7.2334,186.3880,-13.1801,62.4623,-16.5495,87.9448,-18.6509,212.2572,1.3500,28.7122,-8.9557,108.5019
120.5443,-65.1584,163.6505,-65.5991,120.7019,-49.9943,347.1109,55.3911,216.1623,96.3759,120.9032,-41.5937,127.2933,-18.5501,181.6735,59.3333,55.8554,-21.6678,147.6731
163.2348,-23.8191,92.4104,-43.3077,35.0413,-40.4629,252.7779,61.9794,77.5718,58.3989,104.4774,-16.4509,82.2334,-21.4715,10.1346,61.0900,70.3886,-10.3223,40.8966
202.6695,59.1393,49.9193,16.5505,-32.5585,10.3363,120.4825,27.5192,-92.8024,-39.7127,117.5699,22.7794,24.6871,-16.8148,-144.3741,10.7136,130.1513,18.0061,-95.5269
253.4170,115.4824,102.4382,66.2945,10.2997,64.3601,96.3332,3.1415,-164.1766,-47.3348,152.6138,19.6190,45.1730,-5.6369,-188.2176,-23.1738,177.7618,33.7726,-121.7145
223.6310,103.9265,131.9001,64.8430,20.0517,60.7765,123.3425,7.9511,-182.1315,-6.5094,116.5875,-0.6901,76.3371,-6.2162,-188.1727,-11.2843,154.3161,29.5004,-98.7151
152.0854,74.0902,96.6788,39.2243,-44.4731,28.6943,94.4167,16.9595,-219.4532,-8.4537,83.5513,-1.8466,50.2636,-23.3247,-197.3458,-7.3069,117.9978,24.7944,-119.5936
143.3088,72.8169,79.5356,32.0598,-63.5211,24.6667,43.7777,12.1621,-237.6214,-50.7331,125.1904,6.7017,24.1592,-28.0010,-170.0948,-30.6838,99.7018,20.0696,-151.6976
153.3150,58.7218,88.1386,23.0264,-22.8349,25.4933,54.4617,17.7592,-173.8297,-85.3272,150.5047,4.8462,47.9266,-6.1203,-82.1003,-11.8981,63.6475,3.0073,-141.4721
121.1770,2.5949,93.3271,-14.7188,15.1784,-3.4852,124.7794,56.5476,-65.8877,-53.5244,134.9298,-15.2734,97.3081,10.5855,-0.5325,61.0924,27.4274,-21.1690,-92.8355
109.0867,-33.3010,117.2113,-42.1348,57.9764,-29.0680,190.3959,92.4893,-10.2981,29.9984,152.6619,-35.2694,141.6423,2.6325,19.6245,92.3639,31.2228,-33.8652,-30.5797
141.2179,-5.0453,134.5610,-20.5810,93.6702,-13.4283,207.5254,79.3271,-27.4932,25.0284,175.0169,-22.5683,156.4012,-7.2050,15.9667,36.8802,63.0682,-10.6755,12.2576
152.0050,45.3435,107.1658,26.9235,83.2756,34.5925,196.9976,37.3708,-53.8041,-119.9779,161.1705,6.3417,143.2585,-6.6212,43.2045,-52.9051,104.2319,55.5926,24.5973
138.1171,71.4557,96.4529,60.8728,89.9558,80.5663,214.8740,20.6620,-44.9907,-229.6267,176.1476,3.5950,163.1390,-10.6035,94.5313,-131.2553,138.2138,120.0725,62.6832
143.0969,58.0036,146.8546,56.1090,185.5628,78.8624,290.0645,46.6421,19.7647,-154.3660,228.3549,-21.2974,239.3619,-26.0620,136.2848,-172.7711,142.3707,128.2486,183.7483
157.4629,10.1526,207.5400,13.1349,305.4701,24.8526,404.1471,84.5437,170.4564,23.0943,249.2568,-29.6730,293.8063,-44.3366,158.3599,-159.1619,149.4366,91.0012,340.4329
166.7773,-21.4157,248.8540,-17.6855,356.2574,-11.1359,500.2295,85.8779,346.5765,142.7684,254.5278,-25.9035,277.5676,-47.2228,168.1405,-113.9032,199.1702,50.8529,410.6162
174.7752,-5.9963,262.0352,-7.9963,327.5431,-0.7385,517.3204,51.3646,398.0243,172.2691,286.8161,-22.1450,239.5759,-23.1479,172.2774,-51.2643,235.0178,10.0318,340.0271
151.5831,-9.8033,207.1648,-18.7158,236.2226,-14.2106,449.8741,47.2089,306.7282,189.7555,299.2119,-19.1889,202.9812,-3.3720,170.7543,44.8502,203.5400,-34.2294,211.2918
84.9715,-66.9196,102.0492,-74.0853,107.4190,-60.0983,331.6807,87.6038,201.6080,207.9615,243.8645,-33.2632,127.3362,-23.6784,157.2035,117.0758,157.1917,-40.0128,128.6221
28.4149,-89.6217,24.1626,-88.8950,13.1686,-55.0756,190.9012,93.4774,114.8384,123.4735,162.3194,-46.2089,34.5001,-48.1265,131.1286,87.9040,136.2637,15.0588,86.5522
13.6009,-43.2099,7.5821,-38.9124,21.3772,-10.6478,94.7191,45.8503,5.1145,-51.3281,140.7175,-10.1642,15.8197,-29.7615,107.7514,21.4835,116.3728,71.7939,44.8207
12.1870,-13.5607,42.6961,-11.0630,101.3531,-9.3984,112.5316,22.4271,-46.4348,-115.3355,204.4685,39.9834,74.4930,-0.6255,106.0833,16.0646,106.9264,65.1381,36.7670
12.4071,-24.5473,80.3700,-24.0311,135.2104,-28.2026,178.9174,37.8740,17.4505,-27.1429,252.2477,33.3493,107.5602,1.8536,122.8481,36.5426,112.8317,19.0320,73.8159
38.7916,-17.5825,53.6910,-21.3320,77.1699,-19.3880,202.0009,39.7977,64.6981,21.2203,198.1778,7.0929,90.1434,-0.5810,133.6923,32.1272,84.6431,-2.1904,96.4848
106.2821,2.3693,21.4300,-12.8407,61.3017,-27.8417,266.5151,39.7638,33.3284,8.1139,155.8489,26.4719,126.1743,-1.8416,150.6715,27.6575,59.9015,8.4210,128.0328
191.9859,1.0841,102.9095,-26.6838,196.0561,-60.9455,449.3213,65.0693,65.3547,68.7883,245.2352,56.2767,244.5725,-20.4392,226.3988,13.5972,136.1460,18.5711,247.8736
236.9688,-2.0093,218.0503,-31.1575,331.3078,-55.6829,601.5743,76.8987,196.7680,119.6513,336.9229,52.4261,316.0039,-31.3612,340.6324,-34.1306,233.7565,19.8088,382.9640
216.0654,-2.1697,218.4927,-21.7420,297.6882,-26.4978,608.7282,66.7197,283.6162,44.3873,298.8311,33.6115,277.8216,-13.9887,395.8635,-62.5054,205.9426,15.0877,409.8482
188.4594,-18.6361,181.9984,-30.6997,216.0580,-24.9704,589.9847,83.0000,294.4503,-8.2720,252.5089,10.1969,246.1133,-4.4111,380.8386,-49.0298,136.9509,2.2799,383.7576
197.0633,-21.4769,216.0452,-35.8272,244.1708,-27.3896,623.1551,107.0366,309.3392,33.3144,288.6190,-1.6206,286.1120,-14.2398,365.0204,-56.7604,170.0871,-5.9234,391.2793
202.7541,13.9588,231.3808,-8.7841,287.1639,-17.6169,624.0381,76.5352,321.8105,4.4845,284.8754,42.2405,300.3130,-5.3040,346.6065,-89.3520,222.5964,-5.5663,379.1563
197.8790,46.6445,189.7271,17.3668,264.6123,-18.0396,598.0502,21.0755,331.6057,-75.9225,220.8980,102.0878,258.6302,21.3543,321.7365,-88.3512,206.6884,-13.3943,338.9025
232.1749,51.1702,207.7471,24.2349,294.4840,-1.9455,645.5079,10.6021,393.6494,-36.3310,253.3295,82.7838,277.9672,25.8669,365.1973,-70.8195,225.7403,-9.1844,360.4560
283.9839,55.0531,286.5126,37.2525,389.5297,44.2997,710.0509,27.2139,411.9788,28.4679,368.6498,19.2158,368.0319,9.9293,429.8606,-79.8126,300.4994,39.6277,396.5559
283.7598,68.2087,302.5431,54.9721,385.3318,63.6331,634.3636,24.5847,238.4498,-33.4819,379.5552,11.8980,376.1361,8.2627,343.2691,-75.0575,286.9525,84.8940,316.3808
240.1656,68.1750,245.9539,54.9996,269.1193,52.3279,433.1482,29.4166,-1.8158,-83.0842,271.9076,24.7807,265.7645,25.7875,146.9805,-19.0091,189.3065,67.5265,183.5275
204.7368,49.4682,204.0265,44.0616,202.9307,65.7680,293.1420,70.5023,-72.6421,-10.4304,195.7334,-13.5527,180.2377,39.5639,66.4087,37.4620,165.2944,34.7120,161.2457
199.5176,36.5787,212.6242,41.1442,242.5053,87.3188,319.4604,100.7880,-4.0286,39.0638,188.6092,-38.8792,193.6338,44.5759,125.3657,49.8002,228.6288,41.4365,236.2561
219.5169,44.3164,238.2480,46.1786,299.6800,73.4018,408.0403,83.9363,36.2720,14.1159,181.7192,0.8040,235.1743,53.3518,169.5411,50.6049,257.9526,46.7963,279.7945
213.5525,40.5857,224.0399,38.9213,299.2110,42.2036,412.3457,60.5700,46.7097,50.3547,166.0430,18.1555,246.6222,51.1629,155.5047,67.3193,206.8013,25.8744,257.1313
145.6781,-4.7210,173.5420,2.9991,248.2540,6.9688,348.2641,57.1198,111.0818,156.5938,166.7054,-29.3339,227.2104,10.9677,124.3330,64.8187,125.1305,18.2175,220.3293
96.5777,-47.3972,160.4251,-40.5043,204.7359,-40.6018,306.7469,39.2457,224.4919,219.1649,156.9959,-49.3319,170.1783,-40.4424,86.6208,18.1344,79.3897,7.3846,192.1357
126.2026,-40.2799,176.9296,-59.8492,181.8868,-75.6999,277.9183,0.1316,338.7030,230.5177,107.2638,-3.5883,82.5858,-55.0037,72.2098,-30.8510,93.3587,-51.8883,154.3750
141.2862,-24.3713,140.9779,-62.6299,130.6946,-82.0913,245.3068,-23.1206,418.4935,232.7436,46.6464,30.6069,11.6999,-44.8520,98.2530,-31.4634,123.1054,-102.4718,115.5495
105.8174,-32.2690,90.7524,-57.7162,72.3793,-68.3827,276.9980,-25.8855,435.5492,199.0497,23.3570,17.7033,-4.8974,-35.0325,119.1398,11.8471,137.6113,-74.8809,113.9213
140.1191,-16.4853,113.8272,-28.2662,92.7517,-27.3486,359.0777,-25.1562,406.3378,127.2049,47.5110,2.9339,33.9294,-7.3953,128.5861,53.8083,161.9137,-27.8697,134.7722
249.4469,33.1677,158.1196,9.6383,169.7318,16.9630,382.9222,-19.6775,373.5754,73.8666,98.6610,15.2556,105.2180,28.2831,155.1493,54.9966,185.8167,-32.0524,117.2885
284.9786,64.7265,162.7787,27.5455,212.6116,19.8222,356.8845,-26.8096,320.1961,36.4657,152.4507,45.6154,161.4350,32.9824,148.2915,24.2162,179.6028,-36.5852,67.2090
225.5360,74.5652,175.5083,47.5308,213.6179,16.3296,347.9832,-66.9419,217.7270,-30.6855,168.5101,69.7232,160.4465,27.2513,70.5276,12.1466,174.1328,11.9377,34.7528
173.3051,73.1932,199.5526,66.2271,200.3889,39.3673,324.7070,-96.9250,152.7433,-76.5683,115.7002,55.5850,128.2837,36.0337,24.3322,31.3096,170.1162,54.4283,19.5125
148.5708,25.1953,200.6517,27.3739,198.4814,22.9544,314.5953,-68.1094,240.2083,-12.3272,58.4022,8.5338,145.3823,20.8801,111.8584,38.3572,127.6500,33.8687,37.4453
125.3657,-40.8705,224.2888,-35.7562,252.6935,-33.4898,418.5676,-15.1748,399.2669,88.8043,92.1034,-18.1428,228.6543,-11.7676,259.5032,25.0725,111.8687,-1.2294,130.4296
119.9257,-27.8392,254.4536,-19.6958,302.8450,-20.2811,531.5361,2.8517,427.2576,68.8537,155.1660,-0.1949,282.0995,5.0823,309.2648,21.5787,184.0184,2.1921,214.7674
132.7012,50.6872,195.2729,52.5781,235.1465,53.4095,485.9375,-14.0842,334.0557,-26.3536,120.3392,27.1403,241.9361,53.5132,249.0291,19.7686,237.2826,8.1472,183.6630
134.3180,79.9714,118.8944,70.9715,148.9042,71.0744,403.8750,-30.2744,322.8838,-7.7494,55.1634,28.4277,189.1874,62.6718,228.7827,13.0010,209.7325,-22.2691,137.1860
113.7032,37.6180,158.4449,32.4463,195.8844,34.7195,429.3016,-24.9584,399.9255,100.7471,84.4543,10.6618,194.7397,43.6391,289.9583,27.7123,200.9535,-49.3537,182.2542
92.1075,4.4520,216.3288,6.6896,249.9654,12.7034,418.6908,-10.1826,368.7351,97.8881,108.7564,13.1541,186.8429,31.2442,270.3409,37.2908,225.1522,-32.6573,193.0422
114.0906,21.1175,172.7887,7.7278,178.9607,0.8714,302.2345,-8.2249,229.1154,-15.0191,18.4248,53.8128,126.1237,16.6143,126.2420,4.0700,215.9795,-5.2800,89.0283
166.2570,52.7345,130.7383,18.5979,117.8937,1.9297,246.2762,-9.1260,163.3448,-58.7773,-48.9880,82.0042,100.2091,14.2784,49.2845,-11.1883,222.0914,-10.8753,8.4779
143.3363,58.2120,142.5145,30.8325,109.8851,36.9267,235.5312,2.8753,169.4885,-28.0189,-3.1555,49.5792,103.5663,38.5801,92.4189,25.7146,245.8896,-37.3798,-6.7645
30.7725,39.7855,83.5735,28.5183,-0.6876,55.0754,105.9564,1.8020,112.7606,-41.2089,-0.4522,4.9119,22.4099,42.8314,81.2661,32.2621,170.4954,-50.2811,-60.1731
-29.7010,31.0341,-36.5451,16.7100,-148.3391,26.3018,-30.5681,-21.0224,18.2500,-49.8755,-103.7301,8.7612,-87.6084,12.3709,-6.7613,-2.7496,60.0267,-40.6227,-100.1873
20.1343,45.2176,-60.1571,24.2966,-114.5344,15.8725,15.6149,-20.8986,-2.6143,41.2360,-144.8778,27.1330,-63.4870,3.8050,-20.2229,10.5455,93.0824,-24.7367,-22.4867
85.9936,61.0536,12.6475,44.1567,33.9060,44.1885,124.6157,3.4110,42.9011,124.6063,-46.9197,19.3198,47.4678,28.4423,37.8264,56.2208,187.1973,-22.4535,56.3022
104.3254,62.8815,45.2076,43.6569,70.9348,45.5106,108.0751,-4.3010,61.7446,76.1971,62.3190,20.4374,69.1036,41.3305,43.8406,58.2387,150.3084,-40.0479,-6.3666
63.2573,51.1819,-3.6147,21.7988,-22.8798,0.1568,6.1546,-40.4453,6.6960,-1.4923,70.3296,51.7509,-10.9491,35.0160,-7.5673,51.3108,30.9908,-71.8932,-125.3227
-29.1289,18.1699,-60.2974,-8.0522,-109.1997,-45.7565,-51.3143,-43.0546,-33.4029,31.2760,13.8685,62.1216,-76.3374,27.2450,-28.2583,79.5287,-33.0502,-106.1092,-144.9003
-84.4703,-43.8243,-47.2218,-47.9880,-92.5155,-60.6493,-0.4704,1.7000,84.1677,121.6972,20.5284,4.0019,-64.1187,15.3600,40.9941,104.8053,-48.0038,-115.7066,-49.3973
-74.5690,-119.0244,22.8689,-92.3749,-5.2668,-55.2686,110.0062,45.6770,288.4635,152.8187,131.1067,-93.4368,3.1269,-1.6361,172.4667,117.3052,-80.5779,-82.7448,44.2974
-135.6251,-175.2054,46.7982,-121.2507,27.3725,-70.2692,139.8550,36.7020,346.4985,126.9110,214.0475,-144.6088,59.5252,-17.3300,256.8406,136.0312,-160.7099,-43.4993,24.0771
-277.5449,-190.9636,2.5737,-124.6724,-3.2963,-113.4121,97.5525,-19.3520,277.8225,124.6068,198.7252,-118.2082,83.5041,-28.4305,267.5333,140.8707,-244.4709,-39.7289,-40.7326
-301.2769,-177.7837,1.4608,-109.5578,41.0160,-122.1745,173.0970,-42.9991,297.0685,180.4259,212.2078,-94.8735,132.5446,-27.7192,313.7189,135.6019,-222.7541,-37.5675,31.6139
-183.7332,-165.1786,58.6535,-92.4636,145.1722,-74.4024,340.8413,3.6308,364.3828,233.6811,285.5271,-129.1148,198.8788,-21.0066,397.8063,143.0887,-108.7345,8.0387,212.7560
-113.7130,-162.9164,64.6747,-87.1726,157.6890,-42.6104,370.7530,43.1420,321.5072,208.0842,280.3375,-155.0034,195.2232,-26.2578,406.1458,132.5243,-67.7198,60.9497,295.5925
-128.9987,-161.4736,40.5817,-85.9370,128.2689,-47.9720,304.9186,26.6090,268.8760,135.1060,229.3802,-141.9874,164.6106,-36.2926,376.0050,90.6607,-118.3979,83.7019,269.0394
-126.7592,-149.3048,89.3450,-64.0412,187.6373,-21.2134,341.6710,10.5449,302.2639,96.9729,273.6487,-155.7468,215.7427,-34.2453,385.1935,57.2115,-109.6961,114.8024,280.0434
-86.6091,-114.0846,154.0622,-18.5154,252.7435,43.0791,393.0730,23.3621,268.6625,82.4320,323.1843,-187.7515,274.2169,-23.9320,340.2746,37.4224,-35.9936,164.9269,321.4030
-24.5617,-73.1256,150.2019,9.8317,244.2605,71.0792,335.4943,46.8904,146.4641,64.5510,262.5205,-167.2959,241.0847,-6.4683,238.7885,27.1383,-6.4178,161.9564,333.9236
44.8209,-73.7933,146.6077,-15.9951,257.2711,37.7715,324.3058,96.2703,144.8846,99.5337,211.1966,-121.7028,215.6063,11.5188,252.6944,43.5446,0.8467,83.1790,377.2998
57.7716,-99.7923,167.3308,-61.3476,274.5499,-19.2192,405.1155,135.5925,255.2978,173.4698,214.8387,-94.1871,243.6494,-0.5468,321.6364,40.5602,32.0507,7.3377,416.9881
19.8283,-70.8645,111.4116,-56.6658,166.1713,-55.2124,359.1361,75.1321,264.5054,176.4144,138.1148,-44.2664,185.6423,-33.1956,227.3862,-19.4751,31.2434,-18.2553,308.0449
22.9117,4.3246,10.0534,-9.0307,28.5280,-43.3836,195.3587,-37.5209,206.6613,126.1763,23.5984,19.0963,51.9724,-30.9731,95.7592,-52.7597,12.2326,-31.8030,126.5291
46.1872,26.7370,6.9786,9.5275,38.1814,-9.2148,166.8506,-69.0957,271.3064,111.4284,20.2435,28.3978,21.3460,4.3330,174.4526,-13.9263,57.2221,-55.6694,81.3635
-2.0762,-13.2472,52.6815,-12.3213,78.4755,-3.6465,237.3834,-32.1658,368.5314,75.7339,28.4590,9.0090,55.8969,24.4131,291.3554,22.8102,102.4531,-64.0760,122.8775
-76.2636,-32.1854,-6.3331,-20.4683,-31.1751,-18.1250,166.2412,-12.0446,264.7626,-3.9166,-81.6612,15.1951,-14.6193,31.7082,173.4491,47.0714,42.1070,-57.8404,85.4990
-68.3556,-12.5679,-91.6261,-4.9329,-141.6771,-14.0619,45.8525,5.0586,52.0980,26.6143,-151.3763,13.6332,-100.3019,41.9301,0.3018,92.7650,-27.8608,-62.6400,57.3794
18.4176,-6.9928,-22.0280,-5.7792,-34.7295,-5.3239,153.6799,40.3020,37.7881,170.8231,-31.3371,-16.0942,-13.5114,27.9067,80.8520,94.5233,30.8291,-60.5982,180.7171
99.8623,-32.9215,124.4317,-33.2911,151.5907,-20.1169,392.6396,52.1038,202.1730,204.8969,125.4397,-33.6014,146.0622,-13.6724,303.7787,30.2137,126.4996,-17.6145,316.8403
118.1949,-61.7581,145.6973,-58.7886,169.2690,-43.0209,437.5856,36.5902,230.2214,95.6963,148.2938,-34.5943,179.9572,-45.4497,366.9337,-5.0494,100.3607,44.4413,286.1932
102.2438,-62.2814,87.5786,-55.7746,104.1744,-43.0283,313.1202,25.4195,90.8618,35.4970,119.7315,-41.3318,143.3186,-52.6839,278.3062,3.1735,19.7993,79.0820,188.9488
121.3885,-30.2715,121.6791,-21.1849,159.9484,-4.2605,295.1161,19.9459,53.6854,57.6563,164.7190,-49.0867,174.3651,-32.3084,247.6771,6.6235,46.5614,80.3009,187.3452
156.8796,2.9561,203.2258,19.4497,249.4160,56.4188,369.1431,21.6877,128.2298,51.2369,214.7557,-57.3207,217.5773,16.6884,279.0837,38.6329,141.0757,66.6887,220.2322
148.8508,20.1187,189.1803,39.7385,206.6107,88.5340,311.0620,30.4656,76.6263,26.6053,159.8576,-62.8126,180.6995,48.2941,220.8695,82.8606,157.2276,51.5969,168.2521
147.9329,48.2767,120.8329,49.8772,122.5926,79.2946,168.2842,17.1801,-70.3684,43.4541,68.7344,-43.0008,130.5464,26.2730,104.8339,43.9339,118.7570,47.7128,84.6734
198.7596,92.1167,109.9661,69.8193,130.7275,77.4249,162.1566,-17.7921,-83.3113,64.1975,68.9413,-8.6048,141.8165,1.3675,99.0772,-33.3256,147.3525,52.3931,77.7322
208.9622,113.1840,132.8441,87.3868,162.5283,93.5194,258.0529,-40.7552,19.2765,46.2254,122.9727,12.4335,159.1741,16.7893,178.2755,-40.7466,219.0164,44.7617,115.7295
151.1969,108.5154,117.7058,85.5586,124.0303,82.8973,252.7983,-55.8044,54.5301,11.9241,114.1676,32.8729,118.7914,28.1117,154.6198,-27.6951,222.0713,24.1596,86.6706
129.8862,110.6140,63.2490,73.9032,33.6294,48.8912,131.5482,-75.3752,5.9843,-2.7882,49.1256,57.2827,38.2980,6.1163,7.1603,-54.6886,162.3422,5.3141,-20.0721
137.7518,112.0261,5.5151,63.9003,-56.8538,36.5296,37.4924,-77.2346,-17.0263,21.4673,9.2963,52.9321,-38.4198,-8.4794,-92.8207,-54.5601,126.6082,-14.0596,-94.5701
86.3363,84.1615,-19.0217,50.0694,-97.6344,42.5141,25.7217,-61.1372,23.5545,64.5028,6.0688,17.6688,-76.7266,0.2234,-66.0979,-6.3791,121.6995,-28.1132,-78.6584
33.1529,42.2633,-11.9539,27.3237,-85.9743,34.1406,31.5735,-51.8896,64.9482,75.9931,-0.5473,-12.1173,-72.3691,-0.4114,-6.5970,22.2989,92.7468,-19.7030,-53.1204
68.4338,26.0618,-22.2955,4.7512,-83.0627,11.3025,23.7857,-44.9295,64.3572,56.0303,-15.0726,-9.7065,-57.4384,-16.5600,28.0259,12.5906,56.4031,-11.0861,-70.7131
143.3456,44.2359,-39.5694,-1.6678,-72.4557,-3.4118,70.2099,-35.1127,102.8835,53.4762,-3.9920,24.2168,-28.4692,-24.6185,99.8263,-20.3048,87.6748,-30.9186,-52.5773
187.9820,65.2529,5.2843,8.2626,13.1524,1.0602,189.6754,-37.9432,234.0963,73.7424,34.9926,50.3091,44.4885,-19.0545,204.4318,-56.2116,166.2376,-50.7410,18.5566
188.1859,53.6056,81.2507,8.2382,92.5330,1.5116,250.0785,-44.3945,304.4152,86.6121,43.4859,36.0884,108.8317,-11.9281,208.1489,-39.6508,169.7969,-49.5460,16.9667
139.7971,15.3812,97.3098,-17.9672,66.0956,-34.7942,171.2504,-37.5825,207.9974,96.3678,-3.0373,19.6851,94.6969,-14.0800,83.2784,21.1582,74.2083,-60.7900,-81.0463
89.6545,-9.1207,73.3803,-40.9509,26.4193,-70.9847,75.3399,-30.7669,123.0112,115.6352,-30.8716,24.1056,52.5545,-26.1949,-11.5883,36.8297,8.9892,-75.7556,-134.8548
91.6278,-7.6157,74.7257,-28.3850,49.8658,-34.8895,61.2370,-28.1336,162.7770,111.3888,0.6008,-8.6170,47.2601,-32.6545,-5.5074,10.7756,39.4540,-34.0900,-100.4927
96.6864,-7.9371,92.0533,-3.0824,57.5631,33.4379,62.5998,-13.6882,155.0929,56.3473,19.6377,-73.1584,44.6184,-23.6863,-11.6803,17.2778,68.2857,40.1827,-69.7031
70.0910,-17.8106,110.2913,-3.7120,45.8916,28.7823,48.4665,2.2106,36.1589,9.3362,-0.3301,-72.1325,34.2955,-15.4699,-64.0512,33.1217,30.7363,52.9631,-59.4235
75.9107,-6.9302,135.0340,-10.3811,89.8849,-18.0334,77.4632,-4.1499,-16.7496,40.2119,18.7179,-11.8422,60.5762,-16.0980,-61.1982,10.4167,9.5379,6.4735,-21.0608
106.7590,36.0034,141.3378,20.5979,139.2457,2.9477,134.6586,-27.0457,35.2362,79.6705,90.7889,13.9800,93.1057,-5.9705,-5.0152,-17.0853,77.4820,-7.7860,27.2973
85.7339,75.0202,124.8609,65.1560,129.7375,57.1939,162.9031,-46.6803,58.3692,16.9716,127.6673,23.3876,78.9063,17.9483,12.0065,-28.6016,164.9720,19.6423,47.8337
59.8411,79.7966,109.1446,63.8610,113.9685,36.3689,169.3568,-55.9361,41.1699,-71.1522,90.4813,81.1714,54.4498,34.0436,20.3804,-31.6032,171.1107,5.4103,44.0634
110.2462,71.6866,78.4855,33.9398,114.1402,-15.2953,171.9121,-55.1423,55.2443,-53.3107,38.6570,131.7476,57.5100,44.6105,97.6497,4.1600,127.7321,-55.0103,26.6125
172.5256,85.0423,38.1323,44.1287,91.9189,18.4115,169.6242,-46.4430,72.0601,-17.6203,33.3439,103.4372,62.8270,63.3537,163.8343,59.3272,144.9407,-58.3660,8.6105
174.6068,119.5218,45.2004,94.9072,66.8537,105.1140,159.8173,-43.3036,32.0531,-82.1091,61.2939,52.1066,56.2341,70.1818,94.3279,44.5122,227.9916,17.7419,-9.5419
171.3011,162.2130,91.8700,132.5272,76.2257,135.1239,113.1691,-69.3335,-43.3087,-136.6244,73.3716,63.6819,44.2290,49.9523,-48.0274,-41.2746,286.7659,60.4847,-57.5472
207.7280,205.6140,113.7082,145.9603,108.2389,115.1122,35.4079,-118.5795,-85.2638,-103.3862,74.8114,122.1422,26.5518,32.9999,-104.3638,-109.6605,300.0660,26.6583,-120.4231
234.5218,224.4415,93.9796,151.5163,124.3215,111.6636,-3.2520,-140.0620,-72.4212,-120.4561,82.6347,157.7096,11.0461,40.4369,-77.5840,-123.3353,305.7939,10.4168,-143.1650
205.3322,197.5844,38.7325,138.7498,76.4899,109.8739,-10.9456,-113.9442,-64.1490,-219.6110,33.6646,155.7495,-15.9566,52.0081,-89.9124,-92.8854,281.5742,40.1426,-142.8263
146.8242,147.1673,-24.7383,102.5487,-8.8925,75.6418,-49.6302,-81.6066,-84.2799,-233.6055,-76.8765,141.9817,-68.4453,52.9143,-133.1185,-38.0457,202.1857,34.8074,-145.6217
121.7858,101.1609,-21.8476,63.5806,-20.3002,43.4290,-59.5923,-48.0826,-64.4508,-127.4276,-95.5783,103.8058,-79.6054,44.5672,-108.6703,-9.5436,122.7709,-9.5338,-94.6963
131.3825,60.1528,28.7204,32.6181,21.8558,36.7148,7.6179,20.5377,-18.5114,-35.0569,9.7167,32.7519,-13.0774,25.5173,-65.0044,-19.9579,80.4931,-26.2593,-3.2718
104.3917,32.3089,8.5594,12.5323,-22.3239,24.0623,41.4782,80.6794,-46.8625,-20.8905,41.9320,-4.2267,22.6535,12.4852,-100.7275,-10.3813,46.3029,-25.8560,15.0814
50.2810,35.9557,-54.3301,15.5940,-96.8750,7.7297,14.7458,65.9898,-88.6469,-63.9916,-44.4854,32.6940,-21.2929,25.2513,-132.0723,13.9710,32.3936,-36.2797,-15.7413
73.9299,66.8031,-33.0321,42.0787,-42.2689,28.7902,46.7942,22.5461,-19.0829,-117.3831,-58.9012,72.6553,-29.6617,40.4064,-72.5306,-22.2199,89.7653,-23.4285,23.9991
148.2902,105.3980,19.3969,73.8248,43.2035,73.3517,98.3184,17.3371,50.8057,-112.9685,22.3589,65.6784,13.5742,34.5963,-55.1137,-88.7794,174.9605,4.6422,77.3014
125.8065,124.7417,-15.4390,89.6806,-17.1490,83.5993,28.0321,19.9189,-28.3504,-75.0379,30.7114,55.5374,-14.5148,30.9157,-173.0986,-85.4350,167.9905,-5.1224,19.3317
27.3082,103.4404,-73.7240,75.7760,-117.4681,47.5116,-83.3995,-3.4299,-138.3059,-103.6904,-36.4812,70.1786,-83.6420,37.4426,-262.2806,-37.4065,62.0926,-27.2371,-84.2603
-2.6335,74.8608,-57.5181,51.8319,-86.7864,10.3343,-92.1042,-30.9467,-145.2399,-173.1772,-51.3736,93.9194,-61.5262,29.5109,-197.3366,-39.4754,5.2807,-12.2527,-123.7958
14.4927,88.1410,-15.8035,57.8957,-15.0102,14.7547,-97.4702,-56.4130,-160.1592,-198.4106,-28.0233,116.8122,-15.6253,19.1372,-121.6280,-72.8951,60.4256,11.1577,-152.1871
-19.9807,106.8061,-25.2032,77.8540,-63.4384,45.5403,-230.0902,-76.3177,-276.9987,-215.0719,-56.3213,110.5663,-89.8917,27.6475,-186.5725,-64.3493,73.6766,16.1550,-232.3983
-53.9831,70.2153,-77.8304,56.0280,-181.0027,44.0450,-364.9717,-60.4232,-361.2872,-231.5853,-115.1901,55.9078,-203.8467,20.2560,-302.0355,-33.6298,-49.0345,26.0866,-283.4405
-24.8262,13.9414,-118.7158,6.3276,-210.3938,2.5620,-319.0403,-19.8707,-281.0506,-157.2774,-119.7619,0.5968,-187.6142,-21.8221,-293.2265,-35.9265,-147.9525,41.1396,-219.1288
-8.0330,-4.7324,-113.6998,-10.9327,-141.1190,-18.8361,-151.4529,1.7423,-126.5100,-43.2492,-56.1585,-18.0411,-70.2467,-46.6762,-163.8541,-50.1837,-113.1491,43.1200,-100.5861
-52.1106,-5.6388,-101.1120,-0.7834,-101.7765,-6.2762,-62.3833,12.9640,-71.2448,-27.9259,4.4473,-22.1137,-3.9084,-26.3544,-73.7680,-29.2782,-75.5246,32.8730,-44.4015
-94.7067,-17.8093,-119.8053,-5.8789,-129.7557,-9.4185,-82.4418,43.5144,-120.4416,-46.8850,13.1575,-19.3958,-22.8957,0.0864,-92.1127,16.7175,-99.7640,4.7341,-39.7691
-101.5378,-32.2904,-111.0501,-22.9580,-126.9215,-32.0585,-67.7446,76.2219,-139.6604,8.1592,-0.8938,-6.7487,-44.8537,6.7406,-121.1253,49.1706,-81.7746,-29.8746,10.0335
-91.0388,-42.4973,-48.9270,-30.0792,-72.7115,-38.6972,10.9033,79.3834,-95.4683,31.8664,-21.5865,0.0282,-35.1057,7.5852,-86.4414,53.6312,-31.9325,-29.9715,83.5442
-53.4935,-38.7933,-32.7678,-27.9412,-53.5240,-34.0702,35.7404,57.6929,-65.6420,-40.1997,-59.3336,13.5480,-31.7280,13.1940,-25.3146,41.7316,-38.1587,-11.3153,83.6171
13.6321,-10.7568,-85.8880,-19.7246,-68.0901,-28.4671,5.5390,45.9470,-55.1204,-44.9675,-51.7938,37.6935,-39.3662,20.7125,22.0573,39.0699,-35.9371,-28.2966,51.6812
60.9404,19.9223,-104.2298,-3.0206,-51.4454,-9.7187,17.9745,55.1771,-39.8990,75.5374,33.0858,33.8613,-26.9802,26.8320,29.2584,60.6890,29.9608,-59.2357,71.9035
47.1654,41.0843,-81.8364,22.1241,-35.6603,6.8634,28.0768,40.8338,-75.5059,131.5985,64.7045,29.9991,-19.1919,36.2252,-40.9613,84.0131,61.4879,-61.1086,67.8629
-8.5819,67.9897,-96.6882,50.4399,-66.8147,6.4344,-45.4428,-10.1720,-152.7609,39.1450,-24.2407,79.5524,-54.4947,57.3490,-134.1325,79.9255,30.6010,-60.9730,-16.4239
-43.8916,78.1187,-117.1700,60.8659,-84.8696,14.1122,-96.4471,-20.7987,-157.5271,-46.4197,-79.0064,105.8410,-74.6997,72.7704,-129.6962,55.9590,21.5241,-66.2881,-45.6271
-15.0277,44.8233,-79.7847,40.5886,-34.3885,30.1723,-12.2806,34.5183,-81.0948,-33.8428,-8.9309,42.9323,-7.5366,52.7884,-35.3596,29.7205,32.7486,-30.7712,49.4669
44.6976,9.8412,-24.6650,17.9891,43.1419,28.6006,112.6908,65.3069,-14.6952,-19.6832,65.2931,-12.9419,87.3030,17.3825,44.0669,4.2206,25.6159,34.2567,138.3307
62.9114,2.8429,-1.0856,16.0640,84.3143,26.8113,153.4789,42.2085,25.4310,-62.4057,61.7602,-10.2827,111.3293,8.3594,90.6685,-10.8574,26.7299,73.3035,150.3532
28.3645,-8.4701,4.5255,13.5601,78.6485,37.1710,132.1208,32.8835,53.7372,-86.7376,32.2377,-22.3279,92.2274,10.8705,133.0904,-15.4990,26.9189,80.3364,147.6494
-2.8859,-25.0633,14.0975,-0.6495,71.6751,24.5122,115.3360,38.7642,53.7495,-51.1867,25.2399,-41.7929,105.2727,-5.8957,146.9204,-34.5358,-3.4937,70.0234,142.4817
13.9727,-20.0675,35.5424,-9.0776,100.4110,-5.8421,119.4477,25.9522,53.6831,-15.2002,52.7024,-17.3879,126.2338,-22.6694,125.0996,-60.8967,-12.7266,49.3259,124.1505
78.5088,-11.1184,57.6547,-11.7279,128.4123,-8.5916,152.0847,32.0318,86.8545,-10.8792,90.7411,1.5442,104.5072,-18.9775,109.4334,-56.8323,30.9024,39.9061,149.3015
153.3559,-5.9244,60.7331,-13.1010,115.3540,5.8386,212.6969,60.3758,127.2804,-4.2976,83.2795,-5.2041,71.5636,-8.0379,116.3713,-36.4520,72.8104,33.4558,213.9509
181.5054,16.0891,61.2405,-2.4096,98.2273,8.8907,242.6490,50.1151,157.8876,6.6192,45.8751,12.9845,61.3473,4.2289,126.3445,-37.9669,87.8234,0.9941,220.1484
137.9699,25.6748,74.5776,8.2045,107.4437,15.4155,178.8890,22.1474,160.9262,-11.7494,38.1643,26.8422,50.3347,16.4113,112.9265,-40.1803,90.9522,-18.0517,150.5981
61.8985,-0.3213,69.0466,3.1395,107.0669,27.3475,64.1405,33.2840,91.7644,-46.4381,22.9135,-0.2584,37.6853,16.8610,56.6846,-18.2276,73.0074,14.5016,83.0345
20.5003,-6.9035,48.9074,7.8008,90.0317,30.2018,6.8578,47.8814,1.5263,-51.2879,-27.9550,-11.6277,48.2752,17.7223,-20.1694,1.1748,47.9109,34.6308,50.9885
51.9798,19.8449,72.9624,27.4248,105.2235,38.3371,32.0491,42.2873,-1.6135,-17.7925,-20.8093,-2.5473,64.9301,33.2301,-69.4652,10.8866,54.7299,5.9166,46.4894
122.5282,14.9399,132.9820,19.8939,159.5214,46.5504,80.7468,64.8536,46.2792,18.0950,53.3742,-24.8132,75.5229,32.8304,-78.5779,22.5163,85.2435,1.6943,78.0021
147.6092,-14.9846,160.1042,-7.2515,196.2758,28.9956,124.2483,92.3710,49.0309,13.4635,66.0181,-37.9445,101.3621,1.2325,-52.5480,1.3149,108.2807,45.6488,126.4880
95.7006,-3.6742,141.3717,1.8817,173.4209,15.1483,156.2414,52.2315,27.2766,-38.3822,19.5072,-2.1587,113.1616,-14.1589,8.6601,-52.8690,110.9211,68.3376,142.6545
20.4675,25.5346,102.9717,33.9809,109.8878,31.3158,148.8812,-9.9729,5.9423,-90.5107,32.0810,24.0880,69.0866,12.0825,62.4540,-53.4774,84.9708,51.5168,123.7558
-30.5557,11.4205,56.9146,28.9129,51.0360,30.6113,112.7927,-0.7607,-50.2334,-95.5564,73.6513,15.6982,23.1845,32.9097,56.3733,10.0556,50.0196,35.9556,105.2205
-34.7066,-19.8295,36.6663,-4.4530,21.2611,2.7432,98.2857,51.1761,-96.1532,-55.5061,49.5219,-1.4729,35.1136,6.9783,25.2873,22.0879,50.5788,38.5585,97.9103
44.7519,-16.4785,78.5146,-15.4672,44.7411,7.3200,119.8967,62.2244,-53.8385,5.9032,20.1984,-33.8310,75.2170,-39.5858,49.7318,-43.9271,95.8043,59.4309,98.1462
166.9988,7.0377,143.1766,-5.4953,129.7245,34.8532,153.1801,37.8199,21.9650,59.9207,64.2604,-52.1648,110.8629,-49.9643,120.4475,-61.3182,154.2884,72.3135,92.7226
192.8586,11.3250,147.4310,-8.2880,181.8715,19.1598,145.4397,33.0910,21.3794,68.9564,106.3281,-8.8057,124.0045,-9.7759,131.0327,30.5170,173.4076,28.0937,36.0258
104.5617,-9.6298,89.0427,-27.1915,119.3810,-25.7440,61.7394,49.9235,-54.3708,48.3298,77.4039,35.8774,84.9528,31.5643,37.5620,137.2082,112.8585,-43.7727,-69.6914
52.5614,-35.9734,64.9750,-44.8437,66.9112,-49.3549,1.4962,59.8024,-107.5137,71.1305,52.4652,19.5763,55.2598,32.3026,-41.2982,178.3528,33.3941,-63.9792,-117.3115
85.0155,-53.7974,113.5917,-58.8666,139.8654,-63.4755,81.6841,70.4132,-76.0026,133.5778,94.1469,1.6577,120.7675,17.9328,8.8506,182.9966,33.4610,-52.0658,-56.2456
83.2359,-66.4460,129.4299,-72.3148,180.2094,-82.3109,185.4103,88.2320,-10.5780,133.0024,131.6382,17.1476,179.3834,20.7530,105.2440,185.0508,58.4026,-64.3021,5.3179
6.8360,-68.8634,46.1308,-69.3968,63.3762,-78.0285,154.9259,74.0064,23.8010,43.6622,101.1001,19.0125,109.0927,24.0665,123.4699,150.9423,4.3172,-67.4683,0.0413
-40.8238,-44.8919,-27.8845,-41.7806,-34.7082,-52.3739,110.7343,22.1410,68.2070,-24.2240,65.8497,13.3894,29.2950,14.0262,114.4954,67.1191,-52.4061,-43.7600,13.6559
5.1710,-18.4158,-0.5194,-25.7227,12.4150,-46.2122,192.9451,1.6474,151.9540,15.0084,100.6335,24.6574,58.7402,1.4186,151.1844,6.7056,-14.8084,-43.5289,88.9373
84.0772,-39.5756,59.7024,-53.7166,82.8664,-65.1814,283.3641,40.4447,192.3124,109.8402,172.0087,5.2465,100.2395,-20.0790,174.6541,23.1414,35.3008,-43.7546,155.9736
95.6453,-91.0382,84.1200,-87.9409,105.6523,-73.4007,292.5439,78.9738,168.1378,142.0993,205.5650,-50.3071,103.2127,-50.2584,157.3061,52.7245,33.5968,14.8131,188.6982
31.9047,-99.1732,93.5891,-75.7150,125.0453,-57.3243,296.1299,77.4192,155.1239,71.1337,174.3735,-60.2229,139.2928,-55.4449,138.1733,26.8686,44.9770,71.6526,193.9673
-2.7787,-53.1943,97.3520,-38.3645,115.4245,-45.6061,270.3149,49.0586,127.2368,-11.9760,98.6268,-6.2374,158.2494,-32.6328,77.1729,-9.6063,68.6088,49.4856,122.3452
33.2600,-15.4010,86.2754,-28.1577,46.0977,-57.5206,136.2101,6.0773,26.8510,-14.5065,33.4212,35.5037,69.1940,-24.8431,-37.5407,-5.6721,34.4658,-6.7777,-22.7067
39.2549,-13.5071,65.9559,-40.8390,-43.5431,-66.0995,-21.9446,-32.9173,-54.5651,19.4666,25.6071,23.7772,-52.9342,-40.9442,-89.3919,-4.7391,-27.7493,-37.6029,-139.4811
-19.4576,-15.5301,21.5772,-39.1268,-122.2506,-44.7026,-97.2104,-44.4110,-41.3049,4.5731,44.7068,-4.7333,-113.4202,-46.5684,-52.5143,-31.4315,-47.0789,-43.5633,-173.0134
-39.8648,-4.0976,-37.3961,-20.0085,-144.5443,-17.0168,-96.9755,-38.3456,-5.6108,-41.3764,30.7385,-2.9028,-122.3824,-30.7801,-35.3396,-35.4184,-25.8752,-22.5822,-139.0175
-0.6934,5.3934,-56.5032,-7.4333,-86.0342,-13.4846,-56.9976,-27.6508,-0.2097,-69.1325,-0.7154,29.1919,-99.7491,-15.9212,-50.2538,-22.6492,7.4728,11.0239,-63.7246
21.0554,11.8705,-43.4709,-7.6554,-51.2408,-19.7632,-45.4225,-10.2629,-24.3712,-83.0041,-0.2132,49.3213,-79.7689,-24.0175,-55.7987,-60.2143,29.5678,18.9840,-21.5905
37.4650,27.6533,-39.3569,-4.9304,-95.2770,-12.7598,-106.2631,-8.2096,-100.2173,-78.6399,17.5086,33.6052,-101.2895,-54.7382,-102.9931,-125.8152,21.9251,24.2402,-62.3092
87.2541,45.3939,-9.7948,10.4879,-99.4003,3.7672,-120.8794,-26.0921,-175.5618,-53.0762,10.8331,6.9016,-99.4696,-76.1382,-180.3340,-143.4244,13.8538,61.1927,-92.4449
113.6735,59.6133,48.4857,33.7546,-44.6726,27.6908,-21.7741,-22.7483,-163.3814,-61.9732,-13.4638,-3.2542,-28.3056,-60.6994,-173.2793,-135.0724,41.3543,80.1788,-45.6617
95.4376,89.3611,55.5469,62.1893,-50.1210,63.3862,18.6593,-15.1877,-130.0576,-119.3405,-26.6109,5.7279,7.4017,-30.4593,-100.7164,-158.8656,77.7370,54.0515,-29.9723
101.6865,136.7868,29.3497,94.6164,-72.3267,88.6419,-77.5210,-71.4867,-176.2266,-158.1953,-30.8009,39.9715,-38.0852,-18.6729,-88.1447,-186.8644,93.9971,44.8412,-111.0049
151.5517,177.2440,60.9188,120.4122,-3.9406,81.5478,-148.4604,-161.8823,-255.0874,-180.5774,-44.1676,106.7154,-67.6674,-17.0582,-139.6600,-188.2950,115.7383,69.6913,-194.8500
203.5541,213.5158,109.7909,141.1307,61.1503,74.9128,-165.6838,-205.3945,-325.6717,-251.5182,-70.1212,179.0658,-76.0615,-8.5362,-197.4742,-204.5072,165.8915,85.1792,-237.5324
228.9245,267.4628,95.3885,179.8825,24.6117,113.2119,-262.0311,-220.8834,-439.7686,-345.8296,-115.8361,216.6449,-138.1416,2.3588,-278.4479,-252.0522,220.6896,100.2139,-290.9710
211.3852,318.7728,69.0748,233.0327,-23.0505,172.8070,-380.4026,-247.3837,-563.1537,-402.3158,-181.1376,217.7815,-198.2661,17.9541,-371.4237,-286.3923,239.0874,128.9871,-331.1591
172.0942,322.5496,91.6158,255.3977,-2.0668,201.0013,-368.5593,-236.9622,-575.6341,-421.7531,-201.3666,196.8470,-170.4294,42.8949,-389.7883,-282.5055,211.0463,131.9070,-288.7075
134.6257,271.0200,113.0803,228.6875,34.9925,200.4234,-291.3056,-171.0203,-473.0471,-387.7449,-129.4373,138.4535,-113.3968,57.3651,-328.9173,-243.3616,167.3994,113.1683,-198.6181
43.3993,197.6201,76.5501,188.4501,15.8985,192.6877,-294.4108,-124.6494,-382.7133,-292.1737,-71.7863,55.9588,-116.1289,49.2395,-296.2834,-174.8352,121.7995,118.2691,-154.4823
-93.1008,140.2040,6.4170,156.5183,-58.7325,155.6656,-342.2878,-126.9012,-380.0897,-231.8818,-126.8997,29.9402,-162.9067,38.3405,-324.8106,-112.3876,53.9766,120.7365,-163.9370
-117.4347,103.9956,-30.7285,112.6043,-92.1622,81.6265,-300.6793,-109.3290,-372.3950,-252.5925,-171.5881,80.4796,-179.6459,36.8359,-302.8783,-89.1049,-6.9409,80.0575,-132.6160
-21.7940,67.0660,-16.5918,58.4424,-14.3109,24.5120,-158.7784,-45.4094,-238.0537,-257.9828,-95.2005,117.9718,-131.2815,37.1669,-172.3850,-81.8500,2.7607,40.6552,-10.6014
-7.3797,42.7136,-20.3308,43.4331,65.1688,25.1543,-58.4625,-11.6370,-62.2750,-231.4100,-35.5089,110.0618,-77.7923,45.7381,-66.0229,-66.7421,53.2652,44.2819,95.7898
-83.4402,66.5735,-78.9114,85.1847,35.9570,62.3148,-86.0331,-49.7237,-17.8259,-247.3830,-85.5694,108.0268,-88.6038,70.4081,-102.7015,-57.2389,54.2773,61.3691,84.7166
-80.0574,97.0140,-107.2562,122.3083,0.3072,98.0432,-121.3470,-75.0984,-44.5386,-246.7311,-106.2388,86.9867,-99.3834,88.2736,-175.9041,-48.1904,6.0822,68.2202,54.6308
-38.6960,67.3977,-54.0211,106.9993,53.6648,113.3674,-37.8826,-19.9265,13.4042,-163.3879,-35.4918,8.3874,-18.8403,81.6416,-135.4303,-24.8098,-12.4087,73.8173,122.5819
-73.3353,27.9227,-1.1477,82.5543,98.0012,111.1079,66.7671,35.8533,70.7620,-112.2860,19.6354,-38.4398,70.6763,74.9123,-41.0733,-4.0336,23.8951,70.6763,183.9191
-80.9822,50.4070,-5.3538,88.7517,59.5895,98.1628,46.4127,5.7978,-9.9008,-136.3408,30.2772,6.6927,42.7903,85.9120,-33.6718,18.6483,46.5992,40.3811,106.3562
-8.7707,69.5912,-19.7314,76.6259,13.8189,56.4042,-40.1816,-50.3682,-109.5746,-98.7721,34.9477,56.6395,-41.5268,88.7738,-76.3045,72.9517,-2.9778,-13.5944,-22.6612
-3.8311,12.4705,-0.2744,13.7958,26.0475,-12.6365,-49.7942,-44.3049,-70.1984,-2.2862,32.0525,50.5557,-45.0820,68.6737,-24.8022,127.8513,-65.4982,-62.1552,-59.7196
-74.3348,-56.2364,42.8691,-38.8975,66.2142,-43.2826,17.3722,5.9026,49.4604,20.2984,58.0700,13.4295,20.8321,49.8672,103.9633,128.1098,-59.7865,-74.8589,-17.8194
-68.6970,-67.7462,62.4190,-44.8223,63.5025,-21.1398,62.2742,40.0810,137.2230,18.4591,118.8199,-35.8631,47.5103,37.4916,139.4640,90.4105,-47.6992,-69.0397,14.7716
-6.1686,-53.3844,21.2149,-48.2721,-1.9500,-37.3319,62.2258,31.3544,178.8186,92.0034,110.7436,-47.3993,11.4390,11.3825,57.1860,58.5967,-100.5614,-91.7186,8.8783
-19.4861,-48.7288,-31.9659,-63.3730,-50.5215,-100.8050,76.6172,-8.2264,177.2381,146.0747,39.7492,13.3255,-17.0861,-12.5431,30.6319,46.3306,-122.7685,-120.1247,1.2112
-99.2398,-55.9670,-34.0645,-58.2774,-34.9539,-101.4075,96.3405,-24.7373,122.1255,109.5690,33.8668,38.2267,-10.2358,-8.4145,99.5523,60.2492,-66.8894,-85.4653,30.6529
-151.0380,-80.1709,-29.3533,-47.7520,-22.6382,-44.1724,42.7474,12.1296,47.7658,82.5332,65.5224,-38.9396,-5.3096,-4.3969,105.9057,77.4429,-65.3572,-12.1444,69.0021
-140.9181,-103.7960,-47.5525,-62.0143,-9.9764,-43.0070,-33.6116,49.6125,29.8717,107.8149,43.2810,-84.8715,16.9019,-26.3391,44.2245,54.2889,-131.4205,14.2877,67.4385
-99.6257,-108.9176,-9.3149,-80.0068,96.5359,-87.4377,24.0501,50.2556,110.7111,134.5512,35.6349,-42.7043,114.3580,-40.9105,75.0303,26.6244,-119.2913,-1.1216,73.1084
-76.9161,-130.6109,85.7174,-90.4147,240.7330,-98.5562,197.3947,60.2763,231.3795,177.3318,90.0471,-42.1470,233.6766,-31.1447,187.1082,65.1509,-54.2617,5.4533,159.4630
-75.9921,-179.8800,118.4098,-114.8132,281.2179,-96.7633,293.1432,103.1356,275.1251,225.0383,129.7972,-99.4383,267.1909,-29.0157,245.8023,128.7091,-60.6105,33.1245,259.8275
-63.6821,-185.4483,56.3618,-124.4808,219.4117,-94.8561,219.7122,130.1987,186.9513,163.9427,133.8985,-98.3002,214.2821,-31.4397,226.4305,132.5739,-80.8146,51.3292,239.6286
-55.7218,-105.4836,-39.4604,-63.9347,106.1080,-34.3134,42.4802,102.5887,4.1963,-13.8100,105.9984,-47.3826,122.1604,-5.8473,119.9305,91.9240,-39.6233,76.5274,94.6169
-65.1243,2.9699,-128.2059,37.6515,-41.5922,62.7734,-137.5445,26.2791,-190.9497,-148.2810,12.1466,-26.9822,3.9843,22.8849,-85.4450,54.0971,-11.7697,125.8745,-58.6227
-40.5770,70.1998,-161.0806,97.0666,-133.3074,107.2210,-241.0061,-57.9452,-312.7934,-153.1361,-74.2015,-27.0546,-92.4646,13.0461,-248.8909,13.9091,-28.3070,166.5673,-138.1805
6.2302,80.6199,-121.2106,92.0287,-119.3513,94.0319,-281.0640,-93.9412,-340.8970,-122.5567,-72.1612,-17.6521,-130.1531,-10.9046,-261.3327,-28.1831,-42.5270,161.3318,-160.1769
-5.9972,57.6532,-94.1380,62.6685,-111.9980,70.5384,-333.4087,-79.8252,-328.9295,-163.6943,-72.0293,-3.0471,-166.6908,-12.8855,-228.5939,-53.4628,-66.9513,126.7505,-173.8934
-52.3281,37.9683,-121.8785,46.2246,-159.0834,57.8319,-359.3717,-68.7607,-299.2181,-250.2622,-116.3404,11.6555,-212.5409,-6.9531,-215.4308,-67.6595,-91.8694,116.3712,-178.2285
-58.8226,45.9956,-130.3487,58.8877,-161.8432,71.4900,-276.6533,-77.3945,-239.3637,-281.8812,-108.1158,11.5317,-181.9446,-4.8882,-159.7621,-79.4723,-60.6562,138.3795,-141.7321
-49.3202,80.5054,-96.7700,94.3004,-109.3897,100.4541,-166.2671,-90.4797,-182.1628,-241.8999,-65.2672,9.6420,-97.1957,10.5180,-98.4299,-93.0222,-14.3035,130.1346,-85.1596
-43.4188,118.5071,-77.9533,118.6299,-93.7212,100.8386,-132.5129,-109.6051,-148.2257,-210.2455,-61.0286,44.8987,-83.5929,35.5281,-93.6691,-115.1950,-21.4979,62.2470,-59.2416
-21.7550,120.8991,-87.6998,103.1926,-136.8098,74.8469,-140.1659,-111.7140,-112.1928,-208.7455,-41.0588,72.9265,-149.0532,45.4158,-98.1272,-115.0620,-54.0573,-4.3899,-65.8333
-35.2152,74.7431,-106.6330,60.8610,-193.5584,53.1164,-161.1892,-69.2788,-80.9963,-170.2327,-11.8499,36.4624,-200.9043,39.9631,-106.4077,-64.6356,-85.7954,-34.0472,-79.0892
-86.9306,25.6605,-116.2645,20.1484,-213.1124,19.1355,-181.9557,-23.6754,-38.6933,-81.7122,-53.5281,6.2189,-195.6885,32.7606,-123.9612,-20.5445,-120.6638,-76.3376,-84.6618
-58.1494,5.4289,-92.3573,-19.8845,-176.7233,-41.6905,-103.2913,-7.2746,85.0382,4.5112,-73.2812,34.2178,-142.3978,18.3231,-54.1423,-27.9196,-123.5937,-149.0663,-64.3862
41.2901,-18.6144,-64.2342,-71.7991,-144.0195,-100.7975,52.3968,17.2067,243.6507,85.3477,16.0880,46.1931,-81.1453,-9.3163,80.2672,-26.8293,-99.9564,-202.5784,-30.4103
49.6211,-59.2524,-84.8850,-117.4836,-161.8376,-141.0756,91.3011,47.5005,313.2552,168.3400,75.6952,25.4161,-66.7720,-31.8956,127.9600,12.7430,-104.1657,-227.2472,-39.3334
-38.4936,-79.2729,-125.0807,-129.3970,-183.8015,-155.0633,3.0659,43.9199,315.3630,187.8578,32.9051,29.4421,-89.3908,-31.3627,119.4831,29.4379,-116.8380,-242.5379,-86.1904
-85.1926,-79.2056,-139.1582,-115.8864,-186.9962,-129.4892,-37.7284,41.0209,295.0554,107.1239,-2.1157,27.3854,-93.3631,-17.8853,139.4435,22.5562,-110.8969,-212.6219,-97.0660
-73.9013,-88.9580,-133.0997,-101.4409,-184.9694,-94.0830,-25.9638,66.3067,177.3335,11.5860,-9.9076,-11.1213,-71.2486,-10.6927,96.9401,50.3669,-131.9640,-125.1007,-75.5070
-81.7190,-93.4697,-86.5723,-87.4186,-127.4277,-88.2928,-63.5762,59.5279,5.2810,-9.2533,-29.2558,-21.3973,-37.1678,-10.0347,-0.4911,78.4120,-171.3060,-63.6214,-87.9265
-127.0476,-78.6720,0.1269,-69.7511,-21.7158,-89.8966,-119.9450,14.6631,-50.4066,12.6920,-12.5080,1.4918,5.3188,-7.1794,-2.7593,42.6116,-178.3290,-75.0129,-115.9693
-177.6403,-73.6410,31.1215,-57.8906,12.3616,-73.6210,-135.0129,5.7864,-3.3935,-6.5158,9.6500,-5.5698,29.9438,-1.0957,40.5283,-10.3288,-193.0643,-90.6574,-100.3102
-180.0757,-82.6850,-13.1522,-51.5514,-15.6254,-56.7214,-97.2043,28.2971,44.1074,-57.3219,-48.9464,-30.2727,47.1845,6.9717,32.3177,-8.5123,-229.8506,-58.2659,-53.1518
-108.5451,-83.7052,-11.4199,-42.5694,38.0239,-39.5237,27.5599,34.4126,133.7272,-29.5538,-100.9541,-51.8227,126.3367,12.5079,84.2719,34.1104,-194.3872,-11.8800,10.6459
-39.9546,-92.5280,67.1065,-42.9551,168.3005,-18.8400,189.8674,53.3997,249.9406,119.8630,-39.9377,-99.5433,249.1403,4.2751,203.4922,76.5204,-86.0031,13.0186,108.9642
-62.1241,-126.0949,113.5028,-65.8707,230.9199,-28.3012,236.9379,95.5045,260.6038,256.2696,36.5868,-140.6956,294.6416,-15.9747,224.2362,102.2915,-35.0298,15.2385,182.5182
-134.5214,-155.4635,78.6012,-93.4027,172.7365,-62.4669,166.2792,103.4438,211.7518,248.4187,24.9917,-131.7555,235.0143,-29.6859,189.7919,102.7042,-73.5649,1.9678,157.6633
-152.7854,-157.4339,24.3026,-101.1141,85.5839,-65.4401,150.3778,92.1044,253.2587,199.8448,-5.4830,-128.3097,183.8346,-31.3627,236.2393,89.4091,-95.2852,-11.9836,127.5398
-91.5421,-139.7428,25.1215,-92.9339,97.1753,-48.6676,248.0405,121.5473,335.1152,282.4670,30.7898,-145.0801,218.2301,-32.6737,273.0424,80.7395,-36.3285,-30.6529,211.9200
-30.4281,-115.4374,79.7116,-91.1858,186.7269,-76.7201,322.5951,147.0029,332.9720,408.3218,87.6884,-101.8528,263.5244,-38.4064,215.9846,63.0808,35.1128,-79.4195,298.4941
-46.1353,-110.3451,91.6459,-109.9506,166.5857,-134.5638,260.4514,110.4030,275.8461,371.1531,61.6232,-25.0985,204.3333,-47.3907,165.2619,36.9441,12.8069,-127.3347,220.5028
-76.3664,-135.0175,17.1011,-135.4543,12.6257,-147.2869,133.5996,70.6484,251.0173,230.0174,-30.5812,-30.6260,79.5238,-57.6656,169.7814,43.1103,-81.8782,-111.8396,68.9753
-15.0579,-138.3427,-44.9217,-131.1847,-56.4680,-105.4194,88.7195,70.5471,272.5793,193.2515,-44.9315,-90.6694,40.1182,-56.5133,182.1418,76.0523,-122.1560,-65.8336,19.3857
55.5960,-90.6634,-48.3312,-90.0828,-9.3204,-67.0843,118.7869,52.1499,286.7611,243.3279,36.6473,-95.3774,88.9128,-38.1809,183.3106,83.5018,-102.1599,-65.8005,29.2294
2.9411,-58.3403,-67.4339,-59.7839,-36.6724,-61.5112,103.5060,7.9631,247.4232,241.3774,61.2444,-71.2325,89.2490,-23.4275,163.5278,77.0248,-124.4917,-88.1587,-9.6039
-71.9745,-82.0716,-85.5147,-70.9299,-113.0051,-63.8288,46.1770,0.5742,200.1267,215.9161,12.6283,-94.9804,36.4996,-29.4351,144.1431,93.1446,-161.8989,-79.4373,-57.9210
-46.1743,-95.5686,-38.5278,-85.6514,-91.4460,-57.8979,17.2312,7.5997,191.0729,228.5392,15.2890,-116.7914,18.8154,-44.9617,158.0279,87.5782,-129.5856,-66.5789,-75.9322
-25.4973,-60.1574,-7.1466,-68.3607,-56.4482,-57.8576,-25.5572,-32.8920,157.4892,203.4090,40.9670,-68.6003,-3.6660,-50.7390,139.2115,32.4775,-86.7503,-72.3775,-109.3231
-63.4888,-29.2781,-51.7415,-44.7670,-101.5695,-60.2563,-101.6739,-78.1367,92.1753,109.4422,9.2642,-6.6929,-82.7920,-38.7460,65.9712,2.2986,-93.9620,-69.4120,-147.0872
-37.6632,-29.5398,-85.8950,-44.8478,-132.6086,-50.1574,-126.8277,-70.4698,91.5671,44.3612,-10.3906,2.1014,-139.0086,-19.9449,55.8364,26.4845,-100.8645,-63.3624,-145.8941
26.2037,-36.2689,-81.4963,-55.6593,-118.2828,-46.5680,-97.8913,-44.7041,119.6371,56.5203,3.2294,-16.1764,-119.8870,-18.0656,99.8832,39.4612,-110.3617,-67.7571,-122.0939
-0.9449,-53.2094,-67.5969,-57.3181,-88.5753,-53.8879,-46.3158,-23.3428,92.1914,95.1656,-19.7592,-40.4333,-54.5679,-27.1209,93.4105,36.7236,-148.1630,-45.8991,-51.7998
-40.2482,-78.8611,6.2639,-47.8904,15.6354,-30.1923,81.6886,17.4697,113.8270,93.6571,-15.6081,-78.4178,44.2248,-10.1574,134.6656,53.8716,-130.9515,-0.6602,98.2774
-4.8296,-75.2683,93.9763,-36.8921,133.7135,6.7519,207.9047,44.9548,228.2766,31.2505,61.9008,-77.5677,112.3484,24.5330,284.8505,44.9122,-48.3327,-2.5043,206.6830
-23.4114,-60.8209,41.9839,-48.4882,102.6840,-26.2420,158.1516,29.2300,265.7050,15.2970,74.0853,-9.4082,66.1150,25.6559,335.0969,9.5293,-29.1694,-63.7323,174.4257
-122.5084,-99.0337,-77.3229,-96.2748,10.9437,-112.6864,45.1976,41.1969,207.8486,166.6703,4.1491,25.2647,-3.2040,-5.6304,234.5675,53.5347,-71.2215,-116.7418,136.5534
-128.8486,-167.8411,-70.0182,-149.6142,27.8529,-149.0621,75.0048,117.7365,196.0806,349.5197,-2.2960,-37.1661,20.7984,-31.1179,192.9455,148.4859,-63.0716,-115.2596,196.7062
-49.2123,-197.3121,-10.6564,-173.2339,44.3888,-131.2949,127.2722,172.0568,192.0626,343.0609,8.5101,-103.8321,44.5347,-56.1162,220.6764,141.2051,-48.4653,-68.9117,239.7014
-62.9113,-196.6237,-58.5747,-173.5738,-46.0283,-131.0274,82.8811,153.7214,152.7859,234.2825,-71.8014,-105.6731,-2.0678,-80.9399,207.1591,73.5872,-105.9032,-26.6656,211.2128
-145.1516,-199.8615,-129.2649,-164.6528,-98.7152,-140.5873,112.9110,124.1390,210.6773,217.7847,-115.5392,-90.0130,-0.7077,-60.7881,236.3265,109.2648,-144.8167,-37.3793,206.5020
-131.8286,-183.8639,-109.8565,-141.5695,-44.9073,-112.9173,241.1158,127.8305,328.0388,233.6038,-37.6040,-86.1849,67.9486,-4.6079,321.8435,196.5769,-86.7796,-74.8738,231.0140
-47.2250,-136.9234,-57.8998,-105.7877,4.1859,-60.9288,264.1198,136.9403,317.3610,185.2743,21.9526,-76.5014,78.2572,20.1905,310.8697,183.5252,6.7046,-70.5788,232.5998
-18.0756,-86.3381,-9.7010,-61.7172,42.0224,-11.5875,229.9866,117.1643,259.1070,142.6968,32.2173,-62.4099,51.0727,14.8059,243.7686,101.1606,96.1045,-30.9006,256.7368
-9.6170,-39.1938,67.5872,-13.3663,129.1815,28.8381,316.4897,71.2780,319.0623,126.9562,95.4199,-43.3586,88.6391,23.3265,255.4732,43.5563,188.0205,-7.8486,313.0249
74.2847,-4.4053,131.2728,7.1797,199.7793,37.4145,410.9080,35.8434,402.5109,102.7261,148.1607,-18.4402,137.0985,23.6114,278.9809,4.1928,229.6817,-5.0433,315.9861
159.0094,-9.5355,124.7422,-18.8113,185.5470,7.1837,362.2474,30.5366,411.4425,118.6648,91.8161,-12.1883,114.6422,-5.0586,256.8427,-21.4520,187.8252,-14.2750,261.1953
122.8872,-29.0216,77.8817,-39.3046,125.2505,-11.7674,268.7645,23.9059,410.9875,146.9712,18.5041,-19.2511,57.7988,-12.3839,253.3548,-12.8001,131.5059,-40.1282,215.9457
52.6454,-11.9758,37.5227,-14.8677,67.6303,13.0642,224.0288,1.3778,403.6757,88.5820,15.5200,-8.4818,6.3121,16.4424,244.5902,-3.4335,126.5288,-53.4516,187.2909
88.9784,14.1842,23.6088,3.3959,39.2503,35.1763,195.3378,-3.6818,352.9919,34.0220,27.8892,4.6976,-36.3214,26.2269,203.4873,-8.3362,149.7630,-42.2696,164.4395
136.7426,-0.1500,36.5423,-22.0388,46.0295,8.4340,174.5381,10.0459,294.2918,105.6254,24.0943,0.3296,-41.2236,5.3218,192.3396,14.2351,147.9550,-49.0484,147.8087
55.9040,-25.5855,38.6557,-41.8818,39.7923,-32.6345,145.2619,12.2271,201.6109,192.7743,33.8085,-1.8325,-9.1711,-9.4730,155.0730,54.6044,115.3841,-68.1745,100.7330
-40.5579,-18.2435,3.8969,-24.6321,-5.2548,-36.1940,57.0382,8.4179,39.9775,192.5971,34.4855,1.6673,-4.0205,-14.2380,12.6516,65.8747,89.0770,-50.5148,22.1292
-0.4494,8.3966,-31.5144,-6.1295,-41.5793,-18.6256,-58.0669,4.2728,-88.9695,171.5087,-17.6735,11.0298,-64.8916,-15.0535,-107.6972,61.0943,82.4182,-27.3978,-26.4988
99.7921,30.4715,-36.0202,-5.1968,-50.7582,-17.8948,-130.3761,-15.2646,-129.0017,141.6220,-93.8546,46.2854,-152.7739,-1.6598,-118.2340,63.3504,70.1623,-46.3515,-41.7921
144.4996,40.7362,-17.4313,-4.2438,-41.7715,-19.9024,-129.7019,-26.6555,-137.1928,79.2912,-106.2845,72.7365,-175.2305,9.0371,-102.5389,55.2782,64.1681,-52.8479,-49.4164
150.5324,30.1358,22.1085,-2.0887,23.7400,-2.7494,-35.4580,-6.7200,-93.7337,71.2543,-10.9218,39.8503,-82.5072,-2.7466,-45.1452,44.0628,103.9275,-5.2564,-8.7635
135.0317,4.2348,57.9936,-8.6556,109.8153,10.1275,69.4376,12.0112,-15.0194,127.8809,100.6326,-7.4663,20.9816,-13.0085,74.7559,57.6091,139.9416,31.9822,64.6999
91.6419,-6.9844,37.0713,-12.2692,85.2350,6.9146,27.5176,15.1516,-64.9652,115.4979,101.6630,-11.1771,-2.4132,-3.2728,76.4132,75.4593,95.2945,24.7104,63.5198
70.0023,23.0721,-10.0840,14.6405,-13.4863,27.2857,-93.4491,18.6117,-230.5860,8.4559,35.5684,6.8115,-83.6298,13.3152,-75.3613,55.7182,45.7185,27.9070,1.7571
84.0622,90.3032,13.0586,80.1885,0.0754,90.9529,-77.6963,2.4856,-283.9799,-85.4894,37.0206,24.7313,-58.8816,33.9253,-136.3045,-6.4299,114.0933,60.6070,7.2453
86.6341,145.9772,96.7004,137.0421,114.1447,143.7323,41.8242,-33.7671,-200.7299,-112.4976,84.1526,44.6580,43.2454,48.5171,-43.9439,-82.5363,228.2785,80.4095,77.9605
93.1397,134.8574,139.2297,121.2706,156.7696,120.5264,103.5297,-40.9999,-138.7193,-97.7810,70.8781,51.3755,90.3286,28.3247,31.8238,-125.2040,229.0988,75.0170,110.9962
134.0660,72.9899,113.4260,51.8071,120.4193,42.3772,134.4726,-17.0707,-103.2813,-89.6448,27.6262,52.0248,79.6584,-3.8488,60.4470,-95.5670,136.1393,65.1119,102.1620
157.3982,31.6448,67.2206,13.4100,97.7729,4.3987,162.9126,6.7492,-54.0874,-96.4751,34.0214,52.8886,63.4361,3.4702,78.9053,-20.4130,82.9876,55.5665,102.5352
133.1862,39.8975,32.7889,32.1692,71.7475,45.2505,93.4617,32.6125,-73.1209,-60.8157,51.0873,19.6466,31.3895,26.3412,17.6841,17.3431,100.8824,48.1778,95.1090
104.9862,73.3031,26.9026,66.9539,24.4374,96.5745,-25.6231,36.4344,-166.1318,-17.9537,16.9540,-17.2663,-6.6086,19.2532,-101.8051,-19.2236,134.3241,56.5387,46.9262
85.1761,107.6719,44.8829,94.7091,9.6054,103.9511,-57.7561,-11.5982,-222.0329,-104.7927,-37.4158,19.6686,-13.1055,14.7808,-160.3831,-73.5512,146.9085,75.8116,-25.6610
57.7223,126.5000,43.9183,111.5856,18.7530,92.7624,-57.5386,-55.4951,-226.1204,-255.5379,-62.2964,85.6555,-7.5973,39.2869,-168.4732,-87.5579,124.4597,78.2599,-86.7815
40.5578,123.5177,21.7309,108.4494,20.5476,83.2717,-102.2467,-55.5219,-229.7114,-254.6206,-58.2253,94.1869,-8.0257,47.0110,-176.2206,-82.2486,84.4129,58.8581,-107.2146
42.1135,111.0825,33.6585,94.6041,48.7285,68.9887,-113.5300,-56.3557,-217.2090,-140.4425,-50.3756,72.3906,11.4817,26.0220,-149.3502,-86.6275,71.0358,45.9713,-85.2343
47.6476,91.8173,68.8673,81.8528,74.6426,65.5073,-88.9994,-50.5686,-193.1109,-97.8019,-58.1731,47.9136,24.9724,19.6052,-124.2812,-70.8205,69.4195,48.6293,-63.9729
52.3676,61.7326,58.2453,61.0188,19.7465,70.7650,-125.6511,-2.6680,-217.2870,-105.3051,-72.5612,0.5487,-12.9637,21.2268,-181.4536,-33.7557,27.5328,47.5015,-80.0623
34.8946,42.0676,24.8780,42.9239,-50.6059,59.2682,-167.7245,24.7303,-266.2481,-102.1858,-67.8394,-27.5589,-42.5106,1.0040,-246.7573,-37.1160,-17.5028,52.9788,-107.1843
-8.7220,44.9283,47.9045,54.1923,-24.1715,60.0723,-104.2953,-1.4867,-242.3517,-154.1718,-50.1735,-18.0683,9.4927,-9.7531,-210.9531,-74.5188,2.5879,90.0027,-99.0768
-14.3133,47.7638,104.1547,74.8012,43.1627,95.5293,-4.1864,-12.8245,-147.4008,-212.8417,-39.4677,-35.5686,85.5908,12.0569,-123.0336,-68.6214,39.0899,118.8402,-72.1257
27.8748,40.8683,109.6400,62.1217,44.2112,90.0483,16.6211,-12.3140,-87.0164,-150.3396,-20.0494,-55.4748,99.7053,20.8834,-62.2390,-27.4891,9.0926,77.4106,-92.2642
25.8338,27.6312,62.8864,16.9353,-5.0420,4.0672,-15.3629,-46.6354,-86.8205,-47.1402,21.6375,-7.2290,72.9201,-7.7166,-8.9543,-18.4253,-55.6392,-4.3053,-167.4415
-23.0099,-1.2089,27.1665,-28.2451,-38.7370,-69.7762,-25.3955,-57.5937,-73.1519,-50.4071,59.7009,41.3872,61.7920,-36.0210,39.7850,-32.9760,-81.6919,-39.5037,-219.3729
-13.4392,-22.0128,31.5045,-41.2226,-29.3274,-63.9975,-25.3808,-15.9420,-61.1284,-112.8267,71.3355,26.0111,62.8552,-40.5206,9.4424,-40.5609,-69.2576,-8.5433,-204.0619
48.1852,1.3701,60.2293,-10.9969,10.5089,-19.9830,-68.3351,-0.8286,-135.0421,-129.6712,47.7307,5.9323,46.8398,-32.9375,-117.3734,-52.2580,-54.4024,38.0844,-172.1311
58.7244,25.4253,89.6764,23.2264,29.1766,18.0667,-131.2754,-18.7131,-222.7673,-109.7761,-19.4914,-9.8912,12.5464,-20.6710,-229.2459,-45.7370,-52.5606,65.2722,-164.1127
17.2043,-2.0327,103.3043,18.2809,7.8071,37.6088,-137.4812,-15.3269,-192.3005,-102.8006,-88.3775,-57.2149,-11.4848,-13.2893,-227.4132,-3.7786,-60.1935,83.3159,-162.0708
-1.4184,-23.4317,101.2739,5.5379,5.2988,36.2663,-100.9206,-23.3887,-126.0417,-116.3460,-79.6268,-77.5381,3.2130,-26.2061,-155.7471,-4.3930,-55.4448,108.7302,-160.1047
24.8807,23.5238,100.5086,34.6516,49.3136,45.8839,-91.0607,-66.6138,-147.5070,-124.8194,4.8620,-40.6678,45.6145,-42.9961,-97.1250,-86.1541,-18.2780,126.0867,-154.7728
67.8465,87.4746,102.5929,80.7857,82.2006,80.7344,-73.9418,-90.3802,-166.8235,-121.6055,73.4884,-8.9443,67.4050,-29.4413,-58.8324,-146.1648,27.3603,111.2465,-113.1397
78.9476,101.7008,76.0039,93.9530,57.2726,87.0689,-13.6335,-83.8911,-126.6487,-125.4920,71.0244,8.8553,40.6744,2.3346,-58.8532,-116.7019,26.7279,80.1367,-47.4538
39.4099,70.6388,18.6294,68.8005,0.9592,41.4416,13.1025,-65.2897,-130.6204,-91.2456,34.8619,21.1759,2.3676,4.3408,-116.0969,-65.3209,-31.5904,60.4567,-1.2818
8.9518,20.8432,-8.0103,22.2841,-21.9613,-4.6626,11.5126,-13.4477,-138.0984,34.0602,28.2094,-12.6282,13.4777,-26.9641,-119.1399,-48.2462,-81.1412,37.9568,49.6410
14.6907,-18.3051,5.6943,-16.7888,6.1990,-20.5260,72.2577,45.7845,-36.5246,127.2230,54.5404,-49.6541,66.8844,-40.7639,-1.1323,-38.9747,-56.2802,5.4665,114.0878
-4.2000,-16.3720,-14.9964,-11.3678,27.4104,-9.2868,117.1211,56.9241,33.4199,45.6577,65.2743,-19.7972,96.0765,-12.9202,72.9338,-13.2248,12.8904,9.0599,112.2728
-23.8465,13.5699,-47.2935,29.7249,37.6643,36.6020,54.4306,47.8031,-44.5142,-86.3091,59.6444,4.5689,95.7238,21.2938,13.7152,8.4069,57.4128,61.7240,53.3704
39.6384,38.6466,11.5680,60.6612,109.4771,92.8600,14.7423,53.6822,-84.6607,-86.1650,80.7991,-30.4677,116.2531,32.2713,-23.2875,-5.2331,81.8435,93.5816,59.9015
89.3488,57.7827,86.6437,71.9671,177.4895,106.8944,49.0536,45.7034,-6.7573,-14.6510,91.2802,-36.4804,127.4728,36.0311,-14.8745,-38.2893,109.5686,58.0496,111.3336
-4.9967,64.1584,33.7087,75.5855,106.4535,79.2634,16.1990,23.0382,28.2448,15.2117,34.9366,3.9054,70.8990,49.4065,-100.2296,-23.4915,98.8920,-1.2929,76.5991
-113.7682,36.2606,-46.5465,59.3101,3.6134,46.4285,-49.0610,7.3790,34.9926,25.2391,-6.1174,7.2238,7.3003,57.4845,-186.4648,41.8613,30.0587,-29.8279,-7.9406
-93.8305,0.6059,-21.7115,26.9311,14.6257,16.6402,-37.3355,-21.4881,105.4191,18.2590,33.4787,-9.5186,-9.7731,44.1582,-134.0411,57.0889,-47.5133,-29.2250,-36.4796
-66.3600,-1.7911,-27.1711,8.5113,-15.2798,-14.7682,-86.5019,-54.4746,75.4863,-36.2978,37.4582,14.7730,-61.1468,18.3716,-119.2838,-1.0725,-116.6940,-29.7503,-70.6567
-121.9895,2.9703,-145.8943,-3.7997,-186.1775,-50.2179,-249.1322,-43.5262,-124.2359,-62.1305,-44.2511,42.9535,-160.7035,-3.3621,-257.3711,-17.4486,-190.5171,-49.3768,-171.2514
-129.7256,-22.5831,-195.0370,-39.3930,-273.1404,-92.0084,-303.0766,-0.7845,-238.1767,19.2260,-66.8881,34.0799,-191.9358,-19.1566,-326.4431,41.6435,-224.8171,-84.9064,-225.5874
-34.2125,-43.6063,-115.6064,-74.5506,-189.7129,-115.4966,-216.5425,25.4718,-168.0463,130.1370,1.7115,22.0591,-159.3238,-32.0475,-231.0760,65.8243,-178.1467,-118.2195,-166.8727
41.1761,-18.1092,-73.5854,-66.5548,-140.3672,-99.8325,-173.8124,20.6515,-107.2265,142.9756,15.0045,43.5483,-171.9310,-29.9523,-159.2870,27.1507,-97.4096,-133.1151,-105.2993
30.4254,15.6521,-100.5536,-37.3320,-174.2545,-84.3822,-163.2862,-5.9592,-124.1354,71.6253,-48.7554,88.5898,-202.2456,-5.0583,-174.7671,30.5486,-55.4749,-132.4084,-115.2340
-17.3926,-1.1573,-103.2905,-41.3343,-168.0039,-105.4130,-113.3279,-13.8100,-135.2265,49.2622,-75.4691,107.9877,-173.6986,14.3490,-177.2005,97.7272,-66.5339,-129.4318,-128.0950
-48.3510,-44.5434,-91.8609,-71.2238,-126.4470,-122.3486,-105.8094,29.6089,-125.9284,94.8527,-37.9131,76.4742,-127.4187,2.2023,-143.5384,118.1751,-79.7720,-121.2786,-93.3664
-50.1195,-45.8790,-88.5539,-70.0366,-99.9527,-91.8867,-143.7412,64.3234,-103.2381,61.1008,8.5240,49.1711,-106.2413,-12.0132,-99.0305,49.3343,-47.5575,-96.3344,-65.9436
-62.4427,-13.2170,-72.2851,-34.5343,-87.8616,-47.7425,-157.7428,39.5737,-92.0870,-56.8228,6.5246,62.3430,-104.0112,4.9310,-74.3406,-3.6626,-14.1069,-71.9028,-83.8881
-94.3064,-15.7976,-77.4097,-24.9665,-111.6387,-40.1762,-169.9737,32.4376,-145.7380,-53.2951,-66.1276,58.0968,-132.3959,25.8599,-102.6101,42.0807,-38.1764,-72.2456,-70.1286
-62.8004,-55.7413,-95.0472,-55.4723,-118.1842,-55.5536,-128.0488,92.4289,-168.9679,85.8657,-117.9420,14.0795,-143.9118,20.0354,-103.1120,117.3325,-47.2818,-73.3857,47.5694
27.4611,-73.9466,-50.4074,-72.5562,-28.6372,-50.8427,18.5632,138.0631,-50.6567,147.5376,-58.9007,-13.4957,-80.1359,6.1516,-14.0694,118.1523,27.4499,-46.5117,184.3558
38.4455,-67.3915,7.8907,-61.7282,48.8521,-32.3351,84.5850,127.9309,54.4635,116.2317,9.7716,-16.8666,-37.6538,-1.8946,19.2507,63.5518,83.4562,-19.2444,223.7899
-26.3798,-74.5927,-5.0892,-59.5339,21.4524,-34.3912,3.7918,113.9949,17.3040,126.2708,-19.2546,-26.8383,-85.8252,-16.3388,-65.4357,34.3368,49.2146,-6.7064,214.5361
-33.8681,-84.3678,-27.0275,-60.3602,10.9765,-38.9108,7.0668,106.8719,1.1339,141.0061,-58.3446,-38.5167,-91.7159,-28.2684,-94.3624,39.4465,24.9281,27.4238,240.6155
-9.6931,-70.5995,-9.3862,-37.1120,55.0086,-10.5914,95.2275,84.8292,69.6512,130.0569,-36.0333,-59.3864,-6.8870,-25.4956,-41.7276,46.0688,52.6940,69.5299,236.5750
-30.6536,-47.8040,0.5075,-14.1520,49.4898,19.0329,43.5454,58.4999,56.5612,181.3467,-7.8896,-89.5412,26.4156,-29.3882,-51.2105,43.2983,66.8322,64.6970,140.3567
-14.8407,-16.0749,22.0633,-3.3418,46.2233,21.5915,-56.9377,14.3190,-22.2305,191.5181,17.7094,-66.3441,-5.8061,-46.0282,-69.7279,2.6838,93.7285,52.6581,36.0043
60.4742,47.0199,74.1394,38.3214,112.5044,44.9163,-29.8422,-71.8394,-16.2157,-0.0568,43.0815,13.6122,3.0149,-45.1563,-1.8236,-98.9895,159.3492,103.9755,-9.8753
65.6917,101.0892,71.8250,96.4518,124.9505,96.5031,-19.5856,-145.7650,22.4099,-198.1967,2.2765,45.7247,20.2668,-26.0749,40.1859,-187.4642,147.8793,162.2125,-33.9668
-3.0332,74.2751,11.8847,87.8184,53.7158,98.1360,-102.8705,-137.1588,13.6445,-159.6675,-63.0002,-5.9214,-4.6019,-25.0296,18.7117,-169.4129,29.4230,150.0600,-47.7182
-24.4582,-0.4763,-7.2037,22.4812,31.0025,48.8223,-107.4761,-74.9532,21.1292,-41.0765,-36.0742,-59.5975,-1.3282,-46.5562,46.7295,-96.3135,-36.4399,123.5957,-29.2164
18.9584,-9.4441,14.1907,9.1383,58.8035,45.5300,-24.9589,-43.1216,37.4242,-68.0425,36.0866,-59.5247,38.3340,-57.6474,90.8339,-95.0582,27.0033,148.6760,-2.2718
75.5275,62.3921,24.9827,65.8275,53.2168,98.5145,0.7863,-66.3295,-0.7626,-162.9070,39.9053,-27.0226,35.7475,-45.1864,59.6647,-165.7988,105.1134,173.7126,3.6587
94.6004,103.6215,23.1538,95.3060,4.1242,117.8129,-41.9436,-96.7062,-35.3230,-181.3320,-23.7191,-10.7354,-19.7119,-30.4732,3.4948,-198.8378,77.6876,142.6131,-15.0633
20.6700,57.3465,-10.8262,57.8779,-85.9067,75.3211,-103.3673,-95.0129,-7.5530,-129.6137,-113.8017,-33.7006,-88.5277,-29.7681,-37.2486,-154.2669,-44.8143,83.5195,-51.8517
-71.6812,-3.0170,-49.3950,13.1758,-140.2267,25.7284,-109.5164,-73.5947,57.3124,-50.8751,-153.7208,-58.7689,-108.2115,-30.4433,-47.8340,-86.5009,-129.5340,35.4443,-57.0715
-30.9538,-18.6620,3.1565,-3.8057,-33.9651,4.6450,34.7488,-42.8186,135.5737,37.8115,-39.2205,-55.2817,-4.6847,-19.8373,47.5476,-28.4944,-77.3132,8.6829,11.4567
79.0582,-23.8321,99.7460,-15.6405,124.5316,3.2064,212.5060,8.6275,165.3420,96.8148,139.1383,-61.8778,152.8077,-13.4595,184.8342,17.5701,13.0198,11.3909,85.6987
83.4630,-38.9573,107.1995,-25.3706,134.1264,6.6658,217.4151,53.0605,103.8546,70.3636,168.5827,-86.1340,203.6628,-20.6608,194.8166,15.4909,0.5533,33.1539,89.1242
18.5855,-31.2704,64.4385,-13.8964,73.4962,10.4473,138.4789,48.8606,69.4412,-45.1469,76.4336,-65.8874,165.7124,-17.0775,140.3488,-48.7388,-55.5676,37.8397,68.2502
-2.9939,-4.1995,55.3913,5.1037,73.3584,13.5454,143.9965,23.5750,123.9986,-149.5018,39.7206,-8.2342,148.7835,5.3099,168.8813,-98.6957,-41.9296,15.1072,74.2817
-4.9298,7.6935,38.8683,9.2570,51.1368,18.4247,160.2261,19.4540,137.6789,-137.7227,67.2059,8.5552,123.5287,17.0283,208.7257,-78.2931,8.5719,-7.2769,75.1694
-3.2970,11.1769,20.4453,8.6198,-5.0328,27.8473,145.4475,12.4390,132.2390,-50.2508,87.1728,-14.4386,61.3758,11.1380,198.3380,-47.2676,40.5856,-22.8754,70.8713
25.8029,14.9307,48.4881,3.9788,6.6517,18.5556,190.2938,-22.2445,279.4384,14.6724,79.7681,-10.3269,27.0433,8.9066,218.2510,-54.6715,54.5517,-61.2548,89.6395
26.3798,-6.9696,42.3581,-27.6754,18.9615,-38.7180,226.5909,-56.4572,466.1712,55.3234,10.3674,31.5903,1.3524,6.9820,240.4901,-42.9627,31.0398,-117.3044,81.9424
-18.0467,-39.8798,-40.3305,-64.8109,-48.6264,-97.1728,150.6273,-68.4070,456.6242,83.7739,-90.3067,66.7665,-65.6401,-0.9750,201.1039,18.3158,-3.7262,-138.1857,13.6192
-28.4111,-27.8131,-91.1019,-53.4478,-94.2435,-77.6265,63.2524,-69.1971,343.3290,66.5740,-110.5657,71.4515,-107.5755,7.9507,178.6734,56.8074,26.6148,-118.0304,-43.4789
-10.9688,18.6451,-86.7794,-8.0391,-80.1358,-18.9255,33.4503,-71.3304,297.9113,34.0835,-71.2908,66.6069,-94.1340,31.7838,170.5039,39.0536,75.3363,-108.2680,-55.0408
-23.5155,33.8170,-93.8560,9.2062,-84.6639,-11.7217,-21.0770,-72.9071,229.4155,37.1597,-68.0261,65.1475,-94.4595,32.9966,65.8334,27.0916,42.8413,-104.1867,-81.0799
-22.0697,13.3893,-73.2143,-0.8253,-83.3415,-19.6138,-94.9864,-56.7076,72.8343,35.1811,-63.6245,37.4992,-105.8674,13.9436,-58.7171,43.9779,-10.8382,-58.9389,-117.3049
23.6202,10.0456,3.7689,5.2714,-34.1901,17.9295,-100.5626,-23.4071,-26.7232,5.7883,-35.1295,-5.8794,-86.4047,11.4661,-65.6146,36.7651,11.4780,-13.0033,-89.1120
52.9473,40.9010,51.3887,28.3829,1.1629,41.8899,-47.1712,-13.2987,-10.4798,6.9454,-61.3626,7.1364,-64.5787,25.2131,-39.5967,-6.0002,62.4384,-34.8079,-17.4695
61.4366,81.5055,49.8272,53.6541,6.5166,28.8976,2.9823,-36.0679,-5.9102,26.4981,-101.7441,61.4676,-44.0737,35.5686,-88.4276,-30.9665,79.8077,-70.5664,2.9737
86.7045,112.2885,59.3722,86.3022,20.4447,53.6992,10.9488,-47.6898,-97.3108,-30.2331,-61.1597,67.8584,-5.3086,49.1311,-152.1138,-18.6650,83.6888,-36.6565,-42.0180
85.3067,125.5071,68.9396,113.0948,16.0510,99.2303,-42.3061,-46.1377,-231.9998,-180.4785,-25.0794,55.8410,-4.5056,69.3073,-184.4473,-9.6631,74.8436,25.5050,-101.1642
21.1276,126.4974,45.6491,118.7004,-30.5362,93.5896,-128.7197,-65.6954,-332.3728,-334.4757,-85.6785,96.9457,-62.1144,82.5105,-227.9884,-28.9498,32.8697,42.2751,-156.8577
-44.4954,132.4935,7.4254,126.4758,-85.6796,84.2251,-205.6477,-78.4183,-394.7007,-386.7967,-162.5878,122.9823,-100.1370,91.9893,-297.0922,-39.9046,-14.0769,28.2100,-202.4948
-56.1401,132.4761,-26.3482,134.9751,-119.7011,106.5781,-256.5415,-47.1116,-441.5471,-299.6880,-192.5592,77.6635,-97.9799,102.8505,-349.7478,4.4730,-39.5059,12.8566,-205.7671
-43.0831,90.6648,-31.9245,96.8353,-108.6990,77.7989,-259.0764,-12.2452,-433.3616,-158.8727,-206.8631,44.4104,-98.9809,93.4993,-328.3361,73.9188,-59.9944,-11.7513,-169.9297
-57.0168,29.4666,-1.4410,30.8752,-57.5952,-3.9555,-223.6729,-11.0370,-360.0190,-98.2341,-210.8611,66.0009,-87.7420,57.8778,-248.0922,79.5516,-82.1116,-31.6587,-145.6998
-79.8227,18.7455,11.9342,15.8648,-24.2406,-35.0131,-198.7392,-14.0878,-317.8235,-123.8353,-207.7471,88.7420,-39.9334,31.1843,-227.2411,18.1638,-83.3652,-23.2661,-143.6783
-43.9962,45.9181,-5.7171,40.3222,-19.6058,-14.0753,-161.5175,5.0834,-322.3730,-111.6660,-218.7248,84.1543,10.6792,32.5119,-281.5153,4.6046,-56.8976,-7.9015,-124.9452
22.8264,28.8790,-0.4655,28.8607,-4.0426,-6.7850,-87.9805,32.2787,-268.2105,-17.8185,-216.5958,40.6626,34.9339,37.7447,-258.9558,82.9699,-39.4683,-4.6231,-86.1477
0.3448,-26.1392,9.3658,-3.4414,3.7942,-4.9400,-68.9412,40.8574,-190.6730,28.0196,-194.9243,-26.6707,37.5759,31.0131,-148.3830,137.5142,-73.5968,14.7279,-65.1397
-99.9024,-43.4022,-25.7726,1.6262,-13.4142,3.7609,-131.0754,22.3335,-215.0743,-61.4038,-204.4995,-40.8796,39.5457,23.0778,-125.5755,93.8321,-139.7285,63.3002,-72.6616
-134.3721,-33.2070,-59.8274,14.5921,-22.0639,-6.9201,-171.8711,8.2102,-273.8041,-138.0154,-240.3443,-13.9726,53.7925,10.4357,-208.5582,39.3784,-185.5782,100.1181,-91.6265
-95.1824,-53.9623,-63.2656,-12.4848,-44.9779,-30.0053,-190.6105,23.5262,-260.4505,-55.6874,-266.4183,-46.2501,46.7674,-23.6498,-254.9844,35.6354,-218.1499,97.4433,-110.4886
-84.5120,-83.3047,-76.7511,-45.9307,-90.1985,-47.3366,-226.8890,36.0631,-240.3478,37.6328,-286.2094,-93.5416,14.3918,-63.7477,-226.8351,13.9271,-257.2484,90.3855,-102.3972
-90.5242,-82.1177,-74.5987,-45.7153,-57.7686,-55.1893,-183.2307,30.9017,-231.4011,-32.2897,-269.5310,-66.6632,41.5282,-73.0876,-152.4238,-45.2319,-255.0315,116.9743,-39.0398
-85.7902,-83.8131,-36.6656,-34.6021,32.6572,-34.5797,-77.6057,45.9633,-163.8483,-122.9023,-213.7308,-55.7359,119.4267,-51.5732,-55.3303,-50.3764,-204.0661,151.9839,33.9059
-141.7097,-114.6042,-56.1000,-40.9669,11.2793,-7.0967,-98.4004,71.5170,-108.5014,-65.9901,-230.4690,-118.0486,111.0731,-35.3162,-28.4088,18.4792,-201.0490,150.7319,37.6337
-224.9848,-145.7863,-134.2738,-60.3530,-85.2500,-28.1889,-176.3135,70.1554,-113.3438,30.7151,-309.6958,-146.6365,44.1195,-38.9139,-81.9462,79.2673,-264.3558,124.1678,7.6638
-192.2521,-161.2421,-131.0824,-78.9739,-57.1665,-60.3344,-69.0793,81.3258,-38.4678,65.6063,-260.1370,-135.7246,81.6529,-41.6952,-55.5715,105.5210,-268.6806,112.3531,58.2392
-82.7739,-161.4572,-55.0687,-84.0180,49.0164,-39.0690,110.1632,124.7423,105.0802,87.9689,-105.5231,-155.3526,163.1754,-31.4611,68.1013,117.8854,-172.2658,110.8080,162.6893
-61.7370,-127.4621,-54.0025,-68.7840,38.4853,-18.2650,79.2291,116.4801,107.9301,58.4331,-91.4212,-121.0256,113.0981,-19.6333,108.6584,83.0415,-96.3198,82.3386,159.5684
-106.1212,-63.2372,-114.9930,-41.5908,-51.3893,-41.5902,-80.1124,30.7990,2.3645,-53.6932,-198.9728,0.4787,0.2851,-13.0889,61.8179,-1.1062,-101.1884,29.6435,30.6743
-85.1837,-16.3318,-115.3955,-16.2825,-65.7433,-37.6228,-123.0946,-39.7974,0.0793,-72.8951,-192.5695,41.9704,-22.8031,-11.7468,77.1955,-41.9138,-99.7149,3.9398,-55.5866
-24.5298,-13.5536,-67.3850,-7.1609,-26.2735,5.4807,-70.5731,-50.9085,78.9983,66.9131,-85.3864,-35.4324,-6.5381,-24.7318,125.4169,-11.3320,-44.2406,23.7399,-31.3253
-18.0115,-30.3433,-54.9268,-23.4986,-39.1247,3.6157,-60.3501,-40.8222,109.6288,157.8420,-46.0211,-69.2747,-40.2431,-48.3162,109.1141,-0.0963,-3.7401,27.3812,-10.9913
-39.5747,-29.8958,-82.6852,-45.6927,-105.6973,-38.0561,-93.3562,-29.9033,108.0244,122.7040,-57.0878,-20.1189,-89.6138,-55.1336,81.9473,-33.4413,-10.1883,-32.8161,-56.0166
-18.3277,2.6774,-121.6152,-39.3000,-169.7539,-43.8001,-129.3694,-26.4618,76.6919,116.8851,-49.9580,19.1103,-128.0724,-43.6128,66.1548,-41.8506,8.0200,-92.7599,-108.1279
45.5173,61.2999,-156.3347,-1.5825,-215.3298,-12.1106,-192.7172,-48.2107,-40.4776,151.8990,-77.3438,41.5408,-186.1649,-45.8203,-34.2351,-41.4261,92.3350,-77.6524,-154.1354
122.7028,139.2618,-163.3763,49.7399,-252.0223,27.5647,-298.8549,-85.1200,-185.9284,78.5377,-141.6671,90.1896,-266.0872,-58.8713,-212.1938,-116.9894,186.2885,-32.4284,-231.0638
198.4777,231.0516,-141.2369,110.3494,-272.5557,77.3182,-403.3292,-121.8579,-281.6911,-99.3801,-163.4302,158.2975,-341.2864,-48.6522,-355.6489,-244.6551,243.3173,-22.7913,-309.1768
255.1513,316.5134,-123.2591,171.7423,-267.8672,121.0748,-463.5738,-164.7972,-363.3138,-236.5430,-162.6657,229.2114,-392.8978,-24.2155,-445.0106,-332.9478,292.8028,-22.7147,-344.2905
292.0226,382.4089,-121.9798,216.9646,-257.6624,138.6457,-499.9950,-207.3843,-451.7819,-278.3147,-202.0828,298.1718,-421.6582,-13.3080,-524.8071,-372.6985,363.2752,-17.8714,-371.2863
337.7536,437.8713,-116.4883,246.4405,-263.3105,149.4300,-546.4774,-233.0303,-511.7526,-278.3438,-223.4757,348.4362,-446.3760,-4.7392,-587.3939,-397.9194,423.2065,-47.3688,-430.6374
391.6779,464.8351,-91.7057,257.9617,-268.9183,166.6600,-576.9231,-239.1687,-545.9300,-263.0295,-144.9868,341.3157,-456.2742,-1.7239,-603.9512,-406.1291,427.2925,-73.8006,-486.9267
399.0013,422.3885,-53.5791,232.7179,-256.3235,171.2358,-564.2891,-227.9110,-555.3170,-220.6330,-21.5356,254.0590,-422.5146,-36.7564,-564.4613,-399.6482,365.1939,-27.0875,-494.8692
317.8138,333.4362,-28.4367,181.8819,-245.7931,148.3269,-547.0460,-215.4211,-519.6185,-194.9310,22.8446,158.9768,-381.8987,-77.7872,-481.0895,-386.4010,251.2607,31.7102,-470.2948
184.5302,259.7498,-34.8463,142.0439,-240.2901,103.3105,-526.4977,-212.2722,-458.2732,-219.9351,-25.9271,145.6971,-366.6382,-59.1717,-390.9352,-331.7195,120.7157,11.6030,-426.6063
86.7030,193.1760,-33.0146,108.5281,-183.1726,59.1661,-419.8587,-173.4166,-370.1607,-186.1021,-45.4818,145.3295,-301.7402,-9.3538,-295.8382,-213.9039,33.8729,-39.2724,-316.8215
51.3422,93.7565,18.7157,51.9427,-60.2322,33.4865,-231.9144,-71.6147,-226.1084,-19.4887,37.7293,55.5610,-155.5159,4.8141,-159.3147,-78.1993,11.0930,-49.1659,-142.0177
-5.2070,-11.5052,57.5325,-13.1389,23.3424,7.4834,-105.7356,18.1779,-94.2740,112.9608,129.1171,-42.4072,-42.1415,-0.0818,-21.5130,27.2403,-19.0396,-47.0670,-28.1412
-142.9957,-75.9160,7.1134,-49.3651,-14.5881,-30.3677,-109.3287,34.3359,-58.4370,83.9858,137.8163,-58.6906,-25.8357,12.7088,30.5690,94.5372,-113.8325,-60.3922,-48.7305
-278.5088,-109.1534,-68.7119,-58.9187,-93.5161,-48.1709,-151.6268,25.3367,-54.4495,35.2178,121.5229,-68.4207,-43.6267,26.5115,22.0311,132.6317,-214.6232,-66.1662,-91.9115
-322.2982,-146.0654,-75.1253,-76.1329,-108.3926,-45.4771,-150.2719,43.7008,1.3306,57.2429,124.8989,-112.3127,-64.1873,32.2830,46.4464,163.5459,-259.3302,-68.8912,-52.7904
-323.9340,-198.9670,-47.4804,-116.0474,-83.4894,-64.5715,-98.5343,83.7446,84.5541,50.9256,100.4522,-132.2661,-76.3328,40.4661,123.8254,199.2994,-279.9083,-80.2760,28.0638
-344.3299,-247.3475,-42.2910,-149.6538,-53.5114,-88.6977,13.7228,133.5396,172.9022,22.1795,88.0766,-145.7824,-9.5428,39.8008,225.7275,214.1690,-293.7610,-70.5130,117.5172
-355.4791,-257.9875,-30.2822,-140.1264,16.0071,-69.1696,159.6640,166.1255,252.3213,43.8141,170.9522,-185.5983,118.1016,35.3043,310.6890,201.7812,-274.9340,-26.3410,233.4185
-346.6130,-239.9743,5.0526,-103.5285,104.6616,-31.4835,247.4753,154.4933,261.6881,46.3462,262.5833,-201.9548,180.6980,48.2723,322.1208,198.0843,-252.7749,26.4958,332.7024
-327.5469,-240.0850,53.9997,-91.2427,166.5972,-19.8983,280.6572,145.3857,222.6537,21.4362,260.0217,-202.6291,188.4704,51.6467,287.4764,202.6216,-241.5413,74.7519,387.9731
-266.5575,-262.5064,133.8509,-110.1827,237.5959,-20.2232,353.4633,188.8598,226.4473,77.3085,245.3730,-240.9850,250.9233,21.6923,285.2645,194.1877,-184.5919,113.2900,444.5648
-199.1228,-278.2303,195.2822,-127.3559,300.7534,-21.6941,424.1328,237.0810,251.4916,157.4082,271.4427,-274.5199,314.8767,2.8684,269.6660,211.5017,-122.7779,125.3521,475.9854
-221.6656,-297.1255,157.2611,-139.7404,261.8241,-38.4848,391.0341,238.3549,270.2588,171.8906,252.1887,-278.3351,277.5780,11.7673,193.9220,269.5880,-159.8497,112.6082,430.1624
-289.1441,-322.5323,93.9046,-156.8249,179.9257,-52.7235,331.5004,210.7184,357.9721,219.3538,202.8810,-306.8887,220.0513,-3.5797,183.9752,280.2926,-217.1736,99.6665,378.1709
-282.0307,-299.6400,107.9244,-147.4376,183.0916,-39.5771,320.7088,156.6351,442.2671,278.2598,215.7236,-317.7902,224.1132,-40.2790,268.1568,199.3816,-171.4496,103.4078,348.7296
-229.8669,-212.0460,119.0745,-91.1518,198.9874,-13.3085,249.9163,69.5268,341.3765,173.8848,230.3215,-232.8766,197.9701,-33.6750,252.6976,118.3699,-112.9666,113.7084,252.7042
-209.5272,-137.7705,60.9648,-40.6976,130.3735,-1.6689,127.6851,10.3422,179.6067,33.9061,173.3896,-136.3525,103.8851,8.6864,127.1706,112.6729,-134.0003,91.2877,141.8583
-200.6678,-137.2190,25.5549,-52.9364,65.2551,-23.9132,139.7935,20.8909,218.6249,111.0117,133.6685,-127.8757,59.6630,18.0479,108.5367,146.7761,-151.4280,22.5954,148.2944
-189.6624,-172.9487,37.5361,-96.8370,66.2383,-68.9405,253.9664,48.9647,346.1115,261.8951,171.7492,-153.4448,108.0668,-11.7519,193.1282,165.8049,-135.5991,-24.0938,195.2675
-177.4865,-180.2997,37.8530,-103.5194,93.8529,-80.0789,292.4070,59.9840,315.3730,239.2989,222.9908,-153.8027,174.0394,-27.3709,219.0105,158.9011,-137.3463,9.4127,189.7672
-126.5208,-154.5695,56.0670,-73.2324,146.7443,-37.8994,299.2544,81.2311,215.2962,127.5667,240.0907,-146.9090,218.3661,-6.8624,227.6057,142.6250,-115.4450,63.4367,223.3707
-80.2322,-134.8421,80.3567,-55.8929,171.8883,-6.2501,342.5679,102.7177,209.6606,54.5021,215.7077,-131.7855,222.5554,24.3986,284.7615,142.3609,-68.7983,62.9417,281.0743
-111.1456,-132.6494,23.6437,-60.2268,89.5096,-18.3250,321.8134,91.2221,225.6726,-9.7472,172.1765,-103.1134,172.8108,38.2592,296.4608,155.6715,-86.3406,35.2604,230.2006
-127.3530,-126.4104,-30.7683,-64.8756,25.7893,-36.3117,278.1553,76.4135,202.8562,-22.9275,192.0476,-85.9834,145.3741,27.1648,270.3991,146.5753,-111.4524,23.3605,163.1203
-41.5401,-114.7544,31.4754,-74.6446,101.6904,-52.4531,343.0688,89.9331,202.8783,54.7879,273.4173,-73.9320,195.1050,1.1405,300.2581,112.8736,-47.8681,14.2814,204.5296
37.5272,-105.3088,76.0659,-85.7928,151.0526,-74.4716,377.7223,94.1708,197.0249,83.9499,286.9601,-47.8711,222.3372,-17.1650,297.1673,93.6101,-2.9782,6.9587,200.8522
37.8030,-75.2367,4.2241,-63.1573,66.7517,-61.6607,243.2857,62.6016,118.6413,-0.3652,225.7383,-26.5937,159.0679,-7.9966,171.4112,93.6579,-46.5690,15.9756,62.0688
27.5864,-23.8924,-34.2304,-14.8335,5.2319,-15.1732,106.9169,27.5082,13.4920,-56.2949,202.3464,-17.7773,90.8799,16.2365,41.1365,88.7901,-58.5668,18.3958,-42.0446
8.9752,-1.5818,3.4060,2.4634,2.8030,-5.1580,60.7193,8.2197,-68.9905,-10.8558,184.3720,-8.4445,57.7139,22.8967,-9.2771,90.4559,-31.6623,-6.2806,-63.6526
-36.3413,-19.3497,-14.8132,-18.8352,-47.3685,-36.5324,2.0298,-0.5097,-111.4136,61.1391,102.2281,-5.6503,16.6965,13.4362,-15.3738,115.0971,-63.9127,-43.3768,-97.4060
-40.1984,-31.0853,-56.1040,-35.8432,-69.9550,-54.6432,3.4113,13.4662,-57.4267,109.9211,59.9469,-2.7306,15.0126,16.1626,43.3532,128.7387,-84.1481,-81.6382,-75.6050
-19.8911,-25.8056,-16.7167,-35.7469,14.1482,-60.0113,151.1394,42.1775,61.9706,127.3806,119.8378,21.5946,98.0906,28.7339,154.1301,105.3111,-20.2980,-111.2322,44.2370
-46.1716,-22.5252,25.0120,-30.7590,67.1212,-64.8055,226.6588,44.8984,99.0862,118.5305,167.5249,39.1277,154.4038,31.6245,192.3132,83.0279,18.2661,-117.5407,84.4904
-43.1172,-10.2494,3.1245,-21.8111,20.8108,-43.4100,95.0794,22.8283,34.6991,133.3584,156.4936,16.3551,98.1211,27.2637,138.9453,87.1714,-5.6140,-116.6530,-15.6670
31.7243,11.6790,-8.2253,-16.1822,-17.5299,-16.1665,-26.3343,9.5816,-2.7570,182.0654,150.4774,-9.3382,19.4207,15.6577,95.4278,77.5486,0.7189,-123.5384,-86.6636
51.5541,10.8069,4.3300,-24.9851,-20.2642,-31.2222,-0.1664,1.8827,21.1032,193.7192,133.8295,0.6092,4.0471,-7.3510,81.3351,46.3665,27.3961,-113.8565,-70.3872
-0.8041,-13.7440,-10.7108,-39.6254,-37.4781,-59.3435,46.5528,-3.7807,46.5511,152.4592,72.3260,16.6967,13.0243,-17.3033,77.4603,53.5915,25.6266,-88.5911,-62.7392
-14.2419,-27.8042,-27.2879,-46.1102,-56.4723,-50.5151,35.9755,6.2461,62.3793,105.6509,29.8630,12.2110,-1.1769,-0.9241,112.2809,93.7886,38.6247,-82.3451,-85.9370
-21.5374,-18.0976,-18.5781,-37.6357,-68.5185,-27.1105,3.5192,-7.0444,63.2521,44.7469,44.2671,14.8464,-32.1695,11.4552,162.9746,83.8548,61.3749,-83.9829,-116.6816
-69.4874,3.1063,-27.4202,-18.8046,-91.8640,-24.6952,-41.4245,-71.1369,31.9950,-23.3766,62.1793,42.9680,-64.4317,5.9104,179.2522,34.5549,39.5931,-69.9686,-166.0807
-45.4191,15.5116,-71.0185,-15.5289,-107.4502,-35.3102,-75.5334,-105.3839,17.9763,-15.6328,50.4846,63.9610,-83.9002,-0.5470,181.4532,37.5547,20.0288,-62.3718,-201.0061
54.9621,9.9168,-106.0600,-30.8853,-95.6138,-37.9061,-53.2794,-64.7133,59.3020,44.3045,30.5163,53.3175,-75.4479,-4.6672,180.5489,75.6763,50.0414,-57.7759,-169.6305
75.5132,10.4361,-83.7818,-18.4681,-47.7666,-16.2981,16.8381,-36.2907,107.1841,20.8151,29.2657,37.7457,-30.2411,1.6550,157.1896,63.1317,74.9054,-25.5772,-93.2930
25.4993,31.3649,-5.2022,26.2575,45.4445,22.8884,104.3014,-49.0463,144.0023,-58.3170,56.5857,37.2038,52.7051,31.0632,153.6792,19.6858,76.5573,-0.6622,-16.3300
32.7772,38.2021,61.9856,39.4836,131.5667,41.0646,181.1196,-23.9935,198.5995,-42.9236,86.5045,26.9502,140.6087,51.0038,195.5347,9.3582,96.8202,-20.8624,44.0907
68.2405,21.3816,79.9644,16.0159,145.6167,30.3426,204.2856,22.3744,225.4018,28.9118,79.5251,6.0235,167.8122,40.1333,218.4346,17.9290,119.1893,-46.0006,69.2417
70.0969,29.9479,94.2430,19.5987,120.5688,31.5240,189.6837,5.8614,195.4427,22.9190,46.7985,17.9732,118.3064,46.5331,210.1511,21.4038,125.1778,-61.2462,64.0222
98.5375,70.8215,105.4373,48.2584,109.1134,49.3251,216.1605,-35.5086,211.2037,-5.5010,34.7061,60.6196,66.2367,82.4269,236.8956,34.6295,158.2518,-98.5802,71.9901
144.1700,84.2458,60.2142,47.9445,101.9246,44.3742,275.5985,-27.8236,303.8542,45.8465,48.3867,77.4993,77.7035,86.2044,278.7773,49.7872,205.5982,-122.5453,100.8172
102.0320,51.0883,7.6128,24.0559,98.0440,16.3973,268.7512,-1.6233,325.5249,113.4574,53.4775,55.3180,117.4973,54.7837,251.3601,52.9341,185.4711,-98.2998,111.5412
14.4230,16.4030,24.0466,8.3466,101.3882,-4.5548,180.7728,9.4494,226.8376,134.4178,38.1056,33.0703,109.8672,47.0634,166.5318,62.9293,100.6909,-96.2431,92.8219
2.5271,2.8058,42.8040,-8.9034,72.2852,-22.9199,98.1384,28.6273,152.8259,147.1400,14.9240,32.7771,52.1200,59.0813,99.4221,83.5455,34.4601,-150.3333,62.6663
10.8917,-17.3975,-7.3828,-40.0114,9.0015,-55.5929,58.8442,53.5260,164.0400,148.8024,-16.3230,42.2439,5.1069,49.9896,70.4950,97.1671,6.8813,-179.3827,29.1944
-56.9873,-60.0452,-57.5760,-70.1592,-28.0865,-83.7426,24.7321,66.5058,172.7849,121.8189,-45.0114,33.1188,-5.1713,27.3402,63.4748,102.1000,-21.5341,-148.5309,7.3467
-109.0561,-85.5770,-58.5725,-77.0488,-22.7139,-76.3965,-18.2032,70.3961,144.9748,109.4413,-26.3092,-1.5563,-6.7325,12.8383,61.8077,91.4902,-51.2575,-106.7999,14.1302
-66.2509,-53.1072,-58.6564,-45.0303,-7.5496,-41.1583,-38.5704,46.8323,97.8091,93.2849,36.3253,-13.2981,-13.0924,9.8823,29.1551,56.3036,-59.1788,-67.6954,26.9495
-39.6368,4.0420,-51.1688,7.9582,20.5662,-15.9713,-15.2917,-9.0521,29.0840,22.3382,67.6784,27.9884,1.1903,18.2703,-36.7569,14.9355,-44.2013,-23.2314,26.6521
-59.1496,27.3965,21.7573,36.0961,93.3489,-7.2907,55.5625,-39.8555,10.6378,-26.6212,63.4599,59.0237,56.1178,20.7216,-46.0278,-25.0782,6.0309,6.7077,55.7266
14.8535,25.0138,109.1102,29.8045,181.6429,10.9102,149.3452,-18.5546,105.3884,7.1996,85.7973,32.4057,117.7349,3.7256,46.9360,-64.9970,86.4804,21.8677,125.2025
147.5104,29.3678,95.7056,18.5069,180.9765,27.3225,179.0206,1.8450,180.1215,25.0377,87.2255,8.8839,111.5894,-4.8082,117.6014,-61.8919,114.9530,30.1365,141.3155
144.7217,32.8298,0.0762,15.5859,67.3276,14.1385,96.2295,-11.7160,109.0467,-20.6525,6.5266,32.3493,27.2466,13.9656,63.4720,-2.6818,53.8854,13.1195,58.7958
39.8831,29.6276,-43.4462,19.0402,-21.7146,1.7939,-2.3336,-28.3329,7.2678,-47.5565,-49.3103,50.8062,-42.4260,33.0906,-19.0871,36.3560,3.9072,-17.5004,-19.4870
5.6507,27.1767,-6.1834,21.6082,-10.1266,12.4628,-24.7593,-20.1649,-15.0999,-41.5837,-13.4008,35.6118,-43.2004,32.0734,-38.2423,21.9723,16.3307,-23.8374,-26.1432
22.8151,13.8733,16.7970,5.6430,1.2998,-2.0247,-19.2415,-8.0124,-24.7204,-50.4718,0.8016,29.2906,-27.9569,13.2967,-49.7770,4.3721,9.1241,-12.7723,-37.9465
22.6207,5.2486,15.8201,-12.4105,-12.5730,-40.8939,-17.9197,-36.6056,-23.9310,-66.4676,-23.5956,50.1880,-16.6559,-16.5939,-54.3176,-23.1547,-18.8885,-4.2130,-96.8006
62.0877,38.4292,58.0468,6.6161,39.4900,-34.0464,33.3651,-101.0479,70.8929,-86.4046,13.4871,72.5651,29.0632,-33.0340,27.1001,-94.8654,14.6668,5.4632,-126.9149
120.3566,73.6641,94.4310,32.9353,101.0504,-3.6639,104.9176,-132.4803,192.1984,-110.8738,46.2967,83.8451,71.6620,-22.1923,130.4429,-144.5141,57.0278,1.3247,-94.3597
91.1721,46.9474,48.4079,11.7729,65.4878,-25.8753,113.8751,-104.9682,230.4059,-87.3886,-14.2209,82.9340,53.9288,-14.3841,140.0408,-110.8707,24.0114,-22.9578,-53.8228
19.8017,-6.0396,2.1199,-25.9853,17.3920,-61.7277,102.0791,-67.3669,236.2102,-18.4991,-55.1591,58.0048,28.1338,-25.6282,104.6935,-56.4684,-11.8398,-30.7250,-27.0284
14.3767,-23.6699,39.0118,-31.7230,36.2348,-46.7544,140.6231,-37.3570,261.2264,19.3983,-17.2228,12.7476,50.1165,-33.2557,100.6209,-50.4513,10.2377,-16.7264,11.8184
47.3639,-9.3940,85.8294,-16.9180,56.1710,-16.3400,186.6345,-8.7436,249.9822,7.6335,4.7049,-12.2141,86.7195,-30.9891,101.2033,-80.4423,36.7762,-9.9758,52.1552
50.0033,30.9177,74.5841,17.0118,59.6619,5.4332,177.6576,-24.0159,185.0013,-43.1141,8.8206,17.7472,103.7362,-18.9253,88.8559,-111.1443,60.1748,0.3107,45.8895
26.7311,88.6370,27.8537,69.5134,51.1511,36.9313,116.4139,-74.8761,99.3454,-124.6606,16.7249,76.5164,83.1391,14.9623,56.0666,-108.3824,97.9912,12.4271,-13.0541
29.0613,108.9208,-28.6061,79.3348,-25.5996,38.4803,54.9841,-65.0901,7.4648,-152.3817,-43.8060,110.6550,12.9629,42.4990,-15.9872,-62.7109,105.5868,-18.3119,-53.8629
104.2541,86.4897,-43.6395,34.3748,-95.5416,-2.8981,60.5772,5.7146,-53.7572,-93.3614,-113.9719,113.4796,-41.2979,28.8656,-55.1265,-34.0911,100.9239,-67.7357,-21.6622
196.8854,87.6636,28.5523,20.7972,-40.2183,-4.3288,104.6333,31.5665,-70.3403,-66.1786,-77.4516,105.9132,-20.3626,10.1955,-15.2259,-65.9329,140.7732,-66.8933,25.6738
176.4639,113.2017,99.9971,57.2379,19.1913,42.5642,69.8100,-0.6921,-107.7379,-107.7421,-52.2481,91.0554,-0.0600,19.4716,-20.5048,-105.8635,160.6579,-38.4841,6.7603
66.5098,115.1460,73.9837,75.4727,-39.5691,51.0999,-38.7514,-31.2582,-187.3219,-140.9917,-140.0216,87.5995,-45.4953,23.2213,-123.7650,-113.5571,110.9228,-26.8701,-58.2309
23.4345,110.3631,26.3145,73.6511,-85.5783,31.5302,-108.5190,-60.5273,-255.9337,-189.9647,-188.9232,110.5232,-90.6978,10.1734,-195.5285,-118.1629,74.7833,4.9418,-111.2542
59.4052,111.4979,55.2611,82.9232,-31.6828,49.6971,-125.4639,-84.3539,-289.9487,-239.7612,-141.9100,100.9878,-85.5734,4.5568,-202.7525,-119.5446,76.6682,67.3278,-126.8731
78.1140,81.8396,130.5429,75.5649,45.0878,69.7422,-104.4441,-68.4271,-263.4631,-156.6979,-128.0296,28.5593,-47.1805,-8.0894,-213.5668,-97.9242,70.0615,104.6398,-80.3705
87.3975,54.6115,193.6039,56.9277,121.4015,52.4340,-28.4891,-58.9296,-186.2280,-49.3190,-143.0345,0.4708,6.8099,-34.0635,-206.2146,-99.0376,97.1863,118.0144,-13.3502
131.2142,103.4586,211.3119,85.9982,166.2224,54.3097,-16.7508,-110.1017,-219.9528,-153.5782,-129.1386,80.0954,8.5066,-32.7996,-209.8962,-153.3874,168.8894,145.2885,-42.8492
189.3704,186.8154,170.8324,143.8133,107.0677,100.4930,-161.5229,-150.8620,-416.5189,-303.4763,-152.6767,146.3270,-86.7212,-5.8547,-314.4549,-197.7576,192.6514,158.4359,-138.4368
237.5974,208.2742,131.7917,155.8570,35.8557,132.0614,-265.0571,-111.9066,-513.8861,-224.9434,-202.2372,111.6095,-158.8902,2.2639,-405.6637,-186.6911,173.6277,126.6067,-130.5209
246.0592,164.4341,143.6395,118.4841,56.8473,115.6564,-182.4973,-48.3750,-388.2726,-88.5177,-185.3809,60.0445,-119.6226,-5.7841,-342.8904,-151.8676,178.8157,87.4049,-35.5866
192.1635,103.9271,149.7005,71.5694,67.7166,72.5202,-94.6561,-16.0598,-284.2703,-101.8666,-139.3015,49.3276,-73.3008,-7.1197,-256.5052,-105.8404,153.8338,72.6484,-20.7870
134.3346,49.7657,117.3400,29.1384,27.5514,26.4486,-101.4029,3.0229,-285.8995,-99.2386,-105.7700,33.3368,-68.2888,-8.3123,-250.7120,-35.6122,66.2628,54.8681,-72.7242
118.4702,17.8847,90.6292,-1.6897,38.3324,-12.1339,-69.1327,15.6348,-190.5079,11.9691,-42.2355,17.6508,-25.0093,-5.4925,-195.1131,23.2483,6.9716,-1.5580,-77.6771
88.6531,6.7623,52.5550,-21.9056,41.1845,-47.6609,-10.8115,10.7332,-36.1896,65.3454,-4.0556,42.2137,16.0675,6.8054,-66.6832,41.2307,-11.6102,-76.8750,-73.6902
18.6621,-16.1510,-36.3871,-48.8221,-66.5767,-82.6054,-61.8125,5.6525,-48.5072,37.6235,-51.4831,58.8819,-36.5192,-1.9703,-17.7763,49.7817,-61.1346,-99.2254,-120.0487
-39.9857,-47.1631,-118.1652,-69.3857,-165.3345,-93.3755,-175.7174,2.9961,-153.8069,37.5549,-79.0233,24.8281,-111.1827,-41.1772,-63.1165,44.5201,-116.5484,-43.3378,-156.6483
-69.6115,-40.7112,-145.9713,-53.3746,-163.7162,-68.7942,-243.4555,-20.9086,-153.0499,40.2312,-34.9840,-2.7903,-129.5568,-69.0078,-96.4265,-19.7498,-126.1889,12.3265,-149.3469
-88.5646,-13.3035,-166.1924,-27.1692,-165.1751,-45.8446,-258.7332,-47.4086,-90.6384,24.3396,-15.8771,3.8346,-138.3825,-64.6870,-89.3514,-76.4923,-127.8654,7.4177,-132.5865
-115.9999,-40.5316,-203.0505,-44.0411,-213.0941,-59.3558,-223.1154,-32.5697,-54.7935,61.6971,-40.6846,-15.5434,-156.2001,-52.9375,-72.0232,-11.0159,-162.8694,-10.8164,-108.7894
-161.0235,-115.4147,-224.2593,-91.5315,-236.8538,-96.1127,-146.9817,8.0400,11.8314,125.6210,-60.7915,-65.0274,-146.2744,-53.6283,-65.7079,99.4628,-215.7353,-4.0110,-67.0162
-154.7865,-143.8908,-210.9596,-115.7048,-205.4494,-124.3462,-61.8441,25.1445,142.7496,134.6671,-83.5635,-67.6360,-108.1234,-62.5742,-36.6373,88.1758,-236.3990,-11.7057,-8.5923
-44.8454,-113.6860,-173.2503,-116.9405,-133.5791,-137.3013,57.2577,25.4846,292.9849,137.1344,-86.7687,-17.4787,-54.4801,-67.8029,85.9190,9.4217,-173.0703,-52.1519,72.6942
48.4404,-110.2615,-146.4246,-137.2850,-77.2146,-153.4253,190.9034,49.1158,411.3535,208.9318,-39.6415,8.7546,-11.9483,-67.6254,238.3732,27.5699,-61.1569,-91.9396,143.2502
31.2819,-145.6510,-148.4027,-169.8531,-84.7962,-175.2493,247.9847,86.3427,448.0569,287.7403,3.5731,-6.9822,-5.9175,-71.7919,280.2278,98.4886,-4.4521,-109.6378,159.9249
10.9345,-155.7863,-132.9397,-173.6035,-78.0047,-177.5724,277.0852,103.4907,441.1655,264.8284,27.6841,-16.2030,28.1621,-72.6923,278.2174,97.3412,-11.4491,-102.9974,162.2746
37.6358,-152.3193,-85.0298,-163.7944,-1.8881,-164.5103,368.6098,113.8509,495.3785,169.7487,71.3448,-10.6352,126.9719,-52.2364,351.8286,87.9380,-13.1234,-88.5971,176.9258
24.0338,-172.3233,-73.3223,-174.8491,22.8995,-169.4593,401.2574,133.8922,542.1033,131.3321,80.2819,-9.3050,166.8186,-29.5512,370.8636,146.7390,-1.1786,-96.9981,139.4286
7.5253,-152.8255,-97.2216,-163.5615,-28.5786,-167.1420,292.6801,126.4614,420.6702,147.1586,32.5559,8.1655,102.8748,-31.8093,243.1714,157.8030,22.3754,-101.6896,64.6093
69.5839,-62.2148,-64.6054,-89.3507,10.5495,-106.8306,213.1921,79.3965,218.8033,98.7674,43.4347,42.9629,85.6656,-37.1577,145.9973,51.4782,79.3237,-45.2047,75.6751
112.2239,-12.3225,15.0004,-28.4637,134.1637,-36.6486,222.5930,58.0057,129.2240,31.1086,114.1129,35.3780,141.2413,-27.6527,148.2718,-29.2155,111.0884,31.5441,164.4890
62.1394,-61.8728,35.5934,-53.1534,148.2245,-37.4835,162.0416,90.4727,107.8834,75.2619,99.0424,-21.0973,121.9377,-32.7507,112.6259,4.1758,59.4839,45.1914,187.2990
15.3677,-102.1934,-13.1542,-93.8525,54.7415,-73.4010,50.9054,105.0508,59.7440,130.0057,8.8578,-38.7592,35.9686,-55.0586,56.7656,35.9597,12.2437,23.7394,127.5367
21.8310,-59.3433,-41.7034,-64.7927,29.2965,-61.8304,67.6639,59.2204,64.8085,60.8387,-16.7301,9.3705,22.9151,-54.0808,86.8149,-14.3862,56.3453,36.5048,114.5111
38.6603,-3.6393,-7.7253,-5.1826,98.0546,-11.6726,173.8615,15.6382,132.5368,6.2033,21.1294,31.5654,79.0727,-32.3218,125.7678,-67.7317,120.2494,68.8883,188.5133
54.0582,4.4601,30.1614,16.4860,132.3377,24.0996,199.7324,25.6730,127.8308,64.6246,25.1498,-15.9390,108.5396,-27.1410,95.8762,-65.9858,115.2284,85.3825,246.2969
61.6161,1.5188,3.7136,13.2441,75.3917,34.2219,146.6763,46.5878,67.5021,90.7590,-15.0062,-50.2196,93.0682,-33.4852,70.7633,-58.6863,78.4519,81.9035,219.4515
59.0951,28.0002,-42.5437,21.1936,17.4631,28.4549,109.2077,26.3563,69.9956,55.7781,-41.7569,-11.9529,64.5824,-29.4686,76.7223,-82.3459,85.2748,49.2102,156.8779
