Fp1,Fp2,F3,F4,C3,C4,P3,P4,O1,O2,F7,F8,T7,T8,P7,P8,Fz,Cz,Pz
-14.2653,-3.8280,-5.9541,18.9653,-33.1164,-15.5655,48.9865,35.9677,26.8306,-54.1665,-17.8580,-0.4600,-4.9813,-11.5404,11.4533,-17.3300,-1.5264,27.3888,-6.4730
-75.6573,-34.6818,-164.9622,-6.2023,-195.0974,-63.9266,-207.3182,-90.0801,-148.7488,-40.5433,-111.0395,-16.3618,-146.1350,-114.8794,-87.6380,-83.4863,-8.7243,11.5925,83.4102
-55.7176,-24.7257,-183.7258,-0.8161,-167.7685,-44.0109,-205.1827,-101.5044,-139.3138,-17.7215,-93.6031,-21.7617,-158.6052,-126.4321,-121.5442,-91.0293,-20.0686,-19.5865,113.6899
-40.5144,-42.3673,-140.2367,-26.9893,-112.2279,-12.9949,-82.3781,-6.2513,-38.9024,9.2961,-69.0816,-37.0761,-115.3274,-52.1706,-105.6589,-42.8442,-28.2820,-47.3614,135.3798
-85.1356,-92.2518,-138.9387,-81.2597,-155.7753,-9.2114,-96.0624,60.0684,-51.2903,44.1911,-111.8438,-63.8902,-127.9233,-19.6008,-108.0831,-14.6456,-37.0912,-56.4087,179.4360
-86.2050,-92.5526,-88.8118,-84.8520,-113.3130,32.5631,-121.5043,110.3986,-93.5411,74.6344,-104.7457,-75.2507,-103.3083,-33.0807,-139.2443,-20.9601,-32.2305,-40.5272,182.7320
-27.6391,-52.5721,-1.0184,-52.7704,14.6301,98.7970,-79.7532,157.2692,-83.0007,81.9553,-32.2532,-57.3773,-17.4820,-17.0285,-160.3982,-25.0925,-5.6600,-32.2394,136.5923
-10.2297,-40.6909,-7.7123,-58.2189,17.0790,90.2861,-108.4739,136.5804,-92.4566,85.9208,-6.8517,-23.5273,6.1151,11.7226,-128.9529,-6.9762,4.5908,-69.4484,94.6624
-28.1349,-47.5616,-64.9843,-89.7510,-48.2801,30.0755,-137.1324,106.5337,-68.9247,113.8185,-13.4541,2.2786,-16.0048,16.6624,-43.7945,33.8766,-25.4869,-124.9302,61.0760
-24.8304,-48.1649,-80.2067,-109.8298,-31.6628,11.0056,-34.6292,132.5473,57.1718,144.0765,4.4483,5.7186,14.0903,23.9507,38.1603,75.3587,-58.0518,-149.4725,22.9285
-28.2087,-54.3005,-108.0024,-125.3652,-18.2628,8.6133,44.3222,118.8287,118.6400,143.3648,-2.4916,-2.2303,51.4113,31.4503,66.4158,82.4086,-63.2503,-129.6389,13.1142
-42.6820,-47.3085,-146.6239,-118.9401,-50.6663,-27.8340,-5.2663,49.4775,5.0777,113.0833,-39.1577,-7.0140,38.6490,1.5364,41.3668,52.4009,-57.5529,-54.4393,54.9356
-30.7733,-16.3291,-110.1574,-69.2139,-37.0858,-52.4191,-43.2843,43.3277,-112.5811,70.2138,-45.3228,-17.5975,11.9847,-46.3152,-17.2329,12.8552,-51.2323,43.8633,112.5465
-24.5423,-7.1109,-56.6905,-27.2742,-26.9821,-41.6712,-42.3444,63.9114,-105.2108,38.4467,-42.3152,-36.0500,-25.5688,-64.0969,-78.6246,-14.2989,-38.8809,50.6583,131.1309
-47.7810,-25.1451,-82.1635,-31.4289,-91.7015,-49.3874,-98.5409,-5.6524,-61.1377,33.4426,-62.3223,-38.1101,-81.9978,-53.6634,-106.6443,-21.3846,-24.6889,-48.2606,102.8638
-47.0111,-24.5434,-131.6662,-34.3894,-136.5286,-76.0717,-163.9910,-102.4300,-60.1040,21.6624,-67.0455,-17.8165,-107.7329,-45.3853,-101.9164,-24.9111,-5.6790,-90.6228,71.4437
-13.1408,-12.5951,-146.1217,-5.5087,-119.7286,-61.8159,-173.1605,-129.4846,-75.7781,-29.1239,-50.4489,4.2348,-101.1775,-49.0094,-82.4441,-49.1702,23.8305,-11.3766,58.7745
7.1811,-15.5936,-145.6565,20.1791,-107.7886,-11.8717,-178.8184,-123.2642,-91.5664,-76.1171,-40.3536,22.7235,-100.1430,-50.9865,-50.4117,-76.7635,47.4605,59.2756,38.9645
11.1996,-8.5237,-114.7591,27.2284,-87.0084,18.0107,-189.5831,-124.9586,-134.2066,-82.2173,-28.4171,38.5582,-71.8521,-35.9950,-33.8913,-80.0427,57.4403,60.7166,7.0739
9.9296,14.1950,-46.6229,35.8275,-36.1374,32.1196,-164.0865,-132.0744,-204.0922,-85.1606,-18.9748,39.2427,-5.5301,-9.0180,-61.4920,-81.2300,68.5479,56.2472,-10.6604
3.0164,19.6642,-7.0784,48.8048,-10.6943,69.3816,-139.8768,-153.3277,-245.5018,-98.7326,-22.0556,32.2855,16.6548,10.2937,-86.8944,-96.8537,75.6061,44.7128,-14.3410
21.6464,19.6115,-9.5473,62.3406,-7.5015,100.4589,-158.3169,-168.4413,-217.1464,-88.1304,0.3548,41.3067,-28.8838,14.3983,-71.6966,-94.9726,67.4377,0.8238,-17.1291
64.1469,37.9486,-2.2810,79.0489,4.2047,68.0086,-193.6475,-157.6152,-161.6151,-72.6744,43.4880,55.8872,-71.6387,11.0669,-69.9319,-72.3226,68.7710,-23.4087,-14.5951
64.0085,38.2247,0.9414,77.6385,-22.9123,5.9581,-227.5393,-159.7661,-133.5543,-83.3206,35.5438,48.1668,-90.5326,9.3605,-107.6776,-64.1237,90.9624,-16.7323,-7.5866
13.5015,-2.8012,-38.5947,35.8386,-89.6651,-13.9514,-249.7722,-178.7744,-114.1526,-68.4601,-19.7849,20.5478,-115.1424,10.4151,-122.9860,-60.2800,91.0656,-35.5158,7.5043
-22.0313,-37.3304,-86.2611,-19.0861,-118.0940,-17.6730,-230.3186,-166.6691,-83.7465,-1.6397,-51.4712,-6.6468,-133.7812,7.9331,-97.0902,-29.9897,47.8702,-67.2675,48.5807
-19.9844,-32.4378,-99.6571,-39.5941,-104.0438,-54.1311,-181.3786,-137.3483,-73.9117,34.3131,-49.0534,-17.7804,-123.9722,8.4144,-81.1492,1.2525,12.7064,-60.1399,94.3820
2.2775,-14.7896,-85.0226,-16.5094,-89.4103,-68.1776,-158.1819,-126.6568,-92.3343,-10.3986,-34.6338,-4.2928,-103.2031,28.5945,-93.5217,-5.4880,31.2265,-30.0525,99.8511
34.4360,-3.7882,-48.5237,22.0351,-62.0109,-14.5039,-173.7675,-108.8006,-127.3137,-68.8418,-6.8740,21.3915,-87.7412,57.2606,-114.8215,-34.9601,73.0626,-13.1474,77.8692
53.3649,12.2127,14.4763,44.3053,-9.6266,43.7421,-184.8907,-66.2981,-202.0779,-76.7313,21.1946,36.1860,-53.7811,73.3280,-130.3675,-47.9126,85.0381,-7.2265,68.2213
50.5063,32.7423,89.8962,42.2125,58.0546,75.5480,-160.8121,-22.2644,-301.0130,-49.0178,35.7018,36.8896,21.1567,84.2749,-131.9794,-39.9773,73.1969,9.1871,63.7444
52.5447,44.3626,148.2924,39.4434,134.0854,119.2684,-125.0610,4.3243,-336.1461,-23.3344,47.8640,27.6259,95.1996,76.9927,-132.0604,-42.6410,75.1474,54.4223,43.2760
59.6246,49.7106,154.7361,54.0785,170.9719,141.4495,-112.4692,-11.1695,-275.0979,-12.2900,52.7250,8.9287,98.7671,18.9623,-141.2368,-66.6646,81.0575,99.9561,17.2828
55.7155,52.5807,96.2833,63.0498,131.8837,95.2443,-113.2531,-65.6197,-189.4035,-11.8172,42.3071,0.1948,44.6541,-36.0920,-131.4226,-75.4713,64.5532,89.9624,9.4899
60.6410,40.8370,27.5406,45.2164,81.5450,52.0556,-109.0797,-87.8434,-139.9854,-17.4932,38.5693,12.9162,10.7682,-9.8927,-100.6976,-52.0740,55.6209,55.9090,27.6477
71.6166,15.4060,20.1547,23.6633,73.1856,61.8413,-124.6356,-50.8953,-119.4315,-21.3268,40.0497,15.8924,7.3873,35.3014,-98.9311,-34.4470,80.1968,71.3260,47.2877
49.2883,-1.2751,50.1173,16.0099,55.2092,50.6602,-171.2635,-23.7784,-109.7890,-6.5473,18.6762,-7.2919,-16.3501,6.6515,-123.0872,-36.5481,90.8750,97.3611,45.6519
10.6629,-4.2390,36.3676,1.5074,6.3842,-5.5955,-201.3307,-35.0891,-113.1245,27.0818,-11.8688,-25.6934,-53.4513,-39.7621,-124.4380,-27.4443,57.7875,70.4332,53.2051
0.5867,-8.0622,-13.3993,-24.4841,-11.9041,-33.6308,-182.6428,-43.3054,-121.5541,52.8256,-24.5618,-30.8392,-55.0195,-36.4383,-119.9668,-11.1396,28.7760,45.8731,93.4572
3.5293,-9.7709,-25.5796,-33.9949,13.3004,-25.4338,-144.4966,-37.6330,-111.4673,57.0731,-28.9617,-44.4534,-24.7367,-36.8788,-141.9320,-16.5381,31.5224,71.5614,114.7654
-0.1340,-0.0209,-9.6944,-19.8734,26.6974,-29.1939,-125.2655,-34.0115,-85.4846,44.3635,-30.2244,-50.8954,-3.7728,-67.2751,-154.7240,-33.6423,39.4952,92.9623,85.2853
9.6058,9.7815,-29.2390,-1.7999,8.7410,-35.1885,-128.4507,-41.1398,-72.8401,11.9491,-19.3988,-26.2942,-6.3417,-71.1507,-132.1867,-43.9789,44.7889,81.4914,52.3760
28.0213,12.3231,-60.1431,7.9307,-3.8789,-23.6197,-122.3423,-70.1359,-66.5079,-16.7720,-4.2008,2.2730,-13.7191,-41.6773,-93.5091,-43.6078,49.3275,62.1116,36.1433
35.4490,14.9992,-47.1308,3.9291,13.5069,-13.6544,-85.8018,-99.8120,-35.3700,-3.0922,12.5156,11.6770,-5.1135,-9.0925,-43.2002,-18.6589,39.3012,31.9912,9.9300
44.3574,12.4505,-26.4909,-12.6781,33.0524,-7.4413,-57.8854,-96.9327,-2.6855,20.0283,33.1388,23.8517,16.7551,36.9206,5.9720,18.8397,35.1862,-0.0959,-16.3510
53.8753,-0.0274,-32.5453,-28.0249,25.0801,0.1325,-77.0365,-90.8052,-9.9416,6.0977,38.9891,42.6181,35.3485,87.1877,19.1554,32.2577,62.1661,-2.5436,-27.6185
42.5872,-3.9603,-13.2814,-38.8438,19.5816,-11.8580,-104.9731,-105.4249,-34.2664,11.0160,29.1426,39.6595,47.2673,99.2696,8.6065,38.6488,77.0281,0.0460,-38.6693
23.4470,7.7938,29.4100,-51.0370,37.8213,-41.9465,-102.4865,-93.3515,-36.0181,74.9089,28.8204,17.8029,46.6912,69.5175,5.4306,64.6059,40.7053,-30.7832,-35.6209
8.5219,12.3681,-3.8363,-56.6048,17.3010,-63.4451,-95.6247,-47.4583,-20.5494,116.1702,23.6701,5.3416,12.0993,15.3494,-4.8174,66.6865,-12.9550,-80.4003,-0.0575
-26.2072,-6.0007,-119.0856,-61.2048,-72.3325,-72.6428,-95.1883,-21.8500,-0.1898,103.8415,-15.8845,0.3841,-48.0016,-46.7470,-19.4923,30.9911,-58.0436,-135.3624,39.0373
-74.9969,-40.6961,-191.8757,-88.1926,-143.2174,-64.8951,-76.8549,-8.7775,21.4678,117.5503,-63.5086,-18.5997,-90.9140,-73.3456,-6.6327,21.3155,-100.2541,-179.9519,68.7811
-99.3885,-78.4788,-166.5298,-121.8734,-136.6559,-27.6560,-55.3870,25.7182,33.3223,158.5952,-86.6830,-52.1709,-103.7999,-52.0185,7.2687,43.0864,-113.1953,-161.6846,105.3527
-100.7432,-100.9717,-108.8839,-130.6140,-102.5989,2.5648,-50.4332,52.7532,44.4484,167.1427,-96.5591,-84.3440,-100.8501,-35.2189,-16.1916,47.5323,-86.7645,-92.1012,128.9079
-97.5242,-91.0003,-62.3777,-127.2825,-69.9015,-18.3392,-38.4262,54.1431,62.7526,175.3246,-92.6704,-100.7994,-77.3551,-42.1612,-40.3806,53.8723,-72.1926,-59.7922,120.2016
-72.7792,-49.4924,-8.2420,-110.8887,-12.6155,-46.6045,-18.3247,50.2269,51.4564,196.3182,-53.5542,-88.6710,-36.3995,-43.1595,-33.4671,74.9143,-80.4513,-70.0936,93.5829
-17.6790,0.7312,45.6263,-46.3355,52.4816,-12.1004,-17.0710,33.9048,5.3117,147.3966,5.8634,-46.8440,-9.0650,-39.5011,-21.9724,50.7755,-59.3412,-50.2196,46.6596
31.8690,22.4881,56.1018,22.7605,79.6189,56.7981,-26.3242,7.5084,-8.2379,50.8292,43.4525,-4.5935,-6.7842,-36.0385,-10.7037,-5.4280,-10.3816,0.2549,-6.6131
41.0810,-0.7742,31.2148,11.9296,69.0824,76.4181,-35.3038,3.9606,37.1828,37.5694,41.8568,0.4797,-15.4506,-18.0101,17.0050,-3.5721,13.2601,33.5030,-17.4372
17.9489,-32.4553,30.8835,-37.2133,47.5449,40.1252,-62.5407,8.7661,89.7211,96.7444,19.4645,-26.3010,-35.7151,-13.6381,35.7894,39.3238,9.2615,42.6671,-6.4165
-1.1654,-34.6486,53.7416,-33.5069,23.7590,14.0242,-98.9795,-7.6019,109.9260,106.8490,6.2237,-39.9251,-67.0918,-39.8730,21.6161,39.2336,10.8598,27.6924,-25.6887
0.2728,-28.6893,28.6339,-13.9961,-7.1448,19.0965,-115.2680,-17.1778,87.4247,66.1312,5.5258,-22.1861,-80.9798,-34.2733,-3.6336,14.5202,18.6665,-15.1446,-29.2868
-5.8864,-41.2542,-40.7185,-48.7269,-44.3700,7.9036,-123.9812,-8.2546,26.3598,63.7563,-8.3094,-5.8869,-63.1479,14.4510,-18.6932,24.8311,13.0959,-60.8973,19.1740
-41.8676,-52.0845,-62.1273,-96.7429,-72.6557,-35.5550,-142.5176,-10.8861,-16.1958,116.6641,-36.9768,-18.7532,-48.5505,19.5662,-22.8269,54.5494,-12.8871,-97.0614,44.4347
-77.3503,-49.3712,-27.6833,-99.7445,-86.3434,-65.6156,-142.9802,-13.2007,13.3113,158.0145,-53.3826,-43.0319,-70.5296,-27.5429,-17.6783,64.9704,-44.4373,-130.4732,20.6662
-78.3689,-47.7535,-28.0799,-71.0201,-101.9145,-60.9019,-103.7041,-0.3793,67.4544,124.3290,-54.2106,-46.0866,-101.4377,-47.8908,-11.5363,46.9659,-52.6074,-135.7076,11.6288
-54.3754,-35.5176,-72.1064,-35.2583,-107.8858,-51.5722,-51.1638,-11.2748,78.5857,42.8313,-47.4801,-23.9579,-90.5198,-43.9528,-6.2740,10.7346,-36.2147,-97.4192,9.6981
-26.1134,-3.7925,-78.6637,-8.0604,-71.9687,-53.9082,-22.8461,-46.7503,70.6918,10.8240,-22.8583,-0.5522,-47.3159,-55.6033,12.7485,-6.0517,-25.1042,-59.3860,-25.7042
-4.3140,7.6807,-37.9245,-11.3456,-26.7189,-51.9688,-27.4415,-59.9611,88.9942,39.1450,7.1253,7.9631,-23.0793,-38.4504,42.2807,20.5439,-15.9399,-52.5484,-58.8480
-0.2051,-19.0836,-12.9415,-35.6774,-28.7922,-36.2228,-52.0185,-64.9564,112.7360,46.2033,9.5491,10.1259,-24.3960,26.0817,59.9173,50.0490,16.2140,-56.5458,-70.9041
-8.8263,-39.5083,-22.2300,-50.8963,-48.9038,-18.4643,-90.8885,-98.6611,100.1764,39.5194,-4.4255,12.6071,-28.1233,54.1917,58.9628,48.4695,41.7906,-59.2808,-82.3216
-9.5612,-27.8204,-40.0711,-53.3846,-42.1188,-22.5408,-142.5302,-130.3281,49.1994,77.7571,-5.3533,5.9012,-46.0192,13.3832,33.1260,39.6081,23.6800,-68.0343,-57.9482
-4.3161,-9.8868,-58.9454,-43.6332,-48.3341,-55.8049,-188.6141,-132.3735,-6.9230,96.9181,-7.4884,-6.3471,-85.4325,-27.8881,-30.8130,27.5840,3.3375,-77.6987,8.3851
-11.9843,-3.6303,-83.3564,-16.8563,-94.8724,-84.3085,-211.6005,-131.3422,-31.2635,36.1862,-27.8577,-6.1994,-108.6651,-47.7777,-99.4467,-12.4867,21.8427,-80.9724,27.6204
-35.1688,-6.9114,-109.0762,-0.9198,-133.2869,-79.9676,-209.9614,-125.9801,-17.1968,-8.4234,-50.6382,-1.8638,-103.3206,-87.3295,-107.9672,-52.7055,30.8447,-76.9997,-13.3229
-66.3370,-24.3372,-131.9405,-22.5492,-147.7583,-67.1746,-177.2088,-80.8282,1.4968,26.2042,-71.9190,-15.5535,-105.2210,-128.3301,-59.0086,-48.1175,-12.6070,-66.0637,-12.1393
-91.1991,-49.0233,-141.1652,-54.2352,-160.7538,-63.3096,-118.2747,-6.9194,-14.8853,58.1594,-94.0286,-35.1476,-115.5924,-113.9323,-20.3887,-18.8928,-62.4420,-55.6198,54.8896
-82.6549,-56.0102,-117.1515,-60.3820,-141.1010,-38.7879,-73.0013,51.1925,-70.1170,46.8428,-89.1608,-33.6462,-97.7480,-54.6794,-17.8031,-2.6127,-68.7972,-41.3201,111.0363
-39.2243,-41.9091,-67.7962,-44.3949,-71.2655,12.0003,-54.9203,77.2824,-126.6702,28.5383,-50.0950,-14.7094,-54.1849,0.0933,-17.6886,1.0419,-44.3186,-1.8443,124.3515
-1.3542,-25.3424,-35.2038,-18.5320,-18.0704,45.6459,-30.4635,71.6782,-146.0961,-8.3110,-19.4645,3.3280,-17.7259,31.2900,-10.2103,-7.9878,-14.6378,48.3683,111.2663
8.2167,-5.6656,-37.2389,12.6268,-15.0056,37.3085,-9.3432,23.7316,-135.1768,-59.8216,-15.1829,14.7953,-0.1774,24.4620,-20.0415,-34.9771,7.2635,61.5272,74.7623
9.5886,25.4974,-43.4384,35.0555,-14.0654,0.0127,-36.8790,-57.9705,-120.6147,-57.1557,-8.7432,18.3331,-3.5246,-25.4041,-39.0388,-52.3996,8.1839,35.2560,28.5673
15.8713,42.8734,-32.8724,31.0605,-5.3289,-45.5652,-93.7037,-123.7544,-94.1006,-4.2286,5.1762,14.0882,-28.1839,-57.8787,-34.3216,-30.7738,1.3610,11.7131,2.7967
18.7525,21.6536,-20.2443,0.9591,-21.2989,-77.9915,-132.6759,-133.9218,-45.0641,24.4717,6.2397,9.4388,-51.7195,-17.3463,-16.5692,13.3260,19.9914,4.7186,1.0182
17.5712,-7.4312,-15.2935,-27.2041,-45.7482,-87.8852,-153.2377,-105.7092,-10.5155,21.1018,0.2267,9.7732,-54.8294,40.6461,-20.2138,40.6374,50.7643,-5.1528,5.2673
12.6764,-8.2097,-22.9942,-25.5289,-59.9438,-85.7895,-152.9362,-75.0913,-17.3550,14.0951,-1.4844,13.5766,-57.3234,40.0611,-35.1296,34.8225,45.0750,-32.6637,12.1736
-2.1517,-2.3300,-56.6359,-12.0105,-85.1606,-77.9509,-116.8856,-48.8019,-22.2945,6.6561,-8.8988,16.0219,-77.9682,7.7187,-28.3697,16.7611,2.7155,-76.1985,26.8225
-15.4191,-12.1265,-95.0668,-22.2427,-104.1312,-70.2536,-74.1435,-26.4994,17.2180,20.6781,-16.4452,12.6305,-91.0876,-5.4918,-0.6699,20.3073,-32.0784,-110.3665,35.6654
-12.6620,-12.3342,-98.2093,-42.0662,-83.1606,-80.1929,-50.3733,-20.9816,57.7292,56.1200,-8.0653,9.1524,-68.4630,-8.0848,27.4651,43.5432,-43.2931,-107.6488,23.7096
-14.6402,3.7480,-76.7317,-42.8675,-59.1271,-99.8807,-18.7588,-30.8781,33.1452,58.0133,-5.6695,11.0320,-24.7969,-5.6799,43.0056,52.4673,-47.6157,-83.3849,9.5359
-41.7749,3.0472,-55.1870,-43.7412,-60.4890,-95.6865,24.4133,-40.4081,-26.8847,34.6266,-31.9951,1.9300,10.9302,11.4577,38.6429,43.2621,-50.1782,-64.3534,14.6650
-59.3031,-16.3089,-27.3762,-57.6988,-43.9491,-63.3470,40.7877,-45.2897,-30.9482,43.7499,-51.6262,-22.3474,25.9911,24.3910,26.6932,40.6811,-39.1463,-36.5928,20.8060
-26.3888,-28.1698,-18.3349,-55.0287,-9.8896,-24.1605,24.9097,-49.0364,24.9220,48.3495,-29.0145,-23.8784,11.6643,37.1994,33.2906,42.8978,-9.9064,2.4053,17.1192
25.2953,-32.7086,-51.3486,-34.1411,-13.6972,7.2447,-6.1973,-59.0788,47.7307,3.3213,5.0387,10.3791,-25.8534,80.7377,51.9244,37.7823,22.9521,11.0032,24.5187
35.3938,-32.0089,-54.5451,-23.6015,-37.3855,10.3906,-55.0432,-80.6834,5.5035,-25.5343,11.3219,33.2196,-45.1932,111.5020,49.9584,33.8120,42.5415,-9.0781,20.1383
10.5986,-12.0034,12.6952,-14.2904,-32.1811,-23.1305,-111.0515,-89.6570,-34.9342,-10.4295,3.6262,26.9409,-20.8964,66.1828,25.8174,27.1107,53.3416,-2.8409,-38.3282
2.6002,16.3081,54.0001,4.8504,-19.1177,-58.9749,-140.1080,-60.7429,-45.4932,-7.8165,9.4693,29.7803,11.6741,-0.0377,10.4202,12.3510,57.3949,22.3355,-94.1952
15.4655,28.9687,25.3665,1.1850,-11.7057,-70.0712,-122.5104,-24.2707,-64.2894,8.4274,24.4584,40.8944,17.5354,-7.2477,20.6743,22.0167,27.7244,7.7429,-63.2146
11.7280,25.8759,8.6148,-33.2317,14.2381,-65.2673,-69.2239,-15.6574,-84.0964,80.4319,27.0989,23.5011,15.6212,13.3093,40.7008,61.6036,-31.0923,-33.8014,8.4198
-7.7972,8.0164,20.5914,-59.7778,31.8016,-43.6867,-19.0754,-3.7011,-52.7238,119.8201,14.2566,-2.6532,28.6492,24.8502,47.4815,79.0626,-50.4587,-48.4479,22.7471
-11.0951,-25.1990,15.4966,-69.8407,8.9759,-10.9300,-4.8991,41.0102,20.9095,81.3390,7.2321,3.0538,40.4932,64.2303,52.6588,74.4330,-10.7658,-48.5770,-10.9889
-6.4848,-47.4941,17.3067,-81.0364,-18.9709,-7.9272,-5.6019,71.5795,63.2666,59.5751,12.0203,19.8717,31.8956,119.4565,87.6994,97.0607,9.4937,-64.9255,-29.1907
-20.8064,-36.0124,34.9860,-74.1637,-30.2372,-36.0431,8.2651,40.1726,36.4150,67.1841,6.1088,20.0841,15.6286,112.6220,129.0555,111.6040,-19.8304,-70.0279,-33.8821
-27.1670,-1.3924,29.0448,-26.0731,-32.1245,-41.5226,-0.0095,-25.9514,-16.9076,23.7580,-1.5819,27.4654,18.1730,42.7754,116.3600,57.2945,-23.0090,-39.7232,-69.3024
9.4098,38.7412,36.4235,34.0366,-0.8084,-20.8075,-69.2250,-78.7320,-40.0868,-32.4961,27.4616,53.5580,36.0976,-15.9027,62.3478,-9.1062,29.5234,-2.1251,-136.2053
46.1235,65.7906,84.3038,61.3915,43.1307,-22.0864,-158.0341,-113.5330,-43.3587,-23.8241,64.6947,64.4040,34.1653,-42.6541,27.0877,-19.6940,70.1486,18.0191,-179.6381
29.2000,64.5546,89.4896,50.9450,31.5958,-49.6878,-205.2655,-137.9088,-69.4308,7.1094,47.0729,45.3667,11.9462,-71.7956,2.7585,-17.0960,63.6130,24.8365,-162.5752
-5.1874,56.0514,46.3892,28.9910,2.5276,-75.0117,-194.1743,-125.2351,-100.6600,22.5994,7.9744,20.4602,14.8665,-105.0786,-37.4437,-29.0833,38.3382,23.6884,-114.3227
-8.6234,58.7061,45.4620,12.3031,24.2000,-90.1853,-135.0413,-59.5623,-89.1515,56.6127,8.6612,2.2121,33.5411,-112.6061,-49.0193,-10.5786,3.6914,19.6703,-65.9180
-13.4940,41.6516,47.6969,-5.6447,25.7627,-91.9031,-61.2117,6.7598,-44.4553,87.9121,7.2738,-16.3521,6.9004,-95.7663,-6.5409,26.2557,-42.2239,17.1765,-10.2271
-42.7930,1.9206,-13.5926,-27.5504,-33.4169,-82.3260,-16.8789,23.6327,-2.0241,77.9903,-30.9580,-31.8890,-37.3611,-87.1947,26.5116,27.8661,-68.1349,13.0981,30.5483
-49.0203,-7.3969,-38.9380,-41.0769,-37.7488,-80.1577,-4.3630,26.1778,27.9096,74.5632,-40.8698,-36.4307,-14.1812,-88.5942,11.3258,20.4723,-56.3167,13.7616,21.8585
-24.0376,8.6241,18.8119,-49.1364,32.3327,-76.2860,7.4173,54.5576,34.4337,105.1971,-7.8533,-36.1105,46.3538,-64.1773,-6.6972,44.0174,-37.6950,21.4943,6.1759
-21.0064,-8.9324,29.2632,-63.6303,41.7648,-39.0399,25.3564,75.4924,19.4821,109.9562,-5.6487,-36.3685,49.3088,-12.5180,2.1539,58.8636,-36.4540,9.1279,32.1039
-31.9828,-40.6587,-36.1016,-61.5599,-13.2047,16.1497,38.9399,65.6877,15.8418,60.1899,-29.4884,-28.8985,8.3148,20.6927,2.3172,29.7907,-34.6736,-26.5120,61.3731
-7.0697,-26.0327,-55.9785,-17.3982,-14.0238,43.8754,43.9821,49.9339,17.9792,-2.6376,-15.8143,-13.6626,-7.6564,14.6488,-36.1136,-14.9126,-14.0156,-33.1987,61.0473
25.5200,10.1165,-21.7093,33.1382,22.9407,38.9541,21.2051,19.6505,-4.6897,-38.6047,8.9387,-7.8902,-10.2492,-16.7185,-81.6376,-47.5991,11.4157,6.8034,51.0712
12.0110,12.3972,-18.3950,39.2252,7.3230,17.2432,-45.5022,-44.2876,-6.4528,-26.1606,-6.4492,-18.4754,-39.6367,-69.9020,-82.1226,-61.1847,20.2677,38.8516,20.6163
-27.4345,-5.4947,-34.7845,4.8947,-37.3686,-31.0962,-120.1881,-100.0107,54.2157,37.2136,-35.0343,-36.9309,-72.9875,-128.2376,-49.4139,-41.8783,11.2514,26.7886,-34.3156
-58.5488,-9.8637,-19.9997,-44.6537,-47.4445,-107.4161,-143.7525,-107.5736,95.9866,124.7310,-49.2916,-61.8769,-65.7173,-145.5894,-44.1325,11.0614,-12.1612,-12.6493,-46.5251
-80.4066,-7.1086,3.9952,-94.2383,-25.7571,-160.1374,-100.6019,-70.7856,60.1367,199.8636,-58.9334,-87.7542,-24.5645,-116.2367,-61.2783,66.9206,-52.7467,-49.6165,12.0979
-73.8605,-10.9529,-1.7338,-107.4720,2.0710,-131.0507,-23.7531,6.4768,14.8399,211.0290,-53.0313,-89.6599,-0.6540,-83.3500,-43.4899,83.2004,-89.8879,-39.0590,83.2354
-25.8638,-11.4116,-22.3562,-53.2952,22.8021,-41.6109,43.6232,86.3257,-16.9353,112.3841,-27.2477,-60.1147,-13.5012,-60.2506,-14.9090,37.9386,-82.5656,44.6723,130.6532
18.4089,6.1101,-17.1553,30.5283,31.6221,23.6345,78.3252,99.2254,-88.9272,-38.6458,-11.8490,-27.9086,-19.9813,-35.4404,-41.3725,-37.1648,-35.6413,133.1668,151.6164
23.5261,30.0289,10.0330,76.2034,34.9927,36.0332,89.6414,67.3070,-149.9232,-114.2947,-11.3099,-14.0959,0.8543,-23.0418,-86.9592,-79.6998,-6.9155,134.4944,133.9112
11.2626,29.3777,13.8650,70.4854,30.2255,45.8226,95.6517,66.9636,-113.0195,-96.7437,-8.0474,-12.0852,8.8332,-24.7990,-87.1988,-76.5919,-14.1954,66.1179,96.3638
1.2275,5.3353,-0.1766,49.8176,10.4199,70.5023,80.1244,70.2803,-44.1487,-76.9087,-9.5275,-11.4570,-2.3364,-10.8138,-77.4590,-67.7156,-6.6071,6.5510,62.1241
-1.3567,-4.1362,13.6413,41.6120,-2.7922,72.9608,21.2646,19.1612,-20.2886,-80.6035,-9.4258,-3.1423,2.3415,14.9435,-90.8038,-65.7306,36.5738,-26.2920,5.8475
15.2765,5.0304,24.7990,38.6200,3.8208,51.6316,-39.1214,-43.8577,25.2706,-57.3385,13.9289,12.0653,-1.5945,18.2146,-74.8074,-47.2695,61.2012,-55.8428,-56.4744
28.5822,-1.9753,-19.6730,18.5167,-0.1417,32.9141,-44.4669,-79.5516,112.8738,-0.4436,28.1061,8.4755,-49.1185,2.4493,-23.5406,-14.1362,32.3205,-81.5891,-51.4714
2.9346,-21.8728,-67.7900,-15.1446,-26.6549,7.5382,-26.3006,-109.0262,131.8622,49.1938,-3.2526,-23.6843,-90.3385,-13.3760,-14.6236,5.5352,-9.7739,-91.6280,8.6789
-31.9484,-21.6891,-62.4288,-31.8433,-44.4726,-31.3847,-46.4649,-109.0163,65.0564,71.7605,-38.2207,-49.5868,-86.3707,-40.1024,-59.4122,3.3744,-25.4478,-82.4390,46.5140
-37.1252,-9.7919,-44.0578,-25.0569,-45.7765,-57.7666,-77.0630,-56.0346,20.6216,71.1033,-41.4212,-51.1092,-76.0352,-76.7070,-87.0933,-5.8068,-26.5505,-50.9488,54.7596
-43.9072,-12.9031,-40.0435,-15.6766,-56.2996,-63.9705,-62.5515,-17.8933,26.0563,45.6603,-51.4662,-53.4051,-73.3311,-97.1196,-78.6234,-17.6928,-24.0762,-3.8587,51.0703
-67.2701,-20.6760,-30.3046,-0.9908,-74.0930,-56.5400,-25.4482,-30.3579,35.8909,-3.3858,-78.8503,-62.3222,-60.5882,-105.8030,-76.0553,-44.6645,-9.1466,35.1942,23.8305
-56.6446,-14.7779,-27.2227,29.1229,-61.5712,-24.4424,2.3271,-24.5196,58.9112,-41.6712,-72.3285,-60.6682,-60.8471,-121.5799,-88.6917,-76.4232,1.6995,51.9667,10.6627
-11.6520,-6.1664,-31.0573,42.3357,-8.3571,14.7460,38.8635,26.4695,92.5268,-23.2428,-31.5294,-58.9512,-75.7595,-121.2519,-86.2080,-70.9288,-16.2654,59.0235,56.6973
1.5434,-10.6728,-10.9435,12.0291,36.4626,20.6825,78.1579,63.3104,88.4091,35.8423,-13.7921,-68.4651,-61.2537,-84.5829,-54.5427,-22.5034,-45.0462,62.7910,104.4916
-24.4807,-26.8078,3.0359,-25.3267,27.5051,15.0401,85.8113,62.0283,73.1288,67.3964,-27.8334,-69.1377,-32.1735,-47.9436,-14.4990,11.5574,-53.7890,41.1213,86.8157
-39.0218,-45.5082,-22.0712,-32.0641,-6.4250,45.3125,65.2518,47.2655,98.6765,50.2000,-37.6688,-54.9709,-32.2166,-37.6479,2.0871,-1.4538,-37.6218,2.0901,37.7617
-28.9879,-55.3595,-21.4020,-23.5479,-5.2139,87.1359,32.4751,23.0333,98.8229,19.1301,-34.3410,-43.2392,-26.5737,-18.7283,-8.3522,-23.1724,3.0089,12.3538,6.9326
-10.5374,-45.1206,46.4994,-15.5213,36.6599,96.3764,-8.1503,-13.0104,15.2338,-5.1232,-23.0893,-32.1267,18.9135,27.7953,-18.2360,-20.7694,55.5701,81.3199,-12.9523
9.9505,-17.5861,107.5132,2.7217,75.1600,85.9200,-31.9583,-42.4802,-53.5063,-17.6397,0.5117,-14.5197,52.9398,54.7900,-18.6937,-12.8484,79.1819,105.3314,-36.5359
18.9207,7.6360,91.0246,23.1847,68.7922,66.3628,-34.5870,-57.5272,-25.6465,-13.4213,20.3093,-1.2608,37.0255,26.7118,-30.2644,-19.6656,60.3633,32.7765,-57.8101
7.4499,16.1883,9.9891,20.7315,11.9565,15.5410,-55.1719,-76.0392,17.9619,-3.4179,12.0778,5.2503,1.2339,-22.3896,-47.6011,-28.9982,31.9272,-46.5053,-59.3675
-7.9578,15.8646,-66.1208,-1.3736,-43.7607,-49.3835,-83.3632,-102.5950,1.1126,13.1412,-9.1419,8.9468,-24.8834,-46.3803,-37.6044,-18.4856,3.9634,-64.7748,-29.2739
-20.7567,17.8931,-68.8897,-17.4357,-49.7550,-79.9944,-70.3363,-105.0282,-35.9644,45.6582,-18.8382,0.9701,-35.3663,-48.8733,-6.2112,7.5818,-33.4274,-58.0425,6.1798
-40.5652,16.0980,-32.4205,-14.8659,-48.1900,-78.5350,-42.5746,-69.6512,-51.8337,50.8073,-30.0807,-11.9292,-34.4839,-58.3375,5.3632,11.5137,-52.8114,-46.2934,11.3250
-53.5171,4.8841,-56.6028,-2.5591,-89.3513,-80.8091,-42.1602,-43.6000,-41.1922,-3.0464,-51.6563,-8.4165,-40.1741,-74.3258,-4.7262,-18.4520,-35.3912,-17.5946,0.6668
-40.8015,-6.2171,-120.3398,-2.4491,-118.4069,-87.2821,-30.0718,-56.7327,13.7036,-41.2285,-54.8756,3.0167,-50.1339,-65.5173,1.6776,-29.9456,-17.4642,-6.8322,0.7648
-16.5179,-12.7946,-125.6444,-26.9219,-81.1212,-74.2716,15.7923,-64.4924,83.8589,-4.4615,-28.3571,4.7887,-32.8150,-16.6724,34.1064,9.5894,-20.9115,-35.3694,2.9578
-1.4762,-21.9166,-89.4698,-58.2731,-25.6582,-33.5538,45.9131,-38.9139,88.4303,44.4994,-2.7022,7.3981,10.4150,45.1366,65.9737,52.1476,-23.2122,-54.8270,3.9825
1.1513,-36.3470,-66.6554,-74.2864,3.3181,27.7944,46.4632,-12.7478,34.3800,55.3681,3.0233,14.6898,42.2499,86.8727,87.7743,59.4042,-16.6206,-40.7499,8.2033
-7.1264,-54.4595,-35.9699,-80.7788,18.7283,84.7798,48.8237,6.4591,16.6912,61.6038,0.0009,12.1885,50.9894,104.6447,114.0893,59.1827,-12.3874,-24.0318,-4.3655
-18.7985,-68.8032,-13.0999,-88.7110,16.5771,94.2073,47.3371,31.4393,48.2942,74.0421,-5.6996,3.8496,46.5334,98.0163,136.9720,67.5337,-11.3498,-9.1100,-25.1288
-23.4348,-61.1172,-29.7260,-86.7715,-1.2703,41.9779,28.6638,33.9487,50.3576,75.8234,-17.0861,-5.6808,31.0268,56.3396,121.2696,64.3651,-17.4135,24.7845,-8.0789
-26.9029,-31.4742,-10.5615,-64.5257,4.1715,-25.3881,14.0237,13.6237,1.9224,75.1728,-29.0675,-29.3264,15.0524,1.5159,62.8865,51.0201,-27.9625,71.1690,35.3847
-32.5714,-10.6446,61.5487,-34.1424,23.7103,-52.4750,14.4297,18.4355,-47.3799,56.6772,-36.1574,-50.9083,11.6238,-19.2745,12.2635,37.9314,-21.4499,115.1354,54.8751
-21.9827,-11.3589,52.2710,-12.8166,13.2109,-34.2576,24.1992,35.6448,-69.6965,2.6900,-35.6724,-36.1941,9.9892,-7.3518,15.3429,16.0078,-6.1310,147.8879,60.4951
7.3451,-13.2364,-52.6189,-5.3605,-5.2675,-1.8722,47.4483,23.6971,-58.7608,-33.5516,-21.3633,-0.6717,-0.4513,-3.5572,62.9954,-4.1011,-16.8480,150.3599,73.9767
30.2773,-4.7070,-94.9994,-4.7486,9.7587,15.7723,76.0278,14.0057,-13.6794,-17.6697,6.3516,20.3236,0.7546,-8.6118,115.5862,4.2086,-39.6402,122.6784,56.6492
39.1718,15.8658,-34.9221,1.0778,43.3263,-0.0212,82.8713,20.7061,15.4734,0.7725,35.1063,32.4269,35.8386,-1.7287,140.5359,28.4593,-34.7730,99.3884,-6.3034
40.1521,49.3167,22.8514,12.7262,64.4886,-43.7383,53.2296,-12.2753,-27.9811,4.2918,49.7514,44.8164,77.1262,-1.7571,126.9078,38.0970,-19.7968,85.2047,-57.0129
18.9777,61.3048,27.9545,10.1281,43.7861,-68.6856,2.3400,-68.8412,-88.0895,26.0979,37.8819,44.3189,64.9899,-14.1465,106.2702,37.9494,-31.7312,32.2657,-64.5302
-27.8173,12.3276,-5.0512,-24.3866,-35.4876,-36.1124,-33.1003,-71.6956,-63.4426,49.1377,2.2637,38.0161,4.2698,11.8527,129.8046,48.9539,-49.6577,-68.0573,-68.8966
-65.1987,-56.9221,-37.1714,-72.2440,-107.2708,22.6255,-39.0574,-46.0825,3.8784,44.6918,-29.0404,43.4170,-17.3136,85.1287,182.4437,67.8316,-33.6399,-136.2490,-101.7661
-64.8805,-71.9256,-12.9615,-84.6872,-91.4839,60.0588,-46.0654,-50.2979,-13.8821,26.1901,-30.8550,51.2198,28.9906,133.0980,183.2837,66.7607,7.8000,-114.8439,-132.6534
-33.8240,-46.5857,25.0126,-44.4932,-39.5040,97.7206,-61.8734,-32.1792,-104.9481,-13.9082,-12.0568,54.8087,51.3999,127.6548,112.3738,25.4776,35.7758,-60.3374,-100.2665
7.1854,-46.1094,-28.1895,-6.8939,-35.6832,158.8813,-43.1848,55.5664,-154.6884,-68.5912,3.7661,62.0860,4.1216,126.3430,50.1811,-21.8338,26.2133,-41.7966,14.5407
29.1258,-65.2809,-115.8902,-28.4893,-41.9339,178.5138,16.4281,143.6016,-166.0524,-58.7074,5.6214,58.1421,-26.3526,148.6097,51.5782,-10.8710,-19.5022,-32.7798,148.3105
9.4017,-54.5268,-93.3116,-70.6037,-6.6768,115.7133,75.2157,171.2792,-223.6244,15.8383,-7.6691,29.0545,16.9483,146.5062,73.5231,42.3862,-74.4828,7.1221,214.0933
-28.3781,-20.8350,3.2430,-56.1490,26.8305,60.1173,128.7988,169.3545,-287.3446,23.4419,-28.3916,1.6783,74.7997,107.6092,64.6696,45.7736,-95.5712,56.7122,191.6174
-40.9012,-7.7986,32.3250,-1.1463,23.5478,76.9530,183.0178,164.5571,-247.5366,-61.9916,-42.1173,-2.9025,91.6488,63.9804,42.7924,-14.1888,-69.7367,98.0622,129.8018
-30.8320,-14.8986,-20.5310,21.4943,5.5941,90.7649,204.1432,138.6036,-134.6339,-108.7466,-44.7786,-1.5340,74.4812,24.4922,43.8840,-53.1719,-45.6343,121.8767,87.8487
-26.8319,-12.4569,-77.9841,12.1924,-15.3679,56.7397,193.6660,100.7809,-69.4536,-76.3137,-41.5430,-3.7203,36.4250,-8.8399,57.0997,-43.0838,-69.3685,84.8159,90.9492
-29.0877,-3.8304,-91.7983,15.1754,-32.2310,45.6926,189.8512,93.0203,-61.8838,-46.7309,-32.6409,-2.8800,-7.8245,-15.5720,53.7477,-31.2247,-107.6241,-3.3205,111.3218
-25.8433,-7.5379,-55.9725,20.6207,-25.6036,69.1717,167.9029,107.9737,-33.8425,-32.3512,-18.7578,-5.0220,-27.9125,-4.1661,34.3059,-26.4825,-100.8891,-57.3419,95.6980
-19.7155,-10.3726,-12.4439,11.1978,-9.9195,60.9466,89.2494,89.1421,18.4368,-4.5571,-5.4336,-7.7011,-17.9452,-9.9949,6.4867,-17.1996,-54.5299,-67.4141,31.2171
-13.6442,1.3068,-6.0368,17.8811,-11.6981,45.9449,8.4612,37.6164,37.0171,-7.1064,3.6368,4.1162,-3.8307,-31.7439,-30.6991,-33.5273,-10.5529,-87.2985,-38.0691
-11.8591,3.2971,-4.2765,42.2853,-14.2427,82.9687,-9.8806,24.6860,14.5805,-48.4230,1.3577,12.1496,-1.0695,-40.0931,-57.2610,-72.2059,13.9601,-80.9777,-59.8801
-19.7481,-16.6102,36.3556,37.7644,5.3391,118.9373,0.0279,64.7113,-29.9241,-52.3903,-15.2734,-9.9001,0.0971,-27.3272,-61.5645,-75.3230,21.5991,-3.6044,-19.2204
-19.7991,-20.8991,83.0073,14.3406,39.4572,99.7476,-13.3477,94.5880,-105.9770,-20.4568,-24.2160,-34.3383,19.2797,-6.2474,-87.3819,-49.4591,25.5280,69.7089,46.8218
0.1638,13.2207,101.3117,27.3177,75.0241,70.5136,-20.3953,97.1723,-189.8908,-28.1459,-9.5505,-30.3734,58.4128,-1.2644,-154.9201,-56.5995,33.8184,77.9613,84.3236
7.5683,49.3012,108.5975,61.8506,98.1360,60.7830,23.3603,110.4904,-213.8727,-53.9685,1.9931,-27.1075,85.6298,-33.2925,-198.4481,-85.4744,20.6573,62.6468,87.0306
-12.5116,53.4746,107.6387,69.1620,92.9381,53.9224,76.1346,130.8992,-176.2486,-41.3699,-7.7944,-42.5851,74.1619,-76.6403,-180.6476,-89.5606,-18.5271,50.3883,84.2978
-12.2627,47.1097,75.6899,72.3737,64.7364,53.1933,59.8141,118.2562,-146.9562,-46.2983,-8.4478,-33.3001,41.4686,-90.9224,-150.9758,-92.5132,-25.2442,40.5148,71.2108
27.2143,67.3608,20.9119,109.4245,33.4293,33.2046,-8.7807,50.8338,-143.9656,-113.9152,15.6660,15.9905,18.9625,-98.9996,-132.6337,-120.7370,14.9907,57.2332,22.6256
49.1294,106.2948,-11.6730,145.0502,12.4654,-38.8976,-43.3688,-61.5475,-128.8011,-163.1071,29.6555,48.9550,18.0776,-129.3870,-111.1022,-136.7788,39.7741,76.9130,-44.7590
21.2627,113.9997,11.2926,135.1245,6.7540,-84.4592,-34.3698,-152.5742,-104.8855,-144.6751,10.4877,31.8451,33.6431,-131.4347,-114.7360,-123.8013,42.2486,47.6020,-87.7951
-15.9031,66.1344,48.3739,96.2132,-1.4692,-26.1136,-36.3505,-144.0065,-98.4412,-122.4574,-21.8205,1.6711,38.5611,-71.5285,-145.4715,-113.4559,63.4535,6.2054,-81.2840
-22.6133,4.9616,15.4494,62.7969,-36.3218,51.1619,-51.6692,-70.9057,-89.1720,-130.9868,-40.8532,-1.8645,6.0575,-12.4330,-138.7748,-111.1487,79.6438,6.5881,-32.7532
-0.6000,-17.2651,-57.1334,49.6241,-65.2965,58.8252,-53.1551,-31.8227,-52.7744,-138.4625,-34.1487,13.4309,-33.2868,1.3859,-96.4291,-100.6513,71.0577,26.3024,9.0299
22.4729,-7.2075,-46.6784,53.2536,-37.1173,41.8414,-37.1910,-22.9853,-13.9358,-128.8136,-13.1634,14.8487,-27.2149,-2.3667,-78.9701,-85.0529,72.6560,57.0942,6.6066
11.6776,-2.2616,12.6850,41.8120,7.7330,23.7589,12.9285,6.6227,4.7877,-89.7832,-14.7957,-12.1868,6.3857,-17.5121,-62.0716,-59.8175,56.3992,105.8010,5.2558
-28.5752,-11.9895,-36.2479,-9.8707,-7.5817,-36.6748,96.4153,28.2423,35.4986,-14.4058,-47.1891,-44.0072,14.6462,-52.3260,-5.2662,-15.7521,-22.8330,109.0974,53.4646
-44.9965,-24.5893,-163.5505,-62.0287,-57.0102,-100.5764,146.9612,18.0993,108.4288,38.1888,-66.3320,-49.6180,0.8238,-69.3696,34.7104,18.5060,-83.1198,53.5096,98.1364
-19.8325,-31.7209,-204.6749,-60.4603,-66.0624,-95.0576,129.1310,19.1799,174.9264,13.7435,-51.9413,-34.5339,-1.8961,-59.8870,20.6315,8.6205,-49.7128,47.5574,80.4507
-0.0423,-30.1535,-169.8029,-28.2516,-44.1103,-48.4098,86.1451,35.5811,167.4669,-32.5101,-39.0476,-23.3243,8.7363,-74.9359,0.9380,-29.9818,0.6784,111.0301,38.5026
-13.0929,-28.0456,-172.2444,-29.7770,-38.9486,-25.4551,52.4593,31.0188,126.0589,-13.5223,-46.0235,-23.7550,17.7998,-114.7249,3.3552,-47.7163,-7.6705,121.5935,20.9227
-38.2116,-39.4891,-186.8130,-73.5752,-40.4797,-31.2664,48.5172,21.3495,147.3778,72.7486,-53.5502,-39.4378,14.1668,-125.1689,27.7964,-12.4668,-49.9974,55.3427,22.8073
-58.2013,-60.2812,-145.1484,-111.5860,-24.8332,-34.0537,83.8115,28.6428,208.6380,155.4749,-55.9241,-69.1508,-6.8186,-104.4020,78.3971,46.4872,-88.9330,18.7923,32.1443
-63.1566,-70.8750,-83.2723,-106.6598,-7.6736,-4.1838,84.8030,28.2738,202.2121,165.8849,-55.3469,-81.0860,-27.4468,-85.7752,104.4653,59.3920,-88.8429,37.9360,28.7158
-39.5647,-60.7419,-43.2454,-68.3411,3.3857,47.0455,-0.0550,20.4244,130.4640,112.3095,-35.7039,-53.7668,-25.0630,-72.0008,60.4510,18.8262,-32.6854,47.9147,-6.6129
-3.9129,-37.1474,-10.7630,-33.6332,25.8844,68.2890,-69.5337,36.7272,83.8659,75.2638,-0.5474,-23.5256,-10.8925,-64.6013,8.7398,-7.4896,12.3998,39.3951,-34.5939
9.4958,-18.3069,20.4488,-18.5411,51.6550,54.6971,-57.0736,63.0101,80.5635,83.4014,17.6499,-24.8482,-10.3160,-76.3852,1.4424,-0.9203,1.3005,44.1129,-24.8852
4.4952,-11.3023,39.8716,-3.8557,51.8757,44.4612,-50.2120,54.2048,87.7350,79.0631,14.2923,-34.4632,-25.7244,-95.1193,-6.1352,-6.9351,-4.2262,49.0081,-26.4525
8.2709,0.1195,32.6857,19.5315,31.4985,24.4442,-63.4567,5.8009,102.9143,43.4255,14.2396,-26.1629,-42.1417,-100.9901,-21.7091,-24.1473,12.3956,33.4624,-50.9853
18.3696,19.6815,-5.6896,28.4601,21.6083,-19.9529,-13.6791,-35.4968,114.0012,23.7088,19.2832,-14.3206,-39.9873,-93.9322,1.0576,-16.6116,-6.1212,22.8889,-40.6302
15.5628,24.3683,-19.1111,10.9084,32.7154,-40.1356,40.8322,-28.8171,97.8383,41.7595,18.3147,-13.4833,-13.4101,-80.3672,42.6161,8.4926,-36.0714,36.5379,-18.5389
8.4492,21.0232,39.0525,-7.7729,54.2510,-35.7525,-1.4224,-12.0843,79.5063,82.1829,26.8333,-11.4090,11.7154,-70.5629,66.5918,35.2648,-26.8220,40.5718,-58.9399
18.5002,41.6092,83.3836,-4.3174,64.7660,-67.6302,-64.2314,-66.6722,83.5547,107.8633,52.6042,7.9935,15.6965,-65.1013,89.9578,60.6658,-11.7175,4.7207,-127.6476
29.0221,60.0599,23.2814,3.8711,27.6983,-111.1479,-67.2354,-175.3546,83.0514,71.9544,57.3635,39.8658,12.7221,-34.7143,106.1777,61.1235,-4.3472,-53.1191,-153.4680
3.6467,25.6629,-65.1867,-15.5173,-62.4307,-103.4624,-79.0966,-226.2235,71.2147,9.8776,17.0582,57.2405,-0.7369,26.0254,92.9303,41.6084,21.5809,-114.0397,-148.8354
-39.2775,-30.4887,-85.2314,-56.1036,-138.3631,-77.7792,-129.2686,-185.2077,76.6837,17.1259,-23.7840,46.8400,-42.3137,64.5324,83.5195,50.1400,29.8009,-171.4131,-134.1605
-45.7502,-45.9550,-76.1138,-79.7095,-135.1557,-66.9730,-140.0258,-118.0974,85.0282,70.8150,-21.2116,34.4318,-63.6365,58.3390,94.2556,75.3227,1.3024,-189.0662,-102.2639
-23.2519,-33.8426,-75.2628,-78.0508,-73.6906,-27.1141,-87.8441,-56.9767,52.8398,72.3777,-2.1040,36.2670,-3.0975,56.5538,77.8564,63.3732,-3.1268,-146.5910,-73.6437
-18.2250,-32.0327,-32.9273,-75.6666,-7.7912,38.5926,-30.0989,8.7323,-19.2155,43.7181,-2.2594,27.3659,89.5933,87.1396,16.0688,34.6892,24.6037,-95.4152,-49.7359
-16.9269,-29.9371,47.1547,-73.0549,45.1043,71.0752,-10.1675,69.1473,-89.1751,49.0503,-0.0094,4.5809,122.5876,118.9413,-49.8263,34.3429,35.4893,-74.6929,-0.4451
15.1467,-17.2037,75.7191,-54.9587,72.8218,71.3437,-18.8586,115.5437,-114.9871,48.0077,26.7764,7.6327,101.7666,128.8959,-68.4412,42.1595,33.7622,-54.2736,47.1225
52.5838,-8.3982,27.9622,-30.3192,60.4211,67.0479,-9.7882,141.1419,-89.1260,1.3512,52.3137,41.7393,83.1859,125.6068,-23.3603,33.9899,36.1802,-18.7080,47.3918
67.1619,2.0818,-10.3341,2.5203,32.9719,51.2477,12.6706,114.9785,-58.7433,-67.5176,55.6709,65.7121,72.3913,114.4956,8.3819,9.5802,48.6704,13.7348,18.8602
75.9720,25.0717,26.0213,64.3432,19.4994,33.4079,-36.5773,43.0616,-71.1173,-152.8853,50.2115,66.2352,48.2416,88.7587,-66.4586,-46.7658,107.2538,47.6653,-17.8831
87.4266,43.0833,83.0169,122.3522,7.5616,26.0048,-157.7649,-6.8478,-93.4490,-214.6605,51.1666,64.4473,7.1754,49.7738,-172.7667,-104.6088,180.4559,69.2153,-59.2259
95.0492,44.5015,78.0750,116.0766,-4.9622,-1.4537,-226.6042,-5.8315,-57.6263,-169.4832,64.6340,63.7502,-40.4319,18.5547,-173.8153,-87.2327,171.4278,37.8235,-63.0906
107.2070,42.2028,46.8576,74.5563,8.0774,-45.1859,-211.6591,4.5395,21.1953,-70.6820,85.5048,51.4883,-71.3141,13.3024,-130.8956,-23.1774,118.1610,-10.5578,-24.0788
119.4613,46.3712,81.2476,80.4399,42.1799,-41.6113,-191.6223,-0.4680,48.9718,-65.7717,94.5689,34.2099,-66.0393,25.9257,-168.9151,-20.2010,132.4372,-6.3986,-10.9854
118.3523,60.5571,157.3064,127.8813,73.9043,15.4060,-160.4144,-4.2065,-16.5998,-136.9428,93.9815,34.3106,-32.4110,49.2665,-219.0538,-65.8560,166.8635,10.6064,-31.7461
109.2185,77.0422,184.6796,137.5733,100.8808,58.4832,-78.5944,6.2290,-101.5910,-144.3914,101.9388,50.0529,10.4347,87.7937,-178.3455,-61.9329,126.7319,-30.1757,-27.4623
79.0384,64.4887,156.4752,86.6376,101.3909,63.0930,-7.4637,27.0065,-122.9514,-77.6997,89.2641,44.7027,41.3049,113.8238,-114.1800,-17.5758,61.0066,-85.1804,0.5120
15.7250,19.8702,107.4654,33.5678,51.2679,63.8682,16.7938,39.7894,-104.7574,-42.7053,26.3767,7.6025,42.1161,93.2933,-107.8000,-15.6284,34.0931,-86.5476,22.4821
-24.5329,1.9713,50.7012,27.9454,7.8989,64.8888,52.1344,27.6724,-108.2457,-67.8011,-24.6371,-15.3954,37.0805,52.0822,-122.8347,-52.2778,19.4164,-58.1634,43.8238
-7.0707,35.7101,26.7750,40.3703,34.1176,28.1338,98.4703,9.5507,-115.9524,-66.5516,-8.5152,-7.2057,64.6877,26.1640,-112.7542,-51.9698,-4.9188,-43.1743,52.9536
1.8290,55.7748,54.8327,8.4942,74.1474,-43.7750,99.0906,13.4486,-84.0970,17.5167,15.0115,-13.0711,94.5308,13.7644,-75.6513,9.8538,-30.7425,-40.0587,42.0952
-21.1921,22.7284,63.7564,-53.5997,54.6784,-88.6216,69.1298,18.8470,-28.4308,99.7601,0.0605,-33.8421,76.0894,33.6075,-23.0112,78.0084,-44.5289,-44.2547,43.8251
-6.4693,-6.9833,20.6797,-66.5825,10.7729,-81.1680,38.9067,-6.5915,14.6463,72.9119,0.8136,-14.7475,35.1996,92.1381,10.0773,92.8324,-16.4011,-56.3216,44.7871
37.7231,7.9862,2.1132,-18.9336,-7.2725,-69.7312,-15.8373,-40.6472,25.0375,-10.9568,31.3487,29.3419,13.1663,111.2023,-5.7104,58.1694,39.2248,-60.0988,3.0990
31.1923,24.1140,38.1407,14.4175,-14.6035,-71.2331,-84.4649,-45.6406,-10.2045,-33.6126,29.2527,32.0242,1.5138,58.6413,-44.1073,21.4918,60.2833,-44.9861,-37.2682
-11.1552,1.6485,60.5276,-9.5316,-17.7277,-45.4967,-101.5491,-25.4730,-53.4327,3.2470,-7.3646,0.1039,5.2090,30.6648,-57.6090,14.6332,46.9652,-21.6613,-23.5328
-28.3721,-34.9040,36.3130,-62.5193,-1.1460,-7.4503,-44.7312,2.9126,-33.0669,46.1399,-27.0998,-21.3656,39.6246,64.1874,-27.8849,39.5724,32.2750,-2.5674,9.5054
-28.0983,-47.6082,6.7863,-96.5583,20.5879,-8.5840,39.2615,30.6481,26.8475,81.1440,-26.7511,-32.6820,70.1281,80.3831,15.5675,71.0313,4.9214,8.5104,31.6897
-19.9349,-28.9227,20.4186,-77.0107,40.2224,-17.1471,82.7341,36.8368,25.0744,68.7971,-17.6580,-34.3822,78.5129,72.1704,9.5625,66.0341,-7.4479,14.2866,41.6307
8.5432,-1.3033,79.1465,-21.6762,67.1730,14.4033,53.0594,17.1384,-40.7870,-5.3388,6.2771,-11.4354,95.4073,95.7977,-46.4099,25.2567,44.4035,23.5191,13.6398
25.4346,0.7170,112.7695,3.9912,65.5509,40.0633,-3.3290,9.1757,-70.6181,-56.0795,19.2704,12.5486,98.1776,120.0092,-57.9183,4.8113,95.0639,42.1914,-27.9658
12.3313,-22.4745,63.5187,-8.3570,8.1569,18.4251,-25.0563,22.0203,-30.9909,-51.9041,1.6139,14.4042,41.2139,95.3303,0.5708,14.9647,74.7612,61.7701,-21.7239
11.8632,-25.0278,-5.4005,-0.5139,-42.1410,-14.0912,-37.6814,5.0150,4.2603,-62.1684,-8.2955,18.5487,-18.9889,52.8283,26.6239,6.2455,51.3609,66.3943,-4.3723
33.7256,7.9530,-8.8692,24.4845,-27.2291,-37.7897,-80.3750,-44.3444,-18.9713,-73.6266,11.5443,33.7188,-10.3582,26.7232,-10.3831,-13.1175,68.1290,57.6950,-26.7598
44.1182,31.9875,28.6637,17.7662,14.7558,-59.3231,-106.5112,-50.4474,-59.9340,-31.0652,32.3856,37.1661,24.0414,20.5790,-16.9999,7.1331,64.2561,55.7077,-37.3581
47.8790,28.0470,61.8789,9.8147,33.0194,-46.2894,-89.4795,-3.7449,-66.7616,-8.3628,45.3340,39.5309,26.6508,40.9523,21.0079,33.8842,47.4633,58.8114,-29.6879
56.4347,27.6815,91.9021,43.9549,28.5284,5.9078,-90.5552,10.4434,-73.0825,-66.4733,57.3555,60.3440,23.1937,68.0451,15.4091,6.5116,74.9230,35.8212,-66.4677
45.0102,33.9506,87.9845,61.7516,12.2357,35.0126,-114.0401,-22.1590,-120.5990,-104.5172,48.4998,71.5272,37.2409,74.1251,-35.4838,-32.3419,95.9969,-16.7835,-92.1164
11.0937,16.8958,26.1015,10.7926,-4.4707,22.5860,-74.3497,-18.4066,-139.3867,-44.2426,16.2088,46.1137,46.1598,70.6026,-41.9071,-13.2234,44.1986,-59.3334,-27.0653
-26.5242,-20.7911,-39.9461,-60.5546,-15.7727,7.2756,25.4492,31.2143,-55.2695,51.6031,-15.7843,3.2300,38.3270,56.6174,17.3326,38.3579,-36.5734,-75.8649,41.6277
-76.5714,-57.2946,-83.3885,-112.3993,-54.5547,-17.6133,76.8049,39.9561,62.3322,121.2151,-53.9460,-32.3807,16.3786,18.5861,80.9284,71.9665,-87.8152,-97.9992,32.7588
-129.3177,-88.6758,-132.7248,-157.8419,-129.8059,-72.1213,49.8396,-7.7004,125.8155,166.2015,-101.1048,-54.8772,-23.4335,-7.0781,111.2481,95.7765,-110.3355,-138.4891,15.0379
-138.1855,-104.6363,-156.9943,-172.9428,-171.7441,-106.4441,15.8798,-27.4434,160.8176,180.7905,-114.3568,-62.3574,-72.9595,-6.6442,118.3758,113.1004,-114.0195,-155.5308,29.1196
-105.1855,-90.9667,-114.2902,-122.7701,-146.2585,-77.5536,6.5062,10.1790,180.2232,147.7718,-85.0696,-57.3326,-112.7207,-31.7624,111.9397,90.3344,-102.4953,-115.0328,27.9641
-82.5424,-62.2826,-50.3813,-49.0631,-116.7948,-34.8541,-12.2496,29.6167,128.8383,80.2789,-64.7378,-45.4916,-127.0131,-74.4061,89.7520,34.8407,-80.0768,-50.6100,3.1023
-77.1813,-34.9514,-5.4127,-8.9033,-110.4054,-36.3620,-60.8366,-15.4784,27.9951,24.9975,-62.3472,-26.8412,-108.5083,-77.5004,62.0761,1.1444,-45.3386,-14.5800,-28.9260
-54.0089,-6.7081,28.7471,4.0297,-79.8511,-55.9174,-115.9792,-60.2541,-29.4086,20.6532,-38.8894,-7.1221,-77.3256,-68.5060,45.4826,2.3137,-14.7080,1.1417,-59.2433
-17.4059,7.4463,22.8476,6.3727,-31.8146,-43.8705,-132.5177,-41.0135,-27.0483,49.2767,-6.8627,-2.8901,-70.1926,-86.2240,34.9044,5.1434,-15.2254,26.3336,-38.5407
-4.5323,-6.5525,-26.9992,-6.7510,-14.9792,-11.5581,-86.4885,0.3018,-14.1980,67.0189,-7.9233,-20.2194,-84.6087,-88.1739,18.0290,1.3772,-40.3538,41.3516,43.4920
-18.1782,-17.6774,-30.0994,-12.4627,-9.3278,10.6957,-14.8333,11.9607,-20.6692,63.4988,-25.6750,-42.5308,-83.6100,-65.9537,1.3635,-0.8301,-60.7412,32.8280,95.4228
-26.4622,-1.6770,43.0223,18.4488,19.7633,37.2247,21.8497,28.0098,-56.2584,36.6127,-22.6257,-46.4944,-57.5546,-64.5114,-13.0884,-18.5592,-57.5721,36.9672,71.3825
-14.4026,14.6376,94.9125,56.2674,44.3672,76.4765,18.8024,69.9444,-94.0644,-10.7142,-4.8916,-29.5941,-29.0473,-65.0315,-36.8865,-50.1699,-31.7029,50.1128,36.7660
-0.2326,11.2620,71.3444,53.5993,40.1463,87.2461,12.5355,84.5740,-82.6954,-27.4412,4.7916,-15.9751,-18.0846,-41.1354,-57.2474,-55.0785,-13.3797,26.1137,37.5803
-8.8296,0.7103,21.9075,22.2570,16.4750,55.9090,10.6221,60.3375,-46.0960,7.6081,-4.9412,-21.9877,-29.9261,-38.3687,-49.1601,-32.7247,-29.8717,-10.7001,53.1213
-38.2853,-10.3957,-3.6755,3.7870,-22.5296,25.3647,2.3567,53.7016,-49.8333,28.2500,-31.9007,-32.1406,-51.7258,-63.6986,-22.7947,-23.3224,-56.5312,-9.5646,61.2048
-47.8248,-15.0657,2.6386,4.9105,-50.9421,1.4889,1.5344,66.5958,-59.3174,13.0785,-41.1568,-28.0350,-68.5333,-54.4420,1.6310,-13.0015,-61.5953,0.0665,63.8910
-9.3752,-0.2519,13.6075,11.5521,-39.3335,-48.7529,16.2751,49.1034,-6.2293,11.5241,-7.2301,-14.7858,-88.1501,-11.0589,23.6189,27.6082,-55.6798,-10.9143,74.1766
25.1196,15.8665,-8.9031,24.6002,-38.6759,-97.9908,11.3802,-2.1065,56.9237,1.6258,16.0132,-5.7162,-115.1611,-5.0166,24.5752,41.1884,-42.8857,-12.0756,75.1181
-5.1858,9.3117,-34.0879,46.0401,-89.5722,-87.9188,-34.9859,-56.0592,53.8314,-52.9073,-19.4152,-6.2015,-124.8228,-50.5195,-12.7710,-17.8373,-10.3698,-9.1901,20.1094
-42.2948,-0.4907,5.4921,62.6427,-102.9033,-30.3266,-69.4846,-85.9588,33.1710,-81.7138,-44.2898,-10.2063,-107.5770,-72.2527,-38.5223,-64.8385,20.3874,-28.1401,-59.4274
0.3461,4.9046,66.8959,65.6520,-25.5055,24.3839,-41.9283,-70.5118,51.4841,-53.5511,5.3664,-1.6755,-90.7833,-15.4721,-8.3850,-32.7846,26.9700,-32.4290,-61.0897
67.0114,10.3743,53.1563,66.0753,33.1741,59.5869,-1.1001,-36.6230,47.0268,-54.3034,56.6604,20.3603,-83.8503,55.9885,13.2696,-5.1169,29.0656,-10.2800,5.9564
60.9602,13.8471,-1.4480,75.3571,12.3751,76.9621,-2.3992,-38.9154,-23.7521,-98.6568,37.7350,27.5525,-66.1662,47.3244,-41.5460,-50.7126,35.6504,-12.3089,37.3415
17.3121,23.2979,-2.7606,86.2494,-1.6319,76.8636,3.3187,-58.0635,-76.1150,-113.0414,-1.9924,4.0608,-40.9551,-9.9683,-112.5173,-100.2489,29.4892,-22.7346,30.5962
6.7652,26.0567,29.3680,90.5998,19.3414,61.9813,51.6130,-42.8346,-45.2112,-104.1525,-11.9520,-24.0161,-35.2743,-35.3951,-119.5102,-98.6042,18.3509,17.1542,40.6685
17.2642,29.1476,44.9695,97.5110,23.2076,24.6477,63.8908,-20.0140,3.2194,-109.9153,-6.0409,-28.5191,-44.7515,-52.3848,-94.2166,-85.1501,22.0462,76.0942,35.7282
35.1958,59.5381,84.9727,109.2558,43.1022,-31.2676,10.2281,-25.3533,3.8365,-93.5567,20.6362,-13.4992,-29.8137,-83.0017,-83.6904,-69.0293,34.7005,99.9346,-12.9884
70.4356,97.1986,164.4191,110.0125,113.7098,-65.0861,-21.5834,-32.2896,-17.1377,-48.3728,72.4828,7.1388,20.2504,-66.2351,-57.1554,-24.1680,46.1986,109.0290,-60.1624
94.1718,106.1088,200.0026,106.9985,148.6596,-55.1179,-20.7506,-39.2613,-33.5560,-42.9744,102.9055,32.5873,54.3643,-20.1982,-2.8008,4.9570,58.5583,121.6487,-93.7266
93.1327,102.4013,159.2587,126.3769,104.9140,-34.4285,-55.5463,-70.7869,-46.0461,-88.8305,98.6110,60.5431,29.4159,-28.3400,25.8641,-23.7881,68.9082,111.9704,-129.8598
95.0586,100.6964,110.7100,143.6561,66.4305,-23.7082,-73.8839,-88.3912,-31.8409,-116.2114,96.0095,71.7256,-12.6608,-43.0534,13.0985,-49.8178,65.7467,69.2356,-127.6865
88.5009,76.9825,92.4047,109.3976,75.3308,3.5792,1.9552,-53.6322,-3.7486,-90.1538,89.3674,53.3421,-1.6357,16.3347,-1.8017,-24.7779,44.7284,12.1631,-67.7303
61.2150,38.8060,93.5441,49.7166,99.5946,59.7098,82.1024,1.0581,-16.0573,-43.3285,67.7243,27.1769,52.3381,87.0649,-6.3973,5.1890,25.3048,-23.0704,-15.2305
52.7289,20.2840,120.9454,22.2936,131.7526,108.2413,78.3089,49.9869,-30.7471,-1.8951,67.1559,15.7534,83.4069,96.9181,-4.3773,15.5752,25.4016,-13.1367,-13.3807
48.1967,9.1394,147.6042,7.7619,147.6902,110.4993,63.8079,87.2723,30.3329,48.9421,72.3268,-1.4049,69.8350,63.7751,18.6901,34.9132,15.3281,3.6017,-30.9480
-3.2803,-15.4428,106.3802,-23.3931,100.3436,79.0991,80.7599,72.9275,100.6121,97.0295,27.4495,-36.7246,35.1828,1.5962,49.1541,42.7186,-27.6957,-4.7321,-34.4962
-35.5908,-27.2513,15.7784,-23.4208,31.4391,64.3088,64.0971,9.2943,83.8254,73.3268,-18.2487,-42.0317,-5.3345,-52.8204,59.2205,5.5727,-46.6263,11.1562,-23.4551
22.3443,-11.9717,-44.7888,25.9531,11.6415,76.9643,25.5589,-24.7747,47.1526,-24.7949,9.8388,8.0706,-39.3193,-32.1502,67.7602,-32.5203,-7.2228,61.9856,-10.1718
73.7691,2.9097,-74.8461,51.8589,8.8507,66.5191,25.5591,-13.9851,57.9729,-83.1928,46.9660,49.3304,-45.1844,8.8427,80.5313,-32.8208,18.2983,70.0872,-4.5087
38.9165,12.4441,-90.7372,33.6202,-15.1983,8.7283,14.1223,-28.2239,43.1555,-54.3733,20.6674,34.2398,-26.4267,-33.9181,49.1518,-32.5289,-0.9789,41.1936,-10.7789
8.0599,38.6042,-43.3819,43.8923,-18.1189,-55.0362,-61.3104,-80.3105,-20.8571,-36.0709,-4.5260,10.4232,-17.6004,-105.7033,-17.7309,-52.1514,9.2464,65.7559,-35.9714
33.5345,72.6320,46.0741,92.8602,5.7183,-95.3225,-120.1506,-119.3612,-52.0335,-74.5793,18.4487,19.5317,-28.0914,-114.1984,-37.6866,-58.6645,52.8917,124.3127,-75.6320
39.3648,85.2717,66.4007,102.7033,8.7671,-119.1580,-78.1742,-120.5972,-39.4903,-87.1986,30.8575,31.9311,-20.6040,-93.5203,6.5876,-38.2495,41.5392,120.5689,-92.5462
10.3784,68.5107,4.9338,47.8095,0.6803,-113.1773,28.2692,-74.7299,-19.3209,-31.0458,17.5989,27.8527,19.6605,-66.0993,60.7321,0.5275,-27.6168,43.4300,-59.4515
2.4518,27.1615,-61.0012,-24.9755,2.5486,-62.6247,116.0286,20.1911,33.3616,40.4013,21.1948,25.1492,45.2217,6.4948,96.0286,52.7783,-79.3789,-62.4973,1.9710
-2.2220,-30.2588,-104.9269,-85.9612,-15.9543,-2.3977,142.7109,117.4135,104.7061,88.4214,19.0527,14.6499,28.4621,83.8595,88.3281,90.3226,-91.9632,-158.9752,62.6734
-33.9381,-75.2971,-102.8699,-124.4879,-37.7026,35.5307,115.2369,169.8687,117.8236,116.7940,-13.9647,-19.9084,15.6407,104.2219,17.3558,88.1444,-77.8109,-198.3873,102.1801
-43.4085,-80.1896,-28.1684,-118.3721,-9.8566,68.8022,70.3112,187.8061,80.1532,120.6949,-19.8058,-39.0973,29.9428,102.1082,-42.5267,71.7128,-44.0638,-178.3928,90.6205
-12.5095,-60.7810,16.5256,-77.5556,9.8219,97.6957,33.6194,174.6527,57.7434,91.6165,17.0430,-5.9080,14.2924,107.5735,0.6744,64.7764,-27.7048,-163.7368,41.3413
-3.9305,-53.2475,-67.4251,-55.8588,-58.2565,76.6866,2.3293,106.2094,50.5589,54.2716,20.8582,38.1619,-48.4124,90.0293,91.5039,56.7270,-51.7699,-179.3729,16.8409
-30.9373,-54.6076,-150.8673,-71.3924,-127.3111,7.8093,-27.1264,19.0171,33.7249,49.8713,-16.7265,39.5795,-74.9110,58.0312,110.8304,52.7105,-68.0911,-177.3123,21.5917
-30.2080,-34.5606,-79.8416,-70.2051,-77.7902,-30.3910,-53.1877,-20.5436,6.5974,60.5804,-18.8664,17.9557,-22.5523,46.6536,54.8211,53.2942,-27.7518,-113.4023,-0.2491
22.8975,13.4540,57.9841,-0.7113,32.7180,-7.1234,-82.8486,-41.8150,-32.6730,9.9280,27.2574,19.8879,31.0330,31.1390,-6.0963,16.6526,50.0896,9.8285,-55.0877
93.6679,75.1863,114.8110,111.7001,91.9863,4.5050,-119.9324,-110.8188,-59.9650,-99.2661,76.5136,47.3225,16.1729,-23.3915,-41.9480,-56.7392,112.7437,131.3337,-102.7195
149.2470,129.4678,103.1272,187.3358,107.3337,-34.3720,-150.6384,-182.4031,-45.6123,-156.0226,117.6822,73.2879,-28.0996,-82.6217,-54.7055,-94.6450,127.5570,171.3192,-122.3894
159.2259,136.5058,80.1119,176.6687,111.5262,-48.2839,-148.6061,-170.6864,-25.1444,-123.1262,133.5636,78.9558,-33.4844,-86.7964,-47.7421,-76.6891,104.9385,128.9111,-110.8738
107.9504,81.5367,46.7507,110.2616,83.1769,12.8007,-94.7227,-98.1801,-24.8147,-85.2049,93.8855,62.8704,1.1307,-36.1667,-27.9361,-57.5387,78.3978,67.6426,-86.8597
47.6619,25.1182,29.7009,57.7340,54.1955,84.3425,-0.8702,-31.6853,-4.1466,-75.5003,45.8221,41.9927,42.6421,15.3111,0.8695,-50.2862,56.5259,20.2498,-82.6917
41.2706,23.1472,68.0655,42.7109,97.2980,108.8668,91.4633,22.7784,18.6702,-49.3532,53.7981,30.2587,90.0982,44.2207,21.2859,-25.6869,32.3681,3.0440,-78.0841
64.4624,43.1217,113.8133,34.6176,170.1535,106.4146,139.3777,59.6626,-23.2365,-18.3125,78.6135,22.3934,143.4436,73.2321,3.7998,0.8285,22.8696,28.1070,-34.1855
68.9964,38.9676,84.8144,21.1025,159.3713,92.0399,120.5051,51.0336,-75.6412,-29.7498,68.5707,24.2407,151.8572,100.0721,-28.9422,0.2129,36.1645,41.3930,10.7344
65.4936,19.0752,-6.6472,13.7798,62.1568,56.7049,52.0697,20.9205,-42.2883,-57.1973,55.2696,50.2347,80.0555,105.9002,-8.8333,-0.7106,40.8615,-12.9387,8.3613
55.1626,-6.2280,-76.7263,-11.0200,-31.3420,9.2976,-11.2807,-2.9068,36.9591,-32.0045,50.8474,71.6613,-10.2616,109.0391,69.8625,37.9155,16.7967,-90.6809,-12.6978
8.4875,-36.2370,-94.0096,-72.8252,-79.7267,-49.1085,-44.0370,-59.2511,84.9477,53.3419,16.3349,48.0428,-43.0092,106.6024,131.1947,96.1616,-14.6586,-127.5966,-27.1139
-49.4044,-47.2419,-88.8089,-117.0924,-98.7321,-115.7537,-76.5746,-148.7293,103.5583,127.4550,-35.5562,-1.4099,-40.9277,52.5083,117.9396,114.2568,-27.5476,-117.0150,-46.2638
-76.8706,-40.1120,-73.0182,-103.3525,-100.5506,-142.6567,-107.6886,-187.1831,97.9150,134.8346,-69.2775,-42.7867,-57.6015,-31.0571,49.3186,77.2046,-22.6430,-68.1613,-41.9281
-93.8910,-52.2645,-56.0596,-90.0173,-93.4238,-110.5382,-86.2435,-144.0676,75.8246,119.8037,-96.9165,-79.6547,-74.2736,-65.9388,-8.7110,41.0355,-25.3875,-15.0759,11.7435
-103.4302,-76.4062,-74.2806,-114.7310,-82.1933,-73.2352,-17.0523,-69.5557,92.9058,136.9736,-108.3929,-98.3413,-60.1620,-50.8901,-5.7826,48.0526,-49.8151,-8.2558,63.9061
-69.8937,-77.5395,-108.5850,-121.5832,-61.2311,-46.7222,34.5165,9.9112,145.2016,144.1478,-71.4158,-73.1505,-44.7240,-28.3109,41.5990,67.7606,-68.8882,-26.7901,73.2640
-31.3039,-75.2910,-96.3330,-101.4076,-39.1683,3.2720,50.4247,80.6545,151.7226,119.4479,-30.0161,-40.6901,-47.2869,7.0046,79.3509,72.2259,-65.8020,-31.0168,70.9493
-51.7310,-95.8635,-64.3748,-124.8038,-32.0853,48.1519,66.3697,114.7272,110.3644,141.1943,-39.3673,-46.0108,-29.2634,50.2006,95.5943,89.0429,-76.2671,-56.0485,80.6668
-98.4405,-113.3775,-71.1471,-184.6451,-35.7958,41.3704,92.4851,126.2177,86.5531,215.7118,-67.3847,-65.1197,15.7067,61.4904,113.7903,124.3476,-115.2613,-107.4634,86.4359
-125.0494,-113.7259,-74.5579,-201.8796,-51.4490,12.2954,100.8135,132.9397,85.3722,244.4400,-83.4078,-73.6971,23.4780,38.3744,131.5775,137.3454,-141.6379,-121.1054,78.3286
-147.8991,-114.8208,-49.2466,-179.8793,-90.2527,-15.0453,67.8271,101.4534,90.3308,224.2255,-105.4840,-85.2759,-26.5196,2.9361,134.6872,124.0440,-139.6173,-103.4861,57.0081
-152.5761,-105.6029,-59.5080,-169.6791,-118.2545,-59.8830,8.7127,36.9291,106.5000,223.4853,-112.5773,-85.4377,-59.4610,-35.4617,128.7168,116.6281,-129.3225,-101.3878,27.3137
-100.2873,-63.3334,-83.8949,-146.4124,-82.2584,-95.1723,-29.6507,-5.1502,100.9113,209.2459,-69.2744,-52.4341,-29.3990,-55.1865,115.5373,107.6676,-102.9941,-75.5276,1.0123
-25.9420,-5.2122,-38.3525,-71.8369,-8.2295,-85.6473,-33.9938,-38.1268,48.4541,129.1965,-9.1844,-11.9594,7.4623,-49.3644,94.6617,72.3110,-52.6876,2.4161,-26.3951
18.6311,40.2651,27.8746,13.8619,29.5195,-69.0981,-39.5500,-99.7432,-5.7725,30.5813,25.2242,17.3393,5.8909,-45.6247,85.1042,27.3041,-7.2983,66.3520,-67.5022
37.3135,65.6346,46.7074,58.5486,26.2199,-72.1433,-50.5604,-143.5888,-37.4567,-33.4533,41.3269,45.6705,5.4975,-35.1397,87.2393,3.6855,17.6572,70.8073,-105.4260
35.1990,68.1300,68.9724,60.1129,25.4026,-63.9023,-34.8135,-131.9334,-62.7911,-54.5964,45.3721,57.2503,31.5916,10.6900,72.5535,7.3191,29.0771,28.6475,-114.5433
8.5668,44.6127,81.9409,30.3264,17.7965,-44.8278,0.6206,-104.7272,-42.0295,-27.4996,28.8354,37.1927,39.1774,51.0768,51.1164,26.1081,17.8094,-40.8248,-96.3248
-20.9427,3.2184,1.6334,-19.0105,-29.0631,-45.0938,26.6309,-79.2756,54.0987,21.5452,-0.7490,12.1588,4.9562,39.6324,60.8817,43.1222,-16.4419,-96.2611,-63.4865
-39.6213,-32.4718,-96.3310,-61.4773,-81.6417,-61.5710,46.6479,-40.0989,145.5173,53.7691,-25.8424,-1.7671,-28.3753,14.9130,85.6021,56.0759,-48.0189,-114.2818,-29.5335
-49.4000,-39.7779,-97.6300,-80.8735,-87.3306,-82.3945,60.8540,-10.3835,168.8016,80.8629,-31.4234,-13.1920,-29.6703,15.9667,86.5219,76.7229,-63.7894,-128.9108,-12.5112
-46.0143,-31.2496,-75.8502,-82.2852,-70.7422,-94.2996,43.3856,-13.9012,159.9673,97.8985,-24.7910,-16.5067,-20.3100,9.9606,73.5230,83.3191,-59.7697,-126.4145,-17.5651
-40.6727,-31.5103,-94.6176,-62.0837,-74.7057,-72.0115,-7.4266,-41.8315,137.6058,59.6309,-34.1038,-11.7843,-20.0163,-31.0457,53.9972,37.1366,-24.5810,-56.2622,-41.0272
-36.5741,-17.1069,-65.2804,-14.2410,-62.0790,-40.9850,-56.6091,-86.5855,86.9152,-4.4587,-42.4430,-11.3839,-12.2288,-75.3552,3.3678,-28.8428,25.5906,20.7179,-79.6925
-6.4372,32.1162,16.6038,34.3763,-0.5583,-53.3409,-69.6650,-126.5845,44.6465,-23.3550,-7.7559,-6.4290,12.2513,-82.5055,-52.4126,-44.2816,50.7638,25.6679,-104.5404
28.1847,61.4485,35.7078,46.6424,39.2003,-82.2229,-44.7172,-135.2669,40.9043,-16.0254,26.7998,3.7604,24.0407,-60.2806,-54.3797,-21.6344,44.4931,17.5806,-85.4571
17.0349,40.1332,-8.6761,27.6528,9.0213,-89.5167,-24.4831,-134.8701,45.4011,-22.7993,4.1758,-1.5773,9.7728,-49.9923,-25.8217,-15.1960,34.3045,47.2178,-53.2500
4.0545,31.5677,-26.9639,11.5938,-11.4720,-116.2064,-34.7200,-137.3649,56.3568,-13.4170,-11.8740,-9.9762,6.4759,-59.3036,-28.7707,-9.1818,33.3880,55.2496,-47.1972
36.8800,52.8698,-17.1276,6.3867,24.5639,-155.9983,-23.5597,-95.1414,99.0930,19.1277,25.5114,-4.7209,23.8738,-52.8839,-46.6433,22.1350,28.0520,30.6650,-33.0461
39.7938,29.4476,-31.1418,-6.2741,29.9493,-117.0418,51.2034,-7.9890,132.7951,20.0289,25.4236,-15.3748,17.3344,-21.6917,-37.8306,32.7434,5.2650,24.5188,24.5115
-23.5433,-37.5107,-75.5085,-25.5867,-31.6504,-10.2409,138.0214,57.5624,110.6428,-19.4494,-43.8885,-44.1696,-9.8791,3.5658,-22.0368,-4.0539,-25.5427,19.6080,83.6584
-60.8103,-63.4980,-118.8849,-32.8648,-67.3313,51.2882,180.9093,89.2838,71.2638,-40.4805,-80.6930,-52.2344,-12.6488,3.1234,-27.9132,-37.1802,-51.6570,-10.4223,113.4453
-50.4650,-53.4279,-131.4905,-31.6772,-46.6637,57.7807,192.5996,119.8079,68.8721,-11.5050,-68.1293,-59.4269,-20.9496,-19.4996,-51.8055,-38.1480,-78.6299,-32.9688,152.0857
-64.5746,-78.3458,-120.8151,-43.8285,-45.3413,81.3645,194.7470,148.4430,104.9855,30.0287,-84.7840,-101.6706,-75.1234,-37.5242,-86.3120,-35.1964,-98.3822,-39.9184,210.0961
-91.0723,-124.0251,-117.1914,-70.0606,-72.0927,110.2020,186.0297,170.1610,150.2454,42.5469,-117.2682,-134.6348,-110.3786,-21.1890,-107.9546,-32.5188,-86.2241,-39.4257,235.5121
-85.7022,-128.6288,-106.6054,-87.1459,-65.9037,91.4318,159.1291,177.4079,155.4580,49.3555,-113.4080,-127.3259,-82.6341,-8.9659,-90.5773,-15.1694,-62.3365,-1.6482,210.8982
-78.6879,-94.1130,-56.9417,-77.0314,-27.0641,48.8136,101.1728,134.6204,94.6877,81.4456,-99.4273,-123.4893,-58.2250,-58.5285,-71.9741,-7.1873,-60.8475,63.5113,173.1975
-67.5261,-51.9762,6.1999,-38.1392,16.7940,34.3377,38.3479,56.3719,28.8791,88.7953,-83.6936,-125.1362,-55.4050,-111.4441,-100.6918,-29.2430,-47.4894,99.0519,136.1891
-10.7737,-5.8327,39.1687,15.3786,69.1012,35.5442,35.8468,9.3337,22.5424,28.4691,-32.9931,-91.4378,-19.5215,-89.1089,-138.0690,-52.7148,2.0940,102.8013,93.5986
36.1352,35.4327,37.3550,51.8608,93.2604,1.4845,76.8853,-8.0699,28.7278,-31.3445,8.8057,-52.3821,19.3165,-55.5092,-137.4476,-54.1740,23.9021,98.4223,70.6853
6.3816,46.4576,18.9227,50.1818,46.5928,-61.2766,74.6807,-21.9283,-20.3132,-34.5331,-17.0743,-53.8287,7.1574,-77.8813,-135.5904,-51.0007,-6.4430,80.6177,86.1027
-37.3279,27.8303,14.4182,34.9410,-6.8103,-69.5234,36.3658,20.8651,-95.8389,-36.0538,-58.0051,-64.5013,-7.7685,-91.6138,-158.8689,-61.4896,-19.4057,74.0658,113.8660
-26.6181,2.9596,34.6369,39.3520,3.9524,20.1031,35.7044,134.0460,-142.2218,-69.5052,-49.8740,-50.6109,3.8881,-52.9407,-161.7892,-79.2399,-1.0309,99.1648,136.3939
0.1552,-18.9065,42.7329,45.9194,30.9573,129.9501,63.7760,214.6553,-149.7571,-84.7556,-21.5488,-29.7749,-1.4437,-0.5299,-124.1086,-82.5318,-1.7529,90.9355,154.3158
8.8705,-31.9295,39.2544,29.0528,33.0800,169.5083,65.5923,206.3397,-125.7893,-65.4093,-2.0444,-11.0194,-2.3484,56.2901,-88.0542,-57.5194,-3.2059,15.5183,133.7137
24.6088,-15.7392,79.7506,20.6958,56.7109,147.1935,30.9210,160.5280,-97.7201,-49.4242,28.3861,12.2275,42.9283,96.9865,-82.3848,-28.7555,32.4947,-37.6318,54.3876
46.5376,25.5275,136.9837,49.8512,98.4500,111.0294,-22.7880,110.0918,-111.2995,-51.2111,57.1621,26.6479,76.0824,61.9547,-92.6597,-34.9160,64.5175,-3.1634,-18.1499
48.4181,52.5159,137.2306,82.2371,105.0834,83.9825,-48.1285,54.6859,-159.4120,-69.2766,50.4763,24.0965,65.4194,-6.6366,-90.1156,-65.4270,61.1148,75.9798,-25.9795
46.8639,57.6358,126.1183,98.3143,109.7193,84.1053,1.2945,20.4321,-191.7533,-110.3712,34.8726,21.0006,77.0030,-11.5005,-65.9830,-83.6979,59.2925,152.9445,-11.1584
69.1016,72.4479,162.7152,124.1037,149.4049,100.1739,62.1291,13.0540,-207.0841,-156.7315,50.6260,29.9749,112.0857,23.6132,-51.6091,-88.8566,77.0644,203.4849,-16.1202
92.1909,91.6524,175.9753,138.7695,158.0376,75.9144,44.3843,1.2680,-225.6368,-165.8710,71.8667,43.0924,105.1302,41.1758,-67.0466,-80.5380,84.8126,188.8763,-6.9390
82.0620,81.2655,124.6054,97.1182,107.4781,2.3931,12.1618,-12.3471,-209.2102,-121.4322,60.9595,40.6753,71.1281,63.3612,-69.9440,-35.7758,62.7825,121.7206,35.3745
47.9522,50.8899,78.7125,39.0609,65.0848,-51.7488,59.8171,-2.8280,-128.2031,-61.2862,31.6841,14.5082,51.9717,77.9400,-32.0963,17.7939,19.5432,76.1749,68.6780
12.7326,30.3730,60.3106,22.2438,47.7262,-49.7548,117.4771,15.9762,-40.7704,-27.3243,5.4103,-16.6382,31.9684,32.3168,-0.4127,21.8350,-20.3555,67.8083,63.1523
-18.1839,15.9078,40.1983,14.6876,27.2271,-25.3973,94.1218,19.9015,-3.5593,3.6995,-15.3966,-34.1021,10.4894,-32.1331,-3.7670,0.0597,-38.4625,44.1463,35.6676
-31.0101,-5.5843,31.0167,-16.1706,20.5562,0.2543,41.2145,21.0583,19.6199,58.9259,-18.5905,-40.9075,-3.1347,-39.5357,-1.3194,12.1416,-41.5472,0.2844,20.0189
-15.3070,-35.4484,18.2329,-33.1795,14.9623,42.0271,20.1520,36.1152,67.8117,74.2577,-6.7336,-36.4472,-39.8271,0.3603,25.2367,31.1447,-31.6673,-17.8315,30.5933
-1.5593,-66.3298,-26.5737,-20.0505,-30.4581,93.6079,-0.8774,43.0302,77.2827,0.3033,-13.0810,-14.1034,-77.4568,42.0686,36.2824,3.3225,6.3260,0.6523,36.3207
-8.7344,-65.5169,-41.3425,1.5419,-58.7714,120.0028,-36.5220,11.2904,-17.2107,-84.3356,-32.6219,11.6660,-44.2529,60.0037,8.3104,-47.4344,53.8246,31.9582,8.2927
-2.6902,-16.5486,6.5121,33.7373,-10.1727,107.3494,-39.8248,-38.6342,-136.7929,-107.5409,-22.8330,22.5427,22.3517,43.2595,-30.3746,-74.3670,65.1480,61.4499,-13.8653
22.8058,30.4728,37.0610,67.9377,43.9720,79.8967,1.6720,-57.8037,-160.7155,-99.8065,6.3820,22.4193,34.0374,11.0724,-34.1374,-74.6113,38.0886,79.5717,-0.2025
23.0700,41.9409,42.7700,75.4669,48.4635,57.0232,30.0854,-51.1256,-120.5818,-84.7139,15.0033,20.7815,24.1191,-16.4192,-0.7939,-62.9813,12.2863,77.4159,-13.8822
-1.5210,56.4537,92.2272,72.9403,47.8986,23.8889,-5.3801,-64.7927,-125.3486,-57.0925,12.4370,21.1815,48.5666,-47.9969,9.4870,-53.1861,11.5070,56.2806,-84.5487
-10.1494,82.2495,134.1642,77.9401,48.7303,-27.6844,-62.9492,-90.9258,-158.5063,-35.6856,17.2132,22.3042,59.4653,-69.0215,-27.8625,-46.3683,17.8896,19.8577,-117.0562
-3.0679,78.4038,92.0903,59.3824,31.8043,-64.8880,-45.3367,-80.8777,-132.7413,-14.2885,17.7087,15.5167,32.9478,-52.4263,-40.3492,-21.7351,-4.6129,-15.8175,-57.7760
9.0137,58.9872,29.5200,32.3404,33.2191,-59.4744,48.1563,-42.5405,-62.5351,4.2241,21.3436,9.8591,24.0335,-23.5823,9.0824,8.2957,-42.4706,-17.1436,1.7406
32.5651,56.3890,3.0111,49.3126,37.0245,-29.0083,95.9687,-21.0601,-18.7029,-41.0442,37.8739,31.1941,31.3743,-7.1716,47.6050,-3.1403,-33.4989,5.3121,-13.0572
34.0867,38.6672,-24.3352,62.8779,-19.1375,-3.7852,37.2025,-14.2174,-12.3945,-103.4925,34.1800,61.5275,9.3923,14.6624,41.9748,-30.7946,8.5740,-20.9105,-53.4560
-13.7697,-4.6465,-45.0546,5.5926,-82.0213,7.5097,-40.8736,3.1763,-22.7918,-43.7782,2.8454,56.4378,-15.6410,33.7307,49.5987,-4.6427,-3.1626,-113.7055,-62.9980
-48.2932,-21.1018,-29.0823,-52.3895,-71.8060,12.4618,-58.3989,17.4301,-35.6066,66.6787,-6.1766,36.9411,-3.7806,34.4761,76.0725,43.6179,-48.4273,-181.8632,-60.0029
-15.1865,-4.9857,-9.0136,-33.3343,-31.9398,26.1412,-49.0910,7.9612,-33.0451,44.8936,21.9455,51.3094,20.7555,52.9797,73.8446,39.4790,-23.6549,-155.4819,-74.6311
32.9508,1.9325,20.2723,4.5952,0.1349,51.7567,-57.1845,-5.4109,-21.6555,-35.3383,48.5487,72.1086,39.3001,92.6750,56.3984,15.1976,49.1065,-74.6084,-98.2775
38.5933,2.8799,84.3255,7.6187,46.8823,63.4479,-58.3545,-1.1456,-27.5004,-24.4377,52.6856,54.8305,60.5026,90.0779,52.9481,19.8217,69.4213,-3.5639,-106.5541
25.5121,18.9618,97.6824,19.7557,64.7022,40.4334,-23.0734,-2.9159,-40.9887,-14.4972,39.3835,31.0191,64.8647,34.7227,45.3275,8.0204,43.1873,45.2710,-88.8050
28.6642,42.6503,17.6244,59.6630,29.1674,1.1118,33.0346,-40.4337,-47.6690,-85.9408,22.2402,36.6576,45.5127,-16.3573,36.3810,-38.8044,23.2554,83.5851,-57.4450
38.3971,68.0374,-14.3973,85.3505,30.5983,-25.7204,75.4579,-92.7802,-71.8924,-118.1946,21.4374,42.5135,44.5450,-37.1816,47.8315,-55.9469,6.3424,114.9685,-40.1232
32.7839,83.6456,64.3635,82.8545,79.3809,-35.0342,78.0061,-117.0990,-104.2846,-73.7618,28.9301,25.5428,65.5425,-36.8162,54.6552,-31.3004,-2.7977,129.0516,-51.1625
11.4058,65.1662,97.6342,63.5833,63.5028,-41.5493,39.2272,-112.9521,-84.0897,-48.0624,15.7132,11.6041,53.4872,-28.8612,47.2135,-14.7567,8.8791,108.6056,-71.0446
-5.2455,29.1118,8.1856,29.1232,-14.6744,-60.6580,-6.1426,-108.8450,-8.8075,-35.0182,-5.4104,17.5469,4.4348,-37.5455,73.0845,-5.3827,4.7538,65.8529,-76.2131
-4.0063,11.9220,-83.2933,-1.8430,-55.9361,-79.0866,-29.8280,-105.4642,53.0747,-0.9014,-5.8362,31.0370,-25.2191,-61.7134,128.7757,12.1865,-19.9465,45.0694,-78.3154
4.5566,2.6525,-107.9041,-3.1702,-66.1299,-57.7077,-55.7104,-87.1894,62.4401,-14.7864,-0.9188,46.3212,-23.7489,-62.9909,138.8584,1.4539,-4.1167,54.9160,-95.1470
14.8575,-12.3372,-112.2033,17.5554,-86.6837,-0.3270,-101.8334,-67.6260,34.2638,-84.3262,-2.1301,65.1313,-25.3808,-31.0981,86.2331,-42.1471,51.1690,49.5572,-106.5850
33.8816,-7.9026,-104.1016,32.9584,-79.4082,33.0132,-122.9562,-70.3213,-1.1330,-108.1155,13.8794,78.3996,-30.8878,7.0081,42.0795,-55.6320,71.4113,5.5473,-91.6173
48.0789,12.9888,-65.5431,23.8695,-31.2919,22.5757,-86.3698,-81.5065,-15.6704,-55.0713,42.5607,77.4552,-15.2865,39.8262,58.3692,-12.7297,39.3153,-44.7055,-72.5649
34.6540,11.8692,-28.1496,-14.3948,2.3783,8.3476,-35.7762,-70.3069,-0.4807,19.3341,49.6250,65.0707,17.1111,67.5081,109.2864,45.2213,0.9071,-77.4493,-74.0243
-2.3598,-11.0524,-23.8931,-63.5856,-10.0020,-8.4984,-15.8938,-48.2847,37.7174,81.5923,29.0512,46.2368,34.5032,73.3319,143.7941,85.1829,-25.5690,-111.1807,-86.6009
-41.7373,-26.2281,-58.6490,-94.3073,-60.3404,-62.0538,-11.6771,-55.2109,100.9947,120.9405,-1.4903,26.6462,11.3461,39.6686,161.6507,105.2227,-56.4784,-150.4444,-95.6789
-61.1684,-28.4310,-121.2849,-93.0225,-119.7235,-120.4541,-3.2705,-85.9021,165.2129,121.7566,-24.2652,18.1521,-44.6435,-14.9847,189.8422,103.6435,-89.6107,-159.3677,-92.9751
-44.2021,-24.6570,-150.1196,-60.6398,-139.8429,-116.1513,-5.6572,-96.6420,163.3466,72.6172,-22.9472,26.6705,-88.6243,-29.3589,190.1416,76.6638,-85.6589,-126.5880,-70.5544
-5.9742,-19.1795,-99.8583,-13.4691,-113.6463,-59.6957,-30.5698,-81.0767,88.7532,-14.2527,-5.5034,38.2639,-90.4770,28.9274,105.9379,35.3054,-21.0387,-91.9295,-36.1321
16.2980,-26.5627,-46.6561,5.8754,-89.5033,-14.1872,-57.6530,-60.4031,33.2886,-71.0484,-0.8097,33.2143,-78.9164,97.1160,-0.5747,9.0646,46.0976,-79.3829,3.3706
10.9880,-52.0437,-65.9405,-27.4561,-80.7036,11.6475,-56.2095,-13.8403,45.7526,-29.5134,-10.5495,10.8411,-81.8798,102.0150,-25.2974,18.6715,37.1997,-80.5224,54.2935
-7.6376,-73.2260,-91.7904,-75.2998,-58.3401,52.7742,-32.9543,85.0748,53.9637,62.6741,-13.5764,-8.4444,-66.7803,68.1692,-2.2549,39.9439,-20.7280,-101.9216,92.5956
-24.3049,-71.4942,-62.4438,-91.3330,-29.8378,98.6333,-31.5155,187.2693,-8.8583,99.2948,-7.8897,-5.1597,-10.0691,56.3570,-19.4593,36.6617,-41.8917,-136.6636,87.2926
-24.9815,-57.0031,-38.6880,-85.3905,-22.7411,99.4306,-52.4958,217.4804,-91.3842,75.0848,-3.9025,13.9301,39.9515,71.0685,-46.1735,25.1676,-23.8288,-135.8748,73.1956
-12.7875,-46.9094,-53.1752,-81.1573,-26.0144,60.7334,-45.1296,174.0577,-107.3563,53.8277,-3.8098,22.5172,43.2754,82.6419,-21.8319,33.5552,-17.1668,-88.3797,81.2319
-3.8427,-35.7432,-42.3525,-60.2130,-9.1971,49.1408,-10.8479,111.9820,-73.4725,35.2643,-1.3024,18.1342,37.6384,68.5015,14.5219,29.8580,-13.7928,-34.1477,58.5376
12.9292,-5.0837,17.3410,-1.7183,34.1166,77.5739,0.2324,59.1225,-74.4506,-21.6982,16.2505,27.5922,62.7301,38.5437,13.8758,-13.6948,21.2308,22.6527,-16.6349
49.6982,38.9111,81.4776,66.3394,74.8791,79.2296,-11.5830,-2.6363,-114.0066,-101.3887,46.9523,53.7956,87.4749,37.9994,-1.1286,-50.5002,72.1877,80.7996,-76.4822
74.7012,65.8264,118.8342,104.9211,71.9684,33.6395,-29.8413,-77.9590,-118.0583,-151.3246,65.6314,71.5100,67.4820,67.3946,-4.2390,-47.4510,103.6430,84.8087,-101.8544
67.3216,62.8067,109.0264,114.4349,20.3890,2.6574,-73.9807,-123.3647,-78.6256,-165.0434,61.0422,79.4258,14.5532,68.1460,-1.2533,-44.9895,111.3351,29.9438,-131.0721
51.0491,42.3243,46.0567,106.2999,-39.1058,10.3605,-112.3088,-111.9845,-51.2576,-167.6867,44.4034,85.9266,-29.2710,42.5223,3.6521,-60.4151,101.3655,-11.9628,-134.7414
33.2515,17.3535,-25.5049,73.4645,-67.5172,18.3250,-85.1809,-82.9579,-41.6581,-144.6214,19.7898,71.8181,-42.3147,37.5880,2.7729,-58.1990,69.9439,-28.5375,-77.4900
12.0938,3.2860,-62.9526,31.9512,-56.4605,23.9484,-48.2789,-62.1735,-47.4652,-85.7634,-1.3670,41.1378,-25.1504,27.8045,-25.5261,-47.4488,33.7803,-50.3868,-16.2234
15.1829,14.5500,-62.6201,24.4551,-20.3220,51.1919,-78.1199,-16.1277,-114.0994,-54.3182,5.7897,37.9109,13.8923,-2.6618,-81.5547,-65.8990,29.1820,-52.7950,5.4340
33.4311,31.9841,-24.6404,40.0187,11.2626,75.1184,-110.3801,49.2588,-211.1413,-73.7524,25.4624,56.1538,54.4092,7.5332,-123.6243,-82.0120,48.3472,-33.0218,16.9161
15.5297,21.1931,18.7702,20.9853,15.2960,64.2190,-80.6537,69.5084,-215.6606,-57.0667,14.8621,42.1596,68.5580,43.3055,-111.1648,-52.2271,42.2645,-36.0384,25.3713
-20.9940,-8.6335,2.7592,-23.8009,-4.6980,33.9476,-51.3453,42.5807,-112.3483,8.3753,-15.5672,4.1991,46.2653,22.5835,-67.8881,-15.8767,13.8913,-41.7010,18.1199
-21.5442,-23.5319,-60.7122,-32.3100,-39.9602,0.2378,-56.2885,26.6819,-17.0094,13.2229,-29.0318,-8.3430,1.7493,-19.3925,-56.3041,-17.9814,10.0028,-18.2640,24.6355
-14.6765,-28.2658,-99.5150,-14.4146,-84.3448,-34.0894,-39.6623,37.7676,21.8826,-37.9090,-39.3550,-9.2949,-43.4645,-19.3909,-75.7102,-30.4852,15.5106,-7.2593,60.8458
-45.1449,-46.7412,-105.1864,-25.9884,-109.6697,-45.3882,3.6442,65.6094,43.6479,-28.9401,-70.6025,-38.8174,-68.7184,-33.1490,-76.0864,-26.4889,-12.7859,-1.8801,99.2329
-71.6651,-62.2025,-90.6394,-48.2063,-84.7960,-25.7946,26.4438,101.7754,43.2979,23.4479,-94.3009,-78.1511,-61.9605,-81.2679,-73.4740,-25.9413,-41.4098,52.3940,127.0880
-51.1602,-41.8031,-33.3965,-28.4268,-23.6508,-10.1792,23.6875,101.6649,-1.6298,24.5736,-77.4428,-87.8006,-36.0518,-87.9417,-110.7238,-36.3426,-24.5932,105.5157,139.1401
-14.0029,-1.7677,32.1296,11.8987,28.9877,-12.8026,10.3644,47.0529,-53.0995,-4.6407,-40.5305,-69.9012,-12.5921,-58.4956,-140.2182,-41.7526,7.2550,109.4711,118.1021
2.2271,13.8287,50.9502,21.5611,56.4736,-9.0594,2.7152,7.0455,-73.8118,-9.9103,-22.8912,-53.0832,12.5837,-51.2021,-108.1163,-38.4629,19.9166,137.5392,82.2978
-4.7680,1.5901,62.0821,2.3482,74.6239,9.3954,25.4194,19.3767,-80.3202,1.3868,-28.7465,-55.1953,47.3660,-38.5424,-66.4664,-26.1435,21.3715,184.3527,69.8465
-22.4172,-12.5523,82.3101,-20.9750,81.4355,36.2112,52.9044,38.7845,-89.1576,27.2484,-34.6070,-62.4643,66.7299,-0.5540,-61.8813,-7.2407,9.1635,136.4427,74.5338
-31.1059,-27.8344,40.5061,-41.0113,54.7312,73.5765,39.2033,58.0037,-78.9291,55.0034,-30.0897,-48.2547,49.9205,16.7122,-52.2911,-0.8757,-14.2891,30.5503,72.7361
-29.2038,-54.3560,-41.7207,-55.8482,5.2657,100.4436,25.6694,97.4016,-19.8492,50.3093,-29.6747,-27.3887,17.3301,13.5981,-15.8534,-5.4408,-24.1463,-11.2228,66.9268
-47.5186,-79.6011,-74.7324,-74.0636,-34.7919,80.6641,69.5204,111.1706,78.3796,52.4884,-48.3153,-39.9239,-9.4771,15.9216,17.0225,11.0258,-38.1333,-28.1418,64.7439
-93.3384,-93.6934,-96.9100,-111.3064,-71.4500,25.3880,124.7441,81.4606,153.2365,107.9997,-80.8382,-71.0017,-28.4747,2.7830,49.2971,48.5966,-88.5476,-88.0042,67.7459
-126.6399,-101.3770,-150.2725,-148.1246,-112.8125,-18.8223,131.4419,76.5118,155.9105,151.2477,-104.8497,-73.2386,-28.3463,-21.3597,94.1781,72.2769,-133.1553,-118.2689,69.2368
-123.7396,-92.6390,-137.6186,-139.0922,-117.6715,-33.9219,101.7095,97.3695,111.5797,129.1368,-102.5638,-56.2332,-10.5519,-31.9947,110.7074,66.7497,-120.2568,-70.8928,48.4461
-100.1090,-57.0087,-39.1762,-76.6467,-72.1951,-31.1272,48.8629,66.3631,61.0169,84.9613,-82.4918,-57.6816,-13.8821,-62.5966,56.3598,30.0329,-74.2342,-2.9549,15.4545
-63.2868,-15.1123,21.9195,1.2002,-26.3648,-18.3768,-16.5078,5.8575,8.8798,33.4912,-61.7311,-66.2350,-48.0013,-117.8704,-43.4297,-33.7184,-29.6815,58.4819,18.8120
-10.4103,9.2291,23.5666,56.7200,5.0029,1.6251,-40.5274,3.9781,-22.1140,-34.8196,-34.7243,-55.3782,-65.3160,-128.7732,-111.9122,-81.8407,11.9424,123.7317,54.4005
37.8348,19.6588,39.5302,79.1453,48.7736,25.4562,-11.9747,36.7969,-4.6735,-73.1668,2.9491,-34.0924,-42.7283,-95.4535,-98.8862,-82.3220,40.1948,175.3381,54.6652
57.7576,33.1588,69.9213,87.7432,92.7559,48.8060,-0.0547,26.0597,4.2262,-71.1155,30.8886,-14.9672,-2.8806,-89.5207,-49.5365,-75.4169,51.0235,202.6140,-0.7534
58.2837,60.1536,111.7404,106.2145,126.4501,67.2857,-25.3565,-10.2617,-63.0935,-75.4161,44.0423,2.5578,45.8072,-103.9483,-46.5078,-92.7251,63.2962,206.8138,-60.7544
57.0005,86.3842,186.0419,121.3474,168.6584,81.9486,-29.9203,-16.4980,-147.1866,-74.6713,57.5193,7.6688,94.0046,-83.5428,-82.8619,-96.6027,72.2067,178.7966,-80.9950
51.2435,80.0391,211.9382,103.4409,183.5327,89.1598,2.3081,-4.8616,-150.5179,-49.1613,58.7806,-3.6466,103.8381,-38.6541,-94.4309,-70.8288,61.2687,132.7766,-55.2018
41.6512,45.4092,120.9291,61.1760,131.3237,72.3810,35.3984,-3.1798,-90.3894,-39.2753,37.0681,-8.3321,76.9016,-2.2341,-73.7683,-46.9510,43.6180,95.5002,-5.7058
42.5616,21.9539,18.8556,23.6044,76.8328,35.3921,60.9230,5.3651,-33.6833,-41.1305,25.7185,4.3557,64.8303,28.3096,-37.3221,-21.8078,30.3682,71.1595,26.1711
49.8486,12.8771,6.0607,0.4489,69.9128,12.3687,73.9555,31.6998,9.8407,-21.1376,36.5681,15.9182,68.6925,51.5428,20.0202,16.4433,21.3454,71.6157,18.1529
46.8229,-3.9749,28.0938,-1.1257,53.0499,11.3524,46.9318,52.9047,46.2106,-19.9100,35.4683,16.9048,39.0272,47.5104,66.3880,30.1952,29.1897,106.1309,-7.0913
38.3574,-14.9098,26.5997,16.5404,13.5684,2.7394,2.3068,58.4673,63.5026,-43.7087,20.2445,10.6650,-17.1990,12.5025,63.0075,11.2578,38.2533,136.2240,-9.7994
29.4587,-6.3182,16.0978,17.5510,10.7217,-20.3557,-1.8067,50.7795,61.4063,-14.9691,12.6027,-7.7521,-42.9809,-29.0041,39.2296,8.5722,10.3495,123.3921,20.1032
7.9891,2.6536,5.3493,-5.3309,21.8245,-40.0596,13.8571,14.9511,40.2493,41.9595,0.6928,-27.7436,-29.6903,-47.6295,21.7936,21.3058,-26.2400,76.8167,40.6225
-13.0574,10.0986,0.0475,-2.2133,-6.8005,-56.3169,-5.7959,-34.5390,5.3976,23.4611,-15.3453,-21.5768,-18.2593,-41.6030,-7.4434,7.0555,-17.2331,24.8307,14.6468
-6.5641,20.0576,4.0834,27.4245,-32.9143,-62.5588,-15.7920,-32.2285,-2.9311,-38.0633,-10.8122,-1.1481,-21.8149,-25.0978,-35.9095,-15.7600,8.6286,-2.1865,-6.8588
7.1278,3.0389,-19.8118,18.8786,-22.6789,-28.7696,39.9846,33.2617,28.6668,-49.6776,-6.1469,-5.9298,-16.0903,6.8567,-50.9809,-15.4436,6.9544,-3.1862,42.0377
-3.1560,-39.5745,-76.3356,-23.5139,-25.0986,34.7974,82.8331,84.4719,50.0027,-33.9521,-26.9090,-25.7755,-2.1818,46.2348,-87.0565,-19.5991,4.6895,-30.3731,105.5359
-17.5395,-57.3556,-94.3966,-38.1062,-48.6257,64.2514,41.3181,87.2809,53.5675,-20.9345,-36.2843,-26.5199,-13.9335,51.0039,-117.3568,-29.3978,12.2217,-92.4163,97.3333
-21.0194,-49.1250,-49.0542,-46.2732,-42.1602,28.3120,6.1518,90.3159,90.5734,43.3509,-18.5649,-28.6975,-42.1196,25.0455,-65.8053,13.0734,-14.5855,-115.5294,62.2178
-39.6547,-58.0742,-2.5700,-100.1612,-9.0892,-31.1828,53.4655,106.9265,146.0987,153.5999,-20.4603,-62.3748,-34.8245,22.5166,23.9686,99.5081,-67.8290,-81.3878,74.3903
-66.1694,-78.4587,4.7796,-148.4498,3.5558,-56.9420,96.2196,102.8880,166.2559,207.0340,-46.6625,-95.1410,-6.6314,34.3549,49.9421,138.4885,-84.6641,-44.3175,96.4640
-55.0944,-80.0075,-14.1154,-126.2865,-7.8401,-39.6677,60.5752,85.0426,165.6718,164.3644,-49.2380,-88.1600,-21.4079,15.1411,27.6565,102.3704,-53.5353,-7.0574,84.9914
-9.7526,-65.2522,-38.0733,-81.4381,-10.4955,-22.1923,4.4705,76.0319,155.7955,101.8304,-21.5380,-55.8147,-50.2618,0.8973,16.1536,64.3792,-15.9889,35.6919,74.7573
23.1052,-41.4278,-45.1000,-73.4350,3.7671,-42.3569,-22.0153,54.2957,106.7998,83.5994,6.8698,-22.9866,-24.1942,34.4177,13.5421,72.0618,3.0215,30.1790,71.2022
26.5108,-13.0873,-34.0530,-69.2242,-0.2907,-84.3659,-41.0786,-0.1048,68.2541,79.1565,22.1243,5.3790,6.5105,58.7529,23.8690,87.3254,7.5851,-24.5776,26.2815
14.6808,1.9206,-35.0702,-38.5184,-43.7541,-116.0728,-59.8743,-64.5152,113.1182,46.8728,20.7309,22.1594,-24.2256,29.4604,51.3285,73.1691,10.1713,-68.1128,-51.1133
0.3605,2.9991,-45.7816,-26.4873,-72.2852,-133.5579,-59.6148,-103.6405,173.7467,32.2354,10.5956,19.3880,-42.9229,2.1247,52.0949,59.5752,13.9708,-96.1360,-96.1642
-5.5713,5.0036,-21.3983,-58.8239,-23.1156,-126.2876,-36.1637,-97.1310,162.0770,86.8022,13.6188,2.4946,16.5139,17.7758,27.7081,80.8068,9.2911,-112.6363,-89.5809
4.4497,4.9448,33.9445,-85.4828,63.6490,-74.6582,1.6781,-57.8881,122.3384,146.8072,32.8678,-10.7063,81.9867,45.8908,37.7794,107.5841,-0.3334,-83.5241,-70.8903
23.9055,1.5342,53.1263,-71.1280,94.4826,-13.2458,25.4367,-24.2260,93.4782,127.5157,50.3762,2.5927,90.3151,67.5108,74.0893,100.7948,1.2077,-43.7208,-65.3722
36.7360,-1.2687,10.0321,-48.8894,50.8731,5.4212,12.1279,-2.6830,53.2821,64.6218,54.1669,36.7121,63.1727,90.0777,88.7424,78.9750,6.1774,-54.4994,-51.7939
34.6425,-19.1681,-39.6417,-47.8746,-8.5253,1.1113,-2.9834,28.9998,52.4272,30.9541,42.6811,48.8326,15.5350,105.7726,90.3218,72.9044,2.1327,-76.7556,-17.1148
27.6164,-45.9696,-46.2186,-49.4437,-34.7369,10.0851,12.8828,52.8711,124.1867,20.6540,28.6835,29.9524,-31.1146,110.2919,85.7777,72.7642,5.4690,-75.7470,2.5966
24.3821,-42.4795,-31.7806,-39.6526,-36.8936,3.0742,14.9646,37.9927,152.7340,11.4459,27.2054,23.0245,-35.5470,106.6073,58.9685,65.2191,16.3630,-96.4572,-12.7665
13.9906,-16.5199,-31.3399,-31.7518,-52.5248,-39.9706,-24.3661,12.4901,82.6550,16.6606,24.8162,33.9870,-30.4625,81.8071,42.6562,61.2220,2.5284,-125.0689,-20.4710
-1.9795,-10.5256,-34.1049,-30.0848,-74.1601,-72.5544,-39.4222,15.0369,32.7491,29.7309,10.2947,28.9258,-58.4068,48.4955,66.0301,66.3801,-30.1871,-100.4808,4.9696
3.0818,-15.9194,-35.3051,-29.0360,-58.8842,-61.1273,13.7315,30.2806,41.7198,18.7779,7.8994,21.9876,-52.1130,56.9745,91.7561,69.2234,-38.1243,-51.5137,28.1724
27.1318,-7.8904,-56.9814,-24.9083,-20.8703,-21.5714,80.4155,28.9724,13.9492,-27.7009,21.9696,44.8052,24.1451,104.4481,96.9024,53.7840,-15.5539,-22.5184,24.1731
41.4156,3.9462,-72.8742,-0.1139,-6.8876,20.0458,99.9551,2.1492,-40.3765,-92.8723,26.8778,70.6486,70.9137,122.9042,91.9712,14.2352,13.3024,6.4882,0.9763
52.5690,20.7900,-39.7335,47.2791,0.0961,31.8597,74.4693,-44.8184,-29.3844,-131.9533,34.7059,69.7557,40.8797,92.8975,62.9820,-21.7462,37.8127,20.3644,-31.1419
72.2123,43.2649,-2.0230,69.3785,23.5853,5.0920,36.4874,-75.8484,23.6432,-105.0154,60.2282,59.4203,5.6636,61.0575,24.2351,-17.6909,43.5197,-11.6816,-47.4250
67.7656,36.7918,-6.5458,44.0952,25.0752,-9.9537,9.0230,-60.1466,41.8105,-49.6936,62.3629,49.7712,-6.5198,46.3617,29.6631,6.6827,26.0622,-30.1617,-36.9413
37.7171,10.1638,7.9865,28.5417,4.0338,10.1163,-12.9482,-42.6123,20.8804,-42.0563,33.6862,36.8176,-16.7721,35.8195,57.6295,5.4731,25.5375,12.2487,-43.5980
42.7861,21.6967,66.1772,55.2562,15.0934,6.7658,-47.2066,-76.7808,-5.3025,-73.2807,37.5694,40.2032,-14.9383,38.9079,46.4457,-6.4754,60.4470,49.0402,-79.8455
90.8951,54.5187,67.4630,71.2801,35.3993,-42.7440,-80.1004,-117.2736,4.7910,-76.1767,81.1151,65.5643,-19.5362,63.8761,29.8902,14.0069,79.3540,22.0552,-81.5803
113.8465,47.1507,-7.2906,43.9144,5.9330,-83.8353,-78.2513,-97.3059,66.5262,-43.7735,99.8020,79.9425,-59.4791,88.2773,58.2433,55.9220,51.1973,-36.6162,-36.0485
85.2521,23.9767,-36.0049,9.8289,-30.8001,-101.3815,-50.0707,-47.3836,106.8292,-5.4522,80.2387,65.9515,-79.6553,87.8610,81.9191,83.4818,11.2643,-82.5080,-10.0551
39.1204,27.1057,3.1603,-12.9581,-23.6365,-123.3469,-37.0026,-29.6566,78.8258,47.9291,54.2770,36.9137,-46.8847,51.7232,66.0052,93.7674,-19.6870,-102.3059,-19.3103
-5.1716,18.8896,3.4554,-45.9642,-24.0574,-137.4006,-45.5139,-39.1565,79.6040,115.2539,23.0296,5.2238,-31.0979,-7.3732,69.0562,99.3474,-49.8999,-99.4753,-32.8113
-34.3585,-15.4619,-34.7392,-78.3904,-52.8854,-126.7356,-43.1411,-46.2353,157.6403,142.2716,-5.1020,-11.7617,-40.8143,-33.0901,107.8876,102.9944,-55.0477,-88.3141,-61.3369
-16.5553,-17.2220,-15.8372,-69.6937,-32.7542,-97.8504,-18.6311,-49.2922,181.3497,96.8015,9.6034,7.1195,5.2952,14.6895,114.1713,96.5178,-10.6917,-74.1592,-106.7891
39.7353,20.9043,40.0135,-22.7084,42.8826,-39.3465,-3.2345,-49.4840,87.0642,22.4710,60.7575,50.3057,83.9062,83.7499,75.7617,68.4385,44.2726,-57.1600,-127.2833
68.8653,36.2209,39.6910,8.7641,69.0987,24.8425,-22.0695,-46.5169,4.9179,-12.8661,85.6516,78.1373,91.2989,96.9194,62.9728,35.5207,54.9326,-55.8266,-118.5600
40.5438,13.7465,-5.7968,-4.5351,13.9663,24.0012,-52.6757,-50.6591,13.4386,6.8954,58.4279,70.2864,32.8882,60.5371,95.4778,32.9668,24.0495,-68.9742,-106.9801
4.1447,-9.4176,-28.5361,-23.9122,-38.5000,-13.4621,-58.3552,-51.9419,32.9314,24.2291,18.4965,43.6097,-15.7299,32.9850,108.8456,42.3463,-0.6733,-55.0204,-77.8457
-0.1928,-22.1251,-26.3687,-6.8593,-43.1872,14.8301,-40.4079,-27.7873,1.4217,-17.3427,-3.9864,21.8846,-36.6737,31.6512,57.0905,8.6963,10.5325,-5.5335,-19.1438
-4.2570,-29.9142,-24.2715,22.6136,-34.0508,81.9640,-25.6940,1.7784,-59.1561,-76.5938,-26.1012,2.6334,-34.9658,21.2556,-34.5255,-57.0744,34.2002,34.0793,31.9817
-30.1360,-20.8844,-20.8092,27.2687,-25.3010,87.9801,-26.7938,3.3087,-116.8471,-78.2876,-52.5677,-20.0269,-3.7843,-25.2669,-107.4513,-96.3239,33.2166,46.1817,45.4381
-31.2684,10.4974,-17.4224,33.2583,-2.4259,53.0837,-38.3799,-6.1901,-145.2463,-56.9556,-45.4955,-17.2926,33.3250,-80.1177,-117.9430,-103.8965,20.6924,59.3836,20.9426
8.0101,49.1543,-9.3459,76.0358,16.5573,38.2276,-51.8636,-8.7608,-140.7362,-92.0774,-1.3989,25.2798,45.1812,-103.2509,-77.9859,-113.6454,29.8957,78.0542,-37.7994
21.7298,75.3004,20.6283,124.9590,2.6586,27.7447,-65.3353,-32.3937,-140.3547,-149.3232,19.9193,57.7177,32.1259,-107.5309,-52.8491,-130.3900,45.0205,64.0653,-102.2170
-12.3176,69.2674,33.8898,132.2920,-40.9886,23.2027,-84.6832,-74.6617,-148.6897,-159.0912,-5.2840,48.5384,-1.3160,-109.0160,-73.3483,-141.7920,41.1249,-0.0152,-120.6888
-34.0094,27.5385,-29.3568,99.5823,-96.3728,52.9568,-101.8490,-85.2059,-123.1382,-149.2672,-33.1787,39.0418,-45.1341,-75.7466,-91.6399,-141.6170,37.8297,-72.9025,-84.9990
-33.2719,-15.8678,-114.4960,53.2969,-135.9849,73.2299,-90.0271,-64.8747,-75.0765,-140.7149,-45.6503,42.2359,-62.1565,-19.8019,-76.9380,-121.4731,38.0217,-109.0975,-39.2688
-56.1585,-25.3455,-116.6528,13.2545,-127.6073,47.1832,-52.3402,-56.3630,-64.4368,-84.3923,-62.3433,17.4228,-41.0986,-16.3465,-67.2182,-87.8661,8.0004,-117.3023,-12.2515
-81.7478,-11.3582,-60.4855,0.8144,-87.0140,28.0504,-33.4037,-48.0832,-91.6959,-12.8247,-71.1501,-18.7815,-25.1608,-60.8046,-78.9311,-70.0369,-33.0214,-112.3469,3.2500
-62.4542,0.4545,-29.3574,25.2290,-62.7875,39.9634,-49.6785,-14.5673,-109.0794,-22.5532,-53.7038,-15.8364,-34.6256,-81.4716,-85.2377,-80.9067,-27.6054,-70.5049,8.7971
-29.9391,15.6554,-5.5035,62.5242,-50.3643,32.2378,-67.9617,6.9350,-103.5531,-77.4187,-32.6669,0.1461,-36.0096,-87.5930,-97.4801,-100.1625,9.9175,-6.4040,-6.1701
-20.2159,46.6894,45.2497,88.4950,-20.5009,-10.1731,-68.9117,-17.1383,-90.0502,-84.5892,-20.1011,-7.7633,-18.8448,-113.8027,-135.6523,-105.5631,26.4480,10.8763,-33.0001
-1.1190,82.6955,78.0450,111.9968,2.4607,-61.3372,-64.9553,-60.7342,-71.1571,-85.7768,4.3700,-2.5761,-12.2798,-118.7932,-154.6525,-95.8180,31.3529,-12.6923,-56.4257
34.8839,107.2663,75.7118,135.4382,-0.0776,-115.5106,-58.6697,-99.4555,-40.2816,-126.8148,33.6509,28.2456,-13.7640,-91.5107,-120.7203,-79.1092,51.1399,0.6144,-83.4617
41.4494,109.4564,74.3388,124.1594,7.5243,-153.5462,-41.1179,-128.7461,3.3563,-119.3384,37.2483,29.3341,2.2911,-85.8386,-79.2023,-54.7771,57.4431,39.0105,-106.0739
14.4826,81.5779,60.6986,69.1487,25.8953,-135.2360,-13.0081,-122.8197,43.3367,-34.5172,18.0742,-5.3850,16.9056,-90.9806,-64.1074,-24.8946,26.6531,23.5555,-85.3004
-11.0340,38.7824,21.8315,23.6070,14.2652,-68.6500,22.4668,-69.3643,53.0996,12.3736,-1.9975,-23.0095,8.2286,-63.3134,-52.1644,-11.9225,-8.7178,-31.8475,-36.1212
-30.8896,17.4795,20.8565,20.1986,-4.3212,-10.8901,50.7637,-14.6625,23.9174,-9.8162,-15.5790,-17.1362,15.7897,-37.0157,-40.0360,-24.8793,-16.9937,-57.4616,-32.1281
-39.3743,30.3050,73.8590,28.9746,20.0209,6.3111,35.7106,-2.7989,-31.4978,-12.5928,-11.6469,-10.7560,59.1096,-41.1216,-48.2813,-34.5210,-5.2838,-50.6686,-71.4190
-10.5361,46.0794,89.8528,35.7374,49.5483,13.3868,-24.8014,-11.3670,-84.7830,-6.3742,14.6808,8.1401,72.1320,-34.8719,-59.6398,-34.2335,16.1490,-32.0942,-76.1928
27.3812,30.2179,33.2911,59.1368,18.1893,51.8407,-69.5051,-0.9433,-98.0485,-74.9992,25.1670,36.5224,20.4887,-9.3529,-59.7052,-63.4360,49.9220,7.7443,-41.2096
13.9222,-2.1603,-6.9455,83.6748,-42.0823,91.6532,-62.5871,13.7330,-82.9870,-169.6466,-11.9804,31.9017,-19.8273,-6.5281,-91.3111,-119.6941,84.4158,47.7219,-24.0384
-32.9642,1.1020,30.8736,81.0807,-46.3071,66.6147,-44.2408,-2.6386,-108.8641,-170.8913,-53.9963,-6.5930,12.7018,-34.3522,-169.5056,-142.1123,89.7140,42.5518,-26.9153
-53.1812,43.1997,84.5260,61.3097,3.5076,-2.0945,-39.3336,-36.3656,-167.3740,-85.5130,-50.6988,-29.0700,69.9638,-65.3552,-209.1499,-110.4371,52.3586,-3.2494,-27.3946
-52.8295,61.6774,71.7685,31.3104,23.9488,-42.2960,-15.1364,-51.6454,-152.2201,-2.5829,-29.2213,-21.7563,85.2082,-73.3265,-142.2962,-56.8138,-5.3527,-58.7277,-35.6674
-57.6226,39.0256,21.2976,-15.4032,0.6412,-64.1383,31.5544,-51.2369,-56.1783,54.1234,-23.4985,-14.7239,68.2172,-42.9397,-37.1259,5.5143,-49.1771,-109.1465,-41.9643
-43.7021,28.6584,23.4324,-52.1278,11.3734,-101.3482,57.2390,-49.6032,8.0354,102.0870,-7.1164,-16.9128,66.1312,9.3006,8.9364,69.9734,-59.9875,-128.4137,-26.0514
-10.4631,34.5009,70.4313,-57.4444,58.2775,-109.6833,46.8500,-39.8215,22.3968,121.9252,23.5503,-15.5980,79.7643,47.8829,8.0094,102.4639,-37.0574,-102.6496,-19.0043
-5.8347,9.1165,69.8945,-56.7791,47.6365,-67.5617,14.7759,-30.4443,60.9551,99.9377,21.0274,-13.2617,64.4551,58.3433,9.5323,88.0278,-0.8941,-80.2058,-43.1151
-30.6644,-29.4377,14.2889,-63.4180,-18.2712,-33.7172,-19.9150,-40.1403,107.4515,75.9333,-11.3175,-17.8078,13.6896,44.5830,7.9385,59.1056,11.6812,-100.4004,-55.5221
-46.9900,-40.0427,-28.3333,-67.0064,-50.1995,-24.5782,-19.3125,-50.1230,101.1984,80.4091,-30.0833,-25.3438,-22.1437,26.5750,5.9097,47.0359,-13.3514,-126.8833,-26.9938
-62.8762,-52.0300,-58.9962,-78.3149,-62.0181,1.9955,15.9588,-34.7501,62.7282,84.7326,-46.8818,-29.1232,-25.6979,31.2114,27.3311,43.7543,-45.0997,-130.2435,11.0033
-86.2592,-79.3642,-101.6650,-92.9761,-102.0850,44.1806,13.6172,2.3692,22.8507,63.8873,-72.9672,-21.7741,-25.1692,40.6542,39.5532,24.8292,-50.4001,-134.4285,23.9493
-78.1697,-73.3897,-105.3391,-81.1441,-102.1864,72.2174,-36.2151,53.8837,-26.5913,47.3397,-62.7361,-2.4711,-10.3946,22.2353,9.3557,-2.7009,-35.8520,-136.8520,13.4258
-41.9733,-36.9297,-51.3225,-57.8865,-29.5394,78.9812,-42.7913,92.7385,-60.0709,60.3699,-19.9672,7.5197,31.6906,4.2922,-15.4788,-4.8660,-28.8727,-109.5582,5.6242
-31.5232,-20.5896,-16.3787,-52.0800,9.7675,53.4946,8.6047,70.8358,-44.6475,74.2529,-9.7650,-6.0658,43.3218,8.4228,-0.2311,15.8507,-40.6350,-76.9964,17.4182
-39.3333,-13.1427,-32.9312,-38.5856,-21.3389,-4.2453,38.5507,11.1662,-7.1090,58.8661,-24.4327,-17.1865,-0.7436,-6.7094,19.8777,22.3378,-58.8446,-69.0574,29.0601
-21.4516,11.5811,-51.2375,-7.1217,-36.6485,-54.9606,38.4536,-8.0119,18.7580,30.9379,-12.1999,-5.6272,-31.0263,-41.5580,29.2725,14.6677,-65.5498,-52.8650,24.2653
-0.8324,19.4208,-57.2210,4.5333,-25.6018,-66.0035,45.5678,14.4607,33.8505,14.8799,0.8376,1.3484,-29.1288,-52.5220,37.3065,12.0638,-59.1620,-8.5020,29.5998
-14.0914,-9.4761,-71.3968,-3.1210,-43.0199,-33.3616,43.2071,35.7872,44.9050,7.3055,-22.5491,-16.8845,-54.9657,-57.9411,29.0347,-2.7226,-53.9817,23.7054,56.4573
-31.6697,-39.6945,-75.1669,-3.4312,-59.1852,26.0551,32.8688,66.7715,62.3340,7.8457,-42.2893,-36.5990,-94.5563,-74.9796,14.4649,-26.4235,-55.9360,24.1255,72.9089
-20.6429,-46.6345,-51.4278,-12.1074,-28.8668,58.1069,42.3096,98.5365,84.3062,33.6777,-25.4074,-39.2630,-87.8349,-57.5361,22.8882,-11.4154,-56.8657,14.9194,74.0945
-0.7612,-37.8792,-25.9308,-36.1008,8.2567,33.3188,38.9405,85.3830,73.1248,76.4512,-2.0698,-35.1819,-61.0751,-11.5515,33.7678,34.7240,-55.1782,4.2371,86.0415
-0.1233,-32.3358,-15.3206,-47.0826,11.4355,15.3917,13.2883,62.0266,18.7866,94.1258,-0.8041,-31.6712,-57.4337,10.3654,33.9607,52.9214,-57.9151,-2.5090,102.7147
-16.4960,-45.1285,-6.7543,-46.3115,1.4681,49.7732,31.1211,83.9461,-20.0193,74.1391,-15.6387,-30.0130,-50.7062,23.5266,53.8563,42.8847,-62.0186,12.3056,104.2713
-25.7239,-57.8024,3.2480,-49.8761,8.2686,74.6104,83.0773,104.5389,2.6061,56.5988,-24.4860,-34.7227,-25.3906,39.8058,74.9490,40.5259,-57.3742,35.4251,91.2396
-15.1737,-42.1886,7.1272,-46.9810,34.5659,50.4129,99.4082,82.5815,59.6792,68.4589,-12.0479,-39.8769,-1.2417,17.9612,62.6717,42.3259,-49.0602,38.2396,61.9122
-11.6962,-19.8112,14.5559,-42.4788,61.5979,30.0522,110.3631,60.4116,88.4612,90.4005,0.7567,-40.4407,27.3043,-16.8752,62.3837,42.5821,-55.4967,30.0940,24.2047
-38.5629,-22.8838,39.2926,-56.0588,72.4341,43.9194,152.1730,52.8033,54.9156,107.8058,-14.3436,-48.2909,59.3089,-7.6231,97.0929,53.0900,-77.2432,30.4829,11.7379
-61.6736,-38.0771,60.9845,-72.5400,71.9818,68.4765,156.5726,49.0374,-0.2762,122.9748,-34.2656,-60.7162,63.1573,15.3821,105.5050,60.5967,-87.4011,32.8524,31.6751
-45.3646,-47.9648,42.8810,-68.9000,60.9622,91.7989,108.3959,82.5473,-12.1400,110.5438,-26.5293,-51.3182,38.8996,20.4014,79.6531,47.9488,-70.1534,33.0548,53.5393
-13.2798,-49.0579,0.6868,-43.6452,33.0123,102.3380,81.6198,138.0869,2.7770,50.8255,-7.7583,-20.2070,13.9335,24.0844,69.0945,23.5803,-46.2808,41.8275,61.2860
4.7260,-27.8928,-0.6371,-2.0657,23.1389,86.3411,76.0968,138.2680,-7.2016,-3.4630,3.1198,-3.3262,-2.7082,2.0148,62.6320,-2.7796,-35.8846,69.5854,52.8433
10.7579,0.0164,54.5665,26.4472,63.5534,70.1749,50.7470,93.3492,-26.8564,4.9846,10.3175,-17.9594,-0.8407,-49.5419,40.7107,-18.0683,-27.2624,122.6877,30.4645
6.0468,-4.9313,100.1072,12.3287,102.0585,76.3495,27.6254,75.6934,-45.0586,38.7923,3.3193,-42.3250,18.1759,-57.9758,26.8926,-10.6511,-11.2362,181.5819,31.4161
0.1116,-26.2706,78.8533,-10.1413,83.9867,78.7442,17.3390,85.1568,-87.9172,36.2548,-16.2882,-50.6635,9.6411,-22.6345,9.0889,-3.8049,-5.6754,198.6934,88.9447
17.7462,-26.3838,10.7197,-5.2460,46.9920,63.5189,2.9604,91.9309,-100.9143,18.3875,-13.1199,-40.0173,-39.7555,-11.7426,-21.4287,-10.2215,-18.4894,158.3777,156.7435
41.8536,-24.6834,-40.3757,-9.5649,32.0054,46.2062,2.8578,93.0009,-20.6177,31.7372,11.5283,-24.0725,-69.2141,-6.3408,-8.0805,6.5637,-28.8852,95.9692,156.5513
30.5015,-34.9181,-38.5195,-40.6126,19.1397,21.0252,9.9406,67.8771,54.7099,59.6005,15.5199,-13.4541,-44.5918,23.9613,47.3705,46.6187,-23.7405,47.6940,88.1298
4.7530,-26.2837,-11.8347,-50.3453,9.5621,-8.3760,-6.1513,20.3319,18.9960,60.2911,1.7380,-6.4091,-1.4585,31.4866,60.6694,54.1307,-12.5418,35.4104,30.1779
16.2210,-4.0224,-1.3260,-26.1477,34.8214,2.0453,-5.0241,15.4482,-53.1331,27.8660,6.7523,0.8704,30.1303,22.4915,24.1799,24.4056,0.1382,69.2538,39.4509
54.2972,0.5960,12.9053,0.7627,81.7859,57.4386,30.5352,65.6924,-81.9161,-15.4373,28.8866,5.6745,45.0677,47.2320,-5.9629,0.3345,20.5829,125.1337,84.8183
80.2512,7.2151,67.2916,31.4379,119.7659,97.6657,24.0699,99.8541,-116.0967,-43.9488,48.6381,6.9147,40.5195,60.4506,-29.7510,-15.2764,43.3213,171.0460,101.9805
94.1247,38.0205,124.4343,68.2443,151.9266,91.5459,-22.3274,88.8437,-168.7318,-47.0660,65.9871,8.0830,34.0836,18.0637,-53.1911,-33.3295,50.8943,208.2351,87.1133
100.9791,59.3870,127.1629,76.9612,175.6757,68.1313,-18.0938,71.3066,-168.0225,-28.3211,74.9078,4.8005,42.5930,-24.1805,-44.5857,-34.1054,36.2096,235.8854,79.4292
85.4433,42.8336,102.6391,45.3932,172.6895,52.7978,21.6378,74.1479,-97.9476,16.1816,62.4919,-15.5093,40.5374,-36.3565,-11.1660,-8.6926,10.1362,234.5634,85.3329
56.8658,8.6702,112.8683,9.7094,155.7363,49.2957,32.8540,96.5607,-13.0977,70.2006,42.0178,-48.5122,9.0514,-38.7761,8.7171,23.0381,-7.6085,213.9531,89.5887
48.3399,-10.6017,151.7615,5.5845,149.8513,59.6379,43.6410,123.8970,38.7702,77.2010,38.5793,-64.3094,-17.3427,-16.9523,9.9966,39.1088,-3.2674,196.4156,88.7492
58.2084,-6.5325,167.5519,22.7006,147.9463,71.8095,68.1245,134.6052,47.2502,39.6765,50.5938,-49.0892,-10.7294,18.9628,8.6957,35.8876,10.1414,168.7376,73.9764
52.5740,-3.5487,140.4844,13.4396,134.5582,69.9270,71.4762,133.3548,53.7838,47.1879,54.3155,-33.3635,5.3881,20.4370,25.8081,39.6460,-1.1061,119.9692,48.8988
23.6113,-24.9244,94.2028,-30.2191,110.5330,67.9573,86.6905,142.7021,97.9908,104.9794,37.7685,-41.7359,5.8122,7.4365,66.8550,63.6666,-39.1404,70.1307,42.4481
-3.2557,-47.3819,62.4466,-51.2588,78.6988,75.7046,131.8483,149.9327,140.5463,110.6037,15.4358,-50.5854,0.4555,18.7399,89.1260,70.5673,-59.6019,30.3746,43.5817
-10.0611,-36.7456,63.1469,-30.7022,53.6873,61.4954,125.4416,123.8475,130.9728,67.9593,10.0717,-37.9940,4.1524,20.1023,72.0156,50.7565,-43.9748,5.5285,11.8142
-0.4335,-6.3258,83.6968,-15.4146,58.8977,17.7074,54.0307,73.4048,86.3333,75.1896,24.3762,-22.4600,7.2144,-8.2575,64.7821,50.1985,-32.5669,10.0036,-24.3336
9.3312,11.3591,84.0997,-12.5898,67.5064,-5.2007,0.0137,34.1895,28.8147,103.2834,33.6243,-16.8418,-10.7910,-31.2147,74.0463,57.8133,-45.3241,25.2472,-11.8360
2.0075,6.3137,42.5185,3.3681,22.9337,8.8192,-35.6531,20.2721,-32.6110,62.1459,14.8104,-8.5131,-47.2473,-38.6871,47.0689,22.7533,-43.4773,18.1039,18.2195
-12.8519,-14.6216,1.8584,13.0805,-43.1388,19.3694,-86.3519,26.5274,-60.4286,-5.2854,-15.3841,-0.0019,-71.5630,-33.9057,-0.6356,-19.7797,-6.8920,18.0599,23.0873
-2.9698,-28.6745,18.2392,9.8599,-37.7756,25.1231,-101.5950,49.7422,-55.0427,-25.8567,-18.1297,-5.7278,-66.7789,-10.3429,-24.3668,-21.1534,28.9380,66.4137,36.3771
28.0535,-15.4303,63.7972,26.8788,23.8854,46.7829,-77.4936,73.4019,-70.2856,-23.1353,6.1683,-15.7489,-57.0456,-0.9869,-47.5702,-20.0254,35.6901,114.6255,73.0115
41.5951,9.1087,65.3016,47.2458,38.3799,42.5430,-99.1203,60.6573,-92.7749,-16.2463,24.0166,-7.8736,-64.7679,-29.8728,-67.3349,-31.9966,25.7050,92.4832,71.2167
34.7515,24.1463,25.7366,34.0341,-1.6921,-18.8353,-155.8283,6.4846,-66.4885,7.6184,31.4353,20.3972,-63.9225,-51.1246,-31.5730,-13.4140,19.0078,25.1838,2.6958
25.9099,35.6028,5.8593,12.4939,-22.8349,-79.1282,-155.9544,-41.5706,-25.4620,21.3783,36.7317,44.9283,-23.8616,-39.6222,21.0506,18.0393,19.5772,-20.2117,-73.0024
-0.7247,37.3283,20.4334,2.5644,-20.1633,-88.3329,-102.3721,-56.0140,-22.3441,17.2632,18.7143,35.5578,24.3959,-28.8050,17.0438,18.9412,17.1316,-38.3287,-98.8202
-40.2952,17.1522,35.8975,-13.6505,-26.3821,-70.3448,-43.0177,-52.7758,-12.2977,27.6013,-16.0609,2.1964,31.9069,-21.5975,3.8716,17.6469,-0.0335,-53.7401,-82.0335
-41.7470,1.4465,19.0493,-22.8874,-28.1114,-55.9615,27.5713,-31.2567,37.0651,33.3664,-18.7414,-6.8297,15.4177,-2.0399,44.8506,34.8013,-27.1260,-56.7761,-53.7235
-14.1159,10.3111,-34.9416,-15.2483,-23.1500,-55.7547,81.6126,0.4984,54.2045,14.0357,1.0098,14.2886,19.4412,0.3022,85.2332,36.4494,-48.9682,-39.2589,-27.6051
-24.5984,17.7527,-76.9883,-20.6601,-37.1642,-68.2993,59.6497,-14.2848,0.7362,16.1801,-13.2039,18.0777,32.4898,-32.4120,72.4833,18.3075,-59.4603,-29.2908,-17.1823
-65.2737,7.4589,-63.9420,-32.4412,-59.3657,-65.4576,5.2977,-78.1445,-37.3201,40.8883,-47.7032,-1.8581,20.3043,-61.6935,57.7367,5.7006,-58.6467,-39.3415,-41.4373
-78.6653,-11.7219,-46.9387,-29.6362,-73.9869,-38.5311,1.8637,-110.9171,11.4649,37.0151,-57.3334,-8.5153,-8.6722,-58.3610,91.7112,4.6692,-50.3497,-42.3644,-80.0122
-72.6490,-38.2172,-72.9617,-44.8063,-86.0527,-22.4052,19.8623,-98.7000,82.8220,36.9882,-58.2026,-9.1972,-28.5024,-40.0616,135.3126,18.6852,-45.7203,-23.1203,-80.4167
-67.9572,-50.6898,-68.7640,-70.5495,-59.6335,-16.3587,3.2972,-98.1545,77.1925,76.9037,-61.1550,-28.5578,-23.6461,-34.9126,122.6838,34.2236,-40.7062,14.2172,-46.0947
-37.5451,-16.1815,16.1199,-38.0232,25.9116,8.8982,-15.3844,-104.5802,0.9508,75.5790,-31.8862,-33.4048,17.4420,-42.8336,67.2267,16.1560,-13.2887,71.0234,-44.1662
8.2460,36.1110,92.9378,31.2804,86.5886,29.6183,-17.3439,-99.2070,-66.3872,0.7730,16.7789,5.8563,70.2423,-37.6413,48.0074,-19.0049,28.8721,112.4339,-100.0249
13.1392,49.4643,92.8089,47.3671,64.1622,22.5590,-40.2853,-119.1646,-77.1312,-32.6718,31.2309,42.6227,81.4778,-20.8056,76.0321,-22.3341,42.5660,71.1719,-161.0032
-20.0254,35.2961,55.5976,14.6332,25.9093,12.0257,-60.6768,-155.8481,-41.0992,24.0929,13.3240,31.7963,55.9119,-32.2207,76.6940,-6.3176,11.6520,-34.5417,-172.6456
-41.3506,34.0501,13.1871,-5.6284,14.2826,-5.8237,-28.3860,-151.1090,-9.0846,68.6352,-2.1313,7.3989,45.7224,-62.4929,40.5800,-3.8508,-29.7867,-102.3903,-135.4388
-44.6327,31.2994,-33.8115,-14.7460,-17.9836,-37.7134,6.0748,-107.9772,-20.6782,49.2172,-12.7106,12.8426,45.7879,-49.0566,36.0571,1.3804,-47.9160,-111.0950,-87.8574
-58.6216,-5.6075,-75.9228,-43.8155,-83.3035,-36.8121,-17.6894,-54.5908,-32.7999,37.6324,-31.7477,25.1508,13.0939,-2.4815,62.1483,20.0497,-50.8150,-134.5322,-53.7857
-88.3848,-58.3629,-138.3598,-86.4969,-150.9693,-12.9955,-52.4942,-2.2540,10.4708,63.6627,-63.4922,12.9095,-39.4023,3.0929,62.9253,26.7732,-63.0044,-183.1304,-21.1704
-106.7240,-80.8576,-224.5089,-106.9029,-205.2961,-36.3494,-51.3878,-0.5070,59.2292,60.0455,-95.7046,-1.6929,-68.3275,-24.4679,38.6119,12.6790,-71.2404,-191.8649,12.6314
-90.4705,-64.0124,-233.3291,-83.2984,-206.0401,-76.5287,-47.4161,-63.4086,58.1989,13.1312,-98.6167,-2.6555,-70.0858,-24.0797,7.3037,-4.1378,-42.9693,-146.0813,21.1754
-57.6408,-36.2444,-128.8265,-38.4972,-136.9689,-68.9173,-67.7048,-107.9673,50.7286,-3.2110,-69.6017,-13.8795,-70.2173,-22.8492,-32.2875,-13.3974,-0.5987,-88.6788,0.6275
-39.3562,-7.8194,-51.3281,3.4900,-85.8446,-57.9075,-102.1852,-106.9050,40.2069,3.6430,-44.5403,-21.6747,-81.4482,-76.5115,-53.1297,-31.7298,8.2525,-45.1868,-26.4990
-24.6501,29.1983,-67.0130,50.9677,-91.9308,-67.2946,-124.7507,-113.2934,-25.1093,-47.3483,-31.0043,9.5146,-77.5048,-126.7865,-52.6446,-73.6451,5.6654,-20.5095,-50.1564
5.5621,50.9835,-49.2371,78.8273,-51.5845,-34.8435,-84.4771,-104.4189,-73.3249,-105.9306,-7.0154,32.9074,-19.9523,-82.2359,-84.7044,-96.6373,36.0909,-11.7400,-52.3092
33.6965,35.3901,45.9125,54.3400,59.3572,28.7264,15.6349,-49.9102,-20.0453,-79.8568,19.9031,1.2952,58.4917,17.9449,-127.4571,-60.4741,73.1161,7.5874,-22.1875
51.5159,20.2990,90.7264,41.4498,114.4141,62.9678,75.7472,-25.1596,29.1703,-61.7130,34.8315,-14.2257,78.5023,61.6457,-95.4561,-31.2420,81.3821,56.7914,-9.7378
68.2519,38.7158,54.5589,84.2040,91.5643,75.0285,61.6776,-51.5937,-18.3693,-120.4609,45.3503,25.1343,54.6970,30.5711,-28.8732,-63.3410,73.3389,104.0305,-36.2713
71.2496,64.2426,49.8492,100.3967,101.4345,61.6679,55.2271,-47.8587,-75.8019,-120.6005,51.1083,32.4438,65.4101,-5.6101,-40.2673,-78.3699,54.5881,111.0823,-27.4107
77.1091,84.7119,92.7823,95.4565,140.2959,20.4119,60.3348,-21.3651,-102.5134,-87.2354,58.0354,7.5555,86.5334,-6.6024,-120.4224,-63.7124,51.1009,101.2816,23.2148
132.9245,115.7807,99.7585,193.8306,115.0498,45.2429,-0.0500,-36.2920,-161.5224,-250.7187,88.2156,58.6462,49.7139,17.6275,-201.7965,-143.8710,131.2384,116.8106,9.9733
190.2696,128.7363,78.2868,315.5081,59.8754,147.1926,-86.2407,-47.9186,-218.4756,-481.8409,116.2299,140.5269,9.3888,45.0605,-260.3096,-272.1375,245.8501,137.3925,-61.4212
153.1759,95.9678,80.3142,251.3246,63.2146,162.3875,-102.2518,-6.6760,-205.3391,-398.1563,94.9456,119.6304,43.8120,41.6458,-237.8779,-239.2088,229.5037,122.3874,-73.7059
67.2926,64.2643,63.8124,83.8924,82.1982,49.5298,-83.2482,23.3267,-165.0474,-108.2200,53.0766,51.1544,90.6897,-16.6183,-111.3879,-87.4718,91.8737,93.4081,-40.6487
45.3624,76.4082,0.6948,59.6748,39.7558,-35.7630,-108.4228,-4.6666,-139.7243,-45.2570,43.1672,56.0944,64.8300,-95.6260,-32.2866,-58.1554,30.9747,86.1422,-61.3287
74.6137,103.8949,-18.7276,157.1244,-12.1749,-31.6169,-143.2092,-38.5007,-123.1335,-201.4982,53.1688,92.2066,16.5446,-123.3505,-102.4956,-149.2884,93.4251,84.8604,-109.3108
91.7698,111.3824,52.3255,194.9733,12.4643,-1.7141,-110.5559,-29.5109,-132.6261,-268.4399,65.9717,93.7399,30.1074,-64.7550,-156.4953,-167.2438,137.5022,80.0984,-112.0179
99.9189,99.2282,112.1112,154.8492,75.4221,28.0011,-25.1883,-3.2244,-141.4373,-210.7941,87.9707,92.6221,76.3984,26.8575,-62.0148,-92.5161,109.3221,87.3237,-94.5363
91.9071,78.3615,72.6036,113.5327,72.8312,32.8218,20.6441,-14.3022,-90.7087,-154.4551,86.6723,90.8656,70.2576,44.3237,31.3301,-47.5247,66.4318,72.3952,-89.1151
43.1971,56.4389,-25.8843,86.0507,-10.2579,-8.6841,-17.0063,-56.9724,-30.6165,-112.6463,36.7053,59.1698,0.7751,-32.6363,-6.0232,-64.0775,28.5777,-0.6047,-66.6140
-0.7045,30.5056,-99.1015,69.6997,-93.2459,-24.8651,-71.0715,-60.0820,-21.4065,-100.2553,-12.3406,32.3062,-67.8025,-83.0215,-77.0487,-93.3747,9.6342,-68.4840,-22.9576
3.1966,-4.2857,-105.1805,68.7148,-117.1871,21.6431,-75.1482,-9.6758,1.6571,-142.6244,-21.9051,29.7900,-91.7500,-37.7337,-106.3532,-107.1743,43.2804,-64.9124,4.1577
10.9303,-31.4517,-72.9587,55.2467,-100.1316,41.3722,-58.8548,28.1831,65.6444,-147.2129,-23.2688,9.7621,-88.5452,1.5455,-128.3868,-94.9843,79.0346,-32.3239,16.0838
-7.7293,-40.0350,-76.4751,4.0237,-79.4384,-2.2965,-42.9278,44.8863,95.6815,-45.2763,-34.4093,-26.2949,-85.8437,-29.4255,-104.0354,-45.1779,31.4370,-17.6503,55.2463
-12.2474,-46.6680,-119.0876,-54.4028,-57.8134,-33.8854,13.0991,81.3242,93.9815,61.0775,-30.7103,-36.3037,-80.9498,-39.4769,4.2017,25.5850,-54.7203,6.7543,117.6949
9.4619,-53.2669,-117.3996,-63.3975,-28.6989,-15.2468,81.4192,104.1100,108.7086,59.0136,-13.2896,-26.4869,-62.8714,8.9634,73.5333,55.4802,-65.3917,47.6617,136.6164
11.5023,-47.1603,-58.5282,-24.9377,-4.9651,30.8241,90.9960,78.2038,93.6504,-7.6339,-15.3072,-28.8531,-33.9490,26.7858,18.5691,11.1766,-11.9487,67.5603,95.9901
-21.8725,-40.4818,-14.6680,-5.2312,9.7259,73.2850,85.3405,59.2542,24.2066,-25.3373,-42.2227,-49.3831,-2.8434,-7.9280,-46.9427,-39.4611,0.0695,70.8343,74.0328
-47.4735,-38.1456,2.0226,-19.7383,29.5907,74.2341,131.5252,71.8217,-18.4505,12.6113,-59.2486,-71.3368,17.3288,-27.6632,-29.9898,-29.5892,-41.8538,87.7028,100.8627
-35.3332,-24.4632,15.9252,-14.2719,45.2710,41.5663,169.5413,64.9825,5.9108,21.1495,-45.5647,-71.3628,13.4804,-24.1340,4.8070,-5.2876,-59.4331,102.9371,106.6743
-16.3099,-15.2041,10.3700,1.6996,38.5711,26.5120,144.6812,39.8880,53.4355,7.8976,-27.1157,-57.3795,-5.8452,-28.3362,6.0994,-6.7859,-42.8997,83.7266,75.2164
-19.9140,-25.7139,8.7772,-26.3797,37.8500,18.8230,116.8557,36.9894,96.7339,58.8906,-21.5402,-62.6031,-12.4294,-22.0273,9.7727,20.6337,-46.6660,36.1895,62.8137
-13.3972,-22.1949,53.4484,-57.0006,67.0135,-15.9896,115.0997,33.7186,130.7637,126.4451,0.1075,-68.2786,-0.5333,15.1842,29.2544,81.4794,-56.3010,-8.5995,55.8631
21.9319,0.4598,80.5644,-36.3656,74.2452,-45.0055,85.0708,-1.4849,150.1908,103.6788,38.7283,-35.2430,-0.9963,55.5033,42.2534,100.4162,-26.4245,-40.1509,11.3049
28.8774,-4.7357,32.6310,-30.3354,21.6569,-55.8202,29.2752,-39.8822,177.4161,66.7588,41.7805,-3.8020,-24.5051,66.9655,53.2069,89.5760,1.1110,-80.6571,-33.3953
-17.1623,-35.6625,-21.3467,-91.5757,-34.5395,-94.9096,13.9276,-53.4159,232.3387,130.1821,7.1502,-18.3868,-30.9112,61.1343,79.0196,123.9535,-25.1560,-148.2495,-46.9074
-51.1999,-50.5794,-46.6638,-157.0950,-53.6400,-149.5226,38.0895,-58.0888,287.4520,213.3337,-8.3846,-31.5822,-4.6670,76.3937,115.3668,183.9117,-61.8196,-222.4688,-57.7439
-40.6903,-52.7535,-87.8749,-177.8095,-66.6983,-167.9478,42.0323,-71.5775,309.7507,223.4895,2.4605,-12.6554,4.1180,109.6485,141.7289,208.3468,-65.2704,-263.0262,-60.9900
-22.6963,-52.6911,-99.6348,-170.5860,-63.7778,-162.4781,27.4669,-80.1118,307.6973,217.8549,11.4520,-9.1226,-19.4821,113.7938,141.0697,206.7169,-61.1366,-247.8764,-38.9981
-9.1884,-36.8511,-23.3644,-144.9530,-8.3980,-151.3511,45.8900,-64.2456,300.7716,222.1942,25.9891,-28.5548,-16.6235,98.2272,122.3840,203.7731,-56.7393,-194.1631,-30.3154
4.4385,-26.1411,42.8956,-115.2045,33.3913,-113.6966,75.0218,-43.9420,272.4346,180.6878,39.7690,-25.0006,16.5432,122.1574,107.7000,187.0125,-29.3119,-156.1967,-46.8969
-6.1943,-47.6469,5.5369,-110.9833,-15.7467,-67.8601,44.7694,-52.4096,206.7874,119.4163,18.4944,-4.1556,8.3549,162.5661,93.5433,154.0942,-3.2877,-173.3871,-40.9833
-34.8866,-67.9224,-65.3711,-124.9577,-86.9437,-64.7961,-11.6621,-68.3965,158.7091,115.8239,-16.2057,-4.2648,-38.5538,148.9202,64.8316,131.9390,-16.9312,-224.4074,-5.5190
-41.4119,-53.4298,-86.8205,-133.0220,-88.0755,-108.6434,-5.5951,-56.3770,184.0858,160.5097,-16.3528,-21.6959,-51.2254,105.0467,27.1786,139.4550,-51.7934,-271.3280,23.7125
-31.6059,-29.6960,-75.9848,-131.9032,-64.2231,-158.8392,28.8469,-40.4878,222.0599,182.8019,-1.3063,-31.6525,-33.3445,91.3809,-6.4703,155.3637,-65.3533,-297.3684,35.7752
-36.8761,-29.5792,-79.8374,-120.6183,-90.3602,-170.6549,5.0570,-45.7905,189.8214,145.6466,-13.1166,-24.1414,-38.1078,91.6264,-19.0507,138.9809,-48.2822,-278.5763,32.2203
-55.2636,-51.5258,-121.3463,-111.2948,-143.5906,-134.5069,-42.0988,-46.5679,122.8399,88.7934,-44.4394,-7.0946,-55.8051,73.3004,11.1116,96.9870,-32.2064,-213.7550,21.0856
-75.1293,-71.4530,-166.3276,-119.2478,-167.3855,-95.8104,-45.0517,-33.8747,81.5889,78.5600,-70.1257,-3.6483,-58.6210,43.1017,58.7693,73.7803,-47.7634,-156.8284,24.9597
-84.9916,-65.4196,-140.7082,-110.9987,-148.0249,-86.8750,-33.2639,-28.7762,57.7520,91.0040,-76.8435,-19.1444,-57.6014,11.0353,59.1259,65.0280,-63.5026,-124.2068,32.0412
-62.2846,-38.9128,-56.4033,-61.9223,-101.3422,-81.3683,-39.8269,-32.2937,50.4785,54.1967,-56.2636,-25.1085,-52.2034,-2.9814,13.7147,41.1887,-28.1894,-74.9772,10.2037
-14.8878,-16.3903,-12.9992,-21.3110,-53.5075,-64.9460,-42.0101,-47.5690,59.4320,3.7809,-19.0171,-7.4877,-33.7091,20.0574,-7.8316,25.1481,21.3358,-30.5660,-14.5726
18.0248,0.2260,-34.2825,-11.3869,-28.7272,-51.4593,-37.8654,-84.1964,32.0424,-1.8181,7.9274,14.0945,-28.9585,44.3858,5.3597,27.4439,20.2844,-38.1182,-0.8449
23.2315,18.6782,-53.8165,18.7048,-31.7773,-31.3018,-43.0750,-116.8813,-36.1599,-28.5983,8.9729,24.1042,-46.5077,25.5699,-11.1598,-5.8147,6.4740,-47.9052,19.3165
12.1440,36.1682,-32.3277,71.9690,-40.0536,-10.1432,-52.6505,-124.7696,-86.1092,-107.0677,-8.3187,22.7391,-38.1933,-20.6980,-77.9630,-77.8117,35.9897,-13.2344,-5.8688
1.4159,58.2601,26.0180,90.4427,-10.1986,-17.9727,-63.1224,-114.0695,-118.8839,-124.7221,-11.5861,16.5431,21.5055,-53.8374,-130.4861,-105.3749,64.7366,17.9663,-53.7350
16.6388,74.8894,83.4783,64.0636,63.4950,-23.9862,-55.9299,-65.6840,-142.9227,-52.0582,20.3832,16.1075,84.5326,-44.3999,-110.1356,-60.2473,50.7421,32.1892,-58.4169
46.3013,50.6027,73.5680,26.2795,103.8510,11.6488,-5.4092,14.0367,-100.7128,-4.8477,47.8737,19.2367,93.6272,7.5157,-39.9914,-8.0935,29.8439,60.6715,-11.3377
37.4011,2.1107,2.4158,-8.2256,57.3739,31.7652,45.4048,44.2119,-11.6284,-4.7913,28.2661,13.0612,54.3113,43.9845,17.0077,13.1727,13.4546,53.8586,23.9077
-3.6103,-12.1558,-35.9098,-35.4636,-4.3825,-9.9337,34.6505,7.3645,21.6721,31.9621,-1.2179,2.5590,15.6947,28.1781,40.3524,33.0297,-22.3455,-21.9864,15.5654
-13.7175,-1.3859,-13.7139,-47.9268,-10.1137,-48.7331,-9.1811,-5.4677,7.9472,86.3275,4.5858,-0.2049,-3.5661,15.0415,44.3515,62.3707,-46.4769,-74.6145,10.0057
2.5743,-11.0131,0.6916,-44.9420,-5.8437,-42.0283,-28.3520,30.3063,29.1342,78.7666,13.5604,-2.3739,-22.0270,27.1544,31.0046,66.0562,-27.1232,-50.5088,26.1549
-13.0057,-31.5697,-27.5512,-46.1487,-34.8055,-40.6647,-17.4797,43.7143,76.5689,50.1557,-13.2039,-16.7519,-31.1399,3.6101,18.7621,42.7742,-12.0286,-11.3626,23.5200
-57.1204,-49.9402,-68.7181,-83.8466,-51.6997,-62.6553,16.5264,16.7367,108.0232,87.0889,-56.9934,-46.1346,-8.1849,-43.4744,48.6799,45.1775,-36.9574,26.9164,13.8605
-76.8152,-78.9773,-86.2071,-133.3997,-28.9744,-53.5941,59.7903,-9.2733,120.2795,139.8106,-85.3076,-78.7632,15.2148,-38.4338,96.9534,72.4872,-53.5865,102.7048,44.1023
-55.3897,-94.1725,-70.3405,-113.3480,-1.7223,8.7205,81.3116,-11.7144,102.5207,97.1383,-85.5351,-88.3209,-0.5923,-9.2351,87.1736,49.5044,-26.5676,180.1177,85.2175
-27.7674,-75.7793,-59.1952,-35.2686,1.8698,75.7843,82.6088,16.1019,57.1083,-5.5517,-71.1603,-71.7312,-30.4226,-27.3205,23.9421,-28.4418,-0.0401,198.2098,98.1310
-31.2124,-61.8182,-89.2422,-3.9163,-20.6844,96.2414,69.3879,53.7988,8.6548,-41.5386,-74.0430,-60.0979,-43.8485,-71.4496,-19.6047,-76.8395,-12.8949,171.0691,111.1014
-46.4747,-55.6450,-117.2239,-11.1949,-48.2919,78.6453,18.0655,53.5916,-58.4112,-27.2917,-85.8882,-53.7135,-50.0872,-98.1862,-39.0485,-85.9000,-28.8975,144.6588,124.2230
-23.6509,-14.3958,-84.5935,36.8557,-38.4913,69.3350,-38.0183,21.6677,-152.7725,-76.3511,-62.5855,-23.2262,-40.8289,-102.1363,-82.3078,-116.7822,-2.9981,135.8661,101.1580
19.6721,37.1752,-13.6018,102.9482,7.7577,76.9364,-36.0147,17.0662,-223.3064,-152.6017,-17.4205,12.0590,-2.1984,-71.5240,-133.0527,-145.7875,36.6194,128.0451,71.7238
27.1207,44.8373,41.7359,93.7574,38.2508,71.9072,-13.2488,50.7367,-236.2209,-134.0826,2.7578,16.6814,30.2835,-21.0778,-132.2207,-111.6634,36.4140,94.3766,70.9508
18.0809,30.3523,54.9898,50.2299,40.1326,53.6331,-21.0902,80.0601,-190.5604,-60.0011,11.8558,14.1181,31.6939,-2.4889,-81.5037,-54.6490,12.4297,50.2786,57.1648
36.5869,30.0924,29.2491,42.4347,44.3670,40.8518,-18.9289,78.0110,-91.2173,-45.8413,33.7070,27.2896,37.2262,-12.1837,-44.6989,-39.4931,20.0593,40.2953,9.5574
55.4174,31.8852,15.0814,40.7742,58.1335,24.7576,-7.1016,49.8074,-7.7111,-61.3435,44.8499,30.5773,65.4275,-5.2089,-55.9447,-40.4179,57.4205,54.0032,-29.5554
51.1566,28.9530,48.7028,17.4048,71.0275,-1.5143,-46.0977,16.1779,-7.3574,-26.3520,43.2747,19.3540,80.0808,15.3349,-74.0636,-14.3659,78.2248,49.1639,-41.8970
50.8979,27.1740,68.9544,-0.0623,71.6633,-23.0870,-91.5161,-7.0043,-23.0246,20.0085,48.5891,16.1038,55.5245,25.7983,-54.8061,19.1811,68.2671,34.8850,-33.8330
52.8038,18.5244,28.5592,-4.2198,45.7868,-40.8014,-63.9007,-13.8686,10.3246,22.4779,43.4182,12.1794,10.9385,29.3901,-25.7390,32.7228,41.6226,27.8629,4.8307
40.0008,7.8736,-13.3294,-15.0180,15.0382,-60.9938,-6.5033,15.6150,28.9085,25.6575,26.1546,-2.1097,-20.1362,35.1055,-25.0545,43.3238,1.8251,0.4578,69.4639
28.7779,-3.5122,-29.2626,-45.1791,9.3765,-62.7716,24.6407,90.8155,16.1974,71.0992,22.8700,-12.4355,-26.0622,50.1333,-26.4613,71.9243,-43.2480,-48.2125,132.6208
5.3597,-40.6115,-57.2689,-92.1979,-1.3941,-30.8514,56.5180,163.9187,46.3558,117.9226,5.7252,-28.3864,-21.0475,63.7971,-3.8640,94.5347,-71.9293,-71.9443,163.9018
-56.6378,-85.7416,-63.7935,-124.9016,-32.4542,9.6951,95.3526,187.9658,95.9239,135.1381,-47.7768,-63.7151,-12.1200,39.2894,14.8006,82.6126,-84.1624,-66.5951,138.2497
-103.6157,-84.9732,-18.4775,-118.9785,-36.1560,19.3092,107.0388,172.5553,97.3415,149.9019,-75.1221,-86.3085,-0.4124,-11.3159,17.5316,64.8944,-99.7353,-76.9407,83.6151
-84.2082,-59.1472,-10.8746,-102.0907,-25.2920,-6.2446,88.2156,133.7092,98.4886,160.4151,-49.7984,-71.5176,-14.7206,-20.1876,30.7222,74.9561,-108.4847,-103.8996,66.4039
-41.5557,-64.6773,-68.6916,-95.7188,-50.7146,-23.5972,55.2838,86.9496,145.2198,125.7314,-28.9977,-44.3731,-59.2627,17.7128,53.9195,83.6592,-79.4057,-94.8719,76.7823
-10.6781,-71.2720,-74.8619,-75.7815,-54.3433,-9.3760,27.4920,65.1216,177.1337,68.1455,-15.8707,-24.4380,-67.3319,41.9890,62.1901,68.1735,-25.4536,-40.6875,49.1397
24.6328,-30.4700,-6.6394,-35.3739,10.4871,-4.7251,14.1903,48.1702,149.8120,42.6312,23.6460,-4.7220,-17.5939,33.5898,48.1138,52.9323,10.2726,1.4560,-6.9461
46.4253,13.7392,25.2490,5.6432,44.3639,-19.3122,-14.3753,-7.5176,86.7767,15.9792,45.3680,10.9600,6.0348,10.8971,12.6550,26.4269,29.0677,15.5602,-34.6082
33.8561,7.2795,3.6998,39.0744,3.2527,10.4159,-58.0274,-46.5347,18.8355,-53.7406,14.9906,10.6941,-30.3244,-10.1837,-32.2794,-34.6212,54.3292,48.7824,-21.4404
14.3465,-24.0501,-8.2139,44.3947,-22.7335,73.8433,-57.9985,-10.6762,-24.3210,-90.0252,-16.9033,-3.6034,-58.6818,-7.3936,-55.4509,-71.3424,59.6931,80.4531,22.1371
-9.2247,-41.6958,-28.5781,3.4808,-32.2073,69.2531,-30.0769,27.3392,-31.5347,-33.0645,-32.8511,-22.2120,-62.2040,3.7614,-47.6111,-40.4925,15.5619,38.0103,73.9592
-48.2670,-49.5474,-81.4206,-39.7955,-84.6577,3.3733,-44.2779,17.5606,-25.6017,31.1480,-61.0003,-34.8810,-84.6925,-25.4841,-28.2006,-8.3021,-36.7639,-22.6943,94.5831
-54.4710,-51.8174,-106.7022,-35.0413,-108.8685,-14.0634,-59.3680,24.8953,-14.1142,22.8277,-71.3337,-33.9648,-103.9417,-65.9522,-7.5664,-18.7826,-43.5101,14.1430,88.3523
-4.6081,-37.9757,-80.0715,-2.9904,-49.2927,20.8713,-20.3440,53.2789,6.1854,-21.3214,-34.2740,-19.5323,-75.6005,-48.3083,-0.0076,-31.3716,-11.3416,93.1735,84.4560
37.0467,-14.2430,-53.3993,17.2575,-1.4396,28.2626,-4.0214,39.2588,12.0523,-52.0142,3.8190,2.3167,-30.7287,-5.2737,-22.3306,-31.9410,26.4456,91.7468,61.8931
38.9975,4.1301,-30.1909,25.2569,-1.8813,7.9902,-50.2766,13.2811,-7.2528,-58.7467,15.1385,19.6207,-6.1863,-2.3040,-46.1668,-35.1544,50.5442,54.3487,11.2155
41.0502,21.8736,33.4881,38.9857,28.7157,8.4069,-73.8379,20.9997,-41.8576,-50.9401,28.9316,23.7678,17.3619,-14.1233,-44.5415,-33.5458,59.2622,72.3142,-24.9976
54.0608,46.2575,110.4242,74.9628,81.1986,37.3703,-52.0475,16.7971,-95.5657,-77.3180,46.4454,26.1640,47.4551,-6.4093,-55.2709,-48.9590,73.0970,107.4070,-42.3682
59.3505,60.4776,127.8699,122.7851,84.1763,80.9983,-35.0051,-4.4636,-148.4660,-154.1727,45.7949,38.4105,54.5605,0.8346,-89.9689,-100.2052,96.4283,113.4660,-54.4119
62.0686,54.4009,87.8943,139.7565,62.0750,110.9366,-5.6590,15.3042,-162.7364,-196.4223,39.3834,47.0652,34.0327,2.1863,-85.8420,-126.2113,86.2474,116.3740,-25.4991
64.1224,53.4580,51.9898,119.9747,63.6827,95.3806,49.5422,46.8554,-155.9650,-155.1038,43.9774,43.1326,17.3789,2.7483,-36.6668,-93.2829,28.0421,104.6212,31.3275
57.8741,71.6610,40.4120,104.7074,71.4004,57.2110,78.6552,28.2398,-154.9802,-101.0286,52.0254,40.5435,19.6366,-7.0843,-14.3471,-61.9302,-21.5244,46.0349,44.1239
52.1979,79.1308,35.4479,98.3576,65.1985,42.1559,72.3686,3.1712,-144.5760,-83.3786,55.3002,42.5619,23.0046,-1.5430,-31.8587,-54.4474,-27.6057,-20.3887,30.8511
45.3334,62.0653,42.5970,82.3018,48.2368,45.8852,56.5115,23.4855,-143.8950,-82.1824,48.8156,40.4363,18.3232,35.6357,-51.5430,-42.7717,-14.5153,-51.7818,42.0386
22.7357,50.9825,67.6085,79.4089,23.6911,51.0121,25.9945,48.0474,-175.5277,-95.3717,31.4499,38.8582,21.1631,43.2714,-72.6801,-50.4988,-0.2259,-63.8313,28.6787
-3.9290,51.7117,73.2833,88.5898,4.3307,57.7334,8.1261,45.2723,-171.3867,-104.0354,15.0524,37.1116,28.4118,-1.3435,-77.9559,-77.0397,1.7510,-73.3409,-22.7929
-20.2955,31.6262,30.8085,53.3670,-9.5744,45.9665,35.5931,45.7312,-95.0646,-50.9598,3.6410,22.6192,13.4206,-22.3621,-23.6546,-49.6438,-33.2839,-82.7764,-22.5741
-34.6432,-4.2658,-24.4231,-19.2729,-34.3778,5.7463,48.4740,54.1969,-31.7939,41.7666,-9.4197,5.6640,-17.0973,-1.4616,56.1698,24.4379,-81.6638,-96.3407,24.8899
-41.1607,-14.3149,-43.6266,-51.1884,-51.0731,-28.6276,7.9265,40.0990,-24.3997,86.4540,-14.1761,5.8064,-28.8578,-5.2941,93.6513,56.8065,-92.0509,-90.9401,23.7540
-30.1265,1.9379,-28.3375,-34.4324,-31.3550,-41.1636,-9.7818,12.8814,-24.2218,76.7224,-6.2355,8.5383,-16.0046,-34.0343,92.9985,44.6129,-75.1412,-44.0397,-5.4761
-28.1499,9.0805,-3.1075,-26.6852,1.9666,-42.2710,24.8429,7.6624,-31.8914,67.6795,-12.0313,-10.7432,9.3715,-41.9804,65.8599,34.2720,-65.5107,10.7127,10.3698
-49.1015,1.7183,24.0164,-29.0215,18.3094,-15.9642,38.9290,16.6438,-71.8638,61.6632,-36.4082,-37.1793,36.0388,-45.2548,7.6368,10.8004,-53.3678,32.4497,30.6834
-54.5669,2.3695,43.0436,-4.6467,18.6828,30.9415,17.0679,8.1632,-102.5148,30.9420,-40.1188,-33.3821,34.7315,-56.2625,-17.6097,-26.3752,-35.2147,28.0277,5.3949
-26.3921,19.8141,46.8368,34.5665,10.5326,37.9286,5.9697,-17.3548,-100.2568,-9.7289,-11.0778,-0.1307,0.0876,-45.3699,24.0973,-32.1037,-31.9681,14.5792,-22.5877
-3.9310,45.7283,67.4715,55.9570,15.0817,-5.6101,1.7865,-45.2802,-99.3395,-18.3593,13.3833,14.6924,-17.6367,-32.7898,34.9063,-14.2587,-34.6040,-2.3375,-26.6319
-10.4564,65.1459,116.4107,55.5070,44.1547,-44.1219,-12.5964,-74.5708,-104.9786,15.2069,13.3217,-8.7902,-2.3246,-51.8146,-18.5566,-6.2099,-30.6677,-12.6293,-29.3342
-20.2521,62.5136,114.6972,36.4249,45.3162,-67.4534,-19.4934,-90.8530,-95.5272,48.2950,4.9958,-23.1170,-1.3512,-58.7682,-25.7631,8.9630,-38.2220,-18.4738,-20.8327
-15.1834,42.8848,24.1258,7.7975,-11.7748,-98.6443,-15.4766,-71.8294,-73.0843,37.9870,-0.4947,1.4941,-19.5329,-28.3915,27.7889,32.7222,-51.5372,-29.8511,5.9936
-5.9042,30.9791,-38.7981,1.6660,-50.3149,-104.6909,-1.7361,-29.2293,-50.1922,-1.6621,-0.2540,27.4093,-15.5514,-9.0466,53.3120,30.0978,-45.2371,-27.5597,9.3089
4.8315,31.6206,-1.3891,25.3720,-20.1316,-51.2879,38.0950,12.9238,-46.4482,-33.9941,13.5148,35.0078,5.4494,-1.3792,73.3007,13.5926,-35.0790,6.0889,-13.6232
23.0953,28.7742,29.0232,41.2825,17.9600,17.6873,79.1053,45.1183,-76.0261,-54.9478,32.0263,47.0092,19.9496,30.2013,113.1973,8.8623,-35.3565,41.0075,-9.7483
37.8219,30.0664,13.0252,46.0376,35.3310,49.3951,72.2018,42.5690,-110.4106,-76.1621,35.7696,51.2695,41.6425,44.0105,68.0113,-15.1554,-12.5928,49.5895,9.7663
39.1767,52.6331,71.8074,76.6659,74.5535,56.3021,31.5537,-6.6698,-121.8254,-96.1371,34.5074,29.0580,71.0709,14.2806,-55.9378,-62.0588,41.6007,50.0058,-21.9459
34.9733,68.6203,179.4000,103.6158,109.9482,65.0943,-4.3836,-52.1746,-127.6782,-97.1507,43.7545,17.9871,79.7607,13.9164,-88.9638,-68.4183,76.6425,44.5114,-84.8388
20.1196,40.8433,149.5225,58.7560,66.3529,59.2401,-41.8302,-56.7013,-130.2309,-57.1416,38.2779,36.3444,60.2627,57.5762,-11.3858,-21.7073,59.0966,-2.2926,-94.9803
-16.6879,-3.4114,5.7544,-19.2385,-35.0820,15.9454,-79.5750,-55.1515,-105.0451,1.4305,0.3620,44.5904,21.6238,61.3781,48.0178,17.3520,12.0420,-74.7321,-59.6943
-48.5664,-13.8542,-48.8045,-31.8552,-100.3666,-36.3516,-88.1413,-67.1405,-69.2116,12.3100,-31.3276,33.3285,-23.4730,17.1439,62.0222,18.9183,-18.5114,-96.2697,-52.0276
-42.7439,2.0275,9.3221,15.6473,-87.2794,-39.2260,-67.3687,-60.0773,-58.1456,-32.7151,-28.0332,23.0202,-43.9403,-7.8696,44.3151,-5.1188,-6.7564,-49.5250,-61.8506
-13.6894,9.1514,55.0026,50.6171,-25.0591,17.7163,-27.4833,-24.4116,-61.0581,-70.3427,-13.1267,4.3857,-28.9937,-2.2559,-30.7410,-41.5928,23.7957,2.5075,-24.3294
15.0234,3.9541,55.6437,57.5591,35.5048,77.9102,37.7333,14.3880,-42.8771,-77.1116,-0.7668,-18.0723,-13.1442,14.5675,-86.5727,-60.1845,32.3613,36.7911,42.4973
39.3664,-3.4884,41.1807,54.5794,60.4349,92.4197,92.3255,31.0153,5.1454,-78.3588,14.1750,-16.3917,-13.4838,30.5893,-32.7312,-43.7150,25.4212,90.8138,60.6636
45.8613,-6.3421,26.6594,48.8215,57.1892,73.1893,84.9733,6.5281,38.0290,-79.8557,16.8980,-3.9306,-7.1688,16.1419,40.8258,-31.2762,32.5273,157.6041,19.0574
40.1289,13.6129,44.9399,61.0140,61.2243,50.8438,47.3342,-41.6393,-5.6049,-89.1842,14.1797,4.2820,16.9642,-9.8472,37.6808,-44.8769,47.6786,181.6845,-24.7093
59.7878,57.9863,92.6006,94.9139,84.2736,25.4732,29.0519,-72.3054,-90.5606,-119.2756,41.6418,32.9551,49.3435,11.0972,14.0934,-49.0242,61.1088,155.4589,-48.7953
88.9882,88.0181,107.6342,108.2692,97.1595,-9.6082,2.9574,-95.2998,-102.8692,-135.3673,75.9513,66.8062,78.8350,39.6676,10.3236,-36.1958,84.5843,122.3371,-87.8658
75.4515,76.1725,79.0244,80.2921,77.6170,-34.7615,-40.5395,-131.1396,-32.8024,-104.6792,66.1523,62.7838,88.1386,16.5707,9.7191,-29.1950,102.5958,101.6493,-140.9370
45.6816,43.7250,43.3606,37.6074,47.0282,-32.0572,-49.7105,-138.4226,16.2144,-57.0110,41.4521,47.3554,72.5513,9.7691,42.4465,-9.3216,85.3886,77.5577,-147.7385
44.1678,22.0731,2.9186,0.3617,30.8256,-21.4130,-34.7559,-102.7378,4.6564,-18.4619,41.8127,53.3844,56.3294,49.8780,88.4191,27.9241,49.2912,42.0213,-97.1490
28.9818,16.4458,-36.7679,-24.6870,13.5146,-31.6032,-45.8678,-76.3447,-26.7938,16.8388,28.5223,45.6359,52.4213,35.9074,66.3437,32.8191,20.1963,6.8341,-53.2062
-18.8936,13.1532,-52.9871,-32.1204,-20.1276,-51.8155,-41.3711,-59.2600,-46.0704,34.6856,-12.6598,15.2265,43.2809,-24.4106,18.1999,9.9722,-11.7525,-19.6220,-32.3406
-35.6161,-0.3047,-58.0304,-34.5537,-41.0032,-51.0923,24.3409,-16.6773,-23.7655,25.4451,-28.6189,0.3806,22.9888,-9.7270,23.0956,16.5077,-39.6237,-39.9016,7.7848
-17.2923,-16.6069,-54.1510,-37.0376,-28.8651,-30.5146,76.5284,9.6411,28.9774,10.5407,-20.4638,-9.2861,10.5136,44.0997,9.0526,29.2658,-29.0073,-46.6036,49.2426
-22.7139,-15.6644,-13.7124,-16.8487,-13.4477,-11.5993,50.4993,-13.5171,28.7895,-9.0228,-31.7717,-33.2203,9.1406,26.4234,-73.2527,-6.0991,8.2101,-33.5445,42.1422
-34.4795,-0.8615,32.5131,22.1399,-19.3153,6.1077,1.8224,-28.3654,-22.0973,-37.3236,-36.8066,-32.9713,-8.6527,-11.6540,-109.1403,-45.3468,21.0478,-35.6328,9.7832
-11.2924,1.6867,21.9181,36.5181,-35.3116,23.6437,-11.1617,-10.7760,3.1377,-37.1382,-3.0654,1.9126,-54.7800,4.2099,-36.0804,-26.5176,-0.5923,-84.4360,-10.3155
7.8082,-12.0276,-31.0405,10.2409,-51.6240,12.0514,-3.6468,-14.1091,112.5863,5.4093,22.6770,22.1151,-87.2854,19.1241,56.8978,20.2688,-25.2683,-128.8664,-33.2531
-12.1150,-19.4168,-62.1274,-25.1221,-61.9304,-34.1328,2.2058,-49.2751,157.4169,42.1525,3.8657,11.4759,-62.3269,-4.5290,92.8128,41.7779,-32.6654,-104.1570,-60.4835
