Fp1,Fp2,F3,F4,C3,C4,P3,P4,O1,O2,F7,F8,T7,T8,P7,P8,Fz,Cz,Pz
-0.6086,30.1012,51.4589,103.1742,135.7775,299.9020,86.5652,-52.5841,-6.8210,-35.9524,113.1819,10.1855,192.3295,-49.1158,-90.0751,-55.7802,28.0469,60.9936,-64.1250
74.4869,125.1787,73.4858,204.8127,150.6617,342.4000,65.4175,87.8435,34.8989,136.2754,126.4247,111.4807,151.5507,38.2214,-131.7430,76.1667,76.5995,36.2296,-39.0299
118.3435,111.5022,68.0026,155.0391,112.0916,252.6880,-5.7422,116.1378,-18.9085,205.5936,150.7695,133.9892,112.9822,34.9346,-145.9590,111.1821,68.0296,-56.3090,-47.1274
58.3454,51.0131,50.6161,39.1366,62.8679,138.2459,-61.3512,125.5324,-8.2393,218.6409,94.3804,95.9471,94.6173,18.2286,-16.9307,119.3618,-6.2209,-105.2710,-69.9297
-51.4286,7.6343,12.0905,-30.4303,39.6351,92.7032,-67.1291,228.6717,84.7429,271.5391,-41.5469,57.4037,77.6168,57.4345,154.1460,203.0556,-106.5159,-92.6613,-71.8806
-76.4565,-22.3417,-20.4657,-51.0888,52.4708,96.0011,-60.7431,324.8202,95.8052,289.5762,-75.3805,54.7444,75.2658,107.6057,158.7201,288.8834,-152.8325,-51.9128,-59.5725
-30.2220,-13.9987,-9.9383,-15.2388,87.0516,132.5789,-63.3949,328.2371,32.6784,220.6874,-4.8845,81.5333,76.3147,139.3828,35.9130,298.0957,-103.3500,-10.2548,-27.4204
-31.6938,36.4154,9.5402,66.1111,102.7933,178.7053,-61.1211,293.8642,19.5861,149.6209,-21.4891,91.9394,34.1292,161.4088,-12.5626,264.2435,-28.0497,-0.8954,33.5525
-54.6622,67.6462,14.4195,109.3122,90.3839,174.3859,-41.7887,261.3350,25.4150,128.3997,-101.8696,73.2166,-13.4019,160.2029,23.4667,226.7163,-1.9214,-1.2032,71.6198
-0.0180,61.3277,38.4410,85.9225,82.9644,119.7773,2.3839,239.4873,-3.5722,142.3682,-86.4958,66.7137,4.3689,144.1402,29.1728,207.3799,-2.6778,37.1419,52.2998
80.2892,51.1811,57.4974,53.0636,82.9067,61.9150,50.2890,246.8843,0.5743,176.2821,-26.3317,81.1030,37.1486,143.3766,26.7831,222.3667,-2.5052,81.5027,25.3831
94.4279,45.0477,23.3392,36.9334,70.9765,9.7746,58.9478,248.8344,48.8925,181.2009,-19.3077,89.6955,16.9542,146.9607,78.1235,234.9120,-14.1324,87.2513,18.2100
84.7576,54.9792,-0.4396,32.7173,58.2993,-29.1084,40.2630,214.3547,54.1054,127.2532,8.3840,104.7989,3.4530,140.3031,123.4970,215.9041,-6.6848,69.0783,-7.3835
111.2809,104.6463,52.3989,50.0345,45.2382,-36.6187,30.6965,189.2697,-2.1522,72.4287,88.4381,144.6835,41.7030,144.0423,112.1247,203.1912,53.4958,31.1073,-58.7577
149.6928,160.4250,115.9654,76.0869,15.8897,-42.7653,0.8726,189.3211,-65.3300,46.5727,120.8760,181.9315,51.1885,163.1558,86.3901,210.1630,112.4824,-9.5097,-104.1471
178.9107,173.7475,129.2230,83.7876,-1.9259,-81.5565,-65.7490,173.2861,-95.1809,15.1831,86.6233,194.1678,-12.3616,178.3750,63.6951,202.4662,123.1572,5.4330,-127.4390
201.8183,159.9293,132.9456,74.8604,11.9582,-132.0202,-98.3887,146.2179,-78.0403,-3.3687,61.6610,189.3117,-73.8696,181.2357,26.9469,179.2223,123.1819,54.3208,-116.4811
194.3124,147.5405,152.8071,57.1968,13.6432,-160.1937,-68.6913,139.1336,-45.6556,14.9855,59.8261,170.2723,-76.4607,175.7972,8.3974,162.2634,131.5140,70.0092,-73.5901
148.1770,124.6625,157.4326,30.3416,-16.3209,-149.2682,-44.2707,154.0290,-53.0810,14.4278,36.2784,136.0755,-49.3029,177.8631,28.5147,161.2673,110.9684,82.4766,-36.5432
107.7414,78.7049,127.0953,4.6669,-45.7240,-110.6008,-55.5671,177.3790,-101.7729,-27.3483,-21.3420,92.7108,-42.8424,189.0608,28.8597,174.8489,62.1605,116.3802,-18.2483
105.8677,28.9521,66.5645,-5.1526,-70.6528,-90.4973,-76.1655,160.4810,-159.0108,-59.7179,-72.1399,49.8422,-80.3995,171.3085,-26.7343,158.2036,26.2775,120.5576,10.7615
118.1769,6.6413,11.8565,7.9358,-86.5064,-97.4444,-106.5158,75.4311,-213.7735,-71.0364,-77.4650,28.5877,-137.1864,120.1720,-81.4161,78.2609,15.5032,115.6735,55.9288
114.4132,17.3906,19.3884,31.8769,-54.8968,-89.5500,-142.9194,6.4967,-254.2293,-72.8399,-58.4983,38.2521,-161.0111,94.9268,-85.4178,7.5379,22.4242,144.8681,97.6980
115.4630,33.1420,72.6647,36.4967,-0.4365,-81.7026,-154.8876,2.5397,-255.7753,-56.5133,-42.0642,54.4181,-148.8865,100.7651,-66.6906,-1.0286,47.3449,144.9075,121.9479
143.6006,38.2825,88.0062,25.3711,9.8466,-110.8169,-151.5211,-39.3082,-199.5901,-62.3349,-0.8816,62.3472,-146.6535,76.7792,-56.4353,-28.7599,78.9111,107.4155,107.1253
153.9844,44.9434,55.2741,36.8428,6.5506,-128.6659,-160.1973,-147.0668,-91.7256,-124.8320,45.8530,67.9719,-168.5124,29.6251,-45.5707,-110.3012,95.1920,120.6971,59.7084
117.4370,46.2866,43.7489,58.3013,51.6826,-111.3837,-168.8118,-188.2106,-10.2633,-172.0160,1.5262,55.7063,-199.7630,15.8912,-40.0961,-145.7632,90.3538,151.4949,29.7980
105.0344,31.9217,74.9665,44.2194,93.4146,-131.3646,-170.1252,-135.1180,-40.9625,-162.5766,-119.6940,23.7206,-232.8456,30.9227,-51.4620,-102.5760,79.8629,116.8396,9.8285
154.3567,32.1610,103.2574,11.7145,59.5419,-195.7725,-174.8152,-104.1383,-114.4846,-182.8277,-161.5063,18.4300,-238.1246,42.5206,-41.4800,-61.7579,86.1638,68.2236,-61.7375
175.5529,52.8260,86.3524,-10.3385,-16.1647,-246.0599,-167.4029,-127.7949,-102.0557,-266.2006,-69.0712,46.8858,-199.4798,41.9017,5.5102,-57.6994,112.4250,27.6935,-146.2619
122.2309,37.7459,26.4829,-54.3805,-76.7547,-312.2752,-152.2041,-153.7724,-52.7009,-319.9431,26.4742,47.1894,-184.7004,17.8716,22.3471,-69.9618,128.6543,-73.6763,-137.4603
74.6721,-28.4016,-27.7017,-132.0982,-130.2739,-413.9232,-179.3265,-173.6931,-79.1704,-298.8281,8.8220,-3.7142,-242.2539,-24.4046,-10.1941,-96.8009,103.6326,-181.9437,-57.2616
71.7154,-90.4001,-44.7508,-197.3549,-198.1399,-458.3741,-241.6185,-203.7932,-125.6492,-253.0058,-76.6453,-62.3432,-292.3577,-62.4449,-2.2077,-136.5163,41.5434,-193.6751,-25.1019
55.6963,-121.8860,-67.4024,-229.2455,-261.8288,-424.6101,-256.8829,-240.5916,-90.9407,-207.1874,-113.0708,-98.7773,-265.9861,-103.8325,74.0906,-177.8194,-28.8131,-157.1306,-51.2582
-5.5212,-141.3714,-132.6543,-236.4509,-290.1893,-402.4499,-201.5987,-252.9946,-15.6704,-155.2838,-85.7291,-117.1471,-228.4593,-138.9403,111.7286,-200.5975,-81.0517,-136.4440,-35.0845
-81.8578,-148.1837,-194.9357,-212.0417,-292.8974,-398.8911,-148.9580,-199.6435,0.8737,-135.0606,-76.6937,-122.2402,-245.0762,-114.3580,34.4886,-170.4192,-98.8349,-105.3303,42.0438
-119.9530,-122.9492,-211.7132,-159.0494,-314.8157,-367.4368,-154.1248,-120.9211,-73.0708,-185.5039,-93.8116,-106.5937,-275.4310,-46.7036,-94.9915,-107.2529,-82.4977,-74.0313,63.2686
-90.4155,-67.5623,-211.8618,-103.2017,-359.9533,-342.9240,-189.8182,-110.9234,-184.1555,-265.0215,-73.3614,-63.5318,-274.7790,-20.0058,-162.1894,-83.1295,-59.6746,-72.7104,-47.3809
-53.5828,-25.6165,-226.5280,-73.2621,-380.3667,-355.3648,-216.3223,-139.5537,-243.3501,-294.4453,-56.7929,-24.7152,-269.9646,-36.9468,-146.6545,-90.2738,-72.0646,-73.6821,-192.9989
-94.9350,-56.7339,-250.3712,-99.4419,-368.0282,-375.7051,-254.3443,-109.1296,-234.9875,-249.7662,-143.4778,-48.0527,-308.7026,-44.3647,-147.4274,-69.9363,-138.6616,-71.1674,-229.1211
-187.9642,-148.7603,-279.3731,-172.4974,-368.0561,-403.5992,-325.1901,-57.8992,-205.1235,-143.9551,-295.1412,-125.7078,-393.0352,-55.9522,-196.7437,-55.5423,-237.9253,-79.1495,-148.1919
-266.0692,-206.6082,-315.8870,-224.6172,-395.3668,-442.7108,-367.8545,-65.5794,-124.9057,20.1249,-393.5014,-180.3246,-459.5673,-99.1614,-154.4702,-96.4857,-331.5425,-69.4850,-49.3083
-339.5017,-186.5919,-353.3518,-222.7315,-427.5243,-460.7621,-339.4555,-89.0448,35.2040,183.2291,-408.5029,-176.7121,-457.8757,-136.6541,27.4885,-137.9612,-391.0418,-48.8099,-3.1514
-402.2380,-140.6727,-377.1081,-198.5909,-442.7811,-458.6461,-327.8979,-73.0018,168.3819,224.8159,-384.1808,-139.3554,-444.3986,-123.1571,152.8304,-121.9404,-398.6684,-52.3203,-18.8807
-396.1647,-98.3553,-366.6402,-157.1185,-416.8737,-446.0707,-394.1292,-42.3402,199.9708,135.0094,-367.5667,-85.9421,-483.3310,-61.9239,121.8858,-73.1988,-353.9734,-44.9351,-69.7157
-326.8423,-39.9945,-318.9903,-83.4965,-353.3407,-390.8256,-430.7150,-26.5228,195.0065,45.3392,-363.5753,-30.1794,-503.5058,-1.0036,91.0580,-35.8369,-285.0307,-1.7792,-121.7562
-230.9523,20.9383,-261.6876,-16.8243,-298.9794,-309.8081,-365.7575,-33.4904,152.6852,27.1455,-309.2113,13.7798,-424.8254,11.4533,131.0454,-26.9477,-223.3929,23.4072,-166.0854
-102.1423,48.4065,-214.5950,-0.7561,-265.2174,-272.1039,-307.7375,-39.7558,9.2009,41.4167,-187.0200,58.5506,-320.0100,1.5611,146.2570,-16.7076,-174.9572,1.6650,-187.2253
12.8125,42.8585,-180.1541,-21.8632,-222.7047,-272.6115,-318.0726,13.3354,-147.8182,61.8117,-96.1273,103.2188,-272.1048,31.8415,151.0639,49.2522,-136.7365,-54.0701,-148.2934
21.5157,31.5022,-168.4741,-46.7699,-187.4495,-261.6060,-293.4691,93.4291,-205.4706,59.9105,-70.6102,114.5138,-226.0170,74.2378,213.4130,129.1068,-115.5449,-119.2821,-90.0423
-46.8406,43.5912,-164.3055,-47.7688,-177.2374,-239.7142,-194.9960,75.4309,-220.2276,-15.2256,-17.2362,102.6041,-128.1403,59.5774,272.6366,107.6381,-105.5397,-117.9886,-111.8778
-70.7407,88.3851,-122.0662,-11.6963,-142.6326,-216.9805,-128.7703,-28.1858,-242.1938,-110.4558,65.5553,115.7584,-47.4389,20.4528,293.4616,9.2969,-78.0264,-35.8451,-181.4765
-13.7867,127.5690,-56.1611,27.9075,-72.6068,-197.2748,-139.9402,-65.2813,-217.0254,-107.8824,73.4892,145.0034,-57.5261,26.8490,320.8834,-19.5282,-23.0435,-9.1338,-165.2705
58.5100,118.8363,-29.0254,27.6750,-35.4996,-208.3577,-153.1368,-0.1040,-159.9485,-18.4919,8.7691,143.2628,-123.9972,63.3126,320.0302,44.8933,24.5431,-85.2953,-55.4067
84.9649,81.5843,-24.6325,-2.3024,-37.7261,-240.9428,-117.3496,71.0817,-133.5097,68.4268,-47.3347,109.7359,-159.9476,84.7943,279.2338,99.7499,34.1652,-129.7882,54.0592
81.5272,58.0813,23.0560,-34.8275,-16.9512,-250.0647,-50.1122,99.1533,-110.3589,141.9482,-77.9915,74.8618,-127.0658,85.5481,308.2448,104.5928,27.9879,-102.4173,127.8289
107.6689,49.3180,99.1486,-67.3597,25.4063,-243.6260,22.0581,104.5784,-62.9818,208.9193,-92.2391,51.8115,-60.1031,73.9108,401.4080,99.5430,35.6783,-87.3589,155.8318
142.5635,39.6407,142.3814,-89.4507,45.6215,-237.4330,70.0600,109.2096,-23.6564,231.4927,-97.4574,36.0762,-14.3873,63.7032,423.0658,104.7832,40.3179,-78.0013,127.6704
110.0351,38.3589,149.4450,-77.5697,41.0409,-198.2989,62.5124,105.0403,8.6132,210.3982,-128.9419,19.7529,-14.7860,64.4229,386.7348,93.8347,30.1792,-45.0222,106.3210
57.6595,62.0444,154.5996,-29.8600,21.9426,-131.8701,16.7289,62.5467,43.8740,185.7758,-182.7660,7.0245,-52.2693,62.3039,387.7203,43.2281,43.2025,-31.2740,145.4173
91.6716,94.9322,177.8577,25.6265,2.1002,-85.6913,-1.6801,9.0206,54.8478,168.3268,-215.4105,4.5902,-91.3622,61.3713,379.3285,-7.2214,92.1084,-17.3942,195.4840
163.2201,94.2070,214.6331,45.3851,9.2073,-57.2947,26.8691,18.5996,55.4793,155.3026,-235.1997,-5.9365,-97.0917,83.7269,308.1083,2.6845,127.2732,33.8745,218.1281
175.3591,51.6248,225.6333,11.3528,21.6793,-40.3245,43.4932,61.8023,83.5302,141.6231,-249.9405,-33.7504,-82.3456,102.8171,255.0233,42.3370,123.7723,45.1254,233.0237
162.0156,13.1693,182.5677,-39.1899,-6.6110,-59.9524,25.4168,53.1538,122.1495,115.8031,-216.9764,-45.5339,-71.1514,86.1808,292.1370,47.1289,105.5455,-8.5498,225.5177
150.9031,1.3471,126.9050,-69.5473,-38.1903,-83.5034,35.7642,42.0727,158.2711,108.1164,-162.4082,-33.5114,-37.1571,69.9686,388.8148,51.0958,71.7793,-21.4111,186.1205
91.6390,-15.6586,102.4583,-91.2263,-12.7093,-64.5631,87.0571,103.6456,200.3800,151.2849,-165.5046,-37.6704,20.8377,81.0005,462.1406,99.5147,12.6704,12.7121,165.7864
19.1881,-46.3237,87.0697,-110.8764,43.6190,-46.0104,99.8431,159.9439,218.8239,187.4459,-186.7818,-53.6110,35.6692,85.6657,440.1197,137.4412,-26.9245,1.5899,182.3604
12.6942,-64.0617,67.0169,-110.4651,90.8956,-52.5892,63.5916,136.6674,209.1658,150.5253,-133.2440,-43.1135,7.1067,74.7723,337.3983,120.4858,-9.4473,-22.1987,202.8493
38.5061,-68.6072,81.4792,-93.9713,134.4267,-23.6896,54.2876,90.3220,209.8179,85.0883,-43.8947,-27.3262,16.0094,70.9711,222.2394,81.7597,28.5837,27.7654,217.6544
51.8447,-61.3460,144.8578,-66.7401,165.9187,47.2724,73.1864,69.6704,184.5762,65.9823,-12.8588,-32.7852,58.0205,70.3518,106.9506,47.8135,52.1069,109.2085,220.0474
79.6597,-25.4272,212.1996,-16.9523,184.6428,105.2656,68.8900,69.7125,93.8074,87.1522,-31.3677,-25.5766,71.3702,72.5057,12.7512,33.8665,77.8185,134.3717,202.8000
101.5622,8.0712,230.4796,26.6506,222.1787,148.4505,66.7064,87.4937,47.2407,98.6373,-42.9468,-2.7549,75.4918,85.2769,26.0250,53.6553,104.8283,102.3257,204.1513
72.3219,-4.4044,185.8965,22.9222,248.2926,172.6128,98.0502,82.2559,136.6954,85.7997,-47.2054,-11.9787,89.4301,77.3282,135.5714,58.5920,100.6558,66.4357,232.6173
37.1544,-21.8372,120.9833,4.6396,198.3055,140.7805,119.6550,25.4610,238.6123,82.3815,-60.6325,-38.7282,73.9206,33.9735,210.8776,10.8137,68.8938,58.2535,221.0978
44.9800,2.7422,87.6079,19.9108,117.8326,102.7992,109.8932,-10.9906,201.4653,103.6863,-52.4812,-27.8764,58.3284,2.7753,192.2967,-21.8069,42.8442,62.9366,146.2065
63.8370,30.4975,75.7565,50.4066,93.9125,128.6444,90.8616,1.0291,72.0785,88.9969,8.5422,9.0886,91.6772,-0.6014,99.0028,-6.0332,33.0390,58.7592,50.9783
62.3420,41.5330,54.5543,77.0900,105.2565,153.9787,51.5647,-28.6056,-3.5313,2.0967,81.9652,36.9029,101.9461,-15.4834,-40.0747,-22.0147,37.6633,59.6539,-50.5915
38.2919,77.7647,39.7969,113.0269,102.3108,111.3252,-1.8706,-96.1699,27.6509,-65.0209,103.2615,63.8541,41.9220,-37.2755,-127.5370,-75.3907,54.1111,65.8431,-143.9006
-8.6908,114.6710,31.3988,126.5296,95.6874,55.9568,-12.8203,-86.8656,94.5124,-45.0506,85.3257,87.0121,6.3407,-32.3303,-89.0571,-65.8038,54.3517,36.0102,-186.7344
-49.1395,78.3082,-20.1363,67.2661,71.2305,14.1207,16.0199,-22.5480,111.6686,-30.3088,89.2238,74.7639,35.9316,-24.6856,-14.3673,-0.5341,13.0339,-28.1190,-196.1627
-57.8082,-6.0129,-114.1513,-26.9205,-5.8084,-49.5037,30.3230,-27.2596,95.2055,-87.1364,117.4747,29.5384,51.9815,-52.9653,8.7709,10.5570,-40.9230,-77.1210,-207.1247
-65.3996,-53.5574,-182.9559,-66.7333,-90.0057,-82.0536,39.3516,-86.8656,106.0650,-128.8251,118.6401,-17.5953,33.5114,-94.5706,15.5483,-39.8352,-59.7009,-105.5113,-172.4727
-84.0846,-54.7385,-191.3991,-34.7511,-121.1301,-25.1674,59.3390,-104.8201,97.8380,-107.7906,67.9393,-54.7255,14.6044,-107.0118,-9.9576,-72.7418,-41.6051,-129.3394,-74.2078
-74.5406,-50.3155,-160.1559,6.2990,-125.5026,35.1851,36.2559,-96.1476,-12.1162,-104.4265,1.6909,-79.1948,-18.9148,-97.2335,-127.4876,-82.6906,-17.8067,-134.3763,-10.9207
-37.6144,-57.6872,-130.8121,3.3048,-136.3722,14.0776,-46.5833,-126.3171,-144.6574,-147.6731,-13.1239,-81.0850,-65.6392,-103.6462,-251.9243,-110.9210,-11.0956,-129.7068,-40.6166
-19.4144,-79.5429,-139.5147,-38.1851,-129.6414,-42.2620,-131.4057,-166.9946,-156.8438,-167.2857,27.3966,-63.8679,-92.7412,-128.0948,-270.3635,-134.5997,-32.5059,-143.2783,-102.0527
-29.0313,-101.9758,-156.8733,-79.0391,-102.1360,-81.1881,-198.4486,-155.2687,-96.1554,-146.5576,37.8713,-44.7639,-114.3933,-128.2753,-233.7728,-112.8461,-71.7864,-149.0127,-150.3795
-36.8281,-86.4954,-112.4738,-85.0655,-87.7748,-99.6818,-251.0358,-113.1475,-118.8811,-148.7593,0.0442,-25.4305,-129.1233,-91.0721,-227.4402,-75.6550,-85.5524,-113.6054,-204.5177
-18.7209,-29.0003,-33.0226,-48.2502,-84.7913,-79.8095,-243.0656,-101.5147,-222.2709,-200.1527,19.7339,6.5056,-84.5503,-57.1216,-241.5826,-67.8776,-47.5594,-66.0061,-261.6097
16.5196,17.8883,-12.6624,2.2503,-71.5798,-34.7275,-165.1309,-104.2972,-285.6161,-253.6137,114.0314,42.0604,-7.6434,-42.8811,-263.6812,-64.3335,3.1746,-36.1695,-283.6193
19.6854,20.0591,-41.2883,23.2382,-62.0595,-22.7761,-86.7277,-58.2654,-293.3863,-259.4948,159.7942,50.9754,19.3063,-15.9307,-311.9664,-23.9229,16.9237,-8.8223,-244.2989
-32.0351,2.9505,-42.7453,13.3087,-67.6683,-32.6129,-38.3103,23.6525,-311.3098,-223.2972,140.8213,33.0960,21.9276,26.5554,-364.4120,27.5033,3.9522,25.8071,-157.1409
-83.0140,4.9324,-20.2933,16.0231,-61.1807,-4.9618,1.5674,57.7219,-331.7308,-182.6065,158.9819,26.8551,62.2745,41.0069,-376.9550,34.7813,-0.0096,54.3481,-87.6159
-88.4966,31.2470,-7.3701,52.0776,-30.8739,44.6251,13.1238,10.1386,-313.9856,-147.0550,187.1781,40.2383,90.3406,9.8125,-350.4702,-15.5094,3.2967,73.2547,-87.9325
-78.6862,49.3311,1.7479,90.8618,-9.1609,79.4983,-18.0230,-57.1345,-276.4871,-89.5928,121.1535,31.6404,51.0586,-33.1519,-316.2271,-83.8872,-9.4416,90.0571,-93.2114
-83.6287,21.5166,-16.4495,94.6553,-22.8871,117.8402,-30.8454,-54.9931,-232.6083,9.5631,6.4536,-13.6954,0.7433,-46.3117,-271.6929,-99.0046,-45.2075,95.7712,3.0540
-102.4826,-39.7045,-95.6687,55.6786,-70.4484,141.6741,16.1347,32.8140,-162.4033,127.3878,-42.4692,-55.3147,-0.5134,-27.3242,-191.6526,-29.1837,-98.3709,67.2301,147.3499
-145.2612,-75.8932,-186.1795,0.2795,-138.2168,93.2110,75.1553,118.7985,-94.4778,202.3679,-18.7183,-62.4298,29.3348,-15.8994,-109.4780,51.6137,-157.9595,20.6922,167.0446
-206.0127,-64.8393,-219.6128,-30.7354,-188.8326,11.8764,93.2850,120.8828,-60.2825,193.9666,22.3853,-47.4799,54.4845,-32.8954,-82.3097,56.5679,-202.4470,21.3287,47.2666
-238.9073,-38.8498,-202.9954,-18.2684,-174.8326,-4.5199,72.1914,75.3436,3.3081,146.3852,35.0970,-30.0390,50.1398,-40.9043,-73.8374,17.2328,-207.5578,81.9031,-36.1498
-213.4884,-9.6397,-167.2904,26.7003,-111.4845,40.4006,39.8868,61.9515,130.4055,140.7805,-4.7045,-10.0143,6.3061,-11.7979,-24.1568,12.9030,-166.8219,122.6821,-7.1429
-146.2791,32.4313,-130.7504,74.4009,-77.0492,68.5301,29.7724,82.3851,208.3221,190.7305,-46.6819,17.5669,-30.9116,17.0228,24.3631,42.6954,-114.4801,98.3050,18.9077
-87.4718,52.6044,-126.7353,77.7988,-104.2849,47.5513,54.9481,107.2183,165.0041,259.9142,-23.9904,39.3081,-8.9843,11.2240,37.5917,71.2745,-111.9540,60.2685,-13.8122
-85.7908,17.4964,-156.4403,20.1951,-139.9426,-6.5020,78.3966,151.2747,109.5868,332.9502,5.7104,34.4488,24.3082,3.1503,63.8049,106.3609,-166.8747,49.7263,-10.8030
-116.9462,-23.8328,-157.1142,-33.0821,-136.3433,-58.1546,60.2339,221.8713,118.0499,373.6517,-42.6877,15.1224,-7.6624,39.1948,79.3543,160.2920,-197.6232,53.1808,57.7043
-105.5561,-12.0116,-100.7766,-17.0038,-115.1755,-57.3563,23.7775,274.6346,92.3289,305.4247,-107.0558,14.9822,-58.8440,108.1248,13.3120,208.8955,-147.4500,68.1615,88.4772
-60.0420,27.5808,-43.2710,34.5131,-114.5504,4.0689,20.2318,262.4211,-23.2495,136.5755,-97.8864,27.4967,-35.2855,149.6902,-68.0232,211.0740,-74.6507,103.2043,33.2607
-53.8780,47.6505,-23.8896,65.3241,-118.4758,71.3496,52.5900,192.9008,-121.1761,-1.1997,-51.6871,22.8401,36.5251,130.8749,-79.7069,153.8571,-47.9292,143.3155,-28.9927
-75.1525,53.5946,-15.9924,85.6546,-82.4185,108.1428,76.4485,133.3585,-138.6022,-26.4953,-19.1580,17.4663,67.9970,97.4736,-87.2004,91.8483,-42.1440,170.7450,-22.9246
-60.2585,63.5238,-6.9075,115.2286,-21.4060,130.7984,59.3090,136.7961,-150.4266,-7.4825,12.1414,42.6842,49.6164,109.4992,-134.5540,92.5410,-17.3422,179.8362,31.7766
-17.5888,81.5644,-21.8959,148.3272,-5.7266,151.6544,15.1374,162.8246,-187.7313,-24.2429,28.8773,80.8758,17.2997,147.8200,-143.2143,129.8595,7.3889,174.2217,57.5489
19.0262,116.5394,-47.5961,183.2731,-49.3414,154.9671,-23.1968,141.1897,-192.2435,-60.6031,16.0253,107.2515,-14.3110,155.9212,-93.9602,129.3218,18.8606,164.0671,6.4870
51.6073,155.9585,-38.1192,196.0507,-92.7678,118.4748,-48.4489,91.7182,-167.8336,-83.3574,21.9990,129.2089,-28.2648,135.6101,-54.8461,100.5595,37.3126,136.4596,-88.7442
67.8230,157.6063,-11.4801,149.6446,-111.6913,34.8342,-65.6569,85.1755,-171.6441,-91.0336,53.5368,139.5802,-22.0397,120.6694,-46.9595,106.0525,50.1088,67.2182,-158.5678
51.6425,111.8465,-22.3629,70.5235,-129.1398,-63.2531,-57.4424,124.5052,-193.4820,-55.7867,48.0974,115.3079,-24.1847,105.3086,-66.0366,140.9939,20.5815,-10.3574,-176.0479
28.8034,61.3940,-43.5498,16.5285,-135.4579,-123.4002,-20.5867,143.6952,-200.3454,35.9187,20.1751,73.6063,-27.0287,65.1429,-121.5755,141.4327,-34.5245,-32.9735,-170.8991
17.4767,46.1956,-13.3285,-2.6159,-114.8883,-139.5878,-10.1475,85.9622,-205.5335,97.6215,41.8524,54.6619,-7.5445,4.9816,-181.5650,69.3661,-59.5179,-5.2095,-186.2053
9.3802,66.7797,29.8932,7.0964,-98.6259,-139.7204,-75.7533,-31.9407,-203.0194,59.4987,96.6010,68.9734,-12.5458,-44.5251,-206.2432,-41.2954,-40.4636,20.6473,-221.0664
14.6314,87.2574,7.3374,39.4608,-112.1676,-120.8479,-175.7106,-111.6187,-165.3262,1.5195,123.3951,96.3828,-72.2767,-54.5310,-200.3245,-100.4104,-16.4967,18.9503,-216.5330
39.6341,71.0280,-60.8172,51.0366,-152.7311,-76.1495,-218.2658,-85.8645,-122.6038,4.6927,111.4477,101.1389,-112.8809,-28.8178,-167.4473,-62.0178,-17.4837,-14.4552,-151.2623
65.7898,38.1210,-100.4439,30.9109,-217.1121,-33.8167,-179.4566,-18.5162,-115.9247,10.4812,62.1699,66.3504,-93.6078,-1.7673,-117.1064,7.6532,-24.8713,-63.4687,-104.1125
78.6864,38.3097,-100.2156,38.5562,-264.3748,-3.6639,-131.0070,11.8556,-127.7765,-18.5144,-11.3193,32.1509,-79.2374,12.1404,-97.9647,38.1469,-17.4540,-83.1035,-120.0865
47.3067,53.2322,-102.3532,73.4888,-242.3828,30.4840,-136.5553,43.1376,-129.9643,3.1367,-65.9769,32.4890,-100.4321,28.2386,-121.3300,57.2131,-29.7299,-66.2004,-120.2523
-55.0812,26.3921,-129.0068,59.2333,-201.3729,45.3859,-165.7796,114.1302,-100.1087,104.4814,-109.8546,23.9899,-120.4346,39.8542,-132.1303,96.4003,-95.1402,-65.9613,-63.9776
-154.3638,-17.6337,-150.1391,0.3423,-223.2809,9.8430,-163.2553,150.2167,-12.2293,189.7276,-171.5226,-21.7389,-129.7613,19.8527,-106.3031,107.7862,-158.4798,-102.4093,-40.1512
-157.8241,-14.4149,-126.9557,-29.3038,-266.4482,-44.4331,-145.9168,99.4594,94.1709,209.3876,-185.8948,-43.8901,-130.1846,-23.1923,-74.4977,62.5262,-153.2159,-135.1366,-95.0973
-123.0637,15.6575,-95.1651,-28.1721,-262.9645,-77.9125,-142.5658,37.4726,144.2022,206.3142,-117.0809,-16.3447,-110.0298,-54.2442,-52.3618,16.7460,-121.2980,-146.1015,-153.6573
-143.1323,18.9299,-125.8673,-29.2146,-252.1216,-99.8925,-114.4187,25.6043,157.1884,192.6701,-75.1631,-4.8158,-94.3936,-65.6012,-26.5227,10.2512,-127.6976,-149.1521,-168.1457
-164.8315,20.2819,-185.9860,-5.3288,-263.2540,-105.9456,-43.6720,7.0594,186.3226,138.1726,-110.7250,-26.2223,-104.2301,-73.3607,10.2615,-1.4823,-135.5583,-127.4283,-176.8647
-113.3220,57.4408,-182.6830,59.1857,-246.3749,-62.8485,1.9522,-68.7193,194.8054,52.1165,-118.1709,-22.8258,-102.2046,-84.1259,36.1795,-57.9147,-94.3928,-63.2220,-205.9088
-32.0929,86.0871,-132.8870,104.3215,-199.6906,9.9280,-13.4804,-138.2848,154.6677,-17.4675,-58.8177,5.1499,-70.2321,-90.0168,18.8379,-108.0484,-42.0429,-9.6406,-228.3263
17.2582,55.7066,-117.5562,80.8290,-181.1259,49.9114,-38.9625,-117.0906,128.5971,-40.2565,-14.9468,7.2134,-45.6544,-73.9444,-23.1831,-78.5424,-21.6057,-31.1030,-198.9725
17.6234,-2.9112,-138.8446,23.4310,-200.5107,48.6980,-47.6505,-20.7637,145.6212,-27.7291,-26.1618,-16.2912,-52.5510,-25.1036,-35.5633,12.0168,-21.9029,-89.5816,-98.1832
-41.1112,-37.0882,-164.7761,-0.0915,-224.3724,53.4492,-60.9856,67.9548,149.5739,-14.1464,-81.3417,-40.4469,-84.0680,31.0486,-35.2073,79.4359,-40.8385,-94.2562,13.9307
-117.1800,-39.9375,-186.2902,27.4291,-211.1518,83.3198,-63.1098,100.1632,90.7878,-22.1406,-154.0380,-59.8246,-108.3285,47.9006,-84.5443,88.0797,-81.4220,-42.0759,27.4820
-128.5104,-21.1443,-164.5163,66.7636,-120.0749,110.5085,-27.2085,84.2438,-29.7079,-52.4184,-170.7699,-55.9262,-75.1816,23.1789,-149.8391,66.4189,-101.1634,5.2006,-70.5938
-81.9613,10.3233,-81.2842,85.7988,14.2710,112.2847,10.7251,52.0958,-152.6089,-85.9365,-125.4378,-24.5700,-8.5209,4.2727,-145.3367,41.0346,-73.7246,34.5051,-151.1391
-57.1556,20.2105,-11.1029,82.7794,95.6640,93.0116,8.2566,33.7831,-191.6973,-83.3181,-133.8833,-16.3291,-7.8756,10.5989,-94.0789,19.8661,-44.1943,55.4994,-108.0422
-78.1433,-18.1149,-7.5549,52.6882,110.9647,62.1211,-10.9804,39.0916,-139.4005,-28.0969,-215.6252,-56.4999,-72.0706,11.0849,-72.0923,10.0994,-53.8995,44.8904,5.7477
-119.7620,-74.3039,-33.3809,-6.4242,109.1816,23.5729,-5.2930,54.0349,-63.1534,34.4270,-248.4986,-98.6604,-92.6506,-9.0073,-57.9708,13.0607,-88.3094,5.3408,71.6182
-161.7795,-110.7879,-60.3440,-68.3076,80.6508,-13.4256,20.8312,64.8880,7.6581,65.3770,-214.3330,-116.3571,-54.9297,-28.7017,-7.5108,20.9463,-125.8980,-18.2773,68.0715
-182.3094,-139.1762,-79.4859,-106.6642,39.9701,-27.1515,36.7389,70.0706,65.5837,87.8250,-218.3130,-139.5403,-38.1013,-39.4551,21.2945,22.1683,-160.4706,-5.5956,63.7510
-181.9528,-165.3499,-53.0433,-108.8627,77.7343,6.1502,35.8799,68.4194,74.9569,105.8618,-283.1080,-174.2852,-52.8974,-44.0252,-19.7899,7.7081,-173.1709,36.3074,94.8657
-182.1568,-154.8629,-0.0286,-65.4118,172.2934,76.1872,38.7772,63.1725,41.7766,75.2915,-335.1837,-183.5531,-58.2609,-29.3493,-53.3087,-6.7881,-144.7322,79.1703,131.7742
-166.5446,-118.0883,-6.8926,-16.6399,177.5663,117.9979,48.9987,64.6519,9.9584,11.4186,-325.3716,-160.8472,-53.6278,-3.6365,-19.0178,7.1683,-99.8460,58.3111,142.1877
-126.3344,-126.6023,-73.9663,-40.9617,83.0754,79.6000,38.0795,67.8305,-10.9415,-10.1161,-275.9681,-149.4822,-55.9268,-7.8157,15.2337,33.8748,-96.0898,-27.7180,126.0342
-119.2091,-184.2152,-115.2915,-121.4541,27.0062,2.7875,-6.7778,50.3874,-4.0741,10.4725,-258.9049,-170.7525,-73.1900,-43.9495,7.2662,24.9677,-146.4126,-66.6174,94.6865
-161.5110,-205.4421,-106.3734,-155.0748,49.5222,-39.8993,-56.2700,-2.9215,41.1203,-7.3066,-287.6343,-185.9031,-99.0381,-74.4504,18.0686,-28.4968,-191.5282,-13.1081,34.0490
-182.4333,-163.2948,-80.6212,-128.7781,75.7430,-52.8621,-75.0197,-86.3997,49.9903,-78.8828,-271.9965,-163.5417,-90.3181,-103.4626,53.6402,-98.8309,-190.9546,40.7298,-82.9430
-167.2033,-123.5368,-55.9112,-112.3399,80.7788,-72.0592,-52.8549,-166.8134,-6.4713,-118.6426,-192.9008,-136.7425,-35.1349,-155.0219,45.7013,-165.8064,-181.3958,51.2549,-207.2426
-171.3868,-120.9758,-58.4882,-109.8103,82.0936,-86.7852,-14.6681,-199.1531,-24.4964,-82.9722,-157.1212,-140.3669,-12.7790,-194.9540,4.2311,-204.4184,-189.5737,53.0967,-222.3633
-182.2281,-132.4474,-105.9408,-96.7917,56.4469,-88.7556,-17.0003,-172.1727,6.2869,-54.3956,-179.4904,-149.5527,-68.1149,-177.4528,-28.7516,-183.8692,-180.8088,24.0746,-125.6179
-150.7688,-148.4296,-147.2967,-104.5079,-13.3656,-99.9955,-90.2080,-115.6973,-48.4903,-99.0174,-170.0375,-138.1492,-131.1508,-123.1100,-98.1352,-117.3998,-146.9949,-51.4010,-52.3835
-110.8123,-164.5182,-132.6151,-131.3733,-83.0676,-110.2841,-184.1821,-63.4752,-189.9764,-132.6395,-154.5307,-127.8828,-155.5227,-82.3123,-212.1556,-64.2386,-134.4832,-96.5785,-48.7839
-122.6006,-162.7533,-103.7000,-123.9939,-102.2770,-94.7937,-223.2205,-44.7430,-270.1157,-71.1478,-221.3169,-142.1841,-177.7395,-81.6332,-255.7968,-67.8005,-161.9350,-80.3854,-36.3048
-175.4316,-161.1585,-127.3687,-104.0664,-88.3200,-79.9717,-198.4333,-75.6340,-237.9143,1.4189,-318.3354,-175.7274,-199.8252,-122.9293,-172.7065,-113.8349,-207.2162,-74.7946,-15.5608
-218.8935,-189.0959,-197.7286,-137.0654,-114.2659,-98.7962,-175.0577,-119.5551,-153.1339,-9.8138,-335.4701,-205.4459,-189.6281,-173.0996,-58.7604,-143.8165,-250.4467,-122.4674,-53.3986
-224.1439,-213.3821,-259.5958,-197.6245,-220.8316,-139.5246,-219.8023,-119.2858,-80.6620,-43.3649,-269.9862,-197.8319,-175.3064,-183.9296,-16.9554,-118.3705,-271.2859,-203.8288,-125.9691
-200.4962,-192.2378,-279.9613,-219.6257,-355.3102,-181.1965,-308.2867,-81.9705,-74.5863,-24.9711,-184.7520,-149.3284,-188.3767,-159.1108,-59.9673,-68.0469,-259.4627,-283.4824,-175.7141
-180.0760,-150.5588,-268.1694,-198.6216,-421.0440,-202.6183,-332.4687,-55.7693,-106.6694,14.9336,-125.5724,-107.3745,-192.9982,-140.4413,-127.0275,-44.9963,-234.3609,-308.5846,-191.5527
-175.1412,-121.5203,-248.0965,-158.5450,-374.8188,-182.8441,-258.9702,-44.2210,-77.0673,47.4228,-107.8477,-93.9770,-169.9455,-129.8358,-125.9259,-42.9509,-208.5236,-268.0732,-155.5913
-169.3504,-100.7722,-227.0814,-122.1854,-257.1521,-148.9787,-183.3570,-14.2308,1.0060,79.3551,-111.4736,-74.6333,-148.1176,-100.6528,-31.6278,-16.6014,-182.5366,-222.8505,-88.1083
-155.4304,-91.3973,-196.2478,-119.9320,-145.1281,-142.2413,-147.2809,43.0220,18.1498,92.5033,-110.3386,-45.2747,-114.8403,-59.7068,68.7162,42.2181,-178.8147,-187.5491,-80.8830
-136.1810,-95.1350,-149.0679,-138.3597,-81.8927,-140.2746,-79.7388,97.9116,-31.0526,79.0830,-97.2970,-38.6557,-38.4304,-31.1228,95.5013,91.8654,-192.2806,-117.1264,-131.1645
-108.0222,-78.6128,-88.9275,-123.5969,-46.9403,-116.7226,10.6593,112.7858,-78.0899,52.6332,-49.1292,-34.4301,35.5334,-10.4223,61.9320,97.1460,-158.4245,-41.6277,-122.4014
-70.8889,-27.5582,-26.1303,-75.5524,-9.3296,-99.5028,15.6328,86.9449,-113.8254,-5.0250,61.2980,14.6712,49.2182,22.3078,6.1250,75.2412,-54.6676,-30.3683,-43.3214
-10.7526,26.8590,31.8414,-33.5551,15.6141,-86.6452,-70.4617,62.5764,-147.6695,-81.1808,191.1801,92.7563,29.8581,68.6882,-57.6697,70.4490,55.8673,-53.9658,6.5203
96.3925,67.1012,83.4679,7.7533,7.5545,-38.7826,-145.4091,61.8607,-164.3072,-95.0709,246.1209,148.0399,15.2082,108.6995,-107.9325,87.5118,120.2608,-39.1651,4.8042
207.9269,99.1202,118.2116,62.5557,-2.7872,24.4946,-158.1722,57.1350,-147.3476,-37.7403,203.3547,164.0953,-4.8470,122.6948,-108.1549,89.4877,141.5113,16.8766,0.1199
235.3581,122.7610,121.0219,107.6748,17.2553,65.6708,-118.3499,34.2628,-69.8983,2.5759,157.4027,161.7875,-12.2272,116.5283,-44.3416,67.3443,145.1273,69.4248,13.0606
186.6138,143.3859,101.8064,132.5621,36.5067,99.4248,-42.7017,25.6409,48.2225,5.9310,188.0737,165.9052,29.0439,113.9153,41.0026,56.8925,157.0921,83.2579,43.4069
161.2830,163.4784,87.1767,145.4571,10.1196,122.4528,33.6764,52.4968,102.5610,30.2196,239.1858,174.6572,85.3499,121.9772,85.9831,78.3846,172.6531,65.5865,71.6006
192.0269,167.0234,88.9246,142.1817,-32.2101,111.8116,88.0042,86.9398,62.6381,70.7151,232.3049,167.9405,111.8349,129.7666,94.5838,106.0612,167.2116,70.6457,75.3684
222.5173,162.8864,110.3943,141.5721,-15.2341,108.3772,138.7134,95.1197,35.9006,79.4823,214.3317,156.1083,129.7415,137.2542,111.3421,108.8275,168.3062,119.0944,95.9126
224.8066,178.3832,147.0934,170.7914,69.2770,141.9942,197.2467,93.7492,72.5621,81.1734,241.0325,165.0691,155.0437,151.8654,128.8289,100.7991,211.2475,154.9242,171.5709
227.0750,189.5124,169.6234,187.8021,144.3298,151.9446,257.4673,129.1930,106.0151,139.1919,260.8493,177.4812,175.0994,164.0905,135.6205,125.8806,238.2954,145.8946,234.8477
247.0518,165.8666,168.5811,144.9220,161.5399,111.7855,309.2863,196.8389,111.2206,238.7430,255.2710,174.4053,210.1488,164.7765,173.7907,185.0394,197.2462,135.8345,218.5013
265.7031,150.9596,189.2642,98.1324,164.4640,88.3362,307.0095,239.9050,120.3561,291.1980,273.3947,186.2738,253.4659,173.4378,229.9112,227.3867,159.3010,153.9675,168.4100
259.8949,181.6807,250.0996,116.3712,200.8760,111.4099,221.5951,241.8622,123.0373,254.1571,277.7929,220.6985,234.9123,207.1301,219.2162,231.9129,190.0236,168.4801,148.9141
231.8069,215.2501,296.5058,161.9580,244.7495,140.6624,126.4872,238.3133,97.0720,180.8552,224.7840,236.6391,165.7486,241.2548,151.3755,228.4172,239.1103,147.3937,153.0878
201.6873,220.6723,298.4450,170.7875,251.1758,151.1910,99.0738,235.1901,66.4691,124.5171,208.5127,233.2380,152.3131,244.9211,121.3112,227.6962,253.8490,109.1802,136.6014
194.4645,225.9096,294.1692,153.4938,223.9779,141.9726,108.1321,209.8072,63.8260,77.9645,277.1082,245.4459,202.3084,229.4545,139.4260,213.5295,251.7642,105.6637,69.9763
229.1311,238.2129,292.0715,149.6516,188.5455,119.1098,110.7780,174.4933,99.4815,44.6461,316.0339,260.7115,216.3896,220.5584,155.9891,194.6283,251.2738,145.7490,-5.4046
272.4134,225.6987,240.3883,156.7019,147.2053,101.0817,125.5115,159.1180,170.1679,55.8555,263.5275,242.6402,165.0206,214.3528,180.1022,191.2510,239.1007,163.8207,0.0244
239.0048,178.8737,131.2638,142.2730,95.0006,86.4128,151.6213,164.2855,249.7183,90.7759,182.6367,192.7359,105.7008,196.4101,231.6355,195.4086,192.6710,129.8931,73.4903
120.2111,129.4846,36.6669,108.0290,52.4162,66.4672,165.2594,165.4769,280.7285,88.1581,119.4163,138.6838,83.5459,168.7810,267.0168,182.6288,114.6612,114.3717,95.7010
28.2397,116.7092,3.7290,107.1896,51.0325,73.3951,181.8931,137.4505,227.7856,33.8730,101.4976,111.3797,102.5598,139.8979,239.4991,142.8058,63.9415,152.8094,45.4754
16.9308,131.8062,-8.9321,148.3475,85.6620,112.2826,210.2845,95.9203,155.2092,-23.7351,138.0696,116.5281,126.0301,118.2886,182.0066,103.3497,76.3822,170.7479,26.0302
-0.0788,112.3780,-45.3840,142.4645,111.1806,108.5314,219.5441,95.8827,164.8966,-20.6806,147.2007,109.0428,114.0078,106.7277,178.7777,105.1435,77.4202,123.9417,69.6666
-67.9378,48.2311,-74.1603,55.2935,104.8228,35.6513,210.4909,128.8922,225.0416,48.4907,90.0661,63.9752,94.9026,86.9552,239.9387,124.4666,12.0808,72.2885,99.8081
-106.2324,21.3742,-61.7587,0.0969,90.8229,-19.0900,224.6302,112.0855,209.8760,94.7441,74.7166,33.8603,118.7411,45.1738,267.7205,95.0636,-34.6595,63.1592,70.8190
-64.3960,58.2293,-43.1521,39.0331,83.8720,-1.9789,267.8379,46.5104,123.3361,60.2280,146.7223,50.1191,165.8757,6.3868,213.4106,38.2144,1.3808,62.4013,18.0567
-0.8994,73.5823,-41.2698,62.8629,68.6037,26.4406,295.2510,27.1242,72.4070,26.7480,207.6592,63.1351,197.2140,-4.9967,152.3561,33.4420,45.4942,26.0000,-4.3573
17.8364,37.2011,-16.7680,4.7742,48.8496,6.9929,270.6927,55.2703,55.0477,60.7689,216.3557,46.6585,212.3364,-7.7230,134.6286,58.6212,42.1299,-32.8251,13.6081
1.1632,28.5630,34.2999,-34.4712,43.4473,-28.6110,216.5958,47.0382,13.4164,86.1339,212.9027,40.7702,206.7765,-16.3623,135.9360,40.5543,42.9203,-67.7346,32.0748
9.3388,74.3178,48.3167,10.4169,30.4997,-20.2028,186.7285,14.0691,-1.6171,42.5180,200.3231,62.3775,177.1167,-5.6252,166.0230,16.5552,80.8238,-72.2484,27.3665
63.9390,98.4148,3.4075,51.7501,-25.4981,22.7001,182.3464,20.5951,61.9738,-27.2110,190.1847,79.7044,153.4281,32.6061,223.8852,50.8940,117.6174,-79.8177,22.4835
106.5183,63.5075,-41.1463,25.3565,-93.9210,46.3370,161.9725,34.5574,118.3288,-100.7104,208.1383,69.6093,151.9538,60.7605,228.8336,86.3942,120.1597,-71.7119,23.5467
93.2617,29.6441,-24.5328,4.3287,-95.7647,69.6485,141.5703,5.8101,68.9239,-176.0481,201.7222,40.1353,164.9481,58.0564,162.8253,52.5126,98.0325,11.6307,8.3075
74.6086,51.3787,54.4554,60.5978,-3.9304,158.6881,163.9904,-22.9893,-42.6774,-203.4156,131.5159,20.8385,195.4630,53.3768,115.0462,0.0908,90.1267,135.3559,-10.1231
105.8138,95.9146,131.9352,141.2927,116.9093,265.3426,183.5684,-12.1547,-88.8906,-173.4110,69.9864,34.2265,210.3911,69.9916,108.6346,-1.1142,121.6901,186.8933,3.4676
157.3546,91.0521,135.9628,150.3011,181.0226,263.0535,127.6133,0.7632,-25.9204,-127.1010,62.4387,56.5854,146.7250,82.0211,84.8037,22.4313,151.2750,141.5904,50.6553
164.5625,19.9328,82.0094,73.7681,176.4548,156.1441,30.3307,-3.1592,58.9562,-39.6526,47.8507,41.7346,36.4138,56.2449,40.2198,22.5285,113.1404,73.1494,112.9522
95.5829,-73.3571,49.6171,-34.4373,158.0542,61.7700,-20.8629,13.8691,95.5256,100.1517,-15.9696,-18.9452,-17.7759,7.9135,14.4338,11.8156,16.3636,28.5305,171.8293
-19.6437,-148.1960,50.6569,-127.2533,144.4352,19.6028,-13.2412,46.7597,127.5756,176.6220,-96.4245,-95.5160,-8.5349,-24.4415,17.0641,9.2260,-66.4329,4.6093,202.9850
-100.0646,-181.5119,28.9704,-168.4595,94.1127,-0.0789,-8.3331,27.9529,180.0178,113.5491,-149.5075,-149.2598,-14.3334,-40.2797,37.3106,-13.6628,-90.0601,-14.1381,192.9382
-107.3161,-157.1868,-17.9839,-136.0941,9.3460,8.5105,-56.9900,-60.3727,187.3782,-2.4530,-153.8384,-151.9208,-56.2319,-64.6041,44.3106,-76.3602,-65.2192,-50.2849,143.3172
-80.7202,-98.3016,-36.2159,-66.9035,-41.2383,45.0308,-129.8801,-146.0642,139.9720,-77.8071,-119.3091,-114.4961,-88.0986,-89.8268,7.9609,-136.6240,-23.4468,-92.9649,69.1549
-33.6334,-59.7841,-18.7202,-22.6798,-44.2824,68.0629,-144.2178,-170.7116,110.2703,-108.6520,-85.7588,-84.3260,-89.6216,-88.6457,-46.1134,-149.0907,13.9926,-89.3508,21.4531
40.0539,-64.7770,-20.9330,-11.7492,-64.8002,64.8567,-89.3961,-161.9893,117.1818,-109.6615,-92.5023,-93.9726,-94.2974,-74.2318,-80.2360,-135.8404,33.0437,-42.5905,42.7202
56.0435,-102.3264,-76.0231,-18.8966,-116.3037,57.9256,-43.4124,-166.0859,135.4011,-93.9137,-153.5313,-142.9900,-127.1106,-87.0348,-98.3262,-143.9882,9.0484,-23.2707,95.1794
-50.1802,-158.5107,-139.6466,-54.9281,-138.9525,52.1691,-28.9662,-171.3582,152.4657,-76.2494,-239.2803,-211.9996,-146.9738,-126.5320,-96.0212,-169.3929,-64.2276,-41.5734,122.9221
-168.6374,-198.6343,-143.7153,-103.9912,-117.7366,40.9481,-0.1521,-144.6267,127.1255,-39.5947,-293.2560,-259.9949,-111.4019,-150.3590,-65.3125,-173.0329,-136.4657,-42.4134,127.7973
-187.9186,-192.2485,-99.1413,-122.3885,-95.8882,16.7940,25.7617,-97.0456,57.5791,32.5741,-310.5931,-258.5072,-74.1585,-146.0786,-45.3175,-146.7552,-163.3047,-35.2513,113.0083
-177.8466,-178.3168,-83.4623,-128.5012,-83.1690,-35.2325,3.8546,-68.0801,55.6464,116.1961,-331.8592,-240.3267,-101.1083,-151.6406,-58.5986,-122.4474,-176.5780,-73.4073,72.3015
-220.3159,-206.3476,-114.7516,-165.6299,-53.3417,-97.4848,-24.6586,-66.2019,166.3712,186.2182,-345.2141,-246.4294,-146.8880,-182.8650,-74.8708,-122.0614,-211.8051,-124.4996,53.4952
-255.5044,-238.9001,-127.0842,-195.1873,-2.6558,-117.4600,-17.6114,-64.2838,262.6291,230.7926,-328.3241,-255.6794,-154.2594,-197.1321,-86.3345,-127.3711,-232.2050,-116.8961,89.0532
-226.3999,-221.2184,-83.0058,-169.2256,51.9503,-92.1513,-14.1195,-46.5862,258.9455,235.0626,-335.8500,-239.4535,-156.2845,-167.3658,-90.8595,-113.2582,-204.7347,-73.7868,118.9276
-185.3112,-182.5285,-22.0788,-137.8800,94.1268,-78.1206,-28.0407,-29.6892,212.5787,204.9174,-386.1538,-220.1761,-164.0508,-133.5915,-47.2103,-90.1203,-168.0311,-67.3133,91.3380
-171.4358,-166.1050,11.0226,-151.0984,109.8540,-95.7056,-28.8006,-38.6615,154.7670,152.3981,-381.1876,-208.9165,-127.8926,-135.4858,24.6066,-85.6887,-156.1745,-98.1821,19.5874
-132.9658,-142.4693,24.7919,-157.9594,101.6646,-108.8300,-49.7064,-77.5304,54.4971,63.7282,-273.2866,-166.8006,-69.0601,-148.3012,31.7527,-98.9521,-134.0168,-123.5978,-85.8106
-40.4249,-81.4365,46.9800,-112.2651,84.7532,-100.3694,-117.4159,-118.2482,-49.0740,-43.9082,-153.4973,-87.8144,-56.9064,-131.5402,-23.6480,-103.3900,-67.8838,-135.8283,-190.6523
27.2918,-27.2402,59.0331,-59.4938,62.4179,-87.7823,-133.3768,-124.9925,-62.6801,-95.5734,-104.9196,-38.7794,-69.7304,-99.6386,-41.0633,-89.4338,-2.2071,-142.9231,-211.7178
-8.1048,-29.6171,19.8321,-47.8428,39.7298,-78.6357,-24.4645,-98.8212,22.8532,-44.7524,-124.1124,-65.7517,-49.7355,-100.4447,5.8784,-77.3959,-7.0108,-139.3985,-140.6323
-100.1474,-71.1269,-40.4206,-68.8103,34.8607,-75.3988,104.1967,-66.5595,112.9937,78.1954,-183.4157,-129.0230,-18.4590,-137.0271,58.7173,-79.3324,-78.6162,-126.5454,-62.8124
-151.5629,-108.9833,-45.0316,-107.0438,48.9522,-92.1160,130.5053,-27.3369,126.2023,193.1642,-246.9104,-165.9708,-13.8688,-153.0769,87.1812,-69.2678,-146.4971,-108.7702,-20.9225
-139.1052,-123.6330,2.5096,-144.4636,68.7814,-119.2442,79.0977,19.1182,69.7791,208.2863,-258.6579,-156.5684,-17.6250,-118.3573,90.6725,-30.5316,-158.8914,-86.6622,-13.0936
-87.1170,-105.1915,37.7785,-139.8021,93.5061,-119.3632,18.2354,25.3954,-8.5862,108.0127,-185.6417,-108.0778,-10.9867,-75.5236,55.1772,-3.8518,-112.2995,-77.7903,-47.8920
-17.6849,-58.3416,53.3447,-85.8745,116.4254,-81.9477,-42.6308,-16.2254,-68.8079,-0.4669,-65.8239,-39.8564,-12.0892,-53.8575,-17.1325,-15.2873,-30.1946,-91.9990,-72.5272
30.7146,-18.1534,72.6522,-30.9310,123.2594,-31.6449,-99.7183,-24.8781,-75.9415,-18.3129,7.3001,11.7106,-35.8787,-22.2068,-81.4287,-14.3918,40.1196,-103.2920,-16.1071
41.8961,-3.5680,77.2848,-5.3711,116.4868,4.7471,-134.5851,20.4513,-46.6797,36.2971,-11.7594,29.7932,-65.2939,14.3542,-82.6161,23.7199,51.8766,-106.2953,43.4659
51.6887,5.2014,51.7779,-8.2503,80.8058,-5.1839,-145.9189,29.8869,-45.1064,107.4583,-50.5543,34.6591,-66.7180,-4.7879,-4.4810,36.2162,7.8136,-132.7907,-14.4371
65.5050,7.6709,15.5968,-46.0367,-6.4433,-70.6913,-131.9215,-19.4139,-48.6249,166.1736,-30.6913,33.5711,-34.7886,-67.9044,103.1265,-1.7661,-47.3870,-163.9481,-114.4990
52.6721,-16.1889,-11.4767,-92.4066,-76.8369,-118.6159,-97.2671,-45.4790,18.9770,179.6805,14.7226,16.8575,-10.5705,-88.2249,149.6561,-27.8423,-70.5930,-139.4925,-100.0050
37.5996,-38.9967,-14.4397,-83.3020,-44.7150,-76.7781,-73.9052,-32.6307,91.2015,130.6284,36.0960,4.2657,-18.6743,-51.4402,92.2657,-21.6116,-40.6849,-76.0582,4.6569
53.4972,-18.9033,-3.3747,-17.7428,8.0580,-0.6564,-52.0810,-44.0391,60.7851,50.7289,53.8530,11.8389,-24.3798,-24.8454,6.7421,-31.6217,20.6658,-41.6328,65.4142
59.2595,22.3469,-27.8052,41.6617,-42.5124,24.2160,27.2255,-83.0973,7.3780,-6.1181,58.1979,6.3426,-4.9608,-35.5945,9.8685,-67.1317,53.2245,-32.1532,64.1231
21.9358,33.3292,-80.2675,65.4837,-113.8968,24.4184,135.6638,-91.9265,30.1687,10.5149,-2.8490,-32.4148,9.7212,-52.7613,89.1379,-86.8466,26.0889,-3.0592,80.4042
-23.2296,0.7961,-71.9816,45.3133,-67.8268,39.9452,164.0353,-41.2969,49.5112,102.2789,-81.8264,-66.9438,13.9590,-50.2793,115.6396,-64.4039,-27.6408,33.0043,131.3434
-38.9741,-48.6213,7.8019,-28.7569,28.1212,23.2695,105.2293,34.5530,1.7128,176.4923,-64.6836,-63.7682,40.4418,-28.1842,51.3751,-12.5298,-59.4117,42.4969,153.4207
-3.2246,-71.2266,63.2892,-98.2593,48.3560,-42.0379,49.9759,59.2820,-52.0491,147.4937,47.6468,-29.5673,72.7336,-6.9359,-17.8779,19.5186,-44.2924,37.0534,117.7874
83.9367,-51.6788,59.7427,-88.5151,25.9043,-81.1251,20.5374,11.3825,-94.0292,57.4064,144.3980,13.0223,59.4605,-0.2553,-63.7001,3.1818,9.0253,39.6542,80.2239
148.8898,-29.6378,46.1987,-39.7872,28.7787,-60.8808,-19.6182,-26.7296,-142.2899,-13.5114,167.6875,39.0547,14.0125,10.1752,-126.8177,-14.0960,56.7555,41.9607,83.8366
129.6850,-22.9026,45.8352,-26.5231,27.9136,-43.6423,-62.7549,-15.4074,-153.9150,-55.9682,162.5992,47.0420,-8.3751,28.9870,-174.1085,-1.0593,70.3215,25.5840,76.4896
90.5259,7.6962,55.4023,-31.0317,-11.0792,-80.9219,-84.7386,-33.9048,-130.9162,-76.5505,184.1299,64.7529,-2.1471,19.9585,-144.7213,-14.8709,73.9275,-5.9739,5.8556
102.8083,51.7042,66.1574,-26.8713,-73.3347,-140.6190,-83.9869,-98.0181,-137.5577,-76.0388,218.0236,85.9457,6.1405,-13.7263,-76.1888,-67.4352,84.8738,-25.4189,-62.3099
117.1645,40.7445,44.7711,-38.4284,-134.2929,-151.5885,-55.9887,-103.9128,-168.6311,-83.4843,212.5964,67.7002,13.6773,-13.0641,-40.9582,-74.1353,77.1309,-9.8853,-27.7001
78.7103,-20.4864,-0.6753,-62.2427,-152.3071,-102.7879,-10.8118,-34.9384,-192.1308,-87.2244,169.6118,16.7551,25.3961,23.1615,-56.0400,-27.1837,42.2290,32.2016,96.6581
33.0582,-64.1293,3.6346,-73.0112,-94.1917,-62.1279,17.5654,10.6000,-217.2480,-32.3632,144.2198,-16.3130,33.0610,34.5468,-117.8344,-13.7711,15.7160,75.2995,212.7612
44.4584,-67.3711,65.6681,-69.4118,-11.9549,-65.6324,14.8752,10.2683,-218.5466,36.7662,142.4090,-16.2882,20.5048,24.6975,-207.0868,-31.7238,30.0159,96.0373,251.2232
106.1792,-40.6223,95.0505,-43.5637,2.1808,-77.3354,-15.4414,23.3460,-170.7047,20.0135,107.3817,3.0995,-29.5445,47.4946,-251.4997,-2.2393,75.2787,69.5736,200.4300
142.9941,-4.6160,49.4340,-13.6997,-55.5142,-93.0133,-55.3479,59.4226,-121.0592,-33.9163,32.9770,25.8099,-90.5441,83.8050,-182.8825,65.3182,90.7186,-0.4858,102.9689
87.7704,-4.8294,-9.6385,-42.7047,-97.2381,-138.0391,-44.7404,84.2060,-94.9218,-4.7017,-5.9436,23.8666,-78.9980,70.7850,-29.1595,94.9552,28.8752,-50.8981,35.5774
-12.0875,-28.2389,-7.7703,-103.0894,-65.5780,-166.2255,33.7960,79.4609,-87.3133,50.9706,37.0675,5.4460,27.2253,25.6039,94.2860,69.4178,-43.2762,-28.3004,11.2697
-31.4642,7.5033,64.8084,-83.8042,-0.9595,-129.0511,74.2483,44.6330,-145.2571,-16.5232,120.4093,29.9942,120.7218,20.1866,92.5266,31.9898,-13.8578,28.0628,-42.4465
55.3458,90.6852,143.9979,3.7125,30.5163,-75.7646,0.7564,-0.2815,-242.9592,-166.5283,177.0149,98.4946,107.5461,59.5328,-6.7405,16.0431,94.0659,45.0662,-126.5569
145.4424,122.9130,156.9746,56.0024,25.9638,-49.9137,-99.9626,-29.5084,-228.2135,-216.1753,171.3155,134.5317,22.1604,83.3991,-80.8162,13.7251,162.3023,16.1171,-132.7043
157.1239,107.1425,102.6416,71.9517,4.8691,-28.1218,-132.5388,-47.3056,-73.1763,-145.4364,105.6922,115.6737,-60.3277,69.8837,-48.6997,1.4717,159.4420,-20.5801,-55.2926
100.3253,111.1715,26.8947,91.4582,-51.7664,-18.0583,-125.4832,-64.5726,63.1556,-121.1533,28.0057,92.1709,-107.4473,55.0696,54.3293,-13.5667,129.2533,-40.6356,-39.0749
29.3623,114.4138,-39.3738,84.4196,-131.3887,-39.3375,-128.8919,-68.0831,85.2736,-202.6853,-3.4864,81.9114,-110.9597,59.1236,121.8878,-8.7095,83.6813,-25.3928,-124.1433
-4.5094,79.5380,-65.6823,51.4219,-154.6922,-44.3269,-137.1491,-51.1583,32.1087,-255.4632,6.4446,66.7306,-88.5867,64.8320,72.3754,3.8488,32.4675,31.4762,-174.8688
7.7538,48.2088,-29.2460,46.3495,-95.1550,-7.8535,-133.2587,-26.4845,-34.2840,-207.4823,17.5209,53.8856,-73.8109,67.0717,-58.1026,5.3463,19.5170,90.4984,-122.8100
27.8989,55.6644,32.8055,66.9141,-20.3379,20.2191,-106.6174,-2.6730,-55.1230,-157.8152,37.4906,60.7631,-61.6974,80.4278,-142.8286,11.2848,58.5376,106.4426,-51.2260
25.4717,81.7372,59.1196,86.0444,19.8655,26.7793,-60.8782,13.9864,-19.4597,-167.8218,77.5716,80.4017,-35.4106,99.0565,-130.3135,28.3893,105.7839,88.9084,-25.2482
3.9871,99.5878,31.0083,109.9080,27.6229,46.2390,-30.4598,15.1970,5.7044,-172.2724,86.8067,90.0137,-20.6734,95.9529,-84.9107,33.6238,108.8469,68.2041,-31.6001
-23.2425,88.5740,-33.8842,118.1189,10.0292,67.2255,-34.1993,0.7565,-7.1781,-139.7541,42.7008,74.4953,-29.8582,61.5102,-36.0209,20.0022,55.2743,45.2930,-55.5826
-41.0873,53.4040,-91.7946,84.6879,-11.1945,60.7234,-46.6761,-15.7006,-23.1954,-116.4040,3.8465,49.5751,-26.6547,23.0900,49.4203,8.9625,-11.0554,18.2819,-87.2909
-43.0346,33.1146,-96.5151,42.3353,-14.5500,32.9766,-44.5820,-4.1359,-55.3102,-115.5959,-4.5430,41.4285,-1.0212,18.1998,137.0508,24.5160,-39.2449,-2.1666,-105.9575
-44.1462,29.8159,-63.0451,12.1650,-20.2920,-9.7403,-21.1628,43.6812,-106.0648,-119.6182,-11.7877,36.9344,18.9992,42.2498,141.4188,65.0815,-32.0475,-19.6189,-107.9368
-47.0686,13.4849,-36.9752,-20.4844,-36.5839,-54.8580,18.6950,71.6533,-97.5253,-133.2007,0.9486,17.6449,29.8607,51.9888,66.4434,85.6814,-10.7250,-35.9275,-100.7848
-25.6306,13.9974,-16.8536,-23.6321,-37.1206,-61.1270,28.9902,37.5614,-38.0716,-155.1651,61.4044,21.6821,37.4705,41.7369,6.1262,57.9608,27.3091,-31.6256,-94.1808
24.4689,66.0184,-1.5590,31.2078,-40.1302,-18.2315,-30.2978,-0.2036,-63.2844,-182.0739,123.3102,79.0297,31.8369,56.3077,17.4614,36.6059,65.7817,-6.3307,-109.1316
64.8120,105.2184,-19.7200,78.3926,-71.0622,30.9726,-106.1682,16.8893,-193.5701,-225.4903,147.5325,132.8328,24.5073,99.6940,52.1320,66.9163,70.5170,11.8414,-125.0120
60.6843,64.2527,-43.5577,53.9733,-69.2584,48.6441,-117.3151,50.9440,-277.8709,-239.4227,147.7894,116.8452,30.7716,116.4741,27.4456,93.9440,47.7698,18.1874,-67.6808
17.5519,-14.6597,-21.9921,-5.5249,5.5144,30.1321,-71.1543,66.6138,-229.3948,-148.7504,105.2636,49.1310,23.3073,88.7797,-50.7170,75.8081,18.4204,32.6408,56.7039
-22.4221,-54.7650,8.4436,-27.9714,72.1883,7.9805,-27.9180,80.3950,-137.2556,-31.2761,-0.3282,-9.6318,-14.5732,60.4250,-105.1193,57.2661,-13.7476,55.9463,117.6046
-16.5979,-27.9997,2.4667,20.3640,67.8346,32.0203,-17.9709,71.8896,-124.5708,-65.2776,-92.9816,-21.5589,-48.2578,60.1359,-119.4498,54.3015,-15.3984,76.4506,40.1842
26.3882,48.7776,-2.7948,113.1380,35.6286,83.4727,-47.9129,14.6741,-183.3698,-222.7443,-96.6029,17.5633,-65.7888,75.3158,-130.4299,30.1514,39.3492,92.4584,-84.1789
51.1785,110.2965,11.9875,162.5041,12.0436,73.2650,-109.6756,-40.1281,-193.9546,-277.3809,-56.6468,68.7796,-99.2350,82.9849,-124.3684,-6.5029,81.7792,104.0847,-132.0573
28.9904,89.7507,11.3733,107.6200,-7.7479,-14.9255,-160.8589,-47.9679,-121.2683,-170.8571,-41.2093,75.8130,-136.8484,66.6997,-82.5001,-24.7699,40.7735,112.2229,-96.8804
-1.7824,16.2878,-0.9411,3.7561,-14.3795,-99.2198,-158.5813,-36.8791,-84.1840,-78.4319,-26.0703,41.9651,-123.1193,33.7068,-52.5922,-28.6412,-28.9629,110.7200,-61.9170
12.1297,-20.7981,-0.2364,-55.8561,-23.3216,-138.9704,-121.3768,-27.6505,-138.2206,-83.9522,30.6283,27.5799,-67.1300,13.4447,-69.9879,-17.3681,-41.0096,76.2362,-82.1869
55.2420,0.5763,2.7088,-56.4039,-75.3860,-159.2918,-112.9046,-20.9398,-164.3534,-94.6672,92.9538,50.6917,-42.6571,11.4120,-108.0538,2.5603,-9.0344,14.7829,-135.4226
53.6890,33.6385,13.0679,-39.7525,-138.5424,-164.6370,-145.3599,-34.6066,-89.6569,-74.3049,98.5119,65.2542,-63.5316,6.7275,-131.1726,-7.2959,10.7272,-16.9456,-177.2375
-2.9821,46.1263,47.4751,-37.4199,-144.7999,-152.3181,-150.6421,-40.3991,-1.6334,-68.0427,45.1047,47.3019,-68.4220,7.0538,-105.7951,-24.6556,7.6943,-0.5378,-191.1117
-30.9246,30.9250,66.8002,-60.7287,-117.0171,-151.7037,-99.8059,18.9484,35.3732,-47.9584,-28.3535,19.6387,-46.5488,31.1970,-24.5517,23.0777,-10.2233,5.5312,-176.3936
-0.9517,-12.8945,32.2479,-100.8747,-118.8990,-169.4527,-62.8643,97.9906,55.8137,20.3980,-94.4343,-6.6519,-51.0613,49.0842,37.7111,100.2444,-47.8762,-24.2415,-145.5506
2.9157,-61.7603,-22.2676,-126.1306,-134.0348,-166.6315,-66.1123,108.3089,74.5419,70.8505,-127.7695,-37.4439,-74.0851,28.3635,13.6040,107.2060,-95.0147,-32.1919,-120.1894
-59.1058,-76.7179,-50.9361,-108.7641,-115.2363,-125.6496,-39.2905,79.6517,76.4983,60.1945,-118.0533,-59.5675,-63.7068,4.5586,-45.0763,63.6810,-116.4732,10.9021,-86.6702
-110.2188,-50.4014,-54.7229,-53.5200,-81.6676,-77.3096,10.2898,82.0919,74.5995,37.0811,-116.7290,-58.6762,-58.6082,20.9132,-67.4439,51.4226,-89.6413,42.0263,-17.9750
-96.9332,-15.2003,-60.4064,4.6692,-74.7651,-56.2829,-10.4986,90.5540,68.2990,30.0351,-160.7667,-44.3496,-122.8872,50.2114,-67.0413,62.0972,-39.2081,3.5963,54.9622
-69.8942,-6.4717,-91.4521,25.0479,-80.6611,-69.8108,-63.8276,70.0454,41.2402,38.3776,-172.5552,-29.8442,-186.3372,45.1298,-60.9709,53.0215,-19.5265,-59.6317,95.9870
-91.0036,-31.5466,-138.9097,-4.6304,-65.7340,-99.3936,-25.4840,52.7445,22.0112,73.0731,-85.1643,-22.7190,-145.1958,12.9878,-29.5368,33.6980,-52.4512,-58.5579,126.8821
-141.2581,-61.3996,-162.4753,-47.3080,-41.9121,-112.7989,59.4317,47.3362,21.5279,76.7659,20.0702,-24.9913,-47.2669,-8.7380,9.5631,18.1563,-97.5226,8.7631,131.1600
-142.4275,-53.3203,-143.3777,-47.0497,-32.1059,-87.3989,48.3700,17.9383,-27.6519,-21.8669,57.0007,-13.6697,0.4196,-7.7923,15.7428,0.5053,-100.9532,60.4782,43.9812
-62.6759,-7.1352,-96.0667,-0.3200,-11.9009,-36.3512,-33.7563,-28.0521,-134.0424,-128.7162,61.3604,26.7510,0.2034,-0.6454,3.8369,-15.1443,-60.1978,60.7331,-76.4834
19.1725,18.2333,-42.1893,28.5936,42.2481,-0.5751,-51.8941,-46.7318,-176.7748,-106.7620,66.5287,50.5492,6.6339,-4.2482,16.1240,-23.4206,-19.4296,43.0895,-78.3463
7.4073,-16.3656,-16.7220,-1.4585,94.1055,2.9465,9.9731,-24.8060,-105.9837,-21.1731,49.9119,15.2362,23.7409,-13.6525,40.3701,-20.6967,-10.7336,19.5602,41.5102
-74.9427,-67.9479,-30.4095,-46.7383,109.1583,3.8354,54.9859,13.5514,-54.0110,-10.7740,32.6319,-34.0116,39.9943,-13.1608,21.1189,-3.6665,-24.4768,-12.6803,130.3996
-116.1752,-75.4125,-20.7785,-52.6248,111.9367,28.2082,24.7347,19.8074,-118.3649,-54.8458,44.8816,-37.9565,58.7524,-12.5544,-46.4149,-4.0109,-35.2182,-15.3960,97.9216
-62.4712,-43.3494,51.0600,-25.5059,127.4126,63.4794,-42.9014,-41.2326,-196.9211,-63.5115,43.4632,-18.1971,67.1895,-39.0193,-96.6196,-58.9597,-30.4588,27.0092,-5.6521
23.1548,-14.1963,118.8185,7.4986,144.5510,92.2286,-64.4689,-122.6462,-165.6699,-30.3022,0.0217,-20.2022,53.5080,-81.7656,-101.0987,-129.7704,-8.9411,59.2058,-72.8185
54.1767,1.1446,131.7974,37.8048,156.1669,112.7221,-11.3932,-137.3877,-75.9226,11.2515,-34.4501,-34.7574,42.0670,-96.3699,-99.7092,-143.6539,26.0549,38.1894,-46.1905
38.4197,18.9818,121.2883,53.3161,148.6181,115.3342,50.4234,-91.6598,-43.2351,42.2780,-20.0545,-30.0919,57.9796,-79.2216,-82.2764,-103.8623,59.5522,-25.8447,9.4393
40.7000,34.3767,88.6195,37.4844,85.8817,87.0461,57.7435,-67.5891,-44.2776,53.7428,22.4705,-8.0548,83.4567,-74.5284,7.2063,-67.8556,63.7240,-108.4062,-7.1606
46.6855,18.6380,5.9849,-7.0352,-14.4870,39.0603,27.7824,-84.1207,24.5432,50.9935,52.6964,-0.0764,83.2360,-96.6138,120.6491,-57.8940,20.9432,-163.0607,-77.6956
-3.1784,-26.3178,-75.3674,-54.5787,-69.4665,-0.4956,-2.7804,-100.3727,131.5809,26.2984,46.2765,-20.3042,56.1955,-113.6733,147.6267,-64.6418,-45.4463,-139.2806,-125.1265
-64.6677,-45.7065,-80.6872,-65.3508,-54.2050,-9.4591,-27.0916,-113.2791,127.8551,-37.8777,21.7390,-37.4210,39.2599,-109.9216,95.9005,-85.5930,-79.8998,-63.2481,-158.4537
-51.5697,-7.2896,-18.1674,-26.9329,-31.1774,13.7649,-33.3933,-136.5176,-10.3460,-99.5884,16.1785,-24.7720,58.6558,-101.0294,54.1864,-113.4167,-55.1793,-13.1845,-199.9567
4.2794,39.2976,58.2138,13.1765,-30.2866,45.1229,-7.6478,-145.0074,-131.6646,-101.8118,19.6559,-12.0347,94.2266,-93.7372,39.9584,-126.8026,-3.2726,-12.1490,-197.2492
22.4848,42.3722,99.5653,20.5636,-17.8848,65.6368,35.2059,-117.7937,-125.9719,-79.9601,3.8986,-26.3315,105.8340,-75.8267,21.1759,-110.3540,36.7827,-26.8114,-127.3805
7.3821,28.7637,77.6766,34.4264,15.4172,89.0061,73.2065,-73.1240,-39.3216,-87.9636,-12.5921,-37.1034,82.9210,-40.8217,-2.5905,-69.9068,63.2075,-29.3150,-40.8785
-1.4994,39.4355,38.6588,80.5785,45.6463,127.1137,94.7109,-38.2605,25.0179,-86.9553,-12.2091,-21.5269,52.9417,-3.8509,-18.9831,-36.7191,82.1413,-4.7935,29.7750
10.5090,64.6533,66.2728,120.9108,73.9367,164.8954,88.0892,-37.6610,13.5823,-37.1244,-18.8145,-4.4994,44.9310,7.4773,-27.6566,-48.1191,90.0145,45.7398,72.2619
56.9333,91.5424,148.0263,146.1887,111.2150,197.4783,62.5632,-80.5490,-34.8993,3.3894,-35.7128,4.0918,53.8940,-8.4996,-31.5973,-97.8569,103.8501,96.1872,62.1941
123.4674,126.2322,195.0735,190.7618,142.5172,237.2854,51.5862,-127.3849,-35.6219,-32.7312,-40.4041,20.8207,51.5892,-12.2524,-42.2982,-129.9181,146.3138,126.9664,18.7481
160.4312,151.0586,185.7007,237.9019,153.8633,270.7016,64.1938,-136.3049,-1.6246,-121.5466,-35.5879,35.8895,35.3041,12.3756,-74.0043,-119.1456,195.1074,139.5431,-5.7857
165.1304,144.2878,168.2997,239.2342,143.9553,265.6714,79.4405,-135.3891,-32.1283,-183.8700,-15.9567,31.8977,35.5512,20.8949,-120.8946,-111.9559,211.8820,133.8618,-6.7784
178.0775,124.5395,162.8793,203.4241,105.5918,222.8900,80.0265,-160.3092,-105.2913,-186.5967,36.6503,25.4679,54.0078,-4.0055,-150.8357,-136.5289,205.1571,115.7436,-2.8371
194.6310,113.4091,153.4725,171.4292,57.5188,182.0529,46.9632,-171.6514,-106.4520,-183.9979,74.8808,33.7830,45.8245,-3.0116,-126.8752,-141.7269,201.8568,108.7168,14.1626
181.8384,101.1257,134.9251,154.4120,51.8501,180.0638,-19.4360,-128.8599,-64.7305,-222.7623,40.5194,44.3722,6.1041,49.5532,-52.3262,-90.4739,193.3256,114.6042,40.0426
140.5083,81.2070,110.0832,136.3319,82.9658,200.5060,-53.0527,-70.7745,-82.5625,-247.4816,-6.1478,42.6692,3.7948,81.7235,24.5231,-31.0920,163.5506,85.3511,43.1970
87.1308,62.2343,71.8479,94.6170,75.6306,177.2836,-2.7288,-38.6786,-113.3404,-198.3483,20.1794,31.3607,66.2147,46.1288,78.3189,-4.0759,124.2331,-17.1482,10.3370
36.0150,39.9897,22.9302,27.3919,15.1144,90.2981,56.7299,-8.0002,-72.0908,-128.3976,63.0601,17.3521,110.2815,3.6561,115.7459,24.3834,88.6726,-141.3211,-35.9005
11.9813,9.0446,-5.1404,-28.6062,-34.1079,12.4338,30.1762,32.8762,-4.0305,-104.1143,34.5021,2.5366,70.3800,10.5848,109.0381,65.8277,61.5595,-191.0615,-55.9943
21.5469,-11.4593,6.8989,-44.2932,-53.9177,-2.4962,-32.8396,35.3620,39.0163,-92.0286,-7.4720,-10.2033,11.0044,23.2481,48.0759,64.2901,54.0309,-162.8429,-38.3633
28.1056,-9.0790,17.0115,-42.9531,-79.5710,1.0620,-25.9602,-13.0190,90.3222,-47.2080,20.7585,-16.5879,16.8390,-10.2862,28.2412,11.3554,56.0526,-145.3474,-23.1677
-0.5063,-10.4109,-25.7545,-58.3015,-113.9235,-22.0307,30.1518,-44.2289,163.9888,-4.6819,62.8256,-21.6943,51.7085,-49.8884,112.7948,-18.1125,34.5605,-165.1212,-22.3242
-38.9958,-35.4229,-94.7284,-79.6713,-147.7124,-42.3690,33.7906,-19.0158,215.4503,-12.6005,50.5823,-30.7661,31.4637,-31.7637,187.1011,8.8430,3.1043,-162.5705,23.9285
-34.9419,-51.6866,-121.5459,-73.4817,-186.6676,-30.9824,-25.3268,16.8013,185.3649,-55.1030,39.5418,-27.7080,-27.2352,25.2268,133.9774,41.4408,11.7430,-125.3215,114.6490
9.1406,-30.9794,-92.2602,-42.3812,-202.8197,-12.6603,-59.0596,26.7868,51.4726,-75.4470,76.3007,-2.6048,-36.5360,54.0841,27.5805,45.9259,43.5522,-95.5109,144.6948
32.3632,-13.4441,-51.5773,-31.9378,-166.9662,-13.0335,-21.8577,27.7031,-87.4297,-43.5390,109.6124,11.2611,18.7862,34.6044,-17.2200,36.3018,34.4343,-72.8933,95.6670
10.4914,-45.9834,-43.2699,-62.2869,-114.3901,-20.3026,35.4844,19.8515,-81.0247,20.5223,117.0499,-14.3262,63.7462,-6.5080,-30.1278,12.6011,-9.4630,-39.0914,89.0969
-23.3796,-102.6892,-73.4954,-94.5496,-83.8034,-18.3843,64.7177,-12.9736,52.5505,97.4478,126.1770,-55.3635,53.0187,-52.1769,-69.7513,-34.2120,-40.4295,-17.0397,172.3928
-59.4890,-135.8084,-115.3485,-106.4168,-72.1893,-29.0577,89.9461,-42.6418,157.6682,192.6049,110.5100,-87.9176,23.2468,-100.9971,-87.2141,-77.0443,-69.0927,-32.5644,242.9413
-101.7571,-146.5270,-147.7273,-128.3541,-86.9429,-83.0259,137.0222,-26.6280,183.0416,278.1243,56.0423,-113.9040,16.5214,-135.3046,-41.9463,-72.9941,-114.4023,-80.2216,227.1926
-110.5577,-152.9301,-169.4483,-162.3955,-124.0781,-142.7850,171.2329,36.5224,184.1820,295.6292,38.7820,-117.1219,28.2937,-122.9801,-16.1858,-8.4167,-135.4917,-132.0197,171.5373
-72.2499,-150.2517,-165.5208,-165.2191,-131.2506,-134.0336,157.3172,113.0937,166.9162,240.5439,86.4123,-85.9297,42.2173,-64.3623,-89.6304,79.8154,-106.4613,-145.2256,134.6770
-42.9481,-126.0159,-125.5664,-124.6313,-96.5352,-70.8673,118.5950,141.9193,107.4191,161.3822,119.2058,-52.4554,50.2748,-14.3096,-191.0275,113.5047,-64.6010,-104.7160,109.6880
-47.3489,-76.6776,-94.1696,-59.1257,-75.4872,-28.4419,106.8773,82.9380,42.1122,105.2845,92.5754,-40.6802,41.6417,-18.8996,-185.7022,54.3543,-43.4001,-45.3014,85.0041
-55.9062,-23.4331,-113.1496,14.3346,-88.6592,-5.8247,145.3224,6.7547,47.5129,117.1011,30.6267,-42.7003,17.2862,-47.1521,-70.0543,-22.1362,-42.4952,1.6873,100.9077
-63.3942,-7.5367,-150.2524,53.4095,-116.4069,27.8934,186.3862,10.5030,149.8551,188.0022,-36.9390,-56.3577,-10.4579,-45.2359,21.7514,-24.9342,-51.0000,16.6419,167.0641
-66.6860,-28.9918,-158.1138,24.9943,-151.4254,26.4154,148.5284,40.3192,252.2721,202.7566,-52.0514,-65.7166,-36.3514,-28.5245,16.0002,8.3708,-47.8161,-23.4463,184.5701
-44.2502,-39.4783,-129.3333,-28.5209,-155.6932,-30.0723,50.9297,-8.1437,235.7953,93.3591,12.9559,-44.1792,-38.9078,-40.0497,0.1223,-9.5291,-25.7496,-77.0552,81.1688
-27.4807,-33.3405,-74.7670,-56.8695,-82.9797,-63.4663,13.9204,-78.1457,155.0789,-29.2018,57.7069,-24.7122,2.8301,-64.7036,48.7130,-54.1778,-14.9030,-69.9278,-44.0971
-53.9307,-49.6993,-32.4228,-69.3208,16.6187,-47.9642,58.2429,-68.6944,146.5684,-56.9546,8.9462,-49.6005,37.6529,-67.0057,77.1428,-52.1035,-26.3742,-36.6964,-67.2873
-75.2048,-75.9273,-46.1511,-70.2433,56.2082,-42.3445,85.6491,-32.0687,186.9502,-38.8149,-42.6607,-77.0284,9.6626,-58.1555,23.8855,-26.1886,-30.1637,-44.2154,-21.8704
-59.1136,-73.4303,-83.5561,-51.4159,37.7516,-46.1068,92.5230,-46.2892,192.6729,-26.9382,-30.6804,-71.9781,-15.4307,-62.7783,12.8113,-37.1115,-26.9358,-39.8149,12.2313
-56.8174,-66.5056,-80.5219,-52.7576,11.6629,-25.9069,148.9411,-60.8750,198.6305,4.6632,-11.0860,-76.0603,41.1894,-69.6456,120.7686,-58.0158,-44.1295,16.0724,40.9289
-65.9830,-82.5720,-46.9195,-91.1518,8.5264,-9.2340,194.4125,-23.2733,203.6356,17.3930,9.9707,-86.4425,116.8478,-50.3242,197.5041,-30.5052,-57.2256,50.3310,63.1991
-21.1737,-73.4994,-9.4264,-88.8301,50.7639,7.3996,137.0535,13.6293,110.3883,-62.7400,77.5478,-40.5136,132.4722,0.1301,131.9755,19.3188,-21.1791,59.6008,33.4598
56.6594,-0.6543,47.7221,3.7785,123.9875,75.5903,55.9053,-1.2955,-48.4258,-169.4596,150.1319,44.4940,125.8470,48.6328,29.5122,23.1871,49.4153,115.8200,-24.2195
105.6963,83.6577,105.3338,109.7337,164.2348,150.3690,52.7649,-40.1628,-149.4571,-191.5697,186.4421,96.7804,136.3370,58.9785,-26.6232,-14.7946,114.3293,161.3141,-37.4236
150.9680,117.2952,123.9714,144.2403,142.3228,152.0394,61.7709,-59.5135,-205.1750,-168.2395,221.5254,114.0280,131.0318,48.6218,-77.5892,-32.6074,166.2921,107.9068,-7.6515
215.3109,114.1141,131.0949,133.8396,97.2376,131.8885,-8.8104,-61.8056,-247.8285,-175.3791,228.2098,124.1339,85.1285,59.8311,-112.6217,-21.5525,202.1060,41.1380,21.1138
232.7370,113.1372,155.2543,143.8715,83.0514,158.4008,-111.0802,-78.2196,-194.6851,-158.3157,128.9184,113.8871,6.4767,74.5964,-88.7463,-37.2577,195.6576,68.3771,41.5360
168.2983,108.8066,170.1246,163.5570,129.9786,181.3671,-138.4774,-105.0749,-50.8907,-59.1438,-26.6628,74.1424,-63.1877,47.6498,-44.4497,-87.2601,138.1759,139.5829,49.5067
90.2670,83.3734,172.7564,140.4697,205.1415,161.7534,-67.6854,-90.4214,47.7916,54.8254,-113.6196,30.6721,-51.8353,4.7000,0.9056,-98.9610,70.5266,159.0412,34.2143
68.8416,55.6456,172.8004,87.0916,230.0542,136.7601,10.8364,-19.9533,81.2741,117.0699,-107.0394,15.4097,14.8932,3.3363,66.6523,-36.5945,44.6891,106.4067,26.5943
98.6685,45.7583,140.2162,61.6885,202.0276,110.8328,-4.5318,39.4214,133.4356,148.9758,-65.1423,39.5313,5.9527,32.6428,91.3881,34.8042,58.5824,30.9523,54.6573
127.6555,41.8050,89.5433,68.6525,192.1402,79.0010,-84.4701,35.9804,190.4362,166.9746,-37.0981,71.8493,-76.0795,41.8925,43.3573,46.6120,65.1518,3.8658,76.1434
115.9828,37.9567,79.4690,70.1857,193.1447,85.1811,-107.6535,9.0413,203.1180,165.2295,-47.2280,67.8269,-86.6388,22.9351,38.6833,21.6231,46.8591,14.2922,48.6364
76.4212,38.4025,82.7364,52.3081,143.0578,113.3225,-41.8362,21.2021,209.4641,177.0373,-85.1251,32.9840,-14.9640,3.0951,138.1424,26.7465,23.4632,-22.9822,11.3253
57.3680,22.1743,44.6611,14.5914,70.7977,86.9665,38.6002,67.4922,242.1985,220.8759,-108.5571,2.9889,26.7098,-1.5829,240.1394,69.3330,0.1056,-86.8426,21.6956
74.0458,-10.5635,8.3798,-25.7313,39.9575,33.1934,77.3096,90.4753,272.3342,249.8417,-92.1074,-9.0040,24.5706,4.7150,270.3693,92.2809,-17.5429,-77.8155,69.9922
84.7104,-3.1639,18.8999,-14.7985,38.2693,38.0598,66.3754,71.8396,276.6895,227.8609,-44.8579,6.2911,21.7039,16.5764,236.6041,73.7976,3.1408,-33.2335,101.9194
58.6039,64.0714,52.2663,52.9302,40.5149,77.7909,23.6847,64.5282,235.3320,164.9288,16.5724,57.1766,18.8113,43.0334,142.0806,66.7851,64.1622,-44.1943,75.1112
34.3021,130.1196,102.6472,97.2993,48.3162,82.1651,-17.4912,88.8316,132.7592,77.9053,86.1525,116.1471,37.4985,81.3875,34.6674,92.9421,116.0141,-62.2602,-14.4882
59.2721,147.0584,155.9017,75.2429,40.0818,52.7004,-59.3362,75.0666,35.2339,11.6173,159.0341,149.2101,80.7796,87.5609,2.8374,89.3413,125.3621,-41.4312,-116.0856
91.4833,114.6998,141.2131,17.2689,8.7192,-1.3245,-118.0783,12.2031,31.2015,32.3407,194.2944,147.1635,76.5763,37.8832,47.3796,41.8780,88.8270,-59.6521,-156.7537
52.1354,44.3883,60.9177,-58.4142,-6.4121,-88.6940,-134.8843,15.6795,80.6167,120.1379,137.3002,105.1384,23.8073,-6.7504,106.8883,41.7540,9.0964,-123.0441,-125.5175
-32.0721,-16.7344,6.5477,-116.4407,1.6233,-151.7256,-56.0970,111.3690,88.0851,164.2427,32.6419,46.5762,13.6127,12.5148,152.9295,110.8470,-67.5033,-114.7248,-76.8102
-65.1263,-11.4263,-13.0885,-82.1631,-0.3488,-112.3865,42.6474,151.3039,74.0311,107.8599,2.4638,26.6180,42.3323,54.3541,156.6420,136.6765,-70.5441,-16.5176,-37.9187
-40.3302,29.5981,-52.5132,25.0519,-8.5884,2.1017,71.4629,77.5466,100.7204,14.1277,45.7268,41.2146,31.6174,59.9267,98.3690,74.8599,-13.4793,64.4526,16.9162
-21.5986,36.3036,-83.4172,94.9043,4.6735,95.3494,54.2068,27.4256,133.6230,-13.2240,26.6902,32.4018,-18.2960,54.5721,36.7023,28.9614,23.3430,80.6554,103.4350
-18.9178,20.7753,-54.1199,102.0941,39.3610,126.3168,46.4312,77.6104,126.6172,61.6274,-80.0360,3.0225,-59.4400,77.7779,34.6065,57.6294,21.6601,75.0375,200.9733
-12.4338,28.9354,8.8510,99.8356,73.7860,127.7749,73.5112,138.9961,104.8199,162.6915,-133.2985,-2.4102,-50.2246,103.2845,68.6005,94.0002,25.1806,80.1051,268.7543
-10.0500,50.8958,58.2352,95.4509,76.6798,135.0655,136.6005,148.8692,71.5796,184.2473,-62.6083,11.5998,34.6999,101.6664,86.1129,94.6777,44.2678,88.2485,263.0058
9.5185,63.6759,78.9389,80.6795,35.7546,140.6303,159.2193,138.1931,1.6331,111.3838,32.9242,29.2959,117.4835,98.8272,67.7822,95.5502,62.0341,84.1454,183.0169
87.8617,72.3241,81.6015,76.4371,-4.0537,124.0810,63.7233,124.5630,-63.1502,8.3274,64.0894,63.3457,88.5548,121.5490,23.7184,114.9198,87.2360,67.6910,88.6031
184.7399,82.6033,96.8065,81.8570,3.2170,95.6120,-58.0163,105.0175,-86.1314,-58.2666,62.8848,102.5528,11.1815,145.2228,-16.8960,129.2934,124.7326,44.3611,28.2577
216.5425,92.3797,119.7351,81.9419,34.5904,68.8458,-69.6834,95.5990,-113.0518,-31.1889,72.5431,116.8086,2.5255,130.3543,-35.0802,124.4603,138.8193,9.0787,5.5884
172.4846,85.1584,95.5662,69.9123,48.0885,23.9117,-20.4858,93.9589,-127.4389,96.1178,68.1307,103.4231,8.8728,78.5275,-26.8259,101.5236,97.1756,-33.6535,31.3431
84.9661,34.8015,23.4207,15.9319,35.0942,-48.7272,-14.1458,83.0854,-23.6292,229.9497,41.9292,68.5940,-31.7824,26.4678,26.3895,69.9441,18.7337,-60.7759,105.7711
-27.4860,-33.8807,-33.5338,-74.9502,-2.2153,-108.3184,-9.8006,76.7610,163.7100,287.9179,39.7617,22.2700,-35.8500,-3.7972,114.0903,49.7292,-53.9754,-61.9279,162.1648
-108.9969,-53.4744,-57.6716,-112.0084,-44.7980,-110.6428,47.8558,80.1729,248.2476,298.2773,63.3743,-3.3078,25.8830,-22.5181,162.6360,40.9715,-99.8497,-35.0655,139.2491
-85.4670,-17.8494,-61.5874,-54.6522,-54.6513,-55.2532,97.9301,64.1618,169.3047,286.4070,68.6312,6.7320,67.7533,-33.9571,133.6051,23.8620,-108.6777,26.1676,71.0122
11.3585,15.5961,-30.3022,11.8488,-35.4819,21.4490,83.5485,42.4854,53.8514,219.0098,62.8063,28.3746,71.1681,-15.4039,74.0312,16.6722,-71.0386,84.8623,30.2874
67.5163,18.4735,11.1668,21.3908,-28.0476,67.5976,33.1731,72.4014,7.9713,130.2771,68.0683,41.9945,64.6173,39.2961,26.3385,59.5588,-15.3242,78.7117,45.7184
52.8947,1.0230,7.2581,-0.2085,-36.5303,57.4227,-14.4872,139.8779,19.5553,103.0413,59.6310,45.8009,29.7522,90.8564,-8.4280,126.8102,5.6391,27.1558,96.0242
38.9142,-24.1602,-16.9641,-25.9045,-44.8848,22.7623,-58.6872,162.9379,30.8414,111.0843,47.4929,42.7872,-15.1058,104.0628,-31.5690,148.6173,-7.9328,7.0852,127.6915
53.7740,-39.9942,-15.0163,-50.9573,-68.3813,6.0417,-108.2795,125.7741,18.4340,72.5482,72.7810,43.4991,-22.8672,95.2717,-40.6868,120.6734,-16.0006,29.4056,106.9133
43.9435,-37.8879,-24.1837,-57.5774,-111.5231,8.1273,-141.2616,95.0402,13.5072,3.6585,93.2273,47.3116,-16.7452,96.1030,-27.0896,100.0556,-22.7204,56.6489,62.9176
-7.8535,-26.0625,-61.8628,-42.2049,-133.0737,10.9579,-122.1417,97.7362,25.7246,-42.7135,69.0224,43.8862,-13.1874,100.1099,4.4866,103.9035,-47.6261,79.1902,10.8197
-33.1973,3.0634,-55.9604,-20.7788,-101.5768,0.9460,-78.8505,86.9054,-7.9851,-81.7791,68.3468,53.2587,19.5389,84.0726,7.8426,96.3747,-54.7724,87.8000,-94.5814
9.8646,56.8116,14.8991,5.5321,-39.2533,-32.6613,-74.7994,35.7609,-97.0642,-120.0766,96.4624,87.6856,45.9325,51.8333,-17.2055,60.2554,-16.7561,62.3296,-232.9813
56.8514,97.7027,72.8279,30.2467,6.0033,-70.7313,-83.6379,-18.0435,-125.4081,-107.9014,52.1830,97.7256,17.6950,20.5264,12.1141,16.8152,19.7228,21.0667,-287.5831
35.2837,87.5293,71.4319,29.7202,13.0110,-69.7108,-42.2479,-34.0860,-43.3605,-48.1110,-33.9719,55.4544,-5.5975,-2.6723,88.6345,-9.6256,14.4397,0.6643,-221.5698
-23.2952,44.2206,37.0468,9.4072,4.3411,-32.0839,-1.3432,-18.1897,19.2679,-16.9779,-45.1894,12.7862,9.4316,-8.5631,90.1347,-12.3707,-8.8560,6.0100,-120.1335
-46.0704,6.0886,0.7958,0.1589,0.3345,-7.0091,-36.6285,2.6648,-34.9214,-28.8123,-31.5442,1.7034,-11.7496,7.1386,10.8682,-2.0445,-26.8546,22.6767,-41.1371
-32.8996,-13.1143,-24.4317,4.3113,-20.3503,-5.1057,-101.6811,19.0935,-117.0759,-22.2535,-81.1918,-5.3124,-74.6070,25.3314,-34.5906,9.0264,-46.7139,33.5356,8.9361
-30.0838,-14.8320,-42.9554,7.6343,-72.0611,11.0321,-133.2268,42.7729,-119.4748,-6.2267,-123.7916,-11.1142,-97.0523,38.9132,-29.5652,31.3313,-64.9330,27.9834,4.8153
-45.0344,-1.6482,-67.7750,20.8483,-113.2488,49.9904,-152.7591,81.3033,-75.3298,-48.7479,-116.2090,5.0647,-85.3585,69.1984,-32.6696,79.1559,-67.7369,21.0191,-55.4193
-50.4187,21.3332,-79.5686,49.3367,-104.1316,68.5731,-169.9092,104.2483,-67.2671,-111.0039,-121.6071,27.4964,-93.9668,96.0109,-52.7940,113.8960,-57.6486,21.2025,-124.9170
-31.3308,44.4156,-45.1114,64.1817,-69.2967,37.2982,-157.5353,61.0134,-106.0031,-93.7576,-103.7095,37.6786,-92.1871,58.8403,-106.5233,71.1048,-42.4240,11.7208,-178.3671
4.2500,59.3106,13.2903,58.0023,-51.8938,-6.1469,-135.5720,-30.9767,-168.7928,-37.6392,6.4884,50.0511,-50.6397,-19.1069,-220.1972,-26.6746,-20.4216,7.5855,-213.1109
37.2070,71.1514,48.8252,65.8810,-49.3240,-11.0666,-140.4207,-78.0879,-251.0319,-55.9916,109.2435,71.7224,-23.1561,-38.4950,-332.5382,-74.6851,11.8122,31.6783,-213.5135
52.9327,83.4172,60.8045,83.7572,-38.8436,-4.7654,-158.2795,-47.8243,-303.6991,-107.2452,103.9566,86.4060,-42.3377,4.2893,-354.2087,-41.4583,44.1316,31.8734,-186.4974
47.4807,76.0351,54.8529,60.4021,-33.3811,-45.5620,-154.2558,-20.3988,-232.0083,-66.3563,58.3369,78.4215,-69.5616,10.9716,-272.9884,-11.6712,45.6602,-26.9394,-159.2233
22.9997,44.6029,13.3529,8.7392,-60.8590,-104.4622,-107.1766,-47.4841,-58.7237,31.1206,34.7551,45.8027,-73.0162,-37.9387,-142.0331,-38.3294,3.2611,-55.9569,-138.2622
-1.7706,24.8939,-37.6814,-3.2768,-103.4084,-115.5489,-29.6967,-86.7064,39.2532,38.7911,2.4973,6.2173,-58.5199,-69.4747,-52.0286,-78.0537,-40.0172,5.0770,-139.6881
-6.0053,19.1254,-50.2963,10.5617,-117.9599,-99.4301,30.2675,-112.3553,-19.1571,-45.3436,-37.7993,-27.4522,-38.2298,-75.9423,-57.7708,-103.1924,-51.3528,69.3725,-172.8615
-22.4951,-22.4853,-57.6337,-18.0500,-110.6655,-99.9224,73.8786,-137.9410,-76.1008,-54.9755,-60.8157,-76.9128,-14.2655,-114.9978,-89.5266,-138.0589,-77.2122,70.8426,-161.2236
-103.0051,-100.0231,-120.3426,-74.9917,-125.4535,-91.2847,162.0977,-124.7224,29.2127,107.0605,-88.0191,-151.7693,14.7393,-175.0825,-62.9915,-159.9130,-155.4440,49.8257,-35.0288
-207.1886,-154.9153,-205.7470,-111.1664,-172.1252,-68.0901,265.5514,-23.7866,230.4478,329.1406,-133.9874,-206.7260,31.8062,-184.5512,-6.0316,-102.2912,-232.4001,13.4476,118.9039
-246.2075,-171.8052,-250.6894,-142.2021,-223.6087,-83.4733,270.5253,112.2596,354.9565,433.6268,-177.2007,-206.9972,11.8656,-130.1801,45.7626,21.6247,-258.5656,-60.5597,169.6931
-218.1860,-171.3518,-262.2388,-170.1381,-253.7482,-124.3472,179.7126,175.8048,335.5558,376.0506,-188.4992,-172.8889,-26.7302,-70.1564,93.3676,107.3649,-254.8441,-107.1565,120.9782
-165.4320,-139.5175,-255.0931,-137.9477,-240.7300,-116.1653,98.0805,129.4650,222.9243,243.5676,-132.9680,-121.4748,-40.7259,-48.9422,77.4541,89.8232,-225.5826,-67.7599,48.1490
-86.9918,-72.0747,-209.7694,-50.3859,-181.8231,-65.4157,49.8517,34.6390,102.5497,136.5766,-31.3817,-54.1872,-37.0983,-54.7616,-18.2239,18.5061,-154.4403,-5.8431,-13.0429
-10.3812,-20.2334,-148.0937,4.5284,-115.7353,-43.2848,11.6457,-14.7347,42.3733,109.1404,10.9228,-4.7755,-45.0127,-55.6983,-55.1050,-15.3246,-94.7072,8.8243,-48.3186
-2.7962,-15.3117,-119.7607,-11.3286,-82.7993,-67.3404,18.6493,12.6565,50.1678,149.2250,-40.8371,-4.5232,-42.5207,-46.7696,47.7915,11.1290,-103.3300,-9.1439,-55.5029
-53.2087,-29.0976,-117.2150,-55.8046,-80.2290,-106.1965,78.4594,60.6874,77.8629,190.0959,-82.0403,-27.1016,-3.3141,-43.3664,173.6418,47.7796,-135.7195,-36.7921,-51.9307
-96.6634,-39.0044,-109.7721,-89.0085,-82.2581,-129.3502,115.6947,84.9447,89.6970,189.7212,-50.8258,-33.8018,38.9041,-39.6747,203.9923,64.0894,-137.8951,-59.0614,-37.3878
-116.5667,-48.7348,-100.9862,-95.7763,-69.2488,-110.5372,84.1158,109.5693,79.2261,158.8990,-12.1437,-22.3447,44.0560,-11.7443,148.2194,84.0903,-130.5428,-40.4265,-12.3793
-109.8603,-49.7018,-92.0549,-70.7399,-40.2811,-53.8109,25.1755,143.1469,33.7927,106.2503,-16.1858,-5.3242,24.0178,35.0897,72.7494,116.9048,-123.1375,8.1660,-2.0246
-75.1619,-38.4141,-82.5009,-32.6204,-25.6466,1.3526,12.7466,149.3579,-27.4773,55.0634,-40.6218,-1.4669,13.3916,62.6711,49.1152,127.5468,-97.5596,32.3559,18.0379
-65.4555,-43.9913,-103.7724,-13.2881,-53.5576,37.4128,83.2459,125.7071,-28.9068,56.7456,-64.3070,-34.6999,26.4891,51.6468,93.4972,98.8767,-84.8261,43.8378,104.4997
-100.3864,-73.5489,-154.8277,-14.5674,-97.2214,66.2622,181.1872,104.2609,43.9759,84.8832,-78.1728,-86.2246,48.7110,29.1935,132.7483,62.5142,-104.7171,85.8219,207.4143
-108.3962,-82.5538,-170.4263,-10.7866,-108.8277,87.9914,210.5354,98.2342,95.3235,54.1497,-76.8534,-100.0282,58.0081,34.3160,131.5269,57.5849,-104.0442,122.3637,219.0263
-72.3779,-55.7150,-125.3417,0.5323,-90.5374,97.0592,171.8568,108.8757,73.1651,-9.2562,-90.1420,-76.5662,58.3955,63.0543,148.6619,84.1757,-72.0702,112.1172,149.7180
-57.6707,-31.3790,-63.0101,2.4636,-66.4352,99.3042,150.0215,120.2970,29.4265,-20.4923,-136.6768,-68.9011,71.4641,74.4772,194.0458,97.3321,-65.0212,107.3244,84.3363
-62.8812,-6.2349,-0.7069,20.8306,-14.4557,107.2041,172.5240,96.2679,-15.5806,-18.6940,-158.4740,-69.4850,97.8966,60.1021,196.8448,64.0958,-60.1887,146.9792,43.4870
-37.2554,59.2877,75.5666,93.3907,97.5859,139.7880,194.4391,50.4951,-84.0591,-72.7416,-98.0402,-23.4911,124.3921,57.2119,133.7780,22.9832,15.4894,167.4786,11.7005
16.5720,129.5384,148.8862,168.2192,228.2017,186.7694,178.6073,37.3715,-131.8410,-122.6526,0.7271,52.3153,144.0294,74.1845,54.3080,27.0528,120.6800,119.5590,-15.7446
81.5466,137.2065,195.2680,159.9256,292.5481,185.2537,117.9892,39.6899,-113.9136,-102.7487,55.0163,92.2817,142.0678,72.5932,16.7698,47.2303,160.3643,52.7991,-54.2433
138.8648,107.5898,215.0852,98.7607,276.8567,118.2199,41.9765,5.4536,-72.9785,-61.6718,51.8109,90.6828,107.0058,45.5070,46.9325,28.1703,145.7782,21.4204,-85.5676
138.9885,90.8630,203.5276,69.3079,243.7618,66.4161,-1.4813,-27.6914,-38.2918,-49.3363,21.4169,77.1132,56.8593,33.3682,101.0434,-0.9128,135.3932,9.1395,-51.3776
91.2147,59.8468,163.2260,53.6124,223.4067,66.5039,-10.7122,0.8972,8.3589,-35.2207,-23.6924,48.8524,17.5646,47.3281,107.5032,17.2497,120.2745,-13.1217,33.7711
67.6830,1.6251,138.4835,2.6047,196.3895,56.7960,-6.7370,60.0198,38.4812,28.4689,-65.4274,7.5295,5.2667,53.6773,67.8352,58.7335,78.8021,-29.3899,91.8855
63.3117,-25.4811,161.2165,-36.2529,169.2912,28.8247,24.7146,87.0059,23.6558,130.9435,-79.5455,-20.8951,25.2207,35.8663,23.2282,60.8177,42.5031,-13.9162,113.7004
33.7183,-2.5215,192.4610,-6.8313,161.5577,47.6680,62.6422,68.2527,7.2467,173.6087,-81.6064,-30.6005,41.1624,18.8233,-30.1789,19.4726,46.7365,23.9570,135.5001
6.4049,23.1573,175.6225,55.4199,157.2114,106.7878,41.1793,29.4065,12.6380,76.4664,-95.3214,-29.0799,6.0826,32.8548,-84.0863,-15.0946,79.1175,60.0503,150.5761
-6.6485,25.7348,116.3428,86.8093,145.7675,133.9829,-6.1987,10.9915,21.4282,-53.7281,-103.0179,-18.8156,-42.8858,64.5255,-78.3195,-12.8244,92.3515,83.1578,153.6208
-35.9962,10.7463,67.9287,62.8114,136.7778,102.4640,17.3608,18.1983,47.6818,-35.4239,-92.2980,-19.4963,-30.5555,55.7511,2.5676,-3.9589,52.5032,85.2581,149.9345
-47.2313,-12.3442,55.7445,2.0274,117.4931,34.2913,81.9341,0.3381,75.4766,85.6648,-80.0385,-39.8521,27.0753,-13.6857,94.1026,-29.2689,-17.0198,65.0975,90.0628
-17.5438,-21.4135,57.9132,-41.6878,94.1346,-21.2115,96.2668,-48.4831,45.5223,87.8104,-58.1641,-45.8779,71.4113,-72.7838,131.9466,-62.6007,-54.1260,46.0960,-48.0172
-12.4683,-6.6375,59.4282,-32.1859,114.3523,-6.0359,78.2465,-58.4453,-5.2353,-74.7758,-13.4451,-22.4198,100.9342,-53.7947,102.8132,-45.9474,-26.9547,43.2427,-164.0103
-21.5268,16.5378,73.1563,6.8861,159.7279,56.4264,64.9398,-23.7045,-14.7086,-227.6696,25.3849,5.8101,112.7493,9.0563,45.4532,4.0781,41.5471,34.3879,-173.5082
40.3129,47.0682,96.7187,43.8159,150.4988,79.2723,18.7400,-21.7094,-49.6287,-262.6654,41.4395,36.6149,78.7491,47.0292,26.8159,18.1596,105.7102,13.7611,-125.4985
110.7957,76.7322,100.7491,68.1347,96.4487,63.0101,-51.0633,-62.7273,-128.8595,-240.0888,42.2094,64.9717,28.2439,50.9670,78.2191,-12.8925,127.1162,9.6287,-78.5221
69.6321,61.9694,70.7693,57.9258,72.5718,67.7199,-73.5415,-81.6103,-115.0280,-221.7424,13.7545,48.2997,9.3411,42.4025,155.8766,-38.3098,99.7270,12.2785,-15.4914
-16.5125,5.8237,25.8545,13.0393,79.0266,73.2552,-56.0591,-59.5272,2.0382,-181.5676,-18.6894,1.7375,3.1345,29.8511,182.8129,-31.6461,60.4994,-16.4319,63.7621
-18.4199,-22.8693,1.0002,-14.1540,77.1971,44.7143,-57.3581,-39.9203,47.9244,-103.4208,14.9445,-1.0577,-11.8867,14.8604,120.9043,-19.2314,48.0154,-54.2299,105.9291
41.1916,-3.1112,23.8871,3.3153,70.7673,25.2805,-75.5201,-64.3189,-13.4392,-46.2216,78.4394,28.4825,-16.0495,-9.8464,2.9583,-44.5010,60.7512,-49.4854,74.1068
76.9646,26.2478,86.4664,33.7460,69.8806,34.0163,-94.7598,-121.8755,-65.5342,-61.9443,62.7121,27.0158,-21.7295,-40.4188,-105.6423,-102.7057,79.5404,-16.3115,-13.9195
71.9287,55.0654,145.4789,58.7045,85.3365,29.4324,-137.0824,-144.9637,-92.2101,-123.2848,-5.7060,22.5596,-58.7594,-35.1583,-165.0866,-125.2509,102.0615,0.5331,-90.1146
51.7197,88.9070,169.1328,87.3577,136.9561,16.6557,-192.3945,-110.6384,-127.3132,-176.9141,-19.7998,61.7230,-100.7282,18.1248,-164.0884,-88.6027,130.4554,5.3298,-91.2970
45.9227,110.8525,163.4563,112.9338,188.8512,24.4986,-213.8736,-109.1589,-134.5580,-212.3185,22.4027,101.6269,-109.2883,47.3731,-118.9797,-79.7300,153.1220,22.9569,-55.2427
69.6148,125.6252,157.3476,126.4311,187.4986,25.5205,-206.1712,-195.9207,-134.2429,-245.8683,82.3658,113.7980,-88.5715,6.4575,-90.3152,-151.2326,163.7897,46.0653,-84.9213
109.9148,152.6751,175.4560,133.0508,163.9079,4.8081,-213.4484,-276.2388,-199.9756,-280.8942,159.8902,136.6541,-53.6506,-41.6423,-118.0511,-215.0438,176.8795,42.5972,-185.2675
146.9550,166.2797,199.0222,122.9951,148.0056,-5.6873,-228.9654,-263.3510,-271.9641,-301.5617,218.7008,161.5611,-19.4355,-41.4171,-161.3326,-191.2868,200.6040,-15.8278,-249.6691
157.9394,132.8926,172.9277,79.8014,85.0821,-13.0753,-212.4098,-200.1751,-223.6370,-280.8554,223.8245,140.0847,-11.4012,-25.3990,-175.3622,-125.2732,214.6200,-119.1807,-209.0559
129.1511,73.2694,90.8467,17.8569,-32.2566,-52.6903,-183.9141,-141.3308,-83.9070,-206.1069,200.8053,91.0882,-45.1833,-18.7900,-157.5376,-74.0573,197.4596,-212.7994,-89.6299
103.4680,26.8318,14.5570,-28.9817,-123.9570,-104.0458,-204.3430,-82.4535,0.4677,-112.6439,146.4302,62.5991,-114.5032,3.4000,-99.1208,-26.6888,157.9700,-255.7432,38.4243
118.4319,2.3990,-25.2588,-44.6950,-167.8221,-118.8015,-264.8561,-31.0118,-24.6460,-59.3936,56.3754,52.5689,-183.4836,37.9490,-31.0098,20.3332,117.4797,-257.2964,106.8658
113.8575,-14.6550,-58.6475,-45.2150,-193.7251,-96.7563,-291.8263,-11.1746,-67.5493,-55.3961,20.8045,43.0296,-197.3772,44.9155,-39.0385,37.1140,78.9376,-238.4499,101.0001
49.9804,-40.0842,-96.6997,-58.6596,-179.2728,-83.3836,-257.0694,-18.6507,-44.4365,-52.5550,72.5256,32.2264,-155.2526,14.6180,-105.0552,19.2718,33.0278,-202.5551,66.3230
13.7435,-73.4514,-115.1938,-86.1834,-111.7099,-107.1999,-197.8286,-42.6870,-26.0268,-40.3950,102.5020,15.4143,-115.4673,-28.4780,-127.1494,-11.3065,-16.5865,-148.1121,23.4174
56.4936,-95.8989,-100.7476,-99.5992,-40.7925,-131.0081,-151.3985,-81.2394,-133.6111,-80.8784,84.6828,-3.2005,-86.7706,-62.0294,-137.9283,-43.9546,-46.7231,-80.2604,-51.3603
89.4039,-96.8402,-62.0634,-90.3001,7.9846,-107.6987,-125.7143,-113.3810,-294.4742,-176.3815,97.5042,-9.9725,-34.6916,-77.2458,-209.1637,-71.3232,-46.5403,-22.6115,-140.0594
40.8513,-91.2110,-34.5303,-85.3744,40.8829,-77.9653,-90.8804,-115.3786,-293.5090,-208.5784,98.0560,-21.7603,11.4045,-86.0629,-232.2731,-82.1060,-49.2056,-5.1115,-184.3361
-42.2888,-91.8550,-54.9655,-92.5935,41.8085,-95.9934,-7.9847,-100.8279,-109.3937,-130.9699,18.1843,-59.0759,11.3394,-104.1964,-120.7793,-83.4164,-80.0701,-11.6571,-168.1644
-75.9199,-81.0301,-90.4996,-74.1867,17.4946,-102.1199,79.0365,-100.6111,22.2440,-81.1497,-34.6821,-83.1416,3.5992,-110.6467,-21.6605,-90.6513,-87.5290,2.0551,-121.2648
-27.6940,-39.9279,-72.3281,-14.6777,7.4262,-36.4455,75.2442,-105.7347,-51.3925,-154.2930,27.8640,-47.2159,19.3438,-70.4403,-59.9259,-87.3121,-20.7473,27.1773,-77.4448
41.2291,1.1105,-14.9233,30.2213,8.6941,26.2533,6.2414,-73.3938,-192.3165,-235.3766,96.2921,7.8612,28.6475,-3.0536,-144.9108,-45.9992,55.9229,28.2481,-54.5904
36.9558,-7.3381,11.1497,7.8072,-8.9397,11.8400,-11.0815,-19.4774,-196.6839,-202.0758,71.8674,2.9961,21.6895,23.3875,-170.4941,-3.4573,52.7122,15.0965,-40.4894
-19.1060,-49.2368,-0.8908,-50.5852,-46.5933,-40.3473,22.0226,-30.7663,-77.8840,-109.6345,19.4496,-52.1757,14.9736,-24.0795,-144.2696,-32.3652,2.3656,-4.4303,-27.2557
-26.6470,-64.2903,-10.9593,-86.2088,-98.9706,-85.1625,10.0088,-114.1072,5.5282,-53.5124,22.1203,-78.7873,2.8234,-97.2430,-107.0536,-111.5091,-14.1503,-54.8292,-39.9253
7.6205,-49.8012,-7.4542,-93.6755,-149.9283,-113.3097,-54.1632,-158.6460,2.7723,-18.5013,61.7658,-56.9826,-17.7469,-125.0957,-104.0507,-144.9093,-4.3433,-106.7521,-60.2740
11.6710,-45.1818,3.8066,-82.6278,-146.1648,-96.2220,-112.6949,-128.8767,-11.4103,43.0416,69.2462,-34.6177,-44.9162,-104.2537,-154.0213,-126.7910,-11.8902,-89.5963,-22.2390
4.4088,-50.1186,12.0430,-49.6286,-78.7534,-45.2481,-143.6257,-112.4180,-3.9000,99.4536,18.8096,-33.8597,-85.3770,-88.3557,-186.6306,-127.1458,-29.4981,-24.8747,44.0274
22.9635,-52.0667,-9.4081,-31.6543,-32.4577,-33.4081,-131.0292,-120.4366,5.8328,87.7002,-32.8321,-38.4464,-105.0957,-90.2650,-126.4509,-125.6044,-39.7551,-9.7197,35.9929
28.9948,-68.0968,-70.0091,-72.2145,-70.1076,-76.6276,-73.8134,-72.3878,36.5451,25.5244,-26.3924,-41.1166,-68.2707,-73.0335,-10.3832,-52.9116,-51.8311,-72.2984,-29.4294
7.7734,-99.2460,-143.9561,-134.6350,-152.9755,-125.2755,-33.4592,7.7948,94.6243,-14.1435,10.4480,-44.5484,-32.2286,-40.2569,66.0091,42.5471,-70.0504,-147.1526,-55.6240
-4.5230,-121.6894,-198.3421,-158.9490,-210.5289,-154.6959,-41.4971,21.2672,122.3657,-26.1569,23.5418,-51.0045,-50.8948,-33.7644,66.3902,60.9479,-87.0860,-163.7079,-41.3655
-17.0295,-130.4162,-212.1273,-151.9639,-214.3086,-155.8135,-45.4587,-21.9773,94.0164,-51.5827,10.8133,-66.9365,-68.5432,-52.3807,44.1091,14.8979,-99.9630,-123.4236,-29.8743
-52.7902,-129.5445,-198.1838,-144.5980,-196.3558,-131.8663,-32.3094,-42.9980,52.2150,-59.4892,-12.5372,-84.3561,-51.7918,-65.9194,68.1168,-17.0469,-108.2642,-108.4281,-8.4284
-80.7438,-120.7563,-203.5191,-145.0879,-223.9319,-130.2586,-51.7408,-26.9739,21.0962,-4.4162,-36.1945,-85.3744,-57.6665,-70.7853,115.3320,-10.6775,-117.4045,-169.3810,26.2224
-82.3154,-118.0046,-234.6123,-153.4610,-303.6003,-157.7305,-89.2922,-7.1031,-1.6049,57.8626,-35.3410,-78.8628,-85.8967,-74.6422,101.1799,5.0224,-132.6671,-227.8803,38.6876
-81.0903,-114.6097,-234.0353,-149.0690,-338.8959,-148.6504,-87.5342,-13.7273,12.0078,68.1444,-7.9202,-77.4557,-74.5321,-82.9185,34.3540,-5.3908,-138.5178,-203.4297,8.9853
-77.1791,-87.1738,-180.7253,-119.8794,-270.5503,-112.1176,-68.6257,-53.2821,81.6517,66.3442,0.3715,-67.6597,-46.1885,-105.4327,16.2791,-42.5830,-121.2905,-164.3919,-61.5929
-59.5914,-64.3683,-123.2265,-118.0898,-187.5587,-129.6639,-87.1983,-74.9938,158.4044,85.7479,-37.1017,-54.3141,-56.3785,-122.4076,77.6247,-52.6440,-102.3297,-197.6837,-131.9414
-51.4498,-78.8092,-93.4516,-162.9309,-189.9063,-171.4403,-123.0025,-28.9566,171.3830,96.8643,-79.8149,-58.6615,-72.8085,-95.3855,133.8104,-4.6550,-101.5232,-242.6532,-129.9238
-64.2555,-77.9818,-78.4119,-157.9373,-226.4488,-140.6483,-134.0813,35.1674,109.9351,90.0141,-72.4978,-53.8979,-63.7606,-40.2037,86.5684,42.2048,-94.3548,-208.3591,-66.2693
-69.5477,-19.0802,-54.5796,-53.9701,-184.0573,-60.0544,-139.2377,47.1198,27.4283,70.5937,-22.8828,-6.8691,-75.9341,1.8746,-73.1619,36.5586,-47.5158,-121.0176,-17.5454
-53.1518,35.6200,-5.4761,44.0168,-68.5897,-9.0989,-158.7776,36.7426,-24.6031,23.8470,5.0766,41.1329,-119.3669,39.2453,-223.0441,20.1819,23.4885,-48.9392,23.0550
-32.7092,30.2026,41.5357,53.3203,11.0102,16.8256,-148.0949,50.6741,-38.9153,-20.9081,-14.2679,37.2386,-122.3082,74.0534,-225.1150,32.0456,61.7313,-11.6792,87.4515
-24.9126,-2.4206,27.0358,24.6962,1.8283,42.9961,-69.2975,61.1462,-25.7209,1.3568,-47.4152,-4.0249,-67.4930,61.5000,-116.1532,39.3729,35.4207,-5.7078,123.1062
-46.0796,-28.4533,-36.0496,11.9935,-44.0235,45.5551,37.1509,52.0725,12.0552,79.0711,-94.1592,-55.3938,-32.0296,7.4237,-48.2394,20.8367,-21.5453,-17.8289,123.5239
-110.3094,-59.6214,-72.1354,-6.5460,-69.4782,17.4376,125.9447,63.9000,68.5566,135.8464,-177.2148,-119.0536,-40.7078,-20.9160,-43.7088,9.4512,-62.3480,-18.8507,164.3649
-192.5298,-103.2605,-79.7569,-55.9970,-78.6982,-10.2866,213.9870,103.5363,134.4550,152.6851,-247.2296,-183.7176,-18.7541,-19.0486,7.2173,24.7420,-97.0649,-5.4802,221.5882
-236.8528,-145.0670,-108.2307,-119.5132,-90.5580,-31.2878,299.3675,122.9907,182.4872,183.2459,-248.3585,-221.2751,56.2837,-44.7512,126.1795,38.5006,-152.5784,-13.8077,208.4590
-221.3665,-161.7815,-131.4948,-161.7333,-96.8528,-69.4635,317.3841,103.2640,167.8885,247.6775,-217.9723,-221.0647,98.9136,-97.4412,205.6944,26.9455,-196.4224,-64.3183,149.1193
-178.1447,-140.7647,-109.3073,-166.2934,-95.0301,-123.2027,251.9934,83.5700,113.7244,273.2082,-198.1714,-188.9171,67.4845,-114.8054,186.2310,19.4983,-180.8177,-131.1931,96.0654
-141.6462,-102.2099,-85.1049,-147.2394,-101.3949,-147.7127,175.5551,100.6341,107.2036,191.2861,-169.4466,-139.0169,27.3646,-69.2021,141.8388,59.2751,-125.2417,-167.4242,33.3397
-112.5767,-69.4171,-88.6416,-114.5356,-105.1081,-111.4411,129.0032,128.7066,127.3035,58.1592,-134.0114,-91.0185,23.3042,-1.9085,149.4984,115.2994,-82.3245,-143.7928,-28.1174
-79.7479,-41.3988,-66.9185,-73.1138,-72.9382,-53.1691,82.1490,103.5465,62.5660,-27.3415,-110.1299,-56.8845,31.7622,24.2495,160.4409,104.0013,-62.0808,-78.1311,-58.0187
-44.8317,-25.0151,6.3381,-56.1822,-15.1373,-30.8053,25.8577,23.1262,-55.0477,-72.5384,-62.1825,-37.5372,46.1602,-0.5371,97.2653,25.6014,-38.7814,-23.0900,-83.1670
-12.6154,-24.0422,79.8734,-72.1482,23.0747,-33.1498,-8.6193,-31.3653,-112.5912,-126.2492,22.0645,-23.0774,79.3415,-19.0127,7.4634,-23.1354,0.6587,-10.5501,-114.4630
21.6303,-5.5146,112.3345,-62.9511,35.9544,-18.2655,-10.2721,-21.3036,-149.4832,-167.3312,75.0542,3.2128,108.8469,3.0528,-12.7474,-4.8374,38.6479,-12.7221,-129.3344
57.2941,33.1310,108.3996,-10.1770,52.3994,6.8084,9.2487,-13.3921,-208.8473,-174.9082,53.0336,28.1340,107.5135,22.6215,31.9306,8.2913,45.4688,24.8178,-147.2968
74.8599,33.5413,79.0607,21.2688,75.9000,19.7673,38.8846,-64.3128,-177.4298,-182.0185,-13.9376,8.7821,79.5016,-2.9279,74.9043,-36.3617,19.5176,95.7050,-170.6722
58.0285,-13.2551,36.1361,7.0143,92.5462,24.6986,54.8031,-129.0494,-60.0636,-198.1332,-81.0984,-47.7003,38.6012,-50.2396,79.4392,-95.2698,-6.2097,113.2921,-157.3574
14.8660,-50.2034,1.0889,-19.8181,96.5203,9.9500,32.0635,-135.0476,-48.5666,-192.9049,-118.0741,-81.0701,4.6038,-79.1774,46.6486,-103.5141,-22.2038,31.3632,-136.2451
-34.9381,-70.1530,-16.7099,-68.6131,69.4204,-47.7801,-15.4694,-89.3868,-144.2797,-151.0955,-121.0363,-82.5263,-0.4176,-90.9021,22.9080,-67.4954,-60.9488,-72.9044,-164.7514
-71.6872,-106.5948,-32.9415,-149.2476,-0.6250,-122.3146,-51.4581,-58.4543,-154.4662,-84.9523,-125.6138,-97.8494,7.4285,-108.8118,58.0435,-44.9113,-124.3901,-123.8118,-201.0015
-83.7390,-149.4300,-68.5258,-211.0118,-75.1327,-170.2658,-68.7237,-58.6345,-77.8084,-36.3020,-159.0389,-132.6404,-12.8888,-132.0306,106.9669,-44.2351,-165.3757,-167.1537,-194.9224
-91.2066,-175.9463,-114.4099,-232.2426,-107.0414,-198.0699,-79.7406,-39.3327,-62.9997,-39.0257,-189.9536,-153.9309,-52.1189,-136.8224,82.8216,-19.4799,-167.7578,-249.8118,-179.1553
-121.5862,-183.6204,-126.8502,-240.0420,-98.8506,-220.8941,-75.6357,-2.0716,-115.4127,-52.2603,-163.9007,-150.9305,-54.5043,-128.1597,-5.8810,11.1134,-160.1351,-298.9871,-173.7814
-145.2612,-163.7306,-91.0847,-223.3540,-80.5726,-214.6648,-49.4373,-25.4799,-155.1339,-26.0158,-80.6360,-133.5014,-14.6006,-142.5033,-86.6157,-30.5996,-147.3543,-252.1427,-151.0850
-124.5752,-134.0375,-74.6889,-174.7313,-85.4733,-174.9392,-28.3379,-105.6990,-152.5184,12.8787,-16.3291,-120.4725,-1.8863,-175.0748,-115.6725,-118.7883,-122.0893,-187.6497,-87.4540
-113.2742,-146.6893,-150.9582,-156.3564,-146.3064,-159.6104,-28.4028,-130.6973,-95.4674,45.3345,-30.1882,-135.3750,-53.4887,-184.8513,-81.9247,-139.6464,-120.5579,-210.9211,19.7669
-165.6049,-195.4851,-275.3692,-201.0080,-247.1318,-210.3352,-28.0728,-81.5109,-21.8413,102.7463,-69.6164,-166.5904,-107.5593,-182.3777,-12.6398,-92.9160,-172.0608,-295.1983,106.0547
-214.3043,-220.0600,-326.4069,-254.9619,-313.7316,-282.1197,-22.1320,-59.1036,4.4421,169.4382,-66.5351,-177.2914,-103.1093,-203.1409,36.2216,-78.1581,-237.3921,-320.8472,79.5278
-197.2159,-214.3542,-265.7451,-274.8405,-292.6737,-305.5203,-24.7515,-79.2257,29.0338,194.6206,-56.6969,-170.1080,-73.0025,-217.3227,27.4803,-102.0748,-262.0727,-236.4023,-11.2484
-163.2390,-201.8254,-157.2805,-252.5439,-182.0080,-267.4964,-21.3026,-60.7267,91.4266,172.4350,-75.5362,-160.7486,-67.9048,-177.4506,-67.7693,-91.8392,-226.4323,-115.1314,-38.0827
-137.4331,-158.7501,-56.2733,-172.2370,-15.9938,-194.8671,-7.6321,-7.3897,77.0516,113.6598,-84.8677,-126.6801,-79.8934,-107.3331,-226.0886,-47.8960,-140.0652,-45.2795,-18.9688
-95.1027,-85.6472,0.1737,-67.3257,108.6896,-125.2575,-15.1120,2.2883,-34.0029,49.0429,-90.9099,-71.9240,-91.5348,-67.1435,-283.4193,-31.2511,-66.9312,-28.3245,-41.0173
-87.1562,-52.5081,-39.5753,-30.0141,97.7304,-105.9215,-26.9474,-34.4095,-47.7921,40.9220,-126.2567,-53.5013,-99.8041,-79.1059,-132.2658,-51.9278,-87.8499,-23.4647,-79.3970
-140.0672,-82.3051,-145.3284,-74.1541,4.2336,-144.5060,-3.5824,-56.2026,72.8720,61.4329,-131.4555,-74.4506,-92.3563,-107.9581,34.3645,-64.4150,-166.0053,-13.7275,-98.8683
-144.8884,-107.3435,-179.6452,-106.7159,-33.3524,-174.4852,2.2249,-46.1119,109.8553,17.8555,-77.7873,-72.9622,-80.1741,-98.3541,-4.8717,-47.0044,-183.7021,20.0473,-131.8288
-69.3436,-88.6962,-92.8587,-76.7389,12.4049,-138.2753,-56.5940,-41.3614,-8.3667,-44.3937,-66.6583,-47.5181,-89.1660,-59.7621,-148.9485,-40.9867,-140.0840,92.8389,-164.0480
-41.2551,-64.2693,-1.1373,-32.1333,66.4615,-73.3588,-100.5132,-65.5179,-120.2087,-24.6145,-132.4356,-52.0186,-100.5490,-59.4226,-208.4673,-82.9931,-126.5117,155.1489,-152.5914
-99.2951,-67.2080,1.1137,-26.7975,71.2442,-68.7884,-91.1092,-82.1314,-143.7885,21.3076,-182.8718,-80.3188,-110.3630,-87.9010,-209.2130,-120.4747,-149.4872,145.7047,-117.5946
-170.8248,-93.6924,-68.5174,-65.9218,1.1059,-152.6720,-109.7297,-47.8114,-122.2428,18.7453,-198.3469,-95.4129,-165.4661,-76.1495,-219.6982,-92.7198,-178.1472,96.8451,-81.5807
-268.5213,-137.3540,-179.9174,-120.7754,-117.7883,-237.2887,-130.9551,-5.6989,-56.8859,30.4462,-226.0652,-121.3235,-223.4899,-60.7815,-185.2423,-60.4050,-248.7545,84.9500,-37.9841
-404.8298,-189.3740,-304.6447,-158.4584,-203.4148,-220.7334,-34.2780,-24.8076,52.7757,97.6847,-240.1507,-186.4549,-170.3936,-123.0515,-71.0551,-101.2017,-359.2387,104.2805,-1.3370
-470.0821,-230.5903,-380.2122,-185.3128,-240.4574,-150.3191,105.3767,-59.6969,133.5021,164.9645,-208.9257,-243.9102,-49.1685,-202.8240,52.7734,-146.4329,-424.9277,86.5642,20.8952
-412.2874,-251.5652,-378.9407,-228.7154,-281.0561,-152.0732,102.2930,-18.2550,134.7187,197.1325,-163.4809,-236.9965,-12.3388,-190.3056,90.4371,-94.6180,-415.5948,23.0944,36.5914
-317.1726,-250.7643,-329.6262,-259.6251,-287.8758,-209.7305,-10.8447,70.6851,81.8266,183.4001,-127.6836,-183.0215,-66.1547,-110.1303,1.1520,9.5444,-366.5372,-22.8496,31.3584
-236.9048,-216.7796,-246.1327,-223.6387,-199.5377,-221.2571,-70.2750,114.4361,13.4304,127.3118,-115.2911,-133.1954,-116.5657,-46.3516,-141.3525,62.8163,-282.3216,-23.8887,19.2092
-160.2916,-147.1720,-142.9212,-144.0278,-96.8220,-202.0218,-68.7849,109.7221,-37.7054,91.4492,-137.6625,-95.3985,-150.7912,-10.1668,-202.9227,63.7641,-174.1477,-26.4881,33.7131
-102.9719,-66.3135,-70.3767,-81.9810,-66.4153,-198.7945,-97.5312,108.5924,-40.0058,91.2787,-145.5878,-40.7306,-177.7686,26.1118,-146.2746,74.1428,-93.1623,-54.5955,31.9649
-73.0584,1.7366,-42.2026,-33.1013,-46.5569,-148.2907,-138.8422,117.8694,-0.5950,52.5078,-97.6719,30.5640,-153.0715,70.6009,-28.7138,106.0861,-49.2940,-53.6167,-16.6885
-50.3331,45.8347,-21.7738,25.9551,17.4837,-20.9248,-87.4763,109.6047,41.8594,-6.0438,-46.6056,67.6959,-59.9932,97.6806,110.5393,113.3291,-18.6903,13.5854,-30.8081
-35.7866,53.6223,-7.2459,65.5249,76.9800,93.1894,79.5112,71.7258,74.6246,11.2478,-23.8521,40.2034,63.6773,64.5886,217.9322,68.3535,-9.8385,85.7735,15.8823
-21.5311,38.1131,-11.5125,74.8790,110.2176,146.8118,231.8173,34.0661,101.4909,59.9713,15.7149,1.0980,157.8031,-0.3131,200.8902,22.5684,-6.7228,85.7499,32.5175
32.8753,56.1372,7.4293,110.0835,139.7737,180.1436,235.2841,41.9617,97.6692,33.1383,66.9287,22.7278,157.4724,5.1674,62.3220,42.1197,58.3033,30.7881,13.5899
130.8202,137.2828,82.5249,199.4996,155.9886,210.9887,142.9915,73.2132,52.7624,-35.2462,84.8055,95.9176,79.4741,89.3374,-65.4677,90.7569,188.7463,-0.5468,32.5643
218.8704,229.2347,170.6215,285.2850,162.7500,234.1391,98.3068,49.4186,14.3226,-66.0112,98.1608,156.6562,40.4534,136.3029,-73.6913,78.4702,296.3174,12.7401,56.0385
250.3977,267.1809,220.5137,295.8577,181.9224,243.6850,102.8966,-25.4543,12.1454,-68.7012,151.8178,181.3522,90.8568,102.1194,31.4559,16.7375,324.9571,7.8394,22.3910
229.1554,245.0974,223.1527,220.3156,170.4616,201.1039,74.2200,-54.3286,22.2465,-57.9204,216.4024,188.0483,149.4319,66.4042,173.8942,-0.1424,296.3036,-57.1746,-13.3865
200.3804,183.0683,178.7829,105.0757,88.2697,105.3016,30.4490,-7.4118,55.6372,-21.5052,237.9627,174.4460,152.3853,73.3289,283.3387,49.9658,240.8104,-125.4080,10.4747
196.4539,98.9593,110.4303,13.3028,8.9632,48.9418,36.5717,40.3689,135.9957,-1.5243,204.5478,126.1525,134.6252,87.3512,333.1668,97.7444,177.5036,-112.8857,58.2679
211.5847,38.0742,92.2815,-12.7841,19.2793,89.9142,83.5478,34.5658,169.5109,-57.1086,161.7957,69.6557,152.2845,84.9817,302.8620,92.2277,148.9088,-29.5189,68.8198
254.8208,56.5139,178.4150,35.6195,89.7618,170.8190,108.3402,-9.8166,47.7534,-161.2582,168.4240,59.0723,194.5234,79.0167,156.1759,46.6481,204.4208,28.9753,26.1421
333.3490,150.8701,320.0270,138.4812,137.4171,226.0154,51.3041,-58.1372,-132.4603,-224.9813,193.5240,105.6831,178.0849,86.7106,-63.4397,-1.6715,328.7739,7.7827,-25.4003
378.2513,245.2894,402.2876,239.4295,124.6236,246.5640,-61.1691,-89.1842,-187.5221,-210.1927,156.1184,154.1000,75.5577,106.1453,-198.6988,-34.5503,423.1350,-39.5618,-22.8427
344.2502,263.6006,359.7371,266.8196,62.7815,240.3572,-89.9380,-101.4163,-114.0647,-156.7232,96.6570,150.9446,9.8853,106.5681,-143.4618,-53.5189,404.0006,-32.6173,22.2299
309.7442,200.5242,240.8039,202.2969,-5.4149,216.5441,4.3976,-94.8589,-26.0237,-102.3798,112.7707,114.0677,68.6014,76.7726,32.0473,-46.7718,298.3927,22.4443,41.7350
315.4639,113.3086,149.6947,97.9875,-29.8213,180.8044,37.5153,-61.3534,28.6203,-67.4307,163.0727,97.0146,135.1301,62.5188,175.4697,-1.1485,192.3131,58.7793,18.8477
291.0890,59.2946,135.7470,24.2903,5.6879,145.1434,-96.6033,-27.9143,25.7625,-102.0737,169.2180,113.2450,103.4400,91.2845,202.0757,42.0449,135.4886,71.9325,-12.9143
245.9595,63.3960,175.9091,36.2407,82.2902,163.1594,-226.0162,-49.6456,-75.9310,-206.5509,177.9117,140.2599,60.5825,120.9645,131.5090,18.7890,145.3134,116.3650,-11.7151
258.8954,122.3062,244.1046,141.9618,175.1376,263.6831,-206.2623,-110.5263,-233.4780,-264.2834,220.4824,164.9963,80.0038,123.4570,25.7845,-55.8724,221.0928,184.5716,63.7995
284.3437,196.7512,323.4981,263.4912,255.6840,361.7279,-134.2607,-129.4628,-332.1697,-213.4077,227.6975,182.9292,92.3949,127.5042,-82.0450,-102.6594,309.9003,214.3842,181.4002
251.9760,223.8361,370.4473,302.8841,295.8639,369.4173,-111.4731,-86.3332,-310.6810,-131.8170,196.7227,183.9562,62.0159,145.0488,-187.1256,-89.2639,343.5627,204.0954,252.7344
219.3498,178.9504,347.2595,257.3459,292.7351,324.4353,-78.9149,-16.5001,-175.5684,-31.2925,185.3034,160.1339,39.3091,153.6546,-254.8090,-38.4910,315.0033,194.9734,303.0270
216.0698,97.5132,269.0601,183.4287,262.5818,284.8130,27.3623,78.0990,25.4093,155.1451,156.8759,109.4232,44.3681,147.4801,-214.1555,37.4482,247.8218,177.6761,405.8496
179.4228,26.2093,172.4037,100.6254,217.2222,234.8594,157.1259,175.5511,188.6885,329.3978,94.3263,53.1334,81.4618,130.3854,-45.0625,119.7677,149.5275,133.0110,457.0244
119.6982,-5.5233,81.8674,28.7285,171.8271,179.6048,217.4397,191.4859,231.3522,319.8997,112.6892,42.0530,160.0309,97.8184,150.8068,151.3406,55.0509,103.4744,334.4621
92.9619,16.1026,25.7982,26.0332,148.5471,169.0774,186.0669,104.5368,193.1354,179.1764,230.7060,87.3911,218.9204,65.1450,239.0494,99.7755,25.1460,134.6714,175.5429
84.9987,75.6441,27.3362,105.3188,155.0679,208.7133,143.9408,1.7837,165.5189,79.8410,286.7971,127.9730,197.1752,58.6460,223.6184,9.1111,65.7785,210.5312,165.8048
91.3984,129.8928,69.6481,195.7842,182.3053,262.7674,166.7277,-54.3041,154.4450,49.1845,231.8152,124.8514,156.3863,68.5167,210.8362,-56.5140,125.9779,277.1264,244.2450
130.0443,141.8934,110.6170,222.1502,212.7539,292.9039,212.1717,-70.0042,105.2205,32.2746,202.7254,109.3222,169.9989,66.5542,204.2290,-74.2307,163.4807,284.2243,273.3887
151.7250,108.0905,123.1471,172.3694,217.9698,262.7973,206.0852,-42.6112,27.7120,40.3350,253.4200,105.9925,199.3717,58.1788,129.1060,-47.3822,161.7850,228.9430,262.7459
135.8601,59.0658,100.2546,100.5089,187.1621,197.9135,170.2033,25.6382,-3.1554,93.2471,305.1520,106.8659,197.8791,63.4964,26.8926,11.8104,127.7189,167.9314,262.0161
146.4272,34.9669,54.4292,75.5179,157.8168,181.9105,156.0014,81.4076,30.8915,146.5184,320.4102,115.0251,189.5976,73.0395,-5.9439,69.4740,94.1463,142.2570,241.7923
177.1421,53.5997,30.1147,107.2599,163.0581,217.5927,145.7996,81.3603,63.8849,141.8992,301.2705,132.0151,184.8523,69.9043,13.0110,85.9836,86.2483,137.2685,162.5338
168.4890,104.9508,71.0908,150.0157,176.1662,220.1986,100.5640,36.4541,54.5847,81.6760,238.0793,144.8252,154.5031,63.6443,29.1693,51.0976,101.6018,146.9619,52.1916
157.9675,160.9275,151.6602,177.2187,169.7234,174.9029,29.6842,-22.5508,37.1289,28.2120,167.9409,155.8832,94.8067,69.1860,50.4997,-6.6380,134.0279,178.3407,-5.8626
186.6002,186.5481,188.5066,195.4767,164.7767,144.1473,-17.0792,-53.7299,49.7014,17.0065,133.3300,166.6576,31.6132,87.2482,77.2690,-34.1409,172.4628,196.3195,38.6141
206.6880,177.4133,149.4834,208.7031,162.0539,145.7575,-0.9455,-21.6979,82.1630,19.4138,113.1182,163.8231,-8.6970,116.9802,87.3818,1.2864,192.7390,179.3673,124.2336
206.9772,167.1799,94.4291,216.2885,125.0533,151.7735,55.8528,41.6271,94.8854,26.1420,103.0658,155.3714,-9.0598,146.8474,74.8478,61.7283,187.9074,170.6816,160.7556
211.0010,162.7812,77.3289,216.2514,73.8670,150.4360,105.8674,73.4775,67.6191,65.1280,117.3297,146.2781,14.0644,149.8146,22.3165,80.9152,172.1375,191.5523,169.1492
181.1987,141.4221,76.6759,213.4357,72.2562,153.5661,155.5546,80.6310,39.9010,115.2713,96.0366,110.6168,19.5388,130.8406,-57.6201,63.0646,153.4700,212.3261,220.0765
119.4255,122.3731,54.2841,232.1157,103.4755,181.5125,210.5834,94.7580,46.0986,118.1698,13.6630,63.0875,0.9916,124.6077,-95.0460,56.8273,138.2224,221.8203,275.0563
97.7522,133.7036,16.8784,263.6389,91.0697,217.8112,202.4906,82.3964,27.3477,63.2157,-27.0132,57.1988,-11.0476,120.4742,-83.1682,52.7548,128.7261,210.5968,230.3148
98.5798,141.4350,-6.5877,243.6915,33.3554,196.5025,104.7253,20.0495,-48.8966,-10.0711,10.0238,77.8750,-8.4169,81.8841,-64.8900,17.0704,105.8805,151.3821,91.2400
56.5741,118.3590,0.4768,159.7295,-4.5971,105.3309,3.2367,-33.5816,-72.4398,-50.4420,26.3428,75.0616,-11.7174,35.6555,-6.4887,-20.9468,67.7639,71.1913,-21.0702
14.9754,96.3234,38.1420,82.4976,-0.3917,22.2577,-49.6662,-29.9264,9.9508,-26.8090,7.7261,67.0704,-25.4332,31.1911,84.0993,-17.3613,52.6024,21.7615,-33.8595
27.2194,84.6624,85.3242,39.8448,15.1718,-15.4928,-79.1588,7.1387,64.4502,37.7830,25.8005,76.1089,-30.0211,45.4952,83.1935,14.3518,68.6287,-21.7946,-0.0138
47.9501,61.5216,107.4863,3.8372,19.0884,-47.5358,-66.5651,43.2704,29.8562,100.2428,47.3425,66.7712,-16.4225,32.4963,-4.6963,41.5195,73.0310,-87.7320,5.6543
34.6851,39.3695,89.5439,-14.3800,17.1167,-77.9542,12.9608,71.0662,32.9457,148.1874,-0.1960,28.3005,-5.5106,8.2998,-31.6572,58.0012,48.4051,-117.8837,-8.8754
-7.4935,20.7011,50.4611,-12.2363,23.9895,-77.7872,88.7530,96.2742,118.9625,163.2045,-85.6446,-12.8073,-15.7569,8.5630,7.7310,73.5189,13.9839,-83.6106,-0.1827
-64.1521,-20.6841,18.7736,-38.4813,34.5635,-65.9806,94.2396,123.9244,180.9912,126.0381,-145.0732,-49.2824,-27.0601,24.1419,26.9494,95.8168,-23.5195,-52.6662,11.7324
-92.7047,-54.8885,1.0115,-83.7709,23.9432,-76.9725,52.3018,125.2991,176.4918,81.4366,-156.7427,-64.0348,-21.7011,20.3456,53.3177,103.6910,-61.0689,-59.8868,-33.1682
-74.9058,-37.7558,-13.8222,-86.2030,-7.1675,-104.7457,-3.7881,60.0601,140.7935,60.6738,-124.3257,-38.8428,-24.4643,-13.9871,98.9715,56.8449,-83.9578,-55.6312,-125.4415
-71.2873,-5.8039,-20.3290,-52.2729,-21.7521,-107.2145,-48.7239,-28.5683,81.1448,-4.6888,-88.2292,-14.4607,-38.1216,-40.0230,96.1910,-19.2189,-82.1235,-7.3971,-180.3593
-102.1336,5.7251,-5.8957,-16.0471,-4.5864,-41.7241,-42.0558,-49.6364,30.1237,-140.9390,-92.2769,-23.5288,-22.4246,-12.2276,72.9763,-39.6358,-49.6825,48.2559,-161.7177
-110.1273,14.1169,2.5831,16.9310,14.3880,46.1027,-1.3330,-7.3109,49.5530,-220.3300,-122.2715,-34.8533,5.8006,35.3920,95.6644,4.8772,-9.0581,49.2957,-124.1599
-98.9350,-7.9312,-33.5421,-6.4318,-0.2278,27.2324,12.4881,26.5216,124.1956,-134.8933,-146.2598,-46.6858,-10.2475,23.0508,125.4098,39.9397,-26.0306,-22.7405,-103.5106
-112.1650,-89.8763,-90.9657,-122.1796,-57.9281,-104.6842,7.3468,35.3504,181.6796,25.5448,-144.7036,-87.2771,-36.4287,-40.9426,135.3461,38.1932,-108.9011,-104.0311,-76.3225
-126.9897,-153.0629,-116.0237,-217.3472,-120.2351,-185.4432,13.9037,33.9237,185.0307,91.6544,-104.1688,-118.4380,-14.6802,-75.6579,147.5582,27.2090,-164.2817,-119.8581,-47.7257
-132.4476,-137.3977,-104.7991,-193.8543,-117.1846,-149.3346,2.6930,12.4957,145.8340,51.3064,-70.6609,-105.9856,3.4289,-73.1756,117.5639,5.8185,-152.2813,-89.2813,-55.6024
-151.0508,-110.0885,-77.9136,-141.3974,-46.1802,-114.0918,-28.2706,-23.8715,99.4450,33.2106,-90.8049,-95.4662,-20.9644,-93.1504,19.7187,-35.2651,-141.6506,-74.0624,-101.2204
-135.2660,-111.6854,-39.3431,-143.3803,6.9568,-134.8439,-29.3422,-54.3169,54.0560,51.7771,-96.0776,-100.4922,-19.6318,-131.9573,-70.1762,-69.1493,-148.7978,-68.1509,-171.2443
-60.3097,-90.6383,-12.3327,-126.1434,10.1924,-132.5238,-18.0144,-76.6535,-18.2239,-20.1265,-52.6341,-78.2071,7.5487,-126.5994,-107.4614,-72.8415,-117.2908,-37.1906,-245.4444
-20.5765,-41.5259,-23.4924,-41.9443,26.1519,-70.9647,-46.8300,-79.7015,-82.3054,-158.9147,-72.6280,-43.0977,-31.5167,-67.3133,-104.6100,-54.3109,-60.4807,3.2434,-246.6146
-48.5471,-9.3692,-39.8642,36.6947,67.4529,-0.0025,-80.6100,-54.5362,-70.3836,-180.4272,-160.1241,-32.5989,-105.8283,-12.0117,-63.8953,-35.7089,-32.9977,28.6015,-139.0183
-55.1567,11.0019,-17.9527,68.5802,82.4453,43.6211,-63.8353,-38.9875,-45.0794,-88.9236,-157.7727,-22.4446,-101.3404,1.2331,-33.7545,-40.4461,-21.3666,55.5342,-32.6952
-30.5695,34.9561,16.6517,90.6703,82.2353,73.7482,-27.5915,-52.8524,-102.6318,-64.6679,-74.9711,-0.2251,-43.4964,-3.1135,-71.6852,-63.4044,-1.1836,99.9040,-13.1261
-35.1972,39.7932,20.3251,118.8424,102.7749,119.0457,-23.6053,-53.5717,-177.5495,-121.4011,-64.3291,1.0432,-30.3643,8.4861,-136.6217,-67.0869,9.5163,132.3394,-11.8979
-40.2539,28.0221,8.7688,133.6618,114.2690,163.3440,-44.6485,-23.2474,-182.7858,-139.6322,-104.7024,-10.6639,-55.1655,28.5296,-185.1919,-38.7231,16.2990,112.7974,15.1248
-14.0115,29.3114,22.9025,122.0275,101.9345,148.4669,-59.0602,14.2522,-158.9086,-105.4769,-97.1952,-2.0237,-64.4020,38.2383,-226.7523,1.7837,39.0100,43.2383,7.8281
-11.8159,38.2304,55.4747,77.6443,88.2347,71.6890,-57.4059,63.5614,-128.3662,-53.6406,-74.2135,15.0027,-49.3533,42.1839,-211.9530,52.7748,51.5869,-51.6164,-42.9379
-46.2165,37.3573,46.2814,10.5760,25.8546,-10.7333,-46.4098,122.2879,-70.0753,5.4038,-52.8418,23.5957,-14.3539,40.3904,-108.0408,114.8624,32.5744,-172.0697,-99.3570
-65.9308,33.3543,-38.6093,-50.8211,-129.6052,-93.9251,-28.0369,138.4724,-46.9063,15.6487,18.7667,31.5721,27.6123,13.6250,-11.5997,150.8971,3.6936,-308.8530,-181.8237
-72.9375,25.5149,-132.6773,-98.2121,-281.9464,-193.6658,-13.1886,95.1486,-91.8293,-30.8263,93.6996,30.6265,46.9667,-35.3480,18.1059,130.8329,-27.6184,-391.5641,-281.8131
-90.3806,6.0298,-140.6359,-137.8696,-327.5827,-253.9319,-47.5337,39.9105,-122.4412,-47.5195,93.9640,14.3267,33.4598,-69.3796,26.6861,76.4241,-65.0043,-366.0841,-319.0452
-97.7781,-6.4352,-80.1509,-146.3981,-300.2040,-232.7789,-151.6063,1.5874,-134.7636,-59.3578,63.2983,9.8839,-6.8290,-59.0699,-0.5360,27.4993,-73.8230,-279.1058,-281.6898
-89.9875,1.0682,-48.3992,-101.2808,-250.2383,-166.6876,-245.6057,-21.8556,-200.2260,-166.6996,59.6933,26.7654,-57.8519,-14.0207,-92.3342,5.4954,-35.9809,-198.8742,-227.8193
-86.3142,-3.1192,-70.1976,-43.2968,-180.2490,-83.3375,-246.1884,-23.9787,-254.6079,-274.0652,50.6283,26.7441,-81.4664,21.8230,-167.3325,6.6760,-6.4946,-135.3394,-164.5909
-81.1704,-42.5624,-96.1346,-31.3042,-144.7870,-6.4174,-188.4528,-7.0074,-204.6278,-216.4546,-9.3327,-17.9399,-76.0279,13.9029,-174.0749,9.2908,-32.6125,-92.8148,-81.1571
-77.9258,-85.7965,-108.6094,-56.4839,-190.3329,3.0135,-129.2887,13.6256,-128.3174,-66.3297,-113.6480,-85.8120,-87.8461,-17.7877,-159.8971,3.7818,-82.5604,-86.5533,-7.8290
-104.6828,-105.0504,-122.6190,-78.9140,-237.7206,-48.6118,-50.7265,33.5531,-124.4286,7.2176,-194.3330,-137.7839,-98.6117,-35.4474,-136.8204,1.4665,-112.7702,-92.4711,38.4781
-152.4774,-122.5530,-128.2525,-108.7484,-211.4105,-83.8292,29.8958,52.7862,-152.8006,16.7740,-173.9432,-154.9534,-48.7414,-44.9408,-103.8589,6.8936,-132.8583,-88.1261,60.3238
-176.1449,-154.2117,-109.2792,-169.3353,-168.8412,-109.1189,30.5673,66.9721,-153.6739,57.5809,-86.3662,-145.2974,13.8902,-64.6905,-113.0103,14.8384,-159.6735,-102.7053,43.6374
-151.8810,-173.9286,-80.8952,-227.9254,-170.8724,-177.5027,-38.9016,64.1727,-131.6920,105.0052,-40.8965,-128.2068,3.3901,-82.5132,-150.9374,17.9453,-172.3665,-140.8242,-8.0220
-99.1371,-164.1505,-69.4345,-240.2825,-178.9373,-250.6437,-79.0885,21.1234,-94.1557,68.7904,-51.5612,-115.4810,-46.8942,-91.2585,-134.4995,-1.3812,-152.7532,-151.7964,-73.1219
-72.4318,-139.6547,-77.8962,-220.4413,-162.1484,-278.8251,-76.3864,-49.6017,-44.1023,-53.4206,-55.4869,-104.3149,-68.2600,-99.0614,-69.7757,-39.3152,-120.8568,-134.1699,-153.0905
-105.9946,-116.9851,-90.8090,-210.5173,-161.5237,-287.8360,-99.8575,-74.3408,-3.5334,-157.7791,-43.2398,-86.9458,-73.3354,-90.9140,-26.9694,-44.4316,-103.3994,-150.1316,-223.9406
-158.9339,-111.1889,-105.1346,-224.5552,-201.4522,-300.4807,-151.2865,-20.6642,16.7482,-149.1654,-43.1487,-72.0073,-90.6586,-60.1894,-15.3120,4.7066,-107.9202,-210.0983,-216.8561
-177.1891,-128.9970,-130.1256,-246.3154,-244.4885,-317.6261,-168.8620,34.7551,30.6171,-50.8099,-57.5513,-76.9512,-115.2982,-47.2257,-13.2455,43.8905,-130.1548,-253.2581,-138.7717
-163.2772,-135.1824,-157.2304,-243.4207,-268.1944,-339.5552,-146.5723,13.4431,50.1193,17.0492,-58.6854,-85.2431,-134.3346,-72.9990,-18.7988,16.7326,-148.3226,-237.8646,-105.5960
-123.6866,-92.8419,-173.0602,-191.0004,-308.9347,-318.3661,-141.8717,-73.2426,67.1412,-32.3733,-10.0670,-60.5146,-130.1452,-98.8443,-24.0161,-51.4106,-133.3162,-171.2385,-174.3759
-54.6273,-36.5139,-189.2759,-105.5734,-371.6006,-217.0566,-186.5200,-170.6160,69.2888,-155.8520,56.8042,-18.0155,-121.6453,-95.4255,-30.8458,-116.7127,-94.9326,-73.5668,-243.5193
-6.6014,-28.3980,-206.7563,-32.6459,-367.8088,-102.5308,-256.5811,-232.1630,57.6873,-235.8296,37.5860,-11.7402,-172.2396,-76.5891,-78.8112,-166.7018,-76.2330,35.2133,-195.2751
-30.2960,-70.0691,-194.2136,1.6058,-243.3734,-37.7162,-301.7213,-223.6912,26.2593,-221.6408,-80.9266,-49.9550,-262.3962,-55.8704,-189.8941,-185.3970,-93.3298,130.9366,-61.9395
-100.5809,-118.7923,-160.0692,1.3043,-92.0243,-1.6759,-258.0005,-133.9005,-23.8423,-144.3828,-201.0836,-100.3704,-280.8980,-35.4062,-297.6788,-142.9928,-135.5122,183.8540,32.0041
-197.5019,-148.7908,-168.4890,-23.5865,-28.8860,-2.3355,-99.0474,8.0990,-30.2411,-30.9290,-290.6231,-150.9180,-210.3525,-26.4790,-294.1806,-44.4660,-201.4000,163.3074,36.1321
-329.3848,-160.4995,-231.6720,-68.3463,-44.7031,-76.1570,80.5681,128.3795,50.6324,71.0511,-356.6375,-192.5035,-140.2002,-37.1711,-175.9019,48.9481,-274.7741,78.1066,-12.8462
-430.6718,-166.1112,-284.0647,-127.2574,-80.0897,-178.6754,147.3280,153.8893,126.4449,78.9198,-335.0308,-199.5390,-99.9687,-60.4975,-59.4378,75.2374,-316.0915,-3.0980,-83.3497
-424.7536,-173.7609,-292.0277,-182.5869,-122.9898,-250.8937,118.5129,94.3602,98.3929,16.6741,-225.1705,-178.3729,-62.2210,-90.5698,-13.6887,37.2356,-319.2985,-27.1931,-149.1873
-360.0689,-169.5183,-282.1615,-198.7085,-162.9211,-292.4890,110.9630,25.3219,12.3450,-3.2076,-140.6374,-161.8924,-39.0928,-122.6728,-16.6696,-18.0371,-306.7470,-14.4298,-169.1257
-311.6906,-130.9224,-260.1796,-147.4417,-164.7859,-284.9580,128.1941,-24.1089,-76.0534,3.2756,-110.5460,-144.7037,-44.0352,-140.9783,-72.6409,-68.1646,-268.0306,1.0233,-151.7060
-259.7457,-60.1934,-206.5581,-49.5950,-126.4935,-211.5968,92.2385,-74.0505,-184.1494,-52.1100,-75.7803,-100.0443,-57.2906,-132.8764,-169.7671,-111.4725,-188.1876,11.7681,-153.4298
-186.5295,9.2992,-143.0167,30.7511,-95.0641,-137.9486,14.9439,-106.8312,-261.7412,-118.4002,-52.7115,-44.9307,-75.1549,-106.3135,-206.7816,-125.3204,-104.6349,-2.9921,-177.0116
-133.3998,38.8360,-114.5647,49.9244,-114.4123,-115.1860,-28.6087,-93.3701,-241.8658,-123.8657,-69.7661,-22.1912,-93.1477,-78.2368,-158.7930,-97.1492,-61.0644,-49.9920,-178.2769
-113.4006,27.0762,-114.5560,32.0063,-158.2017,-100.9799,-3.2734,-59.8268,-205.7696,-123.3508,-77.5366,-36.3859,-71.2341,-59.6248,-132.8980,-61.5279,-53.7241,-64.8854,-164.0775
-107.9367,14.1581,-94.3750,28.0229,-130.7520,-65.9391,68.4210,-46.2680,-243.7686,-149.2743,-58.4974,-52.0368,-3.5491,-56.2763,-153.4121,-55.4460,-60.8306,-3.0504,-175.8262
-105.0433,17.9134,-36.2374,40.7423,4.8331,-36.8025,103.7669,-56.8533,-296.9461,-170.0249,-53.3436,-44.5249,43.8238,-60.1375,-147.2550,-71.4155,-62.1500,70.2613,-202.7258
-73.9377,11.1526,31.6466,36.4921,147.1066,-18.7632,47.9919,-70.5423,-297.4634,-198.8304,-67.1248,-28.1548,30.4578,-48.4320,-121.3356,-75.6527,-35.4572,82.3467,-194.3476
-13.2615,-10.3902,80.0089,12.7339,194.9330,-3.0026,-5.7798,-63.9687,-269.3258,-215.5523,-70.3877,-26.8255,11.5916,-26.5485,-117.2042,-56.6473,8.5816,47.0723,-144.0872
12.4944,-14.1449,105.1520,-7.0934,177.0849,-7.6232,44.7726,-49.6906,-248.5941,-155.1380,-30.8426,-33.1610,53.8197,-36.6402,-114.6191,-48.3478,31.5438,4.0886,-102.8132
0.2715,-4.0295,114.5311,-24.6834,159.8239,-39.3619,132.3569,-66.5599,-239.3693,-73.6279,52.7694,-30.9257,126.7448,-81.2317,-94.5299,-76.2689,33.1220,-29.1841,-93.8889
23.1336,-20.2226,102.7542,-59.9874,141.7998,-80.3669,177.4043,-83.5592,-184.6056,-47.8326,94.7583,-37.8012,150.6934,-101.3339,-31.9522,-85.8207,38.9932,-55.3471,-67.0779
56.5505,-66.9108,53.4859,-118.3224,94.7770,-123.4028,222.2274,-20.9616,-7.3105,-1.6426,31.0203,-72.2915,123.8719,-73.9100,111.4464,-10.3588,34.5812,-116.1412,5.2249
24.7702,-111.9498,-22.7425,-188.1775,13.5827,-169.1774,261.3723,84.7167,198.1394,98.2038,-37.8209,-106.2680,107.9551,-51.1575,258.9574,96.9718,-2.6203,-233.4597,50.8884
-10.5793,-132.0716,-73.5272,-240.0409,-74.0302,-203.8597,216.8361,111.3076,229.8829,135.2362,-8.9429,-103.9207,115.4769,-65.5443,289.5495,128.7704,-42.0911,-327.1332,8.2582
31.2044,-122.3835,-62.3810,-241.5175,-111.3517,-199.0571,119.5423,57.2724,116.0019,78.9935,40.8250,-76.6160,114.5050,-81.6383,249.7449,91.7384,-44.7237,-324.1710,-69.0459
79.0634,-97.8378,-9.9403,-204.4875,-79.1503,-139.6311,53.1845,16.9801,49.2067,11.8821,22.1439,-59.8922,105.8370,-70.5043,238.3163,62.7955,-18.7833,-277.5836,-106.2645
65.1579,-84.6774,49.8484,-175.1077,-31.4218,-64.9387,12.9192,2.6718,37.3040,-31.0935,-25.5706,-67.4953,104.2960,-56.9207,218.6376,42.4412,2.0667,-244.4573,-103.8091
32.9214,-90.3787,97.8416,-168.7170,-3.0063,-38.9346,-12.1679,-20.7400,-6.3860,-20.7844,-69.5824,-90.8456,94.1371,-67.4230,163.3581,-2.1822,-8.5999,-193.4858,-77.4519
1.5280,-103.6006,113.6921,-166.7283,38.6438,-54.7664,-1.7718,-25.2507,-15.4549,51.2155,-128.2842,-113.3719,62.9751,-77.4327,147.7809,-33.0068,-43.0447,-122.9135,-16.8835
-37.3773,-115.3583,102.4265,-161.3060,105.6893,-52.3024,6.5597,7.9529,74.6773,73.2569,-171.3690,-117.4127,27.3986,-49.5759,185.3260,-8.8945,-50.0849,-91.1113,53.8365
-36.4219,-119.4269,101.4326,-160.2179,153.0145,-35.5224,-30.4492,22.3190,167.1912,-6.2744,-156.8826,-99.9848,2.5066,-8.8575,202.3550,23.6762,-9.8876,-103.7499,74.1086
8.0140,-116.8004,111.3986,-166.8595,149.2281,-54.1243,-88.6794,-13.1106,157.7654,-71.3035,-109.6620,-77.8602,-16.7212,-8.1478,164.4141,9.7388,20.4499,-117.9145,36.7125
28.8758,-118.0441,98.1151,-170.6882,110.7836,-91.5044,-144.3449,-47.0796,52.8165,-89.2471,-74.7683,-65.1645,-44.3670,-26.0891,79.2525,-20.0983,11.3971,-118.1433,5.8281
21.6990,-118.8830,65.3672,-151.2760,68.2261,-90.5299,-187.5429,-41.0325,-49.4143,-135.1691,-68.3198,-59.8017,-83.2100,-8.5613,-23.6260,-17.3074,9.1348,-104.9868,20.9842
4.5353,-107.5523,25.7508,-106.1205,31.2106,-46.9179,-185.3814,-27.2788,-29.6797,-157.5081,-94.1675,-63.7733,-116.3948,13.7998,-76.6264,-7.5853,15.7272,-81.5563,52.1554
-58.0338,-94.9223,-34.3903,-59.2140,-10.2763,5.6717,-129.4986,-38.5155,77.8676,-94.2211,-155.2619,-91.7382,-128.0636,-11.6088,-50.2877,-33.8688,-18.5522,-60.3626,73.4375
-127.4948,-86.0212,-79.0975,-22.0175,-45.5976,49.3784,-38.9296,-45.8233,92.1840,-51.1572,-236.2411,-136.0593,-111.0252,-39.6826,4.0237,-62.7902,-59.5528,-35.7031,96.2060
-111.7804,-67.3606,-53.5391,5.0426,-43.4133,77.0887,69.0749,-9.6562,-14.3867,-91.7647,-281.1914,-157.8248,-57.9831,-14.8006,37.2098,-35.7606,-38.0459,-11.3728,109.9033
-59.0934,-60.1289,-12.3485,-2.4212,-10.1989,81.0191,127.8102,51.8849,-81.5739,-128.0999,-239.2383,-141.2311,4.5190,23.9379,31.5428,31.6856,2.5528,-28.4250,95.7508
-63.6917,-97.4797,-30.3224,-48.6760,25.3843,65.8917,81.8862,94.4206,-62.2157,-113.0968,-166.3082,-119.9819,14.1251,32.8543,-22.6876,79.1364,-13.6776,-66.4719,88.6886
-84.1880,-144.9739,-47.3408,-80.8320,76.1102,50.1257,18.6227,100.2962,-48.5412,-73.7057,-173.0277,-126.1038,-27.7815,25.3032,-88.8290,76.3434,-61.4480,-31.9961,110.4847
-73.4111,-142.5241,7.8704,-63.7938,149.2735,52.0803,33.2399,66.0250,-69.1784,-24.7690,-242.9932,-144.2608,-42.6032,4.3008,-99.3776,24.9595,-84.3065,68.0991,108.2665
-70.2000,-93.7249,70.1549,-20.0417,192.0099,73.9276,54.7440,0.4564,-94.6481,0.2839,-263.5458,-136.5753,-18.1024,-32.0335,-56.9802,-46.7323,-76.0747,113.3707,61.0817
-69.7727,-41.1060,65.7788,25.8434,171.0441,95.3462,4.0364,-55.6123,-92.3680,-11.4105,-216.7386,-95.1308,-27.5239,-51.0096,-29.1147,-88.5919,-46.0407,69.3764,29.0957
-41.7384,-7.4703,33.2728,57.4258,120.1060,94.3542,-59.6867,-75.0784,-17.7397,1.5921,-165.8641,-51.4422,-76.7214,-44.9301,-35.4211,-89.7293,-9.5040,14.7944,37.8782
-14.2408,4.7826,28.4505,51.1398,65.9981,67.8463,-76.4147,-81.5242,68.5159,45.1745,-124.1473,-32.5536,-91.4906,-46.2332,-30.3983,-88.7319,8.9890,-12.4266,44.7087
10.0710,2.0962,36.4932,14.2235,5.9498,25.6849,-61.4971,-87.8352,25.2144,42.6600,-78.3090,-30.8575,-52.3102,-56.0098,4.6182,-89.5529,8.9389,-36.0208,20.5250
40.1012,-11.5342,12.8259,-23.8432,-53.9117,-17.2425,-28.8661,-71.4150,-88.6987,1.3778,-46.6990,-34.3857,-6.0559,-57.6021,40.0592,-62.4142,-6.3908,-65.6905,-27.6401
19.7944,-32.1203,-44.0878,-58.5872,-111.2231,-44.5033,-3.7440,-42.4245,-75.9817,-7.2584,-27.2738,-41.4453,20.5715,-61.5257,72.0634,-26.7525,-41.6998,-99.0483,-73.5705
-30.7599,-30.3935,-75.2075,-80.0674,-166.7404,-49.4637,-39.1552,-37.8985,16.0363,2.7361,16.1230,-27.2548,30.4932,-63.4387,116.2022,-17.9096,-57.6852,-137.9236,-95.0334
-2.4470,9.5128,-39.4731,-67.0962,-191.4266,-41.9779,-128.8886,-49.5830,-25.1878,-15.6715,78.3870,24.9549,28.6282,-45.2158,126.5919,-16.9459,-20.4466,-174.7175,-117.6465
68.9894,38.7840,25.0182,-50.1976,-160.1718,-40.8495,-199.1645,-47.6413,-174.9545,-37.2480,109.2151,66.6040,25.7544,-30.8726,54.9126,-6.2516,17.2105,-198.3829,-165.9640
76.1285,23.3111,73.3036,-67.4459,-98.0583,-57.1956,-208.0044,-38.7664,-238.8125,-21.2008,97.5101,57.8228,28.3299,-42.6966,-35.3614,-7.2432,14.2550,-200.6244,-191.2786
72.7189,6.2236,99.8527,-85.2907,-49.8594,-79.3084,-185.1408,-39.6285,-192.3979,15.3267,88.9662,44.5077,25.6470,-51.7342,-58.3513,-17.5315,10.4120,-173.5341,-170.6052
111.0902,13.0794,88.2766,-71.3977,-32.3145,-82.5540,-169.7231,-44.2506,-140.5293,30.9472,100.8984,62.3109,18.1916,-42.3958,-24.0009,-14.2774,7.1332,-115.4020,-171.5529
101.6057,15.8559,50.0530,-54.1456,-23.3347,-61.9977,-142.8720,-51.1401,-105.3816,24.2582,94.4606,68.3349,32.8164,-42.3697,32.7314,-17.7187,-34.8348,-30.8944,-212.1708
42.5035,19.0478,60.2880,-43.2703,8.2454,-35.1806,-81.3132,-79.3279,-67.3634,24.2704,64.7736,44.4310,72.7357,-63.0070,84.5225,-60.8023,-68.5811,55.1610,-229.2359
33.1009,38.5467,111.3014,-15.5241,47.2586,-12.4216,-51.7811,-133.5077,-43.2900,22.1550,52.0690,30.7195,78.9934,-85.4045,69.9679,-124.0164,-38.4322,88.8864,-204.5795
43.8523,34.3079,82.8890,11.7985,42.9332,3.9041,-103.7466,-168.8842,-9.1044,-3.1318,43.1088,27.7365,5.0907,-88.1850,1.0320,-151.4596,-4.0272,56.2388,-139.2020
10.3445,-14.3680,-39.7889,6.5589,-14.2788,6.5350,-135.7609,-123.1900,86.8900,3.8825,5.0359,6.0850,-88.6368,-54.7284,-11.1669,-104.9816,-23.7356,23.9461,-3.7173
-22.1190,-60.1951,-142.0889,-18.5297,-94.4624,0.0339,-73.5966,-9.1565,187.0021,82.7920,-15.8171,-17.7338,-110.5188,1.9340,33.9244,-8.2498,-59.4743,26.8549,152.5574
-45.1836,-70.4895,-187.7575,-31.8616,-178.7722,2.8200,-18.6587,74.9736,178.0358,129.3652,15.8833,-20.9383,-78.0905,38.6858,36.1778,59.9015,-73.0661,12.5289,225.1922
-91.4323,-49.6608,-218.9641,-13.4959,-243.4276,20.1541,-36.2581,75.9417,94.3717,60.9022,38.7399,-13.0270,-66.8323,47.4593,27.1337,62.2373,-65.6276,-30.3750,211.6271
-93.9077,-2.3962,-224.4717,31.8579,-267.2745,43.9867,-68.8338,48.0602,64.9142,-24.1652,27.8776,11.2731,-79.1966,60.8981,82.3972,51.7092,-36.7618,-47.9205,163.2915
-19.7558,47.3190,-182.8432,62.9703,-270.7617,69.2316,-130.2276,45.7334,73.2203,-34.9780,50.9835,65.0642,-78.1797,84.2352,120.8787,71.7168,-2.4712,-52.4063,85.0293
24.1338,68.4685,-126.3030,53.2911,-262.3176,84.1490,-245.4290,55.1796,10.0287,-34.2002,122.1984,120.1618,-61.0260,94.3055,69.3801,93.7882,13.2527,-94.2785,-1.6708
-10.6359,66.4664,-98.5716,31.4129,-222.5820,73.2877,-288.1847,50.8648,-72.3595,-79.0167,180.1568,137.4779,-30.9368,84.0921,12.9078,89.9871,16.1687,-135.4924,-54.8079
-47.1481,48.9207,-132.2404,21.2399,-195.9462,48.9949,-195.1134,30.5129,-31.9025,-122.0263,195.7213,112.4164,-0.8193,59.7997,18.6564,70.8441,7.8128,-118.6164,-67.9970
-40.4593,8.1507,-208.4316,10.1714,-230.7730,38.3341,-102.2744,3.0263,81.6136,-104.7861,167.1386,63.7564,-9.3919,29.5679,47.5433,45.9120,-22.5466,-75.8029,-27.7041
-11.5223,-27.1105,-226.1347,-3.2483,-244.0891,35.2655,-78.6581,-14.5381,100.6162,-17.6876,102.2757,22.0278,-38.2301,2.2624,71.8095,17.1817,-54.8222,-48.8848,48.9356
2.4898,-18.6933,-144.3414,-6.7786,-160.2522,16.0873,-52.1804,-24.9536,40.1041,89.0370,52.0267,12.2135,-22.1933,-27.7271,98.9995,-15.3543,-69.1872,-23.5696,57.7470
-19.2379,13.8159,-70.8917,0.4590,-75.1380,-9.2480,-25.1965,-56.9936,56.6413,129.8048,48.3287,23.8362,7.6961,-59.7869,125.6190,-56.1277,-67.7052,-3.0580,-9.7130
-21.4256,31.9951,-77.6763,18.4054,-79.9956,-13.6147,-49.3350,-89.2752,179.8673,100.6340,56.2172,35.9987,-32.0944,-56.5742,140.1055,-74.3251,-30.9503,-20.3762,-3.3669
45.2325,26.6903,-98.9155,29.5149,-111.8500,-2.5046,-92.3034,-52.3477,307.6374,97.5612,52.3587,49.2802,-107.8669,-1.2470,127.2960,-20.1437,32.0207,-63.8842,101.7557
90.2083,-0.7174,-86.8187,2.0041,-109.6765,4.8161,-111.2058,42.3799,373.6028,163.8177,40.1344,53.9261,-124.5060,51.2377,100.2107,70.4800,37.9306,-77.3491,158.6244
32.9165,-33.4423,-64.1216,-40.5429,-93.1694,19.0608,-89.5024,99.3913,353.2777,245.7179,2.5533,26.6341,-70.7587,47.2329,106.8213,97.4556,-38.5512,-28.7891,136.4406
-40.6153,-39.7520,-28.3529,-42.7201,-53.6250,53.4364,-4.0261,86.0490,226.9956,290.0368,-42.0220,-15.7658,16.4327,4.3438,138.7071,47.6833,-105.6167,50.6529,117.4203
-49.2690,-15.2678,29.6546,-9.6257,30.4974,92.4998,98.2369,58.4880,50.9941,269.6909,-38.4089,-26.7769,109.3575,-26.2143,140.8121,3.2778,-105.1577,102.8334,86.6209
-25.7351,28.9930,85.7545,34.4926,116.4793,130.7836,129.3004,54.7967,-80.2006,175.2471,-5.9078,5.4487,169.9777,-13.6174,122.0566,8.8352,-66.2450,122.4340,-0.8209
13.7273,97.1580,139.8637,102.2823,164.7042,179.6335,100.7311,62.0014,-175.0833,39.1156,14.6286,61.0376,188.1474,36.4798,95.6352,36.7386,-5.3471,149.9200,-107.0569
74.1804,165.4582,197.3463,166.4902,187.5202,211.0100,53.4186,61.4229,-272.5529,-90.3727,71.5648,125.3976,191.5027,87.4904,15.5877,58.0494,74.2250,167.5585,-191.6708
115.9065,175.1501,204.5148,159.1091,183.6956,178.7975,-29.0363,54.4684,-291.8697,-170.3612,171.4529,173.8297,166.9398,108.8182,-81.0244,75.8643,127.8005,115.4725,-228.1203
