Fp1,Fp2,F3,F4,C3,C4,P3,P4,O1,O2,F7,F8,T7,T8,P7,P8,Fz,Cz,Pz
26.1137,24.7910,-11.6708,26.5669,-16.2012,29.0387,-5.9747,28.4902,-84.1003,18.9777,25.4584,34.1706,25.2557,-13.4276,-45.2273,-21.2583,38.4428,-23.5388,8.6777
67.1373,95.8739,54.4030,-40.4776,-47.7609,36.4374,-42.2402,-18.6985,-158.7582,-381.1071,120.7290,26.1560,87.3554,-46.5763,-80.0420,-132.4236,19.0360,89.0992,41.1471
20.4197,75.8716,25.3766,-87.5241,-47.2153,-3.7914,7.5374,-52.5326,-56.4670,-475.2216,70.0960,-26.2628,91.9702,-57.0669,6.5788,-148.5925,-51.2026,143.7918,64.7546
-77.8505,-21.7090,-79.5552,-42.0044,30.0516,-17.1604,105.8899,-28.8017,207.2098,-212.5659,-90.6224,-83.2688,64.1691,-54.1977,165.1779,-88.2204,-129.2416,136.6315,60.3995
-122.1335,-70.9308,-125.8369,11.0016,95.4440,1.6500,138.8199,-1.2856,389.2293,-72.1437,-165.6706,-110.3783,61.4899,-60.0765,216.6802,-64.2295,-162.9559,141.4898,64.5157
-76.5909,-7.0413,-68.5245,-28.6363,81.5926,-3.4782,96.4047,-2.2021,364.2689,-110.6359,-104.3914,-95.6306,60.2355,-79.7940,119.2611,-82.5750,-133.4346,149.8781,64.3786
2.0751,93.1950,10.9517,-131.0734,39.8436,-37.2918,36.0570,8.6762,249.3782,-54.9712,-8.7577,-51.4135,16.0352,-88.2131,-3.7041,-70.7188,-75.5147,114.0174,28.2790
39.1474,113.2021,49.5273,-176.5228,16.3996,-65.5663,-27.0871,22.2817,175.3610,30.1080,39.2763,-22.3458,-46.0376,-52.4736,-66.1217,-13.3738,-32.9758,51.5206,0.7521
30.2553,61.8415,73.1357,-81.0163,8.2593,-52.3688,-80.9011,-9.9349,127.9297,-19.4839,28.1234,-21.8004,-74.3192,6.5890,-86.0470,31.3231,10.8298,16.0594,5.8117
40.8291,58.8193,127.5350,76.1112,14.3726,15.1041,-99.0602,-70.2373,48.1218,-125.3881,15.3746,-6.4816,-70.7606,27.4097,-94.2619,5.5965,75.7414,35.2918,-19.0235
88.3358,127.7296,202.7592,127.1689,20.9458,78.7196,-100.2238,-114.8372,-37.8634,-212.3596,56.4770,25.0333,-75.8693,3.7923,-89.0197,-71.0448,111.7731,95.0362,-75.4846
110.4159,164.8949,244.6337,65.9316,21.3058,80.3135,-108.6128,-127.2658,-66.9961,-264.1570,94.1002,21.6091,-89.2618,-18.2339,-64.0112,-121.9472,91.1134,156.0919,-77.4717
83.7207,134.3236,217.4838,15.7180,41.9861,57.3991,-96.2770,-88.6138,-45.6537,-225.9588,60.0343,-9.8863,-62.6731,-30.5363,-25.4224,-124.0062,57.7548,189.0739,-20.4242
40.8877,75.4648,138.9487,-9.6876,68.6832,47.5605,-48.6558,-12.8657,-7.4891,-151.8400,8.2356,-28.9912,7.1488,-43.2819,23.9343,-104.3492,16.5675,176.9052,17.6156
-20.6324,-29.3254,66.5292,-37.7066,60.4658,22.0096,-3.6302,32.4538,62.9273,-130.6006,-22.7569,-57.0982,51.4885,-26.9045,87.8824,-50.4384,-59.4357,115.1581,20.6048
-95.6789,-159.7993,47.9300,-10.6318,48.0652,-8.3538,16.3897,19.5235,158.3557,-108.6584,-75.6149,-108.5304,40.4322,18.2115,148.0875,28.0176,-121.4895,54.0657,17.6157
-111.7457,-183.1842,65.9503,36.1584,63.9376,-5.7121,24.4354,-18.8526,203.5084,-75.2808,-105.4650,-123.8247,35.1551,21.9239,170.5056,39.3668,-120.5248,59.2031,-1.6894
-47.7651,-76.9207,60.7739,-18.5095,65.8969,-4.4823,23.2209,-54.4143,169.2718,-88.8081,-37.7953,-76.6769,73.9130,-34.6621,159.5176,-32.1890,-97.8395,99.0038,-42.7004
3.1670,-9.5889,19.6181,-93.2676,42.1033,-21.5131,9.6745,-59.8139,113.0361,-65.1154,32.1743,-26.9274,95.7312,-65.3837,154.9749,-66.9842,-85.0411,84.9275,-65.8082
-22.6388,-78.3018,-16.6892,-11.5237,25.6524,5.7841,-1.4868,-23.8513,75.0981,21.4482,-0.9195,-16.8825,43.4707,-13.0625,171.8935,-17.3602,-67.6716,10.5645,-50.5970
-71.2541,-180.2251,-28.7124,146.2839,-0.4577,75.2549,-4.5732,-0.1792,48.1972,-11.0657,-44.3301,-21.7886,-34.7809,63.9961,189.2431,23.9042,-63.6439,-57.1247,-31.7752
-63.1644,-180.9782,-20.5275,160.7341,-40.0122,95.7614,-17.8951,-24.4209,19.3647,-157.8167,6.5557,-8.5963,-58.1581,83.5650,177.5166,6.3029,-77.4778,-71.6468,-46.4879
0.5255,-77.6139,7.6056,9.2971,-39.1710,38.3943,-41.1603,-41.4942,-24.6053,-175.4350,88.4777,19.3850,-25.7642,45.2389,126.0016,-13.5253,-66.1449,-38.7013,-82.3714
35.2739,-6.8514,17.3446,-150.2893,-7.9912,-42.1021,-37.8891,-13.9564,-67.6458,-42.4747,104.6072,28.2759,11.9078,15.3411,81.5634,16.4129,-49.2819,-16.1107,-93.9874
-17.4853,-80.2619,-43.2821,-182.9628,-1.4941,-88.3078,3.9360,21.0301,-56.4826,54.4311,47.2717,0.0111,36.9960,34.9142,110.5069,79.7209,-82.6835,-50.3928,-60.8795
-94.4244,-201.9483,-132.6050,-92.2744,4.6002,-71.4480,38.6754,41.7511,8.5904,68.4052,-31.1881,-32.3315,50.8232,70.1799,181.4190,114.2641,-123.9987,-85.7013,-7.6325
-101.6644,-198.5490,-158.1094,-23.7985,37.8990,-25.5624,36.6306,53.1166,58.4418,40.8685,-58.5944,-33.7806,39.4105,69.8976,190.7649,82.6808,-117.8208,-45.2269,29.1036
-53.0094,-85.8253,-116.8615,-89.1581,52.2436,-24.2154,30.5973,39.8205,59.8361,-30.2500,-7.7057,-19.0774,16.9517,36.4378,121.4693,26.2987,-106.8924,32.3375,29.5523
-15.9442,-0.0300,-67.1255,-189.7893,34.3106,-62.1689,40.1902,8.6364,35.6702,-104.7005,49.9163,-14.7694,29.2173,1.3809,50.7442,-2.5196,-109.9614,71.5871,9.4028
-14.3217,5.2906,-30.7641,-154.6157,19.9066,-61.8398,35.9009,2.7205,18.4518,-125.7963,27.1204,-26.3694,64.0067,-16.2006,26.1557,-9.5656,-78.2539,67.3877,17.3518
-47.0885,-57.7229,-24.2924,1.3336,2.7997,-11.2583,15.7536,28.5750,40.4155,-106.3496,-51.1310,-46.8691,50.7529,1.6110,35.6285,0.5480,-36.9049,22.5544,62.4194
-78.6524,-124.9343,-68.6088,95.3105,-31.6041,24.7959,10.6157,41.9316,83.4066,-76.1100,-66.1499,-42.1862,-17.6345,46.3828,43.7645,33.0835,-47.8009,-58.3050,72.7897
-35.8370,-70.5626,-111.8962,23.8055,-60.0024,9.0473,5.6506,14.0140,77.0008,-46.2414,29.1243,16.6186,-68.6706,55.2573,21.0931,39.5236,-61.7008,-107.6988,3.4172
64.5633,90.2385,-78.2764,-98.3418,-73.7280,-30.1210,-30.9745,-29.0146,34.8773,-16.8298,121.1963,79.1874,-70.9978,1.9290,-7.3486,-5.5925,-11.7470,-92.3321,-83.1364
106.0701,158.5059,5.5325,-97.5699,-82.2823,-37.1821,-67.7963,-45.9121,43.7089,15.1730,103.3254,76.3176,-56.9483,-47.2722,9.7341,-40.7985,45.3418,-75.5194,-116.8858
62.3470,78.1093,56.5450,4.8123,-77.2220,-0.6231,-55.0508,-48.6309,77.6055,4.9962,42.9773,31.3816,-28.9842,-49.7891,47.7147,-42.0630,36.6670,-73.6501,-106.1724
18.9005,7.1029,64.0514,48.5808,-46.4675,20.1962,-6.4002,-70.7355,39.3370,-77.7780,32.2860,3.1438,33.5242,-38.3871,36.1603,-42.4894,0.4790,-28.6286,-83.5369
15.2010,19.5465,73.3255,4.7858,14.6021,-5.3811,24.5424,-79.3524,-57.3724,-139.3399,31.1383,-1.6615,94.6013,-22.4553,-26.8159,-19.2759,10.1612,46.0337,-66.6322
32.4279,54.6721,97.9403,-21.5214,87.6504,-14.9362,14.7807,-32.4869,-133.6337,-103.1919,6.5536,9.0069,109.1458,2.7353,-81.4360,25.9276,62.0628,88.9889,-64.9907
46.0551,63.7221,110.4148,5.8665,121.3853,32.4313,-2.1426,26.2771,-137.2924,-35.5406,-3.5566,18.8522,101.8058,-8.8854,-68.0050,3.1588,79.4298,108.5087,-53.6525
6.5390,-2.8585,84.9217,41.1141,106.1826,84.7486,19.4805,53.8806,-24.6126,14.2073,-20.5704,-18.8216,94.3702,-55.2024,31.9076,-74.1674,-1.0427,128.3700,3.0690
-85.6260,-138.4215,33.7596,48.4961,95.7432,97.2705,66.7076,73.2299,146.6673,59.6914,-63.5540,-92.9460,54.7711,-56.8010,138.9017,-87.4541,-137.1050,134.0399,76.4618
-125.0108,-192.2295,7.5546,16.0199,100.7084,84.0570,86.2633,82.9167,197.3351,77.1566,-63.3527,-118.6519,3.2651,-25.3908,141.7422,-57.0652,-200.3825,135.1692,107.7199
-72.6143,-101.0535,35.4504,-10.7390,89.0201,65.4104,67.9057,66.3681,96.1687,93.1242,-36.1793,-84.5667,10.7920,-43.4306,64.1743,-69.7902,-129.5944,143.3318,98.8757
-29.1449,-28.8987,77.3954,47.4538,72.7649,59.1128,35.8469,58.1338,22.3246,159.5753,-75.6170,-60.8982,40.1367,-69.5550,17.2646,-71.3515,-12.8860,117.2586,85.8796
-36.7071,-57.7479,78.2710,149.4254,55.8483,75.4665,-2.5495,49.8474,50.4771,156.1823,-112.0535,-53.5774,-5.1041,-23.8469,20.0642,-23.0312,32.3408,48.4718,64.7863
-24.7829,-55.0702,49.6497,150.2388,11.5111,75.7887,-29.8236,-18.9578,77.1663,-17.3869,-34.9091,-23.0241,-74.7245,28.0175,25.6831,-12.2325,3.4899,7.3152,9.4890
23.8328,35.7558,49.1421,23.1391,-12.7541,17.2614,-22.7513,-106.2387,53.3191,-182.4119,61.7483,9.8680,-46.3786,10.9556,12.3787,-35.8926,-16.0605,32.2265,-70.3422
59.8096,112.6793,91.8118,-101.4546,40.8299,-61.5041,-11.0638,-127.9620,12.5641,-183.9192,72.9209,14.4647,50.0126,-16.9206,-38.6017,-4.3435,15.3784,82.5889,-125.4691
68.7483,119.1155,133.3336,-107.9262,101.9898,-80.1620,-29.3014,-119.2626,-27.6779,-130.8077,56.1940,9.5841,92.7992,-7.9377,-103.7606,37.8520,59.6345,113.8816,-121.6345
60.6016,85.1275,140.9377,1.1983,91.6555,-19.7245,-53.8723,-125.6613,-41.3391,-122.9328,48.7036,9.2859,52.6802,2.9430,-100.8691,6.6819,75.4427,113.9312,-80.9274
51.3078,60.1059,125.4644,112.0605,47.0344,61.3365,-72.6512,-105.5940,-26.5182,-144.6821,37.2384,13.0485,-26.3631,7.3595,-45.2277,-54.2351,71.5239,96.7924,-38.4950
72.3695,96.4769,98.0773,96.8783,12.0438,93.6954,-103.1043,-57.7621,-53.3878,-206.0272,72.2583,34.5661,-99.8441,16.1079,-48.9201,-97.0203,67.8693,97.7527,7.9667
111.8057,174.5805,62.3397,-21.4348,-10.3469,70.7409,-114.7956,-25.1824,-130.9731,-257.1353,143.1269,63.9751,-119.2084,4.4740,-108.2967,-132.6939,61.9515,125.8696,54.5237
115.7117,196.1970,47.2507,-82.1413,3.8173,52.2762,-82.5764,7.7621,-158.7290,-189.8374,143.2798,65.4787,-80.0144,-23.7870,-129.0563,-138.3255,55.0358,142.9342,69.1398
80.6569,136.0643,69.6311,-21.1806,46.4764,74.2990,-57.2063,48.6446,-99.1905,-58.4627,73.7604,36.5981,-49.5359,-31.4300,-106.8053,-106.8855,53.6324,131.4125,63.5481
35.1597,55.0803,84.1606,48.4664,61.0781,92.9324,-54.0165,65.3775,-26.4148,8.6839,14.8768,-2.1539,-61.1236,-17.6807,-72.6620,-79.1408,35.4639,114.6453,83.1158
-23.2733,-27.6245,48.0066,32.8783,46.4952,61.2791,-19.0127,76.1659,8.8717,27.0614,-34.3171,-42.4501,-66.8814,6.2129,-13.3178,-37.7670,-18.7477,89.4605,109.4097
-72.3484,-97.3665,-10.4789,-20.5448,35.8886,4.3749,28.7393,93.9952,27.5005,39.3655,-74.3397,-63.4821,-35.3480,34.8316,44.2163,34.9723,-66.7044,35.0563,90.9862
-55.6760,-74.8291,-43.4712,-39.9400,18.1543,-31.8073,20.8093,65.1856,60.7326,15.3761,-63.1445,-42.2951,7.2492,27.7785,53.2318,56.1708,-49.9641,-13.4627,39.3313
15.0628,55.5191,-34.8935,-32.3221,-4.2342,-41.5550,-13.1585,-8.8370,85.6886,-39.5129,-31.7518,-0.8618,35.4331,-29.5266,31.0375,-9.4943,21.5910,0.9373,-5.0968
67.6507,172.3123,18.4137,-15.6280,2.5447,-27.4633,-12.6129,-54.7649,30.8222,-100.5502,-25.6532,22.6810,45.4562,-69.3102,-7.8012,-72.1382,88.4285,66.6081,-28.7582
69.5638,167.2277,92.3955,29.5477,28.9736,21.6944,-1.9542,-46.2781,-93.2326,-165.3973,-13.9583,21.0968,41.3853,-49.3685,-65.8838,-83.8920,106.9092,120.1928,-18.5778
33.6397,61.8148,117.8258,76.9276,48.0211,82.1996,-5.1240,7.1368,-149.9082,-176.3988,8.1322,2.4178,38.3283,-14.9237,-83.9971,-75.2815,63.1320,124.9502,25.8367
-15.0324,-44.6712,53.8182,56.5006,57.5082,94.8468,11.3395,75.5403,-82.5608,-87.0663,6.9741,-18.5294,46.2383,-5.6922,-25.4296,-54.9860,-19.9935,90.0311,61.8805
-37.5850,-70.9597,-49.9228,-11.1045,38.7793,44.7759,46.3718,67.4502,-7.5022,34.4143,5.7747,-15.5180,44.0359,-14.3698,35.3145,-34.3775,-74.2359,43.2777,60.2692
-15.8624,-15.7439,-106.4952,-37.1038,-16.1113,-20.9171,48.7884,-40.1037,0.7231,117.4915,20.9604,11.7697,3.1523,-23.9911,40.1140,-32.7757,-49.0179,2.7478,36.2778
16.2901,41.8304,-75.7555,-19.5633,-59.3403,-59.9262,2.9952,-116.6447,10.4026,157.8181,15.2846,25.1228,-60.3517,-19.1895,27.6195,-18.7110,13.9896,-33.4899,3.0896
17.2621,24.9220,8.8647,-11.0428,-62.2530,-59.1478,-44.5879,-84.4687,66.0905,149.5644,-6.2046,-0.1138,-84.9373,-8.6996,37.6509,13.9843,26.1144,-60.4658,-26.2453
-11.0067,-47.5747,71.1210,-9.6749,-48.7171,-25.8854,-39.9484,-23.2770,108.8540,114.6621,-5.7223,-39.3168,-41.1919,-21.3425,54.5374,12.6741,-26.6716,-57.6156,-27.5983
-18.4285,-64.1965,59.6578,-20.8646,-34.5415,-9.4596,-1.1090,-12.1301,74.8467,104.7064,20.9515,-35.2572,9.5773,-35.7276,30.4519,-2.1675,-54.6239,-41.4096,-25.3696
43.2742,48.8776,-2.1764,-75.0118,-34.6362,-58.9430,-12.1821,-67.8326,-22.6103,92.6970,78.1088,42.0037,-6.7009,-7.6063,-54.4891,31.3991,16.4136,-61.8199,-75.8588
133.5436,195.6875,-31.7104,-110.8321,-63.6124,-120.9835,-82.7782,-166.9511,-106.4279,19.2138,143.3418,129.5066,-58.1392,31.4663,-123.8084,65.7998,128.5853,-103.2958,-157.9045
148.4842,200.7436,36.4402,-43.1297,-73.4566,-90.6465,-114.2077,-211.0431,-133.5545,-88.1595,145.2773,128.9109,-58.0390,35.2224,-98.9970,41.0253,159.4159,-88.9739,-193.5788
79.4337,59.4539,151.5097,47.7863,-19.9638,11.7041,-76.1673,-139.6803,-137.4846,-168.9023,104.4301,54.9508,-14.8000,37.5672,-42.0858,13.4502,82.7918,-17.3263,-168.4607
23.0650,-52.5630,163.7261,3.6079,30.9503,48.9038,-44.3933,-55.3096,-118.8266,-196.0023,122.3713,9.5851,-4.8571,59.6372,-23.5121,22.6181,-28.6917,30.2659,-121.9871
8.0855,-52.6739,24.9338,-151.9605,9.9766,-22.2555,-24.3122,-47.6786,-35.0702,-163.7016,162.8279,8.5229,-12.4199,44.9809,18.9681,12.6939,-119.2246,29.2344,-64.6698
-22.1790,-37.2521,-115.4373,-213.8789,-33.8425,-81.8391,41.9820,-52.6180,56.1094,-115.2888,106.7168,-9.9473,42.4060,-19.5304,102.3668,-34.9381,-162.6435,25.9302,3.4293
-67.8940,-72.8522,-125.0241,-84.4273,-37.4358,-35.0650,109.3067,-16.3396,71.3549,-108.0529,-5.7517,-43.8562,119.0758,-59.9600,126.2730,-68.1577,-141.0006,29.3150,51.1112
-82.6296,-111.7584,-54.6252,61.2912,-25.2132,42.8888,90.6706,25.7532,78.0995,-117.7653,-52.0612,-57.3901,94.2755,-38.7130,90.6559,-57.8710,-100.2881,11.5239,57.6235
-72.3692,-116.3021,2.2672,21.3285,-30.7438,35.1109,22.7177,62.8624,142.9889,-94.0726,-32.3787,-67.7823,-7.9516,-1.8485,82.6965,-14.5844,-109.3315,-18.2509,43.1039
-60.4480,-92.0005,24.9757,-114.9624,-31.4493,-31.1858,0.2390,93.8006,177.8176,-51.2294,-13.1989,-78.5413,-40.3240,5.1234,74.7676,32.0226,-131.6886,-30.4566,24.3407
-38.9124,-41.2164,5.0466,-117.6862,-8.8124,-51.5076,26.7046,63.3933,145.5247,-23.9777,-12.5587,-50.8932,14.3770,-9.6723,26.7177,43.0756,-90.3036,-26.9787,-9.7053
-11.7917,4.5680,-34.5790,8.8328,0.4891,-25.0240,31.4056,-48.6814,139.3637,-35.7785,-12.5174,-3.3813,40.2388,-16.2115,16.0872,16.3325,-20.9630,-28.7648,-58.2751
4.8023,1.4322,-11.2783,65.8313,-37.4762,-23.8135,-18.7804,-162.0530,160.3558,-91.9994,22.9952,3.8243,7.8633,-11.6444,51.3338,-11.4391,-7.5972,-38.7358,-88.7489
13.9886,-24.3945,72.8779,-30.2884,-75.6098,-53.3581,-67.9450,-170.1208,130.6723,-123.2409,99.4031,-23.2187,-13.4363,-16.2069,25.9589,-17.8067,-52.1523,-33.5224,-74.0129
2.7042,-36.5810,94.9312,-173.5038,-40.7830,-73.9659,-41.9848,-53.3550,88.7851,-56.6348,123.5970,-46.9563,1.3368,-23.4898,-36.6444,5.3085,-107.7289,1.5325,-22.7616
-52.0687,-71.7929,7.1799,-199.3060,38.8494,-75.9964,38.2219,67.8745,104.8027,34.7263,16.5292,-67.8384,28.7246,-3.4484,3.8449,54.9635,-134.0727,32.2146,27.8057
-108.7542,-129.6353,-96.0282,-56.6230,67.1990,-52.6804,86.4187,59.6938,138.8824,19.8189,-120.9550,-75.2603,47.7210,33.4675,133.5562,79.6310,-110.1051,20.7090,34.8823
-98.5497,-125.7820,-118.5197,81.7241,33.8351,-0.5556,76.7281,-27.7290,137.6994,-88.5091,-120.7866,-45.5273,38.8803,39.4054,195.4375,32.2657,-77.0883,1.9789,-7.6160
-40.6490,-64.2266,-49.5906,20.5656,11.8267,29.0280,41.6247,-41.5419,110.0142,-159.9828,4.9480,-15.5377,16.1604,9.9325,139.6069,-29.7762,-96.1351,24.5475,-46.7207
-17.5022,-55.1406,29.9509,-158.2293,20.7722,-17.0566,5.7692,21.3477,78.1570,-129.2827,87.0389,-33.1768,17.5669,-1.6125,70.7014,-9.2235,-141.7178,45.9141,-37.5278
-53.4910,-111.7052,6.6275,-232.5339,8.4231,-101.6215,0.8662,40.7752,69.9268,-72.4719,43.4734,-66.4244,25.4994,31.9665,83.0153,76.3087,-154.5264,2.4343,-8.5003
-93.7540,-137.6310,-108.6004,-152.8336,-46.7260,-135.7851,38.6794,-20.7703,100.5551,-93.0179,-40.6217,-63.4094,5.3593,63.8872,162.4033,108.0207,-136.4505,-68.2880,-5.7105
-80.2286,-88.6547,-168.4895,-19.3894,-97.3296,-94.1034,57.1624,-109.5114,126.2546,-169.4294,-67.1143,-29.1049,-11.8086,43.8215,228.0818,37.2430,-93.3556,-85.5230,-32.4388
-13.2000,9.9743,-105.9820,49.1641,-91.5983,-47.3910,21.4154,-176.8562,89.7625,-212.9402,-31.2888,10.6660,0.5157,0.4680,208.9306,-42.1454,-18.2410,-39.7515,-80.9264
49.8259,106.3063,2.6165,-15.6273,-35.6621,-58.4182,-4.8666,-185.9359,-12.5030,-224.5035,24.0101,35.6955,17.0884,-5.4065,92.6388,-33.4068,40.9574,26.1103,-130.3976
61.0944,122.4638,90.0824,-101.2094,21.1102,-72.9815,0.3280,-121.7784,-126.1586,-233.3554,58.1486,29.1661,31.4091,22.3987,-51.5964,24.0861,50.2829,70.3714,-124.6045
40.7526,48.6319,122.8556,-32.3254,39.2649,-12.0071,-28.0037,-33.8393,-158.7932,-198.2861,55.7143,14.7918,34.2469,42.7550,-113.6608,39.5281,53.3679,53.8760,-62.5933
33.5103,-14.8219,65.5489,102.8223,10.1106,62.8935,-87.8690,-4.3641,-75.3411,-129.2791,53.1516,33.1514,-11.0474,52.5556,-61.4280,17.3212,60.7484,-24.1361,-32.2975
41.0101,-14.3831,-18.5108,103.4009,-35.2432,48.9612,-108.2627,-55.5183,1.9061,-118.1171,85.6399,60.7641,-54.2150,57.9378,2.1867,7.5225,39.6986,-81.4897,-56.1342
48.1757,5.8199,3.2681,22.6205,-28.3681,1.6965,-83.1205,-107.0916,-77.5682,-166.0163,121.7905,53.3918,1.4358,41.8026,-36.3484,-0.9417,26.6616,-28.5977,-54.4577
60.0094,31.0590,113.9673,-14.2384,51.2326,24.3051,-42.2267,-67.8900,-270.0581,-190.7165,131.3818,35.6930,99.6856,13.9039,-147.2579,-28.5534,50.9364,102.9186,-15.5223
64.2934,56.8884,159.6494,-51.9024,111.8102,71.6691,11.4837,29.3740,-383.1986,-176.2405,132.5798,39.0105,110.6974,9.6997,-199.4728,-42.5243,43.9268,176.9950,-1.2186
31.8547,23.7100,92.8325,-80.2596,71.2352,63.2452,43.1314,71.9577,-322.1885,-165.1511,114.3927,32.9559,54.6355,29.6660,-140.0055,-21.5491,-11.2974,120.2860,2.5531
-16.9633,-55.8148,9.3467,4.9499,-13.3497,36.4558,16.7494,30.8319,-190.3250,-198.9883,52.3101,6.9387,23.9251,52.9286,-49.2358,4.1020,-24.2933,14.2643,32.1525
-26.9516,-64.9598,-20.7995,133.8363,-42.6355,42.6183,-9.3908,-39.2133,-137.8813,-282.6849,-4.7360,7.1542,22.3254,69.3453,-7.4457,4.4834,27.0259,-20.7229,28.3354
8.6139,25.5162,-7.2824,155.2324,-17.2355,51.9610,24.4013,-103.8974,-163.4822,-330.8492,-5.0518,41.7228,28.3627,55.9710,-2.4868,-21.8011,69.1556,22.6237,-50.2735
50.1947,116.0408,25.4053,74.1506,-0.7016,31.5887,61.1704,-141.5067,-146.8180,-275.8629,31.5976,62.2457,48.2976,0.7165,0.5039,-57.5255,65.0484,61.5393,-129.0895
70.1752,129.9166,57.1226,-36.0250,-25.0814,-8.5307,30.8404,-129.8768,-60.2878,-199.3921,81.4933,48.3493,56.8328,-48.6297,7.8466,-72.5529,24.5303,44.0121,-142.5319
60.2542,74.9246,61.5669,-106.5581,-70.8050,-42.9791,-31.4119,-95.6803,6.7791,-162.4209,114.4357,22.3266,24.5360,-44.4978,26.5844,-52.1295,-21.9304,-10.7752,-106.6047
28.4498,17.2720,34.1648,-50.3995,-84.6667,-37.3343,-51.5891,-67.0248,16.2146,-89.1026,67.1059,3.8397,-19.0498,-15.0732,29.5944,-23.2938,-12.9919,-46.0734,-41.0050
5.2188,24.2616,10.5466,84.8616,-33.5781,16.7835,-13.8415,-14.7830,4.0687,23.9474,-34.4257,-1.1777,-22.1332,-13.6832,-43.8522,-19.8018,54.1258,-19.0851,37.5057
4.2207,65.3816,14.7839,114.0982,36.4993,59.2221,38.7570,62.6130,-2.3593,80.5176,-73.6462,-1.0686,22.9996,-41.3746,-143.8073,-31.9182,81.2812,38.7813,79.5528
1.5044,54.5955,16.0472,-6.2060,47.4149,27.6218,53.6411,104.3364,22.1615,87.8968,-35.9404,-13.2119,60.0285,-60.0666,-133.8991,-24.0619,20.3213,46.9228,68.1636
-11.8385,8.7950,-2.9339,-134.9108,-0.0475,-45.2162,22.9174,94.0653,78.9531,86.1153,-5.2826,-36.5770,36.1918,-51.9930,-32.5344,0.6234,-52.7584,5.8183,53.0565
-15.0713,8.9458,12.4574,-157.0828,-22.1311,-68.5311,-6.2707,75.9084,107.7204,33.5074,-18.4287,-57.4715,4.1975,-46.8556,15.0162,-6.1486,-60.5620,15.6252,66.1169
-7.2057,56.2452,82.9335,-69.1188,29.3722,-24.5359,10.6139,58.5990,86.5254,-32.8408,-76.7695,-74.0898,47.2185,-76.7095,-8.0695,-55.4919,-4.5527,111.0732,78.8656
-1.4828,105.7446,113.9681,27.1973,94.7353,2.4336,61.5726,8.9125,69.2904,-0.3962,-144.9751,-73.7108,113.5136,-112.0366,-28.5244,-84.1140,60.2525,186.6703,58.5104
10.2309,127.1739,44.2224,14.2636,91.8134,-39.3525,89.5388,-75.6230,65.7538,103.7529,-113.8460,-32.4737,105.5184,-100.1372,-50.0748,-48.6217,69.8443,145.3826,3.9122
29.9037,84.8524,-24.6435,-53.8673,35.0717,-81.7356,52.9468,-144.8735,47.6160,167.1255,23.3926,23.7178,57.5323,-52.8480,-67.9254,8.5463,25.3831,27.4624,-66.6067
40.1511,4.8431,24.4564,-30.2534,-4.4963,-59.6332,-24.6504,-152.3219,31.8305,163.4140,97.0875,37.4065,31.8016,-17.2789,-35.1685,39.3180,9.5905,-60.7847,-126.5761
50.2035,0.1881,142.5264,63.4400,-17.4655,-19.1693,-86.0387,-122.6016,16.8712,119.2254,42.4875,19.3258,-9.3048,0.9414,-8.0219,50.2930,74.4373,-80.7390,-153.7927
85.3253,100.8890,189.7549,117.6465,-37.3870,-10.1623,-114.0107,-114.8706,-25.3294,71.1602,-6.6590,33.3280,-77.8292,11.0152,-66.9241,46.0931,173.2440,-74.8405,-144.6854
125.4187,189.9197,119.3632,122.4012,-58.6613,-7.3764,-125.7780,-122.8311,-56.2777,60.2819,24.4598,83.1927,-107.5643,5.9430,-142.1830,17.4047,221.8412,-81.6343,-111.4938
122.6112,167.6429,12.3045,67.2094,-64.1622,-10.3756,-125.1429,-103.3565,-46.6244,67.1911,86.7663,107.0359,-97.1002,8.1409,-141.8746,2.2706,168.8143,-94.5832,-68.6040
67.9124,48.7800,-26.3907,-61.9449,-64.0573,-52.8558,-116.9150,-64.2478,-45.3659,59.7523,131.0274,66.9641,-107.3496,48.3853,-99.0871,45.3499,44.3642,-95.1322,-18.6662
-2.1905,-74.1727,31.6936,-138.4305,-51.5300,-91.4176,-111.9591,-18.2608,-49.0660,69.2188,97.9037,-17.2640,-127.7970,85.3080,-68.1132,99.5609,-40.3944,-65.3958,48.2185
-41.1402,-87.9859,115.2378,-70.8855,-4.0587,-63.9640,-90.7677,46.2067,-13.5771,84.0044,-33.3475,-89.0437,-107.2953,59.7277,-62.0582,84.1092,-14.1518,14.5970,122.6467
-22.8423,29.0906,123.0571,20.1197,53.5076,-14.7512,-44.2504,77.9084,1.1069,28.4816,-135.4548,-86.7787,-63.4409,9.7358,-97.4994,19.3159,71.3934,111.4753,154.8041
34.7501,152.3816,38.0803,40.9383,63.1557,-4.4277,-25.8008,12.5249,-58.2837,-83.0170,-85.8202,-4.1578,-50.3851,12.5475,-153.0748,-12.9980,132.0078,128.9242,107.8048
83.0974,162.3221,-43.7963,40.4657,8.3151,-5.6423,-67.5298,-85.8786,-114.5193,-164.0114,58.1319,84.8666,-67.1817,52.1435,-160.6653,-5.8504,131.0406,37.2160,15.5352
92.8882,83.3007,-25.9722,8.9990,-63.2317,-0.3904,-110.9732,-117.6071,-118.1145,-180.8063,171.9993,103.7024,-64.5658,57.5122,-98.5300,-4.4754,67.1258,-61.0143,-64.1484
72.2745,14.4138,75.5501,-70.8391,-83.7071,-21.9437,-97.3998,-104.4497,-102.6141,-140.3579,182.9982,54.7800,-24.1112,23.2239,-9.4798,-2.9935,-4.3097,-71.1702,-121.0548
45.2523,13.7926,157.6390,-65.1353,-39.2572,-41.3574,-45.1102,-103.4811,-52.5545,-87.1170,80.1655,2.8974,15.3767,-4.9261,44.8109,15.0937,2.5808,-24.4496,-161.7946
36.5735,67.0767,136.2561,86.6072,5.7558,7.4290,-5.3432,-105.4894,36.7228,-99.9270,-27.7870,5.9239,18.4886,-12.9946,21.6335,6.0435,73.3967,0.2102,-161.6986
54.6075,113.9808,21.7798,202.4347,-5.1879,84.0640,-7.0886,-97.1017,75.0830,-160.2548,-4.3615,59.6661,-5.6343,-15.6976,-43.0983,-54.0752,103.6173,-12.5171,-105.6258
70.2771,115.8477,-79.5353,142.4124,-38.2912,95.6505,-31.9177,-66.4813,32.5871,-154.4155,85.9803,92.9276,-30.9186,-20.1896,-71.9981,-104.7755,63.0247,-16.5232,-17.3809
43.5477,84.5346,-68.7966,7.3144,-24.1042,52.2719,-25.8084,32.2309,-5.7787,-57.7195,63.9258,43.9531,-33.2125,-31.5920,-69.2240,-94.9399,13.8554,28.5236,82.3079
-21.5761,34.5600,21.9391,-53.4652,40.7630,27.8506,24.3718,183.8529,-1.6095,47.8331,-80.6696,-56.9069,0.5690,-47.4306,-75.1153,-49.7897,-5.0468,102.3206,178.4137
-79.0985,-24.4837,70.2936,-11.3089,92.7106,41.3507,67.2224,280.7295,2.6958,85.8254,-208.7919,-120.7814,40.5633,-43.3275,-63.9845,-11.8466,0.5138,137.2166,231.5720
-92.5221,-56.6059,17.9328,75.2979,82.0457,68.3939,70.9798,267.2333,-21.9846,30.2391,-227.2164,-99.9331,39.4093,-7.0531,-35.2766,3.8460,18.6862,97.2799,219.6263
-59.2088,-37.5215,-81.6216,119.9262,27.1157,81.0739,47.3984,183.9407,-67.8130,-51.7725,-133.9494,-21.3414,2.5544,33.3674,-47.3875,1.1302,34.1660,19.5301,168.8204
-3.9776,7.2128,-124.4582,75.1016,-14.1246,50.3912,5.0925,70.9902,-97.4707,-64.2454,-5.7489,45.2727,-23.8083,44.1238,-70.4161,-4.3562,38.1091,-27.5055,95.9128
33.1312,42.4372,-39.7346,1.2266,-7.3277,-2.9393,-25.4019,-35.2944,-82.0538,-50.5502,41.4864,43.8907,-8.1788,19.2628,-23.1119,-8.6114,37.6145,0.1686,-3.4203
33.7238,59.1167,113.7806,6.2102,40.9174,-1.2984,4.0373,-78.3110,-62.3826,-92.4784,-12.8089,-2.7226,52.7411,-24.6471,51.6879,-31.3224,43.6043,85.1462,-93.9081
29.5017,68.7821,181.7999,103.7109,97.0933,73.6039,57.4772,-63.0026,-84.8050,-117.7207,-62.1033,-11.6767,115.7055,-58.5762,62.8321,-75.7187,67.0250,151.4023,-126.3069
53.6980,84.0567,116.8598,187.5184,110.1805,137.9138,44.9467,-60.8453,-107.4102,-68.8964,-22.7957,41.5276,108.9589,-58.7169,25.4287,-110.3517,96.3689,138.2582,-111.6318
81.1832,92.6396,19.1510,149.6853,58.4288,115.0941,-24.0442,-84.8259,-65.8977,-30.1869,67.2971,87.4107,33.8435,-32.7370,-4.6188,-101.8665,85.1999,62.8390,-87.5683
67.6709,74.7993,-43.7852,-1.6294,-3.6681,11.9269,-62.3302,-76.4701,45.7664,4.3568,102.9945,67.6534,-27.1837,-13.8911,-11.6643,-43.8314,22.7158,-10.9190,-51.7416
15.7432,38.6316,-70.9457,-145.3885,-4.3069,-94.6352,-44.2746,-13.2521,185.4776,135.1769,29.2705,-3.7474,-36.9805,-23.5445,7.5815,24.8784,-38.0009,-25.7258,13.7390
-45.7231,-16.4728,-45.3392,-170.3554,54.0046,-109.7007,-0.4601,73.8784,266.8755,287.0398,-85.2073,-81.9935,-28.0246,-43.4248,33.2228,48.3788,-74.2969,30.5942,95.9041
-99.3388,-106.2080,-1.9971,-81.5489,107.6933,-22.8830,46.3784,150.8471,227.1420,305.5777,-133.0985,-123.1728,-16.5523,-34.5947,27.8263,31.5537,-108.8059,89.6952,160.2079
-123.5114,-177.3114,-26.9395,35.9106,104.9955,69.8117,68.4063,189.6718,136.6426,222.0896,-115.0157,-105.3105,-4.5148,-1.2853,4.6808,15.2998,-119.1853,72.2780,187.4194
-99.3610,-143.9929,-82.8124,118.7056,51.2592,106.6870,48.5960,183.5830,101.1906,145.2268,-102.9541,-60.1657,-14.3098,2.5344,-2.2066,-15.9011,-70.3676,17.4407,189.5728
-49.8603,-38.3269,-57.8402,145.1802,3.4487,112.1958,19.0486,154.3286,94.0950,76.7519,-106.3289,-35.5395,-43.1087,-28.3166,-7.6141,-69.1799,-2.7443,15.9700,172.3870
-19.1968,17.6385,19.5978,114.4853,-4.7071,89.8221,11.0186,102.4890,46.0786,-12.7514,-86.3609,-29.5246,-48.2815,-27.1729,-17.4971,-67.6135,24.5236,36.8566,104.6609
-16.4997,-16.4662,52.7802,64.4084,-9.4437,32.3624,13.9175,15.6885,-9.7724,-87.2963,-39.8152,-17.3102,-11.0047,15.6213,10.1762,6.1952,10.6869,-5.1471,-19.2385
-14.8182,-60.0218,51.1827,44.9235,-33.5552,-5.9390,20.7788,-65.8521,-14.5941,-88.4667,3.2344,0.8245,38.7831,25.3938,73.3530,47.5929,-11.0002,-74.4974,-136.3032
8.2465,-27.0948,50.3148,47.7923,-39.0368,-5.1042,34.1162,-104.8529,22.2962,-26.5664,20.4596,22.7196,60.7676,-11.2721,102.8645,24.9557,-4.5197,-91.0203,-200.9915
42.1171,53.9241,23.7614,31.0986,-25.1169,-28.3329,26.9681,-141.7215,70.7700,16.1572,26.2504,51.1960,41.1952,-23.8645,75.3956,23.3688,31.8196,-84.6562,-228.2841
50.4182,68.8391,-36.3665,-19.5461,-45.9669,-92.6872,-14.9014,-190.1240,128.5957,29.1953,51.9487,61.8978,0.0565,1.5941,51.3324,61.8741,33.5621,-119.8826,-214.7019
16.8818,-0.7714,-95.5870,-107.1483,-97.6500,-154.2932,-43.6365,-174.4879,206.4044,100.5299,69.4838,29.2449,-33.4635,8.5856,74.1495,88.8357,-35.5785,-173.4343,-142.9598
-30.4597,-49.5380,-124.0444,-202.2224,-126.7302,-198.7298,-23.4079,-77.9795,282.8207,203.1168,17.1228,-27.8356,-49.1284,-12.4264,110.1536,103.7135,-100.8269,-193.1759,-55.3502
-60.7383,-52.5224,-106.7883,-209.1446,-129.8205,-206.0542,-1.2617,10.2592,288.4097,198.0140,-71.4672,-69.8233,-54.9385,-14.8482,108.0545,118.3180,-92.6881,-182.6289,7.4418
-68.4091,-75.1907,-75.1991,-107.2444,-127.2284,-151.7202,-26.8838,46.7883,195.2663,117.3385,-99.1157,-74.6460,-62.7144,15.6558,55.3385,113.4064,-44.1816,-169.1631,69.3641
-48.9888,-85.4379,-87.0337,-42.2586,-109.5256,-96.6469,-69.2650,63.3896,77.4196,120.8740,-48.9784,-39.7847,-79.4566,46.7978,-33.8133,101.8984,-5.2678,-158.4915,127.2059
-0.6696,-28.0880,-115.0780,-108.3242,-81.4091,-100.0789,-92.8860,70.4571,-9.6318,190.7945,37.3490,15.3972,-105.0810,60.7089,-123.1365,107.7613,15.0851,-145.8273,127.0399
51.6443,22.0596,-76.9099,-191.8330,-66.1430,-104.6239,-129.1080,64.7358,-99.4741,184.0978,129.2162,56.0279,-131.9629,74.4480,-155.9930,108.6008,22.0524,-127.8198,76.4716
77.2720,10.1930,17.5362,-158.9723,-52.7535,-58.4855,-183.0594,52.3018,-187.0969,85.0518,164.6331,62.7689,-138.5465,92.6926,-112.8909,85.0988,40.0552,-94.6260,32.6335
70.7091,-3.1130,86.3456,-24.0992,-24.1517,2.4284,-184.1458,12.6231,-199.6605,-16.4585,102.9434,47.3935,-111.2943,90.2486,-35.5358,47.6100,79.2366,-44.0561,-2.7735
53.0825,10.3485,86.9981,102.7423,-8.3993,49.8483,-119.3868,-58.2388,-138.8269,-75.5836,37.2234,41.6714,-87.4400,65.0850,34.0148,-0.5260,90.8003,-6.4514,-51.3114
58.8858,42.4992,25.0893,109.2368,-35.9400,65.2253,-72.2997,-112.2388,-84.4515,-120.9353,69.6270,68.7020,-101.2308,44.0737,78.2728,-48.5596,54.3270,-12.2231,-95.0258
90.6061,108.6546,-51.3521,-6.8347,-82.7338,18.9953,-63.5314,-130.7210,-68.6885,-184.7726,138.2007,104.5991,-96.2010,21.7322,93.6115,-74.6133,23.1447,-35.2031,-121.0138
90.9253,140.7326,-76.1627,-96.6384,-99.2771,-36.9077,-25.1383,-127.7264,-67.2216,-219.4364,125.9182,94.9366,-22.8456,-17.8633,115.8709,-83.6932,7.7768,-28.0148,-126.9498
20.0616,49.8955,-67.3580,-61.9053,-73.4052,-23.5798,47.2065,-73.3773,-52.2796,-160.3195,26.7333,30.2721,41.7845,-39.9289,173.0715,-83.5746,-34.6597,3.0545,-71.8419
-78.6199,-83.3801,-104.7911,12.2450,-28.2433,22.5078,98.7629,44.2728,3.5011,-74.5255,-92.1966,-43.9836,36.3341,-19.6365,200.7579,-63.8105,-91.9258,32.2825,66.7465
-147.2453,-147.2913,-174.9336,36.7967,30.7938,44.6933,131.7940,157.8637,91.7264,-60.4961,-168.9843,-94.1397,33.8845,2.7542,137.5062,-38.5628,-133.4791,75.0433,215.0945
-168.7080,-165.6606,-184.1866,15.3069,105.7612,64.7789,156.4274,225.6828,139.0759,-60.4780,-164.4788,-114.1199,73.6344,1.2032,40.0413,-27.3534,-167.7068,133.0376,276.5916
-133.1429,-145.5224,-105.5709,-52.8319,149.8710,72.3326,126.2923,267.2915,94.8174,2.3460,-100.2023,-101.6191,83.0879,-4.4772,-29.6105,-12.6410,-164.5740,154.6324,244.7351
-56.3921,-54.6532,1.4635,-111.4502,120.2437,42.1483,40.5039,272.3306,6.9599,65.1662,-55.2475,-70.1717,43.1657,-11.9315,-86.8540,4.2064,-78.1337,120.4714,189.7169
-5.7422,20.4078,61.4111,-13.6565,72.9373,52.2740,-21.2820,222.0921,-54.0756,84.4328,-76.5723,-42.4417,8.2535,-21.4855,-121.1904,-13.2738,42.4302,84.9688,169.6448
-9.9400,4.7098,41.2368,222.8788,88.2544,147.5628,-22.1992,153.0029,-86.8848,108.1951,-127.9258,-16.0437,-12.6221,-7.6372,-103.2823,-56.1508,117.9212,93.8120,179.5857
-12.9804,-8.0125,-6.1816,343.6831,140.9423,213.3922,-3.5682,96.1229,-118.7885,110.1601,-130.6872,16.6991,-26.4390,19.0679,-78.0148,-81.2059,135.8807,136.4687,168.9773
25.0328,58.1800,-0.2455,194.3476,154.7904,158.4838,-2.5067,49.1840,-142.3326,23.0322,-45.9302,39.1308,-21.6110,17.9503,-82.0256,-83.2598,102.4425,180.9126,107.3306
66.6737,127.6945,58.8099,-75.1912,122.4730,45.0782,-19.9585,32.1818,-143.2334,-74.0905,58.1008,33.5162,-23.6879,1.7723,-79.6607,-64.6724,36.2049,194.9058,32.9429
50.7302,96.8565,110.7481,-200.2846,88.7386,-27.8493,-30.4089,60.1572,-120.4907,-53.0947,61.1930,-5.5532,-43.0068,11.3427,-62.0672,-6.8588,-8.8175,156.5074,14.4740
-37.2835,-47.0395,101.7439,-89.0609,75.9386,-21.3923,1.2827,94.7703,-52.0763,19.8291,-42.3996,-66.1632,-29.2596,42.6667,-48.8623,64.9029,-30.8314,84.2196,61.6396
-122.6030,-171.5413,-1.8862,84.9424,67.4509,36.9158,65.6610,99.9546,61.3481,-41.2683,-116.3493,-92.6219,18.9030,61.1689,-22.6253,74.5751,-73.0487,30.5888,109.0541
-108.8679,-115.8304,-145.1211,109.5572,38.7471,79.0534,107.1443,88.3480,130.8758,-225.5156,-74.1736,-41.8059,48.0587,36.4319,9.6006,-5.4767,-104.5850,26.2416,104.4857
-31.2472,30.7563,-183.0532,9.6024,4.2823,75.2669,107.1116,86.7386,92.4436,-298.8975,4.8560,19.2809,64.8639,-26.9307,16.5970,-98.7102,-89.2091,51.7555,70.9687
-14.8790,30.9171,-77.1522,-62.4486,9.1133,50.3159,93.7070,100.2572,27.7254,-168.1767,12.2452,-4.0006,88.0426,-65.0696,27.0063,-103.1389,-84.7749,73.8726,53.5629
-60.6641,-84.7469,51.6883,-66.0943,51.2479,25.5931,67.6256,107.6458,25.9754,-26.1014,-35.5283,-75.1960,71.5257,-32.9592,47.4199,-24.0743,-105.3959,83.5129,52.3776
-61.2435,-107.9077,126.8801,-6.6105,74.8752,33.6508,7.1519,88.5754,40.3947,-14.7466,-50.3177,-89.0799,2.2595,18.6204,7.8854,28.5152,-68.0084,79.2944,44.1306
1.1335,-33.4266,152.2064,112.8495,57.6952,95.2587,-68.3020,53.8627,8.2065,-40.8519,-4.8976,-30.3019,-57.7659,30.6028,-80.6262,-0.2009,29.5488,52.6365,27.5210
67.6242,51.3517,92.9546,168.0815,33.7542,132.5799,-110.0066,14.5949,-50.4321,-30.4928,62.9292,49.6442,-69.1485,15.5842,-123.5356,-54.8514,99.4943,27.7397,15.5920
118.8613,156.5835,-27.0212,80.3914,38.5893,87.8232,-96.4691,-40.5395,-127.6283,-49.7245,118.9833,116.4879,-36.8102,-2.1163,-122.5977,-93.0532,123.5848,60.9595,10.0421
134.2926,212.0261,-55.1057,23.2019,79.7862,61.8250,-48.1765,-92.0474,-232.4208,-131.1918,133.9643,134.5849,25.5854,-12.0839,-124.2452,-120.5122,129.1568,150.4372,2.4561
82.6303,111.8476,54.2093,114.7838,126.5313,117.8675,-7.6826,-93.9207,-294.6717,-231.4406,88.5838,80.7175,81.4081,6.3331,-99.5927,-116.3223,104.2063,211.9830,-8.0878
16.1263,-24.9925,139.6534,186.2252,123.3005,150.5382,-7.0355,-52.6830,-247.8069,-305.7937,39.7854,14.5839,84.9107,44.0870,-61.6646,-67.4946,55.0997,181.0594,-12.2979
10.3945,-41.1874,81.6749,126.8809,58.9619,114.5985,-35.9142,-7.0091,-148.0419,-300.7405,71.2097,21.2926,29.3240,66.7580,-80.5330,-18.3236,19.3537,71.4841,-10.9096
27.2321,-16.6355,-67.9571,55.4423,-12.7470,85.3034,-46.2764,38.6368,-56.8912,-192.0911,132.6405,77.0593,-42.2635,75.3117,-96.9885,9.2516,-11.3113,-62.5429,-13.2111
-16.0893,-66.4195,-210.8174,21.9251,-48.5504,52.1480,-0.3312,78.1886,78.4350,-39.9591,89.2871,75.4018,-64.9399,70.1391,6.2390,38.3169,-74.8294,-153.6570,-6.1142
-101.4730,-135.3461,-272.1262,-41.4654,-51.4444,-31.8985,83.0619,80.7914,281.3714,82.4635,-48.5279,-12.6737,-22.7925,23.3218,166.8342,57.5622,-161.4353,-151.8192,22.5317
-138.0231,-130.9985,-210.7572,-98.8263,-35.9359,-97.4105,134.9542,43.8417,415.5683,145.2604,-138.8846,-93.8842,20.0199,-42.6425,224.8232,44.0307,-196.9702,-86.0138,30.2040
-83.0346,-43.3323,-69.6300,-64.6694,-21.4737,-89.6925,101.2169,-14.8452,353.9968,149.6071,-128.8580,-84.6535,13.3084,-65.5164,149.8210,27.0695,-109.8560,-43.8450,-26.7238
14.7785,60.2176,57.9062,34.3339,-33.9132,-57.6734,-0.0275,-92.5481,175.7534,133.1672,-63.7146,-12.7454,-30.1313,-38.4143,19.9181,35.1336,51.2212,-68.0738,-107.8807
76.1520,88.8810,118.7672,100.9846,-69.9536,-33.8273,-93.9316,-163.9353,51.6751,122.8025,37.2010,46.6914,-99.5263,9.1191,-93.3608,54.8889,132.1823,-123.9604,-149.7911
76.9428,50.1485,109.0310,51.9515,-91.7523,-35.4301,-116.0548,-177.8879,24.7483,107.6102,131.2918,61.8730,-159.2364,50.0811,-132.3684,76.2229,79.5436,-152.3461,-152.3534
45.4305,26.1975,70.7023,-103.4022,-71.1150,-95.3252,-62.7510,-123.9700,30.8923,122.5321,119.6407,29.4631,-120.5560,39.1529,-75.5054,93.1543,-1.3406,-115.9605,-129.3715
-3.7006,5.9806,76.7241,-207.3536,-15.5673,-149.5606,19.6987,-36.5799,39.8693,201.4067,-5.0036,-44.7171,4.5542,-25.7997,16.7683,85.5497,-37.5207,-29.6290,-72.7421
-63.8167,-51.8364,116.1038,-133.2517,43.7175,-99.8083,93.6682,49.9470,61.1802,258.0410,-137.8929,-111.5897,83.3060,-68.8392,71.7134,56.8200,-49.4782,43.3387,-10.6844
-98.7855,-73.9333,89.8706,12.4783,77.1809,-4.1479,153.0470,107.4214,93.7311,225.2205,-219.7147,-116.5138,85.1515,-67.3670,101.9623,26.3740,-42.7466,64.6355,9.2148
-85.2416,-17.1242,11.3427,56.1974,75.6370,30.0533,179.8156,119.8258,135.0860,169.3883,-244.0024,-82.7380,88.1924,-84.2300,151.4082,-17.8444,-25.7903,65.4210,-4.9984
-52.5800,22.3423,5.9585,2.3054,49.8217,27.2628,145.2021,104.1828,184.2224,126.6056,-188.6998,-70.5383,89.2398,-122.4759,193.0289,-76.2687,-47.5385,75.2861,-16.1338
-43.5754,-16.5369,52.6408,-44.0859,20.1057,31.9783,81.9256,91.9161,236.0524,84.1369,-98.3535,-83.5845,56.8644,-123.8379,186.0439,-95.2514,-104.4743,64.1127,-11.4578
-72.5243,-90.2195,12.5234,-37.3867,2.8848,18.3185,64.8735,85.4945,289.5184,99.4566,-78.1169,-92.3388,39.0695,-90.0628,174.3807,-50.8951,-142.3608,7.9325,5.4338
-112.3579,-154.2281,-76.8586,20.0100,-5.1380,-0.5741,91.3832,52.9592,320.6601,166.4349,-118.2735,-89.8936,42.4623,-57.6116,202.6671,-0.1563,-147.8979,-52.6404,8.9988
-109.7084,-163.6389,-62.3432,100.8789,-15.0976,13.8083,83.3973,-13.8799,292.4996,175.4701,-124.2811,-74.8340,7.4286,-30.7284,215.3866,13.1684,-115.2337,-74.7745,-31.9572
-55.7855,-92.1745,25.0420,124.4302,-20.3322,19.0802,24.4126,-55.2103,226.4172,145.5677,-96.0056,-47.3073,-41.4831,-15.4763,163.5456,17.1023,-38.3779,-71.3646,-82.2580
-12.1214,-20.9365,43.4529,20.9044,-14.1999,-33.3958,-15.9609,-24.8617,166.1985,164.7163,-68.2875,-29.2606,-32.1397,-19.1191,96.0283,41.2859,4.5414,-66.8537,-77.1697
-15.7916,-36.5737,0.0664,-140.2782,-10.6567,-95.9513,-4.0849,21.1942,100.0579,177.8096,-10.5180,-31.4588,16.0172,-18.6905,53.8190,67.7833,-49.0240,-60.1347,-34.8755
-35.5306,-92.2146,-11.3427,-180.6150,-10.3073,-92.1780,17.6790,25.1250,36.5020,140.9341,46.3132,-38.0636,44.1933,-8.5347,21.6769,64.7868,-106.4866,-44.7521,-3.9331
-52.4870,-116.1553,15.8702,-48.1405,9.7249,-16.0232,26.2958,30.5667,34.2252,116.1797,4.8908,-52.3699,49.1658,-17.0225,15.8770,20.0274,-85.3189,-5.7625,37.0497
-77.4787,-118.2650,39.4734,79.3383,46.2189,62.2967,51.7774,66.3048,67.0482,86.4668,-91.4115,-83.5715,51.3193,-40.7254,59.0765,-42.8112,-62.9219,68.4751,93.9714
-87.8400,-107.3266,37.4974,58.2388,63.7679,71.6604,87.7261,71.4249,55.3278,27.5055,-105.4017,-94.1736,48.5801,-44.6522,96.6601,-69.5029,-89.6127,123.6056,100.1805
-54.3719,-64.1537,4.1774,-14.6351,45.0463,26.1258,71.2338,31.8563,35.8978,46.2496,-42.5599,-53.3021,23.0111,-27.9376,72.2041,-39.7056,-83.7090,83.9656,48.4623
-7.6829,-12.9037,-28.9084,-28.4755,4.7385,-14.8548,0.7837,9.7393,85.6911,163.2010,-4.8672,-7.5779,-25.1424,-20.6854,21.9204,2.7297,-26.5391,-16.3004,13.3081
1.0772,-1.8376,-27.6188,-40.0627,-36.7014,-51.7683,-35.5153,1.9823,170.2525,245.5934,-13.0037,-10.4912,-59.1336,-28.8394,17.4648,29.8899,-9.9105,-84.8617,0.3588
-24.4349,-29.7635,-21.4616,-66.9400,-71.7935,-100.4639,-6.1790,-45.6091,222.3668,243.5061,-36.1953,-35.3575,-57.7530,-29.0275,71.8355,59.5730,-41.5926,-121.4291,-45.2008
-32.8345,-39.6204,-28.2430,-23.8404,-102.4063,-114.3165,14.7001,-111.9950,211.7761,180.6481,-54.2643,-28.9280,-48.5761,-14.0404,118.5487,75.9728,-30.4285,-157.4892,-105.1325
4.4556,13.4706,0.2569,47.7323,-115.0221,-74.9317,-8.9397,-135.5992,111.0570,50.9121,-36.3743,7.2300,-44.7438,-2.7731,81.3530,48.8077,37.7438,-150.0557,-127.2612
49.4083,80.2786,59.4776,37.8838,-86.3011,-40.1770,-27.9638,-110.7209,-38.5686,-81.2561,13.4760,36.7759,-28.1392,7.3366,-13.5379,23.9585,85.7710,-87.1257,-122.9753
50.8304,65.7505,76.1257,0.0405,-35.1403,-30.0425,-26.7049,-71.7306,-128.1735,-131.5750,46.1232,43.2213,-4.0663,38.7638,-66.7860,49.2110,77.1869,-46.6345,-113.7044
26.0815,-9.6845,44.4399,0.6398,-11.7544,-20.3054,-35.2899,-46.3015,-147.0935,-132.6960,65.0485,38.5937,18.4397,69.0100,-65.0886,75.8162,43.2059,-53.7663,-86.1461
21.4529,-32.9303,3.7474,-42.1572,-18.3954,-31.9561,-35.6832,-37.8016,-168.3362,-115.9157,99.1878,39.6890,48.5614,58.2063,-72.0160,62.0752,13.3497,-51.3260,-45.6561
21.9464,-2.3436,-54.7063,-131.7217,-18.6507,-70.0487,1.4881,-24.2316,-185.6406,-60.4605,108.8495,43.8789,63.0576,34.9690,-83.3779,49.1178,-11.0266,-29.1825,-9.0251
-5.1978,-16.9400,-116.1657,-152.7135,-13.9570,-79.6856,35.9453,1.1755,-153.8583,-10.0023,78.8510,33.7866,36.4549,41.2226,-59.3004,54.7198,-42.7953,-23.7812,31.0288
-33.3207,-75.2039,-124.2189,-143.6893,-24.9032,-67.9235,27.8690,10.5897,-88.8945,9.3611,79.3657,8.6220,7.9182,45.5872,-25.3577,49.2088,-91.0774,-32.3328,61.9690
-35.7932,-99.0137,-97.9695,-197.0126,-35.4865,-94.2511,6.9724,-6.5038,-19.1742,52.4796,107.2212,-13.4264,11.2379,23.9926,-4.0477,45.9764,-131.4271,-37.8477,54.8371
-40.7629,-102.1501,-94.9545,-193.0613,-33.5930,-123.3168,-2.8603,-30.9024,37.4269,95.9307,71.2759,-24.3780,9.7412,23.7009,35.8736,70.4434,-119.3712,-55.2308,29.6502
-56.4989,-126.6617,-99.3715,-51.2484,-53.3131,-95.1064,-23.5176,-60.0074,61.4873,66.6750,-3.0883,-23.2278,-34.2287,61.9931,92.1659,93.5429,-65.5179,-103.0614,8.7486
-40.2161,-108.9475,-89.0271,29.9039,-110.5435,-67.0104,-51.2881,-95.6480,73.5453,4.6781,-0.2345,1.1592,-102.5123,83.6391,120.0169,88.6212,-32.3373,-165.1647,-41.3939
17.2130,0.1508,-83.1882,-69.3624,-145.6169,-96.0241,-55.5985,-112.1987,88.1410,-21.7310,66.8293,42.9007,-136.7078,58.8825,105.0208,69.4135,-27.7594,-184.1678,-117.2154
68.3136,106.1115,-60.0824,-172.3919,-98.3367,-121.7669,-48.3261,-98.7746,58.4716,-18.8553,100.4116,66.6227,-89.9797,19.1881,53.1746,48.4388,-3.2901,-119.2183,-145.5513
81.1141,114.9001,6.8815,-150.0499,-9.2431,-91.3443,-54.0490,-84.9745,-16.7742,-21.0626,100.1559,56.3750,-1.0977,-2.5610,-22.9449,26.3981,32.1913,-17.1649,-111.0490
60.8728,58.6844,68.9563,-69.1734,37.2274,-28.6924,-49.3113,-83.1764,-67.6739,-75.0689,104.3285,30.5221,49.6352,-5.5946,-70.8972,-4.3624,25.7431,51.8297,-65.5117
19.2358,-12.4286,97.8953,31.0814,45.2493,51.4034,-15.3855,-63.9550,-86.2083,-169.2415,82.0266,-2.0240,69.7050,-8.9900,-49.5487,-55.2928,-10.7535,97.6499,-18.7121
-21.2218,-79.2496,129.8093,132.1388,74.1223,131.9607,17.6680,-19.2544,-101.9516,-195.2600,28.3110,-37.1293,97.0955,-20.6911,-3.2627,-101.8148,-31.7168,150.1697,28.3457
-25.8837,-75.7480,149.2235,132.2986,116.9732,152.9873,35.0894,11.0738,-87.4832,-146.9664,9.1306,-46.1827,94.1554,-28.6762,-0.4750,-108.5288,-38.8336,190.6958,32.6712
4.9339,23.0830,115.4023,33.8752,137.6983,109.9110,52.5582,9.3909,-44.2749,-134.8719,26.6534,-21.9642,60.6021,-35.1039,-36.5409,-99.7714,-35.7002,215.5689,7.2409
24.6776,92.2946,71.9724,-3.5767,142.0628,77.4711,55.7695,10.5404,-25.1858,-130.5945,9.1009,-6.5255,62.8610,-47.8459,-51.5488,-101.7524,-6.1045,225.5093,16.1916
6.1864,42.6023,50.1766,45.1290,108.0599,66.9611,31.3366,20.3763,-12.4653,-62.8211,-34.3405,-15.4448,61.4046,-37.2779,-12.1458,-72.8393,14.5727,157.3162,31.8229
-18.7556,-23.7399,-1.9839,29.1405,-8.0378,9.0695,13.1280,-10.6783,30.7407,-33.3164,-22.8524,-10.3055,-20.1746,13.4146,46.3720,4.8403,-16.2023,-8.9295,-17.0329
-4.6681,-2.0391,-57.9555,-68.2339,-139.9532,-90.7998,-1.1116,-86.3013,42.7060,-89.6221,40.9539,21.8590,-102.9788,55.9236,54.5584,72.6463,-34.9885,-157.0780,-97.3632
55.0972,69.0767,1.6087,-86.7720,-166.1706,-125.5078,-67.9092,-139.6738,-31.4827,-120.4015,88.3364,54.7856,-104.3082,59.6524,-11.2739,88.4480,43.1006,-182.8817,-145.8028
124.7952,127.1513,153.7905,24.5939,-89.1553,-41.9953,-159.3101,-138.9457,-133.5714,-129.6293,111.7683,83.0295,-84.5275,55.0946,-97.3062,58.5737,161.9974,-113.1592,-176.3813
151.2095,140.5464,226.3708,129.3985,-5.6654,73.7984,-170.6511,-110.2383,-185.2665,-186.6207,137.0840,105.5942,-62.4657,52.2444,-130.8043,6.1555,191.4820,-31.0160,-197.3826
107.6095,69.9766,156.3534,119.6415,26.1652,104.1729,-97.5759,-70.4345,-179.6933,-217.9684,145.3150,96.0851,14.2419,42.1854,-97.4331,-12.8827,110.4024,-5.7933,-173.3725
28.2176,-55.4273,39.8189,42.0813,3.7063,44.8883,-28.3941,-31.5496,-161.3208,-184.8822,123.5552,58.2189,82.7950,55.6578,-51.5804,39.7041,8.9967,-56.5294,-114.4059
-26.1685,-128.9635,-40.9838,-2.0525,-32.0913,-7.2239,4.4111,-15.4519,-161.8564,-159.9353,99.4712,34.4523,61.3661,95.1976,-43.6152,97.7778,-42.0994,-107.3711,-59.3650
-34.5424,-114.0975,-65.3168,15.8435,-26.4951,5.4816,12.9884,-9.8073,-155.5737,-138.8613,77.4738,28.0627,15.9222,96.9657,-54.9388,75.0366,-40.8968,-72.6602,-1.6023
-20.0507,-64.8104,-30.4885,41.7336,5.5494,40.7170,-5.5056,14.6936,-114.9557,-103.6167,40.6509,7.6512,9.5681,46.4016,-48.8611,-1.0010,-17.2040,14.5939,64.7789
-9.6680,-21.0337,15.9376,13.9032,10.9359,36.0124,-24.0172,46.7343,-75.8262,-96.5299,8.8627,-19.6332,-0.3798,10.5692,-48.6788,-36.2109,-4.2957,62.7024,105.8505
-12.7502,-0.5483,2.7047,-50.9922,-0.2440,-8.6865,-12.3309,58.9028,-61.5222,-75.4523,6.3520,-23.0985,-30.9677,24.3801,-84.5829,3.0723,-11.8322,43.6176,107.7764
-16.6613,-8.9403,-50.6623,-53.8320,-8.1649,-34.7066,-11.6050,43.6242,-35.4690,-8.3185,15.5320,-2.8687,-62.2138,55.0227,-113.7277,56.3065,-8.5254,-14.5993,90.3120
-5.3720,-12.1457,-62.2915,47.8948,-40.5321,-1.0001,-49.8437,6.1858,8.7454,10.5525,11.5572,18.9802,-110.5035,65.2348,-81.9786,46.6203,25.4609,-68.8927,64.3340
7.4804,8.5163,-21.5681,138.8007,-80.0163,46.0580,-68.6970,-23.3954,39.1427,-9.1672,-11.0271,21.3323,-162.6885,48.1797,-17.0220,-5.3317,51.9642,-79.4745,37.3555
2.9359,19.4491,28.3451,104.9420,-64.6757,34.8009,-42.7080,-15.5734,44.4202,36.8424,-36.2345,-0.5875,-160.5834,28.3148,2.3654,-7.1799,42.2382,-49.1712,19.3136
6.6448,13.1862,81.0175,18.5888,-7.1842,-6.0779,-34.6498,-3.4700,-1.5963,81.8498,-16.3158,-12.6012,-100.9044,29.9362,-55.9594,41.3732,36.0036,-15.0482,-2.9947
48.8433,27.9127,128.1001,1.2870,29.2659,1.5086,-68.3903,-27.8812,-109.5066,44.7479,66.3650,21.7280,-32.7930,33.4171,-133.3854,47.4988,66.6859,4.0239,-44.6311
98.6903,73.5118,125.0057,27.0305,26.6932,37.8961,-88.9408,-51.5506,-190.4402,16.1233,131.2124,74.8943,8.1656,12.2141,-150.3754,0.9632,104.8636,3.9416,-82.7149
102.3652,104.9024,73.1246,32.9980,5.1634,36.4114,-66.7954,-34.2963,-177.4219,35.1753,100.6696,88.8914,12.5222,-6.6290,-113.7552,-16.6901,118.5887,-17.1834,-81.9100
49.5657,52.7096,25.5547,53.3295,0.4474,13.2557,-30.2767,-9.9592,-130.0397,63.9410,18.0835,53.7666,10.6675,10.4376,-78.4708,21.2945,100.9809,-38.0359,-39.2572
-27.0607,-87.4204,-4.1918,95.5830,34.4981,6.1618,-7.4082,-10.5088,-86.4477,134.0460,-36.7046,0.2177,37.8093,40.6617,-36.2711,68.5483,45.3711,-36.3196,16.5340
-71.9737,-180.8801,-20.0877,79.3393,55.1336,-10.3485,-6.5819,-21.7552,-22.7464,186.3313,-47.4331,-40.9136,53.5675,46.2548,21.9783,82.8166,-19.4025,-22.8006,49.1424
-46.0134,-114.8142,7.7338,-6.3270,1.5964,-49.6080,-32.9523,-36.7763,20.2108,101.0862,-20.0218,-47.7883,4.1587,27.4636,30.9064,56.0107,-30.9743,-20.3171,42.1155
11.3544,4.3293,53.4397,-64.8482,-84.0977,-77.4062,-76.3403,-55.4873,19.0604,-3.5096,21.5175,-27.5869,-68.1424,6.4347,-7.6515,19.9460,7.3934,-45.4324,20.0276
21.7866,29.0460,27.9465,-47.8014,-133.1301,-87.6160,-93.6261,-60.2150,53.7127,38.4456,7.0238,-17.8339,-100.5631,-6.0923,7.9266,11.2964,31.0895,-95.4888,24.6123
-11.2640,10.2045,-40.9817,-8.6635,-143.3838,-96.8073,-54.6674,-48.1695,119.2161,133.0309,-71.2718,-32.3317,-98.2053,-20.4939,60.6394,14.3458,30.0863,-120.8124,55.9269
-15.3601,37.9623,-18.3097,-0.5617,-115.1615,-85.7292,-5.4406,-34.4296,100.2446,169.0450,-106.5609,-42.2406,-70.0569,-48.1950,37.3568,-3.4136,41.3507,-75.9001,62.4214
25.6351,70.1261,84.5202,-7.8517,-46.7643,-35.6735,-8.9219,-21.9966,14.6702,174.8574,-49.9749,-23.9806,-16.2118,-73.7307,-13.6021,-34.1939,59.3839,-4.3565,10.1828
58.3623,71.2294,108.2223,14.2927,-5.4749,22.0003,-34.4323,-19.3595,-10.1780,120.7811,7.8963,12.3650,17.4826,-74.2837,30.6358,-62.3150,57.9048,14.4011,-63.1616
49.9598,70.5957,24.1023,63.1459,-41.8473,41.3069,-14.9074,-44.0767,29.9238,-13.5044,1.0548,36.5382,10.3548,-58.5443,112.4169,-81.1315,43.1143,-22.9249,-95.5010
19.4197,61.9932,-40.1250,82.0850,-86.9256,14.3919,29.0949,-77.9855,48.2855,-115.5795,-30.4652,27.5119,19.4046,-47.7068,116.9914,-73.1808,30.1782,-50.0240,-76.6974
1.4488,49.8773,-34.6903,40.4116,-55.9662,-21.5067,45.8584,-78.7706,21.5728,-137.2689,-45.2937,2.2711,62.3344,-42.6387,70.2640,-49.4998,23.1166,-7.2130,-36.9356
5.8948,75.3457,-17.5497,-22.1759,30.2933,-25.2916,49.6612,-44.5597,-18.1549,-133.6179,-47.0108,-10.2802,80.9938,-41.2980,27.7536,-54.7970,19.4837,102.6167,13.3316
4.5436,96.3612,-9.9424,-44.2482,96.7761,0.6795,62.2385,-11.2274,-31.7547,-105.6938,-50.6994,-22.5982,66.4007,-49.6518,-4.9147,-88.9019,6.0961,205.1868,78.7207
-25.9528,46.0344,0.2722,-8.2384,115.5323,26.9700,68.4157,10.4381,-2.0256,-57.9825,-78.8046,-55.4905,63.7884,-57.4065,3.3259,-105.6008,-18.5159,235.5679,136.5011
-63.5097,-21.1459,-5.2104,37.0104,113.6116,40.8094,72.4220,45.0701,33.1359,-36.2766,-131.0085,-82.9861,63.9758,-44.2635,54.7750,-85.9373,-34.5682,210.9219,155.9864
-80.3300,-36.5438,-35.3317,32.8755,104.6430,40.3108,89.3287,95.0312,42.2957,-30.0085,-160.3184,-81.1154,35.0816,-17.7530,77.7023,-50.1167,-43.1789,170.7803,148.0883
-80.0607,-22.8675,-70.2496,4.9697,69.9229,27.5058,102.4624,115.1618,57.7281,-32.7379,-146.7648,-67.6998,2.9327,-7.6840,56.9197,-31.9744,-54.8164,122.7198,140.6695
-63.5453,10.8371,-95.6707,19.7661,29.9493,20.6059,98.4026,70.7208,87.6997,-75.4275,-123.3491,-47.4421,-5.7641,-17.4654,45.5766,-47.9785,-43.8406,90.4877,118.9707
-22.8418,73.5734,-91.2051,50.5406,41.0979,27.0735,81.4231,-6.4850,77.8042,-123.5793,-90.7310,-9.7307,-2.5117,-21.5996,36.3804,-69.7558,-1.4316,108.0534,61.5043
15.8873,104.5494,-39.0955,38.1700,91.1684,38.9219,53.6125,-44.6425,16.0589,-152.6765,-30.9473,15.0051,27.2494,-19.8382,-5.3193,-77.6521,22.1658,158.4791,17.8709
13.0146,62.2849,24.6552,35.3698,120.2861,73.0471,41.8210,-5.4142,-41.2332,-203.5765,5.2767,-3.9610,98.8382,-35.4699,-53.2815,-99.0033,3.8242,200.7585,48.4247
-23.7131,1.1976,48.8646,93.4445,128.7398,127.7678,73.1707,75.0761,-56.1280,-217.1259,-30.9204,-37.2739,151.7436,-54.0437,-75.6371,-119.5385,-15.4971,212.3614,108.6867
-50.8565,-28.7040,38.5262,118.3421,138.3173,136.4009,105.8636,131.9481,-40.5671,-90.3826,-86.6723,-49.0729,133.6566,-47.0894,-75.8287,-83.9691,-14.5839,180.8760,120.4593
-47.1446,-28.9753,17.7128,35.4763,126.5225,74.3497,92.1236,155.9093,-24.0946,111.8943,-95.7996,-45.4552,90.9787,-40.0450,-64.6038,-24.0409,-12.3911,121.8608,108.8194
-32.4508,-19.3478,-17.9126,-69.5982,85.5887,6.9729,61.2859,171.5840,-16.0303,270.4690,-72.5742,-39.3415,67.9753,-55.0547,-60.0901,-0.6660,-18.3399,65.7521,127.9011
-37.7606,-39.8972,-68.5892,-116.2458,37.5335,-40.5808,47.9020,157.8226,6.2641,360.4054,-51.9447,-35.3665,42.7967,-51.0997,-59.2580,25.8315,-36.0926,0.2362,142.7404
-57.9100,-87.0112,-111.1297,-130.8255,-11.5888,-89.9002,39.9456,107.1673,45.8315,369.0513,-41.2309,-37.5057,19.2722,-21.3040,-31.4760,75.3497,-60.9259,-76.6680,118.9790
-47.5785,-65.2707,-119.7148,-124.3534,-44.3380,-99.6596,30.0046,86.8977,66.4810,315.9020,-42.4889,-29.8321,18.9034,-27.7511,-8.2889,66.4559,-48.6904,-102.3091,97.5176
14.9023,64.1011,-85.8124,-75.0742,-41.3911,-46.7743,7.8446,103.8265,69.1752,286.7768,-42.7033,7.3962,-1.0743,-72.9029,-48.0884,-7.5725,28.8886,-66.8743,85.8850
93.1667,200.8981,-33.9742,-20.6317,-36.5313,-6.9037,-46.1718,69.5076,89.6795,281.6177,-17.2161,57.2726,-58.9676,-98.1438,-95.5594,-59.0830,120.0011,-46.4437,35.0894
148.0813,273.8579,9.7877,-5.8083,-48.1924,-7.0122,-96.5708,-5.6574,101.0570,231.5869,22.1992,90.7255,-79.6855,-108.1089,-79.6377,-83.5992,167.8439,-47.0221,-44.1217
178.7363,317.8436,54.1144,-8.6735,-37.6322,5.3809,-97.5325,-28.9100,58.4860,164.2020,41.6108,106.7544,-42.5749,-128.6237,-64.0278,-113.8001,190.0479,-16.7623,-97.6377
193.8616,354.1819,82.3558,-6.0497,-15.3710,10.6207,-84.9648,-26.3041,9.2854,139.7965,36.6197,118.4713,-31.7824,-124.5346,-95.9035,-106.4415,220.1092,4.2800,-123.4254
197.1761,370.5135,44.9986,-7.5021,-32.4593,-27.8997,-98.2561,-52.5899,8.2162,155.0501,21.2056,133.7108,-70.7411,-90.5182,-105.5591,-59.3920,250.3132,-37.8217,-135.1029
197.3714,375.0901,-19.1347,-8.1173,-69.0225,-50.5510,-108.3573,-51.4967,8.4689,180.0212,9.2391,149.7345,-93.1321,-78.0381,-86.5199,-44.1699,265.0597,-89.0960,-121.3525
193.8236,362.6312,-22.8079,-1.5199,-89.5327,-34.9403,-99.8104,-24.7823,-38.8012,154.3121,19.5173,152.1148,-77.5711,-81.5264,-103.8448,-55.8259,261.2137,-101.5102,-100.5483
186.0679,336.3416,4.9634,7.1156,-104.6349,-35.1146,-89.3199,-59.3909,-101.8671,73.5060,44.3879,146.7255,-53.4033,-70.4766,-123.8145,-54.2077,251.1908,-98.2191,-110.1073
202.3622,359.3964,10.3417,38.0799,-96.3737,-21.0725,-76.2681,-104.9687,-155.3234,76.0980,48.8154,165.5493,-31.3102,-84.1432,-100.9365,-83.1108,275.0395,-74.4847,-139.5447
246.7323,428.0529,43.2273,83.2460,-53.8257,44.3824,-77.3391,-67.4906,-201.5785,192.9594,39.8663,197.4086,-22.7552,-132.2861,-89.5744,-148.4210,329.8554,-26.2802,-153.5834
249.4069,408.2094,86.4051,59.6027,-45.0434,58.2296,-103.6206,-27.6339,-200.1716,236.9536,56.1607,185.8001,-42.8652,-133.7600,-87.1983,-149.6395,313.8708,-20.0983,-144.1284
171.3152,259.0787,26.1478,-43.2268,-89.7320,-24.1674,-94.7154,-60.8878,-128.4242,159.6102,84.7119,133.3779,-67.7819,-67.8708,-19.3377,-67.5345,178.8105,-77.8563,-127.4450
92.3254,125.8254,-82.9308,-100.2513,-115.5139,-72.3431,-36.0579,-89.6374,-60.6604,100.4003,96.6303,105.1088,-63.9349,-16.4883,68.3436,-7.9942,49.4323,-130.3307,-131.5027
86.8318,94.0885,-85.3299,-68.3825,-119.6962,-43.0139,-26.5073,-89.0245,-56.7164,49.8782,118.6990,114.4607,-37.7827,-12.0916,85.2081,-10.2915,30.2664,-154.3459,-167.2439
105.3559,85.9805,-25.5282,-47.0452,-145.2769,-37.3965,-76.8150,-117.9903,-76.5885,-59.2198,155.3847,114.5781,-13.6095,-9.9437,72.9832,-15.9561,47.8260,-171.8156,-194.7585
75.0191,40.0105,-13.8447,-41.7586,-134.5352,-47.6642,-65.5007,-140.7661,-91.1036,-128.7080,140.0067,84.2663,3.5277,7.8803,80.1101,-6.1286,23.7938,-139.9539,-168.4336
12.3261,-27.0266,1.8529,33.2049,-41.8037,8.0648,13.4193,-104.9294,-122.6676,-114.4605,65.1967,39.1852,24.9359,26.2028,60.1855,-5.3440,-4.9160,-35.7996,-101.0935
-28.3632,-91.5175,44.9649,107.8288,38.3830,70.3802,38.5221,-57.6764,-141.8682,-103.7983,22.0092,0.3324,49.2114,37.1796,22.9592,-10.6558,-18.8323,46.9154,-34.4445
-29.7985,-106.0769,17.0024,50.2153,27.8079,49.9640,2.2800,-21.7336,-98.1830,-87.6408,36.0353,-12.2438,50.1535,26.0539,40.2825,-19.6969,-45.2543,43.0718,16.3006
-16.9083,-46.2144,-72.0766,-58.5758,-18.6730,1.1589,0.5941,31.7164,-31.9491,-38.7303,27.1702,-5.0980,22.2030,-8.4166,83.7931,-44.2150,-63.5867,17.5087,60.6498
-33.9410,-16.4466,-121.4579,-56.5482,-31.5415,-0.7123,46.8444,72.6815,-9.7995,-36.3111,-26.5692,-12.5432,6.9213,-19.3253,75.0134,-54.7322,-61.8560,21.4116,106.8560
-83.2500,-96.0588,-131.8899,22.9830,-10.2081,21.8375,84.0542,67.6180,-28.8617,-65.9892,-52.9247,-33.1241,26.0668,19.4001,24.7000,-15.5624,-76.7666,18.2043,137.7226
-93.7011,-147.5580,-115.3222,47.2269,22.6015,28.4801,85.3392,49.8757,-64.3276,-25.1645,-27.6194,-29.5379,51.3234,45.4242,-23.1329,26.1606,-80.3710,8.8601,119.2530
-26.3660,-41.5054,-19.3901,2.6997,53.3903,21.3959,54.5902,39.6374,-94.6254,42.8877,-2.8105,-7.4832,68.5790,-1.5878,-62.5375,1.0864,-16.8390,50.7094,58.6174
42.9355,87.2180,111.4950,-25.9965,72.4216,23.8545,12.5248,28.6609,-82.3156,41.7461,-3.8522,-5.9059,76.1815,-67.9562,-76.1433,-58.3894,52.1222,119.5365,9.4882
37.5425,71.4768,148.3420,11.8174,69.3030,49.8045,-8.8473,30.3403,-30.7507,3.8203,-14.8865,-20.7305,44.7365,-62.6631,-43.2205,-68.2095,44.8079,121.3724,-0.5785
-12.5913,-19.2486,66.2445,65.6879,43.1804,65.8230,2.7907,43.3754,21.0417,-7.0644,-31.1588,-24.6217,-11.6517,-5.4413,2.2440,-26.0403,-2.7580,52.8316,16.8731
-47.9955,-55.0903,-54.2989,36.0944,18.6187,27.1644,36.0748,47.5711,80.3703,13.3370,-44.1199,-24.9905,-13.7064,10.9025,20.4954,4.2530,-46.3601,4.3052,51.9354
-57.8235,-45.5453,-120.8617,-72.7288,18.2222,-30.2680,65.8105,56.4453,144.5014,37.0939,-35.1727,-38.4664,43.4969,-28.3566,29.6045,-5.6871,-96.0123,17.5093,83.8964
-51.6901,-35.9767,-74.2594,-133.0009,25.8140,-37.0045,62.2326,81.6589,149.9788,26.9002,-29.8672,-60.1928,69.0136,-61.1848,56.6034,-34.6145,-118.1890,57.3895,88.3175
-51.0262,-37.2394,24.5237,-77.2976,21.1052,-1.4966,42.7216,97.0561,106.7703,5.9244,-73.3564,-85.2793,37.5433,-62.8739,87.4596,-56.0368,-86.9926,85.5036,89.8983
-81.9828,-76.7855,26.6821,28.7361,16.0048,33.4197,63.6657,90.0737,102.7282,37.9185,-131.2456,-101.3399,14.2592,-50.2770,97.0161,-55.9899,-70.9144,78.5392,117.1996
-108.4202,-127.3000,-80.1338,90.3831,21.1655,53.1570,103.0609,68.1084,117.9867,81.5032,-113.0094,-73.4391,22.1262,-22.7002,65.8377,-31.4852,-93.1270,32.1241,125.0876
-57.9998,-79.4302,-136.9592,37.0736,24.5591,23.5485,67.7205,26.0663,65.0157,57.1833,-7.4236,-1.6006,20.6180,14.4813,-20.2325,11.6436,-68.0592,-14.1271,67.9247
46.2106,67.9347,-49.7427,-114.6346,15.5288,-65.9224,-37.5686,-20.8785,-28.9336,14.0792,86.8636,48.2347,-12.3160,27.5219,-116.4736,51.2640,20.4073,-15.3476,-10.7417
100.3717,161.1000,101.5612,-184.0551,1.7816,-108.9862,-100.8750,-30.8755,-83.8173,22.0752,76.3525,33.7675,-53.9613,7.2293,-125.7773,48.9083,89.8098,18.3191,-48.6397
73.7012,122.6061,180.3522,-30.0278,4.9907,-24.4365,-79.2261,-8.0787,-88.0624,47.7956,-19.2399,1.3235,-63.1274,-11.7577,-44.4008,5.1403,117.3175,38.5580,-49.5189
32.4344,40.9021,123.7096,179.6099,23.8890,70.9591,-40.8647,-15.0437,-56.5748,49.2412,-76.4382,11.8965,-26.9742,2.6399,-1.6588,-5.8079,130.5103,4.1183,-55.0251
39.0190,21.2611,8.8872,172.9537,15.1573,30.2820,-54.4324,-80.5000,-24.2239,15.9775,0.4235,62.7686,4.1988,46.3152,-72.4545,59.9196,124.7906,-80.8801,-93.0674
105.1728,97.0537,-5.9826,-29.9786,-31.2602,-86.9038,-131.0293,-141.3204,-50.5011,-48.7416,151.8183,110.5131,-26.3365,76.5915,-175.9398,121.1849,120.0720,-137.5254,-148.0121
177.7817,208.9578,110.3932,-175.7940,-55.6684,-122.9491,-210.7730,-121.1983,-102.8099,-77.6937,217.0503,114.7439,-94.1930,52.2882,-202.6295,87.4139,145.2463,-92.8092,-160.2372
153.2460,207.0239,183.3642,-120.6482,-32.4036,-51.9406,-181.0210,-43.5793,-70.7904,-20.8767,120.3058,60.6806,-121.2570,0.3401,-113.4068,4.1694,134.4532,-4.5969,-99.8156
15.0310,41.4105,74.4555,52.7776,-3.0561,34.5278,-22.2748,5.2997,45.9812,36.6485,-46.5427,-11.6084,-76.7956,-13.4246,46.4178,-30.2949,33.5655,19.8674,-20.1388
-85.4646,-88.6839,-88.0498,157.4832,14.9804,69.3170,100.3052,1.2324,129.8380,1.6071,-117.0536,-33.0197,-11.3087,6.4206,125.3438,-20.9194,-55.2532,1.7918,18.0497
-30.9016,-13.3992,-76.6458,81.9844,24.9484,49.2827,49.0824,-15.1875,109.5138,-91.6907,-19.5807,-1.1166,6.5357,-0.2870,8.4878,-33.6377,-36.7056,28.6014,21.4676
65.7276,110.8122,90.9320,-83.7040,10.6588,8.2767,-62.4814,-7.0263,27.7882,-151.8629,115.4399,8.3915,-21.4691,-31.6939,-154.8959,-59.8791,2.9522,81.4242,21.2541
32.6156,47.7532,166.7975,-137.0187,-7.2848,-6.5922,-47.4151,45.5661,-1.7625,-114.3792,88.5719,-41.7823,-28.3096,-31.9391,-111.3830,-38.0079,-41.4052,76.0979,27.5685
-99.1928,-152.5750,35.4428,-14.0792,2.7017,17.9167,62.6119,111.0994,83.8507,9.4927,-82.9433,-93.2266,5.8189,7.9990,102.0089,29.7713,-117.8791,-5.1189,40.4434
-169.2723,-271.1166,-142.6391,129.6322,3.9024,34.1410,109.6351,103.4652,178.2429,110.2037,-173.9129,-80.7258,28.6064,51.7941,214.7039,89.2374,-131.3894,-111.8293,37.7656
-119.1851,-221.1342,-177.3947,119.0503,-17.3056,-3.6723,69.7960,14.8407,129.0248,97.9369,-87.2850,-16.8971,29.7276,77.5449,128.0729,126.0060,-81.2297,-170.6688,-23.8711
-13.6152,-70.0159,-51.2576,-26.0563,-1.7719,-64.6767,20.7044,-58.4547,-31.1490,6.2881,43.5439,38.8824,47.5958,74.8705,-12.2992,141.7604,-10.9521,-127.1149,-136.8687
72.1134,72.7857,123.5596,-114.7314,36.4689,-73.2008,-17.4079,-82.2049,-141.9744,-76.1801,95.3479,54.3172,53.7794,40.8848,-69.0404,103.0425,54.9034,-23.4816,-216.8671
87.5576,104.6036,198.1620,-12.4982,20.6182,-3.3230,-44.4995,-92.9865,-131.4703,-91.7957,64.4506,42.6239,-4.3119,11.9429,-30.8407,21.6182,90.2762,20.9680,-197.2286
28.9774,15.2996,101.7747,192.6067,-23.2021,91.4060,-31.7477,-73.6573,-51.8033,-65.2378,-7.5592,32.7373,-75.3733,31.4394,30.9385,-18.1985,78.9537,-30.6313,-106.1844
-21.0006,-52.7029,-43.9303,285.7563,-28.1753,135.0823,-5.6556,-16.3953,-2.0527,-95.3677,-42.4803,41.1760,-83.3884,70.1793,21.3174,-4.3286,55.3474,-78.1470,-20.5721
15.7809,28.5762,-51.6218,171.8236,-13.7151,102.7006,-19.8856,18.0614,-41.3851,-185.7776,10.8864,55.7613,-54.6008,54.8163,-75.1177,-19.6272,61.9473,-28.9089,18.2190
79.4732,165.0697,69.7354,-10.4837,1.0500,45.4485,-34.2319,23.2437,-110.5705,-213.5628,61.6173,42.9043,-36.0776,-10.6348,-150.7145,-71.0484,77.9793,83.0676,21.9181
63.7608,167.8994,144.0766,-43.9710,38.3678,39.4557,4.0076,41.6796,-118.8841,-177.2554,11.8452,0.6336,-16.8651,-37.7930,-121.6217,-83.2194,63.9123,154.7040,23.5053
3.5270,58.5974,88.9120,103.7242,74.7999,98.1665,27.8267,54.0697,-93.9269,-187.8134,-61.9582,-13.8718,-5.3905,8.8845,-55.2916,-57.2856,53.9751,141.7033,45.8098
11.6742,33.3004,-6.9122,243.2799,77.0253,150.7394,-31.4226,45.8404,-110.1329,-215.4263,-58.2253,36.9420,-31.7634,64.0372,-63.6973,-44.2489,111.5468,87.6329,72.8165
86.6587,136.8870,-21.3948,224.0960,60.4297,125.7859,-111.6388,37.1604,-169.9875,-198.7444,-9.9476,102.1511,-59.5056,76.9510,-146.8844,-25.1838,210.0703,43.0244,50.7231
137.0881,213.3641,75.3788,116.6266,33.4967,45.5281,-132.8984,-13.5330,-249.6585,-215.8905,37.3876,114.7542,-36.9156,67.6328,-219.4390,17.0589,255.9129,22.2879,-35.0541
126.9226,172.1978,194.4492,68.3482,6.1678,5.2593,-107.6062,-109.4296,-303.0895,-259.6985,82.6139,78.8689,6.5790,52.1804,-221.6131,24.5222,214.5301,34.8917,-104.1932
82.8865,75.6461,207.6255,105.0035,15.5226,45.6482,-77.9094,-125.2106,-249.0297,-192.2899,85.8809,41.3037,15.8167,30.1021,-150.8313,-14.2642,135.2659,60.2491,-85.4520
38.4093,-5.9768,81.2343,150.5163,36.2820,92.0579,-65.8051,-38.5541,-117.7909,-41.0730,43.6172,39.8919,-13.0975,35.0450,-51.9819,-15.7394,77.9162,18.4072,-33.5828
24.1558,-42.0452,-83.3594,146.5790,0.2904,70.1748,-76.9585,2.7368,-50.0869,42.9753,40.6083,80.5704,-50.9786,76.7441,-2.7777,42.0278,63.5668,-105.7146,-31.1107
37.6100,-20.3076,-150.0563,94.0277,-61.7160,18.7552,-76.5599,-29.4453,-57.5557,45.0207,86.0392,110.7491,-59.6892,83.1422,-34.5933,66.2014,61.6502,-181.5676,-47.3738
32.3563,8.0192,-84.7030,24.6785,-71.0824,7.3447,-27.1432,-21.1765,-38.5959,31.7351,93.8263,70.8553,-22.0148,18.2290,-73.7090,14.2520,19.9322,-121.6275,-22.6439
-4.3464,-20.2869,7.2683,-29.7357,-42.5479,21.0318,33.4040,27.0487,-8.0701,26.7436,59.0702,-0.3763,15.5768,-34.8222,-43.1175,-32.4228,-52.2584,-28.1998,9.2914
-23.1494,-51.1901,12.4849,-47.5986,-32.2634,16.3504,46.4100,36.0694,-36.4322,20.5016,37.8963,-13.6879,-0.8585,-12.9969,17.7541,-17.5273,-74.4204,-14.2029,1.3788
3.3993,8.6830,-44.5566,-28.4075,-45.4898,0.3046,23.2976,15.1308,-82.3879,-35.9072,24.0761,30.0998,-47.5700,29.0666,24.3373,6.9888,-12.5166,-41.3793,-19.2163
40.7097,110.8163,-72.3459,-1.4934,-62.7341,-14.9566,-0.6949,-7.2650,-89.5375,-139.0058,1.8457,62.5795,-71.8076,39.1866,-18.8474,4.9073,67.8147,-46.1307,-22.3975
48.4094,134.0819,-62.2787,6.5114,-61.7972,-39.7296,-18.3746,-37.4065,-76.7583,-165.6477,-15.0349,58.7449,-61.8617,39.9930,-39.7083,16.4688,99.8167,-42.0115,-22.2090
29.3516,85.2596,-43.6852,-5.9700,-24.0519,-62.7557,-18.5921,-50.7549,-54.7721,-87.8992,-34.8591,34.8038,-22.1482,38.8526,-12.4213,46.1963,85.7713,-29.5610,-31.3043
20.0199,63.2987,3.5627,-40.1401,28.3654,-66.1960,-4.7390,-40.3157,-20.3675,-44.2651,-44.5970,9.1014,23.7829,17.9675,15.3187,49.1139,57.9763,15.4791,-54.6203
37.4592,78.0257,68.2314,-67.9383,48.9588,-59.2803,-21.5130,-57.9214,-4.5318,-82.7193,-4.8037,6.1484,15.0178,15.1020,3.0687,42.0865,44.2659,46.9080,-94.6172
54.7035,67.8435,77.7674,-12.8992,25.1021,-36.4859,-73.7722,-106.7483,-26.7764,-135.2599,49.9135,34.7804,-55.9502,64.3295,-26.9007,58.6177,61.8909,8.3247,-120.4047
56.0070,42.5222,32.3719,109.4026,-11.0552,25.2341,-96.4950,-122.1754,-77.8805,-183.3665,71.4553,69.3575,-97.4594,98.7959,-46.7675,41.8303,89.4087,-37.5989,-96.9171
51.8202,35.3466,12.9783,149.3020,-9.8173,94.6057,-55.0088,-81.2019,-137.4013,-195.5043,90.7266,74.7528,-46.9349,53.9972,-63.9909,-42.0381,68.8235,5.7394,-37.2661
12.6562,-14.6619,30.0352,69.1817,46.7677,108.2555,22.4653,-17.0602,-140.7737,-122.6096,88.8380,23.6851,44.6697,-8.8072,-57.8949,-93.5459,-22.0567,105.5797,30.5751
-82.2150,-138.6868,27.3155,19.9418,115.8791,74.5695,94.0542,38.3725,-40.1291,-31.4785,-4.0577,-68.5278,94.4128,-8.1396,-3.2703,-43.4113,-120.0937,158.8482,92.7116
-143.9575,-213.2879,10.5084,58.6381,147.9722,56.6693,107.4443,65.3548,84.6092,17.4696,-100.0182,-120.6286,74.6890,24.5847,28.3909,22.7763,-142.8257,145.9649,123.6242
-105.8442,-168.5932,14.1527,63.6811,132.7054,52.4979,46.8389,57.4293,133.3622,83.6932,-70.3831,-94.0994,25.9413,22.9829,-9.5437,28.8664,-103.4430,105.5185,109.5594
-67.0900,-135.6260,2.9932,-26.7968,78.1035,-8.2200,1.3658,23.8296,140.2228,177.7377,-11.3300,-69.7510,13.2201,1.1290,1.6935,35.4374,-97.9861,42.3995,74.1764
-106.9089,-189.9073,-49.2981,-143.6183,20.9353,-126.9216,41.5599,-20.3910,162.6196,240.2449,-45.4822,-98.8621,39.8663,5.3601,114.7045,101.1538,-151.8301,-29.2945,33.4575
-135.3292,-212.2738,-70.5236,-201.8022,12.8676,-192.8064,85.7510,-47.9209,158.0581,261.3877,-83.7644,-115.8002,44.5736,25.8245,166.6063,157.2315,-174.7986,-50.2870,-2.6911
-94.7972,-150.9101,-6.9835,-142.2225,27.7211,-135.1823,52.6679,-37.5003,101.0157,219.3154,-63.1925,-92.4743,12.8547,23.4700,98.2854,119.7951,-116.4689,-13.6498,-0.2520
-60.6797,-102.2105,65.5440,6.7179,1.0657,-31.4171,8.0670,-13.3919,52.0640,111.3523,-72.4872,-78.8518,-9.3577,0.0105,61.3381,32.6926,-40.5670,8.0540,32.8540
-54.5046,-75.5570,55.0366,103.5966,-33.1160,18.1639,19.7110,-6.6862,41.1410,59.0275,-104.8292,-63.9926,-13.6457,-15.5225,75.9132,-10.9063,-2.0740,-10.3483,35.9851
-26.6336,-13.0755,-7.6953,85.0592,-13.8191,28.6787,49.1315,-0.3255,37.7437,107.4475,-70.4895,-15.4898,-16.0431,-24.9539,32.0737,-20.4191,8.3792,-12.5028,12.7156
-4.2364,14.5799,-23.5049,51.3484,20.7394,53.3351,56.6463,21.1866,27.5789,123.0247,-12.7318,9.8512,4.2709,-42.0919,-15.7680,-47.1840,-7.5176,19.9964,14.2627
-18.6617,-49.1692,38.4589,49.9308,27.8321,68.8397,36.7215,28.5265,0.3448,61.8531,7.4565,-18.3173,42.1256,-40.4036,4.7226,-53.1449,-38.6333,39.4810,17.7724
-6.1484,-66.2612,108.7729,7.5290,25.7353,31.5448,-20.8866,11.0462,-61.0163,3.0618,32.0943,-26.6924,37.8509,-3.3045,-7.4057,-3.9043,-21.0320,30.0365,-10.2944
49.3101,53.6332,104.6024,-66.1697,3.4193,-29.2796,-72.8590,9.7576,-113.6518,-48.4024,35.8724,8.0430,-16.7063,19.0074,-58.8408,25.0119,58.3128,18.6068,-19.5811
53.9619,144.6633,18.9668,-69.1473,-48.8805,-50.6327,-41.1739,50.4226,-93.1586,-80.6555,-50.3194,18.9827,-56.2495,1.4551,-14.4027,-1.5198,100.7360,0.1198,20.0461
-19.6768,62.2287,-92.7849,-18.8106,-68.6248,-31.9079,46.9952,105.2761,-22.3287,-34.1659,-133.7643,-5.1526,-46.5666,3.2242,71.9696,5.6789,39.7902,-45.0807,61.0546
-70.1368,-45.8502,-171.4793,-43.7196,-32.2838,-32.3671,88.5825,133.8791,28.2580,20.0199,-97.0052,-10.2174,-14.7096,37.5395,45.1270,64.6855,-48.1412,-79.2112,71.3681
-15.4799,37.3295,-157.4147,-146.3999,-5.0664,-64.7252,56.8335,118.9855,26.9515,-12.1519,-13.3482,21.6859,3.6668,23.4816,-37.3900,62.7626,-37.3717,-49.0833,40.1873
113.4417,273.6266,-24.8511,-155.5136,-12.8899,-57.4171,-7.8324,68.0876,-32.9058,-51.5007,6.4850,75.2333,-9.6606,-54.6793,-72.4759,-31.3455,109.9047,16.6140,-46.3296
226.7536,458.9583,132.4098,17.2949,-20.9685,24.7966,-80.1851,11.9712,-116.5302,-26.2008,-21.8311,135.0876,-45.2927,-110.9200,-112.4817,-118.1737,310.9948,41.0847,-136.2287
269.3466,505.1339,172.8941,205.6687,-23.5315,102.7102,-139.1092,-17.0320,-129.2673,-3.3852,-41.0584,176.1499,-72.3810,-110.7461,-161.6246,-142.9406,428.7773,10.3040,-159.0806
256.4128,459.6402,84.3046,196.9082,-44.1624,92.6573,-161.6815,-31.9504,-49.3317,-28.2135,-2.9986,187.4446,-78.7668,-92.4614,-128.4980,-133.1494,383.5309,-37.8518,-149.7260
220.5334,360.7283,-35.2296,16.1883,-96.9450,9.5154,-150.8246,-74.4818,17.9979,-76.9640,113.8166,183.2423,-77.9867,-65.7559,-45.9823,-101.8235,222.2847,-96.2766,-162.7150
168.6589,241.6859,-102.9948,-120.4824,-161.3387,-70.6747,-121.3957,-127.8286,19.5028,-114.8934,206.0213,160.9585,-78.3072,-28.8536,-19.2921,-51.3109,83.9133,-158.1243,-160.8776
114.2678,172.6898,-62.8595,-53.9135,-165.8138,-69.1707,-85.9890,-124.0818,12.5614,-95.6542,129.2405,109.4267,-77.7359,-13.4580,-31.6669,-19.6529,81.1619,-159.9132,-121.2315
75.0889,154.7249,70.7646,173.3620,-74.0156,36.3186,-51.9853,-60.8452,13.7856,-42.3149,-63.9479,49.6750,-61.9801,-25.8107,-17.8891,-34.9820,173.9867,-69.4515,-88.0240
28.1974,80.1136,150.5154,338.4745,32.4519,147.0516,-9.1496,-7.5517,-2.6274,-44.1417,-163.2021,6.2799,-6.6377,-25.4255,9.7253,-57.0281,186.1376,27.7353,-63.6998
-47.2205,-99.7866,67.5433,245.4122,59.5753,132.0696,36.0714,5.0539,-4.1855,-85.5120,-72.4847,-23.7425,66.3509,13.4471,19.1677,-17.9245,20.3639,28.5568,-18.9029
-115.6262,-281.5233,-88.8754,-32.8312,16.1121,3.3337,48.0369,-1.8307,32.0569,-94.8746,99.2278,-43.9054,85.2142,77.2597,25.2799,79.9651,-206.2853,-53.2247,22.5580
-147.8853,-353.3469,-179.6323,-227.1282,-28.1750,-103.4220,41.6666,-10.0648,64.7172,-97.0992,176.6471,-57.6317,46.3405,124.6953,52.2163,150.6592,-323.0224,-108.7900,42.0467
-164.2035,-332.1710,-143.6236,-173.3598,-3.8192,-87.3912,65.6318,2.2596,71.3205,-97.7532,87.2806,-88.3479,33.5665,114.6208,71.5669,133.1645,-291.5918,-52.2374,73.9806
-169.8824,-302.1156,28.1370,62.4437,100.3896,40.2067,80.8239,40.0041,49.3797,-42.2810,-63.3289,-136.0078,61.5336,69.3110,23.3779,67.2492,-175.4883,85.3442,121.8385
-144.1012,-293.0909,205.2276,251.4058,178.9697,157.1035,25.6671,52.2873,-15.9999,13.6427,-99.3818,-147.2784,48.1756,62.9709,-66.1423,32.1531,-72.2084,166.7584,136.2452
-108.9314,-293.9573,161.5847,180.3715,131.6917,132.5533,-36.5228,20.2543,-81.0493,-15.7231,18.8710,-95.6689,-14.7833,110.9415,-80.3906,56.1994,-88.6876,103.3774,107.7928
-120.4951,-332.0692,-77.1816,-68.9502,31.9367,12.4627,-16.3076,12.6492,-73.9044,-75.2781,153.1387,-45.4583,-36.5658,155.1573,3.6354,103.8801,-230.3625,-17.6596,96.7686
-185.8745,-421.5099,-219.5424,-171.3896,14.2324,-31.5219,59.4180,50.0229,-18.4293,-99.3420,159.1902,-67.1470,8.8719,162.1632,74.7921,123.3217,-355.6195,-44.4133,140.2304
-243.3220,-472.4788,-137.9337,-46.3094,76.9765,19.2115,123.6411,51.3433,18.5579,-105.3380,44.8052,-136.3662,57.9639,141.0364,74.2985,105.1897,-352.6639,43.6321,178.5082
-235.2739,-406.5325,33.0889,44.6777,130.1065,30.2116,142.9045,-4.5458,28.7519,-90.7492,-60.4759,-184.6253,80.0442,98.3078,42.3451,84.9873,-266.7762,142.6141,147.3064
-186.5616,-315.0754,156.6703,-20.7695,130.1679,-20.5984,104.2249,-25.3923,23.7685,-38.0265,-71.7167,-198.8167,90.4198,51.8086,7.7681,81.7112,-204.3480,171.1851,107.6122
-180.1443,-342.0204,149.3370,-88.6464,103.8205,-35.1360,66.8734,39.5841,20.7043,54.9203,-35.8664,-200.5528,94.2105,37.0262,0.5091,86.9223,-226.1038,127.2382,142.6794
-236.3347,-465.0201,-3.3850,-63.9471,104.5233,6.4803,118.9457,118.3594,48.1561,190.1544,-30.0868,-185.0342,104.6598,58.0313,65.1584,105.3740,-310.7072,53.1355,181.4795
-269.7595,-519.7561,-121.2501,5.1533,136.3340,42.8505,203.7838,111.8019,73.3480,274.6342,-54.6648,-150.2547,137.3695,73.8691,150.5444,125.5058,-344.0665,10.4262,118.7952
-213.0509,-406.2466,-17.8453,61.2780,141.4272,42.6778,189.2047,19.5050,48.3850,191.4292,-76.2521,-130.2624,155.9509,45.4895,149.6279,97.7649,-246.5267,45.4164,15.1298
-122.7704,-221.7005,191.4071,58.9292,109.5837,22.5434,98.6152,-46.4301,27.3136,54.1315,-89.6469,-144.7165,116.3758,-11.8787,81.5013,27.8253,-117.6531,126.9395,-13.4410
-94.0327,-159.4848,261.9479,32.5439,89.9698,28.0483,41.3284,-5.0103,64.9613,50.9645,-95.0027,-162.3676,47.1090,-34.4337,54.2707,-7.9950,-92.0178,154.2318,30.2520
-119.8315,-241.1708,160.1493,90.0691,70.7349,81.7660,15.0825,72.3125,113.4178,108.1359,-81.3896,-144.7271,2.6941,-1.6770,82.6655,0.0649,-127.8596,78.0892,85.2630
-123.7688,-283.1278,18.0229,177.7030,12.0530,117.0899,-16.7354,76.7364,140.6869,87.0628,-50.4263,-97.5674,-12.2434,23.3916,101.0856,-8.2627,-126.0292,-25.0480,118.6828
-100.7460,-217.3390,-59.8008,121.7271,-34.0209,61.3509,-13.9784,32.0560,157.1370,72.3241,-29.2750,-69.2907,-18.1467,10.1999,90.0328,-14.8851,-113.0555,-55.7206,117.5495
-108.6194,-186.0234,-31.8124,-26.2901,1.8626,-29.5669,30.9383,30.7943,125.1077,153.8832,-53.4733,-95.6455,-17.9145,13.0093,71.4151,41.1684,-130.5996,-9.2822,104.9524
-135.1145,-225.1934,78.9786,-63.0064,86.4645,-47.5478,45.6665,80.2494,46.6917,238.6775,-114.6083,-145.2822,-6.9920,40.2456,44.7071,106.9039,-121.7712,61.5373,114.6780
-116.4740,-208.5557,173.1125,1.4089,134.3306,1.7655,10.2215,115.7499,12.9123,243.9958,-140.9322,-154.0708,6.1095,31.6977,9.3454,91.9253,-65.8955,109.9595,122.4907
-72.4454,-144.4853,138.8878,5.7556,103.5800,25.5453,-10.7801,102.6529,39.4276,209.3318,-83.4643,-109.1872,0.0986,2.9329,1.5621,39.8451,-52.0914,87.8651,97.4368
-67.2520,-147.6744,-29.9316,-74.0019,31.3838,-9.0353,14.0571,64.8891,55.1743,180.4395,11.2702,-50.2166,-23.7229,20.2834,46.9250,39.4771,-121.2173,-1.9267,67.1985
-81.6748,-175.1429,-180.7747,-136.0474,0.8746,-44.5484,44.9498,43.6352,50.8720,140.9359,55.0437,-14.3855,-18.8689,49.7515,108.8136,57.3358,-178.9663,-53.7216,55.7074
-72.6448,-131.3274,-153.8391,-106.9296,32.1939,-34.1993,53.5805,47.2804,49.7163,70.9279,0.9201,-24.1037,34.0853,22.7441,133.5361,26.5991,-139.4263,3.0662,53.6092
-68.4331,-81.2619,-2.1547,-2.9787,60.9559,-3.6835,56.7387,49.9117,40.9507,30.6911,-111.4813,-71.8345,69.9253,-18.6385,111.3677,-3.8583,-50.8896,76.6261,56.6461
-82.3861,-104.8430,85.7830,72.3866,58.8554,6.6180,53.5788,37.8173,32.2494,93.3837,-154.0820,-96.2707,38.2808,-2.9120,59.8304,35.0004,-13.1403,56.2366,45.1376
-61.5110,-133.3598,45.3350,31.3987,45.7481,-3.0502,14.3956,17.5545,26.2178,171.7099,-41.3331,-47.4211,-14.1220,42.9680,2.6424,89.0808,-39.4180,-24.7468,-0.6629
2.6793,-79.2427,-51.1229,-71.9535,5.6960,-20.2681,-39.3796,-15.0103,-5.6312,111.1230,121.7372,36.2711,-38.2624,55.8776,-24.5985,69.6284,-63.0600,-74.1165,-38.8007
51.2197,31.3827,-115.1309,-92.5105,-49.7636,-25.1242,-46.5765,-56.9397,-39.1064,-41.2150,161.1356,83.4057,-47.8109,31.6686,-16.7969,-4.1233,-32.5688,-63.6778,-37.4543
62.3942,106.3192,-59.0290,29.6415,-40.9270,22.9400,-21.3573,-76.2272,-35.0080,-117.6902,75.5973,76.6207,-44.3249,1.8114,-19.0927,-56.1559,43.9668,-11.5751,-44.4923
58.0681,86.4971,109.9225,178.4593,26.5276,100.0757,-31.2931,-64.0621,-27.7141,-97.9674,3.0611,38.7437,-7.7795,-15.2423,-45.1751,-61.3292,106.0235,41.1619,-79.0374
40.4777,3.2535,214.1633,180.9977,41.5481,97.3568,-66.4515,-59.1170,-25.9611,-58.2970,10.4720,-3.4951,32.0971,-15.2269,-51.5954,-29.4517,88.6756,34.5576,-90.9418
10.6618,-57.0007,141.4662,38.5903,-13.4849,-5.2818,-66.3819,-73.7391,16.4832,-9.9400,47.4510,-22.4632,28.7635,1.1562,-28.2258,30.3362,11.0712,-36.7438,-74.2078
-6.2148,-45.4887,16.4594,-75.9019,-43.8991,-91.7755,-32.7241,-70.5743,70.3050,53.6383,43.8201,-12.0708,-5.1340,21.0644,-13.0271,85.1925,-28.5130,-92.8363,-64.7158
-0.8595,19.2063,-27.8888,-83.8969,-19.4059,-106.7368,-0.7903,-45.9289,82.3942,97.5774,-14.4937,0.3702,-26.0002,21.6607,-16.6630,97.3478,7.1859,-76.2600,-59.0298
4.2346,69.0029,-12.8040,-54.8892,10.1411,-96.8638,21.3333,-36.4472,75.3675,95.5780,-70.7749,-4.3382,-18.4016,6.5715,-23.3023,80.9881,47.4826,-28.5067,-48.7073
-6.6840,31.5844,17.4001,-17.2897,28.3652,-65.9750,22.6098,-29.8521,43.5548,69.6811,-66.5996,-12.9927,2.0643,14.1236,-31.4653,77.6032,41.2583,-11.7365,-43.8616
-18.9838,-58.1838,42.4907,27.6051,45.9472,-9.2202,-4.5264,2.6461,-32.3512,62.9205,-20.7425,-9.1750,12.3178,46.7887,-34.4832,85.1664,17.6285,-21.4124,-34.6839
-9.5204,-66.9490,23.0619,20.6818,37.6177,7.0660,-22.4158,8.2953,-60.9012,52.7670,12.9682,5.7996,7.3808,48.1465,-10.7305,62.9402,5.9711,-22.7044,-26.9919
19.7191,35.7152,-28.3196,-25.8122,-18.0125,-28.5940,-0.0034,-53.9152,2.6350,-31.2431,18.7163,23.9309,0.0323,-0.7286,37.6490,-1.5913,7.1255,-15.0899,-51.1759
46.8076,141.5376,-50.5185,-35.3833,-78.5859,-42.3508,32.0441,-96.6967,42.2152,-135.3162,3.4204,39.0047,-9.3031,-48.3934,73.2507,-67.0334,26.4835,-11.6108,-79.6551
59.6124,187.4403,-43.3467,-47.6961,-90.0315,-36.0421,36.0410,-51.6620,20.1972,-127.2767,-19.8816,40.9507,-24.4281,-65.8421,64.4363,-88.1840,50.0387,-1.9522,-55.9306
51.2613,175.8003,-35.7254,-100.7736,-61.8861,-54.1698,22.9076,5.6801,24.0646,-49.5154,-32.3382,19.3736,-24.0493,-67.9638,30.9278,-69.8231,41.7421,20.3823,0.7670
16.1702,98.6787,-14.8520,-75.1673,-29.0212,-43.6248,23.4288,18.7036,32.3378,-35.3886,-47.7477,-13.6228,6.3807,-54.6905,23.0366,-48.5560,15.7432,38.1640,33.5036
-15.7491,17.1667,12.8597,60.2566,1.5342,31.3269,41.5317,30.3331,-19.3522,-68.2989,-80.1419,-21.2007,39.0735,-28.3239,38.7098,-43.2955,23.8018,40.4709,27.2550
-2.5804,28.2856,6.2561,126.7387,10.0922,77.5385,49.8009,31.4260,-59.6919,-101.1446,-69.6164,11.4177,41.6976,-15.1826,26.5657,-48.5709,50.5431,26.9597,-8.3593
33.8987,80.6537,-28.8698,46.9059,-27.9890,37.6235,28.1933,-20.9262,-33.5772,-154.3779,20.2035,47.8115,17.8482,-14.1316,-8.7046,-48.6874,34.3187,-6.1356,-49.8700
42.0978,72.4969,-42.5669,-47.9815,-65.9066,-18.8708,-4.8249,-59.8193,1.5055,-156.8188,86.7818,47.5944,-7.3839,-7.8659,-12.2404,-31.6066,-7.4299,-37.7475,-57.9398
31.0904,58.2211,-18.7179,-67.9017,-50.0965,-35.1647,-20.3453,-20.1424,32.3666,-51.2527,38.8109,19.1437,-18.8444,-17.4405,16.0323,-17.5795,-2.9554,-29.3866,-28.9475
31.1716,98.2933,-2.8881,-48.0822,-27.8446,-28.1031,-14.3815,29.3799,80.0418,24.3456,-44.4135,-0.3758,-22.6639,-49.6977,43.0572,-36.0726,33.1114,0.7516,-0.1416
21.7753,98.0015,-48.4493,-39.8279,-47.8598,-24.2261,5.8038,29.3172,86.7466,-14.6529,-50.5740,3.5125,-20.3712,-52.7008,62.5447,-52.9159,20.3002,-6.6212,15.6083
-14.3268,5.0023,-120.4849,-50.6165,-54.8189,-28.2517,32.1259,18.9612,12.6539,-62.9910,2.3820,11.9443,9.4750,-5.7073,40.2225,-16.9559,-37.0676,-36.9992,38.5941
-39.4052,-70.3277,-105.9780,-21.3112,0.6116,-4.9467,45.4795,24.8324,-87.9362,-86.6828,36.4427,6.9265,62.3896,34.6102,-60.8600,22.0257,-49.9351,-7.5499,73.0698
-19.8509,-44.8946,19.6004,83.0550,75.0685,74.6480,29.3459,37.5265,-157.4405,-129.8977,26.2460,-0.9063,84.7661,28.8095,-163.9687,-7.8814,13.1715,85.9344,88.1779
27.3975,32.3441,126.7949,143.0282,103.0176,127.9010,-14.8145,53.1933,-169.3801,-140.3109,5.3887,8.8559,53.8068,8.8993,-167.0539,-47.6716,86.9522,131.9350,52.6225
63.5811,82.6184,99.1655,53.3961,56.9131,62.1116,-64.8983,42.1382,-121.5750,-103.6978,22.6667,34.2822,13.6987,10.4666,-102.3825,-19.4202,102.0727,62.2052,-7.5341
64.1610,78.8278,-22.6214,-55.1261,-23.5205,-29.0830,-73.1591,-6.1716,-64.8641,-94.4276,69.2571,55.6990,3.6505,15.1459,-46.3344,7.6963,57.1054,-31.9943,-25.0882
35.9903,52.7206,-103.4454,-32.2468,-41.6518,-12.9504,-14.5659,-26.6684,-42.5292,-90.0173,64.7990,54.9199,24.0724,-7.5379,-3.6685,-37.0077,10.6323,-25.6267,6.1923
8.5875,47.5064,-72.6330,32.8612,20.8793,35.9187,49.9377,5.2762,-31.5031,-46.2851,-13.8677,26.3734,56.3259,-34.4528,14.8628,-66.1371,12.5704,50.2450,24.1666
-0.0193,52.2615,2.5333,7.6679,55.8255,-2.4876,47.9353,20.2669,-21.0231,-24.6404,-67.0845,-7.1307,67.6877,-23.9297,-16.7512,-8.6820,38.7520,67.3410,8.0876
6.6451,40.9711,18.8165,-72.0894,9.4615,-71.5209,10.2451,-7.9670,-33.0793,-36.6998,-24.4368,-11.0827,51.3313,-1.2149,-50.0979,44.3133,30.9975,10.8439,-8.4705
19.9917,38.1676,-26.2564,-128.8604,-45.8739,-90.5000,2.8413,-36.7766,-36.7763,-28.4050,47.7078,10.5941,42.9105,-15.0203,-29.7226,20.8681,-7.9419,-31.1065,-18.2813
30.0090,52.8695,-71.4401,-133.2163,-68.7510,-86.3097,7.1665,-60.1090,13.6736,-19.3062,70.2977,29.1353,36.9992,-35.2860,18.4698,-10.4258,-26.9091,-50.5101,-41.0686
31.9525,37.9890,-88.3861,-57.3413,-91.7228,-67.4046,-22.8993,-94.3142,82.8417,-9.3452,62.1264,43.8852,-7.9309,-17.0128,67.3858,-1.2499,-11.9911,-106.2226,-81.6845
31.8452,-12.7881,-66.9638,53.0151,-119.3028,-19.5654,-61.5820,-121.9105,116.9928,60.9506,62.4284,55.1914,-51.3178,-4.9964,127.3714,-1.9008,2.6706,-172.3527,-126.6361
24.6323,-48.1231,-19.2960,73.9684,-126.3377,0.6150,-55.4318,-122.2360,134.6846,151.4419,54.6291,35.7922,-26.0456,-44.1056,177.7128,-30.6094,-14.1019,-175.4434,-142.2844
2.8696,-52.3076,-5.3178,17.3630,-103.9951,-16.8857,-11.5987,-90.1097,164.5116,184.1996,23.9139,-2.7537,21.4076,-85.3598,184.1526,-50.4189,-50.7410,-123.6505,-105.9144
-3.0401,-35.4582,-28.0923,38.7865,-52.3661,24.8843,10.9820,-37.1517,171.6829,180.9616,5.2392,-2.4936,22.3609,-88.8634,148.6888,-73.8746,-52.0159,-65.3122,-55.0481
37.3246,20.8214,-5.3511,142.5853,5.5636,126.2195,-16.8669,-0.4085,124.0430,157.2516,22.8516,37.4880,6.1930,-90.7692,83.0547,-129.1770,9.1621,-4.9822,-35.3020
87.4119,106.9394,64.1632,149.6401,24.7995,151.4644,-54.8949,7.3556,67.1885,93.1221,44.5346,55.3031,2.4146,-106.6907,12.2602,-166.2796,70.6511,49.0069,-32.6825
92.1839,150.0889,96.1239,18.7744,-1.4626,67.4500,-58.3212,12.2591,58.7727,33.6388,38.9726,29.8935,-12.0924,-104.0187,-7.0893,-134.0112,62.7503,58.0153,-28.2956
55.4209,103.4568,83.4419,-74.3433,-32.3431,-6.7866,-42.4682,8.6917,83.1570,15.3451,18.2657,-6.0826,-29.3924,-77.7108,46.7123,-78.3397,9.2233,28.2790,-32.0019
13.3907,14.2098,59.9576,-20.9434,-33.9689,0.1295,-37.7375,-21.6176,100.0884,14.5579,-7.3456,-26.0375,-36.7582,-46.0516,121.9477,-58.0248,-22.9973,11.1958,-29.6432
-2.4615,-18.5180,21.8611,86.5445,-12.9795,40.9758,-43.1161,-49.6413,100.8468,27.7197,-35.7500,-16.3077,-66.7609,-14.5011,146.4975,-58.4368,-3.7957,15.5983,-12.5495
39.1751,62.5299,16.9239,123.0719,-9.5493,57.5306,-63.2226,-65.1419,63.3932,26.1982,-19.9790,27.5717,-113.5451,-1.3980,74.6052,-61.3176,62.9789,14.0149,-25.3588
125.3084,195.1455,88.3453,71.1954,-40.8514,46.5006,-108.0758,-93.7422,-30.3856,-41.0487,75.8475,80.9548,-123.7455,-21.1943,-62.0912,-82.8861,134.8561,10.1120,-74.6102
169.4208,234.6298,129.6799,-9.3704,-63.0397,28.5606,-142.5436,-102.5654,-112.6562,-98.6756,170.4441,102.9763,-93.8387,-37.7092,-135.8047,-100.7054,139.4662,13.4176,-85.8177
113.0081,128.7377,54.9776,-57.7791,-46.4149,7.2386,-115.2425,-53.2172,-103.7108,-58.5918,151.1605,72.2027,-49.8639,-21.9702,-72.9786,-72.0975,64.2780,7.9146,-28.7414
14.6198,4.8468,-26.4830,-50.8570,-20.8746,-11.9813,-29.3923,-1.7660,-37.0327,-17.4639,41.5169,7.3915,5.4166,-12.3813,18.8504,-34.9583,-14.2575,13.0925,38.5616
-30.9052,-4.3756,-13.9722,0.5011,8.2282,7.2215,51.8093,11.0775,6.3875,-62.5468,-42.9559,-38.6088,48.1313,-37.6440,10.3402,-55.6251,-29.5741,74.4782,76.7289
-9.9894,54.3115,35.0696,61.1789,63.7652,71.3569,58.4225,35.9341,6.0005,-99.5383,-48.5637,-32.9169,49.7694,-56.8882,-71.2983,-99.9011,6.7740,151.9982,97.7906
19.7301,57.2040,52.7119,73.6874,108.1826,110.8406,-1.9993,88.5386,-13.6019,-55.2761,-3.2459,-6.5025,39.6453,-40.1092,-133.4019,-89.7089,33.0889,154.4502,108.5460
10.5248,-2.1119,30.5332,19.6814,98.6691,81.6087,-28.7279,119.7401,-11.6621,17.4751,30.2203,-5.2244,47.8688,-19.0052,-135.2047,-37.1767,4.2695,92.7803,106.1360
-32.4859,-48.2008,-23.3063,-21.5646,72.4795,35.4019,27.8399,116.1847,31.3828,59.9786,-10.2281,-27.3195,55.7575,-15.6591,-64.9487,-2.8521,-46.1443,52.0586,93.4278
-62.1265,-50.6588,-57.5679,13.3608,67.0966,22.3636,82.4331,91.2152,59.5214,42.5569,-97.3387,-41.7703,55.5977,-13.5125,40.1493,0.9181,-45.5598,53.9234,66.2562
-38.4834,-7.4482,-29.1578,50.6346,67.2939,32.8211,71.4992,48.9189,25.6443,-14.7656,-111.3667,-28.6495,58.2966,-20.0731,77.4020,-25.7717,-2.8970,78.0021,29.5178
19.0972,74.2124,12.3991,19.9424,65.0564,55.0013,48.1759,17.4525,-12.9494,-35.6330,-23.0480,5.3768,50.1351,-55.9722,11.3777,-89.1547,12.8326,119.5141,12.6223
51.3845,120.6625,21.1051,5.0614,54.7071,81.7296,38.6598,13.5446,-19.8798,-29.7485,52.1978,31.7103,20.7316,-74.3998,-72.5572,-128.4112,8.7378,130.1057,22.2241
44.9121,72.9307,25.3625,88.8229,13.7176,92.6432,-9.6103,1.5179,-62.1053,-85.7396,60.3058,44.4522,-18.7145,-12.1911,-118.5156,-72.5609,45.8650,47.0319,19.6573
51.4218,23.0663,38.4059,192.3852,-39.4641,92.8583,-90.5555,-30.9829,-152.6850,-169.0943,70.5105,73.0340,-59.8807,76.2354,-154.6112,10.8943,119.4078,-68.2645,-12.7703
95.6054,84.2416,54.5543,200.6295,-55.8657,96.5324,-124.6418,-44.0591,-208.5709,-176.9057,95.6807,109.4340,-76.1620,75.6727,-181.3029,2.3078,175.8036,-84.7944,-41.9706
129.0000,182.5264,92.2115,105.1343,-30.8837,78.9726,-88.4654,-22.9583,-208.5713,-127.5530,87.3432,105.1738,-35.3673,-1.2918,-167.8113,-59.9196,179.4673,-5.1448,-52.2369
114.7065,175.0434,122.2095,-27.9276,1.4191,30.3102,-43.5099,4.9454,-195.3869,-86.1520,85.0209,69.6982,24.8272,-37.1732,-135.1361,-55.4614,119.3510,44.5119,-64.1289
82.6187,86.4895,90.7539,-103.6577,11.3501,-4.6222,-44.3324,11.3827,-163.0888,-67.0012,126.6588,53.8426,38.6891,-6.8099,-112.3767,-3.0562,40.8816,16.5953,-69.7873
62.4240,43.2341,34.6757,-47.1987,-3.0900,0.3292,-66.3756,-16.0456,-93.5956,-81.9689,113.8821,51.0376,20.3516,12.5606,-74.0409,2.0971,30.8094,-14.0931,-48.7295
41.9874,62.8279,5.9957,79.9629,-12.3757,14.9629,-47.4894,-55.2443,-15.1366,-102.1526,-0.5344,34.5248,12.6048,-0.4682,-6.9714,-22.2574,81.3260,-8.1040,-33.7094
16.0802,63.5245,-21.7678,102.2874,-11.7192,2.6811,0.9976,-64.3440,40.4911,-58.6038,-68.9357,20.8478,-4.3809,-1.5809,45.0307,-8.3656,77.1551,-15.1372,-49.2097
-0.3361,14.4518,-48.6032,-32.7150,-27.3702,-34.8151,13.3322,-38.7663,49.7518,11.3115,3.9314,13.8949,-41.1688,12.5785,49.0133,19.3487,-18.2659,-38.5330,-44.5120
-7.0784,-37.4729,-30.4724,-154.7806,-22.7588,-44.6769,-0.2105,-1.1957,-7.9961,9.6333,96.3276,-2.3415,-40.2010,16.3610,18.1544,10.1730,-101.6061,-4.3773,5.4501
-6.5344,-48.8116,8.8162,-105.3582,47.5168,19.0589,9.0948,36.7923,-100.7019,-43.9696,96.8992,-3.7704,16.0762,15.2549,-23.1712,-21.1061,-86.4726,80.8885,40.6399
11.3139,-17.8436,37.0878,49.7789,101.5482,105.0702,9.6010,49.3585,-152.2638,-75.1066,49.1960,20.5881,51.4056,12.2629,-48.6366,-51.4188,-1.4575,119.5818,31.7466
32.8206,25.4331,83.0080,145.1128,62.8872,123.6297,-24.7433,10.5878,-131.8107,-85.5517,6.7829,22.1453,24.6955,-7.3204,-32.6859,-81.8712,68.6609,100.7026,18.0370
26.4644,33.4537,114.6812,124.2333,13.1917,79.0649,-33.9842,-39.5953,-84.9951,-104.9220,-18.5184,-8.1403,2.3926,-23.9433,10.6636,-89.1757,64.5403,90.7013,13.6276
-1.8714,-11.6280,55.6203,28.4074,20.5821,31.5287,0.0988,-31.9513,-73.2652,-136.3264,5.5672,-17.8333,39.3305,-7.1915,28.5667,-52.0890,-4.7784,83.4316,13.2301
-21.9652,-59.6361,-36.3332,-78.6646,37.5098,4.9278,25.5484,43.2574,-101.2958,-156.2633,56.7517,-5.9583,91.7090,17.3838,-5.5946,-7.7741,-70.3932,58.3376,42.6704
-29.0717,-58.8497,-47.3672,-119.7066,53.2169,8.0313,37.9307,133.8520,-120.6673,-115.5818,46.3732,-13.3543,103.8996,12.2357,-58.0936,2.9885,-76.7872,63.6476,96.0674
-30.8161,-36.4868,-11.2527,-93.3388,80.4685,20.3077,46.4298,169.6926,-104.9807,-16.0981,-12.2629,-28.7618,84.7054,-2.3884,-69.9015,3.8920,-44.7866,87.2590,114.1190
-33.0195,-48.5650,-26.7633,-111.7490,61.2113,-26.9245,27.0558,124.4667,-59.2561,66.7293,-27.7833,-31.0876,59.5924,5.6037,-11.8200,36.7787,-41.9364,45.1172,81.3226
-56.3017,-94.9680,-91.0717,-196.2482,1.9847,-119.8816,18.5616,65.7859,27.8472,108.0952,-22.6936,-43.9827,38.3877,21.4900,80.7553,89.1923,-94.6323,-36.5964,46.6781
-95.3857,-129.9844,-143.7036,-209.2636,-5.9836,-140.0628,67.2714,64.0415,127.4714,132.1466,-57.1000,-65.0444,36.2412,19.0983,132.6582,106.0236,-147.4313,-59.1353,40.4769
-93.3412,-112.0327,-148.2117,-118.1404,16.1081,-70.2300,95.1682,76.6531,140.6956,100.1888,-69.3196,-52.0030,48.7415,1.8293,114.1018,60.5883,-133.0661,-31.8744,44.2488
-40.2512,-45.5559,-104.0849,-60.6317,-9.8775,-22.3944,49.5304,50.2781,63.4893,2.3060,-22.0680,-14.8587,39.8866,-12.3828,76.4541,-0.5260,-72.9254,-18.8794,32.0740
-13.7898,3.0174,-66.7444,-96.1707,-42.8517,-41.2985,27.3973,36.9567,30.4243,-45.3787,-6.2243,-7.3897,6.3752,-12.7678,73.6764,-7.2570,-51.7205,-23.5750,10.4053
-45.1575,-18.7918,-92.9886,-160.7888,-33.0357,-84.0286,67.0865,65.4441,79.9932,23.1084,-41.1069,-29.6345,-13.1522,1.0247,92.1770,42.8524,-91.2254,-37.3499,8.9093
-72.0836,-82.5353,-143.7001,-195.3572,-20.0304,-123.9549,65.8421,54.9121,100.6715,112.4873,-32.9222,-37.1807,-9.5000,28.7339,91.7296,97.9017,-124.1993,-66.9442,24.7994
-68.8975,-146.9169,-147.6370,-144.0306,-18.3109,-134.3148,-2.1045,-22.8615,66.6839,140.2801,14.8476,-23.4554,-6.5319,70.3582,67.5781,135.9808,-104.1009,-102.3891,22.4191
-68.4023,-192.5142,-108.3120,-23.4187,-15.2137,-98.5304,-48.5360,-71.9449,68.3450,146.0107,19.9374,-18.4645,-9.5763,94.4337,42.5800,153.1290,-64.8325,-133.8586,3.4557
-61.2532,-167.7269,-52.0803,1.1299,-32.8745,-72.0409,-43.2040,-36.7807,113.9924,173.6532,-2.3447,-32.8907,-9.8143,52.8782,33.0009,122.3577,-53.4856,-139.7633,-1.4041
-27.5842,-66.4725,7.3956,-131.1775,-55.9341,-98.8415,-24.4433,16.5988,131.7132,182.6769,2.9268,-49.1526,-9.6185,-22.6700,35.4378,60.9215,-67.1070,-91.4601,2.0439
-8.4248,-4.5126,10.6341,-229.6903,-51.9029,-132.9384,-15.7440,16.1304,113.3036,121.8641,21.9496,-48.2419,-19.9134,-33.1844,35.2665,42.8586,-80.0239,-41.3398,3.3399
-27.2328,-41.5980,-72.3266,-178.9203,-61.2350,-128.5099,-24.2102,-22.8294,99.5007,24.9980,35.1628,-29.5903,-48.5669,25.7148,31.3826,67.3557,-85.9706,-64.4410,25.9056
-42.7084,-79.8006,-136.8877,-88.8072,-93.6561,-88.7005,-34.7825,-35.1094,95.6331,-31.4859,41.4970,-13.7915,-77.8645,53.9834,35.8767,53.9464,-86.3622,-100.6496,63.2484
-36.9519,-61.2453,-92.5400,-29.7313,-76.2876,-23.9527,-16.1270,1.0022,83.6473,-39.0648,21.7391,-16.5110,-70.5092,24.8247,39.2342,1.6831,-73.7335,-60.9470,67.8550
-35.1902,-44.8921,-19.1017,16.0040,-18.0112,24.5912,19.9220,33.3034,67.9959,-31.6269,-14.6447,-26.4622,-27.8545,1.1924,27.4704,-15.4414,-53.7421,-5.0753,37.5710
-44.7886,-60.2420,-18.8470,10.7050,-6.2371,2.1731,32.2392,19.2127,76.0869,-3.2384,-31.8628,-34.3639,5.3784,-0.1345,32.4423,8.9557,-52.1467,-12.1032,21.0484
-57.7121,-88.5115,-53.8689,-39.8794,-31.9004,-53.9711,13.0563,-8.4220,110.0170,27.0441,-34.8130,-49.0951,3.8797,4.2916,76.7182,30.4342,-73.6147,-38.5286,35.5783
-59.0300,-105.9952,-45.9172,-39.9426,-32.4226,-53.1821,-24.0059,-12.1086,121.1560,-16.4423,-27.0238,-55.6018,-26.9959,27.0334,98.4167,35.6186,-80.1691,-33.9161,46.0495
-23.1278,-59.7201,0.1603,17.5685,-19.1996,2.4371,-60.0417,-13.0530,84.1988,-109.3556,7.4007,-26.4815,-64.5933,44.4511,48.5903,13.0751,-38.5496,-12.4976,25.0082
27.1460,37.4889,38.2233,58.0695,-12.2296,37.4828,-62.3642,-26.2805,45.0322,-109.7579,19.8740,7.7693,-60.8815,9.0179,-7.5913,-36.2569,27.7026,16.3520,0.3170
31.4931,70.6491,50.8807,62.6461,13.5938,26.6530,-28.6942,-20.7256,28.3521,10.1785,-33.0286,-0.9033,-3.8875,-40.5396,-11.3210,-54.8986,63.9121,48.7206,11.9793
5.4232,35.2145,52.1032,31.4602,49.7591,2.7283,1.1324,13.3625,1.4699,106.9171,-74.9206,-25.4046,35.3556,-42.4732,-10.0913,-22.3768,55.0377,66.7111,36.8420
6.8047,41.5887,51.7318,-26.0199,50.2536,-9.5431,11.9069,37.7289,-28.8073,83.4173,-49.6850,-19.8632,14.7258,-23.2615,-33.3562,-1.0621,34.5128,65.1100,28.8502
16.3670,64.2074,33.7308,-34.7097,10.9740,-10.8636,15.5817,22.6374,-31.9953,-10.9190,-21.0568,-1.2917,-12.2420,-10.1238,-35.2751,-4.0235,27.4565,35.5169,1.6693
7.4451,29.4879,-2.3044,25.2205,-30.2873,-5.5442,7.0367,-22.2582,-45.3970,-99.9340,-7.5366,14.7744,-11.6623,20.4847,-18.9618,10.8607,31.6058,-21.6182,-21.1005
24.2923,29.6137,-14.8659,52.5000,-50.2073,7.0560,-7.5400,-59.4025,-91.1227,-159.1575,37.9692,45.3106,-6.1064,35.8578,-28.8163,8.2408,43.5474,-49.3979,-53.4949
67.3002,113.1535,11.3103,10.6243,-50.4879,21.4610,-1.0885,-51.9718,-109.0154,-181.0070,70.7756,65.8519,13.3068,-14.9066,-35.8191,-54.9454,55.7490,-8.6206,-74.9108
71.9767,141.9903,46.4561,-9.3128,-32.1565,33.4090,14.2002,-13.2088,-99.8945,-163.2120,39.8237,43.8874,54.4632,-67.7183,-14.5102,-105.6218,56.6844,48.0635,-48.0872
49.1971,78.6736,87.8425,44.9320,2.3960,58.5305,-0.6470,1.9768,-144.8380,-138.3322,18.9203,21.4266,64.5388,-43.3624,-34.7431,-84.1833,64.6244,68.6847,-14.3828
57.7009,53.5606,132.6547,126.0890,29.7751,101.6725,-37.2209,-13.8172,-220.5963,-144.4666,51.6449,40.4990,24.9832,10.5393,-122.2550,-50.4534,102.3713,65.5347,-18.1650
78.7761,90.7473,123.7768,163.1702,34.9285,125.2207,-51.2618,-12.1177,-235.4313,-161.3392,69.3853,68.7113,-3.4810,25.5091,-184.8831,-49.1511,137.3995,58.7499,-18.0826
72.8961,107.8602,55.3459,120.7751,39.1145,101.2144,-29.8882,15.2529,-213.8534,-133.1307,48.9174,72.4581,10.5985,15.6178,-169.5117,-48.9428,128.3031,60.1318,10.4114
57.6109,97.7688,18.3586,40.5029,47.3833,57.8035,-1.1548,33.7317,-206.4983,-41.1942,27.1954,57.0894,33.8730,-4.0477,-119.7104,-43.5066,96.5267,72.1352,28.8900
46.4903,81.3866,48.7729,4.1835,32.6813,34.8329,9.1532,44.1335,-161.0746,82.6252,0.0090,27.4420,39.6127,-42.9396,-70.3332,-51.0045,75.2867,63.6007,27.6277
28.4320,43.2490,86.0287,25.9840,5.0042,35.2555,4.2441,52.1144,-77.3657,166.0874,-27.9429,-2.4022,28.8383,-65.7477,-33.6645,-48.0966,58.3497,22.9145,17.7294
16.4656,6.1675,88.5945,52.5495,-11.5660,28.4261,-8.3537,17.5747,-55.7528,135.9178,-19.2332,-3.6546,7.5530,-34.3786,-25.7171,-14.0943,49.8797,-16.9157,-12.1993
33.8067,26.7299,47.4150,48.0849,-45.8698,-10.6649,-40.1401,-61.4184,-83.2567,34.9017,15.2817,27.7807,-27.8950,12.4721,-26.4486,17.6894,72.3009,-55.4643,-48.4196
77.7518,109.2964,-26.2109,14.8060,-101.4572,-51.6864,-84.2368,-107.5842,-53.4532,11.6066,47.4916,75.0592,-87.8095,19.0935,-15.8167,12.6663,108.3025,-107.3987,-68.8064
112.6253,174.1380,-59.8795,-25.7705,-115.3389,-53.9542,-99.1118,-85.9273,6.4914,101.4456,77.7895,109.4964,-144.0027,3.2370,-26.1371,3.2884,115.2593,-139.9068,-91.2360
91.9598,128.2888,-16.4725,-59.1196,-86.0799,-61.8550,-75.5687,-55.0554,7.7699,178.3555,80.9419,90.1251,-135.3779,15.2998,-57.2734,53.2764,84.3554,-148.4054,-114.1277
39.2321,29.8698,22.1027,-92.6807,-82.6937,-116.3390,-55.8006,-54.9403,-12.9376,170.3685,46.3349,36.2974,-76.6846,40.5933,-58.0225,128.7511,50.3051,-167.9222,-109.2505
47.4289,66.2552,8.2496,-97.6976,-109.4477,-127.8833,-58.0448,-53.5696,5.0246,124.8675,26.8181,32.9056,-59.9556,13.7273,-46.6776,98.7665,66.1541,-165.2666,-88.4117
117.6293,237.3897,-2.8474,-17.3426,-121.4827,-35.6619,-60.4598,-22.3440,36.3875,87.3833,21.8298,82.5850,-98.3204,-64.5576,-75.6195,-44.2617,141.7813,-107.0740,-60.8984
136.9872,304.0845,-0.5409,92.3148,-104.1176,46.9935,-54.7351,17.1118,61.7035,76.3547,-18.7316,94.3340,-105.0706,-106.2572,-106.2406,-125.3620,194.2619,-58.4971,-12.2533
74.2698,172.1096,-8.6864,100.5907,-44.6307,37.6456,-40.9086,30.9104,71.1570,84.8021,-40.0098,51.1941,-47.7344,-63.7130,-101.2918,-59.6203,139.7247,-45.1434,18.9139
8.6590,2.6909,15.0210,27.9791,44.6208,15.4090,-8.6264,21.9329,10.8651,61.9503,18.9422,13.7768,12.5873,13.1797,-119.4822,40.9226,26.9664,-10.3356,-0.7970
-21.6450,-82.0787,72.7331,16.5405,87.2579,33.5579,21.0633,23.0668,-102.2960,11.5460,64.1321,-0.2439,26.7733,67.1390,-173.0087,89.7176,-20.2786,18.3407,-16.8795
-19.1372,-77.0582,83.3810,92.7896,53.6515,55.3304,4.7800,37.9926,-145.0558,8.7098,23.3621,5.1779,3.9819,76.3215,-172.1637,89.2967,32.3228,-17.5113,-3.3103
23.1111,16.1215,38.7616,156.5051,7.2637,71.4508,-35.6580,31.1823,-73.5510,37.0014,-25.7812,34.8210,-25.6558,28.5826,-91.2537,20.7597,105.2955,-44.5941,-3.7341
59.6785,127.6569,0.0887,137.7361,-13.4779,73.4327,-27.3902,-0.8699,16.3248,10.5160,-39.3743,50.8543,-42.7746,-38.2636,-11.2426,-76.6799,115.0696,1.1579,-11.3462
37.9596,133.5542,-18.6267,52.9225,-17.3011,29.0482,21.1185,-18.8287,34.3489,-51.6022,-41.7709,28.0117,-45.4068,-38.3486,6.6390,-73.7957,61.2242,36.0268,-5.8738
3.7038,39.1899,-16.0042,-28.0689,-7.6332,-23.1450,19.4773,-13.6767,-18.3114,-79.5093,0.4934,12.5930,-39.2631,32.0156,-26.2646,28.1427,6.0012,-2.5034,-22.0390
2.9282,-40.4963,0.7457,-60.9851,-8.3921,-31.8956,-31.7782,-5.5752,-65.7287,-63.6522,73.7297,20.5077,-28.4492,72.6594,-46.4925,81.4178,-20.8416,-53.8664,-41.6545
-5.8784,-52.3130,-27.4215,-75.0584,-28.7713,-33.2801,-21.2347,8.1259,-33.4461,-5.2604,61.4553,10.3142,-16.1578,38.8209,7.7006,47.9078,-44.5831,-58.7045,-16.9825
-33.6793,-24.6466,-86.9022,-81.6011,-16.8078,-43.4082,60.6436,22.2058,42.6495,60.3194,-30.2128,-9.5940,-4.4250,-3.3590,99.3714,15.7675,-64.5981,-23.9915,-5.4686
-35.9141,-9.9633,-76.2960,-34.7938,23.2518,-21.4820,84.8308,3.4600,75.5929,45.5354,-65.0871,-6.9487,-1.0923,-0.4360,132.8537,15.4912,-52.3046,4.4209,-50.6943
-26.8334,-40.0609,-26.1587,45.9808,10.3563,9.2503,26.2973,-39.5507,94.8059,-19.9529,-36.1484,-4.1629,-17.4879,20.7759,119.1313,18.6960,-32.6213,-21.5963,-75.9477
-41.5381,-73.1087,-56.8737,84.5519,-40.3466,9.6762,8.7742,-53.4430,164.1620,-10.2725,-39.7318,-11.9547,-38.1496,16.9415,140.2157,12.9015,-45.6840,-77.5778,-56.4621
-51.7012,-51.9288,-121.6887,81.9987,-47.0547,13.4412,60.5722,-29.7245,211.1448,43.4376,-72.7722,-5.1957,-34.8243,-9.0924,176.3463,-7.3385,-60.2990,-86.5289,-52.1910
-38.5511,-9.0049,-99.6753,68.1962,-37.2457,17.1456,77.8122,-11.8413,163.0356,18.8007,-84.3362,-1.5418,-21.6147,-21.9053,156.3411,-22.2740,-38.5376,-55.3449,-51.7389
-29.5222,-3.6846,-26.4841,20.4549,-69.7391,-31.6897,34.9239,-24.2434,100.7356,-38.6094,-74.5563,-24.1944,-23.8683,-9.9344,102.2086,6.1049,-13.7153,-61.3797,-34.2428
-24.3654,-24.3854,1.1720,-54.5893,-108.7968,-100.3401,-1.0448,-54.6185,95.6337,-7.9626,-36.0618,-33.1407,-23.0526,0.8392,72.0975,57.9246,-21.0914,-117.1013,-54.5823
-3.8600,-29.0079,-29.7451,-120.7325,-124.5052,-134.8632,-15.0598,-76.4647,100.7672,92.9527,30.6687,-3.5373,-13.1624,-4.2757,67.7309,82.2347,-39.1784,-173.5186,-101.3050
15.8747,2.1730,-89.7784,-185.5956,-133.9627,-162.6011,-23.4562,-68.1157,93.6657,168.4906,58.2440,21.5016,-22.8427,-14.8656,73.0136,76.7927,-41.4438,-187.2831,-88.7666
12.7193,48.1224,-121.8078,-213.7791,-109.6239,-176.9084,-6.3565,-39.1058,101.3930,178.3671,10.2152,10.0977,-33.1040,-26.8753,69.1732,58.3708,-29.1713,-130.0399,-26.7593
-2.7768,50.6838,-65.7655,-113.1350,-31.3381,-112.2483,23.2813,-23.8140,85.7633,149.1617,-44.5686,-12.2588,-9.6604,-30.3110,15.5769,34.4672,0.1550,-34.2905,10.3277
6.8537,23.3143,34.5645,70.7338,30.6431,0.5498,-0.8841,-35.1764,6.8004,121.9554,-35.8883,-1.7344,4.5877,-10.7551,-82.6362,17.1141,63.2826,10.1222,8.5667
71.0077,82.8069,80.2624,153.8115,17.2651,54.2237,-82.4680,-55.9198,-65.9834,92.2479,18.2910,49.9346,-24.0089,-7.0766,-143.5939,-16.4739,150.5088,-4.5142,-10.4784
154.3061,246.5007,67.3345,60.2044,-28.9482,20.3488,-131.5879,-65.5358,-63.0433,50.9298,54.0042,93.1417,-45.0170,-66.3142,-123.4961,-93.3474,204.7787,12.6540,-24.3084
183.8076,367.3506,53.4072,-96.6301,-33.7998,-39.8726,-95.9945,-46.6676,-36.5229,55.5985,40.5638,86.0106,-38.8311,-133.8439,-87.0023,-151.2096,190.9680,85.4153,-9.9429
155.9341,364.3398,56.0441,-159.4396,19.8841,-53.2713,-32.0165,3.3434,-53.3856,120.5553,2.1287,60.0548,-39.2929,-132.1175,-100.2328,-131.2256,157.4688,145.8046,17.3708
119.2666,299.2575,68.2090,-85.1429,82.3633,-1.5732,3.8026,51.1673,-76.5860,148.5179,-34.0450,48.0401,-24.3969,-98.8447,-128.7041,-95.3671,150.3746,163.1261,26.9101
78.8890,216.7737,81.7804,3.7015,99.3991,41.8326,32.8761,60.2541,-56.8999,115.2464,-64.0063,25.1633,29.8997,-93.6214,-110.1236,-87.6169,128.7278,153.5689,20.7171
27.3764,115.6990,77.8598,-29.1679,78.5303,6.3531,64.5881,42.7455,-26.7510,111.4191,-67.6092,-13.6711,63.4849,-81.1293,-58.0917,-47.1899,55.4779,117.2828,6.2734
-16.9554,12.2324,43.2561,-130.9613,58.0477,-59.3981,65.7275,35.4256,-6.6312,136.8739,-36.6051,-40.6068,47.6154,-35.9299,-9.5987,25.0494,-33.9027,67.5741,1.9732
-64.5572,-89.2409,-16.8266,-147.4864,48.3977,-65.3710,66.7308,42.9396,40.6682,115.0123,-23.8996,-64.8901,43.8479,-8.2274,47.9731,41.2199,-113.6790,47.6344,41.2504
-119.9065,-178.7182,-68.6018,-65.7778,53.6463,-9.1352,115.8840,48.2863,90.7650,70.8139,-47.3437,-90.7561,76.0053,-14.8638,106.2861,1.2334,-178.6788,64.7214,86.7514
-126.7610,-195.8150,-64.0528,-8.1812,76.5639,40.8131,146.4066,54.0518,79.0028,76.4462,-47.6488,-83.9467,99.0424,-23.5216,109.8530,-21.0186,-185.1944,80.2250,72.7435
-81.1638,-130.4337,-21.0103,-47.3159,87.8541,25.6732,103.1675,72.4294,55.5747,129.2188,-33.4904,-63.6989,91.3327,-35.2640,76.3251,-13.6842,-133.5178,79.8907,47.3011
-75.1767,-92.6595,-18.1948,-127.2873,75.9943,-33.3343,79.4245,97.5447,96.4166,178.6068,-69.6085,-85.3207,69.3769,-49.6727,89.0697,-0.7152,-121.9786,83.9470,79.8112
-138.7094,-175.3552,-67.2599,-125.9917,77.6494,-37.6483,131.0561,116.3297,138.6640,177.9675,-112.9099,-124.1208,60.9284,-28.8137,139.7395,18.2733,-191.0351,86.3348,123.4242
-201.3865,-321.6295,-105.7010,4.2718,97.6945,41.9620,170.7096,122.9987,124.8108,146.3459,-105.5253,-131.1513,87.4136,17.3614,146.1714,36.8699,-247.8153,58.2556,137.0133
-214.7290,-386.7854,-95.5629,153.0572,99.5908,104.7938,151.6807,113.4542,123.3317,170.5350,-106.0001,-125.6698,117.9041,26.2298,93.7197,40.3259,-217.9002,16.4599,150.8549
-172.1217,-304.4108,-30.4006,179.4507,77.7635,91.7336,106.4640,91.5575,150.9629,236.4033,-121.8629,-120.8604,95.3902,-8.5318,27.9626,27.8136,-137.7063,4.5924,145.7646
-97.3780,-170.2768,45.5675,86.7029,37.7862,49.8494,48.1328,67.9029,148.7032,220.1256,-77.5347,-97.1639,33.9660,-36.7145,0.8419,4.9684,-86.5621,6.6170,93.1737
-74.0040,-127.8905,15.9909,-13.0556,-23.0352,-1.5193,29.6732,35.3740,165.9293,135.0180,-31.5870,-80.9261,-1.8589,-36.9301,61.7856,-4.8600,-113.4722,-23.7167,53.4341
-134.9542,-184.7693,-131.0622,-38.4539,-60.1593,-58.2439,100.5930,-12.0695,255.6179,96.9601,-73.9217,-96.0033,3.8813,-18.2244,168.4151,19.9281,-188.4807,-65.1147,60.8710
-171.6448,-224.1786,-215.0920,15.4359,-32.4049,-52.2090,147.7182,-41.1160,289.3192,62.5279,-102.3740,-92.1019,20.0100,13.0168,182.3306,44.7274,-208.6339,-65.2472,63.8514
-109.4375,-174.6957,-125.8784,101.6752,11.0928,27.7314,70.9445,-27.5184,160.4409,-58.6638,-41.5317,-44.0138,24.7193,41.3266,77.6868,28.9192,-118.8892,-31.2981,38.8791
-29.5356,-77.4492,27.4303,154.7763,17.4313,80.3225,-9.4968,-7.2070,-17.9606,-179.0962,-10.3033,-8.1508,23.4428,45.6407,-15.0964,3.4579,6.5153,1.4537,1.7062
-6.5465,-14.3813,111.4192,130.5649,5.5690,59.1296,5.3382,-7.4588,-104.1498,-206.5666,-41.0297,-12.4379,35.5867,29.7749,-29.8282,5.5285,57.6714,18.7652,-37.7596
-15.8369,-26.8662,84.3682,42.6313,-15.8864,21.6808,30.6661,0.1947,-103.1233,-205.1392,-13.6848,-17.8888,53.1796,20.7625,-14.6833,12.6923,8.3032,4.1036,-41.7245
-25.0809,-66.7893,-30.2049,-36.6714,-60.7647,8.8567,23.4808,25.7266,-85.6746,-225.8721,67.3409,2.1125,36.4558,32.3317,-2.2977,2.4771,-69.8689,-42.2329,4.4640
-8.3494,-30.3463,-110.5257,-49.6450,-91.6042,14.7468,19.7635,37.8984,-99.8108,-223.4155,98.4178,39.4440,-12.4446,41.3893,-15.3340,-14.9856,-67.7380,-68.5621,29.8710
56.8627,101.2516,-38.5463,-15.5699,-71.3241,23.8176,-14.5841,30.3430,-145.3607,-178.9205,71.9371,72.0076,-44.7967,22.9445,-75.8678,-28.5805,49.4170,-40.7770,-5.8914
119.7671,213.9274,102.1708,35.9165,-34.8303,26.5396,-80.8690,17.0165,-172.9800,-135.1092,18.8839,77.4436,-57.2364,1.1117,-124.6992,-29.1753,185.0249,-0.2558,-50.1410
123.8073,226.4784,131.4956,104.5922,-23.4633,40.6037,-99.0081,-2.8711,-157.7343,-127.1923,-26.1358,76.0356,-84.3173,12.9631,-104.1549,-21.1556,229.6986,1.9903,-69.6406
116.3331,198.9262,25.5547,130.5835,-31.6428,67.2943,-88.5883,-19.3220,-134.5426,-140.9265,17.6109,113.4638,-115.4405,42.0442,-75.1887,-25.8434,192.5563,-32.1003,-75.0023
143.6012,206.5719,-90.0089,45.8472,-46.3253,45.8488,-122.9180,-26.2317,-130.9546,-138.2594,126.0306,165.4491,-121.1309,54.2571,-91.9982,-29.8551,154.9972,-67.4522,-63.1050
165.2806,242.4951,-93.3273,-60.6132,-58.9100,-34.5076,-162.0500,-51.8974,-145.7892,-122.4604,146.6478,161.7834,-110.4395,47.2928,-111.5166,-11.3457,167.8127,-61.9905,-44.5352
161.4193,279.3253,30.9986,-53.3732,-45.7945,-69.9528,-155.7017,-85.3118,-165.6770,-110.2729,58.3729,106.5960,-98.1329,18.4801,-115.0362,-14.1462,219.6003,6.2106,-36.9287
150.4317,284.0325,154.5565,41.1899,1.5330,-4.0362,-130.5930,-61.6451,-152.1824,-70.2714,-12.9686,62.4670,-81.1034,-25.2504,-126.2431,-61.8139,246.5771,87.5596,-21.8194
116.9982,206.8210,140.1533,120.1838,38.3658,76.9440,-100.0034,-1.2401,-90.5750,-11.9089,-16.1137,54.6674,-60.7361,-31.8197,-117.1291,-76.3382,199.3836,82.3490,-9.7164
71.0557,84.9892,30.8612,124.7439,12.9621,71.6327,-75.5734,-8.4152,-23.5816,-2.9378,25.2110,67.4123,-36.8650,7.6833,-58.0960,-20.5797,113.9347,-24.5291,-50.3814
61.0671,40.3124,-23.5531,28.1389,-40.7527,-16.5401,-79.2891,-80.1650,29.4660,-3.9836,71.1307,68.5065,-4.7856,12.2527,14.2394,23.1754,57.3329,-103.9391,-113.7722
65.4021,79.8009,27.9308,-73.9170,-32.5245,-82.1988,-63.9296,-103.2717,66.6225,58.6120,41.6210,29.7577,26.0951,-41.4753,51.5492,6.5253,45.3410,-49.3292,-117.9216
38.0959,80.2010,107.0212,-17.8948,30.6814,-32.2111,-5.2274,-57.9868,32.7336,83.8909,-41.2873,-14.7674,45.9695,-66.1182,35.0060,-25.5578,56.0092,53.8026,-73.0731
13.5824,12.4552,103.5872,106.7840,38.6438,62.1728,18.6136,-37.2770,-62.3912,-16.9628,-20.2234,-2.1217,53.5628,-28.8197,-8.5452,-41.5089,47.7036,56.4891,-46.8216
17.8691,-27.0884,1.5537,51.5511,-32.2356,46.3499,-1.8209,-67.3097,-82.6996,-109.8439,96.9512,37.9800,39.3122,1.2123,-8.5145,-40.7176,-15.3934,-21.0042,-48.4870
11.4199,-8.0395,-68.8976,-131.8523,-75.7997,-59.1843,6.5031,-70.1206,5.6852,-83.9380,119.0262,24.7520,8.8849,-6.8075,43.5221,-14.6741,-86.4149,-50.2702,-46.8290
-10.2626,2.4696,-19.8980,-192.5477,-36.7875,-101.8286,16.7576,-8.4271,67.5718,-15.3262,29.1040,-26.8352,-3.9693,-12.3801,62.8010,25.1591,-84.7811,-13.3727,-25.6009
-19.1557,-21.8716,38.0960,-114.1715,19.8667,-59.6099,-8.2513,51.2577,45.2047,19.2081,-26.1998,-44.6451,4.8712,5.3753,22.2851,49.2826,-36.8807,12.6723,6.9352
-26.1451,-39.0824,10.0233,-26.5923,33.5893,-12.7651,5.0795,47.0358,4.6384,0.8082,-24.3475,-24.5851,4.2992,27.8424,-19.1390,47.8107,-18.1486,9.5574,21.7180
-32.2457,-29.8262,-18.8310,36.7376,20.8455,22.9512,56.3105,12.4242,-36.7376,-65.5476,-15.8211,-2.3301,-3.7865,38.4615,-39.3268,28.8154,-17.9572,9.1856,4.2530
-14.2956,-21.0688,7.5391,42.5087,18.5238,38.3987,43.6527,6.7028,-87.4006,-95.2278,8.6566,12.9528,1.7583,40.7221,-33.5993,19.3426,-5.2460,9.5328,-24.6132
6.2046,-22.8680,20.6570,-40.2362,20.6647,-5.6812,-14.3556,16.4418,-96.1324,-58.5151,28.9172,14.4545,3.4691,46.2045,16.8081,42.3713,-3.6205,-2.3409,-42.7363
3.2746,-7.7310,3.6323,-104.7582,-3.4395,-62.6375,-28.1564,-1.2290,-48.9424,-77.4976,15.7933,-1.7284,-14.3486,45.8618,46.7110,55.2825,-15.0021,-8.5809,-32.9738
1.2196,25.5417,-9.7297,-56.1274,-37.0571,-44.2421,-8.6770,-30.3852,-15.1420,-154.5490,16.4678,-6.2909,-22.5811,22.2395,-12.9433,7.4245,-10.0540,5.5515,12.2318
4.8660,26.4238,-40.7727,30.6712,-27.7184,24.0774,13.8932,-26.5963,-26.7699,-122.6170,36.3239,16.0040,-2.6409,-2.8299,-59.4960,-46.4662,-2.8238,18.2184,44.7954
-12.1716,-24.9426,-82.2934,45.3876,8.5313,44.9706,41.7951,6.8811,-26.2069,20.2825,15.3132,26.6383,20.3763,-2.2563,17.7661,-30.4590,-23.0623,-0.9933,16.4708
-27.6002,-63.1462,-75.6861,-22.9638,3.1156,-5.4639,34.7721,28.4797,32.9649,136.5458,-18.4180,3.1579,22.2143,-7.3799,114.7279,12.7715,-50.2091,-42.8140,-21.6474
-6.0363,-31.8958,-31.1203,-82.7944,-32.8813,-52.7918,-13.7603,16.7636,96.9640,210.4137,-6.0588,-15.7602,8.0209,-45.7054,93.9762,5.1948,-40.3992,-60.4558,-7.4064
25.3420,26.1083,3.5603,-26.5046,-34.8447,-23.1540,-32.6267,-9.4582,81.4452,238.2399,12.5434,-1.6576,-4.4466,-73.8857,-1.5543,-38.1146,11.5228,-34.7737,22.6538
30.6326,42.6611,21.3873,93.1557,-18.3597,46.2154,-17.9062,-22.2890,11.5129,148.3714,10.0889,18.9406,-12.0788,-53.6991,-73.3320,-59.2495,56.3180,-8.5294,31.2763
13.4468,9.8459,5.5032,113.3250,-32.6307,55.1646,-25.5874,-17.9473,-14.8564,8.8105,21.7452,17.6715,-29.2562,-7.0458,-90.9654,-37.0688,42.9123,-22.1242,46.7237
-17.6283,-43.3336,-39.8599,45.6835,-47.0735,7.2198,-34.5769,-2.5156,12.4561,-33.7245,18.1190,-1.9134,-51.5879,34.7139,-48.1093,13.4267,-5.8916,-50.1369,64.5514
-39.6000,-66.6370,-25.7010,19.8897,-20.3135,-11.7786,-16.0126,27.2765,32.4652,9.8993,-36.7447,-25.7750,-50.6507,44.3761,14.3304,47.6323,-18.2049,-42.7286,45.3540
-12.6981,-13.5053,70.8485,21.4314,13.2653,6.9901,-18.3337,55.2028,31.3466,53.1171,-62.1048,-34.4890,-28.3609,4.1241,2.5761,26.1688,20.7059,-0.5638,11.9459
36.6720,57.6403,112.9411,15.2071,19.4852,26.2056,-50.1234,47.8104,16.9617,63.9515,-9.2788,-11.7234,-15.7962,-35.5329,-76.7631,-20.9932,56.9656,28.6754,14.9149
28.3719,29.0655,22.2699,72.4785,21.1760,51.3061,-46.7128,16.7312,-11.1875,23.4936,22.7124,19.1606,-12.5820,-5.7753,-97.1262,-25.8986,51.9144,16.6767,43.8969
-29.4235,-62.1200,-72.8823,141.1598,30.2702,62.5872,-3.9421,5.8609,-17.1957,-48.6370,-22.2941,15.5901,-3.0575,53.4633,-26.2896,14.8377,18.7465,-8.4810,51.4178
-42.2123,-61.7943,-33.4750,79.1267,25.1528,24.1090,11.8914,13.6886,4.1248,-97.1510,-52.1189,-14.3188,1.2143,53.0977,19.7043,36.0146,-3.1916,0.4508,22.2136
5.8080,26.0769,82.8485,-38.9082,15.7938,-13.3796,-13.9876,14.8089,-13.8215,-122.5079,-13.2578,-26.8943,2.8023,6.2421,-15.7076,6.9405,7.4933,48.2112,-8.2309
32.0770,56.4103,115.7669,-54.3926,37.2639,2.6357,-28.0749,20.9489,-60.1849,-119.2917,18.4203,-16.5741,25.5952,-14.6236,-49.0228,-23.5768,22.5746,88.5446,-2.1927
9.2956,8.4866,35.8450,-9.3673,67.4671,24.9777,-10.0395,35.1710,-41.3690,-47.7469,1.3118,-5.2057,45.1230,-2.8646,-17.4806,-14.9561,8.8296,77.2520,17.5592
-2.7718,-14.9505,-27.6043,4.1736,47.3903,14.7950,-5.2395,16.1768,15.1085,22.2904,-5.6977,4.8524,19.5759,4.6245,32.3302,-1.7696,-7.3732,28.5491,5.3857
16.9764,13.9549,10.2271,3.3582,-3.4328,-4.8470,-25.2334,-43.1418,-4.3341,-4.6724,12.4318,10.3522,-16.6723,1.9763,40.5597,-11.0454,12.1556,5.8902,-28.4109
28.2199,47.6766,90.6268,-1.6994,-2.9720,-22.7605,-10.5846,-83.8004,-83.8926,-55.0707,1.6104,1.1585,-5.1324,1.1699,9.4697,-4.9106,45.5383,38.1517,-61.2516
31.3688,72.4381,141.1138,-12.0638,44.9325,-19.6236,37.2919,-72.8037,-128.8106,-48.2655,-16.4293,1.3755,32.9180,-2.2779,-24.6014,16.7071,60.4472,72.5669,-111.0806
65.4443,96.9193,160.5596,14.2086,47.6789,30.0775,22.1317,-54.4558,-139.4518,-52.0649,32.7805,38.2587,38.8118,-14.6580,-35.0846,-7.5594,73.4703,53.1048,-163.5750
113.9754,113.6408,157.2623,51.2633,-16.8206,68.9701,-65.9753,-73.5331,-164.8345,-92.1787,117.9599,80.3727,5.6620,-23.8792,-30.7721,-64.1480,97.8700,3.7135,-161.1315
120.6484,115.2201,120.2054,13.3505,-67.5307,35.8300,-103.7245,-93.5690,-184.9986,-89.5827,147.1412,82.7147,-26.7010,-21.2023,-37.0106,-76.1480,94.6229,-16.7344,-105.9898
72.7722,93.5833,48.8096,-78.7374,-47.7645,-13.7534,-27.7067,-47.5763,-139.4062,-28.7135,103.5039,50.2601,-16.4293,-23.6116,-34.5075,-46.2651,30.7960,3.9444,-52.8704
3.3423,40.8459,-31.4508,-111.3433,12.3159,-20.9684,81.0632,34.8907,-29.2330,35.6816,17.5323,10.6580,37.9334,-35.1688,9.6561,-16.3766,-45.3140,27.0399,-25.8206
-39.4867,-14.9169,-61.3748,-23.7560,44.2598,-6.4182,110.0714,42.8330,51.9051,51.9117,-60.0218,-10.2972,71.2640,-21.5368,41.5118,19.0432,-44.0413,9.1185,-29.4090
-17.9101,-23.5577,-6.4526,132.2605,12.3838,29.5340,28.1627,-39.6770,33.9127,-13.5900,-49.1317,8.4414,25.7543,18.0667,-6.1288,31.5218,37.8335,-39.4603,-52.3660
35.3026,16.0722,58.2012,218.2195,-42.1633,84.3573,-68.8583,-95.3754,-13.9087,-110.2440,27.3390,38.5967,-43.4749,22.3782,-60.3060,-29.7716,92.9389,-47.7920,-42.2589
38.1495,51.4518,33.5068,137.7071,-52.2360,80.3496,-49.5360,-61.1924,5.6648,-151.2535,34.0125,24.4221,-35.1296,-23.1819,-15.3751,-99.7762,48.6866,10.4638,8.2549
-11.2858,48.6458,-51.9181,-27.5453,-22.1435,-1.6827,58.4384,-7.0223,62.3233,-158.7342,-31.9207,-16.7490,38.0571,-50.0286,74.7711,-81.3469,-39.1962,57.9812,24.1046
-42.0650,13.0403,-99.9103,-111.8808,-2.6175,-62.3451,97.5449,10.2766,87.2173,-166.7785,-49.5760,-28.5351,72.3945,-21.7259,99.4606,-8.5103,-82.1263,34.4977,-4.3560
-45.3674,-44.2589,-85.5185,-65.5099,-4.2745,-54.4964,31.9798,13.2947,84.6603,-121.9497,-31.6141,-24.8352,31.3181,26.7854,66.3695,44.1015,-63.8569,-18.7505,4.2000
-52.4105,-89.8492,-55.2484,32.6571,-17.0267,-23.1962,-25.2468,11.4231,64.2342,-55.9274,-46.7725,-31.1696,-29.2657,59.4604,35.3446,61.7107,-24.4465,-49.4661,48.2437
-44.8117,-70.6325,-63.7804,84.9506,-35.9548,10.9865,-11.3567,-9.3404,38.2255,-64.3829,-38.5046,-14.1530,-54.1647,53.3869,27.5797,26.5014,-12.1166,-47.6591,50.8420
-20.6013,-6.6476,-121.8102,47.0941,-27.7292,32.0257,37.0227,-22.2223,76.4529,-79.4947,6.0261,18.6452,-27.9399,3.1335,51.6426,-45.2231,-45.3162,-11.2599,23.8556
-21.0434,17.1440,-157.4182,-52.6051,16.9195,-10.2434,62.8772,-5.6134,175.8292,-6.0446,-0.1622,6.2929,24.8653,-40.5693,81.0224,-51.0719,-84.7708,26.7595,19.9959
-27.7517,-1.5622,-102.2316,-153.7466,31.0306,-101.9756,29.6324,0.9553,199.1111,78.8936,-22.4050,-31.6481,45.7522,-32.2469,57.2375,30.6264,-79.3117,10.1035,13.7196
2.0572,9.6946,-8.3902,-192.7098,-10.6910,-147.6413,-31.0508,-25.4222,97.5631,119.8713,10.2439,-30.1379,11.8742,-11.9649,-1.3049,76.1002,-30.3634,-32.7229,-10.5022
25.8486,39.0049,31.9337,-100.9248,-28.0285,-91.6149,-36.2830,-41.6272,-4.7837,156.5005,9.8446,-6.7112,-20.0108,-20.2415,-22.8570,32.0537,26.7815,-24.5173,-6.5506
3.8961,21.0054,14.6512,85.0737,13.0900,18.9961,17.5494,-28.2949,-27.7008,134.8907,-51.8562,4.7036,-4.4259,-19.6887,-13.3228,-13.1018,58.2582,10.4095,6.7894
-6.0772,-9.9368,-14.1168,164.6158,29.8522,75.2530,39.7353,-28.7022,-18.8184,16.6727,-33.1779,29.6058,17.8026,10.7104,-12.7008,-5.1872,45.9243,-11.1824,-41.3303
34.3407,16.7014,-17.2772,35.5697,-30.2274,13.2553,-14.4650,-54.5363,-24.7855,-60.0817,69.6897,61.3754,-6.3608,29.0489,-7.9645,25.2942,21.9956,-81.6220,-112.7580
66.4094,57.7177,18.3850,-113.9454,-105.7269,-86.6959,-89.9241,-53.7860,-47.9663,-24.8056,96.7567,51.0533,-61.9907,27.2858,2.1212,53.0979,34.3969,-128.5735,-103.2222
41.0802,31.9327,31.3988,-89.6580,-122.1196,-92.2640,-107.6381,-6.9997,-71.3005,-3.2109,30.8554,15.9862,-92.7564,40.4734,-1.4468,64.7377,55.4888,-127.3678,-19.9952
-4.6591,-24.7960,-47.1192,39.6298,-85.0573,-12.2037,-55.2858,31.3869,-58.8778,-58.7408,-19.7780,14.1979,-61.9662,54.8476,9.7767,39.8213,40.9174,-103.2540,38.6810
1.5463,-1.9081,-126.6637,119.7370,-48.5415,44.3156,-18.1894,17.4751,-23.1530,-107.8025,-20.7983,48.1679,1.2768,28.7249,27.7682,-14.9611,47.5335,-74.7262,30.1951
78.9571,119.7376,-55.4146,124.9799,-36.4513,50.5221,-73.3471,-21.1892,-44.6945,-94.4026,14.6834,83.2857,10.6182,-16.2595,-37.7227,-61.2668,135.1790,-39.2942,-5.7298
151.1900,216.4541,113.5550,100.4760,-32.4613,48.0532,-164.7024,-33.9664,-123.6268,-34.1967,63.6618,91.1151,-68.3405,-21.7160,-172.0379,-63.6727,222.9322,-3.6370,-14.5739
134.1761,179.0077,174.2620,71.3566,-29.6547,39.5706,-185.1623,-11.3216,-138.6086,42.5467,68.8216,61.8529,-151.8200,12.1968,-214.4962,-24.7517,202.4058,0.7741,18.5954
61.4546,81.1596,53.3987,36.5330,-30.8550,13.4780,-121.3246,22.4390,-41.6793,110.5907,23.0609,31.6926,-151.8874,28.7236,-117.7941,8.6449,105.8135,-31.7450,55.6721
22.0759,64.2326,-113.0189,-25.2762,-15.7758,-21.8947,-29.2144,49.1733,60.7763,166.4465,-15.9929,36.3077,-87.3629,3.5698,-27.5853,11.6350,35.9592,-47.8894,59.9377
22.7026,106.5987,-141.6926,-116.7161,21.2039,-67.0349,25.8932,63.8453,74.5966,197.5617,-29.7750,33.7116,-26.1623,-26.3657,-40.6948,19.7305,20.8921,-10.8033,49.8325
25.3666,101.0510,-0.7647,-191.2888,39.5874,-107.9151,-2.2388,62.2820,26.8875,162.6470,-26.6848,-15.8340,-4.4146,-30.8847,-84.0280,42.6521,22.0469,43.1158,50.3962
21.6952,55.8135,123.8681,-202.7518,21.4668,-105.1868,-52.7626,45.8353,-4.0747,73.3233,-7.3369,-57.8385,-18.4618,-23.1047,-54.9446,34.7199,3.3529,67.7039,43.3314
-2.1306,18.6888,54.4720,-153.4246,2.5688,-61.6074,-7.4713,24.0691,22.7757,-3.3252,-5.1058,-44.8074,-26.2650,-16.7520,54.6928,-3.5370,-49.3221,57.6500,13.9061
-43.7457,-29.2570,-102.0891,-79.1595,0.5431,-17.1808,88.9415,4.8600,75.8677,-48.1451,-23.7132,-13.8308,7.5034,-9.5931,167.5146,-25.3379,-108.9818,24.1762,-23.9864
-48.5199,-78.6246,-115.5170,-22.6839,-3.2550,18.0383,81.6070,-2.1174,80.9986,-75.7763,0.5917,0.6512,43.5666,-3.6157,195.3930,-26.9289,-120.0907,-13.3920,-57.4228
-20.0295,-99.8367,-4.5365,-14.9410,-10.9375,37.6546,-5.7394,13.5650,21.2870,-84.2062,59.2387,-1.8443,28.4124,10.9288,127.5096,-14.4079,-92.2296,-28.6827,-58.5236
-44.1774,-143.4531,34.1669,-45.6976,-6.0010,22.5853,-16.7248,42.3291,-35.8405,-100.1285,68.5768,-31.9578,-3.8652,50.8293,43.3162,27.7678,-109.2404,-13.9814,4.9781
-122.5045,-237.1598,-33.2735,-50.5317,20.5007,13.4223,56.9675,66.6274,-44.5929,-146.4471,31.4922,-74.4429,8.3309,93.2790,19.0773,65.4343,-182.3819,17.7102,91.5892
-163.8210,-301.8217,-92.0168,24.9618,61.2735,64.7690,100.5747,91.7829,-26.6937,-176.2325,-0.4238,-81.4301,49.1087,104.7671,51.5312,55.8150,-213.9560,39.4756,121.1788
-144.3056,-285.0608,-95.9876,128.6013,79.7422,124.2013,76.0425,117.4228,-3.9033,-166.3789,-29.5656,-55.0449,62.7237,96.9532,80.4992,36.1817,-160.2108,21.5121,94.9051
-100.6342,-213.7907,-47.8818,156.9867,46.2451,122.2212,24.5988,111.5359,11.0137,-164.9809,-38.3312,-37.8636,39.2322,78.9126,59.0586,27.5672,-87.5844,-13.1785,64.5233
-47.1882,-121.6875,55.6797,121.0234,0.5679,105.0150,-8.3156,67.7581,-10.3521,-173.8102,1.8463,-34.2710,17.4267,31.4862,4.0100,-16.5366,-45.8846,-1.0591,35.4296
-10.6597,-51.4285,125.4275,106.6062,-2.5804,116.4323,9.6859,30.7295,-53.4710,-148.1486,31.0817,-24.4620,26.7744,-18.6595,-25.9368,-71.9606,-25.5440,44.0082,2.6369
-18.3106,-32.7281,56.4243,99.8176,17.9294,104.8412,59.1454,28.5639,-51.4664,-105.2704,4.4631,-8.7843,44.4344,-21.0125,-9.7557,-64.7931,-25.3804,49.2555,-4.1373
-35.8109,-28.2430,-58.0080,46.9142,21.8509,61.4508,79.4996,48.4380,4.2036,-86.4136,-18.6475,-1.4316,34.9312,-3.5374,12.2876,-34.2361,-47.3438,30.2477,25.5535
-26.7255,-0.1231,-46.4467,-7.7487,15.1091,46.0035,59.4484,75.0875,36.9590,-81.0580,-12.4927,-14.5725,11.5721,-20.3217,-1.7341,-51.2053,-56.6843,50.6940,62.1147
-9.7849,30.9248,61.3399,-15.8636,12.5886,51.3196,38.0682,91.3137,0.0896,-61.8198,-20.5980,-38.6401,-1.4246,-44.8770,-48.8438,-70.8229,-27.2733,86.8396,79.2593
-8.6531,26.1004,117.8914,4.1280,22.0210,47.1369,33.7102,80.1084,-63.4090,-10.2904,-36.2593,-45.7765,-11.8723,-32.1458,-82.9488,-45.5985,5.1278,91.6255,73.1299
-25.0511,-34.6271,88.2852,51.3497,52.2421,66.9058,42.2374,55.4003,-90.0362,74.5580,-27.9815,-32.6249,-9.0592,-5.0175,-59.8292,-21.5817,-5.2674,79.4721,56.5391
-34.7947,-90.3651,22.6838,105.5277,73.0595,98.7871,49.3947,34.6549,-75.5470,144.5899,-7.5012,-8.7550,26.5255,-3.5631,-10.5546,-28.2157,-24.9807,56.2693,38.1483
1.5565,-36.2988,-26.0510,96.8157,48.8586,77.1243,28.1847,7.3678,-59.2689,157.9653,14.6200,29.4799,56.2070,-27.2960,-10.0880,-39.9732,12.2069,16.1025,8.9328
42.4869,41.7946,-6.8050,52.8858,18.0743,30.8500,-7.6928,-19.6301,-42.5666,154.2568,24.7669,44.2216,50.3356,-47.5019,-37.3583,-37.7595,59.3310,-6.1462,-18.2241
-7.6638,-54.8278,38.1707,49.7408,19.2328,14.1833,-2.6836,-20.4915,6.8150,182.2691,-1.5285,-10.9924,46.0693,-30.5033,-6.5120,1.7694,6.0626,-15.1005,-8.0007
-91.7979,-207.9404,-9.2548,16.2629,8.9474,-24.6484,32.9165,-9.0937,59.2376,216.4564,-20.9761,-62.5826,42.8401,17.9707,45.2452,78.0491,-96.6965,-64.2348,20.1656
-59.1013,-120.8845,-115.8303,-108.2620,-33.0311,-102.3235,30.0108,-5.8454,50.0604,212.0680,15.6059,-16.9680,4.5103,31.7272,12.2141,107.4052,-86.1591,-112.4503,19.3587
43.4745,106.4946,-124.8629,-183.1370,-49.7945,-123.1055,-0.5918,12.1848,-1.6840,165.2848,37.3563,47.9426,-16.3448,-21.2174,-65.2712,40.9082,22.0634,-72.8093,16.3272
53.4949,146.1072,-42.4594,-115.0299,-23.2987,-66.7704,10.0959,44.0426,-42.8027,98.0766,-10.1411,28.0847,29.6037,-64.2562,-83.9498,-23.7215,66.6432,5.1560,44.9864
-4.4171,25.1399,0.5405,-31.3868,6.3429,-24.5338,43.9514,40.3167,-87.3415,47.4437,-32.6931,-8.8136,60.0074,-24.6286,-76.3057,6.3163,28.4384,18.9817,49.4272
-9.7858,-20.8514,-3.0345,-40.6926,29.1047,-34.7363,36.5772,-2.4046,-130.1533,50.1754,19.4203,12.4279,21.5244,43.6239,-96.6066,75.4682,8.9234,-7.1202,-6.6924
22.8642,27.6244,7.6473,-90.2356,49.0749,-61.9442,10.0210,-31.9664,-104.7516,95.0670,44.4117,33.6969,-8.1061,47.5791,-86.8208,91.4122,23.9937,-2.6390,-60.9035
38.8770,81.7757,23.3822,-84.7331,50.2224,-60.7824,11.2366,-33.7400,-34.0732,119.8643,3.8765,26.4274,1.8347,-1.0191,-36.0534,48.1520,44.4602,21.2161,-74.0168
61.0935,125.1045,45.7697,9.9901,40.6382,0.2636,5.4375,-40.4885,-30.7468,80.0217,-5.1649,43.1011,-4.5300,-26.8790,-42.6245,-10.6698,86.4954,34.0902,-78.1405
92.2256,137.4846,96.9012,103.7500,40.1747,68.6162,-36.7299,-66.9517,-100.4648,3.6732,50.6738,71.9346,-20.1625,-14.7555,-112.5836,-44.8618,127.7223,45.2286,-82.7145
88.9831,109.9261,114.3200,53.5938,33.6170,40.5269,-57.8860,-85.8774,-129.8286,-35.7248,89.8480,60.3267,-11.0987,-1.3166,-132.4459,-30.2096,103.9585,51.2559,-70.0982
52.0215,85.9212,39.7345,-101.9809,10.1296,-60.2206,-24.8000,-62.9587,-58.3279,-3.5088,64.3318,26.6606,-11.5437,1.3138,-67.1101,16.6524,30.1396,28.3188,-47.9838
20.4178,75.6186,-43.6069,-169.6044,-6.9335,-106.1772,3.9956,-14.5676,55.9229,46.7566,10.9352,6.6223,-32.9028,-2.1521,7.2874,41.4113,-15.8089,-6.1483,-27.9356
10.0871,54.6580,-22.4193,-89.0529,-3.2042,-60.1341,-7.8484,2.8024,107.3677,32.5505,-23.2714,-9.1156,-27.7800,-16.5136,35.2695,12.6499,-7.8332,-0.5434,-12.2372
4.7813,15.4477,70.0923,44.3515,11.2537,22.4941,-19.8577,-11.1659,63.1913,-33.6920,-33.7474,-26.3882,5.0383,-28.9819,29.4654,-35.7385,16.0408,38.4465,-6.9767
-11.9125,-36.6611,100.4452,145.1257,22.3686,86.2688,-6.9371,1.0648,13.4909,-39.8586,-45.9846,-29.5929,28.4294,-23.7279,27.6795,-49.2941,23.7859,39.3496,-4.0684
-18.0560,-43.5509,35.7876,153.3257,19.9964,86.1870,9.0787,36.4924,26.4455,35.9623,-65.2235,-12.9531,39.4019,-24.4043,38.7410,-33.2934,29.0138,-2.7184,1.2982
15.6464,48.4812,-4.2970,71.3054,0.4826,33.9525,13.6451,32.0991,41.3360,45.5762,-62.1053,11.9965,33.4406,-45.6153,33.8071,-35.0416,53.1171,-12.9190,-19.2275
