Fp1,Fp2,F3,F4,C3,C4,P3,P4,O1,O2,F7,F8,T7,T8,P7,P8,Fz,Cz,Pz
-30.9509,-46.4111,-59.4104,22.9475,-8.5160,98.0648,-147.3944,-33.7924,-156.4902,-27.0957,27.5132,-26.8943,5.2319,26.1201,-34.8069,-10.5280,-8.1258,84.0890,-93.1399
18.8402,-19.4810,-5.4339,21.5409,3.2337,38.9099,-221.4401,-128.2301,-206.4746,-67.1817,42.9712,-39.0352,-2.7412,-20.8902,-50.7068,-42.1533,14.6972,28.5717,-169.8643
76.7626,22.6610,123.3492,-13.5880,-0.9144,-66.5911,-114.1564,-181.8316,-119.0681,-90.8711,23.9109,-50.9594,-24.0025,-86.2773,-58.0957,-58.0074,37.3550,-60.4012,-113.6866
67.2899,29.7862,177.0541,-14.8880,15.1597,-58.2239,-37.9490,-87.1661,-110.6443,-59.5592,4.4321,-66.9653,-44.8495,-98.6244,-60.4866,-50.7828,51.7403,-38.2714,0.5994
34.4314,24.2713,90.6526,-14.5467,-23.6580,-59.8343,-62.4742,-2.5922,-79.7789,-15.4139,-4.3056,-68.3018,-71.8019,-119.2542,-57.1950,-101.0800,7.4851,-41.6852,19.5214
44.6855,46.5254,42.3521,-47.9794,-90.4087,-148.3738,-21.7788,-54.9288,82.8593,-20.3042,-13.8877,-37.1780,-90.2731,-181.2329,-55.0656,-194.9634,-44.7274,-129.1826,-17.7001
62.1714,62.2631,69.4714,-42.4505,-97.3174,-151.4560,-0.2577,-121.1706,99.4460,-52.9275,-12.0631,-22.4402,-68.5019,-203.1001,-66.9387,-238.3218,-37.6101,-125.2107,-37.6735
47.7708,42.8721,-6.3369,-2.8499,-138.4669,-100.0912,-77.4375,-88.7899,-14.8287,-40.8118,-12.7729,-54.3214,-47.7642,-171.7847,-70.0755,-220.4198,-53.0270,-86.5342,-33.2554
21.5156,11.8853,-130.2915,-21.0006,-239.8362,-136.3899,-48.2338,-4.0498,37.7988,12.8498,-37.7623,-71.5399,-83.5317,-128.5624,-48.0610,-156.5178,-116.9017,-149.0317,38.2977
-13.2587,-30.8090,-124.1829,-58.0410,-211.1508,-104.3196,37.8395,76.3726,37.7681,40.4144,-42.2845,-52.4960,-109.6095,-46.4035,-31.2817,-39.8410,-108.7051,-126.2022,133.3928
-58.3553,-85.7044,-104.2845,-51.4348,-79.2360,48.3499,-21.6038,138.9005,-155.6171,44.9011,-15.0142,-54.1692,-49.5664,51.2896,-12.9766,61.4499,-59.4153,27.0311,140.6686
-90.7359,-116.8222,-173.8245,-70.2503,-62.3021,90.1000,-0.3643,181.9156,-48.2600,76.7399,-29.1226,-74.4035,24.1338,84.3127,38.1107,96.4927,-96.6671,59.6532,139.5667
-122.9466,-135.6910,-163.5041,-103.7495,-79.0261,98.8922,176.8008,219.4552,272.7462,103.6248,-65.8917,-81.9641,28.1732,96.1107,60.3627,131.2937,-127.7119,61.6643,197.4616
-164.8608,-168.2100,-80.6905,-48.4522,24.2471,267.9272,98.2713,235.3676,97.4580,79.4139,-31.1721,-107.2036,16.2690,137.3119,10.6478,163.9007,-55.7352,236.9897,145.8839
-155.4375,-152.8786,-126.7476,11.3920,78.7228,310.7586,-129.7380,202.2328,-283.2484,62.7627,20.5031,-124.5886,52.6707,121.8383,3.6648,110.5548,-27.9465,289.5336,12.9194
-85.1846,-70.0791,-211.9021,-42.0039,-9.6016,72.0056,23.9659,165.2075,-116.4667,95.6477,-12.1393,-49.9051,103.7084,60.5996,96.1257,46.4698,-97.1813,55.2258,69.4989
-50.6270,-24.3506,-156.9127,-65.7789,-42.2675,-19.8166,313.1628,150.2784,205.4017,103.3502,-52.0294,56.2646,118.9799,93.8178,142.0980,91.5501,-93.1774,-43.9176,202.1192
-68.4089,-37.4191,-69.9261,59.9957,29.9929,170.7618,224.6857,84.2968,110.3011,42.1880,-11.8645,64.0913,99.2458,175.2171,67.8972,149.6955,12.0703,133.7086,95.3755
-46.1485,-20.4558,-40.6344,172.9064,67.1048,257.6984,21.6023,-35.5830,-34.5807,-27.3238,31.8167,15.9158,80.8422,159.4594,-4.0782,111.8256,85.2618,222.0099,-82.0451
13.2192,-0.1545,-5.1135,142.3260,52.7255,178.3781,-2.8417,-95.0811,-5.8641,-61.6721,24.2250,13.4116,82.4431,113.0707,-11.7350,72.9811,93.5690,145.1812,-51.2952
14.7321,-52.5574,-13.9768,58.4350,11.5777,153.7490,-58.4241,-69.7793,-51.5380,-63.6820,16.2028,22.3213,60.7894,134.7172,-18.0302,105.0485,55.9991,99.0680,11.8341
-38.3466,-99.3707,-75.3449,6.2878,-53.1751,131.1462,-110.2638,-34.2739,-39.5541,-30.9673,14.8950,1.1826,-6.2828,138.2667,-29.3431,129.4811,-15.2053,68.3602,-51.6370
-60.6095,-58.8038,-27.1424,-17.2143,-40.2864,49.6979,7.6263,4.8543,103.9198,13.2697,-2.1189,7.1674,-38.9988,81.0418,-10.3246,107.3308,-35.8831,28.4064,-68.3886
-34.5542,0.1052,91.1627,-11.3397,57.0005,24.9946,52.5351,63.0312,55.1901,30.5553,-6.3653,66.0274,-0.2835,51.7318,13.6797,75.1911,15.9413,43.8027,4.7869
-7.2007,28.3102,89.3115,16.2190,78.3688,19.6980,-38.2594,82.3685,-41.2192,30.3013,4.1501,129.2042,18.0498,57.1794,17.9159,40.0958,38.8645,37.1353,15.4513
1.3052,61.7225,36.1340,45.6935,27.3653,-35.5185,8.3464,35.2548,111.9112,28.6778,0.7201,155.3574,-12.4969,40.3809,16.8186,7.2023,25.1081,-20.1484,-32.9999
6.9655,79.5755,44.3373,57.9419,26.1331,-53.0379,70.3469,-15.8235,123.8970,14.5931,3.0542,115.9416,-11.4992,5.2931,13.7326,-14.6783,30.9018,-23.8761,-61.6880
17.3114,45.7208,7.5578,4.7853,9.1801,-72.2554,-71.8811,-29.0828,-164.5541,6.2958,16.5510,9.8845,14.4982,-57.6333,11.8720,-60.6212,-9.0217,-42.5503,-86.8924
19.7961,15.6051,-68.7051,-95.9397,-76.9722,-181.9905,-155.5417,-34.9016,-197.0764,22.9590,1.6387,-84.0595,3.0302,-152.9928,20.8195,-127.4527,-109.5795,-151.2186,-115.0534
7.7950,31.0564,-44.6864,-114.1214,-101.8160,-229.7805,-56.6337,-54.6383,54.0816,30.7649,-22.8524,-85.5765,-14.2622,-184.5727,21.5516,-138.0905,-134.1389,-178.9768,-137.3662
-7.6869,48.0809,-4.1253,-32.2051,-59.8896,-147.5690,-44.1307,-52.6906,71.9849,24.2160,-12.6529,-26.7977,-12.2468,-112.3884,7.0190,-81.4786,-76.5794,-92.3944,-165.0486
-14.9042,41.4381,-61.6617,-1.9925,-80.2456,-130.7013,-106.4868,-10.9192,-49.5669,43.0852,-1.4595,7.1616,-28.1277,-56.5834,11.0583,-39.1747,-75.1419,-94.7280,-158.6484
-8.5712,31.1098,-92.2527,-69.6668,-123.0308,-208.5289,-59.8594,5.9373,4.3549,61.5642,-19.2567,-2.3486,-32.6283,-79.9612,35.6019,-42.9387,-123.2751,-176.8314,-108.4055
8.4746,12.0127,-42.9900,-137.2491,-102.3872,-226.6804,-29.1945,-50.2684,24.1402,29.1771,-23.8262,-17.5413,7.3998,-100.7955,42.5406,-49.6560,-130.5108,-188.1455,-92.1347
19.3878,-23.9295,-40.3348,-171.6871,-80.2454,-199.1234,-91.4852,-111.7133,-94.1042,-14.6431,-2.0576,-18.5721,21.1382,-79.3276,30.3165,-36.7535,-119.3918,-173.6275,-110.9995
19.3934,-44.4048,-73.3780,-177.4848,-83.3400,-186.8028,-90.9750,-113.1767,-70.8278,-23.3809,5.2653,-13.9724,-10.7110,-54.0223,22.4674,-16.9601,-111.8757,-182.6796,-90.2400
29.5813,-27.1206,-46.2508,-121.3422,-56.3831,-141.4390,-35.4759,-92.7741,82.2759,-25.3335,-5.4002,-5.9641,-13.3751,-31.0934,16.3995,1.6226,-65.4157,-146.1737,-41.5469
48.2605,3.5415,-0.7765,-47.6966,-16.7884,-91.0713,-33.8618,-76.5972,62.7153,-32.0075,-2.1774,17.4049,-1.3374,-6.7262,6.9967,12.0193,-4.6602,-95.9410,-9.4294
48.4675,24.2931,28.2192,-28.5391,15.5096,-89.0297,-46.2689,-39.4252,-140.5850,-21.7124,19.5126,58.7020,-28.3983,-0.4235,1.1095,4.8357,25.8498,-85.8136,10.2833
42.9694,46.9069,83.8320,-0.1018,75.7613,-58.1408,-38.3745,-12.1074,-218.6182,-17.3656,35.6780,94.9380,-40.0034,-0.9280,-6.1826,-11.5501,66.7715,-42.7471,9.7821
62.0090,83.6633,131.7101,98.7521,130.2921,22.2909,-16.0064,-38.1937,-11.9015,-40.4714,28.2939,93.9066,-3.2654,4.7010,-18.9407,-27.0117,134.2604,38.3115,-5.7876
87.6026,117.5775,131.8953,173.8476,129.5977,49.0666,35.5658,-80.2587,174.4556,-61.0155,15.1439,53.0724,15.5154,-21.0162,-29.3781,-61.3571,168.8506,62.7648,-5.9962
94.0901,128.1553,138.5274,153.6495,118.0293,10.3265,35.8064,-100.4375,9.6281,-65.1451,27.0045,7.4848,1.8025,-88.8627,-37.6612,-125.0408,154.5765,37.0890,-20.7304
84.4511,116.9559,150.0252,99.9331,117.2533,-25.0691,-32.4046,-101.7946,-200.5562,-60.8611,42.5423,-18.9016,-6.2911,-139.9047,-41.8828,-168.7779,122.1830,17.7969,-63.5798
51.0014,92.0007,107.6726,55.0457,91.5912,-47.0737,3.2095,-68.5283,-47.2594,-33.7134,23.3422,-34.8162,-18.4645,-140.4583,-28.0443,-150.8402,74.2494,1.6606,-62.7677
2.1351,58.9156,61.9356,-1.9079,71.5114,-58.0660,124.4331,-14.9452,133.5382,2.4260,1.0464,-38.5940,-33.6394,-121.5553,-3.8665,-112.4157,25.3070,-5.1481,-18.9360
-9.7295,32.4858,86.0622,-50.2479,97.8038,-46.0052,115.1178,2.8362,-24.6982,2.4702,13.6845,-26.1902,-26.4221,-107.6137,1.8714,-95.9541,20.2001,7.2445,3.3488
20.8627,24.7269,128.4937,-45.5900,122.0583,-26.7783,41.7124,8.0825,-159.2203,-15.7726,21.0321,-36.9519,-21.0295,-92.8625,-10.2480,-71.7821,55.7259,14.7010,47.1179
35.9602,25.0045,120.3642,-11.1640,102.9650,-12.5228,85.3302,50.3412,-36.0071,-5.4238,-4.5563,-85.9710,-29.3826,-78.3552,-12.2412,-30.4527,74.9750,15.9325,139.6202
22.1076,7.8954,71.8776,-23.6332,58.6406,-12.5985,129.8350,64.8156,26.3006,7.8222,-20.4238,-108.7764,-17.7895,-71.0250,-0.6647,-19.2367,41.0174,7.5229,167.9557
5.5278,-40.6405,14.5790,-106.9629,2.2275,-38.5478,74.3777,3.6277,-2.3987,-11.3624,-13.9673,-79.6521,-1.7215,-57.4655,3.7651,-24.8693,-28.8311,-32.0999,103.5615
-14.3860,-93.4249,-11.3842,-169.5865,-34.9663,-36.8518,55.1202,-31.7176,98.6036,-27.0186,-18.5972,-51.6611,-7.7083,-10.2143,0.1899,25.1938,-69.4031,-48.5635,74.7444
-24.6649,-95.3122,28.7666,-114.6266,0.9913,39.4082,93.0496,26.2120,157.5667,-12.1566,-25.0900,-14.6012,-3.4116,74.5940,3.6062,119.1368,-21.2501,13.3329,127.2631
1.5410,-37.3534,93.1948,11.6194,87.9707,114.5155,86.5343,87.3951,33.8456,-2.1537,-4.4711,86.3277,6.7629,156.9617,8.4974,170.9387,88.4390,79.1199,178.5472
36.3336,28.4194,120.2653,109.2999,151.6152,130.3353,71.5836,69.9872,-45.5910,-19.2406,26.7850,197.2474,-7.4814,196.5264,1.9033,161.2832,176.9559,95.5044,165.7838
46.5251,69.0874,131.4088,180.7668,177.3922,153.1921,80.0407,7.4905,-14.9095,-42.8413,41.6742,232.3119,6.1036,202.8551,-6.7882,140.7086,217.5019,129.0482,92.2395
49.9219,87.3021,156.1513,240.3149,186.0708,203.6153,61.2141,-32.0355,29.4784,-55.5941,37.4992,208.3537,62.0452,199.4749,-8.9462,132.4693,232.6139,185.3944,27.3352
44.7406,74.0428,154.4816,230.0926,175.1946,209.8121,59.0975,-12.9188,124.8164,-47.9623,20.7727,155.2503,63.2852,175.7420,-12.2204,126.3292,217.3822,191.0822,41.6965
12.5593,39.6162,111.3135,163.0475,149.6920,171.1365,93.0201,50.6136,136.5793,-13.1596,8.4680,73.6606,13.1350,130.3903,-9.5135,119.6606,167.3354,159.4932,84.7431
-2.4760,33.6779,81.1762,139.4180,126.8051,144.1032,47.0754,98.1946,-106.4783,22.4426,14.4605,29.7796,25.4626,100.6763,9.7640,106.1250,125.7896,139.5073,75.7891
36.3277,63.8222,86.5541,158.6846,105.3372,114.6988,-52.4396,88.2223,-268.6599,21.5245,18.4800,73.3086,78.7390,95.3668,24.8518,74.4969,121.2384,103.6452,61.9966
72.3528,83.0923,88.1184,131.1836,76.7037,40.1311,-24.1158,48.3115,-23.1599,2.6104,-3.7748,114.4245,70.3010,73.4364,24.3710,43.2990,113.2496,30.4074,92.6171
53.8716,73.8722,62.8435,50.2037,33.8175,-60.9071,102.8037,28.5521,271.6591,13.9031,-35.3114,69.6640,27.2231,18.6374,32.0784,34.6378,56.1687,-43.5990,99.6584
17.6371,53.0809,29.0077,-20.3802,-21.9894,-127.4314,123.6746,33.3840,208.4172,43.5918,-43.9889,2.4229,16.9460,-35.6537,45.0390,20.4790,-24.1251,-87.9307,51.2849
10.5575,29.7838,8.1704,-49.9592,-54.6755,-120.5807,24.0131,24.5979,-14.8665,38.5994,-26.9713,-5.5381,25.0121,-56.8576,34.5702,-24.6786,-60.9052,-91.9215,11.3793
20.9516,10.7032,-2.0403,-47.9435,-38.7122,-66.9613,-33.1042,-16.8474,-70.6066,0.5388,-6.9695,22.0092,36.8014,-42.4995,16.2202,-58.2688,-43.7366,-60.9628,0.8200
16.2440,-7.4943,-21.2636,-44.0147,-16.3042,-20.5959,2.4492,-53.8255,8.8957,-22.9767,-1.2957,24.4004,55.2640,-14.4179,17.5033,-44.5775,-29.4433,-26.5776,-3.7951
-2.8329,-38.3405,-44.6629,-52.7419,-16.3382,19.6789,36.0147,-34.8268,42.7310,-17.2837,-4.9249,-6.9017,57.8438,8.9712,22.4152,-11.2131,-36.6070,-1.4721,20.2377
-12.3485,-64.5327,-43.8116,-45.4517,1.6047,72.0844,35.5571,46.3871,26.0270,6.8321,-10.3237,-39.2831,47.0442,38.0467,26.4829,34.1912,-23.1621,25.9740,94.2868
-19.6786,-68.1699,-42.9595,-29.1413,33.9542,90.7353,79.8854,141.0139,114.0929,48.8014,-25.2132,-55.2216,38.6817,74.0924,51.9847,104.0395,-4.0598,31.8745,169.6264
-47.8967,-75.3467,-98.3565,-64.6714,11.3523,38.9827,174.9154,174.5563,304.9150,86.4082,-42.9829,-59.1932,12.8351,77.7792,81.4315,134.9581,-45.1658,-16.3725,176.0331
-62.3227,-81.2005,-161.9232,-121.8132,-47.8634,-30.8787,206.5398,122.6579,333.3731,83.3907,-37.5363,-37.7866,-9.5328,39.9619,86.0115,75.6353,-108.1190,-84.7754,117.4917
-14.9989,-35.2885,-118.5482,-96.1955,-40.7376,-59.2054,142.5745,67.8569,103.3399,59.1015,-15.1517,11.0779,31.7055,11.1504,88.3025,11.2502,-86.6545,-112.2794,81.7927
48.8614,33.6950,4.2462,-15.5597,32.0443,-52.5470,79.3110,86.5840,-103.8917,59.9014,-8.1082,26.0770,96.3837,3.2665,103.8616,15.2282,-7.0765,-97.3128,105.2100
52.5050,43.3369,54.1651,7.6714,62.9166,-38.4166,57.4688,116.9837,-90.4561,72.7978,-13.6190,-27.5972,91.3690,-21.9753,98.9597,22.5384,13.6599,-77.3601,99.0448
17.6423,16.7027,8.1319,2.5014,33.9134,-18.6721,49.7266,85.0393,25.9047,63.9990,-9.0617,-71.7163,39.4447,-44.7458,68.4833,-3.2434,-13.0195,-60.8285,21.0239
13.1789,30.1152,-4.1700,59.8487,38.6029,19.8733,78.8512,55.9980,119.5373,52.1883,-0.3235,-40.2175,23.0165,-12.6331,56.9668,7.8052,15.3039,-34.0070,-17.8521
31.4745,56.1370,54.9346,121.0953,100.9681,73.6663,156.0442,93.8270,168.2685,59.2829,0.6421,7.8080,40.8901,42.9404,74.1010,60.5446,83.3066,-0.0580,47.3291
23.4827,31.8959,88.8392,90.4759,144.0473,113.0698,217.8388,128.7574,155.4120,63.0048,3.0096,1.9041,47.7416,54.7021,84.6699,76.7668,95.6592,24.0406,110.7943
3.4405,-11.0585,69.3761,26.1561,139.9099,119.0644,212.8130,98.7546,100.9973,47.5611,16.4631,-27.7233,33.9378,34.1843,76.6559,53.6597,63.6005,21.3851,82.7849
21.5434,-17.5373,61.5949,18.9961,127.8928,100.0656,133.1051,49.2729,28.4754,26.6273,36.6957,-17.3313,9.1008,33.7963,64.2355,48.3175,63.7687,-19.4266,20.8180
65.9662,-2.8628,74.8137,33.0850,111.2897,63.7500,24.9574,29.1255,-36.3314,13.7286,47.7594,37.2827,-9.7186,55.6046,57.4299,61.3351,81.8137,-83.8692,3.9564
77.6948,-0.2983,68.0708,11.5322,73.6694,24.8847,2.8124,29.3316,25.4282,18.3185,35.2518,77.9735,-2.0080,60.7351,65.2347,57.7686,56.1843,-130.0507,10.8993
46.6222,-10.2163,37.4841,-16.2342,28.1042,9.7876,74.7279,24.2763,212.2987,36.2602,10.8489,48.3962,16.2835,31.5715,78.4958,35.5722,-2.2287,-135.9268,-19.9771
21.0233,-24.0169,3.4344,-16.9346,-16.5276,9.9399,86.1267,5.8107,282.4986,43.9152,-0.2007,-27.5218,11.5405,-0.7165,71.3377,26.0577,-41.9248,-129.0975,-77.7290
31.7725,-28.7416,-6.1245,-4.0439,-42.7633,-0.3518,11.8354,-7.7668,167.8532,40.8999,6.9693,-63.1515,-2.4617,-1.3220,60.6680,45.4749,-44.3706,-148.6783,-110.1939
65.0200,-6.2374,30.6193,15.4440,-19.1210,-13.0565,-27.4962,-18.5197,41.5770,41.9939,28.7964,-26.8534,3.4263,4.8541,76.8874,47.3384,-20.1345,-192.7442,-142.5965
99.5701,33.1088,79.3057,46.1993,18.9168,-22.3852,-80.6990,-69.0588,-96.6946,24.9959,62.4641,21.1621,10.4224,-21.5463,79.2923,-9.6631,11.2358,-220.5905,-225.9072
121.5757,55.7764,94.6919,80.4421,9.2084,-34.3746,-218.6208,-131.9270,-240.0704,-13.1944,77.8040,20.0175,-0.5354,-50.7293,35.1898,-56.4032,32.1759,-204.0750,-294.2653
112.8298,55.6243,95.5210,111.9266,-17.6745,-21.0202,-246.5267,-107.0027,-127.2923,-11.3705,46.8678,-22.0046,-2.3600,-40.6091,9.7818,-20.4391,37.3518,-156.9367,-258.8417
75.9902,56.5719,109.9055,138.2610,-4.3042,27.1137,-71.2367,-11.0351,163.7554,40.7965,6.3412,-47.0524,17.6852,-13.8230,41.1697,36.6627,35.8794,-108.5420,-176.6229
57.2109,74.0579,141.1281,165.6684,42.6019,65.1167,31.2950,44.3983,138.4738,69.1878,11.0461,-16.0897,28.2330,8.3160,63.8742,53.3914,60.5271,-70.6721,-141.0109
83.3443,104.8995,201.0441,223.8614,108.7708,93.6151,-83.4698,63.5153,-172.8342,55.2485,46.3205,42.1357,11.0467,40.7795,40.9617,66.8200,138.2756,-31.6315,-133.1652
108.9147,135.0946,259.6388,310.0842,173.5341,155.0754,-175.3927,95.4994,-219.0735,43.3766,62.0759,76.2308,-16.4353,63.0427,8.3610,66.6061,223.0942,24.4738,-118.2401
96.2806,145.2374,261.2879,354.6456,193.9157,221.3856,-92.2376,81.4839,37.8598,26.4781,55.5292,85.1251,-27.1291,48.1552,-13.9497,8.0245,248.2692,86.4589,-114.7371
81.9542,131.0481,247.5400,330.1714,200.8563,248.2458,7.8145,11.3565,123.3268,-12.2669,58.1823,91.5308,-6.9513,41.1802,-22.8985,-29.1308,244.9401,126.5610,-111.7617
94.0284,114.2196,276.5894,305.2945,252.8436,261.0178,-10.9965,-2.4819,-76.3433,-29.7234,77.2497,96.8989,20.8116,78.8476,-10.1649,25.9041,273.5285,141.0061,-86.8937
100.8311,110.5944,288.9295,312.2574,292.0745,272.7651,-66.2402,53.3357,-220.0063,-6.7096,90.2188,101.6777,21.2314,108.0699,8.5642,71.7313,294.1107,135.4256,-69.9109
82.9810,101.6589,240.0997,289.4240,251.0770,256.7809,-27.6587,83.5025,-81.4645,19.4497,75.2842,89.9618,12.4713,79.3183,21.0857,31.4478,245.9844,104.4409,-66.8912
59.9275,65.3901,186.2980,210.7137,182.8795,224.9116,79.7013,86.9729,172.8724,35.3496,38.2227,24.4662,28.7829,26.7046,40.3112,-9.7561,161.8038,63.1697,-33.1527
52.4725,19.4124,147.2955,133.3814,139.7300,194.1703,111.1075,97.2567,201.1606,45.3890,17.9901,-57.6116,43.0244,4.4153,58.5826,7.4770,105.0477,22.3524,13.8292
72.0345,-3.3270,102.0701,82.0435,104.9884,133.5036,32.8547,59.0012,-40.9158,29.9920,39.7917,-60.2297,23.6245,13.0705,60.5079,28.0719,82.9420,-51.3762,3.3117
97.3758,-3.9309,78.3067,21.1950,71.7969,40.0012,-19.1880,-27.7284,-196.9338,-2.0892,64.8019,7.1815,1.8677,15.8267,59.7738,17.6634,60.5647,-145.7009,-46.9330
80.6406,-1.7096,81.3042,-36.8892,31.9517,-29.1796,34.4065,-48.1377,-58.0118,-2.9921,40.9430,49.4744,-0.1594,5.0706,58.9270,10.8242,17.3975,-172.9194,-41.9586
38.6855,6.6545,76.4045,-33.2934,-22.6544,-45.5104,114.3969,24.5600,135.8231,32.0268,-8.8894,47.6968,-8.1064,8.7554,47.7154,32.5021,-14.9240,-132.6188,33.0213
43.4154,28.4759,78.7324,8.4838,-39.7421,-49.2599,131.0117,75.9034,129.8848,57.1026,-21.9721,27.8850,-18.3900,6.2249,48.2138,44.1956,-4.6214,-133.2691,77.9039
81.3628,40.7214,87.2914,-12.5846,-10.5046,-91.8896,70.2586,34.4220,-15.4305,49.7478,1.2386,-29.6721,1.1147,-67.7167,68.4526,-18.9398,-7.7706,-195.4421,16.3586
72.3514,17.9140,38.2792,-111.3970,-36.3743,-166.6463,-21.5362,-50.9154,-112.7839,28.2417,9.6359,-115.3122,30.4949,-183.8817,68.6305,-132.6605,-89.7122,-235.3583,-100.3314
21.7735,-21.5344,-50.0159,-180.2968,-134.4592,-207.8260,-63.2841,-103.2409,-82.4825,14.4349,-6.8780,-159.9256,20.6577,-225.3635,37.5919,-179.1914,-183.1811,-226.6074,-165.6835
-4.6613,-35.5267,-77.9698,-149.2059,-180.0035,-177.1264,-36.8423,-93.0764,-11.9147,14.2835,-14.0093,-134.4261,-25.7258,-166.3036,9.9285,-122.6057,-180.2966,-197.5867,-150.8899
-0.5963,-19.7603,-31.8712,-72.3499,-120.2788,-105.4606,-11.6312,-45.3567,-26.6767,19.6955,2.6811,-65.4030,-60.8109,-83.0066,1.9993,-48.8619,-99.9138,-150.8434,-109.4785
8.5353,-9.6221,29.6965,-25.8922,-23.3513,-27.7280,-4.7424,-9.8679,-78.5933,18.6297,26.0455,12.6127,-50.0665,-12.4017,13.2472,0.3838,-24.5898,-97.6893,-82.3665
21.2759,-16.7738,72.2720,-8.0183,55.0605,43.5541,31.8109,-8.0077,-39.7930,10.1070,37.5434,56.5610,-0.5906,49.6330,42.2478,52.4748,23.0867,-61.1476,-63.4943
25.4684,-17.2303,65.3848,24.0958,89.4198,91.1107,82.3148,-8.6072,57.9649,8.0992,31.3283,46.6123,45.3055,86.1315,64.4664,93.2581,49.0881,-24.2524,-41.2854
2.0495,-10.4147,4.7957,67.6856,75.3767,117.2161,110.5528,21.9395,138.2292,22.6116,17.9476,25.5117,47.0561,96.6489,61.2982,95.8496,48.6902,22.6524,-19.7853
-26.8949,-18.9877,-34.2643,76.9760,64.3712,143.6012,148.3555,62.6165,209.0267,38.9530,16.5735,39.8092,12.0220,105.5813,52.8376,82.5108,40.3888,43.7889,0.1260
-24.4726,-30.8559,6.4506,48.2855,89.0824,158.1466,201.5706,76.1918,216.9436,37.2883,26.8679,78.9066,-10.2384,114.0229,55.3810,77.9110,51.1577,28.4482,33.9005
4.9686,-20.2984,75.4046,30.2697,104.4790,137.1136,221.5752,81.9530,126.0509,31.0845,25.6364,103.1982,3.9639,117.0705,62.1343,91.6454,71.2732,4.2834,94.8156
23.5838,-4.8970,89.9057,26.0106,82.6369,87.6742,212.9611,113.0034,70.8880,45.7384,6.7992,89.0785,15.6666,114.0981,70.9033,119.9300,68.2888,-25.1431,155.3040
11.2309,-10.6241,39.1946,-15.7989,45.4813,17.8934,197.5366,133.0097,85.3466,68.3842,-5.8315,41.4449,-7.3648,72.5193,77.0632,106.2479,21.8036,-72.4013,151.0490
-5.5733,-22.6476,-13.5617,-82.2829,-4.6049,-54.2111,138.9228,96.0564,17.7374,71.5110,-1.2145,-21.0940,-23.2529,-22.8517,71.2035,13.1115,-53.6731,-124.5102,62.0808
3.1526,-18.3905,-14.5874,-97.6148,-62.6549,-85.1998,42.9110,39.1191,-89.3878,61.3311,-0.0348,-82.7874,5.7012,-109.3127,59.3770,-79.0915,-107.3572,-151.8134,-39.1884
15.1843,-3.4053,2.6224,-63.9935,-93.0406,-85.5120,-8.5963,19.9717,-51.9225,55.9002,-14.4270,-117.4328,24.4941,-131.3708,45.2370,-91.2163,-110.9359,-142.7797,-71.8723
3.8449,-0.1437,-18.5738,-63.0682,-99.1183,-110.2475,-2.1515,37.3721,49.7149,56.0315,-27.1571,-108.7335,-18.7424,-120.1844,25.0966,-70.4029,-102.5869,-134.0221,-36.7358
-1.5874,-23.4975,-51.2853,-113.6217,-117.0342,-145.1441,-3.1944,71.0173,42.8389,61.1340,-28.8503,-102.8435,-72.0244,-121.0913,15.1107,-69.6652,-118.4184,-170.4566,27.3679
15.4966,-50.3175,-51.9122,-147.2168,-130.2540,-148.2784,-6.1337,111.5303,17.0926,71.3698,-35.7557,-142.0211,-79.6452,-125.4599,24.2301,-55.4547,-128.2466,-210.2180,102.2281
9.3693,-39.3899,-51.6793,-120.5723,-105.9746,-137.7262,55.8214,141.6312,110.0114,81.7543,-53.5135,-172.0386,-69.3722,-112.1315,30.9047,-15.9897,-104.3515,-173.0078,156.3648
-35.5888,-10.5975,-70.3163,-71.6538,-68.8101,-111.5630,160.3460,161.2907,226.2436,94.9862,-62.2199,-140.2990,-64.4143,-83.1504,32.0657,5.3490,-80.6812,-85.1583,157.9873
-68.4339,-22.0231,-59.5289,-50.6802,-35.8493,-24.9691,202.7639,188.0318,197.3798,105.7054,-47.9772,-88.5872,-40.4193,-39.6177,42.6494,11.1986,-72.6859,-18.5310,142.3000
-64.1351,-56.2459,-6.2406,-33.8074,24.0914,98.7065,155.8351,197.4646,63.1751,88.2555,-19.8651,-47.4650,-3.0355,24.6126,44.9681,40.7274,-32.4572,45.4595,144.1827
-40.8054,-51.4652,42.7332,35.2992,96.8211,193.1511,108.6244,150.3883,57.2328,43.7769,5.3561,6.1758,14.1049,92.6444,26.7382,79.3176,50.5515,116.0856,118.1184
-0.8367,-19.2947,74.0471,120.0139,123.1232,236.1299,110.5410,72.6875,196.7176,8.2705,22.6918,58.7589,16.3166,127.2274,19.4192,85.4563,112.3672,114.3976,49.4258
48.6632,-4.1206,103.9516,122.0859,116.4933,207.7285,81.0397,12.7847,114.9860,-10.8936,44.2223,87.6459,23.1237,118.3276,31.7175,66.2256,122.3424,34.9404,3.5740
73.0294,4.3087,117.3888,58.2229,128.5723,111.1496,-35.8589,-30.6594,-275.5473,-32.1601,73.1357,109.7707,24.0089,94.6406,30.3219,55.0523,116.5925,-17.9200,-20.1238
65.2169,22.8229,107.7946,50.6358,136.4324,52.0805,-129.9847,-59.2185,-442.9547,-43.8023,81.2574,109.4176,14.1783,80.1801,11.0204,57.8000,118.0659,-3.5236,-70.2047
54.7876,37.3368,119.1345,125.9845,121.1509,110.3354,-79.9631,-38.7734,-158.0095,-27.0799,54.4708,69.6011,19.9730,78.6065,4.8799,63.4752,127.4423,39.2553,-90.2259
54.8227,46.7409,163.5402,183.6352,136.1848,194.1711,39.1817,20.3692,70.2687,0.1853,32.1255,54.8844,50.7297,87.5780,24.6172,66.0310,147.7988,76.1045,-35.7557
57.6267,52.4134,162.3553,156.6869,157.0529,172.0144,72.4082,39.9467,19.7965,12.8946,38.3511,86.8608,63.2751,84.4190,49.9552,53.0552,142.0978,50.7361,-11.5234
54.5869,38.5490,71.4241,78.9133,78.5702,51.8769,27.8564,-9.9887,79.0702,10.5001,33.0932,75.6735,21.0089,40.0892,48.8180,18.7119,67.5399,-54.9806,-68.2846
35.2357,17.2480,-13.5779,16.3343,-52.9130,-53.4170,24.1718,-50.8662,277.0871,10.4242,-3.8520,3.3014,-29.3825,-19.9470,22.6504,-8.2748,-24.3289,-128.9591,-96.7010
7.9720,15.7440,-5.5498,-2.1728,-84.7745,-69.7891,73.9364,-11.4216,240.9792,31.8789,-28.7033,-38.6466,-15.7234,-40.1667,21.0870,-1.3704,-54.7075,-101.2077,-49.2436
2.4964,20.7017,33.7998,-5.5071,-23.3065,-38.7603,92.3654,60.9766,12.8905,62.5062,-18.5043,-30.6885,36.7137,-27.0130,57.9858,15.6671,-39.0996,-66.9291,3.6138
17.1487,14.5444,37.8406,-28.7259,29.6858,-38.7682,56.0192,77.8517,-136.6911,59.7393,-0.3115,-28.2301,47.8050,-27.7350,72.0690,11.8202,-19.2457,-71.3885,34.2212
18.4177,11.0230,52.0903,-46.1833,77.8642,-44.1694,22.0070,47.5836,-211.1506,24.0346,12.2207,-33.3677,23.2713,-35.4829,41.0647,5.5253,16.1849,-31.9396,51.0929
2.6930,8.3201,92.0300,-19.9998,138.5363,21.2060,35.9864,38.9087,-195.8275,6.5011,23.0292,-16.8735,26.0211,-7.1905,25.6910,25.2305,59.1896,47.3986,38.6786
-7.7187,-8.6664,94.3445,16.1361,158.3361,113.4979,83.3025,46.4252,-5.3133,13.3185,24.9093,19.0688,52.7589,47.8872,45.6586,53.8778,69.8107,77.9873,10.3845
-8.8621,-26.0264,64.4272,9.4381,139.7252,131.5425,102.2593,16.7191,163.4289,1.3839,21.5785,50.0523,56.2331,74.4366,49.3216,58.5513,57.2729,65.6506,-8.2475
-4.7760,-34.5458,58.1960,-26.3018,132.1400,93.7185,60.1556,-20.1012,123.5527,-23.0243,24.9644,42.1948,33.6076,55.1315,27.3606,43.8575,51.4695,53.5002,-14.2358
3.3607,-44.9762,59.9734,-42.4219,127.3776,81.3558,20.5487,11.1327,38.1932,-13.6291,25.4326,0.5595,15.2127,33.5834,23.5837,40.1292,46.8819,32.8402,15.1316
5.2545,-39.1525,52.1497,-14.9089,125.2448,99.7020,52.8924,79.2219,51.2707,19.4007,17.9126,-10.3623,13.0079,43.3860,41.1370,54.7220,52.3594,25.3032,68.1475
8.1172,0.5419,80.1982,45.4423,155.1190,112.6324,111.7962,88.5644,99.4576,25.6309,16.8500,23.6215,15.2613,63.0891,44.2936,71.1820,94.0284,54.2015,75.8717
35.9779,35.5737,143.5588,93.7698,180.2709,112.3585,127.4244,57.3803,143.1487,8.8825,16.9313,38.1336,16.0200,68.1485,34.9453,86.9635,141.9878,59.9635,66.2070
62.4582,35.5459,165.9373,87.7249,155.1887,97.3887,135.1462,86.8298,157.0096,21.4166,1.5768,22.4144,27.8313,64.1157,47.8754,99.0453,136.0166,16.7066,125.0371
34.2526,30.3917,109.3582,48.3069,109.5418,61.5208,192.5945,166.9206,142.5958,71.9716,-19.0869,17.5837,42.8375,44.3886,79.6568,76.3321,74.1037,-9.9360,185.7895
-18.9345,39.1510,20.9910,28.5002,62.9912,15.9534,262.1915,186.5426,218.4637,107.1021,-31.4579,6.2116,31.5033,1.6008,91.1237,22.5367,8.1933,-12.3791,147.7354
-18.6205,37.6814,-27.3621,24.4302,5.0853,-23.3458,259.8729,123.3293,313.8434,96.1190,-36.5483,-27.5197,19.7939,-23.1826,85.0886,6.7826,-26.7203,-54.0948,77.1836
26.4616,17.2654,-25.5394,-7.1529,-35.6974,-59.3753,155.2075,66.0921,157.2639,74.9499,-28.1720,-34.4319,54.7181,-2.1949,99.6063,48.3463,-45.3003,-131.2055,47.2981
41.0674,-7.1126,-40.3729,-61.2935,-51.8529,-98.6138,12.4355,67.2622,-128.9531,78.0166,-11.7654,-17.0494,81.6838,17.9480,117.7283,77.5027,-76.1284,-181.4515,25.2044
7.3705,-29.7425,-94.8486,-91.6089,-78.7024,-117.2406,-50.0978,96.6141,-152.1806,89.1211,-15.8126,-37.5219,42.1236,6.4087,96.9622,69.0916,-109.8784,-170.0428,17.0456
-32.2403,-46.0224,-115.4499,-88.2703,-88.2038,-80.1649,5.8098,115.6092,10.9802,88.6241,-36.5900,-70.7565,24.8378,2.5063,71.6643,64.9105,-117.7373,-100.5578,47.0478
-52.2045,-53.8883,-83.5076,-88.2258,-39.8676,-9.5999,85.1735,116.6936,52.2989,81.6846,-38.7631,-49.8681,85.9743,22.8064,86.2756,62.5408,-105.4872,-22.3665,68.4790
-60.0426,-73.3727,-72.9276,-116.6626,7.9773,28.6833,107.6060,110.2795,62.3970,67.5224,-24.9136,-15.1351,97.2033,36.5923,91.5452,48.6697,-94.6246,4.1161,77.6481
-71.4566,-113.3279,-88.3026,-160.0913,5.7346,22.4179,98.6406,103.6463,174.1017,44.6225,-21.6468,-28.8383,1.7367,42.5139,48.5945,65.9487,-87.2498,-5.9178,106.2164
-85.8426,-135.5914,-71.2227,-181.2227,-1.6097,16.4947,90.7999,89.0964,207.5019,30.2179,-21.8293,-43.0971,-54.3607,55.2205,16.7004,105.6646,-82.4964,0.8832,99.9501
-73.9560,-100.7104,-31.0626,-135.0637,19.8381,35.8401,77.3856,65.9911,123.1238,27.8917,-10.5338,-3.9181,-7.2648,57.8272,28.3636,87.0337,-63.1942,21.5865,45.9093
-19.7054,-28.2470,4.3785,-19.7322,54.7899,69.3046,63.5542,55.3880,101.7731,20.0517,2.4437,44.4323,29.5431,47.1825,34.7323,24.9721,4.2092,29.7431,39.5751
36.8329,24.5147,42.9226,74.7151,86.8102,80.1818,45.9899,59.5475,105.9127,10.2855,11.2339,57.9109,8.8742,47.6013,23.9213,15.3963,82.7758,15.7071,73.2526
53.3617,32.9484,53.8416,61.1853,81.3318,23.6677,-2.8980,43.7889,7.3167,11.1908,19.3772,55.8974,-11.3068,43.9655,26.1683,40.9977,82.6832,-35.6342,44.0414
50.3477,29.1308,13.4760,-3.3805,16.2744,-77.2901,-68.5526,-13.5936,-93.3511,4.5472,21.4742,46.6996,-22.5685,-1.9655,22.2531,6.6296,18.1766,-107.6384,-31.8013
63.2757,49.3005,-21.0569,-2.9296,-59.0166,-139.8179,-103.8729,-95.3193,-104.8987,-23.5237,18.7890,20.0738,-39.3495,-68.2221,-8.9277,-74.1099,-14.4309,-145.6561,-91.8692
78.1172,81.1247,-33.0108,49.5382,-104.9442,-153.0098,-110.3998,-171.0562,-105.3747,-46.2849,18.8456,-7.3535,-28.8601,-102.6226,-27.6278,-117.2771,-15.6493,-147.2643,-161.4911
67.7762,89.8908,-73.3454,69.8426,-141.3009,-161.2755,-119.1882,-205.2725,-108.2402,-39.8508,11.4050,-37.5333,19.7266,-109.0514,-11.2794,-115.7499,-47.8073,-141.6094,-231.9462
39.7341,69.9335,-105.8515,62.6591,-155.0912,-135.6645,-125.8223,-161.0595,-61.9227,-12.0027,-10.7390,-97.3715,66.5585,-114.5522,7.4971,-102.7574,-84.9821,-104.3476,-227.4991
9.8504,37.7203,-62.4911,59.7876,-114.3336,-52.7961,-105.0361,-51.7448,-10.3747,24.4829,-29.3522,-151.3577,81.6905,-103.4467,14.8478,-66.9879,-80.0216,-32.3400,-154.1206
-16.9286,10.4077,-4.0780,35.1036,-57.3021,0.7776,-55.9837,29.3920,5.4742,51.7414,-30.9014,-143.6152,73.8742,-70.6255,26.9890,-14.9711,-65.7659,7.7777,-99.8711
-25.0070,7.8318,-3.0803,1.6504,-23.8417,-15.9816,-12.8367,1.7090,13.8110,41.3678,-20.7317,-107.7198,78.3254,-60.4497,38.8518,-9.3218,-63.4603,5.6059,-112.8843
-6.3959,24.6576,-12.6650,11.1497,10.9057,-12.9939,-7.3752,-78.3392,9.2167,2.0343,-2.6710,-82.1970,109.1024,-71.5107,39.7348,-54.4060,-40.3735,17.6260,-153.5308
5.8023,13.0130,-0.8156,13.5914,52.6949,41.6600,-17.6954,-85.4621,-16.2637,-16.9510,17.2472,-22.7419,123.8414,-36.8331,43.6805,-63.6590,-11.9365,35.5983,-138.3691
-12.8623,-43.4155,-9.6833,-66.2070,73.2126,64.3839,0.0469,-27.6505,-29.6921,-9.1336,27.6831,70.7610,94.3129,41.1712,56.5146,-8.1786,-21.1230,18.4340,-54.4542
-26.4820,-85.0574,-23.9536,-152.3380,88.7023,36.4198,33.3286,-21.0238,-54.9495,-19.7898,34.1852,116.0680,58.8031,84.1830,57.9418,41.8860,-28.7058,-4.2719,11.0918
-8.1426,-70.8606,6.9759,-138.5203,116.9217,23.4053,43.0143,-65.1581,-111.6196,-48.8860,45.3836,102.6987,36.9246,79.5020,38.2928,53.4604,12.9469,2.6707,14.1894
3.2231,-36.7485,41.3062,-70.3203,108.9807,28.6014,43.6240,-61.3099,-85.2563,-46.8827,42.6731,87.4804,1.8384,68.0142,13.5984,52.6930,46.8187,12.4785,2.7265
-14.4491,-14.9522,15.3834,-28.2170,38.0297,10.5854,69.6561,-15.3421,74.0068,-12.5511,13.3574,68.6212,-30.5630,46.4655,0.7149,36.6700,18.6589,3.6571,5.3959
-22.4944,0.4292,-41.2690,-4.4335,-31.5022,-12.8184,104.0712,5.9010,183.2079,11.0206,-13.3332,33.7418,-24.0415,16.7955,4.5310,4.8681,-19.5814,-11.6880,19.9524
-9.8064,-0.2562,-77.4325,0.9718,-44.8480,-13.6440,101.5742,12.7619,118.4265,16.6642,-9.7494,20.6224,-6.8640,14.9868,20.2942,-5.3920,-26.3944,-33.3371,40.2530
-9.8609,-21.7785,-99.4282,-33.7658,-40.0362,-23.1646,45.8615,11.9830,10.0749,18.4563,7.6902,32.7630,-12.4593,24.9991,30.6683,1.1867,-41.5745,-63.2049,15.3321
-21.1840,-28.1648,-117.4403,-58.3744,-67.9550,-57.4797,-29.4291,-27.4647,-33.6566,10.7407,11.9884,31.9758,-16.4969,9.4916,20.1935,-11.0266,-74.3722,-77.1137,-65.9106
-21.9717,-10.6138,-117.4298,-31.6433,-100.3265,-68.4622,-60.1580,-60.3022,-54.7905,0.0050,3.7933,13.8869,-3.0808,-8.0709,2.1557,-26.5186,-81.1772,-56.9464,-102.3427
-20.0627,-5.5728,-104.4342,-11.9848,-83.8467,-40.1197,-19.8838,-36.3710,-39.8560,3.1622,-4.0077,-11.2136,12.0960,-13.2677,3.3697,-30.0425,-63.6808,-25.2632,-52.5392
-12.2554,-9.9340,-89.8388,-31.2439,-35.8403,-29.8836,35.5969,-15.2107,34.8998,6.9110,-8.2696,-37.5939,29.2669,-31.2753,22.5944,-40.4034,-50.1044,-21.9745,-2.6475
14.2084,1.7312,-67.2993,-44.1533,-18.1170,-64.9200,28.2049,-27.9949,39.9244,1.6104,-9.7783,-44.3222,40.0561,-47.8688,33.6608,-41.6077,-40.0694,-56.1529,7.5317
25.6228,0.4138,-53.8251,-57.6704,-45.0756,-102.7891,-47.3112,-15.8330,-79.9131,6.8883,-7.0187,-40.3487,12.8121,-48.3043,23.0216,-25.4761,-48.3878,-95.4960,5.0142
-0.8807,-30.9372,-70.4128,-94.9737,-67.3466,-102.6225,-109.0636,20.5691,-147.8890,19.1232,-3.8351,-53.5931,-29.6683,-56.4076,3.7486,-31.4236,-78.5540,-95.1723,-1.1882
-21.5164,-36.9824,-71.0222,-75.9489,-36.3071,-45.1738,-77.0097,43.4617,-66.0218,18.2801,-9.0410,-46.7763,-16.4799,-37.9221,-1.3153,-30.2632,-61.3954,-26.8142,24.9917
-13.4142,4.3898,-11.9851,41.8492,36.1438,63.8212,20.4415,74.8132,40.4678,16.5913,-18.0553,13.3860,44.6025,44.7168,10.0671,30.2813,29.0878,85.5307,94.1598
-4.8435,35.3553,46.6019,135.2413,84.7865,147.8978,64.9678,87.6157,63.0240,13.9029,-9.4614,59.3108,60.4385,92.6508,7.2960,56.4940,97.1461,151.1564,101.9089
4.4541,29.5839,40.5938,116.9051,62.7891,128.3741,-3.9153,9.1053,-8.4305,-19.6269,21.1668,44.0957,3.4098,28.9959,-29.6291,-33.8308,83.4227,110.4722,-0.4534
22.9510,24.0707,11.9867,76.2728,-4.2103,56.8620,-114.0041,-100.8895,-127.0051,-63.1364,44.3275,30.1629,-45.8028,-37.9801,-70.2524,-118.8433,44.5980,36.9408,-110.8446
18.1950,31.6625,4.3222,91.8854,-55.3842,37.9960,-153.6219,-130.7329,-141.5371,-67.1741,38.7598,54.1878,-43.3613,-19.6861,-81.6001,-99.9845,25.8993,30.8124,-160.6368
-15.0218,25.6792,-16.7335,108.7407,-68.0490,62.6180,-94.6921,-101.4611,14.3447,-47.8832,22.4882,63.3445,-50.6274,12.8204,-79.3567,-62.2047,16.3255,63.6289,-156.7734
-36.5850,0.3442,-60.2602,75.9935,-70.3113,58.5155,-27.3461,-79.5937,111.5386,-41.4489,18.8939,29.9428,-97.9847,3.1637,-84.3893,-62.8993,4.1990,57.1059,-114.2565
-30.0286,-11.6783,-70.2036,37.6553,-86.7804,21.2283,-66.7215,-86.4051,-37.7121,-41.5103,27.6902,-0.3319,-107.6380,-22.6288,-83.2535,-73.9252,-17.2417,18.2793,-119.5184
6.2941,14.4860,-25.5352,44.3082,-95.5189,-9.5052,-189.7738,-139.1985,-239.3235,-49.6049,39.7000,6.4242,-36.2645,-52.9949,-65.4418,-106.2690,-31.5916,-17.0047,-217.9450
59.5233,41.2936,16.5521,62.5521,-81.2614,-24.6385,-247.5735,-191.4348,-237.3140,-67.2431,39.8527,1.1068,31.3261,-79.1796,-44.1838,-133.8261,-18.9370,-52.9140,-259.9218
60.2259,5.8522,-6.7853,13.3203,-94.2925,-47.0876,-190.9574,-155.9848,-83.1672,-54.1220,11.6728,-80.8226,20.8759,-83.1372,-30.5802,-82.9406,-38.0193,-83.9471,-173.0739
-10.4863,-68.5575,-73.4390,-98.8783,-152.5825,-87.2157,-130.5079,-87.2747,9.7008,-12.8319,-23.0254,-181.1716,-19.4538,-88.6670,-25.6840,-14.6022,-127.3838,-92.3011,-121.1886
-42.3198,-89.7328,-90.9144,-161.2134,-165.3649,-112.6556,-125.1622,-89.1503,-48.2889,-8.2196,-21.3466,-178.2523,-22.8496,-107.7553,-25.3702,-35.6920,-171.1902,-91.9407,-140.5188
11.4260,-37.0425,-33.9722,-107.9759,-92.2102,-94.5436,-101.7002,-94.0653,-139.0786,-31.4386,1.0319,-92.6073,-5.0413,-102.5458,-20.8609,-84.2358,-90.3613,-87.3859,-75.1820
42.3273,30.0963,15.1479,0.1170,-29.8048,-58.1581,-21.2650,-21.9215,-104.2238,-15.5372,-4.0770,-34.3758,-2.5869,-70.2768,-14.7437,-73.1690,2.1744,-45.6465,40.7334
7.0503,72.2378,14.8324,89.3774,-20.6050,-19.1510,48.2749,33.4303,-8.2462,15.1650,-18.0245,-2.1537,-8.5648,-41.1540,-20.7894,-53.7593,29.3678,33.4456,46.7880
-11.7987,74.7798,11.2284,132.7578,2.7308,45.3043,50.3979,1.0210,-20.0466,-3.8768,2.5838,41.8841,-10.7178,-9.0400,-37.5169,-60.5899,54.8556,95.7945,-9.1330
2.5360,38.0548,19.2193,118.7701,37.5454,102.0536,20.7733,-41.6979,-48.5215,-44.8641,26.0049,57.8725,-18.5021,29.8711,-51.6023,-41.1637,86.5156,111.9920,-4.5012
2.1637,16.1930,25.8038,94.2090,41.5308,100.7086,31.0876,-37.8552,83.5697,-52.3492,11.9486,58.3449,-30.4943,59.7766,-56.0033,10.1566,91.3323,111.0883,33.0599
5.4022,48.9681,56.4065,135.9241,67.9505,97.4821,79.3840,-20.8694,215.7722,-40.7083,2.1932,105.9332,-30.6569,90.7191,-46.8236,47.6002,123.5361,120.9421,41.2360
37.4875,83.9232,104.7466,205.7280,134.8935,140.1768,75.4266,-30.5024,94.4364,-47.0412,34.2776,150.6826,-19.2672,117.6510,-33.9932,55.1759,191.4700,129.3143,16.1046
62.1152,79.3041,123.7241,210.0508,156.1616,154.6402,-18.0383,-66.4047,-158.5581,-69.8300,64.3800,134.3213,-7.8225,110.3698,-40.5148,43.3559,211.1050,125.8709,-22.1683
55.3190,72.0442,116.3612,176.4493,125.0835,113.4673,-97.4078,-70.2930,-225.4658,-73.1855,52.4116,117.5601,-1.3851,91.8072,-54.8021,38.8830,180.9735,125.7582,-29.8720
29.1886,70.8022,90.1736,159.5701,101.6877,85.3397,-67.5541,-0.7262,-45.6957,-29.1676,21.5860,109.6744,-5.4297,87.0903,-36.7039,54.3978,143.0215,113.1849,-5.1095
0.7152,38.3486,16.1351,101.2061,51.8882,50.2114,1.0654,57.4458,127.8858,27.2876,0.9426,40.4532,-14.9390,48.9143,6.6222,45.4511,60.7422,39.1360,-9.8131
-4.9094,-11.2868,-71.1108,-28.5590,-46.8201,-50.6251,-13.9156,19.0763,59.0613,34.3130,-7.2472,-42.3003,-6.9837,-27.5492,29.6325,-8.2823,-57.1311,-76.6506,-37.3697
8.3348,-39.3418,-103.6924,-135.3305,-105.9127,-140.9978,-92.2034,-40.1805,-154.9665,6.5711,-5.8557,-51.8040,16.0396,-65.2043,27.2221,-44.4256,-120.7385,-140.8624,-33.6642
1.2002,-46.0463,-95.7092,-150.9641,-91.8813,-139.7192,-128.9818,-36.7623,-242.6688,2.1814,-0.8518,-38.3771,22.7680,-55.9037,22.9351,-36.4743,-119.7218,-121.3049,-33.6366
-13.1088,-32.2320,-72.4275,-103.5084,-69.0205,-101.9249,-117.5959,-17.8059,-164.0323,14.3952,-2.8004,-51.9291,14.4064,-55.0986,16.3197,-29.0108,-99.3723,-79.4796,-66.5783
1.3614,-2.6640,-35.9987,-44.0466,-62.5769,-87.6258,-111.4549,-13.3929,-29.0310,14.7559,-14.5034,-44.4094,7.4292,-48.8379,5.1239,-18.2423,-65.6667,-64.7093,-68.5487
1.2471,0.7511,-49.3837,-23.7074,-68.0188,-88.4626,-83.4449,18.2392,136.1403,25.2162,-28.5424,-13.3583,-21.7853,-8.7132,3.6565,26.5680,-50.1697,-72.0041,-26.1681
-41.7360,-29.6224,-118.8837,-56.4189,-86.0467,-93.0892,-20.5381,59.1657,180.5169,47.5517,-29.0487,-7.5162,-71.6418,20.7808,6.7046,60.7770,-76.9151,-74.7903,3.2282
-57.8845,-47.7567,-119.0011,-83.1398,-77.8990,-77.2837,-29.4978,54.7071,-51.3982,34.4841,-9.9006,-24.5081,-80.9049,7.5028,-10.4922,37.8555,-79.1369,-41.9284,17.8817
-32.8152,-55.1022,-45.3788,-74.4583,-36.5903,-18.5246,-118.8497,19.0555,-221.3712,-13.2056,1.8503,-56.0890,-48.0207,-15.6682,-46.7314,-0.3672,-37.5647,27.6398,34.1351
-41.4249,-85.6789,-40.5531,-76.4030,-19.2970,44.9781,-102.8491,-10.5468,18.7710,-41.8586,-12.1817,-95.9377,-37.5482,-14.1497,-66.4947,-2.1678,-28.4530,84.1370,35.0085
-66.1159,-106.0479,-79.6347,-88.4526,-10.3640,79.5031,47.7402,-30.7954,264.3324,-42.4887,-15.4506,-75.6947,-34.7856,18.1389,-44.1132,16.3172,-37.4331,90.9991,36.7521
-29.7808,-70.9374,-30.0008,-59.5270,53.4806,102.4508,105.1442,-35.7491,78.7421,-44.4871,16.9354,30.4353,16.6615,59.8433,-1.0770,14.9124,11.7842,74.1002,59.4860
22.2866,-18.2323,50.2508,-11.5604,124.9851,109.0968,8.6499,-5.9146,-171.6947,-41.3367,40.0227,113.6476,68.7570,69.5671,19.7021,-8.0911,71.4751,72.3266,75.1171
7.9857,-5.9019,48.3231,-3.2297,127.4722,90.1267,-38.2599,56.8895,-77.9883,-11.0828,19.6060,85.3311,52.6855,38.6334,13.7160,-21.8623,61.4013,84.8308,80.0036
-33.2426,-26.4492,19.6501,-21.2447,93.6134,87.4983,37.1390,113.3208,141.6414,26.3416,-11.3442,1.0830,18.4413,3.4522,12.3066,-18.6604,18.7046,90.4591,96.7438
-34.9480,-33.1042,30.2522,-18.2697,79.0194,110.5608,109.1375,119.8213,223.6194,37.0566,-22.7472,-42.6384,38.2109,-13.8223,25.8216,-25.4352,4.6271,87.9851,108.1146
-12.0177,-5.8915,37.4882,9.9506,77.1815,104.8348,118.6606,90.6821,174.7485,26.9178,-21.4198,-26.8831,79.0650,-18.1565,36.2596,-44.6958,16.5308,84.9062,106.4431
0.6293,16.9658,-0.9963,19.6409,50.9460,50.0630,83.4501,79.6146,8.0712,23.8426,-13.5051,-7.1373,66.7168,-17.8986,31.8811,-49.2515,17.6196,56.3290,117.2053
-11.3608,-12.3119,-88.3004,-34.7488,-35.4031,-27.4841,18.2765,100.5830,-153.5992,38.4020,-11.5099,-37.1366,-3.7946,-28.6126,16.0460,-40.6327,-37.9366,-18.0531,135.6565
-54.0138,-64.1097,-184.9137,-114.8073,-148.6976,-93.4320,-6.1488,146.9497,-90.0782,71.4713,-37.1969,-92.3482,-70.5749,-48.9248,2.9565,-30.7967,-134.4452,-79.7084,151.9768
-102.5444,-70.3184,-212.0219,-119.3946,-195.1457,-103.9921,57.8754,223.9820,145.1463,118.3292,-75.3513,-96.5215,-98.1180,-39.7097,3.7625,-1.0452,-176.8873,-66.3014,178.9504
-120.9502,-44.6941,-178.4825,-55.0158,-178.5342,-63.9872,130.1012,284.9917,328.1187,148.4544,-88.2035,-29.4552,-119.4588,15.8180,6.2924,49.2515,-144.5761,-30.9934,198.4556
-113.8001,-51.1365,-177.9654,-43.0320,-176.6599,-43.1414,137.0465,267.5872,352.0123,135.8123,-72.3032,49.6712,-144.9995,76.6175,3.3504,85.3308,-123.2132,-47.2514,192.0790
-104.3793,-88.5064,-205.3943,-117.7012,-165.6572,-63.8065,98.3006,208.2438,186.1709,103.2819,-47.0297,83.1275,-126.5408,104.9719,15.8626,102.7677,-137.6615,-80.2822,181.1703
-103.4311,-116.3905,-196.5189,-193.4171,-111.4971,-86.4298,40.0089,163.6173,-21.0650,79.9999,-26.4271,76.7491,-80.1571,111.2599,35.4627,128.4740,-144.1119,-76.8224,152.7996
-117.2096,-125.3631,-174.6674,-209.2269,-86.4828,-92.5052,-12.5419,110.7942,-7.9763,55.6141,-20.9884,84.0568,-80.4150,128.5260,19.3257,165.3093,-137.2672,-45.7243,79.4678
-124.8186,-110.9910,-146.3388,-155.8047,-79.5795,-59.9335,-35.5548,52.1877,89.6444,24.6455,-17.8886,127.2457,-92.9872,169.2088,-14.5022,197.1823,-102.4229,9.2422,9.6156
-88.7012,-71.1312,-54.3298,-52.8369,16.6000,33.3970,-66.0786,37.4352,-42.9880,6.3510,7.2428,148.5151,-32.8826,203.0904,-7.4650,217.0147,-8.7378,84.0909,-15.6304
-34.6336,-42.3991,57.2435,29.2205,138.5212,125.7811,-121.7576,43.3539,-203.1339,-0.8599,31.3834,93.8430,46.4584,195.6122,18.1532,225.5399,81.2942,135.8882,-32.6691
-22.2245,-43.8240,98.1281,57.4610,148.2588,158.8744,-146.3186,29.5740,-111.3634,-10.2144,21.2454,17.0475,55.7248,166.2029,4.0542,222.7552,97.1367,160.0783,-55.9885
-28.7622,-30.1913,107.2415,100.5331,116.7441,183.4880,-133.4299,25.2519,-7.7516,-13.2205,9.3641,12.0691,42.7588,154.3061,-21.1090,196.9145,99.2520,188.0307,-68.2553
3.7450,18.2625,136.9272,176.9964,148.9393,222.5766,-105.7366,29.7591,4.0795,-8.2898,22.2224,64.9634,75.4278,149.8275,-2.2036,143.7136,140.3242,188.1378,-76.5569
46.1905,50.0614,135.2134,197.2577,157.0121,205.5864,-27.0942,11.9915,185.5392,-5.5299,13.5274,72.8253,116.0371,121.1621,35.3852,96.8943,147.9287,131.0184,-58.0920
45.8389,45.8921,87.6324,150.1194,76.4539,127.8584,48.2682,6.6309,359.4778,3.3280,-26.1809,14.2034,115.7720,72.0647,40.5129,74.7293,89.2864,74.7372,-4.0605
36.4793,57.4953,64.6245,135.5567,15.6229,66.5156,-2.2980,11.0078,170.6375,11.9280,-28.4905,-10.9791,91.9411,26.5959,19.8657,35.9478,52.5400,53.8246,-13.1656
65.9938,100.3794,83.9949,168.2956,38.9403,39.8240,-87.4958,-55.6331,-65.7524,-11.2213,13.1182,35.9913,89.0618,-4.5085,12.1823,-31.0622,78.0363,27.5786,-115.5735
99.9641,115.7208,88.3966,153.4124,59.2952,9.0671,-46.4497,-151.3321,-0.7283,-47.8161,25.2026,49.8956,118.7774,-28.9326,27.6936,-69.6554,87.2427,-14.7534,-158.5590
82.0176,71.2089,41.8626,60.6769,6.8441,-39.0286,19.1343,-137.8103,45.9978,-41.1662,-3.9071,-22.4976,125.3519,-53.9324,37.3887,-57.6641,24.9459,-44.1224,-75.7988
20.8448,9.4780,-23.0957,-30.5960,-65.2941,-74.2666,-6.1120,-34.0306,-102.5400,3.3463,-23.5255,-82.6520,70.9410,-57.2167,24.2744,-21.3355,-54.2098,-47.5309,3.9701
-30.8140,-25.8761,-46.0462,-52.8390,-79.0627,-48.5652,9.2925,44.0055,-108.9647,39.5589,-29.7592,-75.9764,34.9275,-12.7813,23.2441,38.9473,-79.6212,-19.1933,28.9213
-48.7400,-43.4651,-38.3748,-35.1894,-59.9752,17.2293,118.5200,99.4756,53.2488,67.5266,-47.7659,-70.6112,70.5340,50.4016,57.6680,116.3243,-72.2002,14.7757,85.0600
-59.7078,-66.5103,-75.9687,-53.8875,-87.8222,20.3603,186.9383,179.0079,88.4049,103.5047,-69.2379,-84.2457,74.9980,86.9058,84.3437,172.4926,-93.2170,-1.7736,192.2637
-85.7640,-89.0166,-142.8595,-116.3413,-134.8200,-48.7370,228.9756,247.4644,66.7739,129.8641,-80.5322,-60.3539,-1.3198,106.7704,78.6966,205.1357,-126.8514,-49.7240,295.9484
-100.0230,-87.9123,-142.8714,-153.5165,-110.7864,-80.2091,337.7686,264.1526,162.3605,132.3022,-82.9366,-4.5914,-39.6264,125.6610,82.6600,221.1947,-117.7003,-61.0844,359.4376
-78.5728,-60.3189,-90.0300,-143.8278,-49.3989,-67.0097,401.0658,230.5307,210.4880,116.9555,-71.1021,39.7138,-3.1852,112.5729,101.7892,181.7695,-85.0217,-56.7787,348.0203
-49.0286,-32.4795,-73.4203,-142.2770,-40.7738,-100.0516,319.2232,154.4702,125.0347,83.6416,-47.2110,69.8911,-1.9672,59.7130,86.0697,90.9654,-78.7763,-85.8540,263.3279
-36.1025,-23.0447,-74.8823,-161.8309,-53.6618,-151.2778,213.4606,59.5817,90.9180,36.3973,-28.2117,83.2869,-45.5319,8.9380,40.3939,18.3567,-81.7565,-108.6110,167.3240
-20.2049,-13.5797,-22.8484,-146.3468,-23.8526,-131.2073,165.8841,-29.1697,124.5153,-9.6983,-13.3142,70.5876,-43.0357,-27.0054,10.0082,-29.3669,-55.6262,-82.0656,77.8385
13.0756,16.0321,67.0502,-78.5461,14.4132,-68.6350,110.7310,-114.5152,76.1189,-54.1099,6.1669,45.1243,-5.3216,-69.6901,-16.3746,-93.2654,-7.4756,-32.4040,-18.9247
48.3774,48.1656,134.5111,-6.5588,21.1585,-33.6916,46.5904,-174.9861,-6.5293,-93.1696,14.8816,7.3498,5.1186,-106.6673,-56.2602,-137.6165,40.3237,7.3009,-61.6350
73.1364,63.0166,149.3565,34.7281,16.0431,-31.0348,35.9623,-164.4792,0.4646,-94.9598,2.9588,-39.6480,6.5446,-110.6706,-64.3029,-116.9365,67.8406,10.6182,-20.2068
85.7731,75.5342,110.8695,45.6009,4.6760,-59.6797,56.2017,-116.0875,47.3773,-55.1633,-8.5358,-52.1088,29.4928,-106.2633,-19.9002,-95.4045,51.9950,-42.8563,2.1679
91.9148,99.3321,54.3504,27.5506,-22.8919,-127.0858,51.7464,-127.3602,53.6459,-32.5841,-6.1081,-22.1590,56.0241,-140.5242,18.3984,-150.9304,5.2888,-115.6699,-54.0419
104.4876,119.3260,24.2082,-10.4682,-49.1550,-200.8465,16.5976,-211.8012,14.5514,-63.2644,-0.3604,-2.7266,75.1053,-202.1565,11.7634,-244.0993,-27.6323,-151.8159,-113.0677
117.3708,121.8419,23.7172,-35.3789,-59.5870,-233.1221,-46.8845,-276.1475,-104.2034,-101.1322,6.0075,-9.2665,88.2231,-233.9084,-11.2939,-286.9088,-32.9417,-147.4302,-133.5496
107.9158,108.6442,39.7847,-21.6072,-55.6578,-195.8893,-131.0858,-258.1190,-285.8905,-101.8548,19.0354,-17.8209,82.0069,-218.0046,-29.9522,-270.6321,-24.2448,-109.5657,-149.9622
80.9427,85.3268,67.5247,17.3236,-33.5946,-97.7302,-179.0324,-194.5326,-341.4751,-85.5722,29.5924,-17.6447,58.6966,-180.5237,-49.3887,-242.8685,-3.0725,-40.3149,-155.3449
59.8093,66.1025,88.7728,49.6400,4.2337,0.0353,-136.8281,-140.0033,-168.8401,-70.9666,28.3543,14.0775,50.1111,-130.2783,-47.8746,-213.3621,22.4586,14.4913,-135.1155
50.6088,61.6210,91.0703,52.6292,38.9709,33.7763,-65.3592,-104.7061,-3.9669,-45.8521,27.4100,68.8200,69.2021,-85.6383,-8.7890,-180.5459,25.9859,8.2956,-133.1064
50.6990,55.9325,81.9708,19.0760,41.8579,5.1276,-94.4408,-90.6788,-91.9556,-25.9023,36.5732,68.4945,80.4289,-99.9461,17.5441,-188.0674,-1.2176,-34.8275,-164.1681
42.5067,36.3561,60.0985,-17.9268,0.5746,-25.7032,-205.4258,-92.1049,-275.0598,-32.1338,41.4717,19.0628,50.4275,-146.1726,-14.2389,-228.5214,-35.2869,-43.3191,-182.1975
-2.3649,24.9081,37.1439,5.4636,-34.3653,9.6997,-221.7075,-57.7600,-262.3380,-29.0811,31.6216,43.8990,7.3521,-110.2816,-57.0113,-207.6864,-38.9983,28.3710,-164.2958
-48.4225,41.1629,54.6814,85.2432,2.5140,105.7766,-108.3994,30.3214,-104.3954,5.4837,24.7370,150.2251,-5.2246,-10.9163,-53.0013,-140.6285,4.8038,123.2094,-118.1071
-21.7333,71.0346,111.1867,128.5764,75.2518,154.1516,-31.0565,83.6032,-18.6077,20.6614,34.6307,201.1541,-3.7194,-9.2307,-31.0025,-172.9759,60.7815,122.5957,-59.2751
48.6036,96.5441,154.2313,103.1039,100.1617,98.2403,-44.2295,36.9731,2.4639,-10.8338,43.5731,153.0140,-18.0187,-122.4355,-38.0926,-298.0042,81.3574,39.3568,-34.0004
77.0732,118.0501,170.1634,89.7053,89.3933,31.1477,-54.7884,-46.9027,30.1716,-49.8886,38.7626,84.4246,-32.2906,-203.4418,-66.3341,-356.5195,85.5501,12.8414,-60.4974
84.5363,137.8719,176.2019,117.6986,90.1989,10.4513,-77.3946,-102.4643,-24.1982,-81.1017,38.4546,44.8597,-40.7356,-219.5388,-97.5954,-351.7694,112.2986,45.0412,-78.4157
121.9219,147.9599,160.7381,109.7297,75.8267,-33.1604,-162.4325,-142.7826,-159.3864,-113.5707,50.1734,31.9915,-61.0507,-259.3896,-123.5211,-406.7044,123.5216,10.2188,-63.1100
140.0423,138.6098,120.7446,45.1694,27.0213,-106.9227,-217.9038,-169.1528,-213.7678,-121.1835,51.5351,17.4355,-72.2048,-320.7928,-124.5608,-480.9767,73.3691,-70.0965,-71.0187
106.1098,117.4541,81.7318,3.0456,-13.9706,-133.1953,-195.2320,-158.1684,-194.3120,-96.2083,35.2290,-38.1130,-54.7638,-343.8239,-107.9309,-474.4648,11.5844,-78.1306,-99.2613
78.6494,107.5221,45.4716,16.6135,-26.8250,-115.7628,-174.6116,-129.9226,-206.5813,-78.8052,20.1007,-106.5068,-37.2863,-341.2502,-104.4673,-442.4648,-2.2212,-32.5427,-83.3241
73.8921,108.7034,1.6895,36.0909,-22.9521,-91.1150,-140.5812,-116.1083,-155.1212,-77.7073,13.6933,-110.3331,-17.6772,-331.0500,-97.6220,-450.6607,3.4253,-3.9255,-42.5176
53.7245,93.7601,-26.2967,30.3887,-1.8072,-35.0367,-34.7690,-111.6600,-12.9464,-71.2747,12.2977,-51.4997,33.7715,-282.2614,-60.5979,-440.0260,-5.3945,23.7033,-27.6900
34.4632,64.2028,-17.2099,18.2949,24.0043,31.7709,46.3260,-94.6759,2.8624,-66.4021,16.6331,8.7823,74.0676,-199.4818,-30.9888,-371.2470,-0.1886,58.0413,5.9109
34.5660,51.8988,2.2696,15.2652,31.8110,41.3439,63.7613,-40.3875,-34.5252,-59.2205,12.0793,53.8259,44.9379,-132.0464,-36.0784,-291.2729,27.5705,64.4284,102.7132
15.0902,55.0575,-6.2217,9.8924,24.0562,10.2209,166.9048,50.9275,222.8314,-19.8651,-19.0490,81.2842,-21.4713,-99.8418,-33.5352,-231.7910,32.0316,43.6335,205.9345
-20.4377,46.5658,-28.8749,-12.0185,5.8668,-14.6372,335.9898,124.2321,553.1599,33.7588,-50.4316,68.4931,-66.9296,-91.0248,-5.1185,-184.3059,1.2884,5.3614,252.7617
-12.7444,34.2960,-8.7399,-43.2856,-11.5844,-52.2584,328.2594,135.4731,373.9571,53.9270,-42.5548,29.0805,-72.5911,-93.4148,15.5550,-137.8282,-18.7478,-53.7101,241.8188
34.4893,38.0731,55.5511,-74.6719,1.0603,-116.0544,142.0063,101.7178,-108.3905,42.6407,-13.8992,0.9039,-36.0865,-102.4844,26.4159,-95.9537,-13.2180,-110.5699,188.3176
61.3339,40.6331,75.5123,-123.4799,15.4699,-186.2662,39.8444,33.5433,-185.3579,22.4926,-9.3933,-17.7490,7.2392,-131.2148,41.7564,-93.4526,-30.3094,-156.9313,110.2195
57.4074,23.7239,16.4685,-188.5783,-28.2733,-250.1315,71.0832,-72.9887,62.4464,-11.0675,-20.6199,-42.8898,5.8549,-180.7515,38.0412,-145.3722,-85.1659,-207.4321,35.5587
59.1452,6.6800,-24.8787,-208.6539,-76.7005,-265.5702,53.0549,-158.0840,42.9878,-52.4046,-11.1695,-62.1315,-18.1906,-202.1831,6.4020,-183.3118,-104.9434,-221.2324,-5.5447
70.0332,9.4234,5.0610,-147.3398,-47.9199,-200.9929,-16.5548,-146.0725,-141.6765,-67.9066,5.4689,-65.6509,-23.5351,-162.4121,-19.6754,-146.3874,-48.1354,-159.6107,14.2261
53.5398,20.7334,19.3154,-70.6552,-12.5466,-130.5186,32.1264,-63.8739,0.2958,-40.0807,-11.0988,-73.9641,-35.8621,-114.4085,-22.2762,-84.0527,-0.0214,-87.9181,75.0576
11.2833,21.1564,-26.2347,-60.5493,-44.5236,-129.1987,178.6734,-5.6685,301.5880,2.1940,-46.8369,-100.9663,-53.2149,-114.8809,-7.6747,-67.2568,-30.8354,-75.9452,114.0410
4.3499,8.9598,-43.1723,-106.8129,-46.4474,-145.1456,229.0632,-1.4683,255.2123,11.0792,-50.3672,-121.4685,-16.0837,-136.0761,19.3178,-85.9760,-62.6194,-89.2778,137.6915
43.9857,-3.4167,6.9148,-138.7586,40.1375,-111.4152,152.9403,2.3501,-54.5883,-12.3716,-21.7775,-120.8127,49.4424,-138.3797,39.3360,-104.0024,-23.4774,-71.3756,194.1978
54.3919,-10.1531,35.3852,-121.9719,89.2538,-58.2958,98.5235,34.2734,-164.5380,-17.5004,-8.1556,-135.3326,52.6076,-139.3906,30.2480,-116.5186,12.1405,-32.1130,225.2283
14.6868,-21.4880,-4.9674,-93.9962,38.8155,-36.0201,109.9088,48.3120,-18.5770,1.0358,-17.7967,-169.4064,1.5927,-143.6563,7.0170,-114.7682,-15.4258,-14.2699,169.4951
-9.6658,-42.2258,-47.5144,-103.8094,4.2601,-42.1477,105.9258,28.7235,79.1474,1.8013,-19.1814,-154.2437,-28.7668,-109.9635,0.1919,-74.4736,-39.4712,-24.7896,119.6388
-13.1711,-53.9514,-40.1055,-126.1995,42.5893,-42.3408,84.0063,35.6912,29.1385,-1.8452,-9.4963,-77.2883,-19.6637,-37.7480,14.4849,-2.2510,-21.5227,-18.5667,133.4658
-37.6359,-42.1164,-8.7154,-96.8963,72.9832,-8.7855,83.4983,74.6313,-37.1433,23.1005,-6.4678,-17.2701,12.1206,19.5722,33.3493,55.3031,-9.5532,29.6123,109.0512
-55.6602,-26.8007,9.4776,-35.0966,51.0452,42.1790,56.9446,79.5152,-65.4796,42.2582,-6.7608,0.8435,50.9223,43.1398,39.4565,67.9974,-18.7445,70.2951,26.0855
-50.6547,-40.4189,-7.5037,-26.0093,3.9697,62.5109,-1.9905,62.5814,-31.4367,37.0831,-10.1838,7.0069,62.5924,52.3461,32.9438,59.0105,-42.0451,58.7260,-10.2029
-75.7492,-82.6423,-75.6446,-82.3649,-58.8141,35.1868,-10.5253,67.3750,104.2226,47.1358,-25.0051,-18.0298,29.4910,48.9124,29.2813,65.5732,-103.1385,18.7711,-20.6672
-114.1154,-115.2161,-149.7040,-128.6834,-114.2211,-10.1814,-15.1192,34.4125,144.6703,54.0640,-25.7275,-61.2397,-10.5422,43.6245,25.1778,92.1073,-162.3831,-14.2868,-100.6023
-89.9448,-104.8941,-135.3698,-106.4892,-105.0555,-25.5350,-141.2319,-56.9680,-128.7347,12.1583,11.4840,-36.5462,-12.8103,68.8831,4.6137,119.0288,-132.2236,-19.7943,-200.0894
-34.9400,-66.3480,-44.2108,-31.9247,-53.7317,11.4258,-296.7884,-96.3144,-424.0235,-27.8936,46.8798,42.1987,9.0865,109.0077,-20.0250,128.1207,-48.8430,9.0807,-232.4181
-24.5126,-46.6986,-4.8706,25.3316,-58.9069,48.2375,-311.3856,-62.8131,-348.5656,-18.8369,40.1849,64.8369,-6.3550,117.9016,-35.2714,122.4244,-23.0860,24.1144,-221.2646
-36.7340,-60.2176,-50.9011,23.2054,-123.8517,22.7790,-262.7529,-59.3009,-143.1569,-14.2360,20.2690,24.4358,-78.7842,106.8164,-60.8152,130.3983,-45.1204,-8.8485,-201.0427
-34.2148,-63.6564,-78.3659,20.5162,-149.0772,-15.6850,-269.3766,-81.4320,-144.4857,-34.0620,15.9912,-8.9467,-135.5686,105.1501,-94.6021,153.8162,-33.7069,-16.8845,-170.5067
-32.2859,-19.7940,-43.8775,94.1322,-106.9981,15.1781,-217.1403,-63.3766,-87.5720,-30.1863,6.4443,-18.8764,-115.3801,98.6863,-98.6331,148.0656,14.9013,48.7430,-146.6237
-24.0886,41.6534,-1.4483,198.7553,-57.2015,80.3248,-49.7535,-58.8896,191.6593,-19.5468,-8.6225,2.8809,-63.1943,93.7371,-74.4127,114.6215,66.6500,106.1761,-137.2786
11.8108,66.2797,31.6195,232.4840,-18.9723,102.7999,32.4354,-121.7533,250.4533,-48.3553,7.2789,61.7000,-32.9514,121.3675,-56.0355,114.7051,112.7859,93.3912,-142.2538
55.3198,51.7160,58.0917,186.7979,12.0432,75.8933,-63.2057,-187.1812,-69.5551,-84.4072,45.6913,95.5701,-4.6840,146.7935,-41.4166,141.4282,129.7742,41.7479,-167.1907
77.2318,28.8466,35.5930,106.3450,-3.9240,10.1579,-138.9755,-186.5321,-278.0017,-81.8009,50.5688,75.4533,24.9342,126.3742,-15.4208,138.0604,89.7494,-28.8251,-143.1057
59.8955,-3.7330,-41.8484,-3.8653,-69.9357,-80.9375,-49.8016,-99.1077,-130.4908,-37.9151,7.0909,59.7024,13.5449,106.0041,16.9265,138.3365,8.6268,-109.4910,3.5911
2.3952,-59.1026,-114.6025,-133.6659,-119.5831,-153.1511,86.9732,48.0855,75.3679,37.5408,-38.7722,51.2854,-33.1813,116.5457,56.1169,191.1842,-81.5730,-173.9552,158.4148
-44.4886,-108.7869,-148.6687,-231.9871,-136.5186,-200.8272,94.0693,132.4016,110.8415,96.5600,-49.7855,5.1611,-70.4925,101.9208,86.5712,229.3853,-156.8461,-230.0477,153.0535
-39.6717,-122.0747,-151.1762,-268.1950,-164.8045,-245.7117,-35.1774,77.4169,29.7570,81.0186,-38.6520,-33.9919,-88.8273,55.3079,67.3953,198.6984,-191.1181,-270.3136,45.4875
-29.4014,-120.0687,-138.0078,-263.8095,-196.4309,-251.9038,-132.5522,0.5272,-22.3385,33.2578,-34.7687,-17.9765,-93.6663,44.3551,20.1707,165.6583,-188.8338,-248.1197,-3.3361
-51.8694,-130.6343,-132.7768,-256.2007,-187.3522,-204.1048,-79.3274,-2.0012,40.0525,29.0957,-38.0009,-3.2673,-76.5395,69.5354,18.9439,178.1783,-186.3465,-197.4987,-0.7735
-65.0926,-139.6186,-125.4120,-249.6127,-145.3813,-159.1393,-2.7202,-14.7058,69.3353,35.9142,-27.8339,-22.7481,-40.7046,84.7996,50.1268,203.5736,-180.3198,-174.8140,-38.3455
-48.6601,-128.5634,-76.4401,-204.8358,-106.1782,-118.9978,-75.0271,-71.6687,-104.6468,3.2442,-6.5377,-32.2401,-9.0717,103.0633,35.4662,228.0967,-135.0333,-123.5203,-98.8121
-34.6417,-107.6138,-15.1763,-113.7048,-84.5987,-52.5658,-208.2674,-75.0050,-256.0715,-20.9300,2.7146,-36.3689,-12.0138,127.6440,-13.8152,249.0891,-70.6829,-36.8800,-121.6198
-26.9156,-89.7815,-3.8085,-45.5537,-80.7597,-17.9824,-231.5774,-28.6231,-125.5607,-1.9388,-3.0239,-73.4368,-55.0126,107.5613,-31.3013,232.1832,-43.1413,-29.1543,-126.4003
-16.0571,-74.6395,-10.2602,-38.7533,-76.1245,-42.4844,-189.6194,-32.2700,55.1541,8.6815,-5.8744,-111.5993,-86.9243,52.9838,-25.4323,184.8611,-46.0557,-75.8138,-154.6192
-19.0411,-59.5739,12.5885,-35.9999,-58.0200,-46.8964,-172.9405,-69.2573,44.4218,-7.9809,-3.5025,-113.5583,-72.1256,30.6492,-33.7567,158.8818,-37.7618,-48.3483,-181.4689
-34.4228,-44.7313,13.1621,-7.6992,-63.5310,-30.6368,-137.7836,-63.4770,15.6840,-4.2083,-8.0914,-113.7364,-59.8915,31.0475,-39.4699,152.6305,-33.8653,-6.4805,-175.9522
-39.3814,-36.3186,-39.7633,1.2698,-116.4582,-63.7104,-107.8191,-38.2056,36.4609,23.5637,-15.1489,-142.2844,-85.1692,4.5217,-31.2147,130.0842,-65.6277,-52.9687,-174.1900
-35.1070,-42.3984,-81.9417,-9.7510,-160.7470,-96.5928,-180.5013,-36.3057,-56.4356,29.4855,-11.2971,-170.8522,-107.5720,-22.7579,-39.5630,103.6070,-94.3052,-92.6518,-194.9610
-34.7173,-51.0787,-78.3393,8.3000,-144.1608,-57.5480,-252.9005,-19.6849,-137.9044,18.2402,-4.7746,-160.8919,-111.3841,-0.2218,-60.2367,111.4209,-70.5562,-48.9872,-174.6322
-40.6858,-38.1692,-53.5156,49.2540,-88.4788,-2.5963,-157.9601,33.9331,-24.6267,30.5039,-9.3543,-100.0279,-105.7810,60.5979,-46.6536,157.5175,-20.1792,0.0824,-96.8104
-44.7624,-10.2323,-11.7115,74.3512,-26.4944,24.3172,-5.2055,58.0754,45.3462,47.0502,-10.4488,-15.5275,-58.0509,120.6063,-1.9276,208.1031,16.9724,27.3671,-49.3518
-27.4001,0.1950,40.9660,88.9730,33.1166,66.3124,10.4742,12.3159,-104.2086,19.4146,10.0560,29.1086,10.1286,155.5363,15.2185,225.2883,57.1399,69.4516,-58.1448
7.3147,-6.7203,76.9471,117.6790,77.2061,126.6004,-43.9939,-30.1731,-200.8388,-28.1475,33.7765,16.3052,6.1855,158.4276,-14.4000,206.1146,116.2348,103.6609,-42.4919
20.6794,2.8809,102.6145,156.3925,103.9922,164.9634,-8.9027,-0.9059,-86.4284,-37.4722,36.0594,22.1700,-54.8163,151.1159,-45.5976,178.1427,167.0329,121.1063,22.4678
4.4801,24.1002,124.9358,165.4998,121.0463,168.7132,82.2764,54.7433,35.4411,-16.8092,25.7029,82.4300,-79.6838,154.5219,-45.9432,158.0635,179.1955,137.5605,81.6049
-16.3274,8.8151,108.5794,106.9540,109.3211,136.7543,117.6663,79.8403,74.6878,-1.9142,14.5748,99.2662,-78.8158,147.2887,-33.3819,150.9300,141.5423,121.3827,110.3869
-42.7886,-40.9194,59.6238,23.5229,72.4204,101.0572,99.6725,94.4845,126.6855,11.8523,-3.3933,18.9615,-85.2455,117.4647,-27.2969,160.8903,76.0491,94.9477,112.6512
-70.9740,-61.6592,35.2016,6.5468,63.8976,113.5800,81.5620,107.1689,163.0961,25.4134,-18.2525,-41.6310,-54.2615,103.9655,-19.8890,170.2484,42.1549,128.7310,86.4755
-69.8164,-41.4127,34.8776,42.4881,84.8364,138.8534,57.3162,90.8286,114.7462,21.5770,-11.5841,-4.8369,-2.8902,122.8057,-7.3821,164.3223,54.6131,164.8442,48.8734
-52.0586,-38.0799,21.1282,38.3294,74.4672,114.1060,-4.1277,64.0973,31.6376,13.4478,2.5575,28.1072,-3.6802,133.7180,-3.0627,164.4187,51.6764,125.0462,13.1482
-52.1363,-61.7402,10.0255,0.4443,40.1386,82.5252,-84.1130,44.0231,-51.9727,9.7550,5.9800,-7.3685,-19.1632,118.8448,-11.9509,172.9422,19.6000,89.3713,-30.6034
-47.9402,-61.2243,21.2513,1.2944,39.3838,87.0140,-129.6910,-1.5094,-146.5543,-11.1841,11.6046,-27.4506,11.3224,104.9704,-20.3085,159.2122,17.5352,111.1131,-72.9430
-24.9052,-32.3236,23.7905,26.5889,52.6787,76.8791,-126.4536,-46.3534,-192.7997,-29.0836,20.9840,1.2344,43.9475,101.5822,-11.9670,134.9340,36.6132,107.2806,-92.5222
-18.5573,-15.3796,7.4995,27.7792,34.4296,40.5619,-105.2824,-29.3252,-147.2594,-7.9333,12.6977,14.1480,50.6003,93.4949,9.2809,129.0049,20.0522,65.9168,-90.3643
-21.8968,-12.7607,5.7810,17.7780,13.8747,25.5570,-94.4439,-9.5261,-100.7650,5.5228,0.4301,12.5422,55.2218,78.3009,14.4382,113.7355,-0.3266,52.7202,-77.8675
0.3835,-11.7841,20.5787,9.0117,20.2033,21.8534,-107.8054,-65.9210,-146.2628,-34.4344,17.0168,37.1739,35.0854,67.4289,-9.9874,76.4164,21.0419,42.9881,-77.0217
18.9023,-26.0016,19.3853,-13.3138,28.1304,12.5668,-125.5845,-117.0456,-206.3024,-65.8515,41.4611,54.8151,-2.7162,72.6576,-24.5588,71.0980,36.5452,8.0879,-92.0989
3.2157,-46.5025,1.7046,-33.5535,38.5742,27.5221,-77.0438,-66.4810,-121.5060,-35.6755,29.3751,42.6024,18.8518,97.0967,9.2590,113.9690,18.9494,4.8014,-59.8929
-11.8335,-36.6152,1.6852,-24.3077,77.2612,52.0714,59.0293,26.7243,101.7197,9.4976,-7.4542,51.8925,79.1831,129.2261,60.7482,159.1670,23.6750,39.4232,49.9176
-7.9509,-2.4583,28.2536,11.0656,116.5688,51.6558,178.7205,77.5419,264.7575,27.4489,-24.2485,99.1307,73.1808,158.7054,75.3195,190.9510,66.9110,54.3487,139.8188
-8.5008,10.9106,40.9660,45.1524,114.5971,51.4666,189.5629,82.3562,248.7149,24.8357,-11.6649,125.4979,2.0867,174.4100,47.6010,204.9342,98.1803,49.3664,139.1043
-15.2413,-13.5399,9.2379,32.7360,87.4671,58.5231,124.4788,48.4326,138.0033,0.2483,7.5240,82.1908,-52.7526,143.4452,6.3079,163.3288,88.9892,50.3887,104.8119
-22.4619,-56.3732,-36.8604,-41.5337,68.8130,47.1409,52.2561,-1.5911,24.8447,-30.6500,15.8633,-17.0012,-48.4424,60.2651,-16.0263,75.0304,42.2149,52.8938,77.9821
-41.5558,-91.1310,-66.9897,-111.0648,59.4729,49.6000,20.3714,1.2511,-56.2219,-20.0934,8.4022,-103.5868,22.9131,-5.5125,9.1842,14.0662,-25.6649,62.6992,54.3571
-65.9821,-95.9653,-103.9480,-109.4074,49.2747,83.0986,71.7050,65.9304,-3.3834,28.4982,-12.4341,-118.3665,108.8400,-1.3996,64.0627,10.8115,-71.6920,82.5669,68.2194
-76.1245,-66.7682,-147.2508,-58.6213,36.3443,83.8113,172.4383,98.9155,224.8087,54.5262,-34.7383,-80.4550,116.2106,30.6789,85.1032,31.9590,-66.4860,88.3828,101.6941
-63.8219,-26.8520,-141.9370,-10.5552,24.7648,40.9825,208.8086,34.8379,395.2095,29.7380,-37.5602,-38.9650,65.3651,45.0938,57.8150,51.4619,-31.3580,73.0519,62.4459
-23.8648,-6.6998,-90.6392,2.5592,18.7273,4.1407,119.0500,-91.4472,216.4312,-25.7193,-5.3256,-4.2304,52.5314,46.4942,29.4216,52.5784,-3.0118,36.2996,-46.4698
29.6994,-10.1546,-60.0444,-36.3441,7.0590,-48.0084,-71.9974,-207.1745,-242.7942,-83.1462,45.4269,13.6353,60.0201,22.0984,9.0248,14.4397,-0.9507,-30.0221,-141.6914
59.4597,-10.0857,-48.3155,-78.4497,-20.0706,-119.4133,-264.7751,-251.3900,-551.0884,-112.7876,67.1113,5.7888,33.1477,-29.4958,-27.1063,-39.5532,-14.9870,-78.4904,-187.2918
54.0984,9.8584,-8.5637,-43.8017,-36.6292,-112.6953,-282.2845,-196.7184,-403.3048,-97.8011,36.0667,16.5484,18.9495,-31.7049,-51.8671,-38.2092,-5.2525,-43.9229,-144.2209
33.9484,31.9203,37.7550,50.4953,-7.4785,-8.6212,-82.5648,-79.8890,-30.3304,-56.1395,-8.7376,70.8054,38.2436,59.1835,-33.8619,49.0055,50.3286,45.4983,2.9066
14.5346,46.8737,64.2173,142.8528,61.1183,96.9671,96.9831,26.7936,110.1078,-18.3294,-16.4895,117.8212,32.4080,164.6053,-9.6190,157.9702,128.9238,125.7390,125.7790
6.9012,68.6099,102.1388,233.6945,126.1726,176.8506,94.4376,87.2220,10.4668,3.8195,6.0112,131.0477,8.0099,206.5645,-12.8173,198.8884,196.1880,187.1972,119.5834
13.2328,84.2589,142.4978,292.4830,147.6299,239.8834,65.8919,104.5060,10.8176,10.7274,17.9586,126.4927,5.7008,188.3981,-21.7561,156.7879,220.9121,214.4651,77.4236
20.2988,71.7433,144.0634,252.6298,132.1069,230.3159,125.0419,89.6613,114.7000,2.2846,10.7549,82.8964,-2.9073,126.5169,-24.9894,86.6894,197.3871,185.2766,102.0920
32.1113,60.1114,148.1299,181.7735,139.2980,172.9288,170.0462,88.2670,99.2003,-7.6629,0.5781,2.1635,-17.8175,51.2770,-29.3254,40.7465,183.5223,153.9675,178.2632
51.7224,70.4207,185.2269,185.5808,188.3189,180.9057,191.0690,163.1624,90.7708,14.1155,-14.7369,-43.6596,9.3893,29.9450,-9.5913,42.9821,210.5050,166.4152,281.8932
37.9014,53.8294,157.2813,178.5190,193.6673,212.2550,268.5984,276.1604,291.6219,73.2486,-41.3637,-39.2185,38.8911,60.8923,43.1988,78.1588,187.1941,152.0240,364.1777
-24.4639,-11.0154,13.7704,45.0536,96.2631,129.0654,334.0071,297.5555,509.7992,117.2368,-62.6570,-48.6172,5.0382,47.8787,78.7965,75.2970,50.1898,54.4446,333.8729
-71.2299,-62.4867,-119.0130,-122.2919,-25.7147,-25.1844,306.8538,195.1113,507.1277,104.2703,-63.0320,-88.9724,-39.5979,-42.5522,70.4958,-8.4641,-100.2556,-57.4186,211.1168
-56.9335,-64.8351,-140.1448,-191.6200,-83.0622,-116.2246,221.6956,71.2658,303.6229,63.4817,-46.8040,-130.1161,-23.6252,-130.0936,55.5816,-98.1640,-160.3239,-118.8527,99.4159
-12.7169,-51.0558,-109.5212,-186.2580,-88.0933,-146.0945,80.0805,-5.2100,-15.5045,34.6913,-22.5597,-155.9732,27.3679,-152.6346,57.6941,-108.7365,-156.1591,-149.6141,17.4178
16.4236,-45.9758,-99.1485,-174.1214,-77.8164,-159.6830,-83.4259,-47.3872,-265.2292,15.5977,-1.5309,-142.7284,65.1389,-127.5524,60.0243,-75.6873,-142.2784,-159.3965,-50.3558
11.5642,-49.1324,-94.0554,-168.9537,-65.7662,-142.3004,-136.8885,-76.2730,-228.5662,-1.5683,5.2369,-90.6574,70.8895,-97.2403,49.8633,-66.0258,-134.6161,-136.8163,-98.6138
-7.9769,-54.2459,-67.8545,-164.2771,-73.1726,-121.1482,-123.8664,-126.1985,-82.3871,-22.8338,8.2411,-61.7570,39.3605,-93.5508,20.3733,-75.8158,-135.1773,-113.7412,-172.9003
2.8146,-35.7913,-25.8397,-125.9185,-87.6083,-126.0091,-195.2925,-207.8587,-115.8080,-61.3865,20.6402,-67.9209,5.3909,-110.3390,-27.6824,-88.7167,-111.6372,-99.4481,-268.2148
34.3272,16.3968,23.2719,-16.2276,-48.8391,-75.3523,-228.0427,-225.2087,-144.9403,-88.1193,28.5901,-26.3764,14.3442,-86.5570,-56.1034,-94.9861,-28.5003,-34.8172,-259.0025
34.2166,64.2345,76.7031,119.6622,47.8298,67.0625,-73.5112,-116.6234,-0.6055,-59.9721,27.2362,87.0688,43.6828,10.8191,-33.5848,-55.8274,77.7926,75.7624,-133.0583
25.7351,83.5573,129.5736,196.8392,130.1060,169.6279,50.2238,-16.8302,8.4007,-21.9398,41.1489,182.3629,47.8584,107.0882,-0.3762,16.3868,150.6939,129.8130,-54.9491
59.6127,95.1191,168.4947,210.2014,152.4547,153.2646,-41.7838,-55.2355,-209.9829,-45.0958,68.3896,194.1216,35.5360,115.3484,-12.0572,33.9960,186.6553,106.4433,-89.9580
90.0482,110.8906,183.0553,221.8262,133.8844,116.5120,-154.4689,-131.4819,-281.3519,-89.9737,71.5764,153.9936,22.9374,67.9278,-56.1270,-7.7564,200.6930,103.7707,-134.3582
63.1544,125.1784,182.2828,264.5681,114.6893,132.9748,-110.6520,-92.5208,-87.1644,-73.5442,42.6582,115.7446,-4.8189,51.0694,-81.6140,-11.2180,203.2488,155.3074,-113.6428
17.1534,135.3064,163.5476,306.4039,115.8928,158.1050,13.1363,28.9214,146.9776,-6.4191,11.3938,89.5140,-37.7190,65.7221,-65.1330,32.3255,199.7449,188.4584,-54.8686
-2.0789,126.0824,108.2505,296.8083,116.4330,162.4704,103.8395,94.7050,246.8273,39.2322,3.2136,60.4037,-35.2362,59.1560,-24.1133,32.2220,172.5402,163.9175,-20.9543
13.2051,90.7265,49.7626,238.1007,88.7803,155.3938,73.9199,60.2389,64.9580,28.0311,22.7541,22.8678,-0.0030,27.5928,-0.8582,-20.5741,127.0630,110.9173,-29.1918
55.2849,60.1288,38.5271,179.7021,47.5476,119.3888,-76.9371,9.7943,-291.2634,-10.3418,41.6948,-29.7929,15.7482,-10.6837,-18.6865,-58.8251,104.3243,61.0488,-15.4282
72.1123,51.2304,29.8617,135.4017,6.2312,52.1724,-143.6188,13.8086,-321.6844,-19.5127,21.4668,-95.7094,-8.0294,-62.0787,-43.7569,-78.9517,82.3227,26.5571,38.4609
28.2538,39.7154,-40.6456,69.9025,-55.6513,-18.8675,-26.0084,8.8719,34.6148,0.5719,-16.6255,-116.1964,-32.1114,-107.8901,-36.4516,-114.0346,3.5706,-9.8586,29.0984
-9.0385,16.6391,-119.4035,-27.7775,-122.0779,-98.2644,51.4157,-79.8700,191.0770,-8.7152,-17.3355,-42.8007,-30.1651,-109.1553,-15.2900,-141.9368,-88.4590,-79.1215,-66.5464
10.8712,-2.4385,-126.7548,-119.4132,-136.2721,-180.2021,-36.9231,-171.5991,-11.7122,-49.6206,9.0337,41.9581,-23.3092,-86.5621,-11.8769,-132.6552,-115.4140,-152.5696,-118.3144
36.2759,-16.8382,-78.0040,-160.5325,-97.0905,-199.8784,-135.4672,-167.7612,-184.8069,-66.8268,18.6231,36.4896,-22.1291,-83.5148,-19.4220,-106.6328,-93.3829,-162.0752,-85.0862
39.6718,-27.9363,-20.0020,-141.0944,-53.2279,-138.6716,-173.0393,-125.6386,-220.6247,-63.2757,17.6012,-2.6957,-11.2751,-80.0375,-27.4124,-87.0798,-62.0443,-111.5433,-57.1760
39.8816,-27.1402,13.6493,-99.0248,-23.1666,-74.0094,-165.3150,-105.5086,-122.7693,-62.9865,14.3130,11.9835,0.1155,-48.3131,-30.1105,-63.7337,-29.7601,-65.9614,-48.1712
18.8446,-20.4750,0.1813,-82.0323,2.6793,-56.4289,-30.3795,-52.3675,221.5984,-29.9515,-11.2931,40.4035,0.5251,-11.2084,0.9079,-18.8002,-22.8492,-56.0893,-6.5671
-9.9008,-19.2399,-15.1852,-93.0669,27.5579,-60.2146,147.5506,29.6692,459.6024,31.1593,-35.5476,46.2201,19.7678,20.3055,64.8416,45.8233,-39.9172,-74.3250,45.2582
10.1157,-19.8072,12.6049,-105.7715,33.6693,-71.1064,117.4094,32.2449,187.3453,38.5893,-18.4240,65.7356,60.8233,48.7964,94.7381,87.4902,-39.1442,-105.3834,48.1152
49.3377,-16.2751,13.8856,-99.8898,-10.6403,-97.2983,-65.0251,-60.1809,-163.4566,-14.1539,11.0872,70.9431,63.6448,34.7140,54.4096,51.6765,-35.3116,-126.3493,-16.5744
50.6512,-3.5291,-45.6968,-55.6659,-82.4772,-112.5049,-134.3721,-139.1752,-116.2245,-47.0787,13.3779,12.6608,14.3921,-25.3643,-1.5934,-27.1365,-49.5432,-125.4152,-104.3408
46.3611,21.8208,-59.6095,21.6949,-101.8939,-88.8198,-91.0564,-131.5999,22.6164,-36.4288,2.2600,-42.3825,-14.3076,-45.5980,-18.3806,-36.6206,-31.4610,-103.0240,-120.8320
52.2826,47.1996,-8.3676,79.4113,-69.3071,-55.6742,-64.0921,-68.0520,-6.4457,-13.1002,-11.4127,-28.4469,17.0208,1.9468,-4.1753,33.1125,12.4622,-57.5172,-55.1956
29.2175,64.8445,-9.8781,85.6617,-69.4668,-65.2445,-31.0381,-30.4718,-10.8782,9.3024,-29.8487,8.3691,58.1690,26.9505,12.8350,59.3945,2.1449,-19.3284,-26.5289
1.2040,87.5094,-63.7439,70.4294,-103.6322,-121.3279,22.2704,-54.1541,35.4468,18.4855,-34.7006,28.2236,55.0466,-13.0054,16.8304,-1.1253,-40.9439,-30.9023,-72.1108
0.6813,109.8831,-84.7737,58.3592,-113.4434,-178.3632,54.3738,-86.2218,83.9177,10.2375,-31.2188,35.1314,17.0993,-60.4666,4.5142,-59.6248,-49.0561,-61.4577,-94.2210
-11.0046,111.5250,-103.5275,41.2501,-118.8579,-207.4140,80.0097,-93.5988,201.1696,4.9068,-43.1840,8.4066,-10.7879,-94.1049,-11.9349,-85.7701,-57.7693,-57.3398,-85.1804
-30.8314,104.8373,-137.2764,19.6671,-132.1548,-223.5498,59.3559,-116.2983,164.4241,-2.0201,-43.4421,-35.9697,-10.2088,-136.8715,-24.4336,-128.4014,-85.0450,-38.7206,-119.4195
-19.6664,106.7796,-109.4203,-0.6812,-91.1339,-233.1854,-47.9483,-143.7049,-149.8622,-24.1388,-10.6290,-32.5090,-3.8391,-159.9132,-36.7645,-160.7325,-69.0008,-26.7929,-157.0585
-17.1281,99.7768,-50.6230,-23.5756,-9.4922,-216.2246,-94.7347,-121.9846,-293.3890,-33.6040,8.1733,1.8229,-5.5539,-135.9718,-39.5530,-132.3060,-27.4441,7.1532,-132.1525
-48.5511,78.4568,-54.6335,-47.1276,24.5788,-186.6814,-8.7216,-97.6556,-105.1589,-26.2547,-5.8805,-6.5869,-3.1751,-119.8162,-31.1461,-106.0900,-28.5487,49.9257,-100.0984
-63.5347,61.3132,-78.2536,-73.5801,13.2097,-182.3323,37.5174,-123.1539,11.1384,-38.7680,-14.5087,-48.0439,-6.1152,-152.6979,-40.5652,-141.7168,-49.7854,63.1810,-101.4042
-65.5673,43.1720,-66.1004,-98.3263,15.7438,-174.0953,21.0405,-115.2531,34.4646,-49.9959,-17.6765,-71.3361,-31.4436,-174.0288,-63.3441,-163.8893,-49.5321,74.0853,-70.8066
-78.0470,21.8054,-50.4514,-76.0583,53.7658,-97.5471,85.3624,-25.0347,131.5897,-23.7311,-24.8514,-67.8807,-46.1948,-119.5569,-53.2006,-103.7070,-17.4000,112.7685,22.1828
-51.3107,28.2578,-4.3862,18.1668,137.1911,26.1581,133.6004,55.1279,48.9962,-5.0309,-4.9889,-32.8984,-22.8867,-23.7655,-23.1656,-18.1655,75.0643,159.1171,113.3074
-4.1338,60.9225,80.6805,121.1640,212.9045,109.7686,68.4020,88.0257,-79.2817,-10.8558,19.0118,20.0987,-11.0873,36.1162,-24.9723,24.2528,174.8096,195.9816,139.0129
-22.9493,75.3990,78.2477,163.1197,168.2024,113.3246,94.7522,124.5305,222.5140,20.6692,-8.0254,25.6763,-49.0279,32.5769,-34.1406,24.9263,156.3591,186.8139,104.0035
-43.2463,68.8730,-4.9403,153.8714,53.3452,67.0581,207.3527,138.3136,434.4812,65.3126,-32.6749,-23.8384,-78.7894,-2.4999,-10.7946,4.3123,73.8623,96.2255,78.2447
32.7165,73.7100,18.2506,136.5506,44.4622,24.7258,98.1157,102.3531,-104.9005,39.7067,6.0709,-45.1576,-46.9828,-18.3601,2.2210,-7.4497,93.1901,13.2724,119.6248
94.0951,85.0395,112.9751,131.1784,97.0523,11.1800,-111.2259,100.0811,-548.3044,0.2585,24.3121,-22.5930,-5.1611,-1.1165,-20.3193,18.9527,155.1211,33.8415,185.0827
36.9760,80.3317,71.6359,134.2543,27.0491,-1.4477,-36.8306,150.1141,-100.9676,37.9163,-35.7603,-34.2559,-23.2858,4.1778,-29.6164,45.4952,99.2012,63.8823,188.8559
-24.5927,62.7145,-46.7796,125.1638,-106.4235,-30.6890,135.0439,149.2618,331.9236,80.6297,-74.7867,-94.3699,-75.5358,-34.9669,-24.0168,14.9665,-4.2779,14.0520,131.0765
-9.0334,43.1514,-52.4060,99.4923,-119.9321,-30.8585,55.0004,95.4113,73.6752,54.5521,-41.8531,-136.1557,-85.6261,-77.5382,-39.4104,-39.2966,-17.2269,-13.4799,75.3297
0.8992,30.9662,-4.6295,80.2818,-50.5972,10.2775,-40.9193,86.2065,-84.5260,37.2090,-19.7397,-131.1769,-41.2797,-85.9493,-35.4701,-63.4564,1.9207,24.2859,43.8954
-18.6203,31.6978,-26.9862,56.9411,-33.9689,12.9859,79.1299,104.9355,177.2026,67.5316,-34.4750,-103.7971,0.8804,-89.2505,15.9307,-80.3172,-31.4898,6.6873,30.4600
-9.5730,21.7774,-64.6309,-8.2414,-60.7487,-50.3169,143.1415,85.3300,192.1652,68.5183,-35.0594,-79.8966,3.2426,-97.8941,43.1586,-93.2648,-68.2290,-70.7359,59.1531
-5.1413,-23.2094,-82.3320,-97.8795,-79.6041,-98.4894,68.8634,74.4669,30.0317,40.6985,-34.0732,-74.1686,-19.1115,-75.1313,22.7820,-53.9521,-84.5012,-93.4149,130.1774
-51.8593,-68.9185,-128.6502,-160.3455,-100.7428,-100.4270,119.1858,98.1482,210.5482,51.7033,-55.4362,-68.1582,-33.2393,-40.7823,25.6558,-6.2199,-127.7314,-78.3583,157.0288
-75.8888,-64.0499,-144.5333,-178.5288,-101.6035,-105.6863,195.3470,61.9765,306.4109,58.0671,-48.9416,-26.0169,-11.6935,-48.7278,50.0922,-38.8356,-160.4116,-88.5313,79.7545
-18.2886,-24.5979,-53.8072,-153.2457,-34.2945,-107.0186,45.8997,-40.8211,-109.8740,-2.0128,0.7385,25.5152,43.2627,-63.4313,36.2795,-85.2320,-99.1157,-73.4731,-1.7303
45.6775,-4.9509,48.5740,-102.3119,66.9739,-65.8029,-87.9786,-71.8514,-395.6889,-51.8976,27.2164,19.4906,79.4626,-31.2001,17.2346,-34.9968,9.2597,-20.8872,32.3537
38.2907,-17.8237,44.6528,-85.5187,106.9167,-32.0789,37.8675,-3.5079,-115.1985,-22.9113,5.8112,-34.7914,52.5591,-7.5535,37.7278,32.2331,37.5121,-14.0378,115.4434
-6.8386,-34.8328,-24.6649,-118.1807,48.4262,-59.1945,160.1720,41.2220,185.8241,16.0493,-20.9531,-63.1958,-4.5394,-39.8057,42.3011,5.0282,-24.0918,-48.6878,128.1239
-30.5021,-32.7538,-62.2679,-117.8806,-36.0579,-84.2212,113.0146,33.8527,176.6739,12.4594,-34.0907,-36.5909,-32.5495,-49.6486,4.1091,-31.2761,-64.9088,-39.4139,111.6688
-31.8063,-8.0223,-47.8519,-37.3224,-46.4342,-39.0782,120.2226,50.6769,160.2827,11.8107,-38.9655,13.5907,-29.7895,12.3586,-12.1875,16.0472,-25.0021,15.1442,138.1495
-24.9424,27.2841,-14.0935,57.4952,17.2230,28.5549,214.2621,86.6699,190.2938,29.0288,-26.0044,43.3993,-29.6843,61.1276,6.0337,60.0914,46.7054,54.6465,158.6184
-8.0419,52.5476,15.8260,105.5636,67.4068,55.0041,200.8699,103.4941,69.0062,33.8162,-4.2600,33.4497,-37.1310,47.0935,7.7361,40.8410,91.2637,66.9921,150.3482
6.4835,59.2373,44.2500,124.1232,68.1266,63.7256,128.2628,135.4344,-68.9595,40.2703,-3.7189,23.8415,-28.2727,45.8643,1.2652,44.7072,103.8334,75.2077,172.0215
7.3695,54.8003,65.7838,130.5701,55.7952,80.7027,117.2876,172.1385,-50.4791,57.0744,-16.2618,56.7342,-2.8497,87.1701,14.8538,89.4028,99.2764,76.9184,197.3805
9.4354,39.0976,49.9612,103.0528,40.7060,69.2180,85.1097,144.8592,-1.3069,48.4171,-12.2313,70.4760,-8.0181,85.7435,15.3081,78.7275,78.3042,47.0052,158.8343
5.9988,9.0283,-1.0761,45.8032,6.6857,24.2769,40.8672,109.3355,36.1819,35.2618,-7.8226,-7.0360,-62.1278,17.1422,-6.5348,22.6280,37.3202,-3.6725,118.1481
-30.7746,-14.2648,-37.6542,9.4023,-26.4244,5.1929,119.6028,169.0186,162.0783,77.5985,-31.8213,-92.4112,-89.1714,-21.1112,5.4553,25.7147,-13.3104,-19.9622,143.7273
-74.3426,-12.7648,-47.8109,8.1374,-32.5728,19.8122,217.6173,242.8548,248.4996,134.2439,-54.6088,-67.3701,-39.1024,13.7009,53.7286,71.8566,-51.0272,2.9403,155.4525
-78.9409,-10.2211,-62.5236,-6.9262,-24.6709,14.4698,159.4667,201.5931,151.9381,120.5792,-36.4751,16.4765,-2.2397,42.1012,64.9295,61.2518,-63.4447,6.1499,89.2609
-64.5871,-22.7594,-66.8531,-39.6097,-17.8718,-3.1380,65.3081,108.7200,59.5174,62.7063,-4.3288,43.1105,-48.1518,17.4746,20.5060,1.7636,-53.1597,-7.0938,24.7400
-53.1375,-17.0462,-21.2325,-19.8245,7.0420,21.9814,74.1249,72.3772,98.9331,31.6650,3.0844,15.4107,-79.4438,-12.0751,-14.7140,-30.3167,-16.2915,20.4108,18.8954
-19.5596,11.5829,43.4703,43.1270,59.3962,73.1891,58.8560,59.3996,68.7915,19.3315,4.8728,-12.2152,-18.5862,-19.8171,-6.7770,-35.5511,35.0445,64.0505,15.8666
14.6089,5.4430,59.5841,38.2879,93.3041,91.5248,-46.7780,26.3734,-73.3459,-1.7974,19.7797,-34.2619,43.0569,-30.8100,7.0445,-52.5690,46.3823,63.6918,-13.7673
0.5033,-40.7861,25.6862,-42.0128,68.6199,72.5147,-97.2394,-0.2642,-95.6772,-16.6607,24.5313,-44.1657,32.3347,-44.5478,-0.6809,-71.6114,-0.7354,39.6200,-36.3666
-15.9274,-51.7656,1.6768,-77.3964,25.6804,41.8469,-77.6958,-36.1829,-42.4357,-27.2357,20.6766,-16.3163,15.5983,-44.9755,-11.3391,-82.7946,-35.0872,21.1106,-61.4090
25.9786,-7.2017,25.5104,-28.7325,21.4580,17.1488,-121.8238,-107.3219,-152.6470,-55.7974,37.5590,32.3830,35.5257,-43.6850,-16.1899,-103.6554,-4.1472,-3.4611,-112.4350
70.7527,29.1371,67.7860,36.7981,34.4936,24.7204,-189.5353,-152.7909,-274.8582,-82.9635,55.8700,47.7265,38.4183,-43.0856,-33.4602,-114.3480,47.6327,-7.3119,-143.6177
59.3431,29.7902,75.4669,88.0910,26.0112,68.5633,-156.6484,-132.6665,-148.0853,-78.2938,43.0262,14.7887,11.2605,-26.4982,-54.2188,-82.2407,69.5538,33.3223,-129.4191
38.3383,25.0722,56.0060,124.1329,26.0124,111.8582,-93.7104,-108.3353,5.9258,-59.6825,30.9350,-9.6747,14.5006,-1.5857,-44.5274,-45.0606,72.2979,64.7104,-131.4018
46.8298,25.6027,60.9970,123.4303,57.8303,133.5238,-111.8977,-115.9866,-83.6994,-56.6239,49.6596,24.5657,58.2210,13.8795,-14.5709,-50.2519,74.6153,58.3859,-167.0737
52.7615,21.3189,83.1933,99.1509,71.6124,133.9069,-155.4692,-118.2763,-203.7646,-62.3443,62.2246,69.1008,75.9508,20.8326,-9.6231,-63.7307,71.8504,53.3910,-173.0736
41.5696,12.0490,63.1255,85.9525,28.7695,103.1400,-177.9996,-107.9162,-155.5525,-59.8157,45.8758,51.3181,40.8906,20.5805,-31.2987,-44.1783,53.3601,45.5654,-156.2347
30.4481,-6.7172,0.6079,72.6525,-38.4077,65.2527,-227.5962,-110.1851,-110.3034,-50.4966,31.8770,10.7063,14.5600,22.2389,-39.9255,-16.0466,12.3442,11.5785,-180.0450
17.6510,-32.0152,-40.3546,55.3206,-74.4329,78.3363,-261.5587,-112.1639,-127.6859,-40.8354,32.2428,19.2878,40.6935,45.4384,-23.5918,-2.4823,-27.8074,-1.2778,-216.8837
5.5833,-36.0351,-36.5357,70.1022,-58.2930,127.3561,-213.8125,-99.0339,-78.9188,-34.1368,32.1389,39.0861,69.2118,67.0056,-9.4622,0.3377,-24.4082,31.5321,-212.5739
14.0681,-12.4212,-25.9946,108.7939,-27.9980,136.6457,-183.9278,-93.5188,-47.4441,-36.3112,35.3187,20.0784,51.3631,47.7108,-17.9411,-18.9596,10.8431,49.0405,-197.9188
34.5244,3.7409,-30.2316,121.6089,-32.1963,108.8971,-235.4298,-100.8518,-111.1112,-45.2009,41.1718,8.7385,26.4931,21.2008,-34.4671,-47.8613,24.5494,28.8402,-194.4436
37.9927,-4.4679,-25.8410,102.6695,-43.0790,104.9978,-231.9578,-94.4002,-85.0684,-44.9442,33.9237,28.4922,38.0641,32.9816,-28.8252,-40.3121,14.4930,17.9573,-169.6286
23.3720,-16.0087,0.2698,68.5863,-7.3919,113.0657,-130.8485,-68.2437,43.4990,-29.5483,21.7578,26.0189,58.0802,39.8216,-1.5264,-14.5581,10.0937,25.5356,-133.1641
1.3681,-25.1601,10.5244,10.0964,27.6455,83.9702,-76.6390,-41.5409,75.9942,-14.1986,16.1798,-4.5501,53.1785,-0.9265,11.3571,-33.7546,-8.6259,26.2755,-113.8891
-29.9264,-48.2427,-22.3023,-59.4260,-2.8253,47.3137,-74.8142,-33.9388,94.3442,-13.5382,3.8071,-20.1812,36.1073,-41.1641,-3.6504,-79.1635,-59.0827,29.2040,-96.7901
-49.4351,-74.5503,-42.3608,-87.8991,-30.9347,63.8653,-25.1682,-61.0420,187.7727,-31.1304,-4.0409,-24.6270,29.8553,-39.3595,-18.8211,-89.8558,-81.0654,47.7885,-85.0966
-19.7934,-73.1523,6.4605,-65.4785,20.8828,106.2315,-14.7107,-105.5279,81.1571,-61.4727,22.3684,-28.1588,40.7522,-26.4130,-19.2975,-79.5387,-29.6718,58.3815,-91.8702
34.9454,-43.7862,68.2076,-42.2797,84.0228,99.0717,-104.7844,-111.4010,-192.6662,-79.5571,51.2086,-9.7076,56.7434,-33.5698,-16.8172,-91.7248,30.7077,42.7986,-72.1306
50.3830,-5.6659,79.0529,-30.2546,87.9827,54.7234,-107.1552,-72.2948,-134.4447,-66.6862,31.1550,11.3158,62.6210,-61.4747,-15.8532,-126.1704,39.6499,35.0869,-13.4254
45.1331,44.3826,106.1527,32.2850,102.1663,64.8435,20.7546,-67.5832,152.9039,-60.7730,1.3107,-0.0798,74.1533,-96.5317,-20.9424,-165.6776,64.8398,83.0373,9.3222
89.0586,97.9641,209.6529,153.6590,182.9675,149.1677,20.4037,-138.0012,16.3983,-108.3513,31.4009,-10.3067,102.5183,-99.0006,-47.0172,-182.9305,173.9171,164.2381,-30.6928
139.6202,98.3119,280.0515,214.4128,237.6768,214.5890,-144.8027,-203.5555,-393.2854,-167.8966,85.8725,5.3827,93.6566,-48.8343,-87.1172,-141.6920,265.8456,200.7152,-67.8139
98.3817,25.3188,218.1327,146.7666,182.7607,209.4866,-181.1992,-175.6477,-330.7878,-159.8800,78.2350,-11.7630,20.2871,3.1798,-108.0493,-57.9300,220.2202,181.6365,-54.1849
15.0813,-37.9104,131.5243,79.1751,105.1400,204.9339,-25.3116,-82.1908,77.3602,-96.4262,24.3847,-77.5974,-24.8215,19.6840,-90.5298,9.6379,126.6947,174.8806,-3.2561
10.2103,-21.1656,150.1057,130.3254,121.3982,252.7793,72.6179,-15.7990,113.5439,-54.9889,10.3193,-94.2279,24.0584,43.6277,-50.4055,48.0488,138.8988,200.9267,42.1908
49.4031,23.5067,214.2946,209.6570,183.7632,297.3542,42.1671,4.1109,-151.7558,-51.4491,36.4496,-15.4718,82.4916,104.2689,-23.0303,87.1119,209.9982,224.4623,60.2451
27.8178,21.0991,213.9692,199.1237,179.4598,292.9293,48.5592,38.4335,-142.2367,-38.4006,30.8543,61.7434,74.4846,156.8867,-21.3423,129.7488,205.3945,237.8808,84.7078
-19.8697,-8.9888,168.5324,141.5110,129.3797,266.6454,123.6490,98.4265,84.3164,-1.6362,-3.4280,65.4779,50.9660,165.3761,-12.0869,152.4177,142.5377,225.1253,126.6513
-7.4046,-16.5997,146.0211,105.3282,117.7012,229.9040,146.8818,122.8647,86.6296,25.9030,-2.6018,54.1129,57.9405,149.5594,27.4844,148.0207,111.1646,146.8168,133.2491
31.3704,-6.5251,148.0464,67.5178,122.3038,160.9014,104.5995,113.5434,-98.9989,34.5789,19.3194,75.9165,64.4488,131.5629,62.0761,134.9585,100.1615,44.5431,117.6857
21.5622,-4.1993,139.4586,5.4425,80.5506,71.6135,91.8014,139.6494,-130.9510,54.0954,-0.5802,85.7727,56.8626,106.4007,66.7232,130.4952,52.3034,-0.6961,146.3042
-27.8765,-16.8428,92.1723,-69.6891,4.2567,-12.9468,138.2936,189.2506,44.1212,92.7503,-50.1110,63.3124,52.0141,73.3301,71.6344,128.6277,-36.3249,-18.2100,180.4611
-68.2315,-41.3475,12.3287,-151.9915,-71.9890,-90.5656,200.6905,202.1197,215.2383,121.6980,-79.7370,56.4588,43.1789,52.7065,90.8880,121.9275,-128.3891,-72.4135,179.6092
-80.1080,-55.5947,-36.6095,-207.4526,-125.0522,-144.0287,241.8476,203.6242,216.9998,129.9923,-87.4445,77.1039,29.6211,48.2805,99.5048,111.1734,-176.7837,-122.2686,208.2359
-71.4684,-36.6111,-13.9934,-202.0952,-127.3411,-157.0598,234.2690,216.1732,80.3288,130.2050,-82.3285,89.4606,26.8799,24.6145,90.6811,73.4233,-169.8783,-121.6972,235.1591
-62.5790,-12.1155,23.3498,-182.1348,-105.1705,-157.8654,184.3541,183.3803,18.4487,117.4666,-65.7094,86.7791,20.8425,-24.6187,73.9970,7.8465,-156.8184,-113.8449,162.4502
-66.5806,-25.4862,21.4721,-198.9360,-118.1565,-162.6231,165.6172,125.6181,152.2346,92.9944,-64.6411,84.4204,-0.9405,-36.0672,53.9265,-6.5291,-168.2010,-121.7970,98.2257
-77.4053,-57.9181,14.2007,-218.2694,-137.8561,-142.2544,215.5307,135.3702,294.0996,86.0413,-84.5430,88.7230,-9.8406,16.7141,47.3285,62.3392,-169.6853,-107.1786,163.9380
-88.5023,-66.6385,31.7373,-200.7906,-105.3112,-90.1789,258.9026,172.7630,275.6685,92.9958,-83.6995,102.1786,-0.5542,61.4209,53.2910,108.2971,-142.7579,-60.7762,214.0981
-91.3226,-53.5382,59.7434,-150.6608,-58.6359,-29.0810,242.8746,140.7058,236.1727,73.8034,-56.6765,109.0956,-10.6733,52.6297,33.7587,70.6359,-103.3647,-9.4898,144.9474
-57.5565,-25.2842,117.4999,-58.6009,-30.6789,37.9419,205.3288,83.5843,245.3252,32.8426,-34.6964,107.1565,-35.4190,42.7642,-8.7668,32.6432,-32.5251,28.1864,94.9732
17.7815,27.7109,217.5974,54.2185,28.1266,92.5794,140.8604,70.0868,107.9941,3.8504,-9.9098,155.2659,-27.7780,73.1951,-24.2010,40.0789,77.4887,39.2523,119.5153
75.7520,71.4850,287.5027,95.4355,101.2578,92.5416,23.7511,68.0399,-149.4388,-13.5002,20.8305,268.8367,11.0140,118.7638,-11.7268,52.0625,149.8829,31.2099,130.1729
61.9452,59.5362,271.1313,40.6923,95.7313,53.1018,-58.3915,67.8695,-221.8612,-16.7368,18.3833,337.8338,32.9258,146.4637,-8.2693,66.9288,120.9228,31.1876,121.6620
5.9722,22.5609,210.4514,-14.8049,15.4854,22.0189,-44.9251,88.0735,-92.2470,8.9832,-10.7075,295.8209,12.4588,133.1200,-15.4024,78.5969,37.4937,28.1595,95.8410
-22.0091,16.8728,158.5470,-22.8824,-52.0443,-10.3906,-25.4138,77.2243,-2.2223,28.7674,-17.2443,226.9048,-33.5952,71.5528,-26.4130,30.9365,-19.5515,-7.8030,19.7071
-5.7872,28.4700,130.2294,-37.1137,-73.3701,-59.6567,-38.2536,22.7670,13.3856,8.9278,-8.9810,191.4871,-64.2424,0.2236,-42.7699,-51.2234,-33.6222,-53.9472,-20.4265
11.7368,19.0799,122.6112,-83.4839,-68.1644,-94.6057,-23.7350,1.1568,10.3491,-8.9983,-14.2803,146.7220,-56.4757,-41.1748,-42.1543,-82.0992,-40.5959,-76.8268,25.8580
2.5994,-5.5655,98.3748,-127.8307,-63.4155,-112.2001,-35.9496,8.6486,-80.2628,0.8222,-11.8977,87.3680,-44.1034,-58.6531,-25.0290,-69.1857,-66.5369,-90.6665,22.7322
-11.0647,-25.1813,33.6405,-148.9123,-87.0102,-144.1414,-153.0720,-29.4467,-214.6218,-6.3448,6.8396,62.0020,-66.6749,-62.0166,-35.4096,-61.8387,-95.6989,-110.1537,-71.2929
-2.4663,-29.1311,-9.4294,-147.5929,-127.4193,-178.7299,-259.0886,-90.3343,-237.3251,-37.8939,12.1845,68.6776,-96.2884,-55.8009,-68.5549,-60.3990,-101.4581,-126.3666,-123.1813
15.4856,-12.4811,11.4195,-130.4047,-138.7465,-184.4816,-228.7014,-98.2591,-159.4745,-43.3382,-0.0857,72.8170,-85.4162,-63.2310,-69.8170,-70.2330,-92.2276,-134.4172,-96.7753
12.7952,3.3797,23.6695,-112.6099,-111.9364,-157.5853,-123.0407,-33.8200,-65.6353,-9.7406,-16.9421,63.4580,-43.1235,-72.0863,-33.7035,-81.9860,-87.8739,-117.5818,-28.4074
-15.7430,-9.6542,-26.4762,-97.8629,-74.1803,-97.7319,-27.0291,91.4878,23.3528,41.5001,-37.3719,43.3537,-9.4555,-36.7654,7.7160,-46.6688,-83.5847,-64.5452,96.7502
-50.9714,-37.5724,-99.7595,-85.9897,-60.6852,-37.5804,38.7241,219.7941,43.5049,95.1443,-46.5652,31.4266,-11.3555,16.9681,39.3821,5.5951,-87.4927,-29.8114,206.0147
-69.9655,-51.4043,-166.9781,-95.9528,-103.8636,-47.5803,46.4552,253.8519,-13.1773,121.7521,-37.7038,49.6113,-45.2090,29.8759,49.1437,2.5433,-121.7520,-68.2435,203.3765
-61.3925,-50.7845,-216.8298,-119.6319,-168.3205,-111.4273,23.4033,202.0243,-10.9121,109.1649,-37.4077,75.9415,-62.8970,27.3780,44.3525,-8.6647,-156.5279,-132.2178,168.8198
-41.2327,-41.2906,-220.0749,-113.9899,-172.7003,-137.6430,40.1415,164.6963,72.3851,95.7234,-48.5864,74.2064,-38.4535,44.2258,54.9091,27.3090,-147.7659,-150.2610,173.5531
-38.4460,-24.1934,-196.9973,-80.0717,-131.6924,-124.1155,53.5243,150.9040,100.5117,92.9828,-42.7685,57.2375,-35.5525,44.9054,57.1357,44.5123,-116.2702,-127.4416,140.8781
-49.1219,-11.0291,-183.1432,-41.7324,-115.7570,-111.3308,-14.7337,112.0345,31.3977,64.3688,-22.3732,62.7469,-94.9259,37.2690,3.8801,26.8611,-80.8365,-80.1587,76.9768
-39.7427,1.2818,-133.4079,29.9224,-93.2735,-51.5092,-94.9607,84.0104,-63.9998,21.6958,-6.3018,91.4472,-134.9947,74.8454,-58.6234,46.3057,-8.8014,-1.2707,73.6499
-8.9155,26.1259,-40.1449,128.0886,-23.1921,59.6139,-84.6439,103.3070,-95.8608,16.9696,5.3800,89.8485,-93.5252,101.7931,-54.7771,62.3906,71.1798,64.3629,87.9787
4.3839,40.1580,-16.7670,150.1893,7.6402,94.6350,-26.0795,107.7309,-14.8506,37.1235,5.1283,11.3762,-40.3403,31.3091,-18.1136,-5.7666,64.4481,56.9166,48.3195
-11.8472,18.3010,-95.8730,78.3711,-57.4014,16.9539,-30.5348,47.9950,47.0337,24.8850,-8.0689,-87.4262,-53.9173,-58.2478,-29.5892,-75.5789,-10.1049,13.8040,1.0077
-20.4816,-7.8238,-156.6414,43.9785,-129.4851,-44.7644,-131.3252,-38.4878,-64.9765,-25.8084,-3.1242,-105.5724,-121.2128,-48.1719,-92.0085,-48.9370,-28.1837,5.1523,-30.7137
6.7492,-4.6491,-137.1050,93.0773,-140.6015,-34.7723,-253.9196,-113.9531,-218.5634,-77.8708,25.7912,-70.2510,-180.3212,1.6132,-147.9610,-3.0987,26.4387,10.2056,-82.8520
45.2377,8.6526,-95.9108,118.2675,-125.7313,-22.8780,-299.4603,-174.3145,-231.9762,-107.4711,40.6845,-80.0197,-170.2444,-21.9663,-156.8691,-35.9804,52.8566,-7.8064,-134.7732
43.1389,11.5636,-83.8959,87.9377,-117.2623,-22.4397,-247.5822,-193.0349,-110.2060,-105.1211,24.5171,-103.3901,-97.5163,-72.8241,-128.6554,-97.5444,19.0110,-1.5428,-152.1559
-2.9379,15.1284,-99.8059,93.3931,-102.2883,15.3342,-143.2849,-146.0869,147.4778,-74.5329,-0.5430,-51.3208,-57.4500,-45.2332,-102.3187,-93.8599,-1.8008,55.8515,-142.2977
-15.2239,25.6658,-93.9014,148.2011,-48.7326,76.4413,-62.9843,-96.4010,336.3611,-59.6880,3.2684,34.6292,-86.6456,33.2560,-94.2903,-38.8919,51.7402,91.9471,-105.5013
57.2752,35.6046,-12.2395,167.3368,57.0828,104.3419,-117.6136,-127.5786,-0.1818,-104.4666,57.6602,67.6235,-95.6616,64.3933,-95.2591,-14.8178,156.7710,72.4520,-55.1588
130.0510,38.8426,82.4384,130.9074,154.8701,88.2823,-290.3522,-179.4519,-654.6877,-158.4671,115.4399,58.9963,-45.2884,50.0855,-95.6117,-20.2658,224.9349,64.0215,-30.4814
102.7276,25.0722,70.0785,85.7789,166.9567,57.4506,-358.9528,-119.0606,-818.6823,-124.0208,108.5631,46.5732,-12.9416,59.7578,-71.4561,22.5728,191.7496,76.9945,-26.2925
19.5073,-13.0316,-26.9562,32.3250,115.4214,29.5024,-238.1336,28.2890,-473.1359,-16.3678,61.0930,17.9185,-32.0067,85.2969,-10.3420,99.9057,91.0631,40.6971,-8.9578
-46.5445,-61.7815,-121.1686,-46.4424,55.4717,-1.3043,-101.5664,136.9180,-151.9689,67.6159,21.0024,-38.8159,-54.7150,72.8068,41.9796,127.4560,-14.7713,-17.5241,18.1271
-127.5488,-96.5348,-226.4494,-109.2160,-17.6820,-33.5133,20.9734,192.8660,267.3863,117.4717,-37.1200,-93.5938,-58.7720,48.9181,58.5749,128.1905,-118.1524,-4.7762,30.7383
-207.8694,-105.1193,-319.0602,-123.3975,-69.0787,-47.1725,204.7013,212.2442,732.9365,157.8589,-87.8804,-104.6226,-48.3050,62.0601,82.4701,157.9369,-189.5023,31.2069,10.2383
-168.2617,-96.5553,-282.0450,-127.1743,-26.3796,-45.5318,221.5584,144.7652,414.6926,133.7142,-39.9087,-86.5931,-16.6195,66.8974,110.9583,154.8255,-159.5191,-12.3915,-27.7622
-35.1382,-82.3695,-150.9237,-130.0421,51.0467,-49.0882,-63.9201,60.2957,-505.4711,53.7161,47.0105,-103.8733,28.0931,26.1965,91.6283,97.4997,-65.1347,-68.5512,-14.0491
7.5852,-53.8089,-97.6351,-67.1090,45.5942,-36.4213,-229.5728,118.6590,-674.2775,51.8190,24.2212,-147.0899,63.4451,14.3666,61.7576,100.2521,-24.0435,-21.9275,71.3252
-61.8262,-7.4944,-135.2967,53.6487,-14.0699,6.0785,2.0305,258.5107,16.7742,141.9028,-67.3448,-144.0631,67.5128,64.3671,81.4834,176.1129,-40.8220,59.5228,142.8954
-91.3505,24.5680,-145.8688,110.3286,-41.0187,14.6743,243.8836,287.3564,407.4674,183.2508,-91.5496,-125.1345,27.4671,73.5472,101.3824,189.5035,-44.1332,45.0936,147.1543
-50.9934,19.6040,-116.7022,53.2813,-54.5283,-47.8076,199.4167,211.0314,250.7139,145.7238,-62.5892,-152.3389,-21.9749,-4.6154,78.3038,107.8069,-51.7302,-44.5015,110.5013
-35.6338,1.7673,-110.2526,-27.1937,-96.8711,-110.8052,97.4954,131.6662,145.5909,108.8987,-50.0048,-149.7936,-33.7307,-69.7848,53.2633,23.1375,-99.6236,-103.9061,43.4303
-59.4455,-3.7307,-135.0813,-47.0653,-144.6834,-113.5127,109.5965,45.3624,237.9486,73.4327,-47.6803,-83.7138,-33.5750,-69.7417,26.9881,-28.1538,-134.4311,-87.3547,-32.6346
-71.0046,4.5233,-160.7222,-1.2684,-171.7796,-78.1575,138.4776,-35.1873,381.1927,23.8404,-51.6156,-87.3173,-55.2291,-78.2481,-26.8622,-72.1875,-116.1973,-20.0483,-59.4966
-49.2696,29.0882,-140.8527,68.2705,-163.5331,-37.5903,130.4009,-60.4037,412.2051,-0.6309,-55.4091,-161.2465,-54.3061,-126.1654,-59.7766,-124.5276,-75.2822,28.8140,-52.8971
6.9625,57.3304,-52.0995,87.7860,-105.6088,-18.2201,58.0261,-87.4360,78.9913,-18.7987,-14.4091,-133.0611,-8.0738,-152.8399,-44.9244,-179.8874,-31.9001,6.3671,-79.4545
65.5182,59.6478,37.1203,35.0044,-39.7790,-43.6806,-103.6169,-169.2903,-383.7439,-69.9160,46.2434,-32.2517,28.2935,-141.4530,-38.8687,-202.8774,1.9790,-43.2154,-139.9522
69.4268,41.2723,51.0650,-6.8684,-29.8567,-75.5367,-223.7398,-240.9242,-419.7035,-105.4468,54.8949,-31.4211,28.5767,-138.5913,-58.4067,-181.1657,-4.1462,-46.5222,-222.8057
26.2370,21.9505,15.0876,-9.2345,-65.1184,-68.0282,-204.6927,-270.5504,-154.4927,-98.0833,36.6368,-81.0537,14.1487,-151.1910,-67.3948,-170.7370,-47.6014,-27.7480,-324.4789
-13.0169,-11.9203,-28.3495,-56.3512,-95.8239,-61.2447,-148.2132,-276.2516,-30.3570,-87.7967,35.4165,-59.1255,0.5987,-140.7783,-58.3150,-175.6694,-98.9324,-39.6061,-361.8326
-38.4334,-49.8684,-73.5824,-124.4684,-106.2585,-79.2553,-121.9056,-215.5788,-0.0760,-61.2500,17.4778,-42.1528,16.1584,-99.2999,-29.3988,-119.8037,-138.2875,-50.7685,-285.7218
-35.3769,-39.8207,-68.7430,-83.9802,-88.4607,-63.5663,-114.8173,-109.4601,-34.4873,-9.2405,-6.3663,-86.6859,58.0753,-62.7660,8.8896,-33.0881,-122.6915,-33.2919,-202.6456
23.7922,7.6032,30.1284,16.8720,-35.1836,-17.4931,-171.0845,-86.3224,-270.3212,-10.3537,21.7625,-86.9728,52.6826,-60.5245,2.3460,-30.1152,-33.6482,-33.0082,-188.8424
80.6980,23.8662,139.2426,13.0829,16.1819,-21.9244,-239.3281,-147.6543,-396.6039,-71.1073,57.0399,-18.7757,-5.2876,-76.9490,-46.6058,-79.5397,38.6475,-58.0205,-179.2829
64.2808,8.6119,169.2920,-62.0992,29.4593,-64.4588,-181.9933,-165.8185,-172.2759,-90.3908,32.4548,19.5565,-17.2054,-73.9309,-58.7511,-65.1253,26.7276,-50.8167,-137.7819
31.7707,17.6590,172.5898,-57.6047,38.1553,-61.6990,-65.5505,-122.1438,0.9556,-56.7056,-1.4565,9.5506,30.1018,-52.6415,-26.5938,-12.1378,12.4492,-9.4137,-103.3013
54.6847,55.0499,220.4049,16.0010,81.4116,-19.2598,-39.7166,-87.5092,-73.9074,-40.5832,5.8065,4.3887,58.1187,-51.1971,-9.7002,-12.4760,61.2031,13.0812,-83.6256
91.4610,79.7260,276.0328,49.5265,129.2359,3.1310,-61.6059,-87.3825,-97.2528,-50.3540,19.3476,18.6801,63.4697,-69.9253,-9.9747,-49.6996,106.5475,8.4552,-77.2033
100.9922,68.0070,282.5962,14.4800,139.6008,-3.4141,-66.6732,-129.7030,-59.1647,-72.8529,25.1224,41.8089,76.4664,-72.8857,-7.5287,-67.3114,100.8941,-6.9197,-93.6672
101.8095,26.8069,243.6212,-62.0268,122.3267,-27.0170,-80.4867,-184.1571,-107.4944,-103.0835,36.7688,51.9122,73.4382,-66.7882,-8.7802,-71.9476,71.2283,-41.3018,-95.2514
84.9542,-10.9054,174.9677,-144.9960,90.4350,-73.7375,-66.3235,-169.0650,-78.7772,-92.8536,28.7436,26.9135,58.4709,-86.2696,3.6983,-84.5440,15.6524,-87.7385,-61.2929
46.6482,-15.5160,79.6377,-187.3807,21.1882,-143.7983,-25.0909,-118.4026,33.2505,-44.0794,-2.1210,0.8868,60.8308,-114.4033,30.6149,-98.1920,-66.2067,-127.4272,-52.1033
38.4627,0.4958,-9.4330,-176.0852,-68.8123,-208.4150,-55.7634,-146.9518,7.9183,-38.4890,-11.7253,22.1837,57.4820,-108.0296,28.1314,-101.4986,-111.5867,-165.2339,-89.7408
60.6532,7.9290,-35.5561,-145.2966,-95.1986,-214.1435,-100.7657,-191.1823,-50.8365,-63.6458,0.0395,51.7600,41.3233,-78.6611,11.4123,-88.5605,-92.8925,-182.8496,-102.1762
54.1358,2.5061,9.3741,-123.6111,-27.3181,-151.7783,-34.2041,-120.7723,14.0614,-37.9113,-2.1421,6.8373,42.0135,-76.4641,27.7762,-62.9784,-57.2287,-143.4961,-51.5136
30.4385,-5.8002,58.3353,-110.8770,53.0087,-98.3353,34.9313,-24.6401,42.8875,-0.6326,-11.9210,-105.8668,32.9482,-106.3793,37.0508,-35.5391,-25.2922,-77.9214,10.6098
30.1963,-3.8845,46.8972,-78.1100,77.7336,-93.1772,7.0830,-22.2652,29.4838,-14.1392,-14.2442,-173.8227,-3.3933,-105.0195,7.1623,2.8188,16.3064,-34.3608,37.8621
24.2880,19.9118,0.3272,1.1414,81.7078,-62.5168,27.5394,-15.0899,141.6418,-11.4507,-21.0814,-122.5395,4.7725,-30.3780,9.9606,63.3948,52.5702,9.3676,47.5354
7.9402,47.8384,-13.0632,76.4312,107.6946,10.1190,121.0687,69.7222,205.5401,42.7101,-25.4073,-37.6465,70.6953,43.4597,68.7151,100.5022,66.0147,45.7288,72.1428
30.9923,47.2159,-6.2307,63.0664,115.6534,14.0607,111.3050,122.6465,79.4309,68.9723,-15.2982,-43.0073,89.4388,17.3532,99.7689,59.4270,56.2268,-2.5379,110.9059
51.0827,20.6565,-64.1606,-21.5951,47.5647,-83.1450,60.7482,122.8920,140.3700,65.3066,-26.8765,-102.4353,18.0211,-60.2560,80.1427,-5.9429,2.7255,-112.5552,153.0465
-19.3830,-6.8695,-196.3442,-98.4816,-76.4410,-185.5301,185.5332,174.2156,571.9293,112.1178,-83.8963,-114.6744,-66.4418,-76.5971,74.8316,1.9395,-105.5607,-171.2258,192.7969
-113.3482,-25.9770,-293.3435,-156.5442,-167.3239,-245.7483,365.4265,223.5287,806.0466,174.5356,-123.4374,-106.6109,-89.2593,-61.1709,102.1722,44.8305,-210.8261,-182.4604,184.5199
-100.2097,-36.3435,-283.7169,-206.5981,-168.2041,-276.9733,300.8974,126.4703,381.4501,147.3092,-79.6097,-129.8676,-39.4855,-94.0158,119.4292,14.9515,-239.5388,-218.2310,75.7474
-16.0576,-40.8274,-239.7498,-216.3850,-125.5713,-268.6175,31.9567,-65.7592,-252.8580,44.4613,2.9319,-130.7139,31.1073,-120.2050,99.8283,-51.5122,-198.6853,-242.3569,-76.7620
16.8088,-43.2177,-240.7297,-180.5101,-116.6320,-234.7789,-137.8263,-187.3551,-412.8405,-33.0087,33.5788,-87.2600,50.7658,-79.7728,55.9497,-50.1230,-154.6344,-201.4060,-158.2805
-4.4642,-30.2949,-239.7417,-125.4536,-137.5886,-206.9262,-108.7297,-206.9452,-170.0402,-49.0109,11.8005,-63.7465,22.7317,-46.8144,16.4613,-22.1303,-133.2706,-138.2987,-168.4843
-5.0325,6.1711,-177.1515,-44.2458,-137.5132,-158.2521,-55.3340,-210.7976,-37.4797,-52.5428,4.9941,-62.9116,1.1860,-65.0104,-14.1765,-54.0219,-96.8522,-90.5840,-189.7413
28.2100,39.0570,-110.6419,52.5903,-114.3336,-88.3600,-86.7684,-254.7084,-57.3818,-87.2099,27.2218,-43.1622,-20.9255,-65.9210,-53.9381,-90.2478,-26.1178,-53.6702,-229.7676
51.5460,44.7090,-110.1274,98.5036,-95.5732,-68.8941,-95.9879,-301.3915,75.4724,-123.2387,33.7543,-32.0712,-63.4201,-31.5372,-82.8301,-56.1143,29.7352,-45.8161,-231.5322
38.2263,30.6558,-132.9529,68.7350,-76.9528,-89.5826,-8.2289,-263.0202,278.1421,-101.8275,12.4752,-51.9195,-72.4277,-12.0230,-58.1601,1.0138,24.6904,-59.8452,-174.6961
8.1017,3.1477,-113.4384,10.4066,-44.2760,-68.3726,52.1001,-141.3410,211.5611,-40.4214,-1.5666,-62.6848,-19.8961,-2.7464,-1.7932,31.0873,-11.5172,-50.1790,-93.3992
-0.9803,-29.7986,-72.4877,-36.3347,-3.1752,-28.8845,-9.1339,-55.0802,-74.0295,-11.8146,8.8984,-53.9096,27.8611,24.0432,27.1061,63.0973,-20.5480,-26.5758,-36.6109
5.1504,-44.5027,-63.6302,-52.9869,33.3118,-28.2068,-82.6579,-40.0333,-226.0124,-18.6950,21.0614,-46.9387,24.9397,56.4945,24.9906,111.1224,2.2897,-15.2975,-13.1063
-12.5864,-42.5463,-93.8004,-31.8868,46.3454,-16.6591,-62.2555,-0.4125,-131.2318,-5.0126,12.4026,-34.2159,5.4165,87.3525,23.3901,144.3528,16.4044,13.0020,19.4183
-43.4345,-45.6677,-126.7703,2.0254,32.3715,36.5648,-4.2636,80.3711,13.7774,31.1582,-7.6941,-21.4093,8.3386,113.5137,31.6938,150.5481,7.1329,56.0740,71.6534
-47.3896,-45.1859,-127.8622,23.0674,23.7631,67.9838,15.8310,129.8954,50.0614,58.1931,-18.3315,-34.4245,30.9981,115.0359,48.9208,148.6325,-2.0053,63.6079,94.7677
-42.6567,-34.5230,-110.1936,30.8618,29.5552,58.3596,10.1591,158.2811,40.9163,84.3586,-20.8641,-57.0310,43.1367,97.4138,69.8359,150.3953,-9.6719,40.7527,74.5236
-60.8903,-41.4379,-122.2735,7.5453,7.6700,38.3693,3.4066,189.9281,80.3391,110.4930,-26.6157,-72.0596,23.3587,68.9446,74.4436,128.0843,-46.0968,16.1673,50.4045
-76.9423,-62.7073,-167.8421,-51.9817,-45.3032,-2.1392,-2.4683,167.9940,111.0840,103.9009,-31.9367,-107.4895,-4.3478,5.9322,56.6066,52.7918,-102.9078,-14.4563,34.6873
-70.2722,-56.3919,-188.6873,-76.5143,-68.8673,-42.5042,-3.1322,93.7838,85.3638,72.1122,-30.5545,-156.6644,0.3019,-64.8929,37.7007,-25.0240,-123.9223,-23.1936,1.1705
-54.3179,-24.8573,-153.1638,-23.8018,-46.3344,-25.3752,-25.6033,26.5271,48.4057,45.0722,-20.1790,-161.3007,32.9479,-76.1204,28.0507,-41.4271,-92.2414,11.3208,-71.9111
-22.0463,-3.9640,-94.7722,24.6822,-25.7850,6.2048,-108.6790,-59.8977,-21.3618,3.6500,3.4354,-111.7963,61.2648,-55.1328,13.3913,-44.7584,-52.9982,25.0585,-169.6514
16.6199,6.3176,-56.8094,9.4074,-20.1798,-16.6282,-180.8500,-156.4821,-75.8171,-49.3240,21.8918,-59.1646,72.9639,-67.9464,-5.8751,-89.4434,-37.5697,-1.2990,-222.0634
6.3465,15.6619,-57.7069,-11.8250,0.5345,-36.5482,-106.8222,-145.6425,87.8706,-48.2985,6.1296,-39.2583,72.0545,-81.6643,-2.4682,-110.1250,-37.2993,10.2679,-178.8068
-39.2524,7.9335,-83.2505,-12.8591,35.7728,-4.0678,60.3485,-55.5837,331.4695,-2.2404,-18.4477,-56.0286,68.0998,-63.7122,27.5624,-75.5030,-40.1604,52.5403,-100.2430
-37.2197,-17.4896,-94.2469,-46.1860,52.2286,4.8440,93.1619,-49.9417,231.5254,-2.0946,-6.8049,-98.4387,69.2371,-70.2340,41.8251,-68.6941,-43.2433,38.6184,-68.1422
4.8726,-32.7710,-83.4016,-91.5819,31.6987,-40.2568,-37.4116,-101.1331,-71.6434,-38.8574,14.5777,-135.2831,62.8718,-108.2400,20.2530,-100.4669,-47.5112,-12.6523,-67.6458
15.5023,-24.5146,-78.6677,-72.6390,1.1753,-54.8280,-106.7179,-75.6450,-109.6759,-30.3372,8.3327,-132.9628,42.3169,-108.1410,5.2440,-96.3363,-47.9083,-28.7348,-58.8947
5.2469,-6.2543,-64.8821,-18.1609,14.0915,-13.2363,-42.1512,-22.5173,-32.3043,0.6210,5.6084,-97.1137,39.5675,-71.7745,21.2537,-67.7004,-27.5835,-10.9130,-45.7948
7.3238,5.0986,-14.7148,-2.2607,70.4588,23.3553,9.2585,-14.0392,-108.0335,-2.5627,15.4578,-74.8938,67.3238,-53.3774,32.3661,-53.8160,9.3899,30.3757,-18.7117
-7.7606,4.2713,10.9207,4.5545,94.9403,41.1638,24.8668,20.1223,-27.3249,-0.5502,-6.3217,-98.7158,73.0929,-44.4849,19.2794,-21.7737,28.0061,92.0197,35.4922
-37.5006,-6.0348,-42.6148,44.4976,56.1244,67.6629,81.8703,78.5672,243.4635,25.0969,-36.2544,-130.9663,21.4484,-17.1503,3.1276,22.2164,24.6261,116.8696,81.8427
-34.2368,-22.8262,-89.8438,66.2211,28.4136,98.9212,113.4710,77.2948,207.8990,21.7019,-13.0346,-100.5708,-35.4691,22.9167,-4.5945,33.7907,35.1545,84.4743,94.3586
-19.6320,-34.4148,-56.9399,47.4635,56.2600,121.0684,83.8122,75.1581,-6.3498,12.7019,22.1136,-3.8400,-35.8729,76.1004,6.8466,52.5447,54.2299,61.1232,95.7427
-41.9684,-23.5140,-37.2087,47.8921,71.7475,125.6777,131.7718,144.6660,159.4912,58.0416,2.3384,85.5995,-2.2424,130.6307,47.8702,102.7397,40.4351,63.9403,105.0605
-70.4031,-8.5288,-110.4165,53.5298,25.1134,93.1727,260.3513,178.1720,446.2560,98.5170,-29.0122,114.3906,5.2658,142.3539,81.8840,108.6038,-3.4848,37.4539,120.3972
-62.9434,-33.9979,-187.2152,-26.2776,-28.9526,20.8723,277.1078,104.7249,285.2847,66.0012,-13.9055,98.5760,-12.3315,111.4271,76.9921,66.2992,-47.4966,-29.2278,134.5121
-42.9297,-85.6184,-179.7640,-163.0383,-37.8333,-57.0348,165.5343,32.7523,-80.2796,23.5803,13.3686,77.8237,-8.3379,87.0967,71.7678,64.9671,-86.1879,-96.2456,126.6163
-43.9129,-98.6922,-142.6492,-225.5046,-42.7652,-108.8108,91.1026,24.1293,-157.7858,31.1171,8.5632,71.2066,17.8265,73.5050,85.9378,87.1227,-123.7059,-130.3453,77.4469
-65.3288,-71.4316,-146.8467,-199.1423,-102.5898,-137.6642,82.9484,14.6712,-15.4561,49.2553,-14.7756,70.3629,21.8302,39.8820,76.3376,53.4258,-164.8315,-128.9757,-1.8432
-83.0191,-62.2664,-167.2332,-188.0921,-185.2261,-165.6124,59.5000,-13.6427,71.1964,51.1296,-30.3637,42.0443,-4.1945,-9.7121,45.9869,-0.4723,-211.7753,-139.5745,-72.5687
-68.7409,-77.2899,-150.6969,-216.7592,-213.8526,-195.6598,16.4357,-21.1683,26.3778,53.0575,-31.0115,-36.5137,-30.0008,-62.4048,36.9483,-18.1832,-234.6398,-190.3096,-93.9271
-30.3819,-67.9517,-96.3179,-203.2053,-188.1069,-199.1191,-18.3687,-17.8187,-84.9981,45.7019,-22.5148,-113.4952,-46.7614,-112.5179,26.1140,-38.2618,-201.2193,-211.8938,-71.8589
-6.2537,-22.3892,-44.5683,-120.1873,-163.8102,-167.2344,-43.6785,-33.9916,-134.7295,19.4313,-15.2698,-95.5070,-60.7869,-123.3481,-13.7673,-75.2006,-135.6251,-158.5641,-59.9177
-1.7749,22.0106,-23.1849,-47.7377,-146.1516,-143.3465,-39.1013,-60.0084,-67.1404,-5.0166,-13.4448,3.0284,-63.4805,-83.8074,-40.8523,-82.3034,-83.7191,-101.3742,-63.3194
-2.1780,33.8152,-21.5420,-44.5327,-115.0261,-143.4954,11.0951,-72.7738,52.7974,-19.0913,-19.0868,44.3840,-57.2552,-65.5933,-41.0900,-77.8440,-60.2655,-77.1989,-33.7516
-15.6887,16.0088,-21.8680,-61.0802,-93.4009,-112.2608,81.8380,-66.8827,183.1927,-29.3552,-30.5758,-18.8388,-65.3401,-101.6750,-54.6617,-109.9316,-55.7221,-35.2909,15.2312
-27.0775,-1.6457,-13.0760,-28.5659,-72.7616,-23.2271,139.0215,-53.1208,239.4506,-36.4745,-23.8728,-58.1602,-82.4951,-104.8450,-72.0243,-130.3249,-30.6156,19.9919,39.6174
-0.0665,5.5820,22.4794,35.6126,7.4570,66.7978,146.4309,-46.2755,64.7997,-49.8169,16.3190,12.2443,-67.5298,-22.9753,-57.0546,-80.9626,52.0104,53.3249,65.1888
36.7779,31.3412,70.3446,82.8695,117.3431,113.2323,82.4230,-45.9560,-249.9367,-71.7970,55.9377,111.4184,-12.6409,63.3886,-35.9319,-21.2409,144.0800,100.9776,99.7732
32.7235,54.8406,79.9120,125.8643,157.1102,143.8294,-0.4706,-37.7605,-385.8367,-78.7838,62.7669,148.4396,30.4756,84.3808,-42.8983,-24.5578,174.1352,176.4545,86.4183
10.2233,64.7388,56.2170,184.6674,136.9426,190.8679,-4.1799,-18.8329,-238.4031,-64.0705,51.0414,118.9564,24.8848,68.1685,-57.6374,-55.3471,168.1273,222.5792,43.8303
2.4977,59.8560,53.8725,221.8195,130.9867,234.0618,91.1551,-2.6499,12.6700,-49.0810,36.5449,53.5259,0.9468,53.7444,-56.7205,-50.8918,173.5944,227.9081,44.4596
-5.6753,52.6398,64.3118,216.5350,126.6537,233.0726,176.3927,5.5104,146.1507,-36.6085,21.3863,9.7671,-4.6623,51.3826,-45.9645,-17.2242,167.5817,220.0483,59.1152
-11.5574,59.9117,53.3129,203.0015,102.9795,182.9032,147.9139,26.0743,71.9111,-13.7890,17.3965,24.7740,-7.8633,61.5671,-32.7989,14.5216,144.8923,186.0793,44.7166
4.3073,71.7001,55.3129,185.3543,106.8598,119.0818,68.9877,78.9231,-61.2939,16.1895,21.2210,34.5639,-29.1334,57.4304,-16.8626,36.1877,140.2893,124.5305,56.9073
20.1812,65.1038,81.5090,134.8159,125.6352,63.3198,46.9754,128.2585,-93.2211,40.5947,16.7788,-4.6692,-52.1938,23.6730,-0.1159,46.0303,131.5211,61.7174,95.1495
22.9674,52.6568,75.6921,81.1681,85.3780,3.4366,10.9360,102.3471,-129.4225,42.4642,17.5765,-7.8679,-63.2086,1.3016,4.6767,39.0137,87.4320,-4.0522,50.6697
36.5769,62.4589,51.9760,77.8369,15.6499,-48.0536,-113.9237,4.9842,-189.3489,12.6883,31.0704,57.5210,-64.4794,3.6188,-14.3511,10.7661,52.5638,-56.3624,-80.8598
52.3245,81.6982,72.7691,98.1401,6.6895,-53.7171,-163.1004,-64.2649,-34.7134,-16.7373,27.5890,93.8398,-52.1630,-8.9014,-31.9727,-26.1449,56.3075,-56.9053,-159.3994
44.7212,77.4009,103.9009,81.6130,44.8137,-30.7639,-32.8991,-50.9055,231.1809,-8.9162,7.9520,78.9611,-30.8501,-19.7855,-9.8606,-27.1674,59.9847,-42.7590,-122.8694
34.1760,49.7976,97.1521,30.5853,55.8051,-32.2031,51.0830,-31.1084,192.4876,5.1147,8.3231,71.5151,-11.1690,2.2217,24.0870,14.4902,41.9763,-61.3079,-76.1784
41.2208,21.0128,98.7377,-17.1363,34.2511,-49.6326,-74.3466,-98.5382,-111.0240,-30.8274,27.2093,46.6635,16.9144,-1.5940,8.0088,20.0231,19.7694,-60.6694,-126.2372
52.6903,1.7271,125.7865,-34.4856,31.2173,-30.5455,-237.8370,-222.7774,-323.9201,-103.3399,48.4619,-1.5211,47.9567,-43.0048,-43.7319,-33.5705,19.5467,-7.0721,-230.5895
63.9745,-3.5604,120.5965,4.8131,72.2050,34.7865,-269.8761,-289.4713,-347.1573,-149.7451,76.3433,23.8205,49.3637,-10.1435,-64.9790,-37.0930,68.1930,41.1724,-270.8774
69.8022,8.4257,87.7053,92.1213,130.9855,115.9564,-188.5017,-259.1278,-182.6555,-142.5923,89.9021,114.0132,41.5691,104.4972,-40.4227,46.5832,141.2241,70.2980,-231.7941
51.7730,22.3665,79.4874,152.7621,166.8606,181.4883,-63.9143,-209.6577,55.4549,-112.4302,73.4059,138.4186,76.5028,159.0038,-5.4734,96.8433,166.4705,119.0841,-200.9795
25.5299,15.4772,85.3307,142.3575,171.9321,209.7427,-13.1484,-208.9388,9.4343,-105.4398,69.7229,92.9044,117.2061,128.8022,3.3481,68.5277,144.1136,165.5226,-213.9769
16.0814,-3.6347,83.1382,124.7548,161.9149,215.3950,-90.9470,-228.4639,-230.3053,-126.5693,89.9723,76.3759,90.2507,121.2998,-30.2829,56.7129,142.7117,188.5596,-229.7469
7.0329,-0.5380,96.2419,159.9481,143.3188,228.7627,-120.6445,-222.8259,-112.0918,-138.5029,80.9477,93.5947,25.0199,141.9147,-78.9699,77.1721,167.2946,218.5382,-223.4854
4.3520,34.3156,137.2861,198.6568,133.5542,224.4510,-9.8719,-209.3579,194.0264,-130.2411,51.5009,100.2585,-2.1400,115.4792,-94.0422,51.3704,181.6550,228.7396,-196.6933
48.7823,72.6718,189.7685,181.8891,156.4429,162.1355,18.8710,-214.5170,44.8277,-131.5771,59.3020,95.0598,11.7732,51.4071,-77.6696,-10.1205,196.4096,170.2087,-154.0683
108.6282,89.4984,227.4817,141.3627,185.6232,80.7180,-106.7931,-210.7350,-311.3318,-139.8868,78.4661,71.0371,23.9554,4.2928,-67.7238,-33.8988,213.7184,97.9972,-111.4488
111.9766,87.2401,224.8501,119.0915,177.9632,37.6053,-141.6289,-161.6796,-277.0205,-117.1784,58.8636,20.6024,9.8707,-22.6316,-64.7560,-21.8540,199.4495,72.0904,-73.4724
78.1502,79.1261,199.4005,96.6074,146.6761,13.1737,-46.8771,-87.8393,-91.2406,-69.9550,29.9500,-30.3182,-26.3036,-53.5105,-54.3889,-21.4024,158.7694,53.4019,-31.9103
66.2439,71.6883,195.1383,64.0778,122.5870,-17.3902,-20.6503,-32.3499,-105.5375,-39.1391,18.8877,-65.7750,-51.7970,-88.3178,-48.9494,-36.8236,127.6155,22.4352,7.1334
65.4867,58.9511,190.0403,42.7358,98.4845,-24.4198,-39.2166,11.6083,-85.0434,-21.9226,1.8306,-85.0236,-44.8776,-97.6549,-44.3881,-38.5618,103.9523,10.3659,52.0112
46.9775,27.5735,126.7295,8.7264,52.4947,-18.1442,21.9782,70.9292,48.8325,11.0851,-22.0952,-85.7958,-28.1759,-74.7722,-14.1366,-20.6043,54.3974,-14.5681,119.9399
18.6224,-19.1058,23.5528,-76.9554,-19.3254,-56.1539,84.6273,118.3071,74.6529,49.3156,-37.0678,-89.9400,-18.5064,-66.7123,27.7993,-15.2551,-34.7132,-82.3620,172.3646
-14.6612,-53.8222,-56.1125,-162.6988,-84.1105,-114.3556,77.9363,121.7234,47.7715,63.0809,-49.8230,-106.2607,-13.9852,-87.7703,38.0565,-33.5539,-118.2135,-116.8028,170.9211
-47.9832,-57.2757,-82.9886,-155.3169,-91.6738,-105.9963,64.6191,130.2370,81.3114,63.1561,-55.4200,-105.3377,-36.5767,-82.4186,14.2219,-32.8192,-124.1076,-67.5509,158.1272
-62.8904,-37.4677,-62.3206,-55.0580,-60.9500,-26.9630,67.4653,197.1678,131.0405,85.4763,-52.6420,-99.6091,-77.5378,-42.0421,-5.8425,5.4531,-67.4296,0.9894,167.1814
-69.2316,-13.4892,-36.1021,54.6231,-61.5537,56.6052,105.7749,272.1048,278.1583,127.8256,-69.3966,-114.4741,-67.4711,-7.8573,4.0634,46.9344,-37.8468,46.2739,170.2192
-82.2941,-3.2159,-44.0683,114.4926,-70.3782,122.6656,201.4760,279.6314,438.2577,144.0261,-86.2657,-95.3407,-3.5187,40.8785,33.4487,83.0825,-36.0111,91.3472,166.2880
-73.5078,-14.6378,-52.7156,122.1705,-26.1487,173.5150,207.8257,234.6201,240.7354,112.3238,-50.2193,-23.1574,29.9626,113.0576,46.0579,117.7654,1.1325,120.0286,167.1224
-36.1246,-29.4110,-28.3931,105.2152,5.7163,177.4953,32.0177,201.1110,-169.6672,74.0084,-1.5643,20.1551,16.7456,138.4389,25.4521,120.7268,37.0697,102.6743,150.5112
-24.3338,-23.4191,-14.9616,95.4255,-38.5722,134.1835,-94.3100,209.8456,-217.5681,74.2979,-13.9034,35.6938,8.5308,126.1981,3.8182,111.1327,16.7945,79.1412,138.7564
-52.2789,-7.6629,-22.7266,94.2629,-66.3975,102.1012,-8.3615,243.3783,7.8945,98.1094,-45.5359,95.4202,-1.3138,156.7154,9.3244,145.4169,-1.4113,83.4758,170.9094
-61.9684,-5.3359,2.0600,74.6150,-22.6573,91.6434,78.5906,252.4023,-16.6372,104.5157,-29.4980,133.4708,-33.2991,175.9382,21.3071,172.5310,18.8977,71.3028,185.6225
-31.7882,-5.0944,31.5085,33.2522,-11.4383,37.9208,11.8085,206.7386,-186.2129,92.2411,-6.1686,67.9738,-48.7626,96.4645,21.0106,117.2773,8.3835,2.6727,121.6520
-4.2071,11.5737,-2.5970,-3.3674,-80.0556,-74.1635,-61.4451,138.7464,-111.9242,86.8133,-23.5842,2.0233,-33.9937,5.8184,26.1106,52.4166,-52.7035,-92.2595,37.8220
2.7116,28.0660,-48.9305,-24.0800,-139.3675,-165.7755,-64.4475,88.1505,33.6386,87.2267,-42.5563,23.1452,-26.0368,0.2394,39.7658,60.8015,-95.4816,-161.7604,-13.6976
14.1097,24.7625,-34.0693,-35.1741,-145.1963,-184.1991,-110.5628,42.9983,-59.3829,69.2913,-28.0740,46.6649,-30.6820,16.4938,34.7096,81.6885,-93.4481,-185.7053,-59.7962
34.1747,13.6284,-1.6935,-40.1463,-141.8875,-171.2206,-197.4190,-7.5943,-181.1667,35.7159,-11.1554,21.5314,-35.6213,-3.8363,8.2625,59.2404,-81.4945,-183.4427,-100.6618
31.8619,4.1479,-12.8886,-58.1720,-167.0899,-183.8282,-188.5650,-32.5234,-11.2499,22.9159,-25.7472,-1.0205,-51.8244,-30.3410,-8.2956,32.9481,-99.3216,-191.9415,-108.0681
-4.5506,-18.4184,-60.0384,-117.9229,-223.9511,-224.3852,-77.7568,-14.8279,280.1277,45.9902,-60.9651,-19.3124,-69.3389,-52.4144,1.8101,24.1126,-166.1522,-222.6385,-85.6092
-40.5408,-53.3165,-111.4973,-198.8115,-269.5514,-261.5392,-2.6371,21.1589,296.9698,73.3340,-79.5010,-48.6674,-65.2707,-68.7938,23.2269,23.6126,-236.2868,-248.4513,-39.1361
-47.1063,-71.7865,-129.1387,-235.7618,-252.7735,-266.0331,-23.9521,50.3486,56.9288,76.6658,-65.2628,-44.6223,-59.4073,-53.8910,31.0404,38.0429,-238.4839,-241.2458,13.4780
-43.9862,-62.9399,-97.7944,-204.2943,-201.5781,-222.1764,-50.4400,64.3328,-71.4551,66.0081,-44.8773,-8.6202,-67.6933,-28.8401,17.4546,42.1719,-190.3785,-194.0029,29.9740
-52.7917,-47.6557,-63.6551,-144.3579,-163.3622,-140.5791,-8.3647,63.2674,-29.7102,53.1023,-38.3466,-7.6230,-61.8529,-34.8123,-3.1958,3.3511,-149.2382,-111.9274,28.9467
-56.1052,-37.3539,-53.5106,-88.6461,-115.6664,-54.2357,42.3993,62.5170,-93.8520,31.7491,-29.8333,-52.0786,-38.3375,-55.2673,-22.5599,-46.2390,-101.2083,-11.7241,74.8730
-46.0299,-21.3528,-27.1295,-21.3043,-51.2645,27.3202,56.9338,91.1557,-221.4622,14.8838,-20.7486,-94.9754,-25.6090,-60.8240,-44.8026,-67.2361,-29.0105,87.0013,157.8480
-46.1341,1.0075,20.9437,70.0513,-6.0636,125.9819,105.7168,159.0299,-123.3673,30.0286,-31.7922,-101.9418,-10.7822,-40.1527,-50.9493,-59.5532,29.6871,173.2242,220.5448
-54.0932,15.7817,49.6396,146.7353,40.9310,223.5442,190.1391,227.3277,68.3417,63.4066,-40.9831,-54.6167,29.1277,22.8983,-17.6910,-15.4797,67.5927,226.7798,246.6711
-45.7125,19.0860,60.8594,162.4509,104.6058,250.9160,188.2362,243.1018,42.8081,72.7201,-22.2471,24.1171,56.4264,98.3476,19.7749,52.0334,102.5882,225.8384,237.2634
-38.6280,17.6296,68.1623,130.0529,113.8991,199.6918,118.4162,216.1842,-14.3170,59.4171,-12.5932,62.2342,33.7343,113.9219,12.5444,79.9999,105.0542,195.1406,205.8541
-61.5564,17.8038,58.8938,109.0368,71.3982,160.8681,158.0696,217.6014,192.5202,65.8984,-39.6853,37.1816,-3.0631,76.9257,-8.4325,58.4365,72.2684,188.9711,202.7076
-90.8412,21.8645,45.4663,126.4914,78.3284,187.2521,306.0837,280.1237,441.0898,104.2095,-63.0848,5.2348,-12.5822,65.1644,10.5978,56.8913,64.8246,208.6696,247.7695
-95.4903,13.8393,34.4370,132.6096,112.3037,212.2385,368.1865,351.2337,424.7259,141.2840,-57.9753,-9.6857,-15.8056,87.5352,45.8708,95.0415,75.9290,196.8186,297.4084
-89.2140,-27.8426,-6.9313,63.8689,74.1337,170.9967,296.4245,361.2379,238.2738,147.9492,-48.2020,-44.1390,-32.3202,84.5898,55.1500,114.0207,33.8485,128.4190,310.0865
-87.8021,-76.0531,-54.4602,-44.9688,15.1108,100.1889,211.7293,305.0638,38.7291,128.0687,-39.6806,-93.2423,-28.5120,45.2622,53.8743,91.5874,-38.4375,60.0578,277.4597
-80.9587,-70.1527,-36.1102,-74.8199,29.2437,67.7933,164.4042,253.3866,-131.4544,110.1688,-28.1212,-97.4985,14.0511,22.4738,60.9753,74.8416,-49.0472,59.1523,226.6991
-66.1632,-16.9118,20.4778,-0.6895,66.8860,81.9995,152.9730,266.6836,-115.9649,118.5381,-34.1936,-53.6329,54.5383,39.1369,68.8581,86.8890,-5.0991,98.5731,212.3190
-54.3401,6.0038,27.0638,38.0841,63.3031,90.6834,221.3206,299.2432,127.5345,139.6742,-55.3146,-32.8331,61.6069,46.6549,87.0422,88.2270,4.4594,81.6300,242.2681
-52.3641,-30.0515,-12.1386,-54.2529,45.7210,45.2432,325.4578,270.8224,294.1804,138.2298,-60.0382,-61.3496,52.2341,12.4992,115.9660,62.9948,-44.6984,-2.3019,260.0153
-67.9290,-74.8808,-43.8531,-172.3107,21.1410,-24.8803,324.9391,211.3773,229.1289,116.1376,-55.0678,-87.7775,41.1336,-16.0563,115.7423,56.0523,-102.3566,-49.9063,237.1111
-94.0532,-91.4082,-62.1771,-183.7233,-22.9600,-32.9216,228.0611,195.9709,174.7666,106.3524,-62.4461,-86.1837,32.2273,-2.5503,83.7531,74.0316,-129.9861,-16.9791,193.9687
-99.5054,-90.8647,-71.4155,-127.2826,-31.9368,33.9048,183.1197,196.7576,225.8245,104.8770,-60.4564,-73.5993,46.6175,19.6325,73.4301,66.4125,-121.2370,25.7924,152.4797
-83.1126,-90.4658,-67.1202,-109.1189,20.7581,89.3245,212.7572,156.1026,211.0141,80.2242,-34.7506,-40.1148,77.8630,35.5589,87.5572,41.2463,-87.9610,43.9045,135.3513
-84.9080,-94.7870,-63.6916,-127.0692,62.2356,95.3332,225.0401,102.1048,160.0966,41.1245,-14.8525,9.5648,71.2403,59.0262,72.7823,41.5895,-59.2253,73.6425,133.3845
-104.3514,-98.2657,-65.5707,-117.0942,52.9447,102.4697,209.5334,71.1339,187.4427,18.6034,-7.6669,17.0989,13.8401,58.3773,28.1696,32.6058,-48.4345,105.1390,99.5022
-98.1078,-90.6328,-58.4059,-78.1763,46.3202,126.6295,209.4997,55.7016,166.6425,11.4834,8.0442,-16.6641,-31.9134,27.9695,3.8538,-5.6878,-30.8690,102.3540,64.9248
-73.4331,-78.5098,-48.9225,-58.1556,70.0161,132.9081,228.5711,67.4111,70.2383,11.5644,16.7778,-22.2586,-21.2641,33.8023,16.6604,1.7303,-1.1537,92.4610,110.8692
-65.8116,-74.7654,-46.4408,-69.2849,86.6073,117.4375,257.0309,103.3757,74.4229,24.0588,-1.8707,-11.1512,24.0293,66.4731,44.4905,54.4622,5.4600,97.6541,189.9891
-50.9677,-65.1291,-32.2261,-78.0650,82.2314,93.5504,255.7936,110.8978,83.2918,31.7396,-16.2491,-38.4173,59.0399,41.8320,60.0374,45.9166,-4.9628,81.5240,208.9893
-11.8933,-40.7908,-7.6709,-66.6418,73.0111,62.5539,191.1215,99.6847,-47.7548,21.7191,-8.6552,-62.2653,53.3433,-14.6719,47.3411,-18.0188,5.3226,44.4102,213.8766
-10.3728,-32.2013,-13.3807,-60.6065,42.3121,42.2032,168.0922,140.2023,-6.6051,32.4757,-20.2328,-41.0446,13.3807,-21.7801,27.7652,-36.0752,1.6566,29.3522,257.0723
-60.7365,-48.2861,-58.5895,-81.1621,-23.3431,29.6397,270.9577,193.0312,323.6671,73.8494,-57.9021,-33.2782,-21.5031,-14.7225,32.2810,-21.8209,-58.0849,17.9783,268.4641
-69.2361,-48.0160,-89.1424,-109.7634,-71.3912,-21.1110,314.5085,146.5587,382.1430,72.2481,-63.1182,-56.1915,-29.6031,-51.0228,35.3286,-49.3188,-101.2928,-25.5437,219.8351
-8.3232,-19.4131,-55.9025,-118.2034,-45.8125,-84.9538,154.7693,34.6061,-1.5828,6.2456,-25.0720,-45.4735,-12.8619,-86.7253,8.3092,-95.3044,-62.0274,-52.2412,172.8087
24.4065,-0.8175,7.8870,-100.8970,18.2975,-69.3753,26.1018,-4.9629,-141.9808,-27.3150,-6.5004,-6.5393,31.0778,-80.0959,-0.2090,-104.7594,-16.0604,-19.4081,131.9872
-5.6844,-5.4666,23.7420,-74.9819,41.1724,-1.7130,112.4936,29.0403,187.6935,11.0748,-23.8026,6.5972,72.9007,-57.1788,40.2881,-84.0202,-33.3802,6.2177,70.8785
-18.3176,-10.8931,-5.8708,-64.8553,17.9744,6.1076,175.8964,10.6336,308.9065,24.8012,-20.8610,15.3006,67.5243,-38.2291,60.9081,-64.3267,-54.1845,-23.7701,12.5748
11.4630,-10.2942,3.9383,-66.3572,16.8173,-13.9961,35.8882,-79.1529,-30.2869,-33.0745,17.4787,55.4903,53.2649,-16.9924,22.8033,-61.2345,-23.5795,-27.0473,-32.5830
18.8413,-11.1486,62.1081,-40.9558,63.0171,47.3519,-85.9940,-119.8802,-240.5678,-77.5885,40.4744,102.9601,83.8624,18.0706,-10.9637,-56.6863,23.0484,58.3101,-63.5908
-13.0407,-17.3557,68.4369,7.2164,87.9612,135.7149,-28.7095,-73.0801,-52.0621,-60.5129,30.2953,130.3176,89.8583,68.2765,-9.8021,-23.2855,42.5093,133.1971,-53.8633
-30.5151,-35.1793,-10.9195,7.4270,26.7318,116.6907,21.4304,-53.8607,87.0722,-42.7959,23.9892,127.3673,18.6330,90.9800,-15.6919,4.3839,17.4377,85.4179,-39.7317
-9.1508,-58.2586,-79.1355,-57.0047,-74.3468,15.5681,-91.5704,-121.5986,-113.7916,-61.4943,36.2902,93.6976,-19.4718,53.7368,-30.7700,-20.0395,-45.8713,-28.2954,-92.7564
19.8629,-64.3748,-71.4565,-100.3736,-126.1071,-42.3701,-250.7427,-185.3080,-359.5433,-79.8612,43.3742,70.8591,31.6757,15.5842,-28.5288,-49.7266,-93.6525,-83.3215,-173.3962
28.7439,-50.1928,-37.7947,-71.7004,-134.5956,-36.2519,-301.7281,-193.3307,-327.8839,-80.1959,36.9443,85.4082,47.5464,23.1257,-33.8147,-39.5071,-88.3130,-76.9607,-212.3427
26.6840,-30.7530,-30.2707,-28.7486,-164.5040,-44.7665,-272.7854,-216.9735,-149.4253,-85.7343,31.5868,82.2634,-18.2713,9.1426,-66.6053,-49.9112,-76.2061,-88.0850,-252.9927
32.3832,-9.3786,-35.8428,-26.2145,-213.8112,-104.8800,-280.7927,-280.2238,-111.2400,-98.6322,30.0595,32.3445,-54.9003,-65.3031,-92.1485,-112.1638,-100.3156,-129.3997,-331.4981
42.0808,13.2582,-34.6726,-34.6583,-232.8438,-161.7050,-322.9965,-315.4655,-170.4050,-100.9846,27.0160,2.5250,-35.6921,-119.2756,-90.9170,-154.0383,-122.9491,-154.9497,-385.5197
49.4624,28.3252,-29.7593,-14.1207,-212.6223,-157.8723,-307.1724,-322.4086,-133.7702,-102.2993,30.9144,24.5149,-29.7512,-109.9642,-83.4851,-151.9816,-104.9740,-154.0246,-394.0786
69.3015,36.1113,-13.3234,12.9206,-170.4405,-121.7779,-273.1710,-364.3415,-102.7709,-127.7898,51.1600,44.5124,-31.4033,-101.2913,-84.2580,-166.3912,-63.6067,-147.4127,-408.6370
100.5933,39.8983,26.7769,11.7089,-112.4191,-102.4324,-334.1939,-410.1814,-261.6649,-168.2343,77.2612,40.1039,-17.1700,-123.2048,-98.8202,-206.5239,-20.8223,-127.6886,-413.2788
109.5789,37.6555,69.5444,6.3286,-53.5858,-73.9767,-403.0877,-367.4969,-458.1081,-181.8360,86.8149,38.1502,-17.3361,-130.0502,-121.7900,-223.8890,21.8498,-69.9134,-332.6672
84.2235,38.9073,77.4076,37.2262,-14.2539,-7.2335,-307.1102,-244.6718,-436.1877,-149.0452,68.1930,40.1807,-16.9880,-100.1261,-119.3936,-202.2464,55.8501,14.1991,-175.8213
44.0040,44.6688,35.6269,78.4402,-0.8271,52.0719,-108.9402,-134.0745,-208.9623,-95.3544,32.7200,40.4388,16.7344,-52.5585,-78.8609,-154.4214,59.7998,78.7487,-48.5662
-1.7425,28.4047,-35.2677,79.0207,-10.9938,76.1006,6.2507,-77.3794,24.2890,-53.7572,7.9909,57.8099,39.2141,4.0792,-39.3428,-92.4769,29.4905,101.3069,-19.2716
-34.6755,-5.2953,-76.5801,58.2429,-18.4994,100.7731,-6.0840,-56.8379,48.5173,-38.4892,14.4593,92.9229,27.6183,57.1779,-28.9758,-45.2875,5.4171,106.3883,-49.1221
-20.6097,-3.3340,-31.6455,75.1710,20.4311,134.2228,-93.9899,-63.7621,-170.7095,-52.8415,43.0512,119.4591,30.9670,71.1180,-39.7258,-46.6123,38.5645,127.5705,-77.7023
20.0673,43.5771,71.7936,144.6670,105.9615,170.2437,-167.5250,-78.2124,-298.1267,-77.1191,64.1484,128.8954,44.0852,49.7444,-59.7518,-77.8605,121.8542,174.4918,-97.6852
29.1715,78.7969,137.4480,232.5500,184.4523,236.4652,-116.3067,-48.1583,-74.2739,-70.3225,63.7159,139.0040,23.8754,61.2403,-65.4407,-67.0871,197.4619,224.6054,-100.3962
17.5501,76.9176,131.1877,282.8833,212.2185,296.0446,1.6902,19.3648,149.9740,-33.7022,58.2661,168.8002,1.4036,131.3739,-36.6682,9.6205,228.2704,228.3905,-59.6596
36.1897,69.3569,110.1403,262.3883,196.0296,264.9920,-2.0980,36.1481,-3.7611,-22.5473,66.2863,212.9953,12.5057,185.3465,-6.6517,71.5247,223.8801,170.9705,-13.9466
