Fp1,Fp2,F3,F4,C3,C4,P3,P4,O1,O2,F7,F8,T7,T8,P7,P8,Fz,Cz,Pz
90.0452,149.0983,157.5779,78.8282,173.2068,128.9215,83.3181,171.5545,86.3377,40.1989,85.7473,175.6698,206.7553,116.4781,160.8349,115.5556,88.6459,134.3058,95.1570
50.3402,56.1049,182.6472,-26.9726,210.3101,15.7086,200.5108,82.5409,105.2541,6.3066,65.3082,125.8573,208.1714,70.1006,116.9640,85.5664,13.7021,36.4200,73.8787
38.8506,78.8785,161.3132,-26.6443,186.0330,134.3775,191.6817,116.2079,143.7633,77.2946,52.5333,125.5364,170.1551,116.8754,41.6970,103.4530,38.6768,66.8128,151.5674
33.1701,72.9487,103.2152,-8.2903,119.9837,59.4402,248.9843,184.4844,189.1807,159.3727,32.8570,100.2042,133.5327,145.4017,-1.4995,114.6546,36.4406,56.5919,234.2939
-4.0302,11.4693,56.4578,-26.0147,72.2852,-14.0488,304.2015,212.0107,220.4419,215.3360,-1.8372,62.8286,75.3693,133.3431,-22.3370,128.4855,-15.6183,-4.0211,224.7437
-8.6507,13.9420,72.2034,-19.7087,84.5982,128.3427,255.6456,234.2427,243.6185,281.7536,14.9703,73.3925,34.1690,137.6158,-29.9045,156.0024,-22.0900,5.3255,205.0462
24.8081,18.8300,101.9790,-17.9722,107.6788,68.0416,278.2721,236.4406,263.2309,302.8752,74.5488,89.6552,83.2362,116.7885,12.6457,142.6789,-25.6653,18.3372,225.2933
18.7766,-18.0395,79.4598,-33.5770,77.8913,-47.1392,301.0346,195.7596,232.0450,236.4085,81.6577,82.7033,117.3780,94.1649,60.4676,95.1920,-60.0617,2.5194,190.2233
3.4199,-7.6913,42.2975,-13.2683,16.9266,115.2202,164.9991,144.9391,141.4494,165.7169,58.3238,61.0100,60.9074,105.8996,36.2426,75.9056,-50.2379,30.6951,105.5390
32.5159,1.8344,29.5080,-2.4422,-20.3746,96.8859,93.0300,97.3289,77.9607,168.3397,80.8018,-10.1369,45.5661,68.1997,6.9645,88.4393,-28.1761,39.9648,80.7353
44.1824,-39.2446,27.1651,-23.1728,0.4945,-85.9001,147.9254,83.9996,82.3602,230.7270,96.5515,-79.3638,93.3734,36.3943,56.3129,114.4504,-52.2525,-0.7105,90.0219
32.1744,-16.5103,60.3398,7.6818,82.4440,74.6417,118.0716,129.6029,87.4831,264.7666,63.5704,-40.0182,91.0044,112.1438,102.3605,132.1926,-38.3279,6.4965,56.8733
60.1279,42.8703,121.2840,50.9309,145.7574,152.7835,71.8451,119.7785,40.6413,168.2442,42.9381,24.8586,59.5966,118.9512,59.6628,88.1689,23.5601,10.6520,1.5725
58.7502,-10.6922,102.5990,12.4521,94.2481,-131.8136,39.9534,-31.3184,-44.6599,-18.5408,16.9271,-23.6210,7.3740,-21.9599,-19.9677,-1.9445,11.9585,-79.7799,-74.6148
-31.7944,-120.4750,-11.8215,-38.1063,-33.0066,-182.1123,-139.0033,-192.1681,-130.3580,-144.8612,-66.0413,-116.5166,-124.0366,-86.5612,-73.3813,-56.9112,-64.4123,-166.8902,-175.6735
-96.0291,-170.0565,-99.5705,-42.4864,-125.0024,-113.1829,-259.6336,-250.6904,-170.1630,-196.6218,-125.0162,-139.4287,-213.9003,-65.4347,-85.2926,-83.9200,-104.0962,-191.4032,-212.1892
-97.6296,-184.7857,-123.1960,-56.1289,-158.5793,-315.9276,-154.5629,-262.5555,-146.1900,-243.2744,-124.3861,-109.5693,-178.4567,-107.9274,-49.9653,-116.9904,-107.8118,-207.3846,-162.6657
-132.7378,-173.0090,-141.8733,-59.7604,-167.5249,-282.1870,-134.2831,-249.7937,-92.8563,-234.3812,-155.8010,-64.4593,-171.1466,-107.5380,-1.7089,-105.3938,-97.2346,-190.4527,-127.7519
-161.2623,-126.5705,-148.4490,-22.1202,-165.3230,-34.1064,-202.3639,-193.5692,-43.6810,-158.0473,-189.0931,-20.6231,-194.7262,-35.7049,21.0730,-50.3234,-62.6964,-136.3650,-127.5437
-120.0464,-118.4636,-118.7080,-33.3049,-152.1265,-201.3990,-62.6481,-161.6726,-7.9950,-149.4253,-135.2815,-1.3485,-102.0097,-65.5373,25.7684,-31.5943,-53.1637,-119.7727,-115.6865
-108.8701,-139.9909,-86.1942,-102.6826,-109.3787,-277.3053,41.6670,-169.8708,-4.7021,-215.1890,-82.8616,11.1889,-17.1656,-94.8012,-6.9943,-35.9738,-90.1416,-105.1544,-112.7746
-124.9789,-76.6993,-58.9844,-84.5431,-36.9089,271.7217,-152.0961,-118.3698,-40.2808,-188.1753,-81.2352,26.3068,-96.3709,37.1994,-79.4947,-16.4219,-91.4057,-21.8209,-116.2289
-30.4458,56.4181,-28.0482,49.9171,-3.8242,610.5231,-274.7196,4.9860,-63.4400,-47.0534,-4.7237,9.8406,-172.2946,122.4615,-80.9268,-32.8378,-35.6976,62.6409,-68.3025
96.3214,124.4353,-28.8510,149.2829,-46.3105,290.7511,-108.7628,100.6564,-31.2866,32.7782,111.8334,-3.3070,-111.2096,44.4228,17.0851,-115.9441,-5.8366,78.8568,11.2889
78.3504,95.4844,-64.5365,134.8269,-101.2571,12.6629,25.4472,124.0140,-6.1822,-49.6388,76.8679,43.9677,-48.4991,19.8884,50.9737,-167.1442,-14.7670,59.3241,50.6253
-22.3555,39.3074,-90.4101,73.4194,-133.1924,42.0100,-24.6897,96.5873,-49.3666,-181.4209,-67.1835,80.0608,-70.4412,82.1386,-20.3900,-123.2078,-16.2051,31.7303,50.6532
-85.5384,-18.3215,-105.6613,10.5933,-158.3521,34.9100,-58.2652,54.0020,-56.7276,-174.6486,-135.9390,33.2090,-88.3445,64.6698,-26.8042,-47.8867,-36.3327,-7.2081,70.1172
-130.3123,-74.0120,-116.0124,-54.6415,-144.8111,-34.6363,27.0568,48.6503,66.8241,-18.5763,-135.1944,-15.9585,-40.7511,19.4721,61.3421,-11.8034,-85.6044,-38.6840,128.8027
-150.1298,-82.8300,-86.2989,-78.8558,-80.2345,-32.0859,115.1406,82.8424,176.4940,104.2727,-145.9894,2.0506,21.5186,56.3082,100.0008,3.1488,-82.2101,-41.5164,169.4989
-111.2991,-48.4577,-25.4070,-51.4746,-25.1951,-13.3409,109.5585,80.3173,135.8723,109.4597,-142.1068,27.2212,31.9195,75.4798,72.4110,50.1590,-14.7009,-33.3813,141.5052
-75.2612,-44.1661,16.0906,-53.5110,14.2590,-41.0940,69.0912,9.5300,64.9535,89.8916,-106.7990,12.3902,7.8780,5.1125,53.2484,116.5035,21.3952,-49.0250,85.2052
-81.5208,-74.0750,25.9986,-100.1619,62.9897,-82.2025,60.0809,-64.0823,65.6777,84.2450,-84.5306,-14.6658,5.0555,-53.6983,27.8229,145.0859,5.2877,-76.2727,47.5885
-86.5102,-84.5807,7.4956,-112.5829,62.7192,-83.4848,52.8255,-80.7749,65.4957,79.6876,-79.5936,-35.6501,14.6104,-43.2390,-9.5043,146.3550,-4.2988,-70.9643,15.5567
-75.4146,-81.1279,-23.6810,-87.0542,5.6286,-56.5620,52.7932,-49.3385,55.9106,130.5328,-61.7135,-48.9119,10.1203,-19.4094,-13.1882,171.9670,1.7392,-42.8685,2.1158
-60.3137,-76.2822,-20.6287,-75.2341,-6.5587,-48.3744,70.8552,-19.6415,73.4402,196.1328,-39.7402,-55.0303,4.7705,-17.3758,-13.1653,197.6912,7.5092,-35.3286,21.7060
-35.2883,-49.2519,6.7521,-64.6793,28.3951,-47.8893,41.6251,-24.2511,55.1724,158.6407,-32.7980,-74.8580,5.2781,-24.1925,-41.4194,175.9495,15.9095,-38.9734,18.6512
-20.8689,-45.5926,-2.4367,-61.1513,29.9278,-57.1751,-7.6307,-45.4009,7.1132,99.7070,-16.0994,-113.7235,-2.3415,-56.8421,-51.4003,132.8620,-4.6289,-39.8186,-28.1509
-8.1896,-78.8849,-12.7938,-78.0457,32.0507,-72.4759,12.5740,-36.3075,26.3971,158.5075,53.7599,-126.1863,0.3692,-88.4579,-40.5331,112.5339,-53.5534,-37.9311,-46.9961
42.9119,-56.1095,34.6896,-55.1523,77.7282,-33.5145,40.2550,6.9133,69.4523,220.3458,134.7039,-85.4456,27.8098,-46.1329,-52.2253,101.3572,-52.8933,-12.5068,-16.6715
65.4042,-3.8079,65.7207,-11.4484,99.2930,-5.4158,19.1757,21.3791,40.8762,142.8441,110.4262,-32.4541,24.8451,-4.1847,-70.5461,55.6990,-3.8068,1.4516,-3.2037
21.5210,-1.1360,37.3530,-11.9250,81.0136,-46.8449,32.5350,-2.9251,2.3093,37.1343,17.7695,11.3345,-15.6076,-32.8647,-57.9713,-13.3679,26.0249,-20.7333,-4.6925
21.0284,23.1756,33.3998,1.7690,72.3116,-23.6477,69.1102,-1.7493,6.9127,-2.4930,11.1962,51.9169,-15.2864,-23.5871,-29.7728,-47.6981,37.2975,-7.8487,18.9158
52.3824,53.1039,45.2426,24.8940,42.3402,30.5178,37.8031,7.2496,-21.4686,-76.8386,46.3905,43.1515,4.5902,7.8185,-35.2831,-53.8474,17.8494,19.1722,9.0529
16.3880,-4.2742,2.8564,-17.5523,-23.0108,-26.2402,-18.3724,-21.7236,-88.2087,-184.9440,14.3099,-11.3537,-29.3095,-41.9857,-85.6080,-83.3206,-43.4122,-12.2251,-51.9480
1.3045,-28.9815,-30.6325,-31.0433,-38.7654,-51.1917,-48.4601,-34.3007,-118.1495,-209.7815,4.7264,-20.2836,-70.2985,-70.3796,-127.4951,-133.6068,-57.0925,-23.0242,-67.5126
55.3470,41.7723,-5.9815,27.4228,16.9547,-5.8717,-84.7245,-28.2564,-130.9928,-211.2970,40.6259,0.1199,-78.6010,-58.6869,-125.1632,-193.6301,-8.5490,4.8736,-48.5712
62.0833,68.6645,17.8476,35.8688,68.6710,-53.7130,-97.8298,-60.9671,-155.4106,-263.3333,6.3154,-23.0109,-78.0243,-109.1537,-101.4481,-243.3685,16.1862,-20.2302,-75.9069
41.6666,60.9600,30.1297,22.9778,69.9794,-64.1198,-68.6651,-69.5622,-147.0525,-246.8818,-39.4324,-43.6815,-45.0442,-98.8630,-78.4004,-209.5536,29.9724,-31.7701,-101.2020
51.4448,53.7072,33.3295,33.5257,26.8897,9.5628,-73.4818,-37.1266,-130.7447,-154.8024,-12.4496,-56.2162,-11.0360,-24.2035,-73.7457,-121.8926,31.2439,1.1176,-93.5681
19.4809,-39.2172,6.7967,-39.4679,-6.2981,-77.6457,-100.4365,-72.8727,-154.6775,-138.0880,1.6836,-118.0588,-37.2461,-94.9334,-96.3153,-107.9033,-41.6867,-43.2906,-98.6832
-12.7373,-110.2534,12.9272,-124.0981,29.1663,-178.7423,-55.7963,-120.6333,-157.8732,-162.0223,0.9772,-139.2429,-33.4269,-162.6560,-100.9093,-137.2440,-97.4891,-93.9520,-76.8905
7.7713,-76.3035,49.0275,-101.7965,79.9651,-92.0518,25.2485,-73.6355,-120.0588,-116.0106,26.3338,-66.4427,32.3300,-59.6684,-62.1051,-120.6595,-69.6559,-49.2599,-35.0595
-25.5806,-114.5388,0.5112,-101.3675,77.3566,-95.6178,45.3245,-53.9964,-108.0949,-45.7336,15.7304,-25.7310,38.4568,-32.0180,-19.0235,-113.5971,-70.0008,-35.6600,-68.1963
-34.1377,-146.1578,-52.2508,-104.8491,99.8661,-158.6373,26.6045,-97.6164,-86.6500,35.5731,58.4059,-7.0471,34.1294,-70.1073,20.8936,-116.9736,-65.7946,-26.5434,-96.9386
152.1357,63.0537,56.8604,72.5751,209.8056,47.8908,52.1392,-3.0217,6.9530,170.9910,260.3971,101.9934,130.0942,87.2177,73.3722,-59.3866,54.8195,117.2389,-14.7450
353.9027,314.9066,209.5697,300.6190,318.4383,304.2224,124.8438,236.2511,101.1821,287.9604,413.0547,213.4100,217.8969,284.5279,130.7778,-33.6541,166.8743,251.4573,66.9551
376.5917,382.1515,221.6894,380.5797,353.9584,366.0384,157.7967,376.6567,124.9792,314.1146,386.0879,235.7474,232.4234,344.5938,196.6206,-106.3919,176.8916,274.2018,78.9459
339.7588,377.5938,137.9426,378.0017,316.5064,395.4672,85.6056,312.1990,83.3936,250.6744,358.9216,235.6390,225.3157,363.5455,214.4897,-148.6533,181.3372,305.1207,71.4711
325.1483,346.4889,60.9564,348.6827,221.4020,356.6552,-31.8402,169.7656,-6.1996,122.0906,380.7045,230.1585,140.0394,286.4244,109.2337,-127.1500,187.8689,309.8424,26.8385
305.1146,296.2948,43.7239,313.2870,154.2636,229.7068,-75.1109,118.8801,-57.6676,52.4668,354.8179,218.2395,11.7337,141.9382,5.0531,-122.9827,181.5088,241.1544,4.1423
295.3693,324.8605,88.8376,327.0679,158.8141,231.7150,-27.4318,157.7595,-2.0732,100.9958,297.0113,236.5867,-10.3028,130.2020,46.6409,-100.6361,217.3614,210.1597,89.3524
228.4816,311.4896,87.2476,287.8152,114.9056,213.4224,20.6283,123.6746,50.6780,96.3426,193.1609,206.8326,-10.1235,94.1420,109.6049,-45.7176,218.6095,165.1523,124.5901
92.0220,165.9787,8.9364,153.0159,-9.6028,29.0400,22.5693,16.0414,21.5595,6.1322,47.5061,87.8319,-84.6842,-87.8125,81.3373,-34.2145,130.3177,43.4581,24.1997
43.7785,88.6209,-12.8211,89.1786,-74.7043,-9.2800,24.8590,2.8627,10.2955,20.7734,5.5134,2.4138,-94.6559,-127.3995,52.7311,-30.6077,69.2964,0.3249,-19.1916
50.5874,69.9974,10.4802,67.9901,-78.0122,67.1707,40.2235,43.8639,35.5538,92.5608,32.7456,-33.8574,-46.1817,-43.2523,24.9969,18.7835,36.0683,17.2853,11.3132
-50.4167,-60.5050,-38.8612,-45.8890,-125.8410,-52.4776,8.8277,-16.4693,10.7815,43.0274,-58.7580,-93.6579,-80.4444,-101.5460,-48.5347,46.8130,-34.4375,-59.7981,-32.4606
-165.0746,-159.9204,-84.7056,-133.7422,-178.5639,-170.4410,-57.5904,-122.6861,-25.6230,-52.7745,-201.6917,-122.4708,-106.9227,-167.0112,-47.4204,44.2078,-54.2378,-133.4634,-76.5638
-193.1770,-144.2663,-59.4964,-143.2073,-196.5933,-126.3305,-77.5783,-181.8719,-20.3398,-115.4086,-256.4142,-121.5546,-53.2707,-139.7243,44.3215,68.5022,-40.0241,-132.9303,-56.4835
-244.4056,-196.0970,-78.3156,-209.9490,-245.8952,-162.0453,-64.8137,-220.0019,-26.4774,-200.6505,-296.1267,-178.5495,-51.4417,-189.5973,54.2100,88.9523,-114.3803,-173.7834,-74.3215
-319.7717,-278.3333,-148.0040,-277.8221,-299.9511,-234.4678,-75.9236,-217.8022,-30.3872,-232.7122,-363.3692,-225.9088,-107.0340,-230.2864,-18.9894,87.9185,-180.9839,-222.5368,-84.7018
-334.7769,-264.1104,-163.0665,-257.9158,-293.8428,-188.5539,-72.9751,-154.1711,24.8093,-141.8551,-395.9516,-200.7425,-125.0855,-156.8974,-46.3973,124.8937,-151.4019,-210.7525,-2.8867
-340.5172,-277.6974,-156.1026,-268.7969,-278.8933,-189.6601,-32.2533,-99.6679,77.3400,-42.3044,-390.0671,-200.6175,-129.1422,-139.9668,-47.4094,189.4321,-160.4254,-218.9791,63.5186
-347.0357,-347.8591,-176.1977,-322.0271,-285.6732,-229.9561,-8.1645,-78.9992,68.9650,19.4830,-337.1596,-236.5080,-120.5054,-157.1236,-71.6502,225.0179,-225.8884,-224.4388,66.4658
-304.6179,-337.7066,-172.3939,-309.3903,-280.1649,-154.8084,4.8736,-60.9447,48.4536,64.5593,-254.9778,-230.4237,-68.8620,-85.3497,-78.1187,250.0345,-227.9479,-165.9496,67.1910
-280.6810,-293.2419,-146.7449,-279.1813,-274.9052,-104.6922,33.6024,-55.2434,33.9736,13.5561,-250.9152,-202.6839,-36.2427,-47.6146,-69.0282,270.6975,-199.6881,-139.0948,33.8364
-287.7327,-293.6814,-126.1576,-277.7820,-254.3120,-126.0081,19.6095,-65.3809,-9.5555,-105.3306,-284.9847,-159.0100,-31.9484,-38.0473,-92.5396,229.6833,-193.7912,-150.3492,-19.8883
-219.5660,-258.9315,-68.4417,-237.7995,-163.0673,-63.7180,-31.8760,-68.3006,-53.9656,-132.8259,-203.4021,-67.4023,4.0087,63.6941,-136.0302,154.6755,-151.2679,-101.0727,1.4759
-109.2064,-169.0269,16.1476,-169.1048,-51.4041,-9.4684,-20.4665,-49.4041,-41.5805,-82.4647,-80.2937,2.6384,40.2901,111.6364,-148.3405,141.0325,-81.6515,-46.7916,47.7085
-63.0323,-89.0549,64.7385,-113.8185,11.7179,-28.0291,46.1046,10.7578,21.6573,-49.7223,-62.7798,22.2487,56.7424,75.2938,-101.2308,154.4414,-42.9959,-41.9409,51.0048
-39.5758,-21.1362,96.2899,-43.4805,69.4905,57.5148,103.8449,106.4830,108.3471,20.0173,-59.3775,89.4602,110.4746,172.8551,-9.9172,109.4833,-17.2835,-5.9313,92.8087
16.8381,42.1718,134.4378,36.8390,137.8213,192.8220,169.3449,193.0257,206.5593,147.5217,25.1931,202.1852,168.1869,322.8295,67.2691,57.2532,9.7337,58.7483,168.2187
58.8862,85.2562,129.1412,95.2304,160.7562,205.8923,203.6558,239.6698,260.1725,205.8395,89.0873,253.5794,157.8668,328.9942,85.2291,33.5063,24.6850,85.8005,160.6537
59.3330,107.6720,82.8429,129.9978,154.2729,196.7936,138.1989,233.7726,215.7697,153.3601,69.6130,244.1458,132.5124,313.6887,78.0534,-31.3667,40.8894,100.2467,106.8611
47.6562,103.9101,61.0403,126.7555,156.2866,215.7260,71.7723,188.2542,139.9789,102.9791,42.5545,228.7201,145.4797,332.9785,100.2341,-85.8549,56.7404,116.0575,102.2923
63.5196,94.5527,64.2453,110.2363,138.2100,166.9320,86.4078,149.1868,115.4791,131.6362,76.2809,203.8679,137.3561,259.7408,107.4863,-30.6392,70.2846,113.8808,95.6697
138.1457,129.6523,69.1777,150.6513,126.9196,131.8000,74.5449,121.6881,100.7256,195.4251,178.0456,195.6773,87.4061,179.2179,40.2937,23.3525,119.6460,133.9573,47.9203
224.3519,190.3436,97.7145,217.5889,181.3373,164.4333,4.7030,79.4284,57.4922,205.9194,272.3030,233.4336,64.3209,187.0365,-10.3044,-27.6132,189.4200,172.5550,20.8012
219.7897,202.7276,118.7573,218.5441,211.3013,135.7148,-29.1278,37.4131,22.3220,125.6032,237.6063,222.8228,61.1526,142.1342,35.0429,-82.4356,194.8237,146.1328,1.9723
134.4083,152.0515,65.7152,160.9506,122.6994,59.1751,-57.6332,-5.2244,-24.4153,9.8513,102.4078,91.9396,-0.5753,17.3370,54.8709,-93.0826,128.3756,60.8394,-59.8128
81.4473,92.2738,-6.0773,104.3612,36.1960,18.3315,-129.0011,-73.2417,-104.5742,-61.7153,35.0374,-44.3301,-88.7862,-74.6833,-13.2905,-119.1461,71.3155,2.0501,-103.8750
90.7276,67.7237,-8.5934,63.6059,55.2267,-54.7116,-161.9780,-130.3653,-145.7699,-90.5422,70.7116,-90.7527,-112.2545,-167.3613,-33.7858,-142.5823,46.7798,-20.0527,-90.9461
97.2951,60.2045,-3.8456,37.2953,52.3563,-135.1270,-158.4332,-151.2224,-145.6155,-128.9292,101.0699,-130.0145,-109.7800,-276.6969,0.3627,-135.9503,7.9463,-38.6523,-102.4207
68.3769,24.3623,-70.8017,16.7486,-61.1070,-120.3564,-205.3427,-179.2281,-188.8431,-178.7584,82.9815,-212.9645,-161.6136,-311.3900,-44.4051,-119.1280,-46.0656,-52.1682,-159.7036
17.6142,-31.9221,-142.2360,-17.2024,-154.0276,-112.3068,-255.5748,-214.2426,-242.9010,-211.0475,31.1589,-263.4272,-221.1414,-310.4885,-113.9761,-102.8487,-73.2641,-70.3520,-187.6334
-29.4025,-64.3955,-143.9047,-53.6222,-120.8463,-188.4874,-239.5750,-216.9685,-227.9126,-222.3171,-35.0625,-251.1549,-211.5118,-336.2492,-89.5653,-136.7516,-75.5908,-102.8105,-170.5867
-40.2281,-67.0622,-111.1739,-69.8893,-36.0228,-221.1951,-200.8477,-197.9746,-180.1989,-204.3506,-51.2397,-221.5736,-152.3792,-315.2115,-44.1137,-215.8236,-78.8011,-109.4314,-139.1286
-22.6109,-61.7105,-94.4414,-73.4934,-4.3074,-188.1378,-174.2745,-175.6424,-155.6323,-168.2878,-18.4514,-214.9211,-115.2918,-262.2842,-72.0052,-229.7172,-82.9036,-88.0636,-119.5792
-24.3504,-67.6950,-100.9586,-78.4833,-26.3475,-185.4265,-182.1644,-161.4812,-165.8172,-187.3385,-34.8124,-256.1336,-141.2776,-265.1800,-153.3523,-220.3110,-96.5178,-102.5303,-164.6844
-49.4093,-102.1157,-117.0981,-95.7948,-40.8169,-191.6179,-232.7190,-178.3470,-200.9035,-252.7365,-79.2791,-296.9198,-178.0260,-260.9543,-231.7876,-275.5689,-129.6187,-139.0385,-236.0044
-64.5457,-125.0628,-112.5835,-131.1742,-49.3314,-177.8909,-173.6453,-185.4465,-166.3130,-205.2164,-58.3412,-257.9448,-130.4092,-223.9719,-201.5576,-194.3269,-129.6875,-116.3927,-172.0018
-61.5352,-44.4453,-66.4578,-142.5306,-102.0188,-165.9883,107.8410,-116.1604,8.6746,5.0980,-41.1753,-204.5019,-24.4069,-266.0117,-6.2769,136.3051,-41.9763,-53.3300,44.8190
-45.2639,107.3327,6.4473,-97.9339,-139.3068,-119.0276,389.9327,-11.0855,184.7224,191.4525,-104.9744,-228.1884,30.6056,-340.7532,195.4530,386.8999,68.4636,-34.3398,229.2327
-36.1555,158.4270,67.7115,-62.0824,-61.9098,-62.3792,436.9315,54.2058,215.2705,222.6333,-161.6745,-229.1194,40.4579,-293.6593,250.3269,354.8603,93.0490,-58.5600,278.7844
-73.0902,74.0655,67.5290,-81.3174,39.9200,-78.9516,356.7619,81.6491,179.3460,192.6179,-175.5181,-131.6532,64.5995,-175.8142,236.8701,269.2364,52.1948,-71.2059,246.9700
-137.7045,-2.9584,-6.0786,-101.6451,18.7514,-108.1626,314.9271,80.4085,169.1791,193.5776,-211.8140,-75.9470,52.3028,-134.7333,232.9568,267.2941,28.0143,-71.4163,186.7572
-169.8674,-37.5640,-80.6542,-110.9712,-66.8795,-83.5250,281.9323,54.2859,136.8846,184.0448,-236.2197,-132.8138,-32.4200,-163.6121,184.0611,267.6704,-6.6376,-93.5502,140.5749
-177.7798,-109.8707,-94.0567,-150.7757,-97.4431,-67.7542,223.8044,59.2329,73.2944,135.0939,-202.5730,-163.1189,-97.8953,-158.8618,110.1963,285.7436,-97.7355,-130.1258,142.4478
-191.4428,-186.1653,-84.5368,-176.4952,-90.5700,-59.6643,168.6674,105.2722,28.4827,86.6477,-170.3964,-94.8686,-95.1564,-81.0945,78.5253,324.6682,-165.7525,-134.0506,138.5058
-170.5393,-191.1793,-86.8305,-139.4836,-75.1592,-26.8481,98.3200,111.0442,-10.6698,59.4097,-137.8140,-16.5766,-84.0190,4.4509,28.3728,274.4818,-142.7565,-96.1821,73.6744
-96.2305,-165.0620,-58.3931,-97.2942,-14.3907,-33.5731,14.7547,57.6744,-50.1831,41.8766,-48.7639,26.8269,-72.2583,43.3253,-83.4866,157.1915,-89.6474,-58.4535,-2.2073
-24.0996,-138.5299,15.4076,-73.1282,86.7447,-47.9803,-28.0030,22.0946,-51.6216,18.9066,44.5959,102.6319,-4.0854,101.8753,-152.8291,80.5422,-45.9138,-20.6313,-44.9416
37.2292,-63.9611,86.7102,-0.5789,170.6339,31.4336,-40.9401,37.6787,-30.6047,-18.8186,107.2585,254.8745,99.7189,226.1731,-123.1935,25.4133,28.9853,62.6868,-77.0765
134.1534,52.8299,131.5123,126.4436,196.1785,136.1131,-72.7199,66.2555,-23.4248,-45.5755,206.5021,401.4776,150.9122,319.6767,-85.8127,-37.2990,121.1503,165.9925,-105.4252
242.7962,161.9643,152.9774,242.5983,169.4093,208.8432,-104.9108,71.1286,-20.0819,-41.4111,315.4419,430.2040,125.5246,333.8524,-107.2027,-78.0004,179.9590,222.0950,-134.7114
291.9243,252.2733,146.5366,310.6657,133.6098,322.3442,-108.9158,38.9915,-17.9680,-64.1700,332.0141,376.7649,96.1487,348.4538,-137.9741,-128.5942,215.2898,244.8904,-181.1667
270.1623,285.2774,122.3909,315.8374,89.9711,401.2546,-115.7862,-19.2172,-20.0114,-146.5165,284.7079,357.4116,115.2098,376.2874,-120.3687,-205.0474,225.5279,263.1385,-203.6369
218.8378,217.2194,99.9295,271.7078,-4.2381,325.4272,-154.9354,-67.5989,-1.4835,-187.9243,255.2840,365.5912,134.0857,366.9126,-76.3074,-232.6681,180.6680,240.4981,-175.6212
190.5562,136.6965,94.8370,251.3213,-95.1562,228.8795,-197.0069,-70.4401,32.0696,-115.0595,244.6249,342.4698,113.5297,352.4907,-50.0825,-191.4748,137.2672,189.0354,-156.2462
217.5322,156.9283,130.2772,290.3179,-78.0723,240.3666,-195.5753,-18.6847,46.5274,-16.6886,245.5758,319.8212,106.2137,363.4205,-20.5228,-133.3603,161.4754,177.4275,-149.7514
248.5524,211.9960,176.0135,320.8590,-13.3485,264.2045,-158.6345,54.5311,46.7463,20.3327,245.4789,304.8442,120.1441,350.7571,50.2850,-75.7596,180.2522,180.3801,-93.1576
199.0623,186.2425,139.5536,291.3897,-43.6901,238.1764,-130.4566,100.0180,54.3060,26.8598,186.6136,242.8447,83.8602,296.9078,128.6171,-31.4764,119.3999,137.0661,-22.5764
100.8988,126.6489,31.7275,242.6041,-132.2788,197.6083,-106.4504,109.9884,70.0428,28.0884,85.9054,177.2162,24.8586,236.4698,173.1204,-21.4631,55.5393,94.5107,-2.7692
59.8108,118.8463,-13.0747,212.9526,-142.6545,137.1041,-70.3186,89.6260,81.6629,1.6610,44.0503,179.5399,35.4956,182.3223,202.0730,-34.0802,60.9987,97.9578,2.2197
82.3265,118.7665,33.0791,187.3501,-97.1482,72.1488,-85.1465,15.2630,67.2974,-25.7472,74.3248,177.5529,80.4023,138.8661,212.4574,-72.6157,81.0647,94.6349,6.7240
102.3735,78.8537,66.3142,159.7503,-116.1722,20.9641,-173.3634,-69.2897,45.2307,0.8237,102.5910,96.9587,87.1772,111.9694,172.0615,-133.9536,67.6418,62.6740,-9.9191
106.5219,57.6575,62.2870,142.9248,-183.7159,-70.9491,-207.4330,-55.3296,82.1309,71.7747,97.6560,7.1655,93.3193,82.1606,116.5371,-156.7494,54.9392,45.6182,30.5292
114.7202,94.3289,67.2946,131.0651,-191.7811,-181.8267,-127.4953,19.0149,161.9919,127.0482,80.3883,-29.2208,128.8863,41.2595,92.8043,-147.5114,74.3251,53.3739,155.4805
140.5215,151.8151,72.1905,132.6324,-145.3985,-206.9948,-71.8333,3.6765,181.7640,126.7388,88.9747,-43.5352,160.6473,20.4932,73.5900,-191.5225,120.7060,79.2300,209.1368
198.4380,205.7749,89.0678,172.3391,-114.0009,-160.0226,-111.3342,-71.6898,135.2518,90.3345,142.0604,-60.5175,201.5531,43.0339,58.2089,-250.3988,168.3823,121.1410,127.5710
250.8812,234.9393,159.0341,205.6331,-77.5660,-126.0921,-136.2745,-67.1117,102.8638,75.0927,179.2167,-83.6833,273.2660,87.2406,94.4777,-220.9251,175.0654,135.4120,58.4455
227.6407,195.2473,200.8638,163.1498,-25.8219,-126.4579,-115.3659,-25.9888,80.6475,95.7769,143.2842,-124.3807,323.2066,108.3863,138.0643,-150.0763,138.4881,108.9621,59.5056
167.1118,122.4086,125.5295,102.2409,-39.2274,-152.9926,-142.1494,-54.7202,27.6898,114.2119,105.3586,-161.0444,311.6228,92.9303,112.7921,-119.6730,117.1305,108.2725,32.5321
173.1268,115.8970,49.7749,124.7804,-99.6591,-159.9977,-196.6490,-87.8549,-8.3907,126.7165,143.3616,-159.7384,274.7016,80.0895,85.6125,-93.5773,131.6219,142.2865,-13.0570
221.5374,169.8616,100.0767,183.9899,-76.0890,-86.5542,-165.9672,-43.1167,22.5203,157.7616,192.2738,-114.3073,259.0109,105.0835,151.9405,-46.1223,141.3312,146.2479,29.2257
212.1607,199.2683,177.3035,188.3588,14.5703,15.9208,-64.1563,31.1550,79.4152,183.3297,166.3610,-24.1144,261.3465,149.7335,245.9890,-5.2404,144.1805,128.3159,136.0108
157.5601,199.9419,169.4221,172.6176,39.7684,65.5649,11.0142,88.8866,109.1951,178.4534,93.1451,70.7319,235.4161,177.0646,255.5908,45.1949,168.4374,129.4462,198.6054
128.0540,206.1167,140.5861,170.6577,5.7138,89.4725,54.3362,129.7564,110.8063,164.6504,37.5391,88.5989,172.8742,170.4279,189.2192,110.7392,186.4207,121.5731,205.3169
107.4076,183.9905,141.2002,120.1424,-10.4879,107.5958,99.2163,125.7375,93.8011,128.6407,13.3695,44.7280,133.8622,135.9082,103.6117,145.2030,157.5186,93.3194,201.5917
60.4191,114.5854,119.8950,28.1254,-26.8750,88.4305,108.6837,70.7313,53.0227,32.7589,1.7742,41.4925,122.4244,100.0626,12.0401,145.3403,108.2199,77.8140,176.1083
29.0739,64.1160,86.2186,-7.5622,-52.5415,69.8143,74.8297,15.7636,2.3433,-70.5650,-4.1388,84.5579,68.0902,76.3873,-67.0335,139.7083,86.1016,61.8064,117.0285
39.3093,66.3153,90.1521,8.7542,-38.1637,90.7505,80.0210,-2.6464,-16.5231,-99.8997,3.3915,97.3676,-13.2933,43.3934,-100.3683,122.4273,79.2010,24.9497,75.4253
28.1476,53.7728,81.0174,-14.4010,-8.1773,102.8048,139.2723,13.1880,-0.6687,-83.3014,3.8787,61.6316,-54.0457,-5.0833,-101.6754,92.5746,33.4415,-8.8542,73.0859
-40.8431,-19.9909,1.6486,-80.9376,-26.8559,81.7544,158.3242,35.2978,-15.6431,-96.7505,-35.8387,0.7261,-89.0830,-50.9567,-110.4865,63.7036,-58.8683,-38.8033,53.2254
-105.0678,-99.3592,-88.2825,-128.1171,-67.2501,53.0445,111.8041,22.7967,-91.0440,-144.8804,-84.9273,-56.9775,-156.8003,-97.9389,-134.2110,37.8454,-129.3349,-73.9612,-6.0678
-120.1037,-126.6651,-118.6029,-143.8300,-73.0208,19.7857,67.9834,-19.3173,-160.5183,-186.1047,-102.3101,-72.8083,-197.7822,-137.6011,-161.6583,34.3307,-126.8617,-88.8425,-44.5853
-129.5388,-126.0072,-108.2090,-153.6884,-57.0146,-5.6725,54.3577,-40.1025,-172.8240,-191.8149,-132.3068,-66.5424,-188.2945,-137.4662,-171.8056,61.5769,-92.8473,-91.3686,-31.4250
-154.3053,-124.6445,-103.3591,-155.3717,-53.1004,-1.0989,63.5966,-23.4121,-153.6262,-163.3109,-187.1814,-81.4488,-167.1968,-117.9046,-130.6990,75.4347,-81.0696,-100.3259,-14.1458
-137.5025,-90.9494,-115.1924,-114.2957,-61.1173,23.0136,84.4321,3.0904,-134.6132,-143.1624,-165.8300,-64.4656,-135.2039,-109.4470,-59.5760,50.0163,-71.7655,-66.1929,-43.6196
-67.7932,-31.0475,-121.1608,-33.0267,-61.2813,52.1815,61.5078,4.6573,-136.9957,-166.3554,-59.9875,16.5950,-99.7733,-80.3732,-32.1029,9.0920,-38.7409,8.7684,-118.5020
-26.0747,-14.1990,-92.1380,11.0735,-31.6402,64.6550,0.0707,-33.7158,-165.6181,-186.4281,-15.3587,59.1832,-85.4373,-39.9986,-29.4779,-22.0181,-8.1861,23.4035,-176.7780
-33.9240,-17.1736,-37.3486,-4.8849,26.9093,44.5664,21.3009,-56.9391,-151.6873,-134.8365,-58.5163,26.1422,-52.5659,-44.4498,36.4765,-17.2333,11.8281,-14.2951,-148.0420
-13.7758,47.4434,-7.5199,14.6587,70.3558,39.0881,130.8193,-4.4164,-50.5314,-39.2047,-56.3241,10.8323,-0.4753,-56.2706,110.2436,17.6568,40.8725,-1.2980,-70.6131
30.8510,106.5399,-31.6526,73.4479,59.1330,54.6023,176.5471,55.4838,35.9422,17.9111,1.7362,21.2091,-22.1303,-31.7564,58.2030,19.4605,47.6330,25.5310,-54.5222
11.1240,48.1150,-74.1054,51.8643,18.3921,19.0981,142.9704,41.8605,33.4930,26.8592,2.0678,12.3127,-87.5246,-22.9868,-58.1718,-16.0250,16.3214,-3.6268,-79.3448
-35.8795,-1.8868,-75.3143,-6.8768,5.4978,-15.9724,140.8571,22.5845,33.6367,32.6896,-41.3278,43.5791,-56.6629,-11.2313,-82.4262,-23.5634,29.9541,1.0832,-37.2876
-8.0625,73.4668,-34.6218,33.4372,31.5959,39.3960,138.2295,38.9619,76.5112,24.1814,-32.3509,121.1215,26.9984,64.2416,-52.1568,-27.5030,103.8171,70.6275,18.6505
34.4729,102.5107,-10.0023,78.0730,61.0558,57.1012,63.5807,-4.1389,64.5013,-40.2982,4.2509,123.1311,19.5073,97.6790,-78.7180,-93.3611,102.8389,62.6216,-36.8490
5.3784,-8.9962,-10.2316,0.7138,77.6104,-52.1964,5.0856,-104.1018,-1.0473,-111.7922,5.7946,40.3745,-28.4921,8.4709,-110.3633,-170.0667,1.3537,-36.6101,-130.6414
-7.9782,-65.2705,17.4921,-66.9820,97.8178,-113.4708,28.4876,-137.1968,-10.8721,-86.9174,18.9699,-15.1816,-6.8541,-65.7831,-76.4241,-178.5480,-46.6437,-74.0381,-122.7486
54.8849,-6.7939,65.9358,-30.0782,120.1813,-63.1990,49.2853,-110.5339,23.0007,22.8177,88.8810,-28.3339,32.4688,-53.6514,-37.9246,-129.8779,-5.1674,-33.9781,-61.8082
91.6050,-1.3137,75.7988,-10.1614,118.1266,-50.8610,16.4889,-114.3101,9.0119,89.2430,146.1910,-39.1250,27.7604,-51.3002,-36.3397,-79.6260,9.7386,-17.8809,-52.7761
53.9875,-59.2188,47.0284,-41.4262,84.2831,-76.4641,-29.7515,-130.1143,-41.9574,59.7420,120.6782,-35.2757,11.4739,-65.0324,-34.1852,-79.9644,-14.8389,-29.2154,-78.5524
10.0483,-74.1362,2.6437,-39.0829,31.4888,-61.8749,-70.2745,-122.6754,-67.1512,18.2291,52.2603,-27.6328,-11.2246,-48.7245,-34.9042,-109.3898,-12.1764,-27.8263,-97.0090
-10.1219,-67.5203,-56.8445,-19.9203,-24.7314,-66.5867,-98.4095,-120.2203,-60.2561,29.2845,22.4398,-36.2151,-44.9185,-44.6196,-56.5154,-63.3034,6.6024,-17.0375,-103.9846
-2.9807,-57.8047,-77.5593,-9.9712,-43.0766,-81.1119,-94.0462,-107.0487,-38.7406,62.6788,49.6850,-21.5426,-44.2735,-43.1596,-55.9814,47.4856,19.2361,4.4826,-79.9278
47.6884,0.1159,-4.1956,35.0377,14.4003,-22.1801,-65.5769,-43.9650,-3.4567,93.9507,92.7647,23.3858,-4.0845,7.7602,0.9366,87.6197,38.6582,25.9141,-18.9280
90.2144,51.7308,86.4878,77.0747,96.7092,31.8301,-29.5477,37.3259,41.8115,138.3020,111.8408,48.4899,38.7201,49.3585,93.9958,61.3530,39.5545,22.6690,47.3937
62.4361,28.0799,91.1302,53.1297,110.0555,13.7218,3.7957,93.8123,75.0664,175.8902,95.2333,51.6242,77.8882,42.1276,179.7645,58.5263,1.9221,19.2571,94.5234
8.5868,-17.2424,40.4649,16.6913,55.4080,12.4834,3.8574,120.0160,73.1474,170.2036,56.8433,51.1037,89.3998,45.3288,199.7598,33.0051,-35.1368,30.7807,106.3787
-10.9739,-37.9113,11.6602,10.4123,6.0656,33.0334,-29.4231,110.8155,46.8981,142.3995,25.1164,29.4934,42.0069,49.0519,139.5908,-40.6194,-48.5013,17.0894,87.4919
-21.3490,-62.4027,6.0481,-10.2437,-16.6035,5.1504,-47.9250,72.8512,27.5897,121.6475,5.8434,-1.8161,-15.9735,10.9518,76.8687,-67.3810,-57.7694,-22.7049,81.3885
-57.5921,-101.9288,-10.3196,-55.1473,-43.2940,-30.2791,-46.0793,25.5716,13.9038,77.6401,-26.2852,-15.9400,-40.9158,-24.0133,59.4710,-60.4997,-79.7509,-54.4405,87.0828
-94.9419,-133.9527,-47.0514,-84.4612,-86.3916,-41.8665,-56.5786,-24.3285,-5.4871,-3.0894,-61.6652,-32.2502,-66.7837,-39.0422,33.0198,-91.9282,-112.1707,-78.0240,49.3751
-86.9434,-121.9458,-80.9408,-71.6939,-125.2319,-54.3116,-72.2234,-47.2636,-9.5159,-55.5663,-46.9317,-49.7773,-88.0167,-57.6147,-19.9436,-83.9161,-119.4991,-71.7962,-11.6768
-29.4424,-52.8746,-77.3536,-13.2935,-126.1574,-29.5069,-80.7160,-13.4746,3.8166,-37.2005,16.8126,-29.9512,-58.4106,-37.4086,-38.0319,-4.2217,-73.0811,-9.8317,-32.3620
27.4821,9.5254,-41.4517,48.4753,-82.9675,26.8265,-95.4025,28.3477,2.8238,-5.4822,66.3951,14.4525,-13.0410,22.6394,-22.5316,8.0932,-20.0773,46.1287,-37.1956
50.3646,23.6392,-9.3137,68.4215,-35.6754,43.0925,-102.9030,26.7875,-4.7618,-22.6570,81.1444,49.5389,-0.5050,52.5528,-33.3244,-71.6079,-4.9651,50.1521,-60.5095
59.6858,41.2516,13.6856,74.3239,-11.7478,53.8371,-85.4062,20.1013,9.8988,-55.9581,82.8235,81.5787,8.7710,70.7327,-54.3423,-107.3365,7.2310,51.9282,-62.7239
57.5471,58.2076,32.5465,82.7705,3.8734,83.3682,-64.9740,36.8627,29.9622,-41.4028,64.0419,91.7828,28.2176,105.6708,-30.9537,-70.7659,21.7433,54.5058,-39.2645
19.2534,13.2693,26.0571,46.9463,14.6640,42.8660,-52.0828,42.7649,34.9118,2.9312,17.4960,39.6506,27.5158,85.9713,8.6464,-35.1653,-9.9486,11.6667,-30.4306
-28.2755,-41.3420,-4.5284,-17.3136,6.3808,-33.5360,-36.5587,38.6404,32.1265,6.9372,-25.3991,-37.4734,19.1254,20.6395,8.2091,-11.9498,-62.7342,-30.2374,-22.2340
-43.1261,-41.2354,-24.1151,-40.1356,-10.7634,-30.3025,-34.2146,47.3291,13.9178,-28.8377,-41.0538,-65.9968,27.0202,7.5904,-5.5470,22.8842,-76.3553,-19.6743,-6.4079
-36.6227,-40.2579,-18.4105,-30.0655,-14.4573,-9.9131,-44.4746,39.7839,-17.9961,-33.2847,-32.8217,-48.4761,33.7637,21.7777,18.2009,79.4030,-61.3208,-7.7892,-23.4791
-17.8590,-43.7619,7.3052,-21.5498,5.8479,-39.5964,-23.3758,5.6528,-19.1992,14.1894,-6.1744,-35.0202,38.3058,-0.0672,55.2435,152.2074,-34.2925,-18.6352,-52.1739
16.9974,4.5457,44.2347,-4.4463,40.2673,-37.9527,32.9829,-14.2775,24.9851,57.0088,21.8413,-32.3524,58.8287,-14.2718,64.2265,192.5741,10.1487,-10.6784,-34.4922
27.4534,42.9970,62.3952,5.3823,50.1951,-12.8578,65.6825,-25.4036,60.8625,47.2913,21.4637,-4.8571,70.0409,-5.2363,56.5068,166.1178,41.3279,3.3742,-2.1720
-5.1940,10.9534,41.7277,-10.9200,20.0774,-40.9997,31.5492,-64.6627,34.8643,-14.9309,-13.0696,43.1083,39.4182,-14.5820,32.6717,111.9918,48.1194,-7.9767,-14.4121
-23.1422,-14.2127,8.0140,-15.1496,-8.2373,-55.8387,-52.5712,-100.9914,-45.1108,-83.7349,-46.3480,42.7556,-6.2031,-21.1969,-27.9945,64.6965,59.3940,-13.5066,-56.6594
2.3587,-2.4045,-6.6581,3.2722,-14.6376,-8.5364,-120.4506,-81.7307,-107.1183,-82.0917,-29.5717,-17.6612,-17.7822,-4.1077,-80.2907,26.6894,56.0994,8.0707,-87.0995
32.3537,-8.5522,5.1576,12.1758,-20.5701,21.4243,-119.5761,-23.9012,-89.0314,-1.2290,34.0176,-36.9961,5.0182,11.5038,-71.5368,13.9871,24.5689,30.8694,-78.0102
47.9822,-1.2210,34.9451,26.5745,-8.4221,25.9708,-82.6668,28.4934,-27.4525,59.9090,67.1369,21.4233,22.5586,38.2970,-48.2301,6.7165,26.9409,42.9474,-20.8145
54.8016,62.1903,54.7634,62.8462,41.8012,52.8426,-60.6876,67.4257,11.3812,52.3761,24.0510,55.5315,24.1783,77.2082,-46.8476,-44.4194,74.9461,50.4479,46.8520
44.6537,120.9669,40.3596,84.2146,77.8585,67.5244,-28.4336,94.8313,47.6681,41.6954,-32.9863,31.1359,36.7200,77.9568,-14.2131,-111.0831,98.0567,56.3705,86.2491
25.4905,132.6235,6.2403,81.5818,56.9289,54.3686,26.4494,99.5602,103.2726,50.9977,-38.3917,32.9588,51.8970,51.8858,46.5633,-129.4268,82.6001,65.1696,107.7497
15.5270,112.6170,-22.6957,76.8718,10.2734,50.4862,51.9548,85.7346,122.6287,47.0001,-11.0309,67.6717,30.0446,45.1019,63.0529,-91.6861,59.3884,65.9133,115.6531
8.4873,69.6373,-36.4166,62.1750,-21.1108,45.9573,62.7080,76.8973,103.5875,70.5276,11.2185,69.9196,-7.5729,38.1598,58.6523,-8.8814,32.0945,45.8696,105.0936
1.7984,46.2835,-25.5932,44.3080,-19.7410,31.2450,114.4666,74.7686,120.2466,148.1951,15.6044,53.2827,-4.5336,18.0575,98.1143,75.0871,29.2798,27.3506,110.7203
6.3195,76.8271,-1.9807,48.8135,8.2134,22.5930,145.7149,53.7560,158.9614,183.7363,1.3135,49.8369,27.0636,5.1416,138.1893,72.7267,68.0813,30.1405,133.1772
16.7633,99.4601,8.0385,54.0578,24.3703,1.6100,90.0472,12.5666,146.4756,128.4256,-4.7466,39.0907,46.2085,-10.0964,120.0727,0.7457,89.2361,38.2364,113.9235
24.9785,78.9789,22.1062,39.8694,21.5870,-17.7146,32.7941,-10.9484,104.3052,69.1862,11.1111,38.5327,57.0750,-11.3124,67.3862,-26.9338,78.6980,40.7377,66.7049
33.9833,74.8588,64.9554,36.6080,43.9174,15.0324,42.9758,7.9531,84.6918,54.5804,6.8492,81.1116,59.4591,39.4721,6.5098,0.4332,98.9660,41.6721,64.6190
45.3418,94.8158,99.7290,51.3180,83.2846,61.0355,53.6660,45.6040,63.1018,48.5765,-16.7409,112.7316,34.3801,87.4887,-52.6405,21.8726,132.8847,37.1546,89.7316
59.0492,85.3380,90.3330,50.3923,81.1090,56.5781,22.9788,53.0567,17.9299,35.4891,3.7566,72.7541,-0.9059,61.8533,-82.5322,39.0026,108.2623,25.6885,74.8117
59.1157,43.6192,51.4520,22.4774,34.9395,24.0875,-15.7925,8.7747,-20.8326,6.2349,45.6290,-7.1479,-25.7052,-0.7013,-88.4796,36.1755,37.6588,6.1218,24.8005
22.2084,-9.3823,0.2408,-17.4753,-17.8493,-11.6385,-53.8620,-47.1773,-44.8069,-51.4236,30.1540,-66.3400,-48.1448,-43.7889,-96.3952,-20.8888,-26.2365,-23.0348,-23.4709
-20.4870,-51.3955,-34.5040,-44.3405,-46.8257,-38.4073,-79.3632,-54.2715,-68.3696,-88.8725,-12.9186,-75.6722,-53.5962,-51.7767,-90.0633,-50.7437,-54.6591,-36.2718,-45.8294
-12.5648,-36.4091,-6.9857,-33.7671,-17.4668,-8.0249,-55.0481,-6.2570,-74.6105,-56.7522,-14.7454,-38.2627,-24.8831,-10.5945,-63.0730,27.6850,-26.2752,-14.1059,-10.5522
25.9814,19.0500,52.4753,-1.7205,46.0954,53.8309,0.2111,56.5614,-41.2118,13.2994,9.1516,3.2389,3.3784,43.5014,-38.8522,132.2632,20.9693,10.8333,66.1082
35.2191,32.4021,58.7761,10.2715,58.3928,52.4039,35.1175,101.0818,9.4821,64.7691,30.0812,7.4766,7.5270,39.6630,-3.7405,165.6564,7.8579,10.8922,102.7244
10.0157,-3.9790,8.7288,-7.0832,11.1640,-0.9224,41.2588,102.6869,25.0681,59.2519,37.3478,-19.3695,11.0749,-3.4591,41.0459,142.5711,-49.9694,3.2582,71.1888
-21.8699,-35.4734,-38.5156,-32.7777,-42.8409,-30.3085,24.4455,60.5181,-11.4163,-1.2388,6.4608,-53.2910,14.5857,-17.1660,36.3668,97.6802,-74.3796,-0.5464,31.1192
-31.2389,-42.9814,-54.2334,-32.2949,-97.1957,-22.1551,-3.0904,33.0451,-46.9847,-31.0330,-25.6849,-65.7281,3.7541,8.5861,-6.8704,58.7151,-55.9792,2.2030,21.0600
9.0938,-10.8167,-23.3965,18.7659,-116.4959,26.0267,-1.7563,61.8081,-34.0436,14.1161,7.7449,-26.7890,7.9526,55.9943,-7.0550,55.3163,-20.0261,26.9372,20.4048
65.6508,58.5565,41.1581,73.4251,-47.9395,92.2647,30.5438,91.4162,-6.2840,26.4685,55.7174,27.5349,48.5409,95.3483,28.7643,50.1752,19.7598,58.4343,10.9372
62.9392,86.5966,63.7147,60.2467,16.2619,87.0565,50.2152,69.6502,-1.6527,-39.9360,35.5474,20.7362,93.1303,78.5182,53.4582,3.7897,23.1616,59.1693,-2.0058
8.6089,42.8677,17.4227,10.6264,-24.9863,12.6559,59.8061,36.9917,8.5288,-67.0475,-13.4133,-31.2338,115.0801,27.0497,95.3569,-25.8828,-18.9119,38.1525,-15.5094
-19.2736,17.2073,-15.7524,2.7723,-71.3315,-14.4480,80.0133,26.2048,28.8079,-46.3641,-34.1339,-51.2975,112.3020,10.1134,141.5335,-11.7417,-41.5845,22.5996,-35.8419
-9.0055,36.9090,5.3483,18.5234,-34.0112,5.5208,69.0033,-3.7587,8.9166,-101.4610,-48.0914,-40.2786,68.6224,5.1412,108.7240,-30.7430,-26.9960,-5.1054,-64.0438
-27.2760,3.8584,14.3595,-10.7593,-14.9913,-31.5022,8.8808,-70.7213,-39.0998,-197.1165,-78.6821,-43.5548,-9.2529,-47.9542,39.6629,-90.7911,-43.3730,-65.6285,-87.0054
-111.3885,-111.3955,-27.4565,-93.8710,-72.0146,-116.8442,-23.7473,-125.2903,-49.0441,-210.0057,-133.0128,-64.8472,-55.7010,-118.2298,62.7761,-101.4741,-114.6980,-133.0769,-87.1862
-207.1102,-211.4432,-69.0953,-183.0503,-114.7095,-170.8448,5.9776,-140.4092,-32.3410,-172.0148,-208.0963,-102.1484,-44.1199,-157.3195,138.7402,-61.3122,-178.0972,-176.6429,-64.1951
-229.2779,-233.5272,-64.8132,-218.7856,-102.5800,-190.7342,14.2626,-158.5304,-51.7638,-156.2671,-251.5548,-150.8658,-53.8232,-180.3505,121.2067,-62.7637,-176.7342,-205.0444,-46.7666
-188.7232,-222.3068,-43.4114,-195.9025,-84.6494,-209.7076,-48.0891,-219.8332,-102.7022,-161.1961,-235.5856,-169.3539,-130.0417,-205.0240,16.5719,-123.1573,-131.7808,-234.5689,-71.0196
-174.8130,-234.4383,-59.2193,-188.5945,-88.0996,-228.7074,-108.4116,-291.1419,-137.7294,-199.0913,-207.0589,-154.0479,-175.4549,-223.0213,-52.9053,-170.3791,-117.8509,-241.4643,-132.7453
-187.4156,-254.0705,-100.1793,-219.1120,-104.6586,-231.7977,-112.6262,-316.4186,-151.4220,-239.9115,-177.0730,-162.4483,-114.2234,-219.2770,-55.1638,-171.7358,-145.8609,-197.7526,-188.6500
-150.6124,-229.6382,-103.6358,-199.4229,-110.5313,-205.5116,-109.9893,-307.3247,-163.8492,-195.0124,-126.5531,-188.8767,-32.1873,-174.7995,-41.1781,-172.0183,-126.3361,-135.3303,-221.2405
-81.7960,-156.0579,-68.5188,-104.6427,-93.5305,-154.5639,-133.8996,-297.7781,-166.4799,-113.2506,-96.7152,-163.4153,-13.5141,-102.7125,-29.7915,-195.7168,-30.7466,-94.8142,-240.0172
-42.5912,-71.2009,-44.8011,-25.9092,-82.2502,-97.2931,-135.4909,-264.1937,-139.2468,-113.0032,-95.0735,-95.7623,-11.4058,-49.5805,-22.9558,-196.3697,45.2131,-55.9364,-220.7771
-12.4514,-5.6828,-24.8275,-4.7164,-78.0674,-51.5928,-90.4469,-203.3714,-102.8449,-145.1510,-67.3607,-61.7787,10.8247,-26.4989,-43.5385,-156.5641,59.7828,-13.2221,-146.7550
18.2231,12.6360,14.2045,-13.1989,-34.2779,-52.0006,-50.3473,-182.7723,-96.9565,-127.6109,-38.5362,-72.6863,16.0850,-19.8220,-79.1598,-138.7224,62.8588,-16.9844,-80.5444
10.5396,-25.1189,27.6367,-44.0216,28.1656,-109.2751,-48.7303,-213.4529,-108.8808,-112.5408,-40.2117,-84.5121,6.9871,-41.3610,-85.4272,-170.3118,48.0305,-56.4579,-81.0084
0.3305,-61.6753,-2.6747,-66.9095,41.4323,-151.0041,-54.0529,-222.1575,-96.6424,-118.7756,-0.7841,-77.6829,5.4381,-73.0206,-76.4824,-196.8015,-2.7512,-60.8460,-106.0519
28.7754,-47.9290,-17.2725,-41.6386,26.2169,-122.9507,-31.0832,-187.6258,-65.7635,-90.4284,63.3289,-55.8829,-18.8623,-57.9161,-91.8254,-182.6588,-24.7229,-44.7865,-84.4795
23.2594,-32.2799,-3.6739,-22.4126,31.2741,-82.9983,22.3718,-141.0461,-37.6948,-48.6334,26.5369,-31.1634,-56.4481,-7.4156,-95.8828,-143.2941,-6.1796,-65.3354,-11.1941
-43.0530,-57.9662,-14.8037,-60.1355,28.5378,-77.5731,87.2145,-82.4413,-1.5232,-35.9358,-63.9510,-16.8213,-47.4172,19.5389,-56.8023,-99.0155,-23.3172,-85.1927,62.1649
-66.0754,-68.8783,-51.0231,-76.7199,-4.5665,-62.9949,123.5280,-31.9082,25.2912,-45.4824,-56.9035,5.8902,-17.4699,37.1115,-43.8965,-76.1560,-57.8982,-52.0300,78.0130
-10.6274,-23.2709,-66.2417,-14.5737,-34.5293,-18.4674,96.4891,-37.1948,-4.4257,-96.0283,13.0986,56.2815,-29.4369,88.9669,-98.7750,-87.7436,-30.2059,-2.3047,38.1092
38.7894,24.1890,-53.3855,46.8838,-39.1525,17.8994,32.3757,-68.4979,-65.3178,-165.6203,36.6677,87.1255,-45.8677,148.8206,-145.3076,-94.2344,20.7627,20.3158,10.1090
39.9512,23.3884,-35.9919,43.1017,-14.4110,26.6499,-4.8277,-64.7165,-90.4954,-157.0964,20.4864,54.4248,-17.8274,175.5845,-137.4892,-58.0044,26.7965,20.9186,13.5887
23.7883,5.3229,-21.1408,19.6245,38.1621,17.9055,-2.4122,-51.8063,-89.1913,-96.5392,-6.1128,17.4953,18.5322,179.9784,-119.8792,-3.0750,31.2627,12.8107,-4.4185
29.4914,21.1441,5.6643,27.3146,89.6046,12.9244,6.7105,-67.3480,-98.0333,-101.6768,-16.5989,42.1955,43.3437,184.9172,-97.6426,34.4957,67.6270,15.3783,-32.0490
72.5586,62.9483,43.5763,55.2693,113.3919,31.9650,20.2545,-68.6589,-90.9409,-124.5231,41.1975,75.6076,78.4884,192.7651,-39.0156,64.8330,75.3167,38.8924,-6.0394
111.6299,82.4177,48.6747,76.5568,103.7631,57.1284,42.0527,-23.4301,-57.1656,-63.0968,117.5684,46.5860,91.8188,190.7691,12.0896,113.0892,36.6159,55.1592,34.9831
109.6598,81.6090,6.9533,94.4109,63.3554,64.1258,33.2900,28.0650,-53.0219,-0.8043,117.2808,2.7982,51.9584,171.8862,-0.2500,155.8527,23.9008,57.4622,24.3468
113.9933,111.5047,-5.7618,126.7411,44.7213,77.9975,0.1154,58.0396,-81.7059,-22.8296,91.8160,26.7136,25.5510,172.4535,-26.4110,144.1334,65.3302,78.6717,21.9983
141.5846,155.7475,45.3380,151.0682,102.8014,104.4298,27.1146,89.7884,-62.9682,-35.2711,104.2923,92.3142,68.3894,222.8698,1.9761,105.3738,98.4962,103.1256,86.3884
119.9965,138.2514,67.7374,121.1632,165.6097,87.9051,109.3180,122.8694,4.6117,16.0560,89.9029,111.4371,116.2846,258.6031,37.5657,121.5284,78.3668,88.2148,134.2434
60.1743,68.6582,16.2711,58.8437,139.5844,23.0892,122.8727,112.6387,18.5714,33.5835,50.7075,74.0187,105.7806,221.6013,-0.3893,177.1054,37.6092,61.4340,96.6186
56.9694,35.0318,-14.3733,37.2443,93.8146,-9.5666,60.6661,65.8703,-27.6750,-5.5880,70.9657,46.3015,89.1512,193.2173,-61.9071,187.6412,21.7207,64.5290,43.9838
97.9273,64.1442,31.2283,70.0358,126.7370,32.5030,57.5458,65.6403,-23.6078,12.5530,104.8232,51.6210,123.7679,249.1311,-36.4882,164.9883,34.7901,74.3773,49.7268
119.4293,113.7169,84.1418,115.9404,188.2853,99.4430,120.9329,127.2123,26.8367,103.2043,83.8461,55.2556,159.4581,312.2292,36.1768,156.7522,67.2787,73.9218,77.3543
146.5270,153.0265,81.0842,156.6460,194.0628,136.8807,114.8051,150.6543,-0.7297,124.2568,89.7955,61.9954,136.7437,310.3121,15.4703,123.0040,111.6538,98.7003,56.1297
198.7572,178.9819,38.7200,194.4234,151.5072,156.9326,19.1114,101.9426,-101.5577,22.8674,173.3586,106.9910,93.4638,296.1273,-94.0478,56.4014,145.8683,162.2207,-14.8145
235.5800,200.2369,12.0585,221.5208,116.2095,182.3600,-61.3188,55.6768,-162.3900,-77.2614,242.3825,151.5603,80.8644,304.1248,-161.7904,30.7326,161.1486,214.5444,-68.0098
241.6484,211.9284,29.5576,219.8804,131.5350,166.7250,-92.3275,9.6468,-187.0231,-108.4394,227.3603,122.7589,76.1860,280.7385,-156.3174,32.1807,177.2764,197.1814,-67.6276
216.3972,191.0279,54.6640,177.0706,179.6870,78.2256,-104.9345,-82.6963,-226.0363,-138.9611,150.5674,42.6994,54.3369,207.4161,-141.7233,-3.6565,190.0992,119.9312,-58.3772
170.8552,158.9546,53.6974,127.7426,197.0356,14.3997,-96.0584,-124.6262,-221.6505,-164.6114,82.0345,-5.9224,41.4653,146.7419,-133.4059,-21.0054,172.3051,65.0556,-60.5405
166.9053,164.8173,58.2140,129.2780,180.7773,57.1453,-66.0160,-25.2394,-155.4688,-107.8310,98.6794,-4.1426,45.1263,147.4322,-119.6890,33.0954,132.8324,77.7437,-24.4130
198.2779,167.7060,65.2486,153.9171,160.9578,106.0258,-50.2108,85.7819,-132.1399,-33.4303,161.7210,6.8546,28.6984,179.2777,-123.3377,73.4365,93.6766,97.5801,33.0022
165.3743,98.7883,14.2031,126.7399,102.0490,60.9700,-66.7734,74.5910,-177.4821,-57.3394,143.6730,-2.9848,-16.4441,184.9495,-162.5912,51.2284,50.4999,70.1922,18.5419
97.6671,27.9338,-53.2492,80.5117,14.2529,8.6118,-95.8825,26.8641,-199.0677,-113.3628,75.4546,-30.6693,-43.3547,171.7710,-219.1620,32.7520,18.6635,43.1845,-50.6803
123.5165,64.0366,-28.8060,99.7565,14.1527,43.1496,-89.0652,49.7521,-158.3436,-85.9123,99.8630,-36.6771,-3.9417,192.9519,-229.8428,38.2889,33.5404,71.8801,-56.5077
202.3824,168.7208,59.4530,159.1496,120.1825,107.8723,-4.8834,96.5202,-76.6285,-22.2482,181.3977,24.4071,94.1190,239.9737,-130.1971,35.6493,84.6531,128.3255,12.3953
220.3218,244.0343,116.0666,188.9803,212.7735,130.7999,105.1408,95.4663,21.1674,-13.3935,200.2964,129.3675,184.3472,252.8102,14.3049,40.6461,135.6871,162.4840,52.7767
223.6836,270.4578,148.3268,197.9938,243.3550,125.1796,122.7196,46.6453,61.4634,-40.7603,206.4227,195.8693,211.3881,229.9216,52.2152,56.0754,175.9201,170.5166,15.9842
272.6106,265.5451,182.9306,211.9279,253.9485,120.6007,37.5466,-23.0286,-0.7674,-51.2980,268.4081,191.7105,196.8889,215.6503,-4.1858,33.6739,201.6831,172.5802,-49.8045
298.2627,253.1947,192.5443,218.1709,256.4930,122.6775,-27.9703,-82.3901,-71.6417,-54.6948,298.7902,170.2526,193.3556,210.7725,-2.1281,-30.0459,214.0969,174.6029,-79.5953
269.0461,267.8692,182.1514,217.0837,242.2001,127.9035,-8.1922,-109.9085,-58.2147,-88.2534,247.3338,182.0228,200.7234,196.2522,71.9345,-74.8596,227.2074,169.4651,-51.9610
237.3905,283.7570,167.3554,215.5749,201.1647,132.2025,34.6242,-106.8142,-4.6345,-119.2047,202.5826,204.0140,183.6418,187.2154,109.5986,-47.7037,223.7402,156.3550,3.8910
205.1456,235.4138,124.9852,191.5512,128.5328,135.0289,46.0510,-65.3150,27.3088,-52.0046,201.8994,185.9867,138.7701,191.4203,97.6336,49.9676,175.2947,140.2437,58.4800
156.3338,151.5730,80.8225,141.7780,83.5117,127.0314,54.1235,24.2072,52.8134,102.6314,188.9911,139.7422,100.9698,183.3110,82.7762,144.4668,117.0073,121.7030,115.5417
132.5471,127.3793,87.8757,110.6553,114.3359,104.5437,93.1312,130.8884,90.3178,198.3293,160.8855,120.3560,97.7550,158.8203,63.2769,160.9537,97.6052,111.2843,167.0561
148.0605,171.3131,106.5148,126.2560,147.2906,102.4452,148.6094,210.9377,127.4224,188.3008,156.2492,129.9313,117.1133,153.7357,46.1129,131.3078,100.7155,126.0903,186.0914
151.0670,206.4024,81.9846,154.3843,117.1803,138.9229,195.5471,248.4916,156.0434,175.1101,149.9227,130.7493,130.8863,189.7835,55.8652,138.5333,98.1530,149.2103,183.2433
111.0777,187.7347,43.1210,146.7002,69.6324,167.3316,224.1972,250.0716,174.0696,188.5256,102.3904,119.5030,138.3334,242.2253,74.6724,192.1074,87.3199,146.8519,181.8184
54.0836,135.7908,9.9231,107.5113,30.3499,152.9761,218.1794,237.9962,179.0840,182.8829,43.5794,87.8541,150.1669,265.0544,84.0866,247.9064,53.3773,124.6698,164.3670
19.9974,90.7648,-29.2482,74.8598,-10.8247,105.6401,178.3238,219.0981,173.5333,184.3448,19.0808,10.5682,156.2321,232.4893,94.0360,267.8418,5.9099,103.4374,124.0474
32.3461,84.7631,-33.5637,64.8296,-0.8413,39.7912,159.1953,166.9023,162.6746,203.5149,35.5276,-42.7993,154.8092,166.7245,95.0918,230.4643,10.1409,88.4070,95.7640
93.1399,135.6694,27.2398,88.1653,81.3775,12.3135,185.1534,96.4800,150.1206,176.4965,95.8709,31.3997,161.0216,130.8276,74.0280,170.2396,88.0153,102.9245,88.3639
173.8510,218.0203,96.4770,154.0041,154.6666,79.4782,180.6596,71.3382,126.5742,110.5267,179.9211,160.2389,164.6431,164.8528,50.9684,150.0778,167.6010,151.7337,79.4774
208.3708,251.3290,121.7081,201.2585,177.3828,150.6196,107.7322,81.4345,85.2337,70.5591,201.8366,181.4678,152.7398,219.3770,51.5568,151.6944,179.4883,165.2269,74.9242
153.0069,190.7329,107.9950,152.9335,180.4377,105.6893,63.0475,64.8002,60.1836,60.8015,123.3984,102.6228,142.7472,204.1447,80.7494,119.3416,128.4061,105.1475,87.2383
66.4238,106.4029,64.8720,62.5232,160.4313,19.9041,105.9634,46.2956,84.5980,82.9383,42.2172,34.5662,125.8366,119.9261,106.3714,83.9156,64.6234,42.7740,100.6901
30.4481,74.5407,4.5717,32.5909,97.1901,11.8063,151.6042,74.8480,122.2219,141.9907,27.2331,-11.9465,66.6557,61.1134,71.0586,92.3172,24.3186,25.3427,108.6240
16.0419,58.1459,-46.0504,34.8610,9.0475,30.2075,139.7854,108.8523,126.0091,166.4354,6.0474,-69.7621,-7.4271,66.6143,-13.4451,107.5370,-5.0635,7.3327,122.5798
-30.8764,10.6367,-69.8594,0.5394,-63.9560,12.0731,125.9729,119.2660,112.0329,133.4610,-62.7353,-112.7409,-32.3768,82.4137,-52.3817,103.1232,-43.9545,-27.8472,141.4023
-66.3006,-26.7437,-58.0838,-36.5049,-70.2046,3.7530,150.7847,144.8145,106.3413,133.3799,-103.3057,-116.4936,-7.1443,85.2673,-13.2602,119.1695,-70.4248,-42.9642,159.8693
-59.6914,-33.8179,-32.9444,-41.8836,-11.5809,8.6185,177.3181,162.9011,100.4996,162.9139,-85.8066,-95.9672,21.9831,101.5686,34.4834,152.2261,-73.8816,-41.3757,171.5866
-66.2636,-55.7507,-54.9515,-52.2500,10.5303,-24.0423,167.1295,112.8372,86.8500,129.5486,-69.2987,-77.0050,24.1181,112.0739,43.6691,142.3163,-87.4467,-48.4294,158.8781
-90.6403,-83.7194,-106.6620,-71.5421,-39.8582,-61.3525,133.7759,43.9972,69.2541,76.7496,-75.6975,-80.8680,5.3526,91.3361,23.4114,100.4478,-99.3406,-51.1976,135.7815
-77.2018,-66.3071,-82.6506,-68.6061,-48.1703,-48.0640,119.9027,36.2422,50.6703,84.0267,-85.4967,-88.7130,5.0108,88.3522,-17.0524,102.8077,-58.8222,-41.6048,142.2976
-47.1999,-37.2285,1.6668,-62.7937,19.7296,-23.9631,115.8191,45.9145,25.1323,69.9451,-98.0017,-72.8667,22.9127,115.5625,-66.1336,140.7495,-8.7885,-47.4187,146.1527
-56.9428,-67.3865,7.7737,-84.6550,36.8301,-49.2650,55.8317,2.0157,-26.1826,-26.7119,-104.1940,-84.1961,-3.7049,81.0156,-98.4669,119.7950,-42.4499,-80.5970,79.6612
-84.5203,-129.2081,-58.9632,-116.6222,-27.9067,-98.7249,-28.4761,-52.4887,-79.8241,-90.9518,-89.5064,-152.1356,-56.0688,-18.7366,-90.5956,42.2816,-125.4320,-108.9890,-1.9691
-87.2263,-140.4962,-61.8148,-126.3831,-54.1138,-100.2419,-8.8310,-45.7033,-62.5942,-41.5225,-73.3051,-164.3042,-32.8630,-36.4264,-39.2827,34.6826,-137.5862,-98.4693,16.4388
-71.3181,-92.5619,0.1754,-100.5554,-5.9279,-45.6850,96.4039,2.2305,15.6540,39.2801,-72.2446,-60.6997,32.0597,56.6133,10.8532,128.4314,-65.7448,-62.8844,105.4413
-56.9802,-41.9980,24.1983,-59.6410,35.7891,-6.5643,143.1345,34.6441,61.9145,71.7188,-76.1725,25.1217,23.7394,100.2970,17.9796,191.8934,-3.7386,-45.7356,152.0186
-57.7935,-20.4519,12.1945,-46.9458,42.4433,-15.1007,142.2708,46.2831,76.1704,83.2335,-88.6792,9.5632,-6.7576,48.1975,29.5482,157.9420,3.5619,-52.7360,153.4395
-75.5772,-18.8039,14.0779,-62.3556,44.5394,-26.0472,183.7432,46.0398,108.6184,109.2254,-116.6734,-21.2578,29.7659,27.1285,84.4946,115.3166,-2.5709,-57.1529,158.2007
-87.3939,-31.6197,6.6244,-69.8809,37.4344,-38.3634,192.5345,6.6035,103.8417,105.1005,-134.7038,-31.8702,50.1537,45.5044,99.2522,104.9879,2.5635,-63.5780,134.3513
-84.8700,-63.4419,-28.2046,-83.0083,0.8695,-93.4498,96.3330,-82.5238,25.3039,7.7624,-119.8262,-69.8711,-2.7007,-11.7301,26.9871,45.8731,-17.4093,-85.3153,54.1934
-92.7537,-102.4211,-59.3570,-123.5356,-49.4110,-148.4849,2.9436,-175.8400,-42.0639,-150.8525,-92.5771,-100.7275,-35.0265,-107.3623,-31.7510,-80.4464,-75.5395,-99.3130,-27.7873
-114.0764,-125.5424,-80.6570,-142.2789,-85.0756,-146.6788,-19.8385,-231.2832,-63.1763,-259.6259,-95.3400,-82.7627,-28.0675,-109.6819,-20.9964,-168.9829,-113.4075,-101.1177,-67.6414
-125.5864,-123.0430,-101.2237,-110.1850,-94.5015,-132.8144,-28.3698,-240.7636,-71.8982,-255.8131,-137.4709,-76.5864,-53.6060,-50.2344,-4.2445,-157.6540,-96.1715,-119.7598,-71.0980
-126.0436,-104.3480,-108.6599,-84.3793,-81.5564,-136.6984,-15.1474,-201.0105,-41.0387,-175.6532,-169.6981,-106.3880,-81.5006,-36.7245,-5.4685,-109.0912,-73.2859,-137.3860,-40.9167
-120.2303,-87.7798,-107.6114,-91.5758,-71.0682,-112.7302,42.8682,-132.9735,14.9549,-98.9987,-146.0852,-106.8568,-61.8365,-44.1160,-9.9488,-93.9671,-77.4258,-109.6919,7.7070
-92.1178,-73.2025,-103.3516,-83.2014,-84.3072,-67.7468,69.2256,-83.1828,3.1800,-81.4484,-95.2006,-64.2337,-38.3035,-3.9989,-45.8891,-93.4552,-64.7371,-55.3284,40.1921
-44.3303,-31.8927,-74.4618,-39.1033,-79.7470,-36.2131,49.0596,-41.4863,-41.4855,-102.4238,-66.6902,-17.1541,-23.3879,64.8395,-93.8947,-63.2492,-15.1408,-12.2449,63.2892
-16.7665,39.4648,-61.7532,14.4221,0.5917,23.5079,61.4723,43.8089,-20.1458,-97.6727,-58.8045,37.8444,4.4640,132.6996,-80.5908,-24.4125,22.5370,33.4971,98.7999
-37.3816,87.5109,-153.6959,62.8449,101.0906,117.4667,83.7924,138.3579,5.3794,-71.1283,-63.3673,97.7325,-9.7497,196.5051,-26.4115,-25.3533,20.6446,87.8514,114.1023
-87.8246,73.9100,-297.8128,84.5505,108.9018,148.0261,54.8135,149.9181,-27.6442,-78.8146,-94.0185,110.5398,-81.8116,215.8931,-6.1637,-63.0200,-1.0963,104.7074,86.3697
-133.2700,22.4914,-334.0364,42.8101,47.0605,77.4167,42.2710,80.9471,-20.5623,-103.8875,-136.3021,61.3175,-105.7665,161.2087,-1.1923,-99.9777,-35.8541,59.1671,66.2088
-162.9072,-31.0632,-258.9310,-41.0826,25.2162,-12.6133,94.7370,13.2264,55.0792,-93.2820,-161.2948,5.0002,-45.6295,87.4892,39.7632,-114.7144,-79.5602,-5.7008,83.3373
-171.9757,-60.8000,-208.4088,-83.3279,41.7339,-49.1782,123.5127,-20.4742,81.3751,-69.8643,-161.9294,-8.6096,-4.5302,54.8141,79.8460,-107.6179,-93.2589,-32.7756,87.6810
-132.5160,-38.6419,-198.2715,-47.6047,41.0172,-26.7907,84.8391,-41.4360,33.1628,-69.2274,-121.5823,15.1558,-31.4899,49.7087,51.8734,-94.4110,-50.6580,-12.9710,50.1717
-43.9066,22.8192,-145.1179,9.9989,54.6715,18.9473,44.4710,-61.6867,-15.0864,-68.0473,-38.2789,37.5598,-56.8570,46.5999,-29.8465,-84.1622,18.9571,20.7210,12.8467
27.0558,66.0560,-72.5898,37.5695,99.0404,43.7769,18.9560,-83.7338,-58.5416,-67.9935,19.9434,40.4242,-38.8806,55.9067,-82.7315,-66.0250,73.6952,41.1451,-7.1852
31.9310,67.1633,-56.9451,50.8650,103.0067,43.9548,-30.5460,-112.5984,-114.0243,-107.2519,1.7427,42.3091,-23.0887,72.8296,-66.6709,-55.9142,98.7506,42.9724,-52.3184
10.5093,53.2387,-65.7553,64.3627,63.9394,44.7362,-77.3204,-133.2601,-138.4512,-145.2215,-37.5734,46.2790,-34.6974,63.7244,-27.0414,-83.4328,97.7876,29.2363,-115.2571
16.5746,46.1983,-30.7435,54.7052,73.7272,44.4722,-67.1372,-109.2636,-108.2516,-89.0103,-26.7295,23.4375,-25.3337,30.1035,-4.2751,-95.0158,82.7924,15.9200,-112.6444
44.7760,41.7004,24.8631,28.8942,135.9876,39.2851,-23.8176,-32.9563,-59.5719,53.6428,26.2663,-20.8845,17.1225,13.0570,13.7846,-20.0474,62.7627,18.2366,-34.4004
65.5054,26.9259,49.0505,26.8996,159.6258,45.2827,-4.6145,41.7608,-24.4683,179.3811,77.9170,-33.2954,28.5911,21.2509,32.4152,69.8791,40.5956,22.4304,13.9942
73.1446,14.5174,56.1807,49.0313,137.5279,54.0093,3.0789,66.2177,8.2067,237.1122,107.1931,10.4867,18.8810,28.8984,61.4031,70.2090,36.9388,24.4961,-2.8556
79.6836,40.7743,78.5044,68.4498,143.7813,53.5554,44.9486,71.0544,57.9133,254.4723,115.3171,68.1308,70.9641,37.3708,133.3454,37.8586,65.1239,49.9910,3.3551
78.2530,75.9563,86.9325,71.0624,160.1288,59.0193,85.6864,86.8504,86.6752,229.7501,104.7149,76.9100,127.2648,49.6562,188.6551,62.0247,73.1046,73.0977,35.6218
41.8681,29.9232,38.9887,36.9334,93.2179,48.9971,45.5483,56.2149,32.7585,128.1760,67.8077,21.4410,60.7919,25.9679,107.9679,85.2112,14.9628,33.0486,-15.6155
-11.6041,-68.8167,-21.1047,-25.6107,-16.2603,-8.5209,-48.5011,-41.6595,-63.2113,0.7978,17.4134,-41.2663,-44.8907,-30.0879,-47.1458,44.6266,-41.5568,-32.5334,-122.9004
-19.0732,-84.6004,-11.9754,-48.9296,-20.8496,-53.2637,-79.4257,-94.4219,-88.5000,-31.8979,-3.8684,-49.8900,-33.0779,-36.2352,-84.7709,13.2103,-20.7421,-40.6356,-124.6245
15.3526,-19.3506,42.2432,-11.9751,57.3230,-24.6062,-19.4581,-38.7746,-31.3365,48.3908,8.3938,-18.0591,21.5800,10.7558,-2.3835,49.8785,26.7751,-17.3159,-18.9463
28.5669,10.3982,53.4479,19.8186,59.0172,11.2264,35.9313,19.0077,14.4869,124.6725,17.9177,10.8359,-11.9621,1.7912,34.2944,76.9351,43.0726,-17.1715,31.8245
33.0072,10.0319,33.1524,23.9416,7.2090,-9.6930,18.3282,-4.1315,-7.4980,105.3387,31.1602,35.3975,-60.8811,-71.4602,-15.3456,25.0604,68.2888,-5.7002,-12.1545
69.9992,44.4020,50.0497,37.3901,35.1578,-31.9081,-39.4397,-46.4109,-73.9528,15.4243,60.8062,56.7543,-32.5915,-89.3485,-49.4337,-31.0397,111.6100,31.9438,-44.9285
84.7957,68.9857,79.7185,49.4518,71.9352,-12.4720,-81.4876,-57.3768,-129.9889,-76.0713,50.8697,53.4417,12.4960,-42.2551,-13.5622,-6.8635,114.9553,41.0574,-39.3602
36.6814,47.6838,66.1964,37.3429,3.0532,3.1262,-99.7648,-73.6431,-140.3230,-136.1292,-17.8418,37.3318,20.1269,-41.4211,55.2491,22.9758,89.9272,22.0113,-64.0620
3.1219,41.8574,42.0378,34.7896,-54.0467,-5.1708,-111.1394,-104.7988,-125.2670,-166.9868,-59.6567,36.4470,21.9152,-88.9410,100.6133,-44.1225,89.7141,20.3671,-121.3312
26.9914,67.9110,48.8941,53.3576,-3.2579,-5.8563,-115.0358,-119.7392,-122.1568,-181.8739,-37.7558,34.2966,32.5071,-91.9399,102.4561,-140.7323,94.5442,25.3192,-142.8547
44.9122,78.0729,56.7703,54.1040,26.4729,-0.5084,-102.9088,-124.5720,-127.1569,-199.4758,-20.0740,18.8705,42.8410,-57.1651,87.3816,-164.9879,81.6170,21.9567,-108.7884
36.3595,79.5869,46.6588,38.2726,-17.4372,-4.4263,-77.3960,-128.1120,-119.9644,-224.3256,-25.8060,27.3231,54.7322,-49.1368,75.9638,-163.7496,82.4126,36.1787,-57.4706
47.5258,103.1104,50.1097,44.9158,-13.2808,8.5045,-43.7440,-104.3032,-90.9468,-223.8968,-6.4705,71.0445,46.5813,-48.8277,49.4843,-182.5973,97.0499,55.4883,-14.1134
69.3797,120.4863,69.5938,67.1087,32.1121,43.1890,-17.2666,-64.2269,-42.4332,-181.2619,21.8131,100.4275,-3.3482,-24.7483,-3.1569,-163.0300,93.4851,37.6994,14.4877
49.6017,84.9185,59.8865,54.8136,-12.0724,44.5530,-21.6521,-55.5778,-16.7353,-144.3004,3.2530,77.7419,-62.7347,-23.0979,-60.3303,-124.5843,67.0782,-2.7287,15.8341
-2.4210,5.1085,10.1375,-3.0347,-119.3712,4.6905,-36.5547,-58.3933,-43.4053,-128.6570,-32.9490,22.0538,-86.9660,-67.9703,-93.4655,-155.1920,19.1524,-20.2070,-0.3426
-11.8906,-35.2988,-13.7090,-34.8782,-143.7692,3.8288,-11.8189,-10.3359,-56.4861,-63.4805,-8.6390,-14.1811,-73.4619,-96.8510,-80.5060,-198.5281,-24.5397,-4.5898,3.4144
55.3684,25.0928,43.8608,19.8614,-59.4112,60.8945,37.8952,69.4546,-2.9586,55.5990,69.6489,-0.3689,-43.7211,-72.5542,-24.7968,-150.1870,-6.8262,20.8173,33.7995
113.9583,94.0689,115.4722,84.4791,16.3273,76.6111,60.5847,113.4231,50.9328,131.9519,106.0544,18.7672,-20.0603,-50.7578,38.4785,-61.5900,37.3385,21.4875,59.2062
64.0840,45.7034,87.4771,47.1737,-12.3992,6.6422,70.0946,120.2672,56.4143,153.0722,48.9667,-25.8882,-21.9100,-87.3462,82.3287,-20.5234,5.3120,-14.7172,69.0743
-38.5508,-51.6490,-10.5906,-43.0833,-100.2199,-63.1017,97.5216,121.3478,62.3775,174.3892,-34.1152,-107.3421,-44.6036,-154.4450,96.3645,-15.5123,-72.9076,-50.7193,76.9925
-68.4585,-59.3526,-51.4474,-69.0649,-140.2774,-67.5001,115.3291,109.9295,89.1395,160.3490,-54.9116,-129.3503,-50.9952,-179.8221,72.6203,-22.0838,-89.0911,-46.7271,78.6757
-34.4925,-9.2146,-26.0328,-36.6242,-132.3696,-29.9417,104.2234,87.7351,102.2577,91.2381,-22.1603,-70.8607,-23.3456,-135.9451,37.2562,-34.3838,-54.0349,-10.3556,62.0626
-13.5408,15.1763,-19.6389,0.3178,-137.0386,17.4397,88.7728,81.2789,96.0017,62.1353,4.1509,0.4628,-4.0472,-70.7335,30.1614,-29.4492,-21.2848,27.7170,36.3975
1.1923,33.2706,-34.3572,36.3068,-129.0829,45.3222,86.9436,78.8235,87.9925,101.7508,17.6590,30.0816,-24.3448,-44.8930,35.4098,-5.6904,15.8795,43.6616,23.7509
27.2495,48.7247,-22.9800,46.3405,-81.1477,27.9256,109.0360,61.6761,98.7066,143.2999,47.5646,17.4980,-34.4693,-53.3459,29.4112,28.2833,30.9924,32.7578,33.8888
35.9049,26.6104,2.5010,21.2748,-56.5258,6.7414,138.3036,63.0691,128.9236,184.5432,83.7368,-5.8767,3.4124,-48.7646,43.5859,77.5819,-2.3367,21.8478,41.4568
35.3201,7.1368,20.6965,25.7787,-74.5491,33.9047,108.2597,90.4035,118.7476,225.4542,87.2321,-18.1952,36.5109,-25.2179,88.2216,105.5684,-15.3918,30.2147,10.2704
42.0197,20.7921,35.5929,60.5521,-75.2065,65.2857,25.9026,88.2458,56.2316,220.5100,52.6561,-37.0816,39.4841,-8.6740,126.5414,90.5442,18.3626,34.5802,-32.6967
22.3030,11.0437,33.6297,44.8110,-54.1217,46.1401,3.9592,53.9206,48.6807,223.0840,14.6148,-68.4265,66.8391,9.2086,151.4002,104.7947,27.2056,22.9407,-22.9498
-17.0690,-30.5553,16.1784,-0.5239,-46.7058,14.6939,45.0712,48.5113,100.6291,275.7372,-4.7061,-68.7440,106.9567,45.1021,158.8806,158.9172,9.5963,17.0091,17.6718
-20.3985,-51.0434,14.5534,2.3387,-51.6670,17.2142,21.0113,68.7237,59.6975,247.6653,-13.3717,-35.4362,83.7375,75.0705,115.9306,138.4507,9.5413,15.1421,8.8802
1.4196,-57.0148,17.5180,21.4553,-64.7544,41.0252,-65.8070,62.2780,-64.0322,109.1496,-8.4326,-27.5026,29.4224,84.9295,53.4871,41.1699,-9.0283,7.3118,-35.9599
6.7095,-62.3133,-2.8253,12.7935,-59.7872,62.5565,-86.6079,42.2232,-90.1341,53.0350,22.9850,-34.9296,35.6473,102.6175,47.7575,10.4206,-45.0165,18.8490,-34.9146
7.2736,-38.4754,-19.9755,15.4065,4.5975,60.2659,-35.0478,49.0470,-19.1909,116.8558,49.9027,1.7141,72.5424,132.2565,78.8196,75.1878,-25.5580,46.2833,16.9847
3.3057,-16.8074,-23.1636,29.5563,59.1969,26.6676,-5.8097,67.3370,6.6668,136.3424,25.5450,40.6211,52.8788,143.4227,69.2803,127.3854,12.9183,37.2432,62.1041
-28.1275,-44.8832,-48.7186,13.7083,14.2392,5.4981,-10.7080,74.3845,-7.3208,99.7915,-27.9745,17.0103,-7.0220,139.0606,19.0773,111.0054,-12.3948,-3.5927,81.2052
-55.2013,-70.4032,-76.7874,-8.1369,-38.5927,19.8075,-5.9259,80.0934,6.9662,90.1106,-53.1025,-14.7171,-35.0200,136.4068,-20.4821,47.7333,-50.9884,-19.8947,84.1552
-52.5577,-63.5618,-61.1698,-17.0010,-4.2688,8.9749,2.3295,74.4807,9.2327,60.2048,-53.5384,-14.2196,-30.8254,104.7282,-26.8176,-14.2620,-56.2093,-26.7564,65.0598
-65.1076,-98.9866,-44.0543,-54.0209,8.7218,-55.7683,-12.9518,33.1514,-28.2257,-3.0882,-63.0049,-47.7825,-50.8654,20.5217,-14.2515,-19.5882,-94.3232,-75.2145,22.0265
-96.3521,-173.5073,-68.1775,-106.0520,-62.6136,-103.4425,-32.5034,-16.5615,-45.4177,-7.5853,-58.9146,-108.3824,-98.5275,-59.9200,-20.3638,21.7725,-161.3926,-125.5754,-21.0272
-82.3970,-179.0582,-79.4049,-108.5744,-91.2183,-90.4549,-18.5205,-27.7011,-21.1429,27.3854,-8.8325,-102.7953,-107.6269,-72.6826,-56.5334,35.0674,-167.2727,-109.7070,-41.6681
-34.5303,-120.7332,-52.9419,-75.9726,-47.4013,-68.5737,-2.7383,-27.4437,-16.0722,3.2435,35.2715,-68.4672,-67.4498,-49.7562,-84.4350,-12.8788,-124.6103,-65.5087,-56.0543
-29.0065,-105.5137,-47.3285,-73.4895,-53.4123,-87.7178,-56.5052,-86.1200,-73.6677,-72.3181,3.9162,-105.2507,-59.4122,-70.0337,-102.2481,-102.5906,-98.4674,-68.0021,-94.0937
-53.1318,-129.3460,-61.7827,-100.3403,-103.8349,-127.6412,-138.5919,-190.3591,-147.8144,-142.2740,-52.1410,-143.2094,-97.5984,-129.5570,-153.1055,-194.5007,-65.8838,-90.4969,-132.8490
-37.1343,-108.9226,-36.1944,-106.4051,-94.7074,-137.7596,-136.9886,-247.2560,-160.8445,-187.6080,-36.0170,-78.1120,-95.4334,-147.5231,-203.1348,-219.7695,-6.0838,-68.2496,-122.4310
-5.0140,-60.1137,6.4083,-82.3149,-63.5497,-104.2622,-79.9881,-227.7876,-124.4014,-204.8989,4.5624,2.3371,-49.8910,-105.4194,-175.1726,-166.4508,25.1695,-31.8329,-78.5346
-29.7837,-56.8763,0.4478,-69.8219,-110.8895,-64.2430,-71.0505,-194.1484,-105.7823,-215.3480,-37.5642,-4.3799,-43.3197,-73.1933,-100.5576,-126.2294,1.3840,-39.9959,-52.6689
-78.7943,-83.9849,-30.9826,-82.1308,-199.8198,-42.8979,-77.3401,-175.2628,-89.2345,-222.5704,-93.3131,-12.5771,-62.8334,-77.9857,-64.4609,-128.7213,-27.7613,-51.4649,-42.1601
-57.0208,-64.3328,-24.1216,-66.4404,-223.9429,-18.3192,-39.0651,-145.7857,-35.3688,-179.7911,-31.4951,58.5437,-42.3383,-77.5891,-62.2514,-98.9652,-10.1137,-4.0523,-31.7430
25.9638,12.6087,17.9888,-0.6195,-175.2282,17.0536,-22.9365,-121.6559,-7.1175,-116.9943,73.5277,112.6140,-7.5294,-71.0970,-50.4526,-50.2475,51.3499,57.9877,-45.7534
76.3663,75.1818,51.0646,47.4260,-132.1938,34.5506,-63.5578,-133.4630,-53.2966,-125.0824,81.1238,67.6797,-5.6140,-88.6755,-41.6736,-65.1063,99.6954,65.5693,-76.9351
70.8890,73.4959,63.1484,35.1246,-125.2501,32.6935,-79.8144,-136.1471,-95.5403,-150.1257,39.4378,8.9922,-17.2996,-100.9063,-56.4398,-95.7125,95.1574,40.3724,-70.5380
53.6482,41.7753,76.0085,9.0029,-102.6143,36.1156,-38.5472,-78.4023,-63.6873,-82.4423,33.0594,24.7679,-18.2512,-72.9848,-73.4322,-48.6646,76.1630,28.1502,-19.6234
29.8718,28.0782,95.8921,-0.8967,-51.0250,41.3070,7.2658,-7.1410,-0.1528,1.0769,5.8499,67.2216,-7.1269,-33.7288,-70.4475,20.9493,81.7803,19.3369,19.6447
-9.3374,15.9202,97.6132,-13.7332,-40.0778,35.0708,15.9031,5.1937,20.2050,-17.0501,-62.5503,65.1500,15.6715,-8.0278,-48.1359,18.0666,75.7078,0.3130,6.8139
-24.7758,-17.2574,77.9945,-21.2126,-80.8306,28.2426,-17.4251,-24.6979,-17.5201,-60.4195,-72.4934,36.4844,38.0122,10.0143,-5.3655,-24.8006,37.5045,-6.7909,-37.6786
6.8217,-31.4987,74.7454,-4.5616,-85.9570,30.3516,-52.1684,-31.3554,-52.1003,-15.4544,-3.9332,24.5663,56.6677,10.9348,52.4527,-37.8331,19.4190,12.4352,-54.3794
41.0617,-4.4060,87.7084,14.7726,-37.5363,32.9862,-45.7590,-5.2573,-32.6797,67.1838,45.0308,20.4630,78.7541,2.7115,84.0918,-33.8255,38.6304,37.5257,-21.2754
41.0495,17.3780,74.0385,19.9152,-15.9948,31.5080,-31.6914,15.2188,-3.5354,89.0374,33.1222,3.3787,81.6995,18.6941,62.4138,-41.9893,47.5328,43.2223,15.4259
35.4472,27.0935,55.6478,27.7920,-28.6905,38.5635,-24.0015,29.8415,3.9681,66.0698,16.3026,-2.0177,62.5350,40.4562,38.1488,-37.3869,40.0797,37.8837,35.7586
61.7340,70.0457,84.6222,47.9605,-7.0139,63.0450,38.1833,67.6980,45.1462,68.2289,45.1173,33.4166,63.8592,36.0126,50.6673,-10.9104,48.2345,48.2591,74.3741
95.3432,103.7008,111.6858,60.7916,32.2422,77.7824,104.7989,94.9671,91.1626,76.7620,96.8010,72.5978,70.5062,39.6056,35.4181,-16.0957,49.2794,60.8302,104.1923
79.5620,49.2500,72.0747,36.9690,13.6262,53.3198,57.9297,53.0476,40.0588,19.8569,99.3121,52.5153,39.5409,64.4875,-32.5176,-67.1883,4.5680,38.2610,64.2216
19.8747,-29.7340,23.3828,-15.9806,-44.3665,25.7163,-7.8259,-7.1020,-29.2112,-53.5835,41.5781,-7.9400,25.9233,58.7556,-36.7352,-84.8721,-52.8728,2.0844,10.2250
-16.0388,-28.6200,21.2817,-39.0454,-63.9263,38.5174,60.3725,10.6725,28.7654,-15.7205,6.9282,-26.6893,65.9144,26.2825,62.0639,-30.8375,-68.5603,1.8814,27.3704
-3.8025,9.9310,17.0505,-10.5811,-39.5590,49.1764,158.2422,71.5301,125.7620,96.2439,34.9519,7.7426,72.6210,16.7348,113.9072,25.0317,-49.2982,20.9090,65.5689
20.6872,14.7514,-0.3035,7.5863,-14.1356,19.0442,148.6005,81.2434,119.4218,118.6218,71.4940,21.8280,28.3926,10.2746,41.3416,44.9146,-35.2335,21.4367,54.7822
40.7189,17.3663,17.0396,-14.3933,4.1524,1.7667,109.9833,59.7368,70.3877,43.3525,90.3618,-17.2532,25.6204,-12.0838,-44.7977,67.5497,-45.8995,18.1652,33.7697
53.1540,26.2760,31.1186,-27.1979,13.6458,23.6764,100.1276,67.1067,54.2958,-4.5680,102.4629,-61.7552,48.9059,2.8619,-72.7704,81.2348,-76.4404,21.0414,35.4455
34.9285,-3.0339,-7.7985,-17.3828,-12.3594,30.9728,56.8696,79.6891,31.1225,-10.3560,81.8647,-67.9280,22.7947,52.1709,-86.6798,40.7913,-101.8548,11.0524,25.7871
-1.2080,-36.4082,-36.1899,-20.2718,-69.5100,17.4054,3.8285,69.9344,0.1400,-47.9593,30.9304,-42.1238,-8.0253,53.7400,-104.8184,-16.8744,-96.8589,3.4807,-4.5282
-6.1705,-16.5613,-17.2501,-23.7411,-103.4456,25.7235,1.0616,62.1626,-7.0255,-111.6661,12.8868,-10.7271,-2.4204,3.7920,-111.4445,-43.8632,-71.5202,20.9179,-35.0230
20.7900,21.1304,-10.1366,-0.5664,-79.6047,43.0665,8.4901,56.9359,-13.6505,-134.1901,43.8811,13.9906,-12.4688,-26.8230,-110.4436,-65.7921,-49.6336,39.6692,-53.6719
43.7494,33.3050,-13.6523,20.9189,-28.0524,40.1524,6.4512,38.7373,-13.5802,-91.2343,82.3072,38.4484,-31.6859,-29.7001,-92.0933,-80.4920,-29.1222,42.5803,-40.2869
51.6638,27.0016,16.3309,12.7515,-3.0066,25.2072,17.5375,24.6424,12.6772,-24.4791,104.4259,56.8933,-21.1698,-48.8575,-62.8335,-45.3845,-9.4455,39.0112,-13.5016
50.2542,4.0814,43.5759,-4.9731,-6.9715,0.5564,-9.3011,10.5337,2.1080,4.0230,103.8999,42.6158,-28.2660,-96.7635,-73.7444,-14.1300,-1.7214,23.1190,-46.8815
60.0454,-12.1809,51.8096,-6.6039,14.0530,-24.1519,-92.9771,-32.9524,-70.8765,-20.9374,100.7864,6.2814,-59.5269,-151.0230,-112.4298,-69.8199,9.5457,4.6415,-132.2913
91.8944,10.4914,81.6888,4.7492,58.9175,-19.2464,-140.1630,-79.9101,-119.9089,-65.6724,126.6282,-2.2116,-48.6437,-178.2941,-100.5486,-139.3967,27.7952,10.4769,-164.0421
83.7896,17.1933,80.1717,2.4058,39.7434,-1.7356,-119.4809,-81.4172,-107.3596,-103.2758,126.0108,11.4069,-34.7877,-162.4469,-49.5042,-104.1621,7.5886,12.4244,-122.4301
2.3542,-33.1496,-1.6195,-23.8987,-43.6785,-5.5066,-93.9632,-50.6511,-80.8693,-112.0390,39.8707,-3.4466,-78.6821,-131.1586,-35.3400,-25.3233,-44.4626,-19.3752,-88.9148
-38.0796,-49.7197,-36.2216,-35.7637,-58.1070,-13.2595,-73.7453,-27.9391,-57.7643,-78.7894,-23.9403,-31.1443,-92.4654,-117.4493,-45.3326,-35.3593,-48.9963,-36.7967,-80.6205
23.8726,0.1597,46.7765,-13.8597,17.5671,-24.3585,-48.2564,-24.3166,-39.5731,-52.4929,22.7391,-28.2288,-31.9472,-116.3985,-28.1810,-105.2068,-12.8686,-23.8906,-57.5263
45.6752,-0.5770,91.5142,-12.3828,38.9312,-64.2456,-48.2729,-32.0461,-37.6654,-77.4132,41.0751,-27.7667,-13.4050,-114.1371,-5.3269,-121.8909,-28.0189,-46.9820,-34.2673
-44.3576,-69.6992,22.7067,-56.1905,-24.3440,-91.1902,-47.6764,-24.5892,-14.9133,-87.4497,-58.9241,-66.4334,-61.3327,-108.9751,-1.6296,-78.1528,-88.5812,-102.8929,-27.9174
-108.1521,-92.2975,-26.1053,-87.7745,-51.2401,-68.9517,12.4509,27.5504,57.3303,-15.4413,-127.3907,-100.7458,-67.1549,-95.0581,8.9823,-15.2251,-116.7334,-115.4156,8.9009
-87.4229,-74.6211,-9.0377,-89.6234,-29.8499,-57.9717,81.3064,98.4732,117.1104,84.9646,-84.3646,-101.0331,-28.8403,-72.4342,23.6106,84.0076,-118.1637,-89.4654,88.7736
-80.1418,-106.7889,-16.0987,-108.0171,-48.8884,-84.2740,70.3287,127.0658,103.1616,148.1824,-45.4051,-106.5033,-17.3001,-54.1514,0.9522,205.7646,-125.8433,-73.0577,130.8395
-97.8608,-152.4317,-44.1255,-134.1636,-89.9531,-89.4128,6.6078,99.6781,40.8675,172.7697,-56.3804,-133.3212,-18.0805,-45.8503,-59.7748,255.3586,-109.3252,-57.3073,82.1413
-78.9754,-137.7670,-29.7015,-122.7635,-79.7598,-70.9694,-29.2484,52.6963,-12.8489,145.2148,-62.1093,-143.0099,-14.7817,-44.3227,-114.8357,200.9842,-62.9220,-44.7204,5.8354
-49.2896,-95.4069,10.0974,-91.8281,-33.9653,-66.5943,-19.4083,21.5543,-25.8213,63.8444,-61.9384,-110.7972,-21.8561,-37.7706,-120.3409,132.0355,-38.0159,-58.4901,-14.8733
-42.7497,-76.5061,39.6026,-78.8143,-4.4029,-53.6533,9.1910,18.6528,-5.5891,-0.0199,-53.6542,-55.1841,5.6872,-6.3873,-60.4033,114.8417,-49.9773,-61.1134,6.6690
-35.0462,-81.0466,48.6425,-72.8519,-4.8999,-26.3259,21.5351,25.8549,2.5464,-5.3610,-12.1569,-13.8079,69.8248,35.4527,21.3066,115.7287,-71.2646,-28.7002,2.1154
-31.7628,-92.3821,23.5602,-57.5551,-21.6210,-29.5354,-8.9842,12.7541,-24.0730,-9.1814,9.7548,-5.1066,74.9245,37.0045,60.9553,95.3840,-79.9126,-14.6054,-37.4891
-47.8059,-82.4379,-7.3096,-44.1797,-29.1497,-54.5880,-54.7385,-22.5206,-48.5273,-57.1901,-27.8660,-14.1466,30.0182,-8.6554,73.1244,68.4182,-65.8267,-31.7223,-60.6987
-57.8903,-52.7564,-6.8507,-45.4408,-35.7771,-64.0872,-61.5610,-58.4582,-42.4162,-115.9090,-62.7361,-38.3073,29.8571,-53.1054,105.4530,45.5885,-56.6684,-41.5665,-50.1299
-62.1628,-58.3763,-19.4088,-56.9873,-79.5656,-71.6065,-41.7724,-74.7132,-28.1438,-128.4990,-65.5011,-92.6168,24.1386,-72.0966,113.1727,4.3895,-93.3064,-60.2803,-39.2973
-66.0752,-89.6241,-66.8882,-53.4099,-125.3790,-79.8842,-39.2874,-50.5989,-21.8841,-72.7206,-60.1408,-133.5208,-57.1010,-76.8469,37.2280,-52.5882,-127.7162,-89.2754,-38.0744
-27.3585,-56.7847,-68.4058,-13.7833,-99.5629,-61.3489,-35.8137,-0.5112,-8.3042,5.9500,-22.4324,-94.3791,-110.2288,-75.5627,-55.7734,-86.5080,-75.8962,-64.8679,-24.3986
39.5574,28.9686,-4.3928,34.0880,-37.7295,-35.9992,-12.7373,8.7141,7.8748,18.7045,30.9399,-17.8243,-82.9538,-83.6196,-78.2644,-103.1021,18.4787,-12.0447,-8.6799
49.1072,58.3153,41.7627,39.9631,-12.9516,-41.8774,-13.4824,-38.3491,-4.0241,-56.7327,10.6306,0.4153,-78.0096,-114.7192,-53.6269,-148.5295,45.1460,-28.5627,-18.6555
0.2771,18.8783,54.9393,-1.2502,2.7635,-66.7223,-39.7888,-66.1255,-35.8008,-139.9802,-66.5942,-26.5425,-89.2867,-144.1930,-22.7772,-193.1304,6.4822,-84.9374,-34.8370
-41.4031,-22.2345,70.4851,-52.4346,29.4553,-83.4240,-37.6670,-50.6389,-41.5423,-164.4051,-103.9680,-26.3564,-37.4915,-141.1626,18.6275,-153.8632,-26.2369,-93.3718,-31.2527
-65.1395,-53.2466,57.9448,-74.6677,8.1191,-78.4948,-26.2925,-52.7527,-24.3935,-147.8407,-97.6783,1.6241,-4.1867,-110.1711,41.9396,-53.9045,-38.9734,-78.5019,-34.8515
-50.7745,-56.0581,22.2804,-40.3837,-36.1827,-36.8156,-44.1710,-62.6067,-32.3490,-120.5766,-57.6495,31.5765,-39.3518,-63.6991,23.3263,-3.2741,-32.2674,-60.2774,-56.6884
55.3145,34.9013,46.0892,48.3362,3.2800,35.0353,-37.8317,-13.3523,-61.2420,-80.6416,62.2645,72.4351,-11.6144,-15.4787,14.1922,-30.4944,25.2685,24.0151,-56.9524
206.7928,188.3854,114.9315,153.5741,96.8696,101.5294,-11.6105,50.7282,-81.7172,-45.0129,219.4695,111.6471,78.4575,-2.6489,30.6365,-76.0788,120.0182,148.2645,-52.4885
303.8181,281.4201,130.7630,242.4934,114.6715,141.4083,-82.0936,40.2763,-126.0178,-49.1735,319.2643,116.2629,66.8003,-37.0957,17.5572,-100.3753,183.8268,208.0269,-111.7935
352.7757,299.5238,108.2581,309.7597,67.9560,167.6465,-216.2572,0.3370,-203.0735,-73.4971,377.8071,101.8197,-8.7434,-63.4301,-1.9954,-99.2096,197.1802,215.7209,-197.5043
391.7048,328.7626,123.0043,350.2885,71.9536,202.7949,-235.3792,18.4285,-227.4908,-67.3695,419.1533,98.4012,10.8352,-38.8059,44.6110,-83.9491,200.6421,238.5634,-206.6131
378.0249,359.8304,141.0221,345.5071,108.8942,234.0958,-151.9337,56.1981,-173.3946,-51.2765,381.6563,87.2634,70.1598,-3.5995,106.1093,-72.0399,199.8151,244.1737,-162.9675
292.2754,310.2960,98.7503,287.2404,64.0713,216.6717,-125.8069,45.8711,-130.7773,-72.4060,278.2016,53.9362,52.3358,-4.6585,89.4528,-47.9349,162.1826,199.9736,-148.6046
201.5588,204.9624,37.9598,201.7016,-35.3540,158.2212,-136.3825,25.9155,-114.9046,-76.7774,211.3387,35.2010,15.5819,-13.9666,35.5859,11.8633,103.0882,158.4687,-115.6740
156.1854,143.3182,23.8184,137.5461,-55.8411,124.6716,-66.8956,53.3889,-44.7736,20.4766,200.6091,47.6305,21.5584,6.2458,23.6570,78.2607,72.6541,142.8892,-1.2109
144.2356,134.7656,40.4612,118.4803,-5.0033,123.7670,33.3331,107.9772,58.0285,170.0848,196.2167,49.5028,25.0830,33.9475,34.1478,125.8740,69.7675,121.1568,101.0052
129.8899,116.7736,42.7800,118.1868,3.1029,107.9322,62.9571,148.3516,93.2605,248.2725,166.5972,21.8065,17.2945,48.5012,35.3227,167.4264,61.5774,92.6190,97.4430
80.8126,79.4929,28.5755,99.8453,-21.7167,80.5931,53.4594,152.6001,75.6773,232.6415,83.0832,0.5934,31.5482,63.3805,53.2219,164.9784,55.2615,68.7216,51.0874
20.7992,59.8930,23.0835,65.5820,-3.4029,62.1508,62.9778,102.1707,85.2179,192.8901,-14.9505,-0.1513,52.7233,54.9528,84.5073,72.3130,69.0049,42.1542,25.8726
25.8594,67.9159,33.7318,50.4740,19.8961,39.4307,65.6490,20.5541,99.8563,166.8429,-2.3184,-1.0888,58.2072,-2.4039,75.8964,-26.4901,85.2692,36.1255,-14.3076
98.3407,88.9312,46.4829,73.5802,3.4963,36.8836,34.6702,-18.2757,61.4556,139.1308,119.0759,10.0719,57.5869,-31.8696,22.2456,-27.5471,90.3156,74.5857,-62.6385
146.8475,111.4914,58.9690,107.3296,8.8919,82.0684,11.2412,8.6529,14.5384,104.8326,183.5312,50.2165,58.2661,32.3580,-20.6462,12.6802,96.7934,110.8641,-51.0636
136.1751,125.2653,79.7991,114.8262,49.6063,115.7906,35.3507,40.8893,30.1930,95.5110,139.2419,74.4332,52.7104,94.7176,-26.4761,2.7127,105.3802,94.3802,3.9743
112.6970,119.0085,86.0545,98.1534,46.5500,88.1632,72.9524,39.3393,77.9258,127.3645,95.2029,44.2790,26.6366,56.4417,-16.1723,-19.1029,97.6350,51.5660,36.4194
80.9985,86.3676,42.4448,71.2924,-7.9668,42.9308,70.3790,25.8501,91.4800,152.4535,79.5219,3.0424,-18.8078,-16.8760,-2.3653,-1.1492,67.2879,25.4645,52.4860
18.1298,40.6468,-22.0574,31.0932,-50.8269,6.6131,54.0275,15.7286,83.6682,121.5659,27.1877,0.2502,-51.6688,-50.4803,7.3048,8.1928,37.0304,10.4858,73.7842
-34.8786,18.8843,-40.9291,-3.1137,-63.1173,-29.6433,73.3459,5.3025,93.0012,71.9144,-48.9906,16.7389,-62.9397,-70.2641,-8.4726,-23.7862,39.0641,-10.9000,80.2091
-42.7105,22.7340,-21.2343,-8.4370,-54.0160,-41.3623,96.1736,2.1195,100.0285,68.7634,-88.3404,10.4517,-73.3309,-74.6474,-35.4124,-37.0393,58.0167,-33.3680,78.9861
-49.1923,-3.5078,-24.0369,-21.8985,-37.9083,-30.9438,84.3318,3.7341,83.2260,99.5775,-90.5004,-23.0148,-64.2875,-37.0936,-34.9803,5.6619,37.6001,-44.7172,81.9074
-70.7724,-54.5662,-43.7956,-60.5100,-41.3154,-26.0328,72.6074,-3.5442,65.4593,108.7216,-76.0738,-44.0924,-26.9405,-11.7638,-32.0182,48.3578,-5.7955,-36.6086,46.6342
-46.6018,-34.6416,-31.6850,-48.3726,-45.3765,5.4607,76.6562,-7.7199,54.4859,85.8472,-36.9487,-16.2662,-17.9191,-31.4138,-62.4793,46.0194,11.5580,-5.0479,-23.2344
29.3028,58.1919,-9.1931,35.7272,-18.5496,64.2243,64.2074,3.6331,35.0434,60.9703,27.5270,28.2775,-34.7537,-29.3445,-72.3825,30.1992,72.6186,40.9192,-53.0512
77.1333,100.2843,-19.0377,88.7385,-0.0382,76.9583,42.6157,12.5929,19.5958,55.4177,86.5066,32.3252,-2.7939,18.1052,-25.9782,24.7272,77.4282,77.5498,-45.3519
66.7690,63.0436,-18.2484,68.4259,-0.8590,59.3351,37.0433,18.4259,23.0410,66.0640,96.2232,19.9617,49.6708,58.4693,6.0014,19.0483,38.0819,78.4760,-50.1727
33.9733,30.3932,30.5108,38.4993,37.9987,72.0561,37.1554,45.2951,33.1888,79.1439,37.3318,37.1916,39.0387,77.8048,-1.5316,37.6543,31.6716,35.6302,-22.8796
-18.2075,0.9873,46.9881,5.6957,69.5988,55.8150,45.1335,81.6992,47.3980,84.9212,-49.8567,42.2786,-3.3375,76.3454,13.1636,83.7529,18.3869,-22.4424,64.6311
-93.6946,-68.3750,-35.2416,-55.5252,-16.5060,-14.0271,74.8094,102.7323,70.7151,74.9592,-100.6603,5.3599,-29.6030,32.2979,35.9213,76.7824,-60.3918,-50.1602,122.6043
-144.7251,-110.8580,-134.1761,-86.3433,-148.7596,-27.3896,108.6971,128.3503,94.6760,57.2585,-112.3885,-6.5467,-73.6903,-15.2172,13.8792,13.3902,-123.9092,-39.5165,125.8319
-147.6798,-73.2456,-153.1633,-50.8054,-178.2986,15.6913,134.2718,169.1493,122.6267,72.7634,-138.0481,24.8844,-125.3927,-12.7321,-3.6598,19.0123,-92.5896,-31.4161,151.7800
-142.4882,-35.6005,-125.5952,-20.2436,-135.8823,-2.7397,143.3451,178.1935,145.5434,120.6603,-185.3934,18.6024,-132.6271,-4.6585,19.0331,101.0335,-34.1063,-52.6483,176.7009
-143.8323,-52.9098,-115.8324,-36.3937,-112.7416,-59.0376,103.8675,129.0686,113.1150,112.5977,-201.3659,-35.4694,-116.6996,-31.7538,12.3403,122.7796,-28.1575,-75.7716,122.9116
-127.4944,-70.5625,-104.8784,-58.6243,-80.4016,-66.5674,38.7065,60.5790,30.3474,21.5022,-171.5471,-55.0525,-99.0615,-44.0693,-33.5084,72.5378,-39.6560,-71.0522,46.3840
-103.5030,-58.9824,-65.1633,-65.7659,-18.3043,-61.0502,22.2108,7.3230,-10.7846,-42.4789,-142.3278,-25.2166,-55.8956,-30.9725,-31.6746,43.6307,-20.1160,-56.0258,25.4262
-97.3889,-50.1776,-37.9889,-65.2578,3.7215,-65.7664,38.1540,-32.9540,16.8684,-32.6378,-126.7850,-2.8437,-20.0109,-43.1389,34.9949,28.4331,-7.5297,-54.3260,23.0436
-102.8180,-54.8215,-60.4475,-53.3637,-37.3577,-31.8216,22.7925,-57.2173,39.6012,-42.5857,-99.2652,4.6416,-26.4302,-53.7365,107.7426,0.3801,-44.6258,-51.5643,8.8959
-114.7832,-62.9210,-92.8386,-44.2485,-76.0712,12.3616,10.7486,-51.1463,31.3232,-97.0860,-85.6240,35.4380,-19.9334,-8.2769,151.8904,-2.4229,-84.0416,-33.3303,15.2185
-134.5115,-69.3073,-85.1264,-55.1122,-68.7622,7.6841,42.2464,-23.0550,31.5819,-118.3617,-121.9829,81.6323,13.3038,39.8467,144.5991,-3.7868,-67.7022,-20.9216,37.2444
-136.0286,-60.2695,-59.8392,-62.4683,-42.0823,-16.1233,62.7391,4.4281,45.5304,-103.3863,-155.2990,85.4478,1.7175,25.4834,81.5197,-33.4239,-37.8453,-32.6775,49.0819
-113.6133,-36.7432,-59.6466,-51.1375,-36.6822,-19.4496,58.2825,35.6722,65.3234,-93.0660,-137.5589,34.0110,-43.3080,-7.2165,26.3080,-10.6081,-57.0954,-50.9654,65.2763
-113.9124,-27.3755,-69.6993,-51.6344,-48.3261,-7.5170,89.2354,86.3453,107.5994,-64.2159,-129.6197,-6.5566,-46.7019,-9.1320,31.1841,67.3776,-93.8699,-56.5675,93.4209
-147.4836,-49.4881,-71.8376,-79.6999,-56.2570,0.3464,131.5998,118.4924,144.6011,-22.8816,-162.4576,-6.0338,-39.2786,-19.6529,42.5624,56.6774,-107.8229,-63.2983,105.5959
-160.3048,-98.6245,-96.5644,-110.3020,-84.1342,-39.4259,102.2145,75.3920,117.4008,-25.0203,-155.8490,-27.8458,-89.8323,-73.3967,-11.2428,-56.0167,-132.8288,-89.2857,80.8131
-144.1674,-153.6859,-142.5217,-126.8003,-147.7309,-121.3981,32.5962,2.4687,54.2866,-38.4284,-103.1986,-87.3746,-148.8197,-127.6590,-85.8028,-120.2101,-169.3447,-113.5777,38.3780
-153.1620,-169.4834,-152.3592,-132.4852,-183.7125,-140.7882,27.0325,-2.0613,43.1577,9.1132,-115.7856,-99.8282,-129.8268,-130.4240,-73.8042,-90.3736,-146.8122,-100.9118,27.7564
-174.1877,-122.2680,-114.9320,-115.9405,-138.1538,-70.3778,76.3053,27.9983,74.8870,77.7373,-186.5719,-44.0206,-55.8330,-84.6594,12.8673,-48.3413,-52.6289,-57.9046,48.0652
-116.1787,-42.4840,-61.6130,-53.5988,-48.0616,-12.7276,67.7617,-18.6549,53.9015,86.4354,-157.5900,19.8906,-1.6134,-22.2929,40.3481,-42.9676,57.1849,-8.3039,21.2195
33.9643,47.2119,19.7070,47.6010,41.6969,16.8883,-19.0290,-109.3968,-23.2601,47.5195,11.4935,105.0742,35.2990,38.6391,-18.7850,-70.7112,162.8866,61.5989,-60.6685
168.8866,148.8112,130.8440,140.7699,129.4488,87.4969,-65.5492,-121.9322,-48.7497,31.2086,168.7651,239.3101,96.3911,91.7792,-32.3776,-90.4201,263.1151,151.1353,-87.5091
208.7023,224.8607,207.2573,185.3951,199.5159,158.4028,-11.9454,-53.3814,13.1857,78.9571,200.2711,327.2533,151.6910,122.4530,47.4171,-41.1574,317.3925,195.2892,-24.5638
180.0137,225.7734,214.1362,178.4724,216.9753,165.9972,46.6024,24.2309,77.0662,162.8862,153.7825,293.2339,149.6859,117.8536,116.6303,59.7458,293.7330,165.5832,39.1527
129.3755,169.7356,180.3675,138.2791,169.6246,160.8646,39.1140,92.0456,90.6817,200.1021,112.4832,221.7928,120.5003,93.1776,129.7356,127.5859,213.1939,129.8653,59.6839
72.9839,111.6155,127.3163,93.1112,88.9589,167.2629,25.6867,135.0084,88.2739,161.6877,85.3691,198.3106,109.1669,77.4658,134.0086,137.2237,129.8114,125.4575,57.5324
37.4714,76.2312,84.7750,69.1652,50.6815,126.5627,58.2816,130.9773,97.3355,130.4392,58.5914,189.1863,97.5368,71.0374,133.9414,121.0505,89.0687,104.6986,47.6235
40.8962,58.0241,89.8826,56.8651,84.7361,49.0754,102.8498,124.0241,115.5613,166.4298,54.5264,157.9829,75.9433,49.5858,115.0962,100.0479,76.7681,58.3738,66.2267
49.3111,39.6074,98.7776,31.5168,101.6153,0.9969,122.7453,143.0894,136.2535,207.1318,81.1060,123.1428,63.7340,10.9696,94.9540,92.2868,44.4630,36.1817,113.9014
37.4502,21.0881,56.9685,11.3150,47.5508,-16.8071,115.5143,127.6999,137.0668,187.8104,93.9487,91.0760,49.8457,-16.0091,67.0018,97.2469,11.8309,39.3409,108.1955
36.7203,34.8422,27.9726,25.4122,23.5521,-23.9443,92.6777,63.6540,112.5266,143.2253,70.0338,65.3956,38.6395,-7.3703,25.6668,71.7372,40.1309,38.5933,49.4160
62.1424,82.0785,65.2273,53.8292,80.1001,-8.3100,67.7630,21.7656,90.6767,107.2317,48.0551,78.2272,66.1086,32.2275,3.6014,-5.8372,106.1964,49.1623,35.4036
77.2683,108.3540,94.6477,66.7315,102.7509,16.2693,29.4737,-0.8760,64.2119,33.7874,49.1814,130.1166,102.0541,67.3152,-0.0934,-98.6381,138.4658,78.3941,41.0421
69.7090,99.6896,82.2507,68.7043,53.5988,23.8068,-24.1619,-59.6520,17.0324,-82.4968,50.0575,169.4383,95.8535,59.2335,-0.1346,-154.4059,134.5287,88.7526,-14.1657
73.3994,103.1762,100.8447,71.2873,53.4811,35.0159,-35.0777,-99.7829,6.8753,-123.5225,57.2958,170.4815,85.1739,24.7826,38.0717,-140.2319,125.8377,71.5505,-50.9743
97.5668,119.9505,149.2916,77.2799,128.4201,66.6089,12.5204,-41.3688,56.2280,-25.0750,91.3283,154.4966,91.9961,21.6240,94.9411,-80.5053,107.7137,55.6353,9.0650
100.5882,101.4982,147.9493,77.3513,156.5247,80.3456,29.9532,49.4998,70.3615,77.6692,99.7167,128.1252,59.1979,43.2135,82.3807,-49.7120,77.3609,38.9923,74.5549
49.1192,51.8803,101.5630,45.9174,99.4804,50.0422,-6.7234,69.3064,25.5096,55.1731,23.2116,85.7193,0.8376,27.1805,28.6091,-58.1102,53.0193,6.1162,84.1522
-28.8932,15.9578,59.5551,-7.8117,40.3370,12.8623,-5.6178,43.3076,28.8369,-10.2524,-75.9851,54.7298,-4.5208,-13.6127,45.0408,-36.6026,30.1925,-20.9571,89.2461
-75.4592,-9.3143,8.0332,-32.4176,4.4483,3.9350,38.8356,37.3387,85.6762,-7.9093,-91.7233,50.1710,18.7796,-16.1464,107.2971,16.8959,-15.6858,-21.8344,78.1516
-77.8335,-51.6862,-54.9275,-25.9360,-52.4243,1.7886,36.0582,36.6802,87.4774,11.9983,-37.6707,32.2011,6.7869,-1.8421,118.4924,35.5629,-80.9934,-17.3573,7.1765
-67.1730,-81.9557,-70.2513,-27.1778,-102.8686,-14.3526,10.0033,21.9730,56.1567,0.4054,-3.9766,-6.0217,1.5466,-14.0953,110.3764,26.6826,-121.4650,-23.5507,-53.7334
-54.9635,-49.5393,-27.2610,-19.4588,-76.4969,-18.0017,61.3141,31.1556,99.8378,14.2292,-8.9397,-0.7039,57.0756,-6.1572,166.9815,35.2407,-103.6150,-19.0313,-29.1214
-34.3087,18.2375,4.4969,20.4357,-11.4842,4.3256,148.9879,58.9567,170.2926,45.5086,-8.1013,59.1795,125.6964,43.6961,251.3532,20.7123,-54.3807,12.4912,17.4430
-8.8003,54.9533,-3.7106,53.0049,5.3602,23.1098,139.5727,27.8425,137.0453,6.4688,14.9875,100.1405,146.7436,56.6052,264.2513,-60.0737,-11.4755,53.7586,-14.9231
28.4864,69.3095,6.7735,60.7201,12.7959,28.7839,32.4079,-70.6935,23.8467,-80.7681,48.9207,93.9944,138.6990,14.4924,202.3079,-136.8770,37.8637,81.1023,-105.0445
73.9430,91.5836,61.8543,68.2439,74.8645,36.3005,-51.5294,-141.7731,-45.5071,-116.2193,77.0321,77.8395,137.7474,1.5074,141.8764,-138.1743,87.7571,81.2667,-147.9727
79.4968,75.5806,85.2735,62.3130,100.4993,37.5853,-75.6556,-139.7624,-54.9530,-99.9737,73.0969,64.1020,116.1534,32.4347,97.8175,-116.6400,82.1510,53.6859,-123.6397
40.8334,12.8763,33.5194,40.4642,16.1153,37.0875,-108.7162,-112.7807,-77.3904,-91.5334,44.6784,55.5066,43.8882,46.4094,27.2951,-131.8257,41.2338,31.5448,-107.1878
36.2002,4.7756,-2.7823,51.5319,-47.0529,69.4377,-146.5680,-84.0555,-109.1087,-78.9265,44.3972,76.9804,-11.7854,49.9625,-38.7084,-128.3733,57.3616,54.1221,-99.9027
79.6551,68.7728,47.8186,84.1546,15.2335,118.9889,-109.2277,-35.1481,-81.3052,-24.1619,73.2762,114.3134,14.6388,81.0300,-38.2693,-74.5946,114.6806,89.4203,-38.5406
81.8728,82.1173,102.1577,70.1686,89.1785,122.3344,-25.9303,11.4541,-10.9782,35.3834,62.1315,114.0518,46.6167,99.0706,-12.9057,-64.9751,108.6004,66.9565,28.7179
9.4040,3.0169,63.3815,9.0214,61.8134,66.6729,-7.3084,15.8544,12.9329,26.5796,-6.3851,63.0574,4.0429,52.6056,-14.0863,-123.3695,24.7648,-3.2731,17.0259
-78.4660,-88.2942,-30.1539,-59.6268,-16.9421,-7.5444,-44.7456,-15.6172,-17.0977,-44.8163,-70.2647,1.0278,-42.7977,-21.5087,0.8968,-125.4774,-68.5605,-51.1682,-21.3307
-128.9887,-139.6527,-81.8707,-114.7174,-60.8715,-61.2239,-47.3191,-58.5637,-32.4407,-95.3694,-91.3513,-21.1902,-31.8360,-57.2060,30.7128,-62.7496,-113.1743,-60.3800,-22.9822
-119.6214,-130.0014,-58.2664,-118.1761,-41.5309,-65.7330,-17.6612,-101.7849,-22.4982,-96.8180,-87.5481,8.7635,-20.3539,-51.8178,2.9611,-76.6276,-74.5888,-58.0704,-35.6518
-74.3558,-69.9678,-10.2631,-73.6499,5.7218,-33.0285,-19.6964,-134.8328,-35.4486,-112.4876,-87.6938,28.8998,-32.7563,-39.1823,-55.2278,-146.7755,1.2173,-53.6767,-76.1071
-66.9869,-56.4776,-13.6306,-65.0701,0.1002,-21.1964,-59.8064,-152.3997,-80.6769,-158.2734,-103.0842,-17.5206,-26.8428,-22.1932,-66.0879,-118.1575,3.3808,-53.8973,-96.7044
-100.5601,-121.4452,-61.2114,-105.7051,-56.9146,-48.4102,-95.8158,-155.9044,-121.5609,-164.7000,-111.4601,-83.8710,-6.9058,4.2816,-54.8255,-24.5804,-60.5824,-61.6543,-101.0351
-101.2056,-152.8208,-72.2628,-120.7942,-61.0737,-76.5285,-97.3306,-145.3620,-135.3260,-122.2507,-96.1822,-109.2259,4.4626,10.5395,-59.0099,-8.8221,-78.9899,-62.8444,-102.1661
-84.7322,-128.8677,-42.2185,-114.3442,-6.4730,-88.7794,-80.3076,-126.8304,-133.9284,-96.9240,-100.8118,-113.7309,7.5106,-10.4711,-52.7829,-36.4863,-54.0873,-67.6707,-76.2391
-108.1456,-136.6096,-31.4768,-126.4419,12.6651,-86.9355,-80.1601,-94.8868,-130.3324,-87.9624,-144.5655,-111.6277,-13.5051,-14.4272,-44.7054,1.4952,-55.2955,-90.3066,-34.0142
-112.6773,-136.8279,-22.1048,-120.0523,7.5420,-69.0246,-79.3953,-33.6977,-109.5721,-49.4934,-151.4318,-89.8726,-46.6147,-13.8532,-60.9407,69.5119,-54.9510,-95.4649,2.6444
-64.2193,-80.8796,11.1039,-96.6501,22.9199,-72.8268,-58.3726,11.7879,-76.8776,-25.0872,-99.7271,-98.8042,-55.9282,-87.5371,-75.3958,59.4276,-40.5882,-77.6407,24.9170
-64.3496,-86.8597,-6.7814,-123.3691,-14.9094,-131.6828,-82.5390,-36.6064,-94.5948,-88.4265,-90.5609,-178.2268,-80.7369,-217.7916,-81.7650,-52.9558,-82.5833,-100.1325,-22.0730
-136.3612,-187.6439,-98.4460,-179.4506,-124.0053,-196.5875,-170.7290,-145.6814,-177.5810,-198.8776,-151.0117,-262.1488,-156.1167,-298.2125,-110.4498,-180.3147,-163.5206,-162.2544,-140.3270
-179.9066,-244.6463,-163.8462,-209.2153,-179.1358,-221.9957,-213.3524,-206.5091,-232.4582,-256.8683,-190.1922,-304.3193,-212.4063,-322.6958,-154.3980,-218.2263,-199.9283,-195.4687,-208.0913
-188.1030,-242.9687,-167.3826,-239.7875,-151.4936,-238.9514,-185.3133,-208.3308,-210.3325,-248.9567,-194.5807,-342.2051,-216.3922,-359.4478,-188.2482,-186.1436,-211.1025,-206.5359,-190.4930
-210.8987,-266.3861,-165.4138,-269.3982,-141.4894,-259.5107,-188.4134,-204.3571,-183.6577,-228.5574,-215.0116,-371.9198,-217.5406,-382.3045,-195.9402,-180.5019,-235.1621,-229.6535,-185.0690
-207.8156,-280.2507,-159.1335,-249.0831,-154.6702,-252.4221,-212.1223,-187.9342,-190.6614,-205.4727,-215.1147,-357.6642,-204.6584,-332.3827,-165.8469,-186.7343,-238.4174,-229.6731,-191.4726
-171.1441,-270.0763,-132.2803,-227.9843,-131.3091,-233.0166,-177.1378,-153.9349,-186.8634,-161.3454,-163.5974,-338.4382,-155.9699,-258.2475,-133.4787,-140.7254,-239.4948,-206.9329,-154.4259
-179.0007,-308.0110,-128.5238,-265.9473,-109.7586,-233.3878,-145.5033,-144.9889,-177.9319,-134.5665,-138.1704,-353.8026,-131.8452,-236.8270,-134.3110,-96.1990,-284.7590,-214.7050,-136.1727
-219.0935,-343.7408,-155.5438,-292.1591,-140.0417,-231.4180,-182.5558,-155.8902,-207.5177,-167.8283,-177.0779,-363.3881,-143.6785,-255.4660,-128.7959,-102.4141,-305.4995,-222.2926,-167.3780
-207.0457,-285.2310,-157.4575,-251.4515,-169.0179,-206.5325,-210.1924,-143.0000,-240.1630,-204.0797,-205.7182,-337.7277,-134.8520,-259.1680,-115.8300,-94.6255,-235.2292,-177.7605,-163.7741
-153.0895,-202.3552,-121.7566,-200.4178,-140.7704,-178.0995,-185.0429,-117.4484,-215.5620,-169.8372,-179.2770,-298.3951,-118.5877,-231.4940,-155.7297,-56.9963,-147.4193,-131.8298,-120.5570
-114.4451,-170.5086,-91.4091,-168.2434,-90.5710,-156.2298,-160.3169,-107.3346,-160.2837,-110.0574,-130.4473,-252.1874,-124.2834,-197.0409,-192.5523,-47.5652,-115.7407,-122.9627,-107.1365
-88.7791,-149.2588,-92.1918,-129.5717,-75.7566,-135.5282,-145.6907,-105.3473,-141.7454,-99.1456,-80.5454,-200.3646,-127.1127,-183.6165,-143.2307,-46.4457,-112.4985,-107.7039,-118.0883
-49.3335,-115.9026,-99.0658,-87.6369,-78.9610,-113.9269,-130.7250,-104.4597,-164.5961,-103.2445,-22.1164,-170.0015,-131.9111,-185.8340,-101.2416,-13.8461,-97.8862,-78.6685,-129.1173
9.2877,-71.7285,-60.4971,-48.7437,-34.3172,-82.7066,-135.0016,-90.4418,-170.5016,-62.9314,34.9300,-163.3843,-138.9037,-174.9391,-133.4731,17.1945,-61.2991,-61.5671,-128.6365
47.2704,-13.6086,9.0985,-18.8242,40.3643,-49.7973,-132.3420,-40.9894,-126.9390,-10.2053,47.5777,-144.6663,-100.1900,-149.2479,-119.7222,37.0678,-16.3426,-43.5277,-74.8829
-1.5604,-11.2734,10.1698,-35.0049,29.1670,-49.9100,-97.9079,2.2102,-76.2729,-3.4514,-19.6766,-111.8679,-53.4253,-140.6016,-27.2426,55.9815,-11.9275,-34.3836,-9.1286
-102.5313,-88.6352,-76.5713,-83.4873,-86.7941,-83.9586,-82.5754,-22.1373,-61.9765,-32.6155,-114.6111,-113.0450,-76.7760,-163.8623,17.7240,26.3533,-58.5536,-60.9416,-36.8395
-127.7721,-125.7988,-134.5197,-93.5167,-161.8553,-108.8609,-98.8340,-70.8361,-59.2242,-43.2685,-127.3773,-162.3027,-109.2479,-187.9937,-4.3397,-43.7290,-95.7760,-83.0204,-105.4756
-73.2647,-90.4078,-108.8412,-72.6348,-118.0301,-102.0654,-89.9160,-63.2532,-40.5672,-16.8586,-59.7876,-197.1921,-81.2040,-172.1512,-19.1818,-58.7269,-103.6527,-69.9989,-92.4907
-58.8287,-86.7830,-75.3090,-78.9259,-59.7524,-73.3547,-61.3282,-21.9016,-31.5664,-6.5693,-34.7849,-169.3985,-56.7846,-123.6576,-24.8489,-27.4949,-115.2958,-63.0743,-44.8627
-98.4208,-108.4377,-80.8919,-96.2050,-68.3970,-39.6049,-59.8484,-13.6670,-46.7055,-58.0800,-87.4746,-126.7842,-60.0178,-86.7166,-28.5038,-49.3929,-120.4651,-66.7702,-44.8817
-113.7578,-93.6186,-103.6083,-95.1877,-93.2430,-25.8661,-72.7016,-32.9435,-61.6769,-112.2588,-119.6937,-128.2390,-36.9433,-72.2185,-21.1286,-100.4255,-107.2286,-45.1627,-51.5662
-99.7175,-93.0758,-130.2572,-94.1485,-98.1373,-38.0581,-77.3930,-34.1877,-64.9490,-94.6769,-80.4834,-136.3426,-19.9182,-57.4223,-40.3534,-76.1511,-109.6875,-18.1039,-45.7144
-75.7062,-107.7804,-140.9071,-75.3457,-108.9548,-37.3822,-85.2300,-8.8868,-62.2710,-51.9544,-15.7457,-89.1468,-52.8615,-38.1617,-88.3134,12.2094,-111.4941,-4.5375,-61.4344
-21.9362,-54.8582,-106.0121,-11.7695,-107.5375,0.3832,-93.8265,11.9434,-56.9322,-53.3448,36.2605,-11.9624,-73.9537,-12.4142,-112.0877,68.8235,-59.3644,23.1345,-70.4765
31.8952,20.0144,-46.6116,41.6963,-56.2340,42.6592,-88.7908,4.1358,-52.3148,-62.7951,57.3558,30.9692,-42.9271,34.0440,-104.4612,65.4059,11.7709,50.0822,-51.5079
30.9675,34.6004,-5.8341,43.7877,6.5934,63.3897,-64.1944,-7.7317,-32.3408,-39.8611,28.8492,39.8572,0.9554,83.3448,-69.8419,56.1658,39.7063,42.7529,-36.6150
10.1306,43.4044,10.4237,47.3037,28.0871,82.7405,-18.4125,19.5642,19.3528,-8.9163,-7.2091,67.5419,27.0687,112.0203,-11.7927,80.3845,47.9238,37.5335,-12.3941
34.3366,76.7966,11.3148,83.2956,27.4483,110.8229,18.3502,73.1401,58.8750,34.1170,28.8137,124.7861,18.9381,136.7640,-10.4687,105.4352,69.2445,66.9855,29.4359
87.5599,83.4989,1.6178,114.1464,34.4818,121.2571,6.5304,104.4451,40.0978,100.9557,115.4688,149.6051,-19.0492,150.0213,-96.2410,92.9633,86.6855,97.8594,26.5446
113.3291,90.1455,-6.8949,125.0797,34.3916,106.7292,-25.6253,114.2883,9.7391,134.1555,139.8031,109.7594,-41.1068,116.5053,-155.5195,78.4776,101.4907,107.6123,-10.5008
97.9094,127.7786,0.6406,125.4337,23.6543,99.6656,-20.3145,132.5249,24.3046,109.1876,80.0522,79.5891,-38.7962,70.4381,-140.5885,98.8589,126.5854,104.8659,10.2476
77.4708,132.4444,39.0005,106.1331,30.4436,112.1220,15.3311,141.3671,49.1355,84.8194,42.4383,122.1286,-35.3815,62.8568,-116.0275,102.6356,137.3528,91.8784,69.4425
81.7574,94.9193,92.3522,78.4728,58.0707,107.7943,37.2242,107.8959,42.0649,70.7763,75.3791,174.4545,-9.5033,63.3584,-73.0804,49.0308,116.1462,75.9719,72.2652
77.3242,67.7754,95.3129,65.1317,72.9885,60.5357,34.0265,54.9518,24.8503,27.2498,85.8379,160.4760,19.8247,44.5038,-5.5866,0.4913,80.0031,53.0325,25.6121
22.2305,33.7263,34.3966,44.9355,52.9076,-4.4155,19.5039,19.4618,10.8991,-25.0092,5.2955,106.9566,-15.2503,22.1742,-4.2557,-1.3501,50.9187,3.8698,-15.1701
-35.3802,-5.3982,-1.7930,6.2365,18.9776,-45.8620,-0.4432,-14.1402,-21.1894,-63.5912,-88.5290,65.5276,-62.0309,-18.7248,-56.2408,-20.4143,52.6573,-36.8793,-49.1253
-29.1887,8.2426,19.4331,-8.9120,8.2101,-47.5133,-28.2334,-61.8833,-61.4788,-110.6266,-98.8377,42.7117,-35.3396,-59.2787,-58.1537,-76.6168,79.3897,-22.5302,-65.8961
3.4767,30.2219,19.2600,4.6467,9.4710,-27.1294,-44.6780,-77.3887,-69.9836,-130.1024,-47.2270,31.1843,-16.4667,-28.6270,-56.1218,-71.4066,69.2477,-1.0238,-31.7026
6.4993,-10.3003,-12.4033,-5.4686,-16.1935,-23.3584,-18.4436,-31.1175,-47.5813,-81.8264,-2.0775,17.0018,-71.5380,18.1098,-124.6757,24.6778,5.0621,-24.4021,18.6946
8.9252,-41.9426,2.9989,-37.5065,-35.7925,-44.7374,16.6909,12.7099,-42.3489,-54.0932,23.0112,-9.2211,-89.8564,-27.2160,-168.9577,87.1067,-35.6669,-41.8695,12.9847
26.2330,-11.1811,50.3436,-41.4227,5.9223,-48.9032,-5.4202,1.0533,-66.5332,-104.2368,26.8389,-23.1614,-21.8326,-72.8945,-115.7825,56.7771,-20.2540,-19.9535,-27.3836
3.1790,-2.1655,43.2008,-29.8482,44.4311,-20.0155,-31.2933,-9.2176,-54.8309,-107.7675,-15.1406,-11.1400,27.9562,4.8985,-38.7523,49.7124,-10.2827,-11.2524,-0.7773
-64.2485,-40.3500,-9.3090,-43.4922,-0.1501,-1.8030,45.3370,41.9131,34.1856,5.9686,-85.4625,5.8288,21.7369,100.4414,9.8093,134.8779,-26.5138,-29.4956,109.4559
-99.6690,-42.1294,-34.8949,-54.0553,-48.1674,-4.8780,161.8262,114.6468,126.6040,96.9086,-118.8397,26.9239,16.6863,101.6521,38.6778,210.3512,-28.1993,-28.4129,187.3921
-71.3531,5.1021,-20.4016,-22.0992,-16.1004,12.3189,178.9812,150.0236,143.3270,72.9825,-90.8138,56.2020,32.1552,87.4879,47.5264,190.7873,-16.0678,-1.7346,159.0514
-27.1710,40.0919,-0.0156,22.4116,15.6667,48.7181,129.2921,147.7735,128.8290,38.0794,-38.6003,68.9079,63.6878,113.7869,69.2314,122.4145,-17.0218,26.1634,102.3641
-12.8788,46.8495,3.3810,40.1243,-13.7219,69.6930,126.0757,132.6415,153.4813,71.3852,-3.5490,75.6556,103.8491,126.6317,138.5114,73.0272,-20.1988,50.1249,98.1590
-23.1469,48.6241,-4.5709,42.2810,-32.6099,80.9848,158.0331,127.2953,189.4346,118.8963,1.8744,106.1499,120.2314,111.1814,199.7563,60.3336,-6.1112,67.7328,106.0026
-12.2229,68.1537,5.9900,53.8165,-6.7711,90.3521,160.8578,139.6884,188.2292,143.2428,6.2759,115.8136,115.1847,83.3518,190.2906,72.6449,23.9101,79.5465,75.7418
48.8444,111.5790,45.8762,81.1636,31.0533,81.8344,135.4652,142.3348,165.3079,164.8224,54.8709,69.3664,121.7234,48.0991,141.9077,82.2817,55.4895,91.7769,33.7721
113.9011,142.6537,80.3788,112.7884,81.9171,79.0106,106.1830,115.9638,142.6562,173.5806,126.4179,40.0772,120.3251,42.8876,112.1936,76.6773,66.5432,92.1057,0.8562
119.5330,130.9603,88.4679,121.3245,121.3980,106.5427,87.4164,81.6183,117.4425,148.3796,142.6144,76.7505,85.7898,60.0895,104.4954,62.1087,63.2355,73.8480,-32.4358
83.7045,103.1081,93.9269,91.4670,101.3631,109.3260,86.0126,42.9791,100.9762,108.3505,97.1940,112.8986,50.7105,29.0682,86.0317,30.1005,75.4966,51.9014,-41.2658
49.5882,67.3716,93.7158,37.3516,61.9228,48.8583,80.9641,-6.1806,100.7554,77.4557,55.2761,90.9831,30.3103,-24.3416,44.3329,2.4470,70.9703,19.6219,-3.5503
-2.9877,-11.8141,38.9914,-24.4261,32.4501,-7.8222,57.7891,-18.8996,91.8764,65.8677,26.4945,28.8790,-4.9718,-26.7614,10.6143,33.0019,-9.5318,-28.8678,34.0111
-75.0139,-100.3480,-60.5270,-74.1080,-45.3196,-12.1606,43.0582,23.6036,64.2160,76.4192,-13.8161,-36.6135,-53.2508,-27.8071,3.5506,78.4253,-108.2671,-53.6840,26.2908
-93.0459,-104.1074,-108.1143,-78.7508,-127.1167,-12.3881,52.1192,42.8737,49.0657,76.1143,-36.0378,-76.7296,-73.5003,-73.6271,-3.1231,46.5947,-117.9033,-40.2283,7.8418
-46.4914,-31.5331,-67.6522,-47.9145,-95.4970,-35.4264,66.4751,5.6843,64.8848,31.1063,-25.1156,-92.4017,-46.8047,-90.4414,-10.5194,-10.8828,-71.2585,-33.8866,23.4409
-28.0708,3.9943,-36.1950,-40.1837,-27.7185,-42.9611,70.3010,-19.0863,81.9936,-20.1123,-25.3628,-113.5549,-10.4884,-63.3156,5.9460,-1.9546,-74.2166,-47.6766,39.0354
-58.0174,-40.1401,-73.3259,-61.8286,-60.1416,-32.8212,47.6755,-26.7347,60.7083,-32.9630,-30.9365,-130.0603,-23.9246,-69.1561,13.5773,16.0546,-118.0954,-55.1424,-8.1840
-44.3416,-84.9531,-86.3975,-57.1542,-97.8482,-40.1630,-9.4371,-81.9482,0.1760,-43.6838,19.8954,-100.0402,-71.6727,-94.4947,-25.0986,-13.5317,-122.3138,-58.5499,-102.5524
33.6425,-65.2165,-9.7643,-20.1978,-20.3250,-46.8226,-63.7518,-147.4057,-61.2731,-84.8329,109.1870,-33.1586,-66.6218,-71.9080,-65.4776,-28.6785,-74.5838,-52.2436,-156.9596
74.3695,-20.4396,55.6673,-2.4828,60.1448,-16.2864,-76.1883,-144.3644,-88.1599,-119.6580,136.1416,23.0955,-5.2715,-20.0328,-59.4935,-15.0332,-23.7622,-14.8653,-126.9260
19.1275,-19.3554,18.4996,-20.3750,20.6995,13.8458,-62.3002,-116.1295,-75.3907,-121.8643,55.3941,34.8628,17.1331,12.7568,-24.1730,-12.0473,-6.6628,8.6451,-58.3432
-59.7204,-49.9796,-47.5775,-45.5264,-57.1610,-9.6418,-38.0927,-119.1701,-30.6337,-92.6216,-53.4744,-5.2603,-12.9501,18.1257,8.8812,23.4896,-18.1000,-26.5425,-2.6964
-65.9739,-46.3117,-42.5335,-55.0921,-51.6684,-50.9706,17.0332,-92.6847,33.7868,-21.6331,-68.2491,-46.1944,-12.7003,1.2946,16.6880,106.2685,-24.1040,-52.7202,43.6132
-7.9635,-5.5728,7.9774,-46.4287,20.2556,-50.0499,86.9665,-4.8762,78.4679,55.7766,15.5114,-31.1412,26.6611,-18.6674,-8.4892,138.6183,-16.2481,-15.9078,77.5279
22.4955,1.7343,20.1197,-38.9587,52.4017,-35.1035,99.8046,49.3375,65.5235,74.0313,65.9338,-16.9155,28.3727,-30.5029,-42.7601,92.1917,-25.8714,7.9005,58.8417
-16.9017,-52.9630,-25.7762,-60.8026,-2.5157,-61.3094,35.0169,13.3525,22.5023,60.9900,14.9400,-84.2769,-29.6520,-61.5630,-80.6842,53.2418,-57.4828,-35.1462,-1.4807
-75.1759,-118.0524,-75.3553,-110.0766,-72.3849,-104.4078,-30.5006,-41.6946,3.0796,79.9775,-56.2281,-176.6870,-85.5548,-110.4988,-134.2699,60.8382,-79.7409,-84.5637,-29.3798
-103.1904,-152.3910,-76.6586,-152.6614,-83.6969,-113.1408,-33.7593,-50.3131,-1.4125,97.0638,-82.8765,-204.6349,-88.5748,-126.5903,-156.6123,80.8074,-91.9587,-99.5126,-11.8155
-99.8864,-161.0014,-41.2954,-160.0665,-61.8170,-91.4626,-4.0536,-28.5152,-14.6334,78.5774,-75.7281,-180.7518,-56.8228,-102.4314,-109.3173,79.8358,-111.7541,-100.8618,-1.2232
-70.6424,-139.6526,-14.2215,-134.0408,-35.7281,-64.8312,23.1575,-5.7426,1.5858,77.7294,-31.1823,-142.8923,-31.7990,-77.3288,-55.5371,52.1640,-122.5371,-87.4972,11.7362
-34.8388,-85.6548,-9.2601,-104.3815,11.5378,-42.5600,63.1523,10.4419,58.0975,105.1301,21.4013,-110.9680,-20.9378,-64.4685,-48.8523,34.8157,-105.3007,-59.3988,63.0819
-27.1931,-42.8336,-9.2810,-91.9585,51.1770,-32.8596,94.7193,13.5150,72.8481,102.6417,6.1431,-109.0918,-21.8623,-58.3300,-60.6217,50.7381,-70.8179,-51.5441,97.4203
-27.4794,-36.4693,5.4123,-74.9706,48.7635,-34.2843,63.4701,2.0415,12.7531,71.8043,-39.0493,-104.3136,-39.9831,-54.9175,-72.1929,46.2477,-28.2131,-60.8202,64.5970
14.5377,-18.0496,42.6227,-29.9070,50.1669,-30.9369,8.9932,-12.9928,-34.0077,59.2838,-8.1120,-47.0456,-46.7722,-44.9894,-78.4736,-6.7910,23.1957,-43.0520,28.8932
74.4472,40.2437,74.7852,23.5068,74.0983,-17.2461,9.0463,-19.5414,-18.0502,71.2221,61.6210,13.4252,-20.2612,-36.3763,-58.6651,-46.7478,74.8052,1.1669,30.5124
94.4392,85.0865,62.0777,62.1749,63.2992,8.8693,20.0846,-11.9077,-4.0382,86.5205,75.9484,24.8853,-10.8693,-34.4853,-42.5063,-36.2905,109.9608,34.7643,8.2594
81.8170,79.8404,19.4345,87.5641,17.0811,48.9948,-31.4808,0.5565,-34.2592,75.4584,60.5845,27.2918,-41.9901,-7.6499,-57.1445,7.3512,110.9433,47.6885,-45.7361
69.5429,63.0269,-6.9361,97.0735,-7.4564,75.4468,-89.9029,2.0741,-64.5632,37.7988,57.1386,32.2355,-45.3957,43.9517,-45.2066,64.9457,87.0082,53.0027,-57.6014
67.3355,75.0218,-9.1863,93.7086,3.0644,62.8408,-77.1905,3.5557,-54.3682,43.1295,49.0928,12.6251,-4.9915,58.0576,-1.2534,81.0200,87.7584,62.5006,-20.1460
81.7131,101.3712,3.2033,93.8838,39.3751,34.7352,-28.3581,21.6300,-20.4350,104.0186,54.1182,5.2783,7.3385,16.9219,-4.0303,22.6159,119.3693,72.0868,8.0102
86.8517,91.8260,20.8337,80.4743,74.8444,13.1186,-6.1864,26.2527,-2.3910,112.9870,72.5606,12.0158,-16.7679,-27.6373,-21.0497,-11.2537,101.9941,49.2726,3.0511
29.1090,14.3004,1.6940,22.1859,43.0182,-17.5556,-11.0000,-10.8679,-9.0957,61.1073,33.5238,-52.4865,-30.6331,-51.2987,30.9873,62.7584,2.0497,-20.9160,-28.0860
-66.2083,-88.6188,-71.1850,-55.2849,-46.4133,-57.3043,-16.7288,-49.3100,-6.9693,73.3623,-52.2367,-175.3855,-43.5402,-70.2407,70.1031,154.9390,-94.5597,-87.5472,-61.6668
-110.5455,-134.6349,-130.0766,-102.9067,-87.4732,-85.0186,-12.2438,-56.0992,13.5469,128.3616,-86.4267,-237.7912,-67.1665,-90.8015,0.4183,150.1723,-116.4413,-99.6955,-59.8928
-94.4320,-114.4692,-121.2543,-113.6585,-61.5481,-98.0213,-10.3043,-72.6381,5.7897,84.3318,-71.8590,-208.6094,-70.7945,-104.8088,-83.1204,57.0592,-87.8987,-80.2757,-35.9065
-72.0432,-89.0714,-76.1432,-100.4770,-39.0305,-95.8227,-25.8733,-117.5966,-40.8717,-27.7893,-69.6284,-139.2568,-58.7001,-92.6180,-86.2050,-37.0200,-52.1066,-72.1916,-32.2521
-46.3405,-81.5209,-31.5552,-78.1869,-15.4094,-76.5989,-38.5788,-134.0181,-67.8792,-74.8109,-46.6912,-67.9819,-60.8995,-48.3438,-82.1898,-52.5199,-33.5432,-73.8559,-22.2969
-7.1372,-74.4929,0.3317,-71.3743,35.5006,-60.7149,-30.0008,-97.8033,-56.7713,-56.0010,18.5164,-40.3707,-73.3627,-15.5637,-133.7433,-17.4205,-48.1613,-71.9592,25.2778
-3.4209,-75.6850,-9.5606,-81.2473,56.8523,-59.2539,-28.5250,-62.3870,-48.9340,-32.5511,30.6464,-73.1090,-88.0078,-29.2367,-163.2500,-41.0553,-73.8153,-74.8848,51.0770
-62.1981,-90.6951,-63.1073,-84.6793,21.0141,-64.3350,-39.7420,-65.1873,-46.8414,-17.3108,-59.5705,-107.4473,-99.6121,-59.3949,-96.2677,-102.4285,-72.5286,-88.3099,17.2070
-118.2007,-90.3040,-101.6680,-78.7309,-10.8256,-81.2501,-18.1356,-77.4605,-20.3989,-20.9439,-148.3192,-105.2840,-87.9254,-71.3807,0.7752,-79.3270,-55.5066,-99.2683,-12.0810
-114.7189,-69.6402,-94.7243,-71.8959,-13.1899,-92.9844,32.1587,-51.0300,20.6313,-34.9847,-144.3728,-87.3705,-65.4950,-57.0731,13.4932,2.2217,-58.7312,-94.1742,5.9985
-96.4168,-71.4356,-87.7336,-68.0007,-25.3714,-63.9033,53.3493,16.6680,47.5521,-12.4551,-99.3821,-63.7409,-61.5409,-9.6126,-39.0522,56.0668,-84.3342,-74.2040,35.7544
-111.0792,-104.2678,-111.4071,-75.6529,-46.5026,-30.4981,43.9997,66.2997,52.7233,50.6469,-81.7484,-39.8981,-49.9971,37.2156,-37.7754,113.8357,-101.5260,-47.1066,48.9659
-104.5501,-101.4434,-112.1800,-72.0970,-17.7586,-39.1682,46.8025,54.2765,42.9688,103.3918,-57.0746,-16.9735,-3.7280,31.5697,35.9682,153.9370,-70.7177,-14.2538,46.2864
-37.5396,-22.6424,-41.6492,-20.4377,73.6469,-32.6272,58.6829,18.0884,34.4989,93.4006,-7.7969,37.6982,45.2317,13.1486,98.9664,85.7328,8.4286,18.2529,30.8041
-1.4061,47.0454,21.9372,27.9206,129.5763,13.0779,45.8362,-2.4941,28.5837,7.0540,-14.4246,97.4531,66.3228,38.4676,118.8866,-16.3837,60.1831,29.4081,16.1063
-60.4205,1.8072,-33.3872,-6.9424,56.3721,3.1669,1.3494,-30.5813,-3.4137,-75.1769,-83.5177,64.5177,46.5791,44.4865,98.9296,-49.5523,19.9991,10.2755,1.0620
-118.2214,-104.9159,-146.8495,-71.4390,-69.2728,-61.6569,-50.9125,-64.0674,-60.6508,-64.7845,-99.4508,-38.8851,-21.7963,-12.7914,31.5103,-61.5905,-62.4737,-18.5996,-37.2960
-96.4517,-130.4139,-158.8913,-66.4063,-92.4521,-57.9824,-74.5814,-44.7103,-91.0642,-29.9989,-52.8488,-76.8035,-78.0888,-35.3140,-21.8188,-26.5697,-97.0254,-34.4412,-74.2191
-64.2655,-67.4601,-76.7848,-26.0916,-16.3416,5.0377,-44.1532,31.7545,-64.3632,-54.3862,-53.6810,-27.9653,-47.4435,21.5825,8.9560,113.5170,-75.0837,-30.4184,-47.9332
-74.1483,-22.5700,-34.6447,-24.8774,42.9724,20.2916,32.1645,97.9056,0.6123,-50.4610,-90.6299,26.4478,15.3249,58.0059,60.0564,173.1617,-45.4428,-11.1422,29.8793
-74.4831,-17.8637,-47.8348,-35.9594,68.2048,6.4093,105.8881,105.3843,60.9653,12.8774,-67.9172,66.1961,12.4170,30.1089,47.4394,39.6607,-32.5372,3.8881,70.7019
-37.4838,2.6586,-43.2392,-16.0941,109.4408,15.8825,108.1903,50.5374,58.1920,-8.1887,-7.6791,93.1922,-31.4977,-8.0862,9.3091,-47.1454,-22.6591,-0.3418,23.3919
6.0413,38.5810,-24.7051,16.4616,149.7734,2.2101,23.4849,-36.2063,-17.4091,-109.2795,26.2508,77.1386,-52.4681,-49.1356,-4.1756,11.4030,5.4247,-7.6907,-72.4876
39.5469,51.6287,-25.0052,40.9811,151.0228,-48.1734,-68.1223,-106.0058,-83.8278,-117.7637,47.3363,32.7201,-68.6849,-110.0218,-12.5789,-5.1640,46.4078,-7.8599,-143.2551
60.1327,44.4036,-23.9144,54.5242,125.8822,-77.0018,-96.0588,-149.5818,-90.5911,-49.6073,66.1924,8.0635,-111.1709,-158.9054,-31.8974,-96.0528,73.9437,-23.0734,-159.0021
72.2415,43.9595,-1.3333,56.6380,105.0310,-74.6627,-85.4038,-181.4348,-86.2317,-38.9276,75.7313,15.6621,-151.6512,-169.3876,-57.8629,-54.7016,89.0040,-47.0090,-137.8853
100.8034,72.2698,37.4261,69.8168,102.9872,-57.7379,-65.4794,-170.1920,-82.6134,-49.2821,100.4256,54.5583,-143.6543,-144.6738,-78.7278,21.3768,118.8758,-31.5631,-92.1336
148.7326,139.9926,80.1024,114.3536,110.6689,-21.6169,-21.6062,-109.7118,-32.0837,-16.7336,137.8587,110.9436,-89.3108,-106.3845,-68.5180,-71.7131,165.5086,25.3211,-33.0538
190.9647,220.5217,101.8962,166.2171,116.7009,9.4353,21.2640,-76.5433,27.6154,-6.6311,163.0395,140.2690,-54.1586,-99.1430,-46.1816,-192.9290,205.0827,68.4352,-3.0500
216.7367,261.2832,99.1160,190.1252,139.1176,23.0530,25.2703,-86.3991,20.9446,-30.0049,184.4532,130.7765,-70.0667,-108.3731,-60.7418,-129.7128,221.5807,75.2396,-12.0490
212.0563,249.3676,98.6315,178.5512,167.9999,52.7943,26.2702,-59.9119,-3.9545,-6.8818,180.6385,108.7347,-61.3529,-60.3217,-77.8140,17.6563,214.0923,76.0482,-5.5607
171.7038,229.2995,93.5141,152.2177,141.6211,82.6492,61.6755,3.1105,36.5405,60.7952,126.6908,75.1215,18.1836,11.6901,-37.6657,64.5315,198.7521,95.6374,30.2189
144.0458,230.0595,63.5162,143.6069,74.3296,75.3798,99.0879,37.6414,96.5620,104.3488,98.3197,42.8683,79.6028,19.3591,15.8959,44.9364,184.9507,122.5369,45.5368
149.6156,216.6414,41.3396,151.0918,55.8430,78.9946,105.1208,65.7800,91.3418,103.4777,134.3979,58.4030,63.4105,23.1988,23.1287,76.1037,151.9375,128.9063,38.8275
135.7849,164.3477,48.3076,139.4264,77.5540,121.3024,87.8556,117.6792,50.2698,91.8792,142.0225,103.8365,46.2937,101.5761,10.9096,141.0102,104.9777,116.0633,48.4660
94.4941,111.0802,46.1117,103.6788,63.3438,122.1970,68.8163,132.8267,46.9053,108.8090,98.7065,92.6903,78.2697,153.1811,13.2622,161.8175,78.8528,105.9441,50.9626
59.3321,65.5071,26.3991,55.9321,30.5220,53.4195,60.7305,99.0708,64.1349,133.3674,64.2361,-0.8651,102.0129,100.8337,22.0266,144.7223,40.5708,74.7896,12.9005
3.1180,-12.9116,25.3482,-13.9345,27.4823,3.6904,44.2952,95.8712,42.3179,101.5695,-3.0223,-102.5378,86.8513,53.0987,29.3602,107.0492,-52.3835,-3.7364,-13.3840
-72.8476,-89.0686,36.6040,-79.9872,28.8618,17.3502,2.8178,125.9134,0.4354,35.4213,-109.9689,-131.3033,73.3699,74.2074,37.9070,10.6444,-124.5675,-62.3456,25.9540
-99.3120,-105.9845,23.3109,-98.8806,-0.8695,31.3814,-26.8186,107.1308,-6.0536,13.2600,-130.9718,-99.9137,72.1066,74.6203,57.8321,-96.7600,-124.7723,-51.2051,79.7295
-116.9732,-151.5986,-26.3635,-124.8759,-77.1204,-21.5787,-42.5862,28.8263,-4.5906,8.8007,-98.1299,-106.2541,38.6998,13.2875,74.4904,-92.3913,-154.9225,-63.5888,68.6910
-221.0349,-300.8604,-104.0723,-218.7696,-199.3156,-121.0783,-108.7225,-40.7002,-46.7116,-38.6245,-180.7299,-182.1809,-36.5957,-36.0427,25.9803,-12.4083,-252.2560,-153.6564,7.3006
-317.0917,-398.6683,-160.2065,-284.2462,-284.7677,-159.0632,-181.5374,-51.3371,-74.9870,-71.5181,-298.7896,-217.4333,-81.5439,-18.3566,-64.8655,7.8611,-286.6050,-199.3482,-19.1462
-264.0699,-307.4057,-118.4140,-220.5806,-246.5518,-78.7746,-135.9853,-1.9301,-12.2660,-23.3695,-255.6430,-135.2080,-33.1343,48.0826,-49.7891,-7.5173,-212.1821,-131.5902,34.4743
-146.9380,-168.3681,-2.9267,-118.0256,-158.3175,13.0672,-27.0438,62.3217,73.9701,48.4413,-132.7929,-25.0642,58.1902,108.2738,81.0763,31.8101,-136.4608,-58.8092,120.6770
-102.5656,-137.1819,61.8017,-88.8486,-142.6145,13.4121,-13.1453,85.0364,70.5863,60.3759,-93.6790,11.7237,100.9326,123.5213,138.6124,84.2450,-108.6329,-41.9090,151.8092
-85.9620,-139.8971,43.2470,-83.0329,-173.8260,-6.8590,-74.0968,66.6389,1.5665,15.0446,-78.2267,-0.6823,91.5023,111.8233,70.6156,76.1187,-90.9808,-19.3904,99.9136
-30.2041,-97.3386,32.0459,-39.1663,-173.4579,23.6691,-107.4680,44.6709,-45.3568,-25.2581,-13.6165,-6.7596,72.5177,102.1172,16.1847,5.9156,-72.5678,14.3344,33.1659
7.9291,-79.5593,59.9752,-16.5861,-156.7333,30.9837,-122.1108,20.2715,-64.8835,-21.9598,23.1987,-1.8074,54.3011,83.7045,10.1530,-84.1330,-56.1453,11.6443,26.2589
-14.0344,-117.5080,69.0693,-54.8694,-165.2294,-20.8439,-129.1457,-14.7884,-79.9236,-7.4531,-1.4805,5.9101,53.8036,58.4899,0.4161,-113.5350,-40.3574,-3.9391,58.6724
-43.6832,-133.0656,55.4829,-80.2864,-189.6147,-39.7106,-93.7012,-23.4772,-67.4290,-15.5263,-28.9464,11.9420,85.1126,59.1180,30.0028,-71.5997,-42.0397,1.2183,66.3023
-31.9555,-95.0467,73.3054,-40.6748,-194.6119,9.5483,-44.4531,23.3585,-23.6489,-3.9253,-34.1128,13.3629,100.2586,80.9062,100.7083,-83.6228,-53.0683,0.9704,60.0766
5.1498,-54.9140,115.2598,1.6976,-150.4701,48.8467,-4.9124,86.4055,15.5379,49.4670,-18.7442,20.3709,69.1126,86.7943,100.8833,-183.4646,-49.2967,-14.8496,92.0251
21.8944,-35.7802,127.8880,-13.9689,-69.9709,29.9808,65.0854,104.5103,47.5470,69.4598,0.4213,24.0938,46.5193,61.8820,35.6713,-246.8487,-46.1083,-26.6640,142.8580
3.9721,0.3813,112.9936,-42.7132,-10.5556,-20.7196,135.5704,67.5441,91.8550,22.2696,-36.6092,-15.6221,60.9828,4.8666,29.0010,-237.6045,-38.8207,-42.9371,158.4280
-13.7069,69.6786,108.4879,-28.9220,-1.1124,-67.2403,137.2510,16.8467,131.6207,-8.0399,-126.8496,-102.0142,69.9909,-70.3148,78.9143,-187.0048,11.3945,-68.5114,149.6937
-6.6010,114.8414,112.9010,-8.0539,-21.7375,-90.7603,110.3256,-6.6463,148.3044,33.3493,-163.0147,-173.5707,67.3115,-115.2052,96.8961,-72.5439,64.1905,-75.0857,155.5726
8.7335,97.7535,107.4365,-11.6550,-50.0178,-82.0811,103.6501,2.0360,151.2461,84.8880,-106.7666,-168.1928,81.9718,-102.6330,96.7930,-1.8230,53.4786,-50.3616,164.6176
30.6370,84.9735,100.8204,12.5656,-54.5620,-41.4211,75.8635,19.4296,131.6249,71.6764,-36.5584,-86.9259,89.2029,-69.8129,122.8980,-118.5326,32.1052,-11.6945,144.2306
70.9955,124.5522,100.3733,76.4417,-2.8230,5.1419,30.5268,21.7466,78.8797,18.8577,6.4397,-2.9850,54.7027,-58.3875,135.5559,-244.9553,62.1300,16.7623,99.4978
90.6089,138.6845,90.5251,95.3131,74.7726,14.4851,24.9928,10.6207,37.1687,23.5435,30.6620,12.6198,12.6245,-60.4421,109.9788,-151.4569,86.6930,12.9770,67.4763
45.5300,76.5708,60.7028,45.7220,112.3420,-10.5970,27.2127,4.7995,37.4619,94.6547,7.4852,-13.3310,4.3706,-47.7228,95.7366,24.5851,67.7302,-13.0904,62.0339
-19.4250,13.9549,19.8788,7.6536,105.3256,-25.0897,-19.8469,-7.0953,28.3813,114.2171,-52.0536,-10.8118,1.4824,-25.3768,99.6540,97.8611,56.1505,-27.1812,41.1660
-29.0200,-4.8856,-7.6330,7.3004,103.5932,-33.9016,-72.3780,-56.2438,-20.7480,48.9274,-54.2832,4.7159,-37.6124,-33.4544,61.2309,114.8217,55.6998,-36.8531,-23.6397
-0.9431,-29.7607,-7.6708,-8.3861,131.1797,-71.9984,-79.4502,-111.8221,-54.0588,11.3083,8.8902,-21.2971,-86.8419,-81.8886,-6.4903,95.4653,16.8634,-70.9804,-78.4196
-12.4020,-71.9543,-16.2686,-44.5629,155.9780,-106.9389,-74.8988,-105.7209,-47.8684,24.3266,24.3853,-66.7627,-98.7200,-121.3537,-7.2155,34.9855,-49.0874,-103.5930,-81.5560
-64.8453,-94.3775,-74.5283,-56.6520,135.1546,-96.4452,-98.9773,-64.4765,-61.1888,-0.7813,-28.6446,-86.8161,-95.0393,-122.9204,54.7134,40.8224,-91.5610,-99.3513,-91.1861
-80.8189,-91.8666,-140.1176,-38.2236,91.6085,-71.4221,-136.3643,-76.5668,-116.0690,-50.7721,-45.1892,-87.5817,-122.4266,-114.8676,50.5122,80.0847,-85.8388,-76.7117,-143.9021
-44.4648,-69.8632,-147.9213,-20.1730,84.8765,-61.7747,-152.4214,-127.7168,-157.0249,-74.5076,-12.8264,-82.1028,-149.9846,-108.9788,-51.2902,7.1792,-41.2628,-56.6285,-177.5063
-30.4344,-37.2399,-118.9868,-25.6268,96.4883,-58.0974,-138.2466,-132.4090,-147.7545,-118.5084,-27.2114,-80.2294,-123.8799,-94.7831,-125.0842,-76.9245,-10.5839,-41.3656,-159.7025
-54.4257,-22.0121,-94.5448,-43.7288,78.0466,-62.6694,-109.5200,-90.6940,-112.4249,-165.5464,-81.6386,-94.4627,-77.0968,-88.2070,-105.9010,-32.9343,-22.4157,-43.4256,-128.1981
-40.3222,-12.1158,-63.0540,-34.7282,68.3493,-62.3895,-67.4016,-65.2265,-91.4813,-127.4703,-74.8091,-87.1717,-70.5092,-88.8991,-81.3692,-2.6152,-13.2662,-48.3737,-98.9939
16.8818,15.7372,-37.1315,-0.1465,87.3273,-31.1676,-9.3136,-71.0955,-105.3755,-79.3761,-8.6005,-30.0462,-95.4659,-69.7727,-129.3891,-73.5274,37.4851,-25.9887,-89.2711
27.5997,2.0933,-58.9981,-4.7335,53.1717,-8.0383,17.2054,-82.5581,-140.1447,-129.6664,25.3246,0.0156,-117.2246,-45.5111,-216.9241,-91.6290,28.4287,-8.7199,-134.5910
-24.9176,-86.9904,-107.0281,-62.2295,-41.0627,-27.6088,-20.1314,-77.4172,-158.5596,-173.3567,8.9438,-43.3181,-125.4262,-34.8568,-272.2047,-20.5255,-61.1173,-28.9553,-189.2372
-60.8848,-143.8362,-127.7379,-92.7775,-88.4627,-30.2811,-43.7622,-50.5368,-136.4037,-121.8634,-1.5519,-54.9991,-111.7276,-7.4216,-261.3812,12.7184,-103.6417,-32.2384,-170.4468
-42.1769,-93.3100,-113.0627,-56.6314,-74.9329,8.6397,11.2850,-29.0662,-84.5983,-92.1803,19.9265,33.6136,-82.2682,32.7628,-206.4120,-5.3980,-54.7741,10.6949,-99.9729
-8.7288,-28.2693,-81.7178,-16.8901,-82.4543,16.8806,63.7405,-43.8015,-47.5728,-142.6992,47.0547,118.9146,-69.3543,37.4558,-169.4397,-12.9049,-7.1302,36.1732,-46.5788
4.7705,-25.9233,-58.0663,-20.9261,-113.6396,-10.9440,40.3276,-76.2999,-58.7455,-177.3605,54.5452,113.2715,-73.1807,22.7989,-185.9064,-4.5822,0.2407,26.3894,-19.9561
19.7960,-20.9357,-47.7456,-24.0540,-111.8709,4.7823,18.6232,-82.2141,-74.5139,-164.7814,71.0406,88.0810,-53.6274,39.1709,-203.1713,12.2329,6.3240,40.3335,-9.4156
58.7474,24.5005,-20.2273,13.8452,-86.9699,61.4640,61.1992,-50.7616,-33.5915,-148.4774,129.7105,127.5278,-11.0277,72.5241,-146.9042,15.3853,7.0609,75.2794,-5.9198
70.1669,27.5625,3.0834,43.3734,-99.4756,87.0131,90.2228,-6.2165,16.0404,-128.8702,164.9368,181.2691,2.5271,87.7900,-50.2846,-23.6466,-27.5702,75.7500,8.1137
15.8688,-28.1872,-37.6645,25.4796,-148.5086,82.0984,54.0915,35.4091,4.1308,-93.0156,105.5403,161.9296,-20.7810,89.7373,-8.5335,-64.0828,-65.4014,56.3784,22.0143
-19.3507,-27.5285,-73.1480,22.0040,-145.8574,97.1095,26.2260,86.0709,-4.4565,-31.6466,32.5044,101.3465,-15.0604,94.3632,-1.8970,-58.5392,-49.5478,65.2029,25.8167
12.9386,40.8105,-9.7295,62.1847,-67.6294,121.9034,49.4219,140.9847,58.3413,57.5636,26.4539,84.1473,45.7614,104.9639,64.9191,-14.6533,-1.4140,79.5747,43.1091
12.2054,47.5508,51.3578,69.2935,-27.9126,113.0487,72.3383,158.4884,115.1397,125.3050,11.0902,95.4589,90.1176,113.0292,161.3018,73.0656,12.0124,58.7831,64.9408
-26.4890,12.0954,30.1441,46.6955,-51.3256,93.9110,83.5285,142.2489,110.7437,150.2399,-29.3524,90.9514,78.8873,111.5310,191.6498,172.7128,11.6276,38.1266,69.4362
30.7870,72.5562,51.7360,89.4858,0.9321,112.2096,113.5124,142.8179,101.2146,176.0704,20.1935,103.3952,74.1923,107.3847,183.7799,163.0600,61.5327,61.7899,82.2685
129.5195,150.5489,127.4562,143.3861,115.0803,120.4522,111.5798,130.4008,83.3582,173.2835,114.9206,119.2756,94.0600,85.3769,185.2954,31.7328,104.1257,82.7237,80.8152
98.3854,84.6258,96.2077,88.3996,111.2845,58.1277,27.6215,49.7839,19.0772,100.1735,99.8363,51.5102,73.5620,20.9701,145.6706,-58.4494,51.4361,45.3259,2.8449
17.9865,-9.7542,11.1635,13.0924,25.6939,8.2920,-48.2221,-18.8705,-10.5096,65.2312,37.1908,-50.0673,31.0948,-31.1457,83.1223,-28.4322,-16.9456,1.2577,-76.4866
50.1476,38.8622,50.9965,47.1523,45.2882,58.6393,-29.7010,4.9526,51.0117,134.0023,63.2272,-41.2717,51.1691,-0.5799,99.7749,35.9332,14.8402,17.3449,-43.1912
114.9730,126.5485,141.2838,106.5651,134.2955,117.4908,13.4280,37.8454,101.6280,183.6646,110.4233,41.2356,102.2232,56.2585,157.2997,77.1913,90.3925,53.3449,33.4581
104.7710,117.3113,136.4413,92.4127,149.5967,91.9726,10.9590,22.0523,76.9172,163.6020,93.8612,51.2246,98.6015,53.8400,143.9951,98.5823,104.1109,49.3275,45.3312
73.9082,71.2676,87.5853,59.1773,112.6778,45.8342,2.4893,27.8164,41.4440,154.9069,62.1489,-5.1690,60.8139,20.2794,91.4718,71.3411,68.2290,25.6365,24.1947
48.0959,49.7059,53.4196,43.0056,89.6293,21.6301,1.1830,54.7101,29.2373,139.1754,25.9436,-38.1341,39.0266,-2.3588,64.5061,-3.8791,40.0576,12.8525,13.6419
-1.9494,30.9230,12.0270,15.5060,70.0579,-18.3616,-25.5579,44.1585,21.7774,75.9971,-44.2265,-47.1443,20.2966,-26.5333,38.1249,-42.3069,32.4601,-1.4703,13.2424
-49.9257,8.9218,-15.5106,-14.3270,44.1382,-49.6975,-44.5070,34.6602,24.1091,41.5437,-112.6094,-66.3369,-5.2723,-38.2065,18.3459,4.5884,24.5240,-28.3525,43.0057
-92.0619,-27.5067,-29.4253,-45.2072,8.1841,-55.1293,-20.3065,38.7110,33.5630,51.6007,-163.0000,-92.8082,-23.4744,-32.4157,31.8626,76.6528,-3.2245,-62.9270,72.2372
-133.8745,-75.5800,-56.6241,-92.4227,-19.3101,-101.6566,8.8006,-11.8440,44.4398,41.3807,-190.9581,-112.2701,-28.6266,-57.9499,25.7791,114.3054,-27.8544,-92.5552,50.2334
-116.5126,-81.3178,-41.6320,-122.5815,20.0536,-175.8569,21.7177,-79.2770,67.4656,27.0770,-143.4257,-112.1249,-13.7045,-107.3170,-19.3428,125.8848,-24.0470,-100.5564,37.7294
-73.7886,-63.8730,3.6927,-127.6797,76.8340,-192.7107,19.1227,-89.3180,62.3344,2.5593,-83.6170,-104.8674,-1.2176,-124.5671,-47.7845,103.2726,-28.3206,-98.5318,66.3904
-119.9076,-91.5177,-51.3309,-142.0841,21.5475,-180.2731,-42.2433,-106.5367,-11.4413,-100.0312,-153.7348,-123.6328,-39.2111,-126.2182,-73.1817,11.9040,-49.0559,-106.3331,32.3228
-183.5159,-111.2070,-161.1326,-134.8261,-91.7066,-185.8468,-147.9026,-161.1837,-83.8388,-206.1656,-257.4262,-150.4536,-92.8765,-135.7104,-129.8003,-94.9331,-30.9415,-97.8202,-68.9790
-125.1483,-67.8944,-143.0971,-82.9106,-103.7409,-154.6113,-186.0008,-157.1851,-90.1718,-206.4095,-192.0633,-140.6167,-77.8971,-112.5389,-155.4065,-121.4065,-7.4525,-59.3656,-108.3667
-33.0661,-52.2741,-40.4809,-64.6463,-44.6584,-93.8694,-132.4262,-103.7482,-83.9342,-188.2418,-42.3155,-113.7592,-20.4323,-68.0948,-121.4797,-101.2409,-64.4864,-42.8763,-89.5686
-39.4942,-110.4363,-19.0143,-109.5732,-34.7787,-92.0417,-80.7332,-99.5068,-103.2166,-225.9375,-4.5511,-104.8866,-4.7801,-64.9581,-96.2757,-130.0518,-147.4712,-67.8238,-101.1760
-75.7200,-150.4557,-47.7728,-137.3580,-58.2102,-117.2344,-51.8974,-106.3242,-102.4374,-213.3801,-34.0353,-90.6892,-22.0874,-78.0361,-95.8900,-172.5209,-157.9849,-81.1647,-97.1074
-50.3213,-122.6374,-25.4220,-109.4736,-52.5926,-80.0637,0.2801,-51.3372,-68.7899,-117.2413,-13.1850,-53.9202,-34.2399,-49.4003,-92.9672,-147.9029,-119.9876,-64.0508,-21.2772
3.7995,-64.8393,15.8599,-56.8495,-28.5666,-18.5463,39.1004,5.7111,-46.3547,-46.8123,25.6315,-22.6109,-62.9281,-10.6850,-116.1017,-101.0555,-74.6106,-49.2690,46.9007
40.8461,-16.7095,21.6727,-6.4385,-13.7963,1.1393,15.2287,12.4643,-57.4243,-31.6820,40.0588,-4.2104,-104.6062,-4.3522,-157.0586,-95.9943,-20.7678,-37.6958,52.1345
55.7060,1.7858,6.5754,20.5140,-12.6364,10.7370,-12.1127,15.9929,-80.5737,-24.4289,60.8298,26.8224,-106.8775,-3.0733,-141.2684,-93.1724,9.1610,-6.4485,47.1921
54.3430,9.4571,-11.6406,29.2312,-24.2946,40.6924,4.2484,36.1332,-82.3301,-26.7895,81.7789,61.6892,-80.8581,12.5588,-87.5429,-65.5877,5.7230,29.2171,54.3376
44.2500,22.1954,-30.7836,42.7796,-55.5907,55.3213,0.9033,31.9189,-66.9595,-47.2477,59.8637,50.9589,-93.9438,16.3974,-89.8805,-49.5158,5.0520,26.1295,32.1918
