Fp1,Fp2,F3,F4,C3,C4,P3,P4,O1,O2,F7,F8,T7,T8,P7,P8,Fz,Cz,Pz
7.2223,-121.7885,3.3010,-115.9142,5.9636,-57.6244,38.0662,-22.7789,28.1660,-17.0140,33.0987,-337.5793,24.7086,72.9354,97.0212,-21.3978,-42.3368,-89.2577,7.2422
162.7911,133.0106,311.2793,229.2161,339.5333,210.2216,130.0753,-138.3329,140.9059,-108.4211,191.2744,453.3978,234.9106,103.2914,172.7688,11.9654,144.3546,303.9153,187.8807
205.6439,263.4200,419.4499,375.8952,464.9797,328.2645,164.7795,-140.5791,178.2184,-99.0132,221.9852,830.6953,291.0761,90.2153,173.6816,20.5248,219.4136,463.9855,238.5211
106.4873,245.2804,243.7798,296.5263,237.6684,266.1622,48.7296,-83.8229,59.6611,-122.1954,82.7937,656.1047,124.4559,39.7390,32.8086,-23.1531,152.5193,346.4368,69.6576
24.5636,214.1073,80.8108,255.2364,-24.4196,225.6016,-92.1607,-126.1449,-78.3385,-272.3465,-25.1909,529.6453,-14.0710,10.5210,-129.7570,-61.0606,82.5708,292.0617,-77.2812
11.4818,214.1758,55.3101,286.8918,-94.0615,217.3802,-103.8495,-186.0063,-92.8694,-333.9910,-34.8299,588.6529,-26.0900,23.9762,-207.9648,-60.9508,55.8510,326.9169,-69.9300
-2.5180,256.0989,59.2128,300.8294,-58.7484,186.5220,-54.3693,-162.5424,-52.0660,-255.1042,-51.2869,606.9548,-36.4700,47.5854,-256.6209,-63.7400,33.8076,311.0683,-48.6495
-30.5867,322.0983,59.6665,333.5512,-23.3230,222.6545,-64.4955,-156.0522,-65.7977,-247.0081,-91.6149,644.3846,-72.3593,60.5118,-323.5291,-77.7663,21.0945,336.2541,-68.2146
-57.1277,310.7860,61.2986,372.2084,4.5009,306.4873,-99.6294,-183.3705,-98.4198,-273.8517,-116.9604,728.8501,-90.0576,63.8667,-350.4957,-74.2517,21.1839,420.0783,-48.3181
-96.0159,235.8529,28.9826,342.1790,26.0841,288.2776,-125.7768,-128.6172,-119.2760,-168.4960,-151.7135,700.0593,-121.1037,46.4408,-323.9431,-68.5480,6.0013,403.0651,-27.5489
-122.3526,248.8611,2.4178,301.1838,58.9043,197.6189,-187.5893,-47.1641,-177.7762,-59.8645,-181.7482,620.2031,-152.8270,9.9978,-309.7180,-77.2558,-15.5279,310.4416,-65.0588
-100.7973,324.8534,32.5480,304.2425,119.4548,150.7236,-225.0704,-67.7271,-215.3905,-87.9397,-154.4199,616.9772,-124.0514,-16.8552,-306.8260,-67.6533,-10.0315,266.4025,-69.9236
-72.1646,294.2173,65.8260,276.7442,159.1293,118.5502,-141.0275,-106.7883,-121.5495,-114.3877,-118.0279,585.8297,-86.0677,-32.6978,-261.5438,-25.0262,18.6423,241.8554,4.6731
-79.1106,185.0473,57.6254,214.6197,127.2203,85.0446,-27.5890,-22.0939,11.3533,-24.1582,-142.1327,497.3611,-113.5793,-48.7631,-198.6758,25.9682,46.9639,221.9142,62.8088
-80.3255,154.1291,40.8624,208.9480,65.6970,115.5666,-7.6272,144.0499,30.4141,124.0739,-167.0021,481.1365,-143.0215,-33.1881,-168.7241,71.8221,68.3981,247.9392,74.8309
-31.1127,187.3949,43.8681,236.0210,56.1854,157.0159,-2.7564,253.1103,11.1408,240.5420,-107.9105,504.7811,-88.9009,11.0093,-132.9694,96.3895,89.9080,244.7004,113.1796
40.8044,166.2933,77.3600,197.1944,105.9343,107.6540,88.3508,246.9769,90.5817,248.6904,-1.5384,464.0814,15.1004,-3.7817,-35.1069,73.7847,120.7380,157.2370,194.4708
87.7809,93.0570,139.3664,106.0469,153.4477,20.2913,201.3339,193.0770,207.3770,184.7824,61.3860,411.5028,87.6768,-86.7508,87.2957,28.7152,157.9618,81.2668,275.1824
101.1144,69.0074,190.3367,65.8522,173.5687,0.2953,237.1935,183.1707,236.7488,187.4272,57.1025,406.8692,97.8338,-111.7398,143.4938,17.5808,185.4691,83.1972,311.3008
105.1241,133.0597,210.5262,127.0484,191.6325,66.0414,180.1266,186.4791,170.1166,207.4629,32.2641,429.4541,71.8310,-40.9288,90.1115,36.2263,207.1170,138.4022,267.7811
121.9321,205.1653,218.3092,223.3495,191.7404,177.4180,67.1898,128.2427,58.2039,100.6594,32.6330,476.5425,55.5202,2.2599,-26.1375,33.2057,241.7748,205.0201,177.8144
135.4828,202.9985,196.1553,248.6097,133.6210,242.7372,-40.7310,75.6669,-51.6159,3.8135,47.4993,523.9128,56.4865,-42.3341,-108.6667,0.8585,260.6103,207.1385,116.8031
107.7821,171.8777,127.9487,203.7691,56.5676,190.7133,-110.5410,112.9655,-123.1523,85.7245,36.4985,521.0332,42.5531,-92.4175,-120.1135,-18.6855,203.0274,125.2521,64.7641
44.1106,191.7511,63.2745,177.6770,22.9168,101.1451,-155.2189,154.5440,-151.7785,179.9771,0.3968,494.0086,9.0427,-90.5414,-120.4567,-3.7310,82.8810,65.3014,-32.9948
-11.1609,215.5990,25.9570,181.9695,1.7192,83.7972,-154.4113,124.3022,-132.5884,147.0304,-29.0103,487.2527,-18.6145,-67.0060,-151.5744,22.8269,-15.2050,69.8083,-111.0274
-45.2676,173.6808,-20.5913,166.5756,-48.0582,107.8399,-81.2371,110.7259,-59.0593,141.2261,-49.7006,486.0534,-38.3601,-49.8857,-170.1859,42.8961,-56.7296,78.7280,-97.5033
-67.8329,141.4308,-65.9475,155.7594,-69.3636,130.5809,2.0871,173.4070,17.5317,235.1429,-68.5356,487.9658,-53.5104,-31.6074,-146.3516,76.7673,-65.5780,107.9610,-53.6591
-59.1007,202.0261,-64.5796,190.7106,-12.4387,181.1804,42.8428,237.1114,57.8661,290.1516,-57.5984,500.9647,-40.7860,-8.0126,-111.6996,137.7715,-42.5235,174.6157,-38.6023
-14.8065,259.8265,-32.2134,222.2914,61.9824,212.5341,86.9412,238.9707,111.2036,246.5148,-1.1832,490.3544,8.1527,-1.3519,-78.8198,184.5866,1.0923,190.9486,-23.8235
18.1196,195.8278,-3.5565,202.0778,89.3334,153.6987,139.9304,182.7338,179.4236,152.6311,62.9123,447.1865,64.8627,-31.2051,-35.3734,165.2104,10.4165,152.9831,-12.3893
23.9726,97.9523,31.0948,178.5033,103.6818,98.0581,134.7619,89.1908,174.0250,42.2632,94.3639,418.1154,101.0088,-57.9157,-8.3419,93.5513,-3.8615,166.0037,-37.7105
38.6130,124.9147,74.3520,208.4783,146.7246,159.3229,95.0813,13.2708,118.1734,-20.5603,85.8901,430.5357,99.3814,-16.7522,-18.3183,43.5914,34.2411,226.5759,-54.8554
54.9618,227.2984,95.2976,255.9961,175.5664,257.1791,110.0581,24.3076,140.0356,36.8361,42.9961,473.9117,55.6667,64.7783,-19.1510,64.1518,103.5869,254.5208,0.4677
41.0305,239.2348,88.8427,253.3154,156.7337,271.1991,167.9343,120.3413,225.8941,179.8721,-4.4458,519.0190,10.0636,88.7843,20.2757,122.8014,120.5866,246.3107,102.4951
31.8897,175.3573,94.5408,218.2839,147.9388,236.8984,191.0071,216.1702,249.5811,274.5177,-2.0893,528.5599,19.3884,43.6295,52.9765,157.1523,107.5700,233.6893,171.4652
60.9423,166.9548,125.9225,215.7345,168.8146,233.3830,161.1265,219.7962,199.4522,212.1592,49.6717,497.4946,69.7436,10.8419,42.5434,157.6871,114.8065,235.8382,150.1904
76.0554,194.2451,122.5465,226.0368,123.2372,239.6932,103.5678,133.0022,138.6121,56.3925,78.7435,451.8724,89.6862,17.9474,18.0360,151.6691,94.9882,253.0427,41.6308
41.3638,170.6273,37.9157,195.1661,-9.7342,209.6731,26.3057,72.4095,56.0387,6.1742,54.4540,415.2888,60.3763,12.5802,-5.5222,144.3661,27.5618,239.4712,-74.5799
-2.0892,145.2053,-57.1264,170.7994,-83.1509,178.4698,-64.4190,121.7478,-55.2336,113.8961,23.2248,419.8680,27.9255,-23.6043,-57.0154,135.6903,-23.9161,197.6733,-106.0145
-40.0064,161.4709,-72.0246,202.3779,-24.6654,198.4210,-127.6068,210.8113,-111.6144,219.8760,0.2016,462.4017,5.0318,-44.9299,-127.2997,134.9169,-55.6412,205.8854,-53.3702
-98.4955,141.2297,-48.0070,212.1390,33.2785,220.9217,-123.5501,237.3104,-71.5090,234.8153,-57.0395,461.4708,-47.0101,-32.5604,-157.4898,126.0881,-103.5499,239.5511,-2.8944
-154.3593,85.5004,-72.3610,155.3153,-13.0351,165.3989,-90.9197,212.2792,-27.5590,216.2122,-144.9972,395.0080,-128.5519,-27.5174,-139.1066,100.4087,-125.2378,214.9315,-13.2451
-170.9246,99.5761,-126.8158,127.2951,-85.0655,86.0121,-102.6502,192.8586,-62.3702,195.2121,-198.6745,363.0091,-181.2142,-43.4189,-143.4723,95.2941,-100.9387,190.7425,-57.7811
-170.9199,160.6512,-152.6531,170.9779,-96.3849,99.8686,-148.4772,186.4696,-129.5253,179.0748,-195.5610,390.1398,-181.6774,-31.3540,-218.5190,114.7546,-105.1437,220.8765,-90.0366
-179.0347,161.9058,-157.5955,206.1053,-95.2068,174.9660,-186.9641,186.4919,-169.8680,193.2427,-181.8798,385.2975,-177.1966,14.9942,-313.0296,109.7604,-149.1425,217.6959,-118.1565
-171.2341,123.4584,-165.5547,200.5248,-138.7584,191.1310,-241.3222,199.3094,-216.2960,202.2686,-179.1274,347.5907,-187.9115,19.7121,-341.6813,92.5408,-146.6909,176.2237,-158.4583
-119.5692,117.5117,-153.9085,191.3906,-157.2662,147.3974,-296.8071,201.9030,-276.5859,166.6711,-139.1820,349.1784,-153.7805,-46.2422,-291.4427,114.9131,-71.2650,173.3553,-159.7658
-21.4743,134.8915,-82.5931,181.3860,-61.7971,114.2030,-258.3848,162.1447,-253.6312,136.4664,-27.8479,365.5994,-39.5973,-109.0642,-210.1307,142.3663,29.0982,146.0236,-65.3201
97.8873,156.4596,50.6224,170.1163,93.3434,95.6681,-117.2941,120.2479,-100.3662,154.7945,101.7798,354.1959,90.0049,-108.3679,-110.5399,120.3957,125.2098,66.0718,91.8634
185.5784,184.0352,183.9940,184.9005,200.9518,88.4666,30.8488,142.9591,73.2367,188.9500,176.1776,361.5633,168.7318,-60.1382,22.5662,81.0666,203.7504,87.3724,227.2979
216.9960,195.6018,252.5573,220.6896,268.6935,125.6834,121.6416,169.2324,136.2964,170.0426,198.7177,405.8724,210.4782,-3.4841,135.2724,52.7302,257.1563,224.9249,278.3919
232.6140,194.3472,273.6961,250.4447,331.4967,183.8847,119.1444,68.7997,82.8062,38.3971,218.5987,423.2513,242.4311,28.7829,148.2050,11.8086,298.4060,298.9995,230.6551
260.4008,209.1153,289.0306,263.7056,339.9525,199.9721,33.9286,-104.8573,7.1258,-141.2008,250.0683,388.6739,262.6028,20.7987,104.2570,-23.7886,317.0116,288.7613,147.2244
269.1992,219.9379,280.3389,252.9779,303.3621,188.1896,-4.0876,-170.9750,-4.4044,-209.2072,276.4344,358.7828,282.5684,-4.4575,115.9835,-23.9104,290.7327,312.1324,117.4404
251.2097,215.7525,258.2281,241.1725,338.9818,214.4456,76.7471,-149.5624,51.5988,-186.9069,286.9259,394.3798,310.3812,-17.0431,177.6937,-32.0129,270.2640,373.6952,142.3017
255.2827,242.0857,302.9915,278.9155,461.6104,283.1408,153.2562,-203.8993,122.5629,-235.3242,282.8215,484.7031,320.0659,-14.4065,198.8362,-83.7924,324.1886,435.1275,179.1609
294.8484,288.1524,408.6115,345.6499,555.3859,332.3482,152.0864,-307.4015,177.8677,-325.2867,279.4971,540.0715,309.5204,4.1615,170.7492,-143.4197,408.2324,495.6365,232.5217
317.8812,294.7018,462.5916,367.9575,568.9780,322.6369,150.1415,-333.7380,200.5779,-345.3667,287.6118,505.1763,308.8167,36.4896,133.6897,-183.0110,422.3948,508.7299,265.2456
295.3117,288.9990,431.6700,344.6645,523.3656,284.6732,144.5776,-326.6612,157.5963,-352.2191,283.6273,453.0630,306.3994,56.3481,75.8848,-198.3978,357.1514,449.0284,195.7155
250.9230,302.6603,374.3574,310.5394,412.6658,254.8733,82.2430,-351.2032,68.5326,-371.2225,241.7993,461.5086,269.2700,51.6736,3.7057,-171.6131,273.9837,367.3944,82.2554
194.6077,255.5876,297.1235,247.7860,254.2000,206.0967,35.1053,-331.7277,11.0922,-325.1918,175.0209,475.5726,207.4122,37.4768,-22.4014,-120.0188,199.4066,277.5339,53.9412
113.7198,129.5448,182.7513,160.5225,113.8883,121.4079,34.7528,-262.6613,-8.5582,-287.3703,103.4174,418.7922,137.4393,15.0787,-10.2259,-90.8255,121.0261,177.5185,61.1915
25.7200,61.3202,76.7174,110.3352,23.6009,64.2580,-21.2355,-258.3542,-59.1830,-343.2679,28.0290,331.2904,55.1387,-5.2610,-38.2639,-71.7794,37.5861,119.8429,-17.1825
-42.0975,100.9099,7.3773,108.3001,-33.2080,62.5527,-127.0992,-305.3145,-138.4932,-357.6423,-48.7857,289.9507,-28.3346,16.0501,-104.7495,-31.6872,-38.5265,97.6585,-137.0874
-95.4617,127.5886,-63.0244,106.3145,-84.1975,44.9212,-162.0707,-284.2071,-167.4059,-258.8885,-118.8118,293.2682,-99.6271,64.4334,-132.7709,-5.2871,-91.9800,43.2876,-202.4541
-129.6891,93.1739,-135.8804,88.9737,-146.7261,-12.5881,-130.8352,-202.7109,-123.4464,-178.8597,-164.8498,291.9623,-155.2662,57.2637,-117.6088,-17.6047,-102.1089,-21.3772,-221.4025
-113.0745,82.4929,-155.9671,68.6028,-197.4263,-50.1160,-121.6367,-156.4727,-74.3111,-156.6053,-161.3943,264.1732,-170.2804,-26.6709,-128.4938,-27.9877,-65.6338,-41.3878,-218.2213
-58.0322,114.7862,-113.5314,49.3814,-204.4519,-63.5743,-143.3320,-159.2109,-83.3494,-135.4799,-122.2933,226.1333,-139.5985,-110.8303,-181.5958,-28.4607,-11.0188,-39.2194,-188.9076
-9.9540,122.9396,-48.9428,48.3681,-182.2399,-80.3072,-166.4443,-148.2021,-127.4739,-130.0255,-91.2772,198.1014,-107.7413,-134.6401,-217.1930,-54.8357,41.8933,-30.2888,-147.4205
32.8287,103.6064,19.3612,79.1338,-143.8080,-55.2409,-172.4402,-64.3456,-133.8433,-87.0940,-59.7146,186.6670,-81.5614,-107.2681,-200.5042,-73.1062,93.7379,2.8289,-90.6206
77.2999,112.1233,72.9749,116.8494,-91.5914,20.7714,-140.4489,86.2999,-86.5440,81.1271,-7.4671,200.3135,-36.2579,-64.8788,-171.9205,-20.4225,119.4777,28.2898,-13.1280
79.6585,147.5420,62.7862,124.7350,-82.7585,41.9547,-81.3569,204.6785,-24.3260,246.6130,9.3202,237.3215,-18.5405,-47.4613,-167.3862,49.8634,93.7211,5.2003,36.2170
31.5773,150.9367,-13.1554,83.6960,-143.2332,-43.8880,-23.4443,207.2808,40.0544,248.0059,-42.5539,252.2212,-67.5532,-82.0685,-147.2425,36.0251,57.1169,-54.8804,40.4433
-8.1199,103.7919,-79.5196,10.3541,-182.7098,-139.2164,23.9639,151.0249,89.0407,180.7884,-89.6945,212.8117,-109.4215,-136.6432,-75.1570,-25.0250,52.5735,-109.8659,53.7253
-15.8294,71.6292,-88.3264,-23.9685,-149.5130,-136.2519,37.4171,148.1372,77.7881,197.8856,-83.5224,178.7754,-90.2482,-135.7914,-7.5873,-10.1262,48.6873,-98.2554,81.2595
-5.9443,108.1120,-60.6320,27.7304,-102.4553,-45.5215,13.8676,210.4160,42.1241,272.9345,-55.0251,210.7142,-55.4800,-73.1131,-2.4817,78.0927,32.8549,-13.2271,86.5993
36.8604,149.0458,-8.2949,88.3848,-58.2401,19.0176,14.4271,259.1120,64.6723,298.9594,-8.1110,247.5796,-19.3572,-48.6699,-16.3312,118.5147,63.5644,25.8312,89.3055
99.2449,107.2318,68.1874,60.9247,5.9489,-34.4829,50.1723,230.4262,103.9275,222.1964,54.7505,211.8027,35.9496,-123.3985,-5.2546,67.1282,135.8896,-58.9053,96.1846
106.9539,27.4271,112.5244,-16.1407,35.2791,-148.3801,48.5385,137.0791,73.6303,98.2121,63.0653,150.9923,53.7515,-217.6356,-20.9089,-6.4436,153.1655,-164.8478,60.9047
42.8246,1.0059,64.4027,-56.4876,-21.1221,-195.9044,2.7460,58.8563,18.3503,52.6276,-7.9403,136.7685,-8.8672,-245.0334,-91.7904,-47.1769,91.4956,-197.9868,-0.0946
-20.8235,16.0970,-41.1963,-66.2808,-119.0722,-170.9184,-23.5658,56.1032,3.4805,97.1549,-78.4898,144.7212,-83.8962,-229.3225,-136.7194,-53.2766,31.3166,-199.9823,-22.2573
-36.3369,35.0216,-112.8812,-71.8388,-186.1867,-141.8462,-19.1171,90.6044,-3.0180,118.0603,-94.3538,146.8404,-102.8806,-200.2163,-98.7315,-31.9789,19.0758,-200.6420,-13.5027
-20.3399,68.7717,-111.3428,-50.2279,-175.4060,-106.8430,-4.8151,86.7616,-12.2946,93.5568,-76.2286,167.4288,-79.5958,-138.8246,-39.9173,-2.6562,30.6177,-180.9294,-11.9462
-5.5225,80.7757,-79.7759,-18.5456,-115.8497,-66.9836,12.6274,50.5014,10.5783,87.4283,-54.7977,182.2934,-57.7841,-87.3962,-30.8120,9.8738,37.0323,-169.4212,-15.5216
-19.3008,20.6509,-88.3903,-34.7871,-122.9323,-78.9651,11.2621,36.0544,36.5000,71.3675,-59.3251,141.2725,-71.5089,-118.8688,-56.8404,8.6292,24.9735,-185.0374,-32.6596
-61.0947,-33.6707,-146.0326,-78.2451,-207.2794,-115.8731,-15.6305,15.8872,19.3526,-14.9919,-99.7463,97.1598,-116.2130,-187.5634,-72.2454,-3.5389,-0.4948,-178.5298,-76.6355
-89.9330,11.6457,-182.3338,-77.0396,-217.0341,-85.2673,-38.5670,-74.8871,-15.7459,-118.7066,-132.1678,129.9993,-138.1359,-191.9047,-57.8151,-34.2267,-11.9767,-123.5768,-106.3037
-78.0547,88.3865,-155.5580,-31.9448,-121.5609,-5.3090,-39.4362,-162.2016,-21.6729,-128.0728,-118.0333,195.1574,-110.0189,-133.5130,-17.0365,-39.3057,2.3722,-45.9874,-77.7930
-42.8579,98.5508,-111.6155,8.4516,-63.2509,43.5129,-4.9597,-104.0658,19.1375,-25.3154,-72.7382,208.0501,-62.8182,-79.3143,25.6925,32.8260,23.4563,29.7523,-17.6104
-4.2589,84.1323,-81.0003,37.2432,-59.0535,62.1996,53.3519,35.6929,71.5422,59.2013,-19.8970,184.5406,-17.8698,-56.2920,36.6764,117.3253,44.8548,75.7820,8.8509
36.3275,114.4120,-30.9485,69.0529,-5.8691,77.8830,50.1079,54.8280,56.6070,21.8669,22.7294,177.4575,18.5109,-55.3136,12.0584,111.6796,83.5481,71.3176,-20.9969
70.7039,153.7985,33.2909,95.6463,72.0243,79.8643,-34.9896,-28.8710,-15.4271,-24.4964,32.6327,184.6725,24.2934,-57.5884,-16.3972,51.3140,136.2839,42.9783,-44.4769
82.0633,138.4231,60.8794,105.0873,94.6051,73.4379,-66.0957,-24.1374,-20.5648,37.4297,20.4855,189.6451,7.0983,-45.9577,-16.4775,33.3608,168.1727,26.7627,10.5093
71.3737,80.7048,61.3916,100.6967,89.4646,74.5958,13.6799,59.1414,58.2648,81.1060,20.3021,200.5766,8.4231,-22.3749,17.6461,46.8235,158.7442,23.8162,104.3533
64.0828,46.4094,76.2850,95.5619,94.8888,75.2923,80.5260,69.9423,97.3954,26.4041,35.5160,223.3586,34.8281,6.5274,53.6188,46.2830,132.5565,25.8596,146.2200
73.7110,63.6860,82.7262,100.8600,88.7343,70.1983,76.7476,55.7816,68.8837,50.7986,52.0406,243.8415,59.2342,31.7710,43.2242,69.5360,117.0237,29.3044,148.0078
69.4341,92.6185,50.3728,107.4822,64.6887,49.1572,63.4006,147.1006,44.9968,202.7078,53.3470,242.7581,58.9766,26.1075,-10.9853,137.7756,94.9576,29.8347,164.7783
22.7172,105.3785,12.6974,102.2365,38.6034,1.5414,40.9989,256.1378,19.5977,272.4030,10.7630,230.8592,18.2968,-1.0567,-48.8345,179.1815,48.1398,36.3427,161.1861
-31.0354,132.1059,-6.1072,105.7830,20.4650,-19.7037,-10.9951,235.1521,-34.1164,206.6804,-57.8712,249.6496,-40.5436,9.1449,-45.5598,149.2495,9.4377,63.6402,97.7579
-42.5887,169.5017,-26.8456,135.2337,21.3263,33.4836,-44.9896,142.1282,-65.4242,148.6041,-75.4826,293.7720,-56.3867,45.5063,-44.4954,94.7243,3.9541,103.2455,35.2122
-29.5059,146.7125,-45.2860,146.7059,21.5879,82.6521,-47.1713,103.5635,-49.3160,123.8651,-31.5226,291.1007,-24.8324,28.0308,-70.8344,60.1558,-6.0865,115.5399,29.8898
-42.0794,54.7094,-47.6873,99.1594,-18.7092,42.6578,-49.3394,115.4696,-23.4008,95.9947,-14.0267,222.9476,-17.8902,-30.1598,-95.6885,42.3642,-53.7704,64.3256,39.7422
-91.3758,-9.7246,-70.1437,34.2767,-82.4398,-29.2599,-42.7622,115.0860,-3.6208,96.9607,-69.3618,164.5934,-70.8225,-46.3948,-100.0914,32.3226,-113.9774,-15.1885,4.2353
-152.3987,5.5874,-128.6783,4.4706,-114.4982,-62.2059,-23.2794,80.1941,7.4823,96.2554,-147.4583,153.3841,-138.4573,-31.5896,-99.0718,30.5875,-156.1913,-36.9847,-61.6167
-195.8494,27.1785,-166.1010,-11.2929,-104.3584,-86.3974,-12.4701,21.8289,-1.9969,40.2826,-192.0569,144.4629,-169.0858,-43.1813,-102.1885,42.1253,-178.6769,-1.5986,-92.2928
-203.9527,-12.5391,-150.4888,-37.7929,-77.8790,-114.6571,-1.7248,-20.4361,-18.5753,-2.1911,-190.8464,123.7956,-153.9840,-61.8932,-101.0415,68.1721,-182.0565,11.8493,-62.4871
-178.8590,-59.4867,-117.2854,-38.2927,-44.6001,-96.4656,3.2535,-16.6175,-28.9529,16.9934,-151.8319,128.6573,-111.0352,-55.5905,-86.1422,85.0383,-164.6145,14.5018,-10.6775
-130.8050,-41.9446,-83.9260,6.4228,3.5325,-30.9545,-20.8347,-5.6604,-39.3024,17.5624,-85.8691,151.6352,-53.8751,-42.6832,-55.1645,69.3222,-129.7052,68.6515,30.8313
-66.7880,-8.9375,-42.5436,47.2604,53.6661,24.0270,-27.5309,-38.5319,-32.4586,-47.0573,-7.9234,145.2818,12.3703,-30.1860,-14.8824,39.7441,-76.8357,121.8324,56.9995
1.4769,-31.6509,-4.6506,54.1119,69.2170,38.9602,19.7022,-96.8124,1.7853,-124.6671,61.0515,115.3147,72.3539,-6.7692,23.0561,15.3812,-9.5605,105.6733,51.1603
65.6580,-53.5420,42.5965,60.6346,64.8542,29.4304,57.2597,-135.7482,29.7176,-159.7547,107.1021,113.4531,111.4852,16.6048,50.5653,-19.7911,59.5154,70.5838,31.8505
124.9006,-4.3221,125.7649,83.1089,110.0934,23.7327,60.7707,-136.6867,43.3926,-132.6580,134.3065,146.9400,137.4407,31.7198,69.2776,-61.0300,125.2965,49.8820,71.6114
160.4973,58.3333,188.0318,89.4432,187.4013,24.2008,85.2651,-98.7576,64.8377,-76.0895,146.3614,172.5866,154.4653,38.0998,92.5158,-78.6570,176.2717,6.4619,157.1397
150.9924,75.5836,154.1363,71.8876,197.0329,0.9145,110.5781,-60.5619,68.5831,-55.2272,142.1311,170.7778,154.7579,20.6318,123.3412,-82.4415,178.4980,-19.2381,176.6125
115.7945,81.5670,78.4860,62.8294,153.1262,-30.0906,79.5051,-81.4891,30.5743,-77.8031,131.7513,155.6453,146.8356,-5.0798,135.7127,-92.2692,129.5471,36.3314,118.4834
88.2397,78.4031,66.3290,69.7224,149.0836,3.7793,28.9736,-142.0797,-6.3173,-112.8290,112.8008,129.1607,129.9963,10.4442,117.3383,-89.0725,90.8622,106.3435,75.7561
71.4909,24.3099,109.9339,62.8476,151.2022,88.3539,-2.1714,-175.8250,-22.3528,-175.1651,68.4424,89.3583,84.5089,52.8618,98.5255,-71.3741,100.8859,105.1683,55.5388
60.4287,-50.5767,136.0717,27.0199,86.6935,115.4445,-44.2802,-198.0837,-58.7328,-262.2045,28.0449,55.5029,41.4700,54.9964,93.3546,-64.9737,109.4853,56.0517,7.6731
55.0862,-91.6667,128.2495,-13.3217,27.0217,78.8568,-86.0544,-235.2783,-103.3270,-287.4087,38.3149,43.2818,53.8644,27.6400,87.3605,-50.8113,64.8219,3.9131,-32.4563
43.1959,-97.8743,115.1481,-22.4052,54.5015,74.7570,-65.9600,-212.8450,-78.5511,-197.4741,67.1609,52.2040,87.3229,41.7087,99.8626,-2.5503,0.4991,-29.7185,-11.8761
19.3216,-78.7803,108.2529,-3.4539,108.1300,97.4065,14.4337,-113.0021,18.5664,-81.7747,57.9894,72.5358,81.2279,82.7739,136.2609,39.3798,-30.0314,-16.4179,37.9122
-3.9817,-63.5896,90.4007,0.1019,108.1680,68.1249,78.5580,-70.1049,81.4585,-66.2041,32.4748,73.3954,58.8905,66.2554,118.3999,36.0627,-37.5123,24.9983,59.5509
-28.9508,-97.1015,45.0100,-23.8006,69.5550,15.5667,54.4349,-126.2448,36.8142,-122.4852,21.9850,40.5868,47.4774,-12.1582,7.7077,13.3199,-59.7848,31.6831,32.1446
-72.8118,-137.9215,-16.9805,-40.7804,20.4461,2.8993,-48.2127,-143.3047,-58.6525,-111.3364,-6.9634,18.2905,9.1451,-73.3218,-106.3410,1.5160,-110.6139,-5.7166,-28.7458
-135.4966,-123.9561,-83.3186,-49.9876,-61.2353,-13.4304,-140.8333,-79.6205,-117.1344,-40.8844,-72.1561,25.3521,-64.6399,-89.2814,-153.9268,0.5997,-190.0600,-49.3702,-83.1217
-193.5969,-109.7236,-157.9033,-78.4967,-166.8236,-73.4071,-173.5121,-49.6320,-139.6224,-50.8533,-127.1245,11.1384,-120.6170,-99.3318,-157.0194,2.8894,-269.3441,-72.7574,-111.2277
-216.2863,-138.3304,-211.4745,-102.8763,-201.3587,-120.9698,-171.2283,-68.7490,-151.7838,-103.3487,-139.1446,-26.5126,-131.1897,-111.4345,-122.0253,-6.2202,-284.3283,-66.2465,-121.8337
-198.3476,-142.4378,-203.5695,-98.3689,-127.4642,-133.0127,-131.7369,-48.1615,-119.0356,-43.4850,-137.3030,-33.2306,-126.8651,-105.4052,-59.5068,-30.7678,-220.4108,-62.1247,-104.0076
-165.3879,-103.3987,-162.7840,-93.1885,-66.5427,-152.1945,-49.8765,0.6656,-36.8835,62.7068,-149.1177,-20.5500,-137.8708,-101.8633,-50.0370,-49.1724,-138.1461,-96.8284,-57.1833
-107.5182,-55.9975,-111.8904,-67.5693,-65.7504,-152.4114,1.6996,10.8414,15.0269,63.1001,-121.9799,-8.1331,-120.7106,-117.5481,-113.6975,-58.5634,-62.8245,-99.0802,-27.7809
14.6719,30.6239,4.9446,39.2600,30.0889,-71.1135,-4.0278,-7.1453,5.5223,13.0966,13.0353,53.7634,2.3673,-110.8356,-152.7710,-78.9348,35.2689,17.9754,-18.5691
150.1543,122.3834,169.6134,157.7603,235.7332,39.6718,16.7802,-33.3793,9.2030,-18.6792,183.9925,136.0308,176.3294,-70.4029,-118.7435,-104.3226,133.7050,164.1663,32.0226
192.3525,91.9347,252.7025,151.6024,320.5178,73.0367,87.1815,-78.3974,78.8786,-89.1767,237.5198,123.8254,237.4562,-61.8932,-54.2362,-121.4477,173.4258,190.3694,116.2750
154.5585,-18.3424,237.3318,54.8266,243.8875,33.2922,138.8605,-103.0074,165.6135,-137.8457,177.9919,50.2616,178.7660,-100.1316,15.5171,-130.3879,160.9122,123.0488,149.4066
129.2040,-36.8506,222.6556,15.7290,204.4515,16.9423,147.8532,-61.9993,178.2354,-53.2864,135.9531,58.3980,145.7302,-102.1789,60.2780,-105.2402,138.7068,89.1960,108.0446
127.4903,40.6076,210.5433,70.0237,216.6904,75.7322,110.3397,-5.3934,87.4748,44.9125,136.6591,147.0787,159.5137,-38.3543,27.8070,-35.1519,122.0383,123.9693,43.5302
128.0355,110.7709,163.6270,138.1729,168.4418,158.6858,18.4995,-13.3041,-21.9767,3.0246,134.3078,206.9142,147.0364,6.9053,-39.7071,9.1464,125.1380,164.3394,-5.7072
145.1058,135.4267,137.5193,141.2226,123.1738,170.5187,-52.2342,-86.5535,-55.1081,-104.4510,143.1446,194.1477,135.3955,-24.4761,-43.3897,-28.1390,149.2008,131.4939,-31.7131
143.0063,76.7758,141.1401,58.6042,130.4578,91.1790,-49.7886,-159.9645,-47.5640,-162.3836,143.1630,122.0121,137.4504,-85.4893,-1.7065,-88.3184,146.4138,13.8992,-41.7557
72.1829,-47.8131,97.6464,-34.5095,84.0398,5.5834,-66.0940,-174.4354,-80.0703,-168.0729,67.1405,37.2986,71.5817,-111.5335,-0.8477,-89.7446,93.6120,-89.8116,-54.4578
-7.9424,-83.4376,25.2409,-45.4496,-16.2575,-30.3450,-136.2050,-137.6493,-124.0749,-148.6327,-39.4141,14.8927,-39.5271,-90.7885,-27.1319,-32.5545,41.2346,-93.4263,-81.7476
-29.3178,3.4432,-3.5135,-7.5637,-65.6764,-53.1728,-146.2472,-117.4923,-120.4646,-147.8868,-83.0645,54.6160,-83.2300,-42.0649,-13.6559,26.8718,22.6653,-50.5890,-116.2756
-36.3014,34.9418,-14.5672,-1.2599,-78.4946,-67.4268,-75.1665,-134.3472,-83.4785,-177.2227,-90.1313,86.1707,-77.4709,14.7728,24.3501,36.9384,6.8018,-40.5899,-127.4843
-74.0662,-30.7662,-39.8418,-5.0071,-100.4046,-24.6038,-25.3105,-123.8173,-32.2330,-150.3388,-118.3298,93.8809,-104.0814,64.2945,15.9057,-1.9224,-35.2316,-39.9668,-89.4570
-117.6510,-52.8252,-51.7158,5.2669,-116.2657,33.6882,-22.8339,-66.7378,8.3395,-54.5131,-155.8472,87.1284,-148.7038,87.5549,-57.4396,-34.4387,-97.2582,-21.0299,-50.1656
-155.4791,-30.6072,-72.3593,-22.5897,-149.8154,10.1371,-58.3140,-34.6145,-42.9831,-11.3080,-194.1560,44.3332,-181.2504,59.2723,-140.6260,-27.5892,-152.8918,-29.4239,-87.4551
-185.5910,-58.9857,-127.8151,-72.7733,-198.6485,-73.2680,-155.2509,-47.6883,-176.6199,-35.0262,-228.7899,-2.0133,-211.2044,-13.0742,-177.7795,-5.7007,-163.5404,-82.3096,-157.2038
-176.2681,-82.2613,-150.4509,-65.2897,-191.8493,-120.9478,-237.0127,-38.4920,-228.3795,-27.1117,-226.3120,6.5857,-223.4895,-68.0446,-165.2997,12.4256,-119.3627,-121.4608,-147.8649
-131.8585,-25.1362,-111.8175,-24.8448,-161.0031,-115.9636,-198.7987,12.2595,-139.9507,5.8121,-195.9505,35.3394,-206.8280,-63.6778,-116.2670,35.7981,-66.0520,-98.6200,-88.4020
-90.9330,38.3861,-86.0163,-9.7165,-177.6043,-76.4618,-118.2175,53.9959,-63.9329,17.6334,-162.2861,40.0300,-169.7875,-23.4522,-34.9368,66.7881,-40.0182,-21.0198,-91.6821
-39.4871,44.8673,-80.3409,28.5279,-157.0152,5.3108,-111.0863,57.0842,-88.2440,25.0652,-80.9075,59.3944,-86.7066,29.7363,44.7441,89.0829,-16.6994,62.0263,-152.0572
48.6760,44.1419,-22.4441,102.4861,-30.0201,70.0945,-123.4156,-1.6848,-115.3099,-18.3781,53.4517,96.6021,37.9013,79.5666,91.9562,61.0988,38.8165,72.0836,-194.9544
131.0472,69.2585,68.3405,100.5445,90.3116,16.5314,-80.7441,-137.1294,-71.6083,-152.9515,138.5894,88.0274,120.0193,61.6211,149.0261,-35.2792,116.9386,-20.5810,-197.5717
159.8593,96.5573,109.9794,10.4820,130.4216,-103.7741,-12.2780,-239.3726,6.2901,-226.3365,133.2161,44.5994,127.0549,-32.1958,242.4790,-107.1183,179.6911,-105.4377,-140.6955
154.0106,127.2111,114.9084,-11.7480,166.7145,-115.7607,59.5895,-161.0932,84.5891,-109.6617,114.2368,47.5226,120.9004,-70.9753,287.3358,-52.8264,203.3207,-46.1677,-24.6147
148.4325,163.8811,143.1614,81.4780,222.0036,1.3705,118.2460,7.7195,137.8241,39.6240,119.5720,108.7403,127.3594,3.3906,220.5846,50.3848,196.9433,93.0698,48.4378
142.2731,159.7509,166.7608,145.7255,208.6970,84.2367,100.8183,34.8243,112.5489,23.2317,114.9872,159.9363,116.6907,60.9765,116.1291,66.4620,178.9514,127.4797,3.7767
126.2449,110.1721,128.4134,121.6837,100.6839,76.2500,21.3436,-65.1153,23.0524,-84.6272,96.4275,158.8924,92.2389,51.9155,55.7139,31.4625,148.1291,67.9995,-71.1068
110.2196,107.5575,69.8210,123.8276,-2.5215,99.8591,-18.8187,-85.3269,-32.0267,-103.1463,86.1503,140.9085,77.1227,98.9184,26.1217,41.8907,105.4408,87.1672,-82.1200
97.5770,179.0598,57.9928,185.8826,-17.7897,188.1619,-15.9427,-24.3817,-32.9841,-47.9290,69.6536,150.6483,58.2611,201.6905,-4.1523,58.5279,76.0507,180.9232,-73.6894
65.3021,204.3856,51.0353,196.0581,0.7897,217.2684,-56.6526,-50.5721,-72.2965,-63.5699,18.5682,159.7777,10.9191,206.9688,-40.2841,12.5035,69.8594,198.9213,-118.1959
5.6037,138.1327,-7.9351,134.9868,-26.7734,154.3110,-158.4359,-167.2190,-185.5352,-159.9384,-53.5678,126.4607,-54.8840,111.1808,-88.2984,-57.8885,56.9945,154.1759,-217.9381
-53.3167,105.0676,-65.3722,104.3459,-69.5205,102.0608,-282.8984,-237.4332,-304.2455,-210.6822,-109.8597,89.3277,-110.0001,46.6968,-143.9692,-88.5593,5.5882,154.8115,-341.0674
-107.4646,133.4152,-87.0874,111.4427,-106.0909,88.6174,-396.5475,-208.9462,-374.2099,-172.7229,-152.9972,86.8047,-157.8832,35.8496,-194.6523,-77.2436,-90.1248,155.5113,-430.1627
-176.1979,90.9404,-145.0468,81.2305,-197.0095,59.0590,-442.3138,-129.9961,-389.7679,-132.0692,-201.3685,71.9063,-214.4241,26.7342,-237.1577,-63.9594,-198.9734,78.1010,-424.4910
-214.4335,-6.3897,-232.2544,30.8488,-294.3725,22.5837,-397.8518,-88.7653,-362.7688,-150.7081,-215.2555,23.6195,-237.1283,20.6910,-250.9494,-83.8937,-245.5729,-8.2552,-346.9316
-160.9539,13.9030,-227.0376,21.0929,-265.1021,15.9179,-335.2832,-145.3895,-330.6530,-193.4264,-160.3351,10.7550,-181.9056,14.7976,-217.4335,-119.2609,-181.5605,-24.4831,-273.6707
-68.9863,132.6950,-130.2289,34.7184,-151.5956,20.5958,-292.5117,-218.5466,-298.7733,-191.9032,-98.4181,56.8506,-108.0781,-14.3483,-168.3013,-123.9170,-67.7871,2.0176,-210.7166
-22.9484,154.9371,-68.5689,31.7140,-86.4039,15.7366,-203.5950,-193.5191,-192.3645,-143.8079,-73.5640,82.5660,-79.1259,-50.0568,-114.3090,-111.0865,9.8755,23.7184,-117.8950
11.5609,55.5751,-55.8733,9.4595,-46.2315,3.5569,-41.7654,-135.7599,6.5477,-125.8699,-17.9346,36.5910,-36.0403,-72.0549,-2.2904,-119.9399,62.5884,22.3049,-2.5312
90.6698,-10.2049,-3.6860,-18.4995,46.8282,-11.3661,128.2812,-139.1911,185.1319,-144.6451,100.3187,-23.4379,78.0915,-76.1439,151.2174,-122.5555,126.9084,6.9570,117.5601
170.0747,17.5249,98.8935,-20.8791,178.2248,-2.2054,264.0148,-121.7990,280.5833,-95.1538,204.6327,-21.7770,200.7956,-41.3877,239.1956,-88.1100,172.6438,14.6381,250.6950
211.7021,52.1355,202.3189,15.1761,304.8022,38.5803,370.2604,-30.2521,356.2920,16.5327,258.5300,19.4168,271.8049,17.0145,252.1150,-54.8078,191.7480,52.6942,377.2584
258.1667,32.8704,292.2492,44.3107,383.5828,64.6515,448.8844,50.1928,437.3470,74.5439,305.3062,23.0137,320.5444,43.5794,281.5248,-34.9160,240.8678,105.0344,475.1608
326.1170,2.3754,371.8444,48.3736,400.8542,75.0984,505.6316,123.3853,477.8434,128.3847,361.5350,-2.7765,380.1669,45.6614,324.7247,14.9889,316.8004,183.9791,567.8012
365.5241,11.8671,425.0657,61.9211,419.0427,107.5764,540.3225,237.9443,480.8274,262.2398,400.6408,8.6487,427.4203,57.3096,307.7685,71.9628,340.9057,235.8379,632.1098
338.2273,30.8670,419.1794,58.9898,439.8708,104.1651,529.0063,287.4128,478.1130,322.4476,386.7583,32.6907,411.5521,41.7222,250.5526,62.1364,289.1469,147.4792,591.0261
250.3660,10.3912,335.2092,-7.8751,371.3136,13.8790,476.5974,226.2861,463.3371,232.5519,297.9641,3.0090,315.2979,-22.4702,214.8627,10.7355,201.7397,-15.3298,484.2086
141.2785,-25.7356,212.5293,-82.0364,238.5948,-56.7797,419.6531,202.4439,428.5042,196.1046,179.1933,-43.6264,196.6882,-76.5081,184.9402,4.9698,107.1357,-70.3887,427.4638
59.3652,-44.7050,108.2406,-101.8039,129.9607,-38.0687,354.0162,224.2767,367.2870,227.8989,98.2316,-46.8003,115.3608,-87.1295,128.2168,25.7940,28.3063,-49.7685,381.8177
5.0025,-74.6943,13.7636,-104.8321,-1.9460,-29.2072,258.7583,131.8039,261.3839,98.8878,37.3161,-35.1363,45.4832,-73.6766,60.4920,-15.7637,-21.8988,-89.3853,235.9894
-55.9988,-115.6100,-95.2056,-111.8829,-171.9870,-68.1667,159.8236,-34.4398,142.5360,-115.4515,-43.4448,-30.5385,-43.4885,-45.3511,-4.3467,-103.1548,-68.9688,-133.1442,55.8686
-109.9256,-100.8013,-180.5236,-91.4977,-269.4642,-71.5669,85.5762,-94.5029,75.5590,-134.3288,-112.2712,3.9356,-117.4908,-19.7431,-73.5450,-133.6345,-115.7566,-115.7856,-20.0040
-128.6381,-27.2881,-213.4560,-65.0530,-309.8208,-46.2726,31.4116,-38.2358,54.5900,8.8679,-155.7276,56.1504,-169.6992,-12.9900,-148.7816,-84.3691,-133.6501,-135.6078,-8.0772
-151.9262,12.6000,-233.1253,-67.7802,-388.4787,-54.8448,-9.9033,52.0001,16.3404,113.1908,-213.6799,59.9227,-232.9920,6.7527,-228.3578,-20.2373,-156.3462,-199.4067,-4.9291
-209.9423,-13.6119,-266.1562,-69.5830,-435.8458,-60.7618,-62.9712,124.9615,-73.0832,131.4363,-270.1288,12.7983,-283.7958,44.1615,-298.8048,21.1172,-218.9742,-183.4344,-36.1788
-240.6347,-25.1434,-279.4516,-41.6202,-370.7190,-26.4471,-147.3520,105.8996,-182.3219,75.8392,-273.7581,-11.7451,-280.8120,46.0120,-326.8254,37.4187,-239.3863,-96.7498,-61.5457
-196.0625,20.7892,-232.9158,2.7394,-250.2459,14.4819,-188.0302,19.2281,-211.8392,7.1406,-231.0924,23.0142,-237.3551,20.4466,-294.5868,24.1095,-156.6032,-19.1348,-13.7230
-118.7039,51.2315,-122.2798,46.4599,-105.7675,60.1772,-95.5505,29.3650,-94.1883,45.6377,-159.9308,56.4817,-163.0095,25.2947,-214.7157,7.1870,-56.1378,79.6507,125.6480
-44.9364,21.6575,17.2845,75.9148,61.6481,124.5349,63.1390,144.3154,69.6239,136.4874,-57.1789,36.2872,-50.7256,44.2306,-116.3218,25.6004,4.6291,210.8971,255.8595
32.9579,10.0862,135.9465,99.7546,199.9465,171.7270,153.0606,196.1011,130.6867,138.7423,41.6575,27.9631,59.2883,41.7688,-43.2291,56.3776,79.9441,300.2617,285.3513
97.3519,67.7697,212.9213,143.0457,311.1597,184.8096,164.2896,164.3804,112.4886,118.5511,92.1400,87.1655,118.6169,45.0976,-11.2304,47.6141,169.6278,326.1924,258.1223
130.6001,118.6033,262.0449,172.2463,402.9070,178.0257,157.0042,139.1633,116.3417,141.3585,111.4411,121.3743,139.0925,56.6797,27.7293,0.7144,215.9143,313.8139,231.1420
163.0150,108.0732,295.6833,143.2582,395.6734,145.8375,138.1121,98.9370,130.3783,99.9509,139.8747,66.6612,159.7689,41.2019,97.3520,-36.6643,229.0827,278.2785,190.8142
193.8781,82.2169,300.8493,111.3999,314.1292,112.3296,103.5625,39.6309,107.3693,26.5792,176.7671,22.8109,190.2784,29.9933,139.0767,-11.0264,221.5580,260.1895,151.2443
172.3499,59.4452,255.4767,121.6955,276.8206,118.6299,73.3314,48.5616,66.6789,59.3892,183.7175,37.9885,197.3212,66.8983,124.3000,83.6981,167.0667,253.1842,144.1636
115.6779,11.7270,182.6017,100.5069,237.6053,121.0106,48.7891,91.4612,27.9749,93.1265,138.7496,20.9563,151.2345,93.6116,105.2750,151.2411,113.8721,177.2221,142.9039
92.8565,-40.0127,146.6183,13.3218,133.4792,58.3095,27.1310,50.7309,-4.6047,-3.3304,83.1657,-42.6227,93.3528,39.2565,102.8267,97.7613,119.6606,54.9806,128.3667
82.4538,-72.8251,141.8136,-59.5960,78.0373,-31.2950,17.4345,-39.7020,-12.6416,-88.9962,60.9279,-78.4791,74.8524,-53.3202,77.8883,-6.7964,110.1729,-5.1162,109.1289
19.5091,-108.3946,85.8053,-83.9397,82.9873,-83.1296,0.2901,-79.8110,-17.5130,-61.3883,34.2185,-91.6960,51.9021,-101.2269,14.3003,-35.5376,20.0075,-20.2261,49.4376
-61.2220,-125.3375,-22.9342,-96.1185,3.2882,-83.0849,-52.9445,-86.0853,-67.5075,-46.7936,-34.1497,-104.9282,-22.2172,-102.1631,-68.5310,-6.0883,-68.3382,-59.9241,-66.4268
-91.2277,-75.4092,-103.4121,-87.0800,-132.0331,-35.9097,-122.6538,-112.2190,-140.3441,-106.5255,-94.1801,-74.0748,-93.1712,-90.5156,-134.1047,0.2788,-83.3357,-81.6701,-172.6471
-88.5540,10.3092,-144.7263,-33.9981,-187.4663,32.5038,-162.5007,-150.6891,-168.6978,-150.1861,-111.0231,3.7134,-119.2783,-43.1541,-138.8446,-8.5524,-72.6852,-55.6992,-230.4313
-91.8085,62.2517,-175.1337,25.5553,-182.9387,79.5518,-154.4461,-167.7461,-141.9139,-133.3253,-112.1674,67.8473,-127.1370,51.9923,-98.8435,-3.0367,-85.5977,-45.8848,-259.3929
-90.4322,49.6780,-176.5946,35.4448,-182.5434,86.5740,-127.7832,-136.4160,-111.9991,-94.6446,-90.7777,77.3060,-108.3548,93.7484,-80.3938,1.5855,-117.2268,-72.7296,-256.3369
-84.6667,-24.5209,-170.1910,-23.0899,-190.8076,32.1239,-130.8654,-74.2603,-122.9605,-76.8774,-36.3978,18.4506,-52.9780,0.9921,-77.9846,11.3489,-158.1152,-105.3088,-223.0918
-97.0173,-103.2764,-200.9224,-105.2697,-215.0355,-93.3226,-156.7792,-49.2677,-150.7225,-83.4962,-10.8768,-65.1313,-24.9546,-121.5543,-45.2668,48.1905,-190.8904,-145.6864,-197.2850
-114.9711,-108.5930,-213.0090,-130.4429,-215.8243,-208.8636,-147.1299,-76.4049,-139.3234,-78.0863,-45.0712,-77.3751,-52.2687,-140.2880,-25.5617,88.3272,-188.4043,-182.3282,-187.0846
-111.1046,-58.9450,-162.2741,-89.7469,-161.5249,-232.5433,-110.3886,-88.8363,-106.1466,-51.0105,-80.8757,-21.7010,-80.4480,-95.7212,-62.7642,99.5249,-151.6585,-181.6057,-179.8316
-82.8544,-24.0817,-125.0827,-51.0259,-133.1834,-203.7794,-109.9273,-55.0107,-105.6375,-22.3811,-75.1050,0.9445,-78.5105,-71.8374,-74.9172,90.0716,-103.6869,-155.4437,-178.1444
-28.4385,1.4342,-115.5786,-34.1397,-135.5757,-177.0010,-120.8639,-10.1880,-103.6653,22.5569,-22.5362,-17.4000,-37.6624,-52.3576,2.7752,82.3250,-56.3373,-131.7577,-159.6042
49.3288,28.5604,-49.7653,-20.1356,-67.3721,-149.6190,-84.3030,18.4206,-54.4570,67.9345,69.5449,-22.9878,49.5009,-38.0024,92.4678,87.7087,-6.8268,-128.6931,-111.9079
107.1005,7.1323,37.3999,-38.8950,-8.0718,-157.2131,-48.7947,28.0956,-14.8483,47.8334,132.6451,-41.3854,112.2739,-77.6922,122.7971,107.4956,40.1205,-170.1493,-83.6751
99.6303,-60.0101,40.4157,-97.3763,-85.2516,-214.0948,-55.4462,29.4524,-10.4114,4.3028,101.3855,-84.6619,80.1297,-131.2525,139.9698,132.5220,53.3242,-208.4621,-80.9398
46.2209,-97.5310,-9.5861,-124.0012,-155.7056,-215.3198,-28.3167,44.1518,31.8570,39.3537,37.4173,-87.7786,24.7812,-114.7608,186.6831,147.5311,14.3843,-143.7325,-40.7234
6.2209,-76.9802,-29.3979,-85.2590,-82.6827,-115.0106,49.4011,67.2985,100.6450,105.4066,27.0133,-44.7593,30.0411,-43.9318,213.3012,135.9706,-32.2956,-17.4770,26.2611
-2.1936,-28.3424,-26.1802,-33.8121,-8.2459,-29.6182,70.2906,71.6281,93.0904,103.9467,34.1858,-15.3395,41.4835,19.3165,170.1853,98.9312,-43.7079,21.2527,44.0224
-18.7982,16.8399,-38.3518,-14.4965,-41.0157,-23.0080,9.5470,60.8191,14.8998,66.0415,-7.8649,-8.1937,-5.1057,57.2250,92.1423,76.0198,-51.5511,-33.4674,2.5002
-69.5230,40.0953,-86.1044,-21.0303,-99.2497,-26.1674,-48.4333,52.0860,-47.5004,47.9163,-77.7756,-4.4807,-74.4569,62.3129,31.9162,96.2137,-89.4522,-64.3239,-62.8131
-122.7888,49.0825,-160.9397,-25.2382,-141.6379,-8.7231,-85.7311,37.2957,-86.5327,36.3965,-121.7306,-6.9105,-118.4775,37.9791,-22.3583,117.7299,-136.9684,-36.9619,-131.3541
-156.5679,46.5966,-204.1348,-13.1624,-191.1526,-1.9465,-136.7957,8.3136,-138.6758,4.4816,-140.3352,-5.9138,-139.2079,33.6284,-85.9596,89.3747,-189.9635,8.3677,-183.8292
-209.8793,-1.3018,-204.7482,-11.5494,-236.0812,3.4317,-184.7329,-23.9932,-199.3359,-56.6683,-186.7357,5.0676,-174.2720,79.7433,-113.0686,37.5566,-266.6692,47.2530,-219.5042
-302.1088,-84.0007,-240.3884,-48.6842,-276.9712,23.2055,-205.3707,-25.5701,-234.9383,-74.0991,-287.4548,2.1216,-256.3001,127.2373,-90.1369,23.2649,-340.5593,50.5826,-236.9403
-373.6167,-127.0291,-310.8459,-99.9376,-304.9897,28.8288,-195.0382,57.1106,-205.5371,67.3860,-376.1998,-27.3417,-341.6111,113.5604,-78.4766,59.1673,-373.3490,12.8405,-189.5474
-374.6663,-114.5641,-326.4716,-122.3865,-275.6086,7.9373,-143.3925,205.9681,-119.2566,277.0692,-373.5752,-63.3333,-346.4119,53.0473,-87.0787,113.4486,-368.6922,-0.9860,-89.2480
-335.6883,-94.8833,-289.2518,-105.7853,-205.5116,-6.4721,-86.4771,293.5730,-60.9799,325.8251,-307.6850,-76.5463,-282.6825,17.3138,-62.9843,156.3714,-343.8573,39.5899,-43.2712
-303.8559,-95.2935,-256.5236,-82.5662,-146.1310,-4.2048,-80.9094,257.6605,-66.7966,234.6506,-255.6112,-65.8741,-229.8699,24.5635,-16.0233,179.3477,-316.2533,52.1151,-59.9174
-281.2208,-142.8875,-217.7627,-118.5879,-102.5575,-39.7175,-77.6914,191.5622,-59.5498,186.6031,-226.4934,-86.8811,-198.7112,6.7972,27.6001,174.8546,-298.6928,-34.4362,-39.3673
-243.1551,-234.6310,-174.3670,-222.6945,-95.8941,-147.5675,-7.6152,153.5804,1.6215,148.5387,-186.9181,-172.8529,-154.8689,-71.0664,102.4496,118.4817,-266.0822,-165.4175,-4.4671
-174.7300,-272.2307,-159.6329,-290.0729,-139.2287,-250.3034,54.6868,77.2139,55.2833,16.1737,-123.1155,-245.5426,-99.7847,-151.1514,185.9468,8.7067,-197.7791,-242.5222,-52.6315
-91.2703,-209.6596,-137.7758,-261.8328,-152.8517,-260.4209,32.4122,-46.6387,62.6580,-102.5516,-43.7729,-230.2847,-41.7495,-189.1273,196.8256,-99.0225,-130.1717,-247.2216,-128.6399
-20.6116,-143.7818,-70.6345,-216.7756,-84.6925,-221.1235,14.6519,-109.6832,56.6493,-87.5751,26.5650,-173.6625,24.8555,-195.2220,177.0998,-150.3528,-78.2040,-219.8058,-117.4741
43.8367,-115.4991,6.2836,-187.4153,11.8396,-201.8805,78.8267,-77.8602,72.3187,-25.1974,78.0806,-125.9168,91.7758,-163.2402,226.2474,-149.6593,7.1505,-176.9241,-46.7916
124.4318,-56.5924,78.4444,-117.1106,98.8292,-177.7502,143.9784,-63.7635,110.1419,-48.6015,131.3715,-63.2237,146.2857,-102.4483,297.4543,-130.4946,130.8914,-131.2221,-6.2001
195.5490,24.7140,152.7079,-44.4273,168.5886,-144.7603,151.8938,-129.8593,149.3739,-132.1121,181.9400,3.7038,183.5706,-79.4110,298.2378,-116.4467,218.0789,-126.7261,4.7511
213.8329,57.1024,186.7738,-45.5191,196.3875,-149.7046,169.9198,-166.1832,185.9112,-131.5220,204.2339,16.3868,204.6960,-105.1320,258.4668,-110.3974,216.3413,-150.4920,37.7826
188.5224,27.3419,174.7826,-65.2341,201.2475,-147.5793,220.7992,-95.7385,229.4947,-34.8998,217.3680,-33.5232,223.7932,-104.9627,229.7594,-94.2272,145.4902,-111.2292,84.2185
150.4015,-53.2453,171.7807,-49.4954,207.6736,-78.7669,219.4134,-53.9850,233.2837,-34.9863,231.0254,-99.5851,235.3404,-63.6677,187.9373,-65.5581,60.9231,-18.6020,75.0126
102.9337,-137.0329,172.3584,-53.7739,175.2812,-24.2532,131.5676,-145.8147,141.5561,-171.2628,193.6772,-125.7633,198.7778,-42.2853,109.0288,-52.3778,6.2106,-15.2649,1.0642
48.7989,-132.0382,136.7150,-86.6776,108.3272,-59.9110,34.2034,-217.8776,25.7079,-207.6126,104.6219,-94.9956,117.0592,-57.6632,13.2579,-55.4138,-27.9716,-124.1418,-54.9289
-4.4003,-70.3183,80.0024,-95.7933,68.4342,-130.8489,-17.5669,-150.9771,-20.5013,-99.2678,37.5291,-71.8529,50.4911,-82.9271,-59.2676,-43.3556,-83.6437,-193.1569,-69.4773
-68.3659,-77.2054,11.5668,-101.1571,37.0049,-189.3988,-68.9387,-86.8952,-60.8184,-64.0292,0.2112,-109.8785,11.6612,-107.6002,-81.8276,-17.5532,-165.4340,-164.1255,-110.5248
-136.4735,-115.4816,-76.5063,-123.3316,-25.1918,-226.7928,-162.4403,-101.1404,-163.6555,-87.2237,-51.2625,-152.3181,-36.3492,-122.6783,-90.6345,-3.8143,-233.9562,-129.2072,-170.2551
-162.9373,-72.0959,-142.5489,-106.0326,-80.6096,-188.9506,-240.5420,-67.9768,-238.7446,-22.3498,-89.5021,-144.9318,-82.0294,-116.4318,-141.1418,-17.4584,-250.7521,-103.0451,-180.9125
-134.8183,-4.1165,-158.7324,-36.4664,-115.0153,-68.6912,-237.9716,-12.5939,-228.4729,-15.5888,-76.1209,-119.2052,-89.1277,-85.1796,-207.1135,-75.6506,-207.7656,-21.1892,-173.8510
-98.5461,3.9743,-153.5676,25.9849,-143.5928,40.0399,-201.4606,-81.7458,-213.5046,-161.8103,-51.5028,-88.6734,-75.1037,-23.2455,-235.9094,-153.7795,-148.1178,66.7990,-195.5712
-82.5335,4.5624,-128.3606,50.7799,-122.9176,78.0185,-195.5936,-166.1119,-212.3313,-194.9372,-49.7056,-42.9536,-69.9181,36.3991,-231.5736,-161.6831,-123.3839,62.4725,-180.5084
-60.8972,25.2056,-72.0663,41.6496,-39.4034,62.5474,-166.2166,-81.5742,-143.6844,-17.7815,-36.9680,-16.2047,-53.9656,28.2508,-178.5381,-80.9903,-103.1936,3.4469,-76.1237
-2.5850,20.7849,-14.8288,15.9176,40.7552,29.3002,-39.2949,55.8798,-0.5053,100.9598,19.3469,-7.5349,4.9577,-19.1155,-38.8419,-23.3783,-22.0610,-22.8165,72.6932
87.1622,10.1466,34.6528,8.0141,82.1367,23.4143,135.4191,78.4363,150.8231,72.1670,105.0292,28.6841,94.2035,-4.1820,129.0166,-50.4600,90.8365,-33.8331,214.7899
163.3538,27.7067,77.6491,14.7413,84.1936,49.1106,268.1934,69.0059,272.4875,76.0441,173.2779,61.5841,161.5627,66.2647,232.1936,-78.6805,153.4111,-61.1644,316.6462
175.9910,46.7590,68.9222,13.9723,48.1032,75.8113,346.0383,134.0950,343.5468,161.8737,178.4191,50.6708,167.5583,123.1992,270.6776,-25.8411,154.6353,-43.6706,357.4823
136.2383,65.7964,24.3190,49.0244,24.9315,148.9427,374.8257,227.1598,347.8876,242.0406,131.7850,52.9918,127.3669,196.3117,255.3477,74.8255,135.7932,61.3894,361.4045
115.1684,104.8750,40.9492,140.2414,51.7042,280.6198,334.0089,286.9989,296.8199,273.6111,103.1745,87.7727,97.4418,288.1942,161.4986,131.1016,125.6470,184.2114,332.7090
141.9685,124.8884,113.4360,189.8603,98.7815,307.8033,245.1361,277.5447,209.2882,229.5897,134.2068,77.8235,121.5391,266.2004,50.9985,100.1934,135.3146,239.0009,244.4316
159.0888,89.7248,149.2997,136.4471,173.6751,168.6819,167.7736,175.7978,112.8182,121.6043,182.4166,13.9723,178.4125,112.1154,27.1786,34.8030,140.9990,213.7000,156.3754
109.9244,28.5312,144.0649,55.8756,270.5535,60.7994,117.1439,59.5696,51.9993,39.0042,163.8845,-33.8711,180.5841,13.3119,58.1828,13.8109,98.7745,136.3397,141.1830
11.8977,-18.5154,122.0720,8.9880,266.2567,55.8055,77.4930,27.9562,39.3905,25.1623,45.9408,-50.6967,72.6608,38.4057,46.1861,46.4863,22.4721,44.0073,122.3812
-73.5313,-30.9282,52.9934,-21.3164,128.8729,4.7203,53.5561,41.2105,44.1402,32.1114,-95.3557,-60.3203,-71.5309,52.3417,1.1076,87.8872,-24.4574,-7.4803,18.5342
-95.2274,-7.7384,-23.4807,-20.8000,20.8472,-55.8866,37.6089,23.1231,37.3843,14.3626,-145.5032,-62.8816,-130.0421,24.2906,-22.0972,101.3287,-16.9946,23.0703,-88.6724
-45.2574,25.2742,-11.0572,38.7604,16.3195,31.5880,3.6584,1.6207,6.3578,-27.1837,-88.8578,-54.6754,-88.2404,54.7883,-44.2805,76.2884,22.3306,106.2193,-103.8954
25.1930,50.7563,63.5466,104.8666,37.3326,153.6151,-26.3819,11.6236,-30.5006,-48.7787,-11.5081,-31.5345,-22.5181,112.0097,-90.8982,38.3182,62.0116,164.6345,-48.4474
49.6277,69.5727,96.3147,113.1697,77.8628,138.8009,-10.9514,22.5140,-28.4434,-13.4080,23.8926,-1.5439,18.2295,88.7358,-116.8033,21.7580,72.0670,171.6686,20.8120
32.4270,67.8837,80.8305,93.6693,158.1769,96.9425,26.1393,31.5563,9.4645,46.6563,32.6096,-3.6663,37.0167,37.2252,-90.0717,20.3037,59.7376,183.6940,78.7771
49.9541,50.5979,94.7570,110.6140,212.3249,151.0973,55.4752,74.1165,47.1786,90.3176,61.1406,-29.9115,62.3748,65.7600,-38.6549,26.5888,85.3993,237.6104,139.6668
137.5023,59.7627,184.0080,161.5617,242.5170,217.0310,110.5909,115.5496,97.5172,107.6750,133.4568,1.2471,130.1796,140.7239,31.9348,49.7100,171.8207,288.4254,200.9259
221.7692,102.0356,302.2581,208.7972,326.7062,242.1727,166.5163,67.6695,135.6047,52.6443,213.2182,113.5449,222.7155,183.1766,126.2239,45.2296,240.4996,304.9531,161.4368
213.7226,145.3217,342.1660,243.5566,410.8382,267.5709,104.2568,-60.2130,54.2856,-79.9429,221.8377,219.2568,249.4165,191.8306,153.0228,-13.3887,216.0919,309.6065,-20.5279
135.3268,174.5250,273.0482,253.6507,368.3890,251.6321,-63.1198,-152.3006,-112.6807,-177.2985,136.3158,228.3677,161.7728,174.3673,32.2371,-38.3239,147.7489,278.3989,-154.0337
85.4121,165.1031,192.9454,211.0102,226.4562,152.4593,-147.7121,-167.0801,-166.1422,-197.2181,38.0284,136.2939,41.2507,127.0211,-112.9409,-0.2641,136.2257,180.4731,-103.9801
97.6852,94.4074,176.9194,149.4933,136.4583,65.5233,-91.6335,-173.1078,-79.3994,-210.0724,17.5734,24.2506,2.8783,92.5583,-120.7467,-6.3070,174.8682,110.1825,-34.4432
119.1709,20.1977,202.7142,139.1414,174.1696,75.9397,-51.1775,-175.7616,-36.2663,-186.7337,63.8357,-21.4059,49.1029,99.2149,-65.0799,-58.8433,177.4579,145.2523,-66.8531
118.2235,15.7855,242.7429,155.4545,256.3716,120.9837,-101.8314,-121.2873,-89.9131,-86.1577,94.1177,-14.4376,85.8619,100.3396,-87.0107,-60.2521,139.8116,166.3352,-80.1656
115.0796,61.1775,265.2369,130.0862,255.8438,104.3013,-141.8157,-59.0232,-125.6622,-28.2040,70.6830,-15.4254,62.8079,69.9505,-123.8713,-53.8162,134.6679,76.3754,-36.6653
116.6395,111.7609,212.9883,102.5178,163.9335,45.3162,-115.1526,-53.2966,-107.1054,-55.6940,28.6917,-0.6954,16.6165,59.6362,-83.6985,-89.1733,171.6482,2.8256,-41.7330
113.9344,166.3721,113.5578,138.8558,52.7077,44.3122,-78.6786,-41.1909,-79.6973,-46.0916,1.5513,69.5011,-18.2998,104.6199,-45.0959,-61.1760,199.6275,40.3800,-71.5743
122.4978,204.3805,67.0524,187.6094,-55.8884,120.2882,-60.2333,7.0199,-44.5967,-11.8054,-2.6704,135.7605,-36.7951,171.2800,-55.9377,22.1663,202.4484,76.1084,-41.9591
152.4206,190.1544,83.6383,179.4564,-126.8619,178.3002,-21.6297,18.0264,14.7824,-36.1206,32.6612,136.6574,-11.7187,216.2044,-16.9004,11.4602,191.0742,46.8466,24.8299
171.1412,141.9225,106.3152,137.6858,-71.8624,173.1681,64.2337,21.2559,92.6273,-10.1708,93.6146,99.7188,59.4925,222.2611,89.4889,-38.9722,168.5846,40.7581,114.6348
141.9101,94.9180,120.6794,93.2900,59.8291,157.6583,162.7969,97.0036,165.5634,114.2089,101.7277,63.1374,92.1098,185.3267,132.7885,14.8264,144.5412,65.3920,222.4360
75.3795,55.2257,104.4859,48.3086,80.9670,142.5726,198.0877,157.3123,183.8824,149.7909,22.8346,43.7393,27.1106,125.5370,65.2727,81.3247,126.8003,42.7476,256.9944
30.8017,43.5020,37.9230,42.0507,-30.3881,108.4581,156.4436,122.4583,139.9855,70.8607,-54.6371,73.1522,-56.6680,102.3909,-7.3547,60.5996,122.3912,8.3924,208.4038
57.6005,90.0423,2.5006,99.8817,-97.5495,112.2828,121.3198,109.1831,111.7311,85.7829,-43.7164,145.1908,-58.2889,156.7361,-2.8506,63.0105,148.8640,28.1373,198.3931
115.7315,153.9556,49.4465,149.1916,-57.5524,166.0561,123.2200,167.7316,122.8764,186.7485,14.1401,180.7343,-6.5417,227.5644,39.3065,124.6368,177.7592,26.1409,220.7927
108.2213,139.5229,60.9294,107.8590,-44.0982,151.4935,84.0666,162.9977,84.8119,163.3081,20.6870,123.8123,-1.2066,205.0904,39.7557,123.6504,142.3975,-69.0039,149.4969
27.6995,36.2285,-36.8406,10.4776,-134.4223,39.4567,-9.6804,65.4697,-26.5979,26.0458,-39.0922,20.7608,-60.3126,93.9487,-19.9391,50.5338,62.1114,-156.4178,5.7395
-30.9244,-37.5468,-121.7372,-40.3321,-221.9461,-33.6036,-70.1251,-0.9787,-110.7953,-39.6965,-90.5474,-42.2762,-108.6211,14.3756,-94.0835,-6.0421,18.2476,-128.7067,-78.7826
-28.0039,-4.0344,-108.5767,-21.5584,-200.1073,-19.7396,-69.9158,0.0228,-107.4908,-6.5129,-84.9632,-53.4013,-101.4856,11.1268,-133.3788,-39.8367,11.5909,-55.0053,-71.3683
-11.1312,54.4765,-75.9919,-7.6798,-125.1944,-19.2073,-48.6648,16.0817,-64.3786,23.0028,-55.7367,-67.5643,-74.4830,6.1353,-121.6140,-70.3702,8.9149,-47.4063,-42.5299
2.7070,51.1671,-71.4660,-32.0411,-93.0672,-59.7384,-30.9276,21.7690,-53.0766,14.5126,-38.3304,-88.2643,-55.8967,-39.1246,-84.2329,-82.7687,32.9711,-83.4542,-69.1990
23.9771,29.4967,-55.0769,-40.5810,-91.5827,-77.0892,-66.0128,-6.5803,-108.4082,-5.7743,-25.4833,-72.7676,-38.8823,-74.4785,-76.9717,-82.6958,68.3483,-92.3058,-149.7053
15.5481,26.3799,-43.7616,-23.4251,-100.2935,-73.8116,-169.9776,-55.7702,-189.1437,-24.2506,-32.3123,-56.2796,-49.0533,-72.5854,-112.0922,-75.3289,42.6954,-86.6781,-182.5146
-42.4185,-7.6521,-84.5604,-44.3919,-157.5097,-89.6530,-215.2252,-44.6719,-198.3960,-33.1997,-78.3375,-98.3996,-99.8677,-54.5361,-117.8275,-56.8901,-37.6872,-97.7543,-126.2110
-92.3454,-66.3996,-141.0104,-101.6686,-228.1510,-98.5568,-130.3638,9.4436,-134.1341,-42.9901,-109.4381,-140.5157,-121.8497,-37.1411,-57.0400,-64.9198,-102.4046,-111.2952,-95.2123
-97.4896,-77.6222,-161.3089,-125.8995,-224.1344,-72.6353,-80.6421,-30.1271,-128.5728,-89.3700,-87.3661,-107.4561,-85.7191,-36.8901,-14.9690,-123.1639,-129.4961,-132.4789,-158.6361
-93.4916,-48.1596,-159.8245,-111.7529,-171.1087,-43.9253,-174.6431,-159.1649,-226.0305,-153.1711,-75.7087,-53.1040,-72.1516,-65.9315,-60.8897,-180.2708,-125.9499,-167.9757,-221.0364
-96.5453,-39.0603,-149.6977,-97.3281,-139.2423,-28.4750,-244.3231,-208.5580,-276.9930,-155.1820,-97.7371,-45.4576,-98.2908,-94.2703,-124.0587,-180.8715,-97.0652,-159.3433,-206.0640
-80.2129,-58.4376,-114.6632,-78.8609,-105.2859,-1.4203,-159.2938,-138.3690,-179.2335,-100.4418,-77.4987,-56.2380,-78.9722,-81.3658,-107.2785,-127.5778,-74.7612,-90.9378,-155.3271
-52.8860,-80.3398,-74.9093,-56.6897,-44.6168,23.8615,-40.3829,-83.7747,-40.8177,-77.7263,-12.7570,-53.9844,-15.4593,-39.0617,-21.0499,-64.8057,-80.9638,-55.5648,-115.4198
-44.0504,-78.9060,-67.6663,-59.3278,-1.0811,12.0943,4.2556,-96.9556,21.8093,-81.2807,17.3605,-53.1656,15.2298,-15.4525,59.3819,-39.9174,-92.3853,-81.0324,-86.9308
-33.3466,-53.8132,-77.6199,-78.0751,-4.2503,-2.9124,34.3251,-95.6204,52.4049,-49.6027,23.7161,-56.5016,23.6167,-33.8085,87.8378,-49.8455,-80.1684,-88.3252,-58.8021
5.2025,-68.7381,-77.1132,-85.2175,-48.0354,22.7574,88.8051,-59.8219,102.9942,-35.2917,59.9397,-52.0624,51.0642,-72.5460,70.8654,-53.3992,-37.4365,-81.9582,-28.4747
33.8229,-144.0117,-84.0530,-92.0908,-104.4704,26.8991,102.1579,-58.7302,109.3210,-81.4247,87.8855,-40.3924,66.2918,-108.7141,42.6057,-49.9092,6.5214,-122.9435,-25.1912
17.6790,-165.8079,-109.2729,-111.2539,-121.0535,-63.4821,34.5658,-92.9132,28.9095,-89.6043,66.4569,-37.7342,48.7730,-161.4139,20.5837,-62.8935,4.6942,-152.3043,-76.0008
-9.4051,-85.8195,-119.1521,-124.9031,-96.5196,-175.8223,-60.6817,-99.3960,-64.9492,-34.2004,30.5475,-62.8547,25.0917,-235.7773,-7.6224,-79.5425,-23.6289,-102.6752,-136.1327
-25.4934,-35.9895,-102.9596,-121.8797,-83.5428,-185.1444,-99.8277,-84.8080,-101.9045,-29.0035,-4.6511,-86.7386,-4.1256,-256.4053,-39.2111,-83.8144,-25.2038,-41.1178,-144.6393
-62.4785,-75.8502,-95.1145,-104.6520,-73.5654,-97.2679,-68.6186,-90.6656,-97.9869,-72.5410,-52.9049,-54.2750,-40.3592,-174.4390,-42.7263,-75.4029,-34.7009,-11.0914,-119.9504
-106.6258,-102.6339,-99.7846,-76.5255,-36.3180,-18.9804,-49.6098,-99.4290,-98.7920,-81.1600,-76.7321,-5.4677,-48.9695,-85.3152,-19.9233,-50.4879,-87.0906,35.7361,-115.2849
-99.8952,-96.0171,-82.5139,-56.2807,-11.8357,-14.9494,-95.8807,-104.1695,-122.7948,-107.4674,-47.3411,-31.2352,-25.3724,-88.2539,-15.7934,-36.5404,-107.6932,79.7932,-138.9897
-68.0879,-122.6594,-47.9718,-58.7822,-11.1360,-58.7904,-136.4044,-132.5997,-147.8078,-170.9870,-18.7192,-90.1681,-8.8282,-121.6677,-34.0733,-55.0892,-76.3665,72.2266,-160.8461
-78.2464,-129.2175,-35.1651,-58.7424,14.6698,-77.6901,-112.5246,-134.5571,-140.6637,-126.7718,-34.6698,-65.8777,-13.1554,-95.5341,-30.8441,-43.2877,-82.5442,65.7573,-148.6878
-95.4111,-51.0693,-36.7272,-29.0550,50.0443,-42.9615,-92.7760,-62.1054,-124.3409,8.8668,-52.1240,25.5852,-17.4956,-55.3862,-19.4277,21.6996,-111.3352,79.5283,-109.8851
-55.4456,5.4865,-4.1015,4.0044,58.9363,-12.6169,-125.6465,-35.7275,-140.0894,-3.4277,-23.4085,71.1993,-2.4874,-69.4133,-53.6524,24.7256,-71.3260,33.3195,-90.0226
6.3818,-53.2558,70.2720,-2.1786,79.1732,-34.7353,-130.3639,-149.9074,-136.0134,-178.0213,29.6157,34.9538,34.0779,-100.2512,-91.2498,-76.9301,-1.8888,-50.3349,-89.0346
38.1097,-133.5916,131.0483,-38.0383,113.0860,-73.8761,-59.6013,-249.3606,-56.0058,-251.9262,61.0707,-22.8577,67.2698,-102.4334,-51.2722,-154.1011,26.6810,-69.9229,-64.5468
47.4106,-133.5296,120.4425,-62.5052,82.7174,-93.3620,-15.5570,-201.2943,-2.0016,-164.6247,52.0315,-35.0316,58.3619,-105.8671,4.5731,-149.2879,45.9041,-75.4502,-51.0265
31.0693,-97.9656,42.8434,-69.0034,-35.4860,-97.8033,-86.5175,-142.7444,-81.1367,-128.7494,-0.1337,5.2632,-5.5643,-128.9713,-34.9647,-148.5361,58.7147,-155.9588,-114.5492
-18.0250,-99.7238,-36.0408,-76.3178,-172.2263,-81.1191,-192.8595,-179.8701,-184.5883,-191.5394,-76.9981,46.5642,-92.3745,-135.8901,-117.6496,-163.5123,27.3152,-226.3095,-189.7409
-56.4977,-127.5381,-69.3492,-85.5468,-238.9420,-63.4569,-204.8651,-176.4269,-164.7500,-166.2000,-123.1732,50.2406,-141.4963,-121.6967,-130.0862,-119.4683,-11.1470,-211.6094,-161.6755
-66.3856,-137.2608,-85.3822,-98.2233,-201.9113,-105.2424,-131.5494,-62.2956,-85.7540,-30.7107,-108.3330,21.3038,-123.8760,-125.3894,-89.7174,-42.0203,-33.9283,-208.2623,-70.0320
-84.6070,-114.9867,-121.8829,-120.0792,-136.9187,-172.9359,-81.9646,14.1696,-75.2567,18.2574,-80.7739,-17.2025,-87.5875,-137.9920,-57.6972,-27.0040,-79.2920,-258.2251,-40.1336
-102.4536,-73.4466,-150.7094,-113.2530,-125.4888,-151.9781,-88.2109,-22.6458,-109.8819,-54.4824,-83.1821,-11.8124,-83.2669,-107.8840,-37.1788,-69.5282,-108.7557,-251.8512,-85.8637
-76.5407,-21.8348,-127.8894,-35.9380,-112.0158,-46.7218,-94.2375,-69.0698,-117.3940,-81.3094,-79.1537,78.7586,-79.5782,-45.0733,-45.6986,-84.8507,-60.4501,-147.6281,-131.7973
-20.5308,51.3953,-64.9565,69.3135,-38.5357,34.3607,-84.9140,-57.2507,-104.4354,-28.9760,-35.4453,178.8321,-38.7518,-12.6157,-96.1005,-53.3917,11.2897,-17.9218,-139.2212
29.0334,141.2491,-3.5618,129.5430,13.8416,58.3108,-82.2558,-10.7233,-84.3894,-3.1033,14.9391,182.0008,5.2427,-17.1930,-128.0774,-19.7190,46.4987,90.0703,-113.3375
58.8238,188.1193,29.6758,137.0986,-0.9368,52.9932,-60.0953,51.1597,-40.2270,4.8634,37.7954,124.4050,19.8341,-11.0623,-110.2071,14.7367,60.2280,140.0678,-67.2101
52.3559,153.5416,32.1994,115.5240,-3.0565,29.7043,-0.5444,100.2340,17.3802,61.3305,35.4816,100.9389,19.7016,11.7977,-90.2139,71.6130,45.5076,95.9636,-19.8489
19.9375,99.5075,29.0673,81.6590,35.7852,19.5140,49.3764,116.6250,70.3057,141.8632,18.2126,107.6169,12.2388,16.3179,-79.2423,114.7157,5.7025,27.1138,20.3776
8.6529,85.7528,43.3586,64.9835,61.2342,37.6438,75.9534,149.9805,124.0955,207.6716,-1.3268,98.6246,-5.1406,3.4592,-53.6879,117.7105,7.2176,36.3491,55.9852
17.7032,68.0234,59.1102,69.7882,63.2200,35.2687,114.4797,206.0108,154.5284,226.5898,-12.2088,64.7406,-16.0851,8.2816,-38.3021,119.2735,49.6617,93.2906,68.4589
12.4450,18.2048,61.0079,62.8362,69.7128,11.6325,138.5421,188.7885,129.3202,162.5556,-13.6439,18.2855,-9.4999,33.6451,-44.8919,119.8117,57.5343,112.3615,48.4148
5.1597,3.5854,59.3631,44.1234,80.8935,31.6163,116.2704,116.1139,102.6907,108.6600,-3.9294,-2.4647,3.8996,44.9777,-36.0463,94.5339,28.2250,90.9944,39.9442
-0.3295,38.2555,32.3093,29.8626,51.0783,74.2963,113.4589,140.5148,141.8486,177.8168,-3.5435,19.7281,-2.6712,34.6373,-8.9327,109.1356,-1.2286,57.3692,68.8278
-39.4350,44.7225,-44.3569,-1.3352,-62.9706,63.7730,152.5784,241.6741,184.1964,251.4787,-50.1487,30.5628,-50.5357,36.3470,12.8233,191.9962,-42.1395,23.5574,89.5721
-89.2293,12.2208,-106.2584,-41.7436,-176.9453,14.5102,134.0911,253.7250,139.9003,215.9610,-112.1364,12.6722,-104.3481,51.1243,30.1649,223.7112,-86.1647,8.2245,85.3307
-101.7575,-9.1193,-99.9679,-46.4061,-161.4930,-24.0328,48.8871,214.7764,67.9138,219.9053,-123.3182,21.5456,-113.4493,34.7384,28.8078,170.2155,-102.5083,-5.7161,99.1816
-111.3715,-21.3161,-106.4529,-36.0351,-110.4076,-42.1679,22.3943,269.5111,66.5715,319.4276,-118.3934,42.0079,-115.8542,0.7530,0.0927,156.5567,-113.5346,-51.9115,113.1999
-141.3035,-20.1933,-182.6581,-50.7550,-192.6516,-19.9646,67.1078,330.0033,93.0742,318.8871,-150.4174,19.5966,-154.6480,20.9770,-10.1726,192.9341,-135.6713,-89.6395,66.6357
-130.3314,21.7880,-227.9945,-53.8824,-294.4755,25.9290,68.9277,256.0845,65.4134,201.3515,-150.7353,-2.7633,-158.6991,76.1069,3.1643,180.2621,-136.2460,-81.1537,-5.4539
-74.9490,45.0423,-176.9401,-28.9205,-243.5230,6.6444,14.5164,155.9379,17.8911,157.5141,-75.1270,6.7703,-87.5589,60.8874,-18.8931,150.3014,-120.3493,-80.6054,-31.2901
-54.9127,-5.0183,-116.5119,-31.9056,-149.5702,-77.0348,-14.6939,162.1556,15.6110,187.9442,-17.7189,-11.3530,-32.4965,-27.0651,-51.9992,166.6673,-127.6483,-95.0680,-19.6795
-80.6749,-41.6790,-104.4154,-64.6867,-132.5558,-111.7308,-2.8487,203.7124,37.7977,189.6766,-34.9622,-54.3253,-41.4067,-77.8006,-23.2655,169.9978,-146.7163,-45.7007,16.5771
-105.1597,-7.7650,-101.7172,-74.1520,-114.2600,-83.0822,2.6876,202.1796,27.9104,198.0369,-84.9955,-67.2800,-75.6575,-54.2630,7.2901,130.1159,-138.5015,31.6559,85.9947
-125.9640,13.5751,-100.5109,-68.7138,-85.5302,-77.0336,-33.8052,180.4012,-27.8211,211.5348,-154.5141,-88.1436,-141.8362,-24.9196,-56.5887,99.3436,-97.4841,12.2937,126.4200
-137.8160,-8.4848,-104.6258,-80.0443,-112.0129,-92.6409,-88.5353,140.4714,-77.5032,152.2980,-217.2974,-140.4933,-217.0803,-29.8463,-136.3266,87.7720,-48.6070,-64.4630,105.7369
-111.4290,-15.2459,-64.8412,-88.1200,-111.5697,-72.9547,-65.3966,86.6403,-38.2780,76.9548,-195.8870,-138.0809,-195.6417,-35.4608,-96.5311,91.5671,-24.2614,-53.1161,115.6844
-72.1223,-7.5835,6.3546,-72.2504,-26.7480,-32.3075,55.2459,56.6487,72.9799,58.3035,-117.4916,-62.5050,-96.3836,-9.5286,16.4371,106.1246,-27.4513,29.8493,158.2724
-56.6924,9.1360,10.8876,-41.0926,15.2268,-9.8478,107.9548,10.8761,104.0511,13.5627,-85.0764,-14.6725,-59.0112,20.3715,42.4660,57.3494,-20.5069,55.4897,94.3851
-32.8324,74.8625,-52.1159,-1.0652,-45.7316,2.9496,-5.7533,-89.7162,-5.3109,-91.0145,-77.3210,-33.7772,-79.8841,8.0774,-52.5126,-53.4575,15.2218,28.2285,-41.5410
22.2342,138.7236,-66.1922,43.0282,-90.7303,41.9586,-117.3498,-132.9396,-98.3664,-137.6761,-21.7769,-62.3979,-51.6306,-18.6267,-142.0096,-76.8997,55.1314,66.7918,-41.2490
65.9044,122.7597,9.7550,83.5695,-30.8758,125.4964,-78.6148,-40.5845,-56.7367,-71.8392,48.8519,-59.1538,21.1552,14.0916,-123.8169,9.7267,72.1489,184.0679,99.5862
72.7348,91.0528,94.8432,106.6424,89.3154,204.3467,5.3359,60.4699,19.2659,23.3797,90.4842,-33.0737,81.7413,89.1850,-33.7839,52.7157,46.1433,254.0721,189.0775
54.4252,98.6479,116.7817,83.1563,162.9477,196.9877,19.1311,59.9804,23.3638,57.7911,105.5920,-17.5918,115.1466,116.5080,47.8451,29.6010,-19.2042,208.5484,176.0630
8.3574,62.3544,75.7327,16.4272,138.9995,113.9063,14.3207,17.1096,6.5242,15.9598,68.5996,-25.0196,92.3123,81.8812,103.5812,40.6411,-68.2024,125.5589,152.4234
-50.4252,-29.1925,14.2907,-39.9569,96.6072,33.1610,43.4817,-6.6438,30.2406,-35.8666,-7.8055,-23.8743,24.0902,33.0183,142.3575,60.9660,-63.7565,75.3853,155.7957
-72.6691,-64.2028,-22.3464,-66.9384,111.9182,-29.1131,84.3052,-10.5899,70.8763,-23.1146,-34.7270,-12.6708,-0.6981,-20.0793,151.0640,29.9827,-45.8429,32.4211,186.5931
-62.2720,-45.8943,-28.2541,-97.1435,122.7475,-77.1776,129.7905,35.2791,112.0464,41.8320,-9.1183,-49.4589,23.6719,-64.5118,130.5818,9.1556,-57.2037,-8.9110,256.6152
-82.3154,-84.7984,-38.4734,-139.8927,77.4696,-74.3059,180.6086,132.4439,167.8479,104.8409,-17.1161,-146.8437,11.9114,-62.4985,110.5930,39.0673,-103.4136,-15.2252,330.8404
-137.3447,-173.0594,-68.6408,-182.5821,36.5148,-44.9856,215.5012,198.8609,220.1028,149.7194,-53.8733,-233.6210,-27.3058,-36.9832,109.1181,56.4267,-177.5874,-24.5985,356.1579
-163.8258,-208.6303,-92.9366,-215.7748,16.6098,-69.9323,222.6612,193.4457,229.7760,168.9467,-65.8171,-241.6529,-37.2901,-43.4297,111.9675,29.4716,-226.3779,-89.5824,334.2628
-150.9943,-182.4990,-98.4819,-220.9953,-35.5001,-147.3495,191.2902,167.3339,189.7390,160.0058,-87.5983,-172.4180,-59.5145,-74.0889,93.9957,-5.2515,-194.4702,-174.3810,294.7454
-151.8230,-175.9557,-106.1855,-216.5153,-105.5463,-224.7862,135.8512,164.9056,146.1936,162.0116,-145.3088,-104.9527,-123.2389,-102.5059,64.5783,-18.8274,-145.5488,-244.9100,264.7131
-175.1541,-210.9989,-122.1674,-248.2542,-135.8626,-282.9489,134.3314,190.3251,166.0932,204.8109,-174.8228,-113.3071,-154.7292,-132.5334,64.8858,-3.0472,-166.4051,-305.1821,267.3735
-183.5523,-222.7857,-125.4077,-276.3445,-120.9357,-287.1539,196.2250,227.2047,231.5719,254.4970,-154.4078,-153.0892,-130.3872,-149.6528,77.2983,27.6196,-207.3905,-301.1707,280.6474
-177.9399,-198.7439,-113.3530,-234.6542,-99.1889,-223.8246,192.4918,224.0493,225.1913,243.3557,-146.2403,-146.8268,-123.7377,-141.3701,27.5872,27.6370,-196.3774,-202.2813,249.4143
-174.6143,-208.9376,-99.9577,-177.1735,-105.6459,-172.7626,90.8166,146.0315,123.2413,141.3405,-162.8495,-127.9135,-148.0783,-136.5763,-57.9724,-21.2914,-158.0011,-107.1979,178.3727
-151.1715,-232.5233,-75.9643,-162.3099,-113.7695,-167.6693,49.0793,54.4624,69.9994,32.1756,-152.4073,-127.1960,-138.4217,-128.7714,-58.6381,-63.5696,-118.1685,-71.6893,129.7641
-109.6463,-164.2706,-41.2523,-132.1086,-68.2535,-124.6368,123.7636,38.4135,133.5435,42.1288,-111.1364,-83.1947,-88.0800,-69.4573,26.0013,-32.4986,-89.1837,-21.4372,115.9010
-95.6869,-56.4616,-36.5419,-70.0525,-16.0468,-29.2770,172.8022,84.2723,187.8242,124.3433,-78.0594,-11.5944,-50.5099,11.8761,76.0965,50.6467,-110.5008,42.1107,84.4043
-91.7049,-54.7364,-61.8495,-50.6769,-26.4451,19.7274,139.5643,95.9705,151.9188,106.5916,-46.6163,-5.6799,-28.2956,28.2147,67.8558,85.6798,-133.6993,21.6846,21.8501
-35.0884,-104.7363,-45.8420,-73.4703,-23.0660,-17.8837,125.1726,30.4835,109.8775,-7.9007,8.6973,-35.4519,16.9081,-25.5928,71.4587,25.6371,-57.1235,-62.8819,-10.9737
40.8861,-79.6297,21.9162,-87.2163,43.5427,-98.9784,158.9589,-48.1345,121.0111,-70.7188,58.0805,-30.9248,69.3576,-86.3047,93.1438,-56.0396,52.7592,-108.4209,22.0362
58.4750,-57.5315,52.2900,-105.1540,52.3555,-169.0486,166.1418,-71.1766,134.6769,-79.6193,68.7828,-40.4651,84.5508,-126.6081,101.2297,-82.1101,64.2628,-105.5594,64.5017
46.0458,-115.3070,14.2284,-121.7387,-24.1403,-170.4801,116.5628,-75.8941,98.9106,-132.3686,74.6863,-73.9673,80.2343,-148.8843,101.8668,-78.9501,34.4148,-97.9910,45.3131
64.2645,-120.2719,-20.6001,-88.8019,-49.2040,-112.6800,22.5337,-131.8204,-3.2541,-200.6107,100.6305,-40.9252,93.2671,-146.7432,80.3053,-103.8264,58.5341,-102.6078,-23.9701
82.0614,-13.2077,-18.4929,-34.3021,-11.5437,-87.8820,-103.3909,-196.4094,-150.1483,-202.1284,104.2990,40.4603,96.0710,-134.1704,-1.4941,-144.5776,77.5100,-135.2124,-72.0144
67.4913,58.7496,-12.2489,-11.7991,-4.5434,-102.6539,-194.6371,-185.2599,-244.0991,-159.8692,70.4713,68.9766,61.4281,-142.6990,-112.6838,-150.9346,63.2716,-170.8839,-54.4631
59.0582,46.5629,-8.5565,2.6949,-12.6343,-71.6654,-177.0040,-135.6351,-210.0518,-136.4259,42.2342,65.1394,25.2224,-157.6533,-177.0280,-115.9426,90.9770,-143.9676,2.2452
61.5642,56.7229,-4.2179,23.4284,-17.6066,-20.0593,-93.8474,-124.9327,-118.3688,-125.2591,22.3290,89.7089,5.4016,-126.4784,-171.7418,-79.9107,125.7873,-87.9549,31.6824
33.3424,92.0599,-31.7220,16.2036,-66.1971,-35.2759,-48.5009,-110.1628,-74.5946,-81.6685,-8.9137,97.1997,-17.9815,-51.9567,-126.6385,-60.0706,66.2065,-100.2747,10.5158
-3.0845,76.5015,-86.9184,0.3101,-112.7547,-66.3761,-52.8883,-32.8975,-72.4717,-12.0684,-6.9372,50.6021,-18.7153,3.2092,-71.0353,-27.5866,-32.8074,-136.0447,-17.3156
4.1733,46.2127,-105.2117,24.1621,-94.3726,-24.3550,-50.0124,40.0347,-58.2609,24.0911,47.7588,12.7751,26.5674,24.8638,-23.9159,18.4989,-60.1868,-74.1936,-28.6045
28.1289,66.8360,-73.1263,69.2490,-76.8504,46.2308,-25.5833,45.3883,-25.4391,19.7494,72.5188,32.8967,51.8700,59.7983,2.7609,36.0020,-38.5834,48.5071,-55.6986
23.4395,108.6956,-52.2537,99.9980,-94.4028,83.9879,-6.2011,36.2766,4.1869,34.4331,32.3772,76.1273,16.8481,113.0313,10.0249,31.9330,-26.4109,111.8397,-99.7726
15.6540,133.4545,-59.3421,125.9223,-73.1416,123.0617,-1.7425,53.0564,10.5115,65.6276,10.7611,95.4053,-5.7582,148.7872,7.0209,52.4250,-11.9674,123.4891,-112.4213
28.8308,140.5869,-44.9391,150.2290,-10.7563,178.7282,-0.4391,60.1589,-3.2307,62.0173,40.1432,92.8361,24.1073,167.2198,-1.2266,76.3506,3.5848,150.4822,-78.3569
30.8464,118.2167,-7.3189,153.7365,23.4139,200.6897,6.9679,61.8349,-7.0636,59.8098,55.9875,94.2132,47.2770,176.1401,-16.9549,56.6324,-10.1219,179.6687,-30.9901
16.2195,89.8961,2.0109,152.1637,31.4646,192.5052,4.6100,94.8752,-8.5980,102.3244,51.1340,103.4341,46.0414,164.2146,-39.3735,23.9785,-35.2196,192.9449,-11.1960
21.9320,108.1088,-5.8257,178.6026,47.0262,218.5658,-38.7485,109.1558,-51.0460,104.3601,70.9882,107.5197,60.0421,159.4951,-59.5369,28.2963,-37.8485,217.8030,-46.1925
40.7796,120.1917,31.4639,205.8060,60.0471,267.4359,-108.5710,33.1648,-107.7045,-0.0651,86.8009,93.8501,69.2056,189.1831,-72.0444,55.8229,-27.2311,231.8249,-115.6250
52.8862,55.3679,104.6544,185.9086,60.9947,253.0497,-140.6712,-74.9598,-110.8976,-114.9578,68.9743,49.1634,48.6054,199.1370,-73.7813,71.7010,-0.5967,192.1829,-168.2282
104.0808,34.5023,148.2250,162.3746,63.4310,177.2232,-121.0613,-101.6077,-81.6838,-135.7260,89.3908,-4.0792,61.1878,156.3504,-53.0641,67.0991,77.9272,152.7424,-204.2095
200.6888,173.1626,145.3024,202.3359,72.5454,143.6538,-103.2744,-58.6823,-76.0530,-89.7866,171.5294,-4.7861,128.2799,130.8758,-10.2153,60.0449,179.4145,178.9236,-241.3436
228.1686,297.4761,113.2356,243.2163,71.6910,179.2343,-96.3460,-45.5569,-68.0661,-50.1110,193.5867,43.2060,146.8323,158.5298,30.3163,76.4836,203.8801,222.3920,-235.4996
136.0645,233.2217,59.2778,196.9693,48.5592,198.5044,-59.4515,-71.6627,-24.0617,-33.9828,101.5579,63.1723,73.5994,176.4327,56.2193,94.0238,131.8244,225.2486,-177.4294
49.1732,123.0830,18.5174,129.7126,33.3780,163.9119,-13.3239,-61.8797,14.3385,-23.5928,24.9257,36.2569,15.1769,150.1373,71.0478,64.5532,62.8072,218.8404,-149.2078
58.6006,105.3712,32.8697,128.7391,50.0542,129.2738,-17.3958,-10.5717,7.7455,-24.3615,51.4165,-5.0445,36.5064,113.5620,55.0039,27.8846,59.8856,229.0341,-164.4831
99.6552,78.6063,76.8579,149.3306,53.1417,138.6983,-58.5432,17.4529,-26.5326,-51.6501,100.1281,-54.2406,69.3816,100.3263,-3.0605,58.4543,88.4116,234.5253,-146.3302
116.2576,27.0806,101.9371,156.5637,28.5576,186.3048,-80.9448,15.8131,-56.2192,-64.1342,100.3721,-64.9185,63.8214,125.8700,-49.8777,107.7129,121.7288,226.1093,-100.2737
131.3454,71.5212,108.0301,179.8261,49.6994,220.0338,-71.1841,28.6157,-58.1615,-5.2372,88.9965,13.0206,55.3539,167.0171,-32.3959,87.8196,160.2809,180.4080,-77.8666
144.5194,132.3045,109.4744,174.0715,116.6121,171.6624,-39.9908,54.7949,-30.8819,83.0063,100.8686,75.8831,72.6369,158.5009,17.3459,36.2300,172.1541,73.7314,-42.9230
143.8917,63.0109,115.4667,98.3923,142.1675,61.0164,-0.5947,71.3256,-7.1542,117.9725,127.9575,8.0742,107.7747,87.1762,40.0025,22.2073,149.7520,-8.9301,21.8451
158.2265,-29.4382,140.7076,41.5948,139.3615,-15.4475,11.4666,88.1053,-14.3480,112.8655,165.5896,-99.3125,150.4217,11.3712,37.2108,24.4942,149.2268,27.1239,54.1111
185.8424,-19.8777,157.3972,49.7410,169.2393,-43.6355,-17.1383,115.4573,-39.7713,121.6421,201.3826,-129.9450,182.5905,-42.1984,42.2053,16.0795,181.3582,89.4577,66.4718
181.1220,2.4113,118.1212,44.0947,181.2005,-75.2015,-36.0410,141.9876,-50.9117,134.4390,206.6483,-121.3112,181.7280,-80.8035,57.4557,11.9235,185.9784,43.6097,114.9269
138.6772,-27.4045,54.5796,7.7004,127.3535,-94.6279,-4.1702,147.1029,-19.8881,121.9093,167.5021,-104.2963,141.4978,-90.8370,58.5836,-1.1505,149.7630,-49.8740,134.8695
86.5420,-55.8919,23.4736,-9.3824,63.6707,-91.7269,44.8085,108.9617,45.0152,91.4070,94.4512,-60.3889,71.1719,-86.8976,26.8247,-39.4640,114.0115,-83.5602,64.3313
41.0368,-72.6202,4.6337,-22.3950,28.7206,-124.9087,51.8187,59.1277,78.2943,76.4716,27.6800,-41.8845,5.5389,-111.6967,-25.5794,-61.0523,87.3439,-97.7786,-9.0192
19.4246,-77.3426,-22.0190,-41.4561,13.1273,-172.1530,-0.5823,76.6090,29.0093,103.1595,13.1962,-76.4492,-10.8050,-141.0644,-52.7950,-30.6544,57.0881,-127.7446,-23.2561
22.3218,-50.0493,-20.2942,-25.3787,23.5859,-132.3868,-77.7689,134.3349,-58.8909,128.5533,34.7775,-99.1046,11.4286,-111.4928,-23.4066,16.1182,31.8267,-94.7415,-44.7811
25.4951,-43.5740,13.3045,12.7930,53.4524,-20.8322,-118.5271,101.4997,-97.7170,75.8459,41.6025,-100.4024,23.6058,-25.2787,39.1399,27.1697,25.8272,8.5033,-93.5153
29.8882,-75.0426,45.4226,27.7612,83.8084,51.3211,-87.7268,-24.4185,-55.3057,-31.7899,33.7190,-115.1338,18.8707,60.4100,95.2533,-2.3276,45.5552,57.6337,-108.9265
35.7176,-63.7371,62.7940,16.5974,103.1232,44.9707,-11.8796,-108.4251,24.6830,-108.6534,18.3667,-110.3700,6.1356,99.5799,131.7784,-35.0989,69.8901,2.2635,-89.2004
8.7140,-35.7458,40.6539,-20.2636,67.8790,3.6103,59.9622,-101.0777,76.1727,-129.9810,-22.4789,-79.9347,-22.8396,88.3970,142.6819,-30.9306,51.9687,-59.9070,-61.7746
-31.6095,-85.1301,-24.4175,-65.8243,-15.2096,-17.7464,110.8381,-43.3383,91.7948,-81.3113,-43.9929,-81.6057,-33.2748,62.5092,128.2660,8.9390,0.0622,-50.6623,-9.7136
-27.0567,-144.6679,-57.5171,-76.2257,-32.1435,-14.2589,145.9993,36.4724,124.3216,32.2102,1.3743,-111.2480,7.2786,34.9647,116.1233,31.5141,-26.0644,-12.1629,45.2954
-17.3020,-128.9264,-34.4916,-73.0942,30.0191,-48.4626,160.9370,68.6853,173.1118,77.8362,29.1673,-128.8560,28.9967,-17.3924,113.6792,-4.2022,-31.3698,-9.1439,39.1302
-51.3277,-95.9313,-29.5455,-84.3609,44.7853,-105.3815,150.6066,2.8590,171.8413,-13.7064,-23.1251,-128.3908,-17.1171,-53.9343,82.7314,-61.9494,-44.0352,-18.1583,-7.5154
-46.5112,-57.5214,-28.3470,-40.6073,27.1445,-41.0229,130.2245,-51.6533,124.2687,-73.1352,-45.6062,-82.9816,-37.7670,0.9574,30.3914,-81.4579,-12.7737,27.2738,-20.6951
39.4396,24.8154,52.3413,60.8546,93.9915,145.0263,114.6496,-17.1568,91.8304,-24.4535,28.0513,3.3830,30.1913,96.2900,26.3409,-82.6886,69.9560,114.7899,-9.3289
101.1586,60.2997,153.1996,99.0202,176.5702,235.1912,89.2885,-33.4516,63.5637,-65.7726,96.3035,42.0516,102.1607,122.2057,70.2287,-125.6242,108.9612,158.3985,-21.4255
104.4410,-1.9435,174.7444,74.6556,161.8613,153.3783,50.9380,-177.8769,25.9378,-248.2398,104.6577,17.5944,111.8012,105.4053,84.9684,-181.7311,106.3304,123.6149,-26.8929
123.0605,-40.7271,173.3262,84.3059,135.7845,58.9555,60.3246,-274.8347,56.2839,-328.8866,100.9379,11.3421,94.3979,126.1942,69.3241,-173.0546,149.8402,56.2353,28.9568
137.3734,-15.9676,212.1106,77.4619,177.2041,26.0045,156.1953,-212.3472,162.7296,-221.1369,83.2416,26.7485,79.7655,147.1451,87.8348,-123.1189,188.2825,-10.0520,106.1185
99.0497,-6.3592,231.8180,-1.9135,192.8403,-13.1086,237.9110,-136.3022,210.9146,-135.1380,38.1536,28.6843,64.1785,105.6595,125.1283,-122.7715,142.8753,-67.6473,102.7313
71.2702,10.6318,197.9964,-35.3109,129.2311,-58.8158,188.9955,-168.7792,151.0892,-177.1826,10.9167,41.6782,45.6842,50.4960,121.8903,-157.9583,101.4608,-67.4428,7.3361
77.9167,66.5508,142.5060,33.5189,65.8256,-55.2170,88.5666,-194.7820,101.5132,-173.7805,6.1093,48.7261,17.7164,71.7866,103.3854,-114.9509,114.1577,32.3295,-56.7515
49.3077,72.8768,74.4626,88.5230,49.9855,-2.2254,95.5904,-67.9432,128.5498,3.7349,-8.6673,20.9245,-5.8633,171.1078,126.7830,26.4322,81.9199,146.7207,-5.7011
5.3943,7.6378,23.4144,72.0469,43.4327,51.8814,170.6531,104.5922,152.0159,155.5762,-12.6546,31.0220,4.0742,231.4974,168.0838,119.5043,16.4409,133.6473,60.0931
15.8373,-47.2785,38.1190,19.4141,21.3802,35.8432,147.5410,61.8150,94.9267,11.7989,2.9279,81.3608,23.6914,135.3262,160.3291,39.4388,36.1530,0.2898,15.2451
36.8736,-82.2596,80.5287,-56.3328,24.9293,-64.0054,17.5161,-202.6869,-19.7457,-299.3827,2.3147,38.7594,18.7444,-57.8071,90.5467,-128.9850,94.7596,-95.6611,-78.8792
17.2860,-112.8350,90.9305,-108.1987,96.9817,-134.2033,-84.2745,-382.5114,-112.6472,-404.4931,-2.1811,-79.8465,19.3406,-163.6732,11.5273,-211.4627,79.5841,-71.6525,-94.9099
0.8564,-97.6168,97.2321,-81.1718,189.2807,-100.8431,-97.1074,-326.0746,-124.8713,-274.4052,13.2528,-109.1532,39.4249,-135.1951,-20.3521,-182.5892,37.8506,-9.3587,-49.6024
7.2594,-53.6699,125.4375,-37.3328,220.0675,-51.6831,-62.5226,-222.6653,-74.3608,-185.9714,14.6092,-55.4851,39.1605,-86.2839,-3.9827,-126.8219,40.4633,5.0199,-17.7422
9.2409,-46.7170,137.1883,-43.6633,201.7060,-42.1339,-25.8104,-203.0089,-32.1110,-193.9951,1.1978,-48.3771,26.8361,-67.7799,20.8019,-69.9030,51.8977,-10.9595,10.1823
12.0945,-67.0997,108.9570,-52.9692,172.3287,-10.8578,-13.5533,-159.1564,-27.9071,-144.3130,13.4309,-84.3124,34.3253,-40.7029,30.1761,-16.8147,45.3917,-17.4951,51.7368
5.0784,-82.4173,50.4331,-37.4859,102.4521,44.1760,-22.7242,-30.2511,-26.7210,-23.9751,18.1662,-88.3967,23.1744,-14.0926,21.7282,-4.3024,23.0259,-11.7288,82.0188
-43.2162,-92.9197,-9.9240,-28.9667,19.6036,79.6542,-17.1382,102.6753,-6.3598,87.9129,-29.0691,-46.0722,-28.1218,-13.4245,-4.2514,-6.5185,-26.9577,23.7891,109.5017
-86.6502,-72.7019,-12.6970,-0.7641,31.0334,134.0521,-2.1174,184.8340,-0.9031,170.6404,-75.5799,34.0875,-59.4896,-3.4918,-35.8661,25.9696,-56.6009,110.6259,146.0236
-68.1764,-13.1823,51.9501,70.5962,121.8080,205.8929,-34.6192,209.4737,-49.6065,200.2402,-74.9708,115.7280,-49.6409,28.3316,-68.5991,45.1673,-10.7647,193.3848,146.8002
-35.3921,26.8144,104.9708,111.2583,171.8070,191.2634,-112.1042,184.2197,-131.8099,178.9977,-64.2473,130.9675,-42.9149,25.3721,-118.7013,13.9928,38.4150,193.6394,103.7492
-42.2263,24.5606,112.1101,80.1500,173.4526,92.5267,-155.5839,165.4934,-172.2913,180.1903,-65.4796,81.1504,-43.5128,-28.5758,-160.6087,0.7145,12.1167,149.1641,86.0080
-59.8849,21.1039,116.9991,45.1053,197.1876,43.0625,-116.9893,193.2806,-114.9126,217.8651,-59.5922,39.5941,-31.2020,-62.9985,-129.1672,25.6564,-34.1481,154.2148,121.1425
-66.8401,19.0486,117.6025,47.1364,224.8991,72.4398,-19.4660,221.3936,15.3111,223.0987,-52.3636,43.9390,-24.9737,-34.4503,-41.5332,19.7308,-47.4830,177.0516,160.7725
-77.3497,-13.6015,85.3363,44.9199,195.3394,83.2151,72.8514,186.2167,127.6842,155.4691,-52.8926,67.6549,-34.5712,3.5237,0.8815,-23.8468,-62.9632,114.6237,159.7503
-75.1578,-67.2764,50.8958,16.4069,114.5795,42.8748,93.1694,74.6874,148.9339,29.0302,-40.8002,66.0789,-33.9323,-3.1191,-31.2512,-56.2117,-82.8973,-2.9339,104.6801
-47.0983,-96.5107,32.0363,-8.0844,41.8077,12.7793,52.0127,-49.9256,101.8327,-71.5528,-9.9144,36.1751,-12.1196,-23.9146,-55.4919,-69.4323,-75.8524,-53.1876,24.9103
-30.7382,-69.7669,-5.3776,-12.4147,28.5365,19.1555,41.5426,-78.2971,77.3656,-48.7795,18.1127,27.8528,18.2107,-24.1390,-6.1799,-67.2124,-71.3659,-13.7403,-14.1497
-44.3568,-9.6720,-52.0856,-8.8985,71.2401,25.5089,89.9724,-19.3762,109.8491,23.2760,30.9427,52.7313,43.1435,-32.7859,76.9393,-50.9210,-89.4237,52.2472,-5.1535
-44.4178,31.3034,-54.2517,16.1122,120.7182,30.3398,124.7585,-16.3640,144.1954,-2.4320,37.1529,75.1416,53.1435,-46.9386,100.4828,-38.9950,-71.1121,117.2067,-11.6622
-1.2787,60.8892,-3.6010,92.9118,150.3314,89.2920,122.1947,-76.9328,151.0674,-62.3109,51.4554,126.6688,57.6179,1.7015,49.2272,-19.0496,3.5282,173.3140,-36.2977
43.7756,113.9060,50.4664,179.1375,151.2973,195.5411,129.6477,-53.7081,164.8656,-30.3169,71.2368,233.9786,69.6196,103.5051,20.7884,26.3997,47.0244,191.0279,-18.4549
31.4693,132.1037,45.1165,178.7325,89.7049,247.2724,141.6782,41.0349,184.0025,20.4120,66.9637,285.7737,66.5258,152.8280,62.1516,58.4937,-6.3956,157.4109,25.8140
-31.4857,58.2915,-28.4030,97.4328,-19.3659,206.3066,119.2536,57.4138,165.2161,14.4488,26.1313,217.4748,27.8902,126.0473,79.2863,67.4771,-103.4245,96.8432,17.9751
-79.6082,-16.9870,-86.9294,48.5160,-74.1656,152.1338,79.0455,4.1531,117.6170,18.8899,-9.4150,144.9410,-6.6936,106.7097,25.3814,101.2722,-163.8460,54.9744,-56.3739
-83.7237,-11.7805,-72.1432,59.2531,-39.3931,123.7600,42.8500,-18.7361,75.3162,32.3891,-1.5144,119.1118,4.3809,120.9682,-0.3288,142.3089,-190.4930,57.4223,-145.8537
-82.3729,-0.3237,-51.0023,44.6614,-17.3344,84.7435,-7.0438,-28.4906,21.3936,-10.1886,12.4617,69.9100,22.4785,114.3590,37.2926,136.7665,-214.0128,54.9661,-202.7582
-97.1616,-22.6338,-76.7216,3.3128,-71.8511,55.3764,-62.2350,-63.1638,-50.8180,-65.6228,-27.6493,62.1513,-15.4030,81.2220,34.1710,110.6830,-198.3525,-9.1686,-208.3566
-90.9770,15.9937,-87.9666,25.6167,-123.1280,77.2601,-84.4979,-98.0066,-89.2914,-95.0714,-92.2334,191.8730,-81.7639,73.5875,-32.3403,96.7012,-110.3111,-85.2150,-182.7161
-42.6119,117.9868,-58.3599,84.7065,-104.5499,80.6495,-78.7289,-145.0379,-81.0532,-146.1501,-86.0577,301.5282,-82.6663,85.1035,-58.6515,73.5238,-23.7171,-117.9039,-164.7639
8.1378,134.2968,-55.8232,51.8810,-87.7626,-18.0162,-86.6654,-217.8726,-85.8037,-205.6763,2.0922,208.7905,-3.2139,38.3962,-21.9646,42.9108,-26.5519,-160.1897,-161.8609
24.9116,29.9532,-93.0109,-57.7719,-142.2354,-147.1582,-118.1883,-245.6406,-121.1237,-213.9458,77.1792,36.1451,65.0377,-81.2785,-5.7791,13.9262,-76.1428,-214.8654,-146.4953
30.6224,-32.9792,-102.6800,-88.2535,-185.4326,-174.3047,-137.5195,-185.0502,-137.4004,-175.9196,89.4750,-3.7747,71.4921,-165.3479,-34.3714,-29.6168,-64.7818,-182.4016,-93.0873
60.8273,48.5033,-55.4439,-5.5774,-117.7385,-104.3509,-123.2678,-101.3536,-126.4712,-105.3377,81.4656,80.0873,62.6248,-126.1327,-55.5024,-53.1161,18.5441,-94.6224,-8.8964
97.6204,166.1016,18.8716,68.0892,-7.0004,-46.7766,-113.6317,-55.1549,-132.6264,-12.8679,73.3007,152.8465,61.9006,-26.3488,-50.8641,-14.1741,89.9246,-88.0714,53.9705
101.6676,177.0224,74.0017,77.0176,25.6058,-38.4264,-141.9285,-29.6556,-158.3624,44.0694,49.8045,158.8327,43.5143,28.8599,-46.9704,36.1250,98.8979,-129.5894,55.1808
87.0472,101.9994,79.5358,72.8338,-4.6889,-30.5591,-164.9668,-0.5376,-167.8729,42.6368,44.3090,132.3288,33.7614,36.5237,-47.3719,48.8179,74.2930,-112.4744,32.9050
95.1826,54.2036,62.6350,66.2410,-25.8104,-22.2206,-149.7527,0.9866,-165.2267,7.2876,87.6458,108.0858,73.8665,32.3240,-34.6874,46.1344,53.4700,-94.8802,34.1302
112.0228,57.5145,66.9454,27.6449,-47.4187,-64.0733,-154.8414,-73.8238,-185.0122,-83.8388,118.7722,75.1590,107.2049,-2.4804,-33.2437,21.7416,40.4515,-141.7103,26.1752
89.3365,48.3299,68.2304,-20.5853,-92.9839,-135.9417,-216.1254,-203.6550,-232.3566,-223.1463,66.0130,26.8833,54.6548,-74.3653,-91.9521,-45.9759,40.7887,-175.9150,-21.9457
27.4427,5.7087,30.4048,-47.1407,-126.3772,-165.0929,-272.4632,-292.5406,-279.3640,-296.7035,-42.4129,2.8472,-52.6760,-128.3953,-180.5073,-111.6678,56.4923,-169.5659,-59.6916
-34.3150,-28.9882,-22.4795,-71.5659,-129.4350,-157.8267,-280.9521,-269.3925,-294.0354,-229.6838,-124.4960,8.6918,-127.1755,-136.8983,-199.5176,-131.7483,44.7635,-186.3055,-45.9361
-77.5966,-31.7127,-76.8558,-109.8174,-140.7586,-173.7014,-265.0538,-151.9513,-272.2465,-79.9092,-144.4110,-15.9979,-140.5118,-143.0624,-138.3149,-111.2249,-23.7119,-199.3492,-20.7181
-99.8027,-16.7080,-137.7361,-132.0226,-169.4904,-197.5155,-245.0867,-27.4079,-254.6562,41.1098,-123.2527,-75.6993,-117.9334,-168.8936,-98.7296,-60.0453,-92.2692,-138.9469,-30.7587
-88.5275,0.2023,-146.1228,-103.4085,-155.6415,-167.2079,-234.1153,15.2747,-265.1752,58.6050,-85.2075,-98.3854,-79.9821,-162.0565,-116.1076,-9.0526,-99.3051,-48.1140,-56.9518
-47.9266,10.2617,-67.2427,-43.8689,-74.6967,-95.8728,-231.5516,-10.8182,-256.4854,12.9355,-40.3001,-73.4752,-38.1412,-91.3283,-109.9272,16.2142,-67.5564,-18.3516,-51.3958
-20.2523,-0.1579,-1.3939,-28.1221,-18.6502,-56.5000,-194.6124,-8.0150,-200.0715,6.5626,-19.5107,-62.4371,-19.9644,-26.3732,-55.8098,53.2775,-44.2223,-71.3132,-26.0645
-42.7541,-34.8257,-34.3749,-80.6728,-65.6592,-68.0827,-123.6618,23.6467,-148.7190,13.8224,-54.9334,-82.2258,-50.5826,-34.3034,-33.1737,102.0800,-46.7974,-149.2853,-51.4487
-97.4592,-68.8590,-104.6426,-121.9239,-134.6899,-86.5364,-80.6373,-13.7806,-117.5504,-53.0109,-108.4347,-98.5758,-100.6817,-63.3413,-58.6808,89.5097,-87.9099,-173.1931,-131.1685
-134.8796,-74.8967,-136.6872,-110.5431,-127.6000,-99.2626,-54.7909,-105.3524,-57.3239,-125.9985,-117.5294,-96.0070,-112.6637,-47.2478,-56.4062,30.2924,-152.6994,-150.2328,-188.6852
-136.8005,-54.9042,-140.7755,-107.9973,-106.1974,-131.8067,-20.9208,-163.0012,-13.2559,-134.9683,-104.8136,-85.4047,-97.0657,-33.5468,-32.1073,1.7603,-180.6012,-157.7564,-237.4703
-122.2491,-17.0721,-135.5321,-113.6366,-146.4512,-157.2047,-76.5882,-219.4862,-85.9118,-185.6082,-127.6877,-75.1521,-119.4383,-70.7616,-75.6557,-20.6227,-141.3882,-175.4135,-365.6267
-106.8599,37.3830,-123.0680,-61.4812,-188.5901,-124.4231,-236.6029,-311.4453,-213.1270,-298.3070,-171.4901,-55.4783,-181.9749,-96.9116,-162.6040,-68.8630,-71.0563,-132.3314,-509.5501
-91.0943,74.7036,-113.4398,-4.6943,-181.4031,-76.2495,-304.1169,-340.1270,-248.0181,-315.1580,-190.0828,-16.8121,-213.6814,-69.0228,-177.6794,-81.7845,-14.9624,-91.8577,-513.3154
-68.5709,52.1193,-88.1213,-21.3144,-159.6316,-83.1707,-221.4709,-272.3084,-210.4797,-234.5371,-164.4479,12.7611,-173.1507,-47.8843,-133.8039,-56.6599,6.4273,-112.7387,-404.4984
-30.7473,-0.7397,-30.1531,-34.5670,-125.7161,-104.6311,-191.7903,-227.2871,-214.2205,-218.1954,-89.3771,-1.8214,-89.5869,-68.9809,-124.6461,-70.7143,1.1004,-96.7003,-328.7016
11.3335,-17.9482,6.8834,2.4315,-77.4343,-92.3765,-267.5339,-241.6726,-242.3644,-256.9904,-3.1851,-41.1275,-23.2161,-91.3153,-118.7523,-125.0741,-2.5133,-40.7256,-290.9608
29.3027,3.1048,-18.9495,-17.4393,-84.0516,-113.2422,-260.9435,-213.2116,-199.2516,-209.7452,22.6963,-72.1737,-11.1111,-96.7146,-49.4899,-165.5552,-0.6518,-102.7188,-205.5361
22.5543,29.8154,-56.8208,-99.7652,-153.7011,-190.3548,-125.4676,-96.0097,-81.6088,-63.8910,-5.3792,-99.8322,-31.3207,-96.2446,15.9045,-161.6215,-14.7259,-228.0074,-81.7222
8.1108,56.8351,-67.3268,-103.3951,-180.4839,-205.5889,-4.9622,44.0243,27.0259,81.6954,-24.2386,-110.1441,-42.1371,-70.6508,12.8690,-87.7800,-36.5353,-174.8042,2.4743
-25.2650,68.2321,-78.3858,-26.8063,-115.6662,-107.4977,44.1805,119.7937,67.1744,145.8429,-38.1842,-69.5421,-46.4197,-8.5065,4.2041,21.0573,-49.6224,16.2426,14.3127
-72.3329,27.9848,-79.6030,-1.8885,-14.4052,-8.7122,73.0394,92.1530,63.0198,103.8696,-64.4214,-27.3234,-52.8409,47.8069,31.3295,61.7521,-66.4593,76.3753,-5.4626
-74.4675,-54.0181,-25.7880,-49.1450,74.4020,2.9952,100.1653,1.1805,71.8673,-5.5919,-46.7469,-73.8170,-25.6024,45.7867,48.2833,17.9190,-72.1528,-18.7397,5.2327
-16.7671,-120.0648,43.6151,-94.7886,121.3672,-38.3183,108.1617,-90.4083,81.0819,-130.9030,28.2228,-173.7431,41.7306,-15.9877,45.0877,-39.2105,-29.8456,-76.9025,42.4666
29.7253,-119.2023,49.6411,-105.8689,102.8038,-73.0391,81.2584,-162.6138,37.7584,-230.2897,72.1426,-193.4851,81.8360,-73.0002,53.4407,-90.5320,27.4667,-54.6839,52.5944
30.9408,-38.9191,8.6136,-83.0036,47.8564,-75.7695,29.6046,-183.7991,-25.5097,-224.1121,45.1516,-102.8296,57.4202,-60.2912,67.4173,-133.0790,45.5553,-52.9251,50.1932
38.9826,65.2606,-3.3712,-46.2704,15.2994,-55.8286,4.4176,-113.6562,-34.1104,-89.3462,16.6383,-14.9493,24.5584,-10.0438,66.1150,-132.4037,55.6281,-90.4848,95.5749
82.1204,96.6682,31.8667,-28.2099,27.8880,-44.3039,28.2739,-11.0525,-4.7309,38.2190,45.7119,-14.8068,45.4251,-8.1921,41.7676,-109.5099,97.1112,-97.9015,162.6416
115.7342,35.5252,67.2709,-23.6043,65.1692,-44.6588,51.5774,23.5528,0.1906,46.9096,105.8328,-60.4886,101.5240,-53.0105,-5.4971,-105.6525,122.0579,-52.6094,160.1893
96.7797,-30.7060,53.4398,-20.2397,70.9561,-40.4388,27.9336,-13.0835,-30.8934,-11.0240,122.6852,-81.2419,117.5525,-80.7585,-47.1689,-97.1851,85.7645,-17.3240,52.6043
38.8688,-28.4690,-9.5621,-32.2591,2.9315,-52.6417,-37.8850,-65.7951,-80.9911,-64.9532,57.0810,-68.2671,51.7081,-87.7642,-58.6130,-73.7191,32.5238,-38.9171,-96.7704
-9.3557,32.2303,-61.6313,-27.5265,-77.6981,-81.0879,-98.3719,-80.0906,-113.8421,-79.7485,-39.0227,-23.2161,-45.4660,-79.9096,-55.8099,-54.6845,21.2290,-49.7417,-162.1340
-18.4943,108.4363,-54.5230,44.2488,-67.0276,-44.5606,-85.4558,-10.4138,-84.6034,-10.3424,-77.7513,67.3627,-81.5596,-4.1044,-35.1905,-10.3362,39.8133,34.2117,-87.6073
1.6161,162.5044,-21.3531,129.4688,12.1456,79.5291,-10.7214,83.7388,-30.6376,83.3041,-33.9432,151.9569,-28.1428,124.0655,18.9469,57.2320,37.7756,144.1235,14.1538
37.8046,164.9332,-15.0832,137.1458,36.5125,159.2977,22.3745,86.9368,-24.1988,84.6383,52.6400,138.3231,58.3804,174.3997,56.2022,68.5045,11.0031,146.6388,31.5998
82.5846,119.7082,-25.1713,79.8778,-24.2894,96.5955,6.9101,52.8530,-19.4119,59.6785,125.1331,40.3433,111.2631,102.9592,48.0820,26.5698,2.6356,60.4491,25.3761
106.1768,78.2792,-18.5492,29.6498,-68.1232,-11.6288,40.9279,100.7945,47.8903,115.0887,142.1972,-27.3522,117.1780,28.4841,68.4994,19.7938,20.3360,13.7898,59.0567
93.7093,90.3960,5.5556,26.1238,-15.6798,-25.1555,102.7858,143.2253,96.4870,138.9451,117.5896,-7.5944,109.1935,36.4560,135.8739,40.7816,36.0070,51.8984,65.0081
83.7446,135.1452,43.2565,70.7117,85.2979,44.5385,98.0076,69.3264,61.3874,43.8606,98.2040,54.0867,108.0474,79.6594,152.9397,23.8259,62.3542,124.2152,16.4779
97.3715,141.1599,90.0215,126.5422,134.5218,96.0053,65.2631,-2.5777,30.8471,-26.3140,89.8674,91.2035,97.3736,102.3693,88.6122,-0.9011,110.4828,179.8273,-21.9200
100.5993,95.2529,109.0358,147.1620,104.7685,95.4371,62.4848,30.5456,50.7757,7.9393,80.7713,76.1628,75.5130,106.2703,11.6374,33.3397,119.0712,187.6320,-38.6031
79.5110,61.2112,69.1834,126.1673,43.9634,73.5466,44.9092,76.3733,54.1125,56.3333,84.5580,38.4413,67.6071,89.0845,-37.6017,108.4313,58.6805,131.6600,-35.5528
51.0308,66.9117,-6.9548,72.0311,-16.1796,35.7378,26.6304,89.2940,49.8184,110.7694,75.3358,29.7197,54.1056,40.2659,-46.0215,158.0846,4.6375,27.4984,31.6489
7.9508,74.0848,-82.7808,-2.3108,-84.1865,-27.9226,66.6383,122.7345,88.9018,187.9905,0.7181,50.9147,-12.8126,-9.5747,-9.0144,156.8143,1.3607,-78.8503,113.9010
-50.9478,63.8728,-145.9955,-45.4787,-152.9841,-86.8626,84.2622,126.3564,96.4275,163.5452,-96.7678,60.7793,-102.1889,-17.9272,23.6893,127.0333,-5.0115,-131.7649,93.8689
-95.2113,41.5221,-183.4467,-37.1708,-182.3255,-102.7872,4.1310,38.2812,11.2147,11.9023,-130.2558,39.0745,-136.2319,3.9858,13.5731,87.8958,-51.3912,-114.1643,2.3652
-118.1134,-6.8444,-180.1404,-39.8857,-155.3915,-81.8917,-66.1072,-36.6955,-58.7677,-71.8400,-112.9707,-16.4023,-117.4136,11.5203,-8.0672,47.8058,-112.3856,-76.0701,-36.7625
-131.2513,-72.6342,-149.2005,-74.2254,-121.3764,-44.9422,-45.7839,-4.1090,-31.3880,-11.7420,-101.1570,-86.6291,-100.5156,0.8495,-17.5138,40.5909,-154.5350,-53.2949,-23.7021
-116.0399,-109.2523,-113.7602,-71.5847,-128.4110,7.9486,-12.7553,47.4121,9.6349,30.4999,-84.9506,-102.7387,-85.0422,12.0382,-8.3001,77.5813,-147.8699,-2.0368,-39.9837
-61.0511,-91.9263,-73.6470,-9.0758,-128.7041,72.1189,-9.9748,18.2681,2.3041,-26.2513,-42.2840,-31.2653,-43.5193,55.3184,34.2820,94.3102,-79.3179,95.3271,-83.1407
5.7161,-28.9941,-19.3729,61.6970,-49.7529,120.2159,12.2640,-35.8208,13.2154,-66.6687,6.6404,47.4988,5.1784,87.4432,60.2230,64.0111,18.9511,161.9865,-68.6221
56.4032,40.4812,47.5914,100.5322,65.9897,127.4442,70.8021,-12.8304,86.0041,-4.8237,38.0105,56.1910,30.5938,82.5608,18.8133,60.4326,98.3143,161.0874,54.6058
79.1259,41.1949,117.1604,88.2847,128.3812,103.4304,143.7115,85.1037,161.6726,108.3691,49.4223,21.1206,46.4414,72.7207,-4.0446,105.4099,127.5706,156.1249,225.1292
79.8826,-37.4208,167.8955,41.7995,139.7180,88.9020,194.7425,178.6930,176.7983,192.2040,63.7671,-7.7075,81.4237,84.2607,53.2812,129.4462,105.6873,169.5301,327.5239
87.7057,-92.5759,175.0811,24.7744,130.9677,94.9817,170.7469,215.1631,134.3576,208.0159,101.6748,-13.0454,121.6702,84.8557,81.5567,109.8628,76.8512,143.3733,334.3394
102.7709,-72.5023,140.8131,39.0090,84.0510,71.6511,94.8665,191.7956,85.3842,152.8867,123.2764,10.3657,120.8808,36.6764,33.8278,62.0278,81.1572,69.9337,303.9961
92.1554,-35.8949,96.2327,19.5904,21.2377,-1.0226,69.8659,132.3908,82.1685,73.6086,86.3378,36.7034,75.7180,-33.1106,22.7106,-12.2748,98.5819,15.4929,260.5190
75.8573,2.9596,70.1142,-10.5966,11.4840,-54.7056,112.2673,78.8783,123.3728,43.2317,48.4957,31.5109,46.6862,-60.5180,66.5183,-52.8741,106.9190,16.2035,195.2599
91.7242,57.0206,69.6513,10.2053,48.5694,-51.2357,140.6503,47.1796,148.1019,51.9842,66.0755,8.9643,63.9015,-32.3156,71.4731,-14.9878,116.9338,43.8450,126.3298
99.3057,53.1010,80.6821,28.5361,70.6486,-47.3313,125.0186,7.1406,114.9367,17.9341,77.8830,-17.3224,75.6607,-1.3426,42.4127,12.4324,120.7730,58.0752,78.1829
74.9466,-19.3887,85.1619,-3.1520,68.0146,-62.0707,97.3048,-22.2523,60.8224,-27.6408,44.7525,-60.4118,51.6268,-4.3443,34.6047,-17.7762,120.4490,56.0798,79.4720
80.6867,-38.6912,87.6943,-19.4613,67.6999,-41.0844,81.6121,33.1471,48.6131,40.6569,42.3236,-93.8006,47.2975,-15.3820,45.6555,-10.9452,139.7931,64.6230,145.9175
109.5051,-8.4284,99.4097,-13.6864,77.2124,1.3423,94.6968,140.2547,85.3422,175.6746,95.1434,-102.9014,93.5749,-7.7442,83.7693,45.4763,122.7780,77.2688,204.8648
81.1076,-62.7227,104.7218,-50.4062,88.7783,-1.4236,127.7268,172.3437,125.3263,188.5132,125.1705,-137.6072,131.7398,0.6186,136.1712,61.9010,18.8756,56.0479,179.1067
40.8866,-149.0914,100.0061,-76.7341,96.1494,-18.0327,138.9545,106.4755,131.7921,64.7343,116.7715,-167.0095,126.9253,-4.3989,121.0924,52.3259,-38.3942,14.4345,129.4230
83.4675,-100.5778,120.4201,-20.1261,106.8002,18.2888,122.0033,14.7343,106.8161,-46.7654,120.7957,-85.9510,120.5691,-8.0029,43.4312,59.4722,60.7586,0.6024,122.5177
136.4430,34.9720,157.8633,41.5291,127.6551,72.1316,105.6596,-49.8758,77.8672,-72.7909,118.9121,46.5631,120.4138,-1.3654,5.1799,42.2598,159.1804,14.2706,99.3030
102.5938,102.3169,150.5344,51.6496,139.6476,98.5327,97.1123,-26.2722,76.5994,-7.7046,74.7359,79.3546,86.0501,22.8036,7.7340,23.0222,118.7034,42.4854,50.0748
57.5111,98.8557,111.7383,71.1309,138.0446,127.7216,111.3799,86.7341,114.4775,118.1720,42.0067,48.4639,47.9383,72.6145,0.7493,60.4786,62.7004,82.5299,68.9956
73.4109,73.9284,111.2076,81.0767,142.8755,140.1022,168.5225,136.2846,165.9700,162.9342,67.7096,62.0469,70.7803,104.9126,29.9944,75.4371,74.5124,71.3283,138.9282
73.9781,19.1385,117.7532,10.6685,125.6041,64.7921,219.1318,57.4803,195.5142,62.0465,93.4620,72.0685,110.5675,65.6562,103.4397,11.9448,42.0776,-22.6292,158.0542
20.1088,-35.1797,69.6020,-61.6391,66.2887,-40.1825,212.0534,24.3412,202.0844,-2.9954,71.8304,18.6353,93.7372,3.5052,123.8653,-10.1308,-49.3143,-72.2605,157.9684
-3.7031,-55.0603,39.9163,-47.6033,60.6118,-50.4011,200.0163,115.4511,206.3183,82.8424,60.1528,-43.7223,74.1933,2.6259,85.7815,59.2634,-70.4105,0.8490,222.0265
33.2940,-79.4711,99.5475,-25.9415,157.1972,-1.8277,225.3298,174.3661,199.2254,168.7071,97.1769,-78.0867,116.5149,30.6695,71.8436,92.2539,-14.0843,52.5396,296.7387
57.5974,-101.2014,152.1318,-48.6724,210.0379,-2.4436,215.4918,138.1098,150.2926,148.8656,112.4247,-81.4054,141.7504,17.2394,56.9396,33.9208,18.9828,-9.0289,281.4268
36.0295,-60.2972,114.7744,-38.1354,121.5993,-14.9042,131.0441,100.6758,74.5455,100.9317,56.4299,-28.0362,77.6026,-4.9766,-16.7544,-27.1745,14.7725,-50.6764,188.8117
9.1720,-8.6620,64.9402,7.4991,23.9975,28.9116,64.7301,85.4988,41.7331,80.9642,-3.5789,37.3839,5.5318,6.7329,-73.9784,-35.2634,10.4295,6.8669,121.2342
-3.6653,-33.4490,66.0933,6.7663,39.0888,62.7674,90.0800,93.5888,86.4590,107.1942,-6.5743,30.4784,6.1946,11.4774,-38.1626,-16.3033,-2.3179,75.8219,144.2261
-16.4819,-75.9552,73.1658,-13.0906,102.5673,46.1063,152.0201,171.3204,148.4180,197.0879,9.2420,-13.8953,31.0811,-2.0338,18.4145,-13.5189,-22.7841,127.7930,207.5172
-18.9947,-54.8839,67.4447,18.3521,121.3334,75.6350,168.9215,248.2088,152.7595,251.4781,1.9736,-19.1518,23.4469,21.9893,13.8866,-42.6705,-7.8894,201.6951,223.3571
3.2840,-22.6158,77.8908,60.1106,96.5429,181.5739,141.2155,212.5777,116.3311,179.7208,-11.1002,-3.4482,2.7799,81.6612,-4.4245,-60.4884,49.3669,245.9718,200.0914
12.8563,-36.5724,84.1181,55.4359,63.3370,245.2983,121.2556,145.6645,106.7426,109.2995,-23.3424,8.1669,-13.2519,121.8095,24.2238,-16.1615,74.5853,209.3215,188.0703
-36.1602,-54.9409,44.0334,29.2857,27.7921,210.1912,132.1337,183.7106,131.8750,175.4892,-57.4286,29.2411,-41.2067,138.4194,54.0823,64.5327,-2.2445,148.1879,174.2117
-111.7065,-42.6401,-31.3937,2.4932,-19.6123,158.0465,156.0190,279.4865,153.5735,285.0953,-99.9264,32.2508,-75.3633,142.3963,39.0010,116.2725,-126.2187,111.3239,161.1358
-133.8147,-30.4705,-91.8112,-38.1655,-48.2084,148.7030,179.0067,292.8955,167.1184,288.3985,-101.2836,-6.0582,-76.9499,106.8220,40.2453,102.2844,-161.9205,80.9704,191.5555
-82.6381,-47.7471,-96.0706,-77.6424,-9.9716,151.4473,192.4086,175.8239,176.3350,171.1028,-47.1144,-48.0010,-28.9829,40.2029,106.2160,23.8582,-79.7653,43.7688,219.4046
-18.0679,-78.3210,-57.1900,-94.0580,46.7360,118.7387,167.8346,28.1160,146.6222,34.2597,12.3123,-74.7070,25.0592,-5.6607,159.5266,-54.8328,9.8090,-2.2774,168.5949
1.9513,-82.5682,-33.8580,-99.0378,25.3831,39.8469,100.3626,5.7307,67.6348,0.9034,16.1592,-99.8306,25.1176,-28.2449,124.3970,-48.8453,28.6938,-51.7019,85.0548
-19.1200,-52.5561,-43.4325,-100.4205,-41.7669,-39.4265,38.1638,92.5388,-8.6129,58.7256,-30.6921,-108.3593,-21.5598,-55.7244,43.7436,15.2227,10.9487,-68.9102,24.9734
-44.9348,-27.7741,-52.0241,-89.7498,-57.8043,-57.5233,1.7216,102.1902,-53.6084,65.0444,-69.0601,-85.6131,-55.2591,-74.6344,-12.9144,29.2845,-5.1992,-49.9690,-58.1190
-69.1739,-31.2283,-65.5846,-82.5406,-44.7512,-42.5057,-50.0873,8.6978,-96.6165,8.8096,-79.8148,-52.0480,-63.4719,-79.4875,-30.5412,-25.9706,-43.5945,-56.8061,-168.5697
-110.5207,-50.3493,-114.6577,-107.6425,-75.5974,-83.9198,-120.1872,-33.8564,-141.0482,2.2124,-99.3891,-42.2532,-84.8127,-105.8612,-20.0960,-79.3520,-115.1445,-112.8541,-219.9052
-151.1815,-87.5302,-172.0675,-150.7426,-143.6766,-165.6346,-148.0599,-20.2376,-150.1774,11.8799,-132.6804,-80.4284,-121.4558,-139.4342,-9.1943,-88.3298,-165.2095,-152.4065,-186.3075
-153.0608,-129.5257,-196.4063,-158.1778,-202.5876,-177.9681,-116.7925,-47.6374,-124.1887,-33.0626,-140.6807,-123.6206,-133.4111,-113.0515,-13.8476,-60.2341,-156.1176,-118.5030,-121.4211
-134.9659,-121.6535,-196.0685,-114.5924,-213.2472,-108.3101,-76.7512,-63.1575,-96.1977,-38.3530,-121.1869,-88.3248,-113.1814,-34.8223,0.1776,-27.9131,-140.1107,-41.6739,-63.3889
-144.3091,-76.9199,-192.7778,-73.1073,-178.3770,-44.9053,-60.4623,-7.4165,-72.5169,30.0172,-116.7958,-9.7612,-103.2032,16.6779,35.1320,-22.8440,-167.3487,-2.6256,-22.2544
-168.9044,-80.7994,-194.3044,-73.0582,-172.7644,-12.3544,-57.5842,39.3166,-48.0477,51.4553,-139.7047,-1.5432,-129.4583,30.0178,32.4298,-17.8371,-193.4778,-34.2621,11.8567
-165.2493,-130.0587,-192.8680,-86.8821,-210.6093,19.3627,-50.2099,39.6993,-32.2837,18.0402,-150.9247,-42.3220,-151.4975,52.0053,12.3793,32.1768,-173.2378,-85.2930,47.4910
-134.0584,-147.1350,-159.1886,-92.4273,-189.2569,17.6178,-28.7067,28.9505,-20.1154,7.2236,-125.1552,-52.1293,-124.3950,65.2376,47.4623,82.2736,-137.2499,-110.8543,43.4607
-101.2203,-123.1261,-102.7650,-105.5048,-109.7349,-48.3790,-4.4913,-10.7388,-0.3124,-10.8941,-97.4211,-65.9890,-88.7626,21.4926,83.2421,60.7263,-99.2356,-125.9477,-24.9793
-74.3839,-71.2152,-87.1423,-105.8459,-90.0324,-102.9419,-3.0476,-62.5924,7.3612,-37.9670,-105.9925,-90.6005,-102.6949,-38.4638,41.5820,1.4995,-32.9978,-121.4476,-85.6684
-47.2379,23.8586,-109.3023,-54.9956,-107.0957,-80.1310,-19.9917,-55.0252,-8.8999,-7.2560,-113.8707,-43.3046,-120.4835,-41.9423,-4.6400,-25.0724,32.7766,-70.0320,-79.5572
-14.5627,91.5941,-102.0253,3.0694,-83.9630,-47.9474,-27.7202,-25.7049,-18.6262,15.0838,-68.2096,27.5636,-79.7291,-17.7633,-3.4755,-33.9728,46.6348,-37.1547,-50.2172
6.1610,31.7115,-86.2992,-5.4868,-111.3924,-76.3379,-30.7139,-52.3981,-14.2998,-62.9067,-12.0183,-1.5813,-35.7560,-34.6422,-37.6460,-57.4605,18.3137,-89.2373,-37.6267
-16.3474,-83.6737,-124.0697,-55.7701,-226.9048,-103.0431,-52.5499,-88.5626,-36.0824,-145.2556,-18.6314,-75.4857,-53.6768,-62.3404,-108.8561,-52.1342,-26.5521,-142.8034,-24.2845
-60.0711,-105.7057,-168.5233,-72.2541,-268.2600,-71.1624,-86.3913,-69.0273,-87.7837,-108.5722,-57.1632,-81.6980,-83.4591,-41.6405,-121.8879,20.0246,-71.8857,-123.3165,-11.8001
-64.4407,-49.0041,-158.8845,-59.5191,-194.2256,-63.0214,-113.4643,-20.2159,-120.6096,7.1522,-56.1313,-58.4014,-72.6510,-29.9588,-103.4326,90.7557,-83.4612,-129.0962,-30.5022
-40.4498,-26.7753,-138.9426,-82.8818,-160.8563,-153.3333,-133.2827,-5.2584,-121.3852,56.7939,-32.5424,-70.1219,-56.3757,-111.8189,-121.2852,61.0468,-70.0752,-230.7142,-98.2943
-46.5239,-57.3748,-148.3527,-151.3772,-207.2562,-264.9387,-148.6517,-90.6386,-126.4312,-71.6346,-36.2721,-101.8372,-62.0552,-226.8201,-118.8590,-56.4176,-84.5691,-317.4741,-209.5504
-73.4616,-83.5665,-164.6262,-196.8009,-244.4231,-298.5001,-166.0898,-263.6494,-152.5975,-292.1604,-60.6127,-126.5642,-75.4357,-258.7040,-74.5739,-158.9420,-110.3483,-300.8953,-312.5840
-93.3562,-79.9860,-187.8488,-177.4315,-265.0661,-273.0927,-199.6211,-369.8136,-185.9871,-373.9203,-96.9525,-108.7667,-109.1850,-223.7013,-81.8712,-198.9120,-107.0053,-244.6840,-345.5226
-134.7107,-59.3363,-225.0737,-136.4762,-291.6071,-239.3523,-234.8245,-321.2288,-211.4375,-289.7175,-162.0984,-35.5894,-175.3781,-203.5016,-148.2580,-203.0568,-116.2514,-206.1849,-327.8030
-183.2487,-28.5902,-240.4005,-105.2649,-286.0634,-184.1923,-236.0030,-221.2359,-213.3806,-210.4496,-217.0562,21.1104,-223.3557,-183.6547,-188.5928,-171.1359,-149.3778,-153.0491,-312.4825
-160.0936,16.8054,-212.7310,-40.6920,-230.1749,-97.5580,-208.3257,-138.7424,-190.2346,-146.2166,-187.1949,27.8452,-197.5727,-116.3208,-201.2653,-85.3239,-128.2788,-73.8451,-276.0609
-74.8110,59.3708,-153.3851,55.1291,-148.0467,-26.9964,-188.3799,-50.1072,-172.3640,-43.5252,-94.2431,52.0939,-121.1564,-42.7471,-222.0237,6.6569,-49.4310,-25.4820,-187.5237
-16.7884,65.6923,-67.3819,92.5525,-68.6488,-16.7393,-186.9667,-16.2897,-183.0986,-23.8406,-41.3915,91.7945,-68.4964,-23.7468,-224.1011,42.8266,13.3959,-46.8977,-110.1825
6.3356,49.5122,21.4493,61.6594,-20.2257,-46.3639,-201.3483,-76.5810,-208.3205,-105.0721,-51.4871,72.7771,-66.3966,-38.6190,-196.4511,39.6914,63.2611,-88.7001,-113.4863
43.3802,60.1717,76.2819,61.9851,16.1548,-41.7847,-231.7384,-115.0236,-229.9918,-116.9033,-44.7009,22.2792,-60.8005,-33.3831,-167.6447,37.6112,123.0074,-62.2224,-167.3126
83.0897,99.3369,105.6007,114.9011,86.5898,45.8031,-245.9341,-91.6624,-240.1252,-86.4547,13.1107,13.4165,-8.3667,-0.4607,-138.0782,18.5794,149.2020,38.3729,-201.3401
102.4670,133.5555,129.7603,147.7026,153.7568,158.9226,-207.7087,-118.9506,-221.8992,-155.8548,66.6336,39.3325,51.5776,28.2955,-107.4088,-43.7902,145.5422,124.7484,-200.9487
127.7829,154.1813,139.7018,154.5706,161.9546,200.6082,-147.0190,-198.0904,-174.0740,-225.8247,89.6532,74.3559,78.7057,36.3107,-89.3522,-111.4458,176.0957,156.2012,-191.2960
176.3823,157.5862,154.1530,182.7407,177.8871,186.8355,-113.3597,-212.1227,-125.9289,-177.1890,128.3620,101.9018,110.2667,44.6379,-55.3433,-122.4008,237.2192,185.5725,-161.9564
233.5592,137.5309,214.0990,212.8854,273.4393,195.0456,-91.2004,-153.6491,-86.4946,-107.2073,207.4075,88.2532,184.0416,59.1941,20.4162,-80.6880,284.7254,224.8378,-82.5531
281.9945,109.0679,294.0368,194.0050,368.6519,192.1469,-45.9493,-105.0896,-38.7516,-85.8214,283.7941,54.1494,264.1400,37.8729,94.9362,-57.1064,308.5592,205.9932,0.7502
295.6564,79.3608,322.7188,133.2435,357.4770,113.7121,4.1596,-97.9578,2.9359,-80.4669,305.5420,56.9957,294.4089,-23.5237,124.7397,-83.2571,296.1360,113.3627,7.5007
261.0670,54.8117,279.3196,78.9414,269.2924,31.7635,32.8584,-100.2329,17.4127,-83.7703,264.8675,76.7035,260.6016,-55.0669,116.3044,-96.5882,251.5971,19.3297,-18.0757
207.8622,65.1832,204.4991,52.1541,200.6619,16.6106,59.4002,-58.1291,39.8012,-52.0438,195.7962,61.4823,190.8027,-45.4104,85.2579,-51.2656,219.9888,-27.5360,32.5819
154.5400,76.2597,144.2656,21.0124,179.7074,-17.2243,99.4441,19.2626,96.3334,25.8694,133.1686,10.3631,125.7564,-77.0766,49.2414,-15.3385,193.9666,-39.0759,117.3884
84.0848,8.1531,106.8605,-36.0832,157.7853,-111.6870,112.6172,40.2227,125.0448,24.0278,75.7544,-56.9465,74.6187,-157.9389,23.9107,-53.4952,129.6049,-21.8021,109.8991
11.0213,-74.6406,71.3742,-63.4723,105.6418,-134.0339,60.7718,-2.7065,72.4805,-57.3217,12.8962,-87.4237,20.4125,-182.3120,-3.1014,-99.1000,59.0633,35.1992,30.5964
-33.0975,-39.9162,31.1762,-15.3180,59.8347,-27.1104,-11.8008,-13.1311,-3.6317,-57.1617,-38.6147,-21.0090,-27.5661,-102.8856,-31.3816,-81.7170,13.7273,104.4004,-22.5291
-71.8645,50.9541,-17.0442,38.2659,30.5952,63.1135,-41.8192,-14.9008,-38.0553,-28.8054,-77.1506,78.1295,-62.0708,1.3175,-38.2799,-75.2992,-49.9210,110.7215,-74.9373
-124.3234,66.1176,-97.8403,23.0121,-41.9931,33.0813,-60.8765,-109.5319,-62.6604,-126.7172,-132.0836,95.6668,-118.8071,35.8628,-46.8133,-151.5840,-111.0143,20.0668,-179.3228
-138.2442,42.1638,-180.9047,-18.0336,-144.0640,-43.5115,-108.7277,-226.3990,-93.3556,-237.2514,-175.7558,47.8643,-181.0526,-3.3673,-68.0988,-214.0379,-88.5406,-85.8235,-245.3075
-91.9667,17.7086,-171.1930,-41.0788,-149.9542,-78.3374,-93.7834,-242.7742,-49.4742,-237.1540,-133.2578,-17.7077,-152.3768,-31.1402,-23.5937,-168.5706,-35.9497,-108.7350,-177.3114
-61.9306,-88.1352,-78.9562,-90.0134,-44.3656,-75.6675,47.4013,-221.3006,78.3434,-247.3825,-38.3683,-119.6584,-41.5611,1.1165,90.6881,-109.7068,-70.7140,-89.7533,-57.9125
-99.5082,-240.9527,-35.4516,-168.4500,15.7138,-69.4941,161.4483,-243.9327,144.9023,-298.2116,-21.4629,-193.1639,1.3045,15.3122,116.1744,-138.6068,-150.6185,-124.1009,-3.2694
-147.6061,-280.6463,-66.5225,-193.1732,-34.7473,-70.3897,110.1928,-235.8055,81.7000,-250.8684,-96.4557,-137.8946,-68.5136,-49.9682,-5.8286,-177.8526,-158.9536,-166.9999,24.0216
-155.8387,-206.8358,-82.2260,-145.4193,-83.4835,-78.9812,3.1928,-159.0433,5.1184,-137.2302,-152.1257,-39.5873,-133.4970,-116.1270,-121.7500,-157.4611,-121.7361,-126.6097,55.0929
-184.8137,-160.9960,-105.1473,-116.2235,-97.8382,-106.5211,-55.9750,-117.8559,-35.3157,-100.3648,-177.3224,-33.2565,-160.2580,-125.7688,-140.8143,-157.6438,-163.6245,-58.4158,-39.5057
-291.8669,-173.0962,-225.1155,-144.5018,-177.3986,-143.4292,-148.8032,-133.8599,-129.8232,-100.3397,-258.0139,-63.9372,-233.2078,-126.6806,-132.5938,-194.3513,-301.1505,-37.3373,-273.2802
-366.6988,-152.2018,-349.9405,-137.4456,-279.9908,-122.7065,-248.9660,-68.0908,-221.7737,-3.9807,-333.0837,-31.1533,-308.8405,-104.2475,-114.9389,-136.3276,-372.8890,-0.6565,-354.9948
-247.4657,-65.5914,-290.2361,-38.4988,-223.5535,-19.7704,-162.3994,117.8604,-119.8636,173.6529,-232.3591,26.8507,-228.1416,-14.0910,-38.9821,15.4920,-232.2386,67.0813,-109.5976
-3.6177,-10.6082,-67.9961,36.0358,-31.3991,45.7469,81.4714,243.7169,121.9669,269.3753,5.0693,32.7122,-12.6008,37.1830,54.9171,68.1334,8.5708,46.3997,196.8973
122.5735,-81.0514,101.9754,-22.1331,69.9115,-16.0651,222.8983,198.5166,246.3189,197.7525,140.8083,-19.3759,125.6302,-38.1594,98.6142,-25.5493,108.0147,-54.1731,281.9572
79.1439,-190.1661,118.2706,-108.6225,35.6943,-83.8034,202.9538,142.2710,220.8926,126.0389,100.1480,-78.3942,101.5120,-105.3670,110.8930,-73.7070,60.2803,-72.2725,248.1139
31.0101,-184.2473,80.5816,-86.5229,30.2463,-32.7262,179.1324,227.4761,211.6299,237.4677,36.4728,-86.2894,39.1173,-48.6983,114.4172,24.4273,40.3004,-10.7545,277.7678
33.9067,-108.1064,74.6792,-23.3607,88.9147,47.0871,187.6477,340.6847,223.6810,394.3141,33.3594,-48.6124,28.9359,32.8159,83.7338,136.3185,49.7334,-25.3725,313.9541
4.5275,-94.5020,58.1320,-30.8431,99.5260,42.8442,154.8372,337.0439,161.4017,384.2931,31.8552,-23.3665,34.3883,42.8764,35.3699,142.0634,-19.2083,-113.4976,270.0777
-42.3098,-108.3790,-1.4114,-71.0922,44.9335,-6.0689,98.9957,278.2312,80.1939,299.8310,16.2563,-25.5922,27.4574,12.5961,25.5042,89.9497,-103.0093,-157.3703,218.5481
-39.8112,-95.9588,-45.7001,-96.4472,-11.3624,-57.7099,70.9469,253.7817,68.1046,284.1903,14.6414,-43.2708,19.4705,-34.8000,52.4855,65.0227,-97.6190,-164.4143,227.5144
-36.6331,-131.4775,-39.5674,-136.4868,-51.3068,-130.0041,52.7486,232.0180,72.7284,251.6455,-5.5371,-85.4375,-4.4121,-92.5950,68.9333,67.4181,-70.5979,-183.8949,237.0517
-80.4051,-193.6158,-20.8157,-164.0110,-57.4115,-178.6178,17.9710,188.1625,27.0293,156.9801,-57.9952,-119.6174,-44.2260,-112.8999,56.1484,54.8339,-97.1940,-161.9262,168.1767
-111.1340,-163.1323,-10.4412,-125.0538,-6.6037,-150.8092,-36.4807,156.0190,-38.7357,123.3262,-80.3150,-101.8683,-56.7052,-95.7695,19.5921,19.3300,-131.0328,-75.2036,57.4140
-104.0646,-97.0634,2.6875,-75.0656,49.9760,-103.0196,-90.4940,155.6934,-63.3138,181.5275,-55.6962,-80.8141,-38.7071,-98.2157,-32.7965,-1.7668,-151.2964,-14.6207,29.4902
-108.4178,-101.4917,3.0621,-75.2761,42.4689,-92.3937,-76.5816,192.2676,-12.2043,243.0918,-43.1807,-90.4359,-35.5663,-106.0645,-70.7500,24.9894,-185.7932,-27.9678,112.8286
-113.1978,-79.3712,-24.8271,-68.7441,-22.3012,-75.4556,24.0914,243.2052,81.0548,270.7816,-60.4957,-48.7615,-53.6964,-55.2287,-64.6846,79.2517,-189.4069,-48.8937,171.9085
-71.3620,40.3460,-49.8153,-3.9250,-84.1035,-19.6650,97.7241,247.2740,116.7317,257.9517,-68.1555,61.7104,-62.6327,33.0016,-41.4374,111.0029,-110.4854,-25.8277,123.0663
-14.8050,115.2635,-37.0091,59.9855,-84.8089,16.3160,66.6159,197.5594,74.3355,194.0123,-51.3241,110.7926,-56.7474,66.6097,-46.9309,106.9782,-10.8834,2.2762,62.8047
-3.7523,57.0504,1.6514,50.4211,-28.4911,-25.0520,17.5811,152.4778,55.8094,121.3498,-34.3559,42.1549,-50.2394,14.4442,-63.4959,94.9660,15.4599,-13.7834,68.6153
-30.1856,-40.2297,28.5984,-12.7456,-0.3874,-100.6007,24.0714,136.2388,89.5060,102.3353,-35.9943,-36.2579,-46.9432,-46.9176,-42.5494,102.5556,-29.6803,-45.5032,87.4052
-41.2731,-90.0247,31.6138,-43.4997,-39.5767,-102.7555,32.7598,149.2042,86.9617,144.8607,-40.7144,-32.9946,-38.8639,-27.3035,9.2907,143.3236,-62.9529,-32.7005,92.1870
-16.6315,-69.7066,27.6912,-5.6612,-81.2938,-11.2174,15.5333,186.7989,42.4947,186.1694,-29.6680,26.5056,-25.7081,59.7047,49.2438,203.6489,-36.9836,3.2824,110.5054
-7.8442,8.7134,7.8810,32.0011,-107.4017,50.5333,16.6695,186.5125,37.3729,156.3072,-35.3275,73.9377,-36.3283,120.7282,55.0796,232.7031,-24.5672,-4.8237,101.6886
-70.4541,49.0102,-56.0150,15.4289,-151.4978,7.0193,29.0142,128.8208,63.0775,106.9096,-85.0682,71.4516,-82.7841,115.6810,22.9993,203.4308,-113.0686,-19.4645,29.6162
-143.8497,-14.0459,-113.3756,3.1229,-140.7139,-26.5713,18.8115,116.3641,57.4035,142.2268,-108.3373,30.2798,-98.4741,89.4280,-22.4394,160.8470,-218.4578,57.8669,-23.1277
-116.0575,-58.5281,-71.7566,45.3816,-14.2517,53.3409,11.0100,158.3643,28.9612,172.9946,-45.3225,-4.1041,-34.5435,78.5802,-32.5842,143.3332,-178.2361,187.0924,-2.0681
-16.0875,43.5512,25.7896,97.3485,88.7705,150.5516,1.1732,106.0849,-10.1519,38.8462,16.6135,12.8053,23.6036,71.3282,-22.5401,119.1434,-21.5808,233.1120,-8.5131
34.3454,203.3028,45.7692,135.8136,49.8129,154.8872,-77.4226,-49.4038,-95.1897,-150.9718,-8.0592,88.3189,-8.2860,58.9755,-63.0062,67.8655,82.3489,198.0319,-121.4183
26.7273,272.1617,-4.5347,188.7931,-12.5453,123.1468,-200.4563,-143.8321,-202.7676,-191.8416,-47.4986,170.0934,-59.0379,60.8028,-132.1869,29.6286,94.6141,192.5984,-241.8617
25.1255,256.3379,-19.1373,222.3458,14.6671,123.6016,-256.0746,-144.9224,-249.5596,-141.9671,-29.2541,185.7846,-46.0161,76.8644,-142.9620,16.4264,79.8987,215.0162,-261.7147
6.7948,222.2058,-21.0566,181.2960,36.7968,107.2601,-244.9290,-148.8112,-232.1335,-138.0761,-12.3428,131.2244,-25.5412,63.2140,-120.5820,-14.9119,20.2364,180.5454,-240.6259
-70.5972,169.4794,-101.5107,108.4255,-38.5137,47.4542,-264.1727,-145.2290,-228.1772,-128.6779,-52.4905,77.3372,-66.3127,8.5253,-140.5714,-62.0622,-105.3692,108.5141,-268.1432
-154.3910,112.2172,-216.8037,78.0986,-142.4048,14.7351,-306.4773,-76.2490,-260.4746,-56.4326,-119.7441,84.5487,-137.1629,-15.2506,-164.6951,-62.9065,-195.7678,71.0998,-302.5780
-181.0543,110.8209,-264.5018,86.2647,-202.2384,39.1413,-298.7161,-8.1979,-284.8781,-14.8472,-179.2140,142.6025,-192.2201,33.2544,-152.7077,-12.4087,-177.4014,40.8567,-299.3293
-164.6680,145.7862,-256.4620,86.8931,-257.8760,53.8677,-281.0124,-51.6256,-298.3195,-92.9626,-208.8591,174.1357,-220.8086,78.6705,-171.5391,8.8381,-131.7657,-28.4355,-323.7317
-141.5980,129.4982,-255.8072,62.4702,-343.2515,19.5671,-326.5374,-187.9641,-333.7929,-242.9329,-185.1838,122.2369,-209.8201,59.2734,-221.8870,-36.1366,-143.5896,-74.8121,-390.0745
-117.9839,74.9940,-252.9442,39.9129,-384.7588,-6.7459,-370.6320,-263.0257,-357.7303,-311.0321,-130.9994,61.4259,-162.7113,30.7550,-196.1336,-65.7466,-165.2092,-34.2712,-385.6660
-79.5358,78.0904,-208.3947,67.5768,-303.2488,36.6372,-314.6613,-171.7575,-301.7526,-196.3505,-89.2164,106.2339,-112.8910,53.2947,-98.5608,-6.1795,-109.4266,40.0846,-263.9370
-2.4247,150.3694,-120.4224,144.9952,-139.7032,116.9315,-190.9275,-23.0392,-184.5336,-19.8187,-44.9095,208.0415,-65.4395,101.7073,-28.1543,74.2475,35.1282,76.9794,-117.2230
121.8309,228.8546,5.7245,202.7942,19.2901,150.7601,-73.5441,4.4516,-71.4226,15.5838,39.6147,231.0981,14.3196,131.4122,44.1873,75.9841,214.5471,96.1932,-19.0099
261.4536,273.1217,169.7481,204.9366,170.0725,134.3511,43.2774,-68.9021,43.3762,-73.0536,162.6371,172.6776,142.6334,134.0714,199.0596,47.3126,364.5125,147.1404,41.7171
379.6101,249.3165,336.4444,197.3600,332.9565,149.5763,175.2280,-105.9314,187.9757,-129.7747,306.5433,112.1983,295.1870,132.3682,372.6774,79.0760,456.2796,221.3629,103.2166
481.4505,155.8030,465.0750,211.2916,461.3131,216.8203,297.9792,-107.0023,336.2582,-142.8093,454.4793,73.9884,436.4041,152.6547,480.0619,104.6613,521.8103,263.2957,203.9534
587.4145,80.8062,571.1866,211.5430,525.7317,252.4456,417.4792,-144.2858,473.4560,-182.2053,577.5278,67.6710,548.8458,172.4865,566.9889,28.2648,604.6874,232.5226,337.5865
672.1795,79.0277,672.8142,167.8911,577.2578,211.6603,552.9516,-182.9839,604.2643,-209.7461,651.0745,90.2968,630.3024,143.0954,663.4515,-59.6658,679.4571,151.5378,435.0955
676.0905,86.3353,717.1726,104.6025,641.7993,147.4289,652.9407,-163.5240,671.1051,-163.6025,660.1603,85.8209,663.1031,83.4937,688.7282,-40.7771,676.3562,91.6543,459.6687
588.7654,70.3391,662.7868,67.8236,665.9299,107.9851,650.0480,-111.1021,624.1894,-87.2105,598.1530,47.2601,622.6440,52.3710,612.3508,9.9092,585.0383,103.7944,431.1702
468.1998,68.1565,562.0851,71.1392,610.4597,103.7896,556.2556,-62.5959,516.4424,-47.3160,494.8080,26.6922,527.3574,55.2444,506.3987,-5.8748,456.5316,170.3565,341.0832
347.2467,51.2620,463.5162,77.8033,493.7365,142.7039,414.2070,-22.8258,388.2048,-32.3832,383.6978,3.8087,412.7740,78.1510,388.5423,-20.5884,309.2943,211.9987,179.7703
199.6945,0.0950,336.1664,57.3365,328.4760,182.3508,228.4322,-9.7870,198.9353,-12.6436,235.2511,-34.5617,260.1348,117.8632,202.7094,18.7403,136.9751,155.0798,-0.1422
40.5216,17.1223,168.9516,41.6448,112.5673,142.2681,11.3751,-42.6024,-32.4690,-27.3098,31.5696,6.7017,53.3913,126.9860,-26.8762,21.5014,-2.8554,36.8081,-159.6536
-54.0540,132.0974,21.1624,61.9643,-98.3382,42.6109,-175.1692,-106.1930,-204.7168,-113.6587,-133.3355,125.4867,-122.2661,66.8115,-183.2651,-47.6861,-43.9916,-18.4406,-303.9131
-75.9015,195.8694,-71.0037,75.0026,-204.7741,-12.7261,-274.0875,-169.5620,-280.6240,-204.5921,-173.7696,158.6294,-175.9025,-5.3333,-215.2040,-91.1297,-40.2578,16.0274,-402.4416
-107.0737,135.8987,-129.5449,41.6958,-197.2212,-13.6354,-294.7974,-210.5669,-298.4401,-225.1055,-161.2514,71.9290,-165.1560,-27.1806,-199.6703,-74.8818,-89.8636,37.0698,-424.9435
-180.9645,64.2665,-176.7828,3.2888,-178.8947,-38.3363,-296.3893,-223.9539,-290.0396,-208.8509,-208.1613,2.9299,-208.6032,-22.5223,-226.5510,-66.9015,-172.6362,-1.3285,-415.1996
-245.2965,51.8935,-217.7615,-10.4488,-202.3480,-99.0287,-308.0493,-220.7149,-282.5047,-198.4617,-289.1332,-8.2554,-291.0905,-28.9702,-285.9510,-77.1995,-214.0390,-51.1848,-405.9268
-263.6964,39.9475,-247.8128,-35.9846,-213.3080,-138.0467,-294.8777,-209.1287,-281.8735,-176.0297,-304.0076,-30.6781,-304.2748,-44.1837,-308.7462,-58.8377,-228.8844,-95.7889,-361.6293
-246.0505,-6.4025,-247.8849,-68.2869,-193.9869,-121.1809,-233.5049,-179.6232,-243.4349,-146.7413,-239.5998,-63.8725,-235.9108,-51.7844,-283.6239,-13.6263,-252.8393,-119.1586,-270.7357
-200.3901,-35.9279,-210.9698,-44.4294,-187.9623,-54.5122,-158.0204,-112.4045,-146.6494,-104.2641,-165.6806,-60.6575,-171.3198,-31.6577,-253.6592,32.0820,-239.8442,-59.8438,-169.1949
-124.5384,-3.8117,-151.5530,25.4083,-164.2903,31.2930,-76.9659,-0.9194,-30.4156,11.7192,-111.1967,-18.5018,-130.8741,12.7752,-204.3015,65.5346,-145.0292,54.2301,-61.9215
-13.3812,61.0840,-59.1328,68.6446,-35.4755,100.7602,46.3512,111.1442,80.8967,149.2667,-22.8861,34.0654,-40.6879,38.3541,-78.1468,58.0922,5.0913,104.8670,70.3774
132.5576,92.0737,92.6866,74.9975,188.0894,136.0893,178.7390,137.2655,174.2814,153.4702,133.4535,57.8862,125.3430,18.9622,88.3337,-0.5485,169.5827,72.3731,201.3617
264.0526,66.3474,260.9374,60.4355,381.3250,108.7578,238.3510,57.2280,219.9213,52.4532,278.5710,30.7855,274.5984,-37.6472,190.0224,-65.9692,303.4300,19.1948,279.4647
303.2496,17.8001,339.4551,0.0598,428.5181,-2.4970,258.9064,-6.9991,253.9709,40.9219,303.9902,-18.9733,306.0557,-113.9153,215.3995,-99.3018,346.7969,-44.6848,321.9800
256.1054,-21.5384,296.9031,-75.2668,338.5826,-114.6139,345.2336,72.6684,358.6138,165.4861,230.8707,-53.2700,239.0564,-149.3059,229.4742,-87.0848,310.9764,-96.7530,410.6279
214.8680,-36.0226,233.5896,-74.6484,244.6004,-111.9219,471.0963,233.4601,492.6743,291.1117,175.4549,-62.2329,178.2619,-92.2317,228.5979,-21.6745,284.1172,-71.0646,535.4324
212.0249,-17.3985,235.3936,-18.2520,234.2352,-41.3253,511.0457,292.7886,521.3216,308.2557,171.2588,-51.1966,169.0647,-24.3216,165.1410,39.3310,282.7868,0.2490,549.6876
184.3770,4.0704,248.6630,-13.8208,228.3972,-35.4583,439.0067,214.4958,428.8932,223.3548,152.1727,-45.5394,158.7183,-48.8057,61.7254,11.2230,228.3757,21.2888,398.4084
99.0262,-12.3862,189.4106,-59.3659,138.4683,-79.6414,339.6742,141.2117,324.9861,140.5514,86.3406,-60.7763,101.9558,-98.8780,-20.5537,-46.9220,99.8815,0.8671,236.4826
-7.0482,-43.6713,78.5373,-78.8440,16.1559,-74.5177,271.9048,161.0028,266.4060,162.8739,-4.2540,-57.4132,13.1746,-71.1218,-70.2615,-5.2479,-32.3651,-7.3620,182.8448
-111.0056,-46.4094,-36.9149,-77.8897,-78.3095,-30.1911,221.2206,233.1372,214.5605,268.1131,-113.9574,-14.4120,-92.0902,-14.1759,-114.0388,89.0322,-127.8161,-20.8292,164.2072
-211.2041,-31.0830,-166.0206,-79.4219,-172.2367,-0.6090,149.1491,318.2253,130.6945,366.3554,-224.8780,27.4223,-200.5209,6.7743,-160.6992,105.3858,-206.2290,-36.1386,100.3377
-268.4302,-0.1730,-281.1839,-34.2080,-259.2311,49.1078,46.7343,385.0064,22.4837,420.8652,-273.7784,73.4851,-257.4688,44.4084,-188.5585,92.9634,-264.3579,17.4491,11.7727
-245.2014,89.5402,-306.6913,76.9295,-283.7262,162.3827,-56.5053,377.2425,-83.0262,419.8712,-241.3577,166.6431,-233.3104,138.8170,-189.0596,167.0018,-263.0113,144.2645,-76.9194
-180.1099,217.9973,-256.8904,186.4201,-261.5791,279.2608,-132.6367,328.8513,-162.0423,370.3456,-190.7174,252.8129,-188.0379,230.0030,-196.3999,275.6543,-209.1041,247.5036,-140.6042
-137.5839,279.0355,-214.9080,235.5190,-241.5376,299.2744,-168.5069,338.6240,-186.7320,336.5181,-157.8464,255.7626,-166.7740,257.4627,-215.2636,316.3194,-170.9173,261.9442,-131.3071
-114.4149,240.9569,-185.6355,231.9348,-203.9226,223.8969,-146.3211,370.6146,-144.7843,339.7651,-108.6564,227.8390,-125.1845,238.1462,-182.2285,310.3675,-172.4042,222.3961,-71.3637
-67.7880,204.9229,-127.2018,225.2186,-128.9654,173.0923,-83.1472,325.0220,-83.6617,319.7283,-36.5025,251.5421,-46.0727,235.1571,-99.5793,312.7979,-149.8839,187.7690,-36.9198
0.3696,232.3280,-58.1252,249.5401,-66.7703,212.4166,-43.0169,241.6329,-56.9871,263.5190,15.0190,301.0585,7.2463,267.2655,-67.7215,311.6216,-69.5932,158.1869,-35.0594
52.8414,244.6177,-13.5107,263.1107,-45.9008,240.0689,-28.0730,184.1201,-29.6410,203.6964,38.6607,306.0667,18.7657,266.3213,-80.6862,282.5791,11.3528,114.0245,-31.0164
80.2840,191.4622,17.8039,214.4191,-11.1565,170.1663,30.8355,119.8090,43.2708,142.8039,65.6903,256.2687,47.5130,192.2671,-20.7859,237.2517,57.9296,104.6258,-16.6964
104.2140,170.2710,57.6182,167.8606,77.3977,106.6233,118.0027,75.5972,101.8439,114.7665,98.0678,213.8107,103.4996,129.6839,86.3987,206.3286,105.4274,187.5123,26.6360
138.4595,236.5317,108.2568,203.9933,162.6714,155.5430,143.9765,119.0897,93.4710,153.0611,125.0717,237.3234,144.1006,151.6191,113.9372,201.4463,158.5367,291.4269,105.8371
172.1872,269.0180,151.2489,250.0227,177.3979,230.6536,118.1898,176.6398,72.7163,187.9439,156.0867,279.5962,167.4196,197.6281,98.5309,193.6486,176.9213,295.3784,163.0582
177.0602,192.0336,155.2925,212.4027,146.4184,227.0117,105.0891,168.1875,63.3105,169.4924,173.3493,254.6446,181.7233,200.1060,143.4524,168.0752,160.1660,225.4313,157.9504
136.8900,121.6824,123.2852,152.3227,122.9521,186.8984,78.6975,153.1201,15.9836,146.5258,135.8294,197.0906,155.1168,182.7471,188.6396,159.0836,130.6921,196.9183,119.5846
71.3146,133.4682,90.3585,136.0885,96.6325,155.6234,12.2292,146.8593,-39.0230,124.3614,62.5303,176.0905,86.9775,164.1594,149.5714,163.7673,71.5224,203.0928,67.1547
1.6340,136.3396,43.2403,108.0385,43.9651,102.2348,-34.1756,101.9269,-37.8339,95.9766,4.8694,151.0378,23.2052,126.8992,77.4933,128.5660,-32.0634,150.7494,-4.8324
-77.0215,95.2583,-59.0607,60.5744,-23.3481,61.1471,-55.0309,83.8121,-47.5883,123.7142,-52.8733,114.4989,-39.8434,100.4254,13.3375,73.1784,-132.8658,58.2562,-86.1063
-151.3701,96.3706,-175.7717,80.9500,-109.1035,108.8454,-131.8563,119.3194,-148.9623,151.3107,-147.0986,152.8191,-140.4116,128.9909,-79.5178,69.6319,-165.0056,28.0101,-175.3132
-189.9490,123.1530,-224.0901,140.9243,-213.6992,179.8100,-256.5172,78.0522,-269.2208,43.7736,-239.3136,209.5214,-245.9111,175.4167,-184.5233,103.1288,-144.2802,57.7383,-260.3305
-209.0452,57.8783,-209.5434,111.4837,-265.7368,145.5778,-328.4218,-34.0111,-315.2312,-89.5095,-267.8447,120.1763,-281.2532,162.6805,-239.7402,111.0829,-167.0564,55.5595,-286.0137
-227.9431,-63.7660,-192.1338,13.4716,-204.0856,42.9744,-327.1332,-63.4859,-312.9189,-79.2546,-224.5992,-54.1450,-231.6353,81.1959,-241.7234,80.4471,-243.7099,8.0722,-256.2516
-192.3811,-72.8093,-170.3663,-11.1545,-92.9245,-1.4989,-311.8753,-68.5953,-308.9435,-69.3876,-141.3684,-96.7848,-148.1674,-4.1250,-222.3084,11.0011,-232.7554,-27.5489,-253.8560
-83.6041,43.2917,-112.5572,46.1004,-44.6506,5.8390,-294.7233,-184.2766,-287.7479,-198.0955,-75.8219,1.7584,-95.3217,-31.9021,-194.9241,-75.8993,-76.5269,-46.2036,-269.5399
4.5594,117.5900,-46.3742,70.7484,-74.3170,-15.4465,-242.6025,-273.7925,-226.6547,-272.0207,-67.9583,75.4265,-93.0053,-10.1563,-151.7960,-99.7839,69.3384,-70.7331,-214.9738
30.9704,83.7093,-18.5272,32.5693,-102.5495,-48.6059,-158.1759,-204.5958,-138.2660,-179.3164,-61.8252,59.0386,-81.8588,-0.8414,-67.9834,-48.3882,101.4622,-89.0230,-130.5122
65.3869,40.3064,-16.2548,-11.5664,-76.2552,-41.9062,-78.8396,-133.7377,-54.3400,-112.7769,7.5701,1.4009,-14.1771,-27.5319,50.9058,-18.9716,109.3633,-107.1422,-119.3114
108.8634,19.0917,-5.7084,-49.1498,-33.6337,-29.7659,-11.9846,-160.5872,16.1756,-147.5078,74.3804,-63.4919,47.5113,-44.0496,146.3645,-28.5733,139.3138,-151.9563,-125.2621
98.8466,-54.6900,5.9945,-105.3247,-24.6798,-72.4910,74.1808,-161.7760,99.9125,-153.0148,68.5009,-129.3718,47.6692,-36.0853,195.0585,-7.6180,130.9593,-207.0156,-46.6204
76.1704,-149.1576,9.0615,-170.9966,-24.2384,-162.6044,173.0257,-130.4278,188.9947,-140.1349,62.5558,-185.5731,51.6302,-62.7398,228.6441,8.3900,103.2025,-257.3797,53.0489
102.8820,-144.9364,27.2363,-210.7257,9.0865,-235.3795,224.5754,-168.4335,229.8851,-186.9304,111.2460,-211.2619,103.4449,-130.5566,239.8732,-45.2610,108.4493,-310.0368,91.6649
