Fp1,Fp2,F3,F4,C3,C4,P3,P4,O1,O2,F7,F8,T7,T8,P7,P8,Fz,Cz,Pz
-18.9703,-13.2106,13.0619,-20.3671,2.7458,-41.6633,-84.5597,-67.9493,-80.0103,-84.5842,18.3214,-2.9668,-39.6054,-8.8255,-55.4190,-32.9227,-15.5019,18.6719,-99.3884
-35.7350,-26.0669,0.6673,-79.4010,44.6999,-99.7057,-121.2714,-119.6323,-119.1762,-62.5219,18.0367,-35.4888,-22.6983,-52.9309,-56.3691,-61.3094,-39.9909,7.4000,-18.8087
-47.4225,-95.7024,-30.9134,-150.7337,114.7437,-96.6403,-21.5954,-87.7040,-56.3713,28.0793,7.6377,-24.1397,46.7127,-51.3240,-45.8292,-70.5037,-75.1365,-5.6218,138.9635
-33.8989,-156.1613,-32.3921,-154.5518,159.5352,-44.3167,82.7298,6.3949,27.1672,80.5872,-9.2603,-31.8361,102.7393,-41.4411,-22.8776,-48.8725,-87.1542,42.4929,301.0016
-50.6496,-162.4991,-16.5051,-102.7154,172.3344,-23.0066,23.0600,44.6526,-0.1239,65.3361,-42.7723,-93.8479,100.9738,-73.7578,1.0198,-35.0147,-108.0085,128.2238,371.6701
-99.1699,-131.3166,-10.9722,-26.5632,206.3660,8.6846,-75.6750,13.3989,-64.7458,59.5412,-76.0225,-121.7270,85.2250,-91.9359,16.5183,-58.3152,-137.9021,203.2285,324.6821
-116.5262,-91.5720,-15.9547,50.0678,229.9015,98.4520,-39.1875,-20.1342,-29.3034,59.5434,-96.8291,-87.1124,90.9923,-56.4138,46.3770,-60.1919,-136.1014,254.3602,236.6605
-98.9683,-61.5203,-38.0802,77.2654,165.8076,156.6432,50.3492,-62.7487,58.4817,-11.2680,-113.7683,-71.1055,90.4698,-28.6489,100.9827,-7.9255,-114.4316,253.9071,175.8295
-84.4276,-42.4569,-67.2604,62.8833,73.5160,125.7186,79.4303,-126.2852,92.8944,-112.1272,-109.8272,-70.5922,70.8936,-31.6005,134.9099,21.4449,-105.9467,205.4354,113.4415
-82.6231,-35.0323,-77.9542,62.8601,53.8381,71.8463,103.1140,-121.6827,99.8288,-98.6546,-87.9673,-26.8744,49.4320,-20.1852,123.9299,0.2240,-110.4147,168.9218,33.8683
-95.5245,-44.2681,-95.8486,61.5265,52.0846,42.0313,166.2316,-6.5096,141.9950,51.1625,-99.6014,8.4163,12.7630,1.6923,124.0649,8.6688,-124.4366,133.0480,15.5878
-100.9987,-27.2206,-133.0904,48.8611,-8.1445,34.2110,226.9671,90.3905,201.7816,167.6142,-121.0329,-8.3255,-43.3280,13.5256,168.5116,64.9252,-120.1652,47.4460,83.9917
-44.2216,53.9792,-107.2039,81.8241,-47.2896,47.4620,251.4153,44.6957,215.6933,118.5287,-66.8340,-0.2484,-67.8687,36.9583,180.5852,96.8270,-43.3488,-21.6429,134.7329
50.8490,107.2894,1.6299,118.9415,-6.2930,48.5953,198.9774,-74.0620,142.3658,-2.5404,16.3367,41.5570,-51.2514,49.9474,96.6314,73.6381,67.9582,-14.8108,102.6227
70.1842,42.9324,49.5207,61.9251,-9.5973,6.6424,62.6425,-124.4566,30.8757,-49.8197,-0.3000,12.3313,-71.0663,-0.4279,6.5340,24.0384,91.6671,-27.3466,27.4561
-8.1641,-36.3123,-34.7445,-21.5346,-137.8539,-53.3872,-42.1773,-116.9016,-9.8313,-58.0235,-92.5918,-80.3283,-149.4162,-79.4816,24.5940,-16.3488,15.7296,-112.4224,-71.1994
-63.1944,-21.3245,-110.2350,-32.0829,-229.9250,-101.6402,-28.7699,-135.2384,25.0106,-93.5041,-120.1406,-109.4568,-175.8740,-109.3605,84.9203,-29.8917,-37.7144,-167.8092,-156.5642
-32.0508,11.3601,-81.2111,-40.1671,-141.3169,-93.9470,30.6012,-99.5107,43.8041,-46.4825,-43.0044,-33.9461,-66.4288,-59.7130,62.6176,-26.1524,-20.6402,-145.0549,-86.6816
-20.6740,-9.5980,-57.1570,-102.2000,-18.1942,16.5244,60.4279,94.2488,39.5629,145.6457,42.2674,75.3254,83.9753,59.4334,5.0411,2.3110,-28.6236,-113.5476,151.6268
-112.5817,-44.8721,-108.6205,-152.9587,-43.2474,118.7749,56.0264,248.1087,43.4634,274.8207,31.0557,123.0960,111.7195,152.1163,-1.8854,61.2219,-108.5034,-110.7012,284.9768
-190.5976,-90.2209,-118.1351,-167.1494,-105.0530,50.2815,-0.8064,122.3514,2.2440,170.9176,-58.7692,55.0177,18.1468,87.3628,-27.1488,68.2215,-148.7326,-115.8430,146.0668
-119.8017,-129.1068,-27.0508,-135.7189,-49.5109,-61.5846,-70.4505,-62.7858,-66.7224,-5.1516,-91.0220,-36.8305,-30.8934,-38.6226,-89.4703,3.8508,-75.7056,-82.5705,-21.7827
7.4537,-59.6644,25.9574,-6.0303,-9.1504,31.8836,-36.1530,42.5746,-25.7267,-50.0902,-5.6965,22.7465,41.3251,33.0121,-35.4680,55.8091,-8.0855,44.1515,37.4202
41.5445,98.4468,-31.2455,155.3019,-98.9981,246.8324,90.7331,279.9696,114.3907,-4.0256,87.2410,211.9299,129.5030,271.0558,142.4622,275.6520,-40.1090,217.1070,205.1854
37.0783,191.1971,-61.3979,227.0582,-112.4694,339.7776,170.0413,311.5051,181.7020,56.9537,105.7735,324.1027,155.8248,381.1445,231.1524,379.8350,-60.1111,311.0399,259.0134
88.6632,211.4560,22.2178,278.2732,85.1919,335.8780,147.9871,226.6610,131.3315,149.2103,108.3623,310.9810,175.3516,320.7181,171.9289,251.7355,15.5281,336.3739,181.1694
134.1336,266.9547,120.3382,402.9506,259.9580,378.9744,50.9608,216.1805,41.9363,188.2262,137.1613,310.7322,219.2688,302.9351,111.4855,159.4143,87.5151,396.3576,40.2837
142.4008,348.9505,166.0610,495.9999,238.9163,440.5112,-90.1023,167.3079,-54.8067,76.9294,161.8263,356.0899,237.3195,359.0052,97.0591,223.1322,114.6449,463.0398,-100.0911
195.1231,403.9233,205.4999,487.7618,185.4805,448.7342,-168.7012,45.0272,-113.9982,-25.1756,180.7668,366.0287,218.5793,361.6502,84.2890,261.1553,178.3076,463.2300,-137.4746
258.9035,429.1728,231.1106,476.8795,221.0615,426.0590,-103.2910,48.2567,-74.8380,57.5800,197.6734,345.9253,194.9980,324.4136,92.3110,217.0610,238.7471,438.8906,-63.1044
215.0589,382.4211,190.3902,476.8861,226.6054,393.8240,-11.1890,163.8270,-7.4378,171.9460,175.6977,337.6231,160.5333,315.6639,108.8833,181.6142,186.8064,416.9526,-5.8368
112.7437,253.7076,124.2185,397.6980,133.4932,342.9444,-14.2384,190.4046,-4.4297,128.7239,119.2027,297.6257,113.0629,287.0701,78.5261,147.8850,89.2268,348.2368,6.4805
83.9031,163.6530,99.5629,277.9291,39.5068,275.4172,-18.0335,155.2094,2.1701,50.8312,79.6331,203.3214,93.4224,202.2596,50.7941,109.7620,69.0766,259.3303,66.7933
116.8201,179.9744,99.1345,233.3426,26.9082,194.3892,79.5943,187.1939,85.2544,104.0116,67.0437,130.5668,112.4397,121.2884,94.6938,108.8664,94.3113,228.9942,152.9535
132.2789,221.0885,93.1170,270.3276,90.1101,124.4889,192.4467,231.2340,165.6581,211.5068,66.3988,120.7938,131.4562,84.4561,152.1297,99.0222,94.8205,243.0195,185.5031
124.7465,223.8341,95.6666,307.1202,168.2559,109.9400,219.9546,220.4800,168.6564,239.3401,81.6332,121.1936,128.3945,82.7689,149.4443,63.8019,89.9483,235.6413,207.2661
115.1485,184.9843,103.4119,259.7140,170.3189,134.7713,183.8834,203.2425,131.1173,187.7696,94.3160,93.1816,107.0499,100.9715,94.9171,81.8947,101.5660,174.2111,240.8364
100.3375,105.4940,88.8047,118.7424,77.4069,144.1435,126.5329,198.3973,95.1558,136.0093,69.9026,51.1998,69.5670,100.6277,24.8188,114.4749,108.6825,68.7882,201.5965
83.3316,46.8374,57.7596,7.0137,-14.0544,141.9118,61.1951,185.0520,64.5850,131.0065,28.1472,9.7091,30.9532,60.1553,-8.9146,66.7897,102.8729,-7.8304,113.6396
89.5736,68.9849,50.3056,27.8613,-29.1937,158.6011,23.8038,150.1690,48.5106,109.7129,29.2983,-9.2520,26.7400,30.4514,15.3250,3.8060,106.5294,2.7020,113.2135
140.9703,110.9370,93.6432,104.0496,16.9084,189.7348,45.7268,70.6806,48.0761,6.6915,92.5141,32.0016,77.3189,56.6851,19.0197,-8.4074,149.3941,38.5814,194.7052
201.9626,115.9610,160.6773,124.3650,88.7487,217.7268,89.0578,-1.0626,43.9225,-59.5062,163.6208,106.2134,147.2247,102.8214,-46.6124,-21.9352,217.5514,21.0113,231.9133
203.9309,119.1163,183.6637,91.8596,129.9906,205.2807,86.6087,31.7571,27.8898,29.2870,169.8988,117.0550,161.3928,108.4186,-95.9220,-24.1623,244.6887,-37.1991,193.1915
161.7482,108.4679,141.1301,32.8993,78.6773,109.6990,38.4701,107.7610,11.2550,130.0934,111.1858,42.6263,101.4005,54.6586,-74.0280,18.6234,208.7081,-105.3597,141.3101
135.8085,36.4370,82.9972,-37.0438,-14.4947,-29.8526,-1.3432,98.2879,0.0877,92.3634,54.5877,-34.3480,42.2448,-33.8080,-42.0405,11.2416,150.3189,-158.2185,123.0177
90.3732,-58.7051,37.8256,-72.1013,-42.5186,-128.5321,-25.0226,36.4390,-19.1910,8.8891,23.6353,-71.1436,27.5746,-107.4587,-37.3144,-76.7080,71.3607,-160.1384,143.9229
-5.1989,-138.6232,-9.4823,-78.3541,-34.0404,-177.0351,-54.7468,-0.9624,-50.4799,-27.5525,-17.6450,-88.8157,3.3057,-131.2780,-41.5853,-116.9188,-30.5655,-143.7622,173.7224
-45.6357,-210.1667,-41.7082,-113.1458,-74.5580,-202.9915,-57.5779,-26.2579,-57.2247,-47.4958,-63.7646,-78.9278,-49.2233,-118.9346,-48.8091,-73.9989,-78.4980,-155.2757,178.6918
17.5859,-214.6883,-32.5125,-148.0856,-112.0602,-188.9512,-12.1150,-23.9229,-18.5132,-38.2199,-65.2886,-44.1630,-58.9165,-100.6058,-40.1092,-34.0822,-39.2315,-136.6589,159.4359
60.0146,-114.5329,-18.3457,-120.2895,-75.7948,-131.3131,17.9763,29.6562,18.0031,9.1856,-25.8896,-36.8593,-15.1608,-75.2569,2.4752,-4.3093,-1.5400,-68.2953,122.5049
13.4844,-25.6683,-39.5932,-72.1143,-42.6584,-80.9147,4.6582,75.8904,18.8254,46.7003,-8.9893,-52.1902,-10.0947,-36.6911,38.7253,40.6714,-20.3349,-50.4407,75.9179
-43.7318,-39.7795,-67.7066,-66.5532,-75.8689,-69.0587,11.6079,97.5442,23.3424,99.7474,-44.0005,-40.8599,-70.0154,-14.5917,35.6355,52.6110,-53.2069,-82.2627,59.5736
-56.0309,-80.7396,-63.1766,-80.1004,-88.9074,-63.5685,57.4331,133.8733,54.6835,164.2990,-74.8752,-33.4612,-93.0795,-30.1961,18.5273,9.7576,-61.5435,-65.7962,84.5295
-34.9952,-79.7297,-42.5551,-83.6677,-32.8609,-21.3424,91.4658,139.5517,82.5525,119.2989,-44.3156,-68.9171,-22.6024,-49.0155,5.0161,-41.4414,-37.2432,-50.7333,93.1024
-18.4636,-86.4795,-50.9116,-93.4717,-9.1465,34.1611,92.0937,73.9653,88.8998,-6.7081,-10.0010,-96.5034,37.8896,-42.8994,-5.9393,-71.1017,-10.0215,-120.9043,50.6768
-58.2244,-135.3456,-95.3010,-108.1164,-68.1876,31.0282,58.1954,3.7450,69.3222,-54.4805,-54.5625,-85.6427,-5.8161,-39.0577,-3.4877,-75.3101,-44.4512,-178.3484,-15.1833
-114.9038,-163.6343,-118.3011,-95.7132,-96.5797,-23.0670,6.6703,-31.4276,28.2590,-50.4609,-107.6446,-66.3609,-54.8327,-47.4094,5.3154,-55.8733,-108.8266,-131.5709,-62.0982
-88.1342,-110.4227,-71.7805,-39.0410,-18.5505,-35.8326,11.8261,-30.2118,18.7755,-51.1594,-70.0271,-36.5504,10.7704,-36.0397,9.4012,-30.2541,-93.4639,-44.1576,-38.3284
-35.7740,-24.1224,-5.1634,34.8261,65.9621,-2.7564,90.5421,49.5449,68.4798,45.8120,-24.6149,-5.9763,86.6006,-17.6170,23.7872,-10.1831,-36.4401,31.3516,61.4944
-65.9113,1.7939,11.2094,67.4948,60.9418,-6.9029,134.6491,157.9632,103.0773,180.7867,-55.4250,-28.2571,33.4510,-31.9021,35.0131,0.4827,-45.8663,82.7271,133.0778
-74.6256,-16.9278,3.1992,44.7595,27.9843,-31.2779,91.5229,156.4439,71.7555,144.4002,-59.4567,-75.4683,-48.1820,-49.1732,16.7369,-6.3844,-51.0073,62.7104,100.2776
25.3397,-7.2164,7.4759,18.7052,32.9782,-1.5890,28.4732,64.6387,29.2809,9.4949,2.4941,-73.6603,-30.8490,-30.3949,12.1373,-9.3490,19.6590,-1.3347,26.4667
76.2149,2.0776,-13.7265,8.6890,22.8971,38.7656,-21.1461,16.6270,11.5105,-21.3445,0.7022,-54.5779,-0.0752,-13.8835,52.5495,17.2685,42.0858,-13.9357,-20.9085
15.6037,-16.5542,-44.0003,-8.7127,-13.9906,30.1287,-58.4660,25.8270,-5.2520,4.6676,-49.9860,-65.6599,-18.4961,-23.7838,68.1793,38.4015,-14.2977,16.3373,-30.7560
6.4097,12.5561,1.8188,-3.3190,4.5864,37.6024,-48.7069,34.0715,-15.3363,-12.2727,-10.4074,-66.2465,3.0276,-19.2524,21.7316,23.0432,4.2804,37.6844,25.8778
50.4089,56.0940,74.0676,45.9244,51.6139,101.9063,-12.8305,22.7839,-5.2766,-37.3709,39.6946,-48.5859,41.3227,2.6315,-15.1911,8.3401,73.6912,64.3610,107.9239
5.8602,-13.4324,42.3647,59.4369,21.7879,139.7601,-17.1518,-19.2351,-1.4791,-55.4096,-33.3934,-47.7971,-14.3005,9.3071,-7.0113,14.7585,34.9404,66.4638,88.7869
-51.4483,-85.0478,-35.4110,1.6857,-26.9038,103.2085,-42.4105,-71.3696,-18.4370,-63.6436,-82.1640,-32.1445,-74.4725,16.6331,-1.5715,11.9298,-32.3229,-3.1522,-8.4735
10.9064,25.7721,-14.3830,-32.6324,13.2437,47.8499,-54.6629,-95.5275,-47.2545,-45.9669,30.9701,11.6877,-12.5841,30.8941,-11.8759,-9.4577,22.1790,-49.3410,-37.1950
93.5912,162.4433,51.7192,3.0760,60.6702,20.2125,-78.5148,-114.7745,-74.3333,-61.7373,131.4765,25.9862,56.7022,15.8437,-1.5583,-33.3890,93.6931,17.6230,-11.4699
85.6726,111.3619,34.8302,31.8275,17.6548,7.7095,-77.8756,-128.6326,-59.4397,-105.2875,77.4797,14.9588,16.9507,-10.9471,29.1120,-39.7224,60.0287,77.7035,-32.1881
44.5682,13.5503,-22.3013,-0.7367,-45.8004,-25.5476,-3.3723,-84.1642,4.7863,-71.5842,5.6879,17.3714,-29.9703,-5.5833,40.1463,1.2743,14.4316,-7.1268,-59.4532
31.2033,45.5609,-23.0832,-56.2667,-64.8209,-83.1520,55.4295,-23.6241,39.5393,-8.2820,32.2998,7.0022,-2.9751,5.0973,15.8142,62.9423,39.2148,-149.3475,-36.7598
60.6023,115.3676,27.9718,-56.1902,-46.3231,-99.5866,26.2610,-7.8282,7.2417,-6.0035,94.0577,1.8829,39.1381,0.6855,-17.5996,57.9398,89.6156,-167.0165,-7.4275
131.0974,122.3954,96.7286,31.1546,32.6849,-39.1556,0.3132,22.1699,-23.3720,25.8637,127.0961,63.5331,68.0181,19.9302,-40.1095,-6.7105,132.1248,-48.1670,18.0630
152.6941,88.6143,140.9033,104.7547,119.5271,2.1470,34.7697,61.6499,-15.1228,93.6594,117.1814,124.6875,84.4621,48.4640,-60.9675,-25.4344,138.3617,43.9780,54.1507
61.8093,28.6816,97.0742,47.9609,77.8065,-55.2992,65.0953,6.2830,2.3115,57.9302,56.1807,92.2645,49.8798,23.8571,-66.1529,4.2077,67.3375,16.6696,55.1478
-28.6252,-8.4094,4.5140,-42.8938,-43.7619,-118.2686,70.3634,-94.4888,25.2338,-22.7884,-7.2979,35.9988,-3.1580,-34.2104,-19.2973,-12.0818,-20.4535,-16.3376,25.7011
-14.5384,38.7447,-8.8510,8.1596,-63.4201,-74.8823,70.2184,-133.3512,45.9111,-38.6060,-12.7166,44.5991,13.7444,-55.7293,46.4318,-71.5370,-24.5999,65.1969,25.7412
45.6290,89.9154,60.9056,137.8219,4.1368,21.4810,30.5094,-173.3890,18.9679,-97.8865,13.3658,83.6202,75.6552,-38.7052,51.1664,-108.7229,30.5808,180.6650,10.7656
75.9039,62.7285,98.1585,168.6415,22.0704,53.5716,-53.2599,-241.8195,-47.7696,-207.4480,22.4753,105.4093,94.3300,-26.9720,3.1835,-129.8148,58.8094,193.9453,-90.9482
52.0000,40.0654,64.9015,118.1516,-16.0976,7.4748,-119.2867,-227.8803,-91.7932,-195.9920,11.9275,100.5565,64.3701,-31.0088,-16.8634,-132.6752,35.1842,123.3929,-212.9742
-31.2461,71.1127,9.8992,85.0421,-65.0958,-50.8584,-135.9244,-157.4325,-91.6043,-104.7819,-22.4337,59.1351,16.0745,-38.2975,10.9469,-73.5235,-20.7165,62.8717,-254.4738
-96.8760,80.7661,-24.5390,54.1514,-105.2688,-80.3101,-106.7037,-146.5937,-63.1731,-74.5073,-65.5362,5.6045,-32.5215,-53.6633,39.0202,-9.8047,-60.4417,45.1243,-211.6234
-56.8164,75.9538,-3.2545,29.5846,-62.4878,-80.6749,-42.4622,-144.7661,-24.5557,-51.8775,-49.4719,-16.1358,-26.6087,-75.6088,36.2544,-33.1746,-30.0479,65.8586,-130.6959
36.0813,122.3433,67.1515,71.3470,77.1198,-58.0210,9.1642,-90.2724,-6.1328,-12.3755,41.3007,-6.3158,60.0219,-71.5603,13.3020,-84.8407,46.9346,98.5436,-57.2335
101.5664,166.0036,113.9858,125.0980,174.2061,-24.7470,10.3342,-55.0762,-18.3563,-24.6871,125.6879,20.0122,146.3272,-33.6660,-1.9921,-84.1346,102.7347,90.1631,-1.8176
145.8612,141.0524,108.7648,111.8948,153.2065,5.7198,-13.5959,-44.3106,-33.9182,-26.4641,145.6056,52.2479,153.9872,-2.9123,-0.0032,-75.4151,123.7746,47.8714,74.1099
143.6421,98.5104,90.7055,89.9842,92.4744,40.1442,-29.1769,-6.3020,-35.9149,14.1409,117.1572,55.8444,104.1606,7.9846,4.2612,-72.9590,115.7477,29.0378,153.6186
71.8911,92.0527,60.1558,94.4983,46.2200,69.4428,-22.0655,6.4684,-19.9471,3.8670,76.1790,20.7716,55.9368,18.0314,14.7066,-35.2241,76.9457,15.6789,153.2619
29.8730,115.8031,15.8221,63.9167,20.2223,50.9062,2.3520,-14.7262,8.9229,2.8618,59.1699,-5.7095,51.0480,5.8108,44.4243,-22.6415,50.0719,-21.0188,86.0229
57.7780,146.6599,16.1000,26.0792,37.7175,-11.4728,-19.5640,5.1437,-4.3562,84.0055,72.3195,2.9817,89.7669,-37.8131,54.7723,-77.2354,54.8753,-5.2017,25.4416
43.6531,133.3717,54.2533,46.0238,71.3053,-52.4611,-112.8822,-1.3589,-83.1436,69.8723,62.8678,18.8023,106.7190,-57.1452,13.8626,-95.5289,30.8602,90.5016,-55.6269
-19.6340,65.1479,49.3194,72.9387,76.4517,-38.6437,-153.4907,-111.5142,-122.5498,-81.0424,10.7856,19.3954,64.2492,-37.7505,-15.6858,-52.2399,-24.3226,159.9729,-159.5297
-17.7958,35.6237,22.6171,88.8895,81.9232,13.4982,-69.0157,-174.6939,-55.6723,-124.3624,-21.1199,12.7480,28.8498,-29.7385,17.6495,-54.0368,-25.7978,170.2611,-162.5613
29.8816,78.6071,50.2744,144.5586,80.0064,64.0273,7.1091,-99.3647,10.1770,-49.3470,-5.7961,10.2713,32.8947,-33.4672,47.8948,-81.4312,26.5791,179.5181,-53.5223
43.8748,100.9974,93.4929,166.8625,13.9256,49.4698,7.2283,-40.5997,7.3176,-60.8209,14.2450,12.3388,12.5398,-18.5032,20.6793,-27.7672,62.1700,151.1965,24.0421
61.8528,80.7035,89.4188,85.6590,-46.8624,-35.3793,52.1800,-51.9796,26.5645,-90.9954,28.4883,6.8226,-28.0257,-10.6757,-3.7125,56.4846,81.7928,52.4883,55.5824
90.9250,64.5774,57.7147,10.9878,-16.9249,-104.4032,139.2441,-11.4319,87.2899,9.9779,32.5679,-25.2697,-32.0037,-43.8264,24.3073,54.2066,88.2096,-18.6344,125.3880
48.3432,4.5758,4.1833,-10.5177,-3.4760,-130.0485,121.0415,71.5453,91.5870,125.3002,-23.5531,-82.5277,-54.7874,-99.6231,60.8567,-8.4355,25.2576,-25.3690,174.5486
-45.9275,-114.4667,-73.0045,-81.2046,-93.5767,-173.1760,38.4557,100.8602,50.4066,137.3089,-117.6601,-127.2468,-133.7233,-138.1070,59.8846,-28.7224,-80.9512,-47.3607,125.9622
-85.1336,-158.4605,-98.6114,-163.1937,-162.0362,-219.2843,39.5360,93.8626,50.3996,107.9180,-139.7582,-122.4660,-147.2539,-136.0890,32.1229,7.8119,-115.9570,-81.6080,67.0631
-45.2873,-77.1336,-39.3737,-126.4802,-125.7346,-194.1841,79.4449,87.6043,68.4888,89.3700,-77.3869,-79.9508,-54.4205,-107.6521,12.4591,27.1440,-54.2154,-72.8796,76.8482
21.8473,-5.2821,11.7020,-45.2456,-82.0696,-125.0896,64.1354,77.2419,58.2730,87.2455,-29.5124,-52.0173,-2.1347,-89.8202,18.2330,-2.5124,20.8023,-64.8452,98.9974
53.5460,-19.0363,-4.6849,-65.7038,-86.9730,-95.6955,44.1212,87.1689,53.0656,100.4855,-31.5179,-71.8153,-37.8386,-85.4154,27.3570,-5.3513,42.3330,-104.7427,85.0416
23.0566,-45.5560,-40.4006,-148.9171,-89.5539,-115.5260,38.2099,113.2863,51.9814,96.4722,-39.9073,-120.0015,-54.0437,-78.2376,18.3362,59.4105,16.1039,-153.3251,56.6097
-3.3360,-43.9873,-54.9172,-188.8389,-72.8113,-148.2451,-14.0580,110.4676,13.4883,88.9282,-39.8214,-155.4970,-44.7393,-88.6182,11.5107,88.4564,-5.9083,-174.0099,31.6320
31.0223,-60.3073,-40.2458,-158.9565,-45.0654,-157.8208,-66.4588,98.9736,-29.4786,115.6446,-43.3873,-145.3481,-76.4551,-107.5160,7.8333,32.3914,5.9222,-147.6218,21.8942
62.1592,-91.8810,15.6440,-63.1512,15.8825,-104.5264,-50.6116,107.3110,-38.8871,116.8693,-39.8529,-75.8368,-93.8094,-62.1712,-27.5661,19.7057,26.1466,-58.0262,41.0310
53.6892,-59.4796,82.0739,51.8370,93.9906,-6.8558,-34.8147,95.0901,-50.9101,64.3121,-8.6919,11.2392,-27.3771,38.0172,-65.9032,100.9130,45.6703,21.8840,71.5948
65.6161,41.2757,99.8441,87.5460,121.5370,49.7301,-51.8272,75.0421,-60.7007,61.1510,39.0152,36.6198,57.4296,79.3656,-48.5710,144.3897,86.1956,-7.0796,90.2869
78.2859,90.7940,70.0047,28.9440,74.3763,40.8569,-12.3102,119.4963,-9.2588,133.1542,49.3111,-10.4436,74.9771,37.5432,-13.8977,103.2942,112.5159,-95.0914,92.3080
29.1775,34.6949,28.6146,-32.3315,-1.4580,32.3973,81.7856,195.3495,78.8232,181.2446,-5.2800,-64.7309,29.1364,-4.9839,-11.5548,61.6610,79.4544,-131.4658,67.2453
-13.1934,-27.6439,-17.4902,-49.9923,-52.8282,56.4746,144.7128,216.0269,140.3894,181.5040,-59.3696,-89.7345,-25.6719,-19.4675,4.0616,26.9754,38.2108,-133.2649,33.9357
7.9041,-43.8169,-55.7483,-60.3809,-62.8052,83.7087,193.7261,192.4440,183.2014,170.7994,-50.7202,-80.7679,-36.3996,-16.8585,37.8600,-22.8466,37.1269,-157.8477,51.0127
11.5720,-75.5632,-59.9574,-77.9493,-47.8651,113.3276,234.7659,146.1386,196.3444,124.2687,-23.8684,-24.9086,-5.6082,27.2679,16.9086,-26.0376,32.4888,-167.6616,99.6994
-13.4184,-90.9073,-40.1890,-66.8813,-30.1101,175.4067,180.1699,45.7187,135.6140,29.4992,-17.7294,41.4898,10.6490,97.2475,-27.1570,26.6428,20.7237,-123.2410,92.4163
28.5745,2.0181,-12.9788,-15.2534,-7.7226,244.6811,91.5499,-54.3225,73.4092,-43.9043,18.8522,50.6447,13.0813,122.6138,-5.1457,45.9909,68.4779,-70.4853,66.3506
107.7014,100.2895,26.3098,24.6283,28.7404,243.8059,129.0846,-47.6483,105.4733,-36.4077,83.7822,16.5307,53.3144,86.6449,31.4007,4.2767,143.9227,-64.4672,141.9218
105.4974,42.2670,40.2001,-2.9698,50.5482,155.3441,198.6025,19.7095,144.5547,11.8021,84.7709,-5.3783,98.9696,34.1105,8.5595,-38.4071,131.1964,-99.8237,256.9881
28.5502,-84.5491,-22.1486,-85.1799,21.5944,54.5923,117.9350,21.5030,84.7411,14.2898,18.5183,-19.9150,81.3725,0.3498,-7.8928,-37.8775,24.2155,-128.5361,229.5300
-37.0865,-115.2065,-110.6536,-167.6345,-21.0612,-1.2099,5.7436,-29.7601,17.0343,-20.6385,-22.7913,-40.0707,32.5593,-9.1872,23.0701,-10.7137,-71.5944,-113.3708,76.1219
-58.1716,-94.0294,-137.5957,-206.6450,-16.4597,-21.0920,30.5289,-54.1227,35.5354,-19.1191,-24.4082,-46.1051,8.1989,-16.7829,36.2658,-19.6366,-98.9533,-65.0257,-28.4250
-44.9828,-109.1348,-119.2354,-167.7787,5.4109,-0.9965,72.5790,-70.0138,63.5868,-21.4566,-37.3752,-42.0741,-10.0244,-35.8573,32.5315,-82.5612,-88.6904,-12.8980,-50.8255
-36.6020,-106.7582,-112.2668,-62.7479,-7.8323,70.1107,16.1599,-103.2962,38.7156,-85.8637,-60.7550,-36.7069,-32.9769,-29.3308,58.4898,-111.2003,-82.1479,31.0824,-89.7527
-76.8380,-56.4977,-110.1517,16.2961,-18.9836,136.1427,-26.8593,-89.7533,17.8420,-92.7825,-76.9303,-17.7701,-39.9072,20.9338,71.3638,-48.4539,-89.5454,50.2383,-157.5268
-136.8692,-34.0998,-108.7718,8.5228,-8.5895,143.7478,3.5133,-18.1908,35.2533,9.5202,-103.2090,-14.0463,-51.6924,52.6281,51.7659,24.0913,-106.2096,36.9735,-186.3060
-144.6844,-64.0531,-126.9924,-23.6809,-38.8527,130.1039,28.3034,9.1741,63.5532,31.7352,-134.0305,-54.6077,-87.4687,23.0530,64.9176,19.4629,-118.6558,33.2116,-163.4709
-89.6812,-91.2877,-126.2603,-8.0828,-89.9244,145.2939,42.6389,-27.2738,89.7056,-58.6090,-134.1907,-75.3293,-107.4725,-12.7852,93.8930,-38.2958,-96.8149,62.7715,-125.5818
-21.3656,-94.8291,-75.3831,27.5661,-71.6337,176.4364,79.2809,-25.3538,105.4368,-54.0486,-106.8319,-26.5667,-88.9054,3.5322,67.4454,-68.2562,-35.7957,70.0952,-90.3285
9.7980,-91.5643,-38.1494,24.2221,-28.2547,182.6427,83.5869,10.4165,90.4814,22.6851,-88.0217,15.2708,-64.8917,42.2775,26.9666,-23.3368,8.5586,16.9718,-52.5985
-11.5229,-75.6434,-50.5334,-14.2831,-45.6078,140.9025,29.3054,-19.7435,47.8575,0.5565,-83.2977,-11.9700,-59.9407,41.7328,28.2408,43.0993,0.4608,-47.7024,-1.8641
-40.5565,-29.6692,-54.3481,-32.2015,-58.8094,83.5551,-17.3078,-56.5079,6.9034,-15.5859,-60.6857,-47.6136,-65.6005,11.6992,31.4938,36.5404,-11.7119,-76.4088,55.8837
-20.6489,25.3158,-38.5631,-6.0517,-23.4789,71.8687,-13.3600,14.8296,1.8377,68.7518,-8.0127,-39.0447,-64.7073,14.0277,27.8258,-11.5020,10.5969,-90.8253,86.2364
33.3860,32.0623,-49.5382,12.0330,-42.5983,85.4072,22.8226,85.4412,40.7653,58.7060,31.6344,-22.6892,-48.6601,42.2687,51.5010,0.6094,37.8125,-133.2792,80.5339
61.0973,-26.0557,-67.7588,-21.5012,-134.7565,47.3963,55.5746,24.7553,77.2262,-78.2139,15.4739,-31.5150,-33.5622,25.3899,64.0575,35.9192,46.7489,-204.5009,86.0033
33.7032,-87.0280,-65.1630,-73.3153,-175.6778,-32.9315,53.9453,-44.2074,66.9657,-112.9587,-24.6370,-54.8046,-34.6282,-35.2929,32.9988,5.1830,30.7349,-254.3922,114.8548
-20.7050,-91.7191,-71.6955,-106.4911,-119.9624,-93.9138,21.2987,-12.3221,29.0253,-43.3701,-22.0601,-77.5430,-26.3280,-68.6930,6.3457,-45.0788,-18.2772,-232.9369,101.8120
-26.5672,-51.5466,-65.4251,-113.8428,-16.2950,-122.8478,-24.2685,-5.1060,-18.6800,-39.2199,27.5760,-82.0118,7.7632,-65.2239,-6.4689,-59.1119,-41.0830,-157.4643,20.2370
50.7470,-11.2243,1.6966,-74.5575,95.0438,-116.6329,-90.1740,-97.4508,-87.9937,-78.1090,69.2151,-66.5464,27.0248,-72.8331,-41.0119,-95.5568,26.4580,-98.0767,-69.3524
114.6684,-4.9730,59.4877,-17.0675,143.7549,-88.4401,-153.1573,-178.7839,-140.3974,-96.0892,62.7464,-73.6368,6.7524,-107.3810,-68.6423,-170.2397,98.8421,-91.6236,-125.2751
66.2079,-42.2664,30.2696,-33.1218,86.3715,-107.5910,-161.4516,-195.6038,-131.1204,-134.7068,14.0411,-122.9038,-17.2379,-152.2848,-59.2774,-197.5506,61.9498,-110.0376,-152.3554
-28.9287,-96.8084,-20.2433,-112.0706,17.6784,-173.5677,-144.8901,-200.4456,-112.0453,-176.7835,-37.2731,-165.7572,-19.3361,-182.6400,-54.9508,-156.4677,-25.9276,-112.2862,-140.2444
-60.9215,-130.7516,-23.7882,-142.1720,30.8572,-187.0889,-160.0195,-204.0987,-130.1327,-187.7917,-51.9020,-173.5946,-8.4815,-179.7114,-71.0380,-123.7378,-58.4155,-92.8568,-101.5695
-45.6018,-126.3460,-21.4839,-115.2867,70.0733,-139.6150,-168.7876,-189.2832,-131.4789,-191.8180,-41.4246,-181.7156,6.7996,-167.5055,-61.6842,-131.9446,-48.5987,-77.2723,-96.5753
-47.0354,-93.7926,-48.3044,-106.8804,49.2209,-110.2835,-133.0891,-154.7973,-82.2876,-147.9450,-60.6559,-210.6742,0.2025,-179.3895,-12.1473,-132.0699,-44.7432,-86.0482,-119.0644
-76.5861,-85.8764,-83.1831,-107.2008,-18.5533,-96.4979,-79.2191,-95.7217,-19.0785,-46.6687,-124.0904,-235.7263,-51.9246,-193.4109,40.2319,-102.5600,-58.5956,-105.5896,-89.6567
-117.3691,-150.1347,-102.0225,-74.4452,-48.9170,-69.5576,-10.9534,-55.7333,34.4124,-28.7003,-174.9164,-232.2345,-96.2011,-181.4760,48.3860,-95.9995,-93.4152,-102.6801,-26.0962
-133.6107,-230.7563,-85.8786,-48.6000,17.1216,-71.8480,30.4781,-105.0237,37.8237,-126.4832,-163.0852,-201.3926,-72.3864,-165.1398,-5.0208,-137.8178,-118.3487,-76.8977,-39.5696
-99.5550,-233.9406,-50.1454,-80.8595,117.8081,-117.0457,-43.9670,-196.8401,-48.5390,-184.8844,-109.9109,-180.9675,-32.4221,-167.8092,-68.0585,-171.9122,-97.7490,-68.7358,-124.5325
-65.2332,-187.5979,-43.3345,-147.6019,133.4479,-166.6945,-143.5956,-223.3656,-125.9710,-169.4349,-73.5082,-214.3729,-46.4909,-192.8242,-80.3191,-170.9515,-70.9189,-92.1736,-160.6600
-87.7275,-188.2149,-56.6894,-192.5466,67.4387,-226.4876,-105.7115,-213.4732,-91.8669,-197.5235,-80.3917,-273.5187,-82.5477,-241.9385,-75.1327,-181.9752,-84.3034,-111.8996,-138.2486
-124.4426,-238.7510,-51.5309,-203.7521,9.6083,-306.9052,-53.9953,-266.8299,-63.5293,-294.4506,-102.5271,-286.0794,-98.9548,-287.9861,-103.5005,-215.6309,-112.8223,-113.4735,-157.8969
-111.8968,-269.0894,-51.6695,-210.2814,-20.3203,-357.6826,-164.8436,-350.5653,-153.4054,-378.7216,-95.9690,-251.3772,-114.2076,-293.0446,-126.5324,-237.6663,-125.8327,-117.5652,-220.5772
-74.9244,-248.2526,-63.4876,-201.1186,-21.6142,-342.8827,-290.2839,-365.6009,-239.5707,-383.8799,-67.4354,-229.2934,-131.4426,-275.2059,-112.6540,-255.2667,-119.1834,-116.1821,-251.0505
-65.1108,-204.9862,-37.5487,-136.9098,21.6271,-298.8533,-290.5455,-330.8352,-236.7558,-318.6263,-71.5836,-241.1030,-148.5012,-275.4166,-107.1378,-273.7518,-88.3303,-95.7749,-269.9875
-75.8909,-182.7456,-2.3359,-74.7021,31.4647,-288.4908,-287.2508,-329.2826,-234.8438,-276.9439,-111.5264,-265.6923,-194.4963,-292.3105,-118.5596,-264.7375,-57.7715,-101.2890,-307.5139
-78.2408,-182.7836,-25.5848,-114.5310,-57.8301,-329.7275,-287.4953,-355.8600,-230.4258,-308.4504,-113.2803,-274.8528,-233.0237,-302.2773,-106.8506,-244.9434,-57.7733,-169.4044,-271.4360
-69.4554,-163.4918,-56.9668,-206.7345,-139.9116,-358.7991,-172.6045,-340.6761,-150.7144,-321.4765,-51.2098,-239.4713,-185.6732,-278.6672,-92.3391,-228.7834,-57.5406,-243.5638,-125.4146
-45.1736,-112.9756,-27.2720,-223.7531,-131.7282,-307.3873,-73.6913,-257.8670,-89.0626,-254.4042,6.7847,-168.9152,-106.0030,-203.5271,-105.0803,-156.6326,-21.7579,-243.3268,-8.6183
13.9816,-45.4468,18.1922,-163.7923,-120.0315,-209.2951,-135.0327,-151.8137,-123.8493,-178.0626,29.9751,-108.4490,-94.7172,-112.8509,-95.6618,-35.4832,29.5078,-170.9279,1.6914
77.8903,51.0716,32.0113,-86.3648,-137.4117,-129.5142,-180.1378,-77.5588,-135.1952,-116.9109,61.8030,-51.4067,-84.2598,-51.2146,-33.5155,26.5701,68.3672,-97.5727,18.6801
63.0069,134.5540,25.1259,-4.2041,-96.1351,-55.5267,-72.3320,-12.7879,-54.8826,1.8300,93.2532,41.5724,20.3618,12.2726,24.1130,31.9240,63.0041,-71.2532,128.0476
-37.8630,95.5031,-13.8362,37.5831,-10.7502,29.0150,56.6999,114.8477,30.9296,167.4647,60.5724,129.1136,119.0573,108.3997,40.8998,95.4758,-19.6140,-61.5202,257.0545
-112.5390,-17.4781,-73.1432,3.4404,21.1679,93.7308,118.9868,259.6589,82.8787,261.8267,-9.7443,147.1064,97.0798,192.6527,50.5493,227.7758,-115.3360,-6.5363,295.9601
-81.5014,13.8079,-71.2770,-2.0118,18.8509,146.3792,125.2796,276.7707,97.7170,232.9621,-9.1011,143.8735,41.4522,239.4323,73.1168,327.8810,-103.3039,99.7377,211.0924
5.6425,208.6590,9.2854,119.3915,55.9871,213.2688,39.8626,182.7259,33.4749,160.5323,80.0483,199.2283,67.0859,274.5185,88.8572,322.9016,-3.7106,214.6641,66.1167
54.8763,323.3217,77.4298,284.2752,107.2438,266.9501,-72.7152,153.0368,-52.4370,142.9193,142.4921,286.0731,123.2460,299.5801,89.1481,240.2837,44.7510,309.9730,-32.1199
35.7375,269.3121,85.0401,371.6331,120.1793,291.9617,-65.0830,226.8566,-43.3992,201.7449,97.4390,334.6569,120.4911,315.4244,87.7868,215.3405,14.1188,362.8348,-51.8411
18.4550,228.0228,85.4634,371.6361,123.2982,306.9660,13.0639,294.1628,17.5161,298.4376,26.4444,332.7099,90.3863,336.7037,91.2063,314.8799,13.7679,350.9294,-41.6718
90.1275,289.6078,122.0774,323.2365,154.4920,296.9980,16.6431,311.1728,19.3905,351.5407,60.0852,304.4646,118.0039,329.3864,88.0115,371.8004,92.0880,311.6508,-18.5859
186.7163,339.6784,154.3082,267.6278,169.2593,265.6979,-22.5963,278.6627,-11.5552,271.6521,170.5823,278.2012,196.6142,276.5339,73.6073,255.7837,155.6091,301.1395,23.2831
155.5498,307.9065,123.2998,238.6713,117.1232,267.0661,-16.5991,187.7686,-6.0057,120.8459,201.7836,266.5972,228.1139,241.6499,66.2378,127.8559,119.1381,287.6549,49.9214
38.6700,237.9085,58.5365,220.5765,53.3433,290.0684,15.1804,123.7780,21.6496,97.3791,116.7676,252.2806,173.5039,242.7015,70.2606,126.2190,43.4322,227.4162,49.7499
23.0645,169.2901,45.1436,187.7657,54.4145,272.1250,38.1939,150.3084,36.2950,185.7843,53.2074,235.3353,116.9699,228.6576,55.8615,141.0525,35.3951,177.6359,50.2169
104.6426,141.8218,78.7900,151.5515,74.9504,222.8477,40.8426,139.6844,25.6576,140.5306,95.6118,233.0255,118.4741,208.2675,21.5568,115.0800,83.2753,168.7206,37.5809
136.2926,192.8131,78.0789,109.6127,35.1845,174.1147,5.8344,30.4961,-5.5513,-24.1648,163.3211,208.9790,122.9939,203.2930,16.5999,137.2371,114.4012,111.3205,-0.0039
109.4484,245.7562,35.7718,59.6106,-31.2962,112.4733,-33.0445,-0.2238,-20.8156,-28.3084,158.9890,141.1521,85.6980,171.3470,49.4508,179.5788,115.0998,-12.0828,-10.2809
80.2970,183.3662,6.3085,47.3687,-57.7033,60.6464,-15.0556,102.9747,4.4679,124.0073,87.7289,107.2253,36.0422,120.7474,63.1517,144.4947,85.0881,-71.1568,21.5856
37.2057,73.1069,-1.2181,79.9202,-47.6530,72.7301,58.7361,144.0845,51.0414,171.1374,23.7391,134.2624,-2.5063,114.7273,42.8544,82.9879,33.2365,-20.6764,42.6876
26.9718,84.7213,10.9375,88.8307,-12.7518,125.0608,148.1271,63.5746,104.8323,86.4183,34.6389,120.0244,-8.5517,127.1384,35.6415,81.5896,45.6364,20.5305,53.9593
104.0858,185.3211,55.4746,58.4915,40.5572,140.3051,207.1093,14.2150,148.1589,34.3837,101.9865,43.9194,44.3033,96.8807,45.6732,100.8283,145.6130,-10.4247,95.0925
148.7006,195.0977,91.4992,53.3816,56.3404,97.8781,187.0203,52.0477,134.8918,59.9881,119.6661,16.6242,85.4010,53.8607,34.5060,78.9677,183.5163,-28.9222,133.6886
61.3968,106.6433,73.4571,98.9186,6.2259,57.5975,99.6813,109.7404,69.9992,116.7898,41.9955,52.9655,17.8224,45.7863,14.4867,45.2657,85.7910,34.5896,116.6594
-29.6232,57.2700,40.7920,146.8235,-41.4398,82.4545,16.6287,140.3910,19.8705,139.8440,-38.8473,59.6790,-79.5035,59.9726,21.6574,54.8930,-3.1557,124.7461,59.9282
-17.2325,68.6324,34.1965,144.8536,-26.6025,142.4172,-25.7566,107.8698,4.2209,76.5421,-43.0609,28.3020,-67.9903,69.2251,36.9094,83.2131,7.9532,147.7218,-0.5984
13.7711,71.7592,30.0573,102.1249,19.6772,144.7202,-36.6681,21.8670,-6.2918,4.2590,-13.9423,16.7441,-2.8214,57.4545,28.7440,58.9805,33.8275,102.1751,-62.1005
8.6948,60.8870,28.5422,85.2639,39.3600,76.5051,-30.7719,-33.8157,-17.7258,7.5975,-10.9782,27.5465,-4.1005,25.3170,9.1423,0.7912,28.4883,70.2155,-115.8765
22.2496,45.5092,56.7744,115.1614,24.6905,15.8843,-21.9687,-31.6846,-19.7791,5.9213,-22.2830,40.7401,-23.4177,2.6172,-4.6657,-4.3344,35.3601,85.5004,-119.9193
44.4676,-0.6388,74.3677,116.2133,12.1345,6.6647,1.6145,-6.8546,-0.8317,-26.2652,-32.2823,50.9194,14.8249,6.2647,-10.7589,37.7033,40.2952,92.8468,-59.6209
8.6717,-66.3271,23.2150,42.2648,11.3159,29.0176,43.5441,43.8752,37.8399,14.7458,-57.6100,37.3023,34.7945,19.7470,-3.7553,56.7133,-4.4437,56.5780,-11.5420
-59.4823,-98.6860,-57.6473,-40.9078,-15.5331,48.5389,36.8523,89.8522,44.6211,71.9530,-80.3900,2.0162,-24.5417,30.3506,7.2406,43.8735,-68.3830,11.0431,-53.0079
-68.9838,-70.6257,-80.1024,-65.8639,-58.7709,30.9501,-40.8685,60.5178,-9.4481,27.6302,-50.3067,-12.4268,-68.3498,22.4677,2.4916,0.3619,-78.3400,-12.4367,-117.6242
0.2140,-4.4646,-28.8147,-44.7620,-44.8546,-21.4780,-88.0041,4.2782,-55.7287,-10.6364,18.1851,-1.1323,-23.6723,-16.3375,-9.2920,-69.0272,-18.3546,-18.5242,-92.9361
74.6410,45.1893,37.6719,-10.7503,26.0321,-51.9985,-69.5962,14.7158,-55.2577,47.5025,52.5651,6.2180,34.3350,-39.0198,-14.3970,-68.9843,53.0871,-12.8488,-16.6710
89.9283,52.9165,68.5653,20.0011,72.1974,-27.7585,-71.7651,54.1140,-62.4951,90.0944,43.0066,14.3098,41.1890,-0.0967,-22.2459,30.6491,78.5814,-8.2381,17.8012
59.5266,47.3059,54.0337,25.8129,77.6463,14.0203,-82.7290,66.0732,-70.8331,90.1548,39.1229,21.9229,42.4743,41.5264,-25.9823,76.2629,64.0593,-36.4143,37.7211
18.9179,29.2492,11.5430,-2.6527,86.2270,26.7011,-16.2449,90.7483,-17.7954,132.6890,35.9485,-1.5872,60.6110,24.2954,-9.1078,12.9281,32.0072,-80.2876,93.1294
-21.9167,-29.8496,-21.5180,-27.7075,97.8984,12.2149,76.2912,138.8868,51.4071,173.6472,2.6554,-29.0219,47.1727,0.9393,7.1940,-13.5393,-20.6238,-50.8230,153.7014
-35.8339,-87.4901,-16.3235,-6.0357,96.9711,15.8982,106.1431,142.7690,66.2140,127.6402,-22.0706,-7.3347,12.9253,17.8498,8.3511,16.2432,-65.6293,75.9309,199.6033
-1.6550,-77.9335,6.6842,45.0297,91.2639,66.1727,117.6987,72.1881,74.2545,21.2628,-1.8934,24.5193,23.0826,27.9866,24.8617,-13.3437,-55.2644,185.5471,233.3722
21.1039,-19.1676,11.7505,76.7224,77.0351,113.9870,156.0037,-15.0989,113.9019,-68.2451,18.9119,9.0350,56.8994,10.3492,58.4586,-55.5149,-18.3890,190.9088,222.9817
-19.3969,42.8270,9.5834,83.0030,59.9876,97.5692,177.4935,-31.1108,131.3264,-60.1934,13.2486,-17.0701,50.5260,3.6061,63.6146,-23.8160,-12.7717,147.3567,172.3013
-54.1046,79.9722,20.6712,76.9649,67.6181,51.8631,182.1956,40.3126,123.4182,41.7525,20.0453,-9.9073,34.2519,10.7049,34.5725,-4.8250,-16.5876,114.2032,131.5944
-22.6920,45.2339,15.2960,31.0654,78.1758,29.3295,207.4627,111.0414,140.0516,101.6076,37.8545,6.7065,51.3555,12.9489,8.9419,-34.1232,-2.3605,57.5391,86.2577
-4.5427,-56.5228,-36.9918,-67.9070,42.0681,-15.6703,194.1363,117.7865,137.1530,78.8964,16.5969,10.9213,41.7125,16.8718,-5.2810,-13.7408,-22.2764,-38.0741,-8.1727
-58.8253,-122.0247,-95.5892,-146.9583,-11.3894,-100.8406,64.5714,89.5171,40.1492,66.4974,-20.3182,10.0832,-25.6604,16.8152,-26.0660,20.3555,-92.5531,-100.4741,-115.7640
-89.5246,-95.8981,-91.7968,-133.3940,-16.5761,-123.6022,-112.6349,22.9212,-98.2166,3.0209,6.0484,8.5137,-58.1380,4.8881,-55.6053,-40.0936,-121.5416,-69.4713,-178.4617
-32.4131,-45.7537,-33.1504,-74.9873,4.9552,-63.6090,-206.3501,-119.6671,-172.6490,-199.2683,73.5864,7.1299,-20.7654,-1.2417,-80.4178,-108.8219,-64.9937,-2.4554,-203.5916
9.4385,-34.7584,-1.7359,-63.8758,-2.6157,-52.3521,-212.5614,-252.7441,-179.9464,-329.1391,71.4570,-2.5494,-6.9200,-7.7488,-83.6665,-67.1081,-12.5626,-16.8381,-216.6330
-26.0672,-41.5753,-20.2007,-77.9346,-4.9481,-106.8721,-205.8567,-236.3155,-173.5068,-198.3558,0.5644,-22.7302,-36.5239,-28.7025,-64.7255,-1.2974,-21.8187,-99.2658,-198.5510
-30.6925,-24.0929,-11.2465,-33.0180,41.6352,-86.4536,-172.3860,-100.1917,-146.8379,-8.5213,-12.0477,-14.9238,-36.4091,-24.9607,-50.1839,-19.7288,-18.0184,-99.0973,-117.4952
51.0208,5.7791,49.0083,40.5592,58.1469,11.6860,-64.9709,-8.5853,-72.3360,16.3722,49.7498,36.6529,-32.5953,17.0570,-55.3972,-68.3747,47.0769,-1.7369,-10.8549
109.3806,0.4902,83.9656,47.6738,-13.3031,45.0792,61.7295,-29.1274,16.6139,-35.0579,59.6841,72.7625,-75.8436,31.3965,-63.0845,-71.5513,102.7119,32.3293,33.5748
93.7960,-20.8891,81.3397,15.8724,-49.0898,13.2739,141.5363,-68.1698,78.2777,-23.2005,5.1001,57.5047,-70.1727,-1.0586,-59.2528,-44.4316,111.2578,-14.8720,22.4387
91.9256,24.1478,103.0369,29.2895,27.0237,22.2270,185.5360,-30.0095,116.6892,30.6875,4.8168,26.4064,35.0311,-18.1125,-43.3157,-11.4692,131.1445,-16.7213,42.7776
123.1283,119.7137,123.9476,52.8341,52.6638,46.1264,171.6182,44.1952,119.1053,63.9513,57.3224,3.8627,90.0770,-9.8521,-16.7032,18.2444,167.2719,-0.8160,66.5458
106.2638,149.2343,86.4372,36.5657,-61.2890,21.6767,69.9161,54.7620,63.7471,54.9824,59.3879,-2.3579,25.7648,-19.4156,3.4458,-3.5866,146.8113,-36.9267,11.9582
40.7201,96.6983,39.5011,43.9439,-131.5128,18.4498,-8.0400,-3.9896,12.1825,7.2419,22.0355,26.3666,-17.2470,-32.3334,4.4355,-92.2244,71.6228,-17.0267,-42.0461
14.0585,60.8257,41.1219,88.4399,-59.0634,74.7636,29.8948,-77.3245,25.5159,-56.4917,20.0363,59.5626,13.8637,-16.8888,0.1903,-149.9424,35.0338,81.7374,-19.8281
62.9866,95.1148,72.3034,78.9130,3.2726,84.6614,55.6897,-148.2863,31.2445,-108.9639,52.1946,43.8846,18.9619,-11.2463,-11.4079,-121.0467,88.1734,91.9229,-48.7393
144.0021,185.1070,116.1708,37.2263,-20.3657,15.9707,-39.2533,-189.2257,-37.0063,-123.9747,96.1067,4.7782,-5.5219,-51.4993,-33.6477,-107.0534,179.8745,29.5106,-177.9877
191.7583,272.7246,144.5212,62.4802,-42.0837,-16.5076,-133.0744,-149.0422,-91.4830,-92.6895,134.2146,-10.0256,1.9670,-89.6074,-15.4218,-148.1591,215.2049,65.2122,-224.1862
180.0994,258.1878,103.8078,88.0708,-39.6569,17.7232,-120.1777,-66.9926,-62.1922,-58.9020,120.6100,-18.0186,5.2658,-72.6462,50.3648,-119.5457,165.3161,133.6667,-131.7871
155.6223,143.3119,47.8555,15.0317,-29.3895,26.9132,-78.8003,-45.0828,-30.5455,-73.8299,74.8294,-31.8749,-8.9468,-31.5362,59.3693,-8.0922,113.2059,98.1723,-67.7772
173.6681,80.4174,85.9969,-47.3410,37.1973,-1.0928,-74.8116,-87.1516,-57.4125,-112.7256,84.3688,-23.5035,23.1415,-17.5242,-16.9208,38.2291,133.6546,72.9158,-63.7621
213.9858,127.9096,175.2526,15.2061,142.6705,1.9970,-69.6494,-99.1145,-84.1728,-95.5993,134.6664,4.2177,69.2369,-18.1291,-60.2602,7.9903,182.2445,162.5085,5.9440
220.2393,165.4910,208.4349,108.5623,192.0808,42.3233,-38.9371,-35.0722,-67.7325,1.2695,136.0053,24.8638,52.7299,-2.9215,-35.7295,3.2408,188.7825,252.4816,135.3412
182.8158,126.8269,201.5345,134.4301,176.0610,90.5254,10.9902,37.8359,-27.6433,77.5314,94.9976,36.8080,26.3173,15.8179,-31.8817,6.7665,162.6032,272.9216,226.4785
144.8419,72.9668,197.1701,135.9194,149.9812,140.3698,87.7843,29.9927,30.3676,30.5953,68.6167,37.3984,43.6404,19.2848,-46.9765,-18.4362,143.1556,276.8996,274.9151
152.9283,65.0046,184.3086,157.3672,134.8380,169.0605,161.4848,-35.4550,89.7298,-56.6590,65.2476,25.4242,46.0781,14.3946,-18.1221,-30.3049,151.3957,269.5400,304.0676
189.8432,124.7077,185.4970,192.1035,133.8865,162.8852,152.5208,-58.4981,86.3205,-44.7135,90.0486,29.4800,30.0095,10.0422,14.3163,-44.6465,184.7444,248.5383,298.0129
180.5441,198.2649,203.1476,220.4637,121.3230,144.8816,60.6407,-26.9292,19.9494,8.5011,123.0025,50.1519,57.8028,5.7272,6.0923,-79.3470,192.2810,234.7806,277.3669
104.7706,162.8330,153.6572,176.0706,46.6900,95.5406,33.1014,16.1311,15.2584,18.0889,86.0721,32.7773,82.9442,-12.5525,13.3852,-63.7470,126.2422,169.5271,271.9727
15.9812,28.2542,22.6184,30.6265,-55.0597,-10.4131,165.1669,94.7514,138.4236,76.9778,-14.1798,-32.8869,41.5559,-59.5291,58.0291,-26.3468,20.8041,33.7929,230.7535
-60.3564,-44.7600,-82.0316,-93.8345,-78.8057,-86.3373,287.4628,179.3987,240.1017,176.0286,-61.3101,-74.5342,6.7988,-94.2770,75.5205,-64.8626,-65.3457,-40.3393,95.2436
-115.9897,-28.1565,-101.5723,-93.1670,-11.2292,-56.1174,189.8620,143.6142,158.5047,132.7150,-33.1201,-48.2291,29.1938,-52.7840,42.2685,-88.0861,-114.9528,2.5840,-75.0615
-111.9470,-24.3083,-75.4559,-40.0933,47.0800,1.0527,-6.8613,21.4552,-1.4879,-4.3264,-17.9585,-0.2533,29.9761,28.6074,6.6511,11.8487,-114.7124,46.5860,-156.9379
-60.2735,-15.4983,-46.6761,-21.8458,18.1835,12.5578,-34.9079,-19.7075,-23.8065,-31.7615,-28.4572,15.9067,-10.2839,55.7735,9.9836,104.1525,-64.5681,33.6875,-122.5495
-29.1717,37.8444,-41.6062,-24.4431,-64.0243,24.3241,75.4827,-10.0301,71.3316,-21.8748,-15.7355,10.8993,-6.2751,34.0974,44.7439,80.4457,-18.0904,3.3423,-58.5943
-37.3985,32.0741,-73.0172,-48.5038,-111.9480,39.8592,97.0716,-77.4731,96.1999,-107.5931,-2.7647,13.2934,38.9424,25.3531,63.0535,38.5225,-25.5748,-49.6761,-35.0234
-74.7264,-59.7483,-113.4215,-108.3312,-110.9710,1.8376,-12.1607,-152.4310,7.6532,-156.9590,-30.5925,12.5280,34.8920,20.0308,35.1111,31.4277,-77.5972,-119.0587,-41.7643
-128.9072,-94.3701,-121.7527,-134.7541,-104.4236,-46.0108,-121.3577,-138.5353,-82.6017,-88.3962,-62.8815,-3.8586,-16.6564,-0.9900,-0.7025,11.4274,-121.6572,-133.2063,-48.7274
-129.9205,-38.6459,-96.3334,-79.5982,-79.0519,-26.0959,-144.3867,-100.5905,-99.4566,-33.2294,-55.7003,-10.4780,-40.7288,0.4442,4.3164,4.5629,-107.4531,-86.5506,-52.4056
-51.5869,-8.8652,-72.6679,-19.9695,-25.3577,12.9373,-102.0375,-80.3927,-63.7006,-29.0635,-34.3603,4.7617,-32.4308,25.8827,35.3994,37.5326,-53.7957,-50.9370,-74.9411
5.5830,-13.6184,-60.6793,-9.5180,-8.4897,2.5791,-78.7067,-43.0508,-40.4262,-5.3159,-32.4481,13.8630,-27.6188,23.1717,47.4429,47.7935,-24.2395,-35.2514,-127.1097
1.5147,31.2913,-18.5093,23.5499,-18.0704,-4.4949,-95.0239,7.6831,-48.8356,41.2752,-32.3012,11.3278,-10.6075,-1.9092,32.1163,20.4443,-8.5721,14.6923,-150.4812
2.9857,98.1431,48.8422,115.9041,22.0587,45.3466,-63.9911,73.2825,-28.0654,101.7201,-22.6857,17.3081,23.4751,-0.6047,23.9022,10.1842,25.5000,99.1670,-97.3043
-3.9681,99.6348,55.2772,178.7695,43.5767,81.3184,-3.2055,140.7844,21.4293,139.8067,-35.8196,20.0282,13.7302,15.2647,43.3092,20.5960,19.6162,147.2808,-74.0903
-42.2278,63.7274,6.9013,168.8855,-21.7949,40.4291,-60.7312,126.3111,-11.8310,86.1799,-61.0045,20.0975,-46.5066,18.3020,49.9764,28.9725,-31.3611,120.4703,-188.6105
-13.0434,87.9547,28.1399,172.8431,-28.0984,2.5946,-203.7968,43.9903,-132.2233,14.2443,-21.7026,68.2434,-58.0369,45.5802,6.0361,43.7006,-6.0209,79.0900,-313.0058
96.3164,174.4920,120.9266,228.8583,85.8561,51.1373,-248.0452,3.3532,-198.3442,13.7302,86.8982,153.8545,12.3102,110.9744,-43.7151,50.8806,102.2505,90.6414,-285.8285
151.0653,240.1254,161.2500,253.5578,124.0777,123.1368,-196.5753,-23.8820,-172.4337,-18.2113,163.8531,186.1329,59.4054,143.6366,-47.1619,21.6803,160.5687,125.2807,-189.9103
126.7542,254.5724,138.8696,214.1379,26.5922,143.0896,-166.7792,-92.1480,-139.2658,-103.5406,160.1704,155.1779,25.9311,118.4611,-31.2323,-14.6900,153.3238,125.5216,-156.3470
103.8197,232.9253,116.2525,167.5790,-33.7900,141.2645,-161.4246,-109.8146,-127.6114,-97.3886,124.6611,133.4855,-10.2896,104.4326,-28.3866,-3.8440,144.6864,83.5585,-142.5856
86.7939,152.5638,75.5350,116.9434,-24.5680,123.6489,-171.7883,-62.0438,-129.8699,-49.8107,88.4711,118.4257,7.4242,112.5188,-24.2676,48.4138,113.6606,-4.3041,-87.3247
66.8307,34.9454,15.9556,32.2313,-55.0571,43.3960,-203.7290,-54.7764,-141.5178,-90.2442,48.0391,62.4054,34.6920,71.1801,-13.0817,74.8461,61.5488,-118.8164,-20.2173
45.8356,-32.4258,-26.6684,-61.6785,-113.1730,-62.6094,-176.2419,-73.6029,-111.6700,-104.0628,9.3964,-16.1868,23.0371,-24.7597,0.8371,21.1649,27.0206,-189.0543,26.3779
-38.5532,-87.1418,-102.0686,-168.4094,-128.4698,-140.1692,-84.1933,-62.9572,-40.3470,-16.2815,-45.4812,-88.3735,-18.2577,-110.2110,21.8776,-73.9517,-54.1760,-213.0869,34.3666
-172.0382,-245.6794,-229.2095,-320.9004,-96.2609,-226.0514,-36.3740,-57.8803,-7.8178,34.2391,-128.4220,-154.3858,-44.8565,-158.1350,27.0011,-112.0095,-210.0767,-260.3675,9.7910
-224.0045,-409.6350,-291.4521,-430.2675,-30.7018,-292.2019,-3.2067,-35.2873,3.2967,24.5886,-168.8061,-176.2389,-21.5689,-160.0343,-0.7053,-81.0663,-303.7565,-292.3176,14.4629
-182.1793,-384.9381,-234.0359,-373.4759,29.4097,-223.7235,90.4241,41.2107,57.0133,46.5440,-115.8978,-116.2710,28.3079,-99.0465,-26.6341,-63.8645,-262.7568,-218.7770,69.9989
-130.1498,-243.8206,-130.8281,-217.4926,44.2125,-74.0350,141.2608,89.9377,86.9508,76.6043,-47.6171,-26.7543,52.8918,-19.4023,-38.5841,-66.1838,-169.2541,-97.7342,126.9019
-60.5555,-185.2104,-35.5899,-123.2394,42.0955,-15.9317,105.9786,81.7666,57.2568,67.5872,-38.5012,8.4907,54.7767,5.5008,-58.1312,-14.4404,-80.1851,-37.6874,172.4027
-2.9574,-211.9746,-1.5432,-118.6898,22.1004,-37.1552,112.5445,65.9550,69.3572,3.5593,-62.1188,-28.1414,47.0805,-16.6074,-53.3499,58.9674,-35.4467,-36.0447,203.5067
-68.6792,-241.1146,-84.0501,-138.6535,-63.4612,-16.4611,151.1037,15.9932,122.6374,-100.7582,-102.9272,-92.1063,-17.2499,-32.5356,1.2526,53.8072,-94.8439,-67.1887,181.8148
-197.9887,-265.1806,-189.6129,-156.8998,-139.9526,18.2283,122.3535,-36.9043,117.0179,-91.5526,-170.3053,-132.0231,-134.8167,-37.1577,39.3815,2.6448,-189.3526,-126.5753,144.8896
-225.8692,-263.3453,-187.3678,-170.1561,-102.4914,-7.0460,108.5604,17.5803,94.5626,83.7605,-204.1356,-130.9812,-185.9584,-43.1232,23.9699,4.7086,-196.6302,-149.6137,169.4578
-171.7236,-216.8016,-126.4277,-156.0299,-24.6424,-40.3768,166.9258,114.6064,122.6370,185.8188,-160.7572,-98.4130,-114.0711,-34.8185,10.7790,40.0346,-155.9969,-88.9143,217.9973
-129.9176,-168.8229,-86.2566,-100.0629,4.9872,-25.7894,171.2999,138.0748,123.6114,137.0365,-100.7600,-41.3133,-15.3745,-4.5618,16.2702,51.3685,-138.7005,-5.3529,229.6211
-82.6881,-110.4372,-32.3068,-20.6866,37.0302,4.6843,113.9989,142.4205,75.3020,127.3379,-59.6526,18.7458,29.2189,36.3963,9.3475,80.1027,-97.6596,48.7937,226.9534
-39.5479,-19.5176,16.0477,38.4827,70.4079,28.9753,131.5604,141.9588,78.5125,120.6356,-14.5816,41.9364,24.5939,80.4624,10.6638,152.0332,-39.4070,83.4547,209.4716
-73.5134,-9.4209,-22.5818,35.4236,19.9233,39.7268,199.6355,95.9385,133.0506,22.3743,-14.7507,17.2036,-36.9324,99.0005,31.7942,183.4813,-58.1758,65.1619,154.1709
-150.8112,-127.6970,-103.4851,-25.4162,-74.0997,-3.1165,209.9374,133.2179,157.7459,49.7382,-102.0543,-35.4115,-136.4468,57.5259,34.1140,141.8726,-132.7798,-30.6010,111.4720
-175.1418,-190.4462,-124.7535,-77.6024,-90.3976,-80.7436,200.2372,297.3986,166.7314,250.5862,-173.6713,-90.9080,-163.6764,-5.3702,33.0799,131.3023,-159.7152,-96.5773,123.8129
-141.8016,-115.6601,-91.7367,-68.7803,-29.4027,-105.7557,228.7625,379.4268,193.6031,339.4375,-153.3848,-112.6149,-86.9436,-19.0398,63.6673,195.5808,-130.3950,-51.6671,167.4815
-93.2892,-66.3167,-57.0149,-36.7100,9.8368,-72.6635,250.4195,346.8722,202.0688,310.8426,-113.1900,-76.8400,-35.8633,10.3283,76.6606,230.1050,-91.8187,0.5134,224.5217
-37.7593,-72.2254,-33.0927,-29.4763,-15.3556,-41.2230,244.3734,378.6682,186.8315,359.1217,-78.4345,-1.1362,-59.0009,52.2778,49.5842,199.8122,-51.7888,-13.2398,272.1914
12.2552,1.5032,-12.0293,-5.7578,-39.1649,-4.7042,253.4016,427.6630,188.8123,384.5387,-3.2644,81.6248,-41.9777,117.3528,49.1308,208.9644,-13.1161,6.1698,279.0634
12.9528,78.4554,9.1603,61.0821,-1.4355,41.2243,275.2599,352.4583,199.3232,284.9878,34.9393,121.0882,22.3533,165.3925,71.2411,267.4491,-2.7748,76.6099,258.3773
-46.5574,2.0937,7.7602,93.2275,27.1570,34.3546,254.3113,229.1320,178.3218,179.6271,-42.7267,73.0363,-4.1209,126.0166,49.4045,256.1973,-35.1531,73.4960,194.2892
-94.2243,-96.7274,-33.0796,59.1563,-26.5753,-13.7910,174.0091,120.4659,124.8995,68.4431,-110.1894,0.5179,-113.0905,54.4775,20.1721,165.4473,-76.6974,18.9479,43.5602
-72.2458,-47.5343,-64.1025,38.5835,-71.5442,-14.3257,85.7991,-13.5261,64.7844,-74.7976,-60.8274,8.6899,-151.5826,53.5281,37.1671,106.8647,-76.8673,36.4186,-95.7614
-50.2675,26.5644,-49.8016,48.0696,-40.1823,22.4306,33.5111,-87.0751,17.1817,-99.4384,-7.3090,55.3699,-104.6345,86.3365,39.8989,101.2063,-52.7827,57.9585,-95.9310
-96.1025,-18.0000,-44.7992,24.1876,-44.4072,16.2133,4.8577,-40.9835,-5.5217,-25.1030,-39.0333,35.9028,-79.2231,60.5183,-4.0516,61.2707,-63.0762,-26.8125,-48.6699
-126.2697,-81.2962,-70.9820,-13.0382,-121.7296,-32.7718,-9.3380,-6.1464,-0.1731,-24.4588,-72.8161,-8.8898,-89.4910,-6.8128,-21.5105,-33.7887,-85.6341,-114.7221,-81.2147
-73.1881,-41.7260,-69.2491,-1.6149,-139.5272,-74.0958,-5.8470,-21.8836,8.7624,-25.6192,-48.2583,8.9110,-83.1249,-33.3679,11.2910,-75.4047,-63.3723,-92.8608,-125.3506
-20.7188,45.4639,-35.8850,28.7714,-82.4744,-80.4024,-32.1906,-2.6195,-17.4814,34.9797,-12.1776,48.1469,-63.1703,3.9521,36.4503,11.6849,-29.3803,-20.0196,-126.4755
-19.1189,63.8102,-16.8579,28.6567,-69.6761,-45.7742,-104.7028,-0.8196,-65.8614,-12.5206,-13.0601,33.4193,-60.5034,35.1828,29.7742,107.3790,-27.4114,43.8121,-154.5853
-16.3698,1.2288,-1.7975,21.3855,-92.8063,-10.8464,-133.8752,-66.9716,-78.2856,-116.6917,-56.5858,-9.4207,-87.0234,-3.9652,8.5532,66.5343,-26.1122,98.8753,-193.4337
-18.3389,-45.7964,19.3568,38.8862,-66.3489,-29.4057,-99.0129,-89.1906,-63.9155,-56.5365,-100.9693,-18.9601,-127.8571,-56.4996,-10.8370,-22.1262,-21.7413,117.8979,-166.8112
-56.6706,-33.8352,14.4863,60.3606,-20.6772,-69.4294,-92.1273,-56.2488,-74.0995,16.2043,-96.3373,-13.2218,-132.3868,-51.0247,-12.9500,-15.7903,-49.1578,101.1714,-119.6266
-78.0309,-41.0288,-6.4903,40.9702,-18.7034,-69.1867,-80.5097,-74.2831,-58.0928,-100.4702,-75.6616,-58.1395,-81.8261,-51.5023,-2.5240,16.2146,-71.3153,84.7635,-107.2990
-59.7961,-88.2679,-18.2400,-26.2397,-36.6855,-48.7002,34.5848,-79.1026,42.9123,-159.8016,-92.4280,-129.3371,-45.6921,-98.3539,3.3402,-9.8671,-49.9117,48.4237,-91.2162
-70.1665,-87.4034,-52.7889,-77.3386,-34.4444,-30.3254,141.5466,26.6283,123.3075,18.1113,-101.0096,-113.7979,-69.9304,-81.0773,13.3930,-27.3912,-50.7740,-6.8101,-77.7135
-127.6224,-37.4325,-115.0648,-57.1027,-22.9726,33.3333,94.8126,108.5124,83.2542,138.3176,-54.9347,-3.5127,-88.6948,31.6530,28.3241,-30.5465,-115.4765,0.2479,-129.5469
-164.1066,-9.7771,-134.3893,-14.0868,-27.9071,133.2072,-13.6916,17.3550,3.7150,-14.2326,-2.4926,68.9293,-42.4265,101.8172,17.4772,-77.9392,-156.7169,68.8511,-224.3984
-123.4766,18.3201,-78.7315,-10.7334,-31.0915,167.7953,-81.8098,-163.3239,-47.2575,-228.1111,22.2498,48.0932,24.8018,73.0477,-14.9615,-99.9461,-98.2687,97.1365,-283.0367
-25.0048,62.8606,-9.2279,-15.6989,12.0985,115.7654,-161.3067,-262.0810,-113.3702,-268.6118,36.3816,13.4891,52.5210,30.2115,-28.2553,-47.0679,0.9998,59.5454,-283.2147
34.9672,43.2127,-1.4005,-19.4214,68.5842,61.0775,-235.5080,-229.0060,-171.2702,-174.5980,32.0682,0.0098,40.8027,11.5451,-24.9673,-29.9381,34.2165,-12.3633,-260.2771
-1.8813,-43.2768,-65.4099,-99.1224,43.7892,20.5696,-224.3717,-149.1904,-155.3685,-94.9097,4.3580,-38.5606,5.0783,-18.4639,-30.8665,-89.1386,-14.4886,-112.8591,-251.9853
-49.4852,-98.9734,-133.0064,-231.3533,-42.1542,-48.4667,-176.1378,-103.1306,-106.2533,-65.4922,-28.1310,-108.3241,-53.0239,-72.5988,-22.6150,-115.5656,-69.1150,-164.2354,-255.4696
-30.2296,-100.0578,-141.9003,-266.1989,-77.2242,-104.1896,-154.2356,-65.4890,-74.4660,-30.1627,-68.6151,-164.4863,-114.4288,-119.8980,23.6437,-65.9425,-79.9594,-86.2880,-240.8803
-15.3526,-78.9660,-122.8622,-189.1133,-72.8915,-94.2241,-136.6202,-16.1254,-52.3198,-5.1808,-94.6659,-172.9331,-152.7245,-113.2043,61.4707,-4.7066,-74.1561,-8.8491,-219.9306
-46.7911,-36.8534,-122.6538,-139.9290,-109.5426,-77.1469,-134.6444,-13.5868,-61.3615,-41.5260,-54.8403,-128.8835,-168.5577,-54.2263,42.1953,18.4281,-71.6924,-72.6714,-228.4238
-40.3975,9.3197,-105.1081,-145.6426,-124.6205,-96.0608,-147.2274,-50.6797,-93.6542,-74.5707,15.7340,-71.4853,-158.7473,-17.4635,-2.1526,-3.2309,-46.7951,-132.9041,-248.6034
27.1939,48.4935,-37.0704,-114.6481,-26.9949,-92.5485,-104.0055,-59.9644,-76.9504,-45.8716,52.1004,-53.0993,-97.8274,-39.8089,-18.3504,-53.8482,8.8592,-40.6152,-249.7067
89.8781,129.5884,33.2919,-46.8862,91.3631,-55.0722,-42.8953,-68.2882,-36.9758,-30.1057,96.2075,-68.8328,-13.1992,-74.0500,-11.9507,-120.8395,77.8104,51.7104,-250.8499
141.8303,252.1436,68.5195,-5.0722,102.5106,-49.4227,-77.1425,-114.3232,-62.7284,-76.8254,183.8128,-89.8286,13.1556,-98.0608,-6.6723,-199.4306,150.7002,16.2031,-263.5768
215.4358,328.3008,103.1462,28.9264,68.8934,-66.5218,-156.3786,-162.4513,-115.5421,-161.7582,245.4340,-121.4890,-11.3938,-129.8139,3.2940,-242.0734,217.5699,3.0769,-256.9731
307.3773,342.6038,177.4788,98.8142,121.8084,-38.6756,-165.5304,-208.6402,-122.0688,-259.0588,258.8235,-143.4719,13.1899,-145.6710,10.1271,-209.8687,286.8862,101.7111,-212.9960
398.3615,370.9515,274.1617,164.9748,224.1541,16.9993,-129.5381,-232.2324,-114.2659,-269.0045,290.8882,-111.5500,82.1965,-120.8471,-21.1194,-172.6048,383.6367,148.8598,-153.4146
440.3672,415.5367,320.7122,146.9559,235.0861,26.7479,-106.9577,-166.1600,-118.4979,-156.1861,348.8241,-70.3244,84.5069,-87.7831,-83.0427,-189.5681,461.2145,42.9941,-119.8985
397.9062,398.3396,268.4160,40.0159,147.7094,-17.6144,-98.3218,-104.4697,-112.2446,-126.4172,368.8459,-96.1289,20.1379,-80.2893,-111.0734,-192.5771,436.2528,-84.9005,-131.2275
330.6265,299.2680,172.3270,-62.4931,80.5003,-62.2958,-108.3428,-178.3250,-102.5968,-235.8256,303.2171,-152.7549,-16.6499,-105.2190,-71.0313,-144.8039,338.3643,-97.8477,-147.5844
288.6712,176.2263,119.8771,-83.6850,74.3437,-67.9222,-110.5902,-231.4995,-84.3196,-209.6983,161.0899,-169.4050,-31.0997,-147.5637,-12.0443,-107.8612,257.5623,-18.4332,-119.8402
234.9945,94.4112,114.6270,-36.6888,87.4010,-28.5094,-63.2405,-108.0434,-41.2556,-30.7697,49.0440,-147.0435,-70.6757,-140.0018,3.8109,-79.2804,201.5805,69.5319,-50.6287
179.2493,84.7500,116.9483,41.8195,113.1820,33.8019,-27.3908,3.6447,-28.8666,1.5576,68.8509,-91.1545,-91.5606,-48.1509,-12.7642,-30.6921,154.2686,127.7130,26.7440
162.9780,119.5968,115.2610,114.5883,129.1415,64.8302,-59.1647,-32.9630,-69.6034,-73.0342,135.5061,-15.5886,-65.6535,20.9373,-17.3798,-41.2194,135.6249,133.0403,63.7723
138.3541,139.0943,106.0792,128.0203,81.3411,44.6858,-63.8968,-39.2635,-67.2455,-10.0598,118.6761,13.3045,-44.5521,-8.6695,-14.9220,-122.2417,133.7375,72.3309,30.5760
97.3529,120.9639,96.9641,110.6493,23.2756,49.5876,20.6660,57.0057,9.8735,72.6964,72.4508,2.3978,-34.8768,-17.8280,-24.6652,-112.4570,130.5407,7.8579,-4.2017
122.5694,88.9686,109.9288,154.1152,49.1060,120.3437,80.7437,79.3399,53.4900,1.0059,73.9022,33.7164,-3.7647,66.6709,-23.4307,25.4631,150.7872,4.7818,26.3926
185.4025,93.6157,135.8903,221.6247,111.8778,149.9724,26.7554,-29.7855,6.1967,-87.2315,81.4001,72.6580,28.8944,105.8302,-5.6329,98.7218,191.8454,12.6677,31.5374
192.0013,174.0834,153.8696,207.9859,132.8557,75.3153,-78.8833,-147.3649,-77.7320,-104.1982,104.1442,41.8400,49.7527,34.5745,-11.9799,23.7729,217.6175,-16.0155,-57.1999
159.9418,241.5824,154.4130,143.2226,132.0594,12.4316,-154.0793,-187.0384,-143.0673,-119.9839,158.0188,16.8014,75.1933,-4.5471,-40.3554,-41.3811,202.6253,-18.6427,-104.6101
84.1915,121.7270,87.8412,84.9302,101.0522,33.4752,-170.9740,-112.0212,-152.4405,-64.7878,101.7132,67.9202,72.4517,52.5309,-37.3145,20.6556,92.4228,11.3048,-20.5660
-111.1337,-163.6275,-81.3254,-8.0774,-13.8629,49.5794,-127.4854,65.4288,-87.2239,108.3297,-120.5737,99.8717,11.4357,99.9568,5.6955,130.7744,-139.1340,-15.3642,70.3002
-354.8897,-387.7958,-267.4770,-123.4310,-166.7815,12.3984,-64.1614,204.8181,-1.9354,210.7400,-318.8878,55.3541,-66.1301,86.1680,49.7978,171.8094,-382.5398,-73.0338,71.4710
-484.5703,-459.4236,-357.7522,-179.7484,-249.7348,-26.8844,-31.5658,183.7901,30.4115,149.8953,-372.3760,25.7710,-117.7980,63.5273,67.6313,137.7252,-511.3301,-56.4967,42.5074
-465.5268,-462.2206,-334.4807,-183.5211,-208.6007,-38.6860,-16.6024,83.0415,14.4518,84.1521,-339.6480,67.3759,-117.0338,70.3048,42.4657,100.8944,-507.4709,7.9997,52.1118
-349.3728,-419.6415,-239.7847,-180.5347,-79.4615,-11.9558,-8.6495,19.3597,-17.0890,71.9562,-252.3695,122.6890,-43.2288,103.3649,-16.2491,104.2181,-400.3117,35.0894,98.5180
-233.8364,-349.1882,-164.3693,-189.2324,-8.5054,31.8567,-67.4124,-54.9486,-71.7426,-10.3118,-165.9715,117.9324,26.4931,118.3028,-50.1944,126.6092,-284.1419,20.4132,112.6018
-256.4533,-359.0964,-205.2952,-254.6115,-94.8529,-1.6002,-191.6533,-172.8505,-140.8163,-142.3596,-202.2590,40.7241,-16.7583,66.3513,-32.3366,139.1060,-304.9647,-18.3271,24.9138
-374.0589,-443.3121,-297.4503,-346.9982,-202.4449,-103.3631,-262.1389,-203.4885,-174.3122,-152.9078,-307.6431,-30.6496,-121.1206,-0.0430,-18.4774,136.9323,-420.2546,-53.6931,-94.6893
-379.4908,-450.1618,-282.6430,-327.9886,-190.6507,-106.6800,-244.1259,-113.3571,-168.7051,-70.3965,-304.7342,-13.1696,-163.6367,13.1211,-45.6336,116.0110,-422.8310,-31.6354,-122.4218
-270.6414,-345.8206,-184.7822,-200.8748,-154.1433,13.0681,-245.7855,-82.8873,-177.2277,-95.2386,-203.8610,47.6589,-135.9750,69.2874,-70.8479,68.4835,-303.2055,21.5710,-90.5458
-217.8070,-233.8500,-136.4629,-117.5164,-161.9953,89.6275,-286.1095,-161.5835,-200.2160,-201.7300,-129.3238,61.3242,-72.5121,71.6295,-60.5553,0.1538,-228.1591,30.7633,-78.1446
-219.7311,-167.9249,-124.5514,-92.8700,-122.8576,82.2672,-260.0247,-177.0171,-179.5182,-184.4888,-101.6627,43.5880,1.8921,36.6253,-41.2680,-54.8254,-211.1629,19.6096,-54.3643
-182.7919,-138.9867,-80.4339,-48.6912,-57.1582,77.2343,-160.0630,-94.0309,-111.7916,-61.2071,-105.0603,32.5797,10.9474,21.2023,-36.2743,-48.9589,-161.9875,29.9646,-5.4738
-122.1813,-117.5893,-26.0715,-7.8569,-52.9449,61.1138,-61.0208,-35.6530,-42.6091,19.8104,-124.2035,7.3490,-55.4198,3.3485,-33.3925,-4.4852,-87.7494,32.1695,40.6671
-40.7292,-54.5056,34.6137,26.6329,-22.8503,18.0186,44.1393,8.2443,23.7777,86.3562,-87.0498,-7.6078,-74.4537,-29.2815,-24.9452,-15.1813,-7.6164,52.5220,109.9652
82.0782,34.3094,120.2309,111.5406,88.7226,38.5778,151.5981,77.2375,86.0836,146.9029,11.6757,37.7453,-6.5766,-20.9609,-22.6359,-73.5859,90.0869,137.5362,162.7933
145.1158,63.5792,151.2676,168.9332,134.1293,121.5987,171.3442,69.1302,101.7078,75.1951,60.1823,81.0759,40.7190,32.9089,-24.2826,-61.7657,139.2430,182.8958,100.3572
74.5186,27.9218,65.4519,91.9322,52.8274,139.8717,111.3035,-18.1931,78.8394,-50.6585,21.4063,38.4137,14.1166,51.6828,-5.4922,5.6602,84.0608,88.9916,-3.7343
-5.7281,4.3797,-41.0815,-17.9462,-25.9779,74.6637,90.7356,-28.0254,82.3957,-24.6147,-16.5208,-34.9516,-38.5711,11.3399,36.8111,2.7302,11.5432,-39.0874,-10.5073
30.6483,11.2327,-59.0929,-30.3742,-23.4048,28.4372,129.0850,47.0918,113.4242,71.7264,3.3403,-44.7955,-61.2281,-11.0529,65.9867,-34.8509,21.7573,-79.6089,44.4445
125.8121,11.7795,-12.2749,-4.9009,34.0538,39.8522,168.7254,82.6889,131.6152,69.0756,51.5225,-6.6503,-22.1741,23.7227,57.5664,6.9962,83.3748,-60.7990,94.9260
160.3096,4.9218,23.7370,-15.9267,88.7157,65.7059,203.6896,74.6370,142.0155,47.5370,76.8314,20.8492,29.1459,60.5568,32.4349,65.5159,112.2438,-33.0918,147.2104
116.6373,8.8464,21.3734,-25.9599,68.6438,63.7070,204.9531,77.7683,135.3262,87.2747,65.3903,32.4893,-2.2163,60.5359,13.7538,40.0235,89.1074,-18.7210,150.4663
61.6165,13.6269,-1.4638,-29.5620,-7.6896,16.9085,134.6022,92.7504,84.3063,118.5600,53.1055,40.2595,-69.2476,45.0669,-3.1200,-12.5922,50.6567,-52.7633,90.0550
33.9475,9.3311,-12.6849,-59.6796,-30.5289,-42.7701,86.3771,125.0913,48.6028,120.9028,66.3288,41.8379,-34.5608,34.5479,-21.6024,-16.1286,23.3560,-97.0949,63.0014
16.2761,18.1099,-1.8866,-75.1971,-8.6298,-54.4196,141.6161,143.3493,87.3784,81.6004,86.6198,50.5656,71.3369,42.6493,-30.7531,20.6451,11.7756,-82.9087,63.9534
3.2882,48.1333,0.6447,-66.8822,-60.2229,-30.9471,186.6963,81.5746,124.9127,-21.3486,91.9320,67.8978,98.7222,64.8565,-28.1008,62.1785,22.4182,-89.7926,10.7377
0.8231,58.9075,-30.8706,-134.2520,-179.7644,-53.1950,136.1717,9.6928,101.7660,-35.0596,64.9109,40.5052,24.5012,33.2638,-25.7398,44.5343,44.9501,-207.0024,-51.0000
-5.2571,48.6324,-55.1118,-263.8784,-234.9308,-112.5043,112.9311,45.0453,99.3580,125.4310,14.1751,-47.8019,-44.4910,-69.4970,-35.0143,-46.2508,60.2243,-297.2372,-72.2829
21.0502,100.1786,1.8217,-260.3683,-156.0464,-93.8391,199.6974,112.8718,160.2894,212.7489,25.9749,-90.7709,-12.3535,-106.8164,-49.8133,-77.8820,107.4711,-218.2846,-76.7198
122.1700,215.2234,114.1514,-86.5590,-34.7611,12.4369,273.8335,78.1965,195.9321,78.4462,130.1198,-15.3824,108.8041,-15.7563,-47.2462,7.7292,210.2537,-96.1537,-28.6112
186.3732,247.3452,146.7194,15.2537,-46.8382,50.9834,220.0962,-26.7111,153.9600,-67.1147,173.3883,64.7137,170.8758,33.9827,-24.3981,43.0706,251.5853,-83.9506,20.0781
109.3813,159.8188,73.0908,-67.1988,-191.9688,-36.1937,100.6198,-89.6495,88.5242,-76.1349,73.9115,33.9939,79.7120,-54.4853,-16.7841,-51.0660,160.2038,-101.2745,-93.8080
46.5552,119.7420,58.0271,-119.3720,-217.1765,-90.7708,47.4720,-54.1717,56.5535,-9.4175,4.5180,-25.2833,-12.7150,-123.5462,-44.6791,-113.5679,105.1865,-35.0275,-244.4586
148.1302,191.9701,178.8819,-0.4783,-21.1043,-17.2686,87.5249,42.7905,61.1690,77.8609,72.8634,-9.9697,47.2281,-79.2143,-74.2493,-69.5154,208.6558,71.3116,-156.4775
260.4778,233.2919,272.1743,112.5878,140.6887,55.4303,117.4153,64.1615,63.2492,91.8227,137.5705,15.7697,128.7150,-40.1002,-71.6773,-32.9849,300.4102,144.5338,21.6446
225.6298,173.7110,214.8350,54.3694,113.9995,17.2124,60.8388,-43.7010,23.1871,-22.6300,112.6967,-23.4567,71.9459,-66.4738,-55.4094,-45.7052,237.0609,159.8237,-6.9081
142.8545,104.7906,110.7858,-78.7064,84.4204,-68.0068,-14.8523,-115.0684,-35.3565,-76.5840,89.0406,-77.0990,-18.1567,-86.5685,-56.7579,-51.6342,135.0083,102.1155,-114.8606
116.2988,87.4003,71.8866,-130.5729,155.1514,-120.8856,-16.1632,-53.1974,-48.7720,26.5294,108.2542,-87.9168,-1.3386,-80.4187,-63.1377,-51.0696,102.1762,17.1031,-93.5056
114.8142,108.0195,70.9133,-75.2885,177.0040,-134.0184,47.2713,-9.6642,-3.4571,48.5757,130.4717,-59.4976,59.7946,-66.7812,-39.8273,-49.1225,99.8317,-11.4247,-44.4069
133.9919,164.6051,81.9707,59.9785,100.9528,-103.6847,124.6699,-36.6824,64.0294,-75.6450,153.5976,3.1876,76.8717,-19.1448,13.3108,-2.2088,119.3220,8.8017,-34.6100
188.5896,260.4384,131.4955,257.1391,63.0159,-38.5024,181.3461,40.5690,119.9764,-71.4460,177.4773,73.1877,89.2774,46.7794,72.4754,74.7100,182.0157,35.5592,30.4381
229.3099,376.3166,190.3604,447.6086,117.8446,17.1008,182.3041,231.5296,144.0297,110.2022,181.9914,88.8834,141.3430,61.6720,136.8644,105.6518,233.9299,93.7032,104.8551
227.7426,474.4380,195.5269,532.8805,189.7252,42.7714,148.7992,325.6457,144.4127,226.5035,183.3276,52.1069,199.9239,32.3602,204.7131,82.9148,233.1951,165.1547,92.4995
194.0913,511.2198,155.1320,509.1656,220.6806,58.3875,159.0408,293.3169,156.8883,221.9055,195.1794,33.2612,225.6234,32.8919,238.8775,73.6182,201.9507,176.3570,71.5084
121.2828,487.1285,112.9796,467.7228,202.9263,76.3923,206.2249,286.9779,182.0907,209.6189,193.3912,47.4506,210.5279,72.4686,228.7181,95.3451,146.6646,157.2533,104.4590
45.7394,449.0748,70.9470,447.2837,145.0925,84.3470,202.1207,303.7742,182.2960,190.6590,168.7280,45.3168,161.6823,86.2589,223.5649,88.8090,79.4097,167.5546,102.1487
35.4272,418.7429,31.0703,415.1860,81.6073,67.1889,147.1525,254.8758,158.0989,151.7272,133.2152,24.4854,109.6166,52.4900,241.2184,46.6065,53.4644,161.5616,13.6709
66.8426,393.0683,30.9952,385.9612,60.2879,41.7467,116.5981,208.5047,139.9543,154.9012,100.9644,31.4124,91.9508,31.8026,235.7642,46.8768,74.9693,132.4108,-75.4381
80.2383,378.2837,72.1699,389.5576,85.1567,44.4694,112.7867,236.7102,122.8893,191.1437,97.5852,61.9883,98.2619,57.5001,194.1147,93.1697,95.9062,146.8748,-62.7579
98.5329,356.3254,102.9357,383.8029,111.8355,70.1384,103.2556,257.2026,100.8815,197.5455,118.5493,67.3522,87.1985,77.4981,160.0647,100.1519,111.8517,167.2047,46.0395
143.6204,308.2672,108.8256,353.0474,125.8536,87.7384,122.3207,234.5731,110.1215,190.5981,117.3339,46.0337,62.9146,65.6000,154.1916,82.8873,140.9023,143.5456,146.5770
168.2890,275.4729,125.2010,350.2069,162.7712,102.5903,184.8405,244.0969,151.9331,208.3644,97.5000,40.0429,66.5730,69.1983,150.4204,117.0547,161.4421,154.0107,179.0008
165.3131,291.2937,162.0093,364.0251,223.2583,120.3558,201.8368,269.9150,149.4827,222.6532,117.2412,64.4191,106.8442,101.0238,118.9284,155.9499,168.6253,205.6114,177.7608
186.7620,319.3153,200.7163,349.0078,264.3984,121.2973,110.5874,248.3392,63.7396,206.2730,175.4215,102.1770,157.6398,125.2539,63.2210,142.6057,194.2881,199.6622,158.7096
221.7915,322.8782,226.0716,339.6193,282.6272,120.7135,-5.1074,229.4410,-26.4806,187.3502,205.7861,123.9911,193.2580,134.8496,28.0269,134.8315,220.9043,174.6660,130.7698
207.9316,295.8032,216.3939,348.1010,299.3650,140.5337,-31.0047,248.4572,-36.2891,191.3726,179.7814,102.4651,203.5440,127.9721,45.5666,146.6917,195.1030,213.0154,171.7220
160.6072,245.1438,173.0295,324.0357,302.2887,145.0749,20.6808,244.8634,9.7131,201.5976,136.2794,62.7756,205.1215,98.3973,83.9056,129.5107,137.9435,237.7926,279.4083
147.7366,214.0896,139.2624,289.2668,275.0144,113.1933,55.2384,216.1597,37.2310,193.6763,119.9471,59.5275,205.1880,80.1597,100.4951,113.8901,116.6529,194.2002,296.8538
152.6157,228.4362,121.3645,279.0162,217.7920,79.9298,29.1175,194.6983,23.1829,161.8389,124.3445,72.3788,164.3766,83.1597,98.0313,112.2779,121.8303,147.7178,162.1507
111.5412,233.4792,85.5449,245.4255,141.8445,61.0354,-22.9634,149.5523,-8.2793,116.1425,112.9183,52.6147,83.7963,67.8575,85.0223,67.6988,98.5776,110.8260,15.2527
63.6569,200.7763,61.2917,202.1242,93.6337,50.6738,-47.0474,109.5225,-26.2866,86.9677,88.9727,38.4197,46.3569,50.8117,61.0372,29.2002,68.1362,80.6417,-30.6810
88.8806,185.5435,93.3087,214.9122,93.0329,53.2372,-32.2854,139.8002,-18.7244,94.8286,84.6694,64.7390,65.7843,65.5194,44.3945,66.9552,87.4764,104.6043,-11.3023
138.7123,196.9773,127.9380,221.8259,72.2951,47.1947,-31.6922,158.4966,-16.5936,100.2767,90.6232,73.2232,59.8870,62.0361,38.1727,87.4266,129.3546,121.0097,-2.8485
127.0282,185.2571,115.0664,170.5066,17.2857,23.6969,-84.8498,97.3581,-52.7775,67.5277,80.5735,44.7437,34.9942,25.3305,19.2381,41.2006,134.3970,48.7711,-25.9295
106.0834,155.8290,112.4896,155.6078,26.9998,31.2161,-135.8665,71.0671,-91.3660,49.1536,67.0257,39.4589,65.7273,23.5430,-4.5015,38.2382,126.7951,1.4633,-32.5384
148.2421,135.7254,153.3311,187.9854,104.9055,67.8092,-118.5717,118.2113,-82.3999,81.7623,64.4587,51.2921,114.0561,41.8628,-10.8262,79.9243,152.0057,61.0971,20.7678
181.8861,116.0065,165.6907,165.5847,126.4203,64.8851,-74.3282,117.3996,-53.9852,93.8099,64.2671,32.7441,99.7910,20.2205,-8.5414,62.3149,168.2860,96.8680,78.8142
125.7907,105.5379,105.6043,119.5852,66.4430,26.7541,-73.4544,63.2195,-53.4150,47.7157,63.0736,13.8629,43.9351,4.8944,3.4202,19.5182,116.9586,48.3206,56.7141
36.7429,107.0710,28.8781,120.5744,13.8913,4.8133,-94.5220,42.6595,-63.0059,15.2921,51.0661,19.9312,-2.3240,25.5726,32.1637,19.0976,35.2196,11.5657,-16.1536
0.1525,80.0134,4.4897,112.4402,9.0288,-2.6233,-83.0817,44.8920,-51.5050,32.6983,16.0048,10.7118,-21.3598,20.2250,39.8631,25.4206,1.9506,11.5612,-39.1569
10.3874,34.6986,30.3991,85.0421,24.8928,3.2263,-57.1569,53.4064,-34.8620,55.5674,-17.7037,-14.3930,-17.2352,-3.5774,15.0612,32.6182,18.6851,22.0468,2.1072
20.7203,27.2267,39.3884,94.8977,7.4027,19.4251,-72.0219,73.0442,-40.3349,53.3732,-28.9600,-23.3356,-43.0008,-1.2868,17.1152,50.6040,24.8617,47.0564,20.0484
20.8098,43.6324,1.5261,96.8309,-65.3070,0.3477,-109.4024,48.8445,-53.5880,28.2709,-34.4721,-27.6960,-108.7947,-12.5323,55.7863,29.7536,8.2752,42.3599,-25.6761
30.4039,47.2440,-19.6315,63.9262,-102.3817,-29.8400,-87.4795,5.2449,-33.1749,9.3735,-32.1078,-26.9835,-104.1182,-36.3087,71.4441,-2.2098,11.8084,2.0394,-47.9613
39.9697,47.3648,4.6562,62.5880,-41.0676,-5.3477,-18.4749,29.8847,8.9141,30.4217,-14.2956,-7.5487,-14.5294,-18.5122,58.8506,18.2026,27.1984,9.5225,11.1258
9.8214,30.8953,5.7937,65.3207,7.4934,16.4461,-14.7356,49.2101,4.6837,48.9202,-16.9137,-8.5351,13.3060,-5.5798,49.3320,25.7951,1.1431,40.2151,63.8583
-34.6618,-6.2435,-16.5248,24.4187,-9.5125,-6.9822,-51.3054,-3.9625,-28.1931,15.8662,-35.7576,-33.6676,-18.0332,-28.0212,31.0778,-4.3538,-34.5312,18.5537,71.3645
-7.4891,1.3239,22.8082,25.1948,26.7919,12.3410,18.9277,-5.3649,9.3060,0.8142,-8.0556,-17.3959,28.8197,-8.0078,5.6082,22.7902,4.1059,19.2096,129.3961
78.8928,53.5454,92.0908,75.7489,100.9026,51.5094,133.0558,55.9099,80.3959,45.6079,45.7916,26.7484,91.4341,32.2740,4.7516,71.4469,82.2841,74.2591,210.0244
109.2802,56.5336,86.1503,64.0851,59.5468,2.8243,97.0520,33.6608,56.9617,56.2059,40.3537,25.7420,35.0140,2.5057,16.9843,41.5688,92.3443,69.0539,175.5312
55.1688,7.5157,34.3636,17.1132,-57.4157,-48.0754,-9.1553,-25.0222,-6.5547,10.4214,-18.1416,-8.8966,-61.6952,-41.2347,16.3731,6.1941,41.7437,17.1665,92.6935
3.9602,-15.5441,24.3202,13.4558,-116.1449,-16.7715,12.8735,-6.7006,20.1933,-3.0634,-60.6694,-34.4867,-94.6188,-43.4252,10.0738,19.9450,19.6155,17.6769,96.7999
14.6081,-2.4747,49.7252,1.4475,-132.5018,-19.6660,82.1537,3.3198,68.1631,5.6740,-55.3856,-38.5689,-84.4557,-59.4747,-7.3024,2.4084,48.5867,14.8968,102.7526
54.9076,22.1368,71.2061,-20.8560,-124.9789,-62.9098,60.2363,-37.0207,40.6870,-20.2289,-7.2670,-1.2887,-27.9285,-64.7997,-33.9749,-29.4145,81.8061,-25.5004,53.8806
28.4107,35.0405,48.3670,7.6459,-82.6212,-29.8677,39.1885,-43.3686,24.1576,-41.4876,16.9938,32.8285,37.0561,-23.1447,-16.0810,-16.6657,48.2869,-19.2318,70.2957
-116.2725,-7.6312,-57.7791,17.3108,-110.3611,-3.8709,74.6938,-41.9059,69.7467,-40.2589,-58.4975,-17.1742,-11.2472,-28.7136,53.9165,-22.5269,-84.5845,1.2233,108.9654
-244.7398,-66.2261,-154.9605,-31.8060,-206.6071,-59.9732,67.1129,-62.5458,84.6422,-53.6437,-149.2167,-79.0255,-97.2902,-77.2964,86.5900,-44.5271,-197.7487,-32.2801,17.9598
-192.2776,-42.8781,-101.7274,-35.1189,-167.8274,-50.1440,27.4386,-35.6977,50.6165,-51.8595,-116.6534,-45.4967,-26.9458,-51.5559,38.7052,-7.4275,-141.5075,-39.2226,-82.2463
-68.3247,9.1073,11.7210,0.9167,-7.7607,29.8549,37.6000,-2.6898,35.3036,-14.2594,-32.3891,1.1075,108.5611,-4.5463,-15.1536,22.2501,-20.1124,1.3077,-17.3990
-76.3804,-18.1554,1.8978,-16.7786,33.5348,14.4218,54.2788,-26.7242,35.2830,-3.6382,-27.3755,-16.1322,109.7973,-22.1480,-9.0754,-6.9319,-39.8360,4.6617,109.6409
-133.1348,-55.0277,-62.4990,-40.0568,-23.3729,-33.0363,51.0002,-32.8437,32.8130,-33.6147,-32.7045,-21.5419,57.2295,-23.7291,22.7040,-16.8935,-119.2722,-3.9090,191.7260
-77.7656,-34.1483,-38.9079,-38.5068,8.1937,23.1728,82.0864,-41.1584,47.7476,-60.0413,23.1464,-9.0264,79.2717,4.9500,14.5438,-27.8996,-69.2544,-9.5844,272.0197
-26.9526,-74.3834,-17.5483,-90.7799,61.3464,96.8522,90.3277,-126.7631,42.3530,-98.2034,35.0627,-30.5088,89.7002,7.7336,-34.7746,-65.9214,1.2314,-97.4631,291.7908
-120.4812,-235.0083,-104.5939,-170.7117,1.3308,108.8486,-19.1288,-190.6417,-35.3545,-192.2780,-45.0643,-25.9307,21.3575,53.8816,-77.4143,-10.7476,-92.6330,-204.2253,175.8116
-244.8243,-397.1958,-205.7599,-256.4944,-95.7006,53.1612,-162.5365,-275.8881,-139.6521,-344.5458,-124.8633,-21.4281,-64.7164,80.3849,-104.7561,48.9602,-243.0432,-230.6545,62.6026
-293.5675,-495.5271,-243.4044,-480.0837,-153.1317,-162.4837,-210.8886,-582.8928,-197.5200,-482.6934,-184.5973,-176.2611,-143.2557,-144.0142,-150.9982,-149.6338,-283.1053,-314.3210,63.1012
-320.4677,-552.2796,-257.3845,-779.1868,-207.5663,-463.4948,-191.6286,-858.2455,-202.8666,-469.5416,-258.0874,-408.3043,-202.2758,-482.1548,-209.5990,-439.6770,-262.1311,-500.4976,62.3153
-323.1404,-528.1501,-242.2737,-842.3839,-246.0489,-544.4681,-188.1836,-709.7687,-185.8238,-316.1357,-281.2525,-447.3258,-193.1211,-532.0502,-229.8242,-422.2171,-246.6198,-541.6212,-26.7191
-242.9271,-396.9524,-178.5217,-639.9934,-240.5866,-385.5699,-202.3829,-443.4366,-172.5937,-264.0238,-205.2872,-298.6295,-145.1990,-325.4613,-193.7755,-189.6796,-192.0997,-391.2258,-122.6381
-139.9660,-246.6984,-128.4753,-464.2621,-244.0567,-290.5642,-204.7572,-501.9138,-174.3542,-389.9363,-110.1485,-187.9821,-138.0822,-210.0915,-135.5539,-94.2081,-108.0698,-304.9437,-147.4606
-96.8528,-159.9727,-108.7060,-420.0644,-276.9591,-330.1230,-205.5943,-632.3242,-182.9762,-451.0817,-73.6292,-177.7357,-164.8368,-242.4113,-102.6782,-140.3598,-60.0721,-315.1340,-112.5461
-80.9445,-118.1519,-53.2828,-367.8387,-274.0981,-312.4019,-210.3353,-530.8698,-181.9993,-348.9129,-75.2367,-173.9954,-158.0069,-259.4514,-109.5178,-163.9610,-34.4094,-233.4017,-58.1887
-41.5065,-70.5287,28.8532,-244.4901,-195.0681,-195.5274,-168.2178,-404.9732,-146.8530,-264.3497,-62.2920,-119.7290,-74.1569,-211.0032,-112.4723,-142.2838,10.3256,-89.3353,-7.4830
-0.0770,-18.9775,62.2527,-124.2647,-90.4936,-99.6345,-66.0098,-385.9081,-75.7860,-262.0573,-25.7782,-35.1253,52.8450,-128.2024,-77.7974,-76.6827,48.3130,-43.9135,29.0118
-4.2513,-8.6472,38.4686,-88.6896,-56.1887,-78.2756,-6.3091,-357.9203,-31.0905,-264.9869,-13.3346,2.7101,95.8411,-65.8158,-47.4764,7.7385,37.8727,-71.6199,14.5727
-52.3387,-31.4469,4.4055,-112.2012,-95.0563,-79.9175,-33.1419,-362.1214,-43.7253,-280.2780,-48.8524,-36.7871,3.4739,-75.7607,-48.6014,2.3277,-2.5035,-54.9059,-66.5335
-68.9272,-10.0423,-2.5856,-64.9588,-72.1354,-25.5960,-19.2132,-414.5440,-32.5496,-283.8242,-64.3055,-53.9754,-68.4958,-90.5020,-31.0194,-78.8162,-8.8152,17.1328,-116.8604
-18.7544,53.0297,20.6913,61.7009,57.9290,74.6222,91.5980,-357.1755,44.3446,-197.5571,-20.0603,7.8537,1.5443,-32.7465,18.1505,-94.3332,29.0971,81.1222,-50.5805
2.1717,53.9389,22.2376,88.9029,144.8138,99.8645,175.7186,-244.9722,106.9955,-107.4091,3.1993,39.7480,107.4452,2.6196,47.5914,-55.4649,25.5266,101.1623,46.7581
-54.6004,-15.5896,-27.1002,-22.7214,135.1248,24.9300,186.0201,-256.2793,119.0926,-127.3927,-28.4801,-14.2391,146.3517,-57.2955,53.7340,-74.6972,-52.5933,112.2115,78.7878
-70.2609,-51.4637,-47.6842,-79.3223,169.8970,-2.1790,190.8770,-287.8490,117.1764,-166.7043,-23.4072,-39.6129,164.0843,-83.6747,52.0957,-107.4310,-93.2566,162.1031,86.4994
-2.4984,-27.6201,11.0330,-2.5647,260.9291,80.8657,171.9657,-196.6385,87.4442,-128.0618,37.8846,19.9156,165.9604,5.9558,15.8487,-61.8225,-37.8649,212.9430,91.1516
0.9260,-6.1284,39.9916,72.8995,246.3211,143.0618,114.4644,-84.4572,43.0329,-62.5373,49.2311,58.2647,88.3340,81.9997,-19.0456,-10.9578,-12.2152,202.5212,52.1222
-123.0713,-27.7203,-56.8841,57.6527,103.9654,98.3255,115.8605,-32.7967,72.9542,-9.4189,-32.5180,6.4589,-30.7579,41.4211,33.1931,-43.4780,-114.9522,159.2660,9.6215
-238.7293,-99.5056,-188.0387,-9.2696,-28.7550,23.0268,158.1940,0.7513,142.7214,26.9027,-132.7442,-59.9975,-90.9204,-34.8260,120.2803,-92.2591,-247.6878,125.7043,1.7714
-223.6725,-157.2440,-198.1815,-48.2048,-68.0163,6.9140,95.4119,1.6204,107.7920,12.0193,-159.8665,-52.8400,-69.8316,-46.3100,109.3779,-86.8834,-252.6763,89.3079,-32.0340
-97.2639,-89.4309,-68.8066,4.2812,-14.5203,45.9659,-31.3132,-37.9375,-7.9927,-26.3404,-79.7291,11.1775,-9.4698,-6.6055,20.2059,-66.8381,-110.2318,71.7050,-74.7681
16.9022,52.4751,60.5177,105.9166,64.1401,69.3331,-50.7376,-46.2093,-50.4187,-21.8817,27.3399,56.2200,29.6711,26.8476,-22.4546,-46.8833,29.5591,97.2839,-28.6782
4.5676,82.0978,57.6280,135.8274,54.9920,21.4259,9.1296,-8.4687,-13.1943,13.3362,35.3114,57.7768,3.9247,33.4051,3.5031,-1.2793,19.7498,92.3947,46.8863
-84.2643,2.1455,-24.3234,91.5083,-39.5309,-51.6699,1.2039,35.9903,-5.5491,58.2916,-37.6670,56.0563,-44.6925,20.7071,25.8806,17.6796,-76.2693,21.8696,25.3881
-107.4061,-31.4545,-37.7192,73.0006,-101.6264,-54.3111,-62.5648,81.0070,-36.5854,108.8742,-78.0383,66.1873,-44.6403,5.5929,10.7311,-12.4220,-93.1267,-16.8627,-38.3592
-74.9392,-25.5840,9.7046,77.9292,-119.7865,-1.1211,-81.6473,105.8321,-39.2193,100.1484,-91.3714,52.7122,-20.9572,3.2238,-12.5034,13.5076,-43.9701,6.4803,-45.6924
-79.4508,-58.6360,11.2519,48.3818,-152.4556,14.8158,-66.3956,102.7290,-17.8957,42.8754,-126.3510,13.7655,-27.8007,7.6129,-13.7638,103.4733,-40.1528,2.0894,-30.2766
-88.2910,-68.3161,-14.3557,21.2281,-147.1465,-3.8804,-70.7711,140.9251,-19.4687,84.0294,-123.9936,-0.2894,-36.3414,10.5459,-4.8252,116.8808,-55.4993,-39.3184,-8.4512
-71.2128,-37.0621,-17.0719,25.9189,-83.1472,-6.8175,-51.3719,231.3775,-17.1399,213.8931,-71.1424,22.3222,-26.4972,26.5556,-5.0832,63.8052,-48.3343,-62.9721,55.0609
-100.5383,-70.5235,-57.0591,-1.7833,-84.9757,-41.0898,26.6336,270.3058,31.4640,240.0224,-65.9356,32.0728,-51.2024,44.4878,2.8791,73.8404,-89.5089,-91.4740,90.3353
-153.5648,-135.1511,-133.3301,-75.8250,-168.9371,-139.2781,53.4004,239.5417,57.1108,172.7104,-99.8593,2.4663,-112.1970,16.7843,26.5324,89.9465,-165.8444,-133.5259,40.8497
-129.3045,-106.2862,-140.8618,-121.0134,-183.9805,-195.3536,-32.7816,247.2749,-1.1586,198.4809,-69.4849,-30.5693,-129.6093,-33.7940,31.2413,19.3786,-163.1059,-137.2679,27.4502
-71.1109,-58.9018,-103.6532,-124.5280,-117.3333,-140.9326,-72.5184,295.1719,-35.8670,261.0190,-5.3808,-23.2156,-79.9951,-16.4935,15.7377,-10.5555,-110.2541,-129.4064,113.6043
-74.7297,-119.9277,-136.2870,-142.0291,-109.6279,-65.3929,18.3122,248.1947,29.6461,150.7714,-3.9875,16.7860,-25.7516,59.9153,23.5313,73.1900,-123.3901,-162.3498,146.7900
-119.6929,-194.1266,-209.9910,-171.6249,-162.0268,-36.4228,58.4500,100.2536,70.2231,-47.2094,-41.2910,33.3401,-7.5295,85.5495,53.5355,103.0523,-183.6671,-180.2960,53.6266
-165.2272,-161.1960,-232.8575,-177.0978,-150.2067,-17.6021,-13.1244,25.4866,28.9890,-62.2681,-59.1829,-11.1226,-4.3044,34.7308,70.2843,11.6827,-211.8351,-148.2845,-17.7232
-197.4010,-108.1340,-216.2155,-176.3671,-65.9312,0.9952,0.9397,89.4392,41.4543,88.5094,-73.6045,-79.3574,12.9301,-14.7475,72.8145,-41.6945,-204.3250,-129.1913,16.9647
-189.8358,-141.4858,-200.0933,-187.7252,-4.7177,8.1444,122.1192,163.6602,125.4753,164.6006,-98.6985,-98.3578,34.2911,-10.2545,67.6267,13.7333,-190.6740,-125.2887,66.6668
-180.7197,-197.7326,-191.7998,-170.7096,6.1732,42.7638,169.3394,187.6677,150.7274,136.4200,-103.2295,-44.2245,32.6980,48.3673,48.0140,67.8587,-199.8132,-86.1033,72.8101
-216.6850,-172.3680,-191.7098,-103.7135,21.6767,97.3471,159.8346,220.3470,128.8842,146.3685,-61.2285,40.0652,29.1454,124.7173,29.4080,46.2393,-229.9839,-41.2694,62.9911
-222.5747,-90.3216,-167.7009,-35.8991,62.6619,104.5284,191.3029,231.7059,137.5160,170.3384,-4.7625,85.2078,59.0605,150.2141,25.7431,9.6722,-217.1375,-19.0119,47.1176
-173.5284,-72.3459,-114.7500,-16.6577,60.8369,79.8222,159.8141,171.6500,118.9589,111.5116,-27.8109,45.6744,60.9453,107.2789,24.2412,52.8488,-163.2905,11.7296,24.0043
-183.9929,-153.5791,-108.1253,-31.8771,-28.5569,78.5652,18.1090,138.2188,42.4099,54.2566,-149.6724,-38.3062,-38.9613,62.6888,23.0658,149.6877,-169.9780,31.4775,-7.3298
-239.2877,-205.9692,-140.3362,-21.9187,-97.0197,72.2552,-74.9248,185.8010,-10.0398,99.4639,-226.3017,-58.8841,-138.3327,60.2113,22.9210,176.4678,-217.5915,13.3176,-66.8500
-221.6979,-143.1271,-105.7395,39.6930,-29.1587,40.5493,-55.7528,212.5199,-15.3880,182.0808,-185.0895,0.9194,-100.2606,77.7906,7.6436,152.4805,-189.6785,3.8855,-120.0456
-201.0715,-80.0113,-44.4477,86.6752,63.2454,24.4898,-4.3243,205.9627,4.6937,232.7876,-171.5241,17.7762,-18.9995,85.7721,-4.4730,217.8718,-137.8677,0.9844,-102.0210
-240.1169,-92.3544,-62.9981,59.4809,14.5213,11.3515,42.6738,236.6463,58.4606,243.8032,-234.0758,-64.2729,-47.7709,54.5819,21.4631,297.9203,-147.2877,-40.0021,-68.5240
-148.3443,-19.2937,-51.5585,41.3029,-72.6586,-31.3634,53.1691,224.0084,87.8331,181.0053,-181.2542,-139.7977,-109.0434,-28.2609,54.3220,197.5605,-72.1242,-57.7841,-106.3905
156.4758,250.1308,123.8712,128.2184,-6.1664,-61.5327,8.8481,100.8507,39.7093,70.4773,48.9894,-155.5965,-73.6877,-112.7998,50.0676,18.6309,205.4943,-9.3192,-142.5804
463.3457,552.2704,340.9474,243.3017,139.7356,-66.9081,-1.8398,-1.4477,2.5427,-9.6376,282.0032,-182.7746,1.7047,-152.5784,33.2145,-20.7556,521.1151,12.2136,-97.9831
688.5319,714.1960,474.1883,288.6646,192.8397,-100.3346,42.8751,-34.1343,19.2133,-108.6546,448.2686,-203.9113,48.0057,-173.6143,17.7991,-21.4214,733.8083,-13.0185,-65.2664
954.6674,752.8734,601.6901,318.2037,201.4248,-140.2449,15.9431,-129.8428,-23.5404,-273.6042,607.8091,-117.6762,101.7069,-197.2773,-41.4471,-162.1848,921.1050,1.3644,-114.8826
1206.0094,717.9781,744.3944,382.1598,271.3642,-111.6752,-111.5406,-277.3376,-154.5179,-370.5567,707.1388,30.9772,138.6390,-189.8598,-143.3025,-328.5175,1099.2393,28.5689,-178.6766
1264.7177,630.4379,786.6108,433.5873,332.3369,-19.9131,-233.6127,-321.2797,-262.3663,-340.7578,683.5185,117.1071,100.0840,-133.7080,-213.2545,-366.4186,1145.6846,11.8954,-227.2792
1170.6432,552.6530,728.5178,455.7552,310.7821,62.2692,-295.8694,-266.9132,-296.8185,-317.3460,621.5977,148.0943,59.6444,-65.3255,-216.0997,-328.6435,1057.4811,18.6399,-266.1273
1073.5382,505.1777,674.3987,446.9605,282.2798,63.9648,-281.7682,-221.8675,-276.7642,-317.7128,577.7578,164.6249,96.1803,-39.7820,-187.4341,-273.4408,951.9799,68.1186,-215.5094
972.0260,446.1903,625.4822,372.6943,294.9945,-15.8613,-202.6795,-176.4734,-218.9069,-241.4958,507.7668,122.4144,141.5439,-75.0031,-154.5494,-198.1557,848.1819,95.9976,-75.3295
803.3706,402.6396,528.7834,290.3773,276.6815,-62.9907,-158.4968,-86.3678,-171.4952,-141.2338,428.4680,43.4065,131.6315,-111.1740,-109.5310,-168.0128,694.3463,129.7884,-0.3395
619.7609,415.6664,418.7289,299.7183,207.7943,-5.0237,-171.6148,3.6780,-154.9784,-104.3613,395.9069,34.0089,111.0589,-79.9286,-56.5434,-199.8922,534.1638,187.3783,-10.9761
524.2693,418.8630,364.9671,350.5887,183.0626,51.8268,-140.3187,38.0855,-130.1995,-77.3278,386.1595,87.6508,115.4324,-14.3571,-26.8792,-185.7614,457.0082,185.0922,51.6652
512.2419,366.2323,367.8540,358.0410,236.5030,30.3150,-97.9876,30.7594,-121.0702,-30.5125,362.9987,115.6551,129.2715,13.1466,-32.5621,-115.4425,443.7744,146.8604,194.3927
474.4207,314.8665,364.3593,355.4803,263.9061,12.5780,-147.2835,31.6848,-163.1514,-6.5669,326.0778,112.0686,142.8829,5.4482,-40.8345,-96.3599,400.6780,165.8463,266.2994
361.2221,288.5795,309.5730,348.9253,194.2532,29.9019,-179.1376,57.0378,-164.2509,10.4495,258.9736,95.3390,151.9666,-6.8602,-15.8800,-101.0134,309.9897,176.8384,269.4411
245.2239,273.4688,232.6994,291.0920,118.3006,32.2833,-83.8039,74.9128,-70.2360,33.8558,182.8664,41.4730,163.9543,-20.0411,36.6030,-31.9380,233.2460,126.9677,316.8902
183.3161,298.5276,185.7736,235.8092,141.7361,58.0245,8.2849,78.1572,6.0370,31.3662,174.7623,-16.5546,200.8974,-13.9233,78.2932,34.0803,192.9864,127.9216,373.2938
147.3621,340.9201,168.1368,241.3382,215.6627,127.8559,23.6503,106.5756,14.5809,33.3104,222.0510,-8.7654,243.1601,25.7879,80.5530,3.1702,160.8190,196.5558,335.3336
104.4593,313.4459,146.9626,239.8244,238.2194,136.7598,72.9072,155.8518,43.8237,81.7870,215.7501,35.4414,246.3436,56.2593,58.9441,-23.2553,120.0991,211.5815,235.2884
39.9707,224.7480,104.4529,188.6924,211.9690,62.9714,148.4299,180.6982,96.2582,145.6528,132.1255,44.7589,216.0462,47.7751,50.6314,26.6731,59.4407,168.0796,159.0583
-42.8075,152.0914,51.6798,151.5449,182.8398,28.5943,152.2312,192.4843,101.1560,200.0650,56.3897,47.9735,180.0899,44.5312,50.2955,47.5804,-16.7058,141.0539,115.5750
-81.8568,109.7780,34.8764,172.9377,155.4239,80.4885,145.7674,206.2863,92.1930,211.9044,41.6955,106.1462,151.1210,88.4143,27.3813,13.3174,-50.6087,147.7976,96.5715
-46.5958,100.4508,71.7902,230.1353,147.7259,148.6787,193.4468,166.0116,116.3404,114.0692,65.6905,173.0423,152.7224,146.4972,7.8685,32.0204,-22.0855,210.7265,106.6869
-40.3589,126.9893,77.9805,255.5988,179.6396,179.2654,199.9066,65.6638,121.7391,-24.1074,73.2446,156.2344,171.9338,159.2563,39.0008,93.3933,-26.9282,308.1859,103.4336
-147.7269,105.8868,-23.2670,188.0416,187.5043,178.9637,127.9396,4.5469,88.6765,-37.0509,11.0738,71.9366,134.3030,128.7874,94.6631,100.2562,-133.7421,320.4664,50.2225
-283.3156,-4.3975,-158.5805,86.4925,104.1357,193.8250,70.1696,29.6971,74.9588,55.8833,-107.2161,22.7146,39.2357,111.5650,123.7824,72.4682,-259.7479,232.5829,-7.8984
-329.3189,-83.2872,-210.8749,55.8670,-13.6656,229.4470,42.9202,77.6982,79.7491,112.6890,-186.6593,37.8518,-11.5782,119.1985,127.4557,65.1293,-296.9911,156.9942,-30.6199
-289.1799,-65.6327,-183.9854,52.7070,-67.6596,208.4922,-13.5853,82.6917,44.2759,105.9902,-173.6269,54.7845,9.8676,109.7786,110.0649,64.8504,-253.9145,104.7567,-50.5404
-241.1708,-61.5246,-156.4126,0.3831,-57.5596,127.0912,-92.5531,26.5771,-30.0551,48.3966,-130.3410,50.8839,29.8829,94.1352,66.6181,83.1423,-215.6125,38.6117,-84.3032
-252.9306,-124.2156,-175.6943,-43.6350,-51.1610,98.7311,-157.7781,-56.9971,-91.0212,-64.6678,-130.7883,53.6447,18.2360,115.7106,42.8026,136.0677,-247.6367,22.0947,-94.1388
-325.0146,-168.7071,-233.0504,-48.6072,-74.9925,124.7937,-195.1015,-89.3762,-109.0589,-129.9078,-166.2520,44.5870,-0.4966,133.8567,75.0755,163.1602,-333.9414,72.5065,-62.4368
-367.9841,-159.0882,-260.5203,-68.0936,-81.8244,103.1583,-167.1980,-40.5274,-79.2344,-51.6021,-190.3289,6.7778,-9.5307,96.1596,109.7021,137.4705,-376.6225,106.8875,-0.5494
-313.6087,-144.5841,-205.9495,-76.2670,-33.8929,70.3228,-69.1871,33.9985,-19.1584,75.5200,-180.2120,-0.0049,12.1130,60.1270,91.3463,111.2812,-317.3072,107.8364,78.3898
-229.7754,-152.1584,-135.3993,-52.2156,5.6004,101.6515,4.0301,101.4710,20.0095,129.2292,-141.5610,48.3024,53.1140,81.9344,44.6036,92.1228,-236.0923,100.2741,132.2739
-220.5212,-174.8649,-139.2208,-72.5306,-30.0623,124.6148,-6.7266,180.3036,12.8684,142.0310,-108.9909,78.0025,48.1890,115.2868,13.2302,68.3995,-235.0371,70.6475,128.9388
-274.4237,-195.8645,-181.6234,-105.5892,-53.8782,97.1720,-17.8759,258.8275,9.2454,199.0582,-125.9109,60.5196,3.9679,125.9036,15.5167,95.1953,-288.0736,47.4642,108.8324
-310.1341,-201.5145,-185.4805,-42.4750,34.3987,92.3002,28.5089,304.4409,42.2840,292.4963,-183.2763,49.4057,10.1655,138.1536,45.1417,179.6025,-311.6667,64.7113,96.6609
-299.7455,-200.6908,-158.6808,46.2154,128.8841,107.1916,36.8293,306.3713,46.1740,315.3762,-210.9754,60.0694,54.7047,151.3546,54.6241,227.6170,-295.4083,77.5272,44.9917
-269.1415,-189.6412,-127.9253,54.4121,97.3637,97.1437,-46.3083,254.8999,-22.9477,206.1032,-167.4027,80.4873,39.4997,159.9175,10.5259,202.3247,-268.7512,81.0725,-33.2247
-236.1601,-155.1930,-89.6179,46.7663,34.1252,110.8503,-93.6618,164.2690,-76.5811,82.5318,-103.3483,130.3999,-9.5011,187.1570,-36.7291,166.9369,-237.0820,132.6051,-46.8086
-211.0919,-142.1636,-63.1369,69.5159,71.0222,173.3396,-27.2214,99.9116,-43.1448,72.3953,-91.4919,196.2923,14.0845,224.9507,-37.5343,165.3297,-216.0908,211.7351,-1.7442
-220.2295,-184.9077,-65.8177,77.1827,136.1908,227.6138,21.8480,96.6383,-6.8212,100.6174,-127.2359,232.4849,83.5055,248.2552,-28.2021,186.9630,-237.3326,272.9812,3.2423
-274.8604,-222.4207,-84.3272,76.5252,113.5531,235.5704,-48.3652,113.9013,-49.5278,82.3716,-163.8006,235.6416,83.1469,254.3159,-35.8297,199.1248,-295.6563,321.1695,-48.2965
-341.1813,-224.0833,-134.0687,54.1962,32.1752,173.5410,-128.9799,119.4342,-95.4325,97.7908,-200.8304,200.6057,5.8952,216.0209,-13.7342,175.5896,-361.3051,316.4840,-93.4669
-381.4009,-245.9152,-223.9771,-45.5319,-30.8751,59.6283,-97.5556,127.7509,-53.5786,164.4357,-246.5883,119.6032,-53.0626,135.0563,48.0555,149.4372,-417.0842,230.2584,-98.0215
-385.7654,-284.1676,-277.3573,-152.5869,-58.4814,2.1881,-2.9937,139.6270,21.8052,171.4577,-252.2098,73.7359,-45.7441,107.0776,71.9797,169.3462,-435.0805,146.8227,-55.0293
-342.9349,-279.4717,-233.9625,-166.6656,-56.1326,30.2919,42.3806,132.7525,34.3652,130.0235,-191.8863,122.7710,-7.3452,152.8391,23.2583,185.0305,-384.6165,119.1204,25.1454
-263.0205,-246.2428,-157.1441,-123.1098,-28.8882,53.7558,23.2981,123.8505,3.8913,142.7068,-138.5633,163.4198,22.2257,153.7633,-16.9231,127.4332,-301.6790,121.0277,101.1850
-227.1258,-236.0851,-133.4697,-75.1277,-1.5534,77.5483,19.5837,169.6288,20.2822,194.1737,-160.6811,105.7588,32.3771,95.4663,13.7075,71.2321,-269.9326,151.8752,151.8353
-286.6356,-263.2844,-167.0545,-54.1096,1.9441,134.9802,89.3293,286.5070,96.8318,242.8284,-217.3647,32.1773,18.5164,100.2122,50.1698,131.6996,-307.3005,151.8576,191.5698
-360.4644,-309.2870,-214.1284,-110.3890,-9.5811,130.8787,188.6893,412.7091,163.1243,324.2316,-233.3943,32.1328,-6.9760,169.8846,28.3503,251.4498,-351.0961,42.4708,214.0029
-365.2963,-312.9875,-232.8179,-165.7768,-14.5980,68.4584,243.6516,470.0089,187.7418,412.7891,-208.0490,74.6784,-7.7088,194.6891,6.9235,267.5081,-356.8693,-39.6222,199.9046
-330.7838,-236.1889,-205.9786,-90.4131,-15.6296,98.2697,253.4162,446.9530,204.1744,427.1031,-189.1019,105.6357,17.5165,169.4491,39.9632,173.5324,-326.3618,41.8046,159.9662
-294.0927,-153.5808,-159.0257,22.0540,-23.6429,180.5013,240.0233,405.2216,211.6294,397.5037,-195.9108,108.1475,20.9316,159.5435,70.9447,142.9444,-267.5953,114.6165,113.9743
-259.0399,-142.2188,-131.7196,34.3828,-28.9268,156.2214,188.6742,392.0273,175.7447,394.1019,-216.0716,79.8025,-14.1710,157.7144,61.1969,228.1738,-216.6947,50.5939,73.2993
-257.5988,-160.5312,-132.1239,32.0996,-24.3940,94.6642,131.2199,373.4871,130.5683,365.4441,-226.6359,43.9210,-48.2903,132.7305,54.9293,249.2447,-221.7813,22.2739,48.1359
-275.7277,-151.8258,-140.4913,74.8864,-23.1691,117.4830,137.3578,301.9500,134.3304,250.7941,-197.0954,34.5343,-51.6154,107.9097,61.6263,128.7284,-245.2477,83.4386,22.6537
-253.0272,-140.7167,-150.9743,44.4582,-34.2736,117.6619,161.1592,207.8905,144.7204,128.2700,-140.6886,39.7647,-39.9296,101.2150,48.3808,50.4415,-229.3846,59.3606,-38.0987
-238.0682,-165.4373,-182.3349,-72.4952,-56.5870,2.2546,104.3328,154.5981,97.2867,90.3701,-135.1226,19.4787,-46.7362,82.7489,35.6244,114.5421,-237.1468,-29.4300,-121.1645
-289.6566,-210.2843,-225.3214,-139.1124,-77.8738,-102.1997,27.5442,143.8934,46.4092,104.8124,-195.2078,-19.5814,-76.0080,43.8091,53.2507,178.6258,-310.9940,-14.7822,-162.5708
-307.7429,-227.2500,-231.4732,-126.2269,-76.0434,-102.4811,43.2434,130.3992,59.6343,114.3811,-222.3384,-29.1052,-95.8548,18.4947,67.9055,140.8503,-335.4260,39.9280,-141.9588
-249.3282,-206.2701,-205.2594,-122.5854,-72.0585,-94.0711,77.5410,99.4060,73.5814,131.2643,-181.7034,-4.7007,-103.3257,7.5138,47.4532,52.7425,-272.7723,-9.6239,-130.3445
-245.5709,-200.6176,-210.2807,-164.2189,-111.0078,-143.4065,12.4244,79.6591,18.7831,143.8205,-157.6433,0.1912,-135.6843,-16.0911,12.9263,-21.1938,-262.9803,-83.4682,-186.4114
-302.9023,-241.3161,-240.8450,-210.2494,-144.9109,-168.0159,-80.3969,78.4830,-45.6191,92.7511,-170.0897,-37.0906,-174.6835,-33.3130,-11.3293,-45.6725,-323.0764,-71.7024,-240.6949
-283.0947,-285.7223,-233.5305,-225.0285,-98.8442,-120.8716,-95.2990,63.8068,-57.4753,11.1212,-155.5687,-74.7000,-155.7113,-25.0856,-28.4772,-37.0628,-314.5405,-62.5922,-194.1832
-213.0971,-293.2338,-200.4966,-225.3689,-38.9917,-77.0350,-80.0928,39.8076,-53.5516,-1.4369,-119.3827,-77.8655,-96.5771,-20.9372,-45.5586,-56.1164,-244.8123,-128.5558,-102.8588
-204.0593,-257.7933,-183.2928,-226.4079,-40.3948,-60.8602,-87.4776,36.4561,-61.3239,20.9470,-98.3802,-60.0524,-65.5731,-16.5210,-58.3314,-75.7893,-218.8839,-150.9521,-97.5136
-212.5894,-178.0291,-153.5584,-183.0350,-17.2340,-6.0137,-78.8879,8.0736,-57.7842,-30.9704,-69.6350,-44.0776,-48.8119,18.4900,-58.8568,-41.7002,-205.9152,-55.6285,-161.0934
-189.6864,-95.5743,-105.4085,-91.4033,67.7785,65.6064,-58.8659,-80.5837,-51.6086,-105.5707,-36.6387,-35.4551,-4.0390,38.8214,-47.5351,-36.0179,-161.5006,24.8551,-178.5573
-192.8148,-88.8892,-101.6931,-58.9646,85.7809,61.4559,-59.9339,-122.0769,-50.8274,-84.0206,-50.1601,-43.1323,33.8433,-1.0668,-32.8796,-102.3967,-151.8041,-13.6430,-130.3113
-210.0572,-161.7162,-139.6125,-130.5122,20.1352,1.0212,-29.0992,-49.5721,-13.9550,-15.1312,-95.8527,-81.0391,23.6328,-50.2370,-22.3655,-118.3492,-181.1714,-88.8310,-60.4315
-174.2309,-233.0456,-146.3762,-193.1398,4.0028,-39.1581,45.6789,7.0456,44.6731,-4.5646,-119.7287,-130.0330,-12.4850,-70.6755,-18.8849,-62.5508,-171.1158,-114.9133,10.9455
-137.9486,-247.3409,-129.6878,-168.2379,19.3630,-59.0647,45.4739,-43.3526,39.0829,-43.8945,-128.1531,-148.2601,-52.3462,-90.2687,-13.1728,-60.4668,-146.7181,-107.5463,26.4494
-180.6136,-218.3301,-152.1868,-115.6592,-42.3038,-60.0082,-55.9597,-112.1356,-24.2347,-103.4772,-145.9738,-139.2764,-97.8819,-103.8509,7.7258,-111.4589,-183.0215,-79.2209,-64.0640
-236.5043,-194.2231,-180.0537,-93.8185,-101.4165,-26.9016,-109.8906,-136.0358,-48.9032,-163.9938,-158.7552,-139.1695,-128.3895,-95.4665,19.5386,-132.8990,-225.6732,-34.5515,-169.2389
-202.3722,-208.8855,-131.5608,-86.3607,-44.3146,-32.9051,-63.5902,-148.2847,-31.1716,-160.5151,-155.4703,-139.9395,-118.7362,-107.8921,-18.8934,-144.7265,-184.9413,-15.8673,-181.3808
-112.4660,-229.7343,-39.6008,-75.0805,34.7045,-125.9773,-36.9143,-156.5227,-42.5955,-108.7525,-141.0455,-119.7771,-81.7052,-153.7425,-77.9392,-165.9966,-105.1247,-29.9616,-151.6966
-62.7616,-187.3870,-5.3915,-81.1325,19.0403,-193.0609,-68.6706,-149.7544,-69.9004,-109.5420,-102.0562,-107.7320,-45.9430,-173.6493,-85.2036,-157.6109,-66.7344,-47.0499,-143.2056
-48.5770,-87.9445,-33.5904,-131.4672,-44.4898,-164.5120,-78.3212,-138.4563,-59.8545,-135.7136,-36.7437,-127.8296,-32.6581,-152.0175,-46.5540,-128.5164,-45.7118,-84.9306,-114.6883
-9.6699,-4.2478,-51.9262,-188.4218,-82.6305,-149.3477,-73.6287,-137.3683,-48.3638,-122.2450,19.6595,-147.7361,-52.7618,-137.1244,-20.0340,-106.7984,-1.2158,-145.9347,-94.4883
60.6542,65.3170,-25.7556,-154.9387,-85.5485,-195.5335,-118.6857,-183.0454,-86.6435,-166.6227,72.0989,-132.3770,-73.4128,-138.4964,-10.9688,-101.7061,53.7574,-159.4438,-161.7054
175.1850,191.4142,53.0510,-33.4244,-47.4233,-202.5229,-154.0452,-263.7466,-125.2179,-292.0728,186.4886,-87.5683,-30.3563,-130.2922,-5.9309,-144.8534,153.2142,-120.1287,-204.7664
354.4788,350.4118,172.1723,37.3002,15.4907,-150.4438,-90.3668,-256.2884,-92.7253,-296.7776,343.8058,-51.6631,67.6253,-123.1059,-13.5652,-211.2064,332.0723,-117.2898,-72.9693
477.8046,423.6161,235.9047,12.7461,53.6663,-112.2579,9.5770,-128.7886,-17.1628,-124.0581,401.8683,-53.7713,122.8070,-128.0501,-6.6412,-211.8655,454.7586,-149.5752,92.3641
402.0108,371.4764,171.1335,1.8769,61.7022,-78.8577,32.0981,-48.0311,17.0657,0.6348,315.7420,-59.7950,91.3645,-109.3866,33.7613,-166.0971,376.6527,-126.1203,67.2903
237.7588,267.1512,80.4439,34.6572,73.9114,-25.9432,-4.9752,-92.0877,-8.2438,-39.3183,217.6491,-26.6416,42.5692,-57.8707,40.4837,-156.5787,218.2093,-55.4800,-67.6846
166.3384,172.4629,80.9970,50.5644,94.8435,-3.1886,-5.6643,-127.1424,-24.8463,-104.4069,171.9905,2.6243,36.4697,-30.6007,-11.2521,-150.8237,156.9473,-4.9918,-103.7829
127.0903,105.0024,109.7088,87.1351,112.4249,-3.6236,45.8120,-97.8918,12.2706,-98.3008,100.7913,-12.3779,57.4249,-50.9053,-26.7688,-116.3667,130.6741,56.7159,-58.4476
48.0761,94.0540,103.9490,201.8888,136.7027,42.6999,64.0299,-119.3500,37.6284,-109.2057,27.2165,-7.2205,86.7521,-64.1356,15.3178,-134.1693,66.3664,169.8585,-57.1530
63.6922,152.2221,149.8604,329.2187,177.3981,110.5664,-21.6982,-219.3373,-36.8708,-205.8624,72.9631,58.7402,119.5945,-36.4595,7.8826,-208.1404,84.5538,258.7542,-73.3309
182.5208,204.2156,256.3006,389.3304,202.8351,120.8683,-162.0481,-274.7676,-170.5459,-284.6565,176.0225,116.6885,113.8811,-0.6309,-67.1492,-224.5363,196.3893,251.2799,-20.1062
186.5250,151.9386,281.0251,370.3398,163.9708,82.4449,-235.5751,-218.9320,-237.2677,-223.7002,154.7144,121.6151,42.7533,11.5342,-116.9334,-171.1823,206.3285,193.0643,67.2366
57.2471,29.9604,211.9447,292.3679,90.2079,51.5408,-217.1992,-118.4557,-214.4535,-89.8704,32.5652,102.4841,-26.9311,3.9198,-126.1016,-126.6568,93.9007,162.8517,99.3529
5.2003,-25.6808,187.1208,224.4414,74.9130,37.1087,-210.2604,-56.9371,-199.8496,-35.5192,-22.4761,77.0458,-19.9762,-7.4660,-139.6355,-89.5815,47.3096,166.1844,59.5317
50.1624,5.6112,204.7026,206.6697,101.6824,9.6354,-253.0274,-50.1872,-225.4531,-60.5183,3.3606,56.6988,29.4296,-11.8338,-144.0408,-40.0167,86.0077,132.5135,-22.0259
41.4516,9.0544,147.0097,149.6028,53.1581,-45.3538,-227.1528,-56.6151,-195.2818,-49.5538,1.5513,58.3935,41.8649,-16.6159,-117.2176,-25.2968,74.4341,12.8671,-108.2276
-30.2724,-57.8368,27.5830,5.2438,-61.0736,-94.8760,-71.5943,-25.6275,-62.4728,23.1626,-54.2508,44.2752,6.2879,-38.8681,-76.1375,-46.1371,2.2493,-109.5191,-142.9200
-88.8865,-128.6786,-57.7745,-107.9337,-116.8880,-97.2436,68.6765,35.5653,61.7524,60.3367,-112.0698,-21.2174,-37.9388,-64.2155,-30.8829,-32.3848,-69.7758,-102.5427,-109.2968
-116.8690,-152.7955,-87.3639,-106.7811,-84.7086,-63.9138,63.7067,42.1019,67.3108,-15.7425,-119.7383,-67.5661,-50.2614,-51.9126,6.0494,16.8034,-127.3322,8.4393,-67.3686
-89.3326,-112.2538,-73.4250,-47.0646,-12.2601,-32.4070,0.8269,-55.1523,5.0346,-135.0528,-54.3443,-22.8388,-6.5679,-2.7120,16.5742,33.4734,-125.0639,71.1950,-46.0095
-18.2267,-43.9754,-44.4142,-3.4912,58.5937,-26.5251,-0.1962,-156.7924,-17.9100,-151.5166,16.4737,43.3320,51.6333,24.9675,24.2300,11.3232,-61.1472,30.9014,-6.0997
-4.9371,-55.8626,-60.7196,-26.9239,62.8098,-59.0507,25.0602,-131.4898,4.1297,-60.2852,-4.5022,30.1702,48.2716,-1.6163,46.5108,3.1394,-53.8588,-27.2253,46.8093
-43.6819,-135.3859,-92.6642,-100.6956,15.0536,-95.5528,28.2157,-17.8493,22.7564,12.7369,-64.2501,-30.4450,3.7480,-37.3387,43.0868,22.4149,-102.8002,-31.6832,70.7772
-20.6385,-124.4452,-49.7348,-119.3125,31.5641,-90.1493,36.9595,37.9983,23.4019,34.0970,-47.4572,-57.5391,-7.7891,-37.8730,2.8030,45.5323,-64.7472,-18.8928,71.7925
9.1656,-42.6772,0.1119,-85.8410,65.3371,-91.4513,17.8719,7.7825,-4.7743,43.4600,-10.5450,-60.5319,-15.3223,-27.2993,-23.5040,71.6967,4.4885,-63.7047,39.7966
-71.8409,-65.8451,-66.0865,-127.5993,-38.7918,-131.4812,-73.5440,-13.8746,-57.5473,15.7797,-52.5710,-66.8978,-61.1992,-25.3909,-16.6595,98.3563,-62.8579,-141.7418,-46.8021
-145.6656,-148.7182,-160.3388,-203.8186,-175.4130,-100.7246,-124.9524,14.8456,-64.6199,-26.6474,-95.4269,-39.5171,-63.0506,-2.9490,3.4607,83.1936,-162.1680,-156.0457,-94.3200
-89.1083,-130.1640,-152.6522,-170.1578,-154.1888,32.3395,-43.7368,45.3095,5.6580,10.0453,-60.7816,29.0916,17.6536,41.5118,28.8324,20.7053,-120.6776,-123.4576,-27.5052
-43.8923,-71.9492,-116.8105,-97.8127,-92.0435,110.2341,25.9634,32.8495,47.3684,69.7217,-27.1092,77.6074,60.9091,73.1841,33.8866,-16.0324,-51.4283,-153.5307,24.3690
-95.0840,-73.5520,-126.7472,-114.1929,-138.9814,73.2434,-53.1251,-17.6938,-21.4317,24.3177,-29.6280,80.7307,15.4291,83.3978,-6.2990,-2.8058,-71.3941,-224.5860,-37.2012
-85.4802,-47.0648,-97.8775,-124.9815,-163.2544,29.9339,-160.6929,-59.9714,-105.9243,-47.1154,-3.5732,62.8400,-4.6731,61.4812,-40.2590,-12.9351,-58.9816,-208.1617,-92.1284
14.1955,47.7544,-10.4135,-23.1374,-75.2942,16.7446,-150.2921,-57.2822,-94.7216,-19.2670,26.6551,34.6790,47.7343,-6.2995,-8.7159,-69.3109,25.8521,-93.4041,-79.6630
41.3489,108.9664,33.2789,116.6702,-6.0415,21.6479,-75.0830,-46.4258,-30.6550,10.9784,6.6994,24.0444,78.9860,-49.3992,48.8260,-102.2557,49.8191,26.2305,-93.6209
14.4812,110.4296,29.8343,197.8142,-0.7083,84.6908,-17.5708,-78.4715,7.5149,-67.6888,4.5478,60.7241,53.3586,0.7149,66.7709,-82.5864,23.7222,111.8498,-98.0654
72.6760,103.3677,64.7201,195.0439,33.8440,151.4859,41.9371,-114.3156,32.8288,-156.7238,60.0954,80.9135,47.6136,50.3134,48.2298,-53.9537,63.7579,174.5032,19.1443
141.5087,92.0308,125.3342,137.6758,106.9501,123.8390,97.3122,-92.1428,61.2500,-135.5679,83.6182,15.2300,88.4669,-4.1968,22.5208,-55.1455,121.8147,208.1305,161.6058
95.7276,79.0542,139.8227,123.2591,160.5003,75.9802,95.7158,-28.5190,58.3008,-32.2275,44.8548,-58.9985,97.6228,-70.1143,2.8948,-84.9029,104.5347,200.1022,189.2592
43.5756,75.8284,124.3059,182.9553,182.1302,94.4738,71.1648,46.0189,34.4468,67.1932,29.5862,-39.7138,44.1216,-34.8934,-6.8382,-91.8233,75.5167,162.4821,178.2648
110.5301,54.5347,144.7459,193.6471,191.3437,96.4810,101.9836,123.2396,42.8645,110.2086,67.1843,24.8242,19.9650,32.5114,-24.6262,-26.8018,111.9361,140.4562,229.1965
181.2574,5.7609,176.0735,95.0567,202.0084,46.4604,159.6070,157.6314,73.7911,101.3048,85.9832,31.8724,60.6381,40.3684,-57.6406,64.2529,147.3845,146.3309,276.6691
100.3783,-44.0346,115.9603,-13.9342,174.9246,25.2816,164.9219,137.4997,86.6815,100.7003,27.6674,-31.7543,47.5832,20.4107,-56.0215,114.9987,86.7964,96.1366,252.4642
-64.6579,-86.8013,-38.1351,-89.0554,45.7258,10.7705,135.9106,146.2665,100.4056,138.6649,-73.4725,-112.8341,-59.0029,9.6987,6.7616,150.5833,-37.7205,-60.6364,198.3541
-140.3601,-115.9894,-155.5839,-184.7826,-130.7323,-65.8441,138.1981,197.5198,136.7099,165.9736,-123.8905,-151.9809,-122.0196,-12.6865,62.6117,179.9070,-111.5238,-216.3028,157.3958
-111.7160,-129.4383,-176.1601,-288.5905,-218.7085,-140.7622,164.3806,183.1979,159.2610,145.1532,-101.5936,-129.1506,-100.0561,-41.3950,55.3045,144.7299,-108.5828,-261.4591,117.5173
-98.1225,-146.5507,-166.8821,-328.6411,-194.2524,-140.9148,172.8724,83.2444,145.6725,89.7627,-78.1308,-92.9338,-94.3714,-46.2662,21.3108,72.0662,-107.3879,-216.0650,73.4453
-116.9623,-135.0340,-146.9060,-285.9976,-125.2383,-94.5853,158.1859,-3.5863,118.8993,6.6095,-60.7174,-85.5087,-90.4409,-33.6508,3.2718,35.3621,-119.1343,-124.4884,47.3247
-93.9421,-57.5877,-100.7276,-206.7013,-79.4219,-44.9578,115.0878,-34.7637,85.8890,-66.5467,-6.3149,-78.3463,-39.3090,-25.9014,1.8265,0.3069,-88.4738,-45.8640,28.5297
-68.2865,-4.8398,-103.0761,-162.8058,-134.7359,-42.2966,38.0580,-22.8304,43.0588,-44.7603,14.3429,-51.4704,-54.0166,-27.8085,18.1778,-51.6362,-63.0618,-89.2986,-32.4772
-100.7411,-44.0438,-161.7052,-169.8543,-253.0585,-124.9789,-25.0623,19.2081,11.1022,32.9283,-44.4925,-33.1282,-154.9095,-37.4334,36.5169,-43.6462,-100.6543,-207.9265,-119.5058
-84.6167,-57.4994,-127.7008,-140.3773,-241.5485,-201.5908,-29.1504,22.9030,-4.0961,5.4887,-47.2428,-22.6175,-157.8758,-47.7807,18.4794,-1.5053,-97.6144,-179.5442,-146.4964
36.9714,20.6735,15.3794,-25.1977,-80.7434,-157.5615,-5.8451,-33.4465,-16.3822,-89.6920,42.7827,1.1361,-66.1451,-47.5099,-20.0433,-27.5406,9.8618,2.7541,-113.6404
100.2873,71.0875,83.3609,74.6022,4.1408,-65.4999,8.2638,-16.5891,-10.4483,-23.4223,54.0954,9.4834,-82.6589,-41.3982,-24.0791,-75.8994,85.2416,80.8304,-99.9888
41.7831,55.7507,30.8128,64.2759,-49.9634,-53.0984,25.9203,112.4536,23.6756,164.1307,-18.8590,-24.4770,-173.7690,-43.6725,2.2893,-60.0835,57.9338,-9.9727,-102.1188
24.5098,69.4651,0.5377,9.9057,-80.8059,-76.6713,34.6628,151.1037,40.7192,164.3804,-6.9731,-58.3472,-156.4744,-46.8956,17.8613,-22.8415,42.8981,-57.2978,-90.0962
87.3087,104.2217,41.8861,29.2121,-35.3715,-35.7714,-6.3055,8.1961,4.6560,-34.2943,48.4216,-43.0703,-74.5380,-28.5462,16.3991,6.0237,84.1308,23.0556,-110.0821
101.4822,97.6978,87.5075,118.4994,28.6611,38.3952,-77.0276,-110.6963,-55.6337,-121.0361,19.4529,2.4991,-41.7723,9.1489,4.3839,55.2177,105.0633,96.2984,-150.0059
61.8808,82.7315,97.0670,159.8130,96.4458,62.3395,-120.7380,-73.2636,-95.0543,-39.4179,-7.9236,18.3182,-15.1048,30.6733,-12.5417,75.5738,84.2924,93.1623,-130.3855
25.2121,58.8536,51.2871,81.3133,105.9949,44.0874,-119.2860,-19.0656,-88.7948,-20.1127,14.2524,-18.8786,21.2174,11.1785,-8.5728,29.9748,32.0318,79.9030,-85.8433
-46.2407,-30.0201,-29.6051,-38.5516,8.9971,42.8772,-70.8188,-42.6097,-31.3899,-75.9886,-43.6271,-61.3329,10.9679,-26.8612,14.4569,-2.5004,-54.3923,93.6956,-74.9513
-124.7285,-118.4720,-55.9347,-83.9900,-51.1316,52.2097,11.4949,-31.0364,35.6338,-15.8708,-146.4834,-59.9503,-3.3792,-45.8096,7.5429,6.3621,-108.8184,97.6509,-40.6160
-111.0480,-109.7355,-3.0414,-48.1556,36.9068,28.8346,63.9642,67.6556,49.4750,124.9590,-125.6106,-31.7522,27.2212,-35.7374,-38.7823,-3.2715,-74.9650,69.6161,8.6629
-45.3243,-53.8758,48.4397,23.3313,118.2831,10.6368,55.0903,123.7155,21.3717,141.2809,-36.1616,4.6237,47.9980,2.1723,-71.6200,-9.3525,-13.5727,34.9298,-19.5411
-19.9720,-16.7740,57.2880,91.0463,49.3355,41.1559,39.2475,63.1169,14.9874,32.0081,-15.8132,55.7734,41.2884,48.9894,-60.7137,32.0606,20.5474,-2.7602,-70.7826
-11.8631,24.2798,35.1133,73.1971,-64.2323,33.3777,34.9864,-18.2775,28.1381,-39.9005,-19.1015,62.1148,43.4941,43.9757,-23.0426,62.9944,41.0250,-75.7584,-60.7742
-3.7181,47.9845,-23.3079,-49.4108,-99.5319,-58.8281,-0.3002,-42.1081,18.5352,-46.5386,-5.3259,-34.2498,28.4591,-25.9789,20.6252,59.0023,29.4552,-152.4637,-61.8760
-38.3842,-5.3831,-91.5422,-132.5864,-109.1937,-95.5598,-41.2541,-50.0732,6.2756,-80.1866,-43.7526,-132.3865,-25.3791,-70.5533,53.0781,71.6169,-29.2387,-160.6149,-90.8336
-89.2529,-92.1628,-119.0550,-95.1928,-162.3761,-30.3092,-38.5407,-73.5969,18.1605,-124.5229,-117.6592,-117.2104,-74.4909,-48.8865,59.3669,77.7923,-75.9652,-141.5740,-66.5859
-97.7509,-125.3156,-114.9341,-56.7505,-202.9116,-23.0542,-32.8324,-72.8475,18.5303,-83.0156,-148.3317,-67.2248,-101.3325,-38.9496,46.4574,48.1694,-74.1525,-181.1541,-48.7821
-80.3221,-110.0735,-107.6486,-87.7951,-162.7892,-90.9610,-42.6518,-42.1081,4.6134,1.4249,-146.6018,-92.4344,-112.0686,-67.1915,34.7715,53.8135,-54.0128,-229.9433,-100.0761
-74.0945,-103.0195,-99.8964,-116.7063,-92.4548,-88.1463,-12.8467,-35.6913,24.0616,-4.5714,-138.2065,-145.3650,-88.9032,-77.8748,31.5057,85.2996,-43.5922,-214.9258,-107.4817
-82.8744,-119.1497,-105.9701,-129.6440,-70.5259,-61.0223,18.5036,-69.7048,42.8158,-78.4462,-109.2274,-155.3683,-50.3510,-84.5564,26.9552,27.9300,-60.0067,-183.6733,-55.1350
-88.1866,-131.1579,-114.0419,-157.2473,-72.1440,-135.4334,-30.0804,-100.6181,-5.6001,-90.8878,-77.6780,-136.7145,-40.5546,-122.7212,7.9457,-76.3381,-90.0754,-174.7899,-68.9150
-60.1776,-115.7377,-81.6678,-156.1328,-53.3326,-209.1343,-84.6654,-97.5602,-62.5983,-48.1599,-57.6101,-102.9081,-44.7252,-132.6534,-21.3041,-84.0571,-74.6471,-167.6297,-106.3921
-24.8198,-95.3831,-50.5561,-125.3968,-53.0228,-169.4688,-66.6609,-81.4573,-55.2037,-57.6601,-31.5314,-63.7915,-29.3207,-82.4623,-34.5392,-27.8302,-31.5346,-184.1001,-71.8440
-61.2197,-119.8878,-94.5547,-136.9396,-82.6996,-111.7354,-70.2280,-104.8001,-45.3583,-139.5436,-30.1449,-67.9744,-3.0290,-54.9377,-18.7268,-24.7958,-65.9313,-213.0489,-55.3786
-144.6477,-173.2039,-152.3437,-159.3051,-68.4025,-107.3554,-129.4132,-175.8941,-76.4404,-213.9246,-77.7695,-115.6422,17.7952,-93.3868,2.6067,-74.1981,-155.8414,-173.8500,-97.7388
-154.2203,-164.9774,-121.2071,-103.2429,3.0097,-115.1442,-126.6657,-212.3188,-83.8412,-199.3287,-95.6961,-133.1576,23.4921,-135.1928,0.5826,-133.2267,-158.0978,-99.5285,-97.2694
-87.0557,-81.5336,-41.7849,-16.5782,46.7873,-137.7717,-85.2395,-164.2965,-74.4559,-121.5656,-37.6434,-103.0753,7.3887,-136.0123,-24.5486,-170.4878,-73.2221,-98.1573,-74.1029
-52.7989,-35.5568,-9.2475,0.8201,29.6221,-160.4489,-134.9714,-118.2025,-116.0608,-110.6299,5.0407,-90.7578,-12.2472,-116.2068,-48.9867,-141.4438,-33.2374,-126.8453,-98.4952
-64.3972,-76.6069,-10.3118,-18.0236,16.7780,-106.8969,-194.0667,-138.9888,-149.7667,-181.6356,-22.5548,-118.1169,-21.1540,-104.0670,-58.5256,-96.8875,-47.2662,-85.8673,-91.4815
-36.7803,-110.8436,28.0774,3.6618,56.0940,-24.7904,-128.2009,-157.1356,-104.7392,-197.3212,-40.2597,-138.1091,-31.8245,-114.4658,-73.0087,-136.4478,-13.9491,-15.5444,-12.1365
47.4130,-98.1965,108.2695,23.1111,102.9606,-38.3587,-44.5253,-128.4230,-63.5588,-151.3278,-4.0136,-138.1900,-36.1898,-143.1299,-112.0557,-188.2023,71.1677,6.8388,64.8467
113.3870,-117.8079,157.1898,-35.5691,106.2822,-111.3024,-42.8907,-94.6858,-74.4665,-142.1918,17.6538,-153.9646,-16.8713,-164.2681,-148.3447,-132.4416,119.7384,-14.7131,141.4320
111.7829,-172.5473,144.5847,-116.2798,120.0602,-135.3101,-13.0318,-70.9869,-54.4490,-119.0077,-5.2778,-185.0602,1.2789,-166.4970,-155.7995,-58.1608,110.7925,-52.5473,213.2826
93.5115,-167.0355,137.0181,-110.1664,201.3082,-123.2408,54.5633,-75.2839,-16.3804,-57.7854,-9.4948,-194.6150,-2.8427,-165.6952,-162.2631,-86.9305,113.4504,-76.9290,164.7301
135.3505,-92.4522,171.6231,-49.0931,253.2872,-115.6852,0.0307,-133.0093,-66.1697,-83.6201,41.3404,-171.7729,-4.4789,-164.7809,-179.0115,-153.6208,163.5182,-68.6869,25.7557
205.0598,-26.8021,177.8515,-55.9238,182.6477,-102.9891,-136.9726,-164.7601,-154.0770,-156.6783,112.2141,-130.5457,14.1446,-145.2939,-167.7589,-172.9182,201.3295,-69.4958,-6.3112
193.4180,-12.5502,111.5640,-143.1173,91.3701,-117.1924,-147.0682,-129.9563,-149.5820,-151.2417,153.5345,-98.3315,34.7516,-114.0780,-129.3445,-153.7761,158.5036,-108.6713,75.8702
85.0851,-54.7574,22.7888,-222.9692,70.8768,-186.5449,-40.1390,-147.4146,-75.0351,-153.7401,116.5638,-121.8556,24.1448,-117.2177,-94.9539,-105.8216,53.3888,-138.9279,99.3856
-24.3864,-125.7350,-53.2000,-260.9052,25.4099,-241.2232,11.2815,-195.8852,-19.0141,-158.3588,-8.8502,-200.6751,-38.1793,-178.7518,-48.3206,-74.9766,-39.3160,-146.4793,37.6787
-70.3546,-155.2528,-106.1081,-271.9785,-95.4736,-221.8232,-3.2083,-98.2133,16.6212,-9.1060,-118.6250,-246.4815,-110.3734,-241.8333,2.5300,-137.4722,-72.6841,-171.5664,-2.2588
-67.8578,-127.2951,-102.0500,-244.2044,-176.7922,-161.2748,0.7552,29.0945,35.3583,81.4649,-94.9720,-202.6719,-118.0143,-222.4699,-6.4407,-222.3937,-58.3588,-185.7415,7.4105
-61.7875,-116.1954,-75.2099,-190.8019,-166.7836,-104.7927,-14.9011,-84.9400,-0.8627,-159.8728,-5.9912,-140.5977,-79.9491,-141.1812,-48.0890,-204.6783,-52.8957,-152.1914,18.4087
-93.2087,-160.5421,-119.7307,-187.8651,-148.6642,-87.2725,-95.3081,-307.3063,-65.7632,-403.4475,-15.9544,-156.6496,-79.7333,-120.9612,-25.5119,-155.0551,-99.8031,-151.4047,10.8076
-155.1334,-209.7550,-202.3884,-263.0887,-167.9959,-143.5364,-129.1823,-323.5470,-66.2126,-295.1170,-112.4116,-244.7959,-106.5870,-209.6922,31.1171,-193.5979,-158.7441,-241.5995,26.5473
-176.6243,-213.7258,-194.2181,-328.1247,-174.8784,-232.7951,-17.6088,-176.7898,20.8021,-86.7851,-145.7940,-319.5353,-91.6542,-307.5530,24.3535,-258.8471,-150.4896,-312.7109,119.4559
-115.3575,-183.0841,-92.4307,-287.6094,-105.3003,-254.5958,126.8782,-86.3779,99.5050,-42.5927,-88.9273,-314.8991,-51.3033,-317.9240,-24.3701,-267.4535,-78.2686,-248.0930,238.8576
-35.2368,-165.8475,-6.4925,-163.4704,20.8253,-188.7235,143.9337,-94.2337,85.1548,-74.2503,-41.8338,-248.1309,-43.3342,-260.4064,-51.3533,-256.6995,-22.0252,-107.6049,248.4169
-23.9555,-182.2901,9.0395,-67.7360,79.2210,-114.3120,82.8466,-124.4476,34.9923,-114.8843,-51.3735,-192.7312,-70.9875,-200.9039,-61.7565,-244.2275,-23.2965,-34.1951,136.5586
-57.4419,-192.8195,-19.4139,-62.5980,23.3570,-87.5480,97.6636,-82.6853,58.9550,-113.5702,-79.5039,-179.3414,-104.0568,-163.1371,-55.3519,-190.5887,-44.0935,-57.9510,54.7364
-35.4217,-167.2905,-29.9489,-88.3773,0.0778,-77.5938,178.1911,41.0902,130.2316,-5.4281,-75.4681,-170.5682,-101.3902,-132.1399,-27.7133,-115.3013,-27.0452,-77.0059,86.8042
45.2083,-127.1468,22.7252,-69.0596,100.9174,-37.3534,199.2791,84.8763,134.7050,41.4927,-19.3036,-148.3278,-40.4722,-102.4180,-33.4198,-89.3816,33.9706,-25.8026,152.9463
91.8390,-80.8290,99.4937,-33.4997,194.8074,-4.9604,145.9859,-1.1803,69.9132,-43.4239,51.6367,-137.4991,18.9822,-101.5488,-87.9293,-142.3039,91.6516,28.1835,168.7508
99.4218,-34.6440,132.2355,-41.9557,181.1053,-53.2497,87.4404,-18.1905,16.0564,-17.1196,81.3727,-138.3871,9.0770,-139.5470,-123.4251,-215.6439,117.2328,12.6689,145.8424
122.7428,-46.5371,127.1235,-64.9343,139.5832,-134.2852,30.9358,41.2415,-21.3567,68.9308,68.7484,-130.4363,-24.7834,-163.4375,-125.2581,-215.4469,121.3019,-40.0401,114.2372
109.6790,-122.1926,108.0652,-60.0191,127.6129,-137.9562,-39.4724,-56.4999,-74.2168,-86.8204,44.4770,-120.3264,-15.4693,-138.4926,-140.1948,-158.1116,95.6447,-80.6797,54.5813
38.1612,-156.9202,73.6378,-70.8163,99.2686,-102.0373,-96.5358,-263.5697,-120.5437,-324.5720,32.1668,-115.5672,10.3988,-120.5155,-161.1720,-161.9655,49.2269,-104.9163,-44.5645
58.7410,-95.7752,74.7479,-112.2962,47.1826,-135.1925,-132.4368,-336.4688,-144.8777,-356.6796,68.1898,-102.0715,23.7906,-154.4603,-161.5049,-235.2320,70.1515,-109.7134,-117.0574
197.0404,-9.4713,138.7159,-99.7506,21.8382,-185.8600,-162.4855,-297.5912,-163.7369,-313.5144,141.4504,-81.2379,42.9271,-185.7128,-152.2920,-267.7629,175.8867,-113.4055,-89.4217
217.8709,12.6084,145.8976,-28.4953,30.6252,-146.3147,-152.9527,-251.5600,-151.1039,-272.3715,145.1364,-70.0336,41.5282,-155.3575,-124.9381,-232.0368,202.8552,-152.4516,-9.1082
46.2933,-61.9064,15.8337,-29.8034,27.3385,-73.9974,-78.8227,-163.8373,-79.9055,-138.9127,40.1212,-71.3639,-12.4527,-94.0418,-67.0074,-176.6499,57.5444,-190.9929,8.5049
-89.5974,-157.4131,-115.5700,-124.4343,-8.2326,-77.8548,-7.1860,-96.2352,-9.7718,-67.0126,-49.3253,-84.4991,-56.4217,-66.9691,-17.7022,-114.6713,-93.9829,-179.5359,-34.3477
-77.1860,-136.1792,-118.1655,-163.2396,-33.3944,-133.9290,6.1539,-114.6062,4.0185,-104.3197,-43.9107,-107.0275,-39.6762,-86.4279,3.0174,-58.1680,-93.0552,-171.2294,-27.0491
-35.5175,-36.4084,-60.7670,-99.9495,-21.0347,-162.6788,10.7511,-77.9308,5.6556,-16.8411,-27.2299,-117.9037,-28.7215,-103.2685,19.2336,-15.3261,-21.7331,-199.0998,44.6006
-21.2865,-49.2671,-31.4881,-41.6040,-9.0462,-132.1277,34.5589,14.6252,24.0611,69.4903,-56.3888,-104.3539,-67.9316,-77.0409,14.0889,32.4956,-1.3542,-177.9200,72.1184
3.1034,-144.3441,-0.9916,-6.9731,-1.1394,-39.7104,-0.7663,-54.7511,-5.4063,-111.7299,-70.8327,-83.1682,-85.4651,-36.9573,-32.1927,40.2449,1.0007,-81.7026,22.8601
27.0030,-116.8825,49.1888,60.0325,47.3174,64.5890,-113.9758,-224.4625,-96.3091,-284.3705,-38.3195,-67.7257,-43.8161,-27.0594,-65.1757,-30.6871,40.1382,-14.1937,-17.1944
37.4651,-7.9600,69.2778,93.7883,91.7103,75.5715,-174.5809,-237.8611,-143.2634,-195.6354,-2.7156,-60.6169,-13.3071,-36.2732,-51.8438,-72.4526,76.8120,-32.7471,-15.4280
43.5670,3.2066,41.6356,16.9829,49.2788,-30.7397,-110.4809,-148.8423,-94.2367,-110.4410,9.6456,-75.8258,-26.9476,-55.8239,-38.4883,-34.7070,70.3211,-101.4404,-23.7672
23.1737,-45.1938,1.6491,-81.3942,-35.2574,-142.8663,-34.9620,-136.6435,-35.8283,-142.3878,3.5448,-110.2170,-37.7927,-107.2632,-45.4421,-55.5975,41.9270,-185.4238,-52.2114
-16.6292,-66.7993,-25.5076,-108.6428,-83.7751,-182.8842,-46.4732,-155.5974,-39.2136,-118.1333,-21.8819,-125.1856,-44.4888,-157.7766,-51.4811,-145.1147,18.2888,-254.2758,-76.5119
-28.1438,-115.0736,-37.7811,-121.2920,-115.8698,-212.2561,-79.4276,-147.3695,-64.7279,-94.9679,-55.1585,-108.7233,-83.4627,-155.2355,-65.0360,-131.3507,0.1678,-284.4195,-101.4994
-18.1807,-165.0625,-36.5338,-172.2890,-150.3422,-280.1161,-55.6960,-155.5556,-58.5730,-140.1914,-66.7967,-100.8762,-118.2869,-142.4523,-85.0802,-39.9944,-8.4847,-291.1719,-101.0856
-13.2461,-122.9486,-24.3255,-215.7139,-170.2179,-306.5586,-11.0426,-146.6160,-26.8723,-109.9899,-47.7097,-119.5695,-96.5645,-172.1768,-79.2385,-51.0699,5.1447,-278.3828,-29.0444
-0.7850,-60.6320,-12.2478,-220.8125,-190.4334,-238.9406,9.0972,-87.0926,5.9365,-34.6395,-24.7354,-133.1955,-49.2992,-197.2445,-55.1976,-131.4851,28.3417,-235.9819,66.9476
-1.8033,-75.2659,-20.6277,-205.1680,-197.0219,-173.9501,25.7869,-42.7777,32.8393,-34.9584,-30.9120,-129.1885,-19.3857,-180.8985,-37.6388,-136.4254,19.2614,-204.0382,105.1290
-44.9683,-106.9420,-49.7908,-174.3944,-152.8670,-186.0954,43.7019,-29.2873,45.0012,-27.7278,-60.5001,-123.6195,-0.1273,-159.4861,-16.0669,-81.5160,-29.3805,-207.2321,97.7511
-65.8662,-108.5896,-59.6598,-138.0344,-110.4563,-206.5910,20.4569,-12.7408,21.4258,4.3670,-67.2074,-99.5543,6.1743,-135.8763,-6.7341,-44.6008,-57.6128,-202.1226,81.5962
-17.3749,-112.3477,-32.5902,-120.0146,-117.5685,-182.8828,-44.1543,-14.8453,-35.1471,-21.7660,-32.4124,-37.4204,-8.5014,-90.3761,-39.1685,-42.1866,-29.4026,-184.8919,46.2727
18.8406,-99.7425,-17.9899,-108.8502,-111.2757,-150.1549,-89.2966,-36.5788,-76.8504,-30.0413,4.4795,17.5960,-12.7378,-55.9005,-63.8410,-76.3825,-2.1256,-186.6752,-0.5376
-6.4181,-48.8210,-34.1222,-67.4836,-55.7903,-102.5872,-89.4776,-49.5831,-75.9771,-15.8388,25.7568,30.3720,19.8501,-35.6324,-41.1198,-108.7398,-16.9633,-163.7375,-38.2278
-13.9625,3.3802,-18.9196,-1.3682,12.6296,-22.5309,-84.9549,-69.6137,-75.6548,-96.3652,69.1756,52.4737,78.6285,22.0730,-34.8264,-73.7182,-16.7535,-91.4737,-71.0871
20.3142,45.3057,25.7934,34.1209,72.1700,16.5842,-98.1964,-73.4184,-103.3722,-136.1448,127.8360,110.8741,127.0472,93.3858,-64.2122,-6.6243,16.7899,-51.4132,-83.3132
5.9796,75.1883,3.1813,12.1780,60.5739,-19.4049,-103.7957,-14.8983,-109.2266,-0.0518,124.3485,135.9341,96.8238,100.7223,-46.3920,1.7456,-0.3848,-69.2759,-70.9098
-56.8176,64.5652,-76.7886,-14.3485,-67.3122,-45.2805,-88.8540,38.3301,-66.1888,95.2487,46.9853,98.3054,-16.3082,55.8014,23.3624,-33.2357,-66.4178,-72.4988,-81.3940
-56.3373,46.7268,-92.4375,-3.9801,-164.6110,-35.5852,-64.5054,38.0919,-20.4129,63.6989,-12.7357,61.0875,-72.7054,22.0299,61.9892,-23.4300,-66.3051,-57.1925,-108.3653
-8.5988,74.4159,-53.0099,-13.7835,-98.9509,-58.2867,-38.8223,66.1155,-1.2585,109.5534,-11.2961,40.9323,-1.7333,7.9709,64.6647,46.1463,-18.7379,-55.9033,-107.3949
-41.8804,98.5362,-65.0432,-70.5965,-2.7971,-98.0422,-35.2704,100.1390,-3.6380,168.0688,-6.4510,-2.4863,53.2935,-4.2539,71.1554,97.8681,-53.8618,-14.5889,-130.7394
-115.5620,64.5959,-90.5449,-75.4034,0.4109,-85.0925,-66.9721,13.4653,-28.4478,27.4793,-27.4218,-43.3064,16.6747,-18.2458,63.3392,71.0761,-126.0106,84.1499,-200.1361
-84.1032,8.5795,-47.3107,-5.0595,-0.1053,-46.1305,-72.9858,-106.9116,-41.6981,-138.1129,-35.4118,-30.0560,10.3601,-32.2683,35.5327,8.0143,-101.3010,134.8853,-189.5391
-11.7224,-36.9124,-17.8545,2.0843,29.2595,-40.6897,-1.7623,-79.7056,1.2433,-91.4639,-22.9987,5.3662,51.4965,-30.8609,23.6949,-17.4082,-48.7243,83.8922,-77.4057
-43.6345,-63.6123,-69.8966,-79.1812,4.6097,-50.4925,73.7113,10.7305,55.3526,21.0105,-21.6100,8.5968,21.1132,-10.9051,25.9985,-16.1911,-80.6908,16.2754,-24.3303
-91.9022,-44.7616,-92.0527,-95.8935,-42.1937,-32.3372,70.3952,-1.9133,54.7703,10.8700,-28.1359,-8.8977,-46.3731,-6.2666,20.7954,-32.6259,-103.3861,20.0461,-64.5453
-34.7694,-3.2121,-21.2415,-13.6097,-22.7699,9.7370,32.2007,-48.0148,25.8503,-37.0030,-20.1012,-5.3034,-48.8924,-17.7858,7.9292,-53.5614,-37.0462,87.4468,-85.7935
29.4158,6.2165,47.5760,53.2625,39.1183,31.6930,19.7557,-30.0590,1.2975,-17.0787,4.3984,40.1896,-36.6460,2.8013,-24.8688,-59.3201,17.0171,144.5665,-86.5832
31.9653,6.1208,70.0070,78.5261,88.6778,7.9850,6.3620,-36.2192,-38.1658,-6.8018,41.7217,106.1239,-41.9875,49.3107,-71.3413,-53.7036,19.3913,136.6521,-123.0783
52.1200,18.7683,76.6853,90.7991,95.5375,-12.5960,-26.4050,-111.5274,-68.2837,-90.4531,64.7594,127.4053,-1.5572,62.8139,-76.6473,-25.2411,38.8873,86.9175,-162.5888
58.3872,-13.0402,36.9949,56.8713,26.6225,16.7423,-42.0518,-146.5335,-44.6197,-178.9718,23.0299,73.1218,26.5484,38.1949,-31.9490,9.1358,38.2766,34.2397,-175.7554
-17.9947,-80.8238,-45.8508,2.2081,-72.9497,29.3857,-34.4528,-118.7252,-9.3144,-161.0339,-56.3492,6.8609,-45.9392,7.1762,2.8404,-6.0166,-26.1322,-33.3697,-171.0182
-65.8872,-97.4605,-74.6745,2.6823,-107.7222,-40.3863,-46.8113,-130.9119,-26.3124,-113.1094,-78.1715,-9.0253,-114.9343,-30.0061,1.1356,-66.9430,-57.9353,-109.9410,-146.5563
-53.8625,-99.1276,-64.4693,-6.5173,-102.1089,-121.6273,-103.2633,-184.3283,-80.7860,-137.6366,-55.5561,-8.1787,-97.7470,-69.8230,-19.6432,-121.7408,-51.8973,-162.9078,-147.3996
-139.4130,-184.7727,-141.1955,-122.3554,-144.0936,-151.2557,-158.8048,-199.3196,-113.0052,-166.6248,-90.6156,-41.9729,-91.5279,-91.8408,-38.8575,-156.0887,-139.5295,-225.8474,-206.8008
-271.1189,-274.1651,-259.0476,-241.1553,-195.0373,-178.3394,-134.4563,-197.0081,-83.2246,-146.3522,-154.4365,-85.3259,-111.8642,-107.2103,-25.5580,-172.2829,-259.7912,-315.1100,-237.8025
-233.8151,-236.2148,-245.4872,-218.6684,-165.2030,-208.4248,-52.7593,-219.9397,-25.0907,-138.2767,-140.0601,-95.4936,-76.6777,-134.1960,6.9358,-176.2448,-224.6740,-328.9984,-196.3830
-118.6957,-167.5526,-131.3733,-122.5795,-112.6821,-184.6198,-45.9391,-222.7015,-26.8160,-150.1946,-105.0234,-98.1085,-68.3755,-157.6168,-8.9792,-189.4200,-109.5383,-236.6524,-175.9698
-145.8773,-218.8507,-97.5349,-95.2208,-160.6812,-147.3967,-114.4834,-200.7697,-73.5671,-171.7596,-164.3092,-134.7007,-174.5916,-166.9832,-53.5732,-180.4734,-114.9333,-171.8495,-189.6959
-218.5320,-287.0328,-141.3214,-126.9509,-249.6306,-163.7220,-94.9403,-204.5496,-48.2568,-228.1905,-231.1002,-170.8609,-232.2351,-169.2879,-39.6268,-109.2472,-179.7563,-179.1197,-144.6149
-168.0733,-214.6628,-120.7138,-136.3955,-204.6747,-178.9599,5.3371,-196.7044,21.5345,-231.4532,-168.1259,-154.1570,-115.0853,-159.4272,-3.8550,-58.6892,-142.8762,-164.0627,-47.0005
-81.9048,-109.4162,-49.6638,-135.0372,-63.6011,-142.0049,1.3574,-149.9822,-2.4117,-130.6234,-53.2677,-122.4440,14.6146,-141.8789,-29.5808,-103.6550,-57.2020,-149.6260,51.6067
-63.4686,-133.8996,-52.0327,-178.3873,-33.8403,-112.6668,-61.0635,-142.4927,-57.5056,-81.8821,-26.6935,-134.3588,12.0633,-136.2663,-55.2852,-143.3726,-38.5490,-226.6632,181.5363
-67.4923,-205.9367,-111.8369,-242.4646,-106.9800,-123.2383,35.3816,-147.2382,21.4126,-94.0324,-59.5047,-157.8321,-34.0546,-134.0922,-13.8922,-95.8485,-59.2085,-312.9709,332.0941
-69.6432,-201.0324,-122.7642,-261.2749,-101.2680,-128.5694,217.4051,-49.7331,156.6432,8.6950,-69.9490,-158.1216,-27.4069,-127.3606,20.2491,-53.9493,-63.2613,-291.0719,415.5913
-79.5113,-178.8213,-90.8408,-240.7023,-34.9385,-119.9351,241.0939,52.6751,172.6526,105.5438,-64.8972,-176.3495,5.8540,-143.3788,6.5211,-80.2030,-64.6939,-220.0677,423.3867
-72.2201,-192.0253,-88.9085,-234.3568,-36.2639,-111.0066,166.9825,12.4420,127.7645,4.5609,-58.4428,-203.4519,33.0032,-163.3075,11.5002,-98.1734,-76.0490,-178.5012,417.8315
-60.8159,-170.3023,-106.8153,-241.1392,-45.7327,-64.4881,217.6120,-35.6487,164.0973,-59.0710,-33.2355,-155.9243,46.2168,-110.7564,37.4839,-56.9377,-82.0419,-126.2297,409.9820
-61.9271,-104.5976,-84.0496,-219.0467,35.0141,30.9623,343.8289,42.2106,234.3946,83.7259,-1.5900,-55.3050,41.0761,0.2226,21.2617,6.4146,-64.3642,-35.2338,366.0386
