Fp1,Fp2,F3,F4,C3,C4,P3,P4,O1,O2,F7,F8,T7,T8,P7,P8,Fz,Cz,Pz
-113.5340,-24.7868,-140.0279,-70.8983,-120.0657,-158.2839,-72.6273,-45.6869,-86.2575,-118.3609,-102.3813,-28.0493,-107.3719,-57.5936,-181.4203,-25.3590,5.7399,-32.2328,-44.5060
-319.4301,-213.0454,-309.6874,-101.5911,-267.9633,120.7267,-342.2463,83.0338,-144.8240,13.4460,-281.1483,-83.1976,-259.9609,-39.5937,-204.4948,-8.1520,-561.4964,-78.1355,-200.1950
-392.4887,-261.3920,-392.7781,-110.4132,-315.0246,194.2608,-404.2464,135.6519,-168.6805,109.2246,-331.6099,-96.1055,-304.1355,-32.0983,-162.3595,-2.6379,-764.7562,-88.5786,-278.3772
-322.4207,-187.8232,-307.6109,-51.3377,-240.1486,162.1367,-279.2729,82.3287,-122.0114,160.3827,-255.6339,-65.0857,-222.8504,2.4991,33.8895,-1.5785,-593.0704,-18.6131,-228.5869
-290.7097,-137.2669,-219.6924,33.8553,-171.1812,238.9126,-231.1868,46.5536,-87.3699,14.9327,-224.9748,-29.0272,-164.0231,60.4238,175.9349,-24.1264,-508.8015,60.9338,-206.2751
-263.7559,-95.0186,-197.9232,68.2685,-149.2645,287.5087,-296.3203,51.6665,-153.2203,-22.1816,-214.0659,-19.0893,-167.4531,52.1535,-2.0131,-34.5822,-489.6811,75.0398,-260.6596
-133.0963,-21.8845,-125.0350,67.0350,-142.6985,208.0663,-328.2556,14.6129,-224.8253,108.3505,-133.7574,-13.4514,-155.1122,-10.9665,-303.0468,-20.0988,-340.9621,67.4233,-283.7858
-52.9790,-8.8797,-24.7576,89.7125,-158.2334,167.2045,-331.1085,-62.3292,-197.2379,-31.9795,-92.9561,12.4206,-128.9471,-17.2288,-311.9589,-38.7713,-284.3278,84.6691,-275.4272
-126.5215,-67.1821,-25.9683,114.8043,-164.1983,187.1839,-337.5300,-98.9639,-154.7328,-199.7394,-132.8720,26.8625,-118.4592,25.4170,-20.3376,-69.0932,-407.4979,75.1003,-308.9963
-155.4118,-84.7193,-69.0985,91.7400,-120.5421,135.2675,-283.0568,-95.5839,-145.7900,-12.7416,-110.8199,19.3616,-86.4773,27.0847,196.6931,-48.6564,-435.7404,13.2984,-328.7119
-93.1836,-77.4682,-69.6340,38.2347,-110.8555,49.2348,-217.8638,-95.2836,-75.0508,77.3365,-61.5375,14.0550,-68.7031,-5.9535,119.8258,-16.8271,-369.9442,-34.6776,-265.4559
-137.1669,-127.0163,-106.2832,-6.8925,-179.1739,15.8503,-204.4698,-53.3932,45.4812,42.6200,-126.5885,-14.5413,-129.4096,-19.2599,-6.4304,1.7015,-387.5993,-23.7381,-174.2471
-209.4422,-147.8748,-156.8674,-27.8827,-189.6365,20.9069,-127.1213,50.7337,114.9781,283.8043,-173.2751,-54.1290,-151.1870,5.3511,155.7104,34.9657,-353.4690,25.7782,-96.4431
-104.1455,-69.2544,-100.5283,-15.4496,-96.5885,70.4263,-10.8495,118.5192,141.6567,286.1913,-67.1170,-22.9765,-46.5997,55.0911,410.9474,37.5102,-210.6085,63.6830,-15.3628
11.3986,-14.2411,-38.9023,-1.5526,-48.4676,118.3689,-34.4696,127.1087,138.8378,-65.3078,9.6569,27.8517,13.2416,66.8514,321.3037,6.9681,-170.5291,37.5950,38.7966
-14.8025,-33.5584,-77.4371,-30.8369,-76.3383,73.1954,-70.6342,161.8177,96.1547,41.8565,-24.1950,-2.1329,-36.7828,21.0014,80.4691,24.3499,-182.5453,-8.7586,59.1437
27.4384,-18.6997,-51.5342,-54.7448,-66.4477,48.2255,49.5431,190.6691,94.8956,147.6480,9.5860,-11.8224,-5.2519,24.2243,162.1865,29.3352,-94.7695,43.8685,105.3027
123.6314,16.8691,45.2093,-15.2444,-41.1253,130.5761,81.2298,130.9637,95.6533,-363.2537,70.5984,55.4812,76.9984,82.8086,327.7787,-43.3619,-86.6724,132.9368,122.0240
-39.3077,-25.5047,-58.1488,19.7513,-105.2805,99.3477,-132.7188,35.4723,-105.0550,-258.4110,-48.3352,28.1231,-37.5386,33.8867,108.1210,-54.1990,-226.2820,52.7372,-40.6643
-349.5296,-94.3737,-313.0232,-2.2612,-239.1461,-69.2392,-374.9874,-45.1177,-421.2087,462.9827,-257.9268,-81.5040,-273.3349,-98.8146,-273.1068,-3.5784,-339.0304,-140.4667,-334.5929
-443.3279,-118.2543,-406.2729,-14.9843,-351.8044,-77.6818,-542.9221,-109.9654,-524.6660,46.4788,-353.8172,-64.9172,-366.3451,-121.2524,-430.7426,-71.8873,-471.2668,-199.0802,-503.5073
-392.1305,-132.5373,-371.8986,-19.3190,-361.4237,-33.2950,-566.7507,-69.9905,-410.7924,-398.7739,-342.4937,-27.3415,-336.8682,-87.3158,-412.9600,-109.7359,-550.4180,-149.1730,-406.9399
-370.1396,-127.6364,-362.8212,-87.5991,-238.4022,-225.5852,-237.5012,47.9040,-286.8886,1149.7133,-256.7299,-162.4938,-295.3258,-145.0961,-257.0904,108.1489,-212.5632,-151.2964,-170.1798
-230.6652,-75.9827,-218.4964,-142.3985,-96.9814,-307.3328,177.4924,-10.4741,-134.3338,2305.8596,-98.7278,-247.0062,-186.4355,-155.6346,38.5390,280.4686,293.1988,-98.9972,-7.7139
27.1318,-43.6859,99.6242,-65.5217,-43.5956,45.3907,160.4930,-244.2400,71.6741,728.1642,12.0395,-87.8195,-25.3471,-4.3868,175.1373,117.2500,317.8128,104.3941,16.0561
148.9381,-30.7981,295.1874,69.0937,22.8386,352.2215,-43.0424,-293.9548,170.5429,-830.5358,29.9730,61.1876,72.0642,114.9491,44.8285,-65.3874,82.8741,249.1247,23.3440
147.0044,52.6190,295.4868,153.1928,169.7636,276.9007,56.4092,-82.9708,153.9359,-257.7401,77.4480,42.1410,119.2923,100.4522,-25.4604,-6.6013,171.0335,211.4550,115.0597
197.8224,162.6667,299.1218,210.1966,241.2917,195.2567,208.4127,85.4720,166.4356,317.9377,156.5802,39.3308,161.5081,94.3782,43.2894,61.1658,347.8083,149.9181,221.5523
239.8858,196.1650,305.5225,247.2788,170.0538,248.6433,129.4694,126.0490,175.3154,-70.8347,158.7844,94.7958,148.7931,118.3846,16.9863,16.3436,276.9254,126.2716,247.8494
205.9158,198.5013,232.9086,222.4095,101.5631,160.6192,91.4734,193.8696,98.4663,18.1861,129.4211,82.9526,95.2413,76.2369,-82.9513,15.4555,245.7006,41.6889,227.3108
209.6948,222.7401,186.4094,168.2299,92.2165,-18.8120,156.0404,258.0546,21.5580,390.2288,155.3133,50.4292,82.7439,9.8002,-112.9863,47.8068,362.7949,-80.4435,215.4990
255.1251,205.1843,209.6057,124.6416,70.4543,-78.4558,81.5638,216.6719,3.5243,143.8149,181.0516,67.1326,96.4663,-13.0457,-102.0163,17.5542,350.4799,-142.7270,182.7641
237.0911,137.5611,204.7916,73.1194,46.4539,-91.7885,-36.3391,152.1766,-19.0617,-44.8604,160.9306,60.2748,90.0301,-25.8044,-55.3682,-9.2650,245.2929,-140.0206,108.6537
197.8567,100.5742,189.3961,34.6889,74.7243,-127.5434,-37.1392,128.1942,-68.8141,96.3862,147.3293,26.1293,95.7547,-40.6847,6.6548,-6.9812,239.7053,-100.9256,44.2516
209.5755,98.5943,221.4780,39.2301,139.8721,-122.8001,-61.6138,81.8283,-121.7844,-73.3689,161.3471,32.4903,132.7009,-41.4348,-43.8384,-37.7326,238.7114,-59.2698,12.4514
211.3626,75.3568,226.6435,35.0433,186.3183,-86.3449,-155.1170,12.1266,-162.1804,-297.9292,165.7641,44.2697,152.3583,-44.3605,-128.9482,-62.9535,155.0856,-53.8926,-35.5855
161.7215,28.9127,168.2875,-5.8221,164.8513,-14.8184,-189.4874,-37.5193,-140.0849,-212.6476,135.3447,23.5412,124.3403,-35.7541,-64.9316,-41.0951,72.7187,-44.6887,-106.5442
105.5890,-16.9161,121.6713,-31.5953,100.6802,109.0191,-154.7956,-75.9829,-42.0796,-208.0037,78.2371,7.4975,77.6346,2.4200,19.6833,-20.5428,13.4234,14.9001,-116.2353
62.9276,-61.3009,100.2887,-35.8039,91.1564,181.1097,-73.4567,-74.3749,53.9875,-202.4783,34.2344,-8.6685,55.4690,25.5275,-26.7478,1.4821,-42.4477,56.7876,-25.5692
31.2024,-98.2699,65.0230,-59.9534,134.2959,157.7963,50.4301,2.2487,116.7877,82.1322,28.0997,-43.7374,61.6387,17.2912,-46.8842,50.2778,-72.1490,31.3726,82.8900
22.9518,-109.8695,40.3651,-84.1541,130.8371,138.8283,125.0265,86.5363,176.6092,240.8696,28.7566,-59.8687,61.6236,18.8857,23.0766,76.5582,-73.3087,8.1397,139.3141
34.8124,-89.3974,57.6516,-65.6873,93.7824,151.1565,129.4426,130.1029,190.6647,182.5302,18.9640,-52.1496,47.2826,29.3726,14.5802,67.4943,-38.8083,29.0845,174.4550
61.2661,-48.6729,91.9853,-24.6424,87.5882,165.9184,144.3557,168.7894,125.7727,232.1996,26.4792,-47.7324,44.9868,29.6405,-66.9807,62.0362,22.4544,57.0497,213.2756
93.8493,-17.6883,105.0082,-5.1551,56.1467,204.9333,151.9238,195.6292,86.4268,165.0518,37.9637,-30.2421,44.3500,41.8947,-70.1720,46.2294,33.3853,79.9566,226.1112
89.2441,-20.2592,81.9597,-15.2580,-20.0111,237.4939,133.5360,193.3983,148.0287,-95.4504,12.7705,-7.3185,19.5900,66.9024,-1.0336,19.6458,-7.5814,105.6553,220.1861
45.7047,-38.4192,50.4773,-31.1650,-23.4137,218.8744,163.5158,205.4451,214.4067,-102.3063,-16.5146,-17.9782,7.8462,75.5133,53.3290,24.7953,-8.7474,117.3880,233.6393
36.2583,-43.5823,53.0953,-31.1807,68.0533,208.0983,212.2544,219.4464,193.2475,34.5048,3.9536,-33.2375,47.4221,71.9406,59.6730,39.0969,1.8694,113.2089,247.4491
70.4608,-52.1947,73.1366,-28.0453,138.1696,235.6845,203.5198,182.5032,145.5105,-18.4567,46.1176,-21.2969,95.6065,68.6291,22.9801,30.5514,-68.0142,108.3880,227.0268
79.6407,-84.9661,67.7340,-47.2262,154.4229,238.9404,196.0915,126.7443,156.6582,-11.4701,60.9548,-21.1019,108.8545,57.9561,0.1722,36.4733,-157.3416,103.5588,191.3664
67.4290,-105.8517,59.4410,-66.8394,168.1575,216.4856,207.4520,79.0585,193.9032,86.7868,62.0777,-33.5471,110.2495,48.2618,18.5248,53.6096,-167.0905,104.4238,150.5172
84.1420,-80.0941,87.7969,-40.4676,177.2262,230.4524,155.2245,3.2296,181.4034,-5.1723,75.1650,-14.5706,118.2661,53.6274,22.9373,38.9311,-135.0974,120.5372,75.9918
103.4177,-43.3403,125.7186,15.2365,161.0274,273.1086,82.4035,-77.3323,141.2469,-60.9375,85.6081,12.6327,113.9794,64.5009,32.3715,24.4682,-117.1138,129.0533,-10.3891
86.4854,-43.4904,123.1856,28.5185,128.5074,277.8383,75.5798,-107.1603,153.9311,87.7084,76.8979,8.9665,91.9734,66.4726,107.6094,45.0844,-101.6286,93.9140,-41.8798
63.5093,-72.4775,72.4152,-27.6671,85.4796,217.5272,81.8068,-93.1736,207.3703,165.5446,63.0907,-7.5349,64.8275,48.5021,160.8194,69.2955,-100.6171,15.5655,-20.4167
57.8257,-101.8767,9.5329,-104.1883,49.0475,131.6822,69.2220,-40.7818,217.9699,240.2914,59.4841,-28.9333,40.0025,8.0182,109.2013,88.1661,-128.9110,-67.3983,1.2145
44.7517,-124.5393,-17.2703,-144.5982,38.0540,67.8534,87.9639,49.2705,185.3827,450.2038,51.3268,-61.9724,21.6791,-28.0845,49.5471,108.6352,-136.9054,-122.2080,22.0419
19.2379,-132.6109,-0.3242,-138.6086,30.3471,28.3077,106.0809,126.5577,170.9799,485.1776,25.3115,-77.8678,8.6761,-34.7943,56.4712,102.6356,-96.3435,-152.6191,58.0750
23.9066,-103.0238,30.7470,-105.6874,20.7834,5.0016,82.6235,169.6931,157.8523,331.0887,19.1536,-60.3639,9.8223,-25.6103,83.2957,73.7459,-39.1533,-167.7100,76.8563
88.3127,-36.2955,74.4924,-65.0040,44.6250,8.1629,70.0232,197.4349,98.3156,256.6013,70.2023,-28.7139,48.1432,-16.1294,109.6827,49.1631,21.3922,-149.7605,62.8938
162.4364,14.9054,134.9194,-31.5412,80.9171,24.8099,71.7645,188.6997,40.1712,111.3139,126.4769,4.3180,101.0210,-2.6379,136.0740,15.7568,64.6598,-100.5116,49.6344
170.3244,15.2671,166.1688,-6.7494,79.3336,39.3629,44.6547,138.2972,42.9861,-134.1582,121.8743,27.7028,112.3126,12.7286,138.4524,-19.5193,41.3021,-57.3250,37.1097
145.2574,27.4929,155.3404,39.6595,78.9631,88.1173,18.1656,77.8375,40.9065,-172.9665,106.3034,44.2932,104.1866,32.3875,134.2797,-26.9450,-8.5723,-9.8241,-9.4760
185.2318,114.4022,174.6588,132.1563,138.8668,194.7635,-2.1817,-7.7388,-53.4656,-153.1639,157.0020,86.5824,146.5222,68.7218,141.5835,-37.7647,5.5981,89.1968,-77.4958
265.6037,197.9394,249.9375,222.9332,219.4077,303.0259,-53.5568,-119.5992,-172.4807,-319.2007,228.9102,140.0188,217.4150,106.5327,144.0683,-73.1981,46.9884,197.5549,-123.1880
275.6532,174.0618,302.1604,238.0102,254.1087,348.6533,-82.2567,-196.1291,-184.9593,-394.9120,236.4127,143.0042,240.8522,117.4401,162.6981,-81.4788,29.7089,224.2615,-135.4806
213.3786,97.9301,279.9902,197.9358,239.1950,336.3052,-55.4878,-231.9619,-117.2201,-284.6821,190.7682,107.8880,211.2670,107.9139,186.0308,-53.5427,-16.2299,188.4628,-125.0591
162.3093,78.7236,222.5951,185.6489,198.3806,303.7719,-64.3698,-267.6384,-98.2134,-236.4223,150.9553,96.8060,167.7951,95.8743,129.5741,-37.1913,-39.2446,166.1811,-103.5824
136.9822,90.3132,172.6423,198.8282,145.0638,257.0255,-116.1942,-279.0110,-122.8364,-182.4736,126.5505,99.8028,123.1218,75.7591,23.2106,-28.0843,-66.5902,140.8669,-86.6605
88.3137,45.1433,125.5512,165.3424,81.2488,176.0716,-106.8547,-237.9573,-76.8078,-6.3197,85.2752,72.5384,70.9064,43.8197,-3.9062,-1.0592,-117.4081,64.2824,-73.8065
6.3583,-47.4161,67.5675,78.4316,8.3262,70.2428,-44.1753,-165.5792,40.3133,146.5654,15.2626,20.1550,8.6711,9.7504,33.8689,29.5575,-157.3254,-36.6814,-50.4229
-52.5447,-110.6074,12.5954,-9.7541,-48.6741,-17.0087,-9.4540,-74.9325,113.1428,276.3216,-38.9209,-29.8618,-44.8523,-24.1029,33.2347,55.0610,-149.4033,-117.0940,-25.9811
-36.6866,-111.8018,-11.2510,-72.8876,-66.2508,-68.4005,-11.8550,2.5472,91.3652,396.7934,-30.1443,-56.0855,-57.5970,-55.2837,0.1490,70.8108,-92.6301,-164.2973,-19.3192
20.8353,-82.6796,0.1765,-101.5941,-58.8357,-103.5584,-41.6433,19.2489,33.0934,328.1673,12.1807,-48.1323,-34.0105,-70.9257,-14.6751,57.6077,-32.1287,-173.1796,-15.1639
52.6677,-58.7606,27.5691,-88.8515,-39.8053,-124.7961,-85.5812,-2.8812,0.9390,136.1938,34.7911,-25.5444,-8.7297,-68.3088,-15.6056,30.1938,2.0310,-167.8446,-0.1434
66.5627,-27.9079,56.2700,-50.3932,-17.3005,-114.6535,-114.7366,-45.5664,-22.7727,-9.1431,47.4637,-0.5780,5.8945,-59.1261,-27.1074,10.6647,41.3987,-188.0390,-14.4836
97.0673,41.9819,73.3076,13.4257,-29.4192,-68.3951,-164.6212,-157.0427,-104.2222,-249.6774,69.2559,52.2237,9.9377,-42.9647,-60.9218,-26.9046,83.2767,-201.7851,-92.0043
121.4143,135.6573,80.2904,126.1154,-59.6614,18.9498,-251.9592,-307.1280,-223.2640,-588.0243,84.8655,131.5050,13.2233,-2.2206,-68.9171,-86.4544,69.2109,-140.1167,-181.7365
128.6908,192.4109,121.4508,250.0711,-8.8980,139.3311,-272.7099,-398.9308,-261.1352,-759.5281,103.1557,187.5807,56.5672,61.5893,19.8719,-121.0548,20.8503,-22.5480,-212.5543
140.6357,170.3675,207.5215,294.3326,112.5616,227.5575,-200.5708,-452.1428,-193.2581,-803.7325,130.6522,193.8093,133.2572,107.0190,137.6853,-123.6350,3.1072,62.7434,-199.5300
124.6170,84.5128,243.5554,235.3739,157.5826,221.9487,-157.6801,-526.2529,-124.6895,-887.6632,118.4772,165.1008,155.9546,101.5964,161.7954,-121.9517,-18.4193,74.4564,-193.7689
47.6863,-10.3690,161.8922,132.2006,101.9968,156.4312,-152.9542,-571.3937,-75.6781,-888.6153,55.4385,121.2700,105.1323,72.9440,151.4460,-105.6421,-77.7899,41.3167,-176.3114
-41.6652,-81.3265,47.4972,39.6768,70.3109,102.3399,-81.7518,-547.9459,31.2030,-730.6997,-0.5780,74.6469,62.0620,61.9736,209.0197,-61.2496,-114.2563,7.3082,-110.1548
-113.4027,-155.5398,-0.7156,-25.2941,84.1691,64.0672,22.3381,-505.9052,162.7730,-520.7904,-44.8440,22.7644,42.5078,54.8527,251.3020,-12.9728,-123.7280,-17.8988,-35.9390
-187.9035,-251.3154,-14.7080,-76.0410,55.5435,5.1129,55.5512,-469.2165,209.0608,-303.3893,-110.9759,-37.1762,-6.0875,19.9115,187.8544,17.9393,-176.4254,-59.3189,-8.5667
-231.6615,-315.6196,-56.6198,-134.3151,-22.2482,-75.7690,33.1852,-416.2180,173.5435,-152.2823,-159.8290,-78.3293,-65.6913,-29.1911,95.4291,29.6514,-247.8573,-119.0073,-10.6745
-210.7581,-307.2858,-102.8273,-181.8693,-81.8429,-141.1614,8.9069,-340.3437,122.4302,-123.9291,-151.1492,-81.9463,-86.3690,-59.1723,67.8800,25.4510,-262.6334,-161.9543,-10.2775
-175.9102,-260.0157,-103.4215,-172.4137,-91.1343,-157.4355,-23.1108,-248.8771,49.8869,-74.9642,-122.9329,-72.0009,-77.8714,-64.3066,97.6732,15.3284,-230.7498,-178.1660,-22.7471
-146.1136,-201.1169,-59.8154,-109.0900,-62.4191,-129.3295,-83.0325,-172.9378,-64.7623,46.3791,-93.9671,-60.9287,-60.1166,-60.7831,110.3002,5.6558,-189.7872,-182.9312,-63.2335
-72.1854,-127.2535,-3.6432,-47.0225,-31.9986,-97.5027,-170.4362,-142.0788,-174.0025,127.2339,-36.7771,-37.0506,-32.5492,-64.8734,48.0707,-1.6109,-150.6464,-167.3355,-108.1935
26.9254,-73.2103,49.2331,-20.3805,-18.7658,-89.3030,-244.6292,-124.9464,-214.6830,219.0225,33.4473,-16.9106,-2.1056,-76.9806,-16.1132,4.5914,-135.6832,-130.3797,-131.8269
82.9606,-67.1545,100.1710,-14.0665,15.7862,-85.2676,-248.2783,-93.4049,-185.0766,360.9720,80.6963,-17.3498,34.4070,-78.4704,26.9876,21.4021,-141.1146,-104.7696,-138.7145
91.6416,-64.3422,141.1372,6.6553,82.9165,-59.1858,-195.7798,-72.3076,-139.3668,396.8196,100.8810,-16.5799,73.6218,-60.5298,98.2874,25.7241,-121.5570,-96.9053,-143.3557
69.5647,-40.2272,159.6693,53.1468,110.3272,-28.0418,-143.8788,-51.7860,-110.4806,343.8949,82.9890,-9.2747,75.1570,-39.1067,76.7012,16.9943,-77.1275,-80.7675,-133.1977
17.0105,-42.9853,165.9893,93.2436,78.8779,-22.1997,-92.0465,-5.3003,-68.7306,357.8231,26.8229,-18.2678,39.2062,-24.2587,51.3918,14.3474,-56.7158,-53.0146,-88.1647
-25.8061,-88.9595,169.2651,84.4162,77.1420,-26.3821,-27.8885,22.2914,9.8980,392.3844,-9.0549,-38.8662,32.3231,-11.2915,117.0513,23.5794,-78.1658,-28.4563,-29.8601
-20.0481,-140.7567,148.4762,14.6339,137.0489,-10.7732,31.5013,18.1754,97.5517,416.9970,12.1447,-58.9978,69.9179,-6.4738,179.0957,50.4025,-116.3611,-23.7424,23.7681
2.6782,-183.4517,96.5228,-86.4137,183.3857,1.2667,105.0067,66.7133,181.2753,521.4649,43.4987,-88.3145,96.9520,-15.0670,178.1822,96.4215,-136.3934,-50.7924,119.3734
1.1315,-202.5787,43.5335,-145.5150,175.8801,-17.7339,208.7789,189.0623,285.1073,629.8365,41.0629,-111.4062,92.4168,-14.5554,182.8645,134.1036,-128.7826,-71.1662,269.4523
-13.6168,-165.5529,9.1727,-111.4071,147.6326,-23.2201,294.0361,301.3346,397.8458,649.9960,23.2718,-98.6144,77.9245,13.9396,210.2005,145.6281,-116.4118,-35.2783,379.3911
-6.2448,-104.7249,-0.6823,-51.7874,122.9968,26.1212,337.7076,357.5720,467.7142,662.2067,22.0131,-72.3795,67.1518,47.4313,224.6473,149.8221,-98.9386,13.5868,397.9335
30.7937,-96.5438,23.0569,-65.5397,105.7504,89.9099,370.9048,378.2234,471.2866,667.8779,37.0659,-73.6284,68.3263,56.4975,229.9793,154.3303,-63.4865,18.3140,396.8893
49.6324,-129.0749,48.1155,-109.1235,103.2986,132.7483,394.5024,391.6237,437.3656,625.0370,39.7691,-91.1784,77.3731,57.2706,248.2704,147.7330,-53.0392,28.6261,415.2492
17.4646,-118.4282,29.1446,-80.1222,113.9517,179.4309,403.8817,412.7355,415.2702,618.5769,21.9797,-87.2537,78.9235,83.4750,308.0090,137.7507,-78.3760,81.1262,412.6304
3.3924,-46.4562,9.5854,-1.7809,132.9135,231.8832,423.1343,422.3449,423.3877,639.9117,27.7864,-55.3266,86.2582,123.1548,383.9021,136.0379,-49.8615,112.8422,395.4796
64.0928,21.5304,57.4743,47.6582,164.2814,254.7949,438.0377,408.6818,436.6664,618.4523,75.9222,-25.1259,115.3925,136.3353,367.3432,137.4291,43.2264,110.9728,399.7991
122.0724,37.7232,129.2439,62.1197,199.2361,241.6751,423.2895,418.8729,444.4227,636.5496,110.1108,-24.0386,140.5953,122.7325,276.3777,138.3031,91.1707,131.9662,401.7015
128.1530,30.0558,149.8079,51.9305,214.6587,203.9049,408.8652,463.5200,453.9667,676.8840,113.3639,-35.7323,149.5138,110.9916,278.0408,134.7152,94.2335,150.4297,379.2255
162.9744,49.7468,140.7639,17.0298,204.1277,154.0425,399.6434,475.0510,427.7576,602.7537,144.6567,-25.3710,165.8327,101.1625,348.8529,121.2026,138.6358,115.8988,362.5511
227.8195,83.0765,145.2974,-0.0625,184.1253,128.7688,352.3382,449.3583,343.1962,524.3414,190.4194,-5.6883,178.3599,83.2254,312.6797,109.8818,177.6128,80.6202,371.3202
209.5932,80.5382,151.0650,34.4862,170.0592,146.4144,286.8331,448.7024,274.1867,556.3237,167.3399,-9.1443,156.1703,78.0301,220.0365,107.3617,144.8465,95.1396,394.1831
130.4118,66.3905,151.1212,92.3669,155.8235,177.7770,258.1334,461.8671,265.4579,527.3902,99.6864,-14.5868,120.3285,98.2394,214.9605,95.8503,117.1986,114.3087,410.1233
121.6575,99.5331,153.6138,136.4349,123.4416,199.8872,248.4313,454.8604,246.8614,408.5372,85.2655,9.5030,102.4754,113.5095,217.5706,76.4426,140.1366,91.3976,399.6786
171.8458,145.4016,141.4625,146.8049,80.6676,198.3042,218.6438,457.0255,194.6637,377.8574,116.6733,36.3598,92.8252,100.4474,144.0245,71.9458,142.0530,39.9927,383.2368
177.4126,135.9640,117.4102,124.1901,63.3628,158.0598,180.5642,467.0663,179.8872,373.2294,120.2808,35.4611,84.6315,80.9171,101.5232,74.0105,106.3193,7.5967,394.4981
142.6549,105.6254,118.0548,116.0625,77.7312,127.9372,150.8358,438.6866,192.7003,263.5648,95.2391,28.9332,87.1161,83.0185,132.9268,58.3982,88.8391,34.3961,398.2624
135.4953,121.8989,143.3306,153.5365,82.2475,167.8944,118.4012,383.9991,148.7455,154.3349,84.8271,41.4650,87.8881,98.5837,129.3813,34.3798,104.3129,84.4837,354.7437
168.8898,161.0510,166.7439,189.5028,52.4064,217.7442,72.7955,343.2775,65.2221,126.2691,97.4700,60.2682,74.0329,96.5488,42.3676,24.0742,128.8538,77.6315,311.6371
211.1955,162.5451,189.5903,186.4221,16.6210,186.1037,28.3776,321.3649,29.0702,154.5974,116.9466,65.5829,61.4183,66.1144,-62.6738,28.2129,118.9475,25.4510,302.0581
218.9911,123.6130,200.0114,166.8974,8.8779,95.3316,19.9958,324.2955,47.8779,252.9140,124.5730,55.0315,62.2490,30.0412,-100.1397,35.6400,43.4195,-9.6610,282.8044
169.7052,84.2010,160.3777,145.4941,17.9564,1.6848,51.2357,345.4309,70.4284,339.1832,106.2851,40.5843,60.1350,8.8983,-55.6195,37.2113,-35.0330,-49.7813,250.0808
102.4121,70.9942,91.6968,127.4280,0.6112,-75.0900,76.0774,336.3605,85.1500,308.8344,69.1359,36.2117,33.8729,-2.0412,-30.1945,33.9680,-42.7269,-116.6356,241.6408
70.2896,66.7842,62.9387,124.2745,-49.9616,-99.1436,83.7082,283.6850,117.2761,255.3647,34.9708,37.4540,-7.0331,-8.9840,-84.3447,35.5128,-27.0022,-144.0476,233.7803
68.4495,38.4222,80.0945,108.1759,-74.5132,-65.6639,106.1273,226.9425,158.2589,236.7999,19.0369,28.1802,-23.0175,-9.3232,-118.2353,38.2942,-40.8537,-114.6140,191.6307
64.1448,0.7807,89.4704,62.7231,-40.9871,-30.8707,109.8533,175.6469,151.5280,164.6155,19.9918,12.7206,-4.7223,-7.5510,-82.2251,30.7608,-45.4432,-94.8817,139.7320
52.7347,-5.2336,70.7997,39.0801,-23.8481,0.6259,41.0612,113.4889,85.8902,77.2520,18.4684,9.8647,-2.0313,-6.6646,-71.1119,21.4220,-33.5207,-95.5401,100.2397
48.7157,11.3056,45.7444,50.3325,-88.2880,55.5549,-44.1163,50.9069,39.1244,44.1699,2.8643,21.0608,-41.2157,-0.8851,-96.1885,21.2685,-41.3551,-87.1804,65.0563
51.7518,19.8176,28.5055,50.1174,-161.7948,90.4142,-70.4184,6.4346,41.5762,-15.2594,-10.3409,33.6685,-75.3194,5.5769,-88.7077,17.2338,-52.2713,-84.7281,26.5363
40.3565,25.7661,15.6666,51.6703,-151.6321,90.0016,-77.1042,-18.6560,10.8329,-91.4180,-12.4593,40.9346,-71.4544,5.8468,-86.4018,0.1487,-63.5004,-86.6079,-26.9389
13.5876,35.7473,-3.1040,78.5649,-99.0730,107.7612,-118.2028,-40.8993,-80.2041,-94.5151,-12.9462,45.2835,-56.8049,5.7148,-118.3463,-15.5594,-111.0593,-72.8557,-91.0177
14.8962,44.4032,-35.7076,75.0006,-89.3214,111.0378,-161.2053,-88.2475,-145.2323,-105.4511,3.5181,56.3117,-48.8159,0.2044,-111.5391,-21.1441,-153.6855,-87.7114,-141.4224
53.4290,57.0505,-74.2207,19.4025,-121.4198,35.4257,-175.8710,-166.0031,-159.8265,-190.0344,42.8613,74.2192,-43.3838,-25.4203,-74.5812,-25.4248,-131.5870,-161.8955,-192.2153
54.9994,45.8125,-105.0253,-39.5623,-164.0478,-48.3813,-189.8064,-248.2430,-185.9871,-250.5962,45.2573,71.3587,-62.0840,-59.7304,-82.7335,-32.4191,-94.9527,-230.0239,-259.8161
-22.1691,-26.6369,-133.3200,-93.6495,-215.2646,-72.8873,-218.0815,-313.9430,-216.7980,-249.3276,-24.5919,31.0615,-115.9955,-81.1868,-99.7559,-34.1474,-103.7163,-248.0679,-300.0980
-110.3433,-96.9727,-169.8297,-132.5196,-250.5835,-97.0378,-237.1454,-345.6729,-198.3893,-212.3345,-96.1235,-6.9811,-162.3690,-89.3955,-72.1085,-26.4480,-131.6012,-250.1995,-302.5421
-139.8546,-77.9426,-199.1177,-106.1645,-228.9969,-131.2146,-232.1553,-329.3591,-156.8038,-141.0302,-101.7324,-1.4725,-160.7195,-84.0003,-38.9222,-19.2206,-144.7107,-239.8308,-320.0809
-114.1983,-17.4478,-193.7143,-53.9281,-170.3554,-107.6477,-218.4266,-296.0577,-148.4068,-116.5679,-65.5639,23.2103,-123.2017,-62.9578,-23.4392,-22.2698,-134.4621,-186.5201,-335.4281
-60.5414,5.3415,-159.4218,-51.5532,-135.5823,-50.2536,-212.8861,-285.5693,-161.7690,-174.9456,-28.6739,32.1191,-85.7718,-44.1667,-13.5538,-27.6064,-101.7849,-115.2520,-295.4176
-10.9901,29.1431,-135.0409,-43.5848,-139.3224,-15.1288,-204.1979,-279.5042,-158.8230,-195.6065,-0.1479,43.9759,-68.6158,-31.1731,-11.0552,-26.3744,-77.6241,-63.4875,-248.3426
2.0832,91.2355,-134.2258,28.6001,-144.1276,27.3644,-175.7689,-255.8259,-137.4679,-170.7538,11.8959,74.9549,-63.4574,-0.1495,18.0054,-28.2690,-73.8699,-9.6104,-243.4846
-4.3096,130.2984,-120.0162,89.4967,-121.8710,82.8519,-139.5005,-228.5614,-107.3893,-193.3395,10.2159,93.5203,-48.2281,40.0069,86.4822,-35.9459,-56.5575,63.2954,-223.2427
9.8059,110.6129,-67.5680,92.4713,-80.3887,104.5641,-106.2719,-186.7402,-54.8524,-183.0556,15.4670,81.2533,-20.7307,54.5220,116.3046,-30.3420,-38.2657,113.2891,-153.6155
29.4877,70.7552,-21.0315,77.9700,-38.6222,119.0479,-60.7488,-113.1476,25.8537,-81.9944,25.5194,59.2594,1.7498,53.2562,97.5959,-6.3971,-62.8541,114.8763,-82.5298
14.7504,33.5633,-40.4040,38.1115,-6.0350,171.9143,-4.4234,-43.4586,86.9859,-18.3556,19.3300,35.8246,11.3688,64.7023,126.3265,16.1429,-97.3067,108.5400,-34.5104
-32.6758,-0.5041,-109.4044,-32.0346,11.6121,214.5023,30.3277,-6.7954,84.4293,-3.6311,-6.3745,4.1333,6.7230,75.9922,189.6091,27.3627,-95.0749,122.6402,-3.7991
-81.8091,-17.7302,-148.2168,-55.0480,20.3226,201.7993,28.5252,10.3838,66.3307,60.7326,-37.0179,-20.1154,-9.3250,71.3420,188.5311,34.1547,-83.4475,129.9298,1.4759
-96.9772,-10.6261,-116.6151,-6.6696,48.0665,184.5794,1.4255,5.2609,93.5931,114.0513,-45.9779,-18.2126,-9.9977,69.3279,144.0212,38.3947,-82.0003,130.8486,-16.4246
-57.6937,24.3603,-56.8645,47.8376,99.2019,220.3881,-39.9335,-23.6459,111.9499,85.2641,-13.8646,3.0074,21.7933,82.7902,122.0510,34.3786,-63.1596,173.2470,-50.0839
4.1243,86.1923,-23.9353,79.4675,123.6958,290.8629,-84.3036,-36.6985,48.8377,27.8810,29.7445,26.6948,49.3388,98.4511,93.8482,19.5278,-15.6796,243.5901,-91.4995
34.9788,130.4704,-22.8096,81.6875,92.6674,328.2353,-122.1484,-21.2010,-38.1564,-40.9312,37.7346,35.3201,37.4827,99.3496,36.9069,2.2873,48.0527,268.3927,-106.1938
26.6406,109.0302,-36.1847,29.3630,54.8469,291.1862,-143.7557,-11.0557,-56.7107,-97.9721,16.6868,16.1141,11.7700,79.1109,-1.4870,-2.0447,92.7353,240.8613,-89.2552
-5.0812,45.5923,-56.1561,-37.3888,60.9836,224.7094,-126.7334,-13.7986,-26.9688,-63.0270,-2.9455,-16.3134,6.4746,53.0798,4.8588,6.4499,66.2623,209.0751,-89.8894
-53.4554,-11.2406,-64.9129,-51.2640,98.3565,205.9625,-78.8650,-14.0335,-26.6836,20.6805,-23.0061,-38.4459,14.6342,44.4971,32.4842,10.7073,-12.7754,179.9566,-109.0893
-89.8377,-61.2128,-49.1530,-51.7307,129.2599,229.7135,-60.8684,-13.4674,-75.2022,58.5653,-43.5986,-57.9773,21.1290,43.5506,47.6310,7.3472,-67.6226,154.5231,-105.7397
-82.4013,-115.1524,-35.6910,-110.1825,132.1072,231.5239,-87.9288,-11.6958,-118.3168,84.2852,-43.6720,-86.9084,26.5128,26.0480,49.6072,9.3766,-92.5157,157.1443,-97.8524
-55.2310,-153.1017,-46.2808,-186.1422,114.9081,197.4786,-89.1585,-3.4027,-96.0308,115.2963,-25.9601,-105.2776,34.1399,6.8400,91.0091,18.0137,-117.5272,162.0894,-103.8809
-54.5632,-154.9191,-58.8154,-197.9812,112.8022,156.3332,-38.6080,5.2691,-32.4575,93.1596,-16.7354,-97.2221,43.9464,9.9204,172.1983,21.6396,-114.0273,122.8323,-85.9474
-82.2110,-125.8827,-69.2961,-153.1083,128.0031,109.0181,-3.9021,7.9286,-8.0177,27.3964,-25.7221,-76.7684,44.1896,16.9463,182.6543,14.6389,-77.9910,61.2635,-52.6913
-104.4513,-88.0988,-99.6307,-115.2396,112.3135,43.6728,-13.1994,-5.5558,-15.0947,-49.2835,-39.2367,-54.6183,23.4478,6.2533,99.3834,2.7735,-60.5793,11.5491,-55.1868
-91.5856,-60.5810,-115.9955,-99.7555,67.7193,-18.7125,-15.4947,-41.5482,19.1008,-121.0147,-33.0808,-28.4092,6.9028,-5.6121,62.9501,-3.4950,-61.1036,-27.9141,-77.0324
-47.9456,-39.5729,-70.0260,-64.2302,60.0290,-41.6364,7.1879,-73.0494,58.8748,-136.2363,-1.5676,-2.9154,26.0782,-1.2831,102.3841,-6.7096,-55.9306,-29.2223,-80.6790
-13.3228,-10.3651,-4.6460,7.1941,91.4832,-20.2027,17.4799,-87.3174,20.6623,-131.4632,23.0837,17.7903,55.7669,10.2010,71.8025,-21.3615,-63.7079,29.2329,-76.0986
-2.4111,24.1911,17.5128,65.9306,104.0405,14.8669,7.3901,-122.6525,-29.5396,-198.0827,24.9268,37.4590,59.8239,20.2105,-32.3681,-37.6303,-63.8831,87.8344,-68.8900
21.1681,51.3400,20.7020,72.9384,100.8821,45.5839,13.8510,-175.6414,17.8025,-253.9355,39.3842,52.4471,62.2560,33.9010,-39.2332,-30.0684,-14.0732,110.4510,-62.4651
65.7406,63.9729,42.7472,52.5036,113.6967,90.3852,53.9515,-191.3326,96.7487,-224.5783,75.0842,56.2175,88.1890,53.4543,64.4154,-14.2998,34.2265,149.1382,-80.1746
82.8125,54.1030,64.1727,42.6747,118.3335,157.7399,91.1732,-185.1513,83.9859,-242.6597,82.0395,52.1111,103.3798,70.4672,109.8898,-22.7838,19.7062,207.9690,-98.6470
51.4590,27.9110,70.7955,57.7711,105.6140,214.9308,82.4048,-199.7206,16.0155,-317.7083,46.2386,45.2757,85.1503,78.1865,53.1259,-37.9549,-18.0489,218.2737,-73.9620
8.3487,19.2903,81.8930,104.9728,124.0275,232.2685,46.8240,-186.1617,-7.2005,-277.7554,16.0750,40.7176,71.2900,83.4433,17.1892,-33.0482,-32.2565,183.6079,-36.0245
-9.5064,43.9987,106.6642,167.8353,178.1850,223.6096,43.9738,-110.6156,-3.6392,-178.4523,18.0044,45.7395,89.8503,94.7960,53.4073,-30.5624,-26.4599,167.3464,-23.3768
5.2684,70.1241,130.1800,195.4521,204.7868,219.6967,75.6204,-54.2442,-31.9657,-204.4150,34.2817,57.0315,114.3755,104.0877,90.1374,-46.7924,-4.0738,165.6036,-10.7129
32.5520,75.3162,122.4889,169.4020,177.8744,216.3864,83.0173,-71.7039,-54.1842,-297.0778,49.3597,66.1448,115.2509,100.7233,97.2229,-53.8965,17.3448,137.9327,11.7530
44.9081,84.2384,78.0340,137.7796,141.8971,171.4982,52.7955,-114.8662,-21.0671,-329.6127,62.7486,77.6756,103.3862,89.6505,116.4899,-42.6417,24.5377,93.5537,14.6856
51.0876,107.7310,56.3651,132.2087,136.8162,72.9474,29.0545,-146.8573,2.9668,-333.1606,79.6080,90.3336,106.0651,72.5014,143.1869,-41.2651,60.4724,59.8755,-3.9145
78.6751,105.9547,98.5701,112.8155,150.4230,-19.5602,20.0516,-168.9305,-57.6975,-346.4822,100.9755,83.6664,125.1820,41.8507,132.2309,-58.5994,124.6026,42.3848,-27.2966
109.3590,58.7839,143.6250,53.3046,151.4912,-50.6486,-4.4522,-165.8404,-139.4402,-352.3375,112.0980,55.7345,137.5644,9.8856,101.9159,-72.1063,130.6786,40.0721,-41.2735
107.1691,9.7578,144.0237,8.3501,140.8889,-42.3503,-34.4392,-135.9765,-131.4769,-327.7983,101.8529,32.6932,131.2824,-0.2549,101.1287,-64.0072,81.2268,39.0777,-21.9649
91.0969,1.8496,152.8716,26.2543,142.6396,-37.5936,-30.1407,-101.0015,-51.0520,-234.4847,88.6881,26.1529,120.7440,7.5285,118.5375,-38.9952,86.1397,15.8601,25.4164
108.8660,36.3296,204.3983,79.1290,161.0707,-35.3784,1.4747,-61.7141,0.6468,-110.4564,101.3751,31.6696,125.7306,15.4791,118.9402,-19.0013,166.3336,-15.1922,58.8710
169.5243,101.1265,267.9095,138.1216,184.9656,-23.0248,13.0030,-21.8907,-7.9611,-61.6516,144.6589,54.1800,150.9940,22.9156,98.3625,-19.5253,247.3400,-13.5362,65.2437
231.2741,160.3744,328.2817,200.0382,201.7543,-9.1284,-10.2341,-8.2322,-29.1972,-72.0061,186.6470,83.3421,176.2543,30.4250,68.1318,-29.3831,288.7700,10.7920,59.2427
237.3362,156.7568,352.8907,216.6393,182.2747,-10.6556,-39.4511,-22.0054,-26.1510,-73.0712,183.1622,87.3671,167.4767,27.1704,58.9618,-32.0074,276.1172,5.2984,39.6754
183.1218,105.3868,283.8371,153.8367,114.0453,-41.6614,-63.6640,-49.8835,-15.1137,-114.9433,138.2783,70.2198,121.8798,12.2710,97.1131,-32.9250,215.3041,-37.4798,-3.3389
128.3276,92.7468,172.1460,93.9744,48.5981,-97.2203,-110.7189,-115.0256,-38.1649,-231.7852,105.3302,72.3360,79.2387,-3.5500,134.1117,-46.2065,173.0601,-79.5316,-85.7178
102.1515,133.7084,130.1995,118.9337,42.2879,-150.6106,-184.3321,-232.0617,-100.5138,-367.9396,101.6781,101.3512,66.8279,-14.7436,112.3925,-73.7911,185.8984,-107.7482,-211.4652
76.3910,166.5925,141.8654,180.1252,76.3063,-186.1707,-234.6664,-358.4211,-155.5374,-512.4456,98.3383,131.0929,73.5704,-18.0004,76.3369,-106.8456,199.6482,-123.0321,-329.3215
57.0327,174.1586,132.8243,201.7546,86.2521,-198.9890,-236.4137,-454.6550,-173.4452,-656.1060,92.0320,150.7392,79.1292,-12.8136,76.3248,-131.7271,181.0990,-103.0643,-390.5477
68.1159,162.2709,119.4994,179.0031,37.6824,-177.3790,-225.6225,-527.6219,-167.5028,-730.1577,88.2225,156.0308,65.3648,-10.4380,71.8458,-137.9644,152.9641,-57.0278,-415.3479
65.0846,110.7375,115.2215,132.0116,-34.7709,-143.4269,-217.1873,-585.9644,-142.5927,-728.7054,62.7647,138.0991,28.9058,-16.9855,52.2269,-127.1009,117.3156,-43.9093,-418.7911
10.5146,47.1088,78.0568,88.4679,-60.7822,-150.5196,-187.6634,-619.9167,-105.1854,-703.0197,20.7793,112.6385,0.9560,-21.9035,73.1105,-111.0931,75.0925,-73.8695,-385.1389
-47.0251,17.7450,26.7310,70.7774,-43.0990,-193.9061,-160.3595,-633.4057,-96.5739,-676.8189,-5.1703,99.3946,-3.3554,-24.0329,108.5219,-103.2778,48.9502,-94.2397,-342.2581
-75.0603,-19.1715,6.3175,42.6647,-63.8109,-219.7466,-174.7975,-646.0422,-121.3465,-670.4218,-31.6393,80.8508,-23.2075,-38.5054,72.2540,-101.5594,23.1058,-98.3296,-311.3948
-98.9689,-101.4102,-16.4732,-34.5142,-126.9651,-227.6660,-185.4142,-659.2238,-113.3504,-639.0405,-73.5946,40.9592,-69.4475,-66.9191,-19.7592,-82.3628,-26.3278,-125.8176,-254.3433
-109.8342,-167.3916,-68.5595,-126.2070,-146.8443,-250.7319,-138.3953,-651.8817,-49.8540,-482.0493,-83.5420,1.0437,-91.2849,-95.1067,-82.2197,-35.7782,-64.2419,-171.4543,-182.4314
-87.8873,-182.0917,-110.9871,-192.6919,-120.4995,-271.1479,-85.6231,-609.3192,-2.4923,-260.7851,-51.2376,-23.5686,-78.5738,-115.5471,-95.6768,9.9261,-65.8770,-205.3976,-150.3531
-73.2031,-185.4292,-128.7429,-225.7224,-109.2531,-258.3379,-82.7814,-532.4649,-21.8779,-125.1111,-35.4793,-41.0897,-73.7691,-124.3903,-97.0579,30.0635,-65.6035,-229.5219,-124.3363
-87.8477,-184.5810,-132.4349,-210.1096,-95.1808,-236.7840,-89.8618,-427.7090,-57.7408,-49.9917,-46.0455,-51.3268,-75.0867,-118.7021,-102.7289,34.9309,-79.0569,-243.9609,-58.3297
-88.3961,-174.3054,-109.5094,-177.6603,-54.6079,-251.8102,-73.8843,-314.3210,-34.5269,21.7456,-41.9947,-53.7789,-56.3622,-113.0927,-97.1358,37.4984,-86.8794,-242.4645,-7.5282
-59.6373,-186.7533,-80.9335,-203.2205,-43.7706,-310.5668,-64.0181,-229.9492,34.0246,36.1759,-24.3979,-61.0125,-38.9583,-127.8662,-76.3734,37.4056,-92.7331,-255.9731,-11.9505
-41.2396,-215.1491,-92.9383,-268.5718,-75.6288,-383.5783,-63.6230,-195.3878,57.3355,42.2367,-16.2507,-74.6240,-46.0785,-159.4491,-77.1187,39.3717,-105.3593,-309.4156,-31.9375
-53.8286,-227.4324,-118.3526,-295.4056,-92.1410,-448.2734,-54.5101,-184.9832,7.7449,139.4931,-20.6178,-89.0761,-61.0442,-190.3277,-116.1374,44.0157,-108.1714,-367.6984,-48.7867
-77.8424,-239.9134,-102.1393,-287.5373,-88.9923,-503.1274,-67.5351,-164.1602,-42.8759,239.8968,-36.8903,-106.2961,-70.3639,-210.9427,-133.0956,40.6382,-94.9253,-391.1682,-68.7948
-86.3233,-250.0219,-70.1562,-278.8765,-93.1568,-520.3735,-123.2103,-132.9552,-67.1675,262.2243,-48.8632,-116.3368,-73.1067,-213.1209,-84.5345,31.8404,-82.1917,-379.3700,-80.0898
-78.6553,-227.8436,-78.3064,-266.9117,-88.6148,-453.1696,-167.1542,-100.5202,-109.4974,294.2943,-40.3534,-112.7680,-66.7429,-192.1368,-23.1444,32.0942,-83.9389,-336.2294,-82.7675
-87.2887,-217.3438,-119.7631,-274.9814,-74.6246,-335.8354,-150.3049,-51.4089,-136.6136,365.5799,-42.7511,-121.5515,-64.8145,-162.4459,4.4061,44.7246,-107.1267,-270.2984,-62.7389
-121.3877,-258.9165,-151.3238,-311.9728,-76.1901,-264.1395,-90.1278,25.5865,-69.5696,423.0127,-76.8133,-151.5226,-77.1151,-140.9228,24.9238,64.9283,-146.4311,-213.7212,11.5015
-145.0798,-289.6664,-156.0327,-320.7226,-85.5775,-243.9312,-19.1782,106.0315,42.1720,475.9424,-104.5299,-168.4790,-86.0246,-122.6592,61.0186,82.5243,-177.3046,-175.3323,91.8239
-153.7817,-273.5434,-148.6996,-288.4569,-92.4722,-203.7676,44.6596,167.4130,93.5563,506.9698,-117.3020,-164.7138,-88.5473,-96.9342,98.4732,82.3801,-179.3098,-123.8414,108.7737
-176.5273,-251.3258,-140.3929,-251.8418,-98.7265,-137.1689,79.1556,226.3712,96.7380,486.5560,-145.6737,-164.9097,-100.2547,-67.6299,110.6205,70.3556,-154.1742,-58.9080,110.8333
-190.7173,-215.2995,-124.8042,-193.6914,-83.9240,-81.4585,74.5144,295.8070,106.4029,489.7113,-164.2294,-159.2415,-108.5481,-43.3823,67.7604,69.9017,-118.9457,-26.8228,153.1540
-159.5161,-143.7309,-116.0126,-123.4219,-57.5090,-31.7203,57.4273,345.5572,106.3985,523.5157,-136.6523,-129.8314,-99.5988,-27.5258,-4.0496,78.6663,-93.7336,-41.9514,173.9024
-110.0799,-84.3765,-142.8120,-118.0681,-68.1638,11.1056,56.5174,349.0331,84.0628,480.4179,-95.1947,-99.8405,-92.3499,-21.4481,-26.5547,77.7524,-77.6000,-68.6738,136.5457
-70.1923,-60.8819,-174.6089,-161.1399,-102.3037,12.3581,64.0957,326.1366,80.1455,394.6161,-66.4749,-85.2068,-91.7077,-25.2978,-3.4580,73.5082,-50.0082,-90.8951,104.7226
-27.5437,-50.7267,-152.4185,-170.7842,-117.2469,-33.1608,64.9911,303.8561,120.4685,367.0663,-37.9808,-72.8713,-83.7043,-37.7331,-1.9695,77.3324,-19.5468,-127.3142,106.5971
5.6283,-63.2238,-102.4901,-168.1524,-138.3577,-96.8291,68.1513,275.8845,174.2740,334.2005,-22.0051,-63.4802,-79.5422,-54.8339,-2.2454,76.2397,-14.4151,-174.7788,104.7949
11.1712,-81.0695,-89.4052,-185.3962,-169.6502,-142.9319,72.9406,231.2134,170.5470,248.7525,-23.1811,-59.0957,-82.9792,-66.0439,32.9179,60.7550,-15.0111,-200.9413,79.9015
11.5884,-52.8174,-96.4122,-169.7897,-148.1066,-134.3326,53.7507,187.7173,76.1214,199.8455,-10.2149,-46.8449,-68.6603,-62.7295,51.4201,41.4540,11.1332,-195.6215,35.4148
5.7070,-18.8539,-84.4862,-126.2444,-89.9538,-86.9500,17.2251,171.9509,-23.2579,191.4422,0.9453,-37.4439,-46.3050,-50.7142,45.2043,26.1305,33.3848,-179.1947,-8.6451
-31.5621,-35.0337,-79.0456,-113.4791,-82.1684,-64.1624,7.6585,183.0073,-33.5238,148.9108,-28.8684,-44.9714,-52.4906,-38.2902,74.9427,14.7081,23.3446,-161.2286,-11.4876
-59.8416,-29.6295,-95.7286,-91.8972,-111.8954,-57.3037,27.0849,199.3206,-14.2584,103.7800,-57.0848,-39.5780,-70.2896,-20.4940,104.2593,8.2819,20.0103,-131.5194,32.4054
-30.7362,46.9006,-99.9494,-15.7848,-104.2718,-7.4838,37.2552,220.2815,-50.3937,111.4798,-31.2553,-3.5784,-58.9767,5.2496,69.7305,6.6719,36.8934,-95.1228,81.5931
11.7506,99.2445,-85.9466,37.6244,-71.8166,50.5553,38.1025,259.4596,-69.5335,140.5809,6.1454,22.0972,-34.4200,22.2160,26.9113,11.0098,28.0511,-80.8395,110.1876
15.6908,68.1325,-76.0675,9.5102,-70.3957,50.9393,49.3358,291.5327,7.2056,143.2529,1.5597,9.4985,-35.8532,17.3706,12.7382,22.1855,2.2391,-90.6170,119.0297
6.1510,29.2288,-56.0028,-25.2945,-88.1085,38.8662,57.6008,278.4822,95.0181,109.5923,-23.5804,-10.9908,-53.8085,9.4293,-21.3960,28.7181,17.5442,-72.2747,111.7115
14.4896,49.2738,-10.0064,17.0027,-74.9973,73.0797,55.5163,242.7810,100.1168,81.6947,-26.4751,-4.4663,-48.8992,23.8479,-51.1392,19.9738,56.8399,-0.0590,93.6778
34.1552,102.0171,29.4453,100.2971,-32.2719,102.9824,58.5929,225.3329,65.8107,106.5712,0.0844,24.0384,-17.5087,46.0519,-26.5562,7.0152,61.1124,56.6519,61.6154
55.5760,127.8230,33.6761,123.0531,-10.1383,74.1074,52.5003,208.0863,56.6089,126.7730,31.0300,43.3138,4.1518,40.9032,-9.1558,1.9924,41.6992,42.3215,7.1111
69.8199,113.5126,23.1383,75.3442,-12.1745,29.2287,10.4859,165.7136,54.7843,69.5896,43.2484,39.0436,6.6780,17.0582,-29.9832,-4.0321,37.0739,27.5754,-59.5159
70.7128,106.6640,22.4553,51.9100,16.8026,32.1068,-43.9876,118.3063,28.2005,-3.9265,49.7276,34.9329,23.0000,15.6125,-10.9474,-17.6584,38.1993,78.0717,-120.2944
62.4587,116.7253,17.1385,66.3819,58.9681,81.1945,-64.3119,73.0227,-0.9370,-49.4885,58.8149,43.7168,46.5093,36.6167,53.0417,-26.3984,28.7491,120.3869,-156.6035
28.6974,75.2724,-11.0978,28.1982,29.9520,124.7849,-40.7173,20.7604,5.7155,-138.1090,28.3639,33.2080,25.3982,45.3996,85.9160,-25.7699,13.1039,94.9946,-145.0841
-42.2121,-14.7005,-36.8060,-40.7829,-34.0118,130.3312,0.1647,-6.4181,30.4260,-253.1407,-48.9470,-4.7511,-24.5642,41.6508,86.0164,-31.4238,-7.6994,83.4150,-99.8458
-89.8167,-41.0417,-28.0438,-26.0518,-18.4362,123.5098,24.9923,11.4390,17.6837,-287.6169,-89.1080,-20.1042,-28.8734,48.9634,74.4250,-46.4049,-21.0740,134.1857,-64.5456
-49.6082,29.1418,-8.5317,45.2926,46.8326,134.0739,25.9662,35.0309,-28.6897,-252.2985,-42.6235,9.5998,12.3151,60.1645,21.5414,-49.6539,-0.5399,165.1060,-34.6945
36.9348,110.7817,-9.0361,72.9211,63.2984,148.3636,25.0810,49.8646,-50.7471,-218.6960,29.7377,45.2970,41.3365,61.0710,-43.1951,-36.1844,48.6161,150.1088,7.6456
87.4441,152.4390,5.0262,82.0049,60.7121,169.7774,30.8057,81.1832,-45.6616,-199.1332,64.5619,59.3876,56.4712,69.9566,-28.5894,-32.0308,91.4956,173.7312,24.0271
89.0315,158.8939,56.9976,118.5340,87.3180,226.3964,31.2131,108.6032,-55.3401,-210.1786,63.8076,60.9147,77.6311,97.7608,64.6607,-47.5038,103.9248,238.0420,1.4666
71.6395,135.1273,79.1794,127.8163,87.4899,269.7188,32.9555,99.2311,-71.2669,-241.8661,49.1102,57.6119,79.6837,112.9836,137.1049,-56.8254,81.3399,239.8571,-9.6796
56.8978,100.6407,25.1562,70.3272,36.8336,213.5939,44.6783,78.9475,-73.0318,-217.8577,39.4753,47.4560,52.6952,85.5110,128.6835,-45.5995,43.0797,154.7029,-6.4779
60.9956,65.8311,-35.0818,-18.9678,-9.8723,89.9598,44.1057,65.9759,-94.7506,-143.8253,46.8634,28.3243,31.1217,29.6375,76.9276,-33.3817,16.4523,63.2574,-27.1825
76.2219,11.6660,-32.4786,-93.7582,-29.0303,6.2948,15.0691,38.2868,-144.2668,-106.3150,55.3172,2.5163,29.3811,-16.3642,48.4210,-33.8615,-8.0686,22.1084,-52.1566
70.9983,-39.9791,7.9768,-110.0145,-17.3346,-11.0689,-22.5289,13.3865,-152.1549,-111.7617,45.9402,-15.5399,35.9489,-28.2444,52.9037,-37.2809,-40.8778,29.5693,-49.3462
48.2435,-37.0296,51.1524,-53.7970,38.8209,10.8141,-38.6996,25.8322,-84.7743,-138.2689,31.1030,-12.2876,50.9558,-5.8021,55.6733,-37.1207,-33.3052,69.4195,-26.6652
42.8004,9.2973,95.7812,25.9749,98.5540,76.8408,-14.1070,50.7579,-11.8565,-203.2129,26.7162,5.8760,69.4455,35.4375,44.0158,-36.9091,37.5817,117.3143,24.1600
52.3408,48.0173,121.9117,80.6894,108.9696,167.2182,40.8606,69.3202,1.7548,-258.2238,23.9826,21.7737,72.3695,71.8737,16.3218,-35.2247,99.4571,145.1797,110.6584
47.8543,58.9356,112.8668,98.6879,92.8990,212.8844,86.5524,116.2045,-10.4757,-243.3702,11.0372,22.0101,58.7555,84.4996,-34.3703,-29.1533,107.0894,146.0979,191.8524
36.9083,54.7447,94.9496,86.6457,83.3895,197.3816,116.0386,182.0224,-0.3968,-214.5752,-2.4522,11.4802,47.2032,79.1514,-73.2294,-24.5711,108.0751,136.3101,238.0256
43.8225,77.1571,85.1998,94.4315,78.5150,181.6361,155.5172,203.2413,-8.9959,-213.6095,5.0341,19.3398,50.9390,81.5990,-65.4246,-28.9069,129.3241,137.4246,254.1454
59.6788,146.4242,80.6429,163.7587,100.7468,206.3929,181.4371,181.9746,-79.2271,-181.3396,33.6120,51.9305,70.7030,99.6040,-54.0590,-38.5209,150.0648,158.9263,236.0967
70.0295,195.4896,105.3320,229.1392,156.3586,249.5621,152.8849,170.0868,-141.5397,-116.0798,55.7964,67.5338,93.9574,112.1306,-76.7415,-42.3834,170.2356,190.1308,191.8143
82.9455,170.4342,158.5067,219.8907,180.2774,279.2012,98.6615,153.7707,-133.4503,-90.3636,56.4620,49.9434,100.0015,105.7418,-106.0191,-39.0406,178.0399,218.3277,143.9541
91.2672,134.8057,173.9661,189.5250,144.7554,295.4584,54.0221,98.1655,-123.0628,-90.4640,47.0751,37.3254,81.3841,92.9351,-138.7520,-36.2152,143.6654,242.3940,87.0860
78.4152,146.0076,134.1894,198.2361,112.6788,312.2096,5.1830,45.1941,-152.6598,-41.2932,40.4015,44.5579,56.9621,89.2068,-166.1418,-30.1909,101.1907,248.4612,29.1046
75.5312,165.1864,110.1846,209.7868,116.3463,316.8574,-30.6788,38.2219,-139.3330,34.4445,52.8292,53.9201,56.2588,93.7324,-110.2027,-14.0535,97.1805,211.7164,6.6340
115.7581,167.4879,127.3909,196.7769,117.8212,277.6084,-19.9185,36.1103,-73.8475,21.8007,93.0473,70.7101,82.4108,92.9695,7.2912,-7.1969,98.8364,150.1804,2.4132
150.1746,176.5367,143.9471,198.4185,100.4393,203.6318,-6.5157,2.8487,-65.7839,-111.2206,119.5761,97.1486,99.4261,80.6259,32.0747,-31.0276,82.5023,118.4131,-23.9012
127.3651,192.9948,156.7721,244.8663,86.4446,156.4968,-32.2879,-23.2143,-107.5298,-231.2265,95.0076,112.0668,84.8943,74.1213,-39.2082,-62.3850,83.1401,128.4873,-47.1012
95.9504,209.9586,178.3720,310.1106,89.3373,176.1071,-48.6723,-20.6604,-91.8589,-219.8680,67.2894,119.2206,70.0663,90.0879,-57.6805,-65.3681,91.5596,149.5465,-46.1353
105.4776,225.1214,183.7603,335.5576,114.9825,233.9830,-27.4403,-21.0939,-51.9070,-145.1589,82.0234,126.3437,83.7334,110.0532,-31.7386,-49.2224,77.7913,177.0265,-50.0707
117.3223,211.3631,180.2541,299.7458,163.9996,270.1904,-12.3560,-18.5443,-72.5930,-105.7168,97.1954,108.1007,105.9522,107.1757,-70.4127,-41.0294,79.3005,214.5106,-51.1614
110.6578,169.6167,195.4937,247.2150,206.8889,244.1062,-11.0647,22.3912,-76.1461,-58.4735,90.5297,70.5053,117.2333,87.3354,-116.8795,-34.1655,104.3838,225.8725,-24.8351
115.3241,140.5394,184.4111,202.5896,206.8130,164.7551,8.1057,77.2456,16.4986,41.3548,98.8084,54.2972,121.6709,67.9283,-76.0000,-12.1833,85.7680,192.2744,-0.4736
100.7710,116.1077,113.8726,148.2885,170.5956,92.3049,33.4790,105.8208,100.3421,137.1784,97.4528,45.9283,105.9150,51.2685,-23.3777,13.1476,27.8054,147.9159,13.8514
27.3114,67.6705,56.3147,110.2233,131.7400,70.2126,50.4532,131.5296,91.8000,199.1237,38.3153,13.5743,58.9151,38.7712,-45.7979,25.3636,5.8224,102.0052,57.0138
-29.2121,26.4790,49.9627,100.7039,94.4101,63.2533,91.7785,180.6538,81.3666,244.0344,-17.8262,-14.1002,15.9348,30.1288,-83.8421,31.4895,16.9449,31.8460,116.2472
-1.3748,10.6928,27.5769,43.7519,47.7672,30.5158,158.9253,227.8103,122.3127,254.0172,-4.8643,-18.9009,7.6902,14.6732,-73.3358,41.4442,10.3960,-27.5478,148.9780
28.5804,-22.0666,-28.2376,-63.9797,13.8735,12.3837,186.3309,254.8860,130.4908,235.8372,13.0064,-37.0637,8.6348,-4.2434,-61.8177,48.2359,-23.4102,-19.5214,162.1638
-25.2758,-80.3716,-59.1041,-103.4625,9.9233,45.6588,147.3864,269.8811,96.4995,243.1033,-34.8449,-71.7988,-14.5843,-7.8969,-98.2474,47.1045,-91.2191,26.6842,165.5224
-112.6696,-122.6102,-64.6525,-59.1891,0.7952,74.2142,109.2818,268.5351,129.4432,272.5132,-107.0247,-86.8607,-54.2903,3.2533,-129.3780,48.1819,-177.7503,49.9220,151.3064
-155.3028,-128.7036,-81.4488,-31.2608,-34.9515,59.1626,125.5090,255.3848,227.5025,274.6722,-143.2685,-80.8986,-83.2195,16.0382,-95.0100,54.6590,-207.2581,59.8755,145.6778
-153.2787,-108.5249,-100.1415,-31.6894,-62.2092,64.6959,151.9775,253.0618,262.1786,243.7036,-145.2900,-72.0773,-90.7585,30.3542,-48.6804,55.7727,-175.0561,85.2471,165.7209
-146.1613,-93.3413,-113.4742,-24.6319,-70.0531,123.9702,139.8273,255.9451,214.7603,219.8216,-142.5982,-65.6634,-93.3549,42.6333,-60.9285,52.3836,-183.2383,104.0733,175.3798
-152.2750,-110.5232,-125.2817,-29.8568,-86.3926,162.5815,121.7460,248.6381,186.5844,260.5931,-149.7601,-70.6351,-106.0750,40.3147,-84.9280,57.5676,-238.7769,95.9596,156.4392
-144.4374,-120.1055,-97.7645,-26.5963,-91.0647,145.6616,124.8961,252.2548,195.1606,378.6113,-144.5717,-79.6847,-107.2198,30.8419,-66.2144,69.0220,-231.6980,81.0375,138.7698
-95.8894,-72.7573,-23.1100,32.4471,-49.6129,134.8656,118.9440,280.2195,187.1674,484.5913,-102.7406,-65.7182,-75.7033,33.2878,-49.7654,74.6785,-154.5364,69.9659,143.9725
-54.9202,-18.4156,23.7260,97.2081,-11.4208,141.6904,110.8735,301.3041,184.5687,506.0355,-64.1346,-38.4794,-47.4330,43.6992,-49.4028,76.1187,-106.9215,43.2920,163.5217
-71.3086,-15.5323,5.6232,105.2913,-41.0847,101.2647,138.5871,295.7356,214.7279,498.2635,-74.1393,-29.4775,-61.8077,42.4564,-14.3329,77.4710,-106.6916,-4.5780,175.5528
-83.2513,-23.4611,-27.8440,75.8806,-107.9225,12.3055,165.2809,281.4033,212.8908,510.6663,-85.8402,-30.4936,-88.8731,21.3883,23.4575,74.8542,-96.4405,-55.0408,171.5847
-30.9297,-10.0832,-52.1141,19.9515,-140.3839,-62.4144,140.5557,266.4585,151.8145,498.8910,-45.4544,-25.7112,-84.2500,-12.2723,3.1515,73.0857,-66.8661,-103.4332,172.5547
26.0011,-11.7933,-84.2531,-66.4347,-123.2747,-110.8253,101.2055,237.2292,104.6805,442.5096,7.5874,-28.1362,-58.0192,-44.2558,-28.9656,77.9441,-41.1271,-151.2141,179.9854
47.1527,-23.8495,-102.4719,-129.4092,-92.3072,-144.8540,82.2014,191.3498,86.6125,368.8582,33.9345,-34.8781,-34.5947,-62.0758,-31.9172,74.7617,-18.6411,-159.0243,156.5379
77.4645,-3.0349,-75.2193,-122.2307,-72.0288,-126.9327,58.4029,149.9411,36.4036,293.2870,55.1186,-25.8084,-12.1439,-58.0722,-40.8399,54.0478,5.2473,-88.7619,110.8679
103.0556,33.5221,-26.7915,-66.1580,-35.1972,-37.8075,38.0540,138.3906,-20.8533,253.8763,71.7137,-10.6480,14.9883,-28.1781,-34.4393,36.2770,23.1883,10.7911,95.2017
78.4147,50.2791,3.4878,-1.8498,48.9874,71.2438,51.0374,152.5725,-14.4928,266.4966,68.5498,-5.3064,47.0920,17.1881,29.9526,35.6220,24.8727,68.6535,95.2340
58.3123,66.4689,11.4005,42.9352,130.6808,160.2541,64.4297,160.5837,12.4206,248.6813,72.6606,4.1324,80.1708,55.0425,85.3397,34.5873,5.6382,111.9697,70.0393
82.3421,106.7774,10.6924,78.2196,145.0253,236.6762,55.2224,156.2805,-0.5531,167.9393,89.8038,28.0380,97.1646,83.2952,79.3007,21.7638,-13.9859,196.1392,58.2528
82.6718,151.2279,16.2492,141.6686,139.5558,297.1257,76.2859,165.2462,12.3103,122.7568,83.1839,50.4431,97.2261,119.1779,82.3450,13.2253,-5.2535,285.7401,95.5109
46.7188,163.6960,33.9339,198.2449,183.1499,323.2521,148.3587,178.8033,93.0051,130.8566,63.9874,56.2050,108.5039,151.7395,127.3208,17.0577,17.1030,321.9045,129.5137
42.0444,137.8873,43.2657,173.7068,219.9894,308.8044,199.5038,152.4168,135.5087,82.6274,67.6705,49.0837,127.9383,149.2530,137.6519,16.7093,20.5157,308.7256,124.1478
59.8046,114.5602,29.6118,117.8835,188.4259,245.6263,173.5904,84.5587,80.6279,-28.9535,74.8130,46.2979,120.8610,116.5057,79.1732,3.1764,22.5690,269.3103,113.9753
61.9365,133.4834,27.1071,132.3052,157.8671,150.7202,113.2815,21.0174,29.7763,-100.1146,74.5960,61.4113,105.0132,90.2772,18.4274,-10.6293,57.2305,224.0128,112.4698
76.8731,170.0537,67.2651,186.4707,190.0020,93.3643,93.8710,-18.5246,42.7971,-117.1449,95.9031,84.1195,124.4110,86.8372,16.5974,-16.8579,106.6173,201.8790,95.2813
101.3366,175.7470,113.7840,201.3685,223.1779,98.8093,114.2300,-50.8042,49.5384,-149.4111,119.5841,93.2216,152.2841,91.1832,51.4455,-24.2526,132.5817,194.7655,62.5283
98.9893,156.3434,118.0400,181.1420,198.9602,91.2630,107.3260,-85.3058,24.8559,-207.2830,112.9070,90.9688,143.5780,82.7311,65.3545,-34.9566,126.9945,166.9442,28.5187
103.6924,143.5100,86.7804,144.8480,143.2952,19.1498,62.2852,-117.4864,24.9943,-233.4615,113.8416,94.6337,122.1728,56.7614,71.3109,-36.3304,98.2064,115.8553,-3.9330
122.5584,134.5229,35.9012,91.1355,83.2968,-71.4302,41.5279,-141.9746,49.9822,-193.7077,133.8225,100.3104,107.4412,27.8477,120.4385,-23.2121,66.5368,42.4733,-23.4069
82.8461,113.8528,-38.1135,40.6065,19.4457,-133.6425,54.0547,-153.6918,57.5880,-134.3636,109.3636,88.9201,65.7905,7.6503,164.0148,-7.2646,66.6283,-54.7230,-24.5810
9.4230,89.5689,-103.3945,1.1433,-30.2871,-169.5644,42.8273,-157.2885,51.4317,-121.2220,49.5529,63.5258,7.2148,-9.6361,128.0089,-0.1311,97.4144,-118.9182,-36.0141
1.4765,76.7571,-118.0081,-32.9374,-48.5975,-192.8211,1.7361,-171.8649,36.9916,-127.8610,36.9338,49.4135,-11.1528,-27.9998,81.6799,-1.5981,107.4225,-115.4876,-75.5533
24.2555,71.2498,-108.8437,-38.6411,-46.5686,-227.6359,-30.8619,-204.6745,-2.2631,-98.3703,61.0099,54.3330,3.4651,-43.4844,97.6786,-6.1659,70.6645,-119.5240,-113.2533
3.3551,58.5614,-113.2694,-19.3173,-40.5247,-278.0409,-58.5234,-238.9611,-46.6082,-90.7598,56.6876,60.1115,3.1448,-58.6817,88.4851,-13.3050,21.5890,-169.6279,-129.1330
-8.3531,40.7711,-102.3110,-17.0138,-37.8336,-285.4988,-99.6535,-263.9212,-69.6416,-176.4352,41.5850,58.6418,-5.4997,-70.4982,10.5470,-25.6055,-2.9858,-188.8157,-147.6245
18.5461,29.3226,-62.6770,-28.8786,-39.4704,-226.9482,-137.5836,-282.9562,-92.2066,-282.3074,44.8783,56.1736,-0.5403,-65.7526,-21.1602,-39.6564,0.8220,-148.4482,-171.1928
13.3301,15.3260,-39.2928,-35.1111,-42.5035,-183.3109,-157.4676,-290.5948,-131.4988,-326.9312,31.7147,45.6278,0.0390,-53.2242,20.9018,-51.2231,23.1820,-100.7805,-166.5745
-12.4052,-9.3761,-30.3482,-53.6072,-56.9951,-197.6538,-167.7594,-284.3362,-168.2980,-361.1848,1.0300,25.0004,-12.0006,-55.2374,33.3833,-64.8976,51.3492,-57.7851,-145.3731
21.6088,-18.6297,11.6826,-70.8247,-93.8806,-204.5871,-169.2093,-281.6403,-183.3509,-420.3694,4.7151,21.3942,-14.9971,-62.8578,22.6811,-80.1246,73.2412,-26.6541,-149.6553
85.0114,5.2431,66.2259,-46.6467,-125.7475,-172.0406,-152.6736,-284.1482,-172.1807,-444.0235,40.0508,45.2993,-3.3436,-53.5646,65.6544,-85.2086,85.0059,-37.6268,-163.9292
99.3628,34.6924,82.4239,-2.0232,-124.1659,-143.4566,-125.2006,-268.4324,-156.0346,-428.6016,53.8045,65.4526,6.0163,-35.1826,105.7115,-85.0558,84.3991,-41.0427,-158.0489
77.8966,45.8039,80.3342,28.7614,-123.7911,-129.6104,-109.9380,-243.7560,-163.8638,-434.4301,32.3611,66.0354,-2.0449,-25.3610,67.2747,-95.8423,70.1607,17.7895,-157.9404
66.2723,45.0919,91.8422,53.4015,-160.8754,-106.8627,-111.5586,-245.4004,-160.3792,-428.4942,7.5328,65.7860,-26.3772,-20.2393,29.6378,-101.8404,49.4573,62.2635,-176.0198
62.7166,39.0650,87.4282,64.0066,-198.2180,-79.1789,-103.9158,-259.0126,-98.2933,-334.5485,2.4518,69.1880,-46.2536,-11.6086,78.7197,-78.4834,25.2448,33.4159,-180.7808
44.4266,34.9181,41.6557,51.9795,-205.4866,-59.6168,-81.1301,-245.7652,-40.1362,-197.8762,1.2230,64.3360,-56.2119,-3.3427,141.7056,-47.3330,-1.7382,7.5542,-174.3101
9.6995,42.7589,-11.2980,47.8850,-218.7306,-57.0513,-72.3020,-220.8392,-50.1021,-118.5913,-20.9057,55.1474,-79.0749,-3.1769,117.6234,-37.8741,-10.1326,21.4662,-172.9744
-2.8973,46.9643,-22.5763,49.0169,-240.8179,-81.9932,-77.4906,-218.0172,-59.2594,-90.4926,-37.4675,49.0251,-101.5098,-14.5634,51.8625,-34.7250,9.9815,17.0224,-161.7045
30.7312,23.0827,13.4083,20.3906,-217.8807,-116.7081,-77.5079,-229.8634,-28.2063,-41.9192,-10.2374,39.2614,-79.6328,-32.1071,56.1161,-22.5399,17.4207,-5.7779,-158.4419
47.4651,-26.1060,47.7528,-21.7997,-163.3880,-141.2699,-89.1365,-239.2223,-37.0951,41.2309,16.3846,17.1441,-41.2797,-49.1518,118.7361,-15.8910,-16.1357,-15.1913,-190.2193
-7.3956,-84.3655,31.4231,-56.0605,-151.6694,-184.9679,-105.7628,-242.4268,-80.1933,126.1923,-15.8357,-16.2097,-53.5128,-71.6256,129.5509,-12.1480,-51.3747,-57.5561,-205.0262
-68.8938,-131.4928,-20.8200,-98.8623,-185.0758,-265.8730,-83.3425,-229.9651,-61.6941,198.2368,-60.9585,-43.8369,-97.2276,-103.7457,74.8652,5.3986,-64.2631,-163.5331,-174.7183
-78.1320,-148.4745,-67.4840,-135.5690,-216.4947,-335.7347,-59.1170,-200.5860,-19.7421,256.9306,-63.5350,-48.7588,-117.8498,-130.3812,46.4765,22.7627,-97.9446,-261.4927,-163.3197
-87.5572,-154.6810,-106.4928,-146.4465,-249.4873,-349.3759,-96.2583,-164.2842,-40.8040,293.4691,-69.9352,-48.6406,-134.1026,-137.7256,56.3426,24.8442,-161.5545,-279.2428,-163.0190
-130.9477,-180.8508,-138.0092,-159.9660,-288.0850,-313.7287,-120.9341,-114.0701,-49.4438,303.2692,-119.6083,-70.9034,-171.1915,-129.1598,27.8758,29.4308,-185.3253,-234.0759,-94.1985
-163.7019,-202.2485,-134.4709,-168.8880,-284.5648,-258.2030,-55.5223,-51.3851,41.1730,305.2874,-163.2531,-96.7963,-192.3766,-110.0710,-30.8166,46.6939,-142.9416,-191.9495,-1.2103
-168.4214,-192.8337,-107.0114,-141.3040,-225.9189,-212.7492,14.0110,-2.4284,142.8708,332.2701,-163.0063,-98.7479,-172.9829,-86.6290,-35.0134,61.5542,-111.4171,-175.9508,29.1497
-161.4337,-188.1791,-108.8577,-131.5469,-165.4551,-181.4030,23.8100,37.8526,149.3013,385.1096,-140.6948,-97.7883,-136.1818,-70.1540,16.5658,67.8835,-146.5237,-136.0028,51.8059
-143.5539,-203.1748,-146.1799,-180.8954,-136.9257,-136.9909,50.5699,97.5446,105.3925,415.8265,-120.2726,-112.7132,-104.5630,-57.3815,62.1390,71.4619,-193.2081,-46.5233,130.8002
-133.2621,-200.3165,-176.5558,-213.0688,-129.4259,-83.8185,120.3896,162.2709,111.0943,400.2720,-114.3150,-120.3679,-89.1620,-34.2654,103.7790,74.3907,-186.7695,23.5101,214.5589
-148.6033,-188.5450,-183.5761,-196.4756,-129.8676,-57.3156,171.6758,206.6755,165.0957,384.8877,-126.5948,-116.2772,-91.1802,-10.1953,156.4675,79.1280,-161.5815,27.9094,267.6265
-160.3123,-211.3215,-179.7271,-204.4492,-128.3610,-49.0958,202.3091,239.2346,179.4898,401.2917,-139.2572,-127.5275,-93.3739,-8.2856,154.8333,83.2359,-177.4344,22.4768,307.8750
-150.2832,-244.1220,-167.6044,-235.9249,-116.9823,-35.3983,232.4110,261.7879,140.1533,415.4065,-140.4640,-147.7626,-88.2532,-23.4645,65.7081,79.9660,-211.0074,40.9233,320.2772
-132.8575,-234.3906,-144.9274,-221.2126,-98.4429,-29.6309,236.8084,272.3604,144.8468,417.5276,-130.9269,-144.7987,-81.7823,-29.6888,-12.5933,78.4614,-212.6975,44.1107,301.8668
-97.7419,-190.9257,-121.7724,-181.5300,-71.0109,-21.4418,223.6256,296.5746,208.4472,441.2805,-98.3843,-122.2685,-62.8249,-19.8802,-8.7977,89.0799,-191.6728,31.7101,291.5607
-47.2364,-148.6448,-109.6498,-170.6174,-35.0453,21.1004,224.6257,326.4233,219.0853,457.2662,-52.8948,-106.2262,-32.0781,-7.6482,2.1767,96.7780,-162.3054,39.6792,291.4496
-29.0170,-114.7272,-102.3769,-156.8652,-12.8416,62.1345,226.4304,313.8500,178.6744,395.2484,-38.3784,-95.6345,-21.3385,0.7587,-37.9351,88.0905,-111.5249,48.6330,280.4021
-48.4810,-84.7094,-86.2564,-102.2744,-18.2345,51.7747,218.1302,274.3493,202.3143,274.9444,-57.0840,-73.5620,-34.6770,10.8062,-69.2627,72.8387,-68.9722,31.0841,264.9916
-65.3569,-61.2207,-68.9945,-41.7470,-41.3589,20.4529,201.0470,257.6075,245.9461,172.2030,-75.3480,-47.2212,-48.9193,20.0838,-65.4792,55.6588,-71.8553,19.8863,246.9882
-80.0568,-51.1432,-59.6365,-15.4353,-75.4719,7.7930,156.7284,239.9957,183.2205,97.6514,-97.6320,-40.6882,-68.1097,19.4947,-81.1309,31.4096,-63.0208,42.8990,230.8161
-97.2878,-48.7534,-26.1715,-0.0125,-90.4142,5.5377,109.4105,191.7641,80.2947,29.8998,-124.2808,-49.7826,-83.8753,16.7107,-110.6086,8.4607,17.4892,75.1302,236.2332
-84.1921,-23.5463,55.5054,59.0380,-25.2794,17.2712,98.2765,153.6205,52.0725,-5.8621,-109.8124,-41.0532,-50.6553,29.7067,-100.0695,-4.5595,106.4647,96.1170,235.7738
-45.9309,37.1093,136.4299,159.4723,100.7004,52.7419,73.2528,143.1466,33.4324,10.9477,-53.6463,-8.6837,21.1628,53.5142,-72.7807,-14.5408,134.1965,124.9336,190.6764
-20.7719,90.5624,167.8264,227.6186,170.7026,86.2421,2.5044,122.6871,-36.7899,37.1080,-16.8431,14.4193,60.0471,66.4442,-78.9664,-25.3063,136.9254,179.5567,139.6651
-2.6924,101.5319,177.5487,230.1463,148.1598,102.4351,-26.8587,95.3568,-71.2246,20.8301,-13.0340,17.5844,55.5678,67.3088,-93.9033,-33.9315,143.1849,236.6276,116.3103
22.0229,105.8064,192.8495,228.4242,127.2516,116.5924,17.5979,92.8208,-37.4558,-30.3922,-2.3519,28.4804,60.0720,73.0026,-74.1300,-43.6061,127.7678,254.0514,77.8403
40.6401,153.5378,193.1036,268.5855,152.6120,131.8894,41.0784,95.0700,-31.7430,-74.5250,26.2884,59.6802,81.7831,86.0666,-42.1344,-55.0134,126.0989,229.1128,14.2156
64.0498,224.1951,191.9650,315.7627,160.8514,140.1594,4.4605,69.5573,-88.4871,-103.8918,53.5434,90.4802,87.3210,91.1938,-56.6321,-62.9435,192.1510,195.0928,-23.5783
99.0080,247.6408,231.3293,331.3403,127.8392,139.0806,-36.8745,29.2591,-130.8389,-147.1207,64.2267,101.1177,74.1088,80.6332,-116.4123,-67.8663,261.8471,160.3009,-26.0961
104.5790,201.7811,278.4356,318.9467,109.9627,132.2223,-49.5999,-0.8372,-106.3174,-198.5538,54.2837,93.2041,66.5289,68.9530,-132.0525,-68.5723,244.6729,110.5254,-20.2735
69.2168,142.6861,262.9836,289.2798,127.0455,133.3572,-31.0144,-19.6766,-50.6775,-210.2030,39.2375,81.5202,71.2383,71.0825,-58.1780,-58.6875,170.8004,59.1586,-16.5668
37.8080,113.0025,194.1662,242.8436,132.4097,128.7022,-0.4608,-44.2146,-37.1763,-180.6751,35.7582,73.7454,72.1820,69.9749,8.7065,-46.7137,108.5391,28.7634,-30.5600
29.9708,90.0970,136.2016,184.1483,106.3171,69.6503,-7.3326,-86.7776,-91.3062,-171.2409,37.7812,64.6552,62.5257,40.8331,-8.5288,-50.1462,62.5338,10.0416,-71.3333
35.7456,66.0214,119.6847,138.9136,87.1673,-24.6642,-57.2194,-136.4807,-154.9118,-207.3881,44.7511,58.6666,59.8705,1.9384,-40.8401,-64.6292,34.4817,-16.9614,-117.7533
49.2866,64.3315,135.3732,133.6387,92.0291,-73.7537,-111.2268,-180.2271,-163.0699,-252.1858,58.9901,65.5007,66.0460,-15.6677,-43.3631,-70.6753,42.4007,-59.3245,-159.2767
39.8872,55.3133,149.2817,136.9564,75.0769,-88.3262,-165.6266,-224.2423,-127.2760,-285.5511,45.6866,66.4378,44.6754,-26.2271,-75.5753,-65.5445,58.0501,-113.1780,-197.0269
-13.3235,7.4352,118.2503,96.0159,10.4071,-129.9133,-210.6431,-264.8014,-102.2819,-321.3317,-11.0960,43.4600,-12.2475,-48.4315,-128.1821,-62.0304,48.7773,-149.7371,-215.9668
-54.8953,-16.4397,55.6824,45.8546,-39.2304,-156.2791,-206.4278,-285.2159,-120.4820,-351.3984,-48.0518,26.1938,-47.3493,-58.1751,-133.2424,-65.4601,43.1152,-135.6007,-217.9437
-32.6273,21.6705,35.1529,52.3876,-10.8205,-118.9291,-179.3670,-295.9303,-175.9325,-351.6637,-18.4956,39.1144,-22.5329,-45.1582,-121.8817,-69.8912,61.1487,-95.1751,-219.3468
7.8423,39.9136,70.4960,76.1942,52.4074,-86.3687,-180.5392,-309.9155,-220.7110,-334.8018,25.4680,50.9720,21.6356,-39.7416,-129.3252,-70.0537,61.5047,-89.9454,-211.6128
-1.0489,-3.5527,81.2914,51.5273,69.9244,-103.6330,-174.9288,-304.6793,-195.1457,-335.7146,23.0287,38.8139,31.7736,-46.8255,-95.7558,-65.6343,23.6853,-128.0748,-197.2666
-45.5387,-36.1437,28.7513,11.0546,44.1167,-117.4126,-132.8181,-274.0611,-105.0612,-347.9611,-8.2251,26.9992,9.2625,-42.8696,-32.0357,-54.5940,-9.0799,-166.7493,-193.0144
-62.3439,-26.0415,-29.8809,-7.8695,24.2874,-109.6795,-97.3962,-249.9354,-27.1268,-327.0070,-18.9847,27.6107,-11.8846,-37.0701,-46.5575,-33.3467,-7.4884,-188.5390,-168.5263
-36.1912,-21.9602,-59.3591,-40.0012,6.4963,-112.1548,-79.6740,-242.7166,-9.3741,-274.0269,-4.4546,23.2525,-21.1315,-49.9865,-133.7026,-9.8778,0.4498,-202.8026,-108.5863
-23.0855,-42.9220,-86.9454,-89.4991,-44.5885,-118.9375,-66.8543,-242.5411,-22.8063,-259.5825,-7.7340,11.5201,-41.4940,-65.3983,-176.4855,-3.1676,-19.6443,-200.7032,-82.9108
-52.5874,-66.5639,-107.3917,-105.2190,-108.7799,-119.9323,-90.3073,-254.6798,-34.2011,-314.9780,-44.1688,5.9095,-75.1748,-65.4685,-144.3241,-18.7545,-61.5485,-174.9421,-124.2148
-63.0336,-76.8958,-82.0761,-84.6546,-119.7665,-129.4089,-139.6529,-272.3515,-57.0858,-366.9222,-56.5246,10.0533,-77.5786,-63.9497,-107.7825,-37.8853,-90.1928,-155.3599,-164.5659
-17.8561,-78.8826,-32.9794,-84.8260,-61.7653,-143.4117,-155.7802,-277.6530,-93.9010,-354.7369,-12.0072,12.8403,-33.1775,-75.5410,-109.7268,-40.9950,-88.0757,-174.8906,-170.6765
10.6786,-105.2515,-21.3089,-139.0191,-3.7805,-159.8492,-153.9221,-281.7666,-103.3271,-330.8400,22.7929,-2.9152,1.5004,-95.8240,-118.9021,-30.9968,-80.0730,-219.6324,-178.8801
-20.5651,-159.0930,-50.2099,-208.6991,-4.7675,-187.0194,-175.2766,-291.1240,-72.8793,-353.1378,0.4560,-30.8842,-8.9957,-110.0431,-92.1375,-24.5089,-94.3360,-239.1021,-190.2237
-53.4375,-175.3691,-72.4568,-215.9213,-27.9368,-193.5983,-185.1218,-276.3547,-40.9410,-370.8948,-29.1146,-38.5068,-25.8965,-101.5578,-49.7354,-26.5032,-116.5373,-201.2883,-176.8600
-67.2154,-142.5128,-65.4490,-153.4460,-11.6844,-150.5139,-154.2499,-231.9077,-13.6874,-315.4760,-37.9581,-27.9614,-22.2508,-72.0205,-31.8956,-24.2093,-117.9335,-136.4880,-147.1763
-96.2029,-141.1359,-48.6564,-117.0819,26.7102,-97.1948,-105.6428,-189.3113,30.4477,-213.1772,-54.8691,-37.8577,-18.0315,-48.2207,-6.5092,-9.2754,-103.0791,-112.7588,-122.3117
-105.0845,-169.7991,-46.8916,-148.1400,43.9610,-86.6860,-48.8332,-155.7508,51.8285,-127.4660,-55.0955,-57.7912,-10.4172,-48.3426,51.0706,5.6462,-94.6548,-150.8856,-107.6293
-53.3083,-143.4830,-57.2701,-161.7654,54.1262,-129.3070,-3.5592,-121.5778,5.3608,-76.0434,-1.5355,-42.9090,20.1558,-63.6706,69.3876,5.1591,-100.9000,-202.3425,-101.1177
-12.8899,-94.1321,-62.8396,-126.0054,63.8048,-201.5294,-12.2101,-102.0802,-49.1683,-55.6435,41.8342,-13.2047,42.2155,-80.6357,26.9018,-4.8245,-120.0280,-230.8070,-96.8111
-44.7037,-117.4034,-71.2087,-127.2937,27.1547,-249.1429,-56.9137,-112.8692,-41.4481,-62.9305,10.3180,-20.4095,13.9678,-93.0075,18.1318,-7.9186,-145.0421,-243.0233,-100.4377
-84.1299,-172.7097,-90.6548,-181.8021,-43.0455,-237.6358,-85.9694,-138.6854,-17.5757,-64.2656,-38.7860,-49.5249,-32.6074,-97.7842,57.8424,-2.5316,-156.1999,-232.1033,-122.6746
-66.3475,-169.6426,-83.1343,-196.1682,-53.0567,-207.9838,-95.3155,-147.7388,-34.5468,-27.7877,-31.9766,-56.4613,-33.9237,-97.0192,55.8808,0.2688,-138.6559,-189.7629,-145.4634
-20.7818,-135.6993,-17.5621,-149.6527,14.6472,-197.7421,-91.1404,-127.5205,-44.9285,9.7778,7.5562,-45.6411,8.3887,-93.8660,12.6657,-3.4057,-106.0915,-155.3156,-152.2664
7.6842,-131.7660,67.4179,-109.2592,76.3560,-179.5989,-72.7506,-108.7282,-5.4100,-1.0147,27.5389,-41.3870,42.4925,-87.4643,-9.4229,-7.1123,-79.7077,-154.0467,-159.6449
11.5801,-139.0364,124.9969,-81.0622,99.8800,-145.6578,-67.4474,-120.6134,36.2746,-9.9180,22.7973,-43.4229,48.2958,-78.2898,-27.8271,-4.1900,-53.5435,-150.5028,-161.4847
0.0383,-122.3053,152.6848,-29.7688,116.5927,-125.0480,-74.4845,-125.8829,49.8642,71.5253,13.1126,-42.9466,43.2431,-67.2114,-55.7851,9.5024,-15.3664,-136.5408,-123.2798
-6.7664,-96.7111,145.5441,5.1457,113.3714,-113.1467,-53.5799,-79.4743,72.7330,198.7394,11.6986,-39.8845,34.5238,-55.6617,-41.6507,32.1405,13.1438,-157.6572,-59.3573
3.1251,-93.9171,98.3139,-32.2232,69.7268,-106.9839,-24.7700,-21.7818,100.2027,235.4994,17.5999,-40.0281,19.3338,-55.0343,1.2468,48.7159,7.0062,-209.8592,-18.0078
6.8103,-117.0140,50.6976,-101.9449,31.0978,-129.0609,-33.9361,-6.7056,77.1872,181.6036,14.8639,-51.3356,5.7988,-71.3807,-1.5910,45.9233,-13.4710,-229.6051,-8.1537
-15.8822,-141.7828,35.2711,-131.1891,28.9169,-147.0717,-48.2970,-7.0657,20.3342,175.4906,-5.9816,-71.8395,-2.9306,-84.4238,-40.3231,35.7366,-23.9424,-194.9852,-11.1424
-40.9627,-146.2059,26.8782,-118.5873,27.1619,-116.6328,-36.6495,11.8298,-2.2956,243.5697,-27.1911,-82.9389,-13.9810,-76.9773,-54.1339,37.0993,-41.6999,-149.2160,-10.4193
-39.7163,-125.0789,2.8375,-96.0134,4.7395,-87.0883,-40.4922,29.1757,2.0903,261.9635,-27.0192,-69.4110,-23.6477,-64.3125,-50.8871,41.8432,-72.8517,-136.8084,6.9690
-29.5346,-92.7040,-21.8593,-72.1361,-14.1952,-102.9438,-63.0993,35.3699,-8.7569,197.9051,-17.1896,-44.4505,-25.8720,-60.2977,-57.9417,34.0082,-91.8043,-147.6600,27.4937
-49.9132,-89.2909,-39.3197,-62.6433,-14.0174,-105.6344,-43.0195,51.4035,-5.7879,161.1362,-30.8854,-41.3867,-27.9958,-52.2002,-48.7154,24.5588,-109.1313,-124.6774,32.2967
-105.4865,-133.3907,-61.2401,-82.4150,-0.4229,-63.3872,21.2735,74.0942,39.5009,191.7246,-73.7008,-68.7230,-35.9432,-34.5082,-19.0451,29.0372,-149.9343,-55.4649,46.4125
-160.7825,-169.7450,-90.7801,-98.8589,5.6853,-33.2900,61.9591,89.2628,72.6925,212.5990,-117.9448,-93.4334,-52.3942,-22.3975,-27.6301,37.0631,-174.6041,-6.9402,87.0386
-184.2650,-153.2354,-108.3061,-81.3484,-19.2934,-25.0035,53.8769,109.5760,52.5449,199.0951,-144.5429,-94.1017,-79.5236,-18.9191,-79.2196,34.6116,-146.1676,-4.6485,114.3397
-171.3231,-129.3676,-84.1146,-57.9474,-50.6158,12.5934,36.3064,144.0479,15.1624,206.9447,-150.2571,-91.1027,-95.3178,-12.1920,-92.5319,27.3716,-108.3648,5.9366,106.9046
-133.6809,-133.0549,-30.9289,-60.6907,-39.8866,57.0455,36.7664,172.9363,-9.7723,234.8934,-129.1949,-96.4832,-75.5852,-6.7976,-53.3090,23.5372,-91.9444,24.3167,92.2543
-94.1842,-128.7266,-12.6112,-86.0198,-12.2405,35.4116,32.1478,177.7617,-35.6870,215.5350,-93.0244,-94.9679,-47.0834,-19.4819,-43.2142,18.6557,-69.5955,-0.3782,74.6923
-73.4575,-111.5353,-40.7449,-117.7374,-21.0912,-32.1099,-5.7537,168.2818,-72.7859,153.6342,-72.8135,-87.6207,-43.8610,-43.1947,-71.7045,7.2593,-54.4424,-25.1201,43.9642
-64.6395,-105.5912,-43.9469,-116.3469,-31.5551,-45.0748,-58.1357,172.9746,-113.8070,137.7965,-68.9258,-84.6380,-41.6861,-46.1996,-67.7481,-4.7578,-79.7454,24.0129,31.9834
-51.9382,-85.1984,2.3740,-49.5945,10.5390,34.2626,-89.3337,195.3086,-132.6195,159.5313,-58.2390,-72.4995,-14.6721,-13.1782,-34.0111,-8.4389,-102.6620,106.3205,65.5552
-44.0427,-48.9033,43.0388,27.7631,71.4564,144.6251,-98.4002,190.6588,-107.0055,73.3859,-48.7259,-47.4597,14.1024,34.1027,-21.9954,-10.0271,-86.3883,155.8871,117.5183
-45.9165,-49.6166,60.5068,47.0239,110.7419,222.9997,-98.9004,130.5252,-78.7608,-136.4203,-52.1488,-32.0183,33.1696,65.6032,-31.8649,-21.7375,-79.9210,192.7289,157.3905
-39.6381,-73.4953,81.7171,43.0442,148.4032,258.7356,-93.1982,59.1270,-99.8561,-254.1547,-47.0785,-30.9856,57.3559,73.8519,-62.5518,-32.2658,-101.4283,236.6967,186.2491
-32.9812,-75.9391,96.3382,52.6068,181.0116,253.4959,-84.5951,24.1118,-125.1087,-186.4349,-35.5262,-35.9533,71.8414,67.4388,-108.5083,-24.3880,-97.3013,257.3741,203.4096
-52.8535,-96.9938,86.0628,22.9980,170.2873,211.5918,-73.1937,5.2366,-105.1615,-129.9333,-49.9097,-54.0011,58.9338,54.1596,-96.1231,-14.9667,-70.2834,247.0365,194.8913
-72.9067,-150.6320,69.4329,-48.4214,135.1106,170.5835,-61.2882,-18.2443,-99.7488,-175.3265,-68.7614,-76.0388,47.5187,40.8547,-9.0975,-21.4307,-75.2865,226.5263,173.1216
-46.5071,-158.3419,59.9917,-78.5845,129.5272,161.0311,-65.9692,-3.6571,-136.6207,-137.1808,-42.4099,-76.8734,62.1095,33.5057,47.8840,-17.8710,-95.8656,201.4501,186.3992
-1.4070,-124.1389,54.9934,-72.0404,147.3103,155.3857,-77.0193,70.1569,-128.4697,35.0166,1.6195,-71.9430,79.6684,29.2912,50.3129,12.1656,-81.2274,172.7886,243.7110
0.9515,-144.6303,56.0216,-109.2912,142.0748,124.5731,-59.1993,130.6689,-58.9809,143.9966,0.5242,-93.5575,73.6785,18.2394,75.0162,35.8993,-56.3237,142.4515,270.9385
-37.0167,-209.1094,51.7421,-167.2425,106.9847,95.1128,-37.6480,109.7229,-24.7509,142.3294,-37.7590,-123.7366,44.9035,-1.0854,91.3261,36.3738,-72.3609,103.9867,218.3476
-78.6328,-227.9562,32.9368,-159.0246,70.3220,95.8646,-59.8830,47.0636,-34.0704,164.1551,-72.9664,-128.0833,4.6949,-13.6135,31.3430,38.4514,-108.8923,63.8343,147.3944
-117.2377,-208.4797,21.0744,-103.5040,39.6304,108.2202,-80.0648,15.7605,-6.6995,194.2392,-105.9705,-116.5282,-34.3098,-7.7207,-22.4609,45.5978,-114.1109,39.2321,119.5016
-144.8625,-212.4845,25.0863,-92.2832,0.4535,99.7757,-45.8389,9.6033,42.2404,135.5481,-136.9309,-113.9040,-58.6845,1.2996,17.0059,37.5328,-91.7026,26.4797,105.1392
-133.1800,-230.5535,23.9014,-135.6808,-33.3075,63.1927,-15.2901,-9.5304,36.3996,53.0463,-133.0669,-115.3081,-57.8936,-7.2424,82.5400,22.1895,-80.6754,10.7687,83.3306
-92.8462,-218.0457,17.0777,-155.4230,-20.7622,22.3974,-23.8107,-23.4649,-2.5168,30.5285,-92.3055,-103.6331,-30.4716,-19.6953,98.5623,16.8061,-85.8118,-0.3783,89.0193
-78.6373,-182.3785,15.1149,-120.9271,35.1298,16.2186,3.4334,-7.0295,6.2722,6.8734,-65.0589,-83.7123,4.3947,-7.5603,95.3705,13.1791,-85.5690,19.4727,117.7806
-109.1261,-166.0169,1.4836,-95.0030,72.9549,53.2763,84.6983,10.6085,61.8494,-70.1044,-81.2464,-76.3883,16.5630,22.8655,116.3209,3.5826,-77.2509,73.8885,123.8479
-145.8702,-166.1890,-30.9012,-102.3822,49.6201,98.3364,125.8655,3.8526,87.6791,-152.0260,-115.8261,-79.0364,-4.9557,43.1774,135.1865,-5.8859,-69.1829,117.0653,102.0538
-159.6755,-137.8269,-61.8387,-81.2006,-17.0407,125.6758,91.6050,-9.8174,51.6252,-198.4099,-139.4137,-65.1202,-47.6592,46.8264,91.3147,-14.5367,-67.5556,107.3254,70.1928
-156.5026,-96.0412,-82.6280,-38.2949,-83.1248,139.2384,45.8800,-22.2163,1.2325,-215.5638,-148.9402,-40.7740,-88.0915,41.1096,0.6184,-22.5314,-85.7051,72.9409,26.5903
-142.1758,-106.1201,-91.2848,-64.9958,-115.9867,132.8823,19.1672,-45.9230,-33.3708,-217.2610,-144.3789,-42.9836,-100.5452,23.6338,-30.5414,-26.5865,-113.1995,58.9472,-25.8962
-117.8534,-145.4299,-81.2452,-139.8591,-110.0313,98.9915,-12.7438,-70.4989,-80.7171,-209.1631,-124.1184,-65.6663,-83.7477,-1.9230,12.4676,-31.1748,-109.3249,55.6000,-74.2461
-99.3038,-138.3766,-70.0881,-153.7977,-88.2602,66.2173,-44.6431,-74.7397,-126.5884,-173.6802,-103.2166,-70.4481,-68.5170,-18.0005,11.1335,-34.7689,-82.2356,51.3922,-109.6958
-98.8814,-111.2398,-78.2167,-122.6859,-81.2303,56.6465,-47.5384,-61.5957,-98.8308,-100.5253,-100.1331,-62.8156,-74.5528,-20.8256,-54.6307,-24.5504,-89.1293,61.1887,-124.2546
-107.4655,-121.3406,-90.1451,-122.6925,-104.0999,38.5022,-35.2434,-45.3329,-12.3395,-36.9754,-112.0982,-65.6269,-93.5791,-26.2103,-86.4966,-7.7436,-127.6210,58.9588,-130.4374
-115.4925,-126.5481,-89.9348,-116.6135,-137.7999,-7.4686,-48.4056,-37.6385,26.8814,-33.1063,-123.2107,-61.3944,-112.7755,-37.4790,-87.0044,-7.4745,-146.2375,17.2563,-153.1000
-124.8203,-95.6913,-81.3903,-62.3201,-130.2282,-28.8671,-78.5865,-43.8828,-0.6662,-77.1986,-125.0161,-40.3417,-113.4232,-35.6661,-107.8424,-21.8704,-145.0777,-6.9375,-170.4519
-134.1901,-88.9556,-57.2482,-21.7918,-69.6552,14.8902,-79.1564,-51.1790,-16.1762,-138.2663,-122.6276,-31.9505,-85.1131,-13.4959,-97.9226,-32.0693,-152.2460,27.0695,-147.2103
-137.7178,-127.7996,-18.1222,-31.0184,-27.1474,68.5928,-51.0303,-49.2328,-4.8449,-191.9095,-124.6757,-43.5620,-57.8618,4.9508,-33.2868,-36.7393,-166.3409,48.6115,-116.3946
-132.7352,-160.5063,7.4046,-48.9025,-39.9248,60.7522,-33.7912,-50.1142,-18.9066,-199.8667,-124.4311,-50.6577,-54.1342,-1.2478,17.3872,-41.9993,-183.1949,9.5512,-117.2174
-120.3683,-164.5819,12.5429,-54.3579,-42.2811,16.6885,-28.3081,-49.0533,-43.8634,-149.4155,-108.9693,-49.9554,-46.0746,-15.4420,38.2820,-41.1347,-191.0165,-26.2611,-116.0784
-108.4290,-149.0279,21.6213,-45.7662,-4.8757,11.4578,-13.7140,-19.7893,-15.4561,-81.7696,-91.2948,-50.9678,-26.3347,-10.9310,51.8688,-28.9497,-162.0310,-14.2629,-90.5602
-104.0815,-121.9669,41.3943,-12.9209,11.2821,51.3228,3.7172,18.9782,49.8212,-40.8273,-91.0839,-46.5246,-25.7239,7.5528,49.6633,-16.6950,-121.1672,2.6123,-81.6996
-103.5902,-112.7153,63.3582,19.8705,-0.0122,84.4565,20.1768,23.5276,67.4913,-33.0424,-95.8385,-37.7726,-31.0429,20.2369,65.1481,-17.8995,-125.0209,1.1235,-95.7859
-109.6626,-135.8670,80.0176,23.1682,11.8082,98.4773,41.8348,17.3250,28.9241,-27.1698,-96.7748,-42.2208,-16.5702,26.1214,116.2616,-26.7365,-160.3588,16.0993,-86.9641
-130.1924,-156.2883,72.2903,15.1356,20.8937,120.8257,50.3789,45.4000,20.4374,5.6451,-113.2846,-57.2496,-17.7486,32.2010,121.3037,-24.7412,-185.6623,52.2620,-61.1772
-142.4473,-151.4529,37.6601,8.4654,-9.4021,148.4797,32.4013,69.2398,68.3944,22.7698,-132.0849,-59.9947,-46.5024,35.2203,68.0513,-12.5631,-208.0802,70.4884,-68.6865
-121.0054,-136.9646,11.6367,-7.2405,-15.9787,162.7386,10.2533,41.6065,86.2549,-35.1021,-113.9249,-46.6499,-43.6565,35.7388,52.9648,-11.6592,-228.5573,78.0541,-100.3213
-98.2994,-122.7551,16.6377,-6.4589,43.3283,183.1454,4.4226,13.5639,38.4572,-110.5346,-82.4021,-36.5491,-0.4460,45.8936,72.0172,-25.4126,-228.8461,127.6311,-98.2222
-109.6628,-113.9063,41.8082,35.1248,98.6537,227.6238,22.7100,39.2005,16.2828,-110.8763,-87.2539,-38.0210,23.1956,68.3918,61.6056,-32.8019,-226.5847,203.6263,-51.7376
-115.8186,-115.9040,75.5705,72.9508,96.3645,268.5726,65.3438,74.9964,63.9805,-75.7970,-103.2393,-39.1651,17.9906,86.7828,53.6501,-26.5952,-227.9822,231.2570,-6.4419
-76.9785,-113.8633,100.3149,60.8471,73.1588,292.1517,91.8046,75.8463,83.5145,-74.7223,-85.0183,-35.9638,19.2474,87.2869,56.3839,-20.0560,-204.9267,215.7970,5.8701
-31.7042,-99.5267,97.8396,26.2162,71.1720,317.3005,59.3570,74.0552,6.8005,-63.0716,-53.2725,-38.7684,28.6051,75.7133,23.1052,-19.9270,-176.9355,217.8924,-9.0715
-17.4681,-88.8221,89.1119,13.0253,85.2328,317.4411,-4.0800,90.9034,-91.8889,-6.4944,-35.2139,-44.4815,36.3304,61.2085,7.9510,-23.9096,-177.4755,210.7397,-44.2680
-9.4627,-82.6218,100.3249,15.4408,92.3650,247.2841,-52.4318,88.7048,-142.0579,25.7920,-16.1937,-39.1385,47.2386,40.3563,58.5748,-33.1919,-172.7714,147.2752,-99.3551
6.8972,-69.7177,114.7209,15.0498,92.4957,158.6534,-78.3576,50.9311,-181.6178,-17.5680,5.2081,-26.5959,59.1456,17.6872,85.8882,-50.4319,-143.5123,93.1223,-151.7308
6.1000,-56.4451,122.1362,30.6580,112.8538,148.2188,-69.0061,8.5119,-232.9357,-112.9812,8.8978,-16.2052,72.5416,18.2291,62.2034,-72.6684,-128.6367,112.2723,-170.2513
-12.0168,-41.5272,137.3809,79.2712,152.0119,209.7382,-21.4678,-20.7785,-228.9453,-210.6928,0.3322,-0.9225,88.7467,49.0144,67.8618,-86.7213,-126.9299,150.3957,-162.1887
-16.2207,-9.6484,142.6021,128.3204,164.1155,257.9735,14.6096,-50.6590,-145.8535,-251.5649,0.5427,22.3894,89.9481,77.6122,81.6996,-78.4272,-105.6281,152.1336,-160.4987
-3.6654,28.4196,119.2993,148.5524,143.1281,243.2034,21.9046,-92.1583,-53.2088,-226.8048,11.8241,43.5579,74.9838,79.7113,45.9118,-55.9918,-78.4766,131.4143,-164.6068
-0.8657,44.8819,104.3899,162.4179,130.7175,176.3599,48.0465,-132.4265,27.5219,-209.0455,19.3565,58.9103,68.6483,71.4508,24.8133,-41.1864,-65.5645,99.6486,-146.9007
-15.2716,33.6111,111.8407,176.4614,117.7812,119.6946,88.1692,-149.6086,127.7043,-221.6682,8.2192,65.6033,62.8556,72.1095,54.7348,-33.6082,-68.3983,75.5965,-115.9677
-33.0409,5.3166,92.1924,152.6400,63.9849,140.8687,83.6577,-144.3286,179.4311,-189.5608,-20.9788,51.9339,28.7741,74.0224,54.1406,-19.9166,-100.0246,94.4241,-104.4282
-48.8545,-29.3963,43.2338,96.0886,-4.8434,200.1278,42.6427,-128.6709,103.3008,-84.0574,-51.7243,19.6574,-19.1192,61.7919,-9.9739,-4.1704,-139.6008,116.9192,-91.1500
-59.1346,-65.2168,24.6264,53.0435,-39.5905,177.5659,21.8203,-83.2410,11.7857,44.9447,-68.7209,-12.6561,-46.1078,32.1668,-77.0928,8.7824,-148.2794,73.3840,-28.7135
-50.3939,-100.4261,31.5373,16.3761,-49.2999,63.3775,42.2573,7.9714,44.5999,153.3828,-64.5817,-33.4348,-46.0613,-2.8855,-93.5158,23.4731,-162.4396,4.9744,51.7248
-34.6100,-123.3701,5.7509,-36.8356,-61.4484,-27.5500,94.8761,92.1912,114.0501,199.5181,-50.3410,-43.2452,-34.8855,-21.9775,-53.3326,29.9141,-206.8077,-2.8008,87.4486
-48.9351,-122.0315,-35.9472,-67.1567,-71.2488,-39.8807,152.9199,117.0252,97.2465,150.1398,-59.0047,-47.9482,-33.6914,-16.0727,-16.3559,17.8982,-198.4645,34.3522,109.4529
-79.5342,-107.0000,-28.5454,-46.0487,-63.7098,-13.7235,180.3147,111.3755,76.6015,49.6414,-89.6659,-50.5413,-44.1757,1.9487,-38.2962,5.6906,-108.8752,53.3863,163.7802
-69.7229,-92.6439,22.2610,-15.0599,-41.5714,27.2083,180.5423,101.8729,133.8237,-43.4984,-91.8510,-42.2736,-38.4194,20.4417,-52.5211,5.5344,-38.5239,49.2332,188.6068
-25.1417,-78.3008,65.6388,-3.6904,-27.9887,75.1973,180.0110,60.7241,174.4704,-128.7005,-58.6533,-21.2181,-13.0686,36.6700,6.7671,0.7078,-24.9984,46.9025,141.4302
10.5805,-60.7909,93.6008,9.4557,-33.6733,85.4280,172.0947,3.9414,143.8007,-167.6913,-30.6491,-3.2128,2.3106,39.4358,44.1291,-9.2024,-10.7826,47.2147,102.7618
53.4810,-28.2510,110.2750,33.8724,-28.4689,36.3331,157.1694,-12.0271,127.3122,-91.2147,6.2883,12.2880,14.9134,21.9396,-13.1408,-1.4604,1.6890,33.3933,108.1299
106.6458,19.3875,88.8429,46.2402,0.2102,-11.6211,159.4504,-9.4599,148.3872,46.1172,67.4477,34.5443,40.6617,3.5917,-63.4516,21.5004,-17.9757,1.9987,86.5998
97.6129,28.2866,36.4133,28.2496,9.5407,2.3854,157.7402,-37.9199,134.5483,134.5585,79.8497,34.9267,40.0718,1.3182,-39.8714,38.3899,-36.0197,-25.2090,43.3728
28.6855,-26.7343,13.2684,-5.4570,-11.1973,42.6202,119.7087,-55.5045,85.0253,190.4221,22.7935,-3.6992,2.3829,1.8796,-13.1901,47.5554,-32.2667,-34.3789,54.8013
2.6720,-66.1034,30.1626,-19.0373,-16.9579,37.2065,83.3114,-11.8655,64.1309,265.4257,-5.7539,-32.5010,-13.3305,-6.7950,-16.2526,54.9490,-33.9440,-41.8769,97.2152
12.8455,-51.4554,25.4173,-13.5157,-13.3577,-1.8089,84.9804,55.0952,80.6880,310.2012,4.7328,-29.3276,-8.3901,-14.0721,-20.4048,57.2269,-40.9832,-57.7047,110.6016
-37.2389,-67.5757,-26.9924,-42.3134,-53.6427,-15.6157,87.1610,100.4030,98.7957,290.2012,-41.8039,-46.2182,-49.3516,-18.5716,-46.1171,58.1037,-42.4741,-74.4570,122.7802
-105.5813,-131.0240,-91.5030,-120.8911,-125.7521,-12.7423,68.2403,131.8254,101.6967,273.4529,-115.6661,-89.8726,-115.9852,-33.8339,-100.5626,66.4694,-55.3663,-93.6718,155.2187
-88.8392,-135.6797,-141.6121,-177.5629,-160.4487,-26.3760,73.0878,157.7328,90.2655,301.4140,-105.3314,-97.4469,-126.2401,-47.7752,-112.2003,75.6300,-72.0738,-101.8474,169.2868
-37.6315,-68.1546,-157.1561,-151.5094,-124.6013,-22.6764,115.4080,166.0002,61.0672,311.3741,-44.4483,-63.4925,-80.0302,-32.4228,-48.4802,68.5130,-61.0040,-68.4517,154.7174
-42.8711,-37.1821,-112.9535,-85.8733,-50.3084,22.0951,144.4548,151.8287,8.5036,251.5085,-32.0196,-46.0175,-36.6565,-2.3966,17.0852,41.5840,-37.8067,-18.2611,123.8561
-73.4041,-81.9110,-47.0147,-67.8849,-3.5011,43.5314,139.0730,132.1413,-38.3041,194.8144,-56.5500,-62.8023,-22.1611,-0.9267,23.8414,17.7824,-51.2846,-13.8842,82.3810
-99.4641,-148.6110,-35.6550,-102.4536,-6.6994,-8.1968,139.5029,141.3331,-9.3097,256.2231,-78.4205,-89.9403,-31.0928,-24.9685,20.1356,25.3942,-109.7237,-53.8986,79.6508
-158.6684,-197.7847,-67.8946,-113.1006,-7.2150,-83.1260,169.6701,186.0704,100.4055,393.6963,-113.0751,-111.3600,-47.2978,-32.3556,69.3161,54.3262,-168.4527,-91.3961,144.5820
-218.9283,-216.9322,-75.2386,-81.3909,13.3386,-103.3869,200.6866,216.7518,181.1143,435.3195,-149.7885,-117.8404,-55.4254,-17.5464,118.7159,66.5811,-183.3044,-112.0919,200.5056
-207.7976,-204.2776,-63.0812,-71.6271,0.4416,-51.3384,213.1913,208.8408,177.5876,360.2876,-151.9334,-109.6382,-61.8708,-6.5231,89.9084,59.7192,-163.0639,-111.0414,193.7995
-168.7545,-170.5308,-71.4587,-74.7290,-34.3599,23.4556,226.7737,206.9433,181.6819,317.6814,-136.8427,-95.8170,-70.7604,7.0102,52.1264,59.7398,-147.8227,-70.9826,172.4029
-176.9955,-119.2995,-72.6294,-10.2880,-19.1179,65.0791,238.8877,223.5045,226.6328,315.4438,-136.6837,-71.8447,-64.3613,40.5154,101.9433,55.7551,-138.6750,-11.7516,146.9692
-184.7866,-59.4063,-34.4831,82.5820,13.2216,72.8837,211.0393,211.2301,187.3374,225.1641,-133.3585,-38.0150,-47.0561,63.6822,145.4430,22.2992,-105.4029,13.0228,77.4358
-134.4666,-20.4206,3.8580,97.3612,-16.1014,64.7673,134.3510,164.7695,25.1885,95.8681,-107.5197,-16.8443,-47.9529,41.5651,67.4905,-17.0873,-59.1451,-19.0624,-2.4641
-91.6581,-10.5862,4.5676,69.1344,-68.2935,23.6986,44.0165,120.6168,-109.4322,75.3400,-85.7269,-13.0062,-65.1693,1.8362,-20.2080,-29.8545,-43.9160,-75.2483,-46.8798
-109.2842,-11.2220,-16.0613,71.3662,-82.5113,-40.4897,-29.8082,78.4144,-143.8431,103.5554,-88.8240,-9.4904,-75.7046,-15.8426,4.1630,-32.5283,-63.0803,-105.0492,-92.4233
-123.3844,-21.5202,-41.7376,44.5033,-96.3774,-69.2763,-91.9705,29.5973,-190.8051,55.1505,-95.4049,-12.5747,-83.9050,-28.6677,22.0595,-45.0379,-77.5128,-101.1950,-154.3185
-102.6418,-42.9276,-75.3408,-39.8871,-135.1905,-59.0295,-165.4398,1.1839,-293.3502,1.0130,-94.1190,-33.8769,-104.8756,-58.6834,-70.6017,-50.7350,-68.6073,-101.0302,-183.6944
-105.2962,-52.9978,-105.2356,-80.6202,-152.1513,-60.4302,-232.7131,1.5887,-326.8722,29.8436,-101.7675,-50.9262,-125.6058,-76.3634,-135.1236,-40.1162,-59.7952,-107.0165,-181.5934
-124.3423,-48.0824,-118.0568,-63.8211,-133.3320,-82.6317,-227.5399,1.2692,-237.1814,71.8724,-104.2682,-45.7046,-119.5058,-64.9389,-72.4376,-27.9839,-74.6055,-86.9758,-188.9331
-105.6199,-63.9094,-121.2010,-90.1238,-119.9597,-114.7851,-156.5274,-11.5120,-139.7980,80.8690,-82.9333,-43.3336,-96.6836,-64.8967,-23.9208,-18.1954,-104.7756,-69.3412,-189.5901
-108.1794,-126.3254,-119.6661,-150.2136,-135.6680,-151.1159,-129.8428,-20.2228,-118.2937,103.8588,-94.7014,-70.7858,-107.2993,-92.3366,-83.7137,-6.7763,-137.5189,-102.2404,-158.1296
-196.9156,-205.3855,-116.7242,-159.6629,-167.3690,-149.7437,-166.4024,-13.1481,-120.4129,121.5403,-178.3597,-110.2491,-160.3553,-101.9454,-124.7218,-3.8485,-177.5382,-139.3914,-132.9011
-276.1732,-237.4046,-140.1657,-147.5700,-191.4509,-105.4093,-165.5894,-4.2920,-99.9747,75.3613,-243.1573,-122.4778,-194.7159,-79.8584,-65.4558,-13.3923,-217.7437,-125.5860,-156.2325
-264.7969,-213.4398,-201.3261,-176.6978,-205.7747,-91.6123,-142.0188,-27.6273,-93.3925,-4.0649,-224.0115,-104.3374,-188.7931,-71.1181,-15.3493,-20.2894,-239.4967,-113.4751,-205.5294
-246.5444,-201.3591,-247.6627,-207.2545,-229.6713,-110.2644,-190.6697,-85.9025,-109.7800,-64.0416,-205.5903,-91.1010,-196.2881,-84.4961,-44.6592,-16.5140,-249.6183,-146.9376,-223.4953
-275.4964,-233.0125,-235.4618,-198.3404,-252.2113,-82.3967,-242.6699,-128.8946,-90.1148,-97.3253,-239.2090,-98.5423,-223.5167,-80.3587,-66.8867,-7.9022,-260.4508,-167.6050,-189.6752
-283.6239,-262.8069,-211.0967,-200.8237,-244.9540,-31.0451,-197.6573,-131.6900,-32.0756,-85.5844,-251.2835,-109.2907,-220.6948,-62.0910,-27.0178,4.4153,-263.1309,-151.2962,-146.2853
-252.9794,-270.5507,-232.5624,-250.9380,-236.9992,-39.6555,-154.7896,-135.8869,-23.7709,-29.3404,-218.8683,-114.8575,-201.9634,-70.9203,2.9634,19.1314,-264.9123,-164.5454,-138.3064
-232.0080,-274.4373,-267.6130,-291.8123,-263.7054,-89.6788,-200.1918,-159.2980,-84.2063,6.8852,-198.0078,-115.6098,-207.9590,-100.1857,-23.1105,24.7905,-284.4456,-215.3387,-145.4109
-219.9247,-261.1418,-261.9321,-270.0906,-280.2439,-129.9225,-219.6934,-154.7250,-107.8295,-0.1216,-190.3177,-102.9432,-208.1417,-107.4210,-35.1297,17.6740,-297.9465,-224.1803,-124.6026
-208.1926,-227.7734,-238.8722,-224.8376,-255.6279,-158.9556,-148.7375,-107.7178,-49.1003,0.2797,-175.9795,-85.2851,-181.4162,-88.4707,22.7240,10.3152,-278.0893,-176.9409,-90.2897
-212.3085,-209.0685,-245.2666,-215.2788,-247.2658,-163.0527,-94.0289,-69.3616,-4.8109,11.6185,-174.9972,-81.2610,-172.8603,-73.5918,78.2497,9.7666,-254.1261,-148.0327,-80.0522
-204.8059,-199.5525,-267.2907,-226.2778,-270.4366,-141.1714,-101.3752,-62.3261,-26.0722,-1.2487,-174.0591,-78.4754,-185.5693,-75.2772,45.5308,11.4696,-255.8174,-162.0044,-78.7461
-166.5442,-174.8378,-265.9600,-216.6092,-244.8209,-138.6668,-98.5507,-54.5343,-31.0526,-8.6524,-140.6619,-63.9785,-165.1611,-79.0907,-22.3790,16.3509,-262.3008,-168.8682,-49.1278
-144.7384,-159.8236,-235.1196,-191.8492,-152.7598,-154.4605,-66.0216,-33.3926,16.1617,19.4520,-105.7624,-57.8978,-114.3156,-72.3490,-29.0339,25.3964,-245.6033,-151.8905,-3.2518
-151.7417,-162.4478,-182.6530,-162.3188,-90.4491,-152.9949,-51.4683,-22.6851,41.6675,33.3595,-105.0682,-64.2810,-87.9575,-61.5230,-5.1372,25.7400,-199.2013,-135.4707,22.0063
-139.0818,-145.3341,-108.7794,-111.7275,-100.2980,-152.2396,-60.9990,-24.7179,28.1841,5.1366,-113.2032,-59.1016,-90.9077,-55.1477,-19.7566,10.9994,-132.5475,-107.5491,32.0100
-97.0703,-107.2977,-32.6451,-50.2850,-101.3671,-156.1130,-53.1982,-17.8735,37.7458,-22.0050,-96.1464,-39.7445,-76.2666,-44.4478,-32.8225,-2.8349,-78.6517,-53.9745,50.6137
-51.3597,-73.5153,4.2175,-15.0041,-50.1544,-125.5976,-21.4715,-11.5830,59.1673,-39.4704,-52.2638,-17.3616,-31.7050,-25.8666,-4.1761,-4.9973,-69.4746,-24.1899,59.8474
-17.5911,-45.5706,-9.8831,-9.3418,-27.1707,-84.4888,-20.9520,-33.5884,30.0782,-81.5194,-12.9075,6.0992,-6.4711,-17.3326,11.5619,-6.8938,-91.0448,-48.3232,35.8757
-19.5868,-27.9163,-30.5277,-0.1366,-69.6688,-73.5529,-69.7813,-69.2713,-23.0123,-136.9434,-18.7548,19.8143,-27.5969,-17.8243,6.4127,-17.7945,-96.5719,-62.5725,2.3485
-57.1296,-18.0350,-10.4070,43.1201,-71.3807,-50.4493,-86.8555,-80.2035,-33.1655,-170.8066,-51.7345,20.2912,-39.4779,2.5558,48.4704,-32.9235,-63.5398,-14.1118,-18.3132
-81.4422,3.5490,45.7550,116.7498,24.7536,1.9273,-34.0005,-70.4207,-9.5429,-177.1967,-53.8225,26.5778,3.4139,41.6168,122.9067,-46.2600,-27.0539,57.0337,-37.2725
-72.9606,15.3220,102.8554,174.2735,115.0347,17.8246,-0.5532,-72.2720,11.9387,-156.7744,-29.9308,37.2554,55.6935,61.6919,164.5369,-52.2998,-34.5648,106.0895,-41.6216
-60.2317,-2.1864,140.8154,187.6504,136.5578,-9.6198,-17.4993,-81.0240,34.5496,-127.0046,-18.9939,35.9819,77.2714,61.7151,197.3265,-50.2183,-59.3558,143.5747,-8.5178
-57.2479,1.6474,159.4524,199.4572,158.5953,-13.1159,4.3571,-66.8285,51.7861,-132.4131,-13.8808,37.0505,95.0093,73.0319,243.9020,-52.9200,-39.9522,174.3874,21.8204
-62.8417,38.0518,166.5910,239.6379,204.6606,15.2705,61.2835,-35.6434,40.1205,-166.3181,-8.2989,49.8304,113.8915,89.6906,231.0872,-65.1246,-9.3210,176.9493,9.8154
-67.0041,40.8139,169.0542,255.3600,224.8880,35.5334,54.8329,-17.6125,18.7030,-175.3252,-11.8261,50.6048,112.3763,84.5234,139.4846,-67.7617,-34.1623,157.6516,-1.2925
-43.4559,11.8694,166.6909,209.4568,235.4299,61.5243,8.6364,-8.7980,24.9541,-169.0873,0.1578,35.5293,116.8359,72.8521,80.6327,-52.9532,-65.6576,157.8603,23.0485
-5.4928,7.7368,164.0592,156.0188,276.4278,130.5675,20.4566,19.8135,52.0315,-177.9802,31.7013,24.0802,148.1695,86.5718,119.3323,-39.3640,-39.7699,198.0637,45.1096
3.5028,16.8346,171.5753,152.1535,318.3050,206.7249,77.2977,57.6189,71.0546,-153.6944,42.9264,17.9295,172.3922,112.1177,164.1810,-34.3213,-15.4110,251.7832,53.4074
-2.7487,15.8016,181.5197,180.2712,336.1065,213.7438,116.6268,61.2581,67.2974,-79.4364,39.6077,15.5723,177.0765,114.3804,113.9811,-28.5968,-39.4164,283.1970,83.8910
5.1372,17.1764,180.4421,189.5620,344.3758,166.0503,140.6420,33.2793,31.1797,-50.0211,48.0680,17.6094,181.8480,96.0376,19.0295,-28.0763,-51.3013,283.0266,122.4634
10.8900,6.7978,179.4049,161.0476,334.6942,154.4328,160.0906,18.1073,-28.5371,-101.9587,49.5104,11.7342,181.7115,84.2652,3.3056,-39.9455,-28.9399,256.6880,122.8348
14.5562,-22.7187,183.9148,117.3655,301.7406,180.7806,153.4580,22.8013,-74.5325,-141.7548,44.2584,-0.2005,173.1754,80.5915,66.9610,-48.9888,-28.7506,217.5449,96.0675
23.3643,-46.3941,177.0041,81.6892,273.7061,168.0260,111.4836,22.4119,-85.9127,-116.1454,47.7762,-8.8391,165.3400,67.8857,102.0645,-44.5059,-55.3466,193.9225,78.8887
17.5035,-65.9761,166.2705,49.3668,259.5666,126.8905,53.1969,20.5865,-71.0677,-67.0891,40.0235,-25.0391,150.2909,48.1746,82.8170,-33.1428,-53.9513,185.8202,69.3125
35.1504,-70.6428,171.2743,14.2529,253.7739,104.4810,17.1675,30.4601,-34.8774,-25.2756,48.6955,-37.0465,142.6413,30.9774,60.7908,-16.9164,-10.8276,150.3409,54.6219
109.1831,-39.2449,172.1180,-17.1378,264.3344,54.0038,24.6842,31.8321,-0.8869,3.7643,111.7156,-22.3145,166.4721,6.3342,20.4456,-0.7974,26.6791,86.0419,42.0074
126.0123,-46.1196,153.8671,-49.0389,274.2380,-42.3769,38.8338,3.8382,-15.9114,9.8319,133.5007,-22.6817,175.9556,-30.2102,-58.6017,-0.1579,15.5195,39.4242,37.6427
24.3682,-137.6897,139.4704,-84.0588,254.2631,-102.0939,24.8282,-40.7449,-59.2563,-6.9206,50.6517,-67.0499,132.1983,-55.8597,-94.2847,-10.5932,-19.2376,4.3920,37.6135
-38.0250,-185.7342,126.3719,-102.7553,211.2286,-111.9897,12.1804,-78.8409,-53.0942,-53.9866,-3.1713,-84.1187,93.3881,-57.1323,-42.4785,-12.5630,-17.5889,-51.9823,38.1334
20.0815,-119.0711,96.3560,-93.5132,151.9552,-134.4479,21.6896,-102.3852,-9.9534,-133.0125,40.4989,-38.0907,89.9403,-52.1235,-2.7046,-10.6895,16.0534,-100.6607,33.4531
58.6539,-64.7057,77.9258,-67.4780,72.8343,-157.7439,18.2500,-123.5958,-5.7287,-198.2805,56.0110,-1.6926,65.2717,-55.3806,-45.3829,-18.9000,24.3019,-114.0771,19.4698
26.0411,-81.3407,81.9129,-45.6208,9.2440,-152.3624,-9.0619,-155.3853,-15.8054,-233.7535,11.7848,-2.6441,19.9403,-58.1175,-93.0020,-26.7118,0.5259,-122.0708,7.8380
35.1530,-77.9642,59.5131,-58.0753,-6.7746,-155.7060,-29.3777,-186.3291,9.5408,-278.2176,21.3596,8.4707,17.8723,-56.8357,-69.5619,-22.0248,-13.6684,-139.0923,7.0222
89.9813,-50.7926,11.2650,-108.0830,0.6511,-191.1060,-44.2782,-209.7641,-4.4564,-281.2766,81.3580,24.6962,46.4352,-69.8198,-30.3665,-13.6975,-14.4721,-160.4696,-6.4594
69.4456,-88.0589,-3.7732,-148.2494,7.7038,-241.1885,-70.5174,-240.3703,-95.2472,-154.1097,76.9974,-2.7600,40.0804,-105.0580,-54.6589,-7.5849,-29.6814,-209.0642,-46.1938
-40.5604,-183.1073,10.2044,-161.0942,12.4154,-279.0551,-84.9736,-263.6518,-128.5575,5.4572,-6.7712,-60.7941,-5.9984,-133.6640,-95.6292,4.1062,-50.0311,-277.8022,-72.1221
-120.6268,-253.7875,6.6092,-189.9498,1.7473,-270.6144,-76.0158,-255.2915,-48.4590,36.1799,-74.1944,-99.0734,-43.0378,-131.2282,-55.1321,19.6230,-52.2876,-316.0115,-66.4201
-105.0947,-260.8918,-14.6582,-231.2971,-23.0789,-240.9168,-81.7708,-251.3442,-3.3509,-12.2603,-64.6000,-97.0257,-43.7197,-121.6871,29.3584,24.3308,-60.8132,-321.0319,-85.9653
-72.4674,-221.8193,-45.1458,-223.1142,-49.9531,-256.2870,-116.8552,-280.9417,-54.7668,-22.9341,-32.2240,-69.6823,-40.9694,-129.0307,33.3907,15.7001,-94.1713,-330.6288,-144.0799
-103.9207,-177.8985,-82.8010,-164.0227,-93.8383,-289.5174,-138.7069,-297.7310,-79.2430,-37.9751,-57.1378,-45.7622,-77.5656,-130.7596,-37.6743,5.7585,-105.9854,-342.7144,-163.8134
-149.8618,-149.5545,-85.2281,-97.8009,-143.7307,-275.6822,-126.3638,-286.8520,-40.7894,-99.9093,-108.6057,-31.8056,-121.7042,-108.4865,-64.4905,-2.1305,-71.2077,-332.1338,-129.8579
-162.8282,-118.1997,-33.4018,-10.5553,-143.8651,-221.2093,-105.5340,-288.0056,-24.6409,-114.3445,-125.0823,-13.3612,-123.7195,-72.2552,-12.6686,-9.9901,-29.6906,-299.8473,-104.6542
-210.3967,-85.3624,18.5310,109.5217,-90.7127,-133.6731,-75.4494,-271.9080,-22.5996,-29.4433,-152.1519,-3.2481,-116.6774,-24.0289,45.4945,-7.9294,8.1026,-265.0733,-75.3060
-279.7031,-81.4539,36.5457,177.8070,-37.0015,-50.6137,-18.2554,-196.6001,16.8533,66.6034,-201.6200,-19.5445,-124.3499,15.3525,49.5027,6.8532,47.9538,-237.8876,1.1952
-219.6523,-87.2520,30.8762,116.9679,-10.4450,-67.5043,32.7819,-109.5578,43.2019,98.2999,-159.0070,-31.6375,-90.5549,2.4385,2.3242,18.1816,39.3070,-201.6414,75.2094
-47.7682,-62.8077,-5.2175,-9.1200,-24.3041,-121.2038,43.5537,-27.9927,11.0368,100.2733,-31.5886,-19.0594,-26.1746,-36.2453,-37.4537,21.3977,-23.6402,-139.7294,106.9068
11.5609,-46.8887,-54.9994,-80.4274,-75.8096,-63.7515,31.7576,82.1691,-46.9616,132.8768,-1.1244,-26.2058,-28.0319,-36.9148,-29.9072,23.2303,-52.3573,-83.9906,125.6599
-105.0912,-88.4932,-68.9635,-79.2714,-101.5499,4.4765,5.3193,160.5376,-107.8073,190.9488,-106.2937,-77.1002,-92.7204,-23.9034,-28.8426,17.4504,-11.3497,-77.5634,119.9718
-231.5432,-137.5178,-62.2152,-61.5426,-61.9407,-47.8911,-22.5289,152.6909,-125.2191,248.0340,-196.7626,-122.6749,-130.4928,-37.1565,-72.0215,13.3939,40.7379,-105.7760,91.3606
-259.4722,-143.3266,-77.4711,-53.1532,-15.2628,-89.8283,21.9597,151.0173,-21.5829,324.9560,-200.8912,-127.5109,-121.7077,-36.3422,-74.4986,39.0457,48.3278,-126.4124,129.1270
-215.8601,-154.5664,-80.8045,-78.7864,-7.1593,-75.8234,133.4320,198.8448,133.0615,400.4017,-163.4206,-122.2410,-91.7758,-17.9798,14.9320,73.6070,14.1445,-118.5505,222.1518
-165.5888,-204.5378,-42.3106,-165.7673,-6.4101,-151.1184,170.4856,202.0654,176.0211,353.4594,-132.8809,-142.4765,-55.6460,-37.1811,107.4894,65.1630,26.0640,-74.7642,232.5985
-175.0778,-224.0845,-18.8152,-238.0951,3.4611,-264.6668,107.7239,152.4109,129.7579,164.3809,-148.3638,-168.5238,-48.8348,-65.4830,134.5501,23.7387,151.9106,-16.3125,161.0198
-223.1524,-160.8316,-52.2945,-204.0316,-10.6340,-301.3179,73.7768,117.9735,113.6811,3.5662,-185.6454,-152.9710,-78.4110,-54.9919,116.1451,-3.8177,279.0594,8.4745,115.3660
-212.0460,-84.8158,-97.9602,-154.3213,-66.8565,-351.6961,66.1386,68.3175,91.6307,-34.6174,-174.9059,-110.6424,-102.2374,-59.0007,64.9513,-14.4283,296.2689,-0.6019,77.4342
-151.8869,-66.7696,-90.8403,-188.9572,-124.9470,-406.5001,-3.7982,-15.2061,19.6932,-43.2443,-141.9045,-103.3802,-112.5800,-94.0816,7.8248,-22.6751,329.2386,9.6811,6.5690
-127.5273,-50.8371,-16.5918,-179.7908,-116.6614,-330.4665,-66.8252,-67.8899,-13.3478,-87.5052,-141.1562,-111.6181,-114.4682,-82.8851,3.7397,-27.3639,460.5046,42.8128,-38.3499
-130.3906,12.1498,71.7457,-39.8439,-44.5261,-211.4147,-54.7813,-105.2100,-12.5681,-155.7098,-135.6798,-73.1289,-87.3271,-30.2799,28.3107,-40.4850,526.3997,45.5556,-60.9880
-139.2371,57.0937,110.3303,71.6284,7.0899,-161.3287,-56.0897,-180.4058,-82.8685,-249.9897,-125.8110,-30.6834,-64.2570,-7.5397,2.6405,-67.4045,501.9506,24.2380,-116.1069
-195.7912,58.9338,107.9997,89.4545,16.0356,-104.5201,-85.4559,-243.5565,-158.6548,-305.9165,-172.0200,-43.9690,-90.9572,2.7285,-44.7811,-79.1994,572.0997,39.9150,-149.7611
-285.4060,68.7535,106.4472,135.3915,35.8702,-79.3072,-57.7043,-269.7451,-119.3718,-237.1713,-237.1320,-64.1969,-121.8008,30.5159,-14.2454,-67.3486,689.5936,81.0951,-128.7472
-341.2564,64.2369,93.0574,167.1025,46.7565,-174.6736,-19.2031,-308.9135,-45.3306,-137.4541,-259.7809,-64.9350,-123.6241,33.5177,89.3356,-59.0660,696.5905,95.8819,-132.6743
-341.9518,26.7851,51.1117,66.9755,-0.0527,-234.3142,-38.8099,-319.7004,-33.6262,-134.0715,-267.3405,-93.3129,-141.1688,9.3436,136.7712,-54.2452,717.4570,112.0625,-151.7285
-290.8679,43.2171,14.8335,-28.8320,-51.2981,-145.9655,-36.8533,-238.4699,-15.8195,-144.3249,-260.5464,-119.2337,-168.4527,10.6746,53.5882,-31.3216,823.6740,156.1827,-92.0204
-220.1632,118.3975,1.5934,26.2314,-53.3933,-50.4210,30.7794,-136.3312,58.9311,-80.9057,-213.7111,-81.9443,-156.8897,39.9475,-43.9009,-2.9064,796.7873,174.4258,11.0752
-194.5888,141.9324,-7.6469,102.0354,-43.3824,-31.9090,88.5818,-83.2664,128.6217,-47.6557,-180.8790,-37.2460,-129.7443,62.7898,-24.3608,3.6487,635.9136,166.2427,61.8653
-187.3197,108.8487,-13.4791,56.6294,-52.5699,-57.7723,85.0946,-58.9360,118.1634,-110.6275,-179.0246,-46.5098,-120.0849,53.6797,12.4050,-11.0094,586.6617,185.6329,56.0613
-95.7390,83.5508,-18.7656,-69.8081,-82.2159,-120.6405,7.9329,-63.1017,-9.5965,-178.4290,-123.7832,-64.9524,-102.1776,-3.1138,-68.1347,-28.1354,582.6865,190.7406,21.0336
49.1634,41.6867,-50.2724,-210.9187,-131.9342,-150.0204,-98.6587,-82.1498,-167.0137,-189.8221,-18.8190,-62.6337,-67.5869,-68.3325,-141.6944,-29.2520,421.0043,142.5091,-4.1087
98.2059,-40.0634,-101.0920,-318.3100,-158.2177,-91.9332,-106.2670,-45.8072,-164.6169,-148.7209,20.8059,-75.6498,-48.5421,-79.0762,-82.0044,-4.8998,220.4703,104.8509,40.9206
43.1614,-110.7675,-124.1826,-328.9828,-135.7251,-64.0298,-18.4522,32.2834,-6.1801,-33.4112,-12.2414,-97.0763,-52.7861,-63.1153,-26.6424,32.1464,100.3688,58.2816,116.1096
43.5183,-125.6721,-93.9157,-240.6734,-110.5178,-117.8556,-5.3369,70.6850,93.6252,117.5427,7.1279,-67.1918,-41.1312,-76.3891,-60.5011,56.3390,-74.2638,-85.5597,119.1701
149.1569,-71.4340,-29.2258,-92.7573,-66.1962,-122.4467,-59.5289,83.4997,80.9145,157.9204,119.5046,27.1976,29.2856,-77.5081,-53.1445,52.0638,-321.3913,-242.2934,74.4517
225.0294,26.5033,27.9881,89.4860,53.4083,-48.1156,-21.1116,116.9263,63.4257,34.2447,219.3533,130.5594,134.4728,-25.7591,6.1308,18.7508,-491.4040,-272.5197,58.4368
228.9582,94.9984,61.5742,230.0240,158.2870,2.3207,56.1629,144.8775,22.0246,-78.5733,249.2064,186.7796,199.6934,16.7865,-6.8368,-22.1739,-575.0659,-216.4769,46.4799
278.3113,91.8379,100.2064,237.5052,148.0077,8.7988,33.8788,162.0688,-69.2339,1.5053,278.0209,186.9013,215.1612,1.1837,-50.1173,-33.7427,-640.0730,-167.8137,17.0729
366.1356,48.7004,142.9112,158.3926,117.2233,-5.2576,-11.2694,197.1722,-84.8659,169.0539,329.2372,161.3643,232.7950,-31.3872,-26.9305,-13.5494,-682.4448,-143.8340,9.6001
362.1730,30.6807,137.8980,136.6274,151.3594,-44.7053,5.1856,223.7008,-4.6218,174.6637,335.3333,154.8171,249.9172,-36.0342,-4.2135,-5.4496,-703.3591,-148.1217,10.5211
289.7147,81.6744,88.9487,211.1461,161.1834,-48.1269,-3.0136,211.9103,28.3397,29.8840,290.4223,183.2105,225.5657,-10.8588,-34.9388,-24.9307,-689.8417,-146.2631,-14.7625
251.0738,154.9416,58.6604,279.8550,102.9031,66.6940,-64.2727,183.1994,7.3516,-40.3253,244.5351,203.4473,173.3817,36.5742,-27.2369,-32.4913,-602.7806,-59.8302,-34.3922
227.0374,172.2040,63.0525,286.3696,81.7771,267.8102,-81.7814,154.2264,36.4362,5.1571,205.9478,182.9424,146.4055,100.5542,69.9044,-13.3042,-498.2462,111.1644,-29.5942
193.4254,151.5609,85.1634,289.4619,142.8036,450.9633,-37.9088,125.5801,70.9453,41.9717,179.0660,155.2682,162.2835,157.7796,147.5288,-1.4927,-467.9023,275.9795,-34.9049
170.6216,91.5134,98.0488,247.4158,165.1068,519.4963,-15.5394,91.2915,13.7236,66.3930,152.5314,116.7661,159.8436,152.7559,73.2066,-4.2131,-502.2339,344.9491,-60.3908
109.7560,-86.8411,29.3790,13.5476,39.9864,431.2738,-35.5297,33.0245,-70.6551,120.3596,66.8128,9.4089,67.3753,60.8174,-84.4408,8.5522,-537.1064,288.0380,-84.9618
1.3672,-270.5446,-109.6762,-273.3338,-118.7966,282.8257,-11.8661,-20.3733,-61.1878,143.7162,-44.2726,-105.6326,-47.2727,-24.1087,-90.8380,33.9003,-501.5962,177.2109,-87.6460
-51.9242,-225.9608,-159.3636,-262.8424,-104.3710,216.2819,98.6392,-10.1453,24.8319,118.4855,-59.7430,-94.9261,-47.5620,-0.7862,69.1768,38.1581,-362.4897,120.9506,-56.9642
-33.6054,-44.9830,-81.2591,-17.9911,18.6257,217.0989,172.8747,24.4552,70.3464,102.5717,-7.9211,-4.1822,19.0673,64.1738,130.7419,19.9740,-224.5038,121.9024,-28.9638
-33.4418,-2.3089,-36.7618,71.6233,15.1256,192.0555,110.7031,1.1730,39.9895,88.0322,-13.9777,20.1100,7.4369,61.4113,43.8495,7.1000,-203.5793,114.7921,-44.4566
-65.8017,-76.8198,-71.8469,-17.8835,-52.0424,140.3806,46.5059,-51.7147,19.0987,53.1230,-53.5212,-13.9155,-35.3769,27.7396,29.1868,7.9216,-235.8291,89.8855,-61.9007
-96.4777,-127.7995,-89.0782,-74.6080,17.6487,81.2185,90.9122,-78.9296,38.0493,35.8228,-53.1133,-37.6155,-4.3978,14.4467,74.0502,11.8400,-235.8535,57.9888,-42.9408
-127.8768,-199.5241,-101.7848,-154.3238,91.1169,3.7472,105.4264,-101.2190,15.8286,50.2223,-59.8594,-79.8175,16.8618,-24.0367,12.7558,17.3401,-242.6322,14.2653,-31.1462
-137.3943,-259.9713,-138.9409,-258.5087,13.8166,-43.1247,33.3002,-110.0367,-36.4817,87.7937,-88.4974,-122.2357,-30.7180,-66.9419,-45.0946,26.5015,-243.4067,-7.5101,-29.0843
-95.4776,-161.0698,-104.8467,-154.3595,-13.4148,-20.3859,29.6433,-62.1271,-4.4116,130.9871,-61.9907,-77.0744,-29.1121,-32.4735,15.8578,29.3960,-164.7343,16.4042,15.2078
-39.8625,-30.9878,-10.8129,21.9731,84.2514,-6.6709,77.6193,-9.1098,72.0181,91.3519,-2.5902,-6.8330,35.4555,15.4693,35.3235,18.8706,-73.5232,33.1784,58.9470
-14.3325,-92.1870,-0.5663,-86.2541,63.3354,-52.9565,18.6667,-25.9359,54.2074,-47.9057,-2.1661,-35.9821,31.8349,-22.7368,-14.1848,5.6416,-66.9548,15.1094,31.4927
-20.0221,-175.0333,-42.1842,-230.8662,-42.0392,-61.8013,-55.7123,-67.5807,0.0570,-113.9616,-32.7167,-79.7971,-12.5554,-50.9218,52.4283,-0.4323,-80.4185,27.5559,-10.9238
-44.4594,-38.3455,7.0611,9.5618,38.3563,32.4247,11.8317,-63.1265,43.8762,-26.5426,-19.4886,-6.3586,25.0561,35.9109,174.8382,-5.1517,-44.1017,104.0889,1.1682
-44.1038,131.0056,103.0576,310.7946,187.1401,115.7860,98.3984,-39.7838,101.6668,54.2567,17.0512,83.6659,89.3715,116.5722,149.1891,-11.3986,1.1630,164.0255,27.6977
15.0377,92.3039,122.6996,208.6541,129.2801,73.6871,64.3259,-41.8743,38.3602,37.1648,32.7826,53.9012,72.4144,67.1816,42.5412,-11.5192,45.1107,131.5072,30.7183
62.8142,-16.5835,80.5067,-34.9832,-20.0350,-21.8002,6.5267,-49.9348,-55.8604,13.0130,26.4090,-16.7498,16.6927,-15.1978,14.2908,-5.7505,96.7132,53.1218,35.3219
24.9598,-17.3546,39.8910,-34.3741,-47.1158,-50.0232,23.0657,-32.4907,-38.5752,30.7259,0.7241,-18.0897,-8.0123,-15.8676,29.7062,-1.2473,92.3633,16.5908,52.2345
-32.2171,21.1927,19.2871,72.4938,-11.0899,-27.8580,71.5289,11.7777,40.3328,56.9132,-27.4709,8.8947,-13.1752,16.5708,3.9243,2.5330,34.5287,20.0997,73.7004
-21.5895,29.4586,26.9739,83.5889,-11.1718,-17.7277,96.6861,61.7327,82.2205,54.3423,-27.3453,11.8851,-15.7354,18.7089,-51.4805,7.1763,29.6110,16.2983,102.8438
23.8364,44.6238,45.7948,59.6533,-29.2693,-9.7048,84.7430,81.9698,125.6650,-20.1102,-7.1179,17.4966,-13.6073,18.9939,-57.3235,10.3748,88.2044,5.1892,125.8465
46.3588,53.6564,43.7438,36.4924,-43.4804,-1.1820,55.0122,57.5257,202.5457,-125.7841,8.6316,30.6648,-7.9506,32.8228,40.7811,14.3744,126.8970,-7.0479,121.2563
38.7724,15.0535,19.9321,-31.0992,-39.0826,-25.8897,34.7297,27.4022,198.7360,-140.2247,12.1824,13.2925,-2.2933,19.6481,112.8745,18.2358,122.9839,-40.5809,93.4504
-1.5733,-33.4127,-25.7409,-101.1865,-29.8355,-67.3544,-7.6661,34.4111,57.5046,-83.7921,-14.5734,-29.0164,-23.9311,-28.1891,-22.2940,12.5090,95.8235,-88.0815,54.4394
-43.2490,-11.5420,-71.6924,-78.2600,-64.5788,-79.4721,-94.8167,59.2069,-61.5121,-83.9991,-55.2240,-32.4190,-76.2113,-54.1548,-214.8819,-1.5637,76.5023,-121.2536,12.7767
-21.1522,95.3808,-42.9539,57.9587,-83.3396,-57.1919,-143.4132,64.3267,-43.3722,-111.9175,-36.3783,29.4459,-79.7375,-21.2260,-180.6403,-12.9463,111.3019,-126.3789,-20.9889
42.1551,170.1686,45.3608,158.8544,-4.4886,-29.8960,-112.6586,56.7639,-27.9829,-82.8957,34.6270,75.4108,-7.4540,14.5583,-35.1718,-22.2799,162.9304,-102.7783,-54.8628
56.9558,98.7536,54.6112,49.5355,46.8777,-41.7678,-98.8612,46.0578,-123.9198,-66.4688,52.1914,29.2680,26.1231,-18.7987,-44.4403,-30.5904,151.7207,-94.1048,-96.5387
12.2899,-5.0074,-30.7751,-113.1115,-34.1829,-87.2910,-123.3441,17.0252,-167.8882,-105.3206,2.4543,-27.8084,-27.9449,-65.0593,-78.3916,-26.4219,110.9167,-138.2906,-112.2370
-30.9221,46.1936,-56.5710,-7.9634,-70.5242,-78.3351,-78.7378,-12.0886,-31.7641,-100.6451,-17.7349,19.5404,-47.8737,-16.1300,68.6690,-13.0619,99.2803,-159.2485,-80.8240
-25.4422,166.1991,23.6061,226.4150,48.4918,-23.3819,19.4866,-6.6634,100.9999,-50.5100,24.9995,101.5859,22.5761,64.2917,199.4427,-11.9462,105.1681,-118.1585,-55.0953
28.8267,141.3329,71.5608,164.8590,107.7690,-62.5385,25.2425,-1.2105,37.7750,-72.0250,66.2796,80.3222,62.3069,25.4304,102.0780,-21.2533,140.6001,-145.5059,-81.8812
58.6384,12.8835,1.3142,-119.2378,-20.2530,-144.2022,-61.4084,-39.6447,-101.1962,-145.5910,47.4380,-7.2807,-2.1882,-74.5866,-35.5379,-18.1704,187.3597,-235.7868,-116.4916
-7.5566,-41.7164,-94.7804,-196.1786,-131.6074,-64.7102,-91.4474,-78.8210,-124.2972,-146.0499,-25.3123,-41.3814,-77.0271,-64.0486,-10.3031,-6.5909,141.0570,-170.3259,-102.3940
-100.3740,-21.5686,-100.7668,-50.2090,-98.5452,72.5306,-45.3433,-86.5258,-91.6864,-69.2532,-86.6716,-24.5857,-84.4597,11.4474,44.1121,-8.1815,38.6300,1.1829,-67.4123
-107.5988,-12.3412,-48.6860,18.5257,-77.2522,19.2553,-50.7507,-99.4964,-135.0773,10.3325,-90.7252,-19.9590,-80.6564,-1.6588,-28.1232,-14.0485,42.5531,-5.8513,-51.8073
-71.2005,-23.7320,-36.1994,-26.8197,-133.1841,-95.5106,-109.1540,-89.0754,-177.5345,95.6310,-77.6725,-34.8317,-107.0065,-57.4877,-122.7500,-0.7481,95.0567,-109.7404,-21.6147
-84.4530,-64.3397,-48.0468,-55.1536,-94.6443,-44.4837,-76.5193,9.6599,-110.9450,211.4041,-87.5127,-64.6171,-92.6795,-42.5916,-107.3847,22.4697,25.9764,-31.0285,49.4735
-114.1971,-133.4362,-21.5933,-75.1059,68.2694,39.2577,41.6962,120.0345,-45.7761,301.4474,-86.7383,-106.6209,-13.5117,-9.7814,-50.4349,29.4018,-76.9936,111.3635,102.6564
-95.0170,-149.8644,18.7170,-95.4997,140.8188,2.9056,62.3941,129.5255,-106.4211,295.7768,-60.1087,-119.6004,29.1355,-29.3878,-72.4405,16.4815,-54.0783,89.1943,89.0429
-38.4232,-93.8094,49.3555,-67.3531,59.6093,-54.7880,-48.7037,88.2318,-187.3221,210.3273,-38.1824,-88.0123,-0.6280,-58.2018,-154.0372,-2.3771,16.2080,14.9491,43.1330
20.9778,-70.4779,85.8075,-57.5433,-5.4727,-93.4495,-115.4214,76.7714,-152.7869,118.7550,-16.1176,-62.4622,-13.7089,-72.7138,-187.6541,-13.2346,16.8922,-0.1220,5.7067
39.8081,-106.7573,86.2243,-106.8661,0.7882,-139.8460,-57.7050,57.2121,-51.7015,72.4535,4.3224,-62.3394,7.8653,-81.3671,-120.7181,-8.6977,-24.4366,-28.8440,-16.4672
-10.6707,-112.4052,50.7142,-74.5835,-3.7005,-94.3774,16.1885,7.1141,27.9051,66.8795,-20.2801,-48.5733,1.1846,-45.1292,-11.1619,-0.0625,-72.1164,-17.5129,-14.7437
-48.8311,-76.0528,80.5270,51.4306,-3.6961,23.3709,16.5124,-27.5573,77.2897,55.8301,-54.0586,-19.2173,-9.9882,15.4440,32.8445,-3.3237,-104.1900,86.5914,-7.1056
14.9827,-61.9292,152.5172,62.5955,31.4696,29.7194,-37.2514,-50.4076,79.2077,19.2533,-12.3497,-10.3365,22.3935,9.0187,-6.5104,-8.6647,-75.0560,116.4557,-37.4060
93.6338,-58.5187,145.5056,-28.4443,38.2686,-30.1902,-81.9055,-81.6787,22.9011,2.3460,55.1314,-12.8001,50.1294,-32.8302,-17.0207,-4.9115,-25.5213,42.2149,-83.7744
74.0574,-25.1373,115.8617,13.4671,18.3303,22.7039,-74.5525,-92.9978,-26.7070,17.2386,49.8344,6.5808,42.9529,-4.9281,72.6814,-10.1080,-33.0931,49.7851,-89.5221
30.7006,4.6398,156.0083,132.2718,35.2207,104.9972,-41.4467,-93.3965,-30.0818,-6.9844,21.4045,32.6616,48.3376,49.6205,179.3501,-29.0434,-48.8145,104.8587,-81.9045
59.9746,-6.2608,167.4817,81.6118,55.2633,72.5938,-36.1248,-121.9217,-33.8719,-73.7252,49.6940,29.3752,69.3998,32.5228,203.1981,-32.2293,-2.2287,43.9239,-110.2777
97.0402,-29.8520,100.5698,-60.8616,39.9752,28.3882,-41.9703,-141.1753,-52.7425,-87.2881,81.0744,3.5462,66.8620,-9.9681,160.2099,-14.5923,47.3316,-27.5247,-132.0913
69.3052,-35.0505,74.7848,-60.0658,44.2211,85.1403,-17.4493,-102.1153,-30.6511,-51.8467,54.5112,-10.0304,54.8642,7.6315,127.2183,-6.4667,26.7345,46.2013,-97.7845
28.5269,-22.9864,123.7527,52.8646,92.0943,164.5726,21.1064,-40.4087,49.6161,-57.0690,19.8756,2.8069,67.2188,60.2868,144.0431,-13.6791,-27.4537,158.7785,-41.6900
37.1093,7.7518,178.0680,140.7363,153.0663,171.4011,63.2396,9.6278,123.6423,-63.0857,35.7643,29.1078,102.9099,86.6631,168.6706,-15.9700,-38.8465,165.0661,1.2118
72.8295,50.0861,219.5168,195.3152,210.9167,111.2566,120.3067,66.8166,130.3507,10.2715,78.0315,48.7766,139.9368,77.3257,126.8240,-11.7302,-2.7864,96.6737,46.7429
80.7426,67.6796,232.1352,224.6676,234.1634,54.6085,147.8867,120.2858,97.9449,75.6006,88.3378,51.5449,148.5714,59.7630,39.0852,-11.6541,4.8520,58.6572,96.2905
63.1537,54.8741,209.2123,217.2696,217.1052,73.2122,116.5199,130.4065,98.8436,31.6906,65.8125,46.1331,131.8267,62.9609,-5.3632,-13.6403,-33.3938,97.2914,122.2587
87.7681,60.3834,203.0201,186.4492,214.1902,134.4451,80.2174,104.3922,119.4722,-41.5833,76.5867,46.0281,134.0014,74.8220,-3.4967,-9.0432,-7.4198,141.3329,114.3754
162.8080,95.1099,191.8472,119.7483,205.6589,136.1964,58.5360,82.5573,90.0340,-36.6879,135.8444,49.4080,149.5929,59.4458,16.6267,3.6859,95.5391,99.6876,86.8765
185.4420,110.8438,114.9878,57.5075,128.1899,93.0036,26.3114,76.8031,44.7947,8.8074,158.6971,55.9258,129.0966,41.6125,103.0485,11.5288,93.5190,44.6518,58.8464
120.2312,100.1950,49.8723,100.3407,53.2680,103.7487,27.3969,63.1053,64.7408,4.3959,112.4897,75.5129,93.5435,69.1837,225.5556,0.9226,-51.9724,88.6296,42.2290
73.8806,101.6806,48.2669,170.9494,61.6671,158.3339,89.5916,32.5205,99.8674,-38.5681,81.1318,93.1009,90.3336,103.6006,242.5383,-9.9720,-124.0889,143.3833,39.1319
94.1256,119.0884,-0.6979,108.7887,81.4364,170.7409,132.1305,20.8839,70.8816,-19.8885,105.9766,83.2476,93.0663,87.8229,166.6089,8.5248,-46.3311,83.6822,46.7413
110.4925,139.1319,-107.2073,8.8446,66.4028,123.7512,116.2294,45.0198,37.7321,81.3873,136.8750,69.5668,80.3735,55.0221,150.1501,40.8953,15.7709,-21.9044,51.9671
105.0139,164.0074,-138.3682,29.1214,72.0761,60.2443,102.1196,57.8881,65.5500,152.8863,151.8481,85.3663,84.7573,48.8086,192.7010,50.0449,-5.5499,-64.0758,38.7972
113.1679,174.3865,-100.6109,82.9304,87.1575,21.4607,103.3702,38.0293,93.5427,146.4283,160.8013,104.2745,98.5373,48.0481,178.4533,41.6601,-38.6985,-54.8546,25.5307
119.7338,158.5191,-92.2396,73.7759,60.0636,6.5268,83.5213,31.3145,67.2819,142.8861,151.7207,97.0625,81.8752,30.7843,90.6735,40.4054,-54.3568,-57.5522,43.6282
117.4895,137.4508,-116.2627,23.9133,-7.2015,-33.9550,44.7533,41.2204,21.8219,134.9647,129.1898,78.5585,35.9176,-4.2241,-25.4714,45.0205,-31.7266,-125.1144,72.6701
135.3413,97.6311,-168.1340,-106.9915,-117.7122,-101.5426,-5.4624,23.0097,-7.5389,43.9976,113.6623,51.4983,-23.5405,-58.2211,-127.2317,50.8784,22.8690,-234.9199,75.6515
149.0907,39.3960,-240.7092,-255.4378,-229.8373,-123.5312,-60.0245,-3.2541,-26.5383,-49.5783,97.3421,21.4251,-74.4589,-95.5027,-159.3599,55.3536,8.8491,-267.3353,60.9120
115.7718,49.8601,-248.9148,-193.4401,-239.9459,-98.7517,-81.7427,-0.8894,-52.0398,-51.7751,73.8611,36.4979,-83.6052,-76.9867,-144.2373,39.2845,-73.4113,-211.0661,35.5214
69.4928,135.1501,-202.6001,1.9173,-185.0618,-102.6229,-74.2522,-3.5288,-82.2808,-73.3094,58.7971,91.8948,-71.4787,-43.6275,-162.0458,6.1237,-91.7794,-207.1905,-11.5282
63.8662,159.6035,-215.8456,12.1516,-187.5468,-116.6208,-88.7098,-27.9579,-82.6202,-171.7666,57.6727,107.5501,-78.1339,-45.2424,-182.8488,-5.2512,-64.0091,-247.4947,-52.4516
76.3388,99.5253,-242.6723,-99.3572,-196.8373,-69.5203,-122.7885,-40.3997,-52.5989,-182.6850,57.5088,71.1412,-78.6146,-50.7124,-151.0164,9.8113,-87.6189,-187.5595,-65.8373
50.3001,67.5727,-181.1561,-72.2347,-146.0586,-7.2043,-142.2125,-46.5772,-60.5013,-38.9772,35.2240,40.2926,-68.7303,-37.0952,-138.6465,17.6487,-88.7526,-86.4972,-89.8469
-2.7544,61.7946,-133.5018,-19.9855,-149.4297,-5.5910,-153.3984,-64.2284,-110.8490,103.7461,-11.6434,18.0892,-101.0805,-41.6970,-170.9805,19.5181,-22.0580,-96.1797,-125.6371
-23.5582,15.5644,-189.8350,-113.4723,-234.3891,-17.0682,-153.8153,-64.1023,-115.0724,144.9395,-41.6469,-13.6719,-149.0881,-60.6937,-139.6353,35.6079,-9.4556,-140.6043,-116.2397
-26.2559,-20.3107,-229.9998,-176.0724,-248.2097,23.9617,-123.2409,-42.5476,-72.4116,129.5850,-45.1741,-28.8803,-145.2952,-46.0653,-53.8231,45.4810,-53.0504,-93.0284,-76.6080
-74.2092,-4.0435,-182.6268,-88.4757,-170.9260,82.5144,-88.6347,-30.5475,-61.5997,104.5818,-74.8866,-26.2736,-126.5637,-8.9430,-53.9416,31.0302,-28.3105,-18.9054,-67.2706
-136.2431,1.6501,-137.1085,-21.5928,-121.2608,123.6904,-73.9983,-18.6142,-56.7134,78.2683,-127.3856,-38.3171,-139.3448,9.4678,-129.4231,21.5113,41.7613,1.9281,-63.1183
-145.0557,-22.5684,-133.5703,-53.9154,-106.7386,176.5252,-49.6824,-0.0719,-4.3622,46.8991,-142.6580,-57.3784,-143.7106,18.8894,-149.9585,34.2670,73.2569,3.7849,-26.1652
-138.7324,-35.6918,-135.4509,-81.4566,-75.7449,230.2736,-7.9386,0.8713,21.2399,11.8171,-133.7177,-63.9314,-125.9197,32.7433,-121.4319,41.8845,86.5981,2.6779,-2.2937
-150.7789,-35.4426,-128.9203,-76.5495,-48.4894,222.4749,17.2902,3.7162,-36.3672,-13.0982,-135.6608,-66.6054,-116.6787,27.2698,-140.0758,28.3791,103.9129,-28.5406,-16.4873
-118.5332,-17.2233,-87.4132,-60.5462,-43.1922,166.0672,12.4867,26.8959,-93.7234,-54.1989,-115.1767,-57.0286,-103.9999,6.1968,-192.3773,7.9180,134.3170,-71.8882,-28.0751
-44.5611,34.2008,7.9361,-2.8354,-31.7181,141.9895,-7.1671,21.3382,-89.5047,-153.3720,-69.4453,-23.1630,-72.5162,8.6149,-193.2659,-12.8860,210.6796,-77.7879,-36.2730
-6.5668,68.4844,93.5487,56.3040,12.1634,161.3638,-14.4192,-21.3053,-71.1248,-252.5169,-41.3353,1.6085,-34.0582,30.0254,-143.5899,-32.7964,272.5802,-32.0507,-67.2265
18.4394,47.9385,114.1066,33.7282,82.1725,173.4368,4.0961,-39.1369,-76.7882,-268.0659,-8.5024,-3.3267,16.5017,31.4472,-117.0434,-39.1004,230.9475,24.4726,-91.4794
72.4165,34.5758,109.8370,-3.0304,131.5699,175.8806,16.0332,-29.7329,-85.1113,-233.9885,46.7433,-1.5839,67.1218,24.1977,-110.7645,-32.5955,152.2785,59.5866,-78.1736
82.2049,61.7339,126.0952,57.4555,143.1333,186.4153,10.8219,-30.5758,-64.0942,-200.1725,61.8341,21.5540,86.6883,48.9568,-35.6528,-31.7527,123.7189,113.0520,-43.0718
35.5834,72.7041,146.8351,145.5249,168.4293,175.6564,44.6153,-22.5843,-10.6868,-148.9160,38.5286,35.0882,100.7407,86.7246,92.9156,-36.9781,94.7816,198.3455,2.3970
55.2488,68.7610,152.0067,158.3013,197.2753,131.9362,108.3752,-4.3706,31.2195,-113.5037,65.4128,46.1340,135.2973,88.3113,123.6614,-34.7593,32.9767,223.8287,49.3730
153.7045,99.7102,148.8620,143.9524,149.6486,87.7307,114.8567,-19.9142,31.5677,-151.9078,132.0962,81.5497,146.3981,61.6940,31.7127,-29.7440,-7.8450,164.8080,76.4033
191.9877,93.9529,136.0888,112.1267,65.3858,32.1154,88.7996,-39.8281,40.5959,-206.1507,141.5822,91.9660,122.0208,38.1590,-9.5104,-31.2431,-35.9277,140.4985,94.5614
129.1322,-27.1963,96.0542,-15.7806,53.9129,-71.4255,116.8968,-0.2950,99.6444,-183.0380,91.6231,28.7038,112.9513,10.0597,80.5902,-30.0697,-105.2409,181.6567,117.1082
54.9782,-131.8889,37.2964,-128.3033,87.7333,-191.8151,148.0399,60.8383,160.2206,-82.9449,56.3723,-29.4531,119.4936,-20.5732,190.4811,-19.9985,-184.2689,171.7837,110.4341
11.5612,-83.6269,3.2920,-48.3429,87.1757,-266.3982,111.7927,71.9444,179.2259,36.1758,50.0681,-1.9530,105.1909,-20.0950,250.5678,-11.5278,-199.7489,90.7958,74.6429
-27.1052,-7.0596,11.2225,76.3226,70.9424,-271.7043,70.2486,51.5982,171.3079,112.7797,30.4223,32.3536,76.7369,1.6315,282.1361,-7.9052,-131.3099,41.3436,62.3992
-81.7361,-47.8130,25.1854,21.4995,66.6666,-218.4615,57.1841,52.7922,138.3405,128.3720,-29.7074,-22.2304,37.0425,-1.4091,252.0123,-0.8628,4.1975,36.4895,59.3029
-151.8315,-109.4398,16.7522,-88.2050,49.0586,-161.3847,8.4820,65.7295,76.8706,128.9655,-110.9087,-102.2202,-28.1993,-25.7865,143.7777,5.9339,162.2293,8.9049,7.8943
-193.2934,-84.4492,-1.5907,-78.6085,4.3487,-170.7141,-72.1179,44.2030,15.7930,121.7730,-153.8867,-110.6711,-84.4105,-41.2653,59.3253,-0.3029,250.7896,-36.0819,-62.8280
-146.7561,-38.8798,-15.1087,-46.5633,-57.6125,-221.9988,-114.4414,-18.4808,-27.8060,76.2590,-118.4571,-67.1162,-89.8199,-53.0275,56.2011,-12.5129,214.7045,-65.1617,-93.1672
-49.6493,-18.2155,-25.3173,-55.2922,-101.2868,-227.4047,-109.2874,-76.6682,-48.9430,72.9693,-41.3399,-25.6577,-65.6625,-65.4200,56.0882,-5.4188,120.3450,-105.5157,-87.4985
-5.9595,10.5546,-38.8701,-15.6273,-89.4593,-185.0647,-81.5671,-86.8000,-30.3393,192.3246,6.4996,3.8875,-49.5392,-60.9038,12.5322,25.1039,46.2232,-165.9044,-52.7176
-13.1696,18.9381,-66.6278,24.8381,-73.6227,-150.2894,-45.6838,-54.4176,1.1613,316.5162,13.1348,15.2265,-48.9180,-50.9284,-30.2978,52.4832,-32.9424,-199.2268,9.6457
20.8416,-16.3314,-108.7724,-36.6894,-128.5416,-128.5322,-30.4473,-15.6890,-16.1240,326.5399,27.5518,10.5363,-57.1768,-64.7570,-63.1132,58.6900,-153.5696,-203.8311,38.3564
91.2598,-31.7616,-140.4083,-96.4264,-205.9591,-120.3521,-49.1854,2.9761,-76.2768,293.6120,65.8340,22.1301,-62.4898,-90.7213,-112.2130,49.5475,-286.2982,-218.5318,1.0343
108.6957,-8.5973,-132.2138,-30.7418,-220.3033,-141.2681,-76.5600,1.6441,-119.7476,275.6165,81.5364,56.0604,-55.6891,-93.5209,-151.0767,29.6941,-397.7865,-211.8631,-25.9914
72.3620,3.7857,-78.1879,84.8135,-172.0087,-142.1577,-85.2932,7.4016,-128.6573,217.2125,58.2890,77.6706,-34.9895,-65.6740,-146.8464,1.1200,-456.4516,-131.4391,4.9303
57.3402,-3.5414,-11.1241,132.6445,-91.8079,-64.3422,-73.0235,34.8941,-129.8058,117.0110,43.6930,72.7437,1.4366,-29.6834,-133.6615,-21.7059,-448.5571,-22.5471,34.0421
75.3903,-31.1772,17.5507,97.2131,-20.8440,44.4448,-75.1594,54.3718,-144.2183,37.0703,54.7176,53.8292,37.2233,-12.9887,-155.2697,-27.7170,-460.0074,46.6588,27.0119
91.5046,-89.3197,6.4156,27.0109,-8.1187,103.3878,-120.1332,48.7596,-160.0550,-5.4485,60.1871,31.4740,47.9230,-20.1430,-192.9179,-24.8547,-553.3306,91.3524,19.3681
106.8625,-114.4099,9.6688,6.8546,-17.2014,118.6312,-155.2948,45.9604,-149.4424,-41.0651,63.9061,28.7033,52.2109,-21.8352,-201.9517,-27.9269,-621.6836,136.1783,14.8598
120.5447,-42.7876,47.4071,105.0982,15.2872,131.6688,-126.7153,47.3552,-124.5389,-112.4750,81.7732,70.9496,75.6020,7.4396,-180.0208,-46.9764,-584.5727,160.3228,-6.7440
105.1819,66.2325,94.1050,278.2644,56.6310,134.4941,-90.8739,19.6250,-118.6014,-200.4023,86.0217,134.7581,93.7845,50.8110,-151.5720,-75.6472,-514.2852,166.6599,-25.1486
79.1031,112.2360,137.6158,377.3397,85.0145,115.0362,-98.3643,-22.9409,-111.4522,-222.8714,75.3188,159.8848,100.2132,72.4619,-110.0467,-88.6442,-449.4512,177.7588,-32.8876
91.7901,65.8878,150.4979,285.3263,131.0584,113.3602,-94.4157,-40.2888,-84.2416,-215.2855,91.0378,124.6603,126.6329,61.1726,-43.8835,-77.3087,-392.2452,179.7745,-59.7960
124.8020,-28.2091,95.1969,75.4290,138.1053,151.1061,-57.0155,-44.4359,-83.2343,-287.0576,114.5891,70.3812,145.9167,35.1916,2.9961,-64.6422,-402.1144,163.5853,-88.6474
110.7252,-82.2182,23.5865,-39.0172,61.9469,164.4071,-37.2218,-53.2155,-111.7367,-352.4912,87.9004,40.9230,108.0550,19.0745,-0.5084,-62.5567,-420.1772,146.9178,-75.0450
29.1125,-61.4235,11.4859,9.0527,8.3651,103.0318,-29.5551,-45.3489,-99.3915,-284.5320,18.0120,30.9131,48.0244,21.7552,15.1138,-60.9602,-309.2910,121.2878,-53.0453
-81.5995,-38.1327,7.3227,70.4481,21.6554,24.0262,-2.2912,-25.2115,-49.3911,-199.9065,-52.0343,17.8613,10.9821,31.1363,96.7475,-59.4773,-170.3527,65.7916,-75.5615
-158.8035,-58.1696,-67.1100,49.1221,-3.5092,-18.5264,13.5347,-25.0142,-37.0920,-187.4769,-96.9519,7.6460,-25.6165,24.0489,138.9655,-55.1723,-186.8876,-19.7801,-101.9196
-153.5941,-83.0848,-168.4107,-25.8693,-88.2584,-66.6894,-0.9227,-32.8561,-64.0834,-113.9571,-92.2916,4.1399,-68.7922,-16.7708,61.1435,-28.9503,-275.9106,-141.9262,-81.9233
-100.7286,-111.7812,-231.9314,-149.9120,-152.2283,-146.3584,-9.9000,-14.0240,-68.9165,30.8257,-55.5554,-18.9749,-92.9784,-76.8697,-17.5459,12.9224,-274.2146,-279.8230,-50.1948
-100.9663,-162.1876,-252.3934,-272.8210,-166.3291,-198.2076,2.4033,24.5696,-32.1144,96.7244,-61.3710,-67.7109,-107.0782,-109.0117,9.6149,37.1206,-184.7216,-345.9636,-37.4403
-166.1669,-181.1233,-213.3584,-269.5902,-122.8675,-181.7144,18.1721,52.1492,10.4523,104.9491,-117.8351,-106.2390,-118.2236,-92.2214,38.4805,37.4163,-53.9403,-297.1187,-21.7727
-188.3223,-137.9638,-117.6869,-167.3468,-42.1777,-130.6943,25.5898,58.7634,18.3281,138.5884,-139.8173,-110.3214,-104.0316,-62.6273,-17.5532,31.4994,82.5055,-208.7505,-6.9614
-123.1567,-65.3963,-32.5376,-86.6667,-10.9781,-93.7954,27.4631,54.6701,8.2766,130.0086,-97.8168,-80.4996,-73.7124,-44.6087,-52.4237,22.2366,173.2206,-156.4237,-10.2882
-57.2137,32.5625,12.4927,7.8285,-28.4086,-83.9196,36.7458,48.8787,34.6666,66.1302,-51.7815,-22.7882,-55.1059,-17.1152,-15.8804,10.0911,237.9930,-134.4787,-4.4238
-41.9011,128.0389,39.9372,132.7280,-7.5001,-66.7108,45.4071,34.9391,81.1484,35.9298,-33.2398,29.2906,-43.8121,17.3940,-24.0483,7.4896,295.9913,-114.4982,18.2488
-24.5526,137.8320,41.0686,140.5887,28.0607,-4.3686,26.9692,6.6737,92.2971,10.3083,-17.3630,35.7899,-28.2217,29.4197,-74.6693,14.9581,280.2021,-74.5554,20.6397
12.8866,81.5368,29.4153,36.7444,38.7575,78.5833,16.4100,-17.7804,96.9565,-73.0274,5.1285,13.2067,-1.9138,36.0827,-16.5179,17.9731,231.1845,-2.5376,13.8745
13.3104,65.5537,62.6604,14.2837,91.8125,137.5950,67.6743,-24.2950,129.0229,-151.3678,8.8854,0.5506,35.8348,69.3012,115.9116,10.9398,294.5942,75.0365,38.9827
-27.3321,103.9815,118.5366,99.0701,157.2925,181.4862,123.5873,-21.7485,141.4078,-171.0095,-18.8691,2.2602,47.6740,106.5866,128.1546,1.5091,421.2565,127.6096,73.3271
-39.1713,159.9529,129.7087,189.4467,125.9257,219.1539,116.3331,-3.0800,141.7549,-151.5171,-42.2904,24.1789,16.0278,124.3912,34.9960,-1.2622,441.8334,160.4133,85.6629
11.1593,222.7126,125.4592,259.0596,81.0657,221.1776,109.6650,39.9568,187.8817,-96.3373,-8.8095,68.7198,13.1146,135.2841,15.1969,5.8601,377.3301,173.3892,99.1639
86.1937,226.6725,152.1060,237.3143,148.4021,193.4253,147.6206,69.2200,215.5769,-23.8925,68.2887,77.8543,79.7893,126.2627,60.7784,18.3325,346.2250,161.9765,113.1737
120.4458,129.8551,171.5280,80.1903,230.9108,176.3664,148.7937,52.3954,162.2282,11.0162,102.6837,14.7157,129.2536,82.7116,46.1317,28.3044,358.8492,157.6143,92.2027
