Fp1,Fp2,F3,F4,C3,C4,P3,P4,O1,O2,F7,F8,T7,T8,P7,P8,Fz,Cz,Pz
-17.0258,22.3573,-46.8527,1.5245,-23.2079,3.3238,-75.2185,-48.0332,-105.3427,-81.0251,-17.5742,-9.2705,-57.7087,-34.6890,-130.5759,-103.8940,28.2334,-8.3400,-52.2645
-10.8282,-0.1474,-160.1443,16.3847,-30.9334,-2.9213,0.9794,4.5217,-24.5536,-10.4884,39.6656,0.6263,-8.1420,-16.4935,-129.1665,-58.9293,59.2828,5.8350,45.6433
4.3391,-6.2084,-115.9431,24.4581,-44.1744,-30.8212,28.7255,-28.8355,16.3391,-15.8822,29.8048,24.7797,-22.3763,7.1772,-99.0700,9.7636,62.4802,-37.9659,38.7262
34.2122,-26.4626,-11.8254,-11.3451,-104.6870,-83.9658,-46.0023,-114.7317,-9.2085,-79.6238,29.0580,22.5223,-45.7829,15.5469,-53.6690,31.9681,22.0397,-124.4743,-57.0021
61.1452,-56.6288,18.6154,-63.8233,-150.5518,-128.6236,-95.9783,-140.4614,-7.3123,-93.0822,103.0596,-11.5898,14.7478,-1.4863,19.8846,9.5399,-12.4235,-166.3570,-108.8061
61.1000,-43.2064,26.3936,-77.0816,-111.1777,-117.0199,-78.5884,-101.0722,15.5119,-59.8522,136.2444,-45.2197,62.5411,-41.8236,101.0434,-14.7367,-5.1738,-123.3833,-117.1396
46.8528,-7.0560,48.4117,-62.1190,-38.8015,-82.1787,-85.2480,-70.2863,-13.1560,-49.9801,70.5944,-62.2496,-0.1355,-83.6819,123.8707,-35.5994,15.5476,-71.6084,-139.3130
42.3661,17.8323,57.6837,-37.9348,-6.5748,-77.6688,-135.1700,-71.2570,-77.7323,-66.9748,48.7681,-50.7577,-59.7862,-84.9625,68.6098,-45.2509,43.7130,-69.2093,-162.9704
38.8482,51.2765,87.1885,10.0686,-1.5348,-73.8617,-167.3707,-90.1574,-131.8513,-92.1575,105.8347,-10.5744,-29.0581,-48.6024,-18.7935,-21.7352,90.5487,-72.7941,-177.0869
33.0727,49.2126,110.0183,41.8868,-4.2082,-56.2783,-168.6883,-124.4943,-162.4033,-128.5983,78.2992,14.2687,-6.6394,-24.7547,-84.3021,0.0158,95.4159,-63.4024,-173.6914
46.5654,-34.2953,31.3705,12.9571,-29.6747,-66.5378,-159.7356,-144.7609,-150.2583,-144.8031,-38.7920,2.8161,-36.8224,-10.5889,-86.9240,-17.9060,23.5418,-68.8525,-121.8365
61.2067,-95.4740,-77.0536,-12.7252,-47.5585,-65.2988,-116.3421,-97.2789,-85.4348,-92.1498,-66.0432,-4.5471,-27.1875,23.0191,-19.7209,-24.8584,-40.4595,-44.7218,-43.9958
32.2558,-60.1402,-89.5357,6.4166,-10.0899,4.4944,-19.1912,-0.8214,-6.7963,-0.4593,-4.4446,-0.4628,26.5402,33.0701,58.3390,3.6794,-55.4007,40.8631,7.8913
-20.7245,-19.6268,-80.9822,-11.6748,32.5252,57.8139,42.2382,51.7349,20.1218,42.2396,5.3797,-21.1393,21.9720,-8.7388,76.6593,-5.7893,-88.4352,89.1518,27.1085
-45.8951,-16.1513,-127.6227,-85.3970,-2.4737,26.6526,-26.1324,36.8968,-28.0072,25.6944,-7.0181,-47.6689,-45.6947,-32.1684,42.2435,-42.2645,-139.8879,48.5431,9.2676
-46.8305,7.9947,-135.8981,-107.1139,-74.1214,8.4343,-130.6604,28.3540,-86.7770,22.8284,44.6534,-31.0268,-84.9733,9.5037,11.1024,3.1756,-144.2528,21.5173,-37.8732
-41.4148,37.1698,-81.6973,-49.2637,-81.3141,60.3127,-130.7604,47.2888,-93.7711,38.2373,89.3283,17.0705,-73.3448,75.3995,-0.1065,88.4418,-113.3012,56.0222,-56.8686
-18.0668,36.1817,-47.5069,1.1601,-19.5965,96.8095,-76.6916,38.3857,-84.5051,8.3962,66.5144,49.9362,-59.4463,117.1541,-0.5759,79.0420,-81.4795,76.5444,-46.8831
8.5495,37.2551,-15.5674,4.1045,59.2589,78.6345,-46.3897,1.5573,-85.1568,-43.9565,39.3141,47.9450,-48.8914,106.6230,21.6416,23.5097,-43.2772,58.1400,-59.6158
10.8822,43.5227,37.2289,-4.7269,128.1176,61.7483,6.2500,-10.6230,-53.6056,-48.5627,36.8617,31.0549,-12.7503,65.2212,53.9150,28.9412,-13.1851,49.8022,-49.0137
17.4937,53.4002,44.5696,22.6624,149.5096,81.0521,43.2253,10.4813,-24.2673,-29.6621,40.7136,42.2841,25.1275,80.7485,49.2963,34.1500,26.5852,78.9177,27.8911
53.7052,101.9404,47.9632,94.8880,122.4895,122.0339,-17.5703,40.7507,-59.3590,-30.8469,54.5157,81.0386,12.9244,148.5869,26.4445,-4.4028,125.4959,133.2234,63.5072
73.2842,127.8527,134.3918,129.2854,134.4185,128.9184,-39.4849,53.7450,-65.0623,-22.7655,29.9899,84.2406,-35.7797,136.3011,49.2028,7.4874,195.5798,147.5008,21.4619
51.5192,59.8509,192.2367,65.0722,198.1035,66.7819,90.6629,35.0310,37.0787,4.3759,-50.1065,51.9446,-49.5900,65.0469,77.0786,67.6965,138.6701,76.1690,64.9758
45.8539,14.9085,127.1220,21.2652,206.4999,24.9232,188.6552,29.7569,114.6277,16.1497,-42.3353,76.3703,6.8497,122.3127,23.4729,65.6878,101.9487,20.4264,230.1969
77.4135,74.1140,76.1728,97.1661,156.9092,73.7193,129.2567,58.6216,65.2423,1.5632,80.2938,150.9742,78.8735,261.9376,-55.2474,15.6471,188.2184,58.0623,284.5329
71.8520,98.0354,80.1597,138.9133,126.1650,80.8237,39.5526,10.4233,-23.0784,-55.2240,84.2825,141.1669,74.2972,219.2296,-52.5286,-0.5402,174.3044,36.5754,92.0204
1.7761,37.4678,-14.9377,17.6027,50.9148,-52.8974,-34.3942,-161.6634,-79.5215,-156.3893,-51.6503,33.3163,-1.6589,8.2859,-7.9286,4.2961,-38.9805,-144.5348,-172.4400
-37.0306,16.3587,-155.3786,-106.7626,-111.2830,-182.1848,-134.2456,-287.5072,-106.6580,-217.5038,-19.9093,-28.4400,-19.7779,-86.8083,12.2534,3.9027,-174.5886,-290.2342,-295.6915
10.0511,18.0459,-135.0220,-90.4059,-202.9023,-193.9476,-165.6922,-258.5003,-76.1415,-179.6756,187.2199,-7.8446,69.7931,-28.4260,61.0733,10.2293,-121.6079,-252.6922,-282.2531
51.8254,-32.3842,-26.5077,-26.8465,-152.9824,-155.8807,-95.1958,-176.6491,-10.9300,-106.0987,221.9226,-0.0024,136.1609,-8.4672,144.4153,9.2231,-93.7232,-150.0135,-238.4789
30.6613,-26.4862,0.4458,23.8339,-87.2840,-78.8644,-41.8977,-90.5031,10.3671,-45.8668,90.8977,9.1017,110.6141,5.3386,148.7509,1.4049,-99.1292,-67.8057,-171.9240
33.1758,69.8590,40.5597,115.0483,-26.0581,51.5556,2.1635,28.6675,14.9467,8.5331,119.1536,92.3863,101.8021,144.5959,66.7203,4.3452,31.8801,26.0753,-45.1588
88.0764,77.2218,156.9466,172.8715,79.9973,89.4474,106.7104,78.3914,66.2275,21.1981,242.6469,153.4827,125.0908,233.3592,21.9400,-25.6452,164.4685,67.1323,88.8663
83.0649,-30.2517,162.1336,86.0172,120.1883,-23.2613,178.6573,13.4274,127.9219,4.1726,155.4257,77.7917,50.1180,87.5010,33.3009,-91.0595,86.4780,0.6854,186.6129
-0.7931,-79.2243,22.4135,-43.2155,50.0070,-82.8933,178.9199,39.2112,185.8582,89.5108,-48.6531,-21.5871,-83.3926,-57.9083,26.8561,-70.7245,-48.9078,-43.5020,331.3713
-44.8917,-56.4743,-50.8584,-73.4287,28.6339,15.4690,222.3986,261.1859,285.2516,306.0428,-104.6880,-14.4402,-91.1390,31.4252,22.4647,72.0157,-41.2536,28.5348,547.5962
-22.9641,-82.2486,-31.6526,-57.8174,77.0018,114.5813,292.6338,463.5649,379.9205,481.3875,-84.2312,7.6577,5.0232,151.3038,76.7459,194.3318,5.4469,114.4376,661.6417
5.5581,-147.0575,-63.2361,-69.1669,45.4069,111.4626,265.5326,454.5984,377.9279,473.9454,-128.4438,-40.9019,30.6458,100.5316,145.8768,198.7621,-10.6507,113.8556,540.5352
46.4660,-156.7899,-104.8584,-43.8358,-50.8120,59.2980,144.7005,286.1399,268.6251,306.7448,-137.8783,-57.7503,-31.2676,34.3050,148.0300,127.2127,4.4055,52.0012,274.8809
77.0287,-67.7162,-54.1584,49.7878,-95.4569,-5.4981,-10.3514,87.2353,87.0469,94.5457,-61.7008,10.6876,-76.9367,52.7440,70.0937,32.3721,70.1857,-6.2949,26.3509
17.9079,80.6008,17.1304,121.1842,-91.5557,-52.4222,-136.1629,-33.5086,-77.2621,-25.1277,-14.6329,49.4816,-67.4697,10.2940,-25.2742,-54.5540,86.9983,-7.4906,-91.4436
-67.3080,141.4537,42.6895,111.8005,-49.5131,-25.2456,-108.8861,-11.2457,-89.1607,3.7940,-3.8889,-2.1548,-18.2620,-113.6769,-60.6527,-101.9324,59.2320,60.9928,-19.7846
-49.0344,18.9719,65.2360,67.6732,40.0544,39.7941,59.3107,79.0697,29.6173,80.5825,34.9557,-69.2880,40.8397,-178.7019,-40.1667,-115.8851,52.5828,134.5706,145.1598
9.4139,-138.9369,73.0624,35.9869,90.8211,49.0168,169.4264,88.2182,101.4887,81.9896,37.5198,-103.6034,72.1141,-193.9814,-36.9310,-119.1194,43.5664,138.4312,200.2022
-9.5459,-156.9409,34.1575,7.3374,77.5222,1.6448,169.5206,-8.5535,83.9958,10.7153,-34.8307,-134.1028,77.6568,-268.5782,-49.8499,-111.8935,7.9787,76.1612,118.6028
-46.4074,-98.7674,12.5834,-20.5412,117.1567,-36.5029,188.0632,-92.7237,86.2665,-41.9602,-74.2393,-172.4877,74.8451,-376.4019,-12.9757,-92.1500,4.5156,22.0178,77.0626
-28.9927,-77.2542,45.7144,-10.0676,213.4042,-24.8661,244.3470,-51.0676,139.2925,7.3468,-33.0355,-181.4316,52.6906,-402.6807,54.5734,-42.6900,61.8751,47.0151,159.3630
-13.8170,-70.4051,78.7390,30.4112,238.5394,31.8629,284.2013,97.9503,208.6792,150.8927,11.6649,-146.2312,32.4911,-322.7791,98.9921,51.0975,108.0062,123.2751,262.2673
-34.9504,-70.8720,86.2435,10.3473,183.8379,66.8311,331.2838,217.3724,300.9131,276.7213,17.3436,-135.1044,58.2760,-261.2672,161.5631,117.7260,69.2351,137.5857,286.6118
-65.8791,-105.2602,77.4622,-99.1714,116.3799,17.2750,372.0862,227.6251,390.8618,315.3289,-8.8813,-211.4025,100.9448,-346.1175,264.8486,77.7615,-26.9122,65.5797,238.1119
-109.8649,-114.9971,33.5400,-188.6767,21.5967,-60.8530,324.6180,192.1757,396.4646,311.7541,-52.1354,-300.9095,107.6242,-486.3953,304.7440,-0.3306,-98.2182,7.1465,155.0581
-152.5743,-81.4111,-47.3160,-186.6722,-104.5248,-78.8756,182.9920,164.0275,290.1641,290.0708,-59.1573,-297.6960,88.6062,-490.0941,220.6368,-1.6275,-138.2843,-2.6571,50.2795
-153.9275,-94.4050,-141.6740,-163.1839,-202.5789,-59.2713,23.1871,123.2968,143.8799,236.6319,-25.5858,-248.3608,61.9132,-391.6364,113.9185,57.7172,-205.0169,-18.0738,-60.9548
-132.7539,-138.4615,-226.8502,-157.7976,-246.2125,-50.9898,-74.6029,92.9088,58.4100,197.6937,-43.7009,-224.3716,25.0688,-323.9012,82.1973,102.2655,-264.2565,-30.5560,-130.7806
-108.3598,-96.8750,-236.3633,-101.3640,-232.2595,-37.4182,-75.1693,96.0113,53.4980,184.7334,-111.1418,-156.5305,-3.5164,-219.3223,85.1292,120.7870,-206.0898,-9.6916,-128.5006
-52.9803,-4.0878,-119.6774,9.8037,-147.9482,-19.2463,-31.6864,73.8455,55.4364,132.1809,-101.2844,-26.4560,-6.1195,-47.2777,56.8392,137.8118,-49.3144,1.8811,-85.8077
1.2354,11.6215,31.7820,65.0402,-24.1999,-18.8728,5.5721,27.9697,47.0490,78.2398,-14.7107,12.7387,33.3675,-16.7266,37.9264,170.0079,59.5798,-6.4100,-35.3670
-2.0664,-39.8339,87.7517,16.9504,86.2339,-4.9668,79.7085,44.3508,99.7830,113.4016,23.7502,-89.4161,137.0388,-171.6532,104.0968,211.3885,62.7365,11.9132,22.7678
-8.2144,-73.4608,48.8368,-53.6921,154.5840,34.1283,175.9469,89.1009,184.2987,153.8399,14.0295,-166.8868,240.3748,-243.6801,216.1277,216.8227,32.4749,29.4131,51.5456
36.6721,-69.8234,-16.9912,-67.5936,139.8029,35.7714,164.2429,48.4975,168.6968,78.9968,40.6230,-123.5925,225.8911,-136.0931,248.2903,151.9202,25.1560,-5.8715,-9.9826
57.9881,-26.3100,-71.0857,-30.7401,28.5803,-18.3577,16.4075,-58.5223,31.3792,-50.1665,83.8051,-51.5529,117.6556,-51.0790,152.6383,39.5302,31.7707,-46.6550,-148.4775
14.4236,51.6032,-65.8401,21.1594,-83.3855,-63.5180,-154.3389,-140.3096,-140.6959,-141.5195,99.9480,-19.8930,40.8872,-72.4647,-3.8287,-73.5007,43.8948,-33.9427,-285.2202
-0.0763,95.4436,37.8207,86.7119,-87.1331,-59.0692,-260.8404,-168.5388,-272.4520,-191.5335,124.3387,8.4185,24.4377,-74.3981,-126.3981,-125.4542,87.0008,13.6348,-341.3983
64.6316,62.4019,187.8503,153.6096,0.3341,-25.8672,-262.9814,-141.0170,-287.9588,-181.5394,155.9433,49.1247,30.7819,-4.9484,-143.5155,-65.5240,167.7950,52.9289,-275.2146
120.4249,4.1405,263.6810,140.5760,73.8741,-13.7651,-181.1052,-89.1779,-186.7630,-119.1066,127.9334,57.2083,30.1691,49.5971,-68.8274,42.0429,201.4269,33.3760,-154.5969
92.0481,-45.3261,181.4166,5.1491,54.2121,-59.8261,-144.9481,-83.6205,-120.5740,-87.9692,46.2410,8.6941,-31.6275,21.5199,-26.9399,70.2304,91.1562,-63.6209,-118.2559
25.2914,-111.5964,-12.8989,-133.6073,-49.9551,-111.8005,-202.8416,-92.9183,-151.2247,-78.5754,-12.8760,-60.8972,-127.2058,-52.1170,-70.5769,29.3804,-88.5609,-132.3838,-158.1819
-5.0453,-164.9871,-159.1186,-143.4021,-142.2799,-69.3475,-205.1899,-10.7519,-123.5193,7.8684,-44.1684,-99.8149,-117.4029,-80.4912,-67.9328,27.7169,-162.3540,-65.8971,-120.6446
-10.4377,-127.1526,-164.3732,-76.4008,-134.1737,42.2882,-80.4010,129.0178,18.9483,138.5215,-104.0680,-93.1387,-9.8317,-41.4203,48.5790,66.5955,-114.7745,49.9281,8.7210
-34.9962,-17.2754,-104.3821,-47.8211,-51.8713,94.7820,30.7393,188.4844,109.2295,182.7114,-167.4570,-60.4010,35.2499,3.8838,130.0219,70.1524,-58.9625,74.2453,72.8820
-47.8009,59.8158,-64.2223,-42.9500,5.7138,59.6462,18.9579,125.6688,50.5180,103.2990,-140.4289,-15.5269,12.0835,35.7756,77.0052,25.9885,-22.1495,27.2461,4.6441
-13.3508,78.7746,-35.3469,-2.8252,-9.0538,8.2775,-86.7842,-5.0447,-85.6920,-42.3751,-37.9510,40.8679,10.4684,88.7298,-13.2689,-29.6661,6.7665,-9.4146,-122.5029
12.1479,100.2654,-19.6596,46.6946,-62.1183,-28.3197,-215.3593,-126.8970,-214.7341,-165.1960,17.4503,97.4367,-17.9329,147.3049,-62.7504,-54.3435,-12.1063,-32.7730,-234.4061
1.8484,117.5260,-28.5439,59.7835,-97.0626,-49.7692,-278.1064,-170.9509,-271.1859,-196.2753,15.1231,129.3072,-90.5489,173.8617,-97.5901,-19.5949,-46.5930,-57.2166,-280.7413
24.2223,61.1908,-15.6948,29.3766,-97.5143,-55.4886,-248.2684,-162.7489,-239.1216,-182.4222,45.3273,118.6480,-92.6311,176.8263,-118.6009,25.7324,-31.4918,-86.8121,-257.1546
64.7677,-39.8124,-0.9160,-44.0382,-109.6268,-89.5915,-237.4632,-195.2941,-213.8592,-211.2502,53.4490,73.1535,-45.9982,155.0066,-112.8648,14.2663,-52.6662,-150.8879,-255.5620
23.5910,-74.4093,-83.6694,-126.5461,-182.1237,-163.0710,-301.7747,-246.9156,-244.4887,-234.0022,-51.7674,31.0690,-78.4806,102.5206,-113.5026,-7.6800,-180.6806,-228.7164,-316.9962
-52.5795,-31.4330,-199.9652,-138.8663,-266.6196,-171.5304,-302.3336,-203.6023,-218.5152,-159.3770,-103.5761,34.9839,-125.3470,89.8456,-119.5444,31.0837,-256.6110,-219.6181,-303.4767
-36.6572,-0.2529,-173.0370,-60.3650,-247.4271,-52.2038,-145.0951,-59.9473,-78.2274,-31.4472,48.0772,85.7272,-65.8604,175.4462,-88.1488,86.9563,-160.1862,-90.3939,-116.9620
21.8428,0.9037,-50.7683,33.8853,-110.4166,94.3719,38.4512,82.3953,49.1756,61.4051,154.2010,138.5077,19.2617,283.7278,-35.6734,107.3863,-37.1529,54.6309,93.3573
3.4921,36.4480,-19.3667,83.4257,18.3201,159.2613,98.4940,152.1407,63.7669,102.2776,-6.8776,156.1568,39.7585,313.2160,-5.5522,121.3722,-21.2424,113.9614,140.4618
-51.4264,102.3838,-63.4253,89.0034,51.5879,144.9811,71.5044,135.9516,29.4839,92.5214,-170.3198,141.5795,63.1271,269.0267,21.3072,125.3801,-51.3687,97.1865,62.6445
-53.1450,109.9866,-86.8119,53.0081,20.2455,89.2531,58.5510,64.1121,27.5417,40.4010,-86.7951,108.8508,108.9993,203.6013,63.9003,68.5605,-77.0058,56.5265,6.5309
-21.1322,36.7174,-147.2874,-7.7214,-54.3807,31.1575,42.0221,0.3139,34.3140,-10.0051,22.0056,65.8971,74.7342,145.7349,70.2837,-18.3543,-115.6964,13.6594,-2.5792
-2.9612,-21.7510,-240.9895,-25.9103,-164.6580,24.6347,-29.0635,-17.1509,2.9335,-29.0067,-36.8221,40.7986,-54.4318,119.6323,7.1342,-46.6214,-118.8544,-7.9870,-19.7264
0.7800,8.3400,-192.7370,22.0279,-201.8264,65.4449,-83.2201,-3.8691,-39.8439,-27.1190,-78.7458,64.8574,-153.7949,137.9615,-65.0436,-0.8613,-46.6772,9.9814,-43.1099
3.6845,79.2096,0.8895,57.7607,-85.7783,81.3894,-52.4242,1.0456,-55.1256,-34.3156,5.6559,113.8330,-142.9862,178.7228,-86.0382,53.4880,34.3855,13.2182,-47.8934
18.9857,114.2969,117.0436,35.5067,54.0794,42.6337,-26.6294,-32.1691,-70.4264,-79.0154,62.3320,133.8348,-80.3145,206.0282,-82.6273,53.9364,74.5433,-51.4831,-48.6494
39.7989,106.8552,89.7459,14.8268,66.4780,-12.1058,-75.0748,-81.4349,-105.5821,-130.0672,47.5263,121.2217,-49.5322,197.0602,-92.1196,1.8098,84.5204,-111.5014,-54.8212
32.2540,76.7832,41.6336,23.0783,5.2009,-38.6493,-107.7029,-84.9147,-116.9036,-118.1617,62.2061,104.4908,-33.2521,163.6802,-90.9973,-39.6454,40.0456,-84.5868,-54.6283
-4.2925,36.4421,-6.4021,7.1793,-17.9564,-11.2229,-77.5775,-37.0913,-94.9788,-61.3672,82.1241,84.4055,22.7779,148.4739,-67.8328,-23.9289,-61.4489,-32.6736,-46.7840
-28.2811,26.4855,-82.3237,-26.1525,-6.2306,50.6752,-63.2178,4.7344,-89.6334,-34.6256,49.9721,66.3432,74.2731,168.0510,-66.1364,20.2086,-114.6376,-28.4011,-25.4405
-10.1768,70.9900,-83.9171,2.4910,12.5069,77.1888,-79.9746,9.6049,-103.6678,-44.7548,56.1540,88.5184,47.7010,200.8315,-95.5151,41.2124,-31.8728,-29.6682,10.7715
60.6801,113.8328,56.3697,98.8938,54.9066,50.1971,-67.2526,-22.9089,-99.8674,-80.4338,164.7313,155.6102,-10.9448,244.5298,-105.3726,29.7445,134.7621,-8.9919,27.7543
154.0974,101.5964,218.6369,183.0356,115.3982,38.0909,-26.0296,-78.1716,-84.7525,-147.9093,258.8103,213.2103,-18.2517,300.0915,-82.0013,8.2029,258.4734,-0.7519,15.1809
180.2914,62.6037,262.7768,199.5804,151.6910,62.3715,2.4076,-98.8925,-81.0277,-182.5009,213.1186,216.6876,0.6894,316.1354,-67.8589,-3.9626,249.1139,1.8187,9.9000
111.6236,41.3575,184.1157,152.8178,131.6831,63.5178,-6.1832,-59.9982,-86.3838,-133.8886,73.8133,171.8497,-5.1698,259.9325,-73.9574,-11.5865,132.2728,7.6320,8.9119
44.4307,49.8265,72.2697,88.0116,65.4366,34.4851,-48.2134,-26.1604,-87.8335,-82.0390,-23.9869,119.5104,-7.0015,195.7785,-64.5217,-32.2576,39.5266,-16.0581,-10.2207
32.0026,84.2937,9.4750,56.7776,1.7753,25.7333,-58.4531,-28.3849,-58.3795,-77.2806,-39.0453,103.1806,6.9087,187.8211,-30.3650,-53.7792,37.2200,-45.6737,-7.9834
21.6590,107.4459,-11.4388,51.8689,-33.7887,26.1160,-0.0467,-27.1470,2.8458,-62.7117,-30.9342,117.9581,-27.5998,197.3614,-11.1861,-49.9300,45.4822,-38.1604,30.1689
5.3107,80.5249,-47.8054,33.0905,-62.8175,0.8907,28.9079,-28.4339,24.3707,-43.6622,-18.8737,115.4888,-119.9448,167.3104,-36.3189,-37.2766,19.3150,-34.0527,37.8558
19.5817,42.1146,-79.4966,19.9259,-84.3336,-11.9220,-40.9051,-45.8949,-34.2990,-62.7180,23.4190,86.4720,-175.1550,121.0653,-81.0830,-42.5053,21.3539,-45.3590,-0.6669
31.6597,42.3425,-49.8426,44.7797,-73.5203,15.9778,-116.4603,-31.4405,-101.6587,-66.3560,65.8958,66.0743,-132.9623,98.5349,-100.9654,-50.7059,48.7764,-11.4541,-29.5742
11.8347,51.3997,4.5991,70.8927,-41.7747,31.8529,-119.3446,3.5740,-116.5831,-34.5170,81.9656,61.7152,-35.6721,89.1548,-88.0449,-50.7248,31.4739,37.5047,-40.0088
2.7343,49.4596,29.1357,72.2937,2.9067,18.1862,-78.9885,-8.6287,-102.5870,-40.8766,113.3231,66.6647,56.8409,91.8338,-65.8304,-52.3514,1.0988,28.6782,-44.8065
15.5761,79.3498,53.8456,85.7248,75.1808,38.1138,-18.1584,-27.2502,-79.6665,-70.4880,148.6490,97.4879,109.7298,139.3300,-46.6838,-34.5913,28.8195,14.9399,-23.1150
20.9803,135.3036,99.7684,116.7950,135.6458,97.6380,31.9857,8.8852,-54.2490,-55.5503,133.6904,145.4794,98.4701,219.0424,-26.8654,18.2157,80.3831,44.4966,4.4637
36.6542,156.3414,128.4270,130.0200,130.2498,119.9358,4.4620,27.5669,-62.7510,-46.3685,119.2725,171.3351,49.4728,272.3571,-8.9957,54.1580,99.6003,46.5987,-10.6573
71.2980,131.4373,122.1127,127.5475,86.8806,86.1223,-71.7347,-17.3397,-104.1090,-89.5128,137.7310,168.1542,29.7572,278.7724,-5.5030,23.8414,92.5989,9.4042,-43.9670
74.8528,87.4207,89.3944,118.1021,47.8870,46.3614,-100.6614,-45.6785,-121.0927,-111.9143,86.1598,143.4026,38.3378,241.1859,-21.5524,-43.9265,64.4413,3.6810,-49.0522
34.0117,42.1399,42.3981,72.2403,6.0115,4.8306,-93.6590,-34.6229,-102.3444,-80.3009,-24.7058,84.2596,20.2911,142.7217,-39.0077,-89.6411,11.5033,3.6919,-43.1225
-8.3957,11.8898,8.6285,-14.7665,-34.9266,-53.3905,-107.6868,-36.0958,-83.6344,-45.0411,-33.5127,9.4043,-8.8194,22.9770,-31.7646,-87.6410,-55.0602,-45.1834,-49.3535
-26.3842,-26.9504,-23.2670,-94.6693,-64.2299,-72.6904,-102.6234,-18.7728,-53.3807,-5.9424,40.4176,-32.7991,0.6549,-14.6562,-0.5666,-55.8441,-133.6282,-78.7279,-39.1455
-9.1326,-111.1808,-87.3444,-122.6413,-88.2767,-12.1555,-24.9881,56.5137,24.1815,57.1488,52.7012,-41.4610,21.7724,32.5758,32.0687,-30.6406,-182.4594,-35.2773,25.8595
28.9463,-167.9456,-121.0461,-94.8123,-70.7151,57.0720,86.2756,117.9739,114.9475,100.6182,34.3899,-44.6349,12.1015,47.7175,46.8972,-25.0835,-122.9928,31.7517,123.3088
20.9222,-103.9359,-58.5724,-54.0618,14.5267,60.2240,160.1116,110.3100,143.2474,93.2780,35.1709,-40.3258,-9.6844,-7.9096,28.9094,-31.1332,-9.0760,56.9961,160.2171
-46.9731,-4.9535,-0.0758,-53.2490,84.0391,25.0137,172.8853,75.5362,106.3388,64.0316,-30.6481,-30.3917,-26.5820,-57.8931,-8.2497,-49.7607,3.6166,39.9161,97.3838
-80.3365,-4.1791,-41.6851,-77.3812,71.5113,5.0677,152.5701,48.5583,77.8465,41.5056,-118.5560,-34.2509,-41.7092,-65.2839,-11.4925,-64.4662,-71.8237,15.7225,39.9566
-36.9930,-52.3464,-90.8387,-63.3297,41.8461,9.7362,133.5752,33.2565,86.1062,34.8888,-79.4730,-36.9938,-35.2797,-49.4690,27.7978,-40.4752,-82.9301,18.9379,64.1193
6.6040,-46.1623,-61.8010,-10.8163,48.3997,34.4734,114.0436,46.5266,82.9666,43.9728,9.1578,-15.5406,-9.2099,-13.9856,50.3116,0.0507,-19.0718,46.7116,77.5402
5.0785,-8.0786,-18.3090,24.2156,54.4504,64.9687,84.9032,75.1427,53.7181,51.6913,-3.1583,3.7031,1.2290,16.5901,48.3610,0.4428,14.0513,70.1549,19.4701
-13.6588,20.8287,-10.1358,27.3959,42.5864,74.2392,66.1720,73.9828,39.3462,45.7425,-48.0590,-4.4694,5.7114,0.5925,69.1580,-27.2342,-1.2257,84.0106,-18.8454
-40.4364,58.3680,-16.0030,22.1032,28.6882,68.0327,66.5693,47.0098,41.6308,33.8431,-41.7313,-10.6666,26.7449,-25.7153,86.0685,-35.1045,-27.6129,86.4441,-2.0469
-70.0061,81.2531,-43.4115,14.8027,5.5440,72.6926,68.0284,34.1637,32.2225,23.6317,-43.4202,10.7840,26.5265,3.5959,48.5855,-21.5241,-66.6568,60.0954,-4.8777
-69.1995,34.4087,-103.7657,0.4794,-29.7938,74.0655,65.0967,31.6425,24.5725,17.3236,-74.6441,29.6780,-13.8601,51.9027,1.5673,2.0470,-116.3394,17.7498,-28.9505
-46.2707,-54.2957,-169.4883,-22.9990,-76.9414,46.5728,50.2767,8.5231,28.2200,10.9550,-108.2950,10.5643,-53.4142,38.3547,-14.8029,28.1989,-155.0656,-14.2009,-33.0307
-42.3231,-89.2836,-206.0481,-39.4423,-143.1976,17.6066,-1.3752,-26.3520,4.0607,-8.4717,-145.7877,-22.0500,-91.3405,-16.7228,-48.6356,23.7799,-152.9913,-31.1760,-56.0444
-36.9092,-29.0428,-149.4091,-4.9125,-170.7427,27.8093,-71.6464,-37.6775,-56.6637,-38.9687,-122.0570,-15.8192,-138.5023,-33.2055,-106.9577,-18.4166,-55.6820,-10.3464,-98.7444
16.1030,48.2575,44.3708,71.6329,-72.8124,54.7421,-91.0452,-28.3954,-94.5299,-64.7611,2.8822,16.6700,-120.0250,-12.8183,-119.6320,-57.6434,122.5248,49.6860,-66.7112
84.4226,32.8713,247.1535,90.8998,101.6563,47.7500,-35.1247,-29.1848,-69.6656,-80.9031,88.0510,7.9186,-9.0217,-21.9515,-70.6283,-79.2531,227.1795,69.6073,41.1807
99.6582,-51.5448,269.2171,23.0858,204.6700,30.4680,39.2576,-16.8488,-13.7807,-64.8748,54.8019,-42.4986,69.5151,-56.7850,-7.0512,-80.4793,164.6024,35.3723,112.7451
69.8758,-79.6911,159.5309,-18.2212,209.7675,76.2122,89.2301,59.7150,34.0746,11.6671,47.4631,-59.5048,56.9104,-45.9899,47.1771,-26.6717,71.5488,57.7018,127.2602
60.8974,-35.9442,135.1994,22.5720,227.5222,158.5168,143.2725,146.7099,76.6153,87.3176,120.9407,-23.5354,59.8848,14.9064,80.9410,57.1128,99.0683,131.1491,151.7274
82.7567,-10.8416,216.6908,52.4244,289.9856,158.5235,199.3039,127.1824,102.5464,61.2161,125.5055,12.7166,93.8529,55.9299,72.8056,77.8098,171.6721,106.7689,164.1975
78.0658,-12.7101,218.0619,20.3986,289.4801,64.7298,174.4796,20.9558,67.4122,-30.6581,15.2184,25.4149,43.6547,51.0858,29.7650,35.5237,147.2980,-4.4981,101.7257
37.6395,-0.2664,99.3666,-15.4973,186.5776,-8.7594,74.6613,-45.1757,0.5290,-68.7384,-52.5872,19.4869,-42.0391,21.7979,-5.9160,14.4912,67.5518,-48.8924,23.1850
27.7781,-11.9897,31.3759,-38.9972,96.4340,-31.0750,32.4267,-59.4325,-3.3963,-58.2442,36.8069,-18.0009,0.1447,-35.1689,-1.6853,13.5430,49.5855,-37.3281,14.3812
59.1600,-65.8701,67.6102,-82.0311,62.9960,-67.6273,41.5577,-100.2685,27.2874,-83.6485,171.2366,-70.8247,100.8278,-102.3495,20.0126,-22.6446,59.3562,-79.9569,14.7203
54.2379,-78.1130,56.7598,-104.1843,-22.8968,-98.8637,-45.7922,-139.8358,-23.6084,-120.7128,136.0665,-79.3452,66.6496,-105.2618,-2.3120,-67.4764,6.4456,-126.8971,-53.2230
-7.3968,-9.5857,-46.4863,-50.1878,-159.0716,-57.4128,-172.7011,-97.5892,-107.3615,-88.9947,-44.8007,-30.6901,-48.1451,-32.6726,-66.6755,-67.5927,-54.8801,-78.2165,-101.0932
-55.5032,74.5380,-97.8689,29.2869,-184.8060,15.2590,-145.4809,-11.9221,-84.5363,-10.5859,-97.2043,15.1474,-61.3155,14.6373,-81.6247,-42.7988,-32.2386,19.0045,-35.6761
-58.8078,119.6511,-45.8959,57.3817,-82.6185,46.3276,-21.6073,33.0351,-0.9578,37.7914,19.8734,14.8815,11.0882,-15.1584,-15.4940,-30.8330,28.1561,82.1134,52.8918
-45.4885,110.1021,9.2531,49.2967,4.0882,52.3369,17.4373,44.6014,15.3064,44.3693,32.4110,-4.7054,45.2859,-43.0703,34.8162,-22.8908,47.0347,107.0180,58.1104
-25.1770,46.2866,23.1363,46.6515,35.6082,56.4647,0.3134,51.1780,-13.7646,33.2403,-105.8527,-1.1284,16.1870,-9.7750,-0.5996,-4.1464,36.7040,89.7044,29.3760
-0.5839,-17.9081,12.4269,40.4246,54.3259,38.1230,9.0602,30.3554,-22.8821,6.3470,-167.0079,19.6465,-39.5799,32.6820,-63.4320,12.8177,24.5242,26.2375,35.2745
16.7973,-29.7148,-29.3125,34.3256,43.9259,12.3413,2.4129,-16.3254,-28.0355,-30.1065,-127.2229,28.1949,-63.3706,39.2856,-74.8109,20.2966,22.0483,-16.5491,41.0366
41.2854,-28.7660,-54.9672,57.9823,18.6165,6.9292,-17.3040,-55.6449,-37.9753,-62.2253,-90.6885,26.3325,0.8584,34.5288,-41.6082,29.1685,53.0460,6.5629,0.6992
66.9270,-50.0108,-2.1332,80.1514,32.3569,-4.4865,-8.9732,-89.3549,-47.4070,-92.0538,-1.4340,24.3724,86.2241,19.1607,-21.3423,32.4636,80.3474,32.1899,-61.9345
38.9120,-33.8119,60.2431,51.6478,50.0782,-25.6878,-22.0186,-102.6759,-73.0821,-96.3620,105.3603,7.7505,78.3610,-30.9845,-33.1255,11.5086,38.1086,18.7404,-79.7300
-36.9801,33.4541,40.6143,12.8120,28.2814,-1.3908,-54.7720,-40.1886,-78.9898,-31.6816,44.5194,-21.7160,21.2339,-74.7684,-39.3389,-8.6881,-25.9483,27.7406,-16.3910
-75.5333,56.2741,-18.4636,12.3945,10.4786,65.1714,-21.5292,62.6583,-25.3017,59.3557,-108.9493,-35.1716,4.8675,-64.5333,-19.3016,5.2878,-36.8594,79.8304,64.1501
-51.6625,10.3113,-47.4118,13.5730,8.4639,103.8688,35.4591,94.4111,18.5617,77.3727,-109.8926,-32.6312,-17.2509,-39.6599,-7.4710,15.4442,-25.6536,107.7915,74.7744
-16.0545,-16.9677,-38.1418,1.0867,-0.6866,109.2695,21.8907,66.2437,-3.7678,36.3611,4.0624,-33.4830,-83.9826,-40.9369,-26.7833,-12.8534,-6.1014,108.5783,56.8929
7.6669,-10.6277,10.5240,17.2266,31.1908,124.8818,4.0895,77.6013,-22.4925,34.9475,28.3132,-32.4956,-131.3304,-44.4075,-49.8131,-18.0167,56.3917,135.1441,102.2331
15.4210,-36.2889,61.1967,28.6357,111.4060,128.5870,64.5895,109.4515,20.0305,72.6211,-61.5458,-33.4673,-130.3497,-48.3633,-41.1859,37.0092,86.0939,143.9295,167.2394
-9.6664,-76.3103,34.6061,-33.0665,131.5202,78.5583,131.3918,80.7800,80.1311,75.3745,-161.9865,-58.4715,-87.7123,-77.7647,13.3191,74.3894,-0.5756,71.3763,144.8933
-53.9629,-58.9945,-61.5988,-117.3281,51.5772,0.1434,112.7037,9.8609,94.6280,37.5308,-200.4051,-86.4858,0.8489,-103.0912,87.0762,49.3928,-118.5901,-24.0475,32.8140
-91.9980,1.4948,-150.3037,-150.1144,-49.1859,-76.3599,17.9067,-60.6489,40.9587,-10.0638,-164.9429,-79.9528,59.6119,-97.4989,114.4606,11.3815,-195.8185,-90.0196,-100.4806
-129.7815,39.7254,-215.8713,-172.8681,-131.4487,-154.8871,-81.1257,-135.0049,-34.9036,-61.3108,-95.1754,-64.5274,31.5970,-101.9559,83.3692,-31.0909,-288.6229,-168.7375,-196.6898
-157.7422,36.0232,-266.1655,-218.1755,-203.5572,-205.5441,-113.7216,-174.7345,-48.6430,-83.4291,-17.2300,-80.0553,31.1204,-132.1709,62.1220,-93.8266,-373.8449,-232.1740,-210.6402
-150.2554,8.9077,-266.1429,-224.1147,-236.8060,-192.6415,-84.6233,-134.9075,-6.1533,-43.5951,45.4846,-99.8050,110.3453,-142.3283,61.9825,-112.3009,-352.2938,-195.2593,-153.2789
-125.1259,-18.9086,-205.6154,-177.4509,-209.6196,-159.0220,-69.0682,-80.3540,-0.7711,0.4726,15.6059,-87.3039,108.7216,-123.5499,12.6905,-57.9327,-258.0636,-124.5371,-106.8097
-93.7927,-42.2465,-123.1682,-149.8485,-153.8763,-155.8268,-103.8567,-91.8176,-57.4276,-28.6379,-78.1179,-66.3712,-26.1815,-109.4070,-80.6696,-19.4088,-177.6673,-138.7172,-115.8056
-28.9255,-78.1685,-53.9427,-160.6870,-111.2323,-159.4646,-160.3944,-138.1200,-115.1313,-98.1323,-59.5621,-69.2373,-124.9930,-102.3616,-126.0134,-23.1232,-107.6296,-183.8878,-127.0976
34.7578,-112.2492,-16.4782,-167.9893,-87.9537,-150.3607,-183.2552,-154.4350,-118.7646,-116.0367,63.8303,-83.8083,-104.8125,-99.4295,-87.2491,7.8416,-57.3536,-168.5734,-86.5106
27.3029,-98.0645,-4.8509,-160.3896,-53.7441,-154.5297,-120.0033,-141.0423,-56.4531,-76.9905,90.0490,-90.6525,-32.2564,-121.2041,-8.6382,50.9087,-58.5387,-132.0285,-34.8106
-8.4576,-43.6974,7.8458,-133.2642,0.4112,-154.3170,-15.3902,-127.2589,9.3426,-61.2668,25.3343,-86.0839,51.4405,-145.6058,57.0781,5.4156,-51.2833,-99.3444,-46.8070
3.9312,14.9827,29.3130,-60.4744,30.1792,-107.4370,10.3534,-122.1899,-0.8501,-96.9232,17.2418,-56.4635,103.4650,-114.6324,83.7477,-90.5113,15.0658,-28.9642,-99.3520
19.1235,89.2106,55.3849,21.4515,19.5894,-62.7097,-35.9845,-125.3660,-46.5678,-125.0981,13.7444,-1.4061,63.9669,-48.1427,76.8297,-117.8556,74.4305,25.2712,-106.1664
-10.8059,150.5831,84.7928,25.8917,8.8836,-91.3409,-53.5994,-141.0195,-50.3954,-121.6984,-50.8306,30.1244,-20.2876,-31.1617,43.2614,-82.2029,80.2692,-21.9002,-77.7811
-19.1490,118.4666,91.9175,-35.3264,7.0486,-143.7099,-55.4920,-165.5331,-51.9510,-131.8267,-66.1888,10.5890,-58.9612,-61.2622,-15.9681,-62.1772,76.9010,-94.7823,-79.4991
22.1057,36.1381,73.4527,-62.1637,8.2500,-135.1982,-71.4486,-170.1092,-76.5069,-152.1032,-27.4662,-6.1320,-59.1838,-51.3064,-52.0967,-62.2898,86.0071,-76.0929,-73.2626
31.7570,21.7712,76.9919,-35.6668,42.2920,-87.4285,-34.8210,-125.8078,-54.8420,-120.4637,-55.8883,12.0094,-60.0288,-7.7475,-20.6253,-48.4097,74.1456,-6.7431,-15.8566
-17.6193,44.8772,83.2596,-25.9954,86.3732,-54.3651,30.0138,-58.0429,-8.8400,-47.4085,-116.8135,9.0830,-56.1226,-24.1129,15.1079,-21.2739,24.2716,25.7781,16.2974
-54.8136,19.2056,21.6175,-49.2228,83.8752,-25.4827,35.7245,-20.1960,-13.9189,-7.5834,-122.9848,-31.6422,-40.0498,-80.0266,-2.3214,3.3554,-27.9359,44.9448,5.6306
-35.4953,-14.6087,-42.6635,-48.0585,89.9672,15.1881,64.9351,-2.8199,1.0584,-2.4291,-99.6239,-39.1502,-11.2789,-67.2453,-6.6440,11.0006,-11.6041,95.7233,60.6189
15.9125,-11.3531,11.2629,2.9710,169.7106,47.4745,197.7237,41.2364,100.2590,22.8511,-48.2235,4.6920,28.0413,0.9498,37.0316,-6.4190,92.0163,151.2486,176.6774
47.5641,1.0125,116.7041,62.1776,233.6201,69.0202,299.4705,98.3094,176.8567,64.9148,16.1104,40.2056,57.8349,37.7701,62.4896,-25.6169,184.5285,187.1805,228.4701
21.8678,30.9432,120.8398,85.9045,198.4786,105.9580,276.9747,132.5873,166.7994,93.3373,-15.1197,45.6315,80.8007,50.4800,67.8821,-17.9913,165.0024,216.8450,203.3474
-34.1001,68.5648,27.0784,75.5603,125.0766,151.2095,212.1111,156.4794,135.8012,118.5504,-108.4415,31.8259,119.8657,59.7682,95.4658,9.0330,64.0598,225.5308,160.4530
-61.9071,43.5130,-63.8261,50.3279,58.4404,147.6711,129.7795,162.5719,91.5631,137.7982,-111.2124,-3.7205,143.9574,26.3907,94.4438,45.4223,-27.5279,181.2166,81.8286
-66.8755,-2.2950,-109.8313,18.1794,-28.2113,69.3314,-1.5112,107.1973,3.6748,113.9484,-71.1269,-27.8597,103.4279,-20.9367,31.8665,91.0307,-75.4372,102.8818,-38.0322
-79.8822,31.0725,-116.1969,-8.7603,-103.9140,-26.5949,-112.2057,9.2665,-76.7674,44.1991,-104.8353,-4.1863,18.2800,-14.6216,-22.6352,103.6639,-84.6451,32.2928,-135.6980
-75.5168,75.8152,-93.4882,-17.4775,-114.5230,-86.9214,-144.3251,-74.4485,-110.5045,-38.1713,-140.8369,21.5856,-58.4870,-4.5974,-44.4139,38.8852,-65.1944,-28.8888,-177.8283
-42.5019,38.7327,-65.4385,-21.7889,-93.6689,-130.2707,-143.7646,-136.3197,-122.3795,-105.0833,-123.1595,3.8847,-104.8470,-52.5684,-73.9937,-54.4557,-47.6135,-90.7005,-172.4646
-26.7852,-8.7478,-59.5074,-43.2223,-99.6903,-167.0284,-145.3615,-177.6770,-124.8448,-137.3651,-116.4148,-16.7230,-123.0416,-89.8357,-105.0838,-91.5207,-56.1762,-124.5856,-139.4272
-26.4772,-13.7952,-69.6788,-65.3820,-115.8716,-157.6479,-135.0782,-180.6267,-121.0836,-139.6039,-101.4238,-4.4196,-114.0761,-54.4255,-116.6762,-63.5971,-54.1346,-85.8774,-111.0461
8.2534,-19.7267,-36.5940,-40.1516,-75.0265,-90.0685,-85.4514,-144.5697,-101.8372,-124.4406,-24.3250,23.9929,-51.1097,14.6950,-101.2351,-3.6725,16.4327,21.7048,-71.0189
54.2797,-5.1366,67.3222,40.1367,37.7800,-6.4692,12.2557,-76.2024,-39.1334,-77.8733,58.4134,58.3607,74.9182,78.0103,-37.4675,60.0498,118.0348,114.7004,9.0597
48.3368,51.8034,143.5081,96.0020,126.5258,38.2517,71.3680,-11.3529,7.5598,-26.0367,96.5389,79.9136,161.0346,105.5216,21.6864,70.0289,136.4097,107.4978,48.3724
2.3688,82.2776,105.5007,64.0351,98.1636,18.1274,1.6684,-16.9444,-51.8386,-38.4034,101.3430,55.0645,101.3453,55.0873,-21.1451,-0.1513,68.9261,41.0097,-13.2031
-29.0741,82.7612,43.1573,22.6144,15.4414,-19.4309,-99.1708,-59.2953,-134.3803,-76.1052,76.8589,14.2260,-13.2411,-29.8911,-104.0138,-67.1980,46.2184,34.0775,-63.3231
-26.6390,99.3685,54.1080,71.7537,-3.5508,-5.0532,-96.1422,-28.6199,-114.1749,-37.7226,50.0352,14.3594,-29.3710,-51.7477,-93.6811,-57.5763,98.3741,87.5003,-30.9394
-1.6652,74.0201,72.1281,147.7747,20.7306,35.7525,-52.8183,45.7301,-57.7029,33.4638,35.3239,29.2465,6.1560,-25.1954,-41.7801,-16.9416,112.1013,90.1320,-16.8556
15.6046,-12.1104,39.2936,129.1753,0.5352,26.5961,-63.1028,47.0480,-55.4949,34.6741,-19.7341,6.6908,-40.5202,-39.0090,-61.6470,-8.9623,59.1608,13.2058,-55.2051
-2.4991,-45.6713,11.8416,27.0253,-54.1502,-37.7244,-80.9438,-12.7992,-56.6014,-7.0555,-85.0359,-32.4883,-134.4185,-91.9492,-102.8990,-38.3709,11.9193,-72.6073,-66.9668
-33.3047,-3.4586,5.2511,-54.4221,-83.5983,-105.1353,-76.3668,-47.8967,-37.5248,-23.4401,-41.7440,-38.9855,-132.7670,-101.1682,-80.4644,-84.2530,-24.6492,-112.0053,-60.7542
-37.4910,34.9945,-16.8787,-33.0760,-80.5568,-112.6249,-81.9455,-24.7912,-40.9463,-2.7337,55.3058,3.7560,-10.7287,-19.7576,-26.5578,-92.0488,-53.5923,-68.1408,-69.2137
-28.3853,70.0845,-31.8942,84.3480,-61.5978,-26.2791,-79.2432,45.1596,-47.9558,47.4189,33.6374,65.1524,94.5307,84.6025,-4.7796,-28.4929,-17.7113,43.8663,-42.6590
-27.5808,85.9846,-22.4230,158.4131,-33.2594,59.6736,-65.0351,73.1958,-51.4932,59.7353,-47.0205,62.5080,65.6245,61.8083,-33.6439,12.7175,39.9916,83.6707,-11.1213
-10.4966,-7.6058,-25.9814,59.8590,-16.4151,4.8094,-93.4157,-31.7975,-94.3009,-35.5226,19.2155,-41.1414,-20.6730,-111.4291,-81.0126,-49.9407,1.1461,-33.9880,-66.8182
28.2851,-153.7737,-47.3801,-110.8439,-32.9699,-129.7934,-136.8898,-155.2650,-126.2843,-128.7661,174.1122,-139.0587,-16.0730,-230.5215,-80.4778,-108.2827,-90.0982,-149.8675,-131.3598
40.2216,-187.6661,-61.8680,-151.6992,-62.6402,-155.3269,-103.4280,-113.3791,-64.2368,-69.9946,157.7339,-123.3311,45.6979,-158.9468,-31.2161,-55.4846,-98.0338,-101.9608,-68.9629
8.9664,-110.5132,-64.1138,-53.6426,-63.6303,-57.5242,0.7881,33.6126,42.4230,64.9745,-31.7505,-46.9027,28.5803,-40.2505,-8.3319,20.7958,-29.7606,13.0600,56.8202
-14.8503,-28.1358,-37.3572,52.4235,-39.2195,34.9576,86.4683,116.3383,107.3255,128.5210,-112.0338,2.1555,-55.0121,-8.6383,-13.5764,32.2561,34.7529,47.0198,114.7618
-0.2030,28.9264,17.9924,109.0272,-33.2150,71.7775,104.0234,130.1992,129.5808,134.9176,6.2734,31.4932,-99.6992,6.3769,13.4768,30.4280,76.1338,25.7093,109.2216
17.6382,38.7084,48.3461,114.4433,-52.9325,68.2674,81.9683,131.3531,133.5619,140.3043,88.2004,39.1601,-76.0904,26.1967,47.9404,43.8569,80.9060,10.9005,93.5723
6.8359,-18.3268,38.3957,59.6940,-58.8491,33.7111,90.0929,113.8406,142.8418,134.8335,14.6418,-11.5047,-5.7455,-31.1938,41.6493,31.2916,48.9071,-6.1903,88.7390
-6.6743,-67.4416,31.6066,-10.3252,-32.8455,9.4853,143.0632,100.7690,174.1351,127.8161,-37.6260,-63.7216,57.9275,-93.2012,33.4533,11.3839,34.2404,-13.0127,112.8820
6.4105,-54.2811,37.4402,-16.4346,5.3498,37.6670,162.7869,132.9102,179.9981,144.8032,39.8030,-35.8551,40.0107,-32.9639,47.7713,37.5098,45.6206,18.6081,143.2413
24.7280,-36.0018,48.5422,41.9654,34.9867,97.4200,115.7708,188.5562,129.8804,176.9414,126.2950,17.2536,-16.4890,55.6663,44.6077,92.4702,42.3302,64.5430,137.5925
23.3155,-44.9400,71.6519,87.5851,47.5860,140.9102,80.8279,224.6097,96.3892,203.2760,123.0988,7.7110,0.9255,38.5949,25.6536,115.2975,44.0855,90.5753,129.8219
17.9153,-53.3008,64.3593,73.3946,48.8597,137.2534,91.9096,209.2074,108.2032,188.4735,49.9310,-32.6956,44.2099,-20.9280,17.7444,80.9760,66.8707,83.7148,152.5364
23.0281,-62.3494,2.1492,40.9445,51.5313,98.3074,84.3840,142.4894,90.6374,121.7791,-50.2835,-41.5702,12.6223,-32.9983,-0.1639,36.4629,66.0675,51.2683,153.4269
27.3027,-58.4553,-17.0857,56.5661,60.0418,89.7023,58.8373,101.9054,50.5255,79.3532,-102.6891,-19.1638,-16.5750,-8.0854,-22.2489,46.4029,62.6534,47.9649,125.4507
20.1884,-8.9922,63.1006,99.9124,78.9033,131.2574,88.9520,132.7628,66.5952,102.6363,-47.9469,10.7818,23.4683,24.1280,-3.0324,71.1517,95.3004,91.7759,118.6058
-7.5641,25.8596,111.8157,81.8371,87.5625,134.4894,133.8081,139.8819,90.8808,104.3829,38.8303,5.3308,22.0239,-4.2018,22.2333,12.9213,65.3124,80.5511,78.1073
-49.8572,-18.0480,24.0285,-0.9000,19.9801,57.2009,74.2899,63.4466,37.0781,45.9638,51.5238,-55.9863,-47.2328,-116.7128,-6.5185,-83.3098,-74.7130,-24.6871,-43.6979
-59.3407,-56.5196,-94.0197,-36.3509,-108.0329,-2.4539,-47.4408,6.5103,-22.0607,17.7094,4.5489,-84.5518,-48.7377,-143.0082,-24.8229,-80.5775,-154.8772,-80.1985,-110.4335
-22.9755,-13.7149,-108.2491,23.8789,-148.5299,23.5998,-72.7654,37.4870,3.8898,52.4090,-46.7349,-22.3193,18.1056,-11.9861,33.1953,1.2672,-87.7093,-17.4804,-42.7479
-10.2647,19.2895,-50.2994,82.6786,-63.0892,69.6386,-2.6251,85.2305,47.4714,86.8744,-85.3731,11.3329,23.2328,28.8118,73.5630,30.6771,-29.4031,35.4324,14.6429
-41.8341,-31.9133,-20.0329,63.7564,-3.4563,78.7839,36.0427,112.3069,44.2352,111.7044,-87.3032,-49.3351,-20.5577,-94.3270,24.4434,1.7292,-64.4387,25.5006,8.5291
-45.4090,-88.0636,-37.5527,27.2813,-24.0093,89.1418,42.6840,167.6203,59.6988,164.4509,-39.1342,-71.2579,-19.8521,-98.5845,-9.2515,3.0639,-95.4419,41.2188,68.4096
-20.3899,-81.5814,-65.7359,40.5792,-28.0286,130.1108,84.0144,244.9836,118.5056,229.0382,28.4603,-16.7522,0.1844,31.0251,33.4693,41.4817,-90.7686,79.0331,164.1341
-39.3539,-53.3262,-86.0920,68.0898,-18.0980,161.4845,103.6024,270.8691,130.6097,254.3563,78.3744,-18.4907,-11.7344,7.1123,52.7225,54.9765,-105.1866,69.5196,133.9573
-74.6268,-42.4869,-104.0456,64.7749,-58.2119,148.1632,41.3814,226.4740,68.7308,217.9537,70.5137,-68.3057,-32.0098,-106.8763,21.4142,18.5668,-131.5975,45.8777,19.2626
-57.9929,-39.5072,-122.7928,49.8104,-101.6447,109.7667,-32.7792,166.7358,12.1909,150.5773,-5.1794,-51.6529,-48.8899,-63.7343,26.2173,-33.7649,-145.3880,43.6803,-40.6150
-32.8038,-30.5023,-124.2382,46.5222,-101.6192,82.1908,-49.6010,138.2690,4.7126,116.3025,-50.0806,-13.1662,-58.2904,14.0903,48.0082,-47.7096,-141.2969,27.8783,-43.3122
-41.3665,-15.7703,-78.2863,57.6132,-78.2663,87.0380,0.1507,149.8340,42.7892,142.3070,18.9205,-23.1559,-23.9811,-28.1042,21.5635,-8.6685,-87.0208,23.0021,9.8581
-24.0786,-28.4175,-3.6998,82.3349,-22.0286,127.3412,120.1617,196.4764,135.0258,194.7602,96.9696,-24.2135,6.7041,-45.6174,11.5402,38.2154,1.6067,70.2233,150.4990
36.9265,-89.8045,35.2750,100.2223,48.3305,173.1445,242.8291,254.2265,241.3333,237.7641,75.6551,-9.7992,-62.9897,-2.9684,60.9619,56.9476,57.2839,100.9507,275.0155
70.4105,-114.6031,48.6876,106.2794,72.8841,186.0030,265.2336,276.8171,276.7216,253.6843,56.2716,-24.3441,-150.6559,-23.9351,89.3524,64.2706,94.7277,65.3126,277.6891
50.8312,-29.3243,100.8411,123.7371,88.2949,162.1784,222.6036,238.6579,239.6746,224.6937,126.0826,-18.3942,-94.8374,-47.9539,88.1068,71.3323,128.4226,18.7906,224.5764
15.0663,38.2186,133.4868,105.1309,121.2496,103.5058,203.7640,155.5436,199.9823,158.7097,160.5176,4.4327,34.6806,-29.2710,121.5339,52.5948,63.3942,-21.0800,169.6859
-9.5060,-41.3005,51.3345,-6.4865,75.4123,12.0043,182.4678,68.3090,179.7628,98.5628,77.3724,-46.7420,69.9427,-82.5626,150.5644,6.8860,-82.7860,-71.8673,78.4412
-3.1634,-133.0213,-39.6806,-91.2154,-30.0928,-42.3114,129.6841,34.5188,160.4453,76.4446,5.5539,-104.2642,52.1454,-134.1219,132.7682,-18.7447,-120.2293,-79.1271,-6.1853
31.9246,-91.8573,-1.2862,-18.0919,-47.5629,5.5129,78.5305,72.8906,125.7322,85.0154,43.2625,-51.4099,74.1291,-38.6282,121.9471,-2.1202,-34.0448,-28.6656,-32.1301
52.3251,-31.1967,63.8494,88.4844,-14.0790,74.8229,6.9859,109.7829,52.6091,88.7504,130.0484,11.8674,65.7871,48.1512,106.7227,16.7080,-3.6551,-4.9681,-56.7115
42.4336,-44.6323,40.3098,83.6143,-40.2664,68.5497,-89.8386,86.8857,-37.9547,67.6366,205.6112,-11.0500,-1.5082,-5.2466,33.3227,12.7328,-30.8060,-15.0104,-86.2559
39.8351,-29.6862,31.8596,68.2614,-37.3458,47.5492,-112.5175,59.2740,-68.0965,47.3939,239.8317,-19.4709,-18.5896,-35.1060,-18.0484,18.7334,20.1257,13.0349,-48.7097
65.0075,24.0278,102.8130,135.1432,55.0937,79.0313,-34.1569,71.7096,-19.7039,48.2309,180.2024,30.1794,17.7933,27.2196,24.3155,42.3892,116.0084,60.4797,25.5043
102.9375,9.6049,155.5448,201.2520,120.8214,113.2420,55.5286,88.9066,45.2136,53.0673,76.5714,63.3969,6.0620,71.5320,71.7116,45.6024,163.0603,80.5482,71.4944
130.4106,-18.9040,180.5535,237.2036,144.6059,140.4678,123.4629,119.5953,93.5079,72.9846,79.4175,86.1657,-18.0535,103.5922,73.9773,41.1044,197.1910,109.3825,119.5999
123.4126,24.6720,233.8980,276.6769,199.1750,197.1332,169.5761,191.3079,126.2831,131.3077,178.4958,102.6721,46.8682,127.9086,103.4529,66.9104,222.9482,142.7582,158.9972
89.0974,26.8715,223.6861,244.5657,199.1927,206.9113,140.5965,219.4005,126.9697,169.0292,195.3168,37.9605,143.6708,47.9767,162.4283,80.2500,149.5060,92.0061,103.3447
66.0887,-74.8385,74.1111,108.4853,63.3760,98.6339,35.6546,133.6213,92.1850,124.0189,97.2056,-68.3544,148.3298,-75.4942,175.5516,43.7504,0.8110,-39.6346,-25.4538
56.3862,-123.7497,-69.8503,6.0478,-83.9940,-25.5745,-65.4671,25.2701,44.8392,55.7739,37.4498,-92.8016,81.2956,-99.0168,142.1205,26.0800,-78.7550,-125.0204,-115.8107
35.8925,-42.4454,-56.0347,22.5456,-113.3110,-52.3659,-109.1377,-5.8412,3.5123,38.3296,80.6590,-42.1888,55.0090,-53.6009,113.4294,62.4299,-43.5190,-95.2324,-137.2123
23.5039,52.6920,54.0601,94.1334,-57.7384,-6.6523,-93.0420,21.1449,-16.9898,47.4879,145.6089,21.9676,76.6283,11.2892,102.2323,81.2300,22.4073,-14.9633,-126.3162
42.8782,88.1435,118.3018,168.7977,-12.0078,60.2241,-60.1943,70.3615,-17.2497,59.2840,187.3980,93.9423,53.1786,119.3437,90.7785,65.6944,57.9960,39.7999,-91.0619
69.3611,86.0305,114.2217,235.4470,-2.4238,141.7099,-49.0983,140.6839,-8.0102,101.1479,232.8103,131.9586,-6.1047,187.8618,75.2502,75.3063,81.0862,81.2907,-16.8651
74.2363,55.4305,113.0247,253.5095,37.8307,214.4901,2.7887,207.6664,35.1029,159.6360,259.2701,91.8784,14.7067,135.7535,87.0077,98.2696,100.1285,131.2588,75.6754
46.9630,16.7270,118.2111,195.5012,127.3821,226.3824,127.1283,222.3388,111.2287,176.8170,192.4753,28.6016,93.5366,47.6650,129.7292,87.2286,67.3231,127.8947,110.3258
-8.8700,10.4577,61.7626,100.3901,138.6016,151.4237,177.5610,157.1047,131.9922,133.8766,63.5545,-1.2184,87.3742,-7.7777,123.6492,64.6255,-15.5378,36.3893,47.3655
-40.1419,23.4293,-19.5519,42.8861,32.1037,40.3260,83.6811,45.2446,65.0165,59.5382,33.2748,-6.9231,13.0665,-48.8669,40.0975,50.0863,-46.2078,-50.6619,-28.4082
1.4269,10.8315,-13.9234,51.5312,-21.4179,-19.5443,0.0836,-36.6240,2.9379,-12.2302,126.0182,2.5628,-15.3482,-53.4719,-17.4762,15.1608,5.7114,-70.7666,-36.6729
53.9369,-27.0195,26.9231,68.9354,25.8457,-20.1310,-5.1123,-58.3023,-13.7652,-55.4603,115.9223,17.3827,-35.4146,-16.1621,-7.6597,-27.5337,23.9188,-77.0832,-24.5921
33.1844,-38.6377,-34.1313,60.9545,15.1136,-3.9141,-16.8869,-34.1702,-20.3748,-40.0838,-74.0830,23.1146,-81.9195,17.9215,-3.5215,-25.9428,-31.4252,-64.6906,-21.8525
-17.1032,14.0619,-127.5434,83.8964,-54.4266,48.5034,-6.5892,46.1029,16.2870,46.6723,-128.0842,30.5877,-29.1178,42.3253,10.4094,16.0254,-39.5806,15.7979,29.4188
-9.1505,75.5631,-89.6543,128.7672,-45.3422,117.4316,62.5065,132.4398,100.8432,129.5969,141.8277,21.1054,117.1180,26.0710,80.9395,32.2435,36.8976,57.6332,94.4155
36.7328,55.1290,29.9866,93.2840,-9.1204,78.7569,50.2967,92.5346,100.7686,89.8078,394.9277,-28.0912,129.7588,-62.6700,97.2662,-23.6741,73.0504,-50.3011,56.9912
45.5224,-11.0239,69.5806,2.4366,-50.7512,-54.5868,-87.1483,-49.2165,-30.4100,-42.3578,318.6998,-48.3881,-35.7227,-109.0720,-16.6885,-108.6877,11.1582,-169.1873,-52.3412
10.4934,-20.0446,24.3128,-19.9243,-81.4492,-93.8210,-167.3363,-98.6817,-135.7061,-97.2349,137.4260,-9.2239,-142.0353,-52.6507,-116.5684,-129.5893,-56.4248,-134.0687,-90.2697
-18.4645,6.9075,0.8847,12.4498,-20.1739,-4.7209,-99.8322,-16.7558,-103.6466,-28.3053,131.2545,-7.2550,-74.2436,-41.5536,-83.8041,-75.5782,-55.5633,-23.1763,-27.3744
-17.1162,7.2774,22.3966,31.3515,43.2246,74.7770,5.2806,70.4954,-8.8355,56.0061,169.9956,-41.2027,7.2682,-81.3946,2.3674,-21.0881,-19.0363,42.6229,41.5548
-8.6524,17.5450,14.9307,80.7031,32.4313,128.8733,48.9353,138.9538,40.3161,110.6660,100.9913,2.6885,-27.2373,-0.4816,40.9346,13.1329,-5.3330,87.8782,51.5730
-18.6935,44.9953,-51.3363,164.6277,-15.8631,209.4160,31.3369,207.9923,27.6925,155.9511,38.8241,66.2348,-83.8712,103.6504,22.8847,50.1097,-22.7126,129.9973,27.5398
-43.0798,26.7749,-105.7180,180.3232,-51.4213,243.7159,8.1800,205.9595,7.9199,159.9499,23.1020,18.8922,-45.2619,21.8281,-14.0977,60.3375,-44.7740,124.2010,16.4253
-62.8254,0.1477,-96.9454,133.1174,-59.1621,191.7477,24.7543,145.9731,21.3074,128.2755,-37.4592,-40.6527,28.3031,-82.6716,-21.8076,43.8280,-49.6327,101.0343,17.3848
-59.0787,47.0829,-57.6434,149.3204,-42.1431,161.0921,46.6922,155.7429,37.5610,140.5006,-41.9860,30.4862,40.1180,23.9130,-2.6063,72.9491,-17.7520,126.2878,16.9764
-23.9895,122.0741,-5.9111,247.4091,-16.7460,198.4588,20.3988,223.0421,15.4611,182.2448,113.5775,145.4081,14.5958,195.0830,-14.3047,127.3456,57.1408,156.6922,30.1903
16.3195,153.6103,60.5387,314.0254,-12.6447,209.7589,-38.1886,210.4066,-28.8347,151.9990,229.3761,172.2953,-30.5458,211.3643,-61.4930,94.3188,130.8345,109.9937,36.9103
31.4706,153.4672,97.8023,287.1498,-41.8285,142.4865,-92.4071,104.1008,-68.3777,50.8892,180.6241,132.6277,-111.6947,118.0237,-96.9639,-13.7978,158.9364,20.0072,-6.3791
42.2333,125.7199,107.6030,226.4996,-48.4970,58.5798,-112.6995,4.5715,-95.5399,-32.9055,168.0345,96.3617,-127.8771,46.0328,-111.7197,-70.6746,167.3693,-21.3751,-59.3588
74.9746,62.4680,145.6736,199.0394,19.0936,21.3322,-82.1122,-43.7999,-100.6307,-71.9183,260.5605,84.5147,-26.0820,35.5834,-105.7462,-41.0081,170.1293,-26.2104,-71.2745
95.8104,-4.5269,149.9142,173.0857,78.4720,18.0369,-64.3006,-59.3225,-99.5209,-83.3043,280.7155,71.4900,27.3796,43.0338,-71.8071,8.5789,108.1424,-63.1205,-84.7599
65.1997,-67.7298,26.7973,100.4098,33.8687,13.0975,-95.9935,-42.1469,-102.3752,-49.7888,211.7906,17.2673,-13.3680,-3.6303,-45.2147,33.4936,-24.9854,-90.9507,-97.7391
-3.7475,-120.9904,-144.1599,34.4003,-41.7429,23.6498,-63.6406,27.0618,-52.8899,42.4909,135.0655,-46.8131,34.4348,-69.9120,-32.8603,37.0855,-146.1036,-33.1669,-39.7841
-74.0393,-99.0222,-263.6850,28.9203,-71.1849,67.9999,48.9524,122.1835,49.1072,141.4032,33.4841,-49.1066,140.1439,-51.9145,15.6498,28.3351,-215.6820,35.0479,26.1540
-108.9625,-10.5902,-341.1928,22.3197,-123.7743,84.9864,53.7552,158.4860,82.0208,167.9324,20.1430,-22.5370,109.2964,-1.2954,64.0284,-3.4199,-243.1367,-1.8684,-7.8187
-98.2524,30.0399,-336.7116,-34.5384,-211.4345,27.6869,-68.8149,98.2226,15.2661,111.0307,172.9852,-40.0897,17.1997,-33.4417,21.5551,-56.9023,-220.9232,-98.0864,-72.0080
-79.6145,3.2172,-233.9706,-85.7686,-235.2905,-39.9234,-131.5839,11.1816,-37.6310,36.5577,195.6519,-63.9863,-19.8071,-82.3600,-63.0492,-74.0406,-179.5714,-161.1086,-87.2461
-63.5635,-23.1348,-180.7166,-94.0373,-203.3577,-61.8463,-129.2686,-38.6289,-45.8022,-8.6250,-17.9833,-48.2453,-109.7498,-59.3554,-82.3869,-22.6260,-161.7047,-198.5691,-105.4029
-11.7873,-54.1678,-211.5539,-86.8659,-178.5633,-72.2738,-151.9831,-60.6556,-54.5771,-30.1719,-62.2390,-42.7024,-204.4103,-43.8770,-58.0397,14.5445,-119.9978,-204.0693,-95.5843
42.8568,-92.1535,-164.6543,-73.0359,-109.5511,-76.0153,-98.8997,-48.3347,-20.7097,-19.7489,116.7219,-65.2994,-117.4063,-82.2482,-45.8671,-18.8239,-23.4895,-123.8158,31.3334
32.6961,-82.2775,-58.1757,-48.6086,26.7955,-21.9475,72.1369,23.6057,74.1294,33.8538,100.2233,-63.0931,11.3766,-84.3200,-21.5873,-39.9180,43.8685,-4.7939,172.7997
12.5511,-58.0539,-53.5289,-35.2769,130.4342,62.6490,179.5494,100.2849,125.9771,76.1407,-27.6875,-39.7818,-6.2314,-30.6511,19.2435,-10.6172,40.8409,40.9907,187.2203
42.1818,-86.4318,-95.3531,-51.9965,149.9776,76.9854,151.5266,95.3017,93.0108,49.0794,90.8136,-50.4710,-6.4326,-22.6588,27.5024,-25.7697,21.4152,-4.4673,122.0182
34.4773,-105.8372,-78.3365,-95.7670,114.8069,-2.4174,90.6070,14.6698,40.3998,-16.2198,206.9389,-95.9783,87.5456,-106.2010,-6.0787,-101.8008,-14.7585,-89.4517,36.6740
-45.1855,-62.3092,-99.2163,-132.3058,21.5914,-93.8303,3.9984,-70.3773,-21.3753,-63.3588,55.2267,-124.2025,66.2339,-195.4308,-54.2851,-135.5863,-92.7076,-175.8315,-93.3426
-78.2658,-27.6525,-209.4088,-117.6738,-128.7914,-132.1835,-143.3177,-119.0316,-109.0115,-89.3999,-34.8781,-102.2356,-77.7326,-186.3323,-102.8944,-116.4582,-154.5804,-226.6187,-208.1053
-41.9768,-30.6984,-288.3901,-75.1915,-264.6159,-129.3908,-249.0302,-123.1350,-152.4863,-92.5224,69.0079,-61.2484,-146.9155,-112.6034,-128.3795,-123.6881,-151.7879,-210.6802,-204.0940
-35.5521,-15.1904,-270.2232,-54.6549,-294.0990,-93.2856,-190.8238,-67.6003,-77.8790,-38.9941,67.4325,-53.4230,-124.5677,-90.2164,-99.3168,-143.2602,-103.1035,-132.5105,-88.0481
-50.1258,16.5219,-198.6060,-17.6370,-196.2679,6.8237,5.7412,49.1349,78.6900,66.6194,-19.3222,-54.9221,-84.5198,-94.5806,-30.7862,-103.0373,-22.1773,-31.9122,70.8935
-24.3416,30.8515,-135.0599,73.2251,-77.6684,128.8056,181.8629,171.0048,206.5324,162.4650,20.6172,-12.2559,-51.8080,-30.3549,16.5862,-27.0477,66.1997,28.2559,196.4317
4.3908,38.9675,-112.9720,146.7111,-53.5331,161.0621,206.2696,226.1922,230.7434,207.3275,96.1773,30.7573,-81.7327,21.1947,12.0466,3.4002,119.6153,32.5205,225.3575
12.2806,39.9238,-67.3716,163.3259,-53.5152,114.2590,140.6672,214.6012,179.9787,206.4002,139.0988,20.3365,-125.2436,-28.2082,-5.9999,-14.9061,150.3752,48.1217,190.1502
26.9316,22.0274,49.0580,164.9040,41.0553,100.7295,116.5858,174.4906,113.8712,156.7530,193.1933,6.4528,-44.4382,-58.3682,-5.9267,-26.5567,154.1784,75.8208,138.5471
10.1489,-0.6823,85.3635,114.1471,134.9008,94.9806,83.6087,93.9522,18.8118,50.8870,116.8275,-2.0682,66.7757,-39.1453,-28.1558,-35.3504,56.5207,4.0113,12.8257
-52.8801,-31.9262,-47.0435,-33.3698,97.9683,-3.7283,-43.8657,-27.6719,-107.2306,-60.8274,-56.4831,-71.2337,33.2909,-120.3293,-88.7987,-77.9364,-102.1880,-147.0676,-169.2527
-63.2120,-57.8243,-134.7240,-140.6839,33.4990,-113.6808,-137.7966,-104.2292,-165.5786,-103.5922,15.7569,-124.8902,-26.9643,-205.8697,-102.3562,-100.6169,-146.6079,-191.6547,-232.8149
9.4721,-14.9281,-37.7951,-72.2686,73.1400,-88.7704,-77.6099,-79.2906,-109.0692,-78.7515,292.7612,-32.5489,48.0715,-63.2306,-22.5958,-33.5510,-43.6358,-96.0634,-143.7957
65.9638,67.1912,76.1009,72.8950,150.4859,19.9493,26.1662,-13.3605,-33.1607,-43.8514,368.5311,94.9277,152.2978,139.7006,53.5269,47.2024,72.5109,-6.5755,-59.0042
68.8817,72.3216,100.2026,146.1209,174.5231,88.9988,60.3241,32.9346,-9.2297,-16.6037,222.8247,82.5890,156.0767,109.3329,37.3205,43.2366,146.9042,39.9843,-19.7548
64.5239,22.1624,119.5315,157.1455,168.3013,121.5877,61.5621,65.7102,-7.9392,12.8308,127.7757,11.7455,90.9506,-18.5228,-23.6154,15.8721,200.3761,90.2902,35.2013
50.8527,24.7331,132.7877,145.0713,150.3346,135.7161,57.3438,78.9247,-5.5648,27.5480,111.2570,11.9425,17.5731,-20.5705,-42.8668,28.5611,179.9159,81.7876,55.7626
4.2224,47.5273,64.5777,73.6855,83.5559,88.8066,25.8824,54.8993,-2.6107,22.3890,74.4190,12.1791,-15.4670,-2.7410,-11.4399,13.9827,48.5522,-18.4276,3.7194
-52.8801,21.1388,-48.6180,-50.7039,-33.8032,15.1536,-14.0766,27.5096,11.6846,30.0085,38.2511,-49.5741,16.2370,-62.0347,19.2032,-30.3504,-102.1648,-90.4906,-26.5533
-97.1154,-4.2583,-139.4148,-148.8359,-134.6632,1.8583,-34.9004,29.0798,24.9021,57.1478,50.3492,-101.6202,52.3339,-105.1001,14.7579,-8.6066,-181.9112,-77.3842,-3.8475
-123.8731,-3.2914,-206.9156,-187.1331,-160.3119,20.4911,-42.5551,30.9981,13.7479,67.5697,90.3155,-118.4656,38.3286,-123.7684,-2.9440,43.1328,-214.1415,-62.0614,-8.8972
-120.1279,-26.6231,-249.5818,-179.4067,-134.1582,4.6689,-48.5418,15.5517,-10.6613,50.9811,67.5679,-124.6783,-7.4559,-149.7614,-5.5184,25.3602,-230.6296,-59.1902,-44.6531
-81.4132,-53.0260,-238.2560,-111.0151,-103.5259,9.4472,-57.1618,22.2829,-30.1165,40.9594,-40.0940,-93.9272,-63.8574,-112.8331,-6.5954,1.1780,-187.9674,-11.9893,-48.4402
-29.1507,-39.7753,-159.5312,-5.2532,-50.3319,78.3402,-51.6040,67.3670,-30.4564,59.3387,-59.6403,-47.0658,-84.5054,-46.3121,-4.1136,48.3173,-81.9485,35.2268,-23.6918
2.7283,-27.5826,-56.6779,34.0064,35.4788,110.5943,-8.9848,107.2612,8.5226,93.2860,76.1907,-55.6146,-5.2231,-64.8977,41.0061,82.9037,-16.0926,15.9573,7.1262
-9.7897,-21.3144,-9.9292,-9.0248,86.1433,58.9528,38.6203,116.5956,59.8488,119.5601,130.8522,-85.5649,108.4166,-106.6222,106.6749,48.3094,-37.2273,-10.0391,42.5846
-45.1399,33.0140,-17.8064,-12.9423,69.9624,38.3668,39.1635,107.0337,58.7268,112.5324,10.2287,-67.4132,118.8064,-86.5120,115.4081,15.4115,-43.0965,19.4751,36.5739
-42.6268,93.1058,12.2240,50.5235,43.2119,85.9552,9.5679,64.2043,7.8383,46.3454,-61.7433,-34.9953,33.0492,-73.1492,61.5424,1.1623,34.4819,44.4745,-37.9034
24.2282,76.2229,104.0941,74.8363,51.4869,87.7415,3.0147,-24.3441,-26.8061,-66.7025,17.4080,-18.3743,-28.5894,-68.6768,4.5560,-48.7914,134.2297,4.3122,-91.4695
107.4429,22.6049,196.9821,44.8744,99.6176,16.5694,32.8306,-108.0398,-16.5483,-160.2248,143.4047,7.7058,-8.5085,-16.7036,-22.7035,-113.7059,200.0396,-75.4825,-53.8601
124.0467,12.1511,238.8842,21.2249,141.4503,-47.7168,62.9012,-141.0005,14.0460,-176.7704,215.7925,12.2997,41.4945,-14.0963,-12.4005,-132.1494,195.6367,-157.1141,-5.6899
38.7556,27.6500,162.6302,-24.5228,67.5289,-89.9445,32.0120,-129.0600,27.9145,-116.4107,115.3613,-31.9535,27.0185,-97.3629,16.5060,-100.7384,60.8947,-202.7805,-26.7253
-70.3768,15.5507,-37.7394,-95.2286,-122.3038,-104.9452,-72.2757,-63.1622,0.1541,-13.4911,-110.3337,-60.3293,-59.3936,-107.0679,3.4673,-48.3136,-129.6705,-163.7863,-66.0333
-91.5679,-19.1307,-182.5527,-90.8546,-242.5653,-45.1219,-170.9793,42.9790,-57.6867,71.8732,-144.4328,-46.5174,-117.7713,-32.5132,-63.6554,-8.1831,-180.6610,-75.2322,-80.7175
-46.9270,-22.5507,-141.6071,-12.6953,-205.6463,38.0520,-201.1075,88.4557,-112.0704,74.0746,40.5036,-30.2864,-117.6768,-12.5269,-116.1835,-5.8693,-97.6007,-32.7670,-110.3446
-44.5258,38.5645,-47.9855,36.9326,-132.2138,55.4724,-180.1230,45.8573,-141.3075,19.0011,97.0145,14.0520,-114.3840,14.6775,-120.3826,-13.6163,-65.9267,-22.8931,-135.6886
-78.0053,119.4017,-29.3815,67.8307,-83.0656,58.3782,-117.4065,36.7077,-121.5619,11.7354,21.3093,104.2142,-79.2040,140.1416,-92.9170,9.6367,-96.9950,27.3695,-84.6301
-65.6247,149.2921,-39.1141,127.6215,-20.1030,98.7552,-21.3482,92.2976,-45.8267,62.2998,69.1849,153.1815,12.9891,219.9058,-24.2126,39.9630,-76.6858,70.3716,-0.8329
-20.3061,126.8946,-55.4061,159.0555,11.1092,108.0450,33.0437,104.2558,27.5178,82.6199,128.4138,124.1259,55.9803,173.1710,64.9502,45.9153,-31.0816,41.7233,24.5138
6.6900,81.0787,-73.7980,130.9401,-21.3028,83.1783,14.6102,74.9494,47.9259,70.6356,56.1480,79.1723,16.3548,115.6041,94.2062,53.0378,-17.6555,11.3116,37.1451
26.9696,11.2568,-15.7434,81.1494,-33.9827,90.4582,1.9442,90.5740,57.1559,89.1049,46.6232,28.4182,-3.6771,68.0662,60.2692,70.3595,0.1344,18.2748,113.7634
37.0498,-55.5166,66.1704,-6.2636,-12.0343,79.2867,33.5465,112.3247,99.9515,116.3827,119.3002,-41.4605,2.5103,-11.1480,48.5640,62.8211,-2.0241,-21.7387,189.3428
-0.2101,-72.3688,13.6409,-127.5887,-34.9001,3.7902,62.4914,87.1085,142.5360,115.1824,77.2863,-83.0557,-16.0187,-56.3488,76.8541,33.7567,-85.1203,-101.8330,176.4271
-61.6680,-51.4142,-107.0493,-179.9489,-87.2973,-35.0056,77.8594,76.2806,152.9950,122.2106,7.5964,-87.7758,-2.7559,-64.5110,99.5121,15.4935,-173.9007,-94.3443,114.1056
-96.0828,-14.6562,-127.9800,-122.1854,-88.1232,15.9769,115.4064,104.3935,157.6919,146.5675,33.0440,-83.4482,67.8674,-87.1580,128.7938,2.2028,-184.4417,11.2050,80.7748
-100.5912,35.3165,-117.4721,-33.0107,-34.0109,83.7865,185.9188,127.5522,185.0367,152.8674,-2.0127,-36.1159,120.0605,-34.4656,192.6747,-1.5096,-177.6122,97.8796,85.2725
-83.2924,33.4737,-196.4758,20.9991,18.6437,124.3495,252.6680,147.3730,219.2634,155.7708,-111.0255,36.9389,124.6026,98.2751,239.4349,47.7101,-206.8017,103.5160,88.8767
-48.0618,-59.7029,-282.0946,13.9634,17.6869,113.4060,241.0724,145.1586,212.6467,162.0409,-94.8292,26.8784,83.7690,99.1800,203.6795,127.2551,-219.5679,42.8160,65.7010
-16.8004,-131.2749,-265.6431,-46.1668,-26.4686,29.0338,141.4296,72.7343,150.1450,121.7230,24.2617,-46.8356,0.8840,-37.9562,111.6039,145.9171,-167.4926,-31.8527,45.6791
15.2430,-104.6371,-155.3656,-76.4947,-11.6247,-32.7070,78.9528,3.7809,92.9783,50.2703,83.8958,-54.4383,-37.1348,-68.6438,42.9420,94.3479,-50.1734,-36.8558,75.9376
64.3461,-67.5954,3.2776,-10.5774,102.7147,24.6584,115.9653,41.2972,79.9844,30.0687,71.6155,-5.2052,1.8499,14.3457,16.8112,46.1150,98.9911,48.1389,121.4478
85.1193,-35.5625,135.8958,113.6984,187.7720,124.9664,123.5725,135.5570,50.3621,70.3891,52.3137,22.9349,2.4040,36.6169,-11.9724,18.3482,210.8858,152.6806,113.8538
51.8561,84.1989,183.7538,251.5846,156.7642,198.2747,41.0214,212.3291,-14.4927,126.9553,99.9572,65.4329,-40.6461,45.0399,-40.2367,-3.9518,263.1219,238.1797,88.3113
45.7562,214.4511,209.2454,383.0059,111.2721,284.5387,4.4697,275.5448,-19.1755,177.5328,223.0879,141.9809,-16.2247,137.2023,-9.3420,22.6804,312.3611,295.5023,111.6919
114.1649,191.5254,280.2428,437.2444,141.2850,335.1866,67.9415,283.9319,53.2617,182.2877,252.2080,177.2189,11.7668,211.4997,58.7790,106.3026,370.1453,271.5431,143.5752
175.4535,81.1201,332.5124,376.7742,190.7582,267.7968,111.0395,202.3645,86.2407,117.4237,129.8787,162.7525,-48.5671,208.2405,68.2512,155.5168,381.6100,179.8976,128.6594
169.4942,43.9106,303.9749,284.3040,195.6880,184.9066,86.5928,128.4110,44.6520,52.3988,98.3364,151.6336,-65.0843,204.7623,19.8890,129.3029,342.1516,136.2626,106.1222
136.1271,53.9067,240.3901,228.7168,175.4828,194.9583,70.9812,130.3797,17.9812,48.0007,230.0950,126.2976,41.1971,192.5313,2.5406,97.1350,284.3479,155.1586,112.0478
104.5846,23.5882,183.3790,179.3277,159.9722,201.4604,91.1532,130.6778,39.5372,61.4123,267.9578,68.2695,121.8527,119.3459,25.2088,92.5566,202.1396,126.1209,109.5868
65.2957,-27.9051,111.2986,105.9375,125.0753,112.3608,95.0056,74.0854,55.0852,42.9605,137.4135,20.2273,89.7497,34.7443,27.4230,72.4914,93.3126,22.1137,59.6947
32.2421,-75.3786,7.1041,20.6798,26.5895,-5.2571,32.5971,-6.0129,25.5556,-1.7791,18.3674,-17.9256,-0.7837,-33.9441,-5.0551,21.0148,-7.6283,-83.5036,-34.3034
20.2295,-118.8627,-88.5954,-54.6331,-103.7848,-76.8638,-83.4427,-77.7896,-42.5536,-56.1204,-32.8710,-69.9136,-97.5445,-108.7101,-58.4266,-37.0453,-62.1216,-137.1694,-119.1973
16.1125,-103.4111,-88.4749,-72.5259,-150.7960,-85.0953,-149.5172,-100.6374,-97.6471,-87.5823,-42.1614,-73.6462,-115.8682,-108.4817,-115.0642,-73.6973,-36.3519,-107.4367,-118.0534
18.3837,-1.5851,30.3279,0.7411,-68.2827,-25.8023,-90.0350,-49.0374,-85.1065,-68.4078,27.8421,20.6489,-14.4890,33.5099,-119.4549,-54.5280,56.6127,-13.5167,-49.6996
36.7284,97.3555,150.6172,102.2773,45.6678,47.3718,-8.8866,-3.2958,-52.1115,-47.9638,144.6443,121.5278,63.7420,171.7695,-57.9673,11.4034,123.7814,32.8176,-40.5891
56.6950,107.2706,175.7134,136.1449,88.3293,52.5418,-52.9600,-44.3460,-97.4227,-85.4756,233.1507,117.8769,31.5450,139.2322,-19.5236,43.6468,104.9499,-25.4121,-128.8346
54.6920,50.5970,159.3543,94.1029,56.4886,-6.6796,-173.4162,-114.2054,-185.6300,-134.0548,271.1813,30.4662,18.9238,-8.8745,-46.4571,3.7858,45.6175,-97.5797,-203.9130
23.1479,-15.9365,137.7515,25.2514,-4.6953,-67.2390,-208.3625,-124.7685,-186.7600,-116.3164,191.5603,-54.8484,70.9632,-128.7905,-59.9196,-50.2426,-18.6550,-102.8628,-187.1725
-25.2918,-71.9484,47.7656,-41.2349,-42.2124,-85.1758,-120.7449,-75.4168,-93.6042,-45.3748,-11.4596,-99.1934,71.4478,-172.2415,-22.5744,-74.6778,-100.0124,-52.7671,-108.0842
-56.4337,-100.1626,-77.6450,-74.3651,-19.9700,-37.7704,-5.4356,3.4131,-13.1642,21.2387,-125.2976,-97.3877,32.1148,-139.2889,8.5316,-79.8917,-158.3751,25.3583,-22.5611
-50.2121,-81.7999,-114.3205,-40.8803,16.0705,42.1906,47.3174,75.1131,8.6544,59.9769,-37.1703,-57.8602,38.9460,-59.7353,10.2579,-65.4912,-145.8522,76.1611,13.8048
-30.0265,-51.8479,-75.3941,24.0641,-17.7639,62.6428,5.5153,81.6482,-9.2583,61.9470,54.3581,-25.7242,27.7080,-27.6001,-9.9463,-40.8174,-106.3923,29.8234,-29.4672
-9.3050,-67.9463,-48.6488,49.4041,-100.0195,3.4626,-99.9493,19.1045,-65.7320,18.3391,32.3584,-26.5384,-51.1227,-57.9872,-72.8023,-44.9286,-86.2145,-67.1307,-100.4754
26.6532,-102.5569,-5.3020,41.0603,-128.6971,-45.2039,-182.1301,-35.5982,-133.6411,-38.4173,42.1875,-8.5690,-90.7980,-24.5663,-140.8235,-55.8972,-64.2595,-102.2603,-127.5631
43.6332,-77.0678,69.4102,45.0721,-88.7127,-29.4624,-175.6367,-26.3435,-142.1648,-40.1123,117.1262,49.2483,-46.8049,86.4541,-131.2703,-1.3268,-50.9142,-75.3585,-109.9453
-12.6147,-11.9907,64.0814,36.3056,-57.5776,12.2619,-115.3195,21.9306,-91.6316,23.7141,90.0743,61.1553,-15.1353,102.8811,-77.8137,95.2770,-91.2940,-52.4375,-80.5396
-88.9039,3.3794,-37.3193,-18.3892,-60.5555,37.6133,-80.5992,46.4526,-62.7608,67.5807,-47.7574,-6.3000,-32.2612,-5.5551,-66.1114,135.2549,-150.3607,-40.1257,-66.1180
-85.4994,-22.4628,-83.7823,-56.0628,-49.6853,33.9048,-72.4817,21.0289,-66.3477,39.1292,-99.9328,-44.3218,-36.0755,-53.3872,-54.3436,115.4942,-147.8110,-23.4169,-81.9526
-26.2343,-10.5105,-18.2279,-6.9170,-4.1104,12.5535,-27.1303,0.2994,-34.1836,15.1698,-4.3958,12.8140,-8.0217,22.0610,8.4370,107.4813,-78.7273,2.7733,-80.4607
-2.2521,37.7091,57.6647,90.5398,51.5594,19.3656,52.6625,46.6489,27.6606,60.4491,86.5170,83.7081,8.6291,89.5527,39.6086,100.5286,-2.3331,48.3158,-1.0641
-15.1087,58.0969,85.4516,140.2410,94.8218,65.6588,93.5355,110.4070,49.2291,104.0154,84.2676,84.0299,5.5217,72.3235,5.8609,47.1933,27.3609,76.2203,92.8085
-23.2279,27.8191,75.3205,89.6555,104.3525,78.8372,85.0996,97.2886,42.3747,83.2174,63.2827,20.5586,26.7314,-3.0248,8.8540,3.8292,-12.6548,39.1289,97.8267
-36.1721,-28.0110,5.4895,-19.8969,58.7372,23.8614,78.5285,33.1304,58.3946,54.8318,49.6096,-45.8208,73.4850,-75.4999,55.3700,41.7414,-92.4835,-17.0892,44.1203
-57.0341,-61.7631,-113.8791,-78.4664,-31.6147,-26.9325,54.3548,2.8446,54.5598,50.7239,-18.9200,-43.1287,66.0923,-50.1889,30.5366,96.0151,-144.9185,-38.5223,-7.1582
-52.9507,-34.0763,-181.8898,-40.2783,-125.1593,-35.4218,-40.0987,-16.2653,-24.5432,9.6833,-80.6709,27.7152,-21.4910,61.2490,-60.4436,71.3764,-132.9794,-55.9806,-87.3555
-28.4341,27.1583,-131.6637,12.9109,-173.2008,-53.5846,-141.6853,-82.3129,-113.5799,-72.8305,-10.7984,65.8848,-86.4301,83.5421,-104.9266,0.4000,-71.7406,-73.1740,-177.7635
-13.7888,56.2875,-22.5225,16.3161,-145.7039,-83.3452,-146.6718,-137.4647,-122.7990,-113.5305,100.3064,31.9757,-68.5623,-13.9133,-86.5229,-39.0564,0.3371,-49.4762,-171.6392
3.1790,46.7089,50.0713,13.6073,-68.5755,-59.2124,-84.7326,-98.8387,-74.5342,-83.6374,83.8684,16.5454,-39.9796,-25.7869,-57.4819,-40.2789,46.6085,-11.7175,-72.6218
37.6686,35.8731,74.7916,46.5919,8.3842,17.9437,-39.3700,-6.9339,-39.1254,-33.7088,27.5440,57.6388,-25.7726,92.5685,-24.5559,-17.1049,65.8675,17.1481,3.5379
56.8889,31.3428,105.8988,87.7157,81.6844,78.8077,-3.7409,42.6145,-32.1577,-5.7510,87.5260,72.5046,30.7418,127.8890,6.7341,19.3120,85.0490,68.5415,10.3499
38.6794,20.0706,143.0428,90.3467,134.7739,78.1732,23.3781,21.1803,-42.2090,-16.6667,148.7319,21.1560,82.4128,9.4064,6.8438,17.0683,88.5646,81.9176,-34.8656
13.6175,2.2176,124.4308,33.9689,95.9255,13.7587,-22.5933,-40.0116,-70.8330,-62.3379,70.1366,-31.0057,49.4759,-82.6779,-17.0484,-36.8478,39.8382,-15.0099,-113.8735
8.3113,-7.1013,64.7585,-27.8379,-7.0814,-66.5944,-102.3326,-86.0229,-95.4237,-91.1327,1.2339,-20.3545,25.6307,-35.7635,-30.4414,-56.5831,-17.2608,-93.2443,-155.9908
6.6466,7.5483,44.0019,-6.4876,-41.2426,-88.6502,-83.7078,-69.7336,-69.3810,-54.9632,76.5471,33.7436,103.7561,49.8590,-18.2966,-10.8543,-19.5106,-38.9118,-110.0507
-10.2301,22.2616,39.3475,57.8450,-24.1005,-62.5502,-0.6125,-21.2245,-6.1173,4.9440,134.5261,46.7529,158.5504,34.0350,6.4763,-1.6614,-12.5581,4.4736,-65.7054
-29.8932,-2.0140,-19.1681,36.6350,-91.2989,-69.5941,-13.1169,-22.9564,11.2165,7.8879,66.0202,-13.5604,81.2192,-69.4012,3.2557,-74.6561,-52.5450,-62.3027,-103.9564
-32.9204,-20.1408,-65.2029,-43.7092,-195.1617,-101.3841,-112.6215,-75.0778,-48.2746,-44.5956,36.7254,-54.2085,-27.1949,-111.7841,-47.9288,-126.2522,-71.1892,-89.1233,-144.4325
-18.6840,37.1072,-5.4314,-46.3965,-186.6670,-75.1676,-171.0355,-93.7324,-118.4069,-80.1850,115.9710,-9.2041,-78.8636,-38.6472,-92.9907,-88.1310,-1.3988,-3.0182,-115.8536
13.0162,96.9964,100.2175,25.0763,-99.9768,6.1402,-187.7932,-51.4680,-149.0168,-68.8003,143.5042,34.9075,-99.9244,29.6858,-80.5626,-23.9129,91.9319,63.8138,-81.0879
69.3402,47.1598,158.2762,68.1584,-42.3191,67.7200,-208.6895,-2.5723,-150.9742,-45.8426,108.8059,12.4594,-72.1758,33.2325,-40.7127,8.2841,129.7656,56.8211,-74.5843
124.8384,-43.7564,167.5152,64.6495,3.1706,76.0285,-177.7938,11.6528,-125.7702,-40.6183,169.8740,1.8852,10.6019,59.6585,-8.6247,23.9682,121.1919,47.4479,-48.3958
123.4898,-39.8666,135.1997,55.7372,63.0656,49.9580,-85.3861,-2.7115,-82.0956,-46.7441,263.7375,46.1801,46.2287,116.5655,26.9345,30.4862,86.4955,56.0257,-22.8248
57.0760,27.6430,60.0645,57.1086,90.5544,31.1087,-35.8138,-19.3371,-69.4733,-48.3026,181.5610,62.9928,18.3191,98.0202,60.9239,16.9018,20.3498,62.7682,-60.5713
-10.9986,39.6578,-15.9648,48.6020,64.3017,35.0556,-53.7391,-27.5659,-84.6259,-42.9231,-27.1850,9.5109,32.8469,1.6138,71.7694,2.9204,-56.9061,55.6344,-121.4995
-27.5941,-14.1023,-65.9188,-5.3660,11.4592,8.9510,-60.7626,-59.2040,-71.3775,-56.3154,-121.8425,-48.6160,68.7244,-69.1730,61.5511,-6.2028,-107.1627,3.5720,-133.8294
-6.1079,-46.7391,-91.6716,-76.2689,-26.8380,-68.4992,-50.6289,-130.0706,-54.8922,-110.3672,-39.6903,-49.9971,18.9379,-70.6201,29.6399,-42.7945,-109.1408,-72.9237,-115.3626
10.0162,-6.8904,-77.8397,-83.7823,-25.1860,-114.0619,-73.8028,-173.2121,-84.0745,-156.1875,52.0021,-10.3127,-81.5316,-36.6980,-15.6117,-84.8414,-64.0636,-96.3071,-95.1147
1.9025,48.7427,-52.6931,-56.2607,-34.5643,-92.0290,-111.9327,-135.2142,-96.7913,-123.7682,7.7434,7.2261,-152.3519,-17.8371,-31.6131,-67.2406,-16.1619,-74.3132,-53.9733
-12.9912,26.6094,-79.5475,-82.0866,-107.1801,-73.1518,-117.7134,-72.8272,-47.1982,-46.3361,-96.7748,-22.8943,-194.7302,-35.6168,-18.7029,-16.2456,-26.1029,-67.4976,-4.2536
-11.3340,-52.1358,-124.5282,-107.2207,-167.4055,-63.9502,-91.5848,-39.0102,-8.3963,-3.7317,-85.0497,-43.0451,-181.6752,-39.0967,-25.1545,-3.6328,-76.3183,-47.1530,22.0759
4.7641,-79.0731,-113.1550,-48.6977,-140.5628,-8.1209,-52.7319,1.9704,-4.9119,17.4666,9.8181,-8.9963,-91.5814,22.9747,-30.5966,2.0778,-86.5314,19.1761,43.2876
18.8826,-46.6862,-70.6340,15.7484,-85.8285,53.4629,-17.5261,49.8686,15.7117,46.1718,12.3649,23.9231,-13.5336,82.6540,10.3822,42.4109,-44.0013,61.3653,52.3143
28.1137,-33.4488,-35.1050,9.1458,-47.4163,43.6133,-9.4214,26.3955,19.4959,19.8646,-18.0127,-0.6909,9.9922,38.4285,41.7558,39.5575,-3.2383,25.8064,-11.2663
47.6331,-44.8376,22.3903,-12.3972,1.3840,-21.9522,-32.8418,-73.7993,-36.7955,-80.2882,100.2811,-42.2942,40.0034,-66.4368,6.6315,-39.9337,34.8984,-45.2426,-105.9241
95.3867,-50.2746,100.8285,-1.2748,35.7964,-81.5604,-57.2756,-147.9751,-73.0613,-150.1048,263.9312,-33.9778,50.3524,-86.3456,-37.4670,-79.2460,109.6072,-88.4337,-99.0014
148.2490,-58.2675,162.3179,36.3545,49.0768,-75.0047,-43.9465,-124.7425,-44.1773,-129.2115,265.6772,23.5246,-9.1441,12.2346,-40.7611,-30.1108,182.8763,-59.6015,3.4053
130.4255,-44.2837,187.4180,90.7702,111.3297,24.9032,18.0909,-24.7975,-18.8659,-61.0159,157.9561,63.6365,-40.1559,87.3625,-31.4978,0.4267,169.2739,35.9117,68.0255
34.4267,11.0677,136.8577,109.4888,184.7177,130.0420,81.2939,86.6831,-9.4105,19.8019,66.7632,32.7602,17.5605,36.9372,-13.2919,-30.7744,82.1560,105.4728,66.5822
-8.6678,23.9413,13.0725,64.0568,140.2698,125.9373,70.9194,128.2231,21.5051,71.3205,0.7958,-25.3458,57.1977,-28.4835,28.8331,-47.0593,31.7928,67.8478,56.6622
70.1035,-45.8317,-60.0319,23.6634,4.1601,36.5415,-13.8747,43.7298,30.7541,15.6567,-5.9616,-29.4058,35.5334,8.5197,54.3529,-27.3283,57.7504,-41.3202,15.8250
134.1521,-87.0271,-16.2481,1.9425,-92.2768,-61.8548,-90.2831,-118.7716,-12.1137,-118.7924,49.2486,-3.7478,22.2234,42.8532,37.0151,-26.1579,72.7929,-141.2024,-83.1177
74.8045,-40.0090,40.3736,-64.6637,-119.6793,-148.0702,-116.4538,-227.6360,-53.3829,-191.4067,51.6893,-21.7403,11.8528,-34.7127,13.0745,-53.4206,15.7738,-186.4154,-162.0448
-6.4676,11.2262,47.2704,-120.4291,-110.2007,-176.4329,-128.4653,-214.3226,-77.5465,-160.7133,19.0976,-49.3618,-18.7889,-104.3386,-7.1623,-65.5829,-43.1507,-155.9166,-157.5058
-4.1401,15.2283,70.6826,-69.0708,-71.5126,-112.4582,-130.6797,-136.5562,-104.1301,-108.6020,98.9907,-16.7173,-5.7495,-48.7004,-53.5881,-38.7590,-18.2236,-71.2952,-103.6460
29.9097,-3.9496,122.3717,25.7699,-18.8374,-25.9814,-83.4378,-59.9760,-102.8870,-67.5521,215.5243,41.6570,45.6741,43.7763,-114.3545,-3.8071,49.1609,9.7021,-43.5969
17.8724,-30.0437,123.8570,69.9411,26.3480,37.7975,-19.2910,23.1055,-77.5297,-8.5372,151.9655,55.2424,22.1568,63.9793,-142.9831,-5.8217,44.6375,70.5326,0.5394
-43.9251,-28.4286,43.2879,71.3659,44.0092,109.2055,-14.7547,106.4546,-80.7906,57.5924,-64.9052,19.6136,-83.3211,15.7903,-123.3409,-22.4295,-49.7714,120.6489,8.7261
-103.7529,26.5552,-57.8365,45.0133,26.8518,147.6318,-36.5772,128.1434,-80.1679,87.9912,-199.3140,-24.1981,-136.9597,-49.7105,-73.7466,0.1714,-109.9257,129.4351,10.0680
-77.9780,68.2125,-70.3649,16.4941,36.6073,99.2817,10.0378,72.3973,-17.7123,57.5783,-105.6939,-29.3596,-71.4699,-64.9033,-20.1449,23.4913,-28.2733,78.7233,47.3212
39.2590,44.2711,48.6806,35.9936,112.8929,28.8646,93.0086,-4.0873,49.4043,-20.6136,122.3047,9.4067,18.2817,-13.3942,16.6550,-15.8058,128.1477,8.9943,85.8936
121.7362,10.4425,188.0506,50.9582,151.9946,-6.5365,107.2551,-52.9212,63.2927,-78.6080,230.1616,32.7421,9.3815,20.4219,26.8619,-54.1859,208.2584,-39.5120,96.1804
102.3693,-4.4911,226.6777,-9.3429,87.7461,-21.0005,69.5116,-44.3465,71.6198,-50.6724,120.9631,7.4897,-78.9035,0.7513,16.5840,-16.4618,180.8053,-46.5246,130.4348
65.9004,-44.7475,190.3660,-59.4557,25.5579,1.7976,55.8285,28.3307,93.4209,30.7605,0.4726,-28.1226,-123.9878,-16.5713,8.8096,21.5608,119.9067,-5.2898,177.4731
58.4521,-94.9446,127.0711,-26.6647,9.9115,43.8512,41.4908,92.7186,75.0766,75.8176,7.5835,-48.7171,-104.1319,-35.7600,13.6081,-21.5387,58.3045,40.8787,135.7804
30.3638,-89.7705,21.8408,17.2065,-40.1869,33.9372,-4.7189,81.9582,22.2512,64.2190,9.3905,-46.3325,-114.2812,-64.0522,-4.9069,-81.1951,0.1083,51.7167,37.9100
-21.7803,-25.9329,-67.3788,52.0545,-86.6437,26.5017,-13.3367,66.4032,-4.4960,58.0318,-46.7401,2.1911,-170.0847,-32.1377,-71.9543,-79.7876,-17.0111,70.0865,36.5418
-58.3247,41.9453,-44.4694,114.1148,-21.0169,102.6884,48.1091,125.3278,4.2720,99.3398,-28.2936,52.0865,-188.5234,13.7667,-130.2321,-39.9789,12.4323,121.3757,122.0285
-62.7613,50.2313,48.3395,129.9490,96.7270,151.4094,101.7784,184.9996,22.1819,145.8960,59.3150,26.8880,-147.7647,-37.1077,-117.0947,-5.0872,44.4768,131.4187,143.6368
-21.6458,-8.6988,110.7489,58.5410,142.0652,76.8042,96.1410,149.5752,31.7184,121.6387,79.0807,-16.5761,-92.5120,-76.5651,-67.0137,6.7759,65.3318,65.3820,78.3023
30.9753,-32.3265,136.2561,12.3473,115.9945,-6.6705,55.7077,55.4015,14.2541,29.4941,43.1812,14.1252,-34.3572,12.0659,-37.4777,-16.1435,71.9474,-6.2461,12.7725
18.0608,43.0352,138.6032,30.5391,78.3515,-24.2086,12.6407,-20.6020,-21.2206,-42.7488,68.6140,55.7427,37.1016,68.7017,-14.0011,-51.1789,33.5621,-44.7993,-29.0859
-31.8220,96.0991,89.7353,20.2999,55.9779,-43.2537,0.8912,-52.9540,-22.4737,-44.3183,158.9863,29.0206,104.7213,-2.1846,25.9422,-52.9863,-38.6270,-80.0830,-47.1781
-33.9152,27.6083,-11.2302,-34.7919,29.3807,-72.1350,28.9274,-41.8420,25.8113,-8.2293,185.3422,-14.4695,125.9066,-46.4302,52.9787,-25.5282,-98.4633,-119.2237,-24.5534
-23.5666,-62.2494,-122.2986,-85.9349,-51.1197,-85.0842,39.1045,-22.5151,70.6402,19.9670,63.3371,-41.1459,72.0721,-42.6477,47.6890,-14.0554,-141.0988,-142.7263,-5.2142
-42.3227,-84.3235,-175.7250,-121.8969,-149.7383,-105.8860,15.5540,-33.7856,81.6381,24.9326,-77.8221,-77.8810,-9.9646,-98.7889,37.2954,-33.1366,-148.3137,-123.1437,-23.0155
-26.8577,-71.1208,-101.6639,-93.5684,-139.8647,-71.7667,35.5859,-15.4758,86.4970,30.8432,-53.1913,-79.0555,-33.6995,-117.3436,45.7891,-53.5795,-71.7334,-15.8778,-9.1265
7.5724,-12.2698,61.6247,39.6117,-21.4277,99.3517,105.6058,111.4150,95.2941,89.3980,66.2214,-7.3659,-5.0131,-6.2859,62.0426,-39.1710,36.7645,154.3287,59.7109
-27.2239,91.3216,155.8654,161.5741,65.7309,283.1459,128.9747,262.5552,80.0928,183.7270,99.9023,46.8098,-1.8124,71.8200,57.0537,17.2060,62.5472,250.3303,87.0330
-74.2138,107.1804,104.1429,145.9240,79.0383,304.7860,87.3031,285.3010,38.3741,208.8587,80.3804,16.9884,-28.2199,20.2646,14.6095,71.2596,13.6416,194.9185,47.5293
-45.7290,10.2839,10.8378,64.7965,82.2979,208.2330,53.1990,195.6906,5.2910,141.6787,88.5880,-26.6276,-33.2668,-32.6409,-38.3065,72.2975,-12.4142,94.4011,37.2957
-0.8574,-11.1692,7.7490,61.7365,101.0589,147.0404,63.6132,134.4098,10.4378,88.5399,82.3144,1.7705,-9.9267,13.6296,-45.3781,51.3793,35.6861,90.3086,97.6001
28.8650,96.7029,110.1562,156.4231,150.6815,175.7734,132.1854,154.2190,64.8492,99.8929,100.7619,106.4559,40.6332,155.3445,10.1784,85.9790,162.2923,179.4804,180.8476
89.5942,156.1005,230.6183,268.1020,237.7773,239.3192,256.2342,198.8935,156.7130,126.7537,193.3469,207.3759,123.7079,302.3420,85.1138,157.0791,298.3886,245.6115,242.7740
121.1014,107.9324,277.8706,306.6233,284.8643,249.4587,351.4274,219.2480,240.2900,154.0595,220.5917,196.8155,182.2718,276.8867,144.6887,167.5269,313.5795,219.0987,254.8868
67.1033,81.8036,256.1978,245.2638,246.7699,191.0693,348.5075,208.1311,272.0479,184.7401,160.9706,93.2836,156.7679,87.3928,189.5676,118.2772,225.6564,156.9375,220.9701
33.4369,113.3444,244.0671,168.9585,209.9243,151.1170,301.3829,178.0377,246.8686,173.8269,203.4426,44.2981,90.8723,-2.1567,194.5124,99.9102,208.3134,151.2990,191.5115
74.8556,115.7253,272.5089,179.7452,237.0139,186.9756,272.9267,165.5148,183.9747,127.6207,293.1825,88.2119,64.6768,80.9033,124.4718,123.6327,292.4903,216.8159,192.6882
101.1226,83.8259,312.2770,262.7643,292.8405,279.5031,271.8886,221.6937,135.7924,138.4417,232.3824,126.3685,95.6387,157.3776,45.3779,154.0057,353.1224,319.0934,223.4919
87.0337,97.4228,349.3515,336.2655,353.5494,409.0903,329.6249,352.2883,178.4781,240.5860,146.6167,143.1795,164.8890,212.8599,79.8400,223.8332,357.8497,415.1296,301.5219
66.7369,167.1684,361.6677,361.0356,392.9760,506.8609,428.8282,472.2931,298.1048,356.1176,178.5833,176.0314,255.4961,304.9599,217.6393,320.7176,321.2864,419.1097,377.0545
11.3844,216.7915,287.4706,323.0783,334.3039,450.9007,437.6135,465.6689,362.8604,390.9828,155.8943,166.2089,337.5019,295.8159,320.5131,331.4664,192.9462,281.5122,330.2766
-64.2094,202.2938,117.6125,216.3037,162.5926,259.0553,295.0053,317.3473,295.5615,313.9177,31.8826,95.8858,359.0331,165.3385,308.5271,247.1171,14.1796,102.2275,169.8731
-88.0237,154.4234,-59.6863,89.1856,-34.4158,81.9716,98.1439,136.4380,155.1581,177.0541,-20.5672,64.7653,272.0202,118.2379,197.5241,179.2911,-90.6912,-8.0603,25.1586
-78.7543,93.3895,-163.8565,3.9385,-181.9525,-31.2750,-61.9216,8.6838,17.9360,58.3927,-23.5565,79.1071,105.4964,144.1537,31.3889,131.3306,-134.3235,-85.7172,-74.4006
-77.5981,5.1473,-191.3550,-49.0530,-245.7424,-125.1181,-143.8282,-89.0287,-71.7324,-31.9324,-45.2088,43.2975,-8.8077,62.9478,-99.4026,36.3896,-182.3746,-171.1544,-162.3866
-58.3998,-75.8630,-175.4464,-110.9054,-203.1917,-189.6010,-115.7361,-178.7894,-86.6135,-115.5915,11.8492,-26.3241,4.2296,-64.9516,-123.0184,-57.7877,-189.5281,-202.9409,-195.4801
-47.7936,-84.3167,-154.1286,-165.9479,-105.9717,-210.0495,-59.1891,-214.5571,-86.4549,-160.3145,80.0217,-50.9247,32.4165,-106.2002,-124.5777,-87.9417,-147.7014,-172.5420,-172.2020
-89.6429,-28.6845,-149.1686,-154.0963,-65.4595,-198.9515,-109.0351,-179.1003,-155.3085,-141.0096,-1.6467,-36.0749,-33.3174,-101.9713,-203.0788,-79.7481,-124.1176,-139.8828,-168.4031
-96.6009,29.3895,-130.5133,-48.3392,-101.6440,-125.6831,-202.0073,-113.2084,-214.4082,-91.8636,-82.0494,6.4230,-99.4481,-47.9705,-246.9476,-33.0948,-81.1169,-80.5245,-146.7906
-3.0972,49.2525,-61.5528,90.3007,-119.1818,5.6768,-165.2877,-29.1617,-128.8694,-23.8951,4.1688,79.1566,-58.6935,99.1048,-123.8636,63.8990,24.5200,35.7293,-19.4767
84.6684,16.6408,21.9606,156.2431,-54.3386,99.6976,-12.6514,75.5575,41.4590,72.5840,86.6991,113.9342,11.6262,199.7264,58.6341,136.3164,89.3716,122.6900,133.4486
83.8810,-19.2023,65.9197,134.3344,54.0918,115.5372,120.3917,148.1521,146.4503,142.7076,50.2655,85.8824,33.7245,167.3119,147.3980,138.6762,71.2974,126.5575,183.3292
43.5727,34.0268,77.1511,103.4020,129.6710,94.6747,181.4409,135.8369,165.8126,129.7771,24.1702,80.0724,65.3492,137.5608,173.8039,117.6558,60.0903,96.8246,142.5253
-7.0782,133.5100,54.2502,61.6407,128.0215,33.7265,166.8090,56.5406,142.6855,65.0770,20.7098,86.4154,118.3307,122.3163,197.4518,77.0825,29.0504,33.3435,64.3155
-70.3304,117.2023,-43.8576,-62.5665,60.5839,-77.8251,94.6587,-45.0091,94.9144,-1.6726,-54.3820,-0.6193,124.8963,-16.4247,182.7392,-4.8529,-100.5096,-89.7527,-31.7957
-88.1963,-11.8394,-170.6860,-196.5423,-25.9307,-181.1157,39.8916,-138.1969,61.4205,-64.1063,-117.0015,-118.5311,107.6885,-182.0101,124.6666,-81.3855,-204.9476,-193.7660,-97.3249
-35.5592,-73.8521,-199.2956,-189.6797,-100.0061,-234.9651,15.6141,-189.1425,50.0099,-113.7500,-70.0019,-108.3183,99.4820,-166.8185,61.3888,-135.0437,-144.9571,-207.1544,-109.4379
4.5458,-4.9221,-119.5720,-80.4887,-155.2869,-245.8972,-50.6934,-174.6165,2.5283,-125.8792,-22.1810,-2.2822,19.8072,-36.2070,-17.8094,-197.7464,-20.0057,-169.5280,-106.8493
-21.5125,90.1528,-42.5713,-13.7440,-172.6630,-204.5723,-130.9025,-113.1919,-69.8560,-94.8968,-60.8990,60.7014,-118.4648,32.5151,-106.4401,-222.8524,33.3995,-113.7043,-85.4456
-44.8189,110.4015,-3.4515,9.9782,-126.9834,-126.8424,-123.0834,-50.0366,-84.5098,-47.3000,-81.8858,64.2956,-142.3532,39.1058,-135.7313,-167.2398,41.8859,-41.1979,-27.0993
3.6427,33.5929,43.2467,48.7199,-40.3105,-82.2232,-62.4283,-23.1110,-53.6345,-28.4862,-11.1065,52.6699,-28.5496,40.8246,-92.4954,-116.0088,53.8836,-11.1645,-2.7886
67.0230,-61.7414,77.3388,55.8558,21.4358,-102.5914,-59.9383,-41.4458,-55.3820,-51.8993,57.4416,26.7296,59.3655,24.8310,-40.3708,-120.0560,39.3964,-60.2810,-59.0708
51.3560,-67.9931,47.8525,-9.1301,22.0226,-151.1665,-102.9001,-75.7136,-77.5520,-65.1485,46.4571,-4.4800,79.3641,-7.7381,-8.1207,-87.8875,-18.7235,-114.2941,-105.9328
-6.8427,-35.8381,-7.9186,-81.7330,-1.4503,-174.3995,-93.2879,-75.7907,-48.4023,-19.8082,8.4340,-19.4799,105.1811,-21.7758,15.3944,31.8439,-72.1468,-102.9269,-50.9463
-2.2997,-82.2679,-16.9181,-90.7788,9.9647,-137.9844,2.4213,-13.2193,44.6438,63.1037,-4.5032,-17.9277,113.5380,-0.6034,22.9694,150.4016,-52.2288,-49.3107,81.0493
42.2068,-120.7646,20.5641,-34.9826,52.1026,-71.3165,120.5929,84.9760,148.9462,141.2203,-9.5545,4.4116,66.5857,40.2357,18.4334,172.6115,46.7739,-1.8421,209.3319
32.9637,-28.9449,55.8929,37.1584,69.3793,-39.7636,175.0690,157.6961,206.2062,196.5231,-10.5822,40.4697,21.9932,59.9784,32.6356,112.9498,135.2839,26.7638,272.4025
-2.8434,64.0522,68.7811,78.1267,55.5406,-29.3821,163.2746,180.7040,205.3497,218.7607,9.2142,57.8940,10.7417,52.5629,67.9580,68.5227,133.6873,46.5594,253.6292
1.4195,21.6393,60.0540,78.2938,58.7848,4.1161,160.1189,174.6635,187.8159,205.8503,22.0517,52.4386,8.0009,58.1865,95.9007,89.0290,58.5879,45.5513,186.4919
-2.3370,-56.0094,8.5177,18.6995,70.4811,-7.8950,182.2973,130.8986,184.9626,166.1947,-12.9933,28.4291,13.5794,46.5939,107.1514,107.6023,-51.7922,-23.2757,113.2257
-55.0422,-87.8654,-94.6721,-137.7016,29.5033,-136.2525,171.1874,25.1475,183.9907,103.8425,-79.3965,-37.5019,10.6185,-47.8971,112.5393,69.9293,-182.8313,-158.9887,46.0077
-89.7512,-131.6577,-193.6210,-318.6513,-54.7354,-292.6413,110.1398,-95.9359,163.5555,33.1817,-125.2872,-114.8293,-27.3159,-151.3871,118.3783,24.6336,-292.5153,-275.7739,-22.8336
-82.2831,-161.7697,-238.4938,-381.2826,-129.3630,-370.7996,21.9696,-168.4783,113.3081,-21.5842,-138.7437,-132.8021,-53.4075,-163.0474,120.4411,-2.9484,-343.8885,-323.7700,-98.9592
-92.0191,-107.5367,-258.0802,-332.9552,-206.6485,-384.1725,-84.7599,-199.0450,43.2177,-52.5341,-155.5551,-112.5178,-34.4965,-145.7638,102.7074,-47.4240,-345.8218,-323.8200,-151.9902
-106.7866,-37.1610,-259.3972,-271.2090,-280.8589,-349.8946,-161.6809,-188.8205,-2.6230,-50.8535,-173.3688,-100.8089,-25.2474,-143.7397,62.4000,-84.3803,-291.4325,-260.9992,-124.8540
-66.9634,-27.5382,-189.3583,-190.0975,-266.0182,-260.0431,-160.9778,-119.9604,-13.3868,-20.9471,-141.1260,-59.0904,-51.3028,-71.4103,27.8793,-79.9151,-189.2535,-142.5223,-55.9859
-22.0000,-32.5554,-106.3001,-101.1089,-191.7067,-187.8865,-172.8122,-71.5209,-67.6803,-23.2799,-85.1104,7.8798,-93.1036,33.4430,-0.8703,-76.5340,-146.0280,-84.8414,-93.3967
-58.2641,-8.3257,-148.9605,-90.4851,-225.5415,-187.0515,-300.7086,-106.4834,-201.9006,-68.3833,-94.9581,21.2751,-154.2756,38.1272,-64.4337,-67.8452,-222.3567,-111.1622,-250.5453
-131.7539,23.5819,-255.2138,-93.9168,-344.8143,-161.4841,-423.7130,-101.9504,-297.3362,-45.8222,-138.6433,9.5297,-180.7795,12.8559,-137.4168,11.4628,-294.9437,-67.5109,-328.9245
-147.2899,36.3132,-245.6073,2.5371,-330.5078,-48.9536,-363.1646,10.6150,-259.9123,55.5785,-107.2245,43.3790,-102.4316,62.5622,-153.9630,101.7544,-260.6894,56.1554,-249.7288
-118.6764,10.6926,-174.4490,79.1116,-187.4626,29.4579,-214.9914,54.8450,-197.1714,66.6258,-35.7151,59.7604,-20.5142,69.8492,-162.8025,95.1588,-201.8534,66.9884,-194.5758
-98.2098,-32.0010,-196.9602,36.1270,-140.4407,-4.7210,-197.3270,-39.8760,-226.7238,-37.0822,-26.6523,25.0874,-58.6668,-0.6302,-231.6151,51.3074,-175.1917,-28.6906,-248.3942
-55.2976,-16.7329,-214.3730,56.4476,-194.4669,-23.0788,-268.6290,-65.3634,-261.1567,-63.5134,-34.8918,51.1247,-119.6716,42.7178,-258.5835,70.2628,-78.6551,-5.8639,-246.8233
33.2953,69.4193,-60.7741,225.8822,-152.4830,75.7439,-233.7739,55.0029,-189.1739,22.6672,32.8830,146.6942,-85.4900,195.0661,-155.7104,98.1535,122.6831,140.9167,-118.8049
99.7440,134.4982,167.0469,329.9734,0.9678,188.2947,-106.4604,137.8827,-87.0605,61.9996,137.4410,170.5688,-13.4697,225.9379,-45.4551,75.0169,281.0770,198.9718,-3.3201
104.4691,116.8419,284.1983,270.0629,122.6510,203.2702,-37.0512,118.0875,-55.5835,34.9694,189.3384,111.7029,45.0065,144.3725,-21.2709,70.6995,282.7334,135.0435,32.8635
89.4040,65.3410,270.4185,194.1138,166.2028,162.7825,-23.7555,99.3889,-50.1331,36.8681,165.9442,87.8622,98.0701,137.6149,3.4405,122.2932,187.9364,88.4393,40.6488
65.2192,59.1406,192.3827,160.5355,164.7394,131.2745,27.2491,91.5529,-8.8893,48.5316,95.4532,102.8346,101.3387,167.2899,61.7120,142.5054,112.9654,95.6576,31.0093
21.0213,90.3924,114.8831,99.5421,150.6148,106.6751,118.5424,64.6764,56.4968,35.3094,42.7932,72.6063,73.8671,98.8462,92.5629,81.3147,102.4451,116.7111,43.2978
7.7497,63.1917,89.7152,26.7657,173.4899,103.6684,209.3630,77.9759,130.7513,51.9512,56.8076,-3.0956,108.3780,-9.3996,114.1661,5.9960,118.0916,155.6049,146.8587
39.3742,-36.8334,82.8783,11.5522,223.8031,140.0801,267.2787,137.6685,179.2015,97.4192,78.2430,-54.2560,136.1905,-52.3272,134.0899,-25.1202,100.7667,185.3396,246.1107
37.9348,-72.0378,30.7381,45.3076,211.3593,154.4175,240.3846,155.9602,149.9907,104.5033,29.2071,-44.9623,38.0907,-48.1371,85.6123,-34.3018,56.1707,135.4076,206.1772
-5.5314,8.9512,-22.0058,54.4775,127.0130,89.6635,145.5407,102.0589,90.9976,67.1403,-35.8704,-17.6534,-76.6136,-52.9931,19.1147,-58.3983,39.0650,15.1177,112.0674
-15.2108,55.0002,-19.3172,-12.0752,59.3876,-3.4655,88.9939,16.9561,85.3930,9.9193,-33.4744,-41.4859,-71.1510,-95.5891,35.9179,-106.9264,40.7821,-85.1497,77.2869
-3.3024,-4.5197,-15.1196,-107.3211,33.7076,-49.9934,99.5403,-44.1993,97.6596,-42.6408,-5.8594,-95.1993,-20.9650,-148.0810,62.5270,-159.3638,3.2103,-105.8187,49.9343
-32.8813,-40.0604,-43.7781,-140.7725,12.3844,-43.9044,121.3357,-23.9120,90.9031,-27.9325,-17.2756,-87.9348,3.9352,-118.4257,22.7135,-159.8880,-59.7446,-66.0444,31.7710
-69.6324,2.5749,-52.6969,-122.8580,-0.4252,-8.7952,155.5752,55.8274,125.2201,50.0423,-32.8348,-29.0952,52.5242,-7.5178,10.9672,-98.8644,-84.2638,-23.9412,100.7130
-54.9240,25.7772,-26.3009,-114.7819,20.7439,40.5243,203.9403,90.8651,178.7569,76.2168,-10.5059,-16.3650,98.3534,37.9459,60.9826,-70.7677,-55.1058,2.6754,173.9527
-4.8660,0.1769,11.8510,-82.7866,72.1016,88.1155,199.0492,60.5425,149.0741,21.1990,27.4472,-53.6271,67.0360,-31.5765,74.1566,-107.1887,18.6538,47.4827,149.9154
52.9333,-17.1788,75.9359,10.5266,123.1608,119.0991,138.6395,30.7910,76.0525,-20.4690,59.1458,-63.3131,0.1843,-91.4065,42.7543,-86.9708,129.8233,91.7600,115.3925
104.0108,-10.9211,159.5595,85.1946,132.6666,109.3308,91.6737,-6.0896,55.8672,-38.2473,80.4848,-33.8182,-34.1051,-77.7411,26.2963,11.4827,223.4680,53.3370,119.2719
120.2351,9.6771,211.2349,67.3454,101.1510,29.8877,46.2202,-94.3992,37.7546,-104.1474,73.2278,-6.9208,-46.5951,-48.4181,9.2024,26.7424,236.7491,-62.9701,72.7103
107.1199,20.4027,209.3691,-5.7634,73.4969,-87.8007,-34.1597,-190.9901,-33.2850,-193.1387,34.3898,0.8515,-51.9414,-33.7907,-17.6840,-62.7364,177.7553,-149.5834,-12.6419
96.8291,-35.4320,150.3531,-68.3656,43.6386,-156.8203,-95.7228,-232.4744,-84.3088,-220.3477,-7.7679,-15.9796,-37.5975,-35.7303,-23.5668,-86.2220,80.1398,-163.7648,-53.4627
71.5547,-128.9729,32.5989,-104.7571,-27.6188,-153.4156,-104.8475,-227.2049,-80.4988,-186.3824,-33.4628,-58.9587,-5.5040,-78.4313,-24.6500,-16.2479,-39.3566,-160.0705,-83.5619
7.6621,-142.7188,-78.2771,-148.9639,-104.5805,-142.4965,-118.5438,-224.7881,-87.3384,-162.6130,-44.3630,-105.6476,24.6210,-147.5026,-40.7145,19.2581,-138.6769,-172.2925,-145.5685
-42.6748,-86.3883,-108.3816,-223.0846,-140.8877,-160.9774,-164.4875,-269.1400,-128.9471,-202.0483,-49.6392,-137.3526,22.9063,-194.9220,-50.4977,-6.5883,-175.0955,-187.3662,-197.6719
-21.4229,-85.1176,-90.3030,-264.9463,-161.2456,-172.5265,-194.7215,-346.9524,-159.8032,-286.7269,-55.7414,-151.9440,-10.4727,-207.9377,-46.5531,-50.6133,-160.3198,-188.9339,-222.3696
35.8346,-127.4610,-73.3544,-214.2784,-160.1605,-147.5699,-165.5424,-374.0768,-145.1730,-331.9361,-54.0672,-138.0402,-19.4470,-187.2088,-31.2012,-100.6129,-118.4954,-163.2519,-218.0708
48.7291,-100.5414,-29.2401,-134.9944,-97.4165,-105.1496,-90.9855,-311.0216,-101.6576,-289.3336,-36.2269,-89.4028,7.8616,-128.4723,-24.7725,-109.5723,-59.1159,-114.4995,-161.4650
16.7282,-36.0758,36.4425,-102.2237,-25.5827,-74.5620,-31.5447,-232.4117,-81.0287,-224.6751,-19.5418,-33.0717,4.3559,-60.6172,-79.9599,-65.5952,-7.5869,-79.2606,-92.2073
22.0445,-51.5221,50.0559,-93.2486,-15.7375,-70.0425,-21.2966,-215.4725,-89.6689,-220.0986,-14.3962,-9.0018,-32.8276,-25.8674,-154.5869,-61.4735,19.8133,-88.2979,-68.2111
76.4167,-118.3735,4.6661,-101.4103,-37.2120,-88.3353,-31.2966,-245.9947,-76.8857,-253.3446,1.4239,-34.9513,-34.1121,-42.9227,-128.1514,-105.9342,27.4353,-125.1137,-64.4375
76.6325,-122.0753,-40.1475,-147.4409,-57.4566,-97.1715,-42.8012,-255.7130,-48.5226,-242.0806,26.4091,-91.3746,-5.5633,-111.5807,-37.6032,-98.3449,-3.7235,-130.8993,-52.3127
-0.9760,-75.5513,-69.9196,-169.0881,-83.5283,-60.2537,-53.2303,-198.1220,-45.7523,-163.7252,26.2770,-132.0835,9.4160,-184.7823,-11.5004,-47.6611,-69.9828,-68.0786,-42.8310
-36.3422,-77.7044,-96.6201,-125.3800,-79.0429,-0.2989,-19.7386,-109.3583,-31.5174,-83.3640,13.0023,-124.3177,31.3743,-177.1122,-21.6449,-21.8483,-100.5138,9.3935,-28.4557
6.3384,-121.7553,-106.3275,-95.0432,-41.7941,15.2440,41.5871,-74.5437,8.3931,-65.8100,16.2584,-78.2874,50.4380,-82.7545,-10.0597,6.1504,-74.8593,15.6383,-24.6059
18.5147,-114.4819,-95.3904,-116.0006,-47.2294,-22.7765,24.9747,-97.4504,-5.7247,-90.3861,-7.2942,-31.4066,2.4576,0.2125,-37.0240,33.9238,-66.9299,-35.3024,-57.7513
-30.0593,-49.7714,-79.9840,-131.5370,-80.2307,-46.2474,-47.1903,-96.8693,-61.0580,-90.8130,-82.7133,-12.8862,-80.2762,14.3283,-93.2413,7.5888,-95.7424,-60.7612,-69.7259
-59.0266,-19.6127,-71.6553,-130.8138,-56.5757,-22.3396,-34.6163,-48.1506,-50.5424,-50.1196,-120.5866,-23.8479,-98.9029,-6.0834,-94.7772,-12.3282,-100.2562,-40.9101,-24.6056
-48.0949,-64.1930,-86.4642,-132.7934,-24.2359,-5.4653,28.0516,-7.0217,-2.0392,-4.9365,-71.1067,-49.1327,-60.3785,-40.7701,-77.7799,28.8688,-77.3698,-20.1542,-11.7235
-33.6609,-114.8082,-121.0423,-112.2963,-69.6025,-46.2739,-9.0769,-18.2844,-17.0229,3.2012,-22.4440,-77.2717,-40.1008,-103.2948,-88.2118,27.2187,-73.2146,-36.2908,-75.6820
-23.9025,-90.7858,-124.7029,-73.3035,-132.0043,-120.2121,-115.7742,-84.8867,-73.2351,-45.1127,-32.0198,-88.4318,-45.6852,-156.9522,-71.1183,-58.0452,-77.1169,-88.2044,-146.1145
-27.4958,-1.3269,-73.4594,-50.6257,-134.7173,-171.1841,-170.4385,-163.9150,-114.8624,-115.9724,-52.1069,-56.5531,-43.1767,-141.2997,-45.5925,-106.2068,-57.0302,-123.0038,-186.8466
-49.6140,65.5093,-25.2877,-31.9484,-117.3962,-177.0826,-174.6293,-186.6967,-145.1719,-139.4961,-56.0897,-1.5140,-30.4732,-77.5873,-82.1816,-76.2032,-33.9267,-104.3340,-199.4164
-59.8413,55.2680,-35.1331,-14.1800,-119.2983,-157.5314,-159.9882,-148.1445,-136.9195,-100.3194,-61.7838,20.0605,-18.8707,-39.3212,-116.0347,-31.4888,-41.4750,-86.0349,-162.3187
-54.6519,16.4609,-81.3815,-34.6733,-117.6482,-136.9893,-103.3256,-105.1322,-64.3628,-45.5092,-74.2676,2.9368,-7.5502,-38.0815,-68.1050,24.2957,-69.6773,-101.1400,-104.6205
-66.6321,13.7868,-117.3632,-75.9132,-106.8709,-116.1348,-28.4587,-75.1072,9.3016,-5.9118,-99.6402,-10.1554,-2.3430,-37.0677,2.3665,80.9309,-90.7738,-91.5116,-94.4565
-83.9996,23.3850,-134.6121,-88.3137,-116.0748,-97.6855,-13.9496,-58.5423,13.9142,1.3595,-130.2058,-12.0273,-24.8494,-35.7252,19.8025,70.8438,-110.5549,-69.1833,-144.6046
-76.6822,-6.4821,-152.8055,-91.6303,-160.0174,-112.7242,-90.3366,-88.4282,-49.4114,-39.4400,-136.3851,-20.7787,-83.3198,-47.0692,-18.3100,18.9953,-154.0390,-118.9026,-224.2300
-66.7119,-51.3901,-182.1268,-125.0874,-208.6102,-167.3865,-195.9934,-136.8535,-123.4566,-76.9934,-136.3579,-31.6077,-146.1617,-55.0162,-69.5586,19.8335,-205.8919,-191.3243,-271.8542
-79.7041,-63.1523,-211.7261,-170.1345,-224.0064,-205.6342,-235.1015,-123.7359,-134.4022,-44.0897,-162.3556,-44.5942,-169.5757,-60.6922,-76.5121,61.0068,-226.5850,-185.7990,-234.3962
-94.1353,-56.1812,-226.6228,-184.5446,-235.7256,-186.6995,-212.3790,-73.3403,-96.4167,7.9415,-175.7078,-65.2675,-139.8979,-76.7820,-56.6346,65.4025,-215.7889,-147.4108,-182.1761
-87.7042,-42.3509,-215.2028,-139.1364,-273.4381,-133.5452,-221.5707,-61.7115,-106.3290,-2.2444,-154.5418,-63.2131,-74.1747,-67.6251,-76.2329,30.5989,-180.5168,-115.5367,-200.2850
-75.4590,19.9626,-165.9949,-40.7903,-250.7433,-69.1536,-240.2433,-56.3110,-150.1697,-28.4307,-148.8070,-21.8011,-15.9640,-21.6055,-91.0928,0.2951,-105.1764,-29.3753,-204.7100
-79.1089,101.4431,-94.4719,43.3517,-118.5457,-3.0815,-173.8768,-16.3233,-139.1897,-13.5309,-150.5630,8.8851,-16.8295,-15.7226,-55.8521,-14.7508,-33.1293,59.9476,-140.4650
-84.4572,81.5128,-49.9916,54.3919,-16.7982,26.2655,-104.0872,-7.8589,-131.7498,-19.2533,-98.6873,-4.8855,-65.0579,-69.4953,-81.0230,-31.4766,-43.2021,39.0395,-133.6131
-66.3670,-23.1064,-50.1843,18.5938,-37.0891,6.1772,-136.8596,-53.0676,-192.4777,-75.5781,-34.7582,-19.0760,-91.8125,-79.8378,-186.1659,-57.3979,-99.6908,-22.7987,-196.8970
-52.7785,-36.8233,-63.5287,-13.8220,-71.5140,-10.6874,-145.3069,-69.4796,-190.3051,-95.8438,-46.3123,0.6799,-91.4149,-19.1102,-196.0367,-72.6737,-109.9267,-26.2079,-170.0771
-80.6273,54.3368,-82.2394,-41.1808,-68.5405,-1.2653,-39.7429,-39.9156,-63.0523,-47.2811,-102.4970,15.3285,-114.5542,3.8972,-90.0852,-55.5267,-95.9484,-29.5879,-57.7355
-106.0766,72.3936,-110.8559,-69.5526,-96.2144,3.4152,25.0341,-16.4521,26.9155,5.7766,-111.8269,-14.6454,-137.5484,-50.6067,-34.8508,-21.2176,-106.4658,-39.9857,11.0789
-79.7659,-4.0209,-92.2293,-72.5577,-108.7287,12.1482,0.8050,23.4753,19.8008,49.4782,-61.7113,-57.6707,-105.4454,-98.4745,-51.7034,-5.5533,-79.7592,34.9272,61.3598
-33.4484,-38.6910,18.2990,-24.3880,-18.3949,53.3247,48.4696,110.0090,40.6632,104.4777,-2.2989,-54.1972,-57.9952,-83.5621,-59.7052,-26.0066,26.9269,141.3827,142.8529
16.3991,-40.5683,145.4020,57.7300,96.3793,98.4001,161.3690,170.6534,98.6694,121.8798,33.8416,-3.6440,-45.9679,-19.3997,-62.9380,-72.4478,133.5018,156.2641,177.5377
87.5183,-78.2015,186.0502,117.4808,133.2395,122.5192,173.9673,155.4892,98.0395,73.8129,44.8205,36.2259,-27.6063,60.7514,-42.3510,-107.5830,165.3822,120.5948,141.3817
120.7986,-68.6456,139.5017,127.5945,114.6312,149.3190,102.9841,128.1657,63.0475,34.6428,29.3650,40.5187,23.2675,112.6364,35.5306,-101.1245,137.0475,114.3983,108.7544
70.4229,27.4812,68.3873,135.6464,78.9786,179.5872,75.5730,136.1603,61.3145,50.4031,-13.3275,45.4440,54.7156,120.1145,87.1953,-80.5016,96.9878,117.1071,101.6764
20.8596,89.2189,20.6818,177.2974,47.9902,194.0144,88.9126,149.8445,70.0011,73.4500,-49.6902,61.5350,53.4698,107.9304,71.0984,-86.6556,82.6904,128.8111,105.7644
20.4916,78.6919,18.1402,194.0613,59.8361,208.1519,93.3769,153.1076,62.3359,76.5272,-33.9807,44.9514,66.9293,70.5155,70.0983,-98.0238,90.6293,175.1965,119.9311
9.8092,63.7825,49.1174,134.7330,91.4954,223.6015,97.2454,150.1868,51.2805,73.4714,21.5354,-7.8178,92.4726,1.5834,75.7435,-78.7999,87.5941,203.6030,115.5683
-0.1610,36.1837,81.2051,62.1669,91.8114,205.7389,89.6478,121.7498,26.4544,47.0023,61.1279,-31.5568,81.2199,-24.1728,15.4678,-48.0135,84.1172,172.4326,80.0000
35.1678,-1.5745,96.1615,54.4378,85.5095,162.6342,40.2626,79.3271,-23.9032,0.4075,51.8580,4.9722,32.8764,41.8631,-53.0078,-26.2564,104.8961,128.5161,51.0262
50.6830,13.8369,82.9559,87.0510,83.4480,143.2495,-27.1700,79.6571,-66.4511,0.6776,-6.2543,53.2469,-11.3880,122.5695,-65.0333,12.2169,105.7040,106.4850,50.2490
23.4570,29.4339,45.7032,98.8639,40.6958,160.1855,-54.0830,127.9770,-56.3025,62.7024,-71.0047,64.4800,-34.8814,150.0227,-61.2333,75.4268,64.6738,99.5537,80.3544
38.0798,-26.2012,34.1805,85.1130,-1.2201,187.4634,-2.3078,165.9364,16.2986,110.8308,-71.0189,45.0775,-35.8628,144.7820,-34.7938,109.8868,56.5715,115.9418,138.9456
66.8780,-41.9438,68.1544,65.9136,39.4404,195.1078,112.4557,163.4703,111.1000,109.5671,-9.8506,22.4054,8.7631,112.2057,58.4226,76.3086,94.5441,151.6283,174.1193
14.6589,44.5312,67.7880,44.9486,114.3217,170.4742,214.0781,134.7649,164.3288,95.3862,28.8217,6.0838,102.5992,43.8020,158.1815,25.2463,75.5219,173.4251,140.2096
-49.9022,81.0803,-12.9480,27.2598,138.7947,133.7230,234.1786,87.4237,149.1479,73.6020,26.1024,-9.1499,176.9726,-15.3405,187.4371,21.9574,-18.0674,157.6620,71.0070
-31.3274,9.5930,-82.0766,8.1038,130.1854,88.0055,181.3458,15.8974,91.6499,12.1053,31.8826,-26.0251,157.0144,-41.3415,149.5953,24.3643,-76.1188,83.3308,7.0896
6.9495,-33.9730,-64.3713,-41.3770,112.2556,-7.4928,102.4634,-75.7744,27.8374,-80.1675,47.7566,-36.3957,69.4720,-61.7622,63.6509,-42.0544,-55.5647,-51.3761,-42.6897
11.4397,-16.7075,-15.6621,-110.0968,59.0906,-128.1174,14.1872,-158.4377,-27.7460,-153.4407,54.5733,-32.7844,2.6942,-66.1884,-33.6182,-119.6274,-21.4165,-173.8938,-66.1373
25.2081,-27.3624,5.8405,-125.0701,-19.9021,-168.0042,-90.0693,-187.8953,-83.4146,-171.5074,63.0247,-23.7775,-19.2588,-38.3801,-80.1321,-98.2983,-17.7759,-202.3683,-88.0435
37.2395,-52.3972,13.5432,-62.4649,-82.8203,-113.7814,-188.9896,-151.7354,-139.8535,-131.5607,54.9047,-18.5865,-31.4750,-19.2906,-79.8816,-6.5652,-36.8088,-148.2717,-132.9989
3.6765,-23.9551,4.1636,2.5609,-105.4945,-52.1270,-217.4081,-75.3560,-151.7055,-52.7032,3.2966,-8.7654,-34.4919,-13.7868,-70.3955,49.0843,-58.8235,-66.0377,-117.0968
-41.4975,36.7987,-40.7720,10.4729,-73.7239,2.1826,-130.6917,19.9333,-77.5395,32.4208,-62.2844,4.9606,-7.2024,18.0707,-33.1844,36.9027,-60.9122,16.7281,12.4942
-60.4237,71.2167,-85.2244,-17.4639,-14.0040,63.6150,13.5625,87.6531,29.4056,70.7608,-106.4989,-2.0660,20.9187,33.4391,21.8682,-25.6085,-44.4153,56.3623,112.4473
-59.2058,51.2214,-93.9104,-46.4596,-0.7452,54.1053,92.8434,43.4928,69.3826,18.1982,-110.3244,-28.7794,5.6255,-24.3807,20.5791,-96.9235,-37.1728,6.7848,57.4553
-23.7943,-14.4437,-82.4635,-56.9641,-45.2208,-51.2616,50.0074,-97.1526,20.5071,-86.2021,-43.3662,-31.8788,-30.5293,-75.9324,-40.4357,-84.7132,-27.8759,-84.6703,-57.0156
42.9652,-63.9637,-50.9287,-28.5475,-72.5722,-126.0079,-66.5932,-191.4813,-68.8678,-150.4576,59.5823,4.4733,-38.9491,-33.6095,-91.9780,22.5228,18.3281,-125.8544,-117.6041
75.3500,-37.5461,6.3052,17.7292,-61.3194,-110.6125,-182.0616,-189.7546,-158.9310,-164.6814,87.7716,39.3396,-37.1286,33.5399,-112.5721,77.5877,63.4093,-121.8255,-162.4081
42.7531,39.2140,27.9416,24.6592,-66.6790,-99.9003,-244.6836,-184.3182,-210.3273,-180.2872,24.2623,41.7692,-60.8163,32.6956,-105.2817,7.0603,46.1373,-128.7132,-216.3947
3.7263,93.7138,-15.5384,-1.7064,-80.4431,-121.0720,-213.5109,-186.4137,-172.7835,-171.2963,-14.0189,29.8340,-62.4329,1.5173,-50.3355,-51.6162,14.7654,-118.5284,-195.9911
10.5854,90.3774,-26.0375,0.7911,-34.3149,-91.3395,-94.4147,-123.8398,-62.3459,-95.4432,41.2102,28.8368,11.9119,10.9981,24.7212,6.2847,45.9202,-57.6230,-80.8578
35.3432,47.4156,45.0202,26.1886,36.8475,-23.4914,11.5634,-43.5194,18.8908,-21.9930,117.8587,36.3905,88.2002,44.6165,45.9621,91.6011,78.5978,-22.2125,9.7773
21.0987,10.1881,79.2276,4.8197,21.2614,-12.7672,13.8539,-37.3742,12.1389,-17.4372,120.4905,35.7561,61.4588,51.7483,-0.7471,102.9380,20.4106,-56.0916,5.5973
-22.7497,-2.7923,16.4064,-64.7902,-59.4581,-43.7950,-29.2131,-58.4226,-21.1724,-31.4224,65.7540,18.7020,-27.4738,30.9128,-54.6687,55.9972,-63.0255,-64.2283,-8.2460
-29.3090,-17.8961,-29.8134,-96.4973,-71.7713,-30.3424,-18.3739,-30.5682,-16.3267,-18.6581,51.6295,-5.9591,-60.9538,8.1405,-61.4981,-8.9944,-63.8722,-0.6387,32.8679
8.8701,-32.7470,-1.9832,-34.3183,1.7150,20.5522,22.6538,13.6313,3.5916,-3.6892,102.6006,-16.9173,-16.6710,-10.0600,-18.2550,-67.6740,-16.1118,47.1372,63.7822
25.8162,-0.5814,28.3637,73.6408,72.2415,46.3587,50.7988,26.9395,18.0147,7.8088,153.1860,2.2850,46.2977,-21.4438,44.7976,-69.7669,5.2781,38.7637,43.3267
5.0517,66.0536,46.7404,125.0916,107.8678,33.7706,94.5637,11.0337,52.4859,21.5209,193.6987,38.0858,84.0243,-14.8854,101.0971,3.8905,2.5766,6.9776,15.6526
-7.6312,86.7464,75.5335,70.3867,88.8748,-5.9948,119.4323,-24.5329,93.3280,21.8141,258.3937,46.7028,81.3147,-4.8818,142.0841,90.5337,-25.3739,-53.3637,-5.5327
0.0698,36.0655,58.6676,-34.7636,-17.0710,-51.3454,71.3364,-47.6153,112.4594,28.8468,290.8207,10.2989,48.1467,-13.8198,161.7896,138.0720,-78.1923,-109.3973,-9.0471
14.3014,-25.2115,-5.9029,-94.2429,-110.3323,-44.3131,47.9361,-29.5915,134.2059,52.0022,226.0899,-22.3560,12.5763,-11.9179,144.7739,157.5476,-76.9361,-79.1827,49.8925
32.1882,-40.5157,-19.8631,-82.7969,-69.6394,23.5800,99.5556,-16.7548,133.5892,24.1767,127.1748,-8.2255,-21.7360,27.8863,76.5587,144.9227,-0.8743,-14.1702,102.4429
31.1747,-16.0699,18.4733,-58.7598,10.5454,55.8216,63.6687,-48.7315,31.7923,-58.3196,72.4140,12.7106,-61.1098,48.0625,-24.6855,87.0123,34.4810,-24.4513,36.6798
3.6884,3.9867,38.3070,-60.2106,14.7406,4.8246,-87.0708,-69.2855,-104.9815,-84.3744,52.7253,-6.0793,-74.3562,2.0046,-96.8474,39.4042,5.8200,-51.5532,-46.6686
-3.5670,3.7615,72.2364,-47.2734,37.5502,-38.0471,-126.6618,-33.4519,-122.5671,-30.6299,62.5118,-27.7884,-40.7128,-48.4312,-101.3456,39.3225,34.3836,-5.8257,4.1089
15.3477,14.1315,143.0003,5.2404,130.4468,-11.3710,-12.5483,20.7854,-46.4732,12.2931,111.4288,-12.4846,2.5189,-47.3996,-77.5906,17.0378,113.6040,41.2066,97.8780
3.8852,39.3953,154.7578,29.1133,162.1083,25.4429,53.7437,63.5346,-4.9655,32.2983,152.2900,-0.7351,21.7068,-34.8469,-63.7559,-43.6751,104.8052,24.7669,106.5924
-26.4050,26.8031,77.1922,-33.4906,104.0109,36.7223,25.4270,96.8787,5.6295,72.6908,143.9519,-33.7541,23.4166,-43.0836,-31.5438,-24.0315,11.6267,-4.8396,97.1681
-11.3632,-38.4638,-6.4683,-120.4342,66.7518,50.9635,7.0641,99.8099,35.8279,98.0401,102.1084,-79.2440,15.9244,-43.9757,31.3715,99.0184,-47.4684,-27.5834,124.7612
23.7687,-83.6337,-69.2742,-143.2672,48.9111,45.4651,1.7984,54.1864,52.0185,67.2127,32.8927,-85.9775,1.3592,-24.6239,75.3699,174.0251,-58.3818,-64.7440,111.5121
13.5973,-52.3248,-129.6943,-111.8264,-20.2420,-22.3595,-39.8922,-29.2258,18.0373,1.4106,-47.5939,-48.8806,-24.3313,-6.3489,63.6212,132.6260,-73.9701,-105.2284,13.2175
-14.1894,-0.2225,-164.5256,-88.5846,-113.4092,-119.2493,-129.4884,-140.4369,-62.8070,-85.5138,-67.4693,-15.1398,-73.2856,-19.0410,2.6330,70.4101,-90.7104,-160.6938,-118.4295
-2.6295,-17.5130,-161.8854,-94.7725,-160.0130,-196.0788,-238.9160,-241.8080,-156.2350,-166.1939,-5.3578,-32.8660,-109.9357,-82.8455,-74.6919,45.8147,-85.3772,-226.6037,-185.3056
20.7155,-74.7566,-123.4624,-102.0522,-118.9248,-227.4767,-258.3861,-248.6834,-180.8332,-165.2457,63.3406,-69.5929,-74.6300,-145.4221,-114.1394,31.4390,-57.8721,-207.3754,-119.7665
6.4948,-59.4075,-41.4118,-79.7876,-6.6071,-172.9720,-153.2108,-141.3110,-131.0632,-84.3229,100.9103,-54.2886,-15.3417,-120.1381,-106.5870,15.0469,-17.9316,-87.7950,-11.9218
-12.3650,14.3625,31.5677,-45.6464,76.2908,-56.9790,-99.4969,-31.1275,-125.8782,-34.4372,148.5856,-16.1046,-28.0959,-47.2663,-110.5499,-6.3227,19.2924,-13.1247,2.4028
28.4696,18.4663,45.5980,-33.1246,82.4276,7.2978,-167.1751,-17.2439,-178.7087,-63.2317,218.8285,-25.3107,-64.0811,-28.8942,-127.8875,-34.4725,58.6645,-35.1775,-16.1817
106.9769,-44.5209,61.5537,-7.9624,95.9429,0.8566,-180.1130,-55.0673,-173.1441,-101.5133,269.5656,-33.6574,-20.8145,-21.4034,-95.3831,-34.9415,106.2772,-45.9711,22.1423
134.0208,-62.0908,97.5722,57.6932,126.0895,2.0487,-114.7282,-66.5313,-130.6759,-104.8526,274.7682,13.7325,47.9890,37.3960,-43.7077,-6.4970,104.7234,-29.0019,13.3650
81.4952,-38.2427,54.4714,70.8806,80.0107,-13.4447,-128.0046,-78.8381,-151.2241,-103.5380,256.4914,31.2125,46.9290,36.3768,-57.8775,-7.0681,15.7966,-64.1573,-79.1210
7.8900,-31.1118,-47.7322,-26.5501,6.5474,-96.1964,-164.3307,-128.9978,-169.5677,-110.8329,240.5182,-29.4611,21.5931,-79.7447,-98.3558,-27.4886,-66.8729,-115.5765,-100.9895
-32.0541,-9.6819,-64.4661,-107.3480,17.8076,-148.9522,-99.2742,-155.4845,-115.3660,-102.4604,212.9698,-65.0779,32.5917,-150.6055,-85.1477,-5.7688,-55.3824,-101.0421,-45.1575
-21.7632,16.9191,-2.3360,-73.6176,46.8768,-104.3853,-57.2313,-129.3640,-93.2950,-97.1617,172.6107,-33.3431,28.6914,-99.9379,-69.7096,8.4701,-6.1191,-67.2448,-61.3898
33.7665,-21.3879,28.8527,-14.1275,6.7931,-61.3562,-131.4247,-130.3629,-158.7052,-146.1260,174.8423,-10.5719,-26.8467,-45.8096,-122.9681,-76.9910,19.8380,-79.5428,-120.4169
88.2599,-68.8472,34.8655,4.4827,-32.2579,-59.1401,-181.4306,-161.0914,-203.6680,-207.9986,223.1815,-2.3793,-83.6568,-20.6596,-184.5756,-192.6320,45.9598,-84.1881,-94.0561
81.2105,-40.0117,39.7751,23.9250,-26.0166,-11.9840,-134.2637,-104.2073,-161.7170,-163.5966,219.0609,26.4698,-106.0288,31.9840,-167.9389,-199.3799,53.1759,-23.3192,-5.2626
21.9342,-9.1111,-12.6653,26.4700,-19.2508,78.9019,-51.1710,50.3307,-62.5074,-5.7430,131.2661,20.8342,-93.8618,53.8234,-77.2316,-119.6518,-10.1139,68.0035,88.6056
-24.2867,-34.0005,-105.4451,-23.4410,11.3523,148.2318,73.3930,185.5002,70.9451,139.6649,61.0622,-41.3647,-26.0973,6.3782,52.9263,-70.8322,-89.1234,150.0300,197.4335
-26.1633,-34.5737,-138.3634,-47.5675,98.3311,205.7996,227.7246,252.0522,199.6845,201.0322,69.3509,-74.2529,87.5597,-11.3128,199.0138,-59.3109,-99.1470,204.1759,266.7745
-4.4005,0.0590,-100.1683,-6.5794,162.8974,221.5330,299.5198,240.2516,255.4806,189.8146,112.6995,-55.6853,162.9668,5.1041,301.3015,-29.3023,-74.5340,166.6233,208.8716
5.3785,-5.4127,-61.0170,-1.0439,141.6743,98.9839,262.9433,103.3004,229.9088,102.1161,146.7618,-54.1750,157.7642,-57.0471,302.9247,-14.1776,-91.9249,14.2395,66.8092
-15.0061,-33.8868,-55.9452,-74.4981,81.6805,-100.4400,215.8074,-82.8612,189.8384,-13.1875,153.1290,-77.6114,140.7777,-161.9963,249.6653,-56.9140,-147.8286,-130.1890,-26.1813
-40.7760,-55.8794,-80.9398,-151.0889,31.0108,-196.5292,210.9175,-133.1463,199.8913,-29.1662,127.1001,-96.0787,152.8412,-192.8722,232.7047,-87.2942,-197.2352,-162.3312,-11.8485
-34.9304,-119.0743,-121.4667,-203.7877,-25.2180,-181.0291,214.5492,-52.0694,250.4257,54.4258,93.4833,-125.9069,122.9585,-183.3899,238.4528,-47.2685,-215.2724,-155.0450,44.5803
-7.2832,-189.5195,-152.4472,-252.8643,-100.2794,-178.9962,179.4666,-15.1352,263.1661,90.6269,64.9021,-152.2692,18.7407,-183.3716,191.0591,-5.6087,-187.9145,-180.6974,62.5154
11.3207,-159.6834,-147.0053,-250.1224,-147.7139,-186.6494,116.4450,-38.9303,213.3362,54.2108,39.5271,-113.7866,-68.2652,-122.0794,117.6287,-1.9142,-110.4322,-162.7236,63.2582
19.7235,-58.7925,-82.5451,-158.3701,-96.5868,-115.7119,108.4330,8.5707,183.6320,71.4045,59.5013,-31.5030,-71.2336,-8.2062,105.7860,38.8052,-10.4781,-58.3517,106.3193
21.8887,-13.2168,24.6230,-59.5241,37.8867,0.0419,188.0950,126.7510,217.7762,162.0803,136.2744,-1.5267,-26.1390,21.1794,141.5128,116.5264,55.0722,35.1257,163.1053
15.4322,-52.1538,92.2258,-47.8134,142.6428,54.1616,271.3282,186.0742,253.5276,205.4465,179.5892,-48.1991,28.0666,-57.8094,156.5982,111.2462,50.5878,50.4234,175.8857
16.1728,-104.8148,63.9520,-95.0487,153.3783,27.1155,292.3539,133.5419,251.8348,145.4642,141.7057,-103.4689,71.3181,-134.5310,160.3128,8.4086,7.5094,12.6024,139.9591
21.5585,-96.0373,-9.2971,-110.2190,106.0824,-39.1022,256.1079,20.9829,222.9839,44.4245,91.9174,-110.8426,64.1685,-163.7294,180.9621,-68.0104,-21.8893,-60.0962,44.5493
-3.9369,-5.1971,-60.3696,-73.8546,33.7786,-122.2164,160.7549,-88.7327,155.2652,-30.4592,75.3415,-72.2953,12.3589,-170.0654,184.1424,-64.9951,-37.0510,-139.6478,-98.9504
-44.5318,94.3990,-87.8059,-39.3659,-45.8729,-190.4871,46.7814,-156.7915,72.5772,-65.6917,75.7703,-19.7375,-25.1952,-143.3503,145.1861,-35.2086,-46.3595,-167.0139,-178.1022
-32.6499,102.1445,-97.1973,-37.7042,-85.0388,-202.7181,6.8321,-173.2193,46.8781,-79.4736,90.3191,13.8956,-36.6599,-82.0846,91.0290,-12.8069,-17.8515,-155.2304,-126.1049
27.1258,26.4895,-77.0809,-55.0514,-71.4324,-181.4622,27.8074,-159.1389,68.3294,-86.4122,97.2973,15.3032,-40.7781,-32.1902,43.6739,0.1275,39.6680,-169.2582,-41.7077
58.9932,-27.9038,-43.5448,-72.2361,-49.3939,-169.6425,23.7928,-131.6418,70.2038,-75.8951,68.8234,8.3699,-25.7846,-1.4217,19.0736,13.0942,59.9374,-185.3665,-8.7944
51.3024,-11.4850,-15.3591,-62.7769,-26.4895,-130.9922,14.2071,-75.6587,65.6174,-29.4175,59.3515,25.3990,-10.1047,47.1710,40.4260,57.8488,47.2161,-138.5457,16.6184
56.7266,9.5511,15.7679,-13.8981,12.2447,-37.1460,38.5193,9.5980,83.7644,35.7591,111.2845,44.6831,-35.1173,85.8725,78.4454,113.3961,59.0668,-66.5161,54.7917
69.8979,-32.6516,33.6549,14.6648,18.2926,21.2399,30.1184,61.7051,73.4577,64.7167,146.0576,14.4880,-73.0058,43.2641,60.1285,87.0447,58.2774,-50.7343,49.7299
42.0182,-93.5212,-5.6467,-40.9200,-53.4787,-26.7056,-37.0593,27.1356,13.5046,30.4392,111.3168,-45.4340,-93.0565,-48.4591,-16.6887,-24.3614,-16.0903,-80.3518,-0.8159
0.0241,-103.1021,-87.5944,-127.6059,-141.1118,-98.8591,-74.8810,-43.6945,-22.7649,-23.7703,76.3661,-65.7966,-125.4459,-80.8436,-68.5409,-99.7829,-90.6608,-92.7735,-28.5879
15.5159,-104.4459,-131.6657,-155.0450,-147.4432,-106.9735,-45.2721,-73.4108,-0.0922,-50.9850,78.9615,-54.9132,-143.8384,-53.2228,-48.9802,-91.7148,-75.0398,-79.6890,-10.7049
68.8873,-152.1716,-102.3010,-133.9597,-71.4150,-87.6558,-11.1262,-80.9229,16.4774,-70.2015,72.7201,-70.5308,-83.9087,-60.5255,-5.4400,-72.8801,-25.1314,-70.1360,-7.4814
76.0887,-175.2688,-57.3958,-110.4495,-0.7657,-95.4702,-27.0394,-115.8475,-29.0405,-107.1942,54.9952,-94.4148,-8.1902,-112.2862,1.3378,-72.3592,-28.8740,-74.6346,-74.0044
31.9904,-118.4108,-52.4406,-80.6905,-0.6463,-119.6010,-96.1772,-151.4143,-106.6173,-129.6389,71.1322,-81.9184,-8.4495,-139.6305,-24.8670,-58.5545,-70.9303,-98.6898,-170.3919
-0.1133,-54.8670,-62.0910,-56.0401,-52.1014,-134.5896,-174.2152,-136.9923,-145.2307,-101.9311,118.9713,-60.3451,-24.9403,-125.6478,-38.2687,-40.7870,-99.3856,-133.5972,-198.3445
-6.2373,-28.2435,-41.0951,-59.8105,-93.0107,-114.0682,-185.7334,-62.2579,-110.1674,-27.7477,162.9616,-52.0718,16.3671,-80.8932,-17.8352,-25.8988,-92.1822,-115.2273,-125.4940
-11.2060,-2.4079,0.5887,-42.9341,-85.0347,-36.3198,-112.8678,53.8547,-36.1903,72.1839,183.7508,-24.0299,54.1619,-5.9146,11.2337,23.5616,-46.7727,-9.1139,-25.6264
-6.0706,7.1994,32.8552,33.1846,-36.3116,55.2477,-36.6715,143.7405,5.2382,140.1873,167.5886,13.3400,26.9117,42.0212,10.7600,82.8699,10.8745,85.2761,14.1812
20.4957,-18.4032,58.9910,91.3746,19.3425,85.9701,-26.4709,129.5734,-18.2552,107.0485,119.4926,13.1167,-28.7879,14.8688,-28.2997,70.7713,54.3879,72.7255,-4.3438
45.1608,-22.5067,91.7633,70.1707,61.2655,59.1517,-43.8121,52.0026,-58.8574,14.8863,86.9659,0.6461,-63.5907,-12.2765,-72.5617,6.5363,96.0800,25.2353,-3.7144
53.7678,-5.6496,115.2019,35.3940,90.4972,35.7664,-18.5395,24.8601,-50.4584,-16.2738,97.6249,17.4163,-59.4928,21.5712,-79.7156,-14.7668,124.6593,34.0475,48.3775
52.2167,-38.9266,99.0529,35.2223,94.1547,36.8303,26.8179,51.6816,-7.0192,21.8612,101.8318,22.8483,-23.0277,40.5990,-53.2481,12.1365,85.4630,46.1405,87.4156
30.3888,-98.5500,33.7371,7.7450,47.9350,40.0793,14.2004,54.3174,-0.0366,39.2291,51.5463,-18.3171,6.1937,-0.8165,-40.3928,26.6158,-22.6405,-0.9725,60.4944
-21.7919,-117.8970,-67.9437,-76.4138,-36.4093,22.5180,-53.1871,28.2133,-40.2558,24.4333,-12.6124,-62.2942,6.0600,-35.9365,-59.9242,21.9092,-152.3730,-64.8413,-5.2767
-81.1087,-120.9167,-185.7515,-143.1393,-120.4782,-18.2346,-99.6228,20.3024,-68.5113,35.3541,-31.1317,-74.5586,7.5346,-40.1035,-74.3965,17.2705,-276.3764,-90.7093,-67.2301
-108.9392,-122.1308,-267.7839,-131.0554,-172.8248,-35.2100,-95.4960,45.4503,-56.8382,76.6738,-11.9755,-66.4620,24.6213,-39.5704,-60.3135,11.8664,-324.4566,-50.7915,-87.2834
-83.9782,-76.9089,-230.5402,-49.4693,-161.8810,32.8553,-60.2938,98.8877,-29.0565,111.2639,24.2576,-35.0148,20.6188,-7.2911,-46.7358,21.5117,-207.7386,61.9155,-34.3294
-21.5515,-13.2459,-70.6712,60.2537,-91.6310,148.6464,-14.8250,152.3950,-8.6646,119.8956,85.0237,19.8045,-24.5405,61.4050,-50.7209,54.7148,-11.5716,166.5852,33.2580
29.8117,-0.4556,82.4373,130.6653,-33.9377,194.2424,-3.4671,156.3080,-10.5055,102.2909,136.9317,56.1028,-75.4720,98.3376,-45.5967,77.1807,70.1416,161.3411,22.1007
35.9990,-14.6122,122.6450,106.8389,-30.7161,142.9847,-47.0995,117.3506,-28.5473,79.7696,115.8081,45.5170,-78.8490,84.5204,-16.4908,84.0851,23.5977,80.1257,-25.4121
13.1892,-2.2685,77.9326,31.0761,-39.7195,86.6251,-70.8418,91.7130,-13.6892,82.1211,34.1396,12.3459,-18.1188,63.3079,33.6894,114.5627,-19.8829,25.2731,-9.2300
-6.1322,30.3272,13.8609,4.8831,-34.8131,77.4677,-12.4697,94.0630,61.9558,110.3289,-25.3131,-5.5201,74.3338,49.7694,118.0103,156.2646,-21.7837,29.5418,50.1218
-10.3687,68.1745,-23.5203,65.9499,-17.0172,94.4184,85.2465,121.3928,151.1570,153.9956,-11.9903,12.4165,160.5510,52.5506,212.9109,161.5829,0.6151,92.7657,101.2389
2.2064,97.4344,15.6064,169.1287,51.6081,142.4529,183.9501,195.0526,208.5587,211.4510,56.6820,54.3121,216.4629,82.3982,242.9902,137.1852,74.2280,194.9359,161.7421
27.9030,87.4277,109.8960,242.9052,157.4105,222.1900,280.4873,281.4237,241.6358,252.2910,120.4632,76.8753,213.3694,101.1037,202.8132,105.8118,165.7682,255.0980,213.0404
44.0241,57.6545,163.2005,238.6457,196.1906,260.1879,314.9240,295.7237,245.4186,236.0366,127.0293,65.3880,156.2861,87.1676,166.9181,64.0283,184.2289,230.9442,202.0570
29.4090,65.7593,159.1678,182.9245,148.2680,211.6979,249.2870,234.3897,199.5615,183.1527,91.2978,56.8065,107.5986,78.5925,145.7987,37.6124,138.4228,171.7990,149.1868
-0.3646,101.6669,152.0668,143.6159,101.3863,133.9003,163.3354,163.1792,138.3443,138.3996,67.5568,62.7478,96.3382,72.8300,105.8413,50.5128,104.5264,102.1361,95.4391
-10.4628,117.5923,134.2005,117.5224,75.0587,75.4781,120.4199,99.6726,110.8670,95.3552,64.4153,56.0980,83.7402,45.6379,83.3228,54.5591,94.2963,22.7868,50.4607
1.1749,114.1354,95.3041,63.7837,35.6027,34.1108,93.1528,45.4764,105.9686,49.2785,48.7685,47.2872,53.8836,49.4030,101.1619,26.2770,80.2305,-6.6625,48.9409
4.9655,88.0511,72.1810,17.3429,6.4860,30.7168,82.4437,46.8314,106.6435,50.6972,4.0095,56.6836,28.9126,102.3297,107.1269,32.2461,41.6395,34.1431,102.8049
-7.3601,10.6181,38.1850,15.9094,3.4019,74.7231,118.8526,107.7732,133.3315,113.2599,-50.5662,46.5881,20.9144,111.3705,99.1635,81.4692,-36.4713,72.1937,148.6502
-19.3281,-66.6276,-33.5890,17.8336,5.8350,118.0576,169.9312,159.6988,169.0495,163.0569,-60.2786,3.0940,50.8559,58.0499,112.2892,80.5270,-107.4875,90.5984,155.9671
-34.3231,-44.1983,-48.6331,15.2531,36.8044,141.0472,197.4116,177.1442,164.3384,158.9102,6.9928,-9.5599,124.1835,39.8533,110.6433,12.4565,-100.3452,133.4652,157.9491
-63.7049,43.9686,17.6404,40.0129,98.5487,151.5421,207.9074,182.9542,135.8182,144.3450,73.6445,17.7042,176.5863,54.0262,88.9842,-35.6899,-69.4941,146.8478,144.0097
-89.8199,58.2170,14.3620,23.1883,98.7602,98.0604,173.2747,140.4487,112.7102,121.2577,38.3893,0.3635,162.8895,3.4126,93.9396,-42.0161,-122.7528,47.6675,67.4806
-94.4441,-20.4371,-94.2234,-90.7204,-3.8204,-31.0199,51.9435,13.0284,40.3281,33.2458,-47.6288,-68.1527,128.9574,-86.6287,53.2978,-53.6790,-204.8368,-85.0697,-55.8508
-80.5306,-72.8930,-140.4744,-168.4018,-104.6106,-112.9407,-91.2392,-106.7072,-90.1832,-78.8369,-59.2509,-87.6511,105.6856,-100.7343,-88.5427,-60.8933,-182.1111,-101.8053,-138.5060
-43.1873,-52.8696,-64.5156,-106.3941,-108.1377,-72.6423,-142.1259,-110.4264,-150.2387,-103.3728,-19.6400,-37.2381,59.3968,-32.4394,-157.0854,-33.0269,-82.8406,-16.7941,-108.0265
11.5696,-33.6837,10.5030,-33.9092,-54.7303,1.3703,-100.5704,-50.0206,-87.6892,-58.8836,-43.8565,-4.2517,-19.1532,26.9051,-55.8651,-3.9607,-26.6915,32.5212,-9.8070
39.8144,-42.0653,26.8773,-52.6015,-21.9693,35.2031,-48.6713,-28.6595,-26.2676,-49.2624,-103.2449,-13.3756,-85.0101,38.8560,13.5962,-4.6419,-11.7863,23.8706,42.7329
26.2996,-17.5795,49.5423,-51.0407,9.4744,60.3522,1.6238,-24.2068,-21.5451,-59.1225,-67.9310,1.8945,-78.4272,48.0681,-34.6978,-6.2017,30.6352,52.7577,51.5706
15.9314,47.4424,105.1344,34.0459,92.5697,82.2429,75.0483,12.7105,7.3793,-24.7913,33.3649,54.4932,17.7376,86.4258,-18.3571,7.6719,76.0148,100.6596,88.6414
30.0407,73.3931,132.6689,74.6883,164.5261,46.6573,104.2249,20.4981,49.7854,-3.8236,42.0448,72.7423,118.3037,108.1319,81.0252,9.6210,62.4203,42.0630,96.6883
41.1995,24.5875,91.6894,-2.3486,127.7267,-55.8241,27.0612,-58.5234,17.4842,-59.7538,-24.9340,25.5820,130.9007,57.2747,89.5823,-10.2912,13.6920,-93.5648,8.3947
39.5863,-36.6001,40.4357,-91.5750,44.4381,-162.5646,-60.9891,-157.4075,-48.3030,-127.0284,6.0248,-25.6313,97.7807,-28.1393,23.8454,-31.1712,-14.0671,-146.6430,-73.3529
37.7499,-58.0143,44.8564,-108.4333,26.5214,-207.4537,-63.1025,-192.9749,-62.5711,-141.0417,111.6249,-28.7169,77.6461,-61.8589,6.2588,-41.2833,-27.8889,-112.2633,-73.6558
35.9580,-66.7306,63.4399,-106.0885,25.5997,-188.1028,-52.0785,-174.4216,-58.6406,-130.6370,107.2660,-15.5724,30.3265,-38.9461,-3.4706,-44.7314,-48.5052,-105.0544,-63.5460
33.5044,-86.5142,50.1890,-128.3683,-18.4955,-152.9950,-81.3794,-137.7690,-69.7962,-114.0666,31.0896,-24.8101,-16.2969,-17.4918,-55.5817,-45.2228,-43.6888,-109.0727,-50.4393
33.0020,-81.3137,65.1075,-108.6257,-17.5445,-113.5418,-57.7349,-81.0017,-49.4737,-69.3475,53.7211,-23.6749,32.6551,-4.6544,-76.8393,-40.0440,5.9935,-45.2710,10.2290
29.9846,-44.0316,115.0334,-14.5300,55.8731,-44.9324,30.7297,-9.0692,-0.6052,-11.4717,97.7417,12.2030,101.9976,24.8164,-35.4170,-24.5851,43.6528,36.1244,48.5933
26.8212,-34.9058,84.8538,43.9060,82.0229,18.7573,65.3451,36.1471,27.0172,21.2032,11.2994,24.2112,77.8320,41.5218,21.5515,-4.9102,19.1576,53.5650,32.7457
31.2284,-61.9566,-14.5757,-0.9609,50.5994,28.2782,56.5355,32.4912,51.9354,24.6717,-85.0588,-17.2745,71.5997,17.7701,74.5640,10.6849,-13.3484,43.2991,58.8523
46.1356,-50.4595,-10.1791,-25.0067,86.1461,27.0538,113.1298,16.2720,96.1407,13.5261,-38.5631,-27.0567,176.0425,17.7090,111.0474,27.9133,40.2840,71.8377,117.0827
77.8041,10.9246,118.8093,71.3053,188.0035,58.2134,179.9306,16.7511,98.3407,-13.5391,49.9062,46.4460,233.3346,89.4648,94.3256,35.0162,168.7690,112.4279,93.6494
112.1645,38.0680,199.3300,171.7485,229.3134,62.1093,131.7821,-1.6616,20.0023,-64.2051,63.5715,108.6527,151.3231,138.1428,17.4124,-3.1325,249.2539,92.8650,10.2925
106.1174,1.5312,165.5251,154.7488,174.7572,7.2648,23.1517,-57.4128,-68.0249,-113.7832,46.8868,78.0041,75.8252,73.3624,-69.2532,-64.0451,207.1900,22.1738,-39.2527
57.6986,-28.0316,114.8415,86.0266,102.9583,-32.3749,-18.6974,-84.4018,-83.8411,-110.1059,22.1664,17.3044,79.0526,-19.5783,-85.7940,-73.2869,109.9471,-12.9938,-59.2001
17.6589,-1.7925,93.6292,46.4985,67.7972,-29.1036,-7.8389,-54.9701,-45.3292,-62.5995,-43.8186,-0.3895,64.1999,-35.5346,-20.1307,-37.0862,55.0587,-5.2504,-76.1062
5.0609,35.1120,60.1819,-1.8406,44.2490,-51.4047,-22.6944,-55.6764,-27.0247,-55.7451,-100.0973,-1.7546,14.0972,-19.9693,18.2619,-26.3842,42.8747,-44.6293,-77.9089
4.1549,9.4009,13.1650,-71.9090,-3.3027,-112.9647,-52.3702,-116.2481,-41.2097,-98.8484,-89.0605,-12.8517,6.3875,-22.3738,-31.3714,-24.6449,20.2343,-119.9671,-73.8904
14.9374,-70.4095,-11.1319,-95.5017,-52.5013,-139.1401,-51.9658,-129.7636,-37.6468,-93.5155,-72.0583,-9.9362,29.3745,-0.4912,-64.7929,23.5991,-19.0589,-115.2001,-74.8133
28.1210,-109.4234,-17.5966,-64.2074,-62.7503,-104.2932,-41.7942,-59.6307,-10.7828,-24.3460,-107.8523,-7.6879,19.0144,20.1298,-23.6892,60.6986,-27.0382,-41.7117,-54.4067
28.2283,-66.2860,-9.3645,-42.1021,-30.6003,-69.4114,-36.0250,-15.7690,7.4618,3.9133,-123.9135,-41.2246,7.2506,-39.2186,-2.2788,6.6745,39.4877,-13.0197,12.8752
37.4173,-11.9055,59.4759,-37.9867,46.6931,-70.7152,22.7590,-44.4170,32.1227,-40.0276,-48.0127,-66.1170,58.4092,-108.8709,-31.8972,-86.9643,153.8524,-28.2126,102.6636
62.7500,7.6082,177.8469,-9.9538,156.0098,-76.3534,120.9555,-73.2096,58.3718,-87.8554,37.5440,-21.1009,113.3914,-66.7362,-45.4532,-126.1191,220.3101,-31.5712,120.9983
67.7929,17.5925,231.3881,31.9424,203.5090,-72.1125,105.3492,-86.0285,3.7766,-119.0819,35.1075,46.3841,72.4289,23.1913,-58.7175,-99.2344,186.1781,-52.4803,4.8050
57.6010,-2.1425,166.1601,34.5418,126.8322,-92.1829,-71.3502,-127.6798,-133.9212,-151.6340,22.0102,46.7804,-3.7324,25.8648,-111.9214,-35.8291,103.3302,-107.1335,-147.2113
64.4024,-75.9386,58.3446,-15.4072,13.2483,-140.9460,-226.8518,-177.6299,-223.3485,-167.6268,93.1525,-5.8187,9.3632,-28.2938,-146.8568,27.2510,29.8807,-148.2664,-209.9662
64.2965,-112.3155,-26.4491,-73.6210,-44.3195,-180.9650,-233.6756,-202.2777,-210.6236,-173.7772,159.1317,-25.1840,61.9660,-32.1328,-132.1289,27.4760,-17.8297,-166.3162,-217.0269
43.1740,-40.0633,-61.1579,-78.0806,-56.9684,-196.8545,-180.0030,-225.1240,-177.9427,-205.1687,137.0422,7.9839,43.6146,-0.6904,-124.3062,-54.2171,5.1971,-161.1443,-211.0264
44.7146,57.0545,9.1577,1.9468,-29.0445,-177.1099,-145.0378,-225.8546,-162.7062,-220.2798,123.1857,38.8450,2.4647,-12.1652,-137.0286,-138.3284,130.0858,-90.2385,-135.8794
69.3068,104.3094,163.0716,126.7410,48.6249,-94.1201,-98.6647,-139.2048,-132.5091,-154.9485,177.9748,49.9976,4.3681,-41.5920,-135.0206,-148.6609,275.1559,24.8971,-30.3384
75.8258,132.8873,264.1432,211.5978,115.5922,10.9008,-50.0181,-16.5262,-100.7881,-65.8136,215.1568,73.7665,-6.9802,-10.7765,-124.6756,-111.3833,338.2879,86.4003,-3.0332
75.5889,137.9107,261.5558,210.8114,136.0988,40.0502,-38.0635,11.4065,-95.4535,-53.8427,188.5307,95.9843,-40.7736,41.6633,-124.6495,-90.7030,320.5515,64.3674,-5.6444
83.3784,84.0596,228.3167,149.9900,155.9448,-11.9408,-25.0073,-58.3288,-89.9734,-104.4793,127.1017,73.3598,-25.4634,23.0324,-116.5832,-93.0883,264.7190,15.9687,31.6965
71.8801,35.5608,182.6958,83.9941,175.2574,-62.4034,20.3756,-123.0291,-66.5161,-146.6749,54.2712,44.2856,17.7260,-12.3234,-76.0482,-95.1965,187.7223,-14.0623,11.4392
49.5135,55.5781,101.7342,55.6643,142.1048,-82.7253,35.5085,-152.9519,-63.9202,-175.6852,23.3069,72.0490,21.7116,39.1564,-19.4299,-104.1856,112.9445,-24.0415,-112.4276
42.1597,78.1504,29.8972,64.6184,64.2470,-97.4903,-31.6736,-173.1433,-112.2274,-199.2155,46.1711,108.3474,-5.0079,98.9978,-15.9901,-124.4942,62.8299,-28.1325,-209.5830
15.1216,49.5767,0.3475,68.6215,-19.3436,-100.5324,-129.2127,-155.3504,-178.8432,-173.7991,18.5020,84.3916,-59.2662,55.4233,-110.0310,-124.9929,29.9926,-18.0013,-211.8127
-60.5209,39.6140,-23.5012,63.0975,-99.4474,-68.6383,-184.1230,-72.4032,-222.5362,-87.3743,-85.3148,57.9753,-160.2070,-0.2793,-240.8368,-96.9863,-2.5090,39.7852,-196.1909
-146.9608,96.8215,-71.2147,102.7690,-168.1913,-1.5696,-215.6018,28.2581,-262.3604,0.3660,-158.5091,95.1806,-255.9898,36.1609,-329.7971,-70.3063,-53.0930,123.7125,-216.7462
-201.0296,154.9820,-137.6188,175.6713,-214.8421,69.1715,-269.8515,88.9943,-310.8651,49.1998,-186.1748,134.2746,-283.6204,83.2121,-366.3785,-45.0633,-121.1240,149.1520,-240.6453
