Fp1,Fp2,F3,F4,C3,C4,P3,P4,O1,O2,F7,F8,T7,T8,P7,P8,Fz,Cz,Pz
-47.0446,-144.1019,-62.1482,-159.9898,-44.9582,-164.0015,21.5282,6.8271,115.9793,264.5919,-63.7195,-171.2710,-16.2253,-117.6007,-8.2752,30.8219,-80.8033,-219.8065,-13.9860
-68.4908,-124.0516,-145.4731,-148.8183,-42.7510,-210.7733,41.5883,-28.3771,9.9815,271.6378,-33.7360,-143.4167,-78.0795,-144.9199,58.5832,5.1489,-152.4173,-220.5634,14.4601
-67.7891,-93.4151,-145.1891,-107.5389,-57.5246,-249.5907,10.8103,-147.0413,-132.2198,68.0808,-13.8053,-116.5859,-148.3536,-189.9718,35.8278,-143.9711,-141.6799,-58.3564,19.5573
-36.3509,-40.3555,-64.7034,-15.4184,-64.7154,-168.3477,-30.8203,-179.5392,-216.6923,-177.1237,11.9609,-101.8982,-159.9563,-177.8078,-27.4642,-235.5028,-43.7445,154.2964,105.3751
-6.4918,12.9741,-9.0295,47.1896,-75.7470,-34.8431,-33.9265,-75.8438,-226.0971,-281.7809,49.5747,-68.4919,-150.4443,-111.5979,-44.3234,-197.1817,21.9117,257.7804,228.0661
1.4244,29.4256,4.8689,18.1646,-93.7369,4.6422,-45.6582,7.2844,-210.9555,-287.6661,79.3493,-26.6472,-136.3809,-76.6550,-78.9849,-132.5553,17.7836,276.1824,266.3224
8.3567,17.4402,15.3457,-29.4637,-93.6004,-31.9193,-117.7343,-9.0036,-191.9957,-271.8837,85.7067,4.0393,-110.8112,-75.3143,-156.2604,-60.0061,8.3792,244.2718,208.3476
25.6684,15.6769,18.3859,-24.0640,-95.9897,-38.7027,-216.8338,-31.7213,-168.4456,-241.6080,76.7090,33.2309,-128.8984,-39.6561,-165.0133,15.3387,18.8725,160.3150,129.0594
42.7933,36.5263,26.3430,18.5689,-112.0850,-6.6636,-247.1627,10.0483,-128.9839,-208.0387,83.5339,51.1753,-167.2972,19.1816,-74.6604,24.7799,40.8159,104.7133,100.0285
56.3485,57.6527,47.2192,69.9409,-90.0438,11.0516,-164.7059,52.1916,-72.4160,-200.9338,107.3110,49.9122,-111.5914,41.1181,18.8481,17.6133,63.9750,81.7345,96.9013
57.3852,53.4017,29.5840,91.4500,-34.6330,2.4573,-66.0418,8.5246,-54.9728,-220.0229,97.2990,58.5909,-3.5703,29.1144,62.0686,60.0474,48.6870,-6.4489,20.3078
34.7161,32.5371,-28.8987,49.2900,-23.1306,-12.9338,-62.5300,-77.3326,-82.1733,-194.2429,49.1818,93.3126,11.4213,16.1083,62.5484,68.5049,-11.5238,-102.5570,-111.4559
-3.3587,45.8766,-91.7900,-3.5871,-84.6072,-35.3102,-138.9145,-119.9197,-75.3811,-116.8329,21.8663,166.6392,-64.7651,3.8223,10.0483,16.0970,-86.2419,-100.3339,-211.1557
-56.0116,117.1912,-198.6602,-8.2868,-187.2717,-70.0660,-238.6876,-169.6833,-93.7973,-177.7352,11.4226,284.6407,-155.1815,-11.2966,-90.7202,-34.2800,-192.4300,-48.3065,-305.9626
-108.9115,172.1867,-295.1894,-1.5425,-234.6791,-73.2488,-289.3262,-254.5376,-243.6001,-401.2090,-18.7033,326.5101,-212.0086,-19.1096,-170.1517,-107.6643,-274.5742,60.6050,-316.5952
-86.2760,125.7633,-170.2066,2.8902,-100.7901,10.2400,-171.5375,-212.5876,-358.3687,-424.1006,-12.5511,153.9744,-147.5296,-5.0838,-166.9744,-165.4665,-152.1567,271.8720,-30.8397
33.8373,43.1074,141.5391,64.9287,135.0909,143.2898,32.7425,-24.0830,-296.0208,-185.5214,72.8403,-83.2304,26.1977,45.4549,-123.0389,-98.9399,144.9191,397.1686,346.9372
131.3872,62.4437,303.2975,171.6588,217.1284,232.4079,31.6793,33.1579,-268.0898,-176.3207,153.4323,-103.9938,114.4999,115.3965,-98.8062,-19.5788,313.9944,297.4604,342.3413
128.6007,139.0821,219.4041,226.8082,128.7553,242.4206,-149.2395,-113.6994,-326.0359,-448.0739,153.1941,38.3728,63.1725,143.2842,-43.9006,-26.8121,258.5655,144.4194,56.9080
92.4698,99.5942,119.8659,181.0373,66.9988,182.0338,-179.5208,-194.2004,-185.9447,-454.8291,86.5123,53.0497,25.9667,91.6107,58.4141,54.3903,178.8850,19.5429,-64.9872
55.2139,-19.8751,93.8579,69.1580,29.7066,76.3617,-80.3521,-140.1750,57.7656,-199.7135,-1.4583,-91.8374,18.4455,0.2617,55.8003,192.0973,144.4791,-139.0737,-71.1057
-10.3040,-9.3607,55.5856,-8.1384,-59.5368,7.1709,-115.2582,-132.4747,12.3443,-178.2154,-26.5137,-151.6523,-35.5829,-50.3574,-86.7977,89.2204,72.6987,-152.0129,-156.9991
-39.2922,124.8844,15.9091,39.6924,-70.4526,29.8611,-180.3220,-129.1816,-187.7516,-278.2709,59.3403,-7.0822,-48.4178,-6.9694,-140.1855,-130.1555,6.0671,89.6287,-125.1084
17.8395,184.0879,5.6848,154.2060,34.4446,80.7817,-85.6948,13.1609,-186.6681,-114.4941,135.3220,191.2303,11.5337,103.3291,-42.6031,-102.4258,4.9184,268.0934,86.9069
58.2880,151.8052,-14.1161,194.9000,63.6287,107.5167,-8.2537,161.9808,-133.6401,89.1368,94.9966,247.9711,-9.9168,183.4932,-40.4562,56.6922,9.8558,206.3280,187.3922
25.4617,158.4146,-13.3544,164.4440,3.8947,155.8137,-59.8431,160.9836,-209.0217,51.8601,46.9417,163.3153,-98.1170,186.4775,-168.6147,95.9034,14.9938,148.2591,136.8596
14.3595,190.5889,48.6973,166.6511,24.6341,230.8144,-43.6988,115.1556,-190.4303,-0.9063,80.1766,102.8829,-62.7065,178.3420,-154.3437,120.7489,69.1986,189.6988,132.1864
48.9594,169.1170,82.0554,193.7631,96.2662,257.3032,64.7918,116.7675,-35.7569,49.6555,98.6139,144.0228,65.0778,197.4609,43.4281,162.7614,103.1973,182.2269,138.8565
41.6072,132.3904,23.0887,169.4216,99.2179,210.1166,75.0314,81.8236,0.9807,5.5232,62.2640,191.9413,107.4006,168.9653,171.7509,67.0643,43.6465,144.0510,69.9010
0.3200,131.6320,-36.7420,119.3643,78.9773,143.9948,-7.1484,-4.3630,-73.0798,-112.8549,55.7566,191.8199,71.3872,74.7949,133.4284,-52.1284,-25.6336,163.8128,14.3197
8.9984,146.4489,-16.4842,124.7943,79.8126,126.7425,-51.0375,-29.1403,-92.7145,-124.2226,86.6239,208.4382,47.4780,37.9615,39.7251,-13.3565,-8.8855,189.2030,15.3113
55.3152,157.9803,39.5351,170.4282,63.9911,177.1870,-36.8360,22.0129,-93.4761,-71.4125,101.4206,244.3459,31.6307,113.9848,-34.1981,59.8296,56.3878,191.0147,48.8258
70.9479,151.2242,57.7844,174.4512,70.3178,221.6202,23.4606,36.1391,-108.4033,-73.2175,97.6046,220.3619,30.6910,190.0558,-58.7927,60.4418,87.8012,192.4734,124.5383
51.8139,124.0784,35.6133,146.8188,132.4279,187.0350,91.4667,-20.3824,-88.1249,-112.8520,84.2085,150.3960,78.0460,175.7341,-12.5061,63.3086,72.2080,180.3098,166.1185
29.9489,129.3402,27.9418,164.6677,160.1145,121.3885,69.7069,-40.1382,-88.0943,-120.3685,83.1192,114.5881,124.0149,103.0538,54.3897,56.8183,51.8129,189.7444,104.5867
10.2392,165.3708,46.9850,187.5818,106.8546,84.8340,-24.5653,45.2687,-121.2565,-56.4931,111.5148,105.8128,106.2210,32.2494,74.9377,21.3119,38.0563,245.2685,52.0248
-9.5809,146.5538,35.3482,127.8579,43.2753,56.6407,-77.8234,152.6250,-98.4414,17.4239,91.0037,87.6294,48.9374,25.7755,51.3962,49.7156,4.1720,258.6768,72.0756
-6.5035,101.6207,-6.2842,79.9450,7.7927,67.9350,-90.6922,176.3680,-83.0983,-23.2762,-2.6113,107.2431,0.4949,125.3453,9.9583,109.7805,-19.5265,209.8597,66.7771
31.2421,145.9298,-4.3183,160.8551,-16.7778,178.0397,-100.9811,124.6733,-161.9932,-135.5939,-8.1779,194.7371,-23.1693,242.1617,-23.5025,96.4626,21.4723,186.9623,37.8009
53.7958,232.3412,21.0641,243.1677,-29.9207,294.9936,-64.8912,78.9281,-201.2702,-144.2556,109.6682,265.4204,-22.0841,245.3481,-4.4600,90.7216,62.2100,194.8118,67.6039
16.7688,237.9966,-10.3423,199.8312,-30.6476,310.7911,1.4005,103.5377,-135.7124,-46.9295,141.6404,254.3453,-3.6264,181.4334,68.5304,164.4615,14.8253,210.3897,113.7922
-17.0800,192.9780,-47.8082,149.0159,-23.1467,296.4773,22.7980,187.7875,-118.4075,20.4280,57.2299,228.9335,30.3090,178.1284,126.4071,200.4411,-40.0695,257.2531,133.8638
27.6368,166.0507,-4.4118,171.4548,6.5637,321.9265,27.8539,236.6845,-171.9828,21.8662,52.3835,253.8372,79.6846,218.6322,126.9554,149.1681,1.1785,268.9362,170.4258
90.6594,146.0198,56.1010,187.2634,62.0461,333.3484,66.1293,196.1179,-167.5261,-10.2448,110.4823,275.1353,122.4625,244.1796,108.1737,107.3423,70.7704,200.1931,197.4779
84.3740,163.9134,57.6480,227.2491,127.7953,333.0527,93.6782,148.5784,-118.5368,-50.0256,78.1987,244.8560,153.2578,292.1048,114.2263,112.2864,91.5360,192.3980,173.8682
52.6976,256.0784,64.4598,360.9575,191.5736,374.3288,97.0930,171.3943,-87.8698,-42.3079,39.7677,217.1023,207.5361,353.4218,133.2273,148.9628,116.0057,310.2562,166.3295
63.7156,328.4481,129.2295,451.6863,239.3690,399.3870,136.6735,225.4591,-32.8495,20.6601,111.6322,229.3804,274.5372,340.4620,134.0054,218.6068,169.6038,417.0701,212.7946
84.0789,298.5121,187.9027,384.8628,266.3346,346.8635,212.9252,268.3631,19.5674,62.5226,172.9005,233.2341,278.0759,269.6936,119.6932,257.3939,190.4393,462.4952,255.9690
78.8808,230.0352,197.2104,273.4010,285.3496,278.2212,257.2385,294.5303,-23.9267,53.9011,144.5850,198.1183,208.7225,230.4480,113.5397,195.8602,170.7349,484.6881,264.3515
79.8098,192.0301,197.9521,220.4498,288.2528,244.8267,237.5806,269.3917,-89.9170,25.9330,135.0028,153.5319,156.8999,224.2477,117.4129,94.4981,166.7617,428.1861,242.5206
95.7966,184.0807,211.0554,224.1479,256.2163,232.3694,187.2608,210.5325,-37.7197,-11.8604,164.1207,125.4603,174.8580,226.0694,117.0031,48.1772,191.9500,326.2834,209.8075
98.8834,212.5237,213.1366,300.4726,217.2614,260.1558,161.1704,214.2713,77.9154,-40.7716,148.4386,128.4591,219.1919,253.0563,113.6120,58.3573,219.4066,349.4178,227.2810
97.8292,256.8568,211.8418,390.7499,216.8246,334.2547,174.2985,268.4798,102.8890,-43.6978,124.6241,170.7378,240.2024,274.4719,122.8987,94.7745,237.0644,464.8153,287.5316
114.4367,243.0668,228.6808,348.9413,247.7264,367.5993,187.0202,246.0026,32.2071,-62.2659,156.3342,214.6764,233.8333,241.4821,141.8226,146.3208,239.1297,449.8463,265.9500
121.6700,162.9891,222.1563,190.7226,255.4197,294.5154,164.3384,131.9760,-25.9315,-101.4593,172.7329,206.3002,206.9604,190.2679,133.2912,167.2279,203.1365,266.2280,125.7893
81.3812,96.4305,138.7384,74.6583,195.4461,170.2426,98.9107,34.3109,-49.5225,-88.7281,117.3755,147.8523,159.9562,155.5273,73.2310,101.8274,113.1622,83.2452,-7.2711
9.6141,85.0497,21.5868,47.9691,100.1041,87.3858,4.5550,6.2747,-103.2125,-33.5201,51.3334,85.3788,108.3233,103.6114,3.8012,-2.3840,4.6043,37.3312,-36.1928
-37.5942,103.7326,-36.7726,65.8866,70.5323,87.9716,-44.4579,29.8330,-173.9511,-44.6091,14.4689,63.5002,83.5941,54.5119,-20.8347,-28.0609,-48.5374,142.8348,25.3849
-23.7743,136.7968,-9.5362,122.9472,137.9446,172.8111,22.7193,86.3527,-181.5828,-136.0173,-0.0089,107.3057,104.7121,93.2132,-10.2388,25.7867,-10.3278,294.4352,122.4566
38.6661,187.9918,73.2795,205.9855,208.1328,304.0985,124.6167,150.1067,-145.8137,-188.9246,44.1386,191.5991,155.9070,211.6468,8.6101,44.4314,84.5714,343.4555,180.2921
100.9755,233.2540,156.5468,271.3838,212.9471,390.2974,113.9443,186.4995,-148.6510,-125.8685,132.8173,247.7341,186.3851,297.6971,24.4922,13.2182,167.0375,260.6490,149.5221
111.1557,229.2269,160.4197,294.7800,182.5635,357.5819,2.1389,176.6214,-167.1323,-16.0476,140.1689,231.2939,150.7748,281.6171,-5.1266,14.5169,176.1584,149.3715,76.5570
60.0811,178.3796,83.3297,256.2579,141.3824,249.3501,-81.0071,123.7419,-141.0783,16.6336,46.9034,147.7169,79.0826,193.8430,-81.4270,25.8387,114.9225,104.8376,42.3042
3.9869,134.3212,40.2705,162.6068,97.6978,173.0278,-74.5920,63.7390,-102.3786,-44.0231,12.0935,48.8926,56.6752,108.3398,-88.6089,-10.9568,61.6549,133.9735,59.1683
2.6928,122.4433,64.7248,93.7016,91.5161,165.8549,-10.8221,43.1247,-75.0004,-102.0349,77.8217,33.3751,88.0965,81.3346,20.7328,-24.3040,58.9670,160.6265,81.9822
32.8974,123.1683,44.5480,108.3755,107.2285,198.3774,32.2407,61.2166,-19.5563,-108.1367,87.3868,136.7239,80.0430,117.3513,109.8302,25.3086,52.2297,115.9776,68.4729
21.2278,132.5995,-48.3014,148.8831,64.9474,234.8265,-11.4600,78.4227,42.8779,-101.3867,-3.3377,226.6138,18.7059,164.8682,90.3009,32.2679,0.3431,51.9426,18.5939
-42.0566,144.0577,-108.7953,124.4565,-13.4748,215.1128,-84.2526,70.1604,51.8486,-98.1262,-62.3928,170.5521,8.2770,156.0506,38.5002,-28.5728,-62.3733,58.7424,-21.1928
-94.7875,118.0587,-104.5262,36.2010,-14.1444,110.4888,-64.8171,36.5698,31.2365,-86.4213,-53.5836,43.5798,72.9686,80.7935,16.4617,-53.0956,-101.9931,107.8622,-21.4422
-101.0418,65.3503,-91.5500,-30.6134,67.1363,12.1425,15.9484,-7.9071,29.9628,-93.1592,-51.2672,-10.9170,108.5630,5.3974,37.8786,-36.1495,-112.7611,121.0379,-20.2549
-90.3068,49.3526,-94.9585,-32.4508,113.3076,-7.3439,23.6800,-50.3905,38.6953,-136.4497,-51.2555,-2.9189,59.0467,-30.6850,123.3779,-55.3127,-105.6578,78.1450,-61.5665
-99.9996,57.1776,-133.7538,-38.7488,49.7685,-32.9903,-50.5397,-100.5073,33.3998,-183.0896,-23.3629,-13.9042,-40.2463,-77.5981,179.7839,-93.6648,-129.0720,-34.4947,-129.2946
-127.5274,28.0392,-217.5032,-112.0114,-96.8101,-134.5675,-134.3374,-164.8885,-16.7274,-219.3146,-11.2599,-47.7017,-153.4075,-160.8682,65.9709,-96.0570,-206.5625,-199.1606,-192.8990
-146.7132,-13.9170,-273.7696,-190.8244,-232.7752,-234.9797,-220.3489,-227.4450,-123.4439,-282.1650,-31.6147,-77.8938,-227.6372,-216.0553,-122.8647,-72.4596,-267.5139,-296.0950,-256.0058
-140.7027,-18.8384,-241.0448,-195.1886,-257.8454,-268.0969,-283.7476,-288.4393,-193.1422,-392.7956,-41.1358,-100.1574,-203.3791,-208.3257,-167.7949,-57.4050,-244.7958,-249.9597,-309.3461
-107.7828,-7.4199,-169.0964,-136.7759,-179.7608,-249.1211,-253.9375,-346.1824,-151.0785,-497.3400,-31.3195,-99.0766,-133.6077,-173.2004,-84.4518,-80.7281,-165.2683,-151.9010,-302.8237
-61.9174,-0.3882,-119.1139,-56.3671,-119.7799,-178.9446,-166.4297,-336.1272,-109.9223,-487.7768,-21.3892,-73.3748,-126.4740,-122.7873,-38.8362,-133.0012,-86.2608,-100.2448,-213.6814
-36.3025,6.0401,-96.9958,2.4616,-129.8495,-79.1492,-112.1468,-206.5364,-157.7278,-322.8970,-21.9916,-63.1574,-162.2682,-64.1832,-57.8124,-129.4621,-48.3294,-72.3174,-80.0192
-51.2969,-17.4741,-106.2036,-24.3128,-127.8240,-28.5710,-60.2627,-30.8639,-165.7595,-118.1639,-53.4553,-83.6286,-151.0726,-47.0604,-71.1184,-42.0049,-73.9891,-26.2926,52.7030
-77.8181,-66.9870,-129.4601,-110.7317,-64.5205,-38.7193,36.4374,67.9745,-66.0680,-25.6058,-96.7575,-96.6012,-89.2856,-67.6320,-45.6130,12.7388,-122.8681,22.8970,142.9678
-73.9980,-61.3244,-112.4299,-117.2407,9.8659,-35.7776,95.6286,66.4310,-1.1456,-56.6793,-83.8600,-73.5615,-5.7140,-50.6775,26.7701,-33.3850,-118.9297,63.6164,145.5347
-42.3429,22.3428,-47.5163,3.6466,64.0512,10.8037,71.9846,45.3657,-8.1901,-107.1155,-19.4162,-27.4437,88.8196,15.3640,105.6737,-87.9655,-52.7986,114.1726,93.3492
-13.7138,95.6764,10.1074,125.3098,102.3422,66.6469,65.6828,75.7537,43.2710,-93.0735,16.8005,9.6856,118.6555,66.5279,113.1572,-82.2454,19.2130,163.1781,92.2886
-8.2803,93.5521,13.3219,130.3231,88.4819,86.8989,113.7096,127.2312,128.1067,-24.1002,4.7428,13.5440,21.3045,65.3688,70.1636,-60.9525,39.0640,153.8954,140.9355
-28.0368,45.4232,-41.3044,48.8169,1.5959,51.5872,106.1763,117.1083,99.8608,2.9846,-18.5898,-5.1773,-99.9084,21.4467,69.8915,-58.4710,-13.6655,76.4323,124.5090
-48.5434,16.3805,-95.9633,-1.9252,-95.6384,13.0939,-6.8139,46.0039,-5.6788,-75.6093,-38.4827,-13.4031,-119.5160,-14.4663,84.7839,-66.7727,-72.6825,11.6058,37.2233
-37.3158,40.2133,-77.9802,40.2135,-148.9984,41.5356,-138.0191,-9.9441,-59.6220,-169.1831,-43.1727,-2.8089,-91.5797,16.6102,8.0973,-87.0682,-44.7012,11.9935,-17.3006
-10.7788,86.9386,-22.9980,109.0655,-177.9941,97.5942,-203.3787,-34.3464,-78.8246,-164.6463,-23.1784,17.6421,-120.0326,68.8415,-123.8095,-103.9474,25.5524,31.7977,-30.5932
-19.2336,100.6621,-35.8019,105.7123,-200.6915,94.4903,-189.9812,-66.6091,-128.2648,-121.0333,-9.5059,44.7625,-179.0882,30.5023,-169.8134,-93.8402,10.3888,34.3538,-63.9660
-61.4558,74.3469,-106.0098,34.4594,-200.9846,35.0407,-132.8070,-102.2197,-178.1703,-139.6241,-23.6406,52.4163,-193.7870,-74.8760,-122.0312,-83.6979,-78.8585,34.7542,-105.7544
-85.7484,36.5640,-134.2422,-32.3333,-177.9560,-39.1805,-97.4321,-118.9005,-184.9676,-168.3742,-40.5333,16.4614,-149.8564,-122.3039,-98.6784,-101.0257,-128.4374,24.4516,-124.4890
-74.5585,5.3396,-111.1383,-59.1138,-150.1501,-104.0924,-116.6399,-126.5135,-157.6520,-137.0726,-41.9190,-16.7120,-78.3081,-99.8895,-121.7048,-108.6928,-120.2313,-2.5834,-133.9246
-62.0391,6.6913,-101.9059,-50.0410,-135.4768,-108.2672,-151.4013,-123.5283,-125.0225,-110.0209,-30.5153,5.5224,-38.1319,-80.9869,-109.3686,-78.8411,-113.2202,-7.9197,-136.1553
-74.4892,48.7781,-125.0994,-31.3031,-148.2569,-43.2043,-168.8525,-98.3278,-115.5488,-140.9468,-15.3304,43.5924,-74.4485,-74.0911,-69.9627,-49.6875,-127.3762,8.9663,-122.1046
-95.9746,69.5064,-154.8325,-42.5612,-172.2518,-2.2231,-176.1434,-68.6644,-122.9456,-164.3597,-25.7017,39.2587,-142.6572,-58.0298,-83.4811,-40.4794,-147.8075,9.0244,-94.6506
-93.2972,28.6232,-155.9710,-75.7453,-165.8799,-23.6245,-156.5114,-43.7953,-101.1070,-129.5655,-61.9825,6.9322,-158.2936,-39.1250,-125.4442,-13.0866,-145.4850,9.1276,-39.4856
-55.3816,-3.1227,-93.3938,-68.0574,-125.5488,-25.5086,-95.9998,-10.9477,-50.4868,-80.5092,-55.3643,-9.4667,-109.7067,-8.6902,-119.7093,26.9514,-86.1157,38.6786,25.3714
5.6276,35.7940,15.5037,9.8770,-85.3259,27.9125,-51.4011,10.1033,-31.7575,-72.7469,23.2350,30.0248,-41.6724,41.9710,-87.3176,6.1686,15.1407,70.2770,24.0976
70.7378,91.5378,89.8645,114.0108,-63.8005,80.6447,-74.8035,-15.7509,-65.0157,-118.5115,94.2017,140.3468,4.3248,87.0669,-72.6510,-77.7058,92.9126,84.2519,-43.1717
103.2730,98.8852,75.2413,167.7299,-67.9080,96.9624,-130.1418,-73.5953,-112.0011,-187.7712,91.0439,235.9660,-4.6581,104.5924,-51.5868,-108.6852,100.8849,87.2767,-81.3330
70.3678,77.3271,4.2102,135.4362,-93.1847,76.8210,-155.2767,-110.4194,-143.1653,-223.3724,46.9236,208.9094,-53.1230,89.2115,-14.6529,-32.8884,45.6551,78.3230,-65.1545
12.3438,74.3382,-43.8466,85.2970,-94.4824,42.4129,-125.4863,-93.2366,-148.9269,-205.6537,23.3290,123.4310,-65.8055,54.2258,10.3312,28.3751,-13.0833,90.5423,-39.2845
10.9646,98.4844,-25.2710,109.5235,-38.7337,57.1537,-45.0733,-42.6849,-128.3101,-173.3746,43.9025,129.7380,-20.2392,56.3872,30.8066,-29.7206,-5.3428,146.7489,2.3256
62.8038,121.2391,18.3543,170.6333,30.7036,130.9349,39.5344,-13.6431,-103.6551,-145.1911,88.9021,213.1297,12.4071,113.1499,49.2344,-107.0048,50.5162,164.7560,62.8061
87.2133,112.3979,14.5282,168.6994,58.9837,163.8845,62.1225,-23.3272,-108.7530,-113.2341,105.9210,248.9800,-2.4575,136.4684,22.0662,-64.9766,60.9782,98.3690,90.3879
61.2125,85.4788,-29.0390,127.1014,57.4686,117.6315,33.9412,-32.8306,-153.2025,-114.0838,68.5366,212.5603,-6.0631,95.5868,-49.3298,35.8771,14.8406,64.7945,85.4790
38.3287,88.3752,-31.0991,135.3739,64.3557,98.9870,26.7944,-19.4455,-206.9606,-171.5280,27.3096,158.7284,39.8223,101.0708,-90.8753,55.4552,6.0713,127.6523,94.3701
50.0990,122.5975,29.1346,176.9123,78.3327,153.6342,33.9971,0.8241,-223.2744,-214.5772,41.1411,121.7141,82.4993,183.8239,-51.3129,7.2711,62.9768,155.2249,87.0794
72.6638,126.5589,64.5422,167.6754,59.0720,169.9193,-17.8083,13.1437,-195.1730,-189.2991,80.5534,124.6390,60.5940,221.6328,40.2257,-17.0518,91.0700,60.5489,17.3333
76.4611,82.7830,16.9005,107.4523,-6.7162,99.5076,-111.6888,6.9138,-163.7174,-151.6879,79.1025,169.6995,5.9211,181.4255,90.4643,-12.4490,37.3366,-42.4723,-54.4673
70.1108,68.5153,-24.0289,93.9632,-55.0911,66.1204,-147.3182,-9.9322,-150.3063,-146.8351,59.0937,211.7471,4.1495,160.1654,29.6230,4.6003,-0.2586,-22.2982,-47.2509
85.4046,122.1591,51.4073,174.2133,-33.7543,134.9959,-110.3213,-1.8955,-142.8103,-144.0925,92.4333,206.0158,48.0675,163.3548,-77.2770,48.0307,78.2386,91.6738,11.5765
114.2131,144.7368,164.3328,233.9573,-7.9363,177.1355,-87.0365,13.4765,-140.9150,-135.5588,141.3932,149.4883,35.0694,116.6424,-98.4048,62.9378,187.2261,157.8736,39.9528
102.6004,64.0964,146.5732,155.0906,-42.4633,99.6251,-106.2698,-29.7069,-135.3732,-135.4242,100.3459,81.2721,-40.4895,47.2430,-24.2927,-12.1539,166.8040,111.8431,11.4211
37.3447,-7.2012,23.0699,33.9440,-61.8801,10.8650,-103.3916,-99.4434,-92.7889,-110.8757,4.4355,57.4104,-52.1076,20.3925,49.3208,-83.2589,39.1723,62.1356,-40.2934
-21.1887,36.4352,-34.2115,27.3639,5.6244,6.2554,-47.3498,-104.7138,-23.1032,-54.1912,-11.2878,74.1161,34.6947,-0.4733,74.1162,-38.1424,-33.8317,98.0254,-76.4489
-18.0189,88.0416,7.3263,86.4529,79.4907,1.5280,10.0628,-81.8714,11.9249,-26.1015,47.3199,70.1082,97.8967,-55.4042,49.9763,35.2239,-3.9840,112.1743,-86.2672
34.7071,40.3875,45.1586,101.4789,74.2227,-63.7967,20.2706,-110.4118,-22.0085,-38.3849,68.7330,51.9952,74.9173,-80.4090,-8.1062,4.3551,45.8710,23.9922,-85.8402
77.0855,2.4724,51.1717,115.5354,35.2818,-84.1028,-4.8871,-126.3618,-92.9980,-35.7229,49.9346,76.2829,41.2648,-20.0896,-32.0961,-72.2597,67.9713,-29.3646,-94.6911
63.8675,70.3022,57.3354,163.3902,27.0241,2.1851,-29.2770,-54.2613,-120.3539,-19.0695,46.0204,109.0632,45.1337,73.1921,15.9748,-75.3170,69.5488,30.9139,-111.7153
18.5310,134.9499,46.7374,163.0416,33.1242,83.5363,-35.9710,26.9701,-53.4905,-35.2759,32.8386,93.7005,45.2657,124.4303,57.0077,-29.2660,50.1643,65.7025,-120.8764
-2.1098,112.5287,10.5566,105.9255,11.8526,74.4885,-26.5609,32.5887,33.0776,-73.1699,-2.0212,79.9195,15.8940,120.4623,38.2384,-10.3189,18.6188,20.3025,-121.5371
6.7853,82.1463,-12.3197,82.5175,-46.1778,41.3573,-11.8614,5.9086,38.8496,-88.1365,-6.4751,115.5481,-24.9280,80.3366,21.8275,2.2754,0.2430,7.3652,-129.4760
15.9274,82.1966,-10.9020,96.5914,-115.6026,49.7984,-16.7204,3.2955,14.4153,-66.0550,13.5607,150.7001,-67.6892,28.6411,29.6183,55.3140,2.2742,25.1921,-139.3962
25.2875,53.8622,-0.8255,75.6852,-150.8313,61.9683,-51.6474,14.4025,46.6809,-4.7631,13.0777,138.5529,-90.5756,8.1636,13.7571,109.2891,15.2615,-11.9002,-120.3116
36.7483,10.9816,31.2849,17.9468,-111.3312,43.4090,-62.7508,26.1125,76.7551,79.1525,25.2306,86.6417,-38.0965,44.2169,4.1462,96.8709,32.4031,-39.6211,-61.8199
38.7009,16.9018,85.7644,-5.7178,7.0540,32.6186,4.1019,36.6908,37.8262,116.9278,75.8193,29.1807,80.6809,92.9469,47.6867,36.1882,54.4896,18.3305,2.9317
45.5810,42.8191,110.2286,42.3031,139.9162,53.8174,79.1594,23.1790,-17.9769,66.1637,91.6544,26.2740,146.9137,87.9130,75.3957,10.8265,79.5487,75.1016,33.3546
58.9964,34.3777,73.9922,102.0337,187.1790,67.5921,61.2405,-17.0357,-52.9560,4.4395,40.0115,79.3247,98.9464,37.3790,37.8637,54.3527,81.8165,76.8940,34.0945
41.0453,20.5147,27.4013,90.6842,141.5394,55.8609,16.2422,-24.4082,-73.8000,31.0528,2.7289,87.4185,36.3604,17.3509,5.6369,104.8291,47.3729,104.4127,59.8002
8.8535,35.5566,35.5955,42.1852,108.3990,65.0254,69.4839,53.1950,-49.3636,110.2533,21.1936,26.7603,34.2023,63.4202,0.0458,86.6093,31.2705,169.7083,143.5021
27.9165,46.5914,89.6511,51.3520,132.0907,117.2428,163.6138,168.4113,7.0733,137.8557,33.6557,5.5739,21.1670,121.8304,-42.0427,14.5188,82.4892,192.5968,234.0673
74.8659,31.7793,128.9434,102.0191,142.0213,164.1058,166.0861,221.1445,29.0828,111.9128,8.1278,43.5652,-37.5369,127.7151,-89.5573,-26.4640,146.1474,177.5659,256.1207
74.3456,26.5471,127.9086,122.5686,111.2895,170.2410,104.8458,191.4277,45.7462,94.4503,-12.9943,47.2539,-60.5303,94.4316,-54.4493,-11.0525,155.2770,183.3684,215.7391
41.9580,45.0313,107.4809,119.9556,89.2483,163.7742,80.7245,149.2311,108.7844,79.7834,-10.9806,14.2942,-31.6908,86.1803,31.7272,1.7548,133.8584,196.1866,186.4621
33.1650,49.1954,86.2854,112.0655,85.8240,177.5389,98.6326,143.0273,152.8867,46.7341,-11.0577,10.3303,-11.0934,116.4031,81.1071,-4.5225,119.5232,185.2186,206.6871
36.0492,31.8342,73.2522,87.8251,84.5048,204.2377,124.1737,155.8058,138.4009,32.2129,-17.6498,24.5017,19.4942,127.8164,77.1048,13.2393,105.4008,174.3689,237.7854
22.8431,33.5345,68.2005,82.8473,101.0820,216.6824,145.5898,149.0035,132.0397,47.9017,-21.4199,27.3014,84.9369,85.1525,39.3056,43.1555,89.4303,175.7006,220.2725
6.3928,44.7484,46.6866,108.3496,130.5748,190.8436,143.3062,97.2762,150.8307,67.4628,-35.4160,32.8030,116.1269,25.6074,13.7612,47.1216,71.2126,144.1978,147.9950
0.6213,6.8406,6.3120,84.8103,139.3978,120.8097,121.3929,11.4025,159.9148,104.4966,-59.0991,26.6070,93.6759,-11.4547,67.1194,41.4190,39.3523,46.6203,62.1016
1.2458,-60.0109,1.1587,1.3703,133.4083,39.2102,116.1350,-64.1469,168.6539,137.1171,-61.2805,-21.3139,91.8373,-31.4398,159.1649,15.1330,20.2531,-60.5829,-15.7370
4.6838,-65.4807,53.0949,-35.3028,137.3957,4.3079,117.5920,-102.6020,159.2833,70.9852,-35.4421,-70.2129,119.1362,-27.9277,177.4426,-61.1164,47.3678,-72.4890,-83.2995
13.2808,-2.5720,94.7293,9.9805,136.2079,36.5596,76.9882,-110.9099,95.1358,-68.4581,-7.2854,-44.3820,123.5771,22.8769,144.9156,-97.5123,82.9239,8.6269,-117.4062
27.2185,45.9789,66.7402,61.0372,93.4365,79.3862,-12.9811,-98.0305,41.1787,-127.9748,10.8780,53.8575,89.9888,74.6991,150.6619,-22.2508,70.2233,40.1246,-119.2178
28.2806,44.1978,-4.1906,67.2902,-0.5414,62.9906,-115.5308,-85.5258,60.7776,-94.9396,13.5248,120.5857,-0.2498,38.7621,145.5501,32.7660,20.6852,-50.0812,-141.2870
-0.6846,20.1122,-55.4022,28.9388,-103.6490,-3.6870,-186.7530,-106.8882,79.0276,-93.6260,-5.1352,74.6948,-134.6080,-69.6184,66.1776,-28.2953,-19.7371,-152.2838,-192.1822
-31.7567,-15.1009,-64.8349,-47.0041,-160.2307,-62.6218,-204.1980,-150.2806,20.4655,-140.2507,-19.6864,-17.5463,-197.7936,-139.6447,-11.5811,-85.0336,-41.7197,-176.9060,-212.5926
-33.8811,-58.5396,-74.5862,-131.4180,-182.7935,-96.6289,-185.3715,-172.6419,-67.1119,-171.8471,-7.4684,-40.5219,-145.9005,-120.8852,-21.8603,-66.7196,-75.0177,-180.1618,-181.9722
-32.3624,-72.8117,-123.4542,-170.6445,-210.8997,-113.0949,-138.5564,-166.5076,-106.3539,-186.1560,7.0525,-6.8293,-97.3271,-51.3502,15.1518,-40.4087,-128.3449,-200.7416,-136.0244
-48.7182,-38.2626,-163.4624,-145.8124,-199.9496,-105.8853,-47.4974,-141.4578,-87.9035,-176.2569,10.2727,4.5297,-89.7475,14.9388,84.0572,-1.9152,-159.1857,-188.7502,-105.3248
-60.9173,-11.5555,-141.8730,-131.9780,-102.8289,-105.2410,36.9983,-102.1446,-69.7034,-127.3909,20.5154,-9.6586,-28.4083,18.0441,130.5512,55.0098,-156.4250,-150.9968,-110.8106
-61.7999,-52.2389,-111.3246,-204.9858,9.8888,-150.2392,41.5177,-84.2877,-96.5803,-112.2526,21.2955,-23.4951,70.6274,-52.7468,78.3711,34.9384,-168.7172,-152.3017,-132.1818
-39.4954,-101.8660,-100.4638,-225.4658,76.3701,-175.8532,27.1025,-116.0145,-117.0250,-180.0818,-0.3701,-28.3188,112.3508,-88.1880,3.0459,-46.7993,-153.2476,-160.9997,-95.2198
47.4484,-34.2501,-22.0679,44.3256,138.5052,-91.8012,82.0618,-160.4329,-81.8093,-254.8530,18.4671,13.2980,116.8536,-16.7945,25.2008,-74.6807,9.6730,-88.1709,-10.1369
151.6191,142.7444,111.3488,471.4381,186.0792,36.4990,121.2497,-180.4800,-71.2411,-291.3269,106.5076,101.6292,108.0217,40.5625,70.3168,-84.9322,232.9539,29.8859,-2.2468
149.9050,252.9997,127.0730,605.7245,128.6335,74.6530,37.2468,-177.5653,-145.5601,-328.7757,160.7044,148.5967,23.2677,-10.4696,27.2584,-136.6637,261.6510,59.2177,-90.7277
63.4867,187.5527,3.5571,369.3464,-2.9674,37.3245,-79.3689,-131.7943,-201.7807,-341.0875,90.0647,120.1242,-91.7402,-42.8720,-33.0194,-127.9888,97.9406,-13.7561,-127.4227
39.4757,56.3976,-61.1394,176.4313,-59.2832,43.9118,-80.4027,-33.7558,-153.2988,-273.2834,-34.4964,91.6171,-90.2763,41.2961,-26.6665,-26.4159,15.8418,-43.8779,-33.9699
95.3571,25.6085,17.4678,243.1628,-1.7416,117.9183,18.4280,47.9895,-71.3515,-184.8658,-63.4406,102.0894,7.2493,116.0548,1.3638,42.4732,107.7346,35.6262,85.0594
117.9694,99.0853,103.8588,334.6227,49.5508,158.9830,76.9111,51.3976,-53.2005,-155.2970,39.9934,102.6240,36.5792,68.6508,1.0521,32.4142,187.2793,88.7623,97.3406
69.3702,143.3967,82.4515,260.5582,-6.0299,86.5647,13.0159,6.9892,-105.7147,-148.2923,141.6727,50.1990,-44.5717,-33.8199,-30.0005,-6.7564,130.6642,5.2661,10.7256
12.4968,83.8693,-17.3857,128.7958,-125.1045,-43.8417,-84.4011,-16.9941,-155.4243,-99.6039,114.6438,-26.8319,-136.0950,-94.3842,-71.8836,-40.8450,15.0855,-111.7392,-27.5721
1.8485,-8.0949,-102.9127,69.3969,-188.0874,-103.5193,-68.2583,15.6337,-123.3209,-30.5340,25.4382,-43.3517,-166.7592,-82.7616,-65.5878,-15.6083,-51.1457,-141.7577,62.1744
26.9222,-46.3010,-119.5725,40.8067,-159.0204,-83.7403,27.8469,68.8415,-48.7951,-5.7510,5.9343,21.4710,-138.4613,-27.3984,-0.7163,70.1266,-62.8158,-142.6344,128.9614
24.3963,-53.9569,-98.3220,-47.0332,-108.1946,-113.4298,40.6218,41.8793,-41.9783,-43.3049,32.8887,48.0217,-72.6134,-24.6107,32.3853,101.4655,-85.4015,-192.0249,10.9680
-23.4072,-74.2004,-87.5395,-160.6799,-71.9949,-219.3156,-36.2578,-84.4775,-75.6834,-98.7378,27.2882,-27.5012,-4.0734,-100.3758,-0.1106,48.3025,-127.4880,-240.9930,-181.9726
-31.2866,-72.7042,-62.5926,-171.0097,-24.9893,-246.9492,-77.4280,-174.0430,-46.7018,-131.9624,16.0514,-63.7252,13.4646,-104.0494,-35.3853,5.1099,-104.6801,-245.4002,-247.8711
43.7673,-33.6849,-2.7747,-59.2526,5.9330,-119.5315,-69.0344,-143.6573,4.3211,-153.3000,25.6063,35.8426,-39.9330,30.2966,-68.5814,-15.4244,3.0524,-234.4194,-186.1205
104.9925,-12.5397,32.3781,26.3247,-23.3541,22.0516,-63.3259,-82.5735,0.5063,-159.4556,24.7285,140.8497,-105.0278,114.1163,-128.3110,-39.7209,77.9071,-199.8839,-95.9013
79.9687,-25.6116,20.4507,-8.4142,-51.8642,41.5628,-29.9977,-43.0112,1.6266,-96.3424,31.1011,126.6007,-106.2054,36.1558,-158.2107,-16.2592,52.7578,-106.9372,4.5971
27.0338,-39.7055,25.9700,-79.5447,-1.1980,-3.3871,59.0725,43.5638,57.9560,36.9982,54.3790,26.1624,-45.3255,-47.5956,-101.8221,47.4385,14.0647,5.3869,122.4665
8.0429,-52.6338,65.1374,-80.5632,82.5930,11.6186,157.7978,162.5259,114.4044,139.9597,35.5081,-84.5295,19.9930,-30.4038,5.4726,69.0767,36.6431,74.5329,229.9701
19.6466,-47.9863,85.3081,-8.8137,108.2787,85.5342,208.4433,189.2866,139.2462,129.8654,5.3531,-111.2298,43.0106,1.3435,85.2471,41.2067,83.0753,98.1709,278.3927
49.4820,15.5738,76.1351,76.0437,65.2617,123.0821,159.2631,91.1833,127.4994,28.3844,57.1976,16.8830,0.6466,4.3060,61.8695,-16.0354,102.3895,99.9262,211.7046
73.2990,91.8525,69.9560,115.5295,1.7126,99.2317,16.1633,-37.3802,48.4860,-77.0507,124.8951,168.6948,-68.5251,22.8853,-59.6221,-87.0618,98.5944,97.1654,60.7697
59.1418,102.5968,85.9941,100.0681,-29.4269,82.0121,-92.8996,-102.9064,-53.1010,-98.9920,106.3032,139.9501,-64.1186,46.9607,-141.7833,-79.8286,99.8149,94.0496,-43.2329
30.2835,80.6897,121.3353,73.2109,-1.3429,87.0195,-76.8807,-86.4806,-71.0960,-24.9489,79.3478,-5.6487,21.1487,50.3682,-92.5848,27.3748,114.3994,43.8473,-74.8793
26.5616,68.6621,131.3359,48.7407,44.0262,33.8673,-27.9236,-61.3052,-10.6448,56.5727,102.8062,-59.0203,59.8575,36.2625,-1.9784,97.1843,106.7289,-90.7872,-149.6247
25.8184,20.0578,76.5347,-5.8109,40.3835,-97.1117,-45.1396,-108.6758,30.5500,79.5985,82.1080,-27.8662,13.0422,-15.0594,37.1363,97.7826,47.5125,-213.9884,-268.0656
4.6584,-47.7224,22.4211,-67.4765,8.4727,-184.0602,-76.2966,-163.3698,20.8647,95.1759,14.8574,-36.2981,-8.7274,-66.9410,47.2864,135.1739,-8.4927,-184.9961,-281.1468
-4.3031,-34.5473,46.4399,-63.0453,20.8954,-118.5319,-46.7137,-88.8295,3.7672,148.8466,7.2960,-54.0858,23.7234,-6.4297,38.8161,174.8431,7.7867,-25.9589,-137.1543
9.3116,40.3141,81.1253,5.7297,65.4758,50.0839,30.0006,85.3363,17.9226,184.5723,28.2487,-11.1908,24.8806,137.4349,-2.6330,127.8866,55.0608,120.0811,73.2323
7.7962,67.6558,42.2013,61.0840,72.6677,191.7664,107.5864,220.3383,68.7190,172.8664,-4.1540,30.5888,-6.0539,192.2961,-30.3491,82.8490,55.4771,196.9056,276.9526
-10.8927,43.4206,-0.8467,63.9736,50.9756,245.7791,160.2511,307.2342,136.6501,185.6570,-32.8594,4.5529,-3.8090,138.4196,-11.1215,127.1079,33.2841,252.5225,450.8045
-12.2217,24.6730,33.4960,41.9161,62.8544,235.1610,197.8260,407.5074,206.4852,254.9166,-10.3749,-49.9346,18.5505,105.7729,33.8221,187.3278,49.4218,310.6729,557.5112
5.9255,7.3741,95.8155,24.4786,98.9268,190.2478,233.7198,466.1864,259.7599,302.2245,6.4028,-75.9573,26.7490,108.5886,103.2962,200.8413,85.9774,340.2868,549.7510
28.5387,-18.5915,128.4149,10.8803,92.2530,130.9988,219.4816,407.2321,237.5416,276.7853,11.9865,-58.6243,34.2889,84.5814,161.5560,188.3811,102.1612,307.9448,426.1529
52.5545,-29.7025,139.4128,-5.7691,28.9038,88.5392,117.2575,285.5620,120.4128,240.9276,39.7149,-15.1883,34.4458,69.2141,113.3963,171.2419,101.7573,208.7501,260.3540
54.9697,-27.9859,119.4518,-21.5894,-35.1776,65.2849,16.0317,188.6072,23.4060,259.0253,45.6269,-3.6844,19.3198,89.0678,-4.7826,163.6155,83.2480,65.0902,127.4937
22.1309,-34.1619,71.4999,-40.3629,-44.5349,12.8888,8.8238,115.1727,49.1147,285.3035,17.8352,-56.6933,43.3742,70.4309,-27.1419,147.1395,39.5605,-95.0223,1.2723
5.2043,-41.1005,70.9979,-68.8077,-1.6826,-72.8114,33.0647,30.8698,105.3410,231.0688,33.6741,-95.8953,124.3977,-0.4837,48.2428,78.3269,16.9880,-228.2763,-178.2917
34.4700,-24.1075,133.1284,-74.7315,32.9800,-107.5564,-0.3827,-60.7701,57.7095,105.1589,85.5647,-39.4764,175.5861,-32.0483,60.6799,0.7405,48.4521,-248.7248,-352.1760
42.8931,22.0125,138.2629,-19.1103,18.8442,-53.3172,-42.9138,-127.4223,-22.5986,-1.3608,67.5262,52.1939,140.6774,1.5211,2.8118,-18.0545,67.2703,-116.1539,-382.2976
-11.5767,51.7662,24.9028,49.1996,2.6340,7.4832,-5.6834,-132.1435,21.1398,-52.4209,-31.5773,70.9909,80.8997,22.4470,12.4528,-29.4363,11.6760,61.2156,-222.4262
-63.8463,11.7617,-85.6908,35.4832,47.9172,13.1492,95.1478,-55.8490,143.6251,-67.7991,-111.1303,12.1755,75.0097,-11.9529,87.8014,-68.6881,-59.8781,165.7837,36.3621
-65.4461,-54.3543,-67.1010,-47.5922,131.0987,13.4105,173.9350,81.9631,171.0471,-27.6232,-103.0114,-64.3396,126.5518,-55.5576,109.2783,-57.0403,-63.7655,240.0288,264.3369
-41.9945,-56.9258,36.9762,-91.0066,182.9272,55.4204,195.9819,221.4854,107.4462,62.3821,-25.1985,-107.5574,177.9957,-52.9501,69.7950,0.5103,-8.8092,337.9421,401.8994
-5.1290,-21.1741,98.8936,-53.9064,177.9502,106.5612,206.4588,284.3397,99.3658,95.0010,46.1039,-79.0778,168.3272,-8.5802,49.2668,5.7254,48.3597,368.7148,463.8103
41.0881,-19.0011,75.8122,6.8119,123.0084,131.0245,214.8145,236.7726,136.4611,20.0705,47.0518,7.3353,93.0838,34.9318,56.8991,-10.9085,73.0509,275.4035,437.4136
56.5915,-6.9468,29.7369,50.0872,32.1445,134.9875,133.0324,133.3715,82.9435,-65.4823,16.5721,85.6995,11.5924,57.9861,52.4521,24.5387,60.3793,156.7189,272.4106
39.7949,57.7118,28.6742,72.2495,-52.1390,122.7556,-54.3961,38.6514,-45.8541,-105.7561,33.5641,122.4444,-24.5275,65.0175,17.5187,27.6536,42.3525,81.2123,17.3748
34.5365,85.6939,66.2462,51.2410,-85.8112,89.2788,-192.4614,-49.9544,-127.0839,-147.5703,64.9626,111.4060,-24.5696,50.0877,-55.9884,-71.6548,51.8991,3.0609,-176.7921
29.4140,24.9178,70.1079,-21.5282,-82.3742,45.3118,-187.6068,-124.4481,-149.2346,-177.8611,30.3611,39.0225,-27.0156,13.1401,-139.4635,-146.8779,51.4715,-108.3689,-239.4423
-11.8059,-42.9169,-12.1523,-102.8352,-94.7797,-4.6140,-145.1820,-123.9835,-152.6748,-147.9068,-40.0846,-48.7784,-45.4765,-27.2401,-157.3544,-93.7508,-22.8326,-242.1829,-233.9179
-65.1170,-73.5921,-135.5071,-164.6432,-137.7749,-72.9878,-140.3548,-54.8773,-118.3688,-96.6022,-81.6054,-85.3040,-55.9050,-62.3192,-99.4459,-18.0923,-145.3719,-372.1623,-231.7676
-97.7071,-95.5466,-192.6460,-216.0598,-158.8318,-137.6709,-109.8273,-11.0951,-72.7586,-59.4826,-105.0718,-101.3316,-31.2354,-77.6717,-55.5853,-38.0625,-218.1898,-406.2363,-242.5236
-104.8908,-80.2937,-141.7006,-226.3909,-111.0366,-141.3249,-51.8598,-29.0618,-99.1961,-22.4056,-100.0349,-113.8398,11.1891,-45.9206,-80.0967,-95.8970,-194.1507,-273.1026,-234.3214
-75.4355,-6.7096,-61.4812,-160.6044,-39.4010,-88.8638,-50.3948,-60.3820,-177.0054,-24.6915,-21.5452,-43.9138,19.6939,-4.9615,-130.9405,-100.4985,-124.1855,-70.7868,-168.9392
-36.4219,30.7666,-51.8443,-95.3111,-30.5092,-69.8335,-91.1983,-69.7398,-208.9201,-78.6189,57.5973,60.6684,-23.0667,-43.9648,-154.1878,-85.3293,-96.9445,51.7155,-51.0991
-56.4396,-33.7451,-118.0344,-131.7965,-84.3267,-127.0752,-97.6432,-54.2902,-192.0319,-87.5165,21.1920,26.6317,-73.9945,-152.8250,-140.9640,-102.9284,-148.0176,87.1912,65.6305
-119.5000,-111.4557,-182.3504,-218.2858,-121.6313,-181.6683,-77.0935,-35.7297,-185.6973,-43.2963,-73.2603,-104.0898,-84.1273,-219.2594,-119.5738,-121.5319,-216.6120,109.7338,134.5332
-136.0008,-103.6863,-175.7221,-224.3788,-102.6192,-145.4832,-66.8913,-63.3910,-171.5490,-50.4616,-91.8987,-131.5610,-53.7374,-191.3853,-107.8095,-118.3420,-209.8267,141.2882,136.3565
-94.3499,-42.6381,-102.4196,-138.4076,-63.5131,-42.3875,-62.3099,-129.6820,-99.7964,-72.5431,-46.8725,-64.6009,-22.9409,-117.3008,-66.0528,-113.8063,-118.8784,144.7492,73.3497
-56.5771,-14.4860,-40.5796,-63.3945,-60.1866,19.7454,-67.3852,-144.0791,-18.6408,-3.2174,-22.9216,-40.7773,-15.6986,-67.0842,15.3973,-96.7539,-42.7557,71.6583,-13.4559
-57.1326,-43.3989,-62.7080,-79.8404,-97.5864,-35.8530,-75.6214,-74.3157,-10.2464,91.8909,-29.5606,-63.0298,-6.8817,-91.3959,38.6448,-81.3540,-76.2362,-60.1449,-68.5312
-92.0969,-88.5903,-135.9911,-169.0756,-101.1693,-160.6992,-32.6618,14.1053,-30.7801,128.4310,-48.1459,-88.4923,33.1432,-163.0877,-21.6822,-144.5070,-184.1312,-147.7061,-78.4447
-120.9902,-98.8853,-156.9682,-227.0346,-19.0510,-205.5823,51.2502,81.4877,18.7100,153.8147,-72.5105,-109.2773,73.4857,-160.9443,-27.0429,-257.5713,-230.8968,-149.0980,-70.8396
-89.5776,-59.9820,-96.1949,-176.7155,69.2612,-92.0626,69.0449,122.6042,92.5729,156.4083,-82.0701,-71.3707,54.1947,-32.0018,47.4929,-278.8771,-154.1503,-136.4360,-76.6080
-23.9745,-15.4761,-24.1033,-77.2450,76.3984,74.5144,-1.0097,107.1291,77.0365,73.5452,-90.2228,19.5574,-15.9194,96.3444,37.7971,-203.1754,-38.7899,-120.3524,-93.2811
-4.5692,-31.2615,3.0212,-45.5548,58.4078,137.0005,-42.1246,49.5639,13.6068,-0.0723,-138.3719,39.3459,-52.8752,79.2759,-66.5217,-156.0956,11.9133,-32.0175,-65.9425
-30.2723,-113.3808,-4.2518,-102.5123,89.2914,73.3613,13.1190,31.7291,26.2995,45.6858,-185.7118,-37.4372,-6.1080,-58.1260,-80.1926,-148.3843,-8.2557,89.6626,45.7008
-43.5101,-180.0928,-4.9328,-173.3072,128.7206,-13.2490,101.0327,77.1465,115.7768,134.4054,-150.3537,-108.8950,75.3026,-168.9492,32.6858,-114.0135,-37.1368,149.2029,185.1862
-35.3408,-154.9312,36.3678,-174.6374,134.8259,-28.4749,141.9956,120.0513,200.1448,165.2002,-56.9828,-141.2145,112.9258,-156.0680,133.1472,-94.0662,-12.5853,176.1882,260.0440
-19.3627,-67.9575,97.9683,-80.4590,128.1132,23.5205,109.8528,100.5643,228.2009,138.7133,0.5838,-142.1082,94.8550,-69.8581,149.3954,-141.5555,61.9070,217.8877,240.7155
-2.3930,-14.6105,98.7983,26.3054,103.4934,54.4068,24.8747,12.2794,176.9097,72.4015,-6.2917,-94.6231,60.4457,-39.5990,95.5797,-188.8465,97.5176,199.2727,150.5518
-7.8837,-37.6398,29.3862,29.5365,49.5547,7.2532,-37.3752,-83.7512,85.5955,14.8465,-38.2462,-70.2945,30.2287,-107.2411,16.3221,-175.2592,48.5648,79.2691,50.7291
-31.7694,-100.4784,-7.4314,-54.8190,4.2460,-72.1830,-4.2034,-85.8944,52.6847,43.8180,-50.8290,-156.7193,4.1885,-192.5885,-5.9858,-150.7688,-1.0360,-44.1957,28.0967
-36.7869,-146.4197,19.4590,-121.3842,-15.1758,-125.3064,88.2207,21.7938,92.7136,133.1760,-28.4535,-262.6712,-12.5384,-218.6024,44.2718,-155.0604,-0.0062,-98.6094,88.3068
-31.2452,-144.2120,12.7630,-149.8397,-23.3063,-147.6246,136.8538,125.9409,126.3167,184.9594,-1.4218,-247.4417,-25.5867,-170.3090,87.0495,-143.3478,-22.3093,-125.3197,124.0612
-37.1493,-106.5628,-46.4804,-169.6356,0.4684,-127.5475,112.8754,122.9437,123.4554,160.7215,-7.1071,-135.0022,-41.6035,-74.4748,93.7979,-101.5023,-80.2078,-166.0701,60.8632
-21.6440,-79.6634,-53.2928,-156.2348,60.0552,-65.4044,64.5210,17.2796,94.6726,60.0336,-32.9530,-30.0258,-39.3144,-12.1984,77.6374,-92.3398,-72.8446,-195.7137,-64.1106
26.6187,-90.4800,17.2739,-110.0801,98.7483,-39.2545,13.4015,-112.5450,25.7578,-76.4508,-45.1731,21.5288,-18.1422,-51.3963,8.7246,-123.1166,7.5075,-168.2931,-167.8954
61.1608,-117.8425,80.5336,-90.5521,97.8418,-81.8540,-48.3097,-172.4887,-54.3156,-136.7913,-38.2168,27.3488,-19.8951,-127.0929,-72.7375,-119.0062,63.9946,-76.0039,-175.7247
66.8396,-129.7539,99.0237,-101.9060,101.1392,-91.6487,-90.0315,-138.7211,-81.0702,-100.1029,-24.9164,18.7253,-33.7652,-129.1311,-62.8861,-80.8903,74.2566,26.7710,-80.5677
54.4863,-116.3233,86.8017,-101.8749,118.9495,-23.4843,-72.2913,-100.7226,-65.1380,-92.6903,-23.0286,7.8015,-1.8595,-76.7489,-0.2752,-86.9088,67.6921,74.2259,14.4018
13.5799,-85.4369,44.0540,-95.9786,123.2005,12.6157,-19.4505,-131.3617,-55.1077,-149.6318,-37.1196,-27.6967,46.9283,-61.0258,13.7736,-124.6034,33.1521,65.1958,14.6281
-27.6088,-59.9034,7.5935,-96.0613,106.7510,-43.8161,15.5063,-182.8101,-48.1610,-166.6578,-33.8941,-71.9003,46.2287,-99.4821,30.4894,-127.9490,-7.4712,40.9595,-53.5697
-18.6460,-59.3698,30.3979,-80.4135,78.1593,-111.4034,21.3248,-194.1298,-36.4289,-121.7350,2.8293,-79.8309,38.0714,-145.1607,107.5200,-118.3322,1.1185,17.3030,-127.9579
8.3424,-67.5104,67.3781,-60.7714,47.8923,-124.1201,8.1163,-176.5342,-41.6418,-85.5362,22.2948,-64.2905,70.1147,-141.5596,146.5722,-117.2709,26.5621,-8.6697,-179.0730
0.8668,-58.1283,34.3246,-73.7129,28.4244,-104.2318,-17.4194,-152.5218,-60.8456,-84.2808,-2.7738,-43.7715,73.5642,-64.7846,93.1168,-68.8839,-1.9603,-44.4767,-181.5241
-10.3028,-44.1318,-45.9745,-108.8751,10.4185,-102.5385,-29.9819,-141.6388,-60.8579,-128.7837,-15.5924,10.8052,14.6732,14.7410,50.4872,19.4836,-64.7468,-124.4310,-172.9095
4.9990,-44.0542,-90.6715,-135.1215,-32.7156,-151.9057,-38.2090,-177.1052,-45.4286,-234.3788,18.6858,76.5398,-33.2057,8.1839,72.0468,51.9677,-102.5802,-256.5948,-256.7111
17.8803,-36.7922,-76.6070,-139.4346,-101.5566,-209.9603,-122.0354,-235.3206,-84.2587,-343.5314,54.8206,87.3826,-50.7547,-33.5344,65.2889,0.0097,-100.1640,-349.4899,-406.1313
24.0793,-8.6602,-29.8523,-104.5699,-155.5368,-177.6894,-273.0119,-233.9807,-206.9569,-369.2764,53.9486,63.8601,-74.7992,-2.4693,-28.9075,-69.7271,-58.8216,-303.7142,-437.3561
38.6930,9.1434,11.5461,-38.9055,-149.5130,-59.0218,-323.9940,-154.5921,-286.9975,-293.8362,23.4549,56.1800,-87.1493,69.3733,-118.8661,-76.0003,0.2434,-161.9867,-283.7856
35.1379,-6.2058,9.2853,-8.1144,-95.5042,21.2503,-214.2138,-64.6017,-200.1036,-156.1582,-18.8818,38.5629,-91.1545,84.3963,-100.4077,13.6117,22.0587,-57.8528,-92.8080
9.0019,-35.6663,-18.9646,-41.1599,-59.1656,13.8079,-110.9245,-13.0454,-54.5808,-15.9721,-46.7860,-3.1475,-127.9909,54.1141,-27.4199,115.3886,1.5382,-37.8511,4.7696
2.0796,-49.0504,-14.6575,-66.1407,-63.4432,-8.9881,-112.9104,4.8258,-7.4564,70.6640,-38.3067,-26.6952,-146.9145,35.6510,-14.8616,109.0580,-1.8859,-39.7406,25.8918
6.5390,-27.0997,8.1289,-23.4645,-73.4051,-3.9616,-120.9017,-3.7225,3.1611,88.1012,-15.6494,-28.5988,-104.1617,21.3328,-33.8295,26.6731,19.0227,-22.0758,16.6429
-13.0103,18.2513,-6.8764,41.2543,-87.1977,7.5172,-84.0700,-45.1492,56.7571,39.7075,-15.8098,-33.5922,-88.5119,2.6156,4.1166,-11.7270,20.1175,-7.0779,-24.5372
-24.9502,35.0383,-28.0637,64.2334,-106.4485,12.1916,-49.8526,-99.0721,73.4294,-58.0721,-35.6507,-34.0386,-112.3604,8.1527,59.0325,7.4575,15.6735,-6.7236,-73.6784
-8.6748,0.6954,-13.5812,44.9937,-73.8150,1.1491,2.5439,-112.3647,54.8567,-120.2901,-55.5578,-39.0196,-55.4340,22.7408,69.0229,36.2319,25.8417,-8.2756,-73.1047
-27.7970,-33.2737,-35.5074,-7.1182,0.8935,-43.4380,78.8333,-75.4797,91.7171,-71.3665,-75.4990,-67.6947,43.7916,-0.6440,70.8013,55.4414,-17.5332,-28.5004,-47.7167
-89.2622,-30.2891,-122.3110,-90.6325,10.6273,-104.8525,76.7256,-45.9544,92.3517,18.7127,-87.2855,-74.1040,35.0036,-32.9960,65.2599,47.8274,-130.6881,-83.5141,-87.2766
-88.8011,-19.0965,-136.6203,-145.2961,-33.6682,-129.8200,-11.7855,-40.0180,-38.8974,38.3156,-61.3405,-17.9930,-25.0317,-1.6001,1.5579,39.9922,-171.3351,-116.0705,-160.9223
-4.6202,-7.4049,-19.2568,-98.7644,-13.1492,-86.9837,-58.4665,-8.6982,-137.4293,-2.3710,0.4923,49.0733,-6.9643,73.2505,-69.6015,74.6162,-64.6926,-58.8073,-139.2789
47.9526,31.5385,66.0648,8.7084,46.9066,-6.3100,-42.4936,30.3977,-93.6065,-49.4838,39.7156,82.9625,24.8226,103.7912,-74.1249,75.2857,40.7411,53.7512,-35.4104
20.4667,68.2337,14.3512,67.5193,35.6409,48.8245,-49.0864,1.8661,-60.5659,-100.5633,11.9384,107.5072,-3.5722,83.4518,-55.3610,-10.7808,21.9869,137.3798,19.4902
-8.9560,46.7556,-49.1990,44.1118,-15.2376,55.8808,-67.4430,-72.8016,-94.6959,-137.4368,-41.1365,112.2004,-16.4169,72.1231,-54.0584,-46.3467,-26.7122,169.1730,23.1504
6.8275,-10.9258,-6.3233,-6.8020,-22.9890,50.5985,-41.5893,-111.9242,-59.7861,-123.1032,-39.3680,56.5230,30.9380,64.2632,-34.4614,18.3153,8.4421,162.7370,55.8895
41.2731,-39.0761,92.4258,-21.0152,-2.8200,58.2297,2.3351,-114.8086,34.8199,-75.4898,25.9176,-8.7307,95.9145,21.9723,-9.2618,20.5964,91.2358,124.8658,81.0783
69.5582,-24.9936,155.2987,20.8640,21.4319,62.2200,32.6785,-118.3021,45.3689,-30.4000,77.9177,-5.8917,147.7167,-16.5721,-28.8660,-46.5423,142.7336,91.2319,37.8506
70.4628,-7.5831,142.3237,64.6859,48.7864,40.6191,58.5112,-130.1689,-34.9852,5.7504,57.7362,20.4022,145.0512,-9.0599,-67.7593,-23.9751,132.5983,81.9894,-22.4551
37.8941,-15.5262,57.8927,50.9800,36.0745,-12.4515,61.2313,-169.2805,-120.2150,15.8544,7.7914,2.1766,67.8068,2.0753,-78.8755,28.4461,65.7010,30.1562,-51.5922
19.5501,-27.5982,-32.0968,22.0365,-29.7309,-70.0707,19.7102,-220.9400,-165.9067,-21.8851,11.0898,-2.1422,-11.5351,-11.4704,-79.2319,-31.6634,-3.6904,-92.8020,-71.4853
36.4426,-6.0451,-55.7185,37.2985,-92.8646,-80.9079,-28.4563,-201.2042,-129.5455,-90.4205,54.0306,49.9779,-52.1215,-9.1286,-97.8213,-90.4257,-15.3795,-166.8588,-80.5278
34.4038,19.6764,-26.8485,43.6829,-123.0701,-55.7005,-27.0249,-104.5592,-10.6033,-158.0341,42.6439,52.5569,-89.5361,8.6767,-116.6465,-26.4808,10.9408,-106.0445,-56.1654
7.0950,-13.2133,6.3875,-6.1326,-108.8320,-68.0372,35.4075,-39.3803,77.7632,-198.8761,-21.7910,-41.1750,-85.5113,-3.5043,-100.6738,38.3618,27.9094,-2.3217,-7.7811
14.2017,-65.0656,32.1334,-43.2005,-27.2090,-105.0469,108.4736,-32.3945,62.1273,-182.3204,-30.7761,-85.1801,4.8631,-19.1443,-54.3943,17.4852,34.5943,51.3010,57.9746
45.6682,-44.1906,41.1154,-23.8901,66.2873,-68.6623,130.8870,-1.6191,32.9340,-112.1704,33.8363,8.6070,82.3859,21.2002,-13.9928,2.4335,34.0651,89.5470,133.3390
57.5062,16.5105,44.2537,11.8581,81.6152,39.7525,114.7562,64.4602,67.1025,-38.9765,75.8535,117.3641,81.2199,88.8498,15.0927,33.4508,38.4900,144.0739,180.5598
78.7453,23.1809,96.0552,61.9634,52.5795,122.3146,105.4348,103.2355,74.0448,17.1239,65.3735,122.7622,94.5567,116.2713,36.0492,54.4380,95.3824,181.5035,188.6836
111.5701,-0.4423,174.5122,130.3346,56.1163,151.8738,78.7932,105.5233,-30.9967,73.0945,47.4030,57.6250,153.8763,106.6056,8.6527,57.3865,175.6986,189.1562,181.2656
88.0374,19.0352,168.1310,155.1963,62.1861,172.6497,21.3611,100.2256,-138.4934,98.5767,23.2239,5.5750,166.6427,107.3074,-43.8822,68.3584,169.2446,174.0630,149.5957
29.4402,68.9885,84.6740,138.3378,38.4769,205.2656,17.3571,88.8293,-102.2269,47.8859,-5.7552,16.4868,125.6289,132.8407,-4.1667,79.3402,94.5046,132.6582,83.9608
26.5565,107.8202,62.9502,163.0056,38.8323,239.4958,91.7388,68.3031,20.9980,-27.6976,7.4983,70.4613,114.3284,156.7327,109.3641,78.3905,88.0522,88.8243,20.7973
60.7764,119.7206,120.1534,205.8607,78.1677,233.1996,140.1029,48.9787,69.1146,-31.8806,50.5455,78.0610,146.2755,150.1870,137.3411,80.6014,145.3090,55.0945,-19.7975
63.2823,80.9230,128.0832,167.5016,97.1786,142.5568,121.9850,35.8814,14.5018,31.9573,55.2464,23.9641,164.9087,117.3398,86.5461,107.7450,135.2489,-15.8058,-52.9198
51.8722,10.2306,53.8449,78.9075,75.6181,29.4705,96.1769,38.7336,-53.4141,94.0043,26.0885,16.0475,128.2373,90.2594,84.0176,148.7874,50.6815,-112.2468,-66.2823
54.1785,-6.5539,6.0897,60.5742,44.6508,17.9219,67.5521,83.3790,-74.1616,147.7047,11.0576,75.6015,51.8788,90.1673,90.9665,161.4982,9.1652,-105.8864,-28.9511
51.7746,50.2737,47.5724,136.7198,31.8362,106.1037,29.1370,175.2228,-35.8242,211.3905,3.4530,94.3084,8.0496,115.2362,43.4072,145.7440,58.4038,54.9424,57.4852
52.8417,97.7609,119.1094,222.8627,59.9078,180.6529,38.3134,259.3592,34.7538,223.9647,-10.5947,62.0856,36.0651,151.2697,45.5978,156.7714,134.5141,232.7207,150.3874
69.3347,93.4394,150.5631,231.9760,119.7279,189.2886,80.2061,262.6680,66.0833,122.0808,-6.1336,58.5965,82.4145,166.1447,126.1646,200.2522,165.8562,288.0155,183.0159
75.2048,70.0420,151.3420,159.6725,148.5145,154.3578,57.4237,195.8454,28.0564,-28.9090,24.4294,62.2832,91.9892,131.7480,150.3956,208.5349,151.6924,244.7822,139.4754
75.3214,45.0757,156.7689,95.3445,113.9951,100.3510,-9.9058,149.3352,-13.3449,-98.2607,57.5727,37.8915,75.4089,75.0586,100.2216,154.3444,140.1378,197.4205,107.0379
90.1889,31.3737,142.3756,115.6280,63.2648,65.9607,-10.4605,155.7880,-1.2598,-46.4093,72.4620,53.2808,63.9327,56.7931,71.4518,90.0966,135.3093,169.6836,136.0212
75.8643,70.9253,73.4293,188.7475,34.7062,83.5269,45.4321,151.5338,27.6489,53.4546,55.7445,111.9946,74.4224,87.5613,57.9810,62.7110,92.6817,128.7533,118.6116
4.0108,149.2317,-2.8986,229.4746,11.6636,111.1954,51.4931,101.3995,9.7128,118.8283,13.9053,102.9499,84.4230,110.6292,25.2140,63.7424,22.3167,62.4757,-31.5899
-58.0184,167.7761,-20.5307,191.8689,-5.7411,80.0662,-6.3102,52.2926,-49.6260,141.9026,-22.7669,3.4058,49.3190,74.6775,15.3990,69.7900,-14.9180,-21.0113,-200.8751
-53.8928,84.4807,3.4477,94.9715,13.2633,-2.5212,-35.8650,48.5322,-69.1969,162.5801,-31.9897,-91.3747,5.8114,0.7487,47.8017,82.3591,-11.5180,-128.4540,-240.3766
-13.8315,-11.1936,12.5013,6.1703,48.2564,-67.8585,8.5892,76.2150,10.1868,170.8251,-7.6107,-110.5051,23.7657,-40.6766,88.4826,102.4675,-8.3398,-253.4613,-176.5415
12.4221,-29.2222,-21.1036,-26.2968,35.1034,-78.6863,50.6093,92.1196,134.2809,116.4044,29.4994,-42.1479,32.6402,-25.8831,92.7410,107.1673,-28.8370,-337.6856,-121.9657
3.1654,-2.6556,-94.3971,-24.0838,-22.1656,-59.6192,18.2828,75.8441,196.4172,38.3568,11.7738,58.2537,-59.8520,-9.6414,15.8745,91.7334,-72.8011,-317.7000,-95.9768
-31.1430,-12.2647,-153.0779,-25.3722,-49.2750,-49.0655,-30.5694,50.0107,157.6579,44.7781,-81.0266,78.1120,-155.2328,-34.7905,-102.3656,76.8254,-109.0517,-199.7300,-48.6192
-52.6340,-55.5178,-126.5202,-42.6924,-26.8347,-55.7552,-30.2972,39.9016,57.5519,130.2251,-139.1112,-4.9239,-149.2034,-79.3984,-149.1230,53.3054,-94.5813,-51.8325,25.8685
-50.2190,-74.5769,-50.6628,-80.8701,-10.8775,-65.7858,-29.0488,49.2956,-15.0250,187.4823,-85.9714,-85.1441,-127.2921,-117.5265,-120.4066,14.0060,-53.2589,61.2995,108.1103
-54.8020,-64.7286,-40.7587,-109.9518,-30.6504,-65.3896,-40.0037,93.7178,37.6406,202.2230,-23.8375,-101.7946,-161.1572,-145.0791,-90.3098,5.4332,-52.3999,104.9384,207.1994
-73.8878,-61.0529,-122.5976,-84.8240,-75.6674,-56.0718,7.1711,164.7596,188.2347,234.2415,-53.8304,-77.2973,-196.4275,-147.6942,-40.3209,31.9363,-101.3680,65.2711,279.5934
-94.6759,-54.4030,-218.8954,-42.6148,-146.5342,-57.6652,55.2556,176.4950,261.8781,253.1661,-114.0483,-25.7984,-212.9645,-125.2484,42.3547,17.4207,-167.6548,-19.8917,214.2520
-123.8537,-14.7323,-251.1013,-36.8073,-206.1957,-67.4481,-17.8098,87.2914,170.6699,202.9982,-127.7100,8.3021,-205.0063,-106.7453,71.4456,-43.8040,-212.4707,-42.5011,30.3791
-135.8647,30.7551,-171.3039,-17.6966,-164.4317,-42.3818,-120.3457,-6.9201,25.3486,132.7947,-117.7735,-31.7999,-108.6211,-95.1122,25.1379,-69.5347,-167.1977,45.3941,-99.3347
-82.2890,30.0053,-18.8687,36.5246,-20.1484,10.0286,-100.9922,-39.5302,-64.0530,85.1140,-101.4632,-80.6205,34.4472,-74.4978,-30.0161,-47.5819,-34.0856,103.2063,-126.1977
-9.1095,-6.8390,52.4922,27.0368,96.1250,5.8976,-40.8576,-67.2422,-99.6960,11.6005,-59.9764,-51.3123,75.6768,-61.6802,-69.8094,-23.7191,36.0763,-17.9488,-157.3697
-10.2492,-27.6204,-33.2062,-66.0886,99.5758,-62.2590,-60.7588,-104.9660,-97.3251,-70.1219,-24.1883,-9.8033,4.1549,-62.8912,-80.7925,4.9425,-43.0546,-218.9637,-198.0635
-60.4272,-19.0600,-142.1904,-122.7620,38.8543,-89.7506,-104.1895,-88.4956,-75.5450,-49.3947,-35.7649,-18.0922,-71.2976,-45.3518,-62.4830,38.7870,-142.2998,-300.6609,-184.3736
-61.5617,-1.2109,-130.4900,-87.9074,-16.0086,-39.2467,-121.4613,-25.4046,-94.0125,58.7671,-58.2902,-2.6321,-110.9243,-8.6114,-96.1299,41.8853,-128.5240,-244.8545,-164.0842
-6.5553,21.1309,-15.7476,-8.3407,-32.2455,26.3418,-145.5181,21.4721,-156.0567,108.3240,-36.7130,41.9049,-105.5696,16.3545,-177.6482,24.1067,-23.2613,-124.4996,-154.6273
40.4245,37.0784,117.1929,69.2685,8.4836,75.4326,-149.0191,44.3508,-170.1861,74.4860,8.7598,2.6834,-31.5127,31.1125,-155.9605,28.6959,102.1215,42.5706,-62.7288
44.4818,13.8450,188.6273,81.5792,65.4835,90.5173,-112.9137,57.1471,-95.9516,68.3613,20.5746,-114.2416,47.0385,33.5087,-37.1856,52.3758,172.5019,175.5894,87.0699
6.1599,-35.9624,130.3950,2.8570,51.9934,39.4884,-95.2196,65.5084,-16.4538,113.3888,-8.1687,-182.7266,35.2638,2.9620,-6.1247,59.3450,115.6335,172.0295,180.5853
-46.0492,-44.5439,-9.7926,-54.1685,-21.6587,-8.9138,-64.5672,94.7747,-11.0080,131.2609,-34.9405,-162.4272,-33.6971,-22.2726,-70.2733,30.4429,-11.0594,130.9743,254.2424
-64.3685,3.8397,-85.3125,0.7690,-45.1436,46.9359,66.7102,139.1264,-39.8364,102.2107,-35.6599,-96.2475,-58.5928,3.4750,-79.6143,-9.0429,-60.6530,197.0226,357.4905
-44.2227,42.1869,-59.2008,74.5983,13.0250,130.9417,223.8051,149.8091,-9.8947,65.8474,-25.8410,-29.0984,-16.7803,23.2897,-15.7134,-3.0776,-22.8933,270.4814,375.8983
-29.9395,22.8357,-20.4199,54.2874,74.2013,100.0720,267.1273,118.7785,72.0318,31.2727,-18.5656,-27.7981,37.7158,-25.3107,50.2009,40.0537,-0.8177,199.7109,262.2613
-39.8958,-32.7492,-11.3590,-43.8222,89.6275,-17.2530,200.7757,65.9732,91.8196,-6.6355,-10.4787,-110.2637,48.2467,-98.5572,81.8079,40.2886,-20.7696,53.8478,136.6641
-58.4348,-78.7161,-29.9269,-151.4789,69.6975,-112.8780,96.7704,-4.9976,5.8434,-30.5242,-9.1000,-168.3330,5.5841,-138.6654,31.4289,-6.0637,-62.9044,-44.2868,52.9997
-78.3334,-79.6283,-94.5662,-208.5981,24.0885,-153.3342,3.2862,-48.5764,-77.3234,-18.5748,-21.7475,-119.1815,-47.3075,-131.7876,-90.4664,-22.1824,-133.8764,-103.5291,-11.5282
-87.8991,-39.3056,-161.7149,-187.5644,-21.1248,-121.8233,-22.1314,-11.9440,-57.1423,40.0079,-28.9641,-33.2258,-73.4730,-68.6460,-162.1223,-3.6190,-185.6138,-156.6725,-19.6571
-69.3740,-13.3379,-147.3212,-142.5517,-29.4047,-33.2370,14.0716,42.9577,26.8190,115.8014,-18.4724,1.7803,-79.6070,-2.7706,-139.7950,0.2460,-152.8468,-185.8792,16.8963
-38.2691,-35.0743,-82.6777,-130.1076,-25.8580,-4.4807,11.4649,23.7640,81.0314,127.2203,-9.3413,0.9616,-82.5553,-33.4304,-105.0894,-13.3462,-86.9471,-173.6139,3.8138
-20.7317,-60.9902,-54.1782,-116.3203,-64.8834,-88.3391,-57.1395,-35.7683,76.2608,38.5466,-4.6826,-4.4391,-91.9289,-115.1307,-86.0254,-38.4080,-62.4704,-118.6630,-40.2541
-11.4567,-51.9306,-46.2552,-77.5279,-136.7124,-151.3674,-106.1893,-49.2274,52.6081,-60.5128,12.6042,-34.9580,-118.8189,-97.9208,-62.9407,-61.6777,-44.9442,-51.4914,-5.1255
-9.4237,-38.1248,-29.5667,-65.1773,-193.8958,-93.3509,-81.6399,1.6256,81.5817,-61.2822,18.5529,-89.8039,-156.2182,2.0731,-53.4634,-27.8794,-10.3398,-16.7320,112.7130
-35.6464,-52.3472,-56.8437,-97.9980,-213.0028,-10.2110,13.4501,86.9108,197.5363,23.6673,-23.7548,-111.7901,-175.4325,28.8011,-28.6190,40.1271,-26.8239,9.4773,226.7588
-78.3133,-78.6481,-124.9011,-133.0944,-176.8071,-19.1677,152.5222,144.6768,313.6255,97.0126,-78.6760,-80.8386,-153.8889,-55.7109,60.7225,29.0646,-102.4790,73.9979,267.2652
-93.5006,-93.5282,-132.5586,-139.5247,-79.6886,-97.8656,249.9862,108.3078,286.6124,107.6924,-85.9913,-61.7013,-83.6710,-158.5824,136.8910,-42.0081,-138.0654,133.0164,199.4318
-68.9443,-91.4043,-55.9126,-106.0998,35.3555,-160.7414,233.9281,12.6023,110.8373,83.4066,-57.7184,-92.1578,22.3711,-197.6579,111.0443,-40.1625,-91.2973,128.7443,67.5868
-24.9577,-69.9339,23.7647,-45.7361,121.4493,-164.1134,164.0006,-39.8685,-60.3860,46.8816,-24.9742,-108.8747,123.4344,-133.6208,67.4260,12.1225,-22.9411,88.8706,-19.5122
21.3494,-36.3259,66.1501,-13.0435,179.8677,-111.4875,139.1933,-45.0910,-119.7957,-27.6975,25.0351,-62.8542,178.3381,0.5570,100.0906,-5.6947,22.6056,47.1083,-28.4441
49.8755,-15.2746,82.2371,-34.5913,217.2585,-31.3546,155.0992,-63.3712,-113.0278,-130.2823,67.7315,-3.0723,168.0878,88.9242,115.4404,-46.1573,46.7247,5.9052,-11.8528
46.0434,-20.4791,66.0082,-60.9550,211.9021,37.0124,149.3790,-68.5666,-123.2412,-176.4100,36.3048,24.1868,95.9262,76.0651,15.4621,5.3234,46.2047,-3.5855,8.6980
32.8142,-26.5917,36.0858,-35.5254,153.5406,63.9094,93.1325,-20.2772,-163.9126,-139.1027,-33.6289,34.2834,2.8430,40.7363,-91.4836,79.1052,35.2315,35.1247,30.7522
37.0459,-0.5932,42.6979,37.0370,67.5430,48.2781,4.9408,17.7833,-190.2749,-104.2666,-33.1633,26.6547,-54.3774,44.8940,-73.6046,47.8688,52.5416,73.3608,24.4249
35.7905,29.5922,66.0483,77.8796,-14.1832,10.5714,-61.6898,-6.7903,-151.4489,-117.6792,16.7544,-24.8157,-78.3617,41.4864,-10.4543,-29.7091,79.1125,64.2525,-3.4005
-2.4510,-6.8101,26.6988,1.5143,-89.7762,-36.2797,-82.3963,-43.3120,-63.5968,-126.9181,-5.2915,-99.2569,-122.3108,-17.9798,-32.1530,-26.7879,40.8130,0.4581,-13.1718
-51.8615,-102.0321,-73.6384,-136.1420,-177.4002,-81.9858,-102.9728,-58.0969,-20.1346,-107.1362,-100.5870,-140.1432,-184.6782,-95.3474,-79.2672,29.4284,-57.5080,-85.4463,-13.7624
-70.5854,-153.0295,-142.2256,-172.7432,-249.7404,-90.8245,-127.5098,-74.4680,-49.3256,-80.7733,-160.5199,-130.6987,-189.8848,-119.0356,-38.3547,51.0720,-118.5002,-110.1431,-21.0241
-75.0926,-118.5936,-144.0896,-105.8541,-234.0175,-47.5894,-67.7926,-69.3697,-46.4316,-40.0338,-152.8704,-114.5198,-101.3299,-83.8000,52.7212,47.9128,-116.5376,-50.4635,-1.8260
-102.1889,-81.7915,-147.9258,-102.3726,-134.5667,-21.6292,74.7390,-13.0367,48.8305,18.0936,-131.9028,-129.3664,3.9364,-61.2160,116.9812,33.9345,-136.1923,-26.3752,41.3092
-130.8392,-98.0251,-193.9059,-185.1793,-57.7913,-78.4960,151.2124,34.2318,149.3667,59.1113,-124.9193,-136.0210,23.6416,-85.6976,159.4060,-22.0979,-203.3318,-105.3597,39.3801
-124.9219,-104.8518,-222.8663,-202.7101,-48.0450,-149.0373,106.5332,21.9835,174.8080,67.6766,-122.4017,-88.6652,-31.2068,-99.5528,172.5551,-60.3135,-233.1665,-168.9729,-30.3453
-116.1965,-46.1690,-196.7425,-125.8200,-39.5974,-124.7281,48.3378,-9.8320,133.0746,38.4854,-126.3861,-46.9774,-69.0648,-73.0401,122.5321,-6.8198,-196.9588,-137.9733,-120.3028
-143.9322,23.0015,-180.0923,-80.6829,-15.0347,-46.6362,4.6480,-41.2900,42.9444,-37.3620,-144.4695,-65.6214,-70.2779,-59.3365,35.5680,32.3271,-178.9289,-111.0856,-200.1218
-157.7449,21.1192,-206.4436,-109.4629,-33.0919,-34.9828,-100.8865,-86.8736,-44.8380,-97.6813,-159.9105,-65.0010,-80.3873,-70.9036,-44.1209,-39.2990,-205.6495,-157.5947,-247.2870
-97.3613,-42.9306,-185.4475,-132.8024,-87.0417,-77.3404,-216.2441,-94.5132,-39.0345,-57.2933,-140.3505,-8.7477,-87.9257,-58.3939,-93.3346,-89.0684,-180.1481,-199.2771,-208.1913
-14.0666,-96.8387,-67.3563,-110.7073,-111.4628,-68.5374,-213.9377,-24.6647,39.0941,46.7425,-88.2478,-14.6337,-56.0151,-31.6907,-74.1053,-23.7945,-64.7570,-160.4272,-85.3913
3.5746,-106.8104,32.8640,-89.9849,-101.9901,-13.3464,-131.5321,49.7802,68.6247,115.7989,-52.5352,-106.2417,-8.3923,-40.1011,-0.0671,21.5149,20.7857,-66.9841,25.7526
-37.2016,-93.5583,9.5540,-107.5774,-90.4684,-5.6408,-80.6557,67.0341,53.8451,135.0788,-54.3223,-141.1956,28.8979,-65.1659,48.1728,-13.9985,-17.7869,6.5693,65.4694
-65.3737,-73.0176,-66.4654,-121.7059,-72.1845,-47.7959,-46.2372,47.0916,97.1473,129.0264,-55.9980,-83.2896,62.7912,-57.5005,68.9337,-4.4084,-94.8987,14.4325,57.2093
-45.7220,-46.1532,-72.0788,-76.4266,-46.5886,-52.9313,6.6526,-3.8469,169.1571,90.5031,-40.6016,-25.6355,70.3392,-12.2624,113.1087,75.0555,-80.7705,-8.9025,19.1423
4.2496,-27.8474,-3.7342,-5.2777,-34.5726,8.4579,30.7220,-76.0762,167.0341,25.4841,-33.3829,16.3419,36.1265,42.6336,138.7966,115.0141,12.3270,8.4110,-31.3740
40.9205,-26.4323,60.5942,15.9564,-23.9084,78.4689,19.3374,-111.2558,119.5117,-38.2877,-32.2893,56.1244,14.6248,60.5070,111.4994,93.9918,80.7483,57.5608,-53.1641
32.4190,-20.2015,74.2273,-6.2722,3.2171,95.2414,3.1052,-104.2555,103.8709,-74.5110,-16.1765,50.4417,39.4010,12.6607,93.5641,65.6322,78.0939,56.2476,-71.8997
1.2385,2.7974,44.4357,-18.0589,15.5165,50.8865,-48.9285,-93.7000,88.8159,-52.5967,6.5238,25.6407,64.8649,-43.0780,94.5286,49.9062,30.4354,-15.0538,-139.9866
-5.4661,19.5666,4.4927,-24.6195,-5.9231,-8.9258,-126.6865,-53.5622,38.2350,8.0813,27.7196,54.6508,51.8614,-30.5734,73.6549,66.3149,-21.9933,-83.8148,-186.4139
15.4488,11.7077,-10.6977,-51.0250,-24.1874,-41.6497,-148.2060,8.9575,17.2743,23.0415,51.4492,103.0886,3.1321,14.5446,67.5830,128.0931,-41.6185,-97.3472,-142.7049
41.6857,-9.5448,14.4583,-72.1346,-29.0368,-61.6972,-141.8522,-3.9194,64.1690,-30.7755,65.4273,116.6044,-61.3070,12.9444,74.1213,185.2912,-9.5791,-82.3769,-114.6270
72.9085,-23.3229,66.3159,-58.9254,-56.2672,-87.1284,-192.6843,-80.4258,112.1563,-82.4663,75.6147,127.3034,-87.1284,-20.5197,15.5393,174.0520,49.1892,-79.9759,-165.7384
97.8004,-17.5546,106.0186,-21.3743,-91.1192,-74.8411,-225.3324,-91.1563,127.6982,-83.6221,104.5161,139.8463,-28.0998,-30.2299,-41.0132,96.6293,87.9775,-75.2353,-164.9202
77.0508,-2.1278,91.5943,7.0081,-79.1870,-11.1202,-134.9229,-32.9990,163.2382,-29.9809,114.3665,109.8473,70.9955,-26.9031,30.6396,25.5290,73.9736,-34.7559,-64.5788
13.0876,-9.5042,24.4466,-19.7564,-30.7260,5.9101,4.8757,-9.8671,213.7686,59.8556,65.3994,58.4875,128.1480,-53.6911,134.4402,29.4031,3.2611,21.4117,1.8642
-27.5999,-48.4493,-27.8851,-101.5080,12.5614,-86.4705,93.7381,-38.2596,195.7901,102.0548,28.1642,39.7671,129.1801,-109.6878,129.2048,78.1495,-71.1650,62.9164,-0.3987
-1.3185,-68.9737,1.9908,-135.4166,62.0034,-173.4569,140.0604,-68.4865,105.2650,36.7837,71.0133,56.6303,112.9019,-142.2840,89.0983,88.1957,-61.9129,112.1132,13.2767
51.2104,-27.0546,80.1469,-44.8168,117.9103,-126.9283,142.4732,-61.7316,29.0105,-47.8241,123.7075,82.1459,109.0387,-103.2516,95.8209,60.4569,27.0412,158.6193,34.0414
59.3635,34.8026,92.8140,66.6249,122.5765,-17.3677,79.6488,-2.2485,1.8749,-55.4890,101.8627,82.5956,116.0778,-22.1953,82.1358,42.6186,68.8520,116.0679,15.1745
18.1222,46.9796,9.2513,61.0967,71.9006,14.6960,2.5098,46.7385,-3.6554,-20.2307,41.0437,59.2283,108.4301,26.3021,31.6911,25.6122,1.2923,-11.1335,-18.7671
-5.4086,31.1040,-51.8786,-3.8544,43.4405,-0.6613,-38.5565,19.6741,-1.5863,23.5970,16.8968,85.5791,75.9196,44.7427,13.6796,16.5319,-62.3583,-79.1561,-62.1734
26.3595,57.4121,-0.6634,6.1483,56.7316,49.5000,-68.4055,-0.6985,-10.5285,87.8242,48.7210,178.5730,37.2660,87.4496,12.8708,61.5371,-20.8229,-40.6707,-119.4450
66.3135,111.1954,80.3874,63.8374,49.6740,136.1105,-122.6547,70.1991,-52.5834,110.8938,101.9207,224.4699,0.4914,131.5555,-37.2152,120.1900,54.8189,-17.8453,-126.3454
70.0855,129.1008,89.2196,78.9332,7.1005,164.7432,-202.9787,144.8146,-99.7919,43.1607,124.7288,179.0897,-29.9520,131.4473,-130.3424,112.7060,71.2517,-55.4827,-60.8529
61.6876,124.0111,65.1176,86.5538,-26.1617,158.1116,-275.2349,143.6577,-124.4419,-22.2199,113.3752,142.8196,-30.6039,119.8771,-198.0192,61.5122,62.0937,-59.3872,-3.6685
56.1252,131.4291,59.4146,117.2814,-43.3573,156.2897,-288.4494,104.3619,-145.7613,-16.9520,115.7754,140.0259,-13.6741,95.6962,-173.1455,15.3991,61.4933,-28.2374,-10.3198
18.9746,111.5225,18.4571,74.4438,-73.0782,92.0369,-249.0141,25.7671,-147.2076,-26.2112,128.6508,94.4654,-24.7063,-12.9691,-71.3930,-33.4483,10.0555,-62.9079,-72.3880
-37.5006,45.0127,-67.7195,-52.7341,-100.7382,-48.9531,-194.7407,-92.3364,-80.3775,-98.6294,101.6165,37.0497,-45.3957,-139.7623,3.9393,-64.7033,-89.8453,-129.6785,-148.9591
-41.4143,5.1889,-96.8117,-101.4535,-72.3933,-135.7819,-89.1701,-133.4029,12.0689,-136.2674,58.0550,51.3134,-20.0585,-103.4679,20.4214,-41.0938,-119.8944,-97.3130,-145.4022
4.5710,26.5380,-42.3323,-27.8219,19.2587,-101.6097,84.8464,-52.9235,35.2599,-72.0630,60.2063,78.5143,35.6382,69.6639,45.1759,-0.9584,-54.1981,6.3117,-17.8203
16.4554,56.9081,-3.9366,15.4810,96.5421,-40.0133,208.0399,24.1977,-12.6601,12.9096,95.4938,30.1270,70.5324,167.6878,67.5571,-2.3561,-12.6022,40.3557,111.8831
-12.3384,81.8338,-12.9978,-4.3216,86.3603,-20.7518,188.6631,22.8738,-63.9957,10.0963,125.8812,-28.1280,71.1060,149.9740,26.5436,-49.2361,-30.0245,-0.3894,117.9003
-2.3005,118.7730,5.5524,41.2536,25.2657,-8.2733,86.9140,-21.2110,-87.8035,-70.1114,143.6871,-8.0468,36.6740,143.7892,-26.6282,-106.8001,-2.5070,-25.0942,33.5512
50.1687,119.5001,64.9254,131.6642,0.2072,22.4763,-18.5937,-84.5937,-96.3443,-126.7304,119.2159,28.9947,-10.9519,157.3504,-34.6856,-107.0753,87.4975,-39.5172,-58.1269
68.8578,54.1100,97.4553,120.0521,15.6978,52.1968,-87.6353,-131.5945,-112.1083,-121.0590,45.3135,-1.2002,-9.9083,123.3205,-38.9363,-23.8107,130.7810,-84.9987,-118.5287
48.9694,6.3405,87.9341,45.5455,19.4321,84.3021,-85.1069,-113.0593,-146.2165,-116.6960,6.1988,-40.6806,46.1310,95.4016,-30.0607,31.8200,102.5728,-108.3918,-116.3811
46.5251,44.5499,75.4342,68.4178,4.4856,139.9585,-65.0109,-67.1517,-180.8596,-142.1944,44.1000,-2.3715,78.5064,129.7767,23.8761,-39.4898,86.4674,-60.2280,-61.4635
46.9186,108.4262,58.1022,157.4560,-12.6599,197.0490,-118.4804,-44.4455,-188.9163,-131.0959,68.6313,60.1787,53.7259,138.0668,13.0999,-144.1102,89.8948,7.5034,-15.3555
2.3850,108.6504,15.5420,147.7627,-34.5770,187.1630,-173.3780,-11.6303,-151.8505,-46.5729,27.1269,35.3341,28.5455,46.6973,-107.2213,-157.9783,47.3594,33.9617,12.1306
-49.7202,39.0224,-18.2505,32.3385,-39.3127,80.9744,-103.6611,31.6358,-62.5306,47.3025,-4.5380,-73.3686,48.7735,-70.5204,-136.5318,-120.7028,-17.7290,15.1396,53.3126
-46.5676,-38.2542,-3.5589,-41.9425,5.0645,-39.2879,25.9208,21.5134,35.8021,77.5796,13.0218,-162.8257,101.1585,-119.5600,21.4106,-103.6534,-23.6964,-28.9151,77.0011
-15.6066,-56.3078,24.7693,-8.4882,69.9155,-68.5158,90.7383,-35.6035,76.1335,47.7179,17.8150,-160.4455,149.3053,-99.1897,159.7304,-85.1881,13.8170,-51.2373,35.6211
-18.3100,-4.0699,11.7807,55.1136,110.0043,-31.8158,116.7817,-86.9460,83.9908,14.0547,-2.3010,-84.3325,166.3573,-60.8325,151.7360,-63.6890,14.8824,-9.2888,-33.3952
-44.5441,60.7572,-21.8326,69.4301,130.6540,-35.9914,152.8939,-128.4970,133.6154,13.3049,22.1667,-14.2239,150.8497,-52.2087,123.2714,-86.1496,-20.5239,50.0942,-64.2541
-48.2085,81.8293,-21.1034,46.5466,127.9895,-91.0712,135.8862,-142.0620,178.8637,32.6762,88.3388,-6.1474,114.9151,-79.6578,129.2844,-113.6690,-32.0011,44.1895,-63.4130
-28.6431,62.2715,6.7346,27.9509,65.0965,-110.8806,23.8085,-80.7975,117.1478,51.3064,102.2971,-32.3045,65.9770,-90.9160,71.5703,-54.1968,-14.7988,-23.0437,-81.2824
-14.9459,37.7504,16.5809,13.7991,-31.6504,-58.2015,-95.2593,19.0819,-15.7275,63.3062,43.6774,-40.2428,16.5512,-41.2206,-44.4760,51.4342,-8.1687,-92.8793,-118.2889
-13.7068,36.8148,2.2288,5.7886,-81.6703,27.8598,-118.2711,70.4113,-98.4927,48.5136,-3.4471,-24.0966,-22.6418,36.7299,-99.3052,62.3195,-13.1842,-126.8205,-119.4084
-12.6388,68.0391,-13.3455,42.2348,-78.8255,112.0077,-74.2180,72.2613,-98.7063,-2.8549,-0.1309,10.9637,-50.8502,78.1064,-60.0029,-30.8064,-5.8180,-94.2555,-67.1942
-4.2943,107.7161,-12.1586,117.2313,-78.9601,178.1065,-70.8233,79.2783,-70.6464,-45.5059,18.8320,65.7023,-43.6506,65.9641,1.9408,-90.3742,14.0238,-3.2070,-14.1698
17.6379,114.6578,26.3021,155.5079,-81.3690,194.9042,-99.6422,84.2459,-51.5892,-36.8353,51.6952,98.5551,19.1773,31.9010,30.3671,-52.0444,45.7267,67.3172,9.0972
52.1723,75.5859,98.7761,132.3088,-48.5444,141.9007,-33.1237,46.4084,-17.0058,8.2326,103.7125,59.1161,86.2271,9.3436,38.7814,21.6057,100.0819,75.0769,39.0399
66.9135,20.3986,141.0044,99.7036,11.3666,57.7768,140.8312,-10.5179,66.0807,57.8359,113.1765,-31.5376,113.3399,3.2549,62.7192,79.0264,141.7946,66.8245,92.4951
28.8186,-6.3979,96.5291,64.1496,75.3195,-2.5932,273.0191,-32.2415,143.4889,75.5221,57.3356,-94.2053,143.7462,-2.5659,82.4051,99.9415,100.3780,59.7477,107.0570
-32.1969,12.5508,4.0386,-5.7102,130.0420,-47.2293,276.6107,-42.7616,124.1769,17.7681,19.3109,-65.0827,178.8636,-15.5763,64.5497,47.4445,-14.9059,18.3230,10.5186
-56.6036,45.1928,-59.8588,-62.3597,128.0177,-109.5145,196.1430,-117.0506,39.8186,-93.0368,36.6496,30.0812,133.8033,-33.0239,59.9431,-65.5159,-102.0328,-41.1677,-167.3015
-48.9088,47.3449,-82.7078,-49.6966,44.5690,-165.9819,79.8736,-250.5298,-12.8498,-172.3255,45.1089,68.3494,24.9991,-60.3366,101.8311,-151.2283,-108.4107,-74.6518,-290.9532
-53.6729,21.9741,-91.9741,-26.2532,-41.7311,-177.3281,-43.5178,-349.0283,-51.0284,-185.5187,23.0336,-12.5106,-33.2892,-86.8748,85.5573,-143.5457,-84.8219,-97.3189,-277.1773
-57.4492,3.7671,-84.6920,-47.7852,-66.5656,-150.3320,-133.4932,-337.0675,-121.2436,-153.0865,16.0276,-93.5270,-43.9736,-70.0717,-46.2730,-47.5443,-68.9586,-137.8029,-197.2328
-17.4415,2.0381,-50.3541,-54.3550,-89.4092,-93.6881,-177.8969,-216.8219,-155.2463,-92.1466,32.7845,-54.8631,-83.8860,0.2967,-169.4965,61.8517,-35.9988,-174.7965,-127.3588
37.8867,5.4881,-20.2327,-12.3894,-152.5003,-6.0285,-182.3978,-59.3068,-98.4795,-35.0635,49.6263,34.8750,-126.8883,68.6070,-204.8949,76.7814,8.4407,-169.1017,-20.6854
42.4873,11.4064,-34.6308,10.7940,-186.6688,69.6481,-136.1639,46.4276,-15.2314,-4.8973,52.6947,58.2148,-132.1614,90.6223,-215.7806,-3.6174,12.1175,-105.3328,148.1267
-0.9933,14.3031,-86.4009,-7.4163,-169.2686,84.0648,-63.1354,80.2531,30.0684,22.9865,29.5077,21.8113,-148.3019,77.3078,-204.6853,-55.2035,-30.6429,-14.7113,283.8176
-39.0320,5.9285,-133.4659,-24.8520,-180.0855,48.5142,-17.1509,90.7466,31.5140,35.8383,0.5796,-19.0345,-191.1905,45.0083,-130.3058,-45.2591,-76.0415,36.2597,318.7849
-55.2420,-3.1088,-144.2827,-47.4501,-227.3831,0.5578,11.1572,95.9263,4.2018,-10.8185,5.3643,-56.2711,-203.6229,9.7838,-68.9276,-64.9222,-100.3824,32.9580,286.1437
-61.7529,-0.2716,-109.7546,-71.2006,-206.8428,-24.6585,78.8409,77.6580,-1.7542,-53.0137,14.2216,-91.1316,-158.5106,12.9826,-63.4016,-108.6350,-89.5314,43.0087,231.1781
-47.9225,6.6756,-45.8692,-27.2368,-63.0345,-0.9297,194.7542,48.4888,48.5345,-3.9022,-13.4928,-95.1431,-56.8176,55.4229,-10.7805,-92.9657,-31.7605,105.6557,193.9048
-14.4678,10.5209,-4.0489,58.9902,130.5642,27.3173,304.8463,24.6070,100.5704,61.7422,-26.6815,-41.0154,77.1400,63.4570,92.5222,-48.3915,18.1277,171.1296,199.7296
-5.2230,14.9488,-24.3545,55.6579,241.3131,-12.5226,334.8643,-2.6183,104.0105,39.7606,4.1719,34.4567,135.8761,12.8444,103.4995,-41.0827,-11.3112,177.6268,192.7132
-31.7496,14.6239,-64.2304,-37.8849,200.6193,-79.7389,246.0222,-29.3433,82.9212,-33.3154,12.0186,45.7314,52.9994,-16.5004,19.5662,-41.8165,-70.7168,113.4898,108.6885
-38.0072,-0.3981,-57.3870,-92.7517,83.1888,-89.8249,84.2614,-63.4430,38.2143,-103.2303,-11.3155,-0.0981,-49.7526,10.5034,-28.1488,-35.8898,-65.7430,14.0621,-6.3497
-4.0400,-21.2526,-34.4180,-87.3694,4.0889,-73.3029,-65.9073,-131.4560,-61.3299,-175.0509,-0.6453,11.7514,-55.7393,26.3360,-40.8134,-72.6440,-35.5461,-57.1413,-76.9351
13.9740,-21.5603,-58.6535,-79.0129,-43.1649,-70.1661,-170.4221,-183.0213,-184.9048,-217.8987,17.5341,90.8255,-51.6922,11.9420,-109.1789,-143.3715,-57.3827,-54.4268,-94.9124
-3.3976,12.8918,-86.1236,-37.5518,-111.4157,-20.3567,-226.7464,-125.4332,-262.5910,-191.8775,-14.0938,112.5467,-125.7201,26.3408,-200.7273,-171.5514,-72.8706,7.7988,-62.2356
-7.4606,48.8352,-56.9266,47.5304,-158.0210,72.2041,-216.2015,11.2334,-244.8175,-118.1429,-42.7967,65.3142,-182.6631,53.7954,-214.1957,-113.2989,-24.0200,65.8057,22.3535
12.9107,30.8286,-34.4146,71.6969,-148.2106,100.8801,-144.2999,110.9904,-122.5608,-30.5746,-23.9546,59.5507,-137.4185,22.4912,-151.6903,-5.6051,2.6100,55.7822,115.4071
21.3282,-24.5082,-62.9909,19.8938,-141.4255,76.3719,-49.5638,145.4474,27.5693,32.7670,-10.3704,80.1390,-60.7530,-24.6041,-93.0761,51.3025,-29.6077,-1.6453,186.5742
17.5538,-31.4688,-42.5205,28.3566,-143.1533,113.9964,58.3481,162.8275,111.6340,36.0815,-20.2680,18.3421,-15.2755,15.1281,-54.2110,10.3197,-0.1401,11.5088,254.1752
23.7734,26.7027,70.1346,123.1815,-75.4009,197.3790,179.1254,173.6656,149.6684,25.5914,-10.7378,-83.0109,37.7424,109.6080,17.6035,-34.2776,117.2289,126.7965,288.3324
36.0744,79.7587,151.5765,178.1741,51.5822,216.5332,253.4206,144.2181,164.2508,48.5848,21.4324,-76.7056,105.1412,144.9230,97.3991,-5.0018,179.6816,190.4389,206.3751
52.6871,104.3667,140.8302,173.7158,142.6055,174.8353,220.9716,62.1148,70.2183,33.0605,54.7369,38.9261,116.9823,113.1921,71.2044,19.9024,150.3294,111.6030,31.5157
78.0960,119.2122,117.3084,194.4769,164.8938,147.7013,129.0466,-15.4364,-99.7017,-46.3779,69.2734,120.6272,52.4552,88.5898,-55.2759,-15.0929,137.3013,18.8913,-75.7533
91.0838,90.8293,103.1686,204.9753,143.7338,136.8622,71.2648,-15.3948,-140.9313,-76.1469,30.6170,107.3488,-13.5808,92.6450,-123.1373,-25.6558,147.6959,5.1147,-33.2595
82.0270,20.3808,66.2610,133.4806,100.3940,107.8354,39.3520,22.3044,-47.5837,-48.2101,-25.7681,81.9814,-17.3294,98.3611,-80.6243,18.9668,113.8441,-8.6529,27.2445
78.1065,5.1988,59.8690,71.1034,60.2462,68.6316,-39.6907,-8.7612,-60.8170,-85.8227,-2.8923,93.7121,9.3030,89.6648,-55.1765,23.7211,83.5596,-43.8784,-36.7238
84.2129,60.5444,109.3367,107.5964,28.6857,35.8122,-143.7188,-85.1277,-237.3972,-158.7868,67.8479,89.1004,-6.6115,56.4427,-118.8122,-42.6022,110.6296,-22.5747,-151.6892
78.1769,69.5332,118.6991,142.1295,-21.8585,5.6097,-181.4780,-88.9129,-363.0389,-128.4589,66.2274,61.5525,-69.2545,-0.3840,-200.0881,-93.9662,117.3729,18.7101,-168.2876
68.0837,0.9861,59.2095,76.2545,-89.4482,-20.7660,-148.4673,-13.4815,-307.7271,-24.8757,23.1033,69.6983,-114.6803,-51.6713,-222.8352,-67.8522,59.8758,-19.2396,-93.9276
63.4107,-50.8657,19.4894,-24.3967,-141.2780,-41.0066,-109.2631,55.7359,-150.9610,23.8313,40.1190,81.3696,-116.5748,-76.1765,-178.7804,0.3691,10.4772,-91.1821,-19.9121
35.3944,-45.3156,14.1772,-76.8776,-165.3053,-56.7105,-81.1416,79.8278,-19.0312,-0.6939,66.6275,28.2411,-107.5479,-75.6966,-112.2350,16.0904,-6.2268,-84.5975,21.5174
-8.6976,-2.1215,0.3047,-47.9784,-149.7258,-36.8135,-50.4418,62.0322,15.8009,-47.6996,28.8583,-17.7229,-90.9970,-37.8758,-82.8012,-63.1566,-14.4761,11.1051,24.9211
1.2540,75.3917,23.2258,98.9863,-76.9939,54.1957,-17.5919,27.5386,-34.8221,-78.5792,-2.0158,43.0369,-38.9821,37.4004,-91.5654,-136.5502,35.3313,134.6098,5.5656
77.0267,140.8412,115.7052,284.7120,29.2990,162.2885,25.0771,26.9632,-92.0887,-63.8735,30.5691,147.6048,25.1612,90.6194,-94.6437,-87.4582,155.0826,220.7690,11.8773
131.5268,131.5010,190.7192,312.4811,130.8049,187.9329,67.9975,56.3198,-108.7008,-20.2710,65.4544,186.6459,54.8790,86.2899,-89.1995,20.2394,223.2298,215.4094,19.9692
116.0802,93.8119,180.9803,181.9471,208.7028,140.0449,71.2393,58.2483,-100.1336,4.3715,66.1392,174.9969,58.9442,91.0086,-77.9256,50.8102,177.3441,125.7972,-40.5900
82.9287,104.3465,118.5816,118.4119,224.5828,110.4302,38.8312,38.9792,-86.8466,13.5951,53.5374,187.7331,52.7104,151.9325,-29.6780,26.7885,104.2327,25.5912,-131.6925
71.6065,134.7244,46.5550,183.3892,154.2948,112.7973,-3.0688,34.6504,-95.2309,29.6932,19.4224,239.9076,12.3335,191.3866,24.7479,44.5460,60.4557,-26.5555,-198.5811
56.5859,135.2838,4.7582,215.5957,63.1825,100.5165,-84.9723,16.1620,-154.5341,34.1729,-32.1354,272.3500,-39.9207,146.8977,13.1660,77.7122,28.1624,-19.1506,-284.0773
37.5069,118.2335,35.6846,168.9737,30.0772,90.2996,-190.0882,-16.4561,-226.9193,28.4852,-45.4778,226.5591,-29.0944,97.0833,-27.9338,64.6884,30.8014,33.5344,-335.2010
54.3127,95.4684,105.5883,145.3561,49.4654,120.3505,-187.6523,21.1024,-232.7806,52.8306,-2.1694,139.3920,37.7470,126.0746,-19.9054,55.1114,87.2120,90.6266,-194.4700
91.8245,70.4972,131.0820,157.3303,81.8275,158.5744,-45.9581,141.8648,-164.7914,107.9703,48.8139,97.5227,71.3456,182.9474,1.3864,102.4828,130.4510,112.3217,70.5885
87.8914,60.5136,97.0470,143.6360,100.1516,152.2694,75.4564,240.4130,-92.0097,159.3497,61.2957,93.5661,47.7141,173.9642,-7.7438,144.6720,105.2051,115.7839,216.6962
37.8590,44.0851,40.3181,103.7015,76.6064,95.0855,83.6098,250.3573,-67.9845,193.8733,23.7483,60.8105,20.2602,94.3861,20.9253,112.7826,38.1650,152.5421,213.7474
-5.3963,-6.0126,-16.1258,64.4454,26.6936,21.1893,76.8529,202.7563,-82.6978,196.0583,-40.5143,18.3154,14.4899,13.6512,102.4226,43.3698,-24.0158,223.7898,201.2970
-9.1470,-35.6127,-39.1852,48.9335,14.8547,-7.8883,133.3665,141.2164,-78.4460,142.6647,-78.2791,33.3614,19.2413,-1.8090,102.1974,8.6949,-40.3841,264.3386,195.3604
21.4661,10.8400,0.5092,94.1809,58.8059,43.1604,194.4907,86.9968,-13.0788,74.5301,-57.2360,95.7570,29.5796,55.6022,-28.8302,19.8678,16.8085,231.9548,151.2807
58.3632,83.3126,71.9208,179.0773,124.2940,115.2370,201.4845,57.8975,86.9462,80.7847,-2.4763,129.5734,43.2087,122.9301,-110.0587,36.4553,108.0536,174.6407,110.2658
70.2291,102.4570,122.7388,211.6794,195.6250,123.1715,179.3207,61.4931,166.8172,166.5892,38.6758,92.5361,63.0295,138.7485,0.8504,30.8577,157.6957,152.4815,103.6058
67.6520,63.5627,136.4461,169.9690,240.6854,79.2965,157.0934,84.2009,208.2579,226.8264,44.4947,43.0949,89.8598,119.9885,164.8111,27.0596,152.8849,137.1325,103.0795
87.2626,23.7510,121.1195,139.8368,198.9940,59.3006,115.0798,102.1777,219.1202,191.5903,34.5300,75.7722,89.9182,115.4592,187.5822,57.4596,137.8258,87.4996,94.1941
112.6273,34.2774,103.5901,169.5010,97.2023,80.5333,43.8078,99.1180,209.0145,107.5589,37.7606,154.0759,39.0410,120.9009,112.7485,87.4908,140.2676,53.2648,68.1132
92.4846,76.9276,102.6612,193.3529,38.4951,89.4766,-16.2893,74.0744,192.3284,45.7212,37.8203,144.2256,-19.6885,107.3073,65.2055,61.9783,143.3186,72.9204,10.5607
30.9205,90.4414,81.0366,141.2106,37.3712,52.9656,-37.2266,44.2727,170.5307,33.6390,5.6821,52.1695,-46.0467,88.2622,27.6271,17.6962,104.2321,82.9711,-44.5162
-20.9867,75.9463,19.2921,61.2770,29.3402,17.4498,-34.1796,48.3812,130.4445,86.5519,-22.7627,2.0871,-55.0828,89.7336,-4.8312,29.3564,26.9108,63.6698,-33.4712
-34.0987,69.8743,-9.5057,54.6647,23.2431,43.1568,1.6008,105.9564,86.6873,182.7498,-13.9736,-1.8606,-44.3930,87.9040,59.0820,69.0217,-5.9227,104.1711,59.8969
-20.4112,35.7175,22.5019,94.0632,63.5694,92.6110,91.6358,160.5503,80.6406,237.7105,-27.9633,-35.9643,3.5089,40.7685,169.6605,57.2982,31.5477,200.5150,179.3589
-17.5698,-54.0403,16.6767,52.2690,103.6611,76.8455,182.0714,150.2648,131.2376,223.4804,-97.1942,-76.7316,45.8029,-37.3877,165.3050,14.8923,33.2598,214.1822,246.8498
-42.9674,-115.7242,-56.5028,-62.9581,88.3829,10.0635,210.8750,126.3811,225.9936,229.6703,-128.3247,-72.1423,45.4736,-87.6326,88.2027,30.1493,-44.8421,130.0566,259.8907
-58.1706,-92.1205,-83.0052,-109.3835,73.6923,-12.3963,220.0692,160.6456,336.5672,306.9647,-69.6769,-44.6036,42.5918,-78.3029,100.1298,105.2817,-85.8193,94.1904,284.1445
-34.9030,-41.2544,-23.7600,-54.4592,117.8577,28.7722,248.6960,189.0475,412.9665,377.0519,-13.9258,-16.4786,58.7600,-19.8409,163.0099,142.8895,-28.9214,138.2151,298.3330
-9.9866,1.1841,29.4927,19.2095,162.8042,76.9278,226.1206,129.2466,398.4865,358.7676,-27.4534,16.3384,59.1079,58.4213,140.8707,94.3750,37.4942,143.2222,198.3930
-8.3572,50.0752,37.5772,86.1718,133.9085,99.8484,107.7429,48.3670,282.3402,259.1953,-61.0740,33.9549,35.1046,101.0175,57.5655,41.2265,58.7252,78.0092,13.4055
-8.8838,62.5252,28.2472,122.0033,45.9563,80.6015,-33.1721,35.5168,128.1860,139.1077,-73.1863,14.6611,-9.3081,58.3062,11.5494,65.9435,53.3957,13.1570,-96.6902
-15.5016,3.8241,-1.0190,46.3894,-41.7023,5.0568,-120.2918,60.4423,27.9631,76.8715,-70.8362,-33.8287,-74.7920,-28.1182,7.7399,117.6875,10.7448,-28.4938,-79.4639
-36.1147,-50.2271,-23.9177,-86.3626,-72.1736,-71.4213,-127.0470,85.9012,12.5828,108.4291,-49.9453,-78.0276,-91.7331,-52.1030,-2.3391,114.0921,-45.9348,-32.2742,-17.2251
-31.5609,-32.6508,16.1792,-99.1130,-15.8871,-60.5562,-42.7489,122.7598,33.3510,157.5794,-22.2964,-73.7552,-11.4088,13.5806,-23.0105,72.6304,-30.3735,37.1830,30.5697
1.8509,8.0981,68.2209,7.8252,73.3455,29.7669,76.3364,119.2176,50.6775,111.0931,-32.0725,-28.2148,53.8163,84.3187,3.2734,22.2646,43.3941,118.6981,53.8849
10.1180,10.1758,45.4224,73.6959,111.3737,107.0540,127.2548,16.1305,77.5243,-26.4585,-74.1734,-5.9604,20.0346,80.6456,99.9422,-58.2862,73.4849,135.8089,64.8196
-4.8786,-15.7040,9.1849,64.7493,106.4379,114.3728,117.5635,-99.5849,108.0596,-127.5402,-85.5247,-31.9220,4.1862,9.8435,158.5074,-125.6470,65.2262,158.0151,109.3398
-1.7839,-40.1606,47.5574,41.5759,103.8512,62.8997,150.8405,-100.0988,110.0474,-91.7448,-42.7810,-88.3477,78.1107,-54.2055,89.4369,-96.3978,81.8821,221.6879,196.7660
1.6177,-56.9906,89.3020,-8.4781,85.9459,0.5513,237.9477,-9.3617,113.9274,38.0902,8.0235,-161.4663,126.3187,-38.7475,13.6982,-12.7562,86.8024,193.9782,257.2402
-6.7860,-60.2939,57.2194,-60.0655,59.4111,-6.8971,289.8903,58.1599,169.7215,127.0774,19.5698,-178.3482,110.2224,53.5592,63.3841,17.0807,48.8407,56.6705,247.7245
20.9883,-40.2749,34.1120,-7.8143,85.9151,65.6893,266.5560,48.7870,210.2407,106.9525,-0.9796,-69.7429,137.7239,140.7687,139.7045,-5.6905,51.0857,-5.8764,189.3493
80.3101,-2.1830,104.2330,119.5015,144.2198,153.2224,195.5717,-17.0151,130.0736,31.3708,-3.7557,46.5557,212.2847,155.4851,125.9469,-10.7691,135.6404,49.7317,87.3163
92.7139,37.7028,195.3834,162.7410,155.6173,173.8257,108.4670,-70.1607,-14.9686,-25.7059,34.2662,15.1893,231.3349,115.2124,92.8012,19.7633,202.6893,76.5026,-40.7564
36.2989,57.0938,181.5814,72.7925,125.4123,120.0443,38.0537,-33.6579,-78.3945,-36.9650,61.6727,-82.6378,187.9589,82.3005,87.5106,53.9144,147.9512,24.9064,-104.5088
-28.8614,19.4249,43.9991,-69.1489,84.7003,31.0734,1.9535,70.2839,-48.5976,1.3265,18.5469,-98.3141,141.9415,80.5877,36.5665,62.9505,-7.3244,-58.1600,-47.1498
-47.9202,-83.7668,-96.3029,-181.6476,23.9432,-53.0589,-25.2496,125.6655,-11.9493,54.8239,-65.2539,-72.7105,103.9920,72.2729,-29.7836,60.1133,-132.3801,-154.3252,56.5726
-19.1737,-176.3537,-105.6182,-206.7488,-21.3378,-91.2725,-54.1840,80.8577,22.6408,47.2971,-106.7299,-90.1984,66.4674,20.3410,9.4429,73.0592,-117.3242,-194.9525,95.2638
5.0644,-178.8746,-18.8316,-152.5975,-13.1652,-88.7531,-42.6207,-11.5357,78.4673,-37.2298,-88.4105,-132.6779,35.2998,-57.6577,114.2438,58.4012,-20.0403,-122.1102,50.1180
-22.2052,-133.1746,10.6718,-122.1111,-6.1644,-112.2145,24.9386,-91.9314,110.9706,-107.4279,-59.7287,-178.7050,17.1865,-127.2995,138.7762,-32.5709,3.7415,-45.4867,-6.0451
-62.5816,-122.1294,-44.8177,-162.5925,-28.2480,-168.3926,92.5638,-115.7303,95.8828,-89.9236,-39.2652,-201.4918,27.9097,-168.0656,75.0661,-108.0940,-64.3395,-77.4335,-8.6837
-52.9905,-128.7788,-90.7588,-199.8799,-36.8036,-174.9890,104.1955,-70.2786,76.3536,-33.0009,-10.2974,-132.7961,60.0087,-143.7470,22.2580,-61.2939,-118.6955,-168.7197,9.0959
-23.4555,-108.3106,-119.2260,-197.9479,-67.2661,-127.1178,51.0985,-44.7419,61.8286,-30.2706,8.4716,-8.2327,61.2001,-55.4730,19.7016,29.7480,-142.2055,-262.1384,-45.5487
-32.8406,-81.9643,-165.8142,-188.4718,-168.1114,-119.6324,-51.1249,-135.9628,28.2164,-102.7308,-5.0134,37.1829,1.3848,-13.8607,44.4640,37.7080,-172.0719,-352.0052,-193.9061
-51.1532,-64.1620,-169.1838,-155.6620,-254.0378,-166.3431,-175.7507,-281.6360,-19.9867,-206.4907,-11.0692,-4.8209,-101.5665,-101.6198,55.1494,-25.2053,-159.6907,-394.6223,-358.6782
-34.3485,-46.9304,-109.5079,-101.7729,-268.3900,-199.3705,-289.0050,-349.8262,-101.7181,-294.1277,11.5942,-31.0258,-215.7259,-226.5236,-6.0135,-89.2808,-94.4956,-389.2656,-460.5410
-29.2897,-62.4836,-102.5069,-115.5722,-284.2403,-221.3373,-361.1258,-317.3565,-233.1448,-310.2265,-4.9515,-42.1685,-276.5302,-264.7435,-132.4219,-113.5117,-95.4215,-394.4457,-468.0447
-83.3276,-112.7387,-182.3044,-206.6785,-299.5602,-262.5229,-363.0455,-235.4507,-312.9171,-214.3621,-88.6208,-102.9758,-212.8342,-224.4957,-212.0042,-75.1139,-197.5842,-376.1729,-387.5209
-131.8213,-130.5792,-217.9773,-250.6833,-226.9857,-276.4880,-283.9338,-157.1288,-244.9996,-80.7492,-137.5967,-165.2492,-55.9527,-162.3588,-180.7574,-22.3543,-256.0057,-281.1167,-262.7982
-90.5865,-105.6425,-137.8625,-192.5629,-101.0545,-226.5894,-168.0606,-141.8589,-117.1585,-52.6835,-78.0591,-139.7662,67.1098,-105.3141,-108.7846,-38.8731,-175.0188,-173.2312,-145.0484
-0.5777,-88.2554,-23.2210,-109.6743,-23.2288,-152.8871,-86.9731,-179.9047,-51.4758,-136.1029,11.5456,-61.9488,64.1112,-85.0054,-48.8864,-99.7797,-37.9002,-92.8794,-61.3017
36.4288,-73.6291,39.4155,-60.7937,-3.4690,-91.6721,-66.1161,-172.3472,-38.5183,-194.2879,30.9645,-22.6794,-33.7973,-100.1738,23.2728,-116.7282,39.7099,-5.0617,-36.3689
19.5511,-49.2472,48.6156,-41.1500,-8.0772,-54.7261,-65.5046,-97.5756,-52.7374,-164.3619,1.4256,-17.1191,-79.6929,-103.9058,74.4308,-79.9089,39.5117,58.7541,-65.1837
15.8440,-45.7767,49.8975,-42.8333,-5.7851,-56.0960,-26.9657,-42.8240,-102.4901,-103.4532,6.4840,0.7450,28.8146,-96.8846,39.3690,-35.5914,13.9302,79.3834,-65.1465
24.3202,-36.5143,70.7933,-41.1664,29.4944,-61.5590,46.2186,-29.3958,-135.4124,-55.2735,62.0213,11.5396,163.3758,-100.3510,-28.5023,-24.3512,11.4996,127.7409,7.9446
18.5479,26.8316,87.3942,11.5261,39.3862,-13.8850,58.7072,-4.2255,-105.0465,-22.7208,106.3765,4.7152,121.6312,-72.9744,-38.1859,-57.1870,39.0721,159.1698,54.7486
36.3407,76.1687,73.8043,99.9090,-57.4780,44.3686,-56.4726,21.9482,-59.0071,-11.2181,104.5714,29.0216,-48.5030,-10.9998,-7.4458,-74.3885,74.4080,35.2371,-7.8716
86.0284,27.7271,49.2735,116.1648,-204.1501,10.0716,-218.4874,-10.9274,-59.7034,-34.1620,92.4970,68.0247,-148.8028,-6.8479,11.4879,-32.4548,84.4051,-182.8808,-122.4445
86.9536,-65.8602,18.8155,-7.0167,-292.0342,-118.5673,-312.6351,-125.9350,-142.4967,-123.0052,88.1511,35.2194,-151.5641,-93.4433,0.1066,-15.3734,31.9099,-314.5256,-239.4263
6.1300,-112.3621,-48.8631,-175.0355,-311.1670,-246.4721,-334.9215,-284.7350,-284.6544,-269.7940,55.5997,-64.2973,-142.0724,-192.5162,-66.5704,-84.4700,-78.6456,-333.5480,-357.1345
-87.9745,-101.0609,-138.0641,-241.4768,-278.0825,-309.8540,-304.2180,-369.0231,-322.8762,-353.1565,-4.4007,-155.0522,-122.9782,-239.3794,-154.5485,-150.1339,-176.2192,-288.5539,-369.9335
-138.6547,-68.6573,-186.8750,-199.7788,-192.5544,-299.1217,-194.0432,-270.0437,-145.5914,-278.9186,-48.8343,-217.1942,-85.2986,-214.7508,-155.5359,-140.6575,-202.2759,-181.7939,-184.4616
-134.5228,-51.8788,-172.2413,-140.8214,-101.1545,-218.0860,-55.8220,-70.3232,46.5943,-135.8466,-75.3931,-225.1760,-65.3723,-131.8454,-72.1028,-86.3747,-168.2473,-64.7702,40.6571
-81.7496,-62.8646,-116.0754,-101.5342,-39.4322,-111.0106,-5.5519,26.9822,32.9303,-41.9389,-90.2993,-134.0144,-52.7720,-73.8664,-19.8755,-8.3844,-111.2453,-2.4045,91.4863
-35.1797,-80.9898,-57.1430,-94.1746,14.7830,-65.7842,-27.9184,-16.6901,-36.2367,20.1271,-71.3762,-34.8077,-19.4715,-104.0737,-4.8400,52.6642,-68.2627,37.6966,33.0105
-48.0223,-101.7334,-35.1866,-144.7501,57.5323,-103.1351,4.5415,-45.6523,69.8706,92.0279,-47.1732,-67.7774,8.5346,-150.9317,42.6924,15.6899,-65.1822,84.4232,64.4543
-75.4870,-133.7101,-43.9991,-197.3518,64.0238,-129.3052,112.3761,39.1943,255.8597,146.9251,-68.6616,-164.3781,7.1090,-136.4943,85.2160,-79.2744,-73.9096,94.6500,191.4448
-62.0001,-144.2812,-52.9120,-171.7970,44.6341,-86.1415,179.5360,153.4531,309.3261,143.6860,-98.1922,-163.0446,-23.1786,-115.1784,71.3647,-101.5646,-63.1749,60.2533,265.2981
-46.6577,-114.5473,-72.8489,-123.3117,1.4549,-50.9857,130.0855,154.7320,214.3793,53.0249,-84.0901,-98.4571,-75.8901,-143.6764,45.0866,-42.0863,-67.7477,17.5922,214.3966
-52.5384,-85.7820,-85.9957,-126.6982,-58.9209,-86.1274,20.7339,26.1939,69.3066,-89.8157,-44.4326,-100.0939,-105.1568,-159.5570,18.3248,24.0108,-82.3757,-35.1502,93.2139
-20.9959,-70.1682,-15.3559,-120.2302,-86.7401,-120.0933,-57.1458,-95.3066,-58.1842,-151.0323,17.6535,-144.5310,-76.5041,-102.2725,-44.7393,73.8555,-22.9956,-115.8328,-22.2056
49.1991,-42.5137,107.2482,-60.3195,-76.2657,-82.0540,-97.3780,-88.7136,-133.9654,-72.1447,93.5982,-131.4317,-29.7767,-20.8548,-103.8112,91.5459,84.7204,-199.3311,-105.2553
77.4628,-22.8840,145.5246,-17.2629,-57.6841,-11.7764,-128.1970,11.6276,-154.7423,29.8290,96.7520,-61.1589,23.2931,15.0621,-107.3577,58.3705,107.8862,-218.9892,-148.0284
48.1073,-26.1579,91.4770,-13.0896,10.8212,27.5735,-109.3413,88.8356,-136.8860,60.4425,17.9008,2.0349,112.4310,9.0126,-74.8405,10.4812,45.4884,-125.6386,-121.5953
8.7461,-21.2305,37.4528,-14.8637,137.0157,15.7983,-11.4208,76.4926,-94.0130,38.1759,-25.1622,19.8941,173.4751,-11.1732,-4.9916,-23.3938,-6.5308,32.0802,-28.7062
-35.0417,-19.4853,-10.9808,-53.1983,210.0242,-37.1218,95.0744,-4.3047,-37.2054,-34.8023,-18.3973,-21.2916,143.0089,-50.7780,101.3880,-46.2325,-47.2423,149.3626,65.9622
-76.3557,-41.8235,-47.2505,-118.6912,197.9051,-73.0017,151.1133,-73.5879,34.8223,-145.5277,-36.2379,-92.1211,105.7831,-96.0618,142.9301,-31.2416,-76.5335,196.7254,117.0941
-60.3878,-34.2951,-0.1048,-105.9680,184.3192,-29.3655,158.7920,-82.1313,95.9503,-206.1506,-33.2350,-106.2277,112.5546,-86.7249,63.4352,17.7938,-21.2068,196.8892,124.2137
8.8951,11.8758,83.0755,-15.6246,173.1089,55.7097,95.4713,-76.9118,59.2804,-194.9493,22.8555,-34.0809,91.7735,-14.1089,-29.1740,33.8623,78.3163,143.9595,86.3621
44.1125,13.4216,80.6259,23.1247,147.5520,91.5749,-5.2888,-96.7354,-72.5605,-170.8317,28.6512,20.9373,71.3660,40.6374,-45.0186,11.8721,90.3820,71.0559,43.6031
12.4072,-25.0959,25.1267,-19.0677,172.3064,67.0922,-5.0196,-84.8829,-135.0297,-114.2645,-16.2156,-22.5363,121.8605,24.9672,-11.1183,2.1607,26.9653,41.7078,60.7788
-36.1139,-20.6316,-5.2408,-56.4768,206.4670,27.7008,85.6721,-18.9020,-62.1283,-1.0071,-9.4266,-94.1040,122.9949,-29.5737,47.4149,-5.4355,-22.2940,13.5981,80.3375
-76.6371,3.1777,-55.7276,-64.6601,119.5711,-16.4676,72.0346,19.4479,0.0063,70.2352,-9.5778,-121.8194,-12.5425,-85.0188,104.9945,-22.1052,-71.3089,-85.3901,-13.0387
-118.5090,-17.1568,-140.7329,-90.1083,-35.5737,-78.3289,-68.8969,-6.7929,-25.3010,44.2406,-86.8132,-150.7542,-119.0819,-120.5574,102.9863,-10.8315,-144.3442,-206.0213,-163.3139
-144.5292,-44.8916,-190.7612,-144.6229,-125.5816,-141.2124,-167.9967,-39.2784,-45.3491,10.9064,-120.3206,-191.3947,-105.6961,-109.3242,67.1831,12.6379,-199.8033,-287.0194,-226.3497
-142.3925,-41.8976,-215.8601,-184.3073,-179.1437,-156.6557,-185.6652,-41.1916,-16.5333,21.6527,-82.6143,-165.4692,-113.0146,-59.5240,61.5340,12.2665,-228.1095,-332.1651,-207.2780
-137.6558,-28.7127,-239.8594,-161.7868,-222.7251,-97.8787,-175.7980,-20.5994,19.0635,28.0592,-118.7491,-88.3493,-171.3497,-19.0550,23.7529,20.9340,-231.6962,-289.4112,-187.5671
-135.4455,6.3560,-186.6462,-84.3750,-166.4991,-16.2981,-106.5594,5.3133,44.1878,13.3210,-181.7528,-60.8604,-150.1670,-7.2245,-85.7036,27.1835,-170.1467,-122.9425,-167.9757
-104.4846,66.7785,-58.9433,-11.6077,-26.0632,13.5129,-0.2665,-4.1990,38.0501,0.4481,-100.2406,-66.3560,-47.3971,-12.1957,-130.5730,-42.4469,-66.4470,27.5738,-129.3075
-52.9639,81.0126,-0.1255,9.3778,69.1967,-2.0071,29.5025,-55.8962,-15.1931,-2.6787,35.0449,-27.1384,38.9606,-29.0560,-54.8468,-124.0119,-23.2564,33.1505,-79.6846
-40.6849,27.2347,-55.7385,-31.0001,81.8172,-19.5674,-12.2673,-71.2241,-58.1407,22.0369,37.9621,3.3362,69.9837,-41.9193,-3.4237,-82.4412,-70.5492,-23.2381,-14.1027
-78.9212,-12.1428,-114.3678,-100.1035,40.7406,-39.1748,-38.4688,-10.2072,-44.0778,70.4756,-29.4231,-52.8437,16.5569,-23.0604,-27.2297,11.5771,-126.6378,-24.7859,54.8633
-88.6202,2.2678,-91.2978,-107.4758,-26.2022,-40.4042,-42.3045,49.3901,2.1959,66.3770,-32.5549,-111.9731,-94.4661,22.5717,-28.7953,-5.9416,-99.9588,14.5560,97.3951
-23.6186,22.1951,-11.9376,-13.8813,-52.6399,15.0404,-37.8663,38.1292,56.3712,-35.7710,-0.2010,-66.5697,-132.5317,53.2454,-14.8812,-83.3531,8.6519,45.5038,110.4068
27.1703,16.8643,23.4746,53.3791,-41.7917,55.1873,-36.2041,-26.0928,72.5681,-155.7747,-5.3498,6.3681,-100.3819,27.6454,-56.4435,-75.0591,69.5986,36.1921,70.4593
-27.5720,-11.8568,-56.2936,-25.4958,-99.8438,-19.9965,-85.6786,-94.0583,-14.8578,-178.0139,-52.5722,-36.5335,-147.0447,-52.0664,-113.8410,-23.7312,-20.9122,-39.2974,-31.4282
-113.1042,-68.1988,-160.4650,-158.4077,-190.4509,-140.2831,-133.2909,-105.3003,-120.0658,-68.3243,-104.4610,-167.4151,-218.5166,-118.8483,-128.3204,-30.4199,-150.7343,-131.8720,-74.2702
-105.7957,-120.5094,-136.2499,-198.0387,-141.3743,-170.6774,-43.4862,-20.0003,-65.5296,109.8122,-96.4808,-233.6815,-136.3481,-105.7621,-99.8063,-35.8821,-146.1800,-152.8198,30.0298
-31.4242,-103.3736,-9.1565,-145.9924,18.7827,-118.1709,113.8834,88.6290,101.4272,219.8945,-11.9526,-184.2305,3.1930,-35.1047,-41.5515,12.1072,-36.2102,-115.9851,125.7869
17.7163,-28.6573,82.6569,-68.3368,87.5188,-54.9718,122.5735,91.2553,153.9304,146.7364,56.3753,-101.3155,1.9258,12.4940,-26.0315,1.9611,54.5442,-96.7721,53.1146
39.1447,2.2336,110.4533,0.7234,36.7553,-2.3462,-14.5942,-11.0909,49.7771,-50.8898,31.5455,-55.5940,-58.0375,-6.9963,-116.0382,-110.1645,106.3057,-89.1103,-73.3080
53.6915,-47.3256,113.4099,26.2309,6.7950,15.5854,-104.1703,-87.1747,-50.9990,-173.4390,-39.0260,-59.1088,-31.2297,-67.3786,-197.2660,-168.7778,129.4517,-34.6157,-71.4886
34.4737,-88.5674,90.8894,1.1686,43.6883,-6.5808,-62.4876,-62.0324,-62.1901,-131.7336,-72.6655,-104.1112,7.7579,-97.0686,-151.0738,-90.0971,104.0506,68.7530,51.6436
-14.2809,-60.8568,54.0312,-37.2161,77.7695,0.7772,52.3177,12.3028,-17.0189,-30.4698,-50.7540,-155.2354,-20.8324,-61.6556,-67.6502,6.0579,57.7850,157.4071,192.3069
-44.2700,-29.1449,25.2369,-73.3491,54.2611,49.7330,155.5776,57.9814,52.3057,35.4514,-9.6952,-168.2262,-61.2446,-27.2882,-32.4447,29.7003,27.9547,162.5557,281.2453
-32.7833,-57.4767,-5.5355,-85.5847,-26.4467,42.8576,180.0967,55.4558,108.6830,78.1740,3.6005,-143.2286,-94.4639,-51.1318,-1.5210,18.5097,10.7295,89.2212,296.4435
10.8450,-99.3232,-23.6371,-22.0080,-111.4495,-25.8876,132.5078,28.6441,104.4629,91.0192,-20.2004,-105.9478,-139.7986,-69.1476,1.4645,-9.9790,25.1518,28.0912,270.4382
43.7203,-84.2705,-7.1088,77.7811,-133.0833,-41.5481,87.2819,-4.1425,76.3178,38.4508,-44.1899,-84.0409,-150.1278,-31.6887,-42.0576,-73.1527,71.2571,25.5976,229.2584
7.6311,-26.0683,-7.3152,94.2260,-93.1827,-7.3540,82.2972,-45.5160,111.1535,-32.7846,-39.7616,-111.8791,-107.2304,-21.0278,3.9075,-131.8224,65.3540,8.3213,134.6535
-68.1218,6.9541,-58.9893,17.2158,-57.0582,-54.3421,98.6382,-93.2409,180.1024,-52.6427,-14.5287,-163.5215,-67.0037,-92.9679,147.5736,-128.1870,-21.8448,-80.1049,-17.3085
-86.9146,-16.2967,-101.1722,-62.0781,-56.4252,-190.6842,95.6597,-124.7755,171.2382,-43.7339,9.3217,-148.3174,-51.0864,-169.5000,181.1680,-63.8039,-100.4838,-181.7902,-153.5266
-45.4522,-56.3259,-93.0582,-101.7911,-71.2565,-284.2930,13.7920,-130.0395,86.7615,-64.6724,10.6543,-63.2915,-53.4084,-181.1197,75.4320,-6.9186,-114.9641,-231.9856,-245.8252
-10.3954,-61.8273,-57.4787,-95.9439,-90.0913,-277.0450,-144.8999,-137.5160,13.8405,-130.6079,-8.5661,-3.2168,-86.1177,-151.2675,-7.7137,-33.7544,-82.4704,-230.7535,-321.1119
14.7886,-35.5644,-4.0889,-40.5964,-114.4821,-220.1698,-264.4482,-165.4490,-51.9346,-215.0981,-16.9953,10.7486,-118.5907,-111.2084,-62.7317,-111.4460,-17.0322,-184.7318,-357.1525
36.4788,-6.3862,43.0467,12.5315,-122.1730,-146.2450,-260.9725,-163.7810,-143.1976,-239.1142,-4.2617,21.1013,-102.6924,-56.4138,-134.6875,-112.7430,36.5968,-98.4963,-302.8951
21.6959,13.7949,35.2346,17.0158,-90.1639,-57.7279,-175.9349,-70.8219,-189.2654,-132.1007,2.3609,14.1840,-65.1941,8.9447,-114.8592,-22.3534,24.9045,0.8422,-145.4959
-5.4155,4.5630,-5.3350,6.7273,-45.8424,8.8556,-68.9013,72.2200,-143.5986,33.5380,-8.8848,-14.7954,-54.8885,40.3440,11.7933,38.3346,-11.3179,97.7875,76.7729
3.8715,-40.0973,-20.9744,5.9034,-39.7703,14.9555,21.6025,144.8294,-90.4220,105.5268,-18.7676,-13.3178,-69.9580,-0.0537,68.5363,24.5518,-14.7607,176.1888,245.6281
18.1924,-59.3023,-17.3085,-4.9718,-71.6489,-15.1597,37.5148,101.1167,-101.7776,57.2847,-9.1810,14.4135,-89.7314,-56.4236,-6.5814,-8.6163,-10.2165,183.0217,238.1017
8.9055,-19.7872,-6.7456,-12.5537,-95.6086,-23.1117,-18.8696,16.6572,-158.2455,-11.5772,18.7032,9.8183,-85.8299,-38.9244,-88.7340,-35.4492,-9.6736,109.5792,106.6405
8.9934,6.8268,21.9636,-3.2743,-86.7293,5.4112,-52.3783,-33.2998,-218.6736,-31.4424,37.7924,-22.8335,-38.6009,14.2893,-88.9026,-27.8206,11.9725,39.3313,17.6936
19.5027,-13.6796,41.4142,4.8311,-48.9854,28.5769,-14.0198,-51.8302,-221.9904,-9.8082,27.0040,-36.7465,14.2027,10.2036,-26.3164,44.5487,32.1964,24.3499,5.6029
24.4729,-15.2803,44.9541,30.9108,15.3080,13.6018,49.1276,-57.2463,-121.1586,20.8538,16.2389,-20.4217,43.8198,-9.6736,40.7805,105.8687,42.0365,23.2003,-13.2731
51.9794,4.1264,86.6536,76.2923,87.5134,-22.0758,85.5163,-36.2971,7.1403,46.6967,33.3817,7.2000,83.3136,19.3542,71.8136,84.6319,82.7012,-4.7555,-63.1062
93.9897,-22.8627,150.1032,61.4036,116.6489,-50.6795,60.3839,0.2150,39.3916,64.7236,46.9263,25.6564,107.4307,26.0586,67.2387,52.4128,126.3062,-64.7991,-128.9320
102.2264,-64.6803,150.7071,-13.5343,70.0465,-73.3923,-45.7096,-5.6442,-29.7436,36.0886,40.4229,43.0435,38.4817,-29.6062,23.9401,43.6668,109.2461,-147.0951,-216.4618
83.7907,-49.4590,91.1444,-37.9500,-22.6894,-93.7984,-170.5327,-70.3605,-122.6317,-64.3328,41.1737,76.9545,-68.5787,-57.0280,-64.4279,-31.6278,59.9290,-187.5226,-275.4209
53.5689,-13.4834,31.2217,-11.7185,-95.7638,-91.7293,-197.0730,-114.5276,-159.6101,-141.8421,32.2002,81.2356,-90.3525,-27.9120,-131.4756,-144.0034,20.9911,-113.8481,-216.2745
6.4892,-7.1976,-3.5700,-6.0247,-97.6461,-44.0744,-88.2181,-60.5777,-67.6467,-88.5954,-8.9478,19.0585,-47.7838,-3.5532,-103.1746,-129.5533,-1.8875,31.4014,-38.2590
8.0180,-1.5704,24.8260,39.3580,-28.6383,51.5317,78.4682,55.1027,120.0621,33.9085,-16.0359,-13.8293,-24.3707,22.5685,-13.3256,7.5639,48.3447,142.5502,171.2397
91.0980,16.0443,112.9051,156.9224,40.5302,162.5881,194.0269,132.3584,236.4166,106.0848,45.0805,51.3430,-18.8525,68.8257,69.5751,85.3907,171.3846,181.0892,315.9302
123.9691,18.9077,130.9353,199.7000,18.1872,220.8719,195.6477,139.4621,203.0069,136.5640,73.6613,91.0971,-31.4477,78.6967,116.5391,37.6472,202.5374,148.4645,325.3389
30.8742,12.3433,18.6859,113.5546,-90.3344,184.9913,116.4765,132.9918,139.3906,182.3427,5.4367,13.5614,-75.9998,46.0909,109.2959,-21.9885,74.8325,52.9551,219.7741
-52.1845,5.9386,-80.4807,43.5727,-154.0197,107.9572,69.3161,160.9816,164.1867,241.0126,-74.0516,-62.2903,-76.1184,41.3622,85.5543,3.7851,-40.5697,-38.3878,121.5366
-34.9440,-11.5588,-66.4403,36.5189,-80.7699,68.2500,115.0344,195.7442,243.1345,288.8313,-82.1936,-33.5787,15.4012,64.1583,118.6186,91.9616,-41.6289,-70.7868,87.2648
-2.3818,-32.7745,-22.8366,-9.7459,39.8091,39.5602,170.6267,173.9794,262.6602,285.8875,-41.3757,23.4663,86.3338,45.1333,176.9542,171.8255,-28.2667,-105.8489,20.5647
-4.7381,-59.9824,-14.7198,-110.5638,64.2919,-69.9355,121.3484,83.9720,164.3122,197.5672,-1.6657,14.6661,48.1350,-33.5317,188.3642,200.3300,-59.0173,-206.6544,-146.6974
-4.6200,-108.7969,-11.2082,-193.6123,1.3850,-239.3549,-21.9733,-16.1575,11.4606,80.2400,13.2252,-40.0135,-24.1839,-115.3699,169.6616,151.3310,-86.3198,-306.0033,-322.2816
-2.7228,-126.4979,-8.6775,-212.2748,-40.7266,-306.9883,-152.7254,-71.2227,-86.7663,12.7831,-0.2502,-56.7366,-49.7510,-117.9686,120.5363,24.2956,-92.0091,-300.0567,-382.8604
-9.0050,-53.5445,-15.3451,-131.1259,-31.7214,-173.2734,-196.9821,-81.0446,-114.2887,-22.0517,-23.8010,6.0633,-42.1396,-17.5474,14.2787,-96.2396,-69.4644,-171.1814,-306.8649
6.2876,38.6419,7.2670,16.7675,-8.9642,47.2784,-149.9933,-73.4846,-128.7076,-61.0513,-30.7274,83.3514,-20.3985,85.9440,-59.0142,-107.5206,3.5386,12.0002,-151.0947
41.7533,46.2152,60.1586,92.5091,12.9812,154.3794,-58.8364,-72.9582,-145.6995,-93.7663,-3.0486,88.1164,6.6756,81.4116,-29.6982,-43.9780,82.2661,129.0790,-1.4418
59.7126,-1.0163,79.2720,46.1747,12.6068,100.8420,-5.6286,-85.1383,-133.2585,-109.2454,55.6885,36.3987,-4.0396,6.9038,12.9206,-21.0976,95.9014,99.4701,78.2266
43.8598,-15.6462,37.0424,0.9288,-45.7291,21.6015,-18.5894,-68.6832,-56.5298,-60.7268,96.5427,-15.2315,-63.5521,-21.3414,30.3667,-43.5050,56.5279,-1.0842,115.6795
-1.3408,14.6661,-28.3443,35.0458,-126.1102,32.4578,-15.1758,22.0202,79.1718,96.4164,69.8503,-56.6079,-99.1370,16.0038,72.5322,-34.6377,11.5195,-25.5374,175.0531
-50.8979,48.3830,-76.9194,68.8548,-148.3807,80.3328,58.5634,128.0748,176.9651,237.5846,15.2739,-62.5442,-56.1154,42.1909,85.4121,-2.3600,-35.6456,31.5229,219.6983
-65.7156,48.4285,-97.3515,20.7097,-107.6225,46.5032,120.0385,132.6553,156.3983,206.3528,11.4142,-6.5262,12.6930,13.2739,41.9899,-18.3747,-88.2101,54.4753,165.8401
-44.7506,21.1618,-92.8802,-54.2936,-55.1400,-49.7206,105.2454,48.0547,104.4853,98.4274,48.3769,60.0307,26.7834,-23.5630,57.8533,-73.5597,-114.3628,15.7181,51.8087
-14.2208,28.5434,-64.2175,-24.3576,-6.6727,-74.5870,79.2186,3.3861,115.9630,81.9805,66.5669,96.2950,-5.1071,-7.6141,125.1543,-69.4517,-79.1588,-13.0302,-21.0346
24.6465,92.8240,-5.9497,117.9762,41.9086,-6.8349,75.5281,32.2644,109.7561,103.7287,72.1542,131.9510,-8.1049,42.4831,107.7980,24.2886,4.7521,-22.7893,-70.9038
68.2452,145.4305,83.5662,203.6885,84.2255,48.5782,26.0085,50.2817,29.3585,69.9767,103.9271,161.8168,52.9598,87.1243,38.8637,88.5675,85.8437,-44.6883,-166.5159
95.0300,163.2249,192.9833,167.6979,134.1706,95.3178,-63.1121,37.9647,-17.3885,40.2270,148.2696,165.4240,133.9786,161.6335,22.3235,41.3883,152.1344,-5.4301,-236.1222
114.8780,210.9128,286.0144,192.4035,200.5582,239.3314,-82.1723,67.0369,12.1065,51.2674,162.5207,194.6455,159.2670,287.0451,21.7774,-3.0851,239.8300,175.1714,-144.2105
149.8740,277.6321,313.9457,367.5982,242.4384,432.7801,-6.9234,154.1231,19.5950,47.0660,134.4062,264.3425,105.5040,376.9611,8.7810,44.0492,332.7130,389.3646,83.4581
181.1176,276.5833,282.4403,503.3158,232.5454,509.6328,73.9763,226.5474,-29.4303,19.8266,93.1810,298.5864,44.3857,363.1834,8.8789,62.4938,365.0869,476.7307,273.0543
180.0760,221.5484,255.6576,466.4083,207.6916,449.9818,109.8674,225.6720,-75.6358,-8.6946,82.3090,274.6572,57.7533,287.7560,-18.6728,-4.8794,333.8726,472.2063,321.2205
144.0649,189.3923,243.0748,353.2281,198.9879,355.4821,132.2700,171.8725,-67.6086,-47.2218,107.4368,229.6443,126.9177,205.3710,-48.3327,-11.6890,277.2793,487.4610,295.3407
86.0118,169.9021,185.4777,256.1069,199.4751,270.4634,186.9284,128.8624,24.9095,-66.3950,122.5776,164.4283,181.5231,143.1574,40.4674,58.7958,196.1277,486.4563,306.3418
36.4631,132.7207,89.2771,186.6398,213.3025,208.5829,273.6794,117.5501,151.3557,-30.9590,98.0230,103.5430,200.1514,130.6382,193.6230,42.2491,107.1431,395.0176,335.8330
18.3225,109.8482,30.2015,154.7165,237.4292,180.0915,318.2312,89.9270,182.0175,12.9601,61.9466,98.3224,188.5728,136.6318,231.6451,-32.1441,56.5001,252.8269,259.6316
9.6870,96.9126,20.1094,109.4092,229.3327,119.0507,247.8574,16.6918,111.6350,17.0494,45.4131,104.0866,156.3652,81.7017,143.9193,10.3106,28.7542,106.7440,56.9000
-5.1847,47.7797,13.9439,0.3513,173.0786,-18.3193,110.8158,-59.3245,77.5252,-1.6674,43.1698,60.4955,138.1950,-12.8653,25.1703,114.5499,-12.5453,-46.6559,-126.9288
2.4865,4.5888,7.8726,-65.2732,99.5955,-128.1976,4.8268,-97.1275,112.1109,-26.4144,48.5040,37.3581,126.5415,-38.9062,-84.2669,107.9448,-29.6852,-159.9529,-195.9993
32.4978,50.0488,21.2431,14.1331,16.3840,-102.0267,-78.4733,-96.0031,122.5009,-50.3777,66.6355,96.4122,59.0815,27.9096,-126.7090,19.0105,8.7524,-169.5184,-224.4950
34.5816,151.5660,42.0318,133.8769,-68.3366,23.1943,-175.9287,-50.3472,80.9508,-44.5974,80.4851,152.1786,-34.3187,110.2489,-66.6807,-33.2957,50.2798,-104.3891,-270.6378
-4.7943,201.7381,39.3713,160.7000,-96.0637,146.4617,-215.8059,31.7879,31.3161,4.6507,54.2363,128.1458,-49.2480,146.5667,-5.5006,-26.9853,43.1025,-30.2085,-253.8833
-41.9660,163.2931,-3.0359,111.6047,-57.4255,209.2300,-133.7836,111.1827,13.6409,87.1642,-12.2654,83.3390,-5.5520,143.0874,-27.6894,37.0005,-1.0391,33.7926,-108.7633
-38.1920,89.3868,-49.0272,66.9262,-33.7929,221.2228,2.4973,195.3410,63.2392,186.9521,-64.8693,88.5614,-1.3767,145.1170,-56.5656,144.2643,-31.1175,92.2111,104.6015
1.7784,52.8663,-38.6439,85.1860,-53.3249,240.3193,109.1173,315.7546,148.8511,256.5981,-55.7771,116.4099,-26.4184,168.5387,-6.4699,208.1595,-3.6933,149.7818,289.7389
22.9977,72.0094,-7.8633,144.3800,-62.2463,269.6274,176.2376,404.9437,164.6725,260.0238,-9.3107,104.6850,-25.3890,164.6722,75.8601,196.5613,33.1026,192.4920,386.6307
-25.3233,83.1757,-56.4895,109.0654,-49.2056,234.5475,202.9461,369.7537,89.3888,237.6824,5.8563,47.8097,-3.5638,107.8812,100.9007,189.0646,-29.6602,176.8020,374.1399
-97.2804,35.0497,-149.6671,-54.7092,-23.2704,138.3418,190.0017,247.7108,12.9938,217.2146,-32.9865,-0.3163,38.7412,65.3004,65.3754,204.4610,-157.1764,107.4626,283.1198
-98.6667,-11.6581,-157.2240,-137.7950,44.6154,78.1378,157.1564,125.1900,-27.6350,151.4888,-79.9655,13.1955,88.7898,89.0440,25.0215,176.3711,-181.5910,57.6421,158.8564
-39.1083,20.2908,-95.5570,-21.5988,110.0045,65.0586,81.0182,21.5669,-73.2201,45.3034,-86.1580,82.7786,69.9306,118.0683,-20.9548,121.2284,-93.4277,33.5108,11.0891
-9.7225,83.6392,-81.3314,88.1257,67.5861,29.6936,-58.3737,-35.9319,-132.1433,-16.8907,-47.1862,143.9820,-19.2737,76.5542,-107.7221,107.5701,-57.4167,-40.2651,-135.9502
-26.1458,86.3429,-100.2271,17.2345,-42.6584,-25.1338,-177.5065,-16.5166,-179.8463,-22.2065,3.1851,145.9663,-68.1784,-4.0582,-195.6308,103.7720,-108.1297,-150.4689,-231.6993
-28.9235,45.5075,-65.0000,-91.5504,-85.0267,-46.4949,-220.3890,1.8932,-216.6578,-32.3057,14.5937,119.7403,-54.7712,-31.1874,-237.9961,49.8860,-117.8320,-186.9294,-291.6890
-8.3203,43.2460,-2.8274,-57.3090,-72.7310,-19.7764,-274.7718,-65.1833,-256.7119,-59.5800,-34.1942,122.6236,-65.7432,20.2389,-269.4900,-20.8563,-50.8883,-117.0994,-365.3635
-11.2642,90.9427,5.9088,56.0335,-105.7351,35.9633,-367.7088,-153.1565,-290.0363,-90.3495,-90.6496,132.8709,-112.2698,75.9146,-285.2537,-67.6205,-3.0171,-18.1048,-409.3052
-43.7786,127.0511,-29.9740,95.1147,-158.3821,70.3705,-359.0765,-165.3740,-270.9104,-134.8261,-81.5038,98.4312,-124.9383,65.2185,-224.1189,-97.1945,-19.1961,49.7601,-336.6225
-49.6970,105.9500,-39.5897,64.1584,-145.2214,52.0621,-190.2721,-108.2793,-160.1127,-155.4871,-18.1615,46.5641,-69.3974,15.4365,-130.7072,-74.4798,-31.0279,108.9830,-132.8517
-0.3788,42.9046,10.4180,74.6628,-62.7327,52.6138,23.8426,-14.4109,8.5899,-85.2012,18.7564,16.1988,36.2478,5.5090,-80.5455,28.7436,31.0319,207.6364,158.1883
44.1874,-4.9019,72.2388,130.9379,51.5449,129.7638,206.0226,92.9829,147.0548,39.7811,-2.2852,-28.8557,135.4842,60.8715,-29.0991,115.7360,120.3347,317.3334,430.6117
17.4428,2.1381,67.1401,127.5972,159.9547,189.6738,349.8812,151.3596,197.8348,109.5359,-36.5387,-93.1415,176.6051,135.0180,46.8585,101.2231,120.0984,344.5786,522.1241
-42.2682,40.7249,4.6808,59.8233,220.8678,159.8819,401.3426,142.7393,168.6018,106.0093,-45.6790,-94.5289,190.1231,172.4380,86.9777,65.2099,28.3723,289.3805,409.8571
-49.7509,66.2350,-14.4262,39.0222,244.0784,134.2675,339.7653,153.1757,113.9727,116.4811,-31.8719,-11.4426,227.3943,165.1649,107.7379,93.8380,-23.2248,260.8377,277.1718
-9.2151,80.6407,37.3563,80.6599,263.0415,169.0266,244.8742,224.0976,80.8269,186.6666,4.5440,68.4189,246.0229,140.9082,133.2850,141.9417,11.3553,261.4415,230.5110
14.4262,102.6158,67.0016,94.3079,236.3811,166.1420,154.9539,270.4874,42.2271,240.3819,65.4293,86.4347,181.8867,106.4778,75.6761,166.9542,32.9605,164.7369,182.2247
11.2386,106.2928,20.3591,60.2483,125.8770,78.0919,36.7110,221.9134,-49.2424,170.5744,106.4982,68.1093,61.4848,57.5014,-69.4793,182.1138,-6.8473,-28.7521,85.1044
4.9203,65.9739,-50.6867,13.8379,5.6019,-8.9853,-94.4522,111.5327,-151.7626,-3.8551,66.4323,54.6688,-39.8659,30.0837,-161.6205,148.9442,-56.5080,-169.0973,-25.1185
-14.0778,19.0511,-98.3211,-47.7126,-61.1736,-38.5881,-203.5666,-0.0075,-202.9730,-136.4346,-32.5614,69.7778,-75.8660,46.8131,-157.4975,28.5819,-100.3208,-209.6721,-181.1913
-40.8900,9.6314,-124.1845,-96.3083,-122.1565,-35.2640,-300.2888,-77.3308,-231.5468,-154.2992,-92.9231,117.8987,-64.5095,56.9562,-132.0980,-104.4698,-146.4736,-220.5181,-365.4850
-31.3993,18.8773,-121.6218,-70.1616,-199.7635,-16.5380,-349.3957,-104.4022,-265.0670,-154.7808,-75.4105,166.3402,-71.3445,29.8115,-115.6658,-152.0768,-144.2793,-192.8364,-401.2289
4.9977,10.7068,-84.8041,-6.1905,-225.2034,7.1364,-272.6882,-106.6249,-255.1165,-210.1141,-36.2673,149.9988,-101.1492,-1.0659,-109.6063,-117.8810,-76.6025,-77.7015,-222.2025
-8.2782,-10.8867,-59.6255,-1.1910,-172.3031,-3.6195,-99.3731,-128.2171,-177.5526,-218.5349,-22.5383,29.3678,-79.5336,-44.5894,-111.7924,-77.8153,-34.2676,59.1228,-2.3023
-86.8117,-33.0767,-94.8819,-59.2166,-97.4267,-65.1129,56.9471,-138.8583,-49.7351,-77.7591,-29.3591,-137.8038,-6.1769,-128.4644,-77.8170,-86.4176,-81.3918,124.1378,142.0581
-146.1122,-64.1520,-149.3723,-117.4911,-30.8580,-129.5819,162.4967,-54.6474,119.6591,136.6930,-42.9554,-230.7440,45.7387,-181.3910,8.7928,-111.7715,-150.5860,150.0663,279.8179
-119.9671,-101.7723,-120.8982,-142.6072,52.7480,-141.8896,254.0483,108.0314,251.5114,286.0280,-37.2551,-212.9522,90.3136,-134.7545,107.9170,-73.9791,-139.1727,216.2358,430.4387
-33.4037,-118.6482,17.7972,-121.9271,159.0620,-103.0077,321.9695,221.5754,236.2674,329.4816,15.3720,-165.4140,162.5651,-50.1497,182.4399,23.9042,-29.5826,293.2480,490.6077
48.4772,-100.4344,170.0916,-59.6141,233.8629,-55.9760,325.0351,227.1599,143.5108,298.1909,77.0465,-148.9835,186.5511,1.4009,179.5817,93.6932,107.8668,281.8858,415.9517
81.1005,-65.7591,228.7315,2.6502,217.0821,-33.2185,266.0154,189.5044,122.2238,232.4106,83.4323,-151.3491,126.6454,25.0949,76.1188,94.3758,182.9442,170.3345,279.7330
59.2568,-33.5497,185.6151,33.1491,131.3696,-28.5413,177.2333,155.4769,120.5153,174.2100,54.3864,-156.3509,78.0800,17.0373,-25.8594,43.4825,160.4212,52.6021,165.0766
15.9877,0.5662,104.1112,39.5869,60.1283,-15.2275,78.0622,105.4433,35.8023,130.5125,54.6339,-150.0158,69.6612,-19.1404,-28.9782,-35.8235,86.3016,-16.4715,93.6174
-9.3641,30.6708,40.3787,22.0060,18.8293,1.9436,-12.6870,40.3348,-23.8152,66.4121,81.2077,-116.6840,28.7604,-26.2416,33.2350,-86.7994,28.7360,-72.9003,35.2506
-12.6860,21.6511,18.0265,-30.6134,-40.9533,-23.4653,-63.0475,-15.0966,35.7074,-17.7406,83.3924,-90.0701,-31.0965,-7.5217,103.2662,-72.5387,7.6111,-117.9502,-39.0015
-15.3798,-29.3571,32.8470,-91.5620,-94.4115,-101.4788,-61.8471,-70.0750,80.2801,-85.2751,48.6633,-112.5538,-39.2901,-43.3380,127.7597,-58.4471,5.8453,-96.6056,-116.4028
-22.2268,-62.7966,57.4328,-116.1830,-82.2566,-172.9089,-46.5524,-146.0859,6.2781,-152.2167,24.7410,-155.5051,-19.5859,-135.8548,40.6395,-97.0334,13.0904,-53.0938,-173.5750
-22.1326,-48.6035,53.8668,-108.4547,-60.6879,-209.3654,-67.7449,-241.6313,-119.4261,-257.6042,61.9883,-173.1657,-29.4326,-211.4101,-96.0637,-151.2325,12.8500,-104.0746,-213.0159
-25.5382,-40.9754,-6.5832,-115.6884,-105.4767,-254.9824,-124.4384,-336.4365,-256.6332,-356.6117,113.3080,-171.9530,-59.4898,-247.0413,-158.7082,-209.8906,-33.0536,-203.6224,-223.0766
-56.7965,-82.7060,-107.3854,-157.9349,-136.5816,-319.1075,-149.8635,-380.0524,-370.6043,-366.5229,67.8582,-178.7251,-76.5721,-260.9514,-177.7683,-260.9994,-123.3515,-177.4000,-155.2058
-99.5012,-139.7189,-169.7379,-207.6944,-56.7299,-351.4498,-89.6577,-322.1630,-329.8291,-291.8667,-48.0703,-209.0473,-69.1760,-267.4347,-191.0393,-209.1694,-182.3120,-34.2089,-13.1708
-103.3319,-172.6951,-136.9470,-247.3118,41.3376,-348.4464,-7.9548,-205.5949,-158.1266,-213.5078,-77.6528,-249.9221,-60.4630,-285.6766,-128.7374,-70.8927,-160.5769,14.7235,78.6617
-63.2413,-181.3186,-66.1294,-284.6406,12.2188,-347.5377,-42.7417,-148.9902,-102.4970,-195.7728,-3.6210,-250.8013,-104.3630,-293.9317,-62.8900,-33.9203,-112.0430,-117.7227,3.2846
-24.1087,-164.4500,-40.0449,-293.5177,-110.9374,-326.5027,-195.2748,-193.1874,-210.2447,-246.5461,39.5310,-195.4946,-193.2202,-232.6469,-132.0919,-124.7574,-87.8306,-283.8426,-163.2961
2.2889,-123.8287,-33.4940,-231.4404,-186.7334,-236.4498,-285.4632,-247.5052,-249.4848,-315.6579,24.2316,-135.2913,-225.0516,-120.3867,-224.9440,-159.0485,-48.7006,-340.3670,-232.4214
37.4466,-92.0133,9.8993,-137.2100,-162.5818,-108.7876,-214.8055,-225.6606,-154.8954,-332.4589,21.3314,-92.1404,-158.7781,-45.9176,-199.6912,-97.1018,25.7544,-301.3349,-171.6187
64.9703,-89.6308,54.7245,-95.5674,-89.5843,-32.4264,-109.1618,-162.2573,-93.3218,-289.2813,22.9955,-42.4140,-82.4695,-37.5634,-135.8402,-57.3711,68.4904,-229.0840,-115.2988
57.8495,-92.0132,56.8808,-105.0662,-27.4323,-34.5474,-92.8843,-141.2743,-115.4357,-250.6776,10.5877,-4.3895,-57.8300,-62.4904,-78.4815,-47.0992,51.4361,-134.9611,-114.0514
40.5671,-78.4665,51.4576,-104.7674,-5.2714,-47.7437,-114.5927,-166.2976,-141.6439,-257.5721,29.5435,-3.0506,-49.8207,-99.7141,-0.0459,-33.8322,35.9480,-34.2788,-90.4131
40.0571,-62.8806,57.0328,-87.0161,-17.3075,-20.5605,-86.9794,-184.6136,-151.4907,-283.4556,67.9486,-3.3217,-32.6542,-129.5031,-0.0638,-91.6832,44.9650,19.5342,-25.3900
38.8886,-53.7487,31.9042,-66.1496,-21.6810,2.6028,-18.7033,-190.4555,-135.6997,-289.2609,64.6340,19.3921,-18.2193,-128.5342,-90.2723,-218.3012,35.3850,9.6185,19.8163
27.4754,-38.9124,-23.7799,-26.6502,15.0311,-17.9666,33.9234,-201.9271,-71.9197,-261.4092,34.9450,43.0964,-3.7801,-99.6738,-105.4689,-262.1783,4.2382,-22.2534,29.0413
24.0619,-24.2149,-58.8055,12.5909,66.8902,-35.1720,27.0731,-192.0937,-15.8041,-199.6558,16.3803,60.7197,4.4550,-59.4227,-54.7978,-174.0298,-12.5110,-48.8247,32.5359
32.2175,-36.2537,-55.3935,6.5460,83.8806,-33.9532,-31.1725,-136.7872,-8.0942,-105.3028,-0.7097,71.2756,-15.6053,-36.2905,-61.7547,-79.6660,-11.1325,-63.7914,43.7029
41.8300,-71.4709,-22.8384,-20.2740,63.7062,-83.9992,-69.8459,-65.5595,8.2988,7.6722,-3.5000,49.8119,-37.1138,-70.4221,-63.4958,-65.0820,-0.9460,-50.3354,49.1976
46.4270,-88.1845,28.3313,-23.7464,36.8428,-179.8059,-64.5921,-20.2326,39.8490,83.9883,25.8165,-4.2880,-16.4581,-136.8764,-29.5652,-95.0407,17.3701,-40.7619,6.2929
35.5584,-67.1540,55.5360,-33.0076,5.4499,-210.6664,-98.8270,-24.7061,13.9402,52.0236,39.2883,-47.3281,7.8524,-139.8395,-82.9179,-121.1827,21.9583,-107.8892,-109.8008
12.7388,-39.5826,19.9263,-68.0023,-43.5947,-143.2784,-209.5045,-68.0860,-54.8110,-65.3144,-1.1501,-35.9361,-28.7677,-63.4979,-177.3254,-129.3508,-6.1144,-215.9917,-227.6082
-2.9143,-38.1481,-46.3351,-81.8649,-90.8329,-62.1016,-286.3973,-86.3495,-68.2849,-135.5601,-63.3228,23.9525,-92.1726,-17.0224,-158.5540,-122.4511,-45.9467,-235.9260,-248.8438
-22.5324,-53.2096,-86.6951,-66.3334,-102.7467,-33.5720,-223.3847,-48.8686,13.8652,-90.7828,-109.2306,52.3530,-104.6582,-66.4411,-62.1158,-123.0991,-73.6478,-140.3099,-181.5102
-66.4075,-52.6926,-92.4528,-60.0595,-79.8501,-48.5486,-63.0941,-25.1267,137.2625,-14.4388,-123.2394,-13.1849,-70.9801,-138.8518,30.5344,-142.1300,-86.0591,-13.8341,-99.6086
-101.0249,-29.5738,-86.6914,-47.2174,-54.3617,-58.0400,64.6966,-55.0489,200.5778,9.9514,-109.6804,-93.0459,-39.7955,-138.2341,106.6541,-145.0532,-80.7352,79.2006,-35.0036
-87.2110,-9.4448,-88.3833,-0.7026,-43.6915,-22.7763,90.6614,-75.3566,165.1822,6.6423,-104.6150,-77.3322,-14.1611,-63.7310,97.8817,-110.6160,-63.4411,103.9410,15.1336
-49.9921,0.6785,-93.5076,51.7268,-22.0744,42.1602,66.4171,-60.3430,121.0670,25.7487,-113.8319,-7.3875,11.0607,21.3528,15.7097,-75.8596,-43.0720,60.3993,49.1265
-23.8124,30.4903,-72.9841,103.3447,31.7388,90.7059,58.6253,-57.1427,123.8312,73.8528,-91.5513,30.0130,8.7332,72.3200,-3.9773,-62.7889,-6.7391,22.9090,53.3928
-2.1533,71.5438,-24.2809,158.5577,73.4358,96.8518,29.6212,-58.8632,86.6041,129.6989,-47.2053,50.2508,-22.7271,75.4185,8.8367,-34.3275,38.3727,21.8600,0.5969
14.8610,58.6573,12.2280,140.1893,54.9550,49.5429,-64.9095,-24.2597,-13.9878,155.3322,-40.0373,62.7584,-42.5577,29.5588,-53.9693,30.8999,44.5409,-20.3089,-106.0903
15.9851,-14.6269,36.3621,10.1534,17.5561,-29.6386,-154.3281,22.2099,-68.5322,121.3741,-54.0807,19.6084,-32.1559,-27.1236,-94.5647,96.2602,18.3871,-113.7184,-204.0824
29.5205,-67.3435,93.8226,-94.9896,15.6159,-62.3169,-185.7520,34.8382,-65.7383,39.0601,-37.6705,-44.9558,-13.6996,-22.8582,-49.9566,114.8555,40.8478,-172.4803,-246.7088
79.3617,-57.3396,159.2507,-51.1668,10.5846,-6.4500,-219.7467,9.7791,-90.6333,-61.0362,-12.0635,-39.6841,-18.2425,49.6525,-62.3791,73.5456,123.7284,-199.1394,-249.3754
112.2194,-15.3759,143.3662,62.6771,-42.4342,72.4913,-265.9308,-30.7017,-121.1481,-144.2443,-13.8449,19.7149,-61.0486,102.4774,-143.2687,15.0057,163.3424,-244.2570,-236.4872
71.7914,25.9788,43.6550,103.2633,-95.8895,88.1012,-241.0519,-55.7479,-92.0691,-172.1995,-28.6965,53.2041,-106.2183,75.0769,-135.3629,6.5268,95.5807,-255.2381,-223.9929
3.0006,28.7766,-39.8004,40.9264,-91.2371,18.3989,-142.0107,-66.0192,-19.4261,-154.0632,-43.1915,50.3083,-83.9804,8.4278,-25.6411,38.4827,-9.8719,-178.0485,-223.4566
-24.9019,-30.5804,-51.0786,-58.7139,-39.3211,-78.4941,-37.0261,-97.1770,70.4406,-135.9297,-66.8884,32.6793,-0.3104,-32.3466,92.5312,34.0030,-58.7118,-57.7040,-199.8059
-28.7165,-82.8377,-32.2632,-102.3733,21.8293,-87.8809,66.9068,-121.1255,150.5719,-97.8084,-96.7993,-4.1634,55.8002,-21.1957,183.7109,-10.1714,-45.8828,58.4640,-101.3309
-36.5845,-53.0634,-24.0477,-34.8431,67.4238,20.7765,180.3097,-69.9974,176.2685,2.2133,-107.4472,-35.1258,58.4936,35.0824,222.2190,-35.2619,-11.1902,148.9349,49.6398
-19.9719,9.1173,-16.0088,90.1408,89.8531,111.9057,266.8288,2.8775,178.6451,87.1428,-76.2224,-16.4248,60.6545,84.0014,215.4094,-42.3051,29.5167,183.1896,167.1576
3.8624,34.0354,-18.1532,161.1178,97.0846,80.9845,283.0860,-17.1640,199.7611,56.7560,-35.6553,19.0688,59.7740,58.8954,217.0457,-41.7181,46.4812,168.6711,174.6729
-24.9109,35.7603,-61.4872,140.8439,84.7633,-3.0041,197.1312,-105.7388,180.4391,-27.0310,-52.2320,5.8375,20.1382,-10.8974,202.1986,-2.6648,3.3482,130.5030,66.2271
-58.2545,24.7949,-95.1176,86.4559,40.1245,-49.5450,42.7433,-146.3107,114.5422,-41.1810,-100.3878,-29.4920,-22.0995,-14.5014,136.5527,37.9584,-41.0419,63.9165,-51.8215
-17.0732,4.8309,-41.1445,64.7209,-13.6155,-35.4959,-50.0282,-89.6575,85.8355,10.0017,-82.8558,-21.4163,-35.1454,66.3919,93.8343,28.7430,0.4530,7.1784,-63.6972
31.8169,29.8218,44.3860,86.1125,-45.8118,49.4108,-36.6810,40.2919,65.8729,60.0013,-8.6729,8.8228,-51.7921,125.4898,99.6874,50.7504,70.0736,22.2639,-0.0068
18.2783,90.8152,66.2496,110.2919,-63.8341,152.2390,-31.7978,179.9967,7.6641,107.1949,36.8263,16.2199,-57.3832,114.1355,82.2006,143.4043,72.5476,66.4774,52.1368
19.2612,95.3231,63.2489,108.9423,-70.7480,173.2928,-67.5632,256.8746,-10.4873,161.9398,53.5881,31.1895,-11.2836,102.1018,42.6122,160.6717,56.6479,54.4082,88.0255
56.7557,41.5519,62.6828,78.1597,-63.6720,111.3117,-60.2930,252.8223,-25.7874,174.7993,59.2783,67.2641,18.2653,111.6696,24.8781,56.2894,50.4313,-17.6328,80.8972
19.3109,-6.2386,-28.0553,-10.7297,-80.3581,15.9754,-38.1917,175.3188,-156.8428,105.9888,9.2844,54.0212,-25.0587,64.3623,25.4603,-2.7676,-50.1849,-107.6378,-22.9508
-87.0344,-51.6391,-178.8634,-148.0427,-120.4330,-97.7703,-53.7353,30.8425,-235.9864,6.7940,-68.0812,-24.8994,-43.8836,-44.4997,65.1913,32.2287,-213.7847,-151.1353,-122.7884
-127.9646,-83.0484,-210.8029,-212.8722,-99.1739,-152.1367,-18.6115,-93.4794,-75.4777,-44.6922,-80.8375,-80.1704,12.7859,-101.9109,133.7569,30.9976,-243.8091,-97.0723,-91.0013
-89.8721,-69.0077,-127.1375,-152.2556,-4.3144,-91.0433,81.7735,-112.1045,105.7507,-57.4166,-60.0108,-84.9176,39.4974,-76.2984,138.6071,-26.8369,-135.6013,-34.1236,-5.8910
-54.5084,-94.2625,-88.4999,-108.6109,62.9195,-47.9370,121.3104,-105.4831,110.9945,-81.2341,-93.7896,-109.1077,16.9627,-66.2380,101.5602,-58.0422,-67.4397,-71.3332,32.9022
-34.8568,-201.0094,-99.0644,-164.6622,68.2280,-112.8467,98.4175,-158.1117,98.5537,-90.9178,-147.3664,-148.4670,41.9477,-105.3366,136.0832,-63.7251,-71.0810,-113.2599,56.2155
-26.3175,-239.6217,-81.1806,-200.3519,57.8853,-165.0414,82.9041,-191.0650,114.6552,-52.9726,-149.0073,-136.7890,78.4802,-126.3422,186.2742,-68.5341,-73.1926,-65.4980,33.6834
-43.6947,-158.5079,-66.7352,-160.3649,29.7115,-162.0518,22.7077,-162.8425,35.8227,-22.4189,-114.1227,-110.8508,36.7879,-109.9646,149.1951,-35.9383,-79.6953,-47.1236,-73.7995
-49.4092,-101.1326,-60.7732,-126.8029,-19.7858,-175.8294,-72.3880,-134.9614,-8.2775,-21.1147,-77.5545,-132.9067,-10.5241,-65.8730,98.8343,56.0655,-74.8050,-104.2172,-127.8698
-18.8396,-71.3510,-8.4507,-77.2984,-55.7674,-124.6788,-98.0171,-71.2179,84.4791,32.7854,-54.7884,-133.2814,-12.2969,40.6572,83.6887,186.3213,-9.1607,-99.8063,-75.2854
-13.2171,29.5415,23.9633,41.6203,-101.0058,43.2199,-123.4837,73.2142,75.0121,157.2501,-78.3528,-60.9124,-74.2114,168.3862,27.9647,318.4606,38.5652,-36.7511,-82.9823
-69.9432,96.1887,-54.4459,95.1703,-163.9510,129.3496,-219.9757,195.2581,-72.9996,264.6021,-156.2371,-33.2096,-179.5332,191.0105,-25.8102,406.1588,-32.7828,-29.1354,-139.3925
-139.8128,21.7282,-168.0406,-11.0621,-134.2036,48.4643,-190.5363,251.6202,-42.8657,313.4131,-237.5656,-117.7870,-150.3542,123.6218,32.0527,428.8837,-155.4940,-26.2136,-36.0653
-167.2320,-54.2347,-209.1252,-107.4844,24.5509,-3.6475,53.2592,311.4516,175.7231,300.9950,-271.9660,-186.0786,0.5248,111.6730,135.8213,400.1802,-204.3895,32.5307,176.2285
-134.7081,-32.3322,-177.6928,-54.2603,173.2267,59.1378,250.9680,318.2000,281.7166,196.3930,-254.0116,-152.1411,82.0541,167.9720,175.6774,329.7932,-150.5849,63.6477,268.0961
-66.9719,3.8849,-100.4854,51.0099,241.8245,123.0751,245.9073,196.2035,228.4870,39.1088,-204.6243,-89.7668,66.5761,182.2393,171.9485,235.2108,-39.7428,67.1542,223.2855
-23.3143,35.6731,-10.7292,110.4510,293.9074,141.5162,163.8627,65.3160,142.3449,-64.3994,-142.8235,-44.1112,65.2867,129.4138,154.9566,145.0937,47.6440,127.7196,134.5104
-25.4077,82.4662,31.8964,129.9417,327.6187,127.2026,91.9490,22.6004,54.6977,-93.1118,-87.8811,-11.6391,90.7119,55.8834,124.9681,80.2084,58.7608,181.3469,33.9476
-33.7342,53.1621,22.5877,82.1884,303.6670,64.7017,50.1695,1.9602,42.1902,-79.9369,-71.0801,-42.3538,90.7837,-12.9934,120.3845,77.6156,33.7107,124.7117,-0.9867
