Fp1,Fp2,F3,F4,C3,C4,P3,P4,O1,O2,F7,F8,T7,T8,P7,P8,Fz,Cz,Pz
2.1999,59.4175,65.3543,55.5098,15.8716,-13.9900,-22.9531,-60.4069,-20.8780,-67.1033,34.3107,44.6023,31.5654,55.0964,17.7875,-20.6512,-7.1250,118.4631,-104.3838
0.6504,37.5714,14.3253,7.0649,49.2407,28.1128,80.6247,-89.3754,44.2691,-105.3432,36.6980,50.1194,82.5603,-1.7719,44.4731,-76.0398,-86.6977,107.2526,-66.5263
23.0537,30.0887,-30.9894,48.8424,27.7557,54.1876,79.5914,-99.5122,42.5934,-109.1212,33.3024,48.0341,32.0866,9.6034,35.6194,-86.0848,15.6568,69.9732,-6.6643
49.2122,60.0510,0.6133,101.4837,11.6144,26.4098,-19.4896,-85.0402,-22.3941,-70.8431,40.4580,64.7643,-0.0412,18.1196,4.5737,-50.6711,77.8539,60.8966,-35.7470
40.3755,65.6512,27.7499,66.6022,21.3471,-16.2059,-66.8986,-56.2251,-50.6430,-31.8913,28.8379,50.6106,17.2959,-36.8502,-10.4793,-35.0944,11.4971,68.8068,-82.0244
1.7818,37.7202,4.8038,31.2355,29.5453,-6.0646,8.0050,-1.3430,9.4906,6.4346,-7.2951,-8.4004,25.3366,-63.2461,14.7087,-37.1758,-25.9417,76.8752,-48.2387
-25.4394,21.7019,-28.4473,18.4657,0.8145,-3.3362,69.5821,34.1102,64.7272,21.6200,-25.1508,-27.5742,12.7262,-52.4685,42.4425,-37.5008,-35.9747,54.5193,-27.4862
-30.0525,21.0421,-53.9050,-35.9033,-72.7502,-70.1757,13.6761,-1.7778,35.4365,-16.2633,-19.2107,11.6570,-13.7677,-78.1655,25.1068,-46.4748,-98.5058,-20.9117,-90.6575
-37.7557,30.3289,-57.1791,-41.8352,-117.0707,-85.8303,-29.5480,-17.9000,5.9551,-31.8656,-27.7853,24.5081,-31.7925,-79.8071,4.8899,-39.5435,-129.5368,-54.7377,-129.5520
-58.6860,43.1333,-61.2168,11.3563,-120.3063,-38.4875,-29.7964,20.7354,1.5956,-6.0698,-61.0409,-12.1979,-37.8330,-49.7422,2.6773,-14.0455,-121.4934,-34.6993,-131.6956
-77.4684,21.3444,-146.8473,-80.6897,-207.3104,-144.3234,-178.8880,-49.9689,-100.1253,-72.0546,-91.8490,-30.7982,-95.0355,-131.6414,-56.7634,-34.0723,-219.2594,-143.8452,-238.1059
-74.3978,-19.9421,-237.8608,-235.2310,-305.5045,-312.3891,-353.3244,-194.5287,-216.2287,-183.2842,-82.3077,0.6362,-153.5939,-232.9045,-130.2428,-71.8513,-341.1276,-315.9818,-346.6191
-28.2246,-20.6159,-127.1414,-105.4193,-139.2318,-158.2768,-186.0004,-117.1334,-114.6090,-97.7043,-17.0819,27.3242,-60.7829,-88.3207,-71.8069,-7.4881,-191.3963,-217.5688,-152.1929
43.5830,-5.9048,120.1208,206.7373,199.5934,213.2787,170.1349,146.2276,97.7632,137.8685,48.7935,-12.1374,100.1218,177.8716,52.9930,123.7899,188.9025,80.5865,250.8109
63.0012,-20.9798,199.1157,286.7477,306.0132,328.2229,271.9674,251.5377,154.5584,237.1704,38.6981,-83.6137,115.2553,223.9004,75.9930,157.2996,368.2651,189.1736,412.1337
11.4167,-28.0643,60.4395,166.8331,161.2334,207.3416,178.8057,184.6743,112.2757,186.9878,-25.6473,-99.4922,26.7250,110.4738,42.7620,87.4910,232.1957,110.9847,285.5136
-13.9210,-16.4304,-59.2907,145.6206,73.4172,180.9871,159.1658,169.3380,117.4385,170.5689,-52.9646,-60.0907,-24.0893,96.2993,48.2812,49.8061,161.4957,78.3506,239.6608
18.9906,-23.6261,-45.5424,188.3714,91.3696,204.7761,175.9356,193.9968,129.9675,189.7457,-24.8832,-29.7047,-39.8884,127.4263,53.9447,64.0563,260.9032,73.8254,323.1153
17.1137,-29.6822,12.0315,138.2117,82.5168,127.9268,176.8840,166.9117,138.6768,154.9389,-2.7578,-22.4065,-24.9347,60.1807,54.0009,47.4387,217.7601,57.5949,290.1302
-26.2538,-27.4243,31.1137,64.6387,50.1477,58.5837,181.0257,111.0436,143.5236,67.5921,-15.8066,-43.4614,0.8076,-21.3777,57.8519,-0.1790,77.5532,70.8259,181.4444
-22.8371,-54.8014,5.3929,41.2044,21.4123,45.5386,104.9215,15.0425,67.0246,-32.1437,-32.9386,-97.7957,-45.7911,-34.8004,7.6074,-25.7197,124.4291,23.4574,159.9206
-4.4359,-59.7665,-42.4669,15.4929,-10.7303,17.0806,45.1577,-77.1100,18.6426,-81.3512,-28.7549,-97.6509,-74.1318,-38.1012,-23.4561,-47.2246,139.0421,-49.0028,120.3730
-40.2025,7.4397,-80.6150,-19.4787,-0.1957,24.0713,165.3412,-35.5383,127.9875,-52.5596,-15.2653,-1.4107,38.3390,-45.2900,72.3244,-94.6486,-99.3897,55.2727,-10.9366
-45.5929,39.8074,-72.0515,-39.8408,40.7497,67.2618,203.0571,40.9817,148.9960,-43.6346,-5.3271,42.6199,112.3510,-23.7759,126.0034,-111.8687,-187.4110,185.1832,-82.3504
33.1441,-16.1276,3.3864,-67.1088,40.1633,27.1133,-46.4528,-29.0688,-71.7478,-93.0158,10.8527,-32.6359,25.8291,1.4763,-3.9536,-46.4713,43.5841,64.7482,-66.0821
73.1560,-41.7983,93.7786,-91.5674,26.5618,-40.5160,-211.9610,-102.2235,-201.9185,-74.4283,31.0043,-61.3106,-10.1607,19.4691,-105.7026,41.3132,119.9908,-93.1594,-70.3936
25.3424,-10.3669,107.9838,-91.4114,37.8132,-11.6652,-90.9725,-16.6181,-88.2500,26.7814,31.8842,15.3679,61.6098,52.7904,-47.4636,72.1437,-53.3283,-42.9557,-59.8483
0.1988,-18.2878,66.6872,-99.3734,28.6127,28.7905,-3.7861,56.6590,-13.8615,60.7094,22.9585,55.6252,60.3719,79.5652,-4.2788,62.9430,-87.2268,6.4739,4.8813
26.4579,-44.6466,74.2497,-120.2345,13.3289,7.5228,-39.3415,0.6030,-49.4966,7.8313,40.2073,46.2478,28.4075,77.1074,-31.7452,54.7385,-11.3273,-53.0725,26.9858
39.2367,-17.6987,114.1608,-111.2766,34.4256,10.9349,-16.0474,-44.9600,-36.7744,-24.0048,70.0695,91.0387,76.0223,64.5059,-24.0369,36.6833,-61.2701,-33.6505,-4.6498
43.2059,18.3300,93.9662,-81.9152,33.3919,47.3590,-21.6308,-24.6904,-39.1818,-9.8263,64.1179,149.9463,79.3907,45.8105,-21.9294,12.9847,-102.0686,38.1670,-6.1478
50.8817,20.8847,40.9045,-75.1396,-12.5972,55.3876,-119.0120,-2.3826,-109.0984,26.9682,23.3227,143.1938,6.6123,19.4209,-70.8271,16.8791,-60.4333,22.6796,7.9687
27.3453,17.1934,21.8865,-95.0314,-32.0130,65.5490,-111.2023,26.2191,-99.5254,69.1832,-11.5667,114.5581,0.0202,4.4275,-77.0572,28.0438,-100.7463,4.2541,5.5387
-2.2838,5.2997,12.5756,-123.3560,-26.3331,84.3826,-16.1226,42.6045,-28.3779,65.9809,-23.2083,99.5956,26.0728,-3.2663,-41.5133,7.1803,-152.9574,26.7909,22.5191
7.0352,-15.4122,2.3331,-130.8599,-34.8559,67.0122,-19.5000,7.5464,-34.5241,25.5319,-19.8360,73.9700,-5.0863,-10.4886,-47.4186,-14.0890,-83.7757,9.9346,43.9171
14.7128,-7.6180,19.1952,-94.3703,-24.3972,55.5743,-47.3895,-5.5193,-54.9460,30.3376,-16.8856,49.4586,-10.5626,3.5365,-55.9195,2.7315,-39.5541,1.3986,29.1938
-9.8172,9.6874,20.9946,-56.9951,-5.7327,68.6013,-5.3148,40.2808,-16.2995,62.6979,-25.7592,35.8063,24.6783,18.1540,-24.3279,22.3766,-89.3014,26.5089,5.0214
-23.5040,-9.2420,-27.9128,-81.4229,-38.1800,18.3021,3.7462,48.8175,3.3243,37.6786,-29.0997,16.6867,7.3975,-10.3040,-4.1176,7.7889,-103.8667,-21.9065,-18.6277
-13.3085,-31.3384,-67.6440,-135.5118,-76.0963,-75.4382,-20.2939,0.2328,-0.0623,-11.0157,-5.0267,19.9267,-18.1540,-39.9499,3.0682,-18.1240,-94.4616,-99.4576,-59.5981
-10.9843,-13.9405,-67.5314,-134.0292,-55.4616,-79.6517,12.6126,-17.4356,29.7511,-4.1913,17.9580,55.3432,12.6034,-7.5714,29.7776,-26.0987,-121.5907,-67.6874,-80.7105
-21.9283,15.0544,-67.4451,-68.6211,-26.2328,-3.4789,51.4199,14.9146,52.3277,30.9200,1.9246,57.8510,32.2347,42.4975,46.6557,-17.2639,-119.1003,11.4060,-64.7245
-35.1949,27.1840,-68.6434,-0.4058,-31.2795,33.8644,48.9247,47.9029,46.5483,35.1547,-27.5943,16.9291,19.3414,37.5855,42.1513,-4.4700,-93.5822,22.8992,-59.6845
-41.1871,38.4457,-57.6093,47.7195,-35.0158,18.8825,46.7734,45.5260,50.1840,17.5515,-27.4548,6.5605,21.8312,8.4560,42.6643,0.0851,-102.6599,5.7248,-71.6831
-29.8288,57.9219,-63.4135,98.9481,-20.1325,12.7549,33.2177,6.5137,44.7640,9.6895,-8.4557,33.8271,21.7773,30.2040,41.7777,-0.4504,-85.8278,16.5406,-71.3033
-19.0845,59.5554,-80.5942,126.7797,1.8007,19.1324,0.7641,-14.7108,17.7228,9.7662,1.5171,33.8725,11.4404,91.6860,38.3458,11.1598,-33.7087,38.1051,-69.1194
-26.3761,25.6155,-65.8010,79.9673,27.1516,7.6026,-1.8121,18.4964,9.5193,6.3479,5.9914,3.6033,25.7375,114.1215,46.6682,30.8343,-31.1117,44.7853,-64.4463
-26.3195,-4.5962,-28.6848,26.1216,41.4837,-13.5640,10.0864,48.8729,17.1046,17.3625,11.0803,-10.2799,35.8567,78.0226,43.9126,39.4233,-39.4915,32.0915,-31.8056
-13.5067,12.1803,-0.9998,73.5017,40.4228,-14.3632,7.5146,40.5420,21.9501,54.6766,4.2521,-13.2974,12.5180,34.2859,22.8595,39.2900,8.1282,27.5023,11.2041
-17.2700,33.7170,22.1716,144.3039,36.5960,-4.9522,22.4459,34.3392,38.0012,72.6064,-14.2216,-40.6048,-7.9360,-1.5649,13.1732,35.2663,51.2773,38.8059,36.8809
-18.5073,7.8252,37.1105,97.5646,16.8771,-22.2210,35.7961,27.2794,42.6834,38.6343,-18.2286,-67.6468,-19.9040,-39.5876,8.1225,18.3161,65.9662,8.1889,46.1543
9.8385,-17.1366,23.5477,9.1612,-22.8656,-56.0157,5.5053,-9.3623,15.0898,-5.0068,4.6807,-40.8543,-39.0556,-45.7582,-3.9182,-3.3783,86.8521,-58.7690,26.5540
22.3226,3.4736,-5.5626,20.5608,-51.1581,-71.2598,-31.3858,-43.4089,-8.2582,-39.8324,23.4368,9.9548,-48.4052,-22.8975,-3.4536,-15.9318,76.4647,-68.6651,-20.1420
-4.8636,22.9740,-22.1231,76.9088,-68.1767,-80.2887,-54.5887,-59.5645,-21.6758,-91.1432,7.0467,6.8407,-61.7407,-44.7860,-6.6438,-31.0348,36.5473,-31.7940,-51.3148
-16.1482,22.6264,-21.3191,82.7085,-90.0261,-101.8962,-79.8915,-81.5251,-40.8146,-123.0216,-17.3610,-30.1476,-89.4566,-109.6924,-28.0704,-54.4626,39.0470,-31.7620,-63.1240
6.6316,32.0133,-11.0763,66.1941,-84.8196,-123.5581,-74.8860,-99.4668,-34.6804,-114.7604,-4.3312,-28.3239,-78.4158,-146.7263,-24.3854,-72.9570,53.5014,-48.2121,-86.0916
20.5115,24.5829,-1.4979,42.4487,-38.3144,-148.9455,-44.5833,-118.2795,-13.4886,-142.0643,30.7402,-17.1746,-30.4875,-164.2025,1.6572,-90.3631,27.5794,-39.3894,-101.3441
18.7710,-15.4070,1.6005,-7.7248,6.2184,-167.2728,-40.4390,-158.1063,-23.7737,-196.3055,40.1983,-55.4293,-13.2148,-179.7384,-1.3823,-108.8647,26.4880,-27.9835,-85.1636
18.2109,-28.5438,6.4727,-31.6090,29.5433,-129.6010,-22.6879,-163.4838,-23.3218,-168.3734,23.1493,-98.6121,-12.7766,-141.1728,-6.6659,-104.5366,70.2276,-5.6055,-63.8525
11.6290,-9.3505,17.7903,-1.1091,42.7449,-61.2347,43.8412,-103.3473,25.2034,-92.9322,10.7014,-101.0931,7.7211,-74.6431,22.2128,-78.9477,90.3518,30.6829,-44.1948
9.9133,-11.6722,32.9639,27.4219,42.6031,-40.6474,75.1152,-58.4627,50.6000,-75.7178,11.8859,-97.3305,7.5936,-68.0074,34.1327,-62.7249,110.1088,28.0223,-5.1862
33.1798,-12.6556,60.8680,51.1771,43.7213,-40.3036,38.8629,-55.3220,21.2173,-66.4612,18.3999,-94.8378,-14.1925,-81.8868,9.1796,-49.8221,171.8412,11.5929,28.7908
52.0078,23.4860,93.1474,107.9673,60.3995,-3.1661,-0.0345,-37.7296,-10.7422,-18.2476,20.1807,-69.7848,-9.1548,-49.8287,-7.6030,-21.7329,199.4121,47.3095,24.7272
32.4204,44.6575,88.5129,150.7066,55.6407,16.6013,-25.0869,-25.1887,-27.7189,-13.2152,5.4379,-53.8592,-8.1439,-34.3795,-16.3330,-5.7272,151.5123,78.8310,10.7994
-2.6719,19.0466,41.9400,119.7927,17.2913,-13.1521,-25.0325,-39.7366,-19.4421,-39.3918,-21.4248,-71.7723,-42.2731,-69.9688,-26.3549,-20.9891,101.9042,50.2108,27.9045
-20.6308,-15.0867,4.1392,37.1500,-2.3005,-25.5174,28.4876,-12.6453,28.5465,3.1607,-43.4373,-95.4398,-57.3964,-90.8850,-12.6808,-34.2827,84.7197,23.4555,64.4998
-29.1545,-42.1537,-9.9696,-50.6374,3.4040,-13.5686,64.7438,54.4194,55.2597,68.7963,-63.0194,-118.1416,-43.8454,-98.1050,1.9490,-27.7033,57.2715,20.9636,79.9385
-47.1538,-61.7677,-46.5135,-99.3455,-23.4598,-34.4300,24.1007,75.8366,27.5340,67.2358,-87.8506,-131.1422,-60.9860,-136.2356,-15.4461,-26.6636,0.0901,-6.2263,65.5812
-68.9183,-52.8825,-118.4820,-78.0810,-94.8113,-78.0952,-23.0644,53.9780,12.4265,32.8090,-101.3446,-89.0791,-111.8664,-171.8096,-30.3677,-41.9355,-61.3222,-49.6217,49.5241
-75.7590,-28.4695,-175.7896,-37.9329,-161.9776,-115.5765,-53.0601,23.1225,10.8198,-4.4457,-94.4959,-19.4158,-153.8179,-185.5206,-31.9789,-62.4220,-98.7192,-79.9923,29.2260
-67.5243,-22.2574,-188.5028,-53.1571,-187.2411,-157.0288,-120.6034,-43.9300,-41.6347,-66.1735,-87.7759,-12.1472,-169.3588,-207.5218,-56.4150,-84.0264,-112.1408,-103.4497,-32.2386
-60.2346,-25.9597,-180.4636,-93.6869,-172.7196,-180.6290,-183.1324,-116.8326,-103.0281,-110.5727,-86.6825,-51.0942,-155.9064,-198.7536,-81.7708,-90.5001,-117.9161,-113.3758,-110.0000
-52.5619,-20.7861,-166.9779,-91.0470,-148.1364,-148.7144,-175.0776,-112.0796,-105.2162,-90.1032,-71.8410,-45.8242,-125.6364,-113.0782,-69.3655,-59.7668,-105.4557,-108.7382,-128.8650
-29.1335,-5.6049,-125.7392,-50.4758,-123.1064,-81.3262,-131.1121,-48.7909,-77.9855,-37.8594,-42.0210,2.1071,-92.3504,-18.0686,-42.6005,-13.9477,-60.7601,-95.1602,-92.9835
4.5547,20.9523,-53.3653,-2.9597,-66.9576,-27.9273,-85.6191,-5.3870,-52.8004,4.2742,-9.7781,30.4410,-41.6410,15.8068,-18.8184,6.0816,-11.4800,-44.8083,-70.6125
32.4763,39.7411,9.1647,42.9857,13.8324,-19.8977,-51.8321,6.0933,-32.0654,22.6969,25.4249,26.7892,13.1020,18.8687,8.0299,10.3089,33.2952,16.6971,-68.1465
58.2502,34.2523,51.3999,83.7895,66.0831,-35.5448,-49.3631,14.7104,-30.9561,23.9423,61.4904,15.9586,33.4963,38.1968,21.6051,32.4945,105.8306,19.2839,-47.3211
87.5010,40.8338,120.2539,128.4035,97.9652,2.1470,-20.3518,38.7893,-18.2019,47.2782,87.7513,19.6318,54.7846,76.9585,28.4629,63.1056,186.6590,17.0740,-8.2502
106.2489,70.5826,212.0765,165.5957,150.4522,96.3687,71.2176,73.0205,32.9727,95.2862,102.9756,38.7237,116.0976,118.9656,51.0104,77.1013,214.9043,83.9018,29.2921
104.1321,64.5292,246.7556,142.4856,189.6110,138.8220,119.7512,90.0735,57.8626,111.9182,111.8153,49.4894,158.1418,152.1646,64.0747,86.7568,190.3797,123.2245,55.9047
93.7513,18.0943,211.9232,73.6776,187.4815,112.7092,94.0880,86.8031,37.3459,92.1373,120.2215,51.3833,154.6321,187.0200,57.7366,107.2926,155.5840,73.7261,69.1688
87.3146,-2.3137,186.6635,53.6320,192.9108,122.1220,102.7812,75.4599,39.1751,66.2213,130.2065,66.1541,165.3287,222.1895,62.2863,114.4185,125.4966,52.6949,83.6613
74.5661,5.8163,186.6654,85.0019,206.0488,167.8773,137.0299,35.0086,52.1352,20.3465,119.9978,65.1632,177.4814,213.6049,58.2679,88.5181,99.4797,90.6075,103.9150
44.2064,-2.6549,156.4024,77.2738,166.9107,164.6546,124.3456,-14.4346,39.6820,-15.3343,74.1799,14.9765,136.9082,165.1311,27.4921,60.3058,79.6247,75.7006,102.8178
7.3426,-23.0805,97.3382,18.3078,100.7358,129.4416,124.6925,9.4785,56.2282,29.1130,25.4679,-34.6005,89.8253,147.3403,24.2188,62.9687,53.0920,15.8306,85.0665
-20.7206,-41.7719,50.1313,-35.4137,78.1143,118.4339,151.5594,88.4528,92.2586,101.4092,-1.3284,-44.2887,77.5251,152.9578,46.6990,77.3755,11.7537,9.5415,96.3814
-35.2880,-65.2381,25.9616,-65.7483,89.0900,116.5054,114.6667,114.8853,62.8976,109.7976,-26.4233,-58.1455,58.0539,112.8290,24.2634,73.1683,-16.6923,42.7938,133.4899
-29.3747,-76.3934,34.1530,-75.6920,99.3940,108.3926,62.3641,94.1715,16.4919,97.1017,-42.0095,-81.7305,36.8508,54.7767,-15.3453,61.4472,-4.3934,52.9969,155.6079
-6.8247,-69.5824,61.3528,-68.7690,111.3816,103.7508,80.9698,98.7799,32.8667,113.7228,-19.8637,-63.2905,48.7086,48.1486,-6.5543,62.3571,26.0818,44.0209,168.0398
0.3401,-67.1652,49.1604,-51.5669,118.4574,117.0289,98.7399,118.3054,50.2377,126.1965,-2.6494,-26.1145,53.2755,83.4473,10.0976,70.7852,34.1992,51.6533,193.1658
-23.4480,-54.8386,3.0532,6.8621,121.5500,195.1867,102.4948,153.7778,48.5729,163.1272,-41.3006,-30.7509,34.5929,137.8821,5.7296,86.4400,33.9987,107.2052,233.3231
-48.3701,-21.6322,0.3528,112.7362,148.3284,317.9490,183.3727,247.9853,105.7259,262.8902,-88.6142,-57.8176,43.2666,191.7877,29.3607,116.0437,61.7785,191.7075,297.7556
-52.8241,-19.9200,36.2262,166.0673,182.1896,339.1419,269.1197,326.1661,177.7362,313.1816,-85.9687,-75.0718,65.0284,173.9520,67.1574,131.2101,92.9547,217.4903,359.7821
-43.3038,-60.6346,48.5388,112.3381,179.3304,216.9318,246.7842,272.6333,170.7679,227.0865,-52.6933,-101.6500,54.4465,79.8377,66.8107,98.6740,103.0748,153.6846,342.6695
-11.1473,-68.4970,62.1852,59.5298,162.5374,100.9086,199.9007,140.1527,135.9111,111.0175,-8.5150,-123.0305,53.6014,22.5421,60.1713,46.5412,135.4027,79.5734,238.0159
43.5495,-24.5063,107.2256,80.8444,165.9610,60.4736,183.1100,45.6950,119.5051,50.3893,52.6903,-92.5800,93.2361,35.7464,74.5245,23.0769,182.0069,40.4649,121.0965
68.3177,3.0208,111.5944,96.1472,144.0974,13.2727,107.9435,-10.3146,65.8398,-14.4687,91.0067,-38.0240,104.6019,34.3638,63.9208,19.3481,151.3168,1.0719,29.4290
30.5117,-5.9155,38.3423,56.9200,62.5935,-52.8592,3.6165,-52.4450,-1.1912,-82.9797,61.3113,-26.5740,49.6077,-2.6962,25.7493,4.4132,50.6283,-41.0672,-37.4863
-18.9473,-6.5794,-35.5512,21.4518,-19.5398,-74.1804,-22.4054,-42.4953,-4.6408,-57.3685,-3.4674,-53.2507,-14.7380,-30.9863,8.1862,-10.8741,-6.5059,-51.6264,-63.0176
-29.0917,9.6819,-59.8983,9.6007,-55.5368,-59.5472,-26.5925,16.6762,3.4859,34.1508,-46.5865,-67.8952,-46.3947,-48.2006,3.0266,-5.7506,-2.3440,-42.0388,-65.6928
-20.4926,13.2497,-63.0089,-9.7022,-78.3866,-45.9379,-89.0122,54.1999,-47.9746,52.8416,-60.4335,-58.5217,-63.0134,-47.4211,-20.0672,9.6665,-2.4364,-45.1851,-86.5265
-22.5145,7.1045,-62.5784,-12.6050,-102.8436,-22.0937,-138.3403,50.5035,-97.5639,6.3644,-60.3094,-39.5510,-76.8820,-0.3678,-40.1433,24.9338,-5.0421,-49.9289,-98.8703
-24.6098,18.7292,-59.3961,29.4121,-92.1403,18.2940,-113.6409,59.9314,-79.3841,29.1688,-56.5030,-13.4615,-73.1903,50.3517,-33.7494,41.4057,5.3855,-26.0268,-62.0139
-14.9570,33.3180,-64.3087,55.6398,-50.5545,49.1068,-64.9437,88.8759,-36.3001,99.5732,-54.1699,12.3556,-51.4085,31.7690,-20.1351,39.1689,-3.4142,10.5285,-4.8722
0.2739,10.6121,-63.8167,7.2993,-20.9904,45.7267,-46.9112,60.6776,-32.9381,60.5708,-42.5986,18.8036,-34.8532,-38.9124,-26.6694,-2.0730,-22.7404,19.4835,31.1714
9.8437,-26.7833,-43.8024,-56.5090,-5.8923,15.2823,-71.5824,-36.9932,-72.5500,-63.4377,-22.9109,5.4860,-33.4647,-84.6373,-53.7077,-49.6661,-24.2905,17.9771,33.7257
-3.1328,-17.5514,-35.5807,-48.6611,1.4461,1.9048,-111.4518,-92.2841,-106.7820,-91.5544,-31.1772,-12.8250,-34.9183,-73.1125,-73.8144,-52.9751,-42.7575,45.3802,-4.6000
-41.9896,21.4131,-57.0856,1.0727,-24.5335,16.8691,-109.1656,-56.5236,-90.6009,-25.6459,-70.3061,-30.1123,-35.4435,-37.0396,-63.3131,-23.4747,-97.2118,63.0903,-60.1322
-73.6204,24.2502,-76.0560,7.9916,-73.2163,-0.1703,-65.1020,-36.5452,-43.1058,-25.7777,-80.6275,-33.1556,-42.1813,-21.4364,-36.6871,-14.8949,-136.2976,22.2360,-84.1299
-65.5965,1.4160,-72.5140,-21.4781,-90.4379,-67.4861,-42.7271,-98.8836,-18.7593,-104.6588,-36.0423,-2.1719,-46.1098,-31.7329,-21.6640,-40.0032,-132.2125,-29.6648,-80.2776
-32.7128,-1.3116,-56.0306,-41.1013,-74.5716,-118.4398,-45.0067,-172.7681,-19.0625,-161.5521,15.6869,40.0902,-32.8810,-49.8246,-17.1316,-70.8383,-114.2586,-47.3265,-88.6572
-13.4009,-3.5778,-36.1384,-76.1007,-71.8206,-131.2149,-32.7246,-205.0870,-15.7305,-186.0436,32.3317,42.4350,-17.4481,-76.4997,-16.0665,-93.3075,-106.9906,-66.2011,-107.0518
-17.5978,-20.2291,-31.3831,-128.4541,-89.0735,-133.1956,-34.8343,-205.2971,-23.5181,-188.8328,15.6539,14.2554,-26.8951,-98.2620,-27.7933,-101.7391,-107.5555,-83.4825,-112.5299
-18.2285,-1.9342,-44.9183,-103.4647,-101.3607,-97.7160,-75.8083,-158.6086,-52.6715,-131.8083,-7.9055,26.2147,-51.7210,-68.3539,-43.0413,-79.7990,-90.3687,-48.9813,-105.4187
12.7304,56.9745,-27.7615,10.8836,-97.3998,-23.3673,-93.8582,-81.2508,-62.1461,-55.7424,7.0236,103.2448,-48.1320,6.0442,-33.8368,-35.5871,-38.4225,-4.8744,-91.9402
63.4000,85.2518,40.0018,68.2694,-74.8662,-3.0860,-65.3993,-57.7661,-42.2024,-53.9395,73.7423,180.5299,-1.1139,46.9909,-6.9366,-8.2060,6.3718,-29.5013,-87.8701
86.3193,55.9944,84.4236,-1.8212,-52.3650,-67.2220,-60.8021,-97.2662,-42.3679,-104.4014,121.8235,181.6757,37.7920,21.6834,0.9394,-12.3478,-4.0417,-89.2160,-114.7624
59.1830,20.4895,58.0124,-83.1172,-61.0648,-125.7101,-88.1450,-109.5974,-59.8619,-114.5436,93.3086,114.4745,22.3975,-24.9270,-10.7059,-24.9847,-40.7120,-107.0818,-146.4829
22.7374,19.4063,29.3959,-70.1700,-76.8844,-123.2056,-64.1200,-68.3324,-30.7246,-66.5509,46.7767,64.5030,-6.0187,-43.8271,-4.2196,-25.3234,-45.0744,-80.3843,-129.6884
21.8989,40.4228,54.0486,2.8677,-50.9008,-85.9402,13.1929,-26.9328,36.0625,-4.3177,51.6014,74.2143,7.6850,-17.7821,25.5945,-8.3743,-8.1022,-47.6476,-71.8998
33.1123,45.9279,72.4875,45.6407,-15.2552,-52.3755,58.7841,4.0293,70.7177,39.1061,65.3543,80.8571,28.2467,16.7439,44.8837,13.9407,29.7034,-36.7464,-26.0851
12.4328,15.6393,29.7099,9.5949,-30.2024,-61.5683,62.1030,46.6293,77.0866,58.1219,32.7494,32.8472,3.3510,-13.1918,45.5876,12.9014,25.7545,-55.6643,-6.1626
-14.9143,-25.5703,-21.8078,-73.1011,-64.3010,-111.9992,64.0995,77.0582,89.1963,62.6782,-3.9104,-15.4562,-34.6437,-95.1870,44.0480,-14.8430,-4.2028,-79.6851,6.7030
0.3495,-41.7901,-23.5878,-123.6088,-55.4361,-127.4752,46.1067,60.8777,71.1772,50.0421,5.6637,-5.6197,-37.3437,-118.9519,33.5383,-33.3965,0.4360,-75.9693,16.5328
37.5551,-36.6906,-1.7294,-114.1471,-12.8542,-73.9317,11.4621,15.9339,20.1191,14.9532,34.0855,26.5664,-17.5331,-57.1765,14.5460,-32.7909,47.4968,-39.5019,25.5392
50.9038,-26.5098,13.0657,-74.3878,31.7321,-18.5023,36.5231,-11.4278,22.0098,-7.3305,47.3363,28.6934,4.6292,-3.3747,22.9028,-40.1881,92.6266,18.0685,43.1706
51.5816,-3.5180,40.7909,-9.9993,72.6552,-1.5136,107.3164,-5.3006,78.1452,9.8041,55.6683,11.8226,31.8684,-1.3261,57.5549,-49.8865,127.8901,70.9883,55.4077
62.6770,30.5381,76.8690,71.6900,94.3576,1.3137,106.1268,5.2860,80.8388,20.6759,65.3880,6.8609,51.6045,-13.8933,65.3528,-37.0662,150.1701,84.9743,32.6688
64.9022,47.2405,71.3921,103.2926,81.8218,-13.7721,30.6072,-5.4842,23.8307,-7.9115,63.2510,13.7977,48.9360,-32.8973,41.4559,-25.5119,118.0844,66.0438,-19.2794
46.6658,33.9345,19.4810,49.6834,56.7703,-58.2343,-10.5925,-16.3365,0.6056,-25.5667,49.4219,13.6030,35.3989,-64.3058,33.0025,-39.7539,48.1896,48.4448,-58.4326
34.1494,14.6108,-14.8198,-12.0858,46.9289,-95.2339,-6.4348,2.2995,14.7530,6.0509,40.1694,1.5909,28.3795,-74.5586,43.2994,-42.4082,19.5855,32.9730,-67.6032
42.3535,18.8498,11.2111,0.4638,50.2012,-99.1516,-17.9117,30.8758,10.0329,46.1596,46.7045,-1.7744,31.8873,-49.3100,43.1879,-8.4232,45.6316,12.3265,-70.6058
56.2624,44.8723,66.5112,65.7559,52.2582,-79.7315,-29.6806,32.1925,-2.1105,46.2635,62.1920,13.0523,41.0386,-20.3872,36.6306,19.8096,80.4884,8.0369,-77.9759
64.5583,60.9097,105.3804,111.2493,58.8238,-38.0650,-3.4735,11.0510,4.7102,9.5592,70.7560,19.0581,54.8744,-8.6074,36.8461,13.3651,105.9417,24.6316,-70.2713
70.9190,50.1348,131.0269,110.5066,89.6803,4.8462,32.9107,-4.6472,12.9567,-22.9383,72.6870,-1.5756,79.0629,-15.3169,36.0533,0.7211,120.1443,39.8192,-42.6173
76.5181,35.8803,160.5208,93.7807,132.4186,7.4774,46.1317,-5.5025,15.8106,-12.9804,76.8696,-24.4417,102.3307,-37.2953,31.6073,3.3814,122.3865,51.7501,-16.6282
78.8490,42.0262,172.2755,97.6328,148.3799,-1.0659,46.0777,10.3554,22.3425,29.2332,77.2548,-22.8043,104.6213,-40.1770,33.0011,12.0250,128.9341,71.7052,-6.0063
84.8176,55.8634,148.0096,116.8526,144.3231,35.8434,47.1390,40.7128,22.8944,54.5478,77.2909,6.6296,103.8442,5.5105,43.5259,21.2644,137.3914,90.5995,-4.0744
103.4653,52.1327,118.4551,107.7202,155.2162,69.2871,44.5077,54.0802,12.4961,39.7629,98.2324,50.4225,122.7660,46.1217,54.5055,23.9454,128.2153,86.6792,-1.3329
125.3356,29.7511,112.4201,56.6225,160.5269,29.7291,26.4319,21.9409,-2.1591,1.2831,126.9771,73.9070,126.6961,14.8180,48.8889,5.5412,123.1137,51.0833,2.4262
126.6806,10.0422,112.0866,14.6040,125.9115,-25.0729,-2.3484,-24.0017,-20.0725,-37.7160,123.5913,57.6937,89.0981,-42.1795,24.7974,-19.9721,138.7116,9.2457,2.4361
99.1962,8.0924,91.1983,20.7322,77.4953,-22.8989,-18.8631,-39.8321,-31.1229,-58.6324,91.1876,38.7553,47.7662,-43.7156,5.5997,-25.0615,129.6829,-0.7112,0.9727
66.3768,15.9880,57.9507,40.9239,46.6177,-9.1090,-23.6902,-46.2320,-29.7446,-61.5342,65.2402,45.5530,25.9024,-20.0759,-1.2144,-21.6357,84.9748,11.7123,0.2628
56.2256,15.7754,40.6496,25.5631,27.6449,-30.1482,-40.7044,-66.5604,-36.7775,-61.7658,53.4972,44.8452,9.5106,-41.0267,-13.5475,-30.6338,59.5976,2.0417,-8.3757
58.0170,-2.5777,36.4723,-30.6908,12.3640,-51.5212,-68.8689,-59.7402,-59.4556,-52.8196,39.6070,19.0002,-0.1310,-80.6764,-31.7475,-31.0485,48.7155,-37.0109,-21.7383
36.9065,-32.1576,-1.6676,-102.9678,-19.6302,-62.1281,-101.5451,-21.4525,-82.2152,-34.2969,14.9137,8.7484,-15.7626,-79.7697,-45.0021,-12.1636,-7.8357,-77.3317,-29.6442
-3.9961,-51.1304,-91.6715,-158.8234,-89.7531,-91.5181,-146.7488,-31.0243,-103.2976,-50.2476,-11.8514,35.9621,-63.5628,-49.7812,-57.7735,-12.5593,-92.9524,-107.5219,-49.3648
-25.3075,-53.4467,-166.2481,-181.1692,-149.9138,-120.8074,-166.6588,-93.2718,-108.9257,-103.6901,-17.3760,69.2202,-102.2692,-25.9247,-61.4246,-39.9097,-137.5602,-134.4032,-78.3223
-17.3532,-61.5241,-150.7671,-184.0627,-125.7903,-109.2289,-107.6715,-103.2824,-69.4672,-119.6651,6.6526,74.7093,-68.8962,-9.8513,-37.0586,-42.8921,-134.2038,-148.1957,-62.5058
-6.0674,-74.9709,-67.2650,-171.1022,-37.0524,-66.7686,-26.7695,-49.6972,-22.0588,-81.3314,29.5288,46.9784,5.0305,-2.3443,-10.2451,-10.2868,-118.4468,-122.2337,-7.4611
-1.2644,-58.0851,-0.5179,-120.7419,27.3522,-27.8015,-31.7644,-42.8603,-40.3694,-63.7941,25.6756,14.2346,43.3774,-7.4825,-23.1122,9.5129,-106.9609,-62.4043,-1.0270
8.0913,-14.9419,15.0900,-53.4646,33.4645,-4.7768,-92.6571,-93.9973,-94.7440,-86.6165,19.2089,19.7928,40.2391,1.4008,-51.8517,3.8911,-95.1499,-17.4056,-48.0715
22.0205,2.7598,20.9968,-28.6365,32.2482,10.2531,-81.3721,-95.1231,-86.0773,-87.6421,38.4772,52.5020,45.2520,45.4087,-36.3939,4.6286,-66.2279,-1.3236,-56.6260
25.6384,-16.2938,52.5675,-52.7623,77.0266,27.3344,22.9376,-27.8437,-6.9562,-40.7500,61.0317,42.7467,86.0978,87.0435,20.3160,16.9121,-29.2952,26.9028,-13.5512
14.3464,-33.3635,89.7676,-76.4987,145.7124,45.6117,113.2643,16.0604,55.8180,10.8321,55.5544,-19.7798,138.2552,82.9340,56.5331,22.9718,-25.4254,70.8379,12.7911
11.7979,-27.1459,110.2021,-67.7207,174.0381,63.1924,115.9773,-2.6783,48.1135,9.2261,42.8736,-53.6951,160.0990,55.9934,45.2311,18.0567,-40.1898,88.2020,2.5520
37.3899,-1.1680,124.7363,-25.1303,150.3542,83.0414,69.6945,-36.1354,2.9526,-46.2843,53.9767,-22.2797,147.6879,48.2638,23.5905,3.4597,-9.8160,84.3426,-24.8724
62.7007,40.9045,135.8585,45.4619,112.5150,92.1750,40.0108,-30.8424,-16.4959,-64.2191,64.1806,9.4081,121.3917,56.5975,25.7799,-5.9728,59.5526,95.2531,-61.8426
55.1710,88.0284,130.1585,126.6143,76.0393,80.1779,29.7408,23.3128,-0.0670,15.9579,41.8388,0.4701,87.4333,69.1937,40.2294,15.1421,106.3731,110.4640,-96.5490
42.0263,121.3244,115.7883,180.2986,42.1563,69.3868,15.0035,74.1415,10.4992,93.9110,19.8991,-2.6229,62.1239,88.2957,48.3054,45.2356,117.1859,106.0073,-124.8703
55.1980,126.4325,108.1249,174.0090,29.2479,61.8296,7.3740,51.0063,2.7740,55.3763,38.9758,26.2973,67.2165,91.9492,52.9668,31.4465,111.7458,89.3324,-151.0641
59.8576,100.7228,96.3784,130.4551,34.2346,24.1028,19.1132,-28.4818,5.6610,-37.3757,65.0030,35.6356,72.4840,63.9132,54.0906,-12.0658,95.2744,71.8749,-150.1676
22.6215,67.6911,65.9948,119.2933,26.2548,-14.2911,32.6773,-69.3120,24.2917,-61.4667,43.0037,-5.9352,37.3739,40.0086,43.4212,-24.5952,81.3216,60.9450,-102.8741
-14.7029,62.5121,30.4511,163.9195,6.9696,20.1394,51.4456,-35.7821,45.5161,-11.5088,-8.8624,-46.7258,-5.6851,43.0081,31.6486,-8.2821,89.6028,68.3109,-38.7066
-7.7970,79.4252,12.3612,209.4462,6.6224,98.3083,91.2453,19.7750,71.5606,42.9068,-30.4514,-38.2843,-10.9946,48.1953,37.9607,-5.3588,118.7501,88.1125,12.6974
14.9806,79.6345,5.2954,216.0357,22.7663,126.4227,111.2483,45.7307,82.6866,49.8234,-13.8704,-8.8922,-2.7174,55.4849,51.9591,-12.5055,148.8071,102.7336,43.6697
16.0635,62.9226,-12.9975,205.2063,28.6630,110.9128,70.4797,28.1482,48.7963,9.5658,-2.6815,3.0359,-13.9498,75.0574,43.0299,-13.1037,150.8391,111.2119,47.1477
17.7740,64.4198,-25.4952,198.7690,21.8047,123.6831,18.6378,-7.1483,1.5719,-11.3599,-13.5646,14.0350,-28.4668,67.2498,8.1336,-19.4026,131.4274,115.6594,46.2353
43.3724,83.4212,3.8978,194.8749,17.6600,164.0209,15.0478,-0.1873,-8.0957,29.0570,-20.4488,40.2220,-28.1764,26.6513,-17.5985,-26.2476,140.5112,116.3595,72.7820
57.5749,86.0018,45.5249,193.8887,23.7863,184.4789,30.6028,57.4981,1.6848,63.8081,-12.5202,55.0652,-17.3015,24.6369,-10.9301,-9.3895,163.2176,125.4970,96.1094
34.4283,66.0159,40.9830,189.5062,39.9920,177.9280,15.9885,84.7231,-11.7554,40.4039,-8.6839,43.3501,0.5930,70.9601,0.0709,21.6133,124.0155,132.2316,81.0481
13.3976,46.9573,15.6775,169.1297,58.5452,158.9987,-15.8956,49.3209,-38.0147,19.4147,-12.1362,25.1581,18.0886,88.9356,-13.9485,41.1955,54.0079,103.9374,60.0030
28.7010,36.0175,30.7594,138.2819,70.4020,123.3329,-24.2498,30.2388,-40.7492,38.1217,-0.0510,12.8346,26.4688,61.0772,-22.8795,47.0185,60.5987,56.5007,58.2984
55.6678,15.9373,71.0264,99.2150,86.6620,68.7531,5.0989,60.9564,-11.6819,47.3144,34.5272,0.0867,38.4944,32.7442,5.9982,43.7746,123.2630,32.0118,61.2519
62.8804,-18.7215,96.1769,43.6496,125.6968,29.1251,55.2973,82.0091,27.6868,44.4910,63.6473,-19.0727,70.2932,19.8685,39.0469,41.0114,135.9171,24.9734,78.0640
54.4234,-44.7009,117.4380,-3.9502,171.4084,41.2828,94.0129,80.2624,49.0739,72.1558,65.6094,-41.8076,110.6173,31.9441,40.7048,59.4934,97.6369,17.0171,108.1266
49.8973,-44.9168,138.8792,-23.9451,178.8429,61.5366,91.4459,79.0524,40.2932,91.0756,63.7896,-40.5155,132.6282,64.3214,31.4716,84.2559,65.1971,6.0313,97.7318
55.9910,-35.6437,125.3598,-58.5432,124.6344,6.6695,39.3132,42.4764,10.1086,45.6444,81.6618,9.6257,114.5996,53.9874,22.7655,68.6920,28.0862,-30.5869,34.3869
49.7576,-34.1470,70.6014,-118.9466,30.9770,-83.8838,-32.4542,-24.0158,-24.1032,-7.8086,81.3231,61.7145,57.3855,-4.3306,-4.2841,28.9869,-33.9955,-94.8005,-22.4150
5.6668,-35.8279,9.4513,-136.7113,-55.2560,-90.7368,-68.9399,-24.6151,-41.4737,-0.5051,23.5535,41.2634,-2.0938,-18.1913,-33.0936,30.2977,-90.2328,-139.6517,-43.8750
-45.7173,-44.5177,-30.0009,-104.0304,-96.7360,-36.0646,-52.5435,32.6588,-33.5909,13.8319,-41.8763,-35.2178,-29.4622,12.0893,-33.8080,58.4686,-102.4746,-156.8779,-45.0928
-52.7540,-70.4367,-37.3072,-98.3146,-89.0677,-35.0943,-20.3104,16.4449,-18.3430,-40.5253,-46.4311,-91.1612,-32.2833,-0.9221,-23.7445,43.0643,-64.8538,-176.3319,-31.0500
-34.8328,-90.5014,-27.0183,-125.8014,-64.3964,-66.1809,3.5825,-75.7252,-8.9598,-114.8628,-16.7353,-102.0704,-26.8202,-18.5802,-21.6678,-1.1726,-23.7195,-180.4404,-20.0912
-37.5418,-70.2297,-35.2308,-122.8934,-65.6210,-34.3963,15.4271,-100.3609,-3.8917,-105.3399,-16.4714,-77.4688,-15.9144,39.3561,-16.3718,-2.7092,-38.8965,-151.7420,-41.5172
-36.7814,-17.2221,-57.0461,-81.6522,-98.7120,35.8233,-16.2977,-18.8349,-22.5293,-12.1477,-38.4078,-16.2591,-13.6729,100.2066,-17.5476,37.6425,-80.6355,-127.9298,-78.0667
-4.0751,27.6455,-39.0806,-31.3752,-121.8008,66.8985,-91.4970,59.6008,-73.4569,62.1664,-40.4789,43.1345,-26.1143,91.3238,-40.9620,72.9057,-66.0227,-126.3197,-91.9990
13.8098,33.4950,19.0005,11.0933,-102.1487,55.3638,-125.3215,61.4139,-101.4757,53.4939,-21.9648,41.6436,-23.4920,83.0281,-56.3977,94.9543,-21.9095,-126.9308,-82.8091
-13.9050,5.1154,42.7304,17.6321,-60.8409,39.0084,-76.9158,18.1389,-70.2443,0.1549,-6.5669,3.1324,7.0720,121.8782,-38.5622,105.9253,-39.3657,-124.7999,-66.4882
-39.9943,-18.6620,3.4372,-10.5346,-38.3040,46.5266,-27.7095,-18.0475,-37.8395,-40.1067,-2.7701,0.3360,28.4617,161.7108,-16.6397,90.6857,-90.9594,-106.1569,-53.2082
-38.5893,-12.2013,-36.9455,-24.2323,-44.0277,71.9123,-29.5319,-35.1932,-44.4630,-59.9586,-7.8379,28.5217,18.3637,174.5380,-14.5577,57.7835,-99.1030,-57.8292,-54.1683
-42.6629,1.4989,-28.6771,-16.8447,-56.2017,67.5777,-27.8842,-38.5782,-40.9297,-62.4252,-20.5448,23.1555,2.5902,143.1980,-16.5928,33.9384,-88.2806,-19.5699,-61.0108
-56.0361,2.1920,7.7529,-16.2189,-47.6148,26.6916,2.0138,-17.8552,-6.4876,-29.7075,-36.9561,-23.4114,3.0773,57.8090,-11.8980,23.8667,-91.7825,-9.6114,-52.8801
-48.6013,8.9396,34.4962,-7.4995,-10.9375,5.2400,24.9379,28.5572,21.1652,33.2330,-41.5294,-49.9475,13.5792,-6.9914,0.9243,18.5842,-69.1373,28.2138,-33.0933
-27.9257,22.8355,35.6948,7.5369,32.8199,10.2126,54.4114,72.6917,51.4463,88.7725,-19.9689,-20.8687,28.7483,13.2133,34.7749,13.2951,-26.1146,100.5454,-9.9195
-21.9555,15.7388,9.2362,-16.7704,57.6212,0.3574,106.2696,94.9762,100.5226,111.9578,10.1397,24.0079,49.9130,51.0891,78.0522,5.9503,-34.2780,128.2126,11.9241
-27.1803,-1.3502,-30.4226,-59.0058,52.8017,-13.9834,105.7629,92.6448,101.7047,98.6043,11.7286,32.4171,60.0284,35.6869,82.1233,-0.5305,-89.5946,93.9048,1.7878
-31.2917,5.0747,-56.7922,-54.0072,22.3181,-12.1299,17.6998,57.5550,26.1606,56.1730,-18.0091,10.2757,34.7735,-3.5342,35.4132,-7.8058,-117.5650,68.4437,-45.5538
-37.9140,17.2258,-66.0110,-23.3427,-10.1350,-24.4269,-53.7918,9.5571,-30.7202,12.1287,-44.9857,-14.8364,-10.0110,-42.2772,-6.0486,-25.8553,-102.0201,71.9642,-71.6690
-40.9638,6.3288,-68.6749,-12.2156,-12.0174,-58.4979,-43.0940,-8.7847,-16.4874,-11.5474,-45.6784,-39.4955,-29.7032,-87.1114,-4.7079,-46.1003,-73.4954,64.5627,-51.3531
-22.1055,1.8396,-45.3175,13.9681,16.4878,-67.1422,-20.0965,-4.3939,2.0730,-13.4974,-20.8614,-38.7958,-17.2477,-96.3187,7.9165,-42.9668,-29.9154,56.0958,-21.5082
11.2661,30.2872,13.0484,76.0916,39.6975,-18.2944,-18.1310,5.5866,-1.6192,22.3555,10.2744,17.8482,-4.2084,-33.6357,3.4354,-11.0238,30.6776,78.8767,18.1098
20.8240,51.0006,39.2646,119.3522,36.3996,58.9802,8.8285,51.1560,16.2059,93.0669,13.1656,70.7172,-3.8287,47.0285,2.2693,30.7184,59.5615,92.4536,78.1562
-11.1647,25.9026,-24.4854,106.0673,16.3195,82.4855,34.1100,99.2381,38.2275,115.2877,-18.2345,42.3355,-9.7103,64.0912,12.5938,52.5642,12.2579,44.3903,96.9898
-49.1174,-13.1865,-109.4815,60.2066,-6.5358,18.5661,3.8389,57.8931,20.7407,43.9285,-43.2802,-17.0066,-25.4125,12.0305,7.0397,31.0774,-65.9753,-19.1144,52.0498
-55.7940,-17.3094,-114.7819,34.7606,-20.2874,-24.1794,-15.6894,-4.8442,8.1679,0.5687,-48.8289,-28.2851,-45.5440,-37.6228,-10.0985,-5.9384,-78.6133,-13.5763,36.2781
-49.2882,9.2939,-71.4850,61.8714,-21.8858,33.1541,36.3538,64.9810,48.6824,90.3922,-69.6815,-24.7805,-53.4380,-40.1956,-1.5067,-1.7049,-24.5987,44.9350,84.1901
-60.7081,24.6551,-86.1823,80.6221,-43.8704,57.6929,60.1086,180.8840,80.4264,189.5377,-101.9779,-37.5088,-63.9783,-47.0213,19.9250,24.0137,-20.0621,53.0804,89.8287
-79.2129,10.6441,-170.8440,1.8396,-124.3450,-61.5677,-34.4177,132.1371,32.0341,131.4967,-105.8004,-17.1445,-105.8958,-104.6127,2.4649,-1.0075,-118.2874,-32.4898,-7.4969
-87.9014,-9.5426,-235.2691,-117.6797,-232.8462,-196.1486,-162.1653,-35.1980,-56.7849,-26.9891,-92.3636,24.5251,-163.0337,-154.3082,-48.6127,-60.8814,-213.6514,-136.2735,-129.4022
-91.0574,-15.6085,-212.4806,-157.0927,-288.5272,-230.2012,-215.6287,-124.3791,-108.1220,-124.8008,-89.9247,13.8994,-190.7675,-144.2400,-79.8672,-79.4666,-205.9249,-175.7208,-194.7835
-77.1134,-17.2694,-122.9916,-144.8980,-258.3559,-227.5858,-207.5043,-115.1479,-113.2410,-128.0234,-73.8505,-22.6378,-171.4616,-123.4024,-77.9261,-57.9591,-134.5020,-157.3345,-198.1638
-32.0867,-22.3544,-28.5964,-149.1927,-173.0283,-209.6305,-174.1755,-86.4424,-100.6198,-92.6419,-28.7956,-14.7405,-116.4548,-121.6419,-65.8220,-41.2556,-69.2980,-118.1643,-150.6758
12.0096,-20.5291,35.4866,-113.1742,-65.6490,-118.0880,-97.5205,-37.7903,-64.5530,-46.7398,8.8071,6.1152,-43.5986,-91.7407,-41.1318,-24.3323,-12.1713,-56.2964,-63.0515
19.5778,-10.3420,70.1042,-15.0940,32.4985,2.8901,23.3380,26.9317,8.9339,-2.2449,21.2350,-2.6880,19.3969,-18.1265,6.9863,-0.7273,45.3508,32.3104,30.9543
10.8401,0.1197,85.7176,51.2291,84.3608,83.8915,133.5116,60.1105,85.2090,27.8875,25.7557,-1.2850,47.1757,58.1953,52.3027,2.9124,92.7023,121.1651,102.6035
18.2584,6.7693,97.0153,61.0709,106.2780,142.9926,188.2275,65.9908,117.2191,47.0398,28.6247,18.7735,54.8832,97.9754,65.7299,-8.9994,128.7177,180.7582,152.8350
34.0465,-3.1323,117.0596,63.1909,155.8626,167.3573,195.3563,67.2733,110.8239,52.0919,35.3088,4.7853,78.6178,81.9528,59.1286,-7.8569,145.5475,197.7061,187.7090
41.5547,-29.9905,133.9287,47.9559,218.5986,125.8019,175.5726,41.1958,92.7991,32.3836,56.0497,-24.7598,109.7586,47.2833,51.5607,-0.3943,131.5360,185.8916,197.9803
50.8989,-31.7850,129.9191,25.4035,226.0715,94.4349,128.8521,-11.0781,56.8870,1.3431,77.1920,1.2661,111.0418,66.3034,38.2308,-4.9919,117.9059,188.0990,171.7709
75.0335,12.8218,125.6295,61.5295,194.6281,128.0991,74.2981,-47.1013,8.1439,-28.7529,87.5977,62.0959,95.2852,115.7570,23.9005,-19.2150,143.5653,223.3215,119.1069
96.3891,51.6056,148.6711,122.3670,190.6610,142.0602,63.6909,-63.8604,-5.0228,-68.5431,100.2373,78.1139,101.3151,101.9156,29.3010,-41.9025,178.5122,254.5619,74.5474
85.2074,44.6092,172.2334,108.7389,187.2132,80.3616,94.9293,-84.2425,28.3494,-102.8163,107.4914,54.3906,105.3614,34.4914,44.4685,-69.3854,164.2216,248.6026,59.4038
48.7732,27.8366,145.4609,38.7105,122.5469,6.0012,98.3855,-86.8782,55.0303,-88.9850,87.5192,60.6957,64.2611,-7.2111,42.5870,-83.3095,100.5519,216.3745,53.9000
21.8423,31.3475,66.6808,-7.0599,29.4914,-30.6730,60.1730,-42.4544,53.0652,-33.0668,51.2320,95.2341,3.8740,-23.0500,34.2356,-80.8746,38.0080,172.9239,33.2806
2.8005,32.2476,-15.2980,-19.4636,-38.3203,-44.4555,31.9913,15.7494,48.9356,9.9404,10.2391,82.2884,-40.2626,-47.2817,34.5316,-75.4805,10.2956,118.5228,3.7857
-33.1349,22.7963,-57.1957,-17.2468,-96.5127,-56.7110,9.5519,30.7983,38.8598,18.6741,-42.7788,13.5268,-84.3863,-68.5385,17.9837,-63.6089,-0.5813,59.4022,-22.2216
-60.9637,25.4694,-58.2355,-1.5345,-152.8722,-70.9502,-46.3734,4.6044,0.2492,12.7348,-79.2128,-19.6818,-126.1756,-72.0302,-23.9648,-39.3970,-20.0408,3.6059,-46.3962
-40.1074,35.2000,-45.7180,11.5454,-173.8314,-78.8254,-107.9726,-20.6689,-47.7816,-8.6643,-57.6087,24.2590,-130.5905,-54.2662,-50.4469,-17.1708,-24.7831,-49.0855,-67.0469
2.4834,27.4517,-35.2989,7.3450,-164.1528,-89.8195,-138.1606,-38.7923,-77.5656,-57.2903,-3.4092,75.1254,-113.7580,-19.3928,-46.8846,-7.7298,10.4893,-95.0224,-77.1538
20.9054,10.7165,-23.4612,-4.2971,-160.2425,-125.5374,-163.0502,-65.9217,-97.6590,-103.3749,29.1646,87.7340,-119.0254,-3.9947,-47.4290,-7.5469,49.3401,-118.1231,-78.6889
26.8622,15.2233,-15.3637,-7.7173,-163.0144,-145.5311,-195.1134,-81.2369,-119.0846,-107.4228,33.0903,101.1864,-132.6203,-17.3676,-61.1188,-14.2152,56.1289,-102.2304,-81.2343
40.2931,41.2122,-20.4052,10.9056,-159.7816,-97.5172,-203.0147,-66.7214,-132.2825,-88.4476,26.0322,125.4654,-125.9461,-10.9306,-64.8758,-22.0493,57.1499,-63.7872,-90.2739
47.2251,53.6709,-16.9531,36.9033,-152.5505,-49.6155,-185.2657,-64.6564,-130.3203,-95.3315,23.3753,122.1796,-109.9014,10.0522,-60.3780,-21.8136,68.9867,-56.9667,-96.9059
49.2736,33.3139,25.9570,23.9246,-128.5384,-78.7009,-158.4697,-107.8185,-113.7080,-129.2853,45.3651,101.5545,-88.1065,-5.3217,-60.7602,-19.9040,71.9566,-91.8078,-81.4917
62.9586,8.6607,89.0095,-14.1741,-74.3688,-103.0884,-108.1719,-146.7739,-81.9046,-147.0706,82.2355,98.3216,-50.1058,-19.7351,-52.3594,-27.6730,83.9249,-87.5921,-39.7860
70.3147,9.3959,121.2314,-7.1084,-16.3596,-45.5245,-36.1702,-123.3830,-40.4946,-121.7689,89.8744,92.2022,-14.5736,14.0190,-25.7177,-34.0252,120.0001,-9.0783,5.4580
50.7929,12.1390,113.1233,22.3315,8.3986,5.1573,11.3474,-61.5334,-6.8162,-70.8545,61.1343,56.2066,-3.3274,27.4685,-6.4126,-21.9393,123.2655,38.0490,34.8475
25.7832,-17.5429,92.7913,-15.2982,3.1112,-23.1159,13.5240,-21.7420,4.1011,-33.9471,34.9719,14.0970,-6.1884,-23.7542,-13.1889,-2.1438,69.2797,-15.1985,53.3737
16.8345,-61.2037,68.2822,-97.9587,4.4424,-64.2181,8.5592,-10.7393,4.2259,-25.9632,29.6974,-7.5112,-5.4282,-67.2264,-19.9634,0.2470,23.3791,-68.7474,70.8027
13.2842,-82.9745,41.1826,-138.3013,32.2555,-70.1659,31.2471,3.3938,20.8430,-22.5055,32.7130,-14.9492,5.7124,-66.8393,-1.1466,-13.7586,13.9010,-40.3598,87.1807
5.7809,-86.1100,38.7644,-143.5842,59.6579,-69.1272,62.8338,19.7184,47.0201,-6.4253,35.6829,-17.8358,23.1881,-58.7862,19.4322,-17.1461,2.5751,-2.4502,97.6979
1.1543,-85.0566,58.8412,-158.2560,48.4578,-71.9548,60.6673,14.9552,45.9916,4.6820,37.3236,-10.6011,26.7242,-37.4717,13.7023,-0.9977,-12.3733,-18.7252,88.9320
-0.8600,-71.4444,48.2180,-163.7328,3.2495,-80.4522,14.8326,-1.7553,14.4007,-2.0045,34.7619,11.9640,5.7452,1.4404,0.0396,10.6168,-20.9814,-43.6938,42.3076
-10.8302,-43.3556,-1.8267,-144.2802,-42.1377,-108.3169,-41.6785,-9.0992,-15.5786,-13.7557,22.5873,32.3661,-18.1813,-0.5950,-2.5856,1.5964,-58.0646,-45.0866,-32.3043
-26.6831,-19.9410,-32.0498,-119.4623,-69.0721,-124.7833,-69.8927,-8.3840,-27.8609,-18.3321,-0.8696,26.0192,-28.4290,-47.1024,-7.9776,-11.5171,-107.5903,-43.9002,-82.3999
-25.5424,-6.8379,-18.5407,-82.7682,-69.8833,-88.5197,-51.2976,3.8320,-19.0200,-10.2682,-12.2301,15.5038,-27.2822,-52.2546,-9.4467,-10.1392,-89.0300,-36.7837,-70.2569
6.0071,12.0777,9.8389,-20.2784,-40.1039,-24.8450,6.4080,23.5223,15.7388,4.7473,17.1473,44.8106,-5.8398,10.5126,18.5069,-1.8450,-4.9485,-11.3422,-29.8083
44.6707,42.8867,46.2031,48.3252,4.7400,23.3334,68.2658,5.8170,53.8585,-1.2421,65.2840,85.9995,39.4670,72.7930,53.7180,-2.8933,60.3560,14.0053,-20.8531
63.7150,73.1637,96.5514,109.5062,47.1057,53.4207,99.4240,-50.8777,64.2971,-31.6662,89.4355,82.0189,85.8217,90.8893,61.2136,-8.0562,82.6974,30.4639,-46.0102
71.9683,90.8113,143.3636,161.1200,84.3317,60.6472,93.3792,-66.5521,52.7709,-42.6665,97.6995,59.1433,113.3990,82.3179,57.1592,1.6136,98.4246,48.8442,-64.1847
81.4631,91.5032,170.6099,173.1325,97.3296,29.0842,58.5870,-26.6134,34.1476,-26.0635,111.1200,67.7157,112.8862,63.9661,56.4320,20.1489,112.2765,60.5551,-63.9042
79.3861,80.7304,159.3240,130.9440,59.1606,-11.9211,11.9552,-7.5984,8.6848,-24.1906,108.1356,89.0031,79.0238,42.5602,43.0470,19.1126,101.8147,47.9838,-69.4768
63.9352,75.8219,88.5576,83.7320,-7.4066,-4.3027,-14.3486,-7.2624,-8.3467,-25.8155,75.8591,101.8142,37.7880,41.5063,28.5058,2.6066,63.7712,17.3900,-88.6366
49.0772,80.3681,-1.5501,67.0661,-48.8297,47.3451,-9.9247,28.2319,-3.8964,13.7294,38.3342,112.6334,23.2532,62.7122,30.1375,3.5182,12.7372,-11.9390,-97.2988
31.0319,66.4586,-45.4340,39.6314,-55.6849,63.9853,-9.4399,44.9532,-2.3685,52.5641,6.5431,91.2511,15.6997,51.4680,18.3924,11.4741,-29.6678,-35.6041,-79.2156
11.8742,23.9536,-53.5711,-27.1595,-57.1366,6.2635,-37.9324,-13.0742,-24.4516,20.9296,-15.6016,31.4043,-11.3999,-20.8050,-17.5290,-9.7646,-49.0451,-66.6512,-60.3595
17.2866,-7.6905,-54.9705,-80.8186,-63.8342,-63.7677,-78.8116,-71.8280,-56.9300,-53.2714,-4.5743,7.5151,-26.6659,-86.3767,-37.7964,-39.1613,-50.7177,-106.7888,-76.6908
40.8521,-7.9638,-25.5783,-83.1334,-67.9578,-91.4839,-111.8872,-85.1899,-85.6791,-109.1372,31.7917,36.3316,-16.0459,-86.0712,-37.4820,-38.0920,-37.1663,-130.3510,-109.5900
40.7948,-10.1240,16.5485,-75.6450,-68.3423,-102.8116,-122.6232,-107.3741,-97.6054,-138.0011,43.1486,34.5412,-21.6033,-66.3105,-45.1350,-31.9697,-9.6480,-119.0979,-108.9661
11.8979,-24.3146,4.6171,-83.1681,-61.4447,-102.6613,-97.1956,-128.8669,-78.9403,-134.7337,11.0933,-20.1721,-43.0231,-75.9890,-49.2995,-49.7480,1.8044,-80.9833,-81.0736
-15.9816,-18.0159,-38.9530,-62.1876,-34.1444,-44.8647,-54.1908,-95.4182,-52.1025,-97.4814,-34.0075,-70.4827,-31.3713,-77.2190,-34.2650,-60.7848,-22.2680,-18.3964,-72.0990
-28.3787,7.6123,-42.1160,2.6514,14.7100,41.7156,-26.0262,-55.7154,-45.2941,-72.9568,-56.3847,-92.3068,8.2671,-39.8078,-19.1956,-48.6240,-40.0448,61.0535,-76.4344
-20.1629,20.3793,-20.7584,60.8025,60.6615,67.9382,-7.1289,-68.5343,-36.5975,-83.8619,-36.2379,-80.4530,29.9601,-1.7499,-7.1339,-44.2681,-10.4708,112.2212,-54.3466
-1.3468,16.5555,-27.3249,73.8097,70.6444,35.1021,13.0533,-91.2686,-9.6258,-89.3656,0.4266,-39.1314,21.7545,8.7005,9.5533,-54.8399,29.3515,106.5085,-16.2375
-16.7261,5.0898,-68.8972,53.2387,28.9994,13.8965,8.5512,-93.5078,-2.2073,-86.1444,-13.2709,-33.4878,-17.6481,12.1328,7.0534,-61.6422,26.1819,84.5442,-3.4471
-72.5223,-3.9569,-130.3687,48.5628,-42.4610,29.4387,-31.0562,-100.1864,-31.9394,-104.5365,-81.6692,-80.6821,-87.9605,36.0934,-21.4822,-64.9855,4.8243,95.8216,-15.3512
-94.2722,20.4442,-159.0862,108.4191,-83.2014,72.9767,-64.2482,-90.4011,-56.7512,-99.4747,-117.0960,-76.0117,-132.8015,80.8469,-38.3545,-56.7095,18.6537,133.6859,-16.2360
-49.5874,69.4019,-94.3084,190.7672,-44.9679,123.3354,-50.6286,-29.8441,-43.9302,-23.5165,-78.1608,2.0673,-92.0629,109.6848,-25.5233,-18.6383,52.0529,162.4297,10.5785
-12.6776,72.2191,4.3958,186.4010,41.6356,131.8851,-2.3355,42.0263,-9.9701,51.6240,-32.5485,22.3843,-6.7448,86.5897,-1.8967,21.2759,46.9035,169.4306,42.2355
-32.6523,23.7970,19.6054,100.5790,95.3518,93.4409,23.6830,74.6134,5.4075,55.6881,-39.2743,-47.2002,33.4275,35.5421,12.5302,21.9990,-2.7747,178.4123,43.6384
-62.6620,6.5662,-19.0703,59.3787,94.7175,72.3803,-4.4671,76.3592,-15.6120,46.8483,-73.4319,-93.2023,18.6685,9.2933,4.6349,6.1544,-43.3015,212.2935,19.5548
-59.4859,33.7463,7.2829,97.1776,103.7696,93.0566,-25.8704,80.0383,-31.5799,84.1728,-82.8951,-85.4648,17.2378,13.3340,-11.6639,18.0689,-35.9234,249.1692,19.9353
-32.9828,40.2201,95.1767,130.1574,163.0881,114.9417,26.5117,97.8817,1.9554,119.4342,-49.5380,-81.3460,65.8678,18.7074,0.7294,44.0811,6.0422,256.0400,64.1910
0.7714,26.8244,142.0286,123.5895,220.0699,117.2883,91.1794,109.3638,44.0229,113.9453,-1.7356,-71.1139,120.7017,9.4046,32.1795,44.5180,37.1249,240.1464,96.0377
23.7200,38.9489,108.2458,107.0703,209.2789,102.8250,82.7776,97.1986,42.7366,112.9338,14.6299,-35.5455,128.5385,-10.9375,40.3135,24.8240,21.4431,210.8882,63.2466
13.9757,54.5961,49.8812,88.7919,146.3597,71.4594,52.2086,93.8157,35.7589,134.2425,-4.9762,-27.0688,100.7880,-20.4525,37.6595,20.6439,-16.9922,155.9130,1.0409
-9.8291,38.4919,35.1826,68.1819,90.3792,42.2470,62.0983,118.7188,51.8303,124.3461,-20.5557,-60.0857,75.1636,-9.3845,49.8892,33.2681,-14.6734,96.2926,-26.9824
-6.5946,23.6849,63.1119,57.6376,58.0054,28.9680,57.1071,117.7543,43.3961,77.5633,-15.0196,-71.0494,50.4981,-10.2768,46.0792,29.1350,34.4749,74.2314,-24.5236
13.1713,40.2465,75.3288,55.3567,30.8698,12.3634,16.0604,74.8729,13.8322,64.5715,-11.3288,-43.0505,19.1211,-40.0043,18.8260,4.7803,64.3877,78.4492,-30.2751
1.7505,49.8918,43.9996,41.2630,0.2209,-15.8262,9.9750,64.5501,24.6560,97.2727,-27.5727,-34.1622,-5.1426,-64.0670,13.7729,-6.6624,37.1379,67.8331,-39.7323
-49.1187,13.6952,-15.2708,-9.4227,-45.7033,-44.1551,24.2494,97.7042,48.4799,106.4312,-66.6451,-69.1295,-41.4794,-69.0533,19.6438,-1.9714,-16.5863,38.1187,-25.0680
-104.0715,-43.6841,-93.1260,-95.3733,-111.3511,-70.6859,-8.8412,99.2281,28.6077,84.7151,-120.1311,-103.5756,-115.6170,-75.6289,-9.9238,-8.4823,-63.9619,10.3444,14.6808
-135.1613,-80.7855,-164.0728,-164.2051,-147.3569,-83.5412,-26.2008,70.2342,20.8205,86.4643,-153.0884,-102.8331,-170.8535,-74.9725,-36.8940,-25.2155,-99.6533,2.5769,68.0428
-141.6269,-98.8555,-180.3265,-179.2153,-110.8292,-68.1572,46.9622,68.0085,76.0536,90.8482,-137.7215,-86.7938,-143.5773,-55.3531,-8.4725,-34.3192,-122.2867,20.4003,121.5528
-138.5230,-113.7095,-150.3980,-175.7973,-55.2856,-48.3884,122.0600,77.7762,122.3067,54.4225,-104.6971,-82.6020,-84.2729,-41.6065,29.7633,-36.7535,-137.8537,40.9400,144.9738
-137.8348,-117.7079,-127.5752,-187.7638,-46.7070,-58.2572,107.1644,68.3084,105.7636,31.5705,-97.9151,-88.7761,-69.4851,-48.6239,23.9547,-32.7305,-154.2010,37.4231,124.9206
-132.9728,-112.1929,-118.2497,-208.4024,-55.5571,-103.1500,54.2204,56.1886,74.5291,59.8271,-101.9602,-97.0153,-81.0128,-74.9860,2.2093,-23.4774,-160.9998,16.3411,92.3539
-113.6574,-118.6218,-100.0298,-240.1723,-42.5671,-162.3105,21.2782,39.9452,56.9911,68.1041,-83.6478,-99.9256,-79.1890,-117.5059,-6.2901,-27.1320,-149.8298,-4.6888,75.5153
-94.0753,-131.3043,-81.8991,-274.8355,-42.2886,-190.6146,-13.0259,7.7982,25.7450,29.4293,-63.6274,-88.9279,-81.9525,-137.7793,-22.2801,-38.1766,-136.2320,-22.9955,67.7209
-96.1045,-131.8923,-87.5744,-282.8875,-79.2265,-177.6724,-57.7687,-13.3615,-15.0523,3.0199,-74.4462,-79.8962,-106.9542,-119.4510,-50.6150,-32.6571,-138.4064,-46.5157,55.4711
-110.5934,-135.1532,-126.3380,-279.1032,-123.1413,-188.9217,-88.9447,-16.5412,-33.8535,-10.4919,-96.5714,-95.2533,-139.6937,-126.6000,-63.8807,-30.6167,-148.1592,-87.7609,36.1841
-114.5969,-144.7985,-170.7722,-282.5480,-153.4966,-233.8456,-95.9024,-26.0523,-28.8202,-39.3678,-103.1322,-119.1272,-166.2272,-171.6727,-56.9075,-53.3101,-138.5938,-131.1561,15.1577
-114.1769,-132.6984,-168.2983,-257.2702,-171.0658,-223.8499,-79.3563,-34.7656,-17.5582,-50.1952,-111.8608,-137.7579,-178.3882,-174.4390,-51.7004,-66.3768,-102.4530,-130.7632,2.7952
-124.1786,-110.2228,-130.6024,-212.2672,-176.1611,-174.1666,-58.7472,-43.5483,-12.7863,-49.1015,-131.6759,-163.9846,-177.7991,-144.9326,-57.5762,-60.3998,-74.8317,-100.3102,-4.0674
-127.9973,-110.6871,-126.2522,-211.2180,-177.3960,-192.1197,-61.3665,-79.0836,-15.1523,-82.9352,-126.9157,-166.1512,-174.4222,-163.6469,-62.3953,-71.9133,-93.0772,-109.4393,-16.0455
-108.3910,-110.2840,-141.3363,-226.7472,-170.3343,-227.4015,-67.8764,-103.2254,-11.2422,-97.6130,-90.8089,-105.4359,-158.0521,-186.7892,-57.2412,-82.7835,-133.1028,-138.3573,-14.7395
-88.3344,-83.4955,-115.5742,-190.9048,-140.2263,-166.5385,-50.1875,-65.1755,-1.9667,-43.6413,-73.2369,-44.9066,-124.1584,-144.4808,-51.1363,-56.8977,-142.4389,-105.4829,14.8125
-93.2201,-64.0181,-94.8196,-138.6029,-118.8546,-83.2482,-44.5929,-26.6383,-12.5111,-16.9596,-94.3723,-50.7694,-114.6846,-101.5344,-57.2116,-37.0914,-125.6755,-40.9760,37.1764
-110.0378,-67.3611,-134.1301,-115.9674,-139.1895,-72.7546,-76.4900,-47.2038,-41.2316,-60.8436,-119.4511,-72.6640,-148.7972,-102.6406,-73.0137,-52.6957,-118.6346,-24.4766,34.2808
-119.5533,-65.7370,-160.7819,-96.8129,-151.4070,-56.7611,-83.7199,-54.7572,-46.2592,-62.5063,-133.2301,-71.5523,-169.1038,-87.6110,-80.7871,-53.7454,-115.7911,-18.6055,49.5871
-122.9958,-58.7565,-123.2068,-80.2864,-109.4329,20.2899,-21.9579,3.7835,-11.3152,1.8840,-148.6766,-89.6873,-139.2206,-55.6934,-66.2813,-35.6231,-96.5524,44.3484,95.4610
-119.4733,-59.4464,-90.7633,-86.0889,-54.0583,84.6510,58.3079,58.0989,33.9620,31.1883,-153.7235,-113.5750,-96.7886,-53.3540,-34.4191,-48.3491,-74.6926,127.4623,128.9210
-105.7072,-58.6614,-97.9027,-82.8954,-12.8409,105.3092,112.0307,67.1312,71.8062,33.1789,-130.1710,-90.2684,-64.9219,-38.6643,-1.5258,-65.1017,-66.8128,166.8466,151.7711
-94.0322,-63.3518,-93.3199,-57.7855,37.6935,115.5532,154.5899,76.0647,109.3240,74.8193,-93.7207,-57.8915,-29.5772,28.6642,23.9281,-30.4904,-58.0691,158.2999,198.1640
-89.6489,-81.4408,-57.6797,-40.5546,79.4644,112.2237,186.2195,92.2336,135.2449,102.2146,-61.6274,-58.1945,2.1732,93.5210,41.2231,21.3637,-37.1709,123.9374,236.2110
-76.2567,-82.7847,-16.7991,-25.2510,79.4342,88.1729,175.9302,86.8505,127.1609,70.7308,-29.3252,-46.8119,16.6122,115.1717,47.1054,43.2643,-17.2072,86.0860,215.8465
-51.8644,-57.2611,12.4216,3.2280,64.0268,56.0805,130.0535,82.1656,98.7543,59.7102,-0.9737,-14.6009,23.3580,115.4047,44.5202,58.4494,-6.1485,52.7351,159.8352
-36.7790,-37.1221,24.7839,30.0908,57.6912,17.1406,97.0316,102.7848,87.7639,96.8085,12.3698,-11.4815,29.7696,108.5134,48.1408,86.2727,2.6355,7.9446,112.8402
-31.3253,-29.6168,35.1741,57.7036,52.1747,-15.4866,97.5081,116.8929,97.6343,102.0531,23.5073,-27.7379,37.5554,98.0722,62.5773,101.9581,17.5928,-36.5852,79.6237
-11.8971,-20.2251,59.0903,78.8331,62.2392,-34.7718,94.4777,101.9058,93.8293,65.2182,50.6125,-21.7600,54.0506,89.9201,74.2463,94.6604,42.6283,-43.5766,48.7837
25.8719,-10.2452,70.9749,61.5271,85.1155,-66.7218,48.5446,78.8519,57.3852,51.5856,82.6141,-0.1288,67.5413,78.8450,72.8622,80.4759,72.0297,-32.2368,5.2778
56.8493,10.0035,55.5115,42.1199,65.4959,-95.2059,-17.3978,52.7038,10.0157,48.1641,97.2631,26.3004,57.9108,78.4203,61.7868,68.7409,91.1791,-48.6123,-63.3095
59.1853,46.9551,41.2707,76.4025,-0.9602,-74.4520,-43.1369,3.8898,-13.5261,-5.2967,94.0194,57.6497,38.9374,111.3964,52.3266,55.1888,87.3585,-76.4689,-134.0332
39.7414,67.2988,28.6406,113.9943,-46.3441,-34.9688,-21.9338,-57.6556,-8.2522,-85.0620,84.8199,68.0616,32.9524,151.4312,52.1304,35.0426,64.2105,-83.2199,-170.6649
26.9011,57.2374,2.0090,99.1031,-45.3765,-22.4579,-9.9225,-93.6169,-7.2661,-120.5417,73.1423,48.4965,35.2242,152.3675,49.7361,16.1028,41.7576,-82.4080,-175.8560
35.8304,48.3912,-4.4734,70.6020,-32.5660,-17.8014,-32.9396,-89.3728,-30.8205,-107.9495,59.9362,29.0108,36.3488,107.0965,30.7886,8.0374,35.2408,-86.4905,-170.8060
45.8592,49.8111,16.2682,53.9257,-39.0871,-21.4273,-57.9036,-71.2788,-52.1108,-98.5571,48.4158,22.7298,29.2869,40.1954,9.8990,-1.2863,32.6591,-87.6133,-167.7779
29.7385,56.6424,4.3009,45.0539,-76.9853,-41.1354,-64.5675,-66.5522,-49.2550,-107.2373,30.1956,24.4210,5.7960,2.1782,6.8608,-20.4044,6.5804,-80.2661,-185.0984
-4.2076,85.5326,-36.1849,80.2293,-112.4240,-14.6831,-62.5976,-61.2104,-40.8987,-93.9775,-3.8071,32.2560,-14.4872,34.4633,11.5566,-25.2914,-34.4323,-36.1462,-213.0925
-23.1541,113.4640,-25.5289,135.8636,-77.4555,60.6584,-40.0702,-27.1954,-30.5958,-39.3088,-30.2745,28.1396,1.7010,84.9940,15.2323,-7.7195,-44.2110,60.3638,-191.6435
-12.1223,89.5734,39.4826,114.4583,15.5044,80.1225,15.3873,15.6579,2.0584,7.7497,-16.1466,6.6820,42.8656,66.2135,28.6109,-3.0502,-12.1517,140.7845,-106.6042
13.8132,43.0911,86.8265,40.8540,72.5079,38.1522,59.1571,22.8721,31.5496,-2.8932,22.0306,1.4358,67.7726,5.2046,42.4491,-24.6144,21.4052,148.1169,-38.3255
27.9185,41.8013,88.9697,37.3463,66.7011,33.3593,46.3660,2.5234,16.9510,-45.1872,35.8906,18.8990,65.5489,-11.3619,37.8333,-41.8944,30.3755,141.7409,-43.0283
16.5532,73.3799,64.8640,102.2917,45.6854,67.3646,9.7158,-12.6867,-14.5451,-72.5558,17.0211,27.5906,48.6553,15.8935,26.5890,-45.1509,23.2897,176.9231,-77.2727
-3.1620,89.4491,40.3967,141.1931,26.2927,86.3531,-2.9230,-38.7525,-24.1997,-96.3868,1.1081,36.1228,28.9642,45.3250,19.5893,-51.7094,9.2835,207.3199,-86.2460
-1.1241,86.4202,47.8809,126.7339,17.2308,99.9619,-4.3254,-84.6772,-32.2287,-126.0929,13.2457,70.1175,27.5646,78.7996,6.2720,-54.6007,-2.7179,201.2615,-72.1919
20.8327,69.5324,78.3269,79.7259,43.1365,103.0444,-18.1487,-98.2248,-51.8530,-120.8847,40.0869,97.1201,47.0532,108.1481,-5.7377,-39.1424,2.5111,191.0522,-51.5097
28.8101,33.7888,66.6519,20.7784,66.9430,70.2633,-31.6988,-70.2310,-57.9487,-86.4944,45.9856,80.9516,43.9243,96.9119,-6.4290,-27.8295,17.0981,174.1640,-20.8457
11.2895,-0.4605,2.4114,-7.4043,36.1668,46.9667,-31.2560,-73.5436,-49.9149,-93.3384,17.8066,48.4022,-6.3506,53.8527,-16.8454,-48.0864,26.3666,135.8827,25.0534
-3.4501,-6.4568,-24.1753,26.2968,6.0269,69.8324,-15.1354,-121.9868,-41.9505,-139.8748,-5.9991,34.5270,-49.4704,30.3776,-37.0887,-77.3181,48.5994,127.8835,76.2052
6.3517,13.0094,39.3023,102.6128,51.3670,100.2362,14.3982,-143.2893,-27.7564,-153.1542,13.1725,37.6488,-25.8450,46.4326,-34.6768,-70.9768,90.2373,175.3467,109.7391
29.6749,36.7603,118.0347,176.8268,120.0921,121.1396,25.2871,-116.4260,-24.1942,-128.0339,48.5796,48.9185,29.1380,72.6595,-21.6825,-31.4748,117.4998,207.7211,116.4987
44.1311,41.0823,130.0604,194.0312,121.9533,138.4624,-10.9447,-76.8589,-53.9750,-103.1234,50.9623,61.4331,34.6801,73.4312,-35.9180,0.2602,118.4497,180.8181,119.5774
34.5658,13.9895,96.2770,125.6994,67.9230,118.7557,-50.4826,-31.1232,-76.0724,-68.2168,23.0653,58.5146,-14.5610,51.3332,-57.7846,9.1257,111.2849,138.3922,138.3795
5.1263,-22.0334,64.7716,33.1233,23.6603,67.7928,-41.7703,4.8541,-53.2268,-26.2230,-2.9488,35.1723,-54.9388,39.0880,-53.3052,8.4788,93.4865,115.5622,152.3978
-12.1483,-27.9088,37.2557,10.9674,19.9877,51.6743,-17.9570,-4.4868,-29.3000,-15.6921,-14.2686,12.1077,-52.5992,41.1919,-40.0691,1.1744,69.2775,107.7813,135.3300
8.0653,1.5594,29.7792,59.5860,47.7510,73.2857,-28.0864,-28.0823,-43.1418,-20.6855,-9.1402,6.1043,-26.2095,31.0015,-38.4277,-8.2993,76.5938,115.4638,95.1489
44.9246,32.2250,73.3314,94.2365,72.1454,77.0624,-59.9051,-19.1837,-72.5080,-11.0374,10.6508,10.1912,1.4133,13.2408,-40.4976,-1.6151,111.7041,120.8387,47.3148
67.7071,39.8037,118.0421,65.8051,60.8621,59.4151,-94.5311,-13.3259,-103.7297,-16.5187,28.5318,13.9221,18.1254,15.7975,-45.8411,12.7961,123.0155,87.8461,-13.1808
80.7210,40.9723,88.6262,12.4149,24.0021,49.6591,-132.2513,-37.7192,-137.5838,-39.3078,29.1137,17.6333,17.1758,25.6690,-53.0287,3.8803,107.2116,34.1844,-87.3923
87.5741,58.6724,19.5641,-5.7575,-10.3513,47.9832,-144.0308,-46.4252,-141.9951,-36.2010,16.0962,22.6985,8.6457,13.1475,-43.6118,-24.4724,89.0506,10.3838,-151.1013
69.6116,80.2186,-14.4592,16.2348,-38.7271,49.9816,-98.3487,-29.3326,-95.2958,-25.6104,2.6643,31.3744,7.6694,-0.8461,-15.2648,-43.5240,54.4077,16.8512,-173.9842
37.7714,87.7066,-21.9254,42.6295,-55.6260,60.6797,-24.1407,-23.9204,-30.8223,-36.5675,1.3109,49.6266,18.2306,21.9482,16.6807,-46.9831,6.1817,26.5056,-162.0694
28.6205,96.2421,-31.0070,55.8662,-48.1470,66.8309,11.6313,-25.5348,0.6707,-30.8340,12.5806,67.9967,39.8275,64.1288,41.3522,-39.8603,-20.1861,32.6611,-172.2328
32.9770,113.9210,-30.4788,50.8409,-49.3341,44.3846,-30.1334,-29.4313,-26.9597,-13.2746,14.7420,64.2696,52.3407,78.3735,39.3189,-25.4935,-38.4587,23.7997,-242.0206
12.8809,115.1286,-36.1352,13.7182,-101.6569,-3.5435,-109.9594,-57.1104,-83.0637,-34.8990,-10.6093,41.5893,22.1125,56.7209,5.1958,-21.8923,-81.4604,-8.3060,-315.5074
-23.4688,92.1736,-80.6598,-40.9619,-167.8709,-43.4107,-136.5216,-71.0589,-93.1245,-52.7549,-48.2192,24.1198,-35.9974,23.1288,-16.7707,-40.2739,-119.3517,-32.2621,-314.8460
-42.2933,71.9838,-136.4008,-68.6285,-189.8953,-63.1254,-101.5161,-34.0065,-50.3068,-20.3074,-68.1033,23.3958,-70.2599,-12.0318,-1.4464,-60.3135,-127.8154,-29.7497,-263.6949
-44.0284,68.6643,-155.1292,-51.6844,-192.8776,-88.1682,-106.5071,-14.3798,-41.6933,-16.4604,-62.5371,45.4107,-82.2379,-45.8420,2.0102,-62.3366,-141.9899,-35.1493,-236.2334
-46.0364,74.9382,-143.2050,-2.5365,-218.8187,-109.9947,-182.8404,-52.5765,-96.9508,-73.0930,-53.5524,83.5560,-109.6452,-60.3568,-38.6734,-48.0799,-164.3306,-62.1680,-228.9350
-52.3927,84.0498,-139.3253,54.9033,-241.5995,-86.9747,-240.3204,-64.8077,-142.6792,-83.4110,-67.0869,98.4142,-141.0618,-44.9830,-79.3066,-20.6256,-162.2918,-79.0904,-203.3602
-66.0620,83.0331,-160.0682,68.1804,-241.3999,-54.8514,-243.2331,-18.5888,-142.7417,-19.0459,-96.4353,74.8739,-151.9627,-18.3912,-84.9118,9.8019,-159.1228,-79.3963,-181.2843
-89.2077,55.8503,-184.6995,0.2620,-248.3772,-90.2775,-236.9106,1.2714,-129.0539,11.1844,-111.4493,48.9376,-162.3225,-12.6795,-76.3336,13.6552,-184.3379,-81.7301,-183.2034
-114.2761,7.3013,-191.5740,-97.2006,-258.0946,-156.9618,-214.5306,-31.4119,-108.3167,-35.6628,-113.0918,20.0497,-180.5959,-48.2866,-70.8561,-21.5416,-205.0597,-77.8078,-167.8618
-131.5814,-35.4042,-194.3817,-133.7366,-228.5991,-163.7208,-156.7084,-52.1181,-74.4933,-87.3868,-124.6892,-39.5877,-180.3034,-104.4809,-62.0899,-62.9870,-194.3737,-52.4079,-114.3117
-125.2858,-40.8445,-193.6456,-84.7477,-163.2222,-119.3100,-109.2159,-39.1630,-49.4069,-84.8466,-127.0465,-75.7240,-154.2096,-124.3791,-48.6945,-72.1080,-160.8089,-10.9356,-59.9423
-83.4534,-6.0582,-150.3544,2.0393,-92.8397,-71.3658,-88.0342,-16.0343,-36.6124,-34.8285,-91.1845,-34.8305,-115.6438,-93.8422,-33.7183,-53.7947,-98.3925,43.6483,-19.5928
-36.0216,23.1030,-78.3640,64.0190,-26.1310,-17.7198,-62.4361,16.5450,-25.5234,20.0095,-55.1787,3.1784,-78.2468,-66.6725,-23.6017,-35.3661,-18.8043,102.5167,29.0315
-25.9426,5.2729,-39.2379,70.6211,26.0587,22.5511,-49.1647,57.2202,-29.6437,48.5922,-59.3213,-33.2898,-62.2407,-65.7678,-29.2365,-15.6343,29.4222,132.4934,85.6167
-35.0145,-37.5927,-11.2601,45.2641,56.8528,11.4643,-54.3949,84.3398,-37.9957,60.2339,-60.7799,-74.9287,-65.1396,-55.5042,-39.4410,16.7047,55.4495,124.5123,141.5867
-20.7937,-63.5654,48.7085,32.1595,86.9423,-15.5562,-25.5516,91.2081,-13.2330,72.2773,-24.1679,-64.8742,-56.8316,-36.7924,-31.8230,39.9415,105.8994,111.6357,205.2589
-2.0172,-67.1686,68.7875,43.2138,106.4680,-4.3269,15.8820,91.3316,17.5587,83.2502,-3.1412,-46.9852,-46.1119,-39.8371,-22.1486,38.1857,139.3559,102.3097,254.0583
-12.2717,-58.1931,5.4322,59.3092,71.7974,21.2364,-10.5599,86.5190,-1.6097,83.2380,-30.6174,-40.5900,-66.9537,-45.6833,-38.7067,35.4059,101.0599,70.5241,242.7549
-29.1573,-49.9902,-39.4505,54.7289,7.9156,11.0710,-57.9583,60.3343,-33.7624,48.5716,-49.7073,-27.5416,-97.3460,-41.4240,-57.8499,32.0450,54.4361,26.0859,192.8141
-34.9464,-68.1006,-20.6668,14.0730,-12.6540,-34.3898,-20.1659,16.8508,-4.5369,-19.9733,-32.6842,-35.4640,-103.2525,-61.2322,-41.2200,-3.7820,65.9129,16.5842,181.5688
-55.1557,-103.7612,-18.2466,-37.4127,7.7383,-69.0458,64.3889,-0.5901,61.9544,-48.7231,-30.1823,-74.4083,-103.4024,-87.7253,-7.9914,-46.7778,82.8381,56.1959,222.3260
-79.2137,-102.0709,-34.6208,-42.6959,21.6790,-38.9980,94.5204,27.5042,87.1277,3.8931,-55.0282,-81.9372,-101.7987,-62.1416,0.2318,-41.4251,57.4404,110.2630,248.5850
-58.6950,-49.2511,-10.1610,13.5388,29.7020,53.5871,77.5506,56.7366,62.5379,58.6021,-58.2785,-28.1882,-70.9431,-13.2463,-13.0385,-11.8395,37.9256,140.7926,230.5362
-8.3510,-1.8785,12.4473,75.2932,43.3153,127.3098,74.2837,55.4537,44.1237,53.7771,-33.3330,29.3611,-32.0403,-12.7080,-16.0919,-15.5235,54.3398,135.9742,208.7063
12.2560,0.4483,-10.5449,83.5763,50.7103,119.6479,95.2097,39.5783,59.6384,26.0034,-17.8724,31.0476,-22.6479,-47.7659,0.6128,-45.4824,74.1076,117.3025,199.5412
4.1271,-21.3146,-13.0618,40.5745,61.6636,65.3317,112.6854,6.0619,74.9365,-7.6804,-14.4055,-19.0727,-20.2334,-72.1729,16.2600,-71.7759,86.9815,116.4988,171.2265
4.3649,-40.3627,29.4669,-13.1605,85.9521,27.9181,103.1564,-42.9614,56.4171,-50.3988,-8.5001,-73.9117,-2.0155,-88.6336,9.6905,-85.7113,98.0237,122.1303,129.2061
5.4981,-56.3964,43.5324,-51.6037,91.5553,18.0494,78.6573,-46.9043,32.0740,-48.2166,-12.0153,-95.6751,5.3714,-96.9300,-7.1357,-72.3603,84.9698,94.3564,118.5998
-7.2159,-60.3504,11.5570,-59.1606,65.6457,21.2809,80.8512,12.9179,47.5958,15.6538,-21.8559,-73.7932,-3.9680,-67.3092,0.0856,-35.4615,52.0098,54.4509,134.1196
-8.5074,-25.7735,-7.1171,-8.5812,45.6833,48.5434,116.7328,70.4352,91.1423,77.5261,-12.5180,-10.1644,-2.3974,-2.9414,35.0131,-13.7333,47.9080,74.1526,137.7138
9.8463,37.0240,9.2977,93.1571,47.6915,103.9719,146.0199,103.4856,118.8325,112.5554,3.6499,59.3757,8.1318,43.0424,62.5089,-13.5026,80.7894,147.4837,134.8165
15.2641,75.9241,33.7167,173.4991,48.3639,135.8997,140.9200,132.9582,115.3946,127.3212,-4.1235,66.7467,11.4528,27.6795,62.4911,-7.9631,96.0119,181.7238,124.2886
5.0221,74.7583,46.9554,175.6969,39.4606,95.9881,99.9775,115.0532,83.3947,88.8265,-15.0486,15.5328,17.2055,-19.7959,48.6106,-4.3046,69.7429,142.7719,59.5883
14.4370,62.8413,51.4477,111.7639,32.1021,23.9956,39.5306,23.1172,30.9937,2.4217,9.2923,-4.6929,34.7777,-26.7845,35.4779,-19.8287,40.3202,86.3911,-47.1587
38.4632,40.6802,46.7103,8.2821,22.3616,-19.4497,-5.9290,-70.0163,-15.6300,-73.0667,47.2914,21.4643,48.9385,6.6388,22.5461,-39.6700,22.4598,36.9776,-113.9519
31.1782,-2.6041,6.5096,-100.1511,-12.7012,-54.2647,-39.4344,-118.2942,-47.1421,-124.6553,43.8548,16.3127,31.4372,-0.0840,0.5362,-55.5131,-21.4049,-28.1953,-131.9333
-9.5196,-28.9820,-75.3236,-151.8779,-79.0567,-112.4262,-97.6550,-143.4643,-78.9081,-155.4428,-4.3659,-22.1843,-28.5817,-64.9266,-30.2305,-77.5185,-87.0538,-79.4009,-157.2543
-32.0457,-17.0569,-124.8579,-138.0137,-123.7834,-158.2518,-139.9440,-136.9997,-90.2103,-140.6734,-38.8585,-32.0306,-87.1822,-118.0526,-41.4957,-100.9539,-94.4421,-56.2224,-171.2553
-10.2255,-9.0573,-74.1161,-118.9052,-79.0587,-158.6310,-91.1516,-96.8442,-49.5750,-100.7024,-17.9354,-28.1002,-75.4045,-131.5853,-13.3133,-112.3175,-19.2093,16.8510,-127.6937
26.4326,-17.3971,20.1781,-106.7449,26.2793,-124.0529,-0.8545,-73.0938,2.0745,-78.6482,26.4886,-46.0565,2.4108,-132.1077,20.3792,-104.7243,43.5170,58.5046,-72.0263
43.9491,-6.6750,60.4901,-65.4998,91.3175,-66.2401,33.3165,-74.7920,10.9676,-68.4731,43.3026,-51.3629,67.7381,-117.0535,24.5177,-81.5984,31.6133,56.8401,-59.6156
40.4774,12.7072,43.5753,-19.0028,91.6642,-14.3428,31.2579,-74.8605,3.0959,-69.8177,39.0355,-27.2037,83.1575,-79.5294,20.7223,-64.7301,-2.0485,53.1880,-64.1213
29.8303,3.2764,16.6789,-21.4216,79.3221,-11.3183,38.2259,-86.3517,9.1174,-90.5871,42.1119,-14.1179,78.1040,-46.2980,26.0336,-61.1847,-19.0701,36.7992,-57.8871
22.2715,-25.1731,-3.4700,-74.9592,65.6210,-37.8565,22.7277,-95.6657,0.8664,-85.3990,43.9183,-15.1700,73.2900,-31.9389,15.8593,-41.9669,-50.8552,-25.5918,-53.3912
24.1009,-47.2352,-12.2653,-141.4472,40.6749,-35.6690,-4.0136,-48.0905,-16.9026,-34.2610,39.8732,11.6918,72.7987,-24.1780,-2.5863,-2.7622,-100.8111,-96.1369,-37.1030
34.4300,-53.1983,-0.2202,-160.9195,38.0587,5.8047,30.0903,32.8796,10.0058,20.0611,54.7571,74.1252,93.8723,0.0981,10.5145,29.9963,-130.9857,-116.1494,15.9804
42.0687,-36.1678,32.5324,-101.2389,70.5965,59.9377,107.5164,83.7182,72.0712,73.3260,84.7394,132.2387,135.5102,64.3263,44.4229,68.2797,-132.8849,-104.0737,76.9085
37.7309,-16.6453,73.5571,-30.0151,93.8270,92.6937,141.2698,109.9678,100.8976,120.3884,96.2220,141.9220,158.8705,135.3517,58.9716,118.0480,-115.6230,-98.6827,99.6022
24.6427,-18.0955,93.5430,-11.3521,85.5373,77.8678,117.9506,118.2774,82.5943,100.4016,83.1110,103.8638,136.8916,138.3465,54.9244,120.9703,-78.4725,-69.6906,83.7357
9.7548,-7.6155,71.6832,16.4037,68.9846,49.3442,89.9577,88.7855,63.7456,43.3960,57.7329,64.5570,87.7452,93.3309,52.4288,65.1021,-30.2349,14.8188,57.9009
-5.4339,31.6897,41.2228,100.1253,61.0917,52.9941,85.8051,58.1400,69.6951,45.0865,28.6024,38.8432,44.7287,95.1201,56.9570,29.5484,26.8846,104.6324,42.4111
-16.9216,44.2654,44.8409,160.1657,66.3487,52.0394,93.0037,55.8113,80.8813,60.2720,18.0200,1.4027,23.9687,135.8135,67.1100,39.1905,92.2444,137.6931,41.9465
-12.1202,19.7992,65.2990,147.2592,85.7802,28.7285,92.2475,44.3683,75.5549,25.8252,33.7080,-22.5397,24.6731,139.3719,70.1315,39.5237,130.6618,134.4196,54.7496
13.8858,19.9492,76.2626,110.9734,107.6331,57.5774,95.3409,39.5436,67.4314,39.9064,44.2163,9.0785,42.0359,122.6036,59.8899,24.2974,127.5262,151.9457,78.5247
43.2151,42.9568,90.5725,79.3721,124.0298,133.9490,129.3375,95.4596,84.5414,133.9395,40.7076,53.2421,72.1537,132.0061,63.8636,27.1262,122.9195,183.6130,100.6268
57.6235,38.7125,104.2320,54.1946,136.2445,157.8133,177.5899,159.3279,118.9329,172.8589,52.1336,62.9532,103.8035,135.4194,92.1158,37.6430,124.8381,172.2157,109.3412
67.2828,21.7674,94.6059,46.9568,136.8842,142.1689,209.5778,166.8140,145.5819,145.6554,74.8751,76.5806,123.6533,102.2997,108.5948,34.9634,103.3735,108.3830,124.2039
83.2140,14.7645,73.2566,18.6087,122.7972,157.0712,232.6684,171.1883,163.7183,167.9135,74.5319,102.3076,128.7911,48.9779,99.2543,25.9009,71.6401,41.9179,159.9494
78.4728,-11.9054,45.1888,-70.1591,93.6824,146.7172,220.1041,196.0334,154.2072,200.4807,41.7179,75.8881,110.4200,-21.0507,77.3768,14.0652,35.7724,-4.6913,168.0210
29.2972,-52.6106,-14.6298,-164.3867,29.3272,61.1317,114.0624,162.1574,78.8098,136.7284,-11.0272,8.2220,52.6999,-90.1835,31.8053,-4.4031,-45.7051,-44.2685,98.6579
-29.5273,-58.1840,-83.5466,-204.7472,-63.4836,-14.9604,-25.7280,58.5373,-21.3409,28.8693,-59.9534,-15.3572,-24.0111,-100.0684,-27.1527,-29.6678,-139.1167,-52.6557,-6.0626
-51.4660,-28.2970,-110.0107,-192.5742,-119.8776,-16.5586,-75.1341,-25.1094,-59.4398,-29.4140,-75.2866,10.6374,-66.9786,-38.7859,-46.0502,-56.5474,-149.8564,-4.0728,-70.2229
-44.3998,5.8619,-111.4110,-111.4586,-107.8860,31.4888,-48.3110,-43.7466,-44.4790,-44.7709,-64.3983,26.5818,-62.3361,37.2245,-23.1860,-62.0727,-92.9032,52.5413,-80.6316
-36.3883,38.7562,-118.4320,36.2897,-68.0516,93.2001,-29.8221,-33.3244,-34.9345,-48.1041,-57.8901,20.0828,-43.1531,81.3950,-7.3746,-38.0693,-45.0486,69.8980,-63.1504
-30.2192,62.4025,-98.2916,150.8182,-27.7250,113.0488,-8.7702,-41.9580,-17.6042,-50.0377,-46.7350,8.5750,-25.1489,81.5119,0.4919,-23.1420,-10.8262,78.0716,-39.0174
-29.1312,59.4722,-50.4586,159.5630,10.0629,61.5517,31.7714,-64.2271,23.1269,-47.3310,-21.2857,-4.9111,-7.6063,60.0645,20.2481,-30.0050,12.2060,99.8856,-23.2244
-40.4739,41.2686,-36.4965,119.9506,24.6672,23.6833,49.3360,-28.1660,49.4867,3.0963,-14.6087,-6.0025,-3.4974,71.3432,35.4843,-10.1562,1.9468,109.8119,-1.4367
-43.7063,30.9919,-46.5323,105.8684,30.4025,68.2986,64.1031,96.0529,68.4031,123.1740,-26.0314,19.2905,-0.9191,124.8317,47.0987,49.6542,-4.4431,108.5706,59.3276
-22.8811,30.6896,-12.4958,123.4877,71.7633,137.8776,123.7545,226.5592,114.7734,252.1546,-16.0201,46.7441,33.7021,169.5196,72.6813,110.0034,27.0291,111.5940,143.2520
-7.6703,33.1441,40.3193,156.4403,118.9756,192.2413,179.5176,306.1927,153.4722,337.6747,-4.1316,47.9296,80.4099,197.0050,89.5092,164.3569,45.3507,96.4507,198.9206
-20.6119,32.4469,33.3403,185.1014,114.4227,250.7180,188.4946,373.9108,156.4518,393.1888,-29.0626,31.5402,89.3459,232.6190,86.1049,215.5215,27.4825,60.3529,220.5051
-32.6210,22.3128,-16.8505,181.5619,92.0134,272.4125,192.7078,430.7486,163.4139,424.6071,-53.9660,19.1767,71.6544,238.9841,93.1832,227.2457,21.4750,39.0866,233.9544
-19.4517,4.7166,-38.4932,137.0539,98.9496,219.3022,195.8703,427.4239,174.4034,417.8829,-40.8421,14.8789,66.8535,183.6140,105.4412,197.2173,31.7602,28.6270,233.5880
-4.1882,-12.9204,-26.2316,72.0773,97.1009,141.9704,159.9208,384.0551,151.5150,385.1225,-22.1501,6.7078,62.6319,124.5770,94.2652,172.5711,31.2955,-0.3606,200.8407
-11.1266,-27.6787,-24.1416,16.0486,54.1507,63.1027,109.0211,342.1204,119.6116,338.5080,-21.6292,-16.3573,33.0084,100.8190,80.6764,158.6045,31.8733,-38.2806,139.6191
-26.2581,-33.8291,-43.8209,-9.2401,5.3744,-36.1496,68.6660,286.5266,104.4990,275.0435,-20.0787,-42.7924,-7.0225,73.9163,82.2531,129.6014,40.3359,-63.8396,66.9215
-22.3118,-18.7527,-46.9673,5.7991,-16.2720,-100.6992,24.4641,224.3547,79.9614,218.8683,-9.4815,-43.2499,-29.5958,39.5168,75.2591,98.9832,53.3219,-63.3306,10.2297
1.1287,16.0374,-2.2101,48.1948,-8.9413,-88.1701,7.4278,193.4082,61.3844,199.1178,5.9787,-14.3603,-23.0819,26.0558,64.4750,82.7108,80.5639,-23.6807,-7.6026
14.6908,36.4212,49.2660,61.4148,5.8987,-78.0455,26.7198,173.2205,70.7105,188.4121,18.5503,5.0168,-6.5274,-0.8315,62.9753,62.4806,88.6256,17.5857,-4.5771
1.2396,9.5264,40.8825,-9.7404,-12.6490,-129.4707,-5.3163,131.9517,46.8116,145.6025,6.6411,-10.8741,-23.3682,-74.6962,35.7269,34.2513,36.1238,-4.0160,-11.7592
-14.6546,-39.6700,-3.0616,-115.1774,-57.0076,-187.1104,-86.5047,96.3757,-16.1978,95.5024,-19.2772,-33.6246,-68.1976,-149.2224,-14.7658,14.8938,-21.8364,-66.1982,-15.7593
-11.4000,-61.2459,-9.3763,-156.9589,-67.5846,-212.6737,-82.7072,78.7094,-12.1910,78.2365,-16.0970,-35.2691,-78.1321,-189.1158,-22.6761,-0.9777,-28.0358,-100.8655,3.7263
-18.1077,-68.1802,-1.5530,-167.2590,-58.2435,-241.0871,-0.7234,45.3820,56.4141,59.3407,-0.6548,-46.1095,-54.0702,-221.4914,7.2669,-26.5669,-45.6252,-124.9562,11.6655
-60.7241,-98.5133,-52.4658,-230.4114,-101.4741,-282.6886,5.4267,-7.7678,62.4825,-3.8917,-28.4573,-92.6056,-68.5120,-251.2552,2.3244,-51.6466,-123.3574,-179.8503,-28.6373
-93.2556,-117.8178,-130.2185,-284.0103,-173.5519,-302.2309,-75.9451,-53.2649,-2.1257,-63.5005,-69.4911,-114.5988,-117.1206,-251.6481,-36.4774,-62.0681,-187.6758,-233.2505,-86.1404
-61.8295,-85.1019,-149.6877,-255.3829,-197.3782,-293.2662,-134.1166,-81.2562,-44.3244,-67.8547,-50.9053,-45.6486,-128.2573,-235.6678,-55.3010,-63.8060,-183.7033,-251.8491,-114.3571
-3.4790,-53.1915,-110.3454,-242.1593,-188.9242,-291.1263,-155.4128,-91.7830,-60.2170,-59.0058,2.3431,46.8648,-107.4579,-235.7676,-57.3061,-66.9231,-154.6689,-258.7830,-120.2339
7.9696,-70.3757,-62.7386,-306.1618,-193.2981,-305.8454,-167.4399,-83.0760,-77.9700,-69.6556,11.7860,40.0256,-99.1187,-248.0971,-65.8897,-64.2218,-146.3047,-271.7073,-134.0680
-18.8989,-84.2599,-36.1778,-330.0652,-191.9919,-300.9262,-151.1695,-71.7671,-74.2986,-65.7025,-20.4058,-42.0621,-89.7227,-253.5291,-68.1334,-52.2409,-152.9407,-277.2216,-161.8514
-23.3716,-50.9222,-57.2298,-259.0495,-182.2648,-268.2029,-145.5529,-92.1213,-72.7200,-64.4905,-37.4061,-66.8540,-76.7115,-249.8086,-64.6298,-56.2660,-156.9426,-267.1253,-199.4933
-4.0726,-12.4332,-119.4425,-193.7913,-196.4057,-245.6827,-200.7407,-149.5022,-116.8328,-114.5520,-30.2301,-15.1628,-91.9732,-236.3620,-76.7659,-85.5933,-157.6512,-249.9264,-238.9395
2.1313,-3.3067,-134.9157,-170.8208,-209.6834,-223.2070,-236.0170,-186.4403,-151.8200,-160.7871,-23.8636,15.4208,-106.7719,-197.2883,-91.3406,-92.1016,-146.9496,-236.7789,-246.4316
5.0397,-5.7580,-49.3533,-138.9456,-175.6112,-157.9487,-177.9957,-155.7954,-124.9393,-140.8067,-12.0881,1.0445,-70.7295,-127.2770,-82.1972,-47.3379,-101.8601,-226.1765,-201.6531
22.7328,-13.4228,41.2678,-120.4335,-124.2007,-100.7938,-115.4909,-114.4156,-94.3518,-115.2364,14.4936,-2.9790,-26.5855,-66.4612,-65.0800,-8.1078,-41.0937,-206.9065,-146.3488
23.8685,-33.0823,28.9780,-153.8892,-108.1813,-126.2454,-130.2542,-124.5858,-103.4456,-119.8218,22.9363,1.1776,-36.9839,-60.1415,-66.2545,-16.2506,-30.3983,-183.1852,-126.6133
-3.4728,-40.6839,-36.6454,-171.5226,-111.3722,-161.1279,-157.3675,-117.3597,-107.3642,-81.2962,-5.5715,-13.6856,-63.1415,-78.6268,-70.8054,-20.8489,-74.6884,-164.1987,-125.6116
-16.4851,-16.0563,-55.8480,-107.8751,-93.4380,-92.6831,-133.4606,-35.7888,-87.4568,-4.7621,-31.8598,-15.1072,-43.4833,-53.0045,-56.6584,13.4383,-100.8761,-135.2328,-109.5166
-10.7094,8.2574,-43.3170,-32.7702,-64.4151,24.5908,-91.7224,14.5184,-76.3221,3.4097,-33.6815,7.2427,-2.6288,8.7792,-42.2058,37.8622,-101.6207,-96.4219,-84.5310
-29.0760,-8.0414,-50.2226,-45.1699,-53.6247,71.7997,-58.8020,-34.2063,-70.7087,-53.1612,-41.4509,-2.8888,10.5144,43.6726,-47.6148,24.4358,-129.4385,-80.4425,-62.8757
-58.0981,-44.2609,-45.7213,-105.2909,-45.6786,62.5355,-11.7763,-71.6574,-41.3008,-73.9171,-55.9433,-48.6363,12.3805,43.7939,-47.7744,11.1446,-151.0223,-80.9550,-35.1245
-52.7558,-50.2602,-2.7880,-99.2901,-6.4110,71.9176,61.5075,-39.1642,13.0367,-51.8887,-41.3479,-64.3690,41.6164,39.0807,-16.2981,10.7294,-117.6726,-52.6965,1.5955
-39.1812,-27.8701,23.6242,-25.5906,44.1626,93.8936,134.6487,-28.9628,70.5528,-47.1148,-14.6727,-47.0099,76.0864,35.4788,21.6714,-2.4039,-85.4427,1.1828,36.2141
-55.3244,-11.3381,0.6804,29.8975,56.8039,89.9772,158.5093,-62.5825,97.8517,-51.5853,-17.4204,-42.7933,71.9386,40.4380,31.9576,-16.1912,-95.4680,35.9596,49.4517
-58.1661,7.8894,-20.8699,59.4111,38.3507,75.9209,108.0332,-53.6373,70.1766,-26.1801,-26.2560,-33.4302,48.9635,59.5481,23.0997,-0.9466,-91.2748,40.8255,20.7986
-10.0870,50.7774,3.9712,107.4990,28.3362,78.2353,25.1114,-2.9234,10.9478,10.1218,-5.5509,11.8498,45.6481,62.1480,13.1846,23.3751,-37.3661,39.3464,-32.0042
37.5401,87.2818,57.1374,146.8557,21.1660,79.9562,-26.7452,9.3212,-31.2814,12.7976,16.8149,44.6312,42.7686,34.2118,-1.5557,22.6972,28.1759,44.0286,-63.9157
34.9805,87.4263,87.3702,137.6210,-6.2931,62.6543,-41.5135,-27.8583,-46.7671,-24.3486,6.2142,19.5937,16.1656,5.0045,-20.9841,1.8954,59.6288,45.5838,-77.0528
7.2849,73.0543,59.9350,110.0910,-35.7123,45.6003,-45.7190,-67.2711,-52.1459,-69.5749,-22.5699,-21.5096,-9.5463,-21.6024,-32.5104,-25.6703,37.7374,41.1287,-95.0698
-10.4817,62.1812,9.5012,94.0479,-39.9908,47.8511,-34.8630,-81.5722,-43.6675,-90.5895,-42.5667,-30.6442,-24.0669,-49.5580,-31.9068,-57.8216,7.8184,64.3730,-80.2835
-16.8241,47.1076,10.1413,89.5224,-22.3432,63.0919,4.7126,-71.3525,-14.0365,-85.1524,-43.3380,-22.4419,-44.6589,-34.8448,-20.9987,-77.6353,50.9866,137.1354,-5.2626
-6.9640,43.5326,60.6065,116.9567,6.0572,91.0138,57.2594,-59.8326,21.1642,-74.7706,-22.1266,-11.6039,-49.4461,26.3143,-1.5432,-73.4618,145.0697,201.6658,63.7170
29.4059,67.4772,103.5144,178.1556,41.3392,130.1813,95.1464,-71.3212,42.1894,-73.6606,16.9279,22.0981,-13.5720,61.1589,14.3190,-64.1434,197.7832,200.7888,81.3299
71.4778,84.9386,144.3522,219.0932,78.4652,142.3097,101.0320,-92.4135,41.5217,-79.8595,61.9408,66.5050,27.5168,54.5980,14.2922,-54.1515,212.7952,170.6221,92.3232
82.9823,62.6562,197.2059,203.3535,107.3663,99.3154,73.3035,-92.1061,21.2228,-84.2670,89.4334,61.1156,38.4357,51.7891,3.7989,-25.7283,231.7945,149.4208,109.1915
63.7458,23.0270,202.3157,149.9780,114.5428,39.4318,30.9159,-67.2966,-6.0071,-70.7284,73.7986,-8.7001,28.8879,31.3636,-8.1339,2.3965,225.8456,115.3270,94.0423
49.2512,-0.7282,150.2014,91.1596,102.0327,10.2841,-2.1640,-38.0675,-25.6071,-33.2711,34.0006,-70.4713,11.4475,-25.7323,-21.4204,1.4973,196.6636,76.0430,71.0348
56.2661,-9.7753,123.1601,53.5866,91.6224,8.4503,-22.6116,-27.2887,-39.1221,-6.7848,26.6276,-60.4920,-2.4374,-36.3274,-32.6854,-0.3267,191.0449,60.1527,81.3126
61.4242,-13.4098,125.0436,51.5417,82.1664,15.1809,-40.1937,-50.2932,-54.9475,-36.8334,56.9403,1.4232,2.9053,34.6357,-36.4375,21.3756,170.8585,39.7627,88.0303
47.5410,-5.9782,88.8044,72.6631,50.7748,24.4901,-51.3318,-100.6721,-64.4536,-109.2839,75.7486,64.7585,10.5626,90.0809,-36.2935,25.7341,94.3455,4.6414,62.3780
35.4378,9.6244,46.4779,89.2812,18.2622,24.9436,-37.7532,-154.4097,-50.4609,-162.9311,77.3538,105.5420,4.4939,82.8677,-32.8788,-6.9347,38.4691,-2.9745,44.9328
42.6176,10.5158,62.1956,73.2401,27.9949,9.3996,4.2746,-182.9419,-16.6271,-167.1544,92.5465,109.1275,16.4713,71.8346,-18.0794,-28.2240,49.4258,1.2882,48.5046
48.1588,-8.9753,86.7794,22.6453,56.4844,-11.1194,35.5925,-159.5027,6.5775,-131.7464,100.1416,69.1676,47.9754,67.2899,-0.0852,-14.6357,56.6466,-23.9314,36.7803
31.7491,-19.4118,56.7820,-16.2772,47.0502,-24.9467,7.7133,-91.4446,-7.9968,-72.8454,63.7292,19.9253,43.1120,37.4783,-1.7754,4.4196,25.1178,-41.0540,3.9551
10.2595,-8.3351,1.8352,-15.3027,8.5252,-25.2937,-58.3139,-39.6007,-48.1062,-29.6606,18.1947,8.6360,4.7282,22.5707,-19.8085,14.6101,-8.7076,-27.3700,-27.6022
6.1772,-4.5423,-28.2915,-11.7139,-10.4002,-10.7040,-87.4405,-58.5988,-73.4388,-54.1486,16.4403,32.7036,-5.8563,59.0344,-29.1610,16.2963,-27.8021,-30.5906,-42.7207
15.9902,-11.7242,-19.1226,-15.8804,-1.6052,10.1866,-62.7382,-127.6919,-69.3590,-122.5592,41.5017,55.5812,10.2214,90.5523,-30.1416,-1.5227,-24.6026,-40.4185,-31.0259
29.8871,12.0011,12.3410,23.4553,8.9694,42.0172,-39.4685,-169.0756,-59.6217,-139.1534,47.5232,72.8031,12.8231,80.4835,-37.3273,-26.2297,5.9370,-2.0112,-10.1082
46.7067,71.6061,21.9919,108.6391,6.9054,95.6150,-42.5106,-135.6078,-58.1854,-79.6462,36.2611,107.4525,11.9874,77.7056,-37.6432,-25.6759,28.4901,51.5239,-17.4484
57.6329,113.3154,7.3582,177.3322,-3.7554,132.3155,-47.2846,-76.2067,-54.4364,-35.5432,38.1282,148.6376,22.8510,102.3082,-20.3819,-3.8727,22.5845,58.2270,-43.2685
51.5772,106.4543,28.4534,192.1705,-17.9670,100.7823,-53.7066,-80.6063,-54.5986,-73.6681,56.0156,155.8576,20.3641,113.0360,-15.3835,10.2984,22.0220,30.4055,-51.5898
43.4386,77.1376,90.6185,155.9064,-31.6611,36.9952,-79.6798,-149.6534,-77.6582,-145.6340,71.3403,129.6639,0.9899,102.2994,-40.9826,9.1396,44.7214,1.7104,-51.6645
61.2982,60.3256,130.5856,108.1932,-23.6747,13.4249,-102.2340,-203.0407,-105.9544,-180.5586,84.0680,110.6371,-1.4403,87.1570,-63.1365,-4.7309,81.6739,-10.2336,-57.8128
100.4015,61.2281,138.3344,105.9832,24.7718,12.1891,-88.2638,-216.9056,-102.5770,-186.8131,107.5518,103.8556,23.5720,42.5019,-53.0342,-34.6265,129.8177,3.8814,-52.2349
123.2522,55.1111,137.0480,115.9546,73.1233,-31.2524,-55.9091,-229.3141,-72.6020,-204.0437,132.6242,83.4359,48.6265,-38.2545,-29.0002,-69.0660,153.3937,3.0672,-45.0376
111.5302,21.6827,106.3628,46.8194,56.1665,-107.8678,-49.7865,-239.2677,-54.5990,-219.6690,136.2975,61.3978,43.7577,-89.6388,-18.9577,-82.4598,113.8456,-60.3089,-61.7730
88.0489,-16.9221,59.6115,-63.4282,-6.2486,-158.2156,-76.1375,-227.5543,-62.9862,-204.7936,121.9956,64.0467,12.4970,-74.2869,-27.4557,-67.7886,57.5676,-138.8027,-80.3907
78.1395,-25.1983,59.0198,-101.7647,-35.3880,-159.5555,-95.6105,-205.4741,-75.1245,-173.6093,109.8380,67.4885,-4.0166,-42.1533,-37.6450,-44.7686,47.3874,-157.8468,-85.3208
77.1972,-9.6854,84.3263,-80.2122,-20.3847,-131.5665,-78.8337,-167.4762,-66.8443,-141.3087,98.2454,39.5785,16.8062,-36.0202,-27.0327,-31.0163,57.9194,-136.1272,-106.2126
71.2295,0.9531,56.7033,-65.9035,-8.0407,-102.8473,-47.2599,-109.0836,-42.8030,-101.3006,78.8780,5.1211,42.2662,-39.9296,1.1204,-25.1087,43.9683,-132.0655,-137.7052
62.6051,2.1233,-11.6011,-49.3975,-13.3447,-91.7080,-37.3144,-84.2307,-27.9396,-81.9331,65.4428,3.6377,38.0766,-35.6619,17.1550,-26.4959,22.9936,-145.3828,-139.1159
52.9444,2.3457,-49.5072,-24.8065,-30.5310,-94.6279,-43.1359,-113.4358,-27.4795,-111.3625,62.9767,23.9694,10.8965,-28.7985,13.0663,-41.8847,20.4320,-138.7657,-117.8520
29.1691,0.8209,-52.3682,-13.8587,-57.9643,-97.2324,-39.0953,-125.3052,-21.9315,-138.4740,45.0183,20.2991,-23.2603,-33.1147,6.9342,-58.7786,23.8402,-104.5558,-98.4998
-1.9776,-4.9085,-53.0883,6.6924,-65.2109,-96.7928,-35.2388,-96.5779,-14.7511,-123.5729,8.3352,-26.1905,-49.4114,-58.9782,0.7517,-56.7508,26.2771,-72.5796,-74.9382
0.8175,-7.5679,-35.8165,45.3186,-19.7900,-97.1963,-49.1966,-96.3013,-29.7351,-121.1372,3.7821,-70.8935,-37.7709,-85.6322,-7.8524,-47.9699,49.7727,-56.4407,-62.9009
51.6129,8.0910,30.1307,69.9408,49.9724,-92.5666,-54.7009,-135.1981,-49.0259,-150.1723,58.0598,-53.3446,15.3488,-72.4182,-1.1848,-51.1560,106.1156,-30.0253,-82.7059
97.9356,39.9141,106.1958,92.8463,89.2177,-72.0268,-22.3646,-146.9112,-31.6049,-144.5804,115.3273,8.3609,63.7532,-27.0940,21.8810,-49.2012,154.8350,5.9208,-92.3571
92.4702,51.9165,112.6017,115.7546,86.9031,-37.1110,19.2239,-122.0165,2.7661,-109.8724,116.5491,38.3245,76.2138,1.7617,33.6685,-32.6681,135.2983,7.2156,-64.1781
62.2465,25.3645,52.2452,78.0284,69.2502,-10.2695,17.3207,-110.6505,-4.2622,-120.4938,84.9400,26.6120,71.4687,0.3484,22.0366,-28.7449,56.7219,-22.0409,-48.8885
50.1707,-2.2886,15.2725,-5.6829,54.5697,-12.7052,-26.3741,-117.8531,-46.9531,-149.0322,68.0446,25.2588,68.1795,-13.8193,-0.3884,-38.1975,-12.3144,-34.2879,-68.6799
36.2173,-4.5345,23.2648,-49.9140,35.5037,-30.3199,-54.8953,-99.2775,-62.5742,-111.8850,50.1281,28.9063,57.6734,-29.4846,-18.3681,-26.9097,-56.3214,-31.9087,-77.9781
-11.9148,-8.5266,1.6306,-66.3012,2.2169,-33.2939,-38.2295,-48.0747,-35.0297,-39.4801,-0.0768,-5.1419,34.9059,-33.9986,-20.0224,-3.7703,-111.5423,-34.2951,-68.9371
-58.6943,-25.2605,-62.3081,-99.3264,-27.9821,-23.8378,-12.5227,-22.0199,-10.3660,-20.5891,-48.6243,-46.3474,12.1851,-28.6272,-10.8196,-10.8119,-160.7856,-26.2982,-69.7527
-56.7861,-25.8064,-99.5551,-98.7025,-36.1129,-16.6765,-10.6588,-46.2150,-10.4501,-43.2406,-51.8604,-39.9465,-2.1190,-29.3670,-9.9460,-35.3072,-152.3013,-19.4430,-65.4243
-33.5432,-3.1808,-91.7630,-38.6298,-37.6866,1.9582,-11.2929,-44.6216,-7.2104,-21.7748,-38.0439,-11.6978,-9.6053,-15.2363,-11.3751,-24.6951,-103.1208,-33.3513,-44.5995
-29.7550,25.3492,-63.4551,20.2997,-43.2821,36.1168,-5.7504,26.6677,3.1769,51.6997,-44.6489,-6.2362,-9.4278,27.6599,-1.1166,18.4426,-65.3773,-23.2959,-43.1739
-16.6687,51.0578,-9.0388,52.1298,-27.2735,45.9925,-32.9663,67.2662,-19.3417,80.9414,-40.8689,-4.7014,1.1822,33.9321,-2.4938,37.1156,-34.0541,25.5290,-67.6623
28.2814,59.0680,50.4354,62.9273,13.5698,14.1359,-83.8910,17.5700,-66.9507,32.0433,-1.5318,11.2026,17.3881,-22.0965,-24.8446,16.9227,9.0843,41.7670,-78.1614
51.4756,45.2704,61.1577,50.1970,40.3192,-7.9667,-77.1814,4.2826,-62.0343,23.8876,26.0988,17.5857,29.2439,-36.9878,-19.6747,11.9506,37.7607,22.9049,-57.6770
24.9266,49.0308,46.8005,79.3581,47.1915,28.9755,13.0645,112.9004,22.6283,131.0676,13.1571,17.1022,36.1703,40.4183,34.4276,52.1867,50.3310,57.3531,-10.4048
8.2201,89.1012,76.3056,207.7569,74.9632,105.0965,115.0516,224.5916,113.1773,236.2355,5.8774,35.1019,49.0194,110.7589,86.4838,92.9052,97.8336,145.2422,63.7363
35.3585,116.5680,136.5358,327.0185,135.7825,169.4228,169.6194,242.1135,145.2260,240.9220,29.5262,50.3424,74.0914,113.5748,100.8603,95.6063,179.6004,208.6938,138.6722
64.3196,101.7941,173.8724,312.7474,197.0945,206.8618,186.5719,237.1995,137.0851,228.5168,47.7982,41.1169,105.0512,108.0064,97.9996,85.6932,223.9530,245.3580,179.8250
70.4359,81.8192,188.2238,234.3395,232.1343,238.8637,196.9418,269.6877,131.8416,270.1832,44.1948,39.8394,128.0434,130.4339,97.6719,89.3615,215.5074,291.6939,201.1724
64.8353,78.6399,189.7342,212.1457,237.9200,268.5391,217.1793,293.1742,144.3639,304.7054,35.5464,51.1962,130.1231,154.6725,99.8548,94.0094,208.0098,323.0410,229.2447
41.1154,68.5280,165.6529,225.2660,222.3293,261.7689,241.9607,281.7556,168.9348,296.0500,20.6068,28.8378,111.0091,159.8155,104.8690,91.4570,205.8744,309.9951,248.5952
8.1501,44.0325,134.3997,201.5519,199.6241,206.4001,249.7384,266.5414,187.6063,280.6550,2.1501,-15.1238,89.0346,129.2744,107.9429,85.2370,176.5121,272.8419,243.0702
6.0942,22.1241,127.6412,139.5415,180.4282,146.4321,232.5026,253.5940,181.7155,258.9823,5.5240,-18.9589,83.1767,63.1826,99.7091,69.3475,135.7133,226.0724,227.8679
26.1494,6.3611,123.3569,76.5519,154.2416,120.3884,203.4402,222.4110,155.2815,215.4423,22.8361,11.6077,83.5962,19.0320,80.7990,51.9836,103.7417,161.2298,212.0565
15.5357,-2.7972,85.6955,42.7396,101.2689,119.7876,178.8676,179.4561,134.2265,178.5132,15.3911,28.8499,64.5274,43.8600,61.5046,52.9305,61.1972,93.5952,187.8831
-22.1525,3.9248,31.6680,42.3957,29.1496,122.7808,170.9845,150.3353,135.0218,162.0439,-14.9441,29.1503,31.8321,89.4447,54.5779,58.5794,9.9913,47.9854,147.8959
-35.8756,18.7126,-4.1630,40.1303,-26.7884,100.8241,156.6781,132.3385,131.4531,134.9929,-29.6319,25.3118,14.6645,78.6811,57.6520,43.8798,-21.8951,10.0232,79.6370
-14.3457,23.4239,-14.0989,12.8997,-44.2936,34.6560,83.0469,99.2887,78.9928,88.5627,-14.3343,21.6154,12.8487,26.3871,45.9267,25.9756,-30.1966,-33.9067,-7.7038
11.9085,22.1990,5.5219,-1.5304,-25.2142,-11.2365,-16.1353,64.8713,0.8582,65.3265,7.4448,26.2228,10.2035,20.9175,15.1631,35.3413,-9.8903,-37.3502,-49.7239
17.7452,22.4810,52.3093,19.2305,19.7268,40.3232,-19.1670,74.1160,-16.1352,93.1276,6.7837,18.1941,20.4036,75.4744,1.5397,60.7507,35.0611,22.9139,-5.9600
2.5670,10.0523,80.2096,17.3495,56.2262,100.0499,71.7746,103.2281,40.5116,120.0094,-8.6266,-17.0748,49.0717,85.2881,20.4309,61.6928,39.6573,60.5583,52.4829
-9.8060,-13.8593,40.7064,-40.8464,42.6601,29.3201,108.2414,78.0523,81.6694,80.5648,-0.3786,-20.8666,55.3141,4.4062,41.7622,20.0802,-25.2530,15.9077,38.8288
-4.1264,-20.4025,-34.6807,-84.3579,3.1705,-89.9759,56.5124,14.2731,67.8585,15.7278,27.0215,25.0134,26.2392,-64.3581,47.0078,-30.5822,-75.1196,-29.5875,-16.3439
-0.5062,-12.8690,-64.4771,-66.1027,2.1623,-99.3050,27.5703,-11.6975,47.9162,1.4045,25.7951,24.3310,12.2959,-59.7908,42.0151,-41.4489,-61.7896,-21.6828,-34.0773
-7.0758,-26.0273,-23.0515,-56.6271,32.4905,-63.7088,41.4954,-16.2884,41.2070,0.4858,10.9275,-37.3924,34.5173,-53.4639,27.3500,-18.0321,-47.7989,-35.8205,-20.3536
5.3707,-48.3181,35.6018,-102.8555,43.0953,-106.3770,35.8652,-56.2039,31.5098,-39.5819,43.9675,-36.5913,61.0448,-68.9609,16.5635,-7.0453,-62.3601,-93.5702,-29.9977
34.4689,-37.4533,43.6055,-136.4907,41.2430,-152.5634,30.2735,-86.6069,36.4203,-53.3141,96.5717,37.9106,83.3703,-50.9945,34.5404,-16.4117,-79.3470,-112.0850,-67.6042
32.8903,-6.2780,-14.0131,-116.3683,46.3262,-125.1033,54.8222,-44.2129,64.1693,3.5541,87.6319,58.7559,105.9342,-29.5553,67.9738,-18.8384,-118.2445,-87.1223,-107.0784
-2.3602,6.2056,-81.4252,-93.7167,30.1212,-109.9314,61.8270,23.2320,79.6073,53.6206,33.6441,7.1167,102.0906,-62.3607,83.3433,-15.1667,-173.9218,-82.1866,-145.2975
-17.5478,11.7830,-92.7131,-81.5630,-5.4524,-135.7009,32.5853,38.2154,64.1091,43.0129,8.8233,-28.3765,69.9709,-90.6614,79.2958,-22.1822,-160.4291,-81.5400,-182.5107
6.3315,28.4067,-56.9968,-46.6056,-12.6374,-110.2915,-0.1137,1.5222,23.9819,-3.6566,17.6323,-29.5719,52.2317,-60.7769,62.6994,-32.7584,-74.7128,-55.0388,-199.1497
26.4219,22.4925,-36.8790,-31.7747,7.9838,-42.2282,-30.7374,-46.6602,-30.2472,-66.8079,20.8315,-29.4117,55.2110,-30.4222,28.0907,-37.9647,-35.6901,-38.3808,-174.8683
5.9368,-26.3732,-56.0282,-98.8971,18.5400,-21.7726,-38.9868,-80.7561,-53.0834,-113.0558,6.8110,-33.5385,48.5340,-36.6400,-4.3914,-46.4152,-90.0053,-39.1739,-110.3155
-39.4720,-74.9611,-97.6841,-192.6788,12.0281,-34.5384,9.2073,-84.0671,-10.4840,-94.6626,-21.2352,-39.6744,29.6812,-51.5931,-7.1024,-62.9357,-166.2896,-25.1595,-33.5773
-71.4299,-83.0951,-153.0943,-217.8318,-9.0789,-22.8217,58.3678,-49.2016,40.9762,-34.2672,-58.4278,-34.7705,1.6234,-74.6171,1.5912,-79.7772,-208.4030,0.8337,24.9548
-84.2778,-64.5659,-200.5814,-174.3521,-36.5710,6.8196,52.8914,19.4094,51.1121,27.7910,-92.6364,-7.9794,-42.3716,-95.2088,-0.6361,-82.5240,-208.6037,46.2724,73.8038
-102.2384,-44.5571,-198.4052,-106.6098,-32.0671,53.5207,67.2935,110.2047,71.5994,107.7545,-119.4785,0.7881,-70.5754,-57.5243,10.5566,-58.2277,-168.8406,138.9960,133.4792
-122.6649,-26.4253,-145.5497,-26.6373,9.9103,117.2293,141.7815,180.1202,125.6396,174.9257,-133.3681,-37.8260,-49.9186,19.5158,44.3956,-18.5978,-111.5740,221.0492,172.0922
-115.0271,-20.0007,-88.9750,31.6105,37.6508,122.9998,162.6777,155.8143,130.7290,133.2707,-115.8560,-82.6483,-18.3344,34.2488,53.4614,-1.8928,-67.2500,197.6993,147.5047
-81.5948,-43.4102,-65.1181,7.7794,30.7538,31.9824,71.8114,22.7046,51.6273,-11.1780,-73.6372,-100.8417,-25.2530,-28.4440,11.6310,-28.3948,-42.0592,99.2672,87.8234
-54.7634,-69.9647,-76.5601,-65.2983,11.4509,-52.4435,-30.2471,-115.6969,-34.0224,-130.3596,-45.0333,-95.3936,-52.0111,-72.8569,-37.3852,-70.4825,-36.0507,37.2166,37.2458
-38.0992,-42.5127,-93.3721,-67.3794,-10.2813,-35.2460,-64.9936,-145.2721,-64.7602,-139.7511,-41.1710,-59.2193,-55.1572,-46.3575,-46.0899,-83.7003,-38.5723,45.4729,-13.6582
-14.2731,25.5949,-72.1263,20.2320,-10.8521,33.9350,-41.4095,-80.9140,-45.3300,-68.8109,-34.7482,-18.7883,-21.0240,6.6748,-16.4434,-57.6352,-16.9421,73.0583,-63.9288
4.4871,53.6604,-28.2866,73.6377,30.4145,71.2978,30.4245,-10.7351,11.7979,11.4214,-17.8488,-25.9364,36.6863,33.0402,26.5927,-21.4526,10.1336,67.5243,-70.9542
-8.1245,22.8382,-36.8184,29.6026,54.6413,73.7943,120.6791,41.6756,85.6421,66.8036,-16.9030,-51.5862,76.1746,28.8551,62.3744,-0.8672,-28.0612,15.8621,-32.8536
-42.2767,-10.2956,-101.8388,-33.2549,10.7050,61.0400,167.7106,85.3658,136.8255,101.7816,-38.0042,-40.3259,62.4318,15.8194,76.7185,6.5947,-111.7296,-51.4445,5.8014
-63.4221,-25.8994,-137.3446,-52.3579,-35.0258,21.5714,159.5668,90.3529,148.1398,113.2545,-48.5846,-28.0539,22.7773,9.6177,71.4205,12.9901,-135.2292,-94.4538,27.3912
-67.8413,-44.2224,-119.8120,-51.0507,-29.3733,-36.4387,122.0963,72.0179,128.2741,109.8881,-42.2834,-59.9186,0.2285,12.9322,58.9776,32.0002,-96.5841,-113.7382,32.1001
-84.0622,-58.0642,-110.3247,-50.1405,-33.1478,-70.5045,69.6016,108.8100,95.6033,140.0853,-61.2796,-109.0467,-17.4057,13.0637,43.1936,72.7568,-89.0210,-136.5553,17.3276
-109.5002,-60.0457,-116.9989,-48.1717,-71.7715,-65.4270,48.7039,185.7325,88.1103,198.2981,-104.6678,-145.9002,-45.8641,-0.8718,32.4428,105.9156,-100.3958,-158.1336,15.0172
-99.7158,-62.3488,-97.9901,-49.0465,-72.2379,-38.7148,103.3478,205.0127,125.0903,206.8920,-103.5675,-149.3579,-48.8204,-7.5434,47.5780,89.8336,-50.3867,-143.0689,53.1805
-47.9382,-54.0420,-67.0816,-39.1525,-13.8822,7.5548,169.1687,171.1522,156.9884,168.6040,-47.8965,-95.6728,-7.2586,17.5073,77.6646,49.1366,20.9628,-85.9712,93.2884
-7.0836,-28.9158,-49.2763,-6.8465,38.7190,63.1183,156.9738,147.3193,129.6440,144.6450,-12.0190,-34.6665,31.2982,49.0351,76.9676,36.3984,37.6342,-23.3055,97.6822
-2.1169,-15.4880,-15.0872,29.8333,55.4475,77.9142,92.1342,99.0840,65.7099,92.6954,-11.3120,-35.0524,26.3366,58.9199,41.7535,35.0759,52.4987,25.1293,82.4996
-0.9949,-13.0754,30.7584,70.1969,57.7432,35.1647,34.4445,-2.6016,12.7699,-25.4029,8.7596,-52.4552,-2.6002,76.0628,18.9329,10.4888,121.0280,72.8008,53.8281
10.2193,1.3977,24.5374,109.5003,59.8033,-9.6692,-19.2292,-68.5968,-24.8993,-100.9072,40.0250,-29.6626,-18.9128,110.8366,20.9703,-8.4610,161.9668,107.9063,6.9177
10.7655,1.7484,-25.4604,85.5690,64.7988,-19.4978,-63.4502,-45.2734,-52.3209,-66.2000,32.0725,-18.6040,-13.2036,105.5646,15.9407,2.0751,111.1838,97.3153,-20.7393
4.4520,-24.4801,-31.2454,-1.2964,69.7438,-14.2134,-71.0375,1.1213,-61.7673,-8.2566,2.9535,-45.7079,-1.7846,49.0376,-3.6506,11.7033,51.4868,69.7594,-6.8068
17.7412,-20.7886,27.8241,-27.2158,69.4141,-4.5668,-69.9272,25.9019,-65.5813,19.4636,1.7731,-37.0375,-1.9190,16.5920,-17.6506,10.4942,69.9202,93.2187,14.4228
47.7396,21.2034,85.8010,44.2035,79.8424,11.7617,-93.4101,47.3889,-79.6118,45.4003,27.2349,23.4989,-7.7667,35.0670,-20.6951,20.0595,131.0935,158.6136,30.5545
62.5441,31.3383,100.8644,85.8537,110.4247,17.2789,-106.7712,61.0244,-86.9015,61.5692,46.3485,54.5592,-1.9606,46.6885,-20.5605,32.7206,152.0397,190.9275,60.8292
42.7016,-2.6099,82.3620,38.0708,122.4266,12.7070,-81.6404,55.7207,-70.6746,56.6328,34.8859,29.8016,7.0673,27.0206,-23.3061,31.4408,104.3812,167.8724,92.5754
3.4221,-28.4711,51.0339,-18.9284,85.4936,16.8583,-53.1773,44.7101,-49.7464,46.2689,1.3710,9.8676,-5.5743,11.2492,-32.6721,23.5222,29.6845,134.1573,107.6563
-21.6451,-32.8026,29.8205,-35.0148,34.0956,8.9360,-58.7886,15.0227,-51.6246,5.3848,-13.4444,23.7851,-33.4988,12.0899,-44.4708,10.6905,-12.2196,116.7014,101.1447
-21.6073,-22.4973,26.8650,-23.8106,2.1140,-29.9518,-101.6880,-51.0195,-83.8388,-71.3806,-4.7945,27.1103,-52.5581,4.5316,-56.0360,-12.0581,-9.2360,102.9389,43.5304
-18.4009,9.7676,18.4785,4.8552,-30.1997,-55.8240,-159.2219,-111.4121,-128.8757,-115.5278,-20.9901,-11.1472,-68.1701,-24.2226,-73.9200,-35.3450,3.7656,86.7977,-60.0697
-25.7020,39.3836,-18.1026,20.7516,-74.9572,-37.7782,-184.0205,-121.6315,-148.8485,-109.2355,-63.2099,-47.3997,-88.9434,-53.2255,-87.0257,-54.4607,-2.8617,72.2853,-129.1158
-31.6033,34.5717,-72.0019,-1.7254,-103.8902,-13.8995,-155.8619,-106.5519,-127.6597,-109.2943,-74.4306,-36.8754,-90.6879,-47.0670,-73.1540,-65.4036,-33.0250,39.0085,-134.0303
-30.6690,17.2092,-110.0101,-18.7792,-109.1586,-9.1455,-125.3037,-102.7563,-103.1937,-120.6906,-51.9158,-10.8928,-66.5493,0.9184,-49.9987,-45.9768,-68.9535,-33.2123,-134.8280
-33.1338,16.1946,-115.7814,1.7324,-123.5228,0.0110,-143.8823,-96.3683,-116.2618,-105.7049,-49.9981,-11.8322,-61.4218,49.5442,-57.4879,0.1944,-80.0533,-105.3085,-147.9308
-42.1266,19.4523,-124.2394,9.7959,-161.2202,14.6162,-197.3839,-69.1749,-155.2640,-70.0777,-83.1187,-26.2311,-103.0771,59.3566,-89.1363,25.2148,-63.3795,-120.0569,-144.5686
-52.3295,12.5056,-176.0413,-22.4784,-193.6735,5.2816,-238.7824,-45.5563,-180.4455,-48.5443,-116.1764,-36.1385,-153.4426,41.4950,-102.6775,7.3028,-52.0454,-92.5037,-142.7723
-59.8956,1.9116,-226.3409,-39.5248,-194.3220,-24.3764,-237.8372,-52.1326,-172.3100,-66.8942,-118.5072,-42.1341,-169.9516,29.2936,-86.7335,-21.8917,-50.6391,-68.2164,-148.4106
-60.3265,0.0705,-201.0454,-5.4457,-173.1346,-36.6779,-206.6642,-71.0727,-147.5874,-107.4088,-94.4590,-30.0358,-161.3569,30.1868,-70.9009,-32.0919,-33.3652,-41.6895,-121.4133
-57.4071,9.8866,-142.7256,29.5526,-160.5999,-16.6899,-183.2253,-67.8941,-131.8558,-100.5214,-83.3705,-6.3491,-155.7682,33.9377,-76.1531,-21.7637,-17.3621,-13.5857,-74.2797
-69.3271,8.4805,-149.1679,6.4089,-171.8060,7.8455,-160.3186,-37.8241,-110.6438,-31.4079,-106.0002,-7.6292,-156.9325,41.1504,-81.8721,-2.1516,-45.9116,-31.9783,-48.1440
-97.1308,-21.8043,-199.4684,-53.5602,-192.1235,6.2280,-105.4051,1.6082,-58.8270,19.9604,-124.2219,-18.8298,-151.4020,52.4222,-62.8550,16.6859,-110.4526,-97.9465,-23.7822
-104.8496,-46.2445,-201.2000,-80.4396,-200.4988,-21.0020,-71.9842,29.7970,-23.8855,16.5243,-103.2616,8.6935,-139.3283,50.6542,-43.6268,32.6577,-151.4681,-147.7719,4.6047
-70.5899,-32.6958,-139.6196,-61.7498,-194.4110,-64.4074,-129.7467,20.5824,-64.4602,-9.4607,-60.9597,55.4683,-134.6853,24.6865,-58.7177,41.3903,-126.9912,-153.7605,-11.1977
-33.7024,-13.4079,-61.9653,-48.4908,-180.9326,-120.5821,-212.1355,-33.7642,-131.0894,-61.4743,-26.1267,64.1073,-136.6804,-8.4288,-85.9096,30.4897,-69.5658,-131.1610,-64.9334
-36.1351,-15.9421,-9.5154,-57.8570,-163.7954,-159.0840,-237.8984,-100.6594,-160.5003,-137.3595,-15.8713,31.3375,-131.5866,-28.1127,-98.2649,6.2972,-53.4402,-91.4104,-105.7017
-46.7983,-16.1898,-8.7750,-65.0201,-149.7713,-146.5052,-259.1208,-147.5847,-190.9074,-180.6319,-31.3754,-2.1680,-120.9820,-36.4913,-116.3690,-8.7432,-79.2089,-69.1639,-137.7746
-20.7910,-9.4140,-36.2047,-72.3111,-144.8552,-118.9824,-299.1646,-170.3543,-233.7698,-184.0128,-36.7998,-9.6785,-115.7039,-46.5312,-137.2863,-16.4008,-68.3394,-97.8946,-166.2319
8.2650,-20.6383,-26.3837,-90.1066,-143.2710,-131.6925,-267.5338,-164.7976,-208.6906,-180.4518,-12.3385,-4.7059,-112.3620,-62.6695,-122.1442,-25.1843,-14.3127,-140.7794,-146.0956
-8.8218,-40.9090,20.5966,-103.2538,-144.7687,-158.6115,-163.9199,-129.3949,-115.1865,-143.9482,-1.2371,-10.8088,-109.5531,-73.3344,-87.7582,-17.7165,2.2050,-153.1377,-75.8485
-40.4884,-49.9502,33.6481,-117.3719,-161.8940,-154.6870,-103.2142,-93.4029,-55.4276,-76.3654,-19.4923,-5.1549,-121.7039,-61.0207,-79.9781,2.9159,-25.7566,-152.7708,-12.2198
-40.0417,-57.5237,-2.2832,-146.2648,-181.7259,-137.8676,-108.1132,-86.1757,-57.1833,-61.1523,-21.8196,37.8275,-144.9502,-33.3142,-84.9180,-2.1681,-32.0469,-143.3579,22.4668
-26.7189,-61.1137,-22.6994,-143.6322,-164.9289,-108.5385,-108.0716,-98.0104,-67.6222,-101.8972,-9.4940,68.8652,-150.4925,-15.7714,-80.3030,-31.4416,-5.1459,-85.2044,50.5089
-21.9599,-39.3988,9.9355,-69.2170,-112.7219,-30.6585,-78.7517,-102.4551,-63.8662,-107.2669,-18.2606,55.5099,-130.0179,-7.6582,-83.4246,-40.5210,30.3030,1.3929,90.9601
-9.0891,-12.8934,50.5808,-0.4941,-82.5021,36.0929,-46.4307,-95.5388,-49.6858,-79.3638,-21.2886,59.0027,-108.8078,-7.0856,-89.6224,-31.0504,55.9067,28.2074,130.0419
2.2057,-26.7843,36.4360,-46.9507,-113.5341,-22.3440,-54.4473,-107.3760,-44.4611,-105.7243,2.6226,92.8165,-116.3849,-46.7864,-84.9401,-45.7671,32.5306,-32.9777,117.2618
-12.7084,-66.7134,-12.7130,-171.2975,-177.6995,-161.6527,-118.1163,-160.1044,-74.4510,-179.4344,9.4258,88.0422,-154.5131,-117.2679,-93.5157,-84.1531,-29.7509,-106.6611,42.2166
-27.2024,-67.1946,-20.5562,-216.9794,-217.5274,-212.3101,-159.2119,-201.9219,-100.3044,-198.8762,-9.4489,60.8459,-184.8237,-139.1794,-110.7464,-104.2643,-40.2320,-113.4284,-15.8482
-15.8212,-14.1122,5.2812,-128.9209,-210.7159,-133.1021,-124.6406,-158.9452,-76.2785,-127.5225,-21.7942,73.4189,-175.7126,-94.2800,-97.8803,-87.9274,10.1362,-60.1403,-11.6382
-7.9024,27.8861,-8.4864,-32.8570,-178.2648,-42.2915,-102.8477,-63.2135,-61.5611,-42.0516,-38.8460,80.9898,-149.0167,-57.8030,-75.8080,-55.3144,24.9395,-9.3735,-1.7095
-9.9895,15.0237,-31.3590,-36.1442,-129.7728,-14.7500,-123.4032,-7.4415,-85.9937,-11.3277,-57.3998,38.0059,-123.7916,-66.4044,-75.0055,-36.8420,8.5907,13.8711,-3.6864
14.7612,-17.7854,23.4393,-76.8945,-43.9863,-9.3340,-61.4587,3.1127,-55.1710,-8.2417,-31.8136,-9.1526,-70.0775,-93.7244,-53.6597,-45.3283,56.1631,35.8567,38.5722
52.6645,-30.5561,107.7458,-58.4411,70.1611,29.7551,89.7153,21.1845,43.7465,14.0210,12.9011,-48.1025,14.3483,-114.4366,1.8865,-58.6699,141.2045,69.1120,114.8311
54.6228,-29.6398,114.9275,5.0955,156.1918,115.2418,186.6061,58.0305,102.3129,53.2829,11.9272,-89.9344,79.3817,-88.3667,35.9871,-40.3904,155.0832,95.8890,168.2394
32.0814,-29.7625,64.1866,46.9061,189.1300,225.5795,230.6969,112.8741,125.2302,112.1049,-10.6360,-78.9963,115.7113,0.9286,46.7356,8.7367,93.0787,99.9348,219.5866
21.4049,-45.1561,31.2397,28.7755,206.3520,304.0542,321.7914,181.7213,193.8832,187.0385,-6.4036,-23.6276,153.6605,72.1985,76.3796,45.9852,28.2426,79.7005,304.3028
15.3586,-86.1049,32.7115,-30.9823,241.5577,299.4442,404.8019,214.8439,259.0999,213.8768,10.1898,-21.2793,186.7465,66.1323,106.2322,50.9056,-2.5176,60.9292,372.7325
10.1698,-108.6839,68.9776,-40.7964,279.3229,239.8669,383.3252,193.7213,244.4136,176.6709,29.3901,-50.9595,194.6473,51.6013,106.0405,54.0456,9.1560,82.4007,370.7400
26.4695,-63.5268,131.3228,51.5001,280.2363,198.4721,304.2357,175.6651,194.4040,159.8058,57.1299,-22.1382,179.9625,77.0909,94.2692,74.9051,65.3392,128.8651,320.6459
54.5439,0.5815,172.1013,143.3913,238.1404,180.7589,243.2737,170.7538,161.2039,170.2850,73.6966,24.4236,152.9751,87.4752,84.6436,84.7071,127.6618,136.0582,259.4205
73.4084,16.2397,171.3289,138.8617,195.7814,130.9101,192.9163,125.9858,127.4112,121.2658,86.9167,32.8365,135.1176,55.5298,74.3664,63.4259,143.4328,90.8159,185.9738
96.5990,14.4142,156.4755,101.7363,173.8551,41.1271,115.9848,56.0078,74.1366,33.3261,121.5686,55.1794,131.5679,6.2819,63.4272,32.7707,122.6263,39.5839,99.3519
128.1087,35.0085,143.0014,95.0347,142.8746,-32.6999,14.0938,19.2950,8.2843,-0.8313,143.1930,93.6876,108.7241,-51.3361,40.1199,12.0771,122.1052,8.6076,25.0397
141.9363,51.4247,156.7895,90.7661,115.6937,-50.5598,-45.2916,14.6010,-35.5912,11.6173,129.8737,79.1133,78.5031,-74.1289,15.7762,6.8908,164.4982,10.0358,-15.4632
137.9604,56.5484,229.2663,106.4634,149.5087,-15.4815,-9.2743,22.7862,-22.7461,26.4359,129.3682,29.1631,102.8773,-3.4613,29.5770,30.1332,228.2883,61.4623,-26.2262
135.7309,64.4795,298.1673,161.7883,217.3292,49.2233,57.7515,40.5891,10.9016,41.3010,146.7156,-1.1300,156.9160,107.4239,62.4091,69.3795,283.0282,123.0226,-13.5107
124.0368,43.9534,273.5250,164.4801,236.9648,102.1484,84.7496,40.4185,18.3305,38.2649,134.2646,-22.0021,162.9154,155.8881,62.4056,81.3903,286.4908,123.3638,28.9675
90.8825,-7.1530,200.8382,80.3340,215.7445,112.9650,114.4635,25.8572,37.9189,27.5534,104.2439,-32.1902,143.9988,140.6662,49.9791,65.9017,212.3164,81.0972,90.2871
57.1755,-25.7365,170.2150,24.9554,203.0931,111.0846,167.6497,56.2399,89.8388,69.7515,86.2245,-9.2754,150.1279,115.9234,59.6488,64.4803,110.5243,73.8301,135.4653
30.9685,-6.6501,148.3346,39.5680,178.8694,135.2760,175.8565,119.6228,108.4948,133.7382,53.9184,16.3242,139.9326,99.5594,59.9946,75.6549,44.4966,102.8919,151.9830
-2.5989,-6.7487,75.8949,40.0888,119.5469,149.4714,126.7156,134.1428,77.0129,130.3049,6.4242,24.8064,84.2451,91.2059,33.6104,69.0154,-4.8670,109.5444,156.3419
-33.6522,-26.4305,-3.4102,5.7492,55.5503,100.9706,65.0894,105.4578,44.2482,92.8752,-16.4473,42.0161,22.8115,79.4814,9.2410,55.0497,-58.8479,79.9095,150.8388
-47.2025,-40.7633,-38.8474,-33.4251,6.8278,18.7526,-2.4376,94.9527,13.1698,91.5558,-26.6059,42.0253,-29.5996,48.1525,-10.3855,52.7357,-73.6736,44.0145,128.5700
-65.2283,-68.4043,-51.1573,-89.9346,-26.9331,-40.3372,-63.7140,81.9524,-28.6672,86.1060,-58.4862,-24.7465,-80.4878,18.7686,-38.6570,49.4410,-48.8432,22.1538,102.2160
-98.9514,-101.9054,-56.5130,-138.6840,-42.2756,-71.2930,-99.6064,37.9225,-63.1402,48.8080,-95.5554,-111.1490,-112.3238,13.5408,-67.1250,45.2956,-45.0837,13.6191,80.7039
-115.9087,-97.4592,-48.4194,-124.1328,-61.9037,-80.1806,-129.2111,17.2871,-86.0023,29.4566,-112.5281,-132.1143,-127.1756,8.4489,-86.6106,51.6226,-59.4337,6.4832,58.8706
-102.8371,-68.6835,-50.1329,-79.2305,-101.0501,-63.5857,-134.8190,29.2715,-87.0118,15.7942,-108.8957,-92.1158,-144.5039,-2.6060,-84.9990,40.5619,-41.9390,1.6056,47.6902
-80.4479,-56.0010,-68.8711,-55.6910,-113.2132,-44.8440,-87.3235,-9.5138,-55.2958,-43.2865,-82.8368,-51.6820,-150.6402,7.5412,-59.1024,-8.7334,8.8046,20.1530,56.8193
-42.7593,-42.4770,-50.5194,-23.2707,-68.9839,-29.9403,-59.5013,-97.0775,-47.3857,-100.1260,-42.6322,-32.4017,-132.0766,25.2341,-50.1454,-50.1227,81.6390,57.3686,67.2134
19.9638,-10.0469,25.2815,33.7762,-10.3332,14.9649,-91.7784,-123.2998,-91.6184,-90.6315,-9.9087,-18.1273,-98.2214,23.3702,-73.9660,-41.4716,167.3290,75.7550,69.6332
62.8654,7.2353,89.8728,70.1915,34.6548,69.7762,-89.3020,-78.0078,-106.1874,-62.4215,11.6844,-11.5206,-53.2815,22.7961,-74.6475,-15.2677,213.8803,76.5092,77.1822
51.2847,-6.0691,100.0517,72.0424,73.7814,74.1140,-28.5083,-64.3566,-63.7767,-77.1190,22.2919,-36.8291,-15.4090,34.9723,-40.2121,-15.6673,202.8502,96.5847,83.1856
25.7584,-19.1368,97.1726,56.6768,94.5613,54.9679,17.9447,-87.7907,-26.9438,-90.2303,14.5801,-78.2842,-3.8345,32.5859,-20.9769,-32.0767,186.8836,123.9894,81.7752
20.6070,-20.2321,101.2839,26.3811,92.3470,73.4864,77.3948,-54.7003,21.2607,-36.6008,2.4862,-81.2737,6.8812,17.2425,-5.8622,-36.2161,172.1027,124.1627,106.1632
9.4679,-22.4197,76.0743,-0.5221,85.0619,96.5289,162.8318,29.5709,100.5561,45.2095,-0.4865,-39.1540,27.4215,12.7558,32.3431,-26.8383,112.5451,114.6581,153.9248
-11.7945,-14.8855,20.7352,-7.4509,54.4244,78.0008,148.0863,70.2513,107.8797,70.8398,-7.1216,10.6784,25.0178,6.6795,41.9550,-15.7540,14.8666,98.6980,137.2478
-4.1210,12.3977,-23.8929,-25.6248,-12.9281,43.2942,27.3453,45.7221,21.9845,34.9050,-8.8858,62.6895,13.8784,-16.5624,6.9331,-11.0829,-78.4899,27.4021,21.3339
24.1496,22.3632,-42.0735,-71.7505,-51.1101,0.1744,-21.3285,-2.3169,-14.1988,-14.5566,22.3283,105.9160,36.0369,-39.0853,-0.0667,-19.6970,-136.5497,-74.6040,-76.2123
24.4135,-11.5249,-38.2179,-102.3370,-11.3728,-58.0932,53.3495,-45.9909,49.0728,-52.0457,62.4497,92.5788,67.2586,-50.4353,37.4834,-38.0216,-135.9410,-105.2433,-51.2567
3.6838,-35.9914,-24.2757,-78.9032,44.4099,-64.9083,137.5658,-43.1921,116.3124,-44.8340,62.7668,43.3003,78.3638,-57.9694,66.7224,-46.1347,-103.5699,-59.2990,23.4087
9.6530,1.5719,-26.8657,-12.5646,52.1085,12.5683,166.5444,22.9021,135.1312,24.5454,37.7754,39.7605,93.1322,-55.7051,76.7683,-32.3385,-91.6661,-32.3202,28.8516
47.1096,48.3089,-32.5714,43.7123,41.4262,71.7954,136.9993,62.3571,107.2134,68.1894,40.2624,70.1986,114.1893,-39.2603,73.8380,-8.5517,-77.2837,-68.2206,-21.4187
85.6819,35.7577,12.0892,32.1775,54.0666,41.7757,64.4983,9.0635,38.9559,11.7960,81.8162,69.6707,131.0538,-19.2207,45.9193,18.0749,-39.0247,-146.7495,-62.3739
108.1230,11.8311,84.9132,-15.8487,62.8611,-3.0415,-2.7051,-46.1149,-25.5483,-48.7947,125.3390,71.0722,159.7681,10.4049,15.3440,57.6936,-43.3763,-229.9629,-108.9589
104.9786,48.6519,92.9971,3.4988,16.9324,-5.0747,-66.7215,-26.3237,-66.3322,-27.1824,125.7417,118.7386,162.3743,52.6332,2.5399,97.9345,-100.2139,-259.0132,-186.9166
66.6187,98.1595,13.4792,76.0718,-83.3361,-24.6218,-162.4738,-10.2686,-113.1400,-15.5149,72.9823,144.4078,76.8767,56.0516,-19.9929,95.8268,-133.7608,-232.8134,-252.1311
3.1297,77.0218,-93.2944,67.9720,-179.5266,-108.4286,-224.0119,-56.9496,-136.2790,-77.9737,3.6450,86.6790,-46.9433,-18.0119,-48.7355,38.2828,-141.0252,-221.4091,-258.1581
-55.0023,11.8725,-164.4701,-26.7544,-213.0533,-194.8790,-182.4772,-93.7761,-90.0203,-121.4955,-44.7994,-2.9101,-119.7839,-103.4122,-42.9523,-32.2284,-142.2486,-201.6527,-210.7834
-78.4711,-14.8747,-152.2775,-69.8226,-177.9794,-196.6820,-107.9740,-65.1580,-31.7855,-84.2457,-68.6213,-53.5577,-139.2502,-119.5434,-18.9586,-68.1969,-88.5792,-86.5481,-136.2200
-60.0184,10.9852,-58.8698,-17.5436,-111.5160,-111.0375,-72.9884,3.1608,-19.5206,-2.6394,-73.5021,-52.7422,-124.8966,-87.2762,-17.1450,-53.5017,5.5320,60.0306,-59.2033
-23.2400,42.2468,39.2394,51.9898,-48.6082,-13.7088,-49.6951,87.8337,-16.4233,91.0428,-58.2234,-22.1272,-79.6794,-48.4882,-19.8946,0.1439,63.1762,115.9042,5.2221
1.2431,45.1329,90.2539,93.7869,1.8248,38.2919,-12.2904,159.0876,6.5183,151.9711,-29.6159,1.0979,-37.4147,7.6881,-0.5375,53.5608,102.7979,116.6925,58.5517
6.7179,28.1085,109.2444,108.0428,38.5750,49.7426,25.3273,165.5202,28.3214,135.9506,-5.4422,-10.6451,-15.9508,59.6834,23.6506,68.2636,146.9214,124.2057,84.5295
-0.0711,19.8242,85.6130,93.5073,33.9328,35.5066,28.2803,124.0208,26.9753,97.4165,-7.1319,-38.6339,-7.9459,59.7993,26.6502,57.3120,129.6035,88.6825,47.1814
-14.8154,28.0081,5.6623,63.5806,-36.9913,1.5806,-47.4105,103.1339,-19.0044,99.5481,-39.6306,-44.3803,-42.8908,41.3098,1.1283,57.2785,65.5354,9.6738,-34.8074
-21.3992,32.9135,-58.6080,21.0931,-121.9453,-29.4901,-153.5734,100.1251,-89.4878,99.8291,-66.3606,-19.5846,-103.8461,43.6265,-35.1541,59.3018,34.9243,-36.3254,-95.2006
-5.2766,28.8025,-52.6223,-44.7590,-143.4968,-48.3467,-186.5082,74.3636,-119.4013,69.9046,-53.0544,16.6680,-100.4840,16.6614,-51.6673,40.4682,-0.6668,-57.8637,-125.6090
12.5390,34.2614,-37.7113,-92.3445,-127.5379,-73.3988,-188.0636,49.4609,-122.2260,55.2003,-28.6605,48.9120,-48.5186,-45.5873,-53.3439,26.7924,-88.9062,-96.6209,-168.8910
5.7208,50.6461,-61.0965,-75.2746,-143.8073,-92.0581,-246.0481,53.0627,-157.9961,53.6343,-30.5070,76.9044,-44.9932,-55.0124,-66.9406,44.1999,-159.1679,-119.7447,-214.1931
-14.9772,53.9501,-73.4158,-33.5230,-166.1794,-71.9706,-274.2443,51.6220,-180.3704,30.6615,-43.2580,85.9627,-72.6215,-6.5608,-79.6055,61.2717,-158.6941,-102.6344,-203.4680
-35.1346,33.7254,-50.2631,-14.0312,-147.4630,-33.6520,-200.7041,35.1801,-135.2368,16.4959,-60.4960,36.1152,-87.7081,14.7380,-72.8529,47.8056,-94.9075,-57.1016,-125.8963
-58.4842,7.5690,-43.9880,0.3636,-125.6677,-11.0999,-137.4431,43.7935,-91.3618,38.1224,-101.1469,-52.9711,-131.7591,2.2841,-68.7363,23.1153,10.2740,15.9398,-33.2185
-68.6306,-1.7782,-76.7528,9.5719,-121.3169,17.5880,-129.1215,70.4485,-85.6113,63.2729,-130.4523,-73.5078,-170.0542,1.6544,-71.3662,6.7430,57.3565,77.1591,25.3604
-45.1683,7.2320,-97.9295,-5.8324,-82.3222,76.0024,-72.2272,77.1794,-50.3739,83.3187,-103.8784,0.5369,-113.1399,7.4555,-51.4727,-5.6171,-6.2189,85.5877,58.5796
-16.7753,7.8946,-65.7444,-10.6090,-4.8354,133.9520,35.5005,93.7774,20.9439,125.1725,-65.8616,38.0904,-32.5741,16.6639,-15.6474,-4.8534,-24.0548,97.9895,119.4203
-20.8646,-19.3457,-5.5809,16.2091,56.6088,154.7585,108.8656,156.7836,73.6694,180.3676,-65.3274,-25.0141,-25.2311,46.4305,9.7887,24.7219,78.7310,145.7085,212.4213
-43.8313,-46.8885,24.3264,27.1234,86.5128,139.1781,155.8663,215.1852,116.8672,220.2540,-66.8374,-74.9447,-16.7505,72.7039,35.1299,64.7535,105.9254,147.2388,257.3222
-58.0915,-37.7724,-2.4568,7.6391,83.1263,111.0196,197.4239,224.7258,164.1207,242.7576,-49.9717,-40.9109,32.3357,75.9511,69.0819,78.4594,-7.4678,93.9576,209.6946
-59.2669,-9.4600,-63.1256,-8.4285,31.2500,84.9415,190.1748,216.5940,174.2609,242.7434,-47.8558,6.7373,25.3362,77.1598,89.4589,53.8596,-59.8148,75.6855,134.1674
-47.0769,-0.1104,-118.8829,-23.4810,-36.1945,44.8670,122.4128,180.3364,128.9105,182.0605,-50.2903,28.9239,-39.1868,66.4407,80.1929,6.4975,-12.9262,79.7884,79.9836
-32.3602,0.6309,-150.3018,-40.8664,-79.6906,-22.5724,15.0498,67.1345,45.1509,57.5309,-34.0625,52.9265,-72.8910,17.5947,38.4472,-36.2991,-33.3032,34.4119,7.8297
-38.3420,18.5518,-160.9460,-27.0915,-121.2104,-73.6344,-98.5594,-37.9416,-41.1422,-26.1628,-40.2000,60.1721,-89.4722,-34.9314,-20.2338,-44.5600,-111.1586,-28.9855,-76.6369
-56.2267,33.3042,-147.3544,12.8171,-155.6944,-50.9276,-111.1036,7.1913,-45.1542,33.1410,-81.3755,25.1552,-118.7997,-40.6949,-39.7820,-12.1267,-95.8639,-48.5716,-69.1497
-61.4912,19.3298,-95.9457,39.8951,-130.6387,29.9430,43.5786,149.4342,73.7384,162.7540,-99.3094,-16.9679,-112.2742,-3.4684,12.1362,23.3716,10.2976,-18.4961,59.5503
-67.1030,0.3167,-39.0751,52.9072,-83.4754,105.3590,226.6361,223.2717,205.0184,214.6013,-91.9662,-36.3479,-82.4888,36.0536,74.4018,21.0727,90.1851,45.7314,185.5133
-79.8383,4.6447,-38.4502,54.8912,-97.2149,143.1095,268.8954,210.2511,228.9418,185.6705,-104.8804,-28.5768,-89.8251,35.1603,78.8919,-9.0479,85.6850,88.9781,207.9832
-63.4915,16.0060,-71.0133,28.7855,-122.1435,146.3309,211.9851,177.8882,179.9058,148.1374,-103.4671,16.2362,-87.4458,-9.5927,51.0883,-31.3267,20.8422,57.5471,167.9053
-20.3827,6.3298,-57.1953,-13.2768,-66.6147,119.3993,182.5880,113.0336,144.9688,88.5742,-47.8017,56.8055,-20.8917,-50.3813,41.8294,-43.5692,-37.1390,8.7946,135.7649
-8.9338,-23.7067,-16.3834,-53.0704,12.3510,64.5588,176.0887,8.4566,124.7072,-2.4956,-5.6454,20.5971,35.0931,-73.0079,37.6818,-63.0276,-56.5274,6.7649,108.8776
-37.4186,-50.7526,-21.5923,-87.0482,17.7516,-1.2300,132.2841,-70.3609,89.0985,-66.6763,-26.5279,-59.6633,17.9820,-116.5156,11.2633,-83.5812,-74.7585,1.0967,70.7075
-55.0316,-47.5350,-38.9227,-68.0157,-10.9872,-36.4709,95.2803,-100.4175,68.6718,-92.5948,-46.7556,-84.3178,-11.1726,-159.3863,-9.1776,-92.3250,-92.6656,-20.8955,48.5088
-44.5050,-5.9441,-0.4462,36.3657,4.1971,-10.0875,136.5580,-106.4217,103.1404,-101.8158,-21.9500,-47.5120,5.4731,-134.7862,13.4636,-91.8492,-58.1377,19.1247,58.8617
-27.0008,42.2924,55.0459,134.1242,33.8037,36.1334,186.3297,-87.5506,140.1647,-82.0852,4.8285,-11.9671,30.1536,-72.7261,47.4270,-84.6295,7.7443,99.2985,63.3699
-18.0466,51.7359,63.4043,123.1514,15.2902,18.2510,121.3861,-75.1582,92.8524,-73.2871,2.8476,-4.2627,7.6862,-59.3691,32.1752,-76.4901,32.5890,116.9859,26.6469
-25.7897,18.8283,39.7932,47.0986,-25.8257,-63.7397,-1.6872,-116.2747,2.2596,-124.0133,-9.2591,-28.4570,-45.1826,-88.4305,-15.6526,-80.0047,22.6136,78.9879,-19.5082
-34.3648,-10.9827,30.9042,7.1156,-25.8886,-109.0433,-27.4678,-145.1461,-16.0057,-145.0491,-11.7071,-66.4020,-60.9283,-93.7120,-27.1667,-78.8917,31.4634,50.8343,-24.3174
-10.4745,0.2377,53.5708,21.3231,2.0607,-61.8377,10.8775,-81.1201,10.5192,-65.1261,-2.1103,-59.1563,-26.3301,-62.7138,-8.3148,-44.6868,59.9568,36.4571,-5.9989
26.2742,32.7733,80.9973,46.6561,0.7537,18.9703,-28.4935,-2.1854,-30.8871,1.9654,0.3718,-7.3899,-8.7395,-24.6206,-22.8505,-2.7979,76.6418,39.7365,-11.0316
23.0048,37.7117,76.7994,55.2488,-6.8391,71.5362,-94.7903,-3.3494,-98.9150,-22.3591,-22.1579,-0.4797,-27.9977,3.8404,-59.6671,2.6159,74.8409,85.4320,-12.5691
-6.8898,10.2537,63.6522,59.3712,46.7899,103.5690,-50.8452,-31.5154,-79.7387,-51.0361,-43.7050,-59.0322,-17.4771,13.3908,-56.7537,-13.6432,70.9688,148.5837,39.0860
-20.2484,-15.1706,75.0052,70.8254,124.6158,115.1427,39.2921,-30.1493,-15.8583,-45.9479,-39.2766,-106.6928,23.0597,-3.6083,-27.0229,-22.5093,72.8867,187.6409,105.7146
-33.9829,-38.6535,61.8812,46.5420,133.1293,71.5860,43.4459,-39.6119,-5.5476,-63.2750,-39.1812,-124.1475,12.1526,-33.0982,-22.6632,-36.7394,64.0062,195.7320,124.1207
-63.2506,-81.5086,-1.8806,-41.4862,89.3040,-10.8019,-1.8003,-75.4614,-26.8252,-98.0269,-55.0449,-145.4212,-42.5841,-43.4357,-34.5195,-58.1170,40.5010,171.8006,110.4603
-67.2997,-109.7861,-34.0105,-104.8146,69.1377,-64.8790,-30.3186,-107.8451,-41.9586,-119.8420,-44.4133,-142.9270,-59.8222,-25.3084,-38.2882,-58.7777,28.0487,126.0477,92.6039
-39.9822,-75.0668,-6.3796,-50.1564,62.5009,-64.4725,-82.6596,-128.2828,-81.4915,-132.7918,-16.3806,-94.5435,-46.5944,-7.0695,-52.9613,-36.3810,28.8713,96.0600,50.0237
-29.1319,-8.2810,11.8059,63.6231,31.0305,-37.1018,-153.2007,-110.0975,-129.2868,-105.5334,-30.6867,-68.9897,-57.3758,-14.5026,-78.7732,-8.8466,28.9636,93.3629,-7.4328
-36.1967,24.8168,22.4426,115.7617,1.2895,-29.9451,-151.8389,-36.0326,-114.9071,-30.5178,-61.9170,-99.1944,-69.4472,-40.5263,-71.5812,14.9653,45.9680,81.8033,-38.1567
-22.2130,15.3248,64.1100,81.2521,-1.2779,-85.3159,-74.5823,12.8171,-40.7022,0.9490,-27.6555,-105.0910,-43.4903,-57.0521,-18.6468,19.8564,78.8329,34.4862,-50.8322
11.1275,-6.6326,95.9506,18.2921,9.1728,-164.0884,-3.8495,-30.3247,22.2116,-56.3033,61.6279,-41.4772,3.7091,-35.4797,35.9325,3.9147,83.3953,-32.7257,-67.0510
43.7330,-16.2319,105.9648,-12.0031,29.8819,-154.5562,26.2755,-101.0682,30.8279,-130.1061,124.8210,26.8831,55.5469,13.9515,50.0843,-4.4295,58.8210,-83.5516,-73.6558
74.0123,-1.5714,133.8038,-0.0195,55.5698,-52.8628,25.9543,-131.7914,-4.0946,-162.4552,130.9475,46.4110,101.4797,35.1065,25.1403,-2.8128,47.7569,-92.5851,-75.3454
85.4061,16.6365,140.5417,6.1459,65.0701,19.2303,11.8867,-125.3173,-33.7515,-140.6231,102.3341,31.4457,108.2945,21.9965,0.0340,-10.0803,54.0450,-61.4466,-77.3721
61.5790,5.2082,97.5257,-12.7814,73.7264,31.7678,26.3395,-71.1918,-13.9610,-61.4519,66.2845,1.5785,86.4909,39.4589,8.4298,-1.7515,58.4006,-16.0776,-41.5685
29.4396,-20.9588,79.6330,-17.5672,101.3091,56.3645,78.6684,11.6881,32.9704,16.1084,44.1989,-24.5965,91.8274,75.5341,30.8563,35.6917,41.9759,7.3094,28.2029
11.3924,-29.5006,93.4072,-11.0728,110.5751,84.9832,113.6668,39.7085,56.7224,25.9618,32.8581,-21.5597,111.2715,47.6614,27.3651,48.6471,-17.6056,-0.5959,73.4330
-8.0890,-32.1851,66.0390,-21.6143,86.7208,73.9730,115.9751,11.4785,63.9291,7.2715,12.4402,-11.8428,85.9887,-7.2440,11.4097,17.1601,-63.6871,8.5837,98.1017
-21.4063,-36.6683,34.9272,-2.6511,84.1708,53.2273,113.9597,0.8592,71.7826,7.6616,-1.0714,-31.6576,39.4883,4.6626,17.3979,-4.9931,-4.5319,67.2516,125.3285
0.5515,-16.3474,62.7457,68.6902,109.0510,34.8886,77.3937,-2.6088,46.8620,-3.5975,22.5681,-35.5184,30.2366,35.5874,24.3596,3.3863,87.4473,109.7232,107.8625
32.1142,17.7316,89.8080,105.7375,97.7415,-4.7175,-7.9227,-21.5160,-10.4536,-21.1429,56.4401,22.1744,38.3101,17.0710,3.9287,19.3663,71.3036,76.8905,45.9593
25.0244,22.1721,67.4829,72.1963,45.4416,-34.6776,-59.3824,-8.5931,-36.9911,-9.3713,53.9854,71.3319,23.2012,6.4266,-13.7769,35.4848,-3.9638,25.3722,14.8186
-4.1824,4.6940,25.4336,39.6613,1.8428,-41.2393,-56.1715,-1.4159,-31.9098,-26.6322,29.0021,49.8296,-5.4751,25.6806,-9.1245,30.4651,-21.5876,10.2470,0.9281
-10.8868,3.9304,-19.8696,39.7653,-24.9982,-53.9745,-70.7251,-75.1867,-49.2047,-105.6298,17.9046,18.5706,-28.5835,20.4378,-13.3237,-11.3197,-6.8213,-0.6042,-47.1843
4.1755,24.4484,-33.6944,60.1568,-34.5541,-18.7075,-68.7392,-123.9502,-58.1150,-127.7116,14.6201,21.2302,-26.2459,25.2977,-22.5723,-31.7933,7.9229,-14.3219,-70.4314
22.3953,46.8101,20.2161,99.6398,-4.2886,92.4345,10.0963,-48.8013,-15.5141,-45.6747,8.0946,10.2319,20.2753,77.3283,-2.4594,5.3862,52.8821,-4.1929,-39.2089
44.1025,45.7004,66.1519,93.4777,35.7677,124.3198,37.5774,-0.0769,-6.9050,-13.0431,19.7059,-14.5708,69.5065,83.1122,12.7784,30.4104,73.8788,-16.7518,-48.9366
59.8962,4.3925,36.8634,-15.1711,30.4054,1.7401,-77.4059,-86.5069,-90.5541,-100.0290,48.6506,-8.6553,60.4304,9.4177,-24.8944,4.8413,16.2414,-88.1216,-110.9980
42.1677,-47.6710,-5.7327,-128.6816,-1.2272,-101.1194,-159.9277,-156.0950,-144.4661,-155.9696,46.4956,-13.9143,19.8310,-39.9186,-65.3302,-13.2462,-47.3667,-145.1054,-122.8260
-17.1927,-71.7151,-45.0565,-160.5408,-24.3486,-100.0809,-89.2804,-108.0963,-77.6675,-92.8386,-9.1482,-77.3526,-1.7215,-44.5472,-47.2186,-6.8118,-89.1827,-143.3908,-86.6464
-88.3350,-83.3891,-133.5128,-184.1398,-67.9721,-124.8231,-18.8513,-43.5386,5.0688,-17.1917,-72.2327,-126.5393,-34.4823,-66.2671,-11.3229,-13.8923,-163.8431,-135.8450,-76.2771
-123.6214,-92.6220,-201.0241,-221.1102,-137.1604,-189.3250,-58.3625,-16.7693,4.3321,2.3636,-91.7784,-87.3961,-95.3538,-74.6207,-13.4090,-16.6448,-222.4190,-141.3809,-76.7092
-105.4945,-63.7243,-171.0045,-182.9031,-180.1152,-175.8842,-122.2429,13.1700,-37.9323,23.8946,-78.1148,-5.0531,-126.3474,-38.2426,-38.3819,14.6688,-203.8575,-139.0770,-67.4464
-78.6490,-15.3951,-141.4485,-112.6358,-201.1318,-120.8468,-165.4133,35.6829,-75.5030,57.4265,-80.2194,35.6797,-126.0169,-27.0946,-63.1000,41.6469,-186.7803,-152.2016,-87.3908
-93.1000,-15.4905,-182.4899,-122.0291,-244.5975,-128.3914,-208.7617,30.1644,-106.9648,44.0317,-113.5770,10.7300,-158.6937,-58.4613,-84.8489,32.2136,-207.7901,-180.0979,-119.7153
-124.5080,-40.5068,-207.1843,-137.0465,-275.9367,-139.8715,-202.1092,23.3741,-102.5568,-0.1179,-138.1767,-29.1017,-198.8371,-51.0858,-83.7489,16.1765,-190.3669,-167.9989,-108.5359
-118.6119,-16.4896,-175.6010,-53.9936,-244.6240,-66.5351,-126.8622,23.7248,-56.4439,-6.5660,-122.0154,-13.2808,-167.5681,11.0352,-56.2205,22.7806,-150.8429,-127.4957,-74.5644
-82.9912,28.9574,-147.7719,26.6503,-197.7154,33.4729,-72.8481,28.9124,-30.4897,22.0388,-92.7832,44.4310,-96.8461,56.0847,-40.3789,42.6677,-161.1533,-126.7766,-63.6619
-56.1710,28.1596,-144.2168,-3.3912,-189.8064,64.2570,-82.1899,47.0635,-49.0069,34.3777,-84.0299,61.9946,-69.0114,44.4934,-48.1268,50.0250,-177.5018,-164.5525,-73.1687
-38.9340,1.2440,-150.5670,-73.3145,-190.8517,18.0161,-103.9524,46.7345,-67.4288,12.5869,-76.7024,34.7070,-72.0767,-7.3000,-48.9645,28.9999,-159.1629,-196.6281,-97.6125
-23.0929,-9.6964,-153.4635,-105.1176,-172.1029,-62.6873,-117.7558,0.2560,-70.4014,-28.6953,-50.9746,18.2102,-64.2642,-68.8867,-39.8360,-5.1691,-151.2816,-211.5337,-135.4700
-19.7470,-16.7934,-116.9259,-121.9628,-147.5281,-138.0793,-140.3868,-53.0162,-82.1482,-66.1786,-29.6565,-1.4691,-59.2567,-108.9056,-43.8590,-22.7146,-143.1645,-196.8712,-161.3011
-20.7591,-26.0379,-48.5635,-128.2930,-105.6787,-171.6837,-152.4038,-81.1487,-96.5707,-81.7142,-20.6302,-45.5979,-53.5698,-108.9830,-50.8318,-22.3969,-95.3436,-141.4949,-163.1135
-2.7968,-18.9490,-14.9967,-96.9238,-32.6796,-145.5182,-120.6918,-92.4515,-83.6960,-79.3369,1.8094,-58.2168,-11.3483,-82.4114,-32.6579,-23.9378,-54.5057,-82.1372,-150.6481
28.2695,-5.7199,-21.6709,-60.0410,34.2932,-94.0278,-56.9194,-76.3422,-43.1115,-68.1845,37.3311,-19.1385,46.2590,-64.1158,5.2431,-33.7714,-46.1372,-47.0011,-120.4090
52.0238,-6.8586,-9.8802,-54.3760,72.9532,-73.9489,-17.0255,-45.1419,-15.2153,-55.2350,62.9656,12.7846,67.0749,-68.0475,28.7649,-45.6386,-15.8432,-5.7730,-74.2981
62.5739,-12.4611,41.0045,-39.0511,108.5732,-80.6468,-42.5682,-66.0518,-41.3206,-72.8222,76.3116,10.5653,58.0896,-65.7616,10.8792,-47.1136,38.7721,54.0881,-36.1094
56.5505,-8.5478,108.2923,19.7674,134.2033,-62.2522,-107.3596,-140.6295,-109.1057,-131.5765,73.6518,-12.8148,46.3376,-35.8611,-42.2837,-27.6072,72.2396,93.2757,-19.1179
37.8091,2.3430,147.2710,70.2357,113.9967,-12.6732,-151.6702,-173.4927,-159.4789,-159.4502,43.3853,-41.9576,24.1698,2.0230,-88.7380,-0.5650,85.8273,98.2428,-18.0334
27.1000,16.4289,111.5860,65.7204,68.7877,46.7980,-145.2746,-113.8409,-154.4147,-98.0768,6.7643,-30.9190,1.8648,37.0233,-89.8357,13.4252,78.0184,98.0690,-15.7333
30.0143,24.1432,39.1246,38.1012,49.1677,118.0211,-88.9705,-12.1288,-105.7864,-3.0375,-7.4713,24.4116,8.9041,80.1801,-54.3199,21.3423,46.0850,102.9829,14.4631
33.9609,9.1591,27.8872,14.2675,57.2495,159.3433,-16.9523,54.2317,-52.1807,46.1762,-3.7104,35.3898,25.5000,113.1816,-21.2063,33.1087,59.1974,96.1688,62.0502
