Fp1,Fp2,F3,F4,C3,C4,P3,P4,O1,O2,F7,F8,T7,T8,P7,P8,Fz,Cz,Pz
53.5050,-9.3296,86.8923,-20.3197,-38.9907,-32.9634,-47.3736,-107.6631,-33.0135,-79.2911,64.1120,5.2096,244.5106,24.2834,-8.5173,44.9534,-18.4256,-34.5148,-76.6404
-72.0685,-71.5653,-81.3284,-99.8566,-149.4281,11.1267,-8.0073,-16.3208,31.8842,52.4367,-2.7243,7.3356,147.9613,19.9475,108.9732,9.2672,-198.4653,-48.3145,-33.6751
-114.7595,-42.3986,-191.6705,-41.3308,-149.3358,90.3111,33.7457,79.7167,53.7834,127.3765,-44.2189,13.3707,94.2771,43.4332,117.6784,63.1728,-130.1778,28.2314,15.9009
-60.2230,-8.4407,-129.3454,15.9292,-52.2479,96.2678,66.6556,108.9677,36.5186,151.2806,-37.5177,-6.5781,64.2120,42.6438,32.4089,100.2934,0.4639,112.5284,92.8752
-1.6738,-20.3061,-4.7974,-5.6724,8.9573,52.9019,68.9758,107.9990,17.6816,179.6742,-11.0207,-15.3797,16.9128,18.2835,-24.6277,60.1798,-2.8259,148.7417,136.0429
42.2189,-26.8133,92.4498,-10.6856,40.2552,38.2949,65.2096,130.4657,25.9104,203.8067,25.0778,6.8949,28.3828,20.6747,8.2304,60.5099,-31.2355,170.1026,105.0664
85.1803,-28.7448,171.4629,-3.9570,97.2900,59.9147,107.6864,173.2437,73.7257,232.3363,55.0772,9.8034,88.6229,45.7316,92.7961,115.6590,-12.3441,178.5466,90.1304
84.9519,-37.5687,178.7973,-26.6537,130.7659,94.2515,125.0952,192.7741,92.3063,252.3342,49.4207,-0.5762,89.7477,61.9164,94.9005,112.5072,-16.8742,151.2264,119.2821
35.1904,-18.4649,88.3366,-21.3222,108.4985,102.2358,34.9394,160.9494,20.4190,189.8254,24.4330,30.7020,38.0991,62.1478,-28.8938,67.1185,-49.4076,115.6834,91.8964
4.9743,2.7589,14.2214,-24.8875,67.4162,58.1468,-50.6037,96.2913,-55.2459,60.4352,16.2315,60.8695,-3.5741,35.5464,-112.2034,47.6305,-62.0293,81.4788,0.7039
14.7111,-5.9745,19.8773,-58.9187,16.3378,13.3365,-48.2666,19.7351,-52.9522,-26.5728,16.7900,33.9784,-26.8042,4.9438,-73.0435,17.3244,-41.8552,6.2981,-50.2997
21.9563,-3.3720,45.0965,-18.8247,-26.8508,7.3199,-54.4712,-52.3649,-31.5939,-34.6445,11.2482,-0.5600,-12.0124,12.0158,-47.8567,-40.3078,-6.0957,-86.1221,-33.2655
36.9722,-1.2371,74.2846,-15.1924,-5.9922,10.4505,-58.6391,-61.7750,-26.9637,-3.1584,14.8808,-15.3967,35.6000,13.3566,-80.2604,-75.4049,12.8919,-98.4347,2.2132
74.3227,-18.7681,122.2798,-101.4727,60.4442,37.4151,9.3334,12.7748,-3.3433,41.4310,30.0451,-22.8379,55.2342,2.5156,-73.9411,-55.8882,24.4256,-21.4611,38.3994
72.4265,8.9145,136.2563,11.3783,87.0643,105.8347,39.0862,86.2299,23.5080,96.3875,33.5922,5.9850,61.5945,65.3339,-38.7888,12.9742,51.4306,47.2649,92.5470
44.0042,24.5710,118.5385,132.4138,65.6191,142.0510,43.2292,121.4919,48.6098,180.6662,22.5097,12.2689,106.2259,116.8687,-21.4692,52.5154,51.0571,72.7412,170.2077
85.1830,-48.8701,168.5431,-80.7006,78.4270,149.1357,171.4393,194.4700,114.7274,292.9176,24.3711,-58.7833,136.6172,63.4384,32.7384,34.9869,38.3152,116.2594,246.8376
128.5161,-28.0077,244.3076,-25.9988,147.0760,203.3765,240.1329,280.3213,167.1194,324.2014,48.3586,-37.7522,128.3927,100.6204,122.4391,96.6928,94.5540,186.0072,259.3174
51.7252,87.8263,130.5891,291.8163,135.3901,187.2932,107.1409,221.1139,116.9871,142.9298,55.4267,86.7359,190.8907,173.0962,140.4671,171.3557,108.5376,198.7785,124.7418
-49.0273,-18.9370,-163.4796,-219.9112,-55.3871,-9.2295,63.2978,19.2455,28.0780,-146.0470,21.6551,34.9805,346.9494,-58.8958,80.1602,11.5774,-70.5740,104.1404,-118.8368
-103.7424,-139.0214,-276.9279,-566.3827,-226.0732,-146.2041,42.9204,-102.5157,6.9684,-215.3531,-1.2756,-42.6591,425.7120,-192.7719,79.8718,-90.0873,-251.0118,-44.1101,-210.5159
-219.8562,194.8436,-56.1953,1064.9243,-135.5306,-36.7891,-325.2172,-29.0452,35.5541,24.0146,23.7329,242.2397,298.7825,345.0264,190.2452,291.0798,-202.2633,-129.3599,9.4061
-296.7333,527.0564,141.2755,2517.0635,66.4148,92.8070,-593.7464,101.2666,47.3718,219.8005,36.6258,506.9440,57.5560,801.9572,233.0269,626.8644,-58.1985,-71.7651,248.1622
-129.8704,255.9309,62.8270,1146.2611,115.0388,88.6731,-210.2894,145.0371,21.3915,113.2910,0.6836,242.0572,-109.7776,365.8756,65.1283,309.2259,18.8274,69.5796,188.0895
74.9480,-89.2598,-50.0787,-601.5264,88.7472,103.8904,209.7849,119.5336,-20.4754,-85.7475,-19.2006,-73.3310,-138.5350,-148.9704,-116.5005,-97.6713,74.1978,148.9624,11.1063
40.1216,18.8926,-27.6394,-193.0498,121.1704,145.7443,83.7537,69.4083,-37.5018,-151.2140,2.9419,39.7784,-119.2437,-4.5400,-70.9109,-26.6515,84.2700,119.2927,-38.2449
-57.3571,121.8495,-43.4663,355.1415,102.0993,72.8051,-97.7034,-12.6820,-39.7344,-165.9139,8.8045,158.7059,-123.9758,127.2114,46.2731,70.0877,-0.2056,50.5953,-97.7414
-24.4669,-19.3243,-121.5944,-216.2527,11.5239,-40.9065,-37.3277,-96.6917,-69.0749,-197.8276,-8.7569,33.5557,-125.0839,-91.8049,7.3833,-78.7610,-57.6380,-11.9404,-227.9785
-6.3241,-42.5508,-102.5096,-285.7506,-0.0791,-88.0108,-38.9238,-133.8986,-75.4671,-188.4477,-12.4613,-12.6924,-119.4335,-133.6462,-28.5228,-113.0941,-43.9127,-60.6222,-217.9359
-62.1588,12.3078,-55.2123,110.6231,34.9168,-138.0464,-38.6318,-149.6658,-4.9333,-162.9537,-21.9994,13.1608,-160.2800,-44.1028,99.3688,-49.1348,-66.6666,-71.2930,-86.3578
-62.2695,-72.0117,-95.6127,-145.9992,-3.5825,-192.8575,99.7575,-169.1173,48.4428,-144.8144,-52.4333,-83.9083,-221.2224,-157.9240,177.0676,-129.2947,-86.1470,-51.5265,-42.5959
-16.2037,-101.4958,-100.5059,-339.0768,-33.1515,-173.2702,130.3112,-134.5074,32.1131,-75.6510,-61.6399,-141.8993,-217.2059,-220.6987,89.2271,-173.1250,-8.5123,-41.1251,-35.0270
1.6819,-25.6431,-12.3539,-59.8197,27.7411,-124.1106,89.6250,-24.3795,58.5258,7.5877,-44.3552,-98.0276,-169.4889,-118.4932,65.2328,-73.4801,71.3253,-41.3708,48.2560
17.0263,-38.0422,21.9341,-104.1281,67.8994,-91.2965,157.7755,62.0404,113.5441,21.5238,-40.0982,-106.8791,-169.3721,-109.4735,125.2570,-35.4332,78.3045,-45.6761,78.3332
24.5075,-53.9106,-36.4117,-273.4065,11.8228,-39.4581,96.0794,50.3969,31.5740,-3.0574,-48.5540,-99.5430,-216.3739,-133.1094,-2.2965,-77.9793,78.3278,-71.2378,-7.4527
-6.2068,13.6578,-81.7575,-103.2828,-53.3635,4.6869,-108.7607,8.4407,-110.1789,-11.5254,-51.9130,-18.7697,-236.1497,-63.8015,-236.6275,-92.1374,76.0223,-91.8233,-41.1325
-18.7609,6.1885,-71.9531,-69.4843,-52.3077,24.8800,-69.1754,22.9248,-80.2736,27.7232,-53.5284,-23.9867,-194.1796,-38.8667,-208.5936,-88.5915,51.1652,-56.4501,38.4564
23.9734,-46.7965,-14.4482,-163.5284,-20.9242,88.9371,116.8310,73.4717,50.4446,145.8883,-41.2778,-84.5656,-116.3408,-27.9051,14.1863,-40.7446,77.7385,11.3401,97.8113
67.4255,-3.3662,65.9222,9.7301,-12.3271,154.4580,92.1404,99.3503,62.9847,234.9008,-11.7078,-55.4190,-62.3002,56.6772,52.6047,39.6522,152.7445,35.3898,91.0707
62.7402,22.3089,76.0471,42.2449,-15.2051,96.0809,15.3144,70.7254,5.1221,128.9142,-8.6825,-39.2430,-73.9777,38.9694,-74.1697,7.2176,153.2429,-19.7895,87.8411
8.4236,-51.2871,-22.8154,-237.8152,-8.9672,-43.3269,73.7830,-19.9264,12.7607,-72.0085,-45.7306,-109.7516,-114.6002,-104.9825,-79.5033,-118.0838,51.8097,-119.0362,75.6569
-58.3737,-99.9271,-128.5428,-334.8475,-26.7691,-132.6962,69.6571,-121.3267,22.4552,-132.6577,-72.1434,-132.3652,-130.0015,-167.4928,3.5050,-165.1413,-66.9211,-182.6316,0.9069
-82.9113,-97.7485,-166.9155,-283.6409,-74.6873,-159.0718,-35.2026,-144.6799,-42.7903,-79.2384,-67.3141,-87.1141,-145.4633,-157.5667,-36.0590,-128.8223,-138.9789,-159.3855,-82.5549
-68.6888,-88.1490,-169.6079,-306.5499,-85.6767,-150.3290,-74.9823,-103.1960,-111.4333,-78.0756,-58.4560,-56.2150,-186.9278,-161.4199,-144.2797,-87.6126,-133.4113,-85.7569,-101.1055
-58.1304,-40.5156,-153.6561,-189.2479,-49.8742,-95.4982,-70.4993,-84.5555,-117.0872,-109.9414,-48.7298,-19.9777,-192.6163,-109.4502,-148.2732,-47.5060,-70.0548,-29.6097,-85.6738
-40.4755,1.6780,-104.0426,-38.5794,-30.3335,-16.6301,-64.4751,-70.8567,-80.4425,-72.9762,-27.7886,14.6053,-121.1665,-28.6148,-80.0709,-25.2657,-22.9592,-4.8303,-71.3621
-7.0407,-17.3573,-40.9461,-87.3147,-16.4771,41.2479,-15.1569,7.1081,-32.5478,20.5088,-11.4050,1.9345,-40.7876,-3.5789,-49.2637,-10.9258,-19.6551,5.8954,-21.5926
-8.2234,-33.3779,-6.5301,-73.5319,21.8301,52.6093,13.2883,91.3130,10.6396,105.1028,-14.5765,-11.8360,-33.0084,18.1209,-26.0456,43.3221,-43.7376,-13.5684,44.9873
-49.1514,-39.0339,-29.3012,10.4659,11.3277,-2.8888,-20.4638,85.0825,30.1648,133.2824,-33.3393,-16.4085,-90.9044,21.2774,27.2717,76.1778,-95.7930,-90.3011,35.6165
-71.1361,-74.5648,-89.0367,-105.3246,-78.9930,-96.4369,-49.9294,16.4451,11.7171,86.8000,-55.6861,-58.0989,-144.4455,-62.2697,24.2062,16.2789,-127.2207,-184.7645,-35.5037
-60.9973,-66.4536,-109.3861,-157.4514,-144.5764,-148.2634,-74.9017,-44.9799,-27.5212,9.2505,-62.8834,-84.9890,-146.2260,-119.8941,-58.6723,-58.5781,-70.7420,-216.9266,-51.4614
-41.2727,-10.8226,-60.1479,5.0234,-132.3147,-149.1658,-86.8264,-98.6521,-36.5781,-49.2660,-48.8862,-70.6919,-116.4509,-87.0146,-83.9465,-80.9304,12.6147,-191.9779,-7.0177
-12.4011,-20.7803,-8.6489,-10.7744,-101.9828,-154.2167,-30.8582,-145.2229,-10.3154,-89.3560,-31.3432,-86.7526,-95.5070,-87.9208,-16.5455,-88.7600,26.6220,-172.4270,-0.8554
11.9955,-52.9118,-0.6819,-153.1658,-80.5437,-144.3812,8.3974,-139.6147,-19.2849,-98.4867,-18.7077,-94.5518,-81.4355,-116.5961,-18.0863,-90.9374,6.5286,-121.2445,-26.0404
7.3320,-11.3297,-7.3046,-69.1094,-48.1281,-69.4671,-27.9146,-66.2233,-67.0821,-56.4141,-6.6182,-22.0371,-61.7917,-63.3577,-114.3876,-65.3044,3.8874,15.6135,8.8084
-12.2768,18.4385,-8.8264,36.8501,-10.9198,13.6488,-9.1916,24.1711,-55.2607,-5.2858,-3.1414,34.8510,-52.8435,4.2567,-112.9836,-27.0995,-14.9565,126.1096,80.5235
-22.0185,-18.1866,-10.6625,-28.1677,12.3649,20.8107,61.2818,72.3492,14.5616,28.2887,-9.4901,12.3498,-55.7325,0.3290,7.0092,7.1596,-56.9860,97.9555,84.3536
-27.7384,-42.2308,-18.5575,-65.1346,5.0618,-11.8528,31.1056,62.5192,25.7515,75.6252,-12.5911,-3.2269,-47.2089,-16.3909,42.2241,14.7053,-95.1477,24.7353,27.7654
-43.9625,-52.3091,-52.7946,-92.1268,-32.3502,-4.6421,-25.1193,15.9259,-17.1095,100.4598,-17.5756,3.1376,-26.4029,-15.3047,-18.6301,-24.0186,-136.9471,14.7213,7.7613
-68.1036,-74.1461,-102.6834,-163.4891,-51.1387,27.7876,31.3771,-30.1983,-6.3938,45.3392,-30.7158,-14.8810,-3.5196,-15.2212,5.8647,-55.3436,-160.2021,33.4955,43.3363
-79.0573,-52.0946,-109.0839,-83.2595,-15.2007,37.2648,88.2412,-30.0798,40.2161,0.6747,-32.8521,-14.3019,21.6937,5.9493,84.9580,-29.5805,-124.1417,57.1160,77.9014
-60.2922,-5.3141,-68.4509,48.8530,44.6177,42.5710,47.1531,32.0001,35.7599,60.3752,-19.5225,19.6095,38.0906,34.6648,50.3042,10.7418,-72.8461,92.0513,83.1501
-29.9608,-7.1254,-37.5649,-2.8910,90.9692,60.0380,6.5974,97.1421,12.1249,123.7957,-10.4755,24.4260,40.7962,32.9233,-26.9941,36.8934,-58.7051,73.0086,56.6747
-13.7414,-20.4723,-22.0874,-57.3124,105.5349,48.6427,17.5919,93.9561,36.2833,87.4209,-4.4388,4.8165,54.4900,23.3991,23.5759,65.3989,-46.4322,-7.2982,0.8925
-10.2860,-6.0808,-7.1202,12.3036,75.2353,10.2292,39.6297,40.5489,75.6658,26.0461,5.4513,0.8309,80.5656,20.4501,136.9220,64.2149,-18.7946,-34.9002,-38.9186
-18.3697,-6.3200,-23.9776,20.3381,33.1459,10.6373,76.1242,8.8996,84.7321,17.8398,1.5490,-2.7912,80.6981,10.5976,170.1485,23.1102,-14.5826,24.2749,-11.4523
-28.7839,-18.8258,-52.3993,-18.2280,26.1800,56.6784,130.3039,25.2763,85.5428,38.2917,-13.9898,-16.2272,52.8602,16.5800,152.6559,18.9781,-10.4053,91.2218,62.0475
0.5451,-14.4542,-4.0828,4.8562,39.6409,89.1938,175.1368,69.6159,99.0521,74.3772,-10.3376,-33.9097,38.1316,37.6865,140.8572,61.9012,46.2896,124.8442,132.9393
64.5176,-14.1393,105.3905,-10.6341,54.2127,86.5365,194.1210,105.6943,103.4879,104.1648,9.9641,-61.3989,43.0310,32.8829,90.2682,60.7141,111.9395,114.7465,186.9542
84.6827,-14.6894,149.1155,-59.1051,76.7941,64.4783,168.7454,89.6876,80.7364,49.3293,17.2974,-67.6138,37.9050,11.4056,9.6296,-3.5014,112.1775,64.4898,198.2247
45.3236,3.2213,94.2952,-37.3627,71.1762,39.4786,120.1757,30.8717,49.4788,-62.0613,12.1454,-28.3344,15.9209,2.1035,-4.2187,-59.8012,63.7366,48.6971,142.2865
19.6387,8.7997,42.9112,-16.8858,21.2002,38.7862,111.1357,5.8811,41.0671,-83.0549,10.9876,4.1513,-5.5188,0.1013,52.1952,-66.7913,31.0570,96.7367,82.1365
25.0981,-6.5074,50.4233,-26.7477,-6.6890,52.6446,123.4866,40.8946,51.6143,-6.8130,9.1497,-4.5743,-22.7252,5.9878,74.7090,-34.5933,24.8485,112.0036,91.8987
7.9847,-12.7245,42.9778,-7.6833,0.4429,27.7561,99.6983,74.0447,48.9305,28.2813,-4.4584,-16.7582,-43.9248,5.4794,36.1282,-1.6730,5.7522,67.1494,123.8941
-42.6013,-16.9239,-44.9278,-21.8372,-8.9764,-3.0301,86.9542,82.3507,43.5684,17.5589,-28.2041,-11.5821,-54.0749,-20.1225,30.0701,-1.6630,-36.5065,70.5658,112.9636
-82.3276,-21.8582,-138.6545,-50.3084,-1.1433,66.1454,148.9754,118.6773,86.4096,76.0473,-48.0161,0.0873,-19.4229,-10.0179,115.0210,-9.7001,-52.9285,158.6533,119.9560
-70.1178,-2.0314,-113.3508,25.0414,65.4874,208.2220,246.5414,189.6919,169.6686,173.0116,-41.4063,12.9026,62.9542,75.0717,224.3149,15.2506,-2.6969,245.5882,203.6078
-3.4531,21.0994,22.1005,104.5779,128.5415,266.7104,315.0145,222.0304,221.6700,172.5132,-3.3194,7.9524,151.6863,137.4445,269.8426,57.6292,79.7051,267.3953,280.7897
67.0567,18.1452,140.5627,79.3854,163.9370,194.8713,323.1471,182.6593,212.8674,86.6274,36.1034,-19.6588,198.8618,112.8466,250.7684,91.2187,130.3625,227.7304,262.9071
91.8850,14.5547,172.8847,61.1382,207.9109,108.3043,265.1473,132.5880,171.6995,41.4592,47.8238,-33.3659,175.8175,75.2493,200.6680,117.7982,137.7133,164.8817,191.7472
86.1054,18.2285,154.9290,68.4660,210.6474,95.3100,182.7526,127.6127,119.2555,68.5938,38.4091,-21.2593,93.4613,71.3679,126.8331,128.2399,125.2936,120.0996,137.2399
83.5502,8.8015,138.4665,31.9791,140.9544,112.5797,123.7558,150.1362,76.3393,118.6911,32.1586,-6.8870,24.0307,69.4169,71.1376,122.5803,99.6636,100.5342,94.8285
81.4353,-0.8902,143.0551,33.7249,96.3349,78.6845,86.1357,167.1837,72.6339,173.9804,39.7594,6.6687,28.6362,55.7990,92.7175,129.9243,57.2836,95.7271,45.7252
62.4664,-7.3250,139.8322,69.0341,102.5559,-5.6748,51.4318,165.1330,81.6218,205.7526,44.6568,16.7431,55.9029,27.2256,128.6296,135.4002,-4.3985,88.9456,10.0337
12.3514,-33.0071,71.5061,3.9913,70.6154,-69.8684,4.2150,121.9486,43.5813,160.9398,20.4998,6.2856,28.2180,-15.8621,57.1173,88.0352,-89.5406,34.4637,9.6667
-56.8869,-62.0338,-39.0135,-95.6199,17.6662,-75.8725,-49.3457,55.9927,-14.0385,88.8505,-22.9327,-13.8264,-12.7334,-36.6285,-70.9151,13.8095,-171.1315,-58.6590,40.0339
-83.7760,-67.1054,-80.9680,-109.3246,25.3607,-41.8287,-48.8559,55.7828,-9.0236,103.6589,-41.4432,-23.5956,9.9984,-21.6707,-96.7645,-5.2449,-185.3192,-84.5864,79.4371
-48.1077,-56.8286,-34.1590,-87.3485,56.9694,10.9497,17.7264,138.1884,46.3744,183.6866,-26.8471,-25.6786,61.3793,1.9636,-28.4609,37.5033,-123.2483,-22.3864,110.8218
-31.2667,-43.1530,-9.4004,-46.2280,54.4988,58.5829,57.2604,195.1229,75.3702,220.4536,-21.1745,-20.3227,66.1564,31.4822,9.9744,77.5163,-77.7794,15.8727,139.7898
-76.7929,-42.4501,-57.6850,12.4915,44.5941,69.7320,44.0015,178.7360,73.6524,223.3086,-42.4525,-12.6366,27.4420,57.2562,16.6416,84.4644,-120.2705,1.5562,169.5205
-117.3460,-71.8048,-110.4858,-21.3151,34.3923,47.9035,45.9452,150.9610,71.9325,242.6966,-62.5615,-20.1400,-17.1929,41.1314,38.2147,67.3149,-197.0258,3.6555,175.1188
-108.1307,-91.7488,-115.2824,-109.4105,-0.4073,18.3680,45.1046,121.7775,44.7762,218.2699,-61.2874,-29.8772,-49.2372,-1.5551,11.2358,27.3222,-212.3653,19.9494,149.5772
-71.3383,-57.7357,-77.0655,-83.8692,-24.0628,-7.1920,4.1578,66.4629,-11.5702,123.6931,-42.5527,-19.0933,-48.4066,-17.3147,-80.3582,-11.2882,-141.4879,30.6622,125.3781
-17.7101,-4.3259,-9.8172,17.3583,5.6074,-0.9339,-1.3590,33.3452,-27.5266,57.2164,-13.5614,-2.9513,-18.0402,1.8379,-97.4395,-0.4128,-24.2985,66.8675,105.8125
38.2550,28.6012,54.5005,78.1548,52.4893,49.4584,46.0310,27.7311,7.8511,31.8757,13.0737,5.3058,-5.9100,35.0481,-1.5152,35.9365,83.1861,95.0556,59.8944
58.9837,48.6501,75.4210,107.6871,56.6517,68.4790,40.3286,-34.0529,5.5803,-45.9443,22.4578,12.6318,-38.0327,49.9608,38.0709,17.0523,130.9307,56.6831,0.1157
46.2631,48.3702,51.3837,85.3084,13.4322,5.0078,-34.2108,-127.0428,-62.5258,-134.7830,16.4047,13.0008,-88.2433,13.0406,-51.9627,-43.4013,106.1108,4.6353,-44.7004
32.7054,23.9691,9.5410,-1.1966,-34.8972,-46.4154,-94.5158,-134.1704,-118.3469,-116.5917,8.3735,12.6470,-125.7015,-34.7078,-128.8761,-53.4154,53.0326,-4.4564,-96.9325
29.9984,12.6250,-20.8741,-51.0770,-59.2766,-10.8486,-123.3676,-84.1990,-126.9812,-48.9076,7.6791,30.5800,-135.6082,-28.1761,-118.1851,-17.3568,29.7823,-8.5442,-167.2184
41.0372,21.2245,-21.0095,-58.1293,-65.1833,21.3735,-145.4811,-98.1524,-137.4169,-62.9269,16.2040,44.3678,-115.8590,-11.7423,-115.9635,-18.0222,45.0286,-27.4154,-218.3297
51.2655,18.6773,-16.6775,-98.8581,-56.2444,-27.0949,-166.4232,-169.3769,-166.6821,-136.2646,23.7503,33.4280,-89.9316,-44.7033,-156.9229,-56.5154,48.1029,-47.7716,-248.0103
23.6629,6.6018,-49.9689,-121.6106,-44.1321,-83.2796,-197.3661,-212.8738,-179.6739,-175.3727,16.5951,31.7999,-84.6142,-72.2812,-167.0665,-80.4435,-7.8570,-86.3423,-275.8461
-36.1311,-6.3063,-106.6707,-97.4569,-79.5221,-84.3911,-231.5158,-204.6874,-175.9034,-155.0854,-2.0022,52.5886,-95.1409,-55.4974,-152.6732,-90.9143,-109.0121,-121.7603,-267.8806
-93.2619,-35.4103,-163.5820,-118.0619,-168.3413,-84.8216,-251.1786,-156.2525,-184.8846,-87.0152,-24.6962,62.7367,-114.6431,-53.9397,-184.0752,-100.5387,-218.7390,-111.1805,-210.5686
-150.3151,-68.3635,-237.4347,-171.2046,-224.4681,-122.5433,-266.1009,-85.5293,-190.7527,-10.6271,-55.8962,56.9481,-153.2275,-87.7451,-225.5437,-96.6251,-312.3438,-106.0170,-165.7356
-194.5192,-73.0397,-293.7935,-164.2228,-212.7336,-147.4273,-261.4117,-33.7163,-151.3223,13.1516,-85.2860,47.2259,-192.6096,-105.7458,-186.4898,-93.4057,-338.8015,-163.7793,-158.2449
-182.9886,-53.0165,-266.4412,-108.7328,-203.9591,-141.6483,-217.7140,-22.3667,-80.2427,-7.9519,-88.6889,27.5164,-192.2577,-100.2567,-85.7503,-112.3024,-269.4745,-233.2023,-155.5094
-149.5926,-36.2657,-211.8424,-67.1061,-226.1654,-173.6010,-193.6847,-39.8658,-36.4355,-29.1279,-74.5675,9.3378,-160.8458,-116.2271,-11.5122,-140.1560,-200.9027,-270.0251,-174.6692
-162.4870,-45.1702,-231.5474,-93.7540,-242.1711,-272.1881,-223.8177,-84.1475,-40.2466,-72.5563,-72.4518,7.3836,-153.3939,-175.5280,15.6223,-175.0241,-240.0170,-301.6360,-246.4641
-186.0131,-72.6161,-277.9276,-192.4354,-255.3627,-356.8010,-243.4592,-141.2014,-62.7794,-146.3945,-77.4478,5.5203,-184.6844,-243.6169,23.6175,-222.1422,-312.3244,-320.3315,-321.7027
-153.5307,-74.3784,-245.9748,-231.0288,-264.8035,-355.5919,-224.2621,-156.5778,-77.4892,-168.1051,-65.0815,-0.2700,-200.7999,-258.3637,11.4969,-233.5052,-278.9051,-283.3239,-330.0166
-88.5051,-36.5765,-147.6242,-129.5221,-221.3137,-291.6119,-187.9411,-97.7681,-65.5457,-100.5553,-38.4259,2.9934,-158.1823,-205.8602,-8.8993,-172.5985,-160.8468,-200.0838,-259.3792
-36.1421,0.1453,-50.8988,-14.1949,-139.0518,-201.7045,-123.9349,-5.1383,-19.5273,-18.2116,-13.6847,12.7437,-91.0157,-132.2684,10.9132,-100.5043,-63.3070,-113.5131,-160.8901
0.6029,26.4687,13.2800,41.0695,-93.5967,-89.7450,-75.4378,55.4614,13.5209,15.8318,7.4135,40.8229,-61.7335,-63.4680,48.1954,-82.1350,-9.5314,-50.8375,-119.6552
28.2375,63.7998,48.9284,92.6722,-85.0333,15.8627,-104.7951,66.7938,-18.2490,-8.4798,28.7859,94.4982,-65.8410,3.9951,9.9569,-83.6544,28.3371,-17.5674,-143.8926
61.6365,91.5991,101.4078,118.3411,-59.3289,78.4413,-123.4502,61.7312,-62.9239,-86.5147,52.3705,123.9431,-46.9223,54.0545,-77.7910,-63.3081,68.6365,0.2655,-128.1950
100.8313,95.1623,181.0176,110.5210,-21.7221,104.5009,-58.4268,55.0299,-39.8884,-158.6729,72.5909,107.2933,-1.1609,74.5889,-76.9382,-66.3327,112.8590,7.7431,-55.9855
96.5752,99.5544,186.2950,140.4247,-11.9031,100.4165,-36.7615,29.9630,3.9720,-140.0645,70.4706,101.6777,18.6849,69.4159,-0.9276,-129.0418,116.0421,-2.1419,-54.8761
38.4212,95.0499,80.4433,145.1489,-27.1293,68.6941,-113.4893,8.3341,-18.1098,-54.6591,43.1524,120.6054,2.4216,40.1756,-10.0962,-182.2221,44.6312,-4.5604,-119.9427
2.3855,68.2934,12.8580,69.8043,-29.6792,67.0307,-144.2810,36.0861,-64.1592,-8.7774,23.0405,120.0788,-8.6781,26.5776,-109.6949,-161.4573,-23.6995,20.7050,-94.5442
18.8754,63.6571,62.2662,59.2090,-3.3968,125.1164,-99.6704,85.6018,-56.8850,-24.3778,27.5840,111.3050,-4.9544,68.0100,-153.8907,-124.1243,-11.1355,25.6149,4.1425
21.7638,81.4259,91.3645,124.1115,13.7918,151.7665,-99.4323,90.7051,-29.9279,-32.7385,26.8238,114.2287,-15.6363,98.9427,-127.4459,-138.3831,11.9292,-26.9307,22.7760
-21.0687,63.6731,16.9199,95.5189,-17.2822,83.7369,-134.1626,54.0012,-37.1048,-22.9616,-0.1425,94.4318,-46.2185,51.1462,-126.7016,-168.7391,-31.6245,-79.6762,-11.6733
-65.7670,33.8328,-63.1139,31.4756,-67.9792,1.1827,-118.2231,6.9950,-54.1571,-66.6110,-27.3460,61.1776,-76.3972,-11.2008,-144.1934,-183.1730,-77.4933,-68.8884,10.1917
-84.2007,47.1167,-88.2528,66.2412,-97.3450,-35.3270,-82.1934,-57.8980,-56.6865,-176.6067,-31.3662,64.5555,-98.3422,-31.8850,-117.2952,-223.8495,-70.0589,-16.8248,31.9754
-86.5426,62.5494,-97.4237,91.2806,-115.8375,-73.6781,-78.3432,-127.3932,-59.2799,-251.7235,-23.6242,81.6305,-108.0300,-58.8453,-68.1302,-286.5760,-66.4636,20.5534,-15.2141
-75.7802,43.7878,-86.6636,49.3876,-117.6146,-118.8988,-81.2021,-145.7829,-56.1683,-218.4565,-15.5700,72.2287,-94.0185,-93.2519,-39.0870,-300.9445,-89.6288,31.4081,-53.9922
-46.0566,35.3821,-33.5424,46.8817,-68.7887,-107.4019,-63.3383,-103.5933,-32.4946,-138.6189,-2.2236,62.9408,-63.2212,-82.2427,-18.6464,-265.8808,-78.8226,44.3089,-39.5913
-8.0650,46.9254,13.2955,48.4025,-8.7503,-50.8270,-32.2826,-53.5137,-10.2479,-95.1450,13.0671,69.0566,-41.3410,-57.2010,0.7230,-241.5922,-27.3220,79.0646,-35.6634
16.7763,49.0377,16.2544,4.0798,-13.9725,-9.7366,-22.1373,-26.3452,-22.4745,-67.3761,19.8884,73.8299,-41.4023,-56.4318,-15.8112,-230.7839,10.3432,124.0260,-57.0208
25.7796,63.5351,14.3378,35.8292,-66.8082,27.1816,-72.5392,-2.3198,-71.5502,-18.7602,23.1164,95.1224,-56.9192,-30.7706,-94.1734,-200.0775,30.5000,154.7563,-62.7719
30.1446,95.7611,31.7696,132.4866,-90.7206,75.2861,-138.4503,29.5251,-112.2651,4.3366,28.9479,130.7654,-71.7097,24.7210,-171.4031,-158.3023,51.5693,147.5780,-57.4340
26.0910,89.4015,38.9387,128.6932,-59.7926,75.9915,-111.8674,38.1840,-81.2140,-26.8989,27.3574,117.8732,-58.1421,34.9479,-129.9892,-128.2821,48.7002,99.4823,-48.2688
18.5810,41.1938,39.7693,55.0835,-0.6224,20.0288,-4.5601,12.7022,5.4770,-33.6517,19.2437,48.9619,1.2590,0.6032,7.2395,-100.0532,25.7853,60.5230,-10.2848
39.2076,17.3420,76.7225,49.1365,40.2275,8.5236,50.2174,6.8750,49.3366,45.4192,24.8958,3.5349,75.2640,2.8495,63.0361,-57.8643,41.3584,71.7663,38.6152
76.7504,36.5892,127.7914,97.6987,32.2609,84.5852,17.4160,49.0855,32.1509,133.3808,39.3427,13.7603,111.4782,57.8837,5.1372,-21.3668,97.1833,74.8418,55.3995
69.8398,49.9367,121.0991,124.3458,9.9782,145.8247,1.6878,79.7857,42.2302,138.7138,29.8701,18.5798,104.1697,97.4174,-5.6716,-19.0156,119.6912,8.5120,65.5582
26.3189,23.4630,70.3084,87.0545,26.9601,116.6251,53.6911,67.6836,93.2580,108.6483,-1.7920,-26.4013,93.0475,76.1246,49.4599,-31.7569,88.8652,-64.1091,116.8527
24.1107,-12.0088,68.3309,3.8397,74.5296,78.7041,107.4238,75.5027,116.9019,133.2552,-13.8023,-75.4907,107.7073,38.6235,45.1540,-28.6970,72.9823,-63.5143,179.6824
65.8331,-0.6381,126.9980,-5.0675,116.2048,128.8157,120.0046,136.2344,125.2048,196.3846,6.1784,-59.8262,137.5443,54.3999,28.1782,-37.9173,108.5074,-10.9050,192.1418
79.3464,47.2382,151.3543,87.5309,134.0749,204.5915,114.1217,195.3664,156.6954,232.9429,23.6082,6.0463,140.1983,94.5048,98.0751,-83.5007,139.4578,45.7042,146.7862
49.6761,60.2693,96.0965,103.7069,111.8116,180.5393,88.1186,203.3996,151.3750,217.2528,15.1673,41.4203,86.1451,69.6521,133.0666,-113.5975,110.2497,70.0825,78.3013
27.7878,30.5065,39.2163,-1.8856,67.7033,85.1141,41.8349,163.1678,84.4417,140.7110,-0.9759,20.6470,11.0135,0.4571,43.8406,-97.4098,65.1096,28.7483,29.6140
43.3973,22.1981,61.6842,-36.3082,58.0542,55.0766,34.7506,110.9232,51.9964,43.8189,1.3905,-4.0556,-22.7466,-9.9175,-7.4855,-77.0882,84.0833,-29.0911,28.8032
71.2892,40.9896,119.0529,40.4718,67.7308,88.6382,61.3685,84.0352,74.4740,24.6709,18.1405,2.5617,-25.3436,28.9945,56.2304,-68.6958,128.4202,-19.9739,33.0903
68.4175,38.4477,111.8874,63.8535,29.0971,58.5293,18.4281,65.2187,53.0149,69.7257,27.8310,29.4502,-45.6701,18.3721,86.7375,-65.6061,88.0903,17.6709,-39.6789
42.0284,21.1190,59.7499,15.0041,-22.4664,-32.4298,-68.3027,13.7432,-3.4644,50.4578,32.1585,56.2993,-53.3023,-35.4169,64.8819,-84.1241,-4.7407,14.1241,-159.2567
39.8620,17.0791,59.4500,11.5160,-2.9477,-60.2963,-41.3102,-41.2109,19.1456,-20.7267,43.4130,53.1932,4.4046,-41.8621,138.1969,-82.0323,-17.4564,8.0408,-190.6102
52.3968,2.8093,88.1995,35.6590,50.1369,-21.6665,86.5139,-59.2995,104.1489,-22.7862,44.5331,3.3586,73.5146,-4.3834,273.9653,-17.1519,30.1053,20.9235,-107.9620
37.8559,-36.5728,68.6620,-22.7770,55.9330,-13.5483,147.0184,-70.7199,132.3567,13.1918,25.5674,-47.1045,79.5682,-5.3126,299.9381,5.2274,9.8888,9.4105,-36.0274
34.8554,-62.3960,64.8698,-135.3361,36.5617,-37.4693,113.3138,-78.4294,95.5133,11.5705,26.5000,-39.9869,61.4188,-47.6634,227.5541,-79.5217,-59.4416,10.7062,-51.6158
79.4124,-50.1253,135.4111,-154.8478,36.9318,-27.2201,75.3092,-37.3234,65.8412,36.4300,63.1436,9.7518,72.8122,-51.7275,191.1971,-114.1036,-71.0050,75.5282,-104.3310
95.4839,-19.2147,154.3025,-53.4199,39.0032,33.9321,52.4535,14.8645,48.7762,83.9702,78.7859,50.3309,74.4601,10.6347,189.1995,-14.0482,-34.2705,131.1414,-122.5986
50.3003,12.3408,66.5018,32.3078,36.3022,107.8611,52.1774,4.7671,30.2413,21.5928,49.1726,59.3473,45.9867,70.4874,154.6122,49.3908,9.5936,122.5705,-83.3612
42.4073,35.1292,42.9472,33.1759,52.5261,103.7816,112.6603,-46.2265,51.5548,-109.4929,30.3927,26.9368,46.9443,47.7547,139.7147,-30.3311,88.5976,104.5622,-12.5231
104.4399,34.8984,155.2912,24.9618,79.7888,0.6697,195.2539,-82.6256,119.2780,-122.8774,48.9666,-35.9999,92.6045,-29.7877,202.3980,-132.8117,174.9289,107.4711,46.4956
151.6210,21.2041,255.3777,48.5037,106.0568,30.5842,229.2880,-63.4376,162.3465,2.5114,68.9530,-57.3557,133.2419,-2.1381,252.3828,-134.7440,191.7049,120.9374,97.2097
156.7082,28.1825,266.7064,77.0340,141.1068,388.7621,221.9519,52.5783,151.4928,160.4594,74.5350,13.8410,156.5104,222.0141,212.1204,-37.9537,170.0592,147.6390,160.2001
147.7640,58.5806,229.3229,105.2015,153.5082,780.0427,189.0876,185.2606,133.9316,267.5666,71.8094,107.6397,165.7441,452.6443,167.9662,51.4118,176.1263,137.4507,164.6368
111.7002,78.8745,137.7112,100.2508,90.9743,787.7062,102.6246,163.6637,113.9877,230.7744,54.9034,140.6127,131.0629,441.3422,181.9482,4.7189,168.2071,45.0108,21.5314
65.3087,82.6710,29.9539,38.8406,-10.0159,552.7719,-21.0459,19.9566,48.2646,61.2928,42.6181,150.1050,73.0205,279.7343,168.0908,-129.3497,111.9369,-38.9169,-191.3787
61.2177,89.4003,11.5457,15.0999,-57.5116,474.8737,-100.5163,-46.3592,-23.8565,-41.0251,59.5486,186.8216,65.7953,236.9507,111.9064,-156.7130,67.6165,-30.4310,-296.8540
61.1643,82.1041,34.1572,67.8472,-52.0156,527.0574,-93.0130,-17.6669,-17.6641,16.9873,68.4346,196.8539,95.4550,301.2557,133.7833,-62.0059,42.4295,-11.2499,-263.0636
1.5849,38.0474,-36.0346,69.3838,-76.9791,463.6105,-59.5737,-22.9057,27.3759,79.7925,32.6125,146.5233,80.3109,281.8009,216.0302,-0.9678,-26.5219,-58.1308,-219.4784
-57.1870,-2.6522,-134.1292,-8.8669,-138.5283,326.9668,-76.2427,-65.1365,6.7173,46.5602,-1.4232,106.3193,34.9612,191.8158,197.7640,-3.3669,-101.9999,-96.1737,-233.7477
-34.9185,3.0509,-111.3746,-39.8605,-144.3386,276.7019,-96.1891,-72.9980,-44.1283,0.0612,11.9291,109.6375,38.9547,154.6015,100.2468,-12.0396,-86.4419,-47.1305,-228.3271
17.9262,23.5382,-20.9356,-18.3292,-72.4322,287.7574,-34.4097,-45.8555,-15.0715,5.2444,35.9319,105.6296,81.7683,151.7294,99.8123,-49.4153,-16.3229,32.8205,-159.3711
11.2424,18.8834,-15.8690,-33.9266,-30.1864,277.0853,29.9997,-13.2569,55.5427,30.0996,25.9613,87.2626,90.1262,124.8912,177.5819,-116.0029,-13.5457,34.5178,-116.1355
-47.8696,10.3851,-100.1388,-54.6326,-74.6864,238.9658,-22.7344,-5.5143,47.5251,19.6844,-4.2413,90.1619,59.7727,97.9869,151.9567,-150.0528,-78.0006,-45.9000,-139.6852
-90.4160,21.5724,-159.9533,-15.4078,-107.9436,195.6509,-102.3861,-29.8584,-15.6307,-29.4164,-23.5136,96.7046,46.0686,94.1219,27.7305,-131.6283,-105.1780,-90.3064,-126.3577
-87.7643,33.3617,-145.3689,51.8312,-54.9186,170.3673,-83.1047,-26.2832,-28.0704,-36.8137,-25.7727,79.8465,55.4227,104.0797,-26.1735,-63.1120,-69.5509,-46.7870,-43.8824
-71.2815,32.8460,-115.1923,92.1387,1.2743,152.4143,-57.6106,15.4196,-9.5031,20.7142,-27.0070,57.9292,30.9037,107.7094,-12.1383,17.3365,-33.2401,-33.7874,-10.7015
-71.4023,31.6852,-123.8139,76.8847,-19.5518,89.7260,-127.4438,-0.4355,-43.4986,20.0115,-42.9244,35.7638,-48.6565,66.9217,-82.9098,-0.0436,-17.4374,-135.2887,-53.1836
-76.1184,29.1401,-141.4289,13.4831,-64.0801,-4.0090,-196.3735,-78.0418,-98.4817,-69.9541,-63.4511,0.0640,-122.6445,-9.4469,-209.0525,-108.7300,-1.6739,-249.2163,-71.5374
-69.4390,12.3704,-133.0444,-43.8430,-84.7460,-55.2467,-184.8399,-111.8552,-102.1449,-106.0960,-66.6956,-26.5943,-149.4595,-54.2688,-217.8995,-151.1385,-3.7290,-270.3964,-69.6877
-64.9251,-9.5682,-125.6674,-68.6172,-124.7036,-62.7988,-161.8421,-103.0599,-90.6295,-73.8950,-57.0833,-18.8789,-174.9566,-59.9919,-139.3464,-119.6796,-42.0749,-227.1115,-107.5889
-69.9105,-12.6798,-128.7755,-78.9193,-182.0502,-67.4060,-159.0375,-114.2830,-110.7760,-96.7557,-51.5601,6.0296,-220.2692,-71.0554,-133.0500,-154.5556,-77.1495,-162.8396,-116.6231
-74.8400,-7.5289,-115.7491,-84.4987,-185.9541,-72.9426,-116.0398,-114.2529,-103.7186,-141.1788,-50.1878,14.9078,-222.4569,-88.2609,-148.3563,-234.7162,-90.3107,-90.9636,-42.9938
-86.1221,-32.3539,-113.2178,-123.2017,-146.6038,-101.4391,-39.4352,-89.8618,-43.1193,-119.5822,-52.2071,-6.8575,-172.8787,-112.7473,-69.0226,-246.2415,-127.4283,-56.1829,10.2726
-107.8997,-70.3695,-153.5121,-201.8243,-138.0627,-162.0408,-18.6553,-99.1787,-24.7424,-110.6818,-59.1899,-29.6508,-151.3245,-155.0827,-13.4485,-218.2379,-187.5720,-65.0660,-22.2772
-118.8211,-55.0333,-184.2440,-188.5145,-149.5978,-178.3879,-69.2618,-127.3525,-80.9676,-165.8921,-57.1297,-1.5540,-169.9633,-160.1688,-80.2230,-213.1811,-197.7518,-40.4444,-61.2142
-111.0956,6.5145,-165.0343,-34.9762,-123.4930,-127.3345,-94.5221,-124.3265,-104.8314,-196.7850,-41.5428,57.0889,-166.2009,-105.2182,-108.0520,-208.6545,-145.6386,40.9657,-51.2096
-98.7544,31.7164,-135.2430,64.0904,-77.1796,-104.9480,-47.3973,-113.8953,-60.1989,-173.7106,-32.3773,66.2887,-145.4270,-77.0063,-24.3348,-190.4945,-100.0137,98.3194,-25.8061
-76.0338,9.2437,-106.4600,16.5608,-57.8601,-128.9450,-14.1647,-98.8435,-42.6580,-130.5802,-31.4343,30.9866,-154.2395,-99.7757,-6.9244,-162.9801,-83.6092,95.2623,-11.6382
-37.6342,3.3792,-57.0210,-22.8542,-63.6540,-121.5808,-55.4210,-41.0163,-82.9999,-63.0515,-20.8433,27.2955,-175.2757,-101.1533,-108.4022,-125.2187,-62.3630,88.4268,-10.9110
-20.3926,20.1009,-38.8463,-10.8236,-83.7483,-110.4859,-111.7736,17.9115,-119.0189,-15.9032,-12.4722,51.9942,-183.7146,-96.9698,-189.5850,-111.4541,-45.4038,97.8204,-30.5230
-48.9488,18.6989,-104.7809,-45.5457,-118.6308,-163.9600,-143.0680,17.4041,-143.0841,-45.9214,-28.8851,49.1251,-196.9825,-141.6290,-229.7920,-117.8341,-58.3785,80.8156,-63.7839
-79.8444,6.0312,-178.2132,-81.7185,-139.9006,-219.4417,-163.9697,-11.5350,-171.4729,-81.6813,-50.6432,22.7958,-204.1901,-175.9060,-273.2071,-77.2791,-65.2063,45.9091,-80.2490
-67.3698,3.5414,-157.8395,-47.4704,-115.0913,-216.5050,-137.5757,-27.7259,-154.0258,-63.1887,-47.0720,0.0754,-173.6244,-156.3827,-241.4663,-21.8060,-35.2657,43.9531,-57.3422
-37.0360,2.2623,-83.6455,-23.5225,-53.5438,-215.3060,-52.5164,-34.4725,-75.8447,-60.6758,-29.3962,-18.2821,-123.9928,-151.4038,-119.3549,-49.9067,-9.2369,59.8977,-19.2137
-31.5542,3.9016,-63.1840,-45.3722,18.8145,-226.8254,3.8841,-21.2786,-17.6497,-86.7393,-25.2925,-24.9754,-87.5205,-172.5728,-49.5876,-104.5506,-3.7195,61.2880,-4.4885
-29.0957,19.6687,-86.2182,-38.2674,82.3962,-158.0779,15.4678,23.6982,-17.9772,-54.1816,-30.5736,-18.9424,-59.3033,-139.2065,-81.2092,-58.7110,40.3461,91.2320,14.6826
10.7661,32.9637,-52.5278,-3.7631,114.9514,-9.5233,62.9655,78.6435,-19.9761,25.6671,-22.3313,-20.0994,-38.7673,-48.0378,-104.9225,47.4302,129.0610,163.2742,81.2346
55.7203,27.3345,26.5810,1.0390,116.6553,89.5696,134.9346,114.3051,12.7018,57.2984,-4.4245,-27.6569,-39.8671,14.5051,-54.3107,95.7125,172.8728,193.3124,137.9460
49.7850,12.3077,32.7840,-21.5897,125.0388,75.4567,172.4084,108.2577,56.1355,31.2055,-3.9212,-36.6094,-41.3854,5.9413,35.1412,86.5873,147.1525,161.5633,123.4982
20.1851,-1.5047,-28.8748,-49.7812,160.0765,19.0281,204.4696,68.8448,90.0579,10.6667,-19.7067,-63.2381,-9.0994,-35.4391,108.4906,82.4114,133.3747,150.5336,98.7064
21.8452,-9.3435,-40.3009,-70.9770,184.8386,-5.5292,234.9823,45.1735,108.9864,16.3615,-21.9919,-87.6703,33.9026,-57.5274,136.4820,78.7763,149.0010,164.5640,105.3728
22.6051,-10.5795,-25.2669,-79.8996,150.4366,-8.3463,202.3470,46.7544,98.3076,10.5388,-14.0159,-68.0675,27.6740,-58.2291,128.5775,45.1613,115.4821,143.0447,76.9283
-25.3126,-17.1840,-94.3081,-96.4106,62.8156,-20.4775,130.9146,39.1015,54.7013,-17.9125,-25.8881,-27.8423,-30.5511,-65.0004,103.8154,22.4898,25.3532,118.9233,10.9324
-70.7195,-31.5016,-176.0184,-112.8329,-10.1042,-27.2642,92.5663,46.6754,10.9746,-7.0995,-43.6059,-11.1569,-69.9037,-66.6174,66.8255,67.7763,-37.7501,140.4040,-9.9642
-57.9170,-37.2674,-142.3785,-94.0651,-12.8823,-12.9293,81.7836,101.5332,7.7034,70.5948,-34.2961,-5.8300,-52.2964,-43.7382,45.8892,123.7483,-49.3383,158.8688,14.4123
-33.1406,-27.7897,-73.9224,-58.1198,28.6336,1.0154,85.5752,143.8736,38.5691,131.6716,-20.4237,2.0256,-27.8052,-30.5104,57.9882,88.3987,-42.0720,159.1807,45.7957
-37.4534,-4.2067,-76.7369,-19.6335,63.4202,6.6355,118.4571,137.2700,58.2587,127.4059,-30.4322,0.2297,-31.6013,-44.1180,48.3934,-2.3602,-3.3150,209.6292,111.8345
-34.8083,24.3851,-72.4064,43.3704,96.9233,16.2025,152.3599,143.8088,60.4048,128.6309,-35.8722,-0.3708,-26.0027,-43.9589,7.5244,-38.7020,52.2300,294.0898,200.1581
-27.0940,17.8838,-26.2622,62.1757,129.4076,11.1234,165.7434,187.1750,84.7185,167.8885,-24.4230,5.0359,-0.2550,-31.5559,27.0466,-19.5614,22.6784,303.2137,234.3191
-63.3240,-36.7860,-49.3782,-34.3831,105.9089,-14.5033,183.3195,222.4804,126.2801,183.4559,-34.1230,-9.1336,3.0485,-44.7694,103.6042,3.4037,-96.5748,223.3914,220.4498
-104.7180,-67.8508,-122.6650,-122.0695,37.3192,-6.6357,201.8230,236.7029,133.8764,143.3109,-58.5155,-29.4717,-8.1465,-53.2233,114.1939,28.3794,-141.6110,162.8997,223.5502
-75.4755,-29.8332,-103.1188,-80.9004,28.5140,48.4094,202.3983,227.3744,107.7109,71.4019,-47.0914,-17.7249,9.8265,-20.0816,60.3834,44.9940,-48.0382,180.5733,230.8456
-17.9810,9.7537,-26.2915,-11.7495,86.2368,73.9833,183.7735,176.0824,83.6710,17.9979,-13.8914,3.6807,29.1010,10.0355,46.1544,47.8666,35.8184,201.9533,187.1536
-11.2829,-0.1668,-27.3693,-6.6542,88.3136,29.4578,109.8353,100.3564,43.4980,30.7492,-10.3916,-2.9910,-0.1744,1.6726,36.8080,73.9546,20.0093,136.8141,92.8097
-29.4685,-17.4095,-69.6126,-16.8540,7.5200,-47.1908,-22.8805,9.8960,-34.4484,44.1897,-23.7885,-20.7089,-41.5763,-24.9113,-50.5606,84.8812,-17.5135,12.1405,-2.6698
-27.6417,-20.7041,-62.0235,-39.3471,-46.7150,-138.1144,-101.8633,-114.6408,-87.8455,-56.2445,-18.0747,-35.6982,-23.8610,-69.2224,-123.2092,5.1570,-35.7143,-82.6312,-55.2796
-25.8646,-36.2630,-41.4069,-94.2583,-28.3962,-234.3529,-65.5875,-213.8314,-56.0702,-189.0700,-6.2907,-65.3494,53.4101,-127.3476,-63.6936,-77.7973,-59.3432,-131.2679,-68.7589
-26.0327,-50.1153,-35.5985,-109.1539,-3.8611,-274.5273,-17.2205,-201.0771,6.8730,-188.4101,-4.9326,-95.5953,118.4430,-146.5764,33.1129,-48.0690,-54.8496,-172.2708,-73.7445
1.4824,-34.8287,8.5936,-66.1777,-22.1860,-238.4702,-46.7109,-131.7247,4.7386,-116.6376,1.2014,-91.6239,107.2920,-116.3431,-1.5118,-2.6709,-7.1294,-203.9339,-68.8815
35.8918,-12.7579,76.4397,-43.3896,-75.1461,-208.6853,-123.6771,-113.6880,-68.7502,-115.2767,14.4010,-61.6351,32.2630,-98.2489,-153.9849,-52.0957,12.5147,-206.9940,-48.8790
37.2649,-3.8258,89.4101,-36.9174,-140.6873,-228.5372,-194.1758,-130.7095,-143.3750,-137.8176,15.9451,-35.0073,-50.5427,-111.9386,-275.9488,-109.3859,-11.7313,-188.9473,-45.6793
23.0669,15.6849,55.5473,16.8962,-187.9413,-227.0337,-224.6721,-122.7372,-173.1847,-122.8422,6.7413,-12.7598,-111.4350,-111.2363,-302.2711,-105.7181,0.9804,-147.6756,-59.2286
33.6844,58.0836,53.7078,106.6511,-185.6732,-166.8009,-197.0923,-102.2729,-158.9178,-121.5141,7.3676,8.0266,-123.2071,-79.1862,-275.0304,-104.4295,84.4971,-83.0250,-44.0900
68.9851,87.4056,105.1243,172.0033,-138.8599,-123.0079,-137.1664,-96.6862,-108.3758,-121.1116,22.6957,2.8112,-59.7736,-51.1587,-210.3942,-110.1094,173.7482,-49.6871,-10.8696
88.1321,60.8830,143.6241,149.2594,-93.7795,-149.3168,-90.6465,-108.9444,-49.0041,-79.1655,30.8557,-39.4916,4.9733,-56.8303,-110.6168,-73.6646,176.6777,-96.5589,-14.8342
59.3512,-6.0338,103.0401,23.4689,-95.6512,-198.9515,-85.3740,-142.7601,-42.1733,-62.8733,14.2086,-78.2366,-33.8016,-90.1112,-60.9837,-40.3004,73.6493,-172.3054,-55.8159
20.3612,-44.7284,28.0524,-91.5682,-131.8890,-222.6211,-121.6814,-181.7623,-101.5135,-93.8982,-5.2925,-77.4805,-105.6632,-123.1885,-126.2615,-56.8493,-20.2460,-177.5354,-88.5770
43.4948,-29.7136,43.1254,-88.4362,-134.6736,-224.1954,-144.0060,-196.8581,-150.4271,-92.4383,9.8463,-63.8443,-68.4119,-129.4621,-212.7409,-66.5895,8.1430,-97.2450,-80.1150
119.2998,-6.9394,164.7361,-34.4399,-72.8506,-202.3832,-98.5977,-199.3719,-138.0761,-89.5781,54.2989,-65.0816,27.2899,-99.7872,-207.5995,-34.3620,94.0751,-18.5039,-39.1326
162.8203,-1.3307,254.2768,-21.9750,-4.6950,-158.0967,-44.2723,-219.8942,-111.8409,-166.1182,85.5950,-55.7722,45.3622,-57.6510,-145.2405,-14.9305,116.3728,-10.1298,-32.6998
134.5005,-2.7003,210.5064,-37.4442,-1.7550,-147.4682,-65.9439,-248.6279,-118.2890,-225.4786,80.1197,-27.7811,3.3322,-52.6473,-106.5591,-34.0171,65.5774,-39.4313,-101.6299
64.9382,-26.8204,83.4446,-79.4946,-62.9677,-202.8144,-128.3650,-244.7135,-139.8654,-156.5598,49.4198,-16.5649,-19.7834,-98.4442,-103.2814,-41.9829,-32.6533,-45.4696,-173.8544
-0.0721,-70.1194,-20.6589,-150.7122,-122.1103,-249.7998,-150.7830,-190.6574,-145.1896,-54.3904,17.8093,-25.0540,-26.4641,-138.3451,-114.1249,-13.9045,-141.7633,-36.3739,-172.1305
-16.8804,-78.0158,-37.0363,-168.2890,-109.2928,-218.7325,-106.8382,-119.9037,-109.0031,-28.6651,4.2795,-34.8209,-18.7911,-126.7999,-100.2253,9.5236,-148.1843,-38.3701,-111.2867
21.7620,-47.5659,22.5583,-107.6709,-22.2249,-149.5766,-0.8304,-75.6953,-28.6834,-22.0282,9.1854,-60.6628,32.1565,-91.6365,-33.0625,12.3833,-24.4820,-12.4837,-17.8568
51.6403,-36.0599,58.9620,-70.1183,54.5867,-100.6701,103.4464,-45.8351,31.3228,29.4194,12.4641,-90.7826,90.0620,-69.3852,23.4850,38.3218,65.0620,69.2844,77.2234
15.0823,-41.2976,-14.7292,-88.3846,45.3679,-75.4984,96.7585,5.2927,12.5161,72.1829,-3.8703,-70.9297,78.5191,-64.1187,-5.7922,78.3498,26.4548,128.1781,83.9154
-58.5594,-25.7208,-146.2895,-97.7131,-29.9189,-79.9701,-13.7834,52.1800,-38.6940,55.1682,-35.2984,-11.0047,-12.6259,-82.8374,-65.7481,47.9120,-48.5108,81.9095,-18.7046
-113.7058,-17.1769,-223.3682,-102.0376,-114.3157,-114.0479,-108.1495,45.1441,-64.1678,16.6103,-61.5883,25.8700,-124.1938,-117.0127,-81.6333,-54.1203,-117.3580,-13.2164,-110.1220
-147.1749,-49.7542,-245.4224,-153.8447,-187.1485,-121.9235,-140.8643,0.6712,-90.0070,3.4655,-73.0834,34.4839,-195.0947,-124.2303,-94.6181,-123.7690,-224.1530,-48.7690,-114.3111
-185.6961,-89.7073,-295.8916,-231.1566,-234.9719,-74.3947,-146.3387,-32.5946,-127.1345,3.1808,-86.2893,40.8615,-217.5708,-100.0645,-133.5205,-133.0550,-328.2451,-32.0599,-83.6356
-227.7695,-96.4606,-379.2469,-259.8607,-237.8775,-25.2394,-132.9221,-43.3131,-127.8046,-0.1244,-113.5285,37.9073,-228.4268,-86.8176,-138.9308,-147.5809,-347.7029,-29.5264,-63.1572
-225.8368,-70.4831,-389.7958,-198.9245,-199.7387,0.3715,-102.6384,-29.8000,-91.8986,29.4048,-125.2899,28.1496,-232.7471,-79.1047,-101.9751,-161.8474,-275.6150,-18.1725,-39.7385
-137.7852,-26.2216,-244.9448,-68.3576,-121.4972,54.1119,-56.8761,26.0956,-53.4729,105.8042,-85.3577,32.6334,-190.5693,-25.2186,-65.3984,-104.8018,-139.7469,53.3661,6.1433
-1.0559,25.8659,-3.1900,84.1341,11.2511,150.3885,30.6979,105.1728,7.5041,148.6239,-10.8615,46.6398,-97.0138,74.7599,3.4817,6.5125,26.2225,139.6849,72.8611
95.4159,73.8646,180.1601,211.8102,153.1983,220.3685,132.6481,132.0881,94.5056,90.4734,47.3351,55.7473,-2.7542,153.7908,131.8658,67.9751,159.0413,164.0300,109.9715
116.7228,90.4629,219.1263,240.8089,203.8871,205.3362,160.4897,72.3492,137.7844,1.4794,64.2867,50.3334,47.5492,154.4154,223.9514,37.6810,199.1381,114.6115,67.1555
90.6205,49.4055,166.8615,131.1925,146.1257,123.5653,106.2663,8.1460,113.4779,-14.3545,50.8047,22.1047,49.1599,93.8367,207.8116,-1.2376,126.8605,16.7376,-7.7067
38.8356,-14.1516,98.4936,4.7209,79.5982,39.3064,48.4964,29.3924,88.2435,20.6001,27.9797,-2.7697,35.0315,45.0199,165.6287,41.4266,-9.2529,-84.1330,-42.4044
-15.7603,-34.8466,29.6529,-10.5522,79.8902,-4.1555,33.9973,85.7412,101.8160,26.7051,8.9146,-4.1752,55.2899,36.7108,177.9323,124.1735,-86.3710,-134.2565,-47.4495
-22.3162,-27.6847,-2.8066,-7.2347,123.8071,-4.1865,72.0053,80.2434,133.2392,17.6191,-1.3623,-32.3521,124.7661,31.7276,200.5246,143.1395,-36.1966,-142.1776,-25.0230
41.2678,-31.6045,75.0654,-49.8075,173.6830,47.4825,154.9612,57.8494,170.7150,51.5398,9.5173,-93.1747,207.0425,39.9498,194.1816,108.1130,74.9764,-130.1230,65.5157
128.2361,7.0218,235.0122,53.5362,235.1926,164.7009,230.2679,125.4207,212.2452,118.6171,49.3223,-84.7050,265.1077,121.9782,199.5824,119.5352,194.7646,-37.5706,186.4908
182.1389,114.5069,341.6805,354.0300,309.4771,295.3925,259.0261,256.7506,240.5797,188.5898,87.7856,0.5192,294.4872,245.1208,222.5155,210.4258,344.9758,139.5302,265.3126
200.3792,187.3879,354.7476,558.0735,373.5339,351.3696,276.1963,348.2233,258.0973,258.6979,91.9429,28.8849,316.3909,304.9149,221.5581,318.5807,481.1768,244.5259,316.6749
207.0576,165.7378,360.5115,513.2076,414.2461,322.8918,308.1375,369.2217,285.7426,292.1616,80.3321,-25.3689,344.7900,285.1196,214.8611,360.2426,506.5137,191.8038,360.7443
193.4706,117.2173,362.6467,382.5307,412.3869,262.2904,309.8701,338.6174,299.2390,254.8421,73.6703,-58.3322,347.4382,234.7729,218.4313,294.7584,421.8077,96.4085,354.6995
147.2452,89.5529,284.4314,271.1564,341.0188,199.6866,241.2693,273.6548,244.0693,202.8551,56.9460,-43.7863,297.0639,168.7758,159.7307,177.4643,311.9082,68.3705,287.3141
116.5033,85.3075,194.2526,199.7953,248.9513,164.0229,144.0336,213.9459,142.2455,175.6584,47.5148,-9.4556,250.4236,119.7892,44.0257,108.8946,252.5612,112.2324,199.3836
145.6641,120.8823,225.8698,250.2485,234.7932,186.8595,109.4733,187.9958,94.9878,115.6727,80.7649,48.3413,265.9455,141.3675,21.6870,106.7979,275.4067,195.2648,135.9530
181.8018,152.7569,306.9086,346.9681,280.1242,231.3352,169.1270,178.3614,135.7978,44.7312,111.5153,70.9135,299.3865,193.8500,111.7971,129.3568,328.9403,236.1817,154.8354
168.7202,111.0716,299.4799,302.8338,279.6174,240.8109,248.1466,188.8570,185.7743,92.8722,85.8592,-0.8448,303.3107,200.0018,146.3160,174.5212,329.8203,188.8559,263.8696
150.2640,51.1723,272.6194,202.0997,246.8175,237.9303,280.2665,253.6474,203.1713,235.0154,56.3022,-67.3282,308.9807,185.1980,107.7498,229.1301,289.1719,157.5560,361.9991
152.5799,51.1272,299.4712,214.8424,263.3862,247.2192,294.7943,339.9504,235.6944,301.1195,64.3071,-45.0716,313.9283,190.5508,144.9856,237.1760,260.8407,191.7382,375.0923
121.7682,54.4890,264.8471,225.2367,286.5069,220.8507,310.1369,364.5692,280.1983,281.6610,48.9696,-37.0670,267.4612,168.2026,226.0576,207.1878,235.6941,158.3875,347.1027
69.3045,15.2162,155.1730,135.3671,247.5276,155.1559,282.1552,326.2857,271.5006,300.9503,-0.4973,-96.3483,201.2194,108.6859,205.5554,201.4115,204.6042,43.0665,320.8266
64.1767,-6.1431,130.3685,94.9163,204.1698,124.1660,231.6159,300.2351,234.1795,352.9682,-8.2763,-111.8796,184.0530,87.1764,160.5992,210.7894,179.5586,15.3137,284.6086
73.7583,-3.5683,167.2881,118.0306,208.9980,123.2699,237.4825,299.0538,248.5649,354.5019,17.6826,-69.7230,199.1494,94.5709,237.6319,188.2513,131.5073,77.0819,241.5076
40.5646,-34.2822,116.3151,45.6209,222.4240,68.0468,275.2408,268.7622,287.3452,329.3310,7.6919,-81.6002,209.9182,45.8736,336.7682,151.2563,62.1161,74.1402,203.4969
18.6606,-67.3906,52.1015,-55.8078,231.7841,-20.2547,257.4410,223.7338,274.2975,330.9200,-14.9791,-131.7103,222.1572,-26.2641,304.0850,140.1941,40.8995,15.7077,172.8813
45.1796,-48.1092,93.4730,-25.3900,245.3689,-31.1251,203.4972,233.6350,233.3306,339.0287,-3.8426,-121.7176,212.9181,-24.0135,211.9579,144.6055,73.1467,6.5964,168.4651
64.2486,-15.0078,139.4915,47.2546,222.6789,34.4120,189.1631,269.0989,220.7672,330.9790,8.4404,-78.9387,159.1189,20.8433,191.5131,124.9597,101.9417,36.2454,181.2169
77.2464,-2.0285,141.8605,50.2847,178.6472,75.8236,196.5838,234.3764,212.7217,304.3186,12.5143,-65.3266,125.7082,29.0090,211.3241,72.0981,133.4933,63.4923,156.5205
128.9381,21.3910,210.2510,73.1466,188.6192,76.5400,163.5778,146.2125,171.6759,233.2090,49.4635,-43.5331,162.1389,37.7329,187.6206,34.8245,176.1347,86.0369,94.7239
161.1937,48.8745,287.2766,135.7225,215.4832,93.6482,106.4622,93.0280,118.1184,120.5513,90.1669,7.6227,188.4239,88.1367,136.1325,53.6236,166.8312,80.9636,52.1543
113.1088,32.6973,219.8697,99.2418,163.6435,112.2198,76.2059,64.5017,76.2054,29.7473,75.7364,31.0124,128.5037,107.5317,109.9524,76.9153,83.9241,46.2343,25.7021
49.1872,-18.6487,95.6456,-34.2479,70.8711,75.8346,58.5496,10.0377,40.6858,0.7999,36.9723,9.1937,44.6987,56.9705,97.5678,49.4249,-13.3144,7.5657,-15.0014
28.6193,-49.4012,67.1924,-88.5983,31.9974,10.8129,22.0322,-27.2531,18.1942,17.2166,22.9538,-17.1485,26.0586,16.7357,62.9118,30.5785,-66.7486,-44.7266,-26.8220
22.2486,-40.2028,79.0834,-13.6845,49.1858,-20.0642,2.5956,-1.4328,24.6774,57.7246,14.7837,-37.4917,50.5160,27.3783,24.6661,81.4698,-45.6983,-87.0576,28.1192
15.9630,-23.7560,53.6331,42.0690,81.6075,-30.1368,27.2323,27.8478,33.7431,87.3190,-2.6220,-60.9814,41.9550,25.0734,4.9172,136.5681,19.4013,-60.2074,82.1895
22.8132,-29.7986,31.4562,-18.0930,93.1610,-67.8528,29.0244,-7.4118,-4.1776,49.3149,-8.2382,-72.3721,-15.7568,-21.6644,-41.4959,117.8748,35.7711,-19.7000,61.2605
25.8743,-45.5442,30.2637,-98.3341,47.5190,-128.4163,-36.5792,-79.8848,-74.3326,-29.9193,-4.6827,-68.1223,-79.7162,-69.3163,-126.8317,54.5362,-9.2332,-57.0671,-0.4369
18.6517,-46.9146,26.5815,-84.0054,-22.8131,-180.0094,-95.1848,-114.7620,-100.3276,-27.1908,-9.9193,-73.0807,-110.4613,-93.6879,-159.5017,17.7121,-23.9969,-112.2579,-29.3216
10.5848,-42.9580,13.6740,-15.2064,-45.2813,-214.2022,-87.6924,-84.6909,-62.4921,83.5948,-24.0080,-96.4147,-109.4539,-107.9046,-105.9923,38.5625,6.6213,-109.1955,-12.3754
-14.3916,-47.3835,-27.9588,20.9237,-42.4666,-225.1828,-58.4586,-38.7712,-25.4829,166.8592,-47.3861,-120.3881,-117.8981,-112.7853,-64.0825,84.3538,19.3088,-100.0485,27.6024
-44.8990,-48.5432,-76.4050,23.3632,-74.4022,-200.9682,-33.7396,-34.2806,-17.8109,147.4627,-70.7277,-129.7501,-155.3197,-105.5835,-63.9027,77.6127,19.9605,-104.6948,72.3738
-40.6277,-52.4667,-67.6183,-1.9081,-111.0019,-165.6563,12.2525,-60.1107,0.3446,115.3137,-68.5645,-126.9451,-172.5230,-103.2526,-17.1401,9.7374,19.2758,-72.0946,90.4436
-29.8171,-81.2686,-43.5047,-66.8734,-121.2000,-165.5526,44.8632,-76.0464,26.4556,134.3822,-51.2253,-122.8239,-136.6827,-113.4379,66.1589,-20.0299,-35.9447,-41.6962,59.4917
-59.2386,-110.0164,-80.6069,-110.2419,-145.3233,-192.2371,3.1155,-77.2056,9.5017,150.7364,-52.5356,-113.3794,-113.2791,-116.5665,68.1193,20.2236,-127.6506,-75.5250,11.7374
-95.2227,-104.9788,-126.3410,-96.5791,-187.6292,-197.9824,-74.9710,-67.5563,-38.5731,129.8141,-64.0865,-82.5081,-157.9992,-108.6755,-5.1164,24.7081,-182.9457,-117.0795,-17.8325
-115.8783,-100.4371,-151.5262,-122.3801,-211.3879,-193.6937,-108.1599,-51.6292,-59.2643,103.4873,-68.7114,-47.0401,-207.4712,-122.2143,-34.4058,-42.3042,-231.3089,-111.7036,-44.4907
-156.6068,-131.8974,-224.8919,-217.6217,-231.7162,-219.1229,-92.4159,-53.8832,-52.3745,93.1752,-83.8552,-51.5294,-189.4739,-159.3520,-10.6008,-65.2401,-306.6262,-101.9407,-61.2083
-187.1745,-157.0102,-286.1254,-256.6161,-257.1424,-235.8137,-66.3019,-63.6084,-49.6198,91.7845,-104.0569,-91.9453,-138.5836,-165.7240,-23.8910,-2.4400,-318.1055,-118.7616,-16.0346
-152.7491,-140.8701,-224.8132,-220.3231,-241.4865,-204.1602,-37.0515,-47.0100,-40.6433,69.2301,-99.9308,-120.8853,-123.0062,-136.3320,-71.9946,25.2652,-232.1736,-151.2624,66.4496
-110.9639,-129.0466,-150.9040,-240.1025,-193.4559,-189.3683,-2.3933,-42.5330,-14.4542,7.2897,-90.6350,-135.9862,-158.4396,-141.2426,-67.4498,-27.6286,-169.7067,-200.9815,84.8958
-115.0768,-151.2999,-177.5968,-309.6563,-173.0574,-206.6806,25.7141,-75.6328,4.2667,-19.5061,-101.4067,-159.8611,-208.5845,-170.0116,-1.5559,-31.7250,-174.8620,-237.4838,34.0925
-103.9706,-157.4783,-184.9859,-291.4852,-161.2166,-137.8821,47.4184,-55.8369,13.2768,63.0362,-99.8822,-160.6399,-212.7451,-123.1001,52.6013,63.3540,-151.4276,-200.9266,15.0075
-63.2043,-118.3725,-116.8043,-199.1198,-111.4714,11.6579,68.9655,39.6261,34.8244,148.3753,-72.1821,-109.2550,-160.7798,-23.2766,68.2162,112.4507,-94.1854,-115.9005,49.3799
-68.3071,-89.3915,-103.7243,-176.4822,-70.2927,54.8582,70.8600,76.4345,47.8685,99.0516,-58.4166,-56.1883,-120.9162,-3.3673,66.7439,43.5482,-113.8536,-77.4944,56.7699
-113.1320,-116.0220,-155.7623,-253.9292,-87.2914,-40.9721,36.7939,15.6110,20.4915,1.6750,-65.8384,-50.8311,-122.5410,-63.1200,43.7801,-17.8644,-224.3086,-110.1403,19.4922
-135.7313,-159.4458,-175.9528,-325.7584,-118.7364,-112.7727,-3.2139,-27.9801,-12.1891,4.0985,-70.0082,-68.1962,-118.9591,-96.1440,8.4999,-10.2775,-320.3716,-151.1954,1.5741
-155.3659,-167.2802,-203.2580,-314.0211,-128.5813,-120.3966,-15.9310,-24.2103,-4.9438,67.8444,-82.5431,-76.5704,-109.9979,-98.9937,12.6090,-15.7716,-341.5349,-158.5647,13.0806
-190.7345,-149.3706,-278.7750,-258.0661,-141.2074,-132.4270,-15.8822,-26.4265,11.2597,97.3452,-107.8524,-79.9149,-121.6882,-112.5735,44.4968,-25.9155,-314.9850,-144.0020,7.6830
-191.7989,-141.4349,-310.5660,-256.7323,-146.7648,-119.0502,-22.8510,-28.7242,-10.2264,84.2886,-108.3895,-77.9405,-96.4132,-103.9056,21.0358,27.8569,-286.6636,-123.6234,-12.0873
-160.8630,-150.0486,-279.9736,-332.4618,-117.0508,-84.4698,-35.9224,-45.5474,-58.2829,30.1576,-81.9574,-68.4178,-16.1430,-82.4234,-62.8120,67.8686,-291.9068,-104.5498,-23.8140
-155.1631,-155.7221,-277.4919,-383.5910,-102.6204,-133.4554,-79.1461,-115.8215,-117.2962,-41.9686,-68.1600,-56.3424,1.6956,-113.9065,-140.3580,27.1013,-329.1315,-84.5288,-60.0689
-160.6805,-133.3817,-294.0678,-312.8385,-141.8304,-198.1434,-158.5763,-150.8984,-186.7477,-39.9086,-65.4418,-21.7672,-78.2209,-141.1242,-199.9335,20.9813,-337.0692,-26.5588,-118.6718
-125.5400,-75.9649,-242.3799,-153.1816,-139.3932,-83.1075,-175.3340,-58.7164,-203.8622,51.2561,-45.4161,41.1151,-114.1199,-52.7802,-219.1812,94.7591,-256.7943,86.2004,-101.6465
-52.9124,-14.0418,-112.9724,-20.1622,-13.3215,142.5497,-45.9182,46.1344,-95.5402,101.4060,-13.5244,68.9473,-29.9573,84.4274,-109.2922,103.8830,-102.9969,161.8079,12.0613
24.4089,16.1475,28.8833,16.4771,133.3212,214.1302,113.4465,12.5313,54.2152,11.9806,15.5086,24.7224,79.9325,118.7027,80.4737,11.8551,45.9250,102.8696,74.5677
70.2164,19.6449,100.7528,-11.5987,158.2559,95.8765,112.7063,-118.7681,68.8034,-167.1799,40.6796,-17.1417,122.6402,58.6025,129.6599,-39.4896,102.0422,-27.4297,-9.9596
51.9377,17.2440,64.6735,-28.2706,86.3663,-26.0925,-32.0298,-213.0381,-51.6281,-301.3598,48.9098,2.9756,98.2449,18.2723,-7.1204,4.5722,40.5661,-107.9618,-130.5269
-7.4482,4.3390,-15.6621,-14.1234,23.4564,-60.6870,-130.4801,-202.9830,-126.2524,-289.7368,29.5898,29.7660,51.7263,24.5657,-108.5770,73.2144,-60.1517,-130.9382,-152.0388
-50.0486,-17.5412,-68.0163,-11.3665,-9.9316,-47.0245,-104.5970,-115.1072,-88.6514,-175.7846,2.7408,20.7884,29.0350,30.5264,-68.4298,116.5701,-108.2339,-117.9154,-99.0424
-66.6434,-19.2594,-104.0570,-24.8359,-33.0805,-10.3623,-65.0340,-42.0015,-57.9400,-105.4177,-9.8868,26.6609,29.5729,29.0429,-36.7884,109.8497,-109.6261,-57.7089,-65.7698
-77.9894,4.3684,-126.5941,-8.7804,-22.9498,32.4400,-96.0207,-42.1604,-88.5189,-128.0143,-11.9811,64.2677,14.5969,43.8567,-95.7091,52.8945,-114.2625,-23.1897,-66.7262
-92.5158,12.4967,-121.0431,20.5843,12.4674,33.4172,-136.2531,-64.1349,-98.6134,-157.2020,-19.5029,71.5665,-13.3456,57.7171,-135.9168,11.5725,-137.7408,-91.6566,-55.9812
-133.9149,-22.5141,-165.2270,-22.8954,-6.0687,-12.4700,-128.1770,-47.4608,-72.0328,-132.8697,-45.5539,38.7769,-32.0057,32.5586,-111.5837,25.1009,-200.6461,-163.3028,-31.2757
-201.9587,-68.9765,-298.2224,-135.5475,-98.4000,-36.3061,-119.0773,-12.5812,-77.8679,-74.8073,-82.2665,27.9254,-60.4352,-14.2581,-99.6718,37.0134,-294.9606,-130.5384,-41.4075
-224.3127,-74.0632,-370.9002,-179.3200,-158.3955,-3.1138,-131.4773,10.0613,-88.8896,-9.9166,-96.7864,46.8932,-90.5447,-28.1889,-86.4832,7.0592,-313.5962,-79.3300,-89.1982
-166.8318,-31.1257,-283.1818,-76.3255,-112.0336,40.5684,-106.1106,28.4172,-26.8843,43.7980,-75.2889,50.8459,-67.3775,-0.4301,9.1791,-24.2694,-198.1144,-86.2502,-111.0090
-103.0249,16.5740,-167.2629,63.8860,-37.6602,75.8954,-46.3257,50.5107,51.7162,68.5156,-44.6884,50.2963,-7.3967,41.3386,121.5527,-17.8461,-72.2715,-70.5265,-88.0090
-87.5180,33.0087,-142.4836,98.3069,-29.3090,135.9369,-31.9137,68.8976,44.6473,56.5896,-26.3717,83.2830,14.2626,85.1990,127.0811,12.1573,-60.7057,-4.5422,-81.4219
-87.7206,25.6396,-152.4175,36.7806,-51.9481,191.7930,-59.2976,63.7648,-7.9462,1.4181,-12.7045,124.6351,2.7953,113.0479,77.5481,24.6708,-111.6616,25.2624,-122.9766
-72.6045,27.6212,-138.3876,-2.5556,-37.4796,191.8113,-58.4448,27.1646,-19.4278,-81.0307,1.9471,135.4196,14.4030,107.0806,83.3272,5.9305,-110.3584,18.3051,-168.9554
-49.7527,60.2134,-122.8449,46.4343,-5.2101,189.1542,-39.7639,2.5771,-15.0219,-134.3873,12.0308,137.7558,39.3152,104.8724,93.6726,1.1508,-31.3405,50.0494,-178.2568
-33.6258,101.1019,-120.5314,127.8226,7.4580,225.8881,-52.3857,23.6204,-42.3097,-134.0752,14.8615,153.2358,40.3718,133.3490,32.0614,41.9963,52.5329,101.3765,-157.7991
-39.2824,100.5354,-127.5839,135.1882,11.8563,210.0428,-71.2886,40.9832,-65.6135,-121.4108,8.3138,147.9515,24.5643,130.6852,-28.0473,73.3699,51.4050,101.9023,-131.9438
-52.3994,62.1302,-128.1458,66.8435,14.3654,112.1814,-52.6362,19.0401,-51.3526,-123.5825,-2.3587,106.0049,9.1190,67.5203,-19.0688,47.1140,-1.3917,69.4690,-107.0421
-28.1266,51.4114,-84.6120,45.5066,13.3013,65.4596,-13.8682,6.9671,-30.9042,-121.2725,0.1737,70.6508,-3.3230,30.9034,-4.0013,18.7108,27.7334,71.2435,-71.5979
21.4880,77.4529,-16.6364,101.6570,32.0402,111.3702,2.9939,21.4524,-33.5650,-105.5685,15.6087,66.9331,-9.4232,63.4561,-26.2140,46.4145,122.3941,98.4349,-41.1345
39.0111,74.1857,9.8624,98.5804,56.4648,126.7561,-22.9974,11.6656,-55.3864,-99.0213,24.9948,69.4563,-15.9834,84.0224,-52.3414,82.4292,122.6244,75.1353,-63.7131
40.3538,37.7013,24.9823,-0.0503,28.7047,77.0508,-83.5666,-16.9049,-90.1034,-113.5581,32.7253,68.3722,-35.4022,53.0990,-89.4723,57.1162,37.1850,-3.4339,-129.6017
75.8162,36.2317,97.1870,-33.9723,-30.5172,57.5934,-132.6081,-7.7525,-119.0799,-116.2844,54.1867,82.0710,-51.7202,35.3780,-149.1214,-5.8610,25.2406,-34.8079,-152.9630
113.4867,72.3143,169.7635,59.5802,-35.5974,96.0843,-112.9060,31.3114,-103.6168,-77.2145,72.4215,99.7773,-36.7543,63.4439,-152.5393,-30.3377,94.9736,31.7109,-97.1183
115.9421,93.8372,178.7864,154.8661,9.9457,143.5641,-23.1391,49.0357,-45.2125,-51.8633,72.8818,96.2214,2.4125,101.8871,-61.1990,2.4086,152.1689,122.0859,-19.9117
133.4211,110.0894,201.3513,201.2102,36.0412,185.7858,60.0368,38.5111,-9.1193,-106.3926,83.7590,92.3628,35.7911,134.3839,12.4486,42.1491,212.8661,182.9383,20.7421
185.5147,143.9866,277.0932,253.3457,37.8470,211.1681,62.2221,25.0944,-28.3173,-164.9327,114.8221,113.2284,50.5543,158.2919,-9.1558,47.1082,288.0692,223.2656,13.0998
188.8174,145.0428,284.6497,261.5135,34.6441,166.5710,10.5057,11.1600,-40.8822,-123.8979,117.1854,116.8253,45.8231,132.5722,-24.3758,10.7888,273.5800,197.7708,-30.4721
102.2379,79.1634,155.0650,144.0130,2.0062,37.7609,-15.2875,-29.4496,-3.6667,-64.8479,65.3397,62.7135,17.2736,34.6125,47.1019,-56.8248,139.1812,69.4073,-83.5775
4.7114,9.0999,-3.1798,-8.1474,-48.1796,-95.9656,-21.9081,-104.2390,10.8802,-109.5217,8.3996,1.8863,-28.3011,-68.4257,94.1646,-103.9689,6.8115,-57.5900,-128.8073
-25.5148,-3.9608,-71.2619,-52.7634,-60.9407,-147.4479,-68.4956,-170.7966,-57.6317,-191.7693,-5.5828,-2.6294,-68.6745,-95.2382,13.9843,-73.6256,-30.8867,-73.7063,-165.9882
0.5496,12.5884,-47.8381,-22.3745,-46.8467,-134.7378,-126.6747,-200.2106,-139.9825,-208.7768,10.1424,19.4642,-93.8402,-71.3622,-100.7163,-20.7297,-6.4416,-28.3386,-184.1897
33.1451,12.2439,-1.3236,-36.3882,-42.6461,-143.6023,-134.9734,-232.9894,-164.2951,-209.2926,21.8753,11.3433,-110.2097,-81.7343,-141.3243,-50.3198,17.8484,-13.5835,-180.7650
52.9684,7.3159,21.7824,-82.7629,-13.6493,-188.1499,-113.2067,-295.7224,-157.9668,-254.7752,22.5150,-19.8583,-112.1823,-128.1659,-145.0462,-133.1396,47.2159,-28.8761,-175.2898
72.7318,22.6734,44.5064,-65.1825,47.3927,-213.5222,-89.0797,-338.7841,-141.7493,-295.4700,22.5612,-46.5346,-96.7622,-147.5704,-143.3021,-169.2893,112.7546,-44.2429,-157.4569
91.2246,30.2404,91.9933,-15.0181,48.7628,-222.3839,-55.2519,-333.5638,-102.1164,-287.4227,24.5457,-70.7406,-94.4805,-141.9527,-100.9147,-168.9817,159.9368,-72.6031,-115.1987
78.0964,-5.4560,105.9872,-57.4483,-33.4458,-267.7744,-51.3779,-325.3489,-83.0042,-272.6455,17.8036,-94.6896,-122.4375,-164.6804,-72.1823,-183.7184,98.1624,-137.5133,-95.8614
29.9860,-53.0639,48.2162,-166.8048,-92.0118,-341.3818,-100.3741,-336.4163,-115.7743,-296.5208,-0.2623,-107.0544,-139.1454,-210.8664,-128.2989,-194.8378,-24.8770,-212.5933,-113.3234
-4.9333,-57.1252,3.6722,-183.3246,-87.8559,-370.4349,-124.1939,-327.8499,-132.0883,-329.4742,-8.9080,-95.9214,-114.0838,-223.6629,-171.8579,-195.0367,-78.1504,-219.8381,-105.4912
-5.3691,-26.4297,20.8077,-91.4995,-103.2599,-301.7735,-91.5669,-279.9546,-99.1770,-307.0502,2.8378,-52.5906,-85.8351,-175.2423,-111.5277,-204.6900,-64.4923,-138.2396,-72.9944
-8.6380,-9.0579,18.6988,-33.5301,-144.1840,-164.4638,-67.7075,-220.3069,-76.7912,-237.6953,10.2516,-1.6985,-79.0894,-94.0927,-48.0093,-192.7920,-68.0029,-61.4160,-61.3185
-23.7424,-14.8535,-13.4158,-51.5448,-115.2839,-60.3774,-35.0302,-167.2844,-60.3020,-192.8938,-0.3213,2.7813,-49.4918,-37.3670,-47.1802,-144.1580,-72.5063,-45.2925,-15.5454
-13.9575,-16.4561,18.3144,-51.2609,-18.6073,-36.2502,61.0302,-102.5260,6.4282,-172.7464,-3.0015,-29.1056,15.3850,-25.1641,-18.2432,-116.5613,-33.7581,-19.1922,100.4376
11.3669,9.4062,83.6049,16.9763,37.3752,-12.1419,127.9333,-15.2235,73.5893,-125.0211,10.3526,-19.0799,51.6847,-11.8597,40.7959,-131.9814,14.9754,45.5353,172.3320
3.1921,54.7136,63.7126,102.7127,31.2295,53.1416,85.7385,55.6333,72.6552,-80.4969,8.9887,35.2202,36.0088,24.2770,32.0212,-144.9550,44.7399,68.6806,142.1678
-28.7532,73.7405,-10.6259,124.9384,36.8831,73.1904,43.3242,69.9451,57.7886,-79.4711,-12.8510,46.9776,20.3664,31.5691,-0.1940,-133.3496,59.5395,32.5448,108.2065
-33.3647,39.4528,-30.9337,53.3974,52.7753,28.0723,70.6946,51.1853,74.0103,-57.5829,-24.3849,3.4952,16.5408,-5.2803,31.5067,-110.5318,45.2412,6.0618,101.8649
-5.0453,-0.9061,-0.2756,-32.8640,13.6774,13.0120,66.7007,31.6208,57.1568,5.7131,-15.4916,-20.1218,-14.6804,-25.5071,40.8123,-94.2861,20.5707,3.1734,63.8483
32.8278,4.4637,45.8351,-32.0772,-37.4564,32.5059,5.4522,-4.7933,-11.9879,7.1532,1.6742,-9.3902,-51.2818,-8.1880,-49.8453,-88.4053,44.6025,1.6031,32.4963
67.4284,26.8941,109.5033,30.3663,7.8238,15.0491,-4.3690,-44.5643,-48.3505,-62.1420,21.3209,-11.7562,-38.7956,10.4076,-121.1403,-47.6313,97.5614,15.6528,66.4408
71.9906,20.9444,130.8505,55.7507,107.8013,-10.5926,35.8003,-29.9130,-22.3055,-67.4522,28.2117,-24.8967,-7.9960,19.9694,-81.2592,43.4545,96.5422,31.5569,90.5844
33.4226,1.1468,58.2991,19.1823,116.3559,-1.5373,10.6126,9.1573,-10.4295,9.0234,8.4662,-19.2240,-18.8365,17.9960,-45.3942,76.0738,38.6011,-0.8721,36.8989
6.4674,-4.5301,-0.3344,-30.7133,39.2895,-11.3942,-81.0394,-20.2076,-56.1456,26.4011,-7.9532,-7.5560,-47.8896,-7.8484,-114.3227,-7.3088,-4.7100,-68.8927,-30.5442
37.0744,8.5148,58.4013,-27.0726,7.4607,-43.2061,-132.4346,-91.9751,-102.0095,-58.9751,13.9764,3.0105,-48.1443,-19.3609,-181.2582,-75.3454,5.6037,-102.5357,-58.6288
70.0454,41.8933,122.3525,54.9507,25.3066,-16.9421,-117.5740,-111.0011,-94.6565,-141.3691,46.0396,39.8672,-36.0621,19.7374,-124.1480,-54.0112,45.0241,-70.8106,-91.1223
37.8569,76.5964,50.4363,124.5324,-3.1944,47.6794,-102.3685,-105.0723,-73.0167,-174.9955,40.1334,90.2262,-42.8973,52.3138,-27.9129,-59.5701,58.6172,-14.8195,-147.6894
-21.8936,75.7021,-71.2155,91.3516,-61.6135,50.7415,-107.1005,-148.1494,-82.1380,-213.4206,7.9578,95.5185,-59.3111,26.3548,-21.4753,-130.2842,28.3980,-4.6746,-167.8777
-34.9612,42.5192,-78.4904,31.4592,-68.9904,-12.4733,-82.8085,-188.1313,-73.4417,-240.4397,-7.6959,42.6870,-60.7907,-12.7749,-35.4894,-145.6236,4.5145,-59.8171,-117.3925
-6.4440,7.1309,5.1769,22.6612,-45.7671,-74.3747,-23.8745,-152.9674,-10.7773,-183.7260,-2.0663,-20.9645,-41.4238,-27.0043,29.2619,-75.2659,10.9568,-124.2158,-51.9379
8.8188,-29.7326,45.4025,-19.5431,-54.0683,-103.0055,-2.2259,-92.7732,20.7638,-90.4342,1.4024,-54.5883,-29.4443,-36.4806,63.4645,-4.8534,-13.6002,-156.1894,-32.2378
-6.6431,-65.8418,15.7862,-118.7931,-84.9194,-95.9277,-44.2659,-59.4577,-29.4458,-56.4754,-5.7612,-52.8367,-54.5201,-39.3652,-25.3039,38.0181,-88.4383,-171.8594,-39.8727
-29.2978,-75.3063,-21.8196,-149.7869,-100.6946,-73.8923,-68.2211,-12.5545,-54.0085,-33.0278,-18.1026,-42.9424,-76.3712,-29.8877,-83.8642,69.8546,-124.5877,-175.5175,-27.7083
-41.0080,-65.2531,-47.1606,-103.5895,-92.5043,-78.5647,-23.1652,52.5869,11.4491,49.9956,-31.9345,-60.4546,-36.6631,-38.7429,-6.0278,89.8981,-82.4341,-159.5012,0.7007
-38.7851,-59.5669,-59.1304,-73.9671,-75.2055,-90.5637,12.6978,70.0803,55.9484,105.1998,-36.2151,-83.0732,21.4775,-47.8857,55.3940,113.4124,-36.7467,-144.1883,10.3927
-18.0508,-40.5733,-26.1994,-28.6059,-69.8801,-44.7281,-19.9008,44.9469,17.8677,79.3884,-16.3239,-52.9063,34.5181,-1.7326,15.9856,136.8140,-23.4551,-122.8813,-6.6786
15.2244,-8.2466,39.6461,57.1726,-69.6314,22.6086,-36.1415,49.6902,11.3139,94.5180,13.1907,-4.7231,51.4596,54.1467,29.6092,123.6521,0.3484,-70.1288,-20.0092
24.4659,-9.9261,55.3857,77.4600,-53.6426,13.2907,27.1639,93.5484,92.9154,200.0389,15.8295,-20.6069,115.2903,35.4400,151.8962,97.3360,23.2176,-25.4189,-2.9556
-23.7142,-34.0890,-23.9298,39.2222,-50.2014,-28.2603,59.0078,144.3384,140.5060,272.6673,-10.5286,-40.6249,146.1276,-4.1910,212.6981,107.3558,-25.4938,-16.3309,10.8560
-103.6234,-17.7970,-139.6276,65.1101,-83.8758,27.7009,-30.8810,197.0829,78.6103,250.8895,-29.5215,47.8066,94.8354,35.9633,137.2408,117.5587,-141.6842,12.4186,-31.0244
-151.0607,12.2479,-198.2281,105.3645,-97.4201,140.3992,-120.2856,214.7114,7.7778,191.9717,-28.1867,156.7683,36.4739,111.5758,63.5177,88.4933,-237.3229,48.9230,-83.1780
-145.6158,-18.1417,-178.2517,40.3795,-59.9400,143.6626,-85.3257,142.8752,15.2747,137.1817,-31.6349,120.2968,19.6525,112.7798,77.8047,66.8381,-257.4767,-4.4184,-57.5708
-126.3411,-76.2508,-152.4140,-62.0441,-35.8838,21.0314,-18.1771,31.8968,45.6302,107.3076,-51.4534,-7.8234,9.7347,34.7024,98.8532,66.2256,-221.9978,-115.7514,-0.1794
-121.8315,-85.8840,-175.8325,-103.7200,-44.6832,-92.6079,-30.0411,-22.0942,34.5840,103.8191,-67.7312,-62.6562,-9.9909,-51.6823,67.7115,30.5492,-178.5408,-152.4318,-19.6472
-116.4365,-60.1737,-196.8448,-106.1410,-41.7423,-119.8999,-63.5969,-23.3396,4.9816,78.4285,-63.4086,-33.2871,-32.9215,-90.3803,34.6311,-21.4059,-154.5493,-103.5325,-81.4900
-96.6239,-35.3042,-163.8532,-57.0761,-54.2530,-72.6332,-64.2415,-11.5797,-20.9119,43.6357,-45.8105,6.3989,-66.0110,-55.3113,17.0434,-7.2707,-132.4810,-35.6511,-81.1787
-78.9691,-3.3188,-125.9770,66.3621,-113.3408,10.3774,-74.5564,28.0641,-50.5475,84.3920,-34.3768,39.1418,-89.7775,22.2784,-25.7030,62.5687,-85.7726,36.7193,-24.6571
-71.7546,15.5740,-116.5355,140.4409,-139.2267,49.6196,-78.1918,78.3070,-53.8425,167.8124,-34.3015,45.6218,-67.9156,55.7171,-57.2756,102.9972,-44.6803,86.7737,27.0110
-59.6976,-15.9932,-87.4310,60.2565,-87.6513,-7.0923,-19.4943,84.5904,-9.7216,178.0428,-30.9601,3.4086,-14.1825,9.3040,-20.6896,85.5160,-61.1680,81.2436,64.5688
-42.1293,-58.9528,-38.9827,-65.9982,-37.6780,-84.1703,51.4871,78.6593,29.9307,134.3657,-21.1258,-38.5124,21.5629,-55.3538,12.6421,41.8389,-102.7647,73.5507,102.0757
-33.0703,-51.8564,-24.7757,-89.3948,-25.0472,-85.7533,80.7575,126.0108,41.6358,129.6392,-22.5316,-40.1403,12.5130,-77.2412,-13.3376,4.5322,-79.4618,105.9901,145.5497
-26.5319,-11.5856,-27.3334,-11.0931,-3.4543,-34.0660,112.9723,187.7704,76.2083,154.8397,-34.4024,-34.1093,-27.7945,-58.3029,9.1287,-1.4700,13.4421,128.7659,178.8696
-10.5629,24.2430,-6.3181,94.0941,22.7056,8.6335,149.1513,191.9850,124.8589,151.1647,-30.4005,-23.4718,-52.5758,-23.7056,117.7170,13.6725,92.2980,133.8061,157.2880
6.3134,61.0361,17.1070,174.8378,20.8825,33.5836,123.7341,154.0945,113.9990,107.9541,-5.8230,24.2507,-29.6800,4.6426,154.2904,-7.0576,115.8842,173.3970,92.9171
14.0840,88.3202,26.0255,195.6910,8.7040,47.7230,64.1856,127.1783,57.7631,65.6590,12.7057,72.2296,1.8925,12.8203,68.0809,-65.7527,107.1523,221.7323,67.2636
14.3899,74.4943,26.4139,157.3594,-0.5084,58.6031,45.4138,128.3421,30.4532,82.2971,11.1367,69.8639,-8.3526,16.1576,12.5265,-63.5478,83.1663,218.5831,80.2111
14.7381,46.0318,19.3136,127.6581,-10.3732,80.8082,48.4909,143.9526,30.6305,129.0453,8.2303,53.3380,-27.1921,41.6154,42.7300,40.0426,63.2020,185.1082,56.7777
33.9016,57.0242,48.8198,168.7216,8.1933,96.2797,37.5849,141.1585,25.5022,88.7480,27.8269,66.1157,3.1719,80.2653,66.0458,132.6863,84.1384,160.7825,13.3940
69.4836,85.2923,125.7878,229.0072,58.7005,78.0847,42.9957,101.1712,30.1602,-24.5366,59.2263,79.7696,52.8460,97.0714,79.5514,137.1459,124.2900,144.9616,2.3184
71.8178,71.0989,129.0444,203.2919,81.9566,53.8728,76.6023,63.2197,49.9429,-59.6298,64.1256,68.7658,56.2757,82.7804,146.8708,141.1449,110.4835,147.9992,-21.5019
33.2925,39.5949,26.5895,123.1911,63.8377,67.5764,104.3529,77.9745,59.7531,-22.8757,44.0315,65.3624,37.9393,69.0579,222.2701,204.2363,64.6519,181.9170,-82.5463
29.7006,62.7897,-0.3157,130.2311,67.4836,115.2277,112.7647,128.6022,59.2554,-52.6521,48.6621,96.5444,71.3892,89.2535,218.0556,233.7935,89.6825,222.7064,-98.5806
78.9158,117.1134,101.8450,216.2538,114.3803,160.7447,115.6180,157.3533,60.5948,-114.2949,80.2563,126.0460,142.0582,128.5324,149.0176,185.9127,171.6587,246.8054,-32.2738
96.6718,110.6962,146.3871,213.4704,149.1436,172.5650,129.7245,151.0351,62.1482,-76.1133,80.4762,98.1186,174.5857,137.4700,89.6761,157.9679,188.3525,244.2125,56.3811
57.1197,44.8779,77.1391,88.6199,136.9526,152.2970,148.7415,152.7244,64.9844,21.7179,42.4134,33.3905,163.8357,106.7919,58.1107,177.8815,118.2547,203.6778,117.4281
22.3594,14.1269,24.7637,0.5914,103.6541,140.7044,117.1544,183.9759,53.3755,59.9300,20.4401,23.4357,147.0939,82.4803,9.4059,154.8202,47.9269,149.2136,118.7544
11.1959,47.3277,15.4317,39.8234,71.9521,155.5796,7.7588,192.6621,-4.9047,28.7312,27.7890,92.7945,99.3073,93.9482,-69.5222,92.6501,12.9412,127.8767,40.3761
6.8032,80.4292,5.2353,121.2667,26.0681,159.8495,-99.4104,128.1951,-91.8449,-33.2556,36.1226,152.9839,-2.8605,117.2589,-133.4442,81.4583,0.0938,130.6625,-54.8195
19.1716,75.8084,18.5240,132.9992,-41.9165,129.5927,-129.8473,35.0245,-149.5915,-98.2612,37.3727,141.2955,-92.3349,111.7148,-172.3920,88.7976,13.1009,114.4773,-78.6321
30.7288,54.2087,30.6705,70.4835,-104.1050,87.9435,-121.2614,-8.5249,-163.8973,-109.1873,29.6406,97.7365,-113.2479,69.6459,-216.2334,36.0947,26.6477,88.4245,-43.8174
14.4914,37.3665,0.6310,33.8049,-137.8251,66.1436,-129.0533,1.0245,-161.3786,-39.2019,12.7258,75.0231,-103.3785,39.9925,-243.5100,-4.3789,8.6520,82.2160,-15.4120
7.7429,31.5264,6.8146,83.5847,-147.7779,73.2001,-154.4140,19.8980,-159.6486,40.1093,9.5745,73.5473,-107.4275,67.6943,-237.1094,46.8872,-10.4453,61.3327,-6.9098
18.4947,24.6399,58.3347,116.9885,-142.4809,67.6407,-187.6072,23.3485,-161.6546,46.5299,14.7527,65.0365,-132.5842,96.5534,-248.7773,92.4083,-24.5086,-31.2214,-3.7680
-23.4557,-13.4297,8.2095,20.9985,-138.8987,-12.2294,-203.2373,-2.2533,-153.9931,0.2649,-17.4483,21.4195,-185.5602,37.9470,-266.1649,49.1351,-89.8799,-164.5266,-6.5794
-110.6240,-77.0951,-144.9880,-117.2840,-169.8403,-128.4604,-179.6722,-49.2207,-128.9647,-1.8505,-78.0418,-46.1479,-248.2502,-64.7580,-216.2926,10.2504,-184.6428,-241.0611,-18.9529
-150.5408,-110.0920,-232.2504,-156.5194,-233.7846,-163.4137,-174.6461,-70.7417,-124.2817,70.9181,-107.4455,-78.7096,-272.5932,-97.5735,-174.4056,31.3325,-219.2222,-240.6129,-35.7536
-144.5721,-93.1463,-231.7718,-134.7121,-275.4584,-109.4783,-233.1647,-52.1331,-160.8397,116.6874,-105.9923,-59.4288,-252.0912,-66.1019,-260.5086,15.6135,-202.1623,-251.4470,-33.4029
-154.8806,-74.7596,-238.4316,-154.1933,-261.7182,-77.9170,-269.7029,-49.9389,-179.8586,51.7382,-114.2362,-51.9140,-225.0835,-57.4541,-367.7197,-66.2434,-195.2859,-320.7697,4.2087
-156.6767,-82.5131,-231.0074,-197.3364,-235.9114,-115.8442,-230.1278,-103.5843,-154.8875,-55.6639,-118.9043,-82.7385,-216.7069,-87.2519,-346.1033,-121.4091,-187.6437,-378.7004,25.0492
-113.3486,-88.5621,-168.0785,-210.6483,-257.9901,-174.2257,-218.0178,-188.4583,-162.3276,-120.7128,-90.8707,-90.9201,-229.2282,-118.2713,-288.7606,-139.9181,-168.9984,-365.2724,-38.7041
-71.6995,-75.0378,-120.8434,-209.2544,-307.3083,-208.6748,-282.4492,-277.0373,-227.0536,-173.7700,-54.2065,-53.9337,-234.2036,-137.3055,-311.8008,-187.7578,-166.9697,-322.2216,-149.6156
-67.3188,-63.8365,-139.3698,-220.8699,-295.5156,-210.4106,-303.1997,-355.9841,-250.5458,-233.2351,-43.1824,-39.6431,-185.4076,-144.3621,-312.1132,-230.8540,-159.7151,-305.7360,-210.8220
-70.5718,-74.6352,-167.6036,-238.1988,-204.0558,-198.9295,-214.2412,-392.7043,-183.6213,-237.3926,-50.3726,-82.1641,-101.5753,-142.4353,-198.8185,-197.9831,-121.3454,-300.7383,-197.1308
-50.8745,-86.8539,-134.7297,-229.4775,-123.0869,-196.0695,-105.1906,-369.1215,-105.4020,-194.0798,-46.8085,-123.6338,-46.2521,-137.8087,-85.9970,-139.6480,-77.5851,-259.6600,-136.1850
-3.3914,-63.9238,-31.6716,-165.4033,-91.2217,-188.4386,-46.0335,-323.7588,-74.5417,-186.7768,-19.1297,-118.1758,-7.0617,-124.6355,-76.8914,-148.4655,-21.8377,-175.2719,-49.0092
52.0909,-13.9697,78.4609,-75.0497,-35.4449,-170.1435,-11.7929,-298.0938,-53.2041,-213.6405,17.1383,-90.6785,62.6140,-109.1606,-91.7502,-212.8425,58.1716,-87.4264,16.1843
82.3308,17.2044,130.5370,-27.5837,63.8014,-158.8776,24.4761,-279.8176,-12.3497,-212.2998,40.8402,-67.0757,128.6753,-106.7334,-39.4058,-256.6601,100.0237,-19.2588,17.3553
98.2194,24.8342,154.3890,-18.7714,131.7705,-112.1663,55.6395,-239.9059,8.9599,-175.3288,56.9624,-36.7705,143.3190,-84.2680,11.1358,-245.6399,96.5633,59.6418,6.5154
141.3774,46.7655,211.4892,21.7420,152.3361,19.2769,69.1095,-170.6944,-13.9563,-101.4974,77.6839,1.3840,128.6978,-6.9264,-33.7014,-194.8352,145.3420,166.1298,47.1910
189.3267,78.2764,265.9993,91.9183,169.3704,156.3442,68.3751,-63.0480,-32.8736,28.7974,90.2270,28.0870,108.5997,75.1861,-98.8050,-112.5964,235.4126,250.3081,96.2661
187.0553,78.7440,255.7569,115.8461,183.4244,207.9278,85.8472,80.5296,1.3413,156.1751,83.4044,39.4747,86.6109,107.0018,-58.9107,2.8433,247.2599,273.5104,100.4483
160.0745,56.5369,227.2166,84.2467,204.3728,224.1332,145.0653,203.6889,67.2135,195.0585,76.4840,43.7748,100.9006,119.3659,44.1628,108.7648,198.4392,270.4194,104.5848
172.1331,53.0795,266.9295,75.5888,273.4569,265.5786,215.5743,259.1215,126.1053,186.9703,88.9600,41.5762,170.9512,149.4261,107.2215,143.5969,201.0036,277.9852,152.6617
215.4307,67.7628,359.0823,125.4429,352.0440,303.2706,262.2099,288.2835,182.1066,230.1408,110.5999,35.3825,236.7037,181.4730,157.0496,131.7180,250.9316,285.4519,203.1349
240.2436,72.6341,410.2560,171.9948,366.3402,323.5760,291.2654,337.7766,234.7143,317.9621,119.2934,31.1316,241.8864,198.1559,238.5652,146.2296,282.1922,287.9234,209.4524
233.2921,63.2504,383.6394,163.5107,342.1121,334.7232,301.9209,372.4738,250.8288,383.3773,111.0974,30.7976,206.9150,195.3168,292.3926,178.8863,278.7137,304.3327,179.4920
212.4829,52.3552,338.3204,137.2100,330.2832,314.2607,279.5677,368.4907,229.7824,400.9865,103.7635,40.6928,184.4848,176.9380,287.1168,187.7634,238.3688,326.8591,141.9900
195.0908,47.2832,328.6117,134.9240,314.3549,275.7398,253.2388,364.6229,216.1868,368.5421,107.9849,57.4633,194.0934,165.8182,278.9694,190.2328,184.7451,319.5045,121.8283
191.1086,52.2519,334.7534,134.1995,295.9937,251.7436,253.4001,351.3510,221.4351,289.7778,111.0034,57.8843,204.2840,157.4068,283.6059,175.8629,182.7572,277.4304,116.4815
193.3573,65.7784,321.3095,123.2410,304.9178,205.6787,236.1774,269.3829,202.1544,196.2207,103.2153,41.5954,171.7447,117.0932,254.0618,99.8362,222.3860,233.2205,87.8310
172.2614,68.0265,274.7604,119.3090,303.7845,112.8662,154.5845,144.5347,133.6759,125.9910,86.8763,32.5359,94.7801,60.9042,175.3374,26.3160,205.1455,186.2229,26.9161
109.3216,38.4307,175.9901,84.7029,242.2733,22.9567,49.9047,63.2718,56.5239,98.3172,54.0055,21.0750,11.6714,20.8345,86.8438,31.2986,107.8996,97.0366,-28.4298
30.6143,-5.7225,36.3232,-14.9306,148.4838,-44.3050,-19.0456,35.1935,17.9844,103.2902,6.1123,-8.3307,-37.9372,-32.1122,30.8438,28.2922,11.2489,-12.1323,-70.7904
-21.9363,-20.8995,-77.8001,-97.8830,67.7646,-103.6584,-65.8484,7.2948,-7.7062,87.1878,-25.8757,-21.6506,-41.3960,-99.3164,-14.3607,-41.2425,-29.9155,-57.7032,-116.4163
-41.9768,-6.3583,-129.6262,-91.6645,13.5759,-131.4633,-114.0183,-37.5813,-66.3894,20.1111,-31.1615,-9.1466,-28.3941,-115.5197,-101.7077,-53.9828,-28.5477,-41.5464,-131.9087
-47.5662,-13.1643,-135.5016,-73.3830,3.2671,-121.8305,-118.6669,-72.9662,-105.9627,-27.3092,-34.4480,-25.3034,-28.0567,-81.9587,-165.5212,31.9361,-25.0592,-52.8159,-86.5700
-40.1743,-51.8885,-99.8255,-116.5628,38.8945,-101.5655,-45.9156,-78.6944,-49.1360,-3.5737,-35.1444,-69.8842,0.3373,-61.0723,-83.5944,68.0187,-46.0458,-96.7682,-32.3751
-22.6486,-66.7578,-49.1259,-157.0796,77.6632,-67.8711,26.5212,-80.1519,35.3538,4.5850,-16.1604,-72.6513,87.7826,-52.7950,55.1095,-3.3156,-69.4149,-103.9515,-31.3419
-21.1319,-35.1846,-54.5228,-135.9840,80.8266,-36.3471,7.0005,-122.8591,23.6159,-70.6328,-2.8981,-34.7721,141.3972,-41.6333,45.5821,-86.0180,-56.4578,-83.3525,-64.4672
-37.4342,-2.3727,-103.4921,-93.6193,51.8881,-35.8290,-49.5547,-176.8819,-44.7448,-137.2485,-18.7255,-21.6413,89.7950,-46.0954,-72.8585,-130.1701,-15.8204,-74.4432,-61.1972
-35.8343,-1.2831,-97.7000,-73.5753,24.0595,-10.2926,-23.3879,-149.8607,-46.8090,-101.1006,-32.0960,-37.5723,35.8160,-36.3536,-107.0881,-126.7216,14.9022,-44.9002,16.9720
-11.4223,-16.1153,-38.1121,-79.2234,32.1172,74.4015,55.5448,-45.7162,1.8473,-16.9669,-20.0410,-40.8851,65.9800,17.2087,-62.0878,-55.4657,19.6433,8.8665,106.0910
-8.3947,-21.8192,-29.7891,-95.1145,57.7849,121.5259,45.1767,25.9661,-1.7042,13.9431,-8.6190,-13.6057,84.8862,55.2044,-65.0151,26.8685,-12.5663,15.5076,85.2551
-55.6119,-6.6716,-105.8638,-63.3272,25.2343,100.3468,-78.2523,35.6182,-66.2659,-13.9117,-16.6454,49.6559,16.8357,59.4734,-113.9567,57.2162,-89.4031,-28.9320,-38.2802
-128.9088,13.9674,-203.8644,28.1489,-84.5950,112.5202,-183.8685,62.5717,-115.6270,-16.5579,-36.5195,118.8683,-54.9331,92.6987,-142.0483,83.9597,-175.1517,-49.8133,-101.3096
-173.7582,6.5360,-258.1157,66.7073,-179.9129,155.9509,-170.5878,131.8217,-100.4577,59.2876,-61.1876,121.7674,-70.3059,124.8954,-135.1804,123.0424,-207.6338,-31.1712,-28.9232
-151.2095,-22.3648,-226.0942,-1.6164,-187.0383,134.7353,-74.9563,178.3935,-37.7532,136.6368,-74.3808,54.4756,-78.8426,79.7221,-93.6798,96.5391,-161.3585,-19.7084,64.1265
-80.0972,-26.9108,-113.0036,-48.3836,-149.6226,69.7705,-6.4042,160.4562,10.2847,102.7243,-55.0610,3.6150,-100.5926,18.6870,-41.5349,30.6875,-75.6776,-44.6015,76.5202
-21.2961,-4.3854,0.4511,2.6634,-140.0453,20.7116,-28.3739,98.0660,-4.4950,-17.2306,-16.3812,7.6276,-98.9098,20.2508,-39.5601,33.9743,-23.9769,-100.8506,30.0332
-12.0058,-0.5512,25.2313,30.3408,-157.0130,-42.1863,-94.6346,22.9148,-58.9041,-114.1130,4.5129,18.2904,-78.3373,20.9120,-83.6544,81.4157,-44.0716,-149.8128,-32.4769
-39.1795,-28.5711,-43.2389,-48.1294,-161.1321,-124.4156,-113.1547,-50.6367,-88.8121,-158.8076,-5.5873,0.0024,-72.4262,-36.6865,-88.2031,82.9441,-94.7508,-154.8333,-93.5347
-57.8920,-48.8361,-109.6097,-120.7769,-140.0197,-171.4407,-74.0010,-115.6389,-71.5665,-180.2610,-21.4892,-28.9681,-74.9085,-94.0626,-22.0603,44.3605,-99.9057,-133.7767,-135.8978
-28.3632,-25.7706,-65.2785,-66.6535,-104.6989,-170.8279,-45.7914,-156.6554,-43.5384,-194.0739,-7.5289,-27.5286,-67.4554,-95.1598,42.7501,-5.4916,-42.9311,-105.6869,-148.6790
23.8426,23.5776,61.0673,65.3883,-73.3901,-140.8969,-44.5584,-163.5826,-36.8789,-229.3616,31.1378,16.6720,-64.9265,-52.6959,48.9846,-66.3169,7.5698,-53.0342,-115.5897
20.9148,38.8399,101.9295,119.5552,-64.5616,-106.6016,-13.3285,-162.9571,-31.8464,-290.5012,39.3233,41.9211,-77.5676,-18.4948,37.6022,-108.2263,-10.2740,-7.5563,-31.0166
-39.6828,-2.0196,-4.7243,29.5822,-69.9550,-111.9744,50.7959,-186.3419,-7.7888,-303.1150,-3.5979,-7.8555,-77.8964,-43.8333,54.3765,-113.6837,-55.7058,-17.7026,39.6668
-57.1680,-30.1184,-88.5158,-54.1532,-58.1665,-131.2716,66.7444,-200.6316,-1.8252,-213.3263,-32.8079,-61.8246,-48.3930,-87.1583,50.4041,-99.0056,-35.1503,-17.4145,33.0138
7.9392,13.2600,-4.3639,59.2718,-28.7703,-81.1772,7.9230,-144.8042,-33.1536,-66.6560,-1.1779,-27.5806,-21.6889,-42.3075,-7.6231,-51.3800,53.3330,59.2981,10.5617
55.8353,69.6672,117.6087,264.7211,-17.4215,1.7143,-42.8540,-43.1309,-41.0557,53.5912,32.0415,35.7015,-35.8770,55.2806,-41.7336,7.0762,104.8057,114.7290,52.2162
4.4921,53.2056,63.7955,255.2494,-41.2035,7.0500,-37.8685,9.9275,-11.0247,91.0589,-0.7000,26.5728,-82.1614,54.6950,-29.3570,-6.9323,49.1715,58.7450,99.2138
-79.4021,-15.2284,-113.3937,13.8930,-82.4762,-36.3509,-36.6129,-8.2759,-24.0389,63.4257,-57.9184,-19.6915,-115.3719,-33.3278,-65.0474,-63.3618,-59.2886,-18.1095,67.1389
-75.7303,-50.3550,-154.8386,-144.9078,-99.2433,-22.6858,-54.7407,-18.4170,-70.6268,56.1748,-55.1577,-23.7943,-89.5218,-57.0833,-122.6937,-48.3171,-98.2649,-10.2939,6.0070
19.9522,-26.1972,7.1173,-86.1902,-47.3126,36.9337,-10.2541,25.6674,-35.7526,94.8706,2.9873,-4.7713,-10.9042,-4.3296,-63.7160,-5.1586,-15.4154,52.3055,9.0535
94.9328,6.5781,151.6508,-0.3956,38.0586,59.5734,84.4192,71.7287,57.3284,123.3938,37.7455,-11.6274,34.7463,12.1637,52.4815,-38.1372,92.2892,96.7360,63.1305
86.0063,6.0743,132.0131,-4.0504,49.9424,29.2324,97.0193,67.9840,67.0575,141.0852,19.1121,-34.8887,-9.4879,-20.9359,45.6409,-76.3733,112.5571,93.5280,88.9140
59.7055,-3.4918,71.5998,-1.5102,-11.5318,-8.3525,29.6805,30.2769,6.4024,163.0540,-3.4140,-49.5569,-69.6545,-36.2641,-35.2680,-42.3732,99.1340,60.8848,67.4147
85.9442,15.6447,106.1491,48.9615,-22.6761,-26.0239,33.0978,-9.2712,5.1085,120.4985,9.1081,-56.4844,-60.0233,-34.8398,-19.4945,-32.6774,159.1483,56.8588,52.7533
132.9377,40.0484,187.7558,72.1038,35.3966,-44.1904,121.4566,-35.4541,64.4428,25.5360,36.5679,-63.2956,-10.5412,-53.4828,72.3572,-93.8893,235.1313,98.8082,72.2189
141.8750,30.1769,218.7675,53.0124,66.1995,-69.1409,163.0259,-35.1861,102.5683,14.7217,48.8238,-68.3765,33.2750,-69.3010,134.4337,-115.0428,216.5004,114.7579,80.7991
110.6345,8.4226,182.7504,44.2649,76.7705,-49.4794,137.6465,-10.1322,124.1391,81.7641,43.9162,-61.1646,90.6538,-40.0347,182.0552,-62.4072,142.7540,61.2209,46.6961
68.4472,4.1719,123.7072,45.9475,129.1983,24.0422,125.7087,24.3129,160.4966,107.7250,33.4168,-38.8664,155.6163,15.5689,242.2778,-21.3845,86.2409,-3.9889,12.0894
37.0903,-11.1934,89.1475,8.7333,156.1355,58.2550,114.1390,61.8534,171.8498,129.9271,25.8502,-23.1202,186.7703,36.5661,244.9224,-14.5511,15.3746,-33.7904,11.0111
14.3926,-53.2031,60.9198,-82.4197,80.1440,-5.3928,35.6158,74.3916,114.2653,192.2221,17.8819,-29.2946,177.8116,-4.5602,140.6898,-15.6849,-85.7984,-66.6238,-4.6587
-22.3754,-78.5944,-19.2761,-169.5631,-33.8769,-106.5816,-92.8567,16.2272,10.8143,157.5094,-0.7223,-33.7020,124.8034,-71.1306,-4.5299,-33.7738,-160.4048,-144.0720,-88.9107
-60.2851,-63.8613,-104.9036,-170.6049,-106.7137,-157.3733,-196.6639,-75.2813,-77.6744,13.9811,-18.4917,-13.9280,31.4441,-95.8863,-91.0233,-43.7484,-176.4840,-225.6473,-195.1383
-49.3524,-37.9506,-89.4667,-87.7296,-144.8474,-111.3191,-233.8430,-96.9589,-115.1766,-18.8981,-12.6724,10.4803,-29.8802,-45.0168,-113.8377,1.7950,-139.3573,-235.9690,-219.2361
-2.9068,-18.3926,-14.6678,-12.6699,-167.3502,0.7745,-229.6496,-50.1550,-124.0358,81.0392,3.6822,20.4941,-23.7866,34.5203,-151.6350,46.6718,-70.5468,-189.1226,-155.7529
11.7141,4.1480,-0.1602,1.6750,-181.4204,53.5997,-241.5603,-54.3904,-144.7020,64.3792,4.4173,29.8073,-29.2761,54.6245,-216.5216,-4.7244,-24.3555,-183.3520,-126.8342
2.3009,23.5280,-25.6998,-28.2419,-193.3949,-26.0780,-272.4963,-169.7041,-177.7908,-140.5980,3.3219,37.0787,-74.5859,-7.3681,-238.0751,-120.4147,-15.7472,-239.8379,-203.0335
25.1588,23.0611,-15.3919,-93.5897,-188.8333,-147.7002,-282.8552,-331.0970,-209.9040,-338.4564,18.2683,15.5692,-88.8805,-91.2489,-226.6311,-202.2153,8.0804,-284.0523,-306.6165
51.0781,8.6890,-5.9922,-167.7685,-171.6891,-221.3770,-289.1994,-446.9106,-242.2235,-415.3541,26.5264,-19.3223,-79.3432,-148.6442,-249.5912,-244.5877,31.3240,-301.1432,-358.4608
14.1135,-1.9758,-55.8328,-183.4938,-170.4119,-263.7755,-308.8870,-480.3697,-251.5894,-435.3904,10.1238,-18.7879,-107.8089,-176.3584,-253.5138,-283.7107,-23.7681,-315.7552,-369.7320
-58.4798,-12.1121,-135.6185,-150.6786,-163.7164,-274.9727,-277.2223,-457.9933,-215.3418,-441.2264,-13.1814,5.2807,-136.9592,-173.4555,-168.1063,-281.5553,-122.0155,-277.3710,-344.5237
-96.4135,-35.6625,-190.7062,-159.5882,-122.1109,-241.0891,-189.1783,-421.5668,-179.5353,-402.6047,-28.6824,0.3630,-126.9295,-152.6976,-98.9399,-210.2716,-168.8016,-174.6613,-270.8615
-99.7842,-59.8735,-205.8998,-211.5663,-88.5406,-213.6052,-151.3852,-376.2955,-189.6701,-337.9484,-38.3375,-17.2710,-132.0546,-146.5494,-145.6314,-153.6405,-182.9897,-106.5093,-199.2352
-117.2010,-64.3258,-217.3283,-230.0302,-97.6965,-202.5696,-168.5003,-322.6807,-202.8598,-312.8247,-46.2815,-0.4959,-162.5187,-146.5782,-197.9525,-169.2702,-225.3920,-95.9066,-168.2505
-162.0585,-65.6678,-275.0446,-213.9484,-123.3859,-157.8409,-143.3065,-286.7245,-176.8701,-303.9920,-62.0311,19.6161,-157.2299,-120.7491,-152.7929,-167.9434,-270.9842,-71.4530,-138.9465
-192.5431,-75.9156,-340.2771,-191.9326,-152.9161,-111.2348,-107.1709,-256.4962,-149.6886,-225.5235,-82.5671,0.9758,-116.4196,-88.1086,-107.3127,-86.8316,-264.2770,-48.4343,-100.7054
-166.4152,-57.0038,-312.6725,-129.4129,-177.3967,-104.2150,-140.0262,-191.1236,-151.1815,-118.1902,-79.7814,-10.7688,-82.2314,-72.9428,-151.0456,-23.7066,-191.7773,-64.1542,-88.1960
-103.7974,0.6006,-205.0833,-32.9709,-165.3837,-76.6451,-173.0001,-128.4554,-156.3298,-115.8095,-48.9094,21.3696,-67.4685,-49.1492,-210.6309,-49.2496,-88.4276,-59.9467,-81.4801
-66.8195,29.3213,-135.9706,5.3488,-143.3690,-29.3708,-143.7827,-137.0422,-158.0721,-198.3121,-29.0754,40.5620,-90.8381,-19.2199,-220.2687,-78.9725,-32.7952,-31.2808,-51.6962
-75.8713,-1.4295,-147.9556,-38.1079,-156.9596,-51.6729,-118.1034,-171.6825,-161.2453,-210.7787,-42.0293,6.0720,-141.0800,-31.5870,-210.5865,-53.1624,-54.2287,-51.8477,-28.9776
-86.0619,-21.2358,-171.9622,-64.6635,-150.1909,-92.3616,-95.0803,-136.9943,-123.8007,-129.7837,-58.2815,-30.4905,-131.0053,-65.8312,-170.7352,-33.0418,-52.3970,-70.1776,-18.4013
-50.1444,23.2374,-128.2415,6.4562,-74.5870,-27.4751,-2.7405,-47.0335,-29.1040,-79.7311,-41.0850,-15.9938,-39.7164,-44.6960,-53.6506,-48.2273,54.7467,14.4125,10.4907
17.0044,85.6295,-13.6072,128.4819,-16.8651,79.4933,89.0866,9.8354,42.2955,-110.5558,3.6443,31.4960,19.9892,22.9491,64.7113,-59.1754,173.0485,121.5820,35.4949
41.5155,93.0592,61.2192,171.6633,-43.8244,88.9167,76.7418,2.4552,36.0278,-144.0062,25.9554,54.8185,-11.6049,49.6349,75.3514,-69.4710,160.7543,111.2239,33.5505
-16.2108,34.4853,-0.7222,83.6167,-85.2342,20.5374,41.1462,-26.1759,27.7937,-116.1297,-5.1483,21.9770,-55.3345,11.7564,62.1036,-85.8803,31.1113,12.0993,36.0036
-80.7637,-31.5362,-101.1663,-23.6270,-75.3921,-30.1685,82.2409,-30.3346,76.9123,-63.0207,-41.9213,-28.8534,-46.1637,-26.9529,156.4168,-45.5052,-73.1494,-46.5661,32.6368
-55.6288,-42.8335,-80.0226,-37.7260,-40.3307,-40.9295,123.3446,-19.6718,98.9922,-57.1672,-22.0770,-32.6032,-16.3283,-24.6272,245.9649,55.5654,-60.0301,-8.7106,-20.7806
24.1172,-11.9168,20.5620,-14.0454,-19.8762,-36.1508,78.3992,-42.6370,25.5491,-106.8539,27.6739,3.7386,-14.2814,-11.0306,163.9874,96.1504,9.2882,61.3661,-86.4666
46.7162,-6.3087,51.9182,-46.8013,-31.3804,-44.7501,1.3373,-108.4962,-57.8048,-157.8042,40.0595,18.6756,-42.1460,-20.3468,23.7148,27.7516,1.6086,49.5802,-107.1248
-6.6918,-50.2762,-2.5939,-116.4659,-81.2192,-80.8031,-45.9956,-162.2587,-74.5663,-158.1085,13.3030,-1.4540,-71.9693,-39.5315,-5.9342,-29.3481,-114.2661,-54.9601,-103.8563
-59.6116,-99.3678,-66.9613,-174.4003,-139.9377,-108.3107,-79.4521,-145.3261,-80.7413,-77.3518,-14.6485,-25.4522,-80.5455,-48.6406,-25.0511,2.9881,-220.3187,-121.6783,-86.6200
-63.6560,-106.6767,-94.4493,-199.4795,-147.9920,-82.5326,-91.2918,-51.2566,-101.6446,63.1215,-31.4055,-39.8119,-65.4087,-50.1549,-131.1665,43.9566,-205.3231,-71.3497,-15.2270
-37.7018,-72.1841,-65.7372,-149.9818,-82.0633,-21.9509,-28.4478,61.5627,-55.5450,159.9092,-36.0452,-45.6843,-36.5841,-38.2172,-152.0580,30.3248,-101.3284,14.3652,90.8086
-17.0952,-36.5928,-3.5031,-43.0524,1.0839,15.8398,87.4342,114.8246,60.9935,147.9500,-29.1779,-49.4065,-15.9222,-10.8642,7.7219,12.1195,-16.7813,37.7592,157.6335
-13.0891,-32.0106,28.8230,11.7060,18.0627,4.7712,148.1258,105.5240,128.2054,106.1429,-26.6597,-62.3081,-34.3625,-1.6760,140.5052,22.8526,5.0621,2.8974,161.7089
-11.9500,-35.0097,18.3469,3.2245,-25.9545,-20.5255,118.4548,107.3938,106.9492,116.5163,-31.2692,-66.7311,-77.8150,-19.1002,120.8260,38.9947,11.1108,-18.9433,127.7940
-3.2226,-7.6684,5.4568,46.3228,-32.7587,0.7984,100.1454,150.2346,94.1911,152.5613,-24.9070,-37.7218,-71.0928,-11.1788,111.8263,67.6589,51.5635,40.9010,93.4029
8.0647,33.1928,5.2009,144.7311,47.8009,81.8374,171.1706,196.3436,150.0729,187.6507,-9.3672,-4.2621,19.9354,40.8590,216.0862,112.9771,118.3215,166.3021,106.0202
28.0527,51.5141,31.0169,182.5766,164.1038,176.2746,270.8846,228.2890,226.3379,227.0728,2.9278,-3.0400,134.6330,91.9539,311.3850,121.4564,175.7887,247.5633,167.5512
67.3208,47.7871,105.0850,148.3927,257.7014,241.0807,321.5802,240.0725,274.8787,240.7716,20.2444,-18.5288,213.2994,123.8502,339.5763,89.9482,204.1682,221.7663,210.2278
97.3865,28.7954,172.5285,124.4970,305.3873,258.9659,344.9811,197.9391,310.2579,221.6294,40.7391,-37.1355,265.2777,151.0801,411.3316,100.2622,195.2910,149.8252,191.2663
83.7915,-2.3363,156.1409,127.0788,299.9814,235.3710,373.7901,114.8623,339.4138,208.7208,43.7550,-63.7210,314.0237,165.3960,533.3702,167.2569,155.6222,115.6801,152.2757
59.6441,-12.1402,108.8193,131.3483,270.9445,214.4256,360.1617,68.9991,310.5544,193.6010,38.3426,-67.6353,343.4366,166.3904,515.5493,207.8817,127.4200,138.1765,149.5753
77.0162,17.8990,128.1367,132.3842,254.5128,224.2032,259.5673,84.5105,197.8325,155.1375,47.3989,-30.0857,315.9691,169.6013,277.2514,179.7485,143.3446,166.1782,171.5508
104.0200,40.5496,165.5674,103.7767,225.1742,222.7104,129.3862,104.5422,82.6959,133.2022,52.3159,0.9558,224.0462,156.1799,33.0879,116.9036,155.7302,126.9720,157.5547
78.5655,22.0081,122.1147,42.6373,149.7810,191.1390,61.4358,103.4372,50.0573,148.3486,30.0930,-0.6851,123.2719,118.9419,-12.4191,65.1331,106.2860,43.9745,103.3115
29.2406,6.3574,47.9049,33.1525,63.8766,182.9572,48.0205,119.1634,54.3055,176.7058,5.2574,4.7069,72.3432,108.0770,20.5063,58.9686,47.8925,27.7683,87.7032
22.2556,31.6220,42.9416,113.2893,10.0306,203.4301,2.5929,165.7292,6.6051,210.9777,1.7038,32.1521,36.3390,135.2306,-77.0158,93.9754,62.8062,75.3794,130.9352
39.7247,60.4777,69.6182,169.7116,-17.6229,192.4307,-81.4200,193.7533,-68.6046,217.9706,1.4775,49.9263,-47.6945,139.0161,-230.9737,109.6273,103.7986,67.1424,140.2425
28.2078,47.6147,48.3099,108.2271,-26.5551,142.9596,-107.4925,160.9516,-81.4270,160.1198,-11.8509,38.3825,-128.2776,93.8296,-240.4145,59.3195,80.8643,-8.9621,89.1449
4.3017,13.6713,13.8820,11.0314,-8.8124,84.8161,-44.3797,94.3045,-14.8176,100.4992,-26.7691,-3.0617,-110.9402,32.0252,-118.0290,-38.1294,40.6013,-70.7822,66.5908
10.5509,3.4714,28.8422,-8.5005,25.6864,15.5799,23.0052,46.8554,70.9726,96.3309,-29.6066,-56.1344,-28.0778,-22.8989,0.2580,-121.4523,70.0978,-114.8711,78.8687
36.9613,8.3295,70.9222,9.1962,48.6608,-48.6447,40.3971,34.9012,116.1323,90.4767,-16.9667,-81.0196,20.0718,-55.1898,75.5749,-122.1002,113.8520,-159.5577,42.6769
54.8582,-8.7709,98.5648,-32.7726,37.4077,-75.6926,28.0237,48.5872,100.5808,63.5627,3.9576,-70.7390,21.9909,-59.4162,92.4966,-47.0493,82.3332,-168.6492,-20.5228
55.4018,-35.7373,103.2051,-100.4379,-0.1751,-90.7170,-6.2185,63.7141,48.6272,71.3940,12.8234,-60.3247,14.5546,-65.6834,16.8753,-8.9955,16.8141,-148.0547,-26.8879
33.8768,-36.8772,78.6873,-85.3975,-24.8655,-112.8728,-38.9391,45.8824,15.8069,97.5379,0.5096,-58.9401,-3.3338,-78.2460,-54.1928,-48.5665,-12.0741,-124.6272,12.1258
3.2778,-25.0631,43.0749,8.3075,-15.1365,-93.3627,1.7986,12.2688,45.7947,109.5157,-12.7533,-54.4612,-13.7845,-51.9246,24.9110,-49.7380,-12.5995,-68.2568,52.6115
-1.4278,-25.1666,39.0980,69.0552,13.7685,-31.1770,91.3991,13.5071,108.3319,128.2304,-9.6525,-56.2468,21.2870,1.8491,170.4271,24.0187,3.9344,-8.9935,79.9602
21.0708,-19.9313,55.0435,41.0833,48.8555,-14.3985,77.2613,8.0006,98.5666,103.1739,0.7968,-57.8375,54.3792,9.3039,148.6030,43.0302,34.5375,-42.8195,42.6037
30.3220,-2.8157,38.8748,-18.1967,68.4472,-67.0696,-74.5371,-75.4962,-28.3562,-5.8410,5.8894,-31.4849,4.0431,-30.2891,-55.7123,-19.8922,25.9239,-120.6093,-69.4713
11.1956,0.7751,-5.3555,-27.7606,27.8431,-97.1042,-190.5021,-157.2464,-153.2366,-67.4047,3.3059,6.5714,-87.9784,-41.4561,-206.5283,-36.8581,-30.0634,-103.6602,-134.5608
-9.6000,-4.7133,-31.6854,17.3661,-57.8406,-49.6522,-155.9270,-125.6996,-147.5370,-8.6733,-5.4415,15.2550,-109.6869,-6.1723,-173.8486,8.2957,-45.4431,-24.1820,-77.5641
-19.1436,-2.9723,-36.2615,36.9613,-106.6847,-1.6440,-68.1277,-48.6808,-67.6646,33.2034,-16.0780,-3.6638,-58.4897,12.0820,-89.2777,9.6136,-10.9778,-9.1762,9.2546
-40.6548,-11.2311,-63.0637,-11.8076,-109.3700,-38.8642,-46.3415,-27.7960,-38.9986,3.7593,-29.4420,-21.8721,-28.6116,-26.8941,-88.6838,-38.8325,-26.4328,-43.4173,38.0042
-85.4366,-22.6287,-131.1853,-37.8608,-138.7602,-107.5238,-80.0860,-21.0350,-58.6666,5.2993,-50.7843,-19.6048,-62.8991,-75.6857,-122.6555,-61.9754,-86.3296,-46.2281,26.8856
-109.9148,0.4074,-170.1684,34.0677,-201.5309,-99.6079,-118.5999,12.3573,-69.9731,29.0772,-63.0093,9.5412,-120.8460,-66.0259,-122.9376,-56.1101,-83.1698,-40.3314,3.4965
-69.3993,34.0857,-99.5083,95.2837,-236.3624,-45.7553,-150.6161,17.0166,-85.0738,-11.2874,-40.9381,40.1608,-155.3916,-22.9208,-136.0224,-67.0904,-26.9693,-73.9619,-29.0557
-9.4713,25.3756,0.8037,29.6347,-234.7005,-54.3281,-162.8092,-27.6509,-114.1404,-83.8504,-6.5550,39.0396,-156.6540,-30.6626,-174.1447,-102.9271,-16.9867,-104.3039,-61.3643
-8.5120,1.6752,-17.8896,-64.8941,-217.7600,-95.5742,-129.4309,-71.1027,-117.3668,-130.4438,-1.7180,25.1312,-125.0640,-76.7503,-157.4968,-128.4831,-43.0882,-63.2308,-82.5404
-37.5244,14.2874,-93.4669,-57.5114,-153.0366,-54.8612,-50.9153,-66.3841,-76.7039,-154.5701,-10.4992,32.8363,-44.3463,-66.4558,-82.6774,-108.1334,-24.0638,35.9240,-61.7211
-14.6553,34.4108,-54.2768,-19.3318,-23.4076,54.5576,48.3566,0.2064,-12.3215,-139.9823,6.0614,41.5618,68.9917,4.0295,-24.6261,-50.1828,30.5947,114.1162,21.8457
37.4653,16.5571,50.7724,-57.1831,87.9764,131.1914,130.7186,79.8098,48.0835,-83.2328,30.7316,23.7586,133.1595,54.4222,20.3626,12.6532,50.3642,119.1104,92.7030
41.9007,-12.6681,62.7561,-105.6033,98.7470,149.9316,147.8440,113.9226,76.5550,-41.9459,30.1028,8.7607,114.4469,68.1886,80.6120,72.2055,22.8188,64.2397,67.3479
4.8799,-0.4868,6.7209,-68.6599,59.6876,140.7284,93.4822,154.2682,79.6735,-40.3478,17.0402,32.2889,103.9482,74.1948,97.3101,103.6154,-2.3323,-5.2385,5.4716
-22.0218,50.1161,-20.3238,8.5375,73.9026,113.6192,33.8102,254.2803,93.8247,-45.9870,11.5785,73.3626,162.4603,61.0003,43.1277,66.2891,12.7279,-42.0013,0.7219
-17.2027,83.5079,-13.5807,43.6445,130.9550,91.9706,26.6049,313.6578,108.8830,-33.6415,12.8008,85.0031,212.5104,37.9454,-0.6308,25.7428,55.9621,-20.0972,26.3998
36.6908,73.8522,56.3243,54.1138,149.8471,119.4790,59.1288,266.3530,93.9497,3.4365,33.5275,61.9107,205.8524,64.9969,9.6965,83.8334,108.0128,35.0501,41.8576
132.1036,64.6357,216.0050,91.8059,133.2509,189.0309,102.1270,220.8621,81.2408,36.2347,78.5234,39.1149,209.1609,137.2007,23.7976,165.6320,181.9103,73.4360,86.0722
193.7683,84.6876,331.3062,137.9140,134.7984,233.0945,143.2391,225.3806,100.4518,24.3173,102.7237,25.5776,229.1837,170.4150,12.9269,143.6995,268.9374,78.1101,159.7970
171.2555,96.8454,284.4209,154.8443,140.3953,211.3040,150.4138,197.5467,108.9285,6.5695,75.0315,2.4959,186.2783,141.5436,0.8722,83.8183,306.2786,55.6376,185.9235
121.2962,87.9575,191.7760,168.4019,114.8335,162.1437,97.0144,145.1320,85.5855,31.4729,40.8571,-7.8195,102.7241,112.1057,2.6903,73.6246,271.1274,10.0953,133.1976
116.3483,93.7344,203.7458,193.7210,84.0452,131.5305,26.0895,125.6611,73.5340,32.5565,50.5896,23.7907,85.0437,105.1456,19.1604,27.5344,223.2670,-41.6510,51.5341
143.2226,98.6527,271.2360,168.4426,81.1237,104.9066,13.5754,89.5998,93.2683,-39.0970,81.7431,45.8968,141.4363,86.7750,64.3848,-74.1762,197.9004,-81.9850,-5.2396
147.0771,64.1766,272.3737,84.9192,98.3502,79.3831,73.2375,29.1132,129.7924,-91.3408,87.8350,9.5987,205.7361,66.2953,149.8314,-73.1333,175.6873,-107.6147,-19.6668
120.7393,33.1781,208.0780,50.0083,123.2508,110.2588,137.5358,46.5899,166.4737,-56.8086,71.6993,-24.2480,255.8417,91.8956,228.2741,59.5510,165.7601,-104.1556,-5.1928
99.7480,46.3022,163.0130,85.0011,146.3405,188.1672,133.4256,134.9780,166.4629,3.5387,62.5500,1.5645,275.0188,145.0432,209.9635,151.5716,169.2536,-72.2907,11.1932
87.7785,50.5283,151.8435,70.2208,153.4619,205.5875,77.0926,173.2050,120.2469,28.8923,58.6381,34.8498,230.0800,148.2041,111.3022,123.3831,125.5988,-54.7957,14.5326
54.3245,13.8940,108.6938,-16.2626,153.5807,132.3810,65.3537,139.3818,100.8249,31.7741,39.6717,21.2365,168.2855,85.0066,85.9672,55.4499,36.2310,-50.7157,14.7955
17.8232,-14.0235,41.4974,-51.9567,173.4525,67.9096,136.8174,94.6479,149.6536,59.2229,17.0003,-17.6910,187.2818,27.7933,185.6031,19.2277,6.1776,2.7320,38.0723
31.6688,-9.2209,46.7118,6.8182,219.2751,81.6745,207.5547,61.7042,190.8908,135.4255,20.0033,-45.4784,269.7794,39.9422,258.8993,39.1734,63.2100,99.3263,92.7734
71.4557,7.1254,107.2623,88.8788,263.9282,144.9799,206.8121,50.8921,163.4532,198.3773,37.5013,-42.6574,288.2153,103.5694,211.8331,107.4000,119.0130,165.0722,143.4064
68.2325,33.6851,97.2661,147.2425,261.3608,201.0204,182.4039,76.4051,117.6662,168.2601,32.4088,-12.0197,204.0303,147.1459,141.3913,157.3499,146.9257,193.8797,158.5664
40.2210,62.9431,33.1632,164.3002,204.2325,208.7118,200.1828,118.3813,116.2399,92.2567,10.9181,6.1250,128.8091,128.0461,132.2814,134.1311,187.8460,219.7334,164.1956
48.2382,65.8781,43.9503,131.6649,165.3057,170.8071,238.2436,144.9626,147.1398,68.3097,9.9343,-8.0221,136.3250,80.1172,152.4019,70.3449,215.5835,227.8131,185.3000
79.6822,50.8057,116.7613,102.5548,202.9013,143.8911,246.8016,139.9824,162.8920,93.8009,28.2419,-18.2793,154.8191,64.5722,164.6682,33.7048,197.9536,219.4713,193.3834
90.7475,47.0319,141.5813,129.0058,264.0233,164.9637,230.6295,117.1085,151.0165,134.7319,35.1094,-9.5168,125.0579,92.2381,173.0629,59.4418,182.1955,230.0169,176.1092
73.8247,46.9535,106.5194,162.7091,273.7427,196.5690,211.9200,121.8681,141.2247,184.0276,24.3974,-3.9350,104.1436,122.6839,177.3286,115.5986,175.0239,230.6446,163.5949
36.4515,31.5910,61.2830,132.5296,231.3666,175.2699,167.4273,149.5675,131.1768,196.0883,10.6546,1.1274,112.8306,113.6317,145.0452,118.5376,108.2623,171.7097,152.4709
3.2388,3.5732,33.3019,54.9517,156.9371,86.1549,78.6900,133.3544,73.8599,159.3145,1.4489,7.9836,67.6756,59.1625,46.5412,64.0976,-0.3045,97.1905,118.1514
5.2704,-24.8294,41.0031,-0.0354,71.9819,-7.9464,14.9771,86.3850,4.7269,145.4212,-1.7831,-6.6844,-34.6530,2.9016,-36.9177,48.1486,-48.6538,67.8682,86.0119
10.6330,-38.2756,52.3260,-2.8326,28.7772,-39.1286,46.7182,73.1129,30.0072,137.5777,-5.8044,-32.7588,-79.9615,-14.4531,31.0387,64.0830,-35.5460,41.3277,78.8161
-37.3601,-36.1396,-7.9878,1.0452,29.5711,-48.4450,92.2025,38.0079,108.0156,36.4229,-24.6217,-39.5722,-53.6479,-22.8673,174.9138,6.5601,-57.5734,-50.2833,49.3864
-116.0454,-45.4819,-131.1214,-41.3656,-0.8268,-118.1812,31.0122,-76.7387,89.9451,-106.9171,-55.8536,-38.7027,-63.1973,-65.9637,182.7458,-79.0841,-143.0435,-176.9006,-35.0613
-172.3585,-76.4725,-230.0512,-98.0918,-76.7171,-206.2470,-59.2751,-153.6425,20.3467,-149.0038,-82.3339,-49.9996,-116.3184,-111.2348,113.8580,-68.6730,-232.3478,-256.5236,-105.4401
-201.4453,-98.7670,-260.1512,-101.0587,-126.6880,-217.6475,-26.7698,-103.3140,63.2421,-95.8005,-96.3472,-65.6383,-106.6889,-112.5782,182.4200,-24.0259,-270.1407,-269.7430,-78.6057
-196.6911,-92.1532,-225.4200,-64.9964,-128.4966,-177.0309,62.3550,-31.9581,159.3878,-43.9452,-94.3696,-77.9040,-26.6729,-93.7032,285.8401,-54.3704,-240.9397,-251.4903,8.3824
-142.8381,-70.4892,-149.7771,-52.4384,-113.1487,-158.1975,53.3563,-22.6578,136.6200,-18.2816,-72.5737,-77.8006,11.5917,-90.6247,202.0987,-90.6117,-170.3741,-209.1275,45.1307
-72.9803,-51.8692,-75.0914,-68.8004,-72.0536,-149.4568,6.1388,-18.5540,53.0071,-10.2352,-42.7751,-60.7997,-24.4800,-92.6870,63.9595,-59.1178,-102.7326,-137.5289,16.8134
-19.8776,-41.3255,-3.7879,-75.0757,8.0667,-108.2707,54.7204,8.3033,62.8866,-23.0093,-17.2670,-50.4526,-42.6075,-74.1993,91.9124,-20.8193,-47.9836,-74.7127,9.3085
25.4162,-28.2409,78.1970,-52.1724,83.2539,-47.5590,130.1538,12.0585,112.7172,-52.8142,7.7288,-50.0078,-2.6304,-34.6628,167.4402,-19.4722,6.8524,-46.8904,40.3134
47.4529,-8.7822,104.3493,-37.5734,108.1547,-26.2844,112.4849,-32.6803,78.2277,-103.6676,22.2910,-35.2915,16.8777,-20.3857,111.3391,-47.6539,36.6403,-21.6598,38.3766
27.6105,-9.1412,33.9398,-91.0434,100.0079,-72.5095,60.7561,-110.1076,5.1400,-145.4107,9.7791,-29.2999,-18.0749,-72.3974,16.4726,-110.6839,19.0399,21.3517,-5.8674
17.8816,-29.0518,-19.3921,-161.6319,110.4276,-102.5651,65.8941,-160.5941,-9.3491,-106.7067,-2.9775,-50.0232,-19.1324,-120.5468,13.0346,-155.5313,8.1762,68.3985,-30.5611
47.5929,-18.2582,21.3124,-120.0682,148.4090,-38.7178,84.1684,-139.9861,11.7127,-35.0313,15.4967,-41.4174,50.7309,-73.4748,47.8800,-118.8589,44.2041,109.6825,-23.5254
52.0959,15.5889,54.3614,-14.5262,156.5503,0.9436,60.7236,-128.4620,6.5847,-81.7924,35.1065,0.9429,87.8553,-12.2247,49.8318,-73.7023,53.0712,108.9827,-25.9935
6.7695,2.6469,15.7052,-14.7468,95.9184,-107.3415,21.6328,-208.0466,-19.0694,-213.6132,25.1392,3.2086,34.2814,-55.9048,53.2891,-103.5060,-29.2735,41.7998,-63.0534
-30.0428,-41.0383,-25.8347,-74.5378,9.0877,-227.1554,-17.0586,-284.6817,-35.8016,-229.2681,12.4601,-15.3614,-20.1891,-125.9421,87.3164,-149.0034,-134.0140,-10.3828,-124.0739
-51.3349,-45.8047,-58.6383,-47.0640,-52.8117,-218.0309,-61.1140,-263.9312,-40.4217,-124.3858,10.1537,9.3161,-6.1074,-116.4014,111.8893,-148.5437,-183.3860,12.5440,-162.7562
-87.6761,-39.9579,-116.9537,-12.9971,-82.2511,-184.2307,-65.3732,-218.0123,-29.4186,-75.4601,-5.5890,21.1373,26.4813,-92.2471,115.6049,-119.2431,-199.4071,26.1907,-139.0728
-95.5996,-65.4026,-127.0662,-66.2542,-67.6702,-182.3825,4.8652,-177.9546,9.8531,-80.4641,-21.0750,-21.4377,23.4520,-97.4974,143.6268,-65.7685,-192.4749,1.2553,-75.2202
-43.4826,-62.6741,-42.3244,-77.5584,-17.4773,-109.5195,72.5174,-66.7613,48.3626,-16.7929,-8.7069,-29.0230,-11.3842,-66.6477,158.1451,-16.5022,-127.0715,34.8322,-14.1910
-4.4762,-5.8308,18.6813,4.5939,-4.5864,-15.1645,32.8533,61.1112,17.4219,42.9775,5.8453,32.3665,-70.1815,-19.4822,50.6737,-25.7980,-53.3407,104.0218,15.7046
-18.5344,36.1815,-10.0340,57.5908,-51.3238,-27.5115,-80.1020,77.8659,-76.5377,-22.6862,5.8859,89.1243,-127.3848,-18.5294,-108.7442,-32.3205,-51.9929,107.2816,-24.1503
-17.3731,40.9634,-15.3611,79.3251,-70.2642,-58.5822,-125.5936,38.9512,-119.5057,-94.2701,23.4018,114.0313,-119.8072,-9.1449,-111.9174,45.8388,-71.8954,101.4449,-106.6541
20.0647,35.6940,43.6882,107.0667,-39.8709,-24.4898,-83.0749,39.4441,-77.8679,-44.9721,50.9132,113.3053,-56.0664,28.7372,-0.5938,112.9168,-51.5667,129.5576,-133.7864
11.2666,5.8374,19.5462,24.8265,-82.7995,-58.1772,-121.4555,-9.1737,-101.4013,-20.9177,38.1938,85.4389,-68.9683,-8.2333,-40.9956,56.6571,-87.5840,67.8421,-158.2560
-86.1642,-50.5213,-175.4341,-179.3602,-276.8841,-212.4393,-333.0725,-184.4412,-283.4851,-158.4708,-14.1943,82.9660,-245.5287,-133.3095,-256.4904,-63.7208,-262.9574,-89.9051,-333.3380
-214.6808,-100.4395,-422.6078,-343.9168,-528.2676,-352.3008,-536.6732,-379.9587,-467.0156,-325.8497,-74.1659,109.0907,-475.7468,-246.9564,-404.7618,-178.0725,-464.5514,-202.3990,-542.9480
-295.0748,-151.9249,-555.1398,-451.2965,-670.6689,-425.0441,-525.5173,-490.3664,-470.2924,-387.0836,-133.9881,45.7535,-574.4792,-322.4801,-391.5308,-289.3133,-536.6152,-295.6983,-522.4592
-277.8032,-203.5550,-509.3650,-548.5628,-614.6033,-463.3929,-360.3876,-519.4713,-337.2433,-377.7793,-166.2924,-113.1334,-488.1197,-365.7910,-313.2877,-335.9926,-451.7548,-440.5966,-333.0693
-163.5922,-191.2811,-320.4662,-501.2268,-418.9362,-427.2119,-215.0911,-464.3600,-201.0807,-303.4375,-128.3344,-202.3359,-295.6165,-325.3613,-209.0413,-251.8668,-262.1396,-484.5797,-214.2664
-18.6051,-108.1472,-82.4099,-259.1347,-225.9673,-302.1464,-119.0609,-315.4414,-95.5086,-123.7098,-46.1477,-171.1068,-94.0194,-205.2289,-89.0633,-110.5963,-45.6077,-322.8212,-147.9561
82.8760,-30.2948,101.2703,-27.6195,-96.4801,-161.3712,-33.5720,-135.0802,-17.9669,67.9527,13.6601,-120.8590,47.9178,-88.4429,-35.3225,-11.7804,113.7653,-113.8188,-20.3914
132.6424,23.2423,196.6032,95.5098,21.4796,-30.8064,34.6951,16.5998,27.1801,162.5256,39.9141,-82.6502,121.8805,-0.5366,-50.8710,45.5649,211.8835,22.3451,107.2748
169.2220,92.6376,256.4327,238.2421,149.3296,125.9936,104.7891,151.6521,89.0958,216.5242,61.8508,-28.9345,193.4857,99.5277,-8.4141,95.2074,324.8484,137.9430,181.7562
216.6476,171.0491,334.1597,438.5346,242.2022,310.0791,189.1470,281.5025,182.9063,305.1569,89.7463,21.3150,294.6024,227.8938,107.0707,162.4675,471.5579,241.8053,246.9216
263.2709,225.5276,412.2786,591.5005,291.4760,470.9530,210.5444,385.9879,213.2406,386.6514,115.7980,63.3903,351.1086,353.4511,128.3019,266.0172,576.0332,292.8244,292.9921
275.9950,253.4934,440.4147,649.3201,320.8630,543.5818,149.1901,460.8359,152.2932,400.7996,126.7624,113.3847,310.3981,418.5920,5.0753,345.8818,583.6906,316.6994,307.2638
243.2035,255.0138,413.8645,623.8388,316.9802,509.8179,117.6469,488.9626,113.6638,325.6540,115.8263,142.5929,231.7014,393.3398,-79.3650,307.8931,519.1277,320.1899,325.8725
202.6966,219.0038,376.6623,513.4694,274.3503,427.7398,145.8260,423.6491,127.0146,179.9389,100.9325,127.4589,173.8036,324.5738,-35.2518,203.9804,425.5727,260.1997,312.6187
186.1525,150.7664,351.1664,344.3211,237.6534,353.1728,141.1719,294.5151,98.3179,62.8065,97.3196,91.2751,127.3284,271.9530,-8.3315,177.2073,317.3965,167.4281,236.4623
151.5685,73.5446,284.5080,171.0107,214.9091,295.3284,101.5335,210.9703,36.5730,54.0652,80.8405,60.7151,76.6255,228.5586,-53.3814,199.6454,181.4880,118.8969,179.6895
35.7289,7.6538,92.2877,7.8073,139.1727,250.9078,78.7675,187.8909,22.5692,87.7786,22.5235,55.8325,8.5783,156.6092,-44.7836,109.3537,-4.3406,105.8774,147.5116
-134.4899,-47.7137,-203.0268,-164.1202,-1.3976,175.6007,29.2691,130.3983,14.9570,72.3693,-60.7088,68.1837,-81.2342,42.4514,5.7321,-74.7184,-219.0248,66.2148,47.1982
-244.8266,-98.8509,-411.6389,-309.7898,-80.0846,25.2943,-32.5578,29.8078,-25.1721,18.9719,-116.2508,41.9514,-119.6363,-82.1600,-8.1520,-155.9604,-358.6368,6.0316,-50.7513
-217.6382,-116.9524,-363.5375,-330.7924,17.5070,-95.2320,31.7084,-11.7132,6.3325,-35.0965,-104.0071,-24.5165,-24.8933,-134.9798,11.7845,-92.6964,-321.4535,-1.3245,-3.5671
-101.0904,-74.8781,-141.4013,-209.2040,208.9901,-47.1088,198.3832,41.8715,132.3337,-56.3194,-42.1304,-49.8723,128.7192,-73.8188,149.2329,-30.0723,-153.9547,65.7484,117.9535
-6.9094,-15.8624,20.7092,-74.5784,306.4903,86.5888,259.2931,121.9621,194.3826,4.3846,3.6499,-21.1973,183.6714,19.1346,209.8496,-14.1728,-9.3342,126.7568,168.5087
25.1372,3.9867,51.0199,-21.2464,269.5482,137.1531,188.8456,165.9102,143.6715,108.0707,5.3203,-13.1737,130.6747,55.8219,110.6982,36.3727,53.2925,116.6245,160.1464
38.0617,-6.8672,63.0376,0.8195,217.5516,116.3733,168.4874,166.7419,125.9425,150.8022,2.1970,-41.1832,96.5435,62.8616,97.7372,128.5146,81.3326,76.3438,151.7765
46.3532,-25.8661,99.4202,23.2078,205.2335,98.8839,231.0218,157.4565,191.4631,147.9050,13.8080,-61.9680,125.8545,75.4683,248.6745,186.5600,72.1661,51.3653,143.2329
20.6003,-53.6575,84.9622,-5.5882,168.3871,61.6497,236.2465,162.0967,222.9788,177.4612,6.0905,-73.5098,138.8639,55.5814,304.6023,164.6694,3.4259,11.6284,143.4560
-19.3382,-74.5212,18.6536,-72.0272,94.3833,4.1366,169.1971,144.0345,177.2973,209.6754,-28.3430,-100.3449,99.0163,-1.0034,179.4889,79.4213,-41.8432,-49.7646,169.2214
-17.2106,-72.5379,-8.1583,-90.9624,58.1160,-10.5456,150.8202,69.2862,140.3298,205.1241,-50.3536,-143.1401,68.8489,-30.0563,88.8814,11.1330,16.7892,-74.4645,204.5998
16.7023,-60.0933,17.6038,-38.0619,76.6631,14.5837,186.8182,-13.8923,144.3551,209.5430,-46.2721,-174.7269,72.6388,-10.1379,123.1549,22.8759,110.5420,-47.2809,217.0955
28.8278,-41.1947,24.2970,40.3539,97.4544,28.2464,170.9244,-56.3789,128.5736,226.6763,-37.3064,-160.0697,61.5241,16.3076,148.5924,58.9018,141.6730,-7.2007,180.7459
23.3467,-16.3148,8.4678,89.8568,123.1378,37.9800,119.7699,-61.3527,83.0802,222.8842,-28.7480,-112.0410,47.5566,30.0385,103.3266,62.6333,128.4176,55.2668,140.1527
38.7030,-4.1517,35.4343,97.2850,186.0805,81.6154,153.3197,-0.3415,80.0296,244.0941,-13.0646,-83.9725,85.4779,52.1572,70.1351,83.9281,132.5102,169.2285,194.7967
67.8200,5.0102,102.6090,115.2825,231.6992,144.8128,237.7338,138.2568,129.9993,313.1573,2.0139,-72.7591,122.6957,83.8430,83.3473,124.0177,163.7904,271.1624,306.0119
83.7059,32.2169,144.4630,162.5966,187.8544,160.2378,215.7412,241.8038,138.0254,344.6342,9.6273,-40.2159,78.5668,90.2518,65.3324,114.7336,189.3821,270.1476,308.1603
94.9088,48.5605,154.7355,164.7109,100.5528,97.7605,100.2905,223.9567,64.3272,293.2852,20.7711,-7.2156,6.8957,56.3359,-19.1053,88.7820,180.5899,211.9255,197.1932
115.7423,42.4377,171.6311,115.2383,56.2745,34.2738,49.0847,158.9532,-5.4041,205.8149,40.4556,4.1629,-19.2472,19.4712,-80.9823,87.2130,163.6804,217.5294,121.2876
128.0976,55.6335,176.8710,109.9194,44.2371,46.3001,73.7135,115.5214,-17.6478,119.3372,51.4896,20.7752,-36.3759,15.8372,-63.8568,53.8777,186.4623,269.5681,101.4494
114.6933,78.5705,141.1045,144.7751,18.5201,76.8641,66.4497,70.7818,-22.0331,54.5762,43.4546,34.6396,-61.6149,29.8392,-43.6892,17.7372,215.9062,252.9249,70.4089
85.5821,68.4430,101.5578,142.2516,-4.3239,46.8338,31.7368,33.6478,-37.3758,11.0554,32.6735,24.7792,-49.1740,30.1965,-58.8835,46.1092,181.3420,178.6250,49.8008
50.0349,56.7372,78.5989,126.7703,-3.7023,-0.4661,31.3298,15.6699,-24.2682,-72.1799,31.8959,34.5261,-17.4749,16.4390,-29.6246,32.5301,104.2478,140.9724,43.4127
12.8428,68.5764,37.4669,121.0791,-1.1676,-8.3393,32.9291,-43.6930,-2.2028,-207.3197,34.3352,75.4642,0.1908,6.1952,51.7579,-70.3194,42.8149,120.2992,-19.9703
1.6674,54.6374,10.6626,67.7253,-2.6773,-14.4470,-1.6937,-139.1349,-21.9518,-297.7029,43.6830,85.4524,43.2099,8.4399,80.0811,-88.6754,-8.5869,57.6621,-115.3413
35.1395,19.0785,71.6838,3.9212,6.1928,-46.5775,-29.7778,-162.9202,-53.9583,-303.0446,68.9358,62.6792,100.9966,16.1097,36.6184,2.4023,-42.6781,1.8059,-138.4313
68.9527,18.0804,154.4616,12.9232,12.3346,-65.8289,-22.4768,-97.7567,-46.6662,-283.6383,84.8309,56.4391,93.8638,16.5684,4.1665,33.4835,-28.8498,-8.3402,-91.5583
47.8649,22.3964,128.4084,23.1112,-6.0251,-53.3559,-22.9542,-46.8559,-33.9896,-256.7892,64.3009,56.1214,37.4909,14.4062,-5.7795,18.0104,-28.2549,-30.4338,-63.3446
-0.9485,-11.6497,33.8682,-33.5419,-45.1609,-30.8554,-77.9867,-68.1327,-76.9372,-199.6167,34.8233,46.7557,8.2171,27.3440,-55.7849,59.0289,-101.4200,-78.2143,-88.5955
-9.8084,-40.3957,6.3987,-57.1999,-83.1071,-5.3160,-154.2151,-111.5906,-146.5588,-106.7097,29.3642,43.1932,-2.3443,56.8585,-137.8533,111.2273,-154.8934,-89.8200,-112.4898
17.9038,-39.7505,41.5868,-1.1097,-89.1495,30.3555,-147.9862,-87.1598,-143.8601,39.8455,25.5018,16.8295,-19.9051,83.7325,-153.7594,152.4640,-95.9383,-56.8800,-57.4697
25.1727,-39.9798,44.6386,32.5209,-63.5199,55.0642,-47.6969,9.3851,-50.0327,183.6657,1.4820,-36.5880,-19.3527,79.0736,-67.4543,177.8737,-8.8828,-30.1644,43.2057
1.5887,-33.4061,3.7668,8.7112,-68.9740,27.7638,-15.0722,43.2785,0.9754,176.7408,-14.3554,-38.0471,-19.3099,31.4110,-6.8923,93.5851,-7.0219,-32.6635,38.3293
-18.0578,-15.5532,-42.0091,-0.3748,-135.5500,-30.2831,-136.8452,-49.8582,-100.6789,53.8753,-4.0322,22.3572,-70.3249,-2.2311,-92.2836,26.4066,-67.0422,-34.7378,-97.2931
-28.9365,-21.9103,-91.9474,41.3543,-188.0908,-20.0819,-243.7199,-105.0863,-241.7887,44.1662,2.6612,58.4043,-146.2641,51.4669,-210.9306,226.2581,-107.5573,17.2637,-179.5070
-44.9956,-25.2187,-132.4111,110.4443,-168.9956,80.7356,-187.9189,-7.8040,-233.1383,155.1232,-11.6278,62.0632,-179.7270,134.3101,-180.0603,430.8999,-86.3879,115.5633,-113.5984
-36.1621,30.5134,-94.4599,149.9029,-111.8309,147.6256,-69.7900,84.3841,-89.7470,154.4766,-16.7752,82.5126,-145.3682,111.3626,-50.0125,177.0471,-1.9596,160.1591,-26.4914
29.7416,93.5682,42.4239,117.1150,-26.9733,111.1341,-0.3465,40.5454,31.2495,16.2204,12.3946,90.3489,-59.0774,9.1108,29.9087,-275.7227,99.8814,118.8800,-7.7987
100.8142,82.5687,163.5220,74.7729,100.4077,73.7855,68.2899,-14.4602,71.6551,-49.3967,51.0192,50.6372,32.0029,-4.4725,83.3264,-270.3860,148.8938,103.0634,0.4285
96.4089,20.8423,145.1423,97.0419,192.5158,115.1677,148.9115,49.7915,74.1225,44.5161,56.4206,7.5092,75.9859,102.0856,163.0409,190.0385,116.8904,159.0861,35.7854
32.1603,-18.9069,42.0235,113.0567,174.2960,170.5679,153.9027,172.8436,72.4737,191.5258,25.4872,2.5475,71.4359,171.9513,173.4429,451.4581,38.7128,177.7443,75.8527
-13.7852,-1.4016,2.9357,46.3012,117.9743,164.2552,78.9653,230.5360,92.6449,245.3963,-9.0821,27.8548,49.4805,97.2078,69.9327,107.9693,-20.4212,94.7784,116.1782
-32.0538,49.1036,22.0818,-30.1138,101.8055,90.2709,17.6723,169.6536,130.7055,123.6401,-31.7528,48.1259,22.5809,-46.6105,-28.8882,-472.6839,-28.1837,-30.1139,146.9877
-66.1725,57.4007,-20.2164,-50.0982,81.0716,-19.2355,9.4600,50.5539,122.1048,-76.4318,-52.7657,17.5450,2.3148,-118.6334,-61.7995,-598.0849,-25.6042,-128.0658,153.0696
-106.7283,-0.1865,-109.1653,-54.2390,37.5452,-90.9479,24.6040,10.9507,56.7928,-136.7360,-70.8731,-50.1521,8.1513,-85.2916,-92.8097,-212.8674,-55.3869,-153.8026,170.3099
-112.6863,-40.2170,-132.5605,-62.3119,40.0938,-66.5514,40.4573,92.4553,29.4065,-22.0105,-74.6219,-75.7196,31.3403,-33.0885,-127.6667,54.6423,-79.4128,-106.7397,216.8290
-87.5122,-19.7576,-95.0965,-62.1282,83.7835,-2.1626,44.1197,169.8840,66.6819,81.6038,-68.0983,-51.7446,43.9227,-26.8329,-115.0857,-38.5055,-49.5634,-78.7558,220.4173
-48.6358,1.0449,-63.9039,-70.3516,89.4112,11.9036,17.4689,146.8807,67.0177,79.6764,-56.3257,-47.0982,33.4330,-38.9732,-101.5743,-98.9080,16.4438,-116.0278,139.8581
10.9540,11.9108,-19.2311,-58.3600,60.4202,-5.1782,-29.0134,77.4293,-3.4655,52.0776,-31.6216,-56.4935,10.0687,-36.5376,-154.3734,-16.0669,101.8184,-111.0979,55.1564
72.6855,57.0153,55.4835,24.1713,51.5803,3.4800,-49.7615,30.2916,-41.9181,40.1445,-0.6690,-31.6423,-3.2764,-31.4172,-186.2465,-56.1178,200.1920,-25.0162,26.5583
88.3209,96.7359,91.0262,109.9282,41.8465,-0.8065,-39.0736,-10.6394,-4.5541,-2.9634,14.0176,-3.0189,-6.8258,-37.9091,-92.6784,-167.3676,242.5615,-5.9865,-12.7196
63.4181,82.0927,64.0302,101.4530,-15.9825,-69.1868,-64.4404,-67.8811,8.1991,-82.9287,14.8134,1.7242,-29.9963,-62.9787,7.2797,-164.2659,184.3864,-93.7054,-119.3561
51.8263,65.8458,43.8204,42.0575,-92.5999,-129.4370,-146.1021,-100.2129,-63.4877,-145.1451,25.7694,33.7217,-68.5285,-94.9630,-49.2737,-162.0136,101.5925,-109.9141,-216.5764
53.7139,79.5601,51.2117,18.7565,-125.9481,-84.0126,-186.0125,-64.4061,-124.5977,-168.0729,43.4892,101.7306,-88.5110,-82.1031,-143.5081,-212.1818,51.1767,-10.8898,-220.9953
24.6206,68.7557,33.3182,16.6762,-119.8303,13.0710,-140.0171,-6.5753,-97.5837,-184.5068,40.8379,134.9686,-107.3782,-14.5774,-83.5692,-159.2594,-13.1601,10.4519,-187.6442
-22.2132,26.5897,-18.7101,-7.8597,-139.3052,39.3776,-129.3642,-3.0393,-74.8870,-197.8949,19.5944,119.1700,-158.0423,30.3812,0.6151,-37.4712,-95.1784,-97.6529,-210.2650
-41.0477,10.1045,-69.3827,-37.4180,-208.8114,12.4083,-233.7732,-26.4166,-155.3776,-162.6107,7.0780,119.2301,-202.3811,22.7268,-106.3416,10.1726,-135.3251,-152.6535,-271.9690
-58.2104,19.6600,-130.6776,-42.4065,-270.9930,22.7669,-348.6770,-15.0272,-254.0937,-88.8322,0.4774,153.3916,-202.3413,22.3611,-269.3023,16.0126,-159.8308,-110.0734,-308.5486
-120.9554,9.5248,-230.4945,-33.7999,-290.8534,35.8855,-379.6920,-22.4463,-256.6037,-53.4318,-25.6809,165.6739,-194.7228,35.3166,-252.7477,25.8285,-229.6498,-127.2500,-327.9811
-181.6189,-19.5877,-318.4732,-36.0539,-315.4410,-13.3253,-372.5780,-101.5069,-223.7552,-68.3883,-56.6069,133.9388,-206.0600,17.4995,-149.6953,25.0499,-291.9355,-206.1233,-359.0380
-166.5137,-29.6452,-314.2946,-41.9251,-358.0373,-44.6002,-359.1190,-159.6664,-243.1005,-81.5170,-51.5177,110.2316,-203.5145,2.5006,-144.0451,53.5170,-267.0844,-176.2059,-365.2893
-101.1499,-10.1996,-229.5973,-30.2365,-349.0548,17.3812,-296.6357,-131.7616,-253.2127,-92.3678,-17.0937,120.6822,-165.2206,33.4888,-167.8471,90.7725,-182.2626,-46.1284,-311.2994
-57.1140,6.7171,-155.1113,-23.5099,-274.3221,75.8199,-221.8181,-106.9702,-212.6839,-113.4202,4.3186,121.2331,-115.9095,59.3610,-138.7753,68.9022,-120.4950,6.5089,-252.7036
-54.3202,-2.2590,-147.9279,-47.7907,-205.0398,44.4024,-242.7133,-130.7171,-214.9158,-100.0692,4.2312,107.7477,-94.3256,42.2387,-158.9747,53.0517,-136.1422,-29.5989,-266.1920
-76.6987,-10.3707,-183.8923,-50.8713,-152.9238,4.3817,-315.3148,-118.1144,-257.9164,-33.7537,2.5557,133.0713,-95.3640,28.5637,-214.7688,84.9184,-207.6007,-6.0831,-314.6958
-88.7944,3.8934,-187.2970,3.4064,-70.8214,28.9891,-249.2924,-51.7275,-185.5007,38.2451,4.6188,157.6052,-53.6816,37.1329,-104.8534,66.8196,-216.7913,92.9276,-282.1060
-37.4913,7.2346,-95.5904,23.7477,15.1073,43.8815,-35.4212,-38.4255,-8.2908,63.1001,11.8947,82.8613,39.6586,19.7711,129.4001,-5.5173,-87.0025,131.1318,-162.8284
62.8495,-16.5352,51.1762,-58.5903,42.8118,-35.9811,73.3592,-131.8224,47.5941,4.2931,30.9179,-37.4003,71.2950,-47.6169,168.4349,-62.6401,59.6355,54.1738,-96.9155
110.4620,-29.2244,119.2874,-155.1164,33.1147,-173.9064,-38.2416,-247.4389,-66.4965,-110.6182,46.9264,-64.1439,-2.5042,-134.8139,-26.4719,-140.5545,61.3960,-39.6749,-159.3212
58.7106,-24.7021,41.2530,-188.3663,34.0209,-274.5221,-154.7915,-273.7342,-136.9815,-178.8800,34.8527,-20.1085,-54.2913,-200.1929,-123.0874,-210.1838,-38.2214,-70.9533,-254.5488
-32.3061,-39.8229,-111.0050,-210.6997,13.8029,-302.8682,-130.2975,-218.1741,-84.2764,-185.8796,-4.4546,-18.4664,-31.8680,-222.9598,-20.7490,-155.9571,-109.4024,-101.0783,-288.1324
-110.3943,-66.9823,-245.3904,-253.3977,-79.4438,-300.5367,-121.8497,-198.7368,-73.5324,-233.9323,-49.2534,-44.8241,-54.8082,-217.6590,5.1130,-66.0510,-155.0751,-198.2861,-288.1270
-166.1734,-71.5221,-327.2852,-267.3556,-203.8262,-307.7948,-224.8635,-262.0769,-167.2630,-321.8872,-78.4107,-29.6972,-155.2766,-215.0562,-133.6799,-101.7191,-220.7723,-281.8271,-302.1255
-185.0533,-57.3350,-349.0640,-241.6438,-269.9245,-315.5603,-290.7767,-311.8756,-227.5176,-355.2460,-82.4628,6.9244,-225.0533,-223.1165,-205.7437,-190.1169,-258.0452,-257.6873,-320.4010
-169.6371,-30.1774,-330.7358,-194.7281,-275.2828,-295.3400,-254.0360,-281.3950,-199.7776,-351.9169,-72.6619,30.5997,-232.2838,-223.4791,-148.6536,-221.6862,-213.6100,-182.4519,-321.8348
-139.8824,21.3589,-296.0078,-106.5769,-278.6194,-228.7493,-219.8245,-225.7187,-173.0000,-352.7781,-59.6627,57.2630,-206.6444,-191.2029,-129.4519,-235.8611,-111.0073,-117.1823,-293.8904
-85.0579,72.4287,-218.4520,5.9985,-256.5034,-124.6908,-201.3959,-198.0786,-168.4006,-305.8914,-29.8749,84.3340,-120.9715,-119.2854,-151.4918,-229.3842,-1.7499,-25.6379,-240.0936
-21.5006,81.2411,-113.5718,62.8351,-152.8739,-47.0707,-144.1393,-196.2899,-137.9419,-242.4090,9.1465,83.6101,-13.4081,-48.3091,-102.4253,-157.5482,55.5721,50.6656,-197.3029
-28.1134,53.9884,-102.0275,43.0489,-44.5117,-54.1233,-95.5629,-212.5486,-106.0075,-255.6575,4.2850,53.4676,-14.0071,-33.8781,-53.5592,-95.1112,24.7662,18.3909,-163.1301
-101.0415,26.5015,-200.4117,7.9751,-34.8687,-89.8377,-81.6825,-207.0458,-106.1613,-257.8417,-52.4003,9.8230,-101.9274,-63.2667,-112.2179,-105.8774,-27.1132,-32.9520,-64.2941
-120.5426,14.4112,-235.3019,-8.0865,-55.3179,-58.1499,-40.1349,-120.5265,-93.6511,-118.1050,-86.2194,-29.4903,-100.4597,-69.4879,-195.9117,-115.1824,-4.7476,25.7733,91.6895
-55.5194,13.9723,-136.7154,-11.4395,-7.7876,19.4663,10.1463,20.9878,-46.2305,69.8550,-58.7082,-42.4638,31.1386,-29.3825,-206.3777,-49.5323,60.4165,96.4240,176.4896
-2.1298,20.7838,-39.4262,14.4219,55.7598,67.0409,14.6199,132.8975,-0.2978,159.4154,-20.4329,-32.4402,166.3624,25.3379,-170.5987,63.8558,92.0857,68.3106,165.2384
10.9702,32.0755,1.4434,72.6473,94.4995,87.6970,42.7077,189.7002,44.1566,168.2695,-5.2709,-29.3096,240.5802,66.0822,-116.8480,148.6386,114.7071,50.6093,184.8661
38.0456,35.9626,58.0282,91.8506,164.0644,96.6050,132.4327,207.1276,93.7325,157.9120,9.9097,-40.3379,278.3846,72.8296,-52.8192,158.6847,149.9387,121.8593,250.8613
69.5575,15.3345,105.8876,16.6059,228.1181,62.3996,168.5004,182.3055,99.6774,140.5436,28.6225,-47.0731,269.6737,36.0787,-22.2780,127.9264,131.8440,166.8381,229.6001
65.1293,-12.7614,85.6838,-66.8020,187.3927,12.0022,104.6404,126.6101,55.7116,127.0408,29.7551,-39.4192,197.7477,-5.4642,-25.5973,97.3704,64.2093,121.2174,113.9378
52.2065,-5.9333,67.5542,-37.3855,85.9037,17.0437,40.4528,74.4548,22.1307,102.6093,24.1475,-16.1480,106.2441,0.9095,-20.2129,49.2922,43.4356,69.6130,42.4248
56.4275,19.9565,97.8131,45.5779,15.9838,48.3471,14.7175,44.8369,1.5966,43.7786,30.8532,13.6694,41.1369,37.5411,-24.9081,18.7365,56.4182,56.7281,42.1893
47.7361,5.5470,94.8856,26.2190,-34.4388,34.2310,-6.8654,46.2606,-32.0541,-5.5597,35.6904,24.1273,13.3964,46.1808,-51.3513,80.3246,11.6308,40.6597,25.6281
17.3500,-35.1898,33.6821,-74.8621,-71.1889,6.8991,-14.6545,71.3489,-41.3685,-6.3824,25.2967,13.2935,22.2437,25.5761,-44.2672,154.6588,-60.7549,4.7473,-18.5152
-7.6922,-35.7392,-15.4315,-106.7829,-71.2090,9.8698,-32.4016,76.9546,-31.7296,-6.1755,13.8664,23.3455,30.9211,10.7910,-29.0508,110.8566,-86.7110,-24.5298,-58.5321
-20.3843,-0.3055,-33.5204,-57.0804,-84.9252,-7.2396,-115.7925,45.2811,-73.9304,-45.9768,14.2136,69.4117,-6.1324,-2.7041,-86.5423,14.4406,-95.2466,-33.5767,-117.0959
-21.9455,17.1205,-33.8587,-28.4579,-122.9934,-54.2476,-186.6881,24.3589,-121.0263,-89.5498,21.5472,99.3627,-44.6356,-22.5578,-136.5138,-7.6187,-108.8124,-44.7795,-177.8033
-11.4910,9.4344,-12.4935,-33.3979,-101.3794,-52.5587,-146.5780,33.7081,-77.1617,-92.3872,25.3151,78.6928,-14.0867,-16.0862,-67.5944,23.3737,-91.3664,-80.3006,-175.6771
-18.2809,-2.0529,-19.4474,-24.7096,-52.4206,-16.3228,-99.2651,17.1616,-27.3408,-60.1419,16.6930,49.4327,33.9793,12.5441,4.2384,44.5737,-81.4699,-110.9509,-143.4002
-56.4432,-13.7682,-86.5954,-14.6283,-91.4386,-47.6177,-153.1444,-39.2145,-74.3242,-25.0147,-1.4618,48.8697,15.9785,0.9238,-44.6484,38.7195,-132.2057,-97.9524,-154.2029
-68.1011,-18.7416,-107.9900,-21.5693,-153.1555,-116.7491,-193.7079,-51.6667,-110.4994,6.5942,-9.3214,48.4424,-23.3521,-49.7554,-98.7144,-6.0752,-156.4972,-66.7507,-159.6854
