Fp1,Fp2,F3,F4,C3,C4,P3,P4,O1,O2,F7,F8,T7,T8,P7,P8,Fz,Cz,Pz
-21.0116,44.3678,-16.3089,46.8924,46.0675,67.3240,95.1051,121.9514,40.3235,79.1763,-25.0838,40.9500,43.4429,28.8301,19.1271,38.2457,77.6282,50.7409,17.9744
70.6512,131.6401,145.4123,104.0421,-14.8697,-81.7786,-102.5725,-287.1835,-96.6438,-327.1247,62.7892,108.3772,11.5693,-51.1831,-21.5045,-139.7112,237.1835,82.6704,-91.5592
136.9196,167.8718,172.5112,126.6405,-30.4580,-168.4482,-203.5069,-382.5298,-161.5730,-375.2605,135.1148,134.3633,7.4962,-60.3615,-52.0979,-165.6288,153.1952,31.6642,-131.4796
152.4739,157.9991,89.5223,98.7802,-0.3817,-151.2195,-148.4296,-221.6992,-141.0147,-208.1339,156.5341,117.7276,38.1829,-24.4117,-23.3394,-88.8800,37.9203,2.9240,-120.9326
129.3725,132.4469,82.6470,75.1179,-14.9370,-137.1545,-128.2324,-224.6609,-147.4716,-219.4177,133.1081,96.3600,16.7734,-23.1945,-2.4244,-88.8379,53.2953,9.6137,-140.1820
109.4366,114.0306,118.5174,82.8980,-62.9747,-133.1899,-169.8088,-306.9695,-172.2863,-280.1125,111.4736,90.4794,-43.4460,-39.8647,-48.3020,-121.4911,60.4665,0.9796,-131.1194
125.5493,133.2977,89.9965,105.3898,-72.0959,-72.0128,-146.3802,-239.7797,-142.7240,-212.2227,123.6964,110.7570,-59.2206,-34.4596,-98.7909,-99.9332,55.8590,28.9782,-42.1678
146.1458,176.0868,63.8501,128.4724,-54.5009,1.8425,-92.8453,-178.9348,-96.1917,-168.0764,137.5292,145.9943,-47.8813,-22.1076,-95.4176,-83.6725,149.7637,123.0378,24.5514
154.0567,192.4833,97.3312,140.6594,-39.9567,33.8730,-87.9179,-195.1744,-82.9228,-155.9743,143.0308,161.4339,-50.1571,-2.3398,-69.4765,-81.7691,250.3678,207.8042,13.7511
192.2952,185.0958,128.1002,138.9166,-10.3621,88.6969,-72.2551,-113.5032,-77.1787,-47.2444,183.0938,154.9650,-33.9268,49.2675,-48.1545,-29.5113,276.8535,260.3747,11.5464
223.5146,177.1331,125.6581,143.5984,11.5472,193.7870,-48.0259,12.1335,-76.5650,39.4627,214.1669,151.3250,-4.9244,113.6521,-25.3070,31.1205,299.6317,295.8669,35.8031
163.1412,152.0247,107.3492,159.4344,-29.1489,247.7122,-115.2998,7.6433,-89.3979,-8.8847,153.8833,146.6201,-25.1854,149.0078,-13.3687,32.6278,300.1941,255.5640,16.2145
99.6442,126.6317,87.0504,157.6485,-107.5471,190.2440,-220.3618,-59.6261,-60.0563,-70.2246,91.2536,136.8590,-83.9294,142.1084,-10.5311,10.0595,241.3651,133.6428,-20.3274
165.2907,158.5397,98.1641,126.4731,-147.4543,85.0144,-230.7319,-99.9676,11.3188,-96.6415,153.6125,144.5491,-106.3097,101.6366,10.7075,-3.8094,211.8892,33.8618,-24.7006
260.4228,223.1612,131.2905,90.9017,-132.2338,-1.9258,-192.1597,-164.7926,18.3050,-166.7179,247.1032,161.9852,-69.0424,48.7715,36.1625,-28.9266,206.7772,-20.6987,-68.1850
242.7041,237.1132,128.1864,77.9720,-104.8214,-66.6790,-200.2267,-236.2332,-49.2305,-246.6412,234.2808,158.1254,-23.4925,9.6260,38.3365,-59.1012,147.8356,-97.9319,-164.6569
185.6449,202.3480,109.9144,91.9407,-95.3672,-116.0217,-200.8834,-243.8675,-63.7076,-259.0504,176.7730,146.7401,-25.4158,-10.5163,39.1012,-73.4984,118.4537,-177.7083,-172.6010
189.3064,180.6231,120.8182,106.3388,-92.9307,-138.6337,-137.2016,-209.6346,8.2612,-219.7294,172.6558,148.8204,-56.1651,-23.1174,47.4385,-74.3331,155.9387,-180.7126,-62.0164
223.1637,169.9556,112.4047,81.9302,-73.5241,-127.6660,-63.9591,-174.3660,65.2597,-173.9590,207.8057,132.5769,-46.0439,-35.6386,37.5477,-65.0411,119.3479,-107.6783,12.8631
257.9594,129.1665,78.6082,18.8011,-29.7699,-108.3013,-9.6702,-161.0358,71.1734,-161.3213,251.3034,77.0373,9.3211,-58.7350,32.0285,-59.6649,30.9155,-28.7558,4.2733
267.2690,73.7779,99.0951,-35.2722,31.3694,-122.5181,53.2101,-205.3266,77.6179,-199.7534,259.5395,24.5022,53.7584,-102.3430,60.8813,-82.8560,52.1202,-6.5222,11.7681
189.1149,51.5991,152.4663,-48.1830,87.0801,-166.5551,96.6771,-283.1105,86.1247,-249.5515,174.9756,11.6638,75.4398,-148.1960,75.2564,-123.3474,120.2727,-37.0861,44.0464
85.9049,54.3973,165.8982,-36.9470,96.0332,-187.6420,79.0133,-326.6366,68.3500,-275.3860,73.0546,17.8767,76.8442,-158.4311,49.4200,-146.0021,114.6307,-45.8486,44.2671
97.8484,33.4113,185.8249,-29.4419,46.7314,-173.6428,28.1363,-331.1124,48.1901,-283.5878,87.3495,10.4361,28.3525,-126.4934,39.7248,-143.9692,124.2998,-2.7356,40.0208
178.5028,-8.0996,239.5594,-31.0275,-18.4658,-173.7663,-31.5875,-330.1401,39.1735,-290.3238,165.2454,-10.2562,-42.0986,-99.7160,40.1080,-140.3190,191.2788,20.2000,41.9235
184.5325,-21.5082,235.0103,-36.6059,-70.4781,-204.9042,-112.8328,-347.9465,7.9243,-336.5743,171.5744,-24.8965,-66.6366,-120.8042,-8.2245,-158.8488,196.4603,-21.9412,-13.6100
135.0226,-10.1959,158.3659,-47.0516,-114.0936,-225.9619,-184.8135,-399.5784,-35.9415,-424.2280,126.0979,-28.0096,-66.9798,-155.6923,-42.1954,-188.6682,131.4065,-89.9449,-105.8784
104.8006,-20.5003,100.9276,-56.8429,-129.9084,-218.2686,-203.2413,-437.1106,-44.9346,-442.9621,96.8633,-29.5448,-87.9259,-142.4871,19.3130,-184.5988,78.1552,-162.9875,-140.6759
63.1749,-44.4871,71.3033,-51.1907,-105.5402,-209.7190,-200.5051,-389.6067,-37.1831,-349.0726,56.0696,-32.0653,-90.7824,-103.1304,71.1585,-142.8316,15.5582,-246.3236,-121.6462
-0.3164,-44.1242,25.9288,-45.2757,-89.9393,-217.9123,-216.6871,-296.9327,-52.9922,-264.2172,-3.5080,-35.2863,-61.0548,-105.1074,5.2804,-115.4249,-74.0622,-304.3666,-108.3522
-25.8642,-43.0521,-13.3583,-83.7651,-104.1007,-225.0636,-211.0670,-244.4469,-49.2226,-239.6237,-26.4900,-56.4230,-49.9121,-134.8200,-65.0158,-111.6366,-133.6720,-298.3656,-84.6669
-23.6665,-84.4437,-25.7660,-161.0068,-92.7419,-209.7599,-145.8777,-225.0728,23.3495,-201.0010,-23.0567,-104.7057,-49.9580,-136.0475,-24.1616,-96.3110,-164.6525,-235.8897,-15.6851
-61.1559,-143.0577,-38.0516,-208.6376,-49.2904,-182.9103,-68.3984,-206.6323,111.3088,-156.4182,-57.9607,-149.8826,-28.9097,-125.7587,33.3790,-81.5363,-201.8942,-166.4094,60.7701
-130.6656,-164.9215,-70.1932,-196.9743,-50.4135,-181.2782,-50.9111,-203.5771,132.4521,-157.8302,-126.8442,-157.6613,-35.0963,-143.5031,11.0387,-93.0704,-223.7855,-166.1081,71.0485
-169.1589,-148.2098,-127.6338,-163.9239,-122.3588,-215.0638,-121.3675,-220.4576,68.5721,-178.0413,-166.1605,-136.0118,-100.8918,-162.3612,-36.8052,-108.5081,-232.3594,-247.0565,-11.9204
-165.4486,-134.2239,-186.9121,-140.6909,-201.6047,-245.4988,-238.3809,-248.3282,-43.4152,-211.9461,-158.3208,-120.0491,-163.1013,-153.3409,-69.3811,-118.1756,-264.4786,-295.5088,-119.7201
-168.5092,-148.6700,-182.0471,-138.2377,-221.8553,-235.6599,-290.1312,-281.6527,-110.7010,-271.8071,-154.3826,-131.4660,-166.5534,-138.8372,-100.0561,-137.4699,-285.2673,-217.9432,-145.1527
-201.5574,-171.8099,-99.0282,-163.2081,-160.1885,-184.6167,-195.3401,-281.9552,-34.2712,-280.4298,-184.6676,-156.1853,-113.7592,-118.0674,-66.5069,-138.3953,-237.4677,-59.0554,-76.8511
-207.5956,-161.6422,-11.8909,-176.5081,-45.3968,-101.2750,-18.0818,-219.8282,134.4163,-203.7444,-190.8225,-152.3621,-22.8964,-55.5911,70.4918,-92.9927,-149.4877,109.8034,5.0625
-123.0508,-102.8410,31.2012,-120.6411,54.8897,1.1111,114.5088,-133.5291,210.4506,-130.7675,-106.5220,-95.7858,63.1445,28.4199,185.6448,-39.6428,-73.6078,258.3095,62.1849
13.7490,-14.8447,45.8731,-11.9970,106.7027,93.3331,172.6443,-63.8252,134.6224,-92.0147,26.1386,-6.2567,99.7670,79.1940,183.6356,-11.1572,-3.3148,338.2881,104.6289
105.1320,80.3004,57.4747,94.0570,134.9449,161.5769,198.8468,-6.1119,47.6494,-38.2779,109.6889,87.4845,106.0205,111.5987,159.9034,15.6838,78.7204,329.6984,116.5198
134.4861,162.5220,101.7676,186.3452,153.1362,215.0002,196.0342,47.9496,49.9605,21.6389,134.5992,167.6076,122.9587,165.8706,175.5289,54.8616,143.5807,283.7450,87.9312
180.4449,206.8465,183.1620,252.6466,147.7115,240.5831,144.3597,96.0709,69.7968,66.8154,181.1443,206.7645,143.9899,198.8457,128.5053,85.2737,154.2995,229.0450,42.8384
276.2591,210.5999,216.6180,252.2959,126.0763,215.4264,64.8839,120.3160,18.4173,104.0803,277.9989,193.0710,146.6468,159.7535,4.8553,90.1145,127.6312,171.6012,-8.9733
330.4168,200.8100,156.9381,204.4913,105.7598,164.6188,3.9669,86.2235,-64.4184,90.4160,333.1930,166.6497,130.8300,111.1705,-40.1510,69.6355,109.5874,167.6599,-52.6690
267.2504,194.4428,110.1618,185.5440,95.4400,136.1050,-3.6594,9.9320,-78.7897,10.0750,273.0367,167.8660,111.9985,127.7826,36.3613,38.3713,109.6065,238.8636,-37.2883
183.0878,186.0400,163.1457,211.4160,117.1432,137.3276,45.5334,-35.1398,-18.3661,-42.6283,191.1310,181.5963,117.3159,166.3139,100.1153,20.0462,117.4407,315.6252,37.8888
202.5281,178.2076,243.6422,230.2515,171.2442,150.8540,104.5743,-25.9630,16.9753,-20.1023,210.1292,181.5187,153.8172,172.6140,100.6105,24.8158,141.0669,355.8095,83.9336
257.4283,181.7689,266.0390,219.1633,197.2490,173.3985,107.5736,-7.7246,-25.5107,1.3884,266.0957,175.1852,179.6737,185.4394,108.6435,41.5641,165.4638,378.0325,49.3803
229.1489,183.4425,247.7146,206.3110,164.8744,204.7429,60.9906,-1.1760,-72.8465,-11.7445,241.7828,171.3311,164.0294,220.3190,116.2551,53.1441,150.5360,389.6884,9.2249
170.3867,154.7775,223.5839,208.5786,141.1186,232.4821,56.1786,12.6282,-48.7400,2.9001,184.0940,156.2269,138.2209,213.6569,66.0633,50.3460,106.3681,401.7566,57.0331
145.2892,95.8229,200.2848,189.8945,171.5025,233.7267,132.8561,29.7194,21.6306,50.3905,155.9806,115.9699,138.3420,154.2706,13.2531,38.7653,70.7889,415.9396,153.3797
77.7611,31.1889,188.8554,107.4297,192.2122,183.8650,189.1875,5.1664,66.5499,33.3875,88.2311,50.6799,149.1063,104.4317,38.5889,21.9424,33.0287,373.6490,171.0982
-38.4597,-30.2729,169.8719,-2.0928,141.5681,93.5321,118.8092,-82.9228,40.1682,-82.6715,-24.0892,-20.7658,127.2236,80.1083,91.1146,-11.6805,-19.3720,264.4011,94.7659
-79.1458,-82.5118,93.1747,-51.5955,52.7083,22.7323,-19.4815,-159.0229,-46.2729,-166.6919,-64.0255,-61.3472,50.5391,54.6749,75.4736,-49.6870,-54.9649,187.8525,50.9074
-42.4787,-94.0870,-14.8922,-34.3879,-13.9168,5.5473,-85.4439,-127.1238,-113.7312,-104.7575,-32.5975,-53.6053,-43.2506,29.9593,-2.3099,-52.5101,-60.5479,176.3258,100.2664
-38.8642,-64.5475,-55.9976,-28.6204,-37.4886,-8.8834,-59.7184,-40.0903,-108.9723,-3.5781,-35.4679,-34.7365,-81.4151,1.4079,-73.4924,-32.2697,-52.2838,137.5114,150.7780
-54.8473,-62.4594,-16.0262,-72.0255,-27.7231,-77.8454,-37.3545,-37.7063,-92.6412,-22.7249,-55.1452,-57.0093,-54.4813,-54.4676,-98.7568,-44.7223,-37.4781,38.8290,119.7121
-21.0064,-117.8946,23.0678,-130.2083,-14.0815,-167.6884,-65.9797,-124.7398,-123.8719,-119.4777,-20.8912,-114.4833,-28.7198,-109.6504,-74.3600,-83.3292,-33.1217,-46.9021,32.8030
14.4849,-151.5300,38.8378,-157.3084,-20.9225,-203.5767,-103.9824,-197.3282,-156.7094,-178.5513,18.9041,-143.7511,-31.8089,-109.5041,-23.2600,-97.4237,-50.2250,-72.4907,-54.3086
-10.2678,-110.1997,60.0162,-132.7833,-39.8550,-183.5343,-115.2783,-226.2686,-159.0105,-216.0256,-1.1653,-113.8228,-32.3386,-76.3518,1.6576,-95.2362,-63.5488,-61.8463,-117.0093
-68.0005,-76.4741,27.0656,-98.9262,-69.9014,-173.5677,-129.1770,-246.9377,-165.2348,-263.7436,-57.7564,-85.4163,-42.6147,-89.1201,-36.3211,-115.0066,-81.1725,-70.3743,-147.4418
-133.8419,-137.5397,-116.8875,-132.8057,-129.0234,-197.1324,-180.9925,-258.1692,-150.7007,-266.0366,-125.3859,-128.8416,-101.0332,-157.3240,-100.8894,-142.8657,-142.3682,-115.5388,-134.0497
-209.8837,-240.2569,-247.0183,-212.0106,-179.0538,-194.2946,-220.2659,-231.4004,-61.6115,-202.8877,-202.9348,-207.3717,-161.6366,-193.6134,-118.1211,-140.2238,-198.0795,-120.6233,-67.3033
-261.6089,-280.2025,-217.0482,-237.2208,-152.9265,-118.6404,-163.6937,-159.5072,42.5770,-127.7835,-253.9368,-234.9463,-146.4755,-141.0087,-70.6180,-100.3873,-180.5323,-35.5817,17.8091
-249.9209,-257.7888,-112.7043,-226.9660,-77.1586,-24.0833,-45.5957,-83.3781,74.7751,-77.4083,-240.0227,-221.7718,-75.9561,-68.0616,-6.6274,-49.2487,-155.6306,32.2383,54.9569
-185.5008,-245.8624,-97.0704,-269.7014,-30.3865,1.7764,18.0088,-63.8620,59.6538,-62.3280,-176.0522,-233.6697,-26.9101,-67.5267,36.4741,-24.7136,-178.2410,-4.2316,46.8334
-105.9617,-251.3538,-133.1795,-303.2874,-15.9921,-39.4412,15.3244,-91.0557,49.8163,-80.0399,-103.0047,-246.1119,-19.1285,-114.8604,54.2129,-40.9387,-142.0814,-43.8947,52.8228
-37.9563,-212.3567,-93.5674,-218.8939,-2.4814,-72.3077,22.7047,-102.8416,44.2225,-101.7740,-44.3054,-190.1060,-26.9919,-128.6763,45.9101,-67.6138,7.6996,-6.4174,66.4747
16.2315,-120.1071,2.2202,-96.7928,-0.3072,-72.6969,43.1797,-101.1708,48.6949,-109.7745,3.0980,-94.9238,-34.0194,-107.0403,32.5473,-72.1601,132.8472,0.0915,47.0157
54.7576,-45.7123,46.1155,-69.8001,-20.1409,-97.1029,29.8579,-116.9778,67.4840,-113.4950,38.1596,-43.8623,-39.3912,-100.3957,47.3876,-60.3832,126.1219,-119.6850,11.1358
42.9412,-40.0438,5.9825,-107.7268,-61.7947,-182.1658,-17.0653,-129.9189,50.3872,-117.2398,26.4905,-52.5420,-65.6668,-124.6276,56.6852,-58.3437,39.3211,-286.7823,-35.1458
-38.8048,-90.6385,-78.9612,-146.7269,-133.6507,-287.3443,-89.1532,-133.2519,-27.7231,-116.6426,-48.9448,-96.4838,-131.9380,-164.9076,-0.8425,-75.8165,-68.1282,-377.6968,-110.1801
-137.0170,-166.8474,-166.0195,-220.8350,-201.3089,-349.2887,-174.7320,-133.8753,-99.8230,-90.4714,-136.5591,-168.9957,-196.6088,-189.3305,-74.6577,-86.1688,-186.3318,-364.3576,-151.1780
-193.0367,-231.7013,-224.3894,-321.9065,-213.9002,-335.3822,-205.0205,-82.6616,-104.7312,-11.0861,-184.5136,-238.5935,-211.7584,-157.2995,-63.0049,-53.2993,-272.8304,-291.6931,-97.8207
-207.5309,-243.1158,-239.4154,-345.9760,-193.9137,-240.8820,-141.9896,26.9323,-76.7893,87.2621,-196.5383,-247.1993,-204.3835,-75.5835,4.8928,8.2736,-274.4350,-194.1667,-26.8247
-185.9113,-205.5768,-215.1038,-264.0845,-172.5353,-96.2036,-60.3093,111.3444,-84.9015,141.6362,-175.7377,-196.3743,-199.3663,-1.2821,24.2380,50.2464,-197.4108,-77.5791,-19.1851
-128.4327,-169.6986,-167.8477,-175.0670,-128.5135,17.4967,-29.7352,144.9565,-131.0740,159.6906,-120.3006,-150.6849,-165.3380,30.3053,-7.5065,64.0809,-95.7962,15.8166,-46.1216
-81.7845,-146.7386,-118.2963,-148.2832,-88.7870,29.1278,-29.9432,144.1277,-150.2430,148.5799,-76.4520,-134.8145,-119.6777,21.1950,-23.5664,60.0353,-20.7071,23.7458,-81.2653
-72.0669,-95.9292,-67.3423,-132.7563,-107.2981,-32.5246,-34.1716,57.8185,-110.7621,54.6367,-70.4387,-102.6623,-121.2771,-13.9275,-14.1645,19.9438,30.6057,-14.8474,-123.6156
-32.7351,-12.4514,2.7183,-59.8609,-134.0644,-75.9038,-50.3779,-95.4191,-70.2965,-91.9688,-36.8213,-27.6264,-141.0291,-46.4910,-15.7954,-46.7701,105.7779,-11.9792,-133.1265
80.3835,52.9655,75.3939,35.3818,-113.7420,-78.7740,-80.0841,-185.7417,-91.0928,-177.0174,69.0273,43.2874,-125.1463,-64.9757,-46.4600,-89.0738,198.4910,-1.7513,-114.9039
188.5509,71.6972,98.2443,65.7076,-100.0959,-99.6937,-115.7975,-198.4877,-148.5283,-196.0252,172.5381,60.4892,-107.1885,-92.8174,-85.5010,-99.7824,230.2105,-62.5830,-135.5301
199.8717,64.7876,60.6763,26.4855,-115.3423,-157.0665,-147.9251,-210.3261,-177.4086,-206.9550,184.3909,40.1179,-108.2025,-127.4774,-93.9224,-105.3172,177.8099,-157.7009,-180.3512
125.9636,51.1295,12.2279,-18.9074,-117.0407,-206.8187,-174.4498,-195.4164,-164.5001,-180.9544,112.4666,18.0235,-100.1441,-138.9874,-83.8632,-97.7367,108.6009,-238.4925,-182.3058
36.3304,30.1100,-12.0611,-46.0333,-142.0624,-235.6195,-221.3701,-139.9268,-149.1399,-114.5018,22.8402,-2.2333,-119.5077,-138.5672,-120.0425,-77.3903,57.1293,-325.7723,-157.4201
-18.9797,14.6861,-26.1776,-58.3667,-218.3386,-251.9229,-280.1208,-124.6987,-155.4382,-90.7312,-31.1539,-15.6736,-189.1671,-142.9590,-190.9532,-75.0740,0.3520,-371.5988,-144.1997
-24.7437,21.4560,-41.8210,-44.0744,-237.0675,-216.8536,-260.6713,-135.1521,-152.8522,-112.8110,-32.3583,-5.9210,-205.7603,-123.0657,-193.6616,-79.9148,-35.8835,-287.1307,-119.7570
-0.5596,32.7439,-32.3509,-18.8647,-136.2177,-114.2169,-121.3814,-99.6034,-99.6793,-110.5719,-6.6993,11.3967,-117.2459,-78.4264,-100.0805,-62.0416,12.5424,-127.1014,-65.3811
20.2981,26.1940,22.2549,-11.3125,-8.5793,-17.8218,42.5808,-79.3390,-14.9487,-97.6678,9.3604,13.7523,-21.7915,-55.1670,5.5757,-47.4543,122.1872,-2.4002,5.5282
37.3531,21.4964,86.3745,0.6098,77.3273,23.9014,137.4281,-125.9547,45.7915,-120.6587,23.5410,19.2271,32.7462,-51.1981,64.6873,-60.5462,187.3903,95.8647,78.7913
73.1454,38.3949,111.4296,28.2967,126.8599,50.3761,163.5408,-157.9416,69.5510,-163.1600,63.8094,37.4718,90.2400,-32.8604,86.9071,-71.9636,165.4974,188.5179,122.4819
110.3473,46.5911,96.6608,24.4383,118.7259,65.5648,128.8562,-155.3323,64.7627,-207.0079,106.1915,35.7875,122.1539,-18.1994,87.5071,-71.2874,114.8036,204.0142,107.4538
100.1641,22.6014,60.1646,-11.7234,50.3543,21.2448,31.7665,-187.7200,12.9985,-248.9118,97.0560,9.5091,74.1308,-33.8638,65.0480,-84.8741,78.7350,123.4226,54.1787
43.0023,8.7579,13.7453,-15.9842,-21.2397,-58.7939,-77.0331,-239.7365,-75.8573,-266.4398,40.8606,2.3892,-3.7367,-64.2470,5.8983,-111.4562,45.9517,37.8285,-10.8288
-6.6498,40.5943,-3.5334,10.2776,-62.7446,-117.8171,-151.7650,-262.1449,-141.2818,-265.4451,-6.6216,23.1574,-36.5898,-96.8781,-83.8206,-130.6151,26.6680,-15.6065,-91.5806
-19.4884,60.1448,25.8864,-0.7901,-78.3575,-175.9256,-219.3908,-268.4933,-156.4364,-269.1713,-19.5943,19.6621,-24.1043,-131.7208,-142.9937,-138.9296,41.9072,-94.5468,-174.3644
-5.4978,-5.0113,34.5804,-65.4080,-83.5483,-246.1702,-301.4440,-251.7606,-137.6646,-246.8812,-7.6482,-42.1706,-13.9465,-154.8788,-136.3676,-132.5174,56.0627,-194.7302,-209.3152
36.6673,-106.9300,-13.1425,-138.0157,-108.6092,-264.2899,-342.8895,-185.7897,-81.4339,-171.7627,32.3597,-121.2502,-42.7269,-163.4648,-127.1858,-107.9823,35.1374,-223.6584,-156.3200
100.2385,-141.9652,-37.3222,-174.3635,-129.9422,-208.9129,-287.9692,-104.7593,1.2018,-90.8371,93.0463,-153.0861,-72.0296,-167.4844,-156.8723,-79.9264,11.1822,-160.8897,-37.3688
125.9666,-122.3796,2.1451,-163.5585,-76.3992,-130.5417,-170.3038,-46.3024,56.1418,-46.5945,117.4908,-140.1833,-28.7841,-150.8923,-156.6929,-55.7712,8.5776,-86.9985,61.9294
73.1185,-121.0771,36.5070,-129.9287,17.8567,-24.5887,-67.6505,-3.1380,75.6855,-20.2557,67.2691,-124.5202,48.6600,-84.6029,-74.7614,-21.8660,17.0594,-27.3464,93.9086
2.2753,-101.4360,44.7295,-84.8707,57.4146,148.0011,-4.1348,38.7228,105.5625,14.5542,-1.6480,-87.5826,71.2791,31.3794,38.6202,29.6263,57.8700,70.2774,114.9731
-7.3174,-14.1206,69.7127,-8.7392,78.3578,334.4843,48.1880,104.9436,141.8397,69.4747,-12.6622,-2.3640,85.1047,158.0132,118.6968,89.6169,133.4332,197.0187,173.3916
26.0434,49.3417,94.2651,69.9583,154.7845,440.9905,106.9551,209.1312,156.0823,153.4634,21.4455,62.7632,158.1879,241.7213,153.7357,142.5016,168.8335,292.7043,235.6661
44.0888,30.3691,88.9412,89.8688,219.3873,459.8175,161.7370,300.2358,171.8265,245.0707,44.0371,57.5120,210.8064,270.2045,162.7033,176.7465,132.6283,352.0652,278.5835
51.5513,34.5436,80.6743,78.1500,193.6635,439.4632,171.3938,327.7207,188.0828,284.7685,54.0339,55.2987,183.6001,273.5999,145.7980,187.4428,92.0140,373.3466,299.4883
69.9048,93.9702,73.6691,89.0875,126.3692,387.6968,91.8673,285.9548,144.8059,227.7605,71.0300,87.2487,148.5316,238.0159,67.8125,159.2233,84.1868,316.8981,259.6232
72.0253,87.3268,54.7900,77.8100,84.3428,279.1643,-16.1132,164.5757,57.4335,97.8940,70.3705,69.1790,132.2078,122.6573,-51.0411,78.9112,86.9900,210.0255,169.0812
44.3826,10.1064,50.1796,14.7207,73.5819,122.6284,-22.3794,-1.8278,17.1463,-30.2057,39.2914,0.1934,96.9170,-19.9991,-95.8406,-16.3903,91.1576,121.6293,101.0621
23.2137,-17.2876,37.6845,-28.7928,65.6859,-36.1652,29.3093,-117.5314,19.0248,-122.5023,16.3218,-25.8887,65.4857,-102.5055,-40.7795,-74.4251,68.1631,20.1662,42.1417
13.5340,-4.9813,-48.6977,-40.4651,4.3533,-170.1485,-47.4408,-185.1297,-18.0787,-213.6135,9.0329,-21.2216,37.6144,-147.8796,-17.5568,-108.9385,-26.3993,-152.9934,-66.5998
-32.6930,-35.4190,-165.5307,-89.7689,-121.4924,-275.7172,-229.4061,-280.8694,-88.5542,-304.8258,-33.8142,-55.6968,-48.2383,-207.0509,-73.5599,-151.7273,-150.5622,-333.2201,-174.9045
-125.6943,-76.5095,-222.2129,-151.4599,-217.0803,-322.9874,-306.5506,-344.3913,-139.0783,-326.4151,-124.6768,-97.0805,-151.1548,-236.2704,-110.4952,-171.5843,-222.3092,-412.1609,-220.3463
-194.4032,-77.8825,-237.6053,-141.2160,-213.2560,-275.7463,-260.9161,-277.9370,-181.5505,-258.9605,-189.6037,-94.0216,-165.7934,-198.5497,-112.3100,-140.6740,-234.9385,-371.2344,-235.7212
-150.0968,-59.6390,-238.9468,-76.6602,-156.2810,-165.6616,-234.8298,-167.8047,-222.2009,-179.6472,-142.4943,-66.5648,-107.0373,-143.1082,-134.5211,-97.0101,-204.5933,-270.7200,-229.6073
2.5190,-32.7969,-178.3233,-29.9461,-84.3017,-71.9952,-215.6512,-129.7442,-202.4414,-142.0252,5.9244,-37.9458,-37.1236,-111.9371,-131.3468,-71.7476,-127.5145,-186.5942,-166.7630
117.2820,-15.2200,-65.3464,-25.0907,19.6852,-36.3525,-110.6084,-120.7533,-103.2954,-124.5057,114.0619,-26.3762,51.7779,-101.3884,-60.8150,-56.5318,-38.9162,-135.3282,-78.8372
69.7962,-44.3748,34.0621,-47.4139,123.3522,-40.7758,30.6008,-90.1380,12.6833,-110.6746,64.7962,-51.7191,138.1410,-99.6040,7.7678,-53.4403,34.2407,-57.4224,-5.9179
-29.8971,-73.0624,118.2666,-52.5976,160.6487,-31.2362,114.3856,-74.0708,91.1949,-108.2238,-36.0784,-65.6498,151.9241,-74.8709,44.1388,-58.8203,122.3084,60.2329,75.3297
16.5945,-29.5714,189.5915,-2.6499,139.4989,38.7059,140.2865,-65.5471,124.9253,-93.7149,5.6671,-12.8374,107.7487,-2.2512,88.1006,-39.2729,208.9734,154.2604,162.7036
165.8661,45.9168,205.1977,70.7827,123.3313,141.3830,146.7016,-14.7844,127.5807,-36.2773,153.2167,61.7426,86.4255,81.7064,123.1135,9.0481,231.5015,223.2123,210.6628
216.3743,101.3771,178.2144,127.7570,137.4742,194.4719,156.1572,47.1252,115.5689,23.4602,208.4430,110.5804,108.6745,127.9715,120.7927,41.5771,212.2137,298.4780,198.3886
146.1616,152.8715,160.1685,178.1454,149.1341,161.7279,157.4721,32.0424,85.7336,-3.1651,142.6433,153.6891,131.4813,124.6095,108.5696,25.1249,204.8143,305.6191,126.6231
85.9446,170.7368,154.8249,197.6267,124.9592,59.0718,120.1442,-87.8741,33.7341,-133.8417,82.0859,169.8681,117.6127,64.7758,94.4373,-37.7350,186.1229,189.3891,36.7673
79.7244,112.8740,166.5997,138.9484,78.6001,-92.0259,71.0465,-240.3053,-6.2059,-280.0546,73.2916,117.0784,69.7765,-36.4571,66.0052,-118.3370,148.1807,59.4603,5.6968
94.7495,49.4377,199.4984,54.1887,40.3963,-224.4498,55.9795,-322.5062,-18.5712,-350.3307,87.1126,50.5019,23.7147,-110.9409,43.1191,-167.8372,131.6756,12.0266,11.9151
112.8502,50.3721,194.8804,29.9785,13.9162,-244.6998,34.7691,-316.3875,-53.5681,-339.7055,107.7252,38.5547,5.3512,-113.2984,33.8040,-159.7433,110.5061,-12.1060,-44.0761
101.8905,73.1338,131.7918,53.2752,1.3916,-169.1262,-23.0635,-287.4032,-128.2940,-302.3824,101.4737,56.2628,9.2673,-77.1631,25.5400,-123.8820,44.7629,-78.2519,-139.6100
55.6236,77.4099,86.8261,76.9000,11.6756,-105.7823,-58.3739,-259.6996,-188.5005,-275.5215,56.3709,66.4725,24.2808,-55.8228,10.6694,-101.1156,3.8827,-150.2023,-179.2801
44.0530,86.0311,96.0339,103.0457,20.9778,-83.1691,-68.0922,-204.5596,-218.2055,-246.8129,41.0832,76.0979,37.8003,-61.8008,-45.1346,-93.9524,59.3996,-159.4624,-181.3005
94.4226,113.0993,128.8730,136.7741,12.6839,-47.7526,-100.3745,-137.0306,-232.7965,-188.5212,88.1494,94.6748,37.3128,-60.6927,-133.0455,-81.1510,158.9003,-82.9832,-182.6646
128.6001,145.3235,170.2944,166.0506,25.0235,0.9994,-95.0852,-92.7669,-189.6489,-114.9713,121.5313,124.0659,39.1107,-17.8767,-137.7316,-53.6183,213.6956,17.2694,-129.6605
90.8747,148.9855,171.0591,173.5963,67.4270,11.5804,-5.0030,-66.5314,-78.4190,-76.6402,82.6834,141.8917,57.7727,25.3668,-31.3819,-32.5372,204.1729,52.9939,-26.4680
17.6774,97.8287,88.0861,132.8990,88.4435,-25.4964,72.8464,-60.9227,1.8758,-89.0336,7.6696,108.8174,64.5546,-1.6484,42.0256,-46.0290,173.6245,45.6072,35.5803
-20.2533,45.7592,37.7166,64.5571,89.1778,-70.4825,94.6208,-89.1300,-6.8613,-113.0482,-30.9366,54.7932,53.6035,-62.6035,22.4555,-78.3187,178.7076,83.3199,49.1846
19.3993,55.2366,128.4310,35.4573,117.5723,-87.6267,119.5310,-104.4733,-46.2148,-108.7196,10.1701,43.8275,71.1253,-65.9959,-4.0746,-81.8014,206.0204,147.5965,70.6439
88.7724,60.8635,210.6646,27.9616,138.6335,-73.0188,116.3306,-60.5928,-73.7386,-72.3665,84.6945,36.9925,105.7671,-27.1179,-17.0780,-49.4208,161.0273,151.6694,81.8000
82.0668,-18.3247,115.2129,-42.2925,81.6383,-48.4455,45.8786,-9.8266,-101.7182,-36.2307,85.5742,-35.4047,75.3152,-18.3436,-35.0180,-19.8598,22.6383,93.1641,46.9100
8.4966,-120.6980,-41.9298,-146.6475,-12.9348,-33.3831,7.2154,-12.5856,-117.8484,-33.5323,14.8650,-122.5328,-21.3056,-35.5285,-8.7161,-13.3125,-83.1523,29.2463,8.1694
1.9481,-153.0275,-75.8576,-173.9483,-46.9210,-21.4438,41.2541,-26.2004,-107.0512,-42.2605,3.0217,-141.2716,-79.3828,-40.7242,42.8598,-13.1847,-58.0233,-5.9616,10.7354
85.2316,-115.7468,-16.4734,-117.5937,-19.5815,10.7777,46.3283,2.0413,-95.0902,-15.0211,79.8670,-102.5910,-55.6478,-31.5746,28.0905,-0.6414,30.1862,-8.7469,19.7636
119.6286,-48.3799,15.4988,-56.4108,-14.1744,62.0368,-1.8515,29.4921,-98.1035,23.8544,113.1395,-51.3784,-30.1847,-16.6506,-33.0401,17.8276,66.2142,-13.7792,-17.1498
42.9442,11.0089,-2.6752,-15.4079,-62.1838,79.2492,-39.3591,6.5614,-103.2701,14.1402,37.6680,-5.9362,-64.0212,-14.7120,-77.7551,13.0367,49.9543,-47.4036,-75.7922
-43.1628,40.6428,-24.7113,30.3598,-106.0076,23.2158,-65.0342,-26.1910,-111.0509,-22.4858,-48.7299,27.8180,-107.0123,-42.1948,-132.4396,-22.7208,57.6500,-55.1364,-95.3176
-54.7683,70.8191,-12.1986,81.1104,-101.2497,-49.0868,-85.3008,-26.6286,-136.4735,-34.9779,-59.6891,59.9677,-101.6676,-62.9953,-190.5121,-52.8569,102.8499,5.9302,-92.0885
-26.2627,114.5026,31.5749,108.8006,-79.5751,-70.7556,-76.1852,-42.9457,-176.5336,-55.6049,-28.0240,90.8111,-77.4354,-48.7969,-185.7580,-59.8809,130.6719,63.1579,-124.6099
-9.2121,116.8109,53.6636,97.6232,-70.1911,-89.4169,-66.5720,-114.9876,-197.7369,-119.5808,-8.6267,88.9783,-69.5952,-49.7896,-137.8594,-76.6939,114.7768,50.5186,-166.0340
-3.9835,60.9715,13.2878,55.7627,-51.0542,-162.9401,-80.3773,-182.7324,-168.1279,-168.8065,-1.6638,46.0634,-52.6719,-92.8541,-99.6136,-108.0033,58.2343,13.7349,-161.6775
-18.9757,-14.2211,-56.0486,-19.3801,-27.2336,-229.5804,-80.1168,-188.4139,-109.8325,-155.3936,-9.8309,-21.8517,-22.4899,-118.6244,-52.1421,-109.9057,-56.4764,-3.9255,-151.9555
-82.9735,-105.2578,-100.6659,-135.1791,-44.3865,-229.3048,-69.4708,-161.1408,-69.9369,-128.5963,-62.5036,-116.3291,-21.1049,-100.8606,4.3458,-78.9920,-211.9201,-31.8786,-176.8862
-168.3368,-190.1444,-135.9727,-233.0643,-97.2590,-203.9846,-80.9476,-135.7342,-38.6850,-132.9454,-140.8767,-199.4101,-49.4274,-83.0528,29.4038,-57.4468,-331.3281,-78.6071,-181.0925
-215.0011,-196.6041,-211.6790,-231.2258,-136.1514,-177.5106,-77.7952,-103.8756,13.3808,-127.4218,-187.1540,-197.1596,-75.6672,-73.0677,38.7403,-49.1505,-387.6896,-93.0994,-143.5044
-225.4760,-137.3394,-295.9029,-161.7277,-142.2103,-119.0475,-38.3912,-65.9633,48.4898,-71.9662,-197.1809,-132.9254,-93.0133,-43.0728,57.0260,-28.2457,-407.9256,-43.4098,-129.8246
-209.9230,-88.5532,-289.9175,-111.5977,-116.9054,-45.2073,-21.6845,-31.2074,20.2442,-9.8763,-181.4311,-89.1967,-82.1943,-6.5444,49.7844,-1.1265,-361.6712,22.0158,-152.3352
-123.8238,-36.3632,-182.4460,-62.3549,-70.7797,7.0451,-51.3240,1.1222,-42.9640,-2.0872,-103.1734,-50.3075,-27.7824,8.1036,2.1376,11.3008,-218.4354,17.7980,-163.0617
-1.4395,48.7924,-69.1301,30.0504,-48.4957,43.7422,-89.8725,10.0091,-95.8393,-32.2136,6.0264,25.5582,7.3153,12.0009,-44.2508,11.6066,-58.4761,-61.6539,-176.7376
28.8466,103.7479,0.0579,103.3050,-70.6430,57.0005,-130.5528,-14.6580,-137.7275,-40.1362,30.4369,83.1660,-24.0427,31.7905,-57.4857,13.4383,31.0622,-123.3529,-237.4462
-22.2291,91.3319,46.5361,101.3430,-94.6832,29.8121,-193.3171,-29.7790,-182.3695,-22.6086,-16.6509,74.9288,-56.1384,64.1584,-50.6515,20.3718,64.8070,-118.0375,-317.8573
-11.5695,54.2626,61.1894,66.8661,-106.3005,-5.5239,-276.5650,-27.7714,-225.5019,-31.3309,-2.0037,37.5140,-49.0285,71.2280,-63.7914,19.0825,71.6448,-107.9279,-359.3088
60.2272,16.5272,33.7660,34.2800,-141.5309,-35.9668,-348.2504,-64.5895,-235.6328,-81.1533,68.7567,2.7914,-63.8924,32.0592,-100.9608,-4.4656,38.4995,-146.2871,-348.3986
68.4231,-13.3463,11.4441,-8.5854,-191.9190,-95.8334,-358.0248,-127.2168,-182.7828,-126.4033,75.9068,-24.7935,-113.9857,-9.9068,-101.4392,-31.9128,-30.6720,-201.1143,-307.0057
2.3003,-23.6927,11.1698,-56.9478,-212.7075,-159.3139,-302.7813,-138.3713,-102.3000,-131.0229,13.1844,-41.6516,-136.8478,-7.7613,-46.4216,-32.3454,-117.5215,-225.6492,-256.0889
-65.2683,-54.9495,-10.8974,-105.9862,-195.4268,-166.0314,-241.6695,-111.7097,-58.6828,-115.5562,-48.1779,-74.5069,-117.5888,6.1875,-4.9119,-18.8448,-218.1199,-213.4752,-205.7892
-118.8555,-126.0895,-64.7358,-152.7423,-147.9977,-142.8769,-185.9098,-113.9177,-42.2806,-114.8154,-96.7603,-131.3202,-80.5564,-15.8491,3.4009,-24.5056,-310.7515,-183.8360,-158.3837
-166.0132,-153.6451,-127.5080,-150.2303,-86.8054,-135.9454,-99.3723,-118.7220,-8.9290,-114.1034,-142.7233,-142.4565,-40.8455,-43.3017,27.2292,-38.1872,-357.8802,-150.6732,-108.7359
-196.4664,-90.9721,-185.1778,-77.8702,-60.2160,-107.1280,-20.5635,-71.2150,31.5233,-74.6979,-175.9333,-73.4843,-31.6841,-24.1768,52.5855,-29.1067,-340.5916,-96.7449,-48.1876
-186.5058,-9.7291,-185.8301,0.7843,-67.2219,-20.8318,4.7676,-1.6223,70.8475,-8.9255,-171.2990,6.0706,-47.5027,31.7353,52.4114,1.5210,-253.5434,-8.4118,15.0203
-83.0817,39.5594,-81.6807,48.8737,-23.3224,83.5866,38.1241,41.9071,136.3068,39.1596,-75.0463,49.6776,-8.1212,84.1077,82.1506,37.5649,-111.8477,70.2088,54.1815
98.7381,75.1676,59.0717,97.4980,86.7069,157.1604,109.9884,62.4287,204.2993,66.6063,98.6657,82.0165,93.9175,111.8091,150.7399,67.7967,33.5727,98.7124,60.5314
213.8371,102.3176,132.4151,144.6909,160.9270,182.5508,132.4259,76.5985,207.9753,91.8663,208.4513,109.3868,158.9124,114.5847,162.1605,78.5378,138.1137,116.5608,46.0691
196.2963,128.4456,143.1167,170.6343,154.1322,167.9728,70.9475,95.3657,134.9326,103.5837,191.2389,127.0435,159.8045,109.6140,85.4228,69.7173,199.9927,160.9420,11.2131
163.9623,177.9358,153.7811,208.8774,128.2057,148.8661,-2.6596,114.2011,29.8089,86.4919,161.1820,161.3171,156.6747,115.8447,0.0037,58.6435,235.8725,185.8742,-37.0329
181.6482,221.5744,181.6144,263.7571,110.6807,144.7638,-55.4918,93.2977,-49.9703,46.6810,177.9862,204.4512,147.4686,128.4115,-35.5257,47.7472,256.3732,152.4621,-65.8077
176.1105,205.5208,199.5020,265.8717,69.9647,123.1732,-105.4437,23.3190,-65.7233,0.5036,170.0635,203.0932,94.3015,128.2403,-25.5034,28.4599,257.7255,99.2274,-64.0269
127.5124,146.4685,163.2949,199.7248,8.4544,60.4981,-140.7075,-25.4019,-48.7573,-20.4493,121.5979,153.9160,20.8651,106.5703,-4.2436,10.4368,221.8591,60.4152,-59.2912
80.1403,98.4895,64.0373,134.5646,-45.0004,-8.6769,-150.0302,-12.7426,-67.6461,-2.4036,76.4548,106.7104,-37.4081,68.3757,-15.4775,3.0455,149.3354,22.2705,-73.7315
29.9209,70.6910,-24.8936,95.6319,-78.2592,-45.3826,-145.2300,4.2105,-116.0436,11.8991,29.6828,74.9779,-71.3115,28.5130,-57.9806,-3.8462,68.9781,-11.3308,-105.5629
-11.8516,39.2092,-38.9616,44.5261,-68.7396,-59.0050,-111.8952,-10.8702,-126.5507,-1.4318,-6.6612,33.4780,-57.8870,2.0852,-68.4452,-11.2767,-2.3087,-12.4542,-128.8949
-4.0826,0.5370,-21.5257,-18.5872,-2.0855,-74.9392,-30.5914,-19.8471,-76.7124,-1.9619,6.1072,-13.1351,6.1459,-6.7531,-3.6595,-5.9916,-62.9334,10.4730,-110.0520
10.8475,-14.7800,-37.2717,-43.1797,71.7388,-77.7155,64.6000,-10.1689,1.4087,16.6967,22.5081,-25.2143,67.1839,1.6976,95.9757,7.1026,-100.6419,34.1231,-58.2913
-18.1440,13.6890,-70.5212,-7.6277,98.5085,-30.8611,118.6404,-11.0265,68.8243,14.1398,-8.3532,10.9057,86.2845,20.7330,146.0095,9.6584,-97.2691,71.5438,-2.3030
-23.6591,49.6725,-71.0439,49.8460,101.5501,44.4853,118.2958,-16.3399,106.9236,3.6796,-20.2210,55.3724,85.8057,27.9195,117.6826,2.0436,-36.4690,115.5713,69.7149
42.1288,50.9006,-17.9507,80.3162,113.7575,84.4113,78.0203,-1.3015,121.5814,15.9907,35.0259,66.3697,94.5970,15.4996,63.3798,0.0360,70.7939,102.2447,133.5329
85.1541,39.5642,63.4326,79.1962,100.6745,85.6386,-2.3898,24.9582,90.1681,25.2324,72.2700,52.2408,98.8489,10.5323,4.6464,8.7600,150.9562,24.3274,103.9025
31.8943,43.7664,104.0581,69.9400,38.8318,92.9314,-103.0981,45.4200,-25.6255,22.3671,23.2338,41.3014,64.1902,29.3035,-83.1397,19.0728,141.4397,-28.9908,14.0038
-45.1553,33.8047,62.6214,51.2808,-18.3400,99.9596,-148.8763,55.5765,-144.5869,32.7568,-48.8341,31.8962,-1.5757,54.1063,-123.6034,24.8036,85.4013,-25.1394,0.7992
-56.9988,-10.4253,-18.4281,9.6942,-32.2644,76.3309,-116.8906,50.9555,-127.1826,41.9291,-61.0315,7.6303,-43.1206,68.3433,-26.4485,30.8079,43.3296,-32.5236,45.6504
-25.1761,-60.3089,-90.8418,-41.1642,-45.7546,37.7880,-108.5292,44.6800,-20.0648,46.1686,-28.5492,-31.1855,-50.7034,62.4715,78.1500,39.1739,-3.7070,-72.9656,33.2720
-25.5619,-98.6478,-152.4958,-88.0811,-92.6550,4.4781,-173.6916,55.1345,20.7141,81.4201,-26.4709,-73.9137,-79.2621,26.9605,31.4899,39.8163,-61.7826,-99.6597,9.5025
-78.9656,-125.8999,-185.7480,-135.8362,-127.9527,-17.1261,-200.9803,65.5874,-1.9600,118.7550,-80.6450,-108.7162,-123.0579,-17.3259,-63.0108,29.6142,-92.0613,-99.3213,52.2104
-134.1622,-129.6327,-175.4852,-161.0138,-107.7597,6.0604,-129.7937,67.7300,-18.4885,109.8180,-134.2404,-123.1562,-110.6991,-32.1821,-85.4931,23.6731,-114.6117,-63.7489,79.1562
-138.9417,-112.3853,-170.3357,-127.2928,-62.5491,77.1492,-57.5013,92.7932,-64.3889,104.0632,-130.4555,-112.1568,-57.5787,-17.1706,-115.1013,29.9033,-161.4059,35.1323,47.8206
-101.0516,-87.4723,-186.9207,-56.6334,-28.4049,128.4459,-16.5746,126.4710,-117.2030,128.2605,-87.7683,-75.9392,-35.1149,6.4407,-144.5601,36.0304,-174.4356,145.2066,55.7393
-68.2187,-44.3247,-146.5804,-1.4702,23.8830,129.1744,84.2022,107.1214,-55.5460,107.7271,-60.1073,-21.1844,-11.1731,32.3180,-44.7536,32.4635,-108.8238,182.3245,115.1055
-59.9439,7.8747,-32.5186,30.3579,116.3124,125.1078,232.0751,53.9125,85.5445,42.7720,-58.0601,25.2456,70.1291,47.3273,103.9628,23.4219,-14.2421,184.0308,143.8158
-39.1883,36.2295,45.8546,62.8761,190.1947,138.1924,294.5457,41.8725,143.0837,24.6724,-40.8456,49.0107,142.1445,43.1809,134.4117,16.8014,72.4404,217.3872,146.6290
31.0168,72.9415,44.7301,114.1370,192.7174,149.3177,235.1370,59.1842,95.4985,51.2650,23.6361,89.3706,138.7785,51.0502,104.8211,20.5014,160.9051,227.4628,144.2962
118.5349,162.5098,59.8159,185.4893,164.6020,147.5271,140.8289,51.9609,27.6252,62.3573,105.1998,168.1910,115.8575,81.0309,100.6772,33.3279,237.2030,158.2807,86.9738
162.1131,227.6360,147.8067,235.4923,156.0576,106.6542,77.1883,29.3929,-32.4996,56.1205,146.7481,213.9849,119.6335,76.7747,52.1167,31.4134,291.8985,72.0334,-12.2508
170.1376,184.9876,248.4245,214.5752,144.9212,1.3738,40.3779,-3.6642,-66.5855,21.0333,154.0379,169.6690,112.7454,11.2287,-37.8823,-6.3006,342.2716,31.6350,-73.7689
201.9673,121.2559,302.2791,161.3682,109.4024,-112.3305,9.9236,-69.5109,-49.3292,-55.8254,185.6144,109.9161,84.9578,-50.7188,-65.5438,-54.9666,368.3876,27.5781,-95.4614
259.1703,139.7918,303.4686,155.9406,75.7902,-137.7038,-11.8121,-114.5245,-24.6687,-95.8467,245.7696,119.5489,65.4019,-43.6345,-39.1567,-64.5883,337.8211,50.8406,-104.2778
277.1738,172.9805,256.7888,181.4603,56.2434,-58.4742,-6.0065,-71.8353,-26.3215,-50.9693,267.7356,152.5269,47.1072,17.2982,-19.5853,-29.2846,273.3892,103.2065,-60.1605
220.1193,146.7387,188.5258,176.8726,44.9212,57.0139,38.2966,-3.0607,-0.6745,-8.0072,212.2215,145.3950,27.0101,72.5364,4.4950,4.4067,213.0700,165.8286,48.8819
122.4237,134.9807,152.0889,169.8800,61.3938,149.2768,124.4022,14.0933,75.9724,-12.8895,114.6868,143.2821,36.8018,95.7358,38.2408,12.2166,169.9388,221.3498,154.5853
38.5402,185.3197,154.0532,201.5272,106.7443,217.1130,238.9842,37.9648,145.5696,18.2566,30.7611,186.1174,68.3151,119.1882,67.5572,29.7141,141.9122,252.2503,219.9734
-10.2294,209.0658,136.2260,215.1049,132.4829,269.4764,317.5390,125.7109,170.5303,116.4974,-17.3190,208.4394,77.0103,162.1651,97.9242,79.3657,92.3568,231.4384,263.0298
-29.3071,158.4298,69.1891,160.0772,110.2257,264.7985,295.1185,188.8927,152.7017,179.9663,-32.4758,161.0810,60.4276,169.3835,97.2533,111.2141,-9.2841,165.6800,263.3851
-22.5128,109.2862,-2.2977,96.3936,63.0781,173.8232,204.4271,137.2320,93.3693,128.7341,-20.4042,104.5320,38.7766,106.6130,47.4516,78.4165,-99.4651,97.7234,187.7595
-5.7993,108.4199,-29.9566,89.7726,22.4325,69.3426,131.1164,33.6967,26.8410,22.5157,-2.8781,99.3551,11.3977,46.7930,21.8169,21.4010,-103.2187,45.8089,98.0458
-10.7481,104.6310,-22.1695,102.5184,7.0307,28.0821,99.8527,-5.8010,1.0576,-18.6261,-11.1221,107.6490,-12.3385,43.1617,43.4655,3.2972,-70.5332,-4.2599,84.9524
-25.7573,56.2891,-11.8662,64.6112,5.9469,5.0684,73.9914,22.0596,-10.6786,16.5057,-27.5032,67.5545,-20.0629,36.7633,29.9695,13.5478,-78.2775,-57.1206,103.7696
-2.4324,-0.5382,-3.9797,-9.8013,-21.3059,-63.4242,12.0997,27.6303,-65.0701,23.7873,-2.0839,0.2573,-34.4494,-4.5068,-23.1389,7.5151,-92.5109,-101.7656,45.5668
36.5498,-9.6488,10.7014,-43.7754,-73.3618,-148.2710,-90.5358,-28.8202,-137.2661,-28.4066,39.0824,-21.4466,-68.2808,-24.2631,-37.2776,-15.4891,-66.8094,-134.1441,-62.3087
5.6582,18.1648,9.0753,-22.8497,-103.0578,-216.1455,-179.0109,-94.8455,-167.9315,-60.0794,10.2813,5.5476,-96.0906,-15.3943,-22.1297,-34.8365,-54.4829,-158.5879,-126.1952
-98.6595,10.4198,-47.1726,-24.2061,-115.9328,-268.7193,-198.5467,-116.7070,-155.5511,-48.3504,-88.0854,1.1899,-111.8392,-31.8244,-35.5324,-48.6374,-120.0551,-160.8492,-161.0433
-188.8002,-55.9180,-146.5957,-89.8756,-145.4035,-259.9286,-158.2124,-88.3550,-110.2980,-31.0321,-168.7573,-66.1852,-126.5698,-63.9947,-62.7463,-49.4964,-239.0401,-110.8974,-188.0352
-223.2140,-110.9521,-230.4606,-157.1049,-156.6038,-144.4455,-82.0979,-18.4003,-21.6428,12.8223,-197.5094,-125.5381,-120.0942,-60.0600,-66.3769,-18.9033,-340.2396,-27.4787,-136.3667
-231.5636,-102.2580,-264.3870,-162.5352,-123.8437,17.4098,6.4107,63.2460,72.2304,80.7600,-207.4968,-119.1130,-85.9009,-14.0258,-37.8930,31.3616,-383.1675,24.7884,-14.5908
-231.0111,-67.6040,-262.7053,-128.5313,-99.7543,131.3549,50.9657,100.0103,116.9101,89.6689,-209.6637,-79.3718,-60.1791,52.2921,26.5583,63.9696,-374.5727,49.9896,65.2878
-222.3044,-67.1800,-247.6183,-110.9093,-89.9400,183.6379,59.8950,93.9200,146.5701,55.0660,-200.1916,-65.6021,-46.8923,109.5667,105.2584,72.0757,-344.4030,115.7562,98.0869
-226.0370,-114.9056,-222.6092,-128.5835,-40.3430,219.6304,121.8334,120.9865,205.5920,96.1150,-203.7404,-96.7465,-20.2719,124.5869,142.6779,84.6630,-311.1288,206.5530,154.2318
-232.2508,-166.2185,-180.6819,-149.7694,11.3421,263.1337,202.4385,198.0041,237.8727,197.9191,-214.0844,-136.5280,-3.7087,111.9263,111.8040,110.8044,-261.9805,241.5642,211.0042
-166.7534,-145.9692,-120.8244,-122.6083,2.7562,275.4020,184.7669,243.0140,207.0964,232.4515,-156.2166,-119.0809,-16.6254,106.2347,48.3842,120.1913,-172.7466,221.5993,230.8485
-9.2760,-48.0576,-52.8482,-45.0155,1.4582,201.1601,129.0680,202.8165,180.5270,178.4076,-8.6625,-38.1063,-4.6460,77.3335,10.1449,88.3906,-49.9802,191.1900,230.6732
120.9631,31.7654,18.3396,23.7946,62.4656,66.5853,143.4044,113.6396,180.6531,99.4889,112.4465,27.6131,52.7808,0.0187,8.0809,31.7685,60.9595,129.8398,190.0212
131.7629,41.8382,94.5789,51.9209,91.5639,-41.0450,140.0706,35.3287,156.5441,27.3946,118.7726,38.9119,76.0881,-57.4918,2.7517,-11.9697,123.8012,23.7752,108.3252
109.3475,33.7547,155.2615,56.9319,33.4429,-94.4134,57.8452,0.8643,131.4948,-3.1335,94.6663,38.1446,22.6308,-48.2520,-10.4059,-20.7633,141.1783,-70.6207,72.3371
141.4327,21.5569,167.3973,35.2001,-19.7851,-122.6291,20.5611,5.0744,152.7440,28.7808,124.8108,29.5314,-38.1574,-32.7616,4.7637,-5.3989,125.4274,-121.9853,93.5405
159.0816,-29.3205,145.6388,-19.3505,-12.0597,-129.4219,53.1547,8.1456,163.7156,51.6203,142.0076,-18.3246,-43.9123,-56.9190,25.8140,1.8273,93.9527,-157.6481,88.5124
121.7708,-71.3353,146.5662,-55.9025,3.4851,-107.5945,42.2930,-16.3712,121.6057,6.0098,105.3602,-59.1438,-20.5172,-77.3650,9.2770,-11.7534,86.4857,-181.1799,67.4120
115.7277,-39.7893,182.4015,-35.3353,-6.4704,-62.2470,6.7495,-47.7910,81.7762,-45.1521,98.9867,-34.3675,-17.8608,-52.6070,-5.2730,-18.9878,110.3417,-163.0704,75.2185
149.6317,15.3831,195.0017,1.3018,-23.9014,-1.1837,11.1809,-63.7364,54.2074,-45.4776,135.9995,10.4262,-37.2717,-6.5126,9.6980,-4.5809,107.3356,-101.5873,53.2118
140.1257,24.5633,141.4906,7.9158,-29.5407,35.6132,-6.2730,-70.4262,-0.2150,-36.9826,135.0230,14.2582,-38.5689,12.7854,-0.3145,1.0528,57.0309,-22.8932,-5.9655
109.5534,4.4441,72.0376,0.5847,4.6664,30.0687,-29.2420,-56.6477,-22.8855,-28.8881,109.9063,-1.3857,1.9053,5.1316,-20.1161,-9.4890,32.9864,69.6327,8.6560
120.5807,-13.5690,76.7941,9.6468,93.8797,71.7046,79.5526,13.8775,60.1703,38.9492,119.9121,-4.0704,66.2333,29.9415,39.5618,13.2197,77.6004,192.6475,106.9594
128.7664,-28.6399,149.6215,23.0053,192.1582,194.8354,270.0720,116.2263,175.7031,133.0907,127.7298,-6.8029,134.2420,94.8079,141.4809,72.6153,126.8943,301.0630,170.8418
85.2711,-49.1190,171.1076,-5.2881,224.9947,231.3226,320.2997,139.9630,192.5974,121.1505,85.9719,-34.7047,182.5083,93.9008,156.3748,83.4138,110.0990,276.1700,147.3023
-15.0117,-109.4994,60.3853,-99.0971,151.7175,74.7883,175.0193,28.6397,79.2062,-15.7599,-13.9765,-106.2145,145.5460,-29.8691,64.1302,4.7685,15.3570,81.7111,62.1740
-208.7612,-232.8275,-134.3715,-223.7253,-0.7700,-123.1899,-21.1857,-125.9960,-92.5486,-151.7663,-205.4236,-217.3028,0.7472,-181.5373,-61.1924,-94.5984,-138.5547,-156.8063,-58.1224
-461.6392,-372.1152,-318.8484,-338.7106,-140.1695,-243.6609,-158.6917,-224.2068,-219.8214,-228.8138,-452.1385,-334.5297,-140.6395,-288.7099,-165.5910,-160.7720,-302.5942,-331.2613,-172.0596
-627.5486,-482.7334,-441.2805,-453.2132,-207.9667,-367.1385,-248.0269,-293.0019,-270.8396,-307.6848,-613.3251,-441.1177,-187.3916,-392.4577,-230.8710,-217.4840,-422.2509,-467.0125,-252.4484
-668.9449,-575.9220,-506.2007,-572.4005,-264.8216,-507.6942,-337.2216,-375.1871,-324.0238,-395.6851,-651.5385,-540.8958,-221.7344,-490.8132,-278.6306,-272.1030,-510.5372,-579.0693,-317.1808
-688.6750,-644.7513,-560.2926,-656.3161,-368.1949,-551.9917,-422.5639,-426.6522,-416.0537,-425.8116,-666.0728,-609.4810,-325.9908,-520.2416,-336.6796,-291.8578,-605.9731,-610.9771,-350.9122
-722.1780,-667.1473,-625.0375,-685.0924,-446.3347,-511.1680,-454.5006,-426.9101,-444.7018,-406.5984,-696.4590,-627.2287,-413.5375,-505.1886,-373.0690,-286.6114,-670.5436,-562.2391,-311.6046
-736.0499,-672.2784,-656.9226,-682.1605,-432.5141,-496.8236,-436.1173,-420.7612,-361.1618,-398.0310,-711.4575,-626.0521,-399.4859,-512.1005,-366.4353,-293.8654,-657.8807,-489.0555,-244.1879
-735.0524,-675.9694,-641.9130,-658.5634,-393.0102,-499.8497,-432.9602,-394.9489,-297.5627,-371.0232,-708.5250,-624.6602,-352.2115,-512.6212,-375.4056,-294.5264,-618.1144,-406.0428,-240.6663
-721.5217,-631.4464,-619.1053,-610.7067,-394.8329,-449.8824,-460.7894,-308.5012,-352.6542,-278.9011,-689.4851,-590.4752,-347.8846,-455.6367,-419.2993,-252.2588,-588.6547,-322.6119,-297.8201
-676.0195,-528.0490,-552.7639,-538.8077,-393.2445,-375.1961,-464.4851,-229.7653,-423.9539,-198.5100,-645.6219,-508.1586,-350.7604,-372.7245,-422.5684,-199.8162,-495.6870,-279.1504,-331.1103
-582.6472,-420.4126,-387.6203,-431.2595,-336.5070,-344.1334,-411.5461,-248.6638,-386.3152,-225.3643,-563.6291,-404.1418,-309.2597,-319.4085,-349.8824,-191.9617,-312.8092,-278.4680,-305.4739
-430.3593,-343.8112,-234.2437,-306.1636,-258.3120,-374.4769,-340.6175,-328.6470,-287.0341,-318.6454,-422.3033,-311.5944,-242.0636,-314.2035,-258.1951,-222.1932,-167.8584,-299.3167,-276.0164
-296.1212,-304.1284,-227.5138,-240.3579,-224.1004,-454.1567,-321.7546,-390.5917,-242.1833,-385.1270,-292.5156,-263.7864,-204.3893,-352.7856,-212.6417,-255.2854,-150.4643,-356.3605,-291.9769
-292.6418,-298.3610,-278.6615,-257.4180,-253.5709,-540.7993,-361.6409,-420.3384,-247.2718,-406.3536,-291.4627,-264.8330,-227.3327,-400.7626,-227.5102,-278.4461,-173.6254,-437.9274,-311.1894
-327.0762,-286.9583,-245.7070,-269.9512,-302.4408,-555.2931,-372.3245,-410.2058,-214.6088,-387.0327,-330.3078,-259.2502,-280.6904,-396.7686,-244.9485,-273.1113,-150.2622,-473.4794,-272.2086
-250.7825,-236.6725,-183.3432,-224.9756,-310.2404,-458.7543,-312.9317,-332.5474,-135.3963,-302.8014,-255.8464,-210.8827,-295.2281,-315.7024,-201.1013,-213.3284,-139.7363,-435.4734,-204.1038
-211.2949,-193.0352,-187.9323,-185.7825,-268.9830,-304.2758,-271.1667,-207.6146,-76.0303,-169.4566,-210.1697,-172.5630,-243.7767,-205.7607,-149.2094,-123.8583,-204.2246,-369.1933,-162.4168
-354.3557,-214.4805,-217.2039,-202.2106,-218.1616,-170.3295,-288.2221,-96.0900,-52.5264,-56.8259,-344.5371,-195.5498,-174.5728,-135.6588,-171.5425,-63.0467,-273.7583,-306.0551,-124.6438
-441.1493,-271.2985,-222.4150,-233.6708,-188.5670,-82.4535,-271.7426,-32.9471,-34.3865,-6.0040,-430.5715,-239.2997,-151.0981,-112.9153,-191.8292,-41.2938,-260.9648,-234.5377,-57.4927
-299.5672,-291.5486,-236.1557,-243.6134,-178.7562,-24.0017,-174.4675,-11.2314,-20.3049,-0.4728,-294.5789,-243.3329,-174.8110,-85.2555,-96.2802,-25.0139,-197.4875,-140.5564,12.3463
-173.5416,-264.2468,-260.6033,-249.1149,-148.5221,20.4885,-48.2571,10.1041,2.8121,8.8877,-170.0830,-216.5167,-173.0384,-29.4356,54.6369,2.3921,-169.3359,-29.7606,75.2644
-216.0906,-232.9814,-253.9591,-253.3864,-55.8250,65.5677,81.3420,78.8801,82.4697,77.5313,-208.4050,-196.3436,-91.8583,25.5751,147.6658,41.7207,-192.5837,74.6489,158.9440
-251.9337,-212.0874,-234.7448,-227.5558,49.7801,129.4055,188.1813,185.3358,189.3643,197.1151,-239.7947,-178.2834,8.7765,71.6180,185.4345,93.8203,-224.7619,152.8897,228.4252
-211.1673,-174.0553,-266.8667,-175.2351,63.7147,194.5695,191.0853,253.4960,212.2130,270.5006,-195.3902,-141.2124,32.9068,114.5688,189.9956,132.8676,-242.2878,199.3779,204.4761
-189.3043,-126.0153,-342.1641,-140.4043,-2.2420,202.6789,88.0087,234.7386,133.6960,245.7571,-171.5274,-105.0346,-7.1029,113.4483,139.7108,123.8712,-242.0470,196.4164,108.0626
-159.6602,-116.9500,-358.5775,-140.3862,-32.8630,135.7535,3.8255,176.6389,73.3837,201.1900,-145.9647,-103.5674,-30.5539,52.6236,70.4546,86.0268,-210.9582,131.7641,58.2949
-77.1675,-141.6234,-244.5068,-147.5513,5.9040,56.3135,23.1188,155.9506,108.3600,204.3830,-71.5581,-121.4242,-12.1565,9.8205,62.2956,72.0688,-147.3502,53.8467,97.9147
-8.7274,-130.8186,-64.8952,-130.8618,59.5182,21.0433,102.3253,170.0523,179.4409,208.3860,-8.1147,-110.2022,30.3642,33.4697,120.1868,86.6892,-73.8292,14.6522,139.3759
38.9955,-54.2988,54.3691,-68.7353,98.5628,9.3502,151.3226,156.1114,205.1221,164.5968,35.9671,-46.5778,78.5429,60.9677,171.1927,88.0815,1.1667,-16.8785,120.2192
105.0146,56.4521,77.7343,46.8844,104.5537,-19.0894,126.9685,102.2137,180.9924,103.7573,94.6462,56.8407,91.3992,41.0750,145.9558,56.8690,81.2674,-68.1398,82.6809
138.0782,169.5989,68.7283,179.9637,60.2553,-47.6908,68.3394,59.1256,142.0940,66.4872,122.3250,166.3370,51.4715,11.3639,40.4774,16.8563,141.7569,-68.8385,61.7481
134.1469,261.5967,90.8695,270.9168,18.5536,-31.1587,40.6628,49.3910,108.0860,58.8048,120.8264,244.0825,19.0816,19.7133,-59.8930,0.1909,169.9805,29.1569,46.1754
196.4861,306.9040,158.6710,301.7905,45.6090,32.2120,58.1599,49.1582,92.5717,65.8819,185.4673,278.2160,43.3669,68.5249,-50.7581,14.5389,215.1365,148.7334,65.5632
320.3107,302.0547,244.6836,291.6497,117.9982,101.1540,118.4269,45.6148,109.8689,57.6069,303.9170,279.8613,93.5933,123.6288,62.3435,37.2343,307.2687,216.5347,146.1546
371.5789,264.3821,306.4065,257.1458,182.1778,148.5933,225.5782,43.4399,146.7626,24.7291,349.8086,251.6917,136.8370,138.2747,157.5774,41.4633,383.1727,265.3496,214.3548
306.5905,212.5871,323.4849,223.9854,222.3587,179.2991,312.5506,39.4277,164.5291,-1.8019,288.1661,203.2224,172.8504,110.4029,148.3947,27.5532,376.8366,323.8028,203.8796
216.9227,165.2416,301.7679,216.1875,222.1788,198.4998,293.5271,25.7326,141.8733,-13.4637,205.7576,166.1547,179.6648,92.9017,89.6298,14.2036,313.4937,345.3033,163.9829
184.9877,133.3387,257.6256,214.6219,177.9614,199.6307,218.8534,3.9429,98.2360,-29.4674,177.4722,152.8084,137.4808,113.2985,89.0657,13.0374,249.7035,308.7036,151.5767
198.0032,127.4192,217.1723,194.8544,130.2589,184.6553,193.1859,-0.0390,74.5222,-23.9437,191.5912,153.3038,82.1270,151.0306,155.5674,30.9557,198.2856,256.5107,150.4397
191.9827,162.5720,191.7715,173.5108,95.4541,168.6245,186.9049,39.9674,82.8335,31.7560,186.7848,170.7795,51.3117,189.4006,207.1784,68.7087,154.6222,196.4435,132.7103
150.6072,205.1361,165.5427,157.7084,47.6769,156.2841,119.3656,88.7618,80.5000,87.4403,145.6540,188.3493,29.2403,212.0122,199.0688,102.9789,122.8328,94.1920,85.1285
121.8837,183.1992,147.7225,125.6258,-3.6167,132.7068,30.0488,90.7793,38.4640,94.2307,116.6306,161.0965,-4.7559,196.3201,156.6200,107.6712,97.9923,-18.1370,19.3339
138.0747,112.4550,164.1036,90.2427,-26.3093,98.5612,3.8389,74.2368,4.6494,81.1145,133.5541,104.5397,-32.8087,161.9703,115.4966,93.9279,75.4040,-60.9801,-5.5818
178.5447,84.5331,170.4675,86.4440,-29.6927,98.3752,32.1564,88.6537,16.8602,74.0591,174.3021,86.0310,-37.0493,151.2613,101.0919,89.2167,61.1642,-34.1139,27.9144
189.2808,100.1303,101.2644,94.6098,-28.0935,161.9411,61.9992,103.7389,28.0661,69.7476,185.4993,100.3171,-29.5911,162.2351,120.4703,96.6075,36.8147,9.3210,50.8890
122.2427,80.7036,-0.1247,64.2806,4.6241,234.9941,103.4947,113.8378,23.1777,109.2900,124.0863,80.8820,-10.1369,172.6588,150.1966,113.0164,-32.1401,73.6354,51.5834
18.8762,22.8149,-36.8538,-6.8360,91.5168,245.7422,197.6443,178.9170,73.5540,212.9650,29.7838,20.5752,56.1213,178.1630,181.8832,142.7077,-112.5874,166.8247,94.3611
-16.6849,-19.4689,0.3299,-69.4507,203.2324,210.1609,308.4294,252.3550,175.1525,278.5376,-2.6750,-30.9818,166.6885,167.1803,232.8093,162.4721,-115.7261,224.8421,149.2740
10.5499,-28.3761,54.8632,-71.4805,275.9949,189.3715,348.8756,226.1648,223.0679,224.8028,20.6736,-41.2464,248.4337,137.3026,272.5551,141.2966,-31.8926,226.0770,131.4899
17.2465,5.5103,98.7047,0.8384,280.8952,198.9089,318.6558,165.5550,209.1082,150.9461,24.2051,0.4950,259.0563,126.4160,247.1797,106.8267,61.0723,247.5058,82.5634
39.4498,89.2682,139.3624,107.2801,254.2398,224.1573,290.1583,191.2031,229.4316,174.0891,43.5011,83.9942,238.6612,153.4348,188.2121,109.7923,131.1122,296.3791,94.2718
143.3879,169.4528,181.3895,179.7212,222.0581,242.5308,261.9164,231.3171,289.2505,228.5061,139.9175,157.0707,212.1024,179.0083,165.7775,134.0983,188.4667,272.0378,137.3845
237.9653,177.3785,208.5088,169.5166,159.5851,207.6001,183.5582,180.5666,300.1183,200.0205,229.3015,160.3066,159.6050,166.8965,165.5310,128.8831,192.8416,165.2523,119.5067
231.8959,118.3507,204.2352,84.8309,80.2948,105.8171,88.1098,99.3003,234.8587,121.0467,227.9811,92.0550,101.4362,120.4271,136.7890,94.9451,127.3746,76.3624,25.1908
193.4860,53.7816,179.9893,-3.5865,37.5066,-1.1539,34.3330,53.3057,148.6984,73.4230,195.0535,16.8611,69.4435,59.6334,92.3503,62.6656,70.2153,19.0896,-66.8183
189.0455,33.7421,147.2604,-25.5291,3.0651,-64.1720,-2.2674,13.8108,101.3317,48.2603,186.8385,0.7028,24.4033,12.2992,61.8239,37.6817,56.5113,-69.5107,-77.4011
191.3002,61.6528,100.9266,10.7094,-86.1226,-92.7623,-61.8519,-18.0408,97.3143,19.4106,183.6709,37.7164,-64.7069,-3.4498,21.8540,19.0148,27.5888,-159.5254,-45.4821
184.6565,93.9293,67.2770,41.7919,-186.6935,-89.4236,-137.7579,-28.7805,66.2263,-3.9950,179.3494,64.2426,-141.5594,-3.4353,-56.5510,9.3749,-15.3095,-172.9350,-80.0778
166.8209,80.6613,71.3522,24.7242,-219.0749,-59.7838,-209.4152,-63.1721,-30.4010,-44.2471,166.7545,40.6658,-156.3983,-11.7778,-130.6637,-5.8377,-17.1684,-133.0786,-159.1586
125.2587,14.9667,60.5413,-41.8052,-182.5196,-62.2734,-223.9686,-122.5239,-85.4238,-115.0239,125.9611,-18.8811,-124.2529,-35.1646,-109.5575,-34.6146,-7.8292,-116.1897,-153.9343
100.1181,-49.9049,-1.7589,-109.1152,-97.0595,-125.1381,-121.7445,-148.8037,3.1946,-152.4444,98.2410,-67.5318,-58.3133,-72.3678,20.0868,-55.8615,-32.4034,-127.1993,-69.5727
125.5486,-38.2090,-49.7163,-101.6287,17.4608,-180.1382,36.7381,-139.2278,134.6963,-120.1855,122.1107,-52.4606,31.4806,-105.2186,137.4271,-56.8111,-50.4526,-114.0174,-26.3168
142.9032,40.4295,-44.5310,-29.4388,92.1979,-169.7403,113.0545,-113.7976,152.6541,-70.8133,141.0969,12.4742,96.3655,-104.5874,133.4390,-48.3122,-35.2433,-52.1623,-40.4662
111.5241,69.6480,-18.1359,5.5667,96.8616,-128.5696,85.1716,-57.4079,78.9842,-29.6428,113.2155,34.1229,107.7216,-74.3558,59.3306,-32.9826,-8.4014,19.6310,-51.6011
90.2731,17.3098,54.8531,-9.3600,94.7429,-105.8176,38.6419,0.1047,22.2553,15.0985,93.2514,-4.5346,101.0743,-36.0631,28.9916,-9.3823,49.3520,45.7645,-64.5431
135.2917,14.3265,193.6597,26.8200,108.2700,-93.1037,10.0806,2.0899,-4.3979,22.7095,135.6007,6.2613,102.0283,14.2884,50.6302,7.1575,152.4126,37.6889,-91.6944
239.6377,114.1277,290.0668,127.9066,88.8945,-52.9011,-14.0023,-21.7822,-29.5363,-18.0154,234.4382,101.1722,86.7213,68.3013,59.9276,9.7554,254.5784,57.3884,-89.5792
357.1192,197.0182,285.1288,203.2268,48.0722,29.2075,-24.8110,-9.7958,-28.2202,-20.8726,343.1773,178.6253,47.5706,89.9680,34.0893,15.7960,342.9781,107.7490,-42.5373
414.9617,213.6523,288.9736,237.4048,42.2739,122.4557,-10.6486,38.0775,17.3708,47.5840,391.4655,200.8960,25.1503,88.9951,-10.4998,36.5323,430.4700,137.3210,15.1104
379.1328,244.4254,357.5575,279.5516,67.8551,174.0557,23.9954,99.1482,62.7712,110.2257,353.1170,229.0607,48.0244,109.3197,-56.2154,60.6927,461.4746,145.8911,64.6808
299.2433,293.2878,393.0212,310.4072,99.3389,162.8259,77.7264,142.5933,68.3406,123.4858,278.7834,264.2901,91.2523,136.0413,-70.3765,70.4254,405.6295,165.8609,101.5553
225.4891,294.0586,339.6968,289.2913,147.0496,117.8375,147.6105,127.2784,64.1018,111.8588,209.7261,261.4189,126.4844,125.1828,-17.6249,59.4700,339.2077,179.1001,113.6181
169.7165,255.2040,254.4077,242.7939,210.3480,80.4230,218.8722,80.8454,94.3987,88.6637,154.5851,230.3907,167.5760,89.7732,80.0341,41.8843,304.2593,159.4017,102.1744
152.8304,206.3520,192.7302,200.7709,251.5010,62.3788,254.5987,71.0908,125.7698,63.1802,140.0378,188.0174,216.1854,62.3181,137.7587,35.1363,251.9489,123.6583,77.3660
165.3221,132.8707,162.7282,139.7174,231.2904,42.6875,199.1570,75.2195,91.5257,46.3473,157.4701,117.4462,220.1305,33.3390,95.9327,30.2794,173.3632,81.4981,45.5247
145.2736,42.3883,140.1980,43.6077,150.6715,6.9131,60.9631,37.8786,19.8948,22.8531,139.7630,27.0196,155.3240,-10.8556,-3.6870,8.9434,120.2274,35.1365,29.7130
90.7900,-27.3053,101.3930,-40.5546,73.7045,-10.7726,-36.6313,8.5827,4.3051,11.7209,84.2669,-39.8943,81.0010,-39.2673,-59.6616,-9.0367,111.8334,32.5104,56.8701
76.0136,-38.7930,76.0708,-38.3660,65.2815,41.8549,2.2120,62.3042,52.9766,77.2791,68.5667,-38.2406,52.0061,-1.1382,-26.5792,18.7136,129.5618,104.4930,114.8810
126.1920,37.3900,109.9478,55.2007,97.5620,147.6403,102.5789,169.1310,90.8450,200.1481,118.3234,44.3620,55.3103,97.8636,33.9224,87.9821,155.0687,177.8033,162.8633
198.1871,146.5562,178.9004,138.9054,98.3504,215.7818,122.4212,241.7075,73.2162,267.9309,188.8202,133.7161,62.1088,168.9233,29.3974,139.4893,176.2377,164.0776,164.2486
242.5493,171.4352,215.0024,131.5626,59.7133,204.2335,33.4918,233.5765,-4.2027,234.1468,233.3627,134.6107,59.3646,156.1940,-43.4903,135.0997,182.0523,100.9277,96.7769
215.5993,124.2647,181.3585,96.1627,20.6271,186.4693,-67.5255,172.3997,-115.5495,162.5469,213.1531,88.0909,40.7875,133.2445,-91.6470,105.8311,150.7661,96.5636,-12.8481
124.8520,125.9188,102.1901,132.4969,6.2334,223.3771,-80.7332,126.3558,-174.9234,112.3651,131.9534,105.2508,26.0226,164.7184,-64.8213,92.5098,84.7373,155.1647,-81.2797
60.5790,178.4329,53.9447,212.5491,19.9314,243.6477,-19.2904,106.6659,-135.4246,71.5215,69.7887,168.4520,39.7440,177.6389,-31.8669,77.9173,47.2431,176.9538,-73.3204
85.6850,198.3620,73.8770,244.3496,39.5586,174.8359,13.9722,56.4153,-85.5366,10.4201,89.9125,190.0538,60.4294,118.7884,-47.3449,35.2311,71.7530,143.6505,-51.2141
156.6171,186.8390,104.0535,216.2104,52.6856,95.7434,3.4843,-18.9376,-86.8249,-43.0554,157.8537,174.0276,64.6893,71.1263,-42.6730,-2.6649,106.5346,149.1890,-37.9590
199.8407,164.1071,111.2453,173.6181,98.1364,96.9906,61.6487,-35.6986,-51.8253,-32.2762,199.0712,154.6199,82.1937,82.2224,43.5572,3.1023,128.4609,202.5882,28.9705
173.6852,114.4923,127.5764,141.1757,178.0365,124.2500,198.7605,20.9780,48.5520,27.1937,167.7052,122.3159,127.4732,86.5393,131.3836,28.3722,155.6279,204.6763,119.4118
81.7536,87.0680,122.4729,132.6328,208.3890,121.6269,250.4383,80.7813,78.1215,68.6417,75.7358,98.7820,157.8267,65.7883,110.2618,38.3276,147.4384,163.8069,106.7428
8.3605,128.6341,64.6881,155.7285,173.2689,142.9299,160.3683,110.9720,-6.5218,87.4927,9.9655,119.4799,157.5975,70.6346,8.7750,42.5945,102.5428,184.2526,22.7757
45.9802,163.3127,53.1775,185.6732,159.6241,194.6228,79.3525,124.3384,-53.5206,107.9126,47.5562,147.9118,155.5123,95.4097,-43.3914,51.4696,131.4824,238.8054,33.3655
150.6338,141.7388,129.1305,200.0265,161.8096,195.3275,78.8903,111.6035,10.2896,96.0452,140.7649,150.9541,136.7307,105.7698,3.1933,49.4689,238.8775,221.1887,126.6572
204.6365,145.2374,166.4913,213.6002,93.1108,143.1494,58.4086,63.9597,61.6464,40.5477,187.6157,168.0494,63.5492,109.2521,53.4168,33.4612,285.3704,152.6254,143.5223
192.8465,201.2524,137.7670,229.9509,-5.6049,102.1288,-13.3006,18.1015,8.6921,15.2932,176.4738,207.0170,-26.6226,106.3118,18.3782,21.7515,259.4967,95.0735,74.0003
167.7469,224.8447,146.7693,225.9514,-30.9841,77.3631,-57.9222,27.5617,-81.5885,66.7415,150.4381,214.5503,-63.6250,90.6259,-52.9859,30.8470,257.1790,20.9057,18.6270
122.2615,201.6062,154.5193,210.0369,-10.3280,70.1813,-73.5423,99.4392,-123.6817,153.5791,105.3709,191.3096,-49.0958,93.1423,-85.8162,63.0911,240.9886,-61.1390,-14.2271
34.8258,188.2460,66.5842,197.1242,-12.4090,101.4911,-105.2192,174.4605,-123.7123,217.6149,25.2713,175.5157,-26.4927,112.4849,-107.2985,95.0569,138.2593,-85.9301,-39.1098
-49.9765,154.0603,-29.9590,138.6801,-17.2241,104.4024,-110.6253,187.5892,-119.7154,216.2758,-53.2230,132.4464,-9.4848,86.2209,-135.4556,91.9628,15.1123,-97.5350,-24.4309
-77.7575,49.4776,-41.4600,8.6277,-4.8118,5.5451,-46.4908,130.8947,-108.8566,131.9791,-80.7096,26.6862,0.8323,3.9304,-103.2516,51.2325,-53.3781,-168.6963,-4.7518
-54.0914,-42.6096,-28.9618,-94.2524,8.2989,-111.9868,36.5019,35.5756,-72.7745,10.6874,-57.1923,-60.1517,7.2631,-69.8772,-11.9454,0.5879,-76.6051,-219.1745,-31.0890
-29.7510,-32.1634,-35.2544,-83.4964,40.5772,-131.9901,86.3542,-56.5049,-31.2050,-74.7121,-32.2428,-49.0328,35.0761,-99.6965,37.8704,-39.6921,-65.5405,-164.7932,-41.7955
-48.0953,8.6563,-39.9469,-32.1145,89.8244,-84.0239,98.4112,-97.5846,-19.9057,-100.1398,-51.8787,-5.6414,76.0644,-98.2312,28.6716,-58.6076,-36.9776,-90.7703,9.2241
-90.0730,-6.9391,-58.0503,-28.0064,93.1235,-50.6633,69.6195,-82.4058,-29.8790,-84.7702,-95.3875,-7.4822,72.2321,-76.0933,31.4663,-51.2425,-23.2239,-84.0016,50.0306
-93.6981,-13.0004,-69.8868,-22.5102,49.3360,-37.0805,22.6068,-55.9563,-21.4405,-54.2166,-99.8405,-3.3325,28.0616,-39.7923,48.1301,-31.7355,-9.5110,-92.0878,52.2805
-62.0454,40.5381,-30.5752,30.5925,26.4399,-6.3292,5.1504,-23.3344,15.5967,-20.1521,-68.7665,45.7882,14.1516,1.5949,33.9283,-11.2147,12.9964,-61.4061,76.5417
-54.7425,58.8642,1.0258,63.0119,20.7493,57.4059,6.3236,36.2000,58.3193,21.2630,-61.1226,64.2864,22.4537,35.6472,1.9967,14.5179,15.8686,-25.7881,117.4450
-37.2297,25.7307,-11.2236,53.0715,-6.5387,120.9610,-10.6350,63.9408,82.1310,41.1114,-46.7247,41.7704,-2.2209,41.5187,-9.9284,28.8417,47.0291,-22.1040,119.3039
90.1721,90.3699,44.9343,107.0266,-5.5508,124.0161,-9.3578,5.6860,76.9529,-6.2932,69.9231,100.5373,-12.8912,31.1632,15.5507,12.2378,177.6014,-44.5844,99.0919
285.5259,275.7092,208.3713,260.9448,67.6447,77.2946,49.7407,-57.2724,62.9250,-65.3800,254.8452,262.6483,47.3338,57.5649,76.2760,-2.2222,330.5227,-62.6393,101.3376
403.8766,405.9948,338.8424,385.5479,138.7624,62.5978,120.3182,-39.9720,80.0752,-35.3650,371.4441,381.3238,106.0076,116.2037,124.5175,20.7201,381.7546,-46.9971,127.0180
437.0620,417.6845,350.2147,388.2522,142.1987,84.5355,160.1481,1.8992,131.5985,28.3703,406.1151,387.2735,104.9627,129.0432,117.7932,46.1136,344.0376,-21.4554,165.3596
476.1117,422.4176,291.4957,340.1584,127.5971,66.8859,193.8310,-2.8453,171.4452,7.5253,443.5830,371.7476,106.3479,83.6135,113.2079,35.8453,291.2112,-41.0157,200.0898
489.4844,444.9818,205.6981,317.7734,144.4358,19.3159,232.9297,-17.0834,172.4240,-30.6345,456.4127,382.6030,130.6590,62.0719,178.4437,25.0435,240.2635,-85.5484,208.6863
390.4234,397.2075,112.0601,280.8412,151.4158,29.3457,245.3696,18.2337,154.0136,31.0979,362.2267,352.4537,113.2474,96.6806,249.9997,52.6887,179.5038,-87.3037,197.9301
243.1871,282.2842,50.7442,195.4033,102.8947,91.4670,205.3389,83.9918,125.9590,107.0634,223.1210,256.4624,59.5897,126.7010,227.1537,87.9136,106.2523,-67.8091,169.7883
176.0051,200.3505,48.3687,128.5946,31.0729,110.8312,118.3886,105.6135,70.3466,78.4307,162.6433,173.4329,28.8661,112.3643,133.9353,86.0148,48.5088,-98.3356,98.2474
181.3118,190.4207,99.8236,129.8396,-0.3738,61.3438,33.3909,50.2650,0.3769,19.0479,169.6136,159.3181,15.8712,82.7491,65.2621,57.8175,50.9704,-160.1800,17.2406
170.3169,194.0087,157.9225,146.1913,13.0920,7.5565,4.4840,-13.2081,-33.4792,24.4083,156.5186,168.4505,-1.8871,63.1611,42.5613,39.2434,80.1125,-199.5439,0.8919
127.6233,153.4687,145.5529,123.1533,5.0939,-25.9544,-1.6895,-19.9809,-26.3409,38.0441,113.0469,137.2864,-21.1787,28.9395,8.9324,28.3672,53.8500,-241.4608,12.5283
100.9321,89.1217,71.6529,78.4532,-63.6569,-95.4283,-55.5918,-29.4642,-30.0747,-7.2714,87.5754,79.0088,-63.0606,-43.1534,-60.4614,-4.7882,-0.5087,-309.1208,-38.9745
113.0602,60.3747,42.4283,49.1764,-134.3527,-210.2438,-119.1636,-99.8699,-50.4012,-77.2398,100.0818,49.2217,-122.7996,-111.3423,-103.3858,-54.8297,0.0349,-341.1016,-112.5341
131.1685,72.2272,71.2222,51.3699,-143.0065,-268.7827,-117.2863,-150.6449,-33.4367,-119.4989,119.2592,60.2913,-136.5624,-109.8248,-67.3370,-76.7095,21.9661,-298.2600,-110.4298
89.5557,71.0707,47.1561,69.4579,-124.5024,-210.0680,-85.4136,-107.3993,22.0791,-109.3379,81.8755,71.2158,-108.4146,-53.9484,-14.5217,-55.5044,-15.0290,-229.5277,-50.5258
-32.4661,19.4513,-61.8423,43.9380,-129.3254,-123.5281,-65.6405,-25.1129,58.3877,-37.4461,-35.4384,36.0329,-113.9981,-31.8185,-31.8449,-27.6769,-94.5367,-168.1227,13.4512
-154.7634,-67.5605,-158.9395,-55.0326,-119.6147,-92.9855,-1.6478,43.7367,68.6137,61.6149,-155.2870,-48.0909,-134.5958,-69.1479,-84.7486,-15.0730,-157.2426,-91.8092,95.9686
-193.1312,-138.1781,-172.4556,-151.3039,-50.9316,-54.7793,119.7648,124.6554,98.5902,142.0111,-192.2251,-124.8126,-88.8516,-85.7298,-81.2992,9.3705,-182.5125,-3.6671,192.0863
-183.0012,-154.5993,-134.3895,-166.7156,31.8706,61.1900,210.2605,226.7240,161.7209,220.5283,-180.6859,-141.4855,-5.0171,-25.8401,-23.6260,67.1012,-178.4381,62.0037,258.6146
-206.4113,-140.6297,-130.0421,-136.4550,63.7446,181.3861,224.6196,318.1513,230.2698,317.2408,-203.6436,-119.8156,29.1823,53.3521,18.2386,128.5520,-175.0041,91.1440,302.4888
-251.9053,-133.2122,-197.6734,-118.3100,44.7789,204.1971,187.6563,368.6812,264.8423,371.3066,-249.6023,-103.2605,15.1590,79.8248,25.0039,150.5897,-191.7814,80.4401,327.7957
-251.7377,-126.0177,-259.0605,-104.8928,17.8696,149.8051,126.3333,357.3500,240.9525,336.5622,-249.4137,-91.9819,5.8666,67.9903,31.8447,134.2836,-194.5252,39.0913,284.2779
-187.1395,-127.0768,-209.4631,-95.8089,24.2489,99.8019,100.0794,306.7839,198.0718,282.3964,-184.8727,-93.1282,15.8782,56.0927,53.1045,115.3034,-142.4102,15.7335,195.5236
-85.0132,-152.5469,-60.8288,-107.9404,73.2865,85.5903,154.7768,279.7849,197.6845,283.2165,-86.1304,-119.0689,39.0796,42.0356,64.9145,112.9175,-40.2928,39.8674,165.0441
7.8947,-133.8342,98.7348,-97.4529,120.5569,100.9134,207.6553,288.3552,213.4504,306.1696,0.5464,-110.8976,69.1883,47.1030,57.2099,124.4529,72.7992,59.8916,188.4171
39.8206,-27.7862,213.5159,-25.6615,113.6449,134.7744,161.9187,292.8264,186.5536,298.9344,29.5591,-27.5225,82.5117,109.4596,52.9489,146.8946,135.9568,15.6868,170.5342
29.2631,43.3209,248.0603,38.2376,61.4008,146.4889,74.9330,281.4181,149.3275,272.0847,20.1286,36.8681,57.5857,166.3693,55.7063,161.5534,120.0189,-74.8919,116.0693
57.4613,-7.2028,192.7314,19.9159,16.0415,94.4833,50.4374,247.2066,153.0511,229.0846,46.3226,3.8495,13.5735,116.5554,45.1821,134.8587,85.2465,-147.1045,94.7679
118.2037,-65.7380,127.0689,-34.8655,15.7013,10.3808,92.1712,156.0532,167.3426,132.5878,102.2323,-48.1962,2.1321,5.1979,44.6299,68.9308,92.9809,-155.1706,93.4541
119.2169,-46.1469,142.5481,-44.1680,67.6277,-37.8376,154.7688,23.1485,155.1898,-6.1479,104.4559,-41.5049,50.3594,-44.6328,89.5472,5.5979,115.1254,-98.1644,67.1568
61.3669,-14.5831,200.7250,-4.3701,139.2366,-32.8859,200.6391,-64.5796,133.2109,-98.2550,53.9838,-11.3397,120.1623,-23.0344,138.2491,-25.3081,115.4266,-9.6975,37.6121
23.1014,1.4389,182.7673,45.0659,169.0293,14.4468,206.2491,-48.8817,128.2249,-86.5654,21.7386,15.3741,150.6744,16.6984,143.1814,-18.2804,96.2219,81.5536,44.2957
-2.5481,37.2186,56.5518,83.4105,131.7345,92.1911,196.4109,29.6708,152.5578,-26.1492,0.2221,54.0196,127.8914,64.4456,142.4858,13.4347,40.0949,161.2595,74.2759
-59.3753,60.5929,-84.2036,100.0965,64.9014,140.0993,191.9884,73.0999,168.4251,-8.0019,-51.6311,78.5829,77.5859,92.5056,148.1827,28.2872,-42.2282,205.7332,74.4155
-112.8652,42.1908,-135.1404,87.7215,17.4738,107.1044,143.0894,40.3655,92.4562,-36.8234,-101.0109,61.0869,31.6382,64.8957,92.5444,3.3020,-75.9651,208.1782,14.5769
-129.1140,20.5084,-97.2450,57.2731,12.9607,55.6696,37.1328,-1.9514,-55.0575,-53.2790,-114.0769,28.1667,28.0877,34.8612,-0.0978,-19.4845,-54.1282,194.6051,-66.3740
-129.1792,1.3380,-56.7865,25.3569,33.8235,58.4387,-48.7316,0.1554,-135.5450,-50.6769,-110.7359,1.0553,65.3398,60.9475,-3.3699,-4.1970,-50.8199,158.3527,-118.2778
-113.4435,-33.3937,-59.4104,-5.7407,21.2974,75.7234,-91.3882,1.2446,-120.6442,-66.5546,-95.4710,-24.3138,67.8400,97.4210,78.9344,18.5696,-65.4107,69.6222,-148.4311
-76.5117,-47.9679,-60.8330,-30.0570,-35.8231,69.0285,-127.1230,-28.7054,-110.2322,-93.8433,-64.6683,-34.4554,9.7492,95.5210,113.9026,19.1099,-45.0166,-24.9610,-160.8553
-46.9682,-18.4616,-13.5813,-20.0098,-45.5473,69.6406,-123.0203,-50.5041,-111.1825,-112.9860,-40.1091,-15.2953,-1.6636,79.7393,82.6883,9.4686,-13.8831,-52.7861,-134.1942
-16.6993,26.5096,58.4463,36.2789,43.3310,62.8262,-55.4243,-64.6309,-68.9429,-143.2661,-8.9098,22.7043,96.9700,67.4352,81.3228,-3.6838,-13.6607,-37.8526,-113.7597
35.9232,61.1779,90.2170,91.5151,135.0652,9.9695,-8.3005,-99.2853,-27.4269,-176.8595,46.7408,55.7121,197.4206,44.5728,113.7360,-23.8030,-21.0084,-31.0050,-149.5889
45.6194,57.6602,46.4839,83.0617,142.1955,-39.0882,-28.0659,-126.0608,-24.6699,-176.1052,57.0800,49.3173,202.0564,5.5398,96.9160,-43.6151,-25.0161,-17.2971,-170.5903
-40.8694,1.3233,-42.8873,18.9731,101.5509,-40.3155,-57.5868,-135.3831,-16.7949,-169.4023,-30.1600,-4.9424,157.3644,-50.3585,22.0800,-67.1885,-56.6707,9.1194,-124.7054
-140.0727,-53.3275,-107.8001,-35.9957,59.7612,-37.4543,-72.8993,-166.3091,-23.6565,-205.2381,-128.3272,-56.3781,117.2452,-101.5676,-47.7986,-99.4217,-105.1756,25.6434,-92.7793
-157.2558,-63.3979,-104.0578,-56.0981,29.1167,-43.9266,-82.2868,-193.2396,-94.2770,-242.7578,-143.5890,-70.0677,82.7254,-109.0278,-81.4971,-116.4540,-117.1598,51.4406,-94.9440
-117.8567,-68.9046,-65.0221,-70.7306,55.4417,-29.5766,-54.1219,-167.4414,-144.3942,-227.2899,-105.7298,-77.4367,94.2422,-93.1536,-77.2437,-105.8300,-85.5456,86.1492,-51.1425
-101.7163,-92.6819,-84.8152,-95.5050,129.2926,-22.2396,-17.2046,-124.7291,-92.9412,-179.3716,-93.2354,-97.2264,161.5537,-101.3970,-33.2083,-87.5629,-76.7929,60.8976,0.9613
-154.3774,-118.2655,-215.2479,-122.9132,121.0656,-46.1940,-72.3385,-89.7976,-36.3482,-122.1359,-144.8191,-115.9278,167.0463,-107.4718,9.3078,-66.4051,-148.7762,-34.3119,-29.9728
-243.8393,-170.1778,-371.7101,-164.0471,-15.1901,-68.2700,-205.9435,-36.6140,-72.1539,-62.5571,-229.8153,-151.8684,44.9455,-86.6834,-11.3088,-40.8814,-254.4609,-124.4661,-83.6110
-266.6363,-239.7463,-417.5052,-216.1264,-143.8518,-95.5992,-293.0245,-14.0586,-133.6653,-52.2749,-253.6379,-205.4892,-85.3053,-93.8108,-70.0526,-39.5755,-287.4901,-188.6288,-90.2346
-187.6719,-235.1966,-348.0973,-221.8788,-182.6254,-149.5767,-305.1288,-76.5247,-149.4000,-111.5216,-181.3129,-207.3103,-128.0980,-138.9965,-100.0162,-69.7723,-231.6327,-251.2383,-111.9953
-115.3628,-150.8715,-273.4626,-156.0982,-207.9466,-174.4579,-322.3002,-137.5709,-170.8182,-155.4105,-113.3835,-140.6382,-150.9268,-153.8021,-134.9578,-90.2909,-168.5835,-286.4957,-168.4816
-127.2437,-106.8783,-234.3606,-100.1859,-255.7925,-150.6733,-364.7544,-119.9165,-236.0064,-126.6417,-126.1901,-99.7230,-204.2034,-138.2237,-224.1778,-85.0616,-134.9830,-279.6755,-189.9651
-164.6957,-146.1843,-187.1632,-125.1999,-260.5350,-155.1006,-367.2760,-94.2587,-273.9518,-89.7588,-165.7188,-133.6873,-228.5986,-150.3087,-280.7262,-83.4601,-91.2812,-271.4978,-175.0114
-173.8129,-188.1049,-131.1446,-173.0522,-208.7623,-197.0303,-297.6456,-111.5435,-232.5328,-102.1194,-178.1765,-174.5761,-195.6517,-180.8905,-237.7837,-96.5895,-32.2802,-265.2203,-160.6743
-171.6870,-185.2531,-102.3501,-165.6250,-151.5820,-204.4558,-204.9645,-116.8543,-174.6411,-119.6586,-176.4479,-171.3418,-145.7558,-194.2409,-199.7224,-106.3838,-14.1274,-223.9594,-135.2915
-173.9539,-164.6585,-94.0514,-135.8435,-105.3004,-176.5425,-144.6406,-86.3487,-158.1527,-85.5100,-173.7059,-154.2107,-101.7050,-186.0640,-221.7680,-96.7347,-62.3234,-156.6620,-104.2024
-193.5408,-144.3149,-84.0028,-133.9968,-75.0701,-139.6181,-107.9435,-39.1085,-130.5880,-6.5569,-185.4857,-142.2480,-76.7723,-129.7309,-190.3506,-56.1985,-127.2261,-87.9920,-80.7589
-219.8566,-112.9976,-76.3541,-120.2726,-83.0523,-63.6717,-65.3812,33.0839,-47.1619,73.1588,-207.4237,-110.0546,-88.4971,-20.8801,-85.5511,4.9862,-144.9865,-9.4825,-34.4282
-165.1460,-76.9473,-75.0458,-66.3204,-97.9952,22.0908,-31.6027,94.4076,19.5045,101.5562,-155.0205,-65.1209,-97.7338,41.6162,-40.2928,37.4757,-104.2693,59.4080,14.6194
-8.3039,-74.4654,-74.5225,-41.7731,-62.0742,20.7742,-27.0719,60.3395,-1.0170,41.6995,-4.3159,-61.6824,-53.4836,-17.4828,-68.7940,6.1866,-38.0302,64.6870,-3.1513
82.7888,-122.4175,-80.6080,-96.9508,-13.9693,-53.4105,-37.2252,-45.9368,-59.7761,-66.8549,81.9753,-113.6971,-6.2578,-116.2212,-68.7276,-52.4479,6.3775,11.4127,-59.6680
-6.0695,-176.7146,-115.7765,-173.7195,-47.2076,-95.2446,-58.8002,-94.5102,-86.1653,-109.0947,-5.6751,-167.8070,-43.7980,-140.2457,-47.7714,-71.3527,-25.8610,-39.6135,-87.5652
-125.4671,-190.9678,-201.2850,-204.8416,-153.0570,-90.4833,-115.5390,-43.9094,-106.5089,-36.1068,-117.1913,-183.7533,-144.6223,-103.6746,-75.0686,-38.7232,-140.4082,-67.8388,-125.5936
-107.9219,-170.1227,-300.8009,-189.1182,-233.9015,-89.4177,-204.9536,18.3896,-182.2306,55.1490,-91.8641,-170.5556,-212.2540,-82.8865,-141.2108,-4.0556,-239.6250,-89.4012,-213.3300
-22.4801,-126.7506,-308.1518,-132.9209,-244.4766,-76.2191,-284.1261,36.9277,-279.7896,73.3914,-4.6854,-134.0555,-207.6697,-76.7759,-214.0296,2.2900,-229.5027,-86.8418,-278.5985
-0.8771,-63.9680,-183.7426,-42.6444,-214.6100,-26.0446,-304.3213,42.7375,-289.2883,57.6165,15.4158,-72.8924,-165.1960,-37.5650,-262.5469,4.4908,-153.4684,-49.1159,-260.4141
-11.9412,-13.5119,-52.3013,17.2458,-174.6085,-1.6134,-246.6982,39.8234,-190.3791,48.8500,2.2976,-22.0149,-124.6452,6.8923,-224.5414,14.0990,-112.4075,-37.2607,-198.6653
27.4267,-2.7845,-46.7498,-7.3892,-136.6361,-60.6178,-150.6645,-19.0997,-100.4503,-4.5543,37.6099,-15.5706,-99.0266,-14.2587,-103.5827,-1.8726,-122.3314,-86.5567,-162.2904
73.5507,-17.5693,-129.8922,-59.0574,-108.1361,-144.3978,-85.7801,-117.5313,-97.8909,-106.2275,82.1845,-34.6527,-80.6639,-75.3495,1.3207,-46.7880,-149.1006,-118.6638,-186.7068
39.7181,-48.2841,-178.0155,-68.8747,-84.8050,-167.4004,-77.7223,-172.1980,-127.3188,-162.8995,54.5887,-56.0050,-58.1991,-91.4710,34.6247,-73.1870,-185.0108,-83.7029,-246.3847
-35.2886,-89.1122,-147.1224,-75.0251,-61.2750,-142.7965,-94.7937,-166.7797,-133.9850,-153.7330,-13.8956,-85.7664,-31.3748,-70.2906,19.7741,-67.4510,-214.8273,-52.4747,-261.2526
-41.4586,-94.2906,-77.2483,-100.7616,-40.6843,-115.8783,-90.0523,-154.2922,-130.9064,-153.9046,-21.6749,-101.5829,-4.6458,-66.4037,-13.1928,-63.0414,-198.9769,-40.1422,-197.1547
26.9450,-41.8614,-22.0514,-67.9911,-24.7171,-69.2150,-48.3353,-144.0289,-131.6783,-172.7636,42.7720,-62.0882,13.1770,-56.0631,-39.6999,-66.6574,-137.1992,44.5356,-122.7845
76.7196,8.9085,-17.2591,22.6737,-32.8700,-3.1137,-28.9474,-121.3560,-161.0835,-157.5243,93.0589,0.2395,-8.6221,-14.3348,-61.9137,-61.1231,-86.0666,171.4957,-105.0521
66.4270,9.5221,-54.5890,40.6962,-94.0570,14.9530,-99.9331,-118.5063,-243.2458,-126.7115,83.1569,10.9893,-86.2603,5.6677,-105.9585,-55.7862,-77.6674,189.8359,-125.1373
35.5546,-11.5301,-84.2033,-30.2327,-172.0582,-29.0461,-205.7946,-154.1136,-310.1714,-142.5219,47.6988,-21.3707,-163.1230,-16.1155,-132.6835,-65.8694,-63.0055,96.8441,-145.0385
11.3549,-19.9506,-85.3778,-57.5780,-196.1613,-70.4034,-242.9007,-188.6022,-293.3806,-195.4084,17.6802,-30.8791,-177.3104,-30.4453,-88.9386,-81.1986,-6.7172,14.5847,-173.5178
-13.4722,-18.3146,-98.9691,-15.6685,-192.1682,-87.3425,-243.3699,-196.7079,-266.8974,-222.8264,-8.3904,-12.4267,-168.4050,-27.6234,-47.5153,-87.5648,12.3323,-40.5794,-225.1566
-37.2939,-5.0772,-144.2946,6.8022,-230.6673,-97.3906,-290.5711,-189.0813,-305.9831,-202.4809,-28.0632,0.5437,-197.2061,-28.8368,-93.0642,-81.0393,-71.7398,-105.4694,-272.7997
-49.8911,25.1326,-162.0269,10.9062,-265.2854,-86.9044,-334.8788,-166.2511,-345.3297,-166.9771,-36.2494,14.1000,-216.2426,-21.5895,-162.3419,-65.8684,-157.8119,-135.1375,-276.3537
-51.3052,41.4611,-107.3284,34.7775,-211.0114,-68.5380,-283.2612,-134.3315,-312.2388,-147.4900,-38.9145,28.3093,-163.8006,-17.0657,-173.2194,-60.0443,-127.4166,-99.5112,-228.7195
-45.2362,13.9565,-38.6591,35.6620,-108.8821,-83.2791,-148.5330,-116.2985,-209.3884,-134.9368,-38.2790,12.2985,-87.9675,-48.7272,-133.9242,-70.5946,-43.4986,-41.6687,-155.8983
-36.2663,-9.2066,-25.7650,16.7107,-42.9099,-95.4411,-8.8330,-110.0235,-67.9957,-111.8307,-31.4703,-5.2176,-44.9404,-73.2799,-58.7417,-71.7762,-22.2884,15.2815,-102.8114
-25.6308,39.6692,-31.1913,52.9435,-15.8574,-53.9774,56.6022,-102.8678,21.3319,-97.1275,-17.5276,37.6023,-12.7797,-32.5084,19.4984,-50.6948,-45.8204,64.1833,-103.7133
4.5249,109.5698,18.0175,108.8254,-4.4126,-5.3689,27.4410,-101.7250,-8.0414,-106.3118,14.9341,95.4694,15.7987,25.2206,30.1700,-32.8147,-36.0443,83.2498,-116.5992
61.5550,94.8917,108.7105,88.9851,5.0048,17.8813,2.2220,-91.7123,-41.5246,-100.3491,68.4188,78.3980,20.4647,40.0715,-1.3674,-26.0689,22.2342,109.2885,-55.1443
95.1041,24.3686,178.6638,36.9207,38.8013,76.8621,54.2637,-38.7121,30.6027,-45.6950,98.2815,21.0168,34.7098,56.7457,11.2377,-3.2327,85.2322,201.1235,56.4533
59.3606,-0.8868,196.3085,37.4569,79.2429,182.0878,90.4970,35.0903,100.4758,16.2256,66.5888,5.9783,79.0193,118.9777,44.9744,37.4150,97.1404,313.1526,100.1103
8.3312,0.7354,150.8360,47.1599,67.9704,255.8107,47.8310,68.9092,87.4678,34.1840,22.3330,9.7373,88.9910,172.4870,53.6892,62.9497,52.4487,356.2159,75.8034
14.0933,-32.0901,55.8905,9.2464,18.8460,272.0296,33.4545,64.9170,106.2096,36.8027,27.1488,-15.0317,37.5975,164.7357,77.6169,66.3440,3.1930,334.3023,91.9397
37.9798,-56.2660,-15.6266,-31.9356,0.5511,268.2614,96.3765,84.1602,188.4881,78.6112,46.2086,-36.4426,0.9353,133.1928,108.7898,74.0912,-24.2980,312.4232,147.3609
25.4275,-35.7005,2.8700,-34.0206,30.9481,263.1670,140.1602,142.4320,205.1991,140.1412,34.4030,-30.1693,31.1908,134.1771,93.3800,95.7711,-33.6511,311.5751,158.3755
20.0921,-29.7565,69.5495,-21.7755,89.1951,257.3928,138.1526,179.8852,139.8375,154.9377,30.1586,-28.3244,93.7244,152.2449,83.2758,109.4009,-7.4354,285.9138,137.5202
29.1894,-62.7568,83.3074,-29.2874,143.0959,228.7910,147.2197,143.8220,98.6275,101.4854,33.8953,-45.8219,135.7104,127.1933,124.2379,90.3790,25.1237,194.3573,134.4376
-31.1608,-86.4278,26.8682,-61.5897,147.7660,142.7263,166.0071,63.6598,108.7817,20.9820,-29.6560,-66.5397,135.2697,52.2942,141.0627,41.2832,-7.3700,97.9304,124.5317
-120.0196,-82.7794,-12.6220,-83.3318,119.6591,48.7358,183.5726,9.9094,133.5917,-30.8450,-114.5319,-74.8017,114.6341,-3.9562,116.8053,-2.0286,-53.4961,104.0466,91.1855
-78.6513,-57.9020,29.6550,-47.2076,124.0313,39.4558,209.7610,-1.2349,150.8904,-33.2387,-72.1074,-49.7284,111.6396,6.7617,129.1986,-6.7416,-3.5022,176.7342,65.1786
71.1849,1.4375,109.9086,30.4481,139.1618,75.1089,200.5506,-7.1185,137.4653,-20.3578,72.5522,13.1248,115.7364,49.4826,163.2342,13.1853,81.6026,170.2478,45.2060
156.8915,78.2980,150.4988,85.5850,102.2356,42.3223,136.1308,-29.4968,99.1014,-39.1435,155.8134,76.2779,94.6503,66.0880,151.0095,16.8764,78.5332,74.3040,12.0204
147.9154,114.6085,147.8220,92.3661,48.5014,-39.3128,86.3047,-61.8386,73.5050,-78.6844,149.1689,96.6013,62.5018,44.0553,108.7105,-3.9889,22.1113,7.3536,-19.9994
112.3580,78.2201,143.0103,54.0277,20.2682,-71.5864,72.8028,-82.2630,59.5484,-85.9525,115.1632,59.3219,30.8303,10.7954,65.5584,-20.1804,-1.6339,1.4104,-33.1693
46.6061,6.2778,137.9812,-11.1298,-20.6473,-47.3538,44.7798,-51.6541,43.6281,-44.5973,47.6785,-3.6231,-23.9598,6.4083,27.4563,-10.3103,22.2470,9.3794,-14.4648
-17.9451,-13.8120,115.2096,-23.3186,-67.2175,-3.5997,7.0674,32.4665,42.3945,16.3272,-22.6002,-10.1629,-79.1027,51.1653,28.2137,18.4998,103.6244,32.1109,42.4725
-0.1937,51.3230,85.8991,63.8735,-67.6076,58.1031,-20.3177,93.1115,36.7743,58.5910,-11.4895,67.1130,-85.4179,108.1508,46.4256,41.6024,203.9111,74.5075,85.3861
42.6487,110.0876,56.9021,136.3046,-55.5891,105.5516,-63.0663,75.0474,-7.1416,50.7959,32.2077,122.8392,-63.9488,114.4418,4.7571,37.5204,201.1304,95.0805,58.8057
8.2994,85.6868,17.0243,83.8672,-64.5852,80.5002,-86.3317,28.3990,-43.6063,3.7513,6.0051,79.4861,-46.9713,63.6647,-57.4500,12.1407,86.5009,81.1323,11.3486
-43.8675,43.4767,-9.9399,-2.6727,-35.9625,11.5836,-24.1838,7.2691,-24.9670,-22.4722,-40.9955,20.7476,-12.8541,13.0721,-39.8902,-6.0452,0.8296,66.9019,8.5458
-39.8324,51.7162,15.3972,5.3892,41.2503,-3.6070,71.1684,1.2460,6.5619,4.5132,-36.1850,29.8834,36.7400,11.4613,17.8094,-0.4144,-6.0654,81.0750,21.8083
-32.2287,73.8502,72.1432,72.2853,105.6306,59.4713,120.7648,17.3100,17.7883,57.1238,-25.8956,64.8731,77.2654,53.7566,30.5575,22.4502,2.7269,138.6549,29.7596
-36.7555,85.4795,115.5399,111.1028,164.0607,118.6663,161.4904,75.0023,38.3791,103.9608,-28.7839,83.5734,131.1984,96.7763,36.2034,47.2692,26.7286,214.9137,77.0948
1.2874,98.6259,158.9372,113.7152,236.9267,105.8070,229.0320,120.6740,74.6035,122.7828,3.9572,95.2246,195.9515,105.7699,87.0874,57.8954,90.9612,230.7688,153.2404
61.7991,71.9773,228.0480,81.6674,259.7898,56.5142,262.9607,103.1948,109.4948,100.5799,56.5996,73.0706,205.2600,86.4954,140.2085,51.9912,149.5891,157.6875,188.0684
112.4598,-7.0905,285.9685,9.6746,211.1470,37.0110,228.8630,73.0003,151.6706,77.0625,103.2803,1.7554,160.2273,63.5517,150.2076,50.2883,163.4220,71.8454,171.8350
186.8856,-42.2119,282.2050,-41.9705,161.3386,35.6927,159.2498,76.1529,174.9612,90.3311,178.3823,-42.9534,135.6655,47.6180,125.0318,61.5395,141.6008,31.9140,126.2305
249.6261,23.5997,219.4266,-6.6880,123.4487,19.1435,61.5070,82.5245,120.7682,106.5742,246.2464,0.8128,131.4011,54.0023,79.1902,69.9053,86.2981,14.8492,48.4564
213.4635,119.1645,133.7591,86.2245,62.2229,40.7163,-46.3492,103.3456,34.3514,127.1774,216.5564,89.6655,93.8696,108.9354,32.8759,84.7257,20.6881,12.6288,-6.3291
137.7167,174.7972,72.5415,163.0374,24.1358,149.6929,-67.7816,186.2606,38.7687,213.6317,140.8918,157.6741,48.8729,191.9288,26.6421,130.0170,16.2244,57.0607,41.0511
156.8441,202.1164,76.9865,198.3217,73.6464,252.9812,47.4057,266.4111,129.3545,305.2748,153.3963,192.1223,68.0315,230.6729,79.5939,171.9351,90.0690,131.8227,125.9673
249.1269,228.7646,120.9180,204.7093,173.4338,240.9659,187.5917,239.4397,170.8741,271.4626,242.1693,206.1821,152.3048,196.9998,150.3194,156.6614,159.4965,185.0285,121.5137
283.9539,241.3980,127.4981,195.8129,246.2483,178.8866,225.5877,155.4210,118.9881,174.8151,279.9807,203.8983,230.1318,146.0522,170.5983,109.9240,164.1317,214.5804,69.2961
226.2885,207.3344,89.0964,182.0059,273.4749,189.9748,196.9497,139.9195,64.2128,175.6777,224.4038,179.5117,246.2658,128.6402,128.0534,95.0076,143.1087,245.7940,92.1185
156.9010,143.1846,67.8593,159.0930,268.9065,236.7814,192.6119,188.6436,50.0331,245.2863,153.4882,137.0614,215.1258,125.9644,70.8685,107.7156,143.7329,270.3580,154.0346
140.2123,117.7096,72.8224,115.5809,224.9691,207.3886,179.0842,204.2770,26.0740,256.9660,136.8721,102.8456,172.9205,100.0480,15.6154,102.8274,144.1142,269.0306,144.6782
150.8324,141.6108,67.7797,72.3975,140.4645,117.3421,96.5869,152.5977,-23.2762,199.2081,149.0476,94.4387,118.2823,54.5947,-53.7653,70.4460,124.8394,234.4844,86.6021
137.7295,141.5601,65.8971,64.5244,67.2294,41.3878,17.1513,66.1305,-57.0445,110.0415,133.5589,92.8021,56.6657,11.5391,-94.5820,25.4725,118.0578,151.2962,53.3020
105.5721,91.7254,83.2516,76.6908,57.2791,-33.4453,18.2655,-25.0259,-60.2111,5.3749,97.4250,75.3915,32.7351,-29.0788,-57.7179,-21.0796,119.9788,27.7372,21.2342
69.3144,40.5385,69.4918,59.8537,67.9820,-121.3214,23.8411,-97.4155,-51.8686,-69.7271,63.1364,42.3296,42.0631,-69.9344,-8.8581,-55.2420,69.6455,-73.2977,-41.2791
3.0389,-7.7125,-4.5257,-0.3333,15.7007,-152.1034,-50.7230,-122.8546,-51.9873,-82.5898,3.5189,-8.9048,12.6359,-94.6036,-40.1788,-64.8680,-39.9646,-116.4428,-79.4162
-76.1993,-79.3303,-71.8918,-76.8099,-80.5418,-102.0170,-130.5448,-88.6151,-70.1930,-50.9935,-72.1880,-77.1532,-68.2474,-92.4733,-116.7117,-49.1315,-134.9367,-137.2793,-50.9198
-91.6425,-123.0102,-54.0500,-117.0092,-120.8754,-45.8431,-113.8108,-18.0603,-89.2413,15.7535,-88.9022,-114.8090,-123.7330,-66.6582,-145.7001,-14.3509,-146.2520,-138.6908,-1.3022
-44.7712,-72.6636,32.5064,-63.3258,-68.3668,-15.3755,-27.5988,42.0224,-79.2489,95.3153,-44.1162,-66.7666,-101.6445,-19.3164,-115.6258,20.4170,-68.4762,-71.8026,23.1602
-18.4542,18.5235,86.6178,51.7797,25.5824,15.5281,64.1434,64.1168,-34.2671,125.5776,-19.3785,27.3181,-28.2387,20.2912,-70.4422,28.4913,23.8658,38.9761,50.8741
-30.5759,40.7891,45.0553,95.0335,102.0523,26.7128,156.1210,65.7742,42.3333,108.6048,-33.5124,59.6653,39.9926,5.6664,-28.0405,11.5215,39.6412,109.5532,123.5044
-40.2342,-0.9729,-22.1892,40.0408,136.3468,8.6333,219.8387,76.5373,131.5426,108.8675,-44.7082,20.8081,72.6327,-30.9696,13.2879,2.2541,8.8703,135.6855,203.1709
-43.7536,0.1453,-11.7991,35.1486,127.0221,18.6153,182.1592,81.2937,162.3421,108.4487,-48.1707,21.4099,75.5040,-4.7903,39.4830,9.8059,43.4064,162.0111,202.4080
-37.6306,70.2297,56.0889,135.5264,81.7581,52.5658,70.7277,33.5374,106.5912,38.5618,-41.7445,96.5130,53.7290,59.2179,39.3845,2.5975,135.3736,169.3797,109.1602
14.5051,120.1741,109.7771,202.8629,27.5635,34.9672,23.8624,-59.5267,63.9486,-73.4070,8.8311,146.9182,13.3378,59.0807,37.1100,-32.0817,189.3128,133.8439,10.2223
98.0741,112.5382,160.3937,173.6318,11.7001,-18.7067,72.5595,-120.8085,97.9812,-138.9677,89.7679,127.9150,0.4155,9.8760,55.9265,-57.3443,197.1940,86.2917,-29.2767
131.1595,100.7354,207.9746,140.0519,33.0238,-43.8685,85.9331,-116.0201,114.9474,-135.5744,122.6418,104.8003,31.3123,-2.0755,65.8741,-48.2690,172.1661,17.2719,-35.6525
70.6118,92.7500,174.8008,124.9102,11.1529,-84.3830,3.1198,-109.9678,39.3371,-117.1978,65.2758,95.3315,19.5058,-0.6452,32.4814,-38.3794,71.3245,-122.7337,-63.5425
-22.2408,55.4385,70.1963,69.2666,-84.7263,-191.4910,-74.1352,-142.6267,-66.0790,-128.1713,-24.2012,59.3275,-81.6167,-43.8928,-13.1618,-56.6853,-66.0383,-282.9796,-118.7051
-48.2462,16.5043,11.9521,-0.5407,-165.1647,-282.3557,-76.8375,-157.4603,-124.0827,-142.4832,-48.3030,15.0669,-170.8339,-83.6504,-27.3929,-72.2808,-134.6823,-343.8804,-154.1911
-10.1084,-8.0448,10.0172,-42.7608,-174.3566,-276.6532,-61.1017,-130.3744,-122.9937,-126.2041,-7.3738,-15.9318,-175.1145,-77.1770,-21.4612,-59.9738,-157.0844,-300.1852,-141.3665
-27.1836,-75.6332,-39.1468,-109.3029,-168.7893,-224.4635,-68.4047,-122.1347,-90.5507,-120.3665,-19.0820,-80.9503,-155.3013,-80.4064,-19.4299,-51.9513,-222.3566,-249.9530,-124.8791
-144.0451,-177.6367,-137.8473,-213.1319,-175.1510,-191.6112,-67.6506,-144.5348,-83.7045,-151.0101,-129.4174,-178.4087,-151.6512,-118.2572,-26.8329,-67.9758,-305.0139,-214.7328,-139.9469
-241.7221,-215.0178,-185.3773,-264.8506,-145.9769,-167.7589,-42.0586,-137.3965,-117.6746,-140.8475,-222.1297,-220.6749,-129.6101,-133.3390,-52.2415,-74.8801,-334.7788,-133.6450,-124.1127
-237.1938,-180.2646,-159.5839,-236.1346,-80.7517,-134.1960,-7.5202,-91.1099,-116.2794,-58.1700,-216.9819,-190.7898,-87.6532,-109.0531,-80.3140,-56.8008,-309.0901,-16.2043,-32.3173
-205.3619,-166.3518,-139.2507,-208.8248,-37.0348,-102.7238,26.9414,-44.3856,-46.8015,1.4004,-189.0305,-169.9846,-57.9842,-90.8565,-70.7673,-40.8402,-250.9616,61.8088,57.5729
-216.8293,-188.6443,-175.8213,-223.4178,-39.8070,-69.2766,47.3611,-1.2803,3.9008,2.8057,-204.7603,-184.6892,-53.6897,-88.2227,-41.0314,-35.3742,-187.6809,97.8657,81.0921
-231.3745,-174.3462,-223.9206,-222.2396,-72.7704,-13.4798,26.9794,38.6468,-20.7894,18.0888,-221.4753,-175.1360,-79.3766,-72.3453,-58.5575,-24.0736,-141.5098,141.8857,77.8311
-191.1005,-103.9626,-198.1450,-158.9226,-108.8068,37.6371,-30.9500,49.2142,-63.7084,48.6933,-184.7748,-114.2392,-115.8527,-46.7170,-122.7074,-12.7865,-80.1985,165.3703,73.4007
-85.9530,-31.9427,-89.4834,-66.7131,-124.1012,18.3747,-80.8425,30.4296,-62.1333,41.4616,-87.5432,-43.1910,-129.1331,-40.0903,-158.8502,-16.7443,24.0130,108.0272,49.8540
40.5504,11.8855,10.6243,3.1273,-131.7982,-67.3447,-105.7170,2.8897,-32.4167,16.5335,30.0327,7.6366,-138.2442,-51.6785,-140.9788,-28.0566,113.7705,-4.6441,19.0385
94.4840,48.5680,28.5391,42.0018,-167.2839,-134.3906,-157.0939,-35.3573,-33.1252,-3.0900,79.4653,46.3882,-172.7382,-58.7698,-126.2380,-35.8465,122.9809,-125.8354,-20.6148
32.8086,72.1600,-10.3701,44.4922,-217.2957,-159.3661,-253.3548,-81.0608,-73.9372,-44.8408,20.0701,59.6347,-195.0312,-65.6147,-150.4205,-45.3847,53.9948,-251.1648,-94.4267
-59.1419,33.3190,-46.9282,-13.7844,-228.0103,-203.3038,-302.1147,-110.0008,-92.1602,-86.6324,-64.1468,10.7780,-173.7195,-90.7031,-164.8616,-57.8319,-57.3659,-331.6721,-156.7754
-92.5959,-60.0931,-68.8035,-106.6257,-181.5313,-257.7163,-236.8625,-109.1966,-63.5640,-73.9781,-88.9163,-77.4189,-136.5894,-117.4634,-125.3970,-60.8607,-159.1820,-297.7415,-143.2086
-92.8250,-134.7060,-98.7868,-169.4765,-113.3028,-247.8527,-135.7947,-78.8047,-43.5855,-23.5771,-84.8492,-139.3734,-101.7654,-121.6181,-74.9748,-49.4808,-197.7654,-195.9523,-81.1870
-113.4692,-175.2767,-138.5909,-203.6073,-66.0048,-188.2294,-77.8267,-36.5718,-32.3184,13.2065,-106.8778,-171.6620,-72.2666,-119.0921,-51.0297,-36.3684,-174.4282,-123.4753,-25.3850
-139.6822,-209.9035,-153.3857,-234.3985,-50.3258,-148.6603,-38.6106,-36.8859,19.3703,6.1976,-136.6862,-198.6811,-65.6426,-123.9195,-8.8552,-37.8075,-118.0909,-82.4692,-4.4724
-128.0159,-200.4584,-125.4724,-214.6176,-52.3842,-123.6921,-26.8653,-105.2359,50.3790,-52.6265,-127.4701,-182.8193,-76.0094,-113.5495,52.8005,-54.9159,-33.0190,-38.9938,-50.8722
-77.9864,-126.3535,-93.6046,-126.2511,-69.0331,-76.6115,-91.0357,-163.3153,-15.4643,-99.2986,-77.7770,-110.3382,-89.1695,-77.8111,44.7762,-65.4130,46.9328,8.3881,-126.9676
-42.1227,-78.1458,-95.4888,-65.6468,-96.4209,-11.3238,-156.6338,-117.1809,-88.0192,-43.4154,-39.8975,-64.7332,-113.5050,-34.9196,-33.3594,-42.9481,60.4768,78.2198,-123.2698
-60.5575,-108.4953,-114.8515,-91.4819,-94.8237,54.0647,-111.7969,8.5497,-56.9120,74.4777,-55.8214,-92.1397,-118.1984,-1.1642,-64.2896,5.7913,20.9696,151.0057,-35.9383
-99.3206,-147.1952,-127.3387,-140.5264,-47.5763,80.6274,-9.0819,104.3951,41.1519,133.6454,-96.3486,-130.6187,-67.3959,1.8745,-15.0137,40.6644,-9.8383,122.1616,35.2728
-114.3652,-150.1808,-137.8751,-160.0630,-27.7735,25.0765,22.3770,102.4872,126.1416,113.9783,-117.5231,-136.4369,-35.2720,-37.4910,27.8940,35.2679,-32.4749,-27.3086,52.9779
-128.0046,-146.1346,-154.2215,-158.9757,-97.3583,-68.9166,-45.0641,20.6428,148.2291,58.1090,-133.9190,-130.4277,-97.8473,-85.0106,7.2088,0.3243,-77.1595,-163.8141,20.7560
-153.2389,-132.7879,-174.5404,-135.5607,-193.1639,-118.5604,-151.7227,-77.2498,78.9384,-24.6806,-155.7821,-116.7529,-180.5618,-111.8214,-62.2292,-43.3385,-112.4006,-201.0419,-66.8148
-143.2546,-88.3211,-185.7055,-85.7928,-215.5887,-134.2052,-208.5430,-132.3289,-15.1859,-93.6618,-144.3196,-79.6554,-189.9321,-132.4874,-122.4794,-78.5086,-84.2413,-181.9893,-145.6042
-90.5607,-34.7917,-164.0540,-37.5904,-157.1976,-164.1154,-153.1453,-136.7453,-31.7193,-99.4922,-95.7473,-32.5036,-146.3681,-147.8924,-104.4986,-90.5693,-8.5343,-156.8873,-151.8726
-49.3223,-12.0762,-119.6911,-23.3675,-74.7359,-190.9599,-41.0023,-140.4611,3.7790,-97.2961,-57.1309,-12.1230,-87.8378,-150.7560,-24.4643,-90.2402,37.6824,-137.8401,-136.5444
-49.8422,-44.6720,-101.6686,-56.4948,-12.7960,-181.5562,23.4105,-171.1877,19.7416,-139.9557,-53.8995,-45.4507,-24.6738,-160.9040,24.7671,-98.9536,7.0359,-115.3093,-142.5311
-102.5530,-115.4220,-119.7839,-110.2844,5.8048,-132.0371,31.5115,-180.6443,14.4378,-160.4628,-98.3429,-109.6550,3.6622,-159.3316,17.4776,-100.5586,-70.7811,-56.5460,-139.0721
-199.2119,-153.4612,-134.6613,-125.0137,-19.0091,-52.0012,14.2593,-137.6203,-32.9494,-121.6662,-185.5259,-138.1823,-21.4090,-105.9484,-17.7895,-75.7047,-139.2475,28.8944,-129.0432
-244.5052,-119.0415,-128.3972,-90.4426,-49.7158,26.7909,-21.6901,-88.3191,-117.0405,-81.0561,-226.8889,-107.1242,-51.1514,-47.1085,-79.8532,-49.6466,-161.1594,85.2707,-101.9612
-155.7294,-61.4134,-106.0396,-57.0878,-43.9427,88.1555,-25.2365,-48.6445,-113.4525,-35.9350,-145.0092,-59.9681,-49.7915,-24.3950,-109.9514,-28.3879,-114.2980,115.4716,-3.3185
-28.4985,-39.7470,-74.1497,-45.9693,-16.1799,150.6460,22.9237,14.6301,-5.4389,42.2032,-27.6550,-34.5926,-37.8891,18.8981,-26.8783,17.9113,-28.7376,130.7228,91.8222
-5.2227,-69.7078,-61.6240,-57.6314,-24.8903,170.0481,17.2005,48.7836,35.7307,66.7261,-7.1677,-48.7975,-47.3921,65.9906,74.7695,53.5497,9.0348,63.6039,53.6025
-59.1190,-127.9286,-81.3428,-102.1858,-79.2322,82.4671,-79.0591,-17.1813,-16.4218,-12.7654,-60.5214,-99.4767,-83.0446,18.4708,54.5703,18.2961,-19.1308,-75.2463,-43.9417
-86.1420,-131.0510,-94.5632,-112.5173,-117.5542,-19.9557,-149.6772,-93.8359,-31.5551,-80.6883,-88.6772,-108.1027,-107.9323,-51.1269,-9.6477,-32.7922,-34.2857,-145.4660,-77.2075
-77.6629,-26.6503,-85.4928,-6.6749,-108.9989,-16.6178,-173.7869,-85.0772,-55.5997,-78.9837,-78.4389,-10.5670,-88.1596,-4.4068,-5.6023,-26.0519,-13.0109,-123.3440,-105.6236
-74.9608,79.8455,-80.1116,118.5838,-86.8255,12.7663,-227.3891,-76.4250,-172.3814,-95.8685,-70.9878,94.7013,-51.9047,68.1301,-4.6230,-14.4077,-14.2852,-118.1173,-160.9899
-85.4831,76.3987,-71.5697,116.2333,-58.5662,-28.5784,-236.2401,-119.1220,-219.6977,-129.2364,-79.8852,90.5994,-29.1167,41.2028,-34.5230,-40.0414,-47.5049,-127.1110,-141.2150
-103.2404,33.8987,-56.9055,46.7587,-4.6163,-55.4940,-118.7074,-98.9981,-96.3750,-81.9343,-97.6462,42.0599,6.8013,10.5471,9.1937,-33.0292,-79.0525,-95.4828,-64.1441
-120.2373,42.8518,-87.9037,31.1327,39.6967,-14.9526,-18.9783,0.4745,0.5469,11.8113,-113.3364,43.8749,50.7902,47.6289,91.9806,20.3462,-110.6762,-88.8656,-39.0527
-119.8837,45.8085,-158.1572,27.0186,31.5356,8.4681,-45.7488,47.3277,-36.7126,51.5758,-115.3328,47.0725,43.9386,50.7282,78.8783,38.0605,-125.0279,-127.5848,-26.0088
-99.8757,-3.2218,-171.1742,-14.9499,9.3092,11.6328,-65.7831,35.3078,-51.9841,64.5268,-101.7709,6.2487,-2.0861,4.4740,12.0815,18.7662,-78.1835,-95.1488,44.5861
-71.8058,-32.3077,-99.7122,-23.3619,26.7891,77.3552,3.4030,77.9390,15.3229,122.3864,-76.3374,-15.5721,-8.4790,16.2221,-5.9080,34.6454,0.4125,33.7981,116.1775
-40.4920,4.8954,-11.4266,27.2820,70.1802,187.6968,59.4336,186.2813,54.1229,216.2239,-42.6845,17.2900,36.3820,92.2969,-19.2806,87.9853,48.5353,164.2245,169.7997
-6.3619,62.4277,61.9306,74.0813,106.3906,277.2649,75.2172,288.2981,62.7583,305.1744,-7.9076,63.1093,78.0833,165.1974,-51.5388,136.2865,85.3725,269.0307,260.5138
34.9621,90.3715,125.7239,103.5240,128.1289,333.0366,121.1329,331.4207,117.3207,338.8908,29.1365,93.8135,89.1880,213.4904,-16.9389,160.0944,162.7692,344.6829,341.5855
94.4224,84.3310,167.7785,133.2398,128.6542,325.1006,154.9135,279.6031,166.3170,270.1548,80.4279,108.1884,76.3692,210.3452,65.2802,140.6397,268.9221,317.8483,322.0298
169.5205,76.7463,204.6984,139.7147,101.1385,224.0089,99.6201,155.9492,132.7099,141.5789,146.5716,106.2885,51.2518,136.1041,69.6063,80.6518,347.9042,177.9715,232.9592
232.0075,97.3718,263.8646,119.6466,56.6911,85.1383,9.6243,42.8724,67.1719,38.5814,205.1441,102.5628,27.6439,50.0952,-3.5635,24.3661,350.5323,24.2324,153.5484
236.0380,122.7994,286.6569,106.7005,16.4893,-17.5758,-36.3070,-24.1206,48.2042,-30.1995,213.7788,105.0810,17.5957,8.7224,-45.6815,-6.6200,260.1370,-70.7176,97.6033
148.9766,110.3413,191.8893,99.6692,-0.7195,-59.3056,-42.6033,-46.9000,74.9930,-67.5275,136.6714,94.7165,25.7237,-4.9577,-33.9104,-22.5602,117.6664,-91.2431,58.3269
6.3757,64.4261,26.8248,72.4148,6.7573,-37.4821,-21.4260,-6.8591,109.2866,-32.7000,3.5525,59.8544,42.1881,-15.2158,-29.3221,-18.2753,-6.8202,-44.4482,47.8773
-100.3060,10.5713,-79.0713,22.5100,26.4261,17.8238,34.6918,70.1602,124.1113,44.7358,-97.3000,9.8138,55.0584,-21.1776,-46.7849,4.7187,-83.6398,19.5069,70.0996
-132.7100,-45.2315,-86.9613,-40.7688,64.9623,54.8803,106.9297,118.6811,122.0897,83.0976,-126.1582,-46.7898,84.1544,-20.3079,-38.3042,24.4246,-131.5212,58.0436,109.6869
-129.3926,-92.9121,-61.2400,-97.5530,136.4099,65.9614,173.7265,134.1041,139.4819,94.9846,-119.4750,-94.9567,148.7180,-12.8228,16.9308,38.5064,-166.2607,83.1833,145.9515
-98.3979,-104.4153,-33.4409,-104.9282,210.1274,65.5091,226.0964,139.6411,186.5072,128.2560,-88.9172,-102.8208,206.0855,-9.0482,69.6282,50.3866,-158.8251,97.8912,177.1911
-9.9473,-59.1552,30.2702,-45.9998,238.1496,62.1914,240.7977,136.9642,214.0925,156.5269,-8.4839,-52.3909,210.3151,-3.0059,76.9663,52.9723,-64.4084,105.2094,221.6982
96.8605,19.8832,125.9899,26.5588,225.5814,103.8581,218.6745,159.5187,195.0202,171.3447,89.3302,22.2971,188.3336,48.1761,70.0259,67.3791,84.6338,160.9078,275.6436
146.1387,63.3067,196.3482,48.6862,211.8653,208.5679,206.5810,223.3558,161.4354,212.7816,136.5722,56.4277,175.2396,136.0308,83.2351,110.1968,186.4947,266.4992,310.9557
149.2030,45.9718,222.7451,35.5208,209.6894,281.3854,218.3786,263.1545,128.7467,250.7837,140.4341,42.5126,161.8676,180.8044,94.3732,139.9629,212.8445,315.7895,317.6929
158.0008,40.9416,220.7318,55.1956,193.1385,261.2729,204.8987,245.0909,76.7171,219.1261,146.9637,48.2619,139.1399,169.9211,87.8673,127.1336,226.4037,261.8594,285.9275
146.7241,79.9708,180.7952,101.3275,125.0275,213.1666,126.8832,203.3113,5.1623,139.3524,134.6479,87.4491,94.5084,157.7539,67.8305,99.9128,229.5250,168.2886,191.4175
78.8403,75.1580,119.3395,86.6493,15.7225,163.1922,7.4498,139.0530,-63.6007,74.2183,71.2036,76.8150,13.2413,133.4239,17.0144,73.9581,160.7102,66.3525,67.2463
14.7512,0.2278,93.8248,1.4200,-59.2729,66.6399,-81.4271,58.7324,-106.3552,38.3794,12.6176,0.8822,-57.1464,76.6696,-33.7367,44.7916,46.4573,-49.9367,-5.8859
14.3744,-41.4674,87.2074,-56.6778,-57.4347,-33.4599,-82.7376,19.5601,-100.3772,24.5596,14.4108,-41.3828,-60.6987,43.1540,1.4921,32.8637,-27.0007,-140.8537,-23.2429
27.8854,-21.8604,25.1086,-52.6978,-23.1829,-59.6671,-21.2231,18.4956,-54.6234,25.3950,27.7644,-22.9975,-30.5891,39.9529,93.2326,38.2611,-55.6344,-174.4966,-41.3135
6.3766,-24.6692,-61.4030,-50.0318,3.8545,-53.5595,33.0317,2.4045,-15.0859,13.6674,4.8236,-22.9493,-8.9116,-5.6155,106.0078,21.1393,-73.2696,-174.1895,-50.8613
-4.6512,-49.0150,-77.1838,-59.2852,21.4177,-87.8685,51.5406,-17.9105,-2.0365,-31.3991,-9.0714,-46.4625,15.6930,-82.4659,31.9294,-20.9565,-66.4265,-170.1951,-20.8544
16.1888,-22.2924,-41.4835,-33.3192,3.9989,-146.4875,29.8089,-34.4892,-2.6948,-92.5003,10.2174,-26.7265,21.8465,-110.7158,-17.7569,-52.3699,-44.7899,-178.2674,-10.5068
15.4464,25.3633,-32.0320,6.7145,-44.8998,-186.6183,-31.4761,-86.9096,-14.4590,-135.3755,12.6118,14.2940,-12.0575,-98.8632,-23.7635,-69.0034,-51.8478,-182.8871,-69.7354
0.4175,22.1085,-27.0376,13.8666,-44.6332,-190.0470,-67.0907,-147.6810,-29.1922,-149.9060,2.4768,12.2181,-17.8366,-101.5084,-33.7400,-84.6883,-54.9715,-130.0952,-124.7101
33.3274,12.5253,22.0593,26.2376,24.7307,-151.3358,-24.9313,-161.3169,-38.6126,-162.0200,36.4492,5.8263,40.8729,-103.5261,-37.1824,-94.1994,1.5977,-22.9239,-114.7028
78.0075,68.8067,63.5645,87.1594,73.7719,-95.1225,15.5272,-150.0675,-65.2743,-178.2874,80.5867,57.9037,90.3654,-69.9398,-25.1394,-89.2096,53.7586,49.9962,-96.1722
61.2483,135.2389,38.8632,135.4772,70.0261,-48.8920,-3.3449,-119.6180,-93.7225,-148.8739,65.9890,115.1151,94.8199,-20.2487,-21.2512,-64.3003,27.0944,54.8716,-93.3810
24.5190,115.9938,-8.1521,100.2054,61.9822,-6.0582,0.0832,-45.2101,-64.0063,-64.5845,28.7311,95.3820,84.2982,3.9422,-8.3219,-23.5217,-8.0263,29.8836,-55.4192
7.2230,32.4765,-39.6054,19.1004,33.4054,11.7860,20.0341,-7.0706,-27.5481,-29.7662,5.6788,23.7535,43.5947,-14.8691,18.5087,-4.8063,-0.8985,-46.5297,-39.5784
-82.8296,-44.3667,-120.3832,-47.7166,-65.7576,-55.4385,-88.1212,-92.7772,-113.0510,-125.7434,-82.8538,-42.9359,-40.3312,-70.3754,-6.0536,-44.7497,-63.7165,-203.5955,-167.9049
-287.5998,-127.2952,-280.1489,-127.7797,-189.1254,-189.0801,-280.4394,-225.4946,-277.2461,-273.5284,-273.9003,-123.3703,-121.0194,-148.5686,-91.0835,-119.2709,-243.4243,-347.4633,-360.6446
-464.6412,-240.2513,-404.1331,-245.8524,-245.9223,-282.9372,-322.4452,-296.5571,-342.1264,-346.4781,-441.9978,-230.3558,-174.3400,-228.9657,-140.7796,-174.5854,-372.8734,-369.9277,-407.8119
-490.6617,-327.6754,-394.6000,-337.6124,-217.5455,-293.7068,-189.7825,-320.3976,-271.7443,-346.1483,-474.5205,-305.7496,-196.3797,-286.3095,-109.4632,-196.2517,-338.1449,-317.3891,-298.1291
-422.4342,-365.0033,-317.2607,-372.4470,-156.9090,-296.8680,-90.5614,-344.5567,-172.7157,-357.8519,-416.3211,-335.7018,-163.5858,-324.1872,-61.2460,-207.1354,-264.0713,-326.0844,-202.6557
-368.0073,-405.9636,-273.6869,-412.6977,-134.7118,-363.7507,-118.0118,-370.1164,-115.9512,-391.8012,-364.1088,-378.4620,-118.3899,-370.4275,-61.0221,-221.5065,-285.6451,-430.5233,-201.7880
-357.9606,-433.9743,-266.9787,-447.9351,-176.3071,-446.0228,-195.8710,-380.9412,-128.6356,-384.4982,-350.3118,-413.2303,-141.3524,-400.1763,-111.4025,-227.4368,-350.4798,-510.4155,-251.1901
-365.2240,-372.7048,-268.6290,-384.9354,-227.6139,-438.6894,-265.6533,-363.8383,-212.4873,-340.1316,-352.8561,-358.4476,-194.3652,-359.8679,-172.2200,-214.5101,-347.0514,-462.7451,-308.6081
-337.7659,-274.5395,-272.6891,-272.9973,-232.6037,-346.5045,-316.0631,-335.3877,-292.2831,-334.7390,-324.9470,-263.5625,-188.7760,-291.5100,-196.4875,-199.0279,-266.6453,-366.4471,-342.0931
-254.9459,-260.8905,-264.7263,-263.6739,-204.2354,-280.0384,-327.2672,-325.4581,-284.6302,-361.8355,-248.1436,-252.3852,-144.9552,-280.1158,-173.6931,-193.8240,-185.6658,-343.0983,-317.0411
-196.4477,-305.7463,-250.5263,-332.3564,-173.8706,-276.8741,-289.9251,-319.7341,-207.7191,-344.5479,-194.7398,-300.3259,-120.5984,-303.8847,-136.6238,-186.9065,-168.1905,-350.0104,-247.4870
-238.7831,-306.1385,-260.2410,-339.2729,-160.6213,-285.9965,-232.3876,-310.5152,-138.2991,-307.1097,-235.5202,-299.8262,-122.6521,-305.9062,-124.2931,-182.7598,-210.4539,-316.4283,-188.0389
-303.6988,-278.0533,-268.4388,-299.7113,-189.6826,-306.1584,-206.6775,-327.4414,-122.0860,-321.0755,-297.3875,-268.4793,-156.1152,-308.6755,-154.9982,-198.3128,-266.0110,-304.4548,-166.9405
-280.4100,-287.2291,-226.4948,-307.0583,-237.2096,-342.4702,-237.3237,-330.6747,-156.8133,-325.1733,-272.0444,-279.6868,-200.0322,-312.8292,-207.4391,-202.3746,-300.8996,-326.6081,-167.1473
-210.7101,-297.4704,-165.6454,-319.9701,-219.9241,-310.4460,-271.8700,-248.1272,-200.3498,-230.9825,-197.7476,-295.3471,-180.9867,-254.9992,-223.0412,-152.7349,-299.4961,-273.2712,-158.1770
-170.4770,-240.7667,-132.5616,-258.3273,-119.5347,-180.3408,-226.4764,-132.3116,-194.5018,-103.5402,-154.6938,-241.7191,-89.6707,-151.2375,-169.1532,-79.5206,-249.0416,-149.9474,-124.4790
-133.3168,-147.2767,-95.0232,-153.6684,-9.0016,-71.8426,-86.3007,-63.1527,-106.8271,-29.0155,-123.2821,-146.0567,-4.4601,-88.2841,-79.6589,-35.5625,-160.4980,-78.8101,-60.7983
-90.6785,-92.3405,-28.7839,-65.6343,64.0532,-59.8452,71.8940,-0.2953,37.1500,33.6237,-90.1827,-76.8388,35.8187,-71.8454,-8.8719,-14.0372,-71.9738,-68.5407,29.1041
-78.0704,-75.9268,16.1841,-0.9400,96.1945,-75.3452,143.2201,83.0297,148.3801,120.1342,-83.0906,-40.3046,46.6154,-53.9627,10.6021,8.9278,-8.0084,-51.8358,100.0283
-57.1471,-52.3550,12.0317,35.6416,81.8175,-63.2642,100.5154,126.0952,155.6173,174.2063,-63.3083,-14.8956,34.8811,-36.2430,-20.5888,24.4194,33.7660,-21.3239,96.7840
-20.6538,-32.8308,-1.2594,26.1029,41.5061,-44.2433,33.0710,117.9580,98.9183,158.7349,-25.6244,-11.6516,12.8310,-30.4590,-55.1275,22.2198,68.5494,25.6537,47.8229
-61.3335,-52.8166,6.9018,-23.0724,7.2101,-26.8759,11.9308,84.6559,49.2716,92.5996,-65.2444,-40.3280,-12.4689,-22.2875,-46.5832,6.0082,112.5087,82.6862,25.7222
-130.5874,-86.1516,23.5856,-77.4339,-30.5383,-4.3117,2.6969,15.7090,2.2786,5.9863,-136.6877,-72.4443,-58.6169,-18.3643,-19.0965,-17.9732,153.2245,91.4659,28.9064
-69.0580,-99.0129,27.8831,-101.4129,-71.3510,8.1258,-8.9361,-42.4847,-38.5925,-46.7972,-77.6784,-86.3597,-105.9501,-34.5504,-22.9808,-33.4253,148.0119,66.9633,24.9442
43.9076,-113.3752,6.9779,-96.4821,-84.0346,-0.7823,12.0978,-15.8867,-21.4915,-21.8926,38.1728,-97.4931,-113.2642,-51.4953,-48.7509,-26.3653,81.2918,81.0505,31.9759
29.1696,-132.6274,-41.2676,-97.4408,-86.3149,-20.6784,28.1125,41.6576,38.4339,37.5725,28.1503,-108.3857,-109.5516,-44.8936,-44.4457,-6.6835,-2.5451,81.0109,55.9063
-40.1527,-117.3353,-93.9324,-100.5242,-107.4218,-27.9418,9.9396,46.1017,87.7662,58.0515,-42.7208,-90.4849,-130.5365,-21.4975,13.6545,8.8490,-37.8660,4.6121,71.2958
-66.6894,-68.1071,-116.4582,-55.6876,-101.7853,0.5030,39.6794,36.3735,141.9691,42.4456,-75.4132,-36.3741,-130.1787,2.3462,89.1919,14.7240,1.7244,-43.4774,84.6697
-120.5710,-12.4552,-99.2518,39.6155,-45.0888,49.6915,115.9414,56.9147,189.3597,42.5977,-132.6222,30.9078,-84.0687,24.0299,117.8634,14.3127,84.1947,4.9561,88.8867
-127.8611,48.3378,-43.9667,131.9792,4.4536,83.2522,112.9790,76.3605,157.2061,77.3699,-140.4130,94.0466,-44.2883,54.2447,93.8349,23.6590,166.7574,49.1987,51.2248
54.3497,98.0969,72.0197,202.1950,34.4215,112.6419,53.7922,93.8695,84.2872,120.4965,39.1397,142.8889,-19.6606,105.3667,84.3510,55.2428,245.4623,41.1914,21.2937
258.0197,121.4470,236.8180,263.9391,82.3568,161.1656,61.7433,128.8748,75.6959,135.1851,239.1001,175.4171,27.9296,170.2413,116.3666,90.7542,317.8126,42.1277,57.8173
303.7036,165.0510,343.9514,303.6126,114.2106,194.4499,92.7351,150.1974,98.2807,121.3314,285.4760,210.6131,75.6702,218.2789,138.1736,108.0542,343.5670,65.6873,84.2110
333.2849,248.9630,327.7128,308.2066,94.9085,191.1284,79.2560,148.2044,84.4184,122.2821,319.7397,253.6836,83.6994,228.0699,121.1551,114.3573,312.5598,109.6460,47.9594
397.2237,303.8588,289.4029,306.1921,80.8837,194.9513,107.4254,160.3156,102.2772,159.2385,386.8167,280.2203,74.7038,220.2739,97.0944,121.6154,275.5208,192.6004,59.4790
333.3029,300.1511,313.8133,319.8004,97.6680,219.9000,189.8381,180.0393,201.9258,190.4299,322.7018,287.8274,72.1996,233.7081,106.7038,126.5381,255.6850,251.1597,166.5291
209.3221,278.0486,298.9331,311.9785,89.9077,220.6390,205.9273,159.0550,284.4579,159.8788,197.6020,284.7165,59.9919,255.1000,168.1875,119.9101,225.6159,220.1486,241.8663
190.2594,226.5952,164.3586,229.5806,54.9551,186.3745,166.7750,92.8197,266.2827,71.1107,178.0153,236.4823,36.7947,223.3876,243.6273,91.5995,177.2657,167.3706,223.6586
176.9896,132.0019,30.3073,105.5826,50.5725,157.0618,185.2405,43.9452,200.5770,8.3391,164.7313,140.3743,24.7297,141.7450,257.3083,54.5423,139.4791,167.4948,199.8517
112.7880,78.0968,12.7485,60.6699,84.9249,160.9639,239.6909,83.2936,171.7159,53.5244,99.9178,89.6962,35.6671,101.3964,207.7735,51.9417,150.9160,199.5563,220.0409
123.6653,113.9179,55.3817,136.8253,123.2362,197.7085,243.7042,187.0432,182.6292,160.8303,109.2115,133.5511,66.3903,140.8369,168.0007,88.9363,217.6955,244.8855,241.1050
144.6047,149.7802,73.8271,206.5381,145.6059,246.9131,214.2222,240.6857,186.5248,204.4994,131.0489,177.0225,97.1883,190.7461,162.7467,112.6347,270.2135,305.9149,235.5035
59.1488,115.3638,71.1951,163.4424,159.0615,286.8167,220.9525,220.1740,184.9800,183.2881,50.8905,140.5372,114.5508,202.7936,176.7339,110.6149,246.3533,358.9531,227.0674
30.3552,75.7155,73.1108,94.0162,189.8288,318.6053,270.3609,232.3162,212.8098,211.7145,26.0690,91.0268,141.2794,207.4134,209.4855,128.8907,207.4153,392.5415,235.2335
135.2462,107.9563,80.9632,115.5196,225.5076,336.7752,283.9335,298.0127,233.0410,287.7714,130.1461,112.9653,182.2198,225.0769,222.4794,165.9409,219.6114,391.3048,225.4863
169.9372,177.0932,88.8749,181.2080,209.6298,316.5098,212.8603,315.8947,195.6669,297.4543,164.5997,171.1475,191.2745,239.2314,189.6228,175.8864,222.2149,314.3920,161.4552
114.4767,197.6642,111.2482,192.2330,164.0694,272.1740,151.5977,269.2043,162.0508,238.4013,110.2980,186.4215,165.4613,241.5997,184.7245,162.3614,191.1547,200.2467,95.6811
154.3022,165.3873,186.5451,164.4565,170.8722,235.8370,183.5261,224.0121,180.7758,197.1907,146.8316,158.7268,161.0193,223.0586,221.9588,150.3436,215.9131,142.2191,85.8215
249.6373,153.8791,295.6818,163.2533,192.6687,179.9911,203.3104,177.3208,163.6256,168.7450,238.1677,144.0273,168.8978,174.3647,182.4667,124.9267,274.3416,120.1541,67.9805
240.6401,177.9087,327.2719,182.4435,134.4421,82.2146,118.6053,110.6137,66.0429,110.6185,232.8716,154.8390,125.9500,126.2139,70.0185,83.3676,229.6859,51.4742,-11.5219
152.9435,164.3704,231.2187,170.3187,44.5602,-5.7998,29.9668,59.5217,-15.8691,53.6166,151.4313,146.5824,50.3034,103.3137,34.9925,54.2899,96.8659,-55.6554,-70.6287
84.1967,91.8700,106.7573,113.1968,10.6114,-60.9403,3.6477,12.8214,-44.7318,6.8073,82.8575,95.5541,6.8674,61.7494,65.5700,27.7508,6.5667,-152.7864,-71.8597
71.2308,32.3978,46.3069,49.6792,-9.6854,-118.6589,-41.8531,-68.3889,-89.5547,-67.1430,68.7945,37.2508,-10.6757,-21.4686,22.5374,-20.7860,-28.7570,-213.2196,-100.9776
110.0944,24.5244,33.2278,15.0818,-57.3042,-152.0416,-112.5951,-119.0210,-149.0300,-120.2830,111.1061,10.4906,-33.9692,-70.0595,-65.9929,-53.1439,-58.7084,-194.3981,-145.7095
125.1790,22.6816,34.6089,-7.7987,-77.7549,-109.1012,-117.5537,-71.1344,-155.0537,-87.3991,128.8664,0.2969,-47.6941,-39.2603,-90.5241,-34.8835,-61.3270,-93.1015,-88.9928
58.8103,-12.6957,39.9514,-47.7409,-58.6821,-39.7404,-57.5790,-9.2506,-110.4375,-47.2273,61.9624,-29.5956,-40.7844,-9.2410,-82.8357,-16.4824,-40.0856,20.6421,33.6977
-11.6252,-51.6570,15.5772,-74.4650,-50.2796,-2.8765,-0.1623,-28.9295,-77.1558,-84.5288,-5.3330,-63.0445,-34.4064,-31.0547,-99.2251,-38.8835,-63.3451,113.8899,71.9070
-14.1194,-41.7798,-50.0632,-46.4959,-50.1931,41.5351,40.6482,-68.0174,-76.6486,-116.2553,-1.2452,-48.8330,-35.7435,-32.4985,-87.1588,-51.4343,-122.9174,192.3266,31.5240
16.4881,-1.8310,-94.3169,-5.5036,-25.7752,112.0842,89.6752,-34.5437,-60.0005,-59.3855,29.1401,-3.8229,-30.0773,19.2639,-11.8409,-14.0300,-130.0030,214.2555,37.5847
35.4359,-14.3293,-65.6366,-22.5899,10.3381,140.1401,151.1851,33.8843,7.8373,9.5796,41.4259,-11.5647,-9.7223,42.9552,56.2945,25.2299,-78.3370,172.2525,82.4149
4.2043,-88.3296,-19.8156,-79.3640,23.3485,99.0792,173.3792,57.0095,54.2983,15.8290,10.8904,-81.8831,11.5309,7.0410,43.9426,22.4258,-69.0012,139.4027,50.8946
-83.8754,-130.4000,-46.9387,-106.8204,-5.0441,34.5933,100.5201,33.8004,-0.5915,-1.9178,-67.7578,-125.7533,3.5779,-26.3234,-24.4963,1.2863,-142.3701,114.0452,-53.9499
-123.2886,-105.0684,-120.6390,-102.8763,-63.7087,-42.2751,-14.6415,-8.9926,-93.0950,-23.9874,-104.9833,-108.5771,-42.3745,-48.3269,-67.9613,-16.9751,-207.9426,3.8444,-126.5559
-54.3240,-78.9583,-133.1082,-105.6272,-117.7612,-145.5854,-78.2977,-75.8338,-123.0005,-84.9224,-44.8253,-89.1930,-92.2736,-99.6966,-68.9930,-46.4157,-203.0531,-175.1533,-151.3572
8.4529,-74.9618,-81.0434,-96.9411,-147.0488,-228.5485,-97.8679,-145.8940,-93.1380,-154.1481,12.6196,-84.0727,-116.2427,-144.9876,-71.0816,-80.0411,-182.2367,-274.8127,-173.8727
-3.3592,-39.9341,-62.7773,-34.3802,-147.9852,-223.8442,-97.4848,-161.0916,-31.2768,-156.8011,2.9808,-40.2320,-115.4216,-119.6208,-58.3223,-83.6064,-177.8489,-225.2493,-166.5237
-11.2253,48.4112,-96.1082,61.3734,-117.2521,-143.8706,-67.0103,-120.4906,13.8125,-105.2282,-4.4841,52.2138,-93.0992,-45.0507,-2.0929,-54.0612,-145.0829,-124.0284,-125.7953
44.0451,150.2718,-101.8883,129.5370,-86.9377,-67.3979,-83.1379,-97.3042,-67.0991,-89.2724,48.4457,136.1373,-60.6006,10.0628,13.3636,-30.3456,-80.6452,-81.0234,-133.8863
180.3650,205.1773,-30.9882,146.4329,-87.4185,-38.9650,-180.0418,-131.1405,-225.5688,-147.9940,181.9043,164.1921,-38.6692,13.7694,-60.9799,-40.9369,-8.9042,-77.3080,-165.0201
362.5594,189.0469,94.6892,134.1431,-73.4048,-34.1131,-197.4990,-183.6904,-236.4069,-224.0453,356.7286,143.9727,-17.3238,-18.3630,-102.1949,-69.3724,88.4802,-45.0897,-111.5842
431.6190,160.4584,188.3976,124.3623,-28.3262,-24.0420,-88.7382,-202.7901,-103.6254,-241.1019,418.9272,124.3688,9.7500,-42.2111,-55.2288,-79.4756,170.4329,-1.0108,-45.6502
353.3568,180.6691,172.2856,132.8305,-30.9167,-18.0809,-53.1904,-171.7887,-64.5086,-190.8695,343.2079,136.6424,4.0192,-36.0552,-54.7854,-64.2876,161.0529,10.7224,-83.1070
354.4269,216.4357,128.7519,154.0364,-77.8446,-28.8599,-130.6634,-125.6472,-133.1246,-136.3431,346.8351,160.2569,-30.7480,-29.4418,-134.1610,-51.0873,141.6419,13.4316,-116.9145
497.3052,246.9401,194.4635,190.8186,-65.2816,-41.7568,-142.9978,-126.2840,-136.3914,-133.4259,482.7013,192.5263,-27.5024,-26.8213,-144.2209,-53.2569,218.5009,29.6470,-55.0553
561.0510,339.2692,304.5020,268.0806,-0.7362,-31.8948,-67.6726,-169.8635,-66.7503,-164.7149,540.6312,279.3647,22.0334,15.0153,-48.6547,-51.3740,297.1950,37.6003,-5.1341
507.2923,474.7718,354.7469,371.9350,56.2513,-1.1455,14.8169,-180.2699,19.0646,-176.8291,486.5954,398.0429,84.9617,73.0484,32.1301,-37.4635,299.8513,30.1414,20.2601
495.5605,512.4594,439.8665,428.3523,153.7263,1.0378,128.6047,-151.7354,138.7871,-172.3894,469.0427,438.7448,180.4916,66.3436,59.3919,-35.6128,328.0903,-5.5856,112.3571
519.0607,432.8794,568.2709,402.7810,267.0190,-59.7479,219.8718,-159.7948,212.6212,-193.2271,485.7935,380.7712,274.6806,12.5516,88.3324,-53.8750,383.3670,-84.9132,165.0708
518.8030,369.5605,523.9129,346.9887,247.2570,-107.2974,176.1798,-179.5838,161.1453,-201.8367,491.2947,325.5717,255.6648,8.2580,125.4254,-53.1408,327.2778,-127.8402,81.7023
522.2424,359.6042,304.6140,304.7059,133.8893,-40.2538,112.2110,-101.2969,116.6501,-115.1515,504.6566,311.7263,156.1575,61.1516,142.4181,-4.1419,195.7126,-56.3165,39.1237
425.1763,304.2251,176.2115,264.9891,119.6463,82.7422,174.2322,45.3770,158.8469,23.0021,410.1969,270.8226,127.2299,96.2901,129.3314,51.8713,136.8607,37.5739,124.9484
147.7162,174.4980,190.9820,220.1776,187.5095,129.9084,244.6186,125.5608,137.8931,92.2309,136.0316,178.4989,158.0253,89.3750,73.7939,59.4061,140.1167,69.1542,163.6253
-57.9440,66.8968,195.0062,172.7771,190.7390,131.3303,205.1081,130.3475,11.4719,97.1628,-61.6390,94.3530,140.2959,77.7489,-16.8034,39.3168,143.4646,136.7039,116.3206
7.0959,47.4716,166.3242,111.8242,143.9445,193.2083,139.2935,135.1582,-55.6366,100.8335,7.0385,55.4752,108.6454,84.0104,-75.7256,43.1902,160.1218,273.9525,114.5808
109.7069,57.8593,119.9700,53.1872,117.5414,270.9695,102.4048,127.5965,-12.5216,69.3223,109.6065,38.8602,123.2305,97.4547,-41.7088,57.0170,152.6024,325.8127,128.2037
7.9629,23.9268,14.6792,35.3018,88.4440,272.0307,58.0233,89.7589,30.0732,4.8311,12.4561,20.5293,121.6233,109.6902,37.6411,49.2603,67.7216,251.5253,74.5452
-176.6221,-17.2606,-67.1614,43.4915,49.0873,240.5863,11.8556,88.1744,7.8292,15.3885,-163.9452,6.0176,77.5541,127.5946,40.1108,47.1949,-35.7620,198.6122,25.7501
-250.6691,-5.8683,-48.3534,27.8819,16.4977,227.5676,-41.5725,109.1476,-69.8142,69.9517,-231.9754,-0.7386,45.8705,129.6613,-64.1371,56.7229,-94.5840,199.4960,9.7833
-224.0247,7.3440,-48.3231,-11.3693,-43.3175,160.3367,-135.5681,25.7984,-162.8605,2.7806,-205.2848,-16.7836,6.5577,60.1092,-166.5475,15.4092,-119.0861,129.7249,-61.1968
-194.1787,-32.1591,-116.7967,-38.6654,-123.6763,5.8781,-222.7753,-142.3595,-213.5618,-141.6774,-182.3317,-46.0500,-78.4035,-66.6031,-196.4983,-74.0080,-109.7967,-29.0793,-170.4150
-196.3518,-68.4798,-119.8320,-45.2671,-145.2129,-126.5146,-238.9503,-201.8536,-215.7162,-151.5472,-190.6943,-64.5766,-132.5412,-138.9242,-205.5092,-110.7930,-82.4613,-146.8376,-212.7720
-210.9387,-70.4876,-49.7063,-44.9719,-83.9817,-154.9917,-194.0889,-108.5640,-194.8487,-35.5904,-202.6122,-69.5579,-84.7312,-112.0928,-207.0504,-68.1545,-100.4604,-159.6017,-182.9708
-240.0403,-99.4918,-35.9482,-58.4418,-3.5908,-135.7650,-122.2012,-38.9129,-144.9959,11.3108,-224.7797,-92.9949,3.5969,-73.7022,-139.3779,-31.4695,-171.5562,-154.5229,-166.3563
-303.0696,-162.3333,-100.5164,-106.1563,9.5054,-134.1842,-88.6639,-66.9266,-107.0117,-31.5474,-281.8082,-142.2313,24.9307,-72.6346,-45.3226,-31.8736,-261.0911,-200.4804,-218.6760
-347.5748,-199.5676,-211.9224,-165.8964,-81.6172,-109.3630,-154.8691,-53.5318,-141.5679,-10.0747,-318.3974,-182.2944,-50.7054,-48.2436,-36.6640,-9.9274,-366.0519,-209.1674,-283.0627
-316.8461,-208.2908,-342.7920,-182.9541,-177.1813,-12.2847,-222.9225,61.2930,-163.4624,106.9999,-282.4344,-188.4851,-138.1018,16.8611,-74.3333,45.3924,-429.8919,-93.3695,-234.8325
-292.1114,-216.3354,-366.5504,-165.0911,-136.2049,77.2878,-146.4434,133.0197,-67.4125,177.5734,-263.2316,-178.0757,-121.6743,45.5518,-44.9771,69.2195,-370.7473,36.5540,-86.9537
-345.6455,-231.5512,-230.7397,-184.5308,-17.0653,46.1178,-5.1237,82.3577,51.7969,128.0084,-326.0581,-192.7468,-29.9424,0.7254,14.3567,37.0375,-254.6116,38.6357,-1.1191
-371.1910,-272.5826,-128.6239,-253.6615,-0.0774,-53.7811,20.7044,35.5892,85.5341,71.5121,-356.3674,-245.6362,-12.4721,-61.1791,9.3730,2.3637,-193.7039,-21.8799,-3.2179
-292.3547,-301.9346,-188.9686,-300.7706,-82.4604,-85.1268,-52.1609,77.3751,101.4697,103.5488,-282.9295,-276.1525,-84.3301,-83.8253,-26.3073,5.2621,-156.1410,-14.6296,27.4682
-210.1022,-210.6594,-252.9672,-293.4635,-122.3958,-68.3224,-101.6752,95.2648,131.0912,120.8592,-206.3318,-218.0923,-101.1881,-76.1505,-28.8363,13.6654,-102.4414,34.5755,67.8064
-183.7018,-22.0252,-179.6064,-276.4403,-97.0187,-107.4354,-113.5208,5.3596,90.0617,19.6848,-176.8268,-115.2470,-22.8833,-70.1285,-20.2132,-6.4171,-100.7309,31.1540,8.6699
-153.6372,80.7773,-66.0032,-273.6915,-76.9440,-155.6353,-120.5422,-80.9499,7.8083,-82.6223,-139.9043,-68.9512,37.5982,-64.9847,-20.2176,-21.6325,-156.0198,-37.6368,-87.4161
-115.4846,29.5444,-41.1454,-265.9189,-75.9802,-133.3954,-108.8314,-57.7823,-6.7011,-52.9182,-102.6156,-95.7023,23.9379,-58.9905,-14.4480,-0.7937,-184.6820,-126.1344,-114.8575
-103.9059,-57.5646,-89.7195,-259.1497,-69.8702,-128.2231,-69.1366,4.6983,19.0552,27.2922,-95.8748,-139.7662,-5.7347,-89.6253,-21.5886,14.8655,-179.0031,-190.9511,-121.0621
-96.4880,-88.6155,-119.7717,-263.9770,-41.7186,-200.1180,-24.4537,15.4755,18.5134,46.5010,-90.8120,-162.7754,4.5956,-156.2078,-46.5391,-5.2031,-158.2354,-212.9995,-154.2857
-94.5537,-73.0300,-62.0211,-242.3215,23.5802,-221.4699,11.3610,4.1149,27.5063,41.8070,-92.9259,-148.6066,57.4664,-174.1490,-38.5130,-17.1627,-75.5920,-205.8828,-157.2232
-115.2021,-40.3559,74.0724,-179.4070,103.0892,-139.9895,48.2528,7.8171,50.2456,46.8685,-120.0774,-104.8456,117.3379,-116.7300,5.6934,0.3285,55.1124,-187.6870,-114.9907
-86.5895,-11.4265,179.1707,-131.9941,131.4921,-95.3774,81.6127,-3.9021,16.2778,19.7993,-94.5173,-70.1502,130.7358,-76.7495,22.6011,3.4286,128.2348,-160.0589,-88.5990
25.0630,13.2033,139.4281,-122.1860,80.9809,-119.5844,69.9417,-14.8336,-52.4778,-1.6970,18.1002,-50.4099,77.8477,-79.1972,6.9005,-6.3579,105.6939,-116.4975,-82.3629
91.7558,35.7802,-6.1087,-109.1772,0.5652,-70.8397,3.9818,44.0304,-54.7183,72.0513,87.4890,-22.6073,1.7897,-29.7637,12.8744,28.0113,38.1486,-47.0136,-34.5588
33.8088,4.9599,-87.3509,-105.1826,-37.6610,58.4426,-41.4363,135.6732,18.1051,184.0070,32.6669,-25.8953,-40.4628,66.9049,48.4758,90.2020,-20.9918,19.7883,65.9805
-31.9705,-99.9070,-31.3513,-148.1641,-15.8410,111.2330,-22.7718,141.0020,84.4683,188.6672,-34.3682,-95.6329,-35.4899,88.1197,83.4437,100.2074,-15.6879,15.7102,138.6146
-13.2882,-163.4748,50.3050,-177.2869,11.8124,51.7791,-15.4020,60.8112,92.2644,94.7985,-21.2157,-144.0652,-15.2613,33.6624,100.4808,55.6649,63.1546,-39.1598,110.9749
11.2987,-98.5478,56.1581,-119.8418,-1.7919,1.5116,-64.6394,13.2150,54.9504,51.7643,3.9745,-89.9619,-17.0115,25.2564,85.7745,31.1451,108.6707,-33.7100,27.9335
-16.3008,-1.2557,17.6407,-27.7508,-33.4982,20.1661,-90.1863,41.2520,20.6689,106.1683,-15.2431,-3.8563,-43.1569,75.2329,44.5499,49.8873,49.8099,35.5803,-10.2575
-24.9089,29.2525,-8.9060,20.0579,-45.4562,44.1087,-52.7499,80.9775,16.4808,154.1569,-20.0927,29.3448,-62.8584,89.0650,6.8186,64.4840,-16.7113,61.0478,7.4179
14.3389,32.4997,-8.6460,25.9155,-38.6241,19.3695,-29.7631,81.1415,14.1535,132.7010,15.4201,30.1258,-52.6040,47.7950,-25.8149,48.0555,-8.9139,27.5254,20.1288
21.9497,36.9828,17.5912,9.6036,-25.0576,-11.1608,-48.8767,46.0475,-10.5527,91.4285,21.3368,21.8203,-29.2618,11.6308,-60.9617,24.6533,9.7859,5.3868,12.5294
-16.7563,14.0998,34.4668,-7.7641,-12.1020,24.8163,-32.9142,27.0202,-16.2763,90.4728,-17.3525,3.3078,-30.0722,13.1723,-62.1772,24.5574,6.9096,13.1170,27.3563
-7.5200,12.1451,15.8443,29.9075,0.7634,108.3783,51.4580,84.9304,40.6360,144.3279,-14.8682,25.1882,-48.2420,43.6065,-15.9110,51.8047,57.1868,41.0707,97.9346
78.0103,85.1759,16.8814,116.1615,37.1235,144.6469,136.4123,169.4422,120.6155,205.9604,60.4158,105.0521,-27.3724,71.5563,30.1192,78.2276,161.0987,76.5209,181.6344
154.1155,146.2436,67.6884,148.3814,94.0561,100.1511,154.1811,143.0902,135.8673,180.1363,134.3947,147.0778,39.1428,57.7785,52.9307,66.5521,209.2597,72.9715,164.2082
168.8272,110.3842,102.1269,96.3847,108.7136,35.6119,104.3260,22.7275,53.1612,71.5762,157.0755,96.5147,73.0790,10.9804,46.9208,24.1158,165.3802,37.4686,25.3953
164.0617,50.4597,102.9052,51.7329,62.4537,13.0292,35.0149,-16.0718,-56.8312,31.2636,160.7884,37.0139,37.8992,-9.9116,-21.4130,5.4873,105.4132,43.4800,-64.9391
178.6450,42.6573,120.2936,54.4159,25.8089,41.1793,1.7781,55.6509,-91.3585,103.6746,176.0602,32.2177,-2.2968,14.7832,-101.0034,31.2119,80.0753,69.5344,4.5104
171.7688,30.2518,122.5585,37.8761,22.8908,69.9345,15.1826,93.2212,-49.7473,141.1405,165.2058,27.6555,-13.4564,42.3594,-67.1688,57.5164,60.1996,19.8129,90.0486
72.7657,-38.9445,45.6773,-27.6247,-6.9016,32.7563,26.7054,62.5735,-27.2758,92.9219,66.9095,-22.6176,-47.3790,43.6498,45.7109,53.0162,4.8798,-83.3479,53.9738
-91.7972,-106.5945,-76.0825,-78.1665,-69.4072,-44.2670,7.9060,44.2263,-53.2191,64.6692,-91.6611,-70.3509,-116.4121,28.6601,83.6271,32.5330,-70.4873,-122.4892,-9.5586
-183.7483,-112.7692,-168.7383,-68.3699,-90.5294,-63.8128,12.3168,31.3717,-48.7693,65.0960,-180.2417,-66.1919,-148.8054,8.5490,57.1799,9.5580,-111.9281,-59.9009,9.5660
-134.7093,-86.1330,-186.3544,-48.5194,-41.3307,-29.8266,84.8991,-5.8259,27.1544,36.3024,-132.2079,-43.8334,-103.0035,-12.4997,80.1846,-8.6321,-107.5296,29.5894,65.2310
-45.7890,-82.1118,-122.6098,-77.6590,25.2983,-27.7689,158.2896,-13.9938,106.7046,24.5130,-44.8105,-57.2757,-27.8742,-29.6757,121.6095,-6.3820,-91.9286,52.3191,99.5782
-21.5413,-97.4359,-57.0671,-109.3437,53.5151,-49.6793,150.3674,5.8217,105.5508,41.6767,-22.9753,-82.8683,7.1147,-43.7819,102.1106,1.8140,-71.7268,-1.6350,107.0835
-35.9580,-79.4653,-60.3201,-62.5263,39.6698,-45.0626,97.7532,-33.4972,10.2152,-9.0053,-39.5602,-56.5872,-8.0072,-53.3144,60.2016,-20.5751,-40.7249,-47.1688,56.4308
-28.9610,-16.9398,-65.3482,25.6342,19.3257,-40.0643,74.4398,-117.6335,-109.6672,-108.9069,-28.7526,8.0271,-26.4186,-48.1058,38.7706,-56.8886,-37.6201,-29.9767,-44.0396
-2.2418,26.0499,-24.4683,58.2057,19.1835,-35.0727,80.1293,-129.1335,-148.8057,-117.2532,4.6541,37.4238,-18.3325,-25.4437,18.5386,-54.1463,-71.6801,18.3247,-82.5968
10.7311,15.8725,-16.5823,48.6257,32.3390,18.5739,98.4528,-50.1930,-74.2503,-28.5615,16.5400,28.9165,-7.3724,2.0954,10.3020,-18.1842,-67.1078,74.7434,4.7839
-4.0119,17.5895,-37.0800,80.3594,45.1679,69.8634,134.6781,8.1058,29.7801,23.1419,-6.9286,50.4577,-10.4646,15.4430,24.7246,-5.7440,11.6627,125.0858,123.0837
-11.8434,77.5967,11.8015,153.6381,50.7970,46.6467,150.4543,-27.0505,65.9826,-23.6468,-21.0088,113.1114,-7.6943,7.0070,20.9933,-32.2673,90.8312,117.3140,142.3605
