Fp1,Fp2,F3,F4,C3,C4,P3,P4,O1,O2,F7,F8,T7,T8,P7,P8,Fz,Cz,Pz
46.9114,27.8509,99.2569,7.0284,29.7211,60.2246,42.8479,91.9091,23.4372,106.1210,14.4112,18.2793,37.3629,38.3465,16.4598,51.1444,70.7765,66.5796,32.4957
99.1269,32.7506,135.9217,110.1729,149.2331,155.0383,209.9595,151.4612,86.3872,129.2015,0.5310,38.5865,87.6054,82.8440,174.1663,196.6331,44.4434,35.7956,85.6076
47.1072,19.2721,39.5760,109.2002,149.4684,45.1937,217.5818,14.3892,44.7869,9.5852,-1.1180,48.7721,112.3669,31.7698,174.4350,161.5320,-53.7628,-64.3030,14.2938
-44.8971,65.4163,-48.6539,78.0809,106.5018,-113.6773,191.4721,-130.2770,24.7974,-96.4774,-1.2879,87.4125,100.5707,-43.7548,150.9916,67.7146,-139.0002,-153.4994,-78.6773
-94.0955,70.0826,-87.3085,28.8543,54.0109,-164.4092,170.4935,-156.8430,71.2413,-92.4357,-25.7984,49.4381,41.2793,-92.5369,177.1487,97.2094,-170.0089,-207.8346,-74.3336
-95.0962,-16.1405,-119.7654,-57.4955,-9.8401,-167.6113,77.5713,-147.9871,73.4436,-61.8506,-41.1992,-54.6903,-11.1591,-99.4378,116.9804,158.9503,-156.5086,-206.2430,-30.8570
-71.8562,-64.9455,-113.5935,-97.9412,-23.3712,-169.4840,-18.5598,-145.4295,8.3629,-76.5458,-24.9358,-81.2446,3.9712,-70.7004,26.4954,113.7979,-128.3044,-124.8971,-46.9758
-49.9086,-29.0823,-78.4700,-42.4785,0.1953,-143.4787,-35.9321,-133.8246,-34.9411,-116.4130,-15.2100,-30.3629,33.7168,-37.8027,55.9978,39.4312,-107.2415,-32.9269,-90.8540
-28.2021,18.2488,-62.8975,46.2865,-8.5605,-119.3281,-17.9434,-141.3804,-24.4701,-143.1231,-17.6667,15.3708,21.4196,-7.4079,98.3821,42.8542,-73.9494,-5.0331,-68.5955
21.1679,47.8621,-18.1045,100.3998,12.5962,-112.5626,38.6974,-138.8961,8.1064,-119.6558,-3.4216,50.5789,28.8303,19.0411,49.2358,76.4295,-22.0058,-2.0863,29.4099
67.3784,37.7710,57.2956,78.8755,122.0921,-78.6430,140.8733,-62.5992,39.8388,-35.3820,4.5851,45.9730,79.8835,13.9377,22.7782,82.1693,-1.3789,21.0922,115.2534
51.9112,-28.5634,54.4559,0.3910,197.0492,-19.8771,161.7841,31.8147,55.5277,49.3172,-14.9002,-17.0410,70.5184,12.3116,49.1307,101.2935,-22.0474,36.8972,124.1698
24.5260,-65.3576,1.2379,-17.8344,154.9604,24.0110,72.3924,65.2919,49.4205,70.0449,-22.0403,-35.0410,-21.1875,71.4128,32.0094,156.0619,-10.5483,45.2184,103.2313
67.6336,-9.9726,37.2760,69.4495,114.3185,38.7370,47.6514,63.7281,35.9414,40.1101,-4.7842,22.4413,-52.8221,108.8628,1.1857,176.7095,70.1661,84.2142,123.6266
130.6690,58.4472,134.3968,134.5670,170.8743,16.5651,146.4270,50.4227,31.9984,6.6356,-2.8087,33.9035,40.5162,33.7769,29.2573,114.7557,153.1891,135.6986,158.5123
115.6613,67.1133,148.1202,103.2106,248.4381,-12.3076,226.4766,18.9301,49.2451,-7.6191,-22.7303,-17.0710,118.6580,-42.5081,82.8405,43.2717,153.0848,143.8293,149.1199
33.4567,41.1689,46.4251,70.6057,235.7017,14.3829,215.6033,20.3555,86.5155,2.0878,-45.4511,-26.1824,48.8111,2.3794,121.1303,56.8360,79.1491,92.3557,119.7590
-31.0616,31.6835,-68.2636,108.9911,131.3060,69.0522,169.4684,68.8990,121.0836,24.4602,-63.9218,16.2039,-90.3783,82.5955,121.3759,108.8468,44.7103,19.3938,118.9909
-12.4359,68.7740,-60.1966,172.1058,47.2282,71.0746,138.5499,79.6570,141.6299,34.3458,-56.5945,56.4732,-124.1246,82.6266,68.0602,81.0080,111.9613,-10.3470,127.5773
79.7180,111.3408,78.7197,195.9033,72.7813,46.4539,146.7320,43.2558,166.3492,24.7665,-21.7769,74.1444,-35.9523,42.3306,38.1042,4.7944,175.4760,25.5593,111.6857
149.3191,81.3287,169.3120,175.8311,146.1752,78.3499,188.3894,63.5663,200.7581,20.3622,-10.0556,53.5164,31.9380,60.1140,93.9381,24.4302,140.6117,77.0864,97.8207
137.8704,25.0539,120.0537,170.9353,164.1814,168.9330,216.4908,159.8659,213.2495,47.2165,-27.5748,30.5383,21.5066,151.9117,137.8949,124.6242,100.1069,112.4836,126.3341
124.8384,49.4155,97.5363,219.2524,149.7307,259.2845,206.8092,239.4618,167.1227,94.8466,-15.3822,74.4828,21.9415,228.9409,96.6247,134.5057,146.3811,155.2462,169.6185
187.1478,114.3545,217.9468,257.7668,158.8100,295.3717,174.1930,257.5862,72.4325,119.5907,25.1615,138.9629,67.5691,213.4946,58.0867,36.7842,200.4027,186.5167,165.7083
268.1297,137.1505,353.4248,232.9841,157.0681,265.0996,131.2743,242.1717,3.3567,104.2841,40.4966,142.9997,74.2117,168.8621,63.6303,-2.4384,194.9147,149.6576,126.3096
286.5295,144.8143,374.8800,202.2876,125.2717,223.2213,109.0735,215.3298,20.5878,84.4581,40.4372,135.4109,11.4926,182.6044,23.2847,48.8354,189.4484,63.1128,115.8859
237.7687,147.6577,293.7671,201.1652,110.4897,213.3564,130.2874,184.4896,80.9621,71.5236,53.9631,157.2783,-46.2206,188.5407,-76.1956,41.4245,202.4910,-13.9074,112.6190
147.0388,122.7368,167.2987,177.3806,102.4508,197.8234,131.9837,153.2962,99.0618,20.0072,52.9699,144.5845,-56.9246,114.2826,-115.4067,-47.6114,164.8174,-76.1652,34.3239
44.6661,120.5364,57.9087,125.9297,43.6799,152.3684,58.9326,114.3079,65.6435,-71.2719,27.5542,98.5265,-53.6739,42.7765,-38.8606,-73.9676,64.8743,-124.8295,-91.6339
-27.4275,133.1723,-11.6644,95.0540,-44.0309,110.0162,-22.2661,61.3580,16.1064,-136.4615,15.4576,87.4691,-63.5072,32.3432,47.8890,-25.9570,-30.4493,-137.9856,-168.2220
-47.5026,69.8138,-74.0810,84.1149,-95.7350,66.3217,-54.2842,-0.1496,-47.7088,-159.4792,18.9785,92.4642,-79.3123,17.9496,32.3765,-45.5172,-66.6891,-138.5546,-200.7554
-19.2551,-10.9173,-94.5734,77.7369,-107.8303,3.2817,-92.6573,-51.4066,-115.7778,-175.7348,15.3541,75.4832,-83.7132,-16.3950,-35.8771,-130.3201,-47.5067,-160.2836,-236.3559
31.4151,-0.3789,-20.8671,73.9966,-108.9184,-32.1865,-152.6867,-62.3410,-132.9531,-164.9656,15.2180,62.5018,-61.2438,-26.8238,-33.7928,-132.5311,-40.9027,-171.1610,-231.8331
50.2269,13.3154,44.1137,45.7322,-97.3515,-19.0395,-145.3423,-31.5784,-75.5257,-95.4849,17.8905,47.8158,-21.6788,-33.4185,36.7767,-47.3009,-101.1199,-146.3729,-147.4069
24.2869,-41.3357,11.4319,-1.1690,-62.8250,-21.5604,-56.5570,-11.2433,-7.5143,-27.4636,-4.9389,5.4633,-5.3846,-61.1711,81.6718,-5.3724,-165.5521,-126.7227,-37.0128
16.2027,-52.7126,-9.3734,-12.6358,-20.4982,-70.9092,8.8122,-37.3468,-7.6808,-26.7765,-36.9033,-23.4210,-28.1388,-84.8772,72.6973,-22.7071,-146.7225,-124.2197,46.3341
42.1357,-4.9391,39.0499,-0.1750,4.7904,-116.4746,7.4697,-71.1465,-58.3553,-51.4891,-37.4960,-13.5936,-51.4679,-105.9339,49.8851,-18.4496,-94.7692,-100.6177,96.6573
32.4966,-15.4077,38.0494,-21.1166,7.8524,-118.5158,2.2650,-66.0855,-64.6045,-36.7691,-25.0157,-13.6152,-41.3753,-135.9440,51.4411,2.5094,-115.4636,-72.2832,108.5628
-25.2948,-68.4133,-35.2166,-68.3443,4.0949,-93.2176,30.0612,-40.8726,6.1168,-3.2278,-36.4669,-46.9512,-16.5905,-146.2009,84.5757,-7.2360,-195.6173,-91.6922,95.0523
-67.1655,-96.3800,-86.8383,-117.6610,7.6860,-77.5296,72.1714,-37.1211,90.5288,-2.6737,-58.0075,-92.6325,-12.3641,-133.1305,101.7655,-29.7525,-250.1178,-137.3210,86.3712
-79.1633,-143.3087,-124.0466,-165.4946,24.7226,-75.2408,121.6671,-43.8435,146.5563,-22.7348,-66.9227,-135.4864,-28.9993,-118.7552,65.0972,-38.2978,-252.5597,-147.8689,78.3282
-81.5704,-193.5782,-165.3843,-155.8213,60.6720,-36.0281,178.3607,-5.0096,181.1416,-0.3577,-66.2287,-135.9133,-32.6519,-73.1367,34.0857,-23.0421,-216.9000,-120.3578,68.5006
-55.3482,-149.8121,-136.3177,-50.3457,103.5640,60.2236,219.1174,90.8873,175.8360,79.0278,-51.8593,-61.0661,2.6929,26.3991,60.5325,47.2481,-144.1200,-89.6568,78.8410
-11.4153,-55.4376,-58.7486,59.9434,115.1499,137.6901,221.1368,165.2257,124.9858,140.7960,-23.8168,23.3930,55.0094,113.1178,88.6624,148.2515,-56.5463,-72.7461,79.5170
-10.3982,-21.3917,-51.5296,87.4167,77.3585,139.9779,179.6457,155.7620,92.6067,129.3539,-7.6056,38.9484,71.5827,122.7946,80.3897,185.2864,-7.2417,-73.3381,27.7996
-44.6078,-20.7608,-95.4307,81.2217,29.1671,129.0353,114.6854,129.4312,116.6459,106.7277,-5.2521,30.7304,42.3731,104.5762,66.1451,166.8132,-7.1030,-81.5427,-15.4919
-44.7179,10.1945,-86.3929,107.4184,23.8388,174.5774,80.0708,179.8856,152.4737,149.0158,11.5031,72.5437,15.7136,154.2969,40.8853,206.0271,-5.2720,-71.3681,23.9939
-11.8222,44.0130,-38.6604,138.0475,61.7518,242.9774,104.5696,264.7095,162.7387,211.9058,34.0566,126.3866,17.1086,259.3107,4.7506,293.3285,20.4822,-38.5272,93.3033
-3.2437,53.4421,-17.6346,128.4908,98.4341,260.9823,140.6776,281.0681,155.5885,213.8734,30.6413,128.4597,20.9252,304.1059,13.6081,307.4307,25.2455,-3.5084,115.0602
-19.0029,53.8658,-18.0327,91.5022,117.2208,212.5586,149.3517,228.5989,151.3656,166.4286,11.6125,99.0296,22.5275,258.6739,53.9538,246.7487,-14.5016,22.5143,117.8835
-17.9590,31.9956,-25.6263,59.0683,142.9963,141.0645,163.3426,166.9529,179.1800,126.5037,-1.3617,64.8507,45.9340,215.1817,53.1489,212.8050,-63.9446,20.7514,153.9984
-3.1992,-37.4510,-53.7647,29.3267,170.2451,88.7004,199.3448,112.7669,236.2014,117.3970,-15.2795,9.3983,73.5535,191.0161,30.8019,223.4108,-111.1707,-33.4260,205.4335
-10.0916,-119.4782,-89.8101,-18.6358,152.7215,49.3463,214.9767,69.5643,254.6641,135.4430,-24.1382,-38.9504,65.4794,112.0076,31.1170,218.3407,-174.0378,-102.7505,226.2625
-38.9188,-140.3866,-103.9904,-65.7320,93.2477,0.3306,187.3128,48.8119,198.8085,143.3689,-10.7982,-24.7898,31.1922,10.9878,12.8643,170.4651,-212.2448,-115.9572,197.3066
-50.1162,-79.9135,-88.8486,-58.0436,49.9307,-39.9699,134.9235,29.9432,120.5662,87.6474,4.3909,20.3794,-0.7863,-13.5274,-32.4568,105.9613,-161.3328,-81.4724,132.2401
-27.8226,5.6046,-56.2283,11.2537,28.5312,-42.5242,78.5472,-3.6708,57.7163,-6.0254,2.4410,46.0785,-37.1081,15.2207,-40.9985,67.4124,-52.3538,-58.5599,63.5695
-12.0922,73.0471,-31.5088,93.2747,-17.3123,-20.1604,41.3351,-21.6126,0.9311,-44.1684,8.3365,95.9983,-80.9488,31.2163,-20.3285,56.2060,26.9703,-50.6192,18.8959
-31.5256,139.6746,-33.1172,162.5104,-73.1096,3.7117,35.2463,-8.4481,-30.5528,-14.4138,30.0987,188.9898,-101.9687,46.9436,-33.5988,23.5610,68.4224,-38.0231,12.3391
-44.0837,209.0411,-34.8453,229.2569,-73.2369,29.8929,46.2827,10.7624,-13.7312,6.5224,36.2803,236.8323,-81.3098,67.1812,-62.3699,-26.5829,131.4266,-22.6666,42.1430
-12.8939,247.3694,-0.8954,287.0689,-13.8162,60.3817,70.8911,32.7241,15.3319,-2.5657,22.9501,214.4686,-39.6391,72.0218,-38.9664,-23.3208,216.3677,23.9255,76.1590
15.6103,244.1434,37.4172,306.3858,41.6762,85.8826,94.2345,64.1424,10.3589,-2.9531,16.9418,205.7463,-18.4112,82.4359,30.5611,21.2895,239.0462,109.7145,76.4732
-5.3134,201.1784,15.7787,270.0482,48.7182,96.9469,59.7620,71.9405,-35.1813,-4.8795,23.0128,221.9171,-44.5972,93.0891,67.0510,19.6113,148.0817,138.5084,46.0415
-41.3303,113.0546,-58.1447,196.5285,15.5505,83.1234,-24.2901,35.4123,-102.4747,-40.0362,27.4564,197.4577,-89.7054,60.8760,37.5553,-18.4887,9.5932,55.7016,8.2144
-57.1840,20.0813,-115.9474,122.2964,-24.7648,37.5551,-58.8202,-10.8961,-144.7082,-76.5573,19.0235,136.3420,-95.4070,7.2162,18.8898,-23.8791,-83.3219,-28.0166,-25.5648
-73.3671,-27.8661,-130.4714,54.1991,-52.6899,-28.8521,-26.8883,-44.2703,-109.1281,-77.1986,-7.5134,79.6278,-70.6918,-34.2785,73.9284,-20.7080,-142.0923,-27.8397,-34.1885
-95.0028,-56.8006,-132.2874,-24.8464,-78.5781,-88.5081,-12.8389,-86.6448,-16.3799,-77.7116,-32.7089,26.1685,-84.1020,-89.5022,124.8975,-55.5647,-222.8142,-17.1643,-2.1131
-99.7581,-92.9028,-142.3605,-96.1922,-102.1512,-111.4869,-28.1834,-137.0022,47.2589,-111.7199,-29.3013,-18.5269,-130.9109,-139.1084,79.0073,-92.7253,-284.2518,-38.2636,46.5705
-95.9554,-95.1984,-145.5357,-123.9865,-81.8645,-90.0926,-23.0488,-150.4063,49.7756,-133.1943,-13.0202,-42.2160,-130.8573,-128.1200,-8.0444,-104.1769,-252.2877,-13.0746,96.0848
-93.4157,-67.4489,-124.1741,-120.8291,-4.9112,-50.7918,-4.2684,-110.4220,51.7752,-97.7872,-18.3241,-67.9925,-84.3332,-94.6029,-35.8609,-119.5898,-167.4323,79.1689,159.3071
-71.5330,-71.6857,-90.0207,-108.4929,70.0248,-15.7226,20.4174,-54.7703,97.6661,-42.7048,-38.0392,-93.2697,-79.1553,-79.9840,-14.5794,-137.0078,-103.3276,164.0712,215.1805
-34.0618,-84.1537,-65.8979,-63.4465,116.5182,30.2536,78.3667,-6.0266,138.2069,-12.1874,-43.3659,-77.5530,-113.3311,-32.0186,-11.8315,-117.4065,-23.0271,222.9351,234.0138
-2.4079,-31.9241,-33.9814,24.2162,192.9100,104.8494,147.1959,59.5613,111.7760,17.7743,-29.9120,-32.9189,-77.9160,56.7905,-36.4374,-62.3666,120.3108,292.4544,246.2891
38.0832,52.2969,38.1577,117.2794,310.7686,192.9474,184.4196,142.7442,49.0730,68.3703,-14.5871,-3.5098,41.5408,123.7745,-26.1595,-11.9316,248.1979,352.3463,266.5364
84.9126,93.1674,105.1285,196.9547,380.3338,262.7712,199.7124,194.4520,24.1822,96.0413,-13.3200,24.7018,119.4873,176.5087,55.7550,9.9159,272.9597,350.3114,238.2080
90.7769,109.8248,96.1665,273.5839,367.1905,292.2795,206.9098,200.9718,45.1465,82.0911,-16.0495,89.5137,107.0520,244.6298,133.3582,22.0105,236.6673,291.3720,152.4620
56.5719,148.9464,55.4235,325.5265,344.4655,281.1434,204.2213,203.3176,61.6199,87.9297,5.4654,174.3483,110.2314,284.0123,130.5963,58.3149,213.9202,222.7804,72.2185
25.9178,188.5619,60.9860,312.5269,327.5992,241.7830,190.7629,198.3644,36.8204,130.9085,37.2867,224.6339,171.5817,273.5934,120.2734,99.1070,189.4346,165.1618,-2.5308
-6.9344,198.4409,66.4221,246.9843,243.7253,171.5722,130.4706,133.4628,-24.5426,115.0895,33.7058,215.6841,177.1591,245.9081,170.9408,85.5326,123.9105,97.9061,-111.6828
-45.4862,186.8091,14.0813,184.8943,100.0265,62.7544,17.3874,12.5465,-79.3942,-11.4527,10.0978,182.6167,81.1978,194.6329,182.0755,30.9545,39.8257,6.8418,-207.5044
-39.7008,153.1641,-28.4316,148.1904,-10.9787,-50.1399,-48.1639,-96.5610,-90.1549,-145.5945,17.8303,167.0802,7.7932,117.3404,96.2409,10.0387,-26.9330,-76.8693,-225.8561
-3.6928,95.6221,-20.3983,109.0438,-75.8864,-109.8997,-32.9865,-149.2381,-88.5246,-184.3303,38.1397,155.9628,21.1710,63.6339,40.8062,18.0521,-89.0000,-116.8951,-205.5060
-33.3313,44.5927,-52.1732,48.9866,-149.9146,-115.6854,-62.7580,-154.8564,-130.4324,-168.8024,26.8483,127.4242,17.3779,32.8318,69.9101,-16.8954,-174.5391,-128.0546,-204.2962
-134.4749,2.3259,-167.5802,-23.6174,-213.6376,-123.3852,-159.1936,-153.9069,-188.0456,-172.0581,5.8747,93.8903,-55.1605,-32.3634,68.6305,-83.1461,-272.7826,-143.2410,-199.0071
-197.3432,-71.4254,-262.4398,-105.0358,-200.6806,-161.1599,-165.7435,-176.5777,-183.4424,-175.3438,3.0109,44.4470,-93.5832,-127.0828,9.9818,-102.9524,-340.2253,-160.6518,-152.8453
-165.2061,-141.1024,-237.1087,-169.1980,-127.8345,-192.8662,-59.6494,-198.1413,-110.7912,-145.7845,-2.1651,-28.7583,-47.5414,-184.3480,-6.3385,-79.6725,-341.1374,-169.6173,-96.5021
-96.6829,-104.8155,-134.0575,-145.2946,-79.5857,-176.9650,-7.9698,-180.6432,-39.6594,-117.5271,-14.4451,-48.8265,-12.5134,-153.9217,25.9488,-78.4535,-266.3819,-174.9162,-89.3676
-55.2268,24.0643,-66.9366,-13.6195,-84.4672,-122.0293,-61.5956,-142.4868,-19.1995,-121.5374,-10.7492,29.4401,-36.9981,-37.1865,19.6861,-90.5017,-126.1249,-157.5857,-122.3047
-15.1482,121.9146,-38.4241,138.4974,-69.8492,-52.1614,-85.0179,-99.5967,-25.0858,-119.4053,7.5334,109.6809,-31.5623,89.1649,-30.2516,-54.5619,46.8440,-79.0963,-103.4222
76.2429,141.8950,55.1506,221.0505,32.7078,31.1131,-2.1235,-19.2028,-7.2824,-63.6756,24.9049,114.6858,51.6633,130.2833,-47.8743,12.2803,183.2473,35.8120,0.8483
169.7055,124.5186,186.7798,222.3696,159.6994,105.4617,90.2833,79.9681,22.3130,21.7246,33.9550,90.3157,120.6659,104.2321,-20.2789,36.0283,223.1355,94.5430,85.8454
177.1538,103.5894,210.8576,187.2712,191.8231,131.5517,89.1755,123.3072,18.9124,71.0454,27.8117,74.7922,105.8529,103.8908,-21.6671,15.6243,207.2098,63.2050,88.3176
154.7507,121.1492,177.9312,187.7464,148.2171,138.2466,53.1641,120.3663,17.5033,76.4883,19.3801,64.9071,69.0968,135.6364,-72.1521,11.4415,243.8544,20.1285,98.5004
208.1448,183.6224,253.6740,244.2946,134.9503,176.9091,86.3908,134.8186,77.1513,87.6343,31.2913,80.1728,66.6399,140.3970,-84.9110,34.0261,332.5117,24.1203,148.7809
263.9681,193.6979,341.1424,259.6122,128.8048,198.1998,119.4140,140.3410,139.1348,95.3585,47.5542,103.8010,45.5381,112.3768,-33.1557,41.3919,333.2521,25.1476,122.9761
210.6939,112.4369,266.6556,166.4765,44.9437,141.2760,37.2256,87.9831,123.3784,40.3780,46.1222,88.0869,-29.6418,77.2039,-15.7590,13.6433,196.1270,-15.0530,9.3876
140.1882,57.3566,168.9303,67.2818,-44.6799,71.1753,-52.9747,29.7544,88.2743,-41.1596,44.0651,60.0208,-84.2857,43.8052,-55.4302,-22.6431,72.6000,-38.1352,-45.4203
165.4734,77.2716,214.0416,57.0394,-20.4976,53.2307,-0.2983,19.2161,113.6967,-59.5783,43.8018,52.4420,-67.3897,27.2385,-51.2595,-23.8943,80.5778,-15.2933,-10.1925
199.9842,80.1601,259.8089,69.9362,61.6721,35.0218,89.6337,10.2647,158.0732,-48.4941,25.1078,30.3503,-44.3412,23.9661,1.5459,8.4264,121.9751,-7.8014,4.3203
147.9580,50.7209,182.9360,40.3518,85.1974,-12.7107,60.3112,-35.8380,160.9628,-87.1654,14.6773,9.3230,-65.0202,-4.3076,6.4147,11.2240,64.6526,-30.5415,-21.7121
80.1820,40.9352,109.7277,0.7940,71.9354,-23.2704,-9.3867,-60.2869,134.2761,-115.6367,40.4027,35.3237,-73.4715,-40.8739,-29.4126,-25.1935,-47.4987,-20.5357,-16.3475
77.6624,18.6509,124.7838,-33.9955,97.8076,30.0503,13.1371,-3.0545,104.7688,-51.7570,52.3327,38.4843,-30.2628,-10.6693,-26.9603,-12.4644,-87.3181,26.9468,32.3528
95.1859,-23.3784,138.6244,-68.6739,138.2963,85.1596,82.0370,81.0091,85.6924,25.2431,9.0075,-37.9532,2.0251,72.1146,7.4944,52.2944,-35.6816,46.7581,80.6560
49.2170,-11.1278,67.8849,-60.8049,104.9915,77.9252,78.9507,80.3847,77.7170,5.6474,-43.5029,-88.1332,-34.5096,98.5447,22.9769,35.8872,13.6742,17.8289,85.4383
-46.5714,34.1164,-60.9248,-6.5738,-24.8405,1.9269,-15.2611,-8.3137,56.5862,-72.9391,-60.1973,-42.1066,-105.2394,40.7629,13.4987,-81.1407,-3.4987,-24.7859,32.2963
-83.7323,25.5761,-129.7543,27.6547,-155.1638,-73.2557,-100.1533,-69.7524,27.0342,-106.9849,-58.8378,4.2955,-147.9384,-17.8227,4.5443,-150.0304,-39.3170,-48.5403,-15.7101
-46.2307,-16.6117,-98.7752,18.0410,-177.1021,-70.0609,-72.1181,-52.2987,41.7622,-69.4545,-67.3358,-21.0197,-150.3155,-30.9624,24.0287,-120.4668,-31.8803,-46.9649,14.3906
-88.1865,-39.9247,-144.0137,-11.7226,-129.0533,-28.0772,16.8618,-32.0931,100.4266,-17.2244,-91.5464,-74.4865,-140.2588,-35.1864,57.1180,-96.8869,-26.8180,-51.3241,71.6248
-247.4996,-41.0284,-329.1520,-52.1029,-133.7711,-43.4375,26.8667,-56.5224,129.8071,-10.3695,-111.1369,-96.0310,-134.7729,-58.5824,44.4742,-125.3238,-78.8545,-93.4031,57.3568
-300.2113,1.4372,-364.3724,-73.1336,-189.5083,-98.8535,-36.4770,-81.3294,90.3466,-35.6877,-90.8383,-56.4518,-113.3595,-79.6511,4.8086,-150.8374,-123.5762,-146.3760,-19.5570
-152.4016,58.3373,-142.8223,-43.4769,-207.7201,-118.9042,-71.9000,-84.7205,5.5597,-38.4714,-48.0012,10.0421,-62.2474,-65.7562,30.0424,-135.5344,-112.6575,-173.4138,-83.7991
-40.5423,34.5143,-27.0898,0.2310,-183.2880,-108.4686,-88.7111,-85.6265,-87.3557,-17.2928,-44.0871,22.1333,-23.4872,-11.0143,85.4515,-80.5019,-103.4731,-177.6486,-85.9297
-94.4514,-11.0457,-154.7861,31.1169,-129.9247,-90.4764,-123.6341,-68.0900,-166.2298,0.2868,-63.0253,-1.0035,-22.1115,53.9510,41.3026,-6.7294,-68.3447,-139.4401,-23.6741
-118.9353,68.4013,-170.3739,87.1471,-11.7870,-45.6551,-125.7473,-17.8302,-242.7650,23.4432,-32.3284,38.0152,4.7546,94.0130,-68.1701,46.8069,90.3852,-43.4948,24.1627
4.4598,176.3332,47.5034,140.9702,100.0444,1.2196,-103.6871,16.6014,-330.1542,36.7742,26.8224,99.0035,80.5074,103.5067,-92.4570,58.1530,252.4498,15.5335,-40.8780
122.9009,119.0824,190.6071,94.3769,60.4666,-13.2234,-146.5030,-13.6630,-391.4450,-12.7120,40.8683,69.8566,104.7367,86.7878,-38.5946,31.5387,206.8264,-40.8586,-185.7688
119.7435,-9.6262,145.7857,-18.6795,-64.8720,-74.7094,-218.6764,-80.8056,-398.1922,-95.1492,26.2958,4.5078,52.2329,51.8337,-14.0934,-10.5510,48.3437,-102.7009,-289.3588
59.5782,-5.7562,88.9331,-44.2259,-71.0535,-104.0266,-196.9207,-114.8277,-379.7870,-124.9505,28.5350,13.7095,53.4056,29.5674,9.9440,-17.4415,8.6446,-52.5753,-309.0076
0.4877,79.6908,52.2116,31.8706,14.1608,-82.5554,-113.6682,-102.0582,-348.5085,-117.4895,24.7378,54.3828,120.5533,20.6336,97.1511,18.7634,42.2649,27.9896,-279.6691
-73.2782,85.5849,-54.3983,63.5846,-10.3981,-81.1290,-128.3754,-112.1761,-306.6854,-155.8544,6.2608,50.9823,94.6551,-30.1217,140.5637,10.6368,-6.1265,42.9899,-246.5090
-128.4844,22.0427,-163.1234,8.8518,-124.8026,-136.8100,-257.3919,-180.0852,-319.1695,-239.1361,18.6697,37.0236,-9.9381,-109.7786,34.3547,-77.3576,-72.0195,65.3722,-242.1097
-78.0218,-1.1986,-120.3784,-3.9959,-104.9820,-154.1584,-306.4158,-207.3647,-394.9028,-270.0905,62.4980,56.1080,15.3757,-109.6100,-90.1131,-132.8252,-29.0447,168.2935,-218.2292
63.8813,51.5007,74.8695,88.2483,99.2845,-36.8012,-144.9469,-96.9797,-403.1004,-164.7630,87.1610,93.2803,179.6885,-16.3080,-55.8756,-73.4023,86.5933,277.2054,-97.5776
154.9060,125.2018,245.2383,178.6779,295.1442,125.4514,75.6044,74.2596,-285.2022,31.6158,79.0276,119.1762,282.6944,53.7481,75.0026,31.7746,177.8943,297.9674,41.2001
130.1491,145.8008,254.4553,179.8564,347.0586,180.2504,152.6415,163.8703,-160.0474,160.6414,60.3840,107.8399,290.9919,63.9810,139.8028,99.8841,198.2734,235.1951,53.7369
88.1481,94.5363,177.5577,134.8887,321.8914,146.8060,145.7186,160.0515,-106.9691,157.8566,43.5312,61.4753,332.6813,79.7167,144.6086,136.6202,130.5320,135.0413,-22.7565
74.3891,6.7770,121.3730,75.5067,314.1049,122.3334,204.9876,136.7796,-72.4365,133.6428,27.1992,16.1713,391.2912,98.5525,185.9001,167.8001,-13.3956,24.0259,-69.6618
-6.9100,-90.7413,18.7214,-38.7267,305.4241,95.9553,280.1989,115.1245,-21.4144,145.2000,-0.8104,-24.9636,345.3401,73.4322,244.3977,170.7298,-189.1200,-64.2761,-87.4717
-157.7677,-167.2147,-165.2043,-173.0650,256.6772,43.7416,271.7358,79.4470,17.3935,109.7956,-40.2552,-74.8239,215.5908,34.6549,230.6615,101.7372,-320.6909,-73.8625,-93.1410
-221.0948,-161.0731,-256.4074,-198.7114,205.3638,31.6831,227.6784,53.0299,30.1663,31.0963,-55.5689,-88.0616,127.7286,39.8514,150.2771,-1.8702,-307.7443,12.2594,-45.8433
-128.3269,-70.1151,-147.1597,-79.9013,194.0878,95.1452,195.8059,76.9426,29.9530,20.0603,-33.4382,-41.3223,117.8098,91.4725,101.4592,-12.9520,-139.2957,124.6760,33.5563
30.5693,12.6727,36.0052,75.3852,194.5714,172.4119,143.9607,137.0740,36.3991,63.6590,-13.0310,-1.1109,121.3081,152.4020,116.8811,89.0938,47.9266,175.9224,88.3691
174.8356,24.7426,171.6934,160.3781,165.7148,194.5341,90.2678,159.3634,61.2317,58.5532,-5.4349,-0.4182,92.8544,166.4352,104.1247,145.7622,135.4719,150.2334,125.7761
256.4176,-13.3878,240.8806,142.3849,124.1953,148.5330,92.0333,112.2622,91.6955,27.5861,11.0743,-4.8845,54.5651,107.2000,23.8143,84.9613,121.2995,89.2747,161.5069
203.3769,-76.6931,189.2411,44.6299,113.5176,90.8445,156.5724,75.7337,123.7024,68.4451,3.6428,-30.5493,41.8544,36.3442,11.5457,46.2986,25.6652,41.5565,193.4517
21.1972,-139.1440,-5.9558,-50.2858,123.8448,93.8497,244.9748,114.4317,166.6118,157.9219,-58.4008,-100.1094,48.9708,13.5157,146.9005,111.6146,-100.4733,34.8717,217.8067
-142.7098,-143.6591,-193.9420,-66.8266,87.7920,117.2597,261.8218,140.6187,177.3641,170.1992,-100.9736,-141.9427,54.0547,-4.3922,258.6018,175.0605,-141.3507,45.7408,170.3965
-153.5470,-89.2062,-200.1851,-49.1051,-5.1475,47.5070,139.3268,49.2750,109.0244,63.0382,-55.3186,-110.2278,56.8628,-62.2780,190.8924,168.5501,-83.7420,28.2255,15.7760
-45.9618,-70.2217,-60.3892,-92.4863,-61.5901,-92.6396,-1.8448,-90.9457,31.4658,-48.1599,19.4219,-76.2482,46.9780,-117.8840,51.9240,161.4958,-58.1069,-15.7959,-112.4317
34.7005,-128.3130,32.8977,-174.1494,-42.9184,-166.8314,-11.3498,-149.8062,47.0060,-51.4420,46.7605,-86.3719,-6.1708,-139.6265,-17.6395,195.8741,-100.1669,-67.9042,-106.8559
17.8808,-168.3529,-6.6922,-192.0216,-53.1502,-156.9795,22.4399,-141.4379,114.1535,-5.2810,42.8088,-93.2563,-84.5854,-156.7554,-57.1655,210.3089,-99.3886,-134.2581,-76.0198
-22.5577,-112.6548,-62.3558,-128.5646,-147.1721,-150.6373,-44.1208,-148.3743,103.0377,-14.9169,43.4411,-65.4124,-118.0931,-166.5049,-110.2135,158.9961,-11.4579,-173.0037,-116.7236
-2.4537,-23.8125,-21.9269,-45.2232,-220.8109,-148.1545,-147.4113,-150.2317,-11.1592,-41.5902,44.8397,-20.6728,-89.9807,-121.5886,-109.8247,109.3581,83.1879,-130.6621,-162.7209
38.9088,7.3078,40.0862,8.5208,-212.1111,-106.8448,-192.6380,-104.7516,-118.6608,-18.1889,41.2242,19.6362,-69.0087,-39.2077,-39.4413,148.6797,92.6576,-99.3253,-180.2691
9.2636,-17.0447,-3.2019,-5.5220,-206.5198,-92.4959,-213.4115,-86.2706,-127.8610,-1.4960,35.5427,27.4069,-99.6973,-18.1770,1.7952,218.4047,-6.4732,-207.1649,-210.4804
-85.0829,-55.3057,-127.8623,-91.0819,-255.4763,-171.9161,-225.2865,-159.8857,-80.2414,-35.3200,24.8007,-12.5044,-135.8138,-99.4428,-50.9042,186.4505,-127.3394,-369.8587,-229.2343
-145.3560,-93.5860,-208.4656,-166.4205,-291.7219,-246.6572,-202.7641,-226.8853,-69.5509,-52.6401,12.3818,-62.3143,-129.3399,-179.6294,-129.9249,87.4700,-155.4007,-410.2258,-200.6145
-127.2624,-120.6122,-196.8108,-168.0335,-261.3782,-198.2706,-182.6995,-183.4004,-98.6780,-28.5029,6.8915,-81.5416,-111.3839,-154.2865,-132.5150,75.0927,-126.9512,-335.1057,-154.4886
-103.2197,-125.9173,-170.6520,-160.1121,-192.9802,-109.9047,-192.5535,-119.1014,-117.9886,-42.1813,7.2427,-87.1202,-119.2437,-90.5899,-79.4497,140.6284,-164.6958,-268.3174,-115.6838
-134.3446,-122.9793,-202.8242,-207.1100,-137.9616,-129.8677,-191.2944,-157.6001,-130.1087,-131.0073,7.2910,-109.9053,-122.2836,-110.8380,-83.2533,129.1292,-240.9887,-243.7058,-94.5330
-161.4436,-121.4791,-234.2684,-251.3636,-114.9376,-203.6966,-149.4833,-225.2008,-126.3613,-217.0290,-0.2870,-139.5684,-98.8964,-177.3723,-141.2768,4.8924,-237.3382,-214.9221,-100.1435
-125.1391,-118.3518,-184.6586,-234.8153,-104.3838,-173.9050,-68.3269,-186.1457,-43.8585,-205.8318,-19.7425,-148.6810,-88.7445,-179.5010,-129.9669,-117.7821,-174.2368,-146.4621,-84.7049
-90.4304,-120.5588,-125.9090,-193.8432,-85.0462,-52.7201,31.2900,-74.1121,97.9864,-109.9921,-38.6562,-137.9949,-99.0271,-134.2291,-38.3363,-154.1954,-146.1081,-41.6853,-5.4872
-115.3577,-120.2527,-149.3866,-166.2706,-53.6997,29.2800,89.8582,-5.1415,178.9528,-41.1547,-42.0837,-133.8950,-86.0899,-117.7767,9.1381,-119.9317,-136.5219,49.9821,81.3553
-136.2194,-96.4667,-182.7541,-143.7493,2.4023,42.6371,87.2066,7.0969,157.3416,-54.3064,-37.8614,-144.3527,-57.4503,-112.4927,-22.7541,-73.7066,-87.7373,85.8485,113.6516
-109.1174,-72.1255,-156.7882,-115.8709,82.9351,45.3797,81.8698,12.5391,101.3849,-80.6072,-39.0220,-141.3587,-44.2380,-67.6703,-41.3292,-50.8607,-31.5778,93.2098,98.0694
-89.1011,-72.7428,-139.1579,-72.5733,131.6229,57.3160,82.2655,20.9192,47.4515,-68.4427,-36.4048,-104.2527,-14.0369,-11.7679,-5.6677,-45.1317,-18.2500,114.5949,51.1648
-94.2920,-54.2053,-141.6388,-19.7286,116.2073,61.4110,30.0689,19.7932,-21.3445,-51.8485,-13.8372,-51.1856,43.7235,-9.5656,16.3383,-47.0180,-20.9755,135.1251,2.9886
-84.7639,5.7895,-93.6503,-7.3864,85.0333,45.2345,-60.7584,9.7445,-89.0221,-45.1660,19.0370,-17.4108,57.2782,-62.7284,-26.4014,-56.8299,-2.3867,110.4599,-7.4458
-78.7790,36.6011,-50.1357,-55.5554,57.6587,12.7045,-120.3583,-3.4821,-107.2767,-27.8596,28.2997,-26.2864,6.5631,-96.9819,-82.8017,-54.0382,8.7092,25.0216,-16.0738
-109.8393,4.6518,-99.6398,-102.8721,-6.2860,-6.9437,-139.0789,-10.4000,-70.4915,-19.0499,5.1271,-61.9777,-37.8980,-57.5454,-87.2757,-25.4653,-17.3643,-73.4686,-73.4174
-125.0016,-26.9801,-152.7231,-101.3635,-92.5612,-5.4530,-152.8983,-12.2239,-41.0422,-43.5542,-5.1623,-66.6591,-47.3500,2.4937,-80.9568,-7.9447,-37.6064,-103.3466,-140.4619
-63.4465,-23.0599,-92.9693,-68.4201,-139.0475,-22.7541,-176.8812,-29.5115,-66.9277,-80.7994,31.0889,-13.8680,-43.5726,3.1087,-128.6618,-31.7867,-5.4953,-58.4614,-179.1973
36.8271,-6.5020,26.7036,-24.0950,-128.9616,-58.6541,-186.6767,-59.9633,-101.0238,-103.4880,69.7837,42.6307,-26.3402,-25.2109,-167.4745,-67.9717,44.5004,-24.2781,-200.1050
89.9545,17.0473,90.8109,22.9752,-79.7133,-57.6184,-143.9430,-68.8992,-80.0994,-100.0868,55.8422,53.8672,-17.7914,-3.6175,-119.3139,-73.4885,59.2987,-41.1858,-167.3263
75.8833,45.8418,72.0608,61.7605,-16.5601,-29.4176,-63.5317,-50.9348,-27.7867,-71.6811,11.0150,45.2864,-51.4748,50.3215,-55.1477,-42.2523,59.9961,-58.1272,-55.4427
67.7108,66.0072,50.3148,106.9939,39.0286,-30.7183,4.4154,-38.7906,23.2982,-41.4748,-11.8003,50.5468,-64.9846,69.5005,-47.9973,-14.7019,101.6838,-25.0474,53.9731
128.3902,88.1156,124.5524,168.3891,115.1922,-25.2454,81.6527,-30.8565,107.7309,-16.6465,-5.7479,59.1066,20.9972,62.5388,-27.4143,-37.7657,180.3283,65.8623,98.3677
198.0421,105.1343,239.8682,200.9888,215.3780,57.0116,207.9135,18.2562,240.2434,30.4042,1.8470,49.5058,141.3274,76.3118,58.6123,-77.6483,223.6456,171.1924,118.4372
166.8344,72.0585,217.2595,167.5769,232.1327,161.6951,320.6299,111.1128,379.9910,97.0549,-10.0968,14.1242,183.7331,97.2248,142.6521,-46.3076,166.0411,204.2973,149.9820
42.6721,5.8368,51.1203,94.2230,132.9438,182.8442,366.6241,178.3892,497.2477,145.3042,-38.9120,-28.6151,159.3055,84.9457,184.9663,41.3788,25.9586,156.9214,187.6434
-67.1733,-26.7985,-69.9995,17.1814,67.9715,129.2709,394.8699,171.3561,560.5560,165.9452,-62.5797,-42.0402,126.3399,52.5692,220.2334,72.1956,-108.4158,127.6461,219.6368
-105.9391,-35.9400,-83.6095,-38.4236,94.6930,84.4732,409.8073,126.7620,534.9178,164.8318,-72.8694,-30.4178,73.2432,32.2297,247.1287,15.4392,-167.3975,141.5885,216.0525
-94.1618,-55.1773,-85.7071,-32.0670,82.8215,67.3438,356.3091,90.4166,459.1782,125.5695,-81.5917,-30.4983,-10.9461,3.3565,227.0094,-57.5977,-133.8827,131.6767,177.2938
-64.1164,-37.7325,-96.3508,40.6057,-1.1270,31.4500,267.3787,43.5026,390.4604,46.4557,-84.3655,-29.0804,-77.8623,-56.3274,163.7586,-103.6489,-28.3326,111.7711,154.6456
-41.4962,29.8834,-78.1663,104.6645,-64.6730,-34.5325,190.9538,-23.6899,300.9553,-26.9870,-72.1121,0.0119,-101.7539,-94.6634,100.5601,-116.6791,76.7614,126.8778,147.3460
-36.4024,58.6676,-58.1837,94.7239,-110.6563,-81.5219,87.7309,-59.6298,175.1034,-38.7233,-58.5620,19.4262,-120.3351,-70.5416,54.5879,-86.7579,103.3002,119.5804,120.3286
-18.2453,26.3794,-40.4436,50.0926,-169.3105,-80.1231,-22.6186,-52.4804,86.4789,2.6689,-39.1242,16.0650,-156.9583,-41.3096,-12.7259,-39.9754,84.8962,54.6979,107.1185
55.3513,28.4534,37.1232,59.2287,-176.1165,-68.3765,-41.6910,-60.7339,68.5413,9.4092,7.2203,47.5110,-176.2119,-48.3065,-117.6177,-23.7454,123.2013,-3.5137,116.0630
164.7666,86.7918,166.0826,120.5850,-127.6248,-86.3738,-0.2199,-89.4858,66.2155,-53.2564,44.8088,101.1000,-151.8467,-39.7382,-176.9484,-34.7612,205.5923,-38.2671,70.6514
217.8358,101.1093,232.8626,133.1242,-120.8059,-108.1164,-21.5629,-81.6956,44.2076,-88.9639,24.2276,87.2655,-127.0586,-4.9457,-126.2730,-46.7113,218.6246,-80.0160,-21.2187
159.6774,32.9296,169.8120,60.1562,-166.4308,-87.5299,-98.2223,-43.4892,1.4689,-49.4896,-17.6550,15.7422,-150.6485,-15.5180,-47.3762,-67.6254,141.9843,-95.7237,-64.3396
71.4214,-25.8456,69.4475,-1.7825,-178.6600,-40.0922,-132.1283,-26.4341,-71.9229,-29.8645,-22.3804,-19.2310,-180.3899,-74.0950,-27.4819,-101.4142,79.3829,-66.2822,-68.3583
67.6087,-9.5984,73.9351,12.6678,-114.7561,-20.8408,-112.8702,-21.3419,-159.5629,-60.3416,-9.0076,-10.4216,-134.3414,-105.0309,-20.1385,-114.3439,98.2801,-35.8188,-97.2461
114.7236,16.0006,143.4483,39.5218,-13.9972,-36.0160,-104.3786,-0.5184,-216.8511,-57.9938,-15.3600,-26.6469,-31.6925,-96.0732,20.3032,-86.0769,145.2489,-3.6381,-117.2666
88.8520,-19.1314,101.7215,22.5984,45.4549,-37.6223,-128.0078,11.9163,-223.8573,-31.5287,-31.5903,-78.5535,29.5459,-86.7023,50.1279,-39.3676,135.1844,59.6542,-83.1984
-14.4631,-51.3856,-38.2745,-8.1458,46.8652,-10.9618,-132.6276,-1.9088,-191.2090,-42.4747,-37.2480,-108.0445,37.9691,-75.2619,62.4759,-2.9369,66.2044,128.4364,-29.4886
-89.1380,-10.4167,-83.3269,-35.3299,83.0850,3.7429,-68.2156,-12.8423,-145.4162,-39.9924,-30.3163,-85.6673,73.3638,-54.8214,105.2851,11.9925,-1.5415,182.9754,6.6194
-96.7003,9.8610,-29.8364,-77.1310,193.3982,1.1651,35.8574,8.6896,-101.5798,21.2244,-23.6874,-63.6612,140.6747,-49.6622,162.4222,7.1477,-53.1481,232.4232,34.5735
-84.8791,-88.9420,-45.1766,-118.0384,268.1156,29.9606,106.3590,62.5666,-35.4212,84.6973,-34.5378,-98.9812,158.5837,-58.2734,169.8055,0.2944,-115.9101,250.3817,96.6918
-76.9360,-193.1779,-110.1553,-131.9651,243.6751,86.5607,119.6014,115.9039,48.8115,129.2695,-49.1592,-146.3235,116.5573,-47.9363,112.3468,6.8932,-164.8061,225.1567,220.9096
-61.9904,-161.6313,-86.1383,-131.5969,190.9064,100.4187,99.6962,122.8228,79.0492,168.8051,-39.9160,-130.7621,77.4006,-17.1920,33.0726,7.1043,-149.4111,197.1028,329.2375
-50.2602,-78.4235,-23.1148,-136.7684,149.3176,60.5236,64.7448,89.8321,42.3159,162.6519,-25.8306,-88.8992,43.4617,6.2975,-16.1062,-15.4201,-97.1062,169.0598,306.8459
-55.6549,-86.7579,-44.4369,-142.3665,100.4042,40.3841,16.6137,76.6512,11.0311,116.6460,-29.5307,-85.8067,-12.8626,22.8653,-32.6353,-17.5929,-80.9739,116.2295,198.8155
-63.0286,-153.5252,-111.6129,-131.8259,57.1762,68.7049,-56.8318,95.7511,-15.4903,100.5870,-20.3002,-83.4557,-42.8628,54.1671,-55.7846,29.0511,-124.9244,63.3082,135.3334
-65.3229,-185.1805,-146.7993,-105.0436,16.4089,90.1094,-145.0190,101.7262,-77.2763,106.1169,7.8233,-44.0499,-5.8351,84.6280,-66.1667,65.5796,-209.4901,31.5699,114.4857
-91.0921,-183.9897,-171.5634,-100.1541,-46.4126,75.6960,-176.3442,89.9507,-93.7134,93.8381,8.3784,-18.0262,27.0415,79.9837,-3.1818,58.7592,-307.8341,6.7645,77.1116
-150.4995,-182.3630,-211.6672,-154.2934,-99.6812,59.8140,-117.6113,89.5299,4.0746,81.7619,-14.4556,-32.1015,-13.5357,61.1712,79.1498,67.6810,-380.8201,-6.5230,38.3033
-195.3930,-180.9866,-242.7616,-228.5131,-115.6591,49.9622,-49.3301,77.8008,109.2187,47.9655,-17.5527,-56.8169,-77.1720,62.4661,71.9467,95.1907,-386.6656,-10.4894,-7.2225
-176.1881,-168.2768,-230.2974,-237.5714,-116.0333,8.8290,-24.4824,14.1787,126.7507,-45.4533,-16.2821,-87.7194,-81.4378,40.8652,27.3120,55.5756,-307.6732,-21.9507,-90.2394
-103.4271,-118.8518,-147.0692,-158.6242,-88.7838,-58.3203,-3.3326,-71.6774,112.8580,-122.8709,-32.3232,-110.6597,-23.5887,-34.7247,61.5335,-36.7693,-169.6960,-4.7792,-149.4325
-25.3594,-38.6330,-30.2154,-50.1863,-22.8987,-99.8027,3.8870,-112.9702,97.8734,-113.3169,-29.2478,-78.8460,41.4835,-81.5305,112.2669,-57.2300,-46.7146,56.0464,-124.0441
24.6826,-0.5961,23.7774,21.1711,18.4113,-105.1003,-46.6408,-102.2246,28.4540,-73.1517,5.2609,-14.3396,66.1578,-50.3682,62.8169,22.1195,5.7758,78.3349,-69.9732
53.0183,-24.4527,20.5000,42.8543,7.7538,-101.6824,-86.5631,-88.1219,-65.7620,-48.5525,29.2494,14.0466,42.0802,-25.5108,-20.2801,100.0600,31.0561,38.5367,-40.3559
88.3085,-26.3942,63.2457,53.5545,-9.4466,-93.2804,-41.1400,-91.2108,-81.6429,-25.3860,23.7014,10.3239,-4.8266,-49.5133,-20.2438,100.4665,94.3722,16.9279,-21.5449
123.2526,7.1043,125.0043,69.8725,-41.0733,-85.5853,20.6054,-87.5233,-8.4704,-26.1488,-0.4622,2.1528,-53.8422,-62.3191,18.6916,45.9951,152.2563,3.8476,-18.3068
107.7177,-13.4686,80.7552,50.4389,-117.0091,-101.3656,20.8115,-70.8089,74.4835,-50.0644,-32.4004,-31.1825,-104.0405,-61.9959,6.0858,14.1643,121.7716,-71.8289,-25.0682
36.2069,-80.5911,-31.9370,-23.3904,-191.0916,-116.4385,-6.9925,-57.6415,120.7063,-26.8755,-48.4127,-79.1861,-144.3783,-88.6664,-34.0009,38.3061,25.3709,-152.8015,9.2580
-26.6241,-97.3098,-72.5724,-100.1921,-219.7925,-83.5498,-14.0508,-34.7003,146.2502,46.9607,-39.9352,-94.2399,-154.5560,-97.7573,-45.5379,54.5555,-50.0117,-153.6216,75.5060
-32.8572,-75.8474,-41.0655,-125.9830,-202.1713,-19.7878,12.2217,17.3631,170.4166,94.7456,-39.0332,-88.5859,-136.1886,-48.0574,-35.9109,13.5410,-64.3891,-114.5998,110.5523
16.3007,-80.6668,-4.1313,-79.3610,-119.0883,34.7116,77.3117,71.6971,177.9738,98.8071,-51.4491,-84.1612,-101.3573,12.7645,-30.4879,-27.1654,-18.6967,-84.8757,124.3123
99.0187,-58.2108,64.3573,33.2884,10.2450,79.2459,155.8225,100.0687,157.8342,101.1234,-34.5331,-31.2815,-44.8240,48.5067,-39.4131,-24.1242,67.8463,-46.7650,158.7225
156.3024,40.9256,161.9143,141.0081,96.9473,99.5121,202.3837,107.7317,139.7365,113.6892,18.2251,80.7194,33.8268,55.9043,-60.9174,-26.0872,131.3136,-5.9473,179.8722
126.2567,109.3727,175.7808,160.2456,107.7878,72.2556,203.6589,88.3984,135.9146,114.1624,58.5318,156.7572,97.8405,17.5408,-60.1169,-51.8615,108.2322,17.3931,135.6139
44.5960,57.4377,72.4613,118.5121,88.9839,35.1812,168.2497,38.9920,104.3826,78.9765,59.6156,145.3344,107.0664,-33.2096,-9.0360,-55.3611,23.8300,26.4879,34.2870
5.2432,-21.6116,-19.3554,92.0523,73.0140,18.7103,117.2819,-4.2440,32.8147,10.9823,43.2610,105.8745,84.2860,-34.0256,40.1274,-31.8623,-35.1704,-2.1593,-82.5800
22.4806,-17.3433,-3.8900,64.7249,77.1806,-21.5269,86.8560,-36.6428,-28.4551,-55.1959,37.9213,76.9366,90.6694,-21.0403,22.6207,-13.9920,-31.4948,-78.8366,-168.4803
31.8020,29.4748,49.2106,-3.9811,98.2334,-101.8200,74.0106,-100.2202,-56.0752,-99.3325,43.0977,35.2027,119.7706,-57.5707,-25.6619,-2.7017,-15.8858,-145.6171,-194.3902
-8.0689,37.2143,26.8951,-68.5954,81.0781,-165.2028,46.7812,-166.7005,-74.0912,-116.4134,35.7414,-5.0499,110.0281,-99.0293,-28.4351,19.2117,-48.2639,-174.9701,-181.3129
-68.4177,16.6414,-56.2341,-68.6929,18.6230,-171.8967,22.8748,-151.9529,-92.0839,-77.2811,9.4674,-5.2497,77.9025,-84.2439,18.5739,64.4561,-99.3299,-200.6165,-160.7979
-77.9246,13.5036,-82.1158,-13.2235,-8.9345,-119.8464,15.1282,-65.4314,-114.2495,12.7998,-13.1239,5.5884,94.1899,-34.2873,69.3346,128.2606,-81.5444,-215.3704,-128.4115
-13.2046,32.7755,-8.0368,47.9589,17.5638,-28.7817,-27.5053,11.1719,-153.4269,79.3220,-13.5185,-9.0372,136.2355,19.5772,85.1256,177.4148,6.0501,-192.7362,-85.6712
50.3368,68.5452,78.2818,77.5813,42.8050,44.4678,-93.5164,58.8824,-184.1726,91.3479,10.1086,-0.6418,141.2583,70.2831,53.7556,206.4537,60.8600,-156.2235,-56.2305
45.0257,124.8169,102.1698,89.7982,77.3011,80.2536,-80.1468,107.2269,-169.7324,98.4478,48.4049,67.6760,146.3921,102.7449,17.9883,249.0202,45.3355,-115.4255,-29.8936
1.3024,183.0783,80.3966,125.8125,157.6481,128.4832,18.3071,151.2878,-134.9478,121.5816,66.6250,123.2455,192.8573,110.2686,42.0278,281.9955,36.8276,-58.6821,22.1531
-33.5331,201.9639,42.0515,165.9281,228.5812,169.7233,81.3053,160.9014,-127.2028,132.6106,35.6961,100.3300,212.0550,90.1331,106.7479,246.5416,67.0957,-31.4634,72.7749
-51.1444,163.2714,-1.1458,158.5014,215.5652,129.1420,48.8996,130.6304,-146.9182,124.1762,-4.9265,54.2436,162.2631,40.1065,121.7843,172.6964,76.5439,-65.7004,66.4510
-41.1885,103.2035,-22.0116,130.9945,135.4428,64.5583,-23.3955,95.0902,-167.6765,105.2763,6.5897,63.3882,113.9711,4.4710,56.7089,129.9091,50.0374,-98.6809,10.4949
-18.2868,84.0903,-17.3242,130.7608,60.1678,73.2057,-71.2511,81.2052,-166.4405,70.3520,54.1558,109.4438,103.5798,19.2644,-28.9046,110.8513,34.0609,-87.5308,-34.8308
-32.2066,116.3535,-24.9316,118.7052,19.5970,82.6720,-85.7688,52.7716,-131.3813,14.1033,73.0735,120.7264,76.9560,27.5423,-73.4687,87.3547,34.1383,-75.9313,-45.7964
-73.2425,132.8323,-55.1589,56.9217,-32.7928,10.5071,-101.8452,-19.8507,-86.9149,-49.3793,48.6559,72.0532,6.5075,-12.4551,-71.9597,75.2590,26.2530,-88.4578,-51.1657
-80.8289,83.4844,-80.3091,-7.3301,-126.5386,-51.2876,-129.0632,-68.7360,-67.3893,-82.9431,19.9827,12.0674,-74.6487,-35.9146,-68.8841,82.8315,16.8960,-96.2808,-60.8742
-47.6685,10.9639,-80.6238,-25.8519,-182.9887,-31.1492,-112.9975,-40.8391,-57.2220,-69.0995,20.6434,8.7713,-129.8394,-10.5141,-100.6168,87.2339,13.1688,-85.3085,-54.1718
-5.7413,-19.0469,-49.1492,-6.0014,-139.0013,-10.6625,-44.4479,-14.7707,-27.1400,-55.1869,49.3846,66.8628,-137.1193,-1.9983,-139.2889,60.0253,2.9724,-62.2072,-47.7038
19.0248,-3.0434,-7.2003,18.4931,-73.3759,-41.1261,-11.9518,-54.7701,15.2967,-78.7195,75.7420,118.5482,-103.4623,-32.1929,-136.9154,-3.1220,-18.0214,-35.1784,-74.5589
-2.9024,15.9784,-10.7065,1.6423,-60.5395,-70.1107,-35.9086,-93.3413,71.9895,-99.5532,70.2503,104.6269,-75.1133,-47.2215,-109.2467,-51.8775,-51.5639,-24.5700,-95.3573
-49.6567,-1.3936,-61.3854,-63.7766,-61.2732,-68.1635,-22.2302,-76.7068,153.2258,-92.4758,37.6515,36.7567,-87.0487,-27.8473,-105.2993,-46.5940,-85.9488,-36.4682,-59.0947
-43.9244,-42.8521,-73.6951,-106.2238,-58.8003,-53.1076,38.1833,-50.9052,208.9216,-91.0658,11.0723,-15.6955,-119.1923,-2.3425,-117.0078,-43.4801,-80.6143,-40.4091,-23.4042
6.5264,-42.2226,-11.9474,-80.8546,-84.8712,-41.9936,47.1278,-51.1792,189.4270,-94.3297,12.4863,1.7586,-122.7304,7.5846,-94.5012,-90.2103,-41.6791,-22.9398,-65.7015
18.2160,8.8843,39.9492,-42.7180,-106.3528,-49.1882,-0.5016,-62.4848,143.0153,-79.7321,26.1087,49.9390,-77.9903,6.5240,-42.5472,-122.6679,-38.4838,-26.6348,-137.9562
3.1446,21.7147,19.3496,-35.3048,-93.5644,-63.2028,-18.7230,-75.6277,128.8454,-80.6924,20.6777,42.9461,-33.1936,23.6475,-34.0011,-99.1458,-66.0923,-91.2757,-151.9070
29.5202,-21.1536,-12.6266,-30.4547,-92.0278,-54.7194,12.7119,-83.9151,126.6498,-114.6616,-0.8438,-5.5353,-58.1241,55.8368,-95.9550,-84.7856,-42.8083,-177.2234,-111.5995
62.6753,-28.6124,9.0507,-24.2706,-102.2306,-38.0072,66.6836,-76.3605,125.3438,-128.0058,-9.9846,-10.6785,-138.2211,34.4031,-139.2748,-117.8710,4.0520,-201.0306,-56.2642
28.2396,-8.7488,23.8470,-56.6456,-82.5995,-33.1028,135.7404,-57.1415,158.4794,-87.8624,-14.0823,6.8263,-186.7097,-57.4485,-83.5089,-160.7696,-36.1241,-154.2884,10.1288
-46.9504,-49.5282,-37.8828,-112.5441,-66.2202,-0.1399,191.4118,-20.0155,210.3378,-18.2802,-41.6007,-36.7222,-170.2785,-116.2652,10.6030,-182.1088,-123.6578,-104.2321,79.4946
-71.6907,-92.7460,-87.2753,-118.7429,-73.4389,79.0145,202.5843,46.1555,232.0882,42.1291,-74.1481,-107.7645,-126.5740,-75.7155,48.3233,-165.8916,-102.4389,-64.3631,127.9959
-10.7735,-42.6399,-15.7968,-53.6164,-44.3888,141.1945,189.1956,105.3276,219.3185,55.3497,-74.3346,-119.5138,-81.6859,-1.1195,43.7792,-108.9345,37.4834,9.9140,143.7075
76.7128,22.8260,93.8628,32.4024,20.4184,152.5228,167.0475,120.0565,171.6612,33.7758,-51.0513,-79.4372,-42.5596,50.8143,41.7282,-46.7613,164.6582,105.6481,131.3352
119.7064,41.7474,128.2415,116.3260,70.6268,161.4888,131.9471,125.2394,86.5751,46.4946,-29.8888,-19.2922,-17.2199,102.0730,33.0082,-11.7741,235.0953,178.4994,130.0726
126.8759,107.3304,147.8976,216.8821,143.0600,193.3071,129.5995,161.3654,30.8787,98.9178,-13.8989,66.6519,13.0229,147.4754,29.5543,-7.2842,293.8407,236.3050,184.6308
130.9390,212.4241,200.8511,293.2304,252.3177,205.3807,186.3945,190.8567,52.4611,123.4525,-7.2149,136.3061,66.9166,144.2028,69.3102,-26.9335,309.4265,267.6335,249.6818
114.3072,216.0087,196.6407,273.8821,288.6041,165.9524,205.8273,161.7283,57.1977,112.4779,-13.2741,132.8401,106.1487,114.5020,117.8744,-23.0152,229.5676,213.2398,235.5063
87.7531,136.8321,137.0145,198.4153,210.6962,100.5880,112.6809,101.2206,-42.7202,108.3277,-16.4865,95.0513,90.4691,122.5939,110.9508,57.6194,131.2843,92.4454,164.8301
100.4528,102.3203,133.8913,155.4974,117.3859,58.2078,0.1806,82.3837,-164.6052,118.9737,-11.8452,80.9524,52.1934,162.1670,70.2945,164.4485,104.7391,-3.7748,125.9275
117.9715,89.5235,159.2305,127.1079,55.9272,65.3033,-25.2844,126.5305,-203.4443,156.8433,-11.2467,74.3811,39.1659,182.8289,61.8073,225.3337,95.2179,-46.3208,118.9035
87.3346,36.0499,124.4603,82.1960,7.2168,110.8976,3.0004,186.5529,-197.3389,227.1074,-10.1606,65.0290,41.8999,195.2634,88.3193,273.7799,47.1307,-50.0760,109.9400
66.0167,1.2449,83.2651,83.1280,6.3888,161.0671,18.9840,212.6739,-226.8141,255.0333,0.5390,78.7589,37.5775,229.9516,95.6606,321.2760,31.5539,-15.2313,118.0458
89.4277,19.0406,86.2102,134.9461,61.1873,182.6046,13.5447,192.0215,-285.3708,191.8584,14.8880,99.0640,43.2852,241.2271,54.2331,288.9243,79.5408,28.9960,129.8942
87.8646,41.9369,84.5346,145.9159,84.9709,163.7310,-22.7964,142.4984,-312.7453,118.6789,32.8503,95.3602,74.5185,182.1474,3.9379,194.6207,113.3278,58.6073,94.7086
54.2612,71.7094,86.0379,119.4619,49.9250,127.0719,-83.6918,110.9917,-274.1870,113.7297,53.4344,91.2214,108.8577,108.2442,1.6224,156.4408,118.5992,110.8311,49.1360
46.4484,119.1835,112.1894,134.4785,39.2278,106.9138,-98.1295,130.4636,-194.6874,147.2102,55.8046,102.7323,132.7115,84.5655,33.3325,181.0647,140.2850,174.1482,72.7027
38.4121,127.3619,84.5368,166.7918,87.1945,99.9640,-32.8946,152.0471,-128.5403,163.9047,33.1654,93.2835,160.2971,86.8455,37.0841,188.3456,147.3453,161.1764,145.5014
4.6297,86.9615,-2.3560,159.6510,128.8045,73.6539,38.5484,112.4795,-81.4119,147.0560,7.4381,52.5022,175.6034,86.2139,2.4629,168.5539,123.9551,84.6253,190.5996
0.2412,65.3025,-32.8108,142.0546,119.7579,30.0708,59.1200,50.0430,-13.9755,107.3958,-8.3698,21.8938,140.1803,94.3775,-27.5134,142.7586,135.3861,53.6961,185.6582
18.3710,71.5511,-6.3021,132.2840,91.1594,7.2151,62.9569,27.5996,71.1130,72.0199,-14.8358,15.7620,81.2046,87.0154,-30.4231,100.6424,165.7150,81.9231,159.3697
-3.1736,65.4388,-14.9437,101.3949,88.5818,14.2931,89.5863,20.5613,141.8334,54.9915,-11.6452,5.7267,68.2453,38.5546,-12.4779,52.4273,131.0458,103.9627,149.2643
-38.5208,55.3090,-37.9100,59.0671,109.5219,19.9516,136.0331,-2.8468,208.6034,48.8450,-10.3592,-13.9468,94.1551,2.0488,19.5512,22.4406,58.0872,98.9712,159.7708
-51.3540,52.5144,-37.4243,24.4656,111.5865,3.7273,185.6051,-19.0839,280.8780,52.8229,-18.1597,-13.8403,91.0153,21.7782,46.5393,12.5753,0.6802,53.6160,141.5406
-79.7325,24.3468,-78.3141,-10.0162,77.5645,-21.1895,205.5611,-23.8895,320.6446,57.3883,-14.3616,18.9599,50.1301,58.0676,36.5580,27.1110,-81.3923,-40.2292,74.6964
-122.0990,-31.9275,-170.5674,-24.2785,31.8230,-31.6792,164.7567,-27.4283,316.9871,42.3070,8.0360,58.2110,18.5007,75.3145,-10.2649,56.1922,-178.9663,-106.5499,18.0801
-133.7078,-73.0662,-221.8961,-16.6318,-19.7548,-23.3535,88.9353,-12.7056,314.3858,21.7122,18.5884,65.8795,2.3082,77.4604,-39.1670,54.3291,-213.8552,-89.4217,-6.3398
-135.6572,-88.4881,-210.3793,-56.9967,-95.0017,-26.8669,26.9325,-8.5068,331.3904,4.0541,2.5517,25.2245,-36.4953,45.9812,-8.0184,8.1778,-221.1143,-70.7659,-53.9958
-160.3052,-100.6011,-202.9540,-157.6227,-170.0246,-76.8371,-21.2716,-67.7962,341.0387,-48.7128,-15.0756,-37.7564,-99.4213,-26.5665,24.4665,-43.9729,-274.6390,-110.0094,-118.1699
-181.7093,-99.4219,-221.4090,-222.7405,-192.5423,-141.3509,-66.7575,-135.3084,320.6152,-126.5349,-11.6735,-69.4567,-132.8763,-83.9326,-33.3620,-85.3939,-311.4990,-123.9291,-114.1059
-176.2939,-63.6066,-218.1183,-211.9839,-159.1236,-141.1587,-83.9073,-123.3258,260.0262,-152.8765,4.1646,-57.1304,-112.7509,-82.0943,-138.2610,-122.3329,-263.4507,-64.3334,-32.2454
-138.2460,-28.9197,-153.9436,-184.8561,-109.5987,-69.1688,-64.4676,-63.3759,170.6597,-112.1333,4.8123,-51.7004,-94.8204,-48.3251,-151.2045,-133.6581,-188.7294,-11.9329,41.3553
-72.4909,-52.0409,-67.7175,-172.0595,-75.8763,-4.4217,-48.2068,-21.6295,95.9764,-63.2797,-18.6044,-79.9248,-121.9218,-26.0574,-61.0199,-109.8128,-146.9162,-10.3258,43.8350
-35.1365,-111.1068,-52.4590,-155.5706,-71.1510,11.0326,-63.0767,-3.3296,47.3287,-54.5945,-34.9363,-98.9928,-143.8892,-26.0244,-2.6993,-94.1638,-131.7215,-6.9966,-9.9671
-57.0169,-124.3182,-108.4983,-133.0427,-73.7826,2.5320,-89.9852,-19.6559,-17.1732,-104.2764,-22.7922,-85.8999,-114.3905,-35.0774,-34.5086,-111.8934,-127.8266,18.6538,-49.9833
-55.2368,-77.7308,-102.2449,-111.0991,-39.4771,-20.4503,-94.1550,-73.1953,-86.5048,-167.8855,-12.9436,-77.7826,-79.1130,-43.4672,-59.6318,-124.9161,-106.8829,40.0685,-24.4988
28.2603,-50.8286,23.6693,-91.4242,14.7678,-60.1867,-60.8655,-99.9498,-79.9391,-151.6164,-29.2832,-87.3066,-81.4947,-61.5830,2.0634,-119.1158,-57.0606,67.9845,23.1812
112.1712,-85.1148,136.5577,-75.2923,24.4231,-80.7281,-8.7389,-73.5287,6.1042,-73.3657,-45.4294,-84.8241,-85.4664,-90.6599,89.5832,-143.9018,-28.0305,117.4688,26.2285
124.4259,-106.1039,135.8073,-43.7260,13.3756,-59.2533,33.8852,-52.4055,66.7998,-54.8853,-40.0452,-64.5968,-47.3805,-95.8902,103.0330,-195.4400,-27.7119,153.4311,17.7902
109.0864,-46.3841,113.4158,7.8034,63.0830,-27.3253,63.3743,-55.7140,39.6227,-89.9420,-22.5645,-39.4480,21.3255,-67.0192,61.5279,-189.4039,2.3786,152.9002,47.4589
106.2823,9.8103,149.1586,9.8105,133.0977,-17.3987,70.4425,-55.0626,-39.8053,-74.0014,-2.1879,-20.7910,65.8829,-59.7443,59.3758,-126.3503,21.5634,136.7675,53.2215
81.8950,-58.3171,149.5032,-91.0781,116.2347,-33.5084,20.8390,-60.4957,-123.1552,-29.6586,6.9645,-41.0119,41.6799,-99.7774,94.6400,-105.8341,-65.0552,109.3343,-21.4016
24.3383,-174.9056,57.7347,-206.2129,45.9003,-64.4142,-60.3528,-75.7769,-181.6433,-35.8994,-7.9427,-101.0880,-2.4806,-127.3829,90.8001,-128.4274,-181.8801,54.8695,-105.0377
-17.4591,-167.3289,-8.1270,-220.3521,22.6189,-91.9410,-87.6729,-81.0726,-201.2652,-69.8522,-23.5339,-132.4882,24.1621,-116.0205,59.0506,-112.4619,-192.6248,-23.6732,-140.5112
-29.8168,-80.3923,1.7008,-186.6050,10.2367,-127.0261,-75.9355,-114.6174,-218.7783,-107.8035,-20.5654,-117.8860,69.6212,-131.2820,59.7900,-87.9068,-156.7932,-121.2913,-194.6571
-59.1223,-88.4945,-29.3878,-224.9926,-74.3756,-194.5466,-135.0373,-203.2944,-283.1768,-171.5612,-24.3679,-128.2113,1.8726,-189.5117,61.3677,-120.4035,-182.4396,-213.9680,-300.9244
-100.1919,-141.1417,-99.5466,-283.1013,-174.5030,-232.5265,-238.2003,-246.4459,-347.8520,-200.5255,-35.7359,-152.6807,-120.5488,-188.2445,14.1485,-135.5411,-184.5081,-218.4023,-347.7492
-86.3989,-69.0294,-64.7185,-214.9784,-184.1433,-146.6793,-223.9024,-154.9685,-306.2015,-115.7098,-14.5086,-93.9377,-121.2654,-78.6224,-21.4033,-43.9535,-72.6463,-101.3762,-248.0312
-36.5590,55.9298,24.7807,-49.5030,-121.4086,-3.8858,-83.0140,-19.9814,-157.1611,7.6021,25.2121,21.1085,-17.9417,23.8755,31.4779,99.7365,25.1673,13.3776,-104.5425
-39.9028,59.1103,-10.6541,50.7622,-78.2819,37.1185,11.6366,16.5888,-34.9407,31.4354,30.0983,65.4148,39.7873,20.6413,128.0746,199.5258,-17.9703,6.0109,-75.3877
-71.0261,-8.4727,-103.2847,42.6961,-81.8033,-18.6030,-14.2657,-40.8505,-44.3853,-42.6246,14.9643,31.5074,43.0549,-18.5587,159.0859,225.6906,-101.6698,-64.9100,-145.9709
-37.5393,-19.9218,-68.3845,7.5517,-89.8324,-39.8948,-72.0142,-84.5533,-135.4450,-91.7852,28.0098,6.6021,70.3988,-11.1053,105.2696,194.4293,-101.4386,-87.9020,-182.4716
16.7003,-8.9221,24.3781,-7.0773,-83.7208,3.1537,-112.0363,-64.5330,-188.3435,-51.8103,56.5906,11.9218,106.4902,-1.7813,66.6260,158.8521,-76.8837,-68.9647,-167.3398
-7.9769,-20.1663,1.7994,8.7248,-108.3425,41.8237,-174.9795,-30.9919,-182.8409,-0.8405,68.4566,30.4732,101.2979,-23.7706,99.3710,171.0033,-106.0997,-76.5869,-196.7239
-69.2436,0.2830,-95.5487,63.0079,-193.6238,45.5624,-262.1443,-38.3635,-193.4118,-28.6377,73.0828,66.9405,71.3409,-12.7156,108.8848,215.0929,-126.1011,-131.5789,-266.7563
-68.0618,54.3162,-123.1793,116.4504,-282.4753,32.5060,-320.8452,-67.4080,-242.2661,-88.2722,84.4627,99.3124,45.8503,36.2850,22.6847,240.6709,-74.0034,-197.2853,-277.1146
-10.2197,84.8170,-54.4431,125.2697,-313.9444,20.0961,-345.0441,-75.3177,-291.5012,-90.1744,98.4778,109.5110,17.4635,39.8876,-74.0476,221.8309,0.5332,-224.3654,-230.6542
41.6997,105.4413,35.2916,124.6414,-315.1591,14.5019,-373.3299,-64.2485,-342.4398,-58.9956,115.4522,141.0751,-20.0615,12.8519,-119.0296,162.4488,48.4754,-209.6081,-214.6026
60.1386,151.6759,69.3468,162.7962,-315.7209,21.6655,-392.5217,-44.5961,-390.3116,-55.5274,125.8957,202.2428,-46.0338,57.4328,-167.3354,103.9498,100.5301,-183.5017,-217.2524
65.4234,205.9610,60.7861,230.3132,-271.1633,60.6856,-341.5547,-0.8197,-366.4299,-59.2310,109.5615,226.3149,-39.1530,160.2928,-211.3126,80.8262,201.6878,-123.0951,-159.2372
111.6524,257.7288,117.1996,307.2665,-169.1715,125.0582,-233.9219,53.5720,-265.4012,-43.4007,84.9722,213.5363,-8.9596,210.3403,-187.9242,52.5084,339.0372,4.9829,-59.1535
208.3587,298.3400,256.9537,368.2673,-87.3112,147.5557,-172.5653,70.8728,-184.8663,-31.0399,93.5132,237.6047,18.1518,188.4303,-155.6183,-19.0019,425.1259,126.2394,-4.6178
268.0634,287.1223,334.7314,367.5358,-66.1882,99.3629,-187.0153,49.9457,-151.0919,-28.4231,118.5741,282.8591,33.3659,168.7693,-183.6865,-90.7325,388.7625,159.3299,-0.7324
232.3802,252.5536,286.0284,319.8547,-47.3171,54.1012,-177.2163,34.2326,-96.5830,-21.8118,105.3052,270.5904,40.1736,176.7327,-207.5108,-140.8372,319.2115,168.6628,32.6525
182.1227,287.9729,252.3430,298.9609,25.5051,50.1794,-81.9484,31.2121,-18.3915,-15.6584,61.5060,216.6409,47.5692,169.5114,-196.3933,-208.9553,374.4223,241.2974,131.3419
216.5731,357.7019,337.2050,307.2745,136.8143,27.2453,33.6151,11.1534,32.4336,-17.6355,44.6738,185.8288,79.7421,121.2329,-214.9609,-295.5660,510.9813,335.4346,226.4016
306.7574,332.3523,446.9170,290.0622,229.2146,-32.8243,97.1053,-34.6493,48.5331,-40.7769,60.4829,176.0547,129.4370,57.3600,-244.5432,-370.2709,539.3439,380.3477,235.8520
347.5794,244.5802,464.6510,257.3979,261.1958,-71.8571,105.9967,-79.5653,37.1127,-87.9831,66.7584,172.1491,134.4323,21.4122,-218.0164,-423.1567,440.9762,380.6296,187.5487
290.8775,222.6229,397.5404,232.4315,253.2922,-71.6578,90.5490,-88.3856,19.5782,-104.6603,50.7039,180.1878,75.7693,22.0683,-168.6248,-432.9906,345.8904,362.3996,177.5216
181.2589,217.1716,297.8769,164.4745,259.9852,-61.4371,96.4093,-57.2937,56.7016,-52.8194,25.3484,158.5765,16.4724,20.0411,-139.4910,-402.6164,273.1652,337.6390,209.8867
90.1324,115.2913,189.6179,39.0496,285.4557,-56.1651,146.3938,-29.4241,138.1297,-0.9844,-4.2772,74.0167,-4.7981,-6.7040,-103.0939,-375.3441,173.8810,312.1772,195.1573
37.2266,-3.8050,94.4435,-55.0129,284.5320,-59.4581,180.7088,-36.1862,165.0116,-10.5109,-25.9107,-5.1721,-1.9141,-20.4952,-50.9564,-333.9555,77.4902,271.5034,111.1369
-19.5617,-39.7963,9.3821,-79.1388,232.8996,-63.3592,137.0468,-48.4162,124.6612,-35.3305,-32.9722,-24.2140,16.6876,-7.6879,6.8834,-261.6960,-13.4704,207.5310,25.8811
-115.8523,-78.4000,-112.9524,-113.6011,132.8099,-59.8526,53.3136,-43.2659,87.3016,-37.2539,-49.1428,-43.5914,18.0639,-34.7696,70.8011,-251.4591,-146.6171,142.7516,-31.4505
-207.5153,-163.1523,-244.9540,-189.0930,10.3059,-73.5964,-18.3183,-52.2138,50.1545,-46.3104,-72.8818,-97.6754,-40.5938,-115.6748,77.9000,-308.9212,-241.4537,86.5814,-79.8988
-202.5911,-165.0495,-253.7803,-210.1156,-54.9946,-104.1342,-79.9170,-80.6799,-0.1435,-67.2806,-61.2612,-112.9114,-98.9604,-134.5673,-19.5268,-288.2095,-180.2215,29.7809,-104.0168
-101.6906,-67.9262,-127.9672,-131.9672,-13.0710,-101.9365,-93.8481,-90.0182,5.1484,-80.6742,-26.2996,-62.6411,-67.6404,-48.6738,-103.4359,-222.2383,-65.3691,-20.5015,-95.1301
-27.0985,-30.5418,-39.7443,-61.5618,51.8156,-86.9383,-9.7527,-98.1364,78.2114,-101.6048,-31.7553,-27.1000,-5.1929,-4.2947,-50.9874,-292.0418,-71.3907,-62.4741,-107.6683
-32.6822,-80.5857,-49.7552,-82.3886,45.5576,-132.4891,86.3638,-152.4953,122.4806,-131.5452,-66.9588,-46.1538,-15.4133,-80.6813,45.6800,-417.1123,-139.0184,-105.4320,-164.0442
-18.9181,-88.3232,-19.9021,-115.0341,24.8479,-193.9934,76.2775,-199.3481,96.0519,-127.4295,-65.8281,-64.9290,-50.2480,-135.8410,36.3107,-393.6196,-101.5918,-125.9502,-188.3661
63.9182,-16.3519,98.5853,-63.1045,80.7021,-164.7108,30.8868,-147.4560,57.2768,-62.7961,-35.2347,-41.5210,-10.1249,-71.8114,-41.0450,-293.2855,33.1574,-97.3087,-120.5181
115.5045,67.9109,189.2924,22.2725,174.8844,-73.8616,84.8582,-39.2657,50.7257,32.6942,-27.9988,-3.5032,79.3814,4.5199,-41.7105,-254.7949,133.5841,-50.6693,-19.1534
77.6542,117.0479,186.1339,43.8856,229.8154,-31.3359,182.0903,6.7295,57.6321,87.1574,-43.1023,6.1132,141.8261,14.2876,58.0700,-204.0016,126.9317,-36.0246,15.1974
20.6842,104.9642,121.6045,15.2451,248.3711,-55.4985,190.9930,-20.3988,37.6159,55.0291,-53.7471,-12.9702,174.2063,22.0515,146.6230,-101.9160,35.4166,-56.5549,-30.3471
-8.4906,40.7935,38.6626,-5.9834,242.4796,-86.7824,146.0565,-40.9870,1.7828,-3.8328,-60.8707,-29.7240,188.0897,47.4252,160.4334,-59.1019,-62.6439,-76.5048,-81.3768
-40.5755,-20.0149,-24.2149,-38.6211,176.1012,-85.8503,146.6962,-29.4893,19.6532,-6.5403,-70.8067,-40.9796,136.5714,25.1111,164.5596,-76.2567,-115.9079,-70.1372,-86.1743
-88.3514,-68.0074,-71.1805,-112.0625,47.7955,-64.9393,156.3427,-22.7248,88.9115,8.9375,-81.7848,-72.3931,4.6326,-32.1434,201.8383,-49.0657,-165.0112,-56.1258,-66.1127
-119.1501,-125.8703,-132.9194,-170.9834,-69.0213,-48.8221,104.5441,-20.3392,107.0003,-14.3025,-86.8487,-107.9467,-102.9447,-39.7059,198.3717,18.8108,-231.1078,-60.3328,-44.1599
-103.8223,-150.5862,-154.2106,-160.7020,-114.6638,-15.3560,39.8776,18.3141,58.5318,-8.9172,-68.5264,-103.9449,-96.3135,5.2303,118.2071,63.5396,-229.8312,-58.1879,-5.9503
-62.9573,-122.5567,-92.8789,-129.6285,-126.4305,51.7088,14.2572,78.1472,40.0232,63.1087,-34.2012,-81.9524,-68.6791,14.8852,45.6973,73.0402,-137.3415,-31.2786,33.7391
-63.8473,-117.2525,-73.5968,-139.6446,-185.7727,78.9443,-16.0693,89.5958,64.3905,99.3215,-26.9116,-91.6774,-149.5776,-47.6759,24.5293,49.2388,-66.9847,-26.4939,28.1210
-120.8466,-142.5241,-168.8507,-149.7364,-283.7491,25.3552,-62.9006,46.8390,63.1721,53.9395,-48.2129,-99.9620,-257.0710,-100.8515,3.1152,5.9190,-66.7493,-66.2681,-18.1263
-145.3933,-105.7667,-221.3635,-90.0407,-318.7995,-13.1026,-77.4134,17.4418,24.2136,9.8816,-46.9846,-49.2085,-230.0712,-64.0769,-25.8855,-16.4961,-56.0027,-104.1301,-64.8636
-83.2379,-13.9070,-133.0673,14.5519,-258.4146,16.2726,-83.0601,23.9261,-37.4700,-0.7032,-23.2421,12.7692,-116.8553,5.0979,-16.3746,-15.1771,9.3517,-111.1276,-97.5166
-2.0545,20.9065,-31.3625,78.3508,-177.7441,37.6064,-113.1913,38.7259,-92.9065,-0.7814,-33.6020,-9.6467,-71.9748,0.6541,22.0678,-20.3826,106.3120,-74.2342,-82.8049
33.6596,-31.4332,-5.1935,63.2245,-103.1331,35.7056,-79.0090,67.1205,-56.4432,41.3519,-75.7722,-107.2983,-80.9874,-55.8692,46.7597,-18.0632,194.9643,18.2822,17.9077
35.5982,-107.0504,-7.6672,-6.3910,-0.4556,57.0216,52.6471,100.4403,55.3847,111.5370,-86.0461,-178.4016,-42.5004,-83.9307,52.5722,22.2876,178.9003,71.5018,122.7024
6.4973,-161.4323,-31.7272,-105.0539,68.6041,46.9159,113.1774,74.4588,63.6435,105.8727,-53.5088,-177.4993,3.2330,-103.5109,42.3688,64.4651,-0.1187,-31.2052,100.8048
-66.4807,-195.6143,-101.6932,-230.1763,10.1867,-40.7596,7.2728,-10.6496,-64.4873,21.4883,-30.9662,-167.1429,-40.6956,-158.3311,5.1723,45.6727,-214.7987,-195.4240,-9.0372
-141.7166,-233.7072,-176.9107,-360.2371,-107.8776,-119.2523,-112.6491,-70.1933,-135.0539,-33.2581,-37.3810,-204.7568,-128.6533,-203.3851,-51.7541,-8.3061,-318.4268,-254.8814,-68.0810
-171.4776,-286.6584,-224.5929,-439.0280,-156.6411,-132.8531,-127.2355,-81.9208,-89.0843,-40.6522,-37.9116,-250.5486,-153.8418,-202.4955,-104.8009,-13.0792,-349.2263,-246.2019,-67.1581
-178.4660,-317.3189,-258.3280,-442.2125,-153.1639,-123.8347,-102.6976,-84.9155,-67.5069,-51.9683,-22.3025,-243.7400,-136.7891,-199.2796,-133.1885,3.2763,-379.0764,-253.6080,-68.8228
-191.0103,-288.6757,-262.2527,-402.0638,-168.5087,-103.9050,-83.5313,-72.3300,-86.4438,-43.1230,-25.4280,-202.7418,-160.6610,-217.0813,-122.9196,-74.0936,-355.4431,-223.0600,-52.0264
-162.2370,-217.4626,-196.3536,-322.4105,-175.0344,-69.5544,-44.3605,-35.9793,-38.4561,8.3667,-54.2362,-172.2267,-196.8852,-209.8716,-87.0770,-195.5787,-228.6885,-152.0943,-0.2412
-51.0552,-131.3416,-72.3938,-175.6481,-138.9292,-49.2493,-21.7467,-10.4241,39.6078,39.1167,-66.3870,-139.7590,-168.5172,-139.0504,-69.3100,-184.6789,-52.5376,-143.4178,25.0644
64.4616,-39.3997,33.5680,-14.2737,-94.9001,-25.0728,-33.3784,6.6146,36.8744,24.0858,-44.7898,-77.3537,-114.2439,-34.2183,-91.0322,-67.9728,90.7476,-183.3265,15.9503
75.9875,37.4058,53.4537,68.5279,-49.3238,25.6663,2.5474,37.3812,0.5394,25.0862,-23.9372,-4.5681,-116.2284,22.2694,-115.6150,-27.5804,157.0829,-177.9853,41.9616
18.1416,72.5925,14.8924,83.1573,24.4806,44.1732,95.3779,49.6987,39.7287,59.4503,-23.5258,36.9214,-143.8522,-15.2452,-100.4954,-58.2761,156.3404,-143.2650,105.3544
9.5228,59.3067,6.1965,88.6599,97.1676,5.5829,137.3544,25.9277,111.5480,71.2667,-23.2596,33.6838,-122.0081,-85.1719,-62.5259,-41.6393,124.8162,-127.0689,137.4903
50.5765,7.6379,33.3371,67.8114,124.3540,-32.7813,99.3596,-4.2121,98.9757,32.6857,-12.2821,9.0546,-68.6742,-115.1898,-44.9768,-24.8556,60.7077,-108.8605,115.8407
38.7976,-54.8116,11.1649,-5.2868,115.4993,-72.8437,52.6683,-53.5604,17.5693,-32.8333,-6.8098,-9.6580,-54.1634,-137.6012,-42.9962,-86.9210,-51.7442,-84.7297,70.6307
-51.4371,-106.3907,-91.6538,-99.4912,85.5585,-156.0649,28.0575,-140.5155,-15.6518,-94.5400,-19.4765,-31.0822,-96.2385,-192.9105,-25.6628,-142.6471,-178.6166,-76.8225,34.8485
-143.3066,-159.6098,-203.3466,-196.8000,33.0335,-236.7272,27.8424,-200.7460,30.7672,-125.3584,-44.1777,-80.5632,-143.9834,-228.4679,-1.9416,-113.4668,-277.4831,-64.9589,37.2222
-168.5211,-208.4575,-236.0311,-279.3420,-14.6321,-251.6365,70.4490,-183.1911,90.4315,-111.3491,-64.3753,-143.7770,-137.0318,-208.6816,12.9424,-46.7016,-317.1337,-20.4941,77.7874
-125.1733,-205.4525,-174.2025,-282.9016,-35.7888,-208.2549,114.2181,-128.3047,125.6492,-73.8074,-69.4873,-181.3260,-95.8596,-182.4118,41.3419,16.6566,-251.1894,52.4015,115.0849
-65.1068,-156.6562,-95.3939,-203.5359,-64.3459,-127.8878,81.1426,-71.7307,132.6194,-45.6159,-66.2760,-182.7930,-110.4668,-164.5440,73.7856,67.1870,-109.9530,126.1973,129.1358
-33.5711,-130.4424,-71.5602,-135.2423,-117.6308,-29.4444,-2.1454,-5.2381,94.2393,-20.9374,-63.8035,-162.6731,-184.1050,-107.8328,51.9061,73.3426,-16.4260,157.1571,150.2285
-12.8744,-141.4937,-62.0083,-122.9508,-142.3685,55.9950,-34.0859,67.2399,33.0589,37.7195,-56.4743,-141.9236,-204.1279,-19.4634,-15.7226,55.0080,6.1389,140.8326,193.2738
28.6655,-151.2130,-3.3728,-122.7174,-98.6319,136.8747,5.1616,145.6405,8.6262,138.3408,-38.5073,-140.2991,-124.6233,42.2295,-46.4411,81.0080,40.6989,139.6333,233.9354
69.9735,-146.1678,65.0347,-97.7990,-20.9684,232.4499,53.8185,237.5127,19.7082,236.0196,-17.1625,-138.6865,-22.3264,75.0117,-20.8095,142.7600,80.4883,174.4542,260.8260
89.3460,-108.7235,94.8009,-30.7907,46.7618,295.0175,85.3991,301.1046,27.6719,283.0982,-0.3289,-90.5138,47.5010,124.2785,3.4217,185.0384,92.1472,181.0272,274.9821
112.4319,-12.6714,126.8224,78.4797,107.4597,282.5256,122.1801,290.4080,39.7681,274.8611,11.7081,-7.0598,99.1954,196.5394,5.7958,219.2095,144.5582,125.7028,248.3658
151.1244,88.9377,185.8679,171.0842,168.7977,241.6209,161.2526,238.2139,63.3097,236.2189,21.0219,49.3651,144.6037,249.7432,17.1617,257.4497,231.2585,44.3905,163.8973
174.5738,116.5794,219.0032,202.4847,206.9368,224.6043,171.9538,202.5359,76.5783,196.1701,27.0728,70.9343,172.5550,254.0786,48.1684,239.9691,226.7136,-23.4791,74.0156
174.4921,108.9913,210.8274,228.3068,209.1505,213.5418,156.2541,186.1556,88.9974,168.6291,26.8229,107.0508,164.9016,231.9480,78.7978,158.3673,158.5947,-52.3566,36.4726
195.6054,155.1497,231.5607,302.2633,201.0081,176.2959,141.5846,163.0040,105.6471,137.5664,26.9364,169.2354,126.6247,227.8901,89.0655,124.9373,182.9975,-41.1359,32.5088
261.8103,227.8555,311.6758,376.4668,192.8597,128.7878,126.7077,130.3720,84.5483,96.1336,40.3817,213.1459,111.0808,245.3291,78.8727,199.1796,280.8344,-23.3784,28.9506
296.4493,240.7816,351.5790,381.7647,151.0334,108.7346,95.0715,108.4226,32.5789,83.0434,51.3679,204.4193,135.0992,245.6959,70.7132,262.8078,308.0061,-13.3995,42.3543
207.1882,203.6174,253.0898,318.9240,69.1556,113.9041,54.4202,110.7404,8.6933,116.3309,29.0934,163.4653,123.3423,216.9219,75.3179,202.5470,251.4911,0.5062,68.1461
63.3699,179.7639,104.8961,238.9480,7.9670,114.8914,15.3101,130.9464,-3.2503,150.5017,-5.4500,134.7547,54.8803,191.3050,74.3921,116.5631,192.0963,5.4653,64.5732
19.3651,155.5723,63.6257,177.8413,3.8168,123.7592,-25.2835,162.6783,-48.9868,164.6531,-2.3256,118.0091,20.4241,184.2135,59.4367,163.1755,149.3358,1.6077,54.2187
56.1705,80.6113,86.5650,123.1205,10.2913,162.9636,-50.9982,204.5844,-82.2116,192.1485,28.3024,81.6570,42.1389,174.0867,34.8112,287.8371,100.2798,28.4017,96.4530
46.6007,-12.9227,43.2661,62.3544,-2.5280,188.8639,-30.1495,237.2486,-49.1785,228.4541,39.5035,38.3758,59.1914,148.2379,-7.1715,314.7625,52.9385,82.8598,163.3932
17.0466,-48.0607,-2.3473,32.1814,19.1439,167.2077,45.0847,248.7458,21.6026,239.8470,28.6018,17.9947,100.0575,117.3673,-38.3848,236.7420,42.4146,123.2440,192.2595
45.3198,-27.2834,49.5202,45.6305,99.1304,148.8895,145.4828,260.2432,94.9903,236.6448,16.8960,4.7668,201.0997,89.9752,6.3685,180.2243,58.1730,149.7637,185.2813
44.4380,-20.3716,70.1064,42.1659,150.6508,151.5033,200.8729,260.1558,142.9502,215.5291,8.3604,-3.7487,248.9640,68.1007,95.4415,163.3046,17.0517,168.7060,143.9816
-61.7937,-43.0446,-61.0596,1.4650,118.6694,113.1769,161.4037,199.0070,114.8211,137.1687,9.7939,27.8743,168.9540,55.6743,107.1908,126.2096,-89.5105,168.7287,58.4257
-155.0894,-26.0493,-186.5238,-2.3783,100.2663,41.9676,104.9466,105.5426,36.3524,38.0942,23.7790,78.2261,94.7442,52.7843,42.5474,101.3807,-109.6122,188.4816,2.7965
-117.5712,78.9072,-121.0995,75.5702,188.8409,22.4188,144.6771,70.2148,10.8958,-0.2901,33.0215,96.7760,141.4054,59.9453,22.2117,134.1428,41.2490,257.8289,42.7320
5.7075,207.5958,64.1626,186.9055,304.0565,60.9556,224.8506,93.0301,45.1555,3.4616,37.4460,108.8919,221.6505,81.0948,48.9673,155.8091,220.1208,301.8774,105.7817
108.0522,247.2002,180.3757,252.7286,320.5867,90.3087,223.7436,97.4910,62.9104,-6.4599,44.6660,130.3339,219.1231,102.9498,29.4965,110.7902,278.2398,254.9601,125.6981
121.3101,182.7065,157.6821,224.8645,254.9636,83.7499,185.5619,73.9496,76.2901,3.6708,27.9184,98.8399,150.5720,110.4151,-5.6114,74.9883,242.8707,172.3181,145.1070
61.7088,104.3677,74.3784,143.9999,188.2798,74.0012,191.4400,81.7661,128.4144,64.7143,-14.3344,28.1163,89.3791,126.5321,29.3472,120.2960,196.7795,131.5918,155.5725
31.4689,71.3994,42.5867,120.4218,125.4896,114.5190,167.2874,146.3791,155.2397,116.1349,-19.8625,26.7141,58.2171,168.6886,79.3281,187.0171,176.6028,145.1959,91.8389
79.0759,68.9254,86.1094,171.6293,49.2164,214.5311,63.8249,225.7762,99.6485,112.1697,27.6571,90.8540,29.6847,192.7117,49.4058,177.5942,193.5829,184.7209,17.7026
135.5394,81.6546,148.1603,191.0372,-8.9946,291.3424,-11.4367,257.6612,35.2401,85.2648,60.0683,109.8061,-14.5342,169.1226,-31.2491,97.2749,225.4613,195.6043,44.0316
163.0427,102.4596,197.6792,145.1366,-25.0979,270.9020,2.3473,228.8145,42.4831,73.4581,47.1136,69.1693,-50.6501,148.5521,-86.0542,50.6067,235.4981,141.3488,127.9592
180.3996,102.5085,223.0438,106.1096,-13.8221,189.5230,36.7112,174.9638,92.1217,72.2868,24.7319,36.7118,-59.0583,152.2319,-80.7369,92.6585,204.8902,61.6377,165.2836
141.5860,62.6559,169.8976,69.2579,-0.7612,98.6023,37.7735,101.0983,115.9673,44.7133,4.6589,17.2598,-64.2730,105.6969,-13.2297,115.2455,98.8663,9.1591,133.0236
23.5548,-5.0566,34.1131,-21.2787,-16.9478,-4.4601,-2.5266,-7.6189,94.5097,-32.3185,-18.1178,-14.9504,-77.3195,-14.6637,56.9050,-3.0686,-79.5132,-19.6500,38.6342
-60.1349,-64.0907,-64.4479,-104.9522,-64.5981,-92.0734,-70.7582,-101.1036,61.3535,-112.4232,-18.8455,-31.1231,-65.7427,-105.3561,53.2415,-169.9683,-206.8018,-33.3915,-87.1150
-45.2576,-59.8882,-48.7867,-97.4264,-91.3464,-119.2077,-106.9168,-125.0580,65.9201,-132.6158,5.8063,-3.4361,-28.7571,-100.6640,13.9470,-209.3095,-198.5207,-25.4151,-154.6549
-39.3002,1.1017,-19.7649,-66.1401,-79.9677,-116.8761,-88.2257,-124.0813,113.1359,-119.8334,17.1348,20.4497,-13.4930,-77.5843,16.7468,-145.9790,-161.4341,-20.7663,-128.9351
-110.9341,12.4599,-89.0160,-122.7953,-90.3337,-143.8081,-80.7036,-163.4070,143.4559,-146.0995,5.3268,-23.8490,-33.3892,-119.2168,15.3517,-114.4595,-205.6244,-47.9326,-90.6068
-177.3015,-61.4477,-192.8897,-234.6641,-140.2623,-205.9089,-108.6336,-231.1755,105.4632,-209.9549,1.5552,-98.6342,-60.6525,-190.9277,-50.6782,-119.1675,-276.9722,-93.6968,-108.1633
-184.4155,-95.0479,-218.0840,-278.6249,-184.8012,-275.2605,-145.0823,-286.6913,17.1824,-258.0001,20.1972,-89.7845,-89.8035,-221.9874,-117.9267,-117.1939,-299.4778,-143.3175,-176.5653
-183.4482,-22.9692,-195.9681,-212.7894,-235.3613,-310.8958,-224.3992,-305.9041,-70.5154,-268.9358,49.1993,18.3267,-126.5760,-215.9142,-141.8463,-140.0051,-277.1252,-199.0307,-271.0106
-190.3263,44.3796,-202.6836,-110.2950,-314.3709,-283.8476,-338.5957,-276.4297,-126.1716,-253.0706,71.3927,105.1936,-145.9531,-206.3041,-166.2210,-173.6808,-222.8654,-241.7752,-343.5243
-163.2287,28.8449,-203.2115,-57.9507,-349.1750,-221.2590,-360.4786,-217.2121,-139.4888,-218.0918,64.3895,91.3924,-128.6815,-181.6908,-163.7707,-148.2846,-167.0937,-248.2845,-335.1469
-133.6946,-16.8918,-179.1460,-71.6194,-300.2301,-162.0032,-261.4626,-155.8311,-120.0500,-162.6549,19.2552,23.8963,-101.8098,-133.8574,-70.5412,-90.5722,-171.1681,-232.2715,-257.7631
-178.0738,-47.2948,-217.2995,-110.0948,-255.1620,-105.3881,-173.4593,-90.7457,-108.5247,-96.1902,-30.2808,-29.3478,-94.0290,-106.2083,27.1720,-75.1856,-215.4104,-209.3647,-182.8123
-245.2212,-65.6792,-294.5508,-132.7766,-243.1289,-57.4303,-147.6087,-32.5295,-140.6932,-50.2481,-38.2900,-46.9745,-83.9751,-113.2503,10.4737,-83.6103,-200.8624,-155.9348,-145.1207
-199.6373,-70.9210,-242.7619,-122.0753,-167.0200,-30.0256,-118.4122,-3.0785,-184.7820,-31.7965,-8.5361,-39.5869,-34.0179,-103.0647,-45.4522,-59.7044,-115.4837,-63.9865,-127.2032
-57.3105,-77.0542,-64.7952,-91.6349,-25.0423,-3.4480,-87.5630,16.7800,-182.0848,-7.9119,14.4563,-40.9626,42.1295,-69.7046,-6.8044,-7.9951,-63.0608,3.3247,-118.0682
20.9863,-99.9790,37.5980,-88.2197,50.2137,10.8118,-107.3263,28.9715,-159.6951,8.6780,17.0962,-61.7712,88.9311,-79.2391,76.1204,20.9296,-106.5160,-4.6468,-136.6940
-11.6932,-111.0048,9.7727,-130.7619,27.4857,-30.6009,-158.5135,-11.9527,-190.5183,-33.7860,26.8657,-64.1330,86.0485,-139.3878,75.7438,-14.7282,-183.2580,-37.3392,-188.7484
-44.7418,-93.3039,-17.1437,-161.8304,6.1861,-89.8590,-189.5060,-75.8633,-241.6291,-92.1491,46.0691,-42.1430,69.8312,-182.3223,11.3730,-77.9314,-199.1447,-41.7528,-223.9938
-24.0143,-80.1364,-0.5147,-134.8461,16.6950,-89.6800,-186.4909,-69.8260,-219.0280,-72.4258,44.4689,-43.9232,70.9453,-179.6441,-15.6884,-70.9161,-150.7150,-52.2015,-188.8361
-7.2418,-81.0476,-0.0020,-98.9362,17.8080,-42.6733,-153.9538,-13.1167,-140.6884,-9.4611,22.5774,-79.6821,79.7024,-151.1570,0.0001,2.6578,-96.7701,-65.4116,-109.4810
-15.8367,-65.1531,-5.5790,-99.5380,43.2804,5.4115,-91.2253,8.0038,-90.4545,-1.0526,8.0449,-110.1404,81.0403,-101.8415,10.2466,31.5455,-41.3661,1.7870,-50.3305
-6.1649,-30.1982,24.9696,-85.0354,135.1212,58.2718,-9.2657,14.3768,-66.6769,-24.3857,0.9729,-110.7696,74.3474,-40.0866,29.9935,4.4070,36.1026,112.0209,-30.0170
16.0113,-9.5828,48.5209,-28.1295,196.7535,109.0682,48.2034,61.7862,-31.3785,-5.5368,-9.9267,-82.8848,56.5913,4.6818,72.5050,12.2631,72.8345,101.2550,-41.2038
-3.5448,-19.7032,5.3072,-6.1864,126.0065,132.0127,52.6693,112.2663,8.7945,38.4451,-15.2035,-57.4870,32.5700,21.7408,81.0624,60.1265,21.7689,-35.0541,-68.2399
-41.0433,-35.9517,-51.3913,-40.1271,16.7776,138.8114,54.3045,124.3361,55.2171,57.5005,-12.9890,-75.0715,30.1237,21.6603,38.6645,88.0730,-12.5165,-113.0189,-63.6012
-6.0946,-20.2550,-15.1547,-23.8569,14.3027,148.8656,88.8910,131.0081,97.7397,55.9296,-9.4183,-95.2228,58.8686,21.1510,7.2160,96.2974,61.5860,-56.6108,-8.8268
84.4935,24.5342,83.6419,78.9970,69.3249,164.1260,82.4494,155.4666,66.1167,60.7499,12.0567,-28.1196,75.8362,49.0238,-2.1282,107.2191,139.8230,17.2821,39.5520
102.4910,54.1909,94.7176,159.4383,48.8924,182.9897,4.1043,166.4991,-46.4059,69.6521,53.5354,103.4744,41.7025,105.7145,-32.7092,111.5404,95.9479,9.0339,37.6252
32.1870,53.8620,3.5291,158.2464,-30.8406,170.3608,-42.8736,135.5419,-135.3722,45.1544,76.6418,190.8936,-11.8812,137.5252,-64.3260,91.3301,-10.1154,-36.6397,1.4565
4.6123,51.4870,-34.2475,139.7356,-77.2972,92.1081,-34.9999,70.0791,-163.8516,-35.4183,68.0107,206.9331,-29.3363,111.9688,-60.3076,26.1716,-53.9422,-21.7656,-41.8733
63.0571,52.0569,31.4184,137.0579,-84.9847,2.7983,-80.7634,-0.0732,-199.9103,-123.3986,59.5351,187.6876,-22.5158,60.4864,-65.4087,-68.7507,-26.6484,58.5641,-54.5162
115.1711,32.0264,89.9162,106.2500,-77.4175,-22.1720,-171.1423,-44.4959,-253.5600,-154.4812,63.8513,138.1151,-38.2356,18.7012,-119.0782,-123.6236,9.7406,124.7146,-1.1516
121.0366,-1.9440,100.5513,40.9001,-32.2777,0.4503,-175.5925,-53.9366,-272.6841,-144.1306,67.1000,77.4145,-56.6432,-2.5506,-173.8023,-129.7194,25.8120,166.6055,79.9930
115.4196,-10.7737,112.4719,-1.5510,55.4314,14.0206,-76.4128,-49.6521,-252.1398,-145.4273,64.4795,55.9978,-24.5007,-1.7051,-174.6831,-163.8388,28.8898,238.9720,121.7760
94.2337,10.9619,105.9969,8.0384,143.9961,-3.2288,30.1956,-64.0683,-222.1769,-163.7847,47.0781,65.5333,25.2091,-3.7664,-121.9945,-227.0076,25.0572,288.6676,121.8172
36.3915,6.1596,30.6925,18.3491,176.8085,-40.6993,63.1840,-93.1997,-212.1703,-171.6179,7.4765,45.4969,8.3471,-41.5219,-53.3929,-238.3225,-3.0547,222.9055,100.8658
-43.6420,-58.9417,-84.5766,-33.8611,116.3992,-53.6291,3.2941,-89.1071,-220.4395,-146.3925,-28.7004,-14.9574,-64.9679,-90.9876,-13.0408,-195.2976,-74.6927,116.5600,69.1837
-123.0007,-116.4027,-177.4182,-117.4487,11.3926,-22.5389,-56.7500,-47.5310,-160.9323,-96.2569,-43.0225,-69.1910,-105.1303,-98.2881,4.2899,-154.8741,-166.6240,76.6176,62.2417
-169.4294,-100.3533,-219.4693,-139.0132,-31.2108,-6.6381,-2.3105,-27.8720,18.2473,-63.1349,-56.8051,-85.9126,-86.7946,-55.0587,43.8692,-99.5888,-226.3370,37.1298,89.5311
-159.2947,-63.0473,-221.1013,-91.2940,-12.5997,-20.9524,88.8404,-29.8552,175.1577,-48.9884,-71.8410,-79.4027,-63.4837,6.1294,84.0457,20.8275,-229.9095,-65.3667,108.5137
-134.6908,-66.0869,-217.5231,-57.7605,-33.2874,4.6452,60.2970,2.5155,163.8135,-3.3680,-59.8737,-76.9985,-58.6298,43.7678,58.3546,151.2667,-198.0471,-143.9356,114.8792
-134.0438,-77.2207,-210.8423,-63.5553,-84.9434,52.7737,-26.7268,41.3199,89.3775,64.6187,-32.4374,-78.1404,-29.6442,32.7921,9.2932,167.2449,-174.8007,-143.0107,124.0954
-113.5329,-73.8904,-159.9317,-58.0700,-64.7234,49.6734,-7.3341,43.4415,131.8029,108.3727,-22.5870,-64.7839,64.9639,15.5870,43.5845,92.1750,-191.8984,-114.0071,103.8556
-55.2819,-75.8915,-77.4641,-27.8769,28.8313,58.4040,114.9710,82.5000,274.8185,169.3609,-13.4721,-39.6599,203.2684,72.0082,127.7164,135.3067,-215.4524,-89.7624,76.0836
-21.3559,-60.5946,-30.4088,-9.5734,113.3444,142.6575,237.0600,185.0696,391.1426,273.4584,17.8151,-27.4438,309.0623,177.7269,125.5539,340.9293,-174.9939,-86.4132,115.2580
-29.1110,-30.2474,-29.5973,-25.5605,139.4215,183.8391,293.7480,219.6433,421.5656,314.6023,32.6918,-50.8552,320.8976,198.2613,40.6965,417.4292,-82.9695,-120.0739,155.7775
-41.8955,-49.0073,-44.2261,-53.3335,90.2903,109.4571,259.7330,144.8657,389.2056,254.2373,-6.4508,-100.3115,246.2253,91.3246,29.4773,217.9147,-21.6521,-129.1344,85.7276
-63.9123,-84.7079,-74.2698,-37.5516,10.8888,38.4529,197.2428,89.3445,354.8750,212.4100,-60.3994,-121.0926,148.8504,-20.2958,133.1226,44.9637,2.7478,-63.5427,4.8269
-85.9442,-43.2515,-97.8054,28.8506,9.3777,28.5584,209.3582,84.6312,346.7085,220.2833,-66.0883,-83.7014,102.1265,-41.0892,180.2207,114.3961,55.4820,5.5192,56.6383
-48.3003,28.5533,-53.5613,68.0302,89.2542,3.5902,260.5231,40.4779,319.1432,173.7206,-26.4562,-45.1545,122.9048,-26.5486,75.1981,192.3611,141.3233,35.0932,141.9749
26.7243,46.6204,35.9936,53.3289,115.3317,-44.5405,222.0921,-39.8584,234.3207,58.4875,0.9582,-48.3193,123.5288,-54.4117,-18.6730,87.3141,208.7611,71.4612,89.7319
32.8958,65.3300,54.1277,67.3719,29.8550,-74.8608,72.4688,-101.7865,110.1624,-54.7812,-10.4028,-37.9486,13.1755,-101.0719,22.9276,-40.7669,240.4550,81.8043,-77.2011
-31.8558,126.3280,-23.5940,127.6455,-86.4391,-111.2752,-102.3104,-164.4643,-32.1717,-154.3639,-24.9636,13.6641,-137.2501,-116.4771,62.3735,-59.9445,255.1214,10.9691,-223.7134
-50.4392,170.1021,-57.6278,151.5142,-154.6368,-150.9319,-201.0264,-225.6812,-149.0260,-228.9225,-6.8838,41.2758,-170.5949,-110.9205,-5.5761,-38.7769,286.3995,-32.9229,-270.4840
20.9738,192.9932,45.0627,142.1316,-135.1312,-141.9394,-169.6266,-231.0998,-170.3072,-224.8723,27.6290,28.4683,-78.6257,-99.3967,-57.9123,-6.2920,365.8342,44.0992,-235.5672
87.8716,224.2605,155.7939,166.0158,-44.5487,-110.1390,-103.8638,-194.8685,-128.2089,-159.8704,41.8229,27.5109,0.3831,-66.9045,-30.2127,57.1459,452.8004,105.0506,-213.6938
68.0776,215.2621,116.3589,187.0560,0.9972,-117.3274,-154.5536,-173.0431,-132.3085,-115.9332,32.0153,31.8503,-9.2619,-38.6479,-40.3244,95.9248,454.5796,10.1949,-256.9663
7.7307,157.9531,5.3137,139.2971,-67.3984,-150.5531,-261.6844,-174.9777,-174.5043,-123.0490,26.5383,12.6224,-61.4238,-75.1203,-121.9484,72.7213,357.6701,-154.5420,-297.0601
-20.1098,123.4794,-19.0299,45.3549,-160.4707,-186.5889,-259.6682,-203.4369,-174.3473,-154.9268,41.2079,7.6540,-97.4052,-158.7884,-170.7425,15.3449,215.8258,-260.9529,-291.6913
-52.7206,112.7824,-15.9384,-43.6741,-212.6378,-229.1957,-192.9712,-247.2234,-158.2731,-174.8981,50.9725,43.3448,-109.0871,-187.4459,-144.7686,-61.0865,46.8186,-307.6446,-299.2686
-142.7302,86.9886,-117.4211,-77.4995,-263.7920,-238.0713,-193.0256,-237.7389,-180.4599,-155.0985,26.2898,83.2224,-111.7121,-115.5791,-87.6430,-118.5286,-107.0544,-312.6404,-309.2847
-209.2317,63.4973,-241.4460,-21.4184,-293.7727,-179.5338,-213.8847,-157.8707,-203.3056,-105.4225,-8.2672,98.2865,-100.6898,-20.2702,-52.6123,-91.5810,-142.1759,-259.2591,-232.5009
-162.7050,31.1883,-234.9179,39.5331,-258.4435,-113.9659,-192.2153,-98.9022,-203.5212,-64.7333,-4.4786,83.6220,-70.6498,-2.6716,-72.3701,-23.8032,-75.2396,-182.5128,-122.8971
-77.5864,-41.3664,-136.0215,-14.8910,-244.5587,-107.9276,-214.3808,-110.4009,-218.0794,-57.4978,28.2634,47.3066,-65.6587,-73.1300,-97.4478,-33.8579,-72.8541,-144.6723,-136.9790
-59.3374,-90.1305,-73.3036,-119.5368,-309.9131,-138.1315,-295.9328,-136.8873,-221.3773,-82.9578,43.2202,27.4694,-110.9895,-145.6933,-57.9636,-105.1880,-173.8449,-134.8835,-239.0342
-69.8440,-61.8513,-64.8907,-131.1691,-332.0176,-153.1686,-283.4562,-137.7398,-142.9139,-112.3211,30.5929,28.9790,-132.2969,-138.6758,-13.7454,-109.8238,-210.8223,-99.4634,-225.8058
-26.2858,-24.7108,-41.3166,-70.8587,-224.7777,-137.3483,-125.6691,-122.5914,-13.6395,-104.9327,6.9208,1.0654,-87.8316,-63.2046,-40.3916,-41.9630,-90.9120,-27.7025,-66.0048
64.0641,-17.7260,46.6979,-26.1831,-80.9947,-93.3375,19.0025,-93.2735,59.3517,-72.2451,-13.2072,-36.7078,-58.4874,11.1867,-62.4023,-19.3911,64.4145,53.1011,49.5551
136.7937,7.8792,160.2521,6.3313,-3.4542,-45.1684,26.0862,-63.8558,42.3832,-65.3163,-0.5082,-2.6670,-60.8916,42.8984,-25.1471,-57.5294,104.9460,109.6952,22.2772
134.4896,42.7920,184.4262,27.2551,-2.7535,-40.9865,-48.6413,-72.3129,-8.5561,-82.0846,51.2049,74.7974,-7.5861,27.4627,-17.2823,-56.8748,20.6773,109.5760,-36.6003
54.0712,23.8419,80.9255,-12.3510,-50.9638,-98.3752,-107.3590,-118.2097,-51.0519,-89.9850,80.6385,86.2683,53.4420,-31.6369,-67.1128,-21.2577,-95.0781,51.4732,-38.1952
-21.5467,-51.7481,-25.0795,-113.8356,-93.4985,-173.9982,-123.2716,-157.1641,-77.1100,-93.3711,44.8589,16.7452,-8.2542,-100.3582,-92.2345,-48.5611,-167.0204,-13.0882,-25.6691
-14.8808,-144.0664,-21.9081,-224.1459,-75.7805,-202.6570,-84.1520,-154.9546,-49.2806,-80.8529,-5.0328,-65.1104,-116.1123,-111.3843,-79.0153,-105.5862,-194.2251,-29.0093,-19.7702
33.1930,-208.6276,31.4354,-281.4609,-14.5399,-158.1115,12.1573,-113.2060,55.9104,-27.1491,-10.0257,-107.1322,-107.3850,-54.0523,-73.5681,-84.9351,-200.0490,3.7500,13.4230
35.6373,-196.1691,27.4250,-239.8634,30.4576,-95.2256,87.9492,-80.3132,147.8150,4.3933,17.2792,-80.5173,-28.9415,-13.7326,-76.8357,-37.0658,-187.6048,35.1721,36.0253
-13.4513,-121.8578,-39.5811,-141.3075,30.2546,-108.2906,59.6971,-126.0923,121.6819,-75.0306,37.9764,-3.1118,-18.2308,-48.3453,-75.5822,-67.8497,-185.2020,12.3772,-20.6516
-57.0484,-74.5603,-109.4965,-91.3135,-9.5781,-196.4189,-38.9411,-238.6385,36.0784,-214.3062,35.1922,43.9723,-77.3842,-84.6321,-72.9333,-120.8300,-225.3656,-57.3328,-113.3345
-45.0743,-84.1446,-122.2330,-99.4731,-53.5884,-229.8011,-114.5822,-292.3736,21.5899,-270.3673,18.9234,17.3289,-133.5711,-34.5003,-88.3899,-98.2698,-231.1271,-93.1981,-125.5612
29.0168,-91.7541,-47.4309,-95.8767,-57.7169,-136.7252,-124.2038,-212.2231,66.5685,-198.0407,17.4088,-37.4555,-144.0939,39.4115,-154.2510,-41.0823,-109.8057,-55.7067,-26.4950
95.3496,-77.2973,50.4848,-90.0513,-34.4682,-29.3508,-76.4958,-99.8527,61.9365,-94.7618,34.5747,-68.0593,-114.2067,17.6270,-223.7099,-27.7913,21.3516,-27.2311,76.0775
69.3068,-81.6224,48.7772,-125.1044,-35.4164,-26.7460,-23.9121,-84.5704,-10.7364,-72.9433,40.2830,-60.5892,-99.4833,-61.6501,-198.2032,-45.6060,-26.9532,-76.2410,63.7415
-7.2061,-98.1122,-41.1599,-154.2372,-58.2390,-68.6247,-31.4253,-128.5517,-77.9740,-122.4217,33.8977,-29.8475,-112.0681,-59.0156,-135.4616,-35.4708,-165.3140,-133.7778,-14.1950
-2.7403,-69.9031,-50.2778,-119.1218,-45.8911,-34.9049,-68.8113,-110.7654,-99.9259,-133.7513,40.7300,-20.7820,-72.7529,33.0656,-159.0122,19.3182,-141.2999,-121.1550,-8.5341
92.6062,-6.7207,77.1266,-51.1519,21.7557,58.4060,-53.1689,-34.6243,-100.7285,-74.9730,43.5895,-57.4592,29.5599,90.8199,-174.2224,58.4140,29.8143,-79.1799,50.8621
141.8919,13.7005,169.9437,-10.1040,87.9769,114.5173,-12.2644,5.6785,-96.5337,-25.7883,20.0576,-94.5663,100.4341,63.8326,-47.0448,27.6273,104.5860,-67.6883,-2.2294
77.2703,-13.8852,109.8434,-4.7859,96.6241,125.0652,-4.0859,11.9355,-54.3493,-6.5455,-2.3078,-94.8299,126.4115,24.5013,106.0762,-8.2637,28.1714,-71.3375,-121.6896
-11.7311,-7.1310,10.6937,0.5611,89.6408,152.1711,38.0959,53.9657,39.4538,34.7940,-11.4463,-89.8519,172.8872,28.7912,155.8437,25.6668,-28.1376,-69.1926,-115.1731
-36.4019,52.9357,-5.2026,39.8030,142.1580,186.8606,148.0098,99.9040,115.3923,65.9040,-27.5201,-95.1422,226.4763,43.2065,171.2507,63.4081,18.1936,-68.8492,-32.5087
-19.1631,99.3120,15.1078,101.5269,200.2053,155.4525,188.9878,60.3602,103.5501,15.3084,-29.7787,-71.3972,231.6751,14.9873,186.3783,39.9561,91.7288,-58.0531,-64.6704
-15.4132,109.8083,-0.5533,144.7894,153.8178,63.9255,88.5641,-34.8055,31.2177,-72.0489,-1.7501,-20.1297,185.1922,-43.0159,148.5697,19.5882,136.1590,-20.6464,-162.6081
-35.6210,110.3886,-38.6565,151.1078,56.8905,9.5204,-14.3733,-75.2604,-34.6405,-107.8398,1.7549,-5.6296,113.7377,-72.6998,118.5747,35.9228,151.9190,21.5067,-161.3325
-69.4920,91.4646,-78.8258,123.0101,32.1822,27.4829,-15.9341,-45.6839,-68.3257,-90.0438,-38.6704,-46.8485,63.9684,-63.0344,162.3965,43.2054,131.1382,39.2362,-99.9558
-101.4641,59.1285,-109.1415,85.4962,45.6120,62.8357,16.5340,-6.7884,-55.1362,-38.5807,-53.8798,-74.5903,69.5644,-44.6985,202.3436,72.6563,96.5964,41.7960,-83.9198
-96.3042,70.2415,-90.2043,105.4967,35.5061,101.6240,47.3277,38.5414,23.6956,49.2799,-24.9704,-35.0363,90.9698,-4.7799,198.3376,169.9730,119.4496,65.9494,-60.1157
-37.0569,114.8285,-24.3297,200.1237,69.8261,171.8782,134.6035,116.0413,129.9391,126.8498,-11.1141,25.3471,102.9492,76.8081,201.3884,249.9113,204.7065,124.7911,32.4379
37.4348,108.9157,29.4441,264.2907,152.9556,239.3172,233.8693,188.7546,172.7012,142.6983,-17.0027,39.6849,145.9571,150.4025,192.5336,244.0021,248.5193,172.2887,113.8483
70.7841,50.2844,45.9872,221.3992,152.0438,252.6929,203.4169,208.7425,111.0475,136.1502,-0.6841,33.0625,183.0082,182.5144,148.3158,231.7020,172.8640,147.2463,103.7879
38.2362,21.2352,24.6217,143.7417,47.9102,227.0424,50.2148,189.0975,10.5008,149.0206,25.3304,63.4773,135.3621,218.9429,129.5722,278.3138,29.8038,63.6737,35.7647
-29.9660,43.2588,-36.2231,109.3638,-33.3231,181.5639,-63.8532,155.6376,-41.9130,132.1535,32.7124,103.9823,81.7406,258.0760,130.9453,321.0205,-67.4986,1.8808,-26.5885
-44.6754,73.2638,-49.3674,97.0992,-40.1582,116.0187,-69.9235,114.3685,-50.5874,70.4070,38.2129,100.6993,130.6412,235.7597,85.4577,288.3411,-59.3090,3.4017,-58.3979
49.5313,101.0942,86.8485,96.5000,0.9161,86.7172,-25.2450,99.9802,-63.7332,64.2327,50.6825,82.9069,205.5656,188.6969,44.4381,213.3930,31.1697,42.2504,-38.5783
156.4190,133.0427,253.2198,135.1997,77.5619,141.8336,42.1781,145.5747,-65.0185,154.1287,46.7769,91.4724,211.0308,195.3739,83.0443,180.5362,128.4192,88.9455,49.2900
139.4332,141.5121,237.1363,177.2638,142.4177,210.5464,118.1443,205.4064,-31.1592,232.6181,23.6685,89.4094,190.3714,197.0798,129.8239,198.8796,169.8914,139.8196,168.4060
46.0774,120.3923,104.6580,167.4211,152.2314,219.4330,149.7842,224.1297,-0.1632,242.5985,1.6963,49.5948,175.8479,142.0241,110.0219,203.7126,175.0408,193.7946,261.8470
30.7033,114.8749,87.7596,142.1017,154.9019,218.5563,146.2620,235.5224,34.2395,260.5799,-13.2844,20.0320,139.3803,144.6704,74.5280,184.5085,207.3003,239.0874,325.9014
98.2779,132.5816,176.0014,160.0592,186.5799,258.2518,174.1912,278.9552,132.5723,307.9026,-21.0305,32.7930,103.4972,242.5693,64.6632,179.5369,255.0464,264.2086,379.1070
138.1695,115.6081,199.7113,185.2531,214.6833,282.1303,219.9395,302.9418,242.3540,306.3762,-10.2621,54.5175,101.3410,267.2905,48.1334,169.6905,240.3046,272.6561,400.9061
128.3083,54.1298,162.8413,151.8292,248.0221,247.1156,231.8881,268.0676,244.6409,260.8142,17.5893,57.2884,119.0468,186.6430,20.1733,158.2183,160.6423,281.8199,379.9763
112.0123,25.0520,155.0158,92.9976,302.6674,216.3423,224.8694,242.0731,168.3007,260.1485,36.4862,57.5139,155.4027,208.0099,18.9913,226.5688,101.9014,297.7179,351.6316
83.6034,66.1730,146.0853,93.2433,305.5699,250.6417,200.6871,282.8210,121.6587,303.4710,35.1770,82.3441,203.9210,358.2154,49.9445,329.0860,88.5871,299.4004,325.6476
39.7215,108.6958,105.8238,133.0533,228.7400,307.0008,127.0152,335.5869,97.9874,317.7809,42.3607,131.2768,214.5067,394.8255,62.8050,296.7992,52.7106,267.7993,279.8654
28.4395,71.0406,90.6455,105.3693,168.6107,311.2516,45.8186,329.3238,44.2558,288.1031,73.8497,154.9994,170.2981,259.4817,7.9511,153.9153,-27.1867,221.1746,236.6192
72.8833,-36.7995,116.5378,3.5425,170.2267,266.8146,15.4288,277.0643,-20.1824,242.3052,91.8106,109.0306,111.1742,173.3388,-78.7510,80.4426,-77.5843,204.8538,223.4323
134.1389,-106.8235,155.4397,-48.9837,178.6468,223.9942,3.3627,227.3647,-65.1085,193.0819,72.0450,49.6540,71.4496,223.8758,-96.2624,86.3626,-50.8110,234.7973,200.7237
157.6012,-48.8110,197.9668,-1.1004,173.7944,182.6931,-27.8530,185.2530,-93.3906,141.7097,53.1170,67.8851,67.2879,263.7528,-40.4445,64.6772,0.1266,258.5703,140.6470
124.1148,68.0739,201.0560,51.8023,169.3290,111.4209,-50.5267,123.4183,-106.1581,79.5568,57.3975,122.6297,87.2467,213.6357,-28.9507,9.2534,16.2846,221.7224,97.4527
85.0745,97.4044,150.5082,41.6431,166.2076,31.0671,-32.6272,45.8106,-107.6191,12.1702,47.8794,102.4569,89.8458,135.2014,-89.7254,-59.2111,30.1690,169.2935,113.6518
109.0925,52.2260,153.3345,22.2537,201.9297,-5.8588,34.5576,6.1769,-102.7107,-11.7246,15.0428,36.8348,70.2524,77.6418,-111.4664,-146.4130,99.5657,191.0883,149.8975
171.9614,70.8484,251.7086,65.8800,298.5184,18.9703,124.5457,42.2676,-76.7311,31.3776,2.9624,52.7551,53.4101,70.3007,-60.6852,-188.9698,206.8416,269.6321,160.7297
199.2151,170.5569,319.5570,177.0712,367.6651,82.2723,169.8646,107.1210,-26.2575,82.2139,19.9468,151.8485,23.7009,125.0374,-21.4997,-146.3536,302.6064,294.7360,149.9082
194.1660,258.1913,306.3703,300.8212,325.0015,122.6002,164.1530,119.2576,34.9535,83.3288,24.4508,221.0206,-19.1116,159.6193,-5.7260,-106.0295,373.9012,222.8433,126.8410
187.2274,295.5665,285.7793,362.2593,222.8897,82.3226,182.5338,72.1869,103.9268,48.1744,-3.2096,216.8692,-30.7391,98.6602,50.1576,-138.8483,392.4324,115.3663,87.2113
143.2264,272.2277,230.6765,335.6495,159.7957,3.8864,229.0082,30.0526,153.2204,17.4635,-47.6704,182.3884,-33.2651,12.1551,126.9218,-208.8573,315.5825,43.5965,55.7941
57.7104,183.9409,99.4954,275.5916,164.7894,-13.7855,241.9072,28.4469,134.6649,19.7458,-84.7413,145.0948,-77.9650,-18.2549,153.8686,-253.5546,205.6963,29.9437,74.9453
5.4571,116.9543,13.2071,232.1714,197.6834,7.8200,225.5804,30.1165,66.3797,38.0666,-92.4770,107.1881,-118.3356,-40.3732,135.0175,-230.9234,175.5361,34.5027,111.8600
-6.6246,140.2213,23.3759,187.9606,171.6714,-45.2166,184.6426,-21.6674,12.5247,-0.4907,-78.2856,78.9259,-119.0006,-104.9637,119.1440,-168.5633,185.3081,-10.6664,66.2418
-57.7663,169.3921,-14.9145,128.2632,26.7544,-163.7185,70.9542,-118.9272,-8.6011,-108.3667,-76.6773,67.4266,-148.6788,-166.7768,129.9893,-162.6725,107.4114,-96.1095,-69.7462
-140.9221,125.2614,-135.5966,85.8800,-172.0636,-220.9652,-76.2592,-180.4248,-2.6227,-175.5071,-88.4773,68.1627,-216.0936,-176.9030,160.6495,-208.0492,-30.7651,-135.2459,-175.2417
-157.8509,54.8465,-191.2420,74.2209,-294.8952,-181.3830,-146.2545,-158.8912,33.0533,-141.2944,-80.6224,70.4607,-233.9238,-133.7006,165.4143,-189.9915,-99.4526,-115.7260,-183.2157
-93.8863,-3.3269,-149.0751,60.4959,-308.1141,-134.4348,-139.0072,-118.2281,63.5488,-101.3689,-56.9330,55.7267,-196.1746,-70.7507,111.9655,-130.6953,-90.8309,-106.7190,-163.2432
-34.2074,-43.4337,-103.4473,34.8252,-281.7349,-146.1623,-136.2140,-136.0255,43.2314,-138.2684,-46.6455,27.9418,-167.3599,-54.0516,54.5947,-156.9671,-73.2624,-98.1539,-179.5527
-10.5013,-13.4643,-58.6290,37.2699,-247.5266,-191.2807,-156.3524,-186.6209,-18.8634,-208.5091,-37.1930,32.2734,-146.5862,-94.8951,39.9972,-227.2793,-34.4640,-24.1374,-202.9003
26.2907,70.0065,19.2713,79.6320,-154.9463,-213.5588,-168.6200,-205.3768,-98.8612,-259.5022,-5.9687,76.3488,-101.9094,-110.1346,15.6371,-220.9473,38.9390,77.6672,-190.8321
73.4470,82.9763,68.9669,97.1547,3.4139,-189.7310,-154.1016,-187.4789,-180.4909,-285.5654,19.2813,88.0741,-38.5293,-70.9697,-30.8249,-181.7348,62.0165,123.4606,-156.7813
59.9686,8.5362,39.1617,40.9497,120.7449,-135.4111,-119.3645,-151.4948,-214.4857,-262.8202,10.8219,35.4857,16.3028,-51.8736,-16.6830,-190.8495,-9.8898,120.1474,-142.8207
-0.0297,-37.9399,-6.5409,-27.8226,123.3745,-78.3046,-95.3677,-97.3539,-185.3642,-179.7686,-4.1334,-7.3906,22.2263,-67.6202,35.7323,-194.2337,-71.1933,104.8194,-143.6496
0.3372,-26.2817,5.2280,-26.5289,101.8754,-37.1450,-76.5017,-38.6043,-170.2772,-96.3926,-4.9520,-3.8914,-22.6557,-55.5885,7.4227,-140.3250,-20.7755,77.4548,-82.6965
56.0275,-18.1401,37.4548,11.6274,151.8720,-14.6989,-20.0470,0.1244,-201.6629,-64.4906,-20.3602,-24.4270,-48.1037,-26.0852,-69.3751,-86.1176,78.1720,50.4019,60.1700
34.8829,-13.6231,5.2039,2.1310,194.5733,-0.6621,36.0852,20.0452,-191.5153,-47.7278,-51.2213,-79.5920,-33.7754,-34.9141,-79.2055,-73.0099,99.7109,26.7692,157.9926
-80.0389,15.3003,-85.0415,-51.2377,121.0115,8.7969,10.2198,34.9937,-100.7755,-0.4509,-44.4939,-72.1657,-55.9201,-58.7498,-68.8667,-50.4974,28.3922,-37.2862,118.5971
-158.0546,25.5120,-154.6813,-97.6711,-24.4562,6.0463,-59.2661,48.2990,-15.8747,49.6966,1.0665,-2.7978,-129.4657,-43.4765,-128.7903,27.5307,-62.1977,-143.2176,46.6347
-147.6354,-32.0596,-181.9798,-132.2993,-145.0788,-0.0770,-73.5471,60.9137,21.3142,71.6022,12.7807,4.5791,-185.0660,-3.4658,-187.4902,106.3243,-123.9368,-227.7555,60.0993
-122.9691,-116.4311,-195.8872,-163.5530,-233.7563,-0.9432,-48.2457,63.6249,66.8914,91.6205,-28.8602,-61.0479,-225.6703,-2.5223,-158.4142,88.8879,-154.5645,-274.0000,97.7254
-132.3620,-146.4182,-194.8198,-185.9017,-327.0487,-28.9271,-70.4453,36.1213,126.0748,117.4426,-58.5326,-82.2988,-305.6051,-68.6693,-99.0660,-5.9307,-168.6993,-307.8690,58.9871
-151.4754,-120.6834,-176.3731,-208.7079,-423.2091,-100.5246,-146.5013,-20.0008,151.8953,104.5894,-44.1452,-43.4198,-389.9319,-141.9610,-84.0873,-46.2264,-184.6363,-317.7442,-25.0925
-142.7062,-119.3947,-165.4398,-230.6453,-475.9880,-162.5605,-187.3194,-79.3970,168.8118,52.7823,-21.9922,-35.0367,-395.5862,-149.6214,-95.1111,9.5723,-203.3475,-297.4129,-71.6311
-113.7392,-172.6072,-171.9128,-233.3257,-436.3038,-177.4742,-127.2679,-117.4634,212.3464,25.0113,-18.8897,-69.5040,-317.1486,-125.4059,-81.1281,63.3181,-221.3426,-277.2325,-71.1298
-129.6416,-220.8334,-202.6244,-244.6455,-323.5845,-177.1139,-27.4023,-118.8373,233.8797,40.4879,-32.5825,-101.1157,-226.9478,-144.0880,-24.4015,57.2500,-259.6735,-262.1199,-70.5759
-191.9902,-230.6466,-242.8515,-296.6426,-210.9572,-182.7573,20.9383,-99.5254,215.8056,60.1405,-56.2851,-141.2766,-179.8829,-184.6429,35.1208,32.4225,-297.2557,-244.7471,-87.9781
-170.9334,-228.2281,-194.9477,-333.6989,-111.9227,-188.3999,64.4544,-111.3366,223.0742,61.5253,-71.1936,-202.9852,-148.7425,-207.9831,44.9953,16.2587,-248.3685,-245.3203,-88.9792
-24.8835,-221.3299,-24.0221,-310.3980,-2.1195,-224.2347,166.6544,-179.0048,246.1660,31.0998,-66.3448,-249.5803,-87.4114,-260.7439,33.5399,-10.5740,-129.4188,-259.9474,-65.9541
81.7739,-202.7565,110.4578,-294.0025,69.2861,-310.9283,233.2708,-266.4104,213.7517,-46.7599,-63.6936,-268.0078,-28.6012,-357.3186,55.8965,-64.1512,-87.8895,-262.4791,-70.3800
61.8128,-183.6037,103.3913,-326.6622,53.6501,-394.8788,202.3293,-331.4916,167.8996,-136.1338,-73.2625,-274.4328,-20.1777,-417.3295,70.6739,-138.6741,-151.4403,-272.0868,-109.2409
33.6030,-160.3381,70.7050,-333.6951,4.5632,-421.4448,176.8187,-359.5334,178.4779,-178.9495,-74.8610,-256.6716,-33.8209,-404.5594,34.3330,-205.0637,-184.7084,-300.9027,-123.3073
50.6650,-134.0564,79.7061,-275.2767,-34.7320,-401.7783,185.1375,-351.1516,184.6429,-178.7385,-74.8494,-213.2488,-55.1262,-370.8777,27.9643,-236.8435,-150.9578,-297.1961,-111.9839
31.4195,-147.4321,38.4325,-222.5759,-106.3283,-376.6838,132.8247,-333.4328,133.5679,-173.0220,-98.5475,-190.0997,-128.7438,-361.5426,100.6224,-250.2002,-140.3740,-248.4714,-127.0802
-29.4072,-205.7369,-65.0224,-224.7313,-211.9249,-369.8806,38.5858,-328.0535,78.0537,-165.1428,-126.5573,-203.2915,-227.1419,-373.1187,137.1652,-264.1521,-161.4150,-215.7666,-146.0788
-75.6563,-241.1063,-149.7679,-239.3199,-274.6637,-354.1891,-17.6323,-292.6809,23.4484,-139.3846,-126.2643,-205.1725,-263.8997,-358.2762,61.9519,-258.2277,-157.7239,-198.9194,-109.0257
-115.5292,-216.1586,-207.8975,-205.0321,-260.0785,-270.7265,-64.4445,-192.7776,-63.3416,-92.9143,-111.8836,-163.9571,-249.3281,-271.4102,-16.3192,-227.4889,-132.0445,-124.5791,-22.5639
-145.3000,-152.3870,-241.5029,-102.8045,-206.8178,-133.8535,-115.3037,-89.9861,-116.6326,-41.3163,-102.2437,-95.4716,-240.2477,-148.1574,-6.3702,-191.5251,-91.8723,-1.9447,69.6862
-127.7627,-67.4841,-219.7495,29.2188,-161.0727,-34.6482,-125.4325,-46.2515,-109.1160,-18.9369,-79.1462,-15.6013,-220.1739,-56.5651,17.4958,-134.3216,-23.5139,61.8658,117.5533
-92.3375,16.9574,-179.9731,129.5219,-138.7582,9.4677,-137.9085,-24.4393,-157.5019,-33.8348,-34.9525,66.6069,-176.1642,12.4564,-21.8419,-45.4129,48.1568,33.4408,80.3060
-75.0179,69.7837,-156.2144,180.7945,-111.8606,61.3595,-192.8683,21.1406,-278.7357,-40.8717,-0.1007,118.6325,-148.4725,77.2105,-68.7126,24.5106,108.4798,6.6846,12.0759
-46.2161,87.3271,-103.6321,192.7726,-53.5365,110.9350,-213.4591,63.8993,-316.1655,-13.8215,3.5398,104.9739,-136.3457,88.8552,-55.9012,48.1045,169.1695,40.6309,9.4058
-6.3407,68.3944,-32.7027,147.8627,2.4234,107.8632,-171.1205,79.0693,-225.9164,24.3403,-7.8088,36.2482,-101.9316,44.8257,-18.2980,70.5561,189.1718,77.4823,50.2339
11.0064,8.0141,-1.8085,58.5460,26.5382,100.2845,-124.4422,91.6683,-129.9917,65.3751,-12.1545,-40.1243,-55.9265,19.6132,-3.6897,108.6997,149.3711,80.7790,68.5944
30.0559,-47.4554,22.3879,5.6366,52.8165,147.8961,-63.7986,121.3884,-74.9451,114.2176,-14.2987,-87.2575,-36.0378,31.1356,10.0338,119.5333,135.7238,96.3113,92.8659
70.8502,-54.5493,71.0772,27.3568,81.3077,195.1844,28.4766,152.6226,-11.6762,146.1770,-26.6394,-92.0984,-50.0063,37.3411,45.5412,95.4072,176.0669,114.3920,128.6551
99.0413,-51.4675,91.3864,70.5359,57.3534,181.8627,86.0343,163.5300,52.9608,151.8068,-37.7049,-61.8424,-70.2333,31.6483,73.0613,73.5394,181.7175,68.1771,110.8964
120.3310,-59.4886,99.4083,100.0002,16.5630,151.6662,107.2126,158.9226,87.7371,164.1777,-33.0604,-26.3534,-46.2738,35.2545,74.0790,64.6856,155.7245,-3.0559,72.8544
162.7382,-26.5529,162.4628,129.9219,52.8336,151.0731,173.6101,161.1086,115.8998,188.5114,-27.9886,-12.1529,37.2098,60.9746,82.7323,61.3291,182.3380,-16.2049,89.7892
179.6913,38.9341,219.0198,145.2177,121.3608,149.7088,259.8121,162.7980,146.5618,190.2158,-35.8722,-10.2253,120.4096,103.5222,124.9460,76.9655,208.7076,-18.4089,95.1775
130.4645,58.4545,179.2406,118.7232,102.0298,119.9529,266.2067,135.1528,140.5443,164.0353,-36.2308,-0.3636,151.2347,125.2909,164.4918,115.6253,137.6625,-77.4396,23.6646
63.6711,34.4123,94.0398,73.9804,25.0897,82.6595,203.5123,89.5234,94.9723,134.5173,-18.3177,10.7615,149.2676,105.1325,148.6050,143.3605,36.8759,-140.7157,-39.6557
20.4891,24.7498,39.0709,39.5417,14.3094,46.7769,164.9112,56.4959,65.5634,112.8871,-8.4202,5.0237,148.6442,73.1268,99.1360,136.7458,-2.2401,-165.8237,-41.7372
-18.8348,12.1177,1.4234,-8.7512,71.4481,-9.6121,182.1907,21.4106,85.3858,95.7097,-19.6956,-25.0055,161.7654,28.1370,97.5277,120.4636,-46.0403,-192.5637,-47.9102
-64.9564,-45.0414,-42.6885,-100.7569,105.6968,-79.1494,205.3113,-27.8119,128.9188,73.0510,-26.8996,-73.9762,188.8056,-52.5323,139.1509,117.6612,-163.0607,-213.5179,-81.3235
-97.7927,-111.6578,-80.3557,-202.3500,111.9344,-103.1161,196.8107,-44.5036,161.3927,41.6654,-9.3529,-112.5556,206.7032,-100.7450,117.8966,112.2671,-266.1615,-169.8883,-96.0176
-101.2691,-133.0263,-91.8668,-240.6229,152.7938,-44.2757,189.0044,-3.3401,167.9897,23.7410,20.5051,-111.3146,200.9837,-56.4144,26.3549,95.6843,-260.5406,-67.9015,-64.8221
-86.1303,-118.2221,-81.0605,-201.3380,204.0938,51.1501,203.4438,52.8966,141.1802,40.7824,35.2240,-87.5414,191.7238,-1.8133,-9.6422,90.9665,-208.8078,27.1952,17.6270
-88.1865,-112.4338,-90.3645,-153.8628,172.5837,114.3420,181.8096,98.1776,89.4156,78.4009,21.6862,-74.4471,167.0060,4.5630,38.2498,100.4002,-220.9823,63.1004,113.9980
-108.0659,-129.6274,-127.4018,-146.9854,65.6640,150.2550,99.1756,151.7821,39.1811,114.5453,-2.0637,-66.8281,100.7351,45.8098,60.8302,99.7036,-268.8146,50.7102,155.0580
-88.1305,-139.7622,-113.7900,-144.2183,2.2974,205.8001,39.3970,213.0443,1.6579,148.8896,-4.9302,-49.3564,59.1151,152.9710,30.7931,98.3061,-251.5045,65.3862,150.8220
-26.3073,-124.6629,-35.4006,-114.7394,24.8519,260.6862,42.1419,243.3661,-29.6160,168.7733,16.5684,-28.4019,103.5501,225.7959,23.1417,119.6263,-196.1722,118.6586,145.9022
-7.1213,-113.4427,-10.4278,-93.8617,43.1467,246.3941,35.3520,211.5488,-53.1681,143.9157,37.2093,-6.9827,148.0531,217.4516,40.7727,140.8375,-206.0308,117.8829,104.2122
-44.9044,-120.8588,-70.7202,-97.0705,9.7940,175.1397,3.3043,142.9723,-68.4668,85.4935,40.8186,12.8504,124.3653,189.3909,35.4834,137.1804,-250.5928,70.3293,32.6349
-62.8160,-107.3012,-98.8298,-88.0893,-4.8007,132.2043,24.4925,106.8157,-76.7929,47.4500,33.9335,18.3980,124.8611,182.7462,26.7222,124.4897,-230.1461,96.7071,32.0942
-54.2408,-58.1160,-63.8145,-63.3039,43.5303,132.6923,105.5250,116.7919,-57.3891,51.5499,28.2351,22.2153,192.6758,181.3232,48.0695,104.0391,-179.8979,168.6429,81.1384
-69.9554,-25.8922,-54.7144,-52.1258,99.0216,118.4146,150.8258,107.9123,-3.8680,66.0516,27.1324,48.8368,208.8214,174.0812,72.9608,61.9889,-181.9338,160.6286,59.4553
-80.8106,-32.3094,-77.0904,-30.5206,112.4568,91.4957,108.4096,68.2892,37.6921,61.8983,28.6441,85.2115,123.6149,181.3940,64.2475,29.7675,-177.2620,121.4751,-2.3889
-32.2717,-7.9618,-53.7218,58.6503,108.4394,98.0020,39.0137,56.3797,37.0146,32.4150,34.4516,120.9582,46.1170,211.3771,24.8521,31.1993,-72.7695,145.1989,-10.3149
40.8486,97.6520,22.8632,193.4066,117.5279,103.3964,23.0658,54.5435,29.0054,-23.0851,45.7486,175.5100,37.0281,216.4599,-13.4638,21.0447,72.3953,150.3694,3.2356
75.0070,206.4163,90.1824,265.3883,122.4010,56.8707,54.9017,15.3953,51.3823,-62.6728,51.3436,225.7286,35.6065,168.1539,-26.7391,-14.7815,125.7430,70.7780,14.9918
61.7192,202.2200,99.0418,212.8844,96.5166,19.5769,74.0761,9.0594,94.8571,-16.6135,39.1367,213.2846,3.7535,129.8000,-25.9085,-19.2463,63.8682,-7.8396,66.9136
22.2479,103.1449,47.2119,106.5336,46.4207,53.1106,63.9571,83.2597,116.6116,82.5283,15.9574,148.1992,-22.2020,138.9504,-27.4143,-0.6425,-20.2545,-39.0633,104.2601
-19.0017,32.6229,-17.9401,53.1267,-6.5411,91.5014,47.5051,127.7520,80.8617,112.7645,-3.0806,96.5937,-19.0428,136.4084,-17.3712,-24.8156,-50.5321,-57.9901,60.8129
-38.0211,27.8243,-50.9831,61.0077,-59.1364,79.7392,26.0669,89.8651,14.2961,66.0111,-11.8102,84.4367,-14.8302,113.0619,7.4978,-55.7485,-44.6818,-58.2451,11.1074
-32.2425,15.6225,-59.7020,75.2493,-107.5567,81.0527,-0.0800,82.3906,-16.2356,57.6573,-12.2321,87.1444,-25.0562,127.2029,24.9699,-20.9735,-44.6529,-33.4887,13.5473
-18.4863,-34.5075,-63.6051,74.8349,-122.0702,124.3211,-6.4364,136.6167,-2.1556,107.0706,-17.1464,64.3075,-17.1147,138.1841,47.4312,17.6061,-43.5254,-11.7321,21.9259
-14.4977,-85.2596,-64.6728,48.6543,-90.3342,131.7066,16.0588,140.3645,16.7005,118.7632,-35.6303,-2.4783,18.4932,69.0437,88.7819,-23.6917,-38.0733,20.8138,25.5006
-27.3109,-115.2245,-72.2815,-11.1092,-41.3048,80.3041,55.9246,75.7745,30.5648,65.9613,-41.4007,-57.0636,37.0487,-15.7978,93.2180,-79.0010,-51.8868,80.2397,35.9699
-27.3682,-109.9010,-69.0149,-40.0622,20.6840,43.8124,95.2297,35.0310,28.3563,3.3286,-7.3718,-30.4118,34.0837,-23.4444,29.4469,-63.0656,-53.7967,132.4538,22.7933
27.9191,-61.6211,-4.7092,15.5387,120.6177,43.7139,98.2651,30.5372,-13.3595,-37.6745,33.9076,30.4649,55.5287,8.4236,-28.0831,-22.5321,10.1627,174.1356,8.9219
104.8414,-25.6684,92.7827,69.5201,210.9915,32.5434,51.2386,9.7753,-57.6545,-50.6705,38.6165,31.4410,77.3435,7.9531,-25.5032,-30.5548,94.0943,226.0421,29.3812
115.5203,-41.1173,122.3606,37.4300,199.6791,5.9851,-5.1390,-21.3711,-64.6645,-38.6567,23.2504,-9.5459,39.6508,-29.9678,-11.0815,-79.4282,124.5637,254.2546,23.2758
59.6130,-38.9542,78.5845,-2.9811,118.3583,-0.1510,-27.2363,-20.7343,-67.3815,-17.4439,11.7937,-27.3015,-10.3076,-70.7080,-17.6035,-118.0556,139.3329,232.5735,-9.5529
14.8686,17.5316,42.5272,13.6404,78.0443,13.0358,-7.3243,9.1102,-76.8848,6.6322,-14.0823,-43.2109,-6.6528,-75.2126,-10.4697,-100.8535,176.0063,171.7384,26.8576
-15.4561,35.7649,1.9828,-3.6076,42.9979,2.7518,9.8291,10.1202,-80.7465,7.3473,-48.6961,-86.3446,-15.2745,-59.3687,1.1943,-43.6523,143.5112,39.4030,66.3181
-82.7056,-26.1580,-103.7776,-104.3551,-103.9337,-68.9144,-64.9482,-63.1890,-137.4668,-60.6756,-46.3852,-102.8613,-95.2342,-94.9347,-50.4118,-38.0599,-15.1383,-166.8806,-35.9092
-151.0909,-77.8344,-205.0222,-187.5342,-288.0949,-177.1401,-218.5765,-159.1009,-240.4339,-144.2108,-8.8942,-62.6889,-153.2876,-170.4871,-152.1847,-108.6391,-178.5534,-318.8856,-178.9173
-153.0711,-70.3197,-198.3478,-188.1430,-326.5606,-224.0603,-278.8802,-177.1853,-242.8524,-130.0548,12.3459,-26.9654,-110.0471,-185.3573,-182.9938,-142.8621,-220.4593,-315.5075,-187.8124
-128.9530,-46.1208,-145.3258,-157.9678,-244.1811,-170.9738,-196.3625,-129.7077,-126.4397,-66.9120,1.9381,-38.7215,-46.3232,-138.9293,-96.9334,-88.1598,-187.8164,-232.7819,-129.7726
-140.6635,-24.8082,-153.1560,-146.7751,-207.8020,-136.2436,-156.5982,-134.8208,-55.2565,-109.7420,-10.9325,-63.7807,-55.6870,-126.3895,-29.1992,-51.6927,-183.2241,-191.9288,-128.0050
-135.0494,-10.3432,-166.9067,-160.4780,-221.2541,-215.3422,-226.9413,-224.5508,-80.1779,-243.1982,-3.1331,-69.0240,-98.8389,-156.7560,-98.4448,-94.9236,-200.3162,-208.1996,-156.8429
-55.7238,-33.4185,-93.3923,-190.0970,-172.7156,-310.4507,-262.6607,-303.5779,-132.2510,-316.6371,23.9540,-67.1724,-91.8689,-174.2121,-207.4440,-137.0461,-187.1481,-225.8375,-186.8893
28.1857,-80.0207,8.5761,-203.2973,-70.3357,-307.6492,-235.3988,-303.0671,-191.6143,-271.5913,44.6100,-76.1468,-30.9086,-172.4032,-205.6243,-119.5896,-153.1439,-191.9362,-201.8191
52.1218,-92.2085,54.0868,-175.3589,9.3657,-253.5318,-219.8963,-250.1735,-191.2802,-158.6076,36.3952,-90.5962,33.1389,-153.3838,-132.2124,-79.0752,-118.3577,-94.1547,-116.7646
68.8829,-64.2382,80.9539,-126.3186,60.5764,-210.2304,-175.2978,-196.3804,-69.2134,-72.7002,28.1025,-83.9125,73.4256,-101.5949,-120.0875,-58.7112,-71.3349,14.7450,32.0127
114.0053,-28.1007,123.1071,-79.1597,80.5466,-153.6763,-115.9350,-163.1931,3.6991,-111.3293,59.8525,-32.5016,80.3590,-47.0111,-174.5968,-65.7121,-37.2983,56.1243,48.3059
123.7382,2.5980,119.6983,-47.7742,27.0221,-103.2045,-183.7728,-151.3083,-117.4399,-241.6647,95.3839,25.0728,29.7443,-39.3552,-204.3711,-80.4076,-62.2314,5.5811,-87.1676
74.0537,5.4641,53.2435,-57.9528,-81.3471,-110.0216,-329.2796,-147.8044,-230.1866,-299.5188,74.0800,10.3212,-63.7233,-69.6962,-178.1630,-74.3235,-109.6244,-84.2920,-173.1263
40.3019,-31.5932,5.7680,-88.0604,-169.3362,-118.7033,-352.9459,-125.3508,-155.1916,-231.1731,25.4109,-57.3758,-121.8514,-86.9835,-136.1007,-51.7054,-107.0653,-136.9473,-142.4166
62.4025,-59.3093,20.7475,-67.4839,-214.1335,-68.7443,-274.9896,-80.3599,-53.6052,-156.0431,15.9243,-66.7888,-112.6562,-65.5066,-102.5387,-34.9821,-67.3079,-120.7197,-113.6723
79.8814,-41.4595,38.9806,-8.0750,-242.8513,-29.1913,-238.2180,-61.9255,-61.4225,-150.5395,33.9440,-8.8329,-92.8196,-33.3169,-63.7019,-14.9684,-49.5666,-65.9901,-129.9291
31.0056,-18.2983,-5.4902,-3.1664,-273.2892,-59.3607,-241.6565,-106.6584,-91.0351,-178.1380,35.6962,14.1785,-91.4216,-41.7832,-22.6661,5.6207,-74.4378,-26.2811,-143.9904
-53.9791,-17.0081,-85.3337,-60.0626,-307.8784,-109.2484,-258.8825,-168.6667,-111.2651,-205.6754,30.8555,-11.9039,-77.3710,-95.6381,-10.3940,-9.2168,-130.3890,-28.9651,-161.5694
-85.8321,-14.7858,-105.9764,-96.5962,-323.3627,-139.6206,-300.8516,-187.2781,-162.5156,-228.4722,35.7979,-23.6308,-44.8916,-143.6983,-10.5321,-34.8381,-179.4745,-47.5856,-196.6295
-48.0901,-25.6019,-59.3210,-101.3029,-289.5443,-155.3811,-297.2254,-175.8458,-186.4489,-236.3617,33.2658,-38.1981,-9.3449,-154.5392,22.4164,-7.8967,-186.1797,-30.7232,-209.5317
-28.8670,-75.0505,-51.9160,-125.4931,-226.6601,-136.8156,-221.5204,-161.4777,-158.9351,-219.5420,28.2867,-78.7379,33.8254,-137.4548,42.6349,38.6193,-177.7189,26.3908,-180.2654
-44.1454,-106.9458,-77.4575,-146.9165,-157.6190,-80.7166,-169.3795,-119.2728,-147.1971,-168.4539,42.9646,-82.6286,77.5106,-96.1449,-11.2175,33.3420,-169.3228,83.7680,-125.1398
19.9852,-68.3146,20.1162,-102.4670,-40.6713,-20.0473,-131.8575,-36.7071,-121.0867,-85.1151,52.3361,-48.6639,112.2199,-33.6145,-45.1720,10.6772,-95.1916,133.9866,-44.4569
160.0013,-19.0012,211.9123,-18.8590,115.6149,40.6696,-24.2097,44.5251,-20.8570,-6.2690,28.0159,-53.1147,141.8979,15.5214,38.5795,28.3615,30.3037,183.3924,39.0039
196.0828,-17.5682,254.1838,27.2638,174.6421,85.8506,51.1104,77.7784,54.8151,25.9375,6.7358,-63.0338,125.0487,14.8162,121.5193,48.5226,72.8505,184.5156,52.0719
97.4423,0.0857,126.3891,50.6137,75.1727,71.3600,-26.1398,54.9633,18.5131,9.2084,24.1656,3.3307,38.0125,-8.7206,76.6684,43.6955,47.7104,121.4977,-17.6784
44.5551,101.2618,69.7864,128.7365,-39.3968,46.5827,-118.2578,25.4340,-36.0057,-18.6898,47.1488,89.6139,-8.9430,22.8837,9.9624,67.4170,123.6652,83.1057,-74.0593
87.7900,220.0591,135.1208,245.9851,-44.6953,99.8911,-75.4994,56.0200,-22.6200,-11.4688,39.1530,111.4616,64.2839,118.4317,35.2521,117.0518,284.3506,120.3823,-48.7464
110.6412,256.8199,162.9708,303.9876,6.4768,169.6368,23.0873,125.7515,28.8445,36.3309,16.1789,97.4744,142.5512,175.0423,65.7478,113.5489,360.7681,164.0355,29.3264
109.3211,228.7559,153.8671,286.2253,48.5154,160.4185,90.9894,151.9765,110.3204,91.3053,3.1489,79.2162,132.3927,138.5098,27.1271,76.0185,365.6557,170.9719,128.8689
152.2915,219.9489,213.3034,276.6549,103.9157,149.9446,159.1265,154.6639,218.7294,163.4076,3.9703,56.0216,110.9776,104.7531,1.9751,114.4549,425.1515,193.8522,238.6689
186.3256,245.9162,282.5677,317.2495,164.3329,227.1558,202.1718,221.9958,257.9832,280.5505,15.3978,78.3951,111.8583,155.5937,43.6402,220.8485,507.6206,258.9338,304.1799
157.3344,264.7235,264.0797,365.0529,177.8546,306.2918,159.6293,312.4299,189.4554,363.5886,26.8317,156.7852,73.8853,238.6898,75.1468,271.2186,516.7693,310.0711,291.6313
128.5329,273.2220,210.6681,377.1555,169.8752,296.5179,104.8022,305.8493,137.8035,311.3912,27.6273,198.0952,31.6742,290.5712,32.6102,232.7540,475.3976,292.5717,265.5911
132.8119,286.7644,192.3284,349.2121,204.5688,234.7235,132.7805,206.1125,166.8989,182.1820,22.0866,166.8087,47.5548,298.7258,-35.5202,167.9901,435.2022,224.2491,271.8121
126.5522,273.1889,183.1945,298.5900,258.9534,161.8867,178.8622,107.0909,168.7304,95.3048,13.8694,129.5230,63.7863,241.0292,-52.3494,87.3978,385.9558,180.0926,260.6195
110.8202,219.3614,162.4359,254.2157,274.8964,81.1668,149.9058,45.8676,106.7348,53.8369,2.3647,111.8489,45.6620,138.7235,-28.9569,-10.5674,325.4604,204.2120,226.4603
117.1209,187.5071,162.5389,226.5607,270.9713,24.2834,106.2527,9.7630,101.2049,20.4226,2.4889,95.2848,55.5219,82.4804,-34.7038,-59.6643,278.8313,254.4131,242.8938
133.3997,200.6143,192.4962,200.5803,292.5721,11.2106,153.6169,-4.9028,194.1437,12.9481,21.3416,95.1528,95.3583,95.1206,-64.9136,-32.4183,246.3027,274.3487,299.8609
131.0817,187.7556,192.8328,179.6505,307.9933,15.8441,255.1203,-1.6141,288.9879,28.7109,33.3142,110.6479,110.4644,111.4108,-56.2407,9.4548,203.6681,258.5791,308.1973
87.7541,124.0347,100.8100,170.9913,242.7301,21.3583,282.7850,3.8709,323.6770,29.4559,25.0844,105.1680,101.2464,106.5297,-35.1977,28.4894,139.4967,212.8919,269.8208
9.1665,69.3462,-33.2461,134.9946,101.4886,25.9068,209.5773,-2.9482,298.9376,18.2746,17.9892,73.8594,71.5016,90.3911,-75.2044,30.6306,74.5948,142.3901,249.1352
-37.8951,32.9376,-83.5744,46.0589,-16.8282,26.7534,132.0385,-7.6213,225.0035,25.3122,18.6175,30.8081,15.2600,56.0746,-135.2629,13.5435,40.4656,75.3885,227.7096
-19.5603,-16.8959,-46.2865,-28.8058,-47.5112,51.7489,109.9769,37.8874,163.1709,63.3904,13.9778,-12.8660,-9.0891,44.0085,-133.5863,13.2089,37.4360,31.6923,162.6510
-11.1117,-38.2695,-40.2217,-17.2902,-33.9334,119.2992,101.6393,134.1111,166.4556,125.0124,11.4742,-16.0208,31.1838,105.1701,-93.3045,75.2317,41.3124,18.6649,103.0026
-55.2568,4.4989,-86.8370,44.1584,-25.0838,171.0976,79.2744,192.9957,169.1671,171.7508,19.4946,35.2120,70.1449,175.9025,-63.9205,142.5509,44.2098,57.0210,109.4170
-81.8235,41.2400,-100.1567,75.9004,8.0023,153.2560,83.1785,164.9176,108.8996,170.5486,22.5940,72.4247,76.8536,164.5432,-37.2805,140.0840,55.2904,121.1654,142.7460
-62.0500,22.3071,-74.2824,69.0484,74.4625,106.3631,113.1301,111.4732,47.7364,148.3693,15.6337,56.3568,80.2634,101.6574,-15.5570,99.7872,80.1225,131.1255,121.3042
-54.9634,5.4719,-65.7449,63.8307,109.2661,81.5001,104.5002,84.7579,37.1371,138.1433,10.0458,40.5724,60.6413,57.3361,-7.5148,60.5356,111.3695,84.6558,37.0330
-70.7865,29.5904,-62.1780,68.5976,100.4014,48.4069,55.8272,56.0695,46.4325,115.4979,2.7793,50.8914,14.7417,11.1486,19.9881,-1.8787,118.2898,56.2795,-42.0494
-69.8631,50.4746,-34.5087,49.7700,113.5817,-42.9280,28.5734,-13.5231,62.0481,51.7749,-6.2558,42.6516,9.7939,-87.3904,58.3794,-80.7560,77.9543,46.3582,-83.5824
-61.1528,37.1569,-14.7149,-8.7380,139.4608,-167.0285,12.6381,-125.1017,67.9273,-40.8319,0.0862,7.0613,35.8277,-205.8290,47.9090,-138.7579,25.2646,3.7900,-147.6853
-73.3552,18.2839,-34.2274,-60.3417,96.7788,-245.4143,-48.7432,-238.9140,12.4174,-137.7766,14.2834,-13.9710,11.2780,-253.2432,11.0945,-174.5325,10.0402,-52.1488,-271.5006
-90.1401,38.3835,-69.3869,-36.8895,8.2071,-251.5581,-121.9647,-293.4705,-66.9629,-210.1499,11.3821,-0.8763,-28.0170,-201.1037,8.9913,-189.0065,37.7982,-74.0859,-365.8797
-70.5001,112.3423,-61.5658,62.3986,-10.6803,-236.2724,-122.3138,-280.4164,-68.9021,-234.1127,5.3423,41.2297,11.4419,-123.1518,4.6415,-180.3905,100.3031,-66.1767,-342.5013
-3.7865,194.6217,17.4962,159.7940,53.4147,-226.7415,-59.3878,-247.0010,-26.2186,-218.2920,20.3641,98.0257,85.3718,-80.8320,-37.1174,-169.3189,173.7432,-61.0505,-258.9964
52.8354,217.5533,94.2954,187.1933,84.8829,-177.1352,-20.8205,-188.5724,-50.8735,-171.4477,34.2858,134.8511,93.0958,-43.5553,-52.3324,-142.6228,185.1977,-88.3209,-205.2609
30.8292,178.6123,71.5987,145.6068,12.8479,-63.3685,-46.0307,-69.1318,-131.7463,-87.3683,27.4374,130.8881,46.5411,13.5870,-34.6618,-85.7554,107.4862,-144.7988,-166.4185
-28.4744,128.0881,-1.8180,80.6275,-98.2238,64.7684,-97.2564,63.0705,-190.1808,0.5021,30.7131,111.7310,9.2027,52.8177,-78.0103,-60.1148,35.1141,-178.1511,-115.7958
-21.0738,88.3727,-3.1160,40.8401,-151.9210,148.7119,-134.7372,129.9517,-218.2111,36.4481,57.2322,101.7005,-15.3541,65.3834,-168.3187,-77.7201,43.3059,-171.8086,-98.3175
38.4520,51.0508,41.1816,41.8871,-153.0387,145.4998,-172.3554,121.6383,-236.5813,14.2949,62.1281,85.8244,-53.5294,70.5554,-182.2300,-53.1509,72.3420,-187.0744,-140.9359
44.2988,12.9761,13.7696,46.9341,-169.0844,36.9983,-232.0311,50.5694,-247.0816,-40.7513,28.1514,55.9875,-102.3491,37.0785,-121.4227,-8.7263,46.2872,-240.7978,-208.8366
-13.6543,-18.7872,-69.8382,13.5911,-187.3448,-103.8441,-277.4536,-65.5737,-262.2794,-113.2497,8.7895,39.5620,-130.3667,-46.2473,-104.5854,-50.2565,-14.3317,-263.8915,-271.2654
-55.1616,-23.1988,-98.3518,-44.1820,-137.2277,-171.3435,-266.4662,-163.9268,-284.6318,-178.9246,37.0099,49.6339,-109.4866,-109.1615,-148.8449,-127.0377,-57.7540,-232.3232,-315.9157
-54.5266,8.5406,-55.0070,-88.2075,-49.4790,-187.0529,-233.5744,-211.1268,-287.3329,-216.9484,66.2312,53.9734,-54.6823,-124.4310,-159.0949,-138.4111,-87.6638,-207.9154,-331.2787
-55.9840,32.1078,-26.7818,-121.9227,-36.4080,-247.6714,-234.3551,-256.5943,-263.3540,-243.7279,47.5815,24.8843,-27.1397,-153.2790,-106.4207,-148.9581,-142.2016,-233.4631,-325.4806
-78.6071,10.2707,-59.7368,-156.9167,-106.3156,-338.1242,-248.0143,-321.1376,-233.5150,-276.0024,8.2048,-9.3593,-60.0284,-201.9626,-74.8065,-219.2494,-205.9914,-268.7610,-307.4944
-73.3180,-17.6149,-83.4855,-159.5811,-156.3552,-361.4365,-217.1142,-349.2915,-205.4602,-298.1701,4.8035,-3.8653,-101.2495,-199.4775,-118.6466,-255.1240,-203.0084,-250.7412,-268.2559
0.0993,-14.7280,-23.5193,-111.4390,-160.7348,-295.9267,-157.7276,-310.4526,-177.1984,-291.7721,34.3602,27.8254,-99.3435,-134.9048,-167.6816,-192.4880,-132.0596,-213.5736,-229.1184
75.9319,-13.5389,50.0378,-68.2872,-210.8506,-202.0207,-155.4803,-235.6703,-155.2579,-258.3991,42.9368,32.9019,-112.6992,-73.0853,-144.9489,-101.5846,-107.0458,-269.5997,-227.2714
64.1521,-34.1830,25.1251,-82.2635,-333.6859,-142.7414,-228.4449,-170.6294,-144.4435,-223.8445,13.8876,5.8846,-204.8588,-53.7803,-110.0068,-73.9934,-168.5360,-404.3048,-234.3352
10.8948,-41.2325,-41.6632,-114.6595,-403.7672,-130.9328,-255.1585,-140.3428,-137.6539,-211.5137,-6.7005,-3.3293,-276.1632,-57.6272,-148.0679,-122.7218,-211.4975,-458.8831,-194.7499
8.4169,-19.0964,-36.2858,-100.3017,-328.0891,-108.9529,-145.3731,-116.3343,-115.7444,-189.8129,9.2334,26.8219,-207.3863,-47.1255,-188.4702,-151.8674,-194.6441,-404.7868,-120.6369
9.1046,-6.2717,-20.8560,-62.3103,-215.4477,-36.2228,-13.6963,-49.6171,-68.3855,-114.5923,21.3849,53.0961,-102.9357,-21.4817,-124.3573,-78.6811,-213.0298,-371.7297,-57.6655
-56.7959,-37.6339,-88.9635,-70.5833,-200.3130,24.8792,4.7814,36.1433,-21.9580,-23.8882,-5.5084,36.9540,-116.7412,-21.6269,-12.4932,2.2542,-281.7537,-357.5590,-21.9397
-109.3036,-80.6958,-143.2609,-99.0119,-205.2225,27.9006,-20.8928,76.1179,-13.5602,18.5936,-35.6552,4.9566,-156.8017,-48.7809,47.0240,-19.2731,-269.6637,-239.8539,-24.1394
-74.2521,-54.7645,-79.1482,-48.7213,-98.4086,43.7143,0.0894,82.1874,-37.7675,36.8393,-28.4534,3.9070,-70.4471,-32.8784,84.6430,-41.5481,-113.1345,-41.9927,-60.8334
-23.6892,40.8470,16.1743,63.9072,50.2411,107.4164,4.3160,108.7475,-59.5849,78.5371,-8.5710,24.8314,57.6012,44.7229,140.8218,40.7489,75.7900,115.4739,-75.4194
-7.9895,85.1641,49.5461,101.6830,114.1329,132.1850,-28.9842,138.1089,-67.5102,113.4805,-3.1647,23.6511,83.5413,91.0173,140.3213,122.1413,164.9597,208.4534,-24.1482
36.6015,30.5737,82.2347,42.1512,139.1152,89.5173,-3.0940,121.4594,-68.5812,101.8737,16.5053,5.4933,60.1258,55.3204,32.6563,110.1115,169.5446,264.5066,58.7950
123.4819,0.1151,168.1230,19.9407,207.2867,69.9919,84.0030,82.9109,-48.1337,73.6023,57.4291,10.9771,86.8666,14.3570,-76.9224,66.7870,194.6835,291.5897,123.5520
154.4337,53.4620,220.9572,72.7772,262.6181,101.1403,149.1141,82.0042,15.3016,73.7684,58.0839,24.5773,127.5182,21.6573,-49.3654,38.6703,237.1868,297.9654,152.9783
70.4349,69.5202,141.4508,75.0015,225.9731,105.1716,184.5852,107.6025,95.4304,92.4404,-3.9226,-2.7793,114.7919,21.8074,98.2069,24.0126,171.2486,251.4246,124.8236
-61.6458,-13.4401,-24.8844,-28.8159,111.4737,45.3018,188.3686,88.8286,124.0685,77.8779,-53.5071,-50.8273,60.1530,-22.2262,201.8199,43.2191,-25.1588,115.9686,25.9680
-141.0894,-93.7681,-139.6376,-149.1317,-23.4790,-34.0143,130.8866,15.6982,76.9053,17.6860,-38.3046,-62.2673,7.3645,-62.5262,163.2103,79.0599,-201.6728,-34.5525,-88.6888
-163.2909,-118.2966,-170.6897,-223.0432,-133.4104,-83.5327,61.7558,-34.0763,10.9824,-21.3772,-9.4975,-52.9564,-29.2015,-71.1563,73.6644,89.0118,-269.7036,-123.5410,-148.7218
-204.3386,-144.8049,-222.9971,-265.5601,-211.7781,-88.2517,15.3991,-22.0648,-20.0685,6.8134,-18.7021,-68.8307,-68.6236,-78.4253,43.2337,79.5816,-302.2875,-193.3627,-162.5936
-262.1325,-176.3145,-309.7140,-270.7166,-264.4819,-63.0394,-59.7799,3.9746,-38.0000,46.0518,-30.9169,-79.8264,-102.7823,-82.8852,33.7462,66.3291,-338.4985,-246.1821,-167.8418
-238.3017,-160.6375,-296.2484,-220.4914,-232.8025,-30.9682,-123.5074,20.6585,-87.8066,46.5982,-5.4388,-45.3419,-63.6565,-44.4967,-5.3042,74.6228,-324.0399,-201.9804,-140.7496
-139.9538,-127.8961,-178.9953,-161.2233,-78.7205,0.7109,-84.4445,53.5738,-154.1026,51.9694,21.8264,-16.1808,55.4131,24.5137,-5.1872,147.4182,-282.5859,-106.6549,-65.0115
-106.6181,-146.9344,-136.2917,-160.5078,68.2511,22.3199,-23.4161,80.2988,-173.2567,79.3189,4.6825,-50.0010,128.7258,55.7619,74.3321,213.4805,-302.2714,-74.7765,-20.9971
-161.4278,-192.0419,-201.2081,-203.9215,80.8057,5.3349,-49.0781,46.9000,-134.3974,58.1728,-29.2610,-104.7896,88.6696,15.9436,136.9694,146.2659,-339.6589,-63.7666,-75.8087
-165.4008,-185.7841,-208.8646,-202.5151,53.5248,-51.3303,-95.3490,-33.1908,-117.3638,-31.3558,-29.5819,-115.5697,40.5295,-52.1823,102.9706,14.0080,-268.6931,1.7421,-152.3842
-73.0848,-127.3085,-116.9815,-118.7892,97.4576,-102.3820,-99.9647,-104.1679,-163.7296,-110.8357,-11.1417,-96.5016,54.8176,-85.4273,25.0473,-35.6753,-110.9726,53.3506,-135.8320
7.1677,-74.4080,-48.0878,-20.3665,133.9722,-112.3770,-90.8022,-135.7587,-180.3576,-121.7924,-17.7731,-85.3527,60.9727,-64.8786,-17.2800,-39.4109,3.6589,54.4296,-26.6107
28.8407,-39.7587,-29.0416,39.7454,114.3181,-78.1335,-38.0871,-105.6477,-95.5899,-68.2271,-36.2338,-66.0907,41.0434,-14.0869,-25.4808,-60.4599,61.4718,95.9390,107.5744
57.6900,-3.6010,19.6642,93.5309,126.0343,2.1714,59.4153,2.5744,-3.9785,36.0641,-26.6140,-20.9815,68.4802,44.0118,-34.6026,-25.8560,136.5475,189.4688,220.0538
111.9984,12.8064,99.7831,142.8535,149.1571,122.6650,84.7856,154.6970,4.5215,172.3331,-4.0199,10.5603,109.5456,100.8386,-30.2212,75.3427,211.2166,230.5096,273.9361
134.4945,-14.0874,145.2737,122.8717,57.5293,233.8993,18.2467,272.2665,-1.6172,287.6645,-7.9658,-7.2861,49.4356,137.4197,12.3963,139.6691,217.1385,188.5017,259.0610
105.1112,-45.9438,132.0533,41.3473,-114.1024,265.9407,-29.2788,294.3283,34.7226,314.6023,-23.8261,-38.9793,-81.5449,127.0696,39.7889,138.6228,165.4420,121.0204,220.5282
57.3100,-47.1037,77.1451,-17.9301,-219.2059,205.3364,-41.7183,226.8676,43.4453,238.1893,-12.8934,-34.0725,-143.7265,71.1956,-4.8947,116.4736,90.8577,50.0798,181.9960
7.0692,-52.4008,1.1550,-47.9441,-243.9372,109.5795,-77.8961,125.0004,-11.9272,127.4726,13.6393,-11.0764,-118.2340,-0.9832,-55.3304,88.2321,-19.9315,-37.8413,106.9715
-52.4790,-92.8353,-76.0523,-99.7317,-252.5329,29.1575,-122.5149,27.9471,-61.2751,59.6465,18.4617,-19.2731,-96.9428,-66.0358,-32.0630,54.1287,-149.3140,-127.6631,0.3063
-104.3425,-127.5485,-128.5950,-159.6797,-216.2652,-34.3070,-128.6023,-52.9210,-50.5283,25.9865,2.5602,-56.8936,-96.8679,-121.3936,6.8465,0.8146,-226.8406,-182.9338,-67.3297
-113.1939,-119.7991,-124.0041,-193.9978,-91.4810,-85.4994,-72.3696,-103.2298,7.0996,-22.6934,-6.0403,-90.1821,-65.7327,-173.4238,-4.3746,-72.0886,-236.5425,-194.5167,-77.5764
-78.4822,-110.0741,-69.1829,-218.6921,44.9593,-127.2573,24.3872,-137.0675,64.2772,-80.6565,-2.5518,-113.0341,-17.6038,-219.5255,-4.9849,-98.2396,-238.2455,-196.3209,-89.3482
-46.4776,-147.9695,-41.2275,-241.4950,76.1667,-190.1144,47.0928,-208.3127,66.6248,-125.5426,-6.5015,-137.5402,-12.4405,-250.8116,45.3164,-67.5091,-269.4735,-208.6572,-135.3268
-50.1770,-203.1739,-84.1411,-245.4005,4.9844,-277.0688,-60.1281,-308.6912,23.7001,-178.6462,-22.7621,-160.8965,-47.7153,-267.5647,69.5324,-86.3711,-295.8643,-186.0291,-179.9364
-65.4531,-216.1178,-129.4508,-242.6867,-60.1539,-320.4847,-145.0254,-355.1963,14.5398,-243.5492,-34.6758,-177.9976,-76.6432,-271.8905,29.9595,-167.8140,-272.7392,-94.2817,-172.6091
-63.8139,-197.4476,-124.0373,-249.5732,-61.3567,-281.3881,-80.8733,-322.6951,62.3193,-262.2298,-42.0056,-195.2155,-83.6407,-252.3173,0.0968,-201.6755,-223.3110,1.8169,-96.0382
-70.8998,-185.0251,-124.0510,-240.2314,-43.6031,-197.0045,43.8940,-245.4165,121.0465,-191.1975,-66.2743,-207.1584,-82.4389,-200.3927,30.0921,-175.3698,-202.1019,24.4762,25.4880
-113.3179,-155.3224,-166.9334,-193.2604,-55.3989,-83.9731,119.1039,-119.9485,180.9780,-66.0155,-100.2560,-194.7398,-89.9722,-127.7173,72.1508,-146.2697,-193.1714,-7.7041,143.8967
-148.3995,-95.4943,-191.6252,-140.3279,-82.8603,63.6908,132.6328,41.1285,240.0885,46.1799,-106.7569,-168.4362,-106.4603,-47.0656,63.2109,-94.7950,-147.2596,-30.0209,224.3626
-120.1281,-78.6671,-149.9402,-127.4293,-76.2644,189.4374,106.0692,160.7059,255.4390,123.1300,-88.5522,-174.3783,-91.7463,27.2290,27.1076,-20.2518,-94.4934,-13.7205,269.8044
