Fp1,Fp2,F3,F4,C3,C4,P3,P4,O1,O2,F7,F8,T7,T8,P7,P8,Fz,Cz,Pz
156.0000,121.0000,126.0000,156.0000,89.0000,126.0000,16.0000,126.0000,236.0000,310.0000,126.0000,384.0000,273.0000,347.0000,273.0000,310.0000,367.0000,261.0000,402.0000
50.0000,-55.0000,126.0000,15.0000,163.0000,16.0000,236.0000,126.0000,273.0000,310.0000,126.0000,-57.0000,163.0000,16.0000,273.0000,163.0000,15.0000,85.0000,121.0000
121.0000,15.0000,163.0000,121.0000,200.0000,163.0000,200.0000,273.0000,420.0000,457.0000,273.0000,163.0000,236.0000,236.0000,384.0000,236.0000,156.0000,297.0000,332.0000
156.0000,50.0000,236.0000,156.0000,273.0000,200.0000,347.0000,236.0000,420.0000,420.0000,200.0000,126.0000,273.0000,126.0000,494.0000,126.0000,85.0000,121.0000,156.0000
15.0000,-19.0000,52.0000,50.0000,126.0000,52.0000,126.0000,126.0000,236.0000,347.0000,163.0000,52.0000,200.0000,89.0000,347.0000,163.0000,121.0000,156.0000,121.0000
297.0000,191.0000,236.0000,226.0000,273.0000,273.0000,236.0000,310.0000,384.0000,494.0000,384.0000,163.0000,384.0000,236.0000,531.0000,420.0000,226.0000,261.0000,226.0000
191.0000,15.0000,163.0000,50.0000,163.0000,89.0000,163.0000,126.0000,236.0000,273.0000,163.0000,-20.0000,236.0000,52.0000,384.0000,273.0000,85.0000,15.0000,50.0000
191.0000,50.0000,126.0000,121.0000,163.0000,163.0000,52.0000,200.0000,236.0000,310.0000,310.0000,163.0000,310.0000,347.0000,384.0000,384.0000,261.0000,226.0000,226.0000
261.0000,191.0000,273.0000,191.0000,310.0000,236.0000,200.0000,236.0000,310.0000,273.0000,310.0000,163.0000,310.0000,347.0000,420.0000,236.0000,226.0000,121.0000,191.0000
121.0000,50.0000,89.0000,15.0000,126.0000,89.0000,52.0000,126.0000,163.0000,126.0000,89.0000,89.0000,126.0000,200.0000,236.0000,126.0000,191.0000,50.0000,156.0000
402.0000,261.0000,273.0000,261.0000,273.0000,273.0000,126.0000,347.0000,236.0000,310.0000,310.0000,273.0000,236.0000,384.0000,347.0000,457.0000,367.0000,191.0000,297.0000
261.0000,121.0000,200.0000,85.0000,200.0000,89.0000,200.0000,200.0000,126.0000,163.0000,126.0000,89.0000,200.0000,163.0000,236.0000,310.0000,156.0000,-55.0000,85.0000
156.0000,156.0000,163.0000,121.0000,163.0000,89.0000,52.0000,200.0000,126.0000,163.0000,236.0000,273.0000,200.0000,273.0000,163.0000,347.0000,261.0000,121.0000,191.0000
367.0000,332.0000,347.0000,261.0000,310.0000,236.0000,200.0000,273.0000,200.0000,200.0000,347.0000,310.0000,347.0000,310.0000,200.0000,347.0000,261.0000,85.0000,156.0000
226.0000,121.0000,163.0000,85.0000,126.0000,52.0000,16.0000,89.0000,-20.0000,16.0000,163.0000,163.0000,200.0000,126.0000,-20.0000,163.0000,191.0000,15.0000,50.0000
332.0000,261.0000,236.0000,297.0000,236.0000,273.0000,52.0000,273.0000,126.0000,163.0000,384.0000,347.0000,384.0000,347.0000,126.0000,347.0000,367.0000,226.0000,226.0000
261.0000,156.0000,236.0000,226.0000,200.0000,200.0000,126.0000,200.0000,126.0000,89.0000,163.0000,200.0000,273.0000,200.0000,126.0000,89.0000,191.0000,15.0000,85.0000
156.0000,121.0000,126.0000,156.0000,89.0000,126.0000,16.0000,126.0000,89.0000,163.0000,163.0000,273.0000,163.0000,273.0000,89.0000,126.0000,261.0000,156.0000,121.0000
332.0000,332.0000,310.0000,332.0000,310.0000,310.0000,200.0000,236.0000,200.0000,236.0000,347.0000,310.0000,310.0000,273.0000,236.0000,384.0000,261.0000,191.0000,191.0000
121.0000,121.0000,163.0000,85.0000,163.0000,52.0000,126.0000,52.0000,16.0000,52.0000,126.0000,89.0000,126.0000,16.0000,52.0000,200.0000,85.0000,50.0000,50.0000
226.0000,226.0000,236.0000,226.0000,200.0000,200.0000,126.0000,236.0000,200.0000,200.0000,273.0000,273.0000,236.0000,273.0000,126.0000,273.0000,226.0000,297.0000,332.0000
226.0000,226.0000,236.0000,226.0000,200.0000,200.0000,126.0000,236.0000,200.0000,200.0000,273.0000,273.0000,236.0000,273.0000,126.0000,273.0000,226.0000,297.0000,332.0000
-19.0000,-90.0000,89.0000,50.0000,126.0000,126.0000,89.0000,163.0000,236.0000,236.0000,163.0000,16.0000,126.0000,163.0000,163.0000,89.0000,121.0000,261.0000,226.0000
226.0000,4802.0000,273.0000,-0.0000,-2064.0000,-0.0000,-0.0000,-0.0000,-0.0000,-0.0000,-0.0000,-0.0000,-0.0000,-0.0000,-0.0000,-0.0000,-0.0000,-0.0000,-0.0000
226.0000,226.0000,200.0000,297.0000,200.0000,347.0000,89.0000,310.0000,16.0000,126.0000,163.0000,347.0000,126.0000,384.0000,16.0000,236.0000,226.0000,402.0000,261.0000
261.0000,261.0000,273.0000,332.0000,236.0000,420.0000,126.0000,420.0000,126.0000,163.0000,273.0000,273.0000,200.0000,384.0000,89.0000,347.0000,261.0000,473.0000,367.0000
226.0000,121.0000,273.0000,226.0000,273.0000,384.0000,273.0000,384.0000,163.0000,200.0000,273.0000,200.0000,273.0000,310.0000,163.0000,420.0000,297.0000,437.0000,402.0000
297.0000,156.0000,347.0000,261.0000,347.0000,420.0000,310.0000,420.0000,200.0000,200.0000,347.0000,273.0000,273.0000,420.0000,200.0000,347.0000,367.0000,437.0000,437.0000
332.0000,50.0000,310.0000,191.0000,347.0000,347.0000,347.0000,347.0000,236.0000,163.0000,273.0000,200.0000,273.0000,347.0000,236.0000,310.0000,297.0000,332.0000,402.0000
261.0000,50.0000,273.0000,191.0000,310.0000,347.0000,310.0000,347.0000,200.0000,236.0000,273.0000,273.0000,273.0000,347.0000,236.0000,420.0000,297.0000,367.0000,332.0000
261.0000,121.0000,310.0000,261.0000,347.0000,384.0000,273.0000,384.0000,273.0000,273.0000,310.0000,310.0000,273.0000,420.0000,310.0000,384.0000,226.0000,297.0000,261.0000
121.0000,85.0000,200.0000,156.0000,236.0000,236.0000,273.0000,310.0000,236.0000,273.0000,200.0000,200.0000,273.0000,347.0000,347.0000,310.0000,156.0000,226.0000,226.0000
191.0000,191.0000,200.0000,156.0000,236.0000,236.0000,200.0000,310.0000,236.0000,347.0000,273.0000,200.0000,236.0000,310.0000,273.0000,384.0000,191.0000,226.0000,261.0000
261.0000,156.0000,273.0000,121.0000,310.0000,163.0000,200.0000,273.0000,236.0000,310.0000,347.0000,126.0000,347.0000,200.0000,273.0000,273.0000,156.0000,156.0000,226.0000
191.0000,85.0000,273.0000,121.0000,273.0000,126.0000,200.0000,200.0000,163.0000,163.0000,384.0000,163.0000,347.0000,200.0000,236.0000,163.0000,226.0000,156.0000,156.0000
261.0000,226.0000,347.0000,261.0000,273.0000,200.0000,89.0000,200.0000,126.0000,89.0000,347.0000,236.0000,273.0000,273.0000,200.0000,163.0000,261.0000,156.0000,156.0000
261.0000,191.0000,273.0000,226.0000,163.0000,126.0000,89.0000,126.0000,52.0000,52.0000,163.0000,236.0000,163.0000,236.0000,200.0000,126.0000,226.0000,121.0000,121.0000
367.0000,297.0000,273.0000,297.0000,163.0000,200.0000,126.0000,163.0000,52.0000,52.0000,200.0000,310.0000,126.0000,273.0000,126.0000,273.0000,297.0000,226.0000,191.0000
402.0000,332.0000,347.0000,332.0000,200.0000,236.0000,200.0000,163.0000,163.0000,89.0000,200.0000,273.0000,163.0000,236.0000,163.0000,310.0000,297.0000,226.0000,226.0000
261.0000,297.0000,273.0000,261.0000,163.0000,163.0000,236.0000,163.0000,163.0000,126.0000,163.0000,200.0000,126.0000,163.0000,126.0000,126.0000,297.0000,191.0000,226.0000
332.0000,332.0000,310.0000,261.0000,200.0000,126.0000,236.0000,200.0000,236.0000,126.0000,236.0000,163.0000,126.0000,52.0000,89.0000,52.0000,226.0000,156.0000,261.0000
226.0000,191.0000,236.0000,85.0000,163.0000,-20.0000,236.0000,89.0000,200.0000,89.0000,163.0000,-20.0000,163.0000,-94.0000,163.0000,52.0000,121.0000,50.0000,226.0000
226.0000,121.0000,163.0000,50.0000,126.0000,-57.0000,200.0000,89.0000,163.0000,52.0000,200.0000,16.0000,163.0000,16.0000,163.0000,89.0000,85.0000,85.0000,191.0000
261.0000,50.0000,126.0000,15.0000,163.0000,-57.0000,236.0000,52.0000,236.0000,52.0000,163.0000,16.0000,200.0000,-20.0000,273.0000,89.0000,15.0000,-19.0000,191.0000
121.0000,-90.0000,16.0000,-90.0000,89.0000,-131.0000,236.0000,-20.0000,273.0000,52.0000,16.0000,-57.0000,126.0000,-94.0000,273.0000,89.0000,-19.0000,-55.0000,156.0000
85.0000,-19.0000,16.0000,15.0000,52.0000,-57.0000,200.0000,16.0000,310.0000,126.0000,16.0000,16.0000,89.0000,16.0000,273.0000,126.0000,15.0000,-19.0000,156.0000
15.0000,-19.0000,-20.0000,-55.0000,16.0000,-131.0000,200.0000,-20.0000,236.0000,126.0000,-94.0000,-94.0000,16.0000,-94.0000,273.0000,16.0000,-55.0000,-125.0000,85.0000
-19.0000,-19.0000,-57.0000,-90.0000,-20.0000,-167.0000,89.0000,-94.0000,126.0000,89.0000,-94.0000,-94.0000,-57.0000,-167.0000,200.0000,-94.0000,-55.0000,-125.0000,50.0000
15.0000,-19.0000,-57.0000,-90.0000,-57.0000,-94.0000,16.0000,-20.0000,52.0000,126.0000,-131.0000,-131.0000,-94.0000,-241.0000,200.0000,-131.0000,-90.0000,-90.0000,15.0000
-55.0000,-125.0000,-94.0000,-160.0000,-94.0000,-131.0000,16.0000,-20.0000,52.0000,126.0000,-167.0000,-167.0000,-94.0000,-241.0000,200.0000,-131.0000,-125.0000,-90.0000,15.0000
15.0000,-19.0000,-20.0000,-55.0000,-20.0000,-20.0000,-20.0000,52.0000,89.0000,163.0000,16.0000,-57.0000,-94.0000,-57.0000,200.0000,-20.0000,-19.0000,15.0000,85.0000
15.0000,-19.0000,52.0000,-19.0000,16.0000,52.0000,52.0000,89.0000,126.0000,126.0000,-20.0000,-94.0000,-20.0000,-20.0000,236.0000,89.0000,15.0000,-19.0000,121.0000
-19.0000,-90.0000,16.0000,-55.0000,-20.0000,16.0000,52.0000,52.0000,89.0000,89.0000,-57.0000,-57.0000,-57.0000,52.0000,126.0000,52.0000,50.0000,15.0000,121.0000
121.0000,-19.0000,16.0000,15.0000,16.0000,89.0000,52.0000,89.0000,126.0000,52.0000,-20.0000,-57.0000,-57.0000,52.0000,126.0000,-20.0000,15.0000,15.0000,121.0000
85.0000,-90.0000,-20.0000,-90.0000,16.0000,-20.0000,89.0000,-20.0000,89.0000,52.0000,-20.0000,-94.0000,16.0000,-57.0000,126.0000,-94.0000,15.0000,-55.0000,85.0000
121.0000,15.0000,16.0000,-19.0000,52.0000,16.0000,52.0000,52.0000,89.0000,52.0000,89.0000,-20.0000,16.0000,16.0000,52.0000,-57.0000,85.0000,85.0000,121.0000
121.0000,15.0000,89.0000,15.0000,89.0000,89.0000,89.0000,89.0000,52.0000,89.0000,52.0000,-20.0000,16.0000,16.0000,52.0000,89.0000,85.0000,85.0000,191.0000
50.0000,50.0000,89.0000,-19.0000,126.0000,89.0000,126.0000,89.0000,16.0000,89.0000,89.0000,-20.0000,16.0000,16.0000,16.0000,163.0000,156.0000,121.0000,226.0000
226.0000,156.0000,236.0000,85.0000,200.0000,163.0000,163.0000,126.0000,89.0000,89.0000,236.0000,89.0000,89.0000,126.0000,16.0000,89.0000,191.0000,156.0000,226.0000
191.0000,85.0000,200.0000,-19.0000,163.0000,89.0000,163.0000,89.0000,16.0000,16.0000,126.0000,16.0000,89.0000,89.0000,52.0000,-94.0000,85.0000,50.0000,121.0000
156.0000,50.0000,89.0000,-19.0000,89.0000,89.0000,52.0000,89.0000,16.0000,16.0000,89.0000,-20.0000,16.0000,16.0000,16.0000,-94.0000,15.0000,50.0000,50.0000
121.0000,15.0000,16.0000,-55.0000,52.0000,16.0000,52.0000,16.0000,16.0000,16.0000,16.0000,-94.0000,-20.0000,-167.0000,52.0000,-57.0000,-55.0000,-55.0000,15.0000
-55.0000,-90.0000,-57.0000,-160.0000,16.0000,-94.0000,89.0000,-57.0000,-20.0000,52.0000,-20.0000,-131.0000,16.0000,-167.0000,16.0000,16.0000,-90.0000,-55.0000,-19.0000
15.0000,-55.0000,16.0000,-90.0000,89.0000,16.0000,89.0000,16.0000,126.0000,89.0000,126.0000,-20.0000,89.0000,-20.0000,52.0000,52.0000,-19.0000,50.0000,85.0000
15.0000,-90.0000,52.0000,-125.0000,126.0000,-20.0000,200.0000,16.0000,200.0000,126.0000,89.0000,-57.0000,126.0000,-57.0000,163.0000,-20.0000,-55.0000,15.0000,85.0000
15.0000,-55.0000,16.0000,-90.0000,89.0000,16.0000,163.0000,16.0000,200.0000,163.0000,126.0000,-20.0000,89.0000,16.0000,126.0000,-57.0000,-19.0000,85.0000,50.0000
50.0000,15.0000,52.0000,-19.0000,89.0000,52.0000,89.0000,16.0000,89.0000,126.0000,89.0000,-20.0000,89.0000,-20.0000,89.0000,-20.0000,-90.0000,15.0000,-55.0000
-90.0000,-90.0000,-57.0000,-160.0000,16.0000,-94.0000,52.0000,-94.0000,-20.0000,52.0000,16.0000,-131.0000,52.0000,-167.0000,52.0000,-94.0000,-160.0000,-90.0000,-125.0000
-55.0000,-55.0000,-94.0000,-160.0000,-20.0000,-94.0000,-57.0000,-57.0000,-57.0000,16.0000,-20.0000,-94.0000,-20.0000,-94.0000,-20.0000,52.0000,-160.0000,-90.0000,-125.0000
-125.0000,-90.0000,-167.0000,-231.0000,-131.0000,-131.0000,-131.0000,-57.0000,-57.0000,52.0000,-131.0000,-167.0000,-20.0000,-20.0000,-20.0000,200.0000,-266.0000,-160.0000,-125.0000
-125.0000,-90.0000,-167.0000,-231.0000,-131.0000,-94.0000,-57.0000,16.0000,-57.0000,126.0000,-57.0000,-57.0000,-57.0000,163.0000,-20.0000,236.0000,-195.0000,-19.0000,-19.0000
-19.0000,50.0000,-20.0000,-90.0000,16.0000,89.0000,52.0000,200.0000,52.0000,236.0000,89.0000,126.0000,52.0000,310.0000,89.0000,200.0000,-125.0000,50.0000,85.0000
-90.0000,15.0000,-57.0000,-55.0000,16.0000,89.0000,163.0000,236.0000,89.0000,273.0000,16.0000,126.0000,89.0000,236.0000,163.0000,126.0000,-125.0000,50.0000,121.0000
-90.0000,50.0000,-57.0000,15.0000,16.0000,163.0000,126.0000,273.0000,163.0000,310.0000,89.0000,163.0000,89.0000,200.0000,163.0000,236.0000,-125.0000,85.0000,156.0000
-125.0000,-19.0000,-94.0000,-19.0000,16.0000,126.0000,163.0000,273.0000,163.0000,310.0000,52.0000,52.0000,89.0000,89.0000,200.0000,310.0000,-160.0000,-19.0000,156.0000
-195.0000,-90.0000,-131.0000,-90.0000,-20.0000,89.0000,163.0000,236.0000,89.0000,310.0000,16.0000,52.0000,52.0000,163.0000,163.0000,384.0000,-160.0000,15.0000,121.0000
-90.0000,-19.0000,-94.0000,50.0000,16.0000,163.0000,89.0000,273.0000,126.0000,310.0000,52.0000,200.0000,52.0000,310.0000,163.0000,420.0000,-90.0000,50.0000,121.0000
-160.0000,-55.0000,-94.0000,15.0000,-20.0000,89.0000,126.0000,236.0000,163.0000,347.0000,-57.0000,163.0000,16.0000,273.0000,163.0000,310.0000,-90.0000,50.0000,85.0000
-125.0000,50.0000,-57.0000,121.0000,16.0000,126.0000,89.0000,273.0000,200.0000,420.0000,52.0000,236.0000,16.0000,347.0000,126.0000,273.0000,-19.0000,121.0000,85.0000
-90.0000,121.0000,16.0000,156.0000,52.0000,163.0000,89.0000,236.0000,200.0000,384.0000,89.0000,200.0000,89.0000,310.0000,200.0000,273.0000,-55.0000,85.0000,15.0000
-90.0000,50.0000,-57.0000,85.0000,16.0000,52.0000,16.0000,126.0000,126.0000,310.0000,52.0000,126.0000,89.0000,163.0000,163.0000,163.0000,-55.0000,85.0000,-19.0000
50.0000,191.0000,16.0000,156.0000,52.0000,163.0000,16.0000,200.0000,163.0000,384.0000,126.0000,163.0000,89.0000,126.0000,163.0000,236.0000,15.0000,191.0000,15.0000
-19.0000,156.0000,16.0000,121.0000,89.0000,163.0000,126.0000,163.0000,200.0000,420.0000,89.0000,126.0000,163.0000,126.0000,236.0000,347.0000,15.0000,191.0000,85.0000
-19.0000,226.0000,89.0000,226.0000,126.0000,236.0000,163.0000,236.0000,200.0000,384.0000,163.0000,236.0000,163.0000,273.0000,200.0000,347.0000,156.0000,297.0000,121.0000
121.0000,332.0000,200.0000,297.0000,200.0000,310.0000,126.0000,236.0000,200.0000,273.0000,200.0000,236.0000,163.0000,347.0000,200.0000,200.0000,226.0000,261.0000,156.0000
121.0000,226.0000,163.0000,226.0000,163.0000,273.0000,126.0000,163.0000,163.0000,200.0000,126.0000,200.0000,126.0000,273.0000,126.0000,126.0000,261.0000,261.0000,156.0000
261.0000,297.0000,236.0000,367.0000,236.0000,420.0000,163.0000,273.0000,236.0000,310.0000,200.0000,384.0000,89.0000,384.0000,89.0000,310.0000,367.0000,437.0000,226.0000
226.0000,367.0000,273.0000,437.0000,310.0000,494.0000,310.0000,384.0000,273.0000,420.0000,163.0000,420.0000,163.0000,420.0000,200.0000,384.0000,367.0000,473.0000,297.0000
261.0000,402.0000,310.0000,508.0000,347.0000,604.0000,347.0000,457.0000,310.0000,494.0000,236.0000,494.0000,200.0000,531.0000,236.0000,457.0000,402.0000,543.0000,367.0000
332.0000,473.0000,420.0000,578.0000,457.0000,641.0000,384.0000,494.0000,310.0000,457.0000,310.0000,531.0000,273.0000,568.0000,236.0000,604.0000,402.0000,543.0000,367.0000
226.0000,437.0000,347.0000,473.0000,384.0000,531.0000,347.0000,420.0000,200.0000,420.0000,236.0000,494.0000,273.0000,457.0000,163.0000,494.0000,332.0000,473.0000,297.0000
297.0000,508.0000,347.0000,578.0000,347.0000,568.0000,200.0000,420.0000,200.0000,457.0000,236.0000,568.0000,200.0000,457.0000,52.0000,347.0000,332.0000,508.0000,226.0000
297.0000,437.0000,310.0000,543.0000,273.0000,494.0000,163.0000,420.0000,200.0000,494.0000,163.0000,457.0000,163.0000,310.0000,89.0000,310.0000,261.0000,402.0000,226.0000
191.0000,402.0000,200.0000,473.0000,200.0000,420.0000,163.0000,420.0000,236.0000,494.0000,126.0000,384.0000,126.0000,310.0000,89.0000,310.0000,191.0000,437.0000,226.0000
261.0000,437.0000,200.0000,473.0000,236.0000,494.0000,200.0000,457.0000,273.0000,457.0000,163.0000,384.0000,163.0000,310.0000,200.0000,347.0000,156.0000,437.0000,226.0000
156.0000,297.0000,163.0000,367.0000,200.0000,384.0000,273.0000,347.0000,310.0000,347.0000,89.0000,273.0000,236.0000,236.0000,310.0000,163.0000,121.0000,367.0000,191.0000
191.0000,332.0000,200.0000,367.0000,310.0000,384.0000,347.0000,384.0000,347.0000,384.0000,200.0000,384.0000,273.0000,347.0000,347.0000,163.0000,156.0000,437.0000,226.0000
261.0000,402.0000,236.0000,367.0000,347.0000,384.0000,384.0000,384.0000,310.0000,420.0000,200.0000,347.0000,347.0000,310.0000,384.0000,236.0000,85.0000,402.0000,191.0000
156.0000,332.0000,163.0000,332.0000,236.0000,347.0000,273.0000,384.0000,200.0000,384.0000,126.0000,310.0000,273.0000,236.0000,273.0000,310.0000,15.0000,402.0000,121.0000
191.0000,402.0000,163.0000,402.0000,236.0000,457.0000,200.0000,494.0000,200.0000,420.0000,200.0000,347.0000,273.0000,310.0000,236.0000,384.0000,15.0000,437.0000,156.0000
121.0000,261.0000,126.0000,297.0000,236.0000,420.0000,236.0000,457.0000,163.0000,384.0000,163.0000,236.0000,310.0000,273.0000,236.0000,310.0000,-19.0000,367.0000,226.0000
121.0000,191.0000,126.0000,261.0000,200.0000,420.0000,236.0000,531.0000,126.0000,384.0000,236.0000,273.0000,273.0000,384.0000,163.0000,236.0000,50.0000,437.0000,332.0000
191.0000,226.0000,200.0000,332.0000,273.0000,494.0000,273.0000,604.0000,200.0000,457.0000,273.0000,347.0000,347.0000,457.0000,163.0000,273.0000,85.0000,473.0000,367.0000
191.0000,297.0000,200.0000,402.0000,236.0000,494.0000,273.0000,604.0000,200.0000,531.0000,273.0000,457.0000,310.0000,457.0000,163.0000,384.0000,156.0000,508.0000,297.0000
261.0000,508.0000,273.0000,613.0000,273.0000,604.0000,200.0000,678.0000,200.0000,531.0000,347.0000,678.0000,310.0000,604.0000,89.0000,457.0000,226.0000,543.0000,261.0000
226.0000,543.0000,273.0000,578.0000,236.0000,531.0000,200.0000,568.0000,200.0000,494.0000,273.0000,604.0000,273.0000,494.0000,200.0000,420.0000,226.0000,437.0000,226.0000
191.0000,508.0000,273.0000,543.0000,200.0000,494.0000,200.0000,531.0000,236.0000,494.0000,310.0000,568.0000,236.0000,494.0000,200.0000,494.0000,226.0000,473.0000,226.0000
261.0000,543.0000,310.0000,543.0000,236.0000,568.0000,200.0000,568.0000,200.0000,494.0000,310.0000,531.0000,236.0000,531.0000,200.0000,494.0000,191.0000,508.0000,226.0000
156.0000,473.0000,236.0000,473.0000,200.0000,494.0000,163.0000,494.0000,163.0000,457.0000,200.0000,494.0000,236.0000,457.0000,89.0000,420.0000,191.0000,508.0000,191.0000
226.0000,543.0000,236.0000,543.0000,236.0000,531.0000,126.0000,494.0000,200.0000,347.0000,236.0000,531.0000,163.0000,457.0000,16.0000,457.0000,226.0000,508.0000,191.0000
191.0000,402.0000,163.0000,437.0000,163.0000,420.0000,126.0000,347.0000,236.0000,163.0000,126.0000,420.0000,163.0000,347.0000,89.0000,384.0000,156.0000,367.0000,85.0000
50.0000,297.0000,89.0000,367.0000,89.0000,384.0000,89.0000,273.0000,273.0000,89.0000,89.0000,420.0000,126.0000,384.0000,89.0000,310.0000,121.0000,367.0000,50.0000
85.0000,367.0000,126.0000,473.0000,126.0000,457.0000,126.0000,273.0000,347.0000,163.0000,163.0000,457.0000,163.0000,384.0000,126.0000,347.0000,156.0000,367.0000,85.0000
50.0000,332.0000,163.0000,402.0000,126.0000,347.0000,163.0000,236.0000,273.0000,200.0000,126.0000,384.0000,200.0000,273.0000,126.0000,273.0000,191.0000,297.0000,121.0000
226.0000,437.0000,273.0000,437.0000,200.0000,347.0000,126.0000,310.0000,236.0000,236.0000,236.0000,420.0000,163.0000,420.0000,89.0000,163.0000,261.0000,297.0000,156.0000
367.0000,473.0000,310.0000,402.0000,200.0000,347.0000,163.0000,347.0000,273.0000,236.0000,200.0000,384.0000,200.0000,420.0000,236.0000,200.0000,226.0000,261.0000,156.0000
297.0000,437.0000,236.0000,367.0000,163.0000,310.0000,163.0000,347.0000,310.0000,273.0000,200.0000,384.0000,200.0000,347.0000,236.0000,347.0000,261.0000,297.0000,156.0000
332.0000,508.0000,236.0000,473.0000,236.0000,420.0000,89.0000,384.0000,236.0000,273.0000,273.0000,420.0000,273.0000,384.0000,200.0000,494.0000,297.0000,332.0000,156.0000
191.0000,402.0000,200.0000,402.0000,200.0000,347.0000,126.0000,347.0000,126.0000,273.0000,200.0000,347.0000,347.0000,310.0000,200.0000,384.0000,261.0000,226.0000,121.0000
191.0000,473.0000,200.0000,437.0000,273.0000,310.0000,89.0000,384.0000,89.0000,310.0000,310.0000,384.0000,384.0000,384.0000,163.0000,347.0000,332.0000,297.0000,121.0000
191.0000,473.0000,236.0000,473.0000,310.0000,310.0000,126.0000,384.0000,89.0000,347.0000,310.0000,420.0000,420.0000,420.0000,273.0000,347.0000,261.0000,226.0000,121.0000
85.0000,402.0000,163.0000,367.0000,163.0000,236.0000,126.0000,384.0000,52.0000,347.0000,200.0000,420.0000,310.0000,420.0000,273.0000,347.0000,191.0000,226.0000,50.0000
156.0000,508.0000,163.0000,473.0000,163.0000,347.0000,89.0000,494.0000,89.0000,457.0000,273.0000,457.0000,273.0000,457.0000,236.0000,457.0000,156.0000,332.0000,85.0000
121.0000,437.0000,163.0000,402.0000,126.0000,347.0000,163.0000,531.0000,126.0000,494.0000,236.0000,384.0000,310.0000,420.0000,310.0000,531.0000,121.0000,332.0000,85.0000
121.0000,437.0000,126.0000,402.0000,163.0000,384.0000,163.0000,494.0000,163.0000,494.0000,273.0000,420.0000,273.0000,494.0000,273.0000,531.0000,156.0000,402.0000,85.0000
156.0000,437.0000,200.0000,473.0000,200.0000,420.0000,163.0000,457.0000,163.0000,384.0000,273.0000,420.0000,273.0000,531.0000,273.0000,568.0000,156.0000,332.0000,85.0000
156.0000,332.0000,163.0000,367.0000,163.0000,347.0000,163.0000,347.0000,126.0000,236.0000,236.0000,384.0000,273.0000,494.0000,236.0000,494.0000,226.0000,297.0000,50.0000
297.0000,437.0000,236.0000,473.0000,273.0000,420.0000,163.0000,347.0000,163.0000,236.0000,347.0000,494.0000,347.0000,568.0000,200.0000,457.0000,261.0000,367.0000,85.0000
261.0000,402.0000,236.0000,437.0000,236.0000,347.0000,200.0000,273.0000,126.0000,236.0000,273.0000,420.0000,347.0000,457.0000,236.0000,347.0000,156.0000,261.0000,15.0000
156.0000,297.0000,126.0000,367.0000,126.0000,273.0000,126.0000,273.0000,126.0000,200.0000,200.0000,420.0000,200.0000,347.0000,163.0000,310.0000,156.0000,261.0000,15.0000
261.0000,297.0000,163.0000,402.0000,126.0000,273.0000,126.0000,273.0000,126.0000,163.0000,200.0000,384.0000,163.0000,310.0000,163.0000,310.0000,121.0000,226.0000,15.0000
226.0000,261.0000,126.0000,261.0000,89.0000,163.0000,126.0000,163.0000,52.0000,126.0000,163.0000,236.0000,200.0000,236.0000,163.0000,200.0000,121.0000,191.0000,-19.0000
297.0000,297.0000,200.0000,332.0000,163.0000,236.0000,52.0000,200.0000,89.0000,163.0000,273.0000,273.0000,236.0000,347.0000,163.0000,89.0000,226.0000,226.0000,15.0000
367.0000,226.0000,273.0000,261.0000,236.0000,163.0000,126.0000,163.0000,126.0000,52.0000,310.0000,126.0000,310.0000,200.0000,236.0000,126.0000,261.0000,85.0000,50.0000
367.0000,121.0000,273.0000,156.0000,200.0000,89.0000,89.0000,52.0000,89.0000,-20.0000,273.0000,89.0000,273.0000,126.0000,163.0000,273.0000,261.0000,50.0000,85.0000
402.0000,226.0000,310.0000,191.0000,236.0000,126.0000,89.0000,89.0000,89.0000,16.0000,310.0000,163.0000,236.0000,163.0000,126.0000,273.0000,226.0000,50.0000,121.0000
226.0000,156.0000,236.0000,121.0000,163.0000,52.0000,89.0000,52.0000,52.0000,52.0000,200.0000,126.0000,236.0000,89.0000,126.0000,89.0000,156.0000,-19.0000,50.0000
191.0000,261.0000,200.0000,226.0000,126.0000,89.0000,16.0000,52.0000,52.0000,89.0000,200.0000,163.0000,163.0000,126.0000,89.0000,16.0000,191.0000,50.0000,50.0000
261.0000,332.0000,200.0000,297.0000,126.0000,126.0000,89.0000,52.0000,126.0000,52.0000,163.0000,163.0000,163.0000,126.0000,163.0000,16.0000,226.0000,15.0000,85.0000
226.0000,297.0000,163.0000,261.0000,126.0000,89.0000,200.0000,16.0000,236.0000,-20.0000,89.0000,163.0000,163.0000,52.0000,163.0000,-20.0000,261.0000,15.0000,121.0000
332.0000,297.0000,200.0000,261.0000,200.0000,126.0000,273.0000,52.0000,384.0000,-57.0000,200.0000,163.0000,200.0000,16.0000,236.0000,89.0000,297.0000,15.0000,191.0000
297.0000,121.0000,163.0000,156.0000,200.0000,16.0000,310.0000,-20.0000,457.0000,-131.0000,163.0000,52.0000,273.0000,-20.0000,347.0000,52.0000,297.0000,-90.0000,226.0000
297.0000,85.0000,163.0000,121.0000,163.0000,-20.0000,273.0000,-20.0000,420.0000,-131.0000,200.0000,89.0000,200.0000,52.0000,310.0000,16.0000,332.0000,-19.0000,191.0000
297.0000,121.0000,236.0000,156.0000,200.0000,52.0000,236.0000,16.0000,384.0000,-57.0000,163.0000,126.0000,200.0000,126.0000,273.0000,52.0000,297.0000,-19.0000,191.0000
226.0000,15.0000,163.0000,50.0000,126.0000,16.0000,236.0000,52.0000,236.0000,89.0000,52.0000,52.0000,126.0000,126.0000,163.0000,16.0000,261.0000,15.0000,191.0000
332.0000,85.0000,200.0000,121.0000,200.0000,89.0000,200.0000,163.0000,236.0000,200.0000,163.0000,52.0000,126.0000,89.0000,126.0000,200.0000,297.0000,50.0000,261.0000
261.0000,15.0000,200.0000,50.0000,200.0000,16.0000,200.0000,126.0000,163.0000,200.0000,163.0000,-57.0000,200.0000,-57.0000,163.0000,236.0000,261.0000,-19.0000,226.0000
191.0000,-19.0000,200.0000,15.0000,200.0000,-57.0000,163.0000,89.0000,89.0000,163.0000,200.0000,-20.0000,200.0000,16.0000,126.0000,163.0000,226.0000,15.0000,191.0000
261.0000,50.0000,236.0000,15.0000,163.0000,-20.0000,89.0000,89.0000,52.0000,163.0000,163.0000,-57.0000,163.0000,89.0000,163.0000,126.0000,191.0000,-19.0000,156.0000
191.0000,-90.0000,126.0000,-125.0000,16.0000,-94.0000,16.0000,16.0000,-20.0000,126.0000,16.0000,-167.0000,52.0000,-20.0000,126.0000,16.0000,85.0000,-125.0000,85.0000
226.0000,-90.0000,126.0000,-90.0000,-20.0000,-94.0000,-57.0000,-20.0000,16.0000,126.0000,52.0000,-94.0000,-20.0000,-57.0000,89.0000,-20.0000,85.0000,-125.0000,15.0000
156.0000,-125.0000,89.0000,-125.0000,-20.0000,-131.0000,-20.0000,-94.0000,16.0000,89.0000,-20.0000,-94.0000,-20.0000,-131.0000,52.0000,16.0000,-19.0000,-125.0000,-55.0000
15.0000,-55.0000,16.0000,-90.0000,-57.0000,-57.0000,-20.0000,-57.0000,-57.0000,89.0000,-57.0000,-20.0000,-57.0000,-57.0000,-20.0000,126.0000,-19.0000,15.0000,-90.0000
85.0000,156.0000,52.0000,85.0000,16.0000,126.0000,-57.0000,52.0000,-20.0000,126.0000,16.0000,126.0000,-57.0000,126.0000,-20.0000,236.0000,15.0000,121.0000,-19.0000
15.0000,121.0000,16.0000,85.0000,16.0000,126.0000,16.0000,52.0000,-20.0000,126.0000,-20.0000,163.0000,16.0000,163.0000,89.0000,236.0000,50.0000,121.0000,-19.0000
121.0000,226.0000,89.0000,226.0000,52.0000,200.0000,-57.0000,89.0000,-20.0000,126.0000,52.0000,273.0000,16.0000,236.0000,52.0000,163.0000,121.0000,226.0000,-19.0000
156.0000,226.0000,126.0000,226.0000,52.0000,236.0000,-94.0000,89.0000,-94.0000,126.0000,52.0000,236.0000,52.0000,163.0000,52.0000,52.0000,121.0000,156.0000,-19.0000
85.0000,191.0000,89.0000,156.0000,16.0000,163.0000,-94.0000,52.0000,-131.0000,52.0000,89.0000,200.0000,52.0000,89.0000,16.0000,52.0000,121.0000,226.0000,-19.0000
156.0000,261.0000,163.0000,261.0000,89.0000,273.0000,-94.0000,126.0000,-57.0000,16.0000,236.0000,273.0000,126.0000,163.0000,-20.0000,236.0000,121.0000,297.0000,15.0000
50.0000,191.0000,126.0000,191.0000,126.0000,236.0000,16.0000,126.0000,-20.0000,52.0000,200.0000,236.0000,200.0000,126.0000,89.0000,236.0000,121.0000,261.0000,50.0000
85.0000,261.0000,200.0000,261.0000,200.0000,236.0000,89.0000,200.0000,52.0000,163.0000,310.0000,347.0000,236.0000,236.0000,126.0000,236.0000,226.0000,332.0000,156.0000
191.0000,332.0000,236.0000,332.0000,273.0000,310.0000,163.0000,273.0000,126.0000,236.0000,310.0000,310.0000,310.0000,310.0000,200.0000,200.0000,226.0000,332.0000,226.0000
85.0000,297.0000,163.0000,226.0000,236.0000,273.0000,200.0000,273.0000,126.0000,200.0000,200.0000,200.0000,236.0000,273.0000,200.0000,126.0000,156.0000,297.0000,156.0000
121.0000,367.0000,200.0000,226.0000,236.0000,273.0000,163.0000,236.0000,163.0000,163.0000,236.0000,126.0000,200.0000,163.0000,126.0000,126.0000,156.0000,297.0000,191.0000
85.0000,261.0000,200.0000,156.0000,236.0000,163.0000,200.0000,163.0000,163.0000,89.0000,163.0000,52.0000,236.0000,16.0000,126.0000,89.0000,156.0000,226.0000,191.0000
156.0000,226.0000,200.0000,156.0000,236.0000,200.0000,163.0000,163.0000,126.0000,89.0000,200.0000,89.0000,200.0000,89.0000,16.0000,126.0000,226.0000,261.0000,226.0000
226.0000,261.0000,236.0000,191.0000,273.0000,236.0000,126.0000,163.0000,89.0000,126.0000,200.0000,126.0000,163.0000,126.0000,-20.0000,163.0000,226.0000,191.0000,226.0000
121.0000,121.0000,163.0000,85.0000,163.0000,89.0000,126.0000,52.0000,16.0000,126.0000,89.0000,52.0000,89.0000,52.0000,-57.0000,-57.0000,191.0000,85.0000,156.0000
156.0000,156.0000,200.0000,121.0000,163.0000,89.0000,52.0000,52.0000,52.0000,126.0000,200.0000,52.0000,89.0000,16.0000,-20.0000,-167.0000,261.0000,85.0000,191.0000
191.0000,121.0000,163.0000,50.0000,126.0000,-20.0000,89.0000,-20.0000,126.0000,89.0000,89.0000,-57.0000,52.0000,-167.0000,89.0000,-94.0000,191.0000,-19.0000,156.0000
156.0000,121.0000,89.0000,-19.0000,16.0000,-57.0000,89.0000,-57.0000,163.0000,126.0000,16.0000,-57.0000,-20.0000,-204.0000,126.0000,-20.0000,156.0000,15.0000,121.0000
226.0000,191.0000,126.0000,15.0000,52.0000,-20.0000,89.0000,-57.0000,200.0000,163.0000,89.0000,-20.0000,16.0000,-57.0000,126.0000,52.0000,121.0000,15.0000,121.0000
85.0000,15.0000,52.0000,-90.0000,16.0000,-57.0000,89.0000,-94.0000,89.0000,126.0000,52.0000,-94.0000,52.0000,-57.0000,89.0000,-94.0000,85.0000,-55.0000,85.0000
85.0000,15.0000,52.0000,15.0000,16.0000,16.0000,52.0000,-20.0000,89.0000,52.0000,89.0000,-20.0000,-20.0000,-20.0000,-20.0000,-131.0000,156.0000,15.0000,156.0000
156.0000,15.0000,89.0000,-19.0000,16.0000,-57.0000,126.0000,-20.0000,163.0000,16.0000,16.0000,-131.0000,16.0000,-167.0000,52.0000,-131.0000,121.0000,-55.0000,156.0000
85.0000,15.0000,52.0000,-55.0000,16.0000,-94.0000,200.0000,-94.0000,236.0000,-20.0000,52.0000,-94.0000,16.0000,-167.0000,89.0000,-204.0000,156.0000,-19.0000,156.0000
191.0000,191.0000,126.0000,50.0000,126.0000,-20.0000,236.0000,-57.0000,310.0000,16.0000,163.0000,16.0000,89.0000,-20.0000,126.0000,-94.0000,191.0000,15.0000,191.0000
156.0000,50.0000,163.0000,-19.0000,126.0000,-57.0000,273.0000,-57.0000,310.0000,-20.0000,89.0000,-20.0000,126.0000,-20.0000,200.0000,-20.0000,121.0000,-55.0000,156.0000
191.0000,-19.0000,126.0000,-55.0000,89.0000,-20.0000,163.0000,-57.0000,273.0000,-57.0000,126.0000,16.0000,52.0000,16.0000,126.0000,16.0000,85.0000,-19.0000,121.0000
156.0000,-19.0000,126.0000,-55.0000,126.0000,-20.0000,126.0000,-57.0000,236.0000,-57.0000,89.0000,-20.0000,89.0000,-20.0000,126.0000,16.0000,85.0000,-19.0000,85.0000
50.0000,-55.0000,126.0000,-55.0000,126.0000,-57.0000,163.0000,-57.0000,200.0000,-57.0000,89.0000,16.0000,89.0000,16.0000,163.0000,-20.0000,156.0000,15.0000,121.0000
121.0000,50.0000,236.0000,85.0000,200.0000,52.0000,163.0000,16.0000,200.0000,-20.0000,200.0000,126.0000,126.0000,163.0000,163.0000,-20.0000,226.0000,85.0000,191.0000
85.0000,15.0000,200.0000,15.0000,200.0000,16.0000,200.0000,-20.0000,163.0000,16.0000,163.0000,52.0000,200.0000,16.0000,273.0000,-20.0000,156.0000,15.0000,191.0000
15.0000,50.0000,163.0000,50.0000,200.0000,16.0000,200.0000,16.0000,163.0000,89.0000,200.0000,89.0000,236.0000,16.0000,273.0000,89.0000,156.0000,50.0000,191.0000
121.0000,50.0000,163.0000,50.0000,236.0000,52.0000,163.0000,89.0000,163.0000,126.0000,200.0000,89.0000,310.0000,89.0000,273.0000,163.0000,121.0000,50.0000,156.0000
50.0000,-90.0000,52.0000,-19.0000,126.0000,-57.0000,126.0000,52.0000,52.0000,89.0000,126.0000,52.0000,236.0000,126.0000,236.0000,52.0000,85.0000,-19.0000,121.0000
121.0000,-19.0000,52.0000,50.0000,89.0000,16.0000,52.0000,89.0000,89.0000,89.0000,163.0000,89.0000,163.0000,126.0000,200.0000,52.0000,121.0000,15.0000,156.0000
85.0000,15.0000,16.0000,15.0000,52.0000,-57.0000,126.0000,52.0000,89.0000,52.0000,52.0000,-20.0000,126.0000,-20.0000,236.0000,-20.0000,50.0000,-19.0000,156.0000
-19.0000,50.0000,-20.0000,-19.0000,89.0000,-57.0000,163.0000,16.0000,89.0000,52.0000,52.0000,16.0000,126.0000,-94.0000,200.0000,52.0000,85.0000,15.0000,191.0000
15.0000,121.0000,52.0000,85.0000,163.0000,16.0000,163.0000,89.0000,163.0000,52.0000,163.0000,52.0000,163.0000,16.0000,236.0000,236.0000,121.0000,85.0000,226.0000
-19.0000,50.0000,52.0000,-19.0000,126.0000,16.0000,200.0000,89.0000,163.0000,16.0000,126.0000,16.0000,163.0000,126.0000,200.0000,236.0000,85.0000,50.0000,226.0000
85.0000,85.0000,163.0000,50.0000,163.0000,126.0000,126.0000,163.0000,163.0000,52.0000,273.0000,126.0000,126.0000,310.0000,126.0000,236.0000,156.0000,121.0000,261.0000
156.0000,15.0000,236.0000,15.0000,236.0000,163.0000,200.0000,200.0000,163.0000,89.0000,310.0000,126.0000,200.0000,347.0000,200.0000,163.0000,121.0000,121.0000,297.0000
50.0000,-55.0000,236.0000,-19.0000,273.0000,163.0000,273.0000,200.0000,200.0000,89.0000,273.0000,89.0000,200.0000,200.0000,200.0000,89.0000,121.0000,226.0000,332.0000
85.0000,-19.0000,236.0000,15.0000,347.0000,200.0000,310.0000,236.0000,273.0000,126.0000,236.0000,52.0000,163.0000,16.0000,200.0000,89.0000,121.0000,226.0000,297.0000
15.0000,-160.0000,163.0000,-90.0000,273.0000,52.0000,310.0000,126.0000,236.0000,89.0000,126.0000,-94.0000,163.0000,-131.0000,163.0000,-20.0000,50.0000,121.0000,226.0000
50.0000,-125.0000,163.0000,-55.0000,236.0000,89.0000,200.0000,126.0000,126.0000,52.0000,200.0000,-20.0000,126.0000,52.0000,16.0000,52.0000,121.0000,156.0000,226.0000
121.0000,-55.0000,200.0000,15.0000,236.0000,126.0000,126.0000,126.0000,89.0000,16.0000,236.0000,16.0000,163.0000,163.0000,16.0000,52.0000,121.0000,121.0000,191.0000
50.0000,-90.0000,163.0000,-19.0000,163.0000,52.0000,126.0000,52.0000,126.0000,-20.0000,200.0000,52.0000,126.0000,163.0000,52.0000,-20.0000,156.0000,85.0000,156.0000
191.0000,-19.0000,200.0000,15.0000,200.0000,89.0000,126.0000,89.0000,163.0000,16.0000,236.0000,52.0000,89.0000,52.0000,89.0000,52.0000,121.0000,85.0000,156.0000
121.0000,-90.0000,89.0000,-90.0000,163.0000,-20.0000,200.0000,52.0000,163.0000,16.0000,89.0000,-57.0000,89.0000,-94.0000,200.0000,89.0000,50.0000,-19.0000,191.0000
121.0000,-55.0000,52.0000,-90.0000,89.0000,-57.0000,200.0000,89.0000,200.0000,52.0000,89.0000,16.0000,16.0000,16.0000,163.0000,89.0000,85.0000,15.0000,226.0000
156.0000,-19.0000,52.0000,-55.0000,89.0000,-20.0000,200.0000,89.0000,236.0000,52.0000,52.0000,52.0000,16.0000,126.0000,163.0000,16.0000,50.0000,-19.0000,226.0000
50.0000,-55.0000,16.0000,-19.0000,52.0000,-20.0000,163.0000,52.0000,126.0000,-20.0000,52.0000,52.0000,16.0000,89.0000,89.0000,16.0000,121.0000,50.0000,156.0000
156.0000,50.0000,163.0000,121.0000,163.0000,126.0000,89.0000,126.0000,52.0000,-94.0000,273.0000,126.0000,126.0000,126.0000,16.0000,52.0000,226.0000,121.0000,156.0000
85.0000,-19.0000,236.0000,85.0000,236.0000,89.0000,163.0000,52.0000,16.0000,-131.0000,273.0000,89.0000,236.0000,89.0000,89.0000,126.0000,191.0000,15.0000,156.0000
15.0000,-55.0000,200.0000,50.0000,200.0000,52.0000,126.0000,16.0000,16.0000,-94.0000,236.0000,126.0000,163.0000,126.0000,16.0000,200.0000,191.0000,50.0000,156.0000
121.0000,-19.0000,200.0000,50.0000,200.0000,52.0000,89.0000,52.0000,52.0000,-20.0000,236.0000,126.0000,126.0000,126.0000,52.0000,236.0000,156.0000,-19.0000,156.0000
85.0000,-90.0000,163.0000,-55.0000,163.0000,-20.0000,126.0000,16.0000,16.0000,-20.0000,89.0000,89.0000,52.0000,52.0000,52.0000,200.0000,156.0000,-19.0000,156.0000
156.0000,50.0000,163.0000,85.0000,163.0000,89.0000,126.0000,89.0000,89.0000,16.0000,126.0000,200.0000,16.0000,200.0000,89.0000,200.0000,226.0000,85.0000,191.0000
156.0000,156.0000,163.0000,156.0000,163.0000,163.0000,200.0000,89.0000,126.0000,52.0000,52.0000,200.0000,52.0000,163.0000,163.0000,52.0000,191.0000,85.0000,156.0000
50.0000,121.0000,89.0000,191.0000,126.0000,163.0000,163.0000,126.0000,126.0000,52.0000,52.0000,200.0000,52.0000,126.0000,126.0000,52.0000,191.0000,156.0000,121.0000
50.0000,121.0000,126.0000,226.0000,163.0000,200.0000,126.0000,163.0000,126.0000,52.0000,126.0000,163.0000,126.0000,163.0000,126.0000,200.0000,121.0000,85.0000,121.0000
15.0000,-90.0000,52.0000,50.0000,89.0000,52.0000,126.0000,89.0000,126.0000,16.0000,52.0000,16.0000,126.0000,89.0000,126.0000,200.0000,50.0000,-19.0000,85.0000
121.0000,-90.0000,16.0000,15.0000,16.0000,16.0000,52.0000,52.0000,200.0000,89.0000,89.0000,16.0000,16.0000,89.0000,89.0000,163.0000,85.0000,-19.0000,85.0000
156.0000,-90.0000,52.0000,-19.0000,-20.0000,-57.0000,126.0000,16.0000,200.0000,89.0000,-20.0000,-57.0000,-20.0000,-94.0000,126.0000,89.0000,50.0000,-125.0000,85.0000
85.0000,-125.0000,16.0000,-90.0000,-20.0000,-167.0000,163.0000,-94.0000,163.0000,-20.0000,16.0000,-94.0000,-20.0000,-167.0000,163.0000,-57.0000,85.0000,-125.0000,85.0000
156.0000,-19.0000,126.0000,15.0000,89.0000,-94.0000,163.0000,-57.0000,126.0000,-94.0000,200.0000,-20.0000,89.0000,-57.0000,200.0000,-57.0000,85.0000,-55.0000,85.0000
85.0000,-55.0000,89.0000,-19.0000,89.0000,-57.0000,163.0000,-57.0000,52.0000,-131.0000,163.0000,-20.0000,200.0000,-20.0000,236.0000,16.0000,50.0000,-19.0000,15.0000
15.0000,15.0000,89.0000,50.0000,126.0000,16.0000,89.0000,16.0000,16.0000,-57.0000,273.0000,52.0000,236.0000,89.0000,163.0000,52.0000,85.0000,50.0000,50.0000
85.0000,15.0000,126.0000,15.0000,200.0000,16.0000,126.0000,-20.0000,89.0000,-20.0000,273.0000,-20.0000,310.0000,16.0000,200.0000,16.0000,50.0000,-55.0000,50.0000
15.0000,-160.0000,126.0000,-125.0000,200.0000,-131.0000,163.0000,-131.0000,126.0000,-94.0000,236.0000,-131.0000,273.0000,-167.0000,163.0000,16.0000,50.0000,-90.0000,50.0000
85.0000,-90.0000,200.0000,-55.0000,236.0000,-94.0000,126.0000,-94.0000,163.0000,-131.0000,310.0000,-131.0000,236.0000,-131.0000,163.0000,-20.0000,121.0000,-19.0000,85.0000
156.0000,-55.0000,200.0000,-19.0000,200.0000,-94.0000,163.0000,-94.0000,163.0000,-94.0000,236.0000,-131.0000,236.0000,-167.0000,163.0000,-131.0000,156.0000,-19.0000,85.0000
226.0000,50.0000,200.0000,121.0000,163.0000,16.0000,163.0000,-20.0000,126.0000,-20.0000,236.0000,52.0000,163.0000,-20.0000,163.0000,-94.0000,226.0000,121.0000,85.0000
261.0000,121.0000,236.0000,226.0000,236.0000,163.0000,163.0000,52.0000,163.0000,16.0000,236.0000,126.0000,200.0000,52.0000,200.0000,-20.0000,226.0000,121.0000,121.0000
121.0000,15.0000,163.0000,50.0000,163.0000,16.0000,163.0000,-20.0000,126.0000,-20.0000,163.0000,16.0000,163.0000,-57.0000,163.0000,16.0000,191.0000,15.0000,121.0000
156.0000,50.0000,163.0000,15.0000,163.0000,16.0000,89.0000,-20.0000,89.0000,-20.0000,163.0000,16.0000,126.0000,16.0000,126.0000,52.0000,156.0000,-55.0000,50.0000
156.0000,15.0000,89.0000,-90.0000,52.0000,-94.0000,52.0000,-131.0000,16.0000,-20.0000,52.0000,-20.0000,52.0000,16.0000,126.0000,52.0000,85.0000,-160.0000,-19.0000
85.0000,-55.0000,16.0000,-90.0000,-57.0000,-94.0000,-57.0000,-167.0000,-20.0000,-20.0000,16.0000,16.0000,-57.0000,16.0000,16.0000,16.0000,121.0000,-90.0000,-55.0000
156.0000,15.0000,89.0000,50.0000,-57.0000,16.0000,-57.0000,-94.0000,52.0000,16.0000,-20.0000,52.0000,-94.0000,-57.0000,16.0000,52.0000,121.0000,-19.0000,-19.0000
50.0000,-19.0000,52.0000,15.0000,-94.0000,-20.0000,16.0000,-94.0000,52.0000,16.0000,-94.0000,-20.0000,-94.0000,-167.0000,16.0000,-20.0000,85.0000,-19.0000,15.0000
85.0000,85.0000,89.0000,85.0000,-20.0000,52.0000,16.0000,16.0000,52.0000,52.0000,16.0000,52.0000,-94.0000,16.0000,-57.0000,16.0000,85.0000,85.0000,85.0000
85.0000,85.0000,89.0000,15.0000,16.0000,52.0000,52.0000,16.0000,52.0000,52.0000,16.0000,16.0000,-57.0000,52.0000,-20.0000,52.0000,50.0000,50.0000,121.0000
15.0000,15.0000,52.0000,15.0000,16.0000,52.0000,89.0000,52.0000,16.0000,89.0000,16.0000,89.0000,-20.0000,163.0000,-20.0000,16.0000,121.0000,121.0000,191.0000
85.0000,85.0000,126.0000,121.0000,126.0000,200.0000,163.0000,163.0000,52.0000,126.0000,89.0000,163.0000,16.0000,236.0000,-57.0000,89.0000,156.0000,156.0000,226.0000
50.0000,-19.0000,89.0000,50.0000,89.0000,163.0000,236.0000,126.0000,52.0000,89.0000,-57.0000,52.0000,16.0000,52.0000,-20.0000,200.0000,121.0000,121.0000,226.0000
85.0000,15.0000,52.0000,50.0000,126.0000,163.0000,200.0000,126.0000,126.0000,52.0000,-57.0000,89.0000,-20.0000,52.0000,-57.0000,236.0000,156.0000,191.0000,226.0000
156.0000,85.0000,126.0000,85.0000,163.0000,200.0000,236.0000,126.0000,126.0000,-20.0000,-20.0000,89.0000,16.0000,163.0000,-20.0000,163.0000,156.0000,191.0000,226.0000
85.0000,50.0000,126.0000,156.0000,126.0000,236.0000,236.0000,163.0000,89.0000,52.0000,16.0000,200.0000,52.0000,273.0000,-57.0000,89.0000,226.0000,226.0000,297.0000
121.0000,156.0000,163.0000,297.0000,236.0000,347.0000,236.0000,273.0000,163.0000,200.0000,89.0000,310.0000,52.0000,347.0000,-57.0000,89.0000,261.0000,297.0000,402.0000
85.0000,121.0000,163.0000,261.0000,236.0000,310.0000,310.0000,273.0000,200.0000,273.0000,52.0000,273.0000,126.0000,200.0000,16.0000,163.0000,226.0000,261.0000,367.0000
15.0000,121.0000,163.0000,261.0000,236.0000,310.0000,236.0000,273.0000,200.0000,273.0000,89.0000,310.0000,126.0000,200.0000,52.0000,310.0000,261.0000,297.0000,297.0000
121.0000,156.0000,236.0000,261.0000,273.0000,347.0000,236.0000,310.0000,236.0000,273.0000,163.0000,310.0000,200.0000,310.0000,163.0000,310.0000,261.0000,261.0000,297.0000
156.0000,121.0000,200.0000,226.0000,236.0000,310.0000,236.0000,273.0000,236.0000,200.0000,126.0000,347.0000,163.0000,347.0000,200.0000,200.0000,261.0000,261.0000,261.0000
261.0000,261.0000,273.0000,332.0000,273.0000,384.0000,200.0000,310.0000,236.0000,163.0000,200.0000,420.0000,163.0000,347.0000,200.0000,200.0000,332.0000,332.0000,261.0000
226.0000,261.0000,310.0000,332.0000,273.0000,384.0000,236.0000,310.0000,236.0000,163.0000,163.0000,347.0000,236.0000,273.0000,236.0000,236.0000,297.0000,297.0000,297.0000
226.0000,297.0000,310.0000,332.0000,310.0000,384.0000,273.0000,384.0000,273.0000,273.0000,236.0000,420.0000,200.0000,420.0000,273.0000,236.0000,332.0000,367.0000,332.0000
332.0000,367.0000,384.0000,402.0000,384.0000,457.0000,347.0000,457.0000,347.0000,420.0000,273.0000,457.0000,273.0000,494.0000,347.0000,347.0000,297.0000,367.0000,332.0000
191.0000,226.0000,310.0000,261.0000,310.0000,347.0000,384.0000,384.0000,310.0000,457.0000,236.0000,310.0000,310.0000,310.0000,347.0000,347.0000,156.0000,297.0000,261.0000
156.0000,191.0000,310.0000,226.0000,347.0000,347.0000,347.0000,347.0000,273.0000,384.0000,347.0000,310.0000,347.0000,347.0000,273.0000,310.0000,156.0000,261.0000,261.0000
156.0000,85.0000,310.0000,121.0000,347.0000,236.0000,347.0000,236.0000,273.0000,273.0000,310.0000,236.0000,420.0000,310.0000,310.0000,200.0000,121.0000,156.0000,191.0000
156.0000,85.0000,273.0000,85.0000,310.0000,163.0000,236.0000,126.0000,236.0000,163.0000,236.0000,200.0000,347.0000,200.0000,273.0000,52.0000,156.0000,156.0000,121.0000
261.0000,191.0000,310.0000,191.0000,347.0000,163.0000,200.0000,126.0000,236.0000,163.0000,273.0000,236.0000,347.0000,200.0000,310.0000,-20.0000,191.0000,191.0000,121.0000
191.0000,121.0000,273.0000,156.0000,310.0000,126.0000,236.0000,89.0000,126.0000,126.0000,236.0000,200.0000,347.0000,200.0000,273.0000,52.0000,191.0000,191.0000,121.0000
191.0000,191.0000,273.0000,261.0000,310.0000,273.0000,200.0000,200.0000,126.0000,236.0000,236.0000,384.0000,273.0000,310.0000,163.0000,273.0000,261.0000,297.0000,226.0000
226.0000,261.0000,310.0000,261.0000,347.0000,310.0000,273.0000,236.0000,200.0000,273.0000,200.0000,347.0000,310.0000,200.0000,236.0000,310.0000,261.0000,261.0000,261.0000
156.0000,121.0000,236.0000,156.0000,273.0000,163.0000,384.0000,163.0000,310.0000,236.0000,163.0000,236.0000,310.0000,126.0000,236.0000,200.0000,191.0000,191.0000,226.0000
191.0000,156.0000,163.0000,156.0000,236.0000,126.0000,347.0000,163.0000,384.0000,200.0000,200.0000,200.0000,310.0000,163.0000,273.0000,126.0000,85.0000,121.0000,191.0000
85.0000,50.0000,52.0000,-19.0000,126.0000,-20.0000,310.0000,52.0000,310.0000,126.0000,52.0000,89.0000,273.0000,163.0000,236.0000,-20.0000,15.0000,15.0000,121.0000
50.0000,50.0000,16.0000,15.0000,52.0000,16.0000,200.0000,89.0000,310.0000,163.0000,89.0000,163.0000,200.0000,236.0000,163.0000,16.0000,50.0000,50.0000,121.0000
191.0000,50.0000,126.0000,85.0000,89.0000,52.0000,163.0000,89.0000,273.0000,163.0000,126.0000,126.0000,200.0000,89.0000,163.0000,200.0000,85.0000,50.0000,121.0000
226.0000,15.0000,163.0000,15.0000,52.0000,16.0000,126.0000,52.0000,163.0000,163.0000,163.0000,89.0000,236.0000,16.0000,126.0000,200.0000,121.0000,50.0000,121.0000
367.0000,226.0000,273.0000,156.0000,163.0000,126.0000,89.0000,126.0000,126.0000,163.0000,273.0000,163.0000,273.0000,200.0000,126.0000,126.0000,226.0000,121.0000,121.0000
297.0000,226.0000,310.0000,121.0000,236.0000,89.0000,126.0000,126.0000,52.0000,163.0000,236.0000,126.0000,347.0000,200.0000,200.0000,52.0000,156.0000,85.0000,121.0000
191.0000,191.0000,236.0000,121.0000,200.0000,89.0000,126.0000,126.0000,52.0000,200.0000,236.0000,163.0000,310.0000,200.0000,200.0000,52.0000,156.0000,156.0000,121.0000
191.0000,156.0000,273.0000,156.0000,236.0000,126.0000,89.0000,163.0000,126.0000,163.0000,273.0000,163.0000,347.0000,163.0000,273.0000,163.0000,121.0000,121.0000,121.0000
156.0000,85.0000,236.0000,85.0000,200.0000,16.0000,200.0000,126.0000,163.0000,163.0000,200.0000,89.0000,310.0000,52.0000,310.0000,236.0000,121.0000,85.0000,156.0000
226.0000,226.0000,200.0000,121.0000,163.0000,89.0000,163.0000,200.0000,163.0000,163.0000,200.0000,126.0000,200.0000,89.0000,236.0000,273.0000,121.0000,121.0000,191.0000
226.0000,226.0000,126.0000,85.0000,126.0000,16.0000,200.0000,126.0000,163.0000,163.0000,89.0000,52.0000,163.0000,16.0000,200.0000,126.0000,85.0000,50.0000,156.0000
191.0000,121.0000,89.0000,50.0000,126.0000,-20.0000,236.0000,89.0000,200.0000,163.0000,126.0000,16.0000,163.0000,52.0000,200.0000,-20.0000,85.0000,50.0000,156.0000
261.0000,156.0000,163.0000,85.0000,163.0000,16.0000,236.0000,126.0000,236.0000,200.0000,200.0000,89.0000,236.0000,126.0000,236.0000,-57.0000,121.0000,50.0000,156.0000
226.0000,85.0000,89.0000,50.0000,126.0000,-57.0000,236.0000,89.0000,126.0000,200.0000,89.0000,52.0000,163.0000,52.0000,200.0000,-20.0000,50.0000,15.0000,85.0000
261.0000,156.0000,89.0000,121.0000,89.0000,-20.0000,126.0000,89.0000,89.0000,200.0000,126.0000,126.0000,126.0000,16.0000,163.0000,200.0000,50.0000,85.0000,85.0000
226.0000,156.0000,89.0000,85.0000,52.0000,-20.0000,89.0000,52.0000,89.0000,126.0000,89.0000,16.0000,126.0000,-94.0000,163.0000,236.0000,-19.0000,-19.0000,15.0000
50.0000,121.0000,16.0000,15.0000,-57.0000,-94.0000,-20.0000,16.0000,52.0000,126.0000,16.0000,16.0000,52.0000,-20.0000,126.0000,89.0000,-19.0000,-19.0000,-55.0000
156.0000,191.0000,16.0000,121.0000,-20.0000,16.0000,-20.0000,126.0000,89.0000,163.0000,52.0000,52.0000,52.0000,89.0000,163.0000,-20.0000,-19.0000,-19.0000,-19.0000
156.0000,85.0000,-20.0000,50.0000,-57.0000,-20.0000,16.0000,52.0000,89.0000,89.0000,-20.0000,-20.0000,89.0000,-57.0000,273.0000,-94.0000,-55.0000,-55.0000,-19.0000
156.0000,50.0000,-20.0000,50.0000,-20.0000,16.0000,52.0000,89.0000,163.0000,163.0000,52.0000,89.0000,126.0000,52.0000,310.0000,-20.0000,-55.0000,15.0000,15.0000
156.0000,121.0000,52.0000,85.0000,52.0000,52.0000,89.0000,89.0000,200.0000,163.0000,89.0000,52.0000,126.0000,16.0000,347.0000,52.0000,-55.0000,-19.0000,15.0000
50.0000,50.0000,52.0000,-19.0000,52.0000,-20.0000,89.0000,52.0000,163.0000,126.0000,89.0000,-20.0000,126.0000,-57.0000,273.0000,16.0000,-19.0000,-19.0000,50.0000
156.0000,121.0000,126.0000,50.0000,126.0000,89.0000,89.0000,163.0000,126.0000,163.0000,200.0000,52.0000,163.0000,89.0000,200.0000,-20.0000,50.0000,85.0000,85.0000
191.0000,50.0000,126.0000,15.0000,126.0000,89.0000,126.0000,163.0000,89.0000,163.0000,200.0000,16.0000,236.0000,126.0000,200.0000,16.0000,15.0000,121.0000,85.0000
191.0000,50.0000,89.0000,50.0000,163.0000,163.0000,126.0000,200.0000,126.0000,236.0000,236.0000,52.0000,236.0000,89.0000,163.0000,163.0000,85.0000,226.0000,121.0000
226.0000,85.0000,200.0000,121.0000,236.0000,200.0000,200.0000,200.0000,200.0000,200.0000,310.0000,89.0000,347.0000,16.0000,236.0000,163.0000,121.0000,191.0000,121.0000
121.0000,15.0000,163.0000,50.0000,236.0000,126.0000,163.0000,52.0000,126.0000,89.0000,273.0000,52.0000,347.0000,52.0000,200.0000,16.0000,121.0000,156.0000,15.0000
156.0000,121.0000,236.0000,191.0000,310.0000,273.0000,52.0000,126.0000,52.0000,52.0000,347.0000,200.0000,384.0000,310.0000,163.0000,89.0000,226.0000,332.0000,50.0000
121.0000,156.0000,273.0000,261.0000,347.0000,347.0000,89.0000,163.0000,89.0000,89.0000,310.0000,236.0000,384.0000,310.0000,200.0000,163.0000,261.0000,332.0000,85.0000
85.0000,191.0000,273.0000,261.0000,347.0000,347.0000,89.0000,200.0000,89.0000,163.0000,273.0000,236.0000,273.0000,236.0000,52.0000,236.0000,297.0000,402.0000,156.0000
226.0000,226.0000,347.0000,297.0000,347.0000,384.0000,126.0000,200.0000,89.0000,200.0000,310.0000,236.0000,310.0000,163.0000,16.0000,200.0000,297.0000,332.0000,156.0000
191.0000,85.0000,273.0000,156.0000,310.0000,236.0000,163.0000,89.0000,52.0000,126.0000,273.0000,126.0000,310.0000,89.0000,52.0000,52.0000,261.0000,226.0000,121.0000
191.0000,85.0000,273.0000,226.0000,310.0000,273.0000,126.0000,163.0000,89.0000,126.0000,347.0000,200.0000,310.0000,236.0000,89.0000,126.0000,297.0000,297.0000,156.0000
156.0000,121.0000,273.0000,226.0000,310.0000,236.0000,163.0000,163.0000,89.0000,52.0000,273.0000,200.0000,310.0000,236.0000,126.0000,163.0000,261.0000,226.0000,121.0000
85.0000,121.0000,163.0000,226.0000,236.0000,236.0000,89.0000,163.0000,52.0000,89.0000,200.0000,236.0000,273.0000,310.0000,52.0000,200.0000,261.0000,297.0000,121.0000
121.0000,297.0000,200.0000,367.0000,273.0000,384.0000,89.0000,347.0000,52.0000,200.0000,273.0000,347.0000,273.0000,384.0000,89.0000,347.0000,261.0000,402.0000,191.0000
50.0000,226.0000,200.0000,332.0000,273.0000,347.0000,163.0000,347.0000,89.0000,310.0000,163.0000,273.0000,236.0000,200.0000,163.0000,310.0000,261.0000,402.0000,226.0000
156.0000,156.0000,236.0000,297.0000,310.0000,347.0000,200.0000,347.0000,163.0000,273.0000,236.0000,273.0000,200.0000,200.0000,163.0000,200.0000,332.0000,367.0000,297.0000
261.0000,85.0000,310.0000,226.0000,347.0000,236.0000,236.0000,273.0000,200.0000,126.0000,236.0000,200.0000,200.0000,200.0000,163.0000,200.0000,332.0000,226.0000,297.0000
191.0000,50.0000,236.0000,121.0000,273.0000,126.0000,236.0000,163.0000,126.0000,16.0000,200.0000,163.0000,236.0000,200.0000,126.0000,200.0000,297.0000,191.0000,191.0000
226.0000,191.0000,273.0000,226.0000,310.0000,200.0000,163.0000,200.0000,89.0000,16.0000,273.0000,236.0000,200.0000,273.0000,89.0000,236.0000,261.0000,226.0000,156.0000
85.0000,156.0000,200.0000,156.0000,236.0000,126.0000,163.0000,163.0000,126.0000,52.0000,200.0000,163.0000,200.0000,163.0000,126.0000,163.0000,156.0000,121.0000,121.0000
50.0000,156.0000,126.0000,121.0000,200.0000,126.0000,126.0000,200.0000,126.0000,126.0000,163.0000,163.0000,163.0000,163.0000,89.0000,273.0000,85.0000,121.0000,156.0000
85.0000,85.0000,89.0000,85.0000,126.0000,89.0000,89.0000,200.0000,126.0000,126.0000,126.0000,52.0000,126.0000,126.0000,126.0000,310.0000,15.0000,15.0000,121.0000
50.0000,-90.0000,-20.0000,-55.0000,16.0000,-57.0000,89.0000,126.0000,89.0000,52.0000,16.0000,-57.0000,52.0000,89.0000,89.0000,89.0000,-19.0000,-55.0000,121.0000
85.0000,15.0000,16.0000,-19.0000,52.0000,16.0000,89.0000,163.0000,163.0000,126.0000,52.0000,16.0000,16.0000,126.0000,126.0000,-57.0000,15.0000,15.0000,156.0000
15.0000,85.0000,52.0000,-19.0000,89.0000,16.0000,163.0000,126.0000,200.0000,163.0000,-20.0000,16.0000,52.0000,52.0000,163.0000,52.0000,-19.0000,-19.0000,121.0000
-55.0000,121.0000,16.0000,-19.0000,89.0000,16.0000,126.0000,126.0000,126.0000,163.0000,16.0000,89.0000,52.0000,89.0000,89.0000,200.0000,-19.0000,50.0000,85.0000
15.0000,156.0000,89.0000,85.0000,126.0000,52.0000,89.0000,126.0000,89.0000,126.0000,89.0000,126.0000,89.0000,89.0000,89.0000,200.0000,15.0000,-19.0000,85.0000
50.0000,50.0000,89.0000,-19.0000,52.0000,-57.0000,89.0000,52.0000,52.0000,52.0000,16.0000,16.0000,89.0000,52.0000,52.0000,89.0000,15.0000,-55.0000,85.0000
191.0000,85.0000,126.0000,-19.0000,89.0000,-20.0000,16.0000,89.0000,89.0000,89.0000,126.0000,16.0000,89.0000,126.0000,16.0000,89.0000,50.0000,-19.0000,85.0000
156.0000,50.0000,126.0000,-55.0000,89.0000,-20.0000,52.0000,52.0000,89.0000,126.0000,126.0000,-20.0000,126.0000,89.0000,52.0000,126.0000,15.0000,-55.0000,50.0000
85.0000,85.0000,52.0000,-55.0000,52.0000,-20.0000,52.0000,52.0000,126.0000,200.0000,163.0000,52.0000,89.0000,126.0000,52.0000,163.0000,50.0000,85.0000,85.0000
121.0000,191.0000,126.0000,121.0000,126.0000,163.0000,126.0000,200.0000,236.0000,347.0000,236.0000,126.0000,126.0000,163.0000,126.0000,236.0000,121.0000,191.0000,191.0000
50.0000,85.0000,89.0000,121.0000,126.0000,163.0000,200.0000,200.0000,236.0000,347.0000,163.0000,89.0000,126.0000,89.0000,163.0000,126.0000,121.0000,191.0000,191.0000
50.0000,121.0000,89.0000,156.0000,126.0000,163.0000,163.0000,200.0000,236.0000,236.0000,126.0000,126.0000,52.0000,163.0000,89.0000,126.0000,156.0000,191.0000,191.0000
15.0000,156.0000,52.0000,156.0000,89.0000,163.0000,126.0000,163.0000,200.0000,200.0000,16.0000,126.0000,-20.0000,126.0000,52.0000,163.0000,121.0000,121.0000,121.0000
-90.0000,50.0000,-20.0000,85.0000,-20.0000,89.0000,89.0000,89.0000,126.0000,163.0000,-94.0000,89.0000,-94.0000,89.0000,16.0000,163.0000,85.0000,85.0000,50.0000
-55.0000,50.0000,16.0000,85.0000,-20.0000,89.0000,16.0000,89.0000,126.0000,89.0000,-20.0000,89.0000,-131.0000,126.0000,16.0000,163.0000,85.0000,15.0000,50.0000
-125.0000,-55.0000,-20.0000,-19.0000,-94.0000,-20.0000,52.0000,-20.0000,89.0000,16.0000,-57.0000,-20.0000,-94.0000,16.0000,89.0000,89.0000,15.0000,-55.0000,15.0000
-160.0000,-19.0000,-57.0000,50.0000,-131.0000,16.0000,16.0000,16.0000,126.0000,89.0000,-20.0000,52.0000,-94.0000,52.0000,89.0000,89.0000,50.0000,50.0000,50.0000
-55.0000,85.0000,-20.0000,156.0000,-94.0000,89.0000,89.0000,89.0000,200.0000,163.0000,-57.0000,89.0000,-94.0000,52.0000,163.0000,52.0000,85.0000,85.0000,85.0000
-19.0000,85.0000,-20.0000,121.0000,-57.0000,89.0000,163.0000,89.0000,126.0000,163.0000,-57.0000,126.0000,-57.0000,89.0000,163.0000,16.0000,156.0000,121.0000,121.0000
50.0000,226.0000,89.0000,226.0000,52.0000,236.0000,163.0000,200.0000,89.0000,163.0000,52.0000,236.0000,-20.0000,273.0000,163.0000,200.0000,226.0000,226.0000,121.0000
50.0000,191.0000,89.0000,226.0000,52.0000,200.0000,163.0000,126.0000,89.0000,89.0000,16.0000,236.0000,52.0000,236.0000,163.0000,236.0000,156.0000,191.0000,85.0000
85.0000,191.0000,52.0000,226.0000,89.0000,200.0000,126.0000,89.0000,126.0000,126.0000,89.0000,273.0000,89.0000,200.0000,126.0000,273.0000,226.0000,226.0000,121.0000
226.0000,261.0000,163.0000,297.0000,163.0000,236.0000,163.0000,89.0000,200.0000,89.0000,200.0000,310.0000,163.0000,163.0000,163.0000,273.0000,261.0000,191.0000,156.0000
156.0000,156.0000,126.0000,261.0000,89.0000,163.0000,200.0000,16.0000,236.0000,52.0000,126.0000,273.0000,126.0000,52.0000,163.0000,200.0000,226.0000,156.0000,85.0000
261.0000,297.0000,163.0000,332.0000,89.0000,200.0000,163.0000,89.0000,273.0000,126.0000,126.0000,310.0000,16.0000,126.0000,126.0000,126.0000,226.0000,226.0000,121.0000
261.0000,261.0000,163.0000,297.0000,52.0000,163.0000,163.0000,52.0000,310.0000,126.0000,16.0000,200.0000,-20.0000,89.0000,89.0000,16.0000,191.0000,191.0000,121.0000
191.0000,226.0000,126.0000,226.0000,52.0000,163.0000,200.0000,52.0000,273.0000,89.0000,89.0000,163.0000,-20.0000,89.0000,52.0000,16.0000,226.0000,226.0000,121.0000
191.0000,332.0000,200.0000,297.0000,163.0000,236.0000,236.0000,89.0000,310.0000,52.0000,200.0000,200.0000,89.0000,163.0000,163.0000,163.0000,261.0000,226.0000,156.0000
121.0000,261.0000,200.0000,226.0000,126.0000,163.0000,236.0000,16.0000,347.0000,-20.0000,163.0000,163.0000,126.0000,89.0000,236.0000,163.0000,297.0000,121.0000,156.0000
191.0000,297.0000,236.0000,297.0000,163.0000,200.0000,200.0000,89.0000,347.0000,16.0000,273.0000,273.0000,163.0000,163.0000,236.0000,200.0000,367.0000,261.0000,226.0000
191.0000,261.0000,273.0000,332.0000,200.0000,236.0000,236.0000,126.0000,347.0000,126.0000,200.0000,273.0000,200.0000,163.0000,273.0000,273.0000,297.0000,261.0000,226.0000
156.0000,226.0000,236.0000,261.0000,163.0000,236.0000,236.0000,200.0000,310.0000,200.0000,163.0000,236.0000,163.0000,236.0000,273.0000,200.0000,261.0000,261.0000,226.0000
226.0000,261.0000,236.0000,297.0000,200.0000,310.0000,200.0000,273.0000,347.0000,310.0000,200.0000,273.0000,163.0000,310.0000,310.0000,200.0000,297.0000,261.0000,297.0000
121.0000,156.0000,200.0000,191.0000,163.0000,200.0000,273.0000,163.0000,347.0000,347.0000,126.0000,236.0000,126.0000,200.0000,310.0000,126.0000,261.0000,156.0000,332.0000
85.0000,191.0000,200.0000,226.0000,200.0000,273.0000,310.0000,236.0000,310.0000,384.0000,126.0000,347.0000,89.0000,273.0000,273.0000,163.0000,297.0000,261.0000,402.0000
121.0000,191.0000,200.0000,226.0000,236.0000,310.0000,310.0000,273.0000,273.0000,420.0000,126.0000,310.0000,89.0000,273.0000,310.0000,310.0000,226.0000,226.0000,332.0000
121.0000,121.0000,163.0000,121.0000,163.0000,236.0000,236.0000,236.0000,200.0000,420.0000,126.0000,236.0000,89.0000,236.0000,273.0000,420.0000,226.0000,226.0000,332.0000
226.0000,156.0000,200.0000,156.0000,236.0000,273.0000,200.0000,273.0000,236.0000,457.0000,200.0000,236.0000,126.0000,347.0000,310.0000,457.0000,261.0000,226.0000,332.0000
156.0000,50.0000,163.0000,50.0000,236.0000,200.0000,236.0000,200.0000,236.0000,347.0000,163.0000,89.0000,200.0000,236.0000,273.0000,310.0000,191.0000,121.0000,261.0000
156.0000,50.0000,163.0000,50.0000,236.0000,163.0000,163.0000,163.0000,200.0000,273.0000,273.0000,126.0000,200.0000,273.0000,200.0000,236.0000,191.0000,191.0000,226.0000
191.0000,121.0000,236.0000,121.0000,273.0000,200.0000,163.0000,163.0000,200.0000,273.0000,310.0000,126.0000,236.0000,236.0000,200.0000,200.0000,191.0000,121.0000,191.0000
121.0000,-19.0000,200.0000,15.0000,200.0000,52.0000,163.0000,89.0000,200.0000,236.0000,236.0000,52.0000,163.0000,126.0000,200.0000,89.0000,156.0000,50.0000,191.0000
156.0000,15.0000,200.0000,85.0000,163.0000,126.0000,126.0000,163.0000,200.0000,236.0000,236.0000,89.0000,89.0000,236.0000,200.0000,163.0000,191.0000,121.0000,226.0000
85.0000,50.0000,163.0000,85.0000,126.0000,126.0000,126.0000,200.0000,200.0000,236.0000,126.0000,89.0000,89.0000,200.0000,236.0000,236.0000,121.0000,121.0000,156.0000
-19.0000,85.0000,89.0000,121.0000,89.0000,126.0000,89.0000,200.0000,200.0000,273.0000,126.0000,200.0000,52.0000,200.0000,200.0000,310.0000,121.0000,156.0000,156.0000
-19.0000,191.0000,52.0000,156.0000,89.0000,163.0000,89.0000,236.0000,273.0000,310.0000,52.0000,200.0000,16.0000,163.0000,200.0000,236.0000,15.0000,85.0000,121.0000
-125.0000,50.0000,-94.0000,15.0000,-57.0000,16.0000,126.0000,163.0000,273.0000,200.0000,-131.0000,52.0000,-57.0000,52.0000,163.0000,126.0000,-125.0000,-19.0000,85.0000
-55.0000,50.0000,-131.0000,50.0000,-94.0000,89.0000,52.0000,236.0000,273.0000,200.0000,-57.0000,89.0000,-57.0000,163.0000,89.0000,89.0000,-55.0000,121.0000,156.0000
50.0000,121.0000,-20.0000,156.0000,-57.0000,200.0000,126.0000,273.0000,273.0000,200.0000,16.0000,126.0000,-20.0000,126.0000,163.0000,89.0000,15.0000,121.0000,156.0000
50.0000,156.0000,16.0000,191.0000,-20.0000,200.0000,126.0000,236.0000,236.0000,236.0000,89.0000,163.0000,16.0000,89.0000,126.0000,163.0000,121.0000,191.0000,191.0000
191.0000,261.0000,163.0000,261.0000,89.0000,273.0000,126.0000,310.0000,163.0000,200.0000,200.0000,236.0000,89.0000,236.0000,89.0000,236.0000,191.0000,156.0000,226.0000
156.0000,191.0000,126.0000,191.0000,52.0000,163.0000,89.0000,236.0000,52.0000,89.0000,89.0000,200.0000,52.0000,273.0000,89.0000,236.0000,121.0000,50.0000,121.0000
226.0000,261.0000,126.0000,191.0000,89.0000,200.0000,52.0000,236.0000,89.0000,126.0000,163.0000,273.0000,89.0000,310.0000,89.0000,273.0000,156.0000,121.0000,121.0000
261.0000,297.0000,163.0000,156.0000,126.0000,163.0000,89.0000,200.0000,89.0000,163.0000,163.0000,236.0000,163.0000,236.0000,163.0000,200.0000,85.0000,50.0000,85.0000
191.0000,191.0000,89.0000,50.0000,16.0000,89.0000,89.0000,200.0000,89.0000,126.0000,126.0000,126.0000,126.0000,163.0000,126.0000,89.0000,50.0000,85.0000,50.0000
261.0000,332.0000,126.0000,156.0000,52.0000,163.0000,52.0000,236.0000,126.0000,200.0000,163.0000,163.0000,126.0000,89.0000,126.0000,163.0000,85.0000,156.0000,85.0000
226.0000,332.0000,126.0000,121.0000,52.0000,52.0000,126.0000,163.0000,163.0000,200.0000,89.0000,52.0000,126.0000,-57.0000,163.0000,126.0000,50.0000,15.0000,85.0000
261.0000,367.0000,126.0000,121.0000,89.0000,52.0000,163.0000,200.0000,200.0000,236.0000,163.0000,89.0000,126.0000,16.0000,200.0000,89.0000,156.0000,121.0000,156.0000
367.0000,437.0000,163.0000,156.0000,163.0000,126.0000,236.0000,236.0000,273.0000,273.0000,126.0000,126.0000,126.0000,163.0000,273.0000,89.0000,156.0000,121.0000,226.0000
261.0000,367.0000,89.0000,121.0000,89.0000,163.0000,236.0000,236.0000,273.0000,273.0000,16.0000,200.0000,52.0000,200.0000,273.0000,52.0000,121.0000,191.0000,191.0000
332.0000,508.0000,126.0000,297.0000,126.0000,347.0000,200.0000,347.0000,236.0000,310.0000,163.0000,347.0000,52.0000,310.0000,200.0000,163.0000,191.0000,332.0000,226.0000
367.0000,543.0000,163.0000,332.0000,163.0000,347.0000,236.0000,310.0000,200.0000,273.0000,126.0000,384.0000,126.0000,236.0000,200.0000,200.0000,226.0000,297.0000,226.0000
473.0000,543.0000,200.0000,332.0000,200.0000,310.0000,273.0000,310.0000,163.0000,273.0000,200.0000,420.0000,126.0000,200.0000,89.0000,200.0000,261.0000,367.0000,297.0000
578.0000,613.0000,310.0000,402.0000,310.0000,384.0000,310.0000,310.0000,163.0000,273.0000,273.0000,420.0000,236.0000,200.0000,126.0000,310.0000,332.0000,332.0000,332.0000
508.0000,508.0000,273.0000,367.0000,273.0000,310.0000,347.0000,273.0000,163.0000,236.0000,273.0000,347.0000,273.0000,273.0000,200.0000,273.0000,367.0000,332.0000,332.0000
578.0000,613.0000,347.0000,473.0000,347.0000,457.0000,347.0000,457.0000,163.0000,384.0000,384.0000,457.0000,273.0000,457.0000,200.0000,200.0000,437.0000,508.0000,402.0000
508.0000,578.0000,347.0000,473.0000,310.0000,494.0000,347.0000,457.0000,163.0000,384.0000,273.0000,420.0000,273.0000,420.0000,273.0000,200.0000,367.0000,402.0000,332.0000
367.0000,402.0000,236.0000,367.0000,273.0000,384.0000,310.0000,420.0000,89.0000,310.0000,236.0000,384.0000,236.0000,310.0000,200.0000,347.0000,332.0000,402.0000,297.0000
402.0000,402.0000,236.0000,367.0000,310.0000,347.0000,236.0000,384.0000,89.0000,200.0000,273.0000,310.0000,236.0000,273.0000,200.0000,420.0000,261.0000,297.0000,261.0000
226.0000,261.0000,126.0000,121.0000,163.0000,126.0000,200.0000,200.0000,52.0000,89.0000,126.0000,126.0000,200.0000,163.0000,200.0000,200.0000,121.0000,85.0000,85.0000
191.0000,191.0000,89.0000,85.0000,126.0000,89.0000,89.0000,163.0000,16.0000,89.0000,163.0000,126.0000,163.0000,200.0000,163.0000,52.0000,121.0000,156.0000,85.0000
191.0000,156.0000,89.0000,121.0000,89.0000,126.0000,89.0000,163.0000,89.0000,89.0000,89.0000,126.0000,126.0000,200.0000,236.0000,200.0000,85.0000,121.0000,50.0000
85.0000,50.0000,52.0000,85.0000,16.0000,89.0000,126.0000,163.0000,89.0000,126.0000,52.0000,126.0000,52.0000,163.0000,236.0000,384.0000,85.0000,156.0000,85.0000
156.0000,85.0000,126.0000,121.0000,126.0000,163.0000,126.0000,200.0000,126.0000,126.0000,163.0000,126.0000,89.0000,200.0000,236.0000,384.0000,121.0000,121.0000,121.0000
50.0000,-55.0000,89.0000,-19.0000,89.0000,52.0000,163.0000,89.0000,52.0000,52.0000,89.0000,16.0000,126.0000,126.0000,200.0000,163.0000,50.0000,-19.0000,121.0000
85.0000,-90.0000,89.0000,-19.0000,126.0000,52.0000,126.0000,89.0000,16.0000,16.0000,126.0000,89.0000,126.0000,236.0000,89.0000,163.0000,85.0000,50.0000,156.0000
121.0000,-55.0000,52.0000,-19.0000,89.0000,89.0000,89.0000,52.0000,-20.0000,-20.0000,52.0000,52.0000,126.0000,236.0000,89.0000,126.0000,15.0000,-19.0000,50.0000
-55.0000,-125.0000,-57.0000,-90.0000,-20.0000,52.0000,16.0000,-20.0000,-57.0000,-57.0000,-20.0000,16.0000,89.0000,89.0000,16.0000,16.0000,-55.0000,15.0000,-55.0000
-19.0000,-55.0000,-20.0000,50.0000,52.0000,163.0000,-57.0000,52.0000,-20.0000,16.0000,89.0000,89.0000,126.0000,52.0000,16.0000,126.0000,-19.0000,156.0000,-19.0000
-55.0000,-90.0000,16.0000,15.0000,52.0000,126.0000,16.0000,-20.0000,-20.0000,-94.0000,52.0000,16.0000,163.0000,16.0000,52.0000,163.0000,-19.0000,85.0000,-55.0000
-19.0000,-90.0000,52.0000,50.0000,89.0000,163.0000,-20.0000,16.0000,-57.0000,-94.0000,126.0000,126.0000,163.0000,163.0000,-20.0000,126.0000,85.0000,226.0000,50.0000
121.0000,50.0000,200.0000,156.0000,236.0000,273.0000,52.0000,126.0000,-20.0000,-57.0000,200.0000,163.0000,236.0000,236.0000,52.0000,89.0000,121.0000,261.0000,85.0000
85.0000,15.0000,163.0000,85.0000,236.0000,236.0000,163.0000,89.0000,52.0000,-57.0000,163.0000,163.0000,236.0000,163.0000,89.0000,16.0000,121.0000,191.0000,121.0000
156.0000,50.0000,200.0000,121.0000,236.0000,236.0000,126.0000,126.0000,163.0000,16.0000,200.0000,200.0000,200.0000,200.0000,52.0000,89.0000,156.0000,226.0000,191.0000
85.0000,-19.0000,163.0000,85.0000,236.0000,200.0000,200.0000,89.0000,163.0000,89.0000,126.0000,89.0000,200.0000,126.0000,52.0000,126.0000,85.0000,156.0000,121.0000
15.0000,-90.0000,126.0000,50.0000,200.0000,163.0000,200.0000,126.0000,200.0000,200.0000,200.0000,52.0000,236.0000,163.0000,52.0000,126.0000,85.0000,191.0000,156.0000
50.0000,-90.0000,200.0000,85.0000,273.0000,200.0000,163.0000,200.0000,273.0000,236.0000,273.0000,16.0000,273.0000,89.0000,126.0000,200.0000,50.0000,156.0000,156.0000
-160.0000,-195.0000,89.0000,-55.0000,163.0000,89.0000,163.0000,126.0000,236.0000,273.0000,126.0000,-57.0000,200.0000,52.0000,126.0000,236.0000,-19.0000,50.0000,121.0000
-125.0000,-55.0000,16.0000,85.0000,126.0000,163.0000,126.0000,236.0000,236.0000,384.0000,163.0000,89.0000,126.0000,236.0000,126.0000,200.0000,-19.0000,226.0000,121.0000
-55.0000,85.0000,16.0000,191.0000,126.0000,236.0000,163.0000,310.0000,236.0000,494.0000,52.0000,200.0000,89.0000,273.0000,200.0000,310.0000,-19.0000,261.0000,50.0000
-90.0000,261.0000,-20.0000,297.0000,52.0000,347.0000,89.0000,420.0000,200.0000,641.0000,16.0000,310.0000,52.0000,384.0000,163.0000,531.0000,15.0000,437.0000,15.0000
50.0000,437.0000,52.0000,543.0000,89.0000,531.0000,52.0000,604.0000,236.0000,788.0000,89.0000,457.0000,52.0000,494.0000,200.0000,715.0000,50.0000,508.0000,50.0000
-90.0000,367.0000,-20.0000,437.0000,16.0000,457.0000,89.0000,494.0000,200.0000,715.0000,-20.0000,347.0000,16.0000,347.0000,236.0000,604.0000,-19.0000,367.0000,-55.0000
-55.0000,367.0000,-20.0000,437.0000,16.0000,420.0000,89.0000,494.0000,200.0000,715.0000,52.0000,347.0000,16.0000,347.0000,200.0000,531.0000,50.0000,402.0000,-19.0000
50.0000,402.0000,52.0000,473.0000,52.0000,420.0000,89.0000,494.0000,236.0000,715.0000,89.0000,420.0000,52.0000,457.0000,273.0000,568.0000,85.0000,437.0000,15.0000
-19.0000,473.0000,52.0000,543.0000,52.0000,531.0000,89.0000,641.0000,163.0000,825.0000,89.0000,568.0000,52.0000,604.0000,200.0000,678.0000,121.0000,684.0000,50.0000
50.0000,754.0000,126.0000,860.0000,126.0000,825.0000,52.0000,862.0000,126.0000,972.0000,163.0000,825.0000,89.0000,825.0000,126.0000,825.0000,191.0000,895.0000,50.0000
-19.0000,825.0000,89.0000,825.0000,89.0000,825.0000,89.0000,825.0000,126.0000,1009.0000,16.0000,752.0000,52.0000,788.0000,126.0000,788.0000,85.0000,754.0000,-90.0000
-55.0000,789.0000,16.0000,825.0000,52.0000,788.0000,16.0000,788.0000,89.0000,1009.0000,52.0000,788.0000,52.0000,788.0000,89.0000,825.0000,121.0000,825.0000,-55.0000
-55.0000,825.0000,52.0000,895.0000,126.0000,862.0000,16.0000,862.0000,126.0000,972.0000,89.0000,862.0000,89.0000,899.0000,52.0000,936.0000,156.0000,825.0000,-19.0000
-90.0000,825.0000,52.0000,930.0000,89.0000,862.0000,52.0000,862.0000,126.0000,899.0000,52.0000,936.0000,89.0000,899.0000,52.0000,936.0000,191.0000,895.0000,50.0000
85.0000,965.0000,200.0000,1071.0000,236.0000,1009.0000,89.0000,972.0000,163.0000,899.0000,273.0000,972.0000,236.0000,972.0000,126.0000,936.0000,297.0000,1001.0000,156.0000
121.0000,930.0000,236.0000,1001.0000,236.0000,936.0000,163.0000,899.0000,200.0000,825.0000,273.0000,862.0000,347.0000,825.0000,200.0000,825.0000,261.0000,860.0000,156.0000
121.0000,860.0000,236.0000,895.0000,236.0000,862.0000,126.0000,825.0000,200.0000,752.0000,310.0000,862.0000,310.0000,862.0000,89.0000,715.0000,297.0000,860.0000,156.0000
226.0000,930.0000,310.0000,930.0000,310.0000,825.0000,126.0000,788.0000,200.0000,715.0000,347.0000,899.0000,310.0000,899.0000,52.0000,715.0000,261.0000,789.0000,156.0000
85.0000,754.0000,236.0000,754.0000,273.0000,678.0000,200.0000,641.0000,236.0000,641.0000,273.0000,788.0000,347.0000,715.0000,126.0000,641.0000,226.0000,649.0000,85.0000
121.0000,789.0000,236.0000,754.0000,347.0000,678.0000,163.0000,604.0000,273.0000,568.0000,384.0000,752.0000,384.0000,678.0000,126.0000,641.0000,226.0000,649.0000,121.0000
156.0000,684.0000,236.0000,649.0000,310.0000,568.0000,126.0000,494.0000,200.0000,420.0000,273.0000,604.0000,384.0000,531.0000,163.0000,568.0000,191.0000,473.0000,50.0000
156.0000,578.0000,163.0000,578.0000,200.0000,457.0000,52.0000,420.0000,126.0000,384.0000,273.0000,568.0000,310.0000,494.0000,89.0000,494.0000,226.0000,508.0000,50.0000
297.0000,649.0000,273.0000,684.0000,273.0000,568.0000,52.0000,494.0000,126.0000,457.0000,384.0000,604.0000,384.0000,604.0000,126.0000,494.0000,297.0000,543.0000,156.0000
261.0000,578.0000,310.0000,578.0000,236.0000,531.0000,126.0000,457.0000,126.0000,384.0000,347.0000,531.0000,347.0000,531.0000,163.0000,384.0000,332.0000,437.0000,156.0000
297.0000,508.0000,310.0000,543.0000,200.0000,531.0000,16.0000,494.0000,52.0000,310.0000,310.0000,494.0000,236.0000,457.0000,52.0000,347.0000,297.0000,437.0000,191.0000
226.0000,402.0000,236.0000,402.0000,163.0000,384.0000,-20.0000,384.0000,16.0000,236.0000,163.0000,347.0000,163.0000,310.0000,52.0000,236.0000,191.0000,226.0000,121.0000
121.0000,297.0000,89.0000,226.0000,52.0000,163.0000,-57.0000,236.0000,-20.0000,163.0000,126.0000,236.0000,126.0000,236.0000,16.0000,126.0000,156.0000,156.0000,85.0000
191.0000,332.0000,126.0000,226.0000,89.0000,200.0000,-131.0000,273.0000,16.0000,126.0000,200.0000,236.0000,126.0000,273.0000,52.0000,273.0000,156.0000,121.0000,121.0000
85.0000,156.0000,52.0000,85.0000,-57.0000,89.0000,-167.0000,126.0000,16.0000,52.0000,-20.0000,126.0000,16.0000,163.0000,52.0000,310.0000,85.0000,-19.0000,-19.0000
121.0000,156.0000,16.0000,85.0000,-131.0000,52.0000,-278.0000,89.0000,-20.0000,16.0000,-57.0000,126.0000,-94.0000,236.0000,-57.0000,126.0000,121.0000,15.0000,-19.0000
226.0000,85.0000,52.0000,50.0000,-94.0000,16.0000,-278.0000,16.0000,-20.0000,16.0000,-20.0000,16.0000,-20.0000,163.0000,16.0000,16.0000,85.0000,-90.0000,-55.0000
15.0000,-125.0000,-20.0000,-160.0000,-167.0000,-167.0000,-278.0000,-94.0000,-94.0000,-94.0000,-57.0000,-167.0000,-20.0000,-94.0000,-20.0000,-20.0000,-19.0000,-160.0000,-90.0000
85.0000,-90.0000,16.0000,-160.0000,-94.0000,-131.0000,-278.0000,-57.0000,-57.0000,-20.0000,16.0000,-131.0000,16.0000,-131.0000,-57.0000,52.0000,15.0000,-125.0000,-19.0000
50.0000,-160.0000,16.0000,-195.0000,-94.0000,-204.0000,-167.0000,-131.0000,16.0000,-20.0000,-94.0000,-131.0000,-20.0000,-167.0000,-20.0000,-20.0000,15.0000,-195.0000,15.0000
50.0000,-125.0000,52.0000,-160.0000,-57.0000,-131.0000,-167.0000,-57.0000,-20.0000,-94.0000,16.0000,-57.0000,16.0000,16.0000,-94.0000,-57.0000,85.0000,-90.0000,85.0000
121.0000,-19.0000,163.0000,-55.0000,52.0000,-20.0000,-131.0000,16.0000,-94.0000,-94.0000,126.0000,16.0000,89.0000,163.0000,-94.0000,52.0000,156.0000,-90.0000,85.0000
-19.0000,-19.0000,126.0000,-55.0000,16.0000,-20.0000,-57.0000,-20.0000,-131.0000,-131.0000,52.0000,16.0000,89.0000,163.0000,-57.0000,16.0000,156.0000,-90.0000,85.0000
85.0000,85.0000,163.0000,85.0000,52.0000,52.0000,16.0000,16.0000,-20.0000,-94.0000,126.0000,89.0000,89.0000,89.0000,16.0000,-94.0000,226.0000,15.0000,156.0000
156.0000,15.0000,163.0000,15.0000,89.0000,16.0000,126.0000,-57.0000,16.0000,-131.0000,89.0000,-20.0000,163.0000,-94.0000,126.0000,-57.0000,191.0000,-90.0000,156.0000
121.0000,-55.0000,163.0000,-90.0000,89.0000,-57.0000,126.0000,-57.0000,16.0000,-131.0000,126.0000,-57.0000,163.0000,-57.0000,126.0000,126.0000,226.0000,-55.0000,226.0000
226.0000,-19.0000,273.0000,-19.0000,163.0000,16.0000,89.0000,16.0000,89.0000,-131.0000,200.0000,-57.0000,200.0000,52.0000,163.0000,200.0000,261.0000,-19.0000,261.0000
85.0000,-90.0000,200.0000,-125.0000,89.0000,-57.0000,163.0000,-57.0000,126.0000,-167.0000,89.0000,-167.0000,163.0000,16.0000,200.0000,16.0000,191.0000,-55.0000,156.0000
85.0000,-19.0000,163.0000,-55.0000,126.0000,-20.0000,126.0000,-57.0000,52.0000,-131.0000,200.0000,-94.0000,200.0000,126.0000,126.0000,-94.0000,121.0000,15.0000,85.0000
85.0000,-19.0000,163.0000,-90.0000,126.0000,-20.0000,89.0000,-94.0000,-20.0000,-131.0000,200.0000,-131.0000,236.0000,16.0000,163.0000,-167.0000,15.0000,-125.0000,-19.0000
15.0000,-125.0000,52.0000,-195.0000,16.0000,-131.0000,16.0000,-167.0000,-94.0000,-167.0000,52.0000,-204.0000,126.0000,-167.0000,89.0000,-241.0000,15.0000,-160.0000,-19.0000
156.0000,-90.0000,89.0000,-160.0000,52.0000,-131.0000,-20.0000,-94.0000,-57.0000,-167.0000,89.0000,-204.0000,89.0000,-204.0000,52.0000,-131.0000,50.0000,-160.0000,121.0000
85.0000,-160.0000,89.0000,-231.0000,52.0000,-167.0000,89.0000,-131.0000,16.0000,-204.0000,89.0000,-241.0000,200.0000,-167.0000,89.0000,-20.0000,85.0000,-125.0000,156.0000
121.0000,-55.0000,200.0000,-125.0000,200.0000,-57.0000,200.0000,16.0000,126.0000,-131.0000,310.0000,-94.0000,347.0000,16.0000,163.0000,52.0000,226.0000,85.0000,297.0000
297.0000,15.0000,347.0000,-19.0000,384.0000,16.0000,347.0000,52.0000,236.0000,-57.0000,384.0000,-94.0000,457.0000,52.0000,310.0000,-94.0000,261.0000,15.0000,297.0000
226.0000,-90.0000,273.0000,-125.0000,310.0000,-94.0000,384.0000,-57.0000,200.0000,-94.0000,273.0000,-167.0000,347.0000,-131.0000,273.0000,-278.0000,191.0000,-19.0000,226.0000
297.0000,-90.0000,273.0000,-55.0000,310.0000,-57.0000,273.0000,-20.0000,126.0000,-94.0000,273.0000,-131.0000,310.0000,-204.0000,236.0000,-204.0000,191.0000,-19.0000,226.0000
156.0000,-125.0000,163.0000,-160.0000,200.0000,-131.0000,273.0000,-131.0000,52.0000,-167.0000,126.0000,-241.0000,236.0000,-278.0000,200.0000,-131.0000,156.0000,-125.0000,191.0000
121.0000,-55.0000,126.0000,-160.0000,163.0000,-94.0000,273.0000,-94.0000,163.0000,-167.0000,126.0000,-167.0000,163.0000,-131.0000,126.0000,-57.0000,226.0000,-19.0000,261.0000
261.0000,85.0000,236.0000,-55.0000,273.0000,-20.0000,384.0000,-20.0000,310.0000,-131.0000,236.0000,-131.0000,273.0000,-57.0000,163.0000,-57.0000,226.0000,15.0000,261.0000
226.0000,15.0000,273.0000,-55.0000,310.0000,-57.0000,420.0000,-57.0000,310.0000,-131.0000,273.0000,-94.0000,384.0000,-57.0000,200.0000,-167.0000,261.0000,50.0000,191.0000
367.0000,85.0000,347.0000,85.0000,384.0000,89.0000,347.0000,16.0000,273.0000,-131.0000,420.0000,52.0000,457.0000,-20.0000,200.0000,-57.0000,297.0000,156.0000,191.0000
332.0000,50.0000,347.0000,50.0000,347.0000,16.0000,310.0000,-94.0000,273.0000,-241.0000,347.0000,52.0000,420.0000,-94.0000,200.0000,-57.0000,261.0000,15.0000,121.0000
226.0000,50.0000,273.0000,15.0000,236.0000,-20.0000,236.0000,-94.0000,236.0000,-167.0000,310.0000,89.0000,310.0000,16.0000,126.0000,-94.0000,226.0000,15.0000,121.0000
297.0000,156.0000,273.0000,85.0000,236.0000,16.0000,200.0000,-20.0000,236.0000,-94.0000,236.0000,163.0000,236.0000,89.0000,126.0000,-94.0000,226.0000,-19.0000,156.0000
191.0000,50.0000,163.0000,-19.0000,126.0000,-94.0000,273.0000,-131.0000,200.0000,-131.0000,89.0000,89.0000,126.0000,-20.0000,126.0000,-94.0000,226.0000,-90.0000,156.0000
332.0000,156.0000,236.0000,85.0000,200.0000,-20.0000,273.0000,-57.0000,200.0000,-57.0000,236.0000,126.0000,163.0000,-20.0000,126.0000,-20.0000,332.0000,50.0000,261.0000
437.0000,191.0000,384.0000,121.0000,310.0000,16.0000,310.0000,16.0000,236.0000,16.0000,273.0000,89.0000,273.0000,-57.0000,200.0000,52.0000,332.0000,15.0000,261.0000
367.0000,156.0000,310.0000,85.0000,310.0000,16.0000,310.0000,52.0000,200.0000,16.0000,347.0000,89.0000,310.0000,16.0000,200.0000,52.0000,297.0000,50.0000,226.0000
402.0000,226.0000,347.0000,156.0000,347.0000,89.0000,236.0000,89.0000,236.0000,16.0000,347.0000,163.0000,347.0000,126.0000,273.0000,89.0000,261.0000,50.0000,191.0000
261.0000,121.0000,200.0000,50.0000,163.0000,-20.0000,236.0000,-20.0000,236.0000,16.0000,126.0000,89.0000,200.0000,16.0000,273.0000,-20.0000,156.0000,-90.0000,85.0000
297.0000,121.0000,163.0000,50.0000,126.0000,-57.0000,163.0000,-94.0000,200.0000,16.0000,126.0000,89.0000,89.0000,-20.0000,163.0000,-204.0000,191.0000,-19.0000,121.0000
402.0000,85.0000,236.0000,15.0000,163.0000,-94.0000,163.0000,-131.0000,126.0000,-20.0000,89.0000,-20.0000,89.0000,-131.0000,163.0000,-315.0000,226.0000,-90.0000,156.0000
332.0000,15.0000,236.0000,-55.0000,200.0000,-131.0000,200.0000,-131.0000,89.0000,-20.0000,89.0000,-20.0000,126.0000,-167.0000,200.0000,-131.0000,297.0000,15.0000,226.0000
437.0000,121.0000,310.0000,121.0000,347.0000,89.0000,236.0000,16.0000,163.0000,52.0000,273.0000,89.0000,236.0000,-94.0000,236.0000,163.0000,367.0000,156.0000,297.0000
332.0000,85.0000,310.0000,50.0000,310.0000,52.0000,347.0000,-20.0000,163.0000,16.0000,236.0000,52.0000,273.0000,-94.0000,273.0000,16.0000,332.0000,15.0000,261.0000
297.0000,85.0000,273.0000,50.0000,236.0000,52.0000,273.0000,16.0000,89.0000,-57.0000,236.0000,52.0000,236.0000,16.0000,200.0000,-131.0000,332.0000,85.0000,297.0000
332.0000,50.0000,273.0000,85.0000,200.0000,89.0000,126.0000,16.0000,16.0000,-94.0000,163.0000,52.0000,126.0000,16.0000,163.0000,-94.0000,297.0000,15.0000,226.0000
156.0000,-90.0000,126.0000,-19.0000,16.0000,-20.0000,52.0000,-94.0000,-20.0000,-94.0000,-20.0000,-20.0000,-20.0000,-57.0000,89.0000,-167.0000,226.0000,-55.0000,156.0000
191.0000,-19.0000,126.0000,50.0000,52.0000,16.0000,52.0000,-57.0000,52.0000,-57.0000,89.0000,16.0000,-20.0000,-20.0000,52.0000,-131.0000,261.0000,15.0000,261.0000
121.0000,-90.0000,163.0000,15.0000,163.0000,-20.0000,236.0000,-57.0000,126.0000,-20.0000,89.0000,-20.0000,163.0000,-94.0000,200.0000,-57.0000,261.0000,-19.0000,261.0000
85.0000,-90.0000,200.0000,15.0000,273.0000,16.0000,310.0000,52.0000,163.0000,52.0000,273.0000,-20.0000,310.0000,-20.0000,273.0000,16.0000,297.0000,85.0000,402.0000
156.0000,-55.0000,273.0000,15.0000,384.0000,89.0000,384.0000,126.0000,273.0000,89.0000,347.0000,16.0000,384.0000,52.0000,347.0000,52.0000,261.0000,15.0000,402.0000
50.0000,-160.0000,163.0000,-125.0000,200.0000,-20.0000,384.0000,-20.0000,273.0000,-20.0000,163.0000,-57.0000,236.0000,16.0000,273.0000,-57.0000,191.0000,-90.0000,261.0000
156.0000,-90.0000,126.0000,-19.0000,126.0000,16.0000,236.0000,-57.0000,200.0000,-94.0000,126.0000,-20.0000,89.0000,16.0000,163.0000,-131.0000,191.0000,15.0000,191.0000
156.0000,-55.0000,89.0000,-19.0000,16.0000,-57.0000,126.0000,-167.0000,126.0000,-204.0000,-57.0000,-131.0000,-94.0000,-167.0000,126.0000,-204.0000,121.0000,-125.0000,50.0000
-19.0000,-160.0000,-20.0000,-90.0000,-57.0000,-131.0000,52.0000,-241.0000,89.0000,-167.0000,-131.0000,-94.0000,-167.0000,-167.0000,52.0000,-167.0000,85.0000,-55.0000,50.0000
15.0000,-19.0000,52.0000,15.0000,89.0000,-57.0000,89.0000,-131.0000,89.0000,-20.0000,16.0000,16.0000,-20.0000,-57.0000,52.0000,-20.0000,121.0000,15.0000,85.0000
50.0000,-19.0000,89.0000,-55.0000,126.0000,-94.0000,236.0000,-131.0000,89.0000,-20.0000,89.0000,-20.0000,163.0000,-57.0000,126.0000,16.0000,156.0000,-19.0000,156.0000
156.0000,121.0000,163.0000,15.0000,236.0000,-20.0000,236.0000,16.0000,126.0000,52.0000,310.0000,52.0000,273.0000,16.0000,126.0000,16.0000,191.0000,121.0000,226.0000
156.0000,121.0000,200.0000,50.0000,236.0000,16.0000,236.0000,16.0000,89.0000,52.0000,236.0000,16.0000,236.0000,-57.0000,126.0000,-57.0000,85.0000,15.0000,121.0000
50.0000,-19.0000,52.0000,-19.0000,89.0000,-57.0000,163.0000,-57.0000,16.0000,-20.0000,126.0000,16.0000,126.0000,-94.0000,52.0000,-94.0000,85.0000,50.0000,85.0000
156.0000,85.0000,126.0000,50.0000,126.0000,52.0000,89.0000,-20.0000,52.0000,16.0000,126.0000,89.0000,89.0000,-20.0000,52.0000,89.0000,121.0000,85.0000,85.0000
15.0000,121.0000,52.0000,50.0000,52.0000,89.0000,126.0000,-20.0000,89.0000,89.0000,-20.0000,126.0000,16.0000,16.0000,126.0000,200.0000,85.0000,226.0000,15.0000
-19.0000,367.0000,89.0000,297.0000,89.0000,384.0000,126.0000,310.0000,126.0000,347.0000,52.0000,420.0000,52.0000,384.0000,126.0000,384.0000,121.0000,613.0000,121.0000
85.0000,508.0000,163.0000,508.0000,200.0000,641.0000,236.0000,494.0000,200.0000,531.0000,163.0000,531.0000,200.0000,531.0000,273.0000,531.0000,85.0000,684.0000,85.0000
15.0000,437.0000,126.0000,437.0000,200.0000,531.0000,310.0000,457.0000,163.0000,531.0000,200.0000,494.0000,236.0000,457.0000,310.0000,494.0000,50.0000,613.0000,50.0000
191.0000,437.0000,200.0000,473.0000,273.0000,568.0000,347.0000,494.0000,236.0000,531.0000,310.0000,494.0000,273.0000,494.0000,310.0000,494.0000,85.0000,613.0000,191.0000
156.0000,332.0000,200.0000,332.0000,236.0000,457.0000,457.0000,384.0000,384.0000,420.0000,163.0000,347.0000,200.0000,347.0000,384.0000,384.0000,85.0000,473.0000,226.0000
121.0000,367.0000,126.0000,367.0000,200.0000,457.0000,457.0000,420.0000,384.0000,384.0000,126.0000,457.0000,52.0000,384.0000,273.0000,347.0000,156.0000,578.0000,297.0000
191.0000,543.0000,163.0000,508.0000,200.0000,568.0000,420.0000,494.0000,347.0000,347.0000,89.0000,531.0000,52.0000,420.0000,236.0000,384.0000,156.0000,578.0000,297.0000
85.0000,402.0000,89.0000,402.0000,126.0000,494.0000,384.0000,384.0000,236.0000,310.0000,16.0000,457.0000,16.0000,347.0000,163.0000,347.0000,156.0000,473.0000,297.0000
156.0000,367.0000,126.0000,437.0000,236.0000,531.0000,347.0000,494.0000,273.0000,384.0000,163.0000,531.0000,126.0000,531.0000,126.0000,457.0000,191.0000,508.0000,367.0000
121.0000,332.0000,163.0000,402.0000,310.0000,457.0000,420.0000,457.0000,310.0000,420.0000,126.0000,494.0000,236.0000,494.0000,200.0000,457.0000,156.0000,402.0000,332.0000
85.0000,297.0000,163.0000,367.0000,273.0000,420.0000,384.0000,384.0000,236.0000,384.0000,200.0000,494.0000,273.0000,457.0000,200.0000,347.0000,191.0000,402.0000,297.0000
191.0000,297.0000,236.0000,367.0000,273.0000,420.0000,310.0000,347.0000,273.0000,347.0000,273.0000,420.0000,273.0000,310.0000,236.0000,310.0000,191.0000,297.0000,226.0000
50.0000,156.0000,163.0000,226.0000,126.0000,236.0000,310.0000,163.0000,273.0000,273.0000,126.0000,236.0000,163.0000,89.0000,236.0000,126.0000,121.0000,191.0000,156.0000
85.0000,191.0000,163.0000,226.0000,126.0000,273.0000,273.0000,200.0000,347.0000,273.0000,200.0000,273.0000,126.0000,200.0000,200.0000,89.0000,156.0000,297.0000,261.0000
85.0000,191.0000,200.0000,226.0000,200.0000,310.0000,347.0000,236.0000,347.0000,273.0000,163.0000,236.0000,200.0000,273.0000,310.0000,126.0000,85.0000,261.0000,226.0000
15.0000,50.0000,126.0000,121.0000,163.0000,236.0000,347.0000,236.0000,273.0000,310.0000,126.0000,200.0000,236.0000,273.0000,347.0000,236.0000,50.0000,261.0000,226.0000
156.0000,50.0000,126.0000,121.0000,200.0000,236.0000,273.0000,310.0000,273.0000,347.0000,163.0000,200.0000,273.0000,236.0000,384.0000,384.0000,-19.0000,191.0000,191.0000
50.0000,-90.0000,16.0000,-55.0000,52.0000,52.0000,236.0000,163.0000,236.0000,310.0000,16.0000,52.0000,163.0000,52.0000,347.0000,236.0000,-125.0000,-19.0000,85.0000
15.0000,-90.0000,-57.0000,-90.0000,-20.0000,-57.0000,126.0000,89.0000,126.0000,273.0000,16.0000,16.0000,52.0000,16.0000,236.0000,52.0000,-160.0000,-55.0000,85.0000
15.0000,-90.0000,-57.0000,-160.0000,-57.0000,-94.0000,126.0000,16.0000,163.0000,200.0000,-20.0000,-20.0000,16.0000,-57.0000,236.0000,-57.0000,-125.0000,-125.0000,85.0000
-55.0000,-125.0000,-57.0000,-160.0000,-94.0000,-94.0000,163.0000,16.0000,126.0000,163.0000,-20.0000,-20.0000,-57.0000,-20.0000,89.0000,-94.0000,-55.0000,15.0000,121.0000
156.0000,50.0000,126.0000,50.0000,89.0000,163.0000,89.0000,200.0000,126.0000,163.0000,163.0000,89.0000,16.0000,163.0000,16.0000,89.0000,85.0000,156.0000,191.0000
226.0000,50.0000,200.0000,15.0000,163.0000,163.0000,163.0000,163.0000,126.0000,89.0000,163.0000,52.0000,126.0000,126.0000,126.0000,200.0000,121.0000,85.0000,121.0000
261.0000,15.0000,236.0000,15.0000,236.0000,163.0000,200.0000,163.0000,126.0000,52.0000,273.0000,163.0000,200.0000,163.0000,163.0000,200.0000,156.0000,121.0000,156.0000
332.0000,15.0000,273.0000,50.0000,273.0000,163.0000,236.0000,126.0000,163.0000,52.0000,273.0000,163.0000,273.0000,89.0000,273.0000,163.0000,121.0000,15.0000,85.0000
191.0000,-55.0000,163.0000,-90.0000,89.0000,-20.0000,200.0000,-57.0000,126.0000,-20.0000,126.0000,16.0000,126.0000,-20.0000,236.0000,-20.0000,50.0000,-55.0000,15.0000
226.0000,-19.0000,163.0000,15.0000,89.0000,16.0000,126.0000,16.0000,126.0000,-20.0000,163.0000,52.0000,89.0000,52.0000,200.0000,-94.0000,85.0000,15.0000,85.0000
191.0000,-19.0000,200.0000,15.0000,89.0000,16.0000,200.0000,-20.0000,163.0000,-20.0000,126.0000,16.0000,126.0000,-57.0000,236.0000,-94.0000,85.0000,-55.0000,50.0000
121.0000,15.0000,163.0000,15.0000,89.0000,16.0000,236.0000,16.0000,163.0000,-20.0000,200.0000,52.0000,126.0000,-20.0000,163.0000,16.0000,121.0000,15.0000,156.0000
261.0000,156.0000,236.0000,85.0000,200.0000,89.0000,236.0000,52.0000,163.0000,-20.0000,273.0000,52.0000,236.0000,52.0000,200.0000,89.0000,156.0000,15.0000,156.0000
191.0000,50.0000,200.0000,-55.0000,163.0000,-20.0000,273.0000,-57.0000,89.0000,-94.0000,200.0000,-20.0000,236.0000,-20.0000,200.0000,-20.0000,121.0000,-55.0000,50.0000
332.0000,15.0000,236.0000,-19.0000,200.0000,16.0000,200.0000,-57.0000,89.0000,-57.0000,310.0000,-20.0000,310.0000,-20.0000,200.0000,52.0000,156.0000,-55.0000,85.0000
297.0000,-90.0000,200.0000,-125.0000,163.0000,-94.0000,163.0000,-131.0000,52.0000,-94.0000,236.0000,-167.0000,310.0000,-167.0000,236.0000,16.0000,50.0000,-231.0000,-19.0000
121.0000,-195.0000,89.0000,-266.0000,52.0000,-241.0000,89.0000,-241.0000,-20.0000,-131.0000,163.0000,-278.0000,163.0000,-278.0000,126.0000,-94.0000,15.0000,-266.0000,-19.0000
121.0000,-55.0000,89.0000,-160.0000,52.0000,-204.0000,16.0000,-204.0000,16.0000,-131.0000,126.0000,-278.0000,52.0000,-204.0000,52.0000,-167.0000,50.0000,-231.0000,-19.0000
50.0000,-125.0000,16.0000,-231.0000,-20.0000,-241.0000,16.0000,-278.0000,16.0000,-204.0000,52.0000,-351.0000,-20.0000,-315.0000,-20.0000,-204.0000,50.0000,-301.0000,-19.0000
85.0000,-160.0000,52.0000,-195.0000,52.0000,-241.0000,16.0000,-278.0000,16.0000,-241.0000,236.0000,-278.0000,-20.0000,-241.0000,-94.0000,-204.0000,121.0000,-195.0000,50.0000
121.0000,-231.0000,126.0000,-266.0000,163.0000,-241.0000,126.0000,-278.0000,52.0000,-315.0000,310.0000,-351.0000,52.0000,-315.0000,-20.0000,-241.0000,121.0000,-336.0000,85.0000
50.0000,-477.0000,126.0000,-442.0000,163.0000,-388.0000,163.0000,-351.0000,89.0000,-351.0000,384.0000,-425.0000,163.0000,-388.0000,52.0000,-388.0000,85.0000,-407.0000,121.0000
121.0000,-512.0000,200.0000,-512.0000,273.0000,-425.0000,126.0000,-388.0000,126.0000,-425.0000,568.0000,-499.0000,273.0000,-499.0000,126.0000,-425.0000,85.0000,-547.0000,121.0000
15.0000,-723.0000,126.0000,-794.0000,163.0000,-756.0000,163.0000,-756.0000,126.0000,-719.0000,457.0000,-793.0000,236.0000,-830.0000,200.0000,-609.0000,-19.0000,-899.0000,15.0000
-55.0000,-864.0000,16.0000,-970.0000,89.0000,-940.0000,89.0000,-940.0000,89.0000,-903.0000,384.0000,-903.0000,126.0000,-903.0000,126.0000,-830.0000,-19.0000,-935.0000,-19.0000
-19.0000,-899.0000,16.0000,-935.0000,16.0000,-940.0000,16.0000,-977.0000,126.0000,-940.0000,310.0000,-940.0000,52.0000,-977.0000,126.0000,-903.0000,-55.0000,-1005.0000,-55.0000
-90.0000,-1040.0000,-94.0000,-1040.0000,-94.0000,-1051.0000,16.0000,-1087.0000,126.0000,-1014.0000,236.0000,-977.0000,-20.0000,-977.0000,126.0000,-867.0000,-55.0000,-1040.0000,-55.0000
50.0000,-970.0000,-57.0000,-970.0000,-20.0000,-940.0000,52.0000,-1014.0000,126.0000,-940.0000,384.0000,-903.0000,52.0000,-867.0000,126.0000,-756.0000,-19.0000,-1005.0000,-19.0000
15.0000,-1111.0000,-94.0000,-1146.0000,-57.0000,-1087.0000,126.0000,-1161.0000,163.0000,-1051.0000,347.0000,-1087.0000,126.0000,-977.0000,163.0000,-940.0000,-90.0000,-1251.0000,-55.0000
-55.0000,-1322.0000,-131.0000,-1357.0000,-57.0000,-1308.0000,52.0000,-1308.0000,89.0000,-1235.0000,384.0000,-1271.0000,126.0000,-1124.0000,52.0000,-1198.0000,-90.0000,-1357.0000,-55.0000
-19.0000,-1357.0000,-57.0000,-1357.0000,-20.0000,-1345.0000,16.0000,-1419.0000,16.0000,-1455.0000,384.0000,-1345.0000,163.0000,-1271.0000,52.0000,-1308.0000,-90.0000,-1427.0000,-90.0000
-125.0000,-1392.0000,-131.0000,-1463.0000,-94.0000,-1492.0000,-20.0000,-1566.0000,-57.0000,-1566.0000,236.0000,-1455.0000,52.0000,-1492.0000,16.0000,-1345.0000,-125.0000,-1463.0000,-125.0000
-55.0000,-1322.0000,-131.0000,-1427.0000,-94.0000,-1455.0000,-94.0000,-1492.0000,16.0000,-1419.0000,310.0000,-1455.0000,16.0000,-1419.0000,-20.0000,-1198.0000,-125.0000,-1392.0000,-19.0000
-55.0000,-1287.0000,-94.0000,-1427.0000,-57.0000,-1419.0000,16.0000,-1382.0000,126.0000,-1271.0000,200.0000,-1455.0000,16.0000,-1345.0000,52.0000,-1087.0000,-160.0000,-1357.0000,15.0000
-160.0000,-1287.0000,-131.0000,-1392.0000,-20.0000,-1308.0000,52.0000,-1235.0000,126.0000,-1124.0000,236.0000,-1308.0000,89.0000,-1161.0000,89.0000,-1051.0000,-160.0000,-1146.0000,85.0000
-125.0000,-1216.0000,-20.0000,-1251.0000,163.0000,-1087.0000,52.0000,-1051.0000,89.0000,-977.0000,347.0000,-1198.0000,200.0000,-1014.0000,52.0000,-977.0000,-55.0000,-1040.0000,191.0000
-195.0000,-1322.0000,-20.0000,-1251.0000,163.0000,-1014.0000,163.0000,-977.0000,126.0000,-940.0000,236.0000,-1161.0000,200.0000,-977.0000,89.0000,-940.0000,-19.0000,-970.0000,226.0000
15.0000,-1181.0000,52.0000,-1040.0000,200.0000,-793.0000,163.0000,-756.0000,236.0000,-830.0000,236.0000,-940.0000,163.0000,-756.0000,126.0000,-756.0000,85.0000,-723.0000,297.0000
156.0000,-970.0000,89.0000,-899.0000,200.0000,-683.0000,163.0000,-683.0000,273.0000,-756.0000,126.0000,-867.0000,126.0000,-683.0000,200.0000,-646.0000,50.0000,-723.0000,191.0000
15.0000,-899.0000,16.0000,-864.0000,89.0000,-719.0000,89.0000,-683.0000,200.0000,-646.0000,52.0000,-756.0000,16.0000,-609.0000,126.0000,-683.0000,15.0000,-688.0000,156.0000
85.0000,-688.0000,126.0000,-688.0000,163.0000,-609.0000,89.0000,-535.0000,200.0000,-462.0000,89.0000,-609.0000,16.0000,-499.0000,163.0000,-572.0000,85.0000,-618.0000,226.0000
-19.0000,-723.0000,126.0000,-653.0000,126.0000,-609.0000,163.0000,-535.0000,236.0000,-388.0000,52.0000,-609.0000,52.0000,-609.0000,236.0000,-462.0000,85.0000,-653.0000,191.0000
50.0000,-618.0000,163.0000,-547.0000,200.0000,-535.0000,126.0000,-462.0000,163.0000,-315.0000,236.0000,-462.0000,163.0000,-462.0000,163.0000,-499.0000,156.0000,-477.0000,261.0000
226.0000,-547.0000,273.0000,-442.0000,310.0000,-425.0000,200.0000,-388.0000,200.0000,-315.0000,273.0000,-425.0000,310.0000,-351.0000,236.0000,-535.0000,156.0000,-477.0000,261.0000
121.0000,-583.0000,200.0000,-512.0000,236.0000,-462.0000,200.0000,-388.0000,200.0000,-315.0000,126.0000,-462.0000,236.0000,-462.0000,200.0000,-462.0000,121.0000,-407.0000,297.0000
226.0000,-477.0000,200.0000,-336.0000,273.0000,-315.0000,126.0000,-241.0000,163.0000,-204.0000,89.0000,-351.0000,163.0000,-425.0000,89.0000,-315.0000,156.0000,-336.0000,332.0000
156.0000,-512.0000,126.0000,-407.0000,126.0000,-388.0000,89.0000,-315.0000,16.0000,-278.0000,-94.0000,-462.0000,52.0000,-462.0000,52.0000,-425.0000,50.0000,-512.0000,191.0000
85.0000,-547.0000,52.0000,-512.0000,16.0000,-462.0000,-57.0000,-425.0000,-94.0000,-388.0000,-57.0000,-499.0000,16.0000,-425.0000,-57.0000,-499.0000,15.0000,-512.0000,156.0000
121.0000,-547.0000,89.0000,-477.0000,52.0000,-462.0000,-94.0000,-425.0000,-20.0000,-351.0000,-94.0000,-499.0000,16.0000,-462.0000,-20.0000,-462.0000,-19.0000,-547.0000,121.0000
-55.0000,-583.0000,-20.0000,-547.0000,-57.0000,-572.0000,-57.0000,-462.0000,16.0000,-315.0000,-241.0000,-499.0000,-94.0000,-572.0000,-57.0000,-462.0000,-55.0000,-512.0000,50.0000
15.0000,-407.0000,16.0000,-407.0000,-20.0000,-425.0000,-131.0000,-388.0000,16.0000,-241.0000,-131.0000,-351.0000,-94.0000,-388.0000,-94.0000,-351.0000,-19.0000,-371.0000,50.0000
50.0000,-407.0000,16.0000,-371.0000,-20.0000,-425.0000,-131.0000,-388.0000,16.0000,-241.0000,-167.0000,-351.0000,-57.0000,-351.0000,-20.0000,-388.0000,-55.0000,-442.0000,-19.0000
50.0000,-407.0000,52.0000,-371.0000,-20.0000,-388.0000,-94.0000,-351.0000,16.0000,-204.0000,-131.0000,-241.0000,-20.0000,-167.0000,16.0000,-462.0000,15.0000,-266.0000,85.0000
226.0000,-160.0000,163.0000,-160.0000,89.0000,-167.0000,-20.0000,-131.0000,52.0000,-94.0000,-20.0000,-94.0000,16.0000,-57.0000,89.0000,-241.0000,50.0000,-90.0000,121.0000
156.0000,-125.0000,126.0000,-125.0000,16.0000,-131.0000,-20.0000,-131.0000,-57.0000,-94.0000,-57.0000,-57.0000,52.0000,-167.0000,89.0000,16.0000,50.0000,-90.0000,50.0000
226.0000,15.0000,200.0000,15.0000,126.0000,16.0000,-20.0000,-20.0000,16.0000,-20.0000,89.0000,89.0000,126.0000,-20.0000,52.0000,163.0000,156.0000,85.0000,121.0000
226.0000,85.0000,236.0000,156.0000,163.0000,89.0000,126.0000,16.0000,163.0000,52.0000,16.0000,163.0000,163.0000,89.0000,89.0000,126.0000,121.0000,121.0000,85.0000
121.0000,121.0000,163.0000,261.0000,126.0000,163.0000,163.0000,89.0000,163.0000,126.0000,-57.0000,273.0000,89.0000,273.0000,16.0000,126.0000,191.0000,261.0000,121.0000
261.0000,367.0000,236.0000,508.0000,236.0000,384.0000,200.0000,310.0000,200.0000,236.0000,16.0000,457.0000,126.0000,457.0000,-20.0000,236.0000,261.0000,402.0000,226.0000
156.0000,473.0000,236.0000,578.0000,200.0000,457.0000,310.0000,420.0000,236.0000,347.0000,-20.0000,494.0000,163.0000,384.0000,89.0000,347.0000,261.0000,508.0000,261.0000
121.0000,649.0000,200.0000,719.0000,236.0000,641.0000,310.0000,641.0000,310.0000,531.0000,89.0000,715.0000,200.0000,568.0000,126.0000,568.0000,261.0000,719.0000,297.0000
156.0000,719.0000,236.0000,789.0000,236.0000,715.0000,310.0000,715.0000,273.0000,531.0000,52.0000,752.0000,200.0000,678.0000,200.0000,752.0000,226.0000,613.0000,261.0000
85.0000,649.0000,163.0000,719.0000,126.0000,641.0000,200.0000,678.0000,126.0000,531.0000,16.0000,752.0000,126.0000,752.0000,89.0000,715.0000,226.0000,649.0000,156.0000
261.0000,825.0000,236.0000,895.0000,200.0000,752.0000,52.0000,752.0000,89.0000,604.0000,126.0000,788.0000,163.0000,825.0000,89.0000,715.0000,226.0000,754.0000,85.0000
226.0000,860.0000,236.0000,825.0000,163.0000,715.0000,89.0000,678.0000,126.0000,604.0000,52.0000,752.0000,200.0000,752.0000,200.0000,715.0000,191.0000,684.0000,-19.0000
191.0000,895.0000,236.0000,860.0000,200.0000,788.0000,126.0000,752.0000,163.0000,641.0000,163.0000,862.0000,236.0000,825.0000,273.0000,752.0000,226.0000,789.0000,85.0000
156.0000,930.0000,273.0000,895.0000,273.0000,825.0000,200.0000,788.0000,236.0000,788.0000,163.0000,899.0000,273.0000,825.0000,347.0000,825.0000,156.0000,754.0000,85.0000
15.0000,789.0000,126.0000,789.0000,163.0000,715.0000,236.0000,752.0000,236.0000,788.0000,52.0000,825.0000,236.0000,752.0000,384.0000,825.0000,85.0000,684.0000,85.0000
156.0000,825.0000,126.0000,825.0000,163.0000,752.0000,163.0000,788.0000,236.0000,788.0000,163.0000,862.0000,236.0000,862.0000,347.0000,788.0000,85.0000,719.0000,85.0000
191.0000,754.0000,126.0000,754.0000,89.0000,678.0000,163.0000,678.0000,200.0000,715.0000,52.0000,752.0000,236.0000,752.0000,384.0000,641.0000,85.0000,543.0000,15.0000
121.0000,684.0000,126.0000,684.0000,52.0000,641.0000,126.0000,604.0000,236.0000,678.0000,89.0000,678.0000,200.0000,678.0000,347.0000,604.0000,85.0000,613.0000,15.0000
226.0000,719.0000,200.0000,754.0000,163.0000,678.0000,163.0000,678.0000,310.0000,715.0000,163.0000,678.0000,273.0000,678.0000,457.0000,678.0000,85.0000,649.0000,50.0000
191.0000,684.0000,163.0000,649.0000,126.0000,604.0000,200.0000,568.0000,200.0000,641.0000,89.0000,678.0000,236.0000,641.0000,420.0000,678.0000,85.0000,613.0000,15.0000
261.0000,719.0000,163.0000,754.0000,163.0000,715.0000,89.0000,678.0000,52.0000,678.0000,126.0000,825.0000,200.0000,862.0000,163.0000,715.0000,191.0000,684.0000,85.0000
156.0000,684.0000,126.0000,754.0000,89.0000,715.0000,52.0000,678.0000,89.0000,641.0000,-20.0000,752.0000,89.0000,825.0000,52.0000,752.0000,121.0000,543.0000,15.0000
85.0000,649.0000,52.0000,649.0000,16.0000,604.0000,16.0000,604.0000,126.0000,531.0000,-57.0000,641.0000,52.0000,678.0000,89.0000,715.0000,121.0000,543.0000,15.0000
156.0000,684.0000,89.0000,684.0000,89.0000,641.0000,16.0000,604.0000,89.0000,604.0000,16.0000,641.0000,89.0000,604.0000,89.0000,715.0000,85.0000,543.0000,50.0000
50.0000,543.0000,16.0000,543.0000,16.0000,494.0000,52.0000,494.0000,-20.0000,641.0000,-94.0000,531.0000,89.0000,531.0000,126.0000,531.0000,85.0000,473.0000,50.0000
156.0000,578.0000,89.0000,613.0000,89.0000,568.0000,16.0000,641.0000,-20.0000,641.0000,52.0000,641.0000,126.0000,715.0000,200.0000,568.0000,226.0000,613.0000,226.0000
261.0000,684.0000,200.0000,684.0000,163.0000,604.0000,126.0000,678.0000,52.0000,568.0000,52.0000,568.0000,200.0000,604.0000,273.0000,678.0000,226.0000,543.0000,226.0000
156.0000,649.0000,126.0000,578.0000,89.0000,531.0000,126.0000,604.0000,16.0000,604.0000,16.0000,494.0000,163.0000,531.0000,163.0000,604.0000,226.0000,508.0000,226.0000
261.0000,684.0000,163.0000,649.0000,163.0000,568.0000,126.0000,678.0000,-57.0000,752.0000,89.0000,568.0000,200.0000,604.0000,126.0000,604.0000,226.0000,578.0000,297.0000
156.0000,578.0000,126.0000,578.0000,126.0000,531.0000,200.0000,604.0000,-131.0000,788.0000,-20.0000,568.0000,126.0000,531.0000,89.0000,568.0000,191.0000,508.0000,261.0000
191.0000,613.0000,163.0000,649.0000,163.0000,568.0000,200.0000,641.0000,16.0000,825.0000,16.0000,641.0000,89.0000,641.0000,-167.0000,568.0000,297.0000,613.0000,332.0000
297.0000,684.0000,273.0000,684.0000,273.0000,641.0000,310.0000,678.0000,163.0000,788.0000,89.0000,641.0000,163.0000,678.0000,-94.0000,568.0000,261.0000,613.0000,297.0000
156.0000,543.0000,200.0000,543.0000,200.0000,568.0000,310.0000,531.0000,89.0000,715.0000,89.0000,568.0000,200.0000,568.0000,52.0000,420.0000,226.0000,543.0000,191.0000
191.0000,508.0000,236.0000,543.0000,273.0000,568.0000,236.0000,568.0000,126.0000,862.0000,200.0000,531.0000,200.0000,604.0000,126.0000,457.0000,261.0000,508.0000,261.0000
121.0000,402.0000,200.0000,437.0000,200.0000,420.0000,236.0000,494.0000,163.0000,1009.0000,89.0000,420.0000,126.0000,457.0000,126.0000,494.0000,191.0000,367.0000,191.0000
50.0000,402.0000,126.0000,402.0000,126.0000,347.0000,163.0000,494.0000,89.0000,1046.0000,52.0000,420.0000,16.0000,457.0000,89.0000,457.0000,156.0000,402.0000,156.0000
121.0000,437.0000,126.0000,437.0000,126.0000,384.0000,126.0000,494.0000,52.0000,1046.0000,89.0000,384.0000,52.0000,457.0000,200.0000,494.0000,156.0000,332.0000,121.0000
15.0000,261.0000,89.0000,297.0000,52.0000,236.0000,200.0000,347.0000,163.0000,1009.0000,16.0000,273.0000,16.0000,384.0000,310.0000,457.0000,156.0000,226.0000,121.0000
191.0000,261.0000,163.0000,332.0000,163.0000,273.0000,273.0000,384.0000,310.0000,1046.0000,126.0000,273.0000,52.0000,420.0000,420.0000,457.0000,226.0000,297.0000,226.0000
226.0000,191.0000,200.0000,261.0000,163.0000,200.0000,384.0000,310.0000,310.0000,1046.0000,52.0000,126.0000,52.0000,200.0000,494.0000,347.0000,121.0000,191.0000,191.0000
85.0000,85.0000,126.0000,121.0000,89.0000,126.0000,384.0000,236.0000,273.0000,972.0000,52.0000,52.0000,16.0000,89.0000,420.0000,236.0000,85.0000,191.0000,156.0000
191.0000,121.0000,126.0000,156.0000,126.0000,163.0000,310.0000,236.0000,310.0000,862.0000,89.0000,89.0000,16.0000,126.0000,384.0000,200.0000,85.0000,156.0000,85.0000
156.0000,191.0000,52.0000,156.0000,16.0000,89.0000,273.0000,89.0000,273.0000,752.0000,-20.0000,52.0000,16.0000,89.0000,347.0000,126.0000,50.0000,121.0000,-19.0000
226.0000,402.0000,126.0000,367.0000,52.0000,200.0000,163.0000,200.0000,200.0000,752.0000,126.0000,236.0000,89.0000,200.0000,347.0000,200.0000,156.0000,261.0000,50.0000
297.0000,437.0000,163.0000,402.0000,52.0000,273.0000,126.0000,236.0000,200.0000,715.0000,89.0000,273.0000,163.0000,273.0000,347.0000,236.0000,85.0000,156.0000,-19.0000
226.0000,297.0000,89.0000,261.0000,-20.0000,163.0000,16.0000,200.0000,200.0000,641.0000,52.0000,236.0000,52.0000,200.0000,126.0000,163.0000,15.0000,121.0000,-55.0000
332.0000,261.0000,89.0000,261.0000,-20.0000,126.0000,-94.0000,163.0000,163.0000,568.0000,126.0000,200.0000,16.0000,89.0000,16.0000,52.0000,15.0000,85.0000,-55.0000
261.0000,121.0000,89.0000,121.0000,-20.0000,52.0000,-57.0000,16.0000,126.0000,384.0000,52.0000,89.0000,52.0000,-20.0000,52.0000,-131.0000,50.0000,50.0000,-55.0000
332.0000,226.0000,200.0000,226.0000,89.0000,163.0000,-20.0000,89.0000,89.0000,310.0000,163.0000,163.0000,89.0000,163.0000,16.0000,-20.0000,191.0000,261.0000,85.0000
367.0000,261.0000,310.0000,297.0000,200.0000,273.0000,52.0000,200.0000,126.0000,310.0000,163.0000,200.0000,89.0000,200.0000,52.0000,126.0000,191.0000,261.0000,156.0000
226.0000,226.0000,273.0000,226.0000,163.0000,236.0000,163.0000,200.0000,200.0000,384.0000,89.0000,200.0000,52.0000,126.0000,89.0000,52.0000,156.0000,297.0000,156.0000
297.0000,297.0000,310.0000,297.0000,273.0000,273.0000,236.0000,273.0000,273.0000,420.0000,163.0000,273.0000,89.0000,163.0000,126.0000,126.0000,156.0000,297.0000,191.0000
226.0000,226.0000,273.0000,156.0000,236.0000,200.0000,310.0000,163.0000,273.0000,273.0000,89.0000,163.0000,126.0000,89.0000,200.0000,163.0000,85.0000,191.0000,121.0000
297.0000,191.0000,236.0000,191.0000,236.0000,236.0000,310.0000,200.0000,310.0000,236.0000,126.0000,236.0000,126.0000,200.0000,163.0000,89.0000,191.0000,332.0000,261.0000
437.0000,226.0000,310.0000,261.0000,310.0000,310.0000,420.0000,236.0000,494.0000,236.0000,163.0000,200.0000,126.0000,163.0000,200.0000,126.0000,191.0000,297.0000,297.0000
261.0000,121.0000,236.0000,156.0000,236.0000,200.0000,457.0000,163.0000,457.0000,163.0000,52.0000,89.0000,89.0000,16.0000,126.0000,89.0000,121.0000,297.0000,261.0000
226.0000,191.0000,273.0000,226.0000,310.0000,310.0000,420.0000,273.0000,384.0000,89.0000,236.0000,200.0000,163.0000,163.0000,89.0000,126.0000,191.0000,402.0000,332.0000
191.0000,121.0000,310.0000,156.0000,384.0000,310.0000,494.0000,236.0000,384.0000,-57.0000,236.0000,163.0000,273.0000,200.0000,163.0000,16.0000,226.0000,261.0000,332.0000
191.0000,-19.0000,310.0000,85.0000,384.0000,200.0000,494.0000,126.0000,420.0000,-131.0000,273.0000,163.0000,310.0000,126.0000,163.0000,-20.0000,261.0000,226.0000,367.0000
297.0000,15.0000,347.0000,85.0000,420.0000,163.0000,457.0000,89.0000,457.0000,-167.0000,347.0000,89.0000,347.0000,52.0000,200.0000,52.0000,226.0000,121.0000,332.0000
156.0000,-90.0000,273.0000,-55.0000,384.0000,16.0000,494.0000,-20.0000,420.0000,-167.0000,236.0000,16.0000,347.0000,-57.0000,273.0000,89.0000,226.0000,50.0000,297.0000
191.0000,15.0000,347.0000,50.0000,457.0000,89.0000,420.0000,89.0000,384.0000,-94.0000,420.0000,126.0000,420.0000,52.0000,310.0000,200.0000,261.0000,156.0000,402.0000
226.0000,15.0000,384.0000,50.0000,457.0000,52.0000,420.0000,89.0000,420.0000,-94.0000,347.0000,89.0000,384.0000,16.0000,347.0000,89.0000,226.0000,-19.0000,297.0000
156.0000,-55.0000,273.0000,-55.0000,273.0000,-94.0000,273.0000,-20.0000,384.0000,-131.0000,273.0000,52.0000,273.0000,-20.0000,200.0000,-94.0000,191.0000,-90.0000,226.0000
226.0000,-19.0000,273.0000,-19.0000,236.0000,-57.0000,89.0000,-20.0000,310.0000,-167.0000,236.0000,16.0000,200.0000,-57.0000,126.0000,-94.0000,191.0000,-125.0000,121.0000
85.0000,-125.0000,163.0000,-125.0000,89.0000,-167.0000,52.0000,-131.0000,236.0000,-204.0000,52.0000,-131.0000,163.0000,-167.0000,163.0000,-20.0000,121.0000,-231.0000,50.0000
50.0000,-90.0000,89.0000,-55.0000,89.0000,-94.0000,16.0000,-57.0000,200.0000,-131.0000,126.0000,-57.0000,126.0000,-57.0000,200.0000,126.0000,156.0000,-90.0000,121.0000
50.0000,-55.0000,52.0000,-19.0000,89.0000,-57.0000,89.0000,-57.0000,163.0000,-131.0000,52.0000,16.0000,89.0000,-20.0000,273.0000,126.0000,50.0000,-160.0000,50.0000
-55.0000,-90.0000,-20.0000,-55.0000,-20.0000,-94.0000,52.0000,-57.0000,89.0000,-94.0000,16.0000,52.0000,52.0000,52.0000,273.0000,52.0000,50.0000,-90.0000,-19.0000
85.0000,50.0000,52.0000,50.0000,52.0000,52.0000,16.0000,89.0000,126.0000,-20.0000,163.0000,126.0000,89.0000,163.0000,273.0000,52.0000,85.0000,-19.0000,15.0000
15.0000,15.0000,52.0000,-19.0000,16.0000,-57.0000,89.0000,-20.0000,126.0000,-131.0000,52.0000,16.0000,89.0000,52.0000,347.0000,-57.0000,50.0000,-195.0000,-19.0000
15.0000,-55.0000,16.0000,-55.0000,-20.0000,-94.0000,52.0000,-57.0000,89.0000,-204.0000,52.0000,89.0000,16.0000,52.0000,273.0000,-20.0000,121.0000,-160.0000,50.0000
121.0000,-19.0000,16.0000,15.0000,16.0000,16.0000,89.0000,-20.0000,89.0000,-241.0000,16.0000,126.0000,52.0000,126.0000,273.0000,200.0000,121.0000,-125.0000,50.0000
85.0000,15.0000,-20.0000,15.0000,-20.0000,52.0000,89.0000,16.0000,52.0000,-278.0000,16.0000,163.0000,89.0000,163.0000,273.0000,236.0000,85.0000,-55.0000,15.0000
226.0000,191.0000,89.0000,191.0000,89.0000,200.0000,16.0000,126.0000,89.0000,-131.0000,236.0000,236.0000,200.0000,200.0000,236.0000,236.0000,121.0000,85.0000,50.0000
156.0000,156.0000,126.0000,121.0000,52.0000,126.0000,89.0000,52.0000,89.0000,-94.0000,163.0000,126.0000,200.0000,52.0000,273.0000,200.0000,85.0000,-55.0000,-19.0000
85.0000,85.0000,89.0000,85.0000,16.0000,52.0000,-20.0000,16.0000,-57.0000,-204.0000,200.0000,126.0000,163.0000,52.0000,126.0000,163.0000,85.0000,-19.0000,-55.0000
226.0000,156.0000,163.0000,156.0000,16.0000,89.0000,-57.0000,16.0000,-131.0000,-351.0000,273.0000,126.0000,163.0000,126.0000,89.0000,52.0000,121.0000,-55.0000,-90.0000
156.0000,15.0000,126.0000,50.0000,-20.0000,16.0000,16.0000,-94.0000,-131.0000,-425.0000,200.0000,89.0000,126.0000,89.0000,126.0000,-131.0000,156.0000,-55.0000,-55.0000
261.0000,121.0000,200.0000,191.0000,126.0000,163.0000,52.0000,16.0000,-20.0000,-315.0000,273.0000,200.0000,163.0000,126.0000,126.0000,52.0000,297.0000,191.0000,121.0000
191.0000,156.0000,236.0000,226.0000,236.0000,236.0000,126.0000,89.0000,-20.0000,-278.0000,236.0000,200.0000,236.0000,126.0000,126.0000,126.0000,261.0000,191.0000,85.0000
121.0000,121.0000,236.0000,226.0000,236.0000,273.0000,126.0000,126.0000,-131.0000,-278.0000,310.0000,200.0000,273.0000,163.0000,16.0000,89.0000,332.0000,297.0000,121.0000
261.0000,191.0000,347.0000,332.0000,347.0000,310.0000,126.0000,236.0000,-94.0000,-167.0000,384.0000,236.0000,273.0000,200.0000,52.0000,236.0000,332.0000,297.0000,156.0000
261.0000,85.0000,310.0000,226.0000,273.0000,236.0000,163.0000,200.0000,-131.0000,-131.0000,200.0000,163.0000,200.0000,163.0000,16.0000,163.0000,261.0000,226.0000,156.0000
332.0000,226.0000,347.0000,297.0000,310.0000,310.0000,89.0000,310.0000,-167.0000,-94.0000,310.0000,310.0000,200.0000,347.0000,-57.0000,200.0000,332.0000,367.0000,226.0000
332.0000,297.0000,420.0000,332.0000,347.0000,384.0000,126.0000,310.0000,-167.0000,-57.0000,310.0000,347.0000,273.0000,347.0000,-20.0000,310.0000,402.0000,332.0000,226.0000
226.0000,297.0000,347.0000,367.0000,310.0000,347.0000,163.0000,273.0000,-131.0000,16.0000,273.0000,347.0000,200.0000,347.0000,-57.0000,347.0000,437.0000,367.0000,226.0000
332.0000,437.0000,347.0000,473.0000,310.0000,457.0000,89.0000,384.0000,-94.0000,52.0000,273.0000,420.0000,200.0000,384.0000,-57.0000,420.0000,402.0000,437.0000,191.0000
226.0000,437.0000,236.0000,402.0000,200.0000,420.0000,89.0000,310.0000,-131.0000,16.0000,163.0000,384.0000,163.0000,310.0000,-20.0000,384.0000,297.0000,367.0000,85.0000
191.0000,437.0000,200.0000,473.0000,163.0000,457.0000,52.0000,384.0000,-167.0000,52.0000,200.0000,457.0000,126.0000,420.0000,-20.0000,347.0000,332.0000,473.0000,121.0000
226.0000,437.0000,163.0000,508.0000,163.0000,494.0000,16.0000,457.0000,-94.0000,126.0000,126.0000,420.0000,126.0000,384.0000,16.0000,236.0000,261.0000,402.0000,121.0000
85.0000,332.0000,89.0000,367.0000,16.0000,347.0000,16.0000,384.0000,-94.0000,163.0000,16.0000,347.0000,16.0000,273.0000,16.0000,236.0000,191.0000,367.0000,85.0000
156.0000,402.0000,89.0000,402.0000,52.0000,420.0000,-20.0000,420.0000,-57.0000,200.0000,52.0000,420.0000,16.0000,310.0000,16.0000,384.0000,191.0000,402.0000,85.0000
15.0000,402.0000,16.0000,367.0000,-57.0000,347.0000,-20.0000,347.0000,16.0000,200.0000,-94.0000,347.0000,-57.0000,200.0000,89.0000,310.0000,85.0000,297.0000,-55.0000
-90.0000,367.0000,-94.0000,367.0000,-131.0000,310.0000,-131.0000,310.0000,-20.0000,236.0000,-131.0000,310.0000,-131.0000,163.0000,52.0000,236.0000,15.0000,402.0000,-55.0000
-90.0000,367.0000,-131.0000,367.0000,-94.0000,310.0000,-131.0000,310.0000,16.0000,273.0000,-131.0000,236.0000,-131.0000,126.0000,89.0000,200.0000,-55.0000,297.0000,-55.0000
-195.0000,226.0000,-204.0000,156.0000,-204.0000,163.0000,-94.0000,273.0000,-20.0000,273.0000,-241.0000,52.0000,-204.0000,16.0000,89.0000,52.0000,-160.0000,226.0000,-90.0000
-55.0000,226.0000,-204.0000,191.0000,-167.0000,200.0000,-167.0000,347.0000,16.0000,273.0000,-131.0000,52.0000,-167.0000,126.0000,52.0000,89.0000,-160.0000,297.0000,15.0000
-90.0000,226.0000,-241.0000,121.0000,-204.0000,200.0000,-94.0000,347.0000,89.0000,273.0000,-241.0000,52.0000,-167.0000,52.0000,126.0000,126.0000,-195.0000,261.0000,15.0000
-160.0000,261.0000,-278.0000,156.0000,-204.0000,236.0000,-57.0000,384.0000,126.0000,310.0000,-241.0000,126.0000,-241.0000,89.0000,89.0000,200.0000,-160.0000,367.0000,50.0000
-55.0000,332.0000,-167.0000,297.0000,-94.0000,347.0000,-57.0000,420.0000,163.0000,347.0000,-57.0000,163.0000,-131.0000,163.0000,126.0000,273.0000,-55.0000,402.0000,50.0000
-125.0000,297.0000,-131.0000,261.0000,-57.0000,310.0000,52.0000,347.0000,163.0000,273.0000,-57.0000,126.0000,-57.0000,89.0000,89.0000,236.0000,15.0000,402.0000,50.0000
-19.0000,437.0000,16.0000,437.0000,89.0000,420.0000,52.0000,420.0000,200.0000,310.0000,89.0000,273.0000,16.0000,273.0000,16.0000,236.0000,156.0000,508.0000,156.0000
50.0000,437.0000,52.0000,402.0000,89.0000,420.0000,89.0000,384.0000,236.0000,236.0000,52.0000,273.0000,16.0000,236.0000,52.0000,126.0000,121.0000,367.0000,85.0000
15.0000,261.0000,-20.0000,261.0000,-20.0000,310.0000,16.0000,347.0000,126.0000,200.0000,16.0000,236.0000,-57.0000,236.0000,-20.0000,126.0000,50.0000,332.0000,50.0000
85.0000,226.0000,-20.0000,261.0000,16.0000,384.0000,-20.0000,420.0000,126.0000,273.0000,52.0000,236.0000,-57.0000,384.0000,-20.0000,273.0000,50.0000,367.0000,121.0000
-55.0000,121.0000,-57.0000,191.0000,-57.0000,310.0000,16.0000,384.0000,126.0000,200.0000,-94.0000,236.0000,-94.0000,384.0000,-20.0000,273.0000,50.0000,261.0000,121.0000
-19.0000,191.0000,-20.0000,261.0000,16.0000,384.0000,16.0000,457.0000,126.0000,273.0000,16.0000,384.0000,-57.0000,457.0000,-57.0000,420.0000,156.0000,402.0000,226.0000
85.0000,297.0000,52.0000,332.0000,89.0000,420.0000,89.0000,494.0000,200.0000,347.0000,52.0000,457.0000,16.0000,384.0000,-20.0000,494.0000,156.0000,332.0000,191.0000
-19.0000,226.0000,-20.0000,261.0000,16.0000,347.0000,52.0000,384.0000,163.0000,347.0000,52.0000,420.0000,16.0000,347.0000,-57.0000,420.0000,121.0000,332.0000,156.0000
50.0000,332.0000,52.0000,332.0000,126.0000,384.0000,16.0000,457.0000,200.0000,384.0000,163.0000,457.0000,89.0000,457.0000,16.0000,420.0000,121.0000,402.0000,156.0000
-19.0000,297.0000,52.0000,297.0000,89.0000,310.0000,89.0000,384.0000,273.0000,347.0000,89.0000,384.0000,126.0000,420.0000,126.0000,420.0000,121.0000,297.0000,121.0000
50.0000,367.0000,52.0000,332.0000,126.0000,347.0000,52.0000,384.0000,236.0000,384.0000,126.0000,457.0000,89.0000,494.0000,52.0000,420.0000,156.0000,367.0000,156.0000
85.0000,332.0000,89.0000,332.0000,163.0000,347.0000,52.0000,384.0000,273.0000,347.0000,89.0000,420.0000,126.0000,420.0000,89.0000,384.0000,121.0000,261.0000,156.0000
-90.0000,191.0000,-20.0000,191.0000,52.0000,200.0000,52.0000,273.0000,310.0000,310.0000,16.0000,310.0000,52.0000,200.0000,89.0000,310.0000,85.0000,191.0000,156.0000
-55.0000,297.0000,16.0000,261.0000,89.0000,200.0000,-20.0000,347.0000,310.0000,310.0000,89.0000,310.0000,52.0000,200.0000,89.0000,347.0000,121.0000,261.0000,156.0000
-55.0000,332.0000,52.0000,226.0000,89.0000,200.0000,16.0000,310.0000,236.0000,310.0000,52.0000,273.0000,52.0000,200.0000,89.0000,310.0000,121.0000,261.0000,121.0000
85.0000,402.0000,126.0000,332.0000,163.0000,310.0000,52.0000,347.0000,126.0000,384.0000,200.0000,384.0000,126.0000,347.0000,52.0000,310.0000,297.0000,473.0000,226.0000
367.0000,578.0000,347.0000,508.0000,384.0000,494.0000,163.0000,494.0000,236.0000,420.0000,347.0000,494.0000,273.0000,384.0000,163.0000,384.0000,402.0000,543.0000,332.0000
226.0000,508.0000,310.0000,437.0000,347.0000,420.0000,236.0000,457.0000,236.0000,420.0000,236.0000,420.0000,236.0000,310.0000,163.0000,420.0000,332.0000,473.0000,297.0000
226.0000,473.0000,273.0000,437.0000,347.0000,457.0000,236.0000,531.0000,273.0000,494.0000,273.0000,457.0000,200.0000,420.0000,163.0000,531.0000,297.0000,543.0000,402.0000
121.0000,332.0000,200.0000,297.0000,310.0000,384.0000,347.0000,457.0000,347.0000,457.0000,200.0000,347.0000,236.0000,347.0000,236.0000,457.0000,156.0000,367.0000,332.0000
15.0000,226.0000,89.0000,156.0000,200.0000,236.0000,273.0000,347.0000,310.0000,347.0000,163.0000,273.0000,200.0000,347.0000,200.0000,236.0000,121.0000,332.0000,297.0000
121.0000,332.0000,126.0000,226.0000,236.0000,236.0000,163.0000,347.0000,273.0000,347.0000,200.0000,273.0000,200.0000,347.0000,163.0000,236.0000,121.0000,297.0000,261.0000
50.0000,261.0000,52.0000,156.0000,163.0000,163.0000,200.0000,273.0000,163.0000,310.0000,52.0000,236.0000,126.0000,200.0000,89.0000,310.0000,85.0000,261.0000,191.0000
85.0000,297.0000,52.0000,226.0000,200.0000,236.0000,200.0000,310.0000,126.0000,236.0000,163.0000,347.0000,163.0000,310.0000,-20.0000,420.0000,156.0000,402.0000,226.0000
156.0000,332.0000,163.0000,261.0000,273.0000,310.0000,200.0000,310.0000,163.0000,89.0000,200.0000,384.0000,236.0000,347.0000,16.0000,420.0000,156.0000,402.0000,156.0000
156.0000,332.0000,126.0000,297.0000,200.0000,347.0000,126.0000,310.0000,163.0000,52.0000,163.0000,420.0000,163.0000,420.0000,-57.0000,457.0000,226.0000,437.0000,121.0000
297.0000,437.0000,236.0000,402.0000,273.0000,457.0000,52.0000,384.0000,163.0000,89.0000,236.0000,457.0000,163.0000,457.0000,-57.0000,420.0000,297.0000,473.0000,191.0000
226.0000,332.0000,236.0000,332.0000,236.0000,384.0000,126.0000,273.0000,163.0000,-20.0000,163.0000,310.0000,200.0000,384.0000,16.0000,236.0000,297.0000,402.0000,191.0000
226.0000,367.0000,310.0000,402.0000,310.0000,494.0000,200.0000,384.0000,126.0000,126.0000,347.0000,420.0000,273.0000,457.0000,16.0000,273.0000,367.0000,613.0000,297.0000
297.0000,508.0000,384.0000,543.0000,420.0000,604.0000,347.0000,494.0000,200.0000,273.0000,384.0000,531.0000,347.0000,494.0000,126.0000,384.0000,367.0000,613.0000,297.0000
261.0000,473.0000,310.0000,508.0000,310.0000,531.0000,347.0000,420.0000,163.0000,236.0000,273.0000,531.0000,236.0000,494.0000,89.0000,384.0000,332.0000,508.0000,297.0000
402.0000,437.0000,310.0000,508.0000,310.0000,494.0000,310.0000,457.0000,236.0000,273.0000,310.0000,494.0000,200.0000,531.0000,126.0000,494.0000,332.0000,473.0000,367.0000
297.0000,297.0000,273.0000,367.0000,273.0000,420.0000,384.0000,384.0000,310.0000,236.0000,200.0000,384.0000,200.0000,384.0000,310.0000,457.0000,261.0000,367.0000,297.0000
226.0000,297.0000,236.0000,367.0000,236.0000,457.0000,310.0000,420.0000,273.0000,236.0000,236.0000,420.0000,200.0000,494.0000,310.0000,384.0000,261.0000,508.0000,297.0000
261.0000,402.0000,273.0000,473.0000,310.0000,604.0000,310.0000,494.0000,236.0000,310.0000,310.0000,494.0000,273.0000,494.0000,273.0000,384.0000,226.0000,508.0000,261.0000
85.0000,297.0000,163.0000,367.0000,236.0000,494.0000,310.0000,420.0000,200.0000,310.0000,236.0000,420.0000,273.0000,420.0000,200.0000,310.0000,191.0000,473.0000,261.0000
156.0000,332.0000,236.0000,437.0000,310.0000,568.0000,273.0000,531.0000,236.0000,384.0000,347.0000,494.0000,310.0000,568.0000,200.0000,384.0000,261.0000,543.0000,332.0000
191.0000,332.0000,236.0000,473.0000,273.0000,568.0000,273.0000,531.0000,236.0000,420.0000,273.0000,531.0000,310.0000,531.0000,310.0000,494.0000,261.0000,437.0000,261.0000
156.0000,367.0000,200.0000,508.0000,236.0000,604.0000,236.0000,531.0000,236.0000,420.0000,236.0000,604.0000,236.0000,604.0000,273.0000,457.0000,332.0000,543.0000,297.0000
297.0000,473.0000,310.0000,613.0000,347.0000,715.0000,273.0000,604.0000,273.0000,420.0000,347.0000,678.0000,310.0000,678.0000,273.0000,494.0000,437.0000,543.0000,332.0000
261.0000,367.0000,347.0000,578.0000,347.0000,641.0000,347.0000,494.0000,236.0000,347.0000,310.0000,604.0000,347.0000,604.0000,273.0000,420.0000,473.0000,543.0000,297.0000
332.0000,437.0000,457.0000,649.0000,457.0000,678.0000,236.0000,531.0000,126.0000,347.0000,420.0000,568.0000,420.0000,604.0000,200.0000,494.0000,543.0000,649.0000,261.0000
332.0000,437.0000,494.0000,613.0000,457.0000,641.0000,200.0000,420.0000,126.0000,236.0000,420.0000,457.0000,420.0000,457.0000,273.0000,494.0000,508.0000,473.0000,156.0000
261.0000,332.0000,457.0000,543.0000,384.0000,494.0000,200.0000,310.0000,163.0000,200.0000,420.0000,420.0000,420.0000,420.0000,273.0000,420.0000,473.0000,473.0000,191.0000
437.0000,402.0000,531.0000,613.0000,457.0000,568.0000,236.0000,420.0000,273.0000,310.0000,531.0000,568.0000,494.0000,531.0000,273.0000,494.0000,473.0000,543.0000,297.0000
297.0000,367.0000,457.0000,543.0000,457.0000,531.0000,384.0000,457.0000,310.0000,273.0000,420.0000,531.0000,457.0000,531.0000,273.0000,457.0000,402.0000,543.0000,261.0000
226.0000,473.0000,420.0000,613.0000,457.0000,568.0000,384.0000,531.0000,310.0000,310.0000,457.0000,604.0000,420.0000,604.0000,200.0000,420.0000,402.0000,613.0000,297.0000
261.0000,473.0000,420.0000,578.0000,457.0000,531.0000,420.0000,457.0000,420.0000,310.0000,457.0000,531.0000,494.0000,494.0000,273.0000,347.0000,332.0000,402.0000,261.0000
226.0000,367.0000,384.0000,437.0000,384.0000,310.0000,457.0000,310.0000,420.0000,236.0000,457.0000,420.0000,494.0000,347.0000,310.0000,347.0000,367.0000,332.0000,261.0000
402.0000,402.0000,457.0000,437.0000,494.0000,347.0000,420.0000,310.0000,420.0000,236.0000,568.0000,420.0000,531.0000,347.0000,347.0000,310.0000,402.0000,332.0000,261.0000
332.0000,297.0000,384.0000,332.0000,384.0000,236.0000,420.0000,163.0000,384.0000,163.0000,420.0000,273.0000,457.0000,200.0000,384.0000,163.0000,261.0000,191.0000,121.0000
226.0000,261.0000,310.0000,261.0000,310.0000,200.0000,310.0000,163.0000,347.0000,200.0000,347.0000,236.0000,384.0000,163.0000,310.0000,236.0000,226.0000,261.0000,121.0000
261.0000,332.0000,310.0000,261.0000,347.0000,200.0000,310.0000,163.0000,384.0000,236.0000,310.0000,126.0000,347.0000,89.0000,310.0000,310.0000,156.0000,156.0000,121.0000
191.0000,191.0000,163.0000,121.0000,200.0000,52.0000,347.0000,52.0000,347.0000,163.0000,163.0000,16.0000,273.0000,52.0000,236.0000,200.0000,121.0000,85.0000,121.0000
297.0000,191.0000,163.0000,156.0000,200.0000,126.0000,273.0000,126.0000,347.0000,200.0000,200.0000,126.0000,200.0000,200.0000,126.0000,163.0000,85.0000,121.0000,156.0000
191.0000,191.0000,126.0000,121.0000,163.0000,52.0000,310.0000,89.0000,347.0000,163.0000,89.0000,52.0000,163.0000,89.0000,236.0000,126.0000,15.0000,-19.0000,85.0000
85.0000,156.0000,89.0000,50.0000,89.0000,-20.0000,236.0000,52.0000,310.0000,126.0000,126.0000,52.0000,163.0000,89.0000,236.0000,52.0000,15.0000,15.0000,121.0000
156.0000,191.0000,163.0000,85.0000,163.0000,52.0000,200.0000,126.0000,273.0000,126.0000,236.0000,89.0000,200.0000,126.0000,273.0000,52.0000,15.0000,-19.0000,121.0000
121.0000,50.0000,126.0000,-55.0000,89.0000,-20.0000,163.0000,16.0000,163.0000,52.0000,163.0000,-20.0000,163.0000,16.0000,236.0000,16.0000,-19.0000,-55.0000,50.0000
261.0000,85.0000,163.0000,15.0000,126.0000,52.0000,89.0000,52.0000,163.0000,52.0000,273.0000,-20.0000,163.0000,16.0000,163.0000,52.0000,50.0000,50.0000,121.0000
261.0000,50.0000,200.0000,-19.0000,126.0000,52.0000,126.0000,52.0000,163.0000,52.0000,236.0000,-20.0000,163.0000,52.0000,163.0000,126.0000,50.0000,-19.0000,85.0000
121.0000,15.0000,163.0000,-19.0000,89.0000,52.0000,89.0000,52.0000,52.0000,89.0000,200.0000,89.0000,89.0000,200.0000,52.0000,126.0000,85.0000,50.0000,121.0000
121.0000,50.0000,200.0000,50.0000,126.0000,163.0000,52.0000,163.0000,89.0000,126.0000,236.0000,163.0000,89.0000,200.0000,16.0000,200.0000,121.0000,85.0000,156.0000
50.0000,-55.0000,126.0000,-19.0000,52.0000,52.0000,52.0000,52.0000,16.0000,16.0000,126.0000,52.0000,52.0000,89.0000,16.0000,163.0000,50.0000,-19.0000,50.0000
85.0000,15.0000,89.0000,85.0000,89.0000,126.0000,-20.0000,126.0000,-20.0000,52.0000,200.0000,163.0000,126.0000,200.0000,-20.0000,200.0000,121.0000,121.0000,85.0000
